Time,Fp1,Fp2,F3,F4,C3,C4,P3,P4,O1,O2,F7,F8,T7,T8,P7,P8,Fz,Cz,Pz,ref
-4000.0000,-44.0965,143.9063,-168.4431,-28.6817,133.1662,259.8231,-52.8288,-116.7704,-413.4373,-229.1934,112.3179,212.0676,281.1407,144.2574,-137.9249,-376.0747,-83.7736,383.5064,-102.5422,384.0240
-3992.1875,39.7595,408.5007,30.8496,126.9978,226.5554,281.8716,-296.3297,-397.3005,-479.5233,-512.5782,353.6212,380.1031,302.9725,200.5602,-272.0965,-735.8051,317.3866,369.9866,-373.5166,370.4401
-3984.3750,282.6678,549.1237,206.1763,441.7198,332.9633,241.9319,-563.8789,-554.8416,-643.6664,-673.0146,459.9491,415.1610,299.8019,122.8767,-431.3231,-568.5703,347.5778,337.4853,-697.5177,333.0107
-3976.5625,355.8422,766.0196,392.7881,514.7036,449.6430,213.2604,-600.1830,-775.1310,-870.6261,-712.2198,539.5349,606.4976,307.8814,202.4758,-506.3381,-979.1484,349.9979,487.2617,-805.2715,484.8977
-3968.7500,532.0801,910.9927,538.4755,797.7618,489.3809,181.6543,-898.4648,-999.3799,-843.5501,-1049.4126,689.1882,647.9063,275.0004,95.1475,-658.3300,-877.7298,736.5040,459.0892,-1089.9894,456.0576
-3960.9375,599.5357,1088.1768,790.3892,1077.0588,635.3298,144.2620,-905.5775,-1117.4259,-1116.2932,-1096.4336,687.0385,611.5196,274.3075,56.0371,-815.1432,-1002.1306,557.2020,603.1312,-1167.5154,615.9005
-3953.1250,639.4963,1342.8907,1055.8281,1258.8666,720.7879,231.3895,-1158.2047,-1294.9756,-1300.5642,-1277.9694,883.3957,771.6549,251.1045,141.4471,-1142.4808,-1408.1023,877.4047,649.6874,-1237.5229,677.1633
-3945.3125,845.2827,1552.4135,1417.0914,1711.5052,865.0569,230.3294,-1535.0699,-1414.7172,-1611.0499,-1510.7424,1211.5692,844.5895,249.6961,138.6555,-1668.0624,-1312.2811,941.4329,616.0582,-1562.7415,651.8130
-3937.5000,936.3331,1999.2000,1957.6442,1874.4124,1188.6012,188.5385,-1768.6947,-1538.1879,-2219.3474,-1674.2975,1646.0076,1390.7750,243.5506,389.1306,-2308.4253,-1847.2485,820.6877,572.7250,-1722.7413,619.5670
-3929.6875,1275.8048,1884.4091,2498.6409,2178.7439,1475.5779,219.1651,-2223.9517,-1625.2595,-2571.2812,-2095.5103,1969.8998,1532.3717,163.8170,750.0177,-2876.4097,-1977.8741,1124.3740,319.7946,-1810.3944,390.5656
-3921.8750,1572.9574,1799.2690,2623.2825,2266.7556,1605.2230,239.4366,-2285.5989,-1428.6782,-2859.5762,-2086.0874,1877.4816,1442.6178,-73.2732,915.5676,-3196.7307,-1971.8530,857.7103,378.4756,-1481.4102,473.1193
-3914.0625,1535.4425,1623.4785,2403.2551,2053.1060,1388.2286,429.0596,-2029.9025,-1098.7382,-2831.5129,-1833.2871,1661.4182,1264.2205,-399.0243,699.4957,-3199.6816,-2200.5303,1135.3813,628.4952,-925.0264,762.6060
-3906.2500,1576.7188,1458.4645,2227.0400,1884.2672,849.0341,590.4892,-1839.4288,-613.9778,-2574.6345,-1608.6851,1526.1340,946.6146,-605.9888,12.2348,-3195.8345,-1759.3998,1704.8721,747.3183,-957.8332,904.2673
-3898.4375,1781.1495,1419.5848,2144.0481,1808.5870,659.0110,586.0797,-1483.8129,-259.0388,-2482.6479,-1329.9307,1483.9796,-124.8497,-647.8123,-66.8720,-3061.8586,-1668.1289,2084.4934,606.3243,-1109.5027,786.1738
-3890.6250,1822.4132,1394.5161,2108.9272,1779.7214,406.8007,262.4763,-1484.4172,-223.2926,-1938.8995,-1333.4062,1451.6511,250.4880,-750.8453,121.8325,-2844.1094,-1270.1018,2053.9543,-155.8646,-1389.4094,-23.4926
-3882.8125,1780.2810,1389.9899,2059.3938,1773.4545,-5.8459,-406.5826,-1278.4856,-200.9900,-1297.6313,-946.3735,928.8957,501.3541,-1052.3408,3.0836,-2197.8262,-776.5253,2010.9912,-895.5026,-1189.8080,-801.6246
-3875.0000,1609.1636,1223.4707,1552.8878,1568.2075,-435.4782,-796.6393,-793.5291,-156.6937,-635.3877,-464.3558,463.1485,662.2215,-1221.8451,52.3470,-1494.5432,-776.0098,1804.0333,-1271.1294,-590.2122,-1208.6406
-3867.1875,1299.0693,1162.9580,859.3995,1505.9956,-646.0993,-932.6976,-570.5752,-6.4127,-124.1371,-317.3807,104.4261,563.0862,-1175.3612,24.6041,-1051.2765,-191.5198,1528.1294,-1362.7645,-376.6378,-1332.5157
-3859.3750,760.8533,1226.2936,658.7949,650.6698,-584.8506,-1017.9037,-75.7747,194.7095,180.9406,137.4129,-203.4441,514.7978,-1003.0345,-25.2830,-447.1841,-33.2000,742.0835,-1296.5355,-181.2242,-1300.4780
-3851.5625,570.5620,1181.5479,199.1326,-135.7361,-783.6825,-1251.2007,123.9013,210.7084,887.8988,444.0692,-144.3892,354.4247,-979.8201,-223.2572,191.7664,305.9522,833.9933,-1550.3950,-93.9125,-1611.2311
-3843.7500,609.4642,1011.9668,-358.3329,-518.9385,-970.3450,-1473.3511,188.6774,349.8434,1350.9915,910.8329,-110.1705,-51.7917,-1018.4714,-520.0920,621.8115,953.2374,554.1102,-1612.1013,45.5347,-1721.2253
-3835.9375,527.7401,370.7537,-668.3836,-845.7659,-871.6326,-1373.1465,353.7762,478.3171,1399.3888,1219.9426,-122.6064,-318.6430,-881.7917,-531.5709,823.1506,1001.8100,295.6062,-1405.4283,452.3469,-1511.8202
-3828.1250,429.2527,-252.2405,-703.1744,-767.3448,-717.7088,-1144.7390,354.0208,625.9797,1428.9695,1070.2183,-225.8332,-789.2892,-579.9406,-672.8537,967.6262,1473.5334,126.3823,-1286.5441,490.3670,-1372.8220
-3820.3125,-17.9500,-801.9769,-661.6536,-827.6239,-451.5231,-877.0790,760.4788,774.9025,1350.7721,1178.7362,-621.8238,-1073.6960,-202.8720,-627.8864,1262.2942,1505.4851,-568.5617,-988.3985,635.6483,-1045.6426
-3812.5000,-604.1848,-1137.7482,-685.1221,-883.9243,-435.3814,-638.4611,1064.8617,675.7774,1721.5061,1149.2046,-1009.8728,-1202.1550,-75.8805,-537.9673,1711.8661,1398.3235,-591.5127,-899.2914,749.9093,-937.9982
-3804.6875,-922.0773,-1628.2263,-802.2399,-848.8764,-548.9367,-530.5388,1275.5027,738.9688,2182.5374,1282.9579,-1529.6259,-1462.3434,-40.6195,-541.7655,2104.6912,1786.4614,-840.1110,-823.8915,814.4816,-857.6718
-3796.8750,-1350.4082,-1948.1556,-920.7568,-1136.2535,-589.9400,-422.0671,1595.6881,765.7354,2497.0962,1527.2909,-1901.8530,-1465.0046,65.1679,-362.0164,2460.0398,1621.1208,-1164.1627,-647.9356,1049.6462,-681.5298
-3789.0625,-1515.6279,-2215.9924,-1058.1310,-1265.5105,-687.8428,-334.4940,1601.9614,735.6243,2937.7693,1456.7360,-1962.9872,-1524.5879,116.0223,-386.1757,2685.4629,1878.8617,-1118.0746,-630.8987,950.9399,-678.6934
-3781.2500,-1684.8319,-2486.8552,-1237.4645,-1397.7358,-678.7476,-287.9303,1824.2255,848.5539,3043.4500,1639.2050,-2138.1426,-1625.2119,198.8488,-378.3500,3052.8679,2020.6278,-1639.9886,-475.8803,1024.2629,-532.6518
-3773.4375,-1902.6395,-2525.3291,-1389.3547,-1615.5642,-754.2524,-250.9780,1925.9045,839.9250,3285.5364,1665.1071,-2140.9136,-1552.4565,234.0453,-343.1300,3336.6631,1858.7787,-1647.5037,-442.4839,1118.0347,-510.0461
-3765.6250,-1872.5314,-2632.9314,-1544.3151,-1548.4768,-832.8608,-254.1489,1914.4709,903.2401,3378.5615,1650.9193,-2108.7922,-1555.8372,194.1126,-458.0268,3249.3484,2208.8772,-1759.0956,-406.2319,1143.7290,-479.7396
-3757.8125,-1996.5745,-2541.7134,-1562.3905,-1706.5415,-772.6171,-193.4881,2077.9097,993.4610,3203.4524,1884.6226,-2085.8428,-1421.3998,107.0022,-436.0853,3042.8809,1923.8480,-1988.8723,-242.1558,1438.3185,-303.1274
-3750.0000,-1909.4211,-2416.3279,-1617.2281,-1689.4146,-898.1774,-132.6519,1945.5548,972.9303,3028.5813,1787.5571,-1916.6979,-1324.7974,-17.9380,-450.9579,2872.6160,1970.0352,-1656.4343,-324.9199,1556.1499,-382.9781
-3742.1875,-1858.4547,-2397.1868,-1638.2305,-1672.4767,-916.9408,-113.0480,1920.0067,1095.2625,2922.5520,1943.3226,-1898.7687,-1305.4451,-145.1109,-543.0560,2771.1440,2011.0902,-1852.2136,-231.9320,1672.8162,-286.2570
-3734.3750,-1851.8400,-2177.4297,-1591.5392,-1805.9117,-903.0531,-99.8228,1853.1335,1140.2987,2702.2043,1909.7803,-1628.1934,-1143.4744,-204.6623,-493.5137,2592.3184,1569.8135,-1670.3638,-150.3319,1816.1774,-196.7322
-3726.5625,-1597.6016,-2095.1123,-1547.2076,-1620.7450,-929.5694,-125.0318,1525.8634,1180.9785,2515.5061,1726.8510,-1398.0114,-1205.9456,-267.6548,-594.3904,2483.0872,1714.2003,-1416.8909,-171.1944,1679.1554,-217.8986
-3718.7500,-1478.2043,-1937.6827,-1385.6907,-1641.4313,-801.9399,-106.1221,1389.7638,1266.8572,1967.9915,1735.1222,-1196.6923,-1040.3094,-249.5349,-466.1328,2271.0127,1313.7852,-1474.2975,-10.9559,1723.3245,-46.2442
-3710.9375,-1219.2566,-1640.7397,-1260.5991,-1487.5869,-710.7694,-13.6950,995.2369,1205.3323,1604.0908,1375.9843,-847.8254,-837.1560,-231.9112,-375.3341,1728.4940,1060.9476,-970.1436,-28.2301,1591.0940,-53.2258
-3703.1250,-919.4380,-1408.0011,-1134.6367,-1256.8925,-617.7690,80.5458,676.5739,1218.7146,1059.1058,1164.7299,-682.1257,-706.2087,-175.4827,-282.7054,1297.8375,957.0466,-952.1387,101.2790,1464.7487,84.6311
-3695.3125,-812.8328,-1052.5038,-946.8451,-1184.4248,-463.9812,198.5537,492.7585,1035.9561,610.9660,867.3347,-417.6475,-368.4955,-132.2920,-57.2813,964.0038,287.9819,-670.3632,213.5311,1391.2521,209.9490
-3687.5000,-481.6722,-788.5074,-823.4863,-852.4205,-374.6606,253.0698,97.5116,788.8004,356.4521,506.5203,-182.6259,-240.2790,-78.5895,-41.3283,640.7449,255.5453,-305.0227,198.2556,1014.3375,190.8992
-3679.6875,-338.4110,-467.4669,-675.0073,-708.3306,-223.2502,295.6386,22.4047,603.8103,-18.9059,428.8539,-104.5313,-15.0149,-0.8180,109.6989,452.6124,-193.7101,-444.6160,347.0232,871.5678,340.7804
-3671.8750,-186.7129,-101.0142,-585.0562,-589.8235,-130.4067,315.6151,-185.2083,323.3161,-159.7453,107.6901,171.9991,225.6628,56.3665,239.1551,278.9528,-555.4753,-46.7591,294.1797,563.3076,279.9606
-3664.0625,61.8944,79.2853,-475.1912,-270.4161,-55.6845,318.4402,-373.8946,172.7773,-354.5970,-45.5226,210.4107,302.1798,95.4058,240.4662,125.2181,-529.2433,-46.0055,336.1518,208.9946,317.3815
-3656.2500,57.7335,324.7827,-293.0597,-239.7900,93.2648,358.4702,-415.2715,-51.4559,-623.1158,-163.4092,322.0406,524.8995,207.6490,389.0039,7.7791,-981.7040,19.9598,478.3053,59.9986,462.3543
-3648.4375,276.9196,441.5736,-173.5650,51.1657,142.5341,371.8012,-667.2629,-264.2924,-696.1624,-527.8972,444.0002,574.9141,219.1931,400.8529,-134.2645,-834.7380,344.2894,421.7210,-286.6035,402.9261
-3640.6250,307.3471,578.5446,-32.8089,257.3564,286.0246,405.3306,-639.9565,-383.8248,-969.8574,-466.0699,367.1722,645.1132,252.9439,433.9109,-256.0000,-960.4202,125.8334,597.3223,-436.9071,586.0936
-3632.8125,289.3990,846.1073,101.6142,382.1533,349.1458,469.4599,-729.9437,-619.6572,-992.7990,-669.5268,465.9656,745.9131,279.3074,496.5908,-422.0268,-1203.4034,390.0039,620.5095,-563.4938,613.9128
-3625.0000,443.3955,896.5401,223.9984,712.8838,364.1921,485.4870,-830.9468,-683.4855,-1136.6804,-846.9863,407.6783,651.5959,331.5784,400.1829,-599.0511,-906.3281,331.1217,708.5689,-730.0775,709.5611
-3617.1875,326.4180,1027.9500,362.4521,771.6251,468.2711,517.5195,-659.8357,-731.1924,-1338.4330,-898.3257,364.3946,756.2653,362.8657,503.8068,-686.9775,-1292.1289,213.2424,878.6187,-639.5365,899.2387
-3609.3750,412.2801,1081.1343,492.7703,1034.1835,417.1743,577.3561,-790.8318,-786.9881,-1291.2307,-1178.7629,385.9367,704.7235,310.9609,526.2535,-894.0120,-1171.9960,544.2200,793.4346,-768.0811,826.8950
-3601.5625,393.8905,1205.9791,693.8502,1263.4742,473.8025,671.8901,-702.0353,-697.9581,-1466.1876,-1130.3822,222.1936,615.8631,331.7580,545.4126,-1102.2545,-1309.9900,313.9230,849.9210,-754.8185,907.8076
-3593.7500,337.9320,1504.2070,937.4053,1349.1650,535.8617,734.8271,-793.7338,-787.4139,-1636.6105,-1370.4794,319.8751,862.3974,356.9592,754.0015,-1416.0006,-1774.4635,575.0601,834.7823,-743.0447,909.6056
-3585.9375,567.4320,1594.8112,1252.4336,1755.2869,706.3490,722.1567,-1069.9622,-805.3641,-1956.4828,-1797.0809,563.9901,1216.3120,306.5626,851.0021,-1915.2615,-1726.3534,697.6663,645.9968,-974.7824,735.2371
-3578.1250,667.9820,1450.3896,1726.5370,1785.4221,1035.8673,794.4773,-1151.0968,-776.2008,-2484.2134,-1917.5479,1114.1255,1105.2040,268.1710,1216.0168,-2366.4290,-2181.0776,585.2885,610.1771,-806.4161,732.4553
-3570.3125,1027.7269,1355.0946,1993.8574,1653.7133,1268.5614,806.9293,-1477.0020,-731.7886,-2594.6118,-2097.7312,1566.4457,1006.2305,132.9264,1117.1904,-2694.3430,-2180.4907,909.1202,411.4528,-767.7989,543.7906
-3562.5000,1272.6801,1284.9078,1916.3837,1582.1752,1267.4213,806.5062,-1519.6736,-479.1215,-2753.6689,-1775.6364,1491.9364,969.3763,-89.1740,1078.5162,-2885.9961,-2008.5421,696.1409,590.8204,-771.9348,722.8752
-3554.6875,1368.7087,1171.7454,1724.0143,1431.6796,1113.3481,801.1175,-1495.1808,-305.3066,-2733.4907,-1458.3529,1337.4884,852.5554,-132.2226,887.9044,-2900.4753,-2099.3835,1283.2343,726.1965,-853.9007,867.1643
-3546.8750,1429.3306,1164.1050,1711.2433,1387.7504,1102.8364,791.2568,-1658.0457,-173.8573,-2571.5535,-1476.4083,1326.6145,841.2646,-253.7219,544.8325,-2992.2793,-1568.4668,1659.9391,720.0701,-1324.2312,854.4598
-3539.0625,1392.2372,1128.6896,1668.7769,1386.0864,1099.5933,825.6270,-1519.5398,-144.0650,-2511.1958,-1266.0856,1322.9910,876.1996,-439.9675,578.0123,-2891.7065,-1471.1051,1622.9062,441.1591,-1505.2101,569.2047
-3531.2500,1383.4226,1156.5078,1619.6138,1342.6782,684.6210,410.2272,-1424.6694,-157.9450,-1832.4093,-1026.3945,1311.6359,865.3667,-671.9558,420.4496,-2430.7539,-1014.3308,1577.1763,-197.5382,-1481.8365,-111.6269
-3523.4375,1341.9556,1115.5912,1573.8068,1300.5980,125.9648,-294.8907,-1105.3987,-58.4366,-1187.1506,-635.2969,1268.5940,785.8027,-897.6376,8.1817,-1782.3824,-369.0413,1534.7867,-937.9734,-1280.0682,-890.3132
-3515.6250,1189.0118,965.1486,1418.5587,1149.0215,-285.1646,-668.5156,-602.4949,-68.3392,-614.2444,-281.5711,1114.0569,557.7264,-977.8087,37.4272,-1133.3894,-385.0963,1345.9071,-1367.9290,-801.6744,-1339.3350
-3507.8125,1159.2584,936.8251,1053.5178,1119.6158,-574.1221,-845.9987,-418.3342,6.9927,-31.0082,-173.6021,714.6885,342.7744,-1009.8157,-141.1770,-730.1236,162.1632,1315.2344,-1605.7712,-729.0275,-1601.5739
-3500.0000,1226.6451,1040.5697,418.6367,624.3342,-690.9550,-999.3912,49.0459,143.5201,283.4905,254.5801,154.4181,151.8996,-943.7090,-333.6820,-229.6336,292.6847,994.6772,-1498.5398,-523.1689,-1524.9844
-3492.1875,977.0616,1074.3026,115.8246,-152.9447,-880.7614,-1115.7952,295.5384,207.1342,893.1564,424.8674,74.1630,-1.9846,-875.5973,-560.1743,309.9503,460.3571,920.1706,-1568.3370,-282.1924,-1631.8270
-3484.3750,779.9340,1089.3975,-209.5264,-489.7836,-1021.1450,-1217.8104,445.5172,432.2354,1149.3959,609.6491,-65.6812,-398.4937,-721.0798,-810.2697,679.0416,974.5939,511.1262,-1515.7589,-94.7115,-1603.0494
-3476.5625,548.4417,366.0673,-344.2029,-861.9993,-859.9042,-1057.2312,749.2018,663.0298,1116.3821,764.1556,-51.9241,-605.4217,-412.9543,-760.7584,980.8328,757.5875,137.7051,-1285.5928,199.4876,-1357.4974
-3468.7500,458.2518,-285.0246,-552.5483,-916.9316,-698.3898,-932.4046,685.2113,821.1592,1341.7775,661.0099,-38.8859,-886.1123,-106.5787,-820.9957,1282.9705,1093.9612,46.6157,-1442.2120,248.0361,-1515.6765
-3460.9375,-53.0245,-832.2887,-799.9669,-1111.9733,-539.9944,-809.7350,1060.1542,1013.2387,1566.1680,997.8282,-430.9825,-1168.9812,126.6512,-736.3817,1803.0328,1280.3356,-712.5822,-1459.0089,647.5495,-1529.1178
-3453.1250,-702.7559,-1304.0684,-1073.8048,-1409.5004,-627.0717,-713.5681,1409.6929,958.9148,2058.2051,1197.2729,-740.5484,-1257.3628,185.3818,-714.2552,2261.6631,1478.3148,-800.2239,-1471.3306,1122.6968,-1539.9741
-3445.3125,-1004.9186,-1922.3757,-1134.0687,-1465.4845,-686.6284,-661.9067,1567.8071,934.1926,2394.9114,1500.3234,-1167.5862,-1500.2826,200.6074,-811.6421,2416.8601,2183.9480,-1032.2886,-1313.1855,1311.4583,-1378.5378
-3437.5000,-1376.2867,-2292.9563,-929.5071,-1659.6932,-516.4127,-601.4946,1879.7800,843.3324,2482.5081,1884.2588,-1476.8630,-1735.4857,259.5840,-826.2792,2506.8796,2197.4485,-1333.5724,-941.3042,1537.1160,-984.9374
-3429.6875,-1442.6531,-2569.6025,-811.9160,-1620.9298,-434.2281,-556.1315,1810.8013,775.5223,2593.2288,1850.2572,-1505.1636,-1984.7677,341.5045,-1001.9705,2398.9153,2676.0132,-1189.8307,-793.5081,1433.8557,-828.4510
-3421.8750,-1463.5154,-2836.8320,-688.8046,-1571.6771,-309.5804,-579.3262,2005.3741,786.2729,2525.5657,2005.8372,-1749.0128,-2155.6421,465.8718,-1100.2214,2333.4788,2939.1843,-1564.5974,-565.2909,1445.1774,-587.6281
-3414.0625,-1555.1501,-2821.8867,-672.4160,-1628.2184,-254.7203,-560.3215,2019.2721,654.3334,2388.2715,1944.7832,-1657.6614,-1953.3483,557.4353,-1082.2716,2198.3340,2764.6602,-1481.1304,-371.9032,1492.8452,-390.6991
-3406.2500,-1386.8342,-2794.0789,-682.0610,-1423.8268,-226.9548,-642.4319,2007.1696,569.4050,2335.0728,1745.7750,-1520.4087,-1926.2080,658.8890,-1202.4391,2184.1841,2711.2004,-1488.7026,-341.6587,1343.5387,-361.9300
-3398.4375,-1491.1371,-2686.9597,-644.2908,-1564.0714,-113.8313,-677.2040,1931.5487,495.9481,2255.4006,1742.2853,-1407.8218,-1740.7611,733.6899,-1091.2640,2069.4902,2595.2427,-1735.9164,-197.0963,1447.7222,-227.5499
-3390.6250,-1450.1654,-2574.6189,-673.2117,-1557.0621,-105.4601,-630.7361,1826.2991,317.8531,2110.1814,1599.1819,-1214.9874,-1585.0944,705.7400,-1008.8369,1963.1627,2448.6819,-1377.8298,-223.3372,1382.2900,-255.8526
-3382.8125,-1465.8102,-2484.9744,-727.7385,-1467.6816,25.2598,-609.9343,1807.5159,300.2328,2049.5120,1761.5668,-1342.8204,-1528.1257,616.1451,-952.0641,1904.3118,2351.6729,-1606.3663,-26.2831,1330.3258,-58.9272
-3375.0000,-1558.0032,-2189.9150,-782.7693,-1559.8618,155.4305,-480.6960,1639.3253,207.1819,1878.4938,1591.5618,-1286.2229,-1251.7373,488.0079,-896.8356,1735.0487,2179.2698,-1488.4430,307.1796,1341.9500,276.2040
-3367.1875,-1321.1663,-1952.8967,-795.7598,-1288.0349,106.6040,-491.4802,1330.2495,156.2369,1896.6914,1096.6896,-1040.6230,-1154.3878,328.8740,-982.6184,1717.9156,2124.0662,-1216.4661,335.5845,1120.6815,301.8719
-3359.3750,-1303.1077,-1722.7186,-740.5115,-1199.0090,52.9837,-472.0833,1015.5003,136.6090,1651.2778,890.1725,-764.8416,-987.8782,163.9471,-817.2015,1695.1204,2062.2598,-1235.2875,391.1471,1137.7389,349.5016
-3351.5625,-1094.4375,-1478.9711,-705.6224,-1096.3967,-95.0325,-363.1065,643.4840,133.6884,834.6635,516.3981,-361.4605,-805.7940,89.6260,-635.1823,1579.0626,1981.2172,-674.4688,356.2581,1134.5267,321.7904
-3343.7500,-830.9890,-1286.5239,-656.9536,-939.0165,-118.2975,-239.4027,469.3411,329.6297,216.0007,525.5140,-348.3369,-683.0031,-6.9453,-402.4253,777.8906,2024.1484,-588.8725,551.0583,1045.1857,536.0329
-3335.9375,-731.7853,-765.3588,-626.4984,-945.8984,-86.8077,13.0363,241.0910,322.4324,-309.7223,478.5394,-354.4791,-248.4938,-196.7587,-77.9151,104.6165,1937.9995,-596.5215,757.5662,931.7302,743.1272
-3328.1250,-454.4647,-417.1271,-743.9136,-491.6760,-129.2195,189.5548,-208.9371,314.4362,-580.1340,320.7950,-251.5199,-34.9180,-387.4697,62.6924,-346.4147,1963.1450,-319.0157,721.1153,575.4851,703.5797
-3320.3125,-495.4245,-176.2364,-860.5934,-321.7387,12.0653,331.7591,-290.1333,271.2464,-958.6550,495.8948,-293.8768,142.3231,-429.4758,312.9956,-650.6038,1914.1951,-606.8042,893.3273,464.0525,872.3078
-3312.5000,-532.0278,137.9733,-895.8821,-182.4527,14.7069,444.3027,-437.8483,87.4996,-962.6330,125.4796,-71.8820,400.8945,-428.1235,387.6593,-836.3014,1762.7517,-293.2086,822.8513,285.0837,797.7527
-3304.6875,-333.0916,301.6421,-838.6343,51.3626,-111.1492,502.3277,-491.9597,35.3484,-1019.9102,-260.3168,-14.3855,494.9268,-333.2629,407.8100,-1040.3688,1816.0265,-306.0674,848.8233,27.7094,821.8538
-3296.8750,-362.9418,517.4817,-721.1428,57.3779,-176.7912,620.5306,-448.7367,-31.5081,-1274.8064,-403.7559,-6.6993,686.1363,-288.1854,526.1555,-1220.0940,1707.6766,-371.7249,996.9586,-37.3493,974.0137
-3289.0625,-143.2727,631.8032,-714.1171,345.8960,-315.9282,739.2110,-773.8961,-23.7835,-1271.9840,-619.5624,74.4949,765.8262,-317.5995,495.9870,-1400.1814,1710.0121,-117.8301,972.5308,-310.8058,947.5147
-3281.2500,-158.3293,756.3409,-731.8103,471.6764,-296.8133,868.1122,-830.6828,104.2873,-1440.7076,-566.9738,-54.0714,820.7292,-334.7538,661.0556,-1494.8760,1613.8147,-415.6721,1064.3103,-361.9098,1042.4708
-3273.4375,-193.1737,932.0593,-582.2661,471.6540,-293.4929,1018.1959,-829.1402,143.6416,-1295.0327,-715.0374,95.5631,933.8068,-221.6977,847.3226,-1495.2317,286.9752,-99.2867,1066.2546,-360.6983,1068.3881
-3265.6250,-31.4847,918.2482,-489.1861,598.1542,-124.6723,965.7612,-920.0009,126.5805,-1278.6481,-549.4779,152.7050,842.3510,-127.1324,831.0718,-1587.9531,9.8464,-219.3443,1089.6454,-550.8994,1090.9995
-3257.8125,-83.8737,1146.3158,-323.1670,686.5630,188.0556,1057.2084,-755.8384,144.5142,-1375.1866,-386.8692,170.7383,1080.7775,-35.6498,921.7220,-1609.6407,-1559.2119,-554.4970,1354.9011,-427.0893,1387.3799
-3250.0000,67.8585,1262.4702,-202.0136,908.0766,125.8909,1105.7379,-782.4698,155.6221,-1072.4255,-746.0395,327.8786,1165.2950,49.9507,711.4698,-1601.1024,-2288.0005,-262.4854,1121.2117,-416.0805,1173.1467
-3242.1875,185.1235,1063.1019,-42.3228,814.1143,66.2369,861.7535,-622.5035,131.3175,-1025.9783,-514.5862,303.5101,919.2847,100.0689,429.7110,-1517.9392,-1763.0856,-356.9458,887.9849,-298.4747,934.2908
-3234.3750,193.7992,1001.1279,156.8136,647.5517,228.9948,767.1610,-570.0164,-35.5075,-1012.9604,-390.6053,467.5377,934.6644,116.6107,519.3588,-1503.2460,-2523.6257,75.0263,934.1339,-253.3581,994.9147
-3226.5625,390.7619,1161.3851,326.2417,1160.2656,362.0108,900.8031,-733.1865,-14.0120,-993.5073,-959.2711,489.8270,1030.2771,28.4189,1019.2521,-1631.1848,-3866.7256,410.3156,1061.4952,-372.9079,1164.5002
-3218.7500,285.2477,1478.1219,519.2114,1336.5002,261.5394,982.9389,-687.7373,-114.9394,-1208.3938,-1320.3074,424.6094,1369.3748,-0.2514,1469.6533,-1734.5059,-3898.1550,128.1175,993.3393,-336.8531,1095.4149
-3210.9375,423.4603,1755.5475,782.9274,1439.4456,230.7774,915.7737,-866.4808,-403.0985,-1132.4093,-1426.5342,614.1053,1668.1667,5.7969,1363.7603,-1842.0050,-3931.7451,441.6810,533.8563,-444.9990,622.2872
-3203.1250,469.7598,1732.0006,982.7332,1450.4771,468.0729,709.6523,-962.0742,-609.1236,-1229.2036,-1302.6050,702.6512,1792.9830,58.9086,1525.9169,-1865.3392,-3846.0925,241.3369,300.3924,-432.0061,372.8377
-3195.3125,350.1225,1786.5000,1123.6309,1329.5643,756.4327,593.5823,-968.4927,-725.0174,-1201.7915,-1420.4954,1027.2422,1528.8389,53.0945,1593.1344,-1762.4987,-3855.2576,332.0620,110.9585,-270.8483,186.0530
-3187.5000,606.5668,1725.0369,1212.6163,1515.7345,808.8485,461.5561,-1210.7693,-672.7896,-967.1442,-1591.2300,1483.8979,1358.7234,-115.6489,1423.3939,-1712.4921,-3806.2039,657.9049,-264.4630,-435.5497,-192.5395
-3179.6875,886.0306,1511.5570,1473.6417,1653.9302,776.2773,391.5235,-1206.9365,-633.4775,-1003.3381,-1294.8384,1634.5439,1177.5868,-369.3643,910.6523,-1821.3599,-3768.9795,1148.7635,-265.9031,-613.1481,-168.6078
-3171.8750,1543.1119,1392.6796,1942.3094,1571.7357,693.3172,419.0911,-1401.3984,-679.4927,-830.7619,-1305.7357,1550.7983,1056.0518,-489.4571,274.5199,-2053.5090,-3707.0310,2051.2769,-416.7591,-975.0518,-299.3280
-3164.0625,1735.0829,1407.6437,1918.8677,1552.4341,559.2173,100.5050,-1461.9188,-775.5837,-820.1689,-1147.6827,1563.9102,1067.3492,-586.6858,66.2307,-2152.6990,-2409.0537,1995.6952,-751.7913,-1310.0283,-677.9218
-3156.2500,1677.1737,1313.7192,1858.5685,1494.2573,463.2315,-290.9808,-1227.2313,-908.5070,-697.3315,-767.4003,1503.1216,748.7450,-572.7923,79.0581,-1883.6740,-1661.8501,1903.2427,-1054.7378,-1436.8082,-1012.3897
-3148.4375,1687.0029,1357.5081,1864.0128,1503.8176,357.9544,-726.7706,-1185.7614,-829.6696,-327.6183,-579.3225,1508.0476,457.8362,-529.1854,-248.4140,-1401.8400,-1217.8003,1911.5707,-1502.0137,-1672.8137,-1487.9532
-3140.6250,1616.4153,1320.8488,1384.0468,1221.9636,284.2389,-1133.0151,-928.6437,-756.2093,-256.1990,-104.5796,1469.5248,382.4645,-530.0045,-323.3366,-962.3431,-926.0429,1840.4771,-1852.7534,-1354.1870,-1871.7411
-3132.8125,1524.9988,1263.3535,885.2744,531.2776,152.6838,-1301.1067,-618.2733,-813.5369,89.5264,131.4296,1374.1650,434.2456,-513.6503,-271.0984,-689.5849,-581.0272,1748.5905,-2049.3577,-882.3135,-2109.9282
-3125.0000,1508.7255,1246.9626,830.6400,479.7390,98.2344,-1467.1034,-415.7189,-793.6940,-3.4803,1.6441,1392.9214,230.1108,-386.1813,-436.7655,-599.6223,-271.7527,1696.8689,-1852.8900,-896.2684,-1912.9329
-3117.1875,1451.2238,1187.3322,1100.7942,245.9776,258.5532,-1454.3461,-108.3046,-817.0315,-175.5905,-133.2599,1221.4216,167.7234,-114.9388,-535.6750,-293.7945,-811.6100,1638.9186,-1523.6732,-952.3813,-1560.7745
-3109.3750,1471.9999,1242.9659,972.2353,55.5009,204.1280,-1582.3352,-125.5566,-798.0601,173.7271,-225.8198,1202.1847,-145.4157,51.5730,-922.3308,165.4041,-426.0944,1624.2952,-1712.2249,-965.1706,-1772.5404
-3101.5625,1530.9561,877.7503,402.8606,-447.7776,38.8595,-1785.1682,188.4352,-667.8734,559.3548,343.8781,1000.0923,-568.4164,70.2548,-1198.8395,734.8764,141.7268,1224.8561,-1899.6312,-412.7337,-1995.5665
-3093.7500,1554.8214,126.4598,-198.5781,-988.1273,-48.4999,-1762.0889,542.4365,-496.7328,1097.0422,660.5920,874.9052,-805.5090,203.8554,-1213.4368,1125.3734,383.5415,720.3571,-1840.1361,139.6895,-1960.7401
-3085.9375,1092.3765,-547.1671,-468.3382,-1062.7776,50.7928,-1480.3569,715.1687,-103.8857,1268.5527,648.0474,641.3783,-1186.9612,486.1257,-1190.3868,1296.6404,738.1558,187.5795,-1457.0087,277.8250,-1558.1987
-3078.1250,465.2551,-1069.4806,-351.7608,-1232.0941,277.3969,-1107.3203,1052.3043,196.3246,1310.5115,763.9283,499.1437,-1403.1163,712.7172,-1001.0259,1485.3350,411.1873,-649.8804,-921.5743,427.3439,-989.7072
-3070.3125,95.7102,-1652.2220,-370.6004,-1179.8264,295.5583,-905.7245,1145.0748,362.1345,1843.1885,744.4633,479.4711,-1754.7151,730.8798,-1058.1113,1833.7014,611.8752,-949.7169,-868.6004,446.4859,-925.4175
-3062.5000,-386.1968,-2312.3547,-547.8078,-1205.9053,192.3228,-825.5193,1484.5237,627.6027,2254.6223,1229.6957,8.4029,-2117.7229,664.6631,-1088.5934,2318.7874,1096.3167,-1608.9092,-753.0284,739.2906,-802.4439
-3054.6875,-856.4398,-2642.8057,-667.3270,-1394.3071,-1.2498,-761.6515,1695.7201,728.7719,2465.8433,1476.6871,-370.0082,-2166.0659,655.1235,-1026.4071,2823.6514,1269.4990,-1621.4048,-658.8014,869.8221,-707.0624
-3046.8750,-861.4889,-2860.0815,-601.6623,-1258.5050,-192.6672,-733.6283,1615.1343,795.1357,2457.3699,1504.9200,-783.2543,-2249.2598,646.7491,-1109.0719,2851.7759,1922.9736,-1485.6663,-558.4293,654.5551,-603.6110
-3039.0625,-976.6594,-2835.4761,-426.1110,-1338.8062,-238.2262,-669.7423,1717.4856,677.4064,2338.8762,1680.1222,-1197.6591,-2075.5979,675.2468,-1008.8723,2695.8623,1986.4211,-1601.0453,-285.1926,647.2013,-324.7964
-3031.2500,-878.1494,-2668.1787,-357.8713,-1275.4189,-354.1289,-601.1866,1603.5660,489.3725,2223.1726,1381.0662,-1314.4009,-1788.2629,559.4147,-978.0019,2579.7031,2164.6140,-1115.6917,-327.3033,466.5517,-366.6808
-3023.4375,-832.4918,-2588.7502,-495.4958,-1123.8641,-454.9237,-555.5129,1576.8087,389.4909,2195.7021,1243.1899,-1526.0393,-1633.8212,458.7040,-896.0162,2515.7390,2541.0508,-1176.1749,-316.3121,443.0479,-364.3683
-3015.6250,-946.3087,-2280.7754,-536.5812,-1132.7670,-533.2068,-413.3163,1610.6346,201.1597,2044.8409,1127.9142,-1532.1696,-1345.8512,380.5187,-681.4951,2326.3682,2205.0742,-973.1099,-148.8029,472.1091,-192.9467
-3007.8125,-816.6334,-2082.3103,-510.1794,-862.1601,-581.0302,-351.6484,1416.9609,118.3205,1960.5660,749.1607,-1543.8246,-1247.4119,296.8065,-767.5093,2242.5322,2340.6716,-632.5032,-88.8450,215.6656,-127.4456
-3000.0000,-890.9186,-1805.8063,-364.7444,-831.4990,-545.8398,-243.9616,1342.3584,7.5256,1849.4000,636.5007,-1656.4727,-1140.9553,221.1255,-696.5002,2129.7869,2227.3911,-671.8554,117.1358,214.2801,85.4404
-2992.1875,-794.6776,-1464.7456,-296.7669,-700.2961,-551.1335,-139.7497,1080.3301,-180.7292,1733.8411,189.4266,-1479.6000,-1074.9701,104.9736,-813.9611,1940.6317,2368.6924,-117.6355,108.6384,65.4476,82.4237
-2984.3750,-524.6316,-1301.9000,-276.0031,-430.2728,-530.6636,-118.7680,808.1061,-269.1905,1461.1526,-82.8286,-1421.9575,-1055.2189,16.5985,-904.6592,1998.3120,2352.8787,80.4058,96.9090,-13.6052,74.7676
-2976.5625,-478.5078,-974.9498,-299.1462,-419.1550,-480.1230,-69.7048,639.0052,-439.5612,959.6070,-215.9408,-1262.2456,-860.3854,-80.6970,-782.2751,1901.1283,2255.1987,303.5415,179.2664,34.4402,156.3533
-2968.7500,-196.4324,-729.0395,-411.3456,-172.0723,-519.6685,1.2838,269.8483,-514.0080,775.0699,-549.0848,-1007.5938,-716.6215,-156.0659,-674.9731,1420.9252,2216.5173,761.6790,144.5370,-103.5907,121.2531
-2960.9375,-103.3576,-355.1190,-502.5585,-78.9652,-501.2453,166.2451,179.6908,-421.4709,389.5727,-530.1968,-916.9698,-479.8750,-100.4542,-400.6978,997.7501,1497.9001,537.8215,342.7840,-8.6460,327.8214
-2953.1250,16.8524,10.9822,-599.6266,-133.7048,-487.7030,399.3384,10.6922,-405.8168,147.2702,-663.1363,-573.2183,-135.9778,-49.7149,-240.2862,717.7557,518.4449,729.1458,358.1591,43.4326,348.1970
-2945.3125,121.1748,78.1911,-753.6077,-170.3133,-495.0947,392.5071,-142.2235,-339.0898,-116.8757,-633.9711,-434.3841,-71.9977,-57.8981,-249.8026,489.8897,989.1573,551.6109,252.5956,114.5745,226.4822
-2937.5000,-128.6150,179.3139,-866.6972,-632.0114,-498.6121,314.5563,2.7723,-231.4876,-413.0837,-268.8755,-364.6815,33.8715,-24.1878,-143.4304,266.9656,1464.7920,266.9658,212.9140,358.5999,167.6488
-2929.6875,-126.3116,109.5463,-939.6974,-840.5927,-498.0607,241.6886,-105.1446,-118.8143,-484.1362,-193.6739,-254.8887,-4.1671,-23.3978,-217.9746,11.1832,2090.5554,479.4642,39.2982,327.6998,-17.0987
-2921.8750,-265.4566,75.3332,-978.1583,-873.5951,-389.9870,165.3469,-32.5235,27.3859,-742.5986,-10.8951,-367.5782,28.3264,48.9256,-146.9962,-101.0140,2162.9297,166.5201,147.2073,472.3259,96.3635
-2914.0625,-404.5743,182.1919,-975.5746,-906.5461,-313.8885,241.0374,-65.8421,30.6128,-849.9688,-82.0315,-293.2473,249.8706,87.2800,-109.9772,-171.1224,1797.3593,273.6346,149.1508,545.9878,107.2230
-2906.2500,-354.7976,124.9582,-965.1058,-681.5668,-341.9172,249.6092,-238.2819,151.7131,-912.3828,-145.2602,-321.0396,295.2998,97.5213,-27.0802,-271.3002,1696.7440,217.6901,198.9675,491.5095,163.4814
-2898.4375,-581.2829,178.4875,-871.8898,-731.8205,-322.2141,379.9211,-106.9721,319.5431,-1075.0244,-14.7098,-412.1158,497.4694,117.5077,248.5576,-177.6950,759.9004,-114.5146,464.5312,688.7535,450.0959
-2890.6250,-619.3735,245.4415,-762.2776,-558.6542,-286.1303,451.6232,-216.2819,392.7308,-927.2362,-161.7525,-340.7986,677.0458,116.8844,356.5862,-250.6641,134.4632,-11.2711,497.4770,547.3549,495.9419
-2882.8125,-683.6547,286.2137,-643.8702,-410.6451,-205.2699,495.1111,-170.8187,400.6812,-991.6274,-79.9875,-481.7035,719.4176,124.0503,473.4016,-242.8145,-189.1212,-391.2054,680.2054,590.7108,688.7781
-2875.0000,-782.7502,362.2186,-520.2693,-474.4240,-192.2346,580.7921,-83.1600,231.7909,-903.8066,-102.9990,-432.4318,842.0119,211.3998,558.4225,-265.7386,-690.5113,-383.9193,791.1268,668.2427,805.1864
-2867.1875,-651.9390,281.1526,-453.7802,-237.2659,-200.3294,571.3648,-162.6331,223.7565,-763.0441,-221.1178,-441.2686,721.5093,202.6270,439.3285,-346.7518,-550.9649,-252.6726,745.9297,555.6249,767.6407
-2859.3750,-762.9253,344.3161,-380.1009,-206.8785,-91.2481,571.1286,-14.9191,224.8941,-835.0759,-73.0242,-479.9303,756.2097,240.0378,547.4307,-382.5428,-919.1938,-434.2259,845.9359,621.1758,878.2871
-2851.5625,-682.8159,458.6255,-254.3230,-22.3685,-39.0859,622.9885,-108.1276,131.0876,-634.0009,-387.8351,-354.4958,734.0266,218.5289,524.6342,-550.2208,-1086.3275,-107.6269,785.0393,455.7825,828.3097
-2843.7500,-540.5360,424.1154,-140.3990,261.3425,0.2009,661.9929,-104.2294,170.3981,-665.7672,-531.5050,-389.9250,623.9971,184.1511,488.9720,-693.7487,-1047.2704,-245.8380,857.2892,388.4869,916.5204
-2835.9375,-558.0107,616.8995,-44.2239,349.3227,58.7178,720.2472,-44.1025,119.9217,-716.2928,-618.9077,-332.1159,718.2394,170.0053,583.5652,-781.0196,-1575.9779,-192.7842,944.7987,372.4142,1018.0085
-2828.1250,-351.2665,752.9255,25.1489,732.5415,18.4074,788.6951,-267.8187,79.6035,-681.6072,-769.1212,-300.1013,749.6897,55.0377,578.3458,-895.0934,-1763.4678,49.5370,835.4966,158.4905,916.3813
-2820.3125,-371.0056,1049.4921,153.0198,889.3004,34.5782,805.6410,-249.0683,24.7542,-846.4329,-640.8279,-394.5958,1096.6494,-37.4441,852.6185,-986.6684,-2445.4460,-109.6325,815.7032,175.0183,902.4842
-2812.5000,-369.7381,1436.1085,342.8977,1032.0857,40.7355,737.5912,-425.3563,-153.1416,-765.2643,-781.5359,-242.0814,1763.6327,-141.9351,1114.8969,-1274.2495,-3101.4524,172.2450,498.9130,36.4926,578.8124
-2804.6875,-287.5901,1553.6196,539.6257,1220.7745,124.7262,565.3883,-669.8545,-287.2309,-825.2500,-768.4161,-120.7069,2436.4795,-276.5929,1236.0203,-1591.9888,-3088.5847,-24.9755,264.9662,-91.2600,325.5696
-2796.8750,-423.4335,1663.1871,844.3574,1120.4912,391.7044,464.1832,-732.3880,-350.3687,-1071.2667,-574.2889,292.6634,2445.3606,-304.2601,1465.1592,-1875.7269,-3298.7383,-196.1775,270.0320,-120.0620,330.6700
-2789.0625,-179.9074,1660.1689,1102.4381,1434.6001,613.0198,500.3257,-1209.6257,-239.2111,-1326.9412,-609.8340,843.3987,2259.6228,-414.5877,1280.6478,-2280.1318,-3224.5461,82.0367,372.4418,-579.5844,445.3384
-2781.2500,215.6889,2091.2517,1447.5720,1867.8088,625.3724,623.5197,-1526.8661,-6.0438,-1826.5961,-338.3376,1187.1809,1314.9548,-694.8723,814.1910,-2559.4995,-3137.2922,234.3225,663.9186,-851.1253,773.1762
-2773.4375,848.7428,2195.8494,1635.1610,2042.4939,334.1687,516.1757,-1816.6978,34.5189,-1821.8284,-113.4029,1447.4241,949.7761,-985.7157,522.1951,-2518.4253,-3132.6309,726.0964,450.8651,-1062.2739,555.5367
-2765.6250,1217.0763,2141.7471,1504.0004,1814.4844,55.2040,127.0856,-1799.3428,161.2828,-1473.8268,196.7480,1314.9287,1294.8633,-1081.3192,684.4481,-2134.1199,-2969.7024,392.1771,-94.9334,-1150.2466,-48.2265
-2757.8125,908.7683,1656.0471,1072.1945,977.8627,64.5871,-121.6421,-1421.6724,207.3548,-1167.5167,538.2409,1212.7805,1744.3256,-850.5748,1134.0667,-1571.4824,-2517.4482,-57.3841,-579.3538,-1000.9191,-599.6685
-2750.0000,782.2300,1530.1565,499.1513,676.0355,41.7107,-217.6102,-1295.3115,149.1230,-820.4858,332.4514,1190.3956,1757.5717,-726.0865,1147.4480,-1225.1177,-1803.4735,345.8685,-1023.0135,-1126.9072,-1082.0555
-2742.1875,595.9126,1729.5159,7.3133,631.4617,-45.9746,-231.3725,-977.8004,62.0482,-833.2903,172.8438,881.2102,1706.0453,-629.4081,1169.0350,-870.5626,-1412.2916,300.3408,-1033.4619,-1066.7620,-1107.8921
-2734.3750,398.7473,1814.0902,-268.3656,505.0681,-176.5188,-178.9706,-665.1827,-104.9284,-703.9833,-103.6220,750.1780,1611.7123,-611.5862,1222.7975,-520.8653,-1284.0089,526.9930,-948.7412,-1051.5200,-1027.4227
-2726.5625,474.2599,1572.3719,-303.3939,546.3839,-320.4262,-175.9088,-588.9847,-66.3078,-480.0445,-247.4748,493.8072,1429.0615,-647.1336,965.2200,-333.5362,-619.0739,462.3615,-873.3741,-1151.7054,-954.3094
-2718.7500,361.5847,1389.5146,-127.6231,258.5396,-366.5439,-295.0381,-302.0323,-37.9268,-376.3396,74.4674,226.2314,1088.2422,-544.8940,735.4635,-85.4166,-517.3588,68.5358,-634.1854,-807.1443,-707.6902
-2710.9375,362.4713,1003.2709,-90.3036,84.2765,-440.1261,-442.6047,-79.5851,36.9523,66.9024,259.9337,226.2243,572.0166,-470.1223,330.2742,100.2449,-185.1278,0.3162,-633.4402,-594.0995,-702.0279
-2703.1250,321.6861,470.3824,-207.6847,-95.6280,-448.4218,-524.8615,206.0946,286.0876,243.4147,693.6818,180.5259,11.1169,-332.0642,-47.6080,314.1822,248.4153,-495.5678,-533.3832,-247.8353,-596.5867
-2695.3125,174.6112,181.2638,-394.3541,-276.8000,-379.0221,-491.4032,386.4215,392.8756,388.5688,912.1232,249.5376,-361.0363,-151.3150,-161.7624,457.7981,207.6115,-536.7281,-504.5991,26.0736,-560.2747
-2687.5000,194.2214,-186.1429,-595.3709,-151.2688,-285.9860,-472.2852,333.3156,522.2569,630.3380,858.1783,158.2242,-820.4974,14.0693,-363.2517,442.0356,743.4541,-587.1680,-485.1537,151.5491,-533.5892
-2679.6875,-217.4487,-597.7924,-657.6827,-315.9894,-165.2572,-388.4508,601.8471,644.2911,825.7536,1090.9220,-199.3805,-1068.2172,246.1411,-280.0187,673.9492,790.9832,-1139.8944,-264.9830,547.6618,-300.8741
-2671.8750,-535.1985,-950.4657,-617.0847,-420.7728,-90.6340,-349.7025,678.2158,683.1635,1308.0222,1057.5547,-344.0630,-1176.9822,322.0970,-388.8581,1008.7309,941.3632,-1209.6665,-370.9012,652.6081,-403.2122
-2664.0625,-738.0125,-1329.1770,-647.5849,-482.5969,-85.1167,-380.0482,758.4047,762.8852,1647.1495,1285.0636,-559.8268,-1391.8116,327.9364,-530.7851,1420.3822,1352.6509,-1622.4922,-398.9117,766.3727,-439.6257
-2656.2500,-1002.5651,-1558.5680,-624.8279,-746.1407,-63.3574,-359.1247,927.7916,710.8078,1853.4656,1453.8190,-685.3275,-1481.3424,386.0144,-509.4322,1810.2651,1264.1420,-1710.0503,-275.6372,853.3249,-319.1102
-2648.4375,-903.0884,-1845.8915,-483.0682,-679.6367,-33.6061,-328.1900,811.0978,630.6808,1995.7509,1191.5400,-802.7994,-1671.8304,454.0765,-663.0687,1989.1208,1773.6171,-1538.5433,-177.3540,530.1994,-221.6343
-2640.6250,-986.3292,-1998.9075,-240.0496,-727.8401,63.3934,-268.9956,908.5862,542.7643,1799.2271,1214.4965,-1038.0087,-1723.0323,587.3745,-677.4383,2160.1992,1871.3304,-1761.7715,91.2052,446.2632,55.6469
-2632.8125,-1037.7556,-1945.0544,-105.2249,-707.2161,86.1847,-208.9824,894.8190,345.5980,1897.4600,981.2316,-1088.3921,-1663.3849,610.4595,-728.9814,2222.0471,1857.7861,-1460.1554,145.5838,253.0783,113.9774
-2625.0000,-956.6948,-1968.6929,-58.9482,-554.0891,58.4182,-237.5083,903.4256,316.8398,1834.0999,843.3755,-1190.2991,-1691.2489,508.9770,-831.0635,2231.3052,2124.6953,-1378.0375,226.4282,122.2692,201.6015
-2617.1875,-964.9685,-1730.6157,7.9924,-597.2780,86.3058,-171.3612,1079.6295,161.6905,1643.3168,652.1517,-1051.5364,-1552.4161,427.1388,-802.4645,2076.1760,1859.2034,-1280.2593,392.9608,112.0547,379.3190
-2609.3750,-685.3082,-1661.5773,42.8473,-387.5227,47.0946,-137.2944,893.6536,-24.6111,1605.3878,245.7785,-795.8336,-1628.6364,352.1913,-988.9454,1927.9058,2041.5750,-787.5232,426.4096,-136.3294,416.6695
-2601.5625,-528.3146,-1469.1859,168.0070,-265.4172,134.1831,-49.9175,906.9109,-121.6505,1251.6987,75.6854,-709.8110,-1652.5143,328.5366,-1013.1034,1573.8990,1945.2357,-771.4719,653.1808,-157.4841,662.1624
-2593.7500,-318.2007,-1116.6111,354.2779,-123.1904,172.3741,25.5761,724.2037,-377.6441,996.0472,-290.3254,-487.6577,-1504.2245,255.9692,-975.1240,1134.9612,1504.9325,-172.2822,794.0723,-263.6071,822.3071
-2585.9375,53.8531,-885.0666,481.4529,214.9910,187.4649,114.9792,408.3018,-472.7869,645.2446,-604.4691,-361.5725,-1450.9886,125.2820,-960.2217,745.8769,1337.5244,235.8687,883.8777,-455.9156,929.3306
-2578.1250,168.1812,-595.2040,636.8927,294.4607,268.8047,269.6523,268.5844,-575.7218,101.6199,-706.3692,-282.2174,-1223.4545,58.8390,-769.0357,423.0016,645.3247,456.2769,1138.9636,-343.0345,1209.6855
-2570.3125,431.6970,-401.1143,691.4958,489.1161,285.2964,359.4905,-120.0652,-670.5608,-101.9134,-1020.1579,-81.6581,-1058.7184,1.5315,-752.6782,35.2297,405.2323,1002.9036,1121.2144,-398.0829,1202.8904
-2562.5000,583.0646,-249.1600,735.9026,606.6274,328.5924,404.1417,-222.9991,-663.6434,-497.7192,-1086.1755,-74.2571,-978.1401,9.0113,-672.5009,-176.7916,227.9298,1015.3596,1166.2820,-318.4117,1259.3849
-2554.6875,614.2088,-6.3767,733.0680,532.9182,361.6402,473.5684,-337.2505,-779.0262,-758.8436,-1237.4675,68.9334,-798.7496,41.2329,-455.5336,-328.1043,-217.6864,1363.5942,1126.1198,-219.0547,1223.6674
-2546.8750,798.8955,73.9718,628.7312,719.7575,366.1871,478.5141,-554.0839,-774.9570,-937.5239,-1342.3057,110.6691,-792.8109,83.9439,-488.0397,-505.9655,-64.8184,1585.3884,994.4604,-282.2785,1090.7902
-2539.0625,712.6102,198.3808,573.3995,633.6329,383.7374,533.4786,-499.9716,-757.9234,-1103.2761,-1140.1550,54.4232,-590.8242,101.6478,-396.5156,-598.8602,-376.9898,1464.1777,1012.8258,-124.5526,1110.5795
-2531.2500,743.0937,265.5981,421.8177,630.2808,268.0402,491.2146,-616.1761,-800.1797,-924.3240,-1108.2740,122.9647,-486.0368,59.0899,-439.2120,-677.0439,-345.4593,1777.7581,796.9565,-96.1307,883.2964
-2523.4375,715.5585,203.8086,242.1864,709.9161,197.2924,495.9187,-576.5039,-687.5122,-956.4749,-956.4659,-20.5174,-481.2600,25.4666,-361.9362,-673.3200,-194.9757,1610.3069,734.0529,-19.8183,817.1039
-2515.6250,526.7855,296.8305,83.3138,627.3113,74.3030,519.3917,-480.1382,-664.1269,-932.9472,-785.9215,3.7783,-273.6698,12.5826,-153.8636,-648.8879,-538.7999,1598.6158,684.9266,105.2051,761.3741
-2507.8125,527.4483,298.3056,-63.1535,771.1383,-1.2848,519.2802,-629.4505,-592.3756,-749.0706,-750.0167,2.5146,-237.6348,-60.9152,-118.3664,-687.1052,-356.2420,1636.3798,545.2086,-36.4308,609.5286
-2500.0000,326.9884,345.6827,-163.7625,676.8417,-28.0176,602.0372,-473.9793,-510.8003,-739.4190,-445.2787,-170.8824,-117.7064,-88.5698,74.0084,-640.5108,-530.8562,1259.9948,590.3743,41.7401,648.9169
-2492.1875,215.7999,445.3693,-241.1108,706.8103,-106.4923,634.0649,-517.3137,-517.0126,-524.5817,-487.3239,-139.9902,24.5294,-130.9821,141.6674,-645.7101,-647.2784,1360.8949,513.8142,-35.8863,565.0337
-2484.3750,173.3526,404.8050,-288.7556,807.5205,-118.2661,622.8024,-492.0211,-418.5529,-535.0963,-424.6976,-260.3658,50.5036,-105.7056,204.0380,-620.2564,-548.0031,1108.5269,541.9637,-115.8724,589.8419
-2476.5625,-64.0248,520.3503,-239.3382,711.2996,-106.9831,707.6047,-371.7335,-408.0761,-561.6258,-377.0242,-286.6613,209.5829,-58.3924,399.4948,-645.7980,-941.7363,978.2183,621.1848,-38.8465,674.5455
-2468.7500,-15.2159,500.1098,-225.7601,832.2553,-131.5488,720.5656,-508.3751,-360.4906,-512.0524,-511.2320,-273.7587,222.8689,-9.9484,412.1284,-744.2370,-819.3446,1063.1146,563.5524,-168.7351,615.7548
-2460.9375,-140.9198,515.3723,-138.7211,777.6913,-45.6623,697.9893,-348.6325,-274.4788,-646.1016,-351.0042,-407.3803,346.6581,39.9273,535.2433,-767.2723,-990.5187,656.4640,613.3856,-52.2243,670.5856
-2453.1250,-187.5016,573.7976,-75.5706,660.2297,-19.6691,687.5261,-286.8462,-249.3967,-546.1030,-471.6895,-343.8599,521.6049,66.8929,598.4941,-815.2495,-1258.6460,785.9335,530.3258,-67.6589,590.1326
-2445.3125,-163.6923,528.6127,-52.0745,721.1495,-34.3225,637.4219,-302.7880,-190.9926,-597.7897,-485.0563,-430.9469,617.9393,89.1990,658.1191,-828.9178,-1088.4098,634.7800,447.6082,-80.8087,503.2952
-2437.5000,-280.9698,730.3755,87.3233,534.9753,66.9300,628.2286,-129.8731,-200.7127,-716.6353,-420.5245,-366.1045,941.2290,79.3978,796.6865,-911.7167,-1503.3105,484.5097,365.8100,-25.0977,422.8937
-2429.6875,-95.6717,845.7369,98.2708,545.3611,76.7372,491.6022,-305.4709,-265.9150,-633.9788,-558.4760,-98.6722,1136.1179,15.1383,769.8331,-1050.0050,-1493.6836,740.8328,93.5711,-124.8870,136.0517
-2421.8750,-47.6946,824.7874,184.8710,489.4235,162.1987,466.6415,-295.4728,-218.4870,-806.7393,-435.7989,-13.5663,1185.6931,26.5200,818.6619,-1111.6908,-1555.4050,473.8070,70.0056,-44.0749,111.3217
-2414.0625,39.0465,912.6373,315.2325,436.2358,255.4238,486.4555,-423.7682,-238.3415,-787.8222,-416.3874,338.3261,1169.0785,-64.3555,765.2820,-1239.6722,-1794.4307,631.5428,-54.7864,-66.5441,-12.1158
-2406.2500,316.8756,840.5800,383.6489,539.1279,321.7024,407.3298,-616.0847,-172.1715,-757.9056,-385.9586,590.3106,906.5565,-144.1982,574.9717,-1320.6588,-1469.4037,629.3669,-268.5260,-144.0130,-231.2072
-2398.4375,286.7776,951.6136,353.1202,370.0763,401.0391,302.2682,-502.3971,-57.9637,-790.0114,-197.4845,706.3720,876.1375,-175.9998,506.7464,-1315.6381,-1612.3571,354.2227,-299.1952,104.5467,-263.5583
-2390.6250,308.7018,903.6903,228.5962,251.0254,311.3803,140.2206,-556.7655,36.2260,-548.1689,-139.0331,838.4797,861.7677,-228.8136,344.5486,-1257.6633,-1296.3440,517.1069,-560.8558,122.0797,-541.9801
-2382.8125,202.8553,763.9901,114.2725,111.1961,232.9261,-47.6178,-378.9880,287.6145,-517.1653,113.6116,649.8182,857.6345,-233.4398,302.5546,-1116.5344,-824.1244,130.1812,-596.3124,153.7845,-591.0957
-2375.0000,93.7652,727.0832,75.6990,-101.8967,193.2309,-123.6929,-347.4890,319.7464,-520.4562,221.0126,721.9376,966.3029,-126.3277,337.3371,-1008.6921,-753.2010,198.9976,-635.0122,6.2246,-646.2491
-2367.1875,307.5590,625.0592,73.9734,-28.1306,264.3888,-271.9111,-499.1997,389.7135,-596.9305,108.2381,903.9553,818.8552,-55.3829,224.9904,-938.0416,-131.4240,131.6943,-738.8686,-416.5291,-771.6828
-2359.3750,312.5717,596.2669,76.4533,-198.1641,339.7583,-342.9188,-388.7521,390.8795,-854.2673,219.6624,943.2022,710.6444,55.7529,226.8799,-716.2314,90.5391,-214.4356,-559.5101,-556.1059,-607.2916
-2351.5625,374.2025,518.1119,102.5350,-205.6101,253.7363,-391.3157,-439.7516,340.6273,-719.0532,134.6756,932.0941,517.0898,7.4768,68.4100,-544.8682,446.0667,-46.9451,-497.5484,-744.1069,-552.1542
-2343.7500,388.9122,358.0312,186.6637,-118.9907,152.7683,-529.6530,-432.7586,348.4234,-747.8292,253.7279,721.0688,379.6168,-20.7576,-68.9858,-426.4941,822.6601,-241.4078,-342.5420,-697.0988,-396.8011
-2335.9375,328.3316,439.6884,270.4934,-249.6906,125.5131,-592.2805,-388.0969,208.9124,-775.9509,300.4828,731.7765,574.8948,-84.2956,-59.6452,-491.4535,646.9132,-160.1899,-298.8339,-515.4034,-352.2629
-2328.1250,602.9221,398.4995,259.4433,-185.2607,76.3979,-677.7559,-512.3144,159.5733,-751.9389,178.3952,757.6602,564.3427,-133.6937,-106.1374,-577.2872,929.3630,-60.8414,-411.9970,-561.5678,-474.5800
-2320.3125,528.5604,325.3733,253.4122,-399.8218,68.3261,-684.1728,-228.4830,224.2988,-834.9077,354.3765,640.6152,631.8743,-141.0526,32.4598,-512.0839,920.8480,-451.4717,-417.1110,-393.6694,-482.3013
-2312.5000,436.3536,305.4089,157.5045,-490.2676,-63.6052,-706.4311,-179.5273,163.1831,-453.7398,331.5050,618.7581,647.5862,-238.2749,84.2391,-351.7530,971.4977,-295.9410,-650.0985,-347.6243,-727.3669
-2304.6875,385.6606,148.9383,63.0716,-436.2362,-160.0365,-729.1799,-168.0857,212.5869,-146.1051,382.1487,413.4206,515.8175,-335.0089,98.5479,-154.9422,1316.6609,-557.9462,-737.5899,-262.0713,-824.6049
-2296.8750,218.2699,194.7668,-38.0870,-637.9591,-262.1756,-682.6160,-14.3606,183.3036,45.8134,538.1156,312.4105,563.3824,-400.4658,145.1896,0.1531,1140.1160,-689.6594,-799.7827,59.7987,-891.3481
-2289.0625,250.2432,52.9336,-153.9235,-640.3599,-341.9627,-688.7115,-96.2979,249.3823,331.0919,458.4392,306.7748,411.3088,-407.5944,-6.8198,-44.4031,1537.9626,-622.0411,-839.6365,88.0139,-936.6646
-2281.2500,176.9624,-19.1731,-122.0450,-748.0683,-274.0005,-620.0542,79.5240,426.2292,141.1141,415.5404,301.8797,296.0000,-228.9739,24.9318,22.8178,1605.5680,-1010.7137,-560.7332,-94.9934,-655.0212
-2273.4375,170.7179,10.7363,-53.1680,-788.7724,-133.0092,-552.3311,34.4018,382.1403,170.2142,114.7067,665.0201,291.7195,-52.3014,19.7310,162.1341,1452.2510,-875.3395,-673.7747,-491.9262,-776.4485
-2265.6250,259.3033,-145.4975,-444.5021,-769.6642,-120.1867,-685.7637,-101.8534,357.9188,403.1835,201.7517,900.0012,196.2876,-38.7709,33.3558,616.3323,1795.8264,-1032.1516,-1148.9495,-512.0105,-1294.0355
-2257.8125,-105.0963,-298.6692,-973.7996,-1134.5453,-172.3122,-736.1483,64.9498,377.7362,792.1973,665.8540,813.0588,182.9391,-54.1617,202.0464,1115.5947,1670.4347,-1326.9326,-1339.0765,33.9382,-1513.6132
-2250.0000,-375.3807,-638.7166,-1184.9742,-1264.3344,-310.3057,-726.4555,71.8089,496.6283,1205.2908,859.0170,492.2752,47.7409,-82.4210,211.8859,1381.9249,2047.1608,-1280.6383,-1364.1520,180.9314,-1545.7506
-2242.1875,-520.7520,-887.8547,-824.2357,-1409.2205,-244.3346,-660.8797,208.5290,671.3879,1049.2339,1035.0596,190.4288,-68.5024,-53.7659,168.7180,1447.1305,2222.7668,-1601.5413,-1088.3628,102.8337,-1250.4200
-2234.3750,-384.6554,-856.4889,-494.9915,-1483.6454,-246.8368,-625.7963,202.7108,630.6229,897.6461,884.5934,336.1161,-70.1022,-20.6059,203.0889,1442.8076,2035.8330,-1359.0120,-1058.0726,-221.7227,-1213.7135
-2226.5625,-51.0999,-978.6849,-480.3066,-1219.6384,-232.8582,-685.2319,251.3271,569.3210,800.4501,604.5739,462.2832,-274.2803,-5.9940,108.9061,1529.8848,2233.3381,-1236.0300,-1041.2764,-595.7961,-1194.6694
-2218.7500,-92.1471,-948.4871,-560.2272,-1225.2687,-203.4250,-655.1948,646.3397,376.4380,718.5688,559.9338,455.9187,-243.0667,59.0523,174.1593,1742.2769,1820.1949,-1311.7021,-908.0108,-640.4708,-1055.8950
-2210.9375,-47.9785,-902.0700,-735.9034,-1074.7141,-195.7444,-646.9205,761.5056,89.7650,908.8179,236.4371,611.8372,-233.6458,103.3185,73.6293,1785.7799,1717.2395,-915.1580,-934.5358,-845.9944,-1083.9464
-2203.1250,50.1308,-908.7646,-749.6204,-905.2808,-99.1365,-586.7400,855.5485,-146.0002,782.9091,2.8282,562.7147,-209.3027,199.4787,97.0199,1734.1196,1629.1593,-957.7214,-731.1784,-962.6268,-874.2249
-2195.3125,113.3890,-704.3701,-684.2263,-877.7115,1.5718,-447.4546,733.6634,-524.6636,661.0645,-300.7189,738.7458,4.1730,262.7217,199.5422,1502.4873,1067.1366,-542.1401,-528.7440,-1009.1479,-663.7826
-2187.5000,361.4807,-524.1840,-574.9987,-523.2908,110.1003,-412.3567,360.5498,-822.5118,546.9562,-671.5101,811.6068,150.4806,297.7570,87.8921,1130.5740,953.9048,-116.7669,-386.5138,-1186.8696,-512.2709
-2179.6875,416.4196,-292.1448,-298.8708,-432.0203,275.5014,-283.3945,193.2859,-1100.4946,123.6279,-690.4728,720.3268,390.6908,315.6415,144.1405,742.4578,382.4721,44.4383,20.5632,-1099.7264,-80.3058
-2171.8750,601.5130,-34.8949,-67.5733,-105.6233,321.0447,-163.3030,-240.8367,-1386.3252,-52.5514,-1012.2923,768.2291,549.0984,250.6531,117.5602,273.4607,-86.8203,686.8076,274.7426,-1094.4454,200.9081
-2164.0625,767.7753,131.5450,175.8577,235.8839,379.7228,-30.0976,-516.8118,-1475.9954,-363.5760,-1100.9297,607.3091,572.7059,161.7813,140.1469,-148.4159,-322.9631,852.3144,545.0358,-1072.9938,500.9612
-2156.2500,776.6148,387.5749,406.8175,386.8884,389.9274,165.6244,-692.2458,-1651.0990,-612.0490,-1127.9996,508.9916,695.9105,135.4186,188.3068,-469.7751,-975.5668,1143.3854,834.8339,-891.9558,821.3572
-2148.4375,1016.1620,451.2653,544.4080,730.5063,378.7809,338.9656,-1037.0526,-1699.5106,-735.8891,-1322.4156,463.3934,576.7864,86.6841,68.1190,-813.5356,-1060.4817,1523.0957,966.2358,-903.2568,978.7067
-2140.6250,972.2850,585.5244,682.5397,862.6210,369.1976,475.8329,-1049.3071,-1674.3336,-1078.2219,-1112.2698,235.4046,532.2432,113.4927,96.4937,-971.7850,-1438.8458,1374.3135,1239.1621,-633.9768,1278.3881
-2132.8125,921.9306,676.2950,742.1610,952.2024,355.1186,646.1863,-1140.0653,-1689.6288,-1094.0686,-1089.6237,185.9686,520.2169,61.7904,82.3641,-1135.5646,-1748.6898,1640.0308,1292.5468,-512.1838,1352.4690
-2125.0000,929.7942,616.2538,784.9712,1171.9603,323.2476,724.7180,-1210.6180,-1538.6882,-1200.7350,-974.7689,8.7530,343.3951,66.2852,15.4412,-1242.1687,-1670.2969,1507.9131,1370.1005,-402.1613,1448.1071
-2117.1875,750.1038,718.6683,856.2368,1062.1232,320.8319,796.6906,-1069.6990,-1395.2744,-1352.9631,-793.4617,-102.9914,380.0398,62.2257,49.9879,-1283.3516,-2005.4600,1398.2371,1435.0742,-128.6565,1531.9655
-2109.3750,763.0812,661.7123,797.1502,1145.9125,297.0762,773.3043,-1206.1256,-1236.1862,-1231.5472,-854.5202,-125.0609,284.3314,74.8168,-8.8113,-1345.9152,-1771.9241,1517.2020,1305.6649,-119.4895,1404.2943
-2101.5625,620.8962,626.5770,794.9110,1073.5020,331.1844,806.7590,-1027.6754,-982.2219,-1346.2845,-636.7090,-273.2833,246.4732,108.2709,-10.7413,-1350.6152,-1812.5261,1093.9668,1373.0793,86.5674,1483.0878
-2093.7500,466.9469,578.6642,819.9106,954.2897,318.5476,795.4496,-1005.9479,-811.9938,-1286.7368,-538.6556,-247.2408,199.8672,130.9915,-22.4035,-1328.0403,-1935.8542,1149.9587,1323.7013,244.8887,1442.1390
-2085.9375,472.3391,444.0499,822.2436,1029.3813,321.2766,724.4626,-1005.8346,-516.3830,-1212.7875,-463.2419,-316.8468,20.6003,133.0738,-129.7153,-1401.0944,-1602.7786,909.2325,1221.6407,316.5789,1346.2720
-2078.1250,345.6013,425.2959,912.4615,797.3024,373.9153,703.3613,-845.7698,-316.8441,-1271.9146,-299.9073,-262.5456,39.2313,185.0779,-76.1058,-1460.2246,-1771.7877,642.3500,1234.4486,468.2097,1364.6313
-2070.3125,464.1541,367.7854,962.9514,810.4800,386.8544,643.5439,-908.3691,-231.9818,-1187.6952,-435.2567,-100.9509,-19.8537,123.3910,-99.2002,-1560.0236,-1538.4210,795.7317,1034.5087,337.1628,1162.7444
-2062.5000,447.9724,352.5148,980.7143,792.8893,404.0989,624.0149,-820.5986,-105.7788,-1282.1350,-234.2694,-118.0775,-74.6428,103.0105,-80.9866,-1544.4972,-1484.7081,462.3268,981.8398,422.4772,1109.5270
-2054.6875,358.3960,369.8422,890.0905,632.8774,385.9817,606.1259,-730.1167,-14.8977,-1117.8386,-141.6088,-24.5697,-16.7925,11.2855,11.8788,-1563.2804,-1650.2996,512.5236,819.7786,576.4985,945.3835
-2046.8750,463.4820,229.7874,777.1296,667.4981,272.5564,566.9146,-735.8724,165.7313,-974.7622,-145.2058,-62.3864,-164.2768,-64.7417,10.4340,-1531.2917,-1286.1030,477.3389,642.3748,572.2740,762.2686
-2039.0625,256.4065,234.5670,745.0352,459.9276,240.0298,571.5801,-438.6382,352.3079,-1045.7142,79.1578,-130.3247,-84.8781,-60.8637,162.8891,-1418.3431,-1428.9611,163.9710,574.8266,679.0217,694.7324
-2031.2500,227.9463,171.9244,604.5469,395.9241,173.1378,504.8694,-434.6848,469.5915,-855.9308,12.2181,-48.6304,-112.8608,-55.3322,169.9762,-1302.7020,-1202.0757,276.1936,333.8778,612.4791,441.3844
-2023.4375,168.1434,76.8979,501.7217,334.5378,180.9383,401.8321,-244.9495,696.6436,-887.3885,93.0319,-150.2579,-177.1761,23.9029,141.7560,-1186.3142,-974.4202,-64.9731,306.5964,654.7188,411.2049
-2015.6250,-18.6538,172.8542,419.9132,112.1097,134.7763,355.8246,-36.0934,723.8019,-823.7451,194.9330,-119.8397,-74.4636,52.1915,170.5811,-1122.8407,-1166.6526,-76.1361,260.3236,817.0901,361.8108
-2007.8125,14.7244,136.9299,268.2681,215.8137,56.8068,240.9939,-5.9795,829.2292,-608.8442,264.0724,-123.2331,-187.5885,9.6774,-17.4171,-1055.1415,-840.5871,-113.1624,10.2108,847.7341,103.9086
-2000.0000,-203.0955,129.7809,149.4403,32.2694,-26.3164,194.9931,314.0626,929.5711,-471.0505,549.1114,-240.7893,-157.8864,-36.9773,11.4376,-808.5538,-922.6270,-473.4175,-69.0820,1049.3262,17.8299
-1992.1875,-269.5989,99.9145,6.9223,-35.0005,-167.1048,127.3262,391.5196,934.3247,10.1648,554.5312,-235.0009,-187.8613,-105.2873,-92.3664,-583.5836,-844.2483,-328.3683,-312.0768,1016.3376,-239.4734
-1984.3750,-377.1409,-42.0210,-144.6329,-37.3467,-283.9018,46.6379,567.0494,1001.1423,260.4286,696.0000,-386.2240,-302.8614,-111.5873,-207.1806,-259.5771,-555.8091,-647.4025,-315.1057,1011.4252,-255.6589
-1976.5625,-640.8702,-59.1592,-235.3730,-301.9393,-300.8548,-7.2191,805.4946,1019.8572,499.5949,826.3396,-438.5954,-244.0194,-57.0243,-187.1374,52.3159,-793.4870,-841.6349,-299.3282,1167.4417,-248.4383
-1968.7500,-699.8160,-258.5660,-372.3489,-291.7992,-365.0148,-69.3041,813.7939,1066.4308,766.6217,762.4990,-501.1709,-343.4024,-47.6605,-249.3035,281.0457,-489.2899,-831.1200,-394.7982,1176.3145,-352.5186
-1960.9375,-924.1522,-376.3857,-423.7074,-482.0993,-342.5213,-47.7564,1092.8096,1272.7114,714.3475,895.3502,-698.1066,-393.1472,48.3616,-115.8114,449.4702,-539.4182,-1232.0276,-304.6522,1372.9115,-256.1123
-1953.1250,-1012.6636,-500.4102,-513.2471,-606.6269,-395.1807,-27.3748,1148.7166,1366.8853,881.9830,843.0716,-676.1868,-407.0530,68.2437,-58.4754,542.7767,-518.6428,-1110.1162,-429.7034,1458.4047,-382.0591
-1945.3125,-1008.7452,-741.0421,-621.3708,-567.7766,-430.3841,-62.5736,1186.1302,1589.5542,883.1033,919.2681,-745.8112,-476.5271,33.5917,-92.7066,617.5753,-149.3540,-1281.8246,-497.3353,1460.4000,-450.7455
-1937.5000,-1157.1097,-748.9902,-590.7817,-823.2706,-398.8355,-31.0490,1326.3584,1694.0061,803.0172,1024.2396,-713.6809,-407.2552,26.6979,49.8102,721.1788,-301.2747,-1360.8350,-506.2408,1486.2162,-460.2682
-1929.6875,-1038.8964,-806.4268,-577.6420,-777.2361,-386.6973,-91.9475,1117.2532,1707.1072,851.6102,853.8398,-587.9667,-466.4310,2.4126,26.8972,696.4454,116.4991,-1103.2971,-706.5845,1285.6888,-671.0235
-1921.8750,-995.1416,-867.3397,-532.9572,-875.6973,-341.9753,-158.2673,1123.8395,1787.8625,785.8813,1046.1127,-578.6991,-531.0685,9.7495,35.5712,740.3933,345.9386,-1341.2426,-770.3427,1222.8386,-746.0496
-1914.0625,-990.5390,-897.3748,-563.4348,-1047.3396,-334.3811,-296.7127,982.4067,1721.5494,1087.1500,1200.3228,-423.5977,-521.7951,-56.9989,7.1168,857.3229,501.3398,-1161.3278,-1013.2385,1119.9314,-1014.6725
-1906.2500,-858.3456,-1082.8043,-687.3156,-1058.3641,-421.1638,-494.5328,857.7062,1708.9177,1441.1362,1298.2051,-397.9005,-643.8878,-144.0740,-78.6847,1026.9703,1114.4611,-1170.8234,-1269.5103,968.7112,-1302.4602
-1898.4375,-1012.9229,-1095.9825,-811.9151,-1319.1467,-472.6427,-582.0665,1026.3888,1620.6029,1721.4836,1468.3867,-447.9198,-619.6941,-158.8065,-55.1800,1306.9745,1210.8949,-1326.0764,-1355.5227,1024.8649,-1411.9038
-1890.6250,-1007.4410,-1125.0984,-991.4174,-1349.8756,-579.0052,-725.5161,957.2328,1404.4056,2166.9895,1363.6382,-368.8245,-613.4018,-191.4262,-233.5569,1568.1105,1731.4734,-1110.3186,-1527.4930,747.1785,-1619.3815
-1882.8125,-1066.7830,-1113.0726,-1092.7438,-1375.4446,-606.1696,-826.7841,1149.3566,1266.4398,2249.7234,1410.1042,-505.5412,-639.9371,-182.8230,-296.7067,1834.4900,2110.2610,-1345.4579,-1517.3041,616.7948,-1628.5779
-1875.0000,-1166.9124,-1001.8418,-1195.8301,-1476.8384,-599.0790,-929.8249,1266.7983,980.7623,2367.7417,1344.8265,-459.0219,-593.2362,-137.9365,-287.6080,2099.1431,2155.2986,-1200.4012,-1513.8663,480.7542,-1645.1613
-1867.1875,-1091.6167,-1067.2236,-1266.4865,-1366.8292,-632.4937,-1000.4024,1231.7413,799.5779,2407.2053,1163.9795,-455.0580,-663.1056,-98.5609,-394.0639,2249.2229,2673.8005,-1160.9167,-1509.9564,273.2101,-1657.5677
-1859.3750,-1229.4110,-1028.7097,-1300.2092,-1471.9308,-555.8916,-959.9789,1492.6826,619.3829,2189.5925,1168.0835,-524.1626,-548.0422,-22.1888,-316.5366,2399.2231,2605.2209,-1405.5560,-1333.0416,345.6591,-1482.1176
-1851.5625,-1196.5774,-1030.5822,-1338.2825,-1404.4349,-519.5959,-924.8894,1490.2856,397.8700,2261.6294,835.8238,-449.6044,-547.3264,86.8540,-353.3722,2544.8396,2604.3193,-1197.5479,-1300.4659,201.7657,-1453.2429
-1843.7500,-1162.2089,-1030.9634,-1343.7910,-1301.4264,-450.7238,-893.2544,1595.4819,282.9458,2146.2161,685.1200,-563.4742,-514.0759,192.4592,-393.6568,2685.9963,2563.9795,-1375.0369,-1162.3523,129.4627,-1312.6447
-1835.9375,-1213.8959,-836.4059,-1249.2571,-1389.4359,-355.8426,-871.6136,1616.7200,83.0429,2057.8186,449.3931,-504.3134,-343.8157,214.0716,-297.9150,2523.1472,2402.6382,-1216.5608,-1039.2671,113.2125,-1186.2097
-1828.1250,-1010.8928,-880.2123,-1225.0184,-1117.7177,-294.2442,-847.2739,1382.6989,-112.1265,2008.1263,106.3440,-478.4655,-317.8649,238.3926,-346.4585,2473.9832,2354.0388,-944.4039,-872.5123,-37.3172,-1013.1498
-1820.3125,-998.4164,-796.5870,-1064.2692,-1000.5172,-208.1295,-759.4396,1323.2445,-245.7711,1690.9438,46.8031,-537.1398,-228.3980,289.2181,-294.4765,2339.3284,2221.9390,-1037.7812,-579.2841,-60.3050,-708.4730
-1812.5000,-817.2148,-579.1847,-834.7755,-785.5962,-125.2841,-640.8839,962.5841,-456.6536,1478.5702,-275.9887,-306.0767,-72.1822,259.7788,-285.7513,2163.4365,1826.6370,-575.4070,-505.3582,-265.5169,-623.5405
-1804.6875,-522.6756,-461.4347,-640.9404,-492.3561,31.8893,-558.0092,678.3413,-519.1614,1120.5790,-447.4114,-221.6791,-60.6287,270.6728,-273.6936,1767.9094,1616.7295,-493.7165,-353.1024,-324.3405,-452.0999
-1796.8750,-405.9242,-274.4810,-406.9022,-447.9653,156.2447,-433.9649,508.3436,-615.4489,765.8051,-506.6388,13.9368,102.1347,246.7620,-149.4457,1302.5791,969.0319,-272.8198,-167.6666,-207.9378,-242.6659
-1789.0625,-57.8381,-206.2305,-228.5644,-136.2997,224.9062,-328.6498,134.6799,-657.3969,613.3489,-769.5819,230.8665,24.1888,168.1592,-263.9110,818.5433,780.6675,145.3621,-66.9788,-282.2375,-117.6743
-1781.2500,62.2417,-86.9788,-30.2497,18.3241,312.5663,-168.3590,75.0821,-605.2979,186.9078,-754.5286,283.7938,3.2340,145.5728,-248.3735,391.5419,244.2942,124.4971,228.6664,-55.4946,215.4443
-1773.4375,255.7510,106.7099,209.4704,139.3505,369.6568,-1.6368,-89.0101,-658.7054,58.9714,-955.0435,488.1725,24.7246,54.4464,-265.3900,-104.9580,-323.6097,527.0739,313.6993,30.7379,332.7092
-1765.6250,479.0330,119.1572,365.9512,431.1393,379.5285,81.8604,-226.2306,-611.2698,-151.0980,-981.7410,463.3213,-74.0048,-8.8689,-326.6140,-499.5938,-495.6823,608.3998,465.4834,113.8175,513.2791
-1757.8125,446.1154,227.4243,592.2516,397.7161,385.2360,234.1913,-147.5331,-567.9488,-330.2619,-681.5707,433.3136,-67.8962,-77.3263,-284.9836,-752.3112,-1150.9000,610.5406,607.0772,326.8042,683.5317
-1750.0000,638.8722,209.3336,720.2239,623.9485,329.6311,251.1998,-313.0743,-512.8884,-274.6386,-588.6981,415.9848,-269.1333,-206.0739,-411.6667,-991.2585,-1242.3507,872.3521,622.3151,343.5261,718.1924
-1742.1875,652.0350,186.6321,842.6178,670.5693,305.4710,300.6479,-190.0937,-353.3323,-408.5105,-282.3471,246.0576,-363.9582,-267.3619,-434.9063,-1126.7020,-1449.2777,638.5554,739.9811,497.7610,856.3115
-1734.3750,607.6599,248.3730,910.4980,624.6430,188.7964,367.5842,-158.5279,-284.2407,-303.8260,-287.4740,203.5918,-333.3262,-310.1378,-367.6656,-1169.5815,-1711.6764,804.2407,659.1211,594.5417,785.2319
-1726.5625,652.6046,152.3884,843.7148,739.0281,86.4686,375.8429,-187.5520,-91.7498,-222.7136,-279.2343,29.4292,-470.3954,-302.5482,-358.1029,-1125.0559,-1444.6366,743.2217,561.5858,534.7164,687.8950
-1718.7500,402.3049,149.1449,803.7229,557.1544,9.9267,408.8832,31.3109,53.5782,-150.7544,-60.1817,-156.9603,-434.6952,-268.1311,-249.7558,-980.6705,-1629.7551,526.9578,591.8160,671.7529,719.8881
-1710.9375,422.5729,98.4295,715.3195,540.8424,-42.0325,356.4944,-20.1397,76.5388,55.8817,-111.5127,-133.7768,-485.4482,-283.0824,-300.8275,-921.6179,-1386.2256,722.2692,469.5834,516.4320,586.9043
-1703.1250,374.5845,50.4303,623.6913,455.2768,-58.1881,339.8903,37.3082,207.3406,2.3683,56.0156,-296.8535,-537.4604,-263.1970,-243.1053,-791.7161,-1179.8201,426.3032,490.1279,538.9721,598.5012
-1695.3125,235.7943,87.6065,555.2930,244.9023,-89.0894,308.5262,154.1235,251.4216,46.1785,99.8372,-289.7430,-457.2653,-258.0242,-163.1534,-675.5065,-1283.1508,498.5451,420.9049,611.8112,524.4850
-1687.5000,256.2022,-68.0455,390.1205,334.7382,-144.7303,252.3895,173.2798,343.7717,102.3903,118.9417,-343.4507,-547.8757,-312.5736,-216.9849,-582.9833,-821.1625,446.9656,263.9026,597.9282,360.4165
-1679.6875,62.4921,-50.8186,297.8728,139.4696,-162.4200,271.1798,377.4783,438.0807,48.6497,323.0110,-470.2506,-527.5732,-293.1391,-123.8968,-380.3672,-874.1923,182.2650,279.8206,722.0495,371.8158
-1671.8750,-9.4703,-51.8835,150.4043,100.9594,-236.3167,233.7320,378.5596,439.2054,196.8123,249.8905,-432.2698,-527.5311,-329.8672,-86.0466,-232.8333,-688.3916,390.3574,135.4952,615.0163,215.5370
-1664.0625,-56.5329,-134.0875,60.8777,158.3342,-324.2614,255.2021,474.6847,499.3034,146.0045,309.7383,-556.3804,-540.5893,-344.6108,-63.2752,-99.2590,-408.5793,131.3360,193.1009,534.9963,266.4474
-1656.2500,-222.6263,-125.3604,36.3477,59.6617,-311.2231,304.6487,562.8788,439.4276,123.2787,286.5726,-506.5169,-416.6935,-331.3320,97.4603,24.3936,-576.7291,140.3155,236.6777,475.0230,305.9821
-1648.4375,-70.5005,-219.4586,-26.9436,246.1969,-337.9372,277.3256,390.3979,413.8419,171.8442,113.7003,-458.4574,-479.6020,-320.7855,34.4285,35.3611,-160.5817,256.4835,141.5022,241.3518,200.2730
-1640.6250,-164.3796,-208.5648,-16.2056,150.7315,-252.5900,214.0393,513.0307,389.3307,37.5058,309.9217,-519.3841,-393.4971,-235.1809,46.4352,157.4452,-147.3595,-50.3240,186.3651,218.7892,235.8636
-1632.8125,-199.7890,-103.2332,-88.9938,77.7414,-250.7382,142.2342,479.2162,245.3449,261.7329,275.6601,-406.8420,-281.9387,-234.0630,-24.0798,234.0927,-33.5966,125.3497,-26.2951,78.7634,2.9128
-1625.0000,-186.8541,-160.5522,-189.3957,90.0986,-277.4739,4.8109,491.8914,256.7751,347.3972,360.8225,-468.9387,-343.0148,-222.5240,-87.2011,355.2029,383.5943,-73.6278,-48.5592,-46.8054,-38.1585
-1617.1875,-285.0495,-83.0214,-217.9082,-45.6780,-268.3141,-23.7310,575.5269,157.1080,394.0159,480.8798,-423.1523,-297.2227,-213.0654,-40.4490,439.2665,247.7223,-137.6969,-7.9382,-38.4422,-7.4824
-1609.3750,-181.2225,-119.4951,-258.3981,57.5767,-308.1066,-64.2428,353.2650,81.5019,540.7043,369.0024,-314.3619,-335.4182,-215.5509,-152.6757,474.4231,615.0651,71.2287,-151.2716,-284.0039,-167.4721
-1601.5625,-186.5931,-90.1523,-265.0587,14.6508,-278.0691,-107.9026,384.9145,112.7617,388.2754,509.9570,-357.7578,-231.7797,-148.1785,-85.0596,505.4818,610.3093,-217.0034,-122.7605,-288.6718,-148.1921
-1593.7500,-195.5881,5.5328,-309.3468,-65.9000,-247.6658,-152.1750,269.9969,-39.5674,456.2898,394.2933,-254.7857,-54.7919,-81.3979,-55.0621,462.9848,606.1389,55.1801,-202.8792,-400.9306,-242.5538
-1585.9375,-98.7782,-3.9768,-321.8067,28.3623,-186.4071,-165.6048,74.9812,-51.0357,409.1542,308.5159,-302.0099,-65.9879,-19.7585,-66.2015,414.3784,927.9120,-25.8354,-214.1238,-513.3195,-263.6647
-1578.1250,-208.6088,132.9031,-251.8918,-116.9777,-114.7432,-130.6108,112.3967,-125.0905,224.4451,271.1117,-302.8611,80.2169,89.2933,43.0791,414.2043,708.0458,-65.4580,-112.9437,-480.3010,-162.5198
-1570.3125,-69.6679,130.5588,-217.2052,-15.5109,-79.2973,-169.8085,-108.3466,-272.3180,188.5646,13.4919,-157.9590,152.1950,125.1609,42.1404,303.8692,930.0746,213.6586,-150.9676,-691.4688,-209.1726
-1562.5000,-65.8242,99.1180,-178.5929,21.8428,-2.9159,-131.0713,-67.0777,-340.5895,-65.3394,16.8784,-192.1383,229.0882,202.0050,155.0897,197.5375,972.2075,-30.3236,-7.0525,-685.6570,-64.0214
-1554.6875,-26.4451,138.1658,-97.4565,-45.2789,42.0257,-49.7929,-130.2199,-478.2929,-201.6436,-157.1519,-35.7895,385.4714,247.4191,238.5331,133.8058,725.9037,185.2619,31.4233,-714.2835,-23.0768
-1546.8750,105.5445,57.8077,-72.7024,120.2335,67.6202,-25.8572,-250.6514,-452.3102,-322.2801,-351.5269,-10.8393,337.4496,236.4991,263.6293,12.7734,1010.2631,209.4535,21.6018,-827.2345,-29.5003
-1539.0625,9.8551,138.7771,-24.6230,-11.9089,153.5396,60.4512,-125.6828,-437.9514,-564.5322,-301.5714,-34.5765,423.7417,322.9398,387.0504,-9.8692,731.9722,8.0067,101.1596,-673.8243,57.7204
-1531.2500,87.5550,110.1165,-18.1612,99.3593,160.8292,67.1727,-300.2750,-502.1772,-518.3647,-476.2103,121.0246,394.4390,367.7973,320.8564,-112.0862,815.0903,260.9418,2.1430,-735.0198,-41.3051
-1523.4375,50.9554,38.1895,14.0391,132.3574,230.8644,62.6597,-301.0552,-430.6566,-704.4504,-442.0889,43.3011,354.8812,475.4382,318.4222,-113.5226,924.9606,12.5859,70.9223,-663.4381,31.8693
-1515.6250,-9.6948,118.2629,64.2108,-0.6579,280.9041,112.1560,-322.8010,-453.1392,-762.5123,-538.0068,131.5361,516.3196,526.1208,406.0334,-171.9125,610.8335,127.1734,150.7090,-651.8294,114.6795
-1507.8125,135.6163,86.3777,103.3832,178.3882,321.0037,115.7022,-463.4434,-447.5667,-830.5236,-717.8818,207.8047,482.7979,492.8804,336.7520,-314.1944,837.7555,235.7133,118.5700,-786.1263,86.6753
-1500.0000,94.1391,220.7207,169.8088,170.6904,389.3687,145.5349,-429.7984,-488.7354,-1092.2689,-611.5323,202.2969,587.5024,524.9139,478.7321,-391.1835,576.7964,88.5085,182.7256,-720.1335,154.6845
-1492.1875,215.7511,343.1546,225.3422,257.1043,408.8449,127.5119,-629.0488,-578.7922,-1033.9113,-812.1317,332.8708,644.3180,471.0595,461.8006,-517.0694,524.8656,421.4139,93.0229,-841.0248,64.0068
-1484.3750,290.8457,348.0661,263.3768,331.0242,447.8335,93.0379,-660.7753,-538.3607,-1140.0778,-809.2595,334.9199,610.6418,511.7138,427.3932,-587.4749,603.3947,248.8201,132.8780,-869.3904,104.2680
-1476.5625,242.8324,439.8650,326.3641,210.8820,474.7309,119.5098,-632.6028,-584.0412,-1222.3387,-781.5464,434.8492,710.8508,538.2807,491.8830,-668.9960,227.7991,341.1362,154.6812,-738.8898,132.2246
-1468.7500,398.9139,419.7546,339.5055,365.9216,451.7436,59.1027,-763.3376,-531.6206,-1169.5243,-840.7670,559.8651,615.1324,479.9585,396.4568,-800.4156,355.2726,496.5655,28.6170,-827.3398,7.7969
-1460.9375,345.5332,436.1817,356.2044,311.5262,543.3132,76.2668,-632.5201,-475.6584,-1297.1393,-638.4332,466.4058,632.9639,498.1852,414.5877,-818.2653,117.2682,230.5549,151.0953,-702.2401,138.4049
-1453.1250,350.7954,476.2521,363.5274,315.8165,514.5177,84.0839,-733.0626,-503.0507,-1104.0778,-776.4454,548.5919,640.4306,470.0454,386.3687,-772.4690,-56.0260,482.2058,86.2040,-729.4876,73.9110
-1445.3125,363.7932,349.0551,336.6173,433.8889,488.4803,94.6696,-718.8324,-453.7031,-1053.2959,-764.7087,449.5080,541.6593,444.6504,287.9298,-685.9434,104.3907,318.6150,135.0989,-712.9883,126.3543
-1437.5000,178.7236,444.8360,328.7206,352.9775,481.4123,161.2321,-540.6664,-496.4282,-985.5989,-661.0936,442.3735,608.8614,401.2153,317.4591,-580.5008,-304.3013,203.0237,229.9809,-579.6027,227.2967
-1429.6875,280.3414,406.3859,250.5903,453.8368,404.0558,119.4983,-615.8199,-498.4806,-767.2536,-774.8228,474.9311,494.7673,361.4778,203.6792,-510.3727,-158.3183,375.1934,121.5749,-651.5808,114.3830
-1421.8750,216.1985,342.1966,255.6914,389.9187,409.8913,88.9419,-460.7755,-418.3846,-759.7225,-547.3619,333.6922,426.8923,330.9220,210.0860,-355.0373,-297.1732,28.6273,233.3485,-501.3798,229.2373
-1414.0625,178.9121,339.8525,218.5836,315.8344,373.5061,88.1544,-457.9520,-453.5305,-536.3937,-509.1254,370.2477,427.8192,295.1539,137.2628,-242.8976,-515.1954,202.9575,160.8875,-431.4020,155.9340
-1406.2500,242.8056,192.7105,171.6324,414.9121,291.2729,79.5053,-500.9751,-387.5546,-396.9701,-517.7491,324.9356,271.9124,250.5451,55.5857,-139.6215,-264.0924,90.4776,153.5943,-435.2848,145.7229
-1398.4375,74.0409,233.9291,180.0048,244.3116,299.3544,88.1582,-342.7227,-377.3181,-423.2899,-398.1367,296.9536,318.3233,260.2538,102.2022,53.9257,-584.7449,-9.6241,195.6136,-285.9079,190.7520
-1390.6250,180.5172,200.3743,144.5953,314.9512,228.6605,16.0154,-449.2827,-410.9043,-235.4333,-431.3629,336.1923,209.9189,152.1737,-41.9973,93.6410,-396.2211,238.4849,125.8487,-353.3552,116.7965
-1382.8125,137.9363,192.7851,136.1351,306.5482,182.9407,6.8313,-344.8763,-307.5602,-278.6287,-182.6551,143.4053,128.4537,108.0539,-49.2472,160.3236,-365.8222,-16.4596,224.0501,-287.8415,217.4033
-1375.0000,103.2109,264.0374,139.5135,201.0270,114.0799,48.5029,-301.6247,-301.3676,-198.9665,-177.1291,147.4933,206.8012,39.7902,-8.6667,166.8909,-579.5869,195.4702,189.1008,-285.4902,184.9770
-1367.1875,223.3697,208.1677,116.7928,355.4235,55.1357,62.0801,-395.4572,-213.2700,-146.3989,-272.6856,51.4752,111.0009,-19.5529,-30.1980,108.3869,-305.4790,209.2625,133.0850,-339.2344,131.1143
-1359.3750,124.9195,285.6872,124.4955,256.2301,27.6068,107.0660,-273.8850,-128.7779,-282.4370,-152.8426,-13.1381,193.5676,-46.4777,126.6537,46.3042,-552.0200,75.4765,210.4980,-189.5918,215.7895
-1351.5625,178.1285,268.8234,107.8618,308.7151,-25.2591,127.7010,-434.6665,-107.6331,-149.8197,-278.3532,81.8825,177.7383,-98.7372,74.1249,-79.0959,-418.8867,339.3356,87.5741,-204.3192,93.2250
-1343.7500,197.9721,217.5897,52.8853,292.8506,-43.4649,109.9942,-376.7796,-50.8477,-239.5558,-186.1904,-9.4612,123.5341,-78.3315,93.2476,-130.8263,-287.1302,112.8270,178.3257,-77.3877,184.0959
-1335.9375,84.0732,314.5798,84.1544,143.2631,-47.4188,141.5413,-268.6393,-17.8197,-316.0442,-152.7833,22.4423,155.5548,-82.6620,162.6051,-171.2859,-510.1260,174.5921,239.3383,21.7747,252.7156
-1328.1250,230.8649,179.2384,52.1280,253.3935,-79.6663,108.7931,-334.7777,61.9082,-236.8361,-257.6474,27.0137,50.2555,-113.2751,57.6678,-238.0183,-209.4523,215.0197,245.0852,-76.3675,259.0962
-1320.3125,116.0803,205.3362,80.5619,102.9784,-50.4595,174.5089,-193.4460,128.0744,-390.1669,-118.0522,19.0167,79.3916,-120.4244,124.1825,-281.3013,-362.3438,-6.1010,412.3175,22.9272,432.4343
-1312.5000,214.7947,268.9074,111.5114,131.0965,-91.7514,169.7360,-306.6073,51.7368,-355.9644,-195.9629,198.4921,74.9953,-161.0596,46.1769,-357.0700,-364.7435,303.2787,335.0758,-88.3055,352.7380
-1304.6875,282.6844,301.6621,69.6862,233.4239,-95.8318,127.1726,-345.5425,84.5845,-469.5640,-126.6592,193.1310,69.7730,-164.4836,4.3529,-434.5861,-183.9592,159.8354,368.0732,-158.3467,380.8885
-1296.8750,207.0708,506.8883,102.3847,121.2782,-99.4066,161.1090,-272.9832,-28.1006,-507.6463,-128.8786,227.2521,214.0155,-203.4106,75.9933,-472.5579,-478.6210,259.9421,397.5857,-126.9219,410.9556
-1289.0625,379.8524,469.4886,60.5078,259.5758,-139.5749,119.4388,-422.0228,-67.4110,-400.3282,-280.7053,295.7302,172.6125,-243.9405,-1.9893,-512.1023,-223.8044,433.4557,254.5332,-267.1270,260.4537
-1281.2500,307.9319,467.3958,55.9620,187.2154,-106.4340,115.0876,-276.7647,-70.4523,-439.7088,-173.2567,218.4882,168.4943,-137.1673,68.3230,-403.3267,-372.7639,114.3159,288.8289,-196.0645,291.5780
-1273.4375,278.8976,403.1571,26.2932,157.7922,-136.4341,121.6130,-340.6919,-99.6793,-284.2363,-277.0179,335.0847,175.2070,-165.5461,75.4681,-284.6833,-437.9503,296.0840,154.0162,-188.2031,153.2628
-1265.6250,321.4737,268.5414,-7.7523,235.0295,-132.8251,51.7644,-373.0291,-58.3426,-242.1859,-163.2082,227.2663,68.5162,-162.3235,-30.7849,-206.4201,-174.6296,128.4585,90.8593,-144.7640,86.3369
-1257.8125,122.5759,280.4457,5.7221,34.8094,-118.7180,28.4422,-172.8967,-7.5460,-153.6388,35.0614,131.9574,119.3147,-184.6076,19.4487,-79.6540,-416.8440,-36.6048,102.2289,9.1337,99.6303
-1250.0000,80.9049,133.5559,-74.5872,99.8323,-125.4088,-15.6696,-250.5848,23.4252,99.0877,-7.4825,87.8393,2.2831,-153.6952,-60.1275,-11.6905,-163.8486,97.5503,-8.1635,-64.8027,-14.9219
-1242.1875,-31.4083,22.0400,-45.5307,22.2218,-58.7363,13.5863,-108.9302,127.7085,56.1380,169.3093,-66.9264,-79.4094,-49.4335,-30.3684,93.6221,-206.5229,-260.9084,91.8276,0.5899,89.0095
-1234.3750,-88.7839,-0.5630,-29.5664,-35.4424,-5.1552,30.7472,-126.4163,34.8488,112.0716,148.9662,23.2177,-25.2289,4.7260,-12.7438,147.8126,-371.2309,-71.4017,34.7299,-55.1653,30.1866
-1226.5625,-14.0911,-103.1039,-26.5455,108.9668,-2.5168,-4.0304,-194.8688,2.0059,116.0052,152.6674,-47.5947,-97.0225,44.9351,-47.0860,153.0473,-72.8574,-138.8250,-32.2815,-120.8828,-41.5047
-1218.7500,-174.0264,-87.2792,-44.1683,-51.2474,-18.5253,16.5565,-26.0053,-50.5134,64.2605,319.6889,-138.0405,70.5248,29.4926,83.9043,248.6167,-308.1364,-227.8272,-15.9220,37.7175,-25.7965
-1210.9375,-140.9354,-124.4421,-116.7846,17.5879,-91.5234,17.1536,-96.1812,-123.0410,322.4709,209.6917,-100.4889,34.0548,-42.9602,10.8806,214.1730,-121.4002,52.2011,-122.5336,-32.7182,-136.5823
-1203.1250,-159.0914,-177.8253,-173.6380,-1.8087,-109.7585,-2.4791,33.3701,-31.8442,268.3803,301.4358,-230.1830,-21.6566,-61.6636,28.6140,306.4714,-27.9679,-248.0027,-35.3496,90.5801,-48.5021
-1195.3125,-250.1684,-93.1438,-154.4288,-93.1148,-89.9425,15.9575,90.9236,-84.6242,252.3107,247.1931,-173.8190,34.6742,-114.3228,84.3807,328.8060,-190.4866,-58.1052,-21.0852,106.8934,-29.7790
-1187.5000,-117.4355,-172.6524,-163.4120,73.4035,-136.3191,7.2079,-25.7461,-19.6211,280.9831,164.7625,-220.6632,-49.1966,-159.1818,-34.0558,246.9397,95.7714,4.5905,-28.9733,63.9959,-33.8628
-1179.6875,-227.7485,-141.1848,-129.4359,-70.1135,-137.7365,41.4233,83.4997,15.3008,170.5715,347.2757,-259.5479,22.8904,-197.0897,37.4559,247.0188,-124.0665,-175.7160,73.1221,273.0270,73.4610
-1171.8750,-126.5898,-146.2646,-131.9981,-41.1450,-213.6966,2.1019,9.1541,12.6509,279.5774,271.2265,-151.9822,-53.5863,-272.5490,-74.5982,172.5363,-14.4414,135.4551,-37.3003,269.4814,-35.0756
-1164.0625,-57.0321,-182.9352,-136.1457,-6.7716,-216.2385,-0.8076,45.1963,120.3781,203.9413,378.5716,-192.0127,-130.6698,-275.5996,-151.2576,134.4442,57.5595,-110.9654,32.7301,305.3299,37.6318
-1156.2500,-91.7511,-146.9129,-58.5842,-110.6690,-175.0681,40.0004,50.8996,88.7837,208.9841,419.5819,-77.3253,-90.0928,-232.9443,-110.2516,67.0391,-230.7129,-5.6350,34.5038,306.8481,42.5314
-1148.4375,89.5018,-175.9563,-53.0699,34.4143,-169.9341,7.7846,-125.4663,94.1305,251.9291,277.5359,37.3046,-158.6382,-264.3323,-178.3287,0.5907,-3.0130,141.6500,-64.6981,103.3026,-61.8964
-1140.6250,53.3686,-107.3865,-17.9531,-70.8763,-133.1945,-28.7945,-50.2452,57.0639,68.4411,424.0675,0.5310,-49.6553,-227.1109,-68.8237,37.7508,-185.7623,-34.4096,4.7650,173.3423,3.8843
-1132.8125,111.9725,19.8978,-29.1447,-49.4106,-105.7679,-75.6446,-132.3571,-25.3238,133.6393,304.2581,136.4243,13.0266,-200.1918,-115.6480,-79.3851,-193.8378,234.2830,-112.0322,57.0569,-118.1682
-1125.0000,167.2742,5.9084,-9.6391,40.7676,-86.6491,-92.7804,-184.7595,30.9492,7.5239,323.1323,80.9714,-41.5721,-143.5667,-132.7581,-132.8057,-26.2700,77.6808,-21.1000,-26.5081,-27.8604
-1117.1875,94.0585,107.4002,27.3550,-102.5539,-13.0155,-19.4112,-108.6702,-41.3294,-64.0801,324.4582,155.9954,68.4275,-104.4180,-95.3249,-129.7251,-354.2603,75.5973,82.3419,5.4273,78.1975
-1109.3750,222.2516,59.3580,13.8046,26.6023,11.1147,-32.5627,-230.1433,-53.1888,-3.2764,127.1915,215.4560,-54.0868,-79.7955,-181.4178,-214.2280,-108.8505,239.9471,36.2969,-110.1932,32.8971
-1101.5625,139.6326,11.5485,36.4933,-21.9717,108.4898,27.5441,-58.4617,6.1122,-162.3509,187.0739,128.1452,-105.4398,16.0297,-122.3350,-263.6004,-231.3073,-53.4324,200.5491,18.3678,209.3533
-1093.7500,158.7230,30.4668,132.9022,-1.7634,131.5294,51.3437,-107.2132,-43.9674,-175.8486,25.5531,187.5097,-82.1918,77.4732,-98.6561,-349.4109,-390.2110,175.9198,185.5411,3.5360,203.0277
-1085.9375,178.6034,-54.8258,152.1452,88.2696,151.3369,32.9195,-50.2713,11.6836,-229.6731,7.7871,95.6416,-137.1962,96.6465,-153.2351,-292.5363,-186.4885,-14.9862,170.3677,-10.5588,190.7418
-1078.1250,13.6299,-9.0134,203.5627,-41.5508,166.2692,85.6126,75.6942,-10.5815,-287.4361,96.1209,36.9210,-49.0962,148.9025,-28.7227,-202.6273,-501.7552,-107.7531,218.3326,107.4145,242.9001
-1070.3125,87.8534,-41.0338,170.1812,102.8336,133.3809,89.4660,-29.2661,-42.7042,-136.1026,-83.3831,40.3791,-82.8374,80.2994,-61.0726,-197.6332,-312.9335,140.6404,46.4760,5.5113,70.4196
-1062.5000,5.8950,-51.2028,121.6251,57.0543,122.3233,77.1346,106.5231,54.9441,-111.0321,49.9110,-118.3211,-132.7606,68.4929,-0.6020,-97.8869,-323.4295,-186.1252,106.4487,136.3947,130.3820
-1054.6875,-85.9753,-39.2770,65.1221,-70.6044,66.3359,93.8811,161.2897,35.6149,127.0385,-6.7954,-64.9283,-78.5995,12.7181,15.9353,29.8551,-452.9338,-32.7659,15.4838,150.2688,34.6753
-1046.8750,-27.0197,-120.4858,13.4371,59.5944,15.1718,80.4582,111.7907,95.0539,222.8241,15.2629,-115.7209,-203.5864,-1.2718,-70.6926,16.3493,-134.7207,-77.5668,-30.6437,33.8989,-15.4787
-1039.0625,-144.9838,-63.5644,76.8363,-59.0996,42.0740,106.1084,212.2698,121.4935,65.6034,151.3108,-163.4436,-141.4674,25.7664,27.7606,43.8426,-365.5508,-231.2337,63.3057,162.5222,83.6185
-1031.2500,-33.9066,-92.5895,48.2765,18.2630,-23.0152,77.7694,37.6885,55.8994,147.3302,12.3219,-82.1584,-133.3129,-2.2215,-0.7833,16.2923,-173.4241,56.1346,0.2894,29.0979,12.8275
-1023.4375,-74.1060,-167.8535,41.4589,48.3492,-29.3984,108.1425,68.7713,85.9701,67.6948,116.0254,-162.1481,-140.4145,-8.5338,29.3845,47.4149,-68.7017,-194.7613,66.0082,94.3429,78.3352
-1015.6250,-113.6869,-67.5023,77.2185,-25.9611,-29.2280,108.0708,105.3346,-25.4430,67.5527,225.2416,-126.5349,-31.9447,-45.3272,102.0839,11.0341,-289.4819,-58.0195,-7.7091,126.0799,2.8230
-1007.8125,-12.1599,-107.0430,35.0444,110.8251,-34.9989,29.0590,-10.1011,-31.8305,134.3746,218.4991,-131.8412,-110.4184,-88.0852,22.8353,5.6391,34.7239,7.8081,-117.3284,15.8412,-114.2301
-1000.0000,-149.7379,-68.6736,39.7439,-26.4977,-65.9037,70.9140,143.2639,-26.3960,29.9764,407.5712,-200.2599,-70.0243,-82.0004,101.4420,122.0222,-142.3117,-198.4432,27.9418,89.4268,30.4798
-992.1875,-115.9150,-68.9103,3.8113,7.5910,-101.4441,35.1302,34.9206,-25.6250,214.8730,296.9646,-127.3005,-106.2758,-117.5784,-7.6134,160.6860,-32.0363,45.6915,-77.4149,18.3408,-78.7031
-984.3750,-62.3297,-155.3477,21.6340,-8.5446,-84.2208,-20.8937,52.2993,64.8859,157.4716,387.1252,-219.5640,-198.7622,-136.4202,-64.9123,215.0530,132.8871,-180.4156,-22.9959,107.0272,-23.5594
-976.5625,-179.0131,-133.0502,13.1515,-159.9429,-128.2908,7.7892,192.3276,56.0881,259.7585,414.9732,-191.0880,-170.5480,-144.5827,-35.5197,244.0741,-132.5482,-121.7735,-33.8692,307.4113,-28.6174
-968.7500,-84.5189,-213.5899,-36.1746,-66.1621,-178.1960,-41.3714,142.4675,116.4433,357.1525,253.9857,-167.4423,-257.1949,-193.6042,-158.9815,195.2105,185.1191,7.0121,-79.5625,260.9556,-72.8790
-960.9375,-202.0113,-225.1086,25.5149,-147.3666,-115.0813,20.4835,315.5668,178.7844,198.5211,316.0030,-214.7712,-268.8434,-131.6216,-97.4425,184.3177,-10.2906,-249.1860,85.7713,389.5042,104.7946
-953.1250,-142.9811,-272.1340,89.7176,-124.0365,-87.4525,47.8438,232.1084,131.6254,298.3783,84.5309,-78.6002,-279.0106,-104.1373,-144.4165,137.9128,-57.2218,-50.8698,39.6229,378.5454,63.4402
-945.3125,-96.3589,-401.5482,62.5368,-42.0990,-77.2025,-16.1876,279.2309,214.0697,270.8080,130.6921,-142.8412,-342.5738,-57.0522,-170.7808,148.0945,136.3779,-248.9813,52.1059,354.2054,75.1754
-937.5000,-174.5317,-234.7640,94.5627,-224.9454,-44.7446,-20.0163,348.5132,135.7086,229.4438,199.0617,-109.8759,-164.9384,-61.7718,-64.9527,217.4839,-162.8623,-222.8704,44.7998,347.0610,61.0778
-929.6875,-69.1553,-199.4483,59.1390,-84.2284,-43.7237,-93.2914,129.3267,99.9094,303.6255,125.0107,-72.3684,-201.7723,-133.9409,-101.5886,144.4395,95.4429,24.7512,-23.9367,171.4723,-15.3949
-921.8750,-115.2968,-174.6380,121.2216,-95.0193,-54.1873,-67.0645,191.6353,124.6054,181.3131,297.4836,-157.3585,-213.1153,-71.6038,-39.7360,133.9052,10.2139,-233.1464,70.8517,230.3995,80.6647
-914.0625,-33.9790,-58.3892,172.7577,-118.3413,-39.1922,-89.3927,95.3704,28.7484,195.4770,164.4082,77.1089,-199.0354,-93.8172,-99.4631,74.8234,-85.5448,95.4063,12.0971,100.7615,19.4130
-906.2500,176.2319,-60.2418,131.2074,56.2429,-6.2818,-129.8192,-18.9913,23.7881,80.5314,122.2573,183.4711,-276.0756,-97.1321,-177.3014,-2.3493,130.5681,58.8246,-22.7219,-41.9727,-20.9664
-898.4375,141.5975,81.0585,133.8218,-13.0094,-3.2088,-54.0895,20.7701,-48.0353,8.7471,124.2553,259.9985,-164.9767,-58.3053,-65.0072,0.6182,-162.2046,24.4144,-21.3626,-40.5659,-23.0222
-890.6250,261.3800,95.7519,38.8553,108.1709,-24.7223,-38.9567,-74.0936,-106.4583,60.3600,-82.3385,384.9266,-187.4991,-43.0893,-86.3450,-58.0305,-0.5851,285.3895,-181.5664,-201.7687,-188.7059
-882.8125,239.7625,74.0554,13.5181,120.9556,-12.6191,-27.2141,84.6290,-58.2926,-38.4378,39.6717,249.4659,-212.4243,5.7149,-75.0880,27.9076,-62.4367,-53.0373,-132.1245,-83.3627,-136.0169
-875.0000,133.8228,39.0138,-58.1454,16.4225,-9.8509,12.1825,123.9598,-57.4886,110.4029,78.3044,288.6765,-211.7230,8.1604,-73.1992,67.4736,-207.6605,53.2191,-166.0034,-12.3198,-169.3619
-867.1875,143.1982,-128.7173,-125.4759,61.2118,-39.7538,17.8931,92.5678,58.6108,189.4968,83.2284,220.1949,-315.7346,-22.0966,-142.0146,73.3163,128.3570,-43.2380,-191.5291,-3.9749,-195.3158
-859.3750,-20.2065,-115.2249,-110.5709,-136.7864,11.5672,32.8122,217.3372,109.8903,92.7676,170.3321,161.9431,-191.5489,-8.1568,19.3534,88.3275,-115.4964,-206.4589,-106.8185,184.5683,-106.4040
-851.5625,34.6749,-167.4759,-126.3835,-117.5059,-3.8326,16.9876,128.3132,130.4103,186.2602,6.6645,218.9529,-244.1369,-23.9723,-33.0588,35.5556,15.8816,59.5886,-191.8236,168.3563,-188.5276
-843.7500,14.4713,-220.8112,-112.2655,-136.3215,10.6914,31.0713,142.1725,216.8168,52.6092,56.8906,48.8765,-304.8307,27.1135,-56.5828,86.6577,102.0852,-171.4517,-34.8857,290.0683,-26.0415
-835.9375,-57.9471,-189.3864,-74.3726,-244.3592,49.9838,69.9043,253.7340,180.9595,16.6841,-53.1668,87.5815,-230.7892,65.9457,-19.3850,88.4755,-154.9977,-67.6876,34.8253,358.5325,52.8871
-828.1250,56.8593,-249.7576,-103.2575,-94.1831,20.5000,2.9417,187.4698,224.2990,96.9146,-120.0203,57.4959,-334.5647,72.9763,-196.0018,58.4652,109.0770,11.2791,-26.2284,296.2164,-7.0741
-820.3125,-28.6180,-195.4106,-44.4240,-143.3017,43.7327,-11.3124,282.8735,209.3249,44.8258,48.8197,6.1351,-275.6451,58.6981,-137.9329,44.1240,-163.2135,-108.0154,31.4416,422.6216,56.0882
-812.5000,45.3405,-86.6624,-2.1827,-104.9951,12.3792,-80.1683,140.6364,103.7476,159.1204,-57.9445,122.1885,-199.3444,-10.1908,-170.4918,12.1580,-123.1172,212.1146,-140.4703,284.4326,-124.2266
-804.6875,129.4037,-72.7996,47.1699,-20.5873,-11.8566,-103.9188,115.4865,152.2641,23.4914,-9.5930,23.3514,-150.9475,-70.9901,-158.9592,-11.7245,-0.9884,50.3453,-125.2502,263.3726,-109.1449
-796.8750,72.8389,46.4236,100.8757,-181.8107,6.2634,-123.3104,168.6437,131.1212,77.2094,44.0936,77.8888,-60.2162,-54.4497,-105.0967,4.7190,-241.5459,63.9771,-180.6599,276.6668,-169.1105
-789.0625,199.0367,-38.5983,10.3370,-55.2598,-10.8544,-177.9450,4.5195,113.7263,279.6506,-84.4542,134.1793,-152.7558,-34.1667,-160.4978,23.8920,143.6205,155.3523,-369.2859,86.7305,-373.1451
-781.2500,65.3889,-32.4549,-20.0424,-153.5546,-3.8060,-208.4186,157.5233,119.4768,248.2323,68.1525,66.6382,-73.1582,8.2595,-43.7621,141.1913,38.8647,-155.1006,-290.7288,127.9645,-301.8971
-773.4375,55.4593,-7.6229,-64.7249,-198.1200,-11.0536,-179.1859,112.1864,36.9307,313.5124,-87.5438,95.7989,-44.8972,37.3828,-52.3476,169.1749,65.7986,117.1671,-300.4393,47.9129,-314.3947
-765.6250,80.6152,-52.6938,-77.2973,-67.5778,-23.1877,-155.8340,134.9465,59.4947,188.8708,-139.1211,-27.9602,-133.5593,60.6091,-29.8371,119.2492,308.7775,1.5117,-168.9980,-33.0067,-178.6274
-757.8125,-29.6298,13.8463,-4.2678,-176.4221,50.2837,-45.8750,244.2852,-52.3426,2.8355,-140.1065,-29.1203,12.3708,97.4307,79.2617,81.9068,12.3093,-1.5127,-29.9319,33.6877,-31.0753
-750.0000,91.9195,29.1850,11.5584,15.5459,29.5597,-67.1140,75.4179,-110.3731,17.5871,-308.2883,23.4904,-9.9002,39.0586,-16.8405,-49.6448,247.6128,260.2482,-84.0306,-91.7917,-83.4073
-742.1875,75.0424,47.1386,29.9879,-0.8913,48.4431,-48.7409,130.1522,-55.8052,-186.0743,-218.8672,-68.3176,81.4529,57.2918,37.6704,-68.6098,154.4290,-3.3896,41.5144,32.3619,46.2838
-734.3750,58.0704,99.9870,52.3307,-52.4057,34.2325,-26.4533,77.7569,-72.3430,-201.8410,-307.5591,26.7694,138.7050,42.4255,22.0814,-120.6968,27.1078,191.9016,60.9833,85.4154,70.1911
-726.5625,114.3474,-19.9037,34.9460,109.3462,17.2954,-43.8957,22.6009,57.3665,-109.3908,-251.9996,-26.9005,84.2041,24.8123,-216.2478,-175.5604,265.9515,37.4245,48.7499,106.7444,62.3667
-718.7500,-40.9646,71.6252,22.9821,-44.4847,42.7803,-18.9160,193.8111,117.4577,-85.5501,-82.0583,-76.1444,181.0987,12.5973,-230.1799,-151.0583,-5.9053,-82.6138,70.9397,233.4986,89.0183
-710.9375,72.6839,79.1121,-6.0194,33.6585,14.2328,-47.9762,53.9541,88.5047,31.2358,-222.1692,41.5594,114.9269,-53.6807,-295.1730,-180.6360,184.1306,172.2873,-24.8972,65.2479,-12.7336
-703.1250,49.6077,90.9128,41.2870,46.0945,61.9910,-37.7193,63.4002,170.8540,-143.6744,-138.9588,-21.4512,87.0651,-42.6675,-212.8616,-206.9387,193.3521,-97.5086,93.5956,77.3716,108.4584
-695.3125,28.7282,175.9190,59.8004,-44.2518,80.9544,-19.2536,7.0230,78.4138,-200.3610,-158.5501,69.7383,251.4088,-62.4666,-85.3578,-299.0812,-12.2975,92.9268,109.2879,56.7405,121.2870
-687.5000,112.8885,153.9850,35.3682,145.4515,56.9898,-6.7319,-165.3095,127.0400,-189.0145,-184.0722,44.9826,188.8165,-49.2109,-110.7946,-324.2072,256.0186,72.3884,55.0422,-139.7897,60.3661
-679.6875,26.0427,278.0688,55.9338,24.1439,115.0483,13.8052,-108.6521,109.6769,-242.6665,-90.5961,28.2518,319.2316,7.0478,-18.2243,-304.3600,-19.7510,-85.1364,74.7985,-86.2928,76.5118
-671.8750,136.7476,353.6940,-11.9531,65.3976,47.6718,-17.1007,-286.4579,77.8906,-90.7663,-233.5637,181.0715,324.1688,12.8636,-49.1126,-335.9696,168.0025,166.8725,-128.8816,-290.2321,-143.3469
-664.0625,186.6672,403.5729,-110.5827,80.8913,23.5623,-41.7474,-239.0079,88.3719,-189.6183,-149.2569,156.1396,334.3499,-12.0648,-1.7533,-288.3331,286.9312,-28.8873,-148.2818,-345.8824,-173.3717
-656.2500,143.2374,536.1083,-153.5559,-67.9466,-18.8847,-47.7435,-208.9441,-28.4906,-197.8103,-156.3067,259.8703,474.1665,-55.3414,138.2344,-258.0658,94.4664,139.0348,-190.0140,-353.8653,-224.7523
-648.4375,293.5090,440.3438,-218.8138,118.9202,-48.6066,-41.0372,-350.1902,-59.6332,-154.3403,-296.6418,267.3027,369.6739,-121.9065,70.9098,-288.1268,393.6520,254.6305,-213.0046,-449.1170,-249.0170
-640.6250,226.7269,443.5435,-180.1071,16.7255,-46.3574,-2.3788,-238.4910,-58.8170,-263.9489,-76.0195,194.7053,333.1373,-266.5099,108.5273,-287.2689,245.7078,82.1929,-33.0196,-269.3907,-60.4590
-632.8125,256.9518,438.7347,-147.3856,82.5458,-13.0871,-43.7255,-354.8107,-135.9832,-50.5727,-153.4006,301.1160,291.5875,-419.1046,-44.8665,-329.4367,275.7393,323.7575,-36.0120,-308.6604,-60.4994
-625.0000,286.1621,291.9373,-84.6483,147.3593,50.2017,-53.0718,-403.1231,-111.1414,-135.2204,-91.7598,216.5243,206.0455,-355.6964,-165.2504,-304.6084,482.6864,107.3026,65.0155,-314.8940,42.8970
-617.1875,117.8177,299.5928,-2.4612,50.6264,97.9432,29.0244,-357.0044,-138.8526,-199.3910,-82.6509,189.3793,250.9569,-272.8544,-157.1937,-221.3452,232.0346,80.3253,145.4792,-200.6189,132.2368
-609.3750,144.5607,150.3400,-12.1784,182.9893,123.7797,-17.7867,-443.7804,-114.4429,-102.4571,-205.3968,103.2919,90.9598,-210.9276,-243.0423,-197.0037,512.4576,177.4198,139.0704,-279.1624,129.2856
-601.5625,-6.8195,103.9981,13.0480,102.2414,186.5245,-29.6842,-235.6404,-90.1142,-188.6392,-108.2382,-54.9246,42.8635,-112.0982,-144.9980,-98.8160,350.7035,-113.5837,270.6265,-112.7640,268.9551
-593.7500,-6.8764,102.9660,49.6313,31.8222,188.5843,-65.2768,-235.2155,-89.4706,-115.5528,-217.8143,-16.8365,78.0594,-74.9628,-108.6768,-135.3855,275.2224,95.7285,166.5165,-113.0825,166.7260
-585.9375,61.1788,-3.9375,46.3373,135.5060,183.7677,-70.7711,-277.6877,-21.7223,-121.3988,-187.2956,-95.6203,36.3600,-79.7197,-114.2615,-104.8863,488.7617,-80.8803,61.5226,-114.2747,59.2792
-578.1250,-123.8182,-12.8728,74.9553,-47.8562,177.9031,-3.3229,-175.2200,-29.0244,-129.2666,-10.8300,-102.4291,100.6130,-13.5246,-11.8962,-2.4463,147.1938,-159.5221,53.4632,52.5336,52.8217
-570.3125,-77.9977,-141.9701,14.3892,33.6276,152.8972,-29.0290,-238.8961,-18.4539,27.7435,-74.4828,-128.4109,1.7064,-39.4774,-38.6891,-29.1578,376.4573,27.6434,-38.7358,-5.7316,-39.7249
-562.5000,-210.8808,-169.7136,-13.8278,-27.5785,199.2483,16.6205,-10.2209,26.4916,-1.8738,79.2594,-267.0637,-27.8389,42.9242,5.8737,15.4703,308.0120,-315.8715,42.4267,73.4345,44.9309
-554.6875,-283.0785,-100.7697,-12.3361,-63.0963,165.3045,16.9662,63.1202,-9.8240,108.2301,-29.2783,-192.0242,9.3024,117.0253,42.1256,51.7755,86.2725,-141.6960,-63.7116,72.3473,-59.7595
-546.8750,-243.9004,-202.4403,-45.4260,10.7575,168.7679,-15.2897,65.8581,29.3090,146.7271,-63.3669,-226.6098,-62.1675,156.5285,44.7842,54.4762,306.9062,-243.1801,-127.4341,42.7236,-126.3636
-539.0625,-335.4527,-152.8201,-28.2151,-150.1191,187.5290,0.7474,265.8958,45.7850,163.5511,-47.1160,-245.8992,26.6499,210.3289,134.7368,107.4831,-82.1880,-334.3775,-76.8650,163.4541,-70.3631
-531.2500,-210.2322,-168.4315,-43.2118,-60.2113,136.0873,-50.4307,139.7568,-6.8813,294.2017,-246.0189,-114.4166,10.2350,194.9304,44.4753,91.3153,8.5397,-33.8366,-160.5042,43.0314,-157.5890
-523.4375,-188.8088,-181.8217,15.0292,-38.1036,121.8917,-64.3630,123.9179,51.7513,94.1284,-77.6186,-202.7014,-40.9547,180.7864,65.4726,112.4375,-8.5081,-187.1080,-30.8953,101.9193,-23.6967
-515.6250,-209.1622,-96.9962,36.4902,-161.7682,106.9364,-82.0592,107.3575,-38.3196,113.3636,52.0474,-108.7366,14.0712,126.8990,121.7113,95.8513,-248.2828,3.8363,-50.0661,153.0900,-46.2551
-507.8125,-99.9568,-163.6073,1.5264,-18.8800,72.5839,-115.1683,-38.5459,-36.7435,151.2313,90.3609,-144.1876,-94.3281,129.6273,12.5503,22.9150,7.5544,42.2959,-44.6503,122.9023,-43.4787
-500.0000,-244.6407,-131.0956,0.6866,-126.8902,72.3826,-81.1415,142.7408,-0.9911,39.2955,235.8472,-219.4827,-24.5884,127.5240,157.5349,58.1734,-289.4708,-172.1286,59.9006,331.9043,68.2565
-492.1875,-220.0977,-142.3702,-43.9278,-65.6786,28.4373,-51.8851,61.3074,28.0465,177.6496,116.5997,-117.5293,-33.6198,46.6825,148.7625,49.7157,-264.2146,63.6495,-54.3153,253.1796,-45.6946
-484.3750,-216.0025,-208.0608,-77.9568,-61.9157,-4.9000,-86.0466,100.5221,177.7060,142.6304,229.9861,-224.9834,-69.0467,12.4556,150.6013,88.8944,-117.3867,-213.0289,23.0686,294.0984,30.2968
-476.5625,-333.3254,-150.1750,-122.4006,-178.5789,-48.6299,-19.6218,165.3501,169.9798,207.2610,331.9639,-232.8262,32.1229,4.8356,179.0358,153.6901,-348.9556,-155.1082,48.0373,319.6313,53.6875
-468.7500,-218.2664,-244.9083,-185.4510,-26.8639,-111.9520,-47.8143,-10.3999,178.6722,326.3069,193.3532,-224.2772,-33.3143,13.6310,112.8709,124.9037,-12.1282,-38.8325,25.4139,155.5939,23.2259
-460.9375,-305.3320,-156.7449,-129.6064,-78.2846,-91.3650,9.8859,156.7707,199.2659,162.2778,249.6443,-313.8234,-13.8410,34.3361,206.6121,182.0296,-214.4448,-231.6600,151.6956,175.4875,156.7086
-453.1250,-222.6031,-72.8022,-111.9699,5.0935,-109.9722,63.3794,25.7401,105.6621,178.0789,-28.2692,-187.5721,1.4203,50.8520,185.1494,124.9613,-201.9611,98.3063,131.7832,14.1947,137.1984
-445.3125,-170.5004,-126.4634,-95.9282,128.8499,-93.1718,79.2763,-31.8618,84.4595,46.2813,-11.7619,-281.9331,-19.9163,103.7774,164.0927,103.3018,-41.1361,-60.3578,186.2969,33.3433,192.5615
-437.5000,-281.4081,43.8688,-24.8874,17.6004,-20.3700,114.1705,75.5324,-28.7517,6.5102,-15.2630,-211.2936,123.7431,138.7103,271.0363,63.6452,-414.3398,-66.9959,216.8155,64.5124,224.8804
-429.6875,-117.7754,31.7454,-36.3007,146.8998,-32.0122,27.6165,-47.5103,-77.4124,104.2974,-175.2096,-114.1220,109.9497,89.2022,183.5317,13.5394,-173.0128,62.8911,102.9008,-50.7432,103.8261
-421.8750,-186.3195,34.4755,3.1341,45.0274,9.1997,30.9206,65.3131,-37.2355,-4.0582,11.7008,-111.1085,112.0174,129.5555,222.8890,53.2949,-318.9020,-216.3658,177.8580,23.8853,178.5871
-414.0625,-97.8767,88.1966,-11.4423,63.1650,-5.5899,16.2275,-23.8639,-126.0606,-19.3925,-40.3910,20.8837,132.0755,114.9152,170.2417,75.0607,-373.8034,83.3855,92.8245,-61.4609,89.9373
-406.2500,1.7769,-22.8375,-18.7760,163.5365,-12.1270,7.7908,-68.7672,-60.6255,-64.4706,-48.2036,-23.9066,49.3824,69.5434,87.8481,103.0914,-128.5085,-27.6495,89.0721,-64.5027,87.6149
-398.4375,-121.6946,30.0187,1.7866,40.7950,-26.7621,66.2564,-11.7624,-76.2848,-44.6235,8.8774,-39.8104,142.5877,91.0861,181.3544,160.0252,-441.3473,-80.7696,144.2349,60.3864,144.4536
-390.6250,-33.9334,-57.8881,-16.3936,129.3054,-44.1421,84.9741,-213.4994,-57.6848,84.4715,-119.7864,14.5105,50.0300,35.9008,126.1030,178.2163,-205.9456,113.3344,23.6739,-25.4513,20.6147
-382.8125,-127.6602,-46.2416,-4.0143,71.3468,6.0429,97.2460,-91.6676,27.4649,-50.8830,76.1150,-83.6299,61.0311,85.2859,173.4044,189.9596,-234.0586,-192.0283,37.6900,58.3003,36.2404
-375.0000,-154.9922,32.7929,-28.2344,-61.2053,-18.3660,108.9174,-43.4486,3.0136,34.1856,51.4076,-35.3787,145.4173,98.0830,185.0927,128.0972,-370.7816,-6.9786,-21.8787,69.4787,-24.8818
-367.1875,-29.4484,-87.2775,-44.5427,66.1337,-33.8657,55.4959,-97.3109,22.4686,53.1496,33.6220,-52.2517,16.7004,117.7923,93.6837,111.1294,-97.6528,-22.0615,-33.5145,-13.3985,-38.2685
-359.3750,-101.4755,17.1005,-7.3936,-76.0866,-31.9143,56.5352,50.2761,-13.6319,-130.4174,144.2923,-51.6794,90.4343,154.9561,166.7316,111.6065,-321.1209,-128.6792,37.3096,128.2063,35.0654
-351.5625,26.6398,39.6070,-56.0894,-17.1493,-42.8063,7.7290,-71.9892,-25.5671,-32.8258,22.1163,83.0242,40.3020,107.2802,43.9306,25.2345,-116.4410,139.8333,-77.7046,11.9797,-84.5282
-343.7500,33.9243,-58.6941,-48.5730,-45.0390,-35.4888,-22.8653,6.9623,54.7045,-137.0414,175.1472,-21.0873,-28.6236,150.8220,49.3536,68.0635,-39.6167,-133.4710,2.5138,92.9848,-3.4554
-335.9375,-66.5455,-16.7556,-38.7982,-143.6752,-60.9117,24.7948,91.1504,28.2330,-54.0061,185.4123,25.0480,17.6928,123.6321,95.0282,78.1250,-216.5542,-21.5082,-24.0035,101.2531,-27.9885
-328.1250,15.8144,-110.9751,-64.1627,9.5298,-123.4691,-1.6883,27.2009,38.6280,-7.1558,121.5412,35.0172,-83.1421,135.3127,-5.4316,88.0218,121.3304,-10.7314,-79.6397,-25.5917,-87.9580
-320.3125,-72.5416,-22.8906,-44.2157,-112.9808,-64.7142,19.1366,157.5536,-14.6674,-134.0158,215.9690,-18.7131,9.3308,192.3074,88.4256,108.1940,-82.5341,-203.6415,11.0294,65.8964,2.3360
-312.5000,0.4030,50.4847,-38.9638,-39.1794,-95.6578,-12.7332,52.2021,-83.6487,54.4150,36.6971,59.8465,-23.9063,123.6098,55.5857,75.6438,-7.0913,45.7482,-88.9982,-35.3003,-101.3345
-304.6875,22.4267,-33.0300,-17.6023,18.7052,-73.4952,8.5031,35.9707,11.4806,0.9337,94.5454,-66.5029,-114.0366,146.0249,38.8579,96.1801,120.4022,-213.7836,6.0891,-10.3673,-3.2075
-296.8750,-74.1532,47.8567,34.1598,-77.0061,-21.9357,60.1367,50.1309,-10.9965,-22.1264,70.7930,-16.4470,9.2351,159.8436,88.5218,73.1098,-163.7153,-132.8936,54.5714,1.9747,49.8196
-289.0625,85.9494,32.4455,52.6263,83.9801,-38.6716,4.4679,-115.9937,-29.7688,-41.4888,-131.2409,112.2910,-83.7947,142.3742,-41.1142,16.7410,145.8494,27.6633,5.7715,-151.9632,-1.4976
-281.2500,31.3250,12.3487,106.3993,-5.7533,15.8950,21.1029,10.1986,-13.2499,-209.5363,-4.9703,54.3210,-68.5198,122.2224,-25.4398,69.6756,-25.3396,-203.4814,165.2828,7.4266,166.2996
-273.4375,47.5400,-40.9083,89.0142,-23.6252,-37.6933,40.5845,-43.7531,-30.8778,-43.7111,-132.8483,73.1824,-124.4044,104.9353,-79.9235,88.4606,-9.6764,60.2127,114.6491,26.6906,118.5982
-265.6250,10.7667,-182.1198,85.6729,46.5328,-40.2344,1.1228,-47.6124,76.5566,-46.8272,-25.6465,-40.9342,-202.2345,138.7146,-84.3474,84.3095,240.9796,-117.0893,116.0902,-5.9486,119.6848
-257.8125,-90.8863,-37.1853,167.4725,-124.1637,6.3681,8.8182,33.6975,11.1457,-75.7733,55.6967,-32.9163,-48.9093,110.6570,33.3854,129.3149,-49.2505,-112.2346,52.6914,35.5930,54.0244
-250.0000,5.8357,-44.8578,122.6708,8.5430,-38.6321,-36.0716,-122.5584,-33.8456,24.6616,-63.5649,-5.5287,-132.1862,65.0202,-13.4708,156.7191,195.8921,125.9832,-58.2788,-110.4314,-63.5084
-242.1875,-121.0802,-66.1207,63.2778,-47.3636,-23.2254,14.4594,2.6178,-19.4238,1.4719,97.5745,-139.7574,-119.0510,116.8062,37.0901,206.5165,59.3602,-142.4152,64.1805,46.9817,61.2084
-234.3750,-106.2532,-15.6420,46.6436,-66.5072,-39.0657,34.7496,-15.4554,-73.2316,131.0153,-30.5429,-46.2442,-64.1689,63.3573,56.4068,189.0457,-35.4406,84.9357,-22.5992,-4.8405,-26.6608
-226.5625,33.6503,-50.0696,8.1236,75.4383,-77.7976,32.1549,-54.4030,-38.9062,91.6245,-69.5384,-49.6524,-141.1874,25.0250,15.8506,186.6590,141.7961,14.3476,-90.2591,-37.5143,-95.3755
-218.7500,-44.2125,12.7424,76.8598,-72.3775,-44.2798,27.8206,87.8970,-43.3070,12.4875,35.7216,-54.8090,-36.9528,19.9552,84.5596,180.5060,-197.7636,-62.9817,-59.6685,135.0935,-57.9492
-210.9375,29.6633,-18.7159,44.3521,1.5539,-39.0161,-77.7530,17.9526,-38.9192,163.0999,-70.2515,21.7668,-33.9723,24.6438,-58.9738,74.0870,-50.5836,151.4083,-157.3269,70.4821,-156.7124
-203.1250,-69.4404,-46.1254,50.8973,-60.4895,42.2976,-108.2692,135.0794,40.5452,58.7696,156.8539,-45.6202,-64.9333,105.3915,-90.4372,79.7142,-158.4130,-123.1706,-42.9345,150.9578,-38.1548
-195.3125,-93.2503,0.7532,104.7416,-153.2345,58.8995,-128.4896,77.4960,-52.6647,111.7729,209.2677,80.2881,-50.6048,85.4443,-111.5997,21.6375,-366.9391,135.5618,-27.2593,166.7398,-21.5637
-187.5000,68.2659,-48.0253,87.9354,8.3512,43.8437,-145.3634,-12.7200,4.5045,168.1282,192.0748,62.5268,-178.9243,32.8488,-202.3991,-69.0928,-167.1187,121.6082,-39.2362,84.8998,-32.3687
-179.6875,-47.5413,12.8892,81.8256,-105.3858,38.4768,-40.5400,164.7696,-38.6091,87.2048,222.6054,-17.5340,-39.5448,25.9554,-62.4848,-39.1262,-508.5972,-63.6401,130.4736,254.7791,143.7206
-171.8750,-47.8121,-21.6733,48.2519,-69.5748,41.6459,35.8318,93.8235,-36.1472,199.8489,4.7176,-16.0622,-37.6303,29.6228,-61.0210,-73.5811,-399.5117,147.6320,98.7219,153.2207,114.3444
-164.0625,-142.5225,-115.6371,58.2718,-23.2032,89.4044,82.8020,177.5179,47.9388,-11.8943,88.4721,-154.0039,-29.1148,76.9007,22.0579,-64.4200,-356.8237,-122.5368,218.5541,202.2876,242.4623
-156.2500,-246.8518,-43.2153,102.6714,-125.4539,97.5497,163.1642,183.6335,18.4419,-42.1974,58.6385,-37.5499,13.7952,84.5861,101.5414,-94.8344,-574.7242,-14.3071,258.7570,207.7652,285.8539
-148.4375,-87.3168,-164.9214,46.9439,70.1634,79.5820,181.4153,54.7016,36.8693,-60.5727,-34.2562,53.7697,-116.4068,66.1871,-28.0657,-114.3206,-266.6852,39.7631,210.8537,89.1714,236.8606
-140.6250,-110.8286,-116.6443,62.1935,-58.2588,95.5934,196.6594,143.8129,52.3051,-230.9057,91.8717,68.0711,-29.6049,81.7994,60.3364,-99.7561,-438.6265,-195.1849,295.9359,210.5898,320.0335
-132.8125,-49.5173,-55.5406,19.2665,-66.8435,90.4374,190.7425,100.8047,9.6022,-126.3479,-25.1403,134.1889,73.0352,39.2763,53.5862,-180.2846,-376.6520,42.6847,114.8501,134.8507,133.6643
-125.0000,-21.6563,-95.8474,-25.0809,-1.8684,46.8697,182.4168,166.4475,75.5044,-209.1715,77.4790,-58.1243,27.2894,31.3732,81.4589,-189.1553,-204.0602,-174.8978,146.3551,202.7236,166.4686
-117.1875,-191.8206,-19.1695,-15.4504,-135.9161,57.2882,230.0768,287.1076,49.4015,-161.9486,124.1000,-85.4505,36.5517,5.4838,127.3408,-104.9750,-455.4144,-98.4855,190.8304,282.5757,217.0615
-109.3750,-118.1671,-120.6643,-47.9959,44.8673,-11.4540,196.5721,179.6454,53.1544,25.1384,91.5951,-119.9552,-108.3319,9.4649,-16.9144,-101.8876,-124.8616,11.7278,127.1480,113.2712,149.1248
-101.5625,-211.6981,-107.3122,2.2917,-12.5356,3.6478,173.9117,305.0576,67.7521,-70.9022,252.9456,-143.6138,-95.3487,24.3134,33.6978,-14.9044,-261.4433,-257.2233,214.3007,165.8098,236.1831
-93.7500,-148.6857,-79.4230,-38.8947,-18.3898,-36.7062,132.7886,190.0208,-10.1052,71.6255,64.8172,35.2745,-27.8096,20.7292,28.8667,17.6588,-233.4086,-17.6301,103.9894,55.8769,114.2180
-85.9375,-5.6030,-75.4330,-110.9944,55.8273,-34.9599,97.7672,155.1107,28.1311,-1.7536,-8.2179,-0.7413,-64.1425,23.2682,-43.8401,18.3501,-14.2667,-155.9695,145.7772,28.0425,151.4778
-78.1250,-80.0805,27.0084,-1.6567,-88.5145,-34.7670,97.1942,190.6463,-9.2001,-75.6699,65.1679,33.7049,6.9911,22.2729,-9.0833,17.5084,-276.6548,-158.8387,251.0028,97.6413,259.1812
-70.3125,59.3885,-44.6074,33.6243,-18.9056,-35.6181,21.5675,-30.8628,-9.5895,-4.6486,-46.4923,68.0998,-32.9216,-51.7592,-84.3727,-57.3763,11.9334,86.2203,182.1868,-5.8213,186.9540
-62.5000,4.5451,7.4865,88.6127,-71.6124,-16.7651,3.6436,97.3395,44.7000,-133.9375,118.5499,-24.7925,20.8871,-70.0835,-66.9519,-39.5631,-83.8070,-179.0182,238.0802,85.4203,246.2004
-54.6875,-15.0293,128.8303,108.8555,-126.0537,-32.6613,-14.0303,80.7768,-8.7768,-76.9856,-9.1778,67.5793,76.9491,-86.1534,-84.2812,-56.5125,-178.2774,83.0122,150.2191,68.8944,158.5708
-46.8750,61.4873,65.2792,40.2075,21.6032,-27.4595,-45.5952,49.3275,69.8430,-72.9571,-40.7967,35.0432,-103.8761,-81.1137,-117.4939,-89.3652,117.3280,-15.8814,125.4689,8.4809,133.4935
-39.0625,-42.3473,69.3831,82.2190,-80.0844,-20.6139,-2.5051,202.5299,76.0976,-104.2747,75.2200,3.1692,-62.0385,-74.4187,-38.0514,-46.5785,-175.4355,-83.0972,166.3641,85.7100,181.0350
-31.2500,34.6266,40.2832,53.0374,-2.9534,-48.9732,5.3915,62.5275,11.1463,50.2013,-63.9646,46.0896,-129.4016,-65.9170,-67.8059,-39.0008,49.6155,134.4762,0.0636,-45.2743,6.7796
-23.4375,8.6430,16.2500,26.9224,-26.7853,-37.2849,15.3471,146.5803,58.2336,-87.2807,19.9020,-54.9389,-83.6973,-18.3527,-21.4934,44.6206,55.6727,-136.8978,48.8259,3.7863,53.6535
-15.6250,-41.7253,107.8152,15.4162,-110.9999,-49.0035,3.9036,98.2188,-27.0907,-62.1591,7.3503,42.6416,50.6128,-29.1841,39.4206,31.8242,-69.6584,95.3533,-32.8177,-42.5736,-34.7322
-7.8125,98.3095,36.7812,-24.6755,29.1861,-49.3234,-36.1330,-51.7359,-30.0171,8.3446,-31.7905,39.6141,46.3311,-67.6056,-0.2580,-7.5839,218.3978,58.9801,-135.0510,-144.5303,-146.5311
-4000.0000,26.0883,38.5114,-15.9253,-43.8251,-46.4692,-6.9724,4.3497,-10.6649,-29.2107,50.6210,1.5289,74.0957,-39.5542,64.1179,52.6819,85.9346,-47.9104,-85.4298,-48.9373,-95.8506
-3992.1875,87.2694,64.8837,-63.4597,15.9564,-93.9606,-17.6374,-79.9318,-58.3918,71.0071,-106.1126,101.2777,64.7766,-86.8449,17.5525,6.0243,186.8870,223.2038,-168.2580,-130.4237,-181.0222
-3984.3750,32.6149,10.3998,-85.8458,-5.0963,-81.3157,-41.1562,7.9297,29.0361,-26.6187,19.3031,-31.8266,6.6014,-73.9938,-3.8717,57.5078,203.0169,-8.5326,-13.9364,-10.7694,-21.0452
-3976.5625,-114.7017,74.2743,-90.8795,-118.8165,-87.3301,-8.3167,114.1616,-12.1886,79.1006,15.0879,1.4163,76.7859,-79.8007,29.0648,90.3400,-94.5341,54.0768,47.7388,86.2479,44.9260
-3968.7500,-26.2037,-13.0461,-75.1142,74.2690,-108.5568,-66.6798,-16.8167,3.3849,168.6354,-115.3386,17.4685,-53.2351,-63.8148,-101.2107,70.9636,180.7346,141.5162,64.2042,-71.9541,61.5514
-3960.9375,-67.5551,50.7859,-8.1951,-4.4997,-43.6371,0.1054,86.3613,33.1153,-22.7026,-47.6025,10.6652,-22.1074,0.3187,-107.3361,64.7327,-119.8421,-41.9152,266.8406,-11.0055,273.8494
-3953.1250,44.8435,59.3772,110.4820,107.4736,0.0335,45.6432,-88.7122,-69.4088,-51.2937,-258.1309,166.6297,-86.2270,45.2003,-171.7114,-73.7603,-109.6876,281.4270,202.2375,-109.3138,216.2746
-3945.3125,143.0593,15.7653,171.9652,203.2640,60.4997,32.9781,-100.0007,-45.1272,-246.0857,-195.8681,81.3987,-170.5617,105.8784,-109.3041,-157.4679,-9.6998,131.5808,191.4331,-119.8409,209.4194
-3937.5000,32.9712,117.8699,208.1562,57.7434,95.6595,105.0118,9.4244,-83.1457,-248.1890,-196.8969,116.8659,-24.1906,104.2549,74.8067,-158.4771,-340.0393,127.4251,115.3401,-55.6595,134.3030
-3929.6875,179.9413,53.0348,137.3986,203.2817,60.8566,72.0878,-98.1049,-43.1210,-98.2250,-375.8935,120.3861,-92.7704,-4.3267,41.9603,-153.4445,-78.3245,272.3561,-21.7119,-156.4366,-5.4361
-3921.8750,88.5091,67.7996,114.2391,110.4228,36.6456,85.7645,26.9809,44.5094,-157.6623,-214.2845,24.4905,-40.7550,8.6845,93.7110,-29.8161,-246.0051,4.8689,25.8467,-38.6024,41.8721
-3914.0625,96.0157,75.5241,122.0307,45.5010,6.3761,56.3954,-1.9721,15.0833,-4.1361,-205.7282,105.5512,4.2167,-21.3582,28.4118,-21.2428,-310.7634,256.3497,-108.6420,-102.8111,-96.3544
-3906.2500,97.9371,-27.3564,84.2191,81.9924,-31.5020,-19.5774,-3.5340,50.0623,30.8036,-96.7827,68.0180,-106.4215,13.9873,-45.5031,14.7171,-54.0957,117.2489,-143.7350,-67.6307,-137.1060
-3898.4375,-8.0987,41.8267,84.4630,-95.4742,-106.3297,17.4969,143.9656,50.0973,-6.2232,-22.7705,68.5298,-31.0075,86.3874,29.6322,52.7218,-309.4060,45.1835,-75.7589,34.6042,-69.8066
-3890.6250,82.9703,-41.8790,30.8135,-6.8366,-161.0594,37.6697,54.5583,33.2282,87.8578,-221.6789,125.1532,-46.4979,68.8821,-60.1466,36.8144,-67.6203,241.2531,-127.6809,-86.0696,-124.0617
-3882.8125,28.2436,-26.3889,45.3660,7.0166,-110.5954,15.0404,216.3510,47.5659,-8.8621,-96.3820,-44.0319,-67.8094,82.5747,-81.7329,52.0980,-124.6205,-26.4871,60.6143,-2.5484,71.9071
-3875.0000,-25.2381,25.3637,65.1771,-12.8920,-91.8847,71.6616,199.4003,-6.8561,84.6738,-185.8311,13.0385,-83.8703,64.5103,-98.0663,-1.3714,-287.4045,166.0374,111.1681,12.2274,129.5305
-3867.1875,68.5933,-56.5824,86.2882,150.5098,-71.8857,18.5752,110.7359,14.0193,68.5305,-200.9963,-2.5864,-207.6432,47.7381,-148.1170,-88.5446,-7.8656,82.8913,133.0157,-34.7106,152.1865
-3859.3750,-71.3836,-19.3304,88.6045,45.1010,-34.6928,57.6900,223.2823,16.1051,33.5744,-88.9455,-0.0210,-168.2194,86.1637,-72.9645,-50.5165,-261.1412,-58.0686,202.0772,69.5651,223.8802
-3851.5625,3.9402,-85.7710,55.2243,117.9949,-32.2116,24.1087,43.1181,19.4882,220.9270,-267.6116,40.8521,-199.4930,88.8776,-177.5184,-46.1968,-36.1300,192.3115,99.4436,-67.8620,116.1283
-3843.7500,-54.7794,-178.2670,27.7955,93.8551,-22.7859,-3.5247,89.8990,102.8285,157.2324,-183.3273,-59.3307,-225.8279,134.5358,-130.1346,38.0583,11.8507,-77.3641,214.7715,11.6569,230.7559
-3835.9375,-80.3619,-62.6006,40.5259,-39.1483,-13.2079,45.9940,101.8481,4.3144,205.6867,-206.8891,-10.3660,-103.0087,72.3422,-118.6018,88.4565,-194.0576,71.1113,187.2680,19.3365,200.2851
-3828.1250,10.5152,-147.4939,20.7037,85.3112,-32.1847,-11.0390,46.2348,-15.7499,296.6134,-336.0160,7.0542,-156.7588,15.5972,-172.6393,69.2897,117.5027,90.0642,135.2158,-67.5372,144.3180
-3820.3125,-85.0148,-67.7952,32.4849,-46.6326,-22.5602,37.5246,168.2339,-4.2045,160.1334,-176.5256,-90.9378,-71.9267,-46.5430,-51.0837,81.7174,-126.3435,-41.4016,213.7818,117.2068,228.6193
-3812.5000,-5.2025,-22.7362,42.6160,-4.2297,-50.5915,10.4393,68.5843,-31.3103,244.0166,-239.6905,-7.5764,-60.7430,-111.3355,-114.1808,18.4862,-41.8619,248.5157,45.6943,18.3002,58.1479
-3804.6875,-10.6307,-27.9333,33.4948,24.9337,13.1238,-70.9007,96.6802,33.3385,87.6533,-64.1049,-52.4676,-104.8211,-84.3821,-120.5404,-26.0063,98.3918,-3.8109,73.3520,47.1421,83.8420
-3796.8750,-69.6713,89.2748,47.7758,-104.5177,62.2367,-94.8407,110.1957,-63.6109,101.6905,-13.1103,72.0317,-16.5030,-35.0277,-107.4962,-49.1014,-143.9900,112.2577,83.4278,21.4056,88.6240
-3789.0625,94.8900,-27.9266,68.6553,56.6422,81.9436,-147.1804,-51.7003,-77.9582,122.3554,-137.5302,130.1366,-68.6042,-14.0800,-157.8716,-99.5993,135.2387,169.9550,-0.8963,-131.7347,-0.8504
-3781.2500,56.5468,4.9666,101.6340,-52.0928,113.7495,-77.4226,54.5163,-82.1985,-64.8783,5.1635,52.3286,-34.6166,16.9660,-52.1580,-66.0030,-14.4369,-45.2662,28.8996,3.2336,31.1374
-3773.4375,102.0938,15.7716,76.5186,-43.9347,50.4577,-102.7643,-44.3669,-107.5441,55.8006,-19.2455,101.4259,15.2744,-45.0943,-76.5486,-54.5173,-1.2451,211.4371,-102.3963,-56.8940,-105.5161
-3765.6250,132.8547,-24.2324,-5.3973,20.4405,5.3661,-148.9118,-15.0604,-79.6821,83.6894,120.5321,-17.2781,-65.6495,-54.9633,-119.7578,-24.8490,175.1691,29.3520,-73.4823,-28.8268,-81.5907
-3757.8125,46.1023,65.2680,15.1967,-137.6905,-12.2221,-127.5545,42.7543,-95.3168,105.0677,68.8187,40.5156,29.9223,-71.3341,-25.4674,-4.6914,-95.9497,82.7586,-22.0444,57.7604,-28.9517
-3750.0000,158.8050,38.2191,20.2433,43.6377,-7.3600,-122.7495,-134.9962,-127.5020,146.9090,-71.4668,82.7689,-38.0641,-104.2641,-91.7385,-71.1022,131.3833,229.6591,-86.1540,-76.2077,-93.9457
-3742.1875,34.1611,54.8117,35.9441,-46.3690,43.1542,-107.2951,-45.0947,-38.0317,51.3876,237.8965,24.6600,-57.4110,-52.5472,-75.3657,-91.8759,-35.6302,-105.8036,-0.5941,78.4861,-5.8872
-3734.3750,14.6077,-0.4878,16.7480,-103.2803,58.7660,-126.7307,-101.0845,-94.4687,215.9639,256.3536,116.6570,-76.6542,-35.7310,-94.8962,-110.5639,-90.5807,83.8518,-23.9235,56.2980,-32.9614
-3726.5625,69.3123,-121.5412,-2.1964,-13.9212,74.6282,-109.9190,-193.8365,-4.6565,196.8059,274.0528,22.9009,-204.6644,-19.6702,-113.1968,-93.0178,148.7345,-37.2253,29.0037,5.3515,19.9537
-3718.7500,-58.9529,-73.5394,49.9092,-143.5187,126.5436,-22.0573,-104.5250,10.2076,101.6966,363.8279,2.1822,-150.6277,-5.5505,-61.4538,-76.4234,-164.9328,-95.2700,146.0046,121.4676,146.4450
-3710.9375,53.8278,-101.4850,19.0623,1.9394,94.5060,-16.1445,-209.1718,-20.8829,180.6607,223.6413,8.5214,-217.5467,-36.3821,-163.6696,-106.7910,62.4377,120.7705,45.0584,20.6255,45.7314
-3703.1250,-28.5936,-147.6408,5.0107,-10.7907,79.2716,-29.4320,-75.0176,75.8396,56.4270,357.2526,-77.3568,-230.6852,21.5874,-140.0961,-46.3728,12.6171,-172.3996,137.9399,148.5923,142.9484
-3695.3125,-61.2336,-74.9937,-26.2311,-79.7249,46.8398,-24.9172,-71.0515,7.3626,24.9866,289.6609,37.5581,-115.0248,25.3611,-61.7228,-42.1659,-163.4463,40.2400,103.6482,149.3821,106.1984
-3687.5000,55.7836,-28.7011,-53.8248,71.0130,54.0568,-16.7458,-134.4547,15.5442,-39.7952,151.6963,46.1235,-104.7354,32.7814,-124.7189,-105.3282,66.1514,14.5584,42.0191,17.8194,41.8233
-3679.6875,-60.0075,102.7896,10.7863,-46.0498,118.4800,11.6275,-33.6472,-30.0584,-232.3965,180.9429,37.8728,107.7478,60.4015,13.4877,-150.3069,-235.0757,-65.9400,136.6167,77.4797,140.1142
-3671.8750,41.6477,134.7372,5.8499,89.3418,75.3536,6.4586,-184.3928,-35.2051,-163.5507,-44.3867,106.0772,103.6764,54.4732,-27.8547,-228.8583,-55.8803,176.0480,25.6743,-69.4038,27.2668
-3664.0625,64.9042,52.2777,26.5093,76.3507,57.8288,-10.1053,-126.5444,59.2633,-290.1108,87.8699,-20.1322,15.1934,74.1440,-6.6069,-206.8199,76.9232,-118.3633,117.3472,22.3169,120.4811
-3656.2500,-33.1081,94.5784,73.9170,-58.8892,67.0588,-36.9113,-80.9338,32.4842,-169.9205,134.8768,27.4013,62.4633,46.5630,41.3920,-234.0388,-96.5708,28.9743,87.7916,28.8056,91.0922
-3648.4375,66.0355,-16.9732,26.4715,110.0434,18.4386,-82.5643,-200.1934,58.8604,-69.5616,126.0171,-19.9123,-57.1306,-0.8751,-42.4789,-243.1281,226.0903,57.4970,44.3916,-48.5648,44.2397
-3640.6250,-61.3717,-2.0764,4.4772,16.4350,32.2730,4.2364,-38.9995,73.6926,-128.7686,177.6144,-113.7839,-4.2802,-23.8655,84.1005,-154.7874,-15.8163,-140.5429,162.4632,103.5292,168.8434
-3632.8125,-18.4796,-29.8699,-24.2112,58.1283,2.4093,12.3418,-103.5130,44.8239,25.3285,2.4964,-33.3551,-32.1305,-89.5574,18.9774,-146.1660,67.5480,111.7531,97.8419,38.9270,104.8370
-3625.0000,1.9716,-44.1240,-77.3539,78.3945,-15.9046,30.9999,-11.4902,137.5140,6.9851,132.9182,-160.3860,-121.4495,-71.6987,-71.6083,-90.0084,160.4778,-148.3999,152.7798,57.8733,160.0194
-3617.1875,-102.9011,62.3231,-75.7958,7.3548,-51.5092,71.3660,66.2473,66.9104,10.3407,173.0504,-84.7296,-8.0742,-34.1382,-31.4895,-87.1557,-128.9381,-43.8625,116.4429,92.5416,124.0376
-3609.3750,17.5740,7.1131,-98.8915,160.6773,-39.7627,46.0819,-104.6745,41.6549,59.0720,1.5077,1.2793,4.6370,-22.2221,-92.0360,-147.9700,104.9960,76.0592,23.4622,-69.4407,25.0283
-3601.5625,-47.8087,13.0405,-21.8395,60.1605,37.1449,50.9494,9.5619,46.5571,-82.0502,81.1224,-66.5772,84.4818,17.8513,23.5576,-105.6418,-108.9298,-164.8926,98.6621,38.7361,104.0192
-3593.7500,-50.0556,-59.8752,-22.6301,56.7946,35.2079,49.9705,-101.0573,8.6034,62.9912,-30.1152,42.7219,120.4739,16.0768,-13.7144,-106.1730,-145.7490,113.3277,25.0330,0.0732,29.9484
-3585.9375,13.8548,-135.6535,3.7277,119.6053,23.4256,2.1403,-73.5411,34.8042,-20.8087,70.7860,-4.8361,74.5885,41.4530,-59.8611,-153.5648,27.5952,-34.2916,16.5708,-7.4370,21.0245
-3578.1250,-112.1584,-15.3344,58.1867,-43.4919,76.7552,19.4159,53.0906,-21.8833,-77.5164,124.8022,12.6901,165.7943,57.9335,68.0901,-172.8639,-283.9984,-20.8279,30.2356,76.1843,38.0971
-3570.3125,31.0281,-83.8208,57.8443,63.6227,75.2825,18.8906,-57.0843,-58.3655,31.9963,-58.0043,49.4169,19.1883,19.6155,-42.7715,-135.9849,9.5981,121.8676,-109.8936,6.0163,-103.6601
-3562.5000,-46.2895,-88.8277,11.9961,-48.7505,65.3153,-26.1319,81.2416,5.6691,-12.9980,190.7011,-68.3754,11.0626,83.7991,-14.1419,-33.6164,-107.3039,-130.9568,-46.5018,104.3743,-43.8220
-3554.6875,-90.6278,-28.8387,4.1484,-60.1356,56.3527,-71.1526,36.5751,-39.2882,126.0110,146.4254,-4.1687,3.9275,74.9833,-58.5185,30.7446,-151.2483,105.2264,-128.0907,22.7608,-128.9615
-3546.8750,-21.9144,-99.8186,-36.6565,7.5512,86.4449,-150.1254,-41.0496,-7.1874,157.0887,179.1913,-44.9132,-73.1865,105.2180,-172.8669,99.1440,100.8689,-36.5290,-130.6134,-13.8033,-139.0855
-3539.0625,-170.0670,-72.6555,-8.3102,-176.6150,115.6970,-119.9415,98.4843,-50.9310,113.3130,283.1156,-52.5192,-44.1591,134.6086,-105.0665,166.6910,-161.8977,-116.1523,-34.9504,151.7980,-39.6167
-3531.2500,-101.8716,-145.1394,-47.6168,-74.4201,74.3050,-123.4049,-15.6429,-54.3271,256.9029,96.3666,-19.7719,-118.7829,56.3432,-144.9215,163.5698,55.6668,91.6116,-72.9318,77.7530,-77.5524
-3523.4375,-150.8284,-192.7777,-26.0772,-124.3567,57.7687,-65.0163,117.0715,40.1390,94.3342,191.4630,-144.1876,-96.5661,39.9249,-85.9286,185.2834,4.0888,-202.7823,51.9493,238.5688,55.6473
-3515.6250,-189.2026,-159.8099,-26.9377,-198.7008,19.8383,-30.0176,153.3934,3.2099,167.3569,118.1589,-72.0082,-23.7467,-34.8920,-50.3294,184.5860,-177.9359,4.4303,13.4503,305.0069,21.4071
-3507.8125,-62.7743,-244.0533,-80.0009,-72.2217,-35.2848,-47.2116,62.4965,96.0868,150.1874,64.6278,-88.0250,-113.1431,-51.9066,-102.9460,130.6671,135.8519,-45.5309,-37.2388,290.2387,-30.9159
-3500.0000,-203.5596,-174.5055,-80.2606,-179.9350,0.4023,-10.5952,210.4068,96.7725,-34.1989,212.8995,-124.2586,-39.7485,-53.1117,7.2360,167.5372,-83.5878,-186.7116,31.9032,429.2929,43.1624
-3492.1875,-124.7550,-130.3556,-142.9201,-102.0408,-27.3001,-0.3721,73.9090,70.0556,123.0174,112.7470,-78.8891,-28.7548,-80.7110,-55.9829,67.9927,74.5413,67.7397,-66.3347,260.9474,-61.5304
-3484.3750,-184.6515,-118.9170,-135.2825,-22.8186,-20.6940,7.1592,154.7004,77.6489,57.5295,194.8789,-180.2352,16.5198,-37.0029,-10.9130,75.7309,119.9752,-238.5125,-22.2436,234.9035,-19.5593
-3476.5625,-258.3648,17.7203,-136.4364,-97.3953,-21.8683,43.9022,191.7035,3.4402,130.2327,121.2024,-108.3894,126.9904,-2.0800,26.3568,75.6552,-101.4451,-102.5697,-61.9202,195.0791,-61.6846
-3468.7500,-90.9754,-25.5538,-184.4927,70.1563,-34.9372,-42.2499,32.7921,-8.6656,155.0514,36.5988,-82.4429,42.5426,-15.0527,-22.2876,63.6628,256.2318,-40.5009,-175.4858,45.3530,-185.3586
-3460.9375,-208.8448,32.9136,-160.8021,-49.5288,-49.2393,18.3525,203.6389,14.9926,31.6075,133.7559,-168.7661,102.8334,7.7363,111.8107,124.4070,22.6318,-263.7092,-118.2762,207.4007,-123.5918
-3453.1250,-160.6296,10.4808,-184.0132,-38.1108,-109.4307,32.0648,70.5877,-8.2454,118.2679,-72.9977,-45.9879,80.2222,57.6311,89.0033,101.2354,147.0908,29.2043,-177.9550,77.5658,-188.0552
-3445.3125,-95.0611,5.3790,-155.8805,26.6828,-118.2695,23.1248,61.8724,19.8816,-36.7180,-116.4091,-89.8707,109.9430,84.8813,81.5281,92.4015,249.9123,-116.5288,-77.2725,1.0915,-87.7052
-3437.5000,-172.2052,175.5796,-87.4468,-51.2285,-50.7943,56.4899,58.4657,-94.6846,-114.4165,-120.5169,15.5351,252.9649,80.4367,151.3542,51.8625,-48.0122,-17.9711,-15.2648,-42.0586,-25.7974
-3429.6875,-0.1434,136.9708,-55.8128,121.0807,-57.1093,14.0556,-93.7562,-135.0483,-46.9009,-235.4529,84.1486,101.1719,37.1888,36.3696,-27.4895,168.2551,118.8177,15.9490,-186.0106,5.3925
-3421.8750,-79.7369,93.6949,-27.8248,76.7494,6.9391,78.9754,-29.6283,-72.0484,-239.0413,-97.0366,1.0959,92.7099,64.2992,100.7276,-36.4971,-24.1357,-101.0682,252.5336,-55.5925,252.9764
-3414.0625,11.6027,150.3625,33.1094,96.3623,-7.0485,138.8496,-116.5505,-122.0923,-178.2257,-256.6796,97.9929,43.1983,-23.6358,88.0325,-86.5560,-110.6117,166.0073,202.0773,-71.2008,208.6740
-3406.2500,58.9445,92.0126,43.0359,213.9921,1.9739,148.7201,-141.4806,-1.1225,-242.4005,-246.3318,-2.1144,-19.3360,-87.5699,62.3190,-111.6276,47.9273,2.0910,248.6265,-59.7998,261.9511
-3398.4375,-35.4848,138.9088,93.2075,82.8651,15.2599,235.8402,-55.1460,13.1067,-265.3280,-231.7131,-24.9844,31.3757,-75.2461,149.8554,-99.4509,-268.3196,12.3979,294.4448,55.8818,316.4053
-3390.6250,66.0319,64.7421,51.3190,254.6949,-28.4917,193.9122,-169.8674,44.2860,-88.2900,-347.1593,6.1011,-120.9755,-117.9655,34.3368,-140.3306,-16.6264,184.6783,184.2158,-18.4831,206.9620
-3382.8125,-10.0095,24.0045,42.8731,177.9882,-37.7779,185.4389,-32.1419,108.9220,-168.8072,-98.1562,-112.3784,-127.8908,-90.2173,26.2623,-75.7679,-133.4825,-68.6095,282.4571,114.6157,308.0909
-3375.0000,-17.8670,86.4637,36.6274,134.4724,-44.8482,142.1743,-75.2118,65.7532,-103.1294,-140.9614,-45.6570,-23.5926,-61.2587,20.3939,-83.0160,-250.1843,135.3098,203.9109,70.9356,225.1954
-3367.1875,43.5265,43.1568,23.6260,195.2290,-21.6587,93.1586,-123.0486,90.8387,-114.1974,-115.5388,-94.6907,-73.0559,-38.0378,7.7639,-94.0273,31.3743,20.4880,158.6289,-44.4902,171.9607
-3359.3750,-72.8038,139.1350,51.9204,43.2834,42.8467,120.4550,14.4267,45.2343,-196.9749,-88.8057,-67.4396,65.7710,26.4971,146.4397,-67.7418,-270.7975,-96.0646,183.6772,15.4121,196.3378
-3351.5625,65.2546,136.5070,11.6084,180.7479,38.7620,80.1576,-135.6997,5.0336,-91.3409,-347.6952,40.2102,62.9899,22.4407,106.5119,-143.0654,-53.5903,147.8047,74.1386,-163.2784,81.1103
-3343.7500,68.3602,138.9160,49.3443,183.2845,75.7455,117.9129,-97.7773,42.8987,-272.6722,-346.5455,3.9010,101.2399,59.4471,181.6230,-142.3514,-88.3339,-96.2938,146.6710,-125.9071,155.9616
-3335.9375,86.5504,228.4290,107.1850,130.9197,95.8467,139.7776,-113.7454,-46.1289,-251.9201,-435.3040,98.6821,160.5892,43.5619,166.8338,-121.5467,-287.0300,133.7062,59.3344,-144.4107,70.4528
-3328.1250,228.3945,88.5744,104.6690,271.2338,55.6081,136.3022,-226.0807,-49.4991,-218.5072,-511.4356,132.1118,47.5731,39.3278,90.6792,-87.1163,40.9261,133.3777,-46.3394,-249.2570,-40.6077
-3320.3125,96.7721,169.2613,114.7060,104.1062,101.9319,147.3847,-104.8581,-75.3021,-280.5627,-390.0078,70.0722,132.0972,49.6504,212.0726,32.8531,-204.5946,2.5740,-1.4376,-170.5220,2.2071
-3312.5000,148.3423,150.1487,94.9443,155.1849,45.4702,90.6771,-234.4449,-130.9016,-153.4194,-446.3915,123.2392,149.8177,29.1744,118.6626,86.9983,-77.9479,263.9984,-92.3272,-295.5724,-96.5474
-3304.6875,94.9189,97.0167,74.1781,136.2871,60.0175,32.9698,-145.0433,-42.4879,-212.2791,-282.7849,28.3993,128.5250,6.6978,134.2432,65.1251,11.7072,-0.5837,-5.2025,-208.6058,-8.3766
-3296.8750,37.2302,145.6342,126.1621,8.1373,38.3324,12.0214,-93.8827,-26.3216,-159.3951,-230.4253,80.2957,181.9858,-15.0247,150.5772,-67.0000,-191.9405,153.5739,7.6943,-126.8607,10.4335
-3289.0625,134.4417,67.1408,78.0392,104.9083,25.5501,-0.0214,-177.8361,35.7514,-97.5932,-278.1895,-4.9094,60.3353,-63.8503,65.7997,-151.2300,127.3099,179.6592,-1.5125,-135.2085,3.1495
-3281.2500,-19.5112,54.4826,27.7632,-14.4572,48.6282,60.7950,29.0659,96.6888,-147.9547,-71.0926,-127.2852,47.5235,-41.8210,89.8762,-54.6148,-105.6070,-79.4338,91.1527,97.3191,103.7582
-3273.4375,-44.4754,-5.1762,-71.5203,-39.8173,-51.2794,72.6245,3.9616,107.6287,9.6895,-132.0081,-6.6550,22.7160,-30.7874,64.9606,-44.0083,-58.5646,141.4885,-4.1721,71.8494,3.8839
-3265.6250,-5.7340,-142.1560,-70.1055,-36.4515,-15.4751,72.1608,40.5407,218.2763,-26.9628,-58.2500,-79.3245,-50.4011,4.9563,27.7431,-42.7086,89.1850,-100.8941,-1.7813,110.0652,8.0529
-3257.8125,-106.0526,-102.1891,-63.7394,-207.1367,-44.6976,80.6611,159.0679,189.8732,54.3143,59.4501,-109.0443,-5.5665,12.6672,109.4888,74.5376,-196.1589,-130.3479,-32.4076,255.2412,-24.1797
-3250.0000,-32.8640,-203.7312,-134.8698,-98.3063,-80.4026,44.6697,87.0719,227.9671,165.0921,60.6170,-107.2502,-150.2474,12.8899,0.7266,75.2710,98.9944,-23.2766,-134.5251,151.9105,-129.9607
-3242.1875,-114.8259,-146.4401,-111.1513,-147.6107,-21.2367,68.5357,220.9289,214.9227,4.7042,268.6306,-194.6200,-90.0908,72.9776,61.8097,61.8447,-61.0055,-281.3863,-42.7734,209.4409,-36.6853
-3234.3750,-101.2032,-61.5476,-57.8334,-133.3226,33.5465,13.0056,128.3969,122.4782,95.9158,139.2371,-67.3916,1.6654,53.6807,43.4921,6.0130,-116.4432,-20.8869,-133.4178,82.5893,-130.6131
