Time,Fp1,Fp2,F3,F4,C3,C4,P3,P4,O1,O2,F7,F8,T7,T8,P7,P8,Fz,Cz,Pz,ref
-4000.0000,-9.0048,29.1165,-21.3054,15.5124,27.3191,-34.4401,255.3638,-109.8917,-142.0966,-59.9374,-13.0127,-115.0482,-0.3313,1.0113,-54.2011,63.2193,-89.2941,-54.0527,-62.2140,-49.3318
-3992.1875,-81.4208,-7.5649,-136.0008,-57.6220,-86.5614,-76.4631,219.3346,-151.0772,-111.5479,-65.0182,-53.5215,-47.0817,-41.1317,-2.1809,-21.8665,60.4166,47.0483,12.5943,39.7627,15.1579
-3984.3750,-45.4440,64.1552,-168.3113,-20.3637,-155.0570,-36.0995,229.7141,-75.8677,-146.5912,-24.6863,-49.6405,-117.7125,-75.6894,-70.9664,-91.1195,103.0255,-58.2094,-22.3620,76.1441,-16.9140
-3976.5625,-25.2737,-55.9225,-115.4251,-0.9008,-138.3560,-56.5372,325.3242,-61.4547,-167.4489,-45.1408,-32.5775,-139.1517,-68.3779,-91.5526,-149.1675,84.8457,-75.2923,-74.1280,94.7202,-61.0567
-3968.7500,-82.1753,-112.0520,-209.6078,-92.4946,-157.7245,-77.0335,236.8899,-120.0950,-43.3509,-65.6350,20.4172,-13.6254,-62.5232,-37.1777,-95.2486,176.6270,7.5830,-60.9387,108.2484,-61.1953
-3960.9375,-91.2942,-14.3675,-147.0043,-101.2827,-94.3074,-88.7252,305.2727,-58.9286,-19.4490,-3.3131,46.1908,-100.2970,0.5723,-85.0020,3.4850,241.2282,-212.7692,-210.9572,27.5689,-218.8017
-3953.1250,-192.5262,-44.7833,-180.5144,-132.1793,-128.0049,-159.5235,276.5749,-129.8587,55.3536,35.9178,85.8470,-25.0583,12.4719,-81.9252,43.1259,172.7411,-34.2221,-138.0862,-3.2098,-150.3967
-3945.3125,-159.8206,-187.2485,-144.0944,-99.1335,-126.7697,-123.3841,245.8311,-95.8483,127.1212,72.1023,86.4414,-62.8567,26.9880,-43.8916,80.7298,211.2135,-108.7133,-106.2709,-7.0256,-119.1959
-3937.5000,-73.2204,-205.8135,-94.7717,-82.1880,-76.6332,-111.3459,301.0120,-47.9321,64.7882,84.1937,61.9150,-124.7581,60.2271,-104.9638,130.2500,189.5862,-163.3298,-160.5648,-61.9430,-170.5443
-3929.6875,-95.8390,-51.5882,-152.6601,-175.4562,-133.7095,-169.5148,139.0024,-143.2230,115.2649,26.0865,115.1733,0.1515,26.9007,-51.2358,109.5963,169.7604,22.8710,-79.0550,-14.0455,-99.7349
-3921.8750,1.5342,12.6380,-13.5555,-111.7237,6.2050,-103.6866,137.0003,-79.5088,32.7519,17.9926,180.4239,-82.9430,16.3613,-95.5042,-119.0466,127.9433,-126.9405,-87.5561,-57.1442,-97.0062
-3914.0625,1.9034,-127.1420,20.5419,-146.9933,4.1102,-143.8647,139.0083,-83.7928,27.2421,14.9127,177.6589,-14.0374,-5.6811,-98.7724,-194.6825,89.1347,48.2476,-54.0672,-22.2343,-56.0425
-3906.2500,-18.9430,-112.1252,39.4247,-131.4768,23.7982,-88.2527,16.8129,-66.2779,8.5521,-3.3605,159.6784,3.6807,22.3394,-41.2366,-102.4958,37.1379,62.2501,-4.7773,-8.5086,-8.7075
-3898.4375,62.5588,-64.7551,83.6533,-49.6101,68.8253,-7.2939,103.9882,-60.3993,-95.7804,-106.2662,131.0230,-26.2513,48.2416,-70.3558,-94.9374,-63.5026,36.5759,-65.1480,-32.4287,-59.9427
-3890.6250,-3.1064,-24.5434,15.7155,-44.9047,-34.3171,-38.4924,-30.9833,-128.6721,-55.2476,-137.3123,137.2038,88.6822,25.4147,-26.6229,-51.5038,-55.2877,250.7729,-25.6756,41.5092,-25.8753
-3882.8125,58.6224,38.0708,45.1658,17.1928,31.9292,-10.2973,3.4396,-64.5414,-27.2941,-70.9398,92.7791,6.0207,51.8114,-70.4832,14.3441,-60.6674,65.3693,-70.8136,-3.1485,-71.9580
-3875.0000,76.2447,-13.4169,59.5147,-34.8142,11.0665,-32.2059,24.7690,-87.5000,-51.4319,-93.6496,144.2437,57.2556,61.4597,-92.4458,-6.8988,-118.1434,187.8577,-54.0585,-19.9058,-54.1563
-3867.1875,67.1081,13.3371,53.0986,-44.5856,4.4348,-38.8737,-49.6680,-96.2110,-59.2970,-63.1012,173.9572,122.7545,17.9168,-24.1627,-123.8690,-122.3646,211.6154,-29.0513,39.5998,-29.2919
-3859.3750,91.1189,2.2353,111.8321,-20.2040,100.9447,-17.3900,88.0488,-1.7552,-75.9936,-41.3835,85.8035,33.3974,9.4459,-38.7314,-174.6635,-135.4283,23.4977,-76.9074,28.2604,-66.9848
-3851.5625,16.4090,-35.5722,33.8499,-93.5298,23.7343,-95.6119,17.0638,-80.9937,29.6294,-82.3461,44.9282,138.3540,-4.8851,-4.9979,-68.1361,-100.1813,194.6881,24.5350,130.2378,27.5935
-3843.7500,41.2843,25.2168,98.4551,-69.2683,52.1105,-31.2441,13.6788,-17.6186,54.8795,-91.6891,35.6386,53.9203,15.1881,22.3371,-39.9797,-144.3324,41.4748,12.5711,118.8309,16.6203
-3835.9375,56.8512,-63.2955,110.7576,-52.3133,65.1829,-19.1765,69.0017,-6.5275,-7.1637,-115.3142,49.0365,29.1868,43.1689,-0.6285,-27.1036,-201.7881,56.9454,28.3040,134.1279,38.0962
-3828.1250,33.2029,-87.0194,52.8512,-76.5714,45.0413,-4.3154,-56.8988,8.3663,80.6169,-100.1313,64.2312,80.2667,45.9859,52.2066,25.5896,-185.4438,137.2422,37.8384,180.2484,41.1627
-3820.3125,72.1032,-12.2028,128.5006,-37.2864,84.4501,34.0925,61.7516,81.8239,44.9675,-61.3834,28.9680,-29.1099,72.6921,18.5913,64.8485,-180.5511,-70.9264,5.9163,113.9304,12.1310
-3812.5000,26.2439,-56.1506,79.3971,-81.7630,36.1003,-14.2578,-18.3538,32.5446,104.5834,-73.3677,17.9379,31.7752,81.9083,7.2242,164.3837,-189.4119,129.1611,65.2444,138.8772,66.8784
-3804.6875,40.3696,-77.1074,96.2858,-68.2492,53.7371,38.3904,-69.4756,84.2740,230.2296,-19.3390,-3.1023,-26.3287,80.2457,-49.1382,180.9519,-172.2820,0.2535,78.5753,151.8448,79.2137
-3796.8750,55.5937,-130.9713,145.2767,-87.6316,103.4698,51.1434,-14.4980,96.1224,204.9932,-7.1911,-27.0585,-52.3313,111.7626,-109.4017,231.6356,-193.0562,-55.5690,93.0003,131.9211,96.2982
-3789.0625,-48.8458,-128.4936,38.6075,-156.6724,34.5360,-18.7574,-114.1970,61.3238,355.1396,-2.6866,-22.6699,24.0363,113.9377,-68.3097,346.6876,-151.4863,85.9875,128.7761,203.3701,120.7934
-3781.2500,3.1143,-110.6187,92.3386,-103.3120,51.9999,-2.2554,-18.5140,150.9388,370.7021,87.2270,-42.8876,-107.1848,140.7876,-87.8177,400.1602,-95.5164,-110.0615,3.9478,115.2293,-5.0473
-3773.4375,-12.8793,-196.6967,36.1198,-188.9039,-3.4966,-59.7006,-105.7974,129.6174,423.3153,31.2071,-26.0696,19.6590,111.5696,-33.2801,381.6989,-76.4979,118.9529,22.1731,133.1456,9.5249
-3765.6250,22.8702,-89.0237,2.6445,-117.7552,-35.2566,-18.3959,-243.3636,96.0493,389.7115,71.9509,14.4968,133.2730,60.4869,45.0038,276.0005,-69.7344,119.7428,-12.8471,63.8265,-32.0491
-3757.8125,63.6198,22.6419,78.1699,-77.6018,40.9806,-54.0881,-161.9420,60.5071,243.1206,37.7151,17.0571,207.8908,63.0674,11.2865,205.3134,-101.9735,88.5170,-43.8670,-36.4855,-59.6666
-3750.0000,51.4043,11.3458,30.7340,-88.4126,-5.7548,-64.7314,-312.5042,-24.9706,267.6082,-9.4546,-30.3429,343.5775,24.5320,38.6291,231.7028,-74.1666,251.3665,49.1672,22.2777,29.5868
-3742.1875,90.3323,86.1923,70.4423,-15.0756,33.6505,11.7760,-266.9387,86.7181,233.2844,30.5512,-138.6054,308.4235,9.8124,5.1136,235.2701,-106.2086,77.3591,16.3493,25.2027,4.4432
-3734.3750,24.9473,56.7319,35.8492,-45.0436,-0.2496,-61.0155,-259.6891,88.1315,270.6880,-4.7093,-209.1837,382.9787,-9.0140,7.2897,275.5612,-137.5581,188.0495,21.2302,100.8366,11.6936
-3726.5625,-9.5515,94.1639,3.1471,-43.1248,-69.2666,-19.9175,-360.5767,127.4543,310.0392,36.9524,-204.8702,386.4472,-46.3627,49.3727,242.7797,-59.0158,187.6637,21.0135,137.3938,8.4610
-3718.7500,22.7463,21.3904,31.2543,-46.4094,-40.4865,-29.0121,-252.6850,228.6009,264.2096,102.4346,-249.7699,266.7159,-26.3174,-31.7430,272.8204,-27.6800,43.0597,-53.3944,168.7587,-60.0415
-3710.9375,-67.0723,-67.4906,-24.7426,-133.7917,-130.8148,-84.1971,-338.9293,208.6620,318.2898,156.8240,-232.7807,319.9100,-35.5060,-13.9596,327.7689,65.5464,199.3843,-37.8874,256.0405,-50.8726
-3703.1250,-7.2877,28.2251,2.8659,-110.5709,-67.5462,-57.7747,-269.6139,308.3391,270.9930,221.8174,-242.1934,236.7233,-34.9660,14.4199,282.3300,58.3640,46.3203,-84.7755,174.9326,-96.0792
-3695.3125,-0.4514,36.9855,6.5276,-67.3024,-62.2331,-53.2972,-259.2734,238.0876,163.7627,152.8777,-164.5638,239.6072,-7.5534,18.8465,250.9587,-44.7765,158.3013,-7.6139,146.8835,-15.2569
-3687.5000,21.9739,59.3462,-3.2201,-9.4492,-72.3343,46.7763,-411.3842,190.4489,189.1715,105.5494,-138.3392,229.1185,-11.1191,46.8766,242.2069,-90.3273,249.9131,49.1569,133.4599,40.9593
-3679.6875,121.6514,54.9587,61.2865,125.6552,-44.1902,147.1097,-378.2726,254.0865,105.8519,97.4879,-183.8711,144.8899,-16.4401,1.1499,196.7147,-96.6491,102.7706,-27.8108,93.2990,-26.4841
-3671.8750,100.7745,0.0160,1.2441,70.2113,-101.6080,87.9032,-468.7519,193.1891,155.9926,37.8895,-169.9670,195.1331,-48.4390,52.8661,174.6814,-43.5347,327.1120,20.6911,142.6087,19.2044
-3664.0625,151.5932,50.7676,19.9035,50.4689,-84.3295,142.4036,-481.5767,248.0113,99.8635,94.0080,-115.3683,102.0869,-57.8983,72.2832,84.3570,-24.7308,201.1691,35.9019,122.6466,34.3675
-3656.2500,168.8591,-1.0391,71.0197,69.1794,-31.6036,120.3658,-351.9825,261.3156,-32.7963,71.6017,-100.3318,116.5021,-48.1709,14.1553,-10.5203,-153.4796,217.6711,52.5693,141.1416,64.0148
-3648.4375,129.2603,-3.7052,33.2768,65.0309,-69.7463,155.4816,-457.2945,222.7901,37.7283,34.3739,-102.1499,151.0936,-54.9138,50.1857,25.7679,-190.0821,318.3509,118.3966,171.8116,127.3029
-3640.6250,160.8080,28.7728,64.6868,132.0306,-37.7458,186.7552,-384.4988,253.4467,31.4376,103.3281,-143.8224,71.8420,-41.5410,8.3819,58.2325,-192.5549,138.1679,44.3762,133.6454,54.4734
-3632.8125,78.4995,17.3913,-23.7537,50.1792,-86.6058,62.1867,-392.5969,201.2777,90.3161,163.4490,-121.3449,130.7590,-42.0572,-4.2561,118.8575,-94.9026,301.1486,66.5166,121.6473,66.8790
-3625.0000,61.7407,71.5522,-38.6417,33.8747,-65.9230,47.1793,-366.2107,222.6786,184.7785,222.1350,-100.3060,78.2436,-57.9428,-19.3370,68.0299,1.2767,178.7032,14.2277,70.2156,9.4810
-3617.1875,57.7898,33.5057,26.2810,-4.6174,-35.4357,1.9870,-259.0683,176.9108,213.0628,250.6473,-71.4710,-4.4623,-35.4031,-62.6347,60.0024,-40.7602,104.0559,9.7488,-2.4069,5.0750
-3609.3750,28.2290,39.8594,-39.3963,-34.7191,-64.5586,-27.8052,-392.5866,73.5597,219.7855,149.5825,8.7652,149.2614,-33.6981,18.4586,69.3980,-30.4136,213.8451,84.6806,1.3876,69.5257
-3601.5625,71.0765,83.6201,42.3381,44.5766,16.7161,16.8142,-269.7593,117.6363,79.9421,120.9320,-20.5974,83.4066,-14.8693,63.9421,41.2044,-20.6810,9.0331,-13.9808,-95.4054,-23.5552
-3593.7500,71.6759,-19.8767,3.8266,-23.3763,-20.2655,15.1913,-303.2420,77.4906,76.8746,46.0491,14.7916,80.3271,13.6017,63.1766,113.7703,-21.2170,115.9894,-11.8813,-58.4391,-24.4034
-3585.9375,30.7231,-60.9241,-37.2344,-30.8859,-60.8070,11.0262,-302.3441,73.8149,73.3028,79.6334,10.6326,76.7230,20.5297,133.8660,184.7915,86.6735,2.4247,-20.3137,-29.9959,-39.8884
-3578.1250,11.3241,-8.4243,14.2688,21.1608,-8.7950,-10.5754,-98.9421,87.7262,-21.6915,94.7975,-46.9761,16.6801,15.0745,75.1036,127.3567,140.0951,-50.5961,-74.1908,-82.9925,-83.5315
-3570.3125,-24.7808,27.3591,-21.9237,20.5006,-44.4931,-10.8699,-203.3132,13.9645,-58.3451,59.2809,-47.2828,90.9653,-14.0738,113.6404,92.2321,68.7982,192.7197,29.2501,-83.6703,21.4050
-3562.5000,82.1687,64.1894,52.9413,57.8926,-7.1446,63.8956,-197.6981,125.2824,-94.9090,97.8361,-46.5380,17.3238,-17.6563,41.2211,20.1735,-0.4689,17.0950,-5.2496,-82.2847,-6.3414
-3554.6875,44.2214,-7.8850,10.9160,20.3896,-10.6974,21.7733,-199.0428,81.7280,-64.3434,129.5143,-51.6933,47.8033,-27.4449,37.9009,17.2127,-4.6631,84.5859,27.3663,-48.7797,25.3484
-3546.8750,-15.5793,39.1823,-10.9560,32.0306,-33.1080,-0.1861,-178.3130,60.3483,23.4183,146.3662,-37.6973,63.4627,-28.9921,15.7305,32.3995,48.2695,60.2656,73.1481,-72.0978,67.0822
-3539.0625,-8.9217,45.6993,28.6413,73.1308,7.9360,39.3141,-97.1905,62.4550,-9.3430,112.6956,-33.2530,28.5867,22.0295,-52.9981,110.0409,54.6283,-109.6025,43.3856,-170.9535,36.1400
-3531.2500,-86.8095,38.6578,-51.2999,30.6751,-72.5738,-4.7266,-248.6888,-17.9642,54.3676,68.4895,-5.3571,131.1900,26.1738,13.7257,214.1316,48.4078,22.0225,141.0968,-178.3365,121.7395
-3523.4375,-48.0383,79.2653,-10.5825,140.8709,-30.4325,110.8961,-275.6125,22.2914,22.7700,111.9482,-0.8044,99.4656,-19.2245,19.1140,35.8750,-18.2040,-149.6775,179.4747,-209.0504,168.4610
-3515.6250,-38.8102,88.3158,32.5985,150.5271,-23.8388,115.9912,-265.1465,-7.9739,-44.3506,117.8716,6.1947,141.2103,-69.5932,-11.0443,-139.9212,-84.3958,-35.9119,188.3170,-200.3092,187.2999
-3507.8125,-106.8340,91.1146,-35.4659,151.9344,-54.5058,85.8495,-328.0172,-75.4696,34.3115,88.5539,47.9467,220.7419,-66.9990,31.5452,-95.9593,69.1457,-0.3563,188.9371,-232.7965,176.4387
-3500.0000,-64.6424,99.1103,43.6925,159.5487,24.0384,90.9311,-245.7619,-33.7279,-69.8035,57.4505,15.9043,115.4856,-4.3423,-34.6737,20.2043,186.8639,-203.6027,125.7801,-296.0753,112.3996
-3492.1875,-126.6996,143.8492,-20.3838,62.9130,-38.6677,25.7744,-268.8322,-62.2070,-61.1385,31.1102,24.6139,234.0104,-47.4934,47.8562,-42.8819,14.3003,-20.0675,204.3963,-216.5847,191.8291
-3484.3750,-76.6567,195.6912,-2.3528,149.3797,-21.2781,118.7327,-246.8798,-8.5615,-79.3286,86.8938,43.4292,178.6619,-72.6166,103.4880,-170.8652,-113.1852,-109.4091,149.1310,-234.9763,143.4873
-3476.5625,-86.5538,79.5771,19.7448,174.9044,2.1663,139.7614,-184.9392,14.1712,-131.4384,36.7520,-7.7060,89.3797,-73.5440,125.1609,-184.7992,-16.6378,-85.7014,102.9287,-210.3059,106.0565
-3468.7500,-92.1554,-31.2466,-56.8519,168.7262,-111.0953,173.0994,-293.7838,-62.7700,-61.2060,-76.0729,24.4749,123.4299,-76.6793,197.1327,-113.4229,91.1882,48.3393,132.0475,-145.3201,128.4582
-3460.9375,-28.2007,-105.5230,-26.8811,270.1022,-43.8013,240.0043,-150.1502,2.8722,-105.3861,-45.3280,17.2182,5.0464,-39.1562,153.6529,-119.4872,13.5419,-98.0747,91.7367,-184.7811,97.8314
-3453.1250,-65.8421,-107.4052,-67.4963,231.8831,-85.1052,162.3262,-188.1926,-38.0521,-73.1402,-12.1676,49.3668,74.0913,-45.4048,112.5713,-122.1544,-62.7271,73.9370,123.8437,-151.8275,128.1278
-3445.3125,-72.3246,167.8618,-70.9530,190.8200,-87.2625,158.8174,-187.1761,-5.7992,-75.7130,21.1480,46.6770,71.3163,-43.2621,36.6356,-87.6619,-64.8715,-72.8666,82.1272,-122.7048,79.7722
-3437.5000,-105.8422,240.0800,-35.4380,122.7188,-52.4602,83.2832,-2.2771,29.4401,-115.3195,57.4232,7.9465,68.5072,-64.1839,-37.3571,-162.2209,-29.0945,-176.7208,47.3818,-85.6230,50.6114
-3429.6875,-169.8591,106.7922,-99.4122,23.1187,-116.1628,19.2625,-25.9653,38.2042,40.6057,104.2037,-20.2738,78.2339,-98.5661,9.1509,-152.2818,19.1536,-66.0306,89.1617,25.9829,90.3765
-3421.8750,-128.8637,43.5060,-21.3671,100.5238,-36.8583,99.2598,57.2701,118.0051,46.5667,148.0088,-50.4870,-63.0225,-68.0495,-20.3478,-145.3530,-10.6234,-270.3292,94.9636,-36.3988,103.6348
-3414.0625,-174.3093,32.7720,-107.7566,125.4879,-87.0005,84.8248,-27.0143,103.3885,-2.9031,134.3837,-101.1430,32.2992,-100.7106,39.6960,-120.8818,13.1157,-176.0550,189.3379,-47.2219,195.9832
-3406.2500,-256.3029,162.4903,-189.6878,219.9039,-168.6965,186.8582,-142.9420,168.2429,-12.8882,200.2208,-146.3293,134.1075,-180.7998,104.1903,-201.9570,115.2746,-293.2932,248.1885,-93.5799,251.7775
-3398.4375,-261.8798,158.6145,-162.1957,249.7362,-177.9853,214.3172,-39.5453,268.5329,-58.4631,228.4685,-193.1038,50.3400,-183.9073,95.0841,-211.6381,107.8019,-405.1235,172.4578,-132.5345,182.7071
-3390.6250,-328.2973,92.8870,-230.5422,113.7201,-246.1249,108.9437,-105.0911,163.9960,93.1362,270.8717,-151.7090,55.7620,-139.5018,100.1266,-21.1802,149.4466,-260.7556,105.9028,-23.3258,100.3679
-3382.8125,-299.5981,52.2652,-198.7692,72.8127,-177.1573,67.6879,77.3774,195.5861,125.8673,341.3838,-156.1942,-58.6917,-78.3885,96.2680,84.3657,183.1583,-478.2727,-6.5299,-28.0046,-15.8760
-3375.0000,-334.8835,-53.3563,-201.9753,-33.0877,-180.1810,-8.5487,149.7686,192.2079,232.6191,300.9013,-123.6657,-99.1200,-78.9347,129.4053,45.8999,179.8415,-372.7695,-41.9424,42.3230,-49.2267
-3367.1875,-363.3602,-151.1727,-227.3705,-61.1877,-205.4060,-34.9688,89.8634,203.6509,391.1998,351.2210,-111.3138,-87.7096,-101.9107,179.3394,20.2305,230.2931,-331.4190,-104.5263,119.4643,-115.0756
-3359.3750,-317.2122,-174.3760,-217.1351,-48.6719,-159.0166,-24.7641,248.4809,249.7228,364.3937,361.1502,-176.3457,-188.6797,-82.6945,151.8667,67.1415,277.3130,-461.4616,-199.4884,95.2081,-206.2376
-3351.5625,-407.5993,-194.1328,-274.4292,-139.6999,-215.1730,-81.0911,156.4558,192.2706,344.0587,378.5356,-122.9097,-98.1672,-70.8380,131.8419,121.4829,330.7478,-270.0087,-149.9736,146.4161,-163.8885
-3343.7500,-284.3202,-176.2387,-180.0513,-121.0708,-157.6658,-24.7483,142.9890,213.4913,291.4034,399.5777,-102.8003,-224.9824,-59.4663,42.4623,69.4551,315.8027,-358.8817,-131.7810,129.2884,-140.6610
-3335.9375,-261.4707,-222.7968,-159.0937,-133.8840,-136.5914,-39.8359,165.9948,197.2962,201.3111,385.1833,-118.1175,-240.2295,-66.4041,-8.3805,17.9566,264.3767,-230.1879,-74.0175,187.7134,-73.4202
-3328.1250,-266.3545,-157.1037,-194.8678,-103.4476,-136.2610,-76.6617,132.1533,124.3691,202.4965,349.0402,-155.1568,-203.1931,-86.6929,65.0209,18.6981,191.1617,-95.1907,-8.9762,254.4011,-7.0646
-3320.3125,-164.7158,-90.9034,-92.1138,-1.4982,-69.4151,28.0341,201.7351,154.9697,49.2072,270.4074,-234.6777,-246.6364,-89.4406,21.9106,-24.0690,112.4130,-204.6860,-13.4197,179.5917,1.2898
-3312.5000,-191.2126,-80.8540,-118.4869,-27.6940,-59.7085,0.6000,102.0806,17.4421,-15.2053,169.6289,-151.3314,-91.1954,-75.6669,-5.3633,-50.0012,12.4750,50.7084,101.0119,154.6407,113.6997
-3304.6875,-84.2894,26.5927,-40.4383,79.5129,19.4073,78.5848,71.7301,-14.6616,-121.1812,101.2527,-111.5572,-49.3331,-72.8699,-37.2409,-154.5426,-92.0964,-18.4668,102.8707,86.0993,120.5430
-3296.8750,-49.8956,27.4906,30.0892,115.1802,52.9896,112.0417,143.7559,-55.2845,-159.6874,-11.6648,-114.3094,-90.0038,-36.2496,-75.6806,-120.6487,-132.2520,-18.1804,67.1989,52.0092,89.9496
-3289.0625,-53.3883,-11.5095,-44.2653,40.9472,-21.3223,74.6098,70.7887,-92.7880,-51.0622,-85.4773,-78.9408,-53.5416,-20.3126,-41.0281,-11.6694,-59.3414,47.2551,62.6549,154.0387,74.8401
-3281.2500,-30.8585,-94.5024,15.4037,28.7264,74.3808,60.1984,205.7453,40.7370,-65.4047,-62.2800,-93.5537,-214.0640,-3.5502,-18.3823,-62.7040,-0.4634,-176.2998,15.1284,141.0736,34.2126
-3273.4375,-62.3620,-194.5474,18.0432,-37.5380,41.0424,26.7546,135.5726,6.2371,-134.7802,-94.1305,-17.1971,-174.6087,-10.8382,58.2156,-131.8063,3.3328,4.1285,54.5748,181.0647,74.4086
-3265.6250,-14.0003,-146.7424,35.5520,-23.9477,95.5609,44.1771,118.1535,23.6068,-191.2710,-114.1304,37.0361,-158.2726,11.9019,75.6643,-151.0664,20.9460,-53.5582,31.8921,124.9206,48.7174
-3257.8125,26.4824,-140.8350,74.1895,-18.2467,134.1960,46.7254,194.7629,63.1093,-262.6454,-147.0287,39.3897,-191.8199,35.9377,41.2037,-148.2409,59.6277,-84.1377,-68.6712,94.8779,-48.7403
-3250.0000,-11.4178,-178.3293,0.4436,-55.9467,23.4354,8.8911,46.8806,-48.7681,-117.3934,-221.3383,74.3672,-83.7315,36.1644,40.3409,-39.8271,132.8694,124.9340,-35.6046,127.4465,-27.9114
-3242.1875,28.5084,-138.0117,5.5242,-15.8308,64.4894,49.8846,126.7127,-6.8195,-112.3246,-215.8537,6.1714,-115.8203,56.2445,-28.7295,39.3653,137.8734,-46.1709,-65.7098,62.8164,-57.9651
-3234.3750,7.6067,-123.5368,-19.2163,-72.5458,40.7062,-10.9457,176.6153,-104.6967,-135.1033,-166.2195,-18.8572,-29.7341,43.3801,-52.6553,51.6839,38.9880,107.9001,-52.6339,112.3361,-44.6538
-3226.5625,22.2697,-37.5040,0.6110,-56.6993,23.4826,8.7970,123.9734,-122.0074,-116.3142,-146.0395,37.6937,-46.0646,9.1685,-33.0362,-75.4676,-14.3865,88.5617,-1.9770,163.4193,7.5647
-3218.7500,103.3632,-62.0620,81.8720,-46.4361,104.6807,16.9633,205.6608,-77.8857,-181.1191,-174.4638,45.6632,-112.9804,25.0479,-98.0253,-140.2389,-42.3955,-6.3686,-25.8993,138.9017,-8.5470
-3210.9375,69.2189,-59.8720,11.9011,-115.4174,70.6349,-54.1048,98.0120,-147.9939,-106.1575,-208.1393,84.4013,0.8876,36.5257,-96.2692,-65.2769,-76.6853,170.4995,44.9604,176.1436,53.1370
-3203.1250,131.3973,36.6310,115.2557,-18.0861,174.9029,-23.8494,128.5771,-155.7783,-149.8724,-141.5204,114.4655,-42.9181,37.4252,-140.2217,-181.0319,-120.7096,20.6897,1.1478,61.6867,12.7275
-3195.3125,135.5058,6.0434,152.5388,-49.8422,175.0873,-60.6678,128.9629,-227.6404,-184.6771,-214.0089,151.4470,31.2052,61.8565,-139.2802,-143.9055,-120.8773,94.8052,40.2589,-39.8776,47.7097
-3187.5000,107.4844,49.3129,91.6903,-76.7420,151.1283,-84.6197,31.1020,-251.6404,-136.6090,-274.6574,237.3092,43.2135,113.6700,-91.4927,-21.9462,-73.2287,137.8192,12.2488,-66.5879,6.1157
-3179.6875,161.3403,32.4392,182.7247,-57.7746,241.0367,-67.6905,159.0131,-197.7602,-265.6812,-257.4556,254.0399,-49.9135,128.3160,-37.8601,-115.1590,-91.7605,-19.3136,-73.8872,-83.4528,-72.0921
-3171.8750,123.1576,-40.4781,105.7291,-131.8483,164.9033,-107.7929,44.7915,-200.9126,-194.7914,-260.3052,250.7374,-16.0536,67.3149,69.7203,-191.4414,-95.3737,223.5430,-42.0424,54.6373,-39.0134
-3164.0625,180.9455,-52.4333,132.7059,-72.9613,190.7345,-43.9283,34.4399,-65.0957,-169.9264,-196.2040,203.4082,-100.2159,72.4797,58.2473,-165.7914,-71.0734,71.3751,-89.2225,42.6761,-83.3990
-3156.2500,162.8044,-106.3330,145.7625,-127.0052,167.6340,-67.9892,84.0668,-15.2021,-155.0024,-183.0564,143.1442,-124.3043,72.4612,34.8169,-115.1090,-93.7553,87.2686,-108.3234,94.7559,-98.7548
-3148.4375,116.2282,-152.6754,101.3850,-173.4859,123.0879,-112.4775,2.1511,-59.7458,-16.5103,-190.3766,171.4549,-94.8012,91.2639,62.9350,-13.8886,-66.9214,181.7578,-83.8399,119.3887,-83.7835
-3140.6250,192.8825,-74.8020,180.2394,-96.7451,201.7626,-70.7346,80.3595,-55.0647,25.1845,-148.5107,139.9909,-200.0751,96.7276,-42.7475,-46.4991,-97.9244,12.4561,-113.1286,55.2097,-108.5295
-3132.8125,167.6087,-64.8675,116.1662,-156.9412,137.5021,-134.9162,16.5368,-155.3149,144.9291,-175.6069,149.6042,-43.2702,54.1791,3.6137,-74.0885,-162.9159,233.2415,-67.3334,135.0742,-67.2618
-3125.0000,172.1603,-25.1214,124.9155,-116.3278,109.0530,-89.2756,23.4266,-110.7498,153.4893,-167.9153,157.0492,-71.6358,94.6442,-25.2344,44.1012,-83.1409,62.8640,-97.7119,140.7428,-103.1835
-3117.1875,122.7893,-75.3079,104.7423,-96.6418,125.6705,-109.5574,113.2922,-57.1108,96.0962,-187.1771,137.5693,-54.9281,138.2273,-46.0406,134.3059,-102.3440,12.5528,-113.0159,125.4482,-116.4741
-3109.3750,87.7860,-39.1249,34.9369,-131.5925,18.6407,-105.4715,-30.5869,-90.1118,210.0626,-147.0986,141.4704,59.1702,139.2879,-116.4989,247.8430,-247.2265,224.6390,-6.9440,161.4989,-16.6299
-3101.5625,176.0100,49.2728,90.3591,-42.3273,73.8317,-87.1612,22.6580,-34.8927,228.2369,-92.8276,122.5971,-32.5075,188.5880,-207.7563,339.5572,-339.9391,66.9338,-58.6513,73.7391,-68.5194
-3093.7500,155.5572,28.9815,30.1036,-98.7468,13.3342,-111.5320,-37.8736,-96.3512,204.7054,-189.2655,135.0481,53.1493,160.5152,-195.7141,314.5435,-291.3827,292.5586,-9.0314,88.2710,-19.9315
-3085.9375,222.5262,61.1077,66.2659,-31.7591,49.2438,-37.4841,-76.0929,-133.3957,167.5862,-189.3132,170.9265,53.2443,101.1924,-196.2800,92.9056,-256.4609,253.6270,-12.9815,84.2047,-17.7567
-3078.1250,229.4281,68.1555,144.3565,-23.8497,127.0712,-33.5108,0.5194,-128.5117,61.3666,-111.4600,138.7276,-15.7390,108.8199,-229.9588,60.1387,-215.6780,190.6012,-76.0093,22.0282,-76.0541
-3070.3125,107.0941,15.9641,18.2135,-76.1830,37.6547,-85.7696,-127.2009,-144.8648,192.9156,-127.8597,86.3051,42.0653,129.0699,-62.8963,301.0930,-159.1717,314.3682,-57.2613,39.5984,-72.6511
-3062.5000,134.5879,8.5825,47.8896,-13.7029,30.0508,-19.2078,-99.1963,31.6054,148.2742,-25.4596,41.7080,-75.3094,122.6912,2.9644,292.8216,-204.8844,95.9432,-99.6888,-3.0398,-110.1823
-3054.6875,107.3016,-88.5928,53.7874,-41.0056,35.6587,-51.4223,-96.0627,37.2980,189.8372,16.1396,47.3311,-107.4599,53.2839,7.0230,76.7200,-237.4200,209.7403,-56.8922,110.5053,-55.3841
-3046.8750,95.1322,-100.6497,43.8001,-53.1976,25.3715,-60.5197,-143.9131,64.1024,253.5173,-30.1686,74.0795,-116.4734,50.5951,34.1770,65.7014,-174.8882,196.6783,-33.9671,168.1414,-34.1435
-3039.0625,127.1385,-139.5363,73.9866,-21.2124,19.2482,6.5632,-4.6796,94.0777,99.3460,-73.3291,-6.0033,-159.3138,77.0604,100.4742,168.8139,-146.2328,17.7644,-36.8657,128.9011,-33.6304
-3031.2500,20.5097,-140.0553,-34.4607,-21.8602,-53.5185,8.0190,-79.1839,58.4124,27.5234,-145.1571,-41.7057,-121.7652,94.1585,137.1231,316.2505,-109.2488,123.2391,103.6162,163.9955,102.9538
-3023.4375,119.7060,-111.7536,105.9149,41.3045,49.5283,74.2972,-14.9678,88.5595,-127.4975,-152.2070,61.4257,-237.3896,125.7240,56.5737,161.4688,-154.4856,10.5292,60.9275,85.8731,70.4085
-3015.6250,218.4775,-82.8840,167.8629,35.0396,112.1342,26.1514,-65.2610,3.2725,-174.9831,-127.7216,160.1249,-138.4296,32.6414,-29.4279,-217.7809,-167.1968,215.3846,54.8113,43.2804,72.9131
-3007.8125,284.3664,53.1072,129.9217,29.8879,109.8455,-11.8759,-142.5388,-71.9024,-67.3719,-129.1548,231.9496,-104.3269,17.4258,-32.3311,-257.9517,-170.8428,245.3845,49.8282,3.7853,57.2669
-3000.0000,301.5905,71.4156,218.3089,48.0594,197.8723,2.4296,17.4177,-56.7551,-125.4735,-115.3040,247.0984,-235.9021,122.9738,-90.9368,-96.8599,-231.2163,17.6906,-37.8303,-119.4284,-32.5839
-2992.1875,228.0326,31.9400,139.9146,8.4492,156.1086,-39.0457,-63.4955,-172.3952,-94.3863,-157.2673,315.4691,-130.2416,132.8822,-97.3426,-66.6031,-238.4068,225.2305,28.7380,-158.4513,26.4408
-2984.3750,273.1472,113.1347,188.1856,54.5078,204.0015,9.1492,-17.8266,-123.3760,-46.6482,-146.5977,363.5125,-154.8983,88.6054,-160.0932,-276.7188,-190.9661,94.4433,3.9794,-254.8408,6.3613
-2976.5625,319.6880,123.7505,231.8791,30.9895,210.3082,-20.2283,-13.8122,-153.9400,-77.5213,-177.5378,369.9702,-148.1302,84.6984,-301.4501,-308.4638,-150.1474,141.0641,16.6442,-243.8541,21.7751
-2968.7500,280.4933,84.6371,192.8328,-44.2670,170.8667,-22.3399,-202.6244,-120.2455,-6.1369,-180.2451,367.6993,-114.0758,79.5762,-268.5632,-238.9765,-80.0960,241.9755,46.5855,-213.6310,43.9751
-2960.9375,267.3722,72.5933,213.8562,-21.4598,191.4867,-1.3800,-111.4404,11.5211,-132.7045,-85.9102,314.4979,-202.9486,85.4544,-174.6340,-219.4501,-24.0166,19.9346,-0.4062,-261.3734,-0.7103
-2953.1250,150.7122,27.0181,164.3395,-67.1862,141.5586,-13.9538,-162.8678,-1.2493,-145.8259,-99.1342,301.7641,-68.3386,44.9428,-77.2481,-269.4890,-38.5095,148.3698,60.0718,-202.6823,60.9235
-2945.3125,184.9241,95.3153,203.6788,1.9500,217.4825,24.3386,-164.5125,0.8355,-108.0894,-134.5284,303.9056,-65.8453,39.1332,-113.0086,-342.6923,-75.1737,41.6839,92.4224,-205.1548,97.1137
-2937.5000,201.0085,77.4861,289.8856,51.9574,229.2663,74.5055,-191.3530,12.7835,-169.5137,-160.0882,279.9111,-16.4763,37.7022,-175.9145,-369.0664,-139.0077,58.8482,143.6429,-224.8046,156.1942
-2929.6875,205.5533,46.1187,260.5474,56.4277,200.4977,81.1384,-369.8113,-52.8100,-88.4846,-189.2184,250.3833,101.3796,-9.2542,-94.3698,-398.9994,-206.4032,238.4984,219.3357,-115.0141,231.3703
-2921.8750,293.9196,64.5712,353.0297,144.7152,255.5386,173.5915,-318.5242,39.4095,-143.6589,-134.5488,232.6726,11.0572,-16.9462,-77.0313,-492.1515,-300.0125,11.9511,167.8474,-97.4481,189.5550
-2914.0625,237.0505,-27.2056,291.2747,52.7706,192.3350,111.8151,-309.5390,13.3920,-96.0982,-161.1326,243.7248,22.5144,14.4059,-103.9444,-372.5757,-327.8880,164.1678,216.1358,19.8479,235.6943
-2906.2500,211.4929,-16.6716,268.8258,62.1378,170.4348,52.3530,-335.3182,63.6813,-8.2278,-73.4294,221.0992,36.3029,36.0808,-126.5573,-248.7115,-277.4770,104.7064,190.7480,29.4322,202.5086
-2898.4375,247.8051,-16.2682,303.2451,64.3752,167.3961,87.7596,-304.2821,134.8397,-84.5241,-38.8881,182.3306,71.9616,17.6881,-167.3185,-289.0150,-319.2315,70.0919,156.2315,-6.1549,173.5220
-2890.6250,220.4295,-7.5417,240.9706,35.9254,141.6573,61.4848,-406.0021,36.3016,-37.5255,-29.0627,229.8763,193.9519,-16.0594,-83.7817,-353.0356,-309.7083,289.8183,165.0433,36.5400,177.0172
-2882.8125,264.8252,69.9565,288.4660,115.2442,224.6783,108.9769,-363.0201,82.5230,-27.7836,163.4958,203.1886,93.7144,-0.1396,-147.5056,-344.3235,-265.4501,87.3040,67.6278,8.9655,79.0129
-2875.0000,217.7388,24.9697,273.4730,103.0823,210.2051,93.9898,-344.5842,32.2579,30.4400,221.5373,152.0168,115.9988,12.0423,-200.7283,-251.1280,-281.7020,216.2954,56.7318,30.8720,68.0217
-2867.1875,153.4635,29.7987,174.2812,74.7258,147.5273,68.8169,-373.4064,41.7959,150.4660,231.3598,162.6623,164.1142,-2.1415,-117.1442,-204.1349,-199.1651,152.1192,27.6559,35.5682,27.8135
-2859.3750,147.0583,23.5067,237.9533,67.2450,173.7081,58.5097,-239.4106,105.1961,102.3305,221.0309,79.1608,155.1004,-14.5016,-127.7125,-216.3032,-174.7908,4.7821,-12.5559,-6.9164,-6.3555
-2851.5625,82.4589,-5.9739,135.4243,2.5761,69.6824,29.0188,-383.6588,38.4057,218.9923,116.4820,86.4665,309.9196,-32.7837,-158.4782,-137.6810,-96.6269,221.2757,98.0509,-1.6159,94.8419
-2843.7500,140.7754,53.4598,161.8011,61.8183,59.5576,93.4399,-360.0497,102.5201,171.5590,68.8173,39.6866,263.6556,-35.0906,-133.3414,-112.1597,-71.5650,69.6766,51.5715,-49.4306,49.7424
-2835.9375,102.2500,49.0613,81.3325,57.2290,51.5825,86.0295,-334.3207,94.8000,164.2606,25.3016,32.0658,256.5573,-42.1577,-105.0561,-121.4968,-117.3548,136.2193,82.2552,-20.1182,82.7778
-2828.1250,34.7740,122.7264,15.9061,95.6962,-14.3546,94.6797,-366.5811,29.1338,245.0164,30.8199,40.5037,301.5359,-50.3112,-97.7143,-78.7833,-112.1029,174.8400,86.0125,-18.7638,80.4888
-2820.3125,49.3155,172.4082,65.4904,180.1806,-2.2854,144.3515,-247.8678,78.4825,182.7606,6.3259,-57.0544,241.5210,-46.8593,-123.3661,-31.0844,-64.8547,-22.5493,29.7852,-75.4324,29.4945
-2812.5000,9.1653,168.3980,-12.6243,140.9774,-78.9192,103.3351,-328.8882,-35.8634,177.7956,-108.8819,-61.3068,347.8338,-71.9170,-18.7165,-1.0967,-34.3068,184.3832,61.8756,-10.8177,56.3817
-2804.6875,59.8752,219.2514,6.1103,191.6348,-25.7074,158.1793,-352.0914,-18.3551,121.6823,-128.2541,-6.7011,293.0111,-71.8447,-2.2124,-94.2586,-19.9054,94.1708,41.8316,-67.3671,37.4708
-2796.8750,43.1424,202.6731,21.3983,174.8576,-45.9455,137.5882,-266.7589,-38.2842,-9.9020,-114.0816,8.4553,309.7532,-68.2654,-23.1564,-116.8758,-41.9523,78.4992,60.3505,-119.3938,58.3266
-2789.0625,0.5096,195.2100,-20.2213,96.1886,-53.0946,96.1049,-312.3610,-81.1116,20.6095,-156.8251,3.7205,378.6259,-87.0179,6.0105,-123.3965,-13.8955,175.9560,122.9788,-59.3360,118.2002
-2781.2500,55.9425,215.8130,111.2138,151.5831,40.8083,152.6842,-184.9364,-60.8821,-105.8356,-174.5287,-49.9622,289.5612,-79.2413,25.2325,-178.8641,-67.7823,-15.5490,108.6635,-110.2531,114.5902
-2773.4375,0.6285,125.6810,52.8940,132.2357,-18.0466,132.5164,-247.2848,-81.3974,-128.0386,-232.9897,-34.3948,341.7682,-84.6339,76.7084,-165.0752,-54.4132,176.2087,159.6029,-59.9386,166.2942
-2765.6250,15.0174,175.2639,-1.7343,181.5892,-36.2122,188.0520,-195.9610,-64.2108,-147.5327,-215.7567,-52.1191,287.6896,-60.6044,57.8854,-75.5775,-2.3360,84.6753,103.2542,-83.9417,106.7968
-2757.8125,23.4673,218.9087,39.6906,189.0052,4.6731,119.6488,-47.5926,-58.9640,-252.9942,-175.4786,-47.7927,293.6715,-46.0151,24.1145,-108.0348,-72.2031,58.1716,41.9606,-146.9185,49.5691
-2750.0000,-40.6812,189.9599,-24.4909,124.8247,-23.0497,55.6472,-152.8486,-87.3201,-208.0666,-203.8221,-1.0636,340.0775,-66.4254,142.7563,-138.0897,-29.6646,170.0939,83.0813,-107.5090,84.1361
-2742.1875,33.0336,193.8791,53.1797,93.5056,54.0781,59.5057,-116.2677,-9.8244,-242.3025,-127.3279,39.5229,197.3426,-14.6344,108.2429,-100.2898,8.7318,-73.1408,-17.9409,-139.2693,-20.6573
-2734.3750,-12.0486,114.0174,40.0490,-21.6010,3.4034,-27.4291,-170.4931,-23.1263,-255.3507,-104.6406,100.3058,221.8248,-2.8882,57.9253,-77.2910,67.3303,93.8296,7.2411,-115.8475,0.2133
-2726.5625,33.6693,159.9685,18.7068,-45.9053,18.5161,-48.5635,-232.9403,-44.6318,-204.5936,-92.1620,114.8901,201.1255,-5.9575,35.4136,-64.4822,153.7335,68.6135,-16.7718,-107.6308,-30.9403
-2718.7500,91.8922,112.4257,37.8615,-58.6987,37.1251,-65.1851,-69.8825,11.3756,-259.3449,-72.1863,23.9690,146.9254,-11.7151,-20.5910,-47.1692,170.6476,-49.1254,-29.2826,-84.9354,-36.2438
-2710.9375,19.7084,40.4888,-36.3993,-129.8853,-37.6816,-102.2024,-111.2411,-63.0199,-114.5007,-74.6210,-13.3543,221.3394,-48.7229,52.0158,-12.2468,168.1699,89.7533,39.8193,-54.6538,27.4994
-2703.1250,-5.3725,120.6598,-24.5607,-85.9626,10.6109,-91.1161,42.5010,-14.3151,-104.5610,9.0299,-1.5806,122.8624,-6.1578,62.7299,34.7856,140.7967,-146.2777,-55.9750,-150.2899,-70.9750
-2695.3125,-45.5537,81.7392,-68.8269,-125.1301,-71.2013,-134.1188,104.1465,-94.7060,-111.7369,36.5710,27.0859,152.2977,6.2499,90.3480,98.7254,131.3331,-10.4145,-93.8652,-192.0499,-114.0272
-2687.5000,-65.6366,131.9255,-160.0065,-111.1965,-89.9262,-116.0228,8.8736,-114.0051,-57.8131,18.1984,45.8560,172.8482,-2.1367,71.0700,115.7853,221.9798,4.5643,-80.6490,-144.7191,-107.0052
-2679.6875,-32.1662,130.6702,-90.6404,-41.7029,-58.1048,-82.3695,111.1593,-44.7491,-99.3490,12.3681,5.1735,95.9491,8.9947,29.3438,109.4024,215.1893,-171.9273,-114.8824,-181.8564,-134.0286
-2671.8750,-133.7545,29.3719,-122.3379,-108.2542,-90.3458,-113.7639,38.3971,-112.5471,-58.9453,-20.5166,10.4329,175.0143,-3.5960,70.5687,112.9730,218.3615,7.5430,-6.1596,-110.0506,-25.6364
-2664.0625,-90.8466,36.5821,-75.5466,-65.2988,-6.0926,-66.6540,118.1341,-28.8426,-49.0489,26.0978,-15.8096,38.5802,8.3950,42.2936,85.0585,226.0463,-230.4954,-33.9327,-139.7565,-48.8064
-2656.2500,-150.3915,-58.6521,-105.2086,-124.7857,-37.2948,-59.9895,194.4344,51.4224,-80.6208,68.2583,-83.5075,-27.3038,4.9445,11.5653,126.7029,268.2989,-221.0030,-24.1546,-95.9333,-33.0950
-2648.4375,-196.9962,-103.9379,-185.9382,-171.3254,-118.5588,-103.3812,109.6823,80.6340,21.7607,96.3593,-90.2519,3.7671,-23.5233,76.7893,155.3127,369.5220,-126.5495,-33.4251,-2.1644,-48.2195
-2640.6250,-86.1958,-62.8179,-109.2737,-95.4643,-78.4262,-99.3752,220.3537,121.2543,-11.4693,135.8596,-123.6002,-28.7730,-39.0713,43.4163,83.3393,334.1591,-260.7255,-98.2978,-69.0173,-107.0753
-2632.8125,-156.7036,-62.9985,-181.9217,-130.9012,-116.6073,-99.6708,141.7367,47.5687,23.9911,97.0533,-124.2553,81.3954,-59.5111,4.7517,81.0775,294.5125,-50.2003,7.5284,-35.1821,-1.6504
-2625.0000,-113.2693,15.7705,-135.6388,-52.3893,-105.8507,-14.0169,149.0771,57.8287,-3.5945,107.1808,-149.9658,19.5155,-55.5946,14.0472,90.7876,229.8267,-183.7231,15.3037,-99.3998,8.0446
-2617.1875,-92.6852,2.6968,-117.2135,4.2792,-88.9484,-33.2098,236.5927,39.2380,-97.0448,50.4505,-167.5359,-35.2135,-50.9611,104.4994,69.6553,172.3066,-161.1159,2.2247,-115.4874,1.4460
-2609.3750,-167.8121,-2.0735,-228.5070,-35.7533,-127.7612,-34.1110,120.4129,0.9397,10.8029,11.0135,-170.8149,37.3663,-59.1876,176.2594,140.8362,242.1038,-26.1916,32.4447,-86.2788,22.6337
-2601.5625,-129.2375,36.8611,-154.1093,2.9187,-126.8790,4.6892,227.9500,39.3395,-61.6523,11.2728,-204.4008,-33.3631,-26.1238,102.7219,213.7336,278.6134,-197.5852,-33.6382,-120.3860,-41.0291
-2593.7500,-176.8191,-11.3541,-243.8757,-45.5555,-179.1605,-11.6646,208.3586,-51.4214,-42.2686,-79.6260,-184.1486,61.7581,-19.5512,122.0438,269.4934,260.9893,-0.1288,24.1249,-99.6550,13.1198
-2585.9375,-146.9100,54.9277,-245.1623,55.4635,-181.9538,60.4711,129.2812,-52.6916,-44.3784,-83.0346,-222.3991,60.3769,-12.2585,156.8694,340.7762,219.8838,-75.1717,54.3847,-141.4225,40.9555
-2578.1250,-92.0589,75.1536,-155.5103,145.4344,-128.7997,77.5548,178.1980,-37.0043,-102.5452,-31.4893,-243.7126,40.9244,-65.8667,98.6424,134.0265,160.7490,-125.2996,39.5808,-158.2511,39.5718
-2570.3125,-125.0758,77.5208,-188.7298,77.5469,-162.5158,44.7800,67.2820,-106.1775,-63.5590,-28.8035,-202.8839,155.6281,-140.5242,64.5644,-47.5493,199.7873,86.7369,76.9219,-52.9307,78.6544
-2562.5000,-49.0965,118.8855,-109.9593,118.6541,-85.2365,87.9962,143.3966,-27.3573,-95.5730,12.8733,-234.0629,15.3221,-118.3375,-4.5068,-43.0962,240.8494,-118.2497,13.2458,-118.6182,18.6358
-2554.6875,-126.6301,76.7424,-194.7050,76.2578,-169.4675,2.7046,128.0497,-38.0424,-70.0927,0.0393,-281.7637,41.5109,-100.7483,19.9310,127.8807,301.4340,14.2499,5.0617,-57.8105,4.3148
-2546.8750,-179.1274,23.6397,-246.4205,57.9032,-221.6624,25.4512,72.7739,20.3058,24.4483,94.2532,-297.4246,-9.2598,-93.9386,77.4240,221.9326,358.0918,-74.1964,-12.0780,28.0504,-18.9671
-2539.0625,-227.9358,-58.7628,-227.4496,44.2502,-204.1606,6.8918,235.2433,149.3550,41.6799,185.1796,-389.4048,-99.3502,-71.6791,168.6212,312.7088,301.4763,-261.9806,-130.5357,48.5998,-133.6430
-2531.2500,-351.1143,-111.5243,-318.8555,-42.7679,-295.0287,-46.0332,177.3966,132.0421,133.5669,203.7563,-369.7482,-42.7970,-79.1901,261.4751,368.1708,245.5405,-103.1096,-42.3557,134.7984,-50.5520
-2523.4375,-270.0992,-100.1001,-270.0808,38.4015,-247.7094,39.2292,185.7856,179.9244,144.6673,214.5375,-283.9051,-140.0592,-65.5659,235.5317,267.8652,218.8271,-304.0565,-66.9932,73.1964,-73.0959
-2515.6250,-273.0962,-102.6816,-239.3244,35.5707,-253.4010,33.4836,213.2210,137.8027,138.7637,207.3212,-216.0781,-71.3405,-79.8279,155.5964,150.5745,211.1379,-201.0237,-103.6433,33.5854,-106.5651
-2507.8125,-299.1154,-59.2758,-299.5923,9.7257,-278.1093,10.7199,149.6872,77.6674,260.8704,257.0981,-240.2540,-21.6319,-112.2279,204.6670,163.3130,223.4753,-122.9876,-95.3053,40.9788,-105.5118
-2500.0000,-268.5414,-28.2860,-234.2720,39.4707,-213.2214,2.5500,248.8063,143.1307,252.5694,321.4774,-321.8433,-64.3530,-75.8865,158.3369,264.6823,139.4446,-232.3884,-169.3824,-36.0326,-177.0990
-2492.1875,-306.5391,5.1369,-310.5252,-32.3448,-325.8989,-71.1843,95.4183,30.0346,286.7188,354.3096,-287.0002,6.3644,-89.0185,155.4598,334.5251,135.8885,46.6611,-101.0140,31.4096,-118.5017
-2484.3750,-210.4479,66.6458,-281.6979,28.9284,-261.4834,-6.8333,121.1715,96.0292,203.9734,382.2375,-259.0705,-37.8379,-59.7742,109.6900,325.4925,89.4578,-138.2082,-109.5543,-51.0401,-126.4206
-2476.5625,-208.9702,-2.4588,-210.4814,64.5988,-226.6737,-8.0887,152.3760,93.4191,90.6190,268.5703,-187.7574,-37.6600,-47.6173,144.3245,211.8817,49.4460,-102.7061,-73.7098,-51.0942,-81.1370
-2468.7500,-213.4105,-76.4707,-247.1874,61.3542,-263.7776,66.7292,39.7139,93.8920,127.3755,158.0086,-186.3531,-0.3953,-75.1655,218.0630,175.3970,48.5569,-72.1003,63.2146,48.9626,58.3158
-2460.9375,-153.5601,-87.1964,-113.6067,155.3955,-166.5854,163.8292,171.4074,191.6612,76.4332,143.7620,-273.6640,-121.8664,-40.0854,93.0994,198.2404,-1.9998,-293.2299,52.4162,36.3178,62.2516
-2453.1250,-226.8806,-54.0910,-152.2016,118.2717,-169.5591,88.7599,129.0038,115.2715,110.3458,67.3767,-276.1447,-51.5097,-38.7779,89.9828,230.9654,-42.6744,-120.5125,155.4475,67.5256,163.7250
-2445.3125,-162.6160,11.5904,-82.2186,148.7276,-99.9452,123.2705,123.2422,150.4725,107.8713,63.5952,-241.0379,-89.5803,-7.0346,87.4665,228.3221,-82.7168,-230.2060,80.0610,25.3511,87.4465
-2437.5000,-100.9125,38.7042,-59.8006,104.6273,-77.8860,73.2215,180.9932,136.1252,56.8324,12.2632,-181.4981,-65.2298,5.5468,36.4037,177.1483,-134.2853,-204.4795,37.1059,15.6302,45.2393
-2429.6875,-102.1280,72.8957,-131.3130,68.6093,-149.7470,39.2508,32.8883,64.8599,57.8989,-22.9765,-143.8675,11.2026,8.0757,74.4560,252.1063,-96.7256,-29.6461,36.2315,84.0249,34.5337
-2421.8750,-49.6013,89.8217,-78.0901,120.3305,-96.8659,56.0161,120.5872,155.3383,-36.2786,-44.4657,-163.5035,-82.6494,38.4832,90.2662,267.8465,-118.3873,-154.0965,-52.9162,28.1713,-49.3507
-2414.0625,-64.8425,5.9825,-130.6387,36.2876,-149.7415,3.0136,101.5995,66.0571,-53.2142,-134.7073,-106.9052,12.7259,32.2279,147.3309,250.8622,-98.7734,77.6886,-31.8331,82.5675,-30.7564
-2406.2500,-7.0525,28.1771,-104.1589,23.2760,-123.5737,-5.9609,88.7149,55.8042,-27.0923,-108.9087,-6.2650,4.1275,76.3511,100.4463,277.9611,-72.0838,-5.4876,-43.7163,-1.9750,-51.4925
-2398.4375,15.6748,-19.6965,-11.7367,46.2050,-31.4599,12.9981,105.8523,38.4931,-119.0376,-91.1560,50.3115,-86.5511,126.7580,8.5104,259.0339,-91.4164,-88.7526,-56.6677,-50.5717,-60.6873
-2390.6250,-37.8722,-1.8433,-65.5881,-7.1339,-85.6081,-40.3146,-24.2071,-52.0886,-25.2311,-71.6534,106.6241,7.5003,103.2263,64.3340,241.8838,-108.9755,68.7335,-3.8882,-0.4076,-16.5759
-2382.8125,17.9164,89.3390,29.8905,13.8581,9.5894,-54.2995,106.1490,7.6660,-77.0652,-12.7972,55.2721,-43.1349,102.8193,12.5053,190.1183,-161.1576,-121.4558,-52.7829,-50.8826,-59.3169
-2375.0000,-23.1128,48.6961,20.5529,-27.9619,36.9787,-64.1037,131.7714,-2.3937,-87.6975,-23.7334,9.1018,-15.6001,81.9426,-34.1187,143.5794,-207.1171,13.5369,11.4943,-23.1493,12.8256
-2367.1875,2.9888,75.1761,14.3408,34.3395,30.5096,-31.7860,50.5949,-7.3265,-56.1589,-29.5162,3.0738,-19.9468,57.0827,-39.5886,101.2240,-214.9007,-30.3174,72.8954,1.7527,75.0262
-2359.3750,7.3309,79.8770,88.3681,73.8716,104.2885,42.7551,158.7460,66.9812,-166.3662,-30.0315,-32.7209,-56.0932,70.3487,-39.8142,64.1504,-250.4025,-165.9606,77.5184,-101.0845,88.4176
-2351.5625,-13.5978,59.2941,31.1192,53.1297,45.8038,22.0189,-11.2905,9.0248,-114.8077,-51.7831,-16.7826,71.4750,4.4643,48.7042,-30.1419,-199.1229,23.1475,91.8664,-52.1565,98.6423
-2343.7500,86.3571,89.5846,61.7493,118.2679,40.2107,90.1601,-18.3701,76.9514,-120.3239,-20.6271,-21.9523,-7.0996,-11.4790,7.1210,-72.4978,-94.9183,-157.8645,17.0860,-58.3120,24.4574
-2335.9375,29.9965,-2.4471,-1.9372,26.0867,-23.6860,63.9785,-46.6722,87.5651,-110.1373,62.2332,24.5629,2.9865,-13.2037,16.2407,-63.1208,-48.9966,-39.2031,-5.0224,-10.7604,-1.6367
-2328.1250,48.5223,17.3965,-51.7373,10.7838,-73.6793,14.6688,-172.0089,74.0603,-50.0370,121.9892,47.9734,27.9313,-44.4130,76.2654,-75.8124,-25.1513,15.3449,49.7392,6.7010,45.2385
-2320.3125,75.1827,44.3519,9.6040,107.6105,-12.5140,76.4857,-75.1165,135.6843,-208.7790,182.8959,-0.4767,-57.0145,-57.5040,64.4466,-161.3176,-1.1351,-168.9833,41.6223,-73.6827,46.8246
-2312.5000,-42.7330,32.7410,-76.6312,95.8595,-98.9117,64.7260,-199.7166,123.7341,-184.0625,207.2586,-49.4904,78.4609,-105.5988,162.0812,-137.3355,23.3566,-40.8653,169.9341,-86.5991,170.4138
-2304.6875,-114.1585,172.5998,-113.3759,200.5890,-135.8095,175.4443,-200.7417,198.2723,-184.8432,280.1207,-123.0156,79.3771,-142.7180,162.2045,-136.8233,133.3632,-252.2716,169.7184,-193.9925,168.3123
-2296.8750,-143.5955,177.4148,-149.1396,170.3044,-171.7124,176.1426,-164.6970,234.7926,-221.6266,279.9844,-158.5582,153.2551,-189.0757,161.3302,-209.2982,169.3866,-211.6894,139.4915,-224.3602,140.8604
-2289.0625,-165.7968,190.4476,-243.6705,148.2413,-229.3724,119.0600,-259.3344,140.5501,-132.1455,222.0975,-141.8663,243.3414,-226.4301,214.7094,-229.4898,185.6893,-58.8752,152.4781,-142.4435,147.6258
-2281.2500,-120.5692,200.9130,-124.7681,193.5961,-110.5773,164.3963,-143.4340,185.7409,-197.2110,192.6643,-207.7356,178.8358,-195.3820,148.5303,-221.2021,119.4635,-258.6466,127.8785,-203.0555,132.0884
-2273.4375,-201.6709,120.0447,-138.1863,112.6214,-124.0889,151.4008,-156.7652,99.6067,-173.5656,105.9306,-219.9164,238.9988,-165.9484,136.0618,-123.1977,69.9620,-58.7217,221.9600,-108.9432,227.4550
-2265.6250,-182.0852,139.8252,-114.9115,167.3256,-101.8931,174.0824,-172.3184,123.1601,-150.2074,127.9017,-160.4070,152.8043,-155.9385,158.2857,-173.4676,92.1863,-145.1203,171.7020,-126.1080,176.6382
-2257.8125,-120.7676,95.3133,-92.9112,193.7523,-78.9577,160.4804,-149.0382,108.4445,-201.0889,150.6365,-174.1708,101.3150,-181.0149,144.2651,-260.9419,115.1908,-118.7873,127.1592,-100.4978,138.0366
-2250.0000,-170.8717,80.3806,-143.3424,108.7479,-129.4315,110.4493,-237.0892,58.3066,-104.3519,99.9781,-188.3417,162.3845,-194.1365,166.8465,-200.7749,174.8182,41.1313,183.1780,-11.2621,188.3865
-2242.1875,-88.7843,127.6139,-96.5876,155.9172,-119.7049,120.5822,-81.8428,142.3512,-131.3985,146.5278,-288.3179,98.5986,-195.3476,103.6194,-153.3888,184.6729,-191.7847,124.3523,-34.8094,133.7870
-2234.3750,-151.9265,65.6025,-166.0530,93.8500,-189.1839,89.4766,-76.7286,74.1758,-90.6314,112.8948,-283.4981,176.5732,-187.0116,107.1965,-75.1750,189.3673,26.0805,98.3051,-27.5388,103.8163
-2226.5625,-109.3316,107.2979,-192.7785,64.4939,-178.9046,62.0880,-140.7829,46.7355,-7.0985,160.0228,-199.9297,150.2409,-183.2207,154.5181,-101.1822,198.8334,32.6642,34.9692,-55.4938,30.8079
-2218.7500,-72.5555,109.1547,-123.3128,66.3075,-146.4234,58.8671,-71.5506,80.4736,-47.3605,192.3553,-167.1731,37.0638,-178.6421,114.0388,-177.9715,195.5257,-35.5712,0.8033,-125.2266,1.1944
-2210.9375,-60.7043,51.0814,-183.7652,-26.8048,-206.8417,-1.2845,-205.1533,-16.7084,40.4965,131.7944,-43.3341,87.9433,-151.0945,54.6642,-126.6298,209.3379,151.2827,47.7045,-78.8285,36.9469
-2203.1250,12.2858,19.1228,-107.0755,46.2094,-167.1031,38.6888,-129.5232,60.2377,79.5168,171.3841,-76.3561,-56.0801,-112.0016,20.4267,-50.0982,249.3136,-90.7431,-54.2748,-111.2649,-63.9510
-2195.3125,-87.3913,-10.5241,-178.0495,17.5471,-238.0213,4.9809,-90.4784,26.5051,119.8899,210.3259,-148.0300,-16.7899,-143.8858,22.5354,-10.1916,325.6652,-14.4183,-48.9336,-35.3232,-58.8898
-2187.5000,-130.5777,-17.7056,-220.5326,-60.6454,-243.4299,-73.2545,-21.8652,58.2596,224.7780,242.7777,-152.2014,-21.0555,-113.8078,18.1364,95.2239,320.5306,-57.6072,-92.1368,27.1433,-108.0816
-2179.6875,-113.9228,-2.0864,-170.1824,-80.0141,-156.9865,-60.6715,137.6780,107.8471,128.5197,255.0933,-139.5274,-118.5230,-63.5064,-5.4204,110.5055,260.2751,-217.9626,-110.5227,-27.5181,-122.1720
-2171.8750,-161.3387,-84.5458,-182.8989,-162.4680,-169.5953,-110.1669,16.2306,22.3590,188.2256,169.3678,-40.9089,-95.0824,-43.4309,-18.0244,98.7515,247.9932,16.6361,-87.9853,100.7953,-101.5180
-2164.0625,-78.5604,-142.8341,-57.4170,-185.7464,-43.9947,-131.4988,141.0689,37.0484,204.1375,146.8508,10.9004,-263.4995,14.1248,-40.4340,77.2066,226.9261,-147.5901,-146.2820,111.3373,-155.4361
-2156.2500,-76.5985,-245.9699,-19.7475,-253.8529,-6.1917,-203.6595,216.1734,37.9196,168.2594,148.5427,-24.1028,-262.7589,47.2550,-75.6450,151.8743,191.0812,-109.6227,-143.4092,149.1120,-149.7006
-2148.4375,-125.5500,-295.0428,-29.9865,-302.8882,-15.2828,-213.7494,206.4470,-8.1245,269.4947,101.3465,2.9887,-271.9651,102.8263,-48.7624,290.6491,108.3574,-88.5734,-122.4714,240.0187,-133.4997
-2140.6250,-48.3085,-323.9471,49.9721,-225.7504,63.8343,-169.6706,361.0066,36.0106,239.9183,108.3528,-26.7265,-376.0202,123.8508,-78.6805,261.6322,78.8524,-257.3394,-186.3663,212.1451,-188.2276
-2132.8125,-87.8366,-363.6233,10.1622,-265.3874,24.2012,-209.3744,284.8807,-77.6307,348.5938,-4.3862,42.8002,-304.8560,128.3017,-44.3432,259.8674,39.6140,-14.8428,-191.0416,313.5507,-195.7994
-2125.0000,-3.6138,-348.5807,66.1048,-215.2940,117.3311,-190.3514,305.5820,-94.5430,294.0150,-95.3770,100.0746,-322.9901,184.3853,-63.2607,279.8514,60.1277,-105.6148,-245.9996,292.7297,-251.4850
-2117.1875,47.3490,-332.8231,116.7926,-199.4777,132.2244,-175.6020,357.1020,-117.7347,88.1855,-117.6236,77.0929,-309.4111,187.6318,-121.4296,258.5869,74.4003,-20.6438,-231.2252,238.6897,-229.6754
-2109.3750,64.9474,-280.4517,101.1212,-253.0360,116.7727,-191.2268,269.3428,-243.3024,184.0237,-169.2078,172.7587,-250.2353,182.7183,-172.9623,207.9953,59.3381,172.9579,-213.8307,255.3257,-218.0353
-2101.5625,145.5781,-306.0771,148.4985,-172.5797,201.3836,-180.8338,390.7228,-158.8316,83.9329,-158.7301,220.4680,-351.0820,216.8526,-199.4594,145.4830,70.3480,-28.4276,-238.4160,196.0414,-236.6270
-2093.7500,80.9851,-370.9518,80.6571,-272.3538,95.7897,-212.6636,323.9654,-190.5743,126.6686,-190.4391,225.9649,-309.1798,212.6790,-121.1499,225.7967,76.1731,152.9769,-233.2333,307.5951,-236.4160
-2085.9375,95.7267,-392.5102,62.1633,-258.8078,115.5573,-230.1734,380.6317,-207.9843,256.7769,-135.7922,207.8157,-363.9820,239.5894,-212.4912,319.4741,133.3555,26.7077,-289.7396,286.5225,-298.8878
-2078.1250,45.3536,-407.2089,80.5642,-273.3909,171.2334,-248.8125,510.2673,-152.5190,275.8002,-6.2355,153.5709,-419.9299,265.7666,-303.9290,376.0608,115.4487,-58.6775,-340.3767,236.3628,-346.9168
-2070.3125,-11.0860,-428.9958,23.9007,-365.0512,114.8623,-378.5285,454.9120,-246.1260,477.7907,10.2755,171.2827,-439.9707,269.1642,-249.4189,467.6121,96.5117,96.8809,-361.0927,321.1825,-378.2932
-2062.5000,25.0187,-428.2714,135.7913,-364.1931,189.0627,-340.7263,568.1872,-208.2025,405.3356,11.3392,135.5428,-586.5131,305.5573,-248.3699,506.7219,98.1394,-149.0398,-325.2880,252.5773,-338.6483
-2054.6875,-61.2875,-444.9763,117.2774,-310.7608,207.8677,-286.3456,551.1164,-263.7076,240.4827,-117.0001,117.4076,-494.4852,286.2135,-266.7184,415.4259,80.3756,45.6459,-236.8993,271.5916,-237.7150
-2046.8750,33.0031,-421.1064,182.3631,-251.7545,274.2888,-257.3939,507.7065,-308.6337,196.2394,-271.7345,182.8813,-466.8982,314.1454,-311.4642,371.7268,73.2121,69.9160,-247.9411,225.2253,-246.8257
-2039.0625,110.6316,-414.9243,222.7967,-245.4216,315.0708,-254.1193,623.7083,-305.2328,90.3495,-304.1125,187.7005,-427.0037,337.1846,-344.8595,376.3790,77.4115,-63.4771,-311.6575,162.2411,-310.2572
-2031.2500,63.6975,-356.3306,139.6743,-362.6742,268.3053,-338.4261,504.2160,-388.3974,190.9311,-388.0311,213.9573,-327.6942,319.3677,-317.8047,404.4885,68.0841,135.5769,-288.9603,256.7452,-296.7079
-2023.4375,137.9111,-282.6221,181.7023,-323.8094,310.7065,-295.6193,621.9539,-346.4254,123.6706,-418.7882,220.3619,-395.2823,325.9486,-385.6134,337.7488,-36.0802,-1.2486,-249.1465,226.4326,-248.5903
-2015.6250,145.3085,-275.7409,186.9239,-281.7804,280.3174,-253.6402,628.9557,-414.2744,-53.3898,-486.3419,152.9649,-353.7018,286.7777,-453.2274,271.2051,-66.0435,217.1302,-138.1431,269.3494,-123.7764
-2007.8125,150.0992,-272.4848,196.5495,-243.3737,326.3438,-246.2824,603.4144,-442.7417,-44.0447,-513.4901,161.9688,-419.7576,281.2048,-444.4524,208.0623,-56.6158,256.8971,-133.7666,379.6971,-113.7831
-2000.0000,164.1802,-292.9639,246.4833,-193.6814,376.6862,-196.6456,729.2363,-355.9276,-140.3947,-463.3374,102.2619,-480.5451,226.4776,-394.3809,38.2265,31.1056,95.9490,-155.1160,289.3684,-124.4027
-1992.1875,65.0974,-322.6172,143.2599,-258.1611,273.8787,-226.1756,627.9425,-385.2900,-95.8754,-382.3340,109.3983,-400.5142,186.9684,-313.4514,47.2463,112.6889,242.8616,-148.6377,366.9157,-125.5690
-1984.3750,68.2666,-319.0513,148.2919,-255.4156,279.3373,-221.4832,671.9590,-307.4207,-53.0942,-268.0764,114.7861,-506.2791,229.9321,-161.2792,163.5093,44.5296,0.0062,-216.9380,335.7433,-202.1411
-1976.5625,40.8317,-348.1219,115.7265,-247.2972,247.2094,-217.4133,714.4276,-303.1648,-158.9046,-299.4099,155.5760,-503.6844,233.4529,-10.7134,131.1653,-61.2259,6.5524,-209.8583,343.9941,-192.8963
-1968.7500,66.3930,-358.2212,109.1646,-258.2020,241.0910,-187.3613,562.9433,-345.9254,-127.7026,-342.7345,297.3729,-510.1330,215.7036,56.8501,-20.1822,-139.9896,103.0858,-113.8054,335.2787,-98.4420
-1960.9375,164.3062,-367.0078,172.9617,-125.7776,342.3380,-123.9791,628.8640,-283.3513,-210.1563,-279.7061,287.5246,-595.2685,213.9618,-100.2411,-139.1749,-148.4063,-46.0453,-122.4233,256.9373,-95.2857
-1953.1250,87.8078,-302.2186,130.3507,-202.7766,300.1903,-204.0150,551.4241,-362.1941,-141.0067,-248.0772,319.2711,-490.8232,236.0158,-178.7276,-33.5621,-153.2137,160.4288,-128.4642,252.2278,-111.5819
-1945.3125,181.3053,-175.4612,193.7465,-214.7951,327.0589,-178.0728,543.0374,-337.0470,-114.8391,-295.4413,346.0162,-466.4317,243.9776,-263.2294,-42.9415,-127.0131,6.8933,-176.5391,205.5458,-164.1323
-1937.5000,207.2519,-186.2852,178.5949,-190.3907,312.3856,-193.6990,494.1354,-314.4645,-165.2050,-308.3455,368.2167,-407.6245,239.8300,-241.2934,-56.8802,-140.3558,32.8127,-187.1792,126.3397,-177.0665
-1929.6875,189.8973,-133.4298,126.1458,-243.3101,260.4195,-209.6550,369.9662,-367.2003,-32.8552,-324.5408,390.1266,-351.1434,194.6096,-182.6583,-108.1295,-191.9924,156.4362,-134.1430,215.8545,-128.6531
-1921.8750,223.6993,-100.4444,196.8610,-175.1064,331.6259,-176.4829,479.9936,-260.7971,-72.3483,-217.5816,387.1956,-428.5455,172.2042,-185.8820,-257.2444,-194.4892,-56.8001,-206.9793,145.5360,-193.6088
-1914.0625,162.8452,-197.1375,167.9233,-234.5775,267.1913,-204.9804,343.3982,-252.0602,10.5210,-209.2699,395.6180,-348.6161,151.4432,-177.7469,-247.0121,-185.6450,129.3161,-162.4786,155.5926,-152.0450
-1906.2500,193.5902,-168.2608,164.5925,-206.4715,264.3712,-209.8990,305.4456,-220.7376,82.0077,-175.3584,392.6456,-316.1219,167.4189,-218.0206,-176.1704,-188.1970,54.0113,-203.4037,116.2827,-199.1539
-1898.4375,207.5279,-154.2088,176.4655,-157.1834,275.7662,-197.6376,318.7423,-208.2324,56.6966,-127.2468,367.8712,-306.4612,130.8247,-206.0910,-273.1347,-248.5417,32.9050,-188.1418,132.1915,-177.7106
-1890.6250,153.4156,-174.2243,122.2960,-211.9634,222.1175,-180.4382,194.0206,-226.7946,187.3443,-70.1898,350.0518,-214.8761,62.0543,-187.2127,-363.1649,-265.9420,225.7610,-173.9471,220.0750,-163.2731
-1882.8125,207.4636,-121.1147,215.2909,-123.6117,279.6436,-198.1056,252.4852,-134.2216,134.1416,23.0149,297.3865,-269.1706,65.6830,-241.1866,-379.0624,-282.2032,67.7573,-260.6229,169.1317,-244.5477
-1875.0000,219.1565,-145.3760,225.9384,-182.6283,253.8283,-223.1392,192.6262,-161.0094,35.5952,-3.1256,271.3668,-186.8321,27.3624,-193.5055,-440.3249,-343.8190,291.4149,-179.6621,217.8678,-158.0546
-1867.1875,265.9591,-99.5541,205.6959,-171.5632,270.1287,-209.0891,100.9030,-181.7083,126.1549,-23.1620,287.4542,-172.4215,14.7771,-29.7393,-460.4992,-510.3401,338.1768,-168.6328,229.7358,-150.4507
-1859.3750,288.6656,-112.8541,226.3648,-79.6255,292.3417,-115.1650,161.1185,-161.5166,74.6092,-39.2975,198.4460,-190.1326,22.6071,27.9252,-401.7733,-562.9543,289.8445,-182.7293,112.5217,-159.6789
-1851.5625,221.3225,-76.2215,156.9842,-77.7572,186.5139,-111.3080,-15.6946,-231.3876,80.0195,-107.4858,166.3924,-39.9099,-18.1048,32.5460,-359.1021,-483.6160,468.4720,-74.8898,152.2745,-57.1843
-1843.7500,313.3446,-55.2522,254.9728,-21.5543,284.0595,-15.1109,-63.1311,-133.9142,-6.2270,-120.3204,153.6925,-127.3646,5.4776,-17.4853,-371.1026,-459.9455,244.4373,-18.7141,69.3930,2.8963
-1835.9375,264.4657,-70.1970,274.0675,-36.2568,267.7151,-32.8206,-114.4449,-115.3515,-23.3791,-138.0495,100.1024,-35.7317,-22.5532,1.5912,-388.0469,-513.1951,335.5146,36.5542,91.6320,62.4100
-1828.1250,201.2943,6.5352,212.8774,-29.2668,207.0893,-21.8391,-174.0443,-140.1016,100.1791,-52.0760,75.2234,11.5756,-60.8653,50.3537,-374.3033,-463.7410,343.2902,43.5055,100.5881,61.8619
-1820.3125,225.5259,-6.3487,235.1051,29.1040,229.8806,36.5248,-75.2172,-45.4654,87.1382,44.2906,-12.2500,-41.7313,-81.3192,-0.4913,-388.1586,-366.8815,120.4559,-4.1494,54.9517,18.6268
-1812.5000,108.2074,-53.7823,149.7862,-19.0894,145.1315,-12.6732,-193.9341,-57.3959,186.5482,70.1085,50.7405,56.4113,-63.4321,25.1150,-288.5784,-304.5897,215.0808,19.6444,44.7727,29.4065
-1804.6875,89.5938,-37.5175,170.1872,-2.5951,166.1084,6.8185,-171.9306,-0.6260,243.6599,126.6359,70.4384,1.2358,-22.4131,44.4159,-194.3315,-247.6225,-49.6131,35.1313,-77.6950,35.5833
-1796.8750,42.3804,-51.8551,153.9988,19.2823,150.4936,26.6993,-184.5140,56.5354,192.1709,147.5710,18.5380,57.4616,-47.2107,66.1216,-209.7125,-189.2553,-27.9051,22.0067,-89.7499,25.4970
-1789.0625,38.4658,-20.8994,80.1199,49.4496,77.1936,61.8722,-329.7874,54.9836,192.9874,73.8047,18.9457,128.9767,-36.3418,65.1272,-98.8076,-152.5857,74.1038,87.1700,-56.4908,84.8888
-1781.2500,85.1175,24.5739,126.8102,130.1635,124.4636,144.5898,-243.5050,137.9710,56.3452,47.5851,-8.0790,64.0268,-11.3405,38.6844,-88.3811,-141.3740,-160.3303,97.8817,-114.6844,101.3256
-1773.4375,-7.0209,1.2392,66.7059,107.0830,27.9354,119.5122,-338.0402,113.1496,69.8953,-13.4408,-31.8922,185.2725,-45.4723,87.4523,-74.7780,-127.9766,28.4622,144.7935,-29.6735,147.8677
-1765.6250,4.6555,46.7170,81.4154,118.8023,43.2209,134.2327,-320.7750,202.1169,122.2301,112.3203,-89.8933,125.3156,-85.9998,66.0203,-132.3906,-75.7972,-100.9432,156.4959,-51.8577,161.5117
-1757.8125,-17.9614,93.8998,54.8341,165.2137,17.2149,142.6472,-234.8046,247.7762,22.2520,195.7744,-153.1876,170.0641,-114.5818,39.2912,-158.3358,-101.9257,-122.6364,167.8926,-108.3316,177.9414
-1750.0000,-112.8198,138.8217,-41.9824,140.3625,-79.0310,155.8088,-365.0867,187.1762,73.0395,209.9775,-102.7154,292.5520,-109.6866,89.3098,-70.5622,-88.3218,-6.5653,213.0325,-97.0405,210.8469
-1742.1875,-71.5050,213.8760,-0.6191,250.6492,-74.1025,233.1097,-321.2048,264.7169,-105.0275,214.3248,-134.0854,295.1684,-102.7962,130.4757,-65.6515,-83.5826,-176.3449,183.3124,-194.5894,184.5217
-1734.3750,-105.3373,212.7765,-76.3970,214.7799,-149.3135,229.2607,-430.4818,224.0971,-144.2479,174.5222,-99.6074,438.6438,-135.1527,164.4952,-103.9095,-84.9946,34.7374,217.4498,-193.2813,215.4341
-1726.5625,-73.7103,279.1345,-77.7096,246.3693,-150.0616,226.8694,-466.3131,221.9319,-108.0305,173.1608,-63.6788,435.5745,-145.2811,199.9674,-141.7570,-85.9704,-73.7301,214.0444,-195.5219,207.7314
-1718.7500,-62.0773,289.5010,-71.0067,256.9721,-141.8011,233.4901,-420.1584,264.7680,-172.8299,143.7906,-93.7499,440.5155,-158.3153,207.4503,-169.6477,-41.9643,-132.1896,189.6507,-251.7651,185.7506
-1710.9375,-114.8894,341.4298,-161.7510,203.1380,-231.9872,214.6729,-545.4735,210.1435,-154.0891,88.9683,-37.2676,569.0253,-159.6171,225.4858,-115.0057,-22.4272,60.9112,240.8108,-233.4559,227.3620
-1703.1250,-24.0429,465.0212,-68.8273,291.9562,-174.5090,269.5103,-487.1379,229.1699,-280.7129,108.7933,-54.1328,513.1851,-173.1663,209.1618,-203.7237,-2.2602,-130.3532,224.6327,-317.5023,216.0049
-1695.3125,-29.5015,424.3201,-76.1923,286.4711,-219.3315,261.0505,-566.1251,219.8955,-324.6384,101.3205,-61.2905,577.0630,-217.4496,237.5453,-284.7586,-10.4082,41.0940,254.1680,-285.8466,249.7579
-1687.5000,-27.3483,424.2220,-71.9435,286.5933,-176.5450,264.1925,-632.5190,187.2193,-282.9562,105.4408,-19.8502,543.5433,-226.5122,241.5391,-353.2193,32.0274,7.1441,289.3016,-248.5842,283.4663
-1679.6875,8.6061,389.9285,0.1113,287.5200,-103.9536,262.1412,-558.1218,258.3496,-394.4781,177.3619,15.3879,466.8389,-207.7307,166.3472,-427.9059,67.2541,-96.0096,255.2381,-316.5226,254.8328
-1671.8750,5.0599,384.1421,-39.3297,211.9464,-142.8597,184.5958,-668.2479,180.9816,-359.4907,137.7780,87.1334,535.6534,-195.1461,163.6639,-394.1125,27.9739,144.3456,284.6764,-283.9610,277.3485
-1664.0625,52.8174,430.6607,12.5453,258.6740,-92.4596,198.3572,-578.0880,194.9236,-344.2020,189.5048,65.1864,474.7764,-165.7775,104.2744,-342.0432,42.9947,-54.0150,191.4106,-340.1034,182.3269
-1656.2500,19.4212,397.0318,11.2714,225.2460,-91.2110,195.9648,-577.1047,155.7150,-308.0545,188.0886,27.1008,545.7678,-178.8782,29.7449,-343.1436,4.8627,54.4918,192.0026,-337.3894,185.5084
-1648.4375,36.2850,341.6624,-3.7380,170.0770,-107.7085,179.8336,-663.8821,139.7742,-175.6578,172.9316,85.2590,492.0076,-155.6743,50.4739,-285.0154,26.9798,70.2278,207.8410,-319.4251,193.0959
-1640.6250,51.3948,319.5435,46.5061,184.1539,-56.9597,191.9532,-537.4290,189.0905,-199.0081,223.0303,99.6655,393.5096,-117.3737,-9.5380,-270.6504,40.3465,-90.7725,150.9383,-374.2068,138.6181
-1632.8125,-1.3915,300.5373,-8.1454,94.3351,-110.1103,99.1793,-589.9078,133.5153,-106.2629,242.2391,82.1747,447.1336,-144.2415,-27.4397,-252.2132,59.8057,102.3335,168.1495,-249.8892,152.8204
-1625.0000,26.3799,328.0989,-13.2275,122.0829,-78.6995,92.9701,-482.8550,164.4990,-0.9879,310.0039,40.2322,330.3228,-139.5902,-32.7888,-220.2614,90.7956,-81.0109,88.9218,-256.0372,72.0219
-1617.1875,-3.5936,261.9339,-48.0545,91.0917,-111.0459,58.0237,-404.5939,165.7242,-35.4704,312.0142,5.5431,330.7989,-155.5108,43.1164,-218.0780,130.0179,-40.0754,58.9607,-248.9396,43.3730
-1609.3750,-51.3064,212.0448,-94.6204,41.3677,-158.1362,10.3431,-486.1042,118.2094,102.2952,302.2761,33.0974,356.5421,-138.1401,106.2705,-118.6610,157.4784,17.0974,9.2576,-156.6026,-16.3337
-1601.5625,-46.3169,181.8669,-53.4771,46.3533,-116.5304,50.3735,-331.9431,195.3998,70.7570,306.2383,0.3474,248.0060,-105.1993,73.1302,-77.5656,198.6259,-188.0174,-56.7302,-184.5670,-78.0305
-1593.7500,-81.6744,109.3557,-127.6769,-60.9997,-191.2772,10.0673,-369.1721,155.2438,141.8664,193.8521,-1.7517,318.1471,-106.2714,107.6511,-5.8438,159.4082,22.5274,-23.0437,-112.8863,-47.2896
-1585.9375,-30.0206,159.8666,-109.8583,-10.3362,-171.0116,64.7793,-347.4187,174.1077,124.9502,139.4719,18.1462,262.3015,-93.0606,90.1799,-23.1564,142.1719,-31.9434,-7.3465,-132.2180,-28.5376
-1578.1250,-24.7139,164.0421,-69.3798,64.9864,-168.1002,104.1521,-269.0587,175.6261,-19.3266,141.7393,-52.2982,227.1351,-109.9659,93.3740,-56.8499,108.5744,-61.7398,33.0189,-159.9026,22.1799
-1570.3125,-91.2479,167.3861,-135.7387,67.4792,-197.0369,109.6970,-333.5898,108.3142,-11.4616,112.1499,-8.5900,269.1367,-104.2256,99.7287,-50.4168,78.1266,47.6039,70.5485,-50.4527,58.5518
-1562.5000,-7.9266,178.5917,-50.2398,113.8350,-111.1228,121.1061,-172.3026,193.8640,-108.7592,87.4068,-70.0381,133.0183,-76.3972,74.9399,-38.1423,90.5237,-150.1940,11.9391,-72.1694,8.9262
-1554.6875,-102.7569,81.6716,-113.8899,53.0554,-175.3690,55.3813,-162.2126,164.2698,-99.2108,96.5154,-133.6376,176.7860,-99.6641,84.0165,6.9674,135.7633,34.8744,56.1994,8.9548,55.0696
-1546.8750,-98.8769,121.4737,-106.8232,56.9992,-165.9139,62.3817,-151.4509,172.3941,-17.9814,67.3261,-125.5421,147.2719,-79.7232,54.8018,52.7478,144.6960,-30.3698,60.1698,15.7626,56.5656
-1539.0625,-27.1969,121.0890,-71.9584,57.7498,-132.6726,95.1971,-79.9333,167.3308,-56.9585,26.9287,-201.6511,141.5935,-78.7365,51.4006,85.3193,67.4230,-63.7920,24.9633,-51.6307,25.0252
-1531.2500,-50.3109,96.9316,-131.8887,-2.2787,-192.2346,34.2352,-175.2578,70.4874,29.2566,-33.2621,-151.5656,191.1394,-74.7306,65.2086,136.0664,81.3399,122.9837,36.9717,-4.8274,28.7642
-1523.4375,-10.4657,65.7443,-53.8541,37.6640,-149.8481,112.2452,-94.6653,147.6092,-2.5949,8.5024,-219.5409,47.6671,-70.9967,69.9710,140.7305,123.1920,-118.2892,4.9525,-34.0861,2.5882
-1515.6250,-118.3701,25.8343,-96.5709,-2.1264,-192.2256,67.5232,-62.8803,103.9887,-7.1945,38.5141,-300.2701,113.4884,-100.6973,99.9875,170.6349,153.2864,-15.2899,36.2124,33.8915,35.4981
-1507.8125,-142.7647,36.4581,-116.7719,-27.3896,-176.1002,9.3260,-9.6285,82.8824,118.6866,92.0255,-320.5014,90.8408,-92.9625,115.5027,223.0282,131.8718,-40.8108,11.9895,46.3386,6.9109
-1500.0000,-160.7098,-18.4402,-64.5182,23.8111,-123.5333,23.5930,118.0283,134.2264,97.0031,106.9795,-415.2808,31.6874,-77.5986,94.4796,274.8500,147.8955,-198.8602,27.2426,-6.7796,28.7808
-1492.1875,-236.9475,-60.6058,-142.5589,17.7382,-201.2704,18.5842,41.3329,55.2805,166.0061,-8.3683,-419.3571,136.2726,-68.8490,126.1694,380.3483,142.6129,-30.2061,91.2192,58.7798,88.4325
-1484.3750,-166.4253,-24.9888,-67.8382,87.4413,-124.2599,93.3521,119.3482,93.1051,95.7325,-79.9654,-417.6904,63.6415,-60.0224,165.6171,308.5685,108.0689,-204.8070,90.9651,-10.9310,95.0582
-1476.5625,-178.3564,-38.8018,-81.5697,74.7081,-102.7153,114.6881,141.8567,77.4956,5.9928,-131.0168,-395.4745,47.6089,-56.3287,149.6366,256.3253,56.0700,-111.8352,148.2866,-22.1030,158.5248
-1468.7500,-155.4801,-51.7870,-92.4885,25.8035,-112.3722,103.8538,97.1226,30.7133,71.0286,-177.2653,-331.4644,36.3979,-31.3154,103.4622,282.8687,46.8699,-19.0821,135.4260,71.4979,142.8204
-1460.9375,-115.6000,-12.7471,-52.4027,99.9173,-72.0349,143.0381,174.3376,69.9434,-36.9481,-137.5141,-328.4600,-34.7713,-44.9010,70.3019,175.3839,86.6537,-119.3066,103.5920,6.0793,118.0940
-1453.1250,-167.4108,40.6280,-104.0099,83.3524,-160.4089,89.5482,49.7926,-20.5143,-15.6307,-153.4604,-270.1590,58.3971,-41.8233,90.4550,233.1748,106.7324,74.7783,87.0833,26.9427,91.7208
-1445.3125,-126.1142,46.1295,-57.5052,89.9148,-77.6816,99.1821,97.3116,-10.8504,-5.2371,-145.3102,-260.7641,-6.3063,-14.7919,137.7267,242.0396,116.9192,-95.0552,22.6875,-1.1176,25.0837
-1437.5000,-124.6235,10.8524,-60.8023,88.6922,-79.7709,59.0387,132.9731,22.0263,-117.6572,-146.9647,-263.1735,27.2405,-23.2205,171.2193,202.0815,113.3089,-59.6683,22.5216,-0.9891,28.7977
-1429.6875,-134.6276,36.1086,-102.5894,9.0001,-122.3651,15.4227,55.0886,-20.5715,-50.5865,-154.1080,-232.0907,94.3194,-37.2036,129.2219,196.6134,71.1868,108.1984,47.8754,96.6170,51.0755
-1421.8750,-39.9859,95.0431,-41.7272,66.9760,-61.3249,38.4742,152.8054,75.5040,-100.8739,-56.5999,-245.3685,6.0900,-29.0056,41.8860,145.8066,-15.2951,-80.2773,0.9047,85.8521,11.1986
-1414.0625,-120.6924,48.6586,-90.2203,-13.3734,-108.6552,-9.7991,106.1109,27.2488,35.4880,5.5514,-220.0002,67.5597,-62.3564,-5.7849,96.6414,9.8630,85.9070,-9.3840,146.7220,-1.8911
-1406.2500,-71.2837,-8.5882,-109.5977,-35.5914,-91.8888,-29.9410,123.4764,80.1154,88.9240,95.8061,-202.5340,-26.8343,-67.2991,10.6383,76.5399,100.1098,-75.8189,-31.5490,161.6680,-28.2174
-1398.4375,-94.1762,-102.1019,-99.2765,-23.0900,-81.4350,-21.3638,170.4851,125.6840,99.0529,178.7522,-230.3712,-91.4734,-91.0686,20.7666,12.1294,146.0567,-98.8190,-54.9838,104.2959,-46.9552
-1390.6250,-144.8144,-82.3230,-149.7044,-74.3091,-131.7456,-72.5069,84.6893,74.5231,232.4156,201.9461,-206.9674,-31.8163,-90.6398,7.1565,70.9820,95.2525,61.4211,-35.1471,124.1390,-34.5550
-1382.8125,-108.3003,-46.3601,-111.9802,31.6496,-93.9194,2.5276,159.9943,112.5308,196.9098,276.2975,-242.4253,-104.9653,-70.9560,-28.2941,108.9768,96.5876,-182.1853,-34.1366,-13.8968,-33.1982
-1375.0000,-171.3887,-39.9605,-141.8587,38.0320,-123.7075,6.9818,18.6304,43.9572,164.8086,208.0560,-163.4838,-26.6666,-72.8161,13.6605,77.3525,138.3161,-36.3711,7.3006,-42.5515,3.4418
-1367.1875,-136.8656,-5.9281,-103.1257,2.0416,-84.9031,9.0627,-51.1800,9.0094,168.3030,100.4249,-50.9481,-60.7286,-18.6604,53.2238,116.3054,178.6375,-106.9666,41.3496,-77.6334,28.5482
-1359.3750,-97.8030,-2.3157,-65.8578,40.6221,-83.5755,46.7139,60.4984,9.6309,21.3518,64.3474,-86.8831,-24.1849,-1.8067,54.3581,152.8179,178.5109,-172.9992,9.9800,-143.1807,0.6870
-1351.5625,-129.4509,35.6268,-133.2971,8.5308,-114.9704,14.6974,-80.5722,-22.4162,-10.3065,-4.4297,-45.5383,90.6918,-2.7497,58.8136,157.6642,72.6832,41.2476,82.9379,-34.4476,72.6083
-1343.7500,6.2439,29.9382,-28.3834,72.8179,-47.0315,119.0622,-49.3390,44.9173,-125.6380,-46.8533,-13.8613,10.9587,-10.8494,53.6318,4.8587,31.2040,-105.1579,77.2733,-74.3845,77.8514
-1335.9375,-13.7138,10.6311,-14.1304,88.4811,-32.7686,95.8028,-69.8269,22.6220,-221.6251,-69.9248,0.1539,61.6332,-45.9719,68.8183,-127.6189,82.0794,16.8111,92.9947,-22.9829,100.6074
-1328.1250,7.1353,30.1616,-25.0711,108.9764,-43.7183,84.3750,-82.5602,-25.8382,-195.8272,-118.1881,25.9514,87.1402,-51.8658,130.8176,-141.3038,106.7543,36.5583,78.5359,-36.8020,82.5650
-1320.3125,68.8283,56.5669,36.8308,170.3450,18.1594,145.8196,16.4980,-1.4305,-281.1956,-93.5987,-23.4169,37.5436,-69.3481,81.6855,-226.1202,94.2734,-77.8307,68.9567,-114.7860,82.0128
-1312.5000,21.4646,78.9546,-12.3246,122.6942,-31.0312,96.2445,-104.5478,-51.0464,-183.6221,-142.0520,1.1533,98.9400,-79.8046,33.5302,-201.9862,118.7378,120.7250,91.3529,-92.8463,98.9747
-1304.6875,63.8531,87.1297,34.2709,94.8295,15.5142,105.4470,-22.8770,31.1076,-174.3172,-96.7506,10.4625,34.1263,-26.9548,-30.8669,-121.1119,90.9449,-82.9803,28.5227,-85.1851,34.5565
-1296.8750,-6.4593,86.6391,-5.8393,94.2904,-24.6610,65.9744,-24.9689,28.5713,-177.7099,-63.1547,7.0659,67.6655,-27.3153,40.0378,-86.9409,51.4469,-12.3632,-5.9758,-83.2440,-2.2049
-1289.0625,27.5376,120.4863,-77.6484,57.0842,-59.5498,29.8303,-96.8081,-43.6397,-66.8122,-135.2525,81.9587,106.5338,-15.4171,78.2442,-49.4654,16.2515,91.5393,-8.1541,-51.0343,-14.1371
-1281.2500,72.4777,165.3091,-32.5160,101.8487,-14.5156,74.6593,21.2506,-35.8769,-130.9791,-162.3916,53.7894,77.3951,-14.5374,123.4163,-79.0321,-12.9885,-74.5984,-33.3593,-145.8996,-36.2909
-1273.4375,6.2625,98.0163,-101.5476,70.4860,-83.6519,42.3599,-83.8896,-69.2414,-55.3002,-232.6727,57.4603,155.1442,-12.5339,127.4568,-1.7455,27.6301,105.1104,-29.6934,-71.9380,-37.0242
-1265.6250,49.3431,107.0592,-16.2811,79.4509,-35.5047,53.3868,-73.7626,-57.2749,-43.3401,-111.6456,68.4218,93.2238,-5.0891,65.8003,-27.1543,38.5578,-26.9016,-56.7091,-133.7131,-65.0082
-1257.8125,32.0102,124.7321,-0.4300,96.0344,-19.7831,69.0307,-57.0920,-41.6939,-136.7843,-22.0185,47.9724,108.9556,-24.5693,45.7537,-85.9514,18.0978,-45.2917,-4.0931,-150.9149,-7.8891
-1250.0000,-9.2210,48.5466,-39.4781,55.7556,-21.9748,29.8078,-169.3727,-80.9861,6.8564,-24.2829,118.6089,142.8284,-4.1958,42.8215,-51.6584,14.7435,19.3997,24.6438,-87.0538,13.3798
-1242.1875,32.9957,55.8412,40.9198,97.9533,58.2657,37.0674,-16.2506,-0.8093,-97.0717,-17.1005,51.6847,77.1916,2.5949,50.3530,-81.9249,-14.1632,-149.4551,31.8591,-114.7682,30.8147
-1234.3750,5.9036,98.8669,13.0074,70.8783,30.1860,45.0494,-82.4807,-65.9156,-89.3012,-46.2154,59.4513,122.2927,-15.3956,21.6001,-111.4827,-117.3618,105.3909,110.8035,-106.8034,112.7170
-1226.5625,70.8589,127.9724,121.1444,99.8835,101.1383,43.1100,-84.6987,-68.9374,-91.4949,-85.2747,94.2494,82.4721,9.6369,-90.1006,-150.9788,-156.5075,64.2609,139.8222,-111.8174,146.6483
-1218.7500,108.4040,95.7001,156.8690,137.5075,136.6613,78.7910,-86.3689,-32.3398,-202.0987,-123.7474,129.6368,45.3029,29.0760,-91.1835,-188.8702,-158.0535,-4.2508,142.4759,-110.2527,153.8658
-1210.9375,85.6982,73.2127,99.3374,44.9096,78.9150,58.2490,-216.3379,-89.9629,-113.9673,-181.4688,181.7659,97.9217,47.4003,-38.5001,-100.0150,-178.8430,183.9706,154.9051,-26.9644,157.2688
-1203.1250,151.8929,175.6544,168.7079,146.2413,149.0544,54.6345,-111.4501,-57.6630,-154.9569,-74.2836,104.7800,58.4752,43.1514,-77.9149,-104.2578,-219.7360,-30.9048,116.2614,-136.8005,121.1694
-1195.3125,90.5816,113.6261,102.5633,120.1002,81.6701,61.5457,-141.1216,-49.8460,-111.4496,-141.5896,74.2889,138.5689,19.1566,-70.8180,-97.9914,-248.1257,153.7315,125.1456,-93.1558,133.2899
-1187.5000,128.4202,81.7796,109.5704,88.1417,88.4255,31.6341,-172.6723,-80.8480,5.1875,-171.7266,117.9330,71.8353,55.1980,-64.5576,-18.5750,-206.3675,121.4909,93.1914,-54.3854,93.8240
-1179.6875,97.2455,85.9551,109.5655,127.2027,88.1608,68.7396,-99.2690,-6.8332,-68.1779,-60.8509,117.5677,-0.8551,67.0903,-100.2898,-18.1522,-169.6053,-50.7377,62.2651,-86.6333,64.6366
-1171.8750,-7.9326,52.1590,1.5594,58.2895,-19.1244,34.8694,-133.9111,-40.7941,44.4500,-94.9625,120.1890,39.4931,59.9451,-60.0150,57.2812,-203.8313,126.0223,133.3582,20.0924,132.1189
-1164.0625,62.7887,52.2825,75.4502,93.2972,53.4759,108.9214,-60.6914,33.1753,6.9621,-95.1667,82.6951,-107.2263,51.6609,-23.8311,-17.3796,-204.1505,-50.3263,133.3732,-15.3050,140.5703
-1156.2500,51.8005,-28.2722,61.6254,83.6210,40.3536,95.2910,-75.2250,19.4627,-6.2261,-109.0600,68.4971,-46.6029,26.3293,-36.3349,-67.7347,-180.1670,79.6413,158.7159,9.5808,170.1345
-1148.4375,64.7583,-50.8499,40.7482,60.9232,18.1681,74.6372,-96.8395,-1.2651,82.5293,-129.9828,84.2351,-104.0048,36.6780,-20.8903,-16.1316,-128.2285,57.5322,171.0265,56.3872,177.4697
-1140.6250,54.9023,-24.2070,65.0582,87.4442,43.1555,99.1995,37.7096,60.2279,-40.5160,-68.6953,35.1529,-153.1657,36.7729,-32.2382,-28.3069,-104.0831,-93.3723,162.5602,-22.6226,173.9868
-1132.8125,-16.7606,-25.3368,-9.4445,50.1907,-32.6761,60.9855,-38.5880,21.9453,-5.3542,-107.2007,69.2548,-43.0939,16.9763,39.6253,-30.2676,-68.7265,116.9198,126.3123,10.5510,132.5977
-1125.0000,65.9722,-12.0410,41.4458,64.3686,18.8720,76.1968,-24.5173,37.0893,9.1979,-92.2930,46.7429,-101.5954,36.0613,54.8945,20.1849,-16.9637,-46.4036,69.4779,-46.9034,71.4289
-1117.1875,35.1902,-7.2230,5.8109,33.0634,-18.1108,3.9227,-24.9955,38.7530,9.2569,-54.8745,10.7225,-63.5544,35.1391,56.6705,94.1561,20.3142,27.7878,3.1646,-43.8740,0.6979
-1109.3750,8.3549,1.5780,-55.8795,-63.2675,-80.1581,-57.3793,-87.5515,13.3904,168.2619,-5.4911,58.6362,-87.5365,46.1806,31.3994,180.0891,68.5504,70.9036,11.8150,-34.9209,-3.4876
-1101.5625,63.8086,-12.3032,-0.2760,-42.2817,-24.9241,-38.3676,41.1539,69.3472,76.5628,50.1997,40.8376,-142.1813,46.8494,14.4386,124.3264,87.0912,-153.6764,-37.2099,-85.6861,-48.1960
-1093.7500,36.5520,-74.8665,-29.3888,-104.9752,-54.4149,-104.0297,-25.8883,4.6245,47.1687,-52.8046,48.3244,-59.4960,37.0192,95.7894,131.8813,94.9497,64.0407,6.0896,-43.1652,-6.2220
-1085.9375,124.6425,-21.0550,28.8429,-86.2911,3.4270,-82.3166,-5.6003,-10.7245,-5.8861,-68.4464,105.1424,-111.4354,83.4855,7.4853,152.8038,116.1643,-23.9097,-11.2478,-61.3187,-24.9279
-1078.1250,121.0154,47.0772,59.3541,-54.2834,33.5408,-88.2861,60.9541,-16.7612,-49.6429,-37.7867,62.2424,-80.0305,69.9002,-72.5075,109.0370,73.6859,8.4598,-49.2575,-64.1886,-56.3478
-1070.3125,96.2831,58.1383,-0.2458,-113.3438,-26.4599,-147.3293,-36.6145,-75.8764,74.4961,-23.2196,75.2223,-27.6999,58.8474,-57.5877,160.1828,50.1126,124.7057,-72.3537,51.8195,-87.3148
-1062.5000,122.5860,15.2644,26.1941,-86.3326,-0.4316,-83.3037,99.8459,25.0805,64.6745,40.4063,28.2374,-148.2895,59.9958,-30.6087,149.3926,76.5920,-96.0016,-116.3815,7.8577,-126.2779
-1054.6875,44.9227,-26.5355,-57.3308,-93.2515,-83.3746,-92.2104,15.3126,-20.8991,91.9035,31.0903,18.2988,-119.7967,37.0729,34.4327,176.6662,68.1317,72.3475,-53.3429,34.9247,-65.3833
-1046.8750,64.3068,-41.2594,5.1893,-72.0950,-22.2788,-103.0477,75.8085,-31.8016,116.1624,-17.1652,6.4007,-130.2357,63.1773,59.5229,201.0020,18.7339,-13.2742,-67.2468,19.0203,-77.6750
-1039.0625,59.2333,-45.4241,33.2452,-41.3757,5.3432,-37.3215,139.8144,-3.1406,33.9657,-25.8689,-39.9617,-101.0892,63.0129,52.1680,192.8990,10.9016,-54.3271,-72.5765,-57.3420,-77.6239
-1031.2500,47.2035,-56.5176,-13.6573,-87.5854,-41.9948,-83.5264,-18.1589,-86.4028,96.8154,-72.5149,23.7098,-35.8715,91.0048,41.8661,292.8556,1.1331,110.6495,-47.8388,1.3324,-63.2383
-1023.4375,88.9153,-48.8500,30.1865,-45.0303,1.4010,-38.9697,61.6065,-41.8952,66.4052,-65.3980,30.1166,-101.8825,104.9163,13.3218,262.5769,8.1180,-58.6316,-75.3397,-27.2655,-87.0707
-1015.6250,20.4628,-46.3164,-7.1403,-42.6166,-36.3746,-38.5533,60.1908,-78.5273,29.8453,-28.4197,-7.6350,-27.0126,58.0597,-23.3627,189.1656,7.9670,82.9496,-37.9747,43.9736,-43.5065
-1007.8125,7.0103,-23.7571,-16.4771,-20.1807,-9.1645,-11.1212,12.7637,-50.1352,19.2773,35.5731,18.6004,-72.1292,83.1742,-69.0466,215.7708,-2.1708,34.5057,-15.6094,65.1885,-22.1576
-1000.0000,7.0425,-22.6842,53.6678,15.7655,23.5196,23.8180,81.8102,56.7647,-94.7955,69.0721,15.3263,-111.7102,95.6611,-145.2227,175.8956,32.2043,-106.4193,-14.7298,-5.1094,-14.3196
-992.1875,-51.5801,-80.2378,-6.8476,-41.9179,-0.4599,-35.8821,-16.8179,34.0227,-7.5186,45.9278,101.3970,-96.9143,113.1150,-168.0411,189.3829,81.9390,45.9984,-2.4907,75.9224,-7.4665
-984.3750,36.3413,-61.2238,49.1822,-58.0328,55.1027,-52.0167,112.0974,128.8436,-61.7060,103.3419,121.0064,-222.5523,151.1574,-184.3122,208.4342,65.2274,-182.0502,-18.6904,-11.5209,-23.9518
-976.5625,1.8401,-95.6020,46.7903,-57.5428,15.2448,-54.5416,108.5867,89.2760,-101.2932,100.3633,117.2074,-150.5684,126.8955,-148.9757,169.1099,63.1342,-111.4908,-17.2739,-12.3719,-21.1994
-968.7500,-23.1147,-119.4186,-13.0573,-80.4866,-8.0750,-39.5069,47.6212,67.2814,-14.3373,4.9504,130.9468,-136.0283,137.8929,-99.0815,219.3527,3.6097,-30.4097,-6.3097,68.3091,-12.3229
-960.9375,31.0149,-64.1326,41.1767,-25.3268,45.6887,15.6279,136.7428,85.4004,-107.2818,-14.3520,110.7773,-117.3645,121.1418,-81.0848,126.7111,-15.7931,-151.2204,-21.2378,-18.9171,-21.4741
-953.1250,-14.5185,-37.4848,-6.2545,-34.8115,-2.2144,-30.8767,15.1944,39.8856,-81.8695,-24.2869,99.9484,-15.3288,75.3062,-53.7445,79.4384,-25.8250,83.3105,4.1933,41.1946,3.6943
-945.3125,66.6950,9.9232,44.0625,12.4689,47.6220,20.3767,-9.6015,53.1387,-68.7218,-10.4560,112.8587,-74.5353,84.2255,-76.6585,55.9248,-86.0993,-10.4285,16.3785,-17.9601,16.6104
-937.5000,76.3935,20.8362,49.8583,58.2556,15.9440,27.1335,-4.9173,-13.0991,-135.0694,-41.1137,82.2617,-30.2196,44.1803,-33.0619,-11.0798,-114.8621,69.3450,27.0773,-44.6242,31.3890
-929.6875,62.4861,8.1627,1.0502,10.4571,3.6577,-20.7013,-90.8385,-60.9145,-38.0223,-89.3502,143.0519,-3.4999,57.8593,-44.0647,14.3262,-127.2075,161.4921,49.1761,47.0969,47.7361
-921.8750,66.2146,-22.8598,39.8789,50.3071,79.0082,19.1126,93.8923,52.9324,-72.3278,-12.9250,108.4856,-146.1168,76.2607,-113.4188,-20.6087,-123.8831,-81.7082,-17.0727,14.4602,-9.3032
-914.0625,-19.6734,-71.4771,-13.9151,0.5564,-12.2598,3.3305,2.0127,0.1894,-16.2303,-65.0936,128.3113,-15.3190,61.3760,-166.3646,-0.1056,-103.1367,149.4914,4.0850,70.2133,9.7516
-906.2500,34.6312,-51.8880,45.4814,-13.9789,46.6631,-10.2431,23.3405,-13.3351,6.0600,-116.0509,149.3228,-28.3214,102.3041,-143.1049,59.6323,-82.1787,27.8636,-81.5567,53.1437,-81.3617
-898.4375,6.1672,-77.0470,49.1065,-6.2609,49.8160,-5.5666,99.9071,-8.6071,-26.3994,-184.7509,42.5778,13.9523,74.7686,-101.5863,63.6351,-75.9591,-0.4975,-71.9378,59.3200,-65.7244
-890.6250,-24.0492,-106.9460,20.9777,-35.2814,21.2161,-32.6272,-3.2767,-108.6177,92.3855,-175.1879,51.0782,24.4835,57.7683,-92.8191,72.8850,-68.4795,145.3725,-32.0648,134.7291,-29.9444
-882.8125,-26.8207,-38.3845,55.2915,34.1564,92.0605,2.7631,103.9942,-37.1745,15.6074,-31.1729,-25.9790,-50.5202,56.1324,-94.6067,70.5903,-33.5395,-103.3029,-103.7373,61.5689,-99.0723
-875.0000,-107.6478,-48.8600,-32.4596,-47.4486,3.8422,-46.8919,89.1981,-85.7852,75.7745,-7.2056,-40.0857,11.4444,50.7186,-70.4528,167.2511,27.3732,60.9866,-113.4453,84.3466,-116.8152
-867.1875,-55.1226,-98.9765,-46.8639,-97.6892,-11.0269,-60.1892,73.7594,-63.0350,208.2792,53.1218,-54.8535,-1.2388,52.5574,-84.9576,227.2711,13.6583,9.6047,-163.8112,102.4558,-173.1489
-859.3750,-52.9167,-60.3913,-47.5860,-24.2337,-13.2110,-23.7939,145.0220,-26.5810,169.4797,89.1601,-91.9390,-38.2043,7.0463,-47.7587,116.0162,12.6630,-59.0607,-161.4734,33.2624,-164.1756
-851.5625,-141.7209,-78.8033,-102.3239,-77.7739,-68.4040,-77.3969,52.2851,-80.1144,262.6781,35.2113,-1.0399,19.8298,19.5147,-28.5507,134.7877,32.6853,97.2586,-144.1314,84.0643,-154.0399
-843.7500,-80.8829,-120.5680,-37.4178,-84.6578,-2.9534,-10.3469,153.2090,-12.9837,180.5105,64.9192,-9.4963,-97.4851,57.9520,-72.6974,164.2215,98.3732,-121.7847,-151.1404,40.5067,-158.2132
-835.9375,-156.9585,-160.2344,-81.4309,-89.4418,-48.4182,-17.1962,144.2277,-19.7527,172.4410,94.7324,-54.8518,-29.6898,15.3643,-78.7389,119.7581,92.1869,13.2796,-52.0422,69.0490,-53.8845
-828.1250,-128.3903,-165.2533,-84.7981,-94.5658,-14.2293,-18.3882,103.9188,-20.8531,207.0149,55.2043,-57.5687,-30.2468,1.7080,-44.1300,80.9504,89.6680,-28.0394,13.6976,133.2259,12.5375
-820.3125,-120.5923,-155.0279,-4.9304,-14.4442,28.1952,62.6618,145.8640,23.2957,101.8443,98.9354,-89.0458,-22.5447,-6.3243,-37.2663,14.4065,23.4211,-160.0923,22.6867,69.6538,29.6959
-812.5000,-151.3044,-80.2951,-35.5820,-43.8250,-2.8912,-40.7897,4.3140,-43.0494,182.1822,143.1905,-46.0375,58.6613,-31.4368,-29.9066,-15.6130,-6.3045,19.3474,-6.8300,144.5740,-6.7725
-804.6875,-96.7757,-58.3050,23.0086,-57.9543,54.2696,-55.0010,61.0346,16.8606,166.7626,275.7191,-61.7860,-64.8833,-26.5768,-81.3048,-30.3670,52.2372,-171.9693,-56.1136,92.7264,-56.9300
-796.8750,-148.6630,-75.7146,-35.8263,-75.4929,-3.9860,-75.6250,76.3510,33.3652,181.9445,365.8607,-119.9320,-47.8123,-57.1876,-137.0903,-14.5120,105.4014,-49.6659,-73.7986,74.4733,-73.8094
-789.0625,-139.9021,-134.4791,-59.0183,-134.3774,-27.5970,-97.5938,-21.6675,47.5324,268.7689,380.6718,-107.4341,-69.0966,-64.4322,-160.2262,0.0005,157.2372,-3.7339,-61.8476,189.8602,-64.7164
-781.2500,-95.0073,-123.1021,-14.0787,-53.1154,16.9294,-14.4196,59.4761,167.8498,92.7393,352.6446,-135.7961,-96.2252,-75.4195,-150.2125,-102.3261,129.2445,-134.6432,-51.7422,164.3951,-41.4073
-773.4375,-120.8283,-146.4301,-114.8523,-77.5495,-85.2511,-40.9439,-43.0741,104.4723,102.0109,252.9341,-90.8702,-11.0552,-94.6694,-30.8943,-92.3373,139.5745,85.7419,-41.3362,243.2248,-36.1452
-765.6250,-39.1581,-100.2639,-66.1290,-29.4811,-72.9284,10.0311,-68.0956,155.6053,114.7779,229.7383,-115.4540,-70.3925,-96.7461,19.9189,-78.8468,153.4180,-79.3937,-64.4347,183.5413,-60.9470
-757.8125,-52.6022,-41.2023,-81.5219,-6.5199,-52.7151,31.8995,-11.2126,177.6313,-11.5500,177.4559,-130.1411,-10.8197,-107.3697,41.6294,-129.4487,138.1813,-56.6185,-40.6287,99.7580,-32.7015
-750.0000,-70.4534,13.4651,-98.3197,-21.9520,-31.8998,17.3683,-64.7131,89.2689,9.7188,52.7937,-74.2393,49.3429,-84.3157,26.9328,-109.4400,123.5601,-3.2696,13.7696,116.5634,17.1760
-742.1875,-29.6692,55.7767,16.5195,55.2646,8.5596,59.4823,49.4531,131.5592,-206.3703,57.7895,-70.7029,55.1559,-74.4700,-5.1098,-176.7759,128.6037,-208.2635,55.8134,-18.9776,66.1997
-734.3750,-97.6457,58.3395,-21.4111,57.7258,-29.7434,59.8384,-26.1165,59.1026,-243.2052,21.0442,-70.9271,166.2274,-104.0229,69.1061,-213.8520,92.9172,-32.0002,93.1023,-18.2688,103.4621
-726.5625,-69.1748,89.3462,-24.8958,53.6390,3.4072,57.6436,6.7941,57.1062,-210.6057,18.7574,-75.7115,127.7374,-86.8847,29.7647,-179.4691,90.7003,-107.3049,88.8292,-24.1203,97.3538
-718.7500,-71.8179,87.2389,4.4998,121.4463,-4.5540,88.3434,35.6083,51.0038,-254.1065,49.3750,-118.5946,160.1510,-111.0751,60.3275,-222.1739,47.4067,-110.6907,50.4544,-62.0714,63.9106
-710.9375,-86.9645,74.6311,-44.6130,38.7536,-17.0195,40.5370,-87.0622,-33.5975,-119.1123,38.5044,-58.9769,186.0594,-106.6320,86.3938,-197.3677,36.6357,86.4082,38.5658,-7.5303,43.3111
-703.1250,-8.9718,49.1658,37.4155,48.1998,27.6647,12.8697,30.4445,12.9512,-147.9776,157.7948,-87.2125,49.1157,-91.7418,21.6093,-188.4015,83.0333,-115.3391,11.8133,-34.8463,18.7885
-695.3125,-37.7871,-14.1053,-31.3727,19.8370,-41.4593,-17.6133,-2.8410,18.6913,-69.6379,237.2957,-119.2482,55.3729,-124.5906,-44.9767,-183.2265,125.6523,66.1272,19.2527,-28.9559,26.2727
-687.5000,-24.4078,0.8205,-51.9639,35.6713,-62.3774,0.0979,-95.8890,0.6364,93.8895,256.0091,-67.0893,0.8133,-104.1027,-64.3734,-127.8371,107.4837,44.7730,-1.1172,-15.8751,-1.8134
-679.6875,-2.2964,59.4874,-30.8169,58.2433,-41.5448,21.5436,-3.1661,22.3230,40.1606,240.4794,-82.1834,-12.9914,-86.8424,-42.0171,-106.6895,18.0721,-38.8125,-12.7374,-99.0479,-11.7622
-671.8750,-33.3361,66.0081,-97.8219,-6.3307,-72.8552,-44.1664,-70.5696,-43.1433,120.2733,137.8011,-41.4358,31.0490,-79.1809,0.1870,-63.6897,-11.4762,141.4392,27.4862,-60.3797,22.4956
-664.0625,27.5651,57.4707,-35.8801,56.0409,-10.2097,20.0699,29.0110,-15.6602,73.3223,129.0767,-14.7439,-49.9674,-42.5663,-8.6665,-72.7359,-20.0589,-44.3647,-16.3547,-140.7672,-18.5359
-656.2500,-30.1432,71.3241,-59.5532,34.7959,-71.1698,-3.3093,3.0027,-74.7860,47.7802,104.7560,-3.6500,36.4208,-51.5121,4.8800,-59.3709,-42.2259,75.2510,-1.8037,-127.7500,-5.9283
-648.4375,-9.4960,23.5223,-72.8754,-13.1042,-48.7696,21.6534,-46.6207,-85.5631,109.5775,19.7927,57.7960,-10.8599,-4.3469,-43.2347,1.3431,-54.0273,96.2035,20.0748,-72.3853,13.3589
-640.6250,42.2020,6.7494,-21.1519,75.0279,2.6858,74.6449,4.8281,-32.3010,13.4165,35.8818,35.2967,-66.0955,-3.8963,-63.3004,-54.8918,-73.7721,-61.7713,37.9941,-90.9631,39.4778
-632.8125,-23.9036,-22.8304,-52.2327,10.3565,-64.6535,-28.1731,-62.5044,-61.8458,130.4507,6.1808,40.9980,13.8562,-1.2922,-20.1668,24.0814,-103.3022,117.4500,43.1074,17.6584,39.4498
-625.0000,-21.0135,-18.4182,-11.3114,-20.3196,13.0151,-22.9948,52.1958,-20.3842,134.4667,12.4956,45.6947,-16.2065,41.7787,-51.0396,67.0567,-96.8157,-124.3440,12.2097,21.2676,7.2698
-617.1875,-42.7845,-37.6636,-0.0605,-39.6577,24.0233,-45.4813,63.2571,-42.5811,72.8304,-46.8271,19.7454,34.0824,15.7165,-1.5561,5.3807,-120.9540,-41.7660,61.6550,-1.7705,61.3153
-609.3750,-16.8033,-47.1573,30.9343,-84.2448,54.7853,-52.2266,-53.9068,-85.0230,139.9323,-125.3814,86.5445,30.1096,23.3622,-7.3220,-36.5566,-125.3190,89.5420,53.8305,58.9280,52.3806
-601.5625,72.2697,-61.5599,87.0195,-28.7452,109.6478,-31.8845,39.0548,-28.3718,49.1222,-68.8291,32.4347,-58.7596,11.3214,13.0091,-89.3901,-104.5683,-67.0396,3.1015,42.7248,8.4653
-593.7500,29.4803,-67.8147,-31.7548,-104.1061,28.6608,-74.4013,-5.8120,-70.5737,114.4575,-75.1203,61.4738,45.5208,10.8905,43.4911,-23.0662,-147.6521,136.5276,-38.4829,104.6656,-40.7515
-585.9375,88.2406,-42.5250,-3.9807,-79.9160,55.2324,-83.3734,94.9048,-42.2252,142.3225,-83.8476,88.0619,-35.6612,44.0092,35.5203,5.7988,-155.1743,-14.3704,-118.5334,58.1438,-122.6242
-578.1250,47.1366,-81.0974,-14.0683,-83.5890,45.9563,-90.2073,121.7795,-49.7408,59.3300,-90.4213,114.8081,-6.6925,62.6851,63.7058,33.8059,-89.5296,-56.0918,-87.4380,-19.2288,-94.8718
-570.3125,16.2340,-111.4702,-42.9551,-184.0635,16.8911,-154.8487,55.8785,-78.0546,140.5226,-82.7831,196.7512,3.4617,100.8840,73.0906,116.0015,-81.6676,19.3658,-118.1501,55.5948,-135.5823
-562.5000,53.5717,-72.6044,33.4044,-144.2934,92.0785,-151.2481,206.2592,-37.1211,105.9456,-41.8917,124.9332,-66.1374,107.7724,39.7202,119.4462,-40.5389,-187.9250,-148.6162,-12.3319,-161.6945
-554.6875,-11.2994,-65.9459,1.5503,-173.7319,60.0663,-181.8582,137.4575,-67.3970,148.1618,-72.1957,92.9096,15.0690,97.4885,83.1540,162.6947,-106.5923,-7.4060,-142.2893,27.5456,-156.2613
-546.8750,24.1735,-27.9381,42.0464,-136.8193,101.4146,-141.1231,142.0448,-98.3188,152.7075,-103.1355,97.2211,21.6135,125.8560,50.9440,204.2832,-174.2796,-111.5541,-106.6280,-7.2352,-121.6552
-539.0625,33.7344,-52.8341,86.6286,-90.8230,108.8631,-131.3033,186.7492,-89.1549,49.3377,-129.9718,67.6342,31.2665,121.3170,23.8377,176.9584,-127.8538,-137.5739,-130.8666,2.0842,-139.5001
-531.2500,15.7013,-68.3339,33.6125,-177.4324,92.7232,-183.0911,59.8746,-103.5939,180.3519,-145.4047,125.4530,53.3086,115.2787,9.1312,162.0240,-143.0187,56.8010,-147.7166,89.7923,-161.0044
-523.4375,101.9686,-122.5399,48.8952,-125.7423,107.8885,-130.5819,112.3179,-12.7428,122.6433,-91.5337,140.5704,-76.3557,128.0807,-11.2746,141.3727,-88.8657,-103.5166,-166.2728,33.7907,-176.6771
-515.6250,59.7300,-127.2544,4.6672,-164.5591,62.5493,-100.5853,30.2698,-56.4035,77.4327,-98.1567,169.1847,-45.5165,105.8125,18.8224,97.2136,-95.1893,101.6856,-101.3379,27.2917,-111.2732
-507.8125,116.7923,-68.6670,30.7353,-143.0762,89.5162,-146.2948,20.5597,-64.7620,104.5033,-69.4637,158.0869,-90.3867,86.8391,46.2212,51.3493,-103.1948,88.1661,-113.1160,84.0760,-122.1892
-500.0000,133.4422,-86.4803,82.3851,-89.9998,104.0750,-93.4133,72.4618,25.4710,45.1597,-16.1618,62.5821,-146.6461,63.3124,26.2230,30.0801,-49.5815,-35.7328,-131.2988,65.4561,-132.2038
-492.1875,91.2884,-127.0895,40.2262,-130.7253,61.8351,-134.3354,-43.4186,20.8969,114.0068,16.3465,57.2797,-76.7128,37.0420,-14.5709,25.9957,-15.7479,133.5675,-101.2924,128.0291,-104.0501
-484.3750,165.5363,-86.3003,118.4640,-90.0548,103.0016,-90.8678,36.1271,64.7203,8.2302,23.2659,25.3729,-143.3856,24.9285,-44.9668,-41.7110,27.5106,-2.7310,-96.8988,60.9895,-93.0272
-476.5625,117.9729,8.6852,68.8891,-65.2015,90.3653,-103.2161,22.8818,15.7318,-115.3567,11.3905,-25.3322,-6.8545,-29.2834,-20.1586,-127.2227,15.9881,197.1917,-72.3090,49.1497,-63.5827
-468.7500,142.2106,69.4684,60.1142,-40.5529,81.5388,-109.7711,-21.5304,-27.4521,-124.1686,-68.6673,3.7541,60.4620,-40.2034,9.4471,-170.9426,-63.7146,291.8924,-47.9291,72.0963,-38.3817
-460.9375,216.2867,110.0934,136.1795,35.9316,157.5583,-33.4892,54.9301,-23.7919,-232.1386,-100.8602,-31.3169,27.6234,-46.1509,12.9061,-241.8234,-58.5540,155.4565,-42.7036,5.8920,-25.6573
-453.1250,175.1550,35.5107,57.0358,-4.7942,77.3821,-38.4196,-24.7902,-101.3370,-127.3011,-105.2458,-0.5868,97.5764,-44.6576,-28.8274,-172.9112,-26.5795,325.8154,-12.6901,-0.5098,-3.2546
-445.3125,151.9190,48.8164,69.7902,9.3769,91.1133,-23.4591,26.4231,-49.9768,-77.5883,-16.7212,13.0322,-34.5834,-17.2559,-50.6541,-121.1032,63.3117,91.0583,-34.7883,-59.0167,-30.4939
-437.5000,73.4225,41.8690,22.2863,37.2811,43.5918,3.2399,52.3977,-21.8835,-88.1298,10.5567,-72.6048,-5.9894,-32.7337,13.2735,-57.5488,53.9667,84.0767,-76.1439,-67.7707,-71.0492
-429.6875,16.2309,57.2230,2.0863,17.4875,23.3873,-15.7683,-41.2967,-77.4949,38.6091,-44.8577,-55.9434,48.8936,-28.0103,68.4946,-3.7132,35.9358,133.3803,-62.2098,-54.2399,-64.5893
-421.8750,14.3861,91.9236,35.2350,87.0340,56.5366,55.5651,29.3765,-6.7624,34.6692,27.0762,-96.9310,10.1257,-27.8263,103.0771,-6.5480,-2.7364,-79.9483,-97.9294,-197.3604,-99.3820
-414.0625,-110.9050,38.1705,-96.0711,69.1239,-38.7639,-1.5597,-28.3904,-25.4938,123.2622,-28.4495,-81.3640,101.9072,-23.3727,120.2211,84.1504,52.1577,77.2864,-81.1032,-111.9291,-88.4831
-406.2500,-106.0918,45.5146,-53.2742,40.3152,5.0475,6.4191,15.9716,18.8766,92.9186,-20.8730,-74.6998,36.7842,-17.7306,91.4613,54.9283,171.1681,-93.3908,-75.1842,-107.4104,-82.2727
-398.4375,-87.9339,29.2035,-38.1419,58.8483,-17.7930,58.7338,30.6946,35.5848,-39.0825,-40.9427,-59.6830,54.0201,-41.3734,70.0535,-39.9590,188.5423,-74.6876,-20.9282,-160.5381,-21.7029
-390.6250,-121.4681,32.1895,-71.7101,-8.3322,-51.3294,-9.6670,-75.2579,3.5908,0.2181,1.3045,53.6345,132.5398,-41.4611,148.9499,-72.5481,194.2321,33.2994,-18.3904,-158.3715,-29.4900
-382.8125,-93.2134,96.9684,-43.4874,56.2734,13.9333,19.7196,-10.3837,69.3932,-118.6926,67.3709,7.7442,52.8502,-63.8277,215.6533,-154.3444,224.7361,-149.9114,-24.0600,-201.4039,-29.8928
-375.0000,-128.4678,64.2424,-81.7711,23.3708,-60.3022,-17.4033,-46.9999,33.6871,-120.1084,31.9434,-29.6477,126.6503,-99.5738,252.8627,-153.6531,262.7531,27.3965,-22.2315,-130.9337,-27.3601
-367.1875,-54.0678,69.1561,-76.3980,28.1232,-18.8767,-10.8765,-4.9320,40.6314,-114.9011,39.1770,-25.3934,61.0840,-96.9435,185.7218,-184.3271,269.4339,-73.6618,-17.7636,-91.8274,-20.8264
-359.3750,-41.0761,118.6583,-67.4313,77.4641,-8.8496,73.2367,78.7447,88.1631,-289.1031,13.0158,-89.5407,72.1191,-131.2081,123.1906,-283.4065,207.7385,-96.1009,66.2920,-115.1219,77.4178
-351.5625,-63.0353,133.2064,-89.4168,56.8434,-30.7634,52.3869,-15.5087,30.7435,-274.2533,-44.0867,-74.6318,162.1940,-144.2352,102.7192,-304.4417,115.1086,93.4919,115.3782,-31.3749,128.0686
-343.7500,-45.8952,151.8509,1.6952,145.3119,23.4240,143.6278,39.3609,86.4186,-367.3213,-25.0849,-131.6249,145.3702,-139.0972,121.3495,-323.3832,23.5897,-99.8143,133.5565,-85.5435,154.5114
-335.9375,-105.0064,165.2444,-25.4495,193.5184,-40.6379,191.6053,-24.0126,23.8263,-394.6462,-85.3373,-193.8628,230.2970,-184.5586,169.7274,-349.5702,-36.1766,88.6515,181.4799,-73.9565,207.9930
-328.1250,-75.4070,161.3381,-28.8845,189.4251,-43.9832,189.2779,-63.6559,-15.0711,-288.2931,-123.8972,-197.4025,191.9099,-195.3735,166.7998,-352.0718,-38.2397,83.8070,213.0956,-8.6816,238.5406
-320.3125,-37.1577,131.0787,7.3287,228.9752,-7.6732,226.5922,10.3654,59.6652,-288.3115,-11.8181,-235.2937,83.1783,-187.7189,94.5095,-351.9492,-35.6341,-18.3570,181.3616,-76.7573,211.6234
-312.5000,-112.5551,126.1696,-72.1058,153.8682,-87.0043,148.2485,-32.2491,18.7431,-184.9858,92.6151,-167.8403,78.7909,-173.9943,89.5570,-283.4867,-39.6563,81.8332,175.9702,-13.4879,195.9773
-304.6875,-72.6546,97.5592,-30.2405,161.0562,-45.0292,155.1943,48.4706,62.1176,-216.3807,137.3534,-125.1025,14.6987,-126.1365,59.9012,-239.7221,5.6404,-122.6819,147.8623,-77.9215,164.5909
-296.8750,-148.6136,93.0972,-75.2328,120.3744,-89.9092,146.2764,76.3511,18.6275,-225.6340,129.2354,-172.2143,80.7598,-121.1071,89.4160,-137.8090,35.0984,-93.0265,141.8992,-84.2009,153.9226
-289.0625,-185.5635,57.6264,-112.2211,119.6951,-89.7792,110.3600,3.2571,-16.8622,-115.9118,58.1141,-135.3300,45.8045,-63.4910,53.9426,9.0789,109.5667,-24.3878,105.9308,-51.4839,110.0137
-281.2500,-121.7221,52.9403,-48.4166,149.8114,-62.8466,175.2342,31.9807,48.4375,-162.4094,87.7976,-145.6490,-35.3586,-66.8279,9.2818,-36.2461,175.8421,-134.9280,66.7618,-127.9661,74.8100
-273.4375,-107.8819,-1.7462,-108.6107,59.9198,-158.9070,81.1036,-100.2742,-10.2729,-75.9187,66.4820,-57.9706,16.4668,-63.6761,24.6221,15.4164,229.1283,54.5339,45.5883,-114.4441,40.7505
-265.6250,-66.4383,6.1603,-63.1995,-2.3715,-114.3566,53.5683,-53.9003,36.6144,-67.8588,112.7673,-13.6949,-10.1188,-36.7108,34.5599,24.6703,240.0290,-113.4122,18.0040,-143.3357,7.9116
-257.8125,-127.0465,17.0122,-92.8456,8.2748,-106.8584,24.9734,28.4273,45.4327,-97.8613,122.9904,-79.4691,36.2487,-51.0843,80.4517,32.8759,212.8887,-103.3810,28.3721,-169.2739,21.1703
-250.0000,-157.8464,-12.3270,-121.6885,-21.2775,-135.5483,-2.8244,-36.4158,-18.9575,-17.0891,59.0114,-71.4443,46.4027,-5.9704,53.1462,187.8663,186.5558,-27.5645,68.5306,-59.4173,55.8526
-242.1875,-109.1974,2.7797,-71.0807,28.6123,-84.7828,48.8226,87.2093,70.0915,-76.8906,74.4774,-131.9693,-85.0017,-3.5840,31.2987,165.2853,202.6814,-189.2851,83.1387,-82.1105,79.9030
-234.3750,-144.3477,-30.9160,-108.2737,-5.3078,-158.8135,49.6628,51.0469,-2.6684,-4.5056,39.1367,-132.2917,-46.2121,-38.4822,32.6534,128.9007,168.0210,21.2014,118.9406,-12.6093,118.0128
-226.5625,-102.7398,-23.8605,-62.7103,2.5233,-76.0835,22.2459,98.6611,-28.6837,40.5998,13.5382,-122.8622,-72.6870,-24.2952,6.7597,102.2617,143.1197,-76.5775,126.4867,-7.3711,126.4744
-218.7500,-145.6352,-29.3114,-70.6558,31.8408,-83.8547,51.3257,127.7821,0.7839,31.1952,6.4279,-205.9272,-42.6610,-25.4542,-0.6248,168.1106,136.7272,-118.8347,119.5377,-14.6311,122.0199
-210.9375,-134.9290,-17.1604,-131.0014,-27.2398,-144.0184,-7.9968,31.5219,-58.1530,117.3853,-15.0820,-155.3894,9.9513,8.5367,-59.4109,292.5522,115.9476,67.4895,60.1762,100.7002,53.6107
-203.1250,-66.8247,-16.6149,-59.9437,-26.9256,-108.7789,-7.9256,105.6834,15.3050,5.9505,21.8077,-156.4532,-26.0428,15.3704,-58.8107,255.3823,154.5916,-38.7860,-9.7902,64.4269,-12.9385
-195.3125,-65.4697,-13.8184,-94.6367,-60.3752,-143.2869,-41.6188,71.1002,-17.9964,-30.2442,-11.0539,-155.2574,50.2100,-24.3190,-18.9630,183.4428,158.4967,174.1988,-7.5086,65.4127,-9.0985
-187.5000,-4.7043,11.3738,-64.9208,-69.4286,-77.3791,-48.9166,28.9469,-24.8978,-37.0544,-17.5116,-126.6580,44.8421,-10.4032,11.2879,177.8858,190.7984,94.5700,-16.8417,19.7910,-23.6053
-179.6875,8.2549,25.7634,-17.0136,14.7084,-29.2769,-0.0286,114.0091,24.3833,-209.6704,-3.7717,-115.8570,-14.3216,-20.6655,23.7476,42.5172,168.3026,3.1700,-37.9837,-2.6251,-33.0781
-171.8750,-4.1769,-20.2457,-27.5064,-31.5565,-39.5683,-46.5424,31.6870,-21.7448,-111.6994,-13.4339,-52.4500,12.1000,-10.7872,-22.1914,32.7377,86.4169,167.3654,-14.5341,90.5535,-10.5682
-164.0625,48.3516,-1.3131,64.9593,-12.8756,16.1013,-26.1110,125.3308,-0.9274,-129.8059,-29.1596,-33.0899,-39.5384,40.4329,-38.1823,88.8943,71.4800,-25.4849,-31.1378,1.6783,-28.4669
-156.2500,8.3314,-4.9293,21.8750,-16.7540,10.2230,-32.2392,82.4237,-42.6771,-173.4749,-69.4498,-3.2701,-7.7264,56.2283,-6.7146,119.4902,66.9868,75.1430,-0.2888,-38.7448,-0.6435
-148.4375,17.8276,-29.0407,34.3021,-41.1304,22.8582,-17.8654,23.0383,-28.9325,-87.6682,-92.2474,46.0437,-30.4300,50.1052,8.2533,59.5637,8.9907,15.2657,46.0555,5.3307,45.3983
-140.6250,47.4798,-33.0041,63.8795,-10.3617,52.6456,12.6532,164.8092,38.9491,-132.7306,12.0942,1.5064,-34.9830,25.5110,2.3721,-20.2342,4.1418,-130.4294,-29.4539,-35.4335,-23.9831
-132.8125,-39.4089,-13.5162,9.9113,-61.1483,35.8890,-77.3833,112.0398,-50.7322,-39.3506,33.8785,58.4256,22.9024,47.4264,-50.0587,37.4084,26.7398,29.3275,-45.5138,17.2513,-48.3079
-125.0000,67.3071,24.5682,84.5536,-59.3410,110.7444,-75.8262,76.8937,-48.8202,-113.3834,36.2651,168.9459,-47.6251,91.5474,-119.8868,1.6284,29.9366,-74.3220,-43.9823,-87.4697,-50.6206
-117.1875,83.6727,78.2976,62.8440,-5.8949,52.2492,-58.6305,20.3960,-31.2736,-207.7642,16.2986,185.1205,-29.5016,52.6850,-103.0596,-92.5131,11.7845,48.7073,-25.8035,-106.5364,-27.7240
-109.3750,114.6027,109.5792,22.6938,-44.8989,12.3183,-97.8844,-55.5344,-70.1812,-176.6086,-58.1178,217.8490,4.1535,68.3160,-68.6853,-22.1161,-25.8173,150.2708,-30.0809,-41.0638,-38.3626
-101.5625,169.7362,131.0558,77.7454,11.2933,67.5902,-41.9422,37.7402,-13.9049,-268.2703,-74.3539,199.7853,-47.9911,60.3728,-85.1067,-112.5231,-41.2231,30.0521,-44.1608,-92.3903,-43.3206
-93.7500,152.7269,45.3772,21.6531,-38.6720,11.7189,-60.1530,-90.1375,-68.7899,-141.0831,-92.7555,253.5800,-29.2965,30.9117,-66.6733,-169.0871,-94.7751,225.6896,10.6072,-38.8621,9.4081
-85.9375,237.7327,25.6937,110.5746,-22.6369,64.8619,-43.3672,-73.9951,-51.6752,-162.9122,-75.1653,232.3714,-121.6209,45.2586,-49.2436,-152.6697,-40.3281,64.3190,-9.6306,-60.3361,-10.8854
-78.1250,203.3392,-6.3979,109.0955,-21.0158,62.6084,-7.9914,-37.2514,-15.9753,-203.1334,-38.9827,119.7681,-122.3518,22.1047,-50.2166,-117.6619,33.7185,30.5702,-7.2660,-93.2007,-5.0312
-70.3125,168.4047,-5.0396,74.0782,-54.9431,27.8169,-42.1669,-108.0405,-49.8277,-127.9111,-72.3533,120.6137,-81.6541,17.8983,-46.7417,-78.2089,38.2149,137.2531,-5.4556,-24.6161,-6.8337
-62.5000,196.3724,24.2116,138.9650,45.0241,92.9296,23.5563,-5.9206,16.2135,-211.8028,-78.8315,75.3582,-126.0625,6.3668,19.6307,-159.8604,-5.3896,-44.1486,-12.7454,-101.1316,-4.8768
-54.6875,147.8945,12.0114,49.4051,67.5380,40.5953,45.8273,-56.2506,-71.2065,-154.1474,-129.7647,96.6587,-28.9279,2.4933,42.5534,-137.9673,-91.4499,118.0098,-25.4832,-46.0914,-19.6056
-46.8750,140.2781,5.6554,80.7093,59.9056,72.1246,39.9488,-24.7127,-39.7774,-87.6533,-96.8505,90.8064,-69.9635,48.8460,-35.6749,-33.2380,-131.6641,-29.9983,3.6233,-54.2031,6.7853
-39.0625,75.9081,12.5361,84.2581,31.5116,38.9020,45.3132,17.0733,1.8930,-83.9047,-54.6970,57.2094,-64.7500,73.1192,-30.6509,79.7429,-125.6327,-93.7323,8.9812,-83.0556,8.9721
-31.2500,35.7451,-26.3791,44.0124,-7.6837,-1.1118,-31.1227,-21.9284,-74.2424,21.0398,-93.3517,53.8167,-30.3503,63.9805,4.5707,113.9248,-126.4030,77.7195,5.5358,16.2891,2.7167
-23.4375,106.7884,-24.0948,81.9713,30.3190,37.0740,43.6400,16.2807,1.8189,-15.8282,-54.8160,17.6235,-100.7542,41.9838,6.9920,41.3066,-122.9810,-96.6212,7.2867,-19.1692,9.9984
-15.6250,57.9346,-71.7075,29.0278,-18.5805,21.3565,29.5017,-33.4148,-13.0340,41.4079,-105.1972,38.5308,-41.0575,35.3669,-7.4789,26.7891,-136.4662,65.1526,29.1413,37.4808,32.3902
-7.8125,21.5380,-36.8704,31.5440,-18.0239,24.0975,-5.1794,-31.6455,-9.4355,116.0832,-28.1337,40.8850,-37.9258,31.2523,-40.4998,28.7111,-94.5014,-5.6450,-7.5573,70.5788,-7.8231
-4000.0000,56.0717,-49.6985,58.6241,-39.1493,59.6981,-27.9128,48.3661,-16.2204,104.0615,-23.9374,43.4862,-108.2873,68.9839,-79.7197,84.2943,-110.5347,-18.6167,-58.2422,70.4696,-57.8677
-3992.1875,-47.5106,-84.9707,-11.8782,-109.4649,-10.8201,-100.0404,-22.4455,-87.1048,292.4671,14.2625,46.8812,-33.3681,46.7851,-78.5862,125.2077,-73.7918,122.7235,-58.7677,142.1553,-66.7026
-3984.3750,4.7063,-68.4421,7.4187,-93.9829,45.4645,-119.3683,70.5330,-34.1941,312.6757,69.2602,29.0785,-90.6456,47.7300,-98.6463,107.9283,-20.2494,-72.1416,-78.4986,54.6366,-87.8653
-3976.5625,3.4743,-72.3565,4.2700,-96.9546,5.2992,-124.1485,67.0605,-37.7363,237.4266,27.8073,25.8255,-22.3598,40.6843,-67.1557,105.1797,-63.1589,65.5400,-81.6861,18.6613,-88.8880
-3968.7500,17.4769,-61.0180,-15.6327,-84.6881,-14.6165,-108.6890,9.8326,-96.0395,254.4459,6.6116,79.8212,-9.8102,52.7427,-53.4102,122.6524,-12.8123,113.4859,-105.6233,31.9468,-118.2554
-3960.9375,56.4316,-57.7272,23.4206,-13.4690,24.4234,-35.2789,48.5632,-22.3853,110.4122,-29.6242,7.7601,-45.3128,40.7307,-52.7145,88.0478,23.4936,10.3619,-68.6145,1.1770,-71.5911
-3953.1250,20.0263,-59.7917,-13.8826,-15.6085,-49.8934,-1.2262,-98.0679,-96.0856,111.0282,-140.2082,44.3488,23.8479,42.3961,-55.3646,125.0873,-15.5449,184.9006,-0.9522,36.0623,-6.3905
-3945.3125,70.1173,-13.3542,76.3110,31.7430,40.2864,50.3232,-119.2152,-82.2862,18.1432,-125.2862,60.4369,0.5187,54.4548,-42.5101,67.6241,-76.0691,56.9292,46.2098,-55.5519,43.5355
-3937.5000,83.3014,68.1861,50.6054,78.1902,14.5666,22.9696,-108.2632,-108.3829,-80.6473,-115.2579,71.6164,83.2967,15.5653,-32.5500,-29.7506,-67.4822,140.0445,22.4728,-111.0726,21.0349
-3929.6875,83.0716,67.3234,52.4899,41.2272,16.4369,-49.7888,-143.7300,-144.8852,-3.8309,-151.6333,73.3921,119.6918,-6.0591,-33.9860,-64.5241,-31.2815,208.7809,20.3418,-41.9879,17.4415
-3921.8750,121.8404,104.4670,91.3778,78.2670,55.3103,-12.5422,-32.1990,-70.3837,-147.0217,-114.0026,38.1653,45.0950,-17.1564,-33.4199,-136.3231,-32.0726,70.4993,22.2118,-72.9077,27.9740
-3914.0625,77.4475,93.4648,7.1080,33.1577,8.0259,-23.4507,-78.8230,-119.0304,-156.3618,-162.5107,27.7867,143.3619,-16.7040,-8.9999,-72.2935,-82.0114,272.0767,46.9344,-45.9809,50.0771
-3906.2500,103.1464,117.5637,-3.0730,21.1387,-2.1658,0.7327,-16.3555,-93.5786,-165.5894,-173.9064,54.5104,93.7360,3.4171,14.5253,-45.1662,-94.8426,155.7561,34.7566,-55.9540,35.6865
-3898.4375,77.5956,125.4191,5.4970,65.8691,-30.6066,43.6709,-9.1381,-51.3692,-231.0892,-241.5428,25.9869,98.8648,-23.8240,19.7993,-111.3068,-89.9227,199.1774,43.3339,-45.1909,53.0630
-3890.6250,57.1828,138.4344,-51.7904,77.7487,-50.9086,21.7603,-139.7947,-73.0176,-103.4508,-263.0276,41.6197,186.1721,-75.0745,70.2342,-205.3244,-149.8514,318.7699,57.0701,4.7224,65.3413
-3882.8125,119.7644,164.4554,12.9251,138.6308,13.7962,47.8539,-39.4571,-46.6591,-184.8220,-199.4998,-3.7466,174.4883,-97.0572,59.6755,-287.3750,-124.7714,134.3418,46.8032,-107.3655,59.4446
-3875.0000,59.0344,172.1732,-16.6626,76.2064,-15.8021,16.6426,-105.4240,-113.5994,-176.4942,-156.2615,3.5818,253.5234,-111.0059,27.8101,-279.7580,-82.9725,283.6173,19.2396,-97.7526,26.9849
-3867.1875,109.6436,186.2505,-35.9100,55.1271,-35.0599,32.7781,-162.0594,-97.1904,-121.8122,-66.6646,58.2598,194.9299,-118.1059,43.2978,-298.8112,-30.8141,157.2508,-1.9694,-116.7884,-2.6937
-3859.3750,84.6988,160.7872,-28.7063,63.5004,-64.8665,37.3680,-119.2447,-55.3246,-187.6929,-23.6057,27.3826,163.7959,-113.4486,84.2385,-255.4440,46.8039,131.3203,-64.7271,-142.3841,-65.3464
-3851.5625,6.3879,114.9794,-110.8643,-16.4852,-110.0344,-45.3997,-200.7963,-64.8103,-47.9259,3.1108,19.1530,189.3371,-123.1264,73.8399,-189.4464,109.0851,227.0543,-39.8265,-79.3261,-48.2335
-3843.7500,29.8187,66.9321,-50.2749,5.2828,-49.4509,-60.4155,-104.6054,-5.5380,-96.4145,99.5943,6.6682,100.6358,-96.4267,22.1960,-165.7219,204.1355,-31.4869,-18.1698,-161.5284,-27.0903
-3835.9375,-31.9137,39.7369,-42.8403,-58.0964,-79.0256,-91.5771,-133.5779,-36.4092,-88.0610,105.9393,51.0218,179.8065,-102.9100,27.4172,-195.1771,209.0498,46.8211,-10.6578,-151.8888,-22.0768
-3828.1250,-41.8589,-6.6511,-50.6170,-104.6787,-49.8074,-100.9400,-142.7740,-45.4797,-21.9105,97.0899,79.1768,132.8052,-66.9541,53.4561,-128.8692,198.7804,-34.0592,-22.3353,-91.4528,-38.5661
-3820.3125,-75.4582,-7.6763,-14.0425,-104.9013,-13.2374,-65.9452,-32.6237,26.8097,-94.4359,169.6012,5.6723,57.1680,-69.7389,51.8486,-129.2481,232.8828,-209.6102,-22.6541,-89.6843,-32.8483
-3812.5000,-184.6277,-48.2432,-53.0296,-145.6794,-15.2284,-143.4970,-35.0394,-13.4534,14.4804,129.5683,3.6147,89.0101,-34.7778,46.7022,-21.2042,191.4527,-73.6995,-28.5111,-22.4733,-41.3733
-3804.6875,-136.0559,-71.0544,-1.2735,-133.7045,-0.4756,-129.2939,53.2836,37.0403,-5.8531,143.2887,-17.6952,-7.3823,-25.9499,97.3146,-5.4372,239.7959,-272.0484,-15.6160,-78.5193,-28.1692
-3796.8750,-181.8480,-118.2075,-49.8767,-146.0702,-12.0815,-106.4337,40.2585,60.1925,-17.5509,130.6677,-30.3678,14.8967,-34.2462,82.5919,-18.0580,225.8066,-178.7548,6.9336,-53.9278,-1.7311
-3789.0625,-183.4072,-121.1007,-48.2453,-149.1858,-10.4480,-105.3257,5.4602,24.5903,-14.0113,167.3041,8.2103,-22.5385,-21.8772,46.1368,-15.4614,225.0916,-180.2027,38.7469,-20.0903,28.4545
-3781.2500,-163.0740,-102.0820,46.2878,-95.3954,47.0880,-49.3101,62.5595,80.9010,-139.5992,149.8491,-44.3174,-40.0629,-26.5751,64.5938,-69.0008,206.2990,-266.7738,22.4650,-69.3702,21.8799
-3773.4375,-159.4569,-134.7553,-21.8901,-128.3066,-21.0860,-81.9911,-43.0560,11.5163,-59.9081,81.7021,-39.5519,36.7424,-27.9212,104.3626,9.7222,172.8286,-17.0315,24.4951,-30.3572,18.2876
-3765.6250,-98.3488,-109.9167,7.4211,-68.7155,8.2300,-18.1642,-14.1901,2.6405,-66.7231,146.0635,-47.2893,-9.9334,-24.2686,93.6480,1.9189,162.8733,-133.7945,13.0339,-74.8515,7.0863
-3757.8125,-139.5042,-81.3204,-36.5262,-40.3647,-72.7075,-26.5802,-21.5783,31.5268,-72.8075,175.1861,-90.2889,-18.8411,-33.7205,85.6915,68.8294,190.6864,-68.8172,41.3309,-79.6039,35.1385
-3750.0000,-145.3811,-89.4203,-113.1900,-48.7193,-112.3603,-30.6964,-61.6903,25.7138,-2.5962,171.6274,-93.9972,-23.4149,-40.3365,80.0514,100.9993,185.8219,-6.5239,32.9436,18.9461,24.9550
-3742.1875,-99.4148,-44.6586,-65.0053,-3.2140,-64.1632,15.0489,58.0470,72.7633,-62.5553,144.9379,-119.8686,-14.1240,-46.4755,89.2663,39.9812,157.8304,-172.4057,8.4113,-38.6664,6.1116
-3734.3750,-180.7625,-57.1921,-150.1334,-16.0127,-112.2815,-33.5092,10.4725,23.5179,-0.8351,132.9561,-131.0453,118.9018,-75.0104,76.1986,28.6289,144.5663,61.4254,29.5848,54.4165,27.7446
-3726.5625,-120.3782,2.0367,-120.5282,6.9383,-119.6611,-7.3161,38.6286,15.0324,-7.3702,124.7403,-138.4811,109.7055,-67.1200,29.9032,55.9919,135.0806,-18.0034,18.5215,46.2443,15.9154
-3718.7500,-139.0125,17.2774,-142.9253,21.9001,-142.0455,42.8851,52.7877,28.5636,-63.9316,101.5474,-159.9312,85.5285,-82.7253,79.6215,35.3147,147.6149,-3.4574,33.4676,27.0555,33.9179
-3710.9375,-146.6742,43.5256,-185.3451,12.8646,-220.4472,36.0900,-62.0703,-14.9045,40.4950,58.3650,-166.3929,115.3860,-93.8713,146.3613,101.6077,103.1726,93.1030,-10.5663,125.8636,-15.9556
-3703.1250,-132.1510,56.9904,-170.5707,26.0413,-169.6531,49.5087,61.2640,72.8416,-53.8969,109.3989,-187.6686,54.4604,-70.8751,122.3130,116.0604,115.9597,-103.1578,2.6103,70.8552,0.1305
-3695.3125,-214.3451,9.7624,-219.5091,-20.4756,-255.5699,-0.7654,84.8880,95.8956,6.9933,132.7461,-237.6578,113.8646,-102.2082,107.5818,139.7654,175.0736,25.8839,-8.9006,95.1315,-11.0670
-3687.5000,-166.2574,20.8522,-240.1642,-45.6862,-239.2016,-59.7359,100.7900,111.2534,98.1769,221.3990,-221.3567,91.6027,-85.4474,85.1760,192.7378,188.5186,-68.7763,-68.0996,107.6918,-78.2499
-3679.6875,-149.9304,1.2029,-188.5712,4.3638,-224.5872,-9.4413,114.9351,161.8766,2.5797,235.3107,-280.8160,104.6129,-112.9175,98.0379,132.9228,202.2370,-88.2106,-54.0361,53.4821,-56.2113
-3671.8750,-235.0740,-14.8842,-238.4481,-12.0317,-237.4408,12.4086,-45.3905,111.0554,64.5105,184.7790,-183.7345,127.2125,-99.2020,156.4694,119.6137,186.5343,70.9230,-35.4012,74.8146,-42.7456
-3664.0625,-175.5316,8.7516,-138.6337,82.2921,-174.6012,74.9754,-20.0296,172.9473,-18.8892,210.9612,-193.9667,4.5398,-88.0142,108.6245,71.9559,174.5606,-115.2632,22.9472,-6.1687,23.0932
-3656.2500,-186.3545,-2.9517,-151.1803,105.2770,-187.1244,98.2077,-68.0300,123.5004,-30.6721,124.8014,-205.5646,101.5468,-100.0561,131.4555,58.9006,87.2641,13.1980,81.9621,-16.5193,84.9070
-3648.4375,-151.5490,32.0071,-147.0976,68.9208,-183.0123,100.0998,-102.4013,52.7091,48.1788,54.2975,-202.5228,103.2395,-80.9030,132.9651,136.4495,52.6432,12.3191,115.6449,-15.2251,112.4816
-3640.6250,-159.1528,58.5866,-83.4197,130.1825,-118.3067,126.6027,-2.1774,79.5360,-107.3976,44.4118,-211.8985,93.5492,-52.8610,122.0846,126.5568,41.6486,-100.9863,141.9393,-93.3499,144.9616
-3632.8125,-203.7314,83.2295,-91.7125,84.4971,-126.5697,118.1624,-119.9241,-2.5809,-77.9484,-0.4141,-109.2346,120.9489,-19.5075,76.2794,154.6718,69.7263,29.7763,167.3027,-67.4331,163.3205
-3625.0000,-129.6239,51.5889,-11.3186,123.5256,-47.1436,160.4369,-77.9871,39.0164,-144.8278,41.4781,-66.8852,16.0772,13.2865,44.2043,123.4404,110.5344,-177.7733,170.3774,-132.8326,167.9925
-3617.1875,-137.7821,41.7061,-22.1864,112.3170,-57.9770,148.4743,-89.2994,28.3757,-189.9925,-5.8723,-77.8066,76.9817,17.2902,68.9031,148.9140,98.1243,-47.5791,160.2121,-141.4926,158.6301
-3609.3750,-100.5100,80.2843,-14.6277,80.5634,-50.3814,80.9747,-119.1878,-38.8067,-146.7273,-72.7651,-33.2951,120.3703,25.7675,112.0764,155.8002,67.2005,-8.9194,162.5211,-101.7063,155.4273
-3601.5625,-65.8516,114.2835,20.3251,149.2288,-15.3931,151.8949,-47.6764,-4.5666,-294.0918,-112.2521,-35.4066,117.1799,34.5405,108.6730,116.0437,63.7000,-149.8863,196.2422,-172.5398,194.6986
-3593.7500,-99.6176,114.8932,-50.1392,114.5030,-85.8194,117.4197,-118.5724,-75.7228,-216.8859,-146.1369,5.0670,192.6262,33.9966,73.9053,155.8408,65.8270,25.7541,196.5836,-99.7816,189.5671
-3585.9375,-5.8533,102.0715,12.9305,136.3443,-58.7053,106.5125,-54.9281,-50.3164,-190.1588,-119.4686,31.0770,71.6528,66.0850,-11.2828,182.1467,128.5329,-128.0659,148.4925,-111.4922,140.6543
-3578.1250,19.2444,91.6147,0.3448,125.5566,-72.2479,128.9725,-68.9364,-26.5442,-238.1195,-133.4524,54.4180,94.0548,56.5832,-25.0996,130.7526,76.6129,-32.5506,137.7725,-156.8681,132.8687
-3570.3125,73.4249,144.2645,-15.1622,72.8746,-49.7052,113.5456,-157.8707,-115.6682,-252.9955,-185.3391,186.8475,115.5893,90.8979,-41.7875,115.4159,-13.1794,91.0828,190.1765,-173.1492,178.5665
-3562.5000,150.5490,221.8778,29.2783,114.1591,30.7838,120.0855,-39.8581,-71.8235,-391.9529,-141.2677,231.2111,48.0826,129.6621,-71.5083,84.9862,-79.9908,-43.3607,161.5508,-269.4972,152.7570
-3554.6875,77.1007,217.9457,-46.8433,74.9054,-45.2864,42.0907,-43.4039,-112.5193,-283.4939,-144.7404,228.0067,81.0515,140.2843,-75.7561,191.9580,-84.3306,93.6545,122.4015,-203.4020,107.5396
-3546.8750,66.4312,171.8307,-19.1786,28.4725,-17.5676,-4.0866,20.8326,-48.4075,-108.2548,-80.4052,219.5864,-39.1477,150.6755,-86.1744,218.6796,-20.8548,-58.5311,76.0727,-213.5162,57.8834
-3539.0625,21.8477,126.8326,-30.4210,18.1642,-28.7491,19.8568,119.1780,-24.1852,-45.9484,-54.9634,171.2452,-51.2243,120.4618,-98.4641,169.4501,2.7355,-67.6328,66.8530,-221.5512,54.1665
-3531.2500,17.4926,122.0973,-69.4358,-21.8806,-67.7000,-19.9403,-31.2482,-63.7140,62.5868,-58.2691,168.1409,18.9873,89.4466,-65.4786,166.4356,-37.3943,68.5328,26.8995,-119.3425,9.3885
-3523.4375,75.0265,108.2813,-11.5625,-36.0088,-9.7598,1.1789,27.2185,-5.3256,-99.0002,0.3342,189.9224,-69.8836,117.0178,-44.5728,150.2813,-16.5914,-86.4225,11.8576,-132.2485,-3.3047
-3515.6250,57.5404,91.4797,7.2969,-53.1252,-26.8305,-17.6913,8.6846,-59.9256,-226.6232,-54.0556,208.6840,58.2803,88.9157,10.3556,57.0663,-34.7655,36.6336,29.8334,-78.1628,18.8871
-3507.8125,68.7877,101.4453,58.8888,-7.4803,60.8344,-3.8007,-14.1150,-9.7719,-321.5165,-77.6926,223.1834,35.2290,49.0800,24.0684,-150.4476,14.8333,-23.5493,40.5762,3.6674,40.8427
-3500.0000,91.8253,54.2279,80.2694,84.9865,82.2912,90.9073,6.8920,85.1997,-409.6432,-19.5168,97.4616,18.9913,-61.2735,44.6068,-386.2032,72.2575,-70.9590,27.1316,-8.7193,45.0106
-3492.1875,30.5385,28.7159,18.3313,24.1568,57.4284,28.3251,-91.4171,22.8817,-215.0916,66.3719,109.4264,67.4825,-123.8708,18.8670,-486.2927,120.4185,79.3454,1.4106,37.5842,14.5371
-3484.3750,51.6877,13.6657,39.8354,8.7911,116.0110,49.2101,2.7152,118.0311,-156.1122,197.7227,56.8274,-22.5639,-161.2479,39.5985,-575.9732,177.0622,-181.9205,-47.8448,-11.6765,-33.1893
-3476.5625,-34.0283,-37.2278,21.4798,-7.4083,133.7370,29.2562,-53.0050,98.3422,-174.0110,215.2370,38.3623,31.5611,-214.6951,130.5031,-706.5507,157.8781,-58.0432,-28.9364,8.2010,-9.3302
-3468.7500,-36.5127,-39.8571,59.3538,-45.3484,171.6958,-6.4393,-51.4920,99.9119,-135.6791,217.0121,39.1323,32.9699,-247.4393,167.6897,-816.9234,121.9752,-24.9073,3.2400,6.3207,26.4905
-3460.9375,-5.7015,-9.1697,127.5215,20.0311,202.9515,61.1796,15.3304,166.8002,-178.0836,248.1038,-39.8140,-10.3053,-252.1555,88.1951,-824.0424,115.3976,-100.4938,-36.2744,-32.2795,-3.9914
-3453.1250,-29.0600,-32.6200,-6.4796,-73.7317,107.0415,0.6584,-81.0079,143.5485,20.3284,225.0455,-99.9238,77.3079,-264.5898,64.5799,-664.3542,128.6943,122.7839,-24.9193,50.9645,-2.3825
-3445.3125,-12.8318,-51.4519,12.1076,-57.8767,125.7270,18.7539,10.2430,198.9099,113.3100,243.5939,-118.4434,-52.4574,-227.0183,82.5936,-573.1166,109.6102,-72.3513,-43.9459,32.7979,-22.8684
-3437.5000,-96.1169,-64.7696,-38.8140,-36.5004,110.9071,-33.6386,69.0018,183.7833,98.7603,228.6478,-96.4818,6.2975,-210.8006,67.1235,-552.4264,94.0519,-15.9960,-22.4620,19.1169,-1.2325
-3429.6875,-111.6214,-44.2795,-13.9581,-87.3164,98.8677,-82.2177,57.5356,98.4623,270.9966,143.5083,2.2706,-5.1186,-123.3327,-18.5135,-381.9695,45.3246,4.1734,-37.1594,40.2299,-27.0464
-3421.8750,-27.4851,-66.1257,74.5392,-108.4613,150.4692,-105.1272,218.7241,112.8111,249.8559,84.0356,-20.3493,-64.8733,-44.8127,-41.4728,-222.9005,-14.7315,-123.0316,-94.1969,-15.0252,-84.6736
-3414.0625,-43.7684,-117.3577,21.6167,-194.9915,97.6580,-157.4242,165.5104,59.7640,307.2888,32.1681,0.6091,-43.9973,-25.4194,-20.8039,-129.2681,-31.1700,71.3732,-110.6131,74.3057,-106.1877
-3406.2500,58.9339,-155.5744,93.6802,-163.4985,170.8361,-122.7032,164.2853,95.7270,232.7011,30.3037,72.5553,-156.1008,39.5288,-96.1090,-95.6658,4.4144,-73.2296,-114.0140,36.6203,-109.9714
-3398.4375,71.1764,-178.2289,104.2837,-116.4313,181.5536,-112.4102,137.6146,69.2575,96.6314,-32.0082,120.0316,-71.6422,40.9091,-48.8382,-159.5504,-22.4290,-26.3002,-66.8494,14.4656,-59.9013
-3390.6250,83.5504,-94.7195,84.0140,-103.1991,161.4050,-95.9547,7.0777,11.9422,76.6862,-89.1732,136.6446,54.9996,-6.2391,40.6107,-255.3265,-117.1020,91.8042,-18.5136,62.4546,-11.8179
-3382.8125,107.1227,-0.9869,107.9386,25.2575,185.4500,1.7192,103.7422,-0.1594,-83.0982,-139.1361,50.4383,78.8567,-5.5800,27.2818,-232.9415,-93.5530,-24.9090,-29.9662,16.6243,-16.3767
-3375.0000,55.4778,17.5562,53.6482,78.5261,93.2832,20.2058,12.2030,-55.4531,-27.1156,-193.3027,-4.9849,171.5423,-34.8956,-27.2154,-178.7922,-38.1766,133.1852,-11.6012,35.5774,0.9369
-3367.1875,57.8673,91.1612,57.3953,151.8620,98.1569,60.7612,-20.3027,-13.6906,-22.1059,-115.4212,-0.3686,139.3005,-84.4702,13.3717,-322.6293,-107.7284,30.3236,25.8329,38.5652,42.8978
-3359.3750,82.3988,114.9316,81.2868,176.3725,85.1782,120.4883,2.3515,46.2387,-108.9814,-55.3929,-14.6135,199.2142,-158.6696,110.1263,-521.3566,-158.1177,19.5912,15.4318,-6.3122,40.5618
-3351.5625,30.9642,98.7623,28.2065,124.9453,32.2306,104.2747,-160.9580,30.2180,-14.8309,-34.3191,-30.8202,220.2052,-178.9111,130.9589,-465.0665,-64.4383,107.9314,34.1017,47.8552,51.1362
-3343.7500,33.1716,101.2610,28.7669,162.1846,32.9268,104.7248,-123.6108,140.8596,-14.0574,77.4123,-66.3916,109.8582,-149.0052,58.4662,-356.1531,46.9181,-136.0997,1.4279,-20.3432,13.9430
-3335.9375,-27.6350,41.7638,-35.6854,101.4413,-31.3868,77.1848,-152.2599,113.5100,31.6820,49.1439,-57.9809,119.5229,-122.7479,29.9985,-238.2727,55.3015,13.8715,46.7688,25.4513,55.4670
-3328.1250,22.2480,56.9773,-55.4536,81.4077,-51.0133,94.3552,-245.2199,166.8654,49.0995,66.5718,-4.8796,99.9069,-124.9393,10.2559,-259.7159,35.4003,-41.4479,96.8272,41.9421,102.0630
-3320.3125,20.9794,55.0524,-23.3754,115.2455,-18.7906,126.3900,-176.3130,199.0837,-65.6656,98.8458,-8.9448,95.1484,-119.1570,5.3846,-303.3390,-5.6356,-113.9329,95.7427,40.2656,107.4755
-3312.5000,-54.1011,51.3314,-100.1117,75.2903,-95.3835,86.6316,-216.2113,123.5036,41.7450,96.3084,-85.8181,165.6163,-144.7827,76.7386,-197.7865,-9.4566,-13.1921,160.8690,71.7868,165.8461
-3304.6875,-43.7785,62.0253,-52.4586,155.7525,-47.5843,170.2877,-169.7107,170.3287,-20.4681,144.1631,-149.2991,103.4950,-114.6078,50.5180,-115.8571,1.1371,-249.0626,171.4055,11.6985,178.1432
-3296.8750,-121.4132,89.7767,-62.7698,149.2828,-94.7468,161.0081,-178.1533,161.2085,-67.6588,171.0631,-157.7453,130.4375,-141.3417,4.3643,-162.8844,28.7908,-115.8826,235.0060,40.6474,246.4981
-3289.0625,-100.6130,111.9882,-74.6494,135.2801,-106.4750,149.1883,-264.1504,185.5387,-5.4190,195.4157,-134.7449,118.8428,-169.6206,65.6925,-213.4940,89.9115,-130.2380,221.0730,27.0438,227.4808
-3281.2500,-36.0141,106.0081,-9.7295,130.1002,-41.3975,140.1919,-126.3303,214.6866,-124.4119,150.5688,-141.9573,37.0507,-128.6677,93.8505,-187.3644,44.8467,-205.8172,180.9436,-48.7707,191.7514
-3273.4375,-64.5764,77.8719,-74.9708,101.7790,-106.4828,112.0500,-227.6612,112.6870,-79.5749,48.5689,-61.3350,119.1227,-123.3777,139.8850,-180.3972,-57.3536,46.4678,222.6794,-5.7341,229.7092
-3265.6250,6.3045,114.1910,1.2281,171.9205,-30.1216,151.3713,-225.5378,115.1449,-77.3022,88.0167,-22.2808,47.6480,-83.7989,68.3892,-180.9783,-92.0885,-58.8083,117.8768,-40.2531,125.4409
-3257.8125,18.3257,126.6687,48.5707,114.2321,-19.6144,87.8589,-215.2485,15.7631,-66.9137,25.6153,-49.0912,95.3247,-105.5731,42.0578,-208.4262,-7.6595,93.0584,59.2356,-27.6385,66.7826
-3250.0000,-25.2126,118.6012,6.3463,36.0063,-23.6721,46.8091,-220.5272,10.8305,38.9111,-16.3466,-90.4574,128.4646,-112.5140,112.1989,-142.4312,61.2337,85.4017,52.0593,-0.5790,52.9116
-3242.1875,-17.3948,91.8920,13.4705,79.1505,19.6169,53.1220,-30.4467,54.2585,9.0652,-45.9615,-157.4749,97.9516,-74.2351,81.7083,-64.0956,-79.5173,-83.9262,24.2368,7.8146,32.2017
-3234.3750,-102.8862,41.8863,-37.7153,29.0063,-31.4020,39.1423,-7.6617,-32.6123,104.9056,-59.8770,-171.8024,194.1569,-85.4878,67.9382,-43.0849,-167.5764,113.4571,45.1277,99.9065,54.6625
-3226.5625,-51.9837,58.2900,17.4928,10.2722,23.9787,21.5690,10.5276,-14.0747,160.1400,32.6060,-153.7360,66.7679,-76.5066,13.5799,-62.6943,-74.2251,-12.7600,-9.5731,80.3922,-2.8442
-3218.7500,-6.0343,-36.2481,61.7507,-14.3956,32.4109,-43.9462,54.7813,-5.4772,168.3941,4.1355,-145.6310,1.4282,-22.5792,-51.7152,52.7407,-66.8006,-1.9399,1.7793,20.9094,6.8882
-3210.9375,-49.8491,-44.5289,-17.7604,-57.8089,-10.9242,-50.2113,-24.7196,-48.6352,197.8799,-39.0964,-79.2793,68.3604,-0.7867,-21.7321,118.4296,-36.1149,59.1545,28.3950,47.6692,24.0376
-3203.1250,-10.7105,-39.8460,57.6701,-18.2543,28.6877,-10.5124,87.7435,-8.8428,127.2929,-36.3796,-76.9853,-1.7602,-10.1581,-54.7837,9.0769,3.5303,-41.8223,-72.0309,17.3630,-67.8026
-3195.3125,-7.1274,-70.7095,25.5435,-84.2342,-4.2599,-43.3563,18.6603,-115.5952,205.1386,-106.2133,-36.2516,75.5742,-17.2827,-50.3738,11.1499,7.6355,172.6647,-67.9973,56.5074,-68.4839
-3187.5000,101.6554,-32.3685,105.6082,-46.0013,75.9851,-72.9877,61.7712,-182.1407,211.1811,-172.8495,43.6742,9.1111,50.7498,-79.7508,52.3978,-96.0481,105.3633,-99.7534,24.8538,-102.4855
-3179.6875,208.9446,-64.5246,215.1702,-43.2497,185.7286,-74.1049,134.3977,-218.1738,62.6957,-208.9905,43.0943,-64.8561,85.4826,-190.6096,13.1429,-170.2309,177.5429,-133.0046,27.6828,-124.3487
-3171.8750,193.3258,-44.5782,164.8143,-58.3835,135.5553,-87.1119,10.1207,-268.1141,123.2949,-223.0481,28.6094,32.2877,27.5435,-93.3387,-39.0014,-147.3095,302.8479,-77.1476,47.6053,-72.8517
-3164.0625,195.6073,-6.7213,165.3497,14.4053,136.2782,23.7961,84.7531,-158.1454,49.7763,-221.2137,-43.9791,-39.6724,28.6812,-55.1491,-3.2441,-72.4834,93.0349,-145.3856,-19.5850,-137.8437
-3156.2500,130.9380,-70.8099,95.9316,-48.7425,31.0445,-44.2378,53.4465,-188.1203,128.2916,-179.3324,-76.5310,39.4179,21.3717,-86.9018,109.5597,-30.5981,240.2743,-138.5674,22.2636,-137.4604
-3148.4375,95.7650,-70.3899,24.9963,-49.3843,-2.7017,-40.7664,18.6368,-186.5956,241.3008,-66.9530,-73.5910,5.0173,14.2563,-83.1343,147.8664,8.7970,169.0282,-139.2426,92.6133,-144.6111
-3140.6250,122.5970,-112.9643,52.0596,-56.0085,-13.4488,-51.2861,118.8476,-123.0557,231.2890,69.4245,-120.6622,-78.3942,1.4399,-93.3510,135.1775,-37.8021,90.7640,-179.9221,84.9464,-180.7256
-3132.8125,-5.9316,-170.8887,-43.2412,-113.9777,-71.5596,-109.1524,60.7085,-143.8718,392.9132,122.4409,-106.0880,-62.1451,-22.5054,-3.8997,149.1470,14.2564,138.1752,-97.9428,167.9265,-105.8406
-3125.0000,-16.2096,-180.5557,19.7062,-88.6775,-7.4256,-81.7573,161.8238,-6.4358,346.7706,149.7003,-116.2675,-182.6510,30.7031,-49.1844,210.3771,41.5725,-154.1750,-107.7048,123.1428,-112.7573
-3117.1875,-77.1366,-203.8732,-7.9985,-114.0155,-35.9438,-110.0020,170.3045,3.3550,317.9571,121.2979,-108.1087,-172.8095,45.9576,-77.1065,253.9484,87.2449,-74.1754,-62.1124,133.7065,-66.8880
-3109.3750,-84.3708,-177.4928,-49.0098,-120.6432,-76.7683,-76.5414,129.4846,35.8459,313.8378,80.5865,-112.2583,-177.2638,28.5999,-44.3093,248.2153,156.6183,-46.4586,-34.8060,160.9740,-40.0249
-3101.5625,-28.2004,-120.7068,7.3769,-28.8532,-20.1952,16.3322,186.0838,92.7445,112.0942,26.2780,-130.0158,-193.3262,11.4549,12.8988,118.8910,66.3924,-131.3648,-13.1003,112.6311,-5.4285
-3093.7500,-73.3369,-129.2200,-37.5467,-3.3573,-64.9327,45.9060,30.3896,11.3420,30.0376,-54.3363,-138.0777,-53.6821,-28.3318,116.8205,72.2758,21.8659,70.4463,83.3111,172.9848,92.6120
-3085.9375,-15.7181,-35.9747,25.2743,90.9018,-1.9221,146.2343,57.4493,75.6931,-90.2765,-101.2093,-185.3928,-100.2929,-47.2297,70.4984,-13.5859,122.0929,-82.9930,71.4785,126.0821,89.2962
-3078.1250,-22.6413,-77.2759,14.5499,84.6264,-11.4613,137.0228,83.9724,28.4955,-138.1651,-148.6432,-195.2625,-110.4650,-41.9065,60.6296,11.0128,185.7709,-19.9839,100.0966,84.6108,118.1712
-3070.3125,-88.0657,-37.0799,-50.6868,89.8567,-76.5136,145.3114,18.9881,37.7894,-129.5562,-176.5979,-150.6306,-65.1311,-30.2428,70.2775,55.1369,157.9515,20.5475,140.2201,124.6371,154.4173
-3062.5000,-59.7877,27.8200,51.7753,153.8027,25.1319,174.3107,157.7224,66.7892,-284.2577,-184.8508,-159.3012,-109.1158,11.5520,62.6368,44.9793,76.8297,-127.2436,99.0369,12.3535,120.1823
-3054.6875,-114.8643,43.3624,-5.1251,134.3998,5.4139,117.9588,102.1140,-26.5629,-304.3073,-241.4557,-142.3280,18.5459,30.4789,153.6452,133.4952,57.3625,28.6302,114.5083,-7.2786,127.2868
-3046.8750,-53.8407,70.0052,25.0675,197.1018,35.7877,185.7106,58.6065,4.1843,-312.2487,-247.9572,-112.2512,-61.7026,49.4814,147.7536,125.1336,50.9936,-51.3912,71.0846,-14.8157,84.7289
-3039.0625,5.4451,23.9027,8.5150,186.0666,19.4150,169.7122,116.3693,25.1806,-253.9546,-226.2090,-128.9204,-76.7156,12.5160,59.1150,34.0261,-2.1318,7.8279,24.9086,8.8819,45.1210
-3031.2500,-53.3156,1.7492,-50.0992,92.9809,-75.0209,111.6615,21.0777,4.1204,-56.7141,-174.5202,-76.6366,-61.7758,-11.9599,75.4392,47.8878,87.6846,90.0271,37.6858,21.5349,46.1017
-3023.4375,-9.0668,-59.4039,-5.7111,102.9073,5.5437,120.6178,102.7992,49.0635,-85.4823,-129.8347,-69.3588,-163.8544,45.7788,9.7699,126.7720,205.4982,-147.7824,-58.5433,-39.8156,-53.6034
-3015.6250,-100.2646,-115.0130,-64.7738,11.3892,-90.3482,24.1238,80.0844,-10.4439,-34.7120,-78.6099,17.4672,-75.3939,112.3674,61.6490,323.2224,109.8551,-63.0272,-44.2169,-25.6148,-54.3434
-3007.8125,-94.5559,-73.7219,-91.9409,18.7751,-80.3466,-2.4710,90.2714,36.9443,47.9552,4.5003,27.2039,-66.0406,151.5483,72.4300,441.5979,46.1086,-233.3615,-72.9862,-54.5207,-92.7745
