Time,Fp1,Fp2,F3,F4,C3,C4,P3,P4,O1,O2,F7,F8,T7,T8,P7,P8,Fz,Cz,Pz,ref
-4000.0000,-146.6594,-88.9701,-11.2695,-12.1261,-14.4622,5.7479,148.4587,62.4883,131.4720,105.3493,-138.4349,-83.1495,-50.1380,-32.4868,123.7789,12.3369,-112.5264,33.8370,1.6158,25.3603
-3992.1875,-205.3553,-90.8211,-105.2866,2.5060,-71.4903,21.7010,-89.9992,80.3736,187.8158,51.0849,-86.4481,6.5200,113.3236,57.0593,-3.8106,103.6594,-63.3424,4.5642,157.7677,5.4783
-3984.3750,-49.1908,-65.5756,65.5588,-15.0114,99.3449,8.5062,9.3738,67.1045,177.0178,1.6763,-29.6043,-118.9485,62.6463,-30.5424,132.4637,-20.1644,-83.3064,-75.7533,70.7693,-81.5742
-3976.5625,-236.8591,-123.7746,-59.4035,-59.3314,-25.6307,-42.4993,144.9724,54.0297,91.4109,26.4844,-81.5729,-24.2013,-25.8438,65.0574,119.9466,39.2185,-129.0749,19.4163,-9.0403,14.5753
-3968.7500,-76.9904,-65.3207,6.1782,-38.1028,76.9465,23.0523,-191.9063,83.5050,195.3654,-53.1591,91.0096,3.1107,150.2361,94.2227,77.9773,68.1601,-74.2887,-111.3480,83.7196,-103.7409
-3960.9375,-67.8718,-59.4734,89.0242,-27.6206,122.7850,-42.1496,40.4840,-16.7729,96.5625,-79.5455,61.8407,-62.3306,47.5561,-8.3648,163.2757,-69.6579,-65.2539,-55.0283,-46.2872,-57.8218
-3953.1250,-86.1745,-45.3503,-74.5426,-42.5417,-40.7923,-21.7512,-120.5304,4.5458,82.3471,-131.3215,153.2706,29.8489,104.4776,85.6566,2.1635,25.1374,24.3806,-43.9756,115.3118,-37.3061
-3945.3125,183.5429,47.2244,68.9012,-16.4624,138.6459,-62.3516,-84.5733,-35.1345,81.1384,-133.1022,257.7160,-48.9652,100.4170,-29.3160,74.0523,-89.0570,48.0184,-159.2817,70.9199,-151.8166
-3937.5000,-15.5606,-14.6162,43.5461,-72.1947,40.2823,-123.7606,76.6145,-59.6239,-88.8856,-8.6707,194.3597,-1.5781,37.5529,-18.0844,15.1391,-40.0509,61.8519,-67.2763,15.7139,-66.1323
-3929.6875,46.3759,20.3768,79.2376,-42.8707,149.9739,-51.1127,-179.1723,-59.0651,-13.8608,-82.2048,265.0634,33.8758,220.7660,54.2091,-57.7430,-3.9908,124.7417,-185.0094,151.5686,-177.4152
-3921.8750,125.9814,42.1488,164.6054,-66.8949,198.3352,-113.8132,55.6911,-157.8714,-37.1894,-69.1028,164.4302,-30.0236,10.6244,-44.8562,140.0464,-139.3014,134.2908,-167.3660,-12.9434,-166.0669
-3914.0625,15.2190,34.3819,13.6091,-34.2719,47.3294,-80.8635,-92.7938,-124.0371,-1.8892,-107.3512,121.4470,75.7419,80.1259,-12.2625,28.4779,-31.9497,165.4953,-140.8320,55.1954,-133.0699
-3906.2500,149.0629,39.0671,125.2126,-39.0425,158.9359,-43.3069,-236.7063,-85.6020,75.0184,-142.0058,231.0706,-34.8783,191.2505,-12.0648,68.5031,-30.9947,160.3032,-253.0115,86.9550,-242.4988
-3898.4375,-81.7518,-45.7186,67.1717,-55.4682,63.8952,-64.4106,75.7629,-31.8256,-53.7382,-87.3030,60.0301,-58.1471,21.7114,40.4816,49.8886,-14.6999,71.4570,-147.7610,0.0548,-153.5824
-3890.6250,54.9279,38.9347,-5.3805,-23.3930,64.3482,46.9897,-178.2958,6.4481,23.0042,-195.1103,132.4938,52.1002,169.6922,114.5332,-94.2408,23.1026,137.1204,-232.0673,138.6768,-226.1757
-3882.8125,237.5786,132.5426,151.0374,-14.3665,147.7683,-17.6592,-19.4142,-93.3382,-112.3008,-146.9774,176.9199,60.2951,31.6278,-23.4752,-45.4085,-151.1601,180.7438,-220.1193,-62.7550,-216.8402
-3875.0000,103.1130,116.9155,10.3460,-4.4397,7.0764,-10.4133,-46.6252,-86.2329,-250.7253,-101.9456,182.2451,176.4015,37.4544,19.4200,-219.6866,-33.5249,188.2766,-142.9164,-53.2883,-136.6049
-3867.1875,177.6095,130.1186,169.6095,37.4395,166.3442,0.7883,-216.9314,-74.1795,-126.1980,-161.9777,265.5382,113.4727,159.2558,-6.7282,-132.0273,-58.9272,193.7748,-242.8323,-10.8525,-235.4400
-3859.3750,-32.3969,1.7669,130.3840,-66.1830,91.1202,-111.5215,78.2805,-74.6376,-199.1867,-15.5025,151.3282,37.0421,9.5453,-8.3870,-20.8598,-22.8263,89.7770,-125.2905,-112.9322,-126.7820
-3851.5625,-5.8672,-0.5625,14.6880,-72.2615,11.4305,-43.2815,-145.9830,-5.5458,-92.6347,-55.4784,216.6806,67.1828,150.4038,59.5206,-135.1585,118.8468,82.3369,-141.1570,92.5520,-132.5811
-3843.7500,154.5465,27.8936,111.8594,-49.4929,108.6094,-93.1996,-9.4116,-17.6123,-66.2315,-30.6100,201.8991,-57.8242,101.1228,-27.7251,1.3986,32.3608,31.7612,-151.2477,-25.1123,-145.5535
-3835.9375,21.1973,-7.2592,-28.7256,-109.4843,-68.9671,-86.8805,73.4282,-11.4460,-131.5902,-22.4904,132.3679,57.4322,33.0824,14.2791,-63.7898,113.1187,-29.5567,-36.3766,20.4677,-29.2764
-3828.1250,256.9105,87.1948,39.7364,-83.4255,36.5083,-55.5088,-150.7266,-15.2354,-60.8919,-99.3359,309.9062,88.7641,138.1169,9.3449,-28.9441,70.9396,31.1899,-127.6756,48.1170,-107.9696
-3820.3125,178.3789,67.4787,65.9634,-88.6168,26.7421,-139.3931,99.8805,-98.2894,-179.4577,-34.4362,261.2020,76.8554,-57.1053,-0.8442,-0.3428,-48.4968,24.6934,-18.8495,-133.5024,-7.9264
-3812.5000,72.7852,51.1968,-42.8751,-50.8610,-46.0847,-101.3291,-117.5779,-59.4078,-139.0957,-31.5951,260.4557,150.9227,91.6352,72.9278,-180.8096,100.0252,61.1625,14.0050,45.8397,30.0614
-3804.6875,205.6313,66.4193,100.7056,-56.7012,97.5126,-141.8587,-81.6642,-26.1408,-103.3409,3.6215,218.1294,35.3852,86.7961,-3.9044,-34.8757,59.9363,19.0540,-22.9513,5.5889,-10.5758
-3796.8750,-1.2741,-3.8169,-45.4626,-121.2887,-85.6456,-178.1421,30.5112,-25.6450,-174.3584,78.0801,142.0553,108.1062,-22.8020,31.5106,-32.6944,133.0915,24.2098,124.3349,-23.4287,136.0331
-3789.0625,96.7811,26.5475,-10.6825,-90.9228,-13.8466,-69.4780,-298.4094,47.7886,-63.4319,5.4657,286.9542,69.8028,122.5806,30.8895,-104.5846,96.1996,123.3417,46.3089,113.5242,61.5695
-3781.2500,88.0077,45.4987,53.2719,-62.4080,13.1239,-114.6714,-49.1737,-34.6533,-180.3630,34.9924,165.0136,58.6509,2.1119,-52.5921,-38.3250,-60.5561,114.6419,119.5774,-103.3868,125.2361
-3773.4375,98.9870,86.4061,-82.0359,-15.1488,-85.1669,-67.1239,-219.1991,-59.3608,-204.5697,-63.7380,136.8361,179.2647,85.4018,67.6835,-208.3374,-12.5542,125.7099,157.6985,-19.5406,172.6468
-3765.6250,339.8086,151.2766,65.4699,17.9140,62.3649,-30.7748,-252.4647,-95.2852,-127.9802,-170.6963,173.4787,68.6895,49.5147,-5.2422,-58.5543,-84.7615,122.6053,85.0504,-57.8782,99.8271
-3757.8125,36.4296,55.0340,-33.2185,32.7704,-109.3001,-55.6358,-54.9049,-119.4345,-224.6183,-47.8676,72.9221,114.9293,-85.5805,6.6265,-80.9644,-72.1820,31.3145,214.7207,-111.4243,220.8003
-3750.0000,47.3597,65.2246,-15.6107,80.9257,-18.6602,71.8069,-329.0843,-101.2913,-130.9673,-138.7579,87.6918,132.4906,114.6572,59.8035,-171.1053,-18.2945,42.3433,118.6923,41.3482,128.0566
-3742.1875,98.9220,57.0796,40.6203,65.6839,1.5967,17.8496,-122.6800,-153.5633,-182.7314,-81.0677,34.0884,40.6503,-48.4915,5.5732,-39.6544,-106.8184,-9.0081,143.7349,-113.2864,147.8923
-3734.3750,-29.5627,21.7982,-129.2111,43.3875,-132.2117,29.8337,-182.3317,-140.9016,-168.5735,-102.4326,-29.5697,125.7888,0.2991,91.3042,-134.2709,14.6108,3.6108,187.2250,-28.9712,196.6760
-3726.5625,132.6910,52.5651,10.6626,67.7953,7.6900,61.5192,-296.3307,-146.5500,-62.7186,-181.1162,72.4929,8.6547,29.8005,85.7373,-28.1994,-27.2626,60.9551,69.5283,-39.9400,80.1326
-3718.7500,-61.9964,-1.1750,-46.4102,50.2458,-86.3576,39.2394,-58.2667,-204.1680,-191.8381,-90.7508,-23.3865,59.5894,-137.6623,100.2171,-47.0880,-12.0940,44.3675,164.5860,-231.8769,168.6341
-3710.9375,-17.8280,49.0750,-141.6448,97.5541,-107.5619,164.8177,-371.3979,-114.9398,-137.1281,-183.5518,26.6044,184.3934,59.7499,151.5592,-139.1683,77.9361,53.6483,94.9372,-43.9521,109.9770
-3703.1250,13.5869,50.9661,2.3390,95.0693,-36.5507,89.5995,-187.3567,-152.5238,-211.2361,-112.1745,-13.1891,108.4044,-51.6295,113.0977,6.9432,2.1497,50.1505,100.3274,-150.8316,107.5028
-3695.3125,-244.3435,-26.8556,-119.0390,86.2399,-157.9039,77.0285,-160.6689,-90.4729,-257.7309,24.8399,-64.3271,169.0891,-64.3648,137.2950,-149.3186,138.0094,41.3228,165.8211,-89.0749,168.6822
-3687.5000,45.7558,71.2390,-27.4137,133.4147,-30.2492,95.4619,-360.0361,-72.4339,-128.2365,7.8326,62.5593,112.8052,-10.0756,81.5007,-129.6050,82.8719,86.5214,28.0260,-42.2963,39.8454
-3679.6875,44.2697,79.4628,-65.3754,97.9929,-105.1842,56.2866,-67.9945,-111.0160,-238.3702,44.2172,-14.1468,109.9277,-195.3986,42.1017,-128.4948,-29.8759,85.1345,106.1917,-181.1339,110.4064
-3671.8750,20.4784,105.9587,-158.6532,147.2803,-124.4344,146.8238,-341.2888,-56.9022,-218.8307,-47.7122,36.8604,236.7784,3.9951,132.4153,-256.7255,98.0870,98.4682,39.5194,-27.2635,53.6675
-3664.0625,112.2840,111.3312,52.6304,135.1268,13.8817,138.9165,-238.0694,-64.2494,-189.7643,-91.1095,64.4396,117.1921,-78.0439,87.2841,-116.4319,-20.4083,85.3722,-34.0747,-143.8432,-28.5402
-3656.2500,-103.9989,44.0582,-100.1980,60.8761,-138.9170,94.9033,-132.9475,-70.7078,-229.8327,-22.6092,-18.0824,220.5349,-120.1968,154.0583,-157.2607,46.9957,81.1865,31.8109,-111.5333,38.1531
-3648.4375,75.0011,88.6191,-50.7890,66.8843,-53.4698,144.1492,-301.6363,-20.9162,-69.6598,-82.8776,103.6632,158.1560,0.9130,129.0952,-142.8629,60.6562,121.2785,-109.0085,36.0522,-96.9224
-3640.6250,-34.6208,22.6496,17.9817,29.2459,-20.6636,66.7401,-9.9766,-61.7883,-145.1636,-11.8097,60.7706,43.1341,-113.6406,51.4808,-71.1180,-17.3487,117.7354,-62.2964,-107.0222,-64.6574
-3632.8125,-32.6905,37.0383,-85.7176,33.1572,-51.3225,108.8875,-185.7923,-55.1169,-137.1532,-78.2021,102.4389,121.6917,113.3688,94.4300,-247.8701,63.2112,120.7607,-101.4901,73.4618,-95.8445
-3625.0000,204.3796,107.0166,95.6950,61.1754,130.1316,70.1421,-112.5523,-93.3551,-101.0542,-78.5160,135.2312,8.3683,73.4961,-18.5140,-100.5414,-86.1326,111.9084,-211.9653,-3.9531,-208.9559
-3617.1875,23.9527,38.0808,-21.3972,-11.2992,-23.9221,26.8952,103.1885,-100.1041,-142.4839,-47.3412,-19.4771,38.5665,-42.8950,11.0436,-104.7297,-55.9736,74.5746,-102.5029,-5.8824,-105.5694
-3609.3750,189.0556,97.5614,11.9987,13.7373,45.5211,59.1597,-156.6275,-66.3624,38.5703,-160.6844,84.3308,33.2915,136.2352,6.1118,-107.4539,-59.2992,134.7675,-227.1402,161.7042,-220.6991
-3601.5625,161.1435,66.7527,93.3609,-46.2676,90.9276,-42.6290,148.4930,-131.6871,-24.4526,-114.0873,18.1057,-32.0255,-2.6857,-58.8742,13.7559,-124.6857,107.9304,-173.3493,-3.7761,-175.8943
-3593.7500,40.9344,36.4842,-32.5916,-59.5664,-34.9834,-21.7166,24.2887,-110.3239,-38.8181,-128.8034,37.5945,62.3895,129.0963,35.8515,-147.3738,44.6368,129.8185,-122.4358,124.4425,-118.3886
-3585.9375,256.6261,91.2542,124.3108,-53.0025,121.9654,-11.9412,-38.1220,-100.1186,82.6508,-154.6944,82.9668,-39.3291,174.7390,-65.5648,-62.6739,-19.1935,170.5810,-188.0462,60.5202,-183.0551
-3578.1250,62.4881,10.7667,27.3614,-104.2847,-11.9407,-73.0248,196.6202,-160.7780,-12.7722,-66.4399,-16.5071,-26.8800,3.5123,-52.8338,-10.8355,-6.8755,117.5088,-23.1115,-25.2671,-23.5730
-3570.3125,73.4258,20.0719,6.4503,-56.5078,4.1963,-57.0499,-78.6410,-106.3880,151.8263,-49.1614,72.0868,25.6581,167.3569,-37.0376,7.0039,47.5045,95.5149,-92.2774,129.0118,-81.0516
-3562.5000,53.5169,-25.5325,95.6559,-109.6209,93.4470,-114.9769,159.1723,-164.9170,132.5011,41.1919,-24.2005,-69.6868,71.3006,-95.1410,207.9301,-47.0336,40.6501,-33.0282,-29.6181,-29.4435
-3554.6875,-42.6848,-48.8859,-79.4520,-134.0294,-45.6188,-107.2009,94.6727,-119.7600,68.8451,14.2327,-17.7794,48.6938,116.9362,23.4649,34.5242,108.1302,-19.4947,40.9523,52.4446,51.8681
-3546.8750,249.2567,44.3526,47.5416,-121.3238,119.4214,-52.3107,-32.7873,-64.5059,87.2734,-77.6516,108.7728,-8.8082,170.6982,3.1795,53.1815,52.3995,-7.5175,-56.0602,64.6170,-41.7403
-3539.0625,79.3241,-24.2453,13.6404,-148.5141,11.5638,-123.3295,228.8584,-99.1700,-56.2374,-37.4417,73.4332,-43.1931,-11.4561,-31.0048,130.9172,18.7586,-36.4209,67.1788,-33.1300,70.7509
-3531.2500,92.7062,3.0187,-77.9792,-99.3971,-43.0076,-68.0419,-82.2411,-79.5410,74.5276,-127.9494,127.4055,48.7544,191.6998,61.1232,77.9192,111.4265,14.0057,-2.0342,159.4402,15.5379
-3523.4375,202.5887,32.6416,76.8586,-92.8245,111.8868,-60.3032,111.0785,-145.4738,46.7289,-119.0223,60.8500,-53.8366,125.3107,-78.2955,198.3592,-27.4637,18.9032,-21.5462,-10.5426,-14.2419
-3515.6250,-34.3228,-29.7134,-25.1170,-47.0502,-27.0390,-15.3683,120.5930,-100.2117,-16.9079,-109.8998,30.5002,-9.2018,97.1138,-33.5043,97.9587,54.8563,-5.9824,67.0291,71.6677,67.1840
-3507.8125,178.6081,44.4135,93.7054,-8.4641,128.8417,29.3782,-53.1480,-54.1507,66.2401,-173.9976,110.9793,-74.7453,215.7397,-24.9071,70.3172,-11.0175,66.9517,-37.2452,145.6920,-35.6077
-3500.0000,82.8731,-2.1707,102.8357,-67.5749,101.0272,-72.5811,214.4117,-119.8042,-34.3364,-16.8060,7.7663,-103.9770,39.6518,-91.0177,80.9677,-38.6064,43.2001,51.8288,-19.0004,45.8972
-3492.1875,147.6514,42.9878,-9.5600,-70.1737,25.6953,-37.0292,-80.5651,-46.9629,39.5638,-17.1312,79.0663,41.3277,185.0781,-18.6152,-66.9237,70.3142,38.9717,-4.7553,118.8177,6.9002
-3484.3750,279.9337,87.8778,133.5072,-43.3074,131.8232,-42.0199,26.8676,-51.6804,72.8947,-21.0274,35.8411,-36.9008,106.9611,-133.7576,77.6085,-44.3252,30.2196,-77.4660,6.0881,-71.6639
-3476.5625,46.7269,5.9532,35.0604,-27.9353,-3.5661,-29.5142,150.7953,-1.9021,12.6876,28.5755,-26.8819,-61.6080,45.3200,-122.3941,-19.3852,-31.4665,9.9876,19.2160,21.8439,13.2792
-3468.7500,198.4111,21.1917,128.4621,-14.6966,126.8976,26.8543,-85.4854,54.7269,180.3048,-23.9947,65.2752,-189.4435,174.5480,-139.1662,1.4184,-11.7509,57.6293,-111.8412,140.4644,-114.9427
-3460.9375,141.0334,-18.2417,177.7858,-71.5518,139.2761,-70.8799,222.1299,-6.7546,83.7846,-10.6804,39.3473,-250.3691,3.6798,-201.0394,126.0962,-109.1480,35.1838,-53.7168,-56.0372,-66.2715
-3453.1250,125.1692,33.8636,15.5936,-15.8995,14.1356,-12.1077,-11.7885,53.2544,70.7320,-23.8845,60.9316,-80.7566,136.3162,-104.4010,-33.7662,-50.0373,91.2637,-79.8715,105.9628,-81.0941
-3445.3125,291.9062,100.2967,160.9564,12.3183,196.5542,-50.7779,-12.2049,50.8019,106.2179,-24.5671,94.0950,-120.5742,60.5126,-180.2072,74.9018,-198.3829,82.9230,-191.1013,63.5148,-194.3819
-3437.5000,42.3674,23.8632,81.0060,-24.7611,79.6602,-93.7507,203.0824,45.0350,-9.6335,6.4422,-60.0304,-89.6748,-56.6111,-187.3109,33.2477,-168.0377,45.3026,-74.7338,97.7521,-90.9602
-3429.6875,154.4231,62.3585,92.5907,17.7253,165.3096,-8.1620,-4.1394,93.8183,77.0419,-91.0194,24.4196,-115.1982,138.8324,-138.8515,-26.9034,-156.1373,87.2542,-177.9130,245.5527,-189.9951
-3421.8750,134.5252,13.2948,219.1890,-34.7822,180.9653,-66.5680,233.6194,36.5918,-16.3080,-37.4965,-71.1034,-246.7127,7.2752,-196.3934,136.9272,-213.2500,69.2252,-115.6475,52.3379,-138.0352
-3414.0625,-23.1706,-15.2824,54.9696,-15.0871,53.7998,-9.7729,107.5589,92.5591,-32.4915,-53.7818,-52.4151,-115.9917,100.9165,-102.7214,10.9157,-83.1568,53.4156,-102.8045,142.3266,-118.8647
-3406.2500,151.6346,17.7715,133.2036,-15.9276,206.0958,-41.5208,75.8923,60.9726,83.7592,-47.6385,60.7481,-185.7988,179.0240,-172.5909,90.3217,-151.6170,17.0837,-215.0843,142.7734,-225.2582
-3398.4375,-61.0811,-51.9306,54.8863,-51.3074,53.8369,-83.8205,293.6769,56.8235,6.4198,21.9478,-54.6341,-153.1353,-10.4424,-177.0112,50.1520,-82.6362,-18.7783,-102.2494,37.6482,-120.1935
-3390.6250,15.4397,-6.8605,-6.2476,-8.4724,65.7657,2.0941,-24.3909,105.8705,130.2566,-75.2836,-43.7995,-104.2430,149.3064,-91.2158,-9.8701,3.5523,58.5870,-211.3636,220.7345,-218.9308
-3382.8125,73.3593,12.6712,129.9844,-19.2756,166.0607,-44.6372,186.8752,21.2611,46.4169,-48.1815,-129.5930,-151.9982,-8.5898,-139.0728,127.4376,-116.9238,47.3191,-215.1035,34.1609,-230.3265
-3375.0000,-119.4193,-24.6854,0.4977,0.2232,36.6334,-27.0639,131.4341,38.9499,-45.1564,-29.7836,-112.0758,-23.4313,8.8116,-10.6205,-74.9937,11.9053,31.3616,-164.1856,53.8823,-176.4102
-3367.1875,84.9075,40.3862,110.0569,29.7870,146.2599,8.5788,-89.0156,38.6904,65.3056,-67.3678,32.5169,-24.7933,118.2790,-12.1014,-37.4071,-26.2150,24.4734,-287.9641,48.6690,-288.4554
-3359.3750,-91.0297,-25.7384,33.3178,-3.9390,-4.4194,-68.0803,166.2365,-0.8809,-10.5645,77.7373,-82.1862,9.5595,-105.5785,22.1166,-3.1353,8.3516,-79.6934,-177.1159,-19.8636,-181.7947
-3351.5625,-2.0944,34.0409,-91.5916,51.1967,-92.2650,28.1221,-104.7043,95.3995,86.3928,27.6834,-23.0261,105.7941,63.4136,81.1971,-163.0573,104.7762,-59.9874,-241.6639,140.4656,-233.2796
-3343.7500,102.7912,86.9596,55.4121,86.2382,18.8029,-8.7733,7.2262,21.5769,14.2342,65.5195,13.0615,68.9356,-46.6844,-65.8270,-89.1051,-41.9042,-25.3645,-237.1181,-70.3103,-233.8728
-3335.9375,-63.9676,67.5685,-87.2412,96.6319,-161.7942,32.6826,-24.4993,63.1039,-165.6146,70.7025,-20.4898,183.4481,-116.4355,11.5089,-229.8415,-1.2290,19.6173,-84.4347,-94.7525,-83.1017
-3328.1250,141.2244,150.5564,-14.9957,162.9398,-52.4886,68.0496,-282.3869,98.5333,-91.5781,69.7574,13.8874,182.8833,-80.2719,47.7607,-231.7144,35.3462,50.5197,-169.1512,-64.2767,-158.4371
-3320.3125,-19.0925,111.7819,-40.2968,143.7059,-114.7334,5.8671,-12.8234,73.4046,-226.1205,192.2548,-159.2713,230.7687,-289.6819,21.4521,-181.1414,9.3528,-4.1099,-39.2641,-258.3688,-37.3160
-3312.5000,-67.8356,139.3880,-200.0707,167.0349,-200.4473,66.2436,-282.7424,133.8187,-165.1408,180.2802,-172.8730,401.2318,-192.5376,155.7073,-341.0642,106.9111,53.8405,-28.7844,-129.9018,-14.6331
-3304.6875,17.2776,177.4008,-74.0286,217.1838,-74.3452,120.4336,-227.9014,77.0302,-184.3887,161.0759,-230.6480,345.5031,-249.5772,98.7648,-250.2250,-22.7444,68.6163,-42.3514,-254.6412,-35.1571
-3296.8750,-124.2944,149.4371,-226.6952,217.6371,-263.9521,149.9313,-160.7590,107.5374,-301.3777,191.1598,-349.1137,412.0884,-366.3257,165.1309,-366.1214,6.8964,67.6980,101.0678,-290.0988,104.6378
-3289.0625,101.7770,250.9128,-168.7712,304.7010,-205.9646,245.0405,-469.0776,128.6481,-205.7804,29.8239,-254.9510,433.2910,-235.4679,224.1129,-418.4498,29.1445,119.3989,0.8262,-202.9352,15.0363
-3281.2500,3.1416,213.6751,-164.5831,277.0184,-237.7171,176.3958,-170.1487,97.0008,-347.9587,108.7299,-324.5254,401.7485,-451.3777,191.3415,-339.5407,-3.3771,92.3651,89.5252,-335.5409,92.6928
-3273.4375,-68.2358,202.3739,-314.1644,276.5984,-314.2354,211.0063,-281.9897,167.6014,-348.9220,69.8681,-363.8354,473.4817,-343.0340,225.8338,-451.4309,105.3604,55.5980,121.4633,-89.8956,126.6171
-3265.6250,83.2360,194.6397,-151.9400,252.9955,-151.9443,226.4317,-266.0718,183.0018,-260.0993,48.7827,-313.3176,268.0268,-291.8735,130.1262,-288.5572,9.8973,67.6519,68.2947,-113.4488,67.3382
-3257.8125,-161.0231,99.8294,-229.4687,220.6489,-265.4143,186.1016,-48.8914,179.6436,-374.0607,155.9460,-391.5424,263.8322,-332.4783,126.6676,-402.4587,43.6824,-0.0386,222.5920,-109.7690,210.3290
-3250.0000,35.2955,143.7894,-202.4641,242.8557,-202.3476,212.3297,-316.2120,205.8485,-273.4806,146.6449,-255.1925,217.2035,-122.5194,189.7755,-485.8450,107.0338,20.8348,125.1960,16.4784,125.8765
-3242.1875,22.9626,117.8779,-108.1503,194.3611,-144.9759,159.8572,-74.2418,153.3504,-325.6098,204.6365,-308.5267,164.8738,-285.2751,137.1796,-279.9318,-18.3268,-26.9760,189.2729,-171.9911,182.7300
-3234.3750,-116.8568,87.3435,-293.3563,197.3671,-293.1284,232.8857,-184.7903,152.3471,-289.2652,167.1226,-310.3510,275.0677,-249.5397,247.0932,-354.5556,17.8180,-24.2650,256.1861,-27.9681,255.1035
-3226.5625,47.8817,121.6181,-190.0617,221.8925,-115.7693,262.4244,-227.8869,145.8445,-148.4418,87.0896,-170.6447,194.7746,-220.2893,166.5139,-213.7229,-62.5420,-70.0290,173.7386,-3.4377,173.9716
-3218.7500,-169.9051,12.1304,-240.3172,144.8726,-202.9684,175.4150,53.4722,132.7879,-235.2053,148.5024,-184.4819,180.9397,-307.6092,153.3831,-152.4647,-38.4575,-182.3326,314.0348,-115.4720,307.3073
-3210.9375,-146.6745,-7.1320,-249.5910,133.8656,-176.1826,203.4163,-212.2080,196.7446,-96.9814,66.9008,-47.2999,172.1253,-58.9174,217.2639,-198.2453,62.6345,-193.6257,257.9586,84.5096,260.6546
-3203.1250,-120.5010,-41.7432,-112.9561,55.7639,-112.4887,84.3205,-37.9999,149.6033,-32.8655,166.1929,-132.1949,53.2041,-179.3295,134.0405,12.8705,15.6148,-167.0089,288.6507,-64.6193,286.9063
-3195.3125,-305.3696,-107.1733,-308.3880,47.6159,-271.8660,72.1717,-49.8476,175.4120,29.1709,228.4346,-181.1269,115.2465,-154.8058,159.7764,-36.0922,114.5502,-211.4303,345.7519,33.1936,348.1337
-3187.5000,-119.7372,-68.3002,-145.3710,56.9246,-107.7914,87.4856,-217.3010,154.6753,154.6556,135.1034,-55.5763,21.7488,-64.8149,137.9718,54.3671,56.9379,-166.3875,210.1322,42.4624,216.8146
-3179.6875,-294.4763,-140.0537,-146.7482,-10.1677,-146.1155,14.3958,113.8550,117.5309,8.7148,171.3639,-167.4131,-16.1443,-213.2388,101.7605,53.4175,56.9112,-198.7383,297.8802,-24.6929,289.1140
-3171.8750,-238.8972,-78.5189,-231.8451,45.0513,-157.1562,75.6155,-191.7237,179.6883,71.0622,86.9024,-104.9322,82.2839,-41.3528,125.8634,-67.2663,155.1910,-107.7784,202.4326,170.4621,203.7302
-3164.0625,-35.1659,-11.3953,-88.8293,37.3861,-51.0850,34.9463,-11.2282,101.9377,65.4957,83.5207,-110.3243,4.8154,-155.3670,-24.9335,111.1330,40.5559,-80.7036,126.9320,22.7062,125.4496
-3156.2500,-222.9291,-95.1338,-213.3227,-42.7799,-175.5278,-14.2261,11.7744,87.6881,16.3933,143.6393,-124.2078,64.8549,-169.9000,-1.2254,98.0014,174.4264,-126.1235,182.1249,48.4371,184.6931
-3148.4375,-92.9506,-79.2789,-36.1172,-19.2399,0.7351,15.3103,-178.5732,82.1481,192.9791,27.4437,-22.3706,-14.3976,6.2838,28.1963,128.5320,168.0071,-137.8278,60.7276,71.8807,67.6424
-3140.6250,-262.3897,-154.8871,5.6507,-11.1529,-30.4519,-16.6120,82.6351,49.1582,124.0936,68.7978,-90.9726,-82.0983,-98.9951,-39.8319,132.6001,173.1266,-200.9796,150.4416,-166.1445,145.1576
-3132.8125,-236.5726,-108.6827,-77.3536,50.1885,-113.4086,84.7221,-181.9350,40.4226,152.4368,-12.6100,-63.3064,18.4755,38.9749,60.4091,-59.1095,274.5006,-138.8717,131.9664,1.0876,135.9467
-3125.0000,-3.9097,2.5982,59.4507,108.3448,60.4461,75.8669,-44.7332,-42.5124,143.5710,-59.2446,-37.8140,-27.1493,-80.2524,-22.5457,40.9654,44.6599,-80.9478,54.2262,-81.8847,52.5410
-3117.1875,-175.2796,-52.7661,-51.8013,76.4526,-50.7641,36.9652,100.4340,-79.4997,-4.3801,-21.9323,-38.3644,9.1736,-118.5419,-22.5497,3.9564,42.7666,-78.0678,166.9718,-113.9286,161.1149
-3109.3750,35.4930,24.0604,26.0372,112.6688,101.1186,80.1715,-150.3483,-75.3808,73.7533,-163.5298,39.2160,-22.3941,69.2918,-18.4444,8.0026,11.9793,-8.0715,55.6368,26.1388,55.8000
-3101.5625,31.1421,-14.2472,166.7385,38.7351,130.8591,-0.7771,136.7272,-117.4144,-116.2794,-59.2763,-40.3312,-138.1155,-84.0452,-60.4928,111.8918,-66.9764,-46.2210,135.2861,-116.9631,122.3495
-3093.7500,-39.8602,-42.9661,17.7658,3.1573,18.9282,33.6252,-11.8603,-46.0943,-117.9759,-98.6811,65.4841,-66.4657,95.9530,45.8227,0.1073,3.4246,-47.0147,161.7787,92.2865,156.2775
-3085.9375,129.4405,10.3806,124.0464,32.8349,125.2531,31.2866,20.7628,-50.5199,-11.4238,-174.8511,209.5737,-142.5598,130.2096,-30.6088,143.5576,-145.9284,-18.5458,85.8318,121.7870,79.4616
-3078.1250,-79.6424,-49.8740,10.9226,-35.8852,12.1645,-44.4549,276.0007,-89.3490,-51.3038,-104.4210,95.2758,-72.0601,-56.9448,-32.4418,139.5890,-112.6858,-16.4752,198.4996,53.8668,186.2753
-3070.3125,19.7435,2.8922,9.2364,29.8536,84.5120,-45.7338,-18.3544,-89.7160,169.2570,-140.5520,132.4558,-36.1016,126.3667,-33.8107,66.0325,-39.9859,48.0570,74.6514,153.4122,75.5534
-3062.5000,41.3609,-13.6455,141.7633,-19.2043,106.0711,-132.8094,223.4886,-140.8837,117.0078,-81.4916,42.8504,-159.9478,0.8694,-157.9824,198.6717,-127.0995,105.7915,106.6675,-34.8581,97.0448
-3054.6875,-62.4230,-59.2523,-5.1231,-51.6579,-3.7886,-96.2813,112.9307,-67.4479,79.3335,-81.8392,78.8481,-123.1755,72.9636,-84.5373,86.8802,18.3894,106.1250,139.2444,105.4567,133.1656
-3046.8750,224.3847,12.4715,114.5427,-82.5468,115.9102,-123.1877,49.8760,-95.4540,163.2041,-108.6598,199.4300,-185.8498,156.6225,-111.5366,207.6164,-81.5728,112.0177,29.3532,111.3168,32.8434
-3039.0625,96.8631,-52.3565,49.8619,-172.7805,15.2448,-186.4471,316.4832,-121.8129,98.6898,-24.8254,134.6738,-175.8821,19.9124,-101.8872,179.9854,-70.8931,55.5633,153.2478,-15.1985,152.1985
-3031.2500,137.1113,-38.2771,19.9107,-168.2522,58.3153,-141.9442,-42.2015,-77.4049,290.9056,-90.2513,252.6869,-131.1497,246.9559,-93.4700,114.0602,9.5480,130.8646,74.2730,130.0434,86.3236
-3023.4375,159.4512,-49.7362,228.0211,-180.6692,156.4454,-191.3860,165.1495,-125.9409,278.1564,-66.6328,202.7619,-253.3714,87.0382,-217.0035,285.1764,-148.9641,118.2178,75.2433,-23.6759,73.5117
-3015.6250,12.3337,-83.5878,70.6567,-186.5390,0.1027,-164.2779,118.0547,-98.9179,194.9332,-75.4552,193.3936,-153.0295,76.6501,-115.9775,127.8178,-11.9153,111.1148,135.5328,6.1433,137.2853
-3007.8125,259.5935,-10.9421,225.6358,-151.0493,190.1056,-120.8052,-58.7332,-129.5367,239.0625,-177.9424,310.4080,-218.3289,231.6291,-109.5889,134.7876,-78.5137,112.3643,-9.7324,41.3138,-2.5795
-3000.0000,43.8162,-93.7185,216.5670,-155.6060,145.0508,-164.3826,264.4410,-210.2082,83.1222,-112.4819,228.3785,-262.6807,149.5412,-153.2486,199.7024,-122.1665,72.5597,68.8705,-104.5931,62.5337
-2992.1875,67.4430,-57.3919,134.8796,-131.7528,136.3755,-99.5459,-1.0123,-108.4638,222.5614,-193.6283,256.7579,-160.6246,251.8624,-88.4922,117.9806,-57.4012,96.1534,-21.6817,59.9050,-18.9256
-2984.3750,313.9011,11.6386,248.0077,-167.0914,212.5135,-132.8996,112.3176,-141.9159,224.7908,-154.9824,222.9524,-230.7696,106.9760,-158.9360,268.0487,-164.8419,96.5506,-93.9761,-80.8048,-89.5737
-2976.5625,168.7519,-31.2540,92.5184,-205.0265,94.0321,-140.8536,141.0602,-112.9584,143.3970,-161.9304,178.5486,-164.5101,62.4607,-55.9703,149.4934,-98.8746,91.3352,-27.2454,-15.1348,-23.7890
-2968.7500,269.0856,3.3653,204.4666,-140.5079,205.9938,-65.3450,-77.7951,-74.5323,292.4469,-271.4364,289.6163,-199.7953,247.4099,-91.5402,187.3583,-133.4444,86.5717,-175.6002,119.9951,-169.5395
-2960.9375,125.6818,-59.6299,234.6734,-178.7336,163.2082,-144.5875,283.6115,-116.8549,211.7191,-203.6905,172.9421,-277.8389,93.5985,-170.8591,254.4649,-176.7724,84.0547,-92.7481,-23.6543,-102.0154
-2953.1250,91.2146,-43.5282,89.8126,-142.0028,91.3528,-104.8688,101.9463,-78.2176,250.9222,-201.0033,138.2223,-165.9133,168.7347,-58.2108,182.4872,-27.1421,84.4883,-137.4019,152.6478,-136.5118
-2945.3125,282.6778,22.0770,182.8620,-91.3618,221.4052,-122.2421,158.1523,-94.6693,270.0266,-180.4239,158.4190,-256.0950,77.7693,-148.6601,312.3994,-154.6223,98.8220,-226.0869,61.8437,-227.0971
-2937.5000,76.9387,-35.5466,35.6989,-120.9241,74.2429,-120.8183,269.1766,-130.3173,160.9018,-106.0322,85.4169,-181.4838,4.5873,-110.3025,166.0986,-79.2966,104.9460,-111.7729,31.8198,-115.8475
-2929.6875,186.0162,18.5094,80.3249,-81.6852,155.8714,-75.5805,-17.0407,-85.1480,242.5769,-170.8493,204.2409,-136.0705,197.2172,-102.1362,99.5753,-34.1518,143.8643,-223.2666,141.6031,-217.7803
-2921.8750,90.0156,-41.8974,159.8616,-142.5467,161.4007,-179.4456,246.6452,-115.0743,138.1429,-54.7649,135.9813,-202.7687,55.7305,-132.0746,215.9630,-101.1160,117.6751,-134.0164,-60.7378,-137.7932
-2914.0625,0.1541,-34.9101,26.5252,-91.2576,28.0542,-91.1591,39.4698,-27.8417,114.8429,-76.5243,113.8772,-77.3084,143.3854,-80.8517,9.4745,60.0847,98.6330,-87.3529,96.0668,-86.6237
-2906.2500,249.9640,49.4780,179.8428,-53.3149,144.3671,-48.2130,8.9101,-20.9458,157.1969,-70.6345,156.4402,-144.2049,112.6938,-147.9707,88.6258,-44.0606,101.2371,-155.3468,28.5236,-153.7945
-2898.4375,64.3113,-11.6202,16.7065,-97.8256,-18.7763,-100.7233,213.9240,0.5094,31.0776,60.8120,-43.4498,-86.5552,-88.4681,-90.5322,72.3169,14.3477,21.3762,-19.2832,-16.4927,-22.3829
-2890.6250,108.9711,10.8121,-7.1494,-53.0328,31.3623,24.0756,-103.7922,124.2779,191.2544,1.5504,-66.0236,-71.5935,72.6808,-39.7742,11.2789,65.0717,29.8109,-119.6120,202.8005,-118.6502
-2882.8125,119.4080,-15.4653,111.7567,-77.4861,76.2566,-77.3735,162.2392,22.7991,89.1746,84.0390,-20.8307,-173.8929,-29.4320,-141.2696,166.9977,-73.4649,4.9874,-67.7819,-33.1793,-73.1495
-2875.0000,95.8799,-11.2967,-27.3037,-100.8865,-62.8219,-68.7686,60.3127,32.3750,24.1250,19.5802,97.4152,-91.1357,52.4875,-95.7041,-9.2513,-27.9444,52.2122,7.1998,13.8776,9.4367
-2867.1875,404.8292,66.2808,115.0880,-107.8282,116.5531,-72.6983,-55.2069,-45.5871,55.5245,-58.4456,240.1326,-204.9265,120.8738,-173.6827,95.9318,-105.9748,114.8906,-77.1051,5.3882,-68.5152
-2859.3750,219.4772,1.3176,61.1790,-153.0743,25.6171,-124.9351,222.0007,-62.8478,-34.4030,-1.7603,113.5490,-184.0222,-79.0650,-151.9618,152.8137,-85.3131,69.2597,62.8210,-110.4216,62.2650
-2851.5625,317.9198,43.1316,19.0425,-124.5173,20.4665,-57.3670,-41.0136,-30.2951,33.4624,-116.2748,255.7762,-151.3108,134.8027,-84.4297,36.4720,-16.8315,132.4229,11.1473,58.5742,20.8702
-2843.7500,415.9311,54.5211,119.4664,-131.4160,83.8700,-103.2527,133.5147,-40.1834,-86.1024,-89.2396,318.5671,-235.0664,14.2067,-93.3487,136.6914,-99.7999,89.1213,42.6420,-125.8978,48.0416
-2835.9375,215.1738,-19.5362,-95.8806,-156.0664,-130.4998,-59.8888,101.2972,39.1871,-117.4325,-82.9430,287.6132,-154.5665,-16.1538,22.9923,32.1447,52.4894,30.0589,155.7666,-80.1371,164.4984
-2828.1250,317.0428,-5.8101,-22.6275,-90.1103,-21.2681,14.0843,-117.3648,41.1719,102.8243,-46.0565,325.2853,-190.4633,94.1042,23.9413,68.1725,91.3921,-45.4027,36.8890,-83.7707,55.5689
-2820.3125,-58.4316,-137.0437,-13.7176,-42.5020,-86.3898,-14.2965,146.6435,48.8046,72.7089,109.4922,149.6090,-181.7234,-45.0092,31.5352,74.8546,98.9379,-245.2256,134.3548,-214.7827,137.3173
-2812.5000,-235.0227,-174.2769,-124.9285,25.0081,-123.6348,96.2262,-110.4709,159.3503,72.4943,146.9376,185.8452,-71.0779,100.7749,143.0392,-71.5818,246.4037,-317.1526,94.3504,-5.8902,100.9934
-2804.6875,-112.7925,-119.0177,-33.3230,42.3176,-32.0661,42.5585,-18.8057,179.7070,18.0832,203.1662,131.8997,-88.6443,9.3586,89.3517,-17.2228,155.6648,-336.2863,43.5141,-130.2062,47.4834
-2796.8750,-281.4294,-126.5018,-211.5760,49.7794,-210.3662,84.0406,23.0223,221.2195,-160.2071,281.5459,-45.8950,99.9408,-58.9254,203.8245,-158.7275,271.0733,-399.2812,120.8051,-122.3929,126.1587
-2789.0625,-137.9459,-38.7421,-165.7356,159.3443,-92.5678,204.6324,-262.0930,304.8395,-115.4054,181.0169,-74.5756,109.6375,59.9060,287.4059,-224.1515,243.5850,-325.1756,-18.0093,-14.4695,-11.0520
-2781.2500,-287.6063,-93.3131,-143.0359,113.7593,-104.9165,154.0725,17.6606,255.3058,-275.7688,314.3412,-197.3999,97.1689,-137.4319,237.8344,-164.7208,193.9388,-371.2300,55.3356,-130.7224,49.6090
-2773.4375,-352.2317,-96.4941,-246.3059,156.2265,-171.2376,199.5703,-157.5535,336.8353,-232.0997,285.7131,-152.1664,141.7560,-57.7256,282.3312,-304.2643,312.3519,-330.2422,23.9941,16.0727,21.3511
-2765.6250,-191.3798,-62.4403,-38.1158,176.1475,-37.0973,224.5286,-170.3445,288.8234,-206.9871,274.5275,-54.4647,19.7819,-32.5646,161.2834,-206.3635,154.2078,-309.8071,-56.9546,-69.6898,-63.4464
-2757.8125,-316.7502,-63.5654,-137.1295,190.8674,-173.1711,199.2875,-50.3138,226.6177,-381.0987,322.1518,-152.9744,104.6061,-95.6245,172.0350,-343.6743,127.8658,-260.5869,32.2616,-125.6795,21.5910
-2750.0000,-105.3252,46.7366,-94.3538,227.3976,-56.4542,206.8556,-299.5266,271.2306,-263.4147,256.5713,-72.6722,186.2371,21.1264,216.5982,-447.2112,99.3385,-225.5743,-117.1987,50.1407,-117.5516
-2742.1875,-249.3396,-10.1986,-27.0146,152.4813,-63.1804,127.9757,23.8102,228.3972,-270.1956,324.5368,-189.8074,180.4022,-169.5880,137.7004,-270.1922,56.3534,-265.0187,-74.6773,-60.5153,-86.1237
-2734.3750,-377.7229,-42.6116,-235.0427,130.2193,-198.2765,140.7477,-74.2146,315.2216,-258.3490,263.1602,-140.2956,304.2169,-83.6639,260.4647,-332.5439,216.0301,-287.8120,-70.5513,92.4714,-73.0138
-2726.5625,-89.5921,13.2781,-77.5636,102.4652,-76.8641,153.0269,-98.7695,253.5550,-100.0005,202.2849,-54.2746,169.5247,-35.2386,162.7305,-174.3994,118.2120,-246.1077,-174.0534,-6.0414,-170.3944
-2718.7500,-219.6285,-38.7720,-183.2411,41.5570,-218.6188,84.1492,88.5437,184.7488,-133.8098,206.2745,-123.4084,210.6731,-141.9914,167.8534,-134.3991,123.2471,-271.5718,-58.8144,-103.7309,-54.8948
-2710.9375,-161.3684,-20.0016,-192.6409,65.9473,-155.0868,112.5798,-177.8792,177.2567,-32.3154,88.5596,-21.2323,203.1351,107.5699,196.2946,-180.1199,225.6008,-178.7443,-148.2840,95.8817,-136.0772
-2703.1250,-175.7054,-51.9549,-60.6247,17.7395,-60.1451,24.4108,64.1001,89.1709,-47.4326,146.2437,-109.6427,114.9837,-55.4740,108.1348,24.5614,173.3497,-192.5290,-118.0052,-94.1257,-113.8461
-2695.3125,-264.1755,-61.3604,-229.7223,33.4277,-193.3235,39.1428,4.9866,29.9920,-33.6761,124.8357,-132.1506,202.7348,-41.6260,195.8821,-34.8733,225.0103,-141.4246,-73.3058,-43.2409,-61.6856
-2687.5000,-21.1315,20.5947,-46.3214,65.6187,28.0017,77.3803,-141.6616,-41.6756,77.5896,15.9206,-20.1441,130.9853,32.7299,124.1372,76.1922,43.1793,-74.8242,-183.2941,-11.8490,-170.0187
-2679.6875,-193.4426,-75.2015,-10.2694,-0.5453,-47.0323,3.2641,151.3622,-115.6911,-34.5059,88.6587,-94.4942,19.8802,-79.2883,50.0410,110.9190,4.9939,-70.5855,-58.1355,-114.8376,-59.6780
-2671.8750,-129.4563,-52.7513,20.0635,28.5921,-16.7839,72.4551,-149.3466,-47.3976,69.6906,-27.3123,47.4715,15.0840,135.9993,82.2580,-42.0746,74.1227,-8.0483,-104.6562,54.4795,-101.0185
-2664.0625,1.8534,-3.9932,157.7129,20.0308,121.7746,-10.0541,-11.7687,-91.7984,-13.8201,-35.9804,38.7493,-30.4259,15.5859,73.7732,21.2276,-8.4530,17.7801,-108.1991,-95.9195,-109.0519
-2656.2500,-185.2209,-32.3957,-44.0007,-62.8843,-44.0322,-26.9158,-29.5249,-109.5385,-105.7020,-15.9823,-15.3328,173.7137,-2.1926,239.9456,-107.8381,84.6296,75.2409,-21.4560,-3.6825,-15.4078
-2648.4375,75.3580,78.0695,11.9285,-13.1450,85.8052,29.8868,-194.6677,-125.6122,-12.9301,-106.3393,41.2460,156.5044,53.6850,149.7848,-15.2621,-5.6275,160.3421,-116.6659,81.2176,-105.1083
-2640.6250,34.9324,36.9537,38.8573,-52.4052,1.6361,-16.3161,53.2062,-171.6781,-133.1706,-116.6869,-5.1850,37.2838,-104.4671,30.6203,121.3360,-88.8867,190.4262,-3.6377,-65.9102,-3.7894
-2632.8125,7.4267,25.8477,-26.2867,-44.7142,10.3958,29.4378,-194.9907,-125.7736,-88.4685,-144.0818,77.3286,83.0182,125.3330,76.4185,19.8651,30.8300,197.4476,-38.5403,117.9149,-30.5007
-2625.0000,99.0783,35.6583,180.7327,-93.8677,144.3205,-55.6465,-25.0575,-137.7092,-101.6304,-45.3307,138.9953,-3.1106,38.2867,-9.6349,116.5378,-91.3072,182.6183,-79.8476,31.8824,-79.0571
-2617.1875,-33.0503,27.9686,0.9915,-119.7689,-36.5175,-88.4775,52.1401,-132.3899,-97.5726,-4.3266,105.9025,149.0044,-31.5262,32.5667,9.4539,-123.1911,192.0310,32.4454,41.0816,36.6631
-2609.3750,263.1690,164.4316,94.5930,-0.3121,93.9890,-30.9480,-186.3567,-148.7084,31.8352,-204.9739,237.1682,133.4740,136.0209,16.1264,-44.2912,-213.7149,275.7919,-100.9349,124.6448,-89.2606
-2601.5625,200.5278,125.6936,209.3519,-26.7050,134.6472,-99.2745,149.3092,-215.8774,-111.6115,-162.4504,131.5759,28.0822,29.6963,-126.1722,-3.8669,-281.0948,247.6895,-4.9550,-79.6619,-10.0220
-2593.7500,112.6158,86.4660,115.8379,-43.3582,115.0381,-80.8525,19.7156,-197.2852,-94.3238,-217.1668,186.7337,46.4447,231.1198,-107.7133,-60.7072,-188.7034,265.3285,11.1218,113.7848,8.9864
-2585.9375,246.2702,95.0218,293.8873,-85.4598,292.9910,-85.8809,86.6444,-239.1337,46.5194,-296.3330,217.4582,-69.6524,188.1011,-185.7074,154.0012,-304.7622,257.5095,-25.9465,70.7786,-32.4576
-2578.1250,35.9978,41.9715,177.0353,-119.4662,103.0289,-163.8131,264.6928,-243.8847,3.4454,-191.3911,139.2724,35.3453,71.1673,-153.6002,73.8050,-235.7209,222.7802,118.1790,35.8487,110.2187
-2570.3125,160.6699,81.5937,163.1205,-66.5091,162.0101,-104.7797,-44.3512,-183.6766,99.3239,-204.5179,272.0497,22.2995,277.1920,-130.5301,-14.4569,-175.7216,275.9977,20.5173,123.8779,23.8455
-2562.5000,169.5969,43.0249,242.4651,-126.3007,167.2491,-207.4933,218.8578,-250.2223,-5.5538,-161.3996,279.0770,-80.5102,136.4431,-197.2139,101.5571,-279.4773,214.4574,108.0641,-76.8641,104.7246
-2554.6875,46.2983,-4.4809,110.5950,-178.2950,72.2679,-190.4048,86.8613,-196.9576,-62.6501,-181.4715,294.8952,8.4844,224.4811,-107.0911,-29.6384,-189.4119,161.7055,156.7393,44.1835,158.4198
-2546.8750,222.6106,58.6878,223.3298,-143.6852,184.8942,-150.7102,15.4285,-194.0781,-61.1493,-215.9449,298.3238,-25.9276,227.1338,-103.3653,44.7610,-259.7326,160.5489,85.6230,7.8353,88.7074
-2539.0625,21.8482,30.3404,80.0167,-97.1384,42.4634,-109.0783,202.9801,-226.2529,-241.7161,-174.4614,117.6938,53.5964,10.7171,-62.6979,-24.8741,-219.1042,135.3355,247.4749,-86.5755,240.9564
-2531.2500,100.4671,100.5089,18.0898,16.8089,52.4289,12.9519,-152.0922,-176.0251,-119.8658,-272.5832,93.4700,138.5253,131.7116,59.3760,-160.1174,-133.0618,179.5146,177.1115,61.4226,180.6040
-2523.4375,116.7919,92.3204,143.8785,68.4554,142.1051,29.6785,46.5372,-196.1041,-177.2955,-219.0044,-36.0532,9.1381,1.3967,-32.8648,-71.6429,-226.3265,124.3961,208.6395,-132.8976,197.9476
-2515.6250,-100.2518,3.4984,-13.6969,26.7528,-15.5917,93.0487,-74.1842,-95.5356,-189.0888,-118.7699,-46.9369,72.4092,26.7233,67.5458,-156.5264,-88.9318,82.9245,270.1716,-0.5841,261.9568
-2507.8125,112.1232,65.1860,102.1300,28.4548,100.1203,62.8285,-215.5406,-88.5573,-72.4832,-149.1486,106.5850,41.0777,68.4580,36.3624,-40.0091,-82.1387,118.8539,157.3329,0.1391,159.3584
-2500.0000,-15.3740,32.3063,39.1083,-27.6964,-0.0250,0.7516,51.2754,-114.4244,-210.7370,-28.3723,7.2379,88.8889,-104.6851,-25.6702,-31.3221,-108.1985,95.9194,248.4224,-127.0114,243.9196
-2492.1875,6.8498,53.9845,27.8197,29.9041,25.5657,64.4383,-253.1853,-49.5280,-183.2453,-73.8476,70.6342,79.4594,104.9380,2.0608,-224.9030,-43.4868,188.7221,164.5167,69.5992,162.2372
-2484.3750,78.3310,45.6325,213.7989,30.7552,174.4234,-6.6234,-31.4078,-83.3804,-145.5122,-71.0752,36.2848,-100.7344,-4.1883,-141.9568,-76.2248,-188.5273,153.7650,145.9293,-0.5520,128.8020
-2476.5625,-73.2394,-22.0353,51.7689,-49.3957,-22.7288,-55.6875,27.3895,-60.2280,-86.7953,-48.2857,-13.0919,-40.9233,-17.3336,-81.9734,-17.5489,-91.5507,142.7916,200.5042,58.2860,189.3825
-2468.7500,225.2245,77.3010,75.7796,-67.4887,109.1668,-69.6885,-132.8055,-74.0054,155.9826,-171.4405,83.5771,-18.0492,114.5835,-94.9273,114.1710,-177.5070,158.8547,61.5075,145.1888,67.0047
-2460.9375,177.0186,49.3360,57.1382,-114.2275,17.4099,-159.3428,179.3647,-163.4290,101.0978,-115.2327,28.5827,-70.8282,-86.1764,-184.5270,170.2537,-231.1125,181.2578,162.7571,-8.5811,160.9786
-2453.1250,164.2946,41.0236,-29.0230,-91.4601,-31.8670,-97.4828,-90.9865,-138.3392,161.6985,-164.5219,53.0806,-46.0967,46.5577,-86.6130,45.8203,-96.2037,203.1529,142.7481,154.1585,149.4551
-2445.3125,222.7348,35.5930,106.9805,-68.5340,104.0245,-107.4629,6.7940,-148.0906,186.4456,-100.6590,5.7313,-167.2245,-1.5528,-207.5553,181.5358,-143.1507,155.1929,103.4801,36.0379,103.0672
-2437.5000,-81.8096,-63.8649,-32.9684,-125.5610,-36.0482,-136.3966,123.6398,-103.7851,82.2298,-19.7378,-59.5865,-49.3058,-30.6251,-125.4484,77.2985,-25.0439,61.2733,225.3946,46.9531,221.7395
-2429.6875,89.8441,-1.0284,40.2767,-93.3805,111.0807,-62.1182,-95.3572,-65.2649,156.2248,-128.6238,51.3001,-48.1864,116.5144,-87.1345,41.2510,-24.7293,57.5514,111.7880,183.0870,113.6017
-2421.8750,37.0446,-16.7071,93.0835,-75.6476,89.7638,-118.2910,213.2095,-121.1936,24.7598,-37.9534,-115.2645,-141.5298,-87.8168,-180.2848,130.7690,-116.8747,74.3759,181.7288,24.7589,168.0091
-2414.0625,-44.4836,-30.6895,-29.8288,-17.6192,2.7239,-20.1652,16.0710,-58.8174,48.5888,-49.9805,-164.5344,-116.5626,45.1506,-156.1263,-29.4206,17.2973,97.4936,168.9088,187.7382,156.7186
-2406.2500,101.8509,-2.0547,128.1225,-45.7411,161.5516,-45.1891,27.7596,-47.5927,96.2832,-76.1612,-151.9503,-177.7524,56.9841,-143.1232,91.2455,-43.6812,68.4592,71.5966,159.5648,59.2576
-2398.4375,-58.1439,-44.6057,-44.2266,-64.1686,25.0755,-68.5193,259.1735,1.3315,-3.3403,9.3634,-213.6844,-92.2479,-42.4996,-94.4243,28.6152,5.0407,-22.8823,159.7901,68.0799,145.4997
-2390.6250,60.9541,-15.8943,-23.4792,-49.4830,45.7000,-10.7359,-51.3448,97.3634,165.1266,-42.0258,-46.3132,-71.6370,125.1273,-73.6174,49.0735,63.8674,-43.1233,21.0018,187.7062,20.8292
-2382.8125,-3.7452,-44.0600,54.4827,-43.5854,50.5356,-78.7520,174.3422,-6.4144,132.7826,37.7813,-77.7461,-102.8327,-91.0559,-104.6201,237.7540,-3.1185,-74.1649,31.9328,-18.4911,27.3475
-2375.0000,-188.0792,-74.2747,-102.1809,-17.2876,-32.2498,-13.3610,90.4219,-14.7916,122.8343,28.9948,-86.7961,36.3795,-26.8464,34.7859,43.8364,98.3167,-83.8112,20.0287,76.7026,19.2681
-2367.1875,72.1482,30.0618,66.7099,33.5621,98.5200,45.5821,1.0123,-29.6082,180.4541,-60.2402,-65.2991,21.1368,30.9282,19.7416,101.4778,47.3179,-68.9102,-109.1931,21.4538,-105.2842
-2359.3750,-80.8008,-23.2621,-25.5469,-12.7447,-29.8646,-45.6326,203.4849,-46.5739,87.9212,33.3856,-228.9692,40.7332,-135.4768,2.5407,156.9840,103.1712,-81.1704,25.8029,-60.9603,25.0108
-2351.5625,-34.3638,-20.1913,-85.4223,-1.6491,-16.8631,5.5586,-114.6735,4.8709,174.7917,-62.5907,-179.2467,17.7404,-11.4705,16.7509,96.8844,155.4446,-35.0286,-39.4337,90.0454,-33.3071
-2343.7500,-41.0674,-94.0526,15.5657,-42.6966,-24.9973,-112.4010,23.0192,-75.8384,55.5092,-70.7225,-186.6770,-209.4099,-167.6170,-101.1964,161.6493,0.5577,-77.0342,0.9280,-129.1077,-3.7955
-2335.9375,-238.0118,-162.3192,-193.6549,-28.9429,-198.3390,-64.5647,-77.4741,-27.7550,-81.9944,-96.0511,-212.3207,-161.7551,-192.9653,-53.3426,-49.7932,158.4729,-133.2424,86.0840,-115.4640,81.5111
-2328.1250,-48.6982,-64.9089,-102.6054,21.0665,-107.4054,-7.4726,-278.7209,-7.4237,-26.2520,-40.1327,-157.7148,-69.8629,-139.0554,-33.2555,5.0278,178.6339,-121.2062,-17.3993,-137.5724,-8.9597
-2320.3125,-278.7600,-104.7574,-201.9141,37.7202,-243.8365,-69.7423,-49.3034,3.5577,-125.8649,118.4502,-292.4761,51.6808,-311.5117,-22.5214,15.5069,226.4585,-175.5219,109.1862,-262.0365,113.2168
-2312.5000,-323.0640,-97.6414,-283.4763,64.1174,-251.5194,33.7385,-313.1706,71.2971,-24.7051,110.7788,-299.4850,154.9726,-172.1989,117.9638,-66.2582,293.0433,-149.0825,57.8832,-96.7197,70.1170
-2304.6875,-252.9684,-63.9234,-171.6320,135.9144,-176.7943,36.6103,-129.6044,110.4315,-97.1427,187.5131,-334.1120,83.6498,-318.5028,83.8373,45.3965,186.0135,-184.2493,33.4981,-272.0131,36.4003
-2296.8750,-389.9090,-77.8549,-317.8035,139.7084,-360.0870,74.4892,-165.0347,148.5766,-206.5809,299.2576,-370.7608,232.3278,-354.8032,158.7186,-100.9553,298.0001,-216.4256,104.0986,-233.2897,111.6702
-2289.0625,-144.3994,9.3564,-238.5096,175.9561,-243.9048,118.8255,-416.0302,230.1746,-127.5537,269.4546,-252.9732,239.4460,-238.6381,203.0425,-131.8397,378.4378,-217.1578,-47.2386,-164.1147,-27.6430
-2281.2500,-293.4222,-77.2503,-250.7207,96.7003,-293.2294,69.6562,-99.5069,219.2703,-250.0314,405.1606,-302.7121,191.0603,-324.9853,228.8692,-181.2119,367.3754,-296.3993,24.4973,-313.4559,34.5356
-2273.4375,-346.5022,-52.3846,-303.9943,185.4013,-272.6067,165.4467,-299.0647,277.3252,-230.5442,278.8024,-244.5007,285.6367,-121.3756,323.6524,-381.6369,388.2663,-279.6895,-29.6597,-226.8271,-17.3601
-2265.6250,-130.8783,20.2115,-76.5574,226.8164,-118.2752,210.9387,-255.9073,213.0769,-223.3581,177.1413,-163.5931,183.9016,-224.0783,222.1184,-190.3458,176.8407,-240.2820,-88.4244,-397.5077,-81.5776
-2257.8125,-275.4348,-15.3289,-231.2811,223.0870,-311.1059,239.2884,-190.9018,205.6812,-378.3362,206.3368,-207.8492,249.0183,-342.9179,287.4383,-272.2174,279.2772,-244.0242,15.1743,-401.3341,21.0423
-2250.0000,-195.5302,41.6453,-253.5443,303.8102,-222.4660,330.0937,-395.4693,295.7355,-253.8456,185.9790,-192.6556,302.5735,-180.2965,304.2060,-330.6225,296.1618,-270.3149,-119.7076,-216.6944,-108.9228
-2242.1875,-263.4439,0.4704,-218.5981,271.7322,-224.6219,256.0880,-30.8070,295.9770,-328.1559,295.8243,-377.2872,228.3311,-365.5000,267.1663,-222.8043,185.2318,-373.4005,-31.7141,-320.8714,-35.7014
-2234.3750,-311.2501,1.7033,-341.5573,295.7600,-310.6769,317.1866,-228.0797,357.3132,-268.3592,245.7612,-389.8164,289.1992,-232.5891,291.2231,-345.8970,246.4062,-350.3776,-11.3425,-121.9248,-11.4058
-2226.5625,-113.9983,51.9955,-168.4485,317.8404,-174.6611,344.3325,-239.2903,347.6987,-169.5124,199.7517,-326.3049,169.0973,-243.6247,171.3156,-209.9233,90.6280,-328.3101,-90.6566,-170.9296,-94.0898
-2218.7500,-278.8006,9.6478,-272.3563,329.9164,-315.6552,314.4759,-86.4808,355.0909,-273.6497,242.7455,-393.8220,175.9910,-383.6568,178.4125,-276.9450,59.8659,-318.2515,35.8419,-195.9203,23.2073
-2210.9375,-180.6591,54.2717,-240.3068,358.9485,-246.6776,385.5744,-420.7427,426.4398,-167.8011,166.6813,-286.3982,209.8266,-204.7232,212.4604,-353.9999,168.0547,-255.2446,-48.8783,-26.9402,-52.5877
-2203.1250,-230.9704,4.8706,-149.7052,343.5255,-193.1486,293.2196,-147.4267,407.3329,-224.4139,295.1737,-379.4421,80.2111,-371.2555,83.0504,-227.4890,186.7856,-306.6894,18.0985,-184.4223,2.1426
-2195.3125,-393.3331,-67.2894,-356.1647,288.0673,-362.6777,306.8283,-281.1849,495.1754,-211.0783,345.6012,-329.5405,167.5654,-247.8248,207.5994,-325.0451,384.4753,-327.1774,57.7975,-63.9358,52.7915
-2187.5000,-106.9421,5.7197,-200.8567,259.3600,-207.4359,244.1868,-308.1956,506.7654,-91.9763,355.7771,-246.8954,67.6721,-202.6445,144.8902,-205.8310,284.9068,-286.9146,-46.6148,-59.7046,-46.8510
-2179.6875,-275.9877,-72.9753,-271.9515,161.2502,-278.6015,136.1442,-13.5865,435.9554,-91.2818,432.5621,-317.6694,70.3840,-346.8773,109.7792,-94.0173,213.9364,-316.0509,72.0599,-123.8749,66.0865
-2171.8750,-209.6729,-34.8980,-308.6917,158.5012,-278.4013,174.4576,-307.6538,473.5030,92.7588,359.6901,-208.0823,181.4391,-164.7268,185.0121,-167.8464,325.3135,-284.8303,-16.7538,49.3208,-6.6661
-2164.0625,-219.4200,-45.3316,-172.4708,149.7013,-216.2444,128.7102,-60.7406,427.9950,82.7404,386.7834,-217.5658,135.4281,-283.6367,102.1834,-30.7001,242.6407,-329.6643,-17.5751,-136.5366,-15.4951
-2156.2500,-398.6454,-91.5682,-325.7175,111.4448,-332.5479,122.5155,-68.2834,386.0446,2.2924,381.4397,-223.5219,239.9763,-216.9852,169.9066,-110.9991,310.5427,-297.9587,47.4668,-34.8191,52.1971
-2148.4375,-93.2637,-20.1272,-148.3521,136.7949,-118.2355,190.9262,-185.2323,343.7012,69.4721,228.6933,-119.8861,50.1217,-77.7389,91.2234,-6.6749,195.0377,-204.6574,-66.3259,24.4997,-63.5560
-2140.6250,-189.3555,-59.8944,-142.4419,147.7009,-186.3863,161.8902,78.3834,240.9008,1.1891,235.5035,-186.7182,-16.1766,-217.9576,25.0890,73.1970,129.0775,-194.7965,24.2458,-142.6383,17.2200
-2132.8125,-176.6865,-26.6924,-161.7775,160.3709,-131.7714,142.6173,-199.2766,222.8531,91.6529,107.0490,-59.8011,75.2796,19.5995,116.7056,-20.1929,146.8678,-77.1787,-78.8895,45.9976,-75.2965
-2125.0000,-68.5073,-16.1276,64.4054,129.5465,57.3616,75.8364,26.5982,82.2909,171.6044,113.0936,-53.4020,-65.7692,-48.3538,-24.1904,95.9424,7.1526,-39.0622,-136.5411,-91.8768,-142.3459
-2117.1875,-145.9481,-66.4243,-56.0293,53.1157,-63.1230,-6.5421,89.8642,37.1281,86.9696,140.5397,-26.6102,-74.4047,-21.9032,3.3229,12.4825,71.8576,-10.5476,-74.6004,-28.3291,-78.0220
-2109.3750,143.4619,34.4215,71.4027,62.5346,137.2665,10.9314,-114.0250,-19.1782,214.2099,-26.1669,64.0355,-131.2005,141.4128,-52.3242,101.9002,-21.5911,102.8211,-247.8133,120.0820,-244.8949
-2101.5625,19.6952,-15.0809,123.6823,-25.2031,152.5040,-82.7583,305.9698,-149.6355,119.2950,-45.9995,-30.4880,-152.1527,9.5751,-147.1237,302.1807,-152.1935,85.0340,-181.0336,32.3359,-191.9415
-2093.7500,-19.6091,-38.3569,84.4092,-63.4950,187.2001,-46.9887,118.3903,-113.6331,189.8477,-121.3893,114.4342,-116.6542,265.2141,-111.4687,151.9037,-79.3352,115.7006,-225.1297,204.0679,-230.5821
-2085.9375,152.2030,-23.5477,303.2445,-67.6840,333.0127,-48.1293,153.9368,-150.5327,224.5143,-195.6709,259.4521,-301.0551,336.9453,-222.7285,223.7464,-190.3932,146.4635,-293.8211,128.8917,-305.1634
-2078.1250,41.3354,-42.4591,182.4207,-142.5217,175.1663,-130.9249,290.8496,-196.0831,140.5391,-131.6006,102.8013,-200.0925,179.0356,-158.6402,213.9373,-163.0895,175.5780,-193.9841,123.0773,-204.4226
-2070.3125,256.2779,63.4747,229.4143,-137.5517,259.1415,-119.9102,42.5442,-184.8266,298.3874,-193.7366,186.9474,-116.3358,225.9467,-183.7578,260.9412,-187.9894,250.4934,-343.4036,268.0778,-340.9295
-2062.5000,185.6101,27.4175,262.8105,-242.1875,255.5200,-268.5040,370.6755,-260.1742,257.6334,-85.4585,146.4718,-118.1884,39.2447,-259.4924,331.3634,-263.4923,249.8075,-266.7007,91.4764,-270.0606
-2054.6875,80.5896,-18.0078,151.8526,-205.1716,181.5524,-195.4443,148.4363,-186.8641,257.5471,-122.5393,219.6441,-118.3923,222.2145,-186.5743,109.4386,-153.3365,250.7702,-232.8382,198.5599,-233.5773
-2046.8750,351.5224,60.3306,326.8660,-179.2059,319.5564,-166.4401,102.1679,-194.6129,284.4352,-204.6688,247.7558,-237.6642,249.1362,-267.7159,211.4929,-308.2463,274.6840,-276.4544,152.5940,-279.1846
-2039.0625,218.4313,33.0354,217.8599,-170.2416,174.5493,-200.4361,287.9261,-228.3654,139.3421,-201.7991,175.8427,-197.9256,141.0572,-228.8584,176.5508,-341.1509,283.5898,-122.2349,19.6344,-129.8159
-2031.2500,318.4174,93.1864,250.9037,-175.2183,243.6081,-166.3741,-11.2924,-231.0750,245.3260,-278.8953,281.9864,-91.1335,321.0477,-194.9511,135.6746,-309.0118,347.5554,-174.6296,225.7421,-170.4401
-2023.4375,267.4016,44.4275,377.9616,-190.1979,333.6779,-259.3175,299.5227,-322.8011,188.2893,-224.9971,225.1203,-221.3553,153.0369,-287.0536,298.8202,-400.8842,296.5269,-70.0055,68.8443,-80.0894
-2015.6250,23.6174,-22.7865,228.2670,-150.9282,184.0035,-150.0137,186.5822,-250.2795,149.4962,-224.8521,222.5011,-148.3307,261.3006,-214.9015,113.2251,-291.4888,299.7527,40.8473,142.2263,28.4770
-2007.8125,268.9573,50.9148,340.6947,-115.5620,333.4522,-110.6152,78.7569,-246.6665,150.8292,-258.6047,298.9771,-219.2197,373.6677,-212.6626,78.7601,-362.0088,298.0841,-33.7208,140.7138,-42.9007
-2000.0000,170.1694,32.4157,232.0090,-142.2995,188.7921,-180.3271,337.8540,-244.1596,42.0721,-145.4449,153.3315,-142.1964,191.9333,-209.5264,80.2049,-358.6263,199.3134,81.3778,42.1103,69.5992
-1992.1875,269.6898,87.3426,119.6331,-113.7236,148.4502,-109.7262,3.2270,-136.3549,186.6444,-184.9956,186.9841,-71.8724,262.5203,-139.0930,77.9521,-286.9452,263.8544,-7.6837,282.8294,-6.6465
-1984.3750,314.7164,67.6155,239.7794,-137.6403,232.6274,-171.6313,234.1313,-161.0672,159.7127,-174.0523,161.1202,-207.0585,88.5994,-200.1769,272.2218,-422.7922,202.9050,13.6898,187.0321,3.5746
-1976.5625,110.3396,-7.0582,59.5110,-198.9485,89.3983,-128.9256,237.6337,-118.1877,53.3979,-131.5256,127.8531,-128.6346,166.2947,-121.6579,55.0842,-270.0352,175.5592,91.5906,264.8494,81.3676
-1968.7500,258.8313,32.1060,184.1163,-191.4062,214.0436,-78.3708,67.9843,-104.4589,177.9617,-192.1541,215.4407,-152.3700,289.8529,-108.3015,105.8204,-292.4360,183.0740,-48.5754,272.5267,-52.0328
-1960.9375,50.7957,-29.2628,148.2153,-185.3806,141.1798,-114.3282,325.8688,-103.2341,142.0282,-153.2639,68.5151,-150.6026,69.9097,-143.4456,180.0652,-254.3286,151.0935,37.4201,135.7126,22.0472
-1953.1250,94.5775,-4.0448,49.1173,-142.5459,115.1274,-27.4852,42.5311,-90.2043,226.9102,-178.5728,80.3969,-102.0353,228.7971,-94.7929,82.1088,-95.4196,194.9254,-36.8138,284.7293,-40.1180
-1945.3125,180.3688,-0.0821,215.0400,-125.7069,244.1003,-81.6472,171.2242,-144.1827,208.7990,-121.8746,98.2693,-230.4811,173.6714,-186.1603,174.1726,-186.5302,174.7649,-85.8689,124.7352,-95.3181
-1937.5000,-40.3078,-52.8533,90.5045,-134.3154,83.6158,-95.2588,193.4687,-156.6136,47.2622,-98.6253,84.6847,-133.3692,159.1001,-125.9809,49.7818,-89.0931,200.1647,11.4666,115.3120,1.0028
-1929.6875,187.2920,13.4154,150.2349,-81.6721,180.4131,2.3803,-78.0378,-132.7966,143.9968,-185.1361,254.3554,-183.0106,218.8030,-101.5579,109.6599,-101.4313,216.8165,-122.6475,202.1632,-123.4777
-1921.8750,117.0322,-22.9270,147.1233,-114.8875,140.3653,-109.8380,213.6586,-171.8437,-6.1556,-76.4956,141.1662,-221.4976,-4.3387,-177.9874,254.7106,-103.6335,146.6178,-44.2826,62.1674,-52.8362
-1914.0625,96.3910,20.3446,53.6185,-99.4955,82.9286,-55.4497,-28.0625,-80.2870,-26.7196,-170.2669,157.5775,-57.3779,159.1468,-86.8096,50.3595,23.7721,197.0389,-73.0085,217.7983,-73.6392
-1906.2500,330.7793,111.6827,226.1394,-76.0963,219.5181,-102.0634,-1.7633,-163.7467,-0.2766,-254.0505,183.9814,-104.2754,111.6240,-133.6401,187.0254,-132.8345,254.4795,-121.4924,135.4185,-121.4831
-1898.4375,122.5540,35.9974,115.0482,-107.2964,71.4999,-103.2783,142.9497,-199.8183,-39.4257,-216.4419,108.7829,-68.7623,-0.4904,-98.0667,148.0860,-97.0374,223.3261,-8.9300,68.4514,-12.9552
-1890.6250,251.5417,64.0796,145.1730,-47.2957,138.7059,1.7104,-158.1415,-132.6970,64.6655,-296.6400,248.7910,-111.0570,213.6318,-67.3038,68.3735,-29.0547,211.3790,-134.9911,162.7083,-130.2731
-1882.8125,213.3090,42.6513,212.1051,-84.5058,168.7118,-114.5144,166.6161,-211.7921,-52.4234,-193.0229,168.5858,-154.5567,23.5471,-109.7523,135.4985,-108.2838,173.2265,-59.0299,-16.2406,-63.8145
-1875.0000,64.0279,13.4319,54.9791,-91.7665,48.6756,-86.7911,9.3111,-183.9418,-25.5306,-201.4639,122.3294,-53.0921,87.4406,-45.2468,89.5723,-6.5557,235.0295,-37.7078,150.7838,-37.4404
-1867.1875,249.6672,37.3693,143.7797,-116.1239,210.5742,-107.1698,-12.0678,-205.2003,100.2785,-186.0134,173.9684,-147.7405,102.2391,-66.8567,251.5645,-64.9435,209.7378,-138.8252,126.7016,-133.2044
-1859.3750,11.7347,-50.7024,37.0238,-177.0336,30.9127,-176.1072,212.0310,-163.0163,-6.4601,-71.1123,67.0503,-106.9390,-4.5096,-25.0114,145.0067,50.1232,147.8964,-18.8734,65.0798,-19.5351
-1851.5625,115.4836,-21.7658,38.9253,-143.2983,106.9206,-99.3892,-43.2327,-86.1841,106.4751,-104.5704,179.7933,-103.4932,182.4278,-22.5162,37.1130,126.8389,110.7102,-135.8435,203.1268,-128.2570
-1843.7500,136.9873,-45.2509,134.5866,-191.8190,165.6844,-187.9332,235.2936,-137.6171,128.1669,-46.2739,90.2807,-192.2935,20.1072,-147.2887,243.0010,2.2939,26.2708,-106.9857,48.9120,-107.2520
-1835.9375,-41.2157,-70.5551,-89.4585,-157.0395,15.7460,-116.1749,159.1170,-102.7505,162.1803,-47.6891,51.0698,-46.7788,127.1128,-75.7523,130.1848,111.0489,25.1349,-79.8336,154.0215,-73.9740
-1828.1250,162.5992,10.3707,55.5161,-93.2579,123.8428,-81.4194,45.9558,-104.8935,233.2178,-87.1094,121.8597,-86.2931,161.1320,-78.2276,164.3942,35.7910,53.0123,-196.1726,181.1387,-187.7314
-1820.3125,-41.7565,-60.6210,-52.6699,-119.6336,-21.2207,-151.8199,268.6760,-64.1915,125.1112,63.3355,-23.5060,-82.9664,-94.0037,-74.8563,204.4682,38.3905,24.7362,-75.4761,48.1155,-75.6498
-1812.5000,33.8043,-21.2273,-41.9572,-43.1092,25.6258,-67.3176,-15.7249,20.4107,135.9351,0.6736,97.0397,-72.7323,63.7880,9.4207,-6.5416,122.8983,29.3641,-181.1305,194.0203,-176.7041
-1804.6875,78.3691,-33.2165,188.7710,-68.5905,183.4839,-129.8304,215.9164,-4.9970,35.7602,12.0181,70.5794,-171.4895,74.5738,-53.3108,41.4701,24.3850,-67.0055,-196.9562,-8.0817,-203.7809
-1796.8750,-109.4255,-58.1815,62.1358,-79.4225,20.9861,-107.6880,163.2096,-20.7555,-16.7464,-3.9876,17.7612,-3.5826,95.0323,4.6124,-47.8801,119.5251,-42.7248,-107.7268,16.4942,-110.2280
-1789.0625,59.2146,13.1852,132.9292,-15.8562,127.9206,-73.1441,-24.0842,-59.1267,127.1727,-116.6131,125.3467,-5.2968,165.9096,2.9286,60.1923,80.0528,19.9592,-230.9495,44.4823,-224.3105
-1781.2500,-33.6522,-35.9275,31.2219,-72.8006,26.3500,-138.1058,278.1635,-124.0136,25.6033,-34.7344,59.4301,-34.5192,-46.7162,-26.2573,141.7809,15.0765,-2.8510,-107.4498,-84.0335,-106.9032
-1773.4375,66.1444,19.5168,-82.8333,-6.0930,-13.5609,-67.4162,-18.9599,-53.2516,58.7101,-74.2099,129.1798,36.9187,97.3427,45.2119,-7.9807,86.7570,-8.0037,-161.2758,52.1243,-147.8797
-1765.6250,179.0506,22.3933,73.2329,-33.2950,68.6489,-57.6417,63.0495,-80.4031,67.9389,-64.5827,211.0306,-64.5452,69.4935,-19.2377,111.3878,-14.4793,-36.0488,-187.6527,-80.6276,-176.7820
-1757.8125,-127.1003,-60.7265,-68.7672,-92.5482,-109.1964,-87.9235,142.0236,-73.6096,0.1327,14.9982,142.8336,88.9474,38.6066,60.2600,6.6988,65.2374,-61.1347,-71.3343,-35.4083,-61.7508
-1750.0000,31.5402,14.0454,-6.9894,-38.0485,25.7393,-62.4568,-127.2596,-48.0776,99.1085,-32.6816,204.3984,114.1628,173.4988,85.4950,-5.2233,54.6855,-7.4572,-203.4699,54.5713,-185.0031
-1742.1875,-21.3202,21.2049,7.3012,-21.0520,3.1754,-121.4991,143.9931,-107.0568,-34.4180,55.1399,71.4568,128.8708,-70.1137,26.2215,46.3760,-5.3809,-25.2719,-108.0306,-139.9634,-98.7646
-1734.3750,-2.7209,60.7389,-119.9527,34.3867,-86.9223,-27.0926,-93.3144,-85.5937,-13.4813,39.4011,54.9824,223.0366,60.7617,121.4011,-153.5687,89.9957,28.3706,-134.9684,-15.0148,-116.1000
-1726.5625,129.4527,76.0691,59.3717,61.3632,92.5574,-31.1498,11.9638,-90.5927,-18.9856,35.2130,86.0677,70.7447,93.1899,43.1100,-47.9348,-25.1043,-15.4373,-206.4309,-93.5130,-195.9048
-1718.7500,-182.2365,-52.4577,-88.1655,-3.5159,-91.8218,-30.0646,196.4186,-52.4477,-92.3286,146.1778,12.2996,108.6009,56.7811,79.9661,-121.1507,48.9483,-116.0885,-90.8735,-123.8398,-86.5645
-1710.9375,15.1060,25.0130,-95.6897,54.6028,-26.1775,109.0181,-106.1330,13.6964,10.3719,-8.8686,77.5375,137.4411,195.4021,182.8092,-129.3378,77.9892,-128.7292,-221.2534,39.8581,-206.2537
-1703.1250,25.7447,43.9643,-49.9004,66.0094,-53.2210,45.3828,160.6748,-50.8721,-53.6185,37.3932,-60.9332,109.5576,-52.6854,117.9395,26.7998,-22.6853,-119.0691,-168.3973,-126.1477,-161.6483
-1695.3125,-90.0555,44.0033,-208.5587,91.9568,-174.7019,108.2987,2.0226,12.1083,-28.0418,100.1861,-109.8308,246.2238,-64.1846,180.6187,-94.5261,77.1866,-93.8436,-149.4973,5.4186,-137.5087
-1687.5000,58.0266,58.1627,-50.3350,63.7474,-16.2984,83.0531,-23.7594,24.9172,57.4008,148.8168,-24.8637,147.7268,21.1764,82.1383,-45.9786,51.8843,-121.7502,-250.6817,-23.1667,-237.5390
-1679.6875,-217.1013,-52.7139,-85.3167,0.3289,-125.1021,48.5966,162.2948,63.5130,-88.3473,261.2436,-97.1113,186.0294,-13.6630,121.4606,-117.6180,128.3779,-220.8478,-132.4234,-156.9370,-126.7717
-1671.8750,-60.5507,21.9619,-63.6357,52.5560,-66.2293,106.7853,-185.0085,121.7516,6.5931,135.3033,-2.6938,243.9722,118.1844,216.4261,-169.6000,149.5196,-205.2813,-234.1686,35.9732,-217.3844
-1664.0625,3.5594,14.1849,1.6219,47.3163,-36.7898,63.5056,65.2869,78.5196,-36.9072,201.9094,-46.7126,89.4414,-110.4104,61.9214,80.9929,-4.8122,-211.1586,-195.5843,-110.5703,-189.4548
-1656.2500,-97.3015,31.5824,-180.1076,88.0715,-182.3319,102.2240,-6.4296,43.2795,-72.3776,130.4975,-155.7044,201.9001,-71.9688,137.4132,-64.4075,33.8496,-101.0214,-123.3521,-0.0838,-115.5499
-1648.4375,112.4549,126.2407,6.7898,192.4167,4.7468,179.5273,-150.5011,47.6221,-105.2386,-13.3183,-79.0856,131.9350,79.0768,103.4846,-134.1792,-72.9084,-32.2814,-227.8511,-37.0014,-224.0583
-1640.6250,-70.2352,43.0102,-42.7656,151.2988,-44.6258,203.3662,93.9879,34.5096,-265.5318,10.4126,-165.9013,119.5201,-7.3072,128.1057,-183.3988,-85.1124,-143.9838,-83.4396,-183.3466,-91.0246
-1632.8125,18.9524,67.5091,-96.4445,170.0229,-61.1164,261.0428,-253.6635,92.2324,-170.9470,-42.0154,-72.8449,139.9423,50.1855,221.5633,-199.7443,8.5206,-125.8267,-113.1322,46.1712,-109.1646
-1625.0000,108.6791,76.8464,71.4311,120.2796,69.9486,171.2502,-49.7160,38.4913,-187.8068,14.1177,-126.2383,48.9061,-113.7712,131.5582,-32.5228,-155.3089,-141.1153,-86.3964,-109.7610,-90.7534
-1617.1875,-134.3205,32.0579,-77.4328,158.7807,-41.7210,169.7053,-13.5335,37.9915,-298.3862,-23.5139,-164.3640,158.1168,-78.4408,203.7997,-216.0483,-45.8953,-138.1411,25.1895,-70.4201,16.8924
-1609.3750,17.7010,102.2431,11.7300,240.2729,84.6294,259.1469,-182.3224,53.4722,-209.9502,-118.1480,-75.4748,137.3135,84.8925,146.0308,-274.5505,-29.5035,-92.1530,-73.5187,-25.0959,-79.4717
-1601.5625,-113.2797,44.4981,17.8868,216.7586,16.9748,154.5768,154.9036,-14.0612,-313.5083,-1.7866,-179.5797,106.5249,-56.7649,78.2649,-231.0585,-24.1123,-186.1558,50.3851,-154.7599,35.1651
-1593.7500,-159.7207,-0.7662,-104.4369,169.7382,-68.1557,180.5006,-114.3763,122.8931,-177.5391,-12.9435,-119.1650,131.2295,79.0964,176.9919,-279.0432,148.7644,-197.6410,26.3556,45.0850,22.2824
-1585.9375,-6.1183,-2.4679,20.2982,77.7555,19.7694,121.4609,10.4389,100.8818,-52.5154,38.9435,-141.7028,-1.0186,-52.9995,81.7547,-6.9579,53.6733,-186.0676,2.6523,-82.0240,-1.5449
-1578.1250,-181.6000,-48.6165,-130.0648,7.6679,-167.3992,80.3158,43.1456,58.7627,-93.5711,107.7169,-219.3226,104.6310,-130.1634,113.4155,-84.9832,122.4842,-114.5783,103.0066,-116.2038,102.5192
-1570.3125,66.0477,77.9659,-86.2964,114.6695,-13.4398,125.2516,-207.0190,67.7302,-85.5156,42.5868,-101.8296,112.3610,23.7837,121.1567,-223.8895,93.3797,-8.9782,-44.5909,-10.2897,-38.3260
-1562.5000,-0.4071,53.1503,-48.6268,84.5577,-48.5867,90.0728,51.7379,31.5845,-230.5598,117.3571,-210.4382,76.9913,-158.3575,48.7985,-184.8995,58.1718,-39.4619,40.5751,-111.4688,34.7366
-1554.6875,-128.9239,32.4847,-182.0396,132.3429,-145.8118,139.7914,-119.6177,155.3261,-144.6798,93.0127,-198.1320,162.5145,-35.5747,98.3334,-283.0046,144.8493,-63.0222,48.4677,77.2730,45.6853
-1546.8750,-13.5281,15.9027,-59.5391,107.0179,-22.1272,115.3949,-32.0281,167.9465,-20.8994,142.5684,-149.9263,-8.0699,-58.9031,0.7531,-49.1939,47.4038,-87.6698,-10.5581,16.9031,-16.4599
-1539.0625,-226.6197,-62.1999,-178.5403,69.1894,-177.9366,33.4983,106.0602,159.0572,-102.6107,243.6048,-195.1974,19.8491,-177.7039,28.6729,-57.8942,111.4509,-89.8083,128.6493,-20.9419,119.8942
-1531.2500,-23.9264,-13.0256,-146.7580,62.0995,-109.9667,102.3401,-229.0830,190.9003,75.4366,129.3759,-53.6990,14.5023,1.2576,60.3311,-62.8281,144.2251,-64.1799,33.5365,76.9619,39.9947
-1523.4375,-35.3871,-41.1670,-51.1300,-18.1538,-50.1513,15.0171,50.6585,103.5804,25.3357,151.9976,-103.3491,-34.9940,-121.9253,-63.1675,108.0895,19.8425,-108.6939,99.0652,-108.2760,97.9628
-1515.6250,-136.9635,-48.3661,-195.6387,20.4373,-157.4691,53.5382,-93.7678,105.0987,101.1152,43.4561,-102.1224,75.3539,-11.2277,12.1783,35.8683,94.2969,-106.3418,128.8952,34.3523,134.7778
-1507.8125,84.8200,40.8138,-32.7750,101.3596,5.5769,106.3891,-151.7946,10.9447,154.2530,-50.7364,-13.5372,18.0316,5.8165,-46.1380,126.0206,-35.9222,-60.6362,32.0537,-23.6808,38.9573
-1500.0000,-131.5016,-49.2923,-79.0129,26.1695,-77.4752,23.1302,95.0765,1.6828,-3.6941,48.9615,-97.0360,8.6074,-151.2123,-56.5483,79.0648,27.7574,-101.0202,140.9897,-99.7891,137.0512
-1492.1875,1.8131,-9.2115,-47.6239,17.5742,28.0986,54.4621,-202.4377,70.0060,66.9784,7.2427,-65.9176,2.7667,28.3751,11.6286,-35.2789,133.0093,-38.7858,54.0625,68.7090,57.7458
-1484.3750,49.1307,-23.3078,111.7602,-75.0373,77.6668,-79.2238,30.0852,45.3129,42.6468,93.5256,-125.7940,-57.0761,-70.0414,-48.2079,88.3848,34.2481,-96.5363,70.0134,-59.7863,68.4606
-1476.5625,-146.6672,-62.2592,-58.9959,-94.8138,-56.8986,-68.0713,-67.5525,58.4563,17.1869,68.6431,-114.7971,99.9276,-56.5821,72.8022,62.9084,83.3225,-81.4162,147.9388,60.6025,152.0257
-1468.7500,38.4488,18.1300,65.1710,-15.7109,103.4577,-17.0446,-163.2454,34.4833,105.6382,-100.3419,-27.8867,40.8098,-6.2226,49.6910,151.3625,-48.7279,-1.3885,51.6587,70.8824,54.5014
-1460.9375,-43.2925,-35.1892,46.4880,-61.4785,12.9588,-34.8822,149.2139,-19.3487,-57.7456,-45.1835,-118.8125,-50.1641,-96.6860,-4.2725,59.9659,-66.6184,-12.2022,192.3220,-80.6700,182.1461
-1453.1250,119.0014,28.4764,-2.1688,-40.2574,0.4846,-9.7313,-156.3251,5.8052,-33.0999,-57.0409,15.2785,-25.1528,148.8690,20.7528,-134.4170,-5.5235,78.9985,128.2959,81.7898,131.7905
-1445.3125,132.2904,4.1933,160.1809,-97.0549,127.0076,-105.6008,79.1792,-53.0596,-18.4490,31.1045,67.3782,-121.1496,-20.5814,-75.2337,27.2093,-174.4405,57.2071,114.2962,-45.7564,108.4580
-1437.5000,-111.7524,-44.7260,-25.8193,-96.2096,-22.8092,-145.8277,112.3199,-56.2886,16.8853,27.8766,28.1534,22.5044,-132.3513,-5.5775,25.4843,-104.7144,58.0850,217.9689,27.3715,213.7811
-1429.6875,165.4798,52.4193,48.4611,-99.1260,88.6490,-107.8248,-105.2570,-55.2940,164.4828,-44.1096,102.1846,23.3890,-21.8761,-40.6942,100.0304,-139.7613,125.2286,95.2616,93.7363,103.3642
-1421.8750,98.9620,-5.3164,47.9955,-130.8111,15.3590,-182.5881,187.4293,-130.0678,18.3320,28.1493,64.4681,-87.4801,-95.1401,-115.5648,135.8208,-178.5582,93.6350,212.4354,-42.6428,211.2198
-1414.0625,60.8340,-8.3665,-26.0931,-98.1548,-59.5559,-110.0103,-70.5445,-57.5068,89.5483,-10.2622,173.1313,-53.0187,86.9796,-44.0975,-11.0291,-106.0247,161.4072,166.9174,165.3444,171.4293
-1406.2500,149.0633,2.5955,141.1835,-116.1716,107.8847,-126.0995,59.8794,-110.6152,148.1042,-26.3332,157.1583,-142.2231,34.4438,-133.2924,156.4877,-233.1650,143.5388,119.4180,77.6803,117.0164
-1398.4375,-68.5919,-38.2215,55.5614,-124.0994,-13.5640,-139.0969,195.3943,-123.6380,62.7785,-38.3238,35.3124,-8.3266,-12.9649,-35.3869,71.0996,-208.2124,100.7809,219.4698,0.1452,213.7177
-1390.6250,127.8317,43.2103,120.0201,-32.9904,124.0619,-38.0659,-107.0127,-96.6385,163.5195,-195.2780,208.5305,-17.3965,160.6823,-45.4522,61.7821,-218.2415,157.0898,89.0695,20.6544,92.4826
-1382.8125,129.4430,25.3796,191.6815,-31.6948,47.8882,-113.8499,147.8033,-172.4562,-20.5359,-87.0431,169.9536,-130.2724,12.5343,-121.3276,96.6606,-294.0767,158.6150,168.5744,-152.6278,162.4761
-1375.0000,126.4860,65.9328,40.7652,34.9932,-26.8621,-44.2454,-111.9925,-64.8915,-60.1720,-127.4310,203.8016,-23.7620,82.8141,-14.8174,-126.0494,-187.5298,190.5632,156.9946,-14.4874,157.8757
-1367.1875,337.0927,130.7847,191.4174,34.2135,122.9459,-41.1139,-108.1842,-62.8020,-57.2660,-125.2761,169.2052,-94.7191,12.6332,-85.7715,-13.1941,-221.4581,190.0707,86.7502,-50.8030,85.8518
-1359.3750,88.1649,46.1371,-0.4868,-38.1324,-32.7935,-87.5457,66.0681,-35.2782,-138.8963,12.3120,87.0822,5.7737,-142.0675,-58.2763,-57.8984,-120.9368,117.0469,224.7441,-87.6432,222.2992
-1351.5625,173.2707,82.2935,-18.3587,10.5046,-13.5036,5.0010,-207.6586,-16.7782,26.4942,-79.1135,252.9783,61.2428,60.2457,-2.8057,-74.5780,-101.4472,132.0414,118.0138,-3.4774,129.7607
-1343.7500,129.2682,53.8981,43.6686,2.0201,-24.3211,-43.5757,37.5490,-102.3962,-20.2079,-53.6430,167.7802,12.6056,-60.5446,-51.4497,60.6496,-151.0678,87.9535,184.7362,-187.4059,190.1582
-1335.9375,7.0563,28.0813,-86.5373,54.2683,-155.3709,44.5832,-92.5118,-13.2771,-77.1319,-75.4443,110.3589,64.7099,66.4365,36.6467,-106.3717,12.0487,71.6374,235.4536,-63.5598,241.3208
-1328.1250,150.0595,95.0728,103.4811,90.6959,34.7928,87.9162,-122.3289,-43.9903,-32.8590,-105.0523,117.1527,34.9899,35.6195,-30.0780,-25.1768,-55.6592,108.5367,135.3400,-61.5218,136.7145
-1320.3125,-67.3955,19.8834,-17.9467,83.6590,-85.4888,38.7835,122.4075,-19.1717,-118.0249,-7.1297,-4.4818,58.8140,-195.6199,-5.2598,-73.4400,6.1766,-3.9961,240.6266,-173.9094,233.6885
-1312.5000,103.5325,75.4528,-91.9924,79.9578,-86.3954,110.9822,-207.4936,89.9721,-44.8210,-45.8718,67.2563,93.9676,-11.4925,66.8829,-184.3331,114.3375,26.8396,150.4335,-0.9446,158.0291
-1304.6875,85.2675,58.3575,34.7657,96.0313,4.4988,53.9535,29.4435,31.8898,-174.8215,7.1820,11.8007,-0.0886,-68.5727,8.8147,-94.4230,20.2841,9.4939,177.0255,-196.1843,173.2090
-1296.8750,-170.0149,25.4157,-87.5138,120.0403,-118.6401,113.8635,-56.6923,54.7399,-224.8524,-42.8373,-74.6748,169.7997,-44.6748,105.6899,-253.5625,80.1672,34.1166,238.7656,-99.4492,232.3562
-1289.0625,-4.5267,80.0356,52.9876,179.7767,21.9908,143.4995,-208.0437,85.3136,-82.1264,-86.1228,-43.3788,89.4125,-13.0232,62.2881,-184.9373,-36.2335,58.5075,121.9339,-74.9728,115.2821
-1281.2500,-141.1415,-7.9517,-20.6053,112.3891,-51.4798,69.0175,84.5141,46.7668,-230.4916,59.4735,-155.1674,14.9210,-123.4506,60.7807,-149.4187,-0.7388,-7.1850,237.5897,-176.5769,223.1429
-1273.4375,-93.2178,-16.3267,-78.6673,89.4857,-72.4227,156.0154,-193.4247,134.7012,-104.3347,0.5459,-29.4307,29.9078,38.6408,75.7538,-207.3777,159.2297,-30.3597,166.3967,-23.6678,163.5178
-1265.6250,10.7110,-18.8699,68.2811,52.5593,1.6377,82.9884,-45.3184,97.6082,-66.1758,37.6089,7.3108,-81.1239,-70.2771,-35.2893,49.6770,50.1753,-66.5203,130.7955,-164.7603,125.9298
-1257.8125,-189.5835,-78.7290,-107.0134,26.3703,-174.5405,52.7021,-38.4753,104.2457,-95.2456,117.3936,-59.1730,-1.4125,-99.4191,7.4051,-52.5239,165.8598,-55.9096,207.6122,-119.0713,205.1101
-1250.0000,-78.1525,-64.6845,-23.5788,29.8568,-16.9930,99.0862,-246.8956,150.5512,62.3972,126.8643,-11.9372,-64.0281,-15.8597,17.7784,-4.9966,176.2092,-51.5787,66.4572,-9.6887,68.0123
-1242.1875,-280.3817,-154.0753,-15.7953,-31.3299,-9.0961,-5.2045,89.0517,155.1832,-40.6044,205.6681,-151.3388,-95.3004,-154.9365,23.4930,38.8787,180.9014,-146.8797,158.4821,-139.9387,146.2992
-1234.3750,-238.7756,-118.2011,-155.1795,-25.7312,-111.3706,39.2900,-85.2082,199.5901,40.2172,139.2417,-106.9024,22.2074,-0.1819,139.9856,-99.4382,298.3693,-140.3541,115.1114,41.6263,116.4002
-1226.5625,-52.2586,-75.9238,5.3535,-15.2564,12.2609,14.6509,1.4796,138.8613,91.9316,152.7054,-56.5471,-75.4003,-59.5343,42.3569,98.1575,164.7137,-164.9114,54.1001,-86.9212,55.4398
-1218.7500,-260.2274,-126.4698,-106.6112,-14.2985,-135.6012,11.5021,36.6534,99.6203,17.1666,185.6440,-131.6800,-5.5110,-171.3661,77.2229,59.2429,197.5546,-126.9479,163.3700,-119.9332,162.0033
-1210.9375,-61.0286,-30.1147,-40.3967,42.7925,-33.2876,113.4818,-262.9978,127.5054,120.5678,30.7231,-29.6589,22.5056,41.9532,68.2179,15.5029,153.5225,-33.8215,37.4434,8.2103,43.7371
-1203.1250,-126.1974,-60.0885,-1.5327,-23.4853,-67.3321,4.0913,105.0270,55.0256,-24.3749,141.4438,-137.9863,-12.8297,-140.0751,-4.1452,127.4076,44.1304,-64.0337,122.4430,-91.9845,117.1584
-1195.3125,-226.0318,-84.2636,-215.3485,-18.4780,-135.0561,8.9857,1.3365,95.8245,18.0011,146.4420,-131.9838,65.1188,-22.7730,37.7731,23.6123,195.0178,-57.9231,119.4211,54.1435,121.8955
-1187.5000,-88.5121,-111.0529,-69.7956,-94.1434,-26.4189,-66.7978,37.0375,92.9468,311.7291,144.7857,-95.6300,-83.6001,-97.1342,-37.9822,243.1851,156.2300,-132.4514,39.7690,-20.3855,46.0168
-1179.6875,-299.5883,-182.5323,-220.8392,-130.4277,-176.3778,-109.1971,180.1339,88.4471,269.8787,249.5097,-136.8665,-15.9242,-175.0735,-7.3529,202.1530,186.8328,-166.5574,144.6284,-89.4841,150.5653
-1171.8750,-79.9295,-80.6880,-171.1462,-88.0293,-89.6039,-60.9217,-137.0527,135.6158,246.7403,150.9164,21.6165,31.4293,57.6992,3.9479,67.8377,272.1017,-87.9397,34.6192,59.1234,51.8318
-1164.0625,-42.8179,-86.9850,-59.9973,-87.2075,-52.3815,-135.2247,157.2472,25.2114,137.0374,259.7525,-50.4385,-78.7773,-88.0811,-107.3177,214.9742,160.7989,-121.8468,79.7447,-114.8077,87.5902
-1156.2500,-219.4038,-138.0959,-208.5858,-88.1603,-200.8923,-138.2952,44.7826,59.0333,245.5968,220.8059,-15.2094,-7.7486,-52.5881,-73.3503,140.3656,304.7278,-86.4660,109.1339,25.5361,121.6205
-1148.4375,-30.4591,-100.1114,-7.6494,-111.6398,0.1105,-84.8978,-47.1416,74.3207,374.6650,53.3391,75.5313,-101.2452,1.3979,-55.9109,195.2777,211.1238,-73.5613,18.0708,39.3691,28.1852
-1140.6250,-199.7155,-138.2050,-41.9096,-106.3406,-108.0869,-121.7151,175.7375,38.3834,192.5476,54.6502,4.0928,-64.9535,-106.7982,-19.6819,159.9895,137.3124,-101.8384,138.7141,-59.9734,138.5862
-1132.8125,-8.1430,-27.1769,-58.3382,-92.2617,-50.4561,-65.7572,-133.5747,20.2192,213.2575,-36.2628,60.4878,64.1050,97.8208,-0.6810,70.5213,120.2718,-16.2931,33.9950,131.4947,47.8095
-1125.0000,49.3254,-32.8901,75.1407,-107.3135,46.0713,-117.9321,146.0560,-105.0761,162.8708,-15.2811,46.8001,-59.9505,-26.6648,-88.8049,203.9650,-4.8826,-29.8398,28.9058,-23.1369,32.9779
-1117.1875,-84.3799,-62.1207,-67.5703,-101.5798,-96.5910,-79.3217,76.4698,-66.5883,93.3090,-49.5292,49.9394,15.7822,-21.3221,23.8606,60.2073,34.7516,-21.5663,104.3014,54.0555,108.9704
-1109.3750,185.4815,20.6436,72.2914,-79.3198,80.3124,-15.1861,-77.5351,-74.5813,123.3005,-131.2398,153.6376,-66.9525,81.5696,14.0556,91.0192,-84.0930,36.2682,-16.9091,77.7942,-9.4537
-1101.5625,-11.5645,-39.0100,80.2431,-102.9811,15.3103,-43.9730,225.5737,-104.4910,-13.6027,-50.8648,-20.5608,-59.5873,-56.4341,-51.6524,61.9255,-113.8373,-19.7844,115.7914,-84.3460,108.2616
-1093.7500,-32.2379,-9.6181,22.5670,-20.3129,-5.3190,7.5730,-87.9677,-17.0660,37.8700,-110.1602,30.6145,28.1062,105.9260,-0.0275,-104.7989,-26.2449,-6.4775,87.6201,105.8817,86.3481
-1085.9375,94.2753,20.0175,193.0978,0.5324,128.2475,-7.7014,7.7296,-69.4676,-11.4621,-161.2639,90.9947,-97.0214,18.4807,-162.2231,27.6920,-151.4656,15.0404,81.4437,-47.6969,71.6795
-1078.1250,-54.1379,-9.1240,70.6827,25.4166,5.8727,-22.9372,-3.5451,-83.8361,-133.7359,-102.3398,5.4501,-74.1107,-29.8877,-103.3761,-93.7811,-92.6477,112.6266,181.5298,-21.2016,168.0875
-1070.3125,115.3704,59.9625,179.2003,87.1843,151.4199,10.7062,-188.8970,-87.3351,-25.1034,-105.5242,39.8129,-114.3251,41.6414,-143.6576,-58.3430,-95.9620,177.1291,65.5411,78.1901,55.4239
-1062.5000,-7.9942,-20.1199,156.8618,33.0860,55.1117,-86.5212,81.9159,-74.6987,-10.3301,17.4330,-55.6708,-175.3872,-163.6782,-130.7943,65.2332,-120.1313,88.7907,157.6019,-80.2453,141.9502
-1054.6875,3.0620,0.4070,-14.0552,6.3752,-5.7744,-40.3606,-161.8788,-28.6761,110.8544,-46.2249,-6.7350,-18.0656,31.4198,-10.5469,-69.7899,0.0840,98.8682,113.3016,34.7421,115.8937
-1046.8750,80.2687,7.4566,179.1884,11.7929,151.4897,-68.0722,-41.4832,-56.5236,85.1859,-73.7350,76.3521,-119.6049,41.6477,-75.1677,13.3467,-101.5760,72.0986,57.2376,-62.1289,52.0251
-1039.0625,-179.9169,-77.8936,87.0278,-38.2029,23.3506,-88.1934,123.4987,-76.7823,-79.8735,-20.6656,58.0603,-66.5465,24.4989,-59.1943,-77.9334,-48.6448,57.9430,155.9958,-41.3671,142.7831
-1031.2500,13.2623,-4.5380,112.2442,-22.8691,120.5819,-65.9852,-108.1511,-54.7054,91.4231,-108.2579,155.1323,-44.1587,157.7046,-36.8952,-17.8521,-26.3828,111.1440,19.8289,116.7519,18.9145
-1023.4375,26.5209,-9.6369,160.5502,-81.4571,94.8962,-130.6996,196.3263,-119.5412,65.8154,-98.7527,56.3038,-70.6745,-13.9918,-100.5032,141.3226,-127.0154,89.4497,72.6249,-81.0195,66.1857
-1015.6250,66.4523,30.9234,17.5110,-78.4064,-10.1255,-90.7747,-18.5655,-116.7393,70.8770,-205.6188,172.1441,41.4602,100.9792,-23.4681,-0.8512,-50.0073,164.4162,63.8851,63.8827,70.1236
-1007.8125,353.5811,109.6237,211.6771,-76.1770,146.0554,-119.6752,-46.2140,-145.7645,81.1348,-198.2861,255.1802,-61.2155,147.1330,-90.2509,8.1962,-152.8197,169.5869,-40.2434,-1.0201,-31.7062
-1000.0000,98.7993,18.7511,124.9368,-120.8646,59.3272,-171.4851,198.2345,-124.7043,-41.4914,-65.8656,131.3277,-37.7972,60.4050,-67.9471,-114.6582,-131.5359,90.8653,67.6292,-43.7939,64.5925
-992.1875,203.5403,61.1328,91.7254,-89.0614,64.1218,-60.8109,-54.8038,-50.1613,72.3988,-136.9601,208.9912,0.0892,175.1840,43.8255,-146.9943,-92.7742,89.6475,-48.6219,165.9354,-42.5913
-984.3750,235.4563,53.4351,123.7153,-93.0812,59.1077,-139.9603,198.3863,-56.4354,30.4861,-70.8575,93.8586,-79.8325,-50.8378,-37.2060,104.8647,-172.8148,16.6303,-11.7669,-14.1311,-11.5386
-976.5625,29.4782,-9.9997,-55.1909,-90.0143,-82.7930,-101.0219,92.6615,55.3771,34.6926,-67.6660,23.8404,-4.6514,27.2619,38.8617,-38.1859,12.2420,-13.2812,26.9488,97.9311,28.6300
-968.7500,181.4045,46.8657,106.8161,-47.0656,115.2097,-15.2053,-2.1263,69.0668,-23.1992,-128.5835,39.7229,-101.5847,116.2420,-21.1886,-60.3210,-84.8249,67.7151,-60.4063,107.8871,-67.2722
-960.9375,-18.1783,-14.8920,40.3073,-35.6288,48.7022,-9.8963,225.5788,36.2403,-235.5832,-123.0228,-62.8921,-132.0181,12.7359,-15.7428,-88.9614,-115.3894,80.2208,71.5105,14.3655,49.3565
-953.1250,51.2027,41.9877,5.7729,30.7438,51.1674,63.3498,-102.7634,73.3462,-160.0116,-159.5273,11.4552,-59.5265,162.1916,20.6360,-160.6358,-79.0108,148.6826,-10.5123,224.8062,-23.0515
-945.3125,44.8020,20.5762,109.4837,22.3372,117.8721,-19.1762,111.1801,-9.3127,-129.1974,15.2289,-68.9528,-139.7917,8.8839,-97.7457,52.9501,-197.3823,107.3923,-11.5935,112.5013,-30.1712
-937.5000,-58.6931,-28.9661,-74.9127,-84.1830,5.4755,-58.8107,109.9988,22.9194,-204.4621,84.8704,-69.4414,-70.1539,43.4916,-64.2245,-58.5639,-53.8560,109.0110,53.7613,219.1312,40.6252
-929.6875,194.0192,40.3399,84.9049,-79.5174,167.2836,-85.2625,-59.9582,35.3338,-81.5229,59.7078,90.2719,-133.3260,168.2821,-127.5170,-45.8674,-117.1483,116.8331,-87.8446,261.9539,-93.3562
-921.8750,37.9149,-25.3100,101.9076,-131.6632,73.2754,-143.5288,214.2881,-61.0626,-174.3928,111.7442,-3.8105,-154.2935,74.2813,-148.6127,-65.9890,-175.2366,100.8608,10.6491,105.9944,-4.1096
-914.0625,86.8795,37.7833,10.9760,-13.7710,55.3392,-16.7514,-97.4239,-44.4232,-82.2025,-92.1894,126.1724,-64.2293,204.3466,-58.6728,-193.0476,-158.2900,150.9461,-90.1612,261.1019,-95.8049
-906.2500,232.7769,66.4352,128.9987,-11.9498,173.3483,-12.0446,20.8569,-149.8542,-74.0667,-160.1800,134.0982,-169.2206,27.3438,-126.7960,70.8575,-262.4066,154.9790,-154.0403,125.1632,-162.5183
-898.4375,92.8188,22.5752,17.1653,-46.9872,25.5080,-15.1909,56.2699,-117.1419,-184.7645,-90.0328,58.1798,-99.0575,-47.4905,-93.7724,-4.0953,-120.3689,122.1710,-83.5276,91.4089,-91.0681
-890.6250,300.0182,87.1145,92.4976,-17.8840,137.8284,21.7974,-198.1431,-43.2982,-146.3012,-125.7408,171.4160,-134.7599,138.8192,-93.6180,-38.8800,-46.1965,153.5204,-237.6698,193.8048,-236.4517
-882.8125,168.7928,-0.4305,137.4192,-151.1989,109.7372,-119.6316,215.0609,-147.8672,-248.2332,-82.8520,106.2577,-239.8643,-0.2680,-197.8732,116.9316,-113.4220,162.4708,-179.1210,132.8174,-192.2068
-875.0000,98.5818,-21.1879,31.3565,-153.5329,112.6609,-155.0776,71.2549,-183.4447,-24.1417,-154.9738,183.1237,-163.9822,150.6705,-159.1414,46.7546,-38.6564,163.4242,-261.2393,273.8529,-262.9572
-867.1875,261.0048,11.1598,203.9505,-170.2424,249.2330,-205.8984,171.1456,-307.3888,222.5914,-168.4409,208.6472,-287.4637,103.2490,-319.7806,219.2459,-162.2538,255.0224,-345.8945,154.5356,-348.0310
-859.3750,193.6176,20.8786,91.7305,-168.7706,63.9944,-283.5325,244.2241,-384.1414,147.5345,-134.7189,133.3885,-180.7357,65.0437,-323.2177,143.9315,-128.6448,292.8253,-243.9199,52.4516,-239.8870
-851.5625,476.4441,135.9782,135.7260,-134.1071,179.9712,-205.9841,-7.4757,-344.7147,190.6830,-277.8121,213.3349,-176.8181,181.0380,-282.4725,150.8298,-198.8530,364.8305,-356.4459,194.5662,-344.5306
-843.7500,370.2884,84.0251,168.7578,-172.4064,139.9839,-285.3931,283.8979,-350.2479,150.8729,-246.8559,62.3186,-218.8506,-42.9199,-288.6806,330.7694,-278.0137,294.8791,-276.7259,18.7433,-275.0950
-835.9375,203.3355,37.2731,28.9940,-165.5119,37.2048,-169.6055,107.4518,-272.5871,158.2811,-278.7157,33.5161,-103.6908,148.3425,-172.6883,153.9120,-124.9730,233.1266,-237.5524,169.1462,-231.4506
-828.1250,380.2189,64.0380,216.0787,-166.7853,224.2702,-168.9843,73.8961,-309.0911,124.5397,-314.7233,109.5599,-212.6824,188.4346,-171.8547,230.9285,-198.0897,199.2102,-271.0573,99.3908,-265.9302
-820.3125,1.6825,-53.4956,144.7405,-195.4703,152.9168,-205.7648,334.9250,-307.9990,17.3976,-167.1333,-108.7902,-139.0569,43.1400,-172.4111,196.5326,-87.5911,102.8926,-107.4622,38.2552,-116.7899
-812.5000,-34.2008,-32.7122,74.0659,-127.5079,155.2309,-94.8988,6.6058,-161.2660,166.9023,-128.8972,-105.4829,9.2106,193.4983,-61.3288,125.7842,23.5478,32.2204,-190.2085,214.7756,-187.9900
-804.6875,-107.4789,-48.8036,69.0343,-97.9044,151.1768,-139.3898,222.9613,-168.8877,89.0346,-25.9991,-184.5340,2.1247,-31.5058,-31.5992,230.6754,-20.6530,-6.8099,-152.5023,34.9491,-156.5119
-796.8750,-163.4659,-29.6987,-101.7001,-50.0065,-19.5718,-17.5791,89.5916,-84.2055,-7.5241,-13.8073,-206.2778,124.3438,-55.1875,90.4359,59.8645,64.4537,-26.5498,-106.4314,156.4509,-106.7291
-789.0625,85.5337,61.1974,53.5689,20.8790,171.6797,61.2175,-12.7419,-42.5309,-0.0864,-8.6102,-126.0230,56.5603,26.1180,22.4575,31.0703,-40.4513,-24.2998,-209.2746,88.9475,-209.9310
-781.2500,-129.3882,-21.7476,43.9176,-20.1478,52.0117,12.1083,199.0215,-17.7596,-83.5487,52.6810,-245.6625,43.8899,-57.4705,10.5890,-15.6348,-52.2480,-62.9536,-60.3621,-19.4317,-73.0146
-773.4375,-33.1445,23.4594,-0.5756,37.9722,80.5026,112.1457,-140.0701,82.1536,56.1525,-29.8848,-144.1448,71.3580,82.0949,73.8598,-134.1755,-24.9032,-36.4569,-113.1320,182.3496,-117.9479
-765.6250,48.6640,45.8158,121.5163,47.6799,129.5720,84.7695,56.4683,54.6599,-4.5521,16.1629,-95.0388,-28.5725,-89.7544,-63.2750,-11.1092,-162.9535,-24.3704,-90.9312,88.7279,-106.2576
-757.8125,-110.4898,-1.6976,-50.3549,-8.5727,-78.3130,58.4440,70.0311,65.2199,-29.1909,27.2538,-81.8657,91.5589,-76.5316,20.6491,-107.9992,-41.9388,-44.2468,-11.7512,175.1843,-20.5114
-750.0000,120.9964,54.7681,88.4285,-25.1894,96.4543,46.7533,-85.7286,16.4218,146.8191,-21.0007,18.9617,44.3401,98.3276,-27.7799,-81.2194,-89.2820,-22.4876,-141.8535,162.2846,-140.1030
-742.1875,-47.4021,-15.0378,92.3364,-89.6606,63.3474,-25.7888,212.6668,-19.2281,2.9754,17.9016,-87.0636,9.2807,-45.6641,-63.0600,-77.2994,-124.4620,-49.5879,-13.5510,65.5490,-26.5239
-734.3750,-4.7537,48.7845,64.3033,20.9130,72.2971,90.7178,-35.9058,24.1669,-61.8069,-123.1506,31.9660,89.2659,74.4049,17.7054,-215.3200,-118.5896,-6.6421,-45.0558,178.8837,-54.8943
-726.5625,128.7614,117.7363,205.1579,118.3783,176.1364,82.1153,69.4603,-95.5474,-139.7062,-167.2921,62.8759,44.1530,-5.6438,-64.6299,-38.4401,-272.8151,22.1914,-48.8201,-38.8837,-61.3426
-718.7500,-93.0879,39.2811,-32.3561,104.4868,-24.3836,136.1675,51.4585,-114.5993,-156.9514,-112.7860,-27.5630,135.6982,-59.0197,25.6900,-54.9273,-108.3745,10.6631,73.1473,-118.9691,67.8669
-710.9375,121.7100,86.4030,12.7853,106.2366,20.7458,142.8607,-267.8789,-34.9982,35.4547,-106.6225,17.6465,105.8840,97.2471,33.6479,-9.7414,8.7150,15.7700,-44.9422,-44.4046,-33.2651
-703.1250,-24.8423,-3.7456,37.5973,26.6758,-26.4481,55.2463,87.4985,-48.6928,24.5549,-9.7425,-66.4492,18.7775,-170.7925,-17.6892,89.1408,-5.4798,-61.4414,66.8629,-190.1245,65.3232
-695.3125,-51.6018,9.7220,-135.7931,33.9151,-163.8385,99.4407,-158.3404,31.4178,70.4646,-38.0646,-56.7310,137.4754,-51.0153,100.7794,-10.1805,150.1306,-15.8688,63.3912,-4.0265,74.7042
-687.5000,139.0597,87.6073,-7.7398,82.5988,-35.7909,79.0794,-102.6909,-26.0228,52.8146,-94.9183,-2.5717,80.6328,-68.8020,43.7010,80.9569,19.1972,33.1310,9.7758,-94.4851,19.5473
-679.6875,-146.3527,9.6148,-89.7604,75.2327,-117.8034,29.6806,71.8985,-110.5001,-138.8736,-68.8123,-47.4658,142.7715,-78.6232,68.5899,-37.9604,8.2426,30.0664,120.1358,-132.9618,120.3427
-671.8750,-24.4198,56.2443,7.5773,126.2117,52.5409,88.6274,-160.1472,-125.6270,-114.1986,-156.3442,86.9884,128.2630,165.9069,17.8293,-86.5034,30.6344,47.3383,-7.0773,-10.0815,-2.5160
-664.0625,-8.2330,23.3907,96.1909,35.4822,67.1635,-46.1306,112.1319,-149.4498,-172.2311,-70.5719,64.7321,31.0532,-38.2701,-79.6273,74.2494,6.3378,27.8888,51.1367,-167.8906,48.9393
-656.2500,-22.3486,-4.6313,-66.5000,-86.5516,-95.5120,-100.1802,-49.9097,-94.5667,-41.5550,-88.1056,122.1849,123.5397,54.2695,48.6218,57.7028,135.7508,48.1240,54.0464,28.0211,69.0855
-648.4375,231.2629,62.4184,56.5522,-81.8402,64.5504,-127.4884,-37.1701,-121.9331,81.8581,-114.8768,209.3829,24.7752,68.5425,-13.3866,144.9163,-0.0780,57.0848,-45.5749,1.6729,-28.0104
-640.6250,-12.3111,-37.7548,-18.5735,-116.2881,-84.5585,-130.9439,255.4030,-125.4451,-29.8735,-44.7939,59.4285,-17.1214,-6.3211,-18.5333,105.9693,-5.0296,-10.1230,77.7204,6.2006,79.7501
-632.8125,65.0507,-18.3583,-43.7503,-110.7873,-35.7118,-47.4497,-25.0673,-79.0019,93.3535,-70.7598,110.4217,-5.0727,189.7670,30.2708,45.9891,79.9735,32.5996,-29.5912,154.6809,-17.5451
-625.0000,113.1074,-31.2224,43.7974,-134.5410,51.8583,-146.2062,210.2412,-140.8073,33.3190,15.0410,50.1459,-104.2630,56.5904,-32.1704,169.7630,-55.2646,-24.9513,-10.3563,-76.0893,-4.0739
-617.1875,-67.1496,-48.3799,-109.9712,-140.5865,-101.8809,-118.2527,93.2185,-76.9007,-9.0061,5.5418,79.5685,71.2638,49.1205,69.0957,16.2430,9.2165,6.1817,52.0643,24.8626,62.0919
-609.3750,116.2686,44.4055,12.9479,6.0589,58.0628,-34.6040,-3.0812,-103.2888,40.3629,-93.2293,203.6778,9.4932,100.3267,7.0623,29.4446,-126.5861,49.9879,-42.0879,34.5112,-35.0363
-601.5625,-12.0665,2.7181,-15.8753,15.0008,-44.7251,-30.6543,225.9162,-171.3580,-134.9730,-14.6745,63.0713,-22.9536,-2.1588,-25.6491,36.9263,-157.0473,61.0644,85.3734,-128.5166,82.1424
-593.7500,62.8325,23.3171,-80.4509,54.1943,-36.2581,50.5489,-131.8417,-128.1637,56.9531,-80.8571,109.7119,-15.1436,153.6152,18.8941,8.6670,-77.2497,102.3651,8.5701,52.7112,17.5599
-585.9375,99.6415,21.7055,104.9065,19.3312,76.1334,-23.3003,17.3730,-201.0155,96.8113,-80.0714,75.2929,-88.3753,8.3192,-17.6021,195.3640,-222.4838,139.5919,17.7839,-119.1256,19.9401
-578.1250,16.0256,26.0693,-23.1595,38.0737,-51.8911,-7.5341,1.1502,-185.2532,6.2722,-98.6804,21.4849,2.0155,-45.3605,35.5183,-5.3504,-169.0854,125.4021,111.3334,-26.3468,111.9113
-570.3125,300.2321,116.7697,58.6172,75.6665,103.9266,73.0837,-136.2009,-141.6326,51.5716,-164.4168,103.5193,-63.7351,110.7924,6.4994,-69.2019,-160.8222,130.0318,6.0119,48.2656,10.7281
-562.5000,37.1848,15.0794,38.1551,22.0601,46.5129,-23.4927,211.2495,-164.1953,32.6552,-76.3305,-26.6621,-84.6577,-19.2570,-52.6932,-53.2678,-183.7208,78.4307,110.0823,-71.3127,100.3514
-554.6875,-89.3284,-22.0559,-53.7671,70.0061,63.6467,29.4932,-26.7659,-76.1928,197.2941,-97.6803,-9.2959,-33.0152,108.2547,36.6776,-145.7770,-58.0439,57.3494,49.2365,83.6654,44.5097
-546.8750,24.8143,-1.3760,104.9859,41.6532,186.4553,3.1813,58.9537,-102.4809,172.6159,-87.3033,2.7493,-95.6600,47.4436,-26.2406,13.4215,-156.6557,31.9320,-9.3490,-46.6707,-16.6270
-539.0625,-134.0219,-27.5175,-64.2423,57.3564,-18.7098,14.9392,110.6939,-89.6995,40.9874,-73.8705,-55.1558,27.7754,-10.3039,96.9199,-118.3440,-34.1960,-20.4599,76.2975,-27.9371,71.2770
-531.2500,-6.6258,15.0507,-36.2210,42.3205,46.3745,78.9562,-152.3024,-25.6593,254.6010,-120.1730,47.1736,92.4686,92.1813,124.3328,-124.8499,30.5171,-34.6302,-55.3107,66.0366,-46.5780
-523.4375,-134.0448,-41.0809,11.0113,19.5429,19.6735,14.2408,152.9529,-17.3515,155.4453,-0.2059,-51.2663,28.4398,-117.0924,60.0184,-77.1192,-70.4845,-90.5857,43.9735,-129.7377,37.8233
-515.6250,-108.9312,-21.3580,-109.2219,43.3312,-63.4890,75.0981,-40.2740,80.5332,-1.1673,-49.6759,83.8404,89.9785,92.1945,84.2743,-160.8510,-8.9034,-100.0196,62.4388,3.0469,63.7582
-507.8125,67.2397,11.0807,39.6255,42.2259,48.4290,2.0630,-0.3714,44.5338,-71.7063,25.9834,161.0245,-19.3762,58.5575,11.6391,24.5242,-44.2083,-99.3886,27.2075,-66.0852,29.7959
-500.0000,-230.1741,-108.1962,-128.1152,-44.4222,-119.2293,-57.5050,161.9534,57.0096,-55.8014,223.1118,-7.3517,67.7427,-71.6217,61.4802,4.3339,79.9717,-220.3352,152.9669,-79.7463,155.2793
-492.1875,-215.6056,-83.7208,-145.8636,37.9406,-99.8954,32.9401,-146.7231,185.5109,184.1045,205.2634,12.2612,122.8697,-14.8130,116.3320,-48.8489,172.1713,-241.3179,54.4692,40.5826,64.7499
-484.3750,-256.0057,-84.9245,-79.5551,67.4079,-143.5044,23.4911,-6.2895,176.1380,31.0954,307.5536,-104.0487,78.1362,-205.9240,71.3105,-18.9440,90.5102,-210.2433,131.9774,-137.9943,131.3269
-476.5625,-310.9825,-53.6012,-211.8216,117.3318,-238.6766,110.5089,-174.4362,226.2478,-137.4646,247.3162,-88.9135,202.8795,-116.5755,158.7645,-223.5987,178.3335,-158.7531,181.8115,-14.1035,183.3390
-468.7500,-70.5974,42.7890,-29.7109,179.6625,-57.4754,142.9426,-212.1566,185.7819,-212.6425,170.5156,-17.4041,126.0330,-117.8574,81.6280,-151.8450,101.5827,-93.9088,109.5862,-53.8330,107.7543
-460.9375,-228.0608,-0.9389,-163.4489,126.2050,-264.1149,118.5977,-86.7041,124.5535,-271.6376,220.9380,-113.7077,249.4218,-250.9376,130.7259,-137.9051,151.0748,-145.9023,229.7015,-139.3487,232.3698
-453.1250,-169.1033,21.4569,-169.7493,150.2144,-197.3126,183.7261,-349.8116,189.8029,-130.1825,102.8315,-9.5768,278.2821,-72.5761,196.2906,-143.5081,181.0385,-120.4827,141.3094,-7.4225,152.4210
-445.3125,-147.9634,-32.3062,-73.8384,100.4821,-138.3027,94.1177,-105.6513,174.3318,-181.4999,234.0170,-60.2184,115.4192,-197.9877,144.1314,26.1276,91.2911,-204.8593,171.1900,-195.2634,174.7323
-437.5000,-298.9479,-98.0107,-232.0585,53.6686,-296.4158,155.4346,-188.6392,271.7983,-190.9168,296.1291,-107.9632,177.4797,-134.4911,241.9025,-168.3597,227.4864,-285.3684,194.7113,-63.1970,200.9301
-429.6875,-100.6157,-8.9532,-164.9502,110.2191,-118.2039,185.1134,-267.2614,301.6354,-49.0008,289.6239,-39.3866,207.9078,-65.6776,199.0407,-172.4831,147.0535,-332.5655,35.7619,-73.8010,48.4737
-421.8750,-300.1892,-67.2100,-229.7407,85.9303,-256.8790,81.9586,37.2581,272.6512,-112.9483,371.3017,-177.6886,252.5270,-203.7276,169.3616,-163.4662,191.8121,-391.6506,124.9003,-201.2497,131.1667
-414.0625,-303.9888,-67.2330,-265.7445,116.4600,-255.7594,191.6290,-255.4415,382.4970,34.9028,297.7979,-176.1879,288.9573,-17.9671,243.4971,-235.6508,302.3979,-393.9739,45.2605,-61.9010,58.6403
-406.2500,-211.4486,-88.7389,-131.3793,67.4002,-158.2707,140.7152,-82.7200,368.7675,23.1268,358.7266,-188.3099,91.8011,-176.8182,119.0571,-63.4427,253.4166,-371.9402,43.1756,-178.1710,46.5195
-398.4375,-408.5385,-163.2029,-266.6442,46.7627,-292.4039,151.2340,-105.6385,416.4720,-37.2554,370.0699,-213.0419,141.0677,-201.2565,204.0470,-160.8447,374.8740,-427.5419,129.9687,-127.0264,132.7821
-390.6250,-307.9553,-140.1205,-192.2238,75.8329,-181.8519,224.4626,-287.8393,452.8954,148.0515,297.1435,-175.0960,104.0572,-52.0213,204.7515,-85.5263,339.0506,-431.4791,16.9704,-23.1976,23.7316
-382.8125,-482.5882,-199.6064,-268.9988,41.7624,-294.4871,146.5560,78.8086,412.1967,145.1944,367.1024,-361.3177,137.9322,-238.9461,200.3372,-14.3718,336.1248,-536.6045,131.9288,-161.5188,131.5266
-375.0000,-457.6446,-163.0919,-425.1890,101.3035,-340.5298,210.2711,-223.9694,439.1290,247.9411,357.6878,-259.9465,238.4261,-136.2669,264.5416,-132.6170,436.8337,-475.1665,108.5751,-28.2314,122.8964
-367.1875,-171.8993,-93.8641,-234.5597,104.7080,-186.7530,178.8512,-178.8728,333.9394,71.5148,291.1583,-141.7516,60.7822,-165.7643,159.6155,-15.0115,296.4207,-400.9211,83.0350,-127.1216,93.1110
-359.3750,-335.6361,-166.1543,-334.4209,46.6772,-286.4588,115.0099,-19.2662,307.3376,-210.3673,301.2003,-168.0158,33.7256,-191.7018,206.2725,-39.8769,380.5992,-387.1561,175.6452,-77.4514,177.8565
-351.5625,-123.2849,-94.0403,-252.1933,47.7558,-168.0720,159.2762,-230.5549,314.8565,-54.1577,236.3697,-85.1952,42.7849,-34.5587,215.0455,5.3735,388.8979,-350.3274,26.1909,31.3043,39.6810
-343.7500,-289.7972,-161.0131,-206.8049,-12.9553,-195.5243,56.7580,0.3600,285.6041,-44.7607,317.7702,-186.1981,51.0756,-209.2356,186.0421,124.8233,323.4362,-411.3344,79.7206,-96.7469,85.7035
-335.9375,-422.9864,-166.1378,-308.0823,28.7007,-259.6349,138.6168,-209.4104,294.7305,74.9849,290.5367,-212.8515,170.7321,-125.5516,268.4123,-10.3814,407.3563,-333.0171,48.3711,52.5548,59.0544
-328.1250,-182.0733,-77.5351,-88.2253,93.5183,-76.6149,137.6384,-171.0037,221.0252,76.8523,180.4854,-175.3744,23.5553,-160.7336,121.9494,100.5595,186.4513,-232.5926,-52.5074,-56.0268,-50.4465
-320.3125,-326.4518,-121.4482,-203.6586,126.1034,-191.8775,167.4367,8.1198,140.1024,34.4594,100.2110,-181.1608,17.1670,-203.1562,114.2673,-14.7746,180.3430,-234.4476,58.1860,-160.8564,53.7917
-312.5000,-152.0458,-61.7826,-126.3004,124.5100,-78.3489,208.0511,-279.9659,181.0053,186.8645,-5.2395,-30.1600,21.5947,59.2039,82.4016,-83.2905,222.0512,-164.5357,-56.3372,15.0973,-51.1883
-304.6875,-183.6420,-113.4977,-50.9329,-13.0188,-74.8072,62.7309,17.0072,146.9872,117.2928,182.3947,-63.1348,-48.9008,-83.4082,10.6091,30.2332,188.8443,-161.6104,-10.0397,-83.9087,-11.1143
-296.8750,-210.4028,-104.5912,-187.7391,-4.6825,-212.4316,34.2856,-81.2064,228.8497,90.5613,227.9032,-89.2608,-2.5222,-1.1564,56.6952,-105.4060,271.5163,-116.8675,-4.1397,102.9404,-1.2083
-289.0625,27.0454,-14.3514,-6.3124,57.9151,6.1728,32.1023,-155.1498,226.9916,200.0572,189.6927,-18.1547,-114.8744,-38.6810,-92.9490,-33.7900,122.4543,-19.9147,-111.7830,62.0140,-113.0560
-281.2500,-188.1513,-76.6942,-52.5304,17.9273,-111.8602,-50.6537,57.2832,180.5702,228.9411,254.9048,-98.6674,-86.7887,-228.8093,-138.1586,-76.7891,77.8348,11.4049,-0.0842,-10.5056,-10.5083
-273.4375,-80.4105,-22.3673,-80.8126,20.9069,-30.9499,-6.4368,-189.3465,226.1312,274.7780,153.0928,19.7544,-4.7390,37.0040,-56.3997,-177.8306,50.1880,13.6368,-111.1409,240.9151,-112.0312
-265.6250,19.6709,9.1773,99.2719,-53.7024,75.3264,-47.8085,138.4418,148.1209,-96.0096,149.7185,16.5415,-45.2599,34.2011,-133.2184,2.5159,-100.0247,9.2321,-102.7421,97.7158,-115.1513
-257.8125,-27.9250,38.9979,10.6797,-31.9412,-50.0667,-26.7964,88.5385,169.4960,-439.4458,135.7111,-35.3263,50.5974,19.7615,-1.6542,-84.8086,32.1455,102.1503,-43.1997,157.8699,-55.9395
-250.0000,230.6467,143.8960,177.2705,87.0355,117.7227,-7.5683,-111.1505,116.0928,-345.6946,44.9419,21.9873,-39.3385,3.4944,-17.8746,-26.9173,16.5350,221.2289,-173.9843,103.1961,-182.5359
-242.1875,47.4599,73.1404,93.1167,45.3272,33.7743,-55.0133,137.4463,-4.9702,-428.6610,72.5096,-61.4189,-12.9454,-115.4782,8.2347,0.2535,6.2735,179.5678,-69.3829,-42.1810,-81.8378
-234.3750,37.5116,57.7553,11.1982,34.8895,25.0682,10.8139,-89.7337,24.2520,-251.3882,-8.6488,41.4160,53.7180,171.8005,73.6152,-43.3275,73.2904,134.1264,-126.2503,161.6867,-125.9117
-226.5625,96.1667,30.0982,148.9004,-45.8867,88.9819,-36.6978,122.7561,-22.8516,-186.4912,55.8790,68.8691,-29.9403,51.6960,-9.3329,205.7436,-47.0178,53.3033,-133.3505,12.1818,-135.3336
-218.7500,-101.6066,-19.9565,-23.8302,-67.0412,-46.5305,-98.5752,136.7996,-48.3155,-173.9968,31.0235,44.9138,93.0294,28.2008,39.3482,144.4013,39.3141,32.0514,-52.2265,28.2829,-49.1731
-210.9375,60.4538,61.0176,78.2801,24.6729,129.7969,-33.5833,-54.3024,-55.9011,-34.6704,-123.9536,73.7965,84.8620,168.5380,30.8970,137.9074,32.5169,88.6108,-173.7419,52.2031,-167.1757
-203.1250,-83.0868,-0.0405,107.8056,22.8576,85.5346,-78.1172,272.0355,-136.0033,-186.9222,-92.4550,-42.8931,5.1778,15.3128,-12.0774,131.8400,-10.7928,50.5911,-53.3795,-123.4376,-62.7286
-195.3125,-72.0833,-12.1882,11.8673,34.6168,26.8189,46.9283,29.8872,-48.5288,-171.6279,-151.3914,45.9616,20.0623,214.6378,76.5180,37.3274,115.4664,27.0965,-83.5989,31.4645,-84.7538
-187.5000,134.0288,69.1611,157.0539,30.5404,135.2230,8.1376,102.9033,-86.8813,-172.2105,-152.1473,80.9377,19.1193,140.0821,-35.7127,183.9695,3.8984,22.7250,-123.8978,-111.5118,-122.6279
-179.6875,-82.6911,19.8060,37.4060,-9.3126,-21.2011,-38.4218,206.0772,-94.9975,-216.6104,-86.6825,-0.8935,158.4081,95.7324,29.2935,28.7831,32.5741,-16.4681,-21.5437,-148.2861,-20.3145
-171.8750,93.8786,53.3362,43.0575,27.1487,132.6691,5.3332,-80.4537,-51.7865,-63.7287,-115.8911,79.5627,55.0038,249.6603,36.6158,-0.0982,77.5684,54.6089,-132.5459,-40.7859,-123.7147
-164.0625,-33.5018,-37.7629,17.7698,6.7218,33.6063,-20.7935,190.1144,-40.4447,-123.7694,43.0306,-18.9052,-80.2742,4.6736,-61.9383,159.1101,89.7003,-37.2465,-35.1428,-164.2030,-38.0132
-156.2500,-172.8886,-79.9872,-162.5299,44.3160,-110.4623,56.1090,-25.3542,73.9232,-46.8136,46.9624,21.6257,-3.5309,82.7025,51.5304,90.3073,240.8613,-71.1276,-39.2475,15.3790,-34.3336
-148.4375,-49.2605,-28.4633,7.1962,27.9705,23.4932,7.0743,0.2440,98.3626,-21.8239,72.9764,46.1775,-14.7172,34.7533,3.0631,189.5696,119.0921,-51.9874,-122.3245,-34.0194,-119.6033
-140.6250,-261.5636,-82.6083,-144.0246,-8.2537,-127.4883,1.1678,180.9043,93.9348,-98.7386,105.1144,-68.1841,91.2280,-43.1082,34.7251,74.9196,115.4618,-123.7646,-11.7473,-67.3118,-13.7803
-132.8125,-19.1728,17.7466,-105.5539,60.2416,-51.7728,114.9805,-72.7433,97.2384,-21.9628,-75.0211,-27.8563,94.8762,144.7169,112.1034,5.9717,119.5493,-90.8714,-126.2705,108.0777,-120.2770
-125.0000,6.2253,0.6293,-42.0622,16.7988,-25.0384,67.8609,176.6651,14.6255,-31.1673,-10.0704,-37.5057,12.5951,-85.4266,66.5539,144.0550,0.7185,-99.9609,-92.6091,-74.5015,-92.7215
-117.1875,-192.1412,-29.9706,-175.3309,30.6303,-158.0626,82.0193,45.2779,66.2985,-53.1260,5.1454,-59.9139,174.5872,3.6910,154.2792,-24.6275,163.1714,-122.8235,-82.6851,82.1670,-77.9380
-109.3750,-65.6415,20.4755,-37.7083,17.3733,16.7982,74.0913,1.8082,57.8927,86.7970,-38.7113,5.5551,167.4916,-4.3180,72.9184,78.5984,82.5430,-66.8103,-202.4220,34.7050,-196.2598
-101.5625,-234.6263,-47.7558,-144.5725,-9.3125,-126.8184,4.7332,227.8658,26.0682,-18.7458,77.0040,-100.4497,134.9760,-144.7851,41.1355,47.3543,125.5011,-58.2682,-79.8848,-60.2091,-81.0380
-93.7500,-79.4505,-12.7638,-123.2914,77.1762,-68.2846,99.5489,-117.9490,47.4209,113.8537,-11.1167,-5.3123,46.6131,96.8897,62.5148,-40.7361,147.6259,-7.5968,-177.3727,28.0056,-169.6876
-85.9375,0.4875,-6.8040,-3.2361,87.4772,-21.9830,36.1824,42.0504,-14.4014,51.2283,37.5897,5.6039,-51.9337,-1.6608,-36.2882,117.9672,12.5765,-34.1535,-162.6684,-206.0055,-158.5334
-78.1250,-207.2391,-60.0899,-111.8510,22.1446,-130.3465,39.1923,8.3569,-11.8403,-56.0478,40.6584,8.8695,98.8862,38.1532,40.2851,11.0076,89.9074,-64.3800,-87.7549,-92.6625,-82.0474
-70.3125,13.1131,24.1009,13.6294,-3.0758,32.3825,54.3122,-122.2259,3.8452,-2.2405,-16.1501,61.2223,114.8140,91.0422,-17.0322,101.1613,-3.6483,-55.5331,-185.9688,23.7506,-176.4685
-62.5000,-145.3670,-27.0093,-45.7268,-18.0810,-63.7241,-4.3475,188.3658,-54.2425,-133.2472,73.2623,-107.2424,93.9753,-76.8833,-39.1220,117.4963,-23.9692,-71.5015,-47.9216,-59.6447,-50.6900
-54.6875,-129.2317,-18.5277,-136.4844,33.5385,-80.2273,52.6121,-83.4762,41.2915,34.3395,21.2831,-87.1133,114.7494,90.7842,19.4028,65.4312,71.3243,-55.8786,-109.6839,98.5465,-103.3319
-46.8750,-57.9840,-53.8375,12.8923,1.3195,32.3968,-17.2735,104.8494,7.9941,75.0511,99.4897,-83.8549,-65.3132,-15.4238,-50.9148,216.5093,-35.2138,-124.1230,-98.4931,-38.1464,-99.8197
-39.0625,-226.8030,-114.3051,-129.8018,-60.9330,-110.0414,-14.1833,109.0825,48.6784,5.7054,103.6602,-42.6455,13.5930,-10.6665,26.7423,0.5133,44.2294,-151.4362,15.8547,8.1115,14.6292
-31.2500,67.3253,14.8706,-38.5445,-11.2209,18.4683,42.8692,-126.7320,32.3305,99.2931,-23.2076,86.5057,33.4502,119.0310,47.3601,-53.5275,-9.3677,-33.8188,-85.0427,58.2887,-75.9827
-23.4375,-28.9759,13.4223,-33.7187,-0.8883,-49.4529,-24.4571,174.0418,-71.3947,-40.5419,21.5371,-89.7652,40.9327,-130.6913,-19.3947,28.0190,-111.3426,11.3856,44.3544,-104.9479,41.0075
-15.6250,-34.4110,41.2398,-147.0533,30.3178,-89.5264,45.0884,-85.3683,-0.2507,-6.5251,-91.8627,-56.1913,111.2756,13.4294,50.7127,-157.5846,-3.4568,111.4352,35.9309,67.6628,37.8279
-7.8125,148.8750,56.4017,83.3463,4.2853,67.1307,-17.6043,-36.0062,-62.3397,4.2181,-79.4826,27.1102,-60.6237,-11.7244,-47.4240,-35.4404,-101.8049,119.2188,14.4443,-27.0137,12.3998
-4000.0000,-25.6462,24.0438,-56.4758,62.3041,-81.5323,39.4751,-61.1697,55.2399,-170.1316,77.8343,-63.8627,59.8493,-113.7627,36.7548,-114.9262,36.9850,-7.8837,78.7976,-110.0153,78.3022
-3992.1875,148.5421,91.2440,18.1737,96.7333,29.7537,116.5942,-279.6143,96.7602,-59.0337,8.6158,10.7790,64.1792,32.9823,39.8428,-114.0629,3.0464,-9.4181,-32.8312,61.8841,-27.8476
-3984.3750,-16.8035,21.5089,99.2895,73.6033,73.5070,51.1429,57.4158,31.7200,-200.4778,17.8454,-91.1229,-36.0630,-69.8329,-23.6343,-70.7308,-97.4550,1.5046,70.6655,-103.7774,55.4466
-3976.5625,-39.4604,40.4973,-34.9077,158.1579,11.9484,138.3799,-186.8542,45.3739,-190.2117,-77.2264,-79.3164,49.3969,51.0632,98.5937,-169.7011,25.7514,14.1250,74.6525,-22.7217,69.4434
-3968.7500,198.5626,76.1475,105.5607,150.3580,116.0605,170.2635,-156.4850,41.6724,-87.2677,-81.6605,24.1619,-100.5099,43.6225,20.4622,5.9891,-52.4031,6.4010,-4.5258,-103.0054,-7.9300
-3960.9375,-24.2721,-14.5342,-97.8183,68.6985,-87.6773,115.2841,44.0729,61.1093,-145.1701,48.0521,5.7834,-45.2740,-49.6791,3.4689,60.8427,3.5794,-40.1753,125.6557,-81.1471,121.8472
-3953.1250,29.6556,11.2178,-73.4543,53.7838,-27.6591,104.0541,-189.6367,160.2931,96.6990,36.4967,102.1736,15.7099,119.7952,-8.7732,82.4424,-8.6882,-21.9884,31.8248,112.4913,37.3605
-3945.3125,36.7535,2.7002,78.0803,-5.9938,14.5275,-35.0419,109.8253,93.6158,100.7329,81.0807,-2.2786,-49.1701,-21.5886,-111.8800,235.2199,-147.8296,-13.6373,86.2860,-56.7187,82.0094
-3937.5000,-65.3110,-37.0490,-67.5454,-37.9345,-95.4444,-33.2970,1.1517,95.7842,100.6245,120.5068,-0.8847,-10.1993,87.8776,-36.1366,51.8484,-36.1223,24.5748,121.3070,119.9388,121.5086
-3929.6875,141.5029,7.2347,79.6966,-6.0316,88.4572,4.2968,-72.6839,98.7984,209.3944,49.7633,72.3755,-155.3927,124.2183,-70.5543,124.3369,-144.5775,56.6478,15.9380,115.4749,13.8347
-3921.8750,-95.5926,-100.2109,10.0511,-66.0440,18.4616,-64.0203,187.6254,102.9021,65.2759,128.1131,38.7392,-187.5109,53.6553,-102.8893,53.9454,-176.9516,-39.1800,144.1484,53.1099,129.2585
-3914.0625,-78.3803,-78.7230,30.6978,-82.7662,112.7679,-4.0386,-83.7794,127.3049,158.4843,41.7467,134.4247,-90.3319,294.4188,-42.9242,-109.1537,-43.0231,13.2972,48.3376,174.0761,42.9704
-3906.2500,55.3585,-26.8732,169.8719,-123.9914,177.6038,-83.5697,91.3292,10.1947,149.2127,35.8630,52.6287,-96.6798,64.6942,-123.4747,139.2706,-123.6193,41.2831,42.6535,-10.4521,37.1621
-3898.4375,-25.5117,-23.1225,-26.5566,-97.8298,16.8317,-59.7136,39.8600,-0.5324,170.3505,-48.6301,-33.7593,1.3652,-22.6290,-62.6328,124.1042,-25.8209,66.6793,99.3887,83.4270,98.7530
-3890.6250,116.2105,-37.4137,88.5783,-95.1290,168.6329,-53.3129,-65.0793,42.2846,285.0758,-114.5950,81.4305,-176.0591,128.6272,-92.2529,239.5014,-20.4821,32.6389,-4.8092,118.8817,-4.1307
-3882.8125,-76.8547,-144.7792,62.9331,-218.2514,33.6486,-149.7350,241.2219,20.2859,148.0143,45.6353,19.8277,-199.3048,30.0806,-115.6909,251.1267,-5.9587,-54.1963,127.1114,30.5356,120.1783
-3875.0000,-0.4221,-87.2479,-1.2187,-174.8863,42.1678,-65.6647,-6.9822,29.7824,229.4788,-16.6509,102.7483,-78.0526,185.0592,4.3686,75.2536,77.0608,-48.5184,51.9581,175.7228,57.9757
-3867.1875,76.2960,-37.8204,116.9047,-133.2840,158.9610,-94.3596,147.0709,-70.4873,272.2283,-44.7040,35.9434,-106.5679,6.3066,-60.3399,228.6603,-60.6969,-6.5733,30.3210,39.1679,30.0001
-3859.3750,-162.1921,-114.5246,-65.1718,-124.9000,-22.4468,-55.2683,111.9565,-67.9762,235.7917,-3.9650,-35.0583,-30.2956,-28.6444,15.7426,118.8797,52.3349,-33.8196,142.4051,10.4201,143.8218
-3851.5625,55.5986,-59.9016,19.0163,-46.2720,98.4204,-5.9232,-169.9189,-18.2243,319.6382,-28.0091,49.2116,-127.7952,128.6903,-8.9316,130.3491,100.6046,-27.8016,37.2780,50.9573,46.8699
-3843.7500,-98.0917,-136.7731,1.7314,-94.1607,42.8097,-60.0976,141.7416,-34.9940,262.9948,65.4245,-41.9963,-181.8169,-74.4693,-99.1245,184.3422,83.3500,-110.2723,142.7611,-103.0065,140.4056
-3835.9375,-219.9304,-132.1841,-89.7101,-40.2192,-47.9547,34.5670,-132.7452,23.0730,354.2249,13.6902,-59.3305,-13.9868,54.2476,31.5303,56.1874,213.9494,-91.8840,118.4313,53.9063,124.7796
-3828.1250,-34.7358,-61.9632,69.8718,-28.2924,111.3110,11.2113,-10.2306,-35.8751,366.4934,-45.0638,-82.6301,-73.1718,-7.0093,-27.8306,179.0607,43.5355,-81.4810,65.2668,-7.1632,66.1246
-3820.3125,-186.8923,-102.7575,-94.8907,-75.7323,-90.7723,-42.5141,118.9719,-16.1916,236.4288,11.8208,-137.2745,20.2789,-98.6155,-8.5524,159.6022,100.7553,-128.4222,158.6014,14.4227,160.1147
-3812.5000,-15.7663,-59.2221,-93.3924,-8.9352,-17.5880,32.0110,-173.5983,58.7357,346.6481,12.9212,9.3607,-51.0339,10.0614,-7.0306,160.3979,139.2211,-97.0997,42.2015,150.2980,52.3311
-3804.6875,-58.5715,-108.7679,3.1794,-52.1008,-29.3272,-15.4286,106.9213,11.6874,184.9409,112.0489,-2.9350,-136.3295,-76.2006,-55.4843,220.2795,17.7140,-175.7202,113.4423,-105.7733,114.5780
-3796.8750,-127.3883,-99.6771,-68.2539,-14.2878,-65.0642,24.1155,-74.5393,14.6270,74.2601,42.1557,-1.2167,-23.6326,107.5631,93.0538,37.1690,92.2052,-173.3343,111.8896,35.1843,117.8151
-3789.0625,50.4835,-13.1601,84.9882,23.1666,123.8774,30.2998,-69.3502,-15.8007,117.2708,-24.1176,5.1765,-53.3100,77.0099,27.2289,116.7352,-46.6677,-101.2827,13.7111,0.8158,15.6718
-3781.2500,-232.3363,-101.8379,-32.4614,-13.0962,-66.8730,-12.2356,107.1796,-57.9521,70.6024,79.8999,-75.1225,14.2978,-41.2463,21.6926,70.6226,56.7389,-102.9197,122.2023,-37.2555,119.8192
-3773.4375,-64.4897,-36.3547,-36.2591,51.2816,3.0397,58.8718,-225.6564,-23.4688,140.6180,5.5395,105.2531,11.5535,102.1806,18.8075,-5.8364,128.7917,-38.8910,-0.2333,95.3621,8.5927
-3765.6250,-10.2650,-44.8615,55.3266,-1.0037,57.3315,3.3143,48.8844,-40.6587,47.0144,24.5047,86.9998,-78.8663,-65.0278,0.2424,85.0854,-0.8369,-91.4961,28.5366,-63.6604,27.6921
-3757.8125,-83.4488,-52.1991,-59.4890,-36.7018,-57.7745,0.3454,-29.9551,-7.2686,41.0304,-50.9511,45.3640,26.2998,76.3826,107.2664,-66.3848,69.1263,-93.4879,58.2342,143.9387,61.3826
-3750.0000,143.3607,40.7455,71.6642,-21.4634,110.0999,22.3195,-44.8516,-58.9366,135.0363,-175.4893,66.7120,-24.6057,133.7783,92.2258,-9.8885,-55.9723,27.4869,-64.9895,193.5207,-63.0085
-3742.1875,-47.1183,13.3882,15.5334,-0.5519,16.6862,-33.0322,230.0002,-149.9280,3.7636,-120.3406,-63.2285,30.1676,-70.1205,73.8711,6.3328,-110.3902,49.1689,37.7894,72.8113,29.2883
-3734.3750,14.3125,45.7617,10.3054,61.2491,85.1830,72.5117,-32.2551,-154.0370,108.4306,-234.3220,79.7565,62.8335,144.9200,69.4121,-35.5414,-78.9171,75.7636,-85.0850,168.0425,-84.5363
-3726.5625,123.8259,70.1481,124.1583,30.0931,124.7606,3.0939,154.5601,-223.1251,73.1882,-230.2877,82.8098,-6.4771,73.0272,-0.0202,113.6821,-184.4303,114.4250,-78.5227,-5.6613,-80.3397
-3718.7500,-38.5693,9.0089,-13.8898,-61.9808,-50.5590,-96.2404,89.5069,-176.1359,118.0704,-220.1694,91.9689,114.3042,82.2468,120.6346,49.0260,-28.8538,92.1958,-3.8746,111.7539,3.9464
-3710.9375,102.9718,18.5305,101.9822,-166.1688,102.0494,-128.6862,-88.6596,-97.2606,269.8982,-213.1738,98.0626,82.9633,160.4076,126.1739,237.2801,14.6099,93.8801,-115.1752,253.1072,-99.9001
-3703.1250,-147.1241,-72.9313,56.2258,-239.0303,56.0254,-209.8077,306.5660,-141.0560,186.1042,-110.8459,-95.4774,74.9471,2.9226,81.0408,300.9113,-31.5960,54.9299,3.5801,177.8214,2.5876
-3695.3125,-136.9726,-35.8394,-41.2822,-157.6543,31.2617,-122.6857,62.0456,-91.6144,308.5924,-207.2936,-44.7506,162.1752,199.7231,168.1550,166.7928,-17.5518,66.2419,-63.8613,362.8263,-56.6943
-3687.5000,-57.4347,-35.9113,153.5917,-149.9428,189.8878,-148.2216,220.8893,-152.8453,282.4691,-195.4264,-33.6470,26.7304,136.9042,69.5990,325.0580,-153.1863,39.9175,-115.6871,194.1977,-117.6592
-3679.6875,-245.9010,-91.2300,62.4739,-162.2496,98.5187,-163.7779,276.7775,-168.1076,116.3646,-102.5799,-13.5330,83.2698,192.1035,53.0299,159.3486,-96.8390,25.5995,-55.8673,179.5863,-60.6347
-3671.8750,22.8623,-6.7754,204.5659,-139.3664,239.3752,-133.1413,86.8540,-137.1846,109.5075,-180.5721,164.8202,4.9908,369.5504,10.6529,42.8586,-65.3046,85.4922,-211.8441,272.2110,-212.4424
-3664.0625,19.1460,-32.8106,159.1884,-179.0067,157.7626,-178.0261,373.4743,-144.7908,-46.8200,-114.0906,156.6908,-75.8170,139.5074,-33.2503,143.9050,-109.2972,45.9011,-137.2973,161.3405,-145.7697
-3656.2500,-26.3657,-52.3260,-33.9825,-153.4675,38.3570,-112.7257,69.3028,-79.2195,238.0852,-122.4403,147.7853,-11.4237,166.6972,31.0425,208.1559,-8.0987,35.5253,-197.8847,361.6999,-190.9134
-3648.4375,82.9678,-36.7268,121.6810,-115.1417,192.7900,-104.6394,114.9362,-70.8783,428.8274,-114.0210,82.7122,-150.2518,63.7284,-70.8835,399.2313,-110.1242,39.9685,-293.5475,223.8780,-292.2925
-3640.6250,-39.5929,-58.4404,61.4561,-131.7317,59.3353,-126.4748,202.7096,-56.4631,257.6880,-62.5168,-13.2435,-98.0009,40.8706,-92.7281,155.4277,-59.0733,22.5208,-198.0837,205.1649,-203.5833
-3632.8125,106.9763,-24.4195,74.3418,-125.2356,144.9993,-77.2135,-43.4282,30.0283,379.6925,-12.9522,72.9402,-159.6645,236.1576,-117.4771,56.7362,-9.9279,99.1953,-338.8989,351.5886,-337.8025
-3625.0000,71.9220,-53.3304,108.6077,-196.4104,106.0438,-189.6247,285.8270,-8.1579,339.0839,132.9383,-3.5020,-198.0079,11.8088,-192.9035,163.4342,-85.4610,64.2347,-297.2689,173.3696,-302.6960
-3617.1875,58.0620,-49.4371,-126.9264,-175.4087,-19.7073,-167.8537,123.2994,50.8407,360.7048,119.0054,56.2727,-102.1610,70.6946,-60.1411,1.3494,84.2052,15.4830,-324.6200,334.3889,-316.4013
-3609.3750,221.8413,-5.0207,11.1723,-187.8260,119.1788,-175.4989,115.3711,43.4221,461.9765,37.6393,121.6858,-146.7413,98.2208,-141.7998,139.8875,2.4573,2.3447,-444.7728,286.0438,-434.5397
-3601.5625,-59.9697,-85.6436,-30.3164,-222.8736,-33.5219,-216.7728,367.8956,1.3735,382.6751,69.6506,-30.4834,-77.9383,-17.8407,-110.0808,133.8591,-2.9096,-31.3841,-328.0976,215.1084,-328.2889
-3593.7500,83.8485,8.7746,12.8013,-150.3393,83.3958,-100.4583,43.0125,45.9002,352.0212,-107.7707,86.9744,2.4576,135.7429,-66.7746,103.4466,-32.6860,41.5047,-437.6642,321.8170,-431.4626
-3585.9375,141.7019,34.7804,145.9510,-92.8244,142.3461,-78.1644,249.1590,-115.6029,78.4102,-121.2180,146.4540,-86.1779,10.3472,-191.4981,162.0799,-120.4964,64.4101,-404.1286,97.5425,-408.6619
-3578.1250,12.0006,-13.0391,7.5524,-46.8818,3.7526,-32.4446,147.7821,-106.6819,-23.7274,-112.2373,155.4055,-76.3753,128.4225,-108.7818,23.1821,-1.8635,39.7791,-359.7746,212.7470,-362.4207
-3570.3125,219.7832,14.3705,154.6313,-50.5021,187.6450,-31.2845,74.8494,-106.3338,123.6347,-111.8447,229.8432,-186.1430,201.9951,-145.6342,133.7602,-74.8035,-34.3791,-473.4707,208.4360,-471.7633
-3562.5000,19.8688,-51.8157,87.0360,-109.8436,46.8598,-98.8473,338.2674,-99.7183,18.3248,4.8233,15.5882,-143.6368,-13.1179,-102.2111,138.6779,-32.4722,-93.2229,-347.9759,112.4361,-354.8180
-3554.6875,17.4637,-7.7225,13.9467,-41.6995,83.5929,12.0818,44.1888,11.3754,91.5582,-105.0455,15.8548,-32.6416,134.3178,8.7025,28.0997,78.3570,-24.5533,-427.4382,214.9799,-427.3929
-3546.8750,183.6464,83.3320,114.4436,17.9718,146.9165,-35.4551,180.6825,-110.0067,6.3841,-151.3936,79.7003,-43.1232,12.3325,-75.8555,91.1060,-79.2934,71.6787,-437.6209,-76.9094,-437.4459
-3539.0625,149.2282,97.5417,-36.6490,53.0224,-41.3484,34.3933,103.6155,-187.0173,-71.3697,-229.3698,149.9560,26.7773,45.7658,-43.0299,-133.4753,-46.5565,142.3252,-372.8075,-78.3762,-367.1064
-3531.2500,416.8431,201.5102,137.2866,144.0648,132.4231,98.2372,-126.4608,-233.0545,-45.0741,-349.3834,324.2394,-19.3415,182.2469,-89.2224,-107.0424,-129.8378,198.9905,-498.8447,-92.8011,-486.7990
-3523.4375,248.4649,110.8915,140.2496,81.0880,61.2226,27.0566,133.5150,-231.1225,-189.7494,-236.4194,253.5340,-127.4883,0.7362,-197.4376,-68.5727,-127.1457,206.6672,-370.3530,-226.2138,-373.5049
-3515.6250,277.5917,114.0142,95.7154,108.5907,53.5293,93.3619,-168.0050,-127.7075,-124.8895,-243.9868,246.3535,-135.1446,176.7670,-168.1613,-223.5910,12.0419,199.8576,-381.9784,11.9141,-380.7249
-3507.8125,406.9111,112.9609,195.3580,27.2272,153.0213,7.8045,-32.3661,-102.1657,-99.8395,-107.4344,199.3604,-257.6748,53.9828,-216.7615,-51.4231,-73.6432,189.2155,-389.5951,-34.7857,-391.8235
-3500.0000,175.2819,37.2027,-16.9390,5.8903,-95.4297,-19.7245,50.3656,-19.6019,-127.7125,12.1488,135.4303,-138.1718,-46.7369,-97.3275,-79.1853,9.7023,63.6298,-273.7469,-21.4208,-271.8778
-3492.1875,269.3242,78.8672,-25.5692,29.1893,5.7984,44.3897,-179.2654,44.5906,10.1098,2.3465,200.1773,-73.0327,54.2453,-69.2526,-15.2752,36.6889,51.7090,-367.5946,36.6401,-354.3082
-3484.3750,61.3245,-9.8526,7.7846,-4.5886,-33.9889,-32.5705,112.1005,4.7100,-67.0830,72.4724,86.8873,-113.9749,-96.8036,-110.2505,91.6246,-40.3969,-16.2595,-247.0462,-138.3380,-246.8048
-3476.5625,31.4670,5.7764,-96.7139,0.7633,-102.6201,9.6057,-103.3687,9.9631,-62.0920,-32.2705,129.7584,2.2238,55.3303,42.8974,-87.3145,38.6753,24.9302,-250.2032,42.8733,-241.1606
-3468.7500,235.3976,80.1984,80.5655,61.8510,37.5350,2.5214,-73.0741,-34.0544,-33.3068,-39.2940,196.4052,-78.8527,11.2502,-75.2248,15.5262,-79.5261,52.8839,-292.2697,-106.1423,-284.7954
-3460.9375,-10.7258,19.0515,-37.1990,25.8702,-116.3531,-5.6329,30.2174,-41.1522,-224.5531,63.6154,116.0135,24.0053,-32.8697,-45.4193,-101.6558,-13.7912,52.7965,-146.0919,-72.1973,-144.4839
-3453.1250,111.2197,64.3627,-15.9020,76.9218,-59.1673,52.2565,-206.4549,88.7796,-93.7101,47.5407,210.7041,7.9078,135.1072,11.4275,-191.7781,6.9860,69.7763,-240.6076,119.8351,-234.1431
-3445.3125,54.7381,15.0370,-6.0158,-15.4894,-49.3956,-12.3215,97.4518,62.2299,-120.2894,93.9864,184.9616,-55.6599,-39.3459,-52.1991,-72.3212,-167.7172,48.3198,-146.6873,-43.5821,-150.2685
-3437.5000,-6.9550,12.3006,-146.3263,-42.1136,-152.8201,-5.1055,-78.8289,142.4601,-114.0421,100.2102,155.0191,60.5634,4.0275,26.9736,-176.0516,-50.6239,57.6690,-110.8089,105.8340,-106.5987
-3429.6875,205.1346,69.0858,79.1403,-43.0007,72.5409,-38.1484,-74.3542,73.4249,-35.9984,-5.8449,197.8425,-45.4867,82.1898,-79.1227,12.9969,-193.7947,93.7773,-214.3918,70.0369,-212.2057
-3421.8750,65.5167,30.6046,37.9188,-77.6065,31.2143,-116.9112,215.4727,-79.3365,-77.6315,-121.6122,119.9698,-13.2520,40.6599,-83.9372,7.3744,-234.6866,94.1917,-102.1114,-35.4522,-106.5157
-3414.0625,162.0500,72.1355,67.8496,-18.0714,135.0522,-13.5258,-48.5580,-85.9635,98.9183,-311.2582,187.2683,-20.8680,254.3209,-54.6059,-36.0939,-206.4314,155.7675,-187.3416,131.2556,-186.6909
-3406.2500,134.7624,25.3513,182.9626,-80.3965,176.0728,-83.0040,213.5915,-156.4643,66.6457,-270.7755,154.7291,-127.3544,75.1485,-161.1485,151.6179,-275.0567,128.5034,-99.3542,-37.8781,-108.7361
-3398.4375,-51.3345,-39.2872,-16.7252,-92.5434,13.2970,-63.2938,123.9690,-62.7788,86.5867,-214.1079,139.3917,-33.6473,169.1941,-103.4974,25.5419,-144.4795,47.4402,-10.3951,91.2099,-14.5831
-3390.6250,237.7988,29.4820,178.8092,-121.5015,208.7517,-51.3907,25.5359,-50.9061,208.7720,-276.2697,225.2832,-132.7616,217.4848,-129.6557,73.6824,-207.7140,55.5882,-112.1842,98.5300,-113.2545
-3382.8125,128.2841,-8.6882,131.7130,-160.1261,124.5763,-135.1510,272.5012,-134.7103,87.3175,-214.0980,104.5310,-142.5419,23.1404,-139.4836,136.1935,-218.6207,87.0914,31.0779,-46.7961,23.4204
-3375.0000,252.4740,69.7242,116.3199,-73.0563,109.1123,-79.2130,-73.8400,-150.8294,182.5876,-267.2499,163.5034,-49.6265,154.5378,-83.6196,46.4019,-124.8301,141.3026,-37.7067,41.6104,-29.2156
-3367.1875,287.6884,87.8445,224.9555,-38.9972,217.6776,-117.2855,144.8299,-227.9685,105.8918,-233.4150,87.4948,-124.7284,4.9554,-195.7764,154.6516,-201.0588,141.5230,7.9318,-99.9713,5.1285
-3359.3750,32.1388,15.4864,60.8404,-48.7031,53.4925,-98.1200,165.7780,-207.8750,15.4703,-139.3365,-1.2665,5.4130,61.6253,-138.6979,27.1717,-71.0466,61.0018,137.1899,-74.2888,135.7244
-3351.5625,179.6619,57.4567,143.7871,-8.3662,173.3812,-51.9034,-46.2411,-162.7393,99.1352,-168.2356,82.0430,-23.4048,181.3911,-130.5786,110.7513,-25.9957,68.5422,65.2517,-33.5197,71.3508
-3343.7500,-9.0126,-10.1360,158.5627,-22.2448,78.0953,-111.9067,226.5818,-185.8284,-70.3891,-80.3447,-12.8445,-45.4411,-24.0308,-116.6741,52.1535,-12.1657,19.8887,240.4785,-187.9570,232.7714
-3335.9375,33.9063,39.1862,19.9389,19.4642,12.4179,4.6849,-95.9928,-105.3312,-99.2889,-110.8714,68.8771,71.1191,93.1818,36.8228,-161.8424,105.2704,97.8330,235.9039,-39.7647,239.7860
-3328.1250,138.1989,72.4446,127.6906,87.5161,120.1204,39.6240,-24.2098,-144.5068,-64.8010,-150.0710,30.9591,-40.9835,-18.2352,-38.3433,20.5423,-43.9508,132.1328,241.6691,-182.2067,238.1312
-3320.3125,-103.1223,29.9496,-58.1569,125.9539,-102.7760,109.9521,-26.9891,-148.3019,-140.9002,-153.8824,-118.5617,102.3084,-95.2489,67.8847,-56.6552,-11.7755,101.8342,386.2953,-179.2447,381.8799
-3312.5000,30.7619,98.7674,-23.7974,187.5870,5.5425,143.4800,-249.5827,-114.9054,-69.7612,-193.5214,-46.8680,135.7980,49.9816,138.3178,-95.6404,-51.3968,129.7382,265.9962,-45.0479,268.8119
-3304.6875,-101.1535,63.1599,54.7869,160.4075,11.0820,74.1911,49.0618,-110.3297,-249.4054,-115.9657,-151.9732,139.4686,-92.5843,104.9356,-91.3917,-120.8310,68.8472,358.9010,-213.6507,346.9379
-3296.8750,-122.8815,70.2071,-42.4409,137.4183,-50.1789,122.0998,-195.0922,-25.5603,-236.8306,-104.2198,-138.8679,261.3427,-5.9214,190.7527,-225.9458,37.9365,47.1523,361.4653,-25.0291,359.2645
-3289.0625,93.6135,111.9287,76.5573,141.6187,68.7904,56.2065,-150.0492,-54.6043,-155.0263,-97.2947,-93.5529,122.4012,-71.0303,50.7578,-33.2724,-28.1056,52.6665,294.4470,-125.1843,293.7728
-3281.2500,-142.7631,0.7312,-66.2884,79.9560,-110.0840,23.4534,39.1868,-14.5153,-224.0627,-20.2284,-199.0946,89.5981,-139.9889,54.9009,-102.4257,48.9967,-7.6706,417.7261,-115.1882,408.4362
-3273.4375,-13.5881,19.9817,-0.5759,136.8436,28.6075,125.2552,-226.0481,14.1136,-121.5224,-102.6293,-96.0719,7.3439,109.6394,82.5967,-148.0267,76.6545,-19.4544,294.0236,12.3824,289.6382
-3265.6250,-64.5528,-7.3342,128.0119,50.5800,46.1782,68.8986,12.5940,-43.4268,-214.1159,-49.1911,-115.1912,23.9255,-56.8711,63.1240,-56.7511,-16.8613,-70.3873,354.6159,-179.2007,343.6810
-3257.8125,-65.6388,57.4767,-59.5081,47.2033,-104.3550,64.4359,-174.8467,-84.0800,-254.7956,-89.8609,-81.4125,276.4149,13.5312,205.5510,-207.5701,89.5293,-1.4208,369.1040,-40.8633,376.6288
-3250.0000,145.9465,121.5407,93.6361,82.4697,48.7838,68.6210,-169.6443,-117.0880,-175.7894,-85.8923,-1.9757,170.5467,18.6146,99.6159,-128.7194,-90.4353,35.2003,265.2780,-110.8498,271.2082
-3242.1875,-118.9330,54.2136,-6.6628,132.2702,-51.5243,41.3472,62.1481,-107.5612,-276.2241,-3.3761,-211.9999,180.2180,-117.7477,35.2238,-155.2984,-80.8581,-19.6298,400.7897,-166.2850,391.3436
-3234.3750,27.6316,101.8997,-32.5101,172.5148,-4.3732,124.5254,-258.6250,-24.5921,-155.1898,-30.4242,-164.5599,189.3401,76.3773,81.2857,-218.4278,2.1763,-13.0097,288.2472,-19.2411,290.9228
-3226.5625,103.8632,74.6853,46.3144,71.4010,38.4535,19.3458,-31.7324,-56.9827,-186.4901,47.1652,-158.4547,84.0989,-64.8366,12.9878,-65.8839,-67.1538,-77.7350,296.1575,-154.5472,296.1434
-3218.7500,-136.5783,-16.8499,-134.5198,4.6270,-142.3827,-15.4908,-28.4693,55.9644,-146.4323,50.1054,-118.0036,160.2191,-24.6892,88.0431,-136.9854,81.8722,-107.1122,333.7652,-8.4913,335.7222
-3210.9375,21.1942,-11.9486,-0.1424,-13.9488,29.0042,6.8758,-152.0231,78.1056,-49.1343,35.2336,16.6525,-1.4624,71.6863,37.2923,-39.8734,31.0952,-54.2911,209.6881,43.7918,211.4843
-3203.1250,-119.7988,-74.2880,-5.5035,-51.2828,-50.3477,-36.5200,99.7135,34.4835,-201.5737,101.6117,-99.4567,-81.9030,-117.6958,-6.2184,-8.4826,-12.4424,-19.2252,328.4206,-63.6850,315.4990
-3195.3125,8.3445,-18.3601,-52.7204,-29.4683,-23.5441,26.2406,-167.4111,60.0054,-64.8485,17.1279,-35.4138,-19.1879,57.0976,56.4260,-91.9456,50.1782,2.9911,231.3948,99.0136,231.6620
-3187.5000,56.4078,0.4791,106.9852,-18.7541,63.1858,-71.0943,30.3694,-1.5843,-51.2077,138.5342,-58.4677,-79.5846,-40.1941,-78.0380,31.5119,-84.3144,15.1083,213.6647,-64.3840,207.7132
-3179.6875,-225.7082,-98.4649,-79.4659,-56.1977,-87.2413,-76.5876,63.0344,29.6674,-91.7153,280.7916,-61.6863,-11.1325,-7.6349,-83.6500,-120.1737,20.0483,-19.9319,284.3252,40.0747,276.6246
-3171.8750,34.0824,-19.1105,13.9882,-42.7456,42.2480,-57.1768,-100.4203,48.8230,1.7059,226.9355,68.0037,-65.7807,85.8565,-101.3627,-99.9482,3.3171,28.9267,149.0516,88.4574,149.4240
-3164.0625,7.9631,-33.9316,19.5566,-106.2023,-25.1525,-126.6752,161.2570,-20.9302,-102.7661,230.1842,-36.2159,-61.3386,-128.5537,-96.9857,-21.6026,6.6829,2.8826,231.0739,-78.0673,227.3289
-3156.2500,30.3207,-17.5503,-103.3861,-120.1616,-74.0605,-66.6687,-143.5742,39.8185,31.2703,142.9368,-10.9396,71.6122,42.5556,36.9034,-70.7620,176.5601,-10.6662,163.3841,82.9281,177.7382
-3148.4375,80.4908,-20.3595,99.4908,-105.3238,91.8544,-84.8605,-14.6069,-15.6343,50.1261,87.4863,-27.8601,-56.6395,-11.5239,-55.4142,131.9004,84.2298,5.5791,118.4380,-76.2685,122.9365
-3140.6250,-109.6243,-96.1538,-67.8865,-122.7454,-111.4855,-106.3084,75.1435,35.6582,-6.2688,138.7948,-49.0516,-42.1318,-31.8625,-76.9848,74.3262,172.6539,-44.4386,209.2704,-56.7179,211.8973
-3132.8125,79.9526,-57.3527,-47.5651,-74.4660,-19.1195,-14.0471,-161.4322,90.6577,124.0618,84.7972,44.4582,-132.9224,135.5315,-21.8503,94.4570,155.7942,-30.7638,74.4738,62.5653,84.5510
-3125.0000,-41.0695,-134.0923,7.1714,-125.7910,-0.3388,-107.3903,187.4213,34.0547,67.7993,175.2033,-9.6456,-226.3328,-29.6760,-78.3246,186.0094,61.3331,-115.6990,141.5313,-93.7622,138.6069
-3117.1875,-154.8629,-161.8046,-74.8541,-100.8771,-45.3170,-43.4835,30.5230,23.7040,132.7855,164.8643,17.5023,-126.4892,144.3802,21.4587,65.8098,162.1409,-159.3941,124.2449,37.1756,128.9234
-3109.3750,-24.0997,-129.3454,65.6844,-111.4142,95.2758,-87.0234,99.1639,15.9057,237.3427,84.0759,48.2049,-207.1036,138.0029,-59.2085,244.1769,7.5021,-133.5472,47.1102,-42.3230,48.7808
-3101.5625,-211.2790,-159.3832,-60.6841,-123.8521,-68.0351,-68.4644,265.9352,-0.7946,110.0035,102.4075,-78.0207,-114.6151,-24.2908,-39.7728,153.6592,26.9698,-144.6128,148.3900,-17.7272,141.7514
-3093.7500,-35.8760,-63.1499,-55.4596,15.3126,48.2540,46.7096,-21.7251,40.1156,153.2757,-2.6592,-35.6515,-109.5034,165.0376,38.2783,49.7334,69.0606,-75.0805,0.2843,86.4882,0.3164
-3085.9375,-42.4162,-41.9625,83.8376,6.5258,76.6110,-0.0716,190.6817,-43.9256,34.5881,24.3333,-116.2391,-118.3463,-27.5867,-8.6215,113.8674,-51.8033,-11.5054,38.6023,-96.2618,27.9288
-3078.1250,-119.1902,-31.3435,-72.0821,33.5346,-43.2458,26.9500,-2.1028,-17.1601,25.6976,-22.8648,-162.0419,17.6259,0.5931,92.2859,-5.2011,123.1478,16.8589,57.1843,37.7951,55.3540
-3070.3125,58.4919,28.3543,44.4590,34.9964,74.3651,-3.5709,-31.4552,-10.9363,106.2775,-53.6174,-82.3941,-12.9549,44.2391,24.6442,112.1938,54.5535,54.6655,-51.6279,-30.6843,-48.7802
-3062.5000,-127.6515,-26.5915,-45.7999,-12.3476,-52.8249,-21.8942,171.4257,-29.5143,-21.9486,37.8466,-172.5722,41.6667,-118.9255,42.2047,57.7993,36.1614,43.6509,84.4632,-146.9744,80.2969
-3054.6875,24.1331,24.4689,-67.1239,68.2681,-37.0694,66.7465,-178.7638,21.8692,67.7815,53.2633,-46.8064,57.2536,79.8770,93.7306,-36.6576,124.7386,20.5727,-26.0768,-30.2918,-14.6752
-3046.8750,5.7643,-24.8638,60.4104,13.7408,53.5434,8.2486,57.9035,0.1077,48.3717,141.5378,-139.1966,-75.3127,-50.4728,36.1074,89.7585,30.1588,-33.6655,2.1540,-153.7735,1.2002
-3039.0625,-225.5423,-86.7465,-109.9681,-8.6908,-116.7613,-17.1469,-3.3238,85.4542,61.0584,152.9348,-163.5100,47.2365,-0.7306,84.5918,29.2726,151.6980,-53.8183,47.7198,-35.1596,50.1914
-3031.2500,-65.8017,-16.2453,-11.2910,44.9327,-18.0041,44.5174,-124.5322,72.8664,196.8139,67.3967,-64.7785,34.8351,99.0752,35.1337,128.8375,29.3024,1.0696,-78.0025,19.5201,-71.7755
