Time,Fp1,Fp2,F3,F4,C3,C4,P3,P4,O1,O2,F7,F8,T7,T8,P7,P8,Fz,Cz,Pz,ref
-4000.0000,-17.5670,-65.8257,-10.2322,-74.1122,-48.4108,-10.5200,-5.2378,19.7952,54.9870,226.2891,-1.1502,-82.4802,-107.7824,-16.0269,-59.8062,73.0631,-49.1794,-55.4662,166.3804,-28.2345
-3992.1875,-94.4132,-142.9317,21.2779,-81.5784,167.5513,-51.7666,138.0640,200.6427,-58.9742,410.5255,-189.8541,-124.7917,106.1242,22.2822,-27.8566,215.7724,-54.6381,-97.5084,-12.8750,-70.0091
-3984.3750,39.9397,-78.8237,-22.0226,-52.8354,-98.2987,-58.8112,-89.4293,-25.3139,156.2502,113.9631,97.6514,-21.8946,-49.7854,-37.1478,1.2880,5.5516,-55.7869,-68.3496,-120.9451,-40.5886
-3976.5625,-3.6147,-87.6114,5.7789,-61.9929,-33.0517,43.2470,13.1945,114.8371,76.5563,-257.4798,52.2444,-30.9069,87.4019,-12.4417,139.5481,-55.0103,-41.1911,-41.0924,15.1186,-49.0718
-3968.7500,-24.6887,-37.9038,-87.9231,-47.6599,18.7179,-13.2017,141.3411,95.5125,94.3804,-237.3908,-42.6881,-15.4267,176.1006,-23.3796,265.3183,-58.2796,-68.2271,-27.3424,-248.3391,-70.0607
-3960.9375,13.6415,-69.7996,-121.2313,-80.9312,-198.1425,-83.2606,108.8609,-46.4298,246.6702,103.1180,34.8058,-12.5487,-5.8226,-49.8578,268.4846,-17.8896,-116.4395,-59.1908,4.6081,-66.6500
-3953.1250,-93.9957,-37.6484,-84.4912,-83.1526,58.0643,-83.2560,403.4581,174.7139,-47.0096,143.6801,-260.6692,22.3737,139.3182,43.5125,230.6974,116.1942,-105.3910,-132.9798,5.6094,-104.1971
-3945.3125,-5.6853,121.4686,-102.8070,-101.4128,-70.7847,-101.2920,202.0049,-26.1842,10.2518,57.1621,-131.1897,261.2560,45.4041,70.1647,101.8487,14.0715,-123.0065,-184.8055,-77.4626,-85.7983
-3937.5000,-61.9174,65.0309,-50.6729,-158.2209,-19.1918,-158.8712,255.9986,102.3727,27.9747,188.0945,-226.2533,239.5805,59.9296,89.6832,43.4441,100.9840,-143.9312,-240.1810,220.9485,-106.9519
-3929.6875,-118.1123,78.6439,-107.4947,-144.9787,107.4729,-142.3992,346.0679,230.0054,8.7334,135.0971,-356.2964,254.9532,111.5165,129.4963,-14.9068,146.4185,-157.8393,-261.5121,27.3876,-128.0637
-3921.8750,8.3997,63.9735,-86.6256,-125.0350,-130.1904,-158.2377,73.8279,68.3208,141.2007,50.8072,-115.6218,238.0441,-90.2229,58.7205,5.4467,28.5700,-128.5398,-137.1404,157.5080,-107.4753
-3914.0625,-65.4493,-10.0339,-14.1044,-92.4362,162.8147,-48.4178,258.2672,253.3106,-41.7169,-55.8466,-301.3099,89.7876,54.7043,82.2906,115.4587,90.4828,-60.8500,-34.1163,123.2692,-145.2409
-3906.2500,-52.9928,73.2776,-38.2828,-45.5264,65.1291,1.7084,198.0019,156.6025,193.6468,-332.2261,-177.6929,174.8477,-81.0571,78.0300,90.7655,-35.6603,-35.5555,49.2122,-106.7229,-132.7084
-3898.4375,-42.7740,12.3453,9.2915,-70.8679,1.1819,49.5811,172.4603,131.6283,278.7858,-316.8423,-130.2987,74.6571,-109.0735,44.1385,100.8153,-50.2949,-22.9306,94.2859,188.0490,-122.4258
-3890.6250,-125.0577,-0.0773,-39.6357,-83.7112,172.7619,0.9498,308.4417,305.1717,158.4184,-102.9546,-326.4233,24.9694,-12.5716,74.8693,125.3694,93.9816,-55.9688,10.8544,74.3078,-134.6471
-3882.8125,-14.8298,5.0236,-72.0775,-44.0496,-118.1827,-105.1838,165.9210,163.1953,347.5619,52.3907,-139.0251,27.8064,-229.5871,15.6344,-18.5814,55.2280,-67.9193,-54.0650,329.0620,-94.3662
-3875.0000,-117.8049,-98.0745,-69.7188,-7.5874,30.6789,-65.5124,390.2245,462.0327,167.4999,169.5378,-356.8427,-80.5670,-119.7930,79.3049,-90.7259,228.4268,-57.9357,-87.1840,545.6329,-92.2871
-3867.1875,-122.6290,-68.0103,-150.2173,-12.9742,-49.3067,-108.6940,311.6902,494.0175,162.5855,204.8313,-253.5102,-13.7853,-127.8384,91.9857,-60.7138,246.6938,-101.6823,-93.1487,333.3096,-62.0597
-3859.3750,-110.5862,-126.0872,-101.8609,-36.5094,-148.4665,-97.0286,139.9949,396.8297,286.5227,294.9467,-58.2914,-40.1443,-117.0379,58.8755,-12.8369,224.7048,-101.2369,-45.2623,489.8399,-13.9836
-3851.5625,-174.9863,-154.6267,-58.9405,4.4928,113.9633,-53.8232,256.8820,477.2045,183.9844,305.5987,-235.5232,-71.9659,107.3528,94.7116,-44.3935,287.6026,-52.2301,-3.8357,181.9124,-8.3692
-3843.7500,-97.9057,-43.7177,-53.5556,45.9329,-101.1439,-84.1819,6.2046,189.9945,374.9485,279.6429,-10.2695,-30.3428,-35.7958,21.1459,-111.4871,147.3532,-22.6765,38.0352,51.4114,33.6875
-3835.9375,-185.1120,-62.1173,2.5486,27.0686,64.4745,-65.8433,173.2357,247.4798,211.6264,376.3467,-175.3143,-121.0287,128.7749,26.8741,-57.8670,215.5062,-2.1409,54.6118,72.6165,15.4405
-3828.1250,-164.1750,30.6522,-47.2034,48.3592,51.2668,-78.3445,235.4305,236.1385,126.4145,221.2027,-188.2287,-62.5488,114.5133,29.8900,2.9107,164.7327,-3.9952,41.3458,-253.0815,2.3454
-3820.3125,-100.2786,24.3918,-55.0149,76.6058,-177.0165,-48.8927,117.5539,118.7357,304.1360,108.0102,-49.1691,-106.1026,-41.8143,-29.4177,68.6351,56.8503,4.2627,35.0458,24.1694,31.2110
-3812.5000,-225.4449,-31.9137,-111.8780,55.8084,22.6789,-31.4841,356.6483,358.3096,175.7705,55.7485,-289.1735,-90.7052,120.8315,42.8488,232.3181,154.2807,-33.9318,14.7116,-97.6432,11.0258
-3804.6875,-147.7466,45.6478,-178.8954,-9.1246,-192.7764,-62.2259,178.5869,143.7141,256.2454,-118.7023,-27.3093,97.5556,-22.6710,28.8767,310.8490,3.0689,-92.9728,20.2444,-192.6416,52.6908
-3796.8750,-188.6868,4.5653,-74.5516,-83.6962,-87.8667,-66.6142,248.8850,214.4518,105.0641,-44.8167,-32.0837,55.1643,82.1863,41.5604,268.7280,62.0010,-87.5373,15.1370,-54.2896,47.7063
-3789.0625,-160.5772,67.5598,-82.1554,-128.1965,14.1305,-73.9429,131.2446,171.2404,25.9130,172.0872,-39.8245,83.8429,110.1187,57.0174,113.6538,128.7002,-100.1351,7.0918,-339.9489,39.7712
-3781.2500,-28.7985,95.2429,-17.1027,-31.0209,-178.2347,-9.6120,-132.7777,-92.3564,92.3992,131.5567,135.1150,111.2070,-47.3045,19.8197,-6.7815,11.4908,-20.3675,70.7169,-203.9873,67.4931
-3773.4375,-81.3660,77.5956,39.6101,56.8230,134.0877,121.3742,-3.1363,111.6992,-217.5057,-65.3760,-139.3035,56.2255,190.9515,84.2404,12.4331,63.7333,62.6606,87.9967,-323.3989,49.8643
-3765.6250,-8.2151,150.6597,4.0285,129.3810,-47.8797,86.0524,-256.8216,-68.5680,-103.7070,-59.6087,45.9967,130.9548,43.9175,49.2706,13.3389,-19.5502,77.3282,90.9842,-458.1691,87.9377
-3757.8125,-38.7407,85.0319,45.7570,98.2501,-43.5479,91.0310,-251.2302,-62.5507,-134.6120,96.4464,13.6245,60.9875,84.1902,43.6065,-54.4599,34.9718,79.9310,130.2800,-239.6390,92.3140
-3750.0000,-86.6582,142.0220,33.0831,189.7332,163.4174,152.6201,-153.0172,-1.9271,-366.9652,-95.9559,-73.1554,84.6343,180.0925,87.3610,-67.6408,27.7361,143.0189,258.1791,-531.5515,79.2884
-3742.1875,23.6054,252.1919,110.5573,300.3701,-52.4877,193.3466,-332.6637,-179.1908,-288.1708,-381.2670,188.2503,124.4529,-0.8636,41.4433,-101.6497,-147.4089,234.2376,298.2283,-452.3421,119.4191
-3734.3750,-89.2714,173.2116,138.8872,290.8566,194.4796,220.9140,-82.4353,69.3966,-516.5330,-348.7299,-41.4963,78.1203,173.0612,107.9422,-0.7898,-16.8657,230.7680,218.1199,-388.2934,110.3986
-3726.5625,-53.4869,208.8970,26.8630,254.9981,10.1056,147.1311,-155.5656,-2.3797,-295.2425,-345.5673,68.4299,150.4490,133.6574,77.7900,70.7327,-68.4440,155.8054,148.6663,-595.6490,146.0284
-3718.7500,-7.4294,114.8372,39.1000,231.3948,-125.0215,122.5938,-179.4632,-25.9401,-170.6881,-145.2272,80.6491,88.0314,107.5255,49.6040,82.5220,-31.3168,128.0687,54.4673,-299.7507,157.9086
-3710.9375,-44.5584,148.5638,2.1580,193.5902,57.7046,48.8456,-31.5187,121.2817,-354.3572,-32.1560,-30.3175,124.4029,216.2567,93.1479,82.1495,72.3351,88.8839,-16.9410,-475.0737,120.5791
-3703.1250,29.6066,222.5490,-29.5126,162.0308,-194.3043,-18.6837,-210.3168,-93.3042,-164.7692,-60.8976,158.0239,165.0325,-0.7405,23.6893,49.0502,-52.5442,61.2971,-13.1050,-256.1684,124.4938
-3695.3125,-108.0532,118.6878,-27.0127,127.6305,-45.1296,19.9353,50.0486,57.2503,-233.0488,-53.5430,-131.4699,56.8070,74.4407,46.8967,89.1075,23.0423,48.9907,-13.1146,-42.1211,90.5593
-3687.5000,-118.8448,212.7020,-109.6657,151.1041,-56.0829,83.4096,77.2495,10.6522,-206.5088,-353.3746,-142.1068,156.4529,-47.5071,72.3410,77.9975,-76.8164,51.0557,81.7412,-225.3036,79.4830
-3679.6875,-97.0593,199.3004,-15.7669,172.1497,-107.4984,179.4322,-46.0531,-75.4256,-183.4293,-585.6884,-48.1501,177.6749,-99.9022,70.1959,62.4169,-178.6951,111.0084,173.1635,-60.9676,100.9699
-3671.8750,-104.4059,157.7691,16.9855,130.0647,217.9725,174.3006,22.5000,104.3452,-333.5403,-549.2031,-125.3286,98.7592,150.5964,83.3272,57.6984,-89.2752,113.2180,166.4388,-345.8239,59.3104
-3664.0625,52.3819,103.3595,30.8389,39.1008,10.5383,41.2577,-292.8640,-137.8276,-97.5679,-237.6649,182.6405,74.9568,16.2136,-16.9206,-1.9028,-122.5600,68.6395,146.8219,-432.6257,109.7558
-3656.2500,40.2495,20.0013,129.7655,-8.7967,182.1789,29.2599,-193.1773,-37.9768,-218.5754,-172.1221,23.6797,-10.7955,150.9177,-15.4845,58.5543,-58.4248,91.0358,134.2651,-302.3877,97.2550
-3648.4375,42.3419,92.8645,94.9058,62.5315,184.0621,31.4665,-227.2887,-108.9472,-179.4038,-387.4744,25.9332,100.6694,114.8614,-3.6103,97.2100,-149.6656,112.0947,135.9202,-544.0146,98.9561
-3640.6250,88.6207,67.8953,69.2136,38.0283,-60.9049,42.8230,-362.2839,-317.8173,-20.0806,-225.7547,184.3864,74.3008,-58.0362,-54.7730,71.0215,-196.8983,77.7208,111.7296,-178.5127,109.8165
-3632.8125,-34.4363,-19.4220,54.1812,20.1899,179.8206,64.8329,-119.6096,-148.0337,-218.1606,56.5710,-51.5108,21.5831,71.7560,15.7463,55.5084,-5.6816,53.6202,94.1929,-228.3976,57.3324
-3625.0000,53.8268,103.5828,34.4449,1.6683,-24.1520,45.1362,-248.6529,-350.9797,-16.9578,-106.8583,112.9246,75.1832,-59.1328,-42.6460,-1.6970,-157.7859,59.0211,180.9657,-279.0439,74.1598
-3617.1875,40.6088,19.0972,131.2187,22.6585,110.3872,105.9310,-151.2120,-215.4498,-65.2583,-263.8020,-10.1162,24.2838,73.4998,-14.2808,-51.4116,-143.9935,120.1806,273.2466,-45.2018,60.4974
-3609.3750,33.1538,82.3757,123.7547,120.4158,249.7176,135.4767,-121.0203,-222.1770,-144.8419,-415.0707,-54.4004,163.1480,174.9258,46.9278,-95.3645,-167.4964,164.4899,300.2980,-366.6685,52.5894
-3601.5625,57.5351,106.4799,112.1072,178.9985,-21.1492,159.8234,-280.0706,-455.1544,26.3766,-424.6622,117.1731,150.8377,14.1648,-16.0944,0.4909,-280.2914,178.6638,324.1706,-199.3720,76.4902
-3593.7500,-60.0574,-11.4195,101.4856,166.5965,190.0348,149.1683,-69.1200,-207.1386,-128.4367,-137.3069,-113.2366,-44.4771,187.4570,-6.7083,64.3441,-86.6999,153.5972,242.0505,-174.1006,29.3933
-3585.9375,1.5829,-56.1055,54.0768,156.4087,-5.5589,101.7017,-225.9897,-290.9588,43.9119,-72.7797,96.5887,-19.5791,64.9782,-40.5164,15.4050,-119.4171,110.7631,196.1401,-251.6895,54.5050
-3578.1250,47.7544,-114.2692,140.1790,166.7370,7.3523,187.7290,-213.3866,-204.3098,-53.2761,-129.7906,146.9434,-80.1704,77.0150,-22.6801,-82.0168,-97.1334,150.0925,207.7413,7.2111,30.1275
-3570.3125,-22.2606,-80.6100,142.0773,166.8858,193.1001,226.5508,-64.9752,-18.8640,-270.7046,-126.0468,2.0974,-79.9465,150.8878,38.5505,-44.6282,0.8135,149.0843,136.1509,-237.1430,-5.4422
-3562.5000,40.7582,-17.9265,95.9734,123.0497,-37.1643,180.3606,-219.5936,-136.4630,-168.1178,-131.3628,103.3066,-15.7061,-43.2326,7.0354,19.7644,-69.4513,107.4157,93.5670,-67.5432,22.0015
-3554.6875,-55.3014,-44.3499,106.7891,131.1273,194.5042,191.0645,48.6956,130.8225,-340.6598,-264.8326,-143.5606,-42.5739,113.5952,67.7982,30.0833,9.2196,122.1154,101.8879,13.9236,-4.6463
-3546.8750,11.9218,58.4876,66.8631,198.4763,117.4479,151.0124,-100.7775,18.3231,-269.9612,-265.1181,1.8576,27.8190,72.7179,48.9497,-84.3293,-43.7337,134.7710,98.4711,-198.4452,-8.0353
-3539.0625,55.9788,-2.8596,149.7539,171.6474,53.1983,122.7587,-164.4861,-9.4269,-260.4560,-363.6613,158.1200,-0.9768,44.6633,14.3944,-184.9342,-103.1047,150.4167,106.8710,92.9526,0.3852
-3531.2500,24.7033,0.4490,118.3142,174.4933,278.6507,165.1637,24.4608,106.4597,-438.3574,-576.6180,16.0405,3.8794,196.3114,49.2919,-143.8748,-107.2266,153.1056,109.9325,-113.0499,-31.5397
-3523.4375,127.3646,-3.3213,39.7830,134.2610,-57.9951,86.4661,-90.7219,-154.8022,-148.3888,-395.7417,195.9124,-2.3468,-31.1260,-37.9349,-39.9202,-186.1462,95.6341,105.9027,25.8090,-0.5517
-3515.6250,3.9007,-161.2367,-51.8870,80.8997,35.2331,104.6148,222.9414,10.7712,-165.5976,-154.0725,-42.3464,-130.7222,60.3235,-14.7258,125.8936,-36.1339,14.4675,17.7228,220.5042,-18.7017
-3507.8125,-2.6386,-64.2289,-132.6535,73.4633,-82.6146,24.6634,289.4887,4.2256,-99.9303,-85.5994,-11.6858,-28.1775,-20.2861,1.4353,155.6284,-21.4258,-33.3985,-24.5424,39.0222,-25.9395
-3500.0000,33.0110,-64.0563,-95.2598,3.2014,-191.3165,-12.1429,290.1451,-69.2172,-25.1145,63.9336,25.1821,-28.4715,-131.7288,-13.0189,118.5295,-9.2178,-47.8436,10.3603,322.6679,-26.0118
-3492.1875,-49.5684,-41.1408,-69.1007,-10.2965,90.7788,49.7970,463.5617,104.0905,-218.5878,-128.8182,-132.1917,-3.0266,40.6315,55.9512,33.1941,28.8398,-21.9357,103.0166,135.0344,-74.3290
-3484.3750,123.6829,95.5803,-37.1356,56.0183,-61.3112,45.5196,127.7638,-156.8418,143.7288,-534.8178,158.2798,138.2207,-112.1797,-4.8091,-82.3333,-229.6414,41.1886,169.4788,-42.8407,-42.8387
-3476.5625,112.5700,48.8970,135.4606,78.9436,148.2305,106.8341,79.5716,-132.2010,95.6215,-434.2828,-0.6093,-20.9477,59.6547,-30.9292,-57.2393,-182.8948,131.6169,157.5483,51.8701,-54.7391
-3468.7500,75.8443,11.5751,96.4199,112.2420,183.1671,67.4917,77.7330,-244.2242,-16.1781,-213.4740,-2.1114,-23.7773,93.8906,-41.4998,50.2276,-145.8671,119.1482,154.9840,-194.1484,-57.2787
-3460.9375,139.0651,4.1622,87.2897,139.4614,-47.0046,95.0435,69.7444,-400.3913,121.9238,-294.8321,174.3598,-33.7095,-25.9599,-85.9976,77.5912,-248.4055,120.9312,147.3414,44.6993,-29.8984
-3453.1250,74.3489,8.7968,94.2244,143.7560,216.9121,101.6477,259.7984,-209.5091,19.0507,-396.1950,-3.0992,-27.6060,127.2965,-36.7948,84.0136,-191.1262,121.5746,45.7631,-125.4438,-60.4551
-3445.3125,187.2676,157.0430,62.7657,150.6792,-34.5643,70.8462,-65.5792,-498.0703,208.7559,-426.0169,224.0921,87.1020,-14.8174,-92.6309,16.0521,-334.1052,115.1057,17.7955,-327.0507,-18.3951
-3437.5000,185.6211,118.6821,134.7254,148.0204,37.3738,68.4353,-103.5692,-463.2596,132.8395,-279.4935,112.7302,48.1946,-17.4939,-79.9785,-97.4969,-266.2286,142.1984,-19.7650,-152.2650,-20.9179
-3429.6875,76.0457,150.3686,56.7475,72.4271,143.4013,27.0664,-34.5005,-431.4057,165.9258,-134.9727,-37.5722,79.3347,50.9344,-57.9903,-101.9782,-199.5788,74.7628,-60.2673,-331.4837,-25.3796
-3421.8750,104.0017,71.5585,48.2811,-5.6475,-87.0797,17.1885,-152.9632,-588.0903,267.5024,-33.0090,137.6725,69.9829,-69.1222,-99.8276,-110.9502,-242.8226,25.9054,-33.2506,-93.2236,1.6770
-3414.0625,-34.2299,-32.4596,124.6339,-39.9035,211.2811,93.1135,33.3816,-363.9743,-61.1456,-28.3095,-116.2787,-1.5725,154.6635,-31.4715,-72.1053,-118.4189,46.2311,3.5850,-56.1846,-32.4554
-3406.2500,16.6681,52.6388,30.0972,-25.0306,78.7673,72.1366,-171.2021,-532.7852,28.2802,-11.6063,46.8962,85.9945,58.5787,-54.1205,-94.1442,-189.2069,15.0302,18.5389,-180.1117,-17.4741
-3398.4375,-49.5501,20.6006,33.4294,-58.2889,9.1139,1.0009,-58.9638,-455.7919,31.5387,250.8746,-59.0369,52.4229,25.3703,-44.5917,-17.3280,-82.2905,-20.1295,-49.6531,139.7941,-14.6278
-3390.6250,-122.3967,52.9213,-42.8737,-96.1829,116.8511,-1.7943,86.6109,-238.4676,-7.8628,65.6682,-206.6060,85.2045,95.5645,-1.8419,89.8271,-52.7305,-62.9348,-87.4951,-108.0119,-17.4208
-3382.8125,-6.3009,97.1642,-72.2676,-52.1564,-131.5193,5.2956,-125.9725,-414.3022,330.6403,-219.6918,21.7797,165.9111,-117.3209,-49.6477,23.8769,-239.7814,-47.4515,-43.4276,7.0412,26.7032
-3375.0000,-64.1323,74.4598,-57.5955,-40.0564,66.1941,19.4354,71.4970,-217.0964,235.1387,-94.0713,-182.7773,105.6765,-67.1062,-0.2262,37.9975,-104.8291,-33.3050,-66.2975,56.1253,3.8898
-3367.1875,-44.5941,163.1164,-184.5678,14.4182,-98.7231,-36.0774,-20.6871,-308.5597,290.9530,-38.1726,-53.9689,197.8058,-157.5015,-5.9856,19.4902,-131.4641,-70.2940,-82.8073,-135.5026,22.4405
-3359.3750,7.1645,142.9702,-169.3257,29.1078,-266.4433,15.6007,-114.6928,-293.8483,157.9539,14.8874,73.0752,138.1309,-179.6752,-14.6537,-2.8012,-115.4456,-58.2590,-33.1131,196.0686,37.2067
-3351.5625,-60.9698,144.9266,-238.9668,30.9180,-80.0178,56.3723,35.4135,2.9719,-130.9872,57.0043,-106.7820,141.5541,-29.7019,78.8100,-72.9782,41.9325,-78.1657,4.6833,93.7010,4.0832
-3343.7500,29.2335,128.1982,-293.3015,-56.9495,-244.2960,-72.5691,-203.2173,-87.9515,107.3701,186.3607,133.7183,122.2961,-231.4153,-0.0728,-126.8513,2.5714,-150.1148,-48.2166,218.5815,22.2754
-3335.9375,-60.2876,38.7118,-239.3687,-145.5490,-6.3016,-128.2661,-75.6127,259.3429,-96.0282,241.9188,-31.5017,29.2833,-104.8352,35.7127,-110.4633,154.0984,-177.8810,-136.8670,339.6787,2.7330
-3328.1250,39.9646,172.9802,-282.6821,-118.3823,-49.5291,-135.2284,-155.2744,325.3574,-249.6834,52.1695,110.0517,132.0332,-74.4639,57.7867,-190.3044,114.3270,-184.1105,-214.7663,87.4538,-4.0456
-3320.3125,158.0014,148.0077,-234.2376,-141.4526,-258.0210,-161.4551,-254.2252,263.0736,-164.5791,211.1106,233.4018,142.5465,-172.3278,44.7450,-326.3739,128.1416,-185.6792,-238.9061,344.9597,6.9441
-3312.5000,67.9539,92.9369,-178.8847,-127.6060,54.4232,-143.7843,-90.2720,428.6967,-256.6067,303.8971,-4.3479,123.9585,65.7578,106.3539,-308.5250,253.2827,-150.7133,-154.1365,79.3325,-48.1548
-3304.6875,186.6868,175.6290,-166.7734,-44.9922,-117.3815,-96.3733,-371.6031,108.0272,-134.8926,22.3841,302.6868,172.1310,4.6238,26.2686,-222.9232,20.3709,-93.6643,-36.6070,-84.5992,-36.4883
-3296.8750,177.1902,165.0601,-27.8863,49.3831,58.5858,5.7839,-307.2050,99.0830,-400.4614,-133.4058,221.4958,89.0508,143.2794,25.3237,-122.5586,-12.9504,17.6684,22.6771,-23.7883,-82.0579
-3289.0625,242.1106,298.8878,-71.5882,78.1778,125.9912,-1.6694,-350.4074,18.5313,-665.6739,-211.8398,289.7174,228.3763,136.3794,55.2312,-92.7843,-54.6551,14.5913,-54.6376,-276.6281,-89.2166
-3281.2500,418.8626,404.5234,1.5212,42.7925,-58.8157,-40.3368,-462.8486,-94.2622,-593.0757,-286.5401,510.7859,300.5120,24.2848,30.1500,-314.2159,-140.1173,40.0258,-54.1468,-65.6802,-53.5562
-3273.4375,402.7207,422.2608,57.7392,25.5282,218.5124,-57.9050,-332.1922,220.0435,-720.3989,-266.2005,347.9523,282.7560,191.3314,100.0783,-515.5366,5.5184,70.0938,-36.5457,-186.6572,-70.7830
-3265.6250,600.4514,548.8672,3.8101,81.1410,-19.3071,-76.6292,-534.7128,91.1628,-664.8912,-394.0756,588.9944,447.8724,27.2518,100.6756,-495.9939,-97.3514,81.9169,-16.0817,-306.8397,-15.1442
-3257.8125,606.9061,554.1687,9.5973,51.4755,23.5771,-71.6534,-235.5464,205.9517,-1248.7118,-351.2968,558.7679,379.6826,32.9053,125.9686,-270.7398,-22.0354,80.1584,-10.9027,-21.3304,-9.7880
-3250.0000,584.9780,566.0703,-52.0054,63.4445,36.0932,-132.0716,-40.7873,254.3322,-1273.9784,-301.9927,572.1500,317.1000,45.2087,104.9222,-368.8805,9.7674,59.1230,-70.1074,-325.2829,2.1837
-3242.1875,673.9816,583.8869,-107.6983,46.3369,-277.5056,-153.5914,-502.1819,-24.4261,-191.3637,-211.8510,920.4825,222.4369,-121.5810,-51.8051,-500.1198,-143.8195,28.4403,-17.3953,-307.3667,55.0749
-3234.3750,704.4446,578.1509,-40.9266,110.6922,-62.6148,-13.6692,-508.1369,226.2671,-344.3438,-291.2650,806.2619,216.2211,56.1214,32.4084,-284.9073,-45.3689,102.2498,82.7658,-383.0194,49.4288
-3226.5625,795.5778,737.0737,-58.4981,164.7143,-191.0612,39.8878,-527.4709,95.5859,-842.6910,-311.0638,1008.7101,343.6650,-0.4995,72.9461,-194.0505,-76.2718,129.1494,101.5874,-435.0843,103.4498
-3218.7500,789.3320,483.5922,45.5423,16.3583,-122.9133,-74.9536,-350.2285,-20.5215,-922.4416,-95.3300,1114.7819,42.7164,105.5032,-76.2492,-236.5906,-92.7324,68.3400,-116.9678,49.4462,61.0895
-3210.9375,894.0819,95.1073,236.5885,-405.9743,288.2689,-510.7909,23.0193,-381.6214,-290.2167,-456.6412,1196.8430,-355.2301,443.5462,-476.1353,-11.1102,-487.2642,-88.4914,-575.5092,188.9301,-116.2581
-3203.1250,1283.3536,-255.8717,575.1372,-792.7898,369.9357,-945.1384,66.7201,-964.2584,930.5087,-890.4680,1573.4399,-605.6654,488.0955,-898.4233,106.8802,-1012.4471,-152.7354,-856.5467,400.8879,-256.0877
-3195.3125,1221.9795,-354.5085,731.0479,-749.2369,745.9730,-865.1363,294.7679,-663.5453,716.5442,-662.9725,1140.3884,-635.7529,643.0291,-766.1307,151.2361,-761.6403,-46.6921,-743.2252,267.1943,-248.5517
-3187.5000,952.0615,-133.6889,440.4153,-422.2053,455.4756,-603.6812,4.2667,-439.3934,351.9926,-401.0894,777.7906,-301.3774,389.4456,-472.4877,7.0488,-485.0494,1.6230,-487.4378,-110.1026,-97.5508
-3179.6875,603.3098,-130.7204,252.9469,-244.0026,157.1236,-388.0768,-184.1144,-260.1178,494.5695,-258.1139,481.3723,-232.8504,128.0249,-328.9963,3.0142,-326.3882,-1.9588,-379.4770,173.7462,45.6188
-3171.8750,300.5135,-187.8127,190.4402,-160.8275,279.7607,-376.5174,46.4537,-65.8811,542.0731,-137.2398,51.8953,-258.3737,250.5950,-262.1749,308.9338,-187.9813,-2.6063,-366.5525,116.5097,93.7510
-3164.0625,261.3348,-263.2956,146.5388,-165.0322,15.9839,-385.3666,39.5763,-332.0812,680.1983,-71.8027,156.0448,-193.2799,58.7760,-289.3003,595.4589,-271.1700,-35.4071,-301.0237,216.8327,159.5013
-3156.2500,97.6554,-463.2865,232.1473,-118.7270,210.7168,-300.7191,196.1936,-174.7854,433.8159,13.0957,-124.3019,-329.6866,181.4878,-245.2009,679.5021,-146.0128,22.5940,-220.0009,227.6577,170.7668
-3148.4375,4.7757,-382.4687,130.5518,-2.6106,183.2648,-182.2804,95.6117,-203.6986,368.2209,-15.2453,-187.8485,-248.2761,117.0317,-177.2893,468.3577,-126.5471,58.0743,-68.1752,-77.7681,216.8455
-3140.6250,-1.3359,-389.9028,122.7175,60.2670,28.5423,-118.1003,11.7465,-249.8971,469.3757,-97.8588,-121.6108,-257.1091,36.3378,-177.6167,237.9681,-170.4060,91.0386,29.4037,194.5473,244.6955
-3132.8125,-149.1493,-469.0540,117.1942,51.4555,280.1454,-87.6248,336.1833,-35.7876,426.7995,-140.1856,-383.0823,-336.6508,177.9904,-140.2855,379.8869,-85.6692,70.7272,-49.7182,150.1433,165.8589
-3125.0000,-93.4488,-449.7018,65.1679,36.1525,9.2368,-139.6633,283.0856,-273.2099,557.7338,-267.0301,-176.0392,-242.6798,16.1521,-194.6892,621.3082,-243.2063,23.8582,-65.3356,205.2116,150.5375
-3117.1875,-184.1477,-541.7589,156.7522,49.4597,208.9334,-87.1135,520.5792,-147.0419,205.2660,-176.2925,-342.3997,-300.1045,143.9283,-133.2538,564.3457,-128.5311,63.9595,-17.3464,428.8962,93.8297
-3109.3750,-222.9538,-476.9131,153.2400,45.6850,317.5514,-54.6664,479.9854,-113.9662,312.6706,-290.6897,-380.8795,-193.6199,177.6349,-83.7915,414.3047,-134.7667,70.1881,48.5500,142.4396,54.0325
-3101.5625,-191.6982,-517.0171,222.7818,40.9719,165.1983,-24.1750,290.4168,-229.8697,601.1143,-296.0619,-236.2829,-272.0744,63.3946,-148.3407,446.3163,-208.2950,94.6270,113.5086,489.0271,49.3005
-3093.7500,-310.9066,-672.5802,209.8832,-80.1786,447.4221,-1.1290,607.4031,85.7888,329.1037,-53.9099,-469.1589,-433.9810,197.7440,-99.0506,542.8707,12.0339,25.1134,28.0307,579.1464,-0.8722
-3085.9375,-256.1175,-654.1328,117.9831,-201.3193,134.6422,-129.0853,478.3529,-7.5698,421.1256,148.2146,-302.0312,-415.8652,33.0980,-153.6423,451.4187,8.1220,-79.3857,-24.4401,562.2271,17.9689
-3078.1250,-308.3800,-672.7408,174.0372,-219.4987,190.7986,-112.0951,495.2264,157.0112,328.0903,166.2807,-392.9526,-471.7935,88.4081,-129.3286,358.9274,81.7461,-63.0177,-6.9590,719.2889,-0.2280
-3070.3125,-304.7067,-600.4014,179.0368,-111.7141,342.9253,-72.1547,462.0705,307.5634,110.9670,23.2739,-423.9557,-430.7619,204.6926,-76.8787,289.4046,113.5197,-3.6989,30.4767,369.2771,-32.4672
-3062.5000,-170.4227,-572.4564,207.6354,-118.3082,113.6209,-117.6179,269.4892,113.6949,65.4563,123.8332,-136.3456,-403.1161,85.5731,-122.6040,96.4844,55.4124,-0.3886,23.5208,466.8611,-4.0917
-3054.6875,-231.4982,-669.8757,217.8891,-215.2397,344.9764,-218.4237,425.5590,233.5020,73.5890,464.0206,-309.1092,-467.8300,243.1291,-112.1095,33.2196,215.3912,-54.6974,-74.7740,298.1024,-31.0562
-3046.8750,-235.8321,-605.5494,101.8884,-220.4143,119.0780,-298.4852,87.3636,6.0569,693.4716,605.9629,-130.1304,-362.7776,165.4425,-172.9468,100.7006,134.3985,-132.0582,-115.3169,-59.9446,-36.2590
-3039.0625,-274.5778,-610.6225,99.4877,-223.9889,6.7608,-264.9588,10.7507,-71.7999,836.9641,601.5247,-132.5551,-367.1072,126.3559,-190.3694,207.7823,93.6936,-140.1285,-49.2607,181.6171,-75.8488
-3031.2500,-298.2431,-494.5941,77.1878,-143.4631,167.5640,-179.3433,244.2570,51.4566,445.5408,357.1894,-262.9147,-280.3209,177.3967,-107.2617,295.9850,100.7289,-108.0471,-109.1083,-54.7555,-135.3290
-3023.4375,-149.0470,-415.7003,46.7324,-171.0742,-156.8153,-209.8789,139.5809,-90.4676,560.9741,252.6554,1.5998,-201.6584,-35.7188,-144.6169,265.0493,-13.2438,-133.4946,-137.0932,93.6977,-91.9438
-3015.6250,-207.8577,-476.8123,96.2838,-195.6680,76.8122,-162.4065,150.9088,141.6179,462.3807,522.0906,-205.9001,-262.9872,124.1869,-75.8147,166.1106,187.0562,-126.9209,-162.0720,68.1657,-116.5502
-3007.8125,-144.6851,-308.9163,51.8290,-97.2462,-4.5593,-170.9310,-41.7713,21.7089,379.7713,439.5216,-102.4249,-124.2925,117.1079,-66.8910,158.1673,115.6402,-96.6511,-134.0499,-187.4040,-124.1497
-3000.0000,-137.4622,-232.9666,95.4280,-20.7711,-33.9085,-54.4108,-36.4336,-10.1606,91.2147,261.0065,-20.9032,-118.5286,87.0729,-45.9311,238.2683,61.7667,-35.2078,-92.9742,100.0944,-117.6860
-2992.1875,-219.4088,-105.1709,82.8801,72.5638,210.6140,4.9654,96.7728,159.8486,-253.5315,100.3190,-216.5758,-21.8991,221.9079,51.9601,262.2245,115.3485,12.8356,-106.0418,-124.5719,-130.3636
-2984.3750,-131.0619,16.9427,24.6260,125.2145,-67.5860,19.6428,-182.7454,-45.8604,-165.9795,77.8813,57.0514,30.0647,17.0375,9.7117,93.4806,10.9692,14.6630,-124.7964,-72.9607,-77.7262
-2976.5625,-185.6385,-74.8456,112.4718,67.9753,93.3088,32.4282,13.8343,150.5386,-336.3221,201.5432,-112.2471,-66.8571,142.2751,49.5531,-40.1570,148.1094,37.0753,-75.4470,9.7645,-63.9795
-2968.7500,-184.3907,-38.7789,39.1507,69.5988,57.0471,32.0711,-24.7422,148.7956,-153.7977,163.0669,-110.7313,6.0931,142.3652,66.4188,-77.9352,136.8694,15.8913,-39.2446,-270.6983,-27.3745
-2960.9375,-209.6016,-66.1580,9.3722,43.7798,-155.7041,75.2665,-127.7991,81.5904,36.3012,206.1485,-65.6765,-24.3893,2.9901,44.3669,2.8367,112.8980,-4.0547,39.5095,18.4022,16.7948
-2953.1250,-342.8908,-94.5900,-18.4557,50.9067,73.5089,119.4150,136.1110,272.3665,-286.6748,435.1856,-349.7186,-52.9116,85.5876,132.0000,121.5589,303.9747,-14.3899,11.2114,-150.5514,-11.0793
-2945.3125,-230.0456,17.1426,-123.1389,57.1885,-252.1505,122.7075,-44.8553,18.2846,-63.4958,438.3662,-86.6176,24.7450,-202.6672,89.2591,-21.5820,191.7211,-43.1598,52.0704,-216.3783,30.2051
-2937.5000,-247.5211,-72.4217,-105.1246,74.1741,-160.1221,177.7089,-100.1214,182.9137,175.3766,456.2248,-214.8445,-30.8775,-183.2263,119.6920,-260.0137,263.3278,-26.2788,68.6432,-60.4767,12.1970
-2929.6875,-241.0317,4.0152,-172.1232,150.1643,-117.0891,219.7133,-168.3573,224.5678,217.2366,350.0675,-244.1185,11.5231,-139.7771,142.3942,-290.4228,252.0739,-6.0827,109.2200,-336.5848,18.1936
-2921.8750,-193.8519,50.1539,-125.4273,196.8515,-328.3946,228.4133,-269.9050,158.9127,115.8199,322.6147,-123.7017,20.6473,-276.6475,125.2079,-97.1285,208.6718,35.3587,155.5010,-114.9682,64.9024
-2914.0625,-316.2596,-3.2641,-142.2805,215.9913,-87.2361,320.5697,42.0204,435.7485,-269.1547,377.6085,-396.8926,3.2332,-109.0543,238.1469,31.6220,382.6196,43.8826,209.2345,-167.8879,48.0642
-2906.2500,-265.8877,11.1293,-239.3456,194.9325,-295.2992,296.5201,-19.2583,300.3941,-1.3179,389.4109,-273.3086,52.6458,-242.6764,208.8735,-28.8182,320.2711,-2.7803,222.7661,-295.0237,98.0318
-2898.4375,-362.0427,-155.9823,-157.9209,168.3651,-249.8870,340.9704,-12.0348,380.5521,117.0327,507.7440,-411.2486,-122.4320,-196.8091,186.8771,-93.7471,388.4026,18.4426,266.7934,-76.6285,106.5063
-2890.6250,-469.6325,-123.4912,-195.9107,201.3998,-104.8683,301.0249,-88.1924,451.3388,150.9827,393.6706,-486.6326,-87.8840,-125.3254,194.8030,-96.0762,378.9500,17.5620,264.4200,-395.6533,104.5840
-2882.8125,-370.1815,10.0683,-203.8573,230.4863,-406.8399,292.1262,-318.3307,295.1584,252.0103,274.6530,-198.9765,-23.2517,-316.8108,151.9291,-177.3749,254.7309,30.1071,293.0924,-227.6249,133.7184
-2875.0000,-408.6627,5.7277,-170.7074,261.6701,-152.7059,287.3281,-65.3530,548.1039,-82.8768,490.7538,-460.2698,-63.5002,-172.1851,234.0967,-255.5702,453.4482,58.3234,217.8596,-161.4818,129.9550
-2867.1875,-424.3616,94.2062,-262.7648,245.6624,-354.7857,231.3350,-157.5775,381.8487,81.0260,655.6273,-403.8018,64.0869,-336.7602,235.2960,-236.9581,437.6878,-1.2459,166.4405,-284.5713,148.9975
-2859.3750,-485.0258,32.7345,-290.7732,219.7114,-456.8466,203.4073,-149.7670,389.6418,199.9753,700.5381,-467.3052,72.7468,-438.2999,234.7246,-44.2978,444.7335,-37.1352,175.0913,5.4189,158.0980
-2851.5625,-647.9781,10.0054,-423.0443,162.5169,-368.1497,216.2460,45.8187,586.2111,176.6565,824.2415,-637.1153,87.1689,-386.0810,298.8506,153.1072,575.4032,-133.7946,117.4936,-123.8438,135.9488
-2843.7500,-588.0066,0.2358,-472.3804,116.2653,-674.5403,204.0335,-39.6650,389.7197,310.3377,921.9171,-390.9963,74.5744,-507.9415,238.9240,214.4545,508.8174,-180.1753,176.8489,5.8505,160.7549
-2835.9375,-627.9250,-40.3843,-401.5694,147.1570,-346.7866,309.9788,139.0185,568.4158,-97.8059,622.7201,-540.7905,34.1532,-290.6579,294.8748,99.9645,517.5986,-117.6489,206.3541,-35.2744,120.7130
-2828.1250,-503.6287,117.2623,-381.5285,200.3010,-363.7983,292.1805,-173.0352,366.3828,-6.6986,420.7450,-373.3773,91.0197,-270.1284,235.3606,-247.2601,359.5976,-63.7076,224.1039,-405.1674,103.9212
-2820.3125,-377.4506,102.8137,-324.6057,221.3381,-453.9543,275.2834,-484.2008,276.2540,234.3202,587.6987,-279.0778,74.8110,-322.7286,200.0148,-337.5867,357.0625,-26.2982,280.7464,-209.1202,125.0350
-2812.5000,-441.4099,143.2621,-279.7899,298.2711,-188.2011,319.2875,-219.4427,467.0647,-162.7685,484.5939,-491.9428,155.5157,-167.4244,303.6221,-36.0152,440.8853,31.7248,321.2847,-380.1730,96.0464
-2804.6875,-372.0443,247.0782,-245.6297,261.5512,-375.1299,278.6403,-186.3552,205.2202,-276.4854,296.8401,-236.4868,226.6087,-316.7879,248.4781,70.8979,269.1650,38.6873,355.1817,-311.8850,130.4141
-2796.8750,-451.1110,132.4941,-215.8709,217.4248,-198.4709,270.6003,-12.6568,307.9984,-100.5991,214.6845,-427.4751,109.3294,-176.5578,227.5528,-46.5853,277.0252,36.6969,380.6801,-180.9569,86.3841
-2789.0625,-452.3158,200.8308,-254.2383,216.1895,-199.9259,268.4586,-124.0209,231.6982,117.2051,65.4413,-391.6138,180.9921,-213.4437,217.2659,-158.1624,195.0977,31.6473,415.0703,-429.1380,85.2509
-2781.2500,-345.3912,236.3304,-255.4796,252.0867,-348.2849,266.4601,-126.2325,156.5375,78.2081,26.3794,-245.6270,179.8346,-288.2129,193.1155,-122.5882,142.0171,54.3837,450.6016,-183.1341,121.2705
-2773.4375,-414.5647,167.7770,-178.7765,254.9219,-50.6837,306.4155,133.5392,416.3584,-322.8367,29.3029,-425.7587,146.6406,-63.0165,275.1367,-82.0558,280.2321,86.6784,452.0798,-252.1717,88.2340
-2765.6250,-257.5150,218.4925,-198.8302,200.0123,-292.8578,210.6318,-71.4490,210.4251,-233.6146,44.4642,-78.6721,199.7361,-193.5868,200.4672,-140.2740,167.3158,38.3863,361.8111,-166.9737,104.4474
-2757.8125,-193.0943,71.6176,-93.4890,123.5057,-223.6519,131.2687,68.9667,204.9087,-386.9926,149.0114,-10.2227,48.2579,21.2236,130.1020,-108.0950,174.7862,23.1684,249.9436,141.6678,63.0583
-2750.0000,-62.4639,168.0065,-28.9103,149.2446,-121.1961,123.1613,133.6527,49.6715,-542.1163,-226.1699,92.4157,151.0642,161.2763,106.6686,-80.6761,-3.8613,69.5956,205.3197,-148.4560,18.9126
-2742.1875,150.0944,345.3592,119.6088,221.9206,-230.8302,161.0013,-122.7223,-243.6262,-431.2469,-666.3686,277.9734,299.8505,90.2467,64.3701,-225.3184,-269.0240,188.4017,241.6462,-147.6083,20.7169
-2734.3750,72.4594,372.5547,185.9662,249.4308,92.3903,262.6980,-95.2097,-32.0358,-660.5250,-601.6904,12.3130,255.5028,267.0669,144.1212,-380.0969,-126.8993,250.7704,268.8206,-261.8761,13.3646
-2726.5625,102.2962,367.2694,68.8001,244.4289,-134.9196,328.8941,-212.1858,-112.9305,-594.2727,-572.5154,153.1190,285.6947,149.3598,145.7390,-460.3692,-150.9597,195.3320,263.4929,-197.6457,43.5093
-2718.7500,89.3081,213.1921,55.8215,196.6173,-111.0683,352.2928,31.0494,57.3933,-680.7896,-696.1364,66.0912,200.1102,136.8241,155.0629,-253.4393,-127.6686,163.3810,250.3587,139.8349,30.8500
-2710.9375,16.0305,315.8731,-19.4229,158.5499,-3.4663,203.4527,139.0783,54.5021,-683.5679,-587.9877,-82.2548,383.3037,136.0295,200.2050,-144.7647,-88.1278,96.4980,141.9643,-109.9283,-7.0708
-2703.1250,136.7794,507.6175,-40.6365,103.5200,-207.8597,70.6630,-139.8481,-223.3382,-373.2712,-535.7598,80.4204,583.5880,-104.7546,164.6263,-312.0599,-208.1767,62.6693,86.6144,46.3925,9.0548
-2695.3125,51.7874,562.6650,18.4358,88.7707,71.0418,55.1866,64.5526,-55.8337,-425.6638,-662.2090,-228.6629,569.1945,64.7574,198.8888,-364.0549,-171.0733,99.4487,71.5596,66.0489,-5.5262
-2687.5000,87.0086,632.9850,-55.2597,89.2630,-76.8271,18.9703,-8.7997,-202.0570,-315.7831,-514.4202,-117.5388,643.0930,-8.4960,181.4594,-253.7954,-189.9166,49.0462,-33.2423,-145.0607,-4.8639
-2679.6875,83.0568,489.1617,-22.1086,15.5918,-116.8832,50.6209,-13.3101,-243.4249,-356.0378,-78.7791,-85.5929,492.8628,-48.9200,160.6827,-257.6941,-62.8721,17.6308,-37.1888,132.7261,-8.3561
-2671.8750,87.1652,493.4505,21.1294,55.0084,109.1682,93.3824,28.3241,-128.6504,-535.2029,-147.0299,-152.6079,499.7596,67.7525,206.5912,-361.4993,-17.1634,61.4356,-33.0395,-74.3758,-38.7591
-2664.0625,284.2538,479.7600,42.3474,76.4096,-162.8262,77.1446,-207.0384,-327.8712,-550.3387,-272.2563,124.3482,521.6996,-94.6207,140.1371,-304.3142,-160.3384,84.6330,23.1028,51.5347,-17.1685
-2656.2500,180.3482,234.1196,155.6048,77.8429,96.2203,153.9630,-21.3222,4.9951,-842.4047,-232.3987,-93.7113,230.7112,93.0391,140.5004,-81.0754,-9.0625,131.9654,59.2857,193.5281,-50.5368
-2648.4375,163.7058,182.8013,100.1436,96.5726,114.5536,208.0872,-114.2966,23.1793,-787.1433,-435.2420,-1.5212,250.0631,111.9814,146.0805,-136.5371,-64.9687,122.1300,113.7625,35.7946,-31.6149
-2640.6250,228.1416,212.5979,203.7714,126.3912,70.9429,237.3134,-194.1732,-94.5386,-647.7384,-773.9673,101.7381,280.5475,-5.0137,114.4229,-289.8955,-229.7267,189.3014,107.3291,312.1860,-1.5994
-2632.8125,182.8803,272.7487,156.7351,116.5448,280.6929,190.8921,-95.6507,42.1309,-510.9817,-674.3121,-128.7250,271.4032,95.3391,135.8228,-372.8922,-142.9685,168.8537,-7.7643,54.9341,-11.2477
-2625.0000,204.7424,261.0740,30.8323,-1.1574,-101.4448,-9.3711,-367.9737,-156.0535,281.9595,-248.5022,0.9338,257.4505,-139.1937,20.9155,-351.7332,-152.2850,37.9042,-90.7085,112.8257,47.2451
-2617.1875,7.1715,64.0098,9.5257,-92.2725,23.0041,-31.0175,-96.6755,152.3821,408.5210,-87.0907,-203.8612,89.1210,-87.1458,38.4812,-225.9558,13.9749,-31.9757,-112.0532,373.3596,26.3257
-2609.3750,-53.9390,73.4528,-90.2994,-187.9038,-3.0518,-131.1580,98.1564,310.3419,271.5956,107.8343,-156.2168,-8.6816,-148.6090,17.3439,-105.6670,122.9963,-125.8190,-171.9014,206.3922,0.8942
-2601.5625,-14.0687,-62.1070,-85.1381,-252.5615,-218.1539,-198.2992,66.0043,241.3000,423.7159,333.7971,-42.5966,-149.4641,-254.1093,-68.4330,83.6152,133.0106,-172.9390,-202.7592,422.4692,6.4553
-2593.7500,-130.9934,-178.4234,-97.7362,-299.9999,-10.9973,-175.1869,201.1575,412.5568,411.1093,431.0250,-238.7884,-233.9808,-83.3617,-41.3221,145.1488,244.1789,-203.1464,-215.3808,268.8223,-5.7489
-2585.9375,-13.5994,-130.3651,-156.0030,-286.1096,-180.5263,-161.7271,-43.3319,95.1757,535.8976,408.5923,-5.6627,-110.1070,-215.2992,-69.2460,-24.9644,110.9348,-215.6707,-165.6643,247.5315,8.3873
-2578.1250,-85.4770,-200.5484,-46.5364,-287.4967,2.6650,-125.5138,140.9421,95.5662,352.4559,223.9592,-79.8246,-145.4682,-68.5197,-63.3551,-24.3221,66.6843,-175.1835,-168.2115,493.0470,-27.7385
-2570.3125,-69.4347,-184.7753,-28.1383,-340.9484,167.8025,-217.3410,232.1971,39.9343,369.9670,132.3125,-62.0903,-162.8551,24.2019,-118.9496,141.2701,-0.3398,-196.7417,-291.8134,157.5042,-45.9282
-2562.5000,100.0941,-154.4911,-1.2536,-347.9134,-26.6013,-226.6578,1.9417,-153.2081,508.0170,49.1763,222.1304,-169.7094,-95.6143,-194.8439,131.3555,-129.8145,-175.7198,-262.9150,186.4836,18.3728
-2554.6875,22.2869,-91.4969,27.3329,-143.1894,185.7032,-52.2608,67.4177,59.3845,94.7739,-106.2626,-44.0049,-103.8482,80.2618,-54.7480,-23.8511,-31.3921,-43.4094,-128.3211,-31.8159,47.3595
-2546.8750,24.9596,52.0226,-82.5978,35.0243,-108.5177,-16.3533,-153.6095,-15.5187,-51.9423,-33.2235,-7.6602,117.5519,-29.3845,27.3866,-23.5690,-12.4610,-17.3032,-91.2271,-274.6271,120.8359
-2539.0625,-78.2773,19.6513,-119.4390,3.3189,-144.6691,-15.3329,-116.5298,58.6805,-87.5252,187.9302,-118.2317,119.0732,8.0415,65.2500,49.7967,95.2411,-61.1764,-124.0382,-96.2999,158.4004
-2531.2500,-124.0977,80.7365,-127.8387,-77.9545,65.6475,-133.8553,-51.9606,50.3567,50.3420,68.5694,-54.4213,75.0670,71.9148,-3.3551,115.6168,24.2982,-98.6410,-169.4069,-211.5237,113.3968
-2523.4375,104.6633,-6.5577,3.3483,-234.6504,-59.4725,-295.7757,-103.7876,-294.3724,329.8393,90.8237,333.9712,-49.3108,-16.6503,-191.6623,174.0364,-168.8018,-129.5529,-256.1801,87.8765,61.9813
-2515.6250,160.4880,-194.7497,213.6266,-319.2649,333.5027,-344.5818,179.5282,-159.9641,98.4475,79.1935,137.4162,-168.5800,230.8698,-194.6749,200.5639,-107.9432,-77.1004,-270.8576,109.4195,-22.3495
-2507.8125,167.8310,-46.3746,147.4354,-241.3403,157.0124,-262.8309,-70.5894,-260.9911,180.6443,-96.8672,218.3728,-12.2753,127.9105,-161.2349,97.6458,-193.3822,-58.7571,-191.9851,-129.5001,-14.1456
-2500.0000,98.1115,-80.0363,112.1858,-239.4729,11.4371,-188.1193,-142.7566,-222.0660,182.8179,-20.9668,219.2612,-46.0018,19.8712,-140.7572,26.6781,-149.8795,-78.5411,-156.1625,189.5694,-12.0034
-2492.1875,37.0197,-104.0269,14.5795,-264.9657,207.5287,-175.7500,91.7661,-136.4569,85.6223,-81.4203,83.7678,-31.0592,69.4842,-105.0435,113.3616,-119.3011,-133.3813,-216.7005,23.2874,-72.2301
-2484.3750,145.6783,-100.2395,56.7078,-296.7229,-8.6754,-207.6277,60.0352,-461.0999,348.1987,-150.1330,272.0321,-25.3375,-72.1820,-197.5364,228.7800,-292.9473,-127.8994,-142.4958,167.7641,-103.7190
-2476.5625,32.7743,-247.9921,126.2758,-269.0474,281.5609,-174.0438,423.7824,-282.2635,271.2401,-43.3892,46.7176,-211.1563,181.5851,-186.7301,298.6455,-172.9378,-93.7826,-114.8553,266.7296,-180.7732
-2468.7500,28.6522,-214.9262,122.6273,-237.5880,241.5893,-177.6547,384.3509,-285.6120,342.1014,-156.8303,152.1808,-213.1532,141.1334,-206.1364,332.3015,-219.0543,-80.1077,-83.4315,87.4794,-184.0453
-2460.9375,74.1327,-274.2559,133.5711,-226.5548,104.1840,-130.6674,284.5219,-237.3721,390.6067,-145.6400,199.2353,-237.5402,5.2445,-198.8389,380.5565,-201.6956,-71.1419,-36.4197,310.8697,-172.7272
-2453.1250,11.4228,-229.7459,145.3626,-112.6934,336.6468,-81.8195,369.5931,-41.2547,217.9799,-207.5789,-47.9132,-224.0789,127.2083,-125.5293,318.6850,-114.8407,-4.5834,6.4418,37.1326,-234.5754
-2445.3125,103.9933,-64.9262,168.4497,-18.5447,138.3874,-21.6668,24.9772,-312.8551,425.6877,-441.2231,195.2230,-126.2954,-33.5465,-167.8963,121.1232,-307.8211,58.1387,29.6089,25.7009,-211.1347
-2437.5000,-5.5040,-139.1540,276.4799,-22.4614,357.0725,49.4413,281.3364,-130.4920,19.3774,-479.9146,44.2726,-236.5555,111.6316,-127.4877,192.5185,-223.8290,94.8079,-9.2861,304.2736,-249.7579
-2429.6875,43.7710,-87.5752,182.2966,-77.5963,336.5616,-7.6482,445.5215,-76.3109,-294.0925,-353.7988,97.0876,-182.0014,91.5899,-98.1539,246.7178,-155.1667,18.7486,-134.4037,143.6382,-269.5983
-2421.8750,137.7448,-134.2907,95.8072,-125.0537,64.7078,-94.0324,248.4005,-126.4365,208.1811,-108.9811,193.5915,-229.7312,-105.7762,-161.3874,86.6125,-140.9128,-49.5090,-181.8411,343.7308,-245.7489
-2414.0625,16.8350,-252.8618,44.4623,-139.3870,234.0198,-71.2567,271.4736,43.6321,599.5983,-85.9918,-79.7985,-353.3147,64.0116,-170.7729,72.6727,-76.9956,-73.2484,-161.1405,224.9941,-259.7669
-2406.2500,14.4599,-218.8715,4.6577,-106.2008,9.8669,-74.9301,121.1130,-180.7451,780.5961,-163.4359,62.3564,-244.3306,-86.6782,-192.1417,143.2782,-195.1071,-78.6471,-91.8990,187.8046,-226.2494
-2398.4375,-21.6771,-183.6324,40.0960,-106.7854,118.9516,-38.3461,268.0246,-106.8622,302.8734,-52.5994,-49.2553,-169.1010,-13.1430,-102.8780,253.1313,-90.8243,-61.1325,-57.4143,328.9164,-226.4979
-2390.6250,49.5097,99.9621,3.8701,-70.0332,118.3942,-75.3969,158.3239,-179.6000,82.5220,-199.4291,-87.5557,237.4886,-13.2707,21.2264,180.3438,-129.8910,-50.0725,-91.5827,-91.6265,-189.4160
-2382.8125,210.5894,368.4648,-14.4707,-14.3983,-157.3023,-93.5411,-116.4790,-490.4442,176.1223,-290.3570,41.0406,514.9865,-215.5311,37.7931,15.4649,-279.6550,-15.2536,-70.8580,0.7472,-133.4469
-2375.0000,95.5404,465.8572,-22.9217,13.1123,91.9136,-64.7819,132.6747,-315.3560,-89.3837,-298.3359,-262.4993,656.3726,-39.9000,164.7468,44.5034,-168.5684,-5.1746,-114.2362,-77.9512,-141.5976
-2367.1875,131.4788,644.2569,-96.3863,13.6178,-92.8805,-65.0073,-87.1381,-461.2623,-14.8768,-408.3281,-80.0509,878.7768,-150.2883,193.6669,-29.4635,-259.3510,-34.9123,-112.6095,-251.6702,-104.7680
-2359.3750,146.2175,554.4617,-8.0553,-76.0881,-4.8906,-85.4163,-145.1436,-372.3664,-108.5329,-281.5131,-65.8116,784.9802,-60.8985,178.7229,-49.6349,-192.2832,-40.5407,-132.1838,-59.5498,-89.1568
-2351.5625,83.7333,528.4687,0.0662,-103.0139,150.9132,-77.0181,-99.3165,-289.6352,-319.3812,-272.8774,-169.7975,757.9836,57.2838,199.2990,32.0109,-139.3983,-33.5163,-53.9644,-331.6405,-80.7697
-2343.7500,195.3055,501.5411,6.2347,-96.9072,-102.2628,-71.5642,-239.4516,-504.8632,-130.1699,-304.2117,19.2802,729.0499,-157.5082,130.1462,-35.2891,-253.4588,-20.5596,-11.6912,-148.6792,-38.3504
-2335.9375,72.9159,345.6521,26.4614,-76.7612,139.6276,22.9562,1.4846,-262.0086,-290.9122,-209.4981,-217.6128,568.1541,-26.2592,181.4408,-161.5394,-97.8210,0.9642,7.6316,-57.6448,-53.8996
-2328.1250,112.6739,420.9204,-42.1710,32.5225,32.6480,27.6368,-29.4416,-368.0205,-432.4447,-277.6273,-68.3468,610.4116,-132.9020,172.7561,-192.6543,-157.5386,21.3335,12.0982,-193.4589,-49.3160
-2320.3125,88.4766,399.2310,7.2456,44.8403,8.7184,40.3700,56.6923,-354.9724,-602.8906,-155.6488,-131.0553,477.6983,-120.5051,143.0841,-32.7219,-118.3458,46.2532,-10.3987,136.8260,-36.7032
-2312.5000,-59.6817,287.5952,-0.2914,-32.8030,220.8555,-39.8512,196.9138,-178.8754,-425.2761,95.4221,-322.7318,362.0332,19.9289,135.7926,70.2626,23.2997,-8.5681,-87.8583,-45.8564,-44.0603
-2304.6875,14.7256,187.5195,-34.2709,-63.9074,-70.4872,-147.5121,-130.3284,-394.2501,203.9050,246.0178,-26.8257,292.9222,-160.1077,7.8804,37.7914,-72.5432,-56.3213,-83.7695,30.0299,-3.8803
-2296.8750,-122.4142,86.8863,-27.7870,-58.5710,82.6577,-29.6996,60.8976,-94.1456,26.5150,253.0121,-168.4805,191.2462,-7.6705,81.9175,7.7736,74.5751,-50.9689,-8.2310,106.3671,-34.2654
-2289.0625,-120.5948,161.2006,-62.3609,48.7119,11.7389,46.0764,-8.9452,-54.1064,-42.8870,-38.0701,-94.1543,232.5177,-42.2994,103.0455,-100.3006,5.4263,-0.1562,100.2634,-66.3656,-31.7137
-2281.2500,-33.9226,37.3505,-46.0805,64.8344,-83.3394,99.7043,-102.9228,-37.2100,84.5866,-21.2827,-4.9773,102.6084,-136.0900,62.8191,-156.5162,-1.6824,10.8363,80.6094,302.7905,-15.3252
-2273.4375,-145.1618,-36.3994,-85.7068,60.0428,97.7047,97.4417,79.2417,180.8051,-26.8455,196.6245,-265.7095,28.7792,-28.7803,111.0428,-122.6035,170.7674,-19.8323,6.0536,158.0262,-54.8534
-2265.6250,-74.0403,36.2033,-158.9831,61.5794,-195.9298,-12.4741,-67.2495,-1.8510,84.0999,307.9046,-84.0544,140.2892,-286.1439,80.0802,-85.3409,116.8814,-57.2063,7.8418,54.6198,-18.0414
-2257.8125,-181.7258,68.9968,-126.0585,93.2944,-53.3418,57.8185,151.4996,215.7221,-210.7426,231.3998,-197.2183,101.9758,-142.2995,140.9619,-13.8820,201.6664,-27.4142,4.8133,52.4318,-21.0426
-2250.0000,-135.8096,153.3958,-113.5518,176.5960,-4.1731,107.7083,53.8461,228.8896,-343.9422,60.4943,-149.7648,190.2728,-56.8810,176.0529,-74.8148,168.6821,24.1605,17.3689,-355.1785,-8.4527
-2242.1875,-35.5243,114.1365,-82.6994,136.2329,-156.6750,64.9432,-244.4626,76.3951,-55.7821,275.9743,100.0514,112.9038,-135.1209,90.0532,-152.3910,138.6475,2.1603,-57.7359,-113.3972,22.4766
-2234.3750,-81.4010,104.7199,-92.9989,90.7107,52.7088,19.0411,-70.8786,250.7791,-64.8072,414.3223,-95.3012,67.3696,0.4990,114.8441,-126.1084,253.3220,-24.0432,-137.9987,-122.7785,12.2398
-2226.5625,-0.6640,222.9134,-229.6971,101.7829,-232.3303,-8.2454,-132.7073,77.7400,93.7962,129.2171,97.9892,225.4372,-210.3031,97.5370,-189.2377,78.5721,-59.6165,-56.6516,-40.5588,58.5939
-2218.7500,-66.8789,122.1537,-225.3376,70.8910,-228.2926,33.5323,55.5378,229.7687,99.4416,282.1228,-82.6700,47.5348,-169.0354,90.9193,-147.2953,185.0039,-72.8696,-87.2498,246.7177,62.9839
-2210.9375,-98.4393,126.0459,-295.3214,38.6375,-261.5874,-0.0393,132.4356,233.4324,139.7418,395.6646,-116.6560,15.2712,-129.1141,75.0370,-106.6908,220.0885,-114.9085,-84.1947,-31.4027,66.0086
-2203.1250,10.8768,97.7812,-252.4454,8.2297,-551.0383,-30.7496,-7.8313,55.9186,220.9144,292.0533,181.2351,22.8325,-233.3554,1.7291,8.7514,84.8832,-129.8735,-112.2868,151.3525,71.8711
-2195.3125,20.4946,-138.2019,-129.2702,-157.8854,-242.1512,-126.1517,265.2417,217.7357,52.3865,343.7705,121.4013,-180.3431,73.6999,-56.5314,134.4978,144.8358,-177.1917,-244.0939,232.4111,-23.9852
-2187.5000,243.8255,-265.4823,-3.4079,-321.3152,-191.5923,-256.8581,98.0024,-59.7641,621.5958,-8.8113,393.3086,-310.8306,89.4208,-268.2159,223.9554,-155.1989,-197.4337,-337.2089,175.1833,-82.1530
-2179.6875,292.2697,-461.6751,159.5573,-412.6593,-28.9225,-277.4534,150.8968,-44.1384,822.8948,-176.3159,334.3233,-477.2466,178.2424,-347.8784,314.5316,-228.0861,-163.6102,-323.2316,402.1049,-103.2320
-2171.8750,145.0746,-395.5344,78.8718,-418.6595,111.1086,-174.6914,255.1591,243.8585,522.5489,74.5105,68.7083,-409.3385,244.4077,-197.0186,344.4579,20.0676,-189.5312,-293.9079,80.3701,-73.9717
-2164.0625,146.1975,-323.1227,-34.5068,-417.3661,-222.5760,-139.6267,32.6994,205.1409,447.5452,329.6752,212.4369,-337.1653,-16.1372,-156.6301,268.6599,95.0984,-225.8710,-186.2842,258.9723,33.5814
-2156.2500,-68.4861,-395.5285,-74.6773,-420.8813,-43.0093,-69.3581,214.4729,533.6564,187.7146,401.0637,-12.6424,-411.8235,91.5405,-67.9767,302.0621,277.7306,-238.7917,-84.4560,326.7638,30.3172
-2148.4375,-29.7966,-355.5693,-142.4859,-347.0402,-148.0993,-64.7286,145.5741,428.4962,193.2405,294.7592,64.6783,-370.1449,-15.4561,-80.6575,233.7909,204.1255,-218.1486,25.7381,191.8825,34.3932
-2140.6250,-26.9843,-421.5222,-67.1796,-308.0966,-109.0771,-23.9889,223.7633,358.4364,234.8793,446.5839,67.1106,-475.4082,-49.3540,-99.1976,163.5915,233.8736,-166.6678,64.0255,407.1326,37.5590
-2132.8125,-141.2649,-289.5930,-76.9786,-178.2519,137.8678,76.6555,324.8690,459.2865,152.4208,437.3283,-200.5536,-373.8081,51.6454,11.7069,81.3087,322.0905,-94.0029,124.2122,46.2641,27.6133
-2125.0000,-80.4260,-51.5816,-51.6744,-12.3046,-94.1101,175.4052,19.0837,227.2200,142.0842,-52.8645,-31.0742,-127.1410,-144.2604,42.0819,-76.8452,89.3715,18.2045,256.5101,2.5179,88.7610
-2117.1875,-169.0419,0.9516,4.1885,76.1817,144.5068,232.7114,149.8847,357.7375,-130.7071,-216.5087,-232.0455,-178.9721,-15.5925,74.7141,-130.4191,109.8168,94.3772,239.3597,21.3183,71.4460
-2109.3750,-125.7425,-24.6206,12.9539,119.5556,117.0162,167.9060,-96.4314,257.1247,25.4437,123.7625,-187.0691,-168.9123,-79.0456,59.3517,-268.0849,177.7046,109.1162,248.0979,-285.0171,80.0237
-2101.5625,-43.2157,-81.0057,62.9301,132.1141,-18.2701,181.3046,-303.5502,233.7041,113.7973,357.2331,-64.8715,-228.6855,-177.2882,41.7780,-365.5464,231.6200,127.0120,261.0325,-25.1262,92.7985
-2093.7500,-113.0855,-45.8060,-9.4884,166.2782,167.0814,293.3131,-81.0355,419.9048,-214.2721,175.2860,-284.0653,-188.8941,-65.9177,130.4004,-252.3823,282.5275,120.7184,225.5655,-164.6593,57.1653
-2085.9375,29.3214,99.6360,-79.6587,99.6842,-161.3481,185.5624,-151.2950,201.3308,-100.0607,-6.3857,-98.9608,-75.8770,-321.3140,59.1268,-102.9728,102.0672,67.8992,158.3369,-159.9290,95.7788
-2078.1250,-40.4203,-40.1055,-77.9839,-6.0817,-85.8920,114.6649,109.3179,351.6286,-24.0113,364.8533,-281.0070,-182.0573,-208.8452,65.5536,9.2902,273.5615,-10.8674,18.9548,16.6717,61.2324
-2070.3125,-98.3017,-27.0034,-173.4621,-63.9990,-144.5829,129.6299,50.7694,366.7693,138.9118,526.9037,-231.1630,-167.4147,-194.5327,73.6259,61.3968,328.0900,-90.5749,-3.5529,-214.9150,38.5280
-2062.5000,-52.2107,-118.9651,-123.9731,-122.9554,-315.3159,106.5659,-82.8441,196.8534,411.7816,246.8656,1.6684,-225.8609,-181.2712,-37.6768,148.4320,123.9290,-114.8316,-27.0928,113.4701,14.7667
-2054.6875,-102.6232,-380.4410,12.0289,-244.4041,40.5010,23.0148,349.0657,186.4656,329.1164,15.3314,-46.9857,-419.8543,211.5088,-139.2938,432.9689,22.6727,-147.2613,-184.1222,204.3322,-106.5051
-2046.8750,129.0464,-429.8873,148.0882,-399.7928,29.3468,-245.4715,448.9998,-191.8960,539.5098,-142.1615,309.4698,-429.8402,200.3248,-322.9000,569.5513,-240.7247,-181.4969,-304.0818,296.2379,-191.7273
-2039.0625,174.4389,-523.6636,270.8645,-424.4691,188.9272,-232.2376,609.6328,-105.5412,516.5669,-202.9498,247.6525,-564.1828,248.8676,-346.4740,545.8271,-229.9473,-134.9261,-328.3266,519.8421,-216.2555
-2031.2500,147.1533,-410.1417,166.9496,-311.8374,231.8304,-151.6958,506.5359,49.1134,376.9043,-86.4385,106.1888,-446.2449,218.7132,-227.8806,294.3987,-88.2484,-105.0412,-250.2722,70.7032,-173.4906
-2023.4375,198.7486,-215.7891,107.8943,-224.3642,-48.4312,-137.3184,43.2560,-46.3962,429.1040,75.9780,304.6342,-284.5030,11.4133,-188.5081,14.8137,-71.5535,-80.3385,-162.3855,89.4427,-85.8768
-2015.6250,155.4983,-154.3251,62.9870,-162.7496,127.4927,-144.8017,147.1540,130.2796,201.4379,68.6115,222.2346,-254.6732,187.2791,-133.7502,44.3906,7.3689,-75.3746,-205.3520,11.3266,-94.1219
-2007.8125,263.7670,-80.3753,-8.4192,-89.6218,-91.1025,-215.7695,39.5401,-87.5678,205.2849,108.7099,445.3817,-214.3723,116.6216,-195.1093,121.4669,-86.5816,-79.9899,-202.7958,-90.2965,-91.8689
-2000.0000,322.4487,-197.0419,128.5895,-66.0673,-29.2759,-226.3044,103.3385,-134.9939,85.5079,171.1286,396.9395,-298.7181,215.3859,-219.9127,110.9521,-82.4925,-14.4779,-178.8184,145.5116,-103.2229
-1992.1875,326.2355,-121.6190,170.6927,43.6021,197.6714,-145.7307,183.2435,-128.3074,55.8403,-227.3598,291.6303,-218.0008,331.2556,-181.2007,6.5375,-182.4171,73.7120,-138.7428,-130.6135,-134.4847
-1984.3750,433.8566,-84.4143,244.6020,80.0686,13.4006,-108.3606,-73.0725,-384.8399,240.9928,-446.0288,512.1772,-144.5249,147.9231,-229.3048,-29.0933,-367.5640,118.5386,-172.8618,12.0721,-97.9468
-1976.5625,326.1390,-191.5830,243.1816,78.1924,232.8378,-36.3338,183.2773,-128.6844,-90.2405,-337.0485,253.3866,-218.4533,256.2760,-149.5244,116.9278,-197.0250,114.6900,-209.3224,11.3725,-99.7635
-1968.7500,271.6029,-105.6049,109.9178,93.4722,62.4190,-58.1563,87.7283,-187.3974,-75.3160,-322.9360,303.8109,-130.2614,159.7779,-140.7459,94.1024,-215.0417,67.6966,-193.6300,-218.2257,-49.4291
-1960.9375,201.1432,-138.6036,108.7211,57.8109,-11.9335,-95.9254,14.2176,-187.0647,72.6259,80.2426,265.3178,-205.0662,84.3508,-147.5547,-90.6593,-90.1781,43.7475,-191.8892,29.2274,-14.0443
-1953.1250,72.5865,-126.7120,123.4249,70.0615,186.6481,-43.7848,102.6244,-25.8418,-59.5715,-88.6721,58.7561,-153.0074,209.8363,-74.6213,-75.4894,-51.1673,71.8701,-74.2512,-167.4754,-36.7640
-1945.3125,160.7072,-3.1888,177.7855,157.9659,19.8626,11.0065,-209.3495,-265.0034,142.8823,-694.9240,333.9015,10.6558,42.9641,-112.2658,-94.6546,-354.6486,152.0290,48.0370,-149.5232,-19.8315
-1937.5000,149.2362,-155.3033,315.5563,146.2705,304.5253,38.2057,-108.9047,-90.7423,24.7130,-630.7519,213.4570,-108.3350,253.5186,-91.0467,-212.4247,-253.4085,198.6098,36.7286,-20.1783,-66.5010
-1929.6875,194.9373,-144.2729,326.4862,121.7438,315.3423,-23.4380,-206.3273,-189.3482,-147.2924,-325.4881,261.2178,-61.1959,227.2181,-82.1179,-238.0666,-181.6978,190.7173,47.5992,-219.7322,-56.0150
-1921.8750,222.5193,-46.3961,317.2808,114.0843,159.0153,-32.2195,-361.9201,-234.1155,-301.4673,-114.3920,251.8625,-33.2488,70.7799,-71.8386,-172.8713,-131.8886,191.3646,75.3433,54.5753,-28.6717
-1914.0625,78.9598,57.3189,167.9281,146.2884,303.5788,-34.1504,-179.6684,-16.0211,-486.8207,31.5789,-44.6248,38.5097,105.2118,31.2048,-174.8124,31.4954,152.1683,72.9497,-88.3119,-31.4748
-1906.2500,126.5324,175.1205,31.6757,122.6083,-16.7778,-96.9830,-352.3675,-187.8634,-144.0558,42.6610,187.0538,123.3354,-140.2658,-17.4237,-237.6580,-63.1589,82.2889,50.6778,-145.1094,15.8315
-1898.4375,55.0141,-2.2176,103.3391,85.8440,91.8075,-97.9022,-169.1527,-79.7887,-218.4198,114.6542,111.6478,-24.9991,4.1898,-35.4859,-91.6046,1.6487,79.6859,14.3198,-76.0068,14.0398
-1890.6250,87.4610,-4.6246,64.9589,118.0448,126.3522,-99.8671,-171.0100,-153.7788,-108.8497,76.6070,146.2438,8.5706,111.6004,-47.4349,-20.6035,-37.6063,80.4897,46.9173,-499.9963,11.2028
-1882.8125,126.2328,35.2412,104.8916,157.5452,-16.8025,-58.5250,-387.5910,-370.4730,152.0107,116.8567,260.1827,49.3933,5.3187,-74.8712,-53.3063,-114.2945,116.3634,120.8270,-424.6590,14.6736
-1875.0000,9.6524,-11.2750,169.4827,215.7021,267.7429,79.4730,-212.5086,-232.4954,-186.5135,107.7874,29.7789,2.8108,179.7175,3.2387,-25.3414,-14.8401,173.9137,145.3905,-505.6978,-32.2058
-1867.1875,74.6047,88.6860,125.5957,245.3674,76.7862,109.9554,-365.9611,-423.0517,-265.5285,65.1924,207.9462,106.6866,-11.3779,4.3128,-177.8605,-96.6033,173.5233,140.4560,-475.2349,-2.5834
-1859.3750,24.0364,38.0670,108.2011,264.4921,96.3362,129.8958,-271.9515,-292.1456,-319.1344,120.9633,79.6004,51.9522,8.0260,28.2374,-194.9086,-25.3736,164.4511,53.9853,-209.3090,16.4841
-1851.5625,-29.0501,160.8811,16.2852,317.0894,114.3795,185.2961,-290.5127,-200.7982,-337.3103,-190.8476,-49.2491,180.6250,62.8966,83.6733,-102.5224,-76.1776,169.0290,106.9955,-542.9956,34.0027
-1843.7500,53.1910,206.9751,-11.3178,363.0138,-132.2730,195.0177,-538.8300,-375.1674,-143.2030,-438.3280,181.2429,226.5549,-110.9359,26.5717,-55.8797,-251.4581,187.4166,188.3371,-355.3896,79.8340
-1835.9375,-36.6803,47.9500,8.9773,308.8665,107.0180,215.6655,-297.2523,-97.6059,-306.2509,-160.8919,-56.3656,61.3437,55.1564,66.7738,-37.3451,-38.8371,159.3287,134.5892,-232.9163,25.5757
-1828.1250,-33.1385,15.3178,-60.3328,241.1376,38.6798,109.7172,-292.3104,-202.6669,-190.9041,-10.0384,58.4714,28.5039,-14.3683,7.5047,-69.4032,-54.6390,86.6729,102.2453,-230.0642,-7.2712
-1820.3125,18.3576,-109.3982,105.3040,152.3685,130.2953,91.7330,-91.3978,-183.7594,-208.6490,-28.1883,114.2636,-173.4421,77.0733,-68.5399,23.4943,-72.0114,116.4643,83.8580,32.7777,-26.1618
-1812.5000,82.4944,-80.4849,99.5667,181.2654,345.5704,86.3998,87.1951,-43.1696,-397.7642,-143.6783,145.7280,-326.7606,219.1600,-106.9147,128.0414,-59.0904,159.0282,149.1368,-323.7628,-32.3975
-1804.6875,232.2544,-70.9777,68.4276,189.7781,56.4269,92.6745,-236.6408,-183.9751,-171.2702,-174.5858,518.8365,-395.5177,2.8373,-194.0015,-13.8324,-159.6582,169.5982,263.0391,-244.6961,45.9792
-1796.8750,65.6643,-167.8495,77.9511,233.9527,212.9839,175.6065,-153.8333,82.9124,-197.1763,-90.8221,381.5949,-570.6749,196.2008,-168.4391,-40.0623,-18.7359,191.2763,307.6106,-235.0023,55.0140
-1789.0625,107.9877,-125.8243,9.3749,311.0540,71.4242,181.4490,-295.1639,-57.3197,-191.2027,-48.1460,534.2948,-565.9556,128.4575,-202.5475,2.6046,-66.1640,197.4858,315.1085,-439.4435,96.9605
-1781.2500,151.2213,-258.9157,52.7072,284.0865,4.7756,152.2067,-251.5937,-50.6398,-184.3725,31.4199,651.9053,-744.3692,134.6272,-274.5237,10.1765,-63.6809,197.2747,288.5221,-113.9680,139.8159
-1773.4375,64.9468,-344.5187,37.5370,232.6443,173.6577,137.4768,-8.5185,154.5568,-420.0815,126.4532,416.0342,-797.3063,303.3183,-229.1707,67.2694,66.1903,167.4246,273.4561,-235.0346,124.1775
-1765.6250,79.5556,-366.2853,15.2310,212.0827,-107.6286,113.6025,-142.6416,57.5750,-295.9441,176.3282,540.0784,-748.4265,94.8550,-240.8010,45.1954,34.1264,147.3149,358.2620,-44.2661,173.4008
-1757.8125,-83.0806,-494.3170,64.6905,189.2923,89.8799,202.4859,90.9892,329.3670,-318.0975,153.9789,259.8811,-807.8426,146.1700,-158.3524,94.8753,163.2155,161.7049,440.8306,143.2316,150.3801
-1750.0000,-78.9485,-385.5997,32.8919,263.2801,131.1283,243.1185,-13.6541,333.9012,-350.5082,-171.6264,191.4835,-620.5316,76.2239,-96.7323,136.3046,79.6833,200.6835,516.1650,-97.5679,154.1189
-1742.1875,-32.6946,-303.7974,80.2118,239.3927,32.4741,218.8620,-112.2099,161.5433,-301.8464,-271.1496,276.1998,-537.1578,-21.6140,-120.4023,74.8171,-29.2517,206.9239,456.6193,123.7441,164.9674
-1734.3750,-97.7852,-264.3566,87.1915,174.1836,222.5203,189.2773,-69.1252,241.8506,-184.5709,-43.0374,99.5786,-531.1674,131.2167,-89.2968,-138.0381,85.0488,174.8253,356.7467,-81.3532,134.4712
-1726.5625,35.7082,-95.3667,42.7298,167.5520,-41.9041,107.2516,-445.5554,-59.3435,65.2283,22.6365,312.5757,-319.6448,-23.4005,-115.2485,-293.3622,-32.3955,151.0362,350.4501,-87.9203,162.5371
-1718.7500,-13.0467,-110.6437,64.0280,187.6959,89.4560,166.9987,-239.2373,109.2321,-244.3172,-65.9193,77.3346,-261.4184,107.7707,-23.4536,-197.9228,37.3619,172.2635,370.9275,107.2589,147.3595
-1710.9375,-87.9442,-45.0810,-11.8235,218.7183,85.6718,200.6055,-96.0878,179.6608,-358.0514,-179.6179,-72.0122,-156.3734,140.7972,40.9894,-91.6529,50.9846,155.3723,367.2816,-106.7505,143.0408
-1703.1250,-148.9613,-106.6882,-2.8046,157.6092,-125.2599,173.0654,-123.1215,188.9401,-274.9466,13.5579,-25.4717,-222.5232,3.6801,16.9249,-45.5753,98.3064,106.3987,306.5061,253.1046,151.5822
-1695.3125,-330.6316,-112.9610,28.5770,151.8729,128.2148,169.8783,166.2002,516.6015,-463.5222,156.0500,-323.5830,-264.3592,108.9464,104.6184,-12.1477,298.4474,104.0965,230.0865,247.2648,110.4805
-1687.5000,-216.8838,0.1585,-35.6217,159.5594,-83.9206,104.0900,-9.1155,340.6172,-271.7028,126.8918,-57.2433,-109.8117,-103.3853,85.9770,-78.3056,202.2387,68.8322,168.0763,113.7988,117.7927
-1679.6875,-212.4247,-102.0512,4.9038,128.9692,-42.3310,109.0166,31.2860,271.3267,-119.2305,205.4342,-52.2028,-180.6021,-24.9796,49.6990,-73.7448,192.9006,55.2045,66.7760,154.0403,121.8160
-1671.8750,-225.4065,-80.7302,-81.0176,80.9543,53.8203,22.5020,54.2379,221.5590,14.7856,192.5256,-101.5988,-84.8661,33.9847,45.5892,23.3795,162.8698,-10.6512,-15.9514,-175.2096,108.4026
-1664.0625,-125.5338,-16.5786,-125.0792,4.8144,-246.1871,-56.1544,-134.9956,-4.3823,300.6713,148.4727,74.8709,17.6928,-155.2051,-14.7371,126.3428,25.0306,-65.9534,-19.7952,-5.6038,137.8597
-1656.2500,-199.1163,-19.8828,-163.5909,-33.7491,-63.6134,-21.2507,82.3144,287.2354,189.0667,146.9540,-183.1039,-22.2222,-10.8242,49.4836,198.8621,151.8966,-91.4426,-24.0688,25.5075,98.8778
-1648.4375,-128.3327,84.1610,-198.7534,-66.9398,-209.7136,-55.9914,-63.0597,104.1882,299.7904,184.7765,-107.6860,50.1930,-46.1081,16.0922,125.7207,81.8826,-114.2038,-22.9835,-149.0206,99.2641
-1640.6250,-143.5052,-35.7612,-66.8624,-153.0648,-151.7371,-34.6797,-78.3710,89.2274,174.5195,426.6794,-122.2338,-2.3675,10.6747,25.4193,147.6114,164.1180,-117.2363,-71.8426,116.5008,83.7115
-1632.8125,-187.4706,-80.4887,-74.7812,-161.9751,61.4293,-78.1711,97.4941,229.4696,-52.5552,493.7989,-239.5569,24.2614,114.6528,77.4563,140.6825,259.3487,-138.5461,-151.4896,-33.8018,39.3763
-1625.0000,-84.3373,-15.1360,-78.5908,-164.7636,-200.3033,-155.5541,-90.5531,40.8225,235.4655,342.0266,-23.7719,91.9572,-147.2585,12.1321,-11.1588,101.7050,-143.4186,-189.0103,174.0043,71.1544
-1617.1875,-216.3671,-6.9492,-104.5537,-155.6736,-6.1588,-107.0753,66.2448,236.0392,209.2959,242.1119,-268.1456,138.4784,-63.2984,93.2564,-1.1364,169.0218,-147.7074,-179.6629,253.6205,44.7915
-1609.3750,-183.8900,165.7316,-181.0182,-88.0569,-117.5361,-109.0870,-10.4877,86.7249,206.6069,92.6945,-233.9883,318.4858,-138.8468,114.1176,33.3969,70.2686,-140.5458,-146.7992,38.7319,41.9433
-1601.5625,-132.3288,111.4960,-127.3729,-71.3211,-211.7815,-55.9893,42.8847,-7.4735,112.9793,109.3898,-142.7434,222.5612,-122.2688,77.2172,50.0175,38.3291,-105.7116,-93.8196,266.9384,58.2021
-1593.7500,-136.0136,107.0073,-130.9745,66.1926,-32.2750,50.8655,149.9592,100.0684,-147.8701,-151.1702,-255.7330,254.3806,57.0670,141.1080,9.3536,31.9678,-29.3416,-28.0724,-19.1525,54.2235
-1585.9375,3.0083,245.2157,-133.8660,100.4299,-291.0638,85.4340,-183.3024,-85.6923,-150.0506,-301.0364,34.9875,397.8945,-165.8903,134.5431,-65.6109,-94.8287,-3.0381,41.3990,-19.5284,87.9568
-1578.1250,-61.7254,214.6712,-89.4985,35.9437,-27.5642,56.2621,-103.2812,104.8286,-401.1281,73.3369,-177.0680,329.6572,-48.5722,185.7269,-132.3228,117.9406,-21.8134,-57.8673,90.3265,57.9478
-1570.3125,-15.5586,296.0270,-115.2352,11.3754,-16.1825,-42.0172,-202.3752,42.2254,-390.3212,158.6176,-165.2011,376.3105,-73.3653,165.8527,-268.1690,114.6413,-30.0770,-46.2263,-214.9276,68.8527
-1562.5000,45.3020,250.0665,-89.2672,37.5262,-173.0828,20.4054,-250.7829,-40.6617,-254.7941,-72.4009,-101.6462,400.6417,-121.4453,155.3472,-316.3362,4.8964,6.4812,86.1305,20.5069,94.4655
-1554.6875,-124.6337,219.3339,-119.1077,78.9171,54.2137,102.0475,-24.0247,185.6656,-322.0913,-102.2434,-351.8937,369.1969,-5.3294,230.2060,-198.3106,114.8324,15.5075,126.7279,-149.9260,64.2961
-1546.8750,-35.6276,273.5936,-174.0157,63.3264,-183.5790,47.6923,-299.3704,-15.0174,-155.5374,136.9006,-148.1918,422.7369,-205.2922,187.7740,-179.3705,91.1146,-28.1731,76.3404,-131.4391,83.1087
-1539.0625,-107.8598,199.6915,-139.1566,61.5995,-74.5763,83.1889,-154.9350,130.1619,-379.3423,244.8879,-259.7220,346.0970,-134.4527,224.0813,-108.6545,198.0766,-19.6754,74.7984,111.8105,80.7491
-1531.2500,-151.3826,261.5015,-147.6110,158.5904,-10.9093,149.3826,19.1629,159.0102,-572.4540,15.5485,-341.4998,409.1548,-68.9227,273.8977,-117.2549,166.2134,33.2103,136.9601,-143.2404,72.1015
-1523.4375,-88.3248,252.8406,-82.4821,187.1196,-128.6580,178.1047,-99.1720,39.3860,-619.0070,-175.2709,-165.6843,362.7233,-187.8096,222.7192,-162.3023,48.5799,93.5599,271.6606,59.2835,100.0011
-1515.6250,-118.0790,152.3331,-39.1816,228.8029,171.7774,258.9602,53.6494,267.8945,-686.4547,-315.9576,-341.6838,294.4325,-34.5134,273.5345,-192.2117,115.2033,142.5387,312.5156,-40.0871,70.0488
-1507.8125,-25.5508,244.0857,-52.6231,251.7504,-25.5481,208.0707,-217.3170,32.6343,-332.6868,-330.4092,-171.3859,389.3932,-158.9752,218.0379,-206.9158,-8.0344,139.8051,265.6350,-194.2159,92.3549
-1500.0000,-98.0687,170.8010,-19.1090,178.6710,8.1058,206.1384,-110.3455,104.3540,-263.0124,-368.9198,-209.1476,311.2974,-87.4621,195.5145,-99.7122,-7.7566,98.3058,122.7131,47.5808,89.6175
-1492.1875,-153.5198,255.5928,-112.5531,123.6593,98.7901,150.2534,51.6470,121.1087,-247.2910,-426.3917,-265.8295,399.2672,1.0922,213.8882,-46.4796,-16.8835,33.0099,67.8480,-218.5870,68.9424
-1484.3750,-27.3621,238.9819,-57.3859,73.2577,-139.9220,94.9619,-113.7620,-117.5316,-118.9915,-334.2630,10.0948,379.8311,-89.7428,128.9285,-65.6370,-109.6682,23.0234,17.5823,-94.1360,123.8760
-1476.5625,-80.6051,79.9786,-1.6176,21.4715,62.9825,78.2699,51.4258,48.4345,-285.1313,-167.5282,-116.3893,213.9995,150.0341,119.5038,-46.1831,9.8433,8.3762,-69.0786,-77.1268,106.4200
-1468.7500,25.2161,116.0409,-73.7987,-46.2419,-82.0897,-29.3693,-131.3822,-169.5702,-64.2448,-56.7420,-4.7979,249.2312,39.8492,45.0354,-82.7075,-70.5182,-50.9191,-102.6663,-147.0755,107.0356
-1460.9375,12.5296,31.6093,-13.4746,-94.4324,-57.6338,-115.4973,-70.6955,-182.0482,32.1002,39.5542,-52.7311,198.9591,-8.8159,12.4841,14.2297,-61.2277,-57.8598,-114.7380,190.4579,94.1660
-1453.1250,-62.4992,61.8459,-17.5105,-63.9534,122.4501,-117.9752,181.6056,-38.8879,-118.8953,-36.5126,-239.0002,193.3502,98.1579,49.8722,157.8097,-12.6903,-41.8209,-119.1508,-26.3939,53.9653
-1445.3125,49.8239,67.4351,-11.1967,-91.1035,-91.1286,-148.1010,77.2509,-252.3795,-113.5794,-30.2212,24.0806,198.0884,-42.5197,-11.2553,126.7422,-111.0531,-50.6326,-76.2068,85.1233,60.1316
-1437.5000,-68.9584,-17.0616,52.0091,-104.3331,154.2073,-85.3249,249.8064,-79.9575,-52.4206,-42.0334,-168.9586,75.7443,166.7165,9.2916,4.5577,-32.7554,-23.5761,-19.3565,71.4932,12.2110
-1429.6875,-72.0306,85.1686,11.9154,-140.8305,114.2117,-87.8461,25.0188,-192.8671,347.4410,-81.1750,-98.2785,181.1277,53.6400,0.8804,-107.9507,-99.6165,-52.6265,-21.7842,-143.4563,9.0082
-1421.8750,-54.4611,32.0579,31.4803,-157.6465,-13.1030,-104.6993,-103.1140,-247.1152,365.9170,48.3082,-41.9721,125.1704,-37.7681,-35.6597,-53.8131,-99.8026,-70.9460,-73.5443,295.2364,-8.5344
-1414.0625,-146.1386,9.7107,-25.2121,-144.6925,188.3237,-87.7999,207.4927,-9.6290,87.1277,28.5356,-280.9125,103.9812,52.5686,31.8602,73.0702,11.5957,-88.6966,-94.5445,202.6536,-65.3128
-1406.2500,9.2309,58.4181,-47.8565,-58.6823,-92.2185,-109.8507,73.1444,-178.1069,284.3863,-105.1759,-82.8068,116.8511,-117.0564,-34.1535,50.9967,-126.7019,-57.2857,-79.4874,286.1489,-51.0257
-1398.4375,-20.6164,-77.0645,-3.7057,-52.8544,25.0602,-28.0931,190.6082,85.2374,290.4253,-135.1025,-220.9389,-98.4676,1.1312,-39.1668,56.7290,-37.9060,-28.1387,-37.6190,467.4254,-80.9298
-1390.6250,-29.7098,-122.7734,-49.8077,-96.2497,16.0609,-73.5715,143.7977,76.3205,354.1895,76.6809,-193.3107,-72.0141,-44.9479,-29.2551,-25.7967,29.8834,-80.5419,-80.9801,210.4617,-90.0692
-1382.8125,-61.0554,-119.7253,-46.1495,-197.8788,-127.1684,-179.2886,72.7653,-29.8211,503.6154,411.1955,-115.9597,-32.8054,-152.2691,-47.0442,-59.5941,81.1416,-150.2548,-147.5775,389.2776,-86.4465
-1375.0000,-155.1996,-107.4622,-32.2934,-290.2924,107.8097,-274.8069,343.9334,94.2464,405.2051,571.9066,-321.4172,-20.3790,8.6129,-16.0768,100.7826,191.8434,-194.7840,-238.9732,154.2603,-109.6082
-1367.1875,53.5059,29.6537,-73.5875,-256.8499,-154.3838,-278.4821,117.9198,-202.8483,510.6651,236.4890,41.9796,83.9065,-142.6614,-94.1613,169.9859,-59.3572,-176.6484,-171.5042,10.1108,-76.9024
-1359.3750,95.5930,-34.8231,7.5189,-179.9906,-35.1483,-196.7521,235.3109,-122.5273,296.4925,60.4776,50.7387,16.6031,-23.5149,-79.1866,103.5783,-72.3541,-107.5055,-164.6248,226.3389,-105.7901
-1351.5625,53.9837,29.0227,-34.0827,-114.8155,33.3573,-164.7255,229.9947,-89.9301,179.6105,129.7328,-27.1906,84.6262,44.9129,-26.3950,24.4669,-14.7049,-104.0591,-205.4359,-62.1363,-147.3644
-1343.7500,181.5652,51.0672,25.5174,-162.4381,-164.9342,-214.4969,-6.1069,-214.1196,237.9183,262.1920,107.0585,105.8557,-79.4604,-63.8515,-63.4577,-41.3610,-102.1025,-217.0437,170.6096,-124.7271
-1335.9375,129.6432,-2.3790,82.6099,-142.5567,113.2717,-157.7796,234.2855,26.1946,-111.2621,135.1646,-130.2122,87.6064,50.6671,15.3059,-43.9048,48.2747,-55.6743,-198.1502,82.8202,-141.5800
-1328.1250,209.6775,148.1288,53.6505,-61.7238,-25.6041,-149.1180,57.6090,-185.5587,-104.4745,-260.9013,62.4760,241.3196,-51.2721,-7.4482,-73.4182,-166.1653,-9.9124,-117.3003,-84.0001,-96.4711
-1320.3125,135.4998,108.4420,86.4940,-30.0855,6.3435,-78.6575,89.7576,-153.4901,-35.9138,-192.1709,21.9234,198.8509,-18.3924,12.0315,-41.1275,-122.5258,7.0271,-120.6441,86.9701,-100.5575
-1312.5000,54.2252,131.6831,-34.7753,29.4688,32.1676,-15.2985,77.7814,-127.5421,135.5480,-19.5593,-98.7238,223.3165,-29.6290,54.0523,20.0635,-39.9971,-21.8479,-131.0894,-241.1718,-111.7353
-1304.6875,138.8981,145.8892,-59.0903,44.9822,-248.0607,-1.9900,-167.2441,-297.6438,367.9247,103.0005,25.5658,198.7492,-199.9188,-1.1460,-3.8053,-90.1786,-26.9027,-150.5855,-88.3370,-61.9568
-1296.8750,46.7209,89.2668,-6.2559,-45.3434,-12.1235,14.4631,30.8883,-61.5884,124.4168,192.6998,-179.0128,102.3604,-1.0475,37.9057,-25.5462,47.8773,-44.0587,-204.9375,-110.3851,-83.0231
-1289.0625,85.2551,196.3664,-3.7224,-41.9621,-120.5174,-56.3899,-187.3095,-204.8531,162.6292,158.0694,8.1247,177.7005,-35.4887,0.8326,-170.6126,-33.7232,-39.0440,-167.5847,-318.7168,-80.3767
-1281.2500,80.3747,191.0733,27.4182,-45.9748,-125.2841,13.3551,-156.8899,-173.4914,82.4053,-30.9669,3.8199,171.6588,-77.3037,14.9766,-103.0768,-76.0658,-12.2391,-65.6353,-43.4429,-85.1251
-1273.4375,-51.3563,164.9589,-34.2974,-35.8333,33.0821,24.2421,148.6841,-14.9974,-54.7053,-167.8605,-169.3359,180.8000,7.0246,63.8416,91.6212,-39.4101,-34.8898,-55.5374,-141.0358,-110.7122
-1265.6250,66.6094,142.5559,-23.3102,-92.9947,-211.8637,-37.1779,47.9643,-186.8083,138.8695,-120.0485,27.1961,191.6642,-164.9564,3.9683,102.0095,-118.1351,-56.8677,-41.7441,82.1005,-62.5908
-1257.8125,-72.0824,37.5174,53.0178,-89.8067,47.5551,3.7482,271.6047,109.7372,29.7958,-153.8893,-225.9501,82.9052,-14.5780,54.5441,141.7150,3.8676,-26.3876,-39.6068,188.5640,-96.1152
-1250.0000,-42.0637,103.2042,11.0431,-93.9171,-30.3593,-74.6389,228.9123,104.9530,97.4540,-85.0413,-158.3833,113.8764,-130.5224,37.7793,209.0952,9.3052,-50.9640,-78.7770,6.7345,-100.9290
-1242.1875,-64.8029,9.1590,-12.6758,-186.7726,-129.0095,-98.7773,240.4772,117.4326,182.3265,185.0499,-71.5960,-21.8789,-191.2079,-8.4861,294.7203,79.4657,-119.4240,-136.7012,265.1703,-88.4893
-1234.3750,-156.4345,-11.7492,-70.3079,-171.5236,71.4277,-81.8248,403.1428,281.0031,123.2800,90.2234,-165.7110,-7.4869,8.1963,38.5329,273.4411,127.7882,-141.4543,-156.5333,31.6857,-108.9420
-1226.5625,2.1426,111.5583,-52.7406,-153.0772,-168.9583,-137.6730,89.0181,4.7654,323.4250,107.6039,73.3648,83.1306,-121.2125,-23.6071,69.3513,-0.5565,-128.5819,-207.1693,13.4379,-91.1861
-1218.7500,-53.3935,55.7711,-0.2771,-172.7339,31.5796,-157.6258,214.8199,131.4433,117.4555,233.8917,-56.7072,24.6708,42.2933,0.1975,85.1595,100.0530,-124.7290,-262.9131,98.0761,-111.5251
-1210.9375,35.8719,179.8038,18.9783,-81.5947,50.8828,-137.7841,160.3977,3.8935,-48.6817,-78.0483,-73.9692,117.0449,98.5779,-6.2803,140.7657,-37.6871,-39.3285,-137.8548,-270.4882,-92.0557
-1203.1250,149.5865,117.2963,98.6887,-3.0057,-90.3507,-20.4930,-18.5614,-137.1897,-154.3882,-255.5602,79.1947,84.8857,31.3239,-28.4039,108.8099,-142.7719,53.1968,46.6523,-52.5844,-49.1306
-1195.3125,52.4048,-15.0854,72.4972,76.6833,141.5184,100.8938,175.5825,-16.1750,-402.0079,85.0191,-93.5531,-52.1442,189.1744,33.0748,44.9245,58.9753,72.3698,56.2509,-150.6053,-75.0987
-1187.5000,78.4875,10.8042,25.5646,33.6246,-53.3802,54.5215,-57.0397,-246.9323,-10.3747,221.8316,79.9481,10.1049,-5.7369,-13.2320,-39.7403,-6.9667,29.0643,83.0973,-160.3560,-48.8070
-1179.6875,-26.9890,-59.8364,98.0820,-0.9840,56.1953,90.5922,51.8023,-27.2201,134.6962,-73.9196,-140.1457,-28.1641,30.8080,9.5040,69.0306,-20.1563,47.4808,83.3781,49.3369,-49.0608
-1171.8750,-76.4640,30.5457,10.5868,55.3985,78.7280,113.6431,110.6312,32.4718,44.8127,-418.6425,-154.2430,66.6019,89.3235,34.3009,201.8060,-104.7255,33.6938,34.6459,-210.9579,-63.3033
-1164.0625,36.0951,2.9795,-57.8655,28.8188,-171.6955,83.7367,-68.4508,-72.7666,49.9730,-229.2977,108.6726,35.4425,-89.1194,-12.2335,169.6606,-110.5017,-20.3421,-28.0489,75.8444,-20.4872
-1156.2500,-28.7615,-97.9669,-13.7289,34.8295,91.4826,54.4224,85.1061,155.6025,-129.2872,70.6262,-104.8412,-106.0844,65.0369,15.6685,139.1173,89.6376,-3.5532,-57.1612,-24.7653,-50.0668
-1148.4375,28.3362,-4.9496,43.3481,57.7738,-35.4249,1.0433,-188.4083,-45.1004,-36.5496,-19.4919,26.5975,-12.6389,12.1204,-23.1101,48.4856,-27.7603,46.3420,36.6600,-214.3978,7.3131
-1140.6250,18.3242,-86.0256,141.3166,48.6128,26.5797,26.5577,-164.0188,17.1223,-121.8935,-140.6930,14.8893,-25.2701,74.1134,-7.5983,72.7366,-37.8659,82.0050,62.3647,55.8723,32.5956
-1132.8125,-43.0819,29.5280,5.8772,24.0464,75.1582,-35.3383,102.9605,65.9318,-76.6482,-129.2882,-47.2191,95.7419,48.6851,40.1640,119.5948,-5.7868,9.0771,1.6529,-145.2609,7.4888
-1125.0000,66.2595,67.8414,-101.8129,-76.7811,-253.5203,-142.4960,30.7103,-189.5030,255.3335,54.8799,139.3981,97.5270,-132.9956,-54.5681,121.2097,-89.6219,-87.0829,-63.3270,67.3931,46.1379
-1117.1875,-82.7128,-46.1322,-35.8078,-118.9243,33.5096,-147.9657,245.1693,-49.2324,137.0298,269.7499,-87.3208,-56.9572,154.0251,-50.3253,187.5162,47.3871,-86.8149,-71.6260,23.7327,3.4890
-1109.3750,-28.4804,44.1178,20.3844,5.1193,-21.2989,-91.2525,42.8106,-248.7915,154.9797,30.8177,42.1583,35.7925,136.2158,-64.6035,169.0145,-99.9267,1.1776,-16.7411,-238.7080,23.0491
-1101.5625,8.2331,44.8783,95.0740,112.6549,-20.5886,55.9575,-31.0161,-247.8313,7.4324,-225.6173,117.0797,-0.9332,100.9140,-53.6192,132.0154,-170.6756,89.3930,19.6363,42.3551,24.1128
-1093.7500,-60.7127,82.0197,98.0978,150.5338,167.4575,60.5118,46.5031,-133.5232,-100.7354,-147.7141,-26.6771,39.7370,177.9334,8.1502,25.3600,-75.0664,105.1063,-12.6423,-237.2506,-8.4639
-1085.9375,43.7755,115.6158,131.5602,114.8441,-20.0637,-16.4976,-177.5232,-394.7515,152.5772,31.6783,117.9843,35.8761,27.3821,-71.1661,-88.8507,-144.4891,110.4814,21.5149,-169.3614,25.4189
-1078.1250,-52.0107,-50.0421,143.7526,55.8802,213.1703,-3.7761,54.2391,-198.2021,16.6434,153.8664,-90.6448,-100.2208,186.5826,-49.8569,32.7020,-17.5602,86.9102,33.3986,16.2923,1.0564
-1070.3125,-2.7909,34.3116,46.9338,34.8960,115.3640,-63.0807,30.0104,-221.6783,138.7500,-16.9526,32.7326,-13.2836,89.7587,-65.6378,82.2694,-99.5334,44.5910,47.2593,-146.0269,14.6993
-1062.5000,76.9235,9.1797,56.6230,45.3942,-58.9241,-88.9079,2.3063,-211.6491,258.3670,-116.2744,152.5735,-77.8205,-11.5583,-116.6065,91.3440,-159.1310,48.1238,21.5994,179.1624,24.8435
-1054.6875,18.5870,-13.9727,35.2592,92.8283,140.7295,-37.8038,274.5392,-49.6910,-22.0387,-65.6322,-52.6483,-99.3695,77.0702,-45.9100,32.3463,-44.8824,56.8564,-36.1309,84.2825,-33.0566
-1046.8750,111.5056,9.1267,-15.8512,81.4964,-94.3838,-87.4506,76.0243,-209.4854,36.8253,68.2500,117.3732,-2.6594,-120.0569,-53.9817,-165.4125,-73.4362,22.5059,-47.6223,247.6958,-9.6985
-1039.0625,38.6587,-64.5316,-18.7141,9.3994,50.7690,-16.8509,183.8026,44.9963,-41.0726,138.3790,4.6050,-79.6919,24.0855,-1.3161,-168.9028,59.6102,-10.8369,-49.8814,420.3598,-12.0879
-1031.2500,3.9180,41.9163,-55.4878,45.3821,50.9871,20.8324,-0.3266,82.5571,-4.8430,-118.3757,41.9464,31.4054,61.3042,25.6945,-133.2865,-5.9418,0.3276,21.9369,103.1395,-11.3719
-1023.4375,100.2205,-1.5816,44.7915,37.3921,-106.7340,121.5511,-231.3834,-38.8199,-53.5518,-239.0925,215.3028,-53.4272,50.5749,-26.6948,-217.6298,-101.8638,54.0241,118.7912,376.0095,15.3979
-1015.6250,35.4703,3.8967,52.0127,43.3363,157.4942,165.1976,32.5252,189.7542,-340.2822,-304.9004,75.5824,-83.2666,204.7941,40.3285,-285.0201,-5.0546,70.1265,124.5702,310.8188,-13.8782
-1007.8125,156.9163,89.5848,-6.5753,24.4521,-85.1059,108.0203,-100.3553,58.5130,-252.7688,-216.4954,238.0455,43.1200,-37.8046,39.6000,-380.1964,-36.3046,35.6266,105.5222,254.8690,2.0525
-1000.0000,46.2881,-19.7660,25.7798,-15.5094,21.2684,103.7751,5.7546,238.2395,-258.2779,-38.1209,49.4057,-35.5193,-5.4417,71.4641,-348.4252,98.8451,18.7050,66.3914,390.8753,-2.0656
-992.1875,3.8673,78.1179,-18.6815,83.7032,86.8112,96.7019,-75.9392,231.1278,-192.5298,-191.5437,4.9652,67.0976,24.0960,93.2202,-356.4730,53.9048,45.7450,59.4292,-38.9135,-8.9768
-984.3750,101.4946,106.0652,8.9086,111.9374,-141.6014,50.6527,-268.5570,38.0615,17.2897,-163.8878,142.5409,94.7874,-131.3233,34.7101,-329.4598,-37.5973,60.8348,16.4832,23.3848,19.1633
-976.5625,-42.9389,31.9667,6.4334,108.0912,148.9371,11.5298,22.8001,219.9547,-169.9271,-20.2385,-116.9684,19.4485,49.2146,70.5421,-222.4749,98.8709,49.5900,-22.5408,-87.3754,-19.7466
-968.7500,3.7782,150.0188,-18.8913,191.3683,-23.3995,23.5409,-113.6863,10.9808,-48.9789,-118.4416,41.6722,141.2846,-87.1131,58.8738,-174.3253,-13.8859,78.4489,25.5681,-320.9372,-7.5022
-960.9375,-12.6614,133.9285,74.6427,210.4791,34.1512,117.4016,-93.2770,31.8750,-66.2331,-244.8303,-48.8756,87.9956,-66.5709,62.1757,-8.3216,-39.7354,136.0560,79.5055,-92.6339,-23.4110
-953.1250,-94.9849,86.9644,27.2742,199.6700,169.7860,106.3424,42.2210,93.8341,-152.3679,-256.1254,-206.3267,76.8470,33.0607,79.4938,89.7760,-6.6988,115.6370,103.5145,-279.2361,-34.2144
-945.3125,12.4427,-52.2459,26.6615,95.5906,-88.8291,33.0212,5.4665,-89.4758,67.2954,-36.6796,-24.0581,3.4809,-114.5559,-1.6397,15.6189,-36.8127,55.5280,70.2485,-32.0484,2.7378
-937.5000,-128.1893,-226.4877,64.9933,-44.5630,171.5261,-1.3660,338.6839,207.1696,68.9269,-34.2948,-204.8767,-104.8991,70.7838,26.3779,17.4006,82.8272,-6.3909,0.9038,38.0891,-31.3577
-929.6875,-142.5647,-100.4641,12.5716,-93.4935,8.1072,-90.5289,212.1558,154.0449,272.8449,-270.6567,-111.4501,27.0004,-55.6491,1.9708,37.4352,-40.7833,-53.6839,-49.2220,-82.4843,-10.1992
-921.8750,-68.8085,-131.2929,-20.6989,-194.3079,-99.1457,-122.5670,141.8225,195.1016,238.9357,64.1482,-71.9238,-79.9431,-160.9224,-27.7707,76.6477,61.5465,-116.8353,-114.2361,273.1176,-5.8894
-914.0625,-81.9508,-178.0123,-70.8859,-172.0551,35.6805,-99.5328,238.5890,292.2559,41.1822,271.0875,-194.3153,-92.7632,-28.1153,23.7305,62.9704,192.6576,-125.6531,-93.1832,13.8172,-18.4732
-906.2500,57.4987,-180.1319,-74.4796,-138.2303,-187.9116,-65.9131,-59.0346,32.0136,185.0639,231.6517,58.8654,-21.9624,-177.7217,-14.0218,-14.1134,69.1711,-108.0125,-24.5511,47.1757,15.5475
-898.4375,-23.9762,-191.1538,62.0192,-79.3390,57.6161,-4.2170,40.4858,204.8891,26.0686,73.3405,-99.9096,-107.0424,-43.2191,10.5407,47.9155,101.5154,-14.7398,-0.8566,70.6548,4.6639
-890.6250,41.0004,-55.7320,17.9603,-14.0538,-23.4289,25.8860,-186.5310,88.1897,55.6050,-263.4879,76.7676,34.3387,-50.2883,7.9698,-70.5774,-54.2573,13.7994,65.2391,-215.3694,35.2298
-882.8125,198.4698,-73.8253,34.4082,-32.3222,-152.9430,79.4605,-317.0045,-42.0041,144.6950,-246.8070,276.9147,14.2141,-105.8489,-23.7444,-237.5581,-108.8766,19.9018,81.7959,-23.8446,52.2906
-875.0000,121.6927,-114.1656,67.6052,-37.8722,173.2967,75.7598,-137.7122,64.5419,-80.4228,-31.3814,-22.2031,10.8567,73.3335,41.3862,-204.7836,38.4473,34.5125,76.0708,-204.5650,12.1000
-867.1875,180.0626,-21.3635,52.9482,-84.2994,-25.3355,24.1963,-298.2565,-132.7634,-21.3661,-8.7744,146.7957,70.6707,-88.3434,-3.5291,-219.8527,-48.0205,13.1555,98.4647,-146.0994,35.0667
-859.3750,64.2506,-100.7037,80.1226,-93.8963,75.8963,88.4741,-88.9251,77.8153,-141.4488,18.6997,26.5772,-49.6363,-25.1634,29.1228,-156.0639,55.4446,18.6523,123.6815,89.2089,25.8913
-851.5625,-11.0251,-35.4766,0.8204,-29.9714,70.6381,83.2808,-130.0529,72.9272,0.0834,87.7451,-16.0971,-17.3654,-103.4617,42.7305,-125.7134,81.4531,19.1608,188.4131,-196.9103,21.2770
-843.7500,86.9403,-7.0182,28.7709,69.1578,-121.3496,111.3025,-321.8834,-45.7027,27.8977,79.0799,122.4434,-25.8465,-185.5007,11.3269,-134.0871,20.4345,79.0179,252.3495,7.2703,49.9141
-835.9375,85.4046,97.9402,66.2207,137.7491,172.1800,111.7899,-138.1856,138.1608,-375.7469,-68.0720,121.4571,-24.8098,34.9699,54.3280,-134.9382,62.1020,131.2887,215.7449,-169.0578,14.0530
-828.1250,289.9167,267.9472,20.7262,166.3550,-129.2587,66.2995,-366.4416,-16.9371,-384.2898,-258.1454,481.5082,78.2889,-47.5163,4.5978,-289.7327,-89.4508,131.8821,208.1591,-246.2933,43.2503
-820.3125,360.4583,267.9991,20.2728,165.9756,-93.6221,102.8357,-292.6231,131.0469,-458.7682,-295.1389,480.5622,4.4500,-10.9389,10.5683,-327.4732,-50.5115,134.9060,137.5779,-36.4688,43.5029
-812.5000,371.7022,350.7610,-40.4925,177.2543,-44.3130,79.0415,-280.1213,143.7094,-482.4959,-245.4204,529.3127,55.3429,2.3106,26.1044,-425.5042,-25.8422,106.9185,43.6558,-339.9291,20.4655
-804.6875,569.0370,301.6135,-21.1618,93.5905,-243.8961,-11.6793,-443.4933,-92.5299,-278.0883,-41.5657,696.1246,1.3476,-161.3362,-72.4453,-442.4216,-88.8552,81.2695,-6.2077,-107.2451,77.5301
-796.8750,350.2070,119.3158,46.0133,50.7361,42.3890,17.4178,-155.9828,47.0734,-321.7925,62.1625,430.7541,-150.7842,51.8807,-57.7523,-229.4762,19.4325,86.5966,56.7355,-44.7089,71.4452
-789.0625,324.1233,128.7565,89.9329,94.5800,-59.5962,-10.7674,-221.7095,-238.5958,-204.6852,-76.3273,511.1319,-69.1571,58.8345,-100.6224,-148.7562,-136.7719,128.8658,171.3859,-140.3682,116.1186
-781.2500,305.4693,74.6224,106.2956,110.8243,-7.1059,-31.5361,-168.9280,-221.7884,-114.1062,-133.3167,379.9060,-126.0803,75.2550,-124.1553,-95.5471,-161.9957,140.7031,116.4452,227.4491,133.2410
-773.4375,187.5660,63.2383,57.3928,98.7790,128.1163,-80.5895,-106.4019,-159.2522,57.3092,-144.5258,256.4183,-100.2326,63.4104,-113.9466,-70.5771,-143.0453,95.1422,-35.7800,5.0128,122.1192
-765.6250,311.1963,46.3906,73.0456,47.2495,-186.1039,-101.1141,-347.3211,-327.1735,257.3508,-201.1712,345.4469,-46.8319,7.1183,-165.7545,-129.0439,-255.9870,64.4436,-159.4812,129.1692,175.5509
-757.8125,120.6554,-72.6109,95.5532,-38.4657,55.5600,-79.8072,-104.3474,-10.2412,-13.7671,-67.9644,109.2873,-170.5680,212.6976,-112.2561,3.3754,-71.1052,23.4255,-209.3666,185.1804,161.8317
-750.0000,97.0156,-24.7092,70.9618,-167.3200,-3.8881,-140.6303,-128.4543,-71.4283,72.0181,19.1689,232.0282,-84.3835,114.1597,-109.0146,-57.2846,-69.0147,-49.3275,-232.3938,22.1300,175.0155
-742.1875,96.5640,-94.6210,70.5700,-203.0189,-41.1065,-141.2808,-91.3236,-71.3934,146.0291,239.5398,230.9257,-194.0035,40.8387,-132.6501,-94.7322,-6.7560,-68.4979,-233.2677,374.3093,175.3973
-734.3750,-44.3461,-95.9968,-2.2801,-169.2087,105.2199,-68.4129,92.3634,112.1820,146.6852,19.4792,9.3564,-157.0748,77.0612,-63.4240,-21.6212,18.0705,-77.5668,-200.6348,197.0494,139.3306
-726.5625,-15.0264,-66.1628,-82.8808,-176.1935,-195.1968,-76.3188,-97.6663,-40.9866,433.6586,-23.2852,111.0124,-126.9326,-76.4648,-115.6504,43.7679,-82.8855,-118.8465,-206.7877,227.1094,169.5116
-718.7500,-194.1363,-208.7675,-120.8842,-249.6254,-12.9776,-114.6508,268.9543,178.4755,175.2660,380.5909,-110.7737,-274.2130,-4.3679,-74.6987,189.7951,154.1311,-178.1722,-174.3825,365.7848,132.2883
-710.9375,-230.3470,-174.4929,-193.9912,-145.2014,-48.8774,-40.1136,417.4700,142.8171,103.8452,197.3995,-110.6567,-125.6018,-40.3876,-0.1187,117.7399,119.0549,-159.6000,-71.1123,49.3936,96.9675
-703.1250,-150.4748,-164.1476,-181.9951,-100.7187,-146.6501,43.4957,319.1301,81.2720,263.5601,210.3516,-99.4880,-149.9079,-101.2935,-7.1895,55.8135,95.6612,-127.7920,-26.7820,306.1454,72.7444
-695.3125,-298.1676,-170.3539,-222.5629,-142.8179,33.0259,39.5292,463.2675,335.1654,149.7783,354.7730,-251.8997,-153.7483,-32.7565,61.8236,199.3603,258.4166,-177.3423,-35.0392,88.3518,-4.0287
-687.5000,-177.0176,-48.7189,-204.2859,-162.1059,-205.4561,20.3840,188.2708,169.8982,57.9119,116.0766,-51.4793,-24.7308,-125.3791,31.6922,216.7700,102.1112,-166.6204,51.5056,0.4613,-21.9511
-679.6875,-237.2935,-180.4929,-84.4140,-119.8359,-11.3026,103.8103,235.9097,402.2518,-151.3315,54.0173,-188.5078,-124.1057,-77.3760,80.2627,190.8083,195.1166,-96.1676,94.6067,116.1760,-47.2763
-671.8750,-290.6707,-198.3629,-100.6485,-102.7097,45.7344,87.0990,110.4440,349.4778,127.3848,259.8822,-242.6402,-102.5598,-130.4836,84.3815,64.7818,243.4382,-113.0972,40.5663,-147.1944,-99.6983
-664.0625,-168.5668,-215.7536,-118.3802,-86.1363,-192.7077,31.8595,-164.4974,148.2129,515.6586,464.2890,-151.3174,-156.5151,-258.0766,-7.1903,47.2802,187.0744,-127.4055,-13.0137,116.9739,-116.6193
-656.2500,-288.2253,-192.9052,-93.8714,-65.3554,54.1124,19.8412,155.8229,210.1949,358.2422,453.9681,-346.7669,-130.2037,-122.4172,38.4636,183.0340,234.2132,-116.1092,-62.3804,-0.6183,-164.2900
-648.4375,-140.7333,-45.9085,-87.2161,-24.4574,-159.9296,-11.0462,16.2995,-76.6936,365.9988,203.8067,-121.0754,-12.7280,-115.6187,-22.4999,226.9493,24.1527,-85.3462,-21.6280,-169.0168,-156.8086
-640.6250,-64.1148,-143.7652,30.5885,-18.4474,-5.7803,69.2002,23.9813,3.5889,152.8813,27.8163,-152.2941,-79.0936,38.3530,-14.5549,234.0407,7.8414,-23.2990,-15.7651,14.7507,-149.1800
-632.8125,-80.5477,-124.6757,14.3381,70.4710,125.3134,125.3567,8.6133,24.7880,63.7749,-208.1878,-169.5768,16.5025,132.2630,34.0553,107.1081,-36.7632,13.0477,3.0012,-247.5159,-164.5968
-625.0000,28.8530,-85.7588,52.9371,73.1873,-92.7242,53.3280,-172.8769,-157.1688,214.5677,-131.2738,-59.0462,55.9447,24.0314,-15.4402,36.0596,-106.6218,29.2729,4.5676,-31.8905,-125.1627
-617.1875,-148.6717,-121.7436,53.6301,0.9614,165.3594,16.3667,159.7628,101.9712,32.4884,164.7757,-280.4537,-53.4993,134.9144,30.5807,221.1398,105.8316,-12.3858,-32.8020,3.8196,-160.6291
-609.3750,-121.6513,-59.1858,6.8731,-78.7544,8.9856,-67.0712,77.9536,-18.3631,134.0121,304.3901,-106.3125,-25.3859,52.3412,-11.7140,137.7891,86.1078,-72.8687,-76.6518,-178.8815,-132.5402
-601.5625,-87.9551,-129.9511,40.8194,-151.8105,-30.6455,-70.8242,75.8796,53.0204,243.2648,339.7312,-110.5194,-137.5849,12.5003,-45.0458,99.1575,107.4733,-82.9070,-78.8396,67.1516,-97.7540
-593.7500,-178.7646,-114.2353,-53.7421,-137.4099,59.2204,-56.1112,129.3023,142.8795,333.0886,208.6189,-207.2431,-47.2808,-8.8507,3.2270,262.0414,112.0376,-117.2080,-99.5645,-233.2923,-81.4666
-585.9375,-26.7961,-67.7437,-118.5091,-127.2575,-261.1065,-121.6298,-81.4448,-105.4641,528.7658,256.3634,-51.2004,35.8128,-146.4050,-53.0140,271.7549,2.3827,-139.7173,-90.5281,-115.8711,-34.3795
-578.1250,-178.6054,-149.0135,-92.0336,-138.8902,-14.1547,-21.9201,203.1086,105.4569,151.7015,431.3742,-282.9625,-46.8368,-8.6951,33.4765,335.7496,185.8325,-136.3182,-102.2708,15.7963,-44.0449
-570.3125,-184.1273,-12.9979,-136.2611,-110.2571,-94.9121,7.0684,123.9627,25.6579,182.9769,131.7097,-181.4322,93.8167,-52.6936,50.1834,218.0646,63.0133,-129.9767,-73.7419,-129.2136,-13.4082
-562.5000,-151.8753,19.7898,-103.6784,-113.8639,-170.8263,-35.1661,120.6420,21.6755,180.0738,-91.0853,-114.1505,90.2517,-19.8636,12.6928,251.2091,-33.8575,-114.5018,-77.4581,151.5893,20.0243
-554.6875,-278.2339,-1.0275,-50.7005,-101.1060,101.6722,-57.0306,284.7203,148.0753,-60.3920,-110.4570,-245.4778,70.1034,180.3683,46.5706,267.7721,31.8784,-87.5652,-64.8072,-115.2166,-0.1430
-546.8750,-104.8070,32.9392,-53.9195,-68.5828,-85.0125,-61.1171,-11.3909,-110.7271,48.9753,-111.0008,-30.0297,104.7561,103.4024,-15.0137,155.1537,-87.4056,-64.8039,-32.3923,-115.1720,34.4901
-539.0625,-154.2597,-121.9568,-30.9973,-83.9442,122.4967,-39.0754,122.6811,58.6374,72.5209,243.6561,-228.4908,-55.4447,126.6041,5.4135,215.6962,102.1606,-74.1780,-117.8598,48.0240,21.2732
-531.2500,-179.8313,-42.9438,-132.1923,-111.4257,58.8867,-104.1488,59.6427,-43.1174,231.0204,254.2473,-184.0730,28.2730,62.6802,-12.4646,261.1486,54.3387,-131.4430,-144.4486,-151.8678,30.9667
-523.4375,-67.1444,37.3665,-124.1044,-138.6274,-116.4144,-96.9334,67.9401,-107.5451,239.7956,5.2155,-69.4111,36.3012,-40.9379,-53.4793,342.9148,-73.6650,-126.3080,-172.7624,173.5667,75.9665
-515.6250,-150.5303,-47.3689,-102.0872,-153.9068,90.2317,-75.7906,349.1996,135.9729,43.5355,-78.8095,-230.8199,-50.7069,93.3921,-16.1187,366.6447,10.6021,-121.4040,-188.1622,125.9473,62.9185
-507.8125,-61.6187,-131.8276,-117.7650,-134.9224,-145.8219,-129.3831,149.7659,-27.2417,286.6421,126.4782,-28.9276,-65.4260,3.0229,-69.3533,166.6946,-9.1004,-139.5512,-204.2990,147.6815,84.1673
-500.0000,-166.6255,-202.2101,-81.3346,-135.8745,39.2745,-128.9033,299.4728,157.6454,141.8904,239.8788,-174.9775,-136.0565,78.7890,-29.5399,205.8755,113.3061,-129.5835,-171.3806,324.5160,49.5047
-492.1875,-184.3781,-8.3508,-61.6536,-50.6121,95.6169,-75.2043,283.4277,140.7458,16.4491,-216.4381,-157.7806,30.5669,24.8013,19.0469,115.3257,-15.6092,-53.1026,-50.2556,-7.3878,33.0922
-484.3750,-8.1535,63.4884,-24.9694,-50.3927,-87.0145,-75.5290,-46.5936,-78.1446,165.0391,-103.7041,-12.6187,105.1821,-121.1673,-8.5393,-104.1944,-78.7046,-36.5731,-119.1741,206.7411,70.6792
-476.5625,-104.1980,-31.9310,-12.5470,-76.4619,146.1152,-101.1308,151.1435,80.7201,-4.5941,166.8038,-221.7337,7.5544,-36.3746,22.7828,-17.9350,88.1190,-48.6554,-145.3780,183.6155,47.0155
-468.7500,-18.6993,-16.8297,-34.5772,-63.0288,-59.2156,-123.2154,94.4363,-123.8781,86.3617,36.9024,-62.2970,23.4619,-58.0347,-42.7435,71.9050,-52.3248,-44.4280,-63.0690,129.0955,62.9024
-460.9375,-67.2260,-132.7684,64.3862,-41.6461,77.4938,-64.3321,156.7771,-62.4544,76.3481,-9.9082,-148.9048,-97.6603,4.3338,-53.7748,207.7830,-38.0893,9.9876,-5.8040,259.5969,51.7823
-453.1250,-110.7123,-71.6770,92.3900,-51.2550,217.2438,-109.4261,113.1697,-142.9971,143.4418,-51.6130,-231.4676,79.2695,33.7466,-15.3437,273.7376,-67.0064,2.3372,-121.5165,-168.8374,44.7135
-445.3125,78.5277,12.1530,103.1395,-109.1500,-29.2374,-173.7841,-168.6469,-389.7820,266.2966,-38.5654,-112.3113,163.9446,-29.0759,-78.0788,285.4772,-189.6285,-9.9882,-179.5087,-13.4736,129.3930
-437.5000,-66.3099,-60.0750,136.8302,-78.1273,225.2617,-141.2140,160.5228,-171.6174,7.1191,-39.5537,-338.2437,87.5725,115.0698,-21.8802,430.1972,-76.5123,16.3408,-184.5806,19.8280,127.0203
-429.6875,-11.2090,64.6295,46.4750,-59.1883,25.7072,-231.7257,34.6329,-334.5253,66.9521,20.4658,-245.2285,219.1426,25.1618,-36.4674,341.8751,-132.4927,-15.3949,-200.7263,-97.8908,148.6004
-421.8750,-40.3920,1.0553,15.8737,-160.5220,32.9533,-226.4957,79.5144,-291.6631,38.5480,322.2923,-277.5081,153.4474,-39.9613,-24.0823,312.3070,-15.8190,-78.1506,-231.1422,226.1543,155.9253
-414.0625,-209.0363,8.0327,-48.1815,-190.3238,189.7571,-145.7275,236.9320,-98.2699,49.7102,3.6675,-418.2435,199.3100,41.4615,41.7344,322.2968,-19.5839,-101.8934,-121.0201,-11.2551,128.8025
-406.2500,-117.4932,65.1959,-62.0302,-134.9481,-43.2172,-87.7799,39.5695,-222.6813,258.0789,-339.7363,-249.8089,259.3677,-44.9092,8.9068,161.5007,-195.5245,-71.3693,-64.7218,47.5735,151.8808
-398.4375,-262.3238,-8.9939,7.7621,-104.9443,174.4920,-55.1983,259.8841,31.5719,74.0919,-82.4231,-401.7731,111.0782,62.3766,56.4456,159.3647,6.6878,-45.8114,-105.7967,186.0308,113.6099
-390.6250,-155.5176,-6.5188,-26.8134,-70.3054,30.8294,-53.9761,189.8161,-37.5271,4.7862,-40.3987,-254.1059,114.4556,-8.7205,41.5041,89.8681,-7.4315,-36.9892,-36.2302,14.1417,116.9999
-382.8125,-28.4543,-53.7511,34.8935,-14.3771,-17.5161,5.5564,32.0508,-86.2902,-114.2200,-13.0218,-121.1995,-7.8695,-20.5077,-1.1028,-32.3237,-25.5641,28.2202,55.6242,285.5558,105.6967
-375.0000,-124.9638,-8.5360,48.0345,-6.0228,217.5877,54.5197,46.7316,73.3835,-319.7528,0.8470,-219.8590,80.2659,30.1587,93.1640,-55.0439,72.9241,25.0293,-7.0928,155.4090,45.8437
-367.1875,-8.2884,72.8552,-14.6165,-102.5061,-65.0969,-83.3426,-197.3641,-97.7630,-122.0511,235.9386,9.6741,128.5853,-104.9630,23.1353,-151.5194,36.9007,-64.9637,-138.6414,309.5215,58.1837
-359.3750,-112.5362,-135.6855,-10.1644,-205.9234,87.3639,-153.1230,-8.2991,163.1967,-189.2360,648.1480,-172.7357,-50.0155,-63.9544,36.9512,-73.8479,270.7958,-124.4136,-138.1217,489.7433,26.6119
-351.5625,-109.8472,-133.2934,-42.7608,-171.4212,92.7718,-76.9687,-2.2839,131.0838,-146.4291,360.3428,-133.2083,-7.6723,-96.0060,47.1631,-105.2128,179.0393,-102.3008,3.3308,212.9337,-5.0115
-343.7500,0.4630,-162.2694,36.2971,-61.2997,-47.1317,37.8276,-141.5966,100.6401,-64.9559,-71.7824,-55.0754,-74.6861,-89.3917,1.0078,-97.9194,10.6834,-1.0503,113.4121,502.7949,2.0121
-335.9375,-138.7002,-160.6930,4.8874,-26.6529,179.5235,42.1598,85.6443,327.7472,-19.9044,-64.3306,-236.4079,-105.1436,26.7705,48.4849,-54.0588,110.6746,-18.3704,8.0207,400.1907,-65.4160
-328.1250,16.8192,-74.4342,-52.8297,-48.3389,-135.1297,-53.8310,-81.4131,85.5494,291.8649,-83.1038,-39.0494,21.0878,-104.3710,-6.5640,-185.4717,-21.0623,-56.4375,-14.6943,347.3248,-49.1439
-320.3125,-6.9394,-132.4383,34.1925,-73.2991,27.0017,-42.0896,7.3163,247.1243,197.3785,80.9279,-100.9838,-110.9408,-16.7348,-0.2172,-207.1158,97.9084,-33.9670,-39.6744,467.2023,-71.1287
-312.5000,-6.1031,-60.8399,0.8120,-108.6788,68.7253,-76.7689,-134.3721,251.2676,166.5399,198.5793,-62.3102,-33.3637,24.4981,16.6892,-202.1607,139.2081,-74.8939,-110.0684,48.6880,-103.5166
-304.6875,157.7724,-2.2089,61.4928,-122.0289,-127.4681,-127.4087,-291.9913,17.4630,156.7614,188.3099,69.3891,-8.7479,11.7994,-54.1228,-140.1390,21.8795,-50.6522,-123.4313,109.2553,-78.8632
-296.8750,-5.1612,12.6176,78.3706,-74.1933,185.5610,-37.8566,57.6057,72.8540,-154.8219,98.2285,-98.7262,10.0738,177.3165,14.6318,99.1159,60.9576,-27.9507,-146.6107,-85.9965,-134.0170
-289.0625,73.4027,91.9354,51.7441,-31.8762,12.0838,-66.8216,-115.2983,-248.2760,-105.8811,73.6951,55.6621,130.3884,113.3281,-29.2246,183.8821,-80.4268,-32.2478,-209.3180,-250.7211,-123.6719
-281.2500,1.0410,-50.6668,50.2089,-70.4848,48.7386,-32.7033,-5.0617,-249.2849,-31.8524,296.3542,-20.8964,19.7842,112.4650,-36.2090,220.7629,-3.9668,-64.3276,-247.9526,-39.3416,-124.2323
-273.4375,-77.6351,-22.5595,42.3566,-10.4077,152.0777,-41.8981,135.8715,-146.6165,73.8971,33.7344,-67.7592,49.8912,142.2873,-13.4902,67.3680,-38.3390,-26.2760,-152.8996,-361.2703,-131.0918
-265.6250,105.6684,91.5403,47.5007,31.6573,-135.5700,-38.0962,-114.1783,-323.9418,192.6719,-67.8905,119.3563,92.9921,38.1201,-61.6538,-110.0129,-161.8749,20.5225,-75.8606,-209.1729,-50.9564
-257.8125,59.7041,116.3740,74.3934,54.4592,113.5628,-12.5526,-48.4554,-113.5167,-35.7809,109.2395,-2.7933,83.8390,139.7267,14.3209,-81.6398,3.3907,47.7939,-53.0864,-253.3499,-60.0781
-250.0000,123.2400,215.6917,-7.2007,81.7445,-39.8059,-57.5175,-274.2458,-266.6187,69.2908,215.8808,134.5727,188.1775,21.8368,1.6682,-87.7562,-30.4264,28.6090,-25.8232,-468.0077,-29.7039
-242.1875,104.4062,92.6423,9.8669,61.6700,-21.4774,-41.8340,-181.3625,-212.0566,52.9805,310.1970,39.5490,95.1564,39.6296,-2.5427,-32.2060,20.5274,21.6879,-45.9180,-167.0059,-11.6891
-234.3750,-15.9844,79.0576,-3.6258,81.0379,150.3024,-56.7080,-10.0432,-79.0599,-105.8684,262.9809,-50.0314,45.6006,137.8638,13.4113,-44.2118,67.9442,19.2146,-96.5686,-354.5582,-24.2286
-226.5625,124.0576,113.9192,-4.6671,7.8417,-71.4587,-97.1389,-267.2686,-226.6095,42.7239,227.2434,166.8208,81.4906,62.5434,-43.3820,-190.7660,-32.1108,-9.3473,-98.7815,-177.6137,11.6774
-218.7500,-17.2180,-61.5269,70.9848,-98.6684,190.5077,-132.8806,-79.7666,-40.4405,-100.0090,417.2254,57.3476,-61.9239,212.9408,-37.2520,-114.6082,105.5731,-48.0407,-170.3102,1.0243,-21.7217
-210.9375,100.1555,-84.3211,160.2776,-158.5436,244.1064,-301.9925,-98.6290,-243.6404,-7.0549,-42.1187,254.5360,-44.6837,303.9763,-171.2346,87.2048,-173.9225,-50.1273,-266.1985,-54.6781,-78.4710
-203.1250,319.7092,-180.9283,393.7727,-257.2298,293.9371,-364.9127,25.7286,-378.6246,81.1076,-651.2363,448.8935,-216.2546,427.2383,-346.2368,395.2413,-484.0468,17.6749,-258.8926,342.8169,-139.0286
-195.3125,333.2057,-307.5823,485.2173,-244.9751,644.7275,-311.8893,266.0298,-287.6769,65.2248,-703.3885,317.2031,-343.8695,556.4543,-343.2057,414.2363,-442.9368,82.0672,-175.6331,78.2340,-193.6436
-187.5000,430.4458,-209.5009,436.4194,-149.9821,414.2771,-251.1254,-73.9140,-443.9930,166.0922,-342.7380,414.2654,-244.7477,324.4204,-297.6841,36.9778,-364.8562,123.4240,-45.6340,-33.5638,-130.5158
-179.6875,189.5654,-203.5253,368.5221,-110.0992,567.7637,-100.4657,6.0709,-218.3949,-83.1632,-41.1427,123.1930,-237.7302,330.3106,-154.1866,-66.3797,-120.9821,113.3714,-40.7473,81.5177,-87.4984
-171.8750,82.2832,-62.9335,258.2203,-112.6149,421.8352,-65.2106,-28.3675,-254.2300,-117.8046,-74.9589,83.7361,-90.0946,220.7889,-100.8820,-65.1338,-127.3533,64.6517,-43.2579,-163.8146,-86.8809
-164.0625,146.2397,-69.0889,176.1738,-120.8773,158.1744,-0.6963,-34.5544,-335.8080,60.7877,-42.5237,110.5082,-97.2051,103.5299,-111.7205,-108.6298,-158.2159,28.1530,-51.5175,184.1013,-57.0159
-156.2500,-97.5695,-134.9812,35.3579,-118.8832,312.7640,4.0684,341.4895,0.8581,32.6272,151.1799,-143.4837,-90.0440,110.5166,5.2995,-63.8813,68.0234,-47.8029,-49.5267,120.2379,-86.9049
-148.4375,-54.4952,-55.9764,-104.5592,-111.9944,26.2407,-27.2674,203.4162,-64.5943,227.3808,198.8110,-27.5863,-81.9665,-65.6063,-31.1909,-129.2399,34.7472,-88.9828,27.3566,95.3100,-41.8996
-140.6250,-129.1958,-165.7220,-73.2247,-152.8578,133.0074,2.6458,272.6284,188.2143,113.3541,307.7097,-145.4846,-195.6317,39.5487,2.9940,-133.3302,175.0831,-91.8406,56.4781,269.6208,-9.6588
-132.8125,-197.8876,-21.4564,-143.8927,-81.7263,100.7666,41.5505,241.8327,191.9912,46.3231,314.6130,-218.3737,-45.2784,7.6883,75.4065,-128.4151,205.6894,-89.3390,57.5960,-77.0727,-5.4254
-125.0000,-117.3421,130.0562,-171.3051,32.6476,-182.2005,85.7056,68.3020,17.0294,57.5336,179.7743,-175.0335,111.3244,-129.9102,90.5196,-117.2525,95.1725,-49.0204,30.9652,41.5014,41.0473
-117.1875,-321.4589,137.9344,-198.3734,73.3758,49.1975,131.2152,227.1167,211.4133,-149.9152,9.2888,-387.3594,196.2960,-46.1547,187.3671,4.2608,150.0544,-48.9674,36.6900,-19.6131,14.8588
-109.3750,-233.9738,191.4236,-215.8414,89.7116,-150.8145,74.3284,-10.4946,-27.6278,91.2513,67.4042,-188.0635,252.8731,-136.8125,128.4336,-122.6308,54.5730,-51.6501,53.0199,-174.1195,34.2654
-101.5625,-273.8971,116.5173,-148.7083,12.6525,-82.1894,68.0467,60.5076,41.9381,51.9943,398.1243,-195.1832,138.0450,-104.8439,126.9760,-52.9195,189.3051,-67.9693,45.9451,33.9490,30.2601
-93.7500,-347.7096,149.7270,-221.4815,43.6996,-6.4782,66.8587,172.5843,189.5722,-92.1713,327.9556,-234.1751,176.3233,-103.7768,174.2084,22.8865,237.8936,-85.0834,76.9669,-211.9074,-5.6495
-85.9375,-196.6785,231.7782,-209.4023,88.5935,-286.9146,77.5204,2.5208,91.0530,-4.4953,159.6788,-187.3112,226.4322,-236.8485,147.5745,-111.4623,128.5599,-43.4039,121.8370,-57.8940,7.2835
-78.1250,-311.1578,224.3241,-179.8288,113.9954,2.1658,142.6890,181.9660,306.0489,-82.3368,266.9188,-415.9569,184.0330,-206.4064,225.0611,-153.3057,280.4310,-15.5070,112.2202,-134.4102,-35.2917
-70.3125,-157.9851,377.5200,-239.6068,125.0606,-203.1178,154.5158,-133.9455,25.6833,-102.5537,173.7899,-148.9339,345.2840,-228.3271,198.3822,-174.4785,134.0415,-25.2795,158.2716,-400.2613,-21.2209
-62.5000,-120.4807,381.0524,-236.0305,196.4833,-235.0179,303.7065,-201.4702,29.6963,-390.4602,70.0086,-36.5824,275.8639,-187.8784,204.5628,-59.2875,113.1620,22.6778,264.6818,-147.7690,-16.8103
-54.6875,-198.6749,374.8915,-278.1570,258.2116,-92.6268,334.1969,-21.7200,244.9880,-577.0481,252.5402,-43.9045,197.7389,-193.1407,260.4188,-173.8100,280.0997,33.8610,326.3988,-294.0049,-58.1055
-46.8750,20.8356,384.4292,-268.5758,265.6455,-338.5304,232.3904,-267.2884,144.9693,-343.9391,523.7860,220.4913,135.3044,-328.7036,184.7348,-529.6472,289.1752,41.1051,333.8259,-176.5262,-47.7077
-39.0625,-43.6001,320.0290,-186.9459,270.1453,-71.3576,238.6438,-147.8077,447.9966,-480.8047,241.0628,116.9350,-3.0715,-136.1994,179.2223,-482.4431,305.2544,76.5763,268.3199,-99.0438,-75.2683
-31.2500,-19.0192,346.6354,-122.3193,258.6557,-79.2076,191.9051,-191.3613,291.9866,-523.6667,-205.6750,215.4136,99.5585,-70.7040,132.8847,-343.2471,87.1691,92.7065,221.8329,-281.5692,-83.8324
-23.4375,98.2478,146.9364,0.0139,162.8765,-102.3317,128.8816,-104.2006,120.6927,-435.8661,-78.7100,262.5684,-34.1262,-21.4841,35.9730,-146.3489,33.2188,79.6188,91.0641,83.6104,-70.7050
-15.6250,20.9631,-34.2952,31.7931,85.5621,151.9928,85.3161,187.4012,188.8534,-401.6490,-44.3046,34.1779,-112.3518,85.1793,31.8714,70.9933,79.6293,54.1610,48.7682,-24.7739,-75.1358
-7.8125,92.9293,3.7279,30.8315,121.5153,-68.4401,84.0189,-69.7544,5.2665,-69.2136,-187.6503,142.0487,-38.3360,-24.9118,-7.7363,-38.4307,-55.6517,82.7453,119.7438,-55.8836,-1.3232
-4000.0000,35.6799,44.6154,86.0311,110.3989,67.3990,81.6132,-56.4353,84.4048,-107.3562,-114.5175,70.0331,-56.4206,61.6982,9.9765,-84.4370,2.9280,94.3168,75.3825,-15.5703,-39.5355
-3992.1875,-61.1153,195.1058,22.0984,15.9043,40.2595,-55.3480,-84.6666,94.8554,-100.3491,39.6569,79.9902,98.5202,-1.4697,41.3093,-188.1753,53.4753,6.3940,-55.5430,-217.9915,-31.3125
-3984.3750,59.7051,-0.8067,1.7649,-108.9860,-164.3027,-113.7103,-71.3167,0.8932,21.2571,162.4487,95.5717,2.0597,-60.0421,-34.4629,-64.3386,22.3472,-73.5140,-145.8621,183.1979,-17.4840
-3976.5625,-87.2857,-251.5345,-38.3666,-183.6809,89.3618,-43.8667,254.2449,182.1600,-94.9652,230.4619,-128.6623,-114.2144,83.5954,8.6960,112.6959,142.8762,-134.7665,-149.9761,141.5896,-59.4544
-3968.7500,12.7763,-153.2025,-8.4552,-118.3201,-101.9450,-49.9801,-50.1750,-45.5342,4.8843,36.5114,85.1642,24.5785,-33.7277,-18.6629,65.7703,-17.6939,-87.0347,-85.0321,-5.9894,-31.3702
-3960.9375,-31.1110,-125.8165,55.5080,-89.9098,36.7938,-22.0453,-96.5555,203.8271,-153.2115,24.6069,3.0330,-60.5714,-6.0026,9.3008,90.8980,74.8244,-38.6643,-92.0397,231.5035,-5.2294
-3953.1250,-154.7675,-144.1703,-111.2900,-107.2441,16.7961,-41.8675,-45.6660,368.4503,-139.0724,185.9595,-53.8611,-81.4647,-26.0229,40.4268,105.2788,191.2903,-125.1652,-110.8007,106.2188,10.1631
-3945.3125,-82.2595,-247.3638,-182.9497,-245.4304,-276.0928,-151.5510,-46.6528,259.1998,115.2370,551.4855,20.4205,-156.2010,-134.9082,-27.5557,65.7935,231.4613,-225.9180,-108.4184,459.1012,45.7157
-3937.5000,-283.9623,-307.7684,-205.8169,-268.8257,-6.1723,-211.4373,442.1822,420.7805,162.3412,562.8211,-296.5181,-181.1408,-48.9888,18.6092,114.1169,320.3268,-246.3817,-62.2391,432.8021,-15.9242
-3929.6875,-247.5243,-166.0177,-240.5482,-266.0750,-187.1179,-245.1827,368.1638,92.5093,529.6122,304.2953,-220.3061,-34.9165,-156.9207,-37.8021,113.5898,94.8061,-247.8300,-24.9074,187.6361,-15.4044
-3921.8750,-270.0366,-187.2288,-190.2305,-252.2806,-102.0286,-195.8820,342.1866,69.2912,539.9485,462.8454,-244.0460,-96.6535,-107.8067,-40.3096,234.1102,142.5861,-224.8490,-46.5218,269.5533,-3.8230
-3914.0625,-319.1164,-131.9970,-277.4782,-196.0379,-41.4760,-173.1259,326.6758,56.5468,450.7213,519.8464,-220.3522,-1.9342,-47.2376,9.4505,255.0923,179.1194,-233.4975,45.3076,-62.0966,-18.7855
-3906.2500,-126.6864,-44.2524,-223.2406,-107.2957,-281.4674,-155.8749,10.6362,-183.7155,391.0174,387.3382,16.8653,87.3005,-176.1857,-23.1961,85.5645,35.7831,-153.2153,168.6322,24.7526,-3.2326
-3898.4375,-159.3218,-41.5740,-109.0555,-33.6108,17.5020,-76.6783,123.5582,42.9899,-84.7424,352.8192,-161.9852,53.4749,-25.1732,58.2959,13.9860,151.8941,-67.0285,136.8947,26.5705,-36.7205
-3890.6250,9.2925,22.3495,-79.6304,-3.6832,-27.2831,-84.2436,-105.2690,-148.0602,-22.2571,48.5678,14.4197,153.9090,-69.9191,18.0102,-179.3501,-31.3536,-27.9790,96.4064,-191.3905,-8.9485
-3882.8125,30.6218,-62.0207,-20.5079,-86.0595,-42.3886,-99.1133,-196.4184,-125.4241,70.9274,141.0147,-0.4703,64.0531,-47.9818,-24.6297,-48.9934,-17.1843,-58.7575,-57.3826,40.3715,11.5378
-3875.0000,-156.7110,-37.0356,-105.0471,-132.0871,57.8731,-146.6386,10.8059,-25.4180,-16.5469,348.8134,-157.0413,88.5604,15.3070,19.0591,157.7057,102.2113,-135.2493,-138.8237,-112.5238,-0.6159
-3867.1875,-13.6924,71.3107,-138.2537,-92.7639,-234.5503,-143.8211,-172.6322,-170.0868,203.3616,163.9471,64.7435,161.4377,-129.0701,-20.7567,45.7458,-38.9680,-121.0003,-99.9110,-5.0778,36.5968
-3859.3750,-86.8863,32.4471,-69.6694,-24.6428,-18.1731,36.7979,-31.2536,85.0593,87.0738,10.8906,-49.6845,46.1053,50.3491,38.0430,3.6020,39.3963,-50.1502,-68.2010,-9.8133,31.6238
-3851.5625,-27.8860,92.7689,-41.9107,1.6679,-27.6080,27.6098,-225.6743,-33.5964,0.9899,-37.9328,89.0893,144.9702,77.9639,38.9554,-81.3258,-16.9941,-26.4956,-41.2908,-300.3716,20.8648
-3843.7500,58.2211,3.1773,47.9311,-16.9419,-48.9811,79.5081,-323.0157,-91.1641,-168.9649,49.3869,67.9704,122.9343,56.6561,44.5755,-68.1508,-2.3611,1.7529,-61.2830,-5.8066,35.2217
-3835.9375,-118.9996,1.2744,-25.5375,-52.8663,172.3604,80.0955,-31.6398,93.9934,-281.2217,47.4342,-151.4813,120.6005,130.0552,100.2358,38.7343,88.6123,-56.8435,-167.5826,-113.5412,-2.7098
-3828.1250,-14.0729,37.5317,-134.8717,-86.6528,-158.1770,43.8130,-180.1278,-89.7213,82.6963,-29.3526,-5.7708,192.4375,-54.4169,47.9143,-36.2325,-39.8207,-115.4005,-164.7479,27.8588,32.5236
-3820.3125,-126.9525,-111.0191,-142.0216,-128.2551,-56.5282,36.7145,67.6016,87.7685,72.8206,182.0968,-158.8709,36.4766,12.3012,56.0533,63.0152,101.5943,-139.7432,-102.7293,230.4924,23.9725
-3812.5000,-155.0439,2.2237,-133.3972,-49.0644,-10.0835,45.4054,112.1630,24.0609,-31.2420,-31.6537,-77.1879,81.3278,21.8113,53.3259,33.0762,20.1610,-84.0169,11.0898,-115.0941,-4.7643
-3804.6875,-32.3246,55.2638,-78.9872,-30.0808,-101.8784,63.8897,-55.4857,-140.8715,-15.4793,21.4158,52.3092,23.9835,-70.8985,-1.0445,-97.0722,-38.0864,-29.1665,99.7094,113.1370,12.3173
-3796.8750,-98.9730,23.9374,1.0675,-25.4605,197.9930,107.0187,168.5387,49.8650,-121.0817,-48.8191,-161.5669,65.2800,9.0503,89.6881,-167.5702,52.1411,12.3078,104.9657,-23.9777,-19.9382
-3789.0625,67.4298,155.6672,-9.8523,71.2003,-71.1160,96.1850,-100.4059,-181.3682,85.4018,-464.9961,10.6188,236.6449,-111.9694,48.3537,-217.0210,-194.6306,61.7486,131.2625,-139.0634,4.8736
-3781.2500,61.8322,79.3862,59.2124,102.8457,71.7501,128.3400,-35.3558,-111.6119,-142.0794,-399.1512,-104.1974,156.0107,-80.9979,58.7790,-5.4606,-135.8231,100.9539,90.5440,29.8726,-1.2949
-3773.4375,17.9707,141.8533,51.0055,130.2305,136.3700,83.2355,-8.5434,-156.1071,-262.8000,-262.5402,-76.2833,146.1373,-15.2762,45.5680,94.8595,-104.3302,105.9829,82.5686,-330.4778,-10.6994
-3765.6250,181.7146,129.9266,110.3851,49.2129,-61.4488,-4.2742,-244.1567,-389.0306,-58.9053,-278.3388,167.2464,130.8794,-29.9849,-62.8779,151.7825,-245.1893,95.6388,72.1983,-167.2227,47.5152
-3757.8125,23.4905,43.0362,56.8039,33.2376,141.7970,-20.7363,-42.6920,-148.8912,-77.9766,-113.0594,-33.2059,75.6628,27.3596,-9.9911,205.7737,-86.3569,47.1587,-14.1333,-149.9059,29.7941
-3750.0000,73.3612,127.2412,-39.6982,13.3527,-63.8758,-116.1147,-103.1319,-316.6763,6.0729,-28.6612,92.4423,161.5587,-68.2064,-40.7536,33.8580,-138.4344,-5.2200,-35.3670,-276.5162,43.1897
-3742.1875,80.3303,99.5376,41.8940,21.5540,-20.4716,-108.4059,-24.4727,-308.3747,-134.7562,160.8600,137.1829,57.5555,12.3129,-52.7684,-32.9605,-69.3185,30.4499,-27.5070,-130.0017,49.7021
-3734.3750,35.2816,55.8237,70.4676,83.7435,154.9394,-80.7072,38.2240,-279.0609,-292.5958,40.4074,128.8949,47.5598,114.8197,-37.9075,28.2446,-77.0758,75.4319,35.3415,-455.4931,40.2264
-3726.5625,187.7946,102.6494,80.5641,61.4671,-91.1477,-69.4771,-136.5383,-452.2280,-63.8492,-207.4729,249.1745,93.1290,-22.1598,-97.7682,73.0003,-253.7252,80.9774,11.7356,-269.4218,86.3204
-3718.7500,21.5420,41.7054,53.8937,-33.5768,139.0119,-23.0016,91.9665,-183.1314,-129.8405,-199.0701,2.6773,27.9465,98.1113,-45.0873,302.0133,-135.6482,17.2352,-117.6302,-119.0851,95.6792
-3710.9375,80.6227,102.1164,-30.4488,-77.2784,-19.4904,-107.1855,5.8263,-231.6915,-33.4623,-360.3119,100.5139,199.1309,85.7205,-39.0808,214.3831,-222.4370,-45.2570,-162.6531,-200.4248,119.4021
-3703.1250,80.7545,66.5708,-66.7565,-146.9422,-129.9714,-106.3259,4.7287,-119.2210,148.0083,-214.4874,101.4026,124.3697,49.3512,-43.3132,29.8132,-149.3286,-97.9491,-196.6342,150.3107,119.1923
-3695.3125,-59.2329,-3.0945,-101.1889,-145.7201,-17.5515,-140.5743,188.5575,67.1594,185.3935,-30.7243,-41.8394,88.5037,51.8826,3.4970,-6.8358,-2.2080,-121.8088,-160.7216,-26.0598,83.8948
-3687.5000,85.2814,36.7299,-98.1439,-140.0064,-271.6713,-137.3324,6.8728,-185.9989,223.3039,-139.4549,144.4326,127.1507,-54.1102,-57.0083,31.0235,-150.9684,-98.7103,-49.3093,13.0699,123.1121
-3679.6875,-33.3663,-45.6013,-37.2546,-152.4535,9.0593,-76.2407,248.0613,-15.3098,-48.9474,-7.3394,-51.4646,2.6586,41.7474,-15.9270,198.7468,-14.0975,-77.4990,-62.0537,140.0624,109.1880
-3671.8750,-61.4712,-39.3719,-64.8350,-179.3680,-18.6621,-140.6177,145.8129,-79.0879,141.3524,220.3351,-5.8263,-26.2519,-57.8590,-46.9639,95.0320,23.8232,-102.9664,-20.2612,5.5745,80.8239
-3664.0625,21.8828,-130.6998,-14.9925,-164.8529,-77.9776,-53.5627,11.0054,-64.4447,263.1508,159.5043,-27.7401,-86.7029,-118.0442,-52.7436,-2.2315,5.0965,-64.7558,28.9651,370.5701,93.9244
-3656.2500,-86.2838,-133.5531,-16.6689,-130.8583,177.2137,-18.0215,191.7361,156.7246,113.4643,9.2079,-249.1946,-52.6634,-9.7309,26.9178,-41.9891,71.0592,-46.4694,27.6791,262.0705,55.5364
-3648.4375,23.1445,-58.8132,-11.7715,-125.2800,-38.0344,-121.8977,-60.9365,-21.5222,300.4094,-96.4731,-24.0472,-13.0097,-76.8420,-60.1738,-113.1398,-75.4262,-52.6609,-38.0264,231.1653,59.7643
-3640.6250,-22.0390,-243.6866,15.5081,-134.3250,99.0941,-95.3906,73.8119,153.6311,214.7677,1.2976,-143.5165,-132.9565,-14.5690,-42.9863,21.1330,31.2261,-59.4117,-82.3546,325.6854,49.4090
-3632.8125,-23.2854,-174.6134,-58.2927,-65.4332,24.1600,-95.9474,34.5268,43.7333,286.0886,-0.9501,-107.0537,-61.9392,-51.3591,-42.6296,-17.6250,-5.7434,-60.5370,-82.7457,-62.8721,48.0198
-3625.0000,127.0237,-94.9976,22.4293,-55.0014,-151.2762,-86.9608,-178.2190,-130.6548,328.9914,42.3685,46.9680,-54.3619,-79.6324,-87.7850,-47.8137,-72.9099,-8.2434,-37.5924,-18.8665,92.2001
-3617.1875,18.9647,-26.7521,96.7843,-55.9349,142.9420,-123.3321,-33.2840,53.6152,179.5597,78.3792,-135.4033,-56.1378,103.7485,-42.3941,-13.3380,25.5022,21.2727,-73.8041,-161.2139,55.0449
-3609.3750,120.3485,3.9379,53.5647,10.5663,-83.4199,-129.2731,-260.9184,-171.6916,356.6406,-3.1373,41.6784,9.5487,60.5525,-88.7073,-94.4210,-106.3325,35.7097,-7.5697,-131.1216,85.3581
-3601.5625,30.8773,-154.2369,35.4801,64.2039,7.3435,-38.0702,12.5913,-42.8542,262.8980,198.4902,-122.0965,-155.6121,79.4931,-61.1899,-4.3373,28.2551,40.3638,-25.1871,201.1570,66.8418
-3593.7500,-99.9099,-144.7150,-62.9304,39.5321,55.8103,-26.1727,206.8346,-30.3024,198.8320,208.8194,-220.1969,-108.0619,54.1326,-21.4088,4.4643,58.1801,-17.8712,-50.1098,35.1209,41.0389
-3585.9375,-7.4479,-121.9503,-76.1129,-42.9104,-178.5083,-3.0461,81.3273,-152.5329,294.0352,83.4628,-87.0457,-86.2544,-106.0062,-59.4626,-83.4778,-50.1849,-56.7487,-95.7914,373.3574,63.5032
-3578.1250,-140.9611,-255.1594,-104.2650,-105.3218,50.2289,43.1196,419.9066,187.2954,117.2985,17.2193,-261.8874,-189.4069,-97.1017,3.6970,-76.3452,82.6881,-96.6885,-123.4373,415.6616,35.0294
-3570.3125,8.4631,-175.4188,-170.5011,-199.7934,-162.1153,-22.7744,205.4432,12.0487,344.5543,60.9246,-69.7863,-71.5911,-236.2798,-31.2499,-107.2481,6.7374,-160.2172,-149.1463,177.8979,79.5225
-3562.5000,23.7855,-229.7933,-117.8559,-289.3863,-146.5954,-115.7861,146.8911,28.6801,321.7566,443.5513,-53.7887,-130.8689,-220.5794,-54.0279,52.7674,120.8308,-198.5341,-237.9764,299.0533,94.9360
-3554.6875,-25.4143,-244.6853,-95.7311,-267.4991,21.4296,-204.3133,167.8760,88.8152,121.4772,611.7251,-142.3238,-109.6459,-88.3750,-34.0840,184.2960,208.4532,-190.4581,-252.3258,-33.3185,79.8644
-3546.8750,117.7903,-170.1757,-19.2261,-192.2276,-195.1899,-200.4637,-124.7517,-90.6923,159.6400,356.3236,80.5477,-34.0062,-122.8049,-81.1140,185.2265,36.7975,-115.9010,-177.2865,-28.2872,119.2120
-3539.0625,40.0805,-177.5795,45.3631,-128.8685,17.2884,-97.5178,49.7426,85.8996,-69.0938,16.0347,-35.5095,-79.2654,52.8579,-43.6006,323.2864,17.2567,-45.1206,-114.1630,-72.1307,111.6746
-3531.2500,109.5152,-36.8413,9.0728,-23.3736,-93.1067,-134.4316,-134.6044,-133.3727,-70.6763,-131.0862,110.5718,65.6437,-19.3504,-58.9275,211.5280,-115.2544,0.5342,-8.9034,-318.8414,111.3040
-3523.4375,151.4569,-30.6215,88.2616,18.5966,-124.0477,-90.8618,-202.4613,-200.1622,-102.7139,-88.6451,44.1541,71.0488,-50.0906,-48.3396,142.2789,-117.9614,60.4307,32.8316,-67.0201,117.4509
-3515.6250,66.1283,60.3248,76.1749,41.2946,120.7609,-66.5558,-105.5364,-137.1889,-78.9652,-138.4200,-77.5488,132.1985,46.9132,1.0409,91.7962,-87.9397,69.9677,19.3018,-327.4548,68.3602
-3507.8125,187.8510,146.3192,55.1157,58.0345,-157.4204,-86.2065,-384.5728,-378.2002,81.8813,-14.1781,158.8051,220.4191,-46.0590,-34.8369,-3.6286,-159.6465,61.6901,35.8180,-276.8461,84.3388
-3500.0000,84.1095,77.8497,95.5992,25.3082,102.9505,-83.3144,-125.0367,-152.6739,-245.7218,99.6414,-21.3163,149.1906,66.5153,22.6836,71.5154,-11.0463,62.1969,38.8679,-98.6686,50.8819
-3492.1875,61.5029,125.5229,36.2094,73.7112,43.4617,-32.2918,-111.3322,-174.0144,-306.1559,-34.3311,29.6863,163.1276,7.2239,29.3627,10.8162,-53.3669,70.3551,122.0507,-227.3714,28.5886
-3484.3750,114.8461,74.1392,54.7464,23.0472,-84.1138,-13.3350,-130.6786,-191.4414,-141.6014,-53.3185,11.6359,108.0225,-47.1487,-0.7298,-8.9302,-84.0188,57.9595,106.1777,141.8976,47.2625
-3476.5625,-108.3319,96.2383,-30.2343,45.8712,123.8222,13.1234,150.5027,18.6388,-81.5614,-173.8008,-218.9551,95.4188,14.9918,50.8362,125.8508,-25.2506,28.5370,93.8001,-11.3361,-0.5490
-3468.7500,-0.2086,171.6393,-98.9324,15.9873,-164.9726,-19.1282,-67.0270,-233.0161,216.7946,-60.9782,5.7560,210.1321,-126.5971,16.4105,18.9440,-104.2777,-20.7758,98.7146,-147.2800,3.9576
-3460.9375,18.6102,118.7214,-115.9496,-35.2103,-36.0846,38.3160,-10.8388,-102.9776,198.8685,216.5816,-47.8524,155.5446,-107.5137,62.3669,-36.2525,51.6211,-53.5158,47.3191,-130.4877,-12.8197
-3453.1250,78.1643,214.5429,-162.2466,-9.6669,-83.4588,64.5074,-58.8700,-112.1866,187.7109,94.9220,53.2587,218.7152,-153.7033,73.3492,-120.6919,11.3978,-54.0534,37.6608,-386.9600,-22.8342
-3445.3125,215.2660,175.9089,-205.0143,-12.5885,-308.3285,133.2357,-137.3541,-152.8730,181.1425,125.8167,157.9178,175.4527,-196.3801,55.2543,-200.5651,-5.4680,-73.0734,-0.4552,-109.8622,8.7190
-3437.5000,33.2425,135.1651,-171.8947,-52.6254,-56.2862,129.8546,114.0896,101.3520,-44.5182,231.6149,-66.5646,97.0952,-54.1481,107.5530,-132.5147,148.6209,-86.3623,-40.6832,-150.8631,-31.8148
-3429.6875,96.6601,268.8670,-180.3478,-23.2337,-247.8182,121.9118,-115.0300,-52.9990,-53.6966,2.9064,110.4016,199.1941,-134.4902,76.7277,-178.0085,-0.8454,-72.1483,-47.4714,-156.4262,-2.8842
-3421.8750,47.8215,220.2876,-86.0664,-1.1177,-115.6216,106.7067,15.6169,153.3847,-216.1052,-12.9940,-15.8960,109.0367,-77.0957,95.0808,-194.7321,75.0199,-29.4216,-129.5284,144.7997,18.8095
-3414.0625,-30.8878,177.8491,-129.6575,27.1373,-87.2760,63.6436,117.4583,220.9194,-150.3674,200.2679,-59.0765,65.0389,-84.5523,102.8171,-203.2770,173.3282,-51.7122,-172.4500,-73.8407,11.6626
-3406.2500,76.9575,108.9550,-129.7140,29.9276,-307.4288,-9.8858,-66.1648,37.9652,141.9701,421.0827,51.3017,27.6076,-194.4916,31.3355,-204.2634,142.3618,-55.9307,-134.8331,139.0819,49.0814
-3398.4375,-97.0084,40.2394,-126.5786,-3.1093,-48.3765,-6.2285,230.4196,226.2179,-2.4550,387.1458,-202.1509,-43.6236,-81.2373,67.5890,-56.0346,223.8336,-64.9346,-98.0288,176.2162,15.7109
-3390.6250,-67.1263,175.3764,-207.6148,27.6897,-274.4900,-12.7326,185.8476,73.2904,101.0011,-61.9222,-60.7634,97.0084,-198.1610,38.9549,10.0570,3.8062,-73.9342,-67.3813,100.1809,46.2024
-3382.8125,-124.3460,84.4050,-193.7681,42.3747,-260.7266,38.6600,346.1884,124.2406,114.3808,-157.0832,-157.4895,36.5385,-147.2046,40.8640,207.0656,-6.3386,-69.4703,-86.8479,396.0889,60.6057
-3375.0000,-214.8453,-6.8375,-250.1899,57.7905,-134.2027,55.7980,362.3294,215.9479,19.5204,5.5338,-250.5122,15.8147,-93.4924,78.3980,259.8433,99.1925,-99.7294,-106.5842,199.7443,40.7647
-3367.1875,-54.5524,12.7059,-194.8342,6.9756,-372.9189,1.7115,13.2737,15.4271,75.5080,245.9783,-46.7279,-2.0982,-111.0017,8.9496,94.4316,71.5264,-95.7237,-52.5404,324.2118,60.7362
-3359.3750,-159.4256,-20.9267,-117.6360,9.9866,-39.7827,42.4617,237.1018,313.7627,-252.6459,175.3111,-191.1180,-109.1743,38.3403,61.7828,59.8994,189.0960,-50.1977,-15.6636,361.5518,27.5653
-3351.5625,-138.3592,71.3778,-131.5042,31.9329,-125.7073,29.1586,185.8926,264.0297,-83.8436,-96.3854,-93.5768,-13.3000,-49.3832,55.0077,-28.6552,74.9255,-36.7826,42.1597,171.8219,14.3534
-3343.7500,-172.4905,-68.5403,-130.5870,-37.3300,-161.8603,30.6500,186.4780,340.0640,137.7892,125.7280,-166.2413,-86.6241,-84.3366,55.7397,8.6078,166.8741,-84.2782,8.7772,418.9254,15.9517
-3335.9375,-311.6412,-137.4695,-164.6874,-70.6090,23.9944,34.1331,336.1012,454.1050,-43.5548,275.8517,-272.9458,-83.9423,28.7006,108.6010,157.8849,287.0041,-126.5509,10.3711,68.0259,-17.4438
-3328.1250,-107.0373,-2.6425,-100.0609,-5.1555,-167.4416,26.3481,106.4675,78.8584,-89.1007,10.7366,49.1042,18.5170,-53.5469,35.5322,38.9124,45.4817,-45.9092,109.7009,-79.1323,11.9224
-3320.3125,-86.1954,-51.5799,33.8100,87.5284,112.3726,123.8047,167.1094,140.8487,-211.3857,-149.1040,-73.6246,-68.7718,81.4498,49.9241,-48.7891,40.9055,73.4399,168.2680,-57.0180,-0.4526
-3312.5000,-65.2706,5.5822,92.7630,145.2990,135.2823,73.3519,-68.1357,-19.0787,-116.5575,-126.8258,-87.2756,28.0558,30.5360,39.3874,-100.3629,-12.4609,124.3646,189.9177,-315.8269,-13.7203
-3304.6875,25.8056,25.8828,149.8523,130.1991,45.3067,-15.9680,-194.2416,-108.8897,-132.5314,-32.3557,6.2242,11.0381,-23.2538,-13.1781,-6.7631,-42.5681,139.1015,175.6927,-85.4685,7.1725
-3296.8750,-41.4730,99.8155,118.5870,205.7336,270.9980,27.3501,67.3156,44.9516,-383.8573,-246.2162,-97.6473,16.6643,92.6245,36.4314,35.5116,-27.4591,171.6524,180.1012,-256.4752,-23.2776
-3289.0625,129.3651,165.8519,38.4207,201.3552,6.7662,-16.2449,-123.0505,-144.1483,-170.0791,-252.9823,116.6177,119.4027,-24.4107,-1.5188,-83.1137,-129.9182,129.2023,104.6110,-191.4099,7.3817
-3281.2500,-20.7931,-55.1250,29.2555,86.9618,71.5293,-61.8432,87.5963,67.7392,-33.3075,252.2741,-40.1255,-73.8723,77.5504,-1.6810,18.2704,103.7066,26.6221,-79.8834,115.6807,-0.9523
-3273.4375,-104.6638,-103.8052,-21.6328,3.8636,57.5941,-184.1499,147.5737,54.9242,173.7785,312.8435,-16.5936,-50.8471,99.7989,-31.5228,113.9736,99.8407,-53.9821,-128.0907,-143.9420,-13.9817
-3265.6250,-7.2291,-145.1929,5.7627,-2.9438,-135.0831,-156.1621,27.8456,-172.6252,238.2165,119.7202,85.2511,-60.5190,17.3142,-98.0364,177.9868,-65.7377,-29.3142,-30.0079,59.7616,14.2996
-3257.8125,-158.8626,-123.6507,-4.8973,90.1848,110.2050,-20.2309,274.1112,-73.2176,-67.3919,35.5758,-144.9851,-71.2551,116.7919,-17.7983,276.9741,-3.2721,23.1247,64.0063,-57.5668,-32.4640
-3250.0000,-14.0076,-12.6217,-0.0746,166.7879,-69.0267,58.1856,94.8925,-360.3305,11.5178,-32.0448,43.2743,7.5132,-25.2414,-40.4826,60.4885,-130.5032,70.7289,69.4976,-158.4005,-26.7200
-3242.1875,5.5320,-98.9172,57.4347,117.0613,62.4179,80.2909,190.3932,-191.7528,-77.8475,63.0578,-8.7825,-119.0224,33.4142,-36.0967,8.7259,-35.9555,67.7892,-15.3343,72.5052,-41.2691
-3234.3750,-59.5519,-92.8302,27.3268,16.7157,180.2738,13.7930,233.3246,-36.7686,-144.7881,-76.4441,-1.4831,-75.1545,76.4706,-20.2684,88.3745,-25.8033,5.9233,-44.7786,-203.1985,-70.4160
-3226.5625,67.7697,-70.3578,49.6126,-65.2494,-55.4984,0.6869,34.6389,-124.4180,61.7099,-310.5291,131.2141,-15.8805,-11.1042,-61.2504,0.4247,-164.3908,-7.9326,13.1714,30.5283,-47.1547
-3218.7500,-74.8782,-107.8639,85.9517,-67.1830,237.8033,110.6281,255.0337,96.9973,-85.7530,-237.5309,-90.0824,-53.5646,61.3762,32.2489,-37.4528,-12.6029,4.5446,-23.8442,28.3407,-83.8420
-3210.9375,-0.3865,1.7793,16.4306,-26.9759,21.2465,41.7107,75.5871,-155.4401,102.9435,24.6013,-48.2440,23.9179,-81.0055,-2.5310,-107.1605,-35.8981,-5.9955,-18.7198,-177.7041,-78.3770
-3203.1250,-0.9994,-103.6759,52.8061,8.1169,57.5682,78.6834,1.0476,-117.9972,139.5588,135.6422,-85.5142,-86.6883,-81.5044,-18.2326,-33.9502,9.4101,22.8989,16.2893,69.1831,-78.0118
-3195.3125,-76.9344,-145.4354,83.8721,37.8888,198.6089,110.3395,69.2392,24.1506,22.8741,-127.5763,-164.1271,-55.5820,-13.3037,21.7403,69.9791,-6.4540,46.1809,10.9804,-77.2413,-82.9499
-3187.5000,24.4316,-77.9055,41.2297,34.9412,-101.0807,68.2800,-9.2797,-127.4344,165.5366,-205.4651,14.5573,11.8340,-129.8333,-21.3770,101.2167,-117.7255,19.5263,-27.0379,95.6458,-50.5870
-3179.6875,-116.2718,-77.4494,-29.4648,-34.0669,48.1905,-38.8277,287.1810,59.9306,94.1747,201.6236,-166.8483,-58.8158,-90.4098,1.8717,324.4216,84.3210,-70.5401,-202.1139,131.5072,-84.2796
-3171.8750,-48.3411,24.6478,-143.5147,-71.4316,-101.8808,-152.2870,137.3059,-89.0772,201.4841,383.3739,-22.6323,11.1955,-167.3410,-37.1715,247.2821,64.7187,-131.0645,-169.5360,-81.9980,-86.3284
-3164.0625,78.8834,-22.9653,-10.2635,21.4887,-116.6689,-18.4495,48.7315,-28.8057,77.1209,1.4456,36.8769,-39.4914,-107.9934,-32.7679,85.4618,-30.0376,-7.1410,-40.6629,257.8343,-63.0818
-3156.2500,-64.7626,-26.4450,-12.8675,159.5446,65.7202,127.5400,231.3477,190.6348,-108.0878,-329.3303,-112.5125,-78.0255,0.5034,32.9110,120.8232,-18.9795,61.8495,26.3490,113.8180,-100.6934
-3148.4375,-7.9098,-39.4259,-100.9837,112.0871,-242.4209,113.0205,-4.5381,29.5488,61.2508,-13.6081,56.5962,-93.0488,-124.5272,-12.2890,68.6935,-1.8158,-13.4726,-21.1533,171.3034,-77.8096
-3140.6250,-70.8179,-173.1673,-56.8602,-21.1322,-52.3169,83.7476,113.8685,221.7113,-5.1427,142.3751,-9.0724,-196.8251,-6.3139,-1.3225,112.8278,123.5593,-60.0526,-48.4294,250.0716,-69.6834
-3132.8125,-13.9913,-45.1513,-72.0016,-33.6067,-67.4646,69.2207,-47.9445,171.6215,91.2187,-238.9056,159.9848,-100.8280,15.6428,-28.0779,60.7211,-33.8785,-49.8980,9.0272,-79.4226,-46.8162
-3125.0000,51.5358,-120.4299,-4.4487,-73.3959,-146.9437,63.3949,-237.0653,92.2074,159.2971,-171.4922,300.7420,-180.1143,-27.7216,-83.6720,54.3282,-62.8664,-38.4823,40.1677,127.8090,-15.2537
-3117.1875,-127.5597,-263.3149,30.5020,-74.8043,109.0035,136.9619,-128.7636,276.2153,-25.2476,11.3490,115.8559,-253.9958,118.3274,-15.8033,127.3597,105.9895,-32.3958,108.6911,-85.5605,-52.3013
-3109.3750,3.0452,-168.5014,55.1514,20.4611,-50.3648,199.2144,-396.7780,-29.0969,72.9231,-183.0856,287.6732,-157.1642,33.0638,-51.1097,5.1045,-74.5852,40.7142,203.9022,-200.2457,-26.6552
-3101.5625,-36.3990,-137.7688,161.7540,86.6471,129.2137,268.4029,-216.8394,4.5486,-77.9330,-150.5458,136.4293,-233.3927,138.7457,-32.2531,36.8165,-29.0225,120.5832,165.0473,-99.9441,-30.0656
-3093.7500,-16.0604,-46.2481,110.1494,143.6187,151.6018,181.3855,-122.0815,-82.9971,-165.9733,-53.1771,195.9552,-175.8151,124.2319,-37.9817,22.3306,-29.0463,117.9820,115.9770,-358.8612,-43.6864
-3085.9375,203.8330,-37.1709,117.0949,117.1296,-62.4858,114.9119,-186.7786,-184.0271,-121.4368,-45.2537,350.0355,-131.6740,21.2449,-70.4144,-153.6040,-88.2136,111.0254,54.4559,-104.2179,1.2351
-3078.1250,124.6162,-45.1834,108.9526,109.5480,150.3591,107.3515,-11.5460,101.8435,-201.0209,-162.4891,194.9812,-139.6194,86.1737,-9.9823,-271.6186,-3.8783,107.4072,11.8376,-76.6795,-5.9557
-3070.3125,276.5052,35.9199,81.9084,51.0757,-97.7005,43.8980,-443.2253,-108.2154,101.5021,-262.6521,315.0284,-19.4461,-14.8113,-69.9364,-298.5236,-153.8589,85.8102,58.3236,-134.0639,40.9416
