Time,Fp1,Fp2,F3,F4,C3,C4,P3,P4,O1,O2,F7,F8,T7,T8,P7,P8,Fz,Cz,Pz,ref
-4000.0000,118.3308,-4.7356,114.9449,24.6513,140.8798,-43.4468,28.3531,-72.7861,31.9689,-32.6836,127.3907,47.0652,116.3971,-22.0192,-17.7951,-68.8972,89.2536,-71.4236,-69.3501,-70.5751
-3992.1875,62.8217,-61.3222,93.4240,-75.5974,82.7246,-67.7062,79.4253,-97.6507,-28.1143,-26.2268,105.9364,-85.7069,94.8800,-119.9989,106.6197,-56.7859,-71.6348,81.0193,154.2294,87.6745
-3984.3750,21.8024,-34.4066,49.3982,-37.1386,39.0629,-78.4656,70.0017,-35.0180,-73.7130,-34.8911,61.9775,-21.9749,86.8587,-93.4719,96.5455,-31.1781,-8.0196,-33.0448,39.3070,-29.1472
-3976.5625,117.2421,-46.0373,74.8258,-27.3193,100.8531,-55.7692,94.0297,-12.9359,23.1478,-17.3885,87.4725,-70.7835,76.2957,-70.4941,9.9186,-156.1335,17.0535,59.3357,131.8307,69.9021
-3968.7500,-28.7813,-89.1283,30.7992,-88.6819,21.1835,-65.5276,122.6177,-23.3109,-58.4507,-8.7235,-30.4939,-189.0475,-4.7244,-79.9724,147.8631,-92.5315,-59.3337,86.2768,264.9240,101.0462
-3960.9375,-15.6517,-43.0631,-31.0803,-54.8816,-4.3371,-56.1310,95.3559,95.4669,172.1048,89.4339,-55.3127,-142.1574,-29.5925,-70.3007,119.9537,-84.7811,23.4425,-79.6493,134.1515,-75.5414
-3953.1250,-71.0177,-100.5083,-55.4579,-124.7850,-64.3577,-120.2390,143.5880,67.7459,220.1663,146.8565,-189.6369,-204.7774,-53.9576,-134.1352,241.5501,-38.5302,-67.2853,71.9431,356.8951,77.8200
-3945.3125,-142.3984,-102.9562,-94.8413,-49.5282,-103.3902,-88.3467,103.8260,63.0274,106.2111,88.2078,-154.9783,-97.3991,-56.3235,-64.9670,200.1569,-44.2735,36.9828,-36.4603,282.6407,-30.9078
-3937.5000,33.0738,-106.5499,50.6261,-4.2785,5.4298,-56.5968,62.9155,-16.8386,176.1156,45.0821,26.5316,-101.1578,52.1627,-106.9426,48.6080,-197.1844,141.1108,-5.0245,244.2266,5.0991
-3929.6875,43.1882,-133.4917,60.7370,-65.7924,15.8909,-122.1953,145.6572,-120.0624,36.6539,-21.4745,36.6697,-202.2677,25.2898,-209.2722,204.7162,-227.4419,80.8770,37.0816,357.4877,54.4948
-3921.8750,100.7440,-112.9707,81.2907,3.0840,36.7923,-141.3384,127.8471,-139.8318,166.6371,-34.8284,131.2508,-109.9175,82.8571,-191.1440,186.2698,-319.2536,244.1030,-119.3717,165.1832,-109.0235
-3914.0625,131.5522,-119.1974,110.0943,-61.9903,65.9410,-188.2295,119.2812,-186.3541,156.8773,-22.3366,86.0784,-229.3266,74.6718,-236.7695,250.0727,-293.8186,168.5778,48.4388,299.1357,61.8858
-3906.2500,18.1956,-23.5695,64.7421,3.7064,-16.0768,-163.2736,108.5656,-236.0304,-37.0545,-110.3668,40.7386,-128.8887,29.3278,-139.5459,275.7391,-232.5265,195.8992,-31.8957,182.9402,-21.2356
-3898.4375,103.3950,24.6192,77.9315,44.5554,71.4479,-115.7568,46.3904,-226.1505,47.5710,-108.8334,127.9485,-42.8866,79.5307,-91.7710,139.9437,-258.6940,210.7843,-55.6877,54.2767,-50.8446
-3890.6250,-15.1129,-24.8973,63.4146,-37.0395,20.2555,-131.9418,104.5158,-206.9727,-115.5171,-101.1267,-33.5630,-95.5946,28.0208,-180.6919,234.4587,-129.5525,20.9552,104.8416,178.9385,116.5056
-3882.8125,-34.7856,58.4461,3.7335,34.5849,-2.1047,-48.2621,6.4881,-122.9309,-66.7721,-93.4712,-20.2385,-46.4587,41.3477,-95.7540,134.8267,-119.5586,106.9767,-23.7830,-19.5608,-19.9858
-3875.0000,4.9446,-9.8080,43.4485,-39.7916,37.9279,-47.1799,7.8527,-123.4787,-28.6216,-52.3904,-54.5214,-153.9299,45.0683,-58.4155,136.5853,-83.1666,5.3905,119.0031,87.3469,125.3928
-3867.1875,-119.3497,-64.0680,-50.8532,-47.6554,-56.0599,2.9007,60.2163,-73.0202,-122.4858,-47.3086,-146.8325,-138.4050,-49.2229,27.9193,187.3573,4.2468,-49.2158,96.8029,101.2757,104.1009
-3859.3750,-11.8618,5.4737,-50.3644,42.8924,-18.2531,73.7917,-13.6211,-1.7510,59.4628,-3.4223,-73.3527,-29.0763,-48.7183,27.0623,2.9234,-72.5370,58.9796,27.3911,-3.9997,29.6880
-3851.5625,-69.9831,15.4036,-38.4762,0.8265,-79.0507,47.0870,-39.0541,-67.0847,-39.1937,-15.4671,-171.4927,-91.3620,-108.8171,-36.4003,48.9043,-26.9200,-35.4445,176.4062,181.1480,183.4163
-3843.7500,-102.4731,120.9890,-72.9482,107.6193,-77.2124,82.0394,-75.8383,-31.7606,-76.2183,-78.8032,-170.0007,54.9941,-71.2710,71.7958,-60.4628,-101.6532,71.7748,35.0752,-31.0582,38.5512
-3835.9375,1.6342,83.1780,0.1703,88.3791,-40.7836,116.6044,-77.0378,-34.8269,-77.6367,-83.7672,-132.9220,53.9471,-71.1367,69.6022,-99.2383,-141.7847,0.5925,136.3573,37.3371,144.1944
-3828.1250,-123.6372,61.0060,-94.0781,40.7836,-134.7297,91.8254,-63.5908,-23.2362,-211.4213,-107.7079,-155.2219,30.5475,-129.3720,82.0622,23.6558,-57.2519,-88.9637,148.3107,49.4065,153.9940
-3820.3125,-57.7752,123.9897,-101.1921,77.3476,-104.5416,119.2124,-108.9917,77.5177,-73.0507,-55.7041,-51.3874,23.3126,-62.4638,109.6819,-95.2980,-66.5716,9.6262,35.4041,-99.3885,34.3275
-3812.5000,-112.0301,34.8681,-84.4181,-0.9326,-124.4660,61.5001,-19.4863,17.1776,-167.7789,-43.2848,-108.6767,-71.0268,-82.6665,-21.8001,30.6620,20.0182,-78.9069,189.4174,90.7428,196.0301
-3804.6875,-126.5128,87.5493,-98.8677,72.4998,-175.6183,80.5934,-72.1779,36.6407,-257.7164,-80.5671,-86.1896,59.4337,-97.0874,71.5247,-22.5630,76.4303,11.3483,32.2255,-67.3209,32.7826
-3796.8750,27.6430,64.8783,-47.6815,57.4268,-87.1351,92.3447,-96.2262,47.7673,-133.9878,-28.0916,-72.0589,0.5386,-119.8633,10.5090,-84.1405,50.5021,25.2476,79.6807,-20.7347,82.1352
-3789.0625,-128.3250,13.1042,-100.6107,-20.7876,-176.7719,37.9955,-39.3702,65.7952,-188.3748,4.7601,-198.0512,-53.4633,-172.7530,-7.6136,9.1984,140.4871,-95.9753,95.0583,100.7729,98.7663
-3781.2500,-90.4575,83.1793,-134.7070,59.7338,-136.5805,110.5064,-74.6654,137.6891,-76.9095,18.6016,-122.2067,21.3921,-132.8045,66.1211,-100.6133,104.3266,11.6502,-9.7262,-108.8789,-12.6484
-3773.4375,-88.4982,48.3378,-95.7181,-5.8243,-134.3084,110.1226,-36.8629,100.6945,-113.3387,27.7894,-157.2727,-50.6698,-167.7692,29.9625,-63.3111,139.2816,-126.6456,164.6023,30.5924,166.8279
-3765.6250,-165.7196,109.3410,-176.9018,33.7221,-214.2176,100.5987,-45.2083,126.5622,-157.9275,22.3525,-200.5147,50.1092,-247.9048,129.6611,-109.1403,203.1069,-99.1091,14.7833,-49.0737,10.4574
-3757.8125,-93.4986,109.8013,-139.6498,23.9272,-176.6920,135.5319,-83.1085,160.8897,60.9486,98.2677,-127.3165,14.3414,-173.5992,91.8142,-183.5194,163.3808,-97.1246,49.4103,-49.2982,40.8871
-3750.0000,-214.1478,23.4027,-192.2676,-67.3076,-267.0410,117.6172,-26.8573,142.3721,-67.0310,91.9390,-216.9990,-77.2863,-227.1656,74.1207,-54.7301,254.8254,-253.0160,172.2010,73.6547,167.3455
-3742.1875,-136.9202,63.9035,-186.0084,19.1996,-223.5182,157.6135,-131.7112,218.7685,-62.1152,66.2631,-136.8002,74.9888,-146.8535,150.3354,-160.0328,221.1885,-141.0140,35.8840,-133.4971,24.4023
-3734.3750,-85.6032,42.5021,-132.6630,-19.8913,-169.9142,135.7190,-153.4765,159.2772,-120.0980,51.6602,-157.5143,54.3566,-167.4497,92.6568,-145.2415,234.6606,-230.9279,189.6838,-13.5330,182.6851
-3726.5625,-193.1136,73.2964,-207.1376,15.7198,-207.1352,96.0319,-82.0395,118.9966,-232.9048,-1.2465,-195.0590,124.9112,-204.8642,125.1829,-147.2383,231.3521,-197.6676,149.6949,-18.3547,144.6677
-3718.7500,-104.1886,90.5387,-151.1841,66.2848,-150.9295,112.8085,-100.1599,135.1909,-68.2524,20.9692,-139.1672,179.9123,-148.8413,142.1660,-203.7870,137.4997,-108.9625,166.1510,-107.7323,158.7456
-3710.9375,-186.4911,42.5737,-127.4508,-31.5184,-162.9530,62.3854,-77.4855,84.2010,-228.8078,-12.4881,-262.5060,56.7001,-161.0407,91.9467,-33.5312,195.4755,-262.4868,292.4305,18.7237,291.5169
-3703.1250,-192.6255,103.8160,-169.5458,50.5477,-168.8102,126.1745,-84.6282,111.4314,-125.1671,-11.2732,-194.6721,122.6861,-131.0667,156.9406,-78.0790,149.6761,-127.8187,107.9034,-165.6202,100.1504
-3695.3125,-122.8204,67.0073,-133.7089,24.4783,-132.7409,87.9248,-85.8278,72.6272,-53.5618,27.9660,-157.9207,84.6114,-131.1632,81.8930,-115.6817,146.8431,-128.2167,211.3376,-27.0035,205.7991
-3687.5000,-245.1997,48.0466,-186.0493,30.5220,-184.8543,106.5314,-65.1658,53.6838,-180.1161,8.2742,-284.3572,105.3784,-146.4353,100.6989,-59.4132,239.8797,-145.7971,191.6356,-11.5199,187.5042
-3679.6875,-97.0021,89.6918,-140.8170,72.3561,-139.3966,149.7487,-57.9073,59.3596,9.9400,28.9130,-166.2122,75.7529,-101.1253,107.1127,-126.5423,134.5249,-32.7874,126.5334,-145.4447,118.9355
-3671.8750,-129.9337,55.2334,-138.7106,-2.4891,-174.0704,75.8823,-19.7546,-14.0512,-62.1033,2.4839,-200.1999,4.0248,-98.9398,34.4400,21.2326,134.0805,-135.9125,232.3621,-5.4469,227.5776
-3664.0625,-149.2956,105.3930,-158.0311,71.7193,-193.1763,128.6319,-40.0121,37.1512,-45.5659,-16.9684,-109.6169,130.9054,-118.1755,123.3806,-35.4010,112.2502,-50.4511,0.7955,-202.8566,-10.4755
-3656.2500,-59.1214,87.1115,-101.8193,22.4798,-136.7555,108.9454,-95.7325,53.9224,44.5270,18.5560,-17.5004,75.3346,-98.8812,140.8783,-54.4994,91.9740,-101.4516,51.7927,-149.7186,38.3493
-3648.4375,-179.5313,36.2764,-153.1884,-6.4667,-187.9253,92.7177,-74.0094,73.1612,-116.9413,15.4284,-141.9752,60.1990,-150.1701,161.8319,2.8629,223.1779,-151.0307,70.2636,-96.1046,59.8735
-3640.6250,-65.7096,77.7036,-145.3339,73.4060,-179.8770,172.7539,-141.0456,152.6731,35.8382,67.7813,-97.2248,104.3155,-142.2338,168.0505,-100.5362,191.6402,-3.3612,-64.0165,-196.2580,-79.0861
-3632.8125,-127.5558,15.4829,-136.1474,-39.3162,-206.5025,69.1470,-58.7445,159.5434,-28.0416,112.1791,-162.1488,-33.2311,-169.9679,64.6231,-55.5847,271.4656,-134.3649,83.0791,22.9588,75.4133
-3625.0000,-166.6848,45.0143,-212.2328,-12.5699,-245.4097,102.3008,-61.7024,192.1761,-32.1925,105.0259,-127.3512,72.9667,-171.9767,134.9497,-58.8751,304.0580,-138.6348,-98.0680,-89.0652,-114.1142
-3617.1875,-76.9198,-41.5550,-156.4358,-40.2078,-190.4402,82.3664,-80.7763,208.7299,132.5636,160.5100,-35.6694,54.0637,-116.1017,78.1811,-41.2798,246.5606,-120.0086,-46.3106,-37.1903,-63.2743
-3609.3750,-213.3259,-73.2789,-223.8063,-71.3761,-293.6480,50.2818,33.9950,176.1395,-9.8468,129.6078,-139.1652,22.9980,-183.4009,46.2634,110.1740,287.9353,-185.5590,26.3159,70.5557,15.0342
-3601.5625,-166.4008,42.3597,-209.8500,5.0523,-206.5310,62.5570,10.1061,223.9109,114.0864,133.4264,-125.3249,73.2871,-132.3722,95.7026,11.9768,188.6648,-68.7616,-67.7159,-94.3623,-81.9612
-3593.7500,-144.3925,-7.9017,-150.8149,-86.5669,-184.3411,8.9364,-41.6990,170.7961,61.1191,148.8132,-177.4116,-52.3323,-147.2638,5.2470,69.8806,245.5092,-186.8827,127.3684,101.8375,117.9057
-3585.9375,-214.5671,26.6891,-185.9561,-26.6028,-219.3414,83.1764,-113.6599,206.5482,-85.0152,81.7384,-175.6885,21.8922,-109.3387,116.6490,-3.3623,245.2249,-151.1702,19.3098,-6.1036,9.1569
-3578.1250,-97.7024,0.3361,-103.0701,6.5573,-136.3167,127.4767,-179.5887,213.3746,32.9064,100.8692,-92.9286,67.1603,-99.3857,124.1047,-104.5638,142.0041,-105.4090,28.3011,37.9920,20.1864
-3570.3125,-230.7650,7.0799,-132.1091,-26.7723,-165.2267,96.8775,-135.4221,183.3118,-106.0798,84.4336,-269.0955,-35.4879,-202.3610,56.6579,-24.6488,184.9066,-168.5808,175.4161,185.2055,177.6609
-3562.5000,-194.2567,77.4377,-132.5783,28.0888,-128.5693,131.8889,-136.6615,253.8623,-33.4674,91.2537,-232.6827,36.4653,-128.7623,91.8228,-99.1306,145.4311,-97.1686,0.1202,10.0021,-2.5459
-3554.6875,-151.8628,13.6906,-92.1668,-41.4987,-88.0373,97.8102,-170.0116,182.3217,-67.9451,58.0226,-155.3870,4.3116,-124.2825,94.8909,-59.7099,110.8693,-230.8731,215.7422,119.7069,214.9566
-3546.8750,-193.5475,42.8930,-133.8314,18.6698,-129.5914,163.6886,-176.4175,174.7367,-294.4968,-38.1244,-161.1688,71.1019,-129.8784,123.9169,-102.3280,103.2800,-201.6509,137.3331,78.3705,141.3532
-3539.0625,-62.4442,101.9004,-73.7168,95.4557,-69.3684,222.3792,-227.0317,195.9667,-199.2441,-48.9437,-101.1646,130.6836,-69.6870,110.7447,-227.1490,-21.5087,-105.6316,126.7222,-4.1740,131.4396
-3531.2500,-153.1604,81.0976,-93.4191,46.4948,-88.9684,164.2702,-137.4428,102.4037,-403.7947,-118.8462,-157.9863,74.4409,-89.3200,89.7660,-100.7617,29.9144,-196.4417,280.3351,79.5176,291.7037
-3523.4375,-53.1016,143.0975,-61.3479,141.6986,-56.8011,195.9710,-179.0566,95.6571,-408.5547,-167.2065,-15.0317,178.9869,-57.1757,156.5940,-216.5681,-12.8525,-26.4645,62.7478,-138.9900,69.0234
-3515.6250,55.3953,144.5444,50.1562,94.4065,17.7931,122.1292,-252.2331,21.3707,-408.8528,-153.7460,59.3549,69.9692,-56.5984,46.8765,-216.9362,22.8340,-24.0479,202.6268,-32.0300,211.2845
-3507.8125,-48.5381,110.5919,-19.7643,80.6301,-52.0473,123.8911,-212.8104,23.6946,-478.5659,-167.3183,-10.6956,72.5378,-89.4537,85.7596,-176.6966,62.1394,-57.0607,168.1222,-31.4449,176.8480
-3500.0000,51.0051,103.1472,8.7902,95.2661,13.5851,151.1676,-184.9009,87.5359,-230.7674,-87.8740,54.7279,100.6037,-60.8304,113.1504,-222.9617,14.9554,6.4229,-14.8889,-145.3687,-12.7901
-3492.1875,-79.8721,-27.7019,-18.0773,-8.4905,-50.2146,88.0458,-138.3979,58.9895,-221.3660,-41.1103,-46.2793,74.2579,-50.6335,86.1438,-102.6210,97.3885,-159.5204,133.7295,39.3311,135.8183
-3484.3750,-102.5266,-16.2937,-75.7201,10.3359,-33.7956,138.1840,-122.6587,145.7059,-95.7304,13.8551,-67.0627,88.1627,-34.2124,136.4020,-124.0398,110.0853,-111.2252,-100.3980,-89.7211,-104.5873
-3476.5625,-52.5396,-2.2320,-23.7304,-31.5559,18.2537,78.9856,-72.2876,159.0846,65.5625,78.1936,-52.2065,-6.2862,-19.1595,41.3130,-146.8265,51.4414,-131.2875,18.1321,-6.1220,16.9864
-3468.7500,-147.4810,-27.0720,-83.6634,-70.7056,-41.6335,17.8954,-21.8206,134.5702,-68.0583,46.9882,-75.2853,-66.6517,-42.0378,16.3292,-97.5016,98.9209,-156.2776,26.7830,37.5993,28.3839
-3460.9375,-32.8400,-19.2994,-36.0195,-27.1663,5.0540,64.4163,-11.7622,181.6695,162.9143,105.3997,45.2199,16.5847,4.6635,25.9574,-160.5815,35.0072,-75.6660,-139.9753,-94.0951,-145.6884
-3453.1250,-78.3562,-101.6800,-47.5421,-121.8061,-6.4350,-21.2030,86.1282,131.6271,150.7288,113.0278,-3.4457,-31.3400,-6.8027,-22.5654,-61.8140,21.9528,-228.2220,22.1427,104.0769,21.1536
-3445.3125,-139.7437,-57.9022,-106.9379,-64.7268,-27.8072,-7.6698,137.1553,144.7434,164.6703,81.0180,12.0149,56.8787,8.8566,28.0691,-11.8984,-37.9343,-148.6415,-179.5847,-28.5991,-184.4795
-3437.5000,-16.9943,-76.9690,-16.2023,-95.9054,25.9536,-28.9841,153.3231,123.0261,327.7740,128.7273,28.6182,-37.7587,62.6458,-30.1428,41.1574,-95.6654,-131.9199,-94.1569,22.8696,-98.1429
-3429.6875,-102.3714,-128.1406,-27.5880,-138.7199,-22.4168,-78.3987,178.3944,36.2187,168.7637,93.1562,16.0885,-123.5168,13.3122,-42.4579,176.1278,1.5218,-147.3319,-4.8045,112.2638,-5.4158
-3421.8750,48.6790,-117.8595,22.4516,-74.7424,64.6361,-65.3522,153.9078,85.8825,255.2054,114.4591,139.9878,-36.8301,64.4061,-30.3146,78.5394,-23.8266,4.7022,-207.0110,-19.8999,-211.6498
-3414.0625,61.4714,-175.8301,74.2235,-139.8201,115.4154,-125.5496,168.1623,-11.6912,269.4055,132.2932,81.6157,-132.4112,115.2308,-126.4220,92.6949,-10.4118,-53.5291,-54.4513,167.7036,-53.7235
-3406.2500,-0.9634,-168.9958,49.7696,-113.2263,91.9590,-113.9417,217.2151,0.5427,244.3903,116.8444,57.0215,-83.2072,128.8316,-77.7269,141.6551,1.8191,-9.9764,-223.0835,69.1124,-224.5996
-3398.4375,139.8400,-204.9028,123.5477,-137.6838,201.7326,-152.0753,290.5080,-37.9627,464.6367,170.9769,167.6673,-157.7568,201.6663,-152.7760,213.8538,-73.6923,60.8217,-259.4692,67.7649,-262.3475
-3390.6250,87.6171,-292.8157,109.3049,-218.2944,151.4793,-276.2077,423.8033,-163.4609,450.8797,171.2775,116.2845,-281.3251,151.4779,-240.8308,421.0649,-52.1841,43.5897,-171.8284,226.4411,-170.6712
-3382.8125,186.9217,-194.1663,178.5869,-146.5042,256.7490,-282.7820,454.6429,-169.3989,555.6648,153.2671,222.4348,-250.3430,256.8162,-246.3264,341.8181,-168.1148,212.9034,-426.6413,42.6535,-427.5937
-3375.0000,221.9269,-265.8076,248.5599,-217.2099,326.7002,-360.6519,414.1655,-284.6308,588.1542,140.4890,255.2727,-364.6682,290.8316,-324.1205,411.2559,-210.3462,177.9099,-251.7353,146.5706,-249.6665
-3367.1875,202.8098,-250.5482,227.4120,-174.4134,232.5208,-308.6147,392.5777,-306.9539,419.5194,67.5026,196.9825,-349.1014,269.7195,-309.0140,463.5923,-195.6641,228.8012,-342.9150,91.4027,-339.1825
-3359.3750,333.0847,-190.8852,283.6460,-134.8617,288.7214,-253.1679,338.3705,-287.8582,512.2899,68.3641,254.0823,-292.1362,252.9865,-253.5010,409.3181,-250.5781,253.0914,-423.6966,-26.3776,-424.4717
-3351.5625,170.9462,-212.6245,148.4639,-215.8989,153.4963,-352.1179,349.7569,-277.1541,302.6560,46.0827,227.7669,-317.5945,189.8306,-241.3915,419.6463,-129.8792,91.9525,-233.8562,128.4646,-234.4209
-3343.7500,138.6824,-70.4598,110.1571,-87.1875,152.1449,-206.1663,238.0319,-168.5312,190.9161,1.0232,227.3315,-171.1656,152.5548,-169.3753,270.8757,-131.2649,164.7061,-409.1249,-46.7977,-411.0406
-3335.9375,178.7633,-64.9476,109.1887,-98.2356,114.1262,-170.8585,88.6464,-134.5430,152.5408,13.4942,152.2354,-209.4029,77.6141,-171.0135,269.4492,-96.2887,99.7998,-158.0409,63.2972,-158.6908
-3328.1250,27.2710,-76.9953,21.6476,-106.1718,-10.4744,-150.1021,73.7163,-113.1009,-46.3928,-16.1969,27.5598,-151.2101,27.1015,-113.2021,327.4941,35.1573,18.3228,-206.5002,85.8645,-208.7217
-3320.3125,121.7204,-53.0845,41.0376,-46.3842,45.8545,-131.3942,56.7295,-57.6981,120.6301,16.1901,120.8242,-95.0644,46.5205,-131.4341,273.4790,-56.4432,148.7975,-323.0185,-30.6296,-328.6825
-3312.5000,50.7566,-88.5746,36.0151,-122.3456,3.7655,-211.0908,51.3384,-174.6907,-32.7538,-41.9477,78.6812,-211.3330,41.5197,-174.0732,341.0636,-26.4348,41.8502,-42.9181,109.4964,-43.1136
-3304.6875,83.1202,-21.7103,66.3244,-44.1934,34.0029,-144.4368,-28.7093,-218.3237,-75.8007,-116.0788,145.8754,-144.2567,34.8471,-70.3643,261.9995,-70.0664,145.2439,-223.4699,-106.0323,-227.5909
-3296.8750,183.9311,-98.3944,127.0705,-72.3919,57.6758,-121.3316,-79.3208,-269.4968,20.6168,-102.7273,205.5155,-157.7425,95.6114,-84.2030,175.3713,-121.2415,104.0871,-123.5695,-42.1110,-127.9833
-3289.0625,0.0754,-176.7305,47.1505,-96.9139,-22.3264,-127.8752,-12.5836,-239.3212,-95.6273,-92.6676,52.4797,-89.9015,52.7058,19.3032,132.1069,-18.0523,-8.7416,-26.2981,55.1790,-27.3642
-3281.2500,57.0569,-85.2075,37.0644,18.7904,41.5041,-28.5644,-23.0098,-140.2865,76.9855,-59.8876,78.2834,82.7851,78.6342,118.6615,-100.3174,-103.0110,83.2802,-146.1820,-134.6923,-151.8526
-3273.4375,-33.7185,-105.4424,21.2181,-19.8362,25.5656,-45.0016,-39.1980,-156.9875,24.8531,-39.8308,63.3169,30.6994,26.7945,66.2651,-78.4965,-45.7089,-7.4643,114.2060,54.7062,113.5874
-3265.6250,-67.4180,-34.5768,-4.5478,36.5060,-37.2976,2.6606,-28.2887,-109.5768,-1.1962,-30.6218,73.4323,77.7083,-35.9690,75.9695,-104.5788,1.7050,63.8804,-61.3051,-14.7852,-64.1837
-3257.8125,40.1808,-67.4076,-0.0262,24.9022,4.1295,42.6247,-98.0905,-32.8516,149.0677,27.3882,76.8488,45.0072,5.5547,42.9656,-64.3812,-68.5818,66.5289,-59.5198,57.0290,-63.8719
-3250.0000,-115.9822,-154.9953,-86.2656,-16.9028,-82.2129,29.8298,-0.6404,-9.8768,63.5804,41.6755,-81.5014,32.5278,-7.6869,67.2000,70.0746,-8.6074,-20.5938,28.5270,216.1296,28.9128
-3242.1875,-33.8498,-107.2833,-72.2162,16.9591,-31.2750,81.3325,14.1109,78.4043,188.4067,83.2278,-103.5609,10.3381,7.3561,7.7413,120.8341,-68.3228,63.5880,-170.1452,122.5174,-170.6701
-3234.3750,-60.7718,-135.6295,-67.2241,-42.1913,-63.3953,46.7859,-19.1908,43.6368,118.1926,67.2363,-209.6795,-95.9160,10.3332,-25.7653,161.5465,-101.0867,-35.2904,46.1462,339.8719,52.9553
-3226.5625,-100.3640,-69.6171,-68.8985,-9.4212,-28.1905,46.5993,-20.1472,80.2221,-29.6989,13.4527,-136.4705,-60.8210,10.6352,10.0823,87.6024,-102.4897,-2.8340,-98.1966,265.5804,-88.8702
-3218.7500,0.8431,-73.7841,32.2153,-26.6578,35.8019,0.2233,-65.3273,69.6104,71.2093,43.2204,0.5326,-68.9184,37.7207,0.7342,4.4285,-112.0896,27.4269,-137.7343,225.0710,-131.9104
-3210.9375,-137.7614,-107.7491,-73.4823,-65.0119,-70.0292,-69.9579,-62.3118,72.1935,-71.6902,57.5585,-69.2813,-65.8315,3.9899,-33.4213,6.4596,73.5288,-41.1300,73.9477,296.7804,78.3761
-3203.1250,-20.1278,10.5369,-21.9453,54.6623,-18.6303,-18.8875,-48.0471,88.0279,16.6595,37.8586,-54.8469,59.4971,-16.5035,-55.3236,-123.2588,-21.6008,112.5710,-90.1274,62.7319,-87.0193
-3195.3125,13.4130,43.7203,-25.5113,40.6169,-58.3347,-58.9194,-123.8907,9.7596,12.9164,40.3318,-57.5093,55.7056,-56.1009,-58.3304,-127.0843,48.1674,76.1732,118.7089,130.5904,117.2609
-3187.5000,-32.6556,102.3024,-68.6863,60.7180,-102.6523,-66.5565,-132.3372,2.8932,-104.4492,8.2035,-27.7822,85.2956,-100.3161,8.0555,-135.5116,151.3458,100.1596,35.9575,12.8645,29.5360
-3179.6875,111.9742,141.5940,7.8337,98.1331,-26.2749,-27.4954,-165.0945,4.7360,45.8854,16.5263,11.6465,87.5820,-60.8413,10.1453,-168.2566,43.2186,174.8491,-30.1038,-89.1716,-38.4006
-3171.8750,-30.0078,68.2813,-29.2575,50.7143,-63.5128,-28.0357,-166.4541,-33.0193,-28.3827,4.8510,-99.5338,50.2580,-60.9828,82.6280,-96.6032,78.4897,66.9242,143.2587,49.2197,138.4613
-3164.0625,2.1008,101.0766,-29.2616,128.5931,-62.6674,45.5244,-92.7175,3.3289,45.4365,-3.8102,-135.6204,125.0335,-60.0424,120.2131,-95.8533,4.8607,170.0980,-36.2828,-129.2932,-41.7607
-3156.2500,-5.9802,92.6811,-40.4659,76.7114,-38.0259,32.8851,-68.1916,-8.5230,107.0631,21.1509,-147.9043,38.5936,-35.3073,33.5893,-34.3179,-6.9760,92.0719,95.9909,-68.0093,91.7045
-3148.4375,-143.8697,94.4866,-70.4742,57.7403,-68.1959,3.4421,-24.4732,-2.1799,3.8696,17.5655,-140.0012,83.3340,-65.3854,78.1599,-64.5820,109.3903,24.2382,97.4828,-101.5072,91.8232
-3140.6250,44.5463,141.6027,-21.1878,86.7142,17.9252,52.3010,-49.4679,9.4639,125.9809,14.7581,-17.7889,95.3761,-16.1703,53.0305,-125.5631,11.0459,71.7141,4.2616,-230.7219,-4.9709
-3132.8125,-47.8413,49.9199,-44.7043,-8.4939,-42.7562,28.3518,-36.2657,-14.6941,29.2914,18.2636,-114.3846,-2.3936,-39.7673,66.0875,-2.3477,97.8997,-90.6241,228.2584,-76.7148,222.3388
-3125.0000,-42.4442,89.0410,-36.4279,51.2053,2.3480,109.1974,-28.2635,29.9491,0.3884,-6.3016,-107.1885,78.6321,-31.5729,146.9413,-31.3287,67.5546,-50.1698,56.0501,-177.9048,50.4379
-3117.1875,12.7067,74.9126,17.5956,71.9222,19.2038,162.7951,-84.5151,9.3468,17.2493,-17.8749,-89.2387,96.3952,22.3671,127.5455,-124.5716,10.9523,-64.9613,217.5938,-122.3496,215.6819
-3109.3750,-115.9502,85.9797,-78.1840,62.4484,-39.7504,140.5864,-70.5668,-13.0597,-151.7000,-66.8253,-111.1007,110.3334,0.4949,104.3458,-109.6076,62.5534,-123.5640,298.3499,-76.5700,298.3345
-3101.5625,-31.9075,170.7530,-27.2707,90.6547,10.9893,154.0824,-56.9267,74.2405,-27.9482,-42.3751,-24.2592,123.9696,-22.6898,81.8452,-169.9565,-35.1505,-74.4556,100.7919,-204.1036,99.1368
-3093.7500,-122.3591,79.0197,-87.8580,-9.1119,-49.7786,93.0731,-80.7890,86.0414,-88.6934,12.7434,-121.9196,26.0902,-46.3807,93.8339,-120.8086,124.6458,-200.8523,290.7474,-14.1224,288.8563
-3085.9375,-139.2694,96.8445,-64.9035,44.4111,-27.0112,115.6085,-21.1070,145.3930,-138.9009,13.0963,-172.0312,85.7532,-60.5349,116.3657,-134.1098,146.9924,-111.7002,97.2515,-101.5913,98.4285
-3078.1250,-70.9656,129.8739,-34.7487,51.9801,1.9539,108.3425,-28.2344,137.9451,0.0987,48.3639,-179.9319,115.6167,-30.4943,35.0947,-142.2291,102.5312,-113.3336,129.9545,-103.8749,128.4137
-3070.3125,-226.8666,79.7034,-121.7978,-14.1937,-84.2916,57.8704,31.4359,87.2891,-86.1145,54.1178,-230.0373,102.2646,-80.6666,58.6121,-45.5441,235.8808,-234.1754,220.4738,-14.3406,216.3486
-3062.5000,-84.4671,115.8453,-120.5528,32.3064,-47.2418,131.6933,69.3979,123.9338,-12.0315,39.0355,-154.8339,139.2061,-43.5504,132.4270,-44.5687,162.5307,-161.7092,10.2810,-189.5207,1.5410
-3054.6875,-146.8554,53.1812,-116.1019,-13.9545,-78.9923,136.7073,0.5516,91.7791,-43.7444,60.3508,-186.4253,107.3257,-75.2375,174.4316,-76.3990,240.3808,-259.0417,193.2982,-40.4853,185.4136
-3046.8750,-157.2027,42.5656,-123.6090,24.4545,-123.6993,201.7669,-8.2400,119.6720,-125.4257,36.5314,-157.9714,135.4823,-82.8841,202.4846,-121.1799,269.2822,-200.3295,41.3689,-122.3871,33.7368
-3039.0625,3.6574,98.1529,-32.9151,76.1773,-33.2036,182.0271,-101.8374,99.7633,2.1030,4.0805,6.6945,189.8383,-66.3311,71.7330,-213.7758,64.3698,-109.4062,60.6367,-207.0974,53.4152
-3031.2500,-69.2854,164.9366,-71.0190,83.2455,-108.5115,69.4771,-103.2316,61.0499,-220.1767,-74.7257,4.5583,187.3718,-141.5810,70.1661,-252.1703,62.6560,-111.2932,269.1281,-105.5818,268.3849
-3023.4375,44.4665,278.4250,-25.4269,196.7182,-26.1215,151.6295,-93.9367,70.0406,-247.7639,-146.9370,51.1253,307.5993,-95.1361,42.3003,-353.8736,-75.3621,1.5255,65.3109,-273.3687,67.4240
-3015.6250,61.6771,260.3594,-10.3820,164.0525,-48.2805,92.2290,-153.1963,-26.5199,-269.8904,-176.4168,65.1444,284.2696,-118.2433,19.8805,-303.1371,-98.9360,-50.2043,293.9488,-151.6907,296.3897
-3007.8125,17.4788,251.8905,-16.7409,168.9599,-90.8488,86.4229,-122.8475,3.5153,-386.4321,-187.4923,59.7475,278.5301,-160.7631,50.0539,-308.7862,-31.9069,-24.3433,214.1886,-161.3930,219.0509
-3000.0000,158.7866,215.9256,53.3966,174.6611,-20.9146,119.1147,-199.0016,36.0502,-279.4621,-158.0858,203.8577,201.2921,-127.7835,9.7282,-348.9518,-72.3870,81.0313,142.9267,-231.6088,146.7390
-2992.1875,62.8002,84.6605,-9.7579,67.5914,-85.2775,54.4963,-189.4588,45.2763,-342.7998,-108.3990,102.6674,62.7365,-118.1045,19.0912,-266.4187,83.8312,-13.9031,328.3848,-82.1016,333.1051
-2984.3750,117.6119,139.1981,11.8874,129.3046,-25.8458,76.6709,-132.1196,67.3008,-284.3540,-120.7405,88.2839,158.9781,-58.6341,3.2503,-244.0874,31.8509,75.9714,100.6289,-273.7978,102.3135
-2976.5625,102.9327,160.2384,30.0366,108.5139,-8.9076,20.3421,-150.2877,10.8272,-193.3974,-119.2760,105.4191,101.7090,-78.6645,-16.0987,-227.2655,-61.6359,61.3552,261.3736,-182.9937,264.6508
-2968.7500,14.6017,176.6274,-23.4678,102.2415,-62.6279,39.3522,-132.1053,-6.3058,-284.1071,-144.2364,51.9038,47.7795,-95.3529,3.8943,-207.0794,-41.7753,43.0870,242.4798,-131.8246,248.3299
-2960.9375,161.9300,217.6723,54.6779,150.3153,-21.6991,44.0126,-127.2802,-2.7908,-133.1641,-130.2714,130.0497,88.4973,-54.3916,-66.4631,-240.2564,-148.2715,155.4894,107.2289,-231.0202,110.7727
-2953.1250,108.4667,164.9109,-1.9693,106.3661,-78.5640,-50.1356,-146.2515,-23.0829,-189.0192,-131.0654,74.3983,32.3998,-146.2313,-49.6336,-149.2318,-131.5678,137.0853,265.1958,-73.9982,270.9676
-2945.3125,192.2980,212.4550,15.6842,138.4537,-60.1329,-31.9872,-129.9217,-6.0848,-172.5867,-142.5008,92.0429,49.5999,-129.7783,-31.5003,-132.9119,-151.5669,220.9871,-3.5445,-201.6722,-1.3680
-2937.5000,284.8432,199.7018,72.0429,121.9705,-41.9933,-51.1419,-146.8942,-24.3883,-116.4391,-125.2260,184.3996,-5.5056,-110.6241,-87.6744,-186.9079,-168.8801,243.5992,53.4159,-179.6493,56.1301
-2929.6875,242.5816,192.1414,29.6011,94.6921,-121.6547,-94.1054,-153.6628,-67.4954,-269.0973,-141.5919,141.9512,-48.4225,-117.2782,-19.6578,-192.6944,-28.9938,236.3971,45.5899,-117.3976,46.5398
-2921.8750,307.7184,221.9825,59.5564,141.6408,-91.9193,-27.6686,-160.0337,-1.1968,-93.3523,-112.6085,245.9143,18.0625,-87.5313,-64.2412,-200.0852,-146.7144,301.6046,-169.8509,-227.7567,-173.0066
-2914.0625,219.7117,168.6649,-0.6325,82.8513,-150.3244,-86.3881,-146.5559,11.9511,-41.7529,-87.6205,149.7403,-5.6188,-145.9320,-159.9814,-149.6253,-206.5870,178.6540,57.5666,-69.2495,58.1183
-2906.2500,201.3954,220.0405,-18.1244,125.4251,-131.0326,-69.4113,-127.3764,67.7968,-60.4656,-70.0867,131.2665,13.3901,-90.6315,-141.0255,-241.4579,-150.7510,265.3975,-103.3165,-160.0348,-103.8888
-2898.4375,336.2420,143.5706,120.5385,89.7038,5.4180,-77.2879,-137.0409,-16.2091,77.9906,-50.3860,232.9584,-68.4529,-26.1753,-150.9232,-213.1559,-197.7794,295.3037,-73.0575,-165.6772,-72.9859
-2890.6250,174.5815,52.6003,62.7016,18.1420,-15.6309,-135.6766,-84.1923,-146.7214,-53.0579,-84.3121,139.1458,-126.8098,-47.2178,-98.3370,-51.3467,-108.3154,203.6957,9.7149,-11.7903,11.9024
-2882.8125,212.8203,125.5323,102.7636,92.2593,24.2234,-60.1667,-45.4431,-107.3333,59.7914,-66.2258,142.2392,-87.2704,-8.3600,-59.8486,-84.6391,-179.9601,313.0018,-197.6263,-114.0160,-196.1158
-2875.0000,177.2226,18.6046,134.9855,-1.6906,56.2382,-64.5128,-12.5399,-149.7993,18.7958,-51.9321,100.4956,-165.5927,-11.3486,-101.2202,-15.7834,-148.4602,136.4568,11.1978,94.9173,19.7255
-2867.1875,68.5181,-19.4272,60.1082,-18.2087,55.1507,-29.9623,58.2702,-151.3665,-55.3193,-64.7005,62.6520,-168.0281,-13.4385,-29.6951,91.9810,-76.0591,98.8049,-97.0716,56.7619,-89.8080
-2859.3750,129.4256,-63.8553,120.8397,-2.9259,115.6728,30.1892,45.6679,-128.3347,151.1735,-11.2554,50.4280,-143.8608,47.0785,-5.5692,78.3272,-163.0643,123.7690,-141.7487,47.1922,-135.7935
-2851.5625,-94.3117,-147.9405,69.9268,-65.7076,64.5516,15.6849,104.4158,-142.9567,27.0016,-6.7101,-110.4489,-158.3591,32.9455,15.8970,138.0256,-67.7131,-29.9228,-15.0572,208.9995,-3.3068
-2843.7500,3.6558,-85.3179,64.7158,2.1933,133.1334,45.8787,98.8525,-74.8783,20.5151,-38.9363,-5.6210,-54.1576,100.5088,83.0653,58.4145,-110.6629,68.1014,-233.6768,-9.4956,-226.7714
-2835.9375,83.2897,-111.0449,148.1644,-54.1325,215.3761,-18.2791,70.9315,-140.1492,-6.3166,-76.9685,76.8693,-82.3134,146.7224,17.8743,104.4404,-175.9712,-26.2115,-48.6386,69.6682,-38.5144
-2828.1250,-24.7797,-148.4798,112.9144,-93.8874,180.9136,-54.1427,183.3104,-175.1277,-78.8596,-96.3192,79.6557,-118.1772,185.2320,-54.0225,216.7798,-137.9806,-65.2274,-88.2896,67.1551,-76.5637
-2820.3125,67.6500,-162.4129,136.1680,-91.6887,276.9601,-68.5056,206.1878,-153.6030,165.1082,-26.7682,212.9524,-132.5385,245.2440,-68.4146,239.6123,-188.5002,27.2708,-207.4496,-16.8658,-202.4766
-2812.5000,-2.2714,-268.7014,138.0757,-163.3924,241.6623,-141.2248,280.7300,-262.4323,92.7219,-29.6602,140.8940,-204.2621,245.9091,-104.1628,351.1003,-115.3754,-42.5924,-31.9458,158.7932,-22.3230
-2804.6875,88.8075,-142.9866,199.9850,-34.5611,304.3677,-115.9449,306.2729,-311.2677,118.3213,-126.9191,165.8395,-69.9847,344.5750,-78.9116,265.5878,-347.2544,118.5560,-188.4454,2.4502,-176.2375
-2796.8750,203.7546,-169.4190,283.7570,-43.2740,386.9414,-180.8200,315.6585,-413.2595,200.7752,-127.3579,249.6577,-97.8605,391.1028,-217.8191,274.9087,-448.2916,163.5694,-73.0876,152.9510,-55.9326
-2789.0625,95.4016,-207.1555,247.2343,-114.0153,313.2148,-255.0032,351.7490,-413.5569,53.9071,-121.5405,176.1756,-209.0503,354.3279,-218.0345,384.9369,-303.6244,125.2798,-112.0142,220.1720,-93.8503
-2781.2500,215.0515,-229.8855,296.7123,-132.4464,400.4949,-242.1832,327.8362,-291.8527,214.0396,-38.1384,263.7043,-196.2393,367.5572,-205.2464,360.9565,-290.9646,139.0048,-309.9593,127.3830,-297.8662
-2773.4375,77.8074,-331.5319,262.2946,-229.7106,364.8813,-277.2679,329.0312,-290.0466,141.2762,13.1829,118.3314,-304.3349,331.8908,-204.3628,473.0869,-142.2086,1.8179,-130.7898,341.7171,-115.1227
-2765.6250,3.0509,-265.6795,184.3737,-179.4044,287.7629,-208.8526,361.7353,-184.7376,137.0061,30.6571,114.4573,-236.9329,291.7253,-134.9787,431.7287,-109.9476,34.1267,-346.1274,232.5526,-334.7043
-2757.8125,28.9498,-345.1751,170.1066,-209.0964,309.3087,-150.7913,310.0940,-52.7759,269.4022,121.6662,136.2468,-287.8832,276.2142,-150.9483,343.0127,-126.0394,-10.9009,-250.8187,328.0316,-237.1461
-2750.0000,-127.4066,-395.9252,80.5943,-240.2714,183.6040,-129.9868,294.2047,40.9282,106.5308,149.2223,-26.2189,-304.0924,187.4546,-93.1703,364.0551,41.6211,-97.1866,-196.7443,417.2847,-181.0206
-2742.1875,0.3935,-374.5179,141.2337,-172.5163,206.0575,-33.0259,243.4565,137.7837,239.8004,182.3801,-2.5273,-244.1439,209.8516,-70.2394,239.2381,-9.5762,-4.3074,-315.5291,227.6719,-302.7918
-2734.3750,-9.7978,-385.1154,128.8807,-249.1517,194.5177,-120.0678,267.7098,87.6395,191.0751,171.5875,-14.8303,-331.2043,161.2535,-157.3107,300.4215,-21.7788,-120.4296,-116.2984,393.0714,-99.1764
-2726.5625,-57.9965,-293.7189,80.5231,-236.3777,108.9760,-206.1128,255.9754,148.4953,178.3388,183.7480,9.8633,-306.2664,112.6520,-206.3847,251.6168,39.0284,-62.5545,-235.0677,239.4750,-224.9547
-2718.7500,45.0147,-261.1259,113.3667,-233.9272,178.6424,-245.9582,178.4406,144.5538,321.8212,251.9953,42.7752,-348.1235,108.2573,-320.2546,137.0109,71.0292,5.5315,-167.6493,236.0702,-160.5388
-2710.9375,-84.8835,-285.4404,53.3114,-278.2635,81.4052,-306.7076,191.0130,83.7079,150.4032,226.7952,-90.2222,-408.8869,84.9616,-307.0278,223.5198,194.1355,-54.2944,-17.1135,351.7903,-7.9450
-2703.1250,12.9613,-154.0022,84.0018,-149.4772,110.9169,-204.7039,110.3379,39.6182,217.7375,163.7737,-23.4724,-269.8919,114.4137,-242.0434,142.7848,75.9926,78.6425,-165.8448,132.2507,-163.0782
-2695.3125,67.4128,-134.9658,103.2987,-155.1523,94.0382,-223.1015,93.2646,-52.8692,162.6777,101.9322,-4.1152,-287.3005,60.4706,-260.4635,198.6477,-15.5497,28.1766,64.0321,257.3193,71.4816
-2687.5000,-24.8027,-51.5821,45.9393,-78.0870,36.5067,-170.1509,71.5461,-74.0011,-5.0465,11.6560,-24.4093,-161.3635,39.8775,-170.5306,140.8693,-36.7341,41.0487,6.2664,199.7487,14.0959
-2679.6875,106.0304,8.8536,107.6281,-3.3867,98.0345,-72.1431,-13.1243,-49.0761,93.2929,35.7275,1.3613,-100.3717,65.3431,-145.5437,-54.8685,-85.8669,101.9745,31.5407,190.2177,39.7091
-2671.8750,-31.8462,-23.4238,37.6185,-13.9303,27.8638,-69.8393,-10.4812,-83.8477,-124.0653,0.4637,-142.5770,-98.0906,-5.8903,-143.2561,21.7072,27.3178,35.1775,175.1346,334.0091,189.0727
-2664.0625,-32.0364,80.9970,0.3029,83.1337,27.3947,-33.8313,-11.1319,-47.9072,-124.7247,-43.0420,-69.8126,48.8921,-6.4228,-71.2634,-16.0104,-10.7905,140.0796,-1.5812,86.4902,5.5404
-2656.2500,17.6741,95.3124,49.8884,49.7963,39.8346,-21.9189,-35.8804,-109.0624,-149.4660,-67.4475,16.8577,-13.2275,-31.0466,-59.3693,-76.8254,-35.9996,49.8767,188.6118,170.8751,198.7025
-2648.4375,-65.5805,116.6714,-35.4796,59.2788,-45.6828,3.0402,-47.5692,-85.1630,-272.1662,-99.2037,42.5598,11.7004,-42.6239,-34.4238,-89.5685,25.8485,36.7066,103.8671,122.3320,110.9866
-2640.6250,82.0595,158.9346,8.0476,103.6487,34.7030,45.9069,-78.3494,-42.3519,-81.9494,-57.4922,122.1615,54.5368,-36.2982,-28.5697,-193.4097,-42.4046,113.4440,5.0004,-11.3198,7.2004
-2632.8125,16.9413,92.4310,12.8173,40.3904,-34.6608,-23.9787,-73.8653,-75.2849,-150.4714,-57.3364,54.0100,21.6142,-104.7219,-61.4669,-114.9859,-1.3952,13.4101,185.3924,133.3082,190.9653
-2625.0000,76.3055,187.4200,2.0776,143.5349,-45.5295,38.6402,-157.8721,-49.7051,-161.4987,-98.4881,80.3571,120.1928,-115.6466,1.1454,-237.0519,-12.8742,142.8716,103.2772,-123.5615,103.1775
-2617.1875,214.2218,254.9497,69.8873,155.1276,-14.8406,31.8154,-310.3300,-56.5605,-167.9606,-114.2539,148.2621,114.3206,-122.0130,-42.6889,-352.5717,-19.8053,140.8796,276.7176,-161.8734,274.7566
-2609.3750,130.7257,276.0703,19.2969,148.0109,-101.5511,17.5942,-324.1843,-70.8077,-401.8450,-167.2448,97.7556,136.0408,-172.7822,17.0775,-366.4790,112.8745,92.4658,262.7752,-175.5585,260.3230
-2601.5625,182.8725,327.8418,-0.6494,211.0603,-47.6089,71.0333,-307.3906,-17.3899,-238.0802,-150.3783,151.9014,263.4216,-118.8943,70.5092,-422.7445,19.2064,144.7078,103.4732,-333.6053,94.2119
-2593.7500,86.3120,266.9067,-29.2979,157.6054,-114.3642,77.7752,-300.2910,-46.6605,-341.0121,-160.9320,85.3373,233.1017,-148.7030,40.2409,-305.7027,62.8447,13.2332,253.4872,-149.3341,248.3442
-2585.9375,65.5281,280.7682,-52.1533,181.7491,-137.3253,128.3241,-323.3859,2.8808,-327.1567,-160.0891,26.5665,283.5849,-206.7088,164.7805,-291.8499,76.2933,27.5483,55.3025,-275.2604,45.1723
-2578.1250,87.3510,196.2202,-70.4074,129.4367,-117.6762,145.4809,-267.8861,58.0313,-161.6897,-58.0985,-29.5992,227.6685,-189.1071,181.9292,-273.4007,130.3499,-21.5276,76.7199,-218.5909,64.3906
-2570.3125,-94.3885,84.1155,-151.2148,45.9956,-235.5791,137.0880,-165.9304,86.6373,-242.7847,-31.1123,-146.3259,182.1984,-233.0600,210.5292,-97.4899,232.8722,-167.1677,105.6079,-83.4502,95.0989
-2562.5000,-81.2399,96.9201,-213.1283,108.1662,-224.5832,221.6045,-191.0756,134.1539,-47.9792,7.3423,-61.1553,266.6456,-185.1168,258.0437,-160.6857,169.3041,-83.8989,-22.6197,-211.4282,-41.6104
-2554.6875,-138.6932,4.1186,-202.6417,18.3177,-214.1819,195.5221,-143.8189,107.0768,-37.7659,34.9657,-123.5886,203.4861,-174.7708,194.9644,-76.4775,180.1570,-247.2447,165.5663,-23.9964,151.6146
-2546.8750,-262.4189,55.0633,-220.4142,53.1398,-232.0385,213.1975,-125.8078,125.7628,-55.8157,15.8978,-178.2816,258.0804,-155.6772,212.6402,-57.5049,161.7839,-229.8569,41.5031,-111.8101,26.7891
-2539.0625,-173.2931,39.8600,-166.3405,36.2602,-178.0396,193.7369,-144.9560,142.3142,106.9967,59.3174,-161.1171,201.5386,-101.7307,230.1773,-113.6969,67.2603,-210.6116,95.2893,-57.7860,81.2348
-2531.2500,-333.2781,-15.4532,-222.3677,-30.7258,-234.1402,137.1783,-54.2028,159.7689,-21.2989,61.2739,-254.0618,107.8948,-157.8858,210.6216,-22.9851,121.6513,-299.4821,182.0001,98.1581,175.8680
-2523.4375,-264.6728,17.8328,-224.8022,28.7152,-162.6467,208.2354,-56.8546,229.8367,49.0032,62.4827,-182.4107,141.8546,-123.4373,243.6788,-99.6680,44.6588,-196.7526,-31.6960,-44.3135,-38.9740
-2515.6250,-257.1207,-45.9440,-180.2913,-40.1900,-155.2024,178.2498,-49.5546,200.8670,56.2675,85.6640,-211.8149,74.7676,-116.0361,214.6946,-18.3925,51.6289,-294.0850,80.5651,138.1742,76.7750
-2507.8125,-355.3001,-74.4205,-243.4911,-43.6384,-218.4634,187.5662,-2.9353,247.2125,-7.1769,88.7080,-311.9382,121.9820,-143.3421,261.0214,64.1974,98.9178,-322.1429,-51.8685,145.9691,-56.4267
-2500.0000,-267.8419,-57.2417,-189.0509,-26.6199,-164.0710,204.5436,-21.6571,264.2243,194.0441,141.4178,-220.4109,138.8611,-51.9927,241.0106,8.4336,41.8616,-269.5534,-105.6566,92.3962,-115.4004
-2492.1875,-353.0525,-142.7207,-204.2694,-107.8940,-179.3356,152.8802,34.9777,211.5968,30.6131,111.0041,-235.5509,49.0912,-67.2943,188.3564,103.0368,100.1700,-390.6375,89.9246,253.1935,87.9006
-2484.3750,-323.6859,-77.6001,-207.9009,-42.5521,-147.0076,184.8342,68.2192,244.5881,63.7801,107.5886,-202.1088,118.9303,-71.0008,221.3209,62.2379,96.0934,-290.1235,-90.9045,72.5850,-96.3731
-2476.5625,-282.8217,-107.9848,-166.0354,-94.5992,-104.1768,117.3004,110.9578,213.0971,179.4671,157.3370,-233.1749,87.2735,-65.2102,152.7991,67.9313,64.5269,-354.1201,18.7772,218.4804,15.4338
-2468.7500,-366.0322,-86.4244,-214.2386,-81.9337,-152.4090,104.7259,135.6595,201.5705,21.0974,122.6639,-355.3109,75.5674,-113.4801,178.2338,129.5982,162.9331,-332.1927,6.4237,170.3407,4.6147
-2460.9375,-254.8605,-11.4616,-135.0568,-13.0000,-74.2467,109.5683,30.7585,243.4665,173.1402,165.5281,-276.0480,116.2777,-72.3493,109.0869,-12.3268,130.7463,-185.8693,-24.5410,35.5824,-30.2457
-2453.1250,-306.1498,-61.9615,-150.3335,-69.2142,-125.5408,93.9738,52.4118,190.9268,47.7375,123.3276,-328.2448,-9.4615,-87.6685,57.5005,83.3096,115.1282,-271.0228,207.0624,196.3879,210.0701
-2445.3125,-326.5148,22.4878,-169.6759,-13.0993,-145.8947,148.3396,33.0164,207.3527,64.2784,82.6656,-274.5046,7.7629,-71.0447,184.8833,62.9045,58.4879,-187.2384,9.6123,-0.8683,7.1138
-2437.5000,-220.0917,-46.2568,-132.2234,-66.7020,-71.4479,112.5112,34.4171,172.5975,213.6394,148.5557,-235.9749,-65.2077,-32.6215,149.0772,101.2953,96.6633,-185.6597,45.9693,35.6700,39.6823
-2429.6875,-296.2416,-87.5561,-173.3300,-125.8879,-149.5580,71.1392,103.2721,131.3079,98.4359,133.4177,-240.0249,-106.7265,-36.7564,107.7289,207.1476,202.3130,-261.6550,39.7987,64.6752,32.4105
-2421.8750,-156.8562,-88.2971,-137.8981,-52.5781,-76.1201,107.3369,28.6710,203.5895,171.7848,148.5271,-94.5306,2.3199,35.6556,106.9518,22.5436,164.5232,-122.1047,-100.8240,-75.7926,-111.8653
-2414.0625,-152.1875,-154.7503,-94.1723,-124.3852,-69.3823,39.8448,35.3731,173.1826,30.4460,131.1458,-161.7480,-64.3320,42.3703,76.4824,66.2541,208.0500,-221.2795,44.8719,105.0481,41.2569
-2406.2500,-222.9035,-49.5498,-127.8175,-29.7235,-67.0095,79.0101,1.7371,213.4463,-40.2492,96.7553,-158.3383,48.6768,8.7304,78.6758,32.6342,211.2522,-116.8254,-131.7853,-36.4675,-137.0405
-2398.4375,-65.6317,-33.3484,-38.4716,-24.1669,-13.6359,22.1914,-55.9021,155.7312,87.0772,109.7516,-67.9356,64.7012,62.0941,-15.1134,-24.9928,153.4653,-65.3769,-45.4371,-54.9963,-53.8996
-2390.6250,-149.1781,-81.9516,-86.9370,-97.5997,-62.0715,-26.4132,6.6571,107.2277,1.5882,91.9033,-116.3541,15.9274,13.6516,-26.6908,110.5903,214.9031,-183.7512,12.1366,2.6889,3.8122
-2382.8125,-89.4902,-56.2955,-60.1652,-58.7261,1.7363,0.2494,-3.5442,133.9926,138.3481,116.9765,20.4705,78.4205,76.4554,73.0043,63.4168,204.6109,-88.8811,-209.0484,-183.4004,-226.7557
-2375.0000,-72.4629,-180.2969,-41.0469,-119.7764,-16.1036,-17.7229,15.6026,79.1238,157.4623,154.3446,75.6317,60.2665,58.6069,18.0581,82.5995,260.6903,-176.6800,-15.8683,9.8627,-31.4862
-2367.1875,-115.7160,-117.5493,-84.1949,-24.1303,-59.2076,49.0651,-27.4957,36.0239,40.3102,92.6978,106.5164,163.8762,15.5047,85.8815,39.5450,291.5487,-78.7493,-58.9315,-68.1267,-76.1715
-2359.3750,62.0715,-45.7536,-8.3028,44.2680,15.7381,87.9204,-62.5483,0.9959,116.2216,61.8908,145.4504,165.5528,54.4553,87.7696,-68.4633,145.4694,28.2249,-21.9503,-101.0850,-35.8529
-2351.5625,-21.1137,-23.9191,-20.3729,-21.3617,4.7276,2.8368,36.4541,-83.9623,-78.8211,11.0652,60.4200,44.2828,6.4527,39.7165,104.5915,208.4662,-54.7858,71.0956,27.0260,64.4507
-2343.7500,64.1300,26.3632,-4.0073,44.1135,21.1588,19.2204,-21.0945,-30.4486,10.5836,2.8797,186.8345,133.4796,59.8947,56.1396,10.0957,113.9372,65.6384,-125.4218,-134.4253,-138.0029
-2335.9375,103.1591,-40.5607,37.1467,-21.2241,25.3881,-13.5758,-53.8414,-26.1140,51.8006,36.1678,191.0351,27.4812,27.1378,-13.6194,51.3981,81.2236,-1.1569,54.8761,45.9320,47.4693
-2328.1250,21.0637,-16.5863,-9.8135,0.5351,-21.4868,-23.4540,-26.6895,-35.8609,-69.0806,-22.8336,181.1076,53.4004,-19.7203,49.5448,114.6117,71.4352,22.9363,-26.9275,-0.8268,-33.5826
-2320.3125,128.8062,21.2388,30.0678,58.3533,18.4853,16.5379,-23.6904,-32.7411,44.9112,-25.5257,258.0267,130.1816,57.2682,52.5765,44.6731,-35.4918,95.8698,-94.8772,-68.7426,-103.6062
-2312.5000,33.7694,-73.6920,5.1877,-21.2192,-43.3016,-45.2184,61.5606,-94.3573,-16.8495,-12.0463,196.1743,68.2185,-4.4997,-8.1347,203.9989,49.8713,1.0187,-13.5719,82.6004,-19.5134
-2304.6875,95.8210,-11.5176,-2.6043,41.4180,-13.9909,-15.8577,53.9129,-64.8523,48.4983,-4.4472,225.4189,97.3837,24.8370,-15.7237,122.4146,42.3542,134.2582,-197.1770,-100.9860,-207.4937
-2296.8750,177.0121,-107.1982,42.7504,-31.2673,31.4723,-81.3331,-10.5866,-56.1905,130.9941,50.0793,233.8036,-4.2950,70.3289,-81.1512,130.9792,50.9968,108.6281,-45.6046,15.5901,-55.0255
-2289.0625,84.3838,-128.6736,21.2967,-46.0616,-26.8670,-102.5914,42.1110,-40.3114,-0.3243,22.5441,138.3732,-25.7642,85.0135,-65.3642,183.7455,103.8559,87.1882,-31.8317,-5.6451,-37.8956
-2281.2500,165.1565,-83.7384,68.2402,45.2252,57.1925,-55.4391,52.2028,-30.0098,119.7792,-3.3981,222.3327,94.1733,132.0958,-18.1693,82.9108,-69.8752,203.1405,-162.6606,-136.4975,-168.6922
-2273.4375,149.7508,-62.9569,53.0075,28.5937,42.0813,-70.4302,73.1464,-118.8398,-5.2687,-37.7496,96.1093,78.9682,80.0143,-70.1164,104.9519,-47.7155,116.9131,-1.6266,59.5159,-0.7763
-2265.6250,132.9675,60.4860,36.4070,128.2074,25.6038,-49.7566,56.7380,-97.9938,-21.6560,-82.1928,116.5151,173.4401,27.5731,-12.3860,15.6380,-100.8725,241.3248,-123.9552,-132.8497,-125.4053
-2257.8125,225.8644,83.6301,94.4930,113.6243,83.8220,-65.3720,5.0319,-149.4214,73.6636,-70.5707,174.6044,83.6084,48.8265,-64.9435,-36.9806,-152.2998,264.4114,-29.5669,-109.5106,-30.5905
-2250.0000,162.7329,126.7702,102.5641,108.6359,18.0267,-129.9742,13.3344,-214.8323,-102.0265,-138.6710,109.6720,55.7913,20.0729,-93.4827,45.3983,-107.6988,272.4790,-21.1739,-136.1762,-20.2001
-2242.1875,298.4002,227.7115,93.4251,235.1874,46.0340,-64.7625,-68.5696,-186.4182,-0.8951,-166.4086,210.5379,193.7816,48.1207,-101.2103,-110.4284,-226.2843,443.3398,-131.9828,-353.0608,-136.7603
-2234.3750,316.4443,175.0435,109.6724,165.4858,-10.5749,-122.1441,-52.0682,-242.5904,-94.3690,-170.2547,116.7834,100.1723,-8.4413,-84.5337,-56.8299,-172.4403,355.5757,26.6250,-158.5312,26.6484
-2226.5625,266.8238,266.7320,58.2533,221.1139,-62.8491,-26.1605,-67.2223,-147.3943,-219.4857,-219.0484,101.3751,47.9341,-60.6622,-25.4791,-71.8782,-186.2271,412.1636,-56.4327,-312.6813,-53.3756
-2218.7500,390.0986,285.3148,109.7278,195.3198,-11.2208,-48.2670,-125.4798,-94.2892,-130.6930,-186.3589,153.8614,-10.3884,-44.9858,-47.5170,-204.0291,-245.0962,394.6373,-3.5779,-293.9295,0.1823
-2210.9375,259.1430,224.6957,44.9886,115.8427,-74.8091,-111.5637,-115.9329,-84.3674,-231.1062,-149.0853,15.1271,-37.8991,-72.5161,-110.7476,-120.3713,-87.1398,263.8895,77.0783,-144.3726,80.9747
-2203.1250,199.3288,236.2353,56.3929,161.7137,9.7547,-62.6971,-104.2520,-36.2798,-72.3529,-94.4527,63.5409,10.7555,-23.8881,-61.8173,-218.5707,-112.0280,345.2921,-87.1182,-236.6904,-85.7807
-2195.3125,224.4943,120.7641,155.7897,77.8413,109.3118,-73.8224,-41.5651,-120.1853,-83.6033,-104.0207,15.9286,-110.5872,37.7354,-146.8700,-119.7442,-159.8965,229.6570,114.7107,-70.9979,127.2174
-2187.5000,166.8872,168.5486,168.4189,90.3210,122.1137,-60.6806,-28.6249,-106.8212,-216.6060,-178.6500,-8.4467,-171.6524,87.6016,-96.6466,-143.6675,-219.5023,242.2615,92.7795,-164.0768,111.2713
-2179.6875,264.4275,196.4866,194.1932,132.6037,185.0650,2.6291,-148.5384,-80.2948,-117.4487,-159.7955,17.3239,-180.5622,77.6117,-33.2654,-263.4482,-265.9525,305.0038,156.0152,-206.0077,173.1010
-2171.8750,119.9393,87.4277,153.9548,70.4772,108.0079,-0.0516,-151.4525,-82.7570,-230.3017,-159.1555,-95.9295,-183.4669,0.6187,-35.8774,-119.2215,-194.3829,160.7257,293.2635,-33.9345,314.2458
-2164.0625,98.3962,137.3345,132.6628,157.9268,123.9016,89.2363,-100.4275,-29.2529,-141.1981,-174.4847,-81.2472,-21.3998,53.5743,17.4765,-140.0593,-288.8539,210.4046,132.4533,-229.9355,149.5778
-2156.2500,77.7894,81.1907,149.3079,85.6862,177.7365,32.4829,-9.4500,-48.7963,-88.1361,-125.0695,-137.6388,-41.3705,69.4649,-39.2097,-49.9367,-271.3560,84.0098,252.6122,-38.9754,273.2411
-2148.4375,-41.5903,103.3088,63.1841,79.2983,91.8025,20.9932,51.7738,-97.0705,-136.8179,-117.4494,-186.7906,-17.0737,20.5960,-14.6234,48.4399,-136.5880,69.8502,134.0119,-52.7866,148.1465
-2140.6250,0.8218,76.2238,70.8484,64.1850,136.6684,29.3162,22.7931,-51.5267,55.3249,-42.6580,-69.1493,-44.9756,102.5283,30.7689,-16.3839,-128.0046,113.4794,36.2204,-115.8122,42.3875
-2132.8125,-70.4983,40.4408,71.7991,1.8615,137.8202,-43.0544,98.1169,-123.6715,-53.2525,-65.4032,-105.2324,-80.5673,103.7558,-77.5239,95.1047,-89.0968,6.3806,176.7495,24.4636,188.4430
-2125.0000,-48.8217,27.6738,60.7430,54.8132,125.9729,-16.4049,123.4288,-60.8026,9.1640,-61.4432,-43.3254,18.8659,128.9813,-51.7993,47.5773,-136.1774,99.2864,-10.7271,-128.2895,-2.6040
-2117.1875,36.0001,-133.9401,76.8360,-61.4280,142.2741,-36.6028,139.8839,-43.7761,98.7299,12.6071,46.7197,-112.5438,145.3524,-34.9214,137.1969,-83.0955,8.3230,38.9600,27.1165,45.6064
-2109.3750,-88.2464,-186.6039,23.8636,-100.9338,52.5133,-14.8401,198.2789,-21.7842,46.2381,36.0354,-6.2997,-164.9960,92.6702,-13.0782,268.7755,11.9533,-44.7013,-13.4068,79.4603,-6.8505
-2101.5625,10.8539,-122.9134,53.2418,-49.8701,120.1100,-20.7132,192.0177,-27.4311,224.1078,41.5867,97.0321,-97.0866,160.3462,-18.8776,225.6978,-103.6433,53.6214,-125.4165,-66.8694,-125.2359
-2093.7500,-7.6183,-210.7739,35.0577,-140.4881,102.1515,-75.1320,247.2104,-81.6227,206.4066,78.0955,5.7868,-151.7135,105.4596,-36.2137,356.0809,-10.7638,-69.6286,-71.9600,126.2552,-71.2029
-2085.9375,-50.9023,-218.4174,-8.9352,-105.8186,57.3873,-45.3315,239.5988,-51.5985,198.9151,86.6898,33.7260,-85.1235,60.7680,-7.3299,384.6552,56.3332,-7.6794,-220.3208,12.5542,-225.1416
-2078.1250,30.3011,-241.5712,37.5619,-125.1195,104.1121,-35.0213,176.4925,-41.0603,245.9469,106.6037,117.1520,-112.0413,144.5619,4.0646,284.7343,29.9497,-31.2506,-138.1674,94.3595,-142.6293
-2070.3125,-47.2741,-284.4795,30.2900,-186.9516,97.0666,-41.4459,242.6399,-47.2525,55.2271,69.6067,36.8098,-191.6958,137.5975,-2.2747,352.0743,97.8409,-144.5934,-109.7700,158.4081,-106.9436
-2062.5000,1.8011,-304.7287,5.6633,-156.2542,109.6688,8.7970,219.4239,76.2229,179.1771,109.8354,122.1175,-178.6846,187.2810,11.0506,291.0538,38.4014,-60.2904,-235.7340,32.0765,-236.3183
-2054.6875,-70.0411,-374.8756,3.1210,-257.3065,71.3617,-66.8543,217.3066,111.8081,140.2126,190.0179,46.5066,-254.5688,148.0513,-64.5174,290.1389,184.0887,-201.9166,-94.5832,277.8557,-92.2115
-2046.8750,-178.5951,-305.7118,-72.1389,-210.7975,-4.6606,-31.1869,105.4898,184.7041,138.5583,228.5705,7.1909,-219.1236,73.1101,8.2343,214.5157,293.0924,-133.2405,-237.1497,205.9101,-242.3120
-2039.0625,-82.0532,-315.4478,-48.3049,-228.1046,19.4130,-6.4131,92.7651,209.7139,311.0175,313.0760,-79.0301,-266.5692,60.2649,33.0893,128.9875,319.2115,-143.4841,-210.6042,231.0580,-218.2419
-2031.2500,-208.1351,-335.7786,-108.0825,-292.2456,-39.1227,-27.2315,254.4383,188.1348,251.8614,314.9993,-210.8730,-288.6114,1.8137,11.3566,290.8715,370.7551,-304.3488,-160.6530,316.5973,-165.3312
-2023.4375,-224.6604,-280.5500,-162.3133,-232.1232,-58.1098,-8.4883,272.6478,244.1168,381.2669,332.0062,-156.1603,-160.0891,19.9107,31.1863,272.2868,316.8535,-249.6541,-245.1603,160.6564,-257.6649
-2015.6250,-295.9960,-316.1217,-202.3457,-259.5324,-96.9006,63.4558,271.0490,243.3027,415.8584,340.4272,-233.2673,-125.3544,-19.8002,102.2213,270.9001,278.1732,-426.7817,-35.4494,299.9270,-46.1004
-2007.8125,-374.4884,-146.8230,-246.5381,-153.0924,-139.8460,130.2610,227.2944,237.3446,262.2846,252.1741,-276.5407,15.2563,-26.6741,170.1218,153.3524,272.3586,-399.0563,-76.8941,152.0210,-88.9070
-2000.0000,-294.9763,-67.5111,-201.7250,-94.6474,-94.7807,176.0720,161.5218,283.3835,343.7098,247.8501,-195.8192,60.8732,-18.5420,179.0289,-22.2111,171.5504,-354.3351,-31.3191,57.1027,-43.1369
-1992.1875,-405.5826,-106.2910,-280.0189,-154.9754,-210.8251,171.7914,156.6451,315.3175,266.0135,294.9035,-348.2187,-17.6011,-132.5166,174.8372,47.1274,314.6587,-465.7265,105.1743,228.0852,94.9344
-1984.3750,-364.3347,4.7987,-310.4654,-46.3560,-240.0172,216.3687,127.6103,397.1078,273.1839,263.2723,-341.7618,63.7906,-162.6440,256.5001,-91.7054,249.6133,-318.2575,6.5062,-12.1144,-6.2296
-1976.5625,-316.8379,18.1405,-260.6593,-76.7037,-190.9559,193.1888,66.8185,337.1470,212.5988,233.6413,-329.0549,3.4335,-149.5233,233.4142,-115.2936,226.8224,-375.5599,161.1106,106.9383,152.6420
-1968.7500,-410.6956,31.1375,-247.2122,-53.8933,-214.2529,207.6781,43.6612,314.8345,42.6576,173.5478,-352.7054,17.7502,-172.7584,210.9940,-65.2337,241.6931,-364.2078,138.3577,118.6170,134.9932
-1960.9375,-249.3467,16.3471,-190.5585,0.7251,-156.3467,229.3743,-45.3041,373.7230,137.9292,197.6105,-258.1596,76.2748,-114.7921,195.7772,-226.9843,189.7627,-237.6471,89.8114,33.4718,84.6774
-1953.1250,-230.5554,-33.9887,-132.4595,-71.8651,-134.9987,140.5188,-24.8159,286.0621,11.6286,169.9442,-274.1823,24.2491,-130.3895,144.0131,-169.2836,249.2999,-324.6534,179.7328,158.7784,178.9285
-1945.3125,-191.0556,77.3881,-127.6606,29.0579,-92.9469,146.3696,-55.6430,255.1092,-19.9704,86.4563,-159.4957,139.9387,-125.2847,149.9593,-200.8970,144.5390,-178.9536,9.3351,-47.2456,5.4486
-1937.5000,-131.6023,67.7113,-102.9133,7.0944,-67.9466,99.1741,-140.5254,244.1004,5.3834,100.1827,-171.8588,129.5837,-100.2334,139.8557,-211.5566,134.7351,-189.3211,70.8996,47.6811,65.8087
-1929.6875,-225.3682,79.8406,-126.3756,31.8172,-165.1558,113.7851,-126.5986,258.8921,-126.4681,77.4247,-305.4297,143.0525,-197.3861,153.5668,-198.4095,185.7368,-177.8956,48.2493,60.3891,47.5253
-1921.8750,-107.9762,128.1230,-115.6891,89.3605,-117.2087,125.5485,-225.5239,344.8378,-41.1480,96.8593,-183.8463,155.6796,-185.3922,129.4267,-297.1133,161.8897,-24.3148,-43.2578,-137.7704,-49.2929
-1914.0625,-149.0408,86.9547,-123.4571,-11.7730,-160.7203,44.8564,-195.8975,301.3333,-85.2873,103.7189,-191.7192,74.8492,-229.8517,48.8352,-156.2605,228.6128,-171.2009,90.7923,-38.3719,84.1639
-1906.2500,-205.0951,208.7902,-181.2279,28.5366,-182.2352,61.1714,-180.2796,280.8330,-69.4233,82.3407,-139.5774,165.0474,-251.3052,102.2549,-140.4192,282.3372,-156.0833,-103.1862,-268.9968,-121.5584
-1898.4375,-123.1865,149.5743,-135.0450,21.0789,-135.8009,72.4375,-207.7221,218.2814,51.3920,101.8742,-57.4801,175.1951,-204.8161,76.6219,-130.6376,257.0146,-146.0169,-21.1972,-257.6669,-42.5411
-1890.6250,-177.0892,132.5614,-152.6724,10.0217,-190.1776,55.9053,-187.9618,127.9367,-149.6016,20.3123,-75.2023,195.5428,-222.1369,96.1828,-37.6488,313.9070,-198.7466,66.9806,-240.1385,47.3602
-1882.8125,-73.1887,166.3619,-119.4953,70.2579,-119.7508,90.1698,-191.4116,125.3973,-78.7671,-18.9884,31.8746,192.6934,-114.6607,58.5442,-76.8656,164.6014,-59.6654,-39.0536,-382.8304,-57.9239
-1875.0000,-43.9927,57.4637,-52.0219,-39.2967,-52.0286,12.7218,-85.5607,49.1505,-83.6362,-2.3116,26.2386,42.1417,-119.8961,-56.7955,-8.7658,123.6075,-171.2960,96.2211,-106.2101,89.1860
-1867.1875,-67.0928,70.2821,-75.8476,-20.2558,-75.6107,25.9805,-37.0164,62.6072,-144.7975,-46.8400,38.2979,18.2992,-107.4388,-43.4288,41.0238,65.3135,-124.2188,4.1753,-164.9104,-0.1456
-1859.3750,32.3619,29.6528,-11.1221,-16.2260,-10.6390,17.7877,-81.9285,17.6132,-5.3935,-27.0153,102.9072,-25.9958,-42.4308,-50.5213,-77.6430,-52.4314,-59.5976,69.6922,-65.0623,68.3491
-1851.5625,-44.9904,23.2205,-18.2037,-66.7667,-54.4760,-24.2043,-14.6368,-24.1794,-122.8024,-42.8113,-14.2957,-69.0795,-123.2270,-93.4094,-10.1137,-20.9668,-171.7909,134.4055,103.9904,139.9773
-1843.7500,-56.7761,83.3504,-30.7260,14.6281,-29.7514,37.3546,-63.8136,1.5835,13.3376,-22.8131,-26.9365,-6.6015,-98.4690,-67.7468,-59.0572,-68.9547,-42.4179,-16.3454,-47.4309,-16.0355
-1835.9375,-42.8101,28.2271,-16.4928,-42.5280,-52.2772,-20.3403,-49.2482,-19.9106,64.2146,15.6859,-86.8307,-28.3783,-120.9609,-89.3462,-7.2550,-53.1958,-133.3047,174.6830,107.9180,175.9252
-1828.1250,-94.4402,82.5204,-32.8597,24.6263,-68.4009,1.3662,-102.2839,-35.0058,-61.5192,-54.8776,-103.3221,66.2493,-137.0622,6.4518,-97.0547,-68.0427,-79.7767,123.0978,21.6487,124.6519
-1820.3125,28.5006,100.3747,21.3325,81.6023,23.0285,55.6175,-194.7814,-53.5631,30.2914,-51.2817,24.7525,121.4326,-82.6139,-12.2097,-263.3130,-123.3523,8.3142,106.0764,-32.0793,105.8192
-1812.5000,-38.9530,68.8311,25.1256,32.4318,-45.9470,61.4661,-153.6832,-121.5374,-75.3275,-62.2956,-81.5767,53.2161,-151.5703,-6.2706,-147.9686,-43.0528,-94.9975,214.6564,111.7943,218.4958
-1804.6875,-6.8966,171.8010,22.4282,148.3967,-11.4114,96.8196,-156.0968,-123.0095,-114.4411,-132.9292,-10.4011,161.5151,-117.0272,65.1691,-186.1410,-118.2560,78.2041,37.7199,-101.8592,39.3092
-1796.8750,119.4703,124.0769,81.0361,144.7645,10.4274,119.4617,-244.2185,-173.1957,-165.2690,-171.3582,11.0756,148.1097,-58.1885,14.9007,-201.0190,-168.1629,64.7041,200.1029,-9.2030,205.6307
-1789.0625,110.2933,184.8149,73.0951,164.5603,-34.2890,75.5607,-288.9026,-216.9394,-357.6619,-253.1111,2.0069,176.1641,-65.9012,44.0845,-208.4533,-138.6211,89.6630,155.9175,-54.1133,161.0214
-1781.2500,174.2349,215.6583,105.2636,183.0832,71.1015,34.7586,-293.4987,-184.5867,-213.9464,-229.2364,144.0512,209.3168,-33.5150,40.3667,-286.8012,-214.9847,154.7284,117.8365,-164.9315,119.5483
-1773.4375,108.3259,150.6446,110.5793,77.0281,40.6366,-31.8953,-176.9457,-214.0925,-318.1040,-232.0361,40.2390,106.6248,-27.9879,-26.2036,-133.0016,-171.1935,-16.0580,262.9122,15.4099,271.8443
-1765.6250,77.9787,156.1967,80.4510,132.7095,47.7288,13.0029,-169.8506,-132.0491,-273.7153,-207.2593,46.9788,150.4993,-20.9076,18.7775,-199.6732,-162.8668,93.7200,92.5158,-119.7208,99.5311
-1757.8125,181.4404,119.5572,114.1293,102.1084,81.6248,11.6953,-171.9631,-133.2181,-165.5339,-150.5968,44.5253,76.1674,13.9763,-19.4516,-238.5580,-163.7546,91.2945,160.9419,-17.0510,168.9872
-1750.0000,100.0077,146.0333,68.9110,95.4804,0.6174,4.4819,-106.9791,-177.2919,-284.2794,-197.6291,35.1752,31.9401,5.9565,-26.5798,-172.3484,-133.5537,80.9733,152.4643,-27.2913,161.8417
-1742.1875,158.9495,204.8748,94.0535,150.6891,60.9715,29.6115,-118.6529,-188.0296,-147.6640,-182.4145,133.1897,94.0668,66.2864,-0.3736,-257.8107,-181.0230,175.0215,35.3366,-144.1954,38.9288
-1734.3750,80.1413,126.9679,87.4469,57.9658,54.5698,-13.0185,-15.0826,-230.5256,-154.8166,-147.6854,52.4437,14.4408,59.8602,-79.9241,-117.0236,-113.2421,25.3107,203.4706,22.1642,211.1914
-1726.5625,32.1420,220.8707,39.6425,142.1131,43.9709,13.1578,10.2791,-240.2143,-202.1787,-199.1242,78.5039,115.6277,49.2365,-17.6691,-164.4633,-122.6567,118.4073,86.3801,-165.6981,90.6624
-1718.7500,198.7595,282.3607,140.4445,186.3612,108.9713,4.9325,-71.7711,-285.3072,-136.9464,-225.0902,142.1747,143.4158,40.2080,-25.8168,-283.3178,-240.4750,179.1044,182.9097,-174.9482,188.8105
-1710.9375,144.6852,264.1581,123.5522,203.2690,55.2703,26.0080,-89.5227,-301.1020,-337.4400,-283.9288,52.1399,164.5153,-13.5264,-41.6608,-263.8807,-220.0025,161.1080,235.7274,-88.8950,249.0710
-1703.1250,220.6289,270.9689,129.6678,267.7227,97.5853,70.0743,-192.2776,-220.9048,-257.9195,-282.3006,131.1288,245.6278,-7.2567,2.4889,-330.4618,-285.5574,272.1280,136.5359,-257.8618,145.2248
-1695.3125,240.9337,222.1278,152.1419,168.6481,83.2513,56.4741,-169.6777,-234.3772,-272.0538,-261.8178,153.4728,121.0761,-21.6364,-48.0369,-271.6914,-262.7707,116.5000,263.7064,-97.4541,275.5050
-1687.5000,144.6083,231.6435,88.9793,163.1693,57.2770,31.2234,-195.7257,-149.5106,-297.8267,-247.7194,127.1692,95.8689,-10.6646,0.7779,-223.5681,-213.6494,161.2433,97.2032,-192.7111,104.6944
-1679.6875,233.1629,180.9964,144.6829,135.3741,113.1653,50.7976,-213.9226,-93.8138,-131.7280,-158.8194,182.7405,42.4967,45.1655,-53.5719,-241.5935,-193.6950,179.8537,46.5554,-174.1147,51.6632
-1671.8750,148.5774,61.1989,93.2513,44.4262,25.9106,0.2066,-82.2545,-143.2846,-181.7905,-135.3514,57.1736,-45.0305,30.8561,-67.0880,1.2307,-97.9055,94.3144,32.7419,-13.6592,39.1134
-1664.0625,200.5748,113.9630,73.3886,116.5872,43.2289,-18.8415,-65.0408,-125.2189,-92.2948,-138.6438,111.1804,82.9913,48.1035,-12.0665,-55.4145,-151.5966,217.3560,-125.5361,-171.6766,-125.7574
-1656.2500,200.0790,79.2269,110.0333,46.5510,79.0467,-92.4008,-28.3274,-160.6708,-128.3225,-139.0196,184.6879,47.5039,47.8502,-85.5538,-18.5599,-150.7915,110.8948,-19.3073,-32.1803,-15.9929
-1648.4375,107.9577,92.8467,88.0383,61.5628,57.2248,-113.6114,-13.2655,-145.7722,-222.9896,-176.7206,199.5606,99.3751,25.9488,-106.6975,33.6317,-135.6536,124.8061,-111.7634,-125.3467,-108.7799
-1640.6250,198.6002,79.2113,108.7998,69.5126,115.1554,-128.0887,-66.4470,-124.1312,-55.9081,-120.3460,293.1872,83.9852,82.7997,-85.1134,-56.4242,-149.7755,215.4679,-159.4559,-173.7381,-162.1695
-1632.8125,152.9497,34.2857,98.2650,-5.6991,67.7895,-137.8783,-2.9249,-206.7971,-139.1426,-134.0836,172.5188,-35.7075,72.3458,-130.8391,117.2231,-87.2070,98.8457,-29.4646,-44.4336,-28.3570
-1625.0000,140.5861,92.6196,83.9987,53.2124,90.6880,-114.4272,-54.1614,-183.2285,-43.1207,-130.9637,195.1280,24.8380,95.1484,-107.3371,67.1190,-135.4146,192.4969,-146.2389,-197.8862,-150.6392
-1617.1875,176.3842,-11.9050,119.8936,-18.3345,90.7359,-113.8467,-91.2481,-109.5327,30.0271,-49.5581,119.8960,-85.4893,95.1002,-143.7071,66.1831,-98.4788,122.3002,-5.8562,-57.1651,-6.4801
-1609.3750,48.4596,-33.1765,62.0504,-15.9627,32.0417,-135.0246,-40.0842,-58.5975,-101.5754,-59.4442,61.9272,-33.5661,36.3095,-127.8332,81.4887,-47.3152,100.3748,-62.2565,-8.2100,-59.2474
-1601.5625,124.8064,-26.2048,68.4701,18.9838,111.6103,-127.9679,-70.6722,22.5703,52.0691,4.3219,178.2193,-26.4030,79.7775,-194.7222,-59.9592,-111.9227,212.7038,-160.3938,-1.9931,-157.4898
-1593.7500,103.0599,-118.3292,83.7998,-114.2520,91.0809,-222.0257,19.6464,-34.3822,67.5920,60.2852,120.4230,-192.3420,95.1434,-288.7197,66.4826,-59.6396,83.9446,-112.6371,292.1212,-105.3452
-1585.9375,143.2478,-147.5441,93.0489,-108.6651,63.4668,-249.1927,101.8543,-24.4493,224.0182,114.9006,129.5554,-184.3856,104.4130,-205.8321,149.8043,-12.4797,195.1067,-351.9953,121.1244,-354.3613
-1578.1250,180.9452,-248.2641,132.8068,-146.9767,140.3538,-245.8756,141.5607,-58.0379,337.9258,153.3414,132.2022,-216.9331,107.1834,-166.4507,225.6151,-45.8309,162.7720,-278.8385,229.6434,-279.0263
-1570.3125,63.5637,-191.0814,81.4747,-94.4451,52.1506,-150.6656,164.1707,-71.7349,102.7351,74.5206,6.7722,-120.5760,18.8562,-106.1783,211.3163,14.7037,80.3598,-185.8105,216.0461,-180.9099
-1562.5000,126.9045,-21.2062,70.8532,44.2421,78.6501,-50.7663,5.4810,-81.7479,128.2543,37.4904,33.0466,53.4705,8.2317,-43.2225,-20.2801,3.9205,179.6564,-191.0731,-0.8364,-194.2017
-1554.6875,82.6029,-29.9813,59.5817,-22.4066,-6.5004,-96.5230,31.1467,-165.4219,81.1071,57.6086,-52.3311,5.8605,-3.0428,-88.9286,79.4769,141.4698,64.3120,-59.9877,129.6428,-65.9175
-1546.8750,30.7342,-46.3537,5.7320,24.2676,-60.2332,-76.8834,88.2128,-181.7083,101.3692,37.5409,4.7112,26.6427,17.0893,-33.2441,135.6284,125.3812,188.3871,-181.5305,7.5222,-190.8923
-1539.0625,156.6714,-95.9397,64.6873,3.0636,35.8353,-91.4603,73.0784,-233.2083,196.4163,48.1082,99.5646,-61.7959,112.0265,-47.7704,120.5883,74.0840,243.2582,-125.2620,27.2342,-133.9979
-1531.2500,117.4235,-134.7305,61.4538,-64.2402,33.7146,-130.2442,106.7531,-234.9121,10.2581,20.5273,60.2309,-136.4419,72.7710,-86.5097,155.3432,145.5604,133.9455,-60.2215,128.7472,-62.0396
-1523.4375,148.9987,-67.7289,93.0354,-17.1805,101.4052,-134.2386,65.2300,-165.8272,41.9066,5.4202,128.7069,-68.2991,104.3233,-17.4692,39.8939,67.8071,200.4427,-203.3781,-15.9189,-207.1394
-1515.6250,79.9770,-134.3329,59.0194,-51.3379,67.4943,-131.8483,103.1119,-163.3546,43.9336,23.1331,93.5915,-65.7648,70.2747,-52.0421,78.8429,33.4458,96.3443,-26.1338,196.8345,-24.0289
-1507.8125,28.7886,-81.1310,5.8181,-1.3587,14.3941,-111.6693,123.7957,-142.0900,-46.2370,-26.6542,77.3006,29.5649,17.0295,6.1642,98.5794,17.8613,115.0696,-112.1136,109.3823,-111.1803
-1500.0000,161.5649,-18.9846,69.5772,15.6111,78.2505,-84.5591,77.4237,-151.8912,54.5292,-29.1415,140.9762,-17.1719,80.7377,-40.6966,15.2613,-64.7851,141.7463,-15.1304,30.9084,-14.5322
-1492.1875,110.3101,-33.8897,90.2980,-15.9102,63.0610,-99.5087,62.0014,-203.7529,-107.7662,-75.7444,52.6158,-104.9585,65.3969,-55.6115,73.8821,-43.5004,91.3934,110.7829,156.3876,119.3621
-1484.3750,186.2377,42.3524,95.1824,67.4752,68.0313,-58.3163,-7.2727,-198.4768,-29.9059,-113.4115,167.4171,10.3909,106.2130,-13.3942,-32.3482,-147.0981,202.2096,-60.1598,-50.9696,-59.1070
-1476.5625,171.8630,28.2869,117.7719,12.3694,126.6993,-108.4401,15.1586,-212.5137,-7.3636,-87.4099,115.9183,-3.5702,91.7277,-100.4875,-9.8764,-161.0058,81.7326,66.6015,110.3970,72.0797
-1468.7500,44.0156,41.7281,95.8742,3.3514,67.8804,-130.0724,66.0916,-197.0594,-103.3160,-118.2515,56.9423,48.9694,106.7488,-86.0954,78.0785,-145.4430,24.7844,-25.1666,88.2579,-19.8645
-1460.9375,92.4852,20.4618,109.2858,18.0762,155.3634,-80.4241,79.3271,-146.3211,58.0297,-76.1911,107.2782,25.7907,157.0732,-35.4248,18.3326,-205.5976,73.1433,-47.6221,-3.5597,-43.3540
-1453.1250,28.9661,-42.8064,117.7019,-65.2732,126.8513,-108.7922,124.5720,-174.5919,-7.6313,-64.3837,5.6246,-113.3997,128.3959,-26.7652,136.5927,-159.7669,-25.4849,29.8997,178.6281,40.1139
-1445.3125,32.2276,-4.3294,83.8880,13.9480,130.1020,-31.4186,90.5691,-99.1213,32.4706,-65.6361,44.7358,-35.8516,94.4752,13.6340,65.5975,-193.2126,82.6542,-142.8424,5.5726,-135.6556
-1437.5000,88.9471,-88.4152,105.5286,-38.1072,114.8039,-46.6069,112.0186,-77.2207,90.0046,-16.6613,30.3002,-87.8650,116.0112,-38.5274,87.0552,-171.2189,34.2492,-51.1191,96.9923,-42.6067
-1429.6875,4.7425,-31.4453,54.2354,-29.6272,27.5688,-60.7494,97.5248,-54.2820,2.5905,-46.3157,15.9373,-64.8283,64.6041,-52.6528,146.5542,-148.2131,19.9182,-100.3711,47.4541,-94.2962
-1421.8750,135.5560,-6.4815,78.9492,46.3882,52.3375,-35.9046,49.0290,-29.3600,100.1769,-47.1679,113.5916,34.1916,89.2027,-27.7934,24.0514,-197.2306,150.5884,-144.6081,-139.0625,-143.9645
-1414.0625,80.5782,-25.3255,59.8693,-4.6262,-3.6904,-54.8693,65.7385,-85.2473,7.9443,-38.5332,57.4586,-21.6021,34.0027,-83.7380,114.7464,-70.0645,60.4693,-23.6539,-17.3663,-22.1440
-1406.2500,74.7825,73.9811,17.9579,32.8586,-9.5531,-60.6890,23.5965,-53.9894,1.8666,-50.6170,125.4927,9.7451,-9.0376,-52.5477,71.5783,-38.7833,125.5231,-169.5644,-198.5166,-175.3785
-1398.4375,176.5372,-0.1708,84.6054,-31.0894,21.1365,-102.9765,-19.9944,-23.1952,69.3269,10.7073,156.0803,-106.3722,21.4727,-94.8275,65.9576,-7.9654,120.1293,-104.9079,-99.0854,-109.5985
-1390.6250,73.5636,-32.0710,16.5112,-58.7682,-10.9146,-99.0244,57.6771,-18.1574,-73.9634,-16.5070,86.9327,-138.2469,-10.7591,-53.8739,106.5877,34.0733,53.0055,-102.0258,-25.4067,-101.4180
-1382.8125,123.2558,-18.3253,30.0766,5.3778,39.6950,-48.4388,35.0049,-4.4820,50.4011,-17.2995,174.4434,-51.4852,39.6645,-40.2850,9.8701,-63.2619,137.5351,-157.4827,-153.0560,-159.7006
-1375.0000,73.6957,-67.8408,52.3910,-79.1239,26.0508,-99.1105,94.0979,-18.0639,-0.5016,0.7054,123.6979,-173.9900,61.8410,-126.9443,68.9099,-39.8466,17.8145,38.8034,44.0672,44.4581
-1367.1875,0.0077,-35.5186,12.5679,-37.2290,22.2702,-28.9297,17.0465,52.1990,-41.5345,-12.5088,119.8139,-141.6553,57.8802,-57.7651,28.8015,-43.6024,48.9535,-71.0870,-29.9567,-66.6903
-1359.3750,56.5217,-85.0136,33.9483,-44.6823,43.6866,-7.5668,1.1998,73.6520,89.6318,48.0044,104.1360,-120.1439,79.1190,-36.3946,-24.0984,-59.1648,35.2898,-49.7605,61.2508,-46.3885
-1351.5625,-55.1023,-126.6621,-9.8148,-87.8964,-37.0391,-14.3566,104.2150,66.9563,-27.3531,44.6581,-86.6825,-126.7906,-0.7849,-43.1832,152.8441,8.1038,-77.5094,-56.6124,195.3094,-48.4983
-1343.7500,-24.8082,-96.4151,-53.6693,-16.0391,-6.8549,15.7454,97.1329,97.1486,112.5707,61.5569,-56.5898,-23.5472,29.2203,23.9138,35.6854,-35.7559,23.5974,-96.5599,14.2830,-94.9084
-1335.9375,-0.0659,-106.7200,9.9267,-86.3345,19.7773,-31.7147,86.5149,49.7790,65.9299,65.1766,-104.0518,-106.8565,55.6768,-23.5460,61.9791,-9.1825,-92.8483,68.9461,179.7281,74.9978
-1328.1250,-51.0008,-87.7170,-6.1632,-57.9079,-33.2787,-47.8764,70.2019,70.7002,-61.4074,30.7344,-83.1928,-49.8620,2.4370,-2.7176,81.5625,48.6535,-37.9757,-88.2712,92.4718,-84.0598
-1320.3125,3.3710,-68.4258,13.0519,-45.1828,22.9642,-28.7486,16.1891,125.9110,68.5461,79.3405,46.9776,-67.5884,21.4959,-20.5980,27.4422,30.7743,16.1955,-104.1682,41.5499,-103.6475
-1312.5000,-48.6438,-85.5429,-41.1278,-76.8574,-68.1897,-83.0229,35.7846,72.7200,-59.9126,31.3999,-7.2441,-84.7197,-32.8383,-37.8868,193.9191,50.4842,-36.0239,-15.4856,130.2327,-14.0926
-1304.6875,4.6121,-32.4178,-60.0451,12.0136,-87.0832,-28.0569,-20.3653,90.7731,-5.1142,20.1720,47.7991,-29.6060,-14.9157,17.0622,100.6428,31.4213,122.0160,-103.5542,-63.8254,-107.8582
-1296.8750,47.0636,-95.1033,-15.7640,-57.7481,-42.7764,-57.8989,23.6910,61.0184,38.8659,62.7303,18.0433,-95.3073,-7.7926,-49.7913,144.5693,75.5491,24.2515,44.5883,49.3414,42.9584
-1289.0625,-40.3186,-42.6394,-33.3205,-16.1756,-97.3091,-38.5883,42.9061,6.4086,-53.0000,17.8269,-73.5479,-39.8634,-62.5048,43.4939,126.6356,94.8046,41.6460,-44.1388,31.6561,-45.3272
-1281.2500,53.0008,-19.4868,-10.1729,16.7541,-37.1394,-15.5868,28.8263,29.4899,116.8305,49.0328,-13.4325,-16.7319,-39.5140,29.4677,2.3999,6.7419,99.7384,-56.1404,-51.3013,-59.3496
-1273.4375,-48.7296,-85.3891,-43.0752,-66.5259,-70.0175,-48.6400,69.7053,33.5163,84.6034,80.4018,-119.3685,-49.6551,-108.5703,-3.6116,116.1196,47.6108,-72.2149,53.7992,164.7035,54.4419
-1265.6250,-101.1960,-68.0470,-98.7174,-17.4133,-124.6333,5.5548,49.8420,124.7906,137.6408,88.7784,-66.0420,41.6658,-91.3711,50.5432,97.0898,27.6951,-19.9111,-104.0129,5.9662,-110.0243
-1257.8125,-74.2600,-146.3144,-71.9574,-104.6449,-61.8484,-4.8638,39.3864,151.4516,201.0583,140.0625,-2.3187,-41.6306,-64.7701,40.0942,123.4608,54.1723,-133.2081,-43.4048,102.6548,-49.6050
-1250.0000,-200.7561,-203.0326,-129.6360,-153.5907,-119.5038,10.2679,54.4865,165.6549,106.0194,147.0790,-61.0277,-63.3846,-50.6081,55.1970,211.3766,179.1862,-224.9366,-65.2729,115.8911,-73.5034
-1242.1875,-113.8921,-152.4125,-113.9579,-104.7342,-67.8078,25.7421,106.9418,181.1965,305.3318,179.4942,28.6223,-11.8006,1.9028,70.6398,79.6524,84.5249,-139.3188,-154.7760,-9.4987,-167.0897
-1234.3750,-212.9846,-145.7409,-142.2399,-184.4723,-96.0730,-39.7382,225.4555,152.7912,276.6789,186.5337,-73.6816,-76.1678,10.4618,-31.8741,160.9755,55.8994,-307.6491,-43.2340,209.1763,-48.9024
-1226.5625,-251.5527,-113.5662,-183.0113,-127.5299,-99.8326,-6.7176,221.4709,185.8940,272.5395,154.8937,-77.4691,-44.0386,6.5280,38.0992,156.7823,14.7458,-206.4650,-187.2023,29.3492,-195.0385
-1218.7500,-154.2681,-192.5558,-118.9328,-171.7732,-36.7433,-16.8597,248.3398,175.8371,335.2379,179.8597,-13.4008,-89.0732,33.4449,-9.0886,146.4434,4.4312,-249.4380,-55.2999,56.3970,-60.5723
-1210.9375,-247.0736,-215.6407,-141.9538,-211.9247,-95.7544,-3.1058,298.1127,189.6793,164.8407,143.0169,-73.4223,-149.2090,10.2670,4.6213,233.9984,54.9950,-343.4884,-8.5206,103.3368,-8.3878
-1203.1250,-161.2119,-165.0782,-90.3132,-134.8408,-44.1126,49.2904,166.5358,205.1664,254.1014,142.1466,53.2156,-60.7038,62.7442,56.9674,65.1934,33.1832,-221.8813,-97.0806,-92.0552,-104.3645
-1195.3125,-138.6516,-213.8177,-67.9757,-190.4828,-20.7744,35.3765,152.6680,191.3461,129.0406,154.1305,-34.4402,-147.5102,48.9198,6.0051,88.0914,130.0630,-305.5735,64.0636,105.2675,64.0722
-1187.5000,-118.1130,-121.6051,-81.6797,-106.7822,-34.4784,58.4108,28.7517,214.4725,4.9434,107.0530,-48.1245,-88.3739,-1.9482,65.9850,-0.0653,151.8653,-179.2968,-55.8558,21.5371,-57.1541
-1179.6875,11.8193,-98.0057,-20.9805,-63.9770,26.2128,81.8389,-58.7562,237.9871,65.2475,126.7256,12.5844,-100.8570,-15.4186,15.3527,-122.8117,102.0552,-85.6279,2.6479,45.2432,4.3539
-1171.8750,-42.6531,-152.8101,-39.6874,-93.5915,-66.5024,62.8710,-77.6534,182.1041,-27.8449,102.3087,-80.1113,-119.7454,-71.2890,-3.6775,4.0389,119.8352,-138.3468,89.7322,202.5542,94.2365
-1164.0625,-72.5609,-112.0671,-34.8382,-20.0517,-24.6619,104.4543,-109.0047,223.7706,87.6212,113.7145,-38.2534,-43.0880,-66.6085,74.8452,-65.5703,50.1446,-29.5099,-11.6286,66.4286,-10.2146
-1156.2500,-99.3255,-139.1791,-24.8393,-82.0404,-14.6795,77.1868,10.7993,196.5805,60.2126,122.5210,-138.2559,-106.2870,-56.7796,47.5151,-19.0295,22.5932,-160.5311,102.1739,285.4745,112.3243
-1148.4375,-112.6804,-83.8863,-38.4389,-11.0018,-28.2916,99.3250,-2.9965,145.7978,-64.7869,46.6467,-151.8473,-47.0859,-70.5458,70.5846,-33.0979,8.4181,-70.1437,53.3590,201.9146,65.0413
-1140.6250,46.6572,-30.9131,53.6568,39.6727,99.7914,81.1586,-96.0872,90.7162,-10.0876,20.8182,13.2617,-29.2064,21.3825,14.3477,-198.4545,-48.0482,53.9278,106.2619,79.0836,116.4537
-1132.8125,33.6844,-44.2432,76.4452,-1.6657,50.5673,30.6977,-72.4711,40.3411,-206.6952,-22.9249,-36.9352,-115.6308,-28.9893,-36.1781,-139.1095,12.1805,5.6957,233.8543,206.9489,251.7946
-1125.0000,51.7244,44.4245,58.2387,79.5711,68.3524,85.2431,-127.8509,57.9620,-189.2854,-54.2494,17.8782,-62.0504,-11.3523,18.2927,-231.7730,-44.6213,128.4684,40.4527,48.8191,54.5865
-1117.1875,101.4027,-82.2613,72.6782,1.9684,82.7794,62.4361,-77.5704,72.2163,-138.2405,-17.8399,-41.6652,-83.8279,2.9380,-4.5909,-143.7809,-66.7892,2.8901,159.7240,204.3609,177.1426
-1109.3750,-19.4539,-63.4924,19.5722,-5.4204,-7.3387,83.0820,-19.8324,92.9167,-191.7356,-24.4620,-94.7414,-64.1505,-13.3132,15.9727,-51.3474,-10.5370,-49.2236,73.4285,153.3417,88.0534
-1101.5625,31.5472,-12.8864,35.3249,37.3582,82.4021,61.5702,-4.2402,108.4526,-30.3779,20.8878,-4.9655,-48.6364,2.2942,-5.6233,-145.0560,-32.4521,72.5090,19.0083,28.1954,29.9855
-1093.7500,-14.6550,-24.4777,60.8794,-5.0082,33.9412,12.8522,-15.8352,22.7716,-188.2316,-28.8745,-90.3907,-96.3227,-9.2924,-17.4196,-84.9517,-7.5788,-8.9540,147.3805,192.8502,163.8691
-1085.9375,53.8583,79.6306,59.1432,111.9338,69.1938,84.8323,-127.7211,20.7778,-264.3653,-116.1017,-55.0978,11.6869,25.8346,17.4764,-196.1462,-83.0361,129.2912,40.4501,-19.7936,54.9271
-1078.1250,144.4068,64.7811,115.4503,89.6575,89.4940,67.8528,-143.5445,3.8211,-207.4601,-108.1259,-34.7569,-42.2651,46.0133,0.4186,-213.2740,-136.4505,114.5756,165.5854,35.6432,182.1952
-1070.3125,86.7046,41.6772,56.5082,76.2277,29.5453,44.6334,-57.6134,-19.3828,-303.7967,-123.4689,-94.6643,-28.4629,-14.0489,-22.8810,-126.6545,-51.1257,91.6209,142.4532,12.8227,158.9919
-1062.5000,195.0054,43.5584,56.5705,115.2236,66.6053,44.4241,-93.6741,-19.5956,-120.1288,-103.1724,53.4257,45.3317,22.8978,13.8237,-163.0262,-123.8192,199.6586,3.3374,-124.9716,10.1269
-1054.6875,125.2430,8.3811,57.5784,60.5410,-6.3927,8.1701,-56.7698,-90.8604,-119.5225,-85.6720,-56.5378,9.0762,-13.2013,-22.5103,-53.4320,-86.5773,94.6375,145.1684,51.1937,153.5482
-1046.8750,81.3414,70.0516,11.4415,147.1127,-52.5311,35.7739,-66.0103,-64.2713,-93.0444,-95.3585,-101.6377,110.6728,-59.4442,42.0037,-25.9931,-96.5093,226.4709,-40.1619,-98.7939,-37.0299
-1039.0625,171.4764,89.7536,68.3501,134.0535,4.3765,18.4185,-82.1857,-80.6302,-37.5197,-79.6512,-45.6954,93.3007,-39.6367,-12.4394,-79.4915,-114.3894,211.3383,14.5780,-78.6995,17.8899
-1031.2500,42.1524,99.9993,6.8051,95.8124,-57.1652,-6.3831,-70.8031,-69.4321,-171.4354,-108.4753,-70.2058,68.4768,-64.2700,-0.3305,-31.4417,-66.7201,115.7590,60.8486,-33.0600,65.2534
-1023.4375,63.2344,155.6320,-9.3354,140.8036,0.6980,51.2119,-122.0120,-48.8346,-41.9295,-86.0028,61.6848,126.0364,-6.4977,20.1694,-156.9815,-82.6586,171.5760,-59.4694,-187.0063,-63.1377
-1015.6250,12.4987,69.4545,11.7157,19.3121,-15.2467,-2.0010,-29.0060,-65.0426,-21.2300,-16.2581,-28.2285,35.7868,-22.5247,3.8674,-64.2963,46.5982,-20.4158,100.4153,-27.7439,97.8336
-1007.8125,-71.2268,91.2766,-38.2277,38.2408,-28.1854,21.7887,-4.9945,-5.2498,-34.5035,-19.9044,-4.1281,59.5344,-35.5409,27.5661,-40.6148,69.8338,2.5969,-18.7094,-180.4891,-24.3484
-1000.0000,-14.6070,77.4341,-16.8193,25.9385,30.2243,42.9276,-20.6272,-21.1138,133.5770,16.4092,54.3129,43.6145,22.7962,11.6086,-56.5747,16.4145,-12.0541,38.5405,-193.8510,29.4494
-992.1875,-103.4473,58.1368,-35.8685,-29.5987,-62.8190,-13.3815,34.2983,-40.4243,41.2143,3.3349,-111.7070,24.2493,-33.3111,-7.7986,108.0264,33.5393,-135.1485,124.3263,-37.6652,119.0172
-984.3750,-94.8841,136.2339,-64.5111,45.7261,-54.4552,31.7101,79.6305,4.6595,196.2689,32.5759,-103.3314,106.2800,-25.0140,37.1933,80.0337,-32.9507,-22.8445,-112.4726,-169.0679,-123.3274
-976.5625,-109.0919,16.5736,-114.9109,-75.8651,-68.8518,-19.9491,175.2212,-10.0142,291.5579,115.4016,-117.7161,17.5549,-39.4646,-14.5633,175.3069,25.8088,-177.3018,-58.0047,62.7994,-69.4975
-968.7500,-206.4984,-11.2828,-178.5138,-76.0218,-132.4432,-10.7973,221.6166,36.1123,227.6589,113.4977,-109.2957,26.6322,-67.1050,31.4857,221.3769,71.3565,-168.9519,-154.7495,35.4570,-166.9090
-960.9375,-113.0670,-59.3020,-155.2683,-79.3225,-73.1856,12.2019,170.8760,96.0829,360.6161,152.2624,-12.0302,12.5484,-6.8914,17.3804,133.3150,-17.2516,-145.7690,-131.6288,58.9970,-143.6349
-953.1250,-153.0561,-100.7310,-125.4328,-145.2599,-79.3335,5.8057,164.7561,89.6509,133.1790,107.0052,-92.1742,-67.9352,-50.0743,-26.1176,200.8706,12.7343,-292.9893,2.0805,264.1457,1.5146
-945.3125,-136.8925,-50.0147,-145.4448,-57.3646,-63.3247,58.5652,106.7921,141.3670,111.9217,67.7733,-39.1652,21.7288,2.9008,63.5307,69.5830,-46.1500,-172.0580,-122.0516,104.4501,-124.6513
-937.5000,-120.1408,-68.7061,-128.8577,-96.4778,-46.7240,37.9234,123.4307,157.6739,128.2523,89.5023,-95.5644,0.9794,19.4730,5.7764,85.9069,-66.4301,-260.5359,-1.5597,227.3751,-0.3351
-929.6875,-249.1854,-57.1934,-152.0706,-88.8234,-105.9188,51.4852,137.2729,171.1803,-5.2008,42.9767,-118.7593,14.4337,33.2510,19.2283,135.4242,-54.5203,-283.8037,-24.8764,204.4843,-21.2122
-921.8750,-87.6848,-105.1344,-94.7344,-47.6590,-11.5639,72.5963,48.6717,155.2278,89.9002,59.6526,-24.4008,-1.5667,91.5877,40.2205,46.4962,-70.0670,-121.5270,-38.6150,120.1603,-37.0794
-914.0625,-106.1435,-124.0186,-77.3495,-86.3748,-30.1638,16.7602,67.1187,100.3157,-39.9603,40.5122,-79.9893,-57.5103,35.9752,-15.7357,100.6227,-16.5739,-176.1992,118.7014,277.8834,126.8230
-906.2500,-115.0905,6.6067,-86.4595,36.6570,-39.2541,44.4297,21.0591,90.8968,-49.3062,0.6513,-52.0689,81.0518,-10.1302,48.8088,-18.7626,-26.5958,-9.3604,-66.4779,58.0952,-63.8404
-898.4375,-24.7965,-9.5216,-29.3166,-30.6191,17.9014,-9.6548,4.2562,36.7189,7.5839,47.4378,-31.9108,-10.1439,10.0118,31.6021,-35.8842,66.6355,-60.2847,24.6136,113.5733,24.2822
-890.6250,-125.1543,-4.2924,-59.8285,-51.3112,-49.5972,-3.3816,10.8022,42.8898,-133.1704,33.0324,-62.3995,-3.9815,-20.4947,0.7560,44.3427,182.2122,-125.8463,-5.9572,118.3841,-7.0660
-882.8125,6.1429,55.5793,-34.6921,58.1926,12.5531,58.5447,-110.9997,67.7046,-35.2658,12.2896,73.7641,94.8268,4.6493,25.5618,-150.7748,59.4379,40.2357,-51.8574,-32.1434,-55.8535
-875.0000,22.3724,1.4005,20.3849,13.2105,30.6446,2.4280,-129.8459,-25.5368,-127.4212,-14.6742,54.8722,38.5927,-14.2598,6.3199,-169.9286,76.6208,-13.7390,140.1944,125.2755,142.6539
-867.1875,54.1103,32.7255,16.9642,64.0807,-9.7611,72.8222,-206.1979,-29.2845,-167.0557,-49.0745,87.4865,34.8702,19.3395,39.5840,-173.5840,108.2956,87.7911,31.7447,-53.8201,29.1130
-859.3750,149.3825,-48.4050,42.0900,31.5316,15.3726,60.7638,-217.9961,-41.4943,-70.1401,-12.6913,112.6395,22.6961,44.4877,27.3987,-148.6730,96.5265,77.8556,56.8753,7.6511,52.3877
-851.5625,-19.1547,-6.3306,13.4075,-22.8670,-13.2974,-5.0864,-63.5916,-33.5058,-171.0177,-22.2364,10.9920,-6.2689,-21.1624,35.4206,-68.5623,139.9549,-56.8741,63.2017,49.3046,63.4673
-843.7500,-1.5902,80.8448,-6.1721,48.7666,41.1360,12.1673,-9.0887,-16.4271,-44.7809,-28.1116,101.4512,84.8633,33.2929,52.5418,-160.3515,46.4770,31.4943,-25.3503,-142.9413,-29.4013
-835.9375,-40.2937,42.7666,-9.0110,1.8249,1.3106,9.1741,25.1695,-56.6054,-84.8072,-32.7517,25.6470,44.7462,30.4910,12.4193,-54.3759,42.7543,-77.3974,112.8609,29.5697,113.1911
-828.1250,-113.6470,74.0457,-49.5019,76.2328,-39.1663,79.5413,58.7748,-23.4335,-124.4583,-45.8446,-51.8093,77.9910,-9.9568,82.6565,-131.0511,38.3748,25.0690,-31.5909,-44.5854,-28.3038
-820.3125,12.1878,58.5161,7.2040,78.4869,17.5503,99.1100,4.5796,-4.0706,42.0954,7.8040,-32.0727,60.4312,-27.2017,102.0944,-258.5127,-16.8043,44.7201,24.1840,-24.5206,27.0315
-812.5000,-72.2404,44.7381,-80.3480,24.8053,-69.9907,85.4405,101.1328,-17.9602,-45.6048,5.9592,-118.5865,9.6275,-113.6948,51.2937,-89.2152,42.7700,-74.8765,115.7050,103.2792,121.0152
-804.6875,-86.2188,100.4062,-131.4485,96.5518,-85.0797,142.2270,49.1363,39.5955,49.1702,-9.6377,-24.6410,104.2781,-92.7305,108.9444,-68.4645,-48.2154,16.9700,-39.3149,-86.4656,-42.1518
-796.8750,-34.7177,10.5650,-115.0608,24.3452,-104.6801,158.5176,65.6534,18.6404,65.4378,9.2854,-8.2076,46.4274,-76.2682,88.1064,-15.1889,-32.6963,-106.7033,83.1760,36.3038,81.3345
-789.0625,-116.2199,33.7279,-164.6748,44.0368,-154.2781,145.8143,53.1706,5.6845,-21.2727,-14.7899,-20.7723,107.5933,-124.8020,148.2778,9.0866,64.8258,-85.3718,-0.3497,-81.9439,-7.8714
-781.2500,-65.9788,119.6306,-111.5401,65.3204,-101.1271,88.8597,-4.5580,21.4703,141.7738,39.5353,-4.5963,86.5105,-108.5853,128.1897,-84.8755,43.1055,0.6967,15.9032,-135.4214,4.3870
-773.4375,-116.9576,102.3393,-92.6126,21.4259,-118.1871,34.7134,15.5153,4.0528,-22.3865,20.7634,-167.6276,32.2387,-162.5704,73.9095,-29.0311,99.1833,-86.4390,174.9599,23.8965,172.7469
-765.6250,-86.5870,204.4011,-96.3341,114.4699,-85.8919,104.9257,-62.0668,36.9825,-26.1755,-31.4826,-98.3118,102.3247,-166.2028,142.9876,-141.8371,20.6023,15.7794,101.3749,-190.4396,96.6868
-757.8125,-72.0396,112.6618,-45.8625,42.3143,-35.4076,82.3383,-47.4392,-22.9028,62.2369,-8.8095,-83.8145,42.6027,-114.6405,84.2696,-55.4128,-2.7717,-75.8209,222.0120,-104.5620,218.1687
-750.0000,-226.6011,167.8282,-132.4986,27.5520,-122.0272,30.6622,49.0891,-0.8923,-26.4266,-25.3082,-171.4130,64.7913,-129.1767,69.4586,77.9179,55.7530,-124.5145,136.5411,-154.8048,130.1273
-742.1875,-162.8636,196.2823,-103.8341,87.5453,-57.3500,59.2858,3.9224,27.4063,149.2265,3.6531,-105.7148,130.2719,-64.4071,97.9512,-41.4367,-27.4190,-26.9227,130.3961,-265.7341,120.0846
-734.3750,-154.5509,169.3336,-95.5820,61.8198,-85.0814,67.5193,-24.6371,-37.6970,-26.5245,-44.3653,-171.4288,64.3548,-92.0410,69.0572,3.8259,17.0190,-87.7399,314.8490,-117.0631,311.6385
-726.5625,-121.4875,273.1390,-97.5776,137.1916,-87.0608,102.5115,-135.4523,-40.0532,-64.5071,-94.8967,-99.3904,136.1970,-93.9176,140.9180,-107.1643,14.2049,14.2019,172.0529,-329.6500,161.8364
-718.7500,-38.7385,214.6405,-12.8789,106.0489,-2.3500,115.2043,-159.5654,-63.7207,-51.7946,-80.1203,-86.6689,74.7367,-81.0987,79.4717,-94.4379,26.0965,-8.1697,255.9871,-281.5193,250.0591
-710.9375,-142.7493,216.4040,-46.9349,103.3734,-72.3902,81.1525,-119.4299,-62.1410,-232.8244,-123.4057,-194.7054,114.5327,-79.0258,119.2847,-19.4515,102.2372,-42.2853,257.1576,-279.1610,252.8811
-703.1250,-44.3635,208.5595,-18.5890,149.5897,-8.0290,109.4969,-164.8892,-34.1655,-130.4320,-125.9126,-56.3473,178.7221,-14.5463,110.4939,-100.0487,18.7802,56.9856,144.7394,-426.3967,136.5743
-695.3125,-73.0541,109.6564,-10.3036,47.3357,0.2714,80.7905,-119.3944,-27.2455,-196.0878,-102.7907,-49.0451,113.8660,-6.1190,44.6563,-19.6724,63.2942,-111.8078,222.2740,-208.6811,219.2691
-687.5000,-84.4436,98.0499,-21.7195,63.8804,-11.1301,106.3961,-130.6098,-2.0258,-244.4132,-120.8608,50.5642,175.3271,-17.3848,143.1271,-68.0020,88.1076,-89.2952,35.1053,-289.6814,28.2345
-679.6875,-33.4995,43.7872,-5.7895,50.0340,41.8138,158.3528,-114.4689,13.5287,-154.3883,-85.0557,66.5084,118.1334,35.6957,158.9493,-123.9592,29.2871,-107.4481,121.3138,-168.3170,119.1511
-671.8750,-132.6668,-22.5696,-35.9661,-7.0790,11.6542,165.2158,-72.4245,-17.0268,-221.4577,-89.6299,-74.6493,50.8554,42.6814,128.6819,65.9918,72.3766,-208.6964,197.4095,-58.0740,198.8012
-664.0625,-97.3826,14.5199,-34.6900,69.8561,12.9467,203.5323,-106.9332,20.8589,-74.0544,-69.0120,0.6427,125.0292,44.1239,166.8607,-6.6009,-1.0762,-67.4998,57.9700,-196.3785,54.0248
-656.2500,-89.3170,-48.5956,12.3797,-42.9097,60.0319,102.6470,-60.6423,-6.4657,-26.8531,-5.0118,-26.2747,24.9994,17.3599,102.8422,3.6268,45.2893,-199.5132,136.3435,23.1216,135.8345
-648.4375,-153.7983,-42.2524,-17.1000,-33.3012,30.5708,110.2204,-15.9108,0.6561,-56.1851,-14.5875,-18.7367,68.4309,25.0541,147.2827,11.3010,88.1030,-193.0689,2.1642,-76.9467,-1.8481
-640.6250,-48.0930,-42.7170,19.6191,-11.4052,103.3035,109.9928,-52.9788,-0.0354,127.6863,23.8367,17.9972,68.0639,97.9468,109.9267,-62.8027,-22.8748,-124.4407,37.2096,-40.7981,32.8067
-632.8125,-94.0029,-53.7730,46.7314,-33.4797,94.4285,64.1739,-24.6404,-46.3381,7.9595,-3.8274,-101.8706,-13.8878,52.2363,26.9799,38.5062,-32.4455,-135.4117,132.6443,124.7355,138.6055
-625.0000,35.0404,40.1218,109.7942,59.8843,120.5067,53.3088,-109.3583,-20.7030,71.2070,-36.3280,-2.7792,48.1171,78.4760,15.9837,-45.2266,-155.0634,65.5676,-53.9672,-61.7812,-51.3702
-617.1875,130.7188,-5.3398,136.5002,19.6730,110.2232,6.0901,-119.4279,-105.4295,98.1022,-16.2388,23.9526,0.7640,105.3623,-104.3653,17.7150,-129.0045,55.1831,41.0899,104.3633,43.5359
-609.3750,63.1425,67.9448,103.9562,20.9651,40.6884,-62.3756,-41.7505,-138.4074,28.7713,-38.4162,-8.5528,42.1670,36.0058,-99.9567,96.4182,-52.1893,57.5561,-96.1152,1.2344,-98.7423
-601.5625,117.4119,87.0648,123.2623,16.4287,97.0026,-116.9925,-22.2222,-82.5483,195.3026,26.9310,84.7890,-12.5853,92.5062,-117.7023,4.9948,-69.5094,146.7646,-147.4528,-84.0268,-153.6028
-593.7500,60.9656,29.4809,136.8607,-53.0367,73.6078,-177.3068,65.6105,-143.3947,62.1344,19.6020,-12.5756,-109.0235,69.3059,-141.1406,18.8910,16.4851,55.2695,7.5039,71.0068,9.5806
-585.9375,115.4202,119.7908,119.3570,17.9537,93.1173,-157.7136,11.3411,-124.3455,44.8954,-23.4684,80.9665,-52.5543,89.0099,-84.6741,-34.3073,-1.6157,179.6725,-148.6361,-156.0594,-153.0292
-578.1250,160.5551,58.7886,127.5529,-33.9535,101.3209,-184.4268,20.7791,-152.6104,53.3562,-3.7845,126.1979,-81.3951,97.4123,-149.5054,47.2251,43.0058,119.7568,-68.0605,-75.4057,-73.5005
-570.3125,80.5827,49.6904,81.6459,-34.8128,-17.5722,-193.2336,48.1138,-125.9809,-65.2626,-21.3310,80.3393,-53.3216,15.7219,-122.4371,149.6660,144.5316,110.7497,-111.5980,-153.8754,-119.7225
-562.5000,192.5106,55.4807,85.6431,25.1026,60.4373,-152.1505,-57.6514,-121.4727,50.0424,-5.2854,195.3827,24.6617,56.9381,-117.4738,7.0230,110.9690,221.6361,-175.2232,-252.4314,-189.2301
-554.6875,116.4206,-55.7326,117.6338,-83.4279,18.4385,-194.0650,11.5879,-126.9814,8.3484,40.1334,116.4209,-91.3447,52.1538,-158.5070,75.4084,179.4231,75.5240,-74.8508,-10.9923,-81.8658
-546.8750,84.5896,-52.6913,83.8802,-26.3101,21.6936,-153.7232,-58.9256,-88.2525,48.9254,20.3069,156.7243,-51.0941,91.6234,-119.2826,43.0495,108.1214,184.6753,-176.2337,-147.3215,-186.1667
-539.0625,167.9603,-110.4534,133.3245,-60.7757,71.1370,-141.1870,-46.2421,-112.3399,171.6964,35.6173,132.2232,-38.6448,104.2890,-106.8625,91.9156,10.0336,91.0177,-58.3966,-65.4433,-67.1473
-531.2500,61.2238,-76.3056,97.6574,-31.8826,35.4674,-140.7503,-7.6671,-148.5298,26.3792,-30.9435,59.6279,36.7212,32.8491,-69.5328,130.6860,-26.1379,55.2721,-58.6782,5.3151,-62.0729
-523.4375,168.1390,30.4847,133.6384,86.8554,107.4439,-68.6658,-45.4453,-149.0826,62.7366,-107.9460,169.6861,108.7471,69.0551,-33.5580,-53.8762,-247.6416,197.1749,-92.3050,-133.2688,-91.5967
-515.6250,159.7398,-13.0306,199.3161,32.7583,136.1114,-76.8891,-16.5127,-194.9496,-56.2058,-144.6782,124.4426,27.4774,96.9634,-114.8895,-24.7109,-293.4286,82.7712,75.7637,68.8497,88.7022
-507.8125,143.7017,75.8130,183.3475,115.7392,120.1347,-55.7632,-69.2320,-174.4778,-144.7757,-194.7493,108.5624,84.5614,81.2308,-94.8704,-40.1957,-309.8614,207.7327,-45.8299,-52.7020,-33.3581
-500.0000,231.4621,93.4484,164.1808,107.0664,137.9539,-74.8481,-51.1588,-194.2230,57.4557,-124.9148,126.4818,66.4316,63.2937,-113.0568,-58.8632,-328.4721,225.4891,-27.6048,1.5652,-20.3988
-492.1875,107.6208,75.4865,109.4118,42.8594,10.1651,-128.5284,42.3029,-212.5774,3.0921,-108.7707,108.8087,11.7074,8.7559,-166.8371,107.8751,-236.6724,137.6590,-8.9909,89.2105,-3.3007
-484.3750,160.6884,57.4192,89.5516,73.8798,27.2831,-111.3094,-14.3439,-159.0383,130.6443,-70.5457,200.0424,28.8839,63.1243,-149.7202,52.5187,-219.9743,259.7307,-131.4632,-104.2441,-134.5009
-476.5625,148.2980,9.9013,114.2401,3.2967,51.9440,-159.5432,47.5605,-171.9653,45.7372,-69.5878,113.8154,-57.3834,51.0350,-199.0583,113.7347,-195.7142,142.3481,66.6255,59.8564,72.3562
-468.7500,96.4118,63.8836,98.4283,59.7239,36.1026,-139.2716,31.9550,-152.3960,-80.6476,-109.2315,25.0943,0.8560,35.4465,-177.8855,61.4548,-175.9451,196.4773,-18.8002,9.4409,-10.1683
-460.9375,220.2203,116.5636,153.3174,84.1490,126.9602,-157.3053,-23.9550,-135.1448,11.6717,-101.4276,116.0689,18.7878,89.5565,-197.0161,-67.1043,-268.4578,249.2974,-36.5059,-7.2596,-28.4041
-453.1250,173.1669,34.4066,141.3547,-1.4258,77.9638,-169.1896,-35.7187,-147.7566,-110.8574,-126.3884,67.1866,-104.1136,77.8157,-208.9993,68.4930,-243.8126,132.2778,57.9329,121.1725,70.5508
-445.3125,188.7241,84.8508,156.9975,72.1148,130.5748,-153.4791,-56.8903,-132.7818,-57.7701,-148.8009,156.9127,-14.4071,130.6814,-156.3858,-25.3075,-302.5637,252.8647,-67.0233,-73.8017,-58.3173
-437.5000,162.5685,23.5838,165.9371,18.2214,176.4764,-181.4711,-10.7631,-160.5175,-48.3907,-115.1064,91.9310,-42.4054,139.8409,-184.4727,21.2128,-256.9888,156.7422,83.3314,76.5390,95.6984
-429.6875,44.0127,45.9216,116.4787,7.5641,89.9777,-120.8607,50.9564,-137.6586,-97.3983,-97.9903,-30.4380,-91.7957,90.6071,-123.9590,82.3355,-159.8098,108.2338,1.2792,64.4588,13.2328
-421.8750,110.3595,-63.8446,110.9251,-19.0193,85.3816,-89.3570,45.5750,-33.9137,118.5058,1.2176,38.0934,-132.2909,86.2788,-56.5498,41.3717,-164.7237,139.6202,-37.8590,26.2902,-30.7697
-414.0625,-5.6038,-179.9134,64.0667,-101.2213,0.4785,-64.1581,107.8984,-8.4809,35.1158,27.7126,-46.6805,-143.0813,38.6424,-67.4433,178.1346,-66.9204,-47.2895,22.6923,191.8129,32.2432
-406.2500,-11.8104,-116.2327,20.9593,-33.0391,-5.6758,-33.2124,101.9629,21.6918,102.5066,41.5649,21.3077,-40.1115,32.7576,0.4122,98.6566,-36.3599,52.5642,-159.0115,10.0789,-158.1811
-398.4375,6.2766,-132.2551,2.1549,-73.5317,12.4665,-51.9761,120.3280,39.1410,121.1948,73.2979,2.5909,-58.8416,14.1684,-18.4355,117.5013,-18.4786,-35.2894,-35.4045,133.6584,-33.2280
-390.6250,-99.1298,-132.7755,-69.1489,-65.2108,-95.8891,-12.2360,197.1915,4.0761,51.3978,58.4783,-68.6141,-19.0625,-56.9158,21.2227,231.8621,56.9021,-69.6264,-104.3150,134.7123,-104.3759
-382.8125,-58.7257,-126.5089,-101.6445,-47.4788,-91.4387,28.2958,163.8647,80.7935,276.4113,127.0254,45.9892,21.5141,-16.1915,24.6711,162.0469,24.0863,-29.1688,-203.4133,-0.4255,-213.5139
-375.0000,-136.4325,-171.3468,-110.2421,-132.6668,-100.0928,-17.2795,192.4373,71.3984,194.3171,152.6152,-36.4944,-97.0035,-24.5652,-20.9853,265.1564,125.1828,-141.8082,-71.6178,167.3349,-77.3756
-367.1875,-122.0766,-157.1384,-131.7831,-52.7102,-121.6928,34.1926,133.0409,85.0458,172.2896,130.4583,-21.9101,-46.4680,-9.8823,30.4082,169.3147,139.3392,12.6214,-196.7810,6.1373,-205.4743
-359.3750,-3.4694,-177.6917,-45.0679,-74.9042,-71.0427,11.9078,111.8908,61.9279,224.5089,151.6981,-7.0775,-67.6954,5.0491,8.0472,111.7407,116.7665,-8.7029,-111.6889,92.2072,-118.0303
-351.5625,-42.3550,-76.7472,-83.8481,-33.4534,-109.8906,-26.8896,146.2392,-14.6994,2.2351,58.5847,-118.7326,3.5741,-70.5148,6.1761,183.6827,151.7131,-11.5064,-80.1229,88.7636,-83.6329
-343.7500,35.2675,35.6735,-3.1234,55.9153,6.7641,16.8010,6.0906,-45.8351,9.4878,-0.4577,-1.8790,84.3292,10.4223,86.7954,7.1526,84.1755,100.1892,-143.0564,-114.1630,-150.4609
-335.9375,-2.6184,32.5800,31.0971,10.3156,3.9121,13.9816,-33.5530,-122.4847,-102.7581,-28.4134,-41.5294,7.5802,7.8589,46.9111,42.1562,118.1636,-7.6177,65.5010,58.4217,63.8050
-328.1250,-38.2924,102.6847,-5.4736,70.9118,4.2703,14.3575,-32.9978,-86.9464,-101.7859,-32.8386,-40.9594,45.0398,-28.4923,47.2244,-67.6324,118.3518,97.7895,-39.7602,-81.8102,-42.4535
-320.3125,98.1795,97.9216,62.1092,41.8875,71.7796,-29.1266,-111.2913,-57.2751,2.3454,-6.1023,63.7643,1.6408,2.3098,3.6764,-182.2415,38.7120,93.3336,26.1345,-50.8650,23.4220
-312.5000,21.3470,20.8511,18.3874,24.4050,-9.0182,1.0862,-117.8802,-100.9057,-112.8073,-15.1116,-16.8087,-5.0518,-41.1895,-3.1720,-114.1334,141.7898,51.5864,90.7082,48.7692,89.7511
-304.6875,70.1252,104.3730,32.2647,108.6004,4.7847,51.8920,-140.8685,-87.9420,10.6672,-20.8164,34.2253,82.8537,9.9138,47.5788,-173.4160,82.4811,170.4406,-36.1205,-182.9959,-44.5983
-296.8750,103.8874,-3.1098,68.1368,12.1859,3.5796,-23.3102,-68.8492,-89.9923,-26.8593,7.5539,-3.7457,-29.2475,-27.9890,-27.6718,-99.6671,117.1929,64.2845,174.0507,-8.7499,173.3299
-289.0625,57.8489,21.6062,20.2036,28.5101,-44.4293,-34.3090,-43.6339,-65.8409,-146.1634,-47.4361,22.4898,-3.1438,-38.6900,-1.7204,-37.7101,106.1136,88.3406,58.4071,-88.3149,57.2078
-281.2500,143.3579,36.8538,35.8209,26.3249,45.1058,-18.7644,-63.8672,-87.1437,16.0945,-35.8456,75.2683,12.4968,14.1585,13.7769,-57.1856,11.6102,68.9346,74.3259,-143.3058,68.7376
-273.4375,-17.4876,-19.2541,16.0866,-35.4875,-11.7131,-38.5710,26.5568,-143.8026,-75.9917,-53.2274,-18.2965,29.7876,-5.3456,30.9217,108.0040,65.7728,-91.8171,124.8822,-22.6544,121.2824
-265.6250,-18.5214,-20.5700,-21.8443,27.8469,24.2768,34.4145,-11.2225,-73.6700,-3.2555,-49.0274,54.9579,102.8758,30.9607,103.8614,71.0061,27.7448,13.2335,-51.7652,-198.2016,-60.5341
-257.8125,24.5346,-117.7978,22.3248,-65.5304,31.3602,4.4924,-3.8930,-67.4530,41.5799,15.8426,99.3046,-0.9386,38.3655,73.9000,79.1322,71.8342,-85.6286,25.6905,19.3748,19.4384
-250.0000,-29.7029,-136.3282,-32.8043,-48.7151,-23.8532,23.2723,15.1316,-49.5376,-49.8719,-8.7076,81.3576,91.9538,20.4749,92.6431,98.9571,89.6314,-103.7715,-96.1745,37.6434,-103.0358
-242.1875,106.7678,-142.1784,-2.2263,-27.4237,6.6343,53.7439,-28.1469,17.0740,55.3827,28.4566,185.1104,85.5350,51.2864,86.0767,-17.5062,47.1379,-38.2126,-101.3259,-2.3609,-109.5243
-234.3750,10.0322,-239.2294,-65.8523,-104.2106,-57.0844,27.0076,19.3760,26.4864,-44.5674,48.2417,85.6601,-15.0869,-12.1072,22.3089,140.8429,130.4619,-133.8512,12.3070,182.4365,9.6686
-226.5625,-35.5451,-143.1357,-75.3254,-33.5670,-66.6487,54.4163,-26.9545,89.0528,20.6615,66.6790,76.3673,12.4370,-21.3492,49.6851,96.3454,120.9448,-3.3306,-171.9267,33.3849,-178.8250
-218.7500,11.3692,-132.5530,-64.3011,-62.2417,-55.7217,-8.6853,-15.7858,63.1143,106.3905,98.7047,13.5689,-13.5411,-47.1026,23.5611,181.3653,94.9581,-28.3212,-89.6565,149.8514,-97.0782
-210.9375,-90.0166,-59.2662,-94.5828,-57.5968,-122.1029,-2.0855,65.0707,31.8788,2.8276,63.1940,-90.5233,-43.8059,-113.1556,67.1450,263.0910,138.6903,-58.5964,-119.7081,119.9921,-125.4655
-203.1250,3.8528,-36.7384,-71.6109,-22.3168,-63.2327,20.7560,14.1713,53.8872,173.5285,94.8177,43.6389,-20.8211,-53.9600,52.9732,139.0742,87.6928,35.3770,-202.5075,-32.6073,-214.7443
-195.3125,-15.6852,-126.6140,-54.0449,-123.9508,-82.7703,-35.8085,31.8760,33.4961,81.8218,131.4753,-12.5999,-77.2349,-73.1713,-3.6023,157.6826,216.3219,-125.0529,-81.7216,195.3866,-90.3192
-187.5000,-27.1119,-103.3968,-65.3770,-69.9644,-57.2042,-10.2755,-53.3270,131.2054,34.2347,126.0800,13.2791,-14.5476,-47.2743,58.9223,37.3962,241.0616,-30.3674,-232.8504,43.4669,-243.8265
-179.6875,16.4157,-200.2438,-19.7568,-123.9197,-11.6916,-1.8058,-44.5753,175.8583,190.5902,200.0253,22.1149,-79.9205,-1.4300,-6.6102,10.0769,176.7701,-92.7421,-118.0213,193.5176,-124.5594
-171.8750,-151.3051,-227.3428,-83.3872,-155.9551,-75.4276,-28.5870,39.9245,185.2603,127.6974,206.7771,-78.2877,-106.5448,-64.8337,-33.3947,168.5141,223.2408,-154.3537,-75.4704,272.3064,-78.7363
-164.0625,-54.6674,-165.1055,-93.6649,-90.8645,-48.8128,-2.0273,-7.2205,211.0111,229.1746,201.0034,22.6665,-79.8328,-37.8860,-43.8437,122.3222,140.0768,-21.6177,-153.5722,123.4590,-161.5294
-156.2500,-36.1895,-183.0280,-74.0974,-163.1347,-66.3585,-56.6300,49.4940,118.6114,138.4987,188.1218,-31.5376,-206.2805,-55.0945,-98.4450,180.0088,196.7820,-110.0375,5.1695,282.4720,2.5127
-148.4375,-123.6013,-130.8552,-90.4295,-116.7371,-45.7978,-36.1401,33.3037,175.3168,85.9403,183.1213,-47.6255,-149.6250,-71.1961,-77.9511,127.7940,253.5923,-55.3430,-117.0085,125.5745,-121.1198
-140.6250,-3.5133,-117.2011,-39.2605,-116.2584,5.2584,-59.1604,10.6135,151.5206,211.8920,206.0350,40.7842,-135.4850,-56.8018,-100.9688,70.0937,194.9239,-41.1635,-67.6763,140.2045,-74.2142
-132.8125,-90.0852,-133.1999,-91.7469,-146.2724,-84.3385,-37.8396,32.2824,98.0784,86.2050,156.6915,-11.4536,-114.9977,-72.0643,-79.6352,165.7551,215.6239,-162.6293,-48.0198,231.1796,-54.3363
-125.0000,-76.6028,-85.1630,-115.1818,-92.2662,-70.8815,12.5294,9.0058,147.6898,211.5937,168.0435,75.3645,-64.4677,-58.2764,7.7413,143.4772,156.3838,-79.0443,-174.3171,69.2143,-187.6194
-117.1875,-67.2737,-216.2872,-105.7693,-141.2167,-98.5864,21.7462,55.5795,119.1472,184.8224,194.5233,-24.9777,-128.0955,-85.6425,-20.0358,228.0669,203.0146,-139.6131,11.2309,255.1157,4.8420
-109.3750,-151.5843,-161.0624,-120.0067,-82.8816,-112.9387,44.3137,41.4910,103.9577,24.4172,126.8861,-75.9541,-69.3670,-99.6598,39.5402,214.9997,225.0036,-83.8108,-73.8951,171.3531,-78.2642
-101.5625,-31.5385,-112.4960,-68.8904,-48.0841,-24.9426,58.2200,-18.2481,117.1100,76.3621,106.3455,49.4232,-55.2979,-11.3285,16.4575,46.2985,129.3544,-33.6672,-24.6617,79.9599,-28.7034
-93.7500,-88.1502,-62.5837,-52.4273,-79.5756,-45.6007,0.4702,-1.6366,58.6132,-127.3496,27.7281,-44.8448,-112.8758,5.3485,-4.2750,63.9599,109.0678,-125.1705,130.9056,200.9111,135.5583
-85.9375,-43.4002,50.6679,-43.6090,15.2295,0.0989,9.0651,7.3184,29.4725,-7.6941,8.5491,1.2423,-30.1040,14.3756,-32.6605,-37.0275,8.1405,24.6799,-0.1850,-0.7814,0.7615
-78.1250,-32.4532,-8.8944,-32.5931,-72.2624,10.9915,-54.1487,55.4752,3.5346,78.1513,60.2364,-61.4768,-129.1440,25.5956,-95.8525,86.2020,19.4305,-70.2769,115.9278,150.7438,117.7990
-70.3125,-134.3448,-40.3062,-100.4264,-92.5503,-56.9661,-48.2139,134.7718,44.7533,11.1518,93.2772,-129.0334,-124.0308,-5.0345,-52.8898,92.5742,172.8755,-101.0656,15.1640,120.4067,14.7666
-62.5000,-12.8785,-96.3856,-47.9046,-50.6371,-4.5733,4.0623,76.4166,96.3255,100.5113,113.4264,-2.2390,-71.5836,47.6856,-0.5872,-74.6913,114.6835,-14.5118,-4.2463,66.4448,-4.9324
-54.6875,-42.9769,-127.0288,-3.9435,-56.9219,2.2620,10.7838,46.5209,65.3553,-75.6822,50.4444,-105.9976,-64.6946,17.8556,42.1627,-29.4876,84.9657,-79.5122,105.7744,212.9390,114.6922
-46.8750,-36.0166,-14.6275,-33.9306,55.8780,9.1521,53.5476,17.6778,71.4402,-67.8010,-28.9867,-24.6933,89.2370,25.0802,85.9610,-95.2296,-54.6927,32.5414,-27.1692,-25.5206,-22.3806
-39.0625,48.6386,-0.5342,17.7815,17.2601,23.7371,32.0015,32.5464,11.2203,21.7749,1.0200,-9.6941,30.8548,3.0028,-9.5486,-79.2588,-76.6329,-22.7146,57.5889,94.7429,63.2474
-31.2500,-77.6055,12.6570,-77.4090,-18.3747,-71.5771,10.5517,84.5133,26.1061,-35.5446,12.3126,-104.5940,-27.4197,-54.9743,6.0440,11.8113,12.5356,-78.8523,71.4251,109.0946,75.3554
-23.4375,22.4134,7.0902,-47.3432,20.7703,-4.6395,3.3496,4.7337,55.2378,105.3913,37.5133,36.7619,2.5531,-24.7040,35.8784,-67.8686,-30.0401,56.2568,-3.4799,-36.2885,-5.9063
-15.6250,-0.6746,-16.5784,3.6163,-53.3339,-27.8084,-19.9594,18.8568,31.2688,10.2123,27.6248,-22.9853,-57.5742,-10.5411,-24.3844,-15.6418,-15.7070,-107.7346,149.5117,153.2317,153.5117
-7.8125,2.8489,56.3586,7.1807,30.6028,12.6310,20.3323,-14.4331,33.9108,-59.3589,-35.3153,-19.1167,19.9020,-6.7782,15.9514,-84.8361,-48.7733,1.8844,12.0961,-54.6598,15.5895
-4000.0000,49.8217,-30.1988,9.3540,-21.2513,16.3000,-14.8689,-26.7099,30.3960,27.6587,21.8042,26.5723,-11.5512,3.5586,-6.9788,4.9559,13.0825,-3.1390,-32.5117,-1.7211,-34.3942
-3992.1875,-123.5538,-134.3687,-62.5227,-75.1256,-129.3408,24.4284,48.9426,33.3704,-6.9294,68.8395,-118.3113,-46.2020,-68.3074,-4.6505,190.8418,126.2565,-107.3750,-30.6008,176.4909,-31.2876
-3984.3750,-133.6830,-75.2764,-147.1570,-7.8621,-104.7276,84.9922,72.8440,131.5988,164.7301,129.7625,-129.9464,15.4152,-43.9163,56.9383,104.9596,113.6698,-13.3542,-146.4490,24.9257,-153.6273
-3976.5625,-175.5582,-48.9362,-119.5410,-4.5907,-112.8523,113.8069,63.9988,87.0773,46.6416,94.1738,-285.3324,44.2809,-89.2715,48.7760,96.3211,105.3223,-126.0945,54.9700,192.6241,56.4669
-3968.7500,-252.8963,84.9572,-162.3763,110.0489,-119.4282,181.1823,19.7053,81.1112,-70.9164,9.0837,-329.1752,184.7051,-132.0788,152.1763,-21.7715,61.5197,-64.2905,12.9396,44.8658,14.8172
-3960.9375,-158.3737,72.7095,-103.3579,109.8298,-59.1464,204.4198,-67.7508,104.9976,26.3803,48.6572,-306.1578,207.9928,-109.0329,175.4365,-145.0366,47.5474,-76.6255,35.7612,67.9408,35.8667
-3953.1250,-233.8115,32.5181,-144.2919,39.9522,-136.8211,162.7089,-37.1524,100.9336,-52.2903,66.1738,-348.1020,166.3377,-149.9403,133.7503,-76.2495,153.6142,-186.9241,65.6510,168.0835,65.1946
-3945.3125,-187.8046,147.7960,-170.7809,162.4802,-126.0469,210.4589,-99.1056,112.3240,-4.5193,16.3195,-263.6024,251.1488,-139.3955,181.5229,-140.0320,53.1134,-1.7625,5.9845,-67.3454,0.7745
-3937.5000,-157.8997,105.9821,-104.3671,135.8702,-96.3662,204.1156,-143.1603,70.6183,-119.8492,-39.2407,-307.2092,207.8646,-109.9487,138.1924,-109.9306,-26.5054,-78.7053,245.2415,102.1371,250.6212
-3929.6875,-178.6624,155.5258,-89.6088,168.5515,-117.3413,220.1322,-164.8633,50.2655,-251.8541,-104.8646,-328.4846,186.9379,-131.1543,154.2238,-131.4843,-47.7816,-30.2993,188.8527,45.9765,198.1882
-3921.8750,-38.4741,85.0351,-16.9021,123.0266,-7.3603,182.1128,-203.6177,122.8654,-104.9070,-28.9791,-255.8092,111.9847,-22.4081,116.2171,-243.1083,-48.1307,5.0673,153.4111,10.7508,161.2600
-3914.0625,-157.9923,68.8451,-69.8930,48.3504,-60.0774,92.4032,-109.0740,107.7594,-267.6775,-40.1175,-308.8485,60.3432,-38.3604,64.5144,-112.4376,44.8160,-115.2815,243.2888,170.8432,255.1231
-3906.2500,-121.9711,176.2172,-68.3393,125.4889,-21.2425,94.2534,-71.9858,147.2088,-265.9083,-103.4462,-234.3410,135.2711,-36.7650,102.3732,-148.2338,-99.6955,-10.0772,68.7098,-38.5299,80.3153
-3898.4375,-82.8957,108.6398,-27.7338,66.6849,-17.3521,62.1629,-68.8497,114.7087,-226.0845,-86.2653,-193.7832,66.2563,-33.1146,33.2854,-107.9935,-133.1697,-76.8270,213.1960,106.1497,228.1941
-3890.6250,-155.2404,105.6688,-65.5317,62.8929,-54.8695,60.6801,-34.1014,151.8072,-263.6731,-69.9106,-268.6419,64.8433,-70.8685,68.8032,-109.1449,-61.0546,-79.9937,140.2960,68.4376,154.7412
-3882.8125,-69.1840,86.1072,-49.9340,108.9012,-1.9804,113.6076,-127.9496,168.3106,-100.8522,-8.3947,-179.0951,80.8501,-55.2160,84.7293,-240.9123,-45.5631,41.2441,119.7902,14.1068,129.1117
-3875.0000,-124.9355,-5.2578,-34.1348,22.3796,-59.8901,92.7397,-113.5917,148.0129,-121.8388,36.5141,-274.3597,-12.9403,-113.3626,27.8580,-152.4818,43.1184,-86.3372,274.5068,203.9964,287.6368
-3867.1875,-123.3037,30.7874,-69.9428,75.7606,-58.4039,131.2829,-112.8251,187.1162,-84.4383,29.2293,-162.2292,25.6821,-75.1096,65.3996,-188.6583,44.1921,20.4758,135.6185,-5.7246,142.6196
-3859.3750,-80.8218,2.6914,-25.8983,17.9841,-14.0620,101.6851,-70.2050,158.0722,-40.1831,38.8357,-83.2436,-3.8385,-30.9973,36.7983,-181.9977,14.0984,-78.8644,212.5885,71.3997,220.4441
-3851.5625,-186.3533,36.5980,-61.8574,4.9881,-86.7206,66.0901,-32.5758,123.0203,-184.9491,-1.8190,-119.2745,-2.3506,-66.8854,74.2017,-108.3366,89.0001,-115.2213,176.5757,70.5351,183.6356
-3843.7500,-94.9923,57.4172,-40.9177,67.3973,-28.4773,124.4117,-122.0467,144.8703,-17.8067,36.7559,-24.4079,55.0558,-45.8715,95.5198,-197.7918,72.7842,11.3263,56.4526,-84.4494,55.5809
-3835.9375,-121.0385,30.8382,-30.3787,1.6743,-54.6318,61.3425,-75.9092,82.3181,-7.0633,64.3952,-124.9550,-6.9345,-72.2553,-3.5624,-114.6515,119.1545,-86.5398,205.9493,65.1873,207.4534
-3828.1250,-159.7016,97.6660,-71.4467,56.9375,-58.3903,57.6877,-6.3655,42.1688,62.0632,40.6643,-129.1181,99.4836,-76.2389,28.7678,-83.1179,78.9165,-20.0068,25.8487,-114.7791,20.7181
-3820.3125,-83.4123,66.4556,-29.5628,-4.8526,-16.1902,25.9945,35.1277,11.9690,178.1352,69.5480,-50.3309,30.8648,2.7323,34.0617,-78.6594,46.6131,-86.5159,101.7054,-74.8017,94.5156
-3812.5000,-171.6876,13.7009,-84.2293,-37.3049,-70.5416,8.7525,90.0800,-41.7839,49.6346,18.8307,-68.1109,13.6988,-14.8477,16.8088,87.2488,65.7574,-139.5917,119.0319,-21.3605,113.8369
-3804.6875,-47.7707,66.1628,-29.6967,63.0722,-52.6873,63.7188,70.2332,-23.3370,141.3301,-4.8318,23.3068,105.7505,38.7745,34.7665,-42.6593,-64.9127,18.5417,-4.4519,-178.7394,-10.8446
-3796.8750,-47.0072,31.4770,7.6857,-2.6658,-14.9805,-8.4600,107.2420,-96.0440,104.8764,-9.6939,-13.4309,69.6547,39.2535,-0.4304,-5.7212,-64.7466,-87.4834,101.9381,-3.2581,99.9929
-3789.0625,-64.7103,84.3528,-47.3839,43.2852,-32.7269,9.9178,88.8124,-76.2073,-23.0444,-66.5295,41.3623,126.1171,21.2756,54.9313,-61.2273,-46.0427,-34.9576,-22.1187,-127.2335,-26.0656
-3781.2500,43.7927,51.4406,-7.2474,1.6852,43.7350,13.5059,54.5792,-35.1772,53.2414,-32.3166,155.3601,55.7953,61.5065,21.5019,-131.5542,-80.1546,-67.2228,16.0205,-89.0229,12.8597
-3773.4375,-34.9199,-27.6705,-16.3159,-77.7608,-2.0055,4.8972,119.1549,-6.3575,-28.6890,-26.9429,72.1437,10.2821,15.5354,12.8779,5.9259,-52.4702,-216.7006,6.9821,43.0038,8.4565
-3765.6250,-19.1477,22.7354,-0.8885,1.2608,13.7521,57.7998,60.2363,45.9561,96.8806,-27.4805,161.4217,100.2858,-4.9332,65.7599,-16.1016,-146.3003,-97.6715,-153.5593,-152.4898,-157.9115
-3757.8125,21.9770,-41.5043,4.8952,-65.8316,19.8681,-8.9376,102.6684,-20.3883,102.7990,-3.5754,130.0467,32.6432,0.9571,34.9925,63.2083,-104.8003,-162.2900,-6.7250,29.3671,-9.3172
-3750.0000,-65.8087,-24.6297,-13.2201,-55.9163,2.0835,9.4294,84.1999,-0.6464,-25.2166,-40.8463,111.7677,15.1066,55.9473,54.3319,80.6158,-50.2099,-145.8112,-59.7814,-58.6770,-62.0204
-3742.1875,62.5079,-71.6322,45.7669,-43.1574,62.4069,-3.0945,33.8318,23.1861,34.8698,-16.9519,244.5973,-34.3117,153.0424,4.7789,-43.8973,-64.5476,-17.2186,-71.7384,-106.6434,-73.5216
-3734.3750,63.2153,-107.2305,84.1524,-106.5339,64.1306,-75.2173,107.8799,-11.5953,-111.6537,-29.3757,98.8165,-69.3234,117.5347,-30.3705,30.9962,10.4979,-124.2419,-2.2742,33.8121,2.9592
-3726.5625,41.1580,10.4382,61.7842,-12.7918,116.1025,-60.0797,122.1881,-33.1353,-22.9313,-55.0107,150.2770,55.9307,168.2796,20.7390,-65.8711,-49.2255,-6.0033,-165.5667,-199.4958,-167.3003
-3718.7500,78.5065,12.5188,100.8184,-58.1990,154.4785,-57.5338,160.9012,-104.2862,15.1928,-61.5818,152.1426,-15.4092,170.4293,-49.7482,-27.3510,-121.5738,-109.3613,-22.4491,-56.4003,-19.0682
-3710.9375,-5.8609,69.9078,50.1517,5.3015,105.1472,-34.6832,146.9272,-80.1481,-145.4081,-126.6884,64.2986,8.5532,83.8764,-26.9321,-41.5273,-171.6310,-53.4266,-1.0214,-34.9974,10.1696
-3703.1250,99.4210,68.9555,121.1342,49.9237,139.4705,-0.1740,32.6052,-8.3632,-37.3525,-102.2023,135.1108,6.1795,154.9830,-28.4587,-228.0650,-285.0544,50.1700,-1.9517,-35.9665,11.3523
-3695.3125,14.6435,-16.0432,70.0686,-41.5385,88.7430,-13.7196,92.2452,-21.6374,-88.3499,-73.3657,46.8663,-80.2436,104.0397,-79.0413,-96.6462,-225.5378,-104.2912,90.0879,196.0281,107.8087
-3687.5000,-31.8986,-27.7715,21.2494,-36.9914,77.2630,-25.0103,190.1460,40.3275,46.8907,-31.8522,34.8599,-18.4025,129.3410,-53.3663,-34.9796,-237.7865,-81.4929,-97.6263,43.2587,-86.7025
-3679.6875,-12.1376,-149.1873,3.7337,-112.0188,60.0914,-40.9972,246.3530,97.5802,213.4379,74.4870,54.1563,-108.2561,111.9478,-107.3885,56.9684,-218.7553,-133.3892,-8.0232,203.7857,3.0644
-3671.8750,-93.8430,-125.0494,-44.2296,-81.6788,-25.5308,-52.4278,234.1190,86.3731,54.5093,37.3942,4.9851,-119.5636,26.1051,-118.8594,81.4701,-158.1836,-74.7462,15.1538,226.8801,29.6156
-3664.0625,32.9509,1.6041,13.3105,3.0538,70.3551,-30.3477,71.3871,71.6564,113.0753,18.3614,100.3243,-97.3591,47.7714,-96.8245,-81.5468,-173.1322,87.4136,-33.1743,2.4483,-25.1542
-3656.2500,15.7425,-15.7397,69.8561,-89.0240,53.2472,-121.2666,127.6593,17.9243,58.6338,41.0271,-27.3353,-188.1563,30.4450,-150.7897,47.4353,-82.0952,-36.4338,55.5203,161.0292,66.3901
-3648.4375,-21.6319,-18.2224,30.2470,-50.9132,50.9851,-86.3297,124.7910,16.0274,19.0206,19.3309,42.8499,-116.1007,27.9694,-41.8961,44.2718,-11.2132,30.5778,-122.9297,-17.5485,-119.0786
-3640.6250,63.4982,-74.1960,44.1424,-63.4750,102.2320,-71.8857,101.4258,-5.3791,69.9145,36.0326,167.5397,-138.5409,79.0040,-27.4964,-15.4047,2.1498,44.1042,-38.8767,-3.6405,-36.6666
-3632.8125,10.6700,-56.1198,27.0950,-57.4696,11.5326,-88.3902,84.1202,-95.7510,-57.1593,-19.3268,113.2630,-117.9366,25.0896,-44.0460,113.9657,57.5580,26.6794,50.2464,14.3310,51.3532
-3625.0000,110.4407,42.5778,92.6504,39.4213,77.4361,-59.2863,2.4117,-140.5314,81.3562,-53.5115,214.5850,-51.7116,53.7793,-51.9841,67.9173,-61.4584,195.8754,-27.0334,-238.1215,-32.0131
-3617.1875,153.8637,15.9352,137.8659,-9.1349,48.9998,-87.5288,-26.6423,-240.6790,16.5107,-75.8064,149.5512,-153.8323,62.1266,-117.2771,149.5072,-53.8500,133.7235,192.3592,-53.9117,192.3593
-3609.3750,74.9228,77.9545,91.7286,46.6164,3.2106,-59.1234,-36.0358,-212.1918,-66.7093,-107.2103,140.1602,-88.3004,16.1223,-88.9190,139.7534,-26.6029,194.2262,42.4044,-169.0482,40.4443
-3601.5625,129.4825,97.4853,74.0957,58.5334,59.9255,-76.2132,-16.9193,-229.2130,99.5805,-66.4880,196.2733,-31.2554,35.6233,-106.0568,84.4901,-81.8791,213.2444,-8.0564,-149.6966,-14.5724
-3593.7500,5.9774,43.9657,19.4129,-19.0094,-30.4096,-130.3528,75.1610,-209.3009,8.8068,-28.5003,67.3209,-85.2632,-17.9284,-123.2449,177.1827,47.7905,90.2056,44.4562,8.6263,40.6047
-3585.9375,56.9633,95.9660,35.2244,55.5565,-14.2471,-76.9828,17.7490,-156.8963,60.5290,-32.7973,156.8702,-31.7570,-1.9773,-69.9280,45.3677,-11.0536,210.6842,-79.5434,-116.5723,-85.6414
-3578.1250,59.1051,27.1213,74.1918,18.1366,24.0669,-74.4613,19.4908,-154.3611,26.4049,-19.4367,47.5792,-29.1028,0.1265,-67.4601,82.6991,-9.7613,107.3233,62.6169,61.3836,63.1684
-3570.3125,-45.0167,64.0339,39.9061,73.9508,27.1271,-34.1899,20.9929,-152.0929,-44.9934,-48.3058,-59.9684,47.2981,-34.0182,-27.2388,84.7876,-7.7219,142.7105,-41.4644,27.0926,-38.8315
-3562.5000,84.1617,51.2599,62.9241,96.7165,87.4980,25.3840,-29.1957,-91.5354,14.9135,-27.3112,35.7957,34.0055,62.1453,-3.7116,-76.8332,-22.4019,200.4137,-53.2533,-54.9224,-51.8451
-3554.6875,43.3329,-23.5120,94.9455,30.8548,82.8676,-15.0442,2.6286,-169.0008,-174.1859,-73.7005,30.5481,-6.2927,57.3089,-45.1867,-8.4477,45.9183,90.1106,46.9758,80.0793,54.7341
-3546.8750,62.8950,66.1271,77.3645,121.7610,65.6337,40.9350,-15.1360,-185.0757,-190.8894,-153.3226,160.6988,123.8205,113.8705,11.7453,-63.6654,-46.3706,179.2142,-109.4053,-146.5341,-107.6906
-3539.0625,111.6601,43.9668,89.9858,58.4759,115.6049,-18.8857,70.3111,-208.9634,-142.3768,-148.6434,136.0523,63.1300,126.6386,-12.1227,22.3106,-107.4756,85.5219,9.4225,-63.9431,14.1676
-3531.2500,-21.0891,123.3116,63.1109,88.9618,52.0747,-8.2092,80.2713,-235.3626,-205.3851,-185.6292,71.8986,73.9289,62.9067,-1.4935,104.7976,-99.0871,94.3274,-17.2398,-125.8465,-12.8369
-3523.4375,84.7712,194.2663,98.8408,148.9414,125.1519,-8.9306,5.8303,-273.1725,-97.7938,-207.6405,181.3547,147.3335,98.7878,34.7414,29.8737,-173.1154,199.7546,-87.3057,-300.1765,-90.2370
-3515.6250,67.4841,142.0696,81.4300,85.8772,71.0829,-62.8041,25.2497,-326.1545,-224.3644,-231.1236,163.6591,93.5778,81.5202,-19.1795,158.8048,-118.2945,112.0279,36.5004,-142.6462,36.3066
-3507.8125,86.9370,161.6347,27.7650,99.0797,17.7582,-42.9276,-29.5720,-270.4029,-168.2022,-224.0103,255.7145,113.5794,64.0023,37.6497,177.4858,-99.7215,166.0644,-154.9489,-333.3791,-166.0864
-3500.0000,121.2922,55.1123,25.0045,18.1300,15.3361,-82.1547,4.5118,-235.7707,11.8707,-123.4698,253.6833,38.4849,62.3887,-38.6247,248.0637,-102.2646,94.0152,-50.4919,-159.2209,-61.9690
-3492.1875,-23.7144,-19.7544,-54.1081,-16.4004,-100.4439,-49.7345,36.2602,-203.5033,-30.4215,-68.1087,100.2860,34.0372,-16.5810,-6.2516,315.3054,37.8391,18.6091,-90.3743,-24.3986,-102.1268
-3484.3750,80.1756,-21.7111,-20.3223,56.0345,-66.3197,-15.4128,-77.0841,-95.3461,40.1954,-40.2331,207.7924,105.4905,-19.6450,28.0232,91.4347,-3.1709,157.1230,-125.3602,-130.6946,-138.0949
-3476.5625,99.8104,-0.9173,75.2255,22.0746,-7.4396,-67.3419,-128.6693,-147.4552,-121.4381,-91.9923,118.0430,53.6769,-34.9514,-23.9564,112.3035,-19.4386,71.3901,69.4278,29.7798,67.0433
-3468.7500,52.2354,91.6867,98.5729,101.8071,54.2378,-42.4688,-178.4462,-122.7812,-208.2883,-138.1270,69.0831,114.6602,-47.4588,0.8663,24.9727,-32.9104,164.4745,-12.9834,-122.9521,-12.5875
-3460.9375,103.1690,72.8005,114.4312,58.6552,106.4237,10.9017,-125.7192,-70.6248,-82.6242,-76.4759,47.6357,58.1438,5.5401,-19.8172,3.1306,-53.9020,74.0802,-32.8944,-73.1905,-31.6091
-3453.1250,-17.8991,-13.0829,25.2895,-38.9858,17.6070,-4.7377,4.0239,-50.4894,-134.9722,-56.0620,-42.8217,-31.3838,26.5343,-35.5104,133.3050,2.1032,-83.3109,-12.7899,51.5912,-9.3595
-3445.3125,25.5799,-4.4040,-3.2960,8.9955,26.3400,4.1727,12.3160,-4.8187,19.2240,-21.2853,76.2788,14.6409,35.0836,10.3505,-5.9786,-63.3498,30.8724,-110.1438,-46.0991,-111.1517
-3437.5000,-16.1854,-81.9693,-10.1201,-56.9898,19.8355,-2.1702,79.3616,-11.4196,12.1658,14.2122,-4.8655,-65.5930,28.3891,3.9545,23.4811,-35.0597,-82.1910,59.2670,157.9652,64.9197
-3429.6875,-70.2069,-28.7802,-28.1917,26.5482,2.0767,54.2323,61.1676,-29.2891,-43.1556,-22.4836,-60.2630,27.9209,10.4419,60.3082,-32.3014,-17.0191,5.4981,-28.5734,34.7761,-23.9471
-3421.8750,61.0760,-3.2839,34.0424,67.5172,27.6244,79.9329,12.2750,-76.8705,55.8364,-20.4669,1.6509,16.7312,35.7989,48.9644,-80.7844,-65.6863,100.5112,31.8802,-11.1284,34.8159
-3414.0625,-13.4478,-43.5881,-7.5217,3.9857,-50.6331,75.8314,7.5955,-81.2753,-59.9890,-27.0054,-77.2428,-61.2662,-5.6439,7.8152,60.9440,1.8471,-9.2775,97.5574,125.1849,102.8396
-3406.2500,-46.6262,30.4736,-41.7362,50.4768,-47.5402,79.0833,10.2691,-5.3517,53.5278,-3.1839,-0.7809,16.0958,-2.7309,85.0200,-10.9795,-33.2783,63.3061,-110.4236,-48.1766,-113.0021
-3398.4375,-31.8432,-25.5163,-26.9881,3.4321,-32.4882,20.2779,61.8968,-63.5028,67.9997,27.4933,-60.3580,-5.5976,-61.8570,63.1680,77.0501,17.5391,7.8487,10.5531,107.4105,10.1306
-3390.6250,-52.9190,24.6432,-85.0911,78.4157,-90.2908,36.6168,3.6841,-48.5265,-64.4022,-24.2242,-117.7913,84.8514,-118.8322,79.4686,55.2469,32.5093,91.5442,-10.3148,51.1553,-10.5737
-3382.8125,109.8592,81.6576,10.6604,145.4978,-31.2423,58.8092,-120.6712,-26.7095,-42.9410,-44.5867,13.6325,143.1480,-96.9546,27.6198,-143.7106,-56.6771,184.1133,46.6594,1.7337,48.2796
-3375.0000,88.7832,60.8217,63.5614,76.4869,-15.0480,38.1383,-141.8586,-83.7644,-210.3255,-103.8145,29.2006,49.5791,-81.9295,6.9084,-128.4998,-42.7128,56.8288,166.7967,86.4851,174.6882
-3367.1875,107.7946,45.0954,45.5608,100.6217,41.2449,57.5605,-159.9328,-64.7304,-117.6060,-100.0144,157.8701,142.1049,11.1960,63.2910,-221.1790,-60.6521,110.6583,-60.9801,-104.6818,-62.1475
-3359.3750,123.8181,-44.6341,98.5688,9.4106,57.5426,36.9742,-71.0034,-84.7089,7.1239,-40.0348,100.5511,48.6197,27.3281,42.6658,-131.8573,-81.5924,-14.4995,26.2497,51.1500,28.1873
-3351.5625,-49.4696,-41.6645,-7.7234,13.1544,-48.4676,79.0778,43.6362,-45.0045,-62.4635,-34.0626,-116.0688,90.8181,-41.8383,84.7354,55.1762,-5.8260,-81.9530,-41.8115,53.6944,-39.8010
-3343.7500,3.7503,-24.1850,-27.5082,44.8455,-30.9705,96.6750,60.7820,9.1904,102.4587,21.4096,-63.1742,108.5152,12.5044,102.2955,-2.2978,-26.5724,6.1124,-128.3862,-35.2782,-131.9265
-3335.9375,-73.8767,-100.5617,-71.1364,-67.6979,-37.3211,53.4105,127.0907,2.5174,58.5284,63.2234,-142.1273,-45.6558,-30.9985,21.9910,101.3893,39.8338,-140.6726,-30.7996,204.9185,-28.0712
-3328.1250,-136.2090,-58.6385,-136.4632,-50.0085,-103.3781,23.4448,170.7072,120.1294,137.8831,107.7755,-135.7752,-38.5348,-24.1981,28.9821,107.3828,45.5418,-65.1407,-198.9176,70.4076,-201.7170
-3320.3125,-97.1283,-122.3089,-131.3815,-115.1310,-62.0231,-45.1270,175.7268,161.1221,253.6453,200.4280,-168.0069,-105.0228,-55.9914,-2.6319,147.7706,123.6398,-95.1886,-122.6337,145.2921,-127.4951
-3312.5000,-155.9584,-146.8746,-156.2004,-138.1790,-158.5728,-69.6103,187.8635,173.1940,154.4947,200.4714,-267.1429,-129.4254,-116.6876,9.8434,233.2708,207.8424,-120.1364,-113.2422,191.2893,-117.3767
-3304.6875,-28.6329,-89.2844,-96.8688,-71.4505,-98.9764,-81.9503,101.1528,159.4084,324.5058,224.9715,-133.1163,-69.6801,-93.2357,-3.5373,71.9233,156.1896,44.0896,-229.7179,38.4172,-241.0931
-3296.8750,-42.7047,-173.0990,-74.9320,-166.2019,-112.7832,-131.7004,123.0493,109.2085,310.1221,262.1524,-147.4879,-156.3519,-107.1810,-54.3271,130.1829,252.1403,-76.0785,-103.5805,200.1601,-113.8000
-3289.0625,-55.3840,-115.5106,-87.5972,-112.8175,-125.1963,-108.0560,74.3499,132.3954,261.1291,209.9820,-124.4645,-95.6325,-119.7308,7.2823,116.8505,238.4961,-17.8326,-150.0517,-24.6998,-164.3386
-3281.2500,42.8977,-52.9657,-23.3067,-83.8919,-24.6582,-80.4675,-46.3998,123.5192,288.1042,180.2673,-24.4808,-103.9723,-56.3312,-2.1670,33.4647,153.8035,9.3884,-53.5745,-67.6197,-67.6065
-3273.4375,-32.6253,-92.2305,-27.8155,-132.9770,-28.9280,-84.6859,-50.9431,44.8293,62.2695,111.5889,-66.3071,-145.1344,-23.7374,-6.4263,65.2980,222.3275,-101.1887,13.1149,33.6827,4.3806
-3265.6250,-35.8435,-25.1887,-33.0177,-66.2808,3.1001,20.3945,-55.1861,76.4278,130.7350,95.5069,-34.8218,-76.0014,8.1601,62.6218,-14.5746,143.1514,-69.4397,-94.9115,-110.7387,-105.7694
-3257.8125,-91.8472,-80.9492,-56.0112,-84.7321,-20.6641,33.6680,30.7772,89.2057,143.4030,95.7795,-168.1266,-26.6831,-15.7403,38.8640,71.7489,44.1777,-196.4811,93.2780,78.0478,90.6771
-3250.0000,-171.5581,-20.4047,-100.7034,1.0114,-65.1355,62.2388,59.0431,80.2635,60.3469,30.5895,-214.1364,111.9284,-60.3421,67.4045,62.3809,-2.4847,-135.2125,13.7689,-36.8683,11.8419
-3242.1875,-41.5070,4.8990,-75.6359,11.6771,-39.8485,87.5574,10.0500,68.0556,195.0443,52.3170,-115.3775,63.2834,0.8127,92.6976,-23.2477,-50.3966,-74.1725,4.0005,-82.0552,-2.6772
-3234.3750,-139.7063,-58.0546,-103.8141,-51.3878,-103.8160,96.6145,18.8159,76.5773,56.4785,54.9743,-180.8703,-37.6233,-27.2850,64.7304,57.8854,29.4569,-173.3845,81.9934,100.5230,81.4716
-3226.5625,-109.7562,-63.8511,-109.8384,13.5270,-73.6347,127.8135,12.7322,144.2360,197.0647,87.3239,-113.2036,29.6154,3.7721,95.9060,-94.8282,-50.5359,-39.4269,-64.8750,-11.7711,-67.2827
-3218.7500,-49.3462,-106.2064,-46.4018,-27.5372,-45.9937,82.4494,41.1021,135.3274,188.1179,110.7803,-159.0741,21.2829,-41.7130,50.5158,-68.0851,-60.0754,-117.0155,67.7167,190.3913,71.9570
-3210.9375,-114.2468,4.1310,-76.2679,18.7558,-75.6645,52.7742,11.1810,68.1076,47.8593,53.4679,-189.2491,28.6310,-107.4999,94.8153,-98.6137,19.1066,-42.9061,38.0089,90.2621,40.2688
-3203.1250,10.0585,92.6658,-20.9316,78.0883,-20.1341,34.2930,-80.5375,49.0823,102.8176,34.2561,-62.2078,47.1685,-53.0835,39.3099,-227.9392,-37.5072,81.4212,91.4883,-32.6830,90.9658
-3195.3125,-14.3331,68.4950,28.7082,23.0091,29.6946,-26.9048,-104.9485,-12.6586,-105.9172,-9.2315,-158.8682,-14.0153,-40.3705,-58.9074,-178.9530,48.1885,-12.9515,278.2779,83.6943,286.0002
-3187.5000,13.3271,131.3820,94.3962,106.4644,95.5663,2.9370,-222.3074,16.6415,-186.6041,-63.4176,-94.4740,52.8436,-10.6124,7.9199,-296.9059,39.9390,119.7428,201.1039,-133.8944,208.0357
-3179.6875,83.6976,96.9629,131.7908,74.2568,170.1395,3.4691,-184.9676,-20.3700,-149.5725,-46.8687,-94.3665,-20.6118,26.8493,-65.5615,-297.1549,2.3953,85.1513,306.6280,6.2166,319.7628
-3171.8750,10.6613,129.1383,91.7818,92.0935,57.3037,0.5890,-115.0199,-60.7951,-263.9557,-96.8163,-133.6595,13.5198,-13.0957,-31.4539,-227.7868,35.4714,82.1602,268.7554,-33.0601,281.2150
-3164.0625,156.7330,241.4159,96.8769,153.2534,98.5668,4.8046,-146.9761,-92.1256,-112.2304,-127.8114,17.1665,54.7462,28.0643,-63.2574,-260.3245,-107.3519,194.2957,168.9673,-237.2540,173.2523
-3156.2500,102.6611,222.5397,77.8281,67.5628,42.6807,-51.1439,-93.0806,-148.6208,-205.6557,-140.2534,-2.1556,-38.2040,9.0734,-118.2280,-97.0005,-55.3180,69.2832,221.0452,-81.5758,226.7849
-3148.4375,65.4824,255.5650,38.6793,104.8721,40.6893,-53.2008,-95.2819,-78.2246,-208.1879,-144.3904,32.4220,33.7285,6.9756,-84.3023,-99.7629,-58.3672,137.1818,8.0111,-224.0036,9.2505
-3140.6250,114.4679,128.7326,89.6866,29.0794,91.8487,-75.1140,-45.3355,-28.6844,-84.5548,-54.1318,83.1672,-26.2042,21.0307,-106.2358,-86.3710,-45.2584,81.2436,-13.8717,-70.2886,-10.4127
-3132.8125,30.1016,44.5415,1.3449,-48.5762,-33.3501,-125.3884,14.2610,30.4914,-135.2849,-11.2738,31.5597,-76.5032,-30.2702,-84.5337,8.6899,50.5195,-3.0403,-63.0933,56.0905,-61.1604
-3125.0000,52.8434,67.4586,-12.8932,-28.1325,-10.4469,-102.5714,-0.0518,89.7557,70.0901,57.6721,127.0677,-89.7045,-7.4707,-61.7357,-6.1549,35.4039,89.7974,-215.2309,-62.4549,-221.5407
-3117.1875,-15.7563,-35.9807,-47.4700,-93.4883,-80.8915,-100.1208,76.2838,54.6589,109.1206,91.4062,56.2297,-161.2771,-78.0208,-59.3033,142.6526,36.9531,-13.7117,-72.7047,150.6628,-75.1514
-3109.3750,-32.3584,17.5772,-65.0504,-9.6959,-135.3451,-45.6783,57.6218,35.5560,16.1377,25.8752,74.3925,-68.8591,-95.5741,-4.8783,87.4744,17.5218,75.7858,-159.1866,27.7753,-162.4009
-3101.5625,128.5565,2.6366,27.8735,-0.5484,-42.2997,-25.7435,-68.5451,17.9436,35.6650,-4.0240,241.0721,-85.9499,-39.6261,-20.9564,-76.2083,-72.4085,95.8092,0.8274,12.3759,-0.0037
-3093.7500,76.5729,20.7855,47.9012,-19.9513,-23.1598,-78.7170,-122.6065,-35.5822,-201.7173,-67.2284,149.8407,-102.9657,-56.5855,-37.9460,-57.7768,18.7812,43.9314,124.9554,66.0971,129.3182
-3085.9375,118.6428,98.9833,91.9769,78.1359,58.0266,-35.6426,-189.6178,-29.0612,-158.0456,-95.8443,156.6659,-22.9428,-13.4963,-30.8872,-161.2945,-47.9642,191.1231,26.1121,-138.1459,29.2431
-3078.1250,98.2162,7.6685,106.5542,-21.5752,72.7091,-94.0821,-101.1258,-51.0471,-143.8583,-61.5777,61.0014,-81.4392,1.0989,-89.3378,-73.2999,-34.1908,29.8115,146.7696,51.1267,154.6977
-3070.3125,-6.0273,9.5430,-2.6765,-39.9073,0.5783,-92.3332,-26.4241,22.1630,-68.4761,-39.4390,25.5381,-79.7487,2.8870,-87.5915,36.9212,-69.1919,-3.3017,7.6151,-17.3940,10.6765
-3062.5000,18.3350,-34.9817,-14.3110,-50.6713,25.0423,-30.9877,-2.1281,82.9700,138.5325,45.9925,86.6920,-92.4589,64.2722,-100.2479,-12.2540,-82.5860,-13.8013,-2.9548,-27.3333,-3.6843
-3054.6875,-105.8560,-125.0648,-33.4973,-114.5566,-30.0546,-50.2048,51.6220,63.2146,-28.0033,48.1544,-6.7080,-148.7372,82.1025,-82.4703,78.0423,43.4829,-102.8542,12.9415,163.1941,17.4363
-3046.8750,-57.8945,-112.9893,-21.5370,-32.0438,-18.0063,-2.2821,-9.4833,111.6036,-52.3847,25.9259,116.0483,-62.8769,131.0804,2.4477,-56.5105,54.7099,49.2640,-115.0235,-35.1464,-114.4932
-3039.0625,34.2794,-124.7176,39.6335,-48.4145,43.2433,-14.1752,-21.3918,25.1858,-64.5556,7.8330,104.0132,-74.8374,82.2581,-9.4494,-32.8605,42.1512,2.5904,48.2138,56.7195,52.2239
-3031.2500,-49.0043,-32.9086,-8.6484,-16.4203,-4.9686,10.4688,3.2490,-23.6817,-77.1863,-16.9688,18.5279,-14.2699,33.9805,15.1949,28.3571,67.1717,-10.5376,-70.0054,-26.8518,-71.1033
-3023.4375,42.8673,-80.9607,49.2189,-9.1322,52.9711,31.2555,-12.9634,-39.3928,90.3518,35.2092,113.2097,6.4313,54.8570,35.9864,-25.2718,50.3579,46.4964,-154.0943,-41.2843,-159.2555
-3015.6250,-1.4082,-195.1803,3.9365,-90.4660,-29.2440,22.8825,52.6801,-48.2574,7.7450,62.9940,30.7405,-74.0444,9.5812,-9.3891,113.9660,151.4189,-67.6253,-57.3222,161.1568,-58.5693
-3007.8125,-18.4871,-71.2014,-15.1480,-5.8905,-47.2700,40.7053,-3.4807,-30.9234,25.3408,19.7593,48.4758,-20.3256,27.5007,45.4316,94.4064,95.6952,56.4668,-144.3635,-66.2143,-151.3490
-3000.0000,33.2960,-54.3770,38.6196,-31.3927,42.5587,-15.6332,13.2044,-50.7439,78.8016,33.8611,-8.9262,-39.7695,44.2697,-46.9048,73.6998,37.8335,2.4120,12.4471,19.2643,10.6377
