Time,Fp1,Fp2,F3,F4,C3,C4,P3,P4,O1,O2,F7,F8,T7,T8,P7,P8,Fz,Cz,Pz,ref
-4000.0000,-22.3006,-42.5307,-68.7124,5.9664,33.0382,22.5974,-65.0205,38.4006,20.3691,10.4830,33.2003,6.7830,31.4911,7.9921,-49.5028,4.4079,25.9214,-4.2348,80.7670,-1.7437
-3992.1875,28.1813,-27.5224,161.7675,-146.0634,8.0123,34.3367,312.4312,26.0113,-76.7164,169.3953,-64.2233,-53.5151,-138.2224,-126.0197,73.1791,90.1887,-380.0344,-22.8344,-148.2479,84.0328
-3984.3750,-41.5935,7.2321,-56.9915,51.7341,-62.2844,-36.1850,55.6782,24.1999,-39.0669,25.0732,13.1070,20.9274,-61.1666,22.7149,-107.3599,-18.2714,112.7183,46.3040,63.4693,49.5714
-3976.5625,130.6300,73.9840,86.2163,-5.4210,46.4036,72.2763,-93.1124,-49.8911,-3.4190,-13.2663,48.4585,19.3741,-61.0626,-89.5326,37.1010,-19.7436,-101.4804,7.4389,-149.7863,11.1044
-3968.7500,-4.5769,78.2900,160.9942,40.2701,-60.3595,74.2811,201.6471,-0.0833,-184.2239,25.9485,-94.6281,58.3579,-166.3853,-13.2409,-69.8467,19.3321,-95.1703,83.1085,-141.5253,87.1883
-3960.9375,107.5014,49.8918,24.0641,131.2515,24.1552,86.5740,-228.2748,-3.0508,-62.7487,-109.5419,27.5958,33.6431,-43.3789,-0.6343,-132.4934,-42.3036,228.4451,55.0838,6.0413,-11.4207
-3953.1250,134.0985,39.9893,268.6191,-96.2171,49.1753,74.3636,125.2529,-19.9023,-109.7699,63.4515,-56.6540,-51.5814,-163.8277,-158.5199,76.3730,93.5495,-307.4227,45.5428,-246.8907,50.4623
-3945.3125,-46.5540,-0.1706,41.9478,41.5929,-65.0694,32.8913,119.5729,33.7816,-114.0614,-51.7912,13.8370,-56.0624,-56.5137,-16.6602,-110.9789,52.1642,75.4091,111.7469,-4.0936,46.1063
-3937.5000,169.8269,39.7135,86.3025,-0.2060,89.7273,114.4597,-130.0777,-38.7075,-70.3056,-79.9988,170.3900,-85.4978,-10.1121,-118.7373,-30.2855,-13.1847,-24.6724,46.0052,-139.2181,-19.2023
-3929.6875,83.8294,93.1931,212.2735,-19.8361,-39.8679,57.6238,251.8563,-37.6087,-235.9477,10.3991,40.5598,-31.3520,-102.0837,-137.2315,-49.9536,-32.9384,-180.1905,100.8505,-187.7653,71.0878
-3921.8750,106.5089,116.3679,-19.0510,138.5971,25.2169,49.4751,-161.4753,-52.8734,-61.9080,-144.5023,106.4143,33.4935,1.6660,-73.0166,-131.9069,-114.9900,229.9838,88.3935,-22.6062,-10.9128
-3914.0625,183.5482,122.8913,205.9601,-38.0803,67.6515,54.6642,62.4973,-85.3093,-56.5089,-29.0644,2.6305,-35.3146,-101.1975,-213.4422,94.5045,0.2913,-184.4588,24.2769,-260.0840,31.4269
-3906.2500,40.7961,155.6196,91.1941,122.8506,-45.7240,-21.9572,94.7032,-61.2659,-131.9260,-104.4124,-36.9556,35.0713,-65.8504,-69.6799,-91.8485,-75.2276,165.2521,128.3491,-85.3913,64.9740
-3898.4375,239.4809,212.8002,117.8596,132.5882,91.3333,41.8581,-282.6523,-137.0707,-31.8969,-187.3264,101.9104,-11.0899,-0.0192,-116.4482,-28.7537,-158.3114,223.4489,44.8722,-167.2298,-18.0283
-3890.6250,132.4867,245.2802,256.8353,49.3952,11.6941,34.9651,150.2702,-91.1140,-147.5588,-46.9439,-122.9127,19.0412,-186.8572,-157.9230,38.6745,-18.0976,-94.0770,77.6746,-271.7860,86.2633
-3882.8125,64.5794,211.8550,3.9196,213.1632,-18.8671,4.1581,-175.6647,-75.3510,4.8629,-187.4514,-80.6470,62.2706,-69.5828,-5.2871,-65.7777,-121.7765,366.4729,80.5664,-22.2467,18.6661
-3875.0000,206.0765,211.8237,151.3818,49.0712,18.9614,41.7372,-102.2378,-126.7822,5.6955,-77.5722,-41.9615,25.8945,-140.8693,-114.2364,156.1856,-49.0677,-20.5426,9.8470,-266.2943,19.4607
-3867.1875,24.1833,241.3881,67.4659,147.0861,-135.6196,-3.0928,107.8136,-66.1718,-111.8796,-84.0785,-85.6712,91.1097,-182.5400,-12.5937,37.7882,-19.7508,150.9885,39.7138,-128.7763,84.8595
-3859.3750,184.3721,189.0466,-56.3642,143.7205,-39.1234,-16.8410,-273.0266,-93.9644,94.6438,-98.4833,12.7143,78.4226,-84.0855,12.1590,62.4937,-70.3392,275.6424,-47.3196,-74.1389,-1.6390
-3851.5625,106.0762,181.2028,150.3075,-7.1413,-87.1268,-28.0955,190.6033,-94.4335,8.6931,36.6133,-182.3936,65.2178,-167.1065,-72.5978,196.7366,27.5711,-153.2107,-54.8719,-256.0085,96.3536
-3843.7500,-9.1804,171.4070,-114.9536,142.8654,-131.0994,-72.3106,-37.6694,-52.9438,38.7754,-80.2274,-42.4651,95.0524,-26.0739,66.6927,6.0547,-52.4549,259.9496,5.6258,17.1572,52.4060
-3835.9375,137.0096,141.0555,37.2108,-8.0105,-51.6295,-30.0857,-68.5250,-89.1471,119.3104,0.3679,2.9229,28.3345,-53.5607,-109.5495,197.8210,-9.0476,-51.4030,-59.4265,-152.2013,22.8995
-3828.1250,-68.8378,74.6456,2.3521,-24.8536,-159.2080,-63.9078,298.5838,-5.7154,47.7913,38.9271,-103.7445,-6.4465,-86.0867,-69.8511,163.5746,66.3131,-80.8599,-18.5426,-40.6388,98.3423
-3820.3125,-26.1109,11.8264,-132.9078,38.3185,-73.2061,-52.1399,-129.6780,-18.4149,171.8588,-57.9206,56.1769,6.3696,76.0034,16.4598,139.9288,6.2796,174.2902,-82.0508,74.5302,1.3908
-3812.5000,-9.3129,28.0577,61.8808,-135.9072,-58.1509,-37.3286,213.0733,-32.9494,37.9816,66.2700,34.1630,-16.7719,-18.8221,-79.1793,301.3517,130.2856,-301.4998,-100.5210,-153.2607,88.4788
-3804.6875,-92.5648,14.2448,-135.3541,31.9895,-145.1613,-87.5771,87.8236,13.1633,-11.9634,-56.5775,96.0868,6.0335,154.3048,54.1240,30.7550,43.2433,142.6151,-43.0480,115.8709,75.5258
-3796.8750,126.0260,-13.7163,-51.7620,-101.4723,-24.3369,-40.9887,-84.5998,-26.5111,36.9478,-8.5898,107.8716,-128.3060,241.3032,-7.6989,190.0039,55.0373,-60.3760,-141.7319,-15.1238,13.4169
-3789.0625,-78.4660,-112.7839,23.7484,-170.3256,-130.6175,-36.5028,320.8792,22.1836,-106.2364,68.3008,-71.4264,-125.7533,210.2088,32.3772,304.1927,131.7356,-264.5133,-100.5350,-43.2480,90.2043
-3781.2500,-75.9779,-145.8545,-226.7426,-66.5670,-122.9272,-67.0279,-149.6049,29.0792,48.5679,-33.8064,47.2684,-82.2013,404.1199,151.4631,275.3896,66.4375,90.3470,-132.3351,172.6309,-12.0010
-3773.4375,-38.0760,-143.5200,-42.8410,-259.3813,-120.8376,-29.1583,107.2683,9.8909,49.7854,151.4782,-23.6273,-116.2523,334.4522,5.9526,497.9953,177.5250,-398.3683,-235.7428,-70.0903,26.1828
-3765.6250,-251.0220,-112.0307,-193.7593,-85.8581,-234.6076,-104.1452,176.3366,60.5389,-63.8545,75.9265,-135.3887,-10.1577,407.9337,187.5782,311.7811,101.7659,-49.9840,-134.0044,175.3002,23.5237
-3757.8125,-60.9323,-133.4881,-174.6410,-123.6607,-68.3462,-86.0938,-99.5471,-16.4670,29.5506,21.4061,-78.1022,-27.0109,503.4856,171.2695,405.6140,47.0435,-69.5128,-225.2106,85.7561,-67.0875
-3750.0000,-189.9662,-157.0920,-57.6548,-237.6403,-169.2302,-113.1917,349.4059,7.5154,-108.1914,140.7363,-177.9523,-56.0234,439.8988,179.7993,452.3286,129.1653,-374.2215,-213.5796,-6.9637,15.1454
-3742.1875,-161.6635,-163.3453,-245.3040,-103.9730,-172.7863,-189.9506,-96.2459,-20.0343,35.3925,-8.5790,2.5451,-58.6833,623.6608,324.6790,265.3974,-20.3647,76.4015,-184.5919,198.6560,-61.2621
-3734.3750,22.1991,-87.0425,-18.4129,-268.4038,-91.7890,-182.1598,-15.3810,-98.4854,-29.4723,109.6353,11.6040,-87.7999,596.9922,149.1146,495.0140,60.6404,-336.3901,-248.0606,-108.1650,-53.1308
-3726.5625,-113.3811,-47.1903,-88.9347,-146.2559,-197.2455,-288.8227,134.0744,-72.2820,-171.8011,113.4183,17.1967,-10.3767,492.8647,263.0829,278.2131,28.2039,-85.6884,-136.9848,3.5293,-12.4453
-3718.7500,115.2713,-30.0870,-105.2101,-113.0871,-65.4659,-304.2494,-322.2083,-160.8325,-76.8887,25.4401,261.0321,11.2956,553.9982,249.3161,264.6529,-96.9921,73.2930,-225.6517,-13.5155,-100.5079
-3710.9375,66.8970,-79.0286,97.4814,-265.6573,-119.7299,-321.7232,63.4328,-146.8715,-204.0188,192.4054,170.8220,-43.0902,465.0922,158.4913,358.0641,32.7570,-290.7861,-204.3794,-199.6328,-7.6296
-3703.1250,19.6138,-91.8678,-134.7019,-85.4716,-166.9066,-406.1017,-204.7706,-137.4532,-178.0684,34.4796,197.6969,-16.3799,604.2800,295.7625,201.5887,-51.3988,224.2028,-112.0021,34.3279,-54.6409
-3695.3125,202.3323,-49.7048,56.1017,-220.8518,-48.0916,-360.4880,-197.0028,-196.7982,-170.1063,117.5359,207.5836,-44.6692,578.4802,121.0489,358.1069,-5.5749,-120.7666,-175.6273,-203.6969,-82.6611
-3687.5000,21.6663,-20.9407,47.5375,-166.3636,-202.6827,-406.2717,87.3929,-128.4368,-287.5454,109.2038,127.0611,-16.3633,536.2706,223.9218,203.2552,22.8583,-55.1880,-110.6635,-66.1606,-17.0800
-3679.6875,83.8315,-29.3224,-141.1800,-117.0115,-133.4460,-373.2152,-358.3341,-169.0833,-70.1523,-4.2833,382.3817,-20.2055,681.9107,257.6612,200.2433,-90.8617,148.2581,-189.8425,32.2341,-130.6448
-3671.8750,94.3193,-89.4027,50.4045,-306.7451,-197.9071,-364.8552,-20.7903,-179.5789,-25.4487,151.5258,281.0080,-85.7520,545.8581,118.6986,393.5448,-9.2876,-296.9885,-213.7322,-167.0846,-48.9197
-3664.0625,-68.5901,-147.8757,-193.3764,-172.8716,-257.7838,-424.9018,-301.5889,-103.8127,135.8361,54.9481,296.2099,-34.7014,635.3861,243.3237,260.4603,-32.1103,102.3260,-201.0190,163.1667,-71.5841
-3656.2500,98.1001,-157.7442,-129.5712,-315.0385,-119.0705,-395.3532,-530.8131,-151.9177,312.7265,121.9540,290.0077,-116.0481,667.5219,89.5647,511.9638,-3.3476,-153.7159,-245.6982,15.0328,-115.6558
-3648.4375,-159.1429,-169.5634,-73.6852,-317.2235,-245.3034,-412.7491,3.0274,-90.3712,148.6710,216.0228,89.8529,-96.3557,505.6927,146.8347,532.5488,17.4681,-269.7548,-152.3360,38.9178,-21.6791
-3640.6250,-155.9125,-200.8817,-247.2902,-202.6436,-163.0547,-366.6501,-172.5883,-93.2498,232.1051,41.5899,137.1848,-86.1612,554.3562,230.6117,469.6310,-83.2279,15.7051,-149.4621,186.3024,-122.1950
-3632.8125,-160.6187,-206.1423,0.1563,-363.4287,-134.7508,-301.4977,223.8165,-88.8132,150.6023,181.1859,-16.4237,-94.9222,401.0773,75.4417,572.7678,55.1106,-480.7682,-154.5418,-64.2677,-56.6730
-3625.0000,-295.7712,-201.8512,-142.8099,-192.2957,-165.9062,-332.7950,79.8279,-14.9772,118.6323,75.3464,-47.4996,-53.1381,408.3277,154.8096,283.4744,24.0076,-89.7438,-44.0736,187.6751,-51.5931
-3617.1875,-46.7360,-164.3557,-63.5857,-193.6399,-12.8716,-216.8962,-207.9665,-80.2347,161.8598,8.6895,70.6254,-83.1516,380.7790,51.3916,328.3645,-42.9031,-120.4805,-76.4009,51.8351,-118.3176
-3609.3750,-155.6296,-98.8054,109.7179,-195.5693,-95.7770,-188.9430,223.2912,-60.5600,-67.8571,73.0888,-85.1986,-56.1240,227.2685,6.0067,282.3186,-15.7635,-300.1979,24.3119,-56.9894,-16.9963
-3601.5625,-129.7873,-71.4983,-116.2127,5.1611,-25.9520,-158.2456,-186.6464,-63.5785,1.1597,-114.7544,21.7021,-23.3463,298.4807,112.3713,95.0217,-167.8721,183.8275,50.7852,146.9289,-94.9163
-3593.7500,3.8203,-44.4344,131.6036,-135.2634,37.6237,-93.7990,-12.8643,-112.5795,-44.0620,-12.8666,-22.6492,-69.8176,144.4382,-43.5100,233.4661,-103.2398,-209.3630,8.0118,-141.3986,-67.0964
-3585.9375,-163.7144,-38.5141,26.3127,0.7855,-103.9508,-124.4963,65.8146,-37.6458,-112.4424,-44.1179,-53.1693,-27.4427,78.2194,72.4419,19.7769,-97.7521,78.2447,85.0881,43.0827,-24.4221
-3578.1250,69.1400,18.8166,-20.5815,32.3482,-3.1366,-60.7946,-312.0981,-97.0549,-11.4315,-89.9853,85.7031,-36.6596,108.3927,26.8081,10.4648,-143.8821,171.2860,36.5752,-39.0253,-107.3470
-3570.3125,0.8162,90.9537,159.3441,-52.2094,-79.5141,-64.2862,161.7742,-81.1177,-159.6100,17.9426,-26.6132,-40.0759,-39.6512,-49.0311,8.9639,0.7776,-141.8839,38.8544,-211.3640,0.5208
-3562.5000,-44.7671,114.8492,-70.9552,143.9563,-88.1633,-73.0273,-105.5475,-35.8823,-133.0536,-138.3715,2.7980,-11.7405,28.0220,89.8750,-181.7871,-81.8022,339.6682,97.8926,60.0294,-44.8520
-3554.6875,101.2048,85.2994,118.2828,-23.5826,28.7363,6.7833,10.6529,-74.2147,-126.9345,-95.1537,-27.2357,-79.8561,-74.7607,-50.6571,7.9963,-1.8440,-77.1908,68.4826,-179.0155,-38.6840
-3546.8750,-104.5095,54.0557,81.8592,62.3401,-45.0681,6.9005,305.1956,-9.4368,-235.5170,-93.6224,-171.9833,-42.6720,-144.2809,-12.9079,-99.9009,-74.5813,33.2017,177.3683,-33.7995,35.7873
-3539.0625,50.5080,68.5658,-8.8092,123.9092,122.8670,63.7640,-153.4871,-44.4131,-68.3577,-219.3496,-3.9938,-58.7288,-86.0732,-28.3993,-153.0708,-164.5745,224.3633,158.0163,18.1769,-53.9869
-3531.2500,32.8988,85.4308,261.8830,-10.5699,100.1631,77.9878,227.1603,-25.3370,-200.8355,-59.7296,-135.6582,-81.4441,-252.5291,-160.5490,-100.8853,-41.2177,-180.1270,174.0091,-174.5149,33.5797
-3523.4375,-63.8728,59.1482,51.4598,187.1834,74.2975,89.0605,53.7233,25.2559,-116.4730,-194.2387,-88.5035,-34.3176,-203.1727,-76.8571,-346.8446,-138.9911,286.1874,253.8556,81.6187,8.0067
-3515.6250,109.6979,56.2154,197.3765,49.5188,183.7802,198.4885,-21.3810,14.1838,-6.7488,-85.4096,-51.0052,-108.8356,-275.4800,-222.8023,-199.4746,-67.4313,-32.1070,146.0607,-95.8801,-29.2233
-3507.8125,-71.3173,48.6899,184.7295,36.4503,61.6689,150.3295,334.9437,79.0981,-90.6246,13.8267,-134.1138,-81.9560,-394.4219,-197.3700,-283.6914,31.5270,-109.0453,173.6673,-66.0171,69.9473
-3500.0000,38.1037,18.6270,10.5429,131.3057,144.9916,159.6233,-98.2435,57.1958,64.9351,-123.4902,23.2061,-73.6198,-308.9483,-114.4821,-309.4873,-69.0651,212.4793,107.7420,80.2961,-30.4266
-3492.1875,79.1448,-46.8260,269.9646,-29.1997,146.9237,198.5258,272.1357,66.9619,-42.8943,26.7799,-156.8786,-70.6787,-488.8891,-220.9947,-122.6958,43.9365,-238.3783,78.4174,-122.7968,45.7875
-3484.3750,-89.7161,-111.1690,54.5248,106.2045,79.9529,204.5365,203.6807,130.9574,-36.6373,-76.8370,-149.8887,-28.6376,-406.7737,-67.4208,-299.8031,-23.9572,83.8226,119.1974,129.1706,52.1117
-3476.5625,59.7189,-102.2039,103.3792,32.8067,166.2777,290.8460,-4.4833,84.5527,123.9241,-64.1735,-26.6030,-89.2862,-392.3813,-163.5348,-175.6350,26.4326,-47.6309,23.2911,-35.5482,-8.2670
-3468.7500,-92.9256,-43.3319,160.1655,25.7034,38.5128,274.0690,419.2619,120.2470,-39.6113,-7.6035,-152.4305,-32.0371,-481.1257,-106.7652,-228.5542,119.7282,-199.2179,81.2830,-81.3988,85.2500
-3460.9375,-7.6840,-30.5503,-42.1296,190.0285,94.6332,257.1923,-3.0390,114.6967,53.7431,-170.1288,-59.3812,24.1196,-386.0101,-14.0947,-392.5941,28.9280,237.0904,95.1831,108.6397,-5.3234
-3453.1250,95.0721,-33.2563,211.0779,-0.9560,127.2582,289.8195,250.1285,90.2863,49.6144,-28.1654,-134.8208,-54.2202,-535.4202,-163.9239,-175.1483,134.6120,-222.0663,22.5792,-137.8223,27.5968
-3445.3125,-92.4168,-46.2057,49.0739,148.1516,39.6312,238.2014,272.1043,119.4124,35.2263,-78.4349,-185.5373,42.1947,-474.1255,-68.0214,-335.9430,10.0586,81.4785,149.7268,60.4295,50.2772
-3437.5000,74.5823,-18.6504,44.5678,127.7949,182.5006,307.0794,-64.4095,56.2289,178.3428,-156.2202,-79.7712,1.1165,-366.3554,-109.6079,-229.2693,-30.9992,73.5579,71.3888,-16.8012,-27.5417
-3429.6875,-75.8449,4.4616,211.6394,10.2301,92.9348,254.5208,434.6202,88.7876,15.0165,11.5468,-130.4625,-15.4098,-491.0699,-160.6583,-207.0443,100.4950,-252.8310,60.5993,-132.5141,67.1850
-3421.8750,-120.3364,-39.4663,-51.3167,166.4725,87.3056,212.9173,61.6617,132.2060,120.6228,-103.7235,48.7678,17.0185,-383.8828,-18.7626,-395.8853,58.9479,230.7106,51.7721,141.7124,-11.1286
-3414.0625,67.1299,-28.4343,143.6731,17.2162,135.6293,261.2733,108.6306,95.4709,169.1897,18.9426,-13.0490,-8.6017,-480.7709,-152.9161,-199.8040,143.3410,-143.7576,-7.0961,-93.1030,0.4989
-3406.2500,-123.9947,-8.9908,88.1024,125.5047,6.3572,205.0401,347.0436,119.8980,77.1526,0.0233,-140.4890,83.1769,-461.3116,-61.6915,-328.3188,51.1447,15.1269,117.4424,33.4428,55.5301
-3398.4375,56.2172,30.8174,-13.1182,180.1944,126.4272,251.1635,-48.1729,46.1302,197.4609,-137.5552,-20.5953,92.3193,-302.5407,-89.1084,-281.5238,-123.7186,161.3913,86.3526,73.3476,-45.0855
-3390.6250,-32.5402,47.6405,220.6848,49.9328,103.5131,265.3058,369.5887,78.6637,63.7770,23.8574,-152.6983,32.4605,-471.8044,-147.5398,-193.7419,0.4054,-208.3437,68.2693,-84.7719,42.2908
-3382.8125,-80.2001,34.5709,-11.3778,203.6877,55.6951,217.5544,64.5125,117.7717,126.1725,-60.6203,-90.7186,58.7037,-371.0239,-11.8792,-387.8786,-47.3610,235.9919,90.3003,150.1839,-5.2225
-3375.0000,138.5918,40.9595,144.0028,71.3731,174.3288,262.2613,-1.1350,53.6115,135.0301,22.3399,-81.2965,-6.5956,-360.8213,-113.7632,-194.5983,-1.6854,-38.1765,-8.2109,-89.3969,-33.2931
-3367.1875,-50.8508,27.1090,126.1715,110.3288,45.7244,207.7325,347.9983,88.9131,6.6406,4.0639,-134.1497,48.8532,-376.9224,-56.9171,-285.5605,-20.2540,-16.6392,84.0309,3.7365,59.3889
-3359.3750,59.2885,31.8692,-12.0571,183.1879,91.7046,217.8102,-121.2297,70.9820,163.8460,-96.6142,-14.4209,57.9117,-256.4739,-10.4640,-311.9509,-84.2244,234.5168,52.8868,115.4786,-41.3228
-3351.5625,26.7433,33.9370,207.0218,12.5970,90.9978,216.1956,282.8197,58.4930,89.3745,87.0106,-161.3937,20.2693,-366.7643,-157.7186,-129.0532,25.1042,-220.0191,55.0425,-127.4849,31.2572
-3343.7500,-88.4625,59.3583,-23.5159,216.5844,44.6375,169.9415,162.2844,87.7489,43.2483,-69.9930,-133.0541,120.9790,-300.7605,-20.6397,-321.8111,-94.1993,227.7510,115.5589,143.8773,22.1976
-3335.9375,136.6243,72.0827,103.2413,116.2243,171.5782,223.9945,-41.9585,17.8017,133.4334,-52.7055,-80.4366,63.9951,-282.4895,-150.2499,-157.3056,-78.2116,29.8621,58.3933,-52.4401,-34.5670
-3328.1250,-49.7699,62.3148,161.5364,80.8636,46.0363,171.5668,384.3102,66.6850,8.1265,6.0931,-204.3331,86.5104,-369.7707,-127.3797,-208.3018,-19.7165,-120.5631,118.7281,-27.2921,61.1678
-3320.3125,-11.2257,64.5067,-51.2057,198.0148,90.4329,180.0913,-49.4220,34.5393,126.7605,-133.1566,-49.2997,93.9849,-177.1563,-9.5619,-274.3827,-158.2618,233.9688,86.0306,117.7998,-41.1379
-3312.5000,111.7890,47.1579,185.5071,26.5173,106.2953,196.0758,187.2668,3.8165,69.8587,-5.9661,-69.8128,36.9108,-344.1236,-176.2962,-74.0372,-32.3626,-170.0280,33.7889,-144.6613,11.9965
-3304.6875,-57.7930,53.2192,7.6596,171.4571,2.5624,128.4742,156.4119,65.2143,2.3519,-73.3582,-98.9533,80.2383,-299.7500,13.3476,-250.2961,-26.0495,188.3268,109.9541,72.2420,18.5403
-3296.8750,153.1603,86.8416,10.3567,130.5699,115.3778,168.4265,-171.8856,1.7616,152.3952,-107.2123,14.4415,45.1268,-259.8651,-57.4479,-138.0432,-23.1900,152.2769,3.6883,-33.2908,-52.3664
-3289.0625,55.5878,129.9268,123.5269,79.4897,7.6592,134.8459,272.2719,12.4484,-29.1013,6.3850,-91.7266,85.4624,-402.5790,-89.8079,-134.3420,16.1293,-85.3464,46.8746,-130.4025,61.1741
-3281.2500,36.5966,110.6192,-113.6824,244.2251,29.5346,118.8723,-147.9101,50.0217,65.9940,-119.4110,2.6704,143.4042,-306.7486,77.4261,-296.0685,-109.9401,352.6236,97.6798,168.0809,-27.6751
-3273.4375,117.6180,86.3203,118.1077,60.5293,76.4222,203.9081,9.8778,36.7230,77.1071,2.7827,-59.9382,117.3549,-368.9522,-58.3392,-101.8245,11.9774,-129.3705,3.4946,-67.4311,-16.5309
-3265.6250,-118.9033,59.4861,-22.6125,141.3979,-27.2298,100.4088,200.1607,94.6562,10.6626,9.4414,-162.1045,197.7583,-324.7694,96.3283,-241.1392,18.3529,55.0382,46.7674,117.4654,27.0701
-3257.8125,106.8181,109.9170,-39.0854,163.6750,103.3595,120.1672,-220.2961,26.6429,104.4567,-43.6617,-32.0237,181.4268,-193.3807,42.2522,-221.2511,-35.0246,175.7352,-43.6902,62.6262,-63.0757
-3250.0000,61.0683,98.8582,165.9651,28.3481,14.4705,68.4401,167.7292,39.9527,-94.2417,124.7341,-83.4427,128.5977,-281.5369,-46.3414,-162.8805,60.0979,-151.0711,16.3558,-87.7327,32.2733
-3242.1875,9.8559,82.3627,-69.4087,179.3389,37.1248,90.2723,-140.6299,99.0684,-72.4038,-36.3068,12.6521,114.3277,-185.2051,86.6073,-360.9789,8.7807,254.6539,69.9659,178.4453,-18.8149
-3234.3750,171.9958,68.2271,100.5591,1.2006,133.1392,150.4646,-154.6654,40.3516,-12.2013,96.9854,36.0888,-9.5822,-198.5574,-74.0849,-117.7609,31.8018,-111.2264,20.9368,-82.0131,-32.5587
-3226.5625,-24.7985,48.1499,75.6129,46.2204,34.2155,88.7190,150.3862,88.1312,-109.9477,109.3438,-135.4381,38.5621,-185.9189,-25.7550,-179.4976,5.8904,-61.0988,105.9633,39.5388,52.7517
-3218.7500,89.0919,20.7872,-58.6301,113.5354,120.9830,101.6801,-313.8344,56.8790,85.9978,12.3976,-49.2801,51.4210,-63.6334,-11.7157,-129.5794,-54.3205,193.7559,43.7088,118.8014,-44.2314
-3210.9375,67.7585,69.1863,171.8851,-34.9746,57.5165,75.4070,100.6657,12.7799,-14.2902,169.1983,-148.3739,25.0344,-162.6340,-147.9348,64.0683,29.2170,-214.6333,22.2095,-149.1963,39.5281
-3203.1250,-17.7802,89.3873,-63.7638,155.2881,5.8513,-13.0575,-24.9698,38.7522,-65.7919,7.8201,-89.6997,84.4490,-65.8968,-16.3656,-170.4923,-59.4308,262.7403,112.5206,117.5825,25.1002
-3195.3125,181.3282,111.2467,72.2261,41.8360,104.8411,13.1323,-145.9693,-21.2354,-2.6309,34.0816,-64.3808,36.5183,-41.5450,-137.1430,-35.4386,3.5664,38.8110,-5.5054,-70.9687,-22.6808
-3187.5000,-36.3992,105.2665,98.3952,49.0113,-17.0042,1.4861,210.2003,46.4360,-123.3123,96.5082,-184.9264,61.7326,-198.0957,-73.7919,-82.2335,28.7303,-38.0039,58.6228,-6.4028,76.6909
-3179.6875,26.5570,96.9995,-88.7273,181.8057,90.8445,-0.4554,-232.8855,25.1255,-16.3033,20.6371,-3.7996,95.6600,-90.9965,-40.7407,-195.3632,-157.4020,341.8925,50.4688,162.8659,-36.2281
-3171.8750,93.9286,94.1406,162.5537,1.4471,85.1101,30.0149,54.3950,17.3113,-59.8733,198.1561,-119.2657,52.9921,-170.5317,-230.2936,-19.1129,-17.1386,-117.7896,-23.2797,-86.4669,31.2460
-3164.0625,-81.1988,24.7901,-57.6315,123.0592,-25.1196,-43.0077,18.2337,84.7281,-58.9462,125.1994,-155.2563,90.8242,-95.6291,-46.3668,-127.3714,-53.3567,233.9830,13.4773,196.6730,32.2320
-3156.2500,106.3125,1.0931,-5.1804,22.5145,63.3009,-27.3779,-260.2859,39.1107,177.6391,177.8859,-140.6060,32.3175,-81.1155,-104.7837,33.9801,-0.9224,104.4522,-81.1000,67.4904,-26.1321
-3148.4375,-31.8041,37.7570,65.6494,-33.8207,-84.9086,-65.3881,177.5473,44.3142,101.5828,248.9309,-215.6225,29.1603,-193.3021,-105.8677,30.6763,69.8764,-103.7523,-8.3230,-35.3701,81.8536
-3140.6250,9.2613,78.6323,-144.3036,124.0023,-38.9214,-93.1921,-289.3698,5.7858,148.7197,39.1850,51.5251,76.2145,-37.3464,14.2473,-178.4517,-30.1178,324.2386,32.6741,110.9647,-17.9489
-3132.8125,106.9380,71.1188,103.3334,-27.5685,25.6826,8.6182,-114.7226,-29.7455,29.4732,140.0291,115.2723,30.8767,-192.8240,-141.0383,31.9969,-2.5237,-106.1345,-9.7165,-141.0944,9.8415
-3125.0000,-113.8329,60.1651,-19.4416,99.4422,-61.1566,-4.0097,-17.4785,27.2888,-93.2243,54.4420,66.5476,92.0905,-168.8101,29.2077,-127.0068,-15.3627,128.9954,119.4499,23.3644,34.1919
-3117.1875,79.1332,42.9743,-32.4754,74.8739,109.7531,56.1124,-360.4763,-33.3205,3.8311,-32.4031,163.5591,41.0637,-36.0887,16.2087,-68.3049,-28.4541,147.9168,32.3879,-63.4036,-52.7054
-3109.3750,-35.1313,34.5415,137.2577,-56.9063,22.4341,5.9987,139.2630,-16.4328,-119.3422,101.5040,2.3138,27.7875,-122.6602,-71.0559,65.1401,68.2130,-212.4230,59.0738,-177.4401,44.1446
-3101.5625,-102.8096,1.7170,-77.3888,97.2959,28.7090,-24.5131,-184.3412,12.4499,-3.9255,-39.9751,8.6459,34.1230,29.3100,81.2717,-39.8332,0.4921,246.8150,61.3802,71.1128,-23.3928
-3093.7500,36.7203,0.1042,105.1502,-95.1130,100.1976,11.1814,-113.7739,-31.7430,31.7091,68.7329,7.1836,-41.3330,27.4540,-67.1965,179.3564,108.9644,-175.7102,-45.1044,-175.1229,-24.7365
-3085.9375,-141.8863,-38.6527,-11.4278,-44.9077,-53.4527,-68.2592,137.6776,10.9493,-84.8107,63.3103,37.5473,26.0628,20.4006,37.1677,62.3955,103.3084,-74.4320,22.2641,-38.5435,42.7765
-3078.1250,-41.1095,-43.0046,-158.6087,-12.7276,20.2919,-31.2974,-228.4530,-16.4187,62.0644,-9.7088,148.2943,25.8674,167.7035,73.9446,98.7988,29.0544,61.2800,-17.9500,27.4522,-67.3046
-3070.3125,-64.9586,-66.9977,71.5656,-161.2907,-7.5987,-22.9750,220.7381,18.2145,-39.6916,145.6222,-27.6049,-1.9725,-8.6819,-27.9343,180.5444,185.1490,-348.6531,-41.8156,-135.2149,14.9593
-3062.5000,-147.5661,-79.7276,-159.9897,12.2718,-55.2438,-70.4001,-47.7643,68.1341,23.7900,25.2150,71.7267,24.4469,54.1296,108.4273,-51.4711,137.5116,131.6359,16.5794,133.3486,-32.5125
-3054.6875,35.5767,-36.6966,-40.8116,-90.2710,26.8699,12.9290,-149.5435,8.9864,69.0308,70.5405,117.8070,-3.3762,62.6679,-29.4528,104.2275,146.6212,-143.2774,-46.2604,-70.3152,-60.2371
-3046.8750,-122.2161,-20.6097,-27.5553,-57.4627,-105.9548,-47.6812,195.7451,15.9714,-27.6704,47.9325,20.9275,9.8491,1.2093,57.6932,43.9822,86.7961,-125.1829,40.9530,-18.9551,27.0919
-3039.0625,-42.2766,-9.7690,-159.5466,69.7198,-17.0321,-31.5376,-266.1779,-18.1883,135.3720,-83.9194,146.7743,24.8277,89.4598,109.5937,-14.5441,-45.2741,235.6687,15.9357,98.1675,-67.8203
-3031.2500,-5.9218,26.4785,95.8603,-70.6462,-19.6885,3.0177,98.2642,-47.7249,-14.1643,24.6276,34.0213,-13.7941,-59.9175,-3.1123,129.3151,63.0613,-185.0614,17.3187,-182.3121,3.6613
-3023.4375,-117.6205,55.6824,-93.7549,114.6712,-99.3945,-39.4744,-17.2915,-0.2602,-93.7617,-127.8583,28.1944,54.5402,43.6036,175.1163,-96.8794,-16.6297,231.1205,81.6629,93.1335,-1.8953
-3015.6250,104.0253,65.2445,-6.0367,36.6678,61.2521,11.3841,-223.5122,-41.0626,-6.0062,-115.0020,4.7078,-5.7632,19.4459,40.7052,62.2403,70.0285,100.7051,-13.6306,-72.0458,-62.1031
-3007.8125,-36.4607,66.6697,63.5512,0.6317,-89.2355,-29.9013,213.1148,-20.8496,-156.3883,-45.2783,-108.9404,-10.2184,-57.9036,74.1253,58.2153,139.5455,-39.8869,57.9254,-141.3961,44.5396
-3000.0000,11.3842,78.4503,-176.5038,142.4275,-35.3815,-11.8359,-209.8689,-37.7237,-66.4285,-174.1958,53.7456,43.6855,104.0552,201.8989,-72.4896,-26.5797,324.8732,34.8521,46.6082,-48.4564
-2992.1875,91.9412,88.9379,53.1309,-56.0685,10.1899,-3.0634,55.7997,-80.1704,-94.7506,-18.4251,63.1459,-20.7029,-35.3085,63.3715,83.4824,55.9939,-156.6366,-24.5134,-223.6770,-2.7618
-2984.3750,-100.0963,37.8368,-111.8022,53.7756,-81.8329,-57.8802,74.9169,-9.3693,-147.6860,-73.2393,44.9299,35.3083,-17.3211,229.2234,-118.1487,37.9817,107.2102,64.5293,6.4080,16.3426
-2976.5625,142.6100,68.4999,-113.0002,19.6472,27.8917,16.0514,-256.2220,-98.0179,-38.8736,-147.3121,227.4633,-1.9197,91.3951,154.8315,-10.0678,0.7142,67.8519,-9.6631,-138.7354,-57.8011
-2968.7500,83.7972,115.6312,41.2636,-41.4025,-74.9129,-14.5610,191.0710,-132.2779,-215.6014,-65.9317,197.4585,4.3016,-12.4661,50.8691,32.4527,43.8990,-166.0707,37.5982,-337.4514,59.5032
-2960.9375,86.2747,118.0731,-209.1574,121.6453,-69.4246,-44.8722,-206.2890,-97.4287,-172.0476,-206.2450,313.7420,47.8291,138.9301,167.2048,-144.7487,13.3971,293.2962,40.1779,-88.8789,-7.8795
-2953.1250,183.1161,108.8732,36.7575,-71.4888,-6.5719,-18.8303,-71.3393,-123.7856,-146.1369,-34.2230,192.3821,-0.2889,90.6641,8.8949,63.3765,76.2376,-172.9442,-39.8839,-307.9442,18.0836
-2945.3125,-33.2791,33.4305,-80.5469,-8.6345,-123.9641,-99.0293,142.3916,-47.4281,-191.4825,31.5635,73.7662,28.3380,118.1084,111.3188,-54.7416,30.8381,-2.4778,25.8081,-102.2928,83.8064
-2937.5000,128.0093,-15.3048,-129.1670,-32.3649,11.3410,-74.5310,-273.1731,-63.5798,-19.1345,-15.9508,172.8529,-19.3245,179.2260,99.4539,5.8132,-16.8629,53.7193,-22.7851,-46.9186,-0.7644
-2929.6875,13.4660,-24.8820,77.3677,-171.2701,-39.1857,-86.8801,190.3864,-51.7519,-105.6140,117.6857,48.0904,-32.8406,53.4735,11.7250,138.5240,79.5901,-341.9348,-32.2272,-195.4076,95.8108
-2921.8750,-72.5436,-40.9022,-156.5294,34.2105,-54.1615,-100.6790,-80.4544,-30.3099,-47.5580,-80.1134,70.8461,63.1954,185.2346,181.5417,-24.2180,-81.3932,133.9364,22.8951,104.6429,44.9498
-2914.0625,91.7992,-52.5650,14.9118,-81.7576,45.2262,-3.1225,-91.9835,-76.2194,14.8501,-55.5820,21.9524,14.5886,136.3388,59.7211,184.3618,-20.0390,-158.7924,-59.6214,-116.9331,33.4344
-2906.2500,-88.8415,-92.2255,6.3781,-49.5225,-109.3701,-46.5629,230.5049,3.8173,-102.7453,-26.0331,-95.9534,42.9832,52.4125,124.8848,64.9434,8.3361,-128.5613,40.8571,17.4652,98.9244
-2898.4375,23.4036,-85.9810,-128.2587,30.8807,11.9250,-36.1091,-198.0864,-30.4040,55.5506,-124.5793,-11.9720,55.2858,210.3636,135.9550,39.3952,-126.3846,123.5917,13.2516,129.7817,0.3228
-2890.6250,20.3669,-53.0251,123.8007,-93.7852,5.9382,-4.9540,162.9874,-38.1453,-24.4393,53.5634,-201.2840,12.2882,93.0046,-17.2800,143.5485,-94.4052,-264.5415,46.3464,-82.2033,68.4137
-2882.8125,-102.1261,-36.5103,-78.5698,87.6946,-12.4993,-23.2475,-2.3378,-2.3667,-42.8879,-74.7235,-220.0656,30.8408,183.1640,148.0188,-59.7453,-186.8598,172.8384,98.0000,144.3399,50.0672
-2875.0000,59.9742,-13.3906,20.6371,-32.3632,86.6625,3.0529,-159.0932,-58.2015,57.2707,-49.4206,-85.2428,-17.0023,207.9206,26.9291,75.5337,-88.7254,-51.1297,-19.7344,-44.4874,2.3179
-2867.1875,-95.9600,-29.3164,73.8172,-71.3268,-43.2074,-52.6919,224.1011,-3.9582,-72.6140,40.8407,-67.4694,-0.8995,75.6058,5.7696,53.7744,1.3668,-171.1812,-0.5182,-24.3869,92.5193
-2859.3750,-9.5640,-12.8897,-161.6549,32.7316,-22.7383,-106.0961,-232.3223,9.8728,130.8441,-11.5417,62.6491,-16.4414,131.6147,26.9653,37.3521,-14.1775,231.1265,-89.9424,168.0694,3.0810
-2851.5625,48.7950,9.4888,42.8092,-148.9221,-38.3071,-83.5520,83.1591,-7.5675,116.2764,157.0247,-27.2710,-68.0359,4.5722,-134.8908,204.8834,118.2302,-237.5921,-136.4224,-89.5189,61.5837
-2843.7500,-78.8973,-13.1768,-127.7565,4.9385,-97.9258,-145.0605,58.6336,43.2706,17.6551,59.5664,-87.2530,-19.6835,89.4517,23.1890,-4.6236,19.6049,125.5964,-18.9470,167.8150,74.0463
-2835.9375,119.4517,-23.7903,-63.2938,-65.0017,40.5021,-116.5287,-242.8601,-7.5351,83.0889,52.1495,50.8157,-64.2758,116.3824,-58.6671,96.8975,49.0317,43.8776,-100.4125,51.2273,-7.4421
-2828.1250,10.8228,-27.4045,76.1828,-112.4727,-41.0528,-86.9943,189.6325,40.6996,-107.4674,117.7366,-67.1132,-70.8736,-2.6947,-102.5348,88.4374,151.4774,-169.8679,-66.8829,-22.3828,95.0658
-2820.3125,2.0252,-37.1659,-149.4848,25.0346,-10.7684,-93.6157,-219.9811,85.1482,-4.1836,1.1807,35.7945,-78.6239,136.0631,0.4508,-66.1768,71.7875,242.2247,-42.4935,249.8568,15.4348
-2812.5000,120.1874,-58.9722,46.7793,-182.8387,39.4778,-44.2900,-23.6866,67.3882,9.0630,124.5621,-25.3339,-174.4232,37.7801,-169.6064,167.1512,195.0345,-236.6939,-99.1532,17.0602,28.7451
-2804.6875,-131.5934,-98.7263,-70.8820,-103.4223,-78.2215,-123.9170,152.6892,112.3480,1.3532,118.0039,-105.4171,-108.1755,28.5308,-31.6253,48.5535,150.3455,-67.6081,0.2352,186.2800,58.1124
-2796.8750,53.8622,-125.2228,-93.3171,-87.7014,83.3161,-36.3066,-235.6822,59.7306,126.8889,22.6891,18.7588,-131.6710,115.5338,-53.3805,99.1863,54.9069,12.7616,-59.1160,161.7733,-37.2691
-2789.0625,4.3411,-102.7162,109.2505,-194.6643,-9.1287,-54.6976,222.9177,39.2632,-2.5643,114.3747,-74.0516,-149.1716,21.5367,-108.1489,189.8273,73.4723,-317.8756,-38.4721,6.2569,54.3428
-2781.2500,-26.7989,-100.8077,-141.7696,-7.8594,-2.1812,-85.6963,-102.0360,61.1874,41.3678,-26.5297,42.5190,-107.2679,136.9269,44.4832,-25.1249,-30.5487,177.8638,0.5803,256.1330,-12.6347
-2773.4375,146.3147,-68.6472,75.4351,-143.7704,68.0210,-14.4477,-67.7812,-12.9685,38.5637,44.8000,112.3530,-146.1127,95.5802,-142.6253,155.1662,3.6717,-176.0990,-73.1161,-27.7218,-15.3698
-2765.6250,-43.8072,-46.7315,22.4098,-41.8510,-59.0190,-67.4530,173.2430,53.2365,-161.4930,27.8934,95.9344,-53.2185,40.9775,-13.0020,-46.7684,60.6635,-15.3572,-16.0691,99.1441,41.6481
-2757.8125,105.7534,-38.1131,-74.9290,12.0090,64.6268,-91.7690,-254.0238,-8.0240,-38.8550,-69.3172,255.2150,-39.6190,163.0753,0.3393,-71.0232,-36.6453,204.1108,-77.3093,142.7300,-55.6297
-2750.0000,48.7349,-25.0906,83.1244,-118.3568,1.6913,-80.6857,197.0663,-24.1075,-137.8045,88.8659,117.9129,-29.6195,61.5849,-63.9220,86.1315,10.4357,-204.0115,-99.1538,-55.2881,28.4835
-2742.1875,-84.7401,-16.5158,-128.2515,69.4835,-62.6977,-72.0562,-14.2470,23.5474,-129.2215,-86.3944,127.1524,16.9269,179.6315,92.3575,-90.1524,-53.9195,225.3831,-20.4398,199.2230,1.1580
-2734.3750,147.4296,3.7087,5.9990,-64.3991,34.5661,-10.7860,-137.9504,-36.3478,5.0195,-25.0192,151.0517,-32.8775,128.3456,-30.7001,80.2010,7.3684,-70.5259,-106.0693,-26.5868,-48.5232
-2726.5625,-47.6320,-50.3156,19.0197,-80.6217,-98.4084,-70.7663,207.0999,37.1949,-91.9878,62.1156,16.7008,17.0568,-7.1894,18.9755,19.3325,57.4197,-159.7260,-18.9560,60.3322,38.5451
-2718.7500,24.2883,-83.3347,-158.9703,18.2251,17.6054,-27.7588,-226.8228,29.1926,60.9909,-78.7514,133.3462,-13.0048,108.2735,61.6616,-48.5382,-46.5272,158.0849,-16.8311,202.2602,-65.3795
-2710.9375,60.7209,-47.8521,96.5264,-128.2658,16.1324,6.7416,64.7090,12.1451,-51.5198,66.8695,57.5170,-89.5686,-42.7434,-88.1513,132.1028,98.0252,-227.5848,-51.2127,-78.3094,6.1851
-2703.1250,-108.5545,-5.0730,-80.6540,36.9614,-51.0457,-60.4640,-2.4179,46.7120,-7.7418,-37.1939,26.9798,-8.8375,-0.4650,29.3261,-45.9309,-5.1026,129.9999,26.7046,175.3994,13.0593
-2695.3125,73.4091,-34.0430,-33.6142,-57.3048,32.0224,-50.4320,-212.3219,-8.4820,149.2959,45.9793,72.6981,-35.8521,44.0846,-108.9270,147.2742,5.0060,-4.1172,-72.1207,40.3859,-50.8207
-2687.5000,-98.7536,-67.1575,37.2896,-137.3018,-80.0465,-52.5495,262.6096,35.5629,73.1908,118.0055,-76.7227,-75.0228,-33.5036,-110.3479,143.3549,112.9675,-247.4125,-0.1024,-27.8043,57.1463
-2679.6875,-82.1326,-48.4692,-160.0079,30.9353,16.6746,-66.8821,-155.6227,32.7350,169.8659,-43.1651,19.6525,-15.3958,98.7177,-14.9631,-17.7650,25.7359,192.0942,-16.2791,166.8056,-30.0781
-2671.8750,64.8502,27.5697,138.0268,-119.1868,57.7540,-62.8730,32.4374,-14.1824,99.9012,108.0009,-50.5998,-85.4179,-45.6815,-157.2191,132.4679,102.8447,-189.0114,-81.1097,-109.2213,11.0360
-2664.0625,-111.8100,25.9657,-12.5653,14.5521,-56.8177,-138.5202,138.8766,25.3431,60.2716,31.5326,-54.5081,21.9050,-50.7294,-15.1373,-55.9283,100.3190,90.1919,-12.5920,65.0734,44.5058
-2656.2500,77.6169,40.4639,-66.0777,-5.9637,36.7004,-83.0826,-207.6020,-26.4420,153.7339,-21.8442,112.6884,41.3336,41.3438,-31.9371,0.7613,82.8884,69.5419,-102.9697,9.4978,-45.9273
-2648.4375,-25.5820,43.3138,78.7664,-85.1787,-75.4146,-84.2989,230.2431,-17.7412,3.5572,123.1279,-37.7526,39.1022,-72.2150,-35.3955,70.8256,117.8065,-208.7708,-65.0082,-128.7464,61.9826
-2640.6250,-25.2428,42.7164,-138.8362,106.0765,-72.9933,-82.9764,-134.3215,18.6752,79.9150,15.6571,2.3582,78.4151,39.7761,77.6995,-111.5497,-26.7226,282.4511,-65.4918,152.5529,-8.5488
-2632.8125,135.7523,63.7670,66.1834,-54.9150,22.0796,-62.0152,-3.2850,-30.7535,100.9382,109.8160,-87.8520,-10.6240,-51.5547,-85.5399,92.7280,68.3893,-83.6333,-114.3288,-108.4790,12.5592
-2625.0000,-51.8936,52.1649,13.5742,17.1398,-102.4971,-112.7129,239.1209,20.2337,49.3064,95.3381,-175.7110,-26.3242,-67.5234,-27.4461,-33.6069,52.8680,80.5823,-20.8239,19.8127,71.0206
-2617.1875,105.8917,69.0117,-74.6042,31.0512,29.3629,-91.9752,-179.0210,-31.9349,219.1138,7.3023,-7.1166,-77.5718,26.9809,-41.8858,-11.4983,-35.2039,203.2813,-37.8641,37.5747,-17.0663
-2609.3750,-8.9016,24.2568,95.6134,-115.5945,-22.3634,-67.8447,210.2004,-20.2282,131.3335,140.6580,-131.1071,-54.4285,-62.0833,-91.9321,157.0350,98.1232,-227.6198,-47.5150,-147.2695,79.2364
-2601.5625,-94.8071,9.3997,-102.2582,55.1167,-73.2003,-118.8262,-24.6344,16.7470,153.4374,15.9236,-109.2028,4.6082,32.7646,76.9178,-41.5073,10.3600,213.3452,7.7379,117.7723,28.4470
-2593.7500,84.7342,12.9884,50.2906,-68.4224,79.4085,-4.3672,-93.0582,-30.7378,158.9975,58.6205,-67.8318,-63.9090,0.1014,-65.7637,147.4008,16.0356,-100.1904,-59.5575,-89.7145,-2.9013
-2585.9375,-122.0625,-18.7695,87.5102,-54.9251,-66.3254,-40.2641,239.1717,32.5749,-24.7901,95.9756,-102.7975,-26.7881,-73.8993,-28.8076,73.9946,53.3692,-131.1187,50.7840,-15.5817,71.3989
-2578.1250,-13.5760,-50.2270,-88.9831,12.0100,51.2254,-32.8815,-193.2822,14.5052,130.7100,-6.3757,14.5391,-18.3627,42.4257,16.4604,7.8865,-12.0040,118.2743,18.4319,92.8664,-30.9976
-2570.3125,-53.7700,-55.3813,160.8139,-168.2815,7.0876,-4.2082,202.5137,33.6399,49.5247,132.5581,-139.7985,-99.6409,-76.9153,-101.9756,220.0920,126.9153,-344.0124,-21.6298,-87.3862,34.8931
-2562.5000,-209.0234,-105.5851,-75.4250,-25.2807,-82.1079,-19.5981,113.3029,94.4447,107.2809,7.4506,-155.1951,-78.9763,-19.2987,66.5308,93.2811,75.8005,27.6095,34.2572,179.2933,19.7404
-2554.6875,-5.2356,-112.7455,-6.6414,-114.7821,59.7399,12.0502,-75.8910,-1.7543,213.0879,2.3754,-14.5301,-121.2601,47.4085,-12.8956,234.5207,33.7256,-120.6668,-78.8030,-3.9501,-22.3700
-2546.8750,-91.6287,-93.1070,80.9555,-93.2058,-71.6014,-10.5076,343.7073,-8.3892,42.6936,16.1001,-73.0551,-32.7555,-49.0603,-35.5298,211.5980,10.4581,-206.1744,-24.0771,-54.4202,102.3136
-2539.0625,-35.1433,-71.5656,-112.5499,54.0924,-9.0554,-58.1795,-143.7675,-43.3861,217.1822,-139.2758,26.3255,-6.3553,123.3913,27.7474,164.5782,-144.9102,237.2201,-37.4464,142.0131,18.9026
-2531.2500,36.2015,-1.1813,142.7793,-91.1889,26.3497,-23.0130,111.5556,-82.5795,178.5372,-31.8154,-121.4238,-8.1109,-26.2680,-120.1192,309.4256,-37.4308,-219.5091,-36.9744,-138.6912,54.3259
-2523.4375,-168.4483,5.2029,-34.8655,60.8150,-77.2452,-88.8559,153.9143,-29.2016,111.8802,-134.3472,-152.1781,72.1262,16.0874,69.0035,95.3046,-102.9515,102.7204,75.4919,113.5754,60.7551
-2515.6250,11.0944,-25.2075,-25.3361,24.8707,78.3506,-7.5172,-167.5507,-73.2706,194.4214,-162.6998,-107.7191,43.5663,134.6801,40.3453,177.3830,-95.2895,71.1998,-25.8420,12.0669,-40.6189
-2507.8125,-145.1456,-76.4210,137.4015,-79.2127,21.1555,-28.9863,326.1633,-12.5248,-10.8282,0.1413,-238.0438,23.1970,2.5017,19.8782,155.6991,31.5695,-225.1421,29.0117,-74.2547,49.1988
-2500.0000,-136.6626,-102.8951,-106.1068,49.9102,-1.3003,-51.7213,-64.3317,22.3118,39.6614,-133.2590,-40.6300,0.5714,126.0945,144.1634,-14.2168,-27.8172,205.2519,37.6177,181.1755,-47.2269
-2492.1875,15.6735,-55.5252,126.2097,-117.1536,83.0966,-3.6168,56.9729,-28.0418,-21.9886,26.1699,-29.3451,-25.2084,62.5842,8.3106,143.7297,20.6325,-240.4612,-55.9343,-89.5229,-35.8174
-2484.3750,-185.9784,-47.1605,23.5483,-5.9030,-56.5070,-33.5180,212.3016,25.4036,-124.6465,-3.3942,-59.0577,55.9964,69.0909,125.4434,3.7128,-45.9114,-56.2228,23.5070,95.7496,8.5931
-2476.5625,-8.0004,-44.1494,-42.4817,-3.1490,61.5291,-25.7847,-185.7247,-43.5829,-7.6646,-69.3189,95.8841,25.8533,186.2860,96.2446,84.3456,-111.8127,52.6998,-44.3960,63.6927,-94.3513
-2468.7500,-92.6555,-58.7924,121.8391,-113.0867,5.9281,-8.7050,273.5669,-28.1129,-100.3233,59.0956,-70.8045,44.0507,92.8661,40.3913,138.3555,-20.3678,-313.0340,-22.9585,-92.0236,-2.9587
-2460.9375,-194.9779,-55.0862,-129.4747,78.1886,-24.3343,-39.2880,-13.7469,-2.2876,-19.6549,-82.1364,-64.1479,123.5951,208.8187,192.8897,-3.2625,-161.5779,146.5565,49.8341,192.5967,-70.2109
-2453.1250,2.7544,1.6686,41.2347,-51.0821,72.4538,57.1669,8.9451,-60.1492,40.0642,14.6542,-77.4148,36.1911,157.8717,-4.5439,204.1648,-137.7546,-183.7508,-33.3301,-66.7097,-83.4272
-2445.3125,-209.2509,0.6687,37.2136,-7.8205,-42.5039,15.8674,261.8969,9.4295,-74.9738,47.7059,-155.4247,32.0308,116.1980,28.2593,88.8760,-105.6709,-114.8520,70.7420,37.2055,-14.3963
-2437.5000,-67.4304,1.5147,-103.9758,57.3334,37.3702,21.3987,-246.2902,-17.3989,4.8278,-56.3958,71.4152,0.7188,232.4103,70.9273,58.4410,-135.7416,167.9202,1.6694,108.9914,-118.5175
-2429.6875,-62.4414,6.5079,154.9803,-86.3753,38.4054,59.0748,122.6277,-22.5254,-141.2091,128.6356,72.4226,-34.4540,48.8151,-75.2530,133.1853,-60.6725,-249.1469,6.7351,-133.0760,-43.5042
-2421.8750,-162.9124,12.0464,-95.4977,61.8583,-27.0168,-6.7071,-53.8671,15.1346,-96.7070,25.2241,116.9788,8.9168,165.7819,79.1111,-80.4902,-127.0512,143.2998,83.3482,119.3895,-72.9365
-2414.0625,41.7586,40.7281,46.1463,-42.4499,77.7062,60.6480,-207.2494,-58.4707,7.9525,19.9415,111.7058,-69.5657,196.9410,-37.3541,97.9863,-95.2907,-75.0522,5.1104,-98.9689,-115.2311
-2406.2500,-86.7057,53.2536,92.6557,-35.1978,-22.7173,33.8484,171.2163,-0.8595,-165.5260,66.5151,-25.7077,-60.2129,95.9732,10.0210,-2.6421,-11.6712,-132.5953,88.7038,-86.5025,-31.6841
-2398.4375,-15.0012,19.9748,-84.6448,58.7281,20.0413,39.2306,-264.0908,0.1451,-12.8099,-73.7106,91.0668,-54.6572,212.2344,89.6076,-71.0584,-78.8484,186.0674,55.4990,91.1778,-135.9357
-2390.6250,39.8093,-31.2074,154.1345,-102.7486,74.9067,56.7001,47.6571,-25.9682,-104.9741,54.1462,-38.0386,-36.0047,45.6456,-39.7006,131.6507,49.0635,-251.1448,4.3781,-171.0344,-81.1040
-2382.8125,-126.0847,-56.0925,-19.7637,23.3488,11.0671,29.4607,20.7455,55.8747,-168.8496,-8.6833,-27.8394,9.9407,92.3756,117.2846,-79.3111,22.2760,38.8945,85.5489,86.0283,-70.9700
-2375.0000,75.9089,-66.0850,47.2103,-42.7957,152.1186,60.1046,-279.2875,-3.6642,-64.8287,-15.6303,76.2754,-33.2094,122.0436,37.1945,24.6248,16.3772,-41.1227,5.6220,-29.9830,-150.9456
-2367.1875,-61.9298,-27.9339,155.3499,-81.3579,3.3317,20.8984,196.8090,22.1602,-176.6527,129.5716,-73.4506,-35.2231,-27.1112,-38.7551,58.7441,50.6297,-213.0121,42.8335,-97.8618,-42.7837
-2359.3750,-8.9407,26.0610,-78.6561,123.3988,26.3791,6.5310,-222.2106,1.6893,-79.6369,-67.3813,23.6625,24.6112,69.6071,21.1515,-65.2725,-72.2665,296.9416,61.8987,97.1112,-129.7690
-2351.5625,126.9035,90.9053,135.1678,-37.6876,56.2829,36.0048,-81.4327,-63.7358,-49.7592,35.4862,16.6444,-19.7039,-84.7756,-96.0792,112.5733,-6.3324,-130.2153,20.8081,-190.0512,-99.9224
-2343.7500,-46.9982,56.9979,-11.7337,97.2134,-90.5625,-0.2776,28.6262,7.5821,-86.6445,-37.3966,-93.1223,54.2265,-121.8885,50.9316,-34.2968,-5.1503,152.8386,93.9610,23.0055,-62.8263
-2335.9375,104.4865,68.4935,-106.2516,75.0323,-1.0173,51.8274,-321.9288,-43.7960,76.8582,-58.9020,33.5172,33.5613,4.4351,30.3623,55.2252,-26.5807,164.3394,-0.4805,-36.5196,-157.3373
-2328.1250,39.8914,73.8851,41.1115,-50.2924,-110.5569,51.8289,156.3453,-32.2319,-32.7226,89.4673,-1.9129,-2.2019,-105.2848,-42.2976,129.6597,84.8696,-182.2277,-30.0350,-205.1376,-45.9739
-2320.3125,20.3884,90.3668,-233.3898,149.7567,-165.0089,-3.0729,-156.2112,-17.7830,-14.2296,-75.0417,127.7447,90.1255,61.1050,87.1288,-71.7702,-6.5644,326.2390,20.4993,56.3122,-100.5049
-2312.5000,202.8195,166.7881,-6.9825,14.7507,-84.5186,39.9532,-112.8533,-120.0790,-7.7854,-31.6178,170.3634,22.4020,-6.5141,-53.4655,118.7351,-0.0596,-19.2735,-43.0132,-253.2426,-94.0996
-2304.6875,57.4759,162.4108,-51.3620,99.3129,-201.8164,32.1776,99.6929,-104.8263,-162.1317,-76.9910,200.1973,87.8625,-13.9002,48.1156,-73.5084,-81.3538,81.3741,92.6519,-187.6263,-28.5076
-2296.8750,229.0038,156.9364,-163.8427,158.2394,-57.2362,103.2855,-342.8096,-145.6110,-90.6026,-225.4683,381.9236,49.2274,130.6359,83.6115,-148.8504,-156.7542,287.9242,17.2224,-159.1069,-104.0089
-2289.0625,225.2487,118.1585,85.3503,4.3411,-102.9483,94.0913,89.3135,-126.3024,-245.3573,-87.2786,227.3796,41.2952,-24.0729,1.8207,-46.4891,-17.4816,-137.7624,49.4768,-336.8653,-1.8323
-2281.2500,60.3473,94.2252,-122.5698,172.8586,-89.8102,106.7417,-81.6626,-54.5837,-232.2720,-220.2168,276.6688,53.2088,62.0731,87.8665,-290.2277,-115.3546,260.3244,166.5707,-44.8162,-25.8002
-2273.4375,258.0080,80.8783,48.0766,22.2344,80.9049,166.9754,-204.0463,-109.0846,-172.5812,-160.5717,374.5488,-70.2739,48.8548,-109.4583,-120.3666,-128.6310,-33.9317,118.2683,-234.1248,-39.1742
-2265.6250,30.6375,64.4689,100.6762,54.6413,-14.4087,144.1633,140.4871,-37.5514,-303.9178,-144.9841,168.3904,-18.8246,-9.3809,-57.8413,-177.5083,-75.9517,-51.2620,170.8947,-145.5036,49.3852
-2257.8125,115.1880,78.0011,-27.7563,179.7550,78.2055,126.2894,-280.9622,-54.5858,-175.3290,-236.4392,224.1651,0.5716,83.3454,-1.2677,-231.6847,-203.3254,315.3344,150.4762,9.0669,-42.0955
-2250.0000,186.7443,149.5304,190.7780,54.6293,76.8240,123.4113,47.5155,-101.1855,-286.7262,-91.9224,148.9724,-2.0276,-65.8786,-149.6765,-87.8739,-168.7258,-71.0054,116.0537,-235.3319,29.4021
-2242.1875,52.4073,192.1542,13.4416,242.7880,9.5471,93.6367,-56.8670,-77.5901,-280.0329,-232.2832,118.8733,78.4661,15.0078,2.9934,-299.9142,-272.0104,322.6748,193.7167,-18.6733,35.9973
-2234.3750,241.8316,205.5677,103.8790,153.3542,137.0505,109.6417,-259.4342,-144.0437,-153.5422,-251.8575,173.5625,57.7754,68.7263,-90.5160,-173.1652,-255.4996,161.2004,66.1868,-145.1804,-20.6108
-2226.5625,103.7837,172.4750,174.8145,100.8371,24.0740,70.1432,142.4453,-84.3722,-265.5296,-143.9478,23.7756,92.5824,-44.0151,-19.5314,-174.8832,-147.5077,-12.7658,33.1381,-142.1977,87.2591
-2218.7500,133.4223,132.0831,-47.5226,204.8060,22.7807,31.3392,-226.9061,-95.3603,-120.8434,-256.3291,169.6752,90.0890,101.9502,89.1494,-212.8825,-222.8058,369.9201,-6.2078,28.4596,11.8362
-2210.9375,211.2556,103.8852,141.3074,11.4850,27.6920,35.7283,-2.1143,-138.2899,-151.9466,-103.5418,174.7904,58.7979,34.1664,-15.9483,-24.6962,-106.9343,-81.1182,-70.3570,-245.6445,53.5954
-2203.1250,27.1609,61.7328,-14.7787,109.0232,-90.3336,-46.8270,62.7412,-56.0489,-124.0003,-75.7043,92.9598,86.5481,62.4521,48.9837,-179.4235,-116.0196,192.8327,-7.4624,-7.7407,81.3990
-2195.3125,157.5846,50.1355,-22.3255,43.4062,11.1711,-18.8398,-238.8218,-66.2320,161.4667,-48.3374,121.6740,-32.1425,91.3132,-69.5179,-3.6173,-88.5671,182.3681,-124.0029,-18.2709,-0.2470
-2187.5000,42.3821,40.8856,111.4678,-62.0444,-74.9545,-32.5014,187.8930,-1.0052,37.3019,85.3634,-38.2357,-81.4882,-68.4425,-118.6678,56.5460,82.2275,-107.7162,-61.2087,-97.4465,96.4310
-2179.6875,-3.4774,-5.0215,-153.3506,86.6754,-47.7357,-41.8139,-149.9772,50.5955,102.4715,-33.5655,27.1737,-54.4916,34.1431,19.5199,-134.9172,-36.6109,302.4933,-3.0694,207.6980,14.4654
-2171.8750,100.0975,-77.4835,65.2453,-101.0094,61.9308,67.3149,-42.4451,49.2550,101.0987,111.9257,-47.9558,-129.0372,-40.7847,-92.8127,48.0572,35.9827,-154.7706,-75.4823,-4.6678,12.9364
-2164.0625,-157.8035,-159.4438,12.3662,-34.9027,-27.8902,50.9458,199.5732,137.5064,12.2326,59.9207,-172.5716,-107.0878,-56.1967,2.3366,-113.4318,131.0767,-27.5781,53.5904,123.4274,70.8971
-2156.2500,27.7137,-149.9527,-46.0696,-7.5696,97.7155,65.0167,-188.9072,72.1582,100.7990,-35.6350,-47.7556,-130.6824,106.8475,-19.0522,-99.4741,71.6165,124.0688,-6.8753,97.9814,-24.6881
-2148.4375,12.8473,-92.8710,155.0780,-117.7991,41.9380,45.6869,232.1375,49.6126,-28.9999,92.3869,-176.3332,-111.6769,-22.4739,-110.8351,29.0890,126.7265,-241.6312,-21.7513,-90.8442,66.3016
-2140.6250,-73.1766,-74.9430,-115.8862,72.5599,-8.9907,-5.7923,-39.9062,87.2805,68.0477,-32.7202,-81.0890,-16.8242,38.0424,94.2154,-167.4534,38.6963,234.4436,-37.7858,209.1432,15.1440
-2132.8125,74.0720,-138.7128,2.4174,-110.2206,36.3666,39.0206,-68.6669,31.9264,149.4026,12.4507,74.4568,-45.6561,-27.1200,65.5869,60.2735,119.9554,-146.1093,-170.5150,4.4703,-13.7234
-2125.0000,-132.7520,-169.5811,-70.3655,-77.1067,-146.3597,1.7331,226.4396,108.9226,76.6799,49.5223,1.9188,-8.5921,-99.3662,139.8401,-12.0770,194.1112,-105.7840,-96.3618,113.6769,60.2951
-2117.1875,-18.7049,-126.5522,-203.2324,23.6710,-60.2021,15.3401,-237.4837,80.8863,236.8351,-10.5031,89.2638,5.3703,-11.7181,153.9964,-71.5262,97.1701,183.4225,-124.3013,192.7809,-36.7790
-2109.3750,-16.5011,-88.3773,16.0202,-116.1453,-60.8835,14.0917,128.6738,34.4901,200.1578,135.5940,-58.2194,4.4848,-121.8874,6.3176,76.1601,170.3628,-235.1519,-120.0916,-85.9351,36.2736
-2101.5625,-169.7860,-66.7052,-180.1921,61.9270,-146.0614,-36.6501,42.3749,58.6524,186.9743,-24.7934,-71.2082,65.0907,-24.5559,140.1149,-84.6260,84.0667,173.7027,-29.3964,146.8092,22.8261
-2093.7500,61.5984,-45.3294,-83.7283,-46.2660,-12.5602,24.2983,-154.2203,-3.6891,247.4798,-0.4936,63.4995,15.4100,0.4979,17.6337,87.2593,70.4536,-51.6885,-113.9912,-7.7092,-26.9263
-2085.9375,-85.7437,-53.7050,-23.0120,-58.3935,-134.7919,-26.4942,200.3870,24.0842,51.2542,60.0546,51.4607,75.9770,-85.1693,4.3882,1.4270,95.0843,-164.8327,-16.3531,-15.9938,70.5501
-2078.1250,-11.1185,-13.0901,-195.2833,89.1969,-15.0395,20.7090,-192.9228,29.9100,98.0108,-114.3773,172.3883,48.5473,35.1587,51.1344,-135.3752,-5.2621,226.9784,-45.7215,165.7123,-29.9655
-2070.3125,36.3451,-36.6429,72.2531,-106.4843,32.5550,30.7618,110.5680,28.3268,-1.3575,81.0144,36.1787,-14.0287,-100.6259,-121.2430,60.6595,115.2221,-252.2913,-69.2402,-68.6903,17.3497
-2062.5000,-150.0321,-47.0499,-51.0348,27.6384,-16.6916,-56.0220,135.2353,67.4666,-50.5724,-5.4371,-12.8936,10.5354,-38.2455,13.5110,-134.1091,66.8656,88.5193,26.3786,132.0153,41.8094
-2054.6875,50.9020,-21.1109,17.0102,-7.8570,124.3900,11.5422,-200.7172,9.5716,53.5544,-48.5513,54.3595,-32.5448,29.5032,-66.3647,-30.5400,59.8571,43.7108,-53.6390,17.0958,-38.3825
-2046.8750,-55.7926,-22.8213,157.3974,-74.2745,81.8402,4.4679,233.6226,13.3137,-97.9483,55.6618,-61.0214,-39.2714,-49.3752,-107.8881,0.3912,54.1825,-202.7274,14.6783,-88.4744,65.7524
-2039.0625,-62.4038,-28.4358,-66.0864,82.9032,78.3833,-35.5009,-136.8654,6.6028,45.6319,-95.0072,82.6800,-4.8965,58.8312,35.6845,-148.5604,-96.3870,247.8720,9.0907,151.0316,-11.0070
-2031.2500,61.9189,-46.1074,136.3405,-90.6687,96.8674,19.4722,28.5501,-24.1577,64.1743,34.2468,28.3464,-23.5645,-31.9837,-93.7564,54.4175,32.9692,-190.5027,-78.5471,-112.4685,7.1678
-2023.4375,-138.2306,-35.2830,-1.7113,14.1393,-41.1319,-46.0482,184.4648,42.7967,-73.7766,6.0195,0.5107,22.2659,-22.2993,63.2759,-119.0645,41.8350,31.5711,2.2955,74.4888,52.8334
-2015.6250,52.1988,-54.8633,-92.1624,31.9241,52.4491,11.0211,-198.9803,14.2779,55.8428,-10.6099,94.2480,5.7088,71.9824,45.9226,-62.9629,25.3052,152.2665,-88.2490,54.0583,-37.8959
-2007.8125,53.2978,-19.7833,125.0187,-68.8034,-25.2997,-31.2569,237.1574,7.5989,-93.8810,132.3868,-92.3435,0.8120,-78.0611,-67.7769,6.7809,94.4078,-163.3439,-52.1492,-120.7135,68.0002
-2000.0000,24.5981,-12.4966,-122.5609,111.3641,-51.8525,-58.3290,-120.4298,33.3648,-11.4339,-5.3948,-83.7619,48.1164,43.0719,88.7105,-165.2571,-6.2809,300.1820,25.1490,131.6717,4.1017
-1992.1875,157.1295,-56.9583,53.0858,-71.1634,50.8358,6.8461,-92.7862,17.5499,54.2567,133.0480,-54.9275,-34.3129,-38.5357,-103.5233,82.9132,59.2651,-94.9658,-54.2983,-52.6524,-4.5575
-1984.3750,-120.7041,-86.8201,16.3536,-26.4783,-58.8516,-30.3714,202.4209,53.4236,-19.4299,134.0987,-126.4845,2.8527,-37.5325,-29.1811,10.6982,-14.5905,-55.5440,55.8385,57.5919,69.3708
-1976.5625,-18.0105,-55.1301,-91.8186,36.7644,52.9937,8.9540,-198.7871,0.2492,130.4142,-48.2916,22.4901,-31.4203,113.0196,10.7114,14.0169,-122.8929,153.4254,17.5377,125.3895,-39.1430
-1968.7500,-8.8540,-80.9863,135.4344,-133.8093,23.3064,14.7343,211.3692,-10.4480,-10.2724,105.7417,-81.0574,-62.2395,10.0470,-92.9347,167.7726,-5.7732,-293.0963,-8.3135,-110.3386,40.7701
-1960.9375,-149.8971,-83.0467,-85.4773,28.0212,-13.5811,-22.6751,27.3852,44.2353,-10.1732,-42.4027,-7.8264,-25.2613,120.8576,54.2049,-15.6373,-42.8448,126.1023,25.6304,168.6968,3.4852
-1953.1250,24.8265,-83.3156,63.3839,-99.4389,135.3197,15.7109,-81.7978,-13.6609,64.7268,33.2399,67.1948,-97.4737,123.4814,-91.8313,96.7243,-4.1312,-119.8457,-80.6156,-42.4301,-32.0055
-1945.3125,-134.4153,-66.5918,77.2468,-83.5270,1.2411,-45.8945,299.9828,45.4222,-68.3518,119.8789,-101.7653,-83.6912,-9.8811,-77.8769,74.1048,45.5806,-137.8139,6.1197,8.4252,54.4879
-1937.5000,-14.5325,-51.7224,-87.7175,40.9923,57.2923,-63.3547,-123.0125,34.6763,60.6998,-45.3188,-46.5942,-64.7541,83.8900,-21.7688,-16.3682,-8.5420,228.3284,21.0115,164.4230,-36.8593
-1929.6875,31.0444,-42.1565,178.9810,-115.7816,103.0451,-18.1132,180.6287,-0.1910,-3.5316,74.1605,-146.7042,-93.1020,-16.6187,-158.9390,139.8337,74.0221,-217.7603,-3.3965,-106.8372,8.4742
-1921.8750,-99.5705,4.2057,5.5111,65.6216,40.6097,-45.0638,117.1099,19.3625,-66.9588,-63.5338,-136.0360,-8.6560,68.6594,-2.3358,-70.1291,-63.6008,143.8746,76.9841,114.6692,18.6066
-1914.0625,80.6201,8.4096,49.8747,25.1142,159.0076,-0.1727,-168.5357,-83.0829,51.4669,-92.3838,54.4517,-0.3477,76.7955,-30.8637,48.7373,-129.3774,78.3973,-23.7788,-55.9341,-47.4090
-1906.2500,-38.7162,30.0558,141.6813,-33.8166,-7.1248,-19.8227,217.2082,-33.2288,-76.6297,-0.7915,-73.6091,17.4129,-51.6054,-49.9409,68.0687,-0.7138,-145.6218,32.8964,-104.0913,44.0057
-1898.4375,-16.8633,15.9055,-126.2820,94.5265,19.9300,-30.2731,-196.7898,-21.2083,59.4571,-157.9774,62.5143,7.3860,86.1732,87.1773,-52.3984,-84.8456,262.5075,18.7708,127.9214,-40.3696
-1890.6250,85.9837,13.7630,90.7126,-63.6604,15.9735,2.2740,56.1478,-61.5242,56.5640,-15.1785,22.6549,3.3772,-64.0326,-63.6840,165.1022,-15.0023,-160.2801,-54.3623,-121.0213,-7.7601
-1882.8125,-114.8451,-13.0743,-11.9684,42.1586,-50.6743,-64.8767,136.3912,-1.0406,-10.0205,-81.0592,-6.9104,84.6638,-55.9464,54.7326,-11.0710,-44.8328,59.1709,25.7870,99.2961,36.1466
-1875.0000,77.8408,-29.3643,-62.1112,4.2158,83.1966,-4.4881,-206.7679,-25.5212,123.9295,-95.3782,53.0438,-2.4860,41.6801,4.7108,86.2919,-21.1075,77.1952,-61.5059,47.1901,-51.3887
-1867.1875,-68.2523,-70.4527,111.9202,-171.1486,-0.7195,-52.8929,260.2056,41.2836,40.1083,115.4934,-139.7803,-86.4361,-77.4829,-43.1058,186.8573,188.8062,-314.5532,-67.6089,-63.7075,48.2586
-1859.3750,-168.3519,-136.5409,-138.0145,-10.8052,7.3554,-45.2975,-63.7593,85.5398,158.2626,12.3918,-96.6241,-42.3891,41.3344,112.0684,48.4418,49.7365,111.6278,-27.7122,222.3649,-18.0827
-1851.5625,-60.1689,-132.3325,50.3153,-149.6360,84.7259,32.5950,51.5452,28.0342,162.7128,89.5676,-55.1597,-75.0291,-27.5331,-67.4349,237.2952,53.9419,-269.8137,-59.5047,-19.2259,-14.1311
-1843.7500,-218.8601,-81.0214,-9.2295,-41.5826,-47.7859,9.6032,249.9410,90.9628,30.2688,67.8508,-149.6039,-23.5729,-85.3025,21.1440,31.2705,68.2484,-112.1979,62.7940,102.2517,36.9123
-1835.9375,-53.1831,-55.3098,-87.3716,26.9978,58.0817,41.0083,-232.2051,62.4007,136.2007,-47.4574,-81.6792,8.2960,57.3146,53.1254,-9.3748,25.9725,88.8135,17.5077,163.1328,-78.6320
-1828.1250,-99.5916,-31.6885,117.3611,-82.9753,42.8668,62.3173,229.4741,31.6465,10.0579,84.1110,-206.8321,-6.9313,-68.1520,-35.9880,85.8624,84.5826,-273.2223,7.1155,-94.0736,15.7044
-1820.3125,-164.7950,-26.8596,-97.6607,101.1064,11.8547,-6.1651,-22.5886,29.8918,53.0982,-95.1005,-127.8085,72.0424,12.5474,117.0777,-55.6862,-57.5892,187.8777,80.9232,156.8787,-15.7504
-1812.5000,2.5845,-34.4305,43.8894,-25.9192,116.4378,60.9462,-102.0630,-3.2470,83.7218,-26.7303,-134.1927,29.6364,-29.1525,1.7651,160.3247,10.8224,-101.3568,3.3456,-26.5253,-58.6075
-1804.6875,-156.8521,-18.8561,57.6071,-7.5324,-17.8073,0.2236,242.5768,27.5925,-13.4873,22.7903,-230.4237,80.3806,-88.7104,51.5846,63.5023,60.3862,-118.4701,19.9017,-10.8000,27.6748
-1796.8750,-45.3187,22.7169,-80.6632,101.8633,28.9284,-27.4965,-225.7201,-23.6552,143.2799,-78.6715,-0.6806,89.1351,-5.2866,97.4078,36.6751,-78.0454,238.3870,-80.5330,100.9226,-37.0281
-1789.0625,-25.5804,7.4970,121.2338,-61.5216,8.8745,-48.0075,158.1124,-40.1415,50.2644,86.0404,-129.7263,107.1021,-96.6443,-32.5515,238.0178,49.6948,-197.4879,-129.7650,-124.1270,53.4553
-1781.2500,-164.6787,-26.5682,-61.6810,59.9128,-27.0263,-156.3552,86.1333,5.3355,88.3897,-60.0809,-165.6373,144.2124,14.1201,116.6184,55.5352,13.6038,154.7150,-58.8539,157.9321,54.0953
-1773.4375,31.6473,-41.1808,35.8314,-17.1213,107.5043,-97.2573,-146.3830,-58.9334,148.9493,-36.7532,-105.1122,131.7911,39.3233,30.2540,190.4586,37.9520,0.4162,-142.4758,-32.5210,4.1896
-1765.6250,-129.9460,-26.7437,83.3882,-52.1235,-27.8934,-122.0890,268.0950,10.3785,-23.4165,84.6135,-240.5261,143.4241,-58.4254,40.9291,165.4360,122.3370,-160.8324,-94.0523,-17.9337,88.3206
-1757.8125,-82.7560,-13.4984,-119.2261,84.5433,-10.5048,-106.1124,-118.5471,19.9603,67.9874,-45.2038,-77.1678,123.8645,69.5958,95.3935,36.2128,29.5280,238.6606,-81.8214,171.4335,-4.7307
-1750.0000,-21.9237,12.3915,90.7711,-78.5373,15.5383,-80.4825,127.4075,-10.3388,20.0523,91.6086,-160.1454,76.9653,-51.7220,-62.4769,209.6064,128.3546,-192.1236,-90.9391,-84.5082,20.8574
-1742.1875,-175.8663,68.4787,-72.0016,96.4618,-73.2040,-95.6389,148.5729,11.9605,-32.6812,1.6421,-175.9341,171.2592,-29.8732,69.8314,-26.7803,-34.5919,110.2268,36.1290,112.7156,41.6493
-1734.3750,88.2562,122.6666,-11.6882,102.7729,60.1324,1.3016,-231.1363,-76.2659,28.6742,-85.2197,-5.6386,121.6727,32.0561,-16.7401,-2.1031,-157.4322,129.7036,19.3122,-8.9396,-45.4481
-1726.5625,36.3565,104.8082,149.5618,11.0936,1.4366,-21.7950,187.0407,-60.7730,-177.0000,2.8539,-28.3736,100.0481,-99.0524,-39.3683,-24.4845,-69.3430,-133.8549,72.4449,-131.6469,42.3927
-1718.7500,25.8434,94.3535,-77.7565,172.1255,-4.8662,-28.4881,-186.3002,-33.4226,-74.2946,-114.6496,39.2629,129.8298,41.2026,64.3876,-176.4649,-149.8410,313.9226,61.9807,104.0246,-38.3488
-1710.9375,145.2128,107.7981,119.7871,9.6526,81.7205,21.7190,-63.7790,-72.1721,-60.6784,9.7313,-58.1938,69.5261,-55.6441,-68.9374,57.4091,-100.4452,-95.3309,5.4264,-128.3624,-25.1952
-1703.1250,-54.4867,120.1534,-16.7412,112.2513,-90.7761,-5.1546,130.6313,-7.3372,-122.1592,-16.9762,-83.7631,117.1172,-116.6119,52.6178,-42.7966,-125.1400,93.2659,52.7673,60.1028,21.8576
-1695.3125,65.8370,100.5672,-107.2218,86.8916,2.7634,-21.9775,-252.8604,-20.8760,80.3786,3.3632,45.6981,63.7733,-60.5464,35.2350,15.0220,-143.7861,178.9200,-37.8262,110.6234,-69.0238
-1687.5000,-61.5660,43.2337,50.5291,-66.0415,-61.4345,-12.5386,197.8206,33.5761,17.1843,196.9366,-163.5645,37.6859,-159.2252,-64.8907,135.0717,13.8078,-229.1337,-25.1785,-17.5915,14.3328
-1679.6875,-157.0198,-17.1488,-156.7376,75.3566,-84.6888,-36.1453,-46.4891,93.2058,103.9313,99.4993,-223.8926,50.5435,-35.9907,95.9144,-34.9120,-83.6228,167.6838,55.4158,274.1042,-46.3446
-1671.8750,-0.5462,-36.5835,43.9054,-66.5323,42.9902,54.1993,-102.8662,53.8896,158.6282,190.9978,-206.2694,-4.6332,-91.8112,-33.3064,130.0137,-29.1116,-168.4821,-34.0277,43.7997,-66.0701
-1664.0625,-136.2344,-33.2120,8.3677,-22.4435,-102.5113,-18.6374,192.5250,89.7238,49.1340,191.3031,-242.8358,32.9835,-162.8432,4.2516,-16.2497,45.2006,-93.8771,40.3196,83.2645,8.0000
-1656.2500,33.8252,-37.0876,-101.3972,15.1847,7.7328,-18.7177,-247.2885,49.0794,160.3749,81.3762,-58.6728,-3.6452,-15.1605,41.5458,-51.7679,-27.7211,113.4376,0.4231,149.4636,-102.1650
-1648.4375,38.3240,-32.5082,120.2634,-146.0825,9.4258,19.6577,120.3225,38.7156,87.0694,229.8890,-167.0618,-38.8128,-124.0254,-104.6941,96.1308,82.7952,-338.7582,-30.0152,-92.8603,-27.8813
-1640.6250,-125.1070,-19.8761,-86.0067,31.8118,-49.8199,-39.9025,24.9865,69.6239,64.8182,96.4621,-153.4017,13.0701,-35.8605,57.0944,-72.9139,24.3625,95.0550,52.5913,131.8422,-50.5438
-1632.8125,79.4923,7.8058,-17.2267,-73.8159,54.9730,27.5905,-91.2657,18.0376,133.5985,91.0919,-122.7073,-65.9884,-40.6653,-21.0613,106.0674,91.9812,-123.0810,-24.7381,-51.3949,-93.1440
-1625.0000,-123.1454,-17.7634,25.2920,-74.9353,-49.4722,-3.1555,319.1846,84.6807,29.1451,133.4628,-299.2551,-60.2963,-107.7209,-15.4653,38.7861,171.3475,-183.4455,54.6808,-6.8727,-14.0011
-1617.1875,-27.5282,-28.0771,-128.9138,40.6852,17.3307,-10.6424,-129.0717,47.2394,169.9287,16.1000,-196.5664,-29.3556,32.4474,51.3613,-41.2406,16.9788,158.3906,44.3475,123.8671,-94.5935
-1609.3750,18.0834,17.6153,100.8566,-113.0349,63.1292,34.8692,137.6545,-13.5518,67.7080,135.7274,-114.8743,-57.4074,-105.3938,-49.7996,77.6997,62.5990,-287.7260,20.0271,-181.3690,-49.1816
-1601.5625,-75.8770,64.7140,-70.9574,64.4095,-71.6607,10.7995,75.7601,28.0162,-67.1088,0.7571,8.2255,28.9369,-55.8559,72.4213,-165.9578,1.6204,75.5340,102.1052,40.7744,-37.3685
-1593.7500,172.0919,66.7609,7.1810,25.7490,80.4862,51.6851,-249.1410,-33.0728,-24.9888,-31.2545,160.2586,-3.7626,-13.3980,-32.4038,-125.6802,-30.4007,41.7275,33.1460,-63.1273,-106.5900
-1585.9375,26.8193,96.5627,108.0487,-0.4177,-39.6068,42.3338,218.6660,10.2441,-181.1013,69.4690,-33.9556,24.2978,-132.1971,-42.4717,-97.6715,33.3201,-137.2984,63.9337,-103.2643,-6.0653
-1578.1250,23.8055,94.6198,-111.8078,158.3824,-1.4516,42.2379,-185.2454,-2.7318,-70.9697,-114.5374,40.0676,61.6138,15.2274,105.6943,-206.4048,-113.7018,281.8788,60.9690,105.8196,-79.2787
-1570.3125,148.3286,77.2320,90.8687,-9.0855,53.2445,60.6933,17.3935,-52.3405,-89.2982,14.9949,58.6361,43.4967,-76.8130,-96.5750,-41.6268,15.8259,-122.3594,9.5628,-191.5203,-60.9341
-1562.5000,-22.1738,117.7999,-15.5009,130.8742,-90.0982,28.1130,130.9492,-0.1349,-194.6702,-55.5212,63.1706,121.3282,-108.9212,55.0983,-257.9051,-17.6917,129.3427,85.1012,-10.9244,-20.6415
-1554.6875,201.6659,131.7243,-70.5053,127.9789,1.9009,82.8892,-291.0972,-47.0793,-66.7166,-110.6743,191.0440,103.5119,19.2914,36.1177,-238.8516,-72.8510,178.3636,27.9996,-32.9881,-112.9816
-1546.8750,123.8120,53.9472,137.7672,-18.2957,-46.7923,69.9759,174.1114,-21.0992,-225.4562,61.4588,32.2260,55.0017,-102.2019,-12.5511,-104.5313,25.2827,-180.2769,21.2039,-180.7250,-15.0232
-1539.0625,70.8714,36.0717,-99.0340,120.5476,-62.5792,16.9798,-99.7676,6.1674,-132.2943,-65.4885,126.3000,38.3887,29.1782,81.6636,-230.2991,-64.6722,258.9278,38.3022,82.4084,-68.1558
-1531.2500,180.9644,40.2477,52.2017,-46.3826,15.6745,58.0386,-58.5850,-28.9902,-91.0931,48.6137,130.4200,-67.1661,-3.4106,-61.0617,-6.0441,49.4180,-88.7982,-27.5333,-159.3899,-64.2256
-1523.4375,-1.5652,68.7782,5.7862,31.6263,-104.7079,11.4566,225.9091,10.5868,-210.5334,39.0617,9.9014,-3.3706,-13.6494,2.5535,-125.4472,39.8575,10.8292,35.9780,-60.8468,-0.9479
-1515.6250,121.1034,50.5133,-82.4080,72.4729,-8.9005,33.0826,-229.3512,-39.1310,-41.7891,-86.2800,215.5625,-17.3757,119.2840,24.3625,-104.6514,-48.4815,203.6122,-17.3061,-8.1230,-89.4502
-1507.8125,104.2196,34.7024,116.8228,-109.4027,-30.6414,12.1634,189.8071,-30.2142,-99.5945,112.8117,120.6850,-75.9236,-12.3407,-106.3616,21.5627,77.6164,-234.1110,-69.1287,-199.9247,-0.5014
-1500.0000,-26.9407,-26.3973,-129.2214,39.7013,-93.6695,-51.0401,-20.3317,47.5649,-52.7042,13.6133,168.5105,-27.7728,72.7101,14.5919,-150.5248,51.4200,196.8240,-24.2515,124.9419,-26.8443
-1492.1875,158.0343,-17.3409,28.8805,-82.6164,28.4443,-40.0873,-120.2924,-4.1080,-4.6931,60.5615,142.4838,-90.4635,46.8930,-85.3014,6.5077,135.3698,-40.0819,-86.2107,-77.0294,-53.0225
-1484.3750,-37.1711,-1.4847,78.7768,-58.0456,-68.6252,-64.3225,224.4997,34.1347,-100.8780,111.3041,-64.7355,-40.3515,-50.1287,-35.3977,-17.6723,148.1141,-93.1708,0.6262,-60.1919,33.5968
-1476.5625,45.6245,11.3710,-125.3030,69.5159,22.3017,-9.5468,-235.6601,0.1833,25.9280,-18.9294,62.0170,-22.2424,76.8168,19.4902,-36.8433,-18.1293,234.6903,13.4626,57.6281,-59.7645
-1468.7500,44.8152,10.6312,127.9930,-101.6883,17.6231,22.6263,90.5603,-18.2987,-15.8576,123.2281,-15.8370,-63.7265,-37.8377,-95.2086,142.3504,88.0262,-223.0079,-23.2926,-189.1273,9.2803
-1460.9375,-100.1152,41.7463,-59.8460,56.9056,-60.1951,-55.3411,49.6194,32.7218,-19.7848,9.2461,-19.8353,-30.3652,-4.6611,10.9214,-81.6021,10.0347,159.1140,78.7924,87.9476,5.1817
-1453.1250,59.3394,25.2670,-0.2815,-19.6104,72.3701,4.0936,-184.8865,-16.1367,149.6732,-5.3256,39.5569,-81.5969,17.8854,-77.5503,50.8263,32.4463,37.6291,-42.7093,-33.5706,-46.4985
-1445.3125,-92.1881,12.7923,93.2673,-77.2195,-54.0539,-50.4582,238.5536,8.3999,22.1395,88.0896,-51.0331,-24.8256,-108.5750,-93.0160,70.2276,88.8494,-184.8229,50.7902,-80.0792,46.8205
-1437.5000,-37.9529,33.0747,-139.4090,39.8941,7.2730,-62.2484,-141.2230,-20.6520,157.3391,-71.7292,120.1270,0.6963,62.6826,4.2490,-89.6228,-33.9887,151.4216,35.0434,79.1335,-39.0939
-1429.6875,68.4734,-0.4391,81.0978,-137.1274,43.7940,11.1660,79.1918,-36.5351,83.7304,75.6413,9.4883,-36.5728,25.1248,-106.2737,94.6911,112.3634,-304.0943,-34.4881,-200.4302,-2.7986
-1421.8750,-111.5256,-41.3953,-36.8306,-9.8164,-73.1172,-32.8528,145.1292,32.4468,2.6793,68.5632,-34.6025,-6.2980,18.1022,70.7393,-59.4452,69.2679,5.9238,31.5271,4.5391,27.0494
-1414.0625,94.0206,-44.7975,-74.1912,-22.9900,-0.4846,3.6827,-222.3457,-43.8123,149.1582,31.0434,111.8465,-6.4723,54.5987,69.2951,49.9521,-5.2683,37.4724,-78.8995,-69.9509,-47.5313
-1406.2500,-7.3747,-6.1437,35.4763,-100.9879,-110.7974,-34.7242,217.1813,-45.9869,0.6933,103.5579,37.3656,29.4070,-55.8514,31.9083,122.3783,104.2307,-238.8909,-73.2696,-205.3764,61.9392
-1398.4375,-27.1053,10.1649,-202.1793,63.6917,-92.4536,-52.4678,-130.6141,-25.7854,56.8671,-98.2645,129.5258,48.9339,109.3266,161.1538,-43.5334,12.3863,198.3399,-23.9919,55.8174,7.0747
-1390.6250,86.9008,-17.7777,-11.0950,-119.5212,-48.3667,-7.4617,-50.6497,-51.2123,101.7816,19.6586,137.4330,-16.7858,43.2388,-14.8397,185.2760,94.2925,-215.6553,-85.9537,-147.2199,14.9729
-1382.8125,-102.8702,-65.5184,-63.8095,-84.6281,-138.0641,-25.2407,226.4776,30.4910,9.9017,38.7844,9.5524,-33.3067,25.3426,78.3542,57.2794,76.4065,-159.4577,5.2793,13.9348,71.0721
-1375.0000,21.4565,-83.1569,-150.4075,-56.6893,-4.6693,36.0870,-190.2471,16.3874,181.1002,-10.9760,106.7606,-83.7292,122.5223,65.6392,81.3766,63.6355,-0.2028,-81.3811,33.1747,-15.7087
-1367.1875,-33.8144,-102.3958,44.3703,-188.2730,-64.8724,10.8196,225.3889,20.5385,45.7100,111.6519,-27.6171,-69.7478,-11.8968,-32.6674,202.8465,222.2543,-371.5084,-64.6376,-162.1586,69.9131
-1359.3750,-106.1672,-104.7342,-176.9292,9.5488,-103.1654,-27.5348,2.9366,70.5106,44.2236,-0.8042,-30.0919,1.1262,59.5588,112.9038,17.2281,146.7825,117.0373,-33.9968,115.3764,31.4457
-1351.5625,46.7129,-57.8201,-52.9850,-116.0905,-16.2234,-12.6360,-92.2448,26.7228,131.9733,123.9877,-52.3119,-57.7440,0.2527,-20.2642,215.8308,161.5527,-151.1576,-125.0921,-47.8237,9.2449
-1343.7500,-154.8357,-83.3528,-45.4953,-82.0368,-156.7138,-43.1744,207.0772,85.4184,27.2842,167.3217,-118.9676,-14.0643,-66.5094,59.1107,73.9721,167.8667,-141.7924,-11.6409,31.5306,88.5929
-1335.9375,-59.6830,-93.1833,-197.2774,8.2793,-51.5080,-11.0062,-310.8566,67.9451,170.2810,15.3686,96.0621,18.3089,38.3977,91.1687,-4.1847,88.8992,129.2300,-20.4832,163.5623,-26.3389
-1328.1250,-26.9324,-60.4116,53.5191,-123.2983,-56.7051,56.7696,86.7808,49.8611,16.8763,119.9984,16.6935,-24.7121,-114.0940,-61.1620,100.2303,156.5238,-295.1013,-23.7155,-84.7803,41.3346
-1320.3125,-105.2052,0.3188,-138.7141,61.1937,-138.9407,10.5097,-33.6339,72.6865,-29.5774,-0.4167,81.2796,40.2098,-14.6511,39.4364,-129.3950,37.1012,117.4850,37.9968,150.8000,31.9664
-1312.5000,167.3528,97.8991,-73.0944,-6.2442,0.6641,41.1004,-260.1643,-21.2192,37.8029,-6.9750,258.6997,-3.0156,15.6173,-114.1106,-100.1932,-6.4668,-32.0788,-5.4292,-33.7571,-11.5339
-1304.6875,53.0234,125.5776,24.6120,-8.9003,-121.6184,27.8028,131.3578,-4.6831,-158.7025,16.5572,208.2260,20.8568,-107.0162,-89.5500,-185.9072,54.0614,-144.5224,92.2436,-111.1963,86.0636
-1296.8750,163.3501,129.9091,-150.0024,131.0565,-41.2496,36.1669,-301.4283,-34.3807,-113.5671,-158.2470,326.3936,29.3730,46.9718,-9.3552,-288.9638,-84.7565,246.6314,96.5699,33.9853,20.3284
-1289.0625,266.7730,127.3446,100.4601,-30.5174,-45.7856,103.6366,-50.1293,-85.9450,-193.3388,-53.9704,320.6775,-49.0076,-68.9474,-125.0470,-111.9534,-53.4803,-178.0697,58.0085,-250.7129,87.7006
-1281.2500,88.5249,126.0910,-85.7620,99.6457,-123.0074,63.4230,-53.5527,-23.8085,-270.8100,-94.4018,391.2773,20.9068,-72.5814,18.5470,-262.6414,-130.8988,100.5070,127.7438,-5.1357,121.3760
-1273.4375,238.8159,134.3952,-73.4262,51.2643,-1.6916,75.7651,-336.3825,-91.8833,-74.7536,-119.2793,439.4199,-40.6260,-24.6834,-79.3111,-103.7964,-155.7618,74.6239,66.0380,-103.0170,59.6203
-1265.6250,61.5750,133.1532,67.3407,-10.5232,-42.9186,69.5667,98.1887,-51.3929,-228.2420,-14.7218,176.0290,-45.7098,-140.3336,-85.7133,-36.5258,-88.1844,-172.7717,134.7867,-174.4353,164.3144
-1257.8125,64.2990,136.8653,-72.9149,189.3971,35.8078,113.3278,-299.2612,-39.8116,-221.7905,-229.1947,218.5891,-2.8562,11.9411,66.8134,-214.2982,-265.6398,287.7287,173.4832,74.0623,96.9737
-1250.0000,197.9613,93.5311,137.7642,26.1629,137.4755,141.0369,-160.7601,-50.2222,-268.3993,-91.7215,136.1078,-11.0503,-70.8397,-51.7002,-114.1526,-128.1513,-106.7936,60.1419,-143.4692,124.5941
-1242.1875,42.9483,78.5033,82.7471,124.0934,9.4614,85.0587,4.0075,29.3413,-360.6994,-73.9529,44.9422,44.0498,-89.3223,40.0763,-316.7042,-146.3656,87.9772,150.0935,52.2827,179.5173
-1234.3750,192.8290,124.3771,23.6469,149.3915,134.3362,100.9874,-349.2793,-29.9158,-235.1198,-205.2753,132.6709,21.0456,-1.9318,16.7487,-228.3628,-204.6655,203.6180,90.9516,60.9207,84.3604
-1226.5625,111.7653,148.2996,192.5729,39.7264,82.2635,121.9710,112.4460,-16.2185,-324.4850,-37.5679,-29.5271,7.0927,-127.4887,-107.5158,-133.9917,-109.9187,-158.6535,114.8596,-124.3713,179.2557
-1218.7500,27.6698,135.1724,-39.5271,214.8990,33.1444,72.9145,-192.8606,14.3101,-263.9019,-159.8983,31.2299,31.0843,6.8852,26.1494,-330.6585,-270.2123,319.9757,171.7157,177.2608,130.1124
-1210.9375,153.2122,119.6948,165.0150,75.1318,164.6666,131.5131,-208.5003,-30.2559,-205.6826,-102.5830,51.6258,-20.2727,-46.1027,-136.5254,-162.6988,-248.8663,-11.7242,121.2376,-13.4393,114.6332
-1203.1250,-53.3739,88.0709,128.4041,110.3143,19.0543,58.9755,85.6703,23.8227,-278.6027,-65.4287,16.8733,17.2147,-156.2356,-62.3508,-236.8957,-174.6797,62.4356,159.6106,60.7063,189.0036
-1195.3125,50.4355,51.8471,-13.7796,137.3031,95.8412,62.8512,-351.7102,3.0429,-54.1472,-97.8702,130.5105,-15.9003,-41.9831,-57.7811,-159.6995,-207.0913,271.9504,53.3963,129.2298,82.7922
-1187.5000,19.2935,54.6727,169.0674,-21.5991,58.6814,61.7820,51.9266,-4.3285,-92.6430,120.7192,20.2108,-52.9642,-190.6756,-169.1471,-13.4792,-98.4668,-147.4377,56.2397,-114.1714,155.6335
-1179.6875,-81.2807,25.0524,-43.5154,117.3368,-6.9209,-3.7232,-124.8830,55.8608,-48.5811,17.8675,26.4707,-8.4877,-73.8353,-14.9823,-190.6951,-128.2816,243.6834,96.6238,171.9484,126.0320
-1171.8750,109.9286,-29.7652,84.6970,-24.4804,121.2636,51.5759,-252.8600,16.3517,42.2712,35.8154,44.5195,-63.2113,-55.2054,-107.0113,9.8703,-0.2994,-22.3888,6.8193,-24.1210,71.2475
-1164.0625,-84.7466,-48.4811,133.9966,-59.6327,-12.4420,27.9791,163.2184,73.6530,-54.7589,84.8550,-89.3158,-87.8390,-116.4704,-57.9380,-13.4711,85.7721,-146.3405,58.1142,-8.0842,157.5604
-1156.2500,-9.7668,-43.5446,-39.0280,64.7254,70.5005,38.0403,-230.0088,37.0258,64.8474,-51.4445,30.4914,-76.8211,38.8929,24.7723,-77.1538,-86.4978,209.3126,28.0592,137.5724,57.5397
-1148.4375,39.4542,-64.3548,194.1783,-109.0825,82.6888,50.3534,74.9943,-30.2337,3.6999,33.4918,-29.4416,-101.5486,-58.4901,-72.2516,154.3815,-1.5305,-233.7354,-26.7370,-164.4976,106.7755
-1140.6250,-104.9448,-32.8097,-30.2513,24.3277,-67.7593,-26.9681,107.3303,15.7184,-37.0989,-43.2224,37.9870,-31.9386,9.4715,69.0581,-33.7277,-42.2082,77.5471,37.8090,75.7634,102.3658
-1132.8125,98.7398,-41.1611,1.4229,-37.6042,74.8765,5.8080,-153.1913,-27.3688,68.1870,-48.8278,144.5057,-73.2320,41.5180,-45.5317,34.2510,-47.7758,-0.0802,-39.5361,-1.8740,25.0735
-1125.0000,-96.4173,-60.3642,124.2270,-91.0697,-22.3270,-18.2571,299.3902,9.8041,-66.3653,36.7061,-62.8126,-23.3796,-56.2811,-31.9672,82.3637,37.8047,-230.5239,11.2693,-56.3459,110.9288
-1117.1875,-76.7685,-75.7670,-107.1411,72.3485,1.2696,6.4878,-80.1922,7.3413,67.8760,-120.9464,34.6598,0.2622,77.7023,65.3798,-3.7073,-83.8039,211.7790,-4.1270,138.9551,25.5981
-1109.3750,46.1147,-58.9227,92.7188,-124.3076,55.1096,23.4818,120.4735,-21.8993,47.3660,4.6424,-22.6220,-91.8483,19.9353,-101.0047,196.4467,79.8337,-228.6314,-91.2631,-125.4647,42.5243
-1101.5625,-134.9298,-63.0303,-24.3647,-3.4710,-97.9864,-20.4623,223.1656,40.2649,2.9255,-38.7179,-64.8489,-25.9251,12.2196,74.6461,-31.3340,35.5152,10.9906,7.6472,80.1516,72.5011
-1093.7500,50.6620,-54.4886,-83.7874,19.3845,63.5551,32.2525,-165.4452,-29.2437,128.1204,-98.4191,59.5606,-11.3600,100.1369,52.9447,19.5321,-97.1430,91.2394,-52.7838,54.4129,-22.8556
-1085.9375,-26.6384,-59.8481,125.8739,-71.5108,14.2036,57.0722,299.9985,-24.8123,-30.5756,-36.0379,-61.9124,-22.7028,-57.8387,-32.6505,80.4762,1.2936,-231.3689,10.8897,-128.2052,75.8848
-1078.1250,-88.2233,-87.5085,-82.7423,79.7515,26.5591,32.5970,-56.8332,19.8985,54.4262,-170.9389,-14.6836,-11.3575,62.8700,89.4375,-91.8663,-96.5630,198.6776,55.2569,160.8498,14.3339
-1070.3125,76.1684,-99.1712,125.6273,-96.2484,124.9045,94.1212,5.3504,5.2632,79.4128,-73.8473,-63.4546,-96.0142,13.5812,-70.4618,115.7682,1.5737,-200.2442,-27.3649,-27.0712,2.7937
-1062.5000,-107.9684,-71.3784,40.4456,-19.4071,2.7139,46.1074,287.9501,43.4883,-43.1412,-84.3153,-147.7589,-34.2336,-71.2460,28.0838,29.8547,-10.8448,-103.7064,70.4561,70.4488,64.6997
-1054.6875,-3.1624,-73.6327,-65.7677,16.3378,117.4609,50.0447,-113.4520,-0.9180,70.2382,-190.8190,39.8768,-30.5074,41.8623,32.5750,69.8938,-43.3023,70.7486,-0.7712,103.9044,-41.4284
-1046.8750,-89.1098,-124.6415,170.2413,-148.1211,59.4578,66.2337,307.3678,24.2788,-25.1210,-30.0884,-91.2272,-51.5312,-89.7653,-62.6675,232.1599,119.4749,-367.5049,-17.7430,-87.3597,47.6906
-1039.0625,-201.9897,-130.6055,-91.6815,35.3644,17.5114,24.4851,81.2474,48.5298,80.5649,-144.2970,-97.2760,16.4784,13.6508,115.1280,42.4909,-33.6868,82.2548,46.3287,186.4002,5.8635
-1031.2500,14.7609,-90.9174,63.0395,-70.1532,135.2057,105.3904,-22.1981,-27.0385,160.8844,-101.8643,-53.6777,-12.8675,20.7111,-61.4111,196.4480,-26.1995,-193.3199,-17.9376,-55.1745,-23.3027
-1023.4375,-147.7212,-76.4769,72.5020,-47.4940,34.6612,42.0508,355.0593,6.9570,-14.0379,-54.6889,-153.3121,-3.4678,-7.4714,-15.1992,95.1525,20.0266,-180.1177,29.5402,-41.9907,60.2737
-1015.6250,-44.2063,-80.0397,-72.0164,68.5290,111.1056,44.7174,-156.6359,-15.7469,99.0302,-162.4962,-3.9552,36.9167,142.3317,61.0036,23.8710,-87.7378,169.0398,-6.9789,96.1740,-47.1370
-1007.8125,14.5917,-21.3119,170.7322,-62.5802,96.8448,67.6879,158.9522,-26.0329,-26.5937,5.9810,-128.2896,21.5995,16.4500,-64.4772,117.8708,44.7899,-229.4605,-19.1898,-161.3304,11.7513
-1000.0000,-113.3435,-7.3354,1.7449,124.3157,0.8450,8.9207,26.7826,47.3863,-85.9626,-53.2829,-150.3725,109.5118,67.8189,97.2785,-124.8619,-14.4317,205.2617,29.8434,132.3986,-10.1107
-992.1875,108.5992,2.5379,88.6609,47.4972,161.7340,59.0516,-180.4471,-24.4281,37.5596,-39.6405,-101.5720,49.3128,80.0786,0.9379,-1.7030,-37.7510,73.8885,-65.2128,-32.9644,-70.0603
-984.3750,-11.0996,24.7591,143.9092,12.6877,32.9835,41.5364,242.6307,-0.4619,-90.5514,52.3378,-155.4047,31.4544,-85.2987,18.9497,-21.2034,-19.7235,-80.1028,-8.9219,-81.9604,22.3312
-976.5625,38.7987,3.5783,-94.2222,138.9999,51.8310,23.6248,-179.6494,-13.8200,74.9308,-113.0712,46.3589,50.1821,6.9134,148.5519,-113.0865,-111.0803,321.4568,-29.0300,108.6165,-68.6676
-968.7500,117.6270,-22.6568,133.5716,-73.4926,59.6167,31.6645,48.0104,-28.1766,45.3623,41.4613,-19.9177,-16.1408,-60.9133,-28.8760,113.9574,43.5034,-161.9919,-91.1821,-129.8260,-24.7166
-960.9375,-64.8284,-30.1930,-21.9322,67.2888,-59.8863,-13.5873,112.3489,38.3805,-37.4992,-4.3029,-65.4849,49.2276,-33.0364,109.3925,-79.2866,34.7892,146.2453,-27.6433,74.4210,3.9300
-953.1250,133.6958,-42.7335,-31.4302,24.0501,77.5946,13.1618,-191.2646,-9.1393,99.6233,-51.0560,-1.0700,2.5907,66.8328,25.6656,20.4660,24.0850,133.4731,-111.1019,25.6696,-79.4128
-945.3125,14.2778,-57.2219,97.1000,-90.5080,-14.8712,-5.0389,268.1352,12.8733,-30.1928,77.2291,-129.5922,-17.0094,-26.2359,-30.0029,111.2502,115.4174,-197.2002,-54.5088,-94.0086,12.2854
-937.5000,-18.1358,-89.7118,-154.3531,74.3535,-45.3342,1.7684,-57.4359,29.6932,48.9911,-64.4702,-51.1174,-10.6268,126.6883,123.3143,-29.9450,11.7598,262.0837,-15.9210,120.2892,-55.0103
-929.6875,92.9767,-47.6551,71.7234,-98.4797,34.7343,44.1161,22.5545,-26.8399,91.7268,51.3784,-8.0975,-78.6982,22.1694,-17.7997,159.3896,90.6524,-154.0452,-115.7755,-155.8368,-48.7521
-921.8750,-66.3944,-32.0984,-23.7087,3.2272,-97.6846,-51.0301,221.0145,3.3512,-4.0156,29.7260,-67.5748,9.7150,36.1618,70.5863,-10.7677,32.0420,38.3331,-29.1412,1.5339,2.9984
-914.0625,116.6672,9.9081,-85.6771,55.7948,23.3312,-38.7251,-209.0253,-54.6958,154.6782,-69.4626,91.3845,20.5656,120.5959,7.4216,-36.4679,-30.1105,220.1394,-92.0531,7.3482,-95.7904
-906.2500,28.4768,27.6613,76.0729,-88.5665,-35.9014,-61.6712,246.6479,-35.7686,94.1334,55.0875,-78.8912,-1.8372,-50.2032,-88.9761,123.5603,130.4735,-184.2512,-75.2105,-150.0634,-7.8367
-898.4375,-53.9539,-19.8342,-155.4077,99.3463,-83.3778,-71.8641,-21.9145,11.9453,120.3357,-66.5956,-52.4169,60.4956,85.7462,47.3629,-34.6472,45.8142,296.0735,-16.6235,118.2525,-55.1321
-890.6250,128.9369,-12.9831,0.4485,-43.3334,35.4773,-25.7089,-50.1019,-47.4475,128.8801,-20.9244,-43.6091,-3.8296,57.0434,-53.9346,157.4817,128.5106,-14.2314,-115.6746,-122.0564,-83.0741
-882.8125,-72.9206,32.1116,6.5394,-7.2072,-68.4073,-56.3001,250.9217,-3.4417,-12.3040,21.9992,-74.5471,2.0732,-10.3941,26.0253,15.8645,134.4608,-4.2723,-35.4815,-77.1039,-2.7805
-875.0000,20.8582,-15.1505,-110.7059,38.0597,35.3476,-62.2354,-198.3481,1.9217,164.1472,-58.4065,29.1524,-5.3895,92.8058,55.6338,7.9040,128.0787,230.2954,-81.6372,52.4844,-119.8298
-867.1875,75.4715,4.4255,162.8651,-94.8114,51.9448,-46.3237,186.2103,-47.1564,69.4565,67.0308,-102.2849,-26.0149,-39.1228,-75.8865,133.7802,143.5365,-172.2332,-97.9431,-210.0411,-30.0346
-859.3750,9.0980,77.9960,-54.5521,104.8984,-18.4512,-116.4047,5.7699,-41.4544,72.7769,-76.5164,-61.7217,51.3381,37.9501,74.5791,-47.3188,0.0028,287.2099,-59.2611,39.4139,-26.2424
-851.5625,177.8467,70.7149,50.1722,-5.0746,86.2821,-84.3441,-147.4812,-94.8450,178.2428,-81.9058,6.9838,8.8309,31.1668,-40.7962,130.7257,-5.3803,68.8123,-136.4186,-72.9631,-68.2920
-843.7500,-73.2974,-4.4659,114.9717,-55.8993,3.1170,-129.1812,285.3213,-20.8220,94.8346,55.7929,-186.2002,-1.5877,-52.4959,-51.0630,119.8751,58.3251,-76.4480,-70.4824,-43.2233,32.7461
-835.9375,-34.4022,-35.5992,-98.1610,69.8489,47.9996,-121.9662,-148.7793,-13.9919,212.4756,-83.4388,-68.3584,7.0324,102.8852,30.7138,54.0949,-43.9114,314.3025,-102.4975,171.5475,-69.1589
-828.1250,86.9171,-55.2931,137.1234,-124.2056,63.3186,-70.3068,123.5630,-41.1039,153.5775,41.7686,-127.0714,-89.9089,-30.2700,-138.0382,215.7507,44.2991,-161.4435,-121.0532,-94.1948,-17.6186
-820.3125,-93.5528,-59.7934,-14.3899,18.8744,-15.1528,-111.4449,119.0950,17.8206,74.8949,0.1854,-167.5849,-20.6728,38.7815,4.4045,26.6244,2.7187,149.9974,-19.4181,112.2520,-21.8867
-812.5000,75.3979,-66.8499,17.5449,-29.2784,127.8082,-41.1348,-142.8751,-19.7911,180.6547,-40.9343,-62.6687,-61.9979,70.2782,-73.6923,94.9426,-2.4026,71.8836,-62.3265,34.1611,-99.6980
-804.6875,-76.1036,-42.3607,187.0031,-83.8735,39.3197,-56.2776,320.6624,-23.0939,-18.0207,54.4893,-187.1890,-40.7894,-18.6575,-89.2258,115.8085,-16.9814,-184.6349,33.3120,-81.3541,-3.9734
-796.8750,-20.4559,-21.7281,-45.3717,102.1670,63.9788,-67.2686,-58.6136,-26.3273,6.4505,-141.9151,-15.5646,20.5461,153.5527,46.3825,-117.1570,-139.3929,292.9550,18.0920,150.2602,-89.0963
-789.0625,109.5092,-32.7576,162.5756,-65.1813,124.9721,-5.9214,75.4641,-39.9883,-42.7292,29.0276,-28.5936,8.2260,66.1264,-113.6304,16.2093,-4.4546,-141.0628,-62.7702,-107.7382,-64.8728
-781.2500,-105.9156,-36.1934,10.1133,22.8773,-27.4285,-84.9715,218.1217,38.2347,-122.2911,60.5746,-108.0195,39.4912,97.3130,-8.0387,-136.8081,-9.9171,66.5192,38.9557,99.8625,-33.0618
-773.4375,82.2821,-24.9857,-10.6946,26.4756,99.8065,-31.3743,-170.5109,-13.0175,4.7942,-33.2094,-17.8245,-18.6056,187.1459,-28.7933,-47.1683,-66.7239,148.7290,-19.6622,77.1162,-126.5953
-765.6250,2.9664,-33.2852,159.9595,-87.5621,49.5352,-7.2833,221.3239,0.0875,-82.5992,100.4954,-105.1348,-32.2142,-10.4931,-116.0239,48.9680,-7.0359,-211.5094,7.2184,-73.0938,-29.6424
-757.8125,-57.3519,-58.5920,-84.3709,75.9089,25.2644,-30.1878,-96.8162,40.4997,4.0086,-32.7801,18.5447,-18.8432,75.8643,44.7377,-121.8688,-67.3379,256.2185,52.0897,183.6805,-89.6924
-750.0000,99.0448,-78.1588,80.0225,-120.5832,79.7261,23.6480,-79.1839,11.9052,132.3615,94.7037,35.9690,-112.7297,-18.0226,-84.7294,116.0300,60.1097,-151.2725,-72.2819,-46.7607,-108.9943
-742.1875,-179.5589,-76.7339,5.3995,-79.4381,-68.8084,-50.5163,214.4152,97.6430,93.7389,167.1919,-148.5982,-40.6334,-55.8896,-12.1926,39.9442,132.5517,-113.7494,0.3365,95.8082,-36.3114
-734.3750,-102.0341,-68.1626,-166.0665,-29.7087,17.7958,-73.5343,-177.7833,52.0991,291.2567,69.8542,-26.0340,-28.4039,104.3904,0.4953,90.0203,72.1541,105.8984,-96.8928,174.5204,-133.4743
-726.5625,-122.6795,-52.7434,66.2802,-198.3719,-6.7628,-61.7075,238.8419,35.1795,192.6408,265.3627,-50.6128,-53.3428,-31.4527,-97.9438,174.9300,120.5965,-370.5493,-117.2682,-55.8776,-47.8001
-718.7500,-217.7221,-78.7291,-179.7669,-42.0943,-69.7217,-124.2813,66.0767,78.8682,166.6383,166.4879,33.4004,30.2969,15.3087,97.2102,-35.5329,57.6453,24.5807,-37.0535,199.3097,-73.5341
-710.9375,-25.9511,-96.8716,-12.9837,-153.1563,61.1474,-30.0121,-96.8001,63.0344,223.4815,223.4739,54.2457,-59.2254,-38.0735,-29.7674,94.8484,115.5486,-204.4223,-89.9818,41.3722,-126.4172
-703.1250,-212.9808,-108.8259,44.9755,-151.6168,-65.7753,-45.5428,254.4797,114.5546,133.5434,243.6552,-109.7006,-39.5643,-128.2305,-8.5270,40.4315,172.6521,-285.1985,4.2845,64.6548,-32.1194
-695.3125,-139.1817,-69.9439,-131.2037,-13.0477,16.1421,-37.2261,-215.3394,69.4614,252.4522,31.7181,9.1854,4.9237,27.4620,73.5672,-25.1168,33.6224,69.8304,7.3972,209.7802,-133.9703
-687.5000,-73.5128,-39.1766,118.4813,-137.4213,44.9487,-7.0169,108.7335,2.1902,134.2650,97.6810,-35.0356,-2.7007,-90.9197,-44.4160,114.2218,62.4897,-321.1866,3.4127,-76.1504,-67.9325
-679.6875,-176.3416,34.0863,-25.3317,69.0249,-24.7372,-40.3084,2.3017,25.3035,26.5891,-45.8371,-31.7530,73.1500,-50.7879,106.0958,-140.9184,-7.1390,104.2757,112.9189,103.4102,-64.4069
-671.8750,91.9473,56.4897,38.0014,11.3807,112.7095,23.5397,-264.9362,-54.6379,91.0535,-56.1915,105.6580,63.1358,12.4903,22.7704,-77.9121,-54.6114,-15.1039,29.5834,-50.8587,-147.7299
-664.0625,-27.3736,42.2844,166.7048,-25.1306,-53.4405,5.7830,158.1824,-15.9832,-112.0628,72.8502,13.4645,80.5080,-116.8102,4.8635,-96.5077,37.3088,-169.0377,50.6493,-134.6956,-55.6733
-656.2500,20.5907,55.3690,-73.2771,127.8331,0.7068,-13.6731,-301.3589,10.2954,-57.8734,-56.7788,104.5490,98.1532,-25.8183,132.2540,-263.7759,-18.4569,266.2842,99.0081,89.7545,-148.3199
-648.4375,151.4188,116.3371,136.6024,-23.9222,26.7371,49.7610,-91.9978,-15.5256,-141.7768,80.4998,56.5204,12.6880,-109.9093,-61.4297,-54.1581,81.6811,-129.4478,19.2718,-165.8479,-122.0762
-640.6250,17.8450,158.8973,-4.9280,124.6660,-77.6289,-17.2096,-12.0518,11.8521,-245.0562,-23.6046,62.0801,54.7985,-67.3895,54.4872,-267.9139,13.4322,194.4191,98.1193,18.1575,-79.2486
-632.8125,230.8357,160.0495,-0.8615,110.4819,37.5812,24.4068,-337.4522,-47.2524,-130.7354,-92.0809,214.2121,22.4954,47.7252,-13.9882,-191.0556,-55.2045,231.8739,-6.4268,-15.2250,-147.8224
-625.0000,110.9093,111.2972,126.2636,-23.3507,-56.1127,5.1185,157.2088,-41.0998,-223.2905,71.5408,83.4517,2.2754,-83.0336,-33.3434,-64.1021,-0.7513,-133.5167,16.1218,-167.4735,-20.3165
-617.1875,-3.5176,67.0385,-139.1044,125.2522,-100.3167,-1.6770,-144.6049,15.1545,-121.3393,-45.3107,113.1770,30.5364,19.7087,106.8040,-145.6167,-44.7831,280.5603,42.1564,104.7627,-64.3177
-609.3750,117.0168,46.7724,23.4942,-59.7189,-11.5475,49.5152,-55.3987,-24.7305,-69.3865,42.8444,53.8829,-65.2075,-38.5376,-25.0162,126.8568,43.1910,-127.3218,-47.8055,-126.9652,-49.3273
-601.5625,-106.6431,34.2989,-32.1280,35.5304,-138.9770,-4.4962,184.5783,28.0565,-122.6122,25.8111,-73.5987,-10.1749,-92.9675,67.9698,35.1425,-11.0356,36.6075,45.0255,37.1134,43.4439
-593.7500,55.4195,56.5650,-115.0021,78.2041,-38.6750,24.2381,-264.6431,-4.6573,14.9065,-56.4492,100.6542,-19.4123,8.3528,58.7118,-10.8098,-93.4941,200.2580,-2.3930,94.9421,-39.0353
-585.9375,6.9561,79.3144,51.5851,-57.4478,-91.8817,43.4663,158.6078,6.9812,-149.0552,146.7888,-27.5948,-1.1675,-118.8010,-32.0188,117.7290,36.5485,-233.5409,19.6904,-127.6869,53.9679
-578.1250,-130.6619,80.9003,-164.9746,132.7099,-125.2402,-26.4589,-58.2730,29.0388,-73.1597,3.9053,-24.0006,111.9007,-6.1035,83.0965,-62.8536,-33.5433,225.4787,57.6141,120.5278,20.8101
-570.3125,58.2814,95.0758,-39.9596,22.0499,-0.0211,-9.7925,-114.5257,-44.2252,17.3304,57.6376,-44.8223,127.5533,-63.8016,-48.1663,174.1566,-17.0321,-41.8745,-33.8505,-75.6274,0.2479
-562.5000,-105.2797,107.7456,-30.4680,49.5885,-174.2991,-36.6287,225.6863,-11.4191,-82.6597,66.8724,-145.1384,172.6842,-126.9778,35.0756,109.6734,28.9726,-62.6995,49.1866,-61.2660,83.1638
-554.6875,19.4370,91.7104,-189.6690,139.9528,-77.2861,-12.1678,-226.7558,-47.2445,14.6430,-55.5668,25.8197,160.0974,44.1404,96.6183,59.5005,-129.7098,237.7453,-0.4741,63.3946,-2.6228
-546.8750,78.7265,116.2690,50.6940,7.5028,-91.6827,45.8856,125.3853,-95.1309,-110.4428,2.5922,9.3669,144.0959,-45.1243,-28.2154,153.9142,-107.7993,-194.1524,23.4701,-192.2988,92.1755
-539.0625,-28.1339,150.6726,-170.0928,201.1971,-166.2262,8.7904,51.3766,-76.6400,-184.6735,-143.3873,45.7623,215.9236,64.4678,118.8065,-102.7993,-218.0327,226.7809,129.2558,17.8500,91.8101
-531.2500,151.5227,154.6180,-53.3452,102.4448,-12.2397,54.2348,-160.0436,-100.3348,-103.3760,-98.8050,90.6940,149.2958,72.6166,16.4032,-22.9749,-136.7137,56.2754,28.6018,-116.4325,25.9926
-523.4375,4.2220,113.6048,45.4219,51.7953,-96.2035,42.7232,232.5481,-9.4347,-224.0068,36.8281,-67.3182,100.7050,-85.1582,6.0674,-107.1001,-1.3572,-90.1398,91.9892,-122.6391,125.2040
-515.6250,36.2066,74.8870,-137.4996,167.6022,-23.8795,43.5051,-243.5178,0.5249,-77.3362,-108.2113,78.9519,100.3933,24.3657,80.0294,-143.8988,-74.6828,293.7118,54.6688,85.4399,51.7131
-507.8125,94.0608,62.0672,66.4393,-37.3593,-1.6764,65.1679,-1.6885,-26.7176,-91.7571,22.6490,100.1189,9.9714,-63.1932,-81.0843,60.1897,56.8896,-174.4786,7.2541,-171.5407,110.1112
-500.0000,-128.2774,51.0463,-129.8326,86.9855,-124.6730,16.6250,58.9221,24.6895,-141.3604,-24.6701,87.0880,70.3290,-38.9414,89.6043,-98.8984,8.2575,95.1272,101.6242,28.2831,134.2923
-492.1875,81.5951,15.2646,-89.8650,56.5755,61.5579,56.3231,-304.1698,-33.7202,45.2850,-58.7140,127.2828,35.9212,-0.4476,19.5577,13.2682,-98.1126,95.9768,31.2490,-6.6223,63.7222
-484.3750,-37.0003,4.0172,74.6151,-38.0802,-28.6643,39.5656,156.2504,-3.2675,-44.4978,70.7936,-73.9700,18.0435,-127.3810,-32.9169,68.9775,-41.9329,-197.5755,54.4239,-87.9400,156.6814
-476.5625,-42.0561,33.3083,-146.3428,128.9011,-30.3404,38.3558,-174.7443,45.8983,64.2669,-39.1204,-38.6941,15.6880,-18.7619,76.1493,-151.7364,-79.1883,256.3816,50.1487,154.2787,82.1848
-468.7500,49.2032,-15.0533,58.0203,-68.9622,27.3195,60.4836,-78.3798,12.2388,123.3811,93.3258,-53.0954,-36.3320,-68.7772,-84.4188,89.8818,14.9034,-178.2614,-31.7641,-69.1129,104.0301
-460.9375,-184.1351,-38.0213,-41.2254,-4.7904,-108.6105,-0.9924,115.3600,82.8797,59.9108,67.1832,-80.0998,-25.9733,-95.3764,36.4177,-10.0864,26.3929,-25.4993,49.7136,118.9020,151.2564
-453.1250,-44.3048,-37.8034,-146.2738,6.6782,6.6410,3.7224,-281.6453,67.2498,213.6314,37.2620,72.0757,-59.4333,-16.7765,5.4654,-4.8424,32.0983,116.4420,-19.6074,156.1266,46.6816
-445.3125,-110.1438,1.7511,36.9883,-91.8960,-64.7665,5.7795,197.6665,81.2293,30.7137,149.6904,-73.3939,-57.5604,-87.8067,-65.1090,-4.2581,107.1516,-230.2131,-13.5805,20.7486,121.4380
-437.5000,-170.8859,47.3941,-169.6453,106.7756,-88.0741,-54.0659,-45.9066,86.3490,7.9051,16.2508,-24.7730,27.3892,72.2608,95.4149,-247.5512,-62.6804,238.1980,30.5355,278.4638,61.2847
-429.6875,-37.6713,41.0256,-28.3053,-58.9659,-20.4049,15.0745,-50.4534,38.7021,41.0976,159.8234,-66.1771,-51.6728,141.3336,-56.0361,42.1432,6.4945,-118.3575,-80.3410,27.2131,20.1254
-421.8750,-279.0098,-24.9010,-99.5380,-81.6496,-165.2818,-92.3375,283.4181,109.7208,5.7681,235.8545,-174.1403,-50.3079,143.8733,-16.0236,80.3022,119.1221,-113.4419,-74.7791,138.4310,95.3948
-414.0625,-165.1249,-87.5909,-271.5185,-45.8825,-151.9302,-80.5123,-107.4137,79.3336,166.6907,139.1685,-14.8767,-75.7065,340.6579,34.2459,129.7309,59.0157,105.6916,-101.9654,217.8973,-2.0862
-406.2500,-175.0633,-61.0871,-99.3432,-197.3750,-164.3923,-54.4959,285.9279,36.0326,44.8307,238.6766,-99.4091,-123.9149,255.6643,-50.2547,301.3441,157.1018,-323.9150,-73.9503,-70.3940,59.6168
-398.4375,-275.1503,-55.7411,-276.3204,-21.2857,-231.0076,-83.6281,110.1221,49.2845,52.8324,63.0583,-57.0966,-82.2921,373.5213,105.0923,124.8328,55.0483,104.3014,0.9035,146.1609,30.1563
-390.6250,-85.8266,-75.9566,-148.8705,-115.3389,-103.1963,8.6749,-55.1932,-14.9899,108.2796,45.9089,35.6486,-138.2309,392.8282,13.9092,290.7654,73.4508,-91.0183,-88.7852,-48.8046,-24.8566
-382.8125,-254.4094,-103.0804,-108.3505,-131.5622,-209.2886,-24.9290,353.5505,15.5824,-35.1509,86.8628,-71.5043,-134.0849,286.2505,91.8418,257.7996,77.9591,-188.2031,-11.3821,-40.6419,52.2088
-375.0000,-187.7592,-106.9622,-290.5720,-30.9200,-170.1388,-58.2864,-84.4119,-17.4812,78.6597,-56.9034,114.5676,-133.7082,435.9180,242.0207,186.1039,-66.2619,161.8235,-47.7294,134.7627,-55.4784
-367.1875,-71.3894,-95.1005,-98.0799,-210.4849,-159.2488,-47.9071,184.3628,-36.0562,16.2244,138.0806,51.3855,-160.5950,299.3518,69.9744,381.1414,91.2584,-282.3448,-140.3183,-133.0381,-8.4281
-359.3750,-175.1156,-129.3484,-280.6880,-57.8154,-269.4523,-119.6284,112.0256,0.8064,-56.2903,29.9815,88.0965,-87.6018,337.6908,218.8227,198.1013,56.6827,105.3720,-70.0166,79.0581,-7.4930
-351.5625,54.8712,-73.8523,-255.5513,-91.0799,-134.9235,-94.6132,-192.5170,-84.4320,42.9370,-17.3522,223.5380,-99.8719,362.7760,97.4339,296.8095,7.8636,55.8349,-119.9562,-40.0768,-92.8088
-343.7500,-64.4085,-51.6181,-126.7019,-142.3033,-224.6443,-110.8509,232.6486,-43.4688,-84.0644,113.0625,22.7397,-81.4062,162.6329,81.8178,316.2643,101.7921,-165.9105,-96.1505,-120.4269,0.6041
-335.9375,-43.2014,-29.8926,-284.3407,25.6511,-162.8700,-121.5931,-181.6440,-21.7504,16.4309,-42.9949,85.4309,-55.4599,225.9828,182.6960,158.2408,18.2359,278.8038,-73.8536,112.7126,-83.4863
-328.1250,62.6759,-28.4702,-28.3120,-145.6945,-52.4140,-84.6495,2.7640,-64.7950,53.6246,141.6461,11.8098,-130.8192,116.0468,-0.6952,305.8950,55.3775,-141.7318,-107.8490,-165.4124,-46.8858
-320.3125,-115.7330,-30.3524,-106.5932,-11.9710,-129.2538,-124.0091,146.8446,-10.5627,-59.4688,66.0002,-66.1129,-61.4963,112.8159,70.6160,81.2603,16.2315,103.4365,31.8435,9.1668,-13.6029
-312.5000,34.5817,13.5043,-92.1266,10.3341,68.6375,-35.6299,-278.2791,-56.1018,29.1771,-28.8639,95.6897,-84.4337,164.3242,11.6831,59.3787,-79.1488,149.3408,41.2895,-15.4953,-109.5682
-304.6875,-63.4196,-12.9437,96.0027,-104.9061,37.2249,6.4417,131.2572,-4.6166,-148.4574,86.9682,-83.8054,-117.6812,-13.4517,-55.5290,101.1843,0.1628,-228.0000,120.4378,-111.4172,-30.8515
-296.8750,-96.8208,-45.7989,-82.2576,83.3357,79.4095,49.1105,-156.5838,7.7866,-105.4873,-89.5720,-4.7168,-112.3459,66.3655,61.8531,-113.3877,-177.9174,232.2225,194.1821,104.2467,-98.5402
-289.0625,150.7451,-43.6613,103.4536,-76.0668,191.5718,125.7684,-79.4103,-64.3299,-139.5206,-49.1084,71.3558,-185.0159,32.1869,-81.7400,36.0314,-137.9976,-151.5213,126.9372,-174.0521,-96.2343
-281.2500,-36.0862,-53.9326,88.7510,-17.4650,67.3419,75.0262,202.3257,-4.5578,-261.9357,-99.0421,57.0380,-163.1001,-54.3733,53.2746,-161.9444,-114.4788,-55.6560,222.2827,-42.7416,-36.3466
-273.4375,67.5061,-55.7623,-18.4964,70.1444,144.5499,116.7291,-234.4408,-5.3577,-147.9103,-204.4972,245.1565,-122.7486,-13.4895,94.7423,-231.4582,-146.5003,190.6281,186.0763,64.0169,-143.0081
-265.6250,3.6303,-83.0498,169.7663,-110.2826,112.2971,120.9708,212.3130,49.1561,-179.3243,22.5963,64.8278,-193.8561,-192.0413,-47.2169,-79.4360,6.0236,-257.4836,159.4223,-68.6318,-65.1331
-257.8125,-159.0945,-104.1986,-35.8141,56.1711,54.1952,63.3589,44.2260,110.0992,-52.5779,-71.1351,-29.3597,-141.8342,-65.4486,79.9659,-247.2395,-51.2842,179.5236,173.9096,228.8600,-86.1175
-250.0000,14.4991,-107.0043,72.9396,-64.3139,163.4252,100.0861,-65.4789,48.2999,57.5094,-33.5031,-67.2245,-180.4744,-65.5035,6.5101,-64.7037,21.7684,-68.1052,66.7574,16.7334,-123.7533
-242.1875,-109.8566,-53.7683,123.7228,-25.3791,31.7174,41.8593,207.8274,51.2057,-74.3364,19.1793,-127.0328,-93.0773,-160.4918,96.1144,-196.1180,0.8611,-84.6537,119.6492,1.6751,-35.3568
-234.3750,0.4236,-14.8869,-87.8263,100.7448,40.6515,51.2776,-296.1710,32.0322,120.4565,-80.4621,66.7879,-48.0397,-76.8418,144.3622,-260.8681,-136.3839,273.4113,19.1923,183.2552,-136.3092
-226.5625,45.2818,-3.4110,103.1914,-105.7342,48.1809,23.2866,43.4053,32.1518,91.8527,112.4907,-72.7936,-114.4118,-178.5735,-30.7665,-68.0397,55.9670,-206.8726,-38.6570,-50.5258,-54.6728
-218.7500,-114.4996,-21.5880,-101.4398,46.1723,-81.9375,-70.3530,24.3246,117.6655,109.6088,93.8096,-130.0282,-61.4522,-160.9539,61.4497,-197.8413,37.6743,198.1765,13.8353,250.0323,-37.6983
-210.9375,83.8382,0.3811,-75.9255,-57.6819,17.0754,-43.8546,-242.5688,77.6846,246.5035,158.2887,5.8750,-147.3428,-172.1924,-22.1717,-61.5022,63.5323,45.3799,-68.5133,133.7580,-85.5719
-203.1250,-56.2185,-33.0508,31.1614,-136.9924,-95.3071,-82.7566,159.0895,123.8782,98.0094,267.3541,-70.6073,-186.6338,-246.8166,-24.1813,-64.5725,134.9714,-161.7697,3.7386,102.1071,22.1372
-195.3125,-31.9744,-78.1812,-161.4342,1.8916,-29.3947,-53.3647,-213.9171,116.0148,164.8053,150.7386,106.2001,-196.6382,-107.1517,44.0994,-145.3274,-18.2716,250.3411,-5.7136,268.7374,-58.8536
-187.5000,45.6491,-70.9172,65.3418,-189.3684,13.9058,-9.5862,50.4647,90.2858,135.0030,305.5229,2.3978,-263.2477,-172.0781,-95.1946,45.2986,98.8878,-232.1024,-67.7625,-3.1956,-15.4512
-179.6875,-131.4696,-106.4136,-84.6339,-72.1188,-98.5334,-84.5602,159.0763,154.4766,60.4666,231.5670,-74.1497,-192.6206,-136.7474,13.7579,-103.8031,171.2986,49.6924,2.4258,174.1192,19.1895
-171.8750,58.7859,-91.5175,-65.2092,-80.5527,67.4127,-65.1423,-186.8610,78.8269,191.3207,142.0303,18.6908,-212.6044,-81.0307,-38.8872,-10.5004,155.1164,99.8711,-87.9808,84.8380,-71.7636
-164.0625,-50.5116,-94.1783,147.6367,-151.3747,23.8075,-35.2813,284.6031,104.3918,37.6397,209.9366,-134.0102,-219.1437,-233.8500,-80.0675,20.2424,259.3807,-181.4572,-53.9361,-54.9561,31.7175
-156.2500,-51.4096,-95.4440,-71.1015,41.9554,62.6026,-69.0175,-43.5063,115.3588,41.3554,30.2679,-22.3241,-145.2981,-121.2774,33.1412,-161.6000,152.0622,310.5706,-18.4989,191.6329,-39.4036
-148.4375,125.5679,-93.8130,151.0388,-112.2160,138.2841,7.1348,33.2923,72.7150,43.9690,70.4979,-57.7413,-144.5542,-190.8000,-74.7331,24.4345,264.6388,-108.4665,-122.1532,-51.8497,-37.6256
-140.6250,-65.9942,-107.7375,59.6217,-14.6650,10.4274,-47.2607,200.5043,120.2827,-82.9562,54.1782,-147.7024,-52.3715,-170.8663,56.8419,-103.0709,211.6622,54.9524,-30.3590,112.1248,18.5884
-132.8125,87.9260,-59.1701,2.7136,54.0174,139.0636,8.8426,-220.7350,46.5415,82.6029,-73.6258,-57.1912,-71.6951,-42.4415,75.9164,-84.0740,46.2021,244.8380,-87.0540,126.5959,-73.6957
-125.0000,31.6386,-44.8046,198.5789,-66.8260,77.5000,20.7441,158.7843,25.9262,-15.0276,13.3576,-191.8696,-98.2256,-139.2075,-21.1915,74.7012,96.5303,-125.4266,-35.9437,-66.1014,11.8063
-117.1875,-41.0890,-10.8888,-22.9912,130.4517,40.4886,-15.7971,-61.1395,60.1816,-14.1117,-95.0891,-155.9973,-25.2144,-29.4356,91.2385,-145.9550,-50.5859,330.8255,33.7093,214.7290,-25.1460
-109.3750,100.1082,-10.0246,89.3740,2.9910,153.4116,60.6017,-94.0900,-3.2971,62.7482,-54.5845,-43.1842,-60.2560,-62.7171,-52.3691,4.3237,-46.7532,17.0475,-34.6788,6.5368,-59.1470
-101.5625,-100.0815,2.4350,97.3304,19.3827,14.9479,33.5994,284.5146,49.4546,-109.7737,-43.4891,-71.7593,-15.7024,-125.3891,-5.3749,-96.7956,-37.3278,-40.1103,12.5282,90.9497,23.4396
-93.7500,14.3702,-58.4595,-72.0455,109.7212,103.1314,48.2419,-177.1913,50.9455,51.3446,-137.7269,53.2961,-2.4999,-0.4256,11.2663,-118.2525,-95.2413,287.3429,-46.6159,242.9991,-72.3175
-85.9375,58.3125,-84.8593,154.0535,-62.5643,108.8116,55.3784,159.5752,63.6138,-15.0324,16.5237,-124.1417,-33.7953,-176.9505,-90.5736,35.7712,59.3361,-158.6554,-72.2588,42.5813,7.4195
-78.1250,-95.2815,-61.8173,-79.3832,132.5877,23.9507,6.9634,1.7879,82.0684,11.0456,-102.7638,-100.1296,100.3470,-79.0292,82.0246,-159.7314,-62.6182,252.7669,22.5353,279.5983,-4.3986
-70.3125,74.8445,-32.0330,25.9216,53.4108,166.8256,76.2852,-184.2114,-5.7316,80.8665,-106.2903,6.6132,95.2426,-8.3661,-31.6165,-53.4883,-138.8090,36.9398,-17.9184,99.3831,-45.4603
-62.5000,-105.7254,-35.9486,91.5077,16.6166,48.0070,-5.0933,286.0432,51.1378,-35.9919,-2.5247,-148.3426,122.4391,-125.3909,-36.9539,-133.9445,-71.7085,-105.5572,13.9228,133.4854,56.7664
-54.6875,-60.9951,-60.5647,-115.5836,137.1080,62.4895,-26.1736,-138.3653,58.1529,89.4376,-96.4457,-24.0061,136.9313,-0.1325,51.9987,-266.0867,-94.2992,292.2007,-9.9344,285.8670,-38.7006
-46.8750,34.9723,1.0663,129.5534,-2.9314,88.2136,35.9883,107.4608,-22.4635,5.1144,-33.1292,-145.4098,86.6792,-84.6160,-67.7839,-58.0055,-31.6449,-136.7462,16.4649,-72.4732,23.0790
-39.0625,-119.4394,58.2949,-32.6955,170.5289,-0.4431,-15.2491,93.8639,-20.2582,-117.6037,-192.2096,-160.2112,182.0220,11.5045,102.0209,-218.3155,-117.3879,202.8885,110.4596,91.7699,45.4520
-31.2500,56.1867,58.5744,8.1148,124.2475,113.9415,26.5632,-231.6454,-72.0501,-3.2947,-187.2424,-9.9761,148.4205,89.6666,33.8777,-104.5837,-113.0789,169.5658,6.5143,-10.9392,-24.1169
-23.4375,-80.0729,63.9591,81.0089,19.4212,3.4343,-45.5275,210.8951,-44.7299,-111.8804,-1.1959,-82.6188,146.9224,-55.0637,-0.1552,-30.7665,-1.6866,-104.6128,11.6679,-108.5322,86.4042
-15.6250,-84.0714,25.5994,-175.8244,181.8710,-32.8189,-46.3676,-155.2916,-2.4019,-1.2269,-146.8899,26.9951,183.6741,55.4402,111.0444,-139.6833,-74.0342,350.4176,45.0634,171.0962,13.1808
-7.8125,74.5152,43.8410,61.9222,13.6369,22.5165,9.3812,-25.8755,-52.7254,-18.9807,-52.9946,45.2076,90.0330,0.5470,-52.1433,25.9804,-18.7878,-50.9159,-6.9312,-89.6492,31.5588
-4000.0000,2.1156,59.3593,4.9112,68.7573,-47.6847,-49.5969,39.2856,-32.1268,-77.5528,-39.0829,-9.2063,120.7777,-12.2390,1.8935,-37.0048,-36.3740,74.0939,39.7444,-9.0255,52.0812
-3992.1875,203.0692,49.1113,-38.9882,114.9749,90.5656,51.7182,-371.2770,-66.7107,22.7033,-158.2661,93.7083,115.6366,53.4993,-5.2842,-45.1711,-81.4434,205.0985,-40.7336,-20.5190,-28.1218
-3984.3750,81.2945,34.1128,124.3695,-62.7998,-4.9158,29.3013,85.3794,-33.0495,-108.7827,39.7878,-1.1122,59.7428,-4.5024,-62.2193,78.9128,78.7208,-231.6497,-56.9684,-176.7692,61.9198
-3976.5625,-6.1920,-52.5829,-146.9550,36.1836,-57.1029,-58.8101,-148.6190,23.7278,21.0156,-48.8527,95.3577,46.1522,127.7855,69.1447,-46.7078,63.1831,174.8763,-72.8995,122.2700,11.2740
-3968.7500,122.8744,-63.7297,-12.7458,-118.8167,40.2668,1.6353,-124.1064,-22.5970,117.3688,47.0368,83.3958,0.1153,78.6370,-53.9293,197.1990,124.1832,-187.0031,-153.2804,-100.1215,0.1722
-3960.9375,-83.3437,-58.1767,-11.8056,-38.6548,-68.6477,-33.2037,171.1176,23.8092,-29.5833,47.6306,-61.8583,39.7665,42.1838,20.6784,86.8154,123.8876,-77.2297,-43.9644,-25.8441,75.7724
-3953.1250,93.6710,-55.3730,-151.6184,18.5180,46.6892,-28.7878,-262.3877,-19.8077,84.6992,-93.5315,90.1305,47.6678,158.9802,27.5458,54.6498,55.8282,136.8210,-77.3891,44.7014,-27.3708
-3945.3125,60.1054,-54.1692,103.9739,-133.6565,6.4474,42.0455,139.4612,-39.8299,44.3902,12.6895,14.5358,-26.0313,9.1884,-84.1881,198.8799,52.1515,-317.7157,-40.4200,-165.3536,44.8770
-3937.5000,-77.1621,-49.6649,-111.1055,34.2780,-25.4924,10.1882,35.6573,-18.9637,84.3631,-92.7870,57.2301,18.5684,88.6886,30.3723,-16.5904,-126.2270,73.0118,34.8506,83.8694,14.4346
-3929.6875,125.0188,-21.7024,-7.7559,-50.4063,114.0210,76.7920,-118.7259,-79.8414,149.7849,-28.8403,160.3916,-23.3745,81.6513,-159.6021,121.3595,-134.1829,-110.7606,-79.4232,-101.4382,-28.5625
-3921.8750,39.6783,-36.2888,83.0691,-55.5218,-16.0002,18.8609,193.3347,-37.6487,-55.3477,24.5567,104.0206,-4.8723,-11.9388,-106.1422,-9.2315,-44.6890,-159.1144,11.7400,-116.3242,62.8892
-3914.0625,113.8701,-31.3301,-92.5524,67.9718,65.5221,64.4849,-275.0249,-48.5651,24.0597,-151.4937,296.1993,-30.8242,143.0196,-25.1273,-149.2926,-147.6435,197.0849,51.4566,27.3505,-38.1013
-3906.2500,135.3768,-9.0806,185.1149,-100.2507,121.3617,83.4224,1.8682,-97.3398,-30.2148,-23.2563,168.6973,-46.4842,15.2924,-114.8065,51.9388,-55.3033,-272.3979,3.4648,-267.6644,19.1967
-3898.4375,-90.2652,-24.9861,20.6631,46.4517,29.0575,28.2237,21.6490,-37.6749,-12.6475,-115.1572,78.0377,11.7011,34.4025,13.3546,-75.9754,-74.1102,63.9169,93.3192,-38.8548,39.3523
-3890.6250,104.4819,-3.4938,9.5957,-12.7323,127.1553,89.4348,-246.1908,-81.2047,120.3155,-127.6773,102.7815,-34.7117,95.9226,-35.0671,57.4838,-14.5297,-20.3255,-26.4206,-158.6157,-45.0967
-3882.8125,-35.1991,-37.4546,152.0966,-102.8163,48.8238,85.2170,227.5056,-22.1885,-69.1639,-22.6515,-47.9182,-74.5850,17.9945,-38.9493,16.5050,53.5956,-299.0424,45.3763,-193.8456,61.9987
-3875.0000,-48.7472,-49.2706,-78.2441,70.7613,75.6416,111.1563,-149.6143,-15.1456,-8.5110,-144.4701,125.5244,-45.3145,155.2117,97.3250,-179.3372,-140.1324,145.3787,67.3300,38.0796,-20.7488
-3867.1875,55.7164,-51.0889,139.4000,-96.8152,144.4742,181.1067,31.2184,-44.2649,-48.8404,-39.3056,121.9941,-84.0544,41.4397,-53.3938,-0.1962,-107.8790,-312.1647,31.2786,-174.9790,13.4914
-3859.3750,-125.4145,-55.5124,22.4758,25.4201,63.7149,137.4728,171.4773,44.5641,-131.7742,-46.7263,-68.1315,-15.4126,34.0596,50.2676,-154.6439,-79.2164,-71.3607,96.6229,29.3351,44.1347
-3851.5625,-19.0104,-53.3933,-7.9110,7.6493,179.5077,142.3912,-225.7241,18.5944,55.8403,-80.6028,-25.7005,-81.2262,113.2348,19.4920,-77.5669,-76.0113,1.0272,62.5219,30.2259,-59.6747
-3843.7500,-133.1843,-61.8740,162.1131,-127.9914,91.7265,128.7318,201.4449,62.8564,-69.1301,88.9199,-185.8627,-129.6568,-11.1880,-31.8931,17.9170,56.5832,-358.1989,54.8071,-83.4932,37.9055
-3835.9375,-121.0709,-84.0601,-42.5387,51.2927,106.2423,106.3810,-114.0407,73.2897,-19.8105,-80.2484,-23.7357,-112.8035,114.6810,58.0178,-188.3020,-39.5194,147.8478,67.3952,138.0763,-19.2079
-3828.1250,94.4933,-78.7988,146.2410,-116.5944,184.2243,110.4926,-109.1200,25.1504,19.9729,33.0154,17.8609,-215.5134,46.0189,-121.6139,34.9070,74.8156,-163.6131,-32.5684,-103.8827,-13.8845
-3820.3125,-79.3727,-76.9938,70.6059,-50.4347,33.7724,34.1739,110.3644,70.1172,-93.6952,65.8348,-21.9924,-142.6909,-30.1019,-50.7076,-41.3209,33.7037,-56.5744,39.0124,36.6780,57.9865
-3812.5000,52.2470,-83.6923,-42.5334,2.5965,103.8208,104.3669,-296.6457,26.1944,85.1315,-11.8520,122.6536,-145.3758,76.2718,-17.2870,-47.0747,-80.9169,112.9871,-3.9018,63.7600,-54.6458
-3804.6875,22.2877,-78.9999,142.7297,-146.6679,68.2951,105.9782,108.6977,31.3608,-25.6247,98.8581,13.7207,-177.6777,-68.9459,-89.4647,63.5715,29.8566,-303.0563,1.5683,-106.7603,21.1055
-3796.8750,-125.6291,-85.2733,-82.9353,32.2266,-11.1812,99.6502,-79.8662,95.0943,40.6602,-18.3646,45.8321,-145.9429,35.8797,88.4020,-125.7313,-13.3056,147.9090,30.0847,166.7570,-20.0904
-3789.0625,53.7028,-80.3062,32.6284,-128.9543,103.5994,104.5868,-148.2152,28.2285,154.2017,22.6489,87.2066,-211.9723,40.9716,-16.4679,61.1976,64.7773,-164.8366,-71.1536,-41.4479,-51.0496
-3781.2500,-113.4452,-72.8498,37.7159,-103.7849,-3.0988,72.0403,224.9378,72.2563,-26.7470,99.1749,-18.9148,-168.5216,-65.4490,61.1509,-9.3541,104.3700,-191.1333,7.0945,-35.1740,27.4840
-3773.4375,-5.3153,-68.0982,-100.9016,10.7695,41.4992,79.8053,-243.5855,46.9476,89.6054,-40.9951,137.2584,-159.7852,52.4243,106.0765,-76.6223,38.2636,164.8727,-24.3536,73.4149,-73.6837
-3765.6250,55.2782,-41.9066,143.9252,-131.1286,65.5663,103.0354,110.2908,15.6064,-35.5677,92.2770,50.9025,-170.6141,-107.2440,-54.5454,93.5585,60.6040,-265.6549,-33.3643,-146.5358,-12.4190
-3757.8125,-91.3785,-46.9702,-45.4765,61.5152,-14.6128,61.0268,31.9557,48.0068,-42.9926,-25.6808,45.2945,-64.7124,-40.1730,86.5738,-96.4993,-93.2963,151.5180,31.3632,127.2417,-17.4026
-3750.0000,79.6059,17.6130,25.7496,-8.5729,92.8572,94.6744,-191.7575,-0.9190,63.2459,8.0001,42.3490,-102.1700,-5.4405,-25.6398,46.0765,-97.5611,5.3824,-44.2577,15.6942,-92.7474
-3742.1875,-64.3892,51.1932,128.9959,-26.6830,11.3496,87.3403,243.5127,62.3151,-55.5013,109.6858,-147.5918,-108.6526,-159.7078,-70.8669,-0.3285,-32.8207,-136.7894,-10.8920,13.1277,10.8966
-3734.3750,18.9996,29.1669,-73.3492,98.8736,28.2449,67.4164,-216.7875,54.5902,70.1466,-21.2235,15.8524,-88.7493,-32.5832,57.3157,-166.3449,-89.6786,264.4248,1.8754,165.9687,-81.0595
-3726.5625,130.4970,35.2328,151.3905,-95.3047,68.2584,107.6061,43.9605,-3.2144,35.9210,54.9570,20.4159,-157.7645,-103.3475,-86.3922,-18.2687,23.5536,-221.2316,-27.2678,-146.0725,-39.9356
-3718.7500,-51.6473,-4.3557,-2.4896,14.0249,-49.3687,27.1623,111.0864,29.6128,-9.9557,-27.4923,50.3282,-89.4499,-36.7751,54.2353,-172.8274,15.1446,54.4055,37.9241,24.2095,-9.4636
-3710.9375,114.1943,20.0474,-10.3901,-1.0990,90.0021,55.7233,-190.8021,-34.1137,91.1787,-72.9441,153.2471,-132.1479,28.8033,45.8751,-72.4091,-67.2707,80.0784,-42.8844,-22.4761,-90.0016
-3703.1250,16.6104,28.9975,140.2721,-74.0597,18.9462,58.8530,254.8277,-20.6334,-54.1151,2.1622,8.7247,-91.3222,-114.0716,49.0526,-33.4264,-29.1356,-227.7202,0.8436,-119.6213,23.9949
-3695.3125,-61.5389,21.3842,-84.5991,126.8517,50.3405,90.4434,-118.0587,6.1856,13.0363,-186.2650,40.6375,15.9345,27.4922,191.6833,-185.9942,-108.5421,221.9025,28.0199,117.6856,-53.5590
-3687.5000,55.3133,33.7632,111.5106,-48.2062,135.7535,102.0477,5.0032,-44.7312,23.2137,-103.7033,-57.4383,-43.8286,2.0633,55.3242,44.4255,-23.9560,-187.4419,-29.8071,-117.9804,-41.1336
-3679.6875,-136.8716,-17.9152,54.6010,8.6168,41.1311,44.6154,168.0361,44.4336,-72.6520,-52.1752,-150.5647,10.3336,-19.4281,144.8980,-87.1820,-9.4116,-63.8922,-11.6984,75.2756,12.2361
-3671.8750,9.1828,-46.3525,-44.0678,23.9946,125.7566,92.4412,-260.6844,26.4939,120.7382,-78.4010,6.5566,-50.2728,28.3320,156.7380,-78.5567,-72.6215,84.9351,-75.3406,116.8077,-86.1515
-3664.0625,-4.2938,-60.3487,157.7121,-102.4231,69.8574,109.7332,161.0035,31.6837,-10.3950,85.8240,-48.8583,-68.4512,-136.4480,-9.9782,11.5297,54.6152,-279.7967,-54.5484,-109.2093,5.8923
-3656.2500,-51.4820,-71.0547,-73.1877,76.6224,22.2589,26.3358,-69.9668,59.4075,14.7739,0.3720,15.0118,-3.3498,-0.9430,89.6017,-220.0700,-67.8414,200.7279,39.5381,160.0626,-40.7648
-3648.4375,128.3765,-31.7159,79.9340,-47.1189,137.7164,104.9967,-63.9285,12.7557,55.0164,40.9641,19.9452,-70.2171,-32.3743,-88.7552,-32.6309,-63.2547,-110.6587,-61.3300,-12.5884,-71.3908
-3640.6250,-112.5034,-61.1397,82.3271,-32.6777,29.4416,70.9232,233.3604,97.9560,-54.4708,79.8278,-123.8737,-29.8652,-103.5614,-12.8721,-103.9137,11.5991,-139.8529,15.0324,97.9901,5.2218
-3632.8125,-42.3081,-60.4790,-59.1850,41.2597,144.2617,74.9544,-240.2337,97.3335,96.1519,8.8027,-45.6061,-60.4320,47.3463,28.1249,-139.1060,-58.4367,142.0588,-20.5055,238.6895,-100.0728
-3625.0000,-39.0482,-21.7778,124.3391,-112.2421,106.1491,74.0509,164.1767,70.2910,-53.1424,154.8271,-120.2798,-96.9763,-63.6822,-82.8263,6.7653,86.5837,-275.9748,-52.0135,-40.5557,-26.3408
-3617.1875,-117.7450,-29.0351,-67.0694,43.1857,25.0887,30.2051,45.6771,127.1021,-62.3799,35.9249,-90.9060,-29.5019,39.3222,56.2670,-222.3028,41.6729,103.9918,-24.4758,232.2334,-33.5628
-3609.3750,78.1479,-44.7082,29.0974,-80.3100,120.6310,51.9715,-115.2631,73.4453,68.9984,56.6203,5.0892,-116.4504,23.9374,-68.0213,-17.7903,99.3590,-87.4026,-110.3421,75.6553,-84.2036
-3601.5625,-91.6917,-73.1453,68.5298,-112.5792,-25.5564,17.0058,328.0350,106.0648,-4.3513,130.5928,-102.6615,-113.1819,-84.1999,-30.0738,-54.0060,100.3058,-220.5949,-68.9793,81.3103,28.3886
-3593.7500,-49.0549,-65.0930,-177.5345,19.7186,22.7522,28.5413,-138.1364,92.4508,116.8051,31.0845,56.0673,-100.4357,74.1514,55.3779,-117.7235,0.7630,173.7051,-96.1192,228.4816,-69.5257
-3585.9375,39.0418,-46.6049,59.8360,-160.4867,39.5274,45.5370,99.0883,32.9283,58.4464,157.0355,-0.7420,-120.2687,-20.0380,-75.7188,118.0126,88.6746,-299.5263,-148.8262,-70.8763,-16.0148
-3578.1250,-123.0619,-68.3263,-109.9698,-25.9873,-94.8888,-51.6577,113.1447,73.7417,33.8959,59.8196,13.2408,-31.3348,30.5548,48.9668,-53.4315,65.4063,30.9839,-64.7459,154.5504,-1.7094
-3570.3125,70.3192,-50.5610,-87.2945,-58.0430,37.2005,6.6462,-196.3209,-6.1967,127.8664,6.1110,145.7200,-44.9261,88.6496,-3.8302,77.6100,11.6362,-21.9756,-82.1671,29.5142,-89.9206
-3562.5000,-79.1321,-58.6556,47.5429,-104.3904,-49.5356,31.1135,269.3374,39.5661,-33.9803,66.5675,-51.6547,-57.4007,-72.1075,-16.4906,100.8262,108.0297,-239.8179,-19.4589,-49.3795,7.9972
-3554.6875,-97.3093,-76.4593,-152.3191,61.2545,-27.9779,51.8865,-113.6680,63.2094,59.4833,-97.6562,6.2550,-34.5966,59.4180,152.1511,-63.6476,17.7300,198.6149,-3.4516,178.0350,-80.7903
-3546.8750,66.9197,-86.8691,56.1996,-122.2284,68.9927,76.0686,20.6699,11.1269,82.3807,35.5167,-42.4204,-83.4142,10.3493,-7.7972,106.2733,77.8215,-232.5223,-84.0573,-79.1241,-56.2026
-3539.0625,-103.4911,-116.9348,-12.9049,-32.8085,-37.6742,6.6093,172.3781,68.4017,11.6388,39.0674,-148.7583,-4.9155,50.6126,68.5908,-38.4261,44.2852,-51.3682,-8.3258,101.0414,-15.2748
-3531.2500,76.1281,-42.9682,-77.9798,14.2701,80.7052,51.2038,-187.8710,16.9246,54.9649,-64.3236,-31.0518,-33.3936,131.9268,40.0494,4.9113,13.8135,92.8577,-40.5466,69.2867,-117.3114
-3523.4375,67.4169,-15.3628,166.5937,-96.0439,30.7536,38.4592,240.4874,12.2067,-143.0214,67.9434,-117.6821,-82.2567,-29.1085,-46.8448,64.9203,73.0023,-231.2858,-13.1390,-115.8184,-19.7208
-3515.6250,12.8908,-34.5698,-71.6212,94.5634,11.9956,19.9192,-107.9175,23.8741,-51.7953,-97.5638,-24.1285,11.0587,100.0350,82.4598,-101.8583,-18.5884,242.7348,37.4640,111.2712,-73.9357
-3507.8125,182.6182,-5.5320,106.3832,-73.6404,116.4931,50.6340,-114.1202,-31.0868,50.7175,5.1746,5.6789,-67.3970,56.4351,-107.9705,111.6147,84.0692,-114.9601,-73.6948,-142.3613,-79.9249
-3500.0000,-27.5927,-39.4482,66.4575,-53.5912,-33.9496,-25.5882,140.7341,31.1373,-26.6973,74.9904,-70.4714,-32.8309,-20.1311,-0.3661,34.1712,116.7914,-79.6585,-2.8222,-35.9704,-8.8765
-3492.1875,86.5727,4.0222,-66.0853,40.4587,52.9997,-12.4117,-286.0028,-22.7700,133.3002,-58.7797,53.7682,-54.8835,103.6998,12.6556,46.1247,-18.0736,212.0542,-29.5516,42.8475,-105.4388
-3484.3750,94.5516,13.2754,160.1629,-94.6028,57.7685,-6.4243,86.0117,-29.7471,27.1385,92.2652,-88.1901,-49.1735,-75.6636,-92.5276,160.8996,59.8753,-200.4400,-20.4974,-160.5255,-26.2265
-3476.5625,-30.8813,-6.8839,-43.9747,59.1162,1.1375,-26.8342,-81.3330,23.9932,41.5868,-39.0588,-34.5696,-31.8932,14.5554,33.8841,-7.7077,2.4503,200.6147,29.1484,100.6926,-46.4204
-3468.7500,138.0296,-13.7000,61.2119,-55.5882,105.8593,41.1113,-233.3653,-16.9251,109.4058,-9.0336,107.4052,-110.2857,8.1289,-81.3370,133.0211,32.3734,-16.9368,-82.8583,-47.7087,-88.2870
-3460.9375,-46.0420,14.4747,85.4162,-54.1783,-17.3995,-44.9332,158.5889,7.6872,-14.7530,52.0153,58.3818,-85.7116,-114.3074,-57.5706,82.7799,92.3116,-59.5358,-19.8809,-56.1301,9.8285
-3453.1250,33.1650,22.9387,-121.0871,40.9754,32.6317,-67.6779,-305.1333,0.2816,145.3925,-82.6137,181.6462,-70.8575,8.5560,29.5042,57.8359,31.5592,267.1565,-81.6063,128.7676,-86.7643
-3445.3125,56.8335,11.8415,121.8443,-141.5186,18.1301,-45.9689,10.5408,-1.6649,92.0240,122.2144,56.3678,-122.5844,-117.1186,-132.9696,262.3553,126.2628,-200.6874,-93.8957,-94.8733,-27.9345
-3437.5000,-121.7042,9.5343,-101.4047,3.9379,-58.5696,-85.4523,8.0545,64.5283,88.4686,44.8731,17.8698,-50.5423,-46.0122,12.3462,38.7079,48.7924,113.2086,-25.3984,184.2684,-30.3126
-3429.6875,87.5949,7.0597,-62.8301,-54.4274,52.5830,-84.0896,-212.6070,-14.4614,198.7847,45.3864,92.2295,-48.6763,64.9494,-97.4744,111.9022,49.1796,40.9914,-133.0527,41.2912,-102.8596
-3421.8750,-14.9883,10.6769,81.8548,-105.0698,-60.1487,-86.6176,227.8079,19.9692,-24.7678,116.0217,16.6950,-50.7426,-10.9899,-100.2067,72.2249,119.6802,-166.1650,-95.6256,-26.6016,5.6726
-3414.0625,37.9046,28.7848,-151.9636,51.4663,-36.3899,-99.6501,-191.2479,10.2157,71.1898,-8.8228,186.6412,-26.3270,48.5605,-3.4330,-52.9486,31.7007,274.1602,-76.6995,132.0151,-81.3025
-3406.2500,190.1481,40.2248,78.5447,-86.9324,9.7320,-53.3262,-34.0103,-51.4916,79.5382,73.6913,85.9367,-53.5876,-89.5262,-141.2998,176.2353,77.0792,-102.1430,-136.4367,-138.9915,-34.9545
-3398.4375,-9.7138,51.5484,-96.0269,54.5121,-164.2359,-117.0950,85.1612,-9.7284,51.8094,46.1383,-14.8869,67.0150,-80.7262,15.7167,37.3550,12.3787,156.3877,-19.2890,47.8860,11.2830
-3390.6250,144.2038,29.6593,-113.8250,55.5204,-36.4092,-62.0687,-226.8759,-69.2365,215.9034,-46.6090,3.0855,48.3966,47.8759,-3.4487,128.2720,-80.5163,204.7449,-76.3419,25.5916,-80.6939
-3382.8125,41.2875,32.9108,104.5274,-39.9470,-76.4150,-27.8899,249.2012,-33.9989,66.1817,60.8073,-218.7806,9.8956,-65.3695,-42.4770,124.3713,-47.2478,-142.7736,-3.2602,-77.5582,27.4572
-3375.0000,-40.3996,21.4031,-123.8627,152.1371,-47.1771,1.5368,-90.4341,0.3180,93.7168,-132.4977,-80.4130,75.6193,36.6214,96.7429,-105.2666,-166.7085,302.9211,55.0710,192.5440,-54.1488
-3367.1875,76.2104,33.1822,72.0200,-8.8665,74.3701,86.2650,-41.8205,-56.7604,67.5860,-47.5007,-31.7381,14.6223,-25.0777,-1.7233,52.3931,-81.8672,-108.0548,-3.3096,-113.0225,-42.4810
-3359.3750,-107.6239,25.4954,24.4727,70.6080,-47.5187,38.5454,167.3586,-7.9058,-91.9753,-59.9202,-80.5206,77.1399,-37.2391,96.3444,-70.3598,-57.4496,25.4574,93.8456,-15.0621,19.7233
-3351.5625,82.6688,38.9476,-66.9463,121.9281,44.7341,56.9670,-291.3069,-57.9701,36.6336,-152.1703,85.8325,95.7850,54.7420,115.5739,-51.9629,-149.8663,215.1366,2.1451,33.0781,-71.9351
-3343.7500,73.3772,30.7942,140.0267,-15.2620,-42.6001,43.7933,98.3731,-79.9451,-51.3153,-19.0025,35.5850,118.8024,-105.8780,28.2021,80.8555,-53.8724,-179.7915,-6.1704,-186.3800,24.7808
-3335.9375,-27.6312,34.9327,-111.6888,128.0043,-110.6406,-24.0835,-152.6044,-13.2618,-8.9490,-124.5011,114.6098,125.0964,9.7854,144.1213,-99.0041,-48.5562,246.5333,67.8076,98.4609,-6.2095
-3328.1250,118.1491,4.8614,6.3633,-24.6990,7.1228,19.8350,-218.8176,-49.0319,33.2505,-7.1982,158.4364,22.1701,16.2584,-33.1501,127.9379,30.5621,-29.3054,-32.4187,-107.8639,-36.4224
-3320.3125,-78.5566,20.2833,17.9283,-9.9059,-127.6032,-42.7448,159.4711,-11.1585,-138.0294,40.6360,-14.2440,33.7148,-9.7755,52.0554,65.4154,79.2047,-49.6972,52.8350,-92.7071,48.8487
-3312.5000,34.0173,26.9977,-154.2225,87.3306,-43.0434,6.9639,-268.9237,-27.4140,18.9980,-95.2075,71.3633,9.5372,112.4863,100.5753,39.1882,-56.8335,239.2161,24.3828,54.7709,-49.5896
-3304.6875,61.1523,19.2490,92.1597,-90.7703,-54.9221,-4.7790,123.1732,-46.5006,-66.3875,76.5125,-50.4656,-2.1172,-9.6954,-58.3531,211.5285,77.6888,-225.3132,-18.5345,-199.1852,12.4961
-3296.8750,-84.0725,-19.8615,-131.7939,49.2239,-132.1546,-45.8732,45.9588,42.7588,-108.1130,35.9194,-17.6575,-6.1481,22.7484,84.3588,-14.4515,-0.1125,157.7491,47.1919,112.4959,8.2256
-3289.0625,130.5404,-52.1322,-51.9316,-57.1494,-15.5389,-2.1247,-169.4340,4.1178,8.0430,78.1846,98.9973,-110.3529,28.0513,-56.0634,138.4155,41.9377,19.6973,-20.2363,-24.9398,-59.2142
-3281.2500,-18.8310,-25.4148,45.9409,-93.4182,-101.9115,-52.3741,223.1583,28.0942,-114.7716,138.4791,-61.3568,-121.5911,-94.6465,-69.4990,161.3123,102.0068,-127.3942,42.3218,-68.3887,38.3287
-3273.4375,32.8757,-8.6097,-154.0926,64.8654,-44.1930,-30.5343,-233.1185,18.4058,15.5227,-24.1017,70.3711,-64.7515,72.7467,-10.8295,34.3149,-23.8022,275.5998,22.9771,124.2708,-51.0349
-3265.6250,110.3385,33.9314,72.6010,-89.2836,-1.7189,-24.9488,29.3035,-23.6829,-52.3944,128.0755,39.8653,-96.1851,-32.1007,-188.4059,187.0760,18.1561,-139.6387,-4.6331,-115.3019,-8.6751
-3257.8125,-42.5500,22.1121,-51.0403,51.4011,-89.5941,-75.7187,52.4085,44.9939,-103.6471,76.9371,-48.0023,-35.9922,-46.3166,-19.3446,-48.4818,-33.2036,165.7085,88.3947,118.7521,14.3266
-3250.0000,144.9382,-2.3205,-34.3122,4.0070,36.9203,-22.0973,-262.1024,7.8035,96.5229,93.2065,-31.4808,-93.4139,5.8694,-39.8637,3.3573,-18.1495,141.4884,-6.1773,24.2388,-80.2863
-3242.1875,-0.6545,-6.8614,102.3138,-100.5196,-46.6546,-32.5756,205.2567,24.8600,-24.3751,230.3929,-188.0648,-102.9597,-78.0411,-87.4924,103.1258,81.8236,-179.8566,24.1336,-121.3814,19.9800
-3234.3750,-69.9706,-6.1082,-150.7567,85.8035,-78.9407,-27.7639,-159.0426,27.7727,53.0369,49.9094,-0.3722,-25.2276,36.3383,64.1705,-2.7901,-60.8863,279.0717,24.7447,126.3011,-49.4571
-3226.5625,87.1100,11.0370,50.5397,-87.2201,12.1756,-10.5599,-30.9906,-16.5830,69.8842,140.8273,-20.2734,-82.1109,-56.8705,-65.7569,160.7003,28.8075,-126.5692,-63.2533,-103.5903,-32.5183
-3218.7500,-134.7578,-36.7705,-38.0999,-9.4432,-149.6550,-63.3094,174.1368,60.0809,17.7981,161.8241,-145.1370,13.0258,-73.0438,66.3448,-2.7212,50.5789,2.7832,29.7871,60.5477,25.4628
-3210.9375,18.4040,-57.5341,-129.7178,4.5133,-21.4476,-44.0200,-211.6866,14.2289,256.7823,69.8807,-53.9668,-4.8012,18.8304,10.5107,51.9030,-41.5873,122.2105,-27.1188,109.7629,-66.5170
-3203.1250,-55.2674,-26.1574,46.8056,-132.8317,-67.0790,-52.5837,221.6009,31.7505,137.9527,209.1010,-171.6427,-50.4986,-99.1433,-107.1778,153.7003,60.4095,-267.2274,-30.8929,-34.8703,35.6313
-3195.3125,-168.3083,-34.1392,-180.0141,33.9232,-111.0683,-96.5044,-43.4192,64.6870,167.7781,91.0005,-69.6917,-20.5621,3.5159,32.7792,-0.8369,-57.9153,180.9440,30.9807,238.1412,-8.5727
-3187.5000,28.2422,-12.5334,-47.2648,-115.5908,-13.4572,-72.8357,-56.8811,-2.2645,227.2320,188.5025,-9.1362,-71.0404,-47.2183,-91.6482,169.2224,-34.6303,-149.2473,-52.5518,13.7879,-22.1973
-3179.6875,-209.8997,-5.6349,-79.2034,-62.5567,-118.5376,-103.8691,241.9663,68.8027,85.0072,192.3348,-114.2946,-30.2479,-115.6640,-13.7903,62.6135,5.9769,-105.1962,25.2073,126.7154,55.4661
-3171.8750,-105.7217,-5.3979,-184.8113,19.6817,-4.2792,-63.5594,-194.8196,58.5601,236.1370,86.5348,-74.1214,-25.1233,-1.7643,27.4294,29.3550,-63.0524,140.2132,-10.6736,232.0137,-50.5289
-3164.0625,-95.6291,4.7319,42.4699,-119.7244,-35.1042,-57.3516,216.2464,37.9488,132.1991,203.6337,-177.0424,-19.1190,-141.9603,-112.4496,183.0091,53.8290,-271.4719,-36.6662,-3.7817,29.3533
-3156.2500,-219.3459,21.0562,-159.0315,51.8914,-90.7310,-111.9530,50.5544,85.8688,113.4593,110.9593,-158.7878,73.0702,-88.9703,52.8657,-20.1119,34.9334,130.9907,15.5388,223.6083,10.4333
-3148.4375,-21.2273,8.2241,-60.7126,-68.3445,9.4896,-49.7102,-181.3236,13.4945,249.5972,137.1334,-60.6848,25.0980,-63.1216,-68.9558,189.6102,96.8907,-92.6574,-103.4021,-0.1233,-37.6549
-3140.6250,-212.1928,-42.7137,29.5157,-102.6642,-84.3801,-105.5731,202.6939,43.3660,82.6592,227.2332,-153.6830,40.9998,-83.3793,-15.8949,131.2680,112.7743,-212.4544,-13.4604,-15.9742,52.1434
-3132.8125,-128.6842,-63.1581,-171.7714,-1.2807,8.2347,-87.9512,-218.7597,39.1725,175.2280,98.8492,-25.1914,23.3938,81.8553,76.6663,3.4331,21.1711,118.2430,-34.0109,139.6876,-39.5616
-3125.0000,-82.5148,-52.9592,58.5689,-155.4405,17.5077,-41.6862,83.3889,10.3926,73.4766,182.1120,-53.0362,-41.5804,-19.2401,-61.1179,196.2633,104.2157,-292.3964,-58.9186,-95.9882,6.3616
-3117.1875,-236.5502,-31.9715,-140.2688,17.2864,-144.4168,-93.6302,68.3769,49.2397,21.5297,56.2082,4.9000,53.2256,1.4559,106.8851,-41.0777,88.0792,79.7019,32.9696,101.1137,27.0808
-3109.3750,8.6422,3.2563,-101.8867,-26.2924,4.9012,-17.3393,-259.3977,-26.4029,97.8500,21.5622,192.0768,19.2719,40.4145,36.1542,71.8267,54.2054,9.0819,-72.8987,-39.5001,-43.9637
-3101.5625,-96.8532,1.7715,39.7934,-99.4551,-74.4716,-59.7508,212.1124,7.0416,-55.5036,90.2363,75.5533,-24.4015,-111.3204,-6.2866,103.0624,158.6532,-202.2718,-4.4835,-109.8269,60.2758
-3093.7500,-100.7238,-35.0685,-215.8795,69.9517,-74.2093,-59.5272,-118.6892,26.3689,55.7940,-19.4166,112.6593,13.5665,35.5848,104.9233,-44.0451,12.7754,252.0053,28.5837,133.5014,-12.8359
-3085.9375,-9.1940,20.4862,24.8181,-82.1073,20.4576,-1.9261,85.8630,-30.2677,40.5199,74.3341,-13.8317,-40.0769,-55.0921,-21.4577,160.2506,33.3107,-184.2849,-20.9545,-127.7507,7.4326
-3078.1250,-174.5123,31.1832,-76.3206,41.6354,-116.7280,-66.1856,242.5969,-14.7307,-24.5950,10.2582,-114.1881,79.4117,-46.6313,98.2978,58.7310,5.0213,37.5200,24.6494,-11.8768,52.8478
-3070.3125,-24.3529,75.3710,-135.9858,51.8413,-66.4254,-51.9455,-111.1697,-61.8494,174.7972,-48.3158,-27.0576,93.3967,41.3390,75.5729,146.7054,19.2359,117.8498,-71.2450,-36.4770,-43.2457
-3062.5000,-97.4268,72.3013,40.0937,-78.1620,-147.3556,-95.9536,321.7807,-51.9328,92.9637,53.8716,-219.1764,85.1153,-76.9364,30.5892,248.4489,158.2142,-237.0841,-75.4006,-180.3329,58.3932
-3054.6875,-152.0670,52.6747,-197.3705,95.5358,-128.8499,-114.5221,-26.7789,-8.2303,111.5764,-111.4650,-162.8602,103.2711,15.2262,234.0457,46.6568,103.6672,235.3962,-24.1021,81.2553,3.4835
-3046.8750,49.9364,79.6902,14.7863,-33.9635,-26.6893,-49.4511,-71.7336,-73.6571,66.8574,-8.1573,12.1139,59.0646,-66.9497,42.1578,148.5132,95.7709,-89.4323,-68.1464,-171.4801,-4.7940
-3039.0625,-125.1469,80.5986,-25.1389,28.5537,-138.6196,-87.4825,146.2246,-8.4552,-8.9470,63.0718,-64.0227,129.7387,-142.2411,76.1486,35.3030,56.7989,-18.4150,2.6988,-31.3406,65.8227
-3031.2500,-15.0536,14.6971,-88.8803,43.4308,17.6364,-79.3276,-321.6072,-0.2646,148.4515,-0.4893,-17.9619,64.6057,-23.3357,85.3491,8.2797,29.0436,162.8153,-27.2471,79.0223,-35.3655
-3023.4375,-37.5449,-77.8092,178.7643,-157.3774,27.3003,-32.7764,128.9186,37.6344,11.2777,156.3574,-154.4852,0.8607,-123.0276,-52.0497,91.6723,186.6874,-351.5580,-14.8010,-117.2158,47.8285
-3015.6250,-139.7959,-111.0655,-38.3318,-4.1317,-5.7934,-101.9826,-14.2587,77.2737,15.3465,50.4729,-78.7737,41.3581,-10.4782,98.7942,-125.6695,79.5956,72.2713,22.8994,165.7772,14.2742
-3007.8125,61.0958,-120.1730,64.6920,-117.4973,97.2583,-36.0508,-95.3207,24.6457,81.5794,79.7251,-48.9124,-2.9946,-17.7612,-55.2004,50.1260,109.6553,-181.7017,-21.2473,-19.0525,-30.1444
-3000.0000,-102.5446,-107.8286,110.1810,-106.4422,-5.2305,-64.6708,281.0695,62.8585,-93.7331,124.4390,-187.6063,4.0939,-83.5968,-10.7623,-52.6042,117.1842,-241.2627,95.0472,-8.4616,50.8796
-2992.1875,-26.0530,-66.3310,-25.1948,44.5081,80.4139,-16.1572,-185.3637,7.2578,28.0938,-83.6886,-29.1584,52.3329,74.7079,74.8326,-114.1906,-54.1248,117.3336,66.4990,105.2877,-47.9451
-2984.3750,-4.5478,-9.8281,178.4093,-106.5646,100.0635,3.3505,128.1510,-29.8527,-62.0610,47.1785,-46.6884,35.5677,-52.9752,-52.5706,53.2305,39.5688,-318.0491,17.9377,-153.9641,8.2151
-2976.5625,-123.4864,12.2266,-55.4228,54.8052,-59.7486,-46.6030,78.2511,50.3737,-74.6766,-39.3882,-96.6705,59.3515,-29.1202,118.5649,-107.7809,62.8328,90.0721,74.9279,113.3026,-5.0675
-2968.7500,100.0153,58.7395,-2.8383,5.3049,65.8806,5.8817,-200.2217,-31.3008,14.1613,-60.5130,65.7987,36.5881,-13.8008,23.1695,-18.3608,41.5467,-3.3145,-18.6275,-49.9618,-63.9047
-2960.9375,65.6363,95.3488,66.8504,-15.0965,-84.3843,-35.5383,237.3927,-33.5771,-171.8834,-27.5242,-11.6314,69.9192,-91.3832,19.8575,-95.8141,111.3748,-142.6378,52.9060,-154.1457,42.3528
