Time,Fp1,Fp2,F3,F4,C3,C4,P3,P4,O1,O2,F7,F8,T7,T8,P7,P8,Fz,Cz,Pz,ref
-4000.0000,-25.9471,93.5887,-76.7909,99.3497,-38.1499,101.2518,-60.7364,16.3634,-100.2909,-17.6311,-40.3768,97.4927,-24.9059,52.0670,-75.0277,-29.1650,11.7188,96.2767,-40.4544,-11.7348
-3992.1875,27.2275,112.1670,11.3895,81.9803,52.7130,82.8970,-110.3255,33.6137,-121.5553,73.0996,0.1404,70.0178,-44.8758,-3.0570,-22.0149,61.3495,-251.5678,114.8273,-233.6075,5.1901
-3984.3750,-169.8567,91.4941,170.3733,97.3569,-118.6755,60.2880,-83.4279,82.6051,-110.0851,84.5665,-36.0537,106.0476,-105.0928,46.5691,-121.2512,72.6069,-96.1081,59.1320,-10.0255,53.8780
-3976.5625,70.3729,17.1199,-236.3654,23.0295,-11.7640,-14.0245,8.9118,80.8772,-4.3018,155.2896,-65.3491,12.8119,-35.0015,8.4928,-51.1888,33.1430,-137.3105,19.7259,89.8942,-22.1385
-3968.7500,-149.3246,-26.2121,151.9555,-20.2585,-61.7740,-27.2973,-74.5327,177.1884,-92.4654,325.0623,-13.7188,6.7640,-47.8509,31.4493,6.9314,128.7242,-321.4834,47.3637,-95.1489,73.8958
-3960.9375,-158.5883,-33.1001,-150.2344,7.8981,-143.3426,3.8706,27.3215,132.9481,44.8182,133.2862,-127.5437,38.4965,-56.2508,97.8516,-1.5043,46.7526,-14.1840,-30.5644,141.2731,29.3908
-3953.1250,-20.8099,-34.0000,-189.4672,7.0401,37.0988,3.0243,-30.9882,130.6938,-31.8820,56.4875,-57.3610,13.4233,14.3636,60.2450,31.0575,117.7697,-190.8674,73.4971,-107.2833,26.8807
-3945.3125,-215.0767,18.0412,153.2991,59.1201,-58.5007,92.1195,-77.3278,144.3819,-166.6480,33.6343,-25.2994,98.7618,-44.0664,111.5858,-66.4304,93.7402,-68.6178,90.5088,-56.9094,77.3341
-3937.5000,29.9145,18.3301,-246.6889,24.4411,55.1510,60.4599,20.0490,75.3006,18.8398,37.0032,-64.9303,34.1213,-4.2370,42.1740,-99.6795,23.9368,0.9238,-14.2414,82.7501,-28.9602
-3929.6875,-128.5630,2.1134,132.8193,43.2533,68.3282,39.2922,-71.2402,88.7006,-41.1715,160.8526,0.2372,50.1237,-26.8932,57.2487,-87.4232,73.6223,-192.0473,4.5083,-146.0982,58.2493
-3921.8750,-197.1996,-30.2550,-11.7635,10.9105,-74.6462,6.9658,-0.2725,17.9394,106.6564,15.5321,-84.2229,53.2805,-24.6969,134.1711,-158.3232,76.1467,125.8521,-98.8994,100.9070,24.3245
-3914.0625,29.8596,-83.9838,-141.7301,-41.7959,89.0395,-47.7235,-5.2572,-38.1912,197.1550,69.8417,-31.3357,-45.1512,30.1600,42.7297,-68.5714,130.3062,-173.5747,-81.6731,-93.4126,5.0465
-3906.2500,-219.2729,-14.9240,254.1458,-43.7170,-28.4586,-53.6278,-39.8293,-7.5309,78.4458,61.9529,-14.5683,15.3683,-50.1742,72.0803,-41.0154,121.2686,-175.2161,-47.6529,-96.9522,107.5835
-3898.4375,122.9975,-58.4702,-157.5717,-52.2476,-35.5648,-96.1408,47.7420,-51.4814,180.1470,-91.5585,-13.6658,-60.0101,15.8953,-7.1666,-48.0718,3.6137,61.5822,-126.2518,103.9383,27.5272
-3890.6250,113.2010,-101.1261,158.5910,-94.8950,24.2485,-143.7702,-78.8869,8.4503,-18.2404,113.8233,100.8988,-96.5338,38.8811,-20.5299,-26.2205,136.8537,-193.7241,-98.9624,-152.2699,87.3746
-3882.8125,37.4895,-140.6954,152.9117,-134.4555,-90.8384,-184.3128,2.0227,3.4793,49.4602,108.3062,53.5663,-119.9195,-2.0291,-24.7984,-32.2655,57.2003,83.0687,-208.5845,87.6196,82.3415
-3875.0000,326.4142,-132.6793,-94.2028,-196.4341,65.6783,-209.2728,41.5031,-59.9061,130.7799,81.3706,68.4472,-188.1618,7.6727,-87.4720,49.2818,30.1345,-15.5106,-235.6231,24.1469,18.9090
-3867.1875,60.8091,-79.2218,321.1618,-143.9749,-31.3376,-195.7946,-40.5826,-46.8537,-4.4599,92.8805,93.1804,-109.4414,-52.1652,-36.7066,25.2814,78.5204,1.3419,-218.2148,-64.8946,104.9413
-3859.3750,198.7013,-117.2666,-82.9486,-181.0251,-31.8641,-230.8214,77.4461,-120.3143,140.7977,-53.1341,26.0550,-154.0677,20.4986,-36.4412,23.7787,41.3957,210.7274,-290.3178,177.5887,31.4881
-3851.5625,163.8282,-186.1283,134.1163,-214.8923,112.8345,-267.6643,23.0986,-48.5911,64.2731,53.0392,112.5468,-201.3443,55.3764,-73.9904,93.4903,112.4615,-69.6875,-219.2282,-68.7251,66.2392
-3843.7500,2.8853,-170.0483,222.1891,-198.8250,-18.5142,-215.5726,64.5139,-33.9214,41.6942,-4.8294,79.0780,-150.3496,33.2076,-22.5958,71.1557,16.4808,155.8298,-238.1949,121.9007,80.9615
-3835.9375,233.5621,-184.3819,-122.1619,-178.1713,114.7392,-189.8934,131.7085,-84.6712,173.7340,-166.1169,68.3056,-185.2709,94.6492,-71.6076,130.4130,-70.9163,139.9796,-218.5802,105.1631,-5.7106
-3828.1250,-13.1395,-149.1270,351.1039,-142.9329,73.6119,-155.6288,35.1576,-14.8347,-14.6290,-59.8059,119.1907,-121.2867,16.7031,-38.0281,125.2757,34.2881,-0.2917,-147.3672,-34.9952,64.2330
-3820.3125,108.8017,-167.2257,-33.9470,-161.0517,-15.8764,-170.7207,148.4387,5.6465,77.6522,-3.8612,20.9441,-150.8291,1.4045,-52.7946,71.7750,55.1411,228.1109,-235.5164,331.5172,-25.1526
-3812.5000,171.6791,-244.4402,-6.1308,-202.2861,122.5549,-177.9269,127.7751,71.0069,67.8586,133.9635,63.4625,-222.0157,-6.9776,-134.6727,136.1803,82.8851,-61.5787,-137.7749,146.9460,-33.6326
-3804.6875,-75.3000,-208.5110,248.8930,-166.3806,10.1415,-141.9928,135.0417,68.5093,64.2027,57.9311,52.7670,-157.2766,-46.2075,-99.4074,58.7428,5.7755,114.8725,-136.8835,252.5020,1.0642
-3796.8750,170.4944,-208.8343,-152.3399,-202.7348,124.4728,-174.3171,224.2214,-1.2528,214.3051,24.6156,14.8846,-221.5928,-4.6804,-168.3973,62.0407,-27.5979,150.1133,-172.2600,356.8415,-105.4761
-3789.0625,-22.0817,-223.5726,268.0302,-217.5040,140.4241,-193.0553,150.8989,51.5772,82.0105,149.9004,104.4018,-222.1232,11.4522,-187.7977,76.9416,24.6370,-42.0635,-82.0487,198.7758,-52.4006
-3781.2500,-0.7758,-202.4175,35.3469,-196.3871,56.2652,-165.9070,234.9419,-32.6924,217.6116,-7.9093,34.2658,-202.5727,37.4829,-161.2962,28.7386,-60.2342,226.6681,-129.9524,431.6281,-136.4003
-3773.4375,168.1612,-243.6792,-7.7729,-201.6905,234.7209,-170.1778,182.8709,-75.3783,209.8420,95.8617,115.8853,-272.5504,142.1290,-240.2059,132.1378,-30.5169,44.0169,-101.2698,142.1034,-178.7921
-3765.6250,-54.5569,-184.6027,381.5065,-178.6558,108.5380,-148.1095,115.0445,-91.7222,82.4136,115.9836,146.1682,-200.1828,90.1335,-181.7722,77.8897,-83.4366,172.6927,-112.2386,129.9082,-120.8094
-3757.8125,249.2312,-126.0342,-32.7103,-155.1325,247.8519,-155.5512,214.5839,-210.5727,220.4966,-150.4194,116.8765,-214.1845,118.6394,-225.8402,142.1337,-239.8615,336.9049,-124.7307,187.2449,-239.3123
-3750.0000,158.6078,-74.9357,347.6181,-104.0790,297.7345,-104.4616,166.4357,-270.8843,159.1363,-248.2787,218.9150,-176.7617,131.7072,-249.3722,264.9345,-263.7342,105.6580,-2.6820,-44.8709,-189.2513
-3742.1875,79.1180,-82.6949,229.1542,-112.8868,178.7594,-111.2323,250.0267,-243.0524,259.9141,-293.9972,158.2879,-168.8294,160.9256,-219.7556,218.8810,-309.4536,308.5673,-81.4914,227.1690,-234.0138
-3734.3750,278.5594,-200.5700,33.5598,-194.8135,314.6961,-158.1204,275.5504,-254.3376,320.6075,-158.8357,185.3238,-294.2856,223.0569,-304.2436,316.7278,-211.2879,85.4007,-93.4204,144.1365,-281.8681
-3726.5625,22.6078,-173.8587,422.6095,-203.1612,189.2418,-171.4248,190.5504,-159.0269,157.8984,-175.0693,213.2368,-238.6689,171.7904,-245.1425,301.1878,-190.5087,110.8080,-31.7595,63.6855,-186.0969
-3718.7500,249.7042,-121.1050,-35.2745,-151.4734,173.8262,-112.6965,249.9605,-248.6745,251.2555,-338.2678,139.6083,-209.4214,193.5750,-222.9912,210.6989,-317.6814,339.2933,-85.0709,255.3053,-275.2546
-3710.9375,242.7995,-57.4132,247.7685,-122.8508,236.3795,-86.0355,146.0444,-223.3922,128.5824,-240.5234,215.9843,-176.2417,145.3217,-233.9054,235.1643,-255.9023,50.7183,-21.4444,1.8689,-212.4490
-3703.1250,91.1748,-68.4281,308.1743,-97.9383,39.2291,-98.0875,181.0824,-199.8175,224.2027,-253.4773,154.5030,-126.2079,96.3694,-135.5225,183.9312,-268.8161,251.4337,-102.5245,201.7236,-188.3132
-3695.3125,288.1167,-151.9104,-36.8987,-181.4964,173.6299,-146.6048,244.1247,-212.7141,394.4030,-156.8970,128.1068,-243.7992,156.9771,-221.5909,244.2547,-172.1903,61.7231,-151.0756,187.1607,-237.6151
-3687.5000,-31.1301,-153.6077,395.8596,-148.2691,91.8451,-153.3394,144.4404,-110.8223,237.4002,17.4852,154.9487,-209.9622,112.3925,-229.8661,234.3911,-70.7573,-46.2136,-117.8303,42.3766,-135.0944
-3679.6875,87.8155,-140.1125,-30.1508,-204.8522,108.2517,-172.8831,219.7794,-131.7376,289.5829,-76.9492,67.0486,-219.3269,165.0080,-175.9358,212.7248,-129.1200,143.0751,-209.4034,231.8155,-192.3508
-3671.8750,145.4465,-187.9867,100.4575,-217.8079,201.3257,-188.7978,121.0912,-75.0101,124.4235,15.2652,160.8441,-250.1002,222.2883,-192.3696,268.7095,-35.8282,-150.9841,-116.3417,-28.0769,-134.9458
-3664.0625,-103.3886,-119.3300,277.6768,-149.2357,48.9514,-120.1763,144.1633,-7.7280,116.8100,-101.9597,124.4814,-145.7111,180.1213,-124.2598,188.2485,-116.9741,23.4898,-118.7375,145.5733,-66.9603
-3656.2500,161.9359,-99.5382,-142.9684,-94.5274,143.7260,-97.4205,221.6143,-60.3046,284.3713,-227.0530,68.5635,-158.4557,165.1082,-176.0009,244.9359,-205.9789,7.1382,-99.0009,163.4076,-118.8118
-3648.4375,-69.2673,-84.3094,271.8498,-79.3885,79.9702,-87.2329,113.2397,22.5618,109.3856,-107.6969,107.1757,-123.2627,101.5542,-164.2986,291.0847,-86.5289,-116.7899,-83.8191,-33.3280,1.8055
-3640.6250,-15.8865,-65.4903,-39.6882,-96.6620,-47.1902,-65.4563,181.8104,-67.9751,238.9980,-125.7536,-10.7545,-120.8275,48.6005,-144.9918,199.8326,-140.4745,181.8953,-171.0569,230.5489,-50.9515
-3632.8125,94.1749,-60.0356,-35.6066,-91.3064,68.3133,-97.0487,144.4699,-63.8771,315.2893,-12.1732,12.5555,-143.7268,16.3078,-176.0383,277.2447,-100.7735,-94.7651,-130.6620,-10.9094,-46.0483
-3625.0000,-156.4677,-30.2926,212.8312,-95.6652,-86.8791,-104.3544,142.1604,-36.4881,415.8805,88.7083,-43.3921,-107.5082,-101.6796,-146.7937,229.9731,-36.7658,5.8588,-204.9777,53.9050,19.1862
-3617.1875,101.4079,-87.0605,-248.2316,-118.5373,2.4218,-161.1759,229.6480,-93.6144,615.9805,67.0614,-95.7635,-174.0884,-49.1612,-168.0526,246.1960,-57.2613,54.0154,-226.8144,136.2518,-74.0579
-3609.3750,-21.2415,-69.4048,133.1582,-99.9808,-20.8078,-144.5636,90.0666,-43.2946,370.5384,117.8710,-29.8107,-127.1953,-107.1799,-115.8770,295.8819,66.7052,-68.4018,-138.2076,-127.9606,14.1689
-3601.5625,-52.0717,6.0824,-82.5530,-60.5950,-124.1988,-66.1209,120.7822,-75.1239,374.9547,11.5454,-116.5515,-52.2989,-102.3511,-36.8471,189.4235,-2.4654,218.0294,-204.7642,86.6865,-16.7253
-3593.7500,140.9781,-11.5928,-174.4512,-42.3813,40.2669,-83.8486,83.2778,-94.1141,355.2521,66.0695,-53.3061,-88.5710,-47.6681,-91.9710,169.8205,15.2154,-10.6781,-152.4964,-72.7899,-34.7605
-3585.9375,-91.2766,1.4224,238.3925,-29.4794,-59.5625,-36.8905,-22.4462,-11.4012,106.2440,74.3076,10.9209,-27.0548,-73.2870,-45.3963,30.9286,60.6115,37.2906,-68.5368,-94.5855,48.9311
-3578.1250,166.1101,-21.9250,-150.1096,-17.9420,28.2439,-20.2916,64.4821,-70.0415,119.9006,-58.8120,-5.4241,-67.7156,-22.2573,-103.1678,8.6873,1.6589,154.9341,-92.9457,91.2980,-45.7076
-3570.3125,67.5674,-15.2424,182.4225,-11.3729,68.1169,20.3407,-43.3579,6.3578,-24.3778,91.1190,69.4052,-45.1303,-55.1597,-98.8966,10.5046,40.7658,-83.4003,-15.3082,-147.7728,31.7199
-3562.5000,-46.0502,83.3809,100.9654,87.1314,-86.0639,49.9134,-13.5946,-2.2882,2.2805,8.0003,-21.9847,70.6837,-99.1108,3.3281,-107.7283,-42.1641,154.2051,-92.7241,90.0975,24.1280
-3554.6875,200.2015,82.8418,-155.6733,86.4752,60.6059,51.3238,-80.3415,-39.0936,-71.1926,7.7100,7.0085,49.8169,-26.2060,4.4079,-145.1025,-5.2450,13.6759,-22.3080,-87.1538,-11.6017
-3546.8750,-63.6971,136.1400,296.5709,139.6548,-36.8633,137.5714,-203.7442,9.9488,-316.8174,-90.7215,68.1549,153.3834,-49.4505,90.3383,-207.6189,79.5458,-39.0331,64.9511,-210.5795,111.5453
-3539.0625,115.4368,139.4774,-101.1113,177.8722,-31.2967,143.8582,-97.4125,-21.9622,-238.3841,-343.1030,0.9012,162.1022,-43.6464,97.3217,-202.0910,-25.6083,175.3238,69.2443,3.0667,44.7672
-3531.2500,46.3013,176.4935,115.8796,214.7668,39.9869,179.8238,-212.3614,12.8206,-352.2225,-235.7794,54.9292,193.2105,-45.1355,94.9974,-205.8486,81.9475,-103.6368,141.2218,-276.5839,116.7030
-3523.4375,-73.1512,197.2006,170.6257,235.3476,-125.0351,198.4765,-210.8722,67.3100,-409.3589,-218.7414,24.1015,242.0717,-63.9331,150.3781,-298.8946,99.2184,92.0820,90.8889,-80.5489,172.3687
-3515.6250,123.2077,148.6944,-208.8551,186.7139,-27.2634,186.9126,-179.4724,53.5987,-311.6700,-84.9120,-27.3874,168.0096,-38.9280,101.5601,-276.1368,160.2931,-26.3803,77.3413,-94.6883,123.8484
-3507.8125,-154.5271,151.0740,228.5859,188.9649,-66.5804,147.2386,-269.5078,160.7856,-463.0808,95.8312,1.2187,205.4343,-115.0181,135.6383,-242.4729,267.2898,-198.9807,150.6892,-268.9520,232.2522
-3500.0000,-99.8920,170.8412,-153.5422,173.6025,-118.5118,132.9524,-175.9850,145.3728,-295.0893,5.9828,-106.9787,220.1322,-92.7058,195.1262,-295.4128,177.6992,-4.1739,99.4234,-38.8014,181.0816
-3492.1875,-26.8837,172.9443,-79.3531,175.5752,-8.0821,133.9991,-262.5818,145.3057,-369.7316,79.4843,-25.4807,214.8498,-19.0350,195.9614,-295.9922,177.4664,-247.0267,172.4922,-283.2886,219.2732
-3484.3750,-193.8499,182.0879,73.9420,184.5877,-184.6031,142.0866,-303.2260,188.3003,-437.3347,122.0401,-62.3165,280.5929,-85.3175,313.8478,-400.5150,257.2995,-97.8537,146.6116,-168.7426,263.5464
-3476.5625,-12.0107,118.0234,-356.9790,85.3915,-100.3390,115.9710,-209.2625,125.0933,-244.1239,130.3791,-137.0222,186.2246,-37.8059,287.5416,-280.2410,303.9392,-161.8597,117.5217,-127.3718,164.6370
-3468.7500,-265.1605,112.9531,72.1013,115.1891,-113.0607,141.8468,-285.8947,149.8834,-403.9083,118.7271,-62.8216,242.5590,-12.2943,349.2375,-219.9523,328.5956,-378.9022,252.4326,-311.0264,263.7471
-3460.9375,-211.5436,129.6786,-164.9740,131.7820,-128.9987,125.5233,-171.4224,96.4798,-310.8991,-82.1105,-97.0562,233.0465,45.0098,296.7481,-310.8636,201.0702,-79.1549,200.1381,-11.8870,211.6848
-3453.1250,-3.7557,56.5415,-166.9370,58.5122,16.2196,87.3386,-186.8549,93.2286,-276.7195,61.2049,8.6234,80.0373,115.4674,74.4120,-240.6213,235.7089,-329.2655,231.9801,-191.5865,173.7838
-3445.3125,-215.1360,57.2441,159.9983,59.0820,-133.7126,85.9942,-201.3612,126.8355,-317.6991,130.3906,27.2199,111.2624,77.7679,108.9267,-243.5203,232.2252,-258.5660,231.6758,-122.4604,208.7646
-3437.5000,12.1177,2.5898,-294.4301,4.2911,-37.0150,35.2904,-67.7188,39.0971,-185.0226,-30.7721,-31.4022,72.6099,136.7147,169.1081,-184.7721,70.4001,-136.1977,178.0063,69.3390,85.4152
-3429.6875,-142.8166,-11.2764,53.9293,-9.7116,17.4956,17.3760,-159.0993,56.1625,-315.5415,-50.1187,33.0526,146.5526,154.4680,372.0895,-95.2127,124.3940,-398.0646,268.1316,-192.0773,140.8837
-3421.8750,-215.5902,-83.9491,-56.4605,-46.5207,-93.8112,16.6561,-60.0677,18.4445,-169.8747,-125.2437,-38.7933,151.6121,154.4087,482.2798,-133.4566,86.6160,-82.7399,161.4569,86.6991,104.5822
-3414.0625,-14.7987,-164.0827,-249.3429,-91.7866,43.4337,-28.5190,-20.2099,-27.7216,-69.6370,-25.8157,-10.4263,38.2968,218.8984,363.0257,-33.1458,114.3974,-232.8670,151.3245,6.0398,59.8411
-3406.2500,-236.3190,-174.5237,176.5079,-103.3558,-43.6211,-78.0002,-51.7171,30.8212,-122.7069,32.3377,41.4547,30.4987,168.0854,312.4799,-48.1200,172.9065,-244.3380,140.8952,-3.9547,119.8241
-3398.4375,-38.5667,-222.6718,-309.3350,-186.6313,-16.3988,-87.1828,85.5241,-51.3263,88.5314,-87.2055,-36.5717,-54.9644,233.5621,267.2509,-21.7941,89.7287,-81.4974,22.7582,228.3712,2.1273
-3390.6250,-64.5495,-179.5788,-10.9590,-178.6649,63.0794,-116.1223,0.7465,-9.2195,-17.9661,-8.4815,31.0903,-44.6908,165.2879,237.2715,56.7878,95.8239,-248.4346,65.8693,-46.0607,45.6943
-3382.8125,-127.9189,-101.8359,35.1175,-101.0478,-74.8095,-71.4101,45.7712,-74.4457,-9.8260,-183.0850,-11.5880,33.0791,101.6475,282.9543,65.0185,-6.4031,75.2584,-32.3739,137.1392,18.9408
-3375.0000,161.6153,-93.2000,-245.9442,-92.5367,84.1927,-94.8028,69.1688,-172.7651,112.2371,-172.7841,5.0159,-30.2477,150.8990,185.5502,150.1527,-67.7206,-22.1463,-23.7248,4.2579,-77.9024
-3367.1875,-81.4175,-90.1193,231.4611,-89.5834,10.6528,-57.7526,-1.9880,-135.6183,0.7514,10.9885,60.1605,-29.5861,77.5974,112.6031,148.7535,-31.5613,-54.1529,-19.6202,-98.2051,-3.2727
-3359.3750,109.7627,-109.7901,-154.8674,-109.3804,-6.6610,-74.4519,129.3582,-191.2090,202.5168,-43.9826,-11.7936,-106.2124,59.5342,-15.0792,130.6012,-86.1333,207.0969,-75.2713,162.5979,-93.3711
-3351.5625,127.0557,-128.3714,45.8643,-163.0866,83.1348,-131.0595,77.9625,-137.6920,182.3971,82.1671,69.6058,-173.0322,76.5694,-107.6559,219.5483,-69.5836,-21.5784,-92.8261,-66.5000,-75.3613
-3343.7500,52.9120,-96.3564,188.2473,-131.1951,-69.4811,-136.0688,85.2736,-143.5568,175.8637,-34.0475,68.7934,-130.9220,35.1934,-75.6204,177.1049,-149.4060,256.3085,-200.7814,69.9742,-42.7259
-3335.9375,401.8606,-63.2446,-180.3033,-169.2093,40.9879,-171.9829,120.2540,-253.3179,211.4522,-71.1524,73.6201,-204.9126,71.9065,-185.4719,175.7642,-186.1148,359.3021,-239.6480,102.5645,-114.9804
-3328.1250,321.8085,-2.1402,320.1500,-108.2290,26.4603,-112.9021,-39.4174,-231.0679,-24.9536,-13.2362,206.2686,-143.6071,20.6117,-198.3145,50.4370,-199.7912,350.2497,-143.5114,-118.8776,-18.2184
-3320.3125,527.6626,132.9132,57.5744,-43.2982,-15.1431,-79.8702,20.2674,-309.8504,42.5905,-349.3543,169.7438,-66.2622,-20.7472,-167.1886,-102.9400,-425.4946,731.1437,-218.4265,121.6328,-58.4846
-3312.5000,670.7733,206.2115,132.2037,-5.1210,132.5003,-41.5910,-59.5315,-345.3769,-67.5923,-385.2063,252.3633,-57.3099,-19.8627,-237.8016,-103.0590,-424.9328,523.2725,-146.0976,-122.6051,-19.4953
-3304.6875,514.3499,296.0044,405.3751,84.5567,0.6358,11.1888,-119.8948,-330.3862,-199.2799,-407.5271,257.7583,50.2701,-113.4901,-184.9044,-233.6712,-482.8448,752.8593,-161.2599,-67.3751,71.0173
-3296.8750,835.0584,334.9447,-31.3239,88.3837,116.9006,-19.8814,-64.2288,-436.2327,-120.7960,-512.6942,232.9582,25.6552,-71.9806,-215.8398,-266.1349,-588.5890,862.6008,-227.2828,5.0193,40.6901
-3289.0625,753.0658,323.1776,464.2621,76.5017,96.4660,-1.6605,-207.5738,-419.7639,-288.9957,-423.5356,367.1135,23.3268,-91.1781,-235.4708,-251.2782,-535.0013,709.5972,-204.0065,-287.3103,205.6748
-3281.2500,757.8713,294.2543,246.7302,83.4694,26.8557,2.4061,-118.4804,-452.4206,-249.3437,-493.4884,303.4701,9.9064,-87.5401,-267.2351,-284.5619,-605.5308,891.4252,-232.8872,-35.7949,247.5291
-3273.4375,845.5283,205.1706,187.9945,-5.7212,152.0924,-18.6853,-105.5624,-438.2144,-198.8166,-405.5636,357.1240,-95.6286,0.9410,-363.1401,-160.9857,-554.1888,556.0948,-110.9295,-195.4166,300.2330
-3265.6250,452.9569,165.8833,543.0923,23.8869,29.1249,-30.9779,-89.5448,-377.1844,-248.5044,-418.8042,325.9507,-31.0299,-47.7864,-263.2373,-99.5971,-455.0150,515.5146,-116.1615,-131.2707,436.7538
-3257.8125,576.7621,78.9948,50.5838,-28.1074,123.5399,-82.8691,69.6907,-392.7394,-44.7931,-434.6381,223.5365,-91.4545,9.8802,-241.9161,-42.8166,-434.4259,498.3420,-202.9992,98.2930,385.6817
-3250.0000,318.8708,-2.6012,328.3536,-74.8068,144.2658,-98.4652,-1.1439,-224.9818,-135.7779,-157.1409,248.0912,-125.8124,29.8456,-257.2908,13.2683,-193.5128,100.4333,-143.5346,-89.8581,480.9130
-3242.1875,58.4860,-51.6455,202.7151,-123.9555,18.5227,-112.5072,92.3886,-129.6524,-40.2192,-98.0725,112.4281,-122.0529,15.3491,-198.0988,-2.0833,-134.0206,262.0511,-192.5229,177.5199,467.7100
-3234.3750,186.5061,-135.2944,-65.5778,-171.7028,154.1694,-160.1510,123.8504,-140.9151,57.7732,-73.6047,100.5129,-197.1956,115.2459,-208.4924,132.9765,-35.1133,3.0645,-170.1173,58.3109,420.9037
-3226.5625,-158.4497,-162.8955,342.2003,-129.3996,10.8660,-119.7446,63.0625,-64.1098,-13.1870,-70.0503,109.1076,-133.1009,81.1840,-130.8232,136.1036,41.8729,-60.9223,-127.6539,-4.8882,499.1572
-3218.7500,-73.4944,-183.5422,-115.0674,-114.1392,-5.5084,-98.3848,171.1907,-80.3413,153.8106,-123.5216,-23.9682,-136.5645,66.0583,-109.1884,119.1817,26.8251,60.0410,-147.2449,220.8728,374.3646
-3210.9375,-125.9332,-199.5986,87.2268,-130.2859,49.7282,-79.4284,104.6018,49.0411,97.4247,42.6364,10.7355,-147.7271,10.5309,-125.9489,210.8693,192.4018,-309.4320,-58.2364,-7.7777,394.1681
-3203.1250,-386.1207,-213.3562,108.8648,-109.1308,-111.7507,-56.1709,174.7037,144.7502,156.3329,-8.8754,-87.4780,-98.8430,-40.7130,-66.3925,195.8595,178.3075,-147.6367,-71.9191,224.8500,381.2831
-3195.3125,-212.6155,-250.4135,-293.8411,-112.2727,-0.5436,-53.2101,216.5528,145.1722,229.9602,-7.6782,-118.7043,-131.6246,71.7357,-63.1214,232.5460,141.9283,-291.1350,-3.9071,220.1978,274.0911
-3187.5000,-518.5714,-203.9202,120.0127,-65.8610,-27.7850,-6.7002,139.2335,191.1650,55.1330,112.1049,-101.3055,-51.4448,7.7231,-16.2934,203.7904,225.1296,-456.1287,77.6614,126.0602,321.4526
-3179.6875,-422.1201,-177.9748,-215.6686,-38.9942,-32.6048,26.2644,228.0071,187.6299,122.7566,-2.6398,-176.7142,-34.7406,3.1384,-19.9997,88.4902,147.8087,-218.6718,68.6727,398.3830,208.2681
-3171.8750,-380.1111,-205.4890,-96.8477,-31.5803,85.1238,34.7756,143.8244,269.6632,20.9542,189.1914,-105.7567,-64.7721,12.0968,-84.1521,96.7608,230.0575,-528.6909,217.2298,159.2543,181.6250
-3164.0625,-572.9529,-186.8046,104.2101,-12.9684,-42.9650,89.4873,100.3168,361.9225,-71.6475,243.2564,-120.0973,-5.9863,-43.7598,-28.0934,-31.7477,248.5414,-334.5578,200.9982,247.3025,201.1917
-3156.2500,-320.4182,-214.7231,-325.3657,-41.9564,40.3280,27.5987,153.5006,335.5992,122.1817,254.7387,-166.6889,-67.0000,2.7714,-53.6246,-58.8515,260.4437,-363.0221,172.1618,288.7706,103.1508
-3148.4375,-575.4304,-187.1980,66.4975,-13.4939,-43.9240,90.1597,32.6073,397.7436,72.4691,426.7120,-158.7118,-4.2868,-81.2558,9.2964,-33.4927,395.8221,-583.0856,269.7818,33.6570,166.5555
-3140.6250,-585.1337,-127.3176,-233.2576,46.3271,-161.8404,121.0785,106.7351,354.2557,212.0951,420.0531,-291.8458,44.2202,-124.9452,39.5849,-42.7868,279.5610,-311.8036,225.7550,234.8876,87.3126
-3132.8125,-398.0368,-45.6344,-257.2607,92.9504,-2.9496,170.7953,15.8582,293.5758,113.5389,433.2022,-230.0651,53.2908,-111.8335,-20.3228,6.7297,256.1117,-511.7282,307.5250,-71.0788,64.8539
-3125.0000,-563.6799,71.3446,81.0763,208.8726,-140.7638,216.8133,-66.6579,303.2186,-61.7195,294.6935,-213.2548,188.8139,-213.4327,63.0763,-94.4320,264.9965,-360.3964,318.6031,-59.7795,111.6970
-3117.1875,-330.7955,92.8687,-442.0620,196.3431,-150.0483,209.3786,-9.8643,294.4302,112.6011,359.7540,-327.8349,158.0501,-222.4929,55.0356,-105.0372,293.4461,-303.5102,200.2203,66.0947,-5.9202
-3109.3750,-538.6656,97.6331,-109.9738,165.0609,-186.0772,173.1901,-134.5016,405.9094,39.1921,654.0898,-304.2086,172.5382,-258.3036,94.2499,-68.3753,405.1701,-616.4152,275.0901,-210.8019,69.6999
-3101.5625,-609.2879,132.6962,-292.5462,201.0807,-331.8270,212.3060,-105.2713,407.7107,40.0810,545.7521,-394.5284,231.7603,-257.8299,169.7772,-140.3994,370.2156,-371.0345,240.2637,-0.4032,35.6188
-3093.7500,-410.6576,122.0073,-487.9185,224.3518,-159.3283,238.6725,-142.3589,433.7762,-81.7551,498.6743,-354.7820,223.3586,-194.1101,160.5593,-115.1632,396.5239,-594.4073,369.6788,-153.7414,-10.2338
-3085.9375,-677.6570,207.7172,-106.8673,275.0250,-292.4266,326.4359,-215.5043,521.2678,-252.1886,475.0383,-354.0774,335.8178,-291.0015,248.7464,-138.5086,447.2646,-579.4307,385.4937,-173.7099,41.3069
-3078.1250,-461.4891,177.6267,-574.6261,280.9011,-320.3480,300.4009,-100.9578,457.9786,-23.4071,337.6219,-444.5937,292.1522,-281.7070,222.1465,-92.6461,384.2188,-398.2487,320.4977,6.5401,-57.9668
-3070.3125,-511.8666,197.9787,-299.9719,265.2230,-265.8108,281.8103,-216.4084,513.1514,-153.1557,429.6825,-361.6479,288.0098,-263.9645,204.9983,-38.3135,476.6405,-660.6472,375.9523,-289.7778,-1.8090
-3062.5000,-604.0407,247.5843,-321.0238,280.8018,-397.0385,298.4711,-202.4581,492.5972,-174.6619,446.0279,-427.5939,341.1847,-321.9820,258.1129,-133.7262,382.3409,-400.8223,320.6574,-100.8670,-21.4055
-3054.6875,-327.0161,209.3839,-579.9228,276.5778,-252.0712,261.3316,-214.6859,528.2559,-138.9468,518.5942,-402.0914,288.4815,-285.7997,221.4337,-134.9288,382.2516,-545.7968,351.5604,-210.7394,-94.8247
-3046.8750,-516.5097,301.6780,-157.3105,333.8515,-343.5965,316.6879,-352.9327,547.4320,-304.7249,500.6975,-349.7526,395.5635,-341.1285,314.2611,-190.6086,437.6925,-560.3212,408.9733,-400.1455,-1.7552
-3039.0625,-275.3942,297.6200,-526.0449,364.7764,-345.4957,352.7014,-286.9919,436.2786,-196.8349,315.4640,-382.8477,402.3825,-305.8225,350.7520,-301.6315,326.7973,-283.1863,335.0309,-193.8914,-75.0482
-3031.2500,-274.1245,299.7141,-268.6717,366.8568,-235.2404,316.8652,-393.8004,436.2811,-343.7715,463.3940,-295.6911,400.3834,-306.3692,352.3954,-265.4846,401.0583,-527.9210,372.2333,-473.4946,-37.2153
-3023.4375,-454.4004,331.3119,-164.7584,363.4439,-388.4947,348.5302,-381.1122,430.8093,-386.2105,457.8616,-345.1557,451.5456,-348.4328,420.5458,-308.8244,395.8419,-286.1878,298.9359,-301.6183,-4.8906
-3015.6250,-189.0328,246.5547,-544.2333,313.6792,-290.1093,263.8416,-307.2680,383.0010,-215.9678,483.0003,-370.9475,378.2237,-286.8562,447.3559,-211.5055,385.2928,-371.7972,249.2720,-281.0690,-88.9412
-3007.8125,-470.9114,281.5330,-144.9560,313.6569,-331.9668,259.8932,-385.0978,452.9652,-329.9646,589.9272,-354.1103,463.9597,-328.5378,590.9190,-179.4144,381.5240,-513.7026,248.3657,-423.8040,-18.2585
-3000.0000,-447.9804,269.3654,-483.8067,301.4918,-377.9940,251.7999,-279.0418,407.7979,-193.1084,434.7188,-457.5401,486.7713,-300.3810,693.3426,-225.4704,299.6155,-245.7552,166.3096,-154.6821,-99.7395
-2992.1875,-301.9922,276.2468,-367.6560,273.3789,-225.9600,221.7614,-346.8381,377.6865,-261.1802,551.5739,-349.9975,411.6778,-258.1748,553.8139,-145.4700,343.7624,-485.7667,209.3023,-429.5079,-92.2009
-2984.3750,-395.1437,289.0284,-100.5642,286.1693,-362.0337,269.6238,-364.0189,351.4963,-286.3529,525.3544,-317.9145,427.4759,-321.0761,529.1904,-209.5474,318.8337,-262.9115,151.1949,-347.4598,-43.7736
-2976.5625,-110.3571,258.7580,-494.5522,220.9071,-243.1740,206.4316,-256.8410,288.2679,-131.5505,462.0999,-338.3751,343.1572,-276.0403,465.5242,-162.6614,218.8620,-188.0892,121.0275,-238.4374,-143.4217
-2968.7500,-283.7685,227.2839,-54.7567,224.4439,-243.4977,169.0325,-319.6169,324.8531,-205.9284,535.6819,-241.8783,320.1702,-275.2111,392.6472,-126.9483,292.7023,-361.5067,194.6633,-410.6368,-69.2938
-2960.9375,-263.9275,178.1116,-252.6329,210.2857,-293.5412,193.9361,-187.1004,275.7568,-71.9963,339.5941,-291.9397,281.0706,-253.0944,344.0761,-103.9215,206.8600,-25.6355,110.5965,-144.5370,-117.8810
-2953.1250,-46.3836,114.6318,-280.8634,147.8227,-137.8823,129.5368,-170.9621,212.3700,-26.3317,275.2273,-213.1021,189.5222,-207.2755,280.2051,51.8181,216.7254,-194.0658,118.2213,-313.7244,-144.8008
-2945.3125,-310.6211,167.4005,103.1850,164.6147,-233.9688,145.3862,-191.4760,154.2517,-121.4214,218.1405,-188.7423,255.1187,-229.2180,333.5857,67.8261,158.8691,-72.2818,101.1011,-295.6949,-91.4865
-2937.5000,-18.9741,144.0756,-358.8787,141.3121,-143.1685,90.1432,-65.6133,62.0411,79.4053,125.9613,-230.1242,172.2655,-175.2744,241.8722,121.7384,66.9145,43.4236,41.8752,-145.7529,-220.2992
-2929.6875,-6.7105,86.3513,-16.3682,83.6129,-95.7599,64.4975,-138.4819,110.4433,-20.1496,247.4141,-97.7019,83.8438,-163.7308,106.7349,169.2686,189.5746,-155.3033,90.2527,-344.2300,-171.5415
-2921.8750,-53.6420,76.4783,-99.9711,73.7677,-142.5195,55.7072,-26.3766,64.7238,80.1527,91.7488,-130.7247,94.6664,-137.3484,135.4188,85.6630,33.1066,149.8074,9.4840,-38.8603,-216.9485
-2914.0625,126.0800,-24.7507,-202.9755,43.5726,86.3692,27.5650,45.6188,-37.3362,161.1407,-47.2572,-33.7863,-5.7580,17.6858,33.7356,129.7229,-31.7123,-22.4286,15.3543,-69.8170,-281.7389
-2906.2500,-134.2730,-37.0320,258.9923,30.3279,69.2143,11.3706,33.5495,-16.4336,71.0834,-26.2817,44.4225,0.2749,37.6640,18.0115,149.7560,-46.5636,-0.7550,-32.8215,-82.8589,-223.5983
-2898.4375,101.5926,-82.0574,-150.7935,-48.6622,100.2939,-29.5754,155.1240,-57.2637,249.2898,-104.0432,5.3292,-69.0236,105.8800,14.5512,145.0441,-161.1585,200.1852,-147.7577,153.3670,-338.2336
-2890.6250,64.3197,-83.2405,139.2342,-50.8076,170.2412,-69.6792,67.7962,-60.2369,135.3695,4.0710,87.6448,-87.7701,101.9434,-25.0676,215.2007,-53.8882,-49.0467,-113.8457,-95.5634,-304.0514
-2882.8125,-22.1462,-27.5734,197.1570,-66.1006,44.0297,-47.9370,138.1197,-112.3381,193.3037,-121.9355,35.6057,-68.8040,12.8471,-39.8298,199.2183,-105.7570,251.5504,-235.0851,135.3436,-319.0366
-2875.0000,260.2442,-61.0631,-167.1163,-98.5443,158.6650,-116.3441,190.4151,-180.5816,344.1172,-116.0930,31.0448,-153.1133,90.5965,-107.7384,277.0983,-136.7796,182.0112,-267.4867,101.1259,-387.2075
-2867.1875,-8.2233,-117.4063,248.7718,-84.8432,94.4623,-104.6092,122.5095,-95.6651,244.0941,42.9323,79.0136,-136.7998,64.4954,-95.5063,250.1520,-88.6382,89.5806,-218.7360,9.0394,-302.2537
-2859.3750,115.8783,-168.1545,-58.7298,-135.5450,155.8396,-154.2762,247.9295,-144.1325,341.6946,-79.4313,60.6000,-202.0565,161.9807,-144.6741,200.8200,-173.8925,319.7629,-268.3959,274.5738,-387.7233
-2851.5625,216.5458,-206.3599,193.2697,-173.7021,296.7765,-195.4046,207.6618,-149.0435,262.8836,-10.2357,196.7895,-280.2251,193.0171,-259.2975,269.0632,-104.5908,33.4850,-307.5149,94.6633,-355.6795
-2843.7500,74.4797,-242.2634,337.6144,-208.5591,147.0132,-234.2359,226.8411,-113.6435,297.3776,-48.7188,176.2638,-266.2569,153.3445,-186.6182,229.6289,-141.9825,278.4844,-377.3303,234.0264,-320.3562
-2835.9375,331.5058,-300.0663,-50.9765,-267.3138,273.3499,-290.9669,315.1591,-170.1413,461.0076,-142.0969,166.1925,-356.2670,242.7704,-242.8411,283.3015,-162.2803,254.6017,-366.0579,280.5181,-413.9691
-2828.1250,73.6803,-310.7238,411.5798,-312.9176,256.8506,-305.5535,243.9747,-147.4814,297.8065,-83.2914,244.6563,-346.8582,263.3477,-220.9261,341.1447,-103.4175,101.8375,-305.6349,129.1353,-318.4632
-2820.3125,186.7223,-302.4845,128.0582,-304.6231,231.2360,-294.2407,344.2237,-245.9091,382.5182,-254.5710,193.8691,-353.3662,274.8123,-245.1072,241.9021,-237.6471,390.9849,-367.3210,418.6597,-380.0793
-2812.5000,346.8399,-246.2044,149.5381,-283.2863,399.6784,-308.8880,278.5822,-297.2841,294.3108,-231.7875,280.1235,-360.7204,333.3287,-296.2477,263.7304,-214.8249,129.1817,-275.9685,191.2435,-394.6846
-2804.6875,15.3891,-189.4839,462.5115,-226.5038,271.5733,-252.0928,252.2248,-277.1923,166.5567,-285.5271,258.5110,-262.7546,278.2888,-238.9455,173.0289,-268.5410,290.7984,-255.1703,283.2534,-337.8610
-2796.8750,313.3788,-242.3189,42.9188,-244.2753,403.9109,-265.8542,352.7775,-327.6444,335.2767,-335.8120,245.2591,-344.4662,336.6978,-326.1959,194.7832,-355.8102,341.8884,-271.9335,370.7422,-425.6227
-2789.0625,259.4787,-260.0628,424.4101,-261.9544,381.3691,-251.5218,263.5555,-275.9865,239.1137,-209.9770,332.7605,-354.9719,277.2110,-347.3604,282.6597,-303.9744,148.0471,-218.5969,141.3205,-337.3194
-2781.2500,334.8452,-253.5082,210.2365,-255.3375,240.1212,-243.8924,333.1606,-305.0193,320.2561,-385.8307,265.7950,-338.1830,247.0206,-303.2282,252.8544,-332.8348,434.5125,-283.9677,392.2035,-366.7399
-2773.4375,463.3839,-264.8060,125.1628,-266.5720,375.0331,-292.1239,286.1906,-352.9048,308.5772,-360.5351,300.4876,-372.3222,308.9809,-313.9536,278.2135,-232.5575,246.1455,-295.2004,204.2558,-378.0535
-2765.6250,165.6655,-245.3566,508.8734,-247.0583,244.7079,-238.6062,212.4117,-298.0332,140.6529,-305.4691,311.5439,-304.8300,251.6874,-258.9422,221.3437,-215.5288,299.5022,-274.6848,189.0330,-287.6422
-2757.8125,381.5830,-238.2574,76.2298,-275.8938,290.0226,-265.4438,299.8143,-325.5093,297.3983,-442.7567,256.0706,-342.1291,297.0439,-286.2871,193.1371,-278.8497,410.5343,-303.5364,335.4828,-351.6143
-2750.0000,327.3158,-256.3661,421.3626,-257.9364,340.1617,-287.4909,183.9494,-310.1878,163.9671,-280.2414,361.4427,-347.2985,310.2083,-307.8468,244.7511,-227.3671,145.3513,-215.5912,35.7254,-263.8238
-2742.1875,218.4180,-189.0781,343.9426,-225.5816,226.6998,-253.1434,227.2011,-349.4569,270.9407,-393.3155,274.3850,-277.5633,270.7742,-236.0174,204.7789,-339.4848,388.5661,-253.2482,173.3624,-266.6547
-2734.3750,423.6451,-157.7017,82.5812,-230.1302,333.3448,-256.7015,249.1948,-425.6287,379.0465,-395.2951,258.6564,-294.2650,303.4458,-239.0992,311.9204,-378.5189,206.9048,-222.8191,62.1306,-306.4261
-2726.5625,145.5205,-153.6813,449.8924,-190.0380,221.6567,-219.6175,172.0107,-315.1483,267.8130,-284.6178,264.5742,-237.0016,228.7714,-201.5449,274.7390,-267.8950,139.8644,-217.7449,-4.4692,-196.5750
-2718.7500,250.7712,-223.2645,11.6138,-224.5488,188.3615,-252.1429,301.6227,-310.2631,455.0046,-316.5390,157.2081,-294.6108,232.4926,-233.5981,241.9683,-299.8803,315.2501,-252.2879,277.3564,-266.3558
-2710.9375,200.8994,-201.0095,215.1491,-237.2210,244.9403,-231.8319,192.2458,-252.5318,328.0792,-148.6061,222.0436,-307.1253,252.0750,-286.8252,262.0735,-169.0295,19.4821,-159.9918,17.0353,-209.3268
-2703.1250,22.0600,-167.7106,321.7856,-168.8489,93.5721,-161.4794,196.3015,-181.7453,288.2116,-224.6138,173.5896,-217.3641,174.7095,-216.0170,148.2489,-245.1378,227.7596,-196.6467,190.7588,-176.2706
-2695.3125,275.2374,-160.4210,-72.6101,-161.4860,214.2124,-151.1382,211.1769,-243.9648,298.3800,-249.6274,159.8164,-244.8599,258.3435,-241.2269,158.4339,-270.2662,164.0748,-154.3212,162.5224,-239.2551
-2687.5000,27.0804,-55.4895,362.6600,-56.4847,134.5283,-83.1611,73.4047,-212.5354,72.2091,-254.9728,191.5127,-120.0925,178.6364,-172.8155,153.2877,-201.7408,92.0168,-84.3489,-49.0775,-134.6213
-2679.6875,152.5988,1.1334,-18.3424,-69.7880,84.5354,-95.4912,155.6277,-224.4001,169.7560,-376.6124,96.3273,-121.1239,165.6309,-184.7182,66.8600,-213.5200,393.6768,-203.6949,217.0464,-184.3152
-2671.8750,335.4997,-61.9125,59.9611,-97.7603,126.9081,-125.4886,66.3690,-143.9197,65.6955,-185.8994,176.4444,-174.4883,133.9863,-215.2956,109.8060,-132.9607,119.6913,-160.7051,13.5380,-141.7010
-2664.0625,155.2393,-29.1168,311.1625,-64.8911,-26.8576,-94.6470,24.9812,-75.5917,-87.5039,-228.3275,169.8001,-71.7681,54.1906,-73.0375,30.6250,-175.5566,291.5459,-163.8686,115.8641,-74.2599
-2656.2500,371.3901,-22.9259,-85.2527,-59.6269,128.7771,-49.4161,69.0885,-176.8740,-4.2687,-292.3702,129.2420,-81.0426,98.7945,-64.3938,2.8556,-239.7734,260.8428,-157.6506,121.6228,-139.4567
-2648.4375,119.1636,6.8556,382.9341,6.2276,82.0353,-21.6008,-58.9768,-112.5639,-198.4109,-190.8058,202.2287,-14.5684,89.0092,-36.1731,-7.2870,-138.3968,114.7229,-56.8445,-95.0304,-39.0882
-2640.6250,156.9685,46.6802,130.2066,46.1212,13.3384,20.2548,17.6576,-143.2021,-118.4901,-330.1942,123.5401,7.9010,57.2758,-66.9159,-111.3665,-205.9790,364.6726,-53.0053,154.3793,-70.6939
-2632.8125,290.7597,39.4425,85.3871,38.9483,188.6130,12.0421,-15.0567,-150.9013,-163.5836,-300.6446,175.2181,-36.5868,85.5054,-148.7309,-46.4757,-139.6328,110.5913,45.7654,-63.2342,-42.3898
-2625.0000,24.6034,56.2413,428.6630,55.8150,53.9539,62.8665,-95.4137,-100.5562,-296.6207,-176.0405,181.0963,38.6618,24.7889,-61.5165,-179.5126,-89.2414,161.5486,97.5811,-46.8087,43.9418
-2617.1875,170.7007,63.2804,-38.8113,62.9214,138.5503,73.9245,-10.5837,-87.9745,-138.3733,-128.2008,80.6227,34.7644,35.3311,-49.0762,-242.2845,-113.6240,166.7970,104.6232,99.9081,-55.5097
-2609.3750,54.1771,122.6510,314.0562,122.3584,160.5249,95.3151,-155.3355,-66.0537,-336.7463,-69.0197,146.1601,85.3040,-16.7569,-64.3153,-218.6807,-54.6665,-19.6118,235.0056,-227.0250,39.3551
-2601.5625,124.0385,263.4101,203.3732,193.1833,48.9039,169.0949,-152.4426,-102.7375,-409.7100,-288.4411,100.4183,194.8327,-91.4371,9.8270,-365.6596,-163.3201,331.3946,164.7740,-16.5471,38.5975
-2593.7500,386.3353,245.5554,1.0536,210.3934,141.7057,188.2548,-181.6687,-83.0352,-464.2384,-194.4783,134.1234,157.3206,-72.7025,-44.6589,-347.2227,-108.6021,136.8368,216.9226,-105.6299,20.1971
-2585.9375,71.3876,248.4392,365.5268,212.3411,-8.7133,222.1502,-242.8723,62.4083,-503.0070,23.2314,109.0102,202.1856,-185.2049,-9.4213,-386.0104,-36.1459,103.0160,183.8147,-137.9766,127.5216
-2578.1250,196.4426,198.3123,-125.9863,162.2808,-22.1290,172.0322,-128.4731,49.8398,-295.7533,-63.0812,2.5000,155.6083,-125.6925,13.7985,-361.7911,-49.7121,193.2355,133.6864,57.7086,76.8149
-2570.3125,82.6406,155.2693,155.5822,120.3033,38.5847,122.9953,-214.2857,111.3536,-381.3706,35.6976,72.7100,111.0665,-101.0624,-33.9128,-263.4469,122.8011,-131.4427,196.6432,-230.5016,174.1721
-2562.5000,-74.0197,175.3634,101.3557,104.4621,-124.5458,106.0925,-191.6376,132.0139,-286.8296,93.6320,-18.4770,136.2703,-118.2766,23.5016,-316.9323,143.4543,28.0389,75.7351,-70.5610,193.6584
-2554.6875,88.5000,127.5956,-276.7570,56.7538,-26.5150,58.3213,-143.5309,84.8104,-113.0973,157.6998,-78.6689,67.0729,-56.3295,12.0394,-180.2538,170.2293,-160.2884,27.9553,-153.4274,145.2565
-2546.8750,-185.9623,134.8138,129.1617,100.0267,-169.4554,62.5331,-222.0342,161.5942,-220.3496,197.7635,-66.7631,135.2842,-126.3692,89.5478,-103.5521,246.9966,-223.6280,72.1704,-286.3080,257.8299
-2539.0625,-24.0774,120.3730,-287.5363,50.6391,-219.0469,49.0828,-115.2308,112.7198,-122.2356,112.1542,-145.5031,96.9086,-103.0518,76.3896,-115.4917,161.0916,7.4239,56.7170,-18.8184,207.7305
-2531.2500,-12.6437,98.4184,-128.7597,64.7399,-98.1086,61.1160,-170.2286,88.3208,-183.5902,198.0325,-73.9703,74.4475,-92.2160,14.6986,-66.9116,172.6593,-261.0093,174.7513,-252.8203,255.0964
-2523.4375,-226.3608,166.3085,-23.0717,97.6841,-249.3090,93.9872,-145.9562,85.7590,-150.0863,121.7563,-133.4398,168.6770,-132.5225,121.8373,-143.4692,97.0618,-52.5870,137.6247,-78.9811,287.2945
-2515.6250,27.5978,104.8367,-415.7561,36.2609,-162.8508,32.4935,-66.9149,24.8274,9.1041,134.0988,-167.8633,71.2045,-84.1698,60.6065,-57.3635,108.0922,-114.4672,76.1229,-35.4520,225.1111
-2507.8125,-238.4631,50.2955,0.5177,-19.2295,-225.4183,6.9311,-135.9676,110.8371,-51.7384,257.3826,-124.9149,56.4248,-108.8579,72.2985,-45.2793,305.0655,-311.4051,127.5570,-160.9769,309.8541
-2500.0000,-196.2826,22.9938,-318.9211,-11.4821,-287.7412,-18.3912,-16.0798,121.0853,143.6794,195.9007,-215.1452,48.5415,-98.2891,84.2223,-106.9307,206.2715,-92.0580,65.2248,127.7717,246.8295
-2492.1875,-28.9051,14.8307,-327.2423,-19.6014,-147.8848,-26.5851,-23.5089,113.4637,210.2764,262.5446,-166.2650,10.3677,-106.5477,39.2663,32.5857,161.6018,-382.5410,91.0217,-90.3069,237.9221
-2484.3750,-268.8347,21.3537,-101.8061,-13.0364,-327.3137,-22.0963,-35.7664,192.5340,178.5797,340.8835,-217.2321,51.0184,-212.0909,80.9885,38.8242,166.6223,-200.3324,27.5102,-13.6947,278.7025
-2476.5625,-24.8481,-50.2399,-576.4802,-49.5898,-249.8383,-54.7273,57.3661,160.4937,330.8137,346.1034,-277.1342,-52.2637,-171.7207,-25.4093,78.9743,171.5149,-131.1791,-8.1276,90.8612,171.3573
-2468.7500,-226.2141,-40.2570,-128.5523,-74.5649,-243.7303,-84.7852,-44.7694,241.0435,190.6674,426.9315,-189.8129,-41.2470,-164.7359,-19.2419,122.7406,251.9957,-332.4357,35.8204,-144.9827,250.5880
-2460.9375,-243.2243,-21.9379,-328.2272,-91.2057,-295.2726,-63.5062,71.4569,189.9351,323.8769,229.0926,-244.0802,-46.8045,-106.3922,-33.7417,108.8671,163.8089,-103.3200,-50.8972,119.5407,198.1548
-2453.1250,-92.1400,-81.5814,-425.8882,-115.8145,-135.7439,-125.1962,29.0407,202.8509,337.1673,205.2689,-189.8480,-106.6796,-20.9796,-58.2180,159.0632,249.6448,-304.1192,-4.5828,-115.8523,172.7412
-2445.3125,-308.5497,-51.7393,-30.0026,-120.9399,-254.6927,-96.4000,-52.2505,194.2533,181.9542,233.9418,-153.4501,-38.9290,-66.0546,43.7842,76.7800,278.9620,-168.4260,-45.7733,-120.7580,236.8144
-2437.5000,-3.7448,7.2971,-439.9106,-60.8767,-149.4327,-65.4157,-2.9710,78.8401,139.9585,81.7897,-169.8190,-13.8118,-35.9191,36.9671,-38.3043,89.4506,31.5206,-21.7861,44.5729,120.0653
-2429.6875,-85.1928,31.0149,-50.1300,-2.1305,-17.4424,-6.7490,-80.6057,101.1131,-130.3102,104.3258,-39.0855,31.6356,-13.0629,23.8172,-14.6725,74.6203,-225.8326,106.8885,-142.3908,177.9925
-2421.8750,-183.8980,2.4693,-78.5397,-30.6498,-81.6984,0.6509,21.9443,110.1307,-47.8252,76.6005,-87.7748,14.3767,-41.4510,-4.6030,-78.2821,46.5216,25.5803,43.3055,145.4057,148.6632
-2414.0625,71.7335,-91.7906,-249.6866,-90.8818,41.3609,-59.6659,44.3504,87.4233,39.9945,128.1440,-40.9434,-88.7676,8.4784,-64.7471,8.4166,60.6967,-104.6652,54.0032,50.5378,87.6085
-2406.2500,-151.7672,-34.2117,139.0554,-33.2770,-47.7081,-38.1468,-4.1865,108.5471,-84.3302,112.5358,-6.8342,-19.1178,-43.7299,-44.0664,29.9875,44.7059,-47.0716,75.5457,2.5026,144.3932
-2398.4375,6.9419,-16.4369,-276.9830,-15.4784,-22.5792,-14.4342,128.0418,-13.1485,124.5578,-45.9059,-89.5499,-26.9062,-18.7260,-57.2031,19.7642,-113.1168,147.7664,24.2718,232.6977,21.3640
-2390.6250,-0.2977,-59.6734,7.9597,-23.6970,115.5830,-23.7351,76.5086,-21.8672,6.4661,56.6188,40.1253,-72.2160,46.2981,-138.3681,48.5587,-84.9633,-106.3845,86.9891,49.9047,48.3140
-2382.8125,-70.9376,-59.3206,81.5647,-58.3248,-30.6412,-23.4458,112.6502,-20.9938,7.9628,-16.2676,32.9572,-64.0498,46.9347,-100.9538,12.9585,-120.2262,141.0762,-18.6981,261.7087,47.8593
-2375.0000,220.8080,-84.6301,-234.5000,-83.6132,94.4970,-82.8209,156.0792,-116.7911,133.8312,-74.8355,50.1215,-140.5961,134.9365,-161.2148,101.7044,-180.1681,114.9342,-44.0522,200.9028,-49.2659
-2367.1875,-30.0628,-18.6037,235.8134,-53.5715,50.0144,-53.8627,55.4761,-87.2538,17.0604,28.9353,89.3548,-74.4473,53.3012,-131.1492,94.8205,-149.7759,40.1317,-49.0676,21.4328,15.9482
-2359.3750,152.0663,-47.5881,-46.8378,-46.5391,99.5254,-78.9140,144.3508,-148.7287,66.3034,-106.3252,78.0288,-105.5050,102.6741,-158.0960,33.9444,-248.4081,293.3665,-112.0947,239.9926,-83.8444
-2351.5625,192.2903,-78.5401,141.5276,-77.4725,251.1119,-74.9309,92.5321,-144.1767,-2.3775,-27.5548,177.4576,-155.6040,143.1179,-226.0190,113.1265,-172.0134,16.6706,-38.0827,-2.3786,-80.6075
-2343.7500,2.1680,-91.8487,311.6017,-55.7684,89.3650,-53.3106,112.8760,-121.9830,20.5809,-79.1313,146.4112,-113.6650,92.2199,-168.3152,61.9654,-185.9812,214.6250,-122.4278,160.8891,-59.7220
-2335.9375,338.6726,-108.5667,-106.7380,-107.4756,187.2279,-103.1014,156.8962,-208.2120,119.1605,-91.1420,119.8847,-177.2612,115.9354,-182.0289,50.4040,-199.3793,304.2325,-209.1940,215.7980,-147.2514
-2328.1250,125.9116,-74.6011,329.6283,-73.4975,107.8126,-73.2069,43.1989,-176.7597,-32.5586,-97.4795,177.7923,-106.2321,73.3719,-115.0597,81.5459,-168.1039,161.5594,-105.2622,3.4184,-44.0911
-2320.3125,128.0781,-37.7399,40.9281,-36.6298,40.3149,-31.4189,169.2268,-244.4217,84.6152,-384.9474,79.8513,-62.6592,79.7218,-72.2070,88.5985,-271.9503,410.7986,-137.4353,287.9283,-113.0359
-2312.5000,213.3258,-58.8333,57.2838,-57.7186,240.8769,-52.5831,163.6817,-229.0599,100.8507,-258.3996,127.3319,-123.6273,95.1311,-167.3203,178.7035,-220.7727,108.1186,-123.5745,91.5034,-134.9393
-2304.6875,-70.1486,-60.6846,345.8997,-24.5637,88.7064,-57.5105,139.4486,-123.4697,60.3438,-116.6240,97.4014,-79.3229,16.8040,-136.2064,138.0610,-152.3663,212.7044,-196.4756,160.3363,-67.6001
-2296.8750,195.4388,-112.4906,-144.4017,-76.3765,112.5945,-107.4058,207.1472,-135.8441,195.8854,-202.8140,43.1443,-146.8696,77.5433,-149.0580,125.4656,-164.9281,266.3555,-213.3428,285.2337,-155.2144
-2289.0625,105.3061,-133.0588,235.5514,-95.9572,125.7407,-96.0650,76.4349,-86.9874,24.6939,-116.7742,134.3752,-130.8941,53.5451,-100.6749,139.1281,-42.2619,0.2750,-127.9762,19.3984,-70.5858
-2281.2500,45.9910,-86.8399,101.3238,-85.7527,64.6972,-46.9426,146.8171,-148.3429,38.3134,-249.9442,75.2290,-80.9463,66.3576,-51.5116,41.6007,-177.8032,293.0041,-152.8188,277.3640,-96.1570
-2273.4375,205.5482,-68.7827,-26.0456,-67.7046,232.5109,-27.9798,138.6016,-201.8637,22.7825,-303.2809,114.8596,-99.9702,123.0317,-105.5089,99.9294,-194.5165,65.6087,-63.8161,120.1888,-113.8804
-2265.6250,-19.0607,-11.9287,434.3904,-10.8691,141.1443,-9.2250,70.0181,-181.6024,-104.9562,-357.8407,173.9785,-14.2926,68.5181,-50.7232,45.0649,-211.4466,158.0282,-42.0169,71.8155,-22.8081
-2257.8125,276.5481,-33.8713,12.0537,-32.8320,159.9878,-28.2716,162.2718,-237.1528,62.4953,-412.2250,132.8999,-77.5113,88.2113,-105.7513,65.4051,-266.2023,277.6611,-99.0294,227.6462,-115.5328
-2250.0000,212.4829,-62.5164,310.0100,-61.5033,237.1305,-62.0258,62.0239,-196.4174,-43.7470,-262.3369,214.8456,-94.8954,91.2122,-103.4876,106.0428,-153.6824,37.6344,-57.7488,-47.2036,-39.9608
-2242.1875,99.2381,-36.3731,264.7766,-35.3806,82.0816,-33.9855,88.1001,-168.8944,21.8145,-343.6546,138.6118,-26.5564,46.0263,-1.4413,-11.5203,-235.3725,311.4195,-137.6765,155.7453,-49.5890
-2234.3750,270.2916,-41.9402,-33.1458,-75.9703,189.3415,-74.6490,107.7582,-209.0863,93.6836,-273.6814,119.8470,-97.3289,117.1464,-79.0994,59.2198,-202.7758,165.5174,-143.3076,81.0083,-90.9160
-2226.5625,-12.3820,-79.2655,403.1793,-78.3202,109.8618,-82.0721,30.4878,-105.0446,-59.1841,-132.4839,157.4280,-77.0266,73.5246,-49.5207,90.2187,-62.9512,58.8796,-143.6934,-25.4629,12.0074
-2218.7500,188.3086,-125.2420,-45.1183,-124.3231,66.7413,-126.1433,122.5202,-112.6621,82.2898,-176.9666,82.6005,-116.1593,104.2632,-19.6019,10.5594,-106.7875,225.6013,-190.7231,246.4156,-69.7153
-2210.9375,238.5630,-110.6770,115.1338,-109.7789,154.1794,-113.6701,14.6842,-99.7427,-50.6835,-90.9219,163.4266,-117.2868,117.5696,-44.1424,25.4414,-20.0924,-41.1066,-106.2041,-20.1417,-20.8875
-2203.1250,70.1407,-33.8215,231.6996,-67.9423,-24.0678,-34.9035,16.0819,-93.5337,-117.3601,-194.5894,115.2631,-23.7522,50.1881,34.6027,-5.3722,-52.1092,177.4890,-99.3870,127.5984,20.2441
-2195.3125,257.4801,-94.2210,-122.9633,-93.3624,137.4416,-58.3888,88.5360,-117.5846,7.7095,-180.5189,82.6093,-97.0579,100.5611,-25.9113,119.5608,-75.3988,82.8532,-53.8251,68.0971,-40.8697
-2187.5000,-70.6467,-70.1213,302.8720,-103.2851,85.4615,-74.3792,-1.7683,-23.1602,-80.7212,23.0288,96.1768,-61.2855,48.4465,-5.9339,140.9903,18.7933,-174.2681,4.2287,-116.8998,52.5182
-2179.6875,-21.2485,-92.5233,-47.7652,-91.7110,28.9864,-58.8754,86.7770,-80.2502,47.3375,-33.9439,0.3191,-62.8180,64.8383,10.5422,48.9060,-75.5222,50.1197,-53.2226,142.5912,-5.5852
-2171.8750,47.5294,-94.5785,-14.0467,-93.7990,135.8636,-63.0292,-7.1342,-83.0061,-29.2631,73.4149,50.0788,-74.2305,98.5882,6.3617,83.1632,-5.5011,-232.1170,50.6694,-139.5564,26.6687
-2164.0625,-156.4687,-18.4384,172.8789,-17.6931,-44.0477,13.0082,-59.0487,-6.5798,-134.6606,38.9533,4.8108,50.3710,-8.4526,119.3693,-59.3791,33.7051,-84.1419,55.7570,-28.5065,102.1323
-2156.2500,53.0395,-55.8007,-265.6670,-20.0910,68.5457,14.5429,39.0245,-78.6694,51.4346,-33.0422,-41.7885,1.2798,68.0172,83.8749,-21.4200,-1.6092,-86.6463,89.3386,41.0352,29.1078
-2148.4375,-140.5237,-3.2613,150.6838,31.4078,43.0481,61.9720,-90.0602,-29.8814,-119.5779,16.8376,14.7762,65.1211,6.4015,94.2761,28.4327,10.9650,-245.2301,210.8113,-258.5129,149.9888
-2140.6250,-46.9686,87.3743,-44.8517,87.9977,-78.3518,122.4934,-64.6611,-42.9948,-94.5015,-180.1905,-25.1932,127.7236,-6.1103,117.7745,-130.6162,-76.3588,58.2923,162.3769,-23.9612,135.9808
-2132.8125,101.9554,60.3543,-147.0382,95.9346,39.5971,130.3671,-99.7087,2.2346,-122.0735,-61.8900,-12.6383,100.1350,-33.2675,88.6224,-121.3241,41.6519,-177.8168,170.2871,-156.0435,143.3322
-2125.0000,-196.0011,113.4297,161.8787,113.9695,-127.3467,144.3363,-134.2648,126.5542,-216.5473,100.4943,-46.1782,187.9937,-128.3194,176.5633,-178.9326,19.7523,-159.8182,152.2934,-67.0317,230.7943
-2117.1875,-24.0516,72.3996,-317.2835,72.8977,-55.3899,105.2038,-21.8346,86.7742,3.8666,24.7646,-120.6953,124.3961,-56.4643,137.3961,-179.6404,-56.2591,-58.9067,147.1983,67.8868,154.1736
-2109.3750,-193.8808,79.5690,17.7482,114.0206,-15.2315,144.2676,-141.4678,127.1845,-139.5271,137.2070,-57.3657,156.9296,-53.4091,140.4264,-176.1583,93.9198,-333.7814,258.3070,-205.9759,229.7640
-2101.5625,-252.7449,123.6863,-80.2589,159.0943,-112.1163,193.2797,-90.6210,175.5411,-88.9854,2.5856,-132.6657,216.9104,-113.3946,188.4027,-272.7350,69.0487,-40.7139,162.3719,16.1122,204.3179
-2093.7500,-3.0608,55.3472,-259.7099,125.7106,2.5460,159.8435,-98.6733,179.4468,-84.9027,43.5184,-87.4816,134.9243,-72.8228,117.9321,-231.7844,107.7268,-178.0834,199.9771,-86.2321,170.4344
-2085.9375,-271.4048,103.9498,153.7841,173.2713,-134.8353,205.3494,-181.2012,225.3036,-257.8816,52.4150,-60.3980,216.4424,-136.2961,164.4090,-294.9012,154.3561,-165.4963,247.5245,-108.6263,252.5117
-2078.1250,-84.9368,77.3581,-270.8973,148.6331,-82.4165,183.6578,-87.7348,166.9486,-168.0786,-42.9067,-121.1012,186.9016,-83.9708,178.6863,-315.2301,22.7776,20.9062,186.8780,77.7700,156.4064
-2070.3125,-125.5979,71.6281,14.2622,105.8521,-55.1458,172.8178,-172.7715,230.4309,-250.4337,94.5865,-56.8609,154.6997,-129.7908,131.8130,-214.7230,158.0251,-265.8131,215.0863,-173.9765,219.1597
-2062.5000,-247.2453,123.8962,33.4366,124.0757,-219.8650,153.9883,-149.3687,248.8977,-157.8010,39.0735,-126.3305,202.7485,-184.6059,185.9366,-231.2259,140.2693,-35.5339,127.2933,-48.7229,236.9229
-2054.6875,116.6050,135.6548,-317.8710,135.7931,-93.0830,132.6579,-154.4708,153.8608,-30.6739,55.0499,-107.1069,137.5990,-130.9171,91.5611,-215.2321,155.0103,-162.7421,139.0026,-176.9627,178.1997
-2046.8750,-173.5787,195.3584,144.7656,195.4586,-181.3384,154.2776,-254.0682,175.7630,-155.6105,149.9588,-70.8373,211.1553,-183.2668,113.1336,-229.2958,212.6948,-278.9880,198.6686,-327.2537,272.4371
-2039.0625,-107.4040,154.4194,-261.2298,154.4771,-219.2428,151.2560,-119.2556,64.0092,64.7776,74.2012,-183.2102,180.8158,-147.2628,146.0590,-194.0208,100.7241,-71.8792,122.6926,-85.2030,196.0399
-2031.2500,-89.6052,136.0894,-95.6291,171.1043,-127.5490,130.8417,-195.5673,43.8440,-28.2545,163.0219,-114.4429,167.2379,-129.6578,126.5901,-102.1640,153.3391,-336.1496,210.3263,-349.5483,212.2526
-2023.4375,-246.2836,189.2682,70.4777,225.2362,-255.3505,185.9341,-214.2900,62.1749,-228.8003,72.3286,-133.3946,259.9373,-184.5491,217.6223,-156.8224,171.4435,-104.9197,157.4693,-189.4057,229.9786
-2015.6250,9.8405,129.2480,-355.5948,164.1800,-130.3525,126.8366,-151.3045,75.3016,-213.5539,122.4170,-147.0360,158.0911,-95.6459,121.4554,-177.6978,186.3372,-94.8758,132.4176,-73.4582,133.5213
-2007.8125,-221.6676,72.5839,95.6761,106.4760,-156.0040,136.0974,-215.5881,195.7641,-312.9566,279.8428,-72.4415,134.4655,-121.3974,95.6450,-167.2356,269.5756,-256.4713,179.7152,-200.1627,216.4246
-2000.0000,-199.2185,56.8737,-171.0848,127.7222,-202.7085,125.3100,-97.3210,185.1680,-138.4354,158.2193,-159.3976,143.7689,-132.1992,119.7889,-213.8311,147.7722,-23.1133,130.9674,67.0629,131.2939
-1992.1875,-55.8141,58.1171,-167.8983,93.9182,-51.4635,91.4744,-147.0865,188.5129,-170.9835,198.5419,-92.7969,104.5081,-91.0410,85.8870,-136.4897,150.9188,-267.7916,202.1700,-175.7565,97.1248
-1984.3750,-269.5456,90.2162,122.1402,125.9700,-129.3638,123.5006,-158.9063,220.7010,-248.6959,119.7012,-83.8842,173.9325,-132.0292,154.8373,-176.3136,145.9100,-128.6240,129.2326,-107.7348,128.8195
-1976.5625,-36.6766,76.9201,-289.2011,76.6305,-27.6653,78.1336,-40.9092,137.4967,-36.8326,37.4389,-130.5091,117.0358,-67.4123,145.3967,-74.5550,63.4949,-71.8508,79.9041,-16.1163,9.1345
-1968.7500,-128.8474,88.5744,123.3984,88.2453,-18.0120,85.7228,-133.0046,109.2339,-100.0407,82.1079,-24.0835,103.4917,-56.8339,79.9067,44.1423,71.0229,-199.1162,91.5299,-319.5450,90.4151
-1960.9375,-4.8156,106.4377,-3.7872,106.0654,-107.1574,68.5190,-69.2348,18.1712,-79.0895,-155.0363,-20.8806,103.6556,-37.0520,62.6258,-43.9634,-19.2510,135.8147,3.3648,-53.7856,72.9159
-1953.1250,184.5192,-22.3887,-97.6727,48.1924,53.9917,45.6241,-56.5091,32.4028,-63.8583,-66.8997,58.0297,-25.8889,51.0308,-69.3438,43.2133,30.7712,-61.9384,51.5027,-181.7222,49.7349
-1945.3125,-147.2846,-74.3605,249.2883,-4.8259,-75.0059,-11.4107,-53.2462,85.4802,-46.7804,95.0811,35.6899,-22.1544,-5.0272,-16.4661,60.2196,83.6376,-41.8512,33.4988,-127.8155,102.4196
-1937.5000,102.8151,-71.4344,-216.8300,-71.9384,-28.1082,-75.5416,72.2981,22.4543,184.1781,104.9531,-46.2318,-87.8802,5.8127,-44.6822,72.1133,20.3991,102.1417,-103.5994,86.9923,-34.9755
-1929.6875,28.3774,-42.0506,70.4885,-42.6004,2.2369,-83.2163,-11.4973,88.8737,67.5732,245.2609,8.0779,-66.0903,-37.8937,-52.4437,138.4500,86.6083,-78.4083,-74.2436,-127.7434,-5.9058
-1921.8750,-77.3067,-41.9097,-1.4375,-42.5048,-142.6721,-45.1357,58.6557,89.0377,142.7147,172.3160,-70.0277,-40.6882,-72.8559,-14.4475,103.5359,13.5684,203.7824,-145.1343,117.2572,-42.0645
-1914.0625,99.1007,-113.6617,-255.2666,-79.3015,6.5065,-79.9458,86.8851,17.3041,218.9479,174.4641,-34.8912,-128.7201,77.2798,-86.3318,143.7009,14.6295,-7.9184,-75.9177,46.3590,-114.1017
-1906.2500,-150.5822,-83.5065,215.7931,-84.1865,-36.4158,-50.8460,-3.6132,83.4619,29.0648,166.5021,44.4278,-80.1909,70.3167,-57.3082,99.7526,44.5961,-45.7225,-9.7898,-62.6536,-48.2211
-1898.4375,24.5280,-85.5445,-186.3286,-51.2676,-33.5366,-48.9331,120.8432,12.4259,142.9563,-51.6667,-23.3237,-72.5731,111.1493,-18.4810,140.5895,-63.6284,163.2727,-82.8473,182.1184,-156.5158
-1890.6250,19.0909,-91.1261,27.9897,-56.8917,70.7853,-55.5614,37.6038,4.8378,62.2945,13.6109,45.6589,-80.9152,104.4308,-25.2007,170.8682,38.5974,-52.2769,-53.4560,-68.6465,-127.3443
-1882.8125,-143.1457,-78.5029,152.5042,-44.3100,-62.6980,-42.9861,62.4359,-18.5457,75.8275,-9.8968,21.9032,-51.5365,80.9131,-12.7186,73.3410,-21.9770,172.3691,-110.8633,120.7773,-114.9540
-1875.0000,154.9091,-169.5716,-195.6791,-135.4231,104.1040,-134.1040,161.2976,-73.6293,280.6459,8.9093,24.6744,-183.9165,137.6908,-103.9241,167.0985,-40.2450,82.3208,-166.9701,135.4962,-206.2422
-1867.1875,6.3295,-142.2834,235.4727,-143.1821,57.2555,-145.8624,99.8365,-11.3679,232.7989,108.0666,81.4975,-155.4023,53.8122,-78.7719,230.1977,-15.1652,-30.3776,-175.7199,-12.4454,-144.1639
-1859.3750,133.0901,-158.6292,-108.0081,-159.5776,8.7457,-195.2517,207.5130,-23.7522,405.2756,-15.4306,12.9593,-187.0650,78.2707,-92.2568,218.6239,-101.7318,236.2676,-226.1038,218.9424,-230.7137
-1851.5625,213.6039,-184.2102,13.2529,-185.2038,128.9727,-185.8772,129.1522,-51.3788,341.4783,67.8053,103.3586,-236.1968,125.4722,-155.9762,228.7716,-18.5459,-34.3306,-181.7230,-16.9232,-221.4930
-1843.7500,-42.1877,-194.0800,223.2092,-195.1141,7.8898,-197.7772,124.1371,-63.2981,294.3563,92.7401,93.7227,-202.8684,151.3696,-93.9839,143.5940,-30.6417,131.7617,-227.6275,113.8998,-196.5483
-1835.9375,213.1141,-221.8353,-168.7284,-222.9087,131.8922,-258.5636,219.1783,-124.1021,381.3057,30.7859,80.2426,-274.0742,238.3545,-155.8805,194.4944,-91.6228,140.9476,-289.4212,227.8180,-294.4797
-1828.1250,19.0268,-205.9803,285.9114,-207.0921,144.4870,-246.7372,145.2525,-38.2986,209.8372,6.4384,172.8694,-245.1124,214.9258,-180.1701,206.9799,-79.9897,16.7219,-203.6048,68.3268,-208.7920
-1820.3125,116.8257,-180.2093,58.4652,-181.3583,27.9713,-179.9882,205.7947,-82.5934,276.2408,-222.0192,111.6452,-212.2658,171.3966,-150.5472,126.3442,-160.4517,325.3858,-212.8726,306.7090,-253.1755
-1812.5000,269.6709,-134.3764,-0.9373,-135.5541,188.4984,-168.1746,166.5951,-143.8369,252.6700,-209.4371,147.2885,-205.2565,184.9124,-174.8619,213.7327,-148.8629,91.1073,-132.0787,71.1439,-277.4846
-1804.6875,11.2200,-76.8382,351.3549,-78.0433,62.7235,-73.6567,83.9788,-122.3698,126.7840,-152.1365,154.6629,-103.5610,132.1205,-81.4746,160.8129,-127.5598,113.5179,-109.5794,24.2637,-220.0758
-1796.8750,270.1459,-99.8876,-72.9433,-101.1226,153.3340,-93.7196,159.9816,-143.4887,254.2745,-209.4218,119.1986,-152.1867,185.7162,-101.6666,141.2762,-148.8390,161.3243,-168.6714,141.7713,-314.2460
-1789.0625,162.2702,-103.7136,323.9364,-104.9773,182.1416,-102.5632,67.4700,-114.4050,99.9415,-107.5238,208.1095,-156.3024,141.5035,-146.6264,169.9149,-46.9160,-87.6628,-66.5512,-72.5259,-212.1994
-1781.2500,83.6834,-77.2216,132.1193,-113.5127,27.2402,-111.0820,101.3008,-123.0165,91.8754,-190.3284,106.2329,-107.1142,133.5758,-45.2761,88.8347,-128.6770,221.6435,-145.1128,166.4517,-220.8264
-1773.4375,273.2324,-99.5605,-36.5560,-135.8778,189.4726,-133.4325,91.7218,-145.4648,69.9427,-138.9654,151.6062,-165.0624,222.7878,-104.7723,139.8749,-115.2673,24.0936,-132.5130,38.5735,-243.2806
-1765.6250,-17.2696,-73.9389,390.7060,-110.2808,64.6501,-110.8194,-5.7874,-49.9539,-129.0610,-43.6232,172.2885,-105.0646,134.9389,-82.3273,51.8432,-19.8909,85.4829,-71.9525,-6.3613,-147.7662
-1757.8125,214.4131,-90.0903,-62.8246,-91.4631,126.0157,-86.9876,91.5881,-100.2289,6.0961,-130.0816,109.0290,-125.8806,159.2796,-95.6704,39.9864,-106.3044,211.0546,-88.1726,154.8871,-234.0288
-1750.0000,192.8894,-77.4210,206.4226,-43.8269,174.1711,-76.3354,-23.3563,-88.6914,-129.9682,-9.7460,193.6023,-102.7837,170.4042,-84.1957,124.9107,-21.9057,-57.5787,-4.5760,-149.0719,-186.4744
-1742.1875,32.8005,-62.2850,222.1123,-28.7188,5.7615,-24.2099,20.2842,-73.6961,-114.6045,-104.9474,120.6415,-38.4681,112.9612,3.7531,66.2692,-80.0414,205.2206,-25.5091,77.3993,-171.4464
-1734.3750,274.7899,-67.0312,-111.0970,-32.4914,113.4342,-26.9636,36.2139,-113.5837,-44.1649,-72.0343,106.2265,-91.7144,146.6055,-73.1804,63.7019,-47.0676,95.1115,5.6791,37.9602,-211.2935
-1726.5625,35.3147,9.7757,332.2177,43.2981,5.6471,47.8499,-89.9970,-38.9155,-225.1832,3.4441,135.8337,5.3038,37.8032,-34.5501,-8.3332,27.4735,66.5246,11.4351,-96.9355,-99.5698
-1718.7500,182.6600,16.4402,-62.6243,49.9465,-22.3075,57.5271,9.0172,-66.3753,-69.3707,-98.1962,38.6442,17.2362,10.8423,10.9440,-35.5470,-73.1096,249.7680,-17.9408,121.0047,-163.9711
-1710.9375,136.9930,39.1185,69.5105,37.6063,110.7234,42.2209,-41.2184,-7.8218,-121.5776,-39.8247,82.7382,17.2363,32.8722,-3.5411,59.2136,-14.6757,-77.9833,76.6892,-137.0549,-105.3523
-1703.1250,-89.4778,94.0196,198.8386,92.4903,-55.0549,97.1327,-27.8068,9.9385,-175.6142,-132.2554,30.5018,102.9300,-21.9103,51.1993,-32.8459,-34.0308,153.4530,60.5372,59.0567,-50.5126
-1695.3125,159.3768,61.2992,-200.4803,59.7467,97.5012,65.4182,11.3836,-21.9462,-98.3360,-91.3478,2.9381,46.5264,19.6467,18.3208,-101.5815,-29.0232,85.2327,62.7514,96.5024,-119.3003
-1687.5000,-56.7242,90.6432,268.2232,89.0799,51.1006,91.7822,-111.9985,41.2209,-291.0342,82.6109,69.8786,96.8364,-26.7523,45.5122,-74.2960,34.0522,-95.9550,92.0400,-119.0170,-19.0186
-1679.6875,9.1478,121.0028,-67.0727,83.4299,-26.3135,88.1678,-35.9979,-36.5933,-147.7656,4.5914,-46.4547,108.7396,-67.1642,77.7242,-115.0345,-43.8459,145.8259,16.3537,85.4459,-59.7128
-1671.8750,141.1459,111.5200,-40.2377,74.9500,74.4083,77.7247,-102.5228,-47.2353,-158.3644,30.7318,2.1138,86.0213,-77.4316,68.1105,-52.6392,56.4246,-109.2637,77.8312,-168.9520,-33.2372
-1664.0625,-127.8819,158.0504,152.5792,121.4844,-100.8822,123.3007,-131.3135,-2.8571,-223.9790,0.8841,-49.1865,176.3714,-141.7104,149.5105,-117.2508,63.7232,42.6166,89.3239,-87.3664,48.2596
-1656.2500,87.2047,162.7313,-280.4344,125.1779,-58.0291,130.0401,-68.5244,-69.3104,-70.4693,-28.7687,-125.6120,160.0332,-133.8451,156.0687,-109.7134,-2.7902,82.5962,57.9876,-13.6680,-18.0704
-1648.4375,-85.9377,164.2192,120.3357,162.6832,-59.4023,164.5922,-176.0523,-33.9499,-183.1660,78.3917,-56.2057,193.8904,-173.1901,153.4456,-113.3929,30.5105,-125.6127,165.4564,-257.1558,89.4142
-1640.6250,-95.6778,189.1125,-72.5314,187.5950,-179.3722,190.5555,-120.3947,-44.1807,-46.4670,-78.0360,-148.3611,237.1536,-220.1356,216.2278,-196.6756,-15.7684,110.5436,85.3398,-56.2613,79.3079
-1632.8125,56.6839,166.1667,-207.2110,129.6721,-94.2151,129.6886,-123.0882,-32.2402,38.3561,-29.2929,-141.7473,164.5192,-207.9458,155.1740,-74.8215,69.1280,-123.1722,97.3927,-220.2362,91.3731
-1625.0000,-272.2102,151.9868,104.7986,150.5163,-259.3163,110.5863,-156.4381,59.4588,-17.0704,134.2007,-174.5202,207.7202,-263.0143,209.8828,-56.2353,160.7830,-101.1327,49.2057,-198.4422,183.1892
-1617.1875,-82.8196,96.1246,-390.8773,94.6754,-204.1207,55.7997,-42.8688,39.4714,147.7816,190.0118,-274.2162,137.7742,-244.7935,191.9051,-38.3618,142.7597,17.1768,-42.6659,-8.3866,91.3191
-1609.3750,-179.6530,104.0862,-54.7560,102.6592,-162.1487,61.8315,-151.7090,118.2926,-66.5882,304.6239,-181.2648,145.1084,-239.7922,159.7473,3.2830,221.5454,-254.6896,70.2619,-246.5258,170.2614
-1601.5625,-220.6105,132.9160,-96.8306,96.5051,-242.3241,91.7305,-129.7902,111.9677,-147.1191,151.0980,-193.0945,191.4716,-208.9458,227.4385,-150.2438,141.1852,20.2867,30.0526,-6.8335,164.0572
-1593.7500,-8.8471,98.5189,-279.1121,62.1214,-55.7696,57.4005,-133.9636,77.4047,-181.9371,227.3343,-143.0118,124.0004,-132.3655,155.8868,-185.0413,143.5874,-118.9970,64.6144,-76.4266,129.6261
-1585.9375,-236.4725,151.7439,140.1681,81.3573,-151.6275,109.6874,-213.1136,129.4344,-315.1608,204.1524,-92.9743,188.2100,-155.1971,206.9458,-134.2591,194.5792,-136.6510,47.7818,-199.4110,217.8023
-1578.1250,-4.3371,138.7374,-347.7974,101.3629,-161.7321,98.7409,-88.6379,45.2146,-68.6591,-26.2743,-178.4819,176.0947,-128.2871,233.7574,-107.7392,110.3298,26.4153,-0.2840,-2.6846,133.7470
-1570.3125,-61.1823,150.8027,-115.6940,114.4378,-76.8111,109.8642,-184.1455,57.0566,-168.1319,94.3580,-115.4738,190.3353,-117.3471,244.6286,-24.1970,158.1352,-242.4536,81.7093,-306.9063,181.7634
-1562.5000,-238.1082,220.7837,-43.7428,184.4220,-188.9847,145.8977,-157.2334,18.8010,-169.7111,92.9015,-170.0644,267.6497,-155.5131,280.3999,-98.7681,83.8478,-32.4287,46.6093,-132.2321,180.6881
-1554.6875,11.8893,153.7294,-367.8025,117.3685,1.7835,115.8932,-115.1399,-11.4924,-90.3709,135.4123,-156.6505,172.8442,-75.7369,213.1268,-93.4000,89.5273,-169.4795,48.4725,-163.6422,113.5921
-1546.8750,-253.5252,169.2893,86.7069,132.9303,-58.8638,128.5008,-209.2240,74.8111,-224.4375,184.5173,-108.4790,232.2452,-136.3642,262.4633,-154.4539,138.8046,-258.9043,134.9373,-289.4384,200.1097
-1539.0625,-124.1798,193.6127,-290.0452,157.2532,-104.7536,157.8698,-129.4599,28.8650,-122.7725,29.3895,-182.1506,251.9339,-108.2454,290.5508,-273.7681,56.8486,11.3906,88.1643,-19.5195,118.3941
-1531.2500,-27.4207,220.4019,-152.3145,184.0395,-4.2147,147.7020,-235.0745,55.3793,-244.6770,128.7235,-100.9800,247.5912,-117.6976,244.0949,-283.6476,120.3616,-208.8624,150.8447,-274.1598,145.1547
-1523.4375,-234.5971,259.2480,33.4132,222.8838,-186.6322,186.5925,-226.8239,93.9490,-316.5243,94.1067,-153.0682,312.4867,-227.1021,282.6909,-319.4850,158.9307,5.9386,83.5769,-94.7500,183.9750
-1515.6250,42.5483,185.4529,-371.4831,184.0880,-113.7083,149.8426,-135.1602,92.8793,-170.0397,92.8637,-182.4139,218.5661,-190.1649,208.6435,-209.9711,121.8727,-32.9486,44.6703,-29.0284,110.1715
-1507.8125,-235.5786,187.4222,30.3485,151.0538,-190.0556,146.8545,-183.9662,163.5610,-246.8051,163.3625,-154.7754,230.0772,-229.4875,205.3589,-102.7186,229.5707,-277.0661,152.5082,-167.5408,218.1347
-1500.0000,-248.5029,175.6005,-238.6502,138.2298,-274.1981,136.0730,-68.4287,152.4429,-38.3708,79.0675,-256.7570,216.2027,-241.6128,194.2738,-151.2628,181.4811,-43.0172,104.5577,100.1283,170.3093
-1492.1875,-13.9215,128.3428,-286.0627,126.9707,-138.8078,124.8602,-126.4466,140.8875,-50.4168,214.3332,-178.2679,145.7941,-216.2014,108.7465,-126.2640,206.9545,-300.4280,164.1698,-121.6660,159.0574
-1484.3750,-197.6807,190.7429,70.1242,189.3702,-187.7670,187.3024,-184.2501,129.9850,-245.8167,129.2428,-115.9578,242.5184,-227.1395,170.8674,-248.6275,86.0778,-133.1785,190.4311,-95.7923,221.4616
-1476.5625,15.0435,227.6471,-328.1662,191.2746,-34.2221,157.2528,-90.0094,25.5966,-166.7399,-48.3349,-132.5654,206.9681,-111.5812,103.4895,-243.4991,-18.2728,9.5297,157.2060,11.5514,117.3867
-1468.7500,-158.8693,195.9531,111.9365,158.5852,1.6980,156.6090,-164.5033,62.6235,-278.2607,97.4979,-40.7233,183.7026,-111.6323,67.5219,-133.9847,90.7927,-199.3535,230.3812,-232.6812,190.7263
-1460.9375,-160.9818,159.0570,-72.2051,121.6944,-108.5752,119.7712,-43.5057,61.4582,-94.9711,24.1569,-108.7422,155.0139,-111.8808,66.3492,-171.6678,17.6704,45.5351,122.3638,80.8761,153.8728
-1453.1250,1.6643,73.9688,-231.5005,72.6155,24.9449,70.7446,-28.8073,48.1023,2.0928,10.6205,-67.8783,68.4267,-14.3360,16.9805,-111.5578,40.3582,-144.7944,144.1671,-38.7881,104.8432
-1445.3125,-283.7843,70.7899,202.0603,69.4501,-91.6388,100.6318,-46.6149,78.6429,-115.9424,3.9646,-33.3631,108.4097,-58.8952,47.5107,-81.5591,34.9470,-78.2028,175.8703,-7.5314,171.7168
-1437.5000,-50.0422,58.8169,-209.1683,57.4908,-27.0146,93.7244,63.8394,33.3915,21.2158,-151.4684,-68.4911,61.4614,5.7381,1.2354,-90.3600,-47.2479,84.5509,92.7847,189.8951,53.8050
-1429.6875,-124.7874,54.4043,78.1649,53.0885,77.1342,51.3736,4.7397,101.6952,-57.0693,-10.3352,4.6079,43.8466,0.9075,-39.4867,-22.6202,57.1167,-200.1335,89.2428,-24.1201,85.4585
-1421.8750,-228.5207,56.9917,44.4493,55.6900,-65.7099,55.0223,66.1320,104.9974,-18.3423,-80.1886,-60.7575,68.5029,-32.9198,-1.2163,-56.8842,-13.5120,46.1688,-15.2937,221.8592,52.1169
-1414.0625,22.1572,-7.9589,-240.7753,-9.2502,88.8921,-9.8677,93.7086,39.7637,62.8053,-73.5670,-41.7476,-30.3869,48.6950,-66.4915,23.2912,-41.6723,-54.1093,-9.3665,121.2623,-12.7543
-1406.2500,-216.6252,33.6467,240.5127,32.3697,18.0318,-6.1977,-27.2251,80.0813,-117.4883,3.6053,39.4791,32.2046,51.8514,-25.2138,-45.9944,35.7191,-116.8209,-2.8888,-12.7604,64.9283
-1398.4375,-26.3135,-19.6447,-142.1052,-20.9040,39.2789,-21.4219,74.5821,27.5079,-24.6841,-49.1139,10.7938,-27.9061,146.1076,-41.8411,-64.1749,-53.7685,74.5291,-21.2991,214.2900,-24.2777
-1390.6250,-0.2460,-64.1242,30.0961,-65.3695,175.3046,-68.8349,23.1932,16.7374,-72.0876,50.9693,75.5544,-68.1591,135.1538,-52.6642,35.4402,46.5546,-215.3163,75.0931,-41.8545,2.3330
-1382.8125,-188.1734,-76.6059,126.2449,-77.8338,13.3342,-9.2471,56.3071,38.9712,-14.4773,-73.9356,23.8422,-31.8682,84.1999,6.5028,-16.9430,-5.1178,52.8293,27.4848,121.0144,24.9426
-1375.0000,48.2594,-49.6799,-210.1750,-50.8943,117.7582,-14.2566,109.2520,-77.3773,89.5184,-189.4116,9.1263,-56.1217,151.6365,-35.9343,51.0816,-121.3686,43.3354,-16.7105,111.2554,-54.0315
-1367.1875,-190.7220,-8.1472,233.9704,-9.3483,84.7654,-10.6564,28.0219,-0.1203,-53.8732,-76.2938,55.0422,-3.3890,81.6678,-32.7723,53.6989,-80.0175,-89.5425,-10.3048,-22.8801,23.5986
-1359.3750,-57.8982,-48.8111,-64.1022,-49.9958,44.5836,-50.2540,137.1846,-40.0574,125.5372,-117.3664,-13.1779,-37.0996,77.4984,1.1815,13.1176,-83.8566,149.3443,-157.0869,251.7604,-52.9668
-1351.5625,165.4341,-176.9099,21.4080,-144.0822,165.9365,-148.2876,68.2186,8.5655,99.4776,5.1174,98.0420,-144.4527,88.8674,-24.3188,97.0735,38.8644,-121.2191,-75.3097,-18.0564,-40.9658
-1343.7500,-33.9171,-128.7065,290.1691,-95.8632,29.5892,-100.0163,47.2582,19.4857,-0.2713,-94.1014,114.6832,-66.1526,63.5361,23.4643,-2.6760,-24.1056,67.5230,-62.2285,99.4366,7.3352
-1335.9375,213.5160,-128.6962,-109.2410,-93.8380,183.0423,-56.9400,107.9035,-84.7849,78.7644,-198.4952,102.4715,-106.8655,142.9973,-43.9652,-70.6224,-128.2589,139.0279,-60.3353,170.6966,-96.5482
-1328.1250,14.7711,-115.8315,341.1800,-81.9553,154.3253,-48.0069,21.4628,-39.1983,-60.3433,-189.0432,188.2664,-81.1213,151.3000,-35.5319,11.2715,-45.5590,-25.6007,-48.5935,-29.1688,-13.5758
-1320.3125,77.1236,-122.8632,114.6664,-123.9698,38.7187,-89.9756,117.2217,-81.5051,44.6516,-268.4803,106.5722,-92.9508,108.7052,-3.9986,5.2714,-124.7490,283.8386,-125.7427,245.0529,-55.5020
-1312.5000,263.9341,-146.3872,17.6880,-147.4738,234.5959,-150.4348,139.7464,-105.3019,93.1305,-146.4030,148.1645,-178.7281,121.6019,-138.9615,127.7659,-148.4216,48.7619,-78.3863,79.7593,-78.9116
-1304.6875,-21.6986,-114.3537,341.2073,-115.4248,81.0198,-119.3378,110.7363,-75.5494,49.1681,-79.7759,139.0893,-122.1174,78.0451,-108.3701,119.8067,-117.5453,80.2455,-82.4854,111.0303,-11.7731
-1296.8750,168.2552,-170.7112,-118.6585,-171.7714,136.0459,-137.6414,203.4375,-130.1889,213.7928,-97.5211,80.9328,-191.3523,170.0826,-127.1774,101.4455,-173.0537,199.2861,-138.9735,265.8701,-103.0240
-1289.0625,28.1754,-168.0587,210.4730,-135.1090,207.0527,-138.9369,89.5265,-95.8191,27.4146,-26.2528,136.7053,-165.9990,130.1123,-128.9821,135.0689,-27.5573,-10.6628,-67.4608,-15.2751,-31.2668
-1281.2500,35.3628,-91.1587,145.8086,-92.1963,105.3170,-55.9829,102.0550,-159.1911,36.2986,-163.7222,88.3750,-97.9306,65.3915,-83.5468,33.9421,-128.7994,313.6183,-94.6948,132.8253,-58.2603
-1273.4375,339.9095,-66.8535,-48.4123,-67.8794,204.9695,-65.6225,69.3045,-170.1517,61.5640,-63.7759,156.0619,-193.9337,129.0625,-313.7066,59.2116,-101.6269,125.2806,-35.5215,-20.6923,-104.8356
-1265.6250,53.8951,-36.0898,346.7754,-37.1052,49.0649,-0.8093,32.8829,-31.6657,-21.7072,37.6133,195.1758,-235.9223,83.1800,-580.4072,49.9284,-0.0126,120.4072,31.0977,-25.7410,-2.9618
-1257.8125,226.1264,-73.0731,-94.7831,-39.0790,48.4133,0.2547,164.8722,-67.9237,162.2645,-72.7255,138.4316,-318.7982,156.5427,-726.8663,48.9066,-110.1276,257.7453,-42.0239,217.4267,-75.8292
-1250.0000,121.1299,-72.2440,160.4644,-38.2491,119.5361,-1.8790,53.5119,-70.3700,49.0315,35.7552,182.8193,-275.1736,153.6874,-619.5204,119.6832,-38.4320,-23.1043,29.6542,-98.6035,-3.8862
-1242.1875,-47.2977,7.1376,168.2086,6.1323,-19.7904,6.5379,59.7434,-25.2678,19.3621,-30.2115,95.9349,-159.5595,88.3786,-463.6288,17.0109,-67.1815,231.5879,-33.1124,84.9170,4.6041
-1234.3750,185.1916,-41.5252,-138.0583,-42.5282,151.8289,-42.0923,91.5779,-74.2109,79.6284,31.7843,84.2353,-235.0693,112.0115,-512.7929,41.2928,-4.9660,111.2035,-10.9172,35.3623,-43.9406
-1226.5625,-103.2730,-13.1372,328.6898,-14.1391,66.4901,-52.6701,-3.5059,24.8965,-42.0384,130.8230,125.8898,-152.8610,63.6939,-413.9092,-8.3787,20.2907,-1.1100,17.3241,-76.1162,55.5638
-1218.7500,70.9640,-49.0546,-74.8720,-14.0493,31.8640,-13.5524,92.2898,-9.2907,69.9938,-51.4211,47.5979,-145.5972,66.0849,-338.3304,-43.3442,-87.7448,209.2397,-53.7226,168.0811,-15.2279
-1210.9375,102.1642,-51.9684,67.6004,-52.9575,136.2253,-55.4302,50.7191,-14.4710,27.0157,91.3378,118.5444,-183.2677,97.4671,-380.7509,24.6868,-18.7752,-110.4079,14.2330,-12.7173,16.9897
-1203.1250,-89.5639,-65.8264,195.0749,-66.8186,-65.3567,-36.2621,92.0171,40.3892,81.1039,35.1335,57.7446,-150.2865,3.9015,-326.1296,4.7757,-36.7591,83.9997,-36.7676,182.5448,72.2501
-1195.3125,157.4885,-99.8796,-240.6218,-100.8764,11.8546,-104.2922,171.4229,9.0539,269.9879,-33.2544,1.9649,-204.2892,46.1254,-320.7101,83.6750,-31.9328,50.1787,-69.9643,219.5800,4.3211
-1187.5000,-69.5256,-43.9796,215.6011,-80.9824,-8.9986,-87.3717,59.5921,24.6682,137.8366,19.3034,52.3247,-125.0172,-11.7040,-231.3356,135.5227,-15.1629,-106.6662,19.7915,-42.4142,94.3399
-1179.6875,-60.1801,0.2730,-100.8444,-35.7373,-33.4857,-38.1012,158.9318,-35.3723,298.0383,-76.7818,-49.5029,-76.6781,0.8210,-181.6259,37.7303,-111.0384,113.8091,-40.0971,212.9287,34.7059
-1171.8750,4.9331,-3.6697,-105.4523,-4.6891,72.8144,-42.0292,87.4244,-39.6081,293.0296,102.9454,-16.7202,-95.9552,33.1368,-223.1175,69.7384,-43.1117,-136.9165,26.8110,-38.9312,30.8824
-1164.0625,-229.9812,8.3369,121.8377,7.3107,-102.9330,3.9895,48.0208,6.1023,225.9953,110.6187,-64.0099,-18.9146,-68.5990,-104.6686,39.6968,2.7588,14.3205,2.6607,7.1773,112.9991
-1156.2500,79.2882,-33.4593,-322.6454,-34.4941,-70.4769,-36.7982,94.1011,-34.9786,332.1594,107.5120,-105.7563,-81.4020,-37.1352,-108.0245,72.8723,-1.1571,42.7239,-39.2853,70.4579,36.3225
-1148.4375,-35.9131,-76.7136,103.4161,-42.7550,-84.4874,-49.0398,-34.1482,61.4939,170.8902,239.9546,-15.8743,-77.4803,-87.1268,-85.8323,94.6024,95.4738,-213.2979,-11.6932,-184.6845,133.1971
-1140.6250,-73.5831,-78.4762,-43.0581,-43.5258,-194.9830,-48.7930,11.2426,61.4621,206.1421,166.9041,-80.6584,-46.6118,-87.6115,-13.1534,-16.1510,58.6090,30.1606,-48.6057,57.6666,96.5652
-1132.8125,70.6623,-109.2856,-185.5409,-74.3490,-43.5413,-43.6007,-6.2435,104.3832,174.3339,245.8101,-54.4515,-89.4415,-46.1512,-44.5227,25.0505,101.7018,-246.4386,24.4311,-78.0380,65.8917
-1125.0000,-206.0392,-68.0459,146.9834,-69.1248,-151.0455,-3.3661,-49.9630,143.3465,29.5940,247.7535,-50.8535,-18.7904,-80.6335,31.1529,27.3003,140.8370,-170.9696,30.5097,-73.6647,142.2578
-1117.1875,40.0991,-32.9598,-325.6222,-34.0560,-109.6833,-36.2888,13.1641,75.1601,107.7036,142.5662,-131.3596,-2.8258,-76.2612,72.6665,-5.5890,35.8230,3.3175,-4.5576,66.5361,37.4755
-1109.3750,-0.2777,-1.3757,-2.7216,-2.4911,-43.8334,30.2869,-102.8371,104.4761,-46.6771,245.8763,-47.0296,28.3486,-120.3940,64.6740,23.0270,65.2958,-246.8772,61.8734,-218.7389,104.1927
-1101.5625,-116.0745,58.7530,-49.3137,57.6167,-201.4180,57.4000,-91.6694,94.3331,-57.4817,125.7308,-116.5186,98.5928,-130.9692,128.2186,-23.7928,92.3140,-11.5288,-18.1507,-53.4580,94.4484
-1093.7500,45.4549,46.2274,-282.5125,45.0720,-31.6554,45.8587,-91.5623,45.5400,-34.9442,76.9495,-113.5917,67.5953,-70.1975,116.1090,-0.2513,153.6858,-165.8431,39.1750,-173.8377,46.0587
-1085.9375,-237.4605,80.2499,151.8000,79.0699,-110.3459,76.8621,-180.0766,113.2920,-186.8338,107.7006,-59.0060,131.3644,-75.8754,146.5448,-42.1567,185.5986,-202.5804,108.0382,-280.6310,151.2070
-1078.1250,-0.4146,37.2115,-256.9313,107.0084,-115.0722,109.8042,-84.4657,71.9948,-81.7757,-7.5869,-104.2527,123.9785,-44.5972,177.9161,-84.0992,70.4694,-0.3938,65.8521,-43.4837,73.3030
-1070.3125,-22.2400,50.3158,-62.4873,84.0915,-30.6574,120.8886,-156.2759,82.8519,-181.5698,4.2747,-41.8936,125.0729,-33.1704,189.4310,-0.8940,192.4900,-304.0384,113.8094,-277.1693,121.5499
-1062.5000,-267.4854,87.9654,12.4661,122.7142,-175.6783,123.5109,-126.0309,122.2435,-143.7927,-29.3265,-131.0612,198.7278,-105.1836,264.4854,-72.1256,158.0443,-91.1262,45.3127,-99.2925,124.3319
-1054.6875,-25.8411,50.5180,-355.6363,84.2341,-30.7931,87.0283,-71.5294,85.5309,-35.1257,-31.0256,-143.8751,119.0693,-33.2951,190.4367,-0.4443,84.4972,-165.3323,42.7160,-138.5394,51.0176
-1046.8750,-217.4400,69.8137,100.9876,103.4987,-87.1613,103.2848,-143.1825,138.5582,-164.6855,23.0061,-58.2295,161.7887,-52.6563,207.1372,15.9943,63.6813,-251.7569,132.8559,-260.0027,141.4432
-1039.0625,-88.0684,59.0510,-237.4513,92.6994,-95.5608,95.4751,-21.2705,93.5242,-28.2814,-59.0059,-143.7648,145.8021,-98.0571,197.7738,-66.5955,-54.1819,52.7470,50.9459,44.4722,59.8110
-1031.2500,20.3786,64.3827,-122.7507,62.9923,55.1299,63.7552,-91.5903,98.5926,-132.7684,93.0828,-45.1953,88.1192,-57.3641,92.5071,-62.0767,61.0517,-223.6413,126.1276,-161.9430,65.2809
-1023.4375,-258.0955,66.7483,97.9524,101.3173,-127.1180,102.0691,-82.2742,173.7036,-169.1716,131.2198,-82.1787,138.6286,-92.6102,130.2771,-60.4974,99.3222,-115.9709,58.3481,-19.2790,103.7848
-1015.6250,-0.5299,-26.8470,-363.2560,7.6865,-75.3075,45.4249,4.2255,152.8614,30.4746,147.4168,-133.6516,23.4820,-40.8023,73.0926,-8.8492,79.6375,-139.2806,35.6271,62.4143,10.3387
-1007.8125,-166.5298,-15.9909,46.9754,17.5013,-67.0483,52.2243,-87.7181,160.4563,-72.4083,228.0409,-76.8471,63.0467,-106.5383,116.3557,34.2546,123.3879,-306.1094,116.3475,-173.4133,91.3326
-1000.0000,-123.1566,28.2064,-161.4710,61.6552,-166.4196,64.3607,-18.8062,98.3895,48.0849,93.0164,-165.4333,108.6424,-168.9133,163.9482,-28.2732,24.4859,18.3959,54.4140,45.1061,29.6637
-992.1875,19.9984,32.1974,-193.0770,65.6008,-52.0039,33.2823,-61.9919,67.1287,53.3792,171.7953,-118.3283,77.3982,-127.4901,132.3347,51.0122,67.3834,-224.2929,58.2755,-161.5668,-1.2045
-984.3750,-233.1148,60.8797,89.9662,59.2317,-208.8796,59.8910,-112.8014,130.5564,-31.5961,161.2597,-129.4922,132.1976,-174.3629,195.4133,3.0091,93.9626,-126.2635,15.8221,-134.5085,62.6103
-976.5625,27.6733,41.4521,-367.0648,4.7506,-115.8444,7.3849,-6.7733,76.8824,99.3302,71.6349,-176.2045,74.6628,-118.3295,179.3902,23.9272,4.4412,-40.3572,-37.7360,21.4322,-26.6783
-968.7500,-38.4967,11.0693,0.9576,9.3123,-76.7737,8.9194,-92.7013,79.2541,-46.6787,147.0526,-82.5673,77.0080,-152.2458,180.4210,61.8990,79.9546,-246.3706,37.7411,-184.5452,49.0731
-960.9375,-102.0325,19.2787,-64.4569,17.4640,-141.0846,-18.9621,25.3029,14.2153,72.9365,46.0526,-126.5182,74.2223,-143.5525,152.0379,33.4953,-21.9457,41.2144,-61.1915,103.0848,21.4083
-953.1250,71.8731,-53.0688,-210.3730,-54.9433,5.0498,-55.4055,47.8143,-22.3800,145.9952,9.4929,-71.8840,-24.0187,-34.4071,78.0991,106.5587,15.5980,-136.7471,-26.6792,-3.8411,-14.8037
-945.3125,-177.8520,-56.0787,186.0228,-58.0152,-75.4637,-25.5120,9.4742,7.3669,28.4351,39.2721,-24.3782,9.2664,-41.9028,108.5078,99.9802,45.4764,-104.3348,-30.8349,-8.3728,52.3164
-937.5000,43.3731,-79.1597,-236.6203,-81.1530,14.9892,-80.6872,148.7486,-47.9379,156.8429,-52.9808,-68.1360,-48.1509,12.5627,51.8546,80.3778,-83.6929,116.9953,-89.0375,250.0332,-76.6216
-929.6875,-26.7211,-79.5451,91.4571,-81.6012,161.1369,-82.1755,89.8662,-49.5504,43.9665,-17.5494,39.8046,-56.2951,47.7296,13.9033,152.4840,-48.1778,-129.9489,-18.5500,3.1590,-40.8661
-921.8750,-124.5234,-69.6871,138.7457,-36.8081,60.5553,-71.4286,116.4343,-75.9339,54.3543,-154.8966,37.6260,-13.0452,95.1618,60.1947,51.8550,-111.4301,125.3658,-79.8136,187.5487,-66.8807
-914.0625,150.8202,-110.6804,-121.7646,-77.8685,205.1298,-110.5378,144.0658,-152.1718,124.8806,-157.0906,68.2359,-99.0029,165.7413,-16.3698,122.3841,-150.5410,13.8267,-85.9266,111.0787,-142.7490
-906.2500,-66.1149,-116.9759,310.3949,-83.2336,122.4028,-119.9534,68.0784,-87.7218,5.1266,-18.6013,121.6010,-89.2102,120.0218,-25.2326,150.6139,-85.9805,-27.9723,-91.3509,-0.6496,-77.9367
-898.4375,75.7263,-114.5304,-124.6903,-116.8561,91.4481,-149.6291,196.3036,-117.5299,196.1232,-86.3745,21.1279,-126.4830,126.0580,-56.3545,119.6104,-189.6825,219.9680,-160.0173,282.3665,-181.3860
-890.6250,96.0104,-128.6369,79.7137,-166.0329,222.9381,-165.8617,130.9154,-133.8891,142.5623,-28.7109,108.7524,-171.0365,146.5415,-109.0281,177.0537,-94.9480,-41.6155,-69.2337,21.8531,-160.3899
-882.8125,-82.3161,-95.4013,296.4244,-132.8738,71.7983,-132.7570,101.3756,-100.9123,102.3739,-142.7085,103.3310,-102.6508,106.3865,-40.3625,99.8504,-135.8824,203.1642,-106.1100,89.7156,-127.0658
-875.0000,221.6513,-107.8714,-44.5214,-110.4190,209.9690,-141.3633,136.2767,-220.6366,203.4862,-151.4041,114.5135,-159.5292,170.5331,-123.3979,126.9599,-218.5190,190.2266,-83.6897,41.8621,-209.4466
-867.1875,47.2787,-35.6966,432.1654,-38.3253,170.7822,-106.3332,15.4519,-222.7147,91.2661,-79.4662,196.5816,-81.1517,131.3326,-87.7791,88.7259,-183.5184,85.9747,-46.6370,-167.3041,-137.1931
-859.3750,123.9404,-28.5363,109.8409,-67.2449,106.6168,-97.3191,117.9016,-286.7990,247.0535,-254.5281,94.0742,-79.9858,104.1407,-42.1737,60.5117,-210.5217,373.7084,-145.5855,84.5242,-200.9536
-851.5625,236.8376,-91.1270,80.8074,-93.9177,188.6980,-125.0612,92.1585,-241.6336,219.0855,-209.3494,113.6603,-132.8340,75.1980,-71.3136,179.5499,-92.2884,135.7068,-137.2827,-83.3889,-192.4687
-843.7500,-22.1247,-67.6195,322.8297,-70.4946,-11.1086,-66.7134,66.9267,-220.3840,129.2352,-225.0920,83.0747,-69.4253,23.3623,-13.3565,163.6987,-69.9881,298.8343,-148.8905,10.8249,-133.9041
-835.9375,239.5714,-51.4669,-98.4644,-90.4324,119.7470,-120.7259,145.7493,-273.4921,223.0258,-315.1867,63.7357,-120.6234,117.1800,-66.7521,184.5156,-124.0399,314.5973,-203.8470,96.6721,-223.6943
-828.1250,-14.3367,-58.9212,330.6421,-96.9795,107.9940,-132.3505,55.4885,-212.2064,101.2211,-216.8973,132.7683,-100.1000,141.4031,-42.7443,245.7295,-25.6999,60.7998,-140.4117,-122.0436,-125.0955
-820.3125,-48.3058,-92.4841,112.6246,-130.6374,0.1659,-166.0887,152.2515,-172.0358,214.3314,-250.7251,45.1586,-108.8873,144.5418,-2.8421,211.8546,-95.4735,307.8923,-245.0749,161.1471,-158.6129
-812.5000,207.3136,-188.4474,13.2571,-191.7016,157.9357,-266.2366,129.5807,-124.2688,225.0374,-18.9626,110.0221,-225.1626,155.2807,-103.3297,222.5873,-11.6611,35.5872,-236.1400,28.9416,-184.5314
-804.6875,63.2188,-192.1696,337.0923,-195.5235,3.9611,-235.1447,72.2517,-57.2672,108.0200,-25.9681,152.7722,-182.3321,112.2735,-36.5689,178.5773,18.3793,67.5633,-238.9651,61.0259,-117.2209
-796.8750,283.2406,-182.8019,-127.9513,-221.2540,54.0983,-258.9684,188.5840,-154.1672,231.1001,-195.8625,84.0326,-219.8727,162.3649,-59.7073,228.6806,-41.4847,216.6255,-265.6866,245.1974,-213.8176
-789.0625,131.6116,-193.0859,190.3654,-231.6422,114.5752,-235.4489,87.3286,-130.7258,34.5406,-62.4147,141.7657,-201.6005,148.8022,-36.4937,289.1404,-18.0218,-39.9304,-169.0686,-10.2407,-153.0746
-781.2500,64.8212,-118.5811,121.4407,-192.2404,46.8714,-193.1459,121.3686,-125.4905,39.8090,-130.1805,84.5072,-135.2920,117.0491,5.5087,147.4205,-86.7761,280.3102,-236.6518,204.1371,-184.5515
-773.4375,297.4645,-167.6404,-111.9904,-206.4052,181.6133,-205.4097,138.1730,-101.8005,137.5432,-69.4911,114.2932,-210.9638,178.7479,-81.0382,172.1743,-62.0749,90.9913,-214.7930,119.9634,-233.5794
-765.6250,15.2331,-168.6102,323.6378,-207.4866,65.4482,-211.5930,75.7962,2.9797,21.4167,-1.7152,143.4292,-167.5251,99.5492,-50.4836,129.0369,-31.2869,54.8113,-144.8533,83.9255,-128.5270
-757.8125,147.3289,-176.2849,-159.4303,-180.2751,59.5972,-216.4904,175.7333,-75.9486,200.5924,-117.6479,33.3980,-179.7526,130.6587,-55.6258,87.2175,-73.2109,256.9168,-188.6121,287.1736,-207.1853
-750.0000,96.4148,-155.9576,79.5203,-160.0675,114.7405,-198.3948,78.7265,-93.8820,107.7697,48.4023,87.2320,-171.3528,111.7680,-74.7614,179.3999,-18.1516,-39.9515,-98.3774,-9.5514,-151.8509
-742.1875,-29.2082,-70.3944,130.6809,-74.6264,-53.8493,-109.0649,86.0996,-115.5752,87.2209,-83.3077,48.6891,-75.8050,91.1379,-22.6487,120.8414,-112.8560,187.4368,-117.9003,145.9956,-136.2866
-734.3750,233.8698,-54.1410,-180.4139,-93.4973,113.2657,-90.0508,142.2110,-169.5634,143.3609,-211.3132,59.5749,-115.4015,147.2103,-76.8340,177.9950,-129.8594,97.5176,-66.7231,128.2354,-190.0234
-726.5625,6.8168,-34.0409,277.3120,-38.5275,93.2237,-36.1992,25.3594,-79.7084,-97.6257,-121.4919,142.7436,-52.9106,127.1310,-60.1600,121.0065,-77.0317,11.4885,23.2922,-28.6379,-99.9275
-718.7500,117.1895,-29.5488,-46.5688,1.8358,64.6049,-28.9608,97.5038,-108.4614,-16.2019,-224.2755,79.9875,-52.3973,134.4568,-90.0892,-18.5673,-142.8163,262.8469,-6.2866,222.8842,-165.4458
-710.9375,208.8003,-43.8119,84.8347,-48.5584,195.2305,-45.4796,41.6426,-87.9623,-32.5305,-129.8157,148.2260,-89.9202,118.0287,-105.7610,76.1104,-85.3606,-33.5280,14.3819,-38.3194,-144.7186
-703.1250,-21.8934,-27.4398,282.8396,2.6839,-11.4813,5.6351,60.5501,-36.8242,-18.1861,-225.7300,111.1832,-8.3056,59.2645,-18.7849,53.4496,-108.2746,123.7691,29.6955,119.1641,-93.3628
-695.3125,175.2129,-77.2724,-170.3247,-11.2845,87.6095,-5.4608,124.8870,-85.8877,117.9637,-200.8431,52.1560,-69.7752,121.3004,-67.0046,42.6059,-119.3946,108.8541,50.8105,175.4427,-178.2111
-687.5000,-18.8654,-24.3095,248.2924,5.5403,102.4924,8.2295,-3.8224,1.8402,-88.0687,33.8222,112.2206,-33.7617,62.1374,-89.4159,19.5644,-31.7392,-84.2171,103.7123,-53.4348,-90.2747
-679.6875,6.2961,-0.1529,-18.9072,30.5527,56.6004,36.1043,90.9094,-44.2422,13.1068,-85.3207,26.0445,-6.4181,53.1850,-62.6318,-63.2613,-114.8989,221.9056,22.8177,217.8889,-136.1552
-671.8750,154.9921,-26.4523,-10.5115,3.1106,212.2561,7.5211,29.4266,-35.7735,-88.1676,-40.9259,106.9858,-43.8634,98.7854,-90.2947,-54.5255,-69.5238,-51.4158,136.4769,15.7757,-127.4914
-664.0625,-11.0193,18.4870,327.0894,47.9050,71.1783,50.1715,-39.0905,43.9337,-228.1656,-108.2943,140.2505,42.3553,30.6455,-10.7127,-121.5329,-63.9187,28.5432,146.3697,24.9538,-47.6033
-656.2500,293.4894,5.9150,-160.7782,36.1856,135.6156,78.3045,47.8084,-38.8600,-90.6657,-154.1465,83.3907,3.6111,59.0101,-20.6333,-93.0309,-146.8195,86.9916,63.7609,153.6209,-130.2227
-648.4375,105.6596,-6.0123,190.0035,58.1086,118.6899,60.0766,-52.7841,17.9867,-181.5072,12.6235,132.9279,11.8039,41.0282,-37.8917,-73.8784,-54.0925,-136.8623,85.7954,-69.0219,-37.2047
-640.6250,-19.2700,44.9032,59.6059,38.8685,-10.3617,40.6863,3.1904,-1.3358,-127.4841,-117.7857,43.3243,60.5034,58.9097,52.6987,-166.8616,-110.5396,126.1386,-38.3176,193.1973,-56.3586
-632.8125,175.0930,28.1168,-67.4390,-13.0759,119.8923,23.5884,-28.1573,-18.3647,-107.1651,-171.9002,88.0365,11.0107,116.0898,35.5928,-109.5339,-53.7020,-66.5502,14.8660,0.7230,-73.2180
-625.0000,-79.2137,55.6251,323.7769,14.2722,-3.5470,47.7763,-96.5327,41.8935,-192.5179,-74.7381,101.3965,64.4681,29.5775,59.7841,-157.8979,43.4058,-39.8949,42.3356,-42.4035,24.1991
-617.1875,150.1566,37.7712,-132.3420,31.2596,55.6782,32.5962,-21.3360,-9.1995,-60.2121,-14.9265,30.3522,34.4653,51.7188,44.6229,-173.5922,-44.8388,84.3958,-10.5471,82.1124,-63.7458
-609.3750,88.0809,81.4582,167.1032,39.7855,134.4438,37.9515,-144.7746,-4.7447,-238.3448,99.4260,100.1956,60.8893,20.4092,50.0199,-130.7335,33.4516,-152.7232,68.1060,-225.7850,14.8466
-601.5625,-35.2000,168.8822,147.2510,127.0462,-32.0227,92.0422,-118.7801,-24.5497,-220.7043,-67.4806,19.3339,165.8435,-36.1396,140.1638,-186.1099,-23.5232,109.9145,-55.4979,-32.9074,32.1651
-593.7500,216.2590,174.0515,-176.8058,96.0498,11.2670,60.8725,-123.1415,-55.6067,-105.3218,-61.6465,-9.1323,119.1018,-29.9356,109.0663,-143.7295,-17.7592,9.3063,-15.3504,-133.2761,1.2290
-585.9375,-59.7540,212.7168,188.6069,135.5473,-135.9432,96.1940,-210.9846,16.8245,-214.4183,84.6567,-7.7690,171.1132,-103.2269,108.4713,-143.8445,54.4760,-55.7599,23.2881,-233.0956,110.7707
-578.1250,49.6662,146.7726,-244.5745,104.4329,-164.7288,103.9001,-88.9972,-12.3549,-61.1121,55.3535,-114.1751,131.3605,-96.1087,115.2684,-135.5385,-11.8970,123.5620,-7.6695,17.4836,44.6993
-570.3125,37.5896,100.3220,-75.2239,56.8136,-106.0177,51.0983,-142.8873,45.9624,-148.3038,223.5280,-63.8717,92.1453,-110.4931,100.5766,-40.7314,83.2098,-168.5838,50.8688,-169.4089,103.1183
-562.5000,-116.3860,120.9187,54.1315,77.2355,-232.2400,108.3350,-125.5951,103.3114,-164.4197,133.7228,-85.7996,139.3265,-163.8180,120.9346,-129.8692,66.3351,27.3487,71.4525,-8.2197,123.5626
-554.6875,89.2383,115.1134,-314.8650,72.2532,-87.8498,106.1642,-76.5862,64.2539,-56.9411,94.5074,-108.9306,101.2674,-92.5414,81.8924,-131.3903,27.0485,-48.1193,101.6367,-13.4387,47.6018
-546.8750,-164.4713,141.9499,111.7719,133.9105,-137.8107,128.6301,-176.0159,123.8378,-215.7890,190.9182,-67.4511,162.7691,-142.6114,104.5058,-108.2549,123.3863,-160.8921,163.4575,-195.9589,144.2724
-539.0625,-119.8420,116.0716,-206.3029,107.8545,-161.4449,141.3757,-62.9804,99.7139,-92.3207,129.6251,-154.2308,147.0398,-129.3696,117.4139,-131.8083,25.0110,59.6292,102.5732,59.8260,83.2252
-531.2500,-35.7112,94.6932,-118.8398,121.2924,-1.5881,117.6121,-131.8824,76.0855,-152.3562,215.8156,-74.2065,123.3096,-78.6285,93.8314,-80.8670,75.1219,-242.3223,151.1798,-206.8620,96.6712
-523.4375,-157.3248,147.5058,116.7787,173.9228,-167.5178,170.0385,-216.3079,91.6401,-246.1731,158.1699,-64.5378,224.2304,-136.6772,219.4497,-211.7201,53.4065,-84.0296,133.9762,-188.3099,149.2943
-515.6250,161.3770,149.6143,-281.2653,140.8433,-88.1337,174.7517,-171.9856,23.4938,-166.6943,15.8156,-75.2197,178.1479,-93.4231,188.3693,-206.2557,-15.0151,-11.4435,136.0746,-150.4644,81.2107
-507.8125,-50.0077,183.6167,152.5873,174.6556,-94.8528,168.3539,-262.5574,54.2410,-283.2982,119.3354,-28.5401,218.1019,-173.2680,182.1923,-174.8875,88.4398,-187.9106,205.0580,-362.6683,185.0110
-500.0000,-53.3503,179.6048,-69.5795,170.4514,-206.5451,165.9368,-183.2856,50.9732,-210.8819,42.8444,-113.4552,224.0913,-175.0972,216.0064,-176.4970,48.8745,89.6237,95.0370,-118.8633,145.7910
-492.1875,97.2054,153.4908,-169.8000,144.1394,-48.3414,139.4085,-195.5383,24.6064,-236.5762,127.2463,-73.2442,167.3035,-128.0300,153.7272,-129.2034,96.1971,-145.9245,139.9086,-250.1447,119.4663
-484.3750,-152.9480,183.6151,115.1856,138.0638,-240.8772,130.1143,-233.6313,126.4778,-281.9933,154.8784,-98.6000,221.1245,-209.7020,218.6999,-173.6580,160.7524,-45.1891,99.0138,-184.1237,184.3669
-476.5625,100.0089,154.8240,-387.7080,110.0744,-192.2924,141.9030,-107.1646,101.4439,-49.3043,92.6165,-178.4780,171.5129,-198.2684,192.7730,-198.9891,98.4012,31.6316,35.2205,33.9931,85.3572
-468.7500,-76.1296,117.9300,-23.6909,107.9764,-158.8124,99.5803,-184.4863,170.2988,-126.7034,234.2274,-110.9272,153.4847,-201.9276,151.7520,-129.4145,166.9219,-214.6055,104.3228,-211.9552,154.2353
-460.9375,-159.0666,104.1746,-148.5563,94.0189,-283.1571,122.3957,-75.9330,193.2843,-28.9339,109.9567,-172.3792,147.5561,-178.4228,137.8745,-105.6775,78.5793,53.3225,55.5734,56.2578,140.2428
-453.1250,53.8480,71.2680,-328.5211,60.9080,-131.6519,89.0550,-75.5853,160.1178,-25.3288,113.5296,-140.9008,79.1949,-138.0715,67.8538,-28.0841,119.0793,-118.8929,128.6710,-80.6725,107.0974
-445.3125,-178.3999,119.1550,84.2782,108.5853,-232.3432,97.4999,-153.1331,205.7409,-198.8997,158.8763,-88.5326,153.5238,-164.9165,113.6355,-91.6850,164.3482,-176.2624,176.5534,-101.7530,189.7332
-437.5000,-37.8723,118.7818,-352.1619,73.0005,-154.2668,101.6796,-47.4295,172.1030,-47.7173,88.9730,-172.1172,128.1364,-124.0012,118.1646,-160.5197,94.3546,-0.8959,70.1924,108.9138,83.1111
-429.6875,-66.5518,88.2103,-90.7837,77.2119,-76.3949,67.6530,-128.2419,212.2588,-116.7266,275.8512,-89.6977,104.7238,-120.2861,84.5035,-119.5529,171.1421,-275.6978,110.6240,-130.5877,123.2822
-421.8750,-168.2339,126.5782,-51.4990,79.3611,-220.5509,69.5619,-100.5717,214.3541,-76.7590,203.6642,-130.0473,143.1151,-154.6105,123.7899,-189.6237,135.8600,-25.5341,76.9972,47.8839,125.3845
-414.0625,95.2830,108.1435,-397.9696,61.7058,-88.5052,17.6635,-46.1125,162.6497,18.4075,151.6731,-133.7027,70.5232,-95.7365,35.2770,-130.4869,83.7771,-79.1731,94.5734,31.5566,36.6871
-406.2500,-157.3771,100.5041,68.3292,88.8479,-135.6549,79.5567,-112.8983,187.7330,-138.6088,213.4535,-74.7537,115.5469,-143.0539,60.5711,-141.5552,145.4654,-155.9650,121.9433,-44.9235,98.7734
-398.4375,-72.8059,44.0538,-280.1738,67.1811,-152.5798,97.6424,13.9377,133.0088,27.5735,84.4258,-157.3488,89.0766,-124.1617,79.0614,-158.4162,53.3414,104.4355,65.5190,215.8036,7.0485
-390.6250,-45.5048,35.3470,-106.8901,58.2560,20.2391,87.4712,-47.9953,122.0392,-92.4990,147.1326,-70.2325,64.6701,-97.5214,32.3135,-95.5235,114.9518,-149.3840,161.8400,-38.6853,33.0706
-382.8125,-225.5551,64.2289,68.9445,86.9180,-170.3255,115.8885,-52.3430,150.6616,-98.9498,102.4159,-98.5393,138.3232,-141.2720,134.1649,-139.0241,107.1423,20.4252,120.7514,97.4617,61.6740
-375.0000,95.5054,33.2100,-362.0782,55.6776,-50.7790,87.3971,4.8836,86.3904,20.6848,110.7936,-118.7503,62.0486,-95.9226,70.1143,-130.4231,115.4308,-43.6711,125.7673,138.7033,-39.6231
-367.1875,-105.0185,76.5880,83.2811,98.8288,-81.8351,92.2990,-122.8043,201.5157,-120.2622,262.5486,-40.8339,100.1938,-126.1715,38.4672,-160.4266,156.1003,-210.3234,204.1707,-97.6074,38.4698
-359.3750,-53.1589,58.3054,-190.0272,115.3178,-61.5207,111.5363,2.9436,184.9835,10.1704,97.6499,-115.7127,109.1880,-143.0610,58.1618,-213.0692,29.1045,53.3658,114.9264,166.4348,-15.0972
-351.5625,87.9905,22.3242,-154.9910,79.1069,49.0875,110.0714,-56.8368,146.7446,9.9095,170.0327,-60.4600,68.8688,-143.6562,57.1677,-140.4046,100.3940,-192.6300,149.9815,-80.2154,-16.3618
-343.7500,-170.8690,78.2940,157.9473,99.8457,-114.3446,128.5470,-102.1937,165.4378,-80.3828,151.3362,-70.4757,137.6185,-197.2951,113.1273,-156.7863,118.6119,-30.6430,134.9782,-57.8826,39.3073
-335.9375,73.2851,75.2604,-317.0864,97.5759,-1.7648,94.0155,8.0129,57.1271,69.3145,79.6398,-124.2042,78.6666,-121.9293,42.0850,-81.1583,46.8299,38.3349,97.9769,46.4417,-69.0218
-328.1250,-91.3100,85.4716,93.1290,106.5533,5.0559,136.7293,-91.6243,100.0613,-70.7265,159.1766,-47.5724,92.0114,-150.3143,12.2969,-37.2839,126.2851,-161.3959,142.2149,-187.9388,10.8956
-320.3125,-90.3671,85.1745,-52.1864,106.0212,-103.6083,137.9317,-17.8891,101.4872,5.7487,13.2093,-96.0989,110.6609,-149.1914,50.0021,-144.9006,17.2286,156.3737,71.9574,94.1926,-24.6970
-312.5000,62.5664,25.8740,-150.4588,81.4882,93.7237,76.1311,6.9060,39.9172,55.2097,24.2382,-40.7990,23.8565,-63.0719,-47.2913,-21.5236,-7.8315,-42.8476,82.7018,-69.6665,-49.2835
-304.6875,-210.2754,67.7674,221.4252,53.1480,-12.7384,42.5220,-11.3564,80.5454,-51.1144,64.4501,-42.1533,62.0720,-131.7499,-7.3777,56.0456,31.2956,-0.8406,19.6418,-61.2749,27.3153
-296.8750,37.5843,33.3542,-249.9778,18.5000,67.5156,-25.3929,108.2796,-24.1215,140.2673,-77.6253,-94.9040,8.8290,-52.7265,-1.7623,62.3285,-36.8796,177.8457,-49.7122,117.8072,-77.3899
-289.0625,-14.7615,14.7498,94.4290,-0.3478,119.5593,-11.5129,7.2067,-9.9946,45.4556,-26.9221,29.2483,-19.7573,-0.9088,-60.3333,77.4067,13.7284,-51.6325,36.7255,-145.2789,-26.2982
-281.2500,-39.8083,-11.6041,68.0491,8.0543,20.8733,-1.3841,86.3631,-73.6278,55.9001,-164.9978,13.5083,-1.1442,10.1683,-12.6604,15.7375,-124.4305,275.1514,-59.5881,145.8974,-52.9672
-273.4375,246.0320,-44.0632,-146.3818,-59.6425,211.0888,-69.3558,139.9138,-141.3589,100.2285,-196.1859,84.6465,-104.3361,127.1478,-117.0852,95.9713,-155.6936,103.8342,-56.9905,114.9692,-120.7266
-265.6250,27.5933,-52.8302,318.8566,-68.6480,125.0076,-83.6338,87.6131,-118.4012,14.2775,-172.6998,147.5259,-80.4559,76.8352,-93.8101,119.9023,-133.2745,61.2498,-29.6994,37.7814,-23.7938
-257.8125,190.3285,-101.4519,-96.7477,-82.5092,152.0979,-94.7728,211.0975,-166.2976,151.4767,-331.0668,88.4428,-105.5747,140.6796,-67.3898,72.9912,-218.7081,259.7992,-79.2541,306.7353,-108.7115
-250.0000,173.0573,-121.0708,138.6744,-66.3720,240.1787,-80.9148,112.6768,-188.1906,55.6760,-243.4446,171.0431,-113.9636,155.5113,-89.9632,125.0799,-168.1520,-4.6157,7.1806,7.7141,-57.6258
-242.1875,-7.2257,-56.7477,240.9965,-37.2898,160.2200,-52.1164,149.9395,-159.1445,49.8534,-361.8819,131.4524,-48.9161,111.2973,-60.5909,45.1272,-211.6589,236.9361,-33.4448,179.6714,-28.6008
-234.3750,266.3342,-100.5789,-95.7893,-82.3663,302.1172,-95.4745,220.1514,-239.2447,154.8767,-369.4566,147.3430,-141.8464,215.9322,-140.3741,113.0240,-220.3141,158.3285,-78.2155,206.4697,-108.7179
-226.5625,16.0055,-106.3142,335.5020,-88.3474,219.1092,-106.7380,151.9305,-175.2479,72.0163,-306.9483,216.2502,-133.6847,243.6713,-150.0581,177.0213,-192.8894,83.8559,-83.8924,62.4108,-8.7413
-218.7500,129.0044,-135.7554,-22.9200,-118.0348,155.4212,-171.7088,275.4085,-239.9523,228.4622,-408.1475,125.7906,-168.8709,252.7160,-141.4451,223.3326,-295.1673,372.6717,-183.2662,316.6480,-73.4688
-210.9375,226.3320,-144.8416,76.0445,-162.3676,292.0714,-182.3258,207.7021,-288.3045,182.2443,-273.0083,186.0616,-216.0689,242.1079,-188.4743,323.9874,-270.1021,117.8587,-157.2872,27.2496,-47.8392
-203.1250,39.8850,-86.7352,318.1633,-138.5046,93.9322,-124.7472,152.8394,-230.4668,94.2393,-289.6888,170.4280,-138.8946,153.7117,-130.3082,198.8390,-286.8480,283.2687,-169.1104,122.0821,9.9815
-195.3125,297.9839,-111.0815,-109.1319,-129.0947,145.3535,-148.6190,177.7091,-216.0811,182.7740,-312.8153,123.6590,-173.7923,168.8661,-153.5929,140.2454,-273.0429,260.2117,-158.3814,170.4554,-49.6407
-187.5000,6.1334,-122.3797,314.6099,-105.6369,90.8178,-92.4471,63.8017,-87.6456,17.3734,-147.9093,157.6193,-131.3328,114.0684,-133.8233,122.7040,-72.2044,38.2440,-63.6101,-15.0816,78.7846
-179.6875,44.1182,-84.8813,23.1293,-103.3827,-15.8999,-126.4792,146.8547,-12.4119,132.7854,-145.2143,55.1545,-107.3879,81.0710,-94.2628,52.9748,-106.5722,217.0688,-133.0369,269.1819,45.0058
-171.8750,269.3340,-109.1345,-75.0600,-127.8801,107.6244,-152.2599,84.0751,-0.9248,108.4458,-25.2709,106.0317,-166.3878,93.3175,-155.4483,102.4932,-59.6907,-85.8472,-85.2103,35.6974,56.4863
-164.0625,25.1276,-72.8437,251.2526,-91.8338,-79.2974,-83.4968,-18.3776,-3.8997,-4.3182,-102.7828,126.5028,-77.3372,89.1196,-49.0842,-10.4367,-26.2673,21.8093,-84.8457,3.7935,162.5070
-156.2500,230.1679,-150.3100,-193.1607,-134.5444,27.0480,-124.4954,124.0575,-118.6225,176.1680,-218.0284,72.0646,-158.1352,160.1792,-89.4763,58.8948,-68.5920,85.6926,-127.2330,174.1277,84.7820
-148.4375,80.4987,-231.4854,233.7320,-179.9641,87.6812,-212.1994,87.2528,-59.0415,88.9640,-84.9830,177.5624,-215.5831,183.5401,-140.5688,230.5198,-9.6243,-169.0904,-67.3316,-45.2002,144.3593
-140.6250,-14.8872,-223.4209,134.8377,-208.1437,25.5825,-202.6677,189.7308,-49.2152,175.0302,-185.7009,115.8532,-210.2852,194.1594,-129.4244,168.4031,-73.4148,156.3826,-165.1851,244.7391,81.1808
-132.8125,252.3552,-203.7080,-24.3618,-188.6747,236.1286,-214.4875,198.1141,-98.7391,200.7398,-234.7698,179.8089,-238.2032,257.4258,-177.6311,193.9411,-123.5587,37.5087,-144.3850,126.3279,-4.3374
-125.0000,14.4642,-161.1487,384.2469,-146.3591,93.5262,-137.4601,125.3154,-93.4183,58.3226,-232.0059,196.6689,-177.6141,151.5494,-173.9865,198.3285,-82.8686,116.5185,-102.7483,64.8007,72.9843
-117.1875,188.1360,-165.0461,-93.5740,-151.4961,131.4944,-174.8853,249.4139,-131.5486,244.4627,-268.6896,106.6583,-215.0685,189.2265,-209.8061,163.2768,-157.6246,254.0529,-176.5558,308.8092,-37.1419
-109.3750,111.0921,-208.6452,191.9229,-194.3343,233.7495,-221.0114,180.6294,-104.3785,124.9116,-59.0845,176.8736,-245.8117,180.1967,-219.3230,228.5220,-57.0867,-34.0850,-115.0671,92.1420,-9.9644
-101.5625,-12.7176,-157.0508,209.5748,-177.9787,104.2217,-203.9431,212.9608,-87.0202,106.5877,-189.2950,129.9586,-174.9846,161.3787,-129.6459,135.9787,-114.3628,194.9770,-168.3873,320.6895,-29.5954
-93.7500,222.4013,-171.5085,-131.7752,-192.6783,242.6412,-215.9302,268.9869,-96.7081,208.2054,-200.5514,93.8076,-237.8862,152.5106,-213.0213,237.3887,-87.6836,76.9819,-147.7581,274.1797,-113.2653
-85.9375,-42.1246,-154.6214,285.1965,-142.0361,108.4094,-202.5712,200.8519,-48.0487,148.1937,-78.4753,89.7240,-171.4030,17.9937,-163.0519,251.1417,-2.6667,-11.6293,-96.7901,186.0612,-27.5881
-78.1250,56.3684,-164.7397,-124.8333,-186.3985,67.1986,-173.2201,306.0146,-53.3922,328.1860,-121.3934,-4.2315,-199.6430,49.4852,-169.0957,208.9029,-119.6468,157.7371,-140.8220,425.9274,-106.9101
-70.3125,-0.0122,-222.7112,-3.6779,-208.6133,152.1298,-199.7210,261.5423,-43.5826,339.3268,34.8308,38.4432,-239.4937,97.1253,-194.9854,293.8163,-73.4830,-180.7301,-57.7095,193.9561,-60.0752
-62.5000,-228.0164,-206.3445,48.7811,-192.4888,-51.5747,-183.8819,256.9162,9.5680,356.8422,87.3935,-47.8377,-191.5496,41.1292,-142.5334,201.0890,-57.9794,48.1602,-112.2497,352.3567,-43.8992
-54.6875,61.9147,-199.0320,-378.7680,-221.4176,72.6766,-209.0956,288.9695,-52.3292,481.2968,135.9136,-83.3742,-242.6630,91.0878,-166.1405,214.3161,-83.5171,92.9853,-174.8391,327.6917,-141.7632
-46.8750,-98.0990,-114.6754,109.7190,-137.2976,10.9666,-162.2593,127.9438,-41.1834,271.8122,219.4744,-13.8157,-146.9799,-7.9039,-118.7004,189.5850,-73.0126,37.8985,-125.3905,62.1106,-57.5800
-39.0625,-17.7392,-0.9780,-173.4572,-93.8357,-50.3733,-114.0802,183.0078,-140.6899,321.6889,-27.6077,-98.5240,-77.0061,-32.5380,-69.9203,91.2151,-136.1575,329.1405,-152.5922,282.8652,-120.0490
-31.2500,70.9437,-18.9306,-156.2411,-42.0225,77.6231,-60.5491,86.5322,-160.8435,228.9126,25.6534,-33.1308,-77.0003,21.1754,-89.7913,72.2039,-82.9538,30.7425,-64.4462,20.9719,-103.1568
-23.4375,-130.6518,23.8104,68.6258,0.4853,-100.6732,-20.3219,22.8153,-83.3039,87.8617,28.5943,-52.1029,20.7943,-47.4044,25.0304,-33.1088,-43.0573,110.0659,-57.6053,100.8067,-25.5712
-15.6250,120.0440,-8.1551,-401.1713,3.2918,-19.6594,-14.7953,57.5847,-76.4563,132.1007,-2.1581,-93.8983,-11.6808,33.3218,31.1441,-25.1160,-37.8529,114.6656,-88.4585,140.9248,-92.6771
-7.8125,-76.1261,40.0271,10.1789,51.2471,-47.5041,66.8817,-90.9304,41.5424,-78.5042,78.2357,-34.3456,53.9094,-31.7994,39.4042,-52.9785,79.4910,-81.5561,29.8298,-124.7759,25.3687
-4000.0000,-79.3480,38.9659,-65.0410,44.1303,-79.7289,65.5038,-33.5729,29.4131,-14.7365,-7.2345,-57.7326,61.3621,-19.9751,64.2084,-73.8337,28.2513,83.1386,0.7596,18.1540,12.9016
-3992.1875,101.0470,45.6569,-206.4410,50.8382,72.6712,37.5459,-43.5849,37.0392,-7.3135,73.7830,-35.9395,26.0187,-12.7175,-0.7402,-31.3442,35.7505,-190.8756,41.7408,-116.8450,-15.9167
-3984.3750,-179.8722,83.0504,157.8879,53.2510,-40.2186,37.2885,-62.5235,109.3762,-82.2099,109.5186,-36.8160,80.0631,-87.7645,36.0125,-34.1546,71.9667,-152.2227,43.4330,-79.1757,55.9722
-3976.5625,3.9446,60.2001,-305.0338,29.4190,-27.3739,16.7861,75.9330,52.4670,79.6446,87.9956,-116.6817,21.0202,-37.0652,-21.4792,52.7704,-59.0725,-35.7895,-16.1283,142.2641,-38.3887
-3968.7500,-97.8134,29.7532,-11.5817,34.9856,9.8841,19.6818,-6.5176,127.9548,-30.1026,236.8812,-58.6228,25.4900,-71.9643,-18.5760,126.0943,16.2837,-310.9697,93.7152,-98.9078,36.6440
-3960.9375,-142.4924,22.4110,-56.9804,27.6557,-109.7702,12.6839,19.3393,157.5519,-2.7696,117.8720,-93.2631,52.1605,-80.7757,47.4304,6.5107,8.7478,-37.0547,50.6617,103.0101,28.7865
-3953.1250,89.7954,-23.9801,-252.4715,-18.7241,61.5264,2.6357,13.7115,111.0935,23.5296,107.7998,-55.4076,-20.2726,-19.6368,1.3907,67.8669,72.1550,-189.1683,73.5500,-50.0986,-18.1296
-3945.3125,-134.1660,35.3776,206.8089,40.6438,-29.4163,61.3341,-97.2376,95.3925,-176.4381,54.4929,3.3693,69.5420,-72.7496,60.1023,13.9805,93.3260,-164.5683,97.1930,-166.4874,75.7086
-3937.5000,113.8513,39.7409,-189.9005,45.0127,-23.3676,34.0325,0.4991,-5.3055,-22.4074,-46.8143,-53.7464,52.0610,-65.8681,69.8184,-16.9023,-44.5087,87.0463,-4.1707,48.1412,-25.4530
-3929.6875,150.9425,44.1528,67.4052,14.4289,50.7473,0.7776,-108.5917,-2.9615,-130.3156,101.9329,44.2844,23.7443,-63.9333,35.5781,20.2739,31.7050,-189.2964,34.5128,-229.1879,13.4245
-3921.8750,16.1189,52.6753,183.8622,-12.0488,-52.0396,-27.3766,-62.9250,5.4902,-123.1465,73.7849,24.4930,33.0145,-92.9060,44.4350,-9.4552,-33.9821,29.4546,-28.7014,-46.4422,21.4110
-3914.0625,299.6213,-13.4957,-140.4177,-78.2252,62.4722,-93.2301,-0.5855,-23.7658,29.3311,42.9227,34.5606,-72.8387,-14.5779,-21.4066,106.1031,-26.3820,-36.4641,-95.6252,-78.3741,-45.3128
-3906.2500,69.1387,5.3313,313.3152,-60.4044,1.9978,-78.0919,-78.8472,27.9768,-103.1993,58.0760,101.8653,-33.2835,-37.2496,-5.2523,118.6675,62.2235,-123.4163,-77.5480,-200.3285,42.9635
-3898.4375,215.7349,-22.7399,-46.8232,-52.4830,9.6184,-103.8548,27.0396,-35.1746,15.3627,-42.6707,35.1824,-61.5583,-28.8289,-30.9984,53.3229,-1.0695,130.7423,-141.3736,51.8280,-20.6562
-3890.6250,247.6102,-94.5691,59.2503,-89.3206,115.5060,-143.3744,-22.2592,-1.0795,48.1888,100.8193,98.1309,-137.3602,3.8525,-107.5047,122.2375,105.8872,-151.8554,-107.9502,-195.7601,12.9645
-3882.8125,40.2169,-87.6529,281.1284,-116.4139,-103.8507,-138.1520,-34.3751,75.7688,86.7515,30.0644,87.2993,-107.6164,-29.7172,-67.2645,49.9189,109.6083,-4.7355,-101.7705,-84.6264,89.3444
-3875.0000,289.7222,-82.8433,-153.1129,-112.6111,48.6936,-131.0352,29.6952,10.5112,131.2271,-35.7982,50.3001,-131.0990,12.6146,-95.1215,18.5012,44.2194,1.3055,-62.7009,-10.5631,23.6167
-3867.1875,89.5484,-33.7339,293.9453,-62.5094,56.5657,-83.6251,-104.3568,92.5465,-117.9966,119.6501,135.3276,-64.9891,-15.7482,-84.6885,-47.6123,89.1231,-230.3853,20.6764,-208.2226,142.1843
-3859.3750,62.3105,11.3269,46.9975,-18.4573,-7.6133,-72.2628,-24.4502,67.5297,38.7166,20.0450,31.1339,-13.2758,-42.1657,-37.3067,-147.7814,-10.0330,-10.1193,-4.9943,12.0690,116.7063
-3851.5625,133.7021,14.9837,-24.3879,-49.8064,102.8219,-68.3031,-31.9824,71.1019,77.0468,97.0240,18.6941,-41.8106,-76.9769,-69.3349,0.6514,30.3996,-287.2479,103.9281,-195.0175,119.8161
-3843.7500,-137.5141,62.0313,275.6769,-1.7615,-73.3299,-21.9523,-84.4503,116.0765,11.7735,178.4161,-2.2067,32.4414,-143.3869,-22.9675,-29.5078,75.2384,-205.0134,114.2537,-184.7273,201.3313
-3835.9375,128.0180,13.8255,-250.5128,-15.9746,-48.7351,-32.8578,-11.1570,69.7980,184.2611,241.5468,-85.7016,-21.0285,-118.0468,-33.8523,-41.9135,28.8125,-112.0081,65.3197,-57.6601,117.5928
-3828.1250,-36.7217,61.3118,87.9853,-2.4962,-78.4160,-22.0740,-130.0656,115.2123,45.4600,397.3774,-57.6119,14.3523,-183.9984,-23.0512,38.4001,148.0833,-345.3308,112.0831,-327.9066,199.5464
-3820.3125,-109.7786,96.4999,-96.7684,30.6793,-227.4015,14.4082,-57.2829,116.3283,81.3487,213.9094,-150.0454,73.4328,-184.2593,50.4487,37.4200,75.0561,-64.9611,110.5426,-82.4574,163.2055
-3812.5000,28.4986,95.9844,-282.2588,66.1508,-81.0759,53.1767,-61.0441,80.7342,80.5546,250.7348,-132.0053,45.3268,-111.2140,-21.7610,108.7463,76.3151,-276.2812,180.2930,-224.6910,127.1502
-3804.6875,-300.0150,157.6619,107.4876,126.8147,-170.5352,113.1347,-141.1143,140.3367,-154.0456,273.7803,-123.3168,162.1541,-162.9662,75.2154,20.2947,98.7790,-214.4396,241.2459,-233.7590,223.2955
-3796.8750,-103.5384,179.3349,-308.7565,149.4734,-107.9989,141.0851,-75.1149,56.9352,-91.6369,115.8145,-169.8718,160.7033,-100.7204,66.1922,-65.1543,15.2393,-50.5781,227.1891,-71.8070,139.4369
-3789.0625,-155.9336,165.0999,-34.9249,135.2234,-54.3312,123.1243,-178.2684,75.6220,-221.1183,244.9456,-87.3590,145.0769,-82.3637,48.2581,-11.4878,107.7966,-346.6407,282.2304,-333.7602,194.6671
-3781.2500,-283.5497,179.6631,-57.2339,149.7710,-187.8566,139.9618,-133.7135,92.1106,-205.8224,223.8869,-150.8295,185.8753,-104.2056,102.1151,-70.0190,87.1566,-120.9179,226.0762,-107.9307,173.7034
-3773.4375,-23.4302,159.9206,-368.8707,130.0124,-21.6696,87.4907,-98.5985,76.2864,-149.8093,243.5164,-143.3732,110.9446,-48.3445,12.6639,-14.8502,108.2009,-210.4794,241.6119,-163.3775,83.4276
-3765.6250,-210.4376,187.0163,131.3738,157.0953,-72.6110,149.8581,-196.8054,138.3038,-345.9510,194.9964,-49.3823,183.3734,-98.6253,75.0511,-101.8108,133.0956,-289.2260,267.0000,-243.0047,145.0022
-3757.8125,-76.0063,182.5561,-236.9048,187.6218,-74.1049,149.6660,-101.4082,64.7690,-200.6407,9.9218,-120.1809,190.6696,-63.4568,111.8871,-178.3169,59.4318,-48.5147,155.8317,-3.1655,34.0257
-3750.0000,-159.2404,136.3870,-66.9088,177.4391,20.7316,174.7620,-131.0374,125.5217,-250.0148,108.1440,-87.2813,175.8172,-75.9753,100.0077,-81.5126,120.0607,-303.5167,215.9580,-189.0234,58.3343
-3742.1875,-360.0290,148.6709,15.6015,189.7053,-151.9661,187.3038,-117.6791,174.7194,-275.9582,119.8207,-154.4801,221.0221,-139.0460,149.5663,-145.2553,132.1362,-81.0888,156.5371,-2.4573,70.0972
-3734.3750,0.0103,124.7489,-374.1051,164.7653,-28.8561,166.6328,-89.1350,153.7037,-188.0939,134.2780,-143.9998,151.7758,-89.3113,91.9164,-168.1951,110.9920,-175.8375,131.9068,7.9336,-25.3516
-3726.5625,-155.7273,111.0156,83.4042,151.0138,-84.5206,148.1468,-171.2989,208.8799,-281.0276,188.9488,-62.3170,166.5259,-144.3691,110.4515,-151.9143,166.0530,-329.4279,187.4801,-146.4967,66.3935
-3718.7500,-111.7266,86.0223,-198.2950,127.0019,-109.4387,162.4010,-40.8369,148.8071,-85.2115,55.3690,-152.6484,154.3511,-168.6830,124.7348,-176.8724,32.8592,-73.2713,126.7978,108.8331,5.8878
-3710.9375,-33.4439,97.2677,-151.7766,102.2323,45.9206,99.8945,-83.1260,122.9691,-148.1262,139.0304,-88.5879,114.5162,-121.7339,62.2500,-130.5655,79.9021,-271.8724,208.3623,-91.5740,16.6153
-3703.1250,-199.0152,179.6561,149.9489,184.6055,-55.5502,146.5273,-105.4647,132.2811,-286.9027,74.8522,-70.7325,209.5130,-187.6293,108.9007,-160.0972,53.0970,-85.3608,148.0818,-10.8544,62.4950
-3695.3125,46.4257,146.0383,-249.3321,150.9724,58.9856,117.1509,-11.1766,65.5871,-170.6697,-66.3409,-94.8033,148.4204,-109.5210,79.5422,-118.6270,22.2841,-12.8330,78.7890,95.8952,-41.6365
-3687.5000,-95.5002,110.0050,185.9898,150.9238,53.1573,113.3552,-93.0106,62.4885,-248.8327,-33.9243,12.6659,141.6651,-76.8029,75.7685,-14.5411,56.0728,-223.7470,113.0965,-150.7753,27.8220
-3679.6875,-121.3931,88.0109,-20.5870,127.9144,-6.6186,129.5990,41.6917,-32.5559,-88.9563,-238.4425,-48.6419,134.2610,-26.0316,92.0341,-74.3959,-39.0896,69.3780,54.4489,177.6079,-30.6665
-3671.8750,75.9451,41.2055,-105.9974,46.0937,165.8282,46.0245,38.1214,-42.4111,-62.8586,-212.7568,15.4878,34.7733,35.9514,8.4816,-12.0407,23.9354,-47.2969,77.9953,24.2095,-77.9713
-3664.0625,-91.0164,16.0908,269.3382,55.9675,62.9955,18.1369,4.9510,3.4319,-164.0611,-131.3576,73.5737,47.6310,7.6403,17.6160,-41.9734,32.6688,33.6855,17.2456,69.4798,-32.5752
-3656.2500,195.3222,-47.7298,-124.0149,-42.8682,183.4643,-42.4598,153.8547,-95.4387,67.0522,-192.6682,67.5214,-75.0773,92.6315,-79.9507,5.3985,-102.3125,109.9843,-48.2153,251.0630,-167.8860
-3648.4375,124.7054,-116.5644,242.6200,-111.7139,255.9617,-115.0739,106.3901,-94.3232,29.1812,-81.9771,163.4833,-138.0521,91.6288,-115.5309,151.7944,-65.2975,-133.7454,-46.6843,5.6254,-131.2079
-3640.6250,49.4821,-155.0054,202.7128,-150.1695,141.8603,-190.2983,212.6785,-169.8144,136.7106,-231.8925,99.3265,-151.4164,52.0242,-80.7170,111.6067,-139.8784,214.9078,-226.7536,318.5744,-170.1258
-3632.8125,270.8450,-212.9087,-40.6807,-243.0835,266.3207,-247.9840,257.6233,-227.7717,225.8204,-253.2776,119.1005,-255.4463,139.9824,-138.3682,235.9808,-124.9261,87.1174,-285.2754,260.0992,-228.5103
-3625.0000,0.8169,-235.2186,372.5648,-230.4037,128.4104,-238.0795,188.1191,-181.1355,87.5200,-280.0575,155.5813,-202.0786,112.5513,-54.4367,243.9764,-78.3772,134.8840,-237.1898,203.1960,-145.2982
-3617.1875,199.7438,-245.5819,-39.2122,-275.7806,194.4598,-243.2354,314.3611,-260.5565,264.1589,-432.8942,108.2320,-240.6584,179.0731,-59.5616,199.9238,-194.8900,335.6124,-283.1622,438.2591,-262.1437
-3609.3750,186.4206,-292.2560,239.6924,-252.4717,326.2429,-256.7091,257.4516,-274.2921,213.5031,-301.0334,214.8986,-265.6094,201.3063,-110.0079,221.5896,-171.7142,78.0194,-190.4425,214.0240,-239.3044
-3601.5625,39.4884,-261.5373,345.0592,-221.7697,283.4319,-223.7974,300.3087,-278.6315,208.2364,-342.7603,203.8241,-243.7153,195.9385,-151.0648,141.6691,-212.1389,319.8013,-265.3195,385.1720,-244.0616
-3593.7500,312.6321,-268.7744,82.4554,-264.0232,425.6869,-264.8447,324.8970,-318.9383,277.0344,-383.4578,245.8362,-319.9156,301.6298,-228.0805,209.8071,-253.5312,207.6426,-273.1529,307.3880,-321.7825
-3585.9375,86.0009,-281.8260,541.0799,-277.0831,369.1719,-282.7022,230.7239,-227.0563,110.0302,-254.9541,320.6727,-299.6957,281.5327,-208.9140,227.1600,-234.7197,88.6405,-216.7751,152.7763,-230.3071
-3578.1250,223.8043,-284.4344,172.1952,-279.6994,332.1101,-281.1160,336.3390,-262.7277,257.4778,-328.0070,256.7473,-325.9559,318.8900,-245.3038,152.9703,-344.4657,297.0894,-289.9467,431.6244,-303.3853
-3570.3125,270.8046,-341.9006,256.4309,-301.1765,452.2325,-306.3941,309.2500,-214.2724,231.0887,-205.9169,310.0066,-383.2927,329.4092,-306.5578,309.9458,-259.0772,-6.3187,-241.9761,197.6165,-255.3289
-3562.5000,81.2680,-317.9139,425.1783,-278.2039,252.8183,-284.2301,299.3562,-155.3802,216.1305,-295.3773,278.4776,-325.2020,276.3734,-247.3736,293.3850,-237.2402,158.7007,-218.5564,291.0258,-196.8201
-3554.6875,371.4684,-343.2270,31.6162,-302.5343,338.1111,-307.3764,342.5553,-215.8036,301.8818,-356.1601,265.9854,-388.0410,326.0419,-307.5037,268.5283,-297.7186,203.4394,-209.4441,336.1551,-257.6228
-3546.8750,128.0067,-303.2539,472.3718,-263.5742,299.7352,-271.2361,214.3166,-179.9345,152.9395,-209.6301,318.1982,-340.9452,288.0232,-307.3588,266.9877,-187.9042,32.4353,-170.0309,93.5569,-148.1326
-3539.0625,170.7392,-295.0905,188.3808,-254.4232,162.5634,-258.9092,286.0539,-241.8648,311.1883,-271.8945,225.1758,-328.3405,298.2061,-259.0237,203.6559,-249.8929,322.6257,-303.4199,348.1612,-210.4416
-3531.2500,328.8617,-311.5928,133.7139,-270.9336,291.7672,-275.2473,256.6615,-258.4579,367.8075,-177.8130,266.2109,-377.9660,317.7505,-312.3540,295.6850,-229.5441,59.1548,-249.4635,120.1307,-227.4167
-3523.4375,61.8753,-260.2044,404.9966,-255.5524,157.8912,-260.6982,248.8554,-207.1576,381.3222,-90.8134,225.0366,-312.7866,221.2009,-260.7933,272.6353,-252.2901,216.5418,-269.6087,170.9700,-176.4905
-3515.6250,287.6457,-314.0781,-53.9697,-309.4289,213.7713,-313.4105,345.3769,-297.1164,548.5994,-70.0756,160.2253,-400.5011,277.4089,-313.4904,328.3425,-268.2948,267.6856,-325.0121,291.5854,-266.8231
-3507.8125,159.9002,-300.5157,323.5090,-295.8722,224.1362,-338.6899,219.7838,-249.6322,374.3257,51.1143,232.6386,-380.5952,251.0803,-302.7587,374.5243,-146.8522,35.2400,-310.9606,23.6421,-182.7163
-3500.0000,171.8961,-287.2086,153.7995,-282.5698,90.2601,-287.2318,259.7021,-271.4002,351.7900,-118.9470,168.3050,-330.2704,228.5005,-213.2894,277.4623,-205.6653,365.5319,-367.1564,282.4523,-204.8579
-3492.1875,387.8772,-279.9608,14.0090,-275.3260,244.3547,-278.8355,193.9495,-263.2356,248.2237,-111.0745,234.9902,-364.9309,308.8815,-278.8864,284.3645,-161.5493,160.7796,-256.4110,77.2344,-234.0666
-3484.3750,123.9209,-190.6764,433.3137,-186.0410,148.5226,-226.4061,95.4830,-211.0277,42.7024,-59.1421,269.0272,-252.6097,250.3182,-226.4464,188.3457,-182.3819,215.0344,-238.6174,26.0361,-145.2282
-3476.5625,251.7683,-167.6032,-17.5684,-162.9661,213.4932,-197.1870,195.0179,-256.0316,180.9983,-141.4167,176.8478,-246.8750,277.5635,-234.2170,105.1429,-301.4298,344.1008,-250.0344,224.6576,-227.5977
-3468.7500,233.8651,-184.3472,290.7368,-179.7075,189.6948,-182.7881,83.0034,-167.8537,47.5168,20.4996,254.8091,-259.5259,218.0228,-256.8082,155.1618,-139.2839,45.3427,-162.2496,-4.5367,-139.7813
-3460.9375,175.8109,-135.2499,229.9613,-165.6103,18.7589,-168.5512,110.7754,-153.8393,97.8778,-39.7388,168.6025,-195.8796,121.3350,-168.5575,95.0530,-199.2854,305.4152,-219.6190,185.1005,-126.1129
-3453.1250,378.6841,-143.2695,-71.9421,-138.6289,195.7389,-137.4300,139.2531,-196.9425,201.1660,-83.0862,169.6107,-219.9678,187.5578,-211.4190,123.8666,-279.3960,157.3933,-122.1047,71.6590,-169.5620
-3445.3125,103.0739,-65.8060,371.6844,-61.1598,123.2420,-98.8289,35.0828,-158.5559,54.9578,-117.9194,216.8753,-123.7324,152.2907,-172.7928,51.2062,-203.0003,128.8252,-45.0882,-62.3092,-57.5173
-3437.5000,249.3099,-59.4960,-24.8114,-54.8467,95.5970,-52.3915,107.8920,-185.3231,138.6018,-218.9131,121.6249,-107.8289,124.8784,-125.3264,-13.5951,-230.7651,311.1151,-74.2283,154.5849,-121.6305
-3429.6875,213.8427,-57.9515,156.9199,-53.2982,166.2342,-53.7183,-6.4339,-113.8602,25.5050,-73.6641,170.8054,-109.2307,121.7317,-127.6241,56.8697,-85.2912,-4.3604,-38.1184,-161.2670,-50.5137
-3421.8750,-49.0789,-2.8684,211.2666,1.7902,-74.5624,1.4905,-4.2093,-58.8519,5.9398,-164.8571,56.1719,0.8525,29.1428,1.6179,37.8965,-30.2629,156.6846,-54.4542,-0.5868,4.1521
-3414.0625,181.6194,-18.1978,-170.8071,-13.5293,22.2526,-11.7118,37.4849,-35.2602,101.9940,-179.4620,28.9323,-52.7667,88.1609,-48.5509,96.5383,-6.6502,35.3432,-69.2019,-16.2737,-46.5993
-3406.2500,-68.5112,-21.3920,262.2843,19.2877,-23.7544,17.2184,-79.1578,104.4699,-125.7886,33.0878,71.5897,-0.6560,6.3410,-19.5871,51.3619,96.1137,-142.8923,-2.7988,-159.8354,55.7911
-3398.4375,62.9995,76.0567,-112.9322,45.7450,-104.1109,47.7849,-37.7769,60.8422,-23.9162,-47.7077,-37.0869,58.5906,-37.8249,48.0134,-67.1520,-21.4789,129.5224,-81.7521,42.2575,11.8269
-3390.6250,169.7641,113.6904,-75.9805,48.3848,5.7601,48.5304,-138.2618,24.3956,-95.8188,63.6943,-1.7316,65.0918,-73.7749,48.7970,-66.4496,53.1146,-112.8737,26.4878,-236.4489,49.0429
-3382.8125,-81.3672,144.4115,173.1375,114.1167,-185.2479,77.3638,-188.8544,90.0390,-177.6340,55.1951,-36.1908,162.2926,-155.6194,151.6690,-148.6255,118.8113,21.7916,55.8304,-171.0788,114.3598
-3375.0000,143.3649,88.9723,-213.8989,93.6932,-94.4017,96.0385,-144.5554,71.5141,-123.5819,-0.4797,-61.2897,113.7349,-100.6016,132.3827,-204.9386,173.3448,1.3261,71.0134,-85.8315,58.5151
-3367.1875,-97.0131,94.3734,190.9220,135.1075,-94.6737,133.5475,-258.0778,145.8253,-270.6774,73.6938,-12.1222,168.4489,-136.7209,170.9272,-204.3766,284.7198,-238.3210,147.0484,-326.7583,169.5093
-3359.3750,-86.6964,141.4680,-53.5044,146.2166,-192.2427,146.7433,-169.3858,84.8330,-147.0758,-22.4319,-106.0050,209.3220,-161.1405,220.1629,-266.0986,113.7927,18.7253,122.7774,-69.9880,145.2030
-3351.5625,81.9560,135.8460,-169.6660,140.6101,-51.4918,141.2240,-200.4379,6.1237,-117.1445,80.7295,-76.5574,157.8860,-131.2431,141.6842,-198.4991,108.1540,-196.9299,186.7976,-286.9011,139.1783
-3343.7500,-191.7410,178.8631,200.8693,183.6440,-195.0739,182.3411,-251.9004,48.0605,-223.5629,158.5525,-71.4179,231.6177,-200.6893,182.8386,-232.2267,76.1666,-118.9757,194.4758,-279.1940,216.8022
-3335.9375,27.1273,152.4272,-263.0403,192.2224,-108.1041,195.9992,-143.3303,-12.4675,-99.4268,61.8992,-128.7616,186.4803,-150.5786,123.5384,-255.4003,15.7121,-5.4450,167.6977,-94.9182,119.9676
-3328.1250,-104.7069,196.2336,72.2955,201.0441,-66.8529,201.8938,-231.3937,30.2349,-242.0492,103.4875,-71.5612,216.9470,-182.2001,128.4714,-177.3096,131.5009,-242.6903,211.1695,-333.4045,198.3694
-3320.3125,-184.6034,187.9861,-46.3580,157.8093,-185.6445,193.7278,-153.5177,21.8825,-176.7390,-50.9677,-150.0542,242.1951,-190.8668,231.3524,-223.2635,123.2365,30.9991,96.5911,-59.9458,189.7226
-3312.5000,-9.9195,151.2721,-230.4949,121.1128,-38.8724,120.0969,-150.7262,21.0632,-103.8506,-13.8828,-112.9279,175.7404,-80.9677,194.7695,-149.6512,123.5103,-217.7596,94.5499,-202.9138,152.6069
-3304.6875,-201.9232,135.8428,189.7042,140.6982,-169.7748,136.7438,-229.7300,111.5390,-197.6647,76.5123,-40.9112,205.3788,-100.7563,211.4691,-207.7108,140.0884,-232.2559,114.8081,-252.6060,242.7882
-3296.8750,50.0799,72.4000,-276.0738,77.2713,-157.6732,112.3785,-116.1783,86.0085,-38.4753,49.9003,-95.8471,115.2342,-52.5383,150.1576,-195.7674,78.6617,-49.7398,51.0562,-35.2756,143.9611
-3289.0625,-2.2182,55.5916,-39.2243,26.4835,-104.8886,55.6492,-164.8709,139.1122,-59.6229,213.9372,-42.6152,68.4904,-73.6581,92.4753,-70.1499,168.8785,-348.5929,103.9570,-263.3009,196.7658
-3281.2500,-203.8771,100.4250,-29.6589,70.3385,-243.4494,101.5592,-99.8940,148.8651,60.8722,186.6262,-151.2326,135.1860,-174.1283,139.4375,-96.8668,104.7497,-91.8189,44.5107,-77.6857,206.2208
-3273.4375,22.4387,46.1993,-341.1713,51.1356,-77.0524,47.4083,-31.6723,94.5552,152.3404,279.2471,-154.1029,36.2019,-118.6377,12.3397,-4.6190,124.5557,-252.0817,59.0013,-97.0900,151.6102
-3265.6250,-235.7260,70.4557,82.8358,75.4195,-168.1309,68.7404,-128.8234,187.7383,-47.6821,409.3752,-118.3773,99.2695,-172.6350,69.7262,14.1609,180.8638,-334.8882,82.9957,-215.0211,244.4974
-3257.8125,-127.3053,72.3016,-279.5298,77.2979,-198.6164,73.6674,-54.5480,157.5108,31.9047,195.0986,-174.0705,107.3235,-93.0280,111.7089,-53.4467,76.7704,-85.0902,49.5942,-1.3421,176.9825
-3250.0000,-90.4990,74.4858,-131.5775,79.5192,-124.7249,74.9350,-145.4137,157.6144,-78.1304,232.1670,-94.4621,91.9353,-56.0597,76.0258,-16.6888,151.0172,-329.9537,121.5418,-245.3113,213.7993
-3242.1875,-237.0891,104.2674,45.0360,109.3355,-279.2215,104.7942,-157.7063,150.3116,-122.5715,187.8427,-120.9724,154.4191,-136.4873,141.9276,-60.3147,143.8628,-88.2458,116.0900,-145.7037,243.2141
-3234.3750,120.7497,111.4352,-384.9702,80.5389,-121.3137,79.0378,-81.3264,51.3991,-0.5873,162.9107,-129.4615,76.0703,-88.5106,43.2190,23.4798,82.0963,-117.1181,123.0201,-138.6673,144.0118
-3226.5625,-124.0870,111.8884,54.3292,117.0291,-160.0838,113.5648,-157.1746,122.7761,-150.2863,271.2896,-87.9180,128.8190,-164.2190,78.7952,58.6091,153.6323,-291.7268,194.2497,-278.3584,215.0991
-3218.7500,-170.0437,102.2355,-284.4265,107.4140,-203.9588,106.9836,-36.9036,79.0471,25.9162,116.5603,-210.1190,129.9606,-135.0241,108.2723,13.6543,110.0635,-56.4303,113.3797,-7.1508,134.0841
-3210.9375,-87.6121,79.9219,-306.8699,85.1432,-42.4622,84.7442,-68.0599,56.6503,3.4816,168.1688,-165.2342,96.1760,-83.4644,86.0889,64.0649,124.8321,-289.7829,195.8554,-205.5839,111.4011
-3203.1250,-265.8272,112.9539,20.0898,118.2152,-156.6040,154.8486,-125.1318,52.5993,-110.6353,90.1361,-130.8935,184.8109,-124.5501,193.2468,-86.1614,120.9594,-80.8114,193.6831,-137.6890,144.0675
-3195.3125,48.6810,110.6798,-381.2529,115.9785,-45.0440,120.6417,-39.1249,-17.7610,1.9370,-17.2083,-142.5537,130.6511,-84.9287,122.1028,-119.6918,50.7787,22.8880,156.1960,-0.0657,36.4202
-3187.5000,-131.6769,71.4992,14.5004,111.8363,-51.3558,150.5191,-84.9868,47.9691,-78.3872,48.5503,-64.0170,120.1330,-92.1933,78.0409,-54.1079,79.6934,-157.3403,221.8120,-144.3591,101.8585
-3179.6875,-151.8512,86.5182,-149.4983,126.8907,-106.4732,131.5941,-1.7648,-7.0932,-24.5064,-6.4902,-124.9970,134.4108,-74.2618,97.1746,-109.3124,24.8090,138.6240,131.6295,116.5400,46.4956
-3171.8750,44.5547,72.0783,-235.9851,42.4909,63.9686,46.2089,-34.2744,17.3827,-37.0437,128.0081,-78.0440,43.5189,-50.7773,10.8497,-49.9480,85.4676,-51.8547,116.9863,-73.9970,-3.3344
-3164.0625,-216.0872,57.5852,186.5181,63.0388,-28.6258,64.7687,-86.1813,72.8058,-164.6444,110.4658,-31.2363,103.8206,-68.3388,103.4676,-67.6176,141.0782,-31.4190,102.3027,-87.6167,51.7853
-3156.2500,-6.0764,21.7479,-286.3222,27.2394,13.4251,31.9790,49.3806,39.8700,23.3883,-106.4429,-105.5041,44.9884,-27.2451,70.7378,-26.6514,109.3306,109.6917,31.2689,122.4338,-54.4518
-3148.4375,-79.5748,-15.6473,38.2675,-10.1134,6.9496,26.6298,-19.2555,71.3729,-20.1368,-1.9013,-27.2405,20.7910,-33.6913,65.4502,77.7748,177.0340,-174.7655,63.6896,-92.0741,12.7481
-3140.6250,-135.5907,-1.5451,-56.5921,4.0284,-124.0329,5.7760,41.4836,50.3811,69.8306,14.1495,-91.1090,25.4188,-54.6460,44.6638,19.7232,82.2473,50.2607,7.6089,132.9036,-8.5488
-3132.8125,75.5654,-37.2998,-273.3449,3.3138,62.1308,8.0678,52.1621,15.5333,71.9794,53.3360,-55.0647,-30.9034,21.5558,-25.9751,58.8398,11.6051,-90.5506,41.6723,27.0493,-79.7118
-3125.0000,-199.0683,40.1460,208.1237,45.8041,-7.4952,49.5585,-37.4499,56.8825,-107.6803,57.7306,18.6292,38.3228,25.9590,-22.4211,26.1695,53.1721,-119.1975,83.9481,-71.6467,-2.6762
-3117.1875,16.6881,9.9986,-186.9920,51.6982,39.2720,59.4508,63.5350,-7.3723,12.0577,-79.4756,-33.4994,7.1427,35.7582,-48.4674,-37.1010,-10.8644,97.5668,54.6201,145.0697,-103.2434
-3109.3750,-16.3280,-22.9557,71.0547,52.7859,113.2525,59.5347,10.7760,-6.4296,-60.9821,-42.4773,41.6015,-3.2731,35.7660,-48.3203,109.8447,63.3008,-182.4898,126.4968,-100.0156,-66.6237
-3101.5625,-186.2687,17.1835,148.2481,57.9714,-67.6741,62.7136,44.0637,33.6259,16.0724,-149.3595,-28.5869,53.0891,-34.1301,28.9237,112.9098,-6.4209,68.5253,-9.5217,45.9790,-26.8981
-3093.7500,112.2493,-35.2293,-198.1461,5.6054,63.8433,-25.6606,104.2369,-55.8732,147.5841,-237.8015,-24.3167,-33.8270,23.4290,-23.3797,171.4300,-95.6934,16.0076,-27.0957,28.4450,-79.7344
