Time,Fp1,Fp2,F3,F4,C3,C4,P3,P4,O1,O2,F7,F8,T7,T8,P7,P8,Fz,Cz,Pz,ref
-4000.0000,-97.1580,34.5396,-49.3606,50.3513,-59.0665,45.2770,-99.8696,34.2258,-70.9681,52.3264,-136.7786,-29.6408,-45.1834,5.5105,-42.9466,77.1911,30.1594,25.1578,-42.0087,182.3610
-3992.1875,-188.5058,-195.9840,-35.4752,-39.0689,-2.6611,-44.2896,213.1666,127.8052,22.4623,146.2891,65.2666,-83.1993,120.4536,172.5699,86.0865,135.6763,-60.3664,41.3783,-27.3422,95.0171
-3984.3750,125.3989,-21.2601,28.8551,-5.2482,-42.0063,28.3913,-9.5173,17.6332,-89.8565,-74.5171,-11.4467,97.5155,-27.6592,-12.1330,12.3742,-47.6002,31.4558,39.8526,5.5792,95.9120
-3976.5625,-33.9331,-178.7749,-9.4339,-91.6800,-22.6036,-135.1819,155.5227,73.2002,111.5740,203.4288,152.5843,-177.0207,211.9766,79.9159,178.4108,229.8788,-81.6993,-82.9389,24.2547,81.5586
-3968.7500,-21.1345,-163.1656,-1.3180,-111.9830,-4.0480,-115.6317,321.7579,56.9264,94.1859,2.5396,132.7765,24.5856,83.7895,26.1334,197.6323,67.5219,-79.2609,36.4114,73.0811,-6.6585
-3960.9375,93.0375,-47.1857,-0.4992,-65.9331,-32.1454,-69.7254,71.3282,-7.0098,65.1424,48.9698,30.2973,33.5713,-54.0732,-74.3138,96.2018,77.4913,-32.2464,-57.8833,82.2678,41.4655
-3953.1250,-56.3474,-229.7736,-13.2285,-178.4429,72.2146,-184.3837,360.3595,99.5055,207.5656,192.8723,133.2845,-81.0187,50.5337,104.7003,128.2369,184.9279,-131.8167,-65.7429,39.9099,-33.9678
-3945.3125,148.9136,47.2763,40.6759,-77.3097,67.2315,-78.3958,135.0786,21.6636,55.6472,-104.5969,-19.0660,97.0536,-174.2099,-83.6367,-23.0667,-75.9966,-0.7622,-34.9462,-0.7934,-35.7718
-3937.5000,16.7961,-48.0565,40.9441,-136.5768,150.8505,-140.8129,107.3725,32.4015,102.3283,163.5224,98.1761,-187.2701,-18.3588,-0.3952,24.2358,156.6778,-57.5634,-129.5622,9.1073,-22.9828
-3929.6875,1.0117,-132.0651,31.6501,-150.5223,138.8318,-151.9097,353.0638,58.4948,127.3888,43.0098,85.7949,-89.2602,-29.1255,-10.7917,49.9162,36.7189,-76.2029,-37.8430,-4.6359,-104.8648
-3921.8750,118.4008,22.0907,42.9533,-67.3170,75.9675,-67.8559,-5.0944,-40.2807,64.5932,-55.3940,20.5630,-78.0747,-127.7534,-146.0619,24.7467,12.8750,-4.0972,-95.9703,7.7802,-54.6154
-3914.0625,-136.8077,-231.3719,-35.7457,-214.7254,69.5157,-219.4166,319.1560,64.3409,242.2074,197.6190,196.7511,-194.5171,122.0392,31.0719,165.9968,191.4386,-180.7703,-172.7157,69.6138,-94.9812
-3906.2500,22.8413,-71.0098,-30.3768,-124.3001,-20.0753,-125.1401,193.3024,13.8150,115.6951,-74.5304,32.7998,82.8958,-77.3153,-94.9422,40.1186,-79.1623,-93.6424,-83.6099,125.3088,-107.5267
-3898.4375,41.3693,-154.7834,-59.0990,-139.0239,-37.8151,-141.0086,65.2808,-2.8797,209.0388,93.1477,13.6805,-117.8338,53.1695,-38.1256,171.0943,89.0659,-125.6734,-167.6611,179.8680,-85.2391
-3890.6250,39.9745,-259.4877,-71.8374,-173.6656,-32.4380,-209.8033,327.4075,39.5299,287.5161,62.9457,53.6746,33.5055,94.7902,3.8068,323.1973,22.4155,-174.6309,-97.6197,179.5412,-187.8769
-3882.8125,190.3919,-3.3919,-62.7931,-91.5052,-96.2498,-124.7914,-30.6505,-59.2741,186.7978,-72.4892,-47.5393,154.6658,-41.7941,-132.4821,261.1056,-76.4626,-92.5507,-121.7692,155.0226,-174.7433
-3875.0000,-33.3942,-190.5005,-75.7582,-208.5547,3.7444,-244.9935,179.0940,41.7109,287.9059,175.8878,162.0574,-113.3925,205.4347,42.0218,435.8297,173.4724,-208.9003,-168.1361,108.3189,-218.8286
-3867.1875,107.9623,-46.4863,-25.8801,-135.4757,8.8988,-129.0671,110.0420,-26.1536,145.1986,-75.5885,91.8311,111.7043,26.8310,-100.3195,367.7350,-40.4449,-117.6478,-60.3597,74.7799,-284.7987
-3859.3750,42.3488,29.5409,-28.6026,-94.3960,49.0512,-161.1396,-34.0228,-59.0375,185.4908,75.9114,93.6122,-69.1826,67.2206,-96.6800,334.6478,74.6149,-102.6522,-160.5903,45.2481,-241.7936
-3851.5625,-72.5244,-154.7085,-28.3495,-207.5945,118.9643,-237.4906,293.6972,48.8334,292.5606,147.1890,235.1799,-72.3441,100.4015,10.7266,368.3383,73.4453,-196.2861,-133.0952,37.4745,-353.0666
-3843.7500,219.0864,34.4897,31.6822,-124.3540,58.3372,-113.4022,11.8857,-83.8537,122.0838,-95.1151,137.2142,87.9730,-69.9739,-159.4317,235.4821,-132.2977,-82.4519,-121.1500,49.1616,-373.9234
-3835.9375,120.4236,-168.6076,38.3426,-221.4255,142.4224,-249.6258,206.7598,-35.8540,243.3125,137.2821,293.9643,-196.0212,198.3581,-37.8987,320.3349,63.6649,-173.3311,-183.5277,91.5624,-434.1006
-3828.1250,239.6536,-153.8421,94.9444,-171.6206,162.4240,-155.9728,299.5819,-51.9484,115.4663,-136.4189,274.6580,43.8815,33.6175,-128.4509,267.1163,-209.4706,-112.4839,-98.0064,106.8727,-522.4140
-3820.3125,297.9686,-58.0107,106.7054,-146.7622,184.4854,-133.2651,27.4450,-103.0166,63.6613,-113.1105,222.4083,-81.1404,19.9163,-142.9680,252.9459,-185.5965,-79.3758,-214.4347,166.2399,-460.7057
-3812.5000,62.2895,-292.1969,45.0010,-274.9265,272.5602,-227.5800,409.3295,22.9141,225.8778,13.2149,272.1888,-140.1833,181.2467,19.5306,341.8002,-58.7095,-216.7163,-237.8852,107.6214,-517.0265
-3804.6875,321.2784,-32.7426,107.5550,-121.4512,210.2961,-106.2542,162.9026,-112.5088,52.7597,-305.8338,97.6321,128.4469,9.2217,-153.3302,59.3191,-266.1967,-49.3084,-119.6844,85.6682,-466.7369
-3796.8750,167.3889,-114.1833,68.6151,-131.8796,195.1382,-156.8311,184.5666,-52.8519,111.7519,-61.7964,155.1758,-106.8235,288.2974,16.8943,45.9509,-58.5946,-98.6840,-165.3901,38.8260,-405.3732
-3789.0625,73.9788,-30.1618,53.9215,-47.8281,172.5006,-68.9274,308.7862,-74.6934,53.2803,-267.2513,95.2460,90.4005,192.8999,31.6301,-12.8862,-189.4892,-53.4617,-11.5967,16.4932,-425.5488
-3781.2500,189.8405,192.1218,86.4061,69.4812,142.1196,48.2360,-89.7410,-141.3008,-124.9461,-259.4933,-10.4401,96.9018,51.7378,0.5942,-190.4797,-219.1680,63.6846,-35.5482,-7.5786,-306.5087
-3773.4375,35.5451,4.2384,67.5907,-48.3736,164.5995,-38.7637,153.6004,28.9376,-28.3042,-51.8683,157.7490,-64.7693,185.4503,171.4216,-130.2105,-10.9845,-39.4395,-82.6662,-125.7851,-281.6490
-3765.6250,234.4955,204.5834,121.8732,46.0072,112.3438,57.4775,-82.7583,-58.5745,-227.3938,-250.0150,31.2059,177.8258,-87.5785,-27.4952,-327.6750,-207.5738,94.3259,46.4708,-171.7271,-220.5820
-3757.8125,83.8697,161.3345,69.1813,37.7901,62.4961,44.1225,-169.7280,-33.7049,-130.0797,-4.7865,90.0627,-19.1688,46.7870,106.9799,-265.7380,-35.7853,47.2810,-31.9961,-215.2563,-121.1451
-3750.0000,-14.1561,64.6531,40.7847,47.1554,35.2632,54.3513,23.9521,12.7681,-120.1319,-103.9451,98.5457,137.4227,19.7845,190.0688,-183.1737,-134.3855,23.3979,82.1280,-207.1745,-146.1476
-3742.1875,150.2074,265.3314,77.9208,177.8734,-16.6073,186.9311,-358.0125,-75.4305,-244.8337,-190.7975,-28.6086,158.3910,-105.8811,28.4850,-343.2540,-148.6694,151.8884,71.6099,-180.7373,-48.8382
-3734.3750,-55.2704,61.1499,38.6996,78.7280,26.6787,46.6487,-58.8285,42.5125,-55.3601,72.5122,87.4138,-56.5082,84.6231,108.0534,-226.1580,80.2072,44.4941,43.2223,-174.1426,-40.4074
-3726.5625,61.1000,248.7980,59.6924,161.4162,-36.1773,168.1979,-156.7399,-56.6937,-153.0058,-171.3417,-13.6890,212.4538,-197.0054,-64.5205,-288.1882,-164.0814,141.2757,160.6883,-198.6863,-27.1695
-3718.7500,4.2042,264.1611,8.6966,140.8087,-60.3281,106.4572,-292.9651,-44.2169,-67.9505,23.4804,-39.0928,39.1401,-148.9467,-16.4084,-165.5284,-4.6998,103.6206,33.8527,-218.5201,59.7383
-3710.9375,-75.0488,79.1407,-35.1650,61.8296,-68.8196,25.3424,-7.5001,21.9164,107.7946,53.9751,-12.8083,68.4590,-156.2078,50.3789,10.8098,26.3447,22.8224,95.6545,-262.6869,17.2582
-3703.1250,149.5788,305.9708,-23.1145,147.6979,-165.4553,113.0813,-324.1673,-73.1124,10.3953,-77.7147,-182.6576,191.6614,-363.6310,-156.0004,-47.9964,-104.7978,127.4336,111.3165,-246.9899,69.5870
-3695.3125,-116.7734,110.8016,-119.0156,22.5605,-148.0816,-17.1837,-49.8408,16.8426,212.0052,196.5950,-93.4829,-48.1370,-52.0357,44.6074,153.2100,170.0529,-33.2899,20.9670,-231.2753,51.8857
-3687.5000,-68.7254,231.0057,-104.8710,72.8046,-167.2880,37.9312,3.9405,-38.8002,83.0382,-79.7003,-150.8733,226.4664,-144.0153,-11.3755,97.8394,-68.6964,15.7319,141.0156,-182.1484,-2.4621
-3679.6875,20.8558,251.7162,-43.6284,93.5450,-148.9869,56.5524,-160.7862,-91.9570,27.5742,-23.5210,-59.7561,60.5829,-16.5053,-65.8729,80.9673,-11.9777,54.1242,56.5585,-56.5021,54.6543
-3671.8750,-70.0834,55.8866,-19.6670,3.7651,-56.1646,-33.3449,263.0311,-35.6061,158.6460,-1.8223,104.8861,7.1718,151.5425,-8.8477,175.6266,10.2495,-21.5515,71.5902,-40.3345,-33.7672
-3664.0625,127.1501,254.1989,31.4897,96.1321,-34.1763,62.9077,28.0338,-159.1141,70.8675,-236.0176,-58.3052,101.9519,-47.2578,-169.6780,51.4426,-223.4127,96.7450,58.7783,16.9880,-10.0814
-3656.2500,-121.9846,40.1155,-16.9243,-47.9059,73.4249,-51.2426,171.6219,-53.0418,251.6930,18.3788,48.1207,-194.6643,170.5481,10.0873,158.8657,31.5097,-41.7611,-50.4517,48.9206,-11.8221
-3648.4375,-62.8823,-4.7546,0.2095,-56.7179,66.2892,-57.1607,312.5152,-95.7157,244.8112,-171.9715,39.8338,17.9658,53.6300,-69.8863,116.5769,-158.3141,-35.9381,45.5686,75.1125,-90.3546
-3640.6250,132.3505,50.4895,56.9066,-36.4249,49.2574,-36.9709,37.5041,-185.3103,155.0360,-151.2585,58.6441,-72.2742,36.7935,-160.7807,26.3897,-137.0703,15.3371,-39.3045,165.4163,-68.8222
-3632.8125,4.2782,-252.5913,64.2791,-163.4438,105.9425,-201.0982,389.2132,-92.2045,284.9844,-56.8303,335.1844,-199.8210,314.6866,7.0442,194.9171,-79.1148,-123.1875,-96.4911,284.4297,-194.6233
-3625.0000,290.8207,-70.0848,130.8830,-122.8695,78.2424,-118.6292,177.5555,-266.5044,147.5382,-377.8316,306.3524,-6.7300,177.1798,-204.5247,204.0409,-326.5847,-41.7687,-126.0678,361.0500,-257.8677
-3617.1875,227.7485,-237.2130,93.2932,-253.9424,125.9003,-254.8045,261.2239,-255.4739,305.4408,-146.4958,388.8883,-254.2766,408.0203,-83.7554,362.5039,-130.7211,-164.0103,-292.3007,441.0214,-282.7923
-3609.3750,176.6152,-253.4257,106.7322,-270.0863,223.5188,-231.0523,505.8903,-231.4833,256.3253,-305.1931,338.4218,-9.8777,321.8376,-133.0183,276.9433,-252.8982,-161.9193,-167.5918,389.9490,-367.8099
-3601.5625,208.9676,-43.1764,102.7780,-130.7770,216.5919,-89.8434,132.0100,-237.0576,28.6510,-311.4794,110.4244,94.0040,132.0831,-176.8461,50.8260,-294.6643,-45.0321,-134.4203,283.3385,-262.4145
-3593.7500,-80.6688,-155.9393,27.7466,-137.4774,208.6744,-135.6416,307.1377,-24.6338,93.9958,-24.7573,137.4630,-25.1266,197.3464,72.3397,42.7100,-44.4259,-111.9567,-70.2601,135.7450,-233.0506
-3585.9375,116.7023,77.2819,45.8520,25.8163,44.7707,69.5536,33.3086,-78.2151,-105.6477,-225.0570,-27.4654,215.7697,-113.3875,-54.4677,-119.3965,-207.2095,41.4842,91.9109,52.1609,-174.7293
-3578.1250,69.1169,-4.4805,33.2106,14.1142,-8.1255,52.7600,-93.5456,-56.8150,-85.2977,-19.3808,65.6216,14.6875,16.8671,76.7100,-135.5197,-2.0214,12.0728,10.0805,76.5845,-79.4368
-3570.3125,10.1824,-168.6265,44.4917,-43.9577,6.6419,-5.4008,179.2810,-4.7582,-69.2711,-77.0337,190.4036,104.2442,106.8050,128.5603,-81.9726,-22.1741,-41.1740,92.8933,123.6711,-136.5321
-3562.5000,232.1807,-15.8705,87.4169,37.8715,-19.6864,78.3509,-141.9865,-141.8032,-96.3467,-177.8252,89.1024,113.7311,5.6243,-44.6989,-108.5305,-158.4698,56.5705,33.6204,170.6766,-88.7664
-3554.6875,18.0383,-263.2790,68.2356,-69.4532,52.8449,-33.0482,151.5956,-31.9982,87.4423,80.2471,271.6776,-144.9425,263.3074,64.8996,38.7618,26.0820,-59.1220,-3.8118,204.5531,-125.1797
-3546.8750,156.2990,-90.3152,123.9649,-0.3913,52.7838,40.9425,114.6330,-104.7831,-23.3483,-251.2878,196.6850,75.7986,115.4063,-83.0841,-107.5362,-267.9821,38.1889,100.1593,237.8446,-161.2353
-3539.0625,210.7540,-35.1843,139.1734,18.8299,107.8760,22.1004,-14.1942,-123.4351,-40.9883,-121.7036,140.8435,-127.2801,207.6473,-63.9351,-88.6986,-211.9360,63.1501,-20.7158,258.2860,-105.1714
-3531.2500,106.7509,-209.5272,111.9729,-84.4118,186.5327,-46.2094,322.5677,-44.5347,74.9567,-79.5536,181.5837,-121.8173,250.4727,51.7816,64.7089,-168.3331,-29.5821,-18.0521,225.2806,-172.5915
-3523.4375,292.3723,-58.2653,130.8310,-4.0527,84.7991,36.0857,-0.0516,-146.0484,46.5008,-217.8431,115.9472,33.2787,37.8930,-160.9121,-0.2804,-269.1671,51.1882,-43.7707,235.8695,-126.4502
-3515.6250,116.1687,-267.8438,85.2562,-143.5452,85.2250,-110.4677,147.4624,-71.4258,268.1897,78.0128,299.4841,-224.4766,296.4695,-13.4503,111.8793,-10.8570,-86.7513,-113.3469,271.6064,-125.1852
-3507.8125,237.7189,-181.6985,93.1953,-57.2996,31.4158,-17.2795,204.7693,-89.0498,214.6440,-159.3841,170.8155,16.5261,168.8156,-104.2197,94.8011,-247.8088,-15.3197,8.8318,253.0921,-178.2099
-3500.0000,286.9600,-26.8776,95.6808,-7.3932,5.2593,-6.4305,-78.2941,-151.0402,152.7315,-37.1655,144.8059,-82.7905,143.7952,-129.3557,107.3566,-199.1504,28.1568,-82.3347,233.2334,-92.6129
-3492.1875,100.3982,-177.8743,108.3115,-87.2976,108.3134,-124.3933,244.8611,-84.8229,181.0335,28.2778,319.0372,-127.9220,283.0018,-64.2803,210.1154,-95.2768,-42.8340,-22.3103,152.5806,-136.8430
-3484.3750,318.4734,111.7290,179.7202,61.3976,76.9695,28.2513,-43.3621,-226.0062,-107.0704,-258.7053,176.9009,61.5771,30.7955,-241.6138,-4.5354,-308.8312,127.8934,56.3300,90.5289,-93.5081
-3476.5625,151.4316,-19.8068,144.3535,-0.0503,158.4762,-0.2477,1.2380,-145.3488,-62.3321,-30.8425,184.6383,-188.0634,222.4288,-50.1032,40.6485,-80.5493,61.0528,-5.1787,29.3308,-48.3433
-3468.7500,183.9240,-21.8230,147.1795,33.0398,158.5447,35.7944,111.4345,-145.1350,-99.0249,-214.4260,109.9648,31.8524,112.6283,-87.0139,-31.6062,-226.7154,85.3654,63.8667,-7.3106,-84.6598
-3460.9375,244.4968,180.2273,141.1804,59.1925,106.6611,94.9067,-196.3332,-194.8902,-112.6824,-190.9967,21.3471,-19.1386,-49.1509,-173.8826,-154.8214,-202.8745,138.9947,18.9722,19.1062,12.0488
-3453.1250,-5.5274,-70.3444,86.8727,-14.2621,105.1772,-16.5851,132.3100,-50.2386,33.0861,27.8560,166.1528,-203.7460,59.4855,7.6705,27.3743,-20.6237,26.1153,50.4679,-19.0666,-25.8648
-3445.3125,157.2578,57.8685,130.2507,113.0752,90.5002,152.7224,-66.2134,-137.7804,-201.3355,-243.5106,3.7894,38.4720,-138.0783,-117.9744,-97.6316,-217.5943,152.3329,143.7753,-31.4302,-3.0119
-3437.5000,-5.0212,1.9962,90.0714,93.3200,140.7255,92.9409,-52.8663,-87.4313,-150.8634,-9.9930,16.3446,-168.4001,22.2492,-30.7294,-9.7633,-20.6791,101.9985,52.9799,-51.8845,47.7231
-3429.6875,-127.6629,-14.2596,57.8032,76.1960,162.6109,76.7935,116.1788,-29.4174,-129.7090,-98.8058,0.5882,36.3643,-29.7432,64.1871,-61.2283,-109.1078,67.6428,141.8317,-103.6763,-3.9202
-3421.8750,47.5241,231.2930,45.9113,145.8769,48.2955,146.4627,-253.9737,-69.6108,-316.7522,-100.8561,-150.3600,141.9586,-179.9549,-13.1052,-246.9029,-147.7763,139.3801,70.4967,-102.6583,66.2094
-3414.0625,-142.3213,-29.2147,-25.7967,-8.4952,71.9324,-13.9216,-11.1751,101.1497,-145.8287,216.0522,-55.3276,-18.5065,26.8020,157.5667,-149.6267,132.5077,-22.0014,-13.8976,-46.6924,53.2699
-3406.2500,-86.9557,97.4576,-66.4178,48.3276,-53.2193,82.8927,-98.1388,87.1124,-233.6983,-18.8561,-216.0628,262.2554,-207.2362,-3.5531,-163.1481,-65.0310,24.2958,112.9259,10.4759,39.4982
-3398.4375,-147.2510,36.4524,-114.5972,58.4620,-80.0623,91.0226,-162.8299,132.3551,-114.2876,173.5046,-281.4839,12.3456,-87.9881,78.6132,-117.3935,128.6970,1.4960,53.0543,55.9444,85.0077
-3390.6250,-161.3047,-82.3234,-106.2113,9.8370,-56.6415,42.3924,118.7606,193.8525,-89.6147,125.1321,-220.6165,110.6767,-64.4596,177.0481,-92.3851,80.6857,-37.6583,109.4276,42.6636,36.7427
-3382.8125,92.0259,136.2658,-35.7868,122.5730,-87.8669,157.1274,-206.3005,13.6912,-231.6131,-52.9296,-290.3818,225.4011,-242.5994,33.8262,-271.0444,-25.0170,93.3985,46.1699,-20.2687,114.8018
-3375.0000,-167.1314,-87.6409,-101.3468,-30.1904,-28.5888,-4.6378,-36.8760,110.0246,-25.1104,225.5157,-158.6267,-9.3782,-0.2310,203.1127,-101.2107,217.7733,-61.1578,-35.5943,2.3084,137.3469
-3367.1875,-111.8452,-31.1152,-97.4272,24.4893,-42.8490,54.0435,-14.9608,58.8116,-113.1367,-44.6005,-283.3888,233.3089,-124.3997,115.8664,-114.9296,-16.0042,-6.3162,90.1035,-11.6626,123.3141
-3359.3750,-140.4702,9.4886,-105.7432,32.2395,-40.0629,57.7954,-195.0288,-10.3706,-109.1306,32.2991,-281.0913,126.0781,-84.5441,118.6529,-74.6285,61.2277,-1.7355,26.8646,-4.5847,200.3160
-3351.5625,-309.1431,-122.9733,-108.9544,3.9347,7.6776,31.4915,35.8704,73.4016,-24.1533,42.1689,-122.8067,174.7795,-35.7214,203.4071,10.6237,146.4198,-60.1943,68.5746,-66.5580,138.2500
-3343.7500,-102.3521,118.0111,-58.0404,141.0873,-71.1265,173.6564,-299.7699,-41.3781,-139.7349,-145.5436,-202.0532,352.9607,-299.4692,50.6111,-177.6837,-4.9730,75.7074,99.7568,-70.0782,169.6102
-3335.9375,-268.9961,-82.4491,-61.8065,44.7949,12.6213,72.3793,-178.8846,77.3910,17.2288,194.2970,-45.7344,31.6910,-68.6681,208.3694,-130.4544,225.1809,-13.4317,39.4827,-60.0445,179.5094
-3328.1250,-154.8367,-109.1340,-3.0331,89.2886,23.1714,121.8953,-93.1577,89.9790,-80.9967,-14.0547,-70.5806,154.2285,-167.0519,109.9559,-155.4189,16.1361,53.2454,189.0095,-50.2111,118.1834
-3320.3125,-62.3351,-16.4970,16.1676,147.0927,9.0130,142.7252,-403.1579,37.8641,-96.9415,43.8679,-87.1219,64.1013,-145.1623,20.8331,-170.1072,74.3670,98.3783,70.8425,-28.0802,176.1417
-3312.5000,-250.7847,-239.8351,-13.1548,27.9361,71.9086,59.5970,-45.0958,174.8173,3.1762,180.8743,49.4198,-54.9975,27.8021,157.7832,-32.7414,175.6637,-22.6864,58.7143,-5.8975,93.1363
-3304.6875,-119.5231,-38.4856,3.1167,90.4776,26.5100,161.1741,-236.3081,56.4751,-188.0075,-47.4415,-69.3155,156.6299,-126.5378,-34.5650,-150.6774,-16.3642,54.8020,85.3022,56.9847,84.8081
-3296.8750,-255.4319,-174.3227,-39.9755,-11.1753,67.9083,-18.4402,-84.7501,134.9214,-0.4054,214.0315,7.7634,-131.9288,97.9169,80.8837,-71.8240,209.3941,-53.3789,-51.3123,96.6658,89.2722
-3289.0625,-154.6967,-214.5316,-46.7366,-51.1858,-7.0404,-19.4129,170.4883,133.0280,35.8577,29.1653,6.5360,50.1591,23.0460,79.0010,-37.3137,61.8107,-74.6421,14.7261,91.9897,14.3664
-3281.2500,-25.4683,-49.2702,-41.5078,9.2696,-92.5354,41.0839,-98.8430,46.5724,-50.4526,-57.2822,-44.2282,73.7290,-63.3965,29.5488,-85.3806,11.6362,-19.0340,-65.7706,152.7607,74.8959
-3273.4375,-349.4896,-302.2699,-121.3380,-103.5295,-26.2754,-75.6713,262.5728,187.8719,163.9958,157.0453,60.7797,-42.9722,113.9296,207.8596,92.3035,227.2224,-170.5818,-73.5265,145.2842,32.1667
-3265.6250,-180.5535,-133.3309,-139.9701,-4.3832,-142.0602,28.5218,107.9707,107.1307,157.3953,-33.6904,-130.2401,208.2906,-112.7945,54.1297,11.9351,36.7390,-88.5084,-9.3235,68.7560,25.3683
-3257.8125,-233.5798,-152.3728,-179.0650,-58.2261,-163.8476,-66.2714,50.3305,159.3795,320.7759,239.5529,-78.2420,-70.4294,12.4651,142.3896,138.5364,273.2321,-146.8791,-133.1219,15.2263,77.5666
-3250.0000,-235.9254,-153.7371,-173.5457,-95.3815,-161.9310,-65.3787,236.4168,235.3371,284.8677,204.5211,-40.5035,41.5399,14.4467,181.3694,176.8453,201.4438,-163.7030,-29.2195,-20.6062,5.4538
-3242.1875,-8.2990,108.8679,-119.3682,28.4237,-256.0635,61.4814,-151.5545,104.2387,43.8939,73.4032,-97.8129,130.4953,-115.6497,50.2813,46.0854,107.5747,-30.5371,-12.3467,-38.4947,58.2814
-3234.3750,-253.6532,-102.5249,-158.3390,-42.7627,-218.1985,-47.6516,70.4513,216.1390,118.9246,332.3003,86.8918,-51.5588,105.2578,236.1989,195.3150,366.7069,-145.6728,-47.4746,-38.3883,23.1086
-3226.5625,-79.3004,37.7686,-128.0752,27.7507,-253.6325,63.9258,-38.8159,180.7495,10.6551,112.8853,-21.6785,244.0998,-150.1355,89.8372,123.2373,110.5208,-62.0665,23.1179,-73.5809,-12.3798
-3218.7500,-93.1740,58.8339,-150.5883,14.0381,-270.3185,10.2765,-239.3714,200.1058,67.1132,316.2014,-2.4963,80.5261,-93.8016,146.2243,142.8800,278.0557,-86.0716,-96.5395,-121.0248,43.8795
-3210.9375,-211.3093,-96.3711,-178.2923,-69.9388,-244.2539,-36.6315,80.8413,263.2341,167.3398,306.3020,60.4637,143.6796,-30.6994,246.3980,243.2686,230.3692,-165.4532,-4.4634,-170.7177,-40.1178
-3203.1250,48.4295,94.2897,-96.6042,49.9373,-229.3476,88.3200,-161.0942,94.2183,35.4070,63.2286,-71.7188,195.7133,-198.7723,4.4107,148.4867,61.5140,-15.8288,10.4745,-155.5648,-25.2761
-3195.3125,-122.7184,-146.9405,-102.9442,-50.0833,-150.3463,-51.6230,66.0403,175.3043,225.5640,328.2696,119.2091,-166.1581,64.2562,158.5237,265.7915,289.7597,-123.4974,-89.4904,-150.3083,-55.3333
-3187.5000,-8.2255,-102.5450,-48.2050,-6.4579,-100.6915,-2.9177,78.8573,114.0546,128.3771,45.9607,57.8172,67.6310,-34.0554,23.3110,204.7452,44.6456,-56.1337,25.2104,-140.4059,-116.7536
-3179.6875,78.2581,17.8266,-46.1937,9.1379,-87.0974,10.7609,-165.4073,53.7400,68.1243,96.5646,-38.6164,-65.5981,16.5557,-35.9568,218.6145,95.4383,-22.9272,-65.1285,-125.5596,-66.2271
-3171.8750,-75.7080,-170.2662,-61.0899,-73.7254,-22.9522,-72.0179,156.8885,154.9760,132.4407,160.7358,62.5352,-75.2961,117.7440,65.3438,284.0381,159.7925,-108.0800,-6.9253,-137.1692,-149.1531
-3164.0625,167.2037,142.5009,22.3232,64.2650,-63.9615,108.0557,-141.9564,40.0612,-129.4024,-64.2696,-53.4371,67.8778,-144.2229,-86.5200,-15.7009,-65.0359,65.8176,60.1400,-139.9331,-117.2402
-3156.2500,-4.6079,5.5307,17.2743,32.5119,11.2765,36.3876,-65.5833,116.3857,-53.0072,231.9734,59.8605,-150.7019,5.0610,99.8574,-49.2084,121.3822,11.1862,-6.5524,-136.4491,-78.0744
-3148.4375,-2.4331,78.5406,-4.8148,105.7474,-21.4829,114.7096,11.8252,120.7243,-159.5990,15.2284,-82.8090,147.7198,-137.6335,104.2584,-155.7175,14.7988,55.4836,136.7592,-203.9700,-110.9193
-3140.6250,65.8695,286.6761,-26.7358,174.1018,-65.1431,144.1533,-324.6887,40.1505,-276.1162,81.5453,-236.3804,178.2742,-217.2562,-13.2553,-198.1589,81.2753,118.0341,99.1865,-240.3990,-7.6661
-3132.8125,-233.4221,92.2042,-75.5576,84.8569,-9.4004,51.9951,24.1940,168.9834,-147.2360,247.2862,-108.5310,49.2106,-52.4724,115.6508,-107.2134,247.1624,5.2756,117.0115,-223.4326,-26.0104
-3125.0000,-48.9935,312.4323,-33.8003,235.3201,-75.9583,207.5513,-225.2106,102.5235,-359.6734,-2.2949,-283.9647,314.8679,-301.0050,-23.7420,-281.5925,-2.2743,158.5390,266.5595,-248.7746,18.3368
-3117.1875,-84.5334,204.6868,-47.0368,233.8028,-116.5212,202.1248,-229.6579,135.0549,-291.1413,213.1131,-215.3899,89.5257,-159.5547,154.8537,-249.9969,140.2726,131.0453,194.1125,-215.1250,86.6912
-3109.3750,-98.3333,156.6651,-11.4647,256.0284,-91.3317,228.4387,-58.3284,123.3545,-338.8512,18.2952,-152.0378,262.9141,-170.3291,181.2110,-260.6417,18.5840,149.8706,322.4160,-227.7309,38.7914
-3101.5625,1.0465,326.8185,9.4069,355.4182,-136.9945,329.9265,-396.8696,77.7980,-384.4392,45.5923,-234.5370,216.4743,-289.9793,-12.2947,-417.1630,9.0126,239.5260,246.8876,-198.1972,103.0406
-3093.7500,-238.9225,85.6188,-64.4023,184.4591,-93.0011,116.0624,-95.7730,231.8944,-83.3732,346.5598,-117.3714,-34.3353,-98.9735,141.8647,-263.0441,237.0985,70.8717,181.0025,-158.0188,72.9443
-3085.9375,-31.5388,187.7603,-26.5019,217.8522,-132.6563,223.5523,-209.3012,119.3461,-122.9666,49.8614,-230.8310,147.2178,-322.6168,-44.6161,-302.5825,-23.4828,151.4881,249.4809,-89.4979,70.1897
-3078.1250,-80.7196,103.3299,-14.7812,167.6590,-76.9155,169.4570,-263.4752,138.1864,-30.1859,215.5423,-137.8866,-163.8173,-156.8757,11.2883,-172.7487,106.3137,115.5679,129.3575,-33.5813,125.8417
-3070.3125,-134.8598,-91.0672,-12.6950,113.5023,-58.1247,151.3949,12.4204,157.0882,61.6611,125.2989,-45.8615,-106.8302,-137.0578,68.2627,-43.8579,15.1767,62.2539,180.2778,-18.6233,71.5427
-3062.5000,88.3261,131.8548,23.0824,231.6534,-122.0391,234.6497,-381.3925,20.2851,-38.2115,-11.6820,-145.5383,12.4819,-311.9565,-105.4752,-70.6882,-84.6912,177.7980,123.5130,-75.3751,154.5420
-3054.6875,-20.3809,-83.1192,-14.4728,86.9079,-90.8560,46.0046,-166.1271,161.5795,66.0105,312.4528,-3.1031,-139.1251,-96.7422,108.8963,34.5709,240.5517,41.2208,14.8359,-149.0337,185.6502
-3046.8750,116.2064,88.1911,33.8213,118.4572,-95.3760,113.6548,-245.5333,119.1863,-85.4618,50.8873,-45.3451,185.5786,-285.2227,-5.4114,-117.8693,52.0935,115.6255,80.4642,-223.4079,217.0556
-3039.0625,-30.3255,188.3873,-20.3679,112.8729,-145.0580,65.1726,-405.1321,107.6273,-62.1106,185.1472,-20.7469,63.1616,-224.8803,19.1193,-57.4911,149.4678,87.0993,-31.0493,-264.9447,351.3189
-3031.2500,-262.3704,26.0723,-75.8842,-13.2163,-93.2433,-28.8182,-21.2185,196.5846,-9.2576,199.9342,31.3772,79.2243,-62.0132,108.1706,68.3802,165.3610,-28.4831,18.9389,-285.9856,330.0880
-3023.4375,20.4035,238.5669,-22.0019,93.5106,-168.6366,116.0083,-317.5009,85.3417,-232.6311,-22.5070,-153.6936,151.1120,-248.3573,-40.9857,-116.9759,-20.9744,117.4103,55.7461,-214.2285,401.6542
-3015.6250,-143.9054,37.9700,-46.0882,-35.8516,-120.1326,-56.2499,-158.9164,170.0000,-110.1220,282.9561,42.1459,-131.1166,21.1932,154.7596,4.5422,211.5906,-11.7921,-73.5516,-167.5712,413.1311
-3007.8125,-73.4252,73.1535,4.5076,-0.4233,-153.8209,21.2825,-45.4968,173.4700,-180.8084,-7.7695,81.8057,55.4483,-49.4438,84.3245,-139.1437,-6.0412,40.8095,66.9510,-167.1152,342.4059
-3000.0000,44.9874,190.2646,48.6090,46.9165,-143.6146,31.7307,-292.2094,36.8306,-170.6189,2.3754,92.3567,-44.0640,-39.2123,21.7763,-239.9582,41.1935,97.7089,-26.6397,-119.7654,389.5889
-2992.1875,-26.2590,13.7122,35.5820,-59.4013,-66.0524,-74.4830,79.4382,77.5467,-19.0770,42.8989,169.2749,-76.2585,112.3953,135.5917,-51.4244,44.7951,5.3153,8.1109,-121.0684,283.1301
-2984.3750,230.7507,235.4155,103.5661,92.5352,-53.2369,48.5619,-128.6527,-130.4844,-191.3007,-238.3522,-0.5423,119.8120,-132.7504,-108.3593,-112.6606,-163.3777,160.5439,54.1293,-74.1311,258.9191
-2976.5625,30.4338,104.7957,40.9735,-37.8682,-4.7699,-85.7367,-43.1346,-80.8725,5.1040,68.0435,85.2947,-198.4740,63.7485,-59.6752,83.7235,106.0886,33.3756,-40.2081,6.4565,234.3696
-2968.7500,90.3539,-11.5944,90.1654,-48.0287,61.9506,-54.7969,134.6641,-49.9966,34.7737,-85.2851,79.4031,-130.5269,-16.4824,-138.7197,39.3491,-10.1886,53.3078,89.6995,65.2921,118.0680
-2960.9375,190.0605,123.7874,112.8629,50.5732,54.4100,10.9097,-129.8096,-167.3749,-7.8252,-129.8910,-0.7475,-173.8107,-59.9886,-219.0304,-40.3099,-90.7430,130.7458,13.3681,94.8693,147.5195
-2953.1250,-65.6375,-27.2350,75.5904,-64.2273,122.4659,-104.7868,268.3017,-64.1462,168.1844,-62.8779,176.7154,-217.5264,153.1183,-42.7305,62.6391,-60.6859,1.5267,3.6291,51.0494,67.5778
-2945.3125,255.3718,258.4395,158.3871,80.6778,127.2238,84.2228,16.1267,-168.2170,-83.1035,-388.1790,-38.1145,82.4656,-62.0831,-182.7341,-225.7019,-311.9547,178.8947,113.6055,-16.0777,36.3328
-2937.5000,269.8102,202.5439,173.1419,24.9998,178.3710,-12.3509,-43.6897,-153.8998,-105.0092,-116.0876,50.4456,-160.1395,63.0945,-59.3465,-247.6684,-4.8386,138.2532,-13.0177,-36.8121,50.4991
-2929.6875,220.2276,117.6245,189.9127,-24.6893,204.5217,-22.9368,203.5206,-129.5654,-117.8950,-164.9702,150.0288,-61.7669,51.3001,-69.9420,-222.6348,-89.7001,107.2028,78.3499,-121.5556,-34.3324
-2921.8750,275.8208,312.8710,206.3747,100.7777,148.8207,69.6370,-109.1322,-257.0881,-245.6509,-256.7284,94.7681,-6.2254,-40.3638,-234.4069,-351.4829,-180.4330,199.1635,28.8757,-135.1631,20.9910
-2914.0625,-1.9799,34.7212,131.0721,-36.1537,190.7132,-73.1924,189.8008,-106.0079,-94.8125,5.1333,211.1196,-184.1089,185.5787,-46.2693,-162.7410,7.4507,39.1545,-3.0061,-98.1780,-11.0742
-2906.2500,217.9165,149.2663,141.5544,7.6109,127.3058,47.6736,89.4616,-168.2180,-230.2768,-278.3134,37.1823,45.7119,-24.7771,-182.4188,-189.2942,-201.9734,108.8790,40.8174,-89.4981,-37.4405
-2898.4375,140.6342,106.6422,67.5261,-34.8110,80.6888,-35.6478,-31.1099,-104.6438,-93.9690,-68.9820,-8.9618,-220.6608,75.6514,-118.7806,-54.0633,-29.6224,43.4235,-106.5585,-61.0246,26.0057
-2890.6250,-112.4134,-75.7488,17.1198,-111.9915,113.3287,-112.7329,333.5878,2.1886,48.5888,-35.3752,98.1650,-223.8116,182.3577,-48.8730,126.4221,-33.0029,-62.0051,-42.6912,-32.3069,-51.2926
-2882.8125,2.4270,107.7282,39.6142,2.6858,82.8158,42.0391,9.1333,-65.1307,-92.0365,-174.9376,-41.8630,-71.0923,4.8973,-225.1292,-51.2632,-209.5597,40.9412,-69.9642,81.2456,-7.7375
-2875.0000,-87.4199,-157.4838,-4.5939,-157.3362,63.5999,-124.8860,210.9533,62.8477,109.6284,172.8037,123.4036,-273.0882,206.7395,-24.0803,40.3387,28.1845,-109.9310,-158.9422,133.0980,-26.8673
-2867.1875,100.8083,-110.6144,57.9302,-110.2612,41.4860,-72.7152,224.9072,3.9288,50.4114,-107.3696,101.7808,-37.9908,36.6973,-156.9251,-55.9281,-178.9656,-35.5259,-41.8138,214.0435,-85.8967
-2859.3750,90.7013,-121.0774,58.5267,-85.5213,29.0151,-48.8803,64.4739,-45.3545,110.8189,-46.9170,125.8015,-197.2360,97.2843,-169.1385,-32.5492,-81.4843,-26.7464,-122.0224,239.6348,-25.2655
-2851.5625,-35.4159,-317.5589,80.0921,-105.7879,121.5501,-140.0537,415.0476,10.3720,166.2334,-64.4289,255.8361,-216.5153,263.8907,-40.3385,96.8311,-135.9853,-72.5804,-37.2353,289.2271,-116.6261
-2843.7500,287.0792,3.5713,150.8423,40.5547,89.6846,49.3773,89.2297,-168.3022,-12.7630,-390.3620,40.4620,-27.1816,11.0869,-254.9433,-45.1933,-423.9138,108.7341,39.1593,364.4027,-111.3853
-2835.9375,136.4841,-146.3780,110.5837,-75.1999,152.7115,-107.2868,263.2781,-104.0844,198.1341,-33.3889,140.9832,-329.9612,222.1891,-154.6523,54.6588,-214.9383,-8.9229,-111.5562,425.4704,-121.2309
-2828.1250,136.6204,-147.5923,119.5755,-76.2150,155.4988,-68.2132,339.1073,-102.1031,163.7892,-214.6492,144.2908,-144.0062,114.0692,-225.5978,20.2399,-358.2063,-4.0327,-41.5267,389.2740,-192.3260
-2820.3125,211.0365,-38.5192,117.6372,-71.9642,155.5391,-66.8748,8.1559,-174.8852,127.6558,-177.7009,108.8461,-180.7813,41.1775,-225.3107,20.0269,-284.2562,11.0773,-179.2366,322.3146,-118.1589
-2812.5000,93.1064,-190.8031,63.4840,-225.0699,182.2285,-261.8952,365.8426,-111.0197,264.1724,-41.0867,209.0601,-190.9335,214.9559,-14.3606,119.4659,-148.6342,-131.5875,-226.3124,205.0064,-165.3301
-2804.6875,440.3970,50.1116,133.0665,-123.9763,102.1158,-157.7180,101.7399,-264.9542,72.8803,-341.2883,92.4738,60.1286,-13.0732,-205.2178,-34.8974,-338.8298,8.7312,-196.1833,93.8872,-135.2983
-2796.8750,307.0546,-83.5952,67.3802,-222.5262,70.3465,-261.1824,69.9467,-186.5471,224.9211,-42.1491,208.2324,-192.4649,176.2355,-51.7372,118.0709,-39.6823,-110.6382,-363.7143,-4.8891,-92.8987
-2789.0625,255.5881,-135.4145,35.2219,-274.1881,55.4830,-312.7614,276.0796,-164.2286,246.8728,-168.0912,193.9093,-23.1832,124.4635,-30.3413,175.9450,-128.6214,-155.7297,-275.3483,-21.7689,-144.5924
-2781.2500,347.0362,25.6930,49.6395,-216.9380,35.5154,-221.4259,-74.8982,-219.0242,79.6986,-187.1632,101.4712,-4.9816,31.5742,-86.0551,82.6842,-148.6920,-85.9939,-324.0681,-35.7612,-53.3736
-2773.4375,78.8207,-172.8468,-20.1160,-345.3312,49.9035,-354.7400,196.4653,-95.4709,130.8697,47.1292,263.3851,-101.4551,267.0503,149.5883,243.7557,49.5966,-238.3309,-346.4406,-58.4066,-75.7869
-2765.6250,227.4474,11.4649,21.3860,-196.8730,-14.8534,-199.2005,-52.2995,-197.0657,-45.1226,-237.7421,162.1536,237.9265,17.3796,-25.9156,141.6705,-199.2719,-104.7684,-197.9520,-85.2136,-67.3445
-2757.8125,152.7939,6.5058,-13.5457,-201.7001,-60.9155,-243.9483,-170.3993,-167.9768,19.5577,-26.9298,227.6047,46.0029,119.3938,75.2649,206.2648,12.5421,-141.9407,-307.7618,-91.3231,-2.1836
-2750.0000,70.4678,-75.1233,-45.7712,-248.1862,-107.6257,-290.3614,112.8851,-105.5320,82.5986,-73.7420,254.4143,146.3960,109.7853,102.8140,269.2074,38.7270,-185.6181,-144.2283,-67.0785,-48.6624
-2742.1875,221.4073,109.5119,5.9512,-98.4151,-137.0865,-100.5193,-211.5831,-171.8454,-59.1293,-177.3314,113.4562,189.0615,-68.5912,-75.4018,91.3841,-65.8626,-35.5296,-99.4357,-23.5894,31.1164
-2734.3750,-35.3554,-145.5522,-11.3836,-178.3430,-38.2504,-183.3787,35.2238,-35.8586,114.4367,105.3955,287.8007,-41.9920,142.3349,98.6877,190.8660,107.8596,-140.8383,-143.3511,37.2030,21.2077
-2726.5625,46.7272,-65.7795,40.1705,-62.4264,-25.5659,-24.3997,10.9083,-97.0158,-20.1395,-212.0286,154.0110,191.8065,-65.8846,-72.3693,19.2132,-172.5662,-19.7858,42.5838,117.8389,-2.8522
-2718.7500,98.9886,-13.8212,76.0701,-10.3537,26.2594,-9.2629,-194.2838,-154.0444,-78.5772,-87.3234,132.3599,-14.2386,-13.9732,-20.3005,-40.3090,-48.8553,32.7261,-11.3341,134.6225,49.2481
-2710.9375,90.9719,-162.1340,110.5716,-52.5447,94.8444,-50.3964,131.3015,-86.3182,-47.2457,-92.8430,202.4698,-55.5671,128.7271,48.5287,-82.0737,-16.3733,6.9532,51.4865,127.1681,-28.8998
-2703.1250,266.8657,83.4596,160.2176,52.1709,92.3336,94.3752,-201.2065,-160.6968,-270.0273,-278.4854,53.4693,53.0159,-20.6819,-136.7532,-267.9361,-165.0186,134.1872,51.2161,125.6092,5.8482
-2695.3125,-43.8353,-121.5341,81.3862,-82.7117,172.2254,-83.4579,61.6595,-8.6820,-81.4161,58.2822,132.8642,-272.0261,243.3176,16.3638,-115.4054,96.7423,-17.7211,-48.6652,167.4522,12.0019
-2687.5000,7.9971,-70.0020,72.0062,-31.0534,154.6752,-26.7523,154.1091,-26.1032,-62.2411,-180.3924,5.8210,-69.5306,151.8924,-111.9537,-60.3182,-141.9394,21.0617,38.0006,147.8440,-42.3033
-2679.6875,67.5099,24.2105,40.0403,-6.7402,66.7736,-4.3900,-117.8171,-113.8931,-40.4306,-85.4496,-8.5850,-120.3716,174.0987,-89.6417,-1.5834,-83.0001,21.9081,-78.6840,100.8840,17.0426
-2671.8750,-88.8452,-168.4446,21.5989,-93.2871,127.0290,-127.8944,236.4203,-16.5361,56.5587,-24.3351,126.1732,-97.0953,308.4833,118.8267,58.3231,14.1072,-77.8467,-24.2300,49.0799,-69.4644
-2664.0625,145.2495,65.3503,53.3256,34.6162,75.7412,42.0536,-34.8712,-141.7365,-105.0001,-295.7878,-71.6199,146.6446,36.3152,-42.2639,-103.3255,-147.3526,54.3303,-1.3157,36.7202,-46.5324
-2656.2500,-8.1910,-88.3858,-16.2669,-84.0183,60.9027,-82.5422,60.2545,-45.4985,63.8699,20.2116,25.0274,-162.1750,206.5981,90.0860,139.4670,132.6358,-70.5350,-119.9554,-46.1908,-24.1464
-2648.4375,-66.4488,-110.9462,-48.2762,-71.4618,2.2768,-66.9494,185.6112,-30.0470,115.9438,-112.5732,2.8943,36.1861,37.1114,-5.3522,190.4565,-0.1598,-78.6634,-2.3903,-69.9015,-82.5704
-2640.6250,4.8711,30.0717,-53.7805,-0.3374,-36.7932,4.2097,-111.5044,-70.0584,39.5374,-78.8383,-109.7038,34.1176,-112.8487,-81.2628,76.9669,34.5684,-18.4025,-72.2658,-70.0721,-11.4461
-2632.8125,-194.2289,-169.3146,-117.1240,-93.6128,-21.2567,-91.0337,161.9698,92.5289,127.7360,120.5172,-56.7010,-61.3764,49.8071,118.4432,166.0951,195.9176,-132.1104,-24.5496,-92.6480,-69.7196
-2625.0000,-35.3837,95.2527,-85.2716,64.0626,-40.7701,110.6719,-78.5877,0.0665,-113.1204,-120.1901,-295.7500,140.0942,-189.5853,-10.8940,-37.8303,-43.7879,22.2708,63.1239,-75.2859,-52.0515
-2617.1875,-158.0231,41.3480,-141.4258,46.2444,-62.7859,52.8812,-136.6722,88.0897,-24.4844,189.5986,-280.3154,-102.9460,-27.4865,114.2534,50.7227,192.0072,-33.3416,-24.7084,-94.4229,0.1209
-2609.3750,-171.8398,-6.7325,-131.2222,33.2586,-73.9436,40.9200,72.1275,76.9748,1.0282,67.2713,-217.0132,69.8284,-75.5085,140.2537,112.1499,69.6794,-42.4460,103.3019,-71.7066,-47.8655
-2601.5625,-55.5298,180.3042,-102.4297,149.3798,-139.0062,159.0638,-250.9825,-26.0492,-66.3685,-35.9853,-282.6183,113.7163,-177.4494,0.3320,-28.3231,3.4230,61.0175,78.4147,-26.8921,33.2413
-2593.7500,-291.2788,-92.7166,-115.7072,53.4442,-56.1148,23.1519,53.8490,94.8686,91.1924,195.7184,-89.2721,-96.4697,89.5807,158.3703,92.1789,198.1317,-50.5858,87.4661,17.8760,7.2960
-2585.9375,-88.7949,75.5046,-34.9393,151.7554,-63.9650,162.4848,-65.0347,14.0326,-63.9885,-70.3362,-168.6779,43.6021,-102.1292,-33.3462,-63.0431,-30.9170,83.4905,185.7709,79.8978,-0.4131
-2578.1250,-140.8866,23.1560,-45.2580,133.4716,-48.4105,105.2282,-195.5452,29.5771,99.2199,165.9890,-115.7013,-234.9258,-12.4484,-17.6912,-10.8773,131.4192,55.2733,62.4690,97.3206,52.2794
-2570.3125,-216.7068,-52.9190,-88.1973,22.4698,-50.5437,-7.7534,132.2752,100.4287,206.7524,126.6443,-82.4079,-164.1887,58.5654,17.2817,96.6034,92.0787,-37.4646,91.4519,91.0551,-23.7351
-2562.5000,3.2856,236.8129,-57.4225,136.2685,-80.8716,109.0715,-154.1035,-76.9273,102.0750,-50.9316,-258.3242,-47.6313,-117.6334,-158.9541,29.8768,-85.4840,88.5727,65.2461,64.5910,20.0399
-2554.6875,-123.6243,4.6447,-129.0886,-24.8280,-28.0943,-96.0050,117.6029,12.8085,338.4953,222.6035,-205.1429,-214.9889,155.2817,39.9089,229.2426,77.0617,-73.5324,-61.8706,43.2322,-1.0848
-2546.8750,41.0979,63.1143,-109.6250,33.7183,-74.6618,5.5591,144.9910,-33.8020,217.5793,-45.2118,-325.3061,68.3046,-1.1390,-80.5792,182.2706,-153.7417,-8.2821,32.6699,-3.4714,-47.5712
-2539.0625,100.2393,122.0168,-106.8100,-12.3236,-89.8282,-46.4669,-54.2514,-49.0287,129.0456,86.3527,-266.0875,-19.9891,57.8193,-95.6883,203.6876,15.8361,-30.9540,-119.3930,-85.7768,11.3419
-2531.2500,-76.5939,-55.0491,-123.3286,-120.3289,-50.9385,-155.4591,278.5694,62.8069,167.5767,124.9988,-80.8129,-18.2656,169.8502,-19.7284,278.1721,164.4970,-140.9750,-121.4125,-123.0256,-60.6988
-2523.4375,100.4827,157.7936,-87.2177,-12.4279,-125.1448,-7.5505,-52.6987,-10.4592,-16.9989,-22.4762,-189.6501,91.3735,-88.2259,-130.8828,130.5606,17.0383,-21.3010,-84.5222,-121.3775,-23.8499
-2515.6250,-124.5846,-32.4976,-122.8968,-97.6742,-67.5018,-133.7917,77.8665,120.1068,113.2759,218.9005,-59.6382,-145.1531,79.5559,147.7977,187.8029,221.4328,-124.9879,-133.7907,-135.8785,-3.1467
-2507.8125,-94.0717,-2.2095,-80.6438,3.6712,-70.2545,10.5526,149.0704,80.2754,0.1644,-42.1121,-99.0106,145.9135,-70.0416,108.0913,73.6697,-39.5644,-37.8063,72.5434,-175.7782,-42.8542
-2500.0000,-32.7245,128.9082,-65.4252,99.8293,-84.2128,69.7115,-121.9548,-7.7751,-88.1706,16.6488,-185.6120,94.8024,-119.8634,-16.8313,22.3246,-17.7826,42.9936,28.6862,-149.8781,53.2369
-2492.1875,-246.8932,-51.4760,-92.8933,25.4794,-13.6632,-6.6481,168.5313,63.6767,56.0079,123.9358,-78.6982,-18.8345,23.8427,90.7551,129.4809,126.5230,-45.3007,59.3096,-119.4761,13.8282
-2484.3750,-71.0242,196.1915,-38.0425,166.1714,-52.0593,176.0356,-89.9013,-48.8267,-165.7651,-170.7435,-225.7262,163.5959,-160.3961,-57.6186,-92.3144,-131.1359,105.0587,129.9895,-84.0259,49.4618
-2476.5625,-214.0038,52.0285,-63.1291,93.0194,-20.3065,60.8729,-94.2122,19.8095,-97.3949,117.7252,-82.6209,-25.8268,17.5110,122.1539,-24.9629,83.3587,13.2838,20.8104,-52.4283,81.2515
-2468.7500,-62.2659,-42.4172,-30.2191,34.6046,-41.7964,39.4407,30.2689,35.2050,-120.2495,21.9698,-31.7664,210.4863,-77.8086,136.6966,-9.8365,-49.3770,-1.8149,103.3794,-41.0794,22.7860
-2460.9375,80.0330,99.7127,-39.7305,70.7522,-116.7383,73.5688,-302.7131,-4.8682,-122.5650,55.7308,-143.3835,134.3772,-115.5949,23.7656,-13.1633,-15.5905,45.1820,33.5108,29.8162,93.8714
-2453.1250,-213.3337,-158.8081,-95.5734,-47.7532,-55.3210,-47.9586,90.6523,131.4007,86.4776,265.8662,-7.6456,-97.4049,129.9901,160.1911,122.8642,194.5641,-95.1169,21.9781,123.0619,46.3109
-2445.3125,-56.7173,33.6618,-9.7980,109.7374,-36.8949,117.5077,-38.9538,39.6689,-80.4758,-48.0056,-98.9110,103.8167,-72.4233,-79.3809,-43.0927,-45.2828,66.1094,143.4561,104.3141,27.7420
-2437.5000,-102.5984,-49.3543,-34.3744,62.7327,-50.9670,30.4840,-53.0933,62.4296,16.0640,195.6163,-2.6947,-129.4648,98.6535,17.5346,16.4475,198.3656,-0.5323,-9.5687,92.0779,50.6770
-2429.6875,-131.3026,-182.1931,-35.8962,-35.0819,-37.8329,-67.3558,217.0009,111.3995,101.8173,134.4641,120.7314,-44.5637,110.9525,66.6736,139.2016,174.2378,-78.1128,33.6043,100.0506,-47.1953
-2421.8750,5.0579,-45.9667,-1.3714,-4.8332,-44.6489,-0.1336,-83.8629,31.4062,57.6081,17.3348,77.1911,-51.5744,31.2779,-50.1475,94.9936,20.1345,-19.4013,-41.1631,130.0718,-17.0241
-2414.0625,-174.1443,-330.2916,-26.2970,-149.1373,28.9863,-184.4668,210.7052,104.8635,278.8657,237.6808,262.1017,-271.1566,326.0584,97.4808,242.2447,166.5041,-163.0674,-79.4906,161.5439,-90.3999
-2406.2500,56.1272,-206.1347,44.3858,-94.9425,91.1254,-85.3067,162.8042,-17.1760,119.6469,-142.4682,140.5120,46.7577,130.3465,-61.3889,120.0156,-139.6237,-70.3389,9.6920,180.5188,-212.2862
-2398.4375,2.3570,-190.0040,42.4963,-112.7902,148.2111,-139.1873,71.8266,-108.2808,139.3792,-48.6809,196.8413,-117.3650,260.5690,-78.3293,102.7416,-9.8137,-102.7026,-114.1788,232.4440,-266.2207
-2390.6250,-47.1520,-309.5999,72.8300,-198.3548,251.6071,-182.7874,433.1787,-115.0757,168.4425,-92.5545,338.4685,-87.2074,328.1169,-84.9533,205.8024,-52.6709,-164.7606,-58.7626,252.6712,-456.8594
-2382.8125,252.9922,-80.5342,135.4673,-74.2666,236.6493,-50.7362,87.1811,-204.2279,6.1458,-255.7988,175.7297,-29.3669,92.2989,-247.9402,116.5229,-252.8939,-24.9993,-75.6858,235.5481,-508.8586
-2375.0000,69.8821,-298.7029,98.1471,-186.4288,306.4450,-200.9417,229.9137,-60.6379,149.5965,34.7245,319.7397,-253.7902,309.2337,-67.1829,222.9952,1.6521,-155.9060,-152.8707,228.1749,-586.1072
-2367.1875,195.3527,-209.2894,150.4005,-96.9994,329.8488,-66.5571,254.2858,-110.4430,62.6531,-236.1450,233.3575,-9.6186,112.7875,-153.8147,100.0856,-269.1935,-62.5782,-28.4486,212.3978,-672.7703
-2359.3750,258.5930,-110.0976,172.0381,-33.8038,357.0042,-3.4116,-13.6178,-158.5188,14.4399,-136.2905,149.7069,-167.6772,139.0766,-164.7155,14.9186,-206.3102,2.9854,-70.2714,204.3685,-609.6891
-2351.5625,35.8514,-297.8710,133.2681,-80.5676,383.2237,-50.2275,307.5428,-21.5373,115.2889,-36.3531,250.1123,-214.7074,239.4405,9.4587,115.8184,-143.3464,-79.9418,-12.0532,157.3953,-656.5665
-2343.7500,156.6988,-36.0389,124.1428,75.2692,285.0450,108.5639,25.3166,-155.9567,-20.2664,-281.8333,42.1111,18.8906,-42.6066,-161.7661,53.3226,-278.7916,48.3186,38.7771,103.0268,-570.8617
-2335.9375,-89.3089,-141.0449,38.0136,5.2628,281.0117,-6.4895,94.2125,-14.2288,158.3260,81.8478,74.2473,-243.3619,137.4906,-55.8418,158.9794,47.9257,-53.6679,-66.2466,67.8195,-465.0112
-2328.1250,-82.7832,-99.5041,12.8575,11.8097,211.5323,72.0089,245.6622,27.0590,52.4745,-60.9088,-31.0864,17.9354,68.1403,-125.3715,53.1856,-57.7937,-36.1821,45.2831,38.1698,-423.6190
-2320.3125,18.6273,72.9453,8.4106,79.2681,126.9571,134.4141,-133.9874,-20.7540,-69.4936,0.2286,-116.5235,43.1460,-16.3224,-63.0004,-105.7160,3.3817,28.8193,-28.2786,-0.5822,-251.3344
-2312.5000,-193.2633,-104.8932,-82.5553,-27.5699,87.0897,-15.4745,158.0432,123.1280,111.2251,182.0673,-45.2645,4.0613,164.9091,155.0750,75.0741,148.2516,-106.0325,-29.1400,-71.6371,-217.3543
-2304.6875,-1.4123,158.0116,-76.5250,94.3457,-10.0282,144.3889,-123.1765,62.7630,-60.3001,-63.3347,-288.2593,310.7238,-153.0996,57.9083,-95.3785,-60.1186,28.7566,92.7489,-55.9525,-130.6292
-2296.8750,-102.2666,57.2280,-74.3811,98.5646,-9.8470,107.5542,-160.1051,135.6929,-23.5273,194.5567,-177.9665,89.6912,-42.8036,205.0453,-96.5167,123.8094,9.8800,26.9416,-86.9639,-20.6096
-2289.0625,-179.2467,14.3393,-56.1715,126.6850,-17.7764,173.6159,51.8747,127.5199,-68.8348,38.3559,-113.7761,228.5657,-124.5968,233.0847,-141.7263,41.6494,28.9430,160.0324,-130.0618,-28.6935
-2281.2500,-17.4381,248.2419,-38.5603,218.6069,-72.9126,227.4776,-334.3330,-2.8594,-198.3342,-18.0373,-241.7809,283.2518,-252.5916,66.9305,-233.1192,59.2939,130.8612,111.9325,-177.3501,99.0152
-2273.4375,-222.6788,77.1015,-79.6537,47.4847,-32.1057,48.2902,-35.5981,112.7093,-46.8711,207.5202,-52.8495,140.9000,-27.6378,218.7253,-118.5488,247.8853,-18.2936,45.7849,-207.6857,103.6705
-2265.6250,-49.0297,286.8574,-15.0859,152.2617,-71.3890,156.0006,-184.9538,-0.8227,-233.5022,-126.0124,-130.0195,394.4495,-213.7768,31.4240,-269.0641,-48.6133,112.1012,150.5367,-209.1180,137.2195
-2257.8125,-79.5338,185.4700,13.0244,120.8912,-33.8135,119.5624,-258.4549,37.4901,-270.2860,94.3062,-18.3534,137.8656,-102.0674,105.9643,-231.7313,61.7356,93.4349,50.1414,-134.6975,211.6115
-2250.0000,-65.6508,23.4876,20.9899,64.9212,-15.8274,100.5192,16.4422,127.2037,-178.6628,38.0324,-0.2955,192.6809,-157.9615,160.9060,-176.9866,-30.5040,61.4074,134.1465,-120.8798,155.3983
-2242.1875,147.0256,237.2980,21.7118,172.7470,-90.0357,247.2746,-314.8513,16.7177,-254.2292,-108.4382,-258.4310,265.2952,-343.0603,13.6448,-288.4269,-178.9368,178.5086,135.9552,-83.2622,227.9752
-2234.3750,-134.7064,25.7211,-43.2974,102.1702,-17.6412,99.6260,-21.5424,124.8298,-71.1916,146.6921,-222.9663,-29.4901,-85.5667,195.9779,-179.2743,77.2388,71.8767,135.3613,-49.0389,227.1475
-2226.5625,-86.9618,107.6307,-21.8779,220.0908,-3.7364,260.4772,-44.7234,65.4479,-167.6460,-96.6610,-393.0019,167.2172,-219.5692,26.8211,-276.6247,-129.0693,175.3977,288.2651,-72.3103,203.8149
-2218.7500,-188.2161,147.5408,-66.3685,224.0110,-38.8306,224.3307,-190.8997,30.0710,-56.1056,88.9896,-391.0470,-15.0644,-181.5774,-9.3308,-274.9720,55.6181,152.7049,187.1723,-32.5778,278.4762
-2210.9375,-328.9238,-26.9961,-101.8380,119.4837,-35.3788,117.7317,143.4652,106.2445,129.9940,128.2051,-240.5564,26.2141,-103.0385,68.0714,-123.7632,94.8658,38.5363,188.6211,2.7114,208.6840
-2203.1250,-120.2996,180.8092,-65.8114,223.3018,-149.5807,224.4729,-153.8044,-7.2229,-20.5309,-22.2214,-280.7216,167.8497,-254.1446,-82.1713,-202.1860,-55.5254,141.3951,185.4191,-34.6462,241.2351
-2195.3125,-288.6811,13.6119,-109.2578,55.1166,-141.7892,49.2173,0.9223,110.3123,96.9591,315.3614,-51.8998,-80.5065,47.7435,108.5802,-83.5894,209.0879,-18.7284,18.2174,-61.9962,248.7806
-2187.5000,-47.7855,77.7065,-27.6762,50.2300,-145.6983,45.2590,-3.0522,105.1566,-17.2334,90.2680,-19.7885,171.4398,-103.0645,-5.3637,-198.6790,58.0237,38.1193,82.3145,-68.0401,207.6227
-2179.6875,114.3392,205.0589,19.9894,36.5934,-127.3530,26.5498,-315.7730,51.2580,-109.1726,182.4342,-0.4406,43.6480,-121.6373,-60.0517,-253.5194,186.2218,75.1059,-71.3383,-45.8341,299.7126
-2171.8750,-45.2035,-59.2304,36.6141,-87.6933,-70.6574,-100.8106,-39.1599,179.7125,-16.7511,275.9683,275.2357,-10.7780,45.1246,105.6083,-123.9916,279.7822,-34.4971,-19.6486,-65.2855,245.1543
-2164.0625,193.0295,179.2812,124.6360,45.8167,-79.1646,37.6169,-304.7467,24.9714,-245.5099,-26.6748,192.6993,200.6011,-147.3085,-12.9286,-279.6408,-22.8402,122.1771,43.8453,-107.9403,273.3908
-2156.2500,148.7048,99.2495,110.8870,-70.2210,-54.2307,-84.5000,-279.8893,86.6829,-184.8208,218.1413,328.6016,-30.5507,61.6951,158.9856,-181.8384,184.9905,28.1072,-107.2049,-83.1507,298.0703
-2148.4375,217.4729,98.3174,125.2903,-70.1560,-52.2014,-81.5188,-92.9457,124.4981,-182.0331,74.0718,294.6124,154.4014,-82.2064,88.0055,-178.9223,41.9333,40.9311,-37.1526,-48.2513,226.8436
-2140.6250,316.2378,232.3780,115.4347,-6.0951,-98.1721,-17.5343,-360.9992,5.3181,-228.2423,28.0135,138.6210,109.3549,-166.1204,-30.9754,-188.9764,31.8851,108.4909,-43.1043,-54.3492,290.6039
-2132.8125,11.6519,-35.9129,55.4715,-99.3902,-9.4914,-112.9064,-14.4104,93.7908,-29.7890,189.6182,226.2747,13.9615,-3.3953,93.6828,-26.3533,156.4939,-17.0203,3.5878,-77.7817,232.0032
-2125.0000,110.3628,168.0776,69.0484,70.6030,-52.5116,65.0052,-167.5119,14.5727,-220.0174,-73.4498,0.2331,227.8652,-230.3597,-95.3599,-216.3970,-69.5803,121.0461,102.5718,-83.9044,225.6899
-2117.1875,-67.7748,96.2117,21.9438,31.7393,-56.3861,23.0593,-172.4532,46.5030,-188.0766,178.6291,69.3432,-34.0710,-87.1670,46.7398,-221.2645,145.5016,51.7971,-5.2976,-51.8630,257.5111
-2109.3750,-218.1272,-18.8621,-11.8312,-12.3219,-25.4626,17.9080,115.4137,113.2304,-156.3105,62.5157,63.2536,69.7973,-93.1573,113.6420,-189.3075,30.3885,-2.7151,90.6352,-25.9978,178.1158
-2101.5625,-104.5866,128.9599,-4.5485,100.5197,-56.6373,132.6635,-171.8029,9.8597,-261.6340,-77.6973,-113.9393,112.5702,-234.2459,47.4512,-293.4377,-73.8194,95.1256,98.4633,-18.2238,220.6042
-2093.7500,-218.0979,-88.2596,-43.2296,24.3116,-24.8517,54.3692,115.9199,113.4494,-83.0201,137.0449,-46.2003,-75.6932,-18.4059,188.2066,-151.6198,140.9329,-2.8066,56.2413,-25.4972,178.0318
-2085.9375,36.4655,95.6210,52.7176,138.1957,-13.9529,138.1743,-19.2568,-21.8425,-219.3039,-182.0846,-109.3804,118.1483,-228.4804,-20.9345,-214.7008,-68.1937,143.7379,171.1149,-86.6839,151.5518
-2078.1250,-3.4984,91.0076,15.1992,97.5814,-59.5548,93.4847,-211.9358,-30.6220,-117.0957,30.2966,-44.0822,-109.4834,-126.0802,7.4337,-76.2835,143.1796,93.7444,25.4898,-126.3824,216.5665
-2070.3125,-142.7900,-11.9037,-41.2743,28.6686,-91.4619,-11.4999,123.0628,46.3112,32.7926,-2.6072,-2.1027,-68.4004,-47.9904,84.5500,37.8278,111.2681,8.0110,96.5619,-125.3856,147.2798
-2062.5000,52.4549,217.7329,-20.1087,153.2991,-146.8283,152.0588,-189.3920,-45.1890,-95.7822,-130.9542,-205.5804,95.2391,-251.3501,-43.7273,-163.5097,-54.0782,134.7115,116.1809,-140.8443,201.5380
-2054.6875,-141.5536,-10.8685,-86.9782,31.6835,-164.4562,-11.6290,13.8863,83.0609,143.3940,181.4547,-39.3095,-141.3579,-47.9690,195.7585,2.8945,185.3353,-15.5750,29.5530,-88.5523,183.5440
-2046.8750,20.2645,81.3835,-44.2952,87.9240,-212.2430,86.5357,2.0123,35.1680,58.4283,-49.2657,-87.1830,103.9032,-242.7287,37.0985,-44.8527,-45.3840,62.3820,156.7807,-66.4036,135.3974
-2039.0625,79.1263,176.6906,-26.7771,112.2220,-226.9834,108.7582,-232.8127,-51.6738,8.5150,46.0748,-65.0149,17.2323,-146.4435,-86.5130,-22.5497,13.9615,91.1136,75.0621,-7.2003,194.2961
-2031.2500,-52.0972,8.9053,-34.3824,15.4267,-139.8293,-24.1163,111.2441,34.3885,94.4984,96.3329,58.0507,-43.5221,12.7235,-0.2236,100.6519,137.2130,-3.3862,84.2459,0.9063,97.0932
-2023.4375,128.2764,155.7098,-11.0389,56.2273,-171.0800,91.6087,-140.0966,-32.9403,-10.9010,-44.7901,-82.2771,-1.6668,-164.5151,-140.3359,-4.5352,-40.9245,71.6135,54.0291,77.6095,102.4859
-2015.6250,-200.6653,-137.7751,-101.4107,-60.2704,-72.6335,-30.9645,104.2474,101.4416,197.4186,236.8036,-57.9199,-344.0956,116.9233,67.2518,203.9825,166.6388,-82.0044,-28.4902,170.0040,89.5764
-2007.8125,-119.8787,-126.5169,-63.5110,-16.0187,-23.4424,19.2078,265.3277,78.5940,64.5011,-80.8228,-117.8256,-36.7693,57.1015,7.5989,181.2604,-77.0223,-37.0570,52.7392,110.1447,29.4165
-2000.0000,42.8070,1.6435,-30.0964,8.1377,-2.3549,39.2848,-44.7003,-47.3427,-25.5252,-58.5446,-170.8350,-88.5202,40.1635,-44.1586,165.4382,-91.7717,13.8372,-99.1197,99.1795,123.1544
-1992.1875,-218.7522,-259.4378,-107.9206,-147.9488,19.4737,-83.8845,308.0081,47.4725,254.2039,73.4944,-39.1076,-213.5119,209.9612,50.8281,445.3757,77.2313,-147.6904,-79.2294,82.9646,71.6430
-1984.3750,-68.0290,-39.2194,-116.6908,-32.7330,-43.4034,35.2487,97.0176,-88.3955,190.2456,-173.1483,-286.0978,-20.1992,-36.9483,-158.8761,381.6301,-95.4481,-37.7621,-0.0373,93.0453,81.4318
-1976.5625,-255.9283,-189.5914,-165.4552,-78.1124,17.1157,-86.2133,121.4188,-27.8521,288.6942,71.6175,-224.7116,-178.4641,171.5251,11.8232,443.2875,149.2801,-130.2805,-115.4410,82.5127,105.6234
-1968.7500,-254.9056,-224.0055,-135.5438,-77.5425,58.5829,-82.7183,272.7633,-24.3412,219.0978,-107.6407,-184.4048,83.2295,101.9335,53.4740,336.8918,42.9875,-125.6616,-9.8923,47.9152,35.7740
-1960.9375,-60.7588,4.7357,-81.9325,11.1856,38.1922,6.9313,-114.7430,-153.6607,88.6463,-126.7288,-240.9754,100.0952,7.4629,-75.7098,169.6369,22.8604,-17.6033,-60.1820,-39.5495,89.0818
-1953.1250,-307.1298,-240.0055,-144.0180,-127.5739,42.2897,-171.9061,182.2228,-3.4602,275.6820,133.6999,-18.0694,-43.5203,195.4598,74.6143,357.8730,248.2450,-185.7849,-129.9675,-74.5274,18.8977
-1945.3125,-112.3710,-44.6038,-77.0281,-38.1843,-9.4801,-77.5943,57.3205,-92.0912,76.8725,-137.6951,-70.0236,163.0154,-77.4048,-87.8976,233.2714,12.7975,-63.1565,-4.5859,-54.3447,3.8663
-1937.5000,-148.5513,-80.1468,-73.9315,-73.7519,-12.2200,-115.2391,-19.5294,-57.6675,148.1304,43.9685,38.0787,-60.3957,30.7737,20.6406,193.7325,194.4076,-97.8265,-110.1766,15.9069,37.8817
-1929.6875,-220.9649,-151.9542,-60.6833,-75.5819,26.7833,-151.1461,239.3709,-55.4945,150.1615,-64.6033,112.9393,88.9406,-4.2793,58.9312,231.9658,122.7695,-113.4130,-7.0305,13.9328,-34.3572
-1921.8750,45.6711,80.2786,15.3737,16.6268,8.8429,-22.0179,-144.6616,-182.2624,-14.7444,-191.1200,21.8560,182.3372,-168.2740,-104.7277,31.2647,-4.8188,20.9217,-21.8385,0.0193,21.4441
-1914.0625,-94.2908,-163.0813,-11.7882,-122.7626,49.3100,-164.4867,4.6972,-69.6234,135.7525,105.7734,209.1647,-34.8579,91.1217,82.0035,181.9650,219.9940,-115.1788,-90.2488,36.5066,-12.3585
-1906.2500,70.1345,-69.0377,34.6210,-62.7500,3.1807,-27.5567,-78.5369,-41.5697,15.6597,-160.9114,125.8617,140.3508,-139.0961,-36.8592,99.0661,-46.7806,-24.7095,39.7387,131.3878,-58.7605
-1898.4375,8.7027,-130.8323,20.0802,-54.5880,10.1945,-20.4729,-217.6206,2.6462,59.7131,67.5614,132.6983,-73.2696,-58.1878,7.4311,69.3112,70.6009,-40.7706,-57.1210,245.4138,-15.0104
-1890.6250,-110.9905,-319.8728,-24.3669,-138.6811,-1.0456,-104.6476,175.0335,139.6231,159.5194,94.8022,195.2776,-46.1322,41.4571,144.4811,133.3110,60.7527,-142.4877,-35.2438,302.1876,-99.5046
-1882.8125,158.6585,-84.5746,8.7573,-8.4298,-49.9396,66.5264,-94.9623,15.9651,73.6827,-101.5811,-37.8002,125.3625,-81.5571,-52.1090,-26.3271,-172.7251,-2.5440,-11.0189,220.3052,-75.6467
-1875.0000,-66.7957,-238.3795,-65.9272,-92.2833,9.0513,-94.4040,148.9226,76.2191,317.7570,142.9498,21.0072,-72.2270,198.3082,81.2031,143.9433,34.7136,-130.6269,-130.8996,171.3247,-89.8856
-1867.1875,14.2391,-122.6884,-21.2351,-46.6430,23.5303,-43.8401,199.3031,-20.0120,221.3457,-136.9979,-1.6933,125.6860,102.6715,-51.9795,157.7212,-171.3399,-60.5358,21.7167,41.8486,-149.6218
-1859.3750,100.9268,34.6619,0.5601,-29.3565,38.6575,-27.6292,-79.6719,-114.5834,89.5861,-84.2873,-22.7570,-5.7454,117.6778,-35.5079,137.1478,-81.7447,-19.6225,-67.0177,-46.9854,-97.7061
-1851.5625,-13.7327,-149.3327,11.9600,-108.4208,106.4322,-106.7684,208.9967,-46.4920,157.4814,-15.9117,154.8156,-47.5262,259.3185,105.6129,242.2259,-50.4978,-97.5224,-41.1109,-126.1742,-177.1347
-1843.7500,221.4900,156.5645,62.0834,22.4042,58.1020,-9.0139,-97.4274,-168.4895,-75.7083,-248.6151,-4.7120,124.5945,62.8533,-89.3617,83.2030,-282.3322,48.3427,-16.3079,-136.4628,-152.6596
-1835.9375,41.7090,48.4598,35.9887,-51.7715,89.7694,-124.2591,-29.8533,-62.4776,-6.8806,78.6850,137.7430,-137.2765,278.3692,-21.3411,115.1738,6.8389,-38.4092,-124.5062,-139.7488,-121.1815
-1828.1250,238.4211,104.8500,113.5223,-30.4514,40.9193,-63.0038,69.2118,-37.9483,-128.5269,-80.4874,198.6775,35.3531,118.3745,-142.8093,29.6581,-114.4802,32.0923,2.7872,-188.5280,-170.1993
-1820.3125,395.3845,263.4851,159.3940,57.1111,-18.6899,-11.5014,-284.4774,-97.1510,-260.9048,-28.3901,175.8535,12.2452,-14.3843,-238.0239,-103.5900,-100.5434,130.0112,-15.6776,-207.0541,-82.9661
-1812.5000,90.1016,27.8752,94.2678,-36.5782,30.4319,-109.2577,58.5688,-10.5915,-138.5203,95.4748,298.7768,-47.1101,108.5907,-5.4869,19.9194,60.1550,-1.9315,-4.3985,-195.8218,-106.9794
-1804.6875,224.6612,234.1085,95.0672,99.5726,-49.6038,67.8308,-169.5299,-164.1624,-328.2815,-168.7853,107.5507,240.3826,-192.5928,-122.0908,-59.7062,-203.2854,112.7105,60.7277,-165.7348,-77.1392
-1796.8750,99.8778,74.9919,3.7662,45.3778,-108.9977,9.5715,-153.9859,-75.0761,-130.4007,141.6088,84.9593,-38.4616,-68.1358,40.9596,65.3164,32.9227,16.7834,-63.4960,-114.0015,-25.6455
-1789.0625,36.3903,-22.8214,-2.3520,-17.5170,-98.0890,-16.3828,76.8503,9.3169,-82.2207,42.3107,132.6596,83.0059,-94.3808,14.3137,76.6288,-29.5675,-29.3132,14.5764,-70.9646,-88.8446
-1781.2500,222.7073,164.1807,52.4142,63.3857,-127.3838,64.4577,-283.5078,-56.4861,-184.2364,-23.1906,66.1571,54.2866,-196.8345,-124.5390,-136.2679,-22.2628,76.0992,-45.5467,-25.1342,-8.2386
-1773.4375,-50.0590,-108.9045,-25.0643,-103.8097,-80.7857,-109.7985,94.0208,101.6108,82.6481,245.2045,186.5479,-191.5311,69.5960,33.5052,57.7261,172.9404,-97.9788,-106.7721,53.5974,-34.7230
-1765.6250,71.9745,14.8018,-24.1541,-50.2057,-135.3931,20.7419,39.3573,47.5131,65.3387,-28.5910,21.7378,-25.5577,-132.1719,-94.6443,4.5316,-65.0487,-26.9418,-18.1984,107.1318,-52.3995
-1757.8125,86.9545,-40.5462,-34.9481,-70.6484,-157.0479,-39.7629,-20.3521,98.3629,189.9850,132.5567,71.8691,-231.6350,29.0081,-6.8453,55.2864,95.9039,-59.2340,-142.6680,51.6151,-2.1176
-1750.0000,41.9363,-189.8863,-14.9542,-115.0869,-90.7029,-82.2660,267.9365,130.2147,220.6265,53.7064,139.0008,-90.7125,59.1837,23.9608,123.0336,16.8529,-91.5698,-12.1413,42.0914,-81.8259
-1742.1875,259.3885,63.2267,68.4049,-2.0794,-48.9048,33.6778,-58.3273,-48.4779,5.7087,-160.6888,33.5901,61.6626,-83.1955,-153.7767,-55.7929,-160.7485,53.1890,-5.1688,14.0100,-40.0746
-1734.3750,29.0951,-96.4003,32.9276,-91.8272,42.1410,-96.1326,180.6436,7.0831,97.0341,78.1688,161.4281,-140.7031,192.6615,-25.2634,35.6164,77.8975,-59.1858,-94.9557,-4.8225,-59.0607
-1726.5625,202.4949,78.6585,100.0326,12.1148,41.8842,13.7479,106.3146,-66.6415,-123.9208,-215.2523,86.9605,154.6193,7.2242,-136.0465,-74.2737,-179.7443,60.3460,43.9473,-41.9532,-96.3385
-1718.7500,166.8540,148.6613,72.2464,12.0010,38.5716,-26.4222,-82.0633,-107.4010,-127.9208,-71.7215,46.4304,3.8963,76.7199,-102.8868,-78.2091,-109.4393,51.2993,-62.1947,27.8761,-26.6608
-1710.9375,-44.4234,8.0116,42.9574,-57.7653,115.5993,-96.2432,252.9019,-65.8005,60.4341,-103.8317,123.2417,44.5269,190.5527,11.6185,-36.7941,-141.7803,-31.6217,9.0029,28.0540,-96.6235
-1703.1250,175.5499,299.6105,105.6026,127.7133,48.8693,58.1822,-107.8835,-240.9382,-115.9540,-351.6779,-16.6918,236.4007,-59.3753,-199.6174,-249.1266,-389.8698,148.3306,88.4454,2.4785,-52.3286
-1695.3125,46.2848,170.9614,81.2722,68.9364,60.8810,-39.6466,15.0682,-191.3152,80.4100,-82.7654,105.1177,-44.9752,99.4357,-78.0993,-163.7191,-157.2093,76.0974,30.6287,-20.3506,-40.2724
-1687.5000,31.7649,157.0507,106.4299,125.8983,85.6365,95.2645,75.7787,-203.9341,-5.4717,-314.0887,55.6726,127.3924,-96.9968,-126.8178,-176.5659,-352.7894,131.9520,192.5543,0.5719,-89.4529
-1679.6875,27.5505,223.4349,83.8276,157.1511,77.6885,124.4716,-188.2069,-210.2463,-49.0584,-210.1155,-25.4857,10.0680,-105.1313,-133.2361,-219.1108,-249.0734,146.5258,82.7783,31.7913,-23.3210
-1671.8750,-83.8105,6.6757,28.6443,10.2534,75.5764,11.5260,175.6505,-28.7054,59.2087,-65.2914,82.1863,-28.4019,39.5717,85.1962,-74.7993,-104.5028,0.6039,41.8443,25.8585,-99.3255
-1664.0625,171.3745,227.4688,40.3233,90.8969,-24.9918,95.1269,-108.9367,-55.6079,-114.9587,-237.9054,-92.6037,201.6818,-208.1874,-51.8214,-211.9393,-204.3746,94.8877,51.4518,0.4771,-89.7665
-1656.2500,15.4043,2.1010,-17.5936,-29.6200,-4.7139,-31.4271,-14.6427,112.3519,15.7298,150.3284,1.4509,-108.3750,31.8937,116.0207,-81.2327,73.5975,-38.5093,-104.0824,20.9420,-69.3493
-1648.4375,-21.6909,-104.3942,-16.6104,-66.2789,33.4020,-30.1254,207.4624,151.1537,18.2622,5.4011,2.3342,41.4303,-3.2003,81.6980,-5.6955,-34.5916,-63.3511,0.2304,20.2532,-141.0589
-1640.6250,116.3556,33.2379,-12.2338,-33.7992,-9.3322,1.3126,-93.2629,35.1238,-98.0310,-36.3494,-77.6267,72.3624,-46.1346,2.5450,-11.0010,-39.6116,-18.2179,-72.3140,16.7066,-73.6030
-1632.8125,-81.7278,-164.2670,-45.9674,-125.4637,6.7743,-129.3837,180.8456,126.9412,29.5104,128.7247,123.2480,-56.8264,190.7515,130.2286,152.5299,161.1932,-137.6767,-93.9986,-39.9949,-130.2828
-1625.0000,186.7846,34.8305,59.6406,1.4708,30.4841,4.5165,-16.4722,3.3639,-167.3476,-104.5803,35.7169,150.5639,-6.7600,-103.4890,-7.3482,-108.3884,24.2551,-2.0950,-53.0968,-143.3398
-1617.1875,49.4903,-66.8912,4.7043,-64.4064,69.3983,-66.3932,-50.5607,43.0001,-53.9919,192.3244,37.3854,-140.8503,178.9324,-27.0033,105.9734,115.2327,-56.4987,-138.9878,-14.0057,-104.1881
-1609.3750,-19.6125,-170.4382,-12.9752,-133.1274,110.4512,-135.1443,248.4640,121.7755,-12.5043,124.3565,42.1875,-98.1046,183.7515,14.6113,184.4207,46.9781,-113.0202,-101.7349,-11.7641,-172.8667
-1601.5625,197.7745,12.4946,54.4419,-55.3645,78.0121,-57.4103,-115.9929,16.0630,-155.5112,-17.0920,8.5047,-19.8882,40.0903,-128.2605,4.3712,-58.7599,-6.3759,-164.9939,-5.0149,-95.0293
-1593.7500,-121.7248,-201.4729,-20.7241,-199.5017,111.6713,-243.5702,138.6583,87.4480,-11.4303,274.5294,188.9114,-206.5455,257.5121,15.9553,185.4027,232.5733,-169.6178,-203.1451,-8.1603,-98.0820
-1585.9375,-47.5153,-20.7428,-6.5304,-124.9410,116.0266,-130.0343,68.9927,18.5277,-116.6407,-14.1472,9.0098,55.4817,3.6302,-199.1366,117.1247,53.6098,-72.8664,-57.6126,-38.6023,-93.4116
-1578.1250,2.7794,-4.9429,-14.9327,-74.2995,90.4881,-117.4160,-139.5291,-5.2767,-30.7208,182.2873,-52.7899,-115.4044,52.8593,-186.1186,128.9548,176.7513,-41.6518,-112.9872,-58.9425,-7.6311
-1570.3125,-62.8403,-141.0733,-15.5478,-104.6067,98.9923,-72.7403,125.9789,76.9587,14.2458,117.7413,-7.5627,-70.2256,60.1127,-31.0746,174.8136,111.9102,-69.2468,32.6865,-18.2327,-72.7812
-1562.5000,27.8815,56.1285,8.6880,92.4223,80.8471,93.2693,-222.1480,23.5487,-149.4216,-9.4355,-171.9772,23.2672,-141.2589,-85.6700,10.0242,-52.5596,67.3012,-16.3028,2.8308,-16.5618
-1554.6875,-210.9346,-146.2248,-99.6955,-76.1036,88.1509,-46.2698,-31.7997,215.5872,78.3597,366.8116,-92.9466,-262.7775,49.8121,217.1733,90.6770,323.3966,-121.5265,-219.8351,45.3495,-8.8827
-1546.8750,-108.9275,-8.7651,-115.0370,-78.8272,14.2494,-10.0084,4.3191,251.4192,40.9351,182.8546,-203.1250,-43.0344,-172.3245,68.8004,17.1134,249.1510,-95.6205,-152.5829,42.6737,-46.3790
-1539.0625,-109.3863,61.2211,-151.9028,-79.0202,-27.1058,-14.2148,-256.9816,248.8182,1.0791,363.4670,-280.7416,-155.7525,-138.8938,28.9968,13.1041,356.4659,-98.1378,-222.7879,112.5468,23.6889
-1531.2500,-319.9653,-183.9212,-185.4868,-149.3596,13.3788,-84.5611,76.5491,363.0574,115.0579,404.8946,-168.5300,-116.5888,-26.6408,217.0202,126.9266,360.5988,-195.3759,-118.1383,113.2699,-46.3744
-1523.4375,-55.0442,45.4278,-121.3571,10.7895,-78.6432,81.5827,-197.4157,198.8013,24.5518,92.8444,-259.8130,124.0433,-264.8765,125.5507,-74.7503,49.2494,-41.6219,-64.0067,96.4927,-26.9157
-1515.6250,-174.4696,-109.5902,-153.8131,-109.4201,-58.0177,-44.6297,-67.6984,183.1990,265.7068,298.4304,-93.4367,-111.6676,12.5337,257.7297,93.2157,254.5356,-158.7296,-183.2216,82.3650,-5.7969
-1507.8125,-31.6656,-35.3929,-93.3124,-106.4282,-88.1995,-74.6384,49.1916,153.7831,236.0597,85.2004,-12.8715,41.8149,-17.8648,80.0898,100.3689,40.0057,-119.3398,-110.2486,86.4397,-72.4538
-1500.0000,99.7762,61.4169,-53.5889,-79.8082,-100.7274,-50.0211,-219.2297,32.0257,188.0948,110.6343,11.3560,-43.0756,6.4167,-41.8927,52.1979,102.1397,-74.1683,-223.6388,112.1660,-10.4489
-1492.1875,-147.7501,-150.7635,-114.3160,-220.1921,-61.2632,-194.4011,150.3483,145.2560,374.1262,261.0263,160.5719,-76.9513,228.6853,145.0961,165.0242,179.2436,-228.6110,-224.0280,111.8935,-81.4328
-1484.3750,-0.2626,67.0433,-63.9139,-73.5911,-54.7952,-40.7944,-27.0739,5.4813,197.1734,-62.5700,-17.1963,188.1330,-22.0278,-31.9248,-12.1446,-108.6519,-80.3834,-113.4385,83.6297,-74.3980
-1476.5625,-62.1679,-29.5767,-69.2657,-101.4046,-11.7220,-108.5957,-20.8525,49.3098,240.8371,202.4147,25.6527,-26.1946,56.8713,121.6569,-5.7152,82.0345,-113.7854,-174.2511,90.9714,-30.7591
-1468.7500,13.8729,-58.2813,-10.3295,-59.3162,-2.7538,-24.4924,136.2407,96.0189,141.3914,28.2694,34.3897,131.3824,-80.3426,95.1147,-106.4016,-54.4080,-51.4597,6.8284,63.2133,-94.2032
-1460.9375,198.8589,161.9354,60.6728,89.6988,-33.8274,90.5395,-225.6807,-8.3212,-74.0776,-38.9127,-33.9030,99.8722,-221.5755,-46.4733,-210.1258,-121.8860,101.0614,15.8360,36.4098,-14.6871
-1453.1250,-10.6861,-118.3919,9.3345,-13.8434,6.5547,-52.9830,70.8576,142.7784,76.9003,223.3185,79.2492,-117.1739,37.6320,31.3589,13.5904,102.0586,-28.0314,-17.7048,38.0550,-47.7134
-1445.3125,159.2356,86.7299,62.5234,85.0545,0.3858,124.9366,-82.1623,63.3218,-112.6626,-76.9942,-74.1524,61.2019,-188.7035,-122.3729,-103.2483,-124.5465,105.7355,117.1849,-2.8462,-53.2700
-1437.5000,59.3625,23.0279,41.5511,56.1345,77.4238,56.0407,-150.9364,69.0620,2.9835,148.8749,-70.3421,-153.2276,-111.8199,-6.8960,-61.8767,28.0362,65.4956,17.2765,3.4522,-11.6190
-1429.6875,-23.8194,-95.0050,53.7962,42.8749,105.1094,45.8122,133.9182,96.4276,-6.7479,29.3466,30.1095,-52.9914,-84.2994,57.2025,2.1228,-54.7684,37.1482,110.0188,-9.6010,-94.3007
-1421.8750,206.2930,135.2447,111.7057,132.9040,85.1019,136.8671,-252.9044,-32.9038,-172.1705,-135.8667,-63.1227,38.5146,-213.4479,-109.3918,-127.5794,-183.2592,152.6858,58.0476,9.6417,-39.6682
-1414.0625,9.2768,-61.6535,48.9424,-29.2194,100.9414,-68.2274,-16.8600,56.6033,64.2518,137.7356,99.4899,-239.1081,58.2442,53.8450,72.5492,52.0722,-6.8065,-33.0672,-11.2683,-60.1779
-1406.2500,153.2829,82.4616,66.3429,8.6548,68.7823,46.6748,-48.8329,-10.9016,-40.3308,-187.6701,-42.9019,-13.7487,-84.0571,-87.9375,3.6592,-163.6011,65.1172,75.8062,-43.1764,-91.6684
-1398.4375,115.4824,78.7458,33.9643,5.7087,61.8336,3.7629,-201.5523,-54.2026,-9.6981,-9.8796,-50.0776,-203.2140,55.8692,-20.5153,34.9670,14.9213,36.4435,-69.1209,-45.8749,-23.9546
-1390.6250,-38.7395,-110.4049,-21.2022,-77.6802,50.4353,-81.5843,117.2679,45.0204,126.4784,16.4080,48.2878,-105.1256,118.3325,152.4204,170.8091,76.9445,-74.9727,-46.4931,-130.0122,-71.6812
-1382.8125,153.3915,187.7686,-22.8572,43.2696,-45.6082,43.4059,-235.5410,-123.4137,-42.9746,-188.9459,-157.9857,167.2661,-125.8243,19.7040,1.0125,-18.6775,42.9007,4.4711,-182.7881,-20.0486
-1375.0000,-67.1445,38.2238,-73.4079,-36.4881,-56.3420,-78.3041,-63.0203,13.4415,57.8746,94.9662,-21.9547,-27.0418,121.3233,193.2705,64.5052,228.9749,-60.8190,-4.2595,-156.2561,6.8823
-1367.1875,16.5111,85.8382,-38.9145,81.9093,-113.9265,48.1404,26.6231,-6.5751,-110.1274,-145.9934,-79.7716,210.7859,26.6149,98.9629,-66.8697,24.7601,27.7898,149.1479,-109.5684,-50.0224
-1359.3750,85.0044,119.2722,-0.3504,150.1373,-118.6481,153.4143,-234.8386,-11.7428,-187.2514,-77.1003,-85.7111,58.4430,-15.2120,94.5060,-181.3791,93.3991,91.2917,76.3949,-41.0344,18.9271
-1351.5625,-110.1674,-110.9809,-36.2978,25.6709,-26.0695,26.0011,151.9966,81.3672,-58.0841,53.0392,7.6370,4.4167,114.2448,260.3131,-89.6053,186.2974,-33.9266,56.9488,10.7985,-34.8132
-1343.7500,106.6211,105.7039,-1.8263,101.1425,-59.5318,139.5243,-102.2159,-24.5869,-199.9552,-199.8622,-172.0602,229.3070,-175.3279,117.0624,-231.8702,-67.8475,79.3941,97.4314,16.5854,6.4149
-1335.9375,-67.1851,-68.2321,-39.5194,-2.9987,14.4106,-7.5587,46.0120,12.8592,-89.4233,94.6129,-99.3492,-64.4058,81.5116,228.2026,-120.7284,153.3861,-24.1460,-6.6826,53.7715,44.0486
-1328.1250,-94.1658,-60.3581,9.7480,5.6632,62.1511,41.1643,205.0155,25.0862,-151.1031,-114.1390,-51.8365,93.6707,55.1490,56.1148,-182.8101,-18.5974,11.5620,142.9932,26.7620,-17.4965
-1320.3125,42.7445,146.3838,68.8242,71.2013,91.7967,69.7693,-133.0443,-55.7800,-267.8607,-120.9845,-96.3958,49.6127,10.7265,-98.0634,-337.9885,-62.6759,104.4713,67.5578,92.6519,48.8705
-1312.5000,-161.8558,-93.4193,18.6820,-27.8046,137.8941,-68.1666,207.3520,64.7828,-38.1850,145.5640,23.4962,-87.9760,204.7478,94.1867,-291.7408,57.6502,-28.3375,3.5760,134.9878,-14.3009
-1304.6875,103.4055,65.6309,54.9663,60.0329,46.8417,61.7393,42.5950,11.1762,-128.6582,-92.0452,-141.7504,116.2635,-33.3574,-69.7216,-492.6411,-143.1785,85.6690,91.4244,118.1722,-30.6017
-1296.8750,-19.8254,-21.8423,1.6464,7.3524,28.2975,6.1335,-49.6186,66.0656,37.3772,109.8260,-87.4774,-159.0070,94.0574,21.8615,-291.0356,21.4841,11.4462,3.7746,205.8582,-12.3977
-1289.0625,-28.4615,-100.7588,11.0927,33.2267,59.3039,37.0853,129.6915,60.4774,142.9480,-4.7845,-92.6616,-54.7378,15.0155,-20.0410,-75.8933,-168.3238,24.1348,135.6698,197.1035,-90.6278
-1281.2500,172.0365,134.4355,25.5365,163.2283,-28.5322,170.1626,-214.8058,-63.9670,54.6993,-56.2357,-253.6614,4.6352,-182.8375,-108.7958,-199.5731,-254.9729,144.0249,124.6975,186.5105,-30.6979
-1273.4375,-102.1487,-141.0733,-45.7385,28.5288,15.9347,30.5459,87.0189,91.8696,321.7565,210.5589,-99.3584,-170.6810,82.6127,46.7192,-81.9530,10.6282,-23.5715,25.0328,158.2243,-58.4631
-1265.6250,70.9393,-38.3323,26.8753,60.0776,12.6574,101.1760,10.0834,15.9361,208.0684,-13.4167,-102.8034,46.2276,-104.6689,-140.5320,-268.0877,-140.5291,58.7810,92.6026,85.2014,-60.9636
-1257.8125,58.2393,-51.4210,12.5978,47.8064,-39.4053,48.9923,-78.6031,37.1980,230.5969,191.7916,-45.0298,-151.6845,-46.7238,-118.5831,-247.0111,65.5057,38.7894,9.3720,72.3842,-2.2646
-1250.0000,-38.2638,-148.3395,-19.0167,-14.3069,-27.3135,-13.0301,227.8447,122.5756,279.2626,130.0965,2.8948,-67.4427,-34.6351,3.4786,-88.8062,39.6533,-31.2856,52.2892,81.7174,-63.4074
-1242.1875,99.2772,94.7705,-5.6005,87.6188,-108.1560,89.9809,-35.6308,-31.0085,88.9955,-60.5446,-114.0989,36.8098,-187.4564,-113.4127,-131.5501,-149.1443,70.9440,49.2464,78.1040,4.5069
-1234.3750,-110.7063,-115.6741,-37.3462,-17.0073,-33.5344,-56.5527,186.3722,43.8321,164.1669,198.2162,34.3758,-182.4745,69.1796,71.1218,16.1406,71.4726,-47.2637,-20.3364,78.9419,5.8683
-1226.5625,187.3537,5.8910,37.5575,33.3685,-52.9069,-2.0818,204.3528,24.6429,-75.6739,31.9473,-59.1470,55.2263,-97.1772,-59.3683,-77.1885,-131.9271,56.0953,65.0688,-10.2191,-12.7588
-1218.7500,242.6681,60.6773,19.9869,16.9764,-73.0168,13.6196,-0.3663,3.6920,-94.2470,84.9170,-152.3911,-38.8541,-80.2469,-6.6071,-96.2494,-78.0753,64.1610,13.7217,44.8623,77.8624
-1210.9375,-52.4919,-164.0177,-64.6658,-31.9045,-48.6150,-35.1645,356.4090,29.2087,150.6613,-37.6760,-92.1383,-51.4283,55.1809,55.6157,295.1796,19.2345,-48.2893,70.8789,31.4426,29.9878
-1203.1250,32.6945,-45.3773,-43.6026,87.5541,-108.8513,87.3930,37.5487,-104.9372,-21.0715,-244.9155,-189.5186,71.3077,-153.0045,-115.8146,343.9685,-115.1006,60.7374,189.3687,45.3687,79.4712
-1195.3125,-118.2019,-266.8451,-64.7581,5.9048,-48.1764,0.8453,136.6209,-7.1971,115.0917,109.7122,-90.9866,-197.0544,17.7227,17.6392,442.6548,92.4373,-24.4689,143.7623,105.1964,104.8495
-1187.5000,-50.9694,-199.2018,-60.5797,73.3527,-50.4013,36.4048,245.7718,-9.3822,77.3515,-74.5844,-203.3533,-16.3294,-93.4482,-20.8374,478.4276,-128.9355,26.7075,211.2424,-3.8768,67.3380
-1179.6875,-8.1053,-51.9516,-89.6372,79.4307,-118.9626,76.5920,-43.3775,-77.9179,81.2822,2.7769,-273.0320,-84.9892,-51.9231,-52.6583,334.8657,-51.6446,39.0179,112.3602,-30.3038,145.4761
-1171.8750,-229.7600,-239.2445,-58.9191,-38.0333,-20.0703,-43.7561,276.9200,57.9700,218.6425,175.5242,46.7440,-169.1818,194.0492,82.9435,213.7438,47.0579,-69.1186,64.9397,-113.2830,99.0648
-1164.0625,10.4002,70.2538,72.8171,96.2986,8.6323,93.6898,11.0245,-60.3618,-83.1917,-200.9357,1.3350,78.3912,-34.1474,-72.6638,-125.5738,-218.4406,122.6849,164.3078,-188.4543,164.4600
-1156.2500,1.9672,-43.8683,43.6396,17.0264,-3.2546,8.5341,-74.4213,-72.3057,-21.6206,-30.0255,62.3454,-116.6464,136.0833,62.1124,-27.4906,26.4372,46.0061,14.0865,-127.2149,226.2458
-1148.4375,156.1609,-101.3828,66.7957,-5.6333,-25.5337,-14.0025,50.7095,-58.6761,-43.4624,-162.5556,39.9609,80.9025,40.9153,2.4504,24.1832,-106.1148,53.7025,61.4663,-185.3597,204.6346
-1140.6250,275.1820,121.9189,80.4139,42.5431,-90.9436,67.2987,-308.2676,-124.1999,-145.4330,-228.2300,-24.5454,89.2609,-97.3588,-100.3573,-78.2754,-135.8120,125.3027,-30.3107,-206.6398,323.8678
-1132.8125,6.7310,-42.2734,34.2445,-86.7731,-41.8395,-67.8902,-37.7276,-1.2518,15.0814,-32.4615,134.4518,-82.8680,61.8668,58.3033,43.7511,23.9444,-1.0944,-54.5737,-194.4068,336.5934
-1125.0000,110.1487,166.3817,65.5212,15.7633,-84.8731,73.7755,-116.3459,-117.4757,-174.5558,-295.8550,-18.6834,168.8214,-127.0323,-21.2036,-219.3768,-240.4541,121.8085,84.0005,-267.3198,405.1710
-1117.1875,-51.5305,144.9121,62.4918,65.1914,-37.9940,82.3310,-180.0141,-108.8135,-164.2750,-139.3718,-8.8929,-5.6048,-7.0019,61.1806,-320.5931,-120.9646,138.6120,62.4767,-253.3291,525.6349
-1109.3750,-153.9692,111.6560,73.0570,66.8309,1.0944,121.1004,42.5018,-69.9836,-235.7995,-248.7379,29.0965,106.1659,-4.7766,99.7255,-318.6244,-155.3097,141.0365,170.1522,-321.1342,528.2969
-1101.5625,6.5382,342.3230,105.5333,191.4030,-57.8498,245.8033,-272.9939,-202.2124,-441.3557,-381.1484,-139.9375,120.8377,-174.5552,-32.7751,-450.6928,-288.6918,279.9131,188.7594,-301.9849,653.9030
-1093.7500,-230.0853,104.8336,40.3806,94.8244,-49.9284,106.3615,66.3845,-121.6133,-286.0694,-116.7555,-58.1122,-129.6331,54.5250,158.5499,-405.9156,-60.2592,157.5022,127.2257,-221.9835,699.3467
-1085.9375,-103.2395,195.7961,54.4184,149.6998,-66.5415,163.3752,50.1944,-174.5900,-412.3405,-353.9315,-221.8238,148.3231,-145.9244,31.3086,-496.6928,-261.3918,229.7082,218.1226,-236.5335,720.2394
-1078.1250,-141.0495,157.0827,26.5318,146.9090,-108.7911,156.7199,-175.6006,-144.2284,-418.2477,-176.7700,-191.1547,31.6124,-150.9856,98.4230,-392.0986,-120.1755,205.5054,144.3631,-168.7371,788.4675
-1070.3125,-202.6728,-11.4600,10.6486,84.2768,-134.8905,57.2249,93.7387,-59.7497,-296.0247,-165.5113,-32.3382,116.0638,-139.9001,145.6565,-196.3624,-72.8390,123.4900,151.7568,-195.7962,726.8397
-1062.5000,57.3041,282.5829,41.3148,131.2327,-234.3807,141.3150,-152.3093,-233.6830,-358.1887,-339.6417,-131.8918,237.0787,-349.1735,-65.5043,-333.0055,-172.8842,220.7326,128.7296,-183.2632,774.8072
-1054.6875,-221.0660,39.2646,-25.8143,-7.1658,-155.2155,-37.9443,110.3238,-154.9782,-131.6987,-78.1578,-16.7776,-16.2464,-12.7837,49.9676,-217.9899,52.6966,59.8770,26.3574,-39.0814,743.4113
-1046.8750,-129.5773,58.8066,0.4157,48.2915,-130.1969,23.6534,172.7817,-167.4487,-216.3643,-273.8451,-101.8054,156.2711,-134.5404,-35.7292,-156.1174,-180.8866,112.1561,116.8280,-53.0484,658.8654
-1039.0625,-85.2496,138.1677,1.5025,56.5897,-121.3173,-4.9113,-74.8668,-195.0789,-244.1589,-155.6843,-129.9524,-19.3842,-88.4128,-27.5675,-184.3729,-98.6140,122.8004,19.1483,-9.1654,668.1570
-1031.2500,-246.4323,-130.0043,-28.9162,-35.6457,-63.9854,-95.0039,239.9150,-28.2924,-76.5265,-62.1299,1.3573,-73.5663,116.1553,139.0176,-90.1921,-4.9285,-1.1691,-2.0710,5.1629,541.8887
-1023.4375,40.9857,120.4139,21.2466,4.7160,-94.0410,-14.4992,-9.7053,-168.9211,-179.2992,-349.9706,-102.7050,116.8190,-97.6487,-38.7937,-83.4143,-256.6267,93.5558,2.3005,10.0927,512.2165
-1015.6250,-128.8471,-84.4317,-22.4481,-95.1718,-48.3268,-153.2429,110.4601,-160.8072,124.6725,-121.0912,53.9986,-132.0508,132.3129,43.1331,146.1102,-63.5898,-33.9166,-97.5653,86.7765,448.2778
-1007.8125,-127.3586,-119.9606,-6.3387,-95.7471,-4.3087,-109.6697,300.8946,-190.4198,167.9306,-261.9373,61.0023,58.3666,66.5781,-23.6709,116.9315,-204.2711,-34.3401,7.8636,51.7644,308.6375
-1000.0000,20.1095,26.4825,26.6176,15.6680,-34.2748,-30.1101,-22.6364,-259.0353,-8.7982,-219.7737,-6.9592,26.7487,35.8893,-92.4661,48.7730,-198.9427,56.2768,-21.7092,57.7519,314.9838
-992.1875,-137.2023,-237.8609,48.2808,-72.7001,61.9706,-117.3325,258.0278,-88.4766,51.6512,-49.4615,201.2828,-96.6461,280.3995,40.9171,35.7920,-28.4508,-35.5109,29.9314,74.9460,192.5161
-984.3750,135.4448,-1.2545,158.0670,93.8850,92.1821,58.3983,30.6335,-168.9847,-211.9592,-315.2026,83.4904,152.8789,15.8942,-150.7466,-228.2408,-257.0010,148.6280,126.5108,-3.9100,148.9928
-976.5625,-41.6133,-74.3650,103.0953,90.7679,126.7073,55.4269,-80.4256,-136.2034,-141.2659,-97.6641,118.0230,-33.3044,124.7206,28.8911,-46.9582,-39.2605,88.5098,52.3991,-40.4689,146.7496
-968.7500,-72.3989,-70.2061,81.5089,94.9161,99.4902,65.7213,76.7397,-90.2035,-167.3369,-198.9124,127.8125,158.7640,97.7954,111.7519,-75.4315,-68.2920,66.3279,127.5340,-140.7787,46.7500
-960.9375,90.2995,161.4237,94.9367,150.5537,47.7845,122.5003,-195.5672,-179.7077,-219.8876,-215.6507,2.1395,106.3033,-27.5894,-14.8786,-273.3799,-47.8027,144.8071,78.1617,-119.5940,68.2354
-953.1250,-148.8389,-113.7913,39.1915,-18.6502,96.2403,-49.5580,110.2837,-22.0844,48.6966,125.7138,197.6263,-176.9893,205.1734,32.6231,-42.1844,220.8079,-27.7709,13.9510,-78.2612,-30.1481
-945.3125,126.8236,20.7986,95.1867,44.9543,19.5060,20.1917,-3.0864,-62.6728,-27.9278,-136.1224,157.9178,2.4926,-18.2445,-155.0816,-46.1919,-40.7718,59.4738,42.5294,-85.1351,-106.7401
-937.5000,63.1725,-79.9309,49.4465,-19.7459,27.4871,-9.3640,-104.7222,-92.5627,54.1486,-19.2608,202.9270,-174.3367,137.0623,-38.0745,182.5186,113.3528,-22.1143,-58.1867,-44.3184,-135.6547
-929.6875,-72.1558,-181.3309,5.2144,-51.1280,75.7679,-35.5978,200.9092,-82.1773,139.5020,-82.1359,214.2264,-52.8501,185.6543,-63.7866,414.5199,50.7548,-92.6686,-18.6004,-4.2113,-271.2807
-921.8750,187.3419,78.1025,65.0986,-3.6620,88.9078,88.0113,-79.5979,-216.9447,41.7149,-254.1446,80.3945,-4.5344,52.1297,-309.6302,280.3907,-83.9705,16.5624,-76.1711,8.7340,-258.0704
-914.0625,-52.8084,-198.1069,17.0053,-173.8352,171.4039,-124.0153,187.2565,-98.3747,272.2536,48.1611,272.9168,-289.8450,318.9581,-117.1264,399.6092,144.6362,-161.0267,-211.3750,120.0221,-322.5305
-906.2500,99.1953,-154.1562,61.8026,-164.8373,186.0584,-35.8718,166.2238,-121.6724,176.9237,-232.3889,214.5950,-55.0185,150.9412,-177.4769,303.9695,-61.6031,-111.6713,-96.4280,130.4549,-417.8477
-898.4375,111.7209,-177.6834,73.9449,-117.2917,198.2732,-24.1818,-5.2322,-147.4112,152.1474,-111.3794,226.8505,-154.6591,236.5044,-166.2584,204.8901,22.7267,-97.8437,-190.9241,177.4341,-405.6348
-890.6250,-21.2454,-311.6828,46.5810,-181.2191,210.9899,-86.9614,264.7787,-62.6688,274.8384,-99.9072,312.6085,-105.7866,322.5500,-154.5599,290.2930,34.5402,-174.0837,-113.9025,219.9090,-503.9353
-882.8125,199.9147,-20.5349,92.5171,-66.9921,183.8686,33.4073,-57.0679,-163.7802,100.6844,-275.2641,175.5367,50.2023,75.7726,-329.6969,152.8541,-140.4704,-46.1593,-139.7363,194.5315,-494.0967
-875.0000,7.1619,-214.2888,29.7736,-189.6493,203.8555,-95.1090,37.2008,2.2018,230.6312,37.4583,268.5657,-225.7028,243.0990,-126.7298,282.5162,172.6033,-175.8304,-192.4493,247.2550,-511.1803
-867.1875,142.8703,-150.5696,66.3657,-124.8338,201.2948,-60.1541,108.8779,35.6146,155.0152,-150.3791,193.0316,-44.1609,130.8733,-240.3172,280.6236,-13.8857,-108.8575,-92.7072,206.4242,-586.8226
-859.3750,243.6016,-14.8176,93.9793,-95.9680,156.7979,-32.1548,-83.3673,-83.9216,146.4594,-122.1559,222.5652,-163.5828,159.7336,-359.8389,271.7997,13.6947,-61.8372,-168.9138,201.6346,-521.4350
-851.5625,101.8476,-228.5399,73.0377,-168.5809,158.8008,-141.6319,249.8654,-8.9777,258.3801,-11.4622,407.5904,-199.4818,309.0842,-211.8849,457.4725,87.7579,-161.3186,-135.6097,199.3375,-593.5662
-843.7500,472.4305,35.0907,121.1311,-44.8420,66.1592,23.2364,-62.5685,-139.6850,19.6530,-252.3941,168.9749,37.9371,32.8082,-342.5706,291.5100,-115.7962,-2.2398,-47.9715,182.3851,-575.3597
-835.9375,367.6458,0.3642,121.4950,-115.4498,102.1745,-125.2401,10.6663,-67.7379,128.5748,3.3154,352.0226,-183.9893,253.1942,-233.5864,253.2055,103.3030,-77.1853,-223.6725,183.0701,-539.5301
-828.1250,297.8722,-0.3361,134.6925,-186.0361,104.1871,-160.6973,269.8596,-66.8025,93.4706,-143.9879,464.0624,1.0958,255.5712,-306.6062,181.8918,-42.6069,-111.6911,-154.3700,147.7416,-574.7130
-820.3125,361.4676,168.3453,118.6085,-123.2228,55.6084,-98.7618,-36.5314,-116.4587,7.7789,-156.8606,341.5207,-12.4382,170.3732,-319.2019,96.0036,-19.0826,-57.4381,-232.6682,104.7987,-476.5166
-812.5000,107.0150,-156.9996,25.1459,-237.4372,84.9805,-254.8520,324.0152,21.8248,221.0186,92.1865,370.9158,-131.0016,347.1112,-106.8575,272.0601,156.3766,-210.3154,-240.9976,96.7917,-484.3902
-804.6875,267.1324,72.2742,56.1274,-113.0303,27.9586,-127.3275,158.1353,-109.2954,90.8490,-223.1549,203.9072,143.0112,144.4635,-311.9045,177.7167,-121.5418,-76.0490,-116.7284,45.3722,-430.6744
-796.8750,176.7704,51.0923,58.2566,-134.0618,76.4981,-152.2438,95.8260,-134.8629,139.2177,8.0525,289.4612,-67.4163,303.3733,-227.3788,152.9253,37.0950,-102.1843,-242.8942,24.4835,-345.4331
-789.0625,75.8739,-49.6025,50.3752,-164.6149,120.4841,-182.6844,323.9100,-92.9954,146.0023,-60.3089,296.4508,-24.3674,273.7101,-184.4057,232.5710,6.1695,-128.0599,-133.6010,64.0231,-375.7534
-781.2500,162.6447,71.3926,60.3977,-113.4683,97.1708,-60.4293,-31.3083,-117.4182,48.4921,-121.9328,162.1494,-49.6373,139.7706,-282.6951,134.9357,-56.0203,-55.1171,-152.6124,150.2525,-289.3888
-773.4375,7.9536,-155.0426,31.2100,-198.7500,118.4113,-185.6013,249.0081,13.7073,143.5092,118.9728,294.3865,-212.3298,309.3645,-41.4316,193.8451,149.3253,-158.7778,-168.0493,206.0204,-304.4933
-765.6250,213.0478,-20.6525,82.4331,-65.2043,76.4524,-44.9493,132.0785,-67.3708,-9.6956,-145.3090,178.4084,148.7719,46.7583,-121.3592,3.5425,-114.5147,-35.6438,-69.6821,164.5744,-310.8043
-757.8125,157.9592,-41.4150,63.1902,-84.7944,51.3457,-69.4404,-75.9877,-18.5883,112.9412,86.2787,227.2822,-60.2718,59.0106,-110.4098,15.0956,80.5239,-58.0691,-160.4483,143.9618,-225.2852
-750.0000,-21.2295,-221.2353,25.4878,-88.4514,50.1324,-107.9979,179.7958,52.0893,295.4417,120.7513,263.0331,-99.3884,95.1315,-75.5602,124.5339,78.4603,-104.4774,-58.3015,140.2321,-263.8751
-742.1875,128.0375,-2.5561,-1.1450,-10.5962,-18.5866,6.9485,-109.9354,-54.7166,262.4455,-23.2272,10.2925,14.9662,-84.2279,-256.1775,91.4856,-65.0576,-20.8698,-85.6548,112.9862,-185.9689
-734.3750,-164.9101,-261.0652,-115.7457,-162.9205,42.4890,-153.2848,135.1222,78.2913,507.2335,330.5940,34.3409,-182.8566,124.1973,-85.9760,336.2394,216.2249,-200.7452,-203.1856,100.5202,-162.2738
-726.5625,-57.4237,-154.0980,-123.7899,-126.7670,-27.9960,-114.0486,101.5703,43.7546,363.4545,111.8804,-73.1815,113.7730,-55.9371,-193.3059,339.4324,33.9767,-158.8551,-96.2626,66.4874,-196.1253
-718.7500,-21.2408,-11.3905,-105.0397,-124.8574,-29.7296,-152.0611,-120.2173,4.9829,288.4284,256.9455,-37.9433,-35.8472,-57.2998,-232.8500,264.3847,179.5147,-135.1320,-200.5777,33.1910,-124.2382
-710.9375,-123.8609,-185.4451,-100.2391,-192.7163,13.7290,-219.8424,217.1570,83.4022,293.5724,298.1923,78.4721,-104.2373,96.5106,-117.1940,343.5253,221.2417,-196.5764,-128.6747,-34.9202,-192.1596
-703.1250,142.4827,79.5062,-16.3006,-32.5646,-3.8157,-90.6221,-58.4953,-82.1662,55.7109,22.4811,-49.1117,61.3539,-67.6631,-282.5086,178.6783,-16.9862,-24.5977,-73.7743,-87.0457,-173.0884
-695.3125,-79.5041,-70.8368,-51.5135,-113.6992,96.3354,-173.6924,42.5559,17.9782,118.5392,305.4734,51.0039,-169.3306,143.8548,-35.1012,241.5392,229.4961,-126.5096,-155.1588,-61.4869,-183.3403
-687.5000,-99.2419,-21.8937,-55.5646,-98.5580,79.7322,-80.4915,135.7976,36.3668,27.5916,103.7206,34.3487,70.2477,16.6059,-16.4404,187.6381,102.2393,-116.4082,-35.2884,-47.6900,-274.3532
-679.6875,-62.6677,85.3889,-75.3602,-27.0620,5.4872,-7.9407,-159.6072,35.1288,-46.0073,175.3597,-38.9457,32.1599,-56.2704,-17.3889,114.0920,174.3649,-75.7707,-69.0621,23.4453,-238.0408
-671.8750,-220.4937,-177.6996,-96.5291,-78.9369,66.8399,-57.7608,158.5535,242.4859,50.9592,345.5776,21.3443,-55.2913,114.4263,116.2746,137.1330,308.0751,-156.8598,-15.2132,77.1667,-325.1548
-664.0625,37.2527,78.8254,9.0279,72.8094,40.7966,100.0279,-87.7297,141.4495,-269.4790,24.4286,-41.7676,212.8393,-168.2783,-57.4305,-109.2169,24.4159,18.8671,65.2357,52.4731,-314.6879
-656.2500,-43.5890,33.8011,33.9927,28.0209,103.2085,15.2773,-136.5515,165.8797,-244.4706,269.7421,130.5653,-57.5727,4.4664,78.3324,-121.1026,196.2205,-20.6256,-50.8457,7.2151,-289.8034
-648.4375,-22.0867,-15.8353,46.7898,48.6162,89.9703,75.9100,-2.0836,189.6573,-258.1477,108.4066,118.2257,76.3801,-44.4681,101.4481,-133.6601,72.3806,-0.6367,75.4351,-78.7043,-339.5862
-640.6250,130.6167,207.7702,40.8466,131.4714,25.9874,158.7936,-361.3663,87.7043,-359.5733,43.3678,-55.8542,85.5616,-145.1300,36.8504,-198.9528,7.8341,83.2382,17.9655,-66.3946,-257.1414
-632.8125,-172.0486,-24.9431,-56.0608,40.9995,5.6492,28.3490,-14.0262,176.4076,-85.3697,205.9735,70.6874,-9.5719,55.8347,236.9144,1.4011,170.9399,-69.7335,-2.8345,-17.4511,-278.0709
-625.0000,19.6143,166.7185,-4.4703,161.8981,-88.3441,154.2655,-145.3901,44.4763,-216.8284,-73.0317,12.5547,226.6420,-185.8546,105.3533,-92.8940,-107.5733,57.5663,117.7144,-2.1728,-262.6619
-617.1875,-14.6205,132.5268,-16.2484,162.9608,-91.1878,115.3447,-258.5956,40.7239,-110.1407,144.1422,46.5671,3.0126,-40.3938,175.9882,-22.0337,36.0844,43.0552,47.4316,-1.7598,-192.1282
-609.3750,-31.8647,9.3746,6.1414,146.0656,-32.0425,100.4612,57.1342,61.9750,-88.4865,54.3165,68.5403,60.4111,18.0294,196.6362,35.8100,-52.2543,33.3332,136.1690,-19.3641,-244.6064
-601.5625,148.4411,224.8224,51.3011,255.7835,-31.3001,212.1849,-273.5537,-85.1454,-235.2303,-92.8492,-77.8981,171.3962,-90.9425,-23.0665,-110.7352,-161.9380,155.3616,105.5088,-15.3889,-170.4990
-593.7500,-133.1819,14.4033,-8.3616,116.6290,43.5308,29.0309,21.8318,25.8472,-50.8881,165.0874,69.7309,-12.4780,131.1586,161.3530,37.8105,58.4905,3.6454,34.9729,-15.3425,-170.3099
-585.9375,62.3612,105.2241,51.9319,171.7051,-8.4479,124.0978,-30.6463,-26.9519,-139.3736,-145.7437,18.5368,192.8559,-104.5504,-1.0025,-51.4550,-213.8468,99.8724,160.6420,3.8814,-185.9249
-578.1250,96.8991,139.0952,62.4107,135.8446,-12.3770,84.2181,-145.0747,-68.6710,-69.8191,-39.4825,51.3975,-69.7534,-34.2067,-5.2613,-91.6644,-34.0938,95.8516,54.3749,73.1302,-116.5072
-570.3125,-30.6165,-94.0380,67.1284,78.9664,77.6276,27.3230,202.3801,21.5674,19.6479,13.7296,141.1812,-53.3673,57.0426,121.4424,-75.9413,-17.3927,30.1830,103.0721,85.3040,-174.1485
-562.5000,225.9288,163.9437,110.8493,161.2010,13.7218,146.5300,-120.0985,-44.0682,-192.7929,-161.9042,3.0587,102.1129,-117.6119,20.2963,-214.1142,-229.5445,148.4761,112.8676,60.5589,-128.6960
-554.6875,64.7505,3.2453,72.7346,70.7606,66.1104,15.0601,4.7015,44.6199,-66.9637,146.7714,128.2108,-140.0727,119.0109,219.4865,-87.9940,43.6101,38.0231,-12.0116,40.0878,-113.9596
-546.8750,131.6019,70.6394,74.7987,103.4066,28.5390,51.6708,77.4794,43.3708,-32.1220,-112.4772,54.3714,78.8027,7.6565,107.7516,-89.8465,-141.1631,74.8048,90.1738,1.6414,-152.1736
-539.0625,106.9961,116.6361,38.2057,114.6673,-1.4306,58.8895,-100.1487,12.7547,85.3176,41.9203,-12.8902,-97.7212,14.8983,41.6660,-45.0979,-60.2940,75.4103,-5.0257,10.7769,-71.7984
-531.2500,-122.1775,-146.8747,-13.0642,-7.5787,57.0385,-30.4040,214.6190,180.5981,290.1766,246.7635,82.2475,-150.7527,110.5381,173.0443,12.0810,71.0242,-55.1183,13.2572,28.3433,-124.9807
-523.4375,68.3876,114.4326,26.6591,78.0013,33.2970,94.1220,-29.8509,83.2645,81.8297,1.4623,-88.8457,46.0054,-171.0269,39.2689,-231.9357,-99.8144,66.2650,28.3482,6.6880,-75.3650
-515.6250,-98.0002,-15.1480,-31.8585,-16.2916,116.6423,-43.2307,15.7733,129.0594,237.5740,305.2836,-79.8688,-166.1064,-13.5112,122.6339,-75.8547,130.4609,-35.5380,-101.4298,-52.8920,-29.6647
-507.8125,-110.0072,7.7247,-49.9505,6.8542,106.3701,-53.1509,114.7293,118.2641,226.6901,146.5279,-164.5495,44.2045,-97.6348,38.4165,-13.3956,-63.8457,-21.2519,27.2017,-101.0924,-77.5640
-500.0000,-26.8757,162.7981,-56.1549,56.2115,43.2870,31.1334,-206.1261,53.7091,89.0119,157.0375,-264.0502,17.7103,-196.5604,12.4470,-113.7288,-90.8924,34.4903,-29.9584,-124.1108,5.7291
-492.1875,-232.7759,-77.0941,-76.8646,-42.3932,87.1892,-71.5502,56.9760,172.1717,170.3085,311.5550,-73.5948,-85.7421,-42.5309,203.4953,4.9187,64.0669,-77.2049,-24.0875,-119.1546,-23.9845
-484.3750,94.7802,111.5400,1.4686,75.5277,26.5788,88.2850,-151.4816,36.1551,-38.9138,-7.3783,-207.6660,110.3036,-287.0095,-3.9129,-93.9433,-144.4304,77.8462,58.2911,-142.7248,-12.1943
-476.5625,28.5391,10.4364,-23.2860,10.7175,29.2106,-18.6175,-185.7012,75.4262,74.1001,251.9779,-132.5015,-180.3778,-64.2531,35.9777,56.4362,43.3515,11.7680,-42.0643,-69.0670,26.8362
-468.7500,1.9932,-84.9123,-35.8049,-14.3572,5.5200,-78.7907,45.7024,88.4134,122.7746,191.0519,-83.6778,-95.3311,-13.8383,11.5916,215.4888,-17.1512,-24.6707,37.2907,-24.7295,-34.4297
-460.9375,227.5495,70.8940,10.0308,36.7260,-55.0292,-27.8136,-234.7684,-45.4151,62.6008,57.3390,-107.7126,-82.1385,-37.2743,-121.5879,192.7015,-77.4515,51.6561,-17.1990,59.7358,15.4532
-453.1250,27.0869,-198.2652,-17.7081,-56.1609,-39.5916,-159.8128,109.7208,42.7792,334.4049,219.6351,128.2124,-286.8997,309.2491,41.2544,390.9042,85.2540,-78.0670,-40.6617,141.1749,-43.6688
-445.3125,253.2023,-41.7855,60.0451,65.5825,-59.5711,4.8077,51.7390,-87.4069,166.7873,-94.4205,33.7046,-87.0532,105.3475,-125.2733,223.6928,-155.3996,61.1114,45.4811,155.1886,-64.1832
-437.5000,175.5677,-11.9946,48.1711,59.6398,4.7387,-3.2647,-105.9531,-23.2552,82.4623,79.8748,-12.5186,-242.8923,95.7345,-60.4569,177.7812,20.2864,58.3553,-31.0610,113.4787,-0.4023
-429.6875,-67.4432,-113.5037,-12.4976,-5.6192,120.6809,3.3403,119.9337,129.5629,50.7502,122.8339,-118.1336,-128.0425,-8.2776,19.0322,183.4933,25.6284,-7.0679,43.0672,-24.6031,-31.9667
-421.8750,-66.1188,136.3947,-37.4092,138.5353,82.0075,185.3555,-249.8059,90.8227,-208.5658,10.2633,-377.3770,54.2059,-303.8945,-92.0194,-76.3995,-85.5787,107.7726,46.5992,-127.3010,75.8727
-414.0625,-436.1280,-54.9792,-156.3525,51.4198,98.0241,92.0944,-124.8661,253.8111,-266.2106,284.4071,-361.9630,-112.8025,-140.8496,402.6633,-96.6188,187.9205,-38.7029,-6.1375,-181.3174,128.4067
-406.2500,-347.8604,103.9849,-182.0326,70.6368,-29.6710,148.1632,-217.7025,235.1193,-542.5892,-28.1086,-454.2891,125.5040,-342.5403,716.6752,-225.5619,-13.2480,-9.2747,83.4341,-270.0567,146.2501
-398.4375,-338.2013,221.4020,-208.7861,84.3160,-133.9256,118.6835,-470.0968,167.9153,-500.5219,88.8764,-412.1801,-14.7372,-299.7876,834.1880,-256.0460,140.0795,-8.9664,-10.5303,-294.3668,262.5406
-390.6250,-538.1595,59.2705,-246.9710,62.4330,-193.7938,60.6396,-163.1532,219.1262,-303.0974,176.2659,-251.7254,-0.5340,-138.6843,885.1129,-169.1602,228.8104,-79.0913,106.9302,-283.3049,239.2363
-382.8125,-276.3224,322.0063,-207.3695,219.4191,-288.8229,222.4537,-443.3991,51.2208,-435.8311,8.5673,-420.4527,197.5130,-307.7391,606.9420,-301.4320,134.4441,74.3090,159.2433,-232.4175,290.7910
-375.0000,-307.7288,186.5593,-211.6846,155.2272,-284.0664,119.0838,-292.8608,93.1532,-321.7769,307.6962,-269.4194,19.3890,-82.0327,759.6211,-186.9193,359.8998,2.0130,95.3808,-193.7584,295.1442
-367.1875,-192.4087,198.9071,-152.2376,166.8202,-306.5853,169.4960,-169.6494,33.8554,-344.9988,64.6076,-182.6866,290.0412,-141.6220,628.0780,-209.6825,117.1209,39.7472,211.2833,-184.3720,235.2627
-359.3750,-158.1946,305.2164,-114.3369,203.3830,-273.1671,203.8640,-431.5015,-6.4564,-275.2767,135.5215,-150.0266,176.6588,-145.2715,515.5363,-249.4980,79.3387,86.2584,107.1547,-150.0652,305.3365
-351.5625,-362.2328,33.3335,-141.3030,107.7321,-188.0255,71.0125,-89.6695,151.9968,-79.8433,294.1935,-28.6571,79.0820,13.7702,601.7593,-127.5991,238.3126,-26.6458,114.8004,-178.0394,243.1679
-343.7500,-86.1666,240.6258,-27.2396,245.2502,-157.7555,211.3233,-355.7438,36.6316,-308.2624,-41.9133,-146.1695,293.6424,-250.0608,338.1754,-318.5613,12.4899,156.0261,216.6031,-183.8783,273.1625
-335.9375,-200.2539,93.8310,-48.3555,168.6892,-92.6040,131.5493,-291.9248,65.2089,-133.7885,169.9149,-81.8147,-8.8720,-75.0194,404.5329,-180.6357,187.5961,82.6607,105.3373,-156.8370,301.0549
-328.1250,-221.7000,39.7400,-75.4174,184.8177,-110.8212,149.4553,-90.5319,83.4554,-78.7105,6.4166,-174.8623,156.2965,-167.3752,350.5664,-125.1035,61.3615,82.9868,225.7347,-178.1647,245.6109
-320.3125,-157.2481,176.6017,-71.4861,251.9068,-119.0984,216.3156,-394.2054,2.6953,-161.6915,-37.0685,-293.9725,185.4142,-248.7844,233.6076,-243.6284,54.1221,148.0305,186.0890,-218.5640,311.1246
-312.5000,-467.1621,-58.8447,-139.4833,122.6732,-34.7486,118.8553,-54.2699,159.6080,-41.0485,156.1077,-211.4781,50.2183,-17.5952,355.3161,-160.5239,285.5336,3.7250,160.1207,-246.3324,284.2952
-304.6875,-345.0618,169.7879,-135.7525,245.5118,-91.3698,246.4609,-222.3383,68.5992,-282.3636,-118.6104,-414.9767,361.0646,-332.3782,227.1053,-290.3725,84.0329,117.2729,249.2063,-336.0672,301.5332
-296.8750,-498.0672,160.3720,-209.6691,236.3130,-106.0555,234.0231,-348.4536,165.5831,-297.7303,125.6600,-467.5583,200.8790,-309.2310,361.8928,-268.2683,290.5104,66.2685,133.2622,-382.8626,360.7261
-289.0625,-660.7811,71.3072,-249.7328,217.4503,-124.4584,252.9200,-221.3375,256.8799,-353.8319,71.2396,-523.9021,366.0282,-401.8334,380.9987,-286.8988,236.2901,48.9436,430.6403,-334.3741,305.2375
-281.2500,-445.7498,323.0468,-244.4335,294.3994,-270.0728,329.6223,-515.4451,187.0147,-463.1273,0.6839,-596.4789,405.9752,-547.6368,273.9557,-432.7313,166.9203,120.8175,259.8199,-260.1071,380.5622
-273.4375,-499.5487,62.0151,-260.5461,173.5732,-287.5037,167.5439,-277.3813,279.3746,-223.2451,277.3450,-393.9054,169.1654,-197.2813,479.1347,-266.3749,333.7565,-1.3732,208.2254,-172.6665,363.0956
-265.6250,-230.1229,192.2654,-176.8920,234.0175,-333.7056,231.7341,-325.1305,197.0126,-344.1275,-23.6969,-404.1278,416.6091,-317.7020,287.5927,-312.7880,68.8752,103.1494,338.8844,-149.9944,316.8993
-257.8125,-189.5581,165.7156,-110.6160,242.6723,-254.7226,239.1253,-468.6749,167.8922,-338.8068,129.5096,-290.1787,202.2623,-164.9353,257.3002,-343.9957,186.2316,127.5312,240.7594,-109.1389,358.9104
-250.0000,-300.1606,24.0655,-82.1789,206.2115,-143.9107,167.3959,-64.4200,241.6379,-265.6660,130.5696,-180.4370,239.8075,-91.3756,296.8701,-307.3850,186.4384,90.2749,309.5058,-112.4552,285.7890
-242.1875,-82.2119,279.0291,-32.0177,286.3636,-173.5107,285.2661,-317.5907,103.0084,-369.9263,-44.7079,-285.1239,357.9532,-306.2211,85.0841,-411.1815,12.2968,205.8759,283.8527,-106.1989,329.2868
-234.3750,-342.4375,57.8724,-71.3193,135.3836,-76.2783,90.9995,-73.9310,200.2520,-199.3547,236.8746,-77.9989,88.9901,-61.2547,220.1742,-240.1408,294.0158,48.1421,132.0736,-84.1215,316.6448
-226.5625,-216.9810,116.4583,-25.4084,158.1308,-51.3615,153.4551,-51.6459,152.2086,-286.1066,6.1879,-128.2175,297.7424,-184.6279,100.9803,-289.4229,100.4583,104.3650,224.0060,-99.3663,267.7271
-218.7500,-135.6327,129.9917,-64.0029,137.8322,-77.5063,92.8558,-299.4147,129.1556,-238.9122,129.5051,-228.4984,162.4449,-173.0672,76.7868,-204.7543,221.8974,81.6665,61.8993,-52.6684,315.7726
-210.9375,-290.4397,-91.5867,-130.4284,-13.5901,-50.8240,-25.8637,56.6090,229.9731,-28.9058,230.6791,-165.9722,116.0362,-36.7146,178.4584,5.7303,251.1860,-63.8255,50.6685,-32.1309,232.6859
-203.1250,-27.5838,138.5443,-82.9452,41.6998,-105.4597,31.1239,-257.7035,102.5272,-84.2010,30.6147,-259.7799,246.3246,-202.6802,-57.1276,-86.1026,51.2172,35.9704,34.1347,-84.8952,251.3221
-195.3125,-130.0649,-30.6200,-101.4100,-93.2956,-64.4135,-110.1783,-107.3169,180.8173,138.2061,329.2761,-108.9215,-78.6557,22.0246,22.0124,27.7508,239.9593,-75.4980,-100.6768,-81.9652,255.6699
-187.5000,-132.8610,-30.0440,-113.5825,-91.5667,-99.6905,-69.7604,75.7097,147.8257,177.2947,149.6611,-145.4173,107.0857,-49.6133,-84.1355,-6.7227,96.4179,-73.7029,5.2216,-84.3416,184.7436
-179.6875,-78.8084,98.4203,-105.4497,-33.9360,-80.0786,-48.4417,-163.3603,58.7722,232.2968,170.0008,-238.0312,17.7260,-141.3578,-210.3365,-62.2953,117.8201,-17.8244,-78.9703,-64.8313,240.7325
-171.8750,-290.7624,-110.0838,-183.5392,-136.2826,-76.4859,-153.0999,132.5344,173.7321,456.2808,360.3355,-161.6948,-87.5894,9.8478,-93.5192,162.1129,234.2104,-150.7315,-77.1386,-64.3346,171.7365
-164.0625,-25.1121,123.0759,-136.1130,-42.9669,-127.2539,-18.1042,-139.9588,87.3639,294.9170,127.3661,-286.7487,156.7433,-262.3064,-289.0144,111.1643,2.2818,-33.2612,-54.6584,-79.1963,158.4144
-156.2500,-125.5023,27.2381,-185.0043,-104.6464,-157.0313,-120.1039,-172.4413,169.0258,410.5568,393.4196,-207.8335,-129.9054,-109.4732,-132.4759,227.2137,266.3692,-116.4509,-152.1646,-40.0689,165.1021
-148.4375,-133.7335,-48.4061,-187.1173,-145.1528,-161.6795,-122.9337,42.1640,239.8519,369.3237,317.6378,-176.8141,13.6179,-187.5293,-134.7889,297.3843,154.6069,-147.4533,-87.5106,-12.8052,87.9619
-140.6250,18.6483,143.5961,-173.2547,-58.0105,-221.6847,-34.1229,-276.5814,144.3673,234.7511,258.5608,-312.1568,27.7766,-321.9296,-229.4171,163.1977,95.5387,-55.4435,-107.2022,0.0934,138.4883
-132.8125,-246.8286,-84.2173,-189.4592,-109.7001,-128.5490,-86.1470,34.7972,239.0455,327.2984,427.6274,-146.3789,-96.8701,-118.2188,-59.8910,256.1324,227.6115,-146.5017,-88.7198,16.1253,85.1795
-125.0000,-19.3200,181.9964,-87.9046,15.6287,-108.4295,44.8400,-57.8716,76.7368,89.8322,7.7302,-238.6373,217.4853,-282.5303,-295.3412,55.0508,-80.2938,20.1504,70.7649,-36.8581,68.8977
-117.1875,-6.1015,234.9567,-53.4618,33.7100,-57.5719,24.5765,-117.7747,18.2065,103.1185,97.6147,-189.1692,-24.3917,-159.1060,-279.0068,68.7264,44.5647,45.4667,-17.9838,-23.1062,120.3782
-109.3750,-115.6239,129.2114,-53.8467,33.0694,-21.4839,-10.4112,174.5110,20.9304,139.6193,-10.2548,-117.4937,51.0212,-85.4839,-165.4202,142.6166,-26.3331,16.9760,86.5338,-26.1221,48.1325
-101.5625,38.7219,322.3681,-11.0258,156.3329,-44.5045,115.4944,-108.3177,-147.4194,-31.9851,-178.1721,-251.9300,102.3300,-145.9642,-296.9017,-28.6023,-193.2924,141.7268,102.9516,-12.2522,98.8098
-93.7500,-126.8517,125.6449,-11.4927,64.7077,42.5628,-15.4871,160.9407,-58.6549,55.4911,58.0161,-56.3002,-102.2263,124.6154,-96.2754,22.2591,4.8441,38.2602,10.4918,-1.2847,76.6032
-85.9375,124.8123,275.2012,84.5609,109.3457,13.8593,67.7920,93.4005,-121.6243,-156.7918,-225.5157,-49.4551,163.4653,-52.5806,-232.3858,-189.6509,-240.7488,144.5152,124.2771,3.9263,48.6765
-78.1250,106.8372,297.1437,82.3699,95.3798,31.5379,50.4644,-74.7225,-139.1563,-139.6575,-94.6042,-33.2259,-37.4468,38.6164,-175.0620,-245.1559,-110.9119,133.7190,4.4703,57.5331,104.1670
-70.3125,21.9711,40.2156,70.6162,-20.4693,95.2937,-66.7444,245.2130,-37.5764,33.5619,-29.5981,66.0636,-83.2253,212.8630,-72.6374,-181.5843,-81.9895,26.5805,-6.2187,79.2353,21.7813
-62.5000,351.7225,196.9309,159.9731,67.3273,73.6869,59.6899,-36.2088,-167.3216,-100.5502,-268.8922,-31.0142,43.6268,-31.2415,-312.5375,-278.3647,-248.3800,164.2074,9.7356,127.5854,37.0714
-54.6875,201.8643,-53.9497,105.5408,-77.4698,102.4679,-91.4673,101.7748,-63.6461,112.7334,19.2165,107.2877,-182.0938,182.0266,-207.0287,-65.7580,2.6312,13.1765,-135.8913,154.3227,30.7760
-46.8750,242.1657,-9.6547,127.8837,-35.1041,75.3788,-44.4635,145.8598,-88.8092,48.1432,-188.5043,115.7079,-24.6576,43.4132,-231.3701,-19.0186,-242.1959,53.6362,-23.3684,124.2052,-32.3400
-39.0625,298.8321,51.0198,133.5440,-44.3530,60.6849,-57.0728,-128.6294,-137.5390,32.9680,-91.7829,135.5199,-147.8310,65.2073,-207.2787,-34.8697,-181.5893,57.5209,-138.4469,111.4863,26.9613
-31.2500,57.1014,-186.6825,100.0343,-139.9913,106.5783,-155.0690,210.4569,-53.6598,115.3691,-6.4748,326.8972,-174.3644,257.5664,-11.5905,47.8576,-23.4005,-68.3261,-131.9125,81.3661,-36.1166
-23.4375,284.8123,10.0756,142.9580,-50.1817,50.9080,-25.6271,-67.0235,-179.3158,-87.7732,-279.6781,196.7088,65.5437,54.3784,-173.4383,-80.9759,-222.7349,45.9244,-76.9389,63.6906,-16.7173
-15.6250,112.6148,-122.0652,73.7740,-111.2723,56.3278,-127.0863,9.6145,-99.8583,64.1869,22.2210,237.6089,-220.4266,243.2740,-19.1778,71.2832,42.0251,-52.1874,-173.8475,68.1095,-10.2030
-7.8125,149.2706,-118.3256,78.8921,-107.4950,62.5874,-83.6821,161.0558,-91.5577,69.9840,-117.0326,168.3283,-66.5342,101.9879,-121.0834,77.3656,-97.3754,-32.3011,-64.8964,104.3772,-76.8088
-4000.0000,171.1256,24.4859,60.0016,-32.2946,16.4036,-35.6392,-39.2952,-85.9317,-11.0962,-40.4335,45.0576,-56.9811,-32.3547,-156.0138,22.5148,-56.5149,26.6509,-48.3024,90.6865,-1.5228
-3992.1875,-121.4613,-165.7981,-5.2498,-117.5529,78.3117,-158.9877,241.9434,45.9981,160.4429,130.1183,143.5887,-179.6055,138.8876,47.6798,194.6803,76.8045,-96.3575,-27.8231,77.9217,-51.2218
-3984.3750,104.3103,22.2504,7.7913,-0.4698,-20.4190,-0.9947,69.5656,-54.7256,24.3403,-152.0035,-64.5126,51.1258,-107.5126,-52.2857,60.2024,-132.5495,22.3213,53.0084,21.5153,-39.5819
-3976.5625,7.6059,-77.1880,-18.4039,-30.8824,21.3505,-71.4934,73.6599,-14.9631,102.7273,71.3594,-22.1112,-165.6476,80.5801,22.2257,139.2044,90.5818,-34.2297,-82.6632,-6.3818,1.5634
-3968.7500,-75.1728,-127.7067,-29.0412,-82.3543,45.0872,-123.0554,317.7399,6.7604,126.0862,-17.3141,39.2596,-71.4938,103.6481,41.6970,236.1682,38.6733,-79.7952,-28.3869,-55.3268,-49.3462
-3960.9375,69.4163,50.1365,-7.0223,-46.4687,43.1738,-52.2593,-15.8432,-106.1760,50.7803,-129.6685,-72.0259,-37.9679,-8.9533,-109.5041,161.4759,-1.9118,-10.6028,-97.7568,-51.9259,22.0913
-3953.1250,-163.3484,-184.3787,-64.3951,-176.9383,55.9114,-186.8185,253.2160,50.5374,210.1340,137.6444,88.3492,-282.8143,260.1086,82.9518,358.4406,193.1713,-153.5881,-123.4892,-39.8779,-2.8186
-3945.3125,-6.6803,-31.4615,-36.2162,-59.9645,-2.8970,-63.9339,157.7592,-10.2881,113.9426,-141.5991,-43.8164,-50.1990,53.6253,-51.1274,225.8568,-51.3053,-47.3400,-42.7631,-25.3813,-25.2885
-3937.5000,-28.2001,-20.7206,-55.3769,-85.1779,-29.9095,-92.2358,19.0740,-3.3216,159.5286,11.9353,2.8114,-151.7636,135.9270,27.5859,199.0470,66.9968,-78.5192,-138.2351,-48.0865,20.0431
-3929.6875,-50.3528,-151.5999,-39.0268,-145.9998,20.4866,-189.1459,252.8157,9.0578,173.5198,-49.1084,127.8563,44.0544,185.6576,111.7243,212.6465,42.7255,-138.0740,-129.3117,-106.3971,-40.2303
-3921.8750,153.4016,119.4341,-2.0506,-86.9112,-29.2204,-94.1407,-92.5467,-115.6648,49.3852,-210.2840,41.7951,175.8060,-11.7293,-88.2456,89.1318,-45.6688,-41.1916,-175.4697,-114.8173,19.3913
-3914.0625,-132.1011,-97.7744,-73.4329,-199.0676,1.8206,-248.3840,121.8144,22.3661,299.9870,113.3024,147.4861,-88.6995,202.6444,48.5511,194.3611,203.6920,-174.9929,-182.8871,-49.4891,12.7670
-3906.2500,-64.3648,-32.7506,-42.7188,-100.9792,-38.8895,-143.3858,154.4580,-20.3363,221.8300,-112.8595,70.4419,89.0546,50.2802,-67.3753,116.8434,-95.6901,-84.9802,-14.0519,-53.9163,-28.6175
-3898.4375,-58.8569,6.0498,-52.9755,-63.1310,-38.8630,-106.6231,-30.1821,-57.2948,185.4019,-4.2927,-1.8654,-58.4195,86.6466,-33.5630,80.0620,12.6652,-60.2412,-81.4636,-13.5957,44.7490
-3890.6250,-240.1814,-248.9725,-70.7227,-108.0923,29.3645,-114.6736,332.4044,44.9669,290.1941,63.5060,67.0398,-102.7231,155.2427,141.4724,149.5045,43.2502,-129.8732,13.3121,14.9284,-34.6883
-3882.8125,-65.5641,-6.0462,-15.3900,63.8973,-11.4659,27.2354,32.9556,-35.8129,27.9326,-162.7639,-84.1014,75.9514,-108.2169,-86.5381,-39.1032,-109.2399,32.1552,79.0505,48.4005,-3.1841
-3875.0000,-259.7967,-132.9657,-37.7211,7.0400,75.8431,-33.7059,119.6375,50.5600,77.8147,107.1222,3.9082,-131.2251,52.4846,70.6114,12.4281,123.4278,-41.1020,21.9316,99.0259,10.4747
-3867.1875,-144.1058,-89.9606,-29.9497,48.1251,50.1077,49.2959,203.3092,59.8986,-21.3433,-68.0301,-131.1193,97.5527,-120.8401,4.7385,-50.0894,-88.9495,8.6961,133.7708,107.6005,-52.9265
-3859.3750,-74.2457,12.2227,-35.2700,79.3772,43.5214,79.4699,-60.8936,14.3816,-28.3710,-39.0658,-246.0098,-20.4861,-128.0321,-39.9971,-93.4857,-59.2087,47.6733,58.7705,176.3144,13.8216
-3851.5625,-340.5662,-186.7532,-58.5819,20.4773,133.7874,20.4886,285.7664,138.7281,97.4616,85.7689,-120.0376,-116.6921,108.6541,119.1472,-40.0233,-8.6000,-41.7816,104.6117,154.8661,-44.5816
-3843.7500,-172.4474,13.7213,-15.6439,150.0316,84.5043,190.9627,51.8961,14.5296,-25.2621,-183.9657,-241.6157,127.5765,-125.2135,-7.2481,-199.1114,-242.5551,89.5633,198.9194,110.8534,-20.5451
-3835.9375,-291.8239,-143.2874,-81.2748,62.0958,66.7190,61.9476,107.4958,68.8298,177.5006,163.7970,-148.6975,-111.6521,4.4199,156.8570,-69.7265,68.9887,-28.3630,40.7268,96.3307,-2.0063
-3828.1250,-288.7302,-212.8168,-100.2792,61.6548,34.4470,64.4282,258.6271,181.6487,254.7692,56.0731,-180.2600,37.6226,-65.4186,84.4867,-28.8539,35.0475,-44.1378,111.0414,63.2969,-71.9767
-3820.3125,-182.1234,-3.8232,-113.5622,93.7265,-44.3284,131.4269,-41.7655,136.9621,175.5071,49.8150,-294.3282,31.4348,-145.7728,-34.3867,-70.5031,-9.4184,8.5235,71.8627,62.7504,-4.4498
-3812.5000,-405.0942,-228.3927,-153.7583,-26.7561,16.3510,7.8677,239.2915,269.7366,309.6997,293.0278,-122.9361,-130.3186,62.3426,170.2234,64.3035,197.5846,-128.2085,21.1232,49.6488,-54.4710
-3804.6875,-195.6357,-22.5250,-115.7737,73.2110,-60.5177,75.7634,87.8299,116.9735,121.3399,-6.3260,-200.0949,196.3985,-126.0829,53.3072,-49.4415,-28.9730,-26.7707,85.8497,-24.0192,-59.0510
-3796.8750,-262.8734,-21.3300,-162.9899,3.4924,-98.0902,0.9745,13.6360,114.5064,157.2646,175.6100,-125.9643,10.4274,19.7874,159.6906,60.0946,189.7533,-102.8271,-55.1229,-21.4015,-23.3256
-3789.0625,-336.0473,-97.0618,-174.4223,-38.1325,-63.5609,-38.7239,268.5775,148.1607,154.3102,98.6731,-90.7235,154.5431,17.7902,192.2036,131.7368,112.6047,-147.1889,9.0069,-60.6937,-99.5046
-3781.2500,-97.6169,103.8212,-110.6176,55.8559,-76.4407,56.1927,-76.8916,59.4184,-43.0609,-26.6899,-213.8956,176.2973,-106.6202,65.3205,-28.0419,24.0397,-19.6608,-2.2521,-69.3992,-40.0871
-3773.4375,-319.6081,-121.6989,-127.4898,-63.5601,-16.7221,-68.2947,203.2286,154.2879,90.1741,216.5641,-5.4575,-59.3598,137.5912,270.0656,68.7818,193.0899,-136.8551,-16.9178,-81.5107,-54.0650
-3765.6250,-175.9778,19.4106,-71.5369,76.6712,-51.3529,79.8662,95.0366,43.8217,-91.9285,-114.5356,-76.3494,235.6473,-45.5312,158.4879,-39.7326,-101.2155,-12.5309,123.0728,-79.9810,-89.4019
-3757.8125,-195.7420,32.1380,-82.6412,87.5122,-39.3870,89.6418,-78.5792,16.9512,-81.4414,42.9421,-100.6523,61.2737,38.9397,166.5076,-27.6619,56.0665,-9.8751,63.6673,-65.8596,-42.1354
-3750.0000,-294.5452,-68.1604,-97.1396,57.3418,5.5886,23.4025,223.8363,60.1012,0.0635,49.4493,-54.9383,105.8779,120.4478,209.5575,54.4180,62.3762,-59.2725,103.2593,-59.7460,-107.8682
-3742.1875,-34.0996,188.7963,-34.5938,137.4337,-58.1787,142.4272,-135.4921,-42.4957,-211.2009,-162.8204,-117.9715,297.7583,-53.8019,31.8588,-120.2724,-114.0889,57.5960,77.1229,-82.3933,-62.3565
-3734.3750,-213.7712,41.6539,-38.4170,24.4302,-64.0439,24.3612,-30.9395,96.8134,-144.5667,123.8208,207.8965,69.5329,159.8625,207.0842,-16.0771,99.3513,-61.2614,-35.1181,-52.1488,-68.9397
-3726.5625,-80.3736,102.5882,13.2561,49.5185,-108.8003,89.3880,-3.2488,87.2395,-262.8156,-69.4318,237.8759,281.4164,4.6478,122.4408,-133.7783,-94.1001,-7.0774,59.7456,-60.8147,-114.4306
-3718.7500,73.4318,148.9422,30.9766,59.0196,-138.1659,95.8291,-252.1844,93.0652,-254.6769,47.7007,172.2329,66.7263,11.8166,127.1964,-199.0936,22.8355,30.8188,-35.9832,-48.0968,-33.5197
-3710.9375,-40.9096,-144.8271,10.5419,-58.5833,-73.6275,11.1631,141.7977,228.8118,-44.6177,146.7707,237.4960,-54.0819,148.9131,261.8878,-98.4905,84.6991,-72.0915,-13.8141,-23.4905,-80.7091
-3703.1250,173.0816,31.7529,64.0296,81.1714,-111.7422,119.8602,-80.8594,78.9228,-193.2105,-113.8287,90.1038,90.4932,-35.6468,74.9434,-173.5454,-138.1009,70.8961,55.7260,-21.5531,-45.5557
-3695.3125,-17.4442,-90.1550,42.8191,-5.5644,-18.3673,-8.9319,11.9520,133.5417,-27.3083,125.0847,220.1989,-148.4283,167.2951,201.5262,-43.1155,63.6140,-20.5186,-31.2373,-1.1265,-26.8971
-3687.5000,20.3855,-54.6932,70.1848,28.1007,-15.5880,29.6743,161.2009,61.5913,-135.0002,-130.5855,224.6995,111.0570,96.6613,128.5555,-76.2902,-119.2568,10.9572,73.2135,35.6803,-97.8455
-3679.6875,189.3733,111.9489,92.3000,87.9367,-27.6577,52.4572,-109.4321,-26.2080,-184.5783,-108.1388,102.3368,23.7314,46.1519,-34.2558,-89.3540,-132.9969,87.8609,-8.1661,62.6104,-37.6424
-3671.8750,21.9722,-92.7596,66.2688,-46.5726,18.9257,-48.1080,231.5819,55.6614,8.4900,10.9813,260.6394,-114.9572,240.3153,83.6140,105.2295,-14.0537,-29.3225,32.1037,35.1651,-101.7857
-3664.0625,277.1409,90.1367,164.0047,100.5284,26.1024,67.9388,-19.7819,-85.8557,-131.8509,-313.3115,157.5439,74.9825,63.0802,-95.8940,-71.5953,-265.5211,138.1047,143.9972,8.2919,-95.3347
-3656.2500,177.2558,-12.9963,177.8922,66.5984,138.2225,30.9560,-18.2317,-123.4206,-20.2666,-130.6512,233.3806,-146.1147,284.7849,50.5710,-70.4981,-156.0333,104.0032,74.8471,11.3374,-57.9237
-3648.4375,142.6686,-84.8059,190.8440,65.0161,213.6986,32.3217,203.6991,-159.6006,17.6710,-312.6090,236.5536,39.1331,285.8611,49.4302,-32.0467,-302.1651,94.7583,143.0580,-23.3024,-130.1630
-3640.6250,238.8537,115.2011,199.8747,123.2565,198.9715,90.5160,-105.5910,-284.9700,-33.6245,-401.7865,148.4882,97.2255,124.7072,-77.8946,-119.8239,-318.5065,159.1692,60.0867,-69.1792,-71.5960
-3632.8125,-74.7212,-165.4989,125.3153,-17.2003,239.5353,-53.9824,154.4028,-100.0111,152.3756,-69.6269,336.7082,-84.3858,347.8669,107.1263,30.6874,-96.5164,-18.4976,-44.5795,-66.7841,-105.7169
-3625.0000,109.5529,-53.3110,154.3963,23.2522,171.9885,61.4301,13.3226,-132.1281,11.2743,-321.5692,233.8163,104.9334,132.9315,-35.9070,-109.9137,-274.6260,56.5269,-4.3228,-94.5116,-99.9377
-3617.1875,1.1042,-57.7949,69.1231,-51.9716,127.7258,-20.8320,-31.4955,-104.9414,113.4585,-111.2184,189.1950,-125.4215,235.2919,27.3774,-7.2367,-101.4365,-25.9444,-150.7513,-62.9554,-34.8480
-3609.3750,-189.6976,-181.6023,18.2894,-105.4975,148.1514,-74.3989,246.4150,-11.0267,170.3640,-165.1309,211.2834,-31.0768,182.3911,119.4079,124.1463,-118.5041,-99.1423,-63.4755,-79.7083,-88.0586
-3601.5625,16.0020,58.0992,25.0247,-7.5076,65.0680,61.5558,-95.1777,-132.6003,-60.2450,-248.5652,17.8648,104.8093,-48.0142,33.9490,-32.9968,-202.0835,8.9591,-71.6778,-155.9711,-24.7704
-3593.7500,-119.1692,-150.0512,-4.2163,-111.3624,68.1289,-46.3332,91.3678,15.9880,-57.6953,47.1712,169.5964,-77.1672,138.7569,218.6820,7.0070,92.5025,-101.3776,-139.7260,-187.0827,-22.3254
-3585.9375,34.3733,1.5203,30.5408,-30.4659,6.9425,38.5268,-6.2972,-9.6535,-265.3746,-198.3361,72.0902,192.6172,-69.6914,45.2079,-91.2302,-80.1489,-4.0284,10.9907,-210.4507,-47.1388
-3578.1250,-38.3776,102.8027,-37.9329,0.1490,-36.5474,68.1112,-234.2946,-18.5959,-273.3577,12.8417,-44.7215,74.1263,-77.4380,72.4441,-61.7835,58.8909,-8.9350,-64.5750,-213.1304,18.7492
-3570.3125,-257.8290,-48.5924,-123.0577,-46.8873,-45.6805,-15.9544,49.0783,154.8366,-172.9647,112.4079,-53.1629,136.9740,-49.7953,208.0783,76.0271,121.3097,-106.1665,-5.7892,-222.4769,-28.0164
-3562.5000,-20.3937,222.9153,-79.3020,47.9906,-131.9098,116.8965,-257.6391,67.1836,-332.6832,-12.1405,-174.7142,270.7614,-246.2628,8.6308,-120.2785,-3.3839,21.8809,18.9212,-231.9509,32.1113
-3554.6875,-143.9205,27.4804,-118.0995,-43.0694,-116.0885,-52.1891,-95.3313,154.5921,-170.3586,297.3785,-49.2290,27.6048,26.3215,206.2639,5.4463,268.9881,-90.1087,-72.3185,-180.4016,47.2946
-3546.8750,-73.9442,59.5725,-101.9024,-10.5796,-153.7056,20.2767,-23.4367,115.5809,-171.4760,74.4686,-86.1967,210.0112,-85.5314,129.4894,4.7127,118.9333,-47.7405,65.0094,-147.3341,9.0215
-3539.0625,-93.1323,144.5424,-86.7288,73.7853,-141.4741,67.6238,-268.7226,52.4295,-233.7716,158.3976,-109.3539,73.3066,-73.5622,102.5746,-57.2161,202.7194,9.6917,8.2116,-61.4496,93.6023
-3531.2500,-274.4297,-74.5499,-92.5179,-5.8890,-38.2821,-13.0746,91.9456,192.2577,-204.1300,298.3129,-5.5739,29.5448,103.3717,278.6588,-64.2089,306.4898,-76.0347,35.3700,-68.6483,50.1373
-3523.4375,-7.2129,155.9191,-6.7736,119.0029,-55.5431,152.7993,-182.8378,100.6563,-441.9686,58.7661,-131.2629,232.3822,-133.1667,75.3251,-300.6756,66.8040,82.9320,89.1050,-48.3400,69.2210
-3515.6250,-151.3720,10.0601,-55.9828,7.5679,-25.1667,35.3439,-116.0176,202.7159,-228.1819,308.8793,-64.3268,-32.1135,42.9320,213.6719,-160.5141,279.7839,-21.2310,12.5009,-52.4150,98.9673
-3507.8125,-130.7953,-41.0147,-39.5844,26.9365,-38.9996,94.6936,52.6217,224.6134,-206.5853,145.8256,-78.6009,136.2036,-45.1556,160.8764,-137.5515,80.5990,4.3076,171.7109,-67.7206,47.5145
-3500.0000,97.9105,151.0845,49.1070,147.4805,-61.7009,180.2245,-228.6220,88.6784,-377.8609,10.9116,-100.7642,74.7174,-68.1239,25.2528,-272.4621,18.5557,141.6070,117.0990,-49.9081,133.2193
-3492.1875,-136.9329,-49.3271,51.0902,50.5331,59.0885,80.2654,38.6259,136.2747,-256.6259,168.5400,94.5579,-60.2822,126.4252,145.1839,-187.8747,176.0487,46.4531,125.9951,-40.6183,107.4337
-3484.3750,31.3846,187.4532,97.2930,182.7975,12.0683,216.5199,-190.9073,51.0986,-414.1881,-99.6239,-24.9273,148.9468,-177.8241,23.3506,-345.0972,-55.2488,182.4457,187.1170,-83.1521,133.8461
-3476.5625,-47.5080,106.0545,59.6296,135.8842,-0.1711,165.5945,-279.6779,73.7291,-281.9644,142.0185,35.3706,-49.0005,-118.2736,154.3360,-248.5426,112.2657,121.0443,70.0493,-92.9029,193.0706
-3468.7500,-83.7044,-0.6204,29.2362,97.7184,-37.6626,127.4179,-59.6681,108.1414,-171.9678,66.4469,34.4305,132.8004,-191.9325,152.1266,-175.2279,1.5638,80.0009,172.7394,-129.9193,155.0437
-3460.9375,36.9902,257.6155,35.7470,216.4687,-65.2679,210.1592,-381.7664,-29.5337,-273.0791,-70.2390,-174.6247,215.5421,-329.6972,-23.1579,-313.0298,-63.2469,196.8139,184.3521,-152.0475,237.9156
-3453.1250,-221.9521,33.2383,-34.2299,131.6220,-41.4778,86.3088,-64.4674,67.2133,-66.7768,208.5134,-77.2780,18.6722,-49.0311,109.0030,-216.4312,141.3706,68.2739,135.3636,-164.7816,224.1920
-3445.3125,-54.7299,199.0418,-15.2204,191.9762,-88.4821,148.6610,-147.9297,-17.8113,-224.2661,-59.5321,-196.7309,265.0198,-206.1509,-49.5916,-226.6331,-52.7967,144.4406,195.5938,-209.3272,213.6597
-3437.5000,-67.1529,184.2159,-43.5686,107.7026,-105.1403,95.3873,-276.0746,-35.4863,-168.4217,142.7652,-139.8544,26.7447,-39.9319,5.1831,-133.5024,149.3801,80.3766,40.1881,-187.5461,269.4825
-3429.6875,-204.3730,11.6122,-63.7976,3.6787,-62.5445,-9.6390,24.0523,79.1156,-15.3122,184.3405,-22.7214,32.7202,75.5649,83.2664,-54.1115,190.8405,-16.9287,77.0391,-184.5383,201.5532
-3421.8750,5.6356,220.2675,-17.8149,71.9230,-102.6987,59.6087,-311.5721,0.9747,-56.9648,33.1473,-99.3592,64.9884,-74.6993,-68.3807,-168.4951,76.5455,80.0721,39.1649,-151.3113,233.8715
-3414.0625,-161.0919,-18.7719,-81.9535,-97.5183,-94.5533,-115.8314,-82.9102,118.1520,245.6818,371.2817,56.2813,-184.4474,154.3480,158.2985,-12.6038,267.5797,-87.4511,-59.4029,-72.8078,205.4987
-3406.2500,-12.6687,-10.6266,-92.0356,-55.7509,-157.2059,-32.0611,-35.0125,91.5656,329.5304,123.6349,-78.8857,82.3302,-54.3945,94.2262,-2.5275,55.8303,-53.9543,17.2523,4.8594,142.3218
-3398.4375,25.7461,-9.4523,-117.3368,-53.9563,-192.8688,-32.2614,-219.1576,54.9877,439.3528,233.9829,-115.0807,-63.8523,-17.1667,57.1780,70.5177,166.0772,-63.8437,-86.0735,42.4899,179.1518
-3390.6250,-169.9048,-241.2987,-150.5826,-146.1622,-100.5359,-124.4574,129.7033,146.4399,568.1905,251.3749,-23.2783,-82.0353,111.0839,184.1874,236.5692,257.3617,-175.3025,-72.3931,57.0969,86.9872
-3382.8125,95.0619,21.5104,-58.2873,-23.6996,-82.5568,2.0172,-146.7828,15.5573,291.6631,-25.5965,-150.8512,118.4783,-91.0307,-19.1261,70.2547,-19.7080,-12.7256,-21.0375,4.3274,104.4710
-3375.0000,10.3562,-98.3193,-42.8573,-108.8705,-25.2336,-85.1440,-51.9534,37.0412,276.4761,178.8052,17.8980,-116.6526,150.2060,111.9427,129.2681,148.5927,-79.8100,-70.3235,24.8797,89.3166
-3367.1875,142.2951,-74.4707,41.0496,-50.3392,41.7925,-57.5976,50.6087,29.2584,121.0003,-50.0646,11.3319,58.9228,33.1531,-7.2356,10.9839,-7.3807,-0.8551,23.1107,-19.8918,7.8597
-3359.3750,169.5168,128.6980,71.0783,11.5176,67.1029,4.2802,-218.5655,-56.2177,-38.1908,-61.6399,-36.9762,-27.1558,-52.6355,-92.0994,-110.0122,16.9454,75.8942,-21.1340,-28.3932,69.7087
-3351.5625,-96.9173,-68.7483,19.0025,-45.2204,120.8072,-52.4394,91.6609,106.7383,-20.9713,138.2317,55.1064,-119.8410,74.9923,70.4842,53.4017,143.7158,-25.4315,-6.9779,-84.5224,12.9661
-3343.7500,99.1068,161.3044,24.8239,79.5571,-6.9950,77.3544,-182.6007,15.2142,-185.2611,-100.3961,-109.3244,156.0094,-161.8911,-95.4049,-75.6898,-95.0083,86.3456,46.7077,-100.1874,31.7236
-3335.9375,-36.4464,95.8315,-17.4127,12.8069,-4.3590,-31.3778,-143.4559,54.1507,-73.1151,195.4409,-33.3355,-97.6755,-13.3372,16.1857,-36.3533,127.7333,9.4176,-55.1462,-94.4350,70.9456
-3328.1250,-35.7625,59.6364,0.6954,12.3584,-1.4246,8.1890,42.0173,92.4159,-108.6538,50.6107,-30.0556,-23.0549,-84.4627,18.1354,-33.7090,18.8089,23.7016,84.3155,-61.4021,-0.5307
-3320.3125,101.2171,195.7626,9.7678,113.2289,-46.2047,111.0803,-259.2324,10.9886,-225.9050,5.0696,-183.5089,-67.0955,-164.3037,-99.5961,-77.7887,10.1784,114.7584,45.0992,-65.0859,65.2973
-3312.5000,-145.0338,-52.3276,-56.9263,-30.0936,-9.1924,-37.2278,33.3135,157.3835,-6.3347,225.3750,-37.1655,-177.3603,55.6816,45.5134,104.9380,193.3876,-44.3674,7.6856,-101.9865,27.9328
-3304.6875,68.7371,161.6172,12.0576,78.6390,-43.1352,76.5206,-111.0611,49.8532,-149.6973,-103.2629,-106.7765,82.4411,-125.2733,-135.2954,-39.2794,-62.3495,84.3167,80.3447,-168.8588,30.6129
-3296.8750,5.3900,133.4755,-10.1244,14.2865,-38.1848,7.1890,-179.5660,17.2260,-36.1598,85.0038,-28.5090,-132.8430,26.6640,-58.1866,39.3842,89.8188,27.3463,-19.0894,-126.8427,72.2013
-3289.0625,-114.0114,-21.6931,-36.2495,-35.0694,-12.2325,-41.1450,138.9662,78.6299,62.4025,-0.6884,-2.2425,-72.1394,88.6299,2.9756,101.0497,41.0248,-34.7582,71.4796,-71.8445,-13.2125
-3281.2500,71.0763,161.6503,-9.3380,43.0917,-5.7837,76.0397,-185.0088,-25.4603,-78.5466,-104.8959,-178.5021,82.1043,-51.9279,-137.3497,-39.8078,-64.2720,60.0483,44.5723,-28.3729,29.8734
-3273.4375,-207.8250,-82.9613,-73.7492,-61.6902,34.7127,-31.7174,74.0488,87.5177,145.5595,191.9869,-28.7289,-99.6077,135.5685,84.4072,73.3903,159.5142,-81.5996,10.7139,-25.8723,-3.9818
-3265.6250,-72.0252,17.1576,-34.3378,38.2819,-6.0454,74.2768,32.8794,46.2732,67.4267,-70.3615,-106.2175,154.4528,-89.1831,-30.0484,-77.6537,-65.9342,11.5036,110.6271,-31.6417,-45.0924
-3257.8125,4.7123,58.2546,-12.7976,44.2257,-1.8633,42.2482,-110.3803,13.9851,71.2267,44.2418,-101.7885,-99.5156,-85.0076,10.4544,-110.7680,84.5696,32.9422,10.5038,9.5153,-4.2439
-3250.0000,-73.1511,-126.2202,-7.4180,0.6169,66.7652,-0.3323,178.8301,82.1786,103.4968,38.3459,-31.9204,-67.0460,-52.3601,115.4561,-5.4190,79.5668,-17.3861,72.8343,36.0930,-82.9421
-3242.1875,131.4226,113.7630,18.4107,134.4742,20.8330,101.5549,-197.5115,-111.1611,-52.7891,-191.1067,-187.6359,217.9161,-281.2905,-4.0702,-161.6365,-113.9887,99.2853,64.6376,64.0926,-55.1899
-3234.3750,-61.2835,-44.4982,-61.9454,11.0914,40.6368,10.2066,-31.1315,-17.7374,113.6739,48.2235,-131.6225,90.6288,-41.4827,162.1834,-31.1077,52.2389,-41.3687,-22.8077,117.8229,-72.6751
-3226.5625,27.9490,44.2179,-42.0650,64.7122,25.4369,31.8592,63.2807,-70.2829,61.1500,-188.4226,-183.6280,296.3516,-167.6731,35.4767,-10.5566,-147.5057,7.5538,30.7683,100.5323,-125.1607
-3218.7500,113.1717,128.9625,-67.2046,8.3582,-36.7755,6.5426,-147.3418,-133.8260,71.6070,-104.0774,-207.6729,123.1025,-119.8898,9.7808,36.9737,-26.2589,-14.9023,-131.6350,115.2206,-40.6362
-3210.9375,-42.9505,-133.6148,-61.9946,-148.2953,22.7126,-155.0730,243.7455,-36.6423,204.7741,29.0151,34.9791,-1.4677,87.6185,105.8278,170.1965,69.7315,-139.4438,-111.3314,99.5972,-91.4038
-3203.1250,163.2069,72.1100,25.0422,-12.6316,15.4964,-14.3735,15.1376,-155.1448,-22.7693,-234.6008,-45.0767,176.2935,-29.5798,-122.7995,-20.3007,-158.9787,14.3528,-46.7041,58.2571,-61.8726
-3195.3125,-48.7550,-70.2513,-12.2533,-85.0541,86.1759,-128.7555,122.3997,-84.7419,83.5767,18.6939,61.7480,-48.0414,188.1266,21.4981,86.0780,58.2297,-81.7772,-154.1713,56.8016,-28.4271
-3187.5000,-22.4648,-78.3317,-28.2946,-93.1736,42.1564,-98.8413,261.9952,-55.0172,76.2329,-136.6880,17.8703,165.9360,70.1507,13.1449,115.7613,-96.2383,-85.1915,-57.3255,12.6316,-72.6815
-3179.6875,128.3871,72.1632,-26.1103,-48.7255,-61.3241,-55.3506,-62.8842,-85.7407,9.4141,-56.5399,-48.4913,98.5065,3.6957,-53.6489,48.9683,-90.1682,-29.5902,-117.9093,57.9976,7.6215
-3171.8750,-98.4991,-225.0597,-71.3728,-134.9773,-38.5104,-143.5632,290.5399,46.8577,178.9102,112.9514,84.4421,-99.6412,209.5669,152.8984,181.4773,79.2453,-149.1203,-99.1942,112.6515,-43.7667
-3164.0625,20.0304,-36.8474,-28.5267,18.2278,-63.2480,52.6861,81.4459,-51.0758,6.8605,-169.1028,-87.1908,133.6816,-35.1045,-93.0827,9.4352,-129.8863,1.0302,53.9917,124.7399,-31.7075
-3156.2500,-153.8482,-107.0169,-61.8473,-15.9533,9.6005,-21.4500,79.9245,-15.4081,152.4025,50.4582,-51.2487,-88.3881,37.8192,-20.4517,117.9797,89.5935,-52.4828,-15.2208,124.4167,3.9636
-3148.4375,-86.9731,-145.4106,-25.6607,-19.3411,46.2494,-20.7921,264.2333,-51.9136,225.7582,-134.1476,-13.5013,59.3365,0.5718,-56.9752,155.3410,-20.0931,-42.7343,51.3698,86.8734,-69.5662
-3140.6250,137.6989,79.0140,17.2265,29.0844,21.6892,27.6841,-55.6762,-186.6218,200.8949,-194.9688,-112.9736,34.8917,-134.8952,-155.6909,19.4943,-155.9874,49.7501,-5.2234,99.1087,-21.2912
-3132.8125,-129.4094,-221.3208,-32.9139,-96.2397,113.3795,-101.5969,256.6556,-59.0660,439.2953,79.4961,15.7940,-204.3217,104.9010,-27.1284,147.9112,45.4089,-96.5655,-60.5790,149.5786,-76.7558
-3125.0000,39.0019,-89.1308,-0.2295,0.9815,68.6165,37.6720,101.5639,-103.9387,247.2594,-186.4759,-138.8980,82.0346,-123.7550,-145.9881,-8.1079,-183.6314,12.1422,72.6283,106.5793,-84.6717
-3117.1875,34.9548,-59.3687,3.4568,31.7656,60.3872,-6.4917,-91.0107,-75.2614,165.7709,63.1055,-110.0746,-146.0411,-20.8844,-80.2919,21.4127,-7.1142,25.1262,-2.6104,101.1140,-19.0249
-3109.3750,-52.6918,-147.1835,-10.1961,48.9931,44.6028,13.7844,150.8895,18.8924,149.7485,47.1823,-51.8009,-51.6846,36.4590,13.8983,115.3923,-23.1049,2.5088,85.6040,13.0899,-71.9236
-3101.5625,119.8119,131.1589,10.9683,152.3828,-35.0395,118.2275,-186.0728,-97.7961,-41.1374,-69.6026,-167.4028,88.8512,-117.0780,-102.7560,-38.4911,-103.9529,111.5962,81.9868,-24.7950,-4.6668
-3093.7500,-92.1562,-80.9454,-49.4481,45.3307,-36.1364,7.2255,68.4940,12.0757,67.5318,187.1922,-22.4733,-132.0813,176.9346,154.1671,70.1775,152.7714,-23.6327,10.9189,-62.1443,-5.8474
-3085.9375,27.9834,39.0860,-3.2942,130.4266,-20.0778,96.3720,47.2423,-45.8863,-26.6339,-91.8467,-117.4061,104.1463,-27.9012,23.2652,49.0121,-89.3455,73.5741,131.0160,-83.3562,-26.8789
-3078.1250,34.7713,80.7858,-24.9492,101.1878,-17.3805,63.1886,-169.3909,-43.2034,49.8448,58.7595,-149.7178,-75.9597,11.8939,-10.9910,89.4887,61.1830,56.6981,-4.2303,-76.9274,49.7489
-3070.3125,-119.5888,-142.6505,-56.2407,-17.1603,8.2112,-59.1041,185.9007,56.4026,185.2509,120.3128,-15.1256,-51.1868,110.6183,124.6884,150.8784,159.6547,-60.6660,18.4199,-90.6023,1.2800
-3062.5000,126.7881,67.6579,0.0374,53.2517,-67.4505,50.3646,-74.0465,-56.2321,-0.5983,-137.3973,-89.8004,131.3626,-74.9227,-60.8725,-71.9858,10.8672,48.1053,18.8399,-90.5322,36.5584
-3054.6875,-55.7900,-113.9745,-46.5639,-59.2805,-37.0669,-103.1105,67.0319,48.1830,102.6037,148.9626,50.5607,-131.0435,139.5854,116.6281,69.1992,262.1461,-78.7079,-93.6970,-62.4210,29.8983
-3046.8750,42.6042,-87.6322,-17.1006,-30.8229,-3.6839,-33.5957,25.1478,43.6129,-11.1700,-38.6578,-27.0804,47.5437,-47.8843,39.1551,175.4025,73.4525,-27.8144,39.7728,-105.3188,-47.7621
-3039.0625,91.7019,32.4302,-26.1340,18.3472,-28.6089,15.6325,-293.0561,-17.2619,-73.2534,47.4103,-125.0503,-87.1483,-109.6739,15.3771,150.3018,85.4556,17.8177,-16.0502,-56.5243,1.2853
