Time,Fp1,Fp2,F3,F4,C3,C4,P3,P4,O1,O2,F7,F8,T7,T8,P7,P8,Fz,Cz,Pz,ref
-4000.0000,79.3797,46.4697,55.0263,51.7797,23.9811,55.6981,23.9981,1.3846,-35.4383,-56.4151,27.0548,31.7595,16.1266,14.3678,-9.5855,-33.9509,-72.5094,-17.0700,-86.2874,-17.4525
-3992.1875,48.2467,-55.2185,-15.3574,-119.9417,-48.1265,-125.0533,26.8696,-107.0471,-34.3527,-54.7051,65.8051,106.8209,27.4200,-18.1860,65.8521,-33.0072,210.9992,92.1050,-15.2099,86.0093
-3984.3750,63.7508,100.7283,-68.0860,-0.0227,-63.5818,5.8367,10.3840,60.1735,22.4116,111.6628,-134.8101,91.5456,-91.2262,44.8839,-25.0712,23.5992,13.1683,69.9543,-37.4815,68.2310
-3976.5625,93.8478,-10.7153,-9.2041,-40.4925,-42.4332,-45.6605,105.5085,7.0104,-30.2083,57.6447,-186.8510,1.8625,-45.9767,-9.8191,69.6001,-28.2026,75.9135,-41.6139,94.8622,-35.3221
-3968.7500,-46.3564,-10.4763,-38.6131,-75.2818,-36.5776,-113.4774,-35.6499,13.5352,84.8710,99.3245,-217.1879,118.8739,-99.2717,52.1841,37.9766,85.6864,144.3861,132.5219,-13.0714,130.2607
-3960.9375,12.4318,82.7763,55.9741,-17.0595,-15.7318,-18.2801,58.1767,107.0781,104.9567,156.0209,-233.5413,-7.1095,-53.9916,-1.4889,95.3459,-4.4114,-115.1527,-90.3365,-27.0135,-88.8605
-3953.1250,-36.7751,-70.9781,111.5731,-136.8386,1.1200,-147.0916,2.0118,-58.3798,48.0414,61.7192,-105.9073,9.8971,16.6704,-47.0994,149.7357,-23.5185,114.3179,-0.2206,-7.9394,-1.8982
-3945.3125,-27.5957,77.6571,91.5854,-23.2301,17.3795,-20.5184,-165.7700,29.5516,63.5388,40.8252,-90.8806,100.3185,-73.7308,55.0278,-55.4676,63.7823,51.2135,76.3184,-177.4780,71.3367
-3937.5000,77.7402,76.4673,229.7586,10.5479,118.7908,6.2146,-100.4094,-52.3528,-129.8187,-116.9128,-26.7172,90.8910,-28.1125,31.4978,-138.5238,-55.7684,48.2495,-31.0003,-109.8842,-25.2889
-3929.6875,28.1394,26.3186,219.9953,-3.6388,219.2567,-3.0249,-294.9919,-137.2251,-177.1479,-164.6270,36.5088,191.5174,-48.1360,71.1258,-259.5222,-31.2717,243.3816,199.7225,-197.2325,203.6052
-3921.8750,91.3842,159.0383,249.0711,164.0298,283.5604,135.5890,-157.7384,-36.2353,-186.6147,-101.4835,-9.4346,-0.9876,-7.0756,15.6455,-231.6950,-113.9050,-48.6288,49.3109,-172.7357,63.2999
-3914.0625,34.8302,-39.0398,184.3476,35.8984,218.0642,-3.6008,-39.2667,-138.0442,-179.8645,-131.1390,34.7991,-65.3004,51.5322,-57.7871,-113.6566,-143.3482,174.5519,96.0800,14.9923,113.4443
-3906.2500,-82.6469,54.9601,33.7200,59.8541,140.6633,29.2931,-43.6853,-32.7643,35.0103,46.3098,-116.8755,2.4897,-55.4361,23.6571,-119.4997,-1.6983,54.8524,118.9768,-0.1677,128.4439
-3898.4375,-28.5894,38.5223,9.6351,43.3701,115.8012,4.7530,79.4457,15.0829,83.4537,94.3340,-178.0191,-94.1738,-11.2210,-29.0549,39.2234,-27.4959,-68.3282,-179.5807,122.2209,-170.8958
-3890.6250,-146.0349,-115.4388,-37.9412,-110.6351,30.4401,-152.3052,-42.9073,-70.5829,218.4050,154.8536,-116.6537,3.6441,-15.5642,-32.8277,100.4754,33.1980,198.0102,-18.6480,72.1290,-21.9196
-3882.8125,-104.2506,65.8468,-28.2713,35.6045,2.3296,2.8793,-34.0259,48.0151,225.6178,236.6416,-146.0493,-24.2802,-51.9969,-11.1462,34.9674,4.1682,-44.3952,-119.4474,-30.7173,-121.7289
-3875.0000,-49.3225,-53.7136,21.5585,-49.0076,14.3759,-130.7911,-21.9766,-85.2206,90.9714,100.5892,13.6927,-11.0636,38.8577,-67.8755,84.6093,-56.7058,150.3447,-135.1309,57.6011,-137.8642
-3867.1875,-56.6476,-27.5430,-87.8516,-22.8943,-21.8324,-94.7438,-206.1744,-12.7131,200.0695,136.2890,-96.8083,135.9133,-92.8790,50.6938,-26.0026,88.1764,175.8706,-39.0657,12.6841,-48.8533
-3859.3750,32.8229,26.4446,-37.4721,31.0304,-46.2576,-44.8905,-45.5738,73.6145,212.9775,111.8102,-156.5297,1.7001,-88.0111,21.9400,-13.8306,63.8724,-18.8125,-232.2062,134.5626,-233.0388
-3851.5625,-106.9092,-78.7780,-73.2944,-144.2608,-81.8873,-153.2575,-8.1618,-0.2678,249.6924,37.1308,-83.4511,39.2785,-60.1174,-2.5519,23.1614,63.3564,156.3277,-22.5577,133.2657,-26.0404
-3843.7500,-148.6138,55.0452,-74.0804,-10.5119,-84.4710,-45.5831,63.2847,144.8982,246.4807,107.5169,-86.3376,36.9183,-67.5440,30.4250,-15.7877,59.8941,-133.4668,-65.8262,19.0204,-69.0371
-3835.9375,-110.0297,-46.8203,-42.5653,-113.4501,-89.7553,-124.5980,167.0386,27.3736,55.5725,-8.7853,54.0602,-41.1582,59.7251,-57.5733,124.5796,-19.2841,-26.9788,-133.8056,124.0850,-136.1064
-3828.1250,-201.4583,-68.7089,-94.0462,-100.4058,-106.0331,-103.6342,4.7915,12.8304,76.6633,-26.0961,75.4609,89.7594,14.1681,37.4205,71.9628,110.5403,90.5432,54.2259,-3.8297,43.6795
-3820.3125,-89.0564,43.2636,20.3170,12.5016,-66.4679,-26.8162,8.3839,89.1556,-31.3869,-24.5358,41.6858,-17.4687,37.3205,3.7181,75.1870,39.2393,-45.0904,-115.8918,0.1020,-118.4259
-3812.5000,-71.6090,-79.7244,35.7306,-111.5497,-14.8568,-120.9607,-122.9541,-79.4674,-89.3910,-119.9289,92.9531,34.3404,34.1946,-15.6009,15.4742,15.9886,322.3361,40.0234,15.1103,38.6643
-3804.6875,-27.2791,104.1788,16.0322,37.2850,1.6460,4.7780,-218.3999,45.8036,-74.4835,-105.4136,-1.8914,51.0638,-87.8063,87.0686,-189.3490,142.6499,223.6901,82.8645,-83.9703,84.5236
-3796.8750,101.3417,55.3896,67.6264,-10.5708,89.4373,-53.1758,-129.5407,-13.6073,-207.2675,-164.5774,85.5417,-43.9209,-4.6598,-10.0359,-174.8741,8.6166,244.3247,-0.0076,42.2655,8.9603
-3789.0625,1.8005,-43.5783,7.0712,-75.6068,64.0796,-79.3027,-191.8296,-76.1804,-87.1999,-81.8886,133.8263,3.9367,-21.3981,-11.1432,-199.5311,19.4356,283.8397,249.9732,46.3770,253.9903
-3781.2500,29.5813,18.8038,-2.1488,22.7056,55.0694,58.9253,-17.7896,61.6159,-97.7646,18.1807,50.4436,-115.8512,11.6802,-43.8085,-100.8464,-65.3728,-42.3064,65.3174,106.8378,75.7667
-3773.4375,-8.8513,-160.0252,-10.5699,-121.1946,8.8592,-96.0589,47.0669,-56.7813,-142.5207,-26.9438,114.8619,-160.8518,68.8128,-95.0904,0.6558,-36.3910,199.3441,131.4418,207.1206,141.6591
-3765.6250,-112.6557,-54.2160,-111.3496,-50.4618,-55.7040,-14.4126,-18.4287,97.4551,11.3905,89.5845,11.9281,-153.1873,-13.5338,-27.7729,-27.1858,80.2432,92.6742,166.2368,136.0530,172.5730
-3757.8125,-1.5680,-83.4857,-112.2349,-79.8132,-57.3750,-16.8591,126.9807,57.6055,82.2104,86.0191,-27.1278,-264.6238,27.0018,-101.5610,79.8707,3.7793,-7.1035,-40.0739,279.8770,-31.3203
-3750.0000,-131.4326,-178.7196,-207.0675,-139.1302,-116.9987,-76.2785,67.4503,-38.2141,244.0707,136.4914,-50.1313,-176.0222,-0.3647,-95.2905,130.9878,17.3646,141.2039,144.6617,253.7707,146.4467
-3742.1875,-130.7216,-73.3448,-204.3148,-33.8478,-152.0308,36.8968,180.5050,110.5754,281.5465,211.5806,-122.5493,-247.8109,6.6745,-88.1126,206.6983,18.5705,-210.8824,-31.9873,217.2588,-30.5994
-3734.3750,-130.2195,-213.1678,-137.7661,-139.7646,-122.2718,-117.1336,209.3719,29.1659,126.8419,92.4789,16.8216,-254.8176,87.8644,-131.2127,235.2327,10.5659,-37.1723,-32.8607,214.5684,-31.5381
-3726.5625,-170.4426,-183.7198,-134.9263,-110.4046,-120.2186,-77.8899,28.5347,69.0371,129.4598,94.6815,93.4927,-105.5201,46.6301,-31.5598,128.0827,122.8694,-43.1302,66.5808,32.1948,57.1748
-3718.7500,21.4077,-132.1646,-15.0040,-93.9389,-37.0754,-67.5375,111.7969,78.0233,-9.8113,66.0154,139.2365,-242.1226,99.6169,-94.1979,100.0326,57.2885,-134.0084,-128.8817,116.9338,-130.3203
-3710.9375,-7.5113,-231.3822,-43.8351,-193.2473,-30.6857,-170.9626,-65.6770,48.2539,-75.8267,72.6065,219.2292,-161.4881,45.1884,-56.8090,-76.7495,137.9566,186.3798,50.8941,190.9617,50.3724
-3703.1250,77.2421,-77.9042,-23.9843,-38.8617,-48.6140,-42.6906,-83.4626,177.1917,-95.1312,163.9137,126.9106,-143.1382,-36.0352,-6.9634,-204.8394,118.3368,23.4846,-41.6086,203.6917,-35.7032
-3695.3125,37.5396,-116.8701,-35.5920,-113.9137,-61.0002,-128.8612,13.3079,16.6892,-70.8881,149.7702,113.1332,-155.2557,2.6255,-86.7091,-108.3774,-4.7419,158.1407,-81.5808,337.9919,-72.9943
-3687.5000,-87.9216,-102.6125,-195.9534,-134.7360,-149.1392,-106.8004,-36.6798,2.4164,171.5997,355.8690,-11.3895,-60.1240,-67.6335,-51.1841,-12.6661,53.4371,136.0977,72.7153,210.5560,67.8115
-3679.6875,-67.3016,-47.2395,-142.2285,-78.4440,-132.1829,-52.6288,126.4145,55.2637,298.1879,482.0814,-104.8327,-225.8873,-13.7250,-137.1167,150.1266,-41.2662,-160.8562,-118.8761,228.2166,-120.9820
-3671.8750,-156.9471,-207.1310,-126.7496,-204.4173,-154.4594,-184.7211,68.2741,-40.1513,312.5207,422.0404,18.4718,-210.9168,54.0690,-174.8078,238.6878,-27.2306,98.9512,35.2725,171.6495,27.7295
-3664.0625,-135.0254,-44.4319,-133.6914,-41.8086,-162.1390,-7.2284,-12.2671,100.0318,342.4740,378.6142,11.3617,-217.3364,-14.6157,-83.1322,84.8510,75.4201,-91.6287,-12.9614,51.6880,-20.6140
-3656.2500,-53.1753,-104.7769,-93.7006,-67.2487,-85.8794,-41.7892,63.1562,27.1820,159.3900,195.1524,49.1829,-215.8121,24.6774,-102.2319,48.9697,3.0318,-11.2714,-74.2718,165.6935,-73.2485
-3648.4375,-145.7384,-126.5487,-146.1152,-89.1242,-102.0224,-57.7879,-61.8167,12.9153,180.9039,179.2905,-2.3902,-47.6891,-54.7283,-18.6287,-39.3014,60.2514,141.7259,150.0253,178.3246,149.9615
-3640.6250,-127.6761,-2.6638,-164.8960,-0.3441,-86.5283,31.8695,63.8422,101.3136,159.0746,194.0949,-134.3253,-104.9086,-49.4999,-13.8575,50.0613,39.1383,-53.6273,-80.0123,229.6017,-75.9160
-3632.8125,-189.1154,-135.2940,-197.1785,-133.0728,-117.5363,-109.9832,69.0051,-4.7934,89.7430,50.3993,-92.7573,-26.6410,6.7269,-16.3674,200.9343,79.5181,164.5271,-2.5713,200.4127,-5.8819
-3625.0000,-153.8766,40.7549,-188.7790,7.8767,-109.8586,7.8416,-33.1439,40.7977,98.1240,21.4185,-122.4943,18.3286,-41.6106,44.6126,136.5048,124.6175,58.4172,32.5912,-46.0589,24.4108
-3617.1875,-5.0082,48.4643,-4.7506,50.4820,-36.5442,7.3226,77.3619,-105.9424,-49.8349,-88.8845,23.3961,-91.0604,80.3075,-65.3431,171.7242,-59.6274,64.9426,-100.6103,-74.8612,-101.8413
-3609.3750,-28.6097,24.6977,86.8219,26.6065,17.3224,-48.6791,-126.5657,-199.1489,-33.2496,-146.6369,150.8452,72.0880,51.6959,-4.7276,5.5116,-7.3325,251.0522,49.7395,-206.0862,41.9974
-3601.5625,112.5605,94.7334,161.1733,96.5287,52.9764,25.1218,-52.7033,-53.5481,39.1416,-37.5647,150.0845,-37.9565,40.0451,-5.5945,-68.9137,28.7759,-67.0457,-161.0917,-242.5070,-168.2120
-3593.7500,102.6173,-90.3392,145.4174,-88.6548,-0.4757,-138.1834,-32.9285,-106.0451,-14.5622,-53.5808,243.2134,-17.1224,67.7072,-37.3245,-48.4256,47.7812,98.7489,-137.0444,-112.9974,-146.7999
-3585.9375,-13.4553,-30.5404,-4.4499,-63.9602,-113.0345,-67.6107,-108.2652,37.3478,166.6575,89.3143,130.2394,127.6090,-42.7781,43.5665,-88.0290,81.7023,16.4752,-43.0830,-125.5694,-58.4085
-3578.1250,7.3482,-9.8309,10.5653,-43.3596,-97.7053,-53.1343,126.2928,14.6603,180.7917,29.1308,-3.8543,31.2360,30.9343,-32.4842,146.2631,-51.4661,-103.9050,-198.2275,-35.2323,-206.4718
-3570.3125,-166.8161,-80.0918,-59.3818,-147.7303,-168.3289,-159.6337,92.9242,-55.9914,183.9840,-79.0033,-37.9041,181.9059,22.9016,30.9557,259.6175,61.4118,105.7972,11.6667,-71.8115,-4.7868
-3562.5000,-123.8132,69.8487,-9.1556,1.0924,-120.7619,-37.9383,105.7458,66.5635,122.3973,-66.9251,-99.7779,157.7936,-16.2983,90.1168,162.1621,109.5109,-132.2900,-121.2208,-99.1903,-133.0284
-3554.6875,-108.8252,-55.2096,35.0608,-90.0848,-39.1944,-103.2461,113.5787,-35.8771,-90.2094,-132.8563,-55.6580,91.6699,9.9714,63.1512,95.7181,116.6135,56.6214,-72.1315,54.4528,-74.4174
-3546.8750,-112.9081,9.6621,-33.7805,-24.3328,-35.6784,-26.6243,-66.6443,40.6154,-124.8768,-56.8492,-89.5805,242.4982,-121.3514,164.2030,-158.7705,156.6718,87.5234,98.9267,49.0578,98.6006
-3539.0625,9.4921,97.0438,14.8592,97.9321,12.3254,58.5088,55.6234,15.6186,-186.0353,-118.3261,-151.0094,143.8253,-82.0166,96.3088,-109.7688,-16.7637,-73.0854,-61.5110,170.1600,-50.4597
-3531.2500,-97.5152,-44.9925,-59.9158,-9.2219,-63.0787,-16.7732,17.5018,-95.7902,-187.5920,-194.2022,-80.8283,253.7323,-46.6778,99.7172,-1.1569,-18.6080,135.9336,112.6350,167.8980,116.1328
-3523.4375,-67.2941,91.2111,-59.4731,126.8634,-63.2463,130.1860,16.6159,87.0526,-115.8835,-85.8100,-118.4076,179.8903,-59.6092,123.7063,-2.3061,16.8181,-151.7763,1.0448,20.8967,2.3713
-3515.6250,-22.8470,-5.3368,52.1989,65.2002,10.8225,20.3944,54.9931,-21.8410,-223.9097,-158.1490,-7.7587,33.2801,65.3596,10.5252,109.8029,-54.4965,-36.2435,-60.3213,64.1682,-55.3364
-3507.8125,-42.4214,10.0903,38.8563,45.5041,-2.1196,7.5658,-142.6214,-35.7574,-128.9214,-62.4902,51.9028,93.6737,4.2168,49.3425,-14.0694,40.1850,82.3251,130.3186,-97.5498,126.6611
-3500.0000,104.1886,121.7351,152.6941,122.0097,74.1303,83.9417,-29.0443,3.5293,-161.7395,-60.6231,17.7646,-13.7221,8.2091,18.7430,-85.7551,-30.9266,-121.9168,-75.8300,-22.0857,-69.6930
-3492.1875,108.1943,-15.2282,154.9302,-15.0938,75.7902,-61.2903,-100.0576,-140.7979,-270.1852,-131.3726,166.0415,62.2640,42.1904,1.5284,-119.0406,-29.6486,196.2565,68.4107,51.7936,72.1666
-3484.3750,103.0211,155.6438,83.0016,120.6446,39.3087,86.3178,-173.2321,-30.2829,-233.7833,-21.2677,93.1671,63.0958,-44.9034,56.1055,-229.4930,7.4907,49.3034,61.5288,9.5275,65.7762
-3476.5625,122.7738,34.4710,95.0047,34.3373,50.7790,-12.1135,-14.4480,-91.8061,-221.4339,-10.2000,67.2307,-34.1458,57.7757,-61.8766,1.9995,-127.4197,33.2843,-59.4117,134.2357,-52.9548
-3468.7500,-12.8934,-66.1376,-40.4030,-30.3990,-11.1411,-37.9691,-39.0554,-118.7484,-101.4834,-36.5275,77.8982,50.1965,54.5683,-22.4423,87.1018,-43.7342,107.8971,156.2543,67.5720,152.9873
-3460.9375,43.5583,-8.5985,-55.6821,61.0114,-26.9198,57.3291,55.4775,50.4718,-117.3692,-89.6800,61.7016,-39.3187,80.6959,-0.1314,145.3418,14.1217,-151.3451,-34.9195,18.0603,-38.3842
-3453.1250,-34.5037,-191.5783,-66.4778,-87.0937,-75.2020,-101.8868,6.5212,0.1904,-91.7481,-138.3257,196.0080,-50.3560,120.3246,-16.0280,169.0976,111.4719,49.9171,27.3820,115.0788,18.9490
-3445.3125,-107.8928,-125.8833,-173.5956,-55.5209,-108.7891,-24.4186,-61.7453,152.5938,132.5821,48.7220,53.0201,26.3099,4.8460,59.2950,100.5517,188.5341,-94.0891,94.4043,39.8063,80.9242
-3437.5000,0.9460,-85.9254,-102.4847,-50.6857,-75.1382,-28.6879,81.2326,111.2602,91.1566,44.0213,-61.7183,-49.7817,25.8595,-29.2531,169.2512,-0.1485,-125.8611,-78.3348,148.7861,-80.5253
-3429.6875,-64.3222,-81.0877,-93.4843,-81.9750,-66.5881,-56.0799,-18.8803,-26.1959,63.6205,17.2019,-126.5380,106.0146,-39.7512,23.4288,105.8609,10.0618,124.3031,136.8217,47.6830,133.6145
-3421.8750,-11.5121,111.8480,-0.4088,110.8294,-10.9493,72.6216,0.0977,29.4530,9.1939,71.5071,-254.2684,124.9151,-81.9186,60.3397,50.5506,-45.6071,-70.4301,-57.9113,-41.3151,-55.3502
-3414.0625,13.0375,-3.4798,93.3976,-38.6265,45.4302,-52.9348,19.8458,-134.1444,-80.4788,54.5815,-124.2492,108.5409,23.1684,-27.3943,144.9956,-135.5301,130.5774,-67.9214,-17.5249,-67.4631
-3406.2500,1.1071,54.7126,89.7344,18.4374,41.3537,-20.9653,-167.8557,-28.2043,24.4133,197.2127,-166.6686,141.7105,-77.1601,33.0303,-7.0012,-29.8961,47.1614,95.6266,-100.1736,92.9029
-3398.4375,109.3030,58.0574,196.2002,20.6530,147.4241,48.1640,-61.4119,77.8992,-89.5348,120.0074,-169.9508,-81.9812,-4.7498,-17.2596,26.1476,-35.1024,-126.1277,-43.6793,6.3222,-34.6802
-3390.6250,62.6413,-128.4744,149.8070,-96.0046,137.6493,-35.5818,-143.8112,68.1388,-63.3311,35.9418,-180.0683,-19.5460,-59.4142,44.7780,-57.5348,101.8354,107.7512,155.1541,64.9891,164.9575
-3382.8125,90.7515,3.7831,109.1838,72.1268,96.6665,70.4657,-111.4204,210.1752,42.6928,104.6919,-332.3911,-23.3123,-143.8147,111.8070,-98.4268,171.5891,-146.5580,41.8038,56.4595,53.0603
-3375.0000,37.2449,-47.5548,46.9376,19.6586,108.0788,7.9095,47.3829,37.6110,54.1245,-31.1512,-321.3120,-47.6964,-83.8677,21.6540,-13.9177,-2.2652,46.5263,58.8293,214.3520,78.3862
-3367.1875,-109.6349,49.7363,-61.6729,118.8153,72.1451,82.9849,11.8379,1.6738,92.1950,5.6478,-394.5641,99.5678,-147.7287,79.0887,-48.7646,-37.4691,110.2949,263.5143,66.9096,281.5719
-3359.3750,-2.5308,193.0320,8.6945,225.9799,142.2039,190.0734,82.2831,-1.2514,-58.7497,-71.5497,-360.8120,-14.1695,-79.1424,24.1926,-15.6332,-150.6571,-64.9467,88.2007,32.4629,111.4808
-3351.5625,10.4144,30.1518,21.8994,62.9720,118.1148,55.9997,-51.4146,-98.3362,-82.8620,-167.9077,-164.1961,35.9201,-40.6845,23.1918,-39.6371,-65.9967,194.6722,206.7192,44.8980,220.9812
-3343.7500,32.2886,123.2091,14.0265,155.8976,110.9704,121.8679,-132.1706,40.5231,-17.0153,-66.3188,-173.6231,64.9634,-65.5351,84.9796,-46.6992,36.6196,-29.7385,123.2055,-38.7163,128.9053
-3335.9375,53.5529,38.6756,27.5319,36.2320,87.2151,-11.8502,-8.5208,-19.2131,-39.7802,-126.3309,-122.6443,5.3937,22.5604,-0.7353,113.6325,-23.3672,26.2373,-30.9319,52.0803,-27.0722
-3328.1250,-64.1484,61.1659,-51.9289,23.5974,7.5048,-18.5374,-124.8099,-25.9245,26.4981,-134.3123,-130.5919,108.8623,-55.4375,69.3033,33.0172,79.6941,154.2951,165.9842,-31.0611,164.3690
-3320.3125,19.8333,216.3613,-2.7107,213.6679,56.4802,177.4862,-38.4083,23.0725,-34.5240,-157.5834,-190.8400,11.0257,-74.3403,65.7006,-64.9156,-18.5282,-43.9540,3.6056,-53.5111,14.3741
-3312.5000,-1.8837,89.8465,46.7959,87.0242,105.7510,42.7915,-98.6952,-147.6435,-95.2604,-219.5503,-69.7629,60.4700,-17.7687,14.4995,-52.5372,-79.4674,181.1076,122.5018,-39.6412,130.7069
-3304.6875,-70.3151,196.6163,19.5869,193.6575,115.3167,162.3780,-125.6942,-29.0733,-49.6924,-137.2097,-96.3682,144.2178,-58.0408,81.3291,-115.8714,-70.1009,-28.5069,158.7118,-179.4757,163.8281
-3296.8750,-19.7582,142.3916,138.3606,104.2921,158.8795,96.9709,66.3082,-130.4952,-151.1296,-202.8635,21.0272,40.9520,86.7849,-33.8203,38.7878,-209.7266,-82.1434,-2.0952,-128.3124,4.7361
-3289.0625,-75.3565,50.9875,84.9730,12.7471,106.2993,7.3914,-59.8322,-148.0886,-131.7245,-182.6913,78.2989,135.5244,33.4657,19.9360,-50.7003,-79.5043,71.0943,222.9436,-150.2847,222.7941
-3281.2500,-2.1747,125.3793,51.3594,86.0017,109.5152,120.6174,-19.1805,39.1244,-54.5185,-69.7155,-28.6249,-45.1028,4.5818,19.9967,-47.4082,-2.4717,-205.8739,14.7965,-41.4657,18.7539
-3273.4375,-65.7996,-78.0346,16.9319,-81.5498,111.9357,-24.9583,19.6872,-68.4753,-53.1232,-67.5399,-27.3320,-78.5603,45.9727,-22.3987,65.0873,35.7481,10.3608,91.8243,70.5758,94.8790
-3265.6250,-109.6884,17.2769,-93.7623,13.6277,74.1001,48.1958,-54.7057,3.6630,94.0277,4.3861,-138.2710,66.7257,-59.2742,64.2873,-9.6703,71.7254,-68.6258,152.6175,-9.6293,150.8266
-3257.8125,-21.1807,36.9919,-45.0784,33.2087,86.6490,60.7592,69.2891,-57.7851,69.5865,-20.2774,-161.8046,5.3959,-23.4727,-1.9080,39.9593,-63.8837,-155.2259,-40.2012,114.5673,-35.9900
-3250.0000,-161.2769,-103.9199,-150.0027,-71.8374,17.5963,-44.2969,-35.3110,-88.8562,184.5436,58.4560,-120.9109,47.4481,-29.8766,-12.6672,81.9937,-21.1084,55.6000,136.3707,150.1868,134.3140
-3242.1875,-197.6374,0.9173,-221.1987,-3.1380,-16.7105,68.3985,77.8220,133.8166,261.2583,244.9494,-266.2574,-96.7467,-78.5389,4.4132,84.7611,54.4222,-226.8201,-41.2944,254.5457,-37.8679
-3234.3750,-202.9025,-215.1442,-234.3158,-149.3414,-67.9245,-56.7998,248.0657,119.5875,173.0617,267.5338,-168.4931,-256.8649,-8.2051,-76.0732,143.6314,77.0469,-126.1458,-82.8854,354.0212,-75.4023
-3226.5625,-265.0815,-172.1404,-290.3596,-176.4721,-161.0475,-39.9209,154.4065,247.4471,226.9713,320.2108,-115.6037,-167.8933,-89.9086,30.7485,13.6069,277.7911,-153.3425,-4.3717,150.5998,-8.4986
-3218.7500,-147.7205,-90.5846,-138.8800,-129.0544,-155.6374,-35.4874,306.2907,251.8805,47.4335,140.4538,-1.1544,-162.3777,-2.0614,16.2350,55.1219,208.1010,-318.0162,-239.3182,55.7198,-243.6138
-3210.9375,-207.0114,-183.6988,-126.0546,-223.3104,-142.8797,-131.7237,173.5401,117.6442,-86.7686,44.0384,159.6814,34.4651,29.6350,54.0896,31.9911,221.7446,-96.3265,-52.9252,-73.7895,-67.7600
-3203.1250,-186.7671,-22.2705,-61.6916,-27.0277,-78.5712,79.5849,91.3307,144.9486,-59.4283,108.1633,77.0840,61.8611,-27.7639,94.8299,-87.6138,137.9441,-285.0717,-101.9577,-157.7640,-111.3849
-3195.3125,-116.2236,-92.5323,1.9648,-28.4352,22.0395,33.2015,155.4253,-48.4469,-104.8098,-49.4242,140.7935,-21.4650,67.6662,-21.9598,-23.9259,-55.5569,-181.5297,-102.7076,-89.4333,-104.1722
-3187.5000,-176.9846,-82.1181,-51.6858,17.8333,41.3641,52.5028,-8.7842,-65.1661,-12.5023,6.6713,123.2294,71.8977,4.8190,33.7261,-114.5380,0.6411,-65.2564,48.2427,-184.4057,42.7566
-3179.6875,-63.2491,30.7989,-10.8569,95.6044,45.1844,130.3095,143.4874,12.6233,-7.6889,47.2820,91.1777,-71.2457,23.1162,-14.5737,-110.6642,-68.6491,-268.4995,-190.3170,-70.8920,-187.5634
-3171.8750,-116.5122,-126.3068,-69.0413,-97.6472,-11.9920,-74.9026,159.7703,-45.5990,8.1219,63.8875,107.1575,18.5926,20.3765,-19.8795,-57.7781,-15.9475,-4.7404,-68.9054,16.6412,-70.8643
-3164.0625,-127.7389,-33.3824,-184.1961,32.1276,-54.1264,30.9211,118.0997,97.2255,76.9921,131.5462,-7.7958,50.4823,-73.2914,55.4031,-135.8522,52.8196,-121.9224,-10.4322,5.2244,-10.8168
-3156.2500,-79.9680,-89.4559,-104.3719,8.9046,24.7304,35.7529,160.4359,28.0654,-29.1404,26.2111,-2.7445,-54.6467,3.2602,-16.3454,-57.9298,-53.4064,-74.1333,-67.9814,122.8185,-59.1636
-3148.4375,-160.1518,-99.5137,-145.5063,-0.2953,21.6366,69.6201,-26.1664,-48.0674,78.7710,-14.0830,31.3814,15.2520,-26.3660,14.1253,-96.9487,-19.5903,57.7329,203.5237,43.4776,206.8027
-3140.6250,-100.6400,29.1311,-121.9598,199.2151,45.2317,203.2010,34.9200,11.5011,139.3848,-26.6699,-18.7745,-71.1553,-38.3731,-2.0162,-147.2888,-106.0740,-200.7072,86.7332,66.8217,98.3267
-3132.8125,-86.2146,-96.3335,-109.5229,73.6126,57.7245,104.6777,47.9082,-159.0432,40.8870,-52.3677,31.0049,-95.6943,4.8257,-69.5710,-98.7217,-166.6715,60.7599,241.8198,81.0828,255.2261
-3125.0000,-62.3443,33.6268,-112.6567,132.4390,54.6616,175.5890,8.3287,-90.1462,147.8432,91.3855,-8.7412,-98.7919,-40.7304,-49.9399,-137.7124,-133.8057,-126.2979,265.3698,-35.2084,273.3673
-3117.1875,22.2216,-23.7045,-34.1110,75.9706,60.2891,71.2118,235.4507,-84.5345,116.4958,96.8473,-2.7782,-203.2097,46.3803,-121.8580,14.9889,-164.2303,-252.6826,-2.3962,48.2014,6.5176
-3109.3750,-131.1586,-106.0101,-115.5243,-42.4680,-22.0278,-47.1347,117.6353,-91.8972,219.1750,52.3404,-10.7329,8.4057,7.8561,-21.1185,80.7437,10.3851,-89.9959,89.8871,-35.3298,82.3915
-3101.5625,-133.4007,-3.1694,-78.7963,61.2401,-22.1930,62.6762,116.9593,127.8928,218.9882,51.9836,-84.5247,45.1736,-17.0111,79.3181,80.6248,120.1634,-302.1727,-194.6593,-107.7262,-204.2814
-3093.7500,-92.4412,-102.1376,31.1320,-38.8526,-59.1477,-85.3122,44.4965,54.8785,70.9858,-22.1878,26.9013,82.1178,33.3862,53.6399,116.7062,120.1321,-15.1650,-258.0280,-136.9100,-270.1175
-3085.9375,-69.9344,61.4231,26.6030,54.5844,-63.5458,-15.7655,-180.4307,160.3941,30.5292,10.1793,95.9065,187.6071,-36.6056,135.6055,-71.6703,189.6523,77.4204,-200.8327,-359.5511,-218.0949
-3078.1250,166.7786,157.2009,155.2607,79.2316,-7.7476,2.9944,-125.1673,105.1180,-135.7343,-82.2483,152.1230,132.2813,5.3489,52.1384,-126.8610,-12.6285,102.1936,-351.4483,-300.0023,-358.4846
-3070.3125,169.7070,89.1562,160.1133,-22.9353,-39.7451,-103.0591,-265.6980,-73.9808,-56.8125,-114.4976,193.5664,247.1366,-27.1065,51.5416,-158.8505,-7.7220,352.1892,-138.8700,-297.2406,-152.5933
-3062.5000,140.8280,237.2992,59.1461,89.0902,-66.5454,-19.9061,-183.0496,9.1215,100.3148,42.4546,167.2220,183.1928,-23.8575,15.4661,-111.6653,-71.5969,42.3877,-238.0800,-221.2855,-253.8638
-3054.6875,77.7527,103.2331,-16.0349,-45.0849,-31.5466,-92.9403,0.3991,-174.9651,25.2338,-32.7931,277.6876,109.0249,97.5983,-88.8634,34.3197,-182.6703,154.3658,-160.5197,-107.5118,-174.9788
-3046.8750,-27.8779,138.5838,-7.7728,-9.8384,-96.0960,-48.5444,-100.7075,-130.6152,33.5971,-97.5925,175.6310,190.3008,4.4640,20.8633,-31.2428,-28.2898,189.8087,50.4960,-214.2748,35.5002
-3039.0625,69.6417,166.0932,89.6271,52.5647,-35.5031,12.0112,34.3327,-33.1032,-52.8893,-183.2295,52.7393,30.7190,30.7367,-2.1347,30.3336,-40.7571,-28.6269,-99.3384,-116.9028,-101.9413
-3031.2500,91.9202,-23.6635,1.7763,-66.2931,-50.1607,-76.6894,-90.8693,-84.8607,-104.6256,-198.1396,223.6272,15.8631,57.5545,-36.1685,-21.3279,-18.4962,274.7040,98.5629,-129.7767,92.8319
-3023.4375,109.4000,169.7706,-47.8858,57.0413,10.3782,20.8046,-176.8940,49.5671,-117.1454,-28.8567,210.7379,-70.7924,15.8432,-33.6655,-144.7996,4.9744,46.2508,45.6866,-112.4773,41.3740
-3015.6250,141.4891,60.8106,49.0368,-51.0204,71.5130,-28.0879,-77.3228,-36.3974,-239.0605,-40.9698,345.4513,-119.8678,113.8742,-112.9977,-119.6666,-116.9575,42.3767,-28.6151,24.4251,-28.7878
-3007.8125,109.6279,-41.1294,-52.0046,-120.0566,43.6948,-55.9506,-142.6971,-64.3301,-157.9236,-32.0355,392.2375,36.0961,42.0865,-52.9485,-257.4776,-71.8407,116.5734,185.1387,-77.6145,177.7868
-3000.0000,73.5132,-7.3083,-56.3044,-15.3373,40.6211,50.9449,111.6690,-31.5023,-124.0448,0.6515,278.7901,-5.1918,54.2384,-53.8527,-187.5582,-147.9625,-165.4999,-62.3591,-7.9295,-63.0312
-2992.1875,-167.0867,-106.9986,18.9011,-115.1276,79.0553,-93.6726,151.5504,-139.1814,-121.6997,-70.1881,97.8762,32.9974,52.9059,-23.0651,-39.1373,-36.5863,49.9246,12.6151,-72.7374,13.2168
-2984.3750,47.0609,2.0430,30.8491,63.8121,54.2419,64.4449,-19.8319,18.8845,-36.6053,-22.2793,-184.2673,8.9388,-88.5649,65.9652,-63.9704,85.5553,-156.8876,-18.6474,-210.8097,-18.4269
-2976.5625,327.1653,-33.9597,20.7332,61.7096,7.3706,17.5219,80.7386,-27.0876,-82.5525,-142.4050,-118.4516,-74.1892,-39.2048,-11.8590,-0.8483,1.6365,-157.7798,-195.9778,-141.9341,-195.5410
-2968.7500,15.9797,5.7134,-151.6856,-73.7190,-92.7982,-82.7198,-18.9851,-54.3915,-36.7998,-168.8433,296.0995,82.3619,51.0688,-3.7378,-27.0102,49.3982,23.0532,-51.6009,-242.3497,-72.7394
-2960.9375,-135.9996,168.5913,-239.9180,20.0557,-141.7713,14.2557,114.4744,79.5126,-13.8462,-74.0818,466.8635,-42.8912,138.8137,-64.8900,-3.9899,-38.6318,-234.9227,-239.0130,-114.5871,-258.6823
-2953.1250,-146.7627,-87.3420,-219.9470,-95.9751,-158.5403,-112.5663,135.1329,-10.3824,6.2935,-16.1354,340.8483,-95.9752,129.0100,-116.6878,89.2287,-54.4567,-34.7055,-144.2566,-18.6108,-157.7795
-2945.3125,-29.9722,-111.7535,-198.4312,-49.4779,-174.7597,19.1480,10.3202,46.2652,174.9801,114.3490,105.4110,-1.5058,-38.4666,-4.7049,-36.0129,39.2806,-128.9137,-98.9388,-78.0873,-112.9832
-2937.5000,126.1264,-130.8553,-153.6194,-69.6686,-165.6867,27.1764,129.7902,18.2254,35.9683,49.1373,115.2822,-65.7360,-3.8248,-54.2489,-26.9679,-60.6770,-182.8485,-259.3383,112.7302,-265.1915
-2929.6875,-61.3185,-177.5289,-198.3604,-151.4323,-136.1590,-17.3650,48.7170,-63.3855,-82.5947,-69.6348,255.6281,-1.5303,55.8507,-30.8400,1.5418,3.8059,51.6823,-25.2964,-3.9916,-36.8829
-2921.8750,-39.4201,54.1423,-137.7660,10.1512,-113.2884,117.4465,109.9807,-1.6411,-94.8015,-155.0405,207.3321,-13.9773,53.9915,-9.1759,-10.6033,-45.3441,-172.4456,-144.8885,-89.3807,-152.8403
-2914.0625,107.8949,60.2055,-100.7751,-88.8705,-75.0140,-28.3434,147.6539,-148.4876,-240.6178,-265.0417,207.4511,22.9412,61.5717,-46.4107,-10.3421,-81.1008,78.8111,-138.1046,-117.3566,-145.4445
-2906.2500,63.5683,227.5909,-139.4377,-27.5746,-113.3862,7.1952,36.6743,-75.9949,-169.0864,-156.6927,134.9419,169.2019,-69.5033,49.7657,-194.7287,-8.5070,176.4417,-76.9547,-266.9815,-86.8144
-2898.4375,264.9445,427.6840,-46.4089,31.4314,-94.0642,24.4458,129.3907,-93.7870,-333.8548,-137.6328,264.1295,39.1497,-3.8191,-69.3148,-249.4181,-210.2025,130.7389,-299.1126,-171.9107,-300.3691
-2890.6250,368.2831,390.6994,-50.4297,-110.6295,-134.7895,-125.3639,-56.9305,-244.6401,-447.6758,-177.6424,556.2831,72.0237,58.0001,-145.6035,-290.1399,-250.9596,444.9952,-125.3301,-244.8736,-138.0500
-2882.8125,500.7210,452.8112,-21.3585,-14.5914,-141.4205,-22.0652,-137.1753,-104.3971,-381.3920,-74.5565,513.5516,-8.0035,3.9575,-120.7683,-370.7718,-184.6098,190.3582,-169.4257,-252.7521,-182.3323
-2875.0000,558.4268,194.1807,101.9661,-132.2883,-128.7963,-119.5009,-87.1751,-128.9086,-404.8620,-99.2258,453.0875,-141.7980,82.6538,-197.2301,-173.1644,-208.0233,247.9523,-218.2894,-90.3773,-224.7492
-2867.1875,433.1986,172.5760,86.3458,-116.9524,-106.1115,-96.9003,-249.1362,-106.3966,-273.2838,33.1473,365.7040,-120.5503,25.6012,-154.3199,-188.5086,-112.3952,263.6229,7.9058,-180.9515,-2.0260
-2859.3750,477.5270,216.5325,164.2723,-3.0518,8.1174,-19.7372,-134.5642,-29.3233,-306.1586,36.0853,296.8719,-264.7537,73.4408,-180.2934,-148.3168,-146.2070,61.8276,-124.3488,-66.9914,-122.5015
-2851.5625,394.8201,64.4251,185.1488,-86.2191,66.2973,-145.6320,-223.0324,-155.3051,-321.0949,-90.0396,319.0132,-170.0320,106.5089,-170.7649,-90.1589,-124.0749,329.9892,39.3251,-79.0629,39.0463
-2843.7500,297.6165,176.8068,161.5187,98.1027,80.9753,15.9665,-281.0211,-66.7907,-196.5260,-38.6608,114.6705,-192.8112,24.7743,-103.2832,-111.5107,-72.4289,197.6684,82.5181,-105.6498,88.5958
-2835.9375,265.1805,37.9499,229.6388,63.1895,147.4080,46.3303,-103.2742,-147.5157,-203.2108,-118.5332,36.0843,-309.8537,44.2425,-146.9602,-118.1197,-153.0392,200.0776,12.4465,71.5123,34.6075
-2828.1250,217.1108,-79.5804,186.1194,51.6066,142.2013,41.0268,-182.1895,-152.9090,-208.5508,-87.0779,68.8715,-204.5533,-6.6943,-82.4350,-233.3718,-84.3040,293.8599,246.7352,-45.9741,266.3036
-2820.3125,323.9449,26.7978,185.4949,121.9360,177.8935,113.6327,-109.2215,-80.3897,-245.9846,-125.7181,68.5580,-243.3447,48.7827,-82.4327,-124.7328,-85.6543,13.5228,35.9328,-10.5792,51.4481
-2812.5000,264.3925,-139.2387,230.4744,-78.1416,223.1894,-63.1663,-174.6384,-220.2760,-201.8187,-228.7680,187.8557,-162.5535,146.4973,-117.3045,30.5177,-78.4121,235.7762,81.7124,-0.5670,86.1098
-2804.6875,145.4372,-116.6952,187.0500,-21.6351,180.0928,5.6255,-253.4633,-78.5722,-23.0454,-123.2163,72.7594,-94.1606,84.9385,-35.1135,61.3604,27.4377,46.6482,137.1174,-48.9608,135.3355
-2796.8750,150.2901,-184.3343,221.4255,-18.3071,178.7956,40.2352,2.5112,-118.0590,-62.4764,-162.8590,-1.5395,-244.9775,154.0044,-112.0513,205.9989,-85.9128,-20.7095,1.3149,95.4356,11.8929
-2789.0625,-32.9391,-227.0941,182.7107,-26.0956,176.4036,38.7259,-35.6133,-155.6655,-64.0136,-238.6291,-1.9091,-172.8985,134.1331,-67.8158,167.5507,-50.3736,182.8574,273.4110,-18.2641,286.3199
-2781.2500,-94.6643,-78.3480,157.4929,157.6191,188.5036,196.7270,48.7346,-33.7660,-52.0350,-189.8896,-136.7747,-198.3127,82.6793,-21.9996,105.5990,-75.3192,-90.0834,106.0181,95.5187,128.8220
-2773.4375,-64.9690,-260.2083,145.6841,-59.2687,213.9996,2.1275,148.4783,-155.4602,47.3445,-201.7432,-109.2366,-210.3470,127.1199,-79.4001,205.0638,-49.8723,44.3623,98.9974,194.7196,116.2684
-2765.6250,-83.7235,-243.5456,-11.5738,-8.6289,130.0409,65.0607,-8.2448,-19.6141,293.2859,-29.0447,-229.1350,-109.8286,-0.0514,14.5661,158.0867,87.1395,-79.6200,186.5452,105.4721,192.1304
-2757.8125,-62.3739,-258.7758,41.2621,-22.8776,146.1700,8.1084,118.1235,33.3579,235.3365,23.7687,-174.9433,-242.2104,76.8123,-74.7067,211.2071,-6.7368,-163.5394,-74.8170,302.3272,-61.9486
-2750.0000,-147.4165,-344.4321,28.7028,-178.5478,97.8937,-77.2610,33.0979,-52.0756,223.9959,122.1769,-39.1362,-144.0007,72.9605,-59.9047,161.9515,53.9864,67.1448,85.4107,180.8000,87.6840
-2742.1875,-87.0106,-213.6441,22.5866,-48.7653,55.0581,62.8213,27.5013,87.9508,218.1218,262.0497,-81.8721,-187.3336,19.3425,-23.3426,82.1429,84.1747,-188.7301,-29.8895,171.7060,-26.6005
-2734.3750,-34.6425,-373.9048,69.4231,-138.0230,102.1760,-36.1387,111.8623,-47.0647,191.1931,198.8774,-31.6502,-213.7343,96.3295,-96.3756,167.2949,-14.6974,-31.6803,-85.2515,292.5738,-78.2005
-2726.5625,-131.4194,-329.3360,-20.8866,-129.4500,85.1488,18.7406,21.0666,44.7557,285.1111,255.5497,-85.5625,-122.2901,-0.4612,-12.1169,39.2970,78.2827,-22.7494,65.2623,161.2932,68.9992
-2718.7500,-108.8404,-237.3991,-2.8404,-72.5077,103.4742,37.9882,150.6045,99.9413,230.3816,200.5844,-138.1429,-176.5025,28.6551,-33.6366,94.6319,23.6249,-176.4844,-89.8645,288.3547,-79.3809
-2710.9375,-141.0968,-340.3260,-35.6264,-245.4206,107.9639,-105.6190,81.2911,-5.7314,270.7968,167.7581,-60.5652,-136.5872,49.6051,-46.8246,136.1263,101.1056,71.9420,53.1581,220.5780,53.9100
-2703.1250,-112.5439,-173.4566,-111.6054,-112.5283,32.2533,2.5811,42.7536,175.3884,416.0152,275.7333,-209.1760,-139.8662,-54.3670,25.1387,97.4117,209.3908,-181.8248,-24.9906,178.5825,-27.7322
-2695.3125,-76.7713,-242.3765,-81.3792,-182.4164,26.7441,-77.0053,184.4174,59.7142,410.4311,158.9122,-175.5817,-181.9605,36.8835,-82.9930,238.8978,19.8672,-75.4191,-94.9557,354.7975,-91.1263
-2687.5000,-157.0397,-219.3722,-47.1930,-123.3751,24.1830,-42.6626,72.0251,56.9775,407.7994,193.0378,-252.0167,-39.1076,-39.2182,10.3441,162.3431,90.3006,19.9614,105.0358,132.9774,106.7001
-2679.6875,-44.8052,-71.8546,-5.5098,24.1774,29.1148,36.1890,77.1140,134.7618,265.6727,160.6828,-244.9681,-107.7466,-14.5949,3.8647,167.2888,59.2518,-149.1759,-64.4643,209.6482,-58.0151
-2671.8750,17.7400,-255.0453,58.4855,-160.9767,56.3503,-120.6668,-6.4935,51.8435,181.8505,40.6347,-69.6144,-44.1015,27.8954,4.9096,121.5615,123.4888,123.9881,-2.6811,201.6370,-1.8592
-2664.0625,28.3375,-106.2020,37.5282,-45.0992,-0.3754,-30.4832,-100.0622,214.9773,162.0994,167.6567,-126.2055,81.5984,-88.4847,117.3592,-46.1030,212.7859,-41.7935,7.1721,70.6673,4.2214
-2656.2500,123.8889,-117.4080,129.5197,-91.2582,53.8387,-123.3357,28.3171,86.0844,106.3213,74.6429,-69.8524,-10.7649,20.7507,-5.9942,82.1929,47.0406,17.3405,-145.0398,164.6487,-143.2909
-2648.4375,89.5955,-81.4877,62.6689,-126.2855,-11.7866,-152.0539,-74.1582,20.3310,113.7022,44.7675,-24.3433,180.0100,-35.9746,58.0548,16.6507,91.4502,194.6468,66.9110,-80.2096,57.2855
-2640.6250,108.1572,112.2892,44.6740,102.5566,-67.5575,13.0988,-18.8097,111.4426,-15.0635,26.7442,-41.9965,160.6488,-40.6283,86.1059,-2.0627,36.7208,-33.2071,-91.2562,-62.2367,-95.3457
-2632.8125,123.9357,-48.7262,129.8959,-58.3881,-19.1169,-85.5397,-43.2532,-24.2549,-76.6460,-72.0894,81.5518,98.4777,42.7042,19.0139,46.4367,11.1703,192.1331,-6.2311,22.9479,-8.7625
-2625.0000,76.0256,42.5536,48.4266,68.9644,-62.3727,17.1108,-197.4085,79.3302,100.0776,104.3820,-71.5956,127.6159,-81.2176,79.5613,-33.7629,77.9175,37.7958,121.1188,-61.5754,115.7525
-2617.1875,115.7730,47.5051,83.6083,72.9903,-27.9831,-21.5687,-51.9259,40.5865,61.4611,102.5240,-109.1171,-58.6019,-10.8811,-32.8494,74.6844,-34.6761,43.0826,-50.8862,153.5543,-44.5955
-2609.3750,16.2288,-52.8683,20.4993,-27.2995,-53.8899,-84.5589,-78.7393,14.5377,71.5475,38.3604,-60.9397,24.8672,-26.3369,8.1736,47.8486,49.4323,189.0896,165.8127,53.4112,166.8587
-2601.5625,-33.6218,71.4559,-31.9101,98.1139,-69.0990,47.1579,-19.8659,183.2052,19.3506,96.9166,-148.0779,9.0410,-90.4738,89.6433,-40.2915,145.2604,-143.2161,44.2426,73.9627,47.5920
-2593.7500,-56.6649,-127.4226,48.4897,-101.6660,-25.5087,-129.3205,60.8193,42.6835,-10.0393,30.2872,-66.4269,14.9982,-11.8502,31.2830,40.3971,115.8829,9.2535,21.4547,191.3308,23.9299
-2585.9375,-124.8096,-56.4199,20.7863,-65.5590,-16.0235,-45.9140,-76.5995,162.0525,73.4932,149.5602,-166.8726,134.8616,-125.5789,131.2946,-96.9935,198.4108,-94.3583,127.5926,51.5995,126.1050
-2578.1250,-24.2057,-26.6478,46.8268,0.3192,-26.7965,-20.7407,59.7210,188.1904,25.7918,101.5868,-176.5920,12.4866,-79.1261,70.8741,-34.6314,113.6992,-205.2416,-53.5151,152.6124,-47.4312
-2570.3125,-72.9420,-146.2390,-2.4698,-85.1564,-38.9166,-69.9203,10.6880,101.9697,13.7405,16.2433,-77.6632,72.7615,-36.1410,73.2309,27.3984,138.6241,27.5450,144.0287,-2.7037,142.8970
-2562.5000,-136.0810,106.7701,-29.1575,132.9738,-65.4340,87.5049,-15.7678,185.3523,23.3012,62.5146,-176.1522,45.6523,-98.7181,116.5171,-35.9770,149.1591,-177.0681,80.2026,-66.4297,82.3917
-2554.6875,-98.9129,37.0906,38.4699,28.4175,-34.6464,-64.7586,89.0673,33.0482,-128.8315,-53.8926,-33.3541,2.8345,28.1229,0.8206,68.9482,-4.0093,35.5962,-25.3345,75.1600,-18.9263
-2546.8750,-160.4375,115.6892,-18.5906,72.1523,-53.5493,-47.7378,-4.8060,50.0348,-111.6608,37.0030,-89.2571,130.3164,-78.5244,112.8378,-60.8214,160.1312,79.5901,124.4475,-126.9414,123.3699
-2539.0625,-60.2044,215.0545,8.0890,171.6557,-64.7065,52.0502,59.0637,112.7987,-195.7271,62.6689,-62.4455,45.5538,-52.4720,81.5145,-71.8499,76.0440,-67.6835,-93.0115,-62.2903,-88.6750
-2531.2500,20.3773,47.7590,17.1251,4.5003,-55.5136,-49.8209,-5.6991,-25.0862,-223.4295,-1.3014,95.6961,54.1325,3.0923,14.2600,-62.5052,12.2991,153.3962,56.8761,-53.2541,57.0027
-2523.4375,-48.2994,119.2113,-14.0877,111.0943,-122.5720,104.0589,-72.7188,164.7789,-106.3611,151.4989,-44.4385,96.4744,-87.4752,105.4654,-92.4042,92.3026,-162.7621,-12.4476,-52.4687,-15.0495
-2515.6250,-59.3174,-68.6631,3.3641,29.3671,-67.9796,10.6233,54.9107,109.3001,-52.6431,58.9527,10.0559,2.4589,42.0752,23.5930,109.3554,35.9373,-174.2854,-164.1240,146.9726,-165.4228
-2507.8125,-197.2268,-101.4474,-61.0653,-4.2608,-133.2828,-16.7128,-9.3683,80.8959,104.1666,67.4945,-53.3443,158.5398,-40.0709,112.6657,81.2273,155.6643,-100.6790,49.3193,8.5236,39.0941
-2500.0000,-166.2365,68.6799,-106.5917,132.0320,-177.6895,84.8663,56.2400,183.4087,95.8949,95.9589,-133.8670,75.5248,-54.3522,98.3539,109.9881,110.3065,-282.1920,-97.3224,38.9721,-102.8578
-2492.1875,-133.4981,-40.4506,-2.3562,-47.9313,-110.3446,-104.8114,123.6144,-44.3254,53.3934,-20.8140,-28.6578,69.2460,35.2513,-6.8293,177.5201,-6.2961,-3.9684,5.7704,71.2048,1.7151
-2484.3750,-159.0187,110.1541,-22.3725,67.8459,-131.2581,-14.7522,-7.2743,82.6990,106.6681,69.1819,-48.7115,158.7325,-51.8239,96.9959,46.8058,120.8739,-169.9776,50.6388,-94.8072,39.1543
-2476.5625,-80.5343,45.7740,49.6165,-31.3601,-95.1847,-89.6753,101.8275,44.7553,105.9494,-41.7958,61.2128,83.2226,71.6026,14.8791,193.0905,46.0545,-163.0145,-154.5040,17.1898,-166.9283
-2468.7500,-111.8871,-20.4737,-15.2278,-98.4287,-122.9592,-191.4662,-36.9228,-20.0456,225.3830,-33.6245,108.2799,238.8701,46.3854,57.5678,202.5396,128.3762,17.1273,25.5142,-119.6459,-0.7917
-2460.9375,-28.5966,167.9436,-39.4203,55.1729,-184.0851,-68.5931,-97.0479,102.8125,201.4853,53.2123,47.9666,214.1915,17.0548,56.2900,215.6343,68.3587,-146.0862,-102.7844,-176.8412,-129.2214
-2453.1250,27.4467,81.1179,13.1479,-101.4672,-168.4493,-235.9664,-45.4153,-102.5807,143.3459,-116.1957,174.3773,192.2575,112.2151,-56.7044,304.4991,-63.9157,120.4440,-47.3342,-86.2671,-72.6274
-2445.3125,20.7280,249.5350,-25.0218,67.1401,-169.5545,-91.1003,-230.5429,7.2721,142.4624,-117.3547,27.0205,300.5888,-65.0045,95.5806,46.6199,82.0694,77.2520,121.3986,-234.4416,98.9069
-2437.5000,175.1082,227.0788,53.9168,114.8752,-54.5579,-49.1135,-114.5806,12.2485,-73.3267,-184.3952,-41.2737,158.0326,-37.7255,56.0146,14.8273,14.1605,20.1397,-6.7614,-45.5073,-11.8607
-2429.6875,64.5962,45.7106,49.9686,4.7064,16.5490,-89.0399,-118.5117,-64.6856,-76.0130,-152.3278,-80.4854,191.5742,-42.7196,71.2927,12.1453,47.3429,121.1500,234.1839,-15.4397,231.4066
-2421.8750,-86.2754,140.9965,-33.3292,135.2001,-30.6964,121.6925,-17.8068,146.0420,60.9834,21.4279,-236.0819,106.7742,-74.8950,96.2047,75.1109,37.1848,-276.1954,118.8043,-25.7168,119.0971
-2414.0625,-140.8561,-91.4081,10.6730,-26.9922,-22.6482,-17.2664,100.2154,80.0812,32.3052,-43.4894,-6.4102,-32.7403,79.6542,3.3508,193.3974,45.3207,-156.2601,-43.2821,94.3352,-44.7302
-2406.2500,-183.4986,-100.8816,-27.3729,-35.2415,-98.6507,17.7161,-85.8120,262.0649,30.5968,64.5530,28.1930,74.6979,-40.4764,139.3494,-28.3472,264.4140,-199.3557,53.6167,-19.6507,44.5539
-2398.4375,-105.8984,-57.0855,9.8305,6.7831,-59.4101,54.9647,-10.5992,263.3174,69.1560,102.8648,30.0053,-70.6017,30.8870,48.2125,83.1633,155.7701,-333.2218,-149.2163,22.6118,-155.9070
-2390.6250,-139.8968,-127.8937,10.4457,-97.7922,-95.7640,-90.3891,-45.9758,42.9588,144.1180,66.5656,104.2005,1.5003,82.7133,-41.9144,194.0989,8.5205,18.3233,62.3560,-46.6991,51.3633
-2382.8125,-60.3053,161.9011,-86.3382,157.2395,-156.5192,105.8597,-180.7676,93.2054,-100.2965,79.8797,43.9595,88.2247,-16.4318,64.2451,60.6300,58.8855,-77.5282,71.5668,-141.4099,59.9813
-2375.0000,78.6254,88.0563,-60.7648,83.6434,-130.9231,-15.5246,-155.1985,-28.1744,-258.3503,-41.4322,144.0231,76.2933,33.3209,14.2432,50.5165,11.6065,60.9441,-36.8785,100.2557,-45.1088
-2367.1875,32.4929,43.1479,-100.2320,2.9877,-97.3736,-19.9712,-305.6741,41.3942,-77.4417,102.2123,-5.9842,182.3236,-111.7992,106.5505,-99.6358,154.2812,50.3936,199.6478,20.8883,187.0444
-2359.3750,47.8093,127.7145,-52.2496,123.8072,-86.3764,65.0494,-183.7114,126.4328,-28.0762,150.3272,-177.5761,45.8219,-108.0856,44.6523,-14.3481,19.4160,-180.7187,72.6434,105.9673,72.7518
-2351.5625,1.6329,10.7889,-28.7564,-28.8692,-62.8742,-94.4327,-87.2413,-70.0322,-115.2121,62.9429,-79.6840,105.8227,15.1893,-26.2532,192.4560,-66.9631,52.6802,167.1372,58.5694,161.2239
-2343.7500,-1.2462,253.1693,-134.9614,143.7563,-169.0718,56.3814,-193.4958,80.8056,-111.0352,140.8695,-149.5129,183.1480,-86.7710,79.4137,122.5599,46.9698,-90.6001,164.9675,-189.5334,150.2610
-2335.9375,106.9285,149.6271,-103.1087,75.4550,-136.2209,-20.7367,-87.7112,-33.2897,-77.8051,-9.1328,-43.3147,31.5275,18.0235,-18.3285,229.7192,6.9593,-17.8516,-8.1610,-81.5775,-21.9274
-2328.1250,-6.2953,0.6848,-104.6388,-2.2360,-101.7583,-60.2550,-162.3281,-35.7861,141.0338,25.4762,-117.5300,139.5051,-82.5165,60.6547,81.4896,114.5453,44.4892,229.3144,-90.0106,215.5239
-2320.3125,-59.9877,86.2947,-52.6110,118.6317,-49.7509,103.7790,-73.4051,91.2650,231.4378,114.6455,-285.2101,45.0490,-139.3370,60.4282,-13.1879,20.6843,-220.6106,69.3723,32.1043,71.5693
-2312.5000,-50.0868,-80.4804,-8.9779,-48.8832,30.8604,-36.5754,80.1206,-49.0771,164.4504,48.4226,-167.3160,-22.8010,-50.0778,-35.9657,-6.2586,-81.5843,-2.1184,113.0451,216.8373,124.0563
-2304.6875,-96.5862,48.3440,-84.7370,81.2076,-44.9253,144.6766,-69.7479,95.1746,162.0668,155.8023,-243.8568,10.9580,-157.0002,63.5345,-118.7236,24.7424,-154.0048,172.3324,100.1915,180.3713
-2296.8750,-18.6524,-15.3683,-10.0505,88.7713,29.7336,109.3883,4.8309,59.8887,91.1437,120.6533,-278.9951,-97.8090,-68.0610,-18.3905,30.2544,-83.4591,-109.4401,-65.9101,214.0079,-50.6054
-2289.0625,-112.3686,-108.7260,81.9874,-5.3117,121.7466,16.4461,-161.2251,-69.0330,146.5831,139.8738,-260.8138,29.7726,-60.7675,10.8234,48.5967,-28.3108,77.4673,157.1976,50.2041,163.6999
-2281.2500,-8.9041,134.1093,154.2259,203.8076,156.9517,162.6950,-235.0743,40.2550,35.2455,138.3205,-298.4750,28.5642,-87.5413,43.7136,-25.8321,-65.9511,-66.4296,84.5236,-163.3784,93.8359
-2273.4375,160.8408,56.2526,252.7536,90.2370,219.4413,4.2512,-172.6168,-155.1394,-232.7650,-166.9024,-89.8749,52.6542,31.4012,-5.0419,0.0679,-115.2842,313.9618,7.1528,-135.6396,18.1578
-2265.6250,167.8783,238.6907,122.5864,167.9666,125.2198,94.0958,-304.8396,-65.2350,-179.4598,-150.8180,-184.0047,216.0593,-168.7412,148.5126,-277.7104,48.6832,320.6613,155.0936,-233.5817,162.5211
-2257.8125,231.3567,267.6017,109.8658,196.1597,149.4448,118.4014,-133.6401,-77.8789,-81.6978,-200.2770,-306.7152,129.9559,-162.2558,89.5478,-216.0533,-73.8924,172.8327,-27.4863,5.9214,-9.9857
-2250.0000,70.2444,69.9395,53.5679,104.7740,129.0847,25.1133,-43.0494,-208.1302,83.4583,-219.3464,-289.0496,146.2700,-109.8218,26.0966,-88.0040,-167.0741,292.4107,233.3400,55.8302,251.5196
-2242.1875,-10.1687,199.9794,-27.0177,235.0956,48.4333,238.5287,-49.7778,-67.6836,187.3099,-41.7090,-369.6985,102.2993,-123.5956,46.6505,15.7389,-173.5524,-69.2952,187.8964,-24.5571,200.1858
-2234.3750,32.4017,-3.9675,47.4044,67.4315,86.7824,129.9553,98.4979,-213.2198,188.1724,-151.0495,-184.3780,-80.6681,66.0941,-108.5116,237.4789,-282.0234,42.9841,90.4742,89.0699,102.9532
-2226.5625,-83.5852,-15.4643,7.2857,56.2223,120.5912,126.8285,-51.7548,-106.3028,222.4933,-42.9319,-188.6404,-11.1806,-14.6223,0.3827,87.6827,-65.0473,31.7044,255.5067,-27.8294,261.6149
-2218.7500,-60.5422,43.0915,101.2095,79.0702,214.4471,146.7515,115.0362,24.6740,59.8917,-22.7374,-205.8940,-101.6273,15.1770,8.4453,34.9421,-45.0096,-85.5204,-73.3888,31.3403,-57.2735
-2210.9375,-3.9083,-112.7426,197.7333,-111.4749,199.9036,-88.7225,137.4323,-63.7358,-65.0755,-73.9124,-36.5853,-5.4780,40.7215,-3.8850,-53.1822,-22.3725,181.8404,-87.6890,87.1321,-73.8692
-2203.1250,43.2094,74.9226,105.7644,41.4799,70.8569,40.2988,119.3375,102.3521,-46.5352,55.4274,-128.7906,86.1791,-116.0787,109.7568,-254.7979,69.7642,17.7100,-145.4675,-41.5684,-133.5896
-2195.3125,113.6629,4.9578,98.1438,-64.1988,63.1557,-77.3205,221.5850,-16.2016,-53.6466,-25.8694,-25.6727,4.2087,-9.4796,-21.4489,-115.0604,-84.7468,157.9328,-250.8838,100.0834,-237.8225
-2187.5000,-1.7302,-5.8448,-16.3145,-108.7153,59.6063,-80.7936,70.9893,-55.6100,91.3884,44.9878,-66.4288,111.4014,-47.2049,-6.6166,-81.1676,-88.1149,219.3229,56.8502,20.9015,61.4000
-2179.6875,-4.5319,131.9680,14.8235,63.3830,89.6544,96.3409,137.9734,11.5802,48.0310,75.4560,-109.6243,-42.7809,18.9546,-87.1578,23.3145,-278.8709,-30.6626,-51.7903,17.3275,-37.6432
-2171.8750,-15.1359,-54.9972,75.1684,-52.2934,186.9068,-27.3143,124.1637,-186.0165,-38.1168,-84.8625,23.3361,-93.7592,135.0267,-151.1930,119.9925,-291.4243,205.5452,43.7748,112.9675,58.5431
-2164.0625,-85.2984,85.4924,45.9666,123.4843,157.6104,91.4758,21.8185,-31.1579,-29.8126,34.2866,-116.2810,-49.2862,7.4516,-15.4164,-18.8756,-99.5279,64.2090,43.8116,-26.9275,57.6554
-2156.2500,-9.8264,20.6447,80.4040,93.9276,154.9625,51.9283,203.1236,-33.6386,-141.8403,-78.8915,-82.2742,-162.1493,79.1976,-68.5239,52.8994,-138.9729,69.5182,-126.4832,118.8351,-104.5712
-2148.4375,-52.5621,-23.3971,2.6496,15.1722,115.1169,-24.8272,126.2478,-110.3131,-108.0585,-81.2596,-86.4895,-19.2069,-17.1718,-10.9562,-97.5100,-68.6179,237.6158,112.0218,111.4203,130.4611
-2140.6250,-12.2709,87.6088,-28.0549,161.4668,46.3155,127.4629,168.4175,42.0681,-102.2061,34.4474,-191.6924,-87.1935,-87.0409,18.7640,-165.8584,-63.2128,-39.2298,-23.3978,152.0662,0.5934
-2132.8125,5.0054,-141.3642,21.2413,-67.2227,96.5094,-7.2352,180.5913,-91.5405,-162.3327,-25.8356,-68.9399,-148.1663,21.6256,-63.3105,-42.1996,-86.8034,153.9244,-4.8140,275.7230,16.7973
-2125.0000,-124.7706,-96.3723,-70.4994,-21.9565,114.6612,122.0100,-22.2876,73.7964,-69.5224,176.8227,-125.2612,-93.1663,-79.0383,45.1357,-170.5907,78.5611,-46.9474,110.7284,145.3387,123.7135
-2117.1875,-110.9583,-152.7523,-28.6360,-78.0677,156.4120,90.8588,131.4104,116.7389,-63.1114,146.0825,-9.0110,-198.5369,47.7452,-57.1905,-53.4024,-62.4627,-174.2050,-86.1040,230.5573,-70.7016
-2109.3750,-172.5465,-214.5155,-53.1654,-174.5643,168.7767,-7.6860,105.7118,-55.7177,22.8949,84.9425,75.8141,-39.2947,61.9271,-53.2875,-41.6164,-87.8919,11.1365,98.6623,98.3936,103.9631
-2101.5625,-98.0863,35.7727,-46.6348,40.9920,138.1929,145.8172,149.0544,60.8719,29.9457,54.8637,-29.3281,-32.9823,-1.7550,-8.3287,-108.7874,-118.2647,-160.4582,33.4986,-107.7108,42.8701
-2093.7500,30.7091,-46.5716,43.2497,-41.0864,154.9583,15.6741,238.7438,-143.1671,-137.6575,-148.8369,96.8563,-127.3178,91.0705,-99.1670,-54.6062,-174.2835,73.2968,-13.3091,-48.4546,0.0754
-2085.9375,-46.7410,86.8373,-29.1042,21.5821,118.4808,52.2687,92.1878,-68.4543,-62.5110,-73.7787,60.7796,-15.9053,-7.0943,0.8317,-163.6727,-26.5525,30.8136,120.6395,-231.4335,124.4138
-2078.1250,27.4503,160.9165,5.1902,96.9141,79.6512,87.5149,200.2699,-70.0912,46.2956,-75.0555,57.3257,-165.8188,76.0837,-109.6496,17.8922,-176.1690,-104.9988,-120.7390,-156.7573,-114.7133
-2070.3125,-52.0135,-59.6347,-4.1637,-53.3871,70.1688,-68.8803,154.7127,-262.3904,184.4690,-120.9798,158.1901,-101.3668,128.9844,-138.3752,119.8147,-148.4495,96.5445,10.2322,-129.7041,5.9041
-2062.5000,-137.6830,65.6332,-89.7207,72.1240,21.4828,102.5240,141.9613,-127.8994,210.4536,87.9006,-2.1732,-77.0959,28.2296,-44.6553,71.5357,-49.9413,-200.0959,-38.9758,-144.8439,-45.2981
-2054.6875,-151.5700,-90.2769,-38.4851,-83.5426,35.5928,-67.2570,266.0035,-186.6033,188.2448,65.5886,85.2361,-173.0067,132.8832,-147.2764,196.0541,-109.6294,-144.9359,-159.3754,86.8217,-163.0366
-2046.8750,-240.3084,-72.0289,-122.0872,-65.0509,-86.1429,-3.8926,145.2166,-124.1636,215.1839,129.4185,73.7846,0.2356,28.9168,-45.9297,75.7315,-46.1753,-91.6240,35.3730,-34.3564,26.1406
-2039.0625,-119.5681,49.7337,-110.1935,126.9477,-110.3791,155.9740,193.9183,-38.2160,117.6315,31.7661,84.8065,-135.0121,54.6133,-88.3982,50.9043,-181.2106,-181.8077,-160.3524,15.9665,-156.6588
-2031.2500,-24.4339,-138.1005,-48.8965,10.3530,-86.2123,69.2421,108.0278,-233.8528,-4.5093,-127.4727,219.2096,-110.8660,86.7325,-98.3593,2.4797,-156.8515,194.4016,5.3218,5.7127,9.3350
-2023.4375,-24.7073,72.6673,-79.9944,221.3561,-80.4400,259.0985,-70.2603,-44.8917,-72.0516,-84.1113,113.2005,-31.1079,-50.0268,40.6649,-212.3515,-39.8880,-16.7710,111.6089,-169.9268,116.6032
-2015.6250,9.7593,2.2035,58.6454,151.1228,132.0741,214.7106,68.1986,-163.1729,-188.8507,-201.0013,177.9279,-150.5785,110.9748,-71.5625,-73.4449,-194.1643,-17.1857,5.6565,-99.8119,18.4313
-2007.8125,-117.6691,-19.1497,-31.6087,58.9920,151.6948,160.4156,51.7694,-180.3628,-59.5540,-144.7940,123.7380,-19.9364,57.6054,-12.4423,-89.4356,-101.3468,-3.5038,160.8030,-190.5822,164.2437
-2000.0000,-134.7137,104.9050,-87.4627,148.2605,95.7158,214.5110,178.7379,-16.1565,-4.8525,-90.1691,28.9254,-39.8722,23.3763,27.8367,-72.0264,-47.1302,-231.4130,-101.6210,-171.9483,-98.2353
-1992.1875,-71.8186,-79.0766,-26.3647,-105.5047,119.6857,-55.4357,203.6678,-173.9978,-90.1909,-174.5789,163.0388,-14.8572,95.8636,-34.3368,-10.6578,-22.9702,42.6198,-38.1010,-73.3550,-39.9742
-1984.3750,-112.7774,56.0965,-63.1164,29.8799,46.8025,92.7583,19.7611,-27.6930,-88.3793,-100.8416,126.2965,95.3108,-27.8348,90.7630,-194.1360,88.3427,-69.1880,96.5650,-254.6111,90.7921
-1976.5625,63.0548,-13.9120,39.9350,30.0775,75.7155,84.7574,48.6480,-72.5773,-168.7690,-181.2929,227.3445,14.2927,65.6313,14.4867,-126.8432,-30.5383,-104.1988,-113.9598,-78.0684,-115.6540
-1968.7500,46.3858,-136.4167,-9.5030,-91.2226,-10.8638,-38.7505,-74.9445,-84.9585,-108.6606,-121.2294,249.8833,74.7647,6.8401,48.0885,-177.0639,104.0752,126.2875,82.0132,-57.9968,74.2482
-1960.9375,46.2412,39.6299,-83.4018,49.0269,-84.8955,108.2862,-37.9802,99.2184,-70.9954,63.4037,101.9458,37.7980,-74.0532,82.1662,-212.7393,104.2501,-120.6701,-58.4463,-22.3569,-62.3806
-1953.1250,51.8283,-129.5615,-10.5620,-154.9673,-12.1758,-111.9253,108.7367,-47.8314,-180.5663,-10.1944,247.7209,-36.4119,78.4361,-64.3645,-65.6620,-42.8180,97.1128,-52.1578,90.0541,-52.6282
-1945.3125,-21.8902,-28.0544,-79.0321,-88.2685,-80.7573,1.5542,2.1727,29.8155,-176.4383,142.9154,214.1799,79.0779,-29.8367,30.7578,-208.8735,34.8103,-82.3900,120.8410,-18.8203,114.1816
-1937.5000,49.0729,-27.8212,-11.8096,-52.8532,-86.6413,32.7424,107.2951,61.1579,-180.6247,173.7237,170.3222,-74.7106,20.4780,-42.4678,-103.3952,-44.8665,-257.1768,-89.4337,123.0063,-89.5544
-1929.6875,-34.3096,-214.9231,15.0744,-168.7715,-97.8587,-88.4190,-13.9230,-22.8625,-7.1648,201.1796,196.1023,-47.8476,28.6208,-38.8337,-41.2662,56.0933,-59.3129,39.9343,147.4949,32.6283
-1921.8750,-60.2472,-30.5703,-9.5823,-20.2337,-159.6158,33.8636,-75.6959,173.5555,78.7350,324.0924,59.3262,-35.5275,-64.7861,26.9474,-102.7007,104.5105,-224.9816,-21.2351,86.4283,-26.9463
-1914.0625,-30.2356,-140.2432,15.7133,-129.7315,-132.4272,-122.9012,134.4699,51.9364,105.5795,239.9631,47.4996,-47.2455,-4.8552,-40.2924,-3.2132,19.8822,-19.6974,-130.4604,258.3143,-129.6216
-1906.2500,-141.6138,-40.3108,-91.3858,-99.6267,-167.6321,-84.0721,26.2472,128.9060,256.0252,280.4326,-134.7200,176.6320,-163.6366,113.4228,-110.1350,169.8382,-24.8030,40.9079,112.8062,34.3170
-1898.4375,-81.3582,55.2832,-34.8494,-3.8739,-110.1962,-27.5917,119.6702,185.5333,19.1333,116.5576,-151.3054,123.1742,-90.8208,120.0686,-16.4087,153.4555,-139.2566,-180.0626,173.9454,-180.2796
-1890.6250,-79.1554,-48.1587,41.6362,-107.1672,-71.8174,-134.1736,49.0602,41.1162,-123.7947,-64.3760,-40.9463,199.6790,-28.5290,116.5943,23.2829,156.0128,143.2326,-1.1037,141.0450,-3.1018
-1882.8125,-39.7635,132.5974,13.3197,108.7270,-136.2428,57.4308,-52.3454,160.8925,-78.5181,18.8846,-69.3965,245.3991,-103.0820,185.8952,-77.8154,165.7786,-63.0600,38.0595,-29.6568,33.6309
-1875.0000,86.8131,48.5652,28.2007,23.8224,-157.4692,-1.7674,35.4446,64.8844,-99.0419,-38.6424,54.3400,113.3301,-5.6661,63.0985,10.2798,32.7601,98.8458,-115.5743,167.8385,-115.2983
-1867.1875,78.2424,40.3937,-120.0531,16.7682,-231.8286,-2.1275,-112.9056,100.7248,10.2704,70.6793,-21.0798,185.1125,-131.5071,138.3933,-100.7791,179.5859,196.6063,17.6325,126.1872,11.1614
-1859.3750,46.8137,114.3830,-155.1562,125.8716,-305.0356,71.6550,-2.1183,248.7032,120.7156,182.1468,-205.3542,75.0746,-173.2524,146.7770,-26.7064,216.5573,24.5371,-223.9903,200.6857,-224.7821
-1851.5625,38.7401,-33.2578,-128.9068,-90.6655,-352.8884,-196.2067,61.0272,54.0286,221.5100,98.9572,-69.2884,175.3980,-80.4715,56.9408,147.7070,132.8673,263.8131,-160.2751,158.5385,-173.5528
-1843.7500,84.1094,223.5509,-150.2066,24.2475,-372.2847,-69.6262,-32.3670,107.7913,128.7520,116.2083,-54.7794,340.1808,-154.2790,146.2222,17.5788,149.6224,62.5445,-44.1051,-147.1563,-67.5161
-1835.9375,234.6554,234.5759,0.6780,34.3736,-221.4912,-64.8394,44.4321,0.7592,-160.8023,-99.3436,94.9185,233.1793,-23.9227,61.8491,20.6498,5.5867,108.4754,-138.7243,-135.6621,-152.2371
-1828.1250,149.3969,183.8096,27.7656,54.7016,-86.4931,-76.8547,-76.5531,-46.0724,-207.1616,-110.7076,82.8094,259.3770,-64.9173,103.6167,-136.0772,68.7477,233.6098,127.8438,-220.9644,119.6369
-1820.3125,108.9855,320.8995,21.7002,191.8823,-18.6420,100.9757,-8.6939,94.9483,-249.6899,-42.2282,-34.4542,106.4453,-80.3628,96.6915,-177.9854,26.7693,-16.3898,53.2807,-119.4156,59.1017
-1812.5000,106.8308,72.2586,87.8916,13.3252,121.4718,-51.9342,57.4038,-57.7685,-256.0012,-47.5034,-5.4654,25.7666,15.6982,-4.9985,-74.6886,-52.9582,191.8637,121.9655,19.3973,133.5452
-1804.6875,-1.6694,140.2692,54.7523,81.4164,88.2530,60.7927,-48.8553,92.1585,-141.6873,139.8747,-149.8306,29.7416,-105.0645,87.2131,-180.7705,96.9659,48.7865,225.3031,-88.1282,235.6766
-1796.8750,52.9770,54.4484,68.7626,31.6658,102.1901,1.6759,38.0209,106.2369,-90.2293,154.4177,-137.0572,-102.1223,-16.1625,-15.9031,-19.7160,1.0342,-1.1414,-0.1963,73.4956,12.4205
-1789.0625,-21.5092,-89.5092,31.6321,-77.2282,101.9845,-72.5911,-72.2388,-4.8507,-17.9336,43.8032,-101.4388,6.8644,-29.5419,22.1227,-21.7997,73.9209,206.7823,208.1467,35.9706,213.9162
-1781.2500,-50.8013,127.7487,2.7018,140.0828,35.9776,118.3370,-137.3016,150.2483,-82.4551,15.3765,-131.6143,15.0626,-61.5830,84.5367,-50.6962,82.0023,-34.0715,108.6957,-63.3547,114.4939
-1773.4375,61.4908,29.6156,78.3533,6.9996,74.5627,-25.1347,-61.7618,-30.0452,-189.3690,-201.4457,15.8181,-19.1387,60.6387,-14.2300,61.9998,-25.3009,219.6684,80.8324,-19.0721,87.2554
-1765.6250,30.3283,105.0225,17.5478,46.4497,13.6930,-14.0764,-160.6587,54.2179,-104.7221,-5.7144,-121.1841,103.2022,-103.1856,99.0089,-109.7548,132.9525,153.9594,191.5066,-86.2317,193.1468
-1757.8125,102.8591,72.1322,12.4298,48.5958,-27.4829,-18.3281,18.1369,124.1980,-70.3779,137.7228,-162.4797,-47.7467,-73.7539,20.3395,-38.8153,54.9152,-20.0507,-51.1043,163.2913,-41.9590
-1750.0000,-12.8541,-112.9970,3.0657,-135.5042,-36.8988,-174.8316,8.6832,40.9297,66.6981,165.8929,-99.0214,-20.9429,-29.2496,-17.2029,60.8648,82.6259,146.6851,44.0238,154.5622,44.9995
-1742.1875,-69.9246,6.5209,-16.6468,-16.9602,-20.6531,-11.6894,-48.1111,205.3070,157.3915,256.6933,-266.9028,-40.4775,-103.3801,42.8669,41.1675,135.9899,-155.9092,23.8074,-7.5217,23.7267
-1734.3750,22.4459,-146.4976,73.0834,-133.9556,69.0454,-179.0987,5.5487,110.1367,173.5119,124.9413,-179.3326,-170.5483,43.1002,-91.3359,240.9142,42.8064,-63.0584,-58.9667,85.8412,-58.5136
-1726.5625,-82.9826,-147.3044,-31.9805,-134.7535,37.9446,-173.3200,-98.5820,117.1468,363.8220,242.3765,-284.5432,-91.4157,-63.1923,-24.0576,172.8953,157.7997,-29.0104,116.4498,15.3918,110.8810
-1718.7500,-82.6120,-4.2944,-71.2479,-27.7521,34.6427,-139.7391,8.0677,149.9398,434.9200,275.6008,-325.9354,-167.4659,-48.3622,-80.8189,206.6786,44.5799,-167.1524,-92.3193,122.7202,-92.6405
-1710.9375,-147.1758,-104.2276,-28.4525,-161.7004,113.3907,-245.1126,13.7646,-27.2179,330.0415,171.8646,-211.2539,-88.4674,0.9372,-93.9327,175.4999,14.4135,83.7478,19.9434,165.1034,20.0336
-1703.1250,-145.4311,39.1352,-58.3516,15.6409,84.4429,-54.2019,-89.2369,126.9236,190.4479,179.4142,-241.2592,-8.1698,-92.1594,43.5818,-1.4022,131.5504,-88.0404,57.5070,26.7957,57.8016
-1695.3125,-80.8520,-106.6431,1.5912,-94.1619,143.3398,-104.4389,-30.3807,76.9205,30.7069,56.8207,-183.4217,-131.0093,32.7109,-34.3334,168.5322,81.5390,-58.9805,-88.0805,233.3369,-83.7352
-1687.5000,-133.8271,-123.9627,-84.0125,-146.5159,131.6927,-117.2357,-116.0519,63.3568,128.4061,7.6715,-196.1335,2.5977,-19.1684,13.5055,119.9263,104.9595,63.5313,105.7657,146.3232,104.8721
-1679.6875,-86.9531,63.5717,-110.7669,40.9741,67.8857,75.8111,-68.8739,147.6439,29.9449,-17.6297,-223.9901,-21.9374,-35.7745,39.7245,93.1487,42.2427,-134.0982,-92.5330,159.1460,-88.5953
-1671.8750,-95.5218,-84.3435,-84.9716,-36.9808,57.6306,-45.5902,29.8573,-47.5060,-18.9725,-213.3905,-89.2790,-33.9260,48.4839,-17.4030,154.9117,-5.9184,102.8047,-30.3030,185.5203,-25.1194
-1664.0625,-122.7787,65.0269,-106.8724,112.3475,-38.3184,116.2910,-65.1120,77.6421,-3.6033,-123.8608,-186.2449,17.3896,-74.7666,97.1554,22.9737,119.2230,-28.9944,48.2212,19.1892,51.8233
-1656.2500,19.3564,66.7851,-39.3780,79.0538,-43.8702,-0.4539,38.3096,-1.8164,-119.8411,-92.9383,-45.7924,-60.8799,54.6317,-44.7994,164.4375,-70.2261,8.6291,-159.8432,128.2546,-155.9628
-1648.4375,5.8950,19.9602,-12.4885,-38.8288,-54.0246,-119.7899,-81.8628,-84.8585,-55.6862,-28.6190,17.0599,75.2498,14.1541,-30.1253,81.2916,-43.2698,171.6304,3.4737,9.7124,-2.0442
-1640.6250,15.8920,170.5776,-2.1456,76.7249,-43.7275,0.3061,-71.5828,36.5353,-81.0998,19.1315,-84.6219,49.8249,-29.0838,17.3307,55.5940,4.1346,-98.8950,-125.7693,-84.3716,-131.4891
-1632.8125,82.1350,-8.5463,62.4354,-102.4645,57.8175,-156.3462,-6.0733,-119.8118,-127.2669,-209.8713,52.9477,41.6650,77.1494,-47.8745,120.1219,-41.1974,72.8363,-129.7518,-17.2178,-136.3610
-1625.0000,4.2355,53.1922,-12.1274,-3.7972,55.2207,-47.1444,-81.7010,-10.3085,-91.6003,-174.0368,-22.6245,150.3490,-25.4030,57.0634,-28.4988,30.3059,-40.5979,38.0854,-165.2189,30.8697
-1617.1875,46.6298,97.2252,25.6139,39.1592,131.9260,-8.6597,66.9664,-82.5263,-162.6562,-171.9249,14.1292,-30.6443,71.0828,-52.7098,46.1721,-114.8996,-67.7022,-163.7623,-15.9388,-160.7502
-1609.3750,18.1827,-35.5685,36.5093,-58.7202,104.7834,-146.0150,-33.2209,-145.5840,-78.5768,-161.6738,61.0476,16.5191,68.1455,-61.5611,56.9735,-66.9597,150.3208,19.5249,-43.5279,17.6193
-1601.5625,81.3420,98.2292,-4.9833,74.9868,-9.7528,-3.7831,-147.8011,33.9496,27.0727,-55.8412,-18.4070,-24.7296,-30.9857,1.4055,-21.6248,38.5759,-31.0476,-56.6014,-84.5161,-60.9050
-1593.7500,136.4441,-57.0238,83.4693,-80.3620,5.6620,-136.6077,-96.4453,-135.5614,42.6604,-77.0669,106.1063,-83.0188,68.9873,-130.6901,66.7142,-130.9246,165.5431,-106.7648,76.4247,-108.4076
-1585.9375,87.4130,35.5889,39.7832,-22.8536,-1.0636,-69.5761,-250.2293,-141.2202,145.0713,27.5378,60.4810,56.5405,-25.8183,-60.3492,-50.1084,-100.5801,151.9613,55.8957,-76.7963,47.4909
-1578.1250,126.8378,144.6411,1.5548,51.0933,-39.3335,38.8886,-141.5764,-106.4533,70.9097,-47.4382,22.3371,-53.4324,3.7445,-95.7566,21.5117,-175.7940,49.8588,-150.9827,32.4136,-152.6810
-1570.3125,72.1654,-83.3837,-89.7722,-108.0486,-94.6960,-126.7384,-160.0422,-161.7855,162.6428,-102.5277,113.0993,-35.4864,36.0046,-84.3043,114.0188,-10.1103,277.6450,-62.9648,14.5047,-76.1588
-1562.5000,50.8517,35.9366,-180.7432,-22.8423,-222.6968,-34.0219,-214.1490,114.2185,218.7054,63.7160,57.2226,20.8023,-54.8347,9.9513,58.8830,118.9022,-24.2169,-118.6132,-111.0413,-140.6653
-1554.6875,101.3280,-53.9521,-61.9301,-147.8457,-213.8965,-172.5105,-58.4729,-22.9782,117.5721,-0.2328,249.1510,-80.1078,83.8552,-134.9711,141.5362,-55.2776,61.7373,-173.4451,45.2136,-190.3546
-1546.8750,25.6630,-23.9818,-24.2681,-152.9941,-176.2457,-172.1436,-130.9337,-59.3110,81.2875,-73.3334,248.9302,66.8132,9.1930,-57.3669,-41.9646,-17.6086,161.5167,101.5448,-135.6774,85.6287
-1539.0625,76.5986,167.5705,63.9876,38.4320,-124.9998,-48.2034,-79.7873,-8.0470,-87.4154,-168.8528,152.3360,-27.6668,7.2487,-44.1115,-63.8590,-40.3306,1.9145,-21.8685,-119.9696,-25.5758
-1531.2500,87.2294,38.8290,146.9370,-90.4467,32.9373,-147.5623,-105.9492,-181.0629,-150.4291,-304.6680,236.4533,-16.4363,92.4090,-82.2344,-17.0664,-65.3321,258.9995,24.4097,-178.5793,19.6862
-1523.4375,103.6195,161.8348,97.6425,31.4148,18.6243,-50.1773,-266.3452,-46.3275,-52.7181,-133.7516,185.3409,43.5359,8.0093,-5.7449,-103.5201,30.4104,64.8204,-27.5865,-336.4394,-41.8056
-1515.6250,159.8506,43.6771,114.1941,-86.8868,72.1630,-182.9541,-140.9092,-104.7507,-37.1730,-155.0021,311.1003,-13.6255,142.0389,-107.8619,58.8699,-62.9897,52.5108,-252.7161,-173.4722,-270.5621
-1507.8125,69.5405,-46.0160,61.2024,-211.7232,20.1596,-271.2630,-155.0266,-82.7178,93.8049,-95.8169,295.3268,118.6547,76.2326,-36.4549,7.6987,68.0547,102.6211,-95.4174,-193.0748,-121.3170
-1500.0000,81.5846,71.6287,1.5730,-93.2286,-40.4876,-148.2366,-69.7913,112.6500,106.1101,-9.3015,159.9341,57.2826,26.6499,5.8219,19.8804,117.4422,-200.9085,-258.7836,-109.3371,-280.9170
-1492.1875,66.6768,-154.6733,55.9855,-249.6867,-23.0914,-242.1641,58.4876,-52.9248,88.4611,-64.7378,213.6096,-34.0276,120.8720,-91.1029,146.0988,25.8911,29.6043,-169.1024,15.4272,-184.5342
-1484.3750,49.4307,-30.3271,8.0525,-55.4994,-106.0431,-68.4482,-26.5658,10.1586,151.4353,34.4673,202.9505,29.3054,28.9752,-25.4506,-11.0336,14.9867,-57.2494,-78.8085,-141.1611,-93.9487
-1476.5625,197.8316,-21.3476,47.7673,-81.6885,-104.3456,-67.0992,13.0220,-61.1141,80.0377,-36.6894,350.9657,-151.7021,152.4512,-160.9336,101.4845,-129.2583,-13.4286,-246.8608,7.8867,-258.7299
-1468.7500,162.7842,-160.8081,-20.9690,-186.3196,-136.0977,-172.1924,-128.8437,-91.8187,158.1853,5.6934,392.5447,-109.1567,119.0097,-140.8870,69.5431,-13.9466,197.9114,-70.3880,-25.5286,-89.8096
-1460.9375,129.8877,16.8641,-89.5548,-43.8124,-205.6977,-22.1454,-87.5576,95.6198,162.4565,120.1980,286.2971,-178.4610,56.0184,-89.1104,36.7515,63.5118,-79.5820,-172.7761,-23.7933,-190.0029
-1453.1250,172.0358,-115.4114,-51.0985,-141.2548,-129.2467,-166.0397,60.7524,-85.8921,-19.2343,-24.2610,398.1180,-212.7046,167.1059,-177.9805,111.9899,-43.9762,101.9843,-130.0947,54.9711,-142.0565
-1445.3125,59.1536,-52.7323,-13.6834,-78.7405,-92.8356,-55.9737,-11.9774,-11.4527,-128.0008,13.2216,324.9091,-65.0208,66.5774,-37.9370,-70.8321,67.4679,-45.5205,108.5181,-93.3178,97.5138
-1437.5000,70.2749,-39.0683,103.7280,3.7570,24.5769,-11.9213,142.2906,-4.0357,-231.7822,-89.3089,294.7271,-167.3410,141.5932,-79.2768,-25.6573,-35.0989,-208.0069,-54.8482,24.3884,-52.4936
-1429.6875,37.4452,-143.3485,145.1781,-98.6908,104.0446,-116.8051,36.6138,-145.5600,-226.5130,-157.7947,372.6026,-88.6154,160.8984,-84.8139,-58.4393,-31.6146,39.5222,122.8329,-43.8650,121.6929
-1421.8750,83.7166,115.4494,125.7290,87.9456,83.6139,45.4020,-19.9420,-18.9945,-247.1544,-68.1973,278.5903,-108.8012,87.5258,-50.0613,-152.1043,-51.0367,-89.8625,64.5985,-137.0081,67.6391
-1414.0625,210.9667,-3.7675,179.2668,39.5735,138.1786,-47.3942,70.4935,-185.4218,-340.7934,-233.6033,331.5916,-163.9816,163.0180,-137.5853,-97.7663,-180.4366,108.7462,51.3705,-9.1708,62.8320
-1406.2500,119.0703,-25.1321,92.6546,54.0563,124.5978,48.6696,-90.2092,-125.9793,-243.6059,-175.1694,244.4580,-31.3246,18.1745,5.3394,-295.5777,-10.9862,122.1744,205.9608,-65.4972,214.0593
-1398.4375,126.5308,-17.1672,59.4034,131.8713,128.3709,200.0736,-49.5737,25.8056,-277.0996,-133.4152,137.6967,-137.3115,15.0502,22.3892,-255.0466,-6.1784,-82.0190,-32.0977,117.5049,-16.0457
-1390.6250,46.0516,-237.1434,87.2104,-53.2555,156.1914,42.5345,-58.9104,-57.3391,-286.5499,-106.6162,200.9934,-72.2414,61.9923,9.4151,-190.4828,21.6918,49.8212,63.8764,249.5316,75.9897
-1382.8125,15.7371,-56.9789,62.1665,91.7578,93.1696,164.1402,-48.0891,100.6624,-239.8656,52.3264,138.4702,-24.0310,-5.4596,65.3355,-254.7640,32.6962,-227.1972,103.9692,113.7059,114.0403
-1375.0000,62.0657,-115.1728,140.7625,68.4086,98.7923,132.3894,67.3651,-40.6951,-196.5365,-126.0853,216.6292,-129.1550,115.1663,-66.8112,-102.4032,-181.6472,-74.5475,10.7191,161.5064,27.7918
-1367.1875,32.7455,-109.0026,117.7178,74.4159,75.7674,108.9980,-102.8202,-136.6958,0.1338,-149.1587,230.1393,-3.9288,51.3510,-12.7510,-161.6883,-95.6422,72.4150,262.7892,-79.3554,268.1917
-1359.3750,75.7269,40.4411,50.9783,188.7041,46.0370,262.8966,-95.6994,-20.4093,80.0912,-68.9630,52.9699,-71.3953,11.6683,-8.1532,-81.6617,-125.3388,-130.3037,60.1562,-35.9329,67.3969
-1351.5625,24.2085,-151.6098,-5.2715,31.4978,26.8011,96.3010,-5.0920,-149.6122,134.5472,-51.2789,70.3054,-52.3586,43.7324,-59.7391,8.8611,-144.5219,65.4724,150.0223,53.9614,155.2370
-1343.7500,-59.7030,45.9435,-11.9107,158.8926,-16.8310,198.3090,-48.8806,-9.2106,89.5807,14.9915,25.2552,50.2597,-53.7383,53.2469,-146.0026,-41.1090,-125.1650,171.4572,-170.5473,172.9455
-1335.9375,26.7426,27.8368,108.8002,140.6204,66.8880,98.6570,145.6513,-35.4609,-194.0530,-195.4042,145.5859,-48.7695,69.9495,1.4463,-98.5246,-67.3377,-143.4287,-57.7403,-82.7274,-48.6084
-1328.1250,-55.5333,-54.0163,100.7531,22.6028,95.8538,-19.7286,63.4264,-43.4484,-165.4505,-166.5550,138.2042,90.4451,40.6632,68.9616,-106.8128,71.6726,-14.4714,105.2954,-200.6647,104.7405
-1320.3125,-52.3788,89.5621,31.1545,167.0103,26.2729,93.3208,140.6671,106.9990,-52.4200,20.7266,30.3203,21.1101,24.5611,31.6355,-29.6486,-34.8793,-293.0487,-31.2242,-197.1518,-29.7845
-1312.5000,-19.7504,-52.3624,61.0568,-11.0875,56.1976,-60.1229,244.3945,-157.0470,-21.8977,-59.4915,170.9470,-58.7185,163.7995,-135.4003,148.0090,-224.9215,-48.1325,72.7661,-93.1605,74.1822
-1304.6875,-26.9359,81.8518,-11.8731,87.9733,20.2833,124.5960,135.2798,-44.9384,14.7572,-21.5694,98.6980,15.5841,52.4132,-31.5543,0.8195,-150.8182,-125.0920,205.8823,-276.0233,205.4914
-1296.8750,57.0474,60.1919,69.3555,101.1684,64.5244,167.4571,178.2984,-1.6921,-88.4528,-125.5195,104.5993,-160.9526,94.9419,-52.9632,7.7780,-106.5550,-182.8811,-61.8405,-121.7641,-53.8283
-1289.0625,17.5847,-119.8979,68.1314,-43.0798,63.3174,55.8840,30.8623,-38.8845,-90.1270,-199.9377,178.0819,-13.9364,68.0321,12.2557,-66.7228,3.2602,59.8518,74.9678,-125.9795,76.5286
-1281.2500,19.6122,58.5075,72.4042,135.1614,-5.3878,206.7998,-76.0631,112.4190,-49.3308,-122.8813,71.1070,100.5671,-39.0972,120.0225,-172.7096,43.5659,-183.9123,-62.7373,-158.7031,-63.1770
-1273.4375,3.0263,-62.6925,85.0717,-22.2007,43.3062,35.1180,46.3964,-58.8727,-37.1314,-183.4296,120.5483,76.4746,60.0602,19.2446,-13.2967,-53.7175,-24.2779,-115.0343,-34.0613,-116.4025
-1265.6250,-138.3870,-27.7450,-17.1069,12.5902,-21.8530,79.5943,-18.9881,21.9960,43.2191,8.1732,17.1419,158.5226,-33.8210,113.1090,-42.7357,101.1424,-94.5253,60.7855,-175.2715,51.5501
-1257.8125,-59.8000,-19.8292,-16.2926,20.3588,15.9854,81.0601,129.6184,134.8598,-28.4405,82.7734,-18.2423,-60.4311,24.3637,17.0998,31.8275,29.0076,-227.7561,-142.3906,-26.4874,-141.1543
-1250.0000,-63.4257,-199.1211,-19.6828,-229.0673,49.6199,-106.6547,162.0186,57.5408,-32.2960,116.1737,15.1902,-27.5916,47.5316,-29.4524,65.1920,25.6764,14.7793,30.2241,5.0849,29.3499
-1242.1875,-119.7940,-43.1877,-73.8197,-74.2551,-4.4915,22.8808,181.6781,224.4656,-13.9200,245.8011,-186.1031,-44.5203,-47.9977,46.7235,47.8270,118.5874,-287.4524,-24.9261,-15.0920,-23.9369
-1234.3750,-86.9306,-221.0319,-46.7170,-180.2039,22.6451,-61.3312,355.5754,140.6439,-24.2875,87.6655,-196.1438,-164.1882,52.2502,-57.4520,221.7187,-1.2307,-182.4363,-97.8114,158.9560,-87.6495
-1226.5625,-180.6750,-174.4786,-101.2146,-134.7426,-31.8141,31.8772,190.8898,123.2394,31.7462,70.9231,-213.7986,-71.4626,-25.2217,14.6206,130.0159,55.3547,-102.0601,124.6765,29.3966,131.1158
-1218.7500,-95.1801,-18.6883,-51.4658,56.9537,16.9772,190.3294,202.4601,99.0715,6.0123,45.4092,-202.1825,-132.4817,-25.7821,-9.1729,31.5725,-79.8177,-261.4138,-35.5894,80.0730,-20.3176
-1210.9375,-34.4380,-168.6273,10.5195,-58.0921,117.0170,69.0468,155.2724,-132.8424,-4.4792,-1.8625,-65.2939,-106.2400,38.6673,-77.3494,20.3595,-164.7387,9.4693,60.3915,105.9672,74.2411
-1203.1250,-60.9294,16.1792,-10.7440,126.6057,57.8043,194.5169,58.8491,-7.0074,-27.2445,159.5916,-197.6303,-17.2541,-88.5102,32.9095,-112.1004,-75.9208,-122.9062,69.0903,-26.3939,82.3901
-1195.3125,-11.7224,-39.3255,-4.3161,-0.0128,64.2794,126.6844,213.1110,-37.4792,-131.3157,55.7357,-118.2439,-157.5567,29.2639,-64.2159,42.1371,-142.4004,-37.5676,-127.5050,163.9182,-110.0425
-1187.5000,-73.9537,-66.2710,-63.3409,-62.0767,43.2985,68.4208,80.9296,-59.3865,-79.8446,107.4333,-103.2948,-69.3230,-38.2512,-8.4172,-54.0799,-17.3338,146.2855,57.4244,31.7666,67.3600
-1179.6875,1.1279,115.0651,-59.0635,119.1359,83.6161,218.4461,10.0517,54.9980,-114.0953,110.4159,-173.0094,-101.7906,-71.7269,4.5014,-123.9929,-86.9740,-24.5544,-78.3587,35.9031,-61.9810
-1171.8750,62.4156,-34.3907,37.4062,-30.4514,180.1268,56.6743,-40.6476,-106.4080,-164.1538,-88.4026,-76.5014,-79.0497,8.5123,-53.4622,-64.7035,-137.4073,212.7982,18.0579,62.2062,33.6204
-1164.0625,3.2109,116.6592,-17.6198,120.4588,162.1382,149.4096,-131.8409,23.6875,-109.7198,-32.7336,-204.4829,87.1762,-104.6055,89.5314,-155.9002,-8.3498,47.6337,98.9419,-102.9929,108.7066
-1156.2500,37.7474,46.4414,11.1037,85.1082,190.8960,103.8941,79.7058,-21.4739,-118.5397,-114.3197,-211.7006,6.1524,-33.7981,26.5805,-54.3568,-90.5441,-22.7584,-77.4094,72.5396,-61.0006
-1148.4375,-82.6073,-73.6653,-37.0779,-35.1246,252.7491,18.5040,68.3571,-106.5200,-57.2719,-89.8039,-260.8170,105.2163,-89.5502,66.5938,-139.7278,-27.6414,172.9188,154.3266,22.1565,170.3007
-1140.6250,-97.2470,157.9192,-51.5555,196.3332,238.3069,187.8137,127.7144,-10.8804,-109.3300,-30.6081,-385.2078,90.9693,-146.3672,114.6489,-191.4001,-42.0522,-87.6914,69.7491,-62.5362,91.1642
-1132.8125,-19.4351,25.9546,23.4128,64.2376,277.3151,5.5769,202.4926,-191.7863,-180.9406,-285.9665,-199.1276,129.1844,-13.5221,33.8884,-78.6355,-150.0037,166.1482,42.6280,-19.8085,62.0337
-1125.0000,-72.9017,147.6883,-25.9153,115.8398,191.0233,104.0477,5.9728,-130.9879,-46.8575,-189.6254,-249.3345,265.0881,-111.7573,143.2117,-128.1647,-16.2618,112.6590,129.1705,-179.3833,135.4054
-1117.1875,30.7401,145.5006,37.8587,113.5200,143.8303,93.6096,32.5424,-67.1022,-57.6819,-125.1975,-294.4146,144.0907,-67.4094,65.9791,8.4147,-98.4204,4.2915,-154.1768,-5.8844,-144.8518
-1109.3750,-58.5693,-48.6236,19.6833,-80.7294,89.6847,-72.7502,-59.8502,-158.1536,33.5274,-106.7264,-239.4354,237.1407,-68.3955,88.0309,64.0355,29.4649,232.9525,2.5188,10.6399,0.3649
-1101.5625,-107.9749,78.1448,-66.5763,45.9134,-33.5520,61.7914,-72.3278,85.6805,93.6056,26.6190,-398.5316,298.0763,-184.0340,195.4695,14.5632,127.2322,-98.4806,-116.9026,32.0595,-121.0316
-1093.7500,-120.7308,-110.4405,-50.1922,-142.7946,-91.1405,-106.0030,52.8296,28.1590,145.3351,-31.3982,-309.9718,276.6720,-81.3839,124.7144,213.7370,105.6557,-41.2621,-235.6543,194.0945,-245.3597
-1085.9375,-219.5257,-104.0720,-145.8576,-101.5384,-185.7741,-91.8303,-79.0556,116.5961,270.0112,92.5173,-294.4645,403.2036,-155.3228,210.7846,154.8677,232.0186,-105.1249,-53.4808,25.0785,-75.5434
-1078.1250,-186.3250,-35.7222,-152.5230,1.7020,-156.4033,-25.6640,61.0582,183.0179,188.6835,122.4118,-263.9412,285.7360,-80.7799,146.4274,221.0083,114.3741,-317.9676,-195.3032,128.0497,-210.2233
-1070.3125,-219.2278,-173.4601,-150.2941,-171.1499,-117.1376,-132.5789,63.0616,38.3533,117.2545,50.2068,-151.5118,288.1673,-45.3186,112.8065,186.0412,116.6353,0.0662,16.7722,129.8944,3.0651
-1062.5000,-240.5182,51.3928,-130.4563,18.5955,-97.2703,34.1090,-26.3269,170.2780,100.4118,144.5900,-351.4654,272.1852,-192.7302,210.0957,-13.3113,211.4818,-126.3075,66.4237,38.3395,61.9253
-1054.6875,-180.4089,-28.3681,-1.2210,-26.2666,30.9951,-20.7964,27.6696,77.5959,7.9712,15.3733,-296.0026,106.6050,-86.8885,94.7135,40.7314,81.7288,3.7284,20.4835,133.1576,28.3778
-1046.8750,-166.2940,-14.1221,22.0171,22.8882,18.2599,38.3221,-133.3280,-9.0763,-6.4769,1.1545,-199.5372,204.0169,-122.4988,141.6205,-83.2295,104.9620,88.7317,246.5201,-64.0304,248.4678
-1039.0625,-54.4799,132.8030,26.9625,205.7278,23.2326,154.1379,-54.6228,32.9308,-76.2433,5.6190,-157.3457,98.1254,-92.4720,99.6475,-114.4857,-0.1219,-149.5444,42.2569,13.4726,50.5116
-1031.2500,-42.3673,-65.9678,74.2041,5.8739,-3.4941,-56.7288,-44.6339,-102.7514,-101.7116,-57.6092,37.1525,109.5346,-12.7835,54.4269,-67.4561,47.1081,107.4621,54.2930,130.2440,56.2849
-1023.4375,-85.1439,102.3561,-1.4584,104.1130,-78.1206,15.5098,-156.5344,78.6646,-105.0819,87.2541,-111.2313,218.0251,-126.2679,171.2600,-106.3179,192.4240,-41.4473,81.3998,16.1257,76.5466
-1015.6250,-52.3797,65.2119,62.4244,30.8863,-51.1976,-67.7006,-55.8866,31.6203,-114.8894,113.6660,-48.0561,98.0693,9.2211,35.6269,104.3699,35.2863,-8.7946,-131.9335,154.5364,-135.0403
-1007.8125,-95.4196,-47.7150,-13.4998,-152.1212,-164.0774,-180.6854,-96.0314,29.7822,28.5098,257.2860,23.3103,169.3032,2.7666,28.5036,175.2625,106.3347,54.0238,0.9183,41.1350,-18.8055
-1000.0000,-120.5577,-2.7595,-77.5218,-36.2408,-264.0511,-60.7704,-49.2678,223.8243,184.8091,340.7881,-2.4076,68.4205,-7.0042,40.3729,222.0724,153.2663,-252.2454,-200.3390,15.6348,-223.0014
-992.1875,-131.3029,-189.4044,-56.1534,-222.9554,-169.6302,-223.4363,-29.1190,97.2772,204.5125,176.6959,92.2779,-21.0558,74.6261,-32.3330,279.2682,173.6075,-18.1261,-141.1886,74.5119,-163.3559
-984.3750,-137.9915,-91.0042,-54.7278,-54.6159,-132.1522,-39.0400,-211.9108,208.7836,168.2635,141.6529,20.0180,128.4945,-59.1759,117.3368,22.5200,248.9857,-94.9801,97.9811,-144.5478,78.8292
-976.5625,-33.8788,14.1750,48.5000,50.5002,-28.8681,28.1483,-71.9098,92.0769,-60.1733,-13.5921,86.5691,47.8438,59.0306,26.8118,89.5727,21.1610,-130.0147,-44.0409,-74.8220,-51.3663
-968.7500,22.3854,-0.4792,73.8690,0.7842,-2.4387,-93.4934,-119.7574,-103.4693,-71.4549,-24.6804,186.2662,147.3464,66.1523,-1.3262,40.7690,-26.5200,101.0725,118.0697,-193.9675,104.8964
-960.9375,42.6580,230.8569,23.2472,196.0560,-53.0043,76.8635,-170.5903,66.9693,-48.7560,108.2092,25.9883,96.8428,-39.5981,58.3007,-46.0279,32.7824,-125.8281,-3.8413,-211.1163,-13.3758
-953.1250,74.7797,17.0428,51.4722,18.1789,-25.7231,-42.9158,-69.5898,-15.7423,-95.2036,-12.0539,90.5730,-22.7944,49.0528,-17.7113,55.0120,23.9370,82.1166,-41.8926,-3.4496,-45.4626
-945.3125,-29.7347,18.5898,-12.9456,19.6639,-53.0885,3.6711,-133.2377,104.8940,-13.3026,108.0368,27.5108,23.9062,-42.0568,71.9347,-46.5973,180.4224,-22.6078,170.3749,-107.4338,162.9429
-937.5000,0.5594,12.9245,12.4428,48.9374,-64.6516,29.0537,38.9070,166.3077,-25.5961,168.9188,16.2659,-134.5948,60.9055,-14.2455,162.6005,94.6875,-238.5008,-81.5532,-7.6316,-86.5162
-929.6875,-50.6906,-144.2686,-77.7265,-108.3160,-117.7685,-135.0855,58.4921,40.1811,104.5636,115.2553,147.4703,-77.6496,124.5488,-55.5672,293.2371,115.3948,-43.9636,77.9626,-60.4027,59.9813
-921.8750,-97.4302,56.0320,-196.3920,56.9287,-199.3855,4.2760,13.5907,178.5365,169.2149,70.0772,29.1930,24.7798,28.4834,49.3505,248.3853,180.5825,-231.9188,30.9586,-177.6699,8.6954
-914.0625,-32.6268,-55.1188,-134.5091,-19.2812,-174.4501,-45.8056,37.2239,55.4335,82.4219,-200.5477,126.4741,11.7691,130.6624,-26.7699,345.0736,20.3178,-26.3156,-44.4848,-42.4084,-60.6650
-906.2500,-86.2147,-38.6550,-111.0198,-2.8797,-150.9124,-21.2725,-122.5387,42.9336,106.2312,-140.5653,78.3521,147.3489,45.3761,51.1187,222.3520,81.6385,-10.1400,147.6421,-202.5409,126.9379
-898.4375,-39.6923,77.8845,-29.4265,78.6015,-106.2706,60.3535,-151.1996,124.5187,76.1406,-22.4893,86.3477,45.0287,50.4001,15.0524,156.7334,16.0461,-209.8455,-53.1329,-121.5771,-68.5024
-890.6250,8.2299,-120.1657,20.5611,-49.5031,-19.2306,-110.5949,-174.4725,-9.4868,15.4673,-84.0025,210.7353,21.1099,105.0120,-20.6492,132.4998,65.8571,83.8241,30.4944,-109.2383,14.9285
-882.8125,64.8123,42.4291,-135.7936,78.0409,-64.5372,28.1143,-185.0863,202.1490,42.4437,17.1236,17.7856,48.8249,-55.8933,108.7351,-24.0744,240.2879,-70.8630,15.7470,-159.2381,1.4369
-875.0000,36.7382,-56.6329,-135.7994,-56.0722,-65.4909,-82.8277,34.6421,164.1208,77.7805,52.5962,-19.8102,-62.1040,13.7259,1.3598,122.6978,129.0643,-29.1863,-117.6365,94.0958,-123.9901
-867.1875,-53.0903,-75.4234,-187.5543,-110.9140,-80.1938,-97.4996,19.6265,113.3497,173.3721,148.3248,-107.1659,33.2134,-42.9876,6.4120,107.7141,77.0836,92.7154,144.2050,3.6693,137.6831
-859.3750,24.2929,142.9828,-109.1038,107.4367,-74.6879,203.0216,61.8168,118.7506,67.1533,79.2371,-138.3004,-71.2762,-12.1165,-29.2301,112.9282,-137.7195,-41.1509,10.2447,-24.5664,17.2870
-851.5625,100.8315,43.5632,4.4970,43.9501,-35.0357,168.7119,28.1427,-171.7005,-112.9186,-137.6910,86.7158,-140.6086,111.9481,-121.2165,152.2655,-244.3812,246.1326,86.4409,-19.6817,95.1570
-843.7500,96.8391,144.6016,-29.4430,179.9210,-68.9245,281.8641,-43.0756,-59.7070,-38.5541,-26.1699,52.1946,-139.5100,8.6685,-43.3846,-28.9498,-133.6201,65.8571,117.0552,-130.3406,124.5522
-835.9375,81.4476,59.2271,20.2241,59.4818,-55.2065,184.6146,153.2982,-82.1329,47.4145,-14.0515,66.2877,-308.8050,85.5894,-125.4349,94.4260,-119.2693,-55.8002,-144.7244,100.5892,-135.4535
-828.1250,1.5073,-91.6806,-59.6671,-91.4839,-135.0433,31.8440,73.1141,-53.0937,187.8410,53.5296,133.8254,-204.6517,40.3903,-70.4568,51.2384,57.5284,109.9625,-14.0745,54.9579,-17.1314
-820.3125,60.1742,38.0015,-70.9533,3.1428,-256.2754,167.6724,25.5429,193.5228,138.8655,188.7020,122.9707,-215.9100,-23.0676,-9.4847,-34.3420,118.8969,-147.6576,-236.8388,42.9365,-241.9252
-812.5000,192.8377,-145.3034,24.7559,-180.2152,-233.5086,-30.4827,46.9592,68.1338,49.8939,62.8868,256.1099,-193.1625,63.7561,-102.9783,24.0553,-5.7427,125.7213,-245.5911,104.8961,-249.9609
-804.6875,143.4095,-19.6951,-19.6247,-54.6614,-241.8361,71.2812,-145.7108,96.6417,114.8140,90.9718,175.1495,-18.5333,-46.8921,9.3070,-94.6555,58.4927,74.9815,-49.4722,-87.2369,-60.2332
-796.8750,187.9274,24.8502,19.9507,-44.1686,-128.2043,74.9902,-31.4257,26.0767,80.6910,19.9988,142.1507,-124.9533,31.9892,-67.8518,18.5749,-47.3323,14.2094,-180.3996,-7.4208,-185.4337
-789.0625,95.1948,-67.8383,73.2740,-137.9041,-39.8211,-56.5252,-89.3973,-67.7272,22.3287,-110.2048,194.8937,-36.6226,56.4607,-46.0526,-2.4617,3.5895,273.1600,6.4073,-99.8708,0.4807
-781.2500,109.4184,158.4130,90.5552,52.2981,-21.4846,108.9020,-145.4006,96.3967,-144.0789,-57.4570,65.6071,18.6451,-56.3067,52.5740,-204.5293,21.4286,76.0663,-49.8635,-122.3613,-46.4727
-773.4375,210.5313,12.5746,153.7321,-57.5989,77.7431,-47.7675,-45.5176,-60.5909,-228.5590,-104.8005,129.2323,-65.1735,22.7907,-58.7745,-178.7022,-99.8428,282.8801,-124.2305,83.0223,-111.8852
-765.6250,148.2117,20.3134,95.4636,-14.9284,56.5171,4.1249,-142.0856,-9.0315,-30.4843,130.4043,34.4158,-50.4472,-76.7750,-26.0327,-274.3340,-48.5857,219.2348,-12.0828,19.9474,-2.2465
-757.8125,97.0636,75.2004,36.3584,38.8845,-2.5500,55.1527,56.4847,41.6443,93.7309,254.7430,-24.2303,-255.5632,-36.1913,-125.3238,-149.8317,-144.1957,26.7831,-203.7827,179.0185,-187.1084
-750.0000,22.4268,-139.3796,-4.2471,-104.7793,-6.1139,-58.2972,89.5413,-71.1843,162.4544,213.5910,46.6032,-296.1660,23.5014,-172.0224,-43.8515,-111.3251,198.8203,2.0244,174.5724,14.9589
-742.1875,-6.2500,6.9999,-66.8938,41.5141,-68.7158,62.2064,26.5665,48.9063,210.1333,260.3803,-89.6130,-248.8315,-67.2168,-88.5352,-70.9078,-28.5460,-6.1861,42.7610,39.0840,52.2143
-734.3750,52.8207,-73.8664,-10.7895,-39.4405,-12.5676,7.4632,154.3324,-117.2648,116.5637,20.9184,2.9244,-304.7328,65.1322,-163.6074,93.7639,-121.0242,87.5736,-38.7413,168.3371,-26.9581
-726.5625,3.2508,-89.3661,-57.3302,-55.0275,-22.0612,-0.9078,35.4507,-126.0747,218.3420,11.8135,-79.1924,-165.2930,-45.6087,-76.0686,-25.2366,-20.1561,107.6486,192.0736,46.9437,198.5775
-718.7500,-48.5216,-35.0867,-40.0554,70.1654,-4.7440,126.5073,162.3817,37.8977,197.9518,102.5105,-244.4993,-295.0632,-79.9835,-55.2382,-45.4339,-3.5128,-154.4635,-1.3228,170.3568,18.5670
-710.9375,-119.2025,-210.6894,-5.6780,-106.5268,29.6750,-22.9583,233.4085,-38.0298,194.6837,25.3236,-172.7133,-260.7327,-27.4255,-80.3046,-11.5412,-6.7842,90.5129,68.3818,203.8413,89.3130
-703.1250,-71.6721,-23.0771,-60.0909,45.9967,12.2952,106.7828,141.6493,90.2224,139.6024,80.3251,-226.7083,-169.2139,-129.6093,15.3606,-176.4444,48.1095,-38.3062,115.2511,39.5315,134.7230
-695.3125,54.1130,-2.2132,-8.2532,-3.2351,63.1692,47.7711,229.1254,-5.2973,5.7718,-51.4246,-101.4325,-227.4310,-13.8905,-90.6169,-88.1186,-120.7527,52.1525,-39.6266,130.4604,-16.9387
-687.5000,88.8594,-2.3762,-41.4619,-74.4934,67.9957,-21.2679,12.5398,-38.8596,9.9066,-86.2112,-24.2145,-77.7047,-50.6920,-42.5941,-157.8766,-44.6762,227.5401,169.4253,-47.6576,179.5980
-679.6875,185.2126,199.0464,-16.0533,56.8377,56.4386,114.2827,-73.4364,60.1487,-76.3529,-24.4018,38.6132,-124.3864,-35.5122,-24.8701,-170.0395,-20.0324,6.5467,-52.9330,-93.1515,-48.3430
-671.8750,230.0610,32.9915,26.8581,-108.3162,98.3832,-99.6530,-66.9255,-118.3445,-107.1095,-55.0725,227.9320,-155.5520,86.9834,-139.6829,-54.7260,-87.9051,192.0495,-42.7837,-48.1584,-45.2506
-664.0625,131.1279,145.1638,2.9761,3.7460,38.5297,23.6206,-164.2085,-32.6514,-21.6825,67.4573,168.4607,-106.5288,-14.6710,-71.0018,-189.2097,-39.6099,57.7500,103.5299,-217.9657,99.4733
-656.2500,163.5570,106.6888,65.4454,36.1534,100.0263,49.2320,-29.1526,-80.6355,-106.9080,-54.6677,157.3590,-228.1451,72.6457,-155.5648,-91.3467,-197.9759,19.8328,-5.8002,-46.4368,3.2549
-648.4375,89.7416,32.9932,64.6669,-37.6634,137.2702,11.6130,-103.3646,-190.8690,-70.3693,-129.0312,83.9963,-118.0039,23.6583,-109.0973,-128.7480,-162.6023,261.6469,165.6044,-86.1777,175.1003
-640.6250,60.7377,180.0961,72.7036,143.3142,108.3282,166.7795,-23.7625,-37.3318,-64.0232,-12.6012,-90.5567,-110.0656,-64.9303,-12.4521,-195.3513,-81.4614,-14.7184,-5.2080,-116.1062,8.9698
-632.8125,86.7823,-3.7320,94.7896,-40.6505,166.4344,-30.9956,71.8800,-125.7551,-115.6124,-64.1126,41.9451,-199.0652,61.4201,-124.2575,-63.9345,-134.2806,116.9663,-48.9562,51.0037,-34.9084
-625.0000,-11.5067,3.1122,36.5235,1.0532,109.1872,-16.1068,-23.8120,-1.5294,8.4497,24.0291,-53.9040,-109.4273,-10.1638,-28.1903,-49.8838,26.5226,-16.7137,62.9112,-49.2185,67.9953
-617.1875,-14.4498,0.2935,27.6077,34.0934,62.2931,48.1206,112.8515,26.0203,-38.1191,14.5261,-62.3981,-230.4381,56.4604,-86.1710,86.5102,-57.3419,-160.0233,-151.8745,86.9325,-142.0459
-609.3750,-53.8038,-178.9039,24.2896,-76.2455,58.9991,-101.0315,110.1061,-124.8243,-41.0528,-99.3396,8.6866,-85.8501,81.9274,-78.0975,120.4868,-60.6232,80.2326,52.9369,46.6812,57.8804
-601.5625,3.6486,89.6928,-22.2063,122.2163,87.5219,110.6103,-9.8278,-60.8933,-88.1853,-108.4022,-37.4180,14.5224,0.4124,-1.4918,-36.7226,-107.1437,-37.7062,40.5219,-105.7586,45.7455
-593.7500,114.5516,60.7502,87.7573,92.1343,159.4991,-0.2970,26.6678,-282.5259,-236.8710,-368.0045,72.9409,14.3560,77.6313,-66.5129,-37.5040,-220.2232,213.8267,9.5651,3.2277,21.6479
-585.9375,72.8287,88.1921,15.0854,85.4210,160.8355,37.1585,-156.4984,-245.8100,-162.2168,-257.2500,74.6482,124.5399,-3.4385,25.0836,-146.9645,-73.9651,206.7030,177.9200,-110.4392,179.1979
-578.1250,55.0213,106.5341,29.3303,103.6032,139.0874,88.4944,3.2338,-84.2240,-111.6660,-132.6087,15.2639,-43.3693,26.9771,-9.8374,-59.5514,-58.8285,-92.4765,-50.8309,11.8046,-45.3110
-570.3125,-43.8338,-134.1384,34.5260,-102.2375,144.2923,-126.2054,81.8981,-189.6880,1.8425,-128.0005,57.8101,-2.3070,93.6531,-60.2313,90.7728,-54.7529,52.2879,22.3676,50.9891,21.1712
-562.5000,-103.6197,-16.7460,-57.2153,14.9821,88.5509,2.1475,26.6259,-26.1285,167.4051,72.6518,-70.5934,15.8001,-4.6532,-0.5294,35.1472,-1.6726,-180.8904,-1.4120,-7.7612,-5.6141
-554.6875,-43.9013,-132.8457,-38.4576,-101.2914,106.3071,-126.9995,79.8339,-82.0980,257.4926,89.8077,21.5048,-113.5807,106.2977,-132.5496,199.0114,-95.1164,-157.5503,-188.6678,155.9855,-195.3990
-546.8750,-115.0820,-203.8149,-106.6009,-172.4355,39.1724,-157.0198,-24.8629,-77.9733,336.7007,132.0749,64.6847,2.1309,48.9898,-66.6173,129.9686,19.5153,-89.1321,-14.8332,48.8298,-31.8424
-539.0625,-69.5608,-53.0898,-97.0251,-56.8865,-26.2412,-39.3523,57.1399,40.8189,234.6142,104.0343,36.5740,-26.4641,46.1546,-46.6375,137.6306,-10.1846,-288.9901,-216.3036,58.3914,-229.7352
-531.2500,-84.9399,-138.2428,-42.3391,-212.2169,-43.5463,-203.5712,148.2295,-125.2914,141.6357,-61.8915,165.5518,28.0527,121.8667,-108.0677,191.3610,-102.7901,10.2435,-127.6741,77.0421,-140.1733
-523.4375,-114.4500,43.4697,-102.7817,-30.6833,-66.9936,-42.9387,14.1825,-38.5628,118.4995,-11.9687,69.3832,153.4114,-5.1400,20.3771,20.9212,-16.5674,-88.6726,-52.2381,-93.4445,-66.5838
-515.6250,-3.8529,48.2823,-30.1181,8.9417,-31.3362,-44.2240,159.2257,-76.7563,-67.5244,-123.9429,68.3182,3.8900,68.0472,-48.6845,92.5536,-92.2467,-83.4557,-188.7013,15.1739,-191.4420
-507.8125,-82.3479,-28.9707,-70.5513,-33.5115,-34.7812,-84.5955,119.1677,-82.0443,-108.6319,-91.9939,102.1380,38.2774,50.9259,-9.3895,51.0593,12.9530,47.6430,82.7147,-99.3129,77.5866
-500.0000,-22.1288,100.4762,-81.2716,131.7265,-8.5151,88.7209,107.8175,53.3362,-120.0328,7.6487,91.6712,-46.6363,30.6097,5.7875,-33.7371,0.8104,-174.5366,-34.1798,-146.0798,-35.2541
-492.1875,14.0390,-72.1053,-11.0357,-77.0724,61.7094,-97.0080,140.3953,-96.3480,-159.4646,-105.7405,199.1492,-49.5843,116.1292,-66.9467,35.3920,-41.3997,38.2400,0.8831,-39.9067,-1.2256
-484.3750,-68.1321,-15.0174,-51.1317,-20.2032,20.5962,-29.0788,-11.3716,44.6107,-18.2427,35.5268,11.2759,56.1066,-35.0284,37.6978,-79.8300,64.0111,-45.3442,163.5604,-158.0771,159.6473
-476.5625,9.3992,27.7737,-14.5145,-13.6394,58.1983,8.5342,98.5539,44.2385,-18.3142,-38.5117,-61.8884,-17.4911,-2.7727,-12.8468,-7.3620,-47.9001,-74.1922,-6.0583,-47.5457,-1.6085
-468.7500,-22.1147,-38.4464,30.0575,-115.0917,101.7533,-94.8887,-4.5749,-97.1844,-85.4221,-142.5874,19.8820,136.8718,6.0383,25.5532,-37.9744,-4.8802,140.8961,207.2607,-79.0710,205.8701
-460.9375,-14.9585,179.9935,40.2992,104.1111,75.9646,63.3242,-68.0355,60.0104,-148.8828,-132.0279,-79.6940,183.8833,-70.3985,106.4645,-138.9406,3.7512,-98.3375,143.2076,-107.9258,146.5064
-453.1250,31.1525,50.4039,81.4966,8.2796,153.1300,-43.5101,8.4343,-83.8636,-291.3867,-274.5084,-2.3349,150.8605,21.1450,56.3132,-62.9864,-30.6735,87.3989,82.1151,42.1672,89.2463
-445.3125,2.7762,58.3354,60.2067,15.9679,95.8024,9.1652,-160.5966,3.7660,-241.3926,-150.4757,-23.4874,240.3256,-67.2634,157.3814,-158.5506,130.3837,59.6225,194.4932,-57.2189,193.2402
-437.5000,63.4481,83.3051,80.9764,41.6933,79.5367,29.8733,-67.5854,133.4189,-257.3418,16.6168,-39.5815,39.8451,-0.9945,68.7019,-29.0750,75.4733,-92.0792,-64.0815,72.4736,-60.6100
-429.6875,63.6627,-92.1517,81.2969,-133.0127,79.8277,-152.8560,-105.0371,22.6290,-147.7163,53.2872,71.8579,2.9297,54.4803,-14.3468,43.9276,74.0981,118.7512,75.8891,71.7169,72.5853
-421.8750,72.0416,92.5423,56.7855,14.4346,18.2811,-30.4406,-129.3267,144.9668,-61.9416,175.1060,-25.5520,52.1577,-41.8212,45.4877,-54.9256,85.8370,-84.2569,11.9860,-26.8633,7.7329
-414.0625,111.2688,26.0935,127.1309,-16.2660,14.5971,-107.1803,-23.7811,-79.8593,-102.3214,-13.2186,43.8851,85.2569,42.8475,-20.7926,50.0349,-66.5785,95.6060,-89.0510,117.4058,-89.7020
-406.2500,102.6605,123.8326,87.6378,45.2092,-23.9273,-73.7554,-174.0844,-158.5294,-32.5585,-52.3820,78.4579,303.5048,-30.7934,53.5398,-63.8821,-70.8670,191.6046,111.0388,-103.1704,100.7292
-398.4375,210.9168,267.4230,124.0141,189.5311,12.4120,73.4997,-173.5399,-122.3777,-143.9410,-90.7109,78.8938,229.6057,-19.7705,57.1231,-102.9609,-110.3356,53.4911,-99.0253,-66.8873,-103.9476
-390.6250,247.8803,128.7444,198.0955,85.5793,49.4583,-73.5295,-174.3120,-233.5336,-254.6140,-237.3308,263.0163,229.4224,38.4195,23.6500,-176.3695,-111.1172,336.0783,-28.3859,-30.9203,-30.3563
-382.8125,208.4083,301.6282,164.7461,222.1852,15.0759,75.9824,-319.5250,-48.1597,-216.7326,-51.4007,118.6857,231.7767,-91.5160,99.8969,-322.2319,-37.3748,156.2165,37.7740,-105.3822,38.1167
-375.0000,186.1789,173.7633,169.6557,130.0308,19.9544,6.7253,-168.4968,-80.5582,-100.5840,-11.2036,123.5994,52.4013,0.6152,-53.2649,-171.8583,-217.3870,168.6207,-90.8042,152.4093,-81.0390
-367.1875,64.9949,87.9823,48.6193,8.9486,-27.1113,-77.4750,-216.4133,-130.8992,107.6342,125.0667,75.5444,152.0793,-44.9703,-25.4317,-111.4462,-120.3706,258.0420,102.6416,65.2606,99.0941
-359.3750,69.6662,199.0431,-22.5534,118.7041,-97.3191,36.1524,-105.4650,-18.4232,146.7160,164.1887,42.3457,81.6052,-36.2305,-23.9744,-36.1782,-119.5349,-18.6577,-71.0820,33.9893,-76.9165
-351.5625,103.1392,20.9253,44.0698,-58.7230,-66.7406,-154.4179,-74.7353,-209.1474,102.6162,9.1292,182.9352,110.9499,73.7299,-96.3619,102.8586,-163.9010,154.4493,-4.0024,30.5195,-17.0263
-343.7500,47.2305,142.4235,31.3130,26.4695,-81.5554,-58.3850,-200.4079,-115.2824,162.1090,68.6699,132.1250,207.8872,-19.9214,-0.5437,-22.5194,-69.6947,-6.8387,150.6531,-131.3318,132.4627
-335.9375,103.8783,92.4722,82.1225,82.2122,-28.8053,-6.8104,-39.5477,-174.8970,65.1521,-27.2388,109.8693,111.3831,54.0015,-59.7153,63.6346,-203.9615,-55.5463,-41.1213,-5.6259,-48.2400
-328.1250,45.2741,-0.6962,25.6858,-11.2588,-86.2991,-100.4604,-60.9438,-232.7570,80.9604,-121.3826,163.3435,201.6330,35.2513,-22.0459,42.5161,-116.4979,130.4734,74.8398,-65.1711,61.5487
-320.3125,47.5786,179.0343,30.1632,132.1653,-118.8764,50.7709,-20.4244,-46.7442,47.6744,-44.6280,93.7158,168.7781,-41.6663,39.4183,-102.6989,-77.1625,-148.5888,-135.3204,-98.7877,-143.8026
-312.5000,44.3692,-34.7148,94.1401,-45.9013,-90.9480,-142.5001,153.5880,-130.2381,-35.0974,-90.3587,195.5713,48.4385,52.5323,-52.2851,-39.4369,-87.3307,-11.1412,-138.9655,74.0867,-141.2861
-304.6875,-94.1342,38.2618,-5.1676,26.7541,-118.3020,-59.0614,89.3093,-11.0419,47.8300,28.6102,58.1182,95.7995,-52.0298,48.7138,-104.4852,67.1710,-115.0117,2.0618,-65.3312,-3.6737
-296.8750,-53.2333,42.6323,65.9426,65.8039,-45.2396,-24.2417,196.4227,58.5240,45.1592,62.9658,-16.9258,-52.4287,10.0715,-28.0426,1.8548,-47.9426,-250.4500,-205.5027,43.6572,-201.1413
-289.0625,-67.4290,-110.0670,54.9550,-86.2159,-21.2766,-145.5022,147.4167,-65.0051,70.4053,51.2356,81.9081,8.2578,29.7854,-42.3101,-10.9358,-24.1558,16.9946,-9.1744,-5.4559,-10.1226
-281.2500,-40.6131,92.2350,49.9845,79.7661,-26.2979,32.2216,67.4182,38.4472,26.6563,118.4954,39.7387,2.9391,-32.7556,2.6887,-128.7262,-31.3920,-202.5360,-19.8704,-85.5473,-18.8801
-273.4375,46.6990,-64.9512,134.5166,-6.7469,58.1897,-103.5614,151.9048,-134.6137,-35.5871,55.2584,124.0669,-58.8565,68.6794,-94.0159,-45.0425,-132.1342,-80.5426,-109.0501,106.8570,-103.7743
-265.6250,-62.9268,-70.0561,64.1057,22.8108,25.7367,-64.2854,6.4504,-96.6254,77.2064,242.0750,53.4350,53.4018,-38.8127,-5.7558,-154.3295,-21.8511,-50.5148,60.8008,-4.6807,60.1442
-257.8125,4.9033,70.2807,95.1570,126.8115,-18.2517,2.4239,109.4486,5.7828,70.4461,235.3349,10.2600,-26.8842,-28.2927,-36.2907,-125.1741,-104.1364,-193.0141,-188.8972,63.2488,-182.7450
-250.0000,-18.7668,-57.8599,69.7151,-2.6679,-42.7350,-132.3541,156.9210,-167.3052,117.1883,99.1101,132.5782,-15.6622,38.3821,-93.1655,-42.5429,-130.9259,63.9700,-74.0891,38.6711,-72.6836
-242.1875,-76.5226,93.8997,-21.8062,79.7578,-98.3065,31.7599,101.3013,32.4901,208.8201,153.7873,3.8075,3.4433,-63.4956,20.2553,-99.0139,32.1562,-206.1400,-133.4041,-55.9803,-137.6265
-234.3750,-36.7323,-5.7902,11.2255,-20.2684,-101.3262,-118.5860,243.2182,-10.1790,167.0319,1.0379,72.5799,-36.8884,38.4804,-57.6983,42.0421,-48.2220,-131.6828,-307.1505,157.9228,-308.1359
-226.5625,-95.6899,-64.2089,-80.4918,-114.0256,-155.0920,-136.6747,77.3892,8.4091,222.5134,20.5632,18.5820,165.0290,-70.2394,54.8988,-50.6689,79.6379,20.9996,-120.6704,100.0903,-130.4099
-218.7500,-72.4496,29.5635,-57.9971,-20.5975,-133.6432,-42.5873,134.7673,138.1768,207.1945,78.2853,-106.2216,76.1489,-72.6463,52.3114,5.8184,61.6856,-202.0913,-273.9984,157.4867,-277.5838
-210.9375,-110.1206,-112.5455,9.6047,-163.0525,-66.0845,-194.3976,164.2328,20.0472,126.9822,-2.8811,-38.9471,106.3898,25.9184,0.7945,144.3841,16.8366,4.9056,-208.2142,152.9731,-213.6335
-203.1250,-112.4887,26.6559,14.5305,10.8011,-62.2104,-80.9117,21.0105,97.2067,94.0627,75.2464,-72.3735,221.9302,-40.6859,76.3890,37.2497,19.2618,-137.8030,-142.1477,-25.2250,-150.6478
-195.3125,19.4982,19.2086,144.8182,3.0008,32.0286,-97.0873,114.1232,-31.3061,39.4859,-51.2822,-14.4398,93.8391,68.0180,-38.1693,129.4459,-145.9767,-111.1388,-327.7092,34.9301,-329.4810
-187.5000,-31.2126,-66.9143,134.4109,-48.4692,58.5798,-143.9387,-7.4740,-153.5048,176.2029,-26.4965,10.7701,157.0443,62.2004,-26.0104,153.9126,-85.9156,13.8047,-98.9807,-121.5992,-110.8329
-179.6875,-71.4770,104.3942,93.4637,122.5059,16.5898,33.6425,23.3857,-50.2653,243.3839,-32.2573,-104.5810,114.6892,12.3025,23.3156,146.8324,-56.4151,-237.7762,-209.8174,-162.6355,-219.5079
-171.8750,-79.6061,-44.1400,116.6581,-25.3629,39.7409,-89.6307,82.3843,-174.8703,155.7493,-192.8402,-7.8073,101.5024,87.3250,-18.8596,204.8915,-72.7578,69.7922,-185.4967,-66.5124,-192.0515
-164.0625,-83.6752,92.3891,10.9072,110.8230,7.9347,60.1434,-61.5572,-26.4261,86.1729,-116.3671,-114.9918,215.3697,-106.5356,140.9512,-123.9931,76.9347,29.4015,-16.1562,-106.3199,-17.7306
-156.2500,26.1607,62.8114,83.0643,115.9014,117.0285,95.7950,-27.6088,44.8981,-135.4958,-116.9963,-115.2737,67.1599,-84.8412,79.7784,-236.9832,-37.4759,-1.0590,-151.9096,143.7725,-134.3547
-148.4375,-41.9028,-108.6327,125.3217,13.1054,196.2146,-9.4409,-133.5699,-24.6664,-168.0607,-76.5201,-146.4685,109.0649,-132.1624,120.0193,-343.8938,76.2148,212.5620,94.4285,180.9610,115.1611
-140.6250,4.5453,42.4226,103.0895,164.8085,210.9113,188.8076,-194.0225,171.2488,-155.1347,47.4412,-280.1582,49.4758,-173.5739,156.9934,-331.3024,88.3832,-93.2983,33.2547,120.6715,55.4119
-132.8125,113.7373,-93.7567,174.6125,62.2731,207.3633,74.8086,-122.7366,-17.0914,-157.4611,-29.8439,-209.1096,-26.3435,-48.2578,11.1918,-115.9866,-101.6942,85.5997,34.8539,229.1258,58.6899
-125.0000,3.2868,42.4349,67.4959,129.1050,138.1720,152.1638,-232.0915,21.9264,-8.4421,84.2375,-316.7252,87.1818,-172.6133,84.0417,-225.3289,-63.4347,115.8290,169.7806,152.9449,190.7812
-117.1875,-19.4614,91.3090,-34.9116,176.6198,72.6942,196.1952,-77.7420,64.6247,109.2866,165.0265,-382.6480,-52.5879,-165.9462,33.4932,-145.9758,-94.4809,-12.2135,-101.5823,341.4852,-76.8263
-109.3750,-111.1723,-70.7514,-92.2711,-20.7957,14.2684,27.2884,-63.3527,5.3891,271.0793,216.8928,-330.5470,-37.2982,-175.1579,14.1122,-132.5919,-8.4701,211.7700,16.1078,319.0814,33.4527
-101.5625,-105.0809,75.9849,-118.8186,126.5899,-11.3450,111.1767,-127.1552,234.9421,281.6657,373.5427,-430.6421,9.7845,-239.7330,76.6031,-160.3970,37.3201,-29.4368,-14.4133,77.4952,-1.6027
-93.7500,-12.1485,-5.4208,8.4897,8.8305,115.9017,16.9120,-111.1285,102.3356,113.1008,243.0320,-303.8936,-46.2613,-112.9306,-11.8297,-72.3660,-59.0344,99.2271,-99.0583,99.7433,-85.3260
-85.9375,-83.3553,-40.9533,15.6540,7.9453,196.0047,60.5103,-216.2525,181.5863,9.3740,249.3728,-297.3127,33.5456,-226.5754,109.8725,-397.5016,92.4554,167.7256,145.1375,-7.1469,165.0074
-78.1250,-51.1079,26.9551,47.2751,110.5020,300.5614,164.5377,-75.9221,321.2685,-217.9097,205.1588,-340.2751,-120.1901,-157.0235,112.8472,-332.1907,120.3875,-81.2921,-36.2134,94.4407,-5.9743
-70.3125,-83.4223,-108.6675,49.3412,-26.4746,266.5636,19.0294,-75.1489,137.4098,-179.7426,59.4130,-228.8080,-81.4570,-6.8456,27.2958,-2.4558,46.7779,97.1319,106.8957,61.4787,124.5915
-62.5000,-59.6778,125.7625,-30.5274,138.6028,185.6239,195.5669,-230.3161,128.6000,-77.5429,89.7094,-272.2909,22.3226,-47.0327,65.1491,62.3319,1.2053,-90.3961,164.0381,-126.4154,168.7012
-54.6875,36.4141,81.5295,24.9619,94.0228,168.0394,140.4474,-102.1459,-37.8633,-204.9980,-76.6434,-106.4311,-68.5349,61.6309,-34.8500,116.4620,-130.0057,5.4417,46.5545,109.0394,57.3802
-46.8750,-28.3400,87.4589,-35.3998,100.6105,144.6010,116.4856,-126.8273,-64.1577,-194.2894,-100.8310,-132.4446,16.7540,-27.8689,5.8292,-57.2582,-120.0636,151.4041,297.2113,79.6501,313.2703
-39.0625,-69.0474,258.4247,-42.7053,270.2330,137.2201,292.5504,11.5512,0.5822,-202.5141,-34.9653,-249.4164,-26.9110,-52.8197,17.7184,-66.9130,-203.0831,-65.5641,148.9169,73.3355,173.6744
-31.2500,-96.7647,126.4070,-1.0141,102.8702,141.8369,112.6173,88.9226,-179.6714,-196.7200,-105.0827,-134.4058,-59.5585,54.3620,-84.0617,83.4113,-273.0961,188.4654,155.6407,80.0093,176.7658
-23.4375,-85.6799,208.1917,-18.5114,149.3158,14.2590,168.4826,-2.8978,-15.1223,-106.1347,61.6087,-190.6051,-3.4157,-76.3263,39.4586,-46.4615,-36.3097,23.2828,165.1472,-85.4976,175.9035
-15.6250,-1.8035,81.7569,-11.2036,92.5444,-15.5087,101.1247,150.0762,63.2198,-62.7375,-5.8937,-74.0130,-142.4660,39.1351,-28.5274,105.4665,-32.7143,-105.0784,-140.5218,67.8040,-131.8015
-7.8125,-15.0800,-71.8123,-57.0467,-60.3662,-61.4221,-18.3731,28.8894,52.4347,0.5160,-16.5221,26.4034,-42.6610,25.6429,10.2448,93.2365,102.7389,-12.6141,56.6564,-16.0373,51.4032
-4000.0000,-33.6483,-12.5587,-44.3114,5.0832,-50.1405,27.0469,3.5239,164.1457,11.9583,55.1572,-94.3558,-18.1908,-21.5866,52.1583,76.7883,122.1382,-106.2766,-1.9198,5.2412,-3.7280
-3992.1875,23.2809,-96.2247,82.3104,-113.3668,76.5219,-139.8249,-15.8903,-0.9312,-116.8695,-74.7117,32.2204,-75.1159,74.1969,-33.4196,94.1512,67.4268,195.4091,-15.7521,26.3132,-14.0981
-3984.3750,21.3039,43.1967,88.0301,-44.7281,119.2948,-95.5915,-193.2047,82.0642,-38.6100,43.5020,-36.0763,4.0649,-33.2306,26.5806,-82.3993,112.8086,192.2142,123.5277,-151.5351,123.4880
-3976.5625,58.0772,80.3875,119.4930,-6.3189,113.8195,-61.5765,-49.7663,43.8150,-42.6142,39.4702,-77.6118,-146.0108,35.1306,-61.2466,61.7775,-0.0641,122.7397,-120.4574,-8.6663,-113.6760
-3968.7500,14.1517,-68.1382,75.2569,-120.6289,106.6500,-215.2693,-93.0101,-108.1572,60.6560,33.7191,-10.8010,-43.7935,60.9599,-83.9807,130.2541,-4.6463,323.5812,46.8321,-16.5037,44.5312
-3960.9375,57.9192,151.0405,49.7069,64.7555,7.1757,-92.2499,-117.5622,16.5705,72.6206,156.6607,-73.2622,-31.8668,-14.9321,-27.1908,69.4115,45.4817,84.1200,-50.1750,-114.6780,-55.7768
-3953.1250,177.4436,25.9802,94.9027,-96.0981,15.4522,-191.4589,-35.3479,-118.9508,7.3159,19.3424,82.0492,-60.2142,90.2478,-126.7991,152.3086,-90.6563,238.3868,-104.4630,5.8895,-109.8594
-3945.3125,112.5642,-4.4950,-39.2975,-55.3619,-44.6620,-141.0652,-168.5242,-65.9025,94.5923,143.6145,94.9956,26.0304,1.1965,-55.3162,19.7838,-1.2104,207.2767,110.8587,-23.9585,99.9150
-3937.5000,92.2857,11.6493,-29.8991,-4.0053,-35.1684,-19.0397,-47.0971,20.7434,68.4518,192.4903,67.5598,-146.1276,44.3657,-101.1014,67.8188,-62.1757,-25.2608,-85.2232,166.7641,-86.4518
-3929.6875,34.5130,-186.7193,-17.9987,-132.1531,-60.1635,-153.5103,-71.1474,-111.1377,43.7900,131.8379,227.6572,-97.8003,110.0357,-126.7202,118.3477,-47.6611,196.7051,103.1773,143.9842,96.0764
-3921.8750,39.0732,29.2518,-44.7644,50.0476,-123.8036,5.3819,-170.8514,12.3196,90.4814,179.5312,127.1235,-14.1173,20.7197,-48.5105,56.2055,-35.7969,-9.9757,73.9395,-26.4636,63.1315
-3914.0625,126.7358,11.3361,38.5578,-38.6410,-75.3384,-93.6055,-49.4356,-122.1274,-9.7353,7.3241,136.7050,-40.3479,103.7931,-132.2884,178.1497,-169.8531,110.4184,-50.2227,60.1867,-56.4773
-3906.2500,51.1500,7.1486,39.6281,-42.6000,-38.1150,-89.8511,-120.2552,-190.8580,28.7810,9.8497,102.0738,71.1680,24.0906,-58.8330,33.8365,-93.1739,175.5847,156.3654,-49.4196,148.4935
-3898.4375,52.9552,150.3736,75.0871,64.8548,33.5072,19.3317,-47.6737,-116.1862,-46.3096,45.7712,62.8589,-40.9174,48.5341,-91.9153,32.8904,-166.0959,-105.8699,52.3478,-48.6536,51.0041
-3890.6250,27.6586,-16.5042,119.4524,-65.7921,115.0378,-118.5785,-2.1658,-288.6341,-38.5284,-92.4331,181.5817,-33.1218,134.7343,-153.2486,78.8284,-228.1377,148.5766,97.2049,-38.9901,96.1126
-3882.8125,19.9563,83.2108,81.4175,34.1556,77.1785,-6.8807,-75.0614,-140.5090,34.8296,18.9456,70.9435,3.2869,39.9902,-65.1598,6.3279,-117.5907,-35.3570,125.6779,-151.7511,121.3188
-3875.0000,56.7614,13.4471,73.8845,-35.3816,106.8272,-49.6579,28.5488,-180.8947,64.6622,-24.1837,100.8271,-112.8048,142.9368,-155.4874,184.2940,-194.5614,-35.8088,-119.3718,24.9766,-123.0416
-3867.1875,1.3763,-75.5343,22.1591,-89.1353,54.2898,-136.6397,-96.0298,-230.5173,123.2709,-1.5353,122.5495,54.9008,83.4525,-75.2202,134.0472,-61.7531,118.5642,107.3725,-65.5086,93.1782
-3859.3750,43.1414,107.6439,28.5788,94.2681,60.9114,55.5495,-88.4640,-74.0020,56.0244,-29.7369,18.4440,25.7644,24.3529,-23.6850,30.9168,-88.7978,-51.9231,-26.7338,-128.8888,-31.5187
-3851.5625,100.6155,24.5215,120.7051,-24.6241,80.2497,-71.5487,-32.1811,-271.8074,-107.5392,-267.2587,148.0720,44.3083,99.5222,-68.7376,51.4714,-142.1698,286.2805,-5.1695,-106.5835,-6.7472
-3843.7500,113.5357,177.8357,104.2838,94.9216,-9.9493,24.8035,-231.4513,-175.1926,-87.6625,-135.3475,59.1948,102.3053,-52.6039,19.3940,-147.5592,-45.1047,261.9573,113.8587,-199.8478,111.9018
-3835.9375,191.7572,150.4637,141.1628,67.7824,-8.8380,-9.5159,-82.4115,-172.2836,-122.4976,-60.1326,23.6405,-7.4049,6.5546,-78.7844,-35.3281,-188.7517,162.9033,-89.8349,54.1733,-83.6515
-3828.1250,40.3332,0.4175,60.3981,-47.0260,-52.3640,-125.4897,-51.0022,-250.0562,-20.0040,7.4145,53.4766,96.2220,4.7164,-82.3418,-4.7561,-194.0708,257.2161,75.8027,113.5481,76.8905
-3820.3125,-28.5993,107.8747,-46.8796,95.6704,-160.3929,26.0545,25.9110,-60.3455,55.9879,122.4554,19.8336,99.3553,-28.3061,-22.1122,-0.7130,-151.8970,-59.9741,-98.0506,150.3989,-99.3896
-3812.5000,13.3249,-60.8107,-46.3099,-72.7745,-121.5683,-118.5308,101.7000,-166.8077,19.8115,13.3307,168.0637,100.3242,68.0464,-81.0421,75.1692,-184.9095,157.6793,-126.0814,192.1061,-130.5988
-3804.6875,-12.6046,89.6358,-66.5951,6.9178,-105.5848,-99.9678,-138.3571,-111.1612,36.7763,68.3340,148.4799,264.4496,-38.9790,28.3913,-90.8276,-56.7880,165.5223,59.0519,-45.0442,44.9136
-3796.8750,60.2173,197.8491,38.8668,80.3744,37.1559,-29.6237,-68.6705,-112.7661,-41.5155,-45.9175,144.6606,149.3220,35.5837,-27.0653,-58.1135,-168.9232,96.0973,-150.0824,-43.4616,-155.0779
-3789.0625,67.6461,99.6471,120.9343,-52.5829,83.5081,-165.6835,-131.3626,-246.7994,-69.2246,-255.5888,191.4753,232.7799,41.6572,-13.6568,-84.8032,-121.4805,348.2819,33.3636,-141.2829,25.8318
-3781.2500,115.5707,323.9446,101.4974,136.9532,63.3617,36.7656,-150.5555,-81.3602,-234.4299,-273.7632,98.8216,286.7484,-61.1295,128.8446,-250.0184,8.4488,148.9693,-59.6729,-269.6414,-64.7808
-3773.4375,211.3036,174.0502,157.8602,22.3024,83.0287,-88.9650,-55.9299,-168.1490,-362.8462,-364.1519,192.0031,232.5042,10.5733,51.5869,-229.4552,-80.8588,349.4387,-173.9311,-68.2063,-171.2623
-3765.6250,162.8340,230.9420,76.0315,44.4388,38.5097,-94.8984,-136.5007,-174.1894,-259.4766,-259.7704,185.0282,373.0636,-77.2122,104.2710,-346.1129,-49.3918,369.7424,22.6190,-222.9880,17.8180
-3757.8125,163.0140,337.5128,71.8567,151.2444,34.6500,12.8452,7.5730,-175.6018,-227.4715,-263.7540,181.7263,258.2916,-28.1290,46.4403,-276.1581,-161.2936,122.6925,-152.1847,-152.1605,-152.7025
-3750.0000,78.8549,147.7331,55.3422,-3.3069,-18.5440,-147.7633,66.3165,-335.4114,-206.8365,-278.1201,313.1113,242.1674,67.4446,-15.8798,-107.5651,-138.5817,318.3188,-61.3610,-166.6904,-70.8925
-3742.1875,33.6482,243.9057,-60.2226,94.0910,-133.7755,-5.4160,-10.9973,-81.3073,-65.2627,-99.5570,125.4753,237.0032,-54.2240,88.5934,-112.0647,42.0630,25.9286,-106.5660,-247.3008,-122.6676
-3734.3750,109.0055,108.6416,-26.2347,-6.9433,-136.4415,-79.4911,96.2461,-118.6711,-105.1626,-175.4577,195.4096,123.3792,64.2653,-19.8590,68.9461,-69.7643,64.0778,-277.2402,-102.3620,-291.0771
-3726.5625,57.4664,92.4545,-76.1431,-21.8923,-146.9912,-90.4731,-61.3953,-128.9722,-80.9776,-222.2796,222.4758,222.8418,1.1201,34.8143,-51.9629,-5.5095,187.3583,-47.8142,-224.3190,-65.7596
-3718.7500,71.0687,247.4229,-27.9056,132.3148,-135.3862,106.7145,-48.8834,-41.1338,-104.6341,-246.9497,123.7001,160.4527,-35.0986,56.0854,-112.7457,-66.1112,-11.2213,-139.2387,-211.1449,-146.9329
-3710.9375,66.9247,67.6328,38.5894,58.7680,-31.5192,28.1555,-90.0954,-229.0798,-222.0473,-326.3755,265.1971,117.2920,36.7349,-11.7149,-155.2828,-143.5049,230.4549,-2.4349,-179.7082,-4.7233
-3703.1250,84.7283,156.7817,28.0291,218.1611,30.3047,202.5480,-210.3599,-128.1158,-270.5183,-225.8625,181.6764,180.0936,-76.7993,81.6012,-385.9025,-116.9730,71.1112,121.3436,-303.3370,124.0322
-3695.3125,155.0407,85.4459,128.9714,183.0738,94.6391,159.4688,-71.1239,-207.6692,-352.5045,-270.8606,283.6799,24.3879,18.9643,-12.6392,-358.0548,-196.9661,-0.7503,-55.3898,-128.4772,-45.5417
-3687.5000,21.4129,-47.8651,66.9779,50.0197,107.0418,98.4322,-95.8298,-304.2213,-267.4558,-294.8430,295.7764,109.7210,-6.0775,25.2694,-382.1702,-110.9304,110.4659,161.9305,-157.5705,165.7169
-3679.6875,-2.7644,139.2726,5.4408,202.4188,82.9083,259.8568,-9.0982,-179.3463,-291.9531,-245.3761,125.3455,48.5118,-85.5781,67.5711,-442.8727,-96.4552,-160.8716,32.7142,-147.2445,43.7804
-3671.8750,28.7126,-37.9411,-2.4372,58.4674,111.4413,106.9366,131.3080,-331.8530,-263.8087,-399.2682,228.5932,-32.0643,10.5170,-23.2758,-339.9402,-138.3652,11.4337,-39.8755,-45.2580,-28.5944
-3664.0625,-104.1159,4.5265,-134.6113,67.1981,17.6970,161.7078,37.4177,-167.7017,-101.9664,-199.4674,208.5672,20.0645,-87.4026,61.0441,-433.3317,25.4069,-157.5333,2.2501,-177.5815,1.7711
-3656.2500,-124.4439,-86.4927,-126.2867,46.4428,-11.5376,169.9995,193.0368,-48.0626,-93.6152,-117.1709,254.0499,-156.3070,-12.6628,-19.0443,-352.2446,-39.3401,-356.0181,-229.1360,10.5765,-223.1325
-3648.4375,-258.6163,-290.3768,-190.8049,-121.1806,-39.6082,34.4306,203.8233,-110.3166,-12.1118,-71.7552,337.7105,-109.5321,5.6819,-41.7853,-342.0046,-27.9676,-175.3284,-48.3822,86.8826,-45.4676
-3640.6250,-309.4910,-130.9583,-277.0266,38.4955,-125.3758,244.1668,228.9006,63.6985,85.7067,100.9574,179.6912,-123.4442,-76.5370,7.8037,-354.4877,-38.3095,-438.3218,-134.3130,35.4602,-129.4299
-3632.8125,-210.5532,-241.7370,-216.4334,-38.0252,-63.3301,122.7103,327.7862,-167.5110,35.3204,14.4581,240.5022,-172.5717,44.3329,-126.7485,-183.1868,-233.8828,-199.5205,-140.4651,98.8430,-132.0135
-3625.0000,-207.3535,-97.2862,-241.5793,36.6841,-52.0255,209.4906,156.9138,-154.5070,10.1714,-9.8109,216.6000,-50.4494,-65.6460,-38.8778,-391.6639,-184.2184,-92.4227,74.6442,-144.5264,81.6411
-3617.1875,-97.3434,12.9831,-131.9230,112.2084,58.0905,321.0907,267.8315,-152.7138,-136.1874,-155.2857,217.5098,-160.5245,-6.6862,-63.2779,-391.3777,-255.7675,-263.5319,-97.4513,-70.1074,-80.3003
-3609.3750,-105.0251,-205.4572,-103.9528,-70.9730,123.5218,167.9869,261.0700,-231.6702,-144.2555,-309.4814,320.7422,-131.3085,34.8328,-53.1687,-398.7966,-152.0573,-62.3206,35.7462,-43.3718,49.8741
-3601.5625,-183.3681,-107.5545,-107.6330,27.1925,121.3113,277.2332,221.6566,-13.3141,-74.9548,-166.3280,171.3395,-98.7274,-43.7379,41.0639,-437.8853,-44.0179,-351.7467,-7.6840,-86.2960,5.7531
-3593.7500,-218.5566,-284.4930,-43.1560,-113.4829,149.2545,158.6447,397.4139,-93.8302,-157.5001,-174.0290,274.0969,-217.0121,115.1846,-81.8190,-226.8315,-160.8612,-284.0350,-148.9814,122.9365,-131.3407
-3585.9375,-273.2428,-267.9506,-130.1698,-132.6739,136.7148,148.5412,275.6741,-67.8899,-134.5510,-76.2559,336.3809,-120.7875,71.8201,-26.0072,-312.2946,-62.2276,-233.7782,78.2318,-2.3337,86.6763
-3578.1250,-139.8695,-99.3372,-104.1276,2.1951,126.2390,360.5001,265.9756,-2.9195,-180.5566,-12.4388,326.7218,-240.5028,76.5209,-36.0137,-322.7434,-108.5551,-417.4633,-140.4982,60.4214,-128.0652
-3570.3125,-73.8862,-243.1243,-73.4686,-107.3404,120.3831,319.0462,261.8941,-154.3896,-186.9677,-92.0403,321.6832,-209.6285,100.0996,-70.5509,-254.5935,-185.3178,-71.5285,-3.6430,55.7855,11.9186
-3562.5000,-146.5562,-35.5717,-143.4590,31.4635,50.8850,471.9315,192.1549,-39.5473,-148.0192,59.7004,106.0133,-133.3881,-27.3879,29.1630,-288.1145,-107.7435,-216.2106,28.5863,-88.5153,41.7749
-3554.6875,-111.4188,-141.2038,-151.6382,-39.9177,79.1968,316.6281,405.2221,-83.9279,-193.2695,14.2286,134.1488,-288.3479,83.3984,-80.6670,-112.8533,-151.3949,-217.1009,-148.3974,85.9875,-131.2750
-3546.8750,-199.4234,-263.0033,-164.9556,-161.4632,67.3806,233.1580,284.1376,-56.5084,14.3318,113.5828,161.1622,-190.4499,13.2116,-34.8977,-234.7515,-52.2292,-95.1040,10.4788,-1.6550,20.4467
-3539.0625,-174.5795,-132.9428,-140.4199,-30.1492,55.4195,370.5470,235.8922,79.7333,112.8040,211.7934,39.0283,-275.6868,-29.5045,-40.5043,-245.8249,-100.2322,-281.2551,-175.7792,22.5406,-160.3705
-3531.2500,-178.3241,-276.4852,-75.4689,-174.4387,83.8675,178.3371,265.0631,-75.6559,66.6822,93.3955,31.3046,-284.5393,44.2496,-99.5836,-72.4955,-107.8689,-6.0023,-108.6529,88.1525,-93.1486
-3523.4375,-173.7099,-130.6946,-99.1580,-63.3923,97.6766,230.4644,205.5707,50.2719,-31.0887,180.3374,-138.0423,-199.0359,-54.0585,5.4620,-131.8416,16.8323,-142.3613,36.8462,-47.8900,51.6320
-3515.6250,-53.0830,-150.8949,19.1629,-48.3339,253.4965,203.6013,325.0723,60.1946,-278.8624,115.2772,-127.3826,-299.5420,-0.0066,-33.5689,-196.2169,-47.4745,-127.7261,-123.6651,72.0672,-93.5112
-3507.8125,-13.6452,-287.3180,101.3024,-149.4953,373.1314,103.5170,188.3757,-4.1219,-380.8337,87.9963,-81.9008,-181.2531,-27.1423,20.9490,-334.7928,35.9963,50.7458,90.6226,4.8411,119.2998
-3500.0000,44.8886,-88.6343,163.5507,14.4454,361.8750,278.5318,141.7628,133.6360,-392.6854,150.8199,-128.3233,-228.8481,-55.7367,51.6080,-382.2907,26.5503,-173.6712,-62.9609,-43.2974,-31.4416
-3492.1875,48.8848,-154.4922,198.2661,-86.1563,360.0851,93.9951,250.6104,-124.1931,-432.0782,2.0867,54.7106,-193.9998,94.3821,-71.7798,-200.3440,-157.4855,76.3672,-94.1043,66.0296,-65.7374
-3484.3750,17.8846,-10.3616,62.9941,-11.7670,262.3107,107.4403,116.4477,-75.0715,-273.4588,14.3385,-6.2390,-36.1396,-14.8841,12.4157,-263.4032,-72.5464,79.4464,50.7784,-71.6474,68.4683
-3476.5625,57.8382,-4.2623,61.6776,-5.4103,261.4982,106.8485,263.2290,-38.0136,-200.8757,13.5378,-43.2380,-146.3204,41.6100,-27.9687,-117.5324,-72.6775,-92.5309,-190.3883,73.6185,-172.3448
-3468.7500,-19.5441,-257.5253,92.0298,-187.4169,255.3531,-81.1146,184.6666,-79.3483,-23.6428,44.3708,26.4299,-116.8561,123.7485,-49.4022,97.9939,32.8070,75.1748,-21.9052,30.5526,-17.4539
-3460.9375,-68.7756,-130.6339,44.5428,-26.2667,171.3665,57.0695,101.2404,95.4313,185.7514,181.3525,-93.7482,-127.2317,83.1664,-0.3769,197.6524,97.4262,-220.9417,-106.2404,-19.3763,-108.8761
-3453.1250,-35.4416,-237.1773,73.6265,-131.5526,163.9444,-96.1900,204.3675,-22.2642,177.6937,99.8659,-64.3714,-171.0603,175.0743,-105.6722,373.8498,-20.4330,-116.5068,-142.0388,154.2538,-142.7005
-3445.3125,-77.2974,-173.9365,-36.4738,-104.0521,92.3352,-20.6757,96.2885,53.7946,215.4490,138.1561,-135.1757,-61.0776,55.2910,-27.8528,227.8353,18.4900,-55.2197,60.9817,76.6847,60.3363
-3437.5000,-8.7441,-35.2831,-6.1664,34.8595,122.1265,84.2382,163.5904,47.2501,134.6244,94.8573,-141.5940,-141.6880,99.0749,-81.6949,257.2010,-135.1897,-163.5300,-117.5984,144.5189,-109.7760
-3429.6875,-14.7247,-147.1938,22.6084,-111.7945,114.3735,-69.4202,119.3481,-106.8761,163.2570,-22.9895,36.4361,-112.8547,177.5602,-134.5863,323.0346,-142.4466,146.6381,52.2630,66.8288,52.6893
-3421.8750,-33.7073,45.8932,8.3910,11.5399,27.6240,28.9039,-3.9064,64.9719,222.9107,110.1718,-86.5419,-53.0027,55.4978,-33.9369,235.8692,-7.7132,-49.1610,34.1535,-127.8718,27.8079
-3414.0625,34.9694,-97.3499,144.8387,-61.4650,91.5346,-90.1250,97.4874,-18.5442,138.2275,-10.0167,-22.8838,-135.5058,141.7580,-87.8961,298.3552,-17.3515,18.6895,-109.3169,-25.9139,-110.8567
-3406.2500,-14.2928,-145.5580,137.3572,-144.4371,121.5107,-133.1330,-56.0807,11.9505,204.6016,19.8275,-102.1618,3.0419,11.6927,26.9008,106.8910,160.0406,144.6435,123.2827,-109.8989,118.7176
-3398.4375,1.2053,9.9976,151.6351,11.3523,172.2483,-44.3894,-4.9230,137.1797,180.7375,33.4280,-197.7035,-56.6479,-15.8799,42.3037,47.1580,138.1753,-86.6442,-37.3515,-25.1350,-32.7382
-3390.6250,-1.7885,-98.9465,181.4341,-132.3640,165.5010,-196.1644,25.7448,-53.1253,211.3773,-46.4842,-56.7446,-63.8368,89.9202,-66.5331,187.9379,21.7795,155.5815,64.5096,-28.8481,64.6328
-3382.8125,11.1622,55.0538,91.1913,21.8616,39.7095,-28.0137,-99.6481,42.4882,267.9818,84.5435,-144.8372,-43.0488,-26.0322,0.1917,97.6725,79.3218,26.7906,148.3547,-157.6122,145.0025
-3375.0000,99.5740,38.5191,103.4125,5.5495,52.3750,-51.4129,-13.5928,18.5380,207.0490,-12.9792,-131.4882,-140.8050,67.4722,-92.3072,256.8563,-54.7077,9.4330,-44.3509,36.0897,-42.6474
-3367.1875,-7.8083,-68.8357,32.8532,-66.5816,18.2528,-157.6419,-83.3379,-15.2509,356.3230,26.6882,-164.9351,45.6424,-4.1201,0.6885,223.2494,96.4432,112.3163,94.1596,-36.9821,84.3452
-3359.3750,-32.6402,82.3673,-31.1409,84.8423,-81.3078,-35.3285,0.4424,142.4946,403.1732,183.9185,-262.8449,55.6508,-67.8604,50.3539,196.1751,107.1359,-160.2370,-141.7502,7.5025,-150.8598
-3351.5625,11.6437,-85.3284,9.9834,-82.6278,-113.7579,-213.9240,42.3240,-36.6796,407.1411,77.2500,-75.6654,22.7423,29.3371,-49.5171,273.2101,37.9007,129.3236,-133.5703,86.1207,-145.3119
-3343.7500,-8.5204,70.5131,-41.3373,3.4402,-201.6576,-116.9962,-118.2611,60.6674,392.6831,100.1271,-124.9416,155.3956,-109.5350,65.9387,74.8031,134.2090,143.4827,22.1874,-75.7019,7.7722
-3335.9375,104.4747,149.5213,34.5004,81.6722,-198.4074,-77.9188,-5.7055,26.1632,283.3954,-7.8385,-122.0864,47.2070,-70.1666,-2.9778,76.5394,-10.3386,151.7881,-145.9105,37.6384,-147.4506
-3328.1250,80.8847,89.9189,10.7552,-47.7171,-148.7531,-172.4761,-64.7549,-106.9715,297.5216,-30.4068,-107.8262,171.4238,-69.4629,-3.7673,90.6937,-32.5023,372.5291,40.3916,12.4019,33.7179
-3320.3125,75.6509,225.6728,-29.6264,123.2393,-188.7527,-64.6994,-67.4869,74.2331,220.0274,113.3878,-184.2195,131.0114,-101.7099,31.2919,87.1936,0.6840,85.6390,-34.9319,6.5074,-40.0031
-3312.5000,86.4353,25.4340,49.0165,-76.8004,-108.7455,-205.9394,10.7749,-31.5765,150.5396,44.1800,-31.6133,24.5964,50.0183,-81.8948,238.7127,-68.1491,236.7542,-94.2633,122.6246,-99.0577
-3304.6875,62.0781,36.0354,-43.4675,-66.0071,-164.8797,-187.3640,-191.1335,61.4291,279.9101,99.8065,-12.1563,117.0504,-36.4458,19.3644,146.0960,134.8548,175.7742,57.2896,-43.4096,37.8321
-3296.8750,102.2790,76.2138,-44.3940,10.3557,-164.4595,-149.2390,-116.5087,133.9814,277.8430,97.9909,-49.1723,42.0658,-6.5277,-5.8815,219.0171,97.4038,-30.6535,-183.5956,32.1118,-201.1883
-3289.0625,63.6963,-103.4130,-11.0979,-133.0905,-94.8279,-261.9458,-83.6819,-53.2965,310.9841,-52.6326,-51.9894,111.2766,26.8105,-16.0726,288.1492,94.1286,177.1557,58.7208,-7.1377,39.9144
-3281.2500,-8.4815,106.3620,-8.3935,39.8575,-54.7996,-38.2766,-117.4758,60.8125,277.5500,24.1530,-194.4146,151.9074,-39.9595,54.4576,217.6786,61.2502,-71.6061,92.4682,-114.9840,78.6598
-3273.4375,101.0520,3.8453,98.0246,-60.4905,13.9265,-114.9220,-46.5694,-89.3851,161.8427,-126.3578,-50.1587,36.2445,85.6130,-67.4836,286.9308,-88.9448,142.3229,-10.0952,-7.1055,-16.7806
-3265.6250,97.7319,35.4572,26.6025,-29.7102,17.8002,-148.4518,-190.5206,-124.4620,238.3050,-87.7226,-47.7605,149.7458,-10.3427,-20.7449,105.3610,-49.9943,243.4407,197.5176,-46.0555,188.3138
-3257.8125,112.0601,85.7333,1.8396,90.7336,-7.6759,-26.3399,-68.8378,-38.8910,176.4402,34.5740,-71.7448,-23.0890,-1.3033,-61.9910,79.4419,-111.3941,12.2084,36.8016,214.6574,40.3448
-3250.0000,48.4012,-188.9989,6.0955,-77.8277,33.8581,-130.2499,-27.1498,-143.3426,143.5851,38.8651,43.2595,-90.9275,60.6781,-115.8339,84.5417,-105.8154,157.9981,219.0917,360.4093,226.0769
-3242.1875,-33.0070,-59.4866,-36.3908,85.8548,-8.3597,11.0682,-107.2296,70.4383,175.0097,180.4129,-35.5059,-61.4995,-19.1230,-21.1948,3.9040,-1.9875,-99.9303,242.6705,208.4164,247.2093
-3234.3750,58.8906,-72.6636,52.4391,2.8477,7.7216,-82.3230,-16.0144,-23.4773,153.7576,-24.7153,17.9980,-81.7773,95.9148,-94.6314,203.5844,-95.8666,-7.5660,53.5452,265.7492,56.2690
-3226.5625,42.3440,-19.3019,40.8388,21.3747,-4.6411,-94.1977,-175.2630,-72.8663,215.0666,-111.2969,-67.9529,125.4962,-3.7606,3.0439,117.8369,-35.2107,186.3924,282.9953,106.6579,281.2166
-3218.7500,108.5057,187.7772,71.9506,228.6148,26.7021,47.6175,-180.8445,-41.5582,172.0950,-116.1693,-182.2361,119.4908,-42.6548,21.8435,74.7891,-113.8571,6.0645,174.1739,137.2697,180.0090
-3210.9375,146.1845,84.3639,217.5896,125.3581,99.5584,-99.0858,-107.9288,-224.7684,23.6266,-226.5523,-35.0370,81.9866,76.7962,-61.1157,147.2605,-188.0255,254.2548,246.8486,139.4043,255.9720
-3203.1250,130.9653,209.0510,208.3455,180.1969,90.5208,-34.7223,-189.9342,-87.9031,-21.7181,-89.8409,-44.7474,146.6083,-9.9359,47.4725,-9.1549,-13.0988,97.5856,266.6526,-17.3678,268.9636
-3195.3125,230.0579,133.0594,268.4164,104.3490,76.7800,-121.0666,-130.6507,-27.7321,-71.7403,-139.8208,15.8194,21.5351,83.4025,-36.9580,124.7458,-62.8742,91.2072,13.7514,152.1705,18.4683
-3187.5000,234.3141,-4.7959,201.6531,-68.3639,10.1862,-297.3029,-270.2237,-58.4348,7.3990,-60.6564,-14.4630,138.6138,5.5455,-6.6082,93.8257,53.4920,305.0230,194.0073,154.8861,188.9441
-3179.6875,265.7312,132.5082,124.0503,104.0703,-30.2661,-153.4099,-310.6820,159.0111,-33.2781,119.6784,-163.6116,98.8625,-98.2728,48.5349,-19.9394,87.0144,90.0081,84.4327,221.7616,86.6403
-3171.8750,278.7684,5.4240,168.0625,-22.8999,-59.1268,-255.9447,-303.5479,20.0534,-25.3285,126.6270,-119.1759,32.7087,-52.2162,-38.9757,59.9213,21.1209,243.6032,97.4421,340.2754,100.3276
-3164.0625,139.0110,76.5289,65.2821,48.3063,-161.7958,-138.3225,-443.2366,136.2813,54.8484,281.7905,-185.5521,148.7761,-171.8323,70.1261,-43.0030,137.4279,103.4486,274.6757,129.0089,268.4435
-3156.2500,101.1106,74.5046,55.3610,81.3738,-209.6214,-111.8606,-417.0882,162.3754,7.8933,233.8254,-159.1115,65.7015,-105.5216,24.5942,92.9287,90.5922,-4.8633,61.7630,160.6104,54.0774
-3148.4375,59.9673,-38.7821,11.2100,-31.8227,-289.6972,-228.6871,-498.1920,9.2040,37.7013,115.6076,-91.9321,167.3723,-100.5078,36.4469,159.6471,156.4976,268.6082,229.6075,12.9953,210.0746
-3140.6250,69.5670,217.6810,-48.1880,118.7286,-386.0363,-67.7841,-557.5685,169.7863,50.2908,130.1559,-225.0307,218.8104,-188.1309,107.0578,137.1361,171.1631,67.8458,170.2328,-46.8611,149.7069
-3132.8125,85.6266,163.5995,33.8793,29.7373,-303.9307,-205.4428,-438.4975,31.8239,-86.6570,-6.8441,-68.7070,154.6933,-50.1594,-3.7324,219.1087,33.2706,258.5286,115.3035,73.7694,100.8922
-3125.0000,55.6450,238.4543,10.9112,104.6840,-252.8693,-117.1870,-534.4946,44.7936,-146.6504,-66.9007,-54.4499,314.5401,-144.9962,121.2024,-23.9465,120.3239,264.2112,297.3594,-96.6323,282.0939
-3117.1875,155.1798,337.8359,74.4621,204.1521,-153.3056,-54.4351,-398.0214,108.2701,-304.1311,-151.4511,-101.7208,229.9051,-126.9097,113.6246,-71.5058,73.8741,47.3992,114.9360,-32.5274,110.6358
-3109.3750,85.8379,161.3221,74.1377,-6.2883,-79.6341,-238.6163,-288.4564,-39.1716,-267.5055,-151.9131,-64.9023,266.3827,-74.3186,69.9201,2.0560,73.5078,257.7175,255.6101,-33.2904,248.2656
-3101.5625,-34.1018,288.2141,26.2253,119.6713,-52.5637,-101.4238,-224.5163,97.7799,-93.4551,21.0279,-258.7111,256.2875,-149.3023,133.4682,-8.9695,136.5515,-37.5400,240.7163,-118.6533,234.2619
-3093.7500,-19.5310,161.6240,109.8284,64.1468,-43.9987,-165.7462,-32.0854,-3.7556,-121.8959,-79.5202,-176.0554,118.6962,-5.5533,12.8621,183.5294,-1.9022,46.6977,150.3105,-33.4968,150.5021
-3085.9375,27.7471,139.7229,56.1436,41.3055,-59.7349,-144.4099,-157.9709,-19.6119,-100.6235,-58.3643,-154.7113,175.8131,-65.4393,77.3951,94.7578,129.3439,129.6901,304.6266,-161.6242,296.8829
-3078.1250,131.2829,172.0912,51.7183,108.7314,-101.2245,-38.8324,-162.6408,122.7904,-31.0709,120.0629,-233.1466,24.1899,-98.3702,64.4800,90.2402,161.8419,-84.0564,55.2115,-23.4959,50.5400
-3070.3125,81.7386,-87.6387,37.2133,-149.9466,-115.8150,-274.3834,-141.4146,70.0857,99.3955,141.3955,-137.6967,-27.5399,-19.2855,-34.9226,221.6532,146.2260,112.1159,41.6896,172.5724,32.9213
-3062.5000,-37.6515,3.7786,-81.1365,-59.4868,-197.2713,-134.8205,-223.0609,247.5289,240.0379,317.8960,-219.1147,0.8937,-99.4359,19.4742,178.2361,175.7700,-77.5289,28.3433,122.8114,16.1112
-3054.6875,-0.5372,-66.2876,-85.9816,-93.5204,-240.2439,-177.7701,-82.2182,167.4977,233.1945,274.9145,-151.0584,-78.1712,-11.5341,-57.9524,319.3469,95.8245,-111.6851,-146.5181,299.5792,-158.4343
-3046.8750,-67.2714,-131.2199,-111.6679,-159.4261,-229.0752,-239.6128,-144.2358,104.6045,281.5193,323.0824,-102.8617,42.9233,-52.1087,-18.6755,220.6481,144.0249,-1.6579,68.7857,198.5267,51.0904
-3039.0625,-37.6589,73.2103,-80.9994,11.0248,-234.5610,-98.1212,-112.9326,210.0735,240.2165,354.6157,-145.3434,37.3897,-72.5024,9.5962,178.3130,101.5874,-218.2781,-112.5280,121.8308,-127.4836
-3031.2500,31.0693,-69.2535,22.7924,-131.4208,-166.9407,-252.5458,-46.5322,-17.3571,196.0117,127.2480,31.2532,29.9455,60.8264,-88.3605,282.1066,-14.7617,60.2084,-78.7455,120.2681,-94.2790
-3023.4375,-35.0451,39.4191,-1.2505,-22.7284,-120.1722,-130.8479,-146.0076,30.3551,171.9623,139.0374,-68.0136,152.6643,-54.9588,57.5717,110.0713,144.0472,-6.1200,65.2228,-123.1309,46.6755
-3015.6250,28.1465,68.4177,59.0165,-63.7196,-58.1107,-143.8593,-12.1906,54.3828,48.2319,126.1442,-80.0146,28.6826,-5.0362,-12.0522,133.3519,57.1632,-48.1593,-116.5080,10.7861,-125.0914
-3007.8125,9.0455,-57.8932,5.9978,-190.0224,-2.3481,-270.2101,-66.6803,1.0998,68.2170,108.9577,-61.3335,85.4010,-24.1102,-4.3262,80.3644,113.9716,178.5360,74.4670,-8.5645,63.9055
