Time,Fp1,Fp2,F3,F4,C3,C4,P3,P4,O1,O2,F7,F8,T7,T8,P7,P8,Fz,Cz,Pz,ref
-4000.0000,56.2457,112.4190,43.0669,108.1171,46.2374,75.1002,-94.0053,-60.9404,-200.3219,-121.6853,43.1236,-13.8158,60.4312,-15.5828,-108.3856,-70.4538,94.1029,66.9556,-43.2363,34.6178
-3992.1875,-1.2499,90.7853,-16.5795,122.4987,-13.3639,52.8245,-119.1662,-48.5724,-154.2619,-74.2976,57.5858,-37.7408,38.1235,70.5204,-23.8186,-132.2553,61.2743,79.5985,37.4965,11.9045
-3984.3750,-40.7406,-16.8501,16.7816,48.8806,57.0374,49.5421,57.6722,18.7961,-15.2078,-6.9142,17.0617,-42.6727,-2.1753,28.6182,6.7469,-174.0614,30.8740,6.2452,67.2241,8.1961
-3976.5625,-91.9794,-32.2371,-1.6033,-1.4831,38.6917,31.5068,73.7651,35.4049,36.0958,8.7125,35.7900,-25.3607,16.7815,45.9573,-14.4376,-121.6171,-7.1502,-9.8537,49.1977,26.7472
-3968.7500,36.0787,60.6732,-14.6848,-13.5476,-11.3517,-55.2323,22.1509,20.3074,55.6920,-81.3637,59.8239,33.2565,4.0429,-41.3973,6.6702,-99.8764,-9.1829,-22.6454,34.4667,13.6032
-3960.9375,36.7412,97.1877,-53.1590,22.9906,-12.7812,-56.3715,19.1382,-19.1960,49.8779,-48.8420,21.4633,30.4677,2.9128,-43.1565,-34.6250,-66.5425,-4.7236,-57.8450,33.3352,49.0640
-3953.1250,-11.2480,16.0540,-65.2823,-23.1250,-61.8569,-68.1635,4.4754,3.6426,70.4141,10.0299,46.4596,17.0247,28.1387,15.4313,24.4292,-80.8596,-44.8975,-34.6935,54.5550,36.8812
-3945.3125,7.5144,-70.3400,-9.6548,-39.4952,-43.1829,-49.2086,20.5669,56.2312,157.7053,25.6488,65.2166,-37.6761,10.1204,-76.2297,40.2372,-64.4271,-29.4277,-50.7954,71.5263,55.4508
-3937.5000,-8.5740,-119.5892,-63.8752,-19.7188,-60.3579,-30.0979,-0.1887,36.9681,172.1545,78.4209,10.1279,-20.2330,-44.7448,-21.7493,19.1977,26.1572,-44.0907,-31.7529,123.6436,74.1782
-3929.6875,-19.4591,-130.6405,-36.8971,-64.7423,-33.3395,-38.7849,24.2516,24.9000,194.8056,138.3895,-35.7563,-31.5914,-53.4106,2.9386,43.3579,13.9362,-52.6097,-6.5084,75.9613,28.1096
-3921.8750,-48.1908,-53.5472,-30.7662,-57.6157,9.8305,-69.3231,100.8470,28.9779,270.6104,141.5137,-102.4895,-26.8043,-83.9227,-64.2305,82.6731,17.8612,-43.9799,-71.1192,10.4303,34.1957
-3914.0625,-61.2814,-65.8109,-43.9836,-69.8441,-40.3492,-82.2178,48.0970,49.7011,216.0767,125.2932,-115.5731,-5.3687,-132.7826,-6.7537,66.6430,75.4431,-54.1900,-13.0827,30.5499,20.9392
-3906.2500,-76.9269,-115.6354,14.2549,-84.6350,17.9218,-60.6726,66.7954,68.8744,122.0027,143.5255,-95.1949,-58.4913,-112.1859,13.1778,48.0651,131.4754,-46.7090,-64.5986,84.1209,5.1367
-3898.4375,-167.1185,-135.0233,-8.0529,-103.9837,-4.3511,-8.6823,78.9481,81.4960,132.3874,155.2206,-43.3650,-9.1703,-133.1389,63.5503,23.9380,180.9683,-79.0693,-84.6656,97.1380,19.7898
-3890.6250,-153.8163,-121.9276,-67.8595,-125.8395,-27.1203,-31.2036,53.6035,130.6177,216.2795,129.4273,-29.0323,40.6461,-82.5905,113.4195,34.3138,81.9700,-117.7646,-72.2286,72.6564,-3.0540
-3882.8125,-31.6663,-67.9948,-49.8068,-71.8524,-46.0317,-12.8823,69.1127,35.5904,230.0307,70.4889,-47.8503,57.3086,-64.1864,19.1321,13.5478,23.8198,-66.1128,-53.9412,18.0231,14.9557
-3875.0000,-39.4665,-39.0193,-57.7042,-7.8241,-53.8946,16.4795,-14.3133,-10.3947,70.8485,-12.3993,-55.6131,85.0198,-34.7285,83.8945,2.8431,13.7245,-27.5991,79.3914,-26.5704,7.0211
-3867.1875,-97.0169,-25.7979,66.6445,40.4446,34.4871,67.0781,-3.4816,-35.1334,-29.0696,-75.0402,-41.1167,60.9765,-20.0207,59.9075,13.4008,-47.1151,44.2438,91.9765,-15.9203,-15.6616
-3859.3750,-139.9661,1.0207,56.6026,32.3123,60.4727,93.2686,-16.0433,-47.2772,-44.3785,-89.0738,-15.0211,48.5307,-30.7114,84.5113,0.5658,12.6416,34.2724,48.1545,-26.6742,10.2593
-3851.5625,-82.7167,-44.9700,7.7634,-13.6237,-25.3406,8.6519,-66.4045,10.7750,-60.4797,-66.9022,47.2744,72.2799,-5.1999,144.3150,21.9359,72.5960,-30.1265,-33.4625,29.7687,-1.6153
-3843.7500,7.2815,-25.2276,-10.3226,-64.8209,-6.4063,-46.2218,58.9861,64.5781,-45.8137,22.0259,29.3281,89.7751,14.0645,-22.1304,38.0589,89.3033,-62.0239,-190.3316,11.9595,17.2614
-3835.9375,-31.2276,42.9991,-49.9038,-30.5320,-8.9691,-85.6008,53.8844,59.8803,-52.6318,52.4666,26.8837,122.7759,11.8290,-26.0809,32.6829,84.5155,-65.5295,-192.7087,-27.3463,14.6407
-3828.1250,48.5174,17.4635,-2.2376,-21.0034,1.7215,-37.7428,-11.9622,31.4325,-9.1898,23.1713,73.6876,58.0256,22.8402,-16.7817,40.5632,55.9798,-29.4675,-113.8362,-89.4018,-11.7308
-3820.3125,48.6656,-16.6818,-4.1674,14.9137,-0.1894,-2.4910,20.6000,-8.6159,21.6660,-53.7141,72.8924,17.6696,21.2506,-20.0834,72.8533,125.8497,-12.2182,-113.5762,-92.0574,23.2997
-3812.5000,-3.4970,-33.1362,-58.3999,-36.4802,-54.4048,-56.5486,37.8725,8.0364,36.2417,-36.8919,55.7951,-0.9869,4.3571,109.3191,163.8511,106.4305,-67.1225,-95.6244,-41.0080,6.0331
-3804.6875,-51.1657,-44.1062,3.8662,-12.3879,-29.1273,-31.1183,134.6537,-5.8086,56.3400,57.4441,7.1969,-14.1458,-7.0351,22.2239,112.3588,55.5166,-31.5903,-107.1758,-19.4557,-5.7332
-3796.8750,-72.3949,-65.6428,-19.4162,-32.8606,-15.4003,-91.2549,108.8973,5.7987,65.9152,68.2475,58.0466,-1.8539,7.0190,-2.4312,86.3303,67.0615,-54.3145,-93.2887,-7.4468,7.9538
-3789.0625,-21.9847,-85.5460,-40.0543,-52.6982,-36.0309,-74.7542,85.8007,20.0633,78.1652,7.7201,110.5448,-23.9177,59.7158,-61.4298,62.9710,44.2627,-64.2022,-42.7590,5.2194,-12.7092
-3781.2500,-42.5297,-69.4217,12.3535,-1.5068,-20.6138,14.7854,98.7743,33.3837,52.4930,20.2563,89.0892,-118.9314,39.4609,-83.3774,38.6796,20.5262,-6.7852,-27.1889,18.9377,2.6794
-3773.4375,-63.1260,-124.3629,28.7033,48.6209,-4.2526,104.2602,38.7113,47.6527,-8.1961,-3.2467,32.5797,-140.9903,19.1465,4.6304,15.3533,-39.2509,29.5130,57.3216,67.6051,-17.9801
-3765.6250,79.0267,-87.5622,102.7994,50.4883,33.8531,105.4666,0.4167,46.6713,-11.1042,-4.9917,33.8126,-178.2973,56.5765,-105.6091,-23.2066,-40.2754,77.0462,23.5766,32.0184,-16.8914
-3757.8125,125.9201,-39.0201,114.6449,28.0909,45.7100,80.4114,-27.1132,19.4350,-76.2426,-31.9751,8.7986,-130.8529,32.7578,-59.1004,-50.0002,6.4562,77.7336,0.5714,6.1810,-5.0514
-3750.0000,71.8524,-57.4499,95.5417,-25.2697,26.6126,25.3886,-48.5836,35.2466,-26.3120,-17.8978,26.8396,-115.3505,49.9884,-42.5409,1.2717,-14.7455,35.6960,16.6119,-14.6085,-24.1618
-3742.1875,25.6261,-104.0492,82.2889,-35.7944,50.3598,49.2051,9.8093,56.9091,66.4953,77.0436,50.7307,-128.9944,74.0672,-129.1274,22.4088,-30.0848,17.4498,-29.5107,-27.5470,-0.4239
-3734.3750,-24.7646,-83.8163,30.8806,-86.4857,34.9534,-40.1374,-7.9359,76.4212,84.1862,95.8516,108.4659,-73.7862,58.9923,-109.8574,4.4138,26.4331,-32.9600,25.2055,26.3678,-15.8357
-3726.5625,-1.6191,-59.0508,55.0216,-97.6429,59.0904,-88.9379,51.8823,62.4878,105.4589,118.2200,96.7459,-87.0322,84.4603,-159.0297,-10.0155,12.5015,-25.3805,13.4687,12.8408,-27.7004
-3718.7500,23.1667,-33.6561,79.8119,-72.1659,47.8707,-101.0921,0.3688,48.2099,89.4070,140.2575,11.6709,-99.6319,36.5713,-135.5550,-24.7742,35.2330,5.2287,3.3643,-0.0271,-2.9138
-3710.9375,102.0935,-95.1352,17.7411,-97.5652,21.7919,-127.1105,-27.9786,57.0852,96.5286,147.4658,22.7496,-91.0798,10.8265,-90.9241,-16.3643,44.1373,-33.8593,12.4006,8.2620,-28.9787
-3703.1250,129.5280,-102.1404,8.1649,-139.4892,49.2055,-135.6528,71.1929,45.4660,157.1806,172.1976,50.3300,-101.0194,38.5814,-173.7962,45.5632,32.5473,-58.5444,-66.0707,34.0527,-1.5471
-3695.3125,-31.5498,-155.6584,-50.9107,-157.9287,-9.8822,-156.7132,46.8822,58.3513,278.3660,184.4481,65.4025,-51.4560,53.8304,-87.1688,95.0071,8.4579,-115.9771,-51.0511,47.3478,13.3830
-3687.5000,-14.9473,-210.4889,-33.2850,-176.6834,-29.2707,-213.0871,62.2829,73.9420,329.2788,236.4066,82.1676,-108.1923,70.7740,-107.8333,110.1726,98.0700,-127.8732,-70.3327,-9.6520,-5.9916
-3679.6875,-46.6052,-135.5876,-65.9100,-171.7015,-24.9119,-208.7187,101.4549,2.2866,365.9753,275.1297,86.6768,-105.1761,39.4600,-140.7487,112.1045,173.4436,-134.2077,-65.8784,-41.8981,-1.6193
-3671.8750,-41.8726,-131.3110,-60.1427,-133.3396,-19.1589,-202.9647,68.0424,6.0327,331.1038,204.2724,19.5810,-64.7521,44.5391,-64.2639,78.4544,103.2342,-108.8629,8.9699,-3.7390,-32.8492
-3664.0625,1.5515,-87.3581,22.3222,-89.3004,26.2859,-122.5276,74.3471,12.4899,262.9663,136.1328,-8.8145,-57.6222,53.3127,-94.0772,47.5243,-37.2643,-46.6832,-52.4900,38.1193,-24.3838
-3656.2500,48.4126,-109.9724,-39.7663,-111.8312,1.1752,-73.6544,10.1146,-14.6003,160.3206,145.4644,40.2389,-10.0408,-7.4665,-9.4392,20.0637,9.7014,-83.7830,-76.5166,48.4301,-12.4704
-3648.4375,90.1072,-102.7646,-31.0154,-139.5355,-27.0941,-64.9485,53.7500,-7.8366,202.5684,151.6760,-24.8658,-39.6108,-35.4057,-1.9448,63.4739,16.5403,-90.0365,-104.7020,88.5980,-40.7123
-3640.6250,0.5009,-50.8844,-52.5669,-123.5627,-48.6678,-12.5631,140.1124,5.6319,251.5532,164.6151,-83.2821,-99.4773,-93.6583,-24.7590,112.6062,-6.9042,-81.7861,-89.1992,137.4740,-25.2590
-3632.8125,-130.3114,-146.2257,-40.3300,-147.8105,-73.4510,-37.3956,76.2930,88.9043,296.3784,174.3732,-107.9117,-125.5373,-81.1260,-13.7631,122.5596,76.4670,-101.1221,-7.9097,182.1574,-50.0081
-3625.0000,-85.7343,-205.1820,-30.6978,-137.6802,-63.8485,-64.8351,83.8915,133.5878,266.6400,218.5499,-61.1518,-153.1954,-71.2060,-116.3576,92.9338,158.2416,-96.1065,-33.2269,155.2474,-40.3645
-3617.1875,9.6706,-216.3147,-80.2208,-181.7218,-113.4031,-150.4278,70.3619,119.1329,213.7923,277.6070,-36.5530,-130.0052,-83.4448,-93.1002,152.1830,180.8777,-134.4385,-43.7123,142.1983,-15.8748
-3609.3750,5.4081,-150.1339,-119.4055,-220.4419,-115.6174,-225.6800,139.2022,115.0410,281.3335,272.0423,-75.6102,-60.4653,-122.3454,-22.4854,184.8089,139.8882,-175.4681,-82.8610,137.5076,-55.0416
-3601.5625,-69.4633,-153.5850,-88.1969,-188.7930,-84.4441,-194.5479,205.4640,71.3642,420.3193,264.8960,-154.2723,6.4761,-127.8525,-66.4654,176.8595,132.3215,-154.7090,-122.6217,96.2236,-23.8138
-3593.7500,-118.3461,-201.0593,-101.9976,-202.1666,-98.2821,-208.4301,152.7452,91.6926,329.3480,211.7699,-94.9420,28.4283,-67.3729,29.5615,160.9366,153.7672,-173.3794,-30.3933,80.9403,-37.5902
-3585.9375,-51.5334,-135.8501,-32.1046,-171.8637,8.5759,-176.6349,146.7494,49.7258,175.1116,94.3637,-24.9239,-13.9128,-34.2073,-49.7012,117.7361,110.9252,-108.7289,0.5234,5.3571,-41.6755
-3578.1250,-4.5335,-88.4580,-20.0147,-89.3849,-16.3749,-128.6554,82.9763,-14.0365,74.1137,68.1846,24.2807,-3.0475,-21.8529,-1.7616,90.7615,84.3028,-63.4181,12.6204,-55.0262,-29.5669
-3570.3125,22.1950,-131.3526,-28.1830,-97.1851,-61.5857,-99.9463,-0.0251,-24.0414,135.9077,-16.2181,16.2285,24.5772,-29.7610,61.9372,80.5659,111.4530,-77.1866,4.4575,-28.6495,-37.7154
-3562.5000,-65.5892,-147.7830,27.1378,-113.5170,-6.3051,-7.7564,53.5012,-44.5291,188.2533,-0.0925,-113.3372,41.7093,-48.1763,79.1353,133.9014,91.1200,-63.0559,-47.2212,-11.7647,-19.3700
-3554.6875,-83.0890,-94.9367,-27.2475,-130.5719,-23.7322,-25.2881,34.3526,-26.7137,204.9443,54.3591,-202.6155,96.1463,-102.3018,171.6378,114.5614,109.1011,-93.6889,-64.6148,4.4297,-36.7296
-3546.8750,42.4467,-74.0630,-5.5915,-110.6029,-39.1197,-40.7905,17.2726,-43.8399,149.7285,36.8761,-108.8555,116.6435,-80.3943,118.2040,60.2975,129.1516,-78.6543,-115.9686,-47.3187,-52.0472
-3539.0625,70.3807,-81.8098,-51.5427,-117.2617,-85.1198,-12.9117,6.6213,-54.5633,100.9582,25.8146,-43.7056,143.5531,-52.1024,108.1744,50.4617,155.6159,-101.2165,-122.9383,-56.6618,-23.9712
-3531.2500,-24.5907,-141.4850,-76.4053,-141.8450,-110.0369,-0.9519,53.0869,-7.1801,184.3372,35.8786,-68.4623,80.5713,-76.7263,156.2527,133.7502,55.1978,-123.1729,-41.8205,-46.8956,-48.8018
-3523.4375,-89.4787,-100.0920,-33.1753,-64.3529,-66.8629,5.0974,168.6699,-39.6818,187.8625,40.0761,-99.1293,48.6869,-70.2582,50.4356,138.1636,-13.1061,-62.2071,-0.6187,-42.0161,-42.5430
-3515.6250,-121.6912,-97.0241,6.7505,-61.1818,-26.9947,-29.1607,95.9774,-38.4726,41.1338,40.9992,-133.1114,50.5032,-67.1028,89.3266,102.3012,25.3037,-37.0448,72.2663,29.5728,-39.5918
-3507.8125,-73.3194,-13.3868,57.2621,-48.4414,23.4579,-51.8316,71.9077,11.3495,-57.9467,-20.4538,-118.5069,26.9302,-52.3622,65.8317,41.0691,1.3292,-1.1450,49.7401,40.7695,-62.0502
-3500.0000,-36.5506,23.6248,57.1609,-46.3303,24.3001,-52.1175,70.2663,-27.4173,-97.5812,-22.4854,-81.5146,26.7697,-52.2352,64.7411,40.2690,36.7759,4.0376,16.5929,6.3681,-25.1170
-3492.1875,-54.3457,6.0650,-33.5031,-63.7945,-30.4220,-106.9721,88.0919,-9.7265,-43.7152,-5.0412,-25.0846,118.0720,-32.6717,83.1089,56.9435,17.6903,-51.8757,68.8822,-47.5737,-42.7423
-3484.3750,-86.4571,-24.8187,7.5252,-24.5865,10.5431,-140.1437,164.6399,-44.3225,31.8952,70.1265,-57.9652,121.0813,-28.4241,-23.8131,96.3402,-16.6798,-25.7500,37.8592,-44.8041,-38.6786
-3476.5625,-65.6319,-3.7730,-8.5049,-3.4494,-5.5516,-155.3829,147.1634,-61.9595,13.4952,53.2669,-110.9078,104.0506,-81.2398,33.2206,115.7122,2.9148,-17.0600,23.7696,-61.0736,-17.6730
-3468.7500,23.2740,49.3462,11.5539,49.7608,-22.5587,-136.5380,91.8101,-80.4821,-42.7634,-39.4644,-90.7607,123.1280,-97.9711,51.3617,97.2111,-15.3781,19.2521,6.7720,-79.2307,-34.5781
-3460.9375,-24.7917,71.4868,33.6533,36.9996,-0.5264,-40.6612,75.5357,-96.9382,14.0749,-56.1194,-105.5804,107.2613,-75.6665,36.5541,44.7926,5.3970,24.4631,-41.1892,-93.3272,-12.4425
-3453.1250,-76.8289,20.6529,-19.2105,21.2598,-53.4546,-19.7520,22.3368,-40.3348,69.0145,-36.7017,-84.3707,90.4510,-91.3258,129.8100,63.4572,25.2445,-16.3509,-22.1136,-75.3661,-28.2660
-3445.3125,-29.6795,-3.0120,29.1132,-2.3078,-5.1965,101.3405,-4.6359,-30.5171,-31.8014,-101.0565,-35.9691,63.8520,-42.7984,103.2803,37.3478,-1.6888,2.5159,-45.8545,-100.1968,-16.9018
-3437.5000,-14.7400,-22.9007,7.2278,-22.1033,-27.1484,116.2202,-27.7786,-53.8929,-164.7772,-87.5879,-20.7801,115.0680,-27.4806,154.5573,14.0641,49.1972,-16.0995,-30.8155,-86.2193,-1.7465
-3429.6875,-1.0705,-9.0620,-13.9196,-43.1681,-48.3593,94.8384,-50.1481,-39.5069,-151.9657,-110.3487,32.1395,130.0466,-11.4332,169.5961,28.5573,26.8457,-33.4165,17.9688,-108.4824,-22.8533
-3421.8750,65.4320,57.6037,17.7742,23.5972,-53.7299,126.2986,-56.6411,-83.2598,-86.2561,-152.2437,-10.1072,123.8793,-16.5531,126.4883,-15.0656,20.3521,21.5009,-20.4055,-182.8830,8.8772
-3414.0625,170.3612,91.6941,-20.0936,57.7867,-54.6629,52.1986,-131.6564,-121.5498,-125.0471,-154.6637,26.0808,196.1715,-17.2391,198.8393,-91.2110,-55.6706,22.2136,-21.3483,-184.8196,8.0460
-3406.2500,134.6223,92.1072,54.3749,58.2985,19.7397,15.4365,-96.2999,-122.4752,-162.4409,-119.7149,26.6093,195.8212,20.4105,161.5547,-91.9773,-129.3324,51.5491,-20.9508,-185.3940,8.5508
-3398.4375,-17.8236,45.7968,41.1369,47.0860,43.4311,-35.0300,-73.6184,-100.0899,-140.4881,-61.4400,13.4197,144.7779,44.3411,147.5766,-69.4149,3.3239,29.5559,2.7259,-162.6602,32.3448
-3390.6250,33.4203,-8.8402,21.5813,-7.4498,-13.1917,-54.8114,-94.2150,-84.9929,-52.7918,-45.4304,30.9128,124.4426,24.9537,164.3097,-53.1271,92.6992,-6.2528,18.0897,-183.2173,12.8248
-3382.8125,122.1972,80.0468,3.5702,46.5340,5.7254,-73.0572,-39.2395,-103.3299,-72.4980,-136.8396,12.9388,179.6696,44.0982,72.5966,-35.2636,0.6439,26.1426,1.9873,-200.2150,31.8409
-3375.0000,91.6028,190.5651,-28.8010,121.1447,-26.7181,-104.6718,-35.5887,-136.0051,-178.5075,-207.5720,54.5968,220.5623,48.8780,112.5408,5.2746,-141.7507,53.1592,76.5183,-161.5499,36.4962
-3367.1875,66.4869,200.5612,20.3137,131.2287,22.3238,-129.8008,12.5795,-126.1645,-167.9743,-159.7776,66.7486,157.9632,61.1431,13.9960,16.3415,-204.6344,75.6437,51.5436,-82.3719,11.6368
-3359.3750,-19.2478,149.9304,40.8169,151.6887,42.7577,-73.5455,32.1791,-70.9050,-77.0001,-31.5538,-23.7148,67.7708,7.7922,-40.1466,-38.1645,-148.0932,91.1116,1.9513,8.2180,32.1649
-3351.5625,-80.0430,19.2202,-21.7404,56.0722,17.1268,-25.3545,5.7533,13.3167,43.9619,52.6385,-49.2464,4.5363,-17.6238,7.6717,9.3074,-102.5760,13.1437,11.3035,51.7671,6.6317
-3343.7500,-59.8437,4.4893,-1.3073,76.4304,37.4822,68.8195,25.3491,32.5556,98.9585,71.8503,-65.7952,-49.6854,-34.0538,-46.5019,-8.1957,-192.0433,42.7339,-3.3523,71.3264,27.0839
-3335.9375,-27.8531,1.5422,-41.0872,73.5714,-39.3680,101.7812,-15.2371,65.6088,94.7935,103.8936,-68.5649,-90.0975,-73.7051,-49.8668,-11.8775,-122.6948,32.3841,28.7734,102.6928,24.3221
-3328.1250,-95.4795,3.9706,-36.4774,41.0870,2.1714,106.1335,25.5971,105.0791,135.0655,107.3556,-100.9487,-123.1012,-68.9712,-119.8165,28.8643,-119.9355,23.5805,66.2905,140.4688,-8.0552
-3320.3125,-171.9201,-2.4185,-7.6710,34.7841,30.9035,171.6796,53.6466,132.7616,162.5767,62.0388,-108.1400,-166.8936,-77.0490,-127.5595,56.8284,-91.9708,34.9705,59.9872,168.4536,20.7548
-3312.5000,-117.7789,-54.2253,-23.2804,19.0587,-21.7803,155.8155,-36.6858,153.0560,108.7377,81.3464,-50.7431,-183.0676,-55.5431,-33.6927,40.4179,-71.3937,18.5030,114.2666,152.0503,5.1514
-3304.6875,-22.5036,-64.9120,3.2430,43.4597,41.6688,145.0939,26.1562,141.5188,97.0970,106.8307,-61.2172,-158.0820,-65.9086,-154.6673,-7.8150,-82.6400,41.4963,33.6811,140.8113,-5.3168
-3296.8750,-86.0418,13.5814,-26.0485,16.0361,49.3030,78.5636,33.2246,111.1985,66.7025,113.5361,-90.5100,-77.8886,-95.0934,-111.4352,36.1778,-1.6653,14.5931,41.2757,111.7854,2.4022
-3289.0625,-76.5980,-11.9419,-14.3520,-9.4090,23.9214,17.0240,43.3104,121.8905,77.3531,124.2577,-41.8225,-103.6843,-46.2906,-63.1854,46.1911,45.3256,-7.7367,15.8606,85.7715,-22.8925
-3281.2500,-88.1685,-23.4852,9.3324,14.1245,47.5318,3.4754,66.4171,107.5988,63.0403,146.9949,-18.1470,-117.4654,14.4961,-113.9258,33.2285,68.3285,9.3186,4.4286,73.7698,0.7989
-3273.4375,-102.3519,-37.6508,-41.5942,0.0346,33.5314,-10.6808,51.9456,129.7207,12.1686,169.1564,-32.0900,-131.8346,0.6639,-54.2512,54.6907,53.7483,-18.2163,25.3809,94.1739,-13.1224
-3265.6250,-76.1975,-11.4841,-13.1849,-8.7243,-12.1328,17.4986,116.8385,120.2109,38.6882,122.6927,-77.7009,-66.8450,-7.8365,-100.2149,82.5281,-28.4684,-10.9867,-18.3283,84.9380,-21.7099
-3257.8125,-78.3601,56.3643,-91.0833,-10.8028,-53.1043,-23.6336,149.4558,78.4143,34.9474,44.9524,-44.6269,39.8559,-11.6525,-67.4797,78.0890,4.0348,-53.2905,-91.3535,47.4147,11.3892
-3250.0000,-28.8361,104.8982,-148.2973,-32.2083,-111.3909,-45.0812,90.7890,56.3347,12.9413,-51.0651,45.1315,54.2677,41.2158,-15.0347,93.3728,19.2535,-89.1345,-77.6876,60.6036,-9.8257
-3242.1875,-48.8176,50.9109,-132.0229,-16.1367,-95.1887,44.9560,106.6458,71.7760,-8.5267,-35.5560,61.3785,-2.8132,20.5686,0.9126,72.1793,70.9760,-76.3206,-96.5376,76.3049,6.4456
-3234.3750,-173.2126,-39.4943,-116.1649,-36.4808,-78.4023,97.5812,86.1211,87.8299,-29.3540,53.5788,4.2096,13.7200,0.5051,90.4649,51.6110,124.3167,-95.2942,-81.8003,126.6141,-13.6939
-3226.5625,-125.9674,-61.2711,-63.6735,-58.1944,-25.9859,186.8484,64.2602,102.5499,-14.4877,31.3808,-54.3255,27.9090,-20.9248,105.6797,-6.2826,102.3291,-75.5431,-103.4260,104.5882,-35.1984
-3218.7500,-68.7377,-39.0714,-4.1933,-35.9292,-3.5800,172.1093,-23.5777,87.2879,-29.5843,17.2054,-31.8788,50.1055,-35.3734,53.9048,-58.1541,50.3609,-25.4625,-45.0669,55.5790,-12.7162
-3210.9375,-90.2290,-25.5890,11.5739,-22.3867,12.1174,150.6625,-119.0909,65.3419,21.6497,-4.6457,-16.1485,28.6114,-56.5385,69.4459,-79.7098,65.7022,-12.0534,3.5831,68.8844,-33.9492
-3203.1250,-63.4840,-33.8665,38.5818,-30.6095,39.0564,103.4616,-55.3378,54.6618,85.1593,21.7652,-26.1769,19.3800,-29.4663,-13.7550,-52.9966,92.2984,-0.6454,-4.5300,25.4468,-6.9478
-3195.3125,-11.2498,-88.6543,-18.9207,-85.3404,-18.5143,9.7599,-76.0742,70.4884,28.2003,-36.3057,100.2734,35.6603,24.0919,2.5467,0.2337,182.4059,-58.9007,11.8467,6.5185,9.5406
-3187.5000,76.0792,-71.3650,-36.3355,-102.9885,-35.9964,-44.8443,-56.6984,52.4353,-63.6261,-54.2569,156.8042,54.0461,79.7345,21.9607,-17.4173,127.6263,-70.9602,29.3151,-11.3023,-7.8858
-3179.6875,24.2018,17.7148,-17.9607,-84.8552,19.3121,-26.6526,-1.5052,-2.8033,-119.6187,0.6096,101.1215,36.2393,62.1636,40.1770,-36.2482,35.6575,-48.1222,-22.4301,6.6860,10.4748
-3171.8750,32.3640,-9.1684,-44.5504,-76.6905,-7.3469,-90.4230,-28.2453,7.0223,-109.5286,46.5504,74.4790,45.4971,71.6248,86.4569,-63.0098,8.7526,-63.9155,-14.1428,49.7331,-16.1278
-3164.0625,41.0636,-0.5204,1.3969,-31.9926,1.5320,-118.6538,17.5783,-21.5867,-26.8550,-17.9407,47.3782,91.3130,80.6239,-14.7023,-17.2012,17.4167,-25.0039,-5.3181,-11.6639,-7.1962
-3156.2500,7.9009,36.2665,-33.5191,4.8387,-33.4513,-116.7374,19.5648,-57.0304,11.9972,-53.2645,85.4116,130.2867,46.7606,-12.7049,-15.2271,55.2455,-29.1429,-3.3556,-44.8977,-5.1266
-3148.4375,87.9265,46.2398,-21.2437,49.8545,-21.2460,-67.6266,-42.2354,-45.2545,-49.9262,-78.3706,97.6258,68.4687,58.0820,-0.4924,-40.0411,-5.7143,10.5724,41.8026,-69.9217,-29.8722
-3140.6250,89.2449,47.5041,15.3278,121.1593,-21.7398,78.7793,-79.7183,-83.1621,-124.5213,-79.1588,97.1217,31.9594,58.6849,-0.9800,-77.5393,-6.3665,58.7592,-26.7537,-69.6353,6.6676
-3132.8125,-41.6880,21.5078,-10.3646,60.2016,-47.4964,126.9283,-105.4368,-35.3057,-113.3374,-68.1742,71.3468,6.2102,33.0170,120.2874,-66.2708,77.7403,8.5189,-17.5653,10.4128,-19.0556
-3125.0000,-83.8328,-19.7094,20.7299,-15.9714,-53.4649,194.8750,-0.3445,-4.6270,27.6753,-74.3701,-7.6441,0.2637,-9.8670,77.3602,1.8147,71.6641,-17.6688,-94.5815,39.2766,-24.9949
-3117.1875,-75.4426,-11.3893,-46.6348,-43.6053,-119.8914,127.3735,6.3121,1.6203,108.2662,42.9994,-38.1007,116.8700,-77.2129,83.9886,45.4668,5.1510,-70.5217,-191.0590,47.7028,18.6036
-3109.3750,18.0811,11.0742,-95.8639,-56.0974,-168.1811,-31.9772,-5.8732,-10.9656,170.0290,103.5321,-13.4168,141.6347,-89.4223,35.7781,69.2832,-7.2048,-99.8878,-203.3958,70.2894,6.3384
-3101.5625,11.8457,4.7817,-66.8499,-97.3513,-103.2303,-77.0810,60.2069,-19.2886,162.0665,95.3237,-21.5001,96.6613,-60.3951,-46.1791,62.3673,58.6885,-89.5789,-138.4918,99.1399,35.3095
-3093.7500,-31.5462,-73.6754,0.0020,-138.7680,-37.4403,-120.3394,-57.8496,10.2533,80.9764,87.9836,8.2519,89.5520,-30.5326,20.7190,-18.6831,161.4443,-82.5733,-41.7482,126.8527,28.1192
-3085.9375,-8.5500,-86.7449,61.2440,-117.7989,60.7448,-97.2077,-70.4952,-2.7880,32.3058,39.0635,32.3991,76.8510,30.7173,8.0240,-68.3242,111.6181,-42.2745,-18.6130,78.9720,15.3120
-3078.1250,0.6817,-42.5681,70.7269,-73.5891,33.1723,-87.8276,-97.8794,-30.5696,77.9125,11.4100,-32.2152,123.4088,3.2095,17.5827,-95.7058,121.0569,-9.4889,25.7574,18.3484,24.7424
-3070.3125,12.1092,-101.1992,10.3959,-97.1929,9.7871,-111.2537,-47.0540,-17.1351,91.7445,-49.0322,-55.6419,63.1741,-20.1147,31.3551,-7.8719,134.7053,-41.1370,72.3194,64.9342,1.3595
-3062.5000,54.0864,-59.2915,54.6049,-55.2562,16.9435,-67.1319,34.3306,-10.1346,-10.8566,-41.9098,-11.5306,34.4968,-12.9011,1.6837,-0.4807,31.9132,2.6018,44.4234,2.0794,8.5136
-3054.6875,43.7539,71.3104,7.5054,40.3727,-30.2033,-114.3111,-12.5787,-94.4171,-57.7521,-52.0719,15.2700,60.5278,14.0056,28.7193,26.6184,-52.1725,25.3391,69.2171,-8.0614,-1.6442
-3046.8750,-11.5451,85.9537,24.4482,55.0409,-13.3064,-97.4442,40.5641,-77.6320,69.4229,-72.1683,-78.8930,40.6136,-43.0476,-28.1877,79.7754,1.8025,38.1936,49.0585,6.8585,-21.7669
-3039.0625,-133.5081,34.9376,6.7359,39.0514,5.9371,-41.2287,134.0689,-58.4770,162.9780,-52.9007,-168.7210,24.0487,-97.7619,-8.7466,99.2924,94.1365,14.5869,-1.7532,26.1339,-2.5518
-3031.2500,-56.6251,5.7683,-59.1444,9.9032,-59.9819,3.8342,105.4298,-50.4575,97.3994,-44.7710,-88.7073,31.3391,-89.6384,72.5523,107.6672,65.3356,-32.8826,-30.7192,-2.7333,-31.5004
-3023.4375,124.8072,46.1495,-90.4819,15.2994,-91.3565,82.4475,111.3455,-44.8709,66.3776,-76.0844,-9.1526,1.1872,-46.9739,5.4080,76.5984,-1.9132,-33.1625,-131.1439,2.9559,-25.9134
-3015.6250,97.6838,-15.0199,-154.3738,-45.8568,-119.2877,54.5137,46.7178,1.1776,75.8140,-29.9349,-0.1540,10.4996,-37.8697,50.7189,85.9840,7.2809,-93.7592,-122.1283,82.0999,-16.8882
-3007.8125,44.1031,-68.6489,-99.7300,-64.4674,-100.6778,73.1311,28.6440,55.7931,94.8092,24.7746,-18.6175,-44.6301,-19.2277,32.5941,30.9290,62.0342,-83.9227,-105.5670,99.7999,-35.3268
-3000.0000,-32.2796,-76.0820,-33.8912,-0.8877,-34.8709,138.9513,-15.2209,47.6193,14.0256,-19.3008,10.1087,-15.5586,9.6039,25.6695,-49.9195,17.9981,-24.2104,-40.8157,92.7071,-6.5776
-2992.1875,-20.4741,6.6823,17.1363,10.8910,16.1262,78.9715,-184.8803,24.6570,-156.5366,-5.1643,60.0220,34.7189,59.6262,75.9496,-109.5610,-4.8343,8.5350,41.1343,34.8261,-29.6394
-2984.3750,42.0793,34.2003,82.9086,38.4139,118.8660,71.7402,-155.7901,17.4619,-163.3374,-12.2718,52.6749,-8.2534,52.3879,31.9786,-153.4477,-11.9112,56.8823,-1.1684,-42.2950,-36.9637
-2976.5625,50.4800,7.5641,18.5250,-23.2157,53.4517,43.3643,-109.8482,26.1329,-43.2826,32.4751,25.1704,0.6308,24.9882,77.8590,-107.4850,-3.1339,-2.2532,-27.6318,-33.5497,-28.4474
-2968.7500,56.2223,13.2678,-47.5207,-17.5075,24.3769,-58.6624,-27.5573,34.1710,75.1360,77.5852,-3.9936,7.8689,-4.0713,12.0960,-25.1644,4.0065,-32.2937,-21.7470,-27.4443,-57.5927
-2960.9375,13.2091,40.2223,-20.3213,9.4495,15.5489,-68.4445,72.9967,24.4756,102.8208,67.9612,-87.9216,-0.6363,-13.8911,-107.4194,38.4129,31.4011,0.9636,5.3780,-0.0874,-30.5003
-2953.1250,-45.7119,16.2792,-44.0293,20.5067,27.8192,-92.1269,86.6530,0.8897,42.6185,81.4462,-74.7582,-24.0416,-37.6158,-19.8324,89.0939,44.9011,-10.8772,51.6020,11.3721,-54.3187
-2945.3125,9.7119,36.6761,-21.3882,40.9095,50.4365,-32.4571,109.6558,23.6694,28.7690,30.2923,-15.2468,-112.0949,-15.0006,-70.8908,75.1263,-79.2455,23.2619,73.1776,-37.8103,-68.7992
-2937.5000,-23.7589,38.1737,15.3436,77.4073,14.1501,4.3140,72.7613,23.5634,29.0281,-5.7480,-52.6419,-112.0477,-52.2922,-70.8499,38.2587,-153.2860,67.8183,144.8431,-35.8895,-32.1888
-2929.6875,64.7675,56.6789,35.0690,60.9032,33.8591,61.0776,-16.1360,44.4705,-22.7134,-95.7799,-69.0445,-16.9972,-68.5916,-12.8071,-13.6103,-169.3218,70.2404,93.5125,-51.9629,-48.5883
-2921.8750,107.4835,99.3881,41.9959,103.6010,40.7675,105.0372,64.1673,-21.4099,-15.2492,-125.6080,-136.2503,-9.7441,-98.6948,-5.5706,29.7260,-88.1493,90.2146,-5.6253,-79.8349,-41.7977
-2914.0625,-15.4548,82.4465,-47.7351,86.6533,-48.9802,162.3451,84.8151,-37.9299,4.5760,-68.0728,-116.1110,-26.1365,-115.4531,51.0152,87.4117,5.3832,30.2544,12.5821,-26.3537,-58.6646
-2906.2500,-65.4321,-3.5495,10.4725,71.6531,-26.7875,183.6052,144.4108,20.5144,-45.6422,-82.5860,-94.0299,-40.5784,-56.2701,-0.4424,73.0541,-45.1358,39.6524,32.7423,29.0804,-73.5924
-2898.4375,-64.1118,32.7594,83.9780,107.9519,45.7049,184.1729,33.3168,20.2701,-192.5531,-119.7930,-94.6594,-3.7188,-19.7983,36.4002,-0.0035,-82.3556,97.1455,69.1920,-39.1777,-37.2298
-2890.6250,45.3482,73.2263,90.6232,147.4033,15.3425,189.8897,-143.6254,-9.8137,-222.3120,-186.8369,-14.1500,2.2876,-13.1840,154.3958,-103.9123,-112.4192,121.6836,109.7918,-104.2752,-67.7271
-2882.8125,26.1519,18.0333,143.6160,128.1965,105.3296,205.9598,-164.2162,-29.5295,-205.7195,-170.5140,37.7025,-54.3558,38.7689,59.7406,-161.4688,-59.1189,138.1290,125.7383,-88.0161,-51.8840
-2875.0000,-0.3436,-78.4624,115.3063,65.6888,77.0121,141.7327,-191.1102,-20.5318,-232.4230,-161.4829,83.2518,-8.2920,47.4142,68.7835,-152.3279,59.8868,86.6332,169.3778,-79.0507,-43.3469
-2867.1875,155.6637,-28.4480,95.4842,10.6782,131.1879,48.0021,-63.5063,-4.0233,-251.6214,-180.9538,26.2959,8.2844,27.5536,49.3338,-60.6842,-69.6201,78.1114,184.5155,-98.5854,-63.3178
-2859.3750,145.8716,66.7711,83.8553,35.8702,119.5547,-36.5304,35.3005,-51.3064,-225.6098,-118.2179,-58.4712,71.0634,-20.1150,38.0771,-34.8329,-117.9192,86.3501,139.8419,-72.9153,-38.0949
-2851.5625,-2.9269,23.9878,39.2199,28.0617,111.9128,-118.0646,65.1025,-58.5776,-196.5887,-88.4752,-29.2489,100.8368,-27.7910,67.8212,31.0183,-88.1984,37.7648,132.1722,-80.2402,-45.8776
-2843.7500,46.3236,3.2539,90.6337,7.3005,126.3178,-140.5491,116.9548,-43.7893,-145.5145,-110.6784,-14.9779,41.6599,23.5772,-27.3825,45.9206,-147.4258,59.7425,146.5508,-65.5128,-31.6181
-2835.9375,60.5698,17.5273,32.0435,-13.4551,103.7243,-126.0333,94.8074,-65.9914,-93.4335,-132.8697,-0.7113,56.4789,37.9403,-12.5917,24.8201,-168.6510,31.6419,160.9245,-15.7829,-17.3656
-2828.1250,73.5598,30.5525,46.1972,34.5428,81.8764,-73.7697,36.4040,-13.4326,-3.6064,-117.3052,50.3067,-37.9509,52.0540,-71.0473,3.4682,-190.1188,53.3639,104.0524,-37.3031,-39.3721
-2820.3125,-16.5475,10.4850,23.2508,49.4464,21.9337,13.4014,13.8996,0.0346,83.1103,-66.8453,64.2243,-98.4781,29.0706,-57.6055,54.0085,-175.6932,41.4447,48.0828,-21.9256,10.5143
-2812.5000,-31.6009,-110.5166,-65.6449,-0.5897,-66.9527,35.6267,36.4411,58.5567,105.8548,-7.3398,12.1848,-112.9481,14.1330,38.8880,112.5912,-81.2355,-32.9329,33.1703,33.5036,-4.5555
-2804.6875,10.5481,-138.3111,-56.3451,-63.4241,-20.6420,81.0509,119.1763,68.2895,78.7941,112.3634,-52.6556,-103.2207,-13.6099,11.5815,85.3722,-34.5704,-55.6361,-29.5437,76.1402,-32.4326
-2796.8750,-8.0614,-86.8630,-39.7997,-47.0104,-4.0839,60.7274,62.1589,48.2827,22.9894,55.3292,-36.2426,-12.2500,-34.1082,28.5167,-7.5951,-54.6365,-43.5520,-48.0129,93.0341,-16.0632
-2789.0625,-61.0249,36.2358,16.3884,5.0562,15.1185,43.0576,-28.2144,30.9407,5.8372,-35.0454,-17.1828,-29.6356,-14.9607,11.1022,-24.9176,-146.0562,11.0733,4.1712,111.5859,-34.0500
-2781.2500,-66.4388,31.8968,47.1272,35.6795,45.8693,73.9449,2.9561,62.1556,73.2295,-3.8683,-60.5760,-72.4698,-58.2632,-68.7663,-30.6997,-150.9335,52.3992,34.9050,106.6881,-3.4925
-2773.4375,-56.6543,-64.2314,-15.9387,9.5082,19.8248,48.0301,14.3223,110.5754,121.8179,80.5163,-86.7776,-61.1046,-84.3712,-20.4368,-19.2857,-66.6088,-1.1057,8.8371,116.9925,-29.7385
-2765.6250,-60.9072,-68.4102,-20.0595,-29.7153,15.7271,8.0628,83.6337,143.9610,228.3555,113.8578,-128.0339,-101.7905,-88.5389,-98.1598,87.0740,-33.3326,-22.1740,-30.2829,113.2521,-34.0418
-2757.8125,-136.3003,-2.7357,-63.3349,-34.0834,-27.5237,-35.0493,151.7902,101.2085,259.7423,108.0602,-169.4446,-70.6277,-130.8620,-104.0433,155.2791,-2.2011,-46.1672,-70.5620,108.3597,-3.4983
-2750.0000,-117.6987,-19.0540,-116.6188,-15.4497,-80.7814,-88.1679,135.9375,122.4597,281.1315,92.2693,-149.8519,-86.4665,-111.1867,-45.9220,139.4793,18.9395,-71.4027,-86.8429,163.4685,-19.9578
-2742.1875,-103.6954,-39.9618,-65.5002,-1.4109,-66.6388,-110.8900,113.4787,100.1177,332.9145,180.8767,-135.8597,-108.9115,-97.1093,-105.4084,117.0739,69.4809,-48.4959,-107.7186,142.9778,-6.0205
-2734.3750,-114.8887,-51.0575,-113.5770,-12.5652,-77.6942,-121.8141,29.8152,126.5796,322.4849,207.2836,-37.0665,-82.5537,-71.2320,-79.0972,69.4602,22.8205,-75.8920,-47.7912,96.2814,-17.2847
-2726.5625,-60.4700,-32.5508,-93.0556,5.8847,-20.1539,-101.1391,13.7403,110.6504,269.6353,117.2871,56.3372,-98.6037,23.2507,-95.1836,17.4354,-30.2327,-58.3711,-64.2594,45.1802,-33.9527
-2718.7500,-31.3905,31.6102,-26.8877,34.9913,-27.9618,-71.8129,-30.6942,66.3740,189.4216,72.9469,49.3959,-69.0056,52.3832,-102.6270,-63.9488,-0.6305,-13.8538,-106.0782,4.7222,-4.9721
-2710.9375,23.9373,17.0319,-41.4705,-14.6429,-42.5192,-86.2408,-81.8898,52.3489,101.4533,95.8577,34.7049,-46.1494,37.7645,-42.8252,-41.0899,58.2140,-42.8304,-120.6416,-9.4905,-19.7440
-2703.1250,76.5203,-0.2826,13.1992,-32.0186,12.1773,-31.4199,-63.8398,34.5777,46.7259,77.0106,15.2674,-28.0434,55.3980,-61.7792,-59.9890,76.3036,-19.4250,-137.9462,-26.4627,-2.2689
-2695.3125,61.3031,-51.3811,-40.9261,-48.1835,-41.9200,-11.4022,-116.5959,18.0005,67.1910,61.3613,72.0321,-44.7436,38.2358,-4.5409,-39.6941,96.5983,-49.9473,-83.0472,28.7576,17.4056
-2687.5000,74.5842,-72.9686,-62.5480,-69.8390,-63.5126,-32.8853,-101.8639,69.9230,82.1389,76.2041,86.3012,-65.9480,53.5766,-62.8006,-23.9071,75.3884,-68.7818,-69.6350,77.4756,-4.4220
-2679.6875,11.1215,-30.2983,-55.9117,-27.2345,-19.8459,-26.1111,-20.8896,41.0992,53.3237,157.2932,56.8179,-58.9099,23.1674,-128.8232,-53.8813,119.4283,-47.8338,-97.9700,49.4453,1.9992
-2671.8750,-21.5440,7.1705,-51.4730,-24.8290,-52.3756,-58.5315,-53.1250,82.0807,-15.7031,199.1801,60.1341,-91.0738,-9.4437,-51.0454,-12.0653,87.2698,-46.5911,-59.5000,52.2224,-30.7786
-2664.0625,-21.8545,41.9884,-14.6847,9.9278,-15.5507,15.4002,-16.0196,119.4219,-15.3910,125.4193,23.7969,-90.8932,-9.7060,-87.9206,-11.9044,14.4596,-9.7851,-95.6781,87.3573,-31.2084
-2656.2500,-60.2608,39.7116,-55.9979,7.5889,-56.8299,11.2368,-20.0207,115.6715,-19.1835,121.5635,-17.6409,-20.8153,-51.0703,-54.9038,21.1501,10.5544,-30.2679,-97.9590,85.3954,1.2628
-2648.4375,29.0811,-11.8045,-72.5646,-43.9905,-73.3618,-5.1778,-36.2806,136.6730,-72.2368,68.4565,39.6804,-36.9885,-30.6848,2.8644,41.9499,31.3864,-59.0203,-79.4798,69.1843,-15.5169
-2640.6250,59.4745,-16.2567,-42.0738,-84.5110,-79.8350,-11.5443,-5.4920,130.7257,-41.2439,63.3977,33.0526,-43.1136,36.7500,-40.3285,-1.2057,62.2584,-62.4973,-118.9485,65.0159,14.7521
-2632.8125,11.6182,6.0540,-91.8340,-62.2734,-92.5546,-24.1678,-17.9602,81.5278,-53.5100,14.0894,57.1749,18.5043,60.9369,21.2202,-13.6179,85.8889,-82.7925,-96.6622,52.5926,1.7728
-2625.0000,48.0205,7.6173,-53.3445,-60.7809,-54.0233,-22.5439,20.8119,83.5878,-51.5383,-20.9677,21.5518,20.3659,62.3768,-13.9850,25.2102,87.7745,-58.9001,-95.1203,19.4150,3.0424
-2617.1875,-6.1729,-11.4175,-74.4558,-44.8875,-38.0880,-6.5195,36.9851,64.0508,-72.1718,-4.6202,0.3293,36.6204,41.2155,39.2014,41.4355,141.0610,-63.7569,-79.1804,0.6359,18.7142
-2609.3750,-71.6173,-40.6911,-29.8196,-3.2415,6.5959,38.2458,44.9002,35.2649,-101.0661,3.4762,7.8634,-29.3722,48.8052,83.1351,49.4025,112.1044,-30.3219,-37.4905,-28.4000,-10.8631
-2601.5625,-56.9005,44.1977,-15.0308,81.5619,21.4295,163.1530,22.9543,13.6270,-85.8241,-18.2816,22.5594,-14.2189,26.5509,25.2057,-9.4915,-19.7019,26.7031,-58.6460,-84.2996,3.7116
-2593.7500,-37.0167,98.2508,-68.0873,100.5323,5.4107,147.2115,-66.8587,-1.8652,-173.4519,-70.8996,79.4116,80.0785,47.4509,46.4226,-99.2567,1.6399,15.1101,-3.6448,-65.0611,-12.5594
-2585.9375,60.7335,91.1788,-1.2897,93.3764,35.2388,103.1245,-110.8433,-8.5129,-254.2503,-77.6787,109.1197,110.2153,76.2048,-34.5148,-142.1897,67.8175,46.2378,24.2238,-71.9820,-19.9804
-2578.1250,89.7004,85.3243,27.7119,87.4367,64.2753,95.2457,-117.6423,-52.9628,-224.8739,-48.2578,65.0374,102.5449,69.1624,-42.2648,-185.9414,-12.8119,69.6490,53.2909,-42.7051,8.8024
-2570.3125,67.9649,98.7681,43.0131,100.7982,78.6120,73.6707,-175.1525,-37.1079,-136.2115,-32.5295,6.2605,45.1706,47.4193,10.2839,-170.3966,-108.1372,84.1714,66.6600,6.8726,-13.1114
-2562.5000,-6.9808,24.0062,109.1178,60.9567,108.7526,103.8993,-144.8623,-43.4407,-69.7480,-38.9940,-0.7228,1.5843,40.4716,3.6271,-177.0515,-3.6585,79.8895,-8.1692,37.2583,16.7784
-2554.6875,-73.2846,-77.1020,40.8745,-4.2320,40.5495,35.7799,-176.9231,-1.1247,-64.6309,40.1932,77.9399,43.6421,8.1755,82.6092,-135.0615,75.4687,-2.6261,-3.3482,42.2970,21.3242
-2546.8750,10.8108,-27.8066,56.0293,-26.0179,18.7529,-22.9411,-161.5887,14.5978,-49.1292,128.7704,92.0104,59.0941,23.2850,23.9883,-156.6766,16.9906,-2.5710,-25.1193,-14.2613,-0.7274
-2539.0625,67.9090,99.4957,41.1939,-3.7977,40.9626,-110.6642,-176.2552,0.3187,-63.6432,151.3411,41.0885,81.5363,45.4002,-27.6478,-171.2929,2.5067,17.0255,-38.8828,-62.8204,21.2274
-2531.2500,117.9053,79.7042,58.2560,11.3242,21.0740,-130.4902,-196.0271,-19.0592,-46.2622,131.8121,21.0698,61.8754,25.4203,26.6118,-154.0111,-17.0914,31.0157,-22.7392,-82.4775,1.0881
-2523.4375,95.2104,57.2146,106.6190,-11.2492,70.4868,-118.0234,-110.5046,-43.1366,-33.5864,107.5911,-40.6460,37.5110,37.7373,2.1707,-105.4351,-4.3927,47.5326,-10.2926,-69.8366,13.2506
-2515.6250,76.1224,3.3320,49.5847,-31.2161,12.5067,-101.9622,-130.3859,-26.6157,-126.3177,123.9720,12.2429,53.7410,53.6568,55.3190,-89.2711,48.9161,7.0965,5.7472,-88.6000,29.0168
-2507.8125,156.8339,48.2527,24.3532,-56.3805,-12.6742,-91.1107,-119.4708,-14.2968,-151.2599,63.1546,96.9405,28.7653,65.3828,30.2644,-78.3111,24.0352,-10.2844,-19.4160,-78.5714,3.5869
-2500.0000,142.9001,140.5356,9.4762,36.8092,-27.5003,-31.9173,-97.2113,-28.6322,-56.8574,85.6869,45.9985,-59.8642,13.4672,-21.4490,-92.0073,-27.4952,36.8418,-68.2381,-91.2029,25.5128
-2492.1875,96.7706,59.6338,-38.6005,25.8100,-75.5297,-5.9288,-108.1656,-2.1767,6.3358,75.0145,-2.1331,-70.6903,-34.6443,41.6320,-66.9140,35.7705,4.3102,-44.2549,-32.0416,14.2442
-2484.3750,94.3497,-12.5594,33.0275,23.5221,-3.8504,65.7553,-37.4292,-4.0300,-32.7836,73.0340,-78.5655,-72.8198,-37.0510,2.4084,-69.1303,70.7290,32.5200,-81.5585,1.8131,11.6781
-2476.5625,-28.7201,5.6133,14.0180,6.5995,-22.8122,46.7928,-19.3481,14.4575,-51.5617,127.3911,-60.6486,-54.6030,-56.1106,-16.4778,-51.0025,89.0378,10.2501,-63.5098,55.0111,29.4683
-2468.7500,-87.7399,16.8396,-9.9379,-17.2664,-46.7242,22.8824,-6.2312,64.9921,-1.2995,140.7963,-10.6759,-41.3448,-43.1205,-3.3162,-0.8356,-8.6042,-20.3326,-52.4026,66.2624,5.3140
-2460.9375,-90.1581,84.6710,-14.2918,-20.5277,-51.0344,18.5800,26.4775,61.1335,31.5513,63.8055,-15.0993,-8.4972,-10.5288,-80.5624,-5.0774,-12.6527,-13.6805,-54.6926,29.1151,37.7632
-2453.1250,-19.9393,50.1578,-50.9975,-20.1303,-86.6924,-18.0637,-47.1677,24.9281,-4.9511,-9.5233,22.1238,28.9901,-10.2889,29.8340,-41.6736,24.9425,-30.8492,-19.3331,29.6272,37.8665
-2445.3125,57.9718,-13.6557,-43.9989,-13.0337,-79.6462,25.9956,-3.1105,32.4277,-34.7582,-39.1531,29.0414,-37.8306,33.6511,36.9251,2.4281,-4.7629,-22.0193,-47.2610,36.8358,44.6723
-2437.5000,-32.0028,-32.3625,-63.8963,3.1693,-136.4922,42.1499,13.0489,49.0244,18.5260,14.3116,8.0611,-21.5599,-24.3090,-20.8970,55.6236,11.6347,-28.9546,-31.0839,53.1372,60.5841
-2429.6875,6.0821,5.9862,-96.7449,-29.5725,-96.2855,-64.6520,54.2442,53.6667,22.8427,55.8234,12.1429,19.7550,-20.2127,-89.6721,22.8580,53.0844,-51.1620,7.1542,20.4838,27.5510
-2421.8750,18.5645,18.7315,-48.1877,-16.9143,-10.6771,-88.0534,66.8400,-7.2886,35.5489,31.7316,24.6324,32.4592,-7.7108,-113.0547,-1.5118,65.9350,-20.2492,19.7990,-37.7680,39.9221
-2414.0625,-20.8108,50.6295,-14.4763,50.9003,-13.9145,-91.3057,-47.4187,-47.1009,-41.5991,28.7883,58.2742,29.3090,25.9453,-44.2924,-77.7331,62.9353,26.7632,121.5954,-75.8729,36.4499
-2406.2500,22.9679,93.6806,69.3862,93.8678,69.9991,-45.4119,-74.5349,-73.7657,-140.6038,1.9905,68.0691,-34.6945,72.7524,-34.3802,-104.8127,-37.9100,91.8085,129.5477,-102.8377,9.1315
-2398.4375,40.9071,111.8914,123.4031,111.9914,124.0628,9.6273,-56.5051,-55.2878,-233.4700,20.3374,12.0280,-89.5523,90.7176,-16.3267,-122.7435,-56.6095,135.2121,112.6515,-154.6631,26.9700
-2390.6250,29.5970,30.8631,112.1715,65.8720,76.8817,35.4090,-139.7242,-29.0741,-280.5960,-27.5699,110.7483,-64.6552,115.4383,46.4774,-133.9318,6.4300,95.8166,136.5115,-165.7484,15.5629
-2382.8125,87.9339,19.4956,135.5957,89.4135,100.3561,95.8415,-116.2952,-78.2205,-294.0852,-76.8350,171.1187,-41.1103,138.8071,-77.0753,-147.4732,-6.8872,122.9692,125.0283,-212.1929,38.8106
-2375.0000,63.6787,30.5386,110.4332,100.3692,74.2394,69.6741,-142.4764,-102.9818,-283.1883,-138.7125,218.8885,-30.1721,149.5771,-30.2352,-99.6257,-68.8002,120.8723,206.9512,-271.2509,49.4664
-2367.1875,75.1275,77.2884,159.9761,77.0319,87.8240,46.2072,-92.9713,-126.0541,-196.6048,-161.8986,158.3656,-53.5362,126.0525,-16.6942,-87.0893,-128.0164,135.1570,183.5840,-259.6190,25.8269
-2359.3750,94.9320,97.3963,142.8762,132.0491,107.7652,66.0884,-73.1167,-142.7862,-139.6792,-141.7379,68.2016,-33.5512,72.8848,-33.8162,-103.2083,-107.8884,151.9961,97.5671,-204.6418,45.5435
-2351.5625,82.3433,85.1098,94.3770,84.6682,21.3065,16.5691,-85.6688,-117.9231,-43.1598,-116.9792,18.6398,-45.9732,23.3136,-9.3381,-79.7314,-11.1571,104.1793,85.1517,-147.0679,32.8677
-2343.7500,57.9148,95.9707,68.0280,60.4386,31.9934,-9.8011,-39.0739,-106.9154,4.5107,-70.0807,29.2336,-35.2529,-3.1040,-107.7141,-33.1087,-0.2730,77.4798,25.8909,-100.3440,43.3488
-2335.9375,40.6835,44.0383,48.8850,43.4159,12.8856,-64.9739,-57.2799,-88.7150,-14.6189,-15.9867,47.0272,-17.3382,14.6803,-53.9000,-15.2882,17.8083,52.8509,43.8367,-82.4256,61.0392
-2328.1250,61.0050,29.6606,71.3001,28.9444,-1.6610,-115.5972,-35.9382,-30.9739,-29.2118,-30.3490,106.3765,-31.8688,37.0183,-68.5470,7.0673,3.4425,51.8848,64.3411,-96.9716,46.2871
-2320.3125,54.8896,22.8478,63.2686,58.0310,-9.6626,-123.6795,29.9315,-73.6929,-0.2759,-73.1683,61.2846,-38.8532,28.9134,-112.6441,35.9649,32.6368,69.2346,93.3996,-103.9751,75.0918
-2312.5000,6.3337,10.5811,50.7869,45.6715,-22.1113,-136.2129,-19.6509,-85.8716,-48.8032,-85.4366,48.7438,58.7090,16.3617,-16.1949,-13.5872,20.3799,52.8479,151.0083,-116.4285,62.4536
-2304.6875,31.1227,70.6532,76.6550,69.6622,77.7930,-110.3933,6.1149,-96.6983,-132.9930,-96.3456,37.5622,47.6105,42.1673,-27.3873,-24.7963,-27.5282,76.7859,69.9712,-91.5314,51.1727
-2296.8750,0.6090,111.4274,45.2332,40.3553,83.3986,-104.8760,11.5737,-127.8287,-127.4849,-90.5588,43.0922,53.2078,47.6788,-21.8924,-19.3098,-21.7385,54.1888,75.6404,-51.9353,56.5978
-2289.0625,5.3487,45.4632,14.0657,9.3068,52.2615,-100.1087,54.2741,-85.7181,-85.7380,-121.5391,85.8743,22.0571,53.4408,20.8507,23.4169,-15.7066,13.0906,44.5681,-13.0950,25.2812
-2281.2500,-9.1079,32.3110,-1.2963,-4.9327,36.9289,-5.5444,75.7710,-63.8195,-28.2049,-99.7321,70.4554,6.7094,38.0039,-31.5997,44.9349,6.1142,2.0588,-4.6947,-26.4598,46.7699
-2273.4375,16.2365,56.9675,-48.8561,20.6300,-47.6027,57.8219,28.0733,-74.1284,-38.8768,-147.1330,59.8440,33.1579,-9.6271,68.7422,34.2530,-41.2751,-2.6756,20.8452,-2.0363,36.0650
-2265.6250,47.4842,53.5317,-52.5190,52.1010,-51.2344,91.0889,61.2721,-77.5462,-42.6626,-113.6432,19.1463,29.5055,-13.3538,27.9832,67.4663,-80.7681,10.2365,-18.7134,30.2856,32.2687
-2257.8125,-35.3141,42.0393,-65.2262,40.5235,-63.9153,77.3157,84.4149,-90.0221,17.4890,-90.2078,-31.5908,52.7992,-27.1214,14.1740,90.6259,-21.3139,-7.0069,-30.3161,53.5566,55.4282
-2250.0000,-75.9672,0.6961,-34.7834,-35.9040,-69.4394,34.6929,41.7159,-59.3578,48.8077,-95.6171,36.8152,10.2378,4.2604,82.5098,84.9382,-26.7142,-40.3369,-35.7718,82.9753,49.7456
-2242.1875,-30.3649,-58.3951,-24.0949,-60.0785,-22.7229,45.3162,52.2708,-48.4462,59.3934,-12.7751,10.4637,-16.0716,-22.1127,19.0822,58.5030,58.1229,-37.5234,-24.9662,58.6377,60.3205
-2234.3750,-76.4081,-139.1241,-35.0580,-70.8975,3.3489,-2.7150,41.1714,-23.1958,48.3221,50.4171,-0.5347,-27.0413,-33.1302,7.9944,47.4154,121.3041,-51.2924,35.1922,82.6505,49.2519
-2226.5625,-82.2041,-179.6091,33.2395,-76.4642,71.6764,-8.4963,35.3183,8.2977,42.4790,44.8602,-43.2680,-32.7745,-1.8955,-34.8489,78.5684,78.7494,-21.5443,64.6076,76.9143,43.4402
-2218.7500,-64.5022,-161.6041,14.0397,-92.5400,52.5056,-27.7813,126.9656,-46.7039,97.1299,-11.1920,-25.4938,-15.0171,15.8454,-17.1898,133.2238,96.7049,-37.7717,47.5189,-11.3169,61.1356
-2210.9375,-45.8013,-106.6079,-39.1640,-108.6273,-0.6665,-80.0688,146.6223,-62.7035,117.7954,-99.2310,32.2813,-31.2640,-0.4178,3.4576,189.8792,117.6679,-61.3753,101.4199,-62.5421,44.8391
-2203.1250,-8.7953,-35.3184,36.9234,-37.4200,38.4554,-78.0633,148.5799,-96.4024,82.7707,-96.9653,-2.6480,-29.2122,1.6175,-67.5923,191.8336,45.9332,8.8127,68.6245,-94.4694,46.8497
-2195.3125,4.4619,-21.7741,50.2639,11.0432,51.8294,-64.8144,88.7968,-119.8576,22.0025,-120.4603,-26.3313,-51.9111,14.9056,-54.3964,168.0416,-14.5641,52.1183,152.0865,-117.1523,60.1139
-2187.5000,23.9631,-72.9718,70.8609,-5.2382,35.4627,-45.3110,35.2649,-99.0811,42.4790,-136.7165,31.2385,-68.3533,35.4420,-34.9509,115.4952,-30.8285,49.0324,170.8129,-133.5946,43.6350
-2179.6875,-12.4939,-107.1210,107.5163,-40.4625,72.1456,-8.7548,34.7672,-99.2713,42.0024,-99.9358,30.8712,4.2519,35.0366,-71.4422,40.9967,-31.0504,40.3478,135.6052,-97.9907,43.2110
-2171.8750,63.3022,-103.0255,77.4219,-35.4375,115.0736,-38.9462,4.5192,-93.2205,-25.2196,-57.9106,0.7549,11.1044,4.8773,-65.6821,10.7535,-61.0184,42.7768,176.6483,-94.1370,13.0455
-2164.0625,131.5489,-69.4766,111.7752,-36.9617,113.4483,-3.6951,2.7341,-94.7273,-63.9965,-59.4434,-0.9246,-27.5822,3.1655,-67.4648,8.9638,-62.5388,59.6615,104.1363,-95.8322,11.3363
-2156.2500,70.4405,-25.2731,84.7857,-27.8338,86.4790,5.2116,11.6062,-85.5941,-55.1266,-86.3251,-28.9582,-18.6062,-24.8972,-21.6002,-19.1823,-16.4255,48.7328,78.2704,-51.8821,20.2808
-2148.4375,57.7802,-37.6191,72.2530,-40.2502,36.9653,-7.4179,-1.0840,-62.0213,-30.8135,-62.7756,-41.5271,-31.1755,-0.5034,2.7078,-31.8926,-28.8595,35.0220,100.8618,-29.4903,7.6827
-2140.6250,5.5827,-54.5073,90.1652,-57.2149,54.8991,-63.5953,16.6633,-44.0051,23.9349,-7.7911,-60.6274,-13.2978,-19.6535,-89.5287,-14.1514,-10.8450,25.3565,48.9064,24.3428,25.5417
-2132.8125,-41.4082,-65.1866,42.2852,-67.9731,7.0356,-74.5653,5.6194,19.1980,49.8777,55.3875,-71.5351,-61.2216,-67.6038,-27.5623,48.7925,-21.6386,-6.6658,38.1518,83.3651,14.6052
-2125.0000,-35.0568,-127.5176,11.7600,-130.3779,13.5296,-68.1886,85.9272,62.7426,93.1697,61.9225,-101.1033,-54.7961,-61.2074,-21.2422,92.0861,21.9183,-50.2484,9.7524,89.7347,21.0237
-2117.1875,11.6905,-116.4543,-51.3646,-119.3869,-12.5732,-93.4192,96.6368,36.6786,176.8690,35.8598,-126.2710,-6.9675,-122.4109,26.4736,102.7792,32.8831,-71.5181,-15.2531,65.5090,31.8471
-2109.3750,62.1389,-31.6880,-70.7908,-69.7021,-31.9788,-148.9627,150.0576,17.3117,231.2693,-20.4989,-182.7367,10.5657,-141.9166,43.8834,119.1777,-23.4463,-48.5788,1.4371,10.9750,12.3769
-2101.5625,38.0328,50.5180,-59.7745,-58.5720,16.0607,-138.0556,160.9379,-45.6102,168.1186,-46.4134,-134.7489,21.5480,-94.9727,17.7544,130.0371,-49.3300,-37.0161,-23.4180,-14.1080,23.3608
-2093.7500,-0.8287,11.9661,-26.5094,-27.1870,12.3477,-178.8914,120.0763,-85.2844,91.2275,-86.0813,-66.5051,91.7701,-62.7731,13.8662,126.1486,21.0268,-25.9253,8.9839,-52.9376,19.6014
-2085.9375,-12.0875,1.0144,-0.6408,-2.1998,1.2371,-153.1231,108.8124,-96.3637,79.9356,-97.1594,-40.6585,116.5871,-36.9745,39.5776,114.8555,46.9827,-19.1926,-38.0098,-64.1588,8.4494
-2078.1250,-74.1906,10.2197,-28.6114,6.9386,10.2781,-108.2125,81.6957,-123.3065,124.7888,-88.0983,-68.6634,125.5603,-28.0274,85.4498,123.7038,19.0872,-31.8263,-63.8574,-55.2298,17.4504
-2070.3125,-127.1393,27.5732,-9.4267,24.2306,-7.5266,-53.1457,63.7287,-105.1101,143.7861,-141.8915,-86.5251,71.6849,-45.9256,140.4739,105.6957,-72.6613,-9.5968,-10.5603,-2.1590,-0.3932
-2062.5000,-137.9340,16.0668,13.9092,47.6756,-21.1852,44.0846,86.9033,-81.7672,93.9310,-118.5433,-99.2366,20.9566,-59.6773,90.6574,128.8426,-49.2667,8.4108,-93.1077,56.0571,22.9179
-2054.6875,-137.9793,-19.6893,-60.0048,-23.1312,-58.0911,44.0777,86.8383,-81.6825,19.8265,-82.4585,-26.1874,20.9822,-59.6760,126.5879,128.7436,61.8619,-59.4642,-92.9045,91.0249,22.9828
-2046.8750,20.6743,-70.7348,-76.2161,-74.2330,-74.3031,-46.2209,106.4748,-61.9110,3.4139,-25.6882,31.5714,78.7112,-1.9688,74.2226,112.3440,8.6810,-87.0156,-73.9978,74.6899,6.7541
-2039.0625,-8.8170,6.0641,-33.5758,-33.4778,-31.6685,-77.6624,111.9580,-56.2959,8.8423,-20.0721,0.1733,84.2924,3.5893,42.7143,81.7850,-95.6449,-44.2095,-68.2352,80.2010,12.3768
-2031.2500,-103.1476,88.0087,17.2181,14.4253,19.1260,-63.9446,52.6017,-42.5392,-51.5901,-116.3081,-23.0801,61.0164,17.2924,92.3495,94.3804,-191.8176,6.9538,14.6813,91.8603,-10.8473
-2023.4375,-107.0409,119.3983,50.4642,80.7754,52.3718,6.2357,84.6975,-46.3377,-55.5721,-156.1128,-26.8818,57.1939,13.4475,52.4433,54.4336,-195.5576,50.6756,-23.9453,87.9784,-14.6152
-2015.6250,-99.7363,91.9784,20.9160,88.3255,59.8183,13.6204,55.9987,-75.9381,-85.3502,-148.7251,-19.4906,100.5744,20.8036,22.7411,24.6943,-151.1115,44.6231,18.6233,95.2972,-7.1778
-2007.8125,-79.5299,77.4607,43.2623,73.7688,45.1620,-1.0979,41.2099,-16.6438,-100.2160,-163.4328,39.7976,122.8548,43.0534,7.9361,9.8589,-165.7595,43.8583,39.0911,45.5133,-21.8348
-2000.0000,-100.1749,127.0878,57.7531,88.3590,59.6572,13.3239,-18.4224,-39.2082,-48.9192,-148.9898,90.2367,100.2895,93.4550,-14.7175,-12.8221,-151.2516,50.3519,-16.2842,24.8736,-7.3399
-1992.1875,-149.8307,77.7189,6.2483,73.9479,45.1518,-1.2625,-33.0424,-53.7796,10.3844,-54.5561,75.6864,49.7304,78.8638,7.6245,-27.5007,-56.7517,15.9128,4.3453,45.2262,-21.8414
-1984.3750,-51.1348,35.6977,36.0909,66.8903,73.9929,-45.5020,33.6816,-61.0106,3.0262,12.2196,32.5018,42.5291,35.6310,-110.6787,-34.8335,-26.9086,34.3221,-2.6691,72.9186,-28.9883
-1976.5625,2.2810,54.3663,-19.3616,85.5319,56.5378,-64.0450,15.0996,-79.5515,21.3715,-6.3056,-22.9832,61.0313,-19.8978,-55.2813,-53.4707,-8.3650,26.7216,-18.9891,91.3079,-10.4311
-1968.7500,12.1642,135.4910,-7.3657,95.6242,-5.4699,21.8679,-10.0257,-30.6546,-3.8358,-31.3839,-48.0214,35.9804,-44.9790,-6.4319,-78.6570,-107.3772,51.4865,26.1365,101.1493,-35.4187
-1960.9375,-83.4054,110.1620,3.1806,106.2615,5.0718,142.3389,0.4080,16.7824,6.5143,53.0790,-74.5145,-27.5175,-34.5107,-33.0205,-68.2864,-132.8546,54.4099,-33.1901,147.5450,-24.8528
-1953.1250,-131.6392,-7.8286,-46.9231,58.2431,-8.0376,203.1714,-12.7997,76.5671,-6.7708,112.8828,-50.6632,-77.6589,-47.6931,-9.2514,-44.5669,-35.9861,0.0953,-46.1659,169.2948,-37.9341
-1945.3125,-95.2764,-77.2350,-45.4277,-10.1778,-43.5568,204.6185,-11.4149,151.9490,31.5546,77.2887,-12.2142,-113.2018,-9.2812,-7.8788,-43.2412,39.4897,-32.4031,-44.5416,170.6442,-36.4094
-1937.5000,-80.7544,-62.4985,-67.7892,4.5429,-65.9339,219.2168,-33.8778,129.4799,46.0273,55.8485,2.3878,-61.6020,-31.7231,6.6494,-28.7573,17.1244,-32.9475,-29.7768,114.1525,-21.7347
-1929.6875,-1.6838,16.7890,-57.6030,12.8133,-18.7644,155.3708,-23.7759,102.5491,-17.9402,28.9552,-24.4720,-51.4470,-58.6259,52.7300,-55.7142,-9.6927,-12.6089,-21.4671,52.2131,-48.5057
-1921.8750,1.8824,90.5707,-16.9224,16.5840,-15.1054,159.0280,-20.1701,69.1190,-51.3895,68.5634,-57.8468,-47.7819,-55.0351,20.3259,-52.1651,30.9852,5.9506,-88.6581,-14.2196,-44.7754
-1914.0625,-74.0084,-20.0986,-22.6926,-24.1015,-20.8904,116.2352,-26.0020,63.2366,-57.2740,99.7197,-26.6818,-16.5558,-60.8997,50.4684,-21.0631,98.2011,-33.6452,-58.2992,14.9012,-50.4934
-1906.2500,-65.5523,-117.4151,-51.1134,-86.4392,-12.3230,87.7928,19.5286,145.6982,25.1873,145.2242,-55.1655,-7.9800,-15.4120,-14.0381,24.3919,106.7588,-79.6944,-85.5863,23.3683,-41.8595
-1898.4375,-81.4813,-97.1333,-30.9394,-66.1761,7.8343,34.9463,39.6593,91.7572,45.2438,165.3105,-72.0292,-24.8091,4.6851,-30.9442,7.4455,89.9192,-62.7764,-100.2703,43.4312,-21.6245
-1890.6250,-86.7076,-67.1614,-36.0639,-71.2095,2.6921,-7.1935,-2.5110,86.5086,39.9982,86.0892,-77.1820,7.0640,-37.5132,37.8452,2.2005,121.7735,-65.7266,-70.2484,38.1927,-26.6859
-1882.8125,31.8550,-18.3915,-23.3900,-93.4460,-21.6488,-31.5334,47.1265,26.0576,52.5633,62.6693,-64.5459,56.7401,-61.9140,13.4429,14.7618,97.4150,-60.4466,-92.4200,15.7572,-13.9466
-1875.0000,113.0715,-42.9695,-49.0601,-82.0320,-84.3346,-57.2198,-15.5826,0.2502,99.7810,73.8967,-16.2672,68.0693,-87.6671,24.6910,-11.0289,108.7050,-66.4490,-80.9426,26.9672,-2.5570
-1867.1875,91.0527,-99.8037,-33.9748,-68.8681,-69.2659,-5.1531,-74.5503,52.1859,114.7233,161.8708,-1.2348,-27.8411,-35.6655,2.6965,-33.0836,86.7548,-61.4487,-102.7167,74.9258,-24.4140
-1859.3750,-5.2110,-90.8998,11.8639,-23.9674,-23.4447,76.6725,-65.7750,60.8708,123.4155,170.5898,-29.4547,-92.9973,-26.9151,11.4655,-61.3851,59.5504,-24.2519,-128.7440,83.6386,-15.5196
-1851.5625,-14.3812,-134.8971,-34.2020,-68.9691,-69.5289,104.6028,-74.8835,87.6506,151.2301,161.3995,-38.5774,-65.0495,-36.0661,75.3357,-33.5757,50.4336,-66.0284,-102.6713,74.4481,-24.5245
-1843.7500,95.6968,-129.6520,-66.0213,-98.7185,-64.3673,109.7927,-32.7407,92.6728,156.3104,129.4547,-33.4521,-22.8467,-30.9716,44.4621,8.4874,91.5631,-89.3013,-166.3437,9.5053,-19.2776
-1835.9375,103.0788,-87.1125,-95.5381,-91.1675,-93.9082,80.2903,-99.2984,63.9893,200.6927,136.8034,-26.0265,21.6589,-23.5755,51.8927,-21.1477,98.9910,-98.7559,-158.7169,16.8655,-11.7312
-1828.1250,88.8255,-66.2366,-72.6997,-105.2703,-108.0984,66.1525,-113.5077,85.6496,186.4182,122.4948,-3.2593,7.5090,-37.8327,73.6846,-72.4317,84.7703,-94.6180,-138.7415,37.5782,-25.8322
-1820.3125,103.2807,-15.6624,-58.1664,-55.6760,-93.5946,44.7308,-99.0214,64.0088,126.8344,99.8687,11.2126,22.0628,-23.3878,52.1929,-95.0213,63.2408,-65.0284,-158.0629,51.9943,-11.2333
-1812.5000,61.2366,-22.5868,-65.1350,-62.5814,-100.5894,37.8203,-106.0283,92.8626,82.7561,129.7321,41.1884,15.1235,-30.4416,45.2014,-102.1132,19.2016,-68.3041,-95.8817,79.9059,-18.1354
-1804.6875,0.1289,-49.5777,-56.1551,-17.5433,-91.6364,9.8644,-60.0744,138.6614,91.6454,138.5510,13.1033,-12.8662,-21.5436,-19.8352,-56.2452,28.1111,-49.1730,-86.7438,88.7670,-9.0880
-1796.8750,-58.2734,-36.8775,-80.4801,-40.8077,-78.9893,-14.3946,-47.4095,114.1596,141.2411,114.0679,-48.2890,-37.1482,-8.9552,29.8331,-6.6633,77.7156,-67.9001,-73.9063,66.3278,3.6590
-1789.0625,-38.9689,-88.4735,-97.1009,-57.3730,-95.6386,-30.9551,-27.0321,134.3433,124.5254,134.2805,9.0172,-16.7210,11.3328,86.2003,-23.3814,97.0128,-95.8973,-90.3678,49.5862,-12.8930
-1781.2500,13.6327,-70.7644,-79.4236,-74.6381,-77.9907,-13.2267,27.6554,78.8298,69.1270,114.7984,26.6116,38.0052,65.9143,67.8682,-42.7942,114.6084,-96.7593,-141.5306,32.1545,4.8536
-1773.4375,-29.9728,-44.2620,-87.9413,-12.1035,-49.5384,15.3049,19.1481,70.1147,-13.4515,70.1051,-18.9987,66.5296,20.2924,95.3356,-51.4026,70.0014,-59.9838,-45.8917,23.5211,-3.5982
-1765.6250,-44.3170,-22.5127,-65.2120,43.6840,-26.8399,74.0935,41.8879,55.6477,9.2126,-18.3496,-33.3639,15.3095,5.9208,45.0640,8.2353,-18.3661,-12.9282,10.9986,44.1394,-17.7990
-1757.8125,-117.4085,-24.5219,-67.2332,41.7120,-28.8848,109.1298,75.8808,53.4317,44.1178,-20.5481,-35.4775,13.3438,3.7981,43.0443,6.1257,16.5084,-24.6772,-25.8573,77.0151,-19.7539
-1750.0000,-139.0123,-46.0395,-88.7515,20.2376,-50.4313,124.6827,54.3877,67.7199,58.5209,-79.2481,16.8983,-8.1338,19.1740,94.5259,21.5259,-42.1102,-44.6641,22.7903,90.3941,-41.2097
-1742.1875,-57.5137,-35.4660,-41.1750,30.8569,-39.8836,209.3478,64.9928,42.1085,69.0291,-68.8577,-9.6213,-34.5081,-7.3520,68.1123,32.0311,-31.6224,-11.8040,-36.4629,65.8724,-30.5669
-1734.3750,-5.4019,-53.2905,-95.9959,48.0807,-57.7377,191.6251,47.1996,24.0896,51.1384,24.1194,-27.5401,-52.2676,-25.2837,87.3111,14.1337,-12.5592,-24.0374,-19.1206,47.9499,-48.3258
-1726.5625,-20.1437,-67.9648,-36.6662,-1.5427,-35.4341,177.0584,32.5601,45.2115,73.3971,82.2350,-42.3141,-29.8644,-40.0614,35.6703,-0.6146,9.6354,-25.1319,-33.6272,33.1747,-62.9344
-1718.7500,-73.8412,-16.5986,-20.2805,14.8770,-19.0827,119.5531,48.9677,25.3795,89.7143,98.4061,-63.0455,23.5876,-23.7951,16.0913,-21.3084,-48.1139,-15.6408,-52.0888,49.4518,-46.4953
-1710.9375,-129.6335,-1.3531,-39.9930,-4.8141,-38.8299,99.9627,-6.7241,41.4510,69.9392,115.4822,27.1151,3.9341,-6.6316,32.4121,-4.1060,-104.9462,-32.9270,33.3407,64.6309,-66.1550
-1703.1250,-159.5633,-31.2750,-34.8620,0.3374,3.2660,68.2369,71.4264,83.3761,38.0097,157.3976,32.1253,-27.8638,-1.6171,-35.3986,0.9463,-25.9232,-33.9928,3.6256,69.6544,-60.9641
-1695.3125,-109.8789,-87.5979,-20.1317,-19.9132,-19.0392,46.1162,86.1747,60.8912,-20.3223,97.8967,10.7408,-50.0469,13.0042,-20.6006,15.6040,61.6757,-25.3735,88.5138,49.2704,-46.1747
-1687.5000,-16.2892,-64.0084,4.5044,-32.2560,-31.4469,-2.1090,73.8268,85.2990,-106.7546,48.2781,-1.7440,-25.3167,36.5267,-32.8956,3.1575,49.1528,-6.7123,147.3078,36.7813,-58.4844
-1679.6875,46.7552,-0.9683,-2.4083,30.8470,34.5963,-8.8967,29.9321,78.1492,-150.7372,115.1069,-45.7753,-32.1317,-6.4998,-39.7417,-40.8359,42.0964,27.7785,105.5458,-5.2559,-65.3478
-1671.8750,28.8469,-18.8816,15.7300,12.9957,53.6940,9.3604,12.0940,97.0453,-204.6668,59.9909,-26.7577,-49.8886,11.5280,15.4640,-58.7767,-11.9093,31.1596,157.8237,-23.2453,-83.1614
-1664.0625,37.8014,25.0452,98.7161,56.9908,99.6391,55.4668,-51.8949,68.7886,-231.7465,31.7273,55.1060,-40.7906,57.4032,-11.4659,-86.8643,-114.0708,79.4460,96.9497,-49.3899,-74.1245
-1656.2500,6.5176,63.7183,65.4491,60.7347,66.3307,59.3213,-85.1355,35.2781,-156.0775,35.2150,95.7184,36.0648,61.0287,-7.6405,-83.2035,-147.4893,55.9006,64.8264,-45.7870,-70.3421
-1648.4375,-2.8182,-15.6576,19.1337,51.4286,19.9775,87.1326,-57.4155,62.7149,-91.4513,62.6473,49.2729,26.8744,14.6015,-16.8706,-55.5897,-45.9637,25.5890,55.6473,-20.2322,-79.6096
-1640.6250,9.6398,-3.2367,-4.3846,28.9180,-3.5826,99.7499,-7.9014,74.9522,-42.0226,37.8738,24.6268,3.4840,-9.0249,-41.2836,-43.1697,3.3592,7.1948,-1.7233,-7.8759,-67.0776
-1632.8125,-21.5414,35.5217,-0.5496,32.7586,-36.7938,103.7289,-41.0374,41.5424,-1.2396,-31.5536,-7.6679,7.4377,30.7014,35.6530,-76.4033,7.0200,12.9866,37.2552,-4.1665,-63.1981
-1625.0000,-17.8196,39.1786,3.1841,36.5001,3.8976,107.6191,-37.2739,45.0310,-34.5567,-102.0850,31.9307,47.2966,34.3224,39.4888,-72.7370,-26.4277,12.1889,6.1362,-0.5543,-59.4176
-1617.1875,-3.7424,18.1826,17.2656,15.5875,17.9364,121.8651,-23.1625,22.8709,-20.5216,-88.2717,9.8754,61.5093,12.2869,90.6839,-58.7186,-12.5311,8.3764,-14.6318,-56.5910,-45.2914
-1609.3750,15.2905,37.1341,1.3026,34.6247,1.9267,69.0668,-76.0995,42.6584,0.4694,-67.5134,-6.2297,45.6758,-3.7970,111.8268,-37.7517,-28.6863,11.1459,4.5477,-72.6800,-61.2156
-1601.5625,-10.8251,45.9288,46.1868,43.5112,46.7719,41.1199,-30.1932,15.2970,9.3081,-58.9028,2.5187,54.6875,4.9702,10.8284,-28.9372,17.0139,29.9682,-21.4183,-63.9183,-52.2907
-1593.7500,-5.0860,86.5625,15.9294,-20.7537,16.4713,-25.9686,-61.4405,20.7900,-22.0026,-53.4365,8.1125,60.5401,10.5880,16.6803,-23.2717,22.5573,-2.4471,19.4730,-58.3028,-46.5212
-1585.9375,72.4024,58.9376,23.4282,-48.2679,23.9269,-92.3010,-16.9320,64.0356,-14.5608,-9.2127,51.4459,32.1433,17.9506,-49.7197,-15.8574,-81.1541,-8.4731,-7.8876,-50.9392,-39.0013
-1578.1250,73.6475,60.0647,-14.3245,-12.0353,-13.8693,-128.8888,-17.6756,27.0298,21.6331,26.7569,51.5269,68.5046,17.0658,-87.3676,20.3093,-45.1239,-10.7953,-6.4967,-85.8276,-2.7351
-1570.3125,105.2603,21.5477,-54.7286,-15.4521,-91.3171,-132.1283,-58.0678,23.3728,91.1790,-13.9352,47.9632,28.2158,13.5337,-53.6715,53.8283,25.2477,-33.8093,-9.7577,-54.3717,-6.1187
-1562.5000,82.7727,-37.0706,-42.2378,-38.9680,-78.8701,-119.4733,-8.5587,35.6148,103.6229,-1.7270,23.3050,3.8272,-11.0956,-41.0734,66.2533,74.5188,-43.2885,-33.1169,-6.0139,6.3980
-1554.6875,7.1837,-42.7948,-47.8528,-79.5877,-47.5251,-124.9128,59.8584,29.7591,61.9678,29.3806,17.5439,-1.6623,-16.8228,27.4334,23.5834,31.6926,-63.4102,-2.5828,23.2485,0.8102
-1546.8750,-1.5482,19.3262,-19.6188,-53.3601,-19.3313,-97.4963,51.1340,20.7566,-20.8432,-53.6613,81.6308,26.7018,11.3030,18.7918,14.7653,-51.2880,-39.4515,-11.2041,-20.6411,-7.9273
-1539.0625,15.3720,71.0947,-2.7368,34.5171,-2.4897,-43.4212,-5.9489,-73.5939,-41.0117,-74.0578,25.3683,43.7181,28.0768,-38.1881,-5.4063,-71.6241,18.5061,5.8251,-39.8768,8.9804
-1531.2500,83.6915,-0.7344,-4.4481,32.7987,-4.2413,-7.9330,-44.6315,-38.5450,-42.7751,-76.0497,-13.5075,5.1336,26.2458,-2.7670,-7.1843,-73.5722,26.0478,39.2522,-76.7113,7.2843
-1523.4375,135.0571,50.4815,11.8933,14.1310,12.0595,8.6140,-28.2683,-59.4432,-26.4798,-95.9913,2.6610,-15.4020,42.4602,-60.2954,9.0889,-93.4668,36.7115,20.7271,-95.4948,23.6381
-1515.6250,147.7333,62.9850,-12.4665,-9.2399,-49.3448,-52.5380,-15.6130,-83.0343,-13.8800,-47.6401,52.1357,34.3650,17.9777,-10.5234,21.6632,-81.0542,1.5396,-37.4930,-116.9810,36.2879
-1507.8125,136.6639,16.7384,-23.5726,-20.3629,-60.4954,-99.4306,-26.7073,-94.3752,11.9672,-59.0447,113.8636,23.3814,43.7457,15.4961,47.4892,-19.3912,-23.3615,-48.4645,-164.2227,25.1886
-1500.0000,125.2987,40.1881,-36.9827,-31.7916,-72.9460,-75.6177,-40.1088,-107.0117,-1.4959,-71.7436,101.2948,10.0933,67.2141,2.2284,34.0091,3.9685,-28.8707,-59.7373,-140.7588,48.7864
-1492.1875,118.3423,33.0311,-6.9882,-38.8251,-79.9920,-82.4026,-47.1131,-78.2431,-45.5648,-79.0396,57.1226,3.2014,60.0877,69.3623,-10.0724,-3.2780,-12.2709,3.3890,-147.8924,41.7820
-1484.3750,151.6828,66.1706,65.3060,-5.5641,28.2616,-83.8904,-11.8137,-80.1742,-47.3288,-81.0338,18.2500,1.6159,21.2618,-6.2035,-11.8526,-42.2202,41.3867,-33.1899,-149.7245,40.0783
-1476.5625,235.7784,79.0575,41.3475,7.4386,4.2664,-106.6413,1.2366,-103.3498,-34.3369,-32.2785,-42.8717,14.7840,-39.8125,-30.0177,1.1195,-65.4145,55.3674,14.9879,-136.8077,53.1188
-1468.7500,217.8931,-10.0552,23.3928,-10.5528,-13.7250,-88.3948,-16.7135,-49.5286,-15.3484,-13.5248,-60.9896,-40.0457,-57.8822,-47.8434,20.0888,-10.6196,40.2672,68.1640,-84.9004,35.1602
-1460.9375,166.5673,-25.6160,42.9859,9.0131,5.8353,-32.6033,2.8720,-30.1588,4.1731,-31.2209,-77.5481,-92.3255,-38.3955,-64.1133,39.5992,8.7241,56.8908,52.8975,-65.4471,54.7503
-1453.1250,100.4957,13.0701,9.8373,48.8311,-27.3462,8.4476,-30.2964,-26.5376,-29.0659,-63.6793,-37.8522,-88.3685,-34.6499,-24.1328,43.3532,-24.6769,55.7287,56.8901,-61.7457,58.5839
-1445.3125,102.4695,50.8017,48.7450,50.6997,-25.4716,10.5671,8.5829,-60.8630,-27.2635,-135.0939,-72.1077,-50.3650,-32.8510,-58.0964,82.1530,-132.0283,78.2943,58.9330,-24.9976,60.4672
-1437.5000,125.9491,3.0319,35.1508,38.0719,-38.1027,-2.8071,31.9518,-73.6853,-39.9623,-112.0071,-84.8608,9.1420,-45.5532,-70.5509,105.4517,-108.8883,63.1904,46.4680,-1.7534,83.8456
-1429.6875,95.1884,-27.9817,41.3007,7.1977,4.0106,-69.4255,38.0795,-68.7583,-70.9049,-70.1689,-6.8655,15.3984,-40.5064,-65.2622,74.5069,-31.0103,38.2486,51.7417,-32.7630,52.9733
-1421.8750,37.6805,19.2541,53.6955,19.5705,16.3651,-56.7953,50.4546,-129.5776,-22.5949,-58.0749,5.3792,27.9046,8.7864,-88.7221,49.8151,18.1217,38.8787,-6.7378,-55.5185,65.3506
-1414.0625,74.6767,20.9834,18.5908,-13.5620,-18.7759,-90.6650,52.3286,-127.8914,16.2078,-92.4771,7.1325,29.9040,-26.4154,-14.6830,88.6238,19.7517,10.7688,-4.7230,-53.7685,67.2254
-1406.2500,146.7768,-12.1829,20.5938,-11.5926,-16.8128,-88.4314,54.2931,-126.1042,-18.8937,-90.7721,8.9904,32.0077,-24.5121,-12.5457,53.5208,21.4793,16.9138,-2.6140,-51.9245,69.2011
-1398.4375,124.6276,0.3946,33.3437,1.1218,32.9012,-75.4518,29.9949,-113.5650,-152.2372,-78.3169,21.5958,44.8622,25.1430,0.3443,29.1646,-3.0331,26.1226,-24.7530,-4.3248,81.9245
-1390.6250,36.5846,-17.9430,52.1999,-17.0743,51.7219,-93.3666,-25.2024,-94.9142,-133.4787,-60.7594,3.3008,26.8114,43.8980,19.3308,10.9031,15.5623,21.7928,27.2045,12.3750,63.7475
-1382.8125,-29.0975,-47.9334,94.4057,-11.9222,93.8923,-87.9328,16.9405,-53.9126,-19.3867,-55.8486,-28.6318,-40.8900,49.0120,-48.3276,15.9835,20.5011,46.5681,68.5129,-17.5779,68.9213
-1375.0000,-2.7620,-21.9196,11.6148,-20.7686,48.0625,-96.5046,8.0693,-62.9101,-28.3074,-64.9383,-0.5525,-49.5926,40.1345,-20.9893,7.0595,85.4296,12.6056,94.8255,-26.5337,60.0916
-1367.1875,50.4201,30.9461,30.6823,-3.7622,67.0913,-78.2309,-9.9529,-45.0556,-118.3741,-119.1773,18.3711,-31.4490,59.1091,-1.8108,-11.0180,30.2107,32.6840,76.9898,-44.6374,42.1137
-1359.3750,55.9880,71.2065,73.1543,37.6434,72.5250,-36.5653,-4.5800,-75.7987,-187.0406,-114.0112,60.6892,48.0943,64.4822,3.7733,-42.6948,-110.6015,64.7086,47.5632,-74.3427,47.5339
-1351.5625,39.9137,19.8225,19.9843,56.4051,56.3133,-15.5467,-20.8546,-56.1936,-240.3613,-130.4980,44.3595,68.9831,48.2076,98.7010,-22.0252,-91.0649,43.7766,66.4839,-90.7071,31.3020
-1343.7500,72.8998,17.4931,54.8596,19.2185,91.1512,19.5198,13.9182,-94.5410,-168.6370,-96.9384,42.0851,29.9240,45.9843,59.6787,-24.3026,-57.4844,45.6277,29.4511,-93.0240,29.1208
-1335.9375,10.3986,24.6636,25.2294,61.5248,61.4839,27.0792,21.1911,-123.3842,-88.4075,-89.8718,12.3112,37.3577,53.2614,67.1551,-17.0744,-86.3991,50.5131,71.9097,-50.8408,36.4356
-1328.1250,37.0006,85.9245,53.6951,52.9297,52.9130,18.7446,-24.4228,-96.1216,-97.0635,-134.7043,3.6357,-8.1179,44.6368,21.7238,-25.7430,-95.2114,72.7591,98.4580,-24.5522,27.8517
-1320.3125,55.4005,68.9820,71.9554,71.1316,71.1333,74.2102,-43.2447,-78.0549,-151.9224,-190.7335,21.7648,10.2067,25.8167,3.0948,-80.6101,-113.2228,87.5858,46.8090,64.5439,46.0677
-1312.5000,15.2039,-7.5581,29.6240,-5.2602,28.7625,69.0779,-84.6762,-47.5857,-120.3976,-159.3645,16.3008,4.9258,20.4032,34.8582,-50.0853,-46.8347,29.7139,76.5609,94.0383,40.6819
-1304.6875,2.3610,15.2507,53.6509,17.6971,52.7466,19.3054,12.2289,-23.7638,-61.5385,-99.6474,-33.8060,28.9895,7.3466,-15.0243,-26.2223,-60.0970,42.9147,28.6602,45.8814,27.6484
-1296.8750,-35.1731,48.3563,51.9762,50.9515,88.0334,17.8326,10.4189,-62.6374,-26.3856,-101.6260,-35.5999,-9.6507,42.5947,-16.5974,-28.0689,-62.0615,60.9926,62.0546,9.0211,25.9112
-1289.0625,-51.2470,-39.0857,108.7552,34.6545,107.7709,38.8108,-42.9468,-42.0550,-79.7795,-82.1528,22.0590,-25.8436,26.2993,4.2668,-44.4738,-78.5767,72.5431,115.8920,27.6092,9.6258
-1281.2500,30.7272,-28.4800,83.5830,10.4053,118.5577,49.8310,-32.2692,-31.4214,-69.1252,-34.6208,32.7661,-51.9825,37.0553,-21.8173,-70.8300,-68.0279,57.5251,56.7750,3.2521,20.3913
-1273.4375,31.3087,42.7255,84.0082,10.7522,118.9502,-23.5544,-68.9921,-31.1842,-140.8742,-34.4816,33.0816,-51.5269,37.4192,-21.3053,-106.5853,-67.8705,70.4508,127.2482,3.4943,20.7524
-1265.6250,-41.3654,75.6791,155.1826,43.8507,154.0924,-62.1975,-70.9598,-33.1956,-142.8709,-73.5795,68.1535,-53.3371,72.5388,-96.0533,-72.5880,-32.9605,101.5399,90.4747,-34.5119,18.8647
-1257.8125,-58.2903,58.3784,136.1074,96.6947,134.9856,-80.0971,-125.1904,-52.4464,-89.1218,-18.9208,85.9872,-35.4037,90.4155,-114.0563,-90.8482,21.6919,105.7233,73.4591,-51.7655,36.7259
-1250.0000,65.2013,5.4798,82.4428,78.9405,81.2899,-61.6046,-143.0272,-33.2919,-70.9779,-73.8645,68.2235,-53.0745,72.6981,-59.6694,-35.7173,-33.2641,88.0936,125.8389,-69.6249,18.9885
-1242.1875,59.9515,34.8405,113.0230,73.4378,111.8435,7.1335,-39.6243,-38.8899,-39.5819,-79.5530,25.7125,-58.4998,30.2285,-65.0316,-41.3376,-75.9632,99.6990,50.4638,-40.2401,13.5024
-1234.3750,-22.4454,92.0478,64.4466,95.7812,99.2410,-5.2805,-15.3636,-51.6341,-52.3237,-18.3837,-23.9433,-107.0852,17.6092,-40.5522,-54.1031,-51.8068,91.7592,72.9321,18.0021,0.8622
-1226.5625,-69.7008,-24.5988,89.0206,14.2705,124.7933,20.4525,10.0617,10.7784,-63.9157,79.9465,-35.4523,-118.5276,-30.8564,-51.9400,-28.7104,47.5044,55.7491,61.5433,41.4013,-10.6250
-1218.7500,-49.7012,-75.9890,108.8400,-0.9882,107.5876,40.4314,-7.2650,30.4468,-44.2628,99.5290,-15.7113,-62.7204,-48.0730,-69.0726,-46.0647,67.0619,47.3321,11.3998,61.0490,9.1361
-1210.9375,-15.1461,-6.8186,34.2133,-38.6905,69.9366,1.9643,-9.0430,28.6678,-9.0602,24.6645,-17.4193,46.6252,-49.7361,3.3388,-10.8729,-82.8410,2.9900,9.7988,24.2461,7.4463
-1203.1250,-2.2046,5.7471,9.9897,-25.9871,8.6814,-22.0958,40.5618,4.2908,77.5412,37.2062,-78.7154,59.3624,-73.9926,-57.8531,75.7065,-33.3280,-10.8350,-83.4068,36.8456,20.1587
-1195.3125,-58.5093,-50.9466,-12.4820,-46.5367,-50.8211,-44.4003,17.9026,18.6723,164.8869,51.4956,-136.2468,-0.1639,-95.4895,-43.2992,90.0305,127.9423,-30.4201,-33.8609,51.1929,34.6185
-1187.5000,-65.7459,-93.5849,17.1017,-89.0357,-58.2713,-51.6498,47.2871,11.1083,194.2767,43.8363,-107.7255,-7.6501,-102.9313,-13.7040,118.3952,120.2618,-44.5266,-41.2676,43.5917,27.1293
-1179.6875,-104.2856,-62.5202,13.3805,-57.8328,-25.0218,-55.2007,80.3632,7.2463,264.3585,112.8839,-111.4996,-48.4371,-106.6739,-54.4046,114.4561,116.2901,-35.7625,-79.9793,39.6898,23.3388
-1171.8750,-163.6746,-88.3061,-12.1841,-48.4781,-50.6185,-80.6071,54.5888,18.5402,238.5822,124.0884,-64.1192,-37.0828,-59.2635,-5.9628,125.6671,164.4731,-56.6749,-35.5461,13.9335,-2.3028
-1164.0625,-138.5132,-62.5423,15.8001,-21.5789,14.3381,-15.4730,81.3679,9.3822,155.3442,41.8459,-36.1879,-9.1759,5.7000,-14.9711,79.4281,81.2110,-23.5325,-8.5605,-30.2694,-11.3917
-1156.2500,-106.0905,40.4746,50.0369,45.5685,84.5521,18.8978,78.3967,-30.5236,-31.6548,-35.1471,-76.0016,61.9798,2.9206,19.2628,40.4319,-105.7999,43.9769,58.6769,-33.2226,-14.2355
-1148.4375,-88.8148,57.3553,32.1331,27.5708,66.6262,1.1124,60.2707,-11.5818,-49.8079,-90.2915,-56.9534,43.9793,-15.0028,38.3300,58.2778,-49.9677,26.2100,40.7619,18.6697,-32.2271
-1140.6250,-175.2923,-66.5102,12.4782,-25.1707,47.9461,18.5680,77.3839,5.6126,41.2902,0.8066,-2.6419,-12.7800,-34.6686,-18.3563,112.3749,114.1127,-27.6095,-11.9009,70.8091,-14.9652
-1132.8125,-221.7667,-112.3800,-35.1787,-35.9146,0.2648,45.0216,66.5012,67.8129,103.3926,62.9159,-13.3257,-60.5568,-45.3279,7.9489,101.4802,66.1987,-54.9752,12.4338,130.9485,-25.7045
-1125.0000,-232.2346,-52.2615,-8.8418,-11.6644,-10.4179,107.4727,55.6263,57.0186,92.4953,52.0399,-24.0049,-34.3396,-18.9847,-2.7509,53.5858,-17.7023,-30.2395,1.7584,120.0878,-36.4412
-1117.1875,-257.8513,-8.2912,-36.6584,-2.5680,35.7466,79.7660,64.5964,30.0746,101.4395,98.0157,-88.8230,-25.2759,-46.7825,6.4008,62.5406,-8.7494,-34.3757,-24.0748,129.0798,-27.3305
-1109.3750,-148.4185,-74.2593,-67.4189,-68.4192,4.9643,49.1075,70.6139,109.1791,144.4276,141.0378,-119.5817,-19.1714,-114.5232,12.5903,68.5428,-2.7518,-75.9167,-54.8599,168.1228,-58.1664
-1101.5625,-69.9850,-103.2255,-97.1795,-61.2669,-24.8173,93.4483,77.6231,153.2838,188.4036,221.0618,-149.3294,-12.0708,-144.2592,-54.2193,75.5329,40.2462,-88.4377,-153.6457,140.1685,-51.0010
-1093.7500,-135.4435,-98.0972,-164.8364,-92.0147,-93.4942,25.8888,45.7245,121.4966,266.4758,263.1917,-106.9661,-6.8817,-138.8864,25.0643,80.6150,119.3448,-149.4661,-182.3323,145.3171,-45.7381
-1085.9375,-134.9040,-61.9656,-128.4886,-91.7652,-93.1656,-10.6703,45.8271,121.7107,266.5454,226.3286,-106.5982,-43.6992,-101.5116,-11.6657,80.6983,119.4453,-127.1367,-148.0224,145.4625,-45.4727
-1078.1250,-120.1164,-12.5802,-76.8973,-77.2678,-78.5887,-32.9823,60.1820,99.1807,207.8593,204.7116,-91.9751,7.7274,-86.8841,2.8529,58.0336,96.7949,-95.8187,-133.4656,88.8628,-30.9579
-1070.3125,-24.6781,-58.5419,-87.6523,-88.1199,-126.3609,-43.6486,13.1957,125.3013,85.8244,156.7473,8.2945,-40.2072,-23.6051,65.0111,11.0237,159.8036,-106.1533,-109.2705,42.9208,-41.7910
-1062.5000,54.7539,-85.5039,-115.4107,-78.9746,-117.1396,-34.3227,-14.7887,97.4269,21.7953,202.7979,53.5613,-31.1486,-14.3318,38.1632,-16.9810,205.8224,-112.6298,-135.0791,-18.0130,-32.6214
-1054.6875,16.6320,-53.0208,-118.7276,-46.3831,-120.4680,-74.5555,-55.3180,57.0105,54.2247,199.3085,50.2861,75.3486,-17.6072,34.7583,-20.5271,128.2926,-105.1240,-103.4388,-56.4897,-36.0041
-1046.8750,41.1035,6.0657,-92.4445,-22.1871,-94.1954,-85.1924,-29.2412,46.1988,43.2636,114.4218,76.6196,101.4350,8.7232,23.9391,-31.4756,80.3611,-72.7335,-43.2027,-138.3619,-46.7842
-1039.0625,15.3685,84.9560,-46.3688,21.8100,-48.1293,-113.0408,-20.3654,-54.8080,52.1086,86.3424,85.7624,73.3111,53.8559,-4.0859,-22.6219,126.2325,-30.7706,-34.1706,-198.4292,-37.7652
-1031.2500,-26.3661,113.8537,-16.2891,49.8078,-18.0583,-119.8971,-64.4829,-98.8100,-28.0482,6.2697,115.9065,66.1807,83.9945,61.8750,-29.7698,82.1067,0.7119,63.8498,-205.4992,-44.7473
-1023.4375,7.2966,112.1555,55.1909,83.2070,53.4138,-47.3569,-66.2004,-100.4146,-66.8060,-32.3995,77.4564,28.4440,82.5357,-12.7659,-68.5187,80.3880,58.5460,62.2629,-173.1709,-46.3262
-1015.6250,-46.2356,22.2548,71.4680,29.4007,69.6803,5.9766,-87.1246,-84.2132,-87.7599,-53.2720,56.8168,44.4983,61.8840,40.3920,-89.4635,96.4697,38.3207,78.4729,-87.0360,-30.1046
-1007.8125,-25.6162,-62.4978,56.8923,-20.2568,92.0988,28.4574,-101.8931,-24.8632,-102.5557,-30.9938,6.3341,29.6975,47.3896,61.6835,-67.2616,81.7100,9.6442,63.8228,4.2523,-44.7287
-1000.0000,-13.0488,-86.3018,33.2604,-42.9689,31.4621,76.8744,-89.7130,24.4357,-53.4003,18.2473,-18.1875,41.8382,23.8490,37.9207,-55.1082,130.9130,-15.4576,6.1203,51.4908,-32.4018
-992.1875,-56.5797,-59.2034,-12.4697,-16.7818,-14.2718,68.1857,-98.6295,15.6379,-62.3433,9.3938,46.2024,68.8632,15.2164,102.0461,-27.0567,12.0215,-26.1748,67.3117,77.6336,-41.1773
-984.3750,-70.9226,-3.8972,45.9991,3.6098,44.1942,53.6926,-39.3410,1.0407,-3.0793,-5.2492,31.7936,91.0817,0.7851,50.3572,-4.8054,-76.6669,9.0780,52.6948,27.9821,-55.7500
-976.5625,-95.8211,41.8617,20.9118,14.4544,55.1090,-8.3561,-28.6021,-25.1032,7.6331,5.5630,6.8426,64.7426,11.8003,25.1147,5.9027,8.0966,7.1928,63.5256,3.7854,-44.8750
-968.7500,-42.6175,-11.2795,2.9266,-3.6045,37.1229,-26.3099,-46.7580,29.8606,-10.5513,23.4851,24.9964,46.4888,29.9164,42.9574,-12.2856,62.9631,-10.0942,80.4474,-14.3057,-62.8976
-960.9375,-30.1706,-69.1685,-21.8158,-61.4148,49.3806,-14.0204,38.3364,42.0768,37.5162,72.6653,1.4111,22.4768,6.2857,19.0456,35.7747,75.0848,-47.8167,22.6124,-2.1389,-50.6694
-953.1250,-68.5211,-37.8531,-62.3595,-101.0280,9.8343,-91.5390,34.6338,38.4975,33.7881,69.0482,34.0352,91.6550,2.8606,51.3200,32.0361,145.4065,-97.4668,-16.0310,-40.7655,-54.2419
-945.3125,7.4817,2.8177,-56.5614,-95.2969,-21.3691,-158.7188,4.2854,8.2734,3.4156,37.7846,114.0157,97.1823,44.7879,-16.0684,1.6499,151.0870,-88.6753,-10.3355,-141.0345,-48.4603
-937.5000,138.1793,62.1820,-32.0686,0.1242,-70.8767,-134.2182,-82.3552,-41.2462,-83.2559,-47.7725,138.7017,84.4000,69.4206,8.2412,-122.0267,138.4869,-19.2149,14.0554,-221.5930,-23.9793
-929.6875,259.5708,219.2432,-13.8740,157.2421,-126.6853,-80.0223,-210.2807,-97.0621,-175.2153,-140.6199,157.0888,29.3000,87.7540,26.2403,-212.9903,9.5901,91.1532,136.1337,-275.4488,-42.7958
-921.8750,380.8482,305.2079,1.2095,242.2597,-74.5999,9.0717,-269.2957,-118.9753,-307.2632,-125.5627,209.3800,7.0892,102.9873,-32.8603,-309.0458,-49.4081,152.1179,80.1021,-260.3990,-27.7107
-914.0625,321.3685,209.4259,-25.4642,182.5267,-101.2706,56.4100,-296.0539,-71.6320,-333.0612,-41.2547,219.9330,17.1217,76.4741,14.2815,-261.8429,-2.1420,100.3069,55.3106,-215.0973,-17.3778
-906.2500,188.8869,76.6451,-17.1437,84.7911,-92.9459,100.7439,-213.7995,47.7113,-214.8652,41.0555,117.4991,-48.8472,11.9659,22.4096,-179.6375,43.1396,50.6480,28.5108,-101.7957,-9.0417
-898.4375,78.6087,37.0750,-23.6346,45.2584,-62.4277,131.2678,-146.3415,41.2571,-75.4723,71.5701,38.2728,-55.6190,5.6609,-21.2698,-149.2271,36.6159,25.7741,-12.0881,-36.2919,21.4919
-890.6250,38.2827,-3.5320,-66.1728,4.6811,-30.9557,125.7421,-115.9230,108.7500,-117.1260,-7.9700,69.9952,-61.4525,37.3116,9.9843,-118.8665,-5.9603,-10.8284,18.2553,29.1668,15.9758
-882.8125,32.4430,-10.6416,-0.2173,-2.3954,-1.9851,118.7157,-50.9986,101.7429,-161.2770,-53.0158,99.2230,-104.7949,66.4629,-71.2634,-53.9987,-51.0244,22.1080,47.0937,58.1371,44.9628
-875.0000,-16.7577,-24.1119,-51.6152,-50.8258,-17.3708,103.3415,-29.4148,123.3888,-102.7720,-31.4102,84.1131,-83.4967,88.2640,-49.8639,4.5258,-175.4311,-19.7916,68.5762,114.7680,66.5981
-867.1875,36.2312,-77.3772,-69.8201,-69.0593,-35.5584,48.1621,-10.6208,141.2383,-49.0641,61.4010,66.2120,-66.0033,33.2692,4.7220,23.2539,-193.6298,-43.4711,50.2496,131.6065,48.4361
-859.3750,69.3173,-79.5374,-71.9352,-71.1921,-0.6554,9.0742,24.2727,139.1915,-14.2527,96.3181,64.4240,-68.4142,31.3749,-34.5977,-15.9175,-85.7240,-56.3644,-57.9857,129.5493,46.3735
-851.5625,32.1501,-115.9390,-74.2998,-107.5744,-40.0007,-66.2726,58.9273,136.8943,-16.6765,129.9868,99.3869,-71.0835,66.2307,-0.1808,18.6656,21.9322,-98.4099,-130.4802,92.2499,44.0597
-843.7500,46.4189,-67.8926,-60.2173,-129.5058,-25.8979,-125.1778,73.0399,115.0469,34.3574,144.1148,149.7975,-57.3067,117.5370,-23.3191,32.7037,36.0471,-117.4477,-256.5295,36.4052,58.1991
-835.9375,56.0335,11.4971,-86.7891,-84.0987,-88.4484,-152.7464,8.5099,50.5522,43.7367,117.5935,196.5701,24.8229,127.2001,-14.1097,5.0999,8.5235,-111.8857,-247.2313,9.9177,67.6866
-828.1250,105.1973,26.4484,-71.8120,-36.1421,-37.4489,-173.7748,-12.4590,-7.3944,22.6650,59.6259,138.9042,40.4972,142.4196,1.6352,-15.9497,-49.4508,-69.5446,-163.3932,-11.0201,46.7257
-820.3125,84.8552,110.9101,15.6515,49.3130,14.0379,-122.3178,2.0749,-65.8398,37.1032,-36.8389,80.7525,54.6655,84.1405,-57.1233,-1.4920,-34.9226,13.4877,-184.0590,-31.4553,61.2653
-812.5000,53.8699,79.7228,19.4606,53.1183,-19.1286,-81.5157,-67.0323,-61.9363,40.8994,-32.9570,84.9551,21.1757,51.2142,-17.5375,-34.6789,-31.0400,17.8908,-145.3844,43.4602,65.1534
-804.6875,39.5342,65.1872,4.9157,38.5743,-33.6481,12.9319,-81.4800,33.6127,26.3465,26.5758,70.8085,-30.6713,36.9374,-32.3106,-49.2135,-81.4911,9.7779,-160.0687,99.0308,50.6943
-796.8750,-111.5579,53.8976,-43.3855,62.2788,-44.9227,112.6230,-56.6697,96.4129,89.0464,162.3689,-14.0816,-78.2774,-11.0922,-43.8330,-23.4897,-128.6855,-9.1244,-206.5105,228.8617,39.4819
-789.0625,-210.0143,-8.7353,-34.0396,-0.3685,-35.5495,157.9608,26.8099,178.8675,134.4067,171.8216,-114.3195,-106.2428,-38.4711,-34.7244,22.8960,-120.2279,-27.5365,-128.3138,236.3490,11.9196
-781.2500,-99.3856,-3.2584,-28.6015,5.0816,6.9170,126.3870,105.3968,184.4219,139.8767,140.3789,-144.4522,-137.1064,-69.7542,-102.5237,28.3853,-78.6609,-4.9786,-123.0219,206.9419,17.4567
-773.4375,-34.3043,-8.3266,-70.7185,-0.0218,1.8333,85.2545,27.4441,179.4250,61.7978,135.3821,-77.1268,-142.5268,-37.5809,-71.8739,-13.6723,-46.6396,-18.0645,-59.2894,201.9896,12.4421
-765.6250,-83.8841,-94.0458,-48.4895,-50.7736,-12.9111,106.4762,85.8495,238.7781,47.0753,120.7323,-54.4460,-194.6064,-15.0578,-86.8740,8.6323,-24.2664,-38.2672,-39.2187,257.3971,-2.2190
-757.8125,-179.9724,-120.2632,-39.7731,-42.0287,-4.1708,115.1931,94.7664,210.6377,91.8586,129.5862,-82.2608,-186.1919,-6.0359,-78.3786,54.4485,-15.3882,-44.3128,-65.6570,266.3172,6.6184
-750.0000,-163.8137,-140.2307,-59.8178,-62.0426,-24.1867,95.1534,74.9583,227.7516,108.9071,109.6914,-101.8235,-169.5313,-25.7676,-24.6474,34.5319,38.7464,-63.6283,-50.8635,211.4976,-13.2940
-742.1875,-85.6169,-96.1495,-50.8289,-53.0129,-52.1680,68.1516,84.2161,199.9182,81.0230,81.8503,-18.3315,-160.8182,20.5456,-52.8738,79.6772,10.9479,-56.3679,-77.0284,150.7371,-4.1538
-734.3750,-101.8294,-41.4668,-67.2533,-33.3867,-31.5616,14.7372,142.0853,109.6825,64.7557,65.6078,39.7718,-68.5033,41.4567,4.4913,63.4339,-79.2426,-62.0730,-58.5989,98.5882,-20.4158
-726.5625,-149.1981,16.0778,-42.8342,24.0927,-7.1069,39.1632,166.8266,60.2939,16.3503,17.2209,-9.2798,-44.3450,-7.7850,-8.3065,88.0512,-128.5837,-20.4241,-35.3293,51.2966,-32.8270
-718.7500,-95.4304,69.7769,49.7247,112.7179,48.4885,57.7260,111.7291,-30.9399,-38.8967,-75.0108,-64.1823,-63.0427,-25.8795,-26.9474,33.8297,-72.7672,73.8998,-16.9160,-34.8340,-14.0912
-710.9375,-76.2177,88.9282,69.7282,132.7903,32.5297,77.7349,23.0982,-83.7216,-91.6877,-127.7860,-42.6343,-42.2948,-4.5257,30.8506,-18.9369,-88.4882,94.7030,36.9314,-86.5024,-29.9070
-703.1250,-42.1138,122.9780,104.6186,130.7633,66.4622,75.6396,57.3761,-122.6017,-93.5807,-129.6591,-7.1746,-7.6476,30.7299,-45.4588,-20.7948,-127.2970,107.7639,-0.3259,-88.2661,-31.8209
-695.3125,3.8804,133.9291,78.4026,105.6290,41.2855,86.4356,32.5662,-111.5807,-82.5722,-118.6350,-32.8003,-34.1053,-32.1097,2.1279,-9.7406,-79.2020,92.4985,-24.6815,-77.1297,-20.8376
-687.5000,79.3182,68.3351,47.6335,75.9479,-27.4396,91.6801,38.2221,-106.1133,-3.1162,-185.1641,-26.9658,-66.1144,-26.4952,7.1563,-4.2285,-36.6613,68.2633,-19.5931,-35.5434,-15.4036
-679.6875,34.7508,93.7436,72.8587,101.2678,-2.1735,80.9207,63.8878,-116.6480,59.3425,-196.6990,-75.1277,-78.1269,-37.8791,-41.8103,21.2895,-48.1157,97.6481,5.4941,-45.9559,10.0284
-671.8750,-14.8226,79.1612,58.0774,86.5876,20.0870,66.1604,49.5702,-131.1856,44.8111,-174.2404,-52.2867,-19.1433,-52.2663,-19.7881,6.8164,-62.5660,81.4322,60.5722,-60.3643,-4.5422
-664.0625,53.2940,77.2838,91.9851,49.6073,18.0411,-9.9013,47.9654,-97.0304,42.9891,-140.0814,-53.7473,-21.4600,-53.9574,-22.0695,5.0520,9.6913,72.1280,-11.6592,-62.0652,-6.4122
-656.2500,74.8033,-6.1893,40.2849,1.0222,2.3881,-25.5689,69.7690,-111.4718,27.5720,-82.5192,-68.7986,-0.3776,-32.2492,-0.9514,26.6959,68.3516,19.4816,-61.5007,-40.3594,15.1138
-648.4375,137.6598,-49.3075,-4.0728,-42.2133,-41.9217,-69.8918,25.9431,-45.5632,-16.4822,-52.6072,-1.4941,-7.9567,-2.1914,28.5017,19.7062,97.3690,-24.3300,-69.0053,-11.2965,7.9902
-640.6250,94.9556,-21.9784,23.0079,-15.0029,-51.8002,-78.7741,-20.4201,-55.2050,10.9302,-25.2458,26.2659,-18.0856,25.3118,-55.5986,-26.8208,124.8475,-3.1035,-77.0582,16.2195,35.3166
-632.8125,61.9466,-19.9497,24.7830,-13.0911,-49.9873,-76.9635,-91.0683,-53.1449,-23.9504,-96.1870,28.7295,20.4843,27.5125,19.9961,-24.6370,54.0312,2.1095,-5.4186,18.4370,37.3413
-625.0000,100.6791,-16.1603,102.3024,26.5724,-9.4294,-73.4098,-86.9553,-49.3410,-20.0776,-165.3771,-4.0572,23.8070,-5.5395,23.3320,-57.6960,-16.0300,63.5693,33.9675,22.4060,41.1180
-617.1875,78.4050,-3.3657,40.8143,39.2358,-33.8781,-24.8723,-37.8287,-72.5411,-7.2033,-152.5718,-27.8382,36.1311,-29.5919,35.6694,-44.7456,-3.0878,48.4961,46.3520,-0.6179,53.8912
-609.3750,84.3202,38.6301,11.5220,45.0949,-26.1265,-17.1477,-29.4812,-101.5418,-73.1200,-144.5641,17.5859,43.6524,-21.4417,80.1924,-36.5822,-31.9348,37.6708,51.9271,-29.4391,24.8641
-601.5625,80.1741,34.5802,44.1708,40.8992,6.5670,52.5176,3.8287,-105.5941,-77.0787,-148.6128,13.9681,39.1245,11.6565,38.6661,-3.4603,-35.8221,48.0031,12.4499,-68.3082,20.7860
-593.7500,8.0287,-2.4645,4.8116,3.7033,4.2530,50.1785,39.1521,-107.6471,68.9639,-78.6668,-97.6407,36.5947,-64.2465,73.1377,31.6712,-0.7101,12.4877,9.9673,-35.1745,18.7040
-585.9375,33.9795,-47.4010,-4.4601,-5.3860,-41.9690,40.9381,103.5961,-43.6055,170.1109,-13.6233,-179.1531,27.1702,-109.0555,-10.3011,59.9153,-46.4920,11.4960,35.5790,-7.9388,9.7210
-578.1250,-24.2825,36.4725,-65.9422,7.3257,-29.4048,53.4907,80.8549,-67.7671,146.0644,36.2082,-128.8592,2.5495,-96.0644,-34.9363,35.9745,-33.4773,-7.0899,12.9833,40.1046,22.5353
-570.3125,-44.3978,-18.4916,-49.2824,-12.8129,-12.7020,33.1927,24.2810,-13.7837,53.1766,53.1797,-2.4108,-54.9188,-42.9250,-18.4233,-20.8031,20.6863,-16.8323,62.5252,55.3003,2.4992
-562.5000,48.0796,-67.8477,-28.0391,-62.3523,-28.4151,17.4896,46.3236,7.7941,37.8968,74.7483,19.6454,-106.7850,15.8081,-71.3086,1.0282,79.4601,-28.9214,13.6583,77.1013,24.0619
-554.6875,19.9971,-129.7520,-94.3529,-124.4414,-58.6849,24.2329,53.8226,51.8252,45.0687,154.7692,-9.8472,-100.2012,-14.0136,-100.7484,8.3161,159.6874,-84.9189,20.2374,119.3661,31.0711
-546.8750,1.8048,-183.7581,-76.7704,-142.6302,-40.0578,5.8761,73.2356,106.7555,64.1456,173.6953,-64.4427,-118.7138,-31.9367,-83.2928,27.5103,141.8180,-87.3094,36.7055,136.5404,12.9802
-539.0625,-35.9991,-115.3678,-78.8050,-110.4277,-5.0435,-33.0866,145.0645,105.0865,135.6335,98.0168,-101.6315,-120.8242,-33.4632,-85.4320,63.1168,103.3615,-70.6705,34.5717,100.1221,11.2873
-531.2500,-43.2121,-87.3748,-86.2502,-117.6313,-12.4395,-77.4561,101.5157,62.0171,91.7347,54.9364,-35.2149,-18.3298,-40.3943,-18.9747,56.3383,23.5165,-83.9913,62.0241,93.3099,4.1911
-523.4375,-38.1347,-82.0722,-44.4065,-112.5342,-7.5424,-108.5331,71.2883,30.2426,97.1405,60.1528,44.4984,-13.5309,38.9691,-51.2214,61.8776,-8.0218,-75.4919,31.7696,63.8028,9.3947
-515.6250,-55.1110,-63.8119,-99.6256,-94.4844,-63.7080,-126.6692,53.0267,11.4149,152.5030,78.3105,26.1646,4.2134,-16.7208,-33.5160,116.3870,47.3949,-94.6939,14.4642,47.2454,27.5463
-507.8125,23.6973,-55.7478,-91.0504,-86.6359,-91.0867,-154.0071,99.5839,-15.6166,162.6791,14.2587,-74.3634,50.7604,-43.6110,49.9873,163.7116,20.6195,-84.0084,21.9500,20.4907,0.4991
-500.0000,-34.8087,-42.9831,-41.7877,-39.0881,-41.7738,-69.6539,186.8567,-76.9512,175.5654,-10.0981,-133.1886,136.0150,-67.8044,25.1893,139.7485,-40.4510,-47.8829,-36.8609,-1.5608,13.1500
-492.1875,-110.4653,-48.3688,-47.6809,-44.6920,-47.6168,-1.4565,71.9939,-82.4401,133.3069,-125.6075,-29.1584,167.1225,-36.1486,92.2354,97.6503,-8.6717,-58.6502,28.1766,-6.7641,7.6479
-484.3750,-42.2777,21.1012,-49.7316,-10.4453,-49.6131,33.5875,33.9977,-84.0850,21.9016,-127.2749,80.7253,128.0853,-0.6490,54.1281,60.4153,-47.0364,-34.8496,26.0577,-44.1170,5.9948
-476.5625,-6.3917,91.2774,-13.0928,24.5026,-12.9200,33.3325,71.7148,-120.0353,-14.8036,-127.2538,44.3133,127.7505,-0.4512,53.7297,60.8903,-83.6985,7.0221,25.6404,-113.7731,6.0378
-468.7500,-33.5577,64.4090,-3.5075,32.4010,33.7195,6.0241,45.3980,-111.0458,-4.5559,-81.2952,-19.1454,100.3753,9.6979,26.2742,34.3206,-73.4049,21.6335,103.1704,-105.4830,-20.9704
-460.9375,-97.7314,36.5516,40.0723,39.3055,76.3496,12.7103,53.0877,-104.0644,39.6929,-0.3431,-48.5992,34.0041,-20.1577,-41.1823,4.7581,7.8885,34.7710,39.6999,-27.1913,-13.9814
-453.1250,-110.5167,24.0973,27.0502,26.6082,63.3740,-37.2054,77.1911,-42.6838,-9.6617,60.0056,-97.6484,57.0328,-69.6108,-17.2439,29.6065,32.5852,22.8335,61.6285,-39.4949,-26.5958
-445.3125,-15.7641,-21.8114,15.5716,-19.5446,51.9419,-48.5698,103.8537,-16.7550,-20.4667,48.9040,-71.1400,9.6150,-43.5160,-28.7573,92.0148,21.8420,1.2617,50.1022,-50.2411,-37.6604
-437.5000,-27.3653,-33.0742,1.7334,3.9511,39.1462,-25.2898,128.1796,6.8265,3.3902,36.4485,-46.9851,-41.1485,-19.7803,-79.6175,79.0838,8.7557,11.9538,73.2255,-26.3333,-14.0784
-429.6875,-61.6188,-30.9783,3.2333,-29.2066,40.6925,-60.6598,57.8743,45.7581,42.6101,1.3404,-7.4858,-76.5637,-17.7021,-78.1269,81.5149,11.0160,-1.0151,109.6926,45.9299,-12.1484
-421.8750,-58.3775,7.6234,79.2224,-25.8669,79.7317,-130.5368,62.0843,12.1866,82.3356,41.7264,-3.4876,-36.4754,-14.1308,-75.1383,12.4586,14.7777,17.0925,7.6620,49.6950,-8.7194
-414.0625,-71.1859,30.1788,66.1564,-38.5781,103.7118,-179.4727,13.2610,-0.4365,34.0108,65.0543,-15.5349,24.5683,10.3856,-51.2036,-73.6372,75.4962,-0.0573,-5.4182,37.4099,-21.3438
-406.2500,-12.9449,-17.2131,90.1305,-16.2410,90.7357,-120.3682,-35.4968,23.9841,21.7383,52.4306,-27.5290,-25.3259,-2.0503,-27.2235,-48.6698,27.2781,26.2582,16.5438,-9.8303,-33.9186
-398.4375,1.4910,32.6010,104.2945,-1.7060,104.9529,-32.0777,-20.0436,1.5978,-0.3251,-6.0032,-12.3205,-11.0081,-24.2888,-50.0369,-33.4937,-68.7388,48.7162,-4.2874,5.1237,-19.2982
-390.6250,62.7210,94.2235,58.2586,24.6369,22.9661,-3.9906,-64.7772,-43.9931,-82.5771,-88.6483,89.6815,17.1163,4.2684,14.9475,-41.5065,-113.9639,43.0023,21.6795,-3.1259,-27.8801
-382.8125,131.4285,57.3560,55.7169,57.4854,20.4731,30.6026,-28.9999,-46.0907,-121.3241,-53.8070,52.1788,14.7415,39.3153,-24.5609,-80.0068,-41.6797,56.0777,-15.8571,-4.8737,-29.9627
-375.0000,63.4837,-9.1651,22.5134,25.6800,59.3178,69.5456,12.1395,-42.8435,-117.7186,-13.6241,19.0305,-19.2767,5.7075,-21.7143,-2.1432,-1.0313,30.5255,21.9545,-1.2724,-26.6982
-367.1875,-43.8566,-82.0900,55.8974,-11.5298,56.7497,104.0839,10.8976,-8.0025,-82.5039,-89.8390,54.4857,-58.6850,40.6942,12.7291,69.3296,-39.7696,16.8395,54.3563,31.9272,-28.8335
-359.3750,-98.9518,-65.7635,71.5210,4.5040,72.4206,119.8615,64.9144,-28.9159,-29.0363,-73.8078,-2.8078,-42.8355,19.9271,-8.5713,123.0669,-60.2548,25.2698,0.0116,13.3765,-12.7209
-351.5625,-80.3030,-10.6792,18.8910,-11.7120,55.8336,66.3854,85.6961,-8.0810,29.1867,-53.0358,-92.3512,-22.2330,-33.0948,11.8837,107.5674,-38.9918,10.1702,53.4119,32.5740,-28.8614
-343.7500,-53.7114,15.3614,45.2022,14.0244,120.1911,20.8579,114.4409,-17.3073,56.3632,-62.3206,-100.9500,5.3251,-5.1733,-34.7074,99.0294,-84.7745,33.5910,43.7600,23.7255,-38.0527
-335.9375,-114.1724,61.3515,19.4554,-10.2897,93.4902,-42.7239,126.1531,-43.5861,-5.5140,-88.6655,58.3966,88.8437,5.6889,-24.3436,73.4535,-73.6061,-1.7604,54.0639,-35.1724,-27.2978
-328.1250,-61.0829,78.9016,1.2579,6.9487,38.3340,-97.7569,72.4277,-61.3185,-96.8457,-106.4788,151.2954,107.9256,61.0985,-5.4296,56.4386,-90.8951,-8.1460,70.9159,-88.5242,-44.9937
-320.3125,30.3916,65.8608,22.4512,28.5891,59.5682,-113.3878,59.1057,-76.6551,-37.7752,-47.9077,99.5995,55.4165,46.9086,-58.1004,42.8337,-68.7845,18.3407,22.1691,-66.4809,-23.2912
-312.5000,59.7562,60.7227,16.5445,23.1287,17.6978,-119.1194,17.6960,-45.0950,-42.8055,-16.4431,58.8097,-23.1861,41.6205,-63.8743,38.1398,0.2266,22.0709,51.3247,-0.5417,-28.6929
-304.6875,71.9157,3.3808,28.4308,0.4686,29.6276,-107.0625,68.0989,-32.7452,-30.0321,-4.1846,71.8229,-47.9777,54.1307,-88.8502,51.2574,-23.9494,10.9427,-6.7234,12.1941,-16.2943
-296.8750,24.8314,-79.2038,-22.9395,-82.4412,-21.6999,-120.2704,92.2603,-9.6556,30.4909,18.8064,58.5889,11.9959,40.3855,-29.0701,75.1325,-0.3705,-59.5769,-19.0141,35.6725,6.8510
-289.0625,-19.7517,-123.2714,-69.8098,-126.8446,-105.5321,-93.9866,46.9323,17.9226,168.5158,82.2824,12.8525,39.4834,-42.8624,35.2109,139.5136,64.7002,-114.7260,-64.8021,26.6459,-2.5046
-281.2500,-15.1925,-152.1772,-102.5355,-156.0893,-137.2165,-89.5546,89.7631,22.6379,247.6868,160.9035,-18.7381,7.1332,-74.9687,2.6453,182.0528,179.9151,-156.7274,-200.4387,66.7663,2.2875
-273.4375,-82.9384,-148.3803,-135.5638,-152.6341,-170.2043,-86.4258,130.3048,-10.9495,214.5564,127.2180,-51.6303,47.4862,-107.3766,78.7819,223.2984,220.8345,-172.2763,-161.3750,70.5895,5.7759
-265.6250,-64.0459,-94.9374,-115.9479,-99.5282,-150.5527,-65.6419,115.5036,10.1108,199.0826,74.1765,-102.8698,67.4970,-123.1360,99.5675,208.2048,168.4087,-132.1640,-143.6602,55.0656,-10.0850
-257.8125,-92.0069,-16.3478,-109.1908,-57.2712,-107.7567,-58.7098,123.8599,-19.6806,206.7616,81.2719,-130.9561,148.6665,-151.7498,69.5106,179.2683,66.1303,-103.9100,-136.7860,27.6950,-2.7985
-250.0000,-102.9629,8.2579,-120.4374,-68.0081,-118.9654,-69.7747,114.2243,-30.4766,196.4404,34.3550,-105.0461,137.8417,-126.3672,95.4547,169.3359,55.8467,-112.1363,-112.9127,17.3173,-13.5134
-242.1875,-59.1226,17.6781,-111.8850,-58.9368,-146.3798,-61.0379,124.3911,-21.4865,168.9095,-67.7755,-22.3336,72.8253,-44.1934,67.2099,179.2059,101.3638,-105.7422,-139.2338,-8.2655,-4.4313
-234.3750,-59.3834,18.0003,-148.4387,-22.9660,-146.9011,-61.3970,52.4627,-21.5960,132.2754,-31.0171,15.2801,109.7200,-44.1256,66.8711,142.9846,101.7843,-105.9156,-104.6506,-7.9547,-4.4533
-226.5625,-48.9962,62.9734,-138.3454,-13.3428,-136.7764,-124.1029,65.1951,-10.0602,144.2904,17.3908,27.5435,121.2706,-32.4074,41.1796,118.4206,40.8530,-97.8385,-95.4175,-32.9980,-29.8267
-218.7500,2.1261,114.6956,-122.5069,3.0345,-120.9034,-108.0576,45.6784,-30.7734,87.0525,33.5420,44.5549,137.5755,-15.9405,-15.7546,62.6117,93.6755,-75.5431,-114.4288,-87.2936,-13.4533
-210.9375,31.5379,39.7245,-91.3688,-2.2874,-89.7279,-113.7108,-32.5259,0.8106,-101.8922,63.9830,76.8603,132.1888,15.8251,51.6146,-15.8884,125.7980,-63.1137,-49.1379,-92.2953,-18.7829
-203.1250,3.1502,11.9634,-11.0352,-30.4087,-9.3581,-70.1705,-24.5189,7.5838,-130.6405,70.6057,47.3632,102.0218,22.7813,22.1911,-8.1802,60.1240,-35.0612,-42.6410,-50.1071,-11.9121
-195.3125,-103.0791,47.3554,-11.5592,-30.3827,-9.8469,-107.4897,13.6420,7.5007,-94.2419,34.3686,11.0182,102.0211,22.8829,21.9216,29.6864,23.6036,-32.4675,27.0124,-13.7749,-11.8939
-187.5000,-84.4591,101.6059,8.7693,23.5004,10.5157,-86.9624,-38.3417,28.2595,-72.9986,-19.0264,32.5230,85.8770,6.8316,5.5004,-22.5946,7.9350,6.8144,45.5171,-29.5971,-28.0264
-179.6875,-23.4522,127.2596,33.4988,48.7888,-1.7256,-62.0361,-84.9258,-20.5875,-120.3584,-31.0270,95.4261,74.1379,32.1762,-6.5122,-33.4750,70.6627,27.4800,0.4326,-40.0179,-2.7612
-171.8750,81.1527,22.5126,-4.1707,13.6786,-39.3670,-25.5070,-119.8993,-20.8367,-156.1257,-31.4372,95.9272,74.0038,32.1163,66.0796,-32.7474,106.9901,0.8598,34.9516,-74.8452,-2.8984
-164.0625,112.4081,19.4172,-8.1944,45.2222,-43.3598,44.6732,-122.2181,-24.4434,-196.2444,-72.2048,129.0746,70.5308,65.7044,62.3246,-72.3601,30.9695,16.1279,31.1231,-43.0305,-6.3856
-156.2500,119.6110,97.2703,-38.2713,87.7131,-36.4069,87.8056,-113.5857,-54.1031,-188.4102,-138.0289,137.1690,78.0160,36.2375,69.5274,-100.0163,1.9015,34.0228,38.2512,-105.2733,1.0740
-148.4375,58.8676,37.1779,-27.2988,97.2571,-62.4057,98.9886,-101.9001,-79.7210,-104.5248,-127.8148,76.3089,52.5616,47.8178,80.7865,-51.6179,13.8881,35.6190,82.4277,-130.4751,-24.4170
-140.6250,39.5799,18.5421,-48.8784,78.2490,-83.9577,114.6245,-48.7674,-63.8988,-14.1942,-112.1604,18.9002,68.5698,-10.1562,59.5079,2.2291,30.3238,14.7662,28.0583,-148.2339,-8.4604
-132.8125,32.1476,46.7585,-56.6064,71.0960,-91.6631,70.1131,-17.7843,-108.2290,-95.0228,-82.6619,49.3463,98.4401,-17.2848,89.0798,-4.0758,23.6042,7.4440,55.5429,-155.1465,-15.6566
-125.0000,29.8627,115.1339,-22.1833,69.0975,-57.2186,31.7535,18.3479,-36.4163,-59.7038,-48.0242,10.9346,23.4677,-19.2687,13.8016,-5.2259,22.0323,28.9045,18.1846,-87.9138,-17.7022
-117.1875,-45.7781,76.1608,7.8875,64.7535,-27.1275,25.0424,13.1253,-42.9527,-28.7332,-91.7428,5.1693,17.1492,-25.6115,7.1812,-10.7213,90.1084,37.7774,48.4872,-92.0358,12.8990
-109.3750,51.4354,103.0382,-38.1912,91.2556,-73.1907,16.1788,-67.2457,-14.6430,-109.9087,-172.6151,34.2568,45.6871,2.8974,71.4138,-55.3633,8.0388,42.2612,109.6355,-100.3134,4.3499
-101.5625,115.9003,133.1668,-7.0222,86.0048,-5.0073,-26.4404,-71.3690,-20.0867,-150.8414,-106.2365,29.5938,40.4901,-2.3451,-7.0922,-95.7595,-33.7721,64.6088,104.0337,-105.3500,-0.9488
-93.7500,75.2228,128.1488,-13.0028,115.6073,-10.9745,4.7876,-39.6459,11.3150,-229.9328,-75.0160,-12.2210,-38.8474,-7.7403,24.2579,-100.3036,-1.7374,80.5130,134.2919,-75.5467,-6.3984
-85.9375,32.1475,85.7362,15.6194,72.8150,17.6600,33.6150,-46.3212,40.3105,-237.4308,-83.1975,54.5564,-46.5733,21.4599,-20.7912,-71.2478,27.9025,64.8378,126.1512,-83.1517,-14.2469
-78.1250,-23.7861,100.4756,29.3872,122.1747,31.4429,47.5847,-30.8485,17.4540,-222.7852,-106.2383,69.4844,4.8627,-1.1898,30.3186,-92.0417,-31.3096,82.6478,104.1730,-68.6109,0.0525
-70.3125,-35.0748,89.8698,17.8116,111.1856,55.8776,36.2078,-40.7253,-30.7551,-159.4931,-153.6469,59.0619,66.9598,24.8095,92.0826,-102.1828,-78.8749,69.2653,128.8494,-114.4251,-10.9972
-62.5000,-29.8114,130.8184,58.7810,116.7548,60.8600,77.3838,-34.0523,-62.4210,-117.6589,-148.5191,-8.8115,72.6134,-6.6424,60.4083,-59.7717,-72.8937,90.0737,63.0839,-108.6948,-5.4964
-54.6875,-42.7916,84.5144,45.5000,105.0754,47.5909,137.3176,-45.6333,-39.3392,-167.0820,-125.6505,-21.9353,23.0204,-20.3486,47.4922,-71.6081,-12.1576,82.6493,51.0768,-50.2233,17.7519
-46.8750,18.6347,-30.3885,35.6227,60.8012,37.7244,201.6549,-89.8111,25.1366,-213.1089,-135.3908,6.3289,-23.1616,7.3408,73.9806,-80.0463,15.9829,61.1309,76.4673,-24.3605,8.4013
-39.0625,34.5650,-48.7855,51.2467,77.0295,53.3542,254.4974,-109.5000,4.1040,-159.6383,-119.6425,-13.9101,-6.8315,23.5272,53.9824,-98.9853,-113.3864,77.8809,57.3678,-8.0053,24.5494
-31.2500,-7.7591,-20.4243,43.6211,70.0131,8.7374,210.0938,-115.4438,33.8196,-57.4177,-163.1448,-20.3995,23.2596,16.4597,119.7387,-105.1765,-231.0164,72.0449,120.0163,-14.9050,17.4452
-23.4375,24.9081,13.9368,76.9952,68.0011,43.1229,133.6972,-79.3900,-5.4711,-22.1944,-129.6485,15.1096,-15.6435,14.3875,7.5027,-106.3673,-121.6466,79.7646,47.6657,19.1893,15.3417
-15.6250,-3.4299,21.2936,47.3724,39.9855,12.5029,67.3032,-71.3357,1.2351,-14.9730,-13.1658,22.6204,-8.5374,21.3176,-22.7265,-98.5546,-5.2777,40.6118,-15.6734,26.2809,22.2382
-7.8125,16.6855,-28.8955,32.2005,-9.5749,34.3325,15.3594,-48.8340,23.3857,7.6974,45.7664,-28.4237,-22.9713,6.6936,-0.5052,-40.2917,-19.4548,14.4357,4.4393,11.8171,7.5860
-4000.0000,-1.1531,-8.1292,40.6321,9.9078,58.3509,3.4328,-28.9531,4.7941,32.4955,23.3033,-50.3753,9.2798,-12.3607,-7.5041,-23.4837,-30.0149,27.5846,6.9620,-16.0699,15.7387
-3992.1875,-31.5064,-37.7797,9.9238,-20.3961,-8.0749,-27.9240,-59.7623,10.5185,38.5622,-44.6650,27.4315,-21.9649,-6.9202,71.9350,-18.2634,11.9966,-1.3817,82.7848,-10.6771,21.5268
-3984.3750,-44.7607,-120.3327,-2.6881,-68.6091,-20.4052,-4.1861,-0.4716,34.3440,25.7379,-20.5288,50.3362,1.8951,16.6226,58.4801,5.0594,35.1089,-39.4641,69.7047,11.8149,8.4126
-3976.5625,-47.9675,-54.8358,-5.2473,-36.7752,-22.6840,-7.4014,32.8752,31.2189,-88.0327,50.6641,9.2914,35.8081,-23.7837,-18.9318,1.4292,68.2668,-24.0664,31.6702,78.3586,5.3485
-3968.7500,-42.2233,55.6038,38.1378,4.0052,20.9845,-37.6696,2.1667,38.0471,-117.8539,56.8175,-58.8028,-31.3217,-54.2392,-12.3929,-29.2539,37.3705,30.0853,71.5885,82.8577,-24.7655
-3960.9375,-35.0110,97.4919,45.9775,46.2381,-6.9018,6.5150,45.9048,8.3268,-36.2235,28.4220,-52.4438,-61.0078,-84.2455,-42.4087,14.5123,6.9145,54.4648,43.9618,54.8070,-17.4309
-3953.1250,-110.0887,23.0812,6.5161,42.1725,-47.0906,39.4016,41.3423,4.3067,-2.8930,97.7221,-57.3866,-27.9935,-88.5538,64.2736,46.9726,2.1593,17.1899,40.0351,15.4594,-21.3952
-3945.3125,-128.3626,-66.5268,24.8590,-11.0906,-27.4807,94.0876,59.5650,59.0845,52.2273,116.8153,-76.5256,-46.1774,-70.0590,45.7633,28.2245,-16.7934,-4.1537,21.9134,31.9086,-39.5606
-3937.5000,-143.5855,-117.0810,-27.7431,-26.2962,-43.8176,113.8240,41.8353,78.9070,72.3840,173.9520,-20.6136,-26.3045,-87.5099,28.3037,10.5228,2.2958,-43.7590,-28.1599,51.4057,-19.6763
-3929.6875,-93.5075,-102.3277,-84.0444,-82.1980,-99.8556,56.8646,21.4067,133.0238,126.8265,154.3820,-41.4044,-9.1209,-70.6646,45.1448,64.1173,55.6768,-90.4445,-12.9277,31.2041,-39.4925
-3921.8750,-86.5220,-95.6709,-76.4458,-110.2045,-91.9918,27.8009,100.8785,140.0419,134.1576,87.7080,1.7130,-39.0351,10.0839,-22.1101,143.6070,97.9490,-107.4384,-76.7944,37.9033,-32.4097
-3914.0625,-125.0305,-64.5122,-116.3454,-78.7097,-94.6284,24.2387,96.8453,99.5555,93.9908,84.5358,34.3293,-42.4527,43.3339,11.1373,139.5942,130.7223,-112.2153,-44.1619,34.1053,-35.8260
-3906.2500,-69.9392,-44.7578,-131.6459,-94.6162,-109.6642,8.2757,80.4081,120.6697,-31.5844,31.9627,127.5499,15.7353,63.1867,67.9886,86.1762,41.0983,-125.6315,-24.9253,52.9115,-51.6438
-3898.4375,-59.0857,-34.2526,-120.1924,-47.7727,-60.9482,19.0631,90.7220,94.5319,-94.4288,80.1321,100.5304,26.6805,73.7936,42.5873,60.5043,51.2168,-102.7616,-84.9410,63.4694,-40.7118
-3890.6250,-42.1253,-158.6443,-137.6408,-101.8310,-115.1364,0.9490,109.1392,113.4900,-38.1829,99.3957,81.6151,8.7309,55.5028,60.2855,114.9305,105.4338,-143.2723,-66.8532,80.1274,-58.6780
-3882.8125,-44.4068,-195.2854,-139.3440,-139.1398,-116.5819,-38.4152,217.3032,111.1992,32.8082,134.4007,42.4518,6.5342,52.9657,-15.2615,186.1060,139.4008,-166.3798,-105.0148,113.5368,-60.8949
-3875.0000,-132.0885,-143.3227,-157.4491,-155.8464,-97.4320,-57.1766,235.0670,92.5047,88.4013,79.0037,22.8935,24.9434,35.0273,2.7879,203.8802,156.9672,-178.8391,-86.5801,95.5469,-42.5095
-3867.1875,-133.1689,-74.7695,-157.9588,-121.9566,-97.6852,-58.3374,196.4283,91.4119,87.5941,-31.7939,20.9344,23.9562,33.6854,38.4430,202.2546,8.1309,-148.6146,-16.5406,59.1628,-43.5240
-3859.3750,-54.3450,3.6846,-149.5661,-43.1638,-126.0389,23.4016,166.6942,26.2120,95.6856,-23.6929,-9.1263,31.8720,-32.7570,8.9993,135.5285,-21.8088,-96.0593,-43.6007,66.6802,-35.6390
-3851.5625,-65.1082,-78.4406,-159.7740,-53.9629,-135.9958,12.5380,118.3582,51.4064,85.1614,38.8000,16.2167,-15.8040,-6.7986,70.9544,87.1954,40.6418,-118.2168,-54.2632,90.5966,-46.3534
-3843.7500,-65.5678,-114.2613,-122.6845,-90.4633,-135.6543,47.9772,154.3144,50.8967,121.9193,38.5787,51.8656,-16.1775,29.4626,34.2180,123.1651,112.3925,-132.2607,-125.6188,54.8140,-46.7690
-3835.9375,-45.3779,-23.4351,-138.9445,-70.3154,-114.6652,-4.9271,99.9240,-1.9676,179.3200,-13.9999,107.1702,41.1008,49.3759,17.1281,105.7832,58.7971,-123.4529,-105.3254,-30.3183,-26.5324
-3828.1250,12.9220,34.4873,-113.1085,-46.0660,-125.5910,-53.7292,-22.3752,-13.7332,56.8129,-25.4865,205.5880,65.4846,110.3950,5.1460,-16.5086,-27.6987,-90.5432,-10.9263,-78.3504,-38.1939
-3820.3125,119.4881,69.6620,-38.0245,-10.5665,-87.2718,-53.2806,-59.4309,-13.2517,-126.4575,12.2672,205.2637,30.1222,110.6643,-31.5796,-90.5540,-27.9540,-32.0406,-45.2728,-42.1265,-37.6052
-3812.5000,175.2485,55.0396,-51.7345,-24.8591,-63.7499,-67.6270,-74.2850,-27.5728,-176.5412,-1.7809,153.1325,15.9602,96.1303,-9.1022,-68.4026,30.9856,-31.0471,10.5814,-56.6961,-51.8158
-3804.6875,206.7147,16.1207,-17.7454,-63.4543,-29.5283,-108.2713,-4.4405,5.8043,-106.9413,-42.1340,111.7069,-24.5006,92.2977,-49.9207,-35.5576,26.6211,-24.5227,42.1407,-60.5622,-55.3287
-3796.8750,167.5972,-23.3837,-23.3583,-32.6491,-34.9120,-77.5144,-11.2021,-0.4253,-38.9591,-48.0891,104.6901,-30.5533,85.8657,-19.3439,-42.3236,19.6634,-13.4926,73.0933,-66.0328,-24.4407
-3789.0625,87.4850,-68.8849,5.0224,-41.8435,-43.3055,-49.7564,-57.9701,-9.6578,-10.9871,-57.0504,168.6744,-39.5940,113.4301,45.2440,-52.0931,-27.2949,-15.0750,135.0498,-75.5007,-33.5521
-3781.2500,134.4694,-58.2912,16.5073,-30.9387,5.4017,-38.8983,-10.6336,-35.7905,-36.9228,-45.9191,141.7588,-28.5314,87.0938,-18.0618,-41.7632,19.8491,-5.9309,40.1092,-64.8632,-22.5639
-3773.4375,140.4572,-16.7033,-14.0085,-61.0354,-24.8952,-107.0331,31.7026,-103.9202,-67.8630,-76.7922,73.8465,14.5298,56.7559,-12.3700,0.5615,97.9989,-27.5133,46.1708,-59.2169,-16.5728
-3765.6250,104.7413,-16.8056,-13.2320,-24.8328,-23.9034,-106.8675,68.3355,-103.7500,-30.5110,-76.3728,36.2425,-22.1096,19.7211,-49.3716,37.1859,61.4401,-9.7374,46.5352,-23.2650,-16.2819
-3757.8125,84.1815,32.2546,1.6926,-10.4712,-8.7709,-92.5454,82.1137,-125.4393,20.9778,-24.8168,49.7954,-7.5935,33.8379,-108.2261,13.9584,38.0289,3.9196,26.0473,-45.1660,-1.8387
-3750.0000,105.1845,17.8692,-11.8356,10.4450,-22.0948,-69.6712,30.4402,-139.5850,7.0026,-38.7248,34.9006,-21.5187,19.5016,-49.5225,-0.7217,23.1687,13.2278,82.1134,11.4827,-15.8441
-3742.1875,51.6568,-1.0700,42.0825,61.8039,32.0237,-16.3458,9.2183,-87.2842,-13.5337,-96.1943,13.4654,-78.9937,35.6192,-106.3613,52.0489,1.7589,59.2276,63.6328,-7.4158,0.6013
-3734.3750,-57.4670,65.3936,39.3955,93.5581,29.5334,-19.6202,5.4008,-126.5880,20.3253,-99.2725,9.4349,-82.0658,32.1357,-73.7973,11.2231,-39.2473,74.7118,130.5435,-10.9087,-2.5496
-3726.5625,53.4479,140.9179,45.7497,134.3654,36.0844,-12.8440,-25.3695,-120.8461,-9.7700,-129.3014,52.4555,-75.0809,38.6974,-67.1725,-56.5563,-216.2033,112.1416,171.5026,-6.3456,-32.6504
-3718.7500,99.5674,186.6500,94.3036,180.3765,84.8313,-1.8623,22.0543,-109.9077,-72.6763,-118.1380,25.6824,-100.8839,12.4592,-129.3474,-46.1424,-205.9655,159.6368,111.6573,4.4168,-21.5500
-3710.9375,84.9973,65.6889,80.1514,130.6900,33.8684,-16.5807,6.7746,-50.6741,-124.2914,-58.6800,10.2178,-78.3842,-2.4806,-108.2157,12.5672,-75.4278,113.3679,97.1096,-10.5191,-36.1462
-3703.1250,81.4312,61.7319,76.9981,91.0034,30.8888,-20.2978,2.4888,-54.4446,-127.9140,11.7619,5.7672,-44.8808,-6.4170,-112.0801,-28.7222,-42.8809,84.8261,23.5643,-49.4523,-39.7416
-3695.3125,89.1717,140.0781,12.1384,98.6156,3.2027,-49.7149,-27.4927,-83.9201,-83.2533,19.4981,12.6256,-0.0708,0.9450,-104.6416,-95.7118,-36.0258,61.8648,-3.6874,-78.0800,-32.0333
-3687.5000,145.8190,125.3278,-1.8273,49.1229,-10.5973,-64.2314,-42.5769,-61.5003,-97.7049,-68.8711,70.3818,22.6462,23.2058,-82.2881,-110.8048,22.7306,30.5496,-18.0339,-92.8020,-46.4249
-3679.6875,136.3694,114.4813,24.1046,74.5331,15.5002,-38.8434,-17.7599,-110.1852,-109.2649,-117.3455,59.0440,48.2624,48.3655,-94.0347,-86.0010,10.3851,51.8333,-27.4828,-67.6180,-20.9160
-3671.8750,118.9634,97.6905,43.0859,93.0016,-2.3570,-57.4028,-36.9014,-91.8231,-162.7853,-207.7736,39.7639,66.9335,29.5759,-1.7336,-31.1524,-82.9030,74.4230,61.1175,-13.3836,-2.3550
-3664.0625,157.0558,170.4029,81.5642,94.9649,37.2787,-18.4658,-35.5420,-89.9623,-160.8145,-242.7113,40.9893,32.1070,68.2845,-36.9256,-29.8035,-190.6814,107.7863,63.2222,-47.6476,-0.2941
-3656.2500,112.4600,161.4285,110.3337,121.2290,65.2056,9.7736,-81.8754,-134.8046,-133.5462,-177.3604,-5.4813,-13.4148,22.2936,-45.8199,-112.1557,-91.1672,134.7424,89.6222,-56.6076,-8.9310
-3648.4375,59.6209,72.2125,92.8429,103.2463,47.8683,28.7643,-100.4643,-79.9010,-151.5394,-123.2647,-24.1951,-31.1832,4.0519,-63.9521,-94.7642,-35.9035,110.8823,106.7737,-38.8111,-26.8170
-3640.6250,72.2344,84.4471,105.7989,115.7165,97.9739,41.2137,-88.6054,-67.5444,-175.0985,-73.7283,61.5511,-55.5028,16.2590,-124.6345,-118.9213,-61.1831,122.8473,84.3760,-26.5622,-14.2525
-3632.8125,-3.1508,113.6851,137.7507,75.1887,93.0672,35.6670,-94.7454,-73.1934,-180.6785,-42.1984,91.3107,-60.8208,47.4716,-94.3180,-125.0819,-67.4487,114.4317,113.9746,-32.3081,-19.6845
-3625.0000,35.7228,117.1728,178.9441,78.9052,134.3983,39.3703,-91.6384,-69.5941,-214.0331,-112.4173,94.3338,-56.8834,50.9360,-53.7409,-121.9959,-101.4577,134.0759,82.8228,-28.8026,-15.8670
-3617.1875,101.6484,7.7147,136.1877,39.6707,55.7757,106.1245,-61.4791,-38.9495,-146.3461,-117.5877,-22.5903,-25.8935,7.4530,-23.1100,-91.8662,-71.4048,100.9049,43.7104,1.7552,15.0011
-3609.3750,89.2252,-5.0861,51.0727,-7.9157,43.7944,57.5249,-74.6724,-51.6605,-159.0145,-94.1261,-35.8625,-1.2445,-5.3862,38.1817,-69.0818,-10.6945,37.9416,31.2475,-11.0395,2.5226
-3601.5625,61.5585,36.8684,94.6970,-0.7523,51.5485,-9.3266,-31.1163,-81.6251,-151.9361,-86.9269,7.6230,43.1656,1.5243,8.2322,-62.5444,32.7636,44.2879,-32.4680,-75.0846,9.7957
-3593.7500,75.8972,-20.1690,36.3129,-57.5901,29.2905,-69.1776,-54.5577,-67.5984,-137.8619,-35.7372,168.1191,57.5817,52.4371,59.2827,-49.0090,46.2263,-27.5423,-88.1910,-96.1241,24.0730
-3585.9375,120.0806,-81.3512,-28.2287,-117.5822,-35.1289,-96.1808,-46.1535,-21.7256,-92.9524,10.2975,176.4808,66.8469,98.1994,31.1917,-3.6244,17.5528,-81.9713,-79.0596,-87.3106,33.2017
-3578.1250,103.4177,-63.3839,-46.6262,-99.4269,-53.4079,-78.0306,8.4020,-40.7013,-38.9097,28.4715,120.9982,48.2667,79.1167,-24.7426,50.9112,35.0413,-77.0638,-94.7871,-69.3426,51.4836
-3570.3125,43.3663,-88.8057,-71.4335,-90.6742,-41.1005,-67.2769,56.5555,-29.0826,-27.2758,3.2387,21.1255,60.2912,53.6315,23.9298,99.0405,46.1346,-83.6861,-50.9197,-24.7699,26.3688
-3562.5000,15.4661,-116.0730,-27.0996,-117.7729,3.3406,-23.3684,99.8544,-22.3109,53.5045,-26.8533,-46.5898,-6.5364,23.2950,30.7564,105.3226,89.3840,-73.1447,-78.9028,17.9587,33.4048
-3554.6875,27.2549,-104.6327,-52.0754,-72.1702,-21.5278,25.2481,36.8594,-10.8406,27.9808,-52.2478,-35.6025,-31.6632,-2.3437,5.2782,42.3107,100.3391,-51.4790,-32.1908,64.4001,45.1444
-3546.8750,-8.3058,-140.5378,-14.4143,-36.9192,-20.7590,99.5155,-0.4821,63.2831,-8.9038,-87.9977,38.0420,-67.1346,-2.3377,5.4618,41.9520,-84.0531,-19.8232,3.1703,134.4936,45.5348
-3539.0625,-108.5546,-101.1344,-10.4624,1.6303,-16.7029,139.0803,39.4842,103.6988,68.4933,-48.4564,4.0017,-99.2968,0.9708,-28.0465,44.8970,-191.1421,-0.2999,6.8196,172.8819,49.2259
-3531.2500,-100.9543,-23.8776,-36.6713,-24.9729,-5.8109,112.4987,12.2993,76.9590,78.7323,-75.0676,-23.1784,-89.6088,-62.8656,-17.7020,17.6907,-144.3634,-9.4262,51.3168,146.1213,22.7704
-3523.4375,-39.4569,38.2769,29.0145,37.3224,59.9686,103.8225,3.0112,68.1154,-4.1345,-119.7831,-105.4504,-98.0231,-71.8028,-26.4453,-28.6152,-117.6728,63.2508,77.7132,102.2630,14.2160
-3515.6250,4.1894,10.5886,73.8432,79.7648,67.8877,148.3002,-27.1199,1.4204,-142.8549,-76.3625,-98.5620,-90.2837,-100.5887,17.9644,-94.7681,-74.8214,106.7410,120.2464,74.5596,21.8151
-3507.8125,14.0916,-50.8465,84.9028,54.4539,116.0383,123.0276,-89.9979,49.9699,-205.3287,-27.7059,-51.4096,-79.2872,-53.1274,66.6306,-120.6641,-100.7092,90.4403,130.0267,84.1104,-3.3327
-3500.0000,-6.4590,-36.7298,136.5033,68.6883,130.7229,100.3074,-76.3198,27.0704,-118.2608,-50.5067,-37.7020,-27.7426,-39.1162,6.8519,-71.0041,-87.0333,105.6774,74.3530,63.2219,11.0714
-3492.1875,-103.0123,8.3927,146.0949,112.9219,103.3955,73.5897,-67.6391,-37.8316,-73.2046,-150.3108,-101.9891,-18.2001,-30.1049,53.0748,-25.3454,-78.3432,127.3358,118.6754,37.3369,20.4776
-3484.3750,-80.3570,65.7254,133.8784,135.3591,91.2569,61.0716,-6.7626,-50.5350,-85.9630,-162.9209,-115.0661,6.5450,-42.8966,40.5039,35.5089,-163.4531,131.2187,71.2018,-10.3514,8.0829
-3476.5625,-3.4485,141.3200,102.9093,141.0517,97.3628,29.8010,-1.6343,-81.9920,-152.4800,-85.2890,-73.8889,49.5405,-37.4394,46.1792,-33.3890,-158.3033,121.7727,6.9730,-40.7875,13.9390
-3468.7500,57.8526,97.3240,131.3306,97.1468,88.8562,-16.0676,-85.1033,-54.0555,-235.6048,-94.2680,-9.3028,40.9368,-9.5826,110.2591,-79.8843,-58.7388,106.3677,-1.8566,-49.8207,5.1967
-3460.9375,74.1063,78.2863,110.6953,78.1936,32.2864,0.0189,-105.6201,-38.1724,-145.7955,-41.3087,6.2492,20.2791,6.2232,53.2968,-100.4276,-6.2180,79.0216,-91.7377,2.0981,21.4051
-3453.1250,-33.5424,76.3558,-0.8481,41.3409,-43.1903,-1.7869,-72.0320,-3.1939,35.1044,30.7493,-70.0921,55.7196,-69.8698,88.4408,7.1339,-45.5961,7.9297,-93.5256,35.1176,19.7167
-3445.3125,-150.5971,63.0215,-50.7991,-6.9147,-56.0773,-14.9842,62.1538,20.3881,168.5994,-19.5972,-83.8300,79.7586,-83.3647,75.1915,103.2970,-22.3605,-47.7865,-106.7161,56.7456,6.6281
-3437.5000,-117.7991,25.5387,-54.9100,-10.3218,-60.1306,17.6745,94.1931,-21.1782,126.9493,12.8999,-87.7129,75.6474,-87.0100,70.7888,99.3174,9.7367,-54.4611,-179.0652,89.2263,39.3908
-3429.6875,-27.5982,11.4686,-104.6386,-24.3302,-109.8002,40.7318,-31.3637,1.6495,39.6970,35.7868,-29.1830,61.9399,-65.2555,129.7905,10.7418,69.2498,-81.7420,-193.0230,110.1061,25.5549
-3421.8750,50.6458,-17.5409,-97.3295,-17.2882,-138.4343,84.8393,-24.8646,45.5231,119.4908,79.7155,-59.5844,-4.7161,-94.4495,100.8482,17.2182,111.8191,-68.9762,-220.9341,152.0365,32.7682
-3414.0625,-96.1682,-93.5944,-139.0799,-58.2969,-144.1264,78.9038,42.5935,112.3416,224.2220,109.5969,-102.0260,-10.4299,-100.6889,130.8568,120.6536,105.3516,-118.7799,-191.9070,216.9202,26.9335
-3406.2500,-146.3822,-110.0446,-155.2426,-143.7053,-160.2327,62.5687,98.6543,169.7602,207.5420,130.0747,-82.8603,10.4573,-81.3303,114.4755,140.6956,15.4948,-165.5350,-173.2834,235.4045,10.6980
-3398.4375,-124.2371,-88.1400,-170.0623,-157.7619,-138.0019,47.5857,84.0696,154.5229,155.2106,151.8849,-97.3319,69.6970,-95.6182,63.4437,89.0883,73.9966,-171.7737,-186.3156,222.2373,32.8133
-3390.6250,-138.4965,-67.6255,-147.2951,-136.2224,-116.1862,-3.7939,69.0911,139.8811,67.4756,137.2871,-76.1970,92.5364,-74.3089,159.0169,74.0833,95.1125,-155.5308,-129.7557,172.6772,18.5307
-3382.8125,-81.6014,-8.9607,-123.3896,-79.5393,-55.2338,20.9739,56.2631,90.3906,17.8815,161.8331,-51.9040,80.5193,-86.8505,146.7429,61.2326,46.3985,-111.9670,-142.0486,89.2723,6.3980
-3375.0000,72.9935,4.4072,-145.7929,-31.1598,-114.5920,-2.5541,-4.8614,67.6006,-6.0188,175.0760,-1.8999,57.1983,-36.6902,50.1664,0.0815,59.3961,-91.5614,-164.6451,32.5680,19.9681
-3367.1875,113.5817,-26.2286,-177.2039,-60.7754,-181.9633,-34.0807,-36.9927,72.8124,36.0687,143.3170,77.1164,62.8821,5.4733,18.6003,4.9275,137.4065,-120.6775,-123.2405,72.8651,25.5381
-3359.3750,-5.6320,31.3486,-155.4207,-39.1882,-123.1420,-85.4081,21.0825,20.2201,130.3534,127.7546,24.3391,121.7606,-10.1659,3.2345,62.9802,121.6279,-113.0891,-172.6444,59.3653,47.3058
-3351.5625,-122.0025,53.7872,-167.7986,-16.7532,-135.4795,-61.8837,8.0172,7.4764,117.4922,115.0373,-62.5875,145.4860,-59.9594,101.7174,86.8962,145.7167,-109.1341,-114.2083,11.7172,34.9236
-3343.7500,-65.0845,41.5220,-106.8845,6.9752,-111.5261,-37.0583,32.2609,-4.9654,68.9272,66.6150,-38.2061,97.5034,-72.4539,89.5061,37.1213,96.1226,-64.0970,-92.4714,34.3740,22.8407
-3335.9375,-18.7223,52.7086,-95.5258,18.1529,-100.1334,11.2243,5.9623,6.0433,42.8070,77.6362,-64.3645,71.9727,-97.4969,63.7487,10.7965,70.9825,-35.2852,-46.2928,45.4841,34.2093
-3328.1250,-77.1111,29.1519,-82.9330,-5.4188,-87.5076,24.7579,18.9154,19.3002,55.9334,16.9064,-51.2652,121.6950,-85.2909,77.2467,23.7233,47.1055,-50.3185,-34.8711,56.8413,10.8269
-3320.3125,7.1095,112.2011,-69.7491,42.6056,-74.2955,0.8915,-5.5305,-41.8453,68.6599,-7.2287,-38.5551,172.0079,-72.4866,53.3452,-0.7451,22.8411,-20.4612,-91.8537,-36.2015,24.0425
-3312.5000,52.0248,156.9488,-59.8778,17.3263,-64.3933,-26.2709,-106.2674,-69.2931,4.0870,-34.6689,7.8660,145.0108,-62.9802,100.1440,-65.5044,-4.7026,-13.5171,-47.1401,-61.5405,33.9600
-3304.6875,122.4358,157.1960,14.4821,52.5442,-64.0033,-25.9319,-179.4977,-69.2419,-32.9878,-34.6127,7.7991,109.5087,-25.9701,63.4443,-101.7534,-4.7362,42.2010,-11.9256,-96.3783,34.3766
-3296.8750,111.2416,110.8456,38.2299,76.1588,-40.2220,-2.1961,-193.3140,-81.7919,-9.6605,-48.1525,-5.8599,59.4007,-39.5607,50.1413,-114.5919,18.6519,67.5895,11.6782,-72.8155,58.1917
-3289.0625,21.3813,125.8441,18.3163,56.1167,-60.1028,14.8908,-176.7733,-28.9926,-66.9843,-104.3414,47.8392,76.6448,-22.8016,67.1972,-135.0735,35.4122,45.9418,62.6217,-57.9018,38.3555
-3281.2500,30.3616,99.6985,27.2444,29.9211,-14.1422,23.8243,-168.3719,-20.3406,-58.4555,-22.6836,56.3996,85.7285,-14.1894,2.1033,-126.6984,44.0288,33.2309,0.4115,-49.1377,47.3674
-3273.4375,28.6464,27.8615,-11.5402,-7.9751,-52.8909,22.0573,-170.6683,14.6097,-23.6245,86.2703,17.2707,10.1046,-16.2746,37.3047,-129.0172,114.9585,-2.3513,-1.5064,-16.0739,45.6803
-3265.6250,10.5322,-26.3780,7.2625,-26.2756,-34.0562,3.8860,-116.3622,33.1624,31.8015,103.8208,-1.2512,-7.9270,-34.7611,19.1132,-75.7295,133.5174,-10.9835,-19.8286,-34.4106,27.5904
-3257.8125,-14.3780,20.5830,-18.7442,-15.3847,-23.0350,-22.0863,-32.8423,-30.0867,42.4300,78.5675,-27.5668,77.2326,-24.0493,-6.8798,-65.2281,144.2973,-20.1663,-43.9627,-58.5444,38.7008
-3250.0000,-22.9495,46.8975,-27.4186,11.8506,-31.6776,-30.7065,-78.9591,-38.9883,-3.5855,32.6679,-36.5269,105.7404,-32.9899,58.4787,-74.3632,98.4398,-6.7989,18.2439,-67.3262,30.1608
-3242.1875,28.0595,96.8038,24.4969,61.6837,-16.7303,21.2750,-173.4701,-24.2844,-25.9946,-26.6279,-21.8817,46.8461,-18.3291,-0.5577,-131.8886,77.1949,54.0025,33.0412,-87.5024,45.2161
-3234.3750,60.0020,128.6588,21.3517,128.4604,-19.8393,18.2117,-214.0180,-64.6294,-66.4513,-66.9621,-25.2819,80.8950,-21.7213,33.3565,-172.4546,73.9239,90.2020,99.7749,-124.7271,42.2200
-3226.5625,34.5936,138.1667,69.8394,102.8816,28.6847,29.8009,-202.9051,-53.3180,-128.2502,-92.6489,-14.0263,92.5840,-10.4652,117.9260,-198.3639,11.3162,97.0080,109.1533,-150.2995,16.8694
-3218.7500,16.0900,154.5871,122.2156,154.2029,82.0939,83.2905,-149.8795,-74.1058,-185.1467,-112.4399,-34.8633,72.1570,5.6910,98.3872,-219.3604,-46.3917,146.7218,90.4247,-169.9639,33.4163
-3210.9375,18.1772,121.6207,124.1775,121.1291,47.0931,85.3814,-222.2399,-72.2956,-220.4434,-146.6340,40.9081,37.3223,44.4444,100.4406,-217.7429,-7.4915,135.6014,162.2900,-168.0267,35.5613
-3203.1250,17.9562,156.3502,123.8304,85.7501,83.7762,48.1709,-148.8925,-108.7784,-258.0348,-147.1296,113.3853,37.1848,80.8964,26.1951,-181.4139,66.1299,115.8761,126.8543,-168.3905,35.4017
-3195.3125,-12.7729,161.5718,92.9744,55.8662,88.9510,16.4591,-108.0293,-139.7613,-216.1087,-142.1262,155.3683,79.5367,85.8511,31.4427,-139.5730,71.2648,79.5322,96.9102,-198.2514,40.7413
-3187.5000,7.3379,75.6369,39.9538,39.8216,35.9621,37.5978,-88.3097,-119.8885,-86.3320,-122.2717,102.2128,100.7218,69.6605,52.5469,-83.8718,-55.7309,46.9139,115.8134,-109.2576,24.9280
-3179.6875,-43.7470,25.4989,22.7262,59.5695,18.7668,57.5365,-31.7839,-100.2101,44.2373,-102.6124,11.8646,83.6932,15.2744,35.4493,-27.3646,-72.9076,46.3714,100.5061,-89.4593,44.9114
-3171.8750,-36.2833,-3.0836,-6.9606,31.8653,-10.8828,28.0229,12.3037,-92.9858,51.3551,-131.4039,-17.9247,54.2102,22.4367,79.9015,16.7006,-65.5174,22.5841,107.7401,-47.1161,52.4429
-3164.0625,-82.3288,-14.1571,18.8434,-15.3413,14.9556,16.9992,37.9032,-31.2657,2.9791,-70.6960,7.7947,43.2303,48.1014,31.8533,42.2775,-39.6183,2.2907,61.4724,-23.2821,41.4684
-3156.2500,-147.0883,-8.9263,-13.0626,-10.2476,20.0889,22.2756,5.8176,-26.2470,44.9165,82.3103,12.8295,11.5405,16.0675,0.0954,10.1652,39.5923,-19.9622,-4.5013,17.8491,46.7904
-3148.4375,-39.5071,-41.3478,-45.6315,-42.8061,-12.4355,-47.0970,-26.9098,52.1214,122.2071,122.6702,17.2191,-20.8121,-16.6141,4.6863,14.4150,44.1693,-41.6941,33.8736,20.3282,14.4599
-3140.6250,0.2727,-72.5673,-42.0045,-74.1624,-8.7666,-43.2602,123.5722,91.6904,199.6942,126.2229,-90.1898,-53.9810,-50.0962,-65.5232,90.8700,-26.0444,-43.5308,2.4479,59.0060,18.3236
-3132.8125,-114.8527,-81.6777,-88.2778,-83.4129,-18.0004,-15.3179,114.1633,119.3600,190.2815,190.8726,-135.5015,-26.0629,-96.4791,-37.6375,81.4338,38.8470,-76.8290,-6.8858,84.7899,9.2849
-3125.0000,-119.9388,-86.7380,-56.5143,-88.6166,-60.1961,-20.3216,71.8122,151.0826,147.9215,148.5792,-104.7483,-31.1096,-64.8103,-42.7006,40.0590,69.8031,-72.0424,-12.1716,114.6243,4.2882
-3117.1875,-57.4800,-94.2542,-66.2121,-96.2791,-69.8478,-29.7774,26.0244,141.3643,138.1244,101.8491,-3.4321,-40.6196,-37.5919,-52.2264,30.2396,24.3337,-72.9350,15.0775,107.0112,31.8353
-3109.3750,-91.8735,-93.6308,-100.7759,-95.8013,-67.3639,-27.0824,-8.6084,143.8041,177.4814,104.2815,-0.9579,-0.9903,-35.2170,-12.6046,-4.4215,-9.9623,-91.8373,50.4681,107.5496,-2.4714
-3101.5625,-128.8749,-60.6167,-28.9498,-62.9315,41.5156,-28.9886,26.1695,141.6503,175.2410,139.1172,-77.0736,-39.9736,-37.4374,-51.5833,-6.6722,25.1516,-44.1108,13.2557,70.4916,-4.3837
-3093.7500,-91.8900,-93.5990,-27.1280,-61.0643,6.3924,10.1016,27.9638,143.5011,66.0169,103.9583,-75.1933,-74.9722,-35.6550,-12.5728,32.0933,100.2768,-41.0475,15.0385,37.4387,-2.3002
-3085.9375,-13.0185,-85.6773,-54.4175,-88.2993,-20.8363,20.0888,73.6754,153.2573,75.7021,76.7055,-28.4127,-102.0856,-25.9769,-2.6608,40.7717,73.3098,-58.8475,22.7170,10.2916,-29.3244
-3078.1250,-75.3516,-40.9580,-82.9130,-43.7388,-12.2728,28.8781,119.1980,124.8242,121.1944,85.2566,17.1771,-93.4127,19.5020,-67.9582,86.2644,82.1556,-59.6052,-3.8111,-16.0557,-20.5550
-3070.3125,-84.3558,-155.8965,-92.0658,-52.8344,-21.3607,20.0178,110.0838,152.7426,75.0425,76.1641,44.1245,-102.4016,10.3340,-2.9048,77.1200,110.3741,-73.9265,57.0028,-25.0549,-29.4401
-3062.5000,-46.4124,-153.8889,-90.2791,-50.9895,17.4890,22.1004,148.9336,117.6171,3.8508,41.0170,120.0260,-100.4518,85.1197,-74.9044,78.9390,38.5580,-72.7789,23.7629,-58.1018,-27.3832
-3054.6875,-106.0683,-36.4749,-79.1036,-39.7438,28.7335,-3.4173,123.1924,91.8890,-58.9392,-57.7316,131.3382,-52.1145,96.3084,-63.5119,90.1667,-22.8478,-54.8161,69.9185,-11.7510,-15.9315
-3046.8750,-150.4396,-45.7633,-14.6367,-49.1983,55.2716,24.3672,113.7631,82.4610,5.5754,-104.1751,84.9521,-61.4912,123.7987,-35.8210,117.7095,-31.9410,-37.3108,60.3759,13.9037,-25.1865
-3039.0625,-95.7699,-166.0091,41.8748,-29.6079,74.8566,80.1991,96.4024,65.0900,61.1553,-47.5566,31.6204,-150.8291,106.3361,-53.0908,100.3166,61.0312,-2.8177,44.8732,-1.3924,-5.3994
-3031.2500,29.7459,-147.4072,26.2209,-10.1746,59.2825,64.8834,7.9082,49.5739,-64.4015,-63.0779,52.1406,-130.3307,90.7218,5.4841,11.7858,45.8663,13.6225,99.2119,-16.8377,-20.7687
-3023.4375,118.2498,11.1802,81.5587,42.2505,78.6985,47.5656,-9.5782,-3.9303,-191.9457,-117.5897,108.6695,-74.8511,110.1090,-11.9437,-42.7301,-118.2831,67.5019,46.5487,-69.2794,-38.1457
-3015.6250,89.3426,88.3648,51.4933,14.2721,85.7097,-18.1496,33.5442,-70.8252,-184.8800,-110.4907,152.8041,-30.7893,117.0988,-4.7769,1.3624,-73.8200,32.3135,-16.5302,-98.1201,-30.9293
-3007.8125,-39.8145,29.3005,27.1672,-9.9595,24.4628,-79.1160,83.4216,-57.9684,-62.0579,-60.6344,165.6944,-17.9838,92.8412,8.1380,50.2092,12.4055,-15.2353,-5.8672,-51.2171,-54.9697
-3000.0000,-55.1187,14.0857,46.6832,-25.3458,44.0603,-96.2350,140.1565,-75.2533,67.6271,-3.9259,74.4350,-35.3437,75.4351,-83.1042,106.9207,32.4918,-13.2738,-56.3600,-66.4644,-35.1683
-2992.1875,18.7139,-16.9809,-22.6561,-21.5842,-25.1990,-55.2081,107.0550,-34.3852,71.4737,-0.0666,41.3322,-68.5667,6.1830,-79.2011,147.7877,73.7410,-30.8292,-52.7058,-62.5596,-31.2229
-2984.3750,46.2451,-59.3485,-67.3074,-29.1240,-69.7639,-25.4808,173.6564,-4.8169,64.0174,-7.5016,-2.0517,-113.1020,-1.3604,-49.6021,213.3608,140.6922,-60.7792,-131.3540,-34.9595,-38.5866
-2976.5625,-2.0196,-73.5160,-82.7611,-42.4636,-85.1289,-3.5593,195.4697,-20.0469,85.7632,-22.7292,-17.2226,-91.4521,-16.7012,-27.8137,235.1414,125.8541,-76.7242,-144.8141,-13.1663,-16.7582
-2968.7500,-14.7987,-50.1869,-95.7208,-55.3102,-98.0012,-16.1476,182.7990,4.2248,110.0233,-35.4452,43.0998,-104.3210,7.4610,33.4682,222.4413,39.5383,-89.7203,-122.7746,-25.8688,-29.4375
-2960.9375,-89.8971,-90.1666,-62.9876,-59.4653,-28.1783,16.9567,251.8508,0.2089,143.0119,-2.4468,76.1180,-108.5060,39.3170,-81.5620,218.4631,72.9355,-84.7691,-127.0368,-29.8682,-33.4261
-2953.1250,-132.3540,-61.5054,-70.6117,-31.9718,-35.7103,-27.2893,207.5670,-44.1489,135.6673,26.2119,105.7811,-42.0579,68.8240,-88.9510,211.1486,139.9912,-89.9705,-134.6544,-108.2147,-40.7707
-2945.3125,-64.4105,40.5517,-36.8452,-0.0816,-38.8492,-67.1339,168.6913,-84.1007,58.7336,-12.7291,102.8484,-8.2250,65.7260,-91.9395,172.2417,63.4527,-46.8414,-102.8758,-146.1606,-43.7236
-2937.5000,-31.6728,3.4091,-4.2870,-2.3976,-6.1940,-108.1761,164.6324,-125.2494,91.6156,-16.8686,61.7168,-12.6064,61.4315,-96.1382,168.1510,59.7244,-29.9304,-105.3077,-113.3049,-10.8840
-2929.6875,7.0560,-63.7362,-0.7362,-33.7156,-2.5438,-104.2195,131.5830,-84.3945,95.5061,-13.0024,65.5943,-83.0017,29.1413,-92.3468,172.0731,28.0068,-28.1921,-30.7417,-74.4506,-7.0514
-2921.8750,51.0830,-54.5924,45.1069,-60.7396,43.4050,-94.9643,140.8426,-112.2321,67.6971,-77.8267,38.7809,-74.1072,38.1550,-119.2581,181.3037,37.5913,-9.5049,-21.8744,-65.2947,2.0698
-2914.0625,-11.8996,-82.4526,14.9460,-53.7627,13.3561,-123.7113,148.1185,-105.0669,74.8955,-70.6382,8.9717,-67.2235,8.1722,-39.1764,188.5381,118.1767,-29.4012,-15.0138,-22.1375,9.1827
-2906.2500,-37.5473,-142.9650,26.1293,-79.4401,24.6540,-113.1161,159.7547,-93.5467,86.4613,-22.0962,-53.4850,-56.0023,-17.4551,-27.7498,163.1322,167.1188,-40.7827,-5.8037,-12.6231,-16.3644
-2898.4375,2.9984,-67.2823,31.5159,-37.9171,30.1578,-70.3201,128.6023,-87.8204,55.2378,20.6541,-47.7424,-13.6041,-11.8796,-96.1389,131.9328,99.2680,-16.9394,-71.3969,-41.9043,-10.7208
-2890.6250,23.5893,-45.5456,-20.0499,-52.3458,15.7115,-84.4796,77.5047,-65.0364,41.0726,6.4683,12.0548,8.8262,10.7503,-73.4887,80.7875,48.4718,-35.3889,20.0583,-21.1369,-25.0349
-2882.8125,-63.1197,-62.1112,36.0832,-34.0751,34.9628,-100.9474,98.1091,-44.5474,61.6208,25.9937,68.5617,-8.0602,30.0819,-90.1480,64.3510,69.3807,-21.9183,3.2132,-37.6774,-41.6595
-2875.0000,-57.6832,-56.5341,41.3604,-28.6597,77.3643,-58.2749,66.8755,-38.9006,30.3428,31.6833,37.2231,-39.8144,35.5679,-121.6760,70.0797,75.4472,-7.4546,8.5169,2.9268,-36.1421
-2867.1875,34.7510,-104.9735,28.6341,-76.2512,64.7570,-70.6062,91.6482,21.7522,18.0793,19.3815,-11.1089,-89.5881,23.0567,-97.2090,57.8141,63.5271,-25.3215,-4.1748,96.5313,-48.6344
