Time,Fp1,Fp2,F3,F4,C3,C4,P3,P4,O1,O2,F7,F8,T7,T8,P7,P8,Fz,Cz,Pz,ref
-4000.0000,26.2713,7.2770,8.0120,8.8426,12.8074,7.4118,9.8695,-17.5762,10.2571,-1.2197,-12.1000,3.5986,-1.2576,31.1403,12.1814,-4.6622,-24.3080,-13.8346,-29.8818,-24.0561
-3992.1875,-61.4083,95.1660,-10.8966,-149.2013,-5.9482,-48.5628,28.0246,0.2194,-8.6706,16.7823,79.8294,58.4576,28.0856,12.6237,30.4027,-23.7036,-76.9224,3.9951,58.6729,-6.7234
-3984.3750,-107.0286,-56.9067,-21.7510,-90.1823,57.3466,14.5197,17.2222,63.0689,-56.5535,-104.1768,104.8174,47.3637,69.4081,39.1495,19.6707,-34.6966,-88.4837,98.8841,82.2783,-18.3463
-3976.5625,-62.3438,-117.6687,24.7023,25.1418,66.9413,97.9051,-10.2804,35.2140,-156.1465,-21.8359,4.1138,93.5703,12.9286,-25.0250,-80.7694,-61.3955,26.2579,108.0672,20.1802,-9.6749
-3968.7500,-16.1697,-37.9096,71.6503,174.9514,40.0343,107.7844,-73.2846,7.8614,-183.2390,-157.9962,-23.0865,66.2803,11.7283,-51.6936,-70.7075,-87.5982,35.4981,152.7509,29.5889,-0.5063
-3960.9375,-17.4556,101.4071,107.1360,173.2934,1.6765,106.2005,-74.7318,-30.9341,-147.7685,-122.6029,-24.7285,-9.4633,8.6710,-52.8131,-36.0810,-89.2418,33.2805,115.9820,-7.4486,-2.7929
-3953.1250,-20.8358,63.6252,65.5178,65.5260,-2.7854,64.5120,-42.2790,1.1786,-152.3957,-90.2891,44.5308,-50.3131,27.9743,-56.0368,-39.5545,-56.9831,-6.0399,148.1115,-10.5885,28.8166
-3945.3125,-54.0071,-75.9627,-42.8970,-4.0289,35.9519,29.0301,-4.6305,76.4992,-113.8249,-199.7863,119.9950,-12.9816,74.2099,-18.0616,-1.8287,16.4732,-74.1633,149.4502,60.4759,29.6220
-3937.5000,-91.1280,-112.5083,-45.2522,-111.5188,33.7405,26.6075,30.0620,147.8725,-116.2156,-55.2305,43.5127,58.3953,15.1651,16.9649,-76.0592,-22.0321,-43.2333,76.8431,93.5861,26.4723
-3929.6875,-128.0547,-11.8485,-48.4079,-78.8069,67.7239,23.3878,26.9573,180.4498,-119.4126,-58.4702,-69.7727,54.9766,-14.8550,14.1898,-79.0909,-61.3402,-47.1020,108.4339,124.8969,22.5194
-3921.8750,-113.4870,39.3022,-32.0757,-98.5965,48.2060,-33.3365,7.3519,124.5316,-66.1041,31.7949,-53.5569,-1.9369,-11.7707,31.9094,-26.6159,-9.1352,-67.4686,53.5230,104.7124,2.0639
-3914.0625,-100.9651,16.4113,-91.7996,-157.4540,23.6351,-57.1209,19.6980,99.5664,-17.8416,154.0290,-77.3918,-26.9006,-14.4212,44.5680,59.8063,77.0275,-89.8766,-5.4447,45.4777,13.5586
-3906.2500,-131.4384,-86.4590,-125.5214,-154.3214,-9.9464,-126.9071,60.0422,102.6010,133.4176,84.2479,-38.2189,13.1282,15.4033,48.2273,137.2299,117.1946,-158.2787,-2.4039,84.2397,16.0546
-3898.4375,-168.9522,-158.3799,-164.2904,-121.2334,25.4158,-91.7444,95.3273,63.5899,167.6243,155.4215,-3.0834,48.0966,41.5030,-99.1580,135.5979,78.3209,-89.7313,-4.4187,45.9487,13.4993
-3890.6250,-70.6099,-94.4508,-99.2179,-57.2968,-19.3780,-27.7324,49.4573,54.4336,85.6748,-0.5379,98.9034,-34.0874,68.4873,-144.6877,89.8103,32.2989,-28.3299,23.4111,38.5089,40.7937
-3882.8125,-40.4237,-30.6687,-67.3053,-98.5128,-24.3217,-68.8762,44.4386,49.1309,80.5757,-41.6431,93.7403,-112.4132,74.3825,-112.3669,121.8696,64.1273,0.9247,18.0878,67.9268,34.9369
-3875.0000,-5.2963,-30.9362,-31.4477,-168.7839,11.6857,-69.0748,81.3723,48.7831,80.4242,68.2191,56.5322,-149.7872,51.1101,-112.1104,84.8767,63.8994,-34.8623,-17.2799,32.2960,34.0308
-3867.1875,34.5383,-167.5053,-63.8865,-130.3552,15.3876,-102.5731,85.0017,89.1414,83.9596,34.7804,134.0421,-219.4736,86.0500,-35.1672,88.5787,67.3701,-65.9466,21.0704,70.3679,36.8269
-3859.3750,62.5420,-279.9142,-35.1671,-66.7799,45.2381,-72.9244,3.7733,7.6525,39.6323,174.4954,126.7092,-264.0221,64.7906,104.9205,44.4221,59.9898,-39.8736,-55.4254,62.5853,28.7727
-3851.5625,31.7059,-276.1681,-31.2992,5.9440,12.2390,-33.1228,-28.3072,-24.6895,43.4442,142.3620,130.5156,-260.4268,49.3442,109.1662,11.4044,100.7526,-1.6372,-51.7692,30.9577,31.8705
-3843.7500,-23.7402,-261.0219,-15.0386,57.0722,-7.3617,-52.9203,-47.9881,-8.6248,134.6624,158.6126,110.7213,-243.4318,56.6793,-21.1858,65.7893,190.9142,-21.9999,-71.7125,45.7372,11.3729
-3835.9375,-20.0918,-116.7554,25.3119,-150.7126,-39.8708,-85.6272,-8.5679,31.5401,137.9886,272.9838,77.0388,-167.3278,15.3238,-126.4579,32.2779,158.1796,-19.2638,-68.5657,13.6101,13.9780
-3828.1250,-15.5467,-8.5813,29.5579,-216.6049,-35.4866,-118.4377,-4.2527,35.6072,142.2131,93.2619,118.2783,-163.3204,48.6327,-84.8446,73.6644,88.3469,-50.6268,39.4843,52.3819,17.4884
-3820.3125,80.1574,-159.2665,18.9623,-86.3421,-9.9539,-92.0966,-14.7952,24.8278,94.5794,45.6906,217.6797,-174.1737,80.2000,-23.0910,26.1920,40.6635,-26.8222,-6.3072,41.2965,6.1522
-3812.5000,121.4296,-188.3984,-12.0733,-11.5302,-39.8794,-14.2024,-8.7941,-6.3966,26.4771,-22.3209,223.6250,-168.4863,72.3373,57.2117,-4.7419,-26.4812,-21.4519,-0.5428,82.7590,11.3713
-3804.6875,85.6536,-119.5709,25.8338,58.2290,-2.8573,-13.3647,-7.8437,31.3400,64.3197,-130.3861,150.5119,-130.8561,76.9092,21.4773,33.2722,-62.6775,-58.1357,-1.8278,116.1821,-25.4553
-3796.8750,-22.7322,17.6659,22.1290,-16.6222,30.5619,19.8700,62.5095,-9.5166,60.5645,-25.0398,-0.1903,-98.8178,25.8031,-91.8524,29.6799,6.5319,-27.4239,-40.7314,77.0048,-29.8775
-3789.0625,-82.5157,63.5061,-3.9866,-40.8752,41.5672,-43.3012,73.4587,1.2307,108.4087,-51.0927,-26.2728,-124.1780,31.5767,-80.5920,77.6859,54.3442,-52.1039,-30.0376,87.4281,-19.6897
-3781.2500,-80.3952,-40.7523,-39.2001,-39.2285,6.4600,-41.5729,38.2976,2.8835,146.1540,24.7490,12.5427,-196.6389,45.7497,-5.4480,116.5957,56.0609,-50.8663,-28.4377,88.7498,-18.5934
-3773.4375,-80.1671,-110.8980,-39.3080,-39.4899,-30.5526,-4.7492,1.2374,39.6377,145.9923,61.7044,12.4482,-159.9965,36.9492,31.7868,116.5933,55.8698,-51.5145,6.2644,53.1697,-19.3883
-3765.6250,-93.9922,-125.0877,-16.4713,52.2095,-7.6201,18.0280,-49.8794,25.3476,131.7780,-135.3915,35.3055,-65.4081,51.8732,127.9783,102.5328,4.6173,-31.2090,27.9225,73.5417,-34.2271
-3757.8125,9.1841,-58.2781,54.3568,48.9137,-10.6921,51.8058,-53.0020,-14.9398,55.5619,-66.4763,-4.8229,42.1772,-4.3771,15.1618,-11.5391,-35.6342,36.1126,24.5730,-1.0908,-38.0582
-3750.0000,48.6717,-18.1513,95.4787,87.9136,30.5259,18.8789,-48.8320,-47.9222,-14.3615,-62.2593,-74.6423,46.0580,-23.8913,-90.3764,-44.3202,-31.5826,39.7494,63.5254,38.5783,-34.5788
-3742.1875,-9.6844,63.1565,71.7541,29.0618,80.8862,-41.9006,1.4828,-34.7512,-38.1398,25.0964,-98.3120,22.0828,-21.1557,-77.7763,-30.9584,-55.3872,15.5466,39.6316,49.4011,-58.9395
-3734.3750,-46.2870,167.2168,69.7841,-79.0372,78.9892,-43.9276,36.5391,0.1701,-40.1761,60.2145,-100.2390,19.8525,-28.1943,-79.4296,-32.8568,-57.4475,13.1055,2.4891,46.9785,-61.5389
-3726.5625,-49.4463,128.7196,29.2619,-47.6823,38.5358,-47.5014,33.0417,-3.4534,-6.7735,-91.2195,7.2812,16.0720,13.5965,-45.6316,0.6889,12.9373,9.1200,33.8100,43.0156,-65.6753
-3718.7500,11.8434,13.6819,20.1779,49.1100,-7.4684,-19.6274,23.9962,-12.6237,-52.9260,-63.1997,108.2586,43.7476,39.4284,-54.3997,-8.3190,3.7693,34.5921,-10.4224,-37.4970,-75.3497
-3710.9375,32.2871,-1.1834,40.2332,104.0447,-24.3296,37.3878,7.1005,-29.6434,-105.9323,-189.0172,165.3865,63.5650,60.2456,76.9710,-25.1873,-122.2545,54.2312,9.4970,-52.8617,-55.8602
-3703.1250,64.2902,65.5107,36.8410,65.5417,-27.6503,33.9498,3.7442,-33.1108,-109.3948,-229.2895,88.0742,132.9223,23.6386,73.8820,-28.5105,-125.7287,50.4353,5.9660,-56.6768,-59.8083
-3695.3125,81.1002,82.0154,90.2562,11.8450,-11.1796,50.3173,20.1745,-16.7789,-129.0661,-138.7467,-42.4310,149.0780,-20.6723,-57.4276,-49.0455,-109.4063,31.4559,57.2317,-40.7025,-43.9423
-3687.5000,48.6675,49.2854,128.4256,83.8979,28.0288,52.4331,-14.6508,-14.6974,-201.0001,-247.4653,33.8253,113.9905,32.1679,-54.9922,-46.8383,-107.3487,33.2438,94.2483,-3.9775,-42.3110
-3679.6875,23.7397,130.0831,140.0927,128.4438,39.7297,64.0444,-39.9844,-40.1153,-226.4455,-161.6827,81.5826,125.4115,11.6069,-6.0646,-144.1456,-169.8013,77.5506,33.7667,-29.7544,-68.1665
-3671.8750,-3.3317,137.7493,110.6048,135.8342,47.2744,107.5026,-32.4752,-32.6816,-256.0592,-191.0401,53.1843,95.6922,-4.1711,1.6946,-173.6202,-89.4091,119.7280,41.1384,-22.6820,-61.1528
-3664.0625,-6.6520,134.1681,33.8641,96.9862,43.5612,67.7099,-36.2211,0.5022,-185.9273,-194.6587,12.5403,91.7237,-19.4451,-1.8009,-140.3485,-20.2740,80.6674,37.2618,44.1384,-65.3710
-3656.2500,0.8827,141.4468,3.9706,-1.0110,50.6860,37.7663,7.8778,7.5320,-215.9537,-4.4232,-17.2457,62.6021,-32.6782,-31.4474,-133.2384,-50.2885,87.4729,44.2294,15.8028,-58.7203
-3648.4375,12.1737,46.4869,51.8258,44.7401,24.5500,48.5732,-18.2849,55.3166,-205.2371,6.5637,-6.2838,36.2212,-6.2376,-20.3552,-86.3886,-111.5474,28.0385,89.9536,26.2237,-48.2986
-3640.6250,49.2113,-21.7210,126.4271,46.2448,26.1585,13.1283,-16.7080,19.8614,-129.7605,118.3112,-4.5807,37.5823,-9.1104,-91.5268,-84.7940,-110.0492,29.3585,21.4247,-8.6011,-47.1077
-3632.8125,36.4973,-70.6640,112.2609,67.9899,-25.9947,34.9293,-31.8820,4.6644,-108.0256,140.3288,-19.6387,22.1951,-20.4620,-69.4647,-62.9527,-52.3077,50.9420,7.1443,-22.1737,-25.6450
-3625.0000,-33.9688,-35.3310,38.3304,67.9789,-25.9139,-2.0239,-31.8113,-32.2789,-36.0444,-6.4111,17.5688,22.0593,5.6789,40.8462,10.1308,57.6724,50.7892,-27.8806,-22.4942,-25.9102
-3617.1875,37.5215,140.9610,-35.6594,-3.0835,-97.8942,-39.0302,-67.8021,-104.2670,-36.1233,104.8122,17.7434,95.8687,-42.6393,4.1033,10.1462,94.5924,120.6012,-96.9562,-57.8615,-26.2052
-3609.3750,108.1167,141.3455,-35.5526,-3.0486,-97.7836,-38.9374,-103.6988,-68.1481,0.8897,68.1467,55.0177,168.7792,-48.9042,-32.5453,-26.7509,94.6040,85.5232,-96.9305,-58.1233,-26.3773
-3601.5625,72.9082,0.9397,0.7455,-38.8180,-62.4794,-75.6470,-68.3990,-68.8235,37.1051,177.6796,54.4902,167.8897,-42.7879,3.9875,-27.4462,130.8134,84.6573,-133.7049,-93.1810,-27.3271
-3593.7500,52.5515,-90.6004,51.8870,-59.7432,-84.3337,-61.5105,-54.2503,-18.6489,-22.8329,229.0742,31.8128,144.8407,-65.9684,92.3494,-85.2993,107.8726,63.6561,-119.6346,-115.3862,-13.4020
-3585.9375,40.7950,-32.5267,39.6199,-2.0613,-96.6022,-73.7801,-66.5087,6.1275,1.8280,70.0633,19.7376,96.3879,-44.9827,190.3040,-25.5543,21.5257,51.2676,-95.9606,-57.9905,-25.8530
-3578.1250,69.8381,243.3572,-3.8558,-43.5796,-103.0772,-44.2518,-36.9702,-37.2983,69.2916,136.8619,-23.5434,125.7393,-86.1662,-72.9487,-68.0112,-58.0314,149.6919,-138.4904,-64.7980,-32.4836
-3570.3125,24.1812,302.5550,-53.0364,15.1907,-116.2628,16.5742,-49.1350,-13.4265,93.0582,50.9702,-108.5267,113.3949,-112.9386,-158.9129,-80.1738,-34.2990,173.4291,-78.7204,28.6915,-8.7894
-3562.5000,-10.0758,58.1632,-51.8257,87.3535,-78.0548,17.7903,-83.9066,24.8505,94.2282,89.4805,-181.1043,114.4474,-124.8516,-83.4963,-78.9458,76.8345,104.5834,-43.5504,29.5856,-7.6694
-3554.6875,-81.8716,-84.7640,-18.1697,13.9587,28.5891,52.4504,-14.2351,22.5790,17.8401,124.4582,-183.2263,147.9467,-123.1529,97.3548,-155.2850,74.4115,-3.7916,-10.9342,-8.0693,-10.0732
-3546.8750,-162.4129,-60.4223,7.7323,2.8181,54.4694,41.3590,11.6726,48.5634,-66.3132,-34.3270,-48.0880,100.6976,-45.4733,196.4490,-129.3867,63.2284,-49.8983,12.9365,15.5277,-21.1994
-3539.0625,-134.9490,1.9241,35.6311,64.6864,45.3369,32.2671,2.5749,39.5505,-111.4770,67.8830,17.0536,17.4510,-22.6980,40.5370,-138.5044,91.0399,12.0100,-31.1952,-28.8729,-30.3005
-3531.2500,-15.1294,-53.3855,13.8810,149.9105,-13.4581,84.5328,-55.1818,17.8868,-96.3009,46.4383,-41.4590,32.5535,-50.7355,-18.0271,-123.2877,69.1960,97.2840,-15.9714,-13.9204,-15.0218
-3523.4375,45.7859,7.4146,3.2295,139.2379,-24.1603,73.8959,-65.8462,7.3233,1.9741,-37.9256,-197.8708,58.7642,-83.4476,8.4966,-24.9736,21.4481,51.6711,8.3515,10.1365,-25.6153
-3515.6250,-15.6876,121.8588,-24.8262,43.1546,-15.2728,82.8493,16.0865,-20.6468,10.8451,8.3189,-298.6770,67.5803,-119.7520,54.5933,-16.0690,-6.7109,25.6833,17.2633,18.7836,-16.5835
-3507.8125,-78.4975,58.9923,-54.2417,-21.2761,-8.7509,15.4455,22.6572,23.0285,17.3607,-93.7952,-181.8331,74.0467,-79.6256,171.3229,-9.5253,110.7673,-38.6232,23.8234,25.0807,-9.8735
-3500.0000,-98.2060,-67.7692,-40.5565,-76.5941,-31.1420,-7.8552,-36.6856,36.8054,-6.0224,29.1881,15.1017,87.6083,-16.4377,75.1457,4.1101,234.3389,-24.8106,-32.5194,-31.5197,3.9637
-3492.1875,-126.3195,-24.9360,-106.2733,-69.3130,-59.9451,-0.5557,-29.4292,44.1811,1.1971,110.7812,22.6321,57.7699,-5.0612,8.5666,48.3381,204.5011,-52.3851,9.7358,-24.5203,11.4296
-3484.3750,-104.3358,-38.9910,-120.8933,-49.9377,-38.6574,-15.1608,28.9214,66.6541,60.5144,59.4677,-64.7275,80.0306,-6.3696,31.0770,107.6620,116.7641,-100.8480,30.0917,-4.4183,-2.9764
-3476.5625,-71.6897,-109.3839,-85.8658,-16.9102,-4.7284,19.8798,63.9131,27.7787,58.4761,131.8092,-176.4229,77.9447,-34.6889,66.2077,105.6205,40.6668,-68.6415,28.0948,-75.6708,-4.7036
-3468.7500,-65.1279,-33.8658,-43.9417,95.0261,1.0833,62.8229,-4.2051,-3.2001,64.3236,-45.9648,-96.2164,-27.2347,6.8838,109.2153,111.4664,9.4505,-62.5052,34.0055,-70.0209,1.5014
-3460.9375,-35.0074,-3.7673,-49.4663,124.5110,-40.5638,57.3117,-9.7826,-8.6317,132.7154,21.7999,-29.4652,-104.8645,13.3472,66.7659,105.8546,3.7692,-67.7994,-41.5368,-75.8219,-3.7143
-3453.1250,-22.1397,-130.8928,-110.2438,101.7361,-64.4703,69.5454,39.3879,3.6869,180.8589,108.3294,-88.9778,-129.7492,4.6260,5.0473,154.9884,52.8301,-55.3286,-29.3327,-63.8706,8.8490
-3445.3125,-56.4844,-200.2124,-110.2341,66.7647,-28.5840,32.5761,76.3587,3.8077,217.8140,-2.3434,-162.6909,-56.8444,2.8405,5.1232,190.9202,89.6812,-20.0522,-29.3301,4.8890,9.2437
-3437.5000,-91.8301,-26.5409,-39.2406,-41.1990,-66.7043,-42.3879,74.3225,-34.0690,178.7661,32.9893,-201.3886,88.0616,-47.1149,3.1978,152.8387,87.5226,13.2302,-101.3326,2.6499,7.6704
-3429.6875,-102.0688,139.2255,-14.1548,-52.0615,-77.7381,-89.2537,26.3802,-44.8464,131.8082,-14.5796,-100.9776,114.0815,-40.5790,66.3606,104.8449,76.4552,-32.3698,-112.2320,-8.4908,-2.7699
-3421.8750,-45.5513,161.7578,-27.3161,-99.1700,-91.0284,-139.3720,13.1731,-57.8755,118.5895,83.5873,69.1755,100.8647,12.5084,-56.7393,128.5878,137.1280,-45.1959,-160.3828,-90.8764,-15.4278
-3414.0625,9.8721,147.2241,-79.5666,-185.3858,-108.4291,-156.5932,-4.1414,-74.0069,101.2596,250.6584,89.2202,120.5493,-20.6380,-72.9562,74.2095,156.6826,-25.0984,-175.6355,-71.3646,4.8465
-3406.2500,16.1438,-22.4363,-110.9754,-179.7516,-102.9902,-150.9672,1.3910,3.7173,143.7726,146.5684,-15.8819,89.0737,-29.3360,4.6679,116.6717,162.0806,-19.1459,-64.0361,3.0058,11.0033
-3398.4375,-29.1423,-137.6408,-84.9487,-120.6695,-41.1057,-87.8962,27.3722,-7.1091,132.7381,245.9340,-135.5368,41.0436,-73.5168,-6.2691,31.5840,150.9316,41.2629,-40.9908,26.8292,0.6406
-3390.6250,-68.1279,-36.5388,-17.6356,14.7039,-9.9286,-20.5295,-14.3471,-47.6393,54.0111,131.6100,-66.8979,-0.6789,-47.8405,-46.9243,-46.2103,72.0787,71.9858,24.3515,21.9529,-3.3869
-3382.8125,-2.6034,65.0718,14.1740,115.5821,-15.2600,11.3317,-91.5794,-52.6748,-25.2211,89.7717,112.2413,-42.8985,-7.7215,-88.0832,-124.5162,-7.2832,172.2364,-15.8032,-53.4243,-7.8804
-3375.0000,129.6812,161.4408,2.7458,35.2153,-98.8537,36.9451,-177.0788,-62.9697,-71.7163,115.6842,64.1307,19.6346,-61.4185,-99.5035,-136.0874,-90.9042,269.2647,9.7915,-62.0600,18.4103
-3367.1875,169.3134,307.1701,6.6673,-100.7866,-95.1108,-32.0905,-136.2350,-22.9218,-31.8679,8.9304,-5.6235,23.5154,-75.5705,-95.5864,-95.3174,-124.1777,202.6579,119.7417,-24.3480,23.0837
-3359.3750,147.9913,355.9576,-15.3709,-157.7399,-44.3210,-18.0768,-84.3453,28.1750,-89.9698,171.2279,-27.3305,-71.5501,-91.9931,-117.6256,-154.5039,-109.4094,181.1068,132.7346,-46.5826,1.8383
-3351.5625,148.1230,286.2261,19.0357,-88.2589,-10.0913,16.3753,-87.0092,62.7173,-166.6211,132.9771,7.4102,-147.1573,-63.1634,-157.2321,-193.2498,-112.2062,181.0192,202.1746,-46.3627,37.0785
-3343.7500,172.3157,134.5679,42.4870,40.2637,13.1782,39.8694,-63.6343,49.3048,-143.2256,45.7582,31.2140,-160.7101,-37.7156,-206.8100,-206.9513,-88.9647,170.0021,190.6727,-59.0923,61.4042
-3335.9375,165.9189,22.3105,70.3447,-0.8079,4.8377,31.7667,-35.8708,41.2832,-151.4411,147.9439,23.4269,-168.8586,-33.3714,-216.0094,-179.2621,-24.3349,128.4087,148.5676,-101.4251,90.1611
-3328.1250,111.5671,-30.9052,50.2506,-55.8094,-16.4596,-25.2832,-20.0579,57.3092,-99.6107,54.1719,75.6750,-152.9535,8.1881,-90.1539,-90.5329,-8.6676,38.8731,164.5120,-50.7011,106.9985
-3320.3125,41.5020,-30.8191,-23.5535,-91.5019,19.5441,-26.0307,16.0545,56.6323,-26.4730,126.6953,75.2112,-190.7490,30.8683,-54.0013,-17.5061,-9.7095,-31.3556,57.7482,-16.6703,107.1656
-3312.5000,-35.9608,-38.1231,-70.7668,-64.6067,9.1384,0.8174,78.7636,47.5534,37.2655,44.8266,30.3521,-163.9483,46.0309,-64.2699,46.1116,-93.1633,-73.9616,84.5883,45.9573,134.9671
-3304.6875,-49.6613,-51.6501,-85.2287,27.0322,31.4722,23.4099,100.2105,33.2249,22.7499,-43.3167,52.2503,-105.3909,74.8642,-78.8031,67.4695,-144.8844,-87.8002,70.1811,31.3416,121.5515
-3296.8750,18.3437,-19.4532,-14.9841,-47.6270,63.4967,19.7055,60.3502,29.5901,-18.0687,99.2275,48.8413,-109.1218,46.3686,-118.6459,-9.4854,-185.9217,-20.9284,32.4664,-8.5701,118.8657
-3289.0625,123.2348,-18.3557,22.1509,-82.3739,27.4152,-54.0967,24.3936,65.8518,-17.9834,27.6543,49.3239,-144.9456,36.8044,-118.5952,-9.5383,-149.0645,-20.1585,101.6508,27.4292,120.1125
-3281.2500,70.5614,-211.8159,3.7142,-65.6696,80.7777,-35.4505,77.8910,83.5674,36.5639,81.5207,31.2479,-200.3280,70.1425,-137.1009,44.8728,-94.7590,-72.9302,83.2802,77.8892,102.8412
-3273.4375,-67.5606,-314.7293,-69.1771,6.5800,81.6821,38.7417,152.9363,84.8348,73.6633,119.9399,-3.2814,-236.1600,81.0845,-63.0650,81.8306,-93.9190,-141.1348,49.4601,113.8933,105.1531
-3265.6250,-190.1691,-297.1452,-124.5602,128.3297,63.0761,56.4312,134.4693,103.5972,129.2584,64.8435,14.7066,-254.4862,94.1559,-7.5363,100.2789,-112.5931,-123.8177,-2.8586,131.3924,87.9953
-3257.8125,-137.3123,-173.1018,-68.4788,145.5272,44.9156,75.5659,79.4419,48.7947,111.3013,231.1946,-2.8438,-235.3549,27.7159,-99.5781,-26.8343,-130.8179,-35.0389,-56.7353,77.3343,71.3153
-3250.0000,1.9405,-138.6349,76.0010,109.1220,7.1502,37.0910,4.8191,47.3800,72.7451,119.9345,-40.0065,-163.8167,-9.2498,-64.2335,-65.5440,-132.6479,-35.8531,11.7830,75.6834,71.0656
-3242.1875,52.3257,-157.9969,55.6195,17.8692,-13.4682,16.7621,20.3489,27.1085,126.3457,62.8108,-60.0301,-110.1237,-7.7236,24.2611,22.9021,-79.3389,-55.5093,-42.5597,55.1875,51.9937
-3234.3750,-33.5392,-33.6000,-73.0164,-33.6392,-32.3399,-37.8217,111.6233,-27.4166,216.6907,80.4457,-116.3039,-55.6767,-17.0505,5.4936,114.0879,-62.2878,-108.4011,-96.1604,72.4425,70.7022
-3226.5625,-121.8928,18.2834,-201.1523,52.3432,-14.7260,-55.9099,167.3886,-45.4374,272.5348,-46.4257,-24.0618,-73.7253,53.8812,23.2107,205.7680,-80.7399,-160.7822,-79.2578,90.2024,53.9409
-3218.7500,-104.0874,-33.7074,-146.1366,70.4677,3.0291,-1.8511,75.3007,-27.3099,180.5332,-28.1441,68.3403,-55.6334,50.4870,5.0679,77.5981,-62.0436,-38.0053,-61.2078,1.1227,37.3570
-3210.9375,0.5047,-103.9084,-1.3266,174.4028,-34.4164,108.0087,-35.9864,7.6197,-40.6634,-176.0637,67.5251,-56.7513,29.7544,3.7273,-33.7753,8.4476,67.5753,41.6434,-35.1427,37.6000
-3203.1250,113.2271,-131.9534,153.6256,180.5007,9.2937,79.0218,-29.1165,15.6918,-142.6992,-240.8477,-35.1634,-85.7234,4.7444,48.5294,-62.9998,16.0821,74.3109,48.6478,-29.2455,10.0173
-3195.3125,80.2960,10.3770,154.9296,41.9442,10.3576,43.3858,46.1047,-19.8960,-141.3877,-203.2794,-105.5122,-11.3362,-33.3486,49.6607,-61.8813,17.0498,41.4063,-20.9968,-28.0063,12.8098
-3187.5000,18.9210,126.2700,-20.2045,-20.0645,-18.0338,15.2951,54.8677,26.0542,-95.5306,-304.1839,49.7040,71.6044,28.7997,58.3349,19.7825,-11.4509,-54.9405,-47.0845,51.7807,23.1791
-3179.6875,37.2996,143.9046,-74.5861,-38.3238,-72.6784,-3.0523,36.3786,44.7522,-77.9220,-212.3480,178.6914,126.2966,44.2640,2.7425,1.1978,-30.2102,-2.5321,-99.4282,33.3209,6.3224
-3171.8750,113.9773,221.8178,-68.6700,-32.2847,-103.0228,2.9003,5.1905,13.7467,-145.0050,-206.2072,184.9758,132.2892,16.4268,-28.5597,-66.0900,-96.6750,180.1765,-59.4753,-31.8289,13.7919
-3164.0625,224.8456,366.9267,82.4353,6.9595,-63.1677,-29.9479,-99.7894,-19.0591,-177.8804,-274.8857,42.4485,136.4812,-52.0579,-24.6605,-135.1698,-129.9501,326.0837,-89.3265,-62.7658,19.4860
-3156.2500,278.8039,492.1454,137.6335,61.3011,-81.2127,-11.6969,-118.6645,-72.7810,-232.6476,-219.4722,-48.9828,154.7845,-109.8963,-42.6635,-191.1448,-186.1352,416.0963,-142.0857,-114.6044,39.3039
-3148.4375,264.6102,548.2169,-26.3166,116.4911,-98.4145,8.3963,-135.6956,-89.6643,-212.5674,-347.2276,81.4443,211.9499,-56.3916,-22.8253,-134.2719,-202.4713,400.9724,-121.9911,-129.5939,60.9956
-3140.6250,295.5677,614.4327,-179.1072,5.8363,-178.4692,-33.3608,-178.5866,-59.4057,-182.3362,-242.8446,259.0374,316.2693,-44.8533,-102.8499,-141.2547,-136.6625,432.0069,-196.7427,-169.4350,92.8563
-3132.8125,384.4820,668.5945,-199.9401,-45.8611,-236.5704,-54.1660,-273.5275,-80.2031,-240.1634,-226.5135,275.5760,332.5371,-97.6529,-49.9311,-235.2950,-156.9141,556.9980,-143.5497,-187.3254,147.6871
-3125.0000,447.8423,697.2017,-62.3258,16.8957,-246.2210,-63.5225,-282.0175,-88.5521,-322.5368,-345.7531,83.5522,323.2538,-152.8560,51.4398,-244.8839,-240.7175,585.4421,-80.9117,-159.7495,176.9877
-3117.1875,438.9420,829.5587,74.0364,78.3889,-184.1199,-1.1375,-293.7556,-100.1559,-371.1555,-246.2396,-110.7331,311.7356,-238.2478,2.5601,-366.7245,-325.7679,576.6395,-55.5316,-204.4140,204.0580
-3109.3750,401.4409,828.3179,32.7996,180.2752,-188.6177,68.6461,-298.0962,-67.3612,-375.3777,-287.3354,-40.6114,234.6242,-200.0661,-111.9208,-371.1789,-293.4270,504.2351,-22.7451,-171.6728,238.5502
-3101.5625,351.1408,742.2767,-95.2340,199.3671,-205.9160,50.6301,-279.2451,-48.3701,-282.3939,-231.2462,88.7234,253.7019,-140.0360,-167.2162,-278.4334,-164.8930,418.0339,-109.7503,-258.7281,259.2615
-3093.7500,333.7378,830.1273,-153.3642,76.3537,-265.3181,-7.4814,-264.4904,-107.4824,-230.5038,-179.2568,140.9519,305.6724,-142.2107,-78.6256,-226.7877,-186.4615,400.7354,-198.8508,-311.8834,312.8911
-3085.9375,325.4725,788.1023,-90.3388,33.5016,-238.5642,-54.4401,-237.5758,-116.4461,-166.4554,-226.1381,-15.6777,258.7837,-162.5308,-14.8778,-162.9856,-233.8920,358.5836,-135.7945,-249.8794,341.6861
-3078.1250,217.7984,503.6547,15.2891,29.2649,-133.1994,14.2045,-169.0584,-84.8145,-171.8019,-83.4208,-167.7230,144.5016,-162.1643,-20.5294,-168.5762,-239.7336,251.0318,-34.1497,-183.2731,375.0920
-3070.3125,115.9643,297.0589,15.7685,137.8706,-95.9818,88.6976,-94.6889,-47.3387,-208.2940,-193.8515,-55.9195,-1.9211,-75.9358,16.6494,-168.3103,-238.7218,148.3249,38.3401,-110.8118,414.3608
-3062.5000,108.6737,184.0182,-65.2084,130.0109,-104.2116,80.7312,-102.7672,-55.3188,-179.2278,-237.7422,230.4445,-9.7923,43.2693,-64.6259,-102.4874,-174.1522,70.1658,-4.6253,-82.7915,408.1913
-3054.6875,154.3885,124.9683,-55.1866,-70.8558,-131.4410,-20.2435,-55.8419,-82.3115,-95.1521,-154.6258,277.8162,37.3392,50.0438,-128.9038,-55.6679,-53.5927,-23.9909,5.4052,-72.7687,420.0335
-3046.8750,80.1474,15.9586,-23.1120,-145.6650,-25.6160,-97.1689,-23.8629,-13.2592,10.9793,-158.4835,90.2420,-40.4768,34.2565,-96.1342,13.2101,51.9951,-98.1035,36.4966,28.3103,417.9364
-3039.0625,-41.4642,-176.4111,70.6160,-127.8237,67.8683,-41.4446,-4.2216,6.4350,67.7749,-28.6995,-110.7009,-130.6437,-6.5392,-40.7239,-4.2407,71.2274,-149.5721,19.2381,117.0498,402.4955
-3031.2500,-169.5425,-374.2592,47.8942,-44.4309,117.9091,9.8342,46.9833,20.6754,45.1318,-51.3768,-96.1122,-116.2608,32.7623,84.2357,9.8731,48.0168,-276.5003,67.5271,164.3507,381.6143
-3023.4375,-242.3296,-446.8324,9.4733,23.2636,153.2532,8.4103,118.4906,19.2127,79.8007,-89.7806,12.7819,-118.5779,104.6546,45.5029,45.2908,9.1221,-314.1306,99.1101,160.9636,345.0422
-3015.6250,-217.8636,-457.1614,35.3012,12.1928,104.8486,34.2314,107.2446,-29.0054,32.7256,-26.9283,148.9367,-92.6317,138.4144,-39.9816,33.9525,-2.5199,-254.5083,87.9349,79.8253,335.7259
-3007.8125,-176.9975,-417.0887,40.5284,-54.4895,110.8461,-33.5559,39.3996,14.1795,2.0531,-94.6887,155.5071,-86.2795,159.8644,2.9330,113.0165,39.2258,-214.4910,92.1630,84.0934,306.8147
-3000.0000,-133.9441,-337.8272,49.9611,-151.9628,120.0523,-61.1416,48.7581,-13.4378,84.5857,-48.2593,-55.7200,-76.7346,67.1657,48.0492,122.2855,122.1619,-241.2806,29.5931,127.5703,281.1059
-2992.1875,-252.2054,-455.8943,37.0978,-94.7248,106.9658,-1.0196,109.8187,-26.3588,144.8217,-61.1340,-142.2617,-126.4907,42.4647,144.8737,109.2581,144.8025,-323.3754,86.7238,218.7510,270.1007
-2984.3750,-348.3217,-551.8228,-24.6048,-15.3339,117.0357,48.2513,120.0343,21.8612,193.2101,-49.8833,-56.6617,-114.0918,89.5855,118.8478,119.3872,82.6009,-384.3197,130.0038,263.0877,210.2468
-2976.5625,-315.2351,-448.5482,-63.0959,-53.7472,152.3166,9.7217,155.4515,-16.7350,154.7972,168.5585,16.1459,-116.4794,122.0994,-65.9896,154.7156,79.6000,-352.0672,56.4799,154.6198,173.5933
-2968.7500,-264.6965,-432.8325,-46.1300,-73.7116,132.0463,-47.3593,135.3197,0.1095,171.8323,148.4330,68.4145,-172.4121,163.8243,-86.3696,244.4966,96.0379,-335.3652,36.4126,134.6076,155.3922
-2960.9375,-262.4176,-500.3950,29.5888,-176.9241,135.5326,-80.6917,101.9427,2.7022,285.6267,299.0516,-36.5599,-169.5979,113.2290,-45.9958,248.0380,99.2260,-332.9219,-30.9018,171.3509,123.9384
-2953.1250,-286.9508,-489.7703,41.5120,-131.9295,110.2270,-32.8206,113.7719,-22.5055,297.6240,347.8773,-172.3414,-157.5896,27.4048,37.5715,149.7833,36.6160,-322.2866,12.9803,216.3007,100.6819
-2945.3125,-294.5933,-497.2516,35.3431,-0.0284,139.8331,33.9537,107.5030,-29.8179,217.5276,193.5828,-178.2270,-126.6879,29.6871,105.0438,106.4361,29.9115,-258.7602,4.7659,244.1567,59.3209
-2937.5000,-246.6909,-485.2041,48.7326,12.4226,79.9979,47.2820,83.7828,-16.5806,193.9880,169.8341,-91.5700,-78.2231,24.4583,44.0642,45.6394,79.7636,-211.6888,17.0944,185.5693,37.5050
-2929.6875,-232.9994,-541.3833,-10.0747,25.6716,57.9660,25.4124,61.8672,35.4551,172.2573,74.8796,-3.1144,-135.9427,69.5115,94.8888,96.6455,167.4171,-232.8283,65.2254,198.7907,17.4851
-2921.8750,-243.3284,-515.5811,18.1147,-20.0800,121.9430,16.5390,88.9579,62.4908,200.5412,138.9133,-122.6508,-217.6607,58.5020,159.7197,161.6754,195.0739,-277.9888,19.3567,188.0186,-26.5423
-2914.0625,-301.2701,-257.3893,104.6982,-114.4387,135.3302,-6.9374,102.4641,38.9238,213.2369,189.3479,-254.7898,-204.9880,1.2941,61.9466,138.1189,171.1431,-230.7663,-4.1107,164.6504,-48.1773
-2906.2500,-294.3736,-39.3722,76.1304,-106.9498,143.5749,-35.5657,73.8330,10.2092,184.7877,86.6192,-210.0765,-86.4774,-1.0198,-3.9794,109.4273,142.0764,-222.7102,2.2819,171.1442,-74.9700
-2898.4375,-191.6891,-76.5950,38.3656,-39.6560,141.6314,-0.3917,36.0112,-27.7064,111.1477,122.6930,-137.5645,22.8364,-23.7767,-5.1002,-2.4529,103.8129,-155.8672,-35.5304,133.4466,-110.9751
-2890.6250,-163.9699,-434.8044,-6.3457,128.6898,97.7465,65.8391,65.2493,1.4277,66.5637,3.8126,-71.0073,15.2117,40.7036,97.8430,63.7253,95.6034,-162.9909,62.7031,125.8081,-116.9434
-2882.8125,-155.1667,-532.9214,40.0419,101.1333,142.9739,38.1648,74.5971,47.6572,112.0929,-23.9881,-98.3590,-49.3056,60.0037,179.9079,109.0194,103.4978,-190.0286,70.0283,98.2822,-142.8264
-2875.0000,-194.4275,-289.0903,109.3810,-78.4808,102.1623,34.4375,70.9071,43.8268,108.5761,46.1668,-138.7599,-125.8789,25.7709,138.9203,105.2741,136.3448,-193.1247,101.3046,59.7099,-144.7729
-2867.1875,-208.3013,-233.8746,132.1269,-92.7010,124.7594,20.1088,56.6231,66.3959,94.4607,-42.2867,-79.7430,-177.0530,54.3499,124.3198,90.9410,121.6003,-206.8354,157.9910,115.5424,-157.3327
-2859.3750,-166.1793,-262.6844,65.8808,-50.9265,169.3704,27.7761,63.3464,36.9579,65.3440,75.2610,-34.7145,-133.2188,75.7034,57.7157,98.6177,54.8697,-164.5639,92.6778,51.3773,-184.9093
-2851.5625,-97.5088,-157.9635,28.2001,-17.6042,130.5411,-11.0035,61.6225,-1.9375,63.7752,37.3516,0.8636,-23.8230,67.4179,19.6691,96.8419,16.6990,-165.7535,55.9179,49.7637,-184.9546
-2843.7500,-115.3486,-175.7710,83.0335,-0.7634,112.2240,-29.2776,43.4040,-57.3417,82.7105,18.9219,55.9398,-4.9287,101.1767,37.1365,152.5737,34.0333,-148.4527,37.6677,31.6538,-201.5211
-2835.9375,-122.5981,-183.0028,149.4859,-8.3140,104.5241,0.0550,72.7914,-65.1501,2.2503,84.0965,12.6069,-86.4431,78.5695,29.2036,107.9139,99.9619,-155.5643,101.0206,-45.8518,-207.5091
-2828.1250,-103.2118,-57.6099,170.5988,-24.2178,125.4866,-52.9567,93.8419,-81.3018,-50.5523,-42.1026,69.9217,-65.3249,102.2491,12.9273,91.9195,46.5458,-65.0395,120.0334,-61.6965,-221.8669
-2820.3125,-9.4930,70.1006,194.0615,-36.7780,112.8127,-28.6192,81.2565,-94.0954,-62.9888,-17.9591,94.5889,32.1456,78.7368,-35.9950,42.2916,-39.5060,27.8183,1.3920,-180.1794,-232.8983
-2812.5000,124.5147,63.0814,185.8231,25.9506,-6.5564,35.0201,-38.0196,-103.5896,-146.1100,-64.5083,159.5575,133.9332,55.5450,-82.6103,-3.0247,-49.2480,126.9619,-5.9582,-187.3553,-203.6518
-2804.6875,163.6596,67.1989,152.7393,64.8389,-39.7646,2.8060,-108.1460,-99.9357,-178.0714,-134.9207,163.6759,247.8785,41.1609,-5.0581,0.8192,-45.8314,95.2393,-2.1613,-113.3757,-198.2797
-2796.8750,62.4430,36.9510,120.3198,-70.6116,1.6899,7.2477,7.3829,-58.6359,-137.3832,53.3249,21.4338,215.4677,-17.1074,35.1556,-31.6830,31.2417,-39.8446,2.2840,-72.7431,-192.2855
-2789.0625,-82.5821,-108.1281,6.1177,-74.8553,70.3560,2.8985,113.1160,46.8668,6.5034,12.7662,-166.6080,138.2417,-20.6796,104.5762,74.0216,63.5246,-184.7444,67.9418,28.0953,-195.1173
-2781.2500,-163.7180,-154.3370,-42.1805,-16.2052,95.9400,-8.5473,138.7630,35.2746,105.3020,74.0976,-214.7400,163.9024,-28.8594,166.8905,99.6426,14.7196,-160.7625,-13.4932,-18.1588,-205.0779
-2773.4375,-87.2140,-6.9140,1.1678,96.0668,28.1844,-2.3510,71.0785,-68.6656,74.7629,7.0893,-61.2193,206.2193,-14.3894,61.8526,31.9347,-52.4226,21.8477,-77.2816,-81.7549,-197.4141
-2765.6250,-13.2264,136.9808,40.0099,238.8414,-42.0633,36.3389,-73.0978,-103.1063,4.7414,-138.4303,125.7936,99.0476,32.4913,-45.6625,-1.2507,-13.0502,94.9410,-39.5759,-78.8381,-193.2792
-2757.8125,49.5883,164.7022,32.7048,126.4772,-49.4478,65.8814,-43.4185,-73.7074,-2.4149,-72.0940,44.6500,91.7388,-6.6884,-53.3071,-8.5737,-20.8232,52.8721,-12.0289,-51.0646,-199.3267
-2750.0000,-17.1631,96.8572,-37.1404,-11.4370,-9.3696,-4.1201,69.7158,3.1421,73.8778,-179.3098,-99.0431,168.8772,-7.4224,22.5112,104.5572,-55.1381,-48.7594,60.9780,22.1614,-194.9542
-2742.1875,-92.3636,22.5293,-78.4233,-85.8030,22.2734,-82.5711,139.4072,-1.4514,143.7214,-147.9831,-66.1718,200.5489,27.7800,17.8827,174.2481,13.1193,-88.8629,21.5429,-17.0584,-198.0643
-2734.3750,-58.1640,-14.4253,-43.2988,-52.7829,57.3302,-84.6224,63.5124,-3.6426,104.9685,-76.2411,42.1053,162.6183,43.3760,15.6490,98.3478,47.7865,-90.5858,-15.4923,-18.8748,-198.8049
-2726.5625,23.9165,-143.4884,43.7206,100.1373,34.3041,-33.7748,3.5269,9.0681,45.1263,-136.6155,93.2758,65.5964,69.6544,66.3247,75.3673,-12.6366,-42.4290,-3.6283,28.2224,-220.6776
-2718.7500,84.3180,-83.2308,33.0904,124.4205,23.6430,-8.5725,29.9062,-37.8752,34.6463,-36.6346,82.7832,-19.0729,42.9172,55.3580,27.7507,-59.6905,52.0589,-84.4134,17.6775,-230.2353
-2710.9375,27.9542,71.2354,-99.2829,-2.0490,1.2458,5.8910,81.5453,-23.5696,123.4155,-96.3954,60.5343,-40.4908,50.7375,-4.3444,116.3928,-45.4798,31.7769,-34.9376,32.3930,-214.5760
-2703.1250,-46.2659,102.8113,-177.4939,-111.3773,34.0140,-71.4939,114.3419,-28.1015,266.3354,8.9846,19.4458,-44.7712,46.8238,-81.8766,185.1912,59.8934,-42.3700,-39.2990,28.2667,-217.8027
-2695.3125,-28.2464,49.6227,-122.4425,-199.4647,15.0436,-127.6274,58.3958,-10.3787,247.5094,174.6327,37.6177,9.1894,7.1327,-101.1544,93.2456,77.5214,10.7142,-21.4089,-23.6092,-198.8164
-2687.5000,43.7061,-18.6297,26.5601,-162.5992,17.0351,-162.8128,-12.5886,-8.7041,139.6460,65.2229,76.7429,48.1068,17.7213,47.5154,58.2642,42.1089,12.7301,-19.5666,-21.5268,-195.9170
-2679.6875,102.1932,-66.3511,88.1159,-104.1681,4.5943,-101.4441,10.9867,-58.4833,16.3392,199.3613,-45.5882,35.5872,-38.2086,34.7385,8.8492,66.2539,70.2832,-67.1815,1.1119,-207.5073
-2671.8750,29.7233,-104.0442,49.7333,34.3189,40.2143,6.9835,46.6147,-60.2116,15.0857,124.5490,-157.8830,34.1237,-50.9430,-3.9765,7.4893,64.4535,68.8820,-33.7416,34.8004,-208.0831
-2664.0625,-27.3019,-90.3071,-9.1897,153.2560,55.2966,21.8642,61.6967,-45.4870,30.2831,-8.8277,-31.7243,12.1063,24.3416,10.7725,59.5903,42.1135,46.9171,-20.8375,-57.0563,-229.2472
-2656.2500,57.0225,28.7463,5.2477,-8.4633,-4.2617,-0.9011,39.1377,-68.4084,7.8360,5.1517,129.7965,100.4281,36.4811,24.8745,37.0488,19.1464,61.2820,-147.5795,-112.5687,-214.0991
-2648.4375,139.1908,215.6177,90.5354,-102.3300,-28.9632,-99.8106,-22.5648,-57.4779,-16.7618,-94.0303,67.1853,74.5946,1.0566,72.8470,48.3702,67.0502,72.4783,-136.4695,-66.2280,-202.1378
-2640.6250,93.0830,204.2429,79.5760,-113.4379,-39.9016,-110.9734,-33.5084,-31.8043,-27.6003,4.5290,-16.6828,63.5275,-25.5557,61.5850,74.4571,129.7162,97.4120,-217.6203,27.8680,-212.4690
-2632.8125,-22.7478,18.1649,-42.0775,-53.2523,-51.5276,-48.8323,27.8639,29.1695,33.8659,-6.6053,-65.2741,51.7766,-20.0530,49.6302,99.8510,154.6978,86.6292,-157.4713,89.2724,-186.5399
-2625.0000,-46.7937,-41.1489,-177.9285,62.7272,-40.3368,-0.8867,39.0450,3.9559,119.1371,-106.9439,-17.0690,25.8192,22.3864,-12.5128,148.0600,128.5074,133.6227,-111.5108,64.4857,-174.8504
-2617.1875,71.2567,41.5866,-91.6730,40.8047,-64.0369,12.1638,-57.6690,-20.1485,22.5135,16.8369,33.2521,75.9515,-18.4416,-73.5438,14.3764,30.4337,216.6967,-98.4458,-27.1995,-161.1006
-2609.3750,185.2545,119.2485,100.5359,83.8348,-55.7774,20.1663,-159.4274,-49.2963,-117.1582,-86.4350,4.5324,158.0320,-79.9565,-28.6080,-161.3570,2.3200,259.7058,-19.4292,-18.9288,-152.4400
-2601.5625,144.3391,113.0135,205.8486,42.9716,12.5923,14.2675,-165.0798,-55.3446,-122.7277,18.3877,-75.0852,152.2231,-110.1441,38.4338,-203.9781,32.3128,183.8044,-60.3178,45.4520,-157.7222
-2593.7500,19.0053,128.3805,37.7671,-46.2976,-8.4299,-7.0229,-76.1244,-2.7913,4.3031,143.8262,-169.1183,57.0152,-118.2976,54.0756,-77.9891,121.9220,93.4948,-115.6062,96.4335,-141.4455
-2585.9375,-99.0427,116.0138,-197.0120,-129.2645,-22.1398,-58.0079,21.1355,57.0722,174.6343,166.5623,-108.8588,-66.8910,-49.3254,4.0376,92.3105,181.8562,46.4628,-92.5826,119.7237,-117.9095
-2578.1250,-37.0437,107.6482,-206.7313,-208.1796,5.2123,-103.9414,48.4533,46.9921,165.0157,303.3578,-8.5416,-76.7420,-41.1693,-115.9381,9.6705,134.8654,73.4621,-65.5118,42.0573,-90.3646
-2570.3125,55.9040,94.2075,-0.4933,-186.1485,27.5198,-118.9221,-3.2697,68.8583,3.3443,141.1064,50.7389,-54.6477,-19.6016,-93.9501,-78.0121,46.8395,24.3980,62.5186,29.3392,-67.9094
-2562.5000,68.3353,0.2493,159.2480,-173.6068,40.3363,-106.4000,-63.4915,44.2285,-20.8263,43.3547,-10.4675,-5.0623,-24.7280,-8.4404,-65.1836,59.3283,1.8205,75.0473,42.1263,-54.9983
-2554.6875,9.6056,12.1366,61.8479,-161.2101,16.0130,-57.0196,22.1429,19.4505,28.8553,55.4738,-33.8363,7.3735,4.6531,-33.0731,57.4957,34.6755,-55.9148,52.4219,18.7588,-42.2797
-2546.8750,-31.2365,-29.0739,-90.6455,-60.9059,10.5978,-26.7324,90.6777,13.5765,97.4371,-97.5111,70.6842,1.7236,95.9667,-38.7998,199.0814,-8.0743,-96.7592,46.7021,-21.7039,-47.7015
-2539.0625,1.5676,-101.6456,-92.4812,7.0415,8.8416,8.2007,88.8676,11.3537,58.6736,-26.8292,142.8488,-0.2687,125.1905,-76.8738,197.3281,-47.1591,-98.9689,8.6386,-93.5188,-49.5167
-2531.2500,52.8671,-191.7550,34.1856,23.4814,-11.4031,61.6365,-5.4310,27.6389,1.4136,-83.6350,159.5139,-20.7658,102.7468,12.5579,104.0806,-30.7024,-82.7060,25.0845,-76.8331,-32.8725
-2523.4375,110.9960,-239.0605,132.7037,46.7774,50.2122,48.9277,-17.8732,51.7889,-83.9904,-170.5952,147.0360,-33.4309,93.8261,73.8673,17.6994,-43.3668,-95.6178,12.3885,15.7129,-45.4199
-2515.6250,36.0012,-209.4743,92.1195,6.9688,83.7378,45.1289,89.5912,84.8506,-124.4840,-137.6317,106.4463,-110.1942,80.9339,107.0896,-22.7772,-10.1250,-170.6423,44.5900,83.1623,-49.1084
-2507.8125,-54.3592,-264.2303,-38.8246,92.8100,100.9162,98.9790,106.7127,101.5669,-70.3167,-232.0129,123.4909,-167.2932,115.7312,122.9635,31.4131,43.7772,-226.0251,94.4433,133.2692,-69.1873
-2500.0000,-60.2763,-411.5521,-44.3194,193.1063,95.5565,166.2834,64.2887,168.7396,-39.6950,-126.9369,43.9714,-172.9339,104.6726,81.3022,63.0638,38.1453,-161.9718,53.7497,57.8236,-74.8587
-2492.1875,22.6486,-399.0446,6.0409,206.2490,35.0529,179.4447,3.7213,144.7710,-62.2282,-150.9976,20.3050,-159.7216,58.6300,167.5043,2.5613,-22.6187,-78.0834,66.9152,36.2239,-61.7202
-2484.3750,35.2142,-212.9052,94.0621,218.0399,12.2111,156.2610,-19.1953,121.4635,-49.1185,-211.4117,108.3057,-182.8659,77.8925,107.3638,-20.2886,-82.7124,-66.5653,43.7421,13.2755,-84.9731
-2476.5625,88.9765,-18.5813,188.2889,131.0312,33.5794,140.2809,2.0909,32.3618,-137.8061,-116.6034,128.5025,-124.8065,67.3766,-92.5706,-72.9380,-98.5915,-47.8576,62.7676,-38.4769,-101.0689
-2468.7500,107.4282,0.4314,135.2131,150.7340,54.6532,87.0080,60.0832,15.9617,-153.7914,-207.0961,112.3913,-105.0476,72.9810,-71.7840,-51.8756,-77.7603,-64.4599,81.4951,-18.5265,-117.5036
-2460.9375,60.8672,-82.5615,14.1359,103.4463,79.7297,75.7398,85.0791,41.5686,-54.7693,-108.5842,101.2730,-42.2878,68.3666,-45.9864,-25.8003,-88.9097,-76.0782,35.2185,5.4280,-128.9794
-2453.1250,39.9455,-68.9109,-8.2948,12.8014,21.4570,54.1287,63.7303,91.8309,-3.1033,-57.4078,115.7999,-64.8668,60.3739,-68.5336,-11.0719,-74.3875,-62.0524,84.5936,20.0349,-114.8437
-2445.3125,-0.5373,-3.8284,60.7275,42.6097,16.6414,48.9699,21.8359,123.5554,-44.9948,-99.7870,110.7784,-106.9894,53.2649,-73.6150,-52.8837,-42.4026,-67.5905,150.4342,50.0893,-120.2971
-2437.5000,30.3768,-44.3588,130.1613,38.8183,13.2332,118.2179,18.3424,119.6892,-121.4931,80.2525,-2.8407,-146.7124,-13.9017,-3.2798,-129.3008,-46.0084,-36.7415,110.6800,11.5342,-124.3921
-2429.6875,-4.9598,-115.1574,93.3506,108.7901,50.5801,118.2287,18.5974,119.5803,-158.2547,44.0470,-39.7095,-183.6917,0.2280,106.8278,-92.9719,-45.8493,-72.1535,146.6828,46.7284,-124.7766
-2421.8750,-45.2599,-49.9290,16.5936,104.8237,82.9840,114.3006,51.9030,42.5310,-124.9620,149.8951,-6.5297,-150.6251,29.1923,-6.9977,-22.5874,-12.6271,-76.5274,36.7372,7.9776,-129.1518
-2414.0625,-40.0243,95.8555,-51.6189,75.4034,52.9433,82.9249,20.7692,11.0401,-119.1127,192.3152,-0.8185,-35.0022,-6.7063,-75.2731,-53.6410,-6.8395,-71.3643,7.3381,-21.2233,-124.0146
-2406.2500,-45.6990,124.7435,-56.7412,70.0791,11.0039,41.6473,-21.2618,5.6578,-88.1527,112.8341,-43.0181,69.7273,-30.9351,-6.4489,-21.5750,25.0791,-42.1135,2.0395,-26.3206,-129.8142
-2398.4375,-42.9295,-48.9249,20.5811,73.1978,14.5120,44.8187,-17.8396,8.7268,-47.7354,262.8222,-76.7705,36.9103,-50.4060,-40.1627,-55.0505,101.4677,-74.4168,5.1882,-58.9712,-127.1996
-2390.6250,-55.5186,-342.9481,6.5560,95.9600,0.6719,67.6437,5.2324,68.4519,-24.6755,249.4804,20.1289,-124.2523,18.4949,92.7899,5.1175,124.5112,-157.0729,27.9921,0.0292,-104.9692
-2382.8125,6.1887,-247.6933,-76.1616,17.0354,-7.8620,-15.2269,33.6050,95.4878,3.6735,240.4444,85.3309,-97.1172,17.6485,158.0600,-3.4205,78.8683,-131.4415,-15.8942,-8.6687,-114.4752
-2375.0000,52.4388,115.0973,-100.3220,-147.3264,-32.8324,-40.5356,8.5317,71.0807,-58.4348,251.9681,23.0700,-11.4346,-66.7174,59.8897,-101.4153,54.8002,-15.2724,-40.2283,3.1771,-103.4673
-2367.1875,-9.4201,158.7947,-90.5774,-102.7840,-22.8991,-67.9379,18.3564,80.5824,-48.6448,77.3840,-4.2985,72.1514,-42.3580,-78.3733,-55.5074,64.6432,-6.2136,40.3417,47.9298,-94.5926
-2359.3750,-94.8362,72.9550,-32.3879,-11.7974,-0.5150,-8.8862,40.6343,65.5446,-99.4052,135.2666,17.7808,57.1927,-18.2708,-56.1853,-70.1456,49.9407,-21.7093,25.3598,-1.8669,-110.3030
-2351.5625,-134.0081,103.3582,-72.9525,-51.5613,33.1172,-12.5792,74.1625,61.7686,-139.9187,94.4218,14.1051,53.4867,-19.0992,87.2585,-73.5287,82.4936,-60.9616,21.6346,-5.4154,-114.7962
-2343.7500,-101.4858,30.4393,-37.8182,-88.6117,68.4542,-14.5636,35.3904,22.7039,-68.7400,129.2794,-24.8684,14.4752,-24.1663,159.4114,-38.2116,117.7667,-28.5206,-15.3770,-43.2666,-117.6221
-2335.9375,0.8295,-113.6877,-4.8788,-90.8643,27.5941,-18.7406,31.4161,18.4413,-35.7668,235.9617,-65.0490,-26.7395,-44.8209,45.3796,-42.1038,150.8623,3.7201,52.4089,-80.3220,-85.6774
-2328.1250,75.5011,-216.4662,36.4098,54.2511,32.0811,59.4377,-38.2124,22.5327,-67.4435,92.9895,-24.8925,-22.6051,-20.4435,-24.2849,-73.6458,118.3284,43.3167,126.5478,-76.0409,-82.4130
-2320.3125,110.3785,-111.0091,110.9006,124.5616,32.7601,96.8090,-37.6421,-51.1764,-140.9208,56.2355,12.4583,14.7474,-28.4741,-23.7485,-146.9887,46.0142,78.1116,56.8706,-110.5739,-82.9788
-2312.5000,-5.5933,89.6030,62.5378,9.0154,21.5867,48.3292,-47.9250,-61.7260,-115.2509,7.6479,0.9594,77.2549,-39.6302,38.9525,-121.1767,-2.1441,68.0427,47.3514,-49.9620,-58.4255
-2304.6875,-113.3690,156.3934,-49.6262,-133.3344,19.6209,-63.9411,22.9948,-28.0599,29.6183,5.2793,35.6588,74.9585,4.2404,36.8625,23.8342,69.9018,-5.8336,9.0391,-17.1460,-61.7038
-2296.8750,-71.7034,162.6185,-79.3431,-197.2283,-9.8856,-93.7499,30.3691,16.0702,73.9309,159.3779,5.8008,45.1100,-22.8223,7.2179,31.2961,77.3994,-34.2723,-18.8143,-44.8774,-55.5606
-2289.0625,0.0984,93.9924,-39.9147,-53.9491,-7.2383,-18.3945,-4.1075,55.3550,76.3934,14.6229,8.0724,-99.5805,2.7451,9.7439,33.9073,43.0510,-67.5632,54.4860,-7.4540,-54.2964
-2281.2500,-11.0579,11.4211,59.5761,111.3939,19.4565,82.0228,-50.5410,44.6925,-8.1004,3.9356,-2.6209,-110.2187,13.1480,36.3309,-13.4384,-77.2379,-43.8009,78.8345,-52.9889,-66.0085
-2273.4375,-79.8083,48.2686,61.4699,148.1308,-15.4527,120.8391,-12.5829,46.4274,-42.1978,5.6568,-73.9112,-35.4597,-12.0173,38.3118,-11.3813,-112.1072,-42.6357,45.5872,-51.1334,-65.3433
-2265.6250,-146.0017,-53.3198,-43.0858,153.4089,-9.8188,89.1977,-7.0782,51.7153,36.2524,10.9423,-105.6357,43.8521,-3.9258,6.8458,68.2262,3.5824,-37.9232,14.8879,-10.7360,-61.1521
-2257.8125,-119.4435,7.8355,-89.8937,4.4513,-18.4371,5.3113,20.1781,41.7647,100.4398,149.0011,-152.6085,70.9218,-49.2452,-75.8664,58.5735,68.0281,23.5379,-63.0700,-18.5923,-35.2330
-2250.0000,-86.8872,180.9812,-56.7006,-67.4915,-96.0580,2.4372,17.4236,1.8216,96.6180,-38.9357,-119.5837,29.9953,-44.5418,-42.5634,91.9100,101.4794,56.0015,4.9779,-55.4450,-3.3351
-2242.1875,-12.7333,148.7320,-15.9148,6.1762,-129.0825,6.1750,-52.7381,5.4853,100.3827,-35.2649,-41.9695,-39.3277,-43.0515,34.3584,58.8430,179.5396,24.0716,-61.3764,-87.7060,-0.8576
-2234.3750,29.0205,120.1048,-82.5272,13.4378,-157.5171,13.5147,-82.3017,12.7535,70.7438,82.0153,-71.7761,-32.0412,-84.3267,115.9002,30.3781,187.2064,30.7390,-125.1315,-80.3736,5.2020
-2226.5625,-45.2336,115.4962,-159.1538,9.6888,-124.9547,-27.1517,-48.8638,9.0295,104.1082,78.3041,-112.5960,74.2659,-100.3556,149.4537,26.9185,183.8904,26.4002,-163.8878,-13.0451,0.2406
-2218.7500,-144.5323,85.8442,-187.8315,-18.1043,-80.4481,-56.8574,-4.4848,16.2648,111.4080,196.5565,-105.4698,118.5417,-78.1532,45.9624,34.3922,117.5273,68.0109,-121.6903,-5.7763,6.2109
-2210.9375,-91.4342,33.5939,-133.1159,0.5180,-98.5491,-38.1541,-22.7128,34.9073,20.0951,141.2094,24.0584,27.2189,-19.6287,-45.1256,16.2586,99.5729,51.0236,37.9205,12.8922,23.5660
-2203.1250,71.9558,90.6406,-35.1009,-11.5455,-73.3519,-50.1392,-71.6416,22.8519,-65.9205,129.1649,48.8718,-58.8042,-22.4370,-56.9078,-32.5762,87.9291,73.3407,60.8361,-34.1447,10.2056
-2195.3125,148.3862,95.7583,-29.0425,-5.5615,-30.1166,-7.0690,-65.5157,-45.1383,-132.8833,98.1788,-93.2859,-89.7759,-86.7105,59.3482,-100.3568,21.3436,149.7111,66.8078,6.8683,14.8826
-2187.5000,32.1126,50.2145,-77.6927,54.7149,-4.5834,18.3013,-40.0911,-19.8193,-34.5489,-97.5086,-140.1549,-64.4440,-65.3544,121.9060,-37.8351,10.0567,103.3759,57.0878,67.1833,38.8462
-2179.6875,-38.2518,191.5972,-148.4538,-50.1186,-40.1473,-54.4269,-1.7622,-55.5969,77.6689,51.7120,-67.1297,47.8011,-48.5986,-23.6254,37.5786,48.6619,33.9368,-47.7262,-1.6096,38.6954
-2171.8750,-88.9610,210.6085,-165.5725,-100.2866,-57.0667,-71.5005,-18.7874,-72.7220,97.5274,71.5863,100.5469,103.7017,9.2973,-113.4854,57.6377,68.9277,-17.8523,-27.8882,-17.7569,57.1846
-2164.0625,-22.8210,65.4350,-59.8439,-33.5810,-23.1408,-37.7144,-58.9695,-75.9856,57.2355,31.3346,170.0643,27.4434,47.2291,-152.4806,17.5432,66.0586,84.2096,39.7918,-91.0615,52.5121
-2156.2500,127.2584,39.2336,60.8330,-23.9225,-50.2684,9.0324,-85.2035,-66.2945,-80.1096,78.0538,69.5125,-36.8728,-3.1780,-106.5370,-46.6000,-34.8522,163.2280,84.4260,-115.4260,60.7802
-2148.4375,119.6388,66.3882,16.8120,-30.9683,-20.1039,-34.9253,-56.1436,0.7011,-87.1700,-2.9335,-48.7433,-80.8775,-30.3328,70.6912,-16.4541,-41.4593,50.5643,77.3642,-18.5007,52.3399
-2140.6250,3.9313,90.4812,-67.3154,-111.1298,6.9522,-44.9845,7.8057,27.5926,-24.3464,60.9904,14.8965,20.0408,-27.4855,170.8264,-26.4236,22.8322,-66.1774,-108.8014,-28.6894,40.7957
-2132.8125,3.5450,55.8779,-140.1475,-108.9871,-66.7068,-81.7474,7.0341,26.7890,11.7665,23.2236,160.8406,56.2686,14.9128,133.2813,9.8888,59.4196,-65.6061,-142.6657,-27.5798,75.5500
-2125.0000,17.6731,-1.2207,-88.4844,-94.3256,-124.8809,-67.0026,-51.2506,41.4942,63.3611,-72.0339,102.2894,70.9943,20.7125,38.2484,98.6869,111.5029,18.4786,-92.0288,-47.9754,88.8004
-2117.1875,66.1121,47.0119,-3.5221,-152.3560,-111.7585,-89.9499,-2.2368,17.5006,39.2374,14.0215,-31.9645,121.0259,-44.3914,14.5004,37.7670,50.8896,66.8700,-79.0981,-69.0800,100.3482
-2109.3750,10.1960,26.9170,-22.9164,-31.7371,-93.9914,-37.2487,-21.5762,35.1602,56.7593,-42.2692,-51.5846,101.7194,-45.1434,142.3972,18.4926,-42.0645,10.9131,-29.5176,-54.5302,79.5467
-2101.5625,-1.5258,-55.9744,-70.1221,28.0763,-69.0270,-11.3463,-32.7083,24.0259,82.4912,20.6619,46.9707,90.6089,-25.5804,131.4915,-29.5796,-15.8028,70.1499,-109.7422,-99.7840,66.9462
-2093.7500,80.2446,25.6358,-94.8377,3.3858,-93.5716,-36.9450,-57.3433,35.4029,56.7273,-4.8915,95.0258,64.9843,-26.2504,-3.8998,-54.1481,32.9603,115.8858,-98.4664,-88.5402,76.8492
-2085.9375,112.0207,233.2685,-25.5651,0.6932,-96.1309,-39.5428,-59.9907,32.7931,53.9538,-153.4470,55.1063,25.3553,-35.6758,-43.2713,-56.7266,-6.2814,112.6231,-67.1885,-57.3044,72.7550
-2078.1250,117.0655,167.1460,53.9590,42.2611,-90.4538,3.1192,-90.4031,1.4362,22.4143,-74.7455,-49.5554,-6.0150,-74.8340,-0.3870,-87.0719,-37.2691,117.6173,-61.6644,-16.8250,76.9162
-2070.3125,24.8640,4.7646,68.2302,91.5962,-76.0366,54.5405,-76.0732,15.8238,-36.3842,-133.2914,-108.4828,8.3731,-64.5544,88.2524,-72.6728,-58.4996,61.3644,58.6200,68.4015,89.8334
-2062.5000,-12.4943,2.2511,-7.6506,-16.2117,-5.7672,52.8140,-5.8963,14.0605,-38.3330,-134.9686,-73.5985,80.6204,-29.8717,12.7399,-38.4207,-59.8881,22.9689,20.7507,66.4756,86.6047
-2054.6875,-1.9551,118.6709,-68.6333,-74.1347,5.4007,-10.0176,42.1778,-11.7998,-27.3776,-50.7233,-99.8405,17.7657,-55.3375,-12.8861,-63.2807,-84.3727,69.4818,31.7891,41.4515,96.2814
-2046.8750,58.3368,107.8493,-6.8782,55.6858,-4.6893,-20.1032,-5.0032,-21.8905,-37.6708,-133.7083,-37.3339,-65.3513,-17.1938,-22.7708,-37.4016,-58.0909,93.7393,21.5826,31.1804,84.7119
-2039.0625,92.6322,107.0297,103.8690,125.5076,-4.7868,53.8192,-77.1929,-57.9725,-73.9618,-24.6733,-1.8124,-65.4765,-12.9478,-131.6482,-73.5293,-57.8160,127.9922,-13.6256,-73.0984,83.1478
-2031.2500,131.0315,145.3347,180.7045,129.4343,-36.7958,57.8380,-73.2874,-89.9577,-144.1582,-166.5376,75.8123,11.5057,18.8853,-90.4106,-69.5599,-163.4481,166.3515,-9.7431,-69.2846,85.6902
-2023.4375,144.2805,299.5176,196.3779,73.2114,-21.9668,36.7027,-94.5332,-111.0929,-202.4950,-187.5443,54.2625,101.3486,-14.7468,-75.3206,-127.7401,-221.2306,215.5744,3.9871,-90.6288,63.0893
-2015.6250,171.4810,361.6620,186.9907,29.9336,5.8018,27.5182,-103.8327,-120.2769,-321.8860,-122.5962,-28.3599,202.1576,-68.8313,-157.2884,-209.9723,-229.0621,277.7668,31.6703,-99.0291,89.4516
-2007.8125,148.6963,268.8277,199.5989,148.6602,18.5581,40.3332,-91.1417,-144.4615,-309.2907,-256.6488,-15.9836,214.9735,-30.8814,-107.2620,-161.2083,-252.9062,254.9663,44.3623,-121.4334,100.8264
-2000.0000,160.7202,245.8197,212.0113,161.1993,-4.8965,52.9561,-78.6588,-204.8457,-333.9118,-243.8937,32.1930,190.5818,-32.5181,-21.4407,-184.6584,-202.9620,266.9740,-13.1396,-179.0518,112.0119
-1992.1875,185.7992,234.8734,237.4739,151.8008,-15.3084,78.6368,-127.1380,-179.1797,-344.4877,-255.0963,-14.5842,106.2436,-52.7240,-31.5629,-196.0729,-103.9608,221.0288,47.4110,-118.6267,136.2589
-1984.3750,118.5776,132.6401,240.6270,190.1013,23.9742,82.0155,-159.9198,-102.8158,-194.3703,-177.6052,-122.6634,35.6185,-70.1721,-64.9775,-155.7999,9.7570,118.7933,15.6544,-80.5028,138.2160
-1976.5625,66.9651,152.0442,113.3690,103.9994,7.8496,64.9978,-104.1097,-45.8520,-64.6690,-10.5145,-250.1537,55.6008,-114.0938,-118.7900,-99.9373,-5.9301,102.1772,1.4926,-60.7852,156.7865
-1968.7500,13.9591,273.0829,20.7085,50.5030,-49.6853,45.5767,-87.7070,-29.2879,-48.3790,-104.8352,-123.0582,72.1950,-82.3153,-28.0039,-83.4881,-63.0293,83.1817,51.9338,-44.4695,171.9717
-1960.9375,40.3197,230.4867,-23.6015,43.3574,-56.8818,38.5087,-130.9628,0.6292,-92.7471,-0.7920,16.3799,29.1463,-68.9575,38.1182,-163.6995,-106.7878,75.5447,44.7268,-16.8141,163.5216
-1953.1250,52.1889,31.3975,-11.4126,21.7116,-44.5835,50.9424,-118.7206,49.0513,-116.6284,83.7519,-8.6788,41.5957,-76.9120,86.7404,-188.4225,-130.0532,18.4043,57.0275,31.3336,174.5895
-1945.3125,-18.3384,-3.0749,-48.6301,-14.3329,-7.6957,50.9797,-82.8859,85.0770,-43.9245,47.8910,-46.1315,41.6341,-39.7023,14.9685,-78.5511,-93.7234,-18.1337,56.9309,65.0835,173.2747
-1937.5000,-34.0094,16.3294,-66.0011,-64.5200,12.0306,34.8735,-26.2135,68.9511,-24.3785,140.8816,-63.7366,-48.4823,-36.0850,-75.9564,-58.8362,-36.5536,-33.8092,6.6784,84.6805,191.8267
-1929.6875,-67.5248,17.9130,-100.2340,7.4534,-23.1016,-0.0811,-24.3964,70.9689,14.3167,70.0188,-62.2066,-83.4387,-13.4833,-36.7391,17.0289,-34.2408,-67.3157,44.5727,86.4205,192.5455
-1921.8750,-102.7345,-17.1889,-135.1746,8.7225,16.0619,2.2621,14.7236,36.2842,88.3034,145.4679,-133.3874,-44.0778,-13.3385,2.7627,91.1869,-68.6240,-102.5065,9.7564,51.4500,156.5819
-1914.0625,-136.7848,-16.1414,-133.9736,-95.8632,17.3630,3.7486,51.9844,1.7501,163.4235,221.0780,-169.4179,-5.5574,-21.8664,4.4369,129.4836,-103.8502,-136.5466,11.0903,18.6224,156.7897
-1906.2500,-168.4617,-48.7297,-167.4318,-162.1122,57.0010,-66.4302,55.5853,41.5657,240.8844,225.0443,-129.0752,-38.6822,-2.3927,-65.5254,133.1256,-25.7318,-133.2405,14.7696,56.1297,159.3652
-1898.4375,-94.9234,-45.0797,-163.6967,-229.1759,24.8245,-99.4142,59.3865,45.5717,207.5463,376.2189,-89.5102,-71.6117,-28.6272,-98.3029,63.9621,-21.4240,-94.7210,-17.3640,59.8282,162.1612
-1890.6250,-83.9745,2.0076,-152.5650,-182.8292,-0.9749,-88.0047,-2.4240,92.9708,107.6125,240.7891,-4.5545,-60.1389,-3.4684,-49.7083,39.1998,-46.7240,-83.7742,29.8998,70.9284,172.3815
-1882.8125,-67.4637,-87.3316,-133.8888,-94.9172,-19.2336,-69.0424,16.3054,111.9144,53.2344,185.9139,13.9087,-41.1047,-10.0103,6.4259,-16.0251,-27.4924,-102.2486,11.7123,87.5783,153.1743
-1875.0000,-45.7978,-276.4962,-76.0674,-37.8576,-34.3509,27.0772,1.1713,97.0069,2.0011,134.1816,-38.4967,-55.9047,-34.0310,100.7270,-68.1197,-5.1288,-115.5620,67.6742,109.3785,174.1407
-1867.1875,-118.1785,-313.6814,-41.2989,-4.8527,0.4747,25.1400,-1.0169,95.0495,36.6986,-50.6143,-40.9299,16.2547,7.4665,98.9887,3.7213,30.1798,-152.9276,65.5867,142.1195,171.0788
-1859.3750,-43.9515,-27.2554,-34.9328,-105.2521,6.8938,-42.2036,41.3913,28.6850,41.9815,29.2034,2.2637,58.0242,3.7009,-40.1583,10.1489,0.0835,-78.6800,-34.9108,41.4443,139.6395
-1851.5625,52.9423,209.8147,-79.9175,-77.9899,-38.0538,-86.8946,-2.5640,-15.0281,33.9132,-51.3296,-5.8798,50.4473,-24.8473,-84.6704,2.2184,-44.3705,53.2282,-42.7594,33.4121,130.8747
-1843.7500,32.9007,119.9487,-25.8552,42.3467,-57.9584,-32.5274,-59.4772,1.3041,86.8993,-70.8124,-100.0011,-5.0822,-48.3179,-30.1537,18.3355,-26.7924,68.2023,-62.5578,48.4315,110.1826
-1835.9375,-45.9879,-64.7206,0.3542,32.8387,-67.7200,-6.0063,3.7635,-8.2223,151.0443,28.8473,-147.0193,-14.4604,-52.5542,69.5145,44.5966,-36.0898,23.3384,-72.2097,38.6030,99.6634
-1828.1250,-102.4739,-84.9627,15.9597,-22.2721,-51.0896,-26.0861,19.3953,-28.3509,167.5815,-27.1135,-56.6465,-34.4348,0.9586,86.5989,98.2430,53.0015,-32.1070,-56.4624,53.1756,78.5705
-1820.3125,-13.6984,-100.9369,36.8097,-3.1451,-31.2225,-41.9189,3.2669,-8.2297,151.3517,30.1763,73.0043,-14.1651,33.4160,-75.0683,45.1192,37.3488,-13.2896,-72.4677,1.9944,61.7522
-1812.5000,103.8439,-125.1390,48.3975,79.7166,-92.6176,5.9922,-21.1246,-32.3500,51.8440,-103.7904,84.4387,34.8611,33.2056,-173.9975,19.7301,-59.5432,104.2769,8.2830,13.5599,72.7098
-1804.6875,155.9467,33.2060,104.5324,62.1177,-73.4656,-11.5592,-38.9623,-49.9184,33.8791,-195.2012,29.4157,17.4450,20.3596,-117.3877,38.8888,-113.8810,121.3933,-9.4130,-4.3264,54.2409
-1796.8750,97.1987,149.7086,117.8181,-32.3307,-61.1628,-34.9581,10.3498,-37.3433,84.0608,-35.4605,-103.4879,-42.8144,-13.5387,-177.6277,89.1951,-100.0807,97.6741,-32.9633,6.9354,29.9492
-1789.0625,-48.1516,75.6463,39.5071,-1.3654,-29.4646,-38.9602,80.0524,-4.3764,226.6418,-39.3359,-108.0047,-155.6689,21.6512,-107.4617,157.8937,-103.9057,-12.6324,-37.1198,73.6015,25.0832
-1781.2500,-84.1954,-135.0795,-71.5141,68.9078,6.5236,34.3365,79.0515,31.8839,225.5165,34.0899,36.7867,-156.2203,66.8736,0.9966,120.8793,-104.4544,-117.6317,-72.9771,72.5590,23.5412
-1773.4375,-42.2212,-303.8053,-100.5489,76.1819,-23.4939,41.6396,86.0478,39.1454,158.3854,41.5207,117.5947,-39.7838,81.2843,8.4475,90.8519,-97.0191,-110.6272,-30.8273,44.5124,30.0274
-1765.6250,-8.5291,-269.8390,-29.8974,110.1524,12.1789,40.6448,10.7373,38.1119,83.9558,-69.3479,42.1080,70.3443,52.2303,7.5944,52.5191,-97.8844,-42.9120,-31.9819,78.1651,28.2416
-1757.8125,22.3174,-64.7075,112.9031,35.2700,6.9891,35.8031,5.5708,33.2225,4.6789,-1.0690,-37.2449,65.6224,-14.9916,-34.1040,-62.6680,-176.6070,22.9649,-36.9976,37.9719,22.6349
-1750.0000,-17.2882,38.0008,72.2576,31.9466,3.3382,32.5075,38.9536,103.8780,-36.0400,-77.2646,-4.0628,-48.5486,1.8947,-0.2507,-66.2965,-142.8017,-86.5996,-5.4624,104.3263,18.6045
-1742.1875,-111.6406,-21.0091,-26.1355,7.8801,52.9358,8.4598,88.5798,115.7689,13.4859,8.7901,-28.6360,-108.4629,25.4664,12.8370,19.3165,-20.7587,-180.9114,-29.6784,114.9269,-6.1515
-1734.3750,-126.2803,-72.3044,-115.8316,-78.4881,72.2271,-8.8875,143.9020,99.3549,106.7010,138.5395,-82.5009,-52.6725,0.9415,-41.3927,38.6156,35.9859,-196.5219,-45.1889,99.2224,12.8191
-1726.5625,-49.5035,-99.2038,-108.1379,-35.4727,79.9126,-37.8457,78.6205,70.3516,77.3094,36.6833,-74.9529,-44.4852,-7.8075,40.7754,9.3123,44.1321,-83.7236,-2.3011,71.9206,20.2164
-1718.7500,28.9829,-125.3925,45.2462,7.2154,50.2928,6.8855,-24.9568,4.0439,-26.3808,81.5292,-67.7142,-36.5894,-30.8595,48.6455,-56.2893,51.9762,29.7727,5.2854,-26.6782,27.3406
-1710.9375,-12.3340,-130.3724,76.8266,143.1003,7.8737,38.8080,-30.3276,-38.0703,-67.8718,-34.4326,-0.2748,-77.4946,-2.3254,43.7196,-61.6946,121.0199,24.4650,71.0648,-67.0757,21.6897
-1703.1250,-67.7963,-150.5048,19.2616,122.8576,61.2979,55.5833,-13.8532,-21.3445,-52.5209,19.4437,-20.9843,-61.5432,-0.9851,97.6443,-46.2570,136.8979,-66.9781,15.6838,-52.6289,0.9139
-1695.3125,-45.8506,46.7787,4.1050,-30.9740,46.1158,-33.2386,8.0127,-36.2369,-30.7742,78.6882,-36.2850,-2.1696,-33.7812,45.9613,-60.4267,86.1443,-80.0067,1.7037,-30.7876,22.5665
-1687.5000,45.3976,172.3907,-12.7481,-115.4997,29.2299,-84.7632,-44.8315,-51.8415,-46.7294,-47.7857,94.7176,18.5086,8.7487,-43.4387,-40.3052,69.6803,-24.7230,93.0266,-45.6464,42.5421
-1679.6875,132.2077,84.5791,79.9430,-63.4894,10.8889,-30.7460,-99.1294,-105.8943,-138.1345,44.3012,186.2726,37.7202,37.6482,-134.3002,-58.6403,51.7661,63.1176,74.8937,-97.9528,24.0887
-1671.8750,71.8824,-81.3539,91.4697,122.3555,22.3960,18.1118,-52.5819,-95.1004,-163.6902,19.2361,50.6790,49.7790,2.3175,23.6835,-84.1289,26.6813,2.8213,84.6111,-54.4002,-1.4911
-1664.0625,-63.5283,-145.3704,24.8896,199.0961,102.8013,62.8637,-8.1387,-88.4060,-84.3463,27.0686,-53.0206,20.7467,1.1429,104.5546,-40.7244,34.4799,-62.5622,20.2251,-12.9496,-31.1475
-1656.2500,-47.1729,-128.6261,-32.9336,74.5874,82.9493,42.3617,8.0484,-71.9668,-68.2621,153.6352,0.0335,-36.5325,1.8787,11.1653,-61.5825,14.0175,24.8185,71.5989,-67.7524,-15.0290
-1648.4375,63.1994,52.1292,8.2473,9.0731,50.0953,9.8527,-61.7732,-30.5320,-100.1865,-25.7981,78.0964,5.1842,7.9503,-21.2295,-93.4517,-55.4471,64.2103,110.9682,-28.5614,-10.8886
-1640.6250,109.8815,205.1957,94.7290,20.8462,26.5361,60.6371,-85.2988,-53.8010,-123.8108,-85.9311,17.4612,92.1936,-42.9954,-7.3296,-153.0273,-114.6174,40.9098,52.6374,-16.0683,-34.4225
-1632.8125,-24.8850,140.8180,26.7528,131.1741,31.5209,101.9679,-6.2719,-48.5250,-82.8823,-189.5381,-51.6193,134.7522,-26.4074,35.1178,-76.0489,-73.2446,-94.8417,57.8591,58.9798,-29.3821
-1625.0000,-162.0543,3.0491,-153.6275,134.1026,34.1072,104.9023,70.3573,28.3418,30.6448,-223.5467,-122.0952,27.9130,18.4073,75.1583,110.5256,3.7130,-126.9872,25.6719,131.6249,-26.7182
-1617.1875,-144.2595,-84.7411,-173.0558,81.9761,14.6359,86.7803,87.9296,83.1513,48.1150,-131.6203,-140.6143,9.0280,13.9379,93.1439,128.0407,-52.3962,-74.1714,43.4353,44.2158,-9.0792
-1609.3750,-11.0920,-160.1630,-71.1263,75.1888,-29.4871,79.9964,6.8429,76.3055,3.9304,-212.3573,35.2253,39.4948,53.4981,122.4648,84.8984,-95.1665,25.0070,71.5507,-33.8458,-16.0677
-1601.5625,137.8961,-117.7798,85.6092,48.1855,-19.8095,53.0064,-57.4427,-24.7477,-23.4607,-165.2982,154.8683,85.7614,60.9250,22.5731,20.5511,-12.1458,32.9888,9.4702,-131.1077,-43.2322
-1593.7500,104.0363,60.7469,87.4892,15.3273,-17.9812,-18.8397,18.4268,-96.6503,-21.7005,-200.1161,46.6686,125.1738,42.1086,-12.1657,95.3640,27.0158,0.1162,-23.4561,-94.2123,-41.2230
-1585.9375,-54.2305,218.8764,-4.0453,32.0698,0.4502,-37.0859,72.9035,-114.9581,33.6633,-255.3321,-45.9216,144.1762,37.5341,79.6849,187.7780,8.7667,-18.1513,-112.7910,-77.7150,-59.5925
-1578.1250,-43.3949,265.1136,-30.4766,-27.0814,10.9831,-63.2342,47.4781,-104.1692,-29.8788,-98.4520,-35.4039,155.2706,8.9608,54.6194,124.2798,19.6010,27.6879,-171.0216,-102.1138,-48.8391
-1570.3125,76.3073,104.1931,-16.0432,-118.3806,-85.6324,-85.5310,-12.1073,-15.5297,-52.5804,-83.7339,125.9756,170.2068,36.1098,-4.6007,101.6196,71.2729,42.3871,-122.3980,-87.6624,-34.2174
-1562.5000,174.5262,-149.2276,12.9046,-196.1925,-129.7500,-93.3302,-20.1985,13.6062,-23.7877,19.4872,228.8516,52.6424,73.7540,-12.3295,130.4475,136.4361,34.5960,-130.2775,-24.7108,-42.0741
-1554.6875,61.5002,-260.8882,-31.4022,-98.2598,-101.1192,-63.3894,9.4702,79.4850,5.7650,85.4459,73.4743,-65.1767,36.0576,90.6870,123.0370,166.3367,-7.4542,-102.4101,73.0025,-49.1598
-1546.8750,-104.7297,-214.7374,-93.9229,17.4586,-15.6841,-14.6643,93.9507,54.1549,90.1412,24.2095,-136.0961,-127.1985,-1.3701,102.4969,134.4363,178.0194,-32.7115,-56.7546,153.5217,-74.4268
-1539.0625,-115.2145,20.1699,-67.7079,-28.0771,46.4972,11.8098,120.1808,7.5689,42.2781,123.7189,-218.8988,-63.4704,-38.8785,-17.9546,86.5867,93.4410,-8.2157,-32.3507,36.7927,-84.9227
-1531.2500,-34.5887,136.1654,51.6091,-53.5017,19.7793,-15.6163,55.5034,-56.9183,-21.4850,-13.6867,-63.5872,-53.6533,3.9750,-8.3129,58.8351,-7.0476,1.3872,47.1596,-23.8340,-75.3014
-1523.4375,26.3004,56.4014,79.1968,-62.6735,10.3157,-61.7935,46.0758,-29.1653,-31.0027,-22.8427,147.9651,-62.5981,89.8424,-91.4286,86.3235,-16.2934,-7.7465,2.9218,-33.2164,-84.4143
-1515.6250,44.1940,-136.3620,59.7923,-80.8471,27.8594,-43.9728,63.6510,-11.4190,23.4782,104.9804,128.5113,-81.5519,79.7275,-110.5451,66.8125,1.4527,-59.8828,-14.3114,19.4060,-66.5089
-1507.8125,-16.8139,-162.0314,-41.5105,-35.9253,36.5079,-35.0568,146.3304,34.4259,68.0666,3.8918,27.1646,-109.4098,81.9785,-27.5650,149.4074,-26.7043,-121.9353,-40.4495,98.1381,-57.4886
-1500.0000,-78.7270,-46.6143,-106.7267,-62.9114,45.2541,-26.0414,192.1220,-67.6304,113.7592,12.8992,-1.0593,-26.1716,73.4009,18.5080,195.1085,-54.7679,-112.9002,-102.4852,36.9765,-48.3536
-1492.1875,-61.9394,5.4912,-90.2458,-81.2069,-12.2956,-83.3318,134.6166,-123.9856,57.1580,-81.4103,88.4342,64.7610,79.2798,-1.7237,174.5144,-1.1355,-25.1714,-50.8160,-16.4767,-31.5061
-1484.3750,-14.1939,-17.4579,-2.7947,-33.5619,-35.8911,-69.6782,38.0642,-147.3935,33.5056,-104.7676,248.8718,77.6338,112.7711,-62.0141,113.8634,12.4385,21.5118,-3.1996,-75.9753,-54.6968
-1476.5625,87.5544,-20.4132,66.6752,33.0911,-2.4755,-36.0240,34.5176,-150.8090,-81.1492,-34.1471,209.2988,38.4918,86.9625,-65.3027,37.2126,-28.0041,53.1944,-41.5758,-114.4666,-57.8774
-1468.7500,89.7995,-17.8737,32.6500,70.2457,-0.5512,-33.8715,36.4823,-112.7266,-79.2968,-142.0395,100.2327,3.8442,51.9828,10.8964,39.0710,11.0457,55.3664,-75.4582,-6.4528,-55.5509
-1460.9375,28.6938,26.3130,4.2634,-61.9600,8.0271,-99.0716,45.0994,-103.9975,-70.7848,-23.2804,-1.1547,122.8436,-13.7184,56.7285,10.5800,92.7447,64.1879,-136.6974,37.2113,-46.5651
-1453.1250,66.9449,99.8354,5.2156,-127.8259,8.9520,-96.9320,9.0693,-65.9211,-141.9166,-22.1930,73.8366,161.1900,-41.6058,94.9094,-134.5485,57.7931,32.3626,-63.5895,40.2336,-8.2203
-1445.3125,120.9055,154.0574,23.8759,-75.0060,-9.4192,-78.1032,-82.2588,-47.1521,-123.3469,-76.4123,202.5286,33.2401,0.6513,2.7960,-152.9770,39.5286,51.2470,26.2150,23.9558,10.8320
-1437.5000,140.9767,139.3874,43.6531,-125.0914,-62.6849,-22.1757,-62.4869,-27.2887,-103.6858,16.4516,148.3154,-56.6165,-30.4240,-86.2181,-170.3154,59.3413,71.2422,81.1287,-27.2092,30.9928
-1429.6875,72.9049,-34.4434,82.2899,-18.3172,-25.0906,16.6046,12.1354,11.4273,-66.1785,-90.8510,76.9554,-164.6333,-2.5592,24.6020,-131.8091,-13.0028,38.0905,152.9017,9.4849,33.0079
-1421.8750,41.8387,-170.2717,87.9237,126.4579,54.5048,59.3867,17.7570,17.1408,-61.6763,-13.1593,-65.3795,-121.6501,-13.9863,67.4091,-90.3090,-80.3507,41.9444,51.6682,-21.8240,2.0295
-1414.0625,3.2883,-68.5726,84.0501,52.7300,50.5934,55.6583,13.8738,13.3478,-65.6716,94.0067,-69.1900,-53.1599,-15.4246,-83.2892,-58.3077,-11.2068,3.3105,12.9242,-25.6362,-1.4436
-1406.2500,-2.0471,67.3447,4.3806,-93.8127,44.8826,-23.8808,8.1854,7.7477,-34.4611,88.3739,36.1962,-58.4598,6.4108,-88.7975,-27.1057,94.1283,-2.1121,-28.6269,4.7480,-6.7126
-1398.4375,108.7720,73.4199,-27.1264,-158.2077,13.3275,-91.2718,13.6506,-60.7045,7.8983,240.8851,114.7110,-52.6147,-18.0736,-83.1533,-94.7597,25.5981,38.6238,-58.0228,-25.7166,-0.8232
-1390.6250,112.9401,77.8467,-23.2803,-84.2349,17.1301,-87.3049,17.4638,-56.8065,11.6010,97.7271,155.5800,-48.4304,28.9792,-79.1583,-55.0674,-153.6029,7.7195,51.9308,-21.8280,3.4219
-1382.8125,-19.2305,85.9300,-13.7835,-76.6077,63.5767,-78.6827,99.9267,-84.2683,93.9450,106.2091,-18.8723,-75.5939,43.9374,-142.5228,101.2690,-181.1728,-19.5273,59.5320,21.7043,-23.6763
-1375.0000,-109.3352,-73.9220,-35.2421,-60.9358,79.0689,-26.0191,189.4408,-68.6845,146.3356,85.7174,-186.2446,-95.7041,32.3488,-126.8489,190.6588,-92.7022,-74.7193,40.1858,72.2817,-7.7171
-1367.1875,-123.3235,-193.6594,-52.5939,-41.1760,61.6614,-43.2633,172.0528,-49.0043,202.8314,-78.6817,-129.5100,-111.7221,40.9623,-35.0939,173.1487,73.8635,-54.7987,-11.0645,126.9590,12.3495
-1359.3750,-21.0018,-124.0959,-90.6371,-183.1264,22.5560,-81.2097,96.9608,-51.0259,200.6262,66.2132,-22.4783,-4.4464,-4.3476,-37.0403,60.9367,108.7259,14.4249,-83.0171,54.9413,10.7243
-1351.5625,52.4196,18.5617,-124.5785,-285.9785,-12.4383,-152.0609,61.9736,25.0558,165.5288,31.1919,126.6479,34.9201,18.4399,-34.8831,25.8278,-0.3175,16.7411,-45.8673,57.0369,13.2041
-1343.7500,5.2387,41.6078,-101.1158,-193.4265,11.9727,-127.5071,49.3972,49.5312,152.8375,18.5681,151.1824,-51.3207,42.7978,-10.3360,13.1126,-85.9724,4.4521,-23.3168,79.5366,1.0901
-1335.9375,-56.4946,-89.9117,-92.1994,-79.4170,20.8387,-46.5023,21.2733,58.4581,124.5903,64.3798,13.1979,-78.1190,-3.4783,72.6511,-15.1514,-41.1928,13.6148,-14.3084,53.4865,10.4314
-1328.1250,-24.4137,-57.6262,-22.4769,-47.6163,17.5123,-49.7057,17.9468,18.1851,85.1399,-86.0164,-63.9691,-45.1189,-26.8478,69.4228,-18.6117,29.3780,80.5850,-17.5048,50.2315,7.5760
-1320.3125,82.1289,119.1114,51.7068,-82.3766,54.6409,-49.4660,-18.9271,-91.6442,11.1374,-85.9731,10.3132,66.3232,-32.1676,-41.3576,-91.6208,29.3989,116.0102,-52.2544,-55.5733,8.1783
-1312.5000,181.8691,184.0300,81.0991,-86.9353,-27.0279,-56.0236,-62.6009,-135.2704,-69.6577,-166.7617,113.7963,95.9586,-28.1086,25.0763,-135.4312,-87.3860,180.6306,12.2053,-61.1619,37.9853
-1304.6875,172.9052,70.2389,71.7944,-62.1942,-36.3883,-65.2767,-71.9686,-107.5992,-43.1515,-139.2567,177.5823,49.8929,6.4262,52.8072,-107.9484,-96.8788,171.5478,38.9684,-70.4436,29.0946
-1296.8750,140.2921,107.7965,73.8364,9.9055,-34.3928,-27.1775,-69.9790,-69.5788,-77.3039,8.5741,106.7379,-21.8302,-23.3063,-19.1212,-143.1133,-95.0278,173.8132,5.0901,-68.3746,31.5569
-1289.0625,137.0325,210.6945,107.2320,77.3482,-1.0384,6.2654,-109.6367,-73.2064,-81.1041,-104.2582,66.2658,-97.2117,-26.5848,14.2866,-146.9151,-62.8260,170.4261,37.5585,-71.9557,28.3709
-1281.2500,174.4243,177.2345,145.2832,79.4251,0.9693,45.3503,-181.6400,-35.1835,-79.2425,-66.4322,-5.5478,14.0464,-83.8086,-20.6672,-219.0598,-24.9791,208.6810,-31.3207,-69.8849,30.8380
-1273.4375,161.1616,94.1144,130.6878,65.8490,-50.6605,66.7831,-197.2869,-13.8122,-58.0250,-45.2617,-21.0127,146.6423,-121.4961,0.7308,-270.8454,-39.7929,194.2795,-9.8497,-48.4534,52.6557
-1265.6250,55.8978,93.9912,56.1035,65.2701,-51.2817,29.2176,-197.9276,22.5536,14.1981,-82.0890,52.5209,146.2371,-48.3750,37.1189,-124.6338,-40.6211,88.8790,-10.3821,-49.0186,52.4733
-1257.8125,29.1854,173.4061,-44.9289,3.2446,-42.3535,1.2026,-115.0174,31.4669,59.9716,-1.3808,24.6249,44.3831,-48.8747,-26.9540,-78.8763,41.0929,27.0318,-1.3580,-74.0283,61.8428
-1250.0000,12.3290,121.6347,-100.1156,-13.9223,-60.5705,-16.9603,-60.2548,86.2330,40.5972,-55.8354,42.6002,-83.6297,-14.1860,-82.1709,-25.2634,132.6549,-24.9718,87.5202,-22.1810,80.0615
-1242.1875,-3.9283,-69.5685,-116.6942,39.5087,-41.1821,2.4796,-40.8854,106.6027,60.8292,36.3136,26.1780,-63.0624,-4.4927,-61.7851,-6.0446,115.8154,-41.3775,34.9993,-3.7300,63.8794
-1234.3750,-49.9968,-221.5766,-128.0640,64.1316,-52.5872,65.1157,-16.3082,132.1770,49.2724,61.6516,-22.0447,34.6861,-24.4949,35.7966,-17.6113,104.1756,-86.5917,-11.3158,19.9292,52.8973
-1226.5625,-100.3187,-96.8060,-181.6743,47.4861,-33.2317,11.4950,4.0197,115.4990,106.4735,-65.2549,-110.5173,92.1783,-47.1666,203.1134,39.5679,87.2824,-103.0563,-96.8896,74.3434,36.6614
-1218.7500,-130.1420,84.4650,-212.7847,-17.6570,-27.3748,-19.6224,46.8503,47.3170,75.1732,50.3346,-104.4799,24.1700,-49.0462,135.9177,45.2452,55.8844,-63.0193,-90.9623,45.2647,42.9237
-1210.9375,-146.6120,138.0506,-194.5476,-68.4315,-45.1577,-37.3890,28.0350,65.4866,19.2266,31.2601,59.9184,5.5123,20.8956,-29.9273,63.2758,73.8292,-78.6333,-3.6863,27.5439,61.5311
-1203.1250,-81.0816,97.6208,-163.3079,-110.2050,-14.9371,-79.1535,22.2249,22.6551,-59.7150,99.1885,164.3172,73.8523,55.2404,-108.7743,57.3111,141.7720,-120.2472,-9.4144,-13.1787,56.1347
-1195.3125,10.8431,120.5843,-65.6564,-122.5831,-27.3154,-55.5180,-27.1821,-26.7718,-145.2502,86.4983,152.1177,171.5800,0.1621,-84.2180,-65.2515,165.1184,-96.4669,13.2664,-60.4908,44.1355
-1187.5000,20.5093,59.2771,17.7538,61.7853,-16.9338,-9.1276,-53.8354,-89.4432,-172.0318,-51.4437,125.6709,145.0387,2.8875,-1.9112,-92.0607,138.2157,-53.9376,92.7030,-87.0490,17.8806
-1179.6875,35.9258,39.7120,144.9129,146.9021,37.2053,45.0156,-73.7332,-109.3572,-192.0618,39.3605,32.9746,52.2378,-6.1467,-58.8597,-112.1227,8.0580,-38.6614,107.8934,-106.8516,-1.6287
-1171.8750,10.2913,14.0879,191.0197,120.9700,46.3007,91.1070,-27.6805,-27.3188,-183.1299,-134.8974,5.2388,-121.6120,30.1353,-49.8608,-67.2267,-20.1593,-29.4356,188.0290,-62.6926,7.8063
-1164.0625,-45.8471,-77.0594,133.6290,65.5402,62.8991,70.7051,25.8735,63.2230,-94.6890,-155.6472,22.0029,-105.9717,58.2401,-70.3635,-13.8258,33.1265,-49.7205,131.6645,-12.0286,-12.2637
-1156.2500,-38.8975,-139.1299,67.3407,-33.7876,-4.3958,77.4021,32.5325,69.8680,-14.1434,-40.3045,28.8700,47.7508,25.8161,-63.7642,-7.3166,39.5190,-42.9161,33.4144,-5.2490,-5.2393
-1148.4375,-47.4141,-43.6593,58.6079,63.4289,-13.1231,31.6440,-50.2427,61.0659,13.9644,-122.4116,20.2859,112.0050,5.2829,38.3867,-16.2494,30.4604,-51.5728,-10.2832,-13.9156,-13.6749
-1140.6250,-41.6869,32.0510,138.1333,173.8925,-6.5923,74.1411,-80.7573,30.5154,-53.6711,-6.2658,-84.0434,45.4900,-49.6097,80.7765,-83.9296,-0.3506,-10.9769,-40.7295,-44.3372,-43.8681
-1132.8125,-9.6516,-40.9454,244.9666,240.6716,-9.7613,144.9396,-120.9809,63.2627,-131.0075,-9.8439,-87.0528,-105.7289,-41.1815,77.4591,-124.3032,-3.8714,-14.0674,61.1254,-47.4601,-46.7691
-1125.0000,3.4962,-98.8368,222.9162,183.5525,41.1670,159.8406,-69.1123,115.1012,-79.2554,-69.3215,2.0620,-236.8470,32.4998,-54.7682,-72.5847,10.7032,-36.0438,110.0752,-34.4906,-68.5770
-1117.1875,23.0492,-43.3336,132.2750,-79.1713,24.4970,68.1450,24.1569,134.3435,-23.1098,59.5910,21.5859,-180.5753,44.2106,-145.6046,20.5345,29.6819,-87.6237,58.4352,-15.1132,-48.9913
-1109.3750,-17.2094,-84.6565,16.8333,-48.7050,-17.9616,-10.3490,18.6366,128.7993,81.2430,-19.2924,-57.7028,-77.1155,24.2424,-4.2321,124.8641,59.8667,-93.0237,-16.9966,49.4735,-54.2138
-1101.5625,-117.0794,-77.6046,-12.2084,62.1486,-10.0089,-2.4445,-10.4655,25.6612,163.0073,61.2364,-123.6073,40.7481,-9.6231,113.5492,132.6006,-5.5533,-51.0321,-117.0309,55.4626,-83.0444
-1093.7500,-149.7098,-5.3158,26.0047,64.2664,-7.8017,35.7095,-45.3179,27.7726,91.0263,63.0055,-121.2497,6.8548,-26.5201,152.5789,60.5911,-40.7227,-13.7865,-43.8166,22.7012,-80.6319
-1085.9375,-22.8870,-89.5801,85.6791,49.8512,13.8547,21.3237,-59.7292,87.3285,39.4914,11.2334,11.5762,-155.6044,30.4786,101.0484,46.0232,54.5612,-63.0808,11.8416,8.3846,-94.7776
-1078.1250,95.6394,-113.1469,98.0615,-77.8537,26.2112,-2.3511,-10.4449,99.5878,14.6534,171.1558,61.1013,-179.3743,36.4063,-33.7837,21.1515,29.5382,-85.6716,-10.7947,-14.2254,-82.2306
-1070.3125,30.5577,33.6796,-6.1560,-72.1595,68.9673,-33.6229,-4.7495,105.2502,57.2240,28.4687,-5.9823,-100.7478,41.9838,-28.2175,100.6915,-1.0880,-115.8628,-40.0256,61.5670,-76.2913
-1062.5000,-124.8874,-15.8409,-57.7290,53.1715,91.3788,-11.2469,53.6049,53.5641,116.4552,87.4365,-131.4190,-78.4688,16.1209,-43.0084,122.8875,56.9431,-130.4098,-54.6065,83.0066,-90.7075
-1054.6875,-149.0435,-181.0787,-46.9971,28.8031,102.0943,72.4295,64.2593,27.1860,52.9918,171.6926,-193.5523,-67.8887,-3.7172,4.5001,96.3920,67.2800,-154.6671,26.1223,128.7494,-79.8304
-1046.8750,-88.8486,-331.9934,15.1023,-52.1985,128.1647,61.4578,53.2608,127.1593,4.8737,86.3042,-94.3315,-188.9644,35.9683,103.3634,48.2408,55.9666,-130.5725,121.1969,152.8425,-90.6127
-1039.0625,-66.5012,-238.7719,76.3632,-136.0354,115.3839,48.6476,40.4117,151.2860,-8.1048,257.0542,3.0452,-274.8975,46.5284,53.3832,-1.7639,-30.2063,-143.3204,108.4230,105.0879,-103.2524
-1031.2500,-108.3112,-141.7054,32.4715,-107.0096,108.4573,4.6968,70.4211,144.2639,58.7737,175.6369,33.2710,-208.9942,66.8678,-63.7465,28.0949,-74.5290,-150.2241,101.4982,133.1904,-110.0518
-1023.4375,-133.2344,-95.7424,7.4675,43.9156,156.4323,16.6531,82.3403,82.1447,70.5684,150.1315,-28.6063,-87.2029,73.4875,-125.9933,76.8610,-136.9459,-104.2282,5.4741,143.1941,-134.9590
-1015.6250,-79.4695,-77.0852,63.1604,97.5385,139.1102,72.3066,26.9594,63.7336,52.0809,132.3128,-156.7703,-31.7181,8.9769,-107.5399,21.3361,-228.6627,19.4616,24.1558,91.8968,-116.1725
-1007.8125,-10.6530,-43.3848,98.9108,96.2008,137.8358,71.0025,-11.3730,62.3758,13.6483,-17.4469,-120.8724,-70.1908,28.1207,-72.0334,19.8649,-266.3265,54.2018,128.8846,90.6471,-117.3434
-1000.0000,102.6634,-142.1969,143.1707,32.3551,108.0609,78.2008,-4.2048,69.5192,20.7189,26.3088,-3.4881,-174.1691,51.7181,-139.0296,-10.1081,-187.4850,25.4443,136.1126,-8.0918,-110.0194
-992.1875,159.2144,-224.7822,90.6822,53.7811,55.5432,99.6557,-18.7819,53.9180,-30.9533,-99.6856,166.1289,-224.9143,107.4656,-43.7780,11.1751,-129.3877,11.9356,122.6043,-21.5742,-88.4542
-984.3750,26.6003,28.4522,64.0377,133.0715,65.8786,35.9752,-9.5005,-45.8314,15.2321,-200.8179,102.6019,-68.8145,88.5748,2.3179,58.3109,-156.4418,56.2761,-10.0549,-13.2108,-115.0475
-976.5625,-74.6656,208.0275,67.7476,66.7177,69.5654,39.6499,68.1339,-79.2307,18.7736,-160.6085,-114.5673,81.6288,-5.6477,-30.2356,24.7978,-153.1486,59.9643,-41.3556,25.4931,-111.2966
-968.7500,-100.8263,76.7119,39.5732,4.4624,115.3533,48.4223,76.8637,2.4666,27.4138,-225.2956,-142.6327,16.1658,18.2274,-21.6884,70.3860,-33.7537,-2.2458,37.4373,70.2912,-102.4553
-960.9375,-20.2917,-194.9082,50.1158,-20.1000,88.8398,58.8941,50.2943,49.8694,37.7504,-68.2695,14.9950,-83.6022,61.3532,-11.4350,43.6732,-23.6514,-26.7602,47.9251,44.7923,-91.9219
-953.1250,68.2731,-210.4978,31.7017,-1.6046,70.3782,40.4191,31.7867,68.3276,19.1526,-124.2035,107.6655,-102.3332,56.6769,42.8744,-47.9715,-79.4839,-8.2326,31.4613,63.3532,-73.3464
-945.3125,56.2686,22.3439,19.7201,56.3417,58.3647,-7.6022,19.7414,19.2415,7.0249,-209.6734,132.7868,-3.6302,65.4339,-5.3714,-23.1440,-165.8586,49.7416,-50.5610,122.3632,-85.3281
-937.5000,-7.9891,238.9259,25.4803,-7.9519,27.0931,34.1319,25.4480,-11.0913,-23.3468,-94.4007,-8.3361,1.8160,4.7441,-110.8743,-17.5582,-160.4812,126.4748,-79.8295,93.1162,-79.5653
-929.6875,-30.3912,111.3456,2.1110,4.6196,39.6722,46.7229,1.9965,37.4229,-47.8765,-156.2872,-69.6021,14.1148,-4.7778,-24.5289,-5.1320,-74.2575,68.0685,2.7573,140.7135,-66.9603
-921.8750,49.8610,-160.5937,48.4187,14.8556,49.9012,20.9740,12.1862,47.5834,-74.7682,-109.5216,14.7721,60.0690,32.1231,-14.5281,4.9303,9.6158,43.3182,-57.0092,44.9581,-56.7133
-914.0625,144.5483,-207.0925,72.1794,-31.4442,0.5753,7.6846,35.8245,-38.8025,-125.2027,-123.3155,148.5822,10.4665,64.2694,8.9353,-8.5444,-4.0495,67.0161,1.6705,-1.3397,-33.0247
-906.2500,94.2675,-185.5503,57.9706,59.3093,-13.7051,-6.5485,-15.4803,-53.1382,-139.5641,-174.0370,281.4325,-78.0959,117.7802,104.4465,14.0442,-18.6490,87.7703,-47.6142,19.4130,-47.2937
-898.4375,94.6271,-45.3587,95.3973,94.7176,-13.3392,30.8718,-15.1276,-89.8190,-139.2669,-27.0931,171.9352,-78.0211,48.2090,67.5989,-59.7145,-92.5932,159.1780,-118.2512,-50.1866,-46.9191
-890.6250,80.2843,151.1211,116.1366,151.4308,-29.6736,51.5917,-68.4827,-106.1949,-154.6688,-117.8449,81.7360,53.3450,9.0205,15.0542,-76.1819,-218.2277,214.8930,-97.5870,-29.4850,-26.2505
-882.8125,144.1871,213.8448,146.1441,73.3898,-36.7604,-29.4368,-75.5938,-149.3182,-125.8216,-14.3250,38.7714,118.9542,-13.0330,-66.2394,-46.4097,-225.6005,207.8636,-69.6736,-72.5304,-33.3358
-875.0000,198.4276,21.9155,128.5037,-12.3017,-17.5005,-47.1139,-19.3535,-130.0894,-106.6138,41.5432,58.1445,64.9063,-12.2572,-120.1785,-64.2825,13.3882,86.1857,-14.4077,-88.2200,-14.0752
-867.1875,100.9037,-250.7648,100.1019,31.2620,-8.9920,-38.5415,-10.8522,-48.6104,-61.1433,-61.3264,139.7610,-110.8968,65.6551,35.1236,18.1091,131.6329,-10.2426,29.1045,-8.6632,-5.5705
-859.3750,-27.6852,-168.5010,39.6416,-27.2198,3.4560,10.9873,1.6013,0.8177,25.2926,97.7694,42.3237,-98.7558,17.8296,47.3700,-6.5357,33.8370,2.2821,-29.4339,3.8319,6.8818
-851.5625,-78.8753,61.1490,-88.4122,-43.2902,-51.7037,-44.0783,20.4444,-17.3561,117.1393,80.2682,-85.7147,29.7859,-24.0367,-44.9860,86.2282,-21.5541,56.2163,-45.5779,57.7179,25.7310
-843.7500,-47.5151,57.3443,-127.9005,-11.8124,-18.3196,-47.5945,16.8367,-20.9800,150.5369,76.3337,-199.2106,99.8761,-54.6113,-11.7926,118.5410,-25.3923,52.7079,-49.1794,19.1466,22.1289
-835.9375,-29.5638,4.1442,-109.7866,-63.7377,-37.3396,-29.5125,34.8344,-3.0097,95.5382,129.9952,-144.1042,117.5595,-69.3857,6.0064,26.4551,-7.6209,35.7945,3.8208,-33.8190,40.1242
-828.1250,-27.8307,-29.2679,-35.8763,-95.8567,1.4418,-27.6265,-0.3608,35.7646,23.3488,21.4665,40.7984,45.0342,7.1590,-29.4025,-8.8198,30.9662,-33.3258,76.6169,-31.9847,41.9154
-820.3125,30.2416,-42.3602,-11.6237,-108.6192,25.5702,-40.3828,-13.2031,22.8924,47.5151,155.3018,28.0352,68.8540,-19.6521,-78.4536,-58.7377,17.9189,-11.0952,28.7625,-79.8008,29.0564
-812.5000,14.6487,-22.1332,-64.0293,-19.0147,9.0406,-19.7821,7.3030,-30.6195,68.0479,65.4850,-25.3868,52.0104,-19.7676,14.8675,-1.2953,-35.7671,9.4858,13.2530,-59.2643,49.5467
-804.6875,-22.3556,46.6819,-101.8274,50.1955,-29.8971,-21.5707,5.4034,-32.5291,139.1895,26.2857,-63.2140,49.7576,-21.7396,12.7875,70.7495,-0.8454,-27.3291,-58.6619,-26.1330,47.6366
-796.8750,-39.5146,99.3458,-157.7614,-37.7314,-83.9936,-3.5031,23.3518,-50.5910,84.1780,80.9344,-81.1972,141.3412,-55.6673,-42.4439,51.6463,53.9376,25.7097,-74.7255,-8.1575,65.5759
-789.0625,-64.3811,37.2984,-148.3916,-28.3411,-74.7904,-30.1281,32.6030,-5.3579,19.4687,-57.1135,-35.8892,186.2203,-6.1280,2.6283,97.8464,26.0294,0.0496,38.5019,-33.8869,74.8121
-781.2500,-15.4032,17.0843,-58.1777,-48.0961,-58.7435,-13.8977,12.7089,11.7222,-37.3785,32.7020,17.2618,165.9469,-15.1359,56.5523,3.9058,-31.0213,-19.7572,54.5685,-123.7729,54.8976
-773.4375,52.0116,-56.6853,-25.5198,54.6071,-62.2534,56.7804,-27.7344,8.2527,-149.7599,-8.0422,50.8670,89.1207,-19.1941,162.9204,-72.5719,-34.6107,-23.1145,86.0852,-127.2085,51.4325
-765.6250,-2.2797,-180.1573,-6.5565,141.6109,-44.4745,112.7635,-45.8775,27.0831,-94.8296,-63.4730,69.7679,33.5914,10.3667,218.5786,-54.7486,-52.8889,-41.1651,67.8938,-75.3516,33.2666
-757.8125,-67.1768,-35.2459,-74.1840,77.0232,-39.3065,81.1520,33.3761,32.3212,-16.4951,52.4950,-71.9430,75.4517,-23.2860,113.6506,24.4723,-47.7590,-70.8124,2.1094,-70.0946,38.5008
-750.0000,-94.2346,77.4905,-176.9532,13.2967,-68.2931,14.3986,40.4831,39.4120,101.6968,-51.6813,-137.8130,119.1431,-17.5030,9.5814,178.5516,107.2321,-97.6071,-25.8269,-27.9887,45.5841
-742.1875,-82.0018,89.5146,-237.4209,-78.1212,-128.9834,-46.0456,52.8948,-22.1975,187.1936,34.4611,-125.3870,131.1169,-32.5439,21.8066,227.9326,155.5319,-51.1017,-82.4677,-50.5866,57.9682
-734.3750,-98.2294,109.0974,-217.3457,-163.9812,-146.1324,-61.9355,35.8560,-38.2584,134.2445,128.1483,-68.4164,150.6377,-50.8921,78.5872,137.8725,65.3861,3.9602,-62.5643,-30.6356,77.9024
-726.5625,-69.3657,-39.1985,-151.1680,-64.7355,-116.1885,-68.7232,28.9149,-9.2267,53.4013,83.9477,-3.3648,106.2690,-30.2000,145.4556,56.9113,58.3506,-37.8658,-0.5689,-2.5955,70.9348
-718.7500,-78.6685,-118.6646,-86.1307,30.3766,-16.4026,-5.6476,56.8208,-18.3493,7.4138,74.6091,-84.4790,59.7408,-52.2758,136.1694,-26.1937,159.1828,-80.8414,-9.7246,-46.7092,61.8192
-710.9375,-105.2862,-4.4784,-40.3900,40.2141,-6.9232,4.1350,29.4293,-8.7708,17.1415,-99.0196,-111.8956,68.8970,-48.1821,108.5956,-16.5829,132.7306,-107.1257,-0.1839,32.8710,71.4036
-703.1250,-118.1073,158.4940,-88.8495,-42.1453,-19.6541,-8.2753,53.8368,15.6050,41.6768,-39.8187,-87.5185,92.8380,-42.4694,21.8384,7.8284,46.0906,-83.6074,-47.8578,56.2415,58.7886
-695.3125,-118.4793,122.9164,-125.8644,-76.0563,-55.9469,-8.2375,53.6918,52.4305,41.6762,70.8372,-87.7030,92.2244,-37.3220,-15.4692,44.6966,-28.0843,-83.6337,-13.0865,56.0622,58.6270
-687.5000,-123.9074,-58.7236,-130.9242,22.9950,-25.3030,23.7549,48.4934,84.2042,-0.3613,-8.5413,-20.9464,12.5549,12.2023,-20.8398,39.5207,40.7010,-88.7022,87.6285,50.8279,53.4178
-679.6875,-141.2989,-111.3152,-75.9369,-28.8918,-7.6226,41.8017,29.3489,28.0297,-19.3475,120.1379,-39.1451,-43.0667,-29.8602,33.8343,-52.6035,132.5465,-36.7204,34.3907,32.6422,71.2612
-671.8750,-123.1112,-23.3009,-94.3522,-44.1704,-61.3479,-12.5470,10.8048,9.4530,-0.7282,-9.5823,-20.7493,-25.0902,-37.2355,89.1228,-34.1216,187.0027,16.8619,52.7388,16.0548,89.7037
-664.0625,-68.6910,170.9646,-73.5210,-60.2062,-77.8340,-64.6499,-5.4822,-6.8769,-16.8464,-62.0258,-1.1172,105.1295,-57.7481,35.6709,-50.3807,244.7267,35.6940,-33.6780,-69.2889,73.3986
-656.2500,22.7159,158.2096,-49.6966,-38.2411,-90.3305,-40.7526,-53.7696,-19.2021,-100.9477,72.5463,-49.4988,165.3390,-98.0232,23.2210,-98.6265,158.4727,59.5266,23.9052,-152.6349,61.0967
-648.4375,68.4755,27.7742,-1.5161,43.0944,-43.4864,7.5038,-78.7061,29.8205,-89.6926,10.4853,-38.5387,66.8858,-56.8545,-1.8831,-87.5195,60.5884,34.7143,104.8320,-72.6433,36.1454
-640.6250,16.7868,10.8728,19.2271,62.0029,13.8971,65.3258,-22.1004,50.3861,-69.8935,103.9864,-55.0420,-61.0232,-11.4098,-127.4347,-30.8719,-29.7389,-52.5361,123.3051,-54.1111,19.7480
-632.8125,-85.8660,-56.9882,-50.9759,135.9758,54.3227,106.2045,18.5544,53.9935,-29.0395,-2.4668,-123.5018,-57.8850,-14.9507,-14.9308,-27.1692,-63.0021,-83.7294,161.8231,20.4678,23.4037
-625.0000,-165.7359,-172.0508,-23.3823,161.7414,81.5369,132.8788,9.0126,81.3929,-1.3761,-49.0925,-133.1715,-30.9379,-10.1182,49.3751,-36.6608,1.5534,-93.1152,117.1253,45.8365,13.8633
-617.1875,-119.2640,-56.7637,24.5517,-38.1524,55.0871,70.8961,-17.1746,55.1396,9.6558,72.6449,-122.4997,-20.6458,-42.1169,-50.9693,-62.7913,49.4866,-12.1495,57.7666,21.5537,24.6783
-609.3750,-62.8442,141.4605,49.4365,-119.0919,42.5795,-52.1371,-29.4160,42.8321,34.6509,96.3443,-25.8803,-33.4179,-17.7407,-99.3614,-37.9661,0.3886,-24.2298,45.3531,9.2142,12.4475
-601.5625,-10.5768,87.5363,68.1831,-33.1738,23.9099,-106.3134,-10.8084,24.3697,16.4973,298.9054,66.5827,-52.3543,-3.5237,-117.8978,-56.2933,19.1436,-42.4565,-114.2158,-9.2860,-5.9291
-593.7500,1.6285,-76.4534,43.8854,15.7179,-0.8205,-57.5276,-72.2538,-0.1460,29.2968,348.4143,78.9908,-77.3496,-4.4379,-32.4730,-43.6632,68.8574,-29.7355,-135.8354,3.1579,6.6464
-585.9375,-34.8288,-182.1203,-30.0651,85.9749,-38.2046,-57.3883,-72.3491,-0.3122,102.4566,238.3055,78.7356,-40.9963,9.8952,78.3005,30.3196,104.9334,-29.6636,-172.1212,2.9491,6.5735
-578.1250,-59.3528,-101.8424,-19.0690,27.1818,-64.6472,-46.2964,-24.4873,-63.5338,150.5758,285.1586,-21.5875,43.3082,-21.6954,52.0185,78.2620,42.9672,17.3659,-196.4592,-57.3133,17.4555
-570.3125,-24.3900,73.9297,-55.5652,-43.1045,-100.5989,-81.7023,-24.1227,-63.2611,151.2080,101.5117,15.5830,116.1060,-15.3399,52.2305,114.7137,80.5163,17.8990,-196.3000,-57.0834,17.8423
-562.5000,63.3720,125.4935,0.7475,-60.5829,-118.7663,-63.3011,-78.9620,-44.1932,60.6467,83.6779,34.5481,171.6868,-47.0810,71.2417,23.9719,62.8821,35.2368,-179.3464,-75.0675,0.0352
-554.6875,70.4859,62.4018,8.4138,-17.7009,-111.6006,-18.5442,-71.4562,-36.7816,-5.5555,91.1943,78.8531,104.6072,-38.4488,41.6165,-42.4145,70.6211,7.9245,-102.0571,-67.7094,7.5831
-546.8750,33.2355,-186.0433,6.7250,121.8365,-77.7953,16.8633,-36.2987,-38.7274,29.9118,-20.6206,76.7850,-7.8185,5.5914,112.6534,-7.1428,105.0282,6.2683,-34.1443,-34.7103,5.7850
-539.0625,-34.5903,-183.0531,10.4766,125.8324,-110.5549,57.7245,-32.6863,-35.2277,70.8479,93.0284,-67.8448,-78.7909,-35.2008,80.1441,33.5902,108.9029,45.0641,-65.7937,4.7366,9.4444
-531.2500,-106.3321,96.0277,-27.6713,89.9349,-112.2314,56.6836,-33.9748,-36.6267,105.9007,-55.2066,-105.3687,-80.6660,-38.6388,41.7250,69.4364,71.9009,8.9561,3.6464,38.2721,8.2093
-523.4375,-81.9194,261.2548,-72.6633,10.1880,-47.7727,11.7922,31.8837,-44.8845,98.1027,-63.2585,-114.7468,21.6004,-29.3521,-40.5480,97.4321,27.0664,-71.9926,28.2276,27.9440,-36.8721
-515.6250,-35.9571,95.0082,-62.0969,-84.9908,-74.7726,-14.5393,78.2881,-34.5948,71.8528,-15.7637,-67.5916,104.3992,-30.5028,6.7471,70.9761,37.7941,-96.3798,38.3596,3.1660,-26.3971
-507.8125,-51.4973,-236.7487,-40.0279,41.3424,-53.2831,7.6329,63.1942,24.1902,131.1105,-67.7585,-45.9628,-21.3134,22.1788,138.5541,130.0242,59.0362,-146.2574,57.9792,22.8824,-41.4176
-500.0000,-69.9521,-290.3988,-20.8692,164.7752,2.2905,99.9034,82.2043,6.0689,113.4825,-11.6365,-64.2497,-150.9234,53.6626,46.4675,149.1828,41.3952,-94.0417,39.6813,-30.3010,-59.3309
-492.1875,-37.7800,93.5953,13.9280,162.8636,-37.4954,97.8208,79.8670,-33.4102,-35.4714,-233.8569,-29.8842,-79.8822,37.7913,-65.9715,73.0044,-33.5688,44.8199,72.0183,-32.8394,-61.5886
-484.3750,19.8359,397.0279,38.1810,45.4091,-12.8468,49.1946,30.9765,-82.4531,-83.9650,-319.6063,-79.0645,128.6078,-14.8364,-77.9767,24.2790,-119.0658,174.1476,24.7956,-79.9455,-73.3886
-476.5625,89.1071,431.0995,37.0940,-24.3807,-52.5632,11.2210,-44.2707,-121.8558,-122.8056,-210.7001,-118.6098,199.7318,-97.1425,-43.3396,-87.7892,-120.9030,279.1414,-10.7682,-81.4081,-38.5306
-468.7500,139.5214,375.3162,15.1657,95.9853,-112.1342,-10.5974,-103.3679,-70.1153,-179.4905,-232.6277,-30.0284,102.9965,-78.8811,45.4543,-109.7051,-141.5776,330.2889,3.8106,-66.7283,-23.5195
-460.9375,216.5775,417.1804,22.8830,139.0058,-105.0615,34.2339,-95.8090,-99.7335,-245.5211,-115.8829,51.2017,36.9044,-70.6701,-58.0890,-173.9740,-133.5910,338.0814,-59.9770,-94.4039,-15.8528
-453.1250,137.1720,408.5813,13.1425,96.5881,-114.4524,24.6188,-104.7052,-72.8063,-217.9895,-124.5852,-33.0118,136.3518,-93.9887,-104.0771,-146.6802,-70.0315,294.4226,-33.2270,-32.5349,11.3696
-445.3125,36.4661,271.6757,-18.8948,101.8634,-37.1575,29.6991,-26.8993,-68.1883,-66.7503,-192.5695,-174.5308,140.4961,-97.7510,-63.3761,-69.6781,9.2542,194.4735,-63.7932,8.0249,16.3013
-437.5000,31.4553,196.4706,11.7742,26.8380,-44.1775,23.4778,3.6078,-37.8766,-35.8041,-52.8485,-144.3676,60.3365,-87.5058,-68.9711,-74.9649,-33.7464,189.2220,-68.6620,-32.7182,46.9412
-429.6875,86.0798,285.8986,-4.9031,12.4708,-60.5569,-29.0900,-49.2324,19.0763,-124.1958,-141.4628,95.4336,-31.1756,-22.7379,-12.8992,-127.5931,-85.0859,139.6194,-13.8933,-12.8201,67.2371
-421.8750,162.4954,151.0965,39.2136,19.9093,-54.1481,-21.8569,-78.2723,25.8220,-226.7778,-61.2497,212.0321,-24.8886,-2.7323,30.9794,-194.4149,-77.6049,111.8209,-76.3390,-6.1330,74.3404
-414.0625,117.1550,-0.4563,64.5733,45.5987,-65.5018,39.6225,-53.0589,-22.1868,-238.0971,-71.7835,126.8850,-0.3534,-15.3354,56.1059,-168.9776,-15.8545,66.2755,-17.5464,18.7922,99.7003
-406.2500,5.1190,-41.7000,59.2330,111.5880,0.4311,34.3970,-22.5471,-63.9050,-133.1012,-113.9996,-61.9626,30.4752,-12.4945,50.5257,-27.2360,-20.7857,61.0397,-23.4777,48.0011,94.3659
-398.4375,-2.6684,-14.7015,89.1521,33.8437,29.5949,-8.5777,6.2076,-71.3808,-65.8460,62.0458,-143.5705,-14.4588,-54.3908,-102.7940,-70.2420,8.5493,90.0612,3.8340,40.4527,87.2887
-390.6250,-5.2620,-122.5231,50.2791,-2.6899,26.9461,-10.3455,4.1575,72.3380,-31.3830,60.2935,-35.9818,-163.1911,-22.1320,-67.9084,-109.0395,44.1027,-17.7187,72.3335,109.0997,85.4175
-382.8125,8.6333,-213.8514,29.9009,-56.7327,42.7869,42.3879,-16.3873,125.5498,58.5898,150.0611,90.0944,-221.4195,24.1294,-16.5194,-92.3339,-12.8309,-142.9979,51.3231,88.2403,65.0545
-375.0000,8.1204,-144.5872,30.1125,-92.1783,42.2166,5.7136,20.6757,88.3573,59.1752,187.4283,52.7610,-185.0529,16.3593,-16.5165,-56.0186,-48.1487,-177.6774,14.9052,87.9845,65.2985
-367.1875,-82.1508,-95.0845,10.5679,-41.3700,58.8884,-49.7110,37.9885,68.4098,150.0266,95.0713,-41.3358,-168.4492,18.9540,0.7343,34.5520,-31.1899,-127.1077,30.7258,102.9707,45.7990
-359.3750,-147.2275,-90.4054,-20.7766,-69.3515,63.7477,-43.9335,43.5037,36.6562,156.0924,173.9271,-145.2354,-54.6596,-33.0489,-30.8142,3.3344,-61.0097,18.6601,-0.2662,73.1517,51.5087
-351.5625,-89.7108,-69.1399,-34.5183,-46.7246,48.1932,-21.5553,28.6202,21.4951,68.7788,86.3865,-123.5312,-69.2849,-10.9982,-80.7518,25.7309,-74.2136,41.0245,92.3279,94.9261,73.8222
-343.7500,-70.2952,-13.9715,-12.3594,8.7935,33.5267,0.7212,14.6355,44.2281,55.3717,109.7704,-100.9331,-194.0157,-2.2710,-131.7924,12.0278,-87.5001,-7.7053,147.8097,80.5954,60.0412
-335.9375,-74.8844,-88.8078,20.8000,5.3140,65.8522,33.9959,10.6499,39.9588,51.9750,179.1629,-105.3444,-235.7482,-11.6839,-98.8398,-28.6676,-18.7770,-116.4334,178.2867,41.2634,56.2656
-328.1250,-129.9793,-250.1497,37.4587,20.3390,81.6684,13.7674,27.1696,56.1782,69.0870,86.0664,-54.2550,-182.9758,18.8617,-10.3837,-11.8564,109.4504,-171.6537,157.2463,90.4175,35.9939
-320.3125,-70.4201,-153.8379,65.7689,-22.9868,108.1203,5.1879,18.3430,10.0310,60.8408,150.6215,-99.5083,-155.5502,-7.6246,-56.2717,-20.3942,101.3307,-75.2104,42.8485,46.2104,27.3785
-312.5000,-87.0584,-66.7350,84.8945,31.4996,53.3640,-12.5905,0.3108,-8.3305,43.3886,22.9687,-190.9522,-101.3309,-52.4420,-37.3519,-38.1326,84.0273,50.0371,61.2414,64.7941,46.5675
-304.6875,-65.4438,-80.4016,72.2815,19.2444,39.8539,-25.1178,-12.4727,-21.4522,105.1924,-26.4144,-167.1632,-78.8674,-34.3536,-50.1894,23.3826,144.9944,37.5391,47.8682,16.6191,34.0111
-296.8750,17.5154,-33.7201,48.0247,-71.6575,14.6848,-48.2954,0.0987,-46.2353,44.3585,60.5509,-82.0422,-67.0533,-31.7895,-73.6815,-0.7386,158.3304,-20.6059,59.8353,-42.2158,46.8118
-289.0625,50.1211,-71.3742,46.4182,-72.9049,12.1550,-13.8255,-38.6809,25.6182,6.1845,-51.8332,62.7286,-141.5945,27.1911,-39.5262,-2.2023,157.3327,-127.0927,92.4405,26.5875,45.2674
-281.2500,1.2822,-154.4814,107.3672,-51.5965,35.1620,10.1933,-51.9138,12.0099,30.5599,46.3457,86.0507,-229.5894,53.6982,-15.8111,21.8775,144.8948,-104.0237,8.5854,12.9307,32.2791
-273.4375,-40.5071,-160.5472,102.3696,13.7691,29.2080,42.2624,-20.1021,6.4452,25.9904,41.5739,-30.5778,-198.5286,29.8052,15.9659,54.0102,104.5145,-39.9012,2.7753,-28.6848,27.3446
-265.6250,-71.8946,-158.2195,71.7770,19.5286,70.6489,11.7337,60.1099,12.2722,32.8238,-25.7816,-98.8087,-121.0678,45.2637,-14.8591,133.5399,110.5473,0.6265,-64.6491,-23.9068,-3.1843
-257.8125,-29.2301,-81.8444,5.2397,-78.6605,41.1272,-17.7469,67.3685,-17.8553,3.7064,128.9136,-91.9841,-40.5649,-5.6931,-44.6361,68.1168,155.6468,8.2095,-93.0299,-53.0814,4.3460
-250.0000,69.7366,-88.1755,-73.9963,-153.5374,-2.1029,-95.9293,24.9239,13.3128,-1.1122,86.9093,86.1424,-46.7695,39.0470,23.8890,98.9947,188.0627,-102.9025,-64.1208,-58.9589,-0.8183
-242.1875,99.7553,-163.4592,-78.1773,-227.3564,-7.2952,-136.0562,57.5296,-28.4812,69.1179,193.9629,265.3131,-125.9239,100.7597,-17.5265,131.9272,258.5331,-140.9636,-139.1720,-98.7966,-4.9277
-234.3750,49.4154,-144.0991,-20.7071,-206.5178,-24.8418,-152.5316,77.7857,-82.6337,90.0080,177.6588,212.1285,-106.4281,94.2805,-71.2866,152.5217,242.6652,-86.3775,-119.5796,-78.9908,15.6177
-226.5625,3.8235,-84.9996,6.5133,-75.9337,1.3568,-125.2604,67.7990,-93.0490,116.6650,58.1270,-19.3160,-80.1867,30.6750,-44.2998,142.8733,122.5621,44.9587,-95.2518,-18.4420,5.9168
-218.7500,1.8795,18.7537,42.3834,-41.7086,-0.8000,-54.3433,-7.5390,-94.8241,79.9836,93.2585,-95.1130,-45.3003,-38.2728,-8.6669,31.8852,49.1186,113.9479,-132.2814,-20.2509,4.8727
-210.9375,71.6831,53.2715,42.9991,-5.7391,-38.2124,-53.6885,-44.1248,-94.8551,-29.9368,-52.8474,88.8453,28.3349,5.7712,65.7082,-4.3433,50.4343,79.6895,-97.5762,-56.3177,5.5809
-203.1250,121.4943,31.7875,59.6129,-60.7731,-22.6352,-110.0357,-27.7097,-151.8936,-12.8555,1.0729,215.8038,116.9597,58.5880,45.0857,49.4246,30.7575,59.4359,-153.8798,-147.3936,-14.7062
-195.3125,133.3979,-97.6318,72.3278,-47.6965,-84.9652,-61.2780,-15.1983,-139.8326,37.3304,51.0911,263.8580,128.6777,73.5754,-16.4202,62.2958,7.1947,37.2753,-142.0817,-169.3643,-1.8858
-187.5000,122.2919,-213.0806,62.0493,118.3769,-59.2967,-34.5181,-25.6817,-114.7745,137.5221,-32.8761,142.9134,80.3942,73.0480,-63.9196,125.1718,34.6471,27.1016,-118.2916,-111.3395,-12.0605
-179.6875,47.0889,-77.6242,94.6669,115.3372,-63.7322,-0.8664,7.7416,-154.8257,245.6130,38.0646,-82.1205,76.0144,0.0774,-104.5229,158.9497,-4.9923,58.8273,-191.6081,-115.4217,-15.3292
-171.8750,-41.6548,43.2974,38.7336,97.7481,-84.7224,16.2300,-12.3913,-138.4331,226.1518,-55.5498,-138.6988,55.0835,-30.4511,23.3151,139.1785,-61.1708,111.0085,-141.4821,-64.0581,1.8568
-164.0625,5.9085,20.5169,17.1005,6.4641,-107.4199,-5.3741,2.7749,-87.7458,167.9933,-76.8528,59.0144,-3.5474,11.0009,74.4532,80.7051,-8.0493,89.4961,-129.0660,-50.4010,-19.6517
-156.2500,111.0638,-15.6660,-19.9327,-99.2229,-108.5246,-5.3791,-34.4566,-14.4676,-52.5592,-39.5568,279.3155,31.4178,58.2998,38.2102,7.8409,102.6832,19.5821,-59.0563,-122.1434,-19.5552
-148.4375,128.9584,-139.1003,37.7847,-80.1697,-51.8778,-58.6419,-13.9349,5.5560,-68.3474,-129.4920,299.3671,-21.8738,110.0497,21.7292,64.7324,198.1847,-67.5938,-6.3130,-104.1419,-35.7069
-140.6250,62.5497,-204.8550,79.1983,-39.4158,-10.5377,-16.2056,28.2892,-26.7253,11.5699,-12.7131,83.1265,-54.4651,62.1018,26.9435,107.3250,167.4001,-26.0711,-107.8753,-99.4432,-30.1539
-132.8125,-35.4507,-163.2251,87.0125,74.7467,-3.8032,-8.3696,35.9086,-56.6148,92.8852,-41.5470,-93.6979,-47.6514,25.2529,70.5657,152.3153,66.0220,16.8545,-136.0424,-21.3502,-22.1957
-125.0000,-94.1336,-46.2904,28.1369,122.2042,8.2240,-31.2360,85.8214,-80.2143,107.4888,-101.0765,-80.2198,38.4727,25.7391,47.4818,129.6012,-30.0482,29.0918,-124.9162,-9.9685,-44.9346
-117.1875,-45.4103,-32.9365,5.6749,32.0526,-14.3563,-16.7131,100.1351,-66.4240,49.4957,24.7901,43.6456,51.9956,25.4451,25.7880,34.2938,-88.7112,8.7399,-111.3932,-31.1908,-30.2712
-109.3750,27.3610,-100.5178,-64.7325,0.9483,-48.8867,-13.1438,30.4987,10.4094,53.5624,28.7095,194.5554,-18.4448,46.3976,102.1449,1.0422,-10.3182,-22.5631,-143.8313,-28.3641,-26.5565
-101.5625,37.3814,-90.8559,-53.8956,-58.9116,-113.1739,-2.3273,4.1209,-16.5130,100.8895,149.8938,204.7262,-45.6475,36.1039,75.7535,49.0469,75.3313,-11.6237,-274.0256,-53.2947,-15.5898
-93.7500,-16.4985,-5.1181,-36.9720,-41.6658,-170.3633,-22.4132,20.8442,-37.3408,192.3270,130.1739,73.0086,-29.7502,8.6231,129.4679,139.1659,-17.9050,5.4084,-258.1256,-37.1247,1.4792
-85.9375,-67.9710,-21.9933,-15.6422,48.9778,-114.1546,-1.1018,4.9645,-53.7816,214.1705,77.8646,-90.3092,-9.4413,-17.4828,113.5802,160.6870,-32.7394,-46.1486,-134.8347,16.4348,-14.0500
-78.1250,-79.4305,-139.8641,10.6998,108.6214,-51.9533,98.2091,31.0801,-65.2290,130.0103,178.5488,-138.6209,-21.1264,-59.4206,-7.3075,3.2009,68.4186,-56.6965,-40.5470,4.9901,-24.5753
-70.3125,-48.2852,-214.1313,7.6528,105.8711,-19.1556,95.1187,-9.2093,40.9202,17.4417,64.8215,41.6767,-99.2177,14.2421,-10.5882,-36.6856,102.1756,-23.6439,25.3371,36.1439,-27.5016
-62.5000,21.0055,-145.2472,-29.2436,-34.7367,-20.2102,59.1782,-9.3413,40.2174,-18.9727,102.2571,115.1273,-63.1598,20.3991,26.2738,-36.4175,103.0865,-23.4542,-10.6385,0.4477,-27.2778
-54.6875,32.9917,-97.6618,-53.4546,-125.6523,-45.5627,34.9297,3.2382,16.2167,-42.6753,115.3898,53.2811,-14.4025,-16.5786,111.8362,-23.4412,116.7007,-46.5774,-33.9197,12.4591,-14.3540
-46.8750,25.4362,-105.6271,13.7827,-28.1354,-53.4616,28.1246,33.2686,8.6656,-48.9230,-38.0139,-27.1180,50.8093,-20.5943,178.8505,6.9868,37.7616,-53.2511,-6.7622,4.9219,-20.9791
-39.0625,-8.0594,-34.5413,89.0778,45.4304,-15.3167,103.3646,35.3476,-63.8419,-119.1221,-109.3721,11.5395,163.0699,-7.1001,143.9103,-64.5360,-142.1256,-14.8663,29.4469,-63.5694,-18.5516
-31.2500,-72.4532,40.6231,169.4760,193.1089,25.9296,146.7107,-32.4753,-95.2523,-185.2235,-248.6357,53.3032,131.4250,19.5270,3.0768,-130.9565,-134.9044,26.6184,140.7536,-57.9654,-12.0264
-23.4375,-22.8523,19.7740,149.8775,208.7924,42.1778,127.0589,-15.2924,-41.6653,-131.3235,-157.8852,70.0578,-36.2212,19.5883,-90.7462,-150.3785,-7.6789,7.0959,85.0470,-43.3621,-31.5033
-15.6250,22.4943,65.6844,51.0206,44.2164,52.1782,65.1479,-4.3535,-31.3267,-119.6643,0.6059,43.5580,-63.1182,5.9866,-79.8088,-103.0481,-32.6993,18.3126,59.0890,1.9947,-20.2284
-7.8125,20.1019,62.8623,-24.5859,-28.1332,49.4279,-10.5215,-6.1692,39.2569,-47.7534,-37.6502,5.3276,44.2348,2.8031,-7.6372,-30.4647,-70.4654,-18.2158,56.3771,34.5951,-21.7012
-4000.0000,11.4180,13.0424,-24.1076,-61.0050,41.0978,-42.1749,6.9978,5.8988,-29.4924,40.7903,-19.2126,96.9974,-19.6483,12.0318,-35.6808,-25.6671,-22.4524,2.0203,44.6265,-19.7145
-3992.1875,-47.2249,-81.7597,23.6501,55.1894,52.9320,42.3171,18.2025,16.9154,-56.2372,-132.2688,-8.2556,72.1805,5.4235,23.0255,-62.4165,-15.5978,-47.8036,48.1400,92.3261,-9.1329
-3984.3750,-57.7655,-196.4743,85.5126,149.4924,79.8693,103.9103,43.5092,42.0334,-67.8801,-143.2482,-19.1812,-47.5425,54.0747,-24.8756,-0.0521,-27.4496,-59.0532,72.3594,46.1324,-20.4511
-3976.5625,-76.8020,-145.6771,101.8824,129.3027,60.3155,120.0073,60.3239,22.6434,-52.0298,-126.7296,-39.6138,-103.7696,52.7045,-82.2843,15.7995,-48.8119,-42.7987,89.0769,28.4399,-4.2702
-3968.7500,-47.6377,-11.6674,58.4559,51.3324,53.9710,75.3164,53.3431,15.4498,-22.9899,-244.0360,27.1427,-109.8087,72.9864,-52.5003,44.8466,-56.9802,-50.3435,118.0003,21.9525,-11.8897
-3960.9375,41.6829,113.4956,5.1778,-0.4772,38.7801,58.7823,74.5193,-37.5913,-39.8040,-186.2035,84.0599,-14.7158,48.6731,-68.5792,-8.9544,-74.0096,-30.7353,66.0706,-28.3815,-28.3610
-3953.1250,38.9107,110.5481,38.7987,100.6028,36.4931,55.1523,34.6031,-40.7290,-116.7131,-300.4730,80.8967,20.2593,44.6607,-34.7703,-49.8564,-78.1568,0.7733,134.0462,-30.8113,-31.9290
-3945.3125,-24.6605,10.7911,156.6201,246.8813,82.4077,136.7203,5.8922,-69.6614,-146.4154,-402.5625,14.9508,66.4140,45.2738,9.2396,-79.5458,-144.1161,41.4800,140.2284,-24.0357,-61.2960
-3937.5000,-11.5778,23.6812,206.0952,294.8151,95.9766,185.9433,-17.1682,-93.9472,-170.4690,-317.0109,-45.3402,43.2084,10.4713,-14.1001,-140.5846,-205.4340,53.8453,118.0553,-10.6167,-49.0124
-3929.6875,-10.9915,24.0719,169.0779,294.2621,97.0455,185.6716,19.2720,-93.7401,-99.0237,-389.9837,-45.1222,-65.5037,36.0687,22.0608,-68.1266,-169.2602,53.7118,83.3882,25.2989,-49.2279
-3921.8750,37.1035,-33.0315,144.5661,270.2167,36.6160,197.9031,-3.7819,-44.0345,-50.0774,-230.4714,-32.3974,-162.7249,39.8344,-112.2839,-19.1659,-85.5964,101.0774,60.2134,-31.2838,-36.9445
-3914.0625,52.1984,51.8774,159.0464,214.1665,-20.8100,175.1366,-62.8313,-29.3280,-36.1234,-215.9517,19.3289,-146.9686,30.0390,-134.6393,-42.1959,-107.9359,115.4374,111.0373,-50.8662,-22.6595
-3906.2500,29.0403,169.5271,135.2699,189.8703,-7.4857,114.1191,-86.1214,-15.8617,13.5895,-313.6928,31.8113,-58.4922,28.1561,-84.2546,-29.4613,-132.5194,56.5385,87.6179,-38.6904,-46.6217
-3898.4375,20.0315,230.3054,162.6432,38.7197,20.9916,104.2578,-21.2571,-25.2439,-33.5390,-249.2835,22.4568,43.1184,33.9225,-93.7267,-2.5781,-178.9589,81.7987,42.3509,-82.3682,-56.4318
-3890.6250,62.9753,274.0227,95.9697,45.5221,-7.5786,74.3524,-13.4425,-17.6749,-63.7283,-351.9393,30.0651,14.6703,41.5795,23.7556,41.2456,-209.4544,125.0180,50.0434,-109.0966,-49.2896
-3882.8125,138.2215,242.0438,62.6112,83.6385,-2.8427,77.7530,-46.3317,-50.8085,-97.6244,-201.3181,107.9747,-127.4788,51.7886,-8.4533,7.3641,-169.6592,198.5424,19.0342,-175.5297,-45.8489
-3875.0000,190.3193,188.9331,43.1132,170.6190,-21.2555,131.0132,-29.3678,-71.0993,-117.6779,-112.8585,124.7306,-292.7912,48.1168,-175.8197,-50.6696,-118.0236,214.9181,106.8727,-193.1183,-29.5562
-3867.1875,173.5698,171.9623,60.7694,222.7652,-39.5200,111.4346,-11.2495,-53.2341,-136.5835,-204.2708,216.6498,-310.9856,105.0487,-194.0381,3.4501,-65.2421,162.4389,88.8750,-208.5576,-12.1099
-3859.3750,236.0810,234.2133,87.6807,73.1708,-48.5317,101.1142,-94.8840,-63.1159,-110.2399,-104.4265,279.8409,-208.9576,65.9603,-167.0075,-80.1796,-39.2132,153.2091,-23.8728,-216.7546,14.5873
-3851.5625,209.9526,207.8229,56.9427,45.9207,-114.1952,34.1441,-87.1679,-56.6449,-67.5512,-208.2373,213.3920,-92.5963,20.2120,-51.6361,-73.4590,40.1632,126.3362,-51.2711,-136.6024,57.6392
-3843.7500,106.1146,68.7510,-15.4960,81.9713,-75.5584,35.4730,-49.1489,-54.8723,-30.5569,-169.7658,68.2441,-89.9494,5.5917,61.0249,-0.4313,40.8400,92.7688,-49.3674,-65.1451,58.9946
-3835.9375,16.5197,-56.0713,-71.6824,167.2904,-58.6721,125.0659,4.1263,-1.8486,-51.3153,-117.0392,10.3384,-145.0678,4.3159,113.9287,-21.1588,-53.2446,37.4565,37.7876,-13.4408,74.6032
-3828.1250,49.4708,-59.3591,-39.3126,198.1783,-24.2370,157.2189,0.9495,68.7299,-55.5262,-157.7803,80.9937,-294.6517,51.3812,73.3905,-25.3336,-94.7865,-1.3120,69.4973,-16.1864,70.7652
-3820.3125,68.5287,65.4480,-19.8412,76.1738,-2.7039,104.4817,-15.1260,89.4090,-36.6401,-28.4357,137.7637,-274.1519,41.3608,-54.0434,-78.4062,-75.2318,-17.9761,18.3039,-31.8437,54.0302
-3812.5000,44.8003,111.4685,-9.1687,15.3694,-27.9813,40.9543,32.9952,63.2885,-62.5571,-126.9133,148.7520,-188.4649,38.7452,-6.2891,-68.2843,6.5194,-42.4208,29.3108,-20.3132,64.5022
-3804.6875,-27.7670,-31.3427,-47.3443,83.7309,-29.1188,75.5835,-5.7440,98.3192,-65.3262,-166.2661,73.9014,-116.6400,28.9431,65.6122,-35.0173,40.4108,-9.6950,27.4687,14.3592,62.1322
-3796.8750,-7.0292,-115.8294,-27.2123,173.4105,-44.9692,168.5214,-22.1962,81.6414,-119.8034,-146.3187,-16.6518,-131.5214,-25.7613,122.8125,-125.4651,-13.4017,45.3498,47.9222,35.3176,82.0724
-3789.0625,19.6097,-19.3954,-0.1848,129.0043,-15.9255,159.3678,-66.7503,109.8662,-92.3891,-228.4828,48.6840,-176.5095,-0.2976,113.9154,-135.0165,-59.3103,36.2949,109.2818,27.1685,72.9228
-3781.2500,76.5026,142.3018,59.0874,-27.1414,44.3614,71.4724,-8.0534,58.3434,-144.7259,-60.4086,144.2774,-117.2623,13.1179,-11.7413,-187.3179,-111.9647,21.4974,59.8896,-57.7499,58.0334
-3773.4375,86.1047,151.7142,105.0557,-18.5825,17.3386,43.2831,1.3382,30.5207,-136.3622,-51.6442,153.5914,-107.3361,18.0147,-75.7057,-178.9219,-140.9169,-39.5836,104.1934,-47.9867,66.8561
-3765.6250,44.0677,39.4790,97.3755,114.3439,10.6575,72.4475,31.0641,23.0420,-34.6498,-59.5532,73.2780,-150.0792,21.2688,-119.3106,-113.1686,-112.5263,-12.3072,26.8483,-19.8835,59.0391
-3757.8125,12.0850,-96.7138,26.7557,152.3393,-21.9814,148.6748,71.8368,-10.3876,41.1045,90.5812,-33.9733,-145.7946,-13.6563,-79.8622,-73.3609,-147.0952,26.0278,-40.4520,-15.7430,62.2839
-3750.0000,-57.5488,-96.5623,-10.5058,116.7062,-21.2766,75.2670,34.9578,26.5338,40.2064,-20.9544,40.1276,-109.1842,30.3311,29.9297,-2.2004,-74.3216,25.7161,-40.3907,-15.2600,61.8928
-3742.1875,3.8127,-36.4120,17.2341,-33.9198,-29.5737,-8.1324,-10.9146,17.4569,67.3146,80.4988,141.2273,-44.6049,23.9486,-53.2918,-48.0285,-12.5426,52.4008,-84.3247,-58.7769,52.5133
-3734.3750,84.6176,8.1780,100.4270,9.9025,-56.4214,-36.0758,-74.3285,-47.1662,75.8852,89.4085,114.7736,-107.6132,-5.1008,-80.0670,-75.4011,32.6862,25.5303,-39.8056,-83.8456,61.5974
-3726.5625,69.1637,63.4833,157.3712,99.4859,-71.5178,-15.2568,-53.9898,-99.0294,96.2165,-73.9422,25.0798,-122.9150,3.8084,-60.0860,16.9881,15.6716,45.3949,-55.5242,-64.1605,45.4438
-3718.7500,24.9530,-16.9943,111.5648,89.3254,-80.3646,11.8192,10.6036,-144.6341,85.8112,25.9612,15.6561,-58.9926,15.9814,-32.8656,80.6376,41.9122,35.5005,-99.9966,-108.2272,35.5514
-3710.9375,-47.8731,-194.0834,-1.8470,121.5667,-117.8169,9.2976,-28.3953,-74.8348,119.8187,-13.7355,87.6518,-23.7009,52.2060,111.7511,150.7009,112.5579,-38.0074,-102.0663,-74.8964,33.0737
-3703.1250,-92.1653,-203.6454,-84.7145,-29.6293,-90.7253,-37.6680,-0.8367,-10.4816,145.3932,123.1100,114.1971,4.1058,58.8769,138.9219,177.3396,137.7629,-82.9758,-145.5835,-84.0149,23.1569
-3695.3125,-51.0169,-22.7885,-43.1304,-164.3702,-47.1863,-69.1737,42.1791,32.3215,114.4347,92.4137,10.1797,-26.6648,36.8162,71.5508,182.4385,32.4315,-77.5048,-105.6523,-77.6866,28.7012
-3687.5000,12.0212,39.9437,-14.6418,-68.2067,-54.7551,-77.7742,71.0934,24.0316,141.3850,-64.3983,-71.9319,-71.5559,40.9547,26.0873,247.4470,-13.9866,-51.1419,-113.8121,-50.4589,20.1562
-3679.6875,14.2551,6.8463,-49.9494,39.1640,-89.1286,-2.1663,36.2091,-48.0518,216.5397,84.9971,-105.8270,-32.2721,1.2601,-83.1809,211.6605,-13.1913,-49.5843,-181.7750,-12.0365,21.8177
-3671.8750,-107.2226,-80.9809,-140.9567,161.8536,-106.2069,52.7546,54.6305,-29.8283,196.9914,65.6930,-14.4130,-50.7129,24.5798,-65.1452,155.1795,40.9104,-66.7281,-127.4369,41.6809,39.7863
-3664.0625,-132.4612,-70.5611,-130.7169,-4.1942,-95.0392,-11.0685,28.3045,17.6456,169.7029,148.6253,70.2572,-39.9234,20.3332,-17.8585,91.9592,124.2741,-90.6223,-116.8545,17.6440,50.0092
-3656.2500,-58.2083,-66.6227,-129.9733,-176.7452,-92.3768,-82.3863,29.4760,55.6149,96.9156,186.0589,71.4361,-74.6465,-0.0397,56.9285,55.2369,124.1413,-53.0143,-78.7749,20.0906,87.7398
-3648.4375,-21.6595,-170.3867,-90.9288,-104.9835,-89.4228,-44.3979,31.9421,94.8845,98.4305,77.7794,-0.0831,-108.0851,8.2361,59.0210,93.8254,88.3097,-87.1142,-7.3823,58.8327,89.7791
-3640.6250,-76.9224,-121.9793,-75.6757,-22.0090,-38.2697,6.8007,84.6102,36.3624,76.1557,129.7067,-57.4085,-57.3425,15.2837,0.3036,108.6249,-44.3164,-73.0185,-28.7879,37.7699,68.0237
-3632.8125,-94.2412,36.3631,-93.4689,30.9235,-55.1726,-11.0415,67.2293,-18.2063,57.8362,37.5945,-38.7875,73.3302,19.3194,-17.4631,127.3766,-98.9917,-90.9709,-11.2425,55.6514,50.2264
-3625.0000,-42.9139,18.3532,-148.6143,-23.4728,1.5663,-66.2225,49.4933,37.8804,76.1782,-17.8864,-19.5069,55.6274,19.0042,-35.5730,108.7827,64.9822,-75.2697,-29.0479,38.1786,32.0856
-3617.1875,10.0563,-35.0115,-94.1074,-216.2004,19.9437,-84.7373,67.4028,55.6237,56.1749,73.2811,-1.5659,-74.4459,3.8378,-18.0404,51.8402,154.6067,-91.9137,-11.2035,21.3452,49.6024
-3609.3750,-68.8794,-44.2760,-31.4964,-225.8190,11.4071,-130.1422,58.4094,119.4712,46.2741,-10.4552,100.4714,-119.4382,61.7851,46.5901,79.0044,108.3413,-101.4591,15.7461,47.6061,40.2286
-3601.5625,-79.3249,-90.0438,-42.3890,-166.9357,1.3644,-105.0444,47.9172,35.8233,71.8839,89.3171,16.0012,17.0514,43.2421,-38.2771,140.6798,96.5946,-8.5058,-100.8100,37.3579,29.3607
-3593.7500,-3.0820,-154.1203,-72.5874,-91.3414,-28.9906,-63.2421,17.1240,4.8783,77.2027,94.8083,-51.7713,60.2171,12.6972,4.5524,146.0647,27.5653,68.1480,-94.6662,43.7986,35.2007
-3585.9375,20.6484,-130.7097,-85.2918,-34.2323,-3.8584,-75.9318,41.8255,-7.5601,137.0342,81.7996,-27.0349,-100.1412,52.3081,28.8862,206.9628,-22.9464,20.3021,-72.0266,31.7315,22.5487
-3578.1250,15.4204,-102.2467,-17.9521,-75.0657,28.3112,-81.5669,36.5721,-12.9492,94.9253,185.8649,4.7529,-177.4649,61.3776,-87.7329,163.9208,7.6066,-21.4933,-6.3484,-8.3004,16.9550
-3570.3125,-6.5149,-229.4873,-3.3210,-97.5937,43.7656,-103.8998,51.6151,1.9663,108.1275,89.2373,56.8355,-127.4985,102.9494,0.9468,215.1866,58.4763,-78.9868,6.6348,4.9542,-5.3286
-3562.5000,-35.5552,-258.8327,-32.7958,-162.2101,51.1072,-133.3279,58.5532,9.7816,152.2439,133.5083,-9.1807,27.3614,52.0182,81.5360,185.3668,64.2503,-2.5796,-128.4856,11.0939,-34.7033
-3554.6875,-34.9452,-83.5199,-32.6172,-162.1744,16.0798,-133.0995,59.1340,-63.7595,115.0185,133.4299,-82.5404,64.8593,6.5973,81.7790,185.2018,100.6807,32.4874,-196.9580,11.8668,-34.4170
-3546.8750,-17.3968,-30.2456,-50.4897,-145.1687,-1.0136,-186.9114,41.6491,-81.3497,96.7511,78.2824,-25.9363,-25.7129,42.0051,26.9716,239.9950,193.0788,49.5099,-145.4793,29.5757,-52.1705
-3539.0625,10.5378,-212.5727,16.0346,-117.7447,28.2827,-121.3116,34.5578,-51.5372,51.8898,181.5452,4.0598,-216.8992,54.1096,-16.4421,159.1945,184.8893,41.9398,-46.6014,57.6722,-59.5155
-3531.2500,35.1142,-399.2601,78.2041,-22.6652,18.2168,-58.0477,61.1162,10.9302,40.6869,22.4633,66.6958,-337.4506,90.0798,45.7981,111.0487,136.3649,-3.9783,47.9279,118.4087,-70.1998
-3523.4375,31.9316,-367.7088,39.6218,-96.3231,54.3918,-59.5281,96.9159,9.6562,75.7341,-16.3675,102.5866,-229.7673,112.2313,44.2996,146.1570,97.1015,-42.6450,-25.2921,150.3883,-108.6239
-3515.6250,-41.4046,-196.3020,-37.1106,-206.1208,88.4018,-137.1512,166.5545,6.2346,71.6255,16.6629,62.3375,-49.2432,90.5218,-69.3510,142.1137,55.6970,-11.4549,-98.6669,182.2013,-112.1860
-3507.8125,-92.1454,-36.2941,-53.2438,-187.2976,109.9956,-190.1640,150.7849,-9.5893,129.1178,-36.7192,-63.3062,8.8675,47.9530,-49.4007,161.6755,38.9090,43.3376,-114.4362,202.6008,-128.1370
-3500.0000,-101.1414,-80.5358,47.3753,-196.7118,137.3266,-162.4169,141.7564,-55.6660,155.3644,174.6512,-72.2070,-74.2853,21.3579,-58.6879,78.9919,28.8833,33.8853,-123.4582,157.7322,-137.3273
-3492.1875,-50.1026,-274.7290,100.0445,-181.0652,117.6883,-109.6083,121.7705,-2.6901,170.6671,190.0761,127.9363,-242.3995,95.4395,-42.9225,57.3646,43.9218,-21.5136,-72.4274,103.9011,-121.4554
-3484.3750,32.7238,-368.1209,75.5090,-168.5976,130.8416,-133.9931,134.5801,47.0915,182.7749,239.3051,140.8728,-265.7332,108.9718,-103.3671,69.5467,18.7778,-9.1101,-94.5948,81.8600,-108.7723
-3476.5625,64.5448,-230.5080,69.9684,-137.1167,51.9821,-65.3715,92.3810,4.8707,177.8837,160.5538,-48.1946,-161.0747,21.2367,-108.8178,63.7263,-97.3485,93.3028,-97.7680,113.8013,-77.0781
-3468.7500,-8.0386,-23.3075,67.0200,-34.0136,86.7034,-31.1385,89.7745,-33.7435,137.5871,-137.6033,-270.6570,-52.8258,-30.0420,35.3540,97.5085,-137.8593,90.3117,4.6617,146.3300,-79.7716
-3460.9375,-44.4812,116.0293,176.2202,-35.7508,122.5579,3.2587,51.3090,-72.1943,-11.5586,-65.6053,-271.9655,-18.4374,-71.2229,-39.3026,-51.5541,-29.2058,123.4651,74.2318,38.9948,-81.3042
-3453.1250,44.0625,-6.6184,230.4146,-17.5013,104.3911,-14.3383,-40.1621,-53.6399,-141.6923,25.4011,-33.2789,-110.0595,-16.1636,-94.9530,-144.6119,24.4658,106.6200,162.8029,-12.3509,-62.8227
-3445.3125,107.2348,-155.6079,186.2488,-25.5931,133.8564,-22.2837,-10.9891,-24.4269,-76.1563,54.0586,143.0483,-192.0493,58.4816,-28.9475,-116.0034,-20.1984,62.4222,85.0285,-55.0536,-70.6773
-3437.5000,83.8854,-37.1076,87.5729,-119.1652,35.8040,-46.7119,1.6782,-11.7086,9.8961,140.2410,81.8662,-68.5605,18.5912,-16.4512,-29.8822,-45.3480,74.7217,-43.2449,-42.2668,-58.0179
-3429.6875,-24.5782,29.2904,10.7832,-51.8170,-3.3696,-50.2303,-1.7600,-15.0808,78.8537,25.3255,-105.4215,111.8235,-13.8301,-20.0560,113.1484,23.4254,70.9189,-81.6206,-10.5900,-61.4443
-3421.8750,-63.0497,-9.3114,42.9862,49.5356,-6.5619,-16.7477,-42.2086,-55.4523,74.8154,58.4157,-217.7081,145.2141,-66.5140,-23.6472,72.1835,93.2250,103.1163,-85.0035,-13.9278,-64.8575
-3414.0625,-14.6306,109.9859,56.0920,98.7869,-29.8745,32.6418,-102.7652,-78.9246,-22.3243,-1.5822,-95.0996,121.5106,-74.8549,-10.3261,-61.8864,105.9419,80.2162,-36.4839,-35.3816,-51.3555
-3406.2500,53.7241,143.2275,-18.8545,61.0083,-68.2508,-5.0090,-141.3811,-80.4372,-24.5166,-77.6385,161.4568,45.7469,7.7836,-12.0355,-27.0086,177.6290,43.2636,-3.0093,-71.8988,-52.8893
-3398.4375,40.0219,58.4133,-71.8567,-22.8039,-120.6903,16.3003,-120.0561,-58.9937,69.2387,53.2706,182.9612,29.9202,14.9560,9.2056,30.8211,124.2869,-5.7338,-16.5867,-121.4869,-31.4628
-3390.6250,-54.9334,34.3362,-98.1187,-11.8496,-72.4008,-9.6305,-71.9862,-47.7978,153.7454,-9.0582,-26.7905,77.8309,-12.0703,56.1974,114.4102,60.7199,-29.9798,64.5838,-75.3345,-20.2762
-3382.8125,-164.8069,-6.6506,-67.2869,52.2247,-41.0287,21.5446,-3.8255,-53.4998,184.3687,57.7289,-252.4568,108.8373,-62.5503,-22.7024,145.1167,128.2662,-36.1322,23.8518,-45.0879,-25.9798
-3375.0000,-179.1540,-126.0799,-118.9012,108.8490,-56.1177,43.2817,17.8705,-31.6473,131.5457,79.0848,-230.5854,130.3924,-58.9346,-1.0450,129.3774,186.3708,-85.7349,-24.3264,11.6942,-4.1216
-3367.1875,-128.5671,-41.5435,-214.5650,88.4344,-41.2752,-16.0267,32.5058,-16.8400,182.6767,20.3749,-32.7609,144.8972,-6.1270,13.5622,106.5966,89.4375,-140.3877,-45.5469,-8.5880,10.6986
-3359.3750,-39.0848,190.9056,-194.3316,-102.0760,-57.5427,-69.4301,16.0350,-70.1351,202.7082,150.5770,134.9672,128.2913,-18.5566,-76.9341,-20.2832,-0.5750,-86.1327,-59.8741,-58.9876,31.4272
-3351.5625,-48.2541,251.6906,-58.7522,-110.2298,-103.4751,-79.4799,-32.0929,-44.0799,154.0968,-7.8597,88.0361,81.0241,-29.7378,-51.0731,-31.8090,-12.2137,9.4754,37.1486,-33.0443,57.5166
-3343.7500,-46.2411,182.6565,53.0183,-39.1709,-65.2236,-41.3235,-66.0254,-41.8180,82.6990,-43.0900,-56.7096,118.9451,-57.9092,-11.9943,-30.1204,-10.6297,11.2818,39.3661,-30.9054,59.8154
-3335.9375,-37.5489,51.3112,61.4883,4.6014,-56.2833,41.5438,-57.2693,-32.8563,17.0080,76.4064,-157.7697,201.5632,-92.3023,-76.2082,-57.7283,-2.3221,-50.2129,83.2752,-22.0773,68.8241
-3328.1250,-113.6198,-94.7836,-90.7917,69.6299,-26.1116,35.6644,-27.2743,72.3555,10.5741,107.1609,-89.5823,121.4372,-62.6230,-9.1644,-64.0784,138.2598,-126.4658,42.4337,42.9904,63.0927
-3320.3125,-74.5490,-303.7345,-161.9287,72.8041,-22.8036,75.9351,-24.1435,112.7180,50.2983,294.0862,22.7574,-22.5388,-38.1891,31.0345,-97.2698,178.0250,-158.5724,9.7388,10.1913,66.5218
-3312.5000,-54.4923,-353.6968,-68.0746,92.9831,-38.5151,133.2117,-76.0170,133.0832,-3.9715,166.0268,6.0893,-75.5239,-18.2551,88.2404,-77.4507,87.8099,-103.6846,136.0535,-4.6188,86.9630
-3304.6875,-64.7085,-117.9149,104.5232,117.9301,-12.4894,123.2465,-123.1424,123.2038,-86.4788,45.7198,-112.8419,-85.7612,-44.1610,78.1983,-87.8721,3.3595,-44.0503,161.1228,-14.6875,77.1609
-3296.8750,-73.2863,119.5232,205.7690,109.5380,16.1740,150.9438,-131.6268,77.9760,-169.3310,74.0852,-268.1400,-21.3418,-138.5677,69.8046,-207.6455,-5.4298,-17.7654,117.8397,-23.1255,69.0154
-3289.0625,-114.9246,113.9258,52.9675,174.1149,10.7722,109.6004,-137.1734,145.6967,-175.2391,-42.5993,-200.4928,47.0281,-112.1573,101.3719,-176.4701,99.7389,-92.5290,112.5086,6.3756,63.8269
-3281.2500,-138.2249,90.6772,-155.4864,46.0596,-50.2922,84.6149,-88.3795,121.7682,-89.7970,117.0805,-77.5021,95.7437,-84.7495,39.2990,-90.9399,221.2756,-116.9426,18.5244,-16.7857,75.9936
-3273.4375,-142.3409,15.6123,-234.7545,6.2033,-92.1730,78.8372,-57.3875,153.0483,-96.1470,110.9784,-10.3257,15.6554,-50.2709,70.4358,-60.1971,142.0381,-121.1637,120.7446,49.2486,107.3689
-3265.6250,-153.2849,-135.2701,-61.8382,101.5557,-29.8713,105.2696,-68.1985,178.5435,-144.2788,26.0857,-56.9614,-68.2412,-36.7882,133.7734,-108.2351,94.0292,-97.2009,215.1642,38.4885,96.9511
-3257.8125,-108.3496,-89.2512,132.9744,181.8093,18.3171,153.6047,-93.1159,117.9463,-242.4998,38.1220,-81.7092,-57.2339,-65.7879,109.0121,-243.3693,-5.0587,17.6530,190.4761,-56.3839,72.4401
-3250.0000,-65.2743,93.9224,141.9327,261.2135,-8.3581,164.0877,-119.8902,54.5023,-269.5760,-171.6861,0.6880,99.9353,-33.5658,82.4129,-197.3501,-31.9760,26.6586,93.9370,-83.1152,46.0849
-3242.1875,-7.9066,327.3993,-54.8070,178.9199,-93.7482,78.8708,-96.3729,-31.6439,-135.3439,-38.1863,-11.6215,198.4117,-72.2307,33.1246,-100.0254,-44.5820,48.9720,-59.3084,-95.5569,34.0335
-3234.3750,-65.8463,304.5724,-188.8522,85.3322,-117.4570,54.3575,-84.1680,-19.0928,-51.4033,85.0406,-108.2419,173.5959,-101.1318,82.5393,-14.9951,4.5267,25.9896,-46.8603,-83.3086,46.6893
-3226.5625,-59.4015,65.1371,-108.5038,-13.8356,-110.7813,24.2510,-113.5720,24.8626,-45.0591,91.6748,-29.4740,143.1840,-62.4036,125.3601,-8.5604,85.0611,-3.5892,65.9881,-110.6711,53.7511
-3218.7500,-0.8167,-52.1545,99.9901,-94.8429,-85.9689,13.3029,-124.8332,13.9703,-128.5634,227.4760,107.4298,58.9282,-34.1755,41.3429,-128.9692,73.7692,-15.0201,124.9810,-121.9034,42.9665
-3210.9375,21.0544,-31.1528,158.7795,-2.5438,-63.8739,-0.3410,-102.7978,0.3760,-106.7627,102.5744,166.6310,-29.0129,2.6242,-9.3625,-143.0679,59.7969,6.8467,111.2718,-66.8484,29.4848
-3203.1250,32.6059,121.5476,25.2661,44.4591,-50.0866,13.7130,-53.0678,-59.5188,16.7525,116.3792,33.5233,21.7549,-45.5233,-106.3621,-94.4473,72.5417,18.4053,-16.7381,-55.1008,6.7031
-3195.3125,19.2411,284.3501,-136.1469,66.5651,-101.2112,-1.1281,-68.2477,-74.3187,75.3776,101.3054,-91.5019,153.6279,-91.3265,-84.2604,1.2768,21.4029,40.0625,-65.6455,-103.2607,29.0244
-3187.5000,-32.5320,162.7479,-153.9587,86.2860,-117.7468,-55.3600,-48.8407,-54.5157,94.6015,10.8263,-71.9365,247.0993,-65.8426,46.4508,57.6046,3.8847,24.3190,-80.9421,-83.8311,48.9486
-3179.6875,10.7884,31.2464,0.3327,-10.8844,-109.1955,-46.4812,-76.3451,-45.6121,28.9217,166.4547,-27.2749,181.6709,-94.7329,92.2770,-80.9661,86.4809,32.6801,-72.1452,-145.3143,57.9730
-3171.8750,52.0034,0.6468,79.5205,-5.1492,-103.7602,-76.6986,-106.9561,-2.8072,-75.8612,134.9954,89.2798,40.1561,-34.8600,24.0115,-75.6386,201.9922,1.9431,3.5461,-139.9053,63.8981
-3164.0625,83.4582,68.2941,1.9534,-8.1636,-107.0841,-43.6676,-74.3251,-5.7486,-79.3948,168.7970,49.0760,-37.0766,-41.1982,20.9991,-43.0605,161.7786,-1.5434,0.4765,-107.2553,61.0718
-3156.2500,-46.6979,42.3486,-136.2197,-32.7864,-99.0220,1.7602,6.7010,39.7086,1.4735,177.0237,-125.7412,-28.8852,-81.3050,66.4000,1.9207,96.9772,-26.6265,10.7986,-28.2190,106.6464
-3148.4375,-154.9185,76.3606,-211.4448,35.5469,-101.0238,0.1386,4.6682,75.1181,73.2971,65.2022,-237.6261,43.2615,-110.1914,101.7723,36.8588,132.1416,-28.7635,-25.9266,39.7613,105.1714
-3140.6250,-138.5563,127.9741,-157.0705,53.4909,-82.4380,19.1224,-49.7681,57.1271,-19.2688,120.9953,-108.9275,135.0152,-96.9446,46.7399,-54.5951,149.9306,-12.2996,-44.0555,-82.6669,87.2937
-3132.8125,32.8441,124.6369,-86.6494,50.4931,-122.8133,53.1588,-126.1647,91.1826,-168.7847,6.8539,107.8133,168.8352,-63.7421,80.7576,-168.0016,110.7911,-15.7834,22.8632,-122.0520,84.4676
-3125.0000,115.6339,136.6999,-37.8381,132.9006,-108.8020,67.5948,-186.1699,68.6394,-191.8920,-52.8905,121.9515,109.0654,-68.5842,58.1922,-228.0020,51.0705,67.1251,71.1840,-109.0392,62.0401
-3117.1875,18.4598,145.8066,8.0139,142.3523,-63.7536,150.0845,-103.1297,78.1479,-219.9365,-79.5566,-88.8745,45.3564,-118.5662,67.6822,-254.9461,23.4226,111.0760,115.5463,-65.9780,71.6610
-3109.3750,-96.6815,205.9493,33.9065,202.8592,-38.6640,139.6237,-78.0400,104.7117,-230.9179,-273.1600,-210.6723,71.7089,-89.9169,130.2315,-118.8300,-24.1565,65.0734,174.9534,-6.8641,61.3298
-3101.5625,-71.9356,266.9901,24.6906,229.2753,-10.6821,168.0632,-51.0535,59.1739,-239.9895,-245.8461,-182.5913,62.9819,-76.9330,85.6909,-127.8069,-105.8241,90.9754,131.2486,-50.8540,52.8929
-3093.7500,26.4007,189.6431,17.0693,257.2887,-91.1123,198.1056,-94.4751,52.2333,-283.4637,-288.9198,-6.9251,91.8787,-49.4013,151.7632,-172.1817,-148.8777,83.4813,159.1384,-58.2558,46.0527
-3085.9375,116.2271,68.8044,75.9460,242.7982,-70.0512,183.6423,-145.4011,74.7890,-262.4338,-303.4975,52.2335,114.2916,-19.0253,137.3518,-150.0512,-127.4102,68.4794,144.5293,-108.1625,31.7083
-3078.1250,117.4857,105.4054,113.2740,209.7533,-68.5450,148.6304,-107.8781,2.7942,-223.9542,-191.6029,-57.1658,153.1628,-27.9788,66.3984,-39.4660,-125.4686,69.9195,76.3637,-176.6243,33.8085
-3070.3125,19.3284,218.5821,120.1972,217.3157,-61.4461,119.2210,-64.7544,-26.5960,-142.8698,-294.1043,-121.9719,123.6515,-28.8073,74.0503,4.7290,-153.9134,41.9526,83.7997,-99.4822,41.5042
-3062.5000,-24.5891,211.0128,76.3681,104.1380,-32.1056,76.0662,-35.3855,3.2629,-41.5284,-118.3574,-129.5401,79.4065,-67.5010,66.9520,-76.8140,-161.1044,69.2348,41.4862,-72.0948,34.4433
-3054.6875,25.2954,154.2560,53.3412,83.7630,-54.9726,53.7167,-58.2203,17.9174,-64.3912,-67.8003,30.6803,57.9751,-55.3665,44.6577,-171.5638,-110.4915,48.3168,20.9737,-92.9151,49.1761
-3046.8750,92.8241,117.1497,13.9582,82.0470,-57.1977,52.0174,-60.4137,-57.7759,-102.6053,-178.5921,175.5460,92.2063,22.8356,80.0240,-64.6639,-39.2184,11.0479,-16.8850,-165.0863,47.5510
-3039.0625,101.1897,125.9017,-14.5733,-49.8251,-48.5729,24.1680,-51.7617,-84.6211,-93.9673,-60.5021,111.2456,65.3044,3.2141,52.2430,-18.9144,43.9106,19.6316,-7.9050,-156.4121,56.7675
-3031.2500,20.1915,-24.6850,-26.4503,-24.0547,-59.3069,49.9671,-26.4653,-22.8196,-32.6782,-70.7509,-11.4262,-56.9277,-13.7572,41.1212,6.4909,106.7016,-26.1326,88.7239,-26.0931,82.6279
-3023.4375,-61.3620,-35.8280,-37.8753,0.1737,2.4019,39.2156,36.2767,3.4295,-6.9373,-8.5454,-58.6528,-67.6926,3.0372,-6.5407,32.3529,21.9590,-37.4514,77.7987,-2.3321,71.9289
-3015.6250,-71.0661,95.8620,-83.4478,-43.7396,29.9499,-6.6824,63.8610,-5.4736,-89.3443,56.5298,78.9702,-2.5935,48.6595,-52.3540,23.0643,-96.9135,-46.9242,33.7196,-11.7324,63.0704
-3007.8125,-19.6768,77.6438,-101.9281,-26.5436,11.5889,-61.4759,8.5426,13.7219,-71.6443,38.7065,281.6826,16.6209,102.0064,-70.0600,4.8836,-114.6724,-65.2999,15.7379,-30.0313,45.3030
-3000.0000,73.0002,-41.2515,-79.1106,-39.0518,35.5244,-36.9711,-41.4766,1.2178,-47.6356,210.1974,194.6703,-69.8476,46.4632,-82.4612,-44.9952,19.8718,-78.3692,3.0474,-43.0309,32.8242
-2992.1875,26.5176,-87.2747,-53.4467,21.2842,24.3014,26.3840,-15.6480,27.5621,15.2224,52.5391,-0.5064,-117.4544,24.8680,-19.0055,54.9722,82.2784,-89.5871,62.2117,-18.1823,22.1858
-2984.3750,-59.6731,-31.0037,5.5230,6.9264,46.3753,49.0446,43.4685,50.2100,37.3770,-35.8135,-125.3886,-20.7481,21.0455,3.7545,113.2408,-79.0015,-104.5022,82.6781,1.9621,7.8350
-2976.5625,-16.6626,81.4588,49.7000,-126.2277,16.6441,56.9041,13.7780,94.0551,-29.2744,9.0561,-45.0746,60.1805,5.1998,-99.2841,10.7039,-180.0748,-26.2094,55.3332,44.2965,15.6725
-2968.7500,42.2499,176.8285,1.7734,-170.4816,5.8083,-27.3410,-34.0112,120.7935,-114.0278,-75.1830,128.1325,124.0360,31.7017,-109.4093,-36.9305,-81.2416,32.9848,-25.1191,68.5326,5.3984
-2960.9375,109.8554,174.9110,-111.4586,-172.0372,-33.3296,-65.8891,0.9029,82.2270,-116.0776,70.2822,89.0150,159.6165,-16.3851,-36.8271,-38.8566,-45.6965,65.8747,-132.8809,31.4687,3.8105
-2953.1250,25.8503,55.3914,-162.2928,-46.1992,-49.0701,-44.0411,59.2203,68.0548,16.2756,19.1548,-73.7197,70.6178,-29.7341,22.1577,56.6210,-60.7331,-17.8399,-41.2378,52.8045,25.6116
-2945.3125,-46.0183,-154.9831,-90.9701,94.7907,24.3422,29.9539,58.6883,68.0317,88.7827,-17.8342,-110.3012,-76.2247,12.4448,-51.7041,92.2570,50.3918,-54.4120,-5.4389,52.2913,25.5484
-2937.5000,-59.8354,-64.3130,4.4092,11.8315,8.7994,15.0029,6.2065,16.0529,37.3392,41.2373,-15.8295,-54.0119,8.5956,-138.5172,3.9430,72.5733,3.0730,16.4042,3.8210,47.5201
-2929.6875,16.6975,152.7112,47.1397,-87.7672,14.5957,-52.5999,-24.9307,22.4242,-67.7568,-99.3482,100.9858,63.5697,31.3888,-59.9682,-27.0152,-68.8949,43.9172,-13.4140,9.7035,53.8283
-2921.8750,121.1333,258.6496,-27.2337,-121.4681,14.2879,-52.3061,-25.1745,-14.3137,-30.9454,10.9726,26.6821,174.0767,-35.9518,-95.5047,-64.0652,-104.4571,43.6659,-117.3490,-26.5161,54.0213
-2914.0625,48.0135,150.0471,-104.1588,-19.7378,-63.5715,-19.5714,7.0352,-54.6050,75.3259,-66.2365,-51.1962,133.0614,-53.5291,-26.5942,5.3415,1.4462,-30.1397,-84.8412,5.7106,86.6511
