Time,Fp1,Fp2,F3,F4,C3,C4,P3,P4,O1,O2,F7,F8,T7,T8,P7,P8,Fz,Cz,Pz,ref
-4000.0000,-11.4041,-12.3459,4.4869,14.0956,14.0509,16.6665,-49.8048,0.7003,5.0986,10.2657,-4.0868,8.7410,-32.2027,13.4816,-2.8256,33.9592,40.6724,-92.4937,15.9441,-92.6293
-3992.1875,21.0012,-15.3108,40.1602,46.6583,48.9442,52.2945,-52.9379,0.1339,-70.3161,9.7649,31.5119,7.9568,2.8779,49.0444,-78.2970,32.7578,-32.0864,-130.3941,12.9025,-131.9955
-3984.3750,-0.0386,-70.7230,53.3862,62.7768,26.3898,66.4757,-39.5272,87.1216,-20.1936,60.8122,7.6561,-15.2770,-21.4884,-9.8319,-64.2280,48.0978,-87.2967,-78.3967,-42.5940,-82.8052
-3976.5625,-2.0344,68.9172,-22.3468,96.9430,-49.1201,65.7133,-116.0728,50.1666,-132.0261,22.9071,5.8457,167.5352,-59.8092,99.3558,-103.1069,83.4902,52.5412,-89.9344,-149.0416,-85.5543
-3968.7500,151.7662,258.3581,-9.2898,146.9128,-108.8404,79.7560,-177.8213,27.0176,-193.0687,-0.1943,18.8299,181.1500,-121.3310,113.3489,-164.1885,61.6993,66.1760,-83.1578,-241.6879,-73.5012
-3960.9375,117.0133,329.2458,-85.7850,182.3357,-186.1059,78.2533,-217.1147,61.3281,-231.6713,71.1613,-57.7414,215.2133,-161.4077,147.7928,-166.8229,96.3551,31.2501,-17.8981,-275.8827,-3.9920
-3953.1250,87.6986,300.5901,-151.8336,225.2102,-286.9211,123.2038,-246.9654,107.0926,-297.8351,79.9688,-49.8693,186.7393,-155.0360,156.7020,-196.0186,178.4559,73.7735,-46.5138,-234.6310,-34.0274
-3945.3125,56.4330,340.9904,-109.8313,231.1431,-245.6857,166.2149,-205.7730,185.9070,-255.9639,122.8199,-118.9498,82.3205,-150.6115,89.6644,-155.1719,147.6013,-26.6543,-36.1719,-229.3292,-30.0148
-3937.5000,-71.9353,318.2874,-171.9266,243.9783,-269.5445,179.1262,-231.6740,198.6262,-244.1908,208.5733,-216.1313,204.7924,-211.2862,175.5236,-179.4274,234.6420,-84.1887,-28.8683,-217.1254,-19.0950
-3929.6875,-73.8582,317.0321,-208.5752,208.2636,-233.9490,180.4851,-196.1239,236.7940,-207.9713,283.7767,-216.8655,168.7144,-212.5078,139.8309,-216.2328,273.1333,-155.2708,-67.3046,-183.4717,-56.7198
-3921.8750,-170.9215,256.6231,-200.3662,182.3935,-189.5003,188.6937,-79.7195,281.8123,-90.9104,291.8322,-208.7419,140.4696,-204.8729,111.9769,-172.1852,244.4657,-286.5016,-21.1765,-208.9653,-13.4900
-3914.0625,-216.1379,176.0585,-248.3053,173.3733,-273.1924,177.7497,-128.4625,270.6828,-103.0063,280.7336,-220.7661,239.0750,-180.3832,173.9668,-147.2906,270.6442,-260.8827,-1.9708,-183.6079,10.6002
-3906.2500,-197.1974,124.6401,-228.0936,157.5048,-216.7340,198.9552,-73.0576,291.6998,-119.9599,301.7711,-200.6429,112.8330,-161.7432,232.1145,-164.2498,217.9711,-312.1082,-14.2781,-130.0970,-7.1540
-3898.4375,-243.4066,115.0755,-203.0264,148.4843,-155.4166,152.0142,-11.7961,280.5671,-131.0749,253.6563,-139.6720,101.4324,-137.2522,148.1164,-175.3584,207.1384,-251.4885,15.9961,-104.7321,16.9480
-3890.6250,-151.1672,65.9589,-181.5095,100.9133,-169.6422,137.5239,8.9163,228.8859,-109.7532,202.9982,-118.2513,49.4824,-80.3156,59.5620,-82.0223,229.7629,-299.4218,33.7616,-46.9187,37.5119
-3882.8125,-206.7287,-22.9599,-165.7962,81.5453,-189.6678,154.2345,23.8264,245.4180,15.7632,219.5624,-138.6421,-44.2708,-65.1829,76.1934,44.5089,99.5984,-283.1692,51.3804,-30.9065,52.2844
-3875.0000,-207.1513,12.2774,-165.9394,82.3308,-153.5463,118.1003,59.8894,210.1101,-21.5745,183.2802,-102.8855,30.1277,-65.9066,150.9846,-29.8175,27.5762,-212.7687,51.5800,-30.7445,51.2167
-3867.1875,-143.5178,41.5724,-137.0291,77.1677,-88.3717,74.0150,88.0037,165.8483,7.1239,176.0415,-74.0874,-51.4166,-37.5845,106.8331,-38.1037,20.5975,-253.3143,78.9042,-37.5308,79.2108
-3859.3750,-192.6336,-7.8843,-189.8710,29.2538,-102.9419,60.1802,34.3715,187.8377,28.0722,235.0556,-89.0419,-29.7250,-53.0183,91.9251,19.8682,79.8676,-231.6193,94.9081,-16.0633,99.4689
-3851.5625,-170.8061,-20.3894,-165.7687,52.2921,-115.5683,84.3031,57.6931,175.7858,-22.0373,223.0178,-66.0451,-42.0864,-66.5078,79.9560,6.7944,141.0900,-243.9762,82.6182,-28.6422,85.6870
-3843.7500,-148.4750,2.6057,-145.1658,40.8351,-93.6946,69.9245,40.5214,160.2369,72.3480,244.4806,-81.5519,-129.9483,-119.5002,65.4897,27.2199,89.8050,-220.8400,140.1628,-40.7185,142.4181
-3835.9375,-191.2012,-4.4566,-152.6197,34.3211,-137.8702,63.4900,-3.6929,117.6371,27.6904,163.9013,-89.1119,-27.8568,-90.5487,168.9876,56.5952,83.4663,-157.7568,127.9875,-47.8381,134.1124
-3828.1250,-111.0755,-28.6639,-68.2244,45.6512,-90.1933,74.9010,5.9484,128.8836,37.8760,28.1737,-41.8196,-52.9101,-43.7476,143.3319,66.8221,20.9713,-181.8249,141.9973,-71.1070,143.6639
-3820.3125,-143.9473,-25.8661,-69.8258,12.9827,-91.5057,74.3148,-32.4004,91.1338,1.0514,64.4474,-43.5323,-15.9739,-82.9467,69.6604,66.0470,57.4654,-143.9015,213.7651,-34.3711,215.2306
-3812.5000,-123.1752,-4.4183,-81.7791,34.9641,-66.1665,63.3796,-45.0943,80.0399,-11.1310,127.3746,-55.6016,-64.3881,-95.5006,58.6290,-56.0853,83.6126,-87.3305,167.2508,22.0225,165.4613
-3804.6875,-61.5511,-47.1204,18.1169,27.7953,33.0254,17.2998,54.0680,107.7984,51.5337,118.1519,-65.8186,-183.9558,-69.2087,-23.5466,-66.3698,1.5975,-129.9188,203.3145,49.2703,191.5489
-3796.8750,-59.2849,-44.1790,19.6630,-2.7230,34.8709,-16.1282,17.8913,36.2136,15.8501,10.5717,-101.3824,-35.8844,-69.2661,50.9379,-101.9982,4.2125,-21.8654,237.2824,18.1699,228.3020
-3789.0625,3.2787,53.0570,12.5070,24.0566,28.0177,-22.2570,11.0196,29.9288,-64.5415,-31.7111,-71.6533,-5.5108,-76.0209,82.7184,-72.3264,-74.8721,-28.5115,191.5217,9.3764,184.3683
-3781.2500,-41.1512,115.2889,39.3549,16.8314,55.1679,5.6108,37.1669,21.6494,-74.9314,-3.9910,-44.9292,21.8471,-86.7750,0.4842,-118.6522,-120.9626,-37.1628,221.0520,2.5954,210.4458
-3773.4375,-32.5841,124.5138,12.2041,26.6023,-7.6813,15.4797,8.3228,31.3721,-102.3224,-31.2754,-109.2054,31.2056,-78.5312,46.2555,-109.9824,-74.0584,-27.8143,227.3790,11.8134,218.5393
-3765.6250,-27.9142,59.8373,17.1491,32.4748,-39.4314,57.4479,12.5744,37.1950,-61.6236,-62.4584,-68.3791,-73.3331,-37.1831,89.1343,4.7815,-105.0615,-92.3677,229.5639,-18.8678,222.7435
-3757.8125,-77.3415,11.0625,0.9977,20.2480,-18.2710,43.3146,32.7410,22.9175,-77.0313,-113.7444,-10.6429,-14.9849,-16.9308,110.9121,25.4431,-119.1845,-71.0270,250.0135,2.3555,242.8579
-3750.0000,-51.9157,2.1394,28.7001,11.8645,9.7426,-0.9706,22.7690,-22.5108,-86.5992,-49.1840,16.9419,-23.7884,10.1759,29.5346,-21.0475,-91.4624,-44.8343,239.4788,29.4297,232.8364
-3742.1875,-48.7328,-29.0361,32.1523,-19.7727,13.5090,-33.5123,25.5545,18.8093,26.5800,-44.8738,20.2749,-93.8479,13.0410,-39.1027,-17.7825,-122.9957,-5.8936,244.8878,67.2547,235.5787
-3734.3750,13.8486,35.1773,25.0073,9.9850,6.6813,-2.6580,54.7544,-24.4736,-54.8404,-161.1732,50.0131,-63.5108,42.3133,-45.3399,-62.1092,-166.1438,23.4442,239.3023,60.4831,227.7337
-3726.5625,22.1881,44.1345,69.6170,19.4888,87.6034,6.9435,62.7090,-52.0161,-46.5166,-151.7346,21.5082,-127.4216,86.3487,-72.8255,20.3130,-193.5556,-38.4657,247.1301,-0.5372,235.6529
-3718.7500,-30.0171,-8.4564,16.6826,-32.5645,34.9840,-46.0113,45.1232,-68.1139,10.2564,-94.8463,41.4574,-33.8913,68.8444,-51.8708,76.1849,-99.5306,-19.9295,219.3769,-17.1054,218.0333
-3710.9375,11.2300,-37.5951,-12.7950,-25.1748,5.8280,-74.5258,51.0058,-59.7705,17.4756,-12.5154,47.8578,-25.9114,38.8015,-43.4796,82.5033,-54.0647,-12.9395,185.0106,-46.2209,187.8716
-3703.1250,-20.4110,-32.6411,-10.1639,-20.6907,9.7872,-70.9452,17.0007,-19.3349,19.7928,63.9052,14.3648,-59.8383,4.8717,-40.0047,12.9278,-13.5145,-43.8546,225.5058,-41.2319,226.8231
-3695.3125,-17.9549,40.4052,-42.4320,-16.1127,-96.1500,-28.2738,-52.8957,-13.8078,-49.7882,32.4229,18.9746,18.3354,9.0511,1.5727,-93.5338,64.1232,29.3286,189.0804,-38.1423,193.8875
-3687.5000,35.2067,130.1482,-21.9939,2.1599,-75.3823,-7.9108,3.9216,6.4078,-66.6736,16.6268,38.2885,2.2149,27.9449,-50.1505,-73.2918,-23.5546,-56.7850,172.7163,-89.3475,176.6581
-3679.6875,-34.3184,60.1878,-23.2459,4.7228,-39.2984,-7.2533,-34.9395,-30.0813,-104.2560,53.1159,37.9063,74.3842,27.1491,-50.5907,-74.7463,-23.9528,-20.5991,208.5749,-88.2474,211.7420
-3671.8750,-10.7874,14.2659,-31.4457,28.3256,-11.1559,-15.5555,-42.7408,-73.5295,-149.7891,8.6437,65.5779,67.6045,91.4136,-21.9869,-45.1550,-31.3064,3.6475,126.7211,-29.0885,129.8890
-3664.0625,41.2551,-37.1583,21.8629,-23.5805,80.4973,-33.3661,82.9738,-55.4852,-21.8247,-45.3385,119.7554,-97.6838,108.1906,-75.8835,7.9416,-160.1752,-47.6120,150.4135,-11.4264,146.5431
-3656.2500,23.9504,-54.9408,3.8276,-74.8512,98.8090,-50.5336,27.3600,-73.7973,-41.2033,-63.6832,100.5827,-42.3254,125.6279,-57.1333,-47.3005,-104.4083,39.7708,166.0581,6.8908,163.8634
-3648.4375,110.3477,-39.0326,22.4938,-58.4268,81.8206,-68.0096,8.4554,-90.4132,-58.8794,-44.3340,120.1050,-96.2637,144.7744,-74.6875,-28.8402,-83.9452,56.8561,108.3163,-12.0916,108.8989
-3640.6250,69.5536,-42.3272,89.9686,-61.2046,112.6428,-72.6873,75.3590,-133.2341,-28.7576,-160.1920,113.4329,6.5850,137.7333,-116.4514,-34.5779,-163.7026,87.7432,145.0518,18.7292,138.7485
-3632.8125,124.0145,-24.3753,73.7014,-112.7350,96.7252,-88.1255,58.5282,-185.8187,-45.3843,-211.8044,134.0162,64.6814,157.9540,-131.9799,20.9396,-179.2276,106.8781,122.5366,37.7954,121.8693
-3625.0000,99.8340,-48.0770,86.7886,-135.9261,110.1638,-75.2246,108.0552,-135.0638,2.3365,-235.0753,109.9548,-68.8706,169.5367,-118.1657,107.8123,-238.4129,83.3608,103.9158,120.2142,97.3573
-3617.1875,64.3572,-82.0801,86.5827,-135.4257,146.3151,-74.6327,144.3042,-171.6132,1.7537,-308.6564,109.5972,-32.7303,205.8297,-117.6491,70.3890,-201.9179,118.5324,105.5417,120.3377,96.5610
-3609.3750,113.8295,-68.1359,103.3326,-154.9851,200.4278,-94.0933,159.5161,-191.2187,18.1120,-218.3033,89.1923,-124.6375,185.0856,-137.1815,49.9145,-147.4866,63.6492,82.1747,65.4148,75.7327
-3601.5625,61.5123,-119.0015,86.2849,-171.3505,220.7447,-74.3603,178.9377,-133.6260,74.6738,-160.7541,71.9866,-141.3533,167.5512,-153.5360,69.6394,-126.8647,46.9617,65.9440,48.7034,58.1230
-3593.7500,83.7431,-131.3175,73.7878,-147.1701,171.6178,-86.0779,165.9208,-145.4794,24.7872,-209.6569,96.3284,-81.5181,154.5706,-129.3533,56.9117,-102.7083,104.8179,52.6252,71.5518,45.0799
-3585.9375,123.8808,-91.7326,79.2006,-107.0889,177.3945,-79.8987,133.8132,-139.4354,66.7963,-166.6643,64.5650,-111.7804,122.4912,-123.2747,62.0791,-132.6662,75.5770,56.3136,42.2965,49.9546
-3578.1250,109.1256,-71.0504,64.7197,-85.9143,126.2789,-93.6267,82.8108,-153.2980,14.9089,-143.5805,49.9081,-15.9478,107.5165,-64.0926,47.3453,-110.5385,131.4391,37.4916,28.1411,34.9472
-3570.3125,181.7321,-69.0165,102.5920,-83.3956,91.5140,-54.0151,84.1682,-150.8244,-57.6279,-215.1544,88.6124,-50.7618,145.9014,-61.5679,11.9651,-108.0782,133.6588,41.1038,30.3362,36.3046
-3562.5000,114.8533,-98.4855,105.9743,-78.3879,131.2601,-50.9152,86.0419,-74.8620,-18.6610,-138.2337,90.8233,-120.0812,147.7983,-167.5677,-22.9048,-104.1331,68.3740,85.8752,70.0382,75.1794
-3554.6875,88.1765,-55.7589,117.5573,-69.1964,144.2117,-37.6292,61.1344,-99.7051,-43.4841,-162.1201,66.2350,-72.2038,159.9017,-155.3746,-47.5658,-93.0009,112.2870,24.2479,78.9528,13.2699
-3546.8750,145.5587,-68.9875,141.1944,-116.9646,205.2145,-87.2996,157.2953,-112.5041,53.7449,-174.9756,88.7013,-122.2761,146.0650,-168.1274,49.8319,-141.8360,64.2508,8.8135,65.9258,-0.5821
-3539.0625,80.3499,-131.8289,108.2430,-144.3430,135.6335,-118.5773,123.8741,-142.9135,130.3797,-133.4433,56.5794,-43.9603,149.6414,-126.4884,126.6377,-136.2930,105.6116,42.7424,72.3032,39.9804
-3531.2500,133.8459,-79.9764,55.9987,-127.0284,83.7563,-134.1668,71.1663,-158.6342,114.7120,-185.2239,114.1649,15.0625,133.9343,-31.1662,111.1437,-116.0570,124.6764,-18.1605,55.3807,-12.7432
-3523.4375,162.4574,-51.0227,84.8652,-132.6212,112.9904,-104.6646,136.5715,-129.2627,106.1379,-192.9255,105.8615,-103.8118,125.3393,-1.7575,102.7493,-195.7362,82.8410,16.1532,49.5615,15.6428
-3515.6250,121.9230,-90.2260,42.5918,-135.3721,71.0848,-109.3179,93.8389,-134.0460,26.4180,-198.7838,100.4068,-35.8376,118.6016,-7.5018,60.2115,-91.5851,113.8476,45.4645,80.5984,45.8951
-3507.8125,106.2388,-70.5865,65.1706,-116.2776,57.0397,-49.1305,78.9682,-74.9883,12.5488,-138.7989,85.8047,-86.0153,104.7248,-94.4029,82.5303,-105.5925,63.7068,-1.3354,100.4914,-4.9941
-3500.0000,101.4683,-110.0516,59.6623,-85.2927,87.9076,-55.0538,109.0200,-81.0408,42.5870,-180.9218,80.1116,-55.3073,61.7616,-100.4279,112.7588,-146.7209,94.4678,32.5894,96.2928,25.0239
-3492.1875,121.7575,-89.4681,81.2197,-99.2754,37.8415,-31.9427,58.1431,-95.0583,-9.3221,-195.0076,28.4766,-32.5532,82.8569,-3.4202,62.0458,-124.8214,115.2872,15.7569,117.1557,10.1056
-3484.3750,132.0672,-79.8901,92.7891,-89.2726,85.7833,-56.8476,68.2798,-83.0874,38.7716,-147.1062,75.8460,-167.8071,93.9644,-28.4225,36.3414,-149.9326,90.1113,-8.3666,128.0260,-15.8070
-3476.5625,51.6893,-124.0221,157.6735,-26.9815,188.0360,-28.4618,58.7328,-91.8290,-7.8288,-155.9187,66.5265,-140.7699,121.3829,-148.1319,-10.0513,-158.7632,117.2430,-6.7346,154.1991,-25.4111
-3468.7500,107.7762,-67.7118,180.0211,-41.2499,209.7477,-79.6370,80.6502,-106.1351,-22.9749,-170.2970,88.6624,-118.2778,143.2604,-234.4042,48.0081,-173.1609,102.8348,-23.7270,174.8270,-40.5547
-3460.9375,74.9294,-100.3580,109.4298,-143.4763,213.5198,-149.7757,120.6296,-139.3964,126.9390,-166.6278,54.8477,-40.7446,109.1946,-158.6416,125.1252,-169.5280,106.4769,-29.7952,213.5147,-37.6404
-3453.1250,66.8398,-248.2622,101.5976,-185.9627,170.0543,-157.1759,186.3808,-146.9187,155.6151,-174.2206,10.7919,-11.4685,100.8910,-129.1464,191.0020,-104.1665,98.8748,-37.8833,276.9641,-45.9700
-3445.3125,12.6638,-302.2644,154.6774,-203.5600,149.4997,-140.6928,202.0522,-130.5531,244.1985,-121.9345,-10.3562,-143.2966,153.4981,-185.7621,279.7913,-124.9236,44.1778,-20.9173,257.3205,-30.3912
-3437.5000,-20.2015,-264.9747,159.0620,-201.8750,154.2530,-172.9258,169.0449,-125.8990,175.1021,-154.3572,29.8044,-64.8362,157.4167,-145.0919,246.9019,-120.3985,117.7830,-55.1831,224.9883,-63.5034
-3429.6875,107.0477,-137.5971,183.5554,-144.1001,179.1141,-147.0748,156.1588,-137.1603,89.1107,-202.6963,55.0776,-40.2676,144.4465,-119.3359,161.1223,-131.7912,104.4978,-104.7226,176.7636,-112.5105
-3421.8750,74.5197,-171.0230,148.2660,-142.1385,180.1833,-183.0354,157.4866,-136.2323,163.3252,-53.8511,55.5604,-75.5055,108.6882,-118.3934,125.5497,-94.0006,72.4159,-71.3517,144.7437,-75.3080
-3414.0625,60.4470,-184.9940,99.4332,-119.7354,95.7076,-157.5568,108.2715,-147.8683,150.0004,-29.5630,80.4996,-51.2913,132.3846,-130.0099,113.4347,4.2279,93.7879,-126.2738,131.1716,-124.6453
-3406.2500,130.3354,-114.0154,135.5591,-84.3887,132.1889,-157.1365,144.0193,-147.5657,149.6272,-65.3411,117.3978,-124.1226,132.0414,-166.6865,149.2719,-68.6031,59.1125,-125.0625,61.5492,-125.0280
-3398.4375,85.2383,-160.0408,124.6930,-94.0520,121.6806,-131.7288,95.7831,-159.2711,138.2593,-114.1282,68.3044,-25.9612,120.7082,-67.3738,138.1226,-43.4592,84.4356,-101.9343,51.9300,-100.3988
-3390.6250,82.7471,-126.4712,88.4300,-61.1231,49.7775,-129.7310,60.1540,-120.3896,101.4955,-76.3214,69.8145,-24.1927,120.9797,-29.4690,175.5819,-5.7261,82.3672,-178.2608,84.9162,-173.1629
-3382.8125,69.2732,-69.8987,74.1822,-109.1975,71.8876,-144.7426,117.5399,-62.5166,159.7365,-17.5276,127.3284,-76.4320,105.2600,-117.5832,160.0464,-58.0107,34.3001,-155.6977,106.9080,-151.9238
-3375.0000,41.4079,-97.7284,44.5475,-136.6803,42.6089,-137.1613,124.5426,-91.0501,129.5843,-47.1450,98.4442,4.9228,112.1470,-110.1185,57.1103,23.2891,111.8368,-148.4371,114.5040,-145.0720
-3367.1875,97.5531,-111.5540,105.9206,-115.1655,31.3357,-112.5886,112.5488,-66.5953,117.4338,-58.7670,85.5602,-43.7140,100.0389,-85.6606,81.1719,-25.4202,98.3756,-194.0456,137.0984,-194.2128
-3359.3750,54.2082,-189.8798,95.8007,-88.1571,21.5671,-85.5250,102.0731,-39.6412,143.7921,-31.8978,39.1795,-16.8545,53.4347,52.2937,107.7383,-72.6466,90.4084,-166.4981,128.1981,-167.8471
-3351.5625,76.1197,-238.9586,46.9336,-100.9046,9.0491,-98.2123,88.8577,-89.4411,130.4055,66.2088,26.0484,44.2631,40.0806,39.4949,131.5556,25.3640,77.6966,-187.4756,115.5457,-181.2170
-3343.7500,66.8441,-107.2303,37.8724,-179.8513,73.3305,-143.1052,153.4435,-61.4497,231.8195,130.1099,16.7197,-38.8157,30.5290,-117.5154,159.1728,16.1650,33.7893,-197.5887,142.6900,-190.7773
-3335.9375,78.0760,10.0042,49.3194,-168.2946,49.1172,-168.5048,127.5405,-86.9642,205.7365,68.5006,27.8957,46.6079,4.4820,-179.0385,96.2923,27.4436,115.3812,-186.9770,118.3368,-179.8295
-3328.1250,105.7199,2.6424,78.1750,-140.3444,5.3097,-138.5102,83.0491,-94.0917,161.0572,24.2777,20.4731,2.4388,33.8363,-76.1695,125.8186,57.1125,73.3806,-197.6241,76.3791,-187.4729
-3320.3125,47.8791,-126.2160,54.5388,-127.9086,-18.9926,-90.0292,59.0688,-44.7323,172.8892,-0.4511,32.5554,14.7572,8.7029,10.1834,174.8631,69.2677,85.8833,-184.3062,53.9274,-175.6079
-3312.5000,68.4019,-140.7297,40.2631,-72.1348,-69.9340,-67.2174,80.4594,-59.0336,121.0849,-14.8410,55.0028,73.4194,30.9298,68.8650,123.2666,90.7502,71.7451,-200.8505,4.8301,-190.3864
-3304.6875,97.4479,-111.7464,32.5036,-42.8671,-40.3662,-74.9186,73.3613,-66.8511,186.7809,51.2485,9.9633,-7.4186,22.6693,62.0313,115.1732,9.7121,31.1145,-171.5095,-0.7646,-161.6561
-3296.8750,79.5561,11.2806,14.8065,-60.5550,-20.7434,-55.5748,18.3243,-47.6268,94.5354,33.3755,28.9795,84.7895,4.4675,44.2325,61.1370,-8.2923,83.5381,-190.3119,-18.3106,-179.8669
-3289.0625,132.7238,98.3637,70.1693,-7.1933,-1.0643,-73.1883,37.3457,-28.3669,40.3457,15.5335,84.0449,31.0608,23.3177,-47.5257,43.1555,-100.2612,66.0169,-203.3573,-35.8069,-198.0215
-3281.2500,86.4569,18.0018,57.0898,-18.2872,-14.8315,-50.2607,59.9270,-5.5656,99.7177,38.2286,33.6650,-20.1219,8.7214,-97.7492,138.7342,-113.6964,56.0454,-140.4227,-11.7517,-138.6142
-3273.4375,46.4408,-58.1118,-19.7394,-22.1396,-91.3483,-53.0912,56.7687,-45.5180,132.3484,-1.8268,-6.4634,50.9459,5.3754,9.2668,172.5661,-6.8852,86.3243,-187.0482,19.5592,-178.9480
-3265.6250,48.0379,-56.6216,19.0372,-20.3987,-15.2632,-14.3278,94.2184,-6.8758,133.5818,-0.2881,-41.9848,15.6126,-30.3650,10.8746,173.9991,-42.4829,-16.7952,-180.4156,21.4734,-177.6790
-3257.8125,-21.3529,15.8718,-18.1740,16.3385,-15.1662,-14.5752,-16.3214,-7.2400,96.8205,-0.7565,-42.5004,89.2729,-31.1011,84.4731,26.4355,-6.0945,20.0821,-146.8112,-12.6141,-141.4008
-3250.0000,13.7611,84.8725,-16.8846,50.5724,-87.5728,60.6670,-52.3586,30.8860,23.5611,-73.7350,-4.5139,89.4469,-30.3368,121.5629,-46.6204,-5.2153,54.4711,-181.5916,-48.2033,-177.6169
-3242.1875,44.0458,80.0286,11.5643,80.9548,-57.8201,89.0546,12.7659,22.1579,14.4547,-118.5720,23.6260,81.7667,-39.4208,2.7882,18.4750,-87.2051,14.0121,-111.1510,-87.6394,-112.6798
-3234.3750,37.3379,109.1771,-31.9762,110.3301,-102.0611,44.4350,-105.1008,-21.5767,-29.6354,-89.4162,-20.2294,221.0837,-10.5021,-4.9920,-25.4234,-21.2086,79.5528,-90.1113,-129.0748,-83.7305
-3226.5625,66.8411,137.5107,-0.3097,138.9022,-69.1075,40.0090,-72.7589,9.8749,-35.5168,-21.0747,11.1199,106.6021,-15.3767,-46.5767,-31.1153,-63.0134,2.3006,-128.3366,-99.3096,-125.5726
-3218.7500,-40.0448,136.4518,-3.0364,138.0679,-34.5556,74.1769,-38.8044,6.9209,-37.7854,12.8566,8.0778,176.7067,-18.6446,24.4267,-107.1928,-66.2305,-33.3556,-93.6018,-135.9476,-91.8060
-3210.9375,2.4218,178.7612,-31.4115,145.5766,-63.6530,81.6841,-105.4925,14.3106,-104.6960,20.1347,-20.6143,221.1618,-47.5608,68.7674,-136.9110,13.8933,-25.6594,-91.0590,-163.2400,-84.6777
-3203.1250,-10.5995,200.5770,-46.2785,167.5846,-78.2473,103.6836,-120.6824,36.1930,-120.1037,41.9090,1.1960,96.1205,-62.9765,53.5986,-78.1286,-0.4927,-38.4622,-67.3451,-141.0346,-63.0427
-3195.3125,-7.4665,203.5457,-44.9917,170.7461,-149.6928,141.8295,-155.7130,38.2223,-191.3547,-30.1664,39.1585,134.2368,-62.2460,54.5705,-114.1922,73.2618,34.8819,-29.5225,-171.6856,-25.2512
-3187.5000,34.8782,140.7176,-74.5054,143.1040,-105.9399,112.1720,-184.5423,45.4448,-148.3991,50.9508,9.3191,104.5646,-55.3157,61.7413,-143.0596,80.2149,-27.5697,-25.2516,-130.1431,-18.2491
-3179.6875,-31.8155,37.8470,-71.0655,110.4088,-65.2425,78.4581,-145.4201,48.6151,-109.4865,164.0155,12.4319,70.8354,-52.4353,101.8539,-139.9692,120.1099,-60.0742,-23.0535,-126.6497,-15.2901
-3171.8750,-39.0617,65.4239,-41.1754,68.1617,-35.0962,35.1889,-116.8383,41.2346,-153.1161,230.5208,4.9977,27.5576,-60.1041,57.4136,-147.4238,149.4480,-31.1274,-28.9221,-98.7012,-22.8731
-3164.0625,-38.6445,-3.3537,-41.6300,69.5608,1.7040,34.5663,-116.5955,113.5012,-81.0864,302.6686,-32.7862,-84.0749,-61.1207,-16.3892,-75.2260,111.4273,-100.5315,10.6403,-97.1036,13.2033
-3156.2500,-134.0268,6.0662,-103.8815,44.1548,-23.2979,46.1388,-106.1437,124.9672,-69.8454,277.0073,-58.3676,-35.5101,-49.9371,31.9975,-100.8201,159.6002,-90.7347,-16.2566,-52.3013,-12.5086
-3148.4375,-67.4495,37.4547,-70.1814,75.6959,10.6424,78.6553,-72.7346,121.3737,-73.6484,237.2818,-61.9982,-75.9835,-53.8047,28.3269,-104.4614,118.7119,-128.9814,-16.5308,-55.5497,-16.2642
-3140.6250,-104.6099,34.1039,-76.2233,37.4836,-33.1648,35.4151,-115.0732,115.0280,-44.1924,303.8030,-68.3753,-82.2116,-97.4246,20.8982,-73.8510,148.0616,-95.9762,46.2159,-58.5536,50.2395
-3132.8125,-106.1636,103.3550,-111.6669,71.8702,-104.3753,36.7667,-150.8115,115.2746,-80.1294,267.9309,-68.1507,-7.8422,-97.4449,22.0680,-73.6369,186.0137,-97.3710,6.1232,-58.9614,14.3510
-3125.0000,-62.9074,76.4080,-104.3089,80.0555,-96.7897,79.9181,-35.7462,158.3175,-37.2633,199.8543,-97.1170,-110.6753,-126.6657,28.0288,-30.6196,118.7644,-158.9624,56.2336,-84.5736,57.2660
-3117.1875,-137.4951,70.6093,-149.7956,110.3903,-142.0546,108.2157,-79.5275,150.5110,-8.2366,191.9275,-142.9319,26.6351,-172.7332,93.1271,-111.4414,146.6606,-128.4080,119.4809,-125.0438,122.3426
-3109.3750,-105.0771,173.8129,-150.2852,142.7246,-179.3239,107.5059,-154.3095,112.6977,-46.2070,263.9969,-143.7416,62.9547,-173.8012,55.2249,-112.2600,145.5564,-130.8505,75.8101,-127.5189,84.4268
-3101.5625,-135.3465,143.3334,-147.4666,147.3582,-139.2988,147.0925,-151.7853,152.1772,-42.8713,303.3580,-141.2467,28.5753,-207.5665,-15.3818,-72.7838,147.7403,-160.9945,118.8877,-157.6996,123.8182
-3093.7500,-133.3656,39.1129,-145.3988,149.2407,-137.0264,148.9248,-186.0097,153.9067,-115.2765,304.9648,-212.5022,104.4502,-243.0876,96.2567,-108.0562,222.1735,-123.8905,121.4289,-155.6404,125.4739
-3085.9375,-138.2298,70.0491,-111.1847,144.2734,-102.6211,145.9045,-153.0896,150.7803,-81.5253,301.7182,-215.6106,27.4884,-210.4632,130.0499,-111.1762,181.7614,-163.6304,83.5041,-90.4369,85.2875
-3078.1250,-166.2364,146.8455,-69.1215,116.1522,-97.3728,113.7312,-148.3103,155.5012,-39.9146,232.3219,-173.8691,69.3701,-204.9866,97.6898,-216.4327,150.1962,-121.5299,127.4973,-83.3900,126.9584
-3070.3125,-127.2927,115.5986,-102.1130,83.9777,-166.1814,117.5017,-180.5757,122.1663,-36.3440,199.8766,-170.1774,110.2073,-165.5649,64.2774,-175.7334,190.5826,-82.4778,125.5946,-79.4034,130.5909
-3062.5000,-173.2944,33.4061,-113.0584,108.8510,-140.9460,143.3175,-155.7963,184.8808,24.2875,188.4916,-218.4383,99.0935,-213.0932,89.9180,-76.9848,179.0223,-163.3806,117.8722,-55.3690,119.2786
-3054.6875,-206.3967,70.1170,-111.1055,110.6286,-138.8143,145.0353,-154.1081,149.4977,-83.1753,153.0044,-216.7994,210.8815,-211.7265,201.4572,-112.3383,216.3606,-126.3897,116.5336,-123.4378,120.8741
-3046.8750,-146.9930,165.3344,-84.6515,99.9065,-112.1912,134.2508,-200.9236,101.6128,-94.1368,179.0067,-190.6616,127.1781,-186.8618,227.4908,-123.1912,205.2050,-136.8987,100.3662,-169.0148,109.9807
-3039.0625,-144.7377,167.4121,-119.3504,102.0345,-109.7272,99.3142,-162.8894,66.5761,-92.2398,143.8643,-115.6790,129.3183,-148.1491,192.3729,-121.1897,170.9021,-99.5655,102.0585,-131.7390,111.9445
-3031.2500,-92.5421,184.4393,-100.1066,84.1094,-90.3263,81.3260,-143.8939,48.4959,-147.3802,88.6698,-96.7478,184.4057,-129.4882,138.2119,-139.2260,188.5487,-46.2902,85.3051,-114.5140,93.8658
-3023.4375,-67.0437,139.7638,-74.5686,73.4792,-64.6333,69.6383,-118.5930,73.7204,-85.2140,76.7673,-108.5165,136.7920,-141.5234,126.3562,-113.9561,140.4889,-91.7176,112.9026,-123.9921,119.0963
-3015.6250,-88.3937,118.2387,-95.8796,88.0008,-85.7914,48.0966,-140.1374,52.0916,-143.8881,55.0142,-93.1357,188.3267,-126.4050,141.6404,-135.5346,191.5765,-7.9987,90.8619,-110.3276,97.4855
-3007.8125,-29.1397,177.3276,-33.5909,77.1268,-59.3518,74.1541,-114.0782,78.0586,-191.9535,6.8558,-31.1567,104.4665,-100.6842,130.5133,-146.5205,144.2646,-52.6810,82.4075,-156.0720,86.4786
-3000.0000,-46.3807,124.9212,-53.8013,23.7517,-80.4170,52.7125,-98.5182,56.5270,-175.5051,23.2015,-51.6821,83.1011,-85.4670,145.8807,-94.0010,122.4550,-35.8747,133.9954,-103.3240,138.9808
-2992.1875,-60.7331,109.4182,-67.1203,43.2778,-130.5926,76.1706,-112.0627,42.8956,-190.1519,-27.5538,-29.3136,106.6408,-63.3509,168.1686,-107.5775,108.5506,18.8337,84.6947,-47.6889,88.3908
-2984.3750,-53.3291,81.6867,12.3055,86.5587,-13.0289,46.3824,-31.8581,50.0146,-109.0520,15.4285,-22.1936,39.9394,-56.4858,28.2202,-100.4119,4.3940,-78.7140,100.4101,-40.3173,95.5548
-2976.5625,-85.5240,14.3684,-19.8683,19.2469,26.9256,12.9965,-64.2566,53.5361,-105.5498,18.8119,-54.6781,117.6335,-53.2234,-5.3317,-133.8408,81.6374,-38.8692,102.8298,-2.5608,99.1325
-2968.7500,-13.5763,87.2091,-14.9000,57.0922,33.0126,18.7626,-60.5164,59.2101,-136.8958,-12.6459,-14.0137,49.4843,-48.8102,-36.7369,-128.1264,13.0425,-37.8753,36.4643,-0.6665,30.8698
-2960.9375,-17.5231,153.1570,53.1660,88.0428,101.1839,49.6371,-29.6741,52.9890,-180.1419,-91.0080,16.7516,6.4323,-18.2938,-43.0354,-134.3206,-139.4496,-41.7880,75.0271,-39.6827,61.7150
-2953.1250,-15.7740,119.8143,17.9235,54.6973,66.0449,51.2143,-100.1317,17.4709,-215.6827,-126.6684,18.2080,82.0870,19.9161,69.3754,-132.8141,-65.2370,-5.0095,68.0361,-72.0113,63.2739
-2945.3125,-7.8809,57.6293,-9.1828,-8.4959,2.0365,60.9434,18.5556,64.1050,-60.0694,-154.1667,27.7998,-19.0949,29.2724,78.9445,-51.1581,-128.8625,-67.0878,41.5901,4.8034,35.9877
-2937.5000,-83.0424,15.4001,-17.3438,20.2652,-6.0322,89.6263,47.1971,55.6972,5.5036,-162.7083,19.3444,9.6693,20.5770,70.4667,-94.5513,-100.5395,-72.2324,72.8307,-1.4407,64.6581
-2929.6875,-47.9578,-18.5685,-51.2630,57.2817,-2.8606,55.5603,-23.9141,58.5367,8.3214,-123.0000,-14.8576,49.6916,-13.8653,36.2508,-92.7005,-25.9631,-37.1280,36.7886,35.5499,30.5899
-2921.8750,-73.3171,-43.9737,-39.6371,31.8491,45.8467,67.0447,61.5175,105.9271,92.6871,-76.7421,-40.5107,-12.7398,-39.7546,-26.4032,-45.2987,-88.8296,-97.4791,16.9188,80.0779,5.0787
-2914.0625,-76.7342,-11.4251,-43.0651,63.3727,42.4908,99.4853,57.8969,29.2738,16.0095,-152.5333,-7.2135,20.7762,30.3066,43.8910,-121.9449,-128.7451,-30.8846,14.0810,76.5480,1.5259
-2906.2500,-21.8529,7.4298,14.8016,47.2014,99.4204,83.2309,41.5729,12.9258,-0.3664,-169.0246,13.3786,-69.4039,49.6714,63.4823,-65.2980,-145.3530,-46.9957,-3.4672,25.3056,-14.7159
-2898.4375,-79.5222,90.7422,-6.8897,-9.5133,77.7826,25.4332,55.6927,-8.9653,-22.2857,-191.0605,28.4131,-17.1366,27.4875,41.5302,23.7932,-57.5091,2.3348,-30.8796,38.5052,-36.4989
-2890.6250,-4.2977,95.9680,-0.6906,-40.3266,47.0298,-5.4628,98.7128,-39.9584,-16.3075,-222.2001,33.3463,-10.9539,33.2038,10.4955,102.7769,-14.7607,6.5664,-65.9032,42.5883,-67.3747
-2882.8125,-10.5709,-51.2949,-8.9924,-46.6332,39.7710,-13.8557,90.2265,-11.4483,122.1655,-157.8380,61.7755,-93.2657,24.4220,2.9604,168.2545,-23.5103,-34.7107,-38.7085,36.1595,-38.7417
-2875.0000,23.5959,-158.1014,-7.8537,-47.4880,3.9510,-12.7963,54.1868,-47.4857,86.0936,-194.0211,136.6495,-18.1232,99.0952,39.8819,58.1824,-59.8046,69.4523,-74.9151,35.1713,-74.6511
-2867.1875,111.8099,-104.8441,84.3292,-30.2909,22.1703,5.3119,110.1978,-28.4742,68.0691,-248.1570,155.5726,-109.9260,117.8239,-51.1352,77.1610,-152.0471,51.6590,-84.9032,52.2202,-92.5064
-2859.3750,77.6230,37.0180,84.1084,-63.4933,58.9808,-30.9791,72.8112,-65.8619,104.6516,-175.6896,118.0965,-147.1377,80.1568,-125.5466,113.7381,-152.6855,53.4502,-51.6650,53.8582,-55.7517
-2851.5625,85.0737,44.5310,57.5220,-57.0454,69.4247,-57.6152,9.0736,-55.5906,77.8911,-92.5648,128.2674,-136.6969,90.1441,-152.3096,86.9598,-68.6581,60.8831,-119.7311,61.1389,-119.3372
-2843.7500,110.3221,-106.1487,119.7307,-31.7944,94.6509,-69.4471,34.1380,-30.5111,102.9250,-67.6411,153.2424,-221.4582,114.9356,-164.2671,111.9791,-80.8190,50.1066,-89.1657,50.2080,-94.1173
-2835.9375,104.5664,-182.8264,74.9324,-37.5455,86.8614,-77.2805,-9.7974,-75.4249,57.9670,-75.7125,145.2118,-45.2235,69.7335,-61.2091,30.0018,-51.9779,150.3190,-62.6184,44.2673,-64.8824
-2828.1250,187.0485,-29.2528,128.3653,-25.0455,66.3023,-60.8615,5.5096,-96.0901,37.2627,-133.5330,124.4254,7.2725,85.7883,-81.8815,9.2779,-146.8727,162.7774,-120.2795,21.5668,-122.3902
-2820.3125,177.1809,30.9808,151.4424,-34.8930,52.3825,-37.7845,65.4683,-110.1009,97.2100,-147.6968,110.2848,-79.5882,71.4940,-169.8978,69.2010,-197.1135,117.8756,-57.3644,11.5077,-62.2431
-2812.5000,109.1521,-1.9258,79.3595,-32.8881,-18.6980,-35.8577,-5.7214,-71.2577,62.0124,-72.0082,74.9896,-40.5941,36.0507,-131.0541,33.9709,-85.4965,154.8133,-58.1641,48.2827,-60.2337
-2804.6875,115.2154,39.2811,50.3664,8.2227,25.3030,-27.8268,75.1788,-26.3142,106.9079,-64.2169,45.7899,-106.4912,6.7165,-123.0961,78.8337,-151.7675,54.8440,-83.8315,54.1414,-89.1197
-2796.8750,47.2735,42.4930,15.3662,46.3387,63.2925,-26.7850,113.0837,-25.3634,70.8035,-100.4277,-26.4073,41.6078,-28.6127,-48.1244,42.6922,-187.0390,57.8594,-42.7852,21.9867,-50.9981
-2789.0625,87.7751,-21.8378,20.8032,16.9085,32.7187,-21.2875,44.4340,-56.9570,39.1434,-58.1922,-58.1615,84.1669,-23.4882,-5.6904,11.9909,-108.8508,63.3193,-42.2064,27.2674,-45.4129
-2781.2500,54.4717,15.0440,-14.5705,-16.3163,34.3222,-56.5823,82.9779,-18.3428,114.6796,-19.7586,-19.7205,12.9227,-59.1539,-4.0457,13.4894,-107.4508,29.9678,-41.5555,63.7352,-43.6197
-2773.4375,65.7530,61.5284,-3.3539,-4.9381,45.5118,-45.2720,57.1205,-44.1233,51.8167,-82.7216,28.3207,24.2760,-48.2156,-29.7809,-12.4109,-96.4413,41.2024,-30.0431,39.7913,-32.2174
-2765.6250,74.9276,70.9163,5.7503,4.3440,17.5850,-36.0553,30.1593,1.9987,24.8521,-73.7877,0.2517,-77.4562,-39.3680,-20.5986,69.5832,-87.5212,15.3277,-20.6245,13.7296,-22.9049
-2757.8125,8.3923,39.6082,9.1430,42.9310,57.9465,4.4689,33.4953,5.4281,-8.8095,-143.5406,-33.5265,0.1116,-36.2136,19.8872,36.8728,-84.2971,18.7372,-12.5290,-18.0418,-19.2850
-2750.0000,85.9902,47.4582,89.6749,50.6733,65.4471,12.1511,3.9830,-23.9844,-75.3215,-246.1451,47.8443,7.8337,8.0988,-9.4693,7.3043,-113.9221,26.2849,-3.4573,-46.6722,-11.5074
-2742.1875,94.4799,-14.7823,60.0973,-11.6852,34.8345,18.7391,10.3664,-17.4952,5.0636,-202.8497,91.1119,-59.5460,51.3247,-76.9085,13.6333,-106.6411,-1.2852,37.7510,-3.4137,32.1795
-2734.3750,60.1062,22.1277,62.6550,-9.8922,0.3614,-15.5186,-24.0982,-14.8477,-29.4019,-200.4020,92.5289,-19.7791,52.7135,-74.1815,16.1042,-68.2016,70.2793,1.9258,-2.0138,-1.9760
-2726.5625,108.3731,70.6883,150.8525,3.5526,88.5248,-37.1251,28.0902,-36.5454,-14.2173,-222.3053,107.5922,-115.3612,67.7624,-132.7954,67.2178,-127.0952,13.4859,-15.8779,-23.9717,-23.4771
-2718.7500,76.1320,-32.2455,114.5451,6.4932,90.1801,-36.2253,-8.2207,-35.7368,23.4685,-184.7082,72.1532,-113.4526,68.3233,-94.8947,141.8331,-125.4856,16.1789,19.6340,-57.4433,14.5314
-2710.9375,77.2324,-100.8243,119.5747,7.7862,57.1652,-30.9735,-40.1891,-67.5801,-8.4949,-180.7652,113.0655,-72.1844,73.2460,-15.6338,109.7960,-84.5158,87.2228,-50.7863,-20.5792,-54.1014
-2703.1250,134.7840,-78.9500,141.0478,-5.4623,115.5829,-9.2673,54.2915,-82.9729,12.9871,-195.3779,134.4278,-124.4658,94.6339,-67.9216,94.2050,-137.0871,38.7124,-25.6479,-34.2766,-32.2805
-2695.3125,82.1786,-24.2236,85.3672,-21.8572,23.8438,-27.7039,-0.3798,-101.5088,-5.6749,-177.1397,78.6355,5.0942,38.8821,-86.3439,112.4591,-44.8084,127.0358,-12.3460,-16.1403,-13.5996
-2687.5000,137.5592,65.5127,71.6763,-2.2514,-26.9087,-4.1364,-14.0597,-78.0447,-19.3420,-81.8961,64.8354,-45.3341,25.1422,-136.7456,98.7012,14.4828,76.3511,-66.5708,-32.0158,-63.9158
-2679.6875,83.8840,48.2058,86.9260,50.3056,25.2803,11.3862,-35.7819,-25.6220,-41.0592,7.3002,79.9825,-29.8231,4.3653,-121.1874,40.8941,-43.2705,23.5980,-10.3516,-85.9557,-11.2782
-2671.8750,48.6937,13.3959,13.6638,50.3615,-49.0413,48.4109,-72.9946,11.3027,-115.2716,44.0000,43.6243,44.1859,4.1033,26.8858,-70.4110,30.4829,23.3318,-12.8893,-51.4085,-11.1283
-2664.0625,6.2444,6.3429,43.1391,43.1650,-19.6319,41.1871,-43.4640,76.9747,-48.7338,72.4529,36.0101,-74.0538,-3.3941,19.7234,-40.9647,-13.9999,-19.1911,-14.3361,11.8826,-18.2244
-2656.2500,22.2847,22.7876,20.1083,24.4646,-5.7352,18.4669,-29.4297,55.1538,-71.6897,87.4109,12.8963,14.1981,-26.3780,-76.9301,-64.0224,-36.9745,31.7706,38.5525,27.6665,33.1854
-2648.4375,74.5592,75.4780,2.3117,42.0158,-23.6028,1.0024,-47.1473,37.5883,-89.4025,105.6222,-4.9765,-3.2868,-44.0997,-130.3187,-81.8356,-17.6812,48.9727,20.3473,44.6841,15.8531
-2640.6250,15.1240,86.4735,12.8022,52.8709,-50.1857,11.8460,-36.5719,85.3306,-41.8159,153.1432,5.4403,-66.4714,-33.5101,-119.3937,-71.3518,-44.0748,24.4563,32.2675,19.9916,26.8232
-2632.8125,69.9713,36.7699,32.5795,73.0294,-66.4761,31.9935,-89.6918,31.3803,-94.9264,135.9659,-11.8456,-9.3561,-50.6092,-63.1554,-87.5713,12.8364,79.2251,50.0554,-31.4070,47.0992
-2625.0000,109.6095,5.8603,35.1484,77.9846,-99.9769,71.9456,-123.0062,34.2304,-55.2410,139.5870,-45.3333,-42.4401,-119.8919,-23.0954,-47.9969,15.5570,47.7798,89.4299,-27.0146,87.1814
-2617.1875,19.5362,-12.7580,-57.9929,23.2379,-158.1859,14.1999,-107.0207,50.3824,-3.2501,191.5159,-65.5248,-26.2257,-140.8601,30.2804,-32.1194,142.5847,63.6221,99.3338,23.6671,103.5676
-2609.3750,26.2975,29.4792,-51.2909,-38.6615,-151.5534,-14.6940,-27.1896,57.3857,-32.4158,235.2985,-58.8625,-55.1515,-133.9635,0.5178,-61.3965,222.4729,0.3092,105.4824,65.1840,110.8070
-2601.5625,-1.8392,1.8277,-84.4929,-68.4653,-146.8343,-83.4880,-22.2604,61.4887,81.5142,350.1790,-55.1015,-50.9768,-166.9536,-30.1350,15.4282,226.4700,-28.9138,139.5633,1.7887,152.1518
-2593.7500,-17.9389,20.2225,-137.6605,-49.2235,-200.0823,-99.2323,-75.2829,45.6450,65.5015,297.1150,-34.2918,6.2403,-182.8799,-9.7203,72.3086,284.5298,-9.0967,118.5086,19.4388,136.5516
-2585.9375,-7.4960,31.1571,-127.2838,-73.4313,-189.7955,-125.4214,8.2486,56.3521,150.0323,381.5967,-60.9313,-55.9945,-172.2365,-108.7402,119.7392,258.1501,-104.7342,129.2767,29.6288,147.5040
-2578.1250,-114.6555,-39.5138,-166.5077,-109.2411,-156.1148,-127.2084,42.1854,54.4610,183.9656,451.4786,-137.1687,-58.8381,-174.1718,-74.3557,116.5711,292.1699,-105.9822,165.3479,63.2066,181.8637
-2570.3125,-110.4292,-69.7840,-197.3403,-34.6542,-224.0482,-84.5978,11.5194,59.9708,190.3006,384.7640,-132.0083,-15.2758,-168.6901,-30.5636,122.8037,298.5963,-101.8338,134.0506,32.1788,151.6258
-2562.5000,-100.3030,-24.1623,-189.2820,-24.1717,-216.0884,-2.0871,56.7616,105.3804,235.5368,281.9521,-122.9468,-43.8121,-159.2877,-58.8611,130.9366,159.9283,-126.7972,186.2855,7.0450,197.2854
-2554.6875,-160.1406,58.5057,-252.1781,22.3534,-242.0805,9.4705,-41.9370,44.8365,172.8325,257.1893,-185.8373,77.6996,-184.8178,26.8983,105.1246,171.3124,-80.7212,193.6286,17.9527,209.0005
-2546.8750,-139.8868,112.2822,-191.9807,41.9758,-181.9840,32.1262,-18.5401,66.3864,159.2242,206.5194,-162.6278,27.3149,-162.2244,48.7701,54.4120,83.8079,-96.5505,149.0779,2.9497,158.8146
-2539.0625,-126.5831,57.1028,-143.7344,56.6424,-96.8439,44.8344,29.9148,78.9883,133.6625,143.8929,-114.3633,-34.0351,-149.5601,25.7045,-6.2506,23.3536,-83.3415,207.5358,-20.0054,207.6782
-2531.2500,-111.2915,37.9123,-126.4944,71.3019,-116.7073,25.5437,-26.6193,23.5908,41.1040,124.2584,-134.1027,56.6137,-95.8721,6.6503,-25.9178,75.9059,-33.1414,185.7322,-39.9631,188.5473
-2523.4375,-91.0057,57.7203,-68.2652,56.9564,-95.5787,47.2488,-4.1509,45.1926,26.5479,109.6222,-112.8429,-30.7398,-73.1650,28.6061,32.4132,25.4713,-82.9474,173.9438,-19.9208,174.4129
-2515.6250,-112.5822,1.6695,-92.8882,0.7562,-47.3071,23.1076,7.4745,20.9478,-34.8553,85.1423,-100.4333,-18.9492,-61.2840,77.7144,-29.0990,110.1845,-34.6161,223.2061,-6.7310,223.4289
-2507.8125,-94.0192,-14.2422,-73.3690,-15.3007,-63.8904,7.1103,-8.7487,41.8503,-51.1114,104.8170,-116.8716,-35.0009,-77.2348,61.9884,-45.4639,168.0590,-51.1379,207.3201,11.6010,207.5967
-2500.0000,-94.3064,-14.0094,-73.7047,-15.2161,-27.3252,7.2629,28.1823,77.9024,22.7824,68.6448,-117.1627,-71.9118,-77.0146,-10.5813,-8.6826,94.0932,-51.5176,212.0376,11.0817,207.9109
-2492.1875,-89.0053,-8.1790,-31.4415,-9.5369,-59.1581,13.0145,-3.2790,10.5533,-8.7245,1.0711,-111.8494,7.7751,-71.1737,-4.5456,33.6946,63.7286,23.6945,217.3127,16.1610,213.8244
-2484.3750,-10.1542,1.1988,-22.6289,-35.3096,-50.4498,-14.6888,-31.1900,-17.2512,37.3182,10.0460,-66.9849,-19.9901,-61.7616,5.0492,78.6258,-0.0811,-2.5472,221.5647,24.7820,223.2868
-2476.5625,-32.2114,-55.3347,-44.7215,-56.9928,-35.6512,-73.2906,-15.9977,-38.9583,87.4634,-11.8779,-52.0200,32.3378,-83.2294,56.7634,56.6642,15.2131,46.3065,199.0306,72.5016,201.8468
-2468.7500,20.3692,-108.2342,-26.1695,-75.0300,-54.2046,-91.2418,74.8552,-57.0151,106.2531,42.8410,-70.4051,-59.6845,-64.0233,3.1465,111.3518,33.1679,27.8017,183.0479,123.8657,184.0533
-2460.9375,-40.4021,-97.4939,-89.9660,-170.4223,-44.1108,-116.5437,159.3603,-9.4190,227.6938,163.2052,-133.1373,-122.0658,-127.1407,-59.8226,195.6916,43.7744,-33.0661,192.2702,169.8775,194.9087
-2453.1250,-86.0402,-142.6070,-98.6186,-179.6704,-52.8697,-125.6970,151.0210,-17.6747,182.2891,154.7219,-105.7166,-57.2950,-98.0854,-67.6409,150.1874,108.5318,-7.7932,147.5564,229.0333,149.9122
-2445.3125,-51.6337,-248.6700,-62.2229,-179.8745,-16.5806,-88.7980,187.7340,18.1218,181.9240,117.2874,-32.2424,-167.4720,-60.9611,-104.4046,186.7241,108.3519,-44.4794,152.1272,193.2372,149.9596
-2437.5000,-101.3794,-227.8913,-113.9796,-159.2356,-68.4364,-66.0518,136.3020,3.7652,167.4050,176.7005,-10.9157,-108.8055,-74.9647,-8.3076,135.1086,131.0256,10.6787,131.8137,108.2888,135.8573
-2429.6875,10.6653,-45.3178,-102.9424,-82.8041,-94.4944,-91.5127,74.6673,-21.7986,68.6821,150.9109,0.2177,-61.3342,-101.1503,40.6115,109.2910,105.5065,87.6384,28.3157,9.1383,37.5508
-2421.8750,69.0140,13.5486,-79.6047,-59.0783,-35.2598,-67.6750,61.3440,1.9321,55.2575,101.4128,60.6562,-109.5675,-77.0117,-46.1648,96.7814,19.2888,75.8911,55.8730,-38.7157,61.5379
-2414.0625,78.1554,23.1996,-70.4671,-49.5626,-98.2253,-58.0437,-3.1685,-25.5360,-9.3615,36.7170,69.8995,-64.0103,-67.0497,0.8582,69.0757,65.8754,119.9368,62.8795,-64.7734,71.3254
-2406.2500,141.5401,158.0887,-76.0825,-20.8070,-67.9437,-26.1686,29.5727,-29.7642,-50.7320,-4.7298,101.3946,-141.2004,-70.8136,-2.8614,64.6246,24.7245,78.2295,22.2632,-106.5764,30.3555
-2398.4375,46.1225,168.1737,-67.4922,-10.8612,-23.4601,-18.0955,37.5260,-57.7946,-42.8955,3.0188,73.0922,-96.2069,-62.3530,5.6265,72.3790,32.7670,-18.2871,67.2860,-96.1777,75.5783
-2390.6250,-32.8048,19.7390,-111.4042,-18.4224,-67.4790,-25.5256,29.9871,-29.3282,-50.5526,69.2579,28.2955,-31.7113,-32.3723,72.6206,64.6346,135.3134,-61.3021,57.1855,-70.2810,68.3003
-2382.8125,-72.4311,-124.4055,-116.0186,-22.6875,-36.2041,44.3405,99.7480,40.4304,56.0888,27.7909,23.8046,-107.9100,0.9318,68.9202,97.1951,58.1632,-136.0195,61.0397,-40.0828,64.3131
-2375.0000,-148.8607,-130.3572,-87.4323,6.2384,-43.7246,73.4013,91.7192,32.3877,47.9355,-89.4796,52.5223,-78.9159,67.4542,135.4198,14.9676,13.2073,-142.5400,93.3254,-80.6838,93.5189
-2367.1875,-194.3418,-70.3651,-96.8935,32.1067,-53.2925,102.4039,9.6444,24.2869,-34.2727,11.2016,7.1889,-51.9621,132.9461,163.8702,-30.3119,79.2044,-188.1079,42.7178,-126.3359,48.6687
-2359.3750,-262.5703,-68.1289,-130.1054,104.2210,-12.6070,179.6525,-23.1759,65.4281,-104.2275,88.1350,-62.8913,-10.7676,100.7118,315.5675,-100.3388,119.4509,-256.4301,11.0880,-159.7386,16.0585
-2351.5625,-298.0064,-33.1024,-130.5096,139.1279,-50.1174,216.6968,-23.1916,101.3651,-213.3825,-22.1372,-100.1641,99.2253,175.3013,427.0691,-172.5665,119.4965,-291.9523,12.1486,-196.3412,16.2419
-2343.7500,-319.2881,-53.9427,-189.7629,83.1778,-109.4767,230.8870,27.9442,152.4443,-162.3908,-8.2606,-49.2826,77.3673,300.0612,404.7289,-195.6444,96.6996,-384.3233,22.1030,-182.7927,30.5691
-2335.9375,-397.9734,-61.2011,-197.4160,75.8121,-81.2395,186.6681,93.6921,72.1223,-133.7916,21.2177,17.2026,106.0995,367.4402,397.9955,-240.1036,53.5051,-357.1012,13.5716,-190.6400,23.4887
-2328.1250,-288.5168,-57.3215,-120.9236,79.5833,-40.8526,153.5886,61.6013,38.9437,-166.0322,-49.1575,20.8443,109.9822,444.9908,439.4021,-273.3951,-53.5384,-317.7221,18.2838,-222.3338,27.5530
-2320.3125,-285.9094,-54.2917,-156.2760,11.4961,-76.3103,154.6497,25.6653,39.8984,-128.1224,-120.3845,21.6444,75.0052,447.7185,513.9571,-198.5364,-52.4296,-280.1919,51.6600,-219.8725,65.7553
-2312.5000,-261.5584,-64.5345,-201.8694,2.1465,-158.0011,146.4507,17.4877,31.6009,-137.4471,-129.8559,13.1949,102.7564,476.2145,506.2555,-169.9201,86.4272,-255.9254,0.4053,-195.6452,20.6988
-2304.6875,-237.8687,-110.4547,-176.1085,-8.8669,-97.3297,135.5978,79.6749,57.6462,-148.4188,-104.9846,2.0984,91.8620,466.0852,458.9078,-144.9510,39.6382,-302.3084,-5.3790,-171.0567,9.9780
-2296.8750,-294.9727,-62.2003,-162.1336,-30.6959,-82.4439,113.9389,22.0749,35.8860,-170.1822,-126.9226,-19.7773,218.1584,482.1820,548.7536,-202.7734,-18.9563,-254.4961,-29.6956,-193.2661,-11.5555
-2289.0625,-250.5797,-16.4587,-110.6543,13.9609,-67.0499,165.7676,-37.0265,-23.3863,-229.4352,-222.3644,-5.1461,269.9588,534.7985,527.1096,-226.0853,-77.0510,-210.1830,-122.9281,-184.9750,-106.5965
-2281.2500,-225.2755,-60.8349,-47.2752,4.5063,-3.7637,120.4866,27.7816,-32.7713,-127.7904,-231.9148,22.3991,186.6621,563.3336,445.3707,-198.4950,-123.2430,-219.9584,-127.7392,-158.7728,-115.7502
-2273.4375,-219.7120,-89.9738,-39.6368,-24.7120,40.7818,54.4434,35.8547,-97.9138,-83.8841,-261.2181,30.2018,194.5963,609.1379,379.8647,-153.6392,-115.1884,-143.4818,-158.3558,-153.3148,-144.6616
-2265.6250,-83.7027,-129.6779,67.4550,-99.4890,73.7734,14.8433,69.3751,-137.6165,-86.5262,-264.0764,137.4600,44.9865,680.4128,230.8119,-83.3238,-191.6819,-78.5442,-195.0473,-123.4028,-184.1333
-2257.8125,-71.4289,-187.1367,116.8039,-122.0177,160.0226,-46.5142,82.1427,-162.0755,-73.9281,-324.6897,186.9772,57.6166,730.9581,133.0076,-70.7565,-215.9354,-30.3421,-178.7654,-111.2335,-171.3736
-2250.0000,33.2991,-223.1533,154.6188,-123.1050,160.7419,-82.4287,46.3734,-235.0981,-72.8773,-470.8575,187.9507,94.6913,732.9695,171.6445,-69.7405,-214.7449,73.3145,-214.7749,-76.6130,-207.1744
-2242.1875,71.4348,-185.7786,231.8380,-155.8013,237.8622,-77.9547,88.0016,-267.7350,-105.4240,-503.6299,191.3300,25.1796,737.3969,176.6677,-28.3102,-284.1451,76.3794,-242.6390,-39.5913,-239.5901
-2234.3750,91.0259,-200.9580,251.5086,-171.0598,294.4384,-95.0417,71.0857,-284.9278,-159.5098,-446.9563,211.1664,45.1128,685.2906,86.1390,-45.4069,-190.1051,95.8886,-222.1451,-55.1137,-219.5706
-2226.5625,111.1592,-215.5937,236.7366,-150.7753,279.5726,-109.5923,19.7235,-188.5828,-137.0444,-241.7353,123.5576,30.6040,634.7438,-74.8327,-59.9555,-57.5157,9.9628,-238.1328,-70.0857,-234.0143
-2218.7500,34.5572,-150.9941,194.2259,-121.2520,236.9683,-77.9034,14.6146,-120.9970,-105.3355,-210.2711,118.2112,62.3410,556.4673,-5.5601,-102.2602,-99.6619,39.2869,-241.5563,-75.7960,-239.2257
-2210.9375,116.6109,-68.7721,242.3786,-110.0883,248.0200,-103.5695,-9.8356,-182.7650,-167.9696,-273.1659,55.5253,147.7136,495.8588,42.3503,-164.9072,-125.1579,121.2670,-228.5976,-64.8463,-227.7995
-2203.1250,145.5157,-75.7106,234.3860,-116.0813,276.9232,-111.3877,-17.4355,-190.6915,-101.7593,-244.2167,47.6953,29.9444,415.1128,-37.8909,-61.6977,-95.7970,79.1022,-199.0606,-36.0412,-198.5409
-2195.3125,101.1261,-48.9479,189.1028,-90.3810,194.5360,-46.5160,-26.3237,-126.9266,-110.8425,-253.5657,75.5752,20.8679,334.0788,-156.4458,3.2227,-30.7404,105.6359,-204.9744,-10.5338,-207.5997
-2187.5000,150.4347,-34.4915,203.5288,-39.9911,171.8585,-68.9585,-11.5083,-112.4706,-96.2194,-239.2165,53.1611,35.4995,275.7600,-141.3038,17.8502,-52.9883,83.8791,-189.2863,3.6796,-192.9727
-2179.6875,95.1077,-89.6977,145.3116,-95.2568,150.5380,-126.0564,4.6581,-132.6760,30.7422,-149.5216,33.1082,87.4866,182.8068,-14.8099,33.8283,-36.8898,99.4797,-179.8693,54.2502,-177.0125
-2171.8750,124.2305,-25.4741,140.5509,-137.0820,145.6782,-167.7142,0.2822,-174.4322,25.1648,-118.3698,64.5160,156.9131,142.3142,-55.8725,65.2641,-41.3414,128.5267,-227.2072,47.2816,-218.6159
-2164.0625,155.2013,40.5846,171.6373,-106.0648,213.6658,-136.5298,31.7658,-143.3447,-16.5571,-87.3552,22.7749,77.1852,100.6799,-208.0900,59.5640,-83.9373,88.4293,-186.1953,78.1757,-187.3888
-2156.2500,102.2793,58.7301,152.8307,-87.9572,194.7643,-118.2515,13.3606,-89.1578,-35.1602,-32.2454,-32.8591,95.5388,10.1587,-299.2110,4.9798,8.5624,106.4284,-162.3488,132.1733,-169.0797
-2148.4375,123.9562,79.4650,140.6290,-66.2604,182.4602,-57.3853,1.5529,-64.3813,-10.1576,-7.5420,-7.8805,83.4994,-74.7517,-237.7420,-6.9866,-40.3283,57.0339,-211.1776,152.7771,-218.1788
-2140.6250,48.2896,39.8393,134.0794,-35.9243,175.8044,-26.8767,32.3971,3.0355,56.4936,-51.1864,22.7613,4.1173,-117.0057,-132.6249,59.7039,-156.5668,17.2964,-175.6302,148.0449,-187.6474
-2132.8125,20.4727,12.0420,104.3895,-28.7490,146.0163,-19.5262,3.1083,10.3003,28.0091,-43.9670,-43.7297,48.5655,-144.3999,-161.6758,67.2626,-75.9650,59.4012,-167.0112,190.1767,-180.2817
-2125.0000,77.7102,-0.7329,128.7570,-41.5403,133.2895,-32.1441,100.8721,70.6025,88.5898,17.3021,-93.1640,-74.9393,-192.7341,-284.6901,91.8792,-51.2982,46.5720,-171.8866,283.3742,-192.8806
-2117.1875,40.0638,-39.4244,124.2355,-45.2448,91.6738,0.3231,96.7420,102.9998,121.2821,12.6670,-97.4916,-42.3586,-269.9552,-214.6143,51.6152,-18.5324,78.8478,-138.3983,244.6833,-160.3982
-2109.3750,54.9692,-23.5778,67.2755,5.5882,35.6276,17.3260,-32.8314,119.9350,64.5285,65.5825,-80.2506,11.7735,-288.6172,-123.0022,-5.0903,-1.2247,93.6829,-164.5828,224.5514,-180.3804
-2101.5625,66.3382,22.7187,80.7782,51.8632,85.0441,30.7657,18.0446,133.3093,41.2226,78.9456,7.4526,-85.6421,-310.8236,-109.9569,-28.3518,-98.4703,69.9857,-182.6710,235.8828,-203.9336
-2093.7500,78.7759,70.0548,93.3442,29.1848,60.5201,43.2464,30.9742,145.7309,-19.0238,91.3610,-16.7816,-73.0283,-332.9747,-132.8823,-52.5570,-48.6727,118.3457,-169.1011,213.2746,-191.4538
-2085.9375,123.7220,78.8705,65.4166,38.0005,33.4989,15.2229,3.4003,154.6470,-9.7595,137.2683,-44.5100,-100.9109,-322.6204,-197.3084,-6.2515,-2.3732,127.2144,-163.7965,187.1704,-182.4862
-2078.1250,85.4779,6.4740,63.3007,35.6079,31.2853,12.9926,38.6236,152.3472,25.3247,97.9763,-9.4352,-102.9925,-323.4640,-161.9386,64.8660,-41.2705,124.8817,-165.2857,184.8754,-184.7371
-2070.3125,134.1248,-16.0384,76.0921,48.1067,-30.0173,25.6473,-22.2527,90.9468,1.3369,37.5967,40.5460,-53.1735,-273.4107,-111.6850,41.8989,-65.2649,172.4547,-157.1358,162.4890,-172.1033
-2062.5000,152.7850,37.4447,96.8908,31.5933,-9.3164,9.2870,-38.1251,74.5341,22.3535,94.2218,60.5335,-106.3503,-251.3573,-164.4441,25.9353,-81.2606,156.0409,-175.7137,146.1185,-188.4848
-2054.6875,140.5569,96.0222,123.8026,19.1738,53.5053,-37.9783,25.1122,27.2151,11.4769,83.9463,50.6252,-79.4515,-223.2029,-248.1145,-20.9185,-54.1668,213.7276,-220.7736,133.8660,-235.7793
-2046.8750,214.0305,63.2838,164.4283,22.4454,131.0371,-34.5518,29.0562,-5.4130,15.3041,50.3600,91.4258,-112.8531,-181.3433,-354.0913,18.9344,-87.3746,182.1230,-215.4478,137.3289,-232.3860
-2039.0625,145.3153,29.3277,128.8662,23.5067,95.3811,-70.3348,-5.1915,-41.2514,53.9375,88.5735,93.0374,-74.4642,-178.6773,-279.2879,131.6115,-85.7856,183.3255,-222.3460,103.6055,-231.2101
-2031.2500,153.5023,38.2456,140.2108,32.4601,70.6393,-95.2368,6.4674,-103.1940,29.4910,26.7009,105.5543,10.8132,-129.1152,-229.5986,143.2149,-110.3010,227.4337,-287.3130,111.7981,-293.1455
-2023.4375,231.6921,45.1378,184.5661,3.4025,150.9044,-88.1491,88.1252,-96.1435,74.0495,-40.1684,113.0730,-54.9085,-120.5534,-332.9151,150.8295,-176.8048,234.5590,-273.2135,119.0107,-286.0992
-2015.6250,237.1979,-20.6744,153.2309,-26.3670,156.4826,-119.7732,57.0957,-127.7935,79.9193,-70.7356,118.8917,-13.3460,-113.6978,-326.9469,83.7579,-97.0099,344.9853,-268.5203,159.5384,-280.7686
-2007.8125,291.1039,-1.0806,176.3037,-42.7456,179.4688,-134.0061,80.4620,-142.0452,66.1951,-85.8939,141.1128,-64.3739,-89.4548,-266.5914,106.0829,-110.8099,293.8228,-322.6604,144.4729,-332.0473
-2000.0000,258.5721,-34.9338,176.9314,-110.5714,180.0059,-133.6931,154.3668,-141.7512,140.0083,-121.4884,105.8870,-62.8409,-87.6704,-228.6904,180.9554,-110.0498,226.2178,-287.1998,145.9646,-294.7958
-1992.1875,215.6453,-78.1980,131.1679,-83.7975,97.1523,-143.7878,108.8796,-114.8570,167.4365,-94.4644,22.2682,0.2835,-96.2990,-201.2131,171.4406,-9.6912,253.2103,-264.0050,103.0643,-267.9559
-1984.3750,233.7148,-60.4703,149.4079,-31.0284,115.3024,-88.8910,53.3911,-96.9676,149.8668,-76.4344,40.6548,-91.5822,-76.9354,-219.7492,153.9334,-64.3271,271.2135,-242.1172,86.1779,-250.1285
-1976.5625,212.9019,-46.6629,160.7542,18.8386,126.5627,-113.8998,65.9997,-158.9758,161.4020,-28.2912,53.1497,-80.3659,-64.4772,-281.1961,165.5402,-89.8583,250.3189,-158.9144,-4.5995,-165.2183
-1968.7500,225.0399,-34.9198,134.0582,-5.3516,100.7809,-140.9702,2.5608,-186.0377,134.8933,-18.1911,63.6000,-33.2047,-52.0780,-269.6948,176.1049,-42.4335,227.3858,-119.7226,-28.4159,-118.3659
-1960.9375,186.3981,-2.9750,130.5709,-8.3518,133.2040,-145.8585,72.3175,-153.9134,94.5847,-22.8903,59.2608,-73.8393,-55.4830,-165.0093,171.8745,-82.7971,118.6688,-86.0406,-31.0242,-86.3272
-1953.1250,102.3709,17.5622,112.6979,-22.7600,152.2375,-90.1551,54.6791,-135.1892,3.8853,-76.9792,41.5336,-17.8875,-35.2995,-71.7497,118.2586,-63.5708,68.5584,-29.4228,-45.0150,-30.7005
-1945.3125,126.5028,-28.7632,62.9829,1.9796,101.4254,-67.3120,5.1896,-75.3247,27.3429,-16.9288,-8.0340,-68.7708,-47.9685,-194.3568,68.7972,-3.2027,23.6213,33.0701,15.1634,29.0666
-1937.5000,28.1014,12.3566,-6.2657,43.1638,70.0759,10.9681,-26.8506,39.9770,32.2506,61.5774,-76.1415,-27.2115,-114.1942,-225.5298,-0.2019,1.6083,-40.8571,79.1413,56.8112,70.2672
-1929.6875,11.6051,66.3605,11.3974,132.2425,13.6462,65.1386,-80.9847,94.1776,-22.9268,115.9931,-168.3439,27.2361,-205.5280,-170.8193,-91.2854,19.3116,-21.4309,136.9548,-29.6293,124.3548
-1921.8750,-3.4820,84.7492,-6.5274,150.7093,-4.3751,81.6961,-173.7161,110.7700,-4.7005,132.8074,-150.1327,9.0800,-261.4661,-43.7290,-146.9607,37.4233,-1.5925,186.8914,-80.6503,177.8303
-1914.0625,22.0875,144.7814,-54.7933,175.8118,-89.7258,70.8958,-221.7906,63.0093,-15.8041,158.2756,-88.2614,70.5481,-270.7625,-18.0156,-157.9733,27.1828,57.9019,204.0083,-125.0010,202.9451
-1906.2500,72.6605,159.8085,-41.0491,154.9085,-75.0663,48.0813,-207.8610,40.2356,-1.8943,208.7491,-73.3867,48.0225,-256.0784,-151.3123,-106.9723,40.9416,3.4105,252.0311,-109.3414,253.0468
-1898.4375,1.0079,158.5792,-116.5468,83.7517,-114.6525,8.0091,-173.1871,74.2012,69.7733,242.9725,-112.7605,45.2476,-294.6584,-116.8595,-72.2017,75.4479,-32.3185,282.4037,-39.9269,286.8842
-1890.6250,-5.8408,151.1310,-158.2388,77.3975,-193.4367,39.7312,-140.7174,104.9701,65.2503,164.0134,-117.3236,77.2673,-298.4556,25.3717,-40.6179,70.7578,-39.2443,238.0509,-11.7056,244.5173
-1882.8125,-15.8306,70.5344,-133.0735,65.9016,-131.3636,64.3036,-115.4120,93.5866,90.5650,151.9124,-55.0321,-8.8508,-272.4189,50.4327,-15.1927,21.9268,-84.3045,264.9886,-21.6302,268.9904
-1875.0000,-65.8969,54.8578,-149.9938,85.3065,-185.3758,46.7682,-132.2060,76.0962,36.7748,135.7116,-34.8371,84.9353,-214.5034,-2.6268,-67.8726,115.9890,-64.4605,281.4596,-71.6472,288.3576
-1867.1875,-15.6671,105.4863,-132.6090,101.0041,-168.0829,63.5241,-151.7051,92.9022,-55.7102,42.8294,18.6485,138.0326,-196.3075,-22.4040,-124.2479,132.3552,-84.3063,261.9443,-91.3507,268.0219
-1859.3750,-76.4783,79.0498,-124.2714,109.6537,-159.8370,108.2236,-179.2654,137.6608,-47.2341,87.9103,-45.9122,147.0817,-224.1798,58.7496,-115.6666,104.6849,-180.1978,307.8511,-82.0891,312.6243
-1851.5625,-175.4843,49.4022,-190.1238,150.1021,-151.7770,115.7208,-208.0177,144.2222,-75.9397,131.8046,-74.6696,153.9167,-215.2710,103.6916,-107.2757,184.8013,-174.2852,277.1819,-75.0235,283.0230
-1843.7500,-145.1252,44.1079,-155.6249,144.9025,-117.3655,111.5574,-137.4287,140.1207,-42.2973,165.0424,-41.0709,41.1062,-181.0253,-10.0171,-72.5339,145.2731,-179.0045,241.4541,-44.5975,242.7677
-1835.9375,-156.7533,66.8077,-95.1154,62.6997,-56.9470,61.3938,-76.8428,91.0241,-54.6515,151.2911,-17.4646,27.2790,-192.7952,-59.7398,-48.7897,96.7442,-120.7228,267.9633,13.8443,265.5031
-1828.1250,-66.1832,51.6984,-72.4035,11.6976,-71.3183,10.4221,-90.0568,76.1324,-68.7949,137.7468,-30.6552,-23.3458,-169.3892,-37.2886,-25.8321,155.4224,-100.2328,212.9250,34.4941,214.4372
-1820.3125,-54.9040,-8.6969,-21.9888,-12.6067,-57.9903,23.1513,-77.5777,51.9390,-55.2389,113.9066,19.8501,-84.2560,-155.3074,12.8414,24.8355,131.8009,-54.0381,189.1900,10.8562,190.0635
-1812.5000,-23.4120,-47.8852,11.6243,-16.7130,-61.4636,19.0737,-80.8944,11.9557,-58.4721,73.2742,16.5583,-13.9748,-158.0547,9.1653,-15.2915,128.3752,13.3572,186.2699,7.4264,185.8861
-1804.6875,21.4779,-73.6879,22.6399,-6.4130,-49.5339,-6.5983,-105.8263,58.3755,-9.2983,159.0580,-45.3384,-76.2980,-182.4272,-16.1128,-3.0287,103.3655,-11.8393,162.2235,51.4053,160.1059
-1796.8750,-21.7708,-117.6485,15.5183,-16.2500,-19.7484,-14.4153,-37.9167,51.6556,56.7198,152.7074,-15.3834,-119.7921,-150.9689,-59.5587,26.0843,60.2093,13.8175,122.3270,114.2414,116.1686
-1789.0625,-4.6649,-65.2512,34.7481,-34.7343,-1.5993,-68.8843,16.3387,33.2932,76.0905,60.7192,2.9312,-137.9410,-132.1837,-40.6718,82.5440,42.3957,30.8316,103.2976,131.4354,97.5793
-1781.2500,-15.8415,-113.1401,-13.3226,-116.5212,-12.7461,-117.6643,79.2847,21.6255,212.1584,86.4385,28.9496,-222.3805,-105.7234,-52.0997,218.7067,31.2888,19.5589,86.0258,190.3395,85.6870
-1773.4375,7.8396,-196.1780,-23.5428,-128.4623,-23.0417,-165.5998,142.0799,-26.1961,202.0939,39.0321,92.8189,-122.9829,-78.4413,-63.6948,245.7348,21.0360,78.1356,36.6763,214.1049,37.6474
-1765.6250,109.4699,-200.2798,47.1906,-168.4582,-26.3870,-169.5950,138.8197,-30.0681,198.9921,-1.4082,125.6383,-163.6329,-45.2345,-67.3576,242.7235,17.7406,74.6759,31.7116,210.8304,33.5604
-1757.8125,43.1159,-126.3822,13.9327,-165.4533,-59.7305,-166.5901,69.5516,-63.9384,239.8929,39.1579,129.4594,-123.2867,-77.0481,-28.0399,246.7163,58.4468,78.2198,26.3640,143.5672,36.4706
-1750.0000,31.3071,-104.9333,4.2273,-142.8955,-69.5131,-141.0332,59.8272,-74.2510,193.3519,-7.7133,156.8259,-61.3884,-51.3422,-1.1781,200.2567,121.6987,66.3153,-23.7758,96.8632,-11.0657
-1742.1875,52.9505,-119.0401,-11.0295,-155.8770,-47.8462,-156.0233,81.5427,-53.1090,178.2536,13.8745,178.6378,-113.0261,-29.2132,20.1245,259.2410,33.4123,17.8658,-3.3896,83.6218,9.8445
-1734.3750,-6.9974,-144.7379,-72.8853,-147.4516,-72.7736,-145.6188,19.6546,-78.5554,153.5618,61.8783,153.8517,-28.2815,-53.7087,68.7975,270.6329,81.5251,62.8166,-33.4902,93.7884,-15.8415
-1726.5625,40.1569,-97.3289,-19.6392,-99.9326,-19.6021,-131.1144,34.8638,-62.9005,132.9776,40.9833,133.1642,-86.4341,-37.1318,10.5620,250.1218,60.7419,39.8763,-86.1365,107.0602,-74.4181
-1718.7500,5.0768,-99.1672,15.3651,-101.6526,15.3208,-96.8564,69.8118,-28.5021,131.1343,38.8390,94.2245,-125.8387,-38.8296,-65.9248,175.3642,58.7044,39.6969,-43.2147,107.0896,-40.2471
-1710.9375,-10.9998,-44.9997,-0.6237,-47.3622,-0.7444,-76.5958,-19.2490,-45.0958,78.2961,96.7137,41.2849,-31.2501,-54.5576,-8.4254,85.6086,116.6572,23.5128,-64.6797,55.1256,-57.0713
-1703.1250,-32.8214,-32.5815,-22.3691,-34.8163,-22.5538,-62.0877,31.9336,42.5631,93.7066,111.8477,19.5935,-53.4045,-76.0642,79.3124,64.0870,94.8757,-68.4096,-85.6223,69.4197,-79.6421
-1695.3125,-86.1322,-50.6568,-80.6075,-17.7664,-80.8551,26.9206,11.6116,94.7272,72.6141,90.4855,-37.5901,35.9310,-132.0895,168.5220,7.0667,110.5967,-50.8295,-32.2982,16.2204,-27.7104
-1687.5000,-78.1951,26.5234,-109.5911,59.5400,-145.9081,70.1775,-91.4708,102.1490,7.7742,135.3755,-66.5219,79.5163,-160.8934,175.9712,-58.7043,155.5684,-42.9873,-28.2360,-45.7241,-20.5197
-1679.6875,-118.1467,90.8004,-114.4751,159.9593,-150.8719,101.5400,-96.4685,133.6734,-33.9723,130.3705,-71.3569,111.2122,-165.6232,170.5210,-100.3733,76.6358,-84.0383,-29.0511,-50.5619,-26.2281
-1671.8750,-116.2495,127.9280,-112.5108,161.2294,-148.9824,139.7574,-94.6133,98.0577,-68.8612,95.2310,-106.3425,186.7444,-200.5301,208.9202,-98.1879,115.5479,-46.2447,-29.5573,-119.5365,-25.0826
-1664.0625,-82.8458,160.5642,-114.0521,88.0048,-150.5895,100.4725,-96.2666,58.9484,-33.2500,130.6072,-107.8328,73.7825,-127.9680,169.7962,11.4901,113.9663,-47.9380,-37.8005,-85.9979,-27.4321
-1656.2500,-63.1825,108.4701,-93.3419,36.0353,-93.9438,10.4354,-1.6752,42.0914,24.6102,114.2484,-13.0782,21.0686,-72.1835,78.9028,32.4100,24.6369,5.6203,-52.0636,-66.2005,-44.5266
-1648.4375,45.9817,75.8838,-15.1317,39.5667,-52.7929,-23.1007,2.4061,-27.2561,-45.0241,8.4036,64.1699,24.8479,6.0684,46.4934,-0.1681,-45.1914,44.6828,-46.0579,-61.8917,-41.1126
-1640.6250,51.5958,10.7511,27.5277,44.5520,-47.1954,18.8176,7.9302,-22.1448,-39.2156,-22.9860,69.8684,-6.9148,48.7409,14.5254,5.7011,-76.5578,50.2019,-37.1835,-92.1264,-36.2443
-1632.8125,33.9646,62.3626,45.9371,97.2964,-27.8504,36.4880,-9.7978,-77.2771,-56.6482,-114.6114,16.3103,122.0621,31.1348,33.3000,-11.6782,-94.1691,67.4678,-54.5350,-109.6036,-54.6162
-1625.0000,70.5303,98.1724,46.5384,97.2427,-28.3082,36.3646,-10.3359,-78.2029,-19.8762,-151.0228,15.9417,84.2443,30.6962,-4.7247,25.1399,-130.5679,33.9377,-19.0160,-107.8735,-18.7778
-1617.1875,-27.0467,69.8486,-20.0112,69.0479,-57.9153,43.0934,-3.0344,-34.2723,-12.2620,-70.5746,-13.5766,91.2815,1.0788,2.0972,-4.2069,-50.1124,6.2604,-12.9368,-65.2908,-12.0867
-1609.3750,-5.9175,91.2410,-31.8554,54.5615,-69.8155,66.5276,-15.0405,-9.6285,-60.9529,-45.4105,11.6041,79.0107,26.1312,26.5994,-52.8623,-24.9656,-7.7183,-63.8338,-43.0064,-61.6821
-1601.5625,6.8133,103.2414,17.8933,66.6829,16.8751,41.5630,-2.4585,2.6204,-85.0461,-32.6350,24.3831,18.3433,38.7570,38.6935,-76.9232,-49.2122,-65.0846,-48.9827,-65.1174,-49.6677
-1593.7500,-47.4971,153.1928,-38.4072,82.7589,-39.4858,21.5541,-58.9229,-17.1713,-141.1878,-51.8980,5.1065,145.6180,19.3025,54.7221,-59.0244,-31.5103,20.4965,-73.1972,-84.2702,-69.6968
-1585.9375,50.5901,179.5459,-8.3113,109.2397,27.5594,51.9433,-27.9916,12.4426,-183.9246,-57.7423,-1.7800,102.2925,13.2176,11.1397,-101.7241,-111.4059,12.4751,-109.4927,-57.0150,-113.3114
-1578.1250,22.8753,82.1089,34.9780,81.9262,70.7997,57.5360,-21.8753,18.2671,-103.4637,-51.3710,5.5246,71.1679,19.3036,53.7630,-95.2374,-142.0907,-14.3410,-64.9022,-48.5517,-70.7217
-1570.3125,32.0120,-85.4717,44.1181,90.4686,6.8926,65.9900,-12.9045,-46.0439,-94.1518,-116.1423,14.6777,79.8786,65.2066,99.2303,-85.9029,-58.9304,29.6869,-57.2152,-39.2303,-62.2734
-1562.5000,43.0464,-40.1454,55.1508,64.9171,-19.1201,76.3514,34.9547,-35.4484,-45.9434,-142.0103,61.7212,-56.4984,111.9803,72.5956,-0.6752,-84.8637,-29.3764,-48.6264,-63.0085,-51.9086
-1554.6875,-23.6574,102.4413,20.4297,32.6251,-17.8886,40.9664,36.0524,-34.5924,-44.4890,-103.6217,27.0087,-55.6325,113.9749,37.1974,37.8030,-83.5450,-26.1854,-15.0452,-95.5297,-14.2849
-1546.8750,2.7846,129.1838,48.8571,58.4917,10.4935,31.7381,-46.7008,-43.5770,-89.8824,-75.0738,18.4427,-27.6210,105.0932,27.9389,-7.5738,-92.0832,-34.8449,-24.9489,-103.8950,-23.4992
-1539.0625,-41.2719,119.4347,39.7815,119.8657,1.3747,58.0153,-18.9604,-16.0536,-98.7793,-10.0185,9.3677,36.9041,58.6840,18.1767,-16.4649,-101.1183,-80.0028,-32.9765,-147.7600,-33.2027
-1531.2500,-13.7289,110.2962,-6.6990,110.8491,-8.1394,84.8965,-65.6241,-25.9200,-107.0741,-19.3461,-37.1180,137.0254,48.8459,82.0095,-98.7608,-36.5599,-52.5684,-10.4009,-190.0192,-6.2966
-1523.4375,16.1594,140.5254,-11.8313,105.1953,-50.3109,79.1391,-106.9426,5.5733,-112.0294,12.6769,-42.2573,58.5003,43.3286,76.1870,-67.7125,-41.6510,-92.7773,-17.9073,-158.9305,-12.0273
-1515.6250,-85.9456,72.7765,-44.9691,108.5548,-46.4897,82.3938,-67.2730,46.0769,-107.9949,-20.3032,-38.4039,61.9792,46.7829,115.3561,-63.6736,-37.7453,-88.9830,-9.4360,-85.8400,-8.7442
-1507.8125,-32.7006,-14.6141,-26.7652,91.2788,8.6754,100.0117,-12.2639,63.9418,-89.6122,-38.9314,-57.2068,5.8129,64.5601,59.8760,-81.2934,-56.4918,-105.8420,14.6187,-67.4006,8.9040
-1500.0000,-98.7064,-83.2361,-25.8167,58.7626,9.5836,101.3884,25.4877,101.5598,-51.4939,-73.8086,-55.2628,-30.5912,65.0600,23.1501,-43.1802,-54.4837,-101.9441,57.5856,5.7904,46.3132
-1492.1875,-76.7032,45.1523,-37.8670,46.2591,-39.5087,88.7730,50.2309,52.1874,-63.3836,-158.6749,-67.3234,67.9998,52.5317,10.4157,-55.0741,-102.4802,-45.0477,43.2350,29.9783,33.7400
-1484.3750,-25.0082,96.2492,15.7734,27.4625,14.0922,67.8634,29.6634,68.5263,-46.5802,-141.8292,-50.6909,10.2955,31.6773,-10.6213,-74.2777,-159.7722,-28.4480,61.1977,10.8678,49.8823
-1476.5625,-24.7606,60.9082,-21.0412,27.2301,14.2445,30.5178,-7.3567,31.4266,-46.2374,-32.4331,-50.5151,-26.8577,31.3513,25.8900,-73.9446,-85.5175,-28.3025,54.8715,11.3088,49.5829
-1468.7500,8.3856,22.4721,-21.9579,23.9044,13.3008,66.0818,-8.4799,30.2377,-83.9987,-33.1261,21.5532,-65.1182,29.8995,-12.7012,-75.7221,-51.3670,4.7423,17.5781,9.6508,11.2028
-1460.9375,8.5257,-47.9490,14.1187,24.5882,49.3527,64.6510,-9.6220,66.0550,-47.7726,3.1946,20.6171,-138.3672,65.4255,-86.2950,-3.5146,-51.2100,-30.2072,55.1906,-25.0039,46.8339
-1453.1250,8.8219,-83.2070,-22.6560,24.4294,49.5557,27.3774,-45.6161,29.0341,-83.4080,3.6723,57.8283,-65.4800,65.0815,-50.7471,-3.1594,-14.9067,4.9891,50.2169,-24.5040,46.6241
-1445.3125,74.6627,17.0866,46.1133,18.8278,44.3088,21.6641,-15.0588,-13.4222,-88.4980,-38.3018,89.5820,-71.0457,96.2633,-56.6465,-80.2652,-92.0545,-0.2653,45.2326,-29.4536,40.9843
-1437.5000,30.4548,42.3462,33.8260,9.1863,69.0037,8.9071,-25.5582,11.0781,-63.6473,-48.3246,77.2778,-45.6569,47.3747,-68.5894,-92.4365,-67.2539,-8.5677,106.6485,-72.4502,102.3066
-1429.6875,30.8446,42.2296,-1.8677,9.1554,-39.7054,8.7605,-99.4604,-24.8110,-63.1983,-47.7425,40.5735,63.3251,11.0666,4.0553,-92.0154,6.1373,61.7249,99.1560,-71.8474,102.2449
-1421.8750,60.2826,72.1724,-7.5212,-31.8142,-45.3720,2.6751,-31.3221,-30.6393,-31.7125,-17.1055,34.9118,-15.6337,40.7822,-2.2538,12.4443,0.5810,-13.9294,89.1084,-77.2020,96.2537
-1414.0625,24.5213,69.9202,-46.3854,-67.9701,-48.2431,-35.5960,2.6097,-69.6574,2.5591,17.3430,33.0382,18.2043,1.2751,-4.7593,46.7032,34.8258,20.2106,118.8372,-112.7579,130.0745
-1406.2500,32.6034,42.5343,-73.4024,-95.2619,-38.2609,-63.0065,-61.6110,-59.8117,47.6703,137.6486,6.0066,-9.1108,10.5923,39.5892,19.7957,80.9139,-6.8046,85.7590,-69.4652,102.7613
-1398.4375,-4.1622,5.3201,-75.2744,-61.3956,-4.1353,-29.2586,9.3100,-25.8121,45.9149,136.1085,4.1226,-11.2733,-28.9563,37.0855,-17.9844,79.1506,-42.6624,91.0215,-35.0261,100.6156
-1390.6250,23.2730,-2.6848,-47.9530,-70.3188,-12.8140,-38.2996,-36.5746,-34.5986,1.3603,52.7749,-4.5691,51.7539,-39.3254,-8.2287,-27.5730,143.5804,-15.3255,118.3225,-43.3810,127.6862
-1382.8125,14.5493,23.1634,-56.7906,-79.3800,-21.6495,-47.4781,-45.6096,-43.5198,28.6459,118.2907,-50.4210,-29.3586,-48.8667,-17.6942,0.6771,171.8581,-60.1386,108.6364,53.1172,118.6242
-1375.0000,-97.7774,-53.5752,-101.2308,-122.0307,-66.0891,-55.2415,55.7462,20.9726,94.3203,111.2121,-57.8880,-74.0697,-57.0311,46.2458,102.3145,164.5359,-102.5569,102.9964,117.0096,110.9782
-1367.1875,-88.6623,-150.8521,-129.2293,-183.2187,-57.0848,-46.5415,101.5450,66.9267,103.4390,46.5905,-48.9142,-102.3350,-11.7656,91.6434,148.3910,99.6581,-93.5320,114.6778,161.3483,119.8003
-1359.3750,-84.8526,-217.4109,-88.5367,-179.6950,19.6130,-80.1287,142.0363,33.5877,144.2397,50.6710,-45.2461,-135.8936,28.1835,-14.2554,152.1521,66.4812,-89.8034,122.9243,165.3857,123.3358
-1351.5625,-56.8935,-155.8040,-57.6980,-153.0121,86.4592,-86.5521,172.6754,-9.5894,175.1847,7.9042,-51.4366,-105.3060,56.2643,-132.0034,72.0526,60.4444,-61.9348,83.2708,157.5694,80.0396
-1343.7500,-15.5934,-183.8398,-14.5220,-180.9674,130.6487,-79.6166,179.6574,-2.4098,255.4728,52.4923,-81.2904,-172.3578,26.6761,-198.3975,116.2912,67.7580,-125.7125,91.0942,165.1053,87.1104
-1335.9375,-126.1443,-224.7068,-56.1998,-186.7564,124.9866,-85.5171,136.7834,-8.0687,249.8968,47.2282,-123.9987,-141.2556,20.2210,-21.6403,147.6611,99.2188,-60.3432,81.9196,124.7828,81.3414
-1328.1250,-63.8465,-92.7087,-63.0322,-159.6870,119.1760,-56.5584,130.7569,-13.8671,170.1599,-68.1817,-92.8659,-74.3043,12.5988,81.9680,67.8693,56.5258,-69.1306,37.1660,82.3016,38.4434
-1320.3125,-48.7025,-43.8443,-14.0288,-110.7616,131.1993,-43.7346,105.5682,-1.8073,146.2520,-54.7475,-117.8903,-135.4942,-11.1881,19.4444,116.9136,31.6880,-90.0587,89.2696,25.6666,87.4100
-1312.5000,-110.3580,-34.7596,-40.8278,-65.6186,66.4148,-34.6956,4.5793,7.4610,118.5311,26.8845,-108.7177,-89.4906,-2.7885,-43.8721,52.1480,115.0361,-44.7922,95.7646,0.2244,96.5914
-1304.6875,-46.2241,-41.8694,-11.8331,-38.6691,22.4261,31.1547,33.3866,37.5372,74.6007,-15.6824,-78.7555,-133.6780,25.3980,-15.3815,-26.8315,108.1851,-51.7267,93.0010,-6.4213,89.5950
-1296.8750,-70.2427,-29.1228,-38.0010,-25.8625,33.2770,40.8635,44.0373,47.4725,84.5118,-4.3938,-141.9527,-87.0091,-38.5806,30.9636,-16.9739,118.1936,-75.8119,139.8591,-29.2164,136.4600
-1289.0625,-107.8645,-32.9594,-112.7707,-29.6420,-40.4718,39.9842,6.0924,46.8199,83.8136,104.2953,-253.7559,21.0536,-77.1742,65.7011,-17.7299,191.5871,-78.5019,96.0149,3.3881,98.7394
-1281.2500,-127.9900,-53.2763,-96.0430,-14.9045,-24.7172,56.6157,58.6321,100.6703,137.5857,158.4836,-200.0659,-35.3712,-98.2790,44.9422,-2.0081,134.4802,-168.6862,78.7569,18.4805,78.5360
-1273.4375,-139.1606,-29.6257,-109.3697,8.7901,-1.0150,43.2061,45.1162,50.4796,50.2878,145.6187,-140.4308,24.1527,-75.4426,105.1391,-51.3451,121.3127,-109.9210,100.6985,-26.4805,102.2935
-1265.6250,-51.0880,22.2913,-90.4482,-9.2591,-19.0664,25.0621,-9.1447,32.5463,-3.7735,127.9952,-121.5475,-30.0758,-57.3614,160.5945,-32.4459,140.3797,-92.9103,77.6609,-44.1997,84.3184
-1257.8125,-92.2657,-18.0262,-58.7830,20.4545,-24.3762,56.6788,-14.6670,64.3655,26.8932,123.1120,-89.9170,-71.5458,-63.5357,80.8116,-1.8151,98.1955,-62.1442,79.0634,-15.1778,79.1093
-1250.0000,-72.1461,-33.0345,-38.8225,40.4747,-40.3885,76.6040,-30.8909,84.5002,10.8548,106.5317,-106.9953,-51.7175,-44.4250,-9.6734,-54.8899,118.3072,-42.0859,102.8659,-28.8600,99.2138
-1242.1875,-39.2853,-36.2822,-42.1231,73.2567,-80.6598,110.2928,-71.3651,118.3937,43.5547,140.6975,-147.3309,-92.1279,-48.5729,-13.4049,-95.2341,78.1622,-45.2765,102.0151,2.2085,96.0827
-1234.3750,-55.2715,17.6240,-58.2760,57.2044,-96.7816,94.1496,-50.6925,65.4462,-8.6065,88.0096,-126.5231,37.6080,-65.5746,80.0216,-148.4512,62.1493,42.6769,82.8322,-47.5793,80.1163
-1226.5625,10.6316,50.4423,10.4659,89.0650,-27.0029,90.9212,-91.1261,62.4085,-84.8819,85.2186,-129.8205,71.2452,-69.6822,2.3572,-187.7900,22.0232,39.5294,84.1970,-50.4725,77.0652
-1218.7500,-36.9676,37.7885,-2.2958,76.4358,-3.7261,78.2054,-104.0602,49.8742,-60.6852,109.9142,-142.6255,95.3928,-46.2934,-10.8004,-164.6487,9.3891,26.8858,70.2553,-28.8702,64.5228
-1210.9375,-13.7732,95.9580,24.7381,64.6161,23.3519,31.3009,-78.1918,3.1499,-107.6981,63.4065,-115.6428,121.3344,-22.1165,15.8443,-137.7090,-37.4504,51.0307,21.7627,-40.4732,17.7955
-1203.1250,31.3593,70.0837,70.7082,38.7539,69.3755,3.3561,-33.3804,-24.6206,-62.7724,72.8472,-70.7161,20.2375,-13.9946,-12.5452,-128.8345,-64.3397,-10.8727,31.7342,-31.1334,27.0310
-1195.3125,-30.5072,9.2064,5.6745,12.9044,41.3928,12.4265,-24.5660,21.6185,-17.8639,119.2724,-61.7894,29.1462,-5.8711,-112.9207,-156.9770,17.7614,-1.7765,41.7274,13.2006,36.2733
-1187.5000,5.9230,9.6402,44.9400,13.3633,6.7068,14.8110,14.5541,61.1619,-88.6659,84.9810,13.4324,-5.6445,-4.4505,-147.9870,-154.8297,57.1437,-0.3813,10.0075,14.8282,1.8324
-1179.6875,28.0980,-38.1485,65.9454,-34.4214,-9.2339,-38.0421,35.4209,82.4579,-30.7338,106.4290,-2.6020,-57.6747,15.7164,-90.2957,-96.9481,4.2673,-13.2351,66.8363,37.2010,60.1486
-1171.8750,-23.1287,-89.3179,-24.4477,-50.5966,-61.5756,-54.2834,-18.1085,29.3636,-11.2103,90.4693,-19.0390,35.8783,35.4876,1.9912,-40.4709,61.9777,41.5006,41.7991,57.1685,44.0711
-1164.0625,45.0335,-57.0923,11.5505,-53.3643,-26.5170,-18.1154,17.7600,28.6763,-12.2977,125.9071,-20.0771,-39.1724,-3.3427,-36.3129,-42.6046,24.0877,38.6352,8.4963,89.5322,6.4086
-1156.2500,6.6446,-24.4118,6.9933,-55.6723,5.9914,-59.4890,50.0719,24.4448,20.0454,122.7872,-24.6669,-6.7621,-44.7207,-41.1511,-46.3075,19.6423,36.2247,41.2190,52.3407,39.1984
-1148.4375,3.0606,42.0831,4.2411,-24.1720,-33.6944,-62.0519,-26.8090,-14.9865,-56.8208,119.4501,-27.4559,64.4458,-12.2935,-7.1865,-86.2195,53.9744,66.6106,-3.4695,12.9390,-0.2040
-1140.6250,27.0738,31.1846,30.0892,-0.0676,-7.7864,0.9950,35.9016,11.1816,-68.1046,72.7026,35.3552,16.2625,-24.2612,18.3841,-97.5489,-31.0975,20.6074,-8.4074,2.1302,-10.9955
-1132.8125,39.6420,43.8463,3.4886,12.5912,2.6663,11.6024,9.1583,21.9035,-129.8473,9.4993,8.7211,100.6152,-50.6727,28.5038,-160.3371,-20.6267,68.1540,41.5296,-21.1318,36.7662
-1125.0000,67.8037,107.1254,-3.5149,40.8613,-77.2789,41.8197,-34.9775,52.2324,-173.9993,-34.1185,1.6877,56.5654,-22.4815,21.2262,-130.5347,9.4246,61.3004,33.4081,-27.8009,30.1342
-1117.1875,2.0169,77.4606,1.5331,46.1930,-72.1753,47.1010,-30.0670,57.6107,-169.1217,-28.7005,43.6978,24.5748,-54.2328,100.0057,-88.6948,14.5145,31.5007,38.7232,-22.4307,35.5583
-1109.3750,18.3269,58.9011,-19.3219,62.6314,-91.9738,63.4913,-50.0532,37.0949,-190.1497,-84.1863,-14.1995,150.6847,-38.8811,151.8951,-109.7646,30.6918,47.8002,52.5025,-74.9647,52.0873
-1101.5625,7.7341,48.4504,-30.0797,87.1765,-66.6700,89.9906,-60.9360,63.6773,-164.0871,14.4164,-60.9958,139.9069,-50.4253,67.8909,-120.7551,-17.0433,1.2029,45.2489,-51.4029,41.7207
-1093.7500,-67.4036,78.4625,-35.3893,117.1752,-35.9211,120.9455,-30.3685,95.7121,-169.5829,-27.5344,-30.3405,171.5724,-56.5145,25.3396,-163.3042,-94.3402,-3.9442,47.4716,-21.3947,36.8088
-1085.9375,-58.2012,122.8333,-26.3586,91.5307,-26.8234,130.2594,-57.4471,68.1026,-197.7335,-54.1356,-21.3454,143.5885,-12.2523,71.1488,-154.5121,-122.2958,-64.7415,53.5654,-12.0407,46.2506
-1078.1250,-96.0513,84.1696,-66.3757,87.8500,6.2273,126.5323,-25.5755,101.4448,-201.9543,-57.8028,11.5938,103.5631,19.9621,103.9224,-195.7824,-126.3139,-102.5853,52.0353,19.2515,42.6419
-1070.3125,-96.1494,50.2607,-64.6439,88.9261,9.0316,92.5682,14.0507,103.5388,-199.4327,-91.7317,14.2816,105.2847,21.9335,69.4527,-230.3145,-51.5978,-67.6858,20.8806,56.2864,8.7905
-1062.5000,-80.1539,66.4554,-11.8218,35.1078,61.9266,108.7155,29.7725,119.7370,-183.8238,-111.5700,30.0669,11.1175,37.0111,85.0963,-177.7634,-107.7875,-86.6796,38.8356,37.4164,25.0444
-1054.6875,-68.8563,77.9691,-37.6962,46.5960,-0.8783,84.1718,-33.2006,58.2368,-172.9296,-174.1240,78.1552,96.2510,47.3968,59.0429,-166.9311,-96.6893,30.6273,45.2330,12.8425,36.5970
-1046.8750,34.7899,75.8479,-1.2211,114.4407,-38.3292,82.9864,-33.8191,21.0913,-210.6925,-248.3401,113.5885,94.7310,83.1407,-52.6618,-167.7564,-98.2575,98.2776,11.2379,11.6074,-0.4911
-1039.0625,60.0290,66.3319,60.8520,139.8932,23.8144,108.4073,-45.8462,46.5486,-148.8678,-258.9666,102.6191,9.8174,70.4915,-27.7540,-179.9908,-183.2322,53.5341,41.2438,-34.0337,25.0200
-1031.2500,20.2227,132.7675,57.8813,136.3037,20.9184,105.7886,-121.9160,6.9588,-189.1010,-225.6570,62.6054,116.8408,66.8078,43.1127,-257.2876,-149.2787,83.7324,-3.2096,-38.7342,-14.5197
-1023.4375,59.5097,172.3008,63.0126,140.8181,63.1286,112.2757,-42.8827,49.4673,-183.2422,-219.2693,67.6929,12.9703,71.2355,12.0914,-214.4933,-180.2434,18.0373,-30.9700,-69.3404,-44.9535
-1015.6250,8.5016,120.5428,43.8430,124.0330,81.0342,92.4694,47.8545,30.6708,-129.6903,-202.2028,48.4789,-7.2013,88.3757,28.7752,-161.0031,-200.5140,2.0490,23.9188,-85.2484,9.3072
-1007.8125,18.5964,166.8951,18.7821,99.3537,19.0488,67.7670,-14.3027,-31.0291,-119.0395,-190.0519,23.3688,4.7199,98.6265,40.5501,-113.4112,-151.7043,47.1619,-8.2581,-40.0676,-15.3324
-1000.0000,14.7951,128.3544,51.8191,60.7808,15.1615,64.1731,18.6387,2.3645,-50.3043,-156.8157,56.3598,-73.2460,93.9892,-0.5675,-117.7325,-155.8018,8.3805,-9.7641,-7.8010,-18.8721
-992.1875,-39.8086,74.0178,-5.9401,77.4152,-5.5258,80.7892,-2.2194,18.9606,-107.3748,-140.3926,-1.4464,53.9789,73.5656,15.5316,-137.8611,-67.7088,24.7949,5.3018,-62.3434,-2.2185
-984.3750,-36.1682,112.9315,-38.4460,116.3030,-37.9596,122.6644,-71.8238,59.8085,-104.2013,-63.7331,-71.0003,57.4559,40.4056,19.8926,-134.7475,-26.3798,-42.5410,-29.7483,-59.6449,-34.3147
-976.5625,-105.3719,114.9994,-73.8013,153.3449,0.7611,124.6955,-33.2773,98.8013,-65.8901,-61.9401,-69.4046,59.0894,4.4064,21.4086,-133.4942,-61.9100,-76.7231,-23.3075,-21.8012,-32.2643
-968.7500,-96.3816,53.2777,-64.9567,127.5894,9.6854,133.9314,12.4769,70.9994,-94.3801,-89.9567,-60.6063,67.9168,12.6212,103.1247,-161.0484,-53.2579,-102.7094,-13.7319,-12.7595,-23.0187
-960.9375,-107.4956,-27.5361,-76.2103,116.7381,35.5152,123.0696,1.1366,60.0967,-31.9809,-27.0851,-71.9036,56.6473,0.7557,128.7426,-100.7156,-64.7178,-113.7909,-27.2228,-23.8257,-33.8804
-953.1250,-157.0500,28.2065,-53.9018,102.4472,56.9032,108.7705,-50.6532,45.7416,-84.0432,-4.6803,-12.6478,152.9257,-14.5449,113.9108,-115.8430,-42.6526,-57.3226,-44.7725,-74.3547,-48.1972
-945.3125,-43.4551,142.0986,-9.4416,74.3170,28.4427,79.6305,-80.2993,17.5348,-113.9578,-34.1413,-5.2416,160.3565,-44.6834,84.2381,-71.8257,-35.4571,-49.6962,-42.2207,-101.7453,-40.3687
-937.5000,-72.1071,114.7473,-76.2254,46.9438,-38.2660,50.2536,-110.1935,25.0767,-33.1395,10.1248,1.9153,93.5360,-75.0554,128.3241,8.9255,8.4769,-42.3152,-40.8136,-59.3865,-32.7989
-929.6875,-48.7572,31.3975,-52.0008,69.5724,-87.9667,74.8838,-86.0798,12.6191,-83.3239,-39.6143,26.0714,80.7086,-51.4124,152.4134,32.6631,32.3939,15.0651,-50.5631,-72.0368,-45.2321
-921.8750,20.6419,-3.9004,19.2755,69.2571,-53.6158,72.5722,-51.9225,10.2091,-49.4712,-42.3227,60.2818,4.9367,-17.7073,75.5684,66.4383,-44.6471,14.5069,-12.1502,-107.6454,-10.6217
-914.0625,-23.0975,22.6618,10.4089,60.7988,-99.4158,28.1156,-97.9162,1.6478,-21.7753,-14.1989,51.3517,69.0138,-27.1384,30.5747,93.0568,-53.8523,75.8001,-23.3980,-81.4147,-19.1704
-906.2500,64.1630,-29.7705,-5.4513,43.3359,-78.2057,11.6595,-39.9041,-13.9155,-1.0829,6.9219,71.4225,90.0849,-6.5563,13.5812,113.6679,-70.0687,58.0941,-78.0796,-63.1879,-71.7220
-898.4375,21.2729,-37.3557,21.5410,0.7250,-14.1435,-33.9506,23.9559,-60.6352,98.4524,-3.1065,61.3440,80.0075,-17.1114,-32.5546,177.1215,-117.4310,50.2421,-50.1934,-72.1155,-44.4347
-890.6250,25.8895,73.5522,27.0433,5.6121,-44.5755,-64.0574,-43.6711,-127.8503,67.4925,-70.6423,67.7737,123.4155,24.8501,-26.1948,183.0716,-74.3048,90.8864,-87.4376,-102.5513,-74.6553
-882.8125,108.6046,50.5558,77.6428,-17.4002,-30.9106,-50.0621,5.8019,-113.9695,43.6326,-131.0826,118.3028,-11.0729,37.9232,-13.7330,195.1209,-135.0798,67.6338,-105.1802,-54.8925,-97.7777
-875.0000,75.5689,-17.1836,78.4912,-49.1613,6.9989,-48.8141,80.5225,-112.8419,81.0245,-202.2760,82.0785,-9.3069,75.2590,-12.0144,159.4206,-134.6085,69.6310,-61.5411,-16.9883,-59.6628
-867.1875,101.6323,8.1798,33.4417,-58.8215,-1.9859,-93.4600,72.3517,-120.6106,109.5257,-211.3767,73.9583,-18.4527,66.7033,-21.1898,150.8165,-69.0529,95.7243,-109.2585,43.0110,-104.4537
-859.3750,62.6944,-30.4585,66.3904,-62.4779,-5.9692,-60.1045,105.1811,-87.3837,142.0283,-142.4851,69.8378,-58.5917,99.1596,-98.3637,219.2009,-147.5018,56.8241,-108.9408,75.0013,-108.2513
-851.5625,41.2597,-85.5908,43.8461,-82.6264,8.5464,-119.2430,82.5118,-109.6565,119.0378,-91.0998,84.2180,28.7654,76.1288,-47.0392,196.0864,-96.4690,106.4200,-98.5850,53.4835,-93.5625
-843.7500,112.9241,-84.6218,46.4043,-116.6715,48.1679,-116.2766,84.9470,-106.8337,121.1498,-51.6252,49.7020,-42.7786,78.2139,-81.6095,161.0686,-57.3516,107.1189,-131.8653,90.0570,-127.7810
-835.9375,74.2896,-52.9536,79.6672,-120.0149,118.4896,-119.6072,118.0808,-110.3171,116.9556,-55.4551,82.8882,-46.6218,74.0133,-122.4690,120.7422,-98.5352,103.5190,-130.3162,121.3240,-131.3085
-828.1250,142.9557,-18.9871,115.2305,-86.0576,80.1189,-157.6356,79.5206,-148.4957,115.0667,-56.9858,81.3759,-48.1767,72.1260,-124.0261,154.7069,-100.4244,137.2123,-135.1844,84.8839,-132.5461
-820.3125,132.0647,-64.5730,104.2478,-131.6464,32.2016,-131.2086,68.4159,-159.2239,139.6255,-32.0752,70.3110,-95.2820,60.7019,-25.1316,217.1127,-111.8653,161.3595,-148.8501,108.8865,-143.3443
-812.5000,80.4273,-150.9046,87.5225,-112.9820,52.5372,-110.5232,124.5621,-138.7023,86.4323,-84.9194,53.4967,-76.1463,80.5438,69.0100,199.7670,-56.0660,144.7525,-162.0126,92.1279,-159.9002
-804.6875,124.7358,-176.2829,132.7503,-103.3649,61.8291,-100.8840,97.6514,-92.2314,95.1911,-112.8263,62.6366,-140.0547,125.3476,-32.8903,208.3620,-83.3266,84.0985,-148.9805,101.3076,-150.5144
-796.8750,25.0521,-135.6649,101.9900,-97.7373,67.1245,-95.2404,102.7344,-86.7681,135.9415,-70.7521,67.7852,-97.9607,130.1715,-100.7820,249.9449,-115.5959,54.4517,-145.1088,71.4766,-145.1402
-789.0625,31.5245,-58.8950,109.3857,-90.9586,75.5753,-50.4445,73.9711,-42.1565,33.8520,-63.5327,76.0829,-53.7277,101.1558,-129.5211,146.6796,-34.7291,25.9530,-171.7902,77.7836,-173.6220
-781.2500,65.9946,-59.1173,107.7828,-91.1798,146.0269,-52.6511,71.2067,-44.5512,-6.2319,-65.3146,73.3749,-92.4877,99.1494,-95.2549,107.4079,-37.8691,25.4587,-135.1868,77.0887,-139.1146
-773.4375,27.6213,-27.1956,67.3406,-94.2533,142.6386,-91.7089,-6.3996,-83.7968,-47.1581,-68.9576,106.8167,-23.1086,58.3077,48.1526,66.2891,-4.8678,92.1091,-144.8309,73.5471,-142.4669
-765.6250,112.9376,-10.5970,84.6025,-78.6351,86.9576,-75.0632,47.7032,-103.3421,-67.3672,-125.9021,122.9595,-43.0393,75.1815,28.2562,118.8707,-25.1698,72.4518,-165.0840,53.7102,-162.1203
-757.8125,89.8492,-69.4086,94.4672,-101.4197,96.8751,-100.8192,94.4098,-56.2925,-20.9677,-79.2453,133.6979,-106.3699,84.6654,-36.0300,129.0516,-15.8685,49.3961,-115.5851,29.4725,-115.1876
-750.0000,68.2114,-90.7755,72.7863,-122.7558,75.2538,-122.1256,72.5755,-114.7923,-43.1039,-64.1351,111.8875,-55.2606,99.6105,-20.8704,142.6835,72.8724,62.7861,-142.0236,78.6819,-136.8177
-742.1875,86.9685,-36.7611,129.5114,-138.6954,96.0340,-101.0350,129.1400,-93.8941,14.1724,-80.6237,95.4757,-181.7486,118.9683,-0.3098,162.7142,-17.9873,11.5806,-154.1705,97.2900,-153.0553
-734.3750,29.8871,-127.6023,105.3909,-124.4868,70.9641,-88.7950,141.8559,-81.8453,62.6064,-142.9656,107.2187,-133.0969,94.4869,11.4003,137.8926,-6.7024,60.5352,-102.1608,76.0414,-104.1594
-726.5625,74.1155,-119.1331,78.5804,-80.9783,7.2037,-78.2541,77.8748,-108.5017,35.3504,-170.0165,117.2681,-50.1577,104.3140,21.4037,146.3706,2.8675,68.7939,-133.8421,84.0846,-130.9748
-718.7500,72.2491,-85.7543,76.6756,-82.5704,42.3447,-79.8207,112.7886,-73.2677,69.9930,-172.1644,151.2195,-88.3165,65.0490,-17.6924,217.7442,-72.6582,66.9598,-133.1413,82.0194,-132.9016
-710.9375,83.5918,-39.1810,87.9730,-70.9668,53.6911,-105.1904,86.9054,-98.8348,6.8467,-124.1009,89.3694,32.7156,38.9880,-43.5954,154.3257,-61.9825,113.3254,-122.2800,58.1533,-121.6436
-703.1250,132.2402,10.6796,66.5767,-22.0673,69.3432,-89.2635,65.3330,-120.1030,22.0201,-71.7484,67.8253,-25.9615,54.2310,-101.2016,132.2113,-84.0167,91.9948,-144.3991,36.5869,-143.0928
-695.3125,78.6465,27.2834,119.9391,-5.4268,85.7457,-72.5951,44.5160,-103.6274,0.9621,-92.6537,84.0396,-9.8993,70.2379,-85.0740,74.8538,-105.3075,108.4200,-124.2890,16.7690,-126.8007
-687.5000,135.7571,-21.4234,105.0065,16.9085,70.8569,-50.2310,-7.5993,-118.4572,-50.3728,-70.8465,68.9586,11.8449,54.9471,-27.2582,22.2034,-46.9002,130.5474,-104.0577,3.6500,-104.8207
-679.6875,113.1703,-78.8351,80.3852,-40.4519,9.2788,-74.5690,41.5820,-68.9939,-2.4009,-21.7395,44.1729,-49.1152,29.9533,21.8598,144.8551,-35.1920,72.9825,-95.1031,15.8246,-92.5543
-671.8750,78.2421,-78.6035,43.4195,-40.1635,9.3522,-74.2530,78.4082,-68.8735,-2.7693,-21.9835,81.0309,-13.4350,66.6121,-51.3721,180.1613,-35.8304,73.0626,-95.7981,15.6454,-92.6492
-664.0625,71.6026,-14.0801,72.7505,-10.5776,2.7257,-81.6346,70.5397,-76.4510,26.1789,43.0824,73.1889,-94.4622,95.5722,-133.3089,135.7710,-7.1582,31.4364,-66.8893,-25.2351,-63.4565
-656.2500,11.0131,30.4851,45.1401,-0.9368,48.1575,-108.9676,6.7267,-66.9800,35.1869,89.2087,9.3972,-85.4427,30.5912,-87.2043,107.4231,1.5634,40.8538,-57.8523,-16.0705,-54.2297
-648.4375,57.7713,78.3930,58.8891,11.0525,61.9521,-57.9509,19.2662,-90.1592,-24.4399,28.6897,-14.0434,0.9165,6.9660,-36.7496,9.4228,13.6206,52.6161,-79.8241,-39.5627,-77.6599
-640.6250,74.9271,24.6972,74.0398,-6.5598,77.1445,-42.5347,35.2008,-37.9423,-9.6508,44.5722,37.9171,-20.3305,22.7501,-58.8911,24.8206,-7.9165,-35.2194,-28.2226,-93.6617,-25.7007
-632.8125,8.6389,-6.4626,4.7435,-2.6227,7.8895,-38.5678,-72.3069,-34.1739,-6.2942,48.0118,41.4296,19.9517,26.0904,54.5069,27.7754,68.1037,3.4871,-32.0194,-90.2125,-22.2009
-625.0000,71.6959,-13.2862,-2.2039,-9.3432,-73.0129,-8.2582,-5.4570,-4.0502,-13.5658,40.8167,34.2901,-24.4291,18.7827,47.2558,20.0838,60.4815,-3.4641,-36.1545,-26.4181,-29.3526
-617.1875,17.6501,-33.2144,-25.2537,-29.1659,-59.0180,-31.0457,45.2874,9.9739,74.0679,127.5285,-62.9529,-47.9088,-41.6209,-12.0882,70.2906,110.7661,-58.5176,15.3238,-11.7303,21.3850
-609.3750,-38.2967,-53.0491,-82.2000,-48.8888,-114.9235,-13.7284,-11.8676,27.1041,89.8137,181.3497,-83.0975,5.7028,-24.9227,4.6730,49.5941,164.1522,-43.4825,-9.6487,4.0534,1.2143
-601.5625,-16.6581,-31.2895,-59.5534,7.9927,-56.2285,9.1908,10.5753,85.8379,75.1768,166.7781,-60.6544,-83.0780,-2.6255,-9.9522,34.4919,39.1491,-57.8579,-16.1697,-10.5697,-13.3636
-593.7500,-42.0211,-56.5340,-13.9079,18.8729,-10.5384,18.1140,19.0181,21.5739,47.5560,138.2205,-88.2174,-0.8686,5.6723,-1.5695,-31.6096,10.1518,-12.2420,32.9777,-36.1973,32.0461
-585.9375,27.8043,-57.5852,-13.0623,17.9493,-9.6443,19.2382,-17.3341,-14.4828,11.1531,138.8862,-88.5818,36.5283,6.1755,-37.9934,5.4910,47.3580,-12.4409,-7.3181,-37.6318,-4.3514
-578.1250,5.6254,26.3489,-37.2209,-3.9748,40.2458,-41.6408,32.3106,-1.5364,60.7719,78.5637,-38.9479,11.9239,18.6835,-99.4204,127.5894,-51.4244,-35.6440,4.5501,-25.0733,8.2437
-570.3125,-6.3562,50.4738,-13.1776,-15.7015,27.3338,-90.3208,19.1583,-87.3883,47.6148,28.4443,-52.1176,72.5085,5.4015,-75.6406,113.8922,-28.0121,24.3465,25.8177,-36.3159,32.0262
-562.5000,42.8592,-42.2109,39.0709,-37.2346,42.6274,-75.8023,-2.7876,-73.0502,62.6743,6.5131,-37.0801,-23.7142,57.3290,-60.6469,91.3990,-13.4085,2.5416,6.4595,12.6401,9.9998
-554.6875,57.5318,-131.4637,90.7772,-22.3252,57.3793,-60.8401,48.7180,-58.2688,40.1997,-88.9608,14.4057,-46.4993,71.7184,-46.2135,-4.6370,-73.3446,87.1786,31.6332,27.0441,24.4139
-546.8750,91.0444,-63.8865,89.3317,12.4287,55.9836,-25.0283,10.0770,-95.6302,-35.3987,-126.5669,12.7456,-11.4524,69.9671,-47.9382,-43.8139,-1.4217,50.6519,27.1111,-10.7057,22.6670
-539.0625,48.8027,34.9300,45.1401,5.4287,48.8383,-31.9688,2.6876,-66.7400,-5.7343,-24.9143,5.3335,-19.1522,25.4767,-128.4075,22.2511,27.7548,8.3744,14.6701,-53.2111,15.1575
-531.2500,6.6641,97.8321,75.0560,33.5213,41.8050,-38.8193,-4.6001,-73.7554,-49.9488,-32.1485,-1.9845,83.2396,18.0968,-99.7676,-22.5877,57.0317,36.1884,6.5849,-95.6215,7.7398
-523.4375,115.1685,136.3710,76.6229,72.2541,43.4272,-0.0205,-76.2387,-107.1211,-120.4943,-30.7213,-0.6535,85.2705,-17.6255,-24.4826,-94.7749,-16.0312,74.6489,44.5577,-127.3857,45.9615
-515.6250,14.4268,71.6537,44.9482,77.7379,11.8045,5.5311,-107.1284,-65.7333,-115.2824,-25.5403,4.4261,126.0366,-12.5872,91.5359,-90.2105,-11.3377,44.8515,47.7771,-122.4072,50.9230
-507.8125,19.7297,40.9676,14.3260,117.2712,-55.7649,49.1337,-65.9669,-23.2893,-109.9988,-19.2985,-26.4515,94.8360,-6.4943,96.6055,-48.5961,-5.5850,14.0946,18.4260,-117.3800,19.9305
-500.0000,-4.1731,53.0623,-12.4977,94.5962,-44.5387,96.5296,-55.0082,23.9531,-26.8894,-9.2454,-52.5286,-5.5656,-33.5970,70.4881,-2.1776,3.9812,-44.8647,65.9244,-141.5579,66.7267
-492.1875,-54.9229,106.2929,-66.1679,113.0642,-136.1580,78.0702,-146.8970,5.3418,-44.6065,8.9671,-34.4542,49.1714,-51.5408,51.5267,-57.5999,132.6972,8.3171,77.8015,-123.5932,84.6632
-484.3750,3.3719,95.5590,-40.7855,102.5748,-146.7235,67.6511,-83.7341,31.7802,-55.2546,35.2425,-9.3370,37.9502,-62.4266,40.6055,-104.9675,84.4783,-37.4533,70.0534,-63.5822,73.6475
-476.5625,-65.7284,25.4168,-40.8013,67.6770,-73.6861,66.8255,-11.9739,30.8141,-19.2879,71.1387,26.3721,36.3278,-62.7094,39.2700,-69.7386,8.8819,-71.6271,108.5612,-63.9722,109.2214
-468.7500,-29.7294,-8.6352,-74.7131,33.8733,-70.5434,-3.9041,-46.1102,-3.0500,-17.1960,37.1506,29.1833,75.7909,-60.8911,42.0345,-68.4068,85.3876,-0.7133,69.7599,-28.2679,74.8878
-460.9375,3.6599,24.7013,-40.2270,-2.5345,-35.9974,-5.2356,-11.8564,32.4825,18.3117,35.5729,27.3943,-0.3426,-26.6700,-33.7912,-34.6740,46.3017,-37.4062,69.8628,-30.1747,72.9491
-453.1250,-43.8008,46.1789,-54.5900,-15.7973,-14.2953,-19.4237,-26.4516,17.1650,-33.0117,20.1631,48.7501,57.6606,-5.2933,-12.4774,-49.7832,30.3740,-15.9610,89.9570,-42.9284,94.1508
-445.3125,13.7827,105.6917,-28.8968,7.9791,-24.5356,7.4331,-72.9829,7.8991,-79.2566,-26.1844,113.1483,10.6983,22.1324,-22.1261,-96.8329,-16.4936,7.5240,43.8719,-55.6311,47.3988
-437.5000,60.6607,81.4864,-17.9053,55.0452,-13.4798,18.5854,-62.2192,55.9354,-68.1765,-51.2150,196.8313,-88.9634,32.8571,-84.4790,-122.5765,-79.0387,18.3027,60.8114,-45.0359,57.9439
-429.6875,86.0327,0.7631,-28.4154,80.6081,-59.9200,44.2332,-146.9568,44.4744,-42.5677,-61.7284,185.0107,-28.1362,58.0806,-59.3321,-171.8140,-18.0765,43.5672,81.9287,-89.9393,82.9825
-421.8750,97.3952,-22.9745,-15.9231,57.1645,-83.3562,57.8808,-207.6912,21.0163,191.0626,-49.2276,125.1867,-52.3159,34.2991,-47.1811,-159.0528,-5.1063,-15.1786,51.6243,-77.8408,59.0154
-414.0625,-10.5932,9.9323,-53.7814,90.3654,-85.1411,56.1754,-209.7791,56.2127,300.3617,-51.0534,123.0025,19.1450,-4.8363,-85.3865,-161.6454,-7.4686,-17.2836,48.9450,-116.0929,56.6940
-406.2500,37.3581,93.7780,-40.6922,68.5093,-71.9686,32.4155,-196.9106,-4.6302,276.6357,-1.9033,61.7562,31.5409,7.9687,-108.6495,-149.2819,-31.8648,-39.4534,57.7618,-138.3935,69.3172
-398.4375,9.4520,100.7545,-69.4563,39.7991,-28.6477,39.8043,-152.8903,2.6830,321.0801,42.4107,31.6510,-71.9171,-22.0831,-65.7594,-105.7630,-25.0955,-102.4814,64.9085,-96.5432,76.0883
-390.6250,-22.0083,33.1615,-65.7746,43.5344,-60.8826,43.6448,-112.4266,6.4555,287.9980,9.1958,34.9897,-32.9375,-18.6926,10.5872,-139.7856,15.1351,-99.0756,69.6720,-93.2423,79.3109
-382.8125,-36.4322,-17.3916,-46.0487,28.3133,-41.0751,63.5317,-92.9133,26.2861,270.9880,66.0549,17.3670,-122.9139,0.7388,-43.0074,-83.7588,34.4337,-149.6267,91.8513,-73.8924,98.5800
-375.0000,-102.0547,-82.1546,-114.5208,33.8861,-109.4631,32.2192,-124.5963,68.9249,313.7963,145.7304,-13.4633,-118.1036,-30.0352,-1.8123,-42.9402,76.5468,-109.3885,94.4293,-32.7395,103.6460
-367.1875,-114.3343,-129.5822,-87.6461,21.8019,-119.4981,59.2561,-97.9305,95.9249,266.9793,135.7832,-60.9525,-92.9615,-4.4695,24.7254,-17.7690,103.0274,-121.8157,49.3379,-11.2381,56.0660
-359.3750,-120.4285,-135.8240,-95.5781,-19.0854,-53.3411,51.4891,-33.0733,125.1290,259.3799,165.0639,-142.2502,-137.6216,-48.7101,16.4720,10.6051,94.7300,-163.0545,82.6201,17.4622,84.6830
-351.5625,-184.0797,-24.6225,-124.0592,-12.5257,-45.7344,60.1722,-97.7627,133.7912,194.2520,172.8188,-171.1065,-20.8449,-77.5069,61.6659,-91.5600,138.8896,-121.8658,52.0207,23.6078,55.7474
-343.7500,-108.8432,50.4633,-117.6452,27.9293,-40.2298,103.7536,-92.5545,176.3598,127.0475,216.4963,-165.0731,-52.1718,-108.4120,103.7515,-158.8239,107.9663,-187.7829,22.0651,-7.3452,24.7156
-335.9375,-169.7601,24.3890,-146.3839,37.2351,-30.8751,112.1819,-83.5039,221.7835,172.7070,336.0488,-194.1943,-44.6577,-173.4732,38.6816,-188.2420,152.9087,-212.8541,68.4971,-32.4486,69.5285
-328.1250,-209.6295,55.3556,-186.0707,68.5816,-106.4616,109.6581,-123.3984,219.2596,97.4355,369.6697,-197.2652,25.8912,-176.4895,35.6573,-191.6055,223.9067,-182.8897,24.6570,-37.4975,29.3876
-320.3125,-174.7581,-50.9432,-149.0126,103.6662,-70.3002,145.8754,-87.5370,256.4892,97.9374,333.0601,-197.5968,-11.8087,-176.7641,35.3836,-155.2135,186.6767,-218.1889,31.0305,-37.7948,28.9942
-312.5000,-205.1419,-80.5071,-183.2089,37.4891,-103.3902,112.8425,-83.9269,222.4808,64.2094,300.2171,-195.1886,27.2317,-174.2963,147.8651,-116.0693,226.2158,-178.7477,64.9520,-33.3326,68.3416
-304.6875,-128.6845,-5.2357,-174.5559,-25.8417,-131.6277,47.6595,-76.4602,194.3307,36.3553,235.2447,-186.9404,-38.8911,-128.9864,156.1941,-73.0726,271.6165,-137.4660,31.5420,7.9820,39.5344
-296.8750,-118.0309,-29.7810,-126.7062,-49.9787,-83.6692,58.6741,7.1991,205.3829,47.7263,209.4947,-139.5008,-101.8178,-118.4827,56.7111,-62.8721,208.2382,-126.9851,50.2951,54.4968,49.9243
-289.0625,-74.6265,-57.5917,-119.1084,-42.3705,-75.9630,29.4301,14.6103,140.1889,55.8773,144.5222,-132.3187,-22.0082,-75.2380,26.9676,-127.9126,178.6246,-49.7613,58.1633,61.7631,57.0592
-281.2500,-61.5828,-78.7607,-65.8594,-63.1214,-22.6021,10.8309,32.6767,120.6444,37.6959,199.2151,-115.4907,-78.5511,-58.3488,7.8864,-75.2947,122.6717,-70.8954,3.8235,110.6732,0.8392
-273.4375,-81.9372,-168.3471,-49.0075,-48.2829,31.3613,-9.1791,85.3463,137.6939,55.1338,179.5216,-100.0651,-99.5060,-41.8597,24.4078,-22.0665,65.3354,-56.4354,-11.7443,125.1792,-19.7835
-265.6250,-45.1485,-202.8021,-10.0118,-81.3101,33.4799,-44.0472,87.1715,102.8942,57.7471,144.9945,-61.4897,-135.3239,-3.2184,-10.9271,-20.6759,104.1644,-54.8403,-11.0249,162.8448,-18.2599
-257.8125,-89.5170,-176.4218,-19.1689,-159.4954,97.4493,-53.0692,114.8561,93.9491,122.2277,136.3376,-34.0762,-254.2971,24.2713,-57.4257,6.5733,94.8588,-28.4102,-18.9996,223.3660,-27.8896
-250.0000,-72.6470,-160.8102,36.9243,-177.4395,79.6766,-70.8424,170.7955,3.2656,104.9783,45.9499,-15.4293,-200.0337,6.0043,-1.6770,24.0762,76.8217,23.2508,-38.0117,205.1422,-46.2693
-242.1875,1.7087,-191.7127,40.5111,-173.8875,83.4010,-67.1154,137.2329,7.0910,146.2459,50.0789,-49.2938,-233.2746,9.2279,37.5858,101.0763,43.3004,-8.5952,-38.3714,173.4173,-43.1514
-234.3750,-76.7869,-270.4771,33.2509,-112.1842,40.2782,-37.2364,92.8164,37.0693,139.6743,116.3762,-20.0143,-205.3718,1.5978,-6.0051,130.2254,72.9429,-16.3004,-45.6764,130.8355,-50.8837
-226.5625,-22.0911,-216.0529,53.1897,-57.2865,97.3622,-16.1629,76.5962,21.2510,50.3212,100.9036,0.4555,-112.2787,-14.8399,-59.4107,76.5737,93.8034,2.1822,-61.4027,43.4515,-67.4082
-218.7500,48.8967,-41.3322,88.4204,-57.0939,95.7381,-55.7941,74.6732,-55.2595,12.2829,62.7538,-39.7914,32.1173,-54.9883,-62.5184,37.2221,17.9864,2.9566,5.4232,9.3694,3.3684
-210.9375,-20.1196,101.3783,16.6474,-89.9095,24.1180,-89.4255,2.7520,-88.7615,-21.7324,102.6269,-111.0505,217.4975,-90.1507,13.3801,1.8785,57.1768,39.7159,-3.3211,11.2935,5.1468
-203.1250,8.5495,23.7716,9.5671,-62.0330,17.1944,-60.3607,-4.4674,-22.5586,8.9786,132.2309,-118.6253,135.5664,-97.6229,5.9812,-5.7567,86.0829,-38.8357,-8.1341,38.9205,-2.3686
-195.3125,-65.1845,-85.2438,2.0803,-64.5635,46.8682,-29.7025,61.9160,7.2462,39.3050,163.4508,-125.6034,91.2290,-103.5001,35.1745,-13.7905,42.6092,-42.7901,64.1299,-0.8525,63.7157
-187.5000,-18.9175,-4.2675,-20.4053,-18.1044,-12.4605,-16.0468,2.3023,-50.9429,-55.3499,67.6868,-111.5886,103.8858,-54.3862,86.3641,-36.8228,57.1443,4.2419,37.9992,11.3748,40.8075
-179.6875,19.4365,-71.2019,20.1996,-14.5507,28.3054,24.7075,42.7811,-11.0248,-50.8930,35.0398,-72.4876,-3.3505,-51.1838,89.6666,-33.7565,-13.1991,-27.6386,49.0794,50.7000,44.0082
-171.8750,-56.0178,-112.9497,11.9924,-20.7944,20.2633,16.6653,34.4536,18.1050,-57.2198,-8.3855,-117.1991,61.6097,-58.7880,81.1752,-5.4904,52.6796,0.6620,79.0617,43.2204,72.4113
-164.0625,-35.6413,49.1433,0.6271,-34.1888,9.0710,42.4768,22.9777,7.0930,-68.6808,-19.9395,-129.0694,85.4206,-71.5526,-4.4676,19.6255,4.4190,-48.2021,27.8715,65.5901,23.6746
-156.2500,-69.0254,85.4819,2.5006,2.6632,48.1255,44.5350,98.7505,83.3400,-65.8791,-53.2213,-127.7050,50.4833,-106.0764,-39.8645,-16.0115,-67.5722,-81.8336,38.5672,67.2138,25.1956
-148.4375,-103.3723,14.8642,2.4149,38.5595,48.2287,81.6420,24.5740,83.6477,-65.0136,-16.4296,-165.3002,49.5843,-106.5578,-3.2098,-90.5921,43.5035,-82.4344,38.2945,66.8894,24.7721
-140.6250,-96.9833,-84.0112,12.0723,46.1987,58.0789,91.5000,34.1502,129.7068,-18.3902,31.1221,-193.1490,-52.5622,-98.2943,43.1989,-44.4217,53.3483,-110.2947,12.5737,74.3119,-2.8933
-132.8125,-128.0490,-150.3422,-21.7253,14.3831,98.4741,94.9071,110.2696,170.3229,-14.2110,35.2432,-153.4608,-50.1581,-95.4919,46.1635,-41.7022,19.7639,-107.6195,19.4617,112.2797,0.0013
-125.0000,-81.3758,-68.9386,-8.7807,-43.6866,74.6157,34.0682,87.1337,110.6973,-0.2715,49.1423,-141.0343,-75.0056,-45.9491,-15.1225,44.7635,32.9474,-95.2080,23.3680,89.9976,12.6534
-117.1875,-103.1107,-21.9396,-33.2369,-100.1536,50.3567,-27.1672,99.5916,49.6791,50.2655,136.6566,-93.0204,-100.2478,-70.8167,-2.8058,129.8173,45.7478,-83.2069,26.1114,67.3113,24.9123
-109.3750,-43.3573,-31.4414,-5.1980,-109.1252,41.5969,-71.8993,90.5436,4.1720,42.3152,128.6933,-66.5228,-36.0037,-80.1946,-11.9864,120.3706,74.0648,-22.7235,13.1814,23.1246,15.6821
-101.5625,11.3263,-82.0020,14.7776,-125.1485,24.7856,-87.6828,73.4467,-12.3788,100.3261,222.7014,-47.0881,-90.8083,-60.6332,-66.2149,102.8766,94.3475,-73.3009,29.0259,6.8905,35.4080
-93.7500,-105.8920,-95.4795,-35.1492,-102.0780,12.0758,-28.3684,23.4577,12.1798,125.4433,247.8219,-60.5630,-30.5197,-73.9758,-5.3459,53.4846,117.7411,-86.7897,14.8878,-6.2343,22.2396
-85.9375,-71.3681,-95.2178,-32.3308,3.7344,15.1151,11.6918,26.2203,15.4952,18.3253,177.7135,-58.3000,44.5102,-71.5783,-2.7279,18.8497,120.8929,-121.5382,-15.7690,-40.6020,-12.1678
-78.1250,-86.3053,-76.4130,-50.9668,22.0926,32.7000,-7.6980,6.5313,70.3640,36.7682,160.1686,-77.4984,-11.9066,-54.6401,-59.5602,72.7608,102.6188,-137.7423,40.2738,-56.4162,41.9788
-70.3125,-118.9950,-3.3636,-83.3522,-44.3057,-72.4644,-3.8404,10.0994,74.4910,41.4725,90.8841,-74.4530,27.9161,-51.4563,17.8545,75.9229,142.6041,-98.7118,37.9503,-52.9793,45.3843
-62.5000,-33.6484,47.7230,-30.6993,-28.6643,-55.5865,14.0642,27.7165,18.6718,-13.7628,35.6667,-21.3643,-29.2065,-34.2311,35.3274,92.1393,13.6557,-84.6391,21.1582,-37.4916,25.8523
-54.6875,-74.0568,41.0524,-1.8059,0.2220,9.5357,43.2138,19.5806,11.1043,-19.7404,65.7142,-30.0302,-1.0761,-42.7625,27.0605,10.6156,-31.0285,-90.3266,54.9790,-43.7516,54.5731
-46.8750,-15.4220,-4.5811,-9.8666,26.1475,38.7076,35.4100,11.5046,3.5938,-63.6553,21.8196,-38.6493,27.0934,-51.2488,55.8397,-108.8467,35.3448,-31.9722,12.9498,-18.9538,9.3521
-39.0625,0.3065,-60.1226,43.1690,42.1667,91.9798,51.7034,27.5239,20.1792,-82.4655,-33.9629,13.8254,-31.6352,1.3606,34.7119,-56.2050,-22.1662,-51.5180,33.5250,-38.0552,25.2400
-31.2500,-37.5678,-97.2688,38.6050,38.5793,50.6560,10.3864,-14.0540,-19.8356,-85.8675,-36.3300,45.6976,37.0264,-3.6307,29.9772,-24.1556,47.7342,15.3248,60.9114,-74.7487,57.5290
-23.4375,21.2988,-40.6792,28.7881,27.7291,4.0869,0.8139,-23.8704,-30.0962,-58.5074,-45.9391,35.3145,62.4337,23.1247,-17.0056,39.6522,-35.6073,3.9074,10.1208,-52.6834,10.5741
-15.6250,-15.1386,29.5979,28.6659,-8.4361,4.2159,0.9372,50.0142,-29.6552,-21.4383,-80.8355,71.6237,25.5381,22.5743,19.7148,39.1658,-108.2281,3.1853,11.4793,-17.9154,10.3266
-7.8125,39.4656,47.9157,12.5876,11.4443,-11.6076,-14.8943,-3.0509,-45.1556,-72.3115,-95.6665,54.9785,44.6855,43.0714,3.4840,22.7307,-50.7908,56.5004,-6.5950,1.9121,-5.8641
-4000.0000,19.7831,26.7608,-6.8083,-7.3549,-43.9664,-6.8996,-4.7854,-21.0418,-49.0473,-56.4990,41.5696,20.2788,38.5463,-0.1992,38.8029,3.9183,23.2194,-6.1192,13.6548,-3.4118
-3992.1875,5.7569,-57.5493,51.6648,12.7929,-22.1614,15.2167,17.5484,0.7357,-64.4684,-108.3854,64.8617,5.7605,61.7067,-52.1097,-11.2167,-11.0514,80.2333,-11.1643,34.3334,-17.9892
-3984.3750,72.0874,-62.5095,83.4909,-27.7143,45.9957,9.6772,12.2348,-42.1399,-33.5349,-42.9296,23.5136,0.5856,20.2206,-94.6771,-15.8847,-53.6810,75.6072,-15.9316,64.3642,-23.2125
-3976.5625,9.2297,-89.6757,56.1216,-55.4323,90.9529,-18.0703,57.7257,3.7797,49.1974,2.3244,-3.0310,-63.7982,30.5436,-48.4532,30.2504,-118.5150,48.7853,-41.7340,108.2063,-50.6340
-3968.7500,26.0708,-74.1460,73.4511,-5.4553,107.6162,-1.1157,74.9272,-16.5994,28.6347,-128.7286,15.1298,-46.4886,48.5659,-31.5321,11.0868,-174.6586,99.6692,-56.6895,88.7541,-70.3555
-3960.9375,113.3196,-22.2226,127.1850,10.9182,160.6799,15.2350,17.5373,-37.5829,7.4713,-113.3981,32.6936,-103.7800,28.9928,-52.2079,-44.6781,-194.4061,46.9605,-40.4887,34.7056,-53.6754
-3953.1250,42.2732,11.3879,88.6203,8.9895,121.4449,49.2828,-20.1469,-2.8697,5.0122,-80.3712,-5.0392,-68.3793,-8.8748,-17.1832,-82.7354,-124.4642,45.9563,-43.6970,33.3616,-55.2930
-3945.3125,79.8810,-21.3538,127.7066,45.7120,85.8613,87.9777,-18.1832,-1.5135,6.2074,-79.6935,-39.1148,-66.3288,-6.0912,-15.5118,-154.1395,-122.8791,48.6135,-37.9086,35.6643,-53.2624
-3937.5000,32.3017,-104.2887,111.5993,33.2263,106.0844,72.4675,2.5837,18.6373,63.2048,-23.2170,-90.3862,-82.4885,-57.5051,4.9500,-132.7389,-101.5030,36.0724,22.0820,58.7687,4.5678
-3929.6875,33.5206,-103.4278,77.2907,33.5360,71.1144,37.7560,-31.8423,20.5906,28.0125,15.0627,-86.8613,-5.8626,-54.1208,7.2063,-166.5378,-26.3280,73.3326,-16.9116,59.6784,-29.7988
-3921.8750,114.9918,-22.3203,126.2315,43.0960,119.3949,12.2946,-20.0177,-5.2058,39.0664,25.5896,-38.0816,-104.9881,-42.4795,-92.2917,-117.0927,-88.9025,48.8487,-42.0090,34.8369,-54.9189
-3914.0625,81.9704,14.2814,125.6808,44.1541,118.1850,11.3310,-20.6834,-43.5043,0.6218,-13.3884,-0.7962,-68.6254,-5.3340,-93.2923,-117.1489,-89.9867,120.8606,-7.6857,-68.5047,-18.5375
-3906.2500,125.5962,57.5247,135.7780,86.8617,90.6283,21.0163,-121.6961,-108.1574,-64.1700,-4.7237,47.1419,-21.6077,42.4627,-46.6365,-143.5555,-80.4293,94.5303,-42.5277,-95.1954,-45.5036
-3898.4375,90.5340,57.0712,133.1775,85.8654,87.3755,17.9936,-87.4049,-37.5181,-30.6582,28.2309,82.3832,-98.2920,40.5651,-86.6809,-108.6581,-83.5833,23.5082,-6.4594,-96.5812,-11.1743
-3890.6250,48.3277,-20.5315,49.4342,43.7168,39.9779,6.8179,-61.2549,-12.0313,-5.2875,90.0269,36.4782,-35.1387,-5.4799,-59.8900,-153.9056,16.0984,17.3415,53.6252,-103.1146,52.0088
-3882.8125,47.0727,-22.1879,10.6436,41.5153,0.5309,41.5887,-99.1583,-14.6013,-7.9662,123.7718,35.5261,-37.0329,-6.5693,-26.1525,-155.1990,87.7272,-18.8669,46.6500,-104.7003,50.1413
-3875.0000,17.7298,18.0483,13.7555,45.2108,-33.0113,44.2564,-59.1575,-11.2699,-4.7400,15.4162,76.4844,2.9600,-39.7530,13.4778,-151.5960,53.2455,-14.1710,87.8300,-134.3810,90.1692
-3867.1875,66.3412,67.2307,26.8235,57.8536,-20.5874,56.8705,-119.1989,-71.9950,-102.5593,-82.9899,53.3988,89.9014,11.0145,26.0469,-175.0472,28.6993,35.4828,99.6316,-156.1144,103.1497
-3859.3750,80.3631,9.8190,42.2963,35.8923,-6.7561,34.8762,-103.8413,-57.3278,-50.9790,-68.9972,32.7138,31.2363,-9.8143,4.0152,-86.1002,-29.4548,14.5428,80.7540,-72.4485,81.5275
-3851.5625,9.1878,-26.7976,3.5739,33.7271,64.8790,32.6774,3.3229,-23.8599,-17.5910,-72.2050,-5.1669,29.3609,-47.8434,-34.2206,-51.3434,-67.8205,13.4053,87.2861,-3.9757,79.7026
-3843.7500,20.6142,-15.8200,14.4553,-25.8389,75.1207,6.0733,14.0966,-13.7963,28.4039,-25.8181,-30.4407,-32.9180,-36.2663,-23.8655,-39.9857,-21.5948,-46.1273,93.7811,-27.9008,90.4777
-3835.9375,-38.8005,-39.7020,-11.5058,19.7407,48.5153,16.6140,-11.9739,-3.5904,75.5557,19.7180,-18.5618,-58.0581,-24.5370,-49.3654,-28.4734,-47.2235,-34.5013,105.5800,-16.6739,101.4026
-3828.1250,-32.4591,-33.8426,-5.7160,60.0671,53.6600,21.9008,-6.2914,-34.6371,43.4659,-11.9912,-48.9254,19.5497,-18.0584,-81.1189,-58.2210,-42.1051,-28.1159,113.1518,-10.6979,107.0746
-3820.3125,-20.1086,-56.9739,5.0818,2.3935,26.8122,-3.8129,4.3935,11.3133,53.3724,-3.6997,-73.2939,-79.8412,29.4187,-34.8764,-10.9794,-69.9940,-85.7253,159.8988,71.2765,153.7427
-3812.5000,-107.7534,-75.1034,-49.1208,-52.2841,43.9792,-22.5313,59.0799,-7.7358,34.2901,13.6001,-54.6685,-24.2351,48.8895,19.3654,-64.7379,-14.8945,-33.3418,140.0444,89.2523,135.4102
-3804.6875,7.8409,-63.9927,34.9259,-41.7085,92.4030,-47.9968,34.0178,-33.5342,44.4611,59.1508,-5.7920,-49.3782,61.6113,-79.1356,-89.2432,-77.5488,-22.7084,115.5910,64.4753,110.3227
-3796.8750,-17.8594,-20.1940,41.6730,-34.4353,98.5353,-78.7656,40.6624,-27.6302,87.3411,65.4042,1.7868,-79.8384,32.0392,-145.9393,-9.0515,-108.5052,-47.3776,158.8931,37.3968,153.9355
-3789.0625,-47.4668,-16.3081,11.5195,4.9349,67.7712,-35.4344,-25.5913,-58.6207,56.3290,-2.2284,-27.5334,35.7951,2.5644,-66.6464,-38.7642,-102.3645,27.0531,127.9923,42.4195,123.6514
-3781.2500,21.2805,-52.0658,46.7163,2.6568,65.3618,-1.7560,8.5038,11.7342,53.6645,-5.5072,-28.5057,-2.2189,-35.5584,-32.0057,-40.1344,-141.8712,-44.1621,129.7297,40.7867,121.7135
-3773.4375,-48.2661,-54.1225,7.6188,2.0748,98.6589,-41.3823,6.3070,8.7900,86.7069,62.9160,-29.7789,-4.5362,-36.9855,1.3307,-41.8028,-108.6853,-79.6826,159.5403,4.8497,155.4774
-3765.6250,-47.6685,-52.0364,-26.3315,-32.3580,27.1078,-38.8603,8.2597,9.9925,88.9018,27.4949,-26.9040,-2.7036,2.7359,2.8200,-3.3244,-32.3454,-77.0485,119.6199,-28.9386,121.3920
-3757.8125,-64.5655,-71.4643,-9.7800,-16.2906,43.0596,13.1613,61.7127,61.6967,104.6040,-30.4152,27.4696,-96.3815,-17.0393,-17.1865,13.6478,-127.5041,-95.9130,145.4528,22.7722,137.8007
-3750.0000,-85.1104,-56.5484,5.1273,32.1238,-14.6279,27.5328,3.5201,3.7530,81.6675,-53.9638,6.1918,28.2839,-1.4692,-39.8423,-43.0364,-113.3227,-10.4297,159.3856,2.8287,152.5611
-3742.1875,-29.8042,-1.7781,-9.1180,51.3847,-29.4630,12.7499,-10.8267,24.6573,67.5842,-31.6508,30.7578,13.8042,22.9457,-90.6477,-20.8817,-53.2858,-60.0922,104.2039,-12.2664,102.1687
-3734.3750,-59.1923,38.2977,-40.0610,-14.0493,-24.9943,-18.7320,68.1312,-7.1312,108.8054,-65.0322,73.6223,18.6151,28.6524,-86.1591,95.5706,-85.9576,-54.4569,104.1894,-42.0659,107.0708
-3726.5625,6.3645,69.3187,-45.0553,-19.5273,-30.5718,-60.2586,63.0439,-85.9658,65.9812,-108.4575,32.4315,87.3786,24.3046,-91.7221,127.9664,-54.6835,11.1262,94.7359,-80.9195,101.9253
-3718.7500,17.9691,8.3809,2.9947,-9.9568,-20.1032,-49.7377,1.0073,-38.7464,77.2154,-24.8146,8.2769,-11.8091,0.0020,-44.2291,139.4134,-44.3480,-13.2435,71.2459,-71.7278,76.8281
-3710.9375,7.8207,-37.3202,29.2883,13.8579,5.6144,-60.9697,-9.7717,-50.2733,28.7194,-36.9113,72.3652,14.2477,-10.0601,-19.4763,56.1183,-19.7628,47.6333,63.3820,-82.2805,65.9786
-3703.1250,56.3194,10.6306,42.2296,-43.6788,17.9813,-48.5539,-69.8966,-38.1496,3.8819,-25.3470,86.1004,-46.0467,3.5223,-7.0747,32.4701,-7.5273,26.1640,73.2495,-69.1882,78.7770
-3695.3125,-12.1803,12.5921,-29.8304,-76.2158,-17.6434,-47.1391,-32.0200,-1.0240,79.0542,-24.7657,14.8296,-80.3486,-30.8999,68.3154,71.8120,30.7063,-7.3080,74.0341,2.9034,80.5706
-3687.5000,-44.0859,-19.8501,-62.2916,-40.1526,-50.6555,-44.1286,9.4658,39.7041,45.8368,-22.5747,-16.8474,-4.0536,-25.7265,109.3061,39.7477,34.5387,-3.1827,43.6140,6.5945,47.9560
-3679.6875,-36.2874,-47.6043,-55.0511,-33.3861,30.0402,-37.4155,16.6523,46.1340,52.3249,57.3140,-45.8279,-34.0547,-54.8548,42.0042,120.3801,41.0651,-101.3575,50.6616,-22.0196,55.0357
-3671.8750,-129.5883,-36.4703,-114.9089,-57.7197,42.6438,-61.8033,66.7395,21.4662,64.7226,106.1083,5.0880,-21.1634,-4.0811,-56.3974,207.9129,53.4859,-89.6362,22.9637,-45.7351,31.0137
-3664.0625,-57.0445,35.5224,-75.9206,-92.2050,45.1037,-59.3396,105.6831,-13.3510,102.9782,33.7608,8.8483,-55.4273,35.5391,-90.9543,211.2945,-18.2464,-88.0633,-10.6438,-8.6040,-3.1655
-3656.2500,-66.7527,-44.7335,-87.1788,-66.9382,70.3196,-71.1246,131.3869,11.5864,127.9955,58.1716,-38.6475,-102.9545,-11.0907,-28.7704,163.4245,-30.2279,-61.7505,21.6311,52.2771,22.4015
-3648.4375,-93.6697,-72.1980,-76.6405,-59.8754,79.3426,-61.1146,67.8902,21.3296,27.8256,66.3999,-64.3527,-19.6821,-0.9234,54.2209,100.3459,52.5927,-18.6357,-42.5652,58.9555,-41.2341
-3640.6250,-79.9871,-94.0700,-24.5042,-47.2081,93.9663,-46.5007,156.9943,34.6726,41.2620,117.2397,-48.4662,-115.8087,14.8382,-4.1790,115.8521,30.0212,-74.9183,-60.0593,37.2323,-63.2790
-3632.8125,-160.0526,-139.7045,-73.1138,-57.2909,81.8470,-58.6337,145.3514,59.2757,65.9575,178.3439,-59.3397,-53.6969,3.8426,-16.3208,141.5991,54.6986,-83.9604,-37.3013,27.7598,-38.0766
-3625.0000,-87.3280,-32.5444,-69.9276,-21.5704,-25.4696,-18.9641,74.5070,61.6887,31.4576,106.2663,-55.4278,-13.7858,7.6389,-13.6589,71.1362,94.1827,-47.2057,-74.8683,-5.9162,-72.0776
-3617.1875,-42.3052,11.9187,-23.4443,-12.5452,-16.4746,26.0060,83.9664,107.4097,40.2636,77.5049,-45.2298,-78.5779,-19.2714,-4.6993,6.9685,28.9635,-72.1606,-59.7579,3.7052,-62.7884
-3609.3750,-64.2449,-80.5716,-47.9136,-35.4681,-41.4172,2.0309,59.4837,119.1933,16.1300,125.8105,-31.9914,-66.3301,-6.1383,43.3046,-16.1536,114.7915,-59.0787,-50.3185,16.3748,-50.4508
-3601.5625,-16.9898,-103.8689,-34.1854,-59.1890,-28.1551,-21.7426,73.1975,95.1821,65.1992,175.3298,-18.5669,-163.8766,8.1884,19.5185,33.9080,53.8292,-46.7989,-73.7703,64.2387,-73.9183
-3593.7500,-23.2887,-75.7218,31.9919,-31.4558,0.5636,-29.0588,103.3594,50.6282,94.7269,56.3110,12.3031,-133.9773,1.9564,12.1909,27.4129,-63.6871,52.9226,-74.2517,57.5486,-80.9432
-3585.9375,63.9555,45.9674,86.7192,-16.1675,17.8396,-48.8203,47.0777,-6.3674,37.8059,-1.1488,-6.2886,-42.5233,-16.7338,-7.5813,-28.5424,-83.6523,104.1866,-94.6292,73.4015,-100.4207
-3578.1250,118.3459,29.8019,70.5923,-67.7279,38.2728,-65.4271,30.9445,-23.2082,95.0442,-18.4414,52.2576,-95.9223,-32.2784,-24.2057,29.6459,-100.4622,158.5962,-113.7965,92.4008,-116.7549
-3570.3125,173.9308,-56.1701,90.6632,-83.0923,-16.0923,-119.8348,51.0157,-76.8382,77.4935,-109.5108,110.0010,-76.1340,25.3745,-40.6379,50.0336,-44.0646,250.1996,-95.3693,112.5985,-96.8934
-3562.5000,243.8114,-57.8391,126.0334,-120.1551,18.8495,-158.9494,49.3813,-116.1670,112.2480,-112.2663,109.0357,-115.0409,61.3227,-79.7645,85.7146,-83.3573,214.1020,-99.3251,146.0849,-98.7348
-3554.6875,174.8892,-57.3113,127.6006,-155.0147,58.0000,-193.8613,124.9426,-114.2929,187.2053,-110.8024,111.2591,-149.7491,27.4636,-41.6761,161.5864,-155.4461,215.1933,-131.9792,182.7651,-133.3812
-3546.8750,190.4052,-77.3374,144.6178,-175.4146,147.6042,-177.3135,178.9561,-208.9628,166.6181,-168.8812,165.9198,-133.0018,81.0463,-62.1232,178.8940,-176.0857,265.7299,-152.1504,126.8844,-153.5836
-3539.0625,260.5235,-147.7609,179.2337,-177.2052,144.8113,-217.1607,176.5669,-248.0237,200.6315,-172.3499,201.1706,-172.6535,116.2195,-100.9642,213.7900,-179.1228,230.8568,-120.0656,126.5954,-119.1890
-3531.2500,200.6304,-173.1802,153.8420,-202.9962,156.0225,-206.0051,151.1763,-238.0777,174.6547,-198.7910,176.4090,-87.3064,128.3845,-89.8094,188.6797,-131.1519,275.9715,-145.0087,172.2996,-144.7958
-3523.4375,283.0243,-126.3002,204.7452,-155.4813,206.5366,-192.5439,165.0828,-224.8220,150.9826,-185.9173,153.9331,-74.6543,105.8437,-187.3521,165.8617,-191.8700,253.3798,-163.9038,113.2953,-168.1092
-3515.6250,223.7148,-81.1255,175.9456,-181.6576,214.3480,-184.7743,136.2889,-253.2577,122.6175,-104.7338,162.7494,-65.7057,78.5960,-179.5897,174.3425,-147.2857,229.0769,-123.7417,88.5777,-123.1225
-3507.8125,191.8926,-43.4583,106.6375,-143.3308,107.6587,-180.4982,30.9884,-213.1828,52.7613,-101.0308,168.0556,11.7451,82.8428,-101.3202,142.3120,3.8067,232.2676,-165.6917,21.3520,-155.6378
-3500.0000,170.0641,-65.7839,83.3282,-60.9971,46.9762,-94.2191,80.6851,-90.1008,27.9025,-126.3117,144.3554,-49.8020,23.0843,-16.0432,118.2625,-21.0961,104.4516,-146.0369,-0.8821,-143.1626
-3492.1875,40.3316,-20.0072,18.1238,19.4457,-18.5894,-12.8388,15.4808,-8.9135,-0.8494,-118.4745,6.7470,32.7515,-4.5855,140.3354,-19.7003,24.0964,80.7270,-98.6396,-61.0299,-97.5909
-3484.3750,45.3384,90.5190,-12.3364,59.6451,-49.4068,67.2937,-87.9813,34.0262,-104.8435,-75.8718,-23.1267,76.0647,-71.5117,182.4747,-122.9218,67.0470,50.7485,-130.0899,-56.4370,-128.2717
-3476.5625,-7.0055,178.6937,-31.1496,77.4965,-31.5770,85.0816,-69.7985,88.6255,-124.1809,51.3994,-41.3629,57.0249,-125.7954,127.2700,-141.4951,84.6550,-36.5927,-111.3342,-73.1971,-110.3098
-3468.7500,-56.6128,128.6157,-84.2172,97.1024,-84.9899,104.6275,-123.8573,107.9907,-178.7590,107.4418,-93.8632,186.7307,-142.3421,146.8160,-195.3333,214.0192,-16.1979,-94.7562,-88.2150,-90.5986
-3460.9375,-46.5282,68.2369,-109.5915,106.4148,-110.7014,115.8794,-149.2248,155.0622,-130.6338,191.2033,-118.6799,125.1457,-167.2002,157.0684,-146.4888,225.0996,-41.1085,-120.8830,-43.5429,-116.1902
-3453.1250,-84.9501,134.3590,-78.4707,102.2391,-79.9098,109.6396,-81.0956,149.6461,-137.0036,184.4784,-124.0074,82.0605,-172.5677,77.8254,-152.1558,181.6789,-9.5301,-83.6433,-47.3792,-85.2864
-3445.3125,-11.1842,137.6804,-77.1528,34.2739,-115.9171,73.6099,-79.7722,113.4365,-136.1743,185.9650,-122.1478,83.1847,-133.7431,78.7928,-186.6365,219.4669,-40.7610,-51.8030,-44.0293,-47.1812
-3437.5000,-79.1747,104.2534,-112.5894,35.5643,-151.6709,74.8356,-4.2058,151.4861,-61.0937,222.7236,-120.0565,47.5595,-131.6814,117.0156,-148.8784,184.5203,-109.7527,-50.5713,-42.4373,-45.8297
-3429.6875,-144.4801,109.5310,-144.3351,40.5555,-109.7223,116.7656,1.0641,156.2480,-56.3010,227.2109,-151.2807,89.6259,-125.9301,195.9429,-179.4249,152.2847,-139.0602,-45.3892,-72.1469,-40.7827
-3421.8750,-86.8471,95.7556,-122.1368,97.5014,-87.8177,138.6459,-87.7168,177.9681,-144.5545,248.6654,-164.5709,74.6495,-140.2356,143.8284,-193.0337,174.0100,-151.4265,-20.7851,-85.9155,-18.7864
-3414.0625,-112.1741,70.0217,-148.8925,106.4998,-78.8591,147.5825,-151.4504,149.7525,-135.7482,184.1929,-81.8289,83.7206,-130.4998,115.7703,-147.6071,182.7946,-71.7610,-12.9838,-76.6377,-9.7426
-3406.2500,-9.2704,101.5311,-116.4078,67.7569,-82.6482,106.7776,-118.9349,108.8037,-175.6839,105.9881,-47.8492,117.0454,-96.5285,111.9708,-114.9428,178.8370,-38.8548,-20.4235,-115.1151,-13.4528
-3398.4375,-22.1234,88.2853,-94.6736,19.2703,-61.1837,55.2331,-60.1725,93.1153,-82.3640,164.0523,-62.6378,28.6175,-111.3164,96.4237,-56.0357,126.1388,-87.7100,1.3923,-58.3460,8.0846
-3390.6250,-43.5931,66.4398,-116.5498,-2.8193,-83.3218,33.0889,-82.0079,70.8393,6.3707,178.5412,-121.0434,79.5812,-132.7119,111.2847,-40.7260,177.8559,-38.1787,-24.5465,-44.1789,-13.9784
-3382.8125,25.1753,64.8382,-81.1813,30.3391,-85.2111,31.1966,-46.5896,68.8195,41.3642,139.2949,-122.2108,41.7991,-133.8634,72.4014,-42.1739,138.8362,-39.4064,-22.8527,-45.7661,-15.7980
-3375.0000,-24.3137,50.9778,-98.0673,16.2500,-138.3393,13.0569,-27.4168,88.5605,60.1211,84.8178,-101.6392,23.7606,-113.2704,55.2666,51.1215,120.5689,-18.9036,32.7896,-60.6067,40.1304
-3367.1875,-32.9692,40.9604,-143.1095,41.0194,-183.6079,41.7722,-72.3989,43.1609,51.7359,39.2161,-73.2340,52.5718,-84.8344,82.9906,79.2549,112.1564,7.4392,-16.5723,-70.6097,-5.0943
-3359.3750,-25.1861,48.3953,-99.7020,83.2528,-176.4188,84.9447,-27.9417,50.2188,58.7990,82.0766,-65.3932,22.8424,-113.9571,-19.8285,86.8204,82.2009,-55.7727,-3.9704,-63.1732,2.1220
-3351.5625,-74.0081,105.2350,-113.8886,69.8954,-118.8236,33.5267,-43.0894,71.6864,80.2626,140.3510,-116.1725,81.5133,-127.6942,-35.2462,-38.2219,103.6508,-33.5979,18.1776,-76.3449,23.7397
-3343.7500,-25.3424,118.5839,-98.5841,82.0402,-103.7295,85.6071,-63.7454,86.6605,-14.7732,156.1439,-137.4713,23.6929,-111.9452,53.8458,-95.7716,82.6185,-90.9286,-37.3567,-28.0204,-34.1444
-3335.9375,-83.7295,59.8827,-86.3328,94.1390,-17.6848,97.6456,22.5422,135.5971,-2.8563,204.9072,-124.8262,-38.1863,-99.2505,29.8918,-83.3842,21.5484,-148.3242,-18.1395,-50.7553,-22.0822
-3328.1250,-78.4304,29.8709,-83.3805,63.9461,-51.9313,64.3926,-48.4766,101.2462,-0.2328,207.3832,-120.4946,38.6376,-95.8637,-4.3582,-43.3174,97.1870,-108.0306,14.9658,-81.7992,17.6848
-3320.3125,-102.3896,-30.3965,-108.6830,39.5131,-78.4328,74.8962,-74.7577,111.6522,47.1375,217.6237,-73.4284,-24.7757,-47.7367,6.1558,4.4808,107.5941,-201.9963,21.3886,-36.1003,28.2008
-3312.5000,-192.9563,-86.2648,-94.5892,53.4875,-64.5307,88.8114,-23.6424,162.4700,23.9133,194.2836,-21.9764,-10.7944,-33.2223,20.0770,-18.3270,85.4055,-222.5740,41.4623,-22.0077,42.1132
-3304.6875,-170.0408,-63.6255,-70.9944,40.9699,-3.1241,76.2313,-36.0340,112.7964,-62.8124,181.4597,-71.0419,50.6940,-8.2198,44.5063,-67.6516,108.7298,-199.6592,28.7644,-34.4239,29.5269
-3296.8750,-166.4313,-61.2817,-66.7055,43.1574,0.9877,79.3528,5.2682,116.8283,-21.8352,185.3603,-103.4201,17.8824,-40.5247,48.6404,-26.2883,39.7678,-197.0623,-0.8454,3.8516,-3.3610
-3289.0625,-173.2392,-32.3481,-73.8265,70.9499,-6.2992,72.0835,35.1680,109.4774,-66.2475,103.8816,-110.2071,83.6709,-10.2369,77.3756,-33.3253,32.4159,-167.8837,-6.9752,-3.2775,-10.6504
-3281.2500,-135.6644,-65.0213,-70.5536,4.1512,-3.1850,39.2236,38.4653,149.5399,-26.2569,143.8195,-106.6144,50.8673,-6.5563,117.5193,7.0258,35.4778,-200.3196,-7.8756,-0.0181,-7.5371
-3273.4375,-191.1501,-50.7367,-129.3374,-17.6893,-25.1240,53.3226,16.6978,127.5650,-11.3103,121.7272,-54.0889,65.0132,9.0625,169.6211,22.3145,13.5032,-151.8206,-33.5477,13.1828,-29.4716
-3265.6250,-100.9062,-29.7004,-69.3763,3.2298,-2.3151,39.1819,2.6786,113.3507,-25.6099,70.4022,-67.8288,50.9101,31.4252,118.4904,-28.6613,35.2899,-130.5854,-45.4541,-0.8770,-43.6559
-3257.8125,-90.6199,-90.6219,-61.3687,-21.7936,5.5473,48.0994,47.7053,84.1943,19.1455,115.1459,-132.5366,-14.1443,3.8293,53.4210,53.3999,80.1394,-154.3125,0.6956,9.1039,1.2117
-3250.0000,-136.2517,-101.4395,-109.2715,-32.7163,-42.4902,37.1219,36.8288,37.1505,45.0107,104.0246,-107.1651,48.9006,-6.6821,115.4442,42.5568,143.1026,-95.9547,-16.1435,-1.8159,-9.8178
-3242.1875,-87.4478,-51.8028,-56.7303,15.8158,9.9270,51.5961,15.4033,15.5701,-13.6674,82.3735,-91.3638,63.4074,-27.7546,130.9144,-15.8516,84.5302,-117.1656,-34.7356,-23.2862,-31.4012
-3234.3750,-120.7081,-51.2266,-57.2456,52.3021,9.2984,52.0292,-22.0714,14.9563,-14.3895,118.6959,-127.6254,99.8521,-64.8847,130.3424,-53.3140,47.9178,-115.4492,4.3843,13.1897,4.9689
-3226.5625,-117.9903,-47.6686,-89.7712,54.7892,13.6663,55.4714,-54.5489,19.3556,-10.1014,123.0378,-123.9036,104.2925,-23.0260,97.7864,-85.7760,88.3159,-77.7443,-29.7399,15.6656,-27.6572
-3218.7500,-92.5321,-22.3519,-64.5518,45.0315,38.7819,44.6702,7.7221,44.5113,14.9405,111.1388,-61.4469,19.4915,-34.4274,-61.0139,-23.4977,76.4716,-122.2997,-1.1280,5.8892,-2.5357
-3210.9375,-148.6345,-45.5848,-88.8849,22.7281,14.3555,57.3202,-16.5595,20.1298,27.4426,86.7050,-121.5565,105.1440,-21.3899,-11.3601,-47.7762,89.0796,-109.4203,9.5457,18.5560,10.0401
-3203.1250,-111.2537,-6.3273,-81.7228,60.9338,20.4308,100.4767,-46.3503,26.2548,-2.5553,93.7876,-152.1809,75.3055,-13.8621,68.7993,-77.5679,59.2070,-141.0547,-57.9209,-13.2827,-56.8821
-3195.3125,-139.2301,-34.4201,-37.9132,67.7969,64.1599,107.2958,33.5019,70.0421,4.1028,26.5308,-108.1678,9.1084,-6.6920,75.6085,-33.7243,-7.0057,-169.0508,-44.3820,-41.4746,-50.1538
-3187.5000,-159.2220,-19.5139,-23.1073,82.6664,41.8918,85.1224,-24.6461,47.8366,-55.2342,41.2871,-130.1681,59.9173,8.4697,53.4201,-55.8888,43.7902,-154.0632,-31.0682,-26.6780,-35.4180
-3179.6875,-136.8754,-32.2548,-35.9543,69.8963,-7.0193,109.3031,-0.4632,71.9849,5.7724,28.4107,-105.8351,11.0865,31.9733,40.5964,-68.7143,30.9453,-166.7341,-43.3698,30.4541,-48.3320
-3171.8750,-160.7856,13.7545,-25.0496,45.8875,3.8239,83.2467,83.4629,45.8916,-20.4725,-33.7096,-131.7599,95.0017,7.2200,15.5266,-94.7959,41.8526,-120.6663,-29.8935,6.3259,-37.4944
-3164.0625,-123.6079,85.8694,-23.0450,47.9880,5.7692,85.2969,48.4801,11.9004,-18.6214,-31.7262,-165.5983,134.0258,9.5577,-56.4300,-92.7895,43.8674,-118.5042,-30.9313,-26.7104,-35.5497
-3156.2500,-129.1860,45.2354,-28.7950,77.3394,-0.0343,79.6030,42.7415,6.1682,12.4826,-0.4827,-135.2008,54.3006,40.1357,-25.1241,12.4581,2.1468,-159.1094,-39.1314,-32.4982,-41.3521
-3148.4375,-176.8334,67.5424,-4.6025,100.6387,23.1145,66.8619,66.9558,-6.6006,-0.4518,-50.2707,-110.8627,78.5269,64.6512,-0.8625,-37.3480,-10.6086,-101.7810,-48.6925,-45.3364,-54.2006
-3140.6250,-93.8912,45.4415,44.1841,113.5373,35.8592,79.7250,79.7670,6.2418,-24.7808,-37.4427,-134.9397,18.3562,77.7556,-25.0016,-61.5598,-34.7434,-123.8600,-32.3520,-67.5804,-41.4397
-3132.8125,-143.2576,31.0309,29.6666,99.1404,21.2976,102.2939,65.2690,27.7970,-2.4025,-51.8934,-149.3301,39.8745,26.5508,33.5562,-39.0716,-49.1672,-103.2520,-45.4442,-12.1247,-55.9710
-3125.0000,-132.3909,76.8705,4.3940,110.0041,-41.0097,113.1216,39.0150,38.6100,-28.7755,-78.0815,-101.4804,50.6465,37.5899,81.3716,-28.3454,-38.3389,-127.4041,-39.6875,-36.4239,-45.2492
-3117.1875,-145.6791,63.5682,-11.0247,60.7218,-56.4539,97.8009,24.6056,60.2776,-44.2992,-19.4029,-42.7977,-0.7311,59.4699,66.0414,-43.7804,-16.6542,-140.7230,-20.4570,-14.8770,-23.6733
-3109.3750,-152.2856,21.9608,-15.7497,54.1374,-24.1952,93.1832,18.8926,55.6550,-123.1105,-23.9984,-47.4302,67.5893,92.0385,24.4092,-85.5248,51.7461,-41.3571,-59.9672,-21.6249,-65.3917
-3101.5625,-14.7063,53.5448,90.7193,50.7543,45.2629,52.7723,15.3762,15.2460,-126.7169,-27.3835,-13.8735,-8.8843,125.7959,-52.0174,-89.0784,-24.6380,-9.7986,-60.8769,-25.1744,-68.9079
-3093.7500,-48.7839,-15.5304,52.5360,16.7261,44.0740,15.7182,15.2102,15.1926,-53.9645,-28.4126,58.0223,-10.0139,124.8998,-16.0885,-53.2833,-62.6683,-8.9051,-27.9542,10.6244,-33.0681
-3085.9375,-42.1758,-113.9111,26.0465,-11.5977,17.5879,25.3664,-12.2592,24.8443,-43.5113,-18.7325,68.6074,36.5619,98.6924,67.5417,-79.7972,-15.9836,32.6811,-94.1456,17.1217,-96.5222
-3078.1250,-1.9733,-108.6890,68.1602,28.6840,59.7061,30.6221,29.8655,30.1025,-38.4597,-49.4497,73.7835,4.7368,104.0831,72.7666,-1.7184,-120.6866,2.8574,-85.5821,-12.7850,-91.3765
-3070.3125,-16.9323,-18.6167,88.1242,13.8147,42.6758,-22.2716,-23.1608,-59.7785,-18.5551,-29.3103,56.8016,61.7536,50.3190,55.8445,18.2119,-63.5341,93.8679,-72.1327,-62.8405,-71.3723
-3062.5000,49.4423,82.8011,85.4339,9.2930,2.9959,-25.8121,-62.8350,-62.3075,-95.2945,-68.8076,91.1574,59.1229,84.8993,16.2784,52.4854,-30.0236,89.2189,-116.6457,-67.5419,-111.0142
-3054.6875,53.2634,16.6620,125.1911,49.2202,5.7799,14.0985,-23.0549,-22.3791,-92.5720,-102.8441,93.9527,24.9311,87.9222,-53.8419,55.2080,-26.0574,23.0084,-69.7385,-62.7909,-71.2081
-3046.8750,86.0247,14.4632,120.9007,12.0970,2.5211,10.9605,-64.3235,-63.5007,-133.8947,-106.9194,89.6885,94.6900,120.8885,-21.0121,-22.1191,-30.1350,126.7416,-39.5425,-101.0901,-38.4456
-3039.0625,164.4786,56.9526,128.3073,19.6751,-27.0399,-18.4739,-93.9000,-92.9164,-162.5143,-99.2857,171.1136,102.1559,91.5544,-13.4724,-51.7552,-59.5008,169.1667,-35.6981,-128.6874,-30.9821
-3031.2500,160.2721,52.7769,122.0617,85.6049,3.7593,-24.5545,-136.1219,-134.9720,-241.7759,-105.2925,201.8790,169.9520,85.5672,-19.5799,-58.0377,-65.5119,199.9272,-4.7734,-166.9278,-0.1668
-3023.4375,202.7518,166.2935,129.5141,93.2325,-25.7350,-53.9274,-164.6430,-163.3215,-307.3295,-60.5980,172.3309,140.4437,93.2770,-48.9808,-50.6239,-20.8148,172.3773,-2.0584,-195.4722,7.3541
-3015.6250,165.8197,199.4151,127.5664,91.4596,-27.6286,-18.6946,-166.5687,-129.0671,-273.2809,-62.3007,207.3715,65.5286,91.5859,-123.7770,-15.6116,-22.5036,134.4078,-1.7337,-161.4184,5.4787
-3007.8125,180.1193,142.7852,141.8660,70.9404,-50.2665,-41.2094,-116.2442,-150.5504,-221.9794,-120.7426,184.6560,79.8653,106.1412,-109.3299,-1.3574,-7.9356,148.6769,13.0475,-147.1118,19.8579
-3000.0000,180.2600,74.0021,141.0147,37.2766,-51.0509,-4.8662,-116.0712,-114.1774,-185.8307,-157.3259,183.7826,5.0595,106.5411,-37.0260,-39.2711,-45.5172,114.7868,52.6577,-110.9576,56.0936
-2992.1875,113.7487,77.5644,71.5080,40.9596,-47.4785,-38.1699,-112.5545,-74.4494,-182.3281,-190.5442,187.2466,82.5986,110.2848,-33.3585,-35.8418,-41.7455,118.2329,55.2488,-107.4528,59.6849
-2984.3750,157.4180,15.3158,80.1973,49.8440,-1.7058,-29.2694,-67.8385,-101.5154,-99.6319,-218.5464,122.9038,91.3375,119.2238,-24.4722,-27.2140,-68.7541,56.8668,65.2684,-98.7535,68.4793
-2976.5625,102.7828,-4.2405,56.5861,29.4293,11.7670,-50.6653,-90.4276,-124.8759,133.7651,-130.8410,62.2539,30.7758,58.8659,-9.8751,-12.8919,-91.0513,36.1883,112.3378,-84.3635,118.9801
-2968.7500,90.2833,89.3430,44.1178,17.1629,-36.6129,-62.9106,-212.8664,-137.0840,231.3219,-179.9771,86.7523,55.3644,46.6584,-22.1160,-61.4202,-103.1939,129.6487,95.4318,-60.8242,106.6387
-2960.9375,134.1720,133.3332,90.0454,26.2966,8.4072,-53.7527,-203.9059,-127.8951,240.2757,-170.7181,132.6444,-8.6439,55.8545,-122.9463,-52.5496,-130.9295,67.5045,106.1499,-87.8866,115.6998
-2953.1250,86.4118,50.6779,76.3280,-19.2183,31.7825,-104.2445,-180.5984,-104.3545,226.5775,-147.1132,118.8817,-21.3097,79.4020,-136.4263,6.6712,-107.3151,90.7035,131.3281,-28.6029,139.1187
-2945.3125,115.4942,8.8683,71.4605,-96.8795,27.0079,-145.8837,-112.4491,-108.9637,221.7262,-114.6565,76.9671,-63.1189,74.7958,-141.0497,37.7335,-74.8444,119.7561,90.7299,69.5294,97.3939
