Time,Fp1,Fp2,F3,F4,C3,C4,P3,P4,O1,O2,F7,F8,T7,T8,P7,P8,Fz,Cz,Pz,ref
-4000.0000,-25.3867,78.9776,9.5623,63.0523,-46.7947,34.2964,-44.0136,18.4150,-23.4108,-12.3745,-43.6574,74.0314,9.5816,36.5271,-20.0586,-22.0086,-30.9854,24.4161,-81.4803,27.9992
-3992.1875,-47.3531,92.9505,22.2415,41.7239,-35.0073,15.4798,-32.2791,-42.7312,-47.4252,-36.1167,-31.9724,87.8664,-14.7312,49.7237,29.1621,-9.7531,-52.9437,35.7663,-70.2910,41.0769
-3984.3750,28.5325,66.7744,-43.2298,50.2566,-65.3736,11.5501,-25.7003,-35.0267,-40.5968,6.9860,10.5635,96.5578,-43.1974,20.7723,-0.7646,34.3510,-82.0586,38.6156,-99.2555,49.0063
-3976.5625,25.4264,-4.3873,-46.7030,48.7953,-70.7490,32.4262,-31.1286,-2.3189,-45.7770,39.0822,42.0954,57.2577,-83.6686,16.8252,31.3023,29.4602,-14.1738,73.9714,-138.2284,81.9398
-3968.7500,32.4693,4.6128,-39.0345,22.4911,-63.9816,26.3049,-61.4199,-66.4564,-112.8141,-62.6763,48.7713,29.1098,-75.9932,62.0300,38.5222,36.7301,61.8660,82.5556,-132.0580,90.0249
-3960.9375,34.0527,148.1657,-0.8180,-10.2612,-25.6650,-8.7685,-97.1640,-101.0444,-147.3016,-23.8834,49.9900,-4.4878,-73.7690,27.7890,-31.7063,38.5557,63.4599,86.1641,-61.3377,92.6639
-3953.1250,-20.4204,129.6667,15.3459,-29.0664,26.6003,-5.1280,-117.9612,-47.6836,-131.8438,27.8607,-6.8451,13.8678,-56.5967,8.5054,-88.9796,55.3327,8.0075,69.9958,-12.6679,73.2562
-3945.3125,-45.0501,-32.9776,28.3569,18.9825,74.7183,45.1441,-68.9114,1.5296,-192.5486,3.4600,-31.8377,65.0760,-44.5802,59.0711,-76.3976,67.9610,-16.6026,52.8262,-38.1446,49.6975
-3937.5000,-15.1329,-35.0604,24.9181,51.5808,70.3886,64.3250,-36.3113,-1.7054,-270.7123,-0.3939,-36.2841,62.8321,-48.0127,93.1853,-80.2647,64.1362,14.3369,52.4124,-43.0679,46.6909
-3929.6875,-58.6644,-78.5889,16.0264,43.7291,60.6081,66.9759,-46.1598,26.6081,-170.3348,27.2881,-46.1759,18.1324,-20.8935,84.8485,-126.5879,17.8627,39.8339,46.4679,-17.4407,38.2369
-3921.8750,-55.6869,-2.6280,19.6320,48.3845,63.3274,51.4737,-80.5103,30.4203,-56.4653,-6.5281,-7.5661,-14.0773,-17.2761,52.0108,-123.4089,21.0950,-27.1720,46.2014,-15.3082,42.2819
-3914.0625,-9.3103,46.7297,-40.3646,27.4440,2.4474,45.9851,-68.4617,43.6320,-81.1951,-29.9338,40.4464,0.1112,-40.2638,28.5688,-110.8309,70.7341,-14.7802,54.3033,-39.7697,55.7264
-3906.2500,78.0530,30.0788,-58.3608,-24.4941,-16.4252,19.6259,-50.4153,25.8416,-136.9177,-48.3260,58.4489,20.2923,-58.2504,11.1289,-92.2590,89.3748,1.6193,34.6738,-23.2222,38.1689
-3898.4375,1.0098,26.0219,-63.7536,-28.8382,50.3051,8.3965,-20.7678,-16.3478,-106.0336,18.8829,-20.9476,16.0685,-63.6367,43.2860,-62.0785,83.6202,-4.3813,31.3708,3.9267,33.2123
-3890.6250,-79.4791,-53.4697,-74.6088,-3.6353,75.5766,20.3301,3.4309,10.0095,-80.6005,81.6156,-68.7891,-67.5994,-1.4730,32.9937,-0.3316,35.4124,-15.8322,26.7468,61.6271,22.8062
-3882.8125,-34.4603,-75.4540,-61.9695,-25.9365,88.3503,13.4146,53.1303,23.8668,-68.6727,20.8407,-21.1259,-52.7659,12.1900,10.1972,-24.0803,11.7007,-39.7841,7.4741,142.8323,-0.1042
-3875.0000,60.4141,-49.6026,-35.4805,-70.3907,76.9779,-20.5306,115.6858,13.5753,-43.9103,-64.0710,4.3860,-62.0918,1.7036,-73.7484,2.0269,-36.1518,-15.8893,1.6179,200.8940,-10.1676
-3867.1875,26.8787,-81.1590,-31.3888,-102.2414,80.2166,-46.8710,81.8395,17.8765,70.4436,-23.3852,7.4923,-93.8242,5.8211,-106.0978,5.7358,-32.3993,21.6130,-32.0782,202.5621,-42.6349
-3859.3750,0.6354,-140.4073,-19.9925,-91.7873,89.7646,-59.4334,91.2932,28.4720,154.0987,60.5918,17.8948,-192.2620,17.2362,-131.1456,52.7440,15.6520,30.4282,-57.4059,175.5348,-67.8047
-3851.5625,-23.5530,-198.5995,-6.5514,-114.2914,65.3623,-66.4857,103.7989,5.1173,166.7991,36.6198,30.3458,-214.6498,66.6930,-80.1401,102.7997,-8.2421,76.2973,-81.7494,150.5681,-90.9252
-3843.7500,16.3724,-226.6998,34.9815,-107.7033,70.0572,-55.4991,108.4002,-25.1285,134.5923,-142.2381,70.9043,-133.9404,109.2424,-74.0380,107.9617,-3.0303,117.2642,-74.7013,118.7097,-84.9493
-3835.9375,132.9035,-143.2135,83.1091,-130.5208,80.3520,-69.9208,118.6002,-50.7627,-2.0033,-167.4867,118.0657,-84.6396,83.3871,-62.3487,81.7290,7.7863,91.8353,-65.2631,93.4590,-73.3745
-3828.1250,142.1736,-96.9929,57.9867,-119.5883,91.4028,-87.2159,92.5508,-38.6447,-27.8393,-45.9854,91.9743,-108.6036,58.2825,-86.9165,56.2579,18.3519,31.1626,-92.2203,101.9681,-98.0530
-3820.3125,77.8380,-53.3760,102.2661,-76.2549,97.8612,-79.2505,98.9115,-31.1309,51.7323,-39.1061,-11.7178,-137.1734,65.5804,-116.0861,100.1959,-47.6818,37.8940,-78.8941,107.8817,-90.3332
-3812.5000,-27.8472,-52.1109,65.1960,-75.2794,96.9764,-77.2576,97.9275,-30.9767,87.9489,-39.5808,24.2458,-136.1008,65.5294,-115.6053,136.7842,-85.0585,37.2823,-78.4159,142.4523,-89.9667
-3804.6875,-9.8282,-102.1443,85.8262,-125.6125,116.7904,-113.1563,117.6451,-47.1245,107.8603,16.6484,79.9154,-151.3403,86.1755,-168.4242,83.0726,-64.7242,55.3808,-93.6211,159.7264,-105.9077
-3796.8750,66.8009,-128.5818,56.0548,-117.3525,86.2095,-99.5660,123.9666,-39.6801,114.3806,-12.5243,86.1974,-142.9901,93.4166,-123.6447,89.9673,-57.7921,27.0847,-90.4113,130.6099,-98.2544
-3789.0625,38.6397,-225.8398,26.4773,-73.9043,55.8369,-70.5933,167.4952,-69.0445,158.1131,-116.4994,19.6876,-134.4476,100.8558,-78.6717,134.0792,-50.6672,-1.0068,-80.9380,136.7063,-90.4076
-3781.2500,-26.5230,-113.1116,68.9008,-32.4611,97.4724,-83.4068,209.0349,-100.4142,235.8503,-111.4656,-49.8259,-127.9134,143.2965,-109.7137,102.2121,-82.5381,-31.0938,-72.5824,104.8155,-84.5680
-3773.4375,15.6569,71.9652,39.6735,-58.6715,67.4643,-120.7010,178.9299,-129.4377,206.9401,-30.0825,-42.9911,-45.0401,77.0905,-138.4114,72.7027,-75.0530,-23.8208,-72.7310,76.2822,-76.3842
-3765.6250,127.0458,79.2379,45.6462,-16.6809,72.6599,-105.9357,110.0239,-160.2676,28.2222,-98.5067,72.0551,35.0269,10.0852,-131.9099,78.3864,-69.3609,16.6637,-68.2448,45.9505,-70.0050
-3757.8125,52.9056,77.9640,42.0696,16.7538,68.3098,-42.0164,68.5634,-90.6539,-14.0529,-139.4762,67.5713,68.5339,5.5228,-61.9629,37.5058,-74.2150,48.6029,-33.0220,7.0746,-37.1763
-3750.0000,-46.1242,86.7896,12.5856,25.2821,38.0561,2.5164,38.2025,-45.9428,-44.2313,-132.3485,0.1962,77.1344,13.0534,20.0873,-29.2777,-66.9652,90.6471,-23.2210,13.3087,-29.2483
-3742.1875,-43.1061,20.6522,16.1469,29.8602,40.8518,21.7023,3.8938,-5.1855,-41.3602,-56.1749,-34.1287,44.7809,-20.3705,24.1855,-62.9881,10.3410,93.7415,-18.2811,15.5982,-25.2723
-3734.3750,12.2011,-99.2005,-0.9942,15.7287,-14.0430,38.5882,-51.1062,51.8664,-95.1909,74.3125,21.8489,-7.2825,-74.5007,7.5799,-80.3687,102.9521,78.1381,-0.5379,34.1989,-4.9999
-3726.5625,54.1575,-125.4124,6.5111,24.2362,-7.2794,52.0190,-80.4483,95.5616,-52.3667,117.4631,28.4821,-72.7111,-102.9766,-21.3766,-219.1014,110.2133,50.1898,12.1294,110.4602,2.9176
-3718.7500,36.8750,-34.8794,-49.2365,8.4870,-26.7603,77.2065,-63.0317,151.0084,2.2133,-11.6417,8.8718,-53.4007,-84.7055,-2.5838,-238.0897,92.2289,67.9898,30.8539,127.4791,21.5806
-3710.9375,-43.8051,27.2428,-94.3926,0.3327,-72.6371,85.7800,-73.0154,142.0551,29.3979,-94.1459,-74.1335,12.5006,-93.8429,62.7991,-136.4736,82.8592,58.3866,17.0179,117.1082,12.8415
-3703.1250,-83.1369,-45.3003,-98.2040,32.5190,-41.1564,106.8747,-41.6461,175.4550,24.9365,-25.2920,-78.7877,9.7342,-97.6277,95.5172,-68.4957,41.8459,-16.8668,14.8515,112.1045,9.4494
-3695.3125,-36.3706,-137.7519,-85.9210,10.7955,-29.5683,86.6517,6.8340,187.9542,36.5833,97.6660,-67.3413,-13.9464,-85.3142,35.3357,-92.4140,53.9349,-40.0128,27.8217,53.2146,22.1542
-3687.5000,-15.9560,-115.5660,-135.9934,-2.2843,-44.3262,51.2734,28.9677,174.0989,21.8770,119.2668,-46.2396,-100.9877,-63.3521,-52.1912,-33.6742,112.6767,-54.4976,12.2961,72.9851,8.5021
-3679.6875,-73.9867,39.1599,-123.5224,-23.8216,-68.5314,28.3548,40.6577,149.7919,107.7204,95.4288,-70.5799,-87.4910,-86.8466,-76.1843,15.6343,88.9736,28.5704,23.7684,49.3226,21.3956
-3671.8750,-42.7579,107.1300,-126.8074,-62.1234,-108.4829,9.2431,-73.3949,73.7338,139.8184,127.8413,-1.6573,58.2482,-126.0969,32.0686,-97.8072,11.5228,129.8959,9.8449,8.9206,18.5355
-3664.0625,52.2307,97.8479,-101.3441,-35.6824,-83.6804,15.2594,-120.6976,-10.5751,18.6597,6.9966,61.0211,158.7339,-136.6069,95.0756,-144.5023,0.8244,189.9791,-1.5047,-2.7167,8.4180
-3656.2500,90.5172,32.8589,-24.5876,4.0580,-44.5709,20.3331,-117.6973,-43.5857,-88.2067,-63.5367,64.0005,89.5071,-132.8239,63.3816,-68.8944,41.4353,122.3730,8.7507,35.9601,12.5960
-3648.4375,115.9509,-116.0031,-33.6808,30.9430,-54.3051,23.6975,-91.5447,-15.4451,-61.9199,1.0910,17.1302,-65.5910,-69.8987,17.8360,-4.1343,105.2007,42.9306,2.3373,60.8002,3.9184
-3640.6250,17.1409,-108.1291,-27.0220,3.5744,-48.2772,1.5403,-49.6380,-8.5554,-18.8818,81.4737,23.0236,-94.9552,-26.2259,-11.9712,112.3680,111.7186,14.2429,6.9499,31.4058,10.9871
-3632.8125,-56.0512,32.3530,-28.7650,-32.2018,-13.6449,-40.4633,-15.1308,-84.0664,52.7500,42.4460,20.5312,-58.7238,-27.9593,-13.1864,74.4661,109.8388,12.1597,2.9986,28.6194,9.6519
-3625.0000,18.9120,72.9806,-59.3652,-61.8372,29.1404,-64.7363,-46.4709,-114.4378,58.5277,11.5562,-10.7983,-14.3524,-21.5467,-6.2533,43.7317,79.1138,51.2297,-29.0803,66.9972,-20.5387
-3617.1875,33.2142,18.9331,-79.6129,-81.1336,45.2847,-69.4464,43.5517,-97.4596,110.6690,28.0373,-31.7821,3.3451,-41.7900,11.0220,133.3592,22.7495,30.6547,-47.6600,80.7450,-40.3828
-3609.3750,-50.0866,-62.7427,-55.4644,-58.0365,67.8354,-65.6534,102.9845,-110.0727,134.2215,14.9333,-45.3652,-82.5764,19.3619,-1.3090,157.3844,-27.2106,17.4823,-51.6877,137.9107,-52.8330
-3601.5625,-112.4804,-87.5262,-9.4214,-13.0474,113.2951,-44.8230,111.3262,-137.7826,142.6764,-50.2766,-74.0373,-72.6107,64.4112,8.2558,92.3094,-18.2680,26.2109,-36.0917,145.9890,-43.3909
-3593.7500,-109.1149,-118.5651,31.3646,-8.3179,79.5042,-15.7488,41.4215,-96.7483,71.8859,-120.7284,-70.9499,-67.9097,68.2025,12.5648,132.9981,22.4296,64.6966,-30.4765,148.8324,-39.2043
-3585.9375,-53.1445,-96.0144,16.7425,-57.0028,64.3199,-45.9370,26.1235,-37.1211,-16.2969,12.4270,-12.2538,-118.6244,53.5886,-75.5369,192.2957,43.7350,49.7921,-46.8572,168.2901,-53.4242
-3578.1250,55.1241,-21.1731,20.4172,-87.3976,31.4469,-79.9192,29.1370,-33.2000,-50.1709,125.8909,27.7522,-114.0502,21.2703,-108.3447,231.8954,47.3415,18.1948,-49.8779,136.0632,-49.3496
-3570.3125,65.6502,-79.0971,-5.6634,-111.5581,41.8295,-53.4685,-34.5936,14.9669,-39.7916,99.6113,74.0200,-139.2312,-4.8043,-59.9064,206.7490,22.2049,63.8527,-38.3755,146.0961,-38.0327
-3562.5000,0.2911,-108.9369,36.3505,-105.6311,46.3174,-37.4209,-30.2185,20.2370,38.6907,104.4342,42.3995,-96.3295,37.2143,-17.3766,137.7060,27.1787,68.6156,-32.3914,114.2496,-32.6237
-3554.6875,-22.3144,-59.0466,12.1161,-91.9634,21.5641,-35.5050,-55.0843,-3.7440,13.9258,116.9896,17.5404,-8.6996,12.9832,-4.0979,113.4198,39.9125,81.1331,-23.6375,56.1739,-19.4693
-3546.8750,-30.0616,-30.3218,41.7309,-62.4576,50.6710,-62.3439,-63.0855,-84.8748,-30.9850,109.3980,9.5401,21.7557,42.5999,-10.9806,142.9877,32.4960,38.5100,-33.9643,-22.0338,-26.4721
-3539.0625,-8.7526,-42.5612,26.3926,-4.9162,34.8356,-33.4888,-42.0284,-99.9578,-83.8286,57.8844,-6.3959,7.2413,27.2582,48.1725,238.6149,17.1306,24.9517,-13.4936,-107.1792,-4.4308
-3531.2500,-7.0874,-75.4686,28.3931,32.9567,36.3540,-21.9399,-40.6169,-133.6931,-118.3085,59.7453,-41.9715,-26.9351,29.2615,86.6651,203.5973,19.1236,-8.2457,-9.5647,-105.9623,-2.0454
-3523.4375,-5.4608,33.5607,103.3378,0.7699,37.8277,-51.8164,-2.2494,-131.4790,-80.8386,24.5553,-3.5811,-61.1758,68.2114,16.1026,94.5365,-15.9309,-77.4917,-2.7212,-34.7819,0.2816
-3515.6250,-62.3797,49.0274,81.7311,-18.9723,51.7571,-42.6525,48.5784,-80.8153,-102.9145,1.8069,-26.7319,-45.9766,118.6084,-43.0186,72.9328,-38.5326,-63.2825,18.3197,14.8627,15.0546
-3507.8125,-92.0439,-49.2723,52.3692,-47.4774,58.9463,-59.8469,55.6668,-72.9094,-22.7282,119.3119,-56.6238,-37.5452,53.2524,-71.8984,79.5822,6.1184,-57.8176,-10.6909,54.7716,-13.9264
-3500.0000,-96.6515,-158.5367,48.0503,-15.9474,54.1895,-28.4551,86.8140,-2.9634,119.5224,188.8800,-98.4547,-78.0836,48.9417,-38.7349,39.2946,38.8241,-166.2879,-14.6352,49.7429,-17.8631
-3492.1875,-140.8071,-166.3593,39.1772,11.0242,44.8858,3.6180,41.4115,25.4215,184.2253,68.9028,-107.8256,-86.1810,40.0715,-10.1211,-6.5349,65.9875,-141.2941,-21.4867,40.1721,-26.3565
-3484.3750,-140.9474,-95.1956,112.3059,46.9895,80.5950,-6.7442,77.0150,-11.1986,109.9205,32.9247,-71.1762,-85.2929,76.1974,-46.5127,-6.3699,-6.8471,-71.2917,-15.2436,-30.3929,-25.8584
-3476.5625,-18.7222,28.3085,91.7867,-40.7051,23.6634,-65.2238,92.9749,-31.4734,52.9738,12.2959,55.8357,-105.0733,56.6660,-139.5555,47.1395,-27.3336,16.0622,-3.6564,-50.5906,-9.0146
-3468.7500,144.3553,-18.3605,6.1136,-88.5655,-63.4150,-82.9894,43.7966,-43.8978,75.8872,36.5216,152.7003,-80.0165,6.9825,-78.7557,34.5064,34.0334,-31.7272,-31.3830,-63.9197,-21.3276
-3460.9375,134.7811,-97.7029,-3.2097,-61.0810,-73.1289,-45.5601,69.9837,21.0282,140.1525,63.0940,105.9249,-51.6229,-2.3532,-50.6215,-11.7659,-12.2425,-77.1679,-35.9527,-2.8840,-30.2975
-3453.1250,26.7122,-27.5620,-5.0335,-62.1054,-1.3284,-22.1484,67.6825,55.4505,137.9194,25.1743,30.6592,-15.7503,-41.1953,-14.9994,-13.5352,-88.0194,-43.0990,-30.3676,29.6735,-31.7746
-3445.3125,35.6508,52.5718,-32.8632,-52.1406,7.4809,-29.4142,40.3873,64.8712,146.6903,34.2610,39.4016,-42.8967,-32.0377,-42.3794,-41.3114,-78.7993,-70.0185,-23.7033,3.2513,-22.2606
-3437.5000,23.7462,-28.1593,-46.5419,-64.0369,-6.5516,-20.3183,99.2552,88.4396,95.6222,93.4994,25.3051,-92.9051,28.2650,-55.6161,-17.9376,-18.4291,-81.7843,1.1651,-9.0011,1.3977
-3429.6875,-36.8052,-87.5627,-72.8730,-87.5981,-33.2258,-0.0926,146.4826,99.3561,105.9077,68.0897,-1.4260,-81.5868,38.9170,-7.5053,-44.2061,29.2952,-71.1964,13.1951,1.1165,12.4004
-3421.8750,-3.1999,-17.8277,-111.0569,-124.0243,-35.7420,-34.4655,143.8732,97.4202,177.3466,138.8393,33.0040,-46.1344,-0.2821,-46.2553,-46.3174,64.1731,-108.4515,3.7883,-1.6037,10.5474
-3414.0625,38.7145,-9.8092,-176.9448,-150.1596,-65.9477,-46.9303,113.5718,104.7805,184.0950,182.8971,39.7438,-1.3914,-30.1874,-38.7174,34.8732,34.3572,-171.4009,2.7037,4.9906,17.9872
-3406.2500,7.1877,-41.2651,-173.2872,-111.7544,-62.5970,0.5445,43.8280,145.6907,77.4029,76.5049,43.0389,-71.1118,10.4507,2.3698,75.6151,38.0892,-131.7914,10.9666,8.1527,21.9695
-3398.4375,-77.2867,-122.6757,-114.5789,-54.3111,-41.1850,47.6099,28.1468,130.6481,98.7637,24.1597,-9.6055,-84.8023,-4.8666,24.5035,23.4134,132.8739,-76.1294,41.7529,64.3837,43.9956
-3390.6250,-124.0550,-170.3983,-55.1738,-31.1797,-17.0655,46.9070,-21.8216,118.3026,121.8236,121.5193,-22.5318,-60.8166,-17.4854,12.3260,-63.0782,84.3613,-53.7650,33.8337,86.3297,31.7153
-3382.8125,-49.2098,-22.5402,-47.1717,11.5397,-9.3425,19.7358,-14.1849,89.5542,56.4902,166.4799,-14.8400,21.7529,-9.5095,-16.2628,-91.9599,18.4552,-82.7945,1.2923,21.8871,3.0289
-3375.0000,9.1911,105.8443,-59.6271,-0.2032,14.9334,-4.0919,-26.9939,41.3563,-30.2755,80.0023,46.4118,46.8557,-21.9895,8.6943,-67.2939,-30.8911,-60.2649,-14.8303,-25.9873,-9.1105
-3367.1875,38.7021,137.3094,-64.9853,-4.8615,9.3128,-7.9884,-32.6939,-0.7442,-72.9263,-35.3584,76.7743,42.0506,-64.3747,40.7403,38.4663,-73.1348,5.3746,-20.0969,-31.7504,-14.1558
-3359.3750,53.0768,116.6202,-50.4963,10.3185,-13.4464,6.4101,-55.5308,-23.0051,-95.7236,-57.8679,91.0011,93.0957,-86.9226,91.6331,53.0783,-58.5257,19.8815,-8.7776,-88.6598,0.6431
-3351.5625,36.5093,30.9745,-66.9666,29.5381,-30.1550,40.9095,-35.3153,-2.2214,-112.4703,-74.3290,38.2859,77.1808,-66.4283,149.5739,-37.2529,-0.8590,38.4533,-21.1274,-70.5071,-15.5125
-3343.7500,19.7985,-54.8286,-46.5894,83.5963,-47.0100,63.7767,-52.2406,18.4137,-92.3595,-16.9309,21.4236,-11.9065,-46.0889,133.3579,-127.7285,92.6565,21.8778,-32.8103,-16.4862,-31.8236
-3335.9375,-8.3675,-118.0896,-2.6694,56.1849,-40.3085,55.1191,-8.5998,25.5995,-48.6805,-9.9628,-8.8792,-78.4633,-2.2013,103.6843,-83.6533,99.7277,28.8542,-21.4424,-9.8976,-24.5871
-3328.1250,1.1224,-36.7193,8.8975,66.4115,8.0459,9.2910,-34.3041,-36.5638,-37.3404,-146.3398,112.4856,7.6188,9.3271,41.6534,38.0729,-72.5492,3.4862,-50.1767,-70.6451,-49.7065
-3320.3125,216.1807,179.1837,49.0127,36.1814,11.9581,-61.8294,-30.4562,-143.1786,-180.4458,-214.1723,263.4157,85.2413,13.4015,-26.8335,6.3511,-142.2768,77.6752,-51.9285,-137.8311,-45.2803
-3312.5000,341.1421,163.9615,33.0298,20.8404,-4.2260,-71.4069,-83.6989,-158.8912,-232.6470,-158.0914,284.2527,69.7385,-2.6284,-5.4266,-83.4692,-121.1017,132.7743,-70.3144,-119.0915,-60.9588
-3304.6875,190.5480,14.1591,97.4940,46.9375,59.0538,-26.3664,-56.4753,-131.1490,-206.3874,-167.5482,200.5452,-12.3331,23.7904,58.4190,-55.8432,-93.4753,123.3323,-68.0578,-57.8773,-70.1932
-3296.8750,22.8178,-81.7890,142.8062,55.8698,67.1908,11.9380,24.6076,-85.5623,-162.2659,-195.1571,61.6980,-3.5644,69.0470,67.1042,25.6337,-47.9966,96.7428,-50.4403,-14.8022,-61.5823
-3289.0625,90.1514,-14.6901,139.1662,52.8372,63.3885,-13.7127,57.7457,-88.9279,-166.0866,-198.7110,94.9068,66.2326,65.3490,-9.1674,-13.8428,-88.4621,57.2016,-54.7925,-18.6633,-64.9265
-3281.2500,169.4386,101.3313,111.4792,27.7483,35.5482,-58.7602,66.8439,-116.3443,-119.9484,-153.3124,178.0804,38.9592,37.6056,-73.4945,-78.3756,-115.9786,66.6095,-50.0967,-44.5593,-55.3243
-3273.4375,152.3791,83.9742,92.4449,46.2952,17.3655,-41.7693,47.6058,-135.1082,-102.1479,-207.2622,158.9184,-15.6848,19.5085,-18.1777,-23.2540,-97.8467,49.6733,-33.9025,-61.7872,-37.0763
-3265.6250,84.4198,17.6898,58.5028,84.9291,20.2875,-12.8918,14.4786,-94.7683,-25.2376,-168.0973,87.8601,-49.2406,58.5052,22.2344,52.9850,-57.6115,-17.1598,-34.4264,-94.8962,-33.7352
-3257.8125,-1.3905,-32.4584,77.7093,69.7025,39.3668,-17.3294,69.5148,-112.2796,-6.1688,-75.7731,-3.0500,44.3446,41.6523,4.7904,72.3745,-1.2164,-32.8374,-14.0451,-110.8412,-14.2482
-3250.0000,-21.9442,-53.3623,56.1651,84.7121,16.6997,6.5503,47.8110,-60.5497,8.1665,-24.2087,-25.7000,59.1715,19.0463,-17.4131,14.0148,13.4309,-18.2592,2.5935,-96.5255,0.4852
-3242.1875,31.3605,1.5764,0.4682,68.5636,-39.1119,22.3368,-8.0309,32.0236,-10.6372,141.2095,-7.4882,40.8348,-36.7144,-35.7741,-78.4924,31.9246,35.1728,18.5762,-78.3514,19.0630
-3234.3750,12.6714,88.5057,-57.2337,15.4085,-95.9165,40.9081,-65.8632,85.5877,-31.4439,120.6366,45.7409,57.4859,-93.4784,17.8628,-134.0033,85.4161,51.6176,29.9515,-27.1676,35.6370
-3226.5625,10.7409,122.1710,-59.1840,13.9996,-133.9616,59.8573,-103.9372,119.8950,-33.5091,8.8020,43.7361,92.8818,-131.4928,53.2504,-26.7735,46.6538,14.8198,25.5814,-29.2256,33.9558
-3218.7500,39.3190,46.3260,-102.6324,7.0833,-179.4970,78.4672,-75.5067,148.6957,-5.0556,37.4710,35.2355,84.7650,-177.0151,82.1350,75.9588,75.3916,7.5260,50.4054,-70.7718,62.7697
-3210.9375,127.3533,-6.0777,-121.6316,-9.3964,-234.5756,66.7718,-130.6246,130.9371,49.8681,92.6023,90.1864,66.0870,-159.0942,63.4603,-52.8554,93.5807,61.6873,64.1155,-86.8552,81.0301
-3203.1250,173.8949,42.0038,-72.1261,2.6155,-185.1420,23.7296,-117.2358,70.6782,63.2862,142.2319,103.6477,42.8955,-145.6747,3.2813,-149.1727,70.2722,108.3508,43.2323,-146.4284,57.7843
-3195.3125,92.8360,66.4743,-47.2198,28.0188,-122.2966,21.0376,-92.4288,22.8149,15.1019,95.2594,55.5189,69.0942,-119.8526,29.4980,-87.0933,59.3619,62.4127,34.3984,-157.5882,46.9362
-3187.5000,-35.3180,44.8243,-32.4149,41.3118,-72.5414,-1.7683,-41.7097,-36.1510,29.8287,73.1862,33.2979,47.1815,-70.1300,7.6083,0.8803,74.3554,5.3781,14.6233,-143.8366,24.9838
-3179.6875,8.0851,17.7063,-25.0628,14.1469,-28.2319,-30.0654,-34.4338,-65.5673,37.1191,153.6607,40.6407,-19.1941,-62.8582,-21.7431,45.4042,7.9050,47.9030,24.4677,-102.5217,32.5795
-3171.8750,24.9950,-35.9225,-6.2136,-3.5261,27.5855,-45.2766,-15.6553,-83.4841,55.9110,98.6519,22.4894,-37.0825,-7.0911,-39.6065,27.4282,-84.0474,64.9332,12.0051,-85.6899,14.6731
-3164.0625,-30.1422,15.3918,47.5866,46.7354,44.3609,-32.5518,38.0834,-66.4475,35.6623,-31.3783,2.2897,-20.0336,46.6216,-96.5321,44.3982,-104.0558,44.9112,0.3240,-70.8953,-5.2890
-3156.2500,-28.2860,52.6826,49.3900,83.9908,46.1422,-16.1103,39.8343,-64.4093,37.4248,-103.4090,41.0895,19.0009,48.3356,-94.4639,46.3701,-102.0568,46.8998,2.5090,-69.0861,-3.2548
-3148.4375,34.4211,10.8039,42.0391,42.0867,1.7756,-11.1691,-41.5564,-34.5193,30.0450,-110.5861,106.7504,48.8752,40.8974,-64.5478,2.1899,-109.1999,74.7454,-8.9375,-40.4198,-10.3742
-3140.6250,108.0054,-20.2178,45.5381,11.0162,5.2614,-20.3909,-38.0962,-30.7847,-40.4769,-32.9094,110.2844,15.5940,44.3078,-60.7832,5.8541,-105.4968,113.4297,-5.1898,-36.8998,-6.6466
-3132.8125,91.6033,-36.2459,29.0343,-5.0662,25.7505,-40.2074,-17.6264,-47.0547,-93.9899,24.7719,93.8349,-37.6994,100.7178,-77.0231,-10.4826,-84.7964,62.1071,-20.6622,16.6281,-22.9210
-3125.0000,84.5597,-42.9391,94.8803,23.1885,128.5913,-11.2756,48.2055,-53.9729,-174.1454,-166.1975,49.7386,-44.6482,93.4762,-46.9266,-17.4677,-128.7425,20.1445,-14.2463,79.5162,-29.8485
-3117.1875,65.6644,-62.4888,110.8771,4.5811,144.5846,6.2560,64.1965,-37.7460,-158.1424,-223.0089,29.7964,-28.4432,72.3843,-30.6849,-38.3042,-75.5381,36.3390,4.7429,95.5614,-13.6282
-3109.3750,19.6162,-108.1958,99.7239,-41.1856,133.4373,-5.7839,-19.9505,-11.6711,-96.2780,-87.9634,-18.2968,-39.3969,25.1374,-41.5949,-12.2931,-49.4881,95.3897,-8.6081,120.4662,-24.5610
-3101.5625,63.8746,42.3887,35.8689,-31.6555,68.5936,-21.3898,-10.7912,34.7078,-87.1001,-4.6285,27.9225,-30.0647,-2.8124,-106.2124,-2.9824,-114.1406,69.7450,-4.7492,93.6827,-15.1945
-3093.7500,94.8874,38.7053,-7.2357,-71.3879,26.5014,-9.0539,20.1224,65.8389,-19.1643,-120.5252,58.8985,-108.9984,-9.0168,-111.0853,-45.9201,-83.0358,30.8489,27.9403,195.6624,15.9193
-3085.9375,-50.4436,-140.3440,-11.6957,-40.4810,22.0627,48.2591,52.6921,134.6203,50.4272,-51.7512,-56.4669,-113.2919,23.4262,-42.3115,-87.2199,-13.2794,-8.3894,28.4668,191.3034,11.6787
-3078.1250,-149.5643,-135.2014,-43.9532,0.6195,63.8275,66.8568,57.4640,139.5985,128.2246,-9.7915,-124.6239,1.6169,28.0670,-0.3369,-45.3241,-45.3294,-39.4121,29.9090,125.1483,16.6378
-3070.3125,-52.1876,33.4355,-87.7057,-5.7844,20.0978,31.8026,50.7441,96.0675,84.5222,-53.3481,-58.2741,105.0229,-15.7921,-6.8670,-14.9304,-124.8836,-45.9246,13.5817,48.5025,10.0949
-3062.5000,27.7921,77.6652,-114.8547,3.4098,28.9759,10.0460,22.6307,69.1336,20.4300,29.7002,-49.3193,78.0207,-7.0524,-34.8072,-5.9328,-79.8399,-106.8435,16.9830,57.4642,19.1486
-3054.6875,-91.5681,29.5339,-57.3584,-10.7556,13.5036,28.9278,44.1696,90.8503,42.0054,88.4109,-136.7063,62.6562,-22.6682,-50.1041,-58.2855,15.8552,-85.1117,45.9334,114.0905,40.8523
-3046.8750,-152.6716,38.6420,-48.6124,-36.6913,22.2851,35.3610,15.9685,99.8220,87.8372,97.3884,-164.8385,34.5262,22.9649,-4.1610,-85.3959,-12.2019,-41.1293,55.3241,122.9853,49.8029
-3039.0625,-176.9214,-56.4169,-38.0156,-25.7853,-4.0713,63.4249,26.6323,110.6497,98.5263,144.2299,-191.1152,45.2357,-3.5518,43.6267,-110.6672,35.5897,4.6971,67.5019,98.7421,60.6011
-3031.2500,-156.3222,-104.6437,-52.5653,-5.0388,-55.5664,86.3037,-61.8438,169.3284,84.0716,129.9186,-168.5456,30.7912,-55.2157,29.2658,-89.0927,95.2287,-9.6300,50.6681,84.3595,46.2460
-3023.4375,-51.2261,-0.3830,-88.6092,-4.7997,-91.5521,87.1819,-61.8121,206.5064,120.1208,57.1023,-131.4741,-6.1588,-91.3744,29.3966,-89.0128,131.3670,-79.4554,45.4072,84.4819,46.3896
-3015.6250,-37.1332,49.8731,-110.6510,-94.5642,-113.5322,43.7940,-10.7724,146.6837,98.1664,108.2929,-81.4007,7.8862,-77.5314,80.5194,-74.9310,109.5048,-99.2827,52.2336,98.6131,60.5321
-3007.8125,-100.8947,-14.7376,-103.5378,-89.1830,-70.3539,34.7248,34.4281,118.0133,69.3608,189.6312,-74.1766,16.0673,-70.5337,88.7908,-103.7102,80.7948,-58.9633,28.2290,104.9053,31.8224
-3000.0000,-140.5481,-90.2522,-36.3177,-24.7080,-2.0695,53.5999,65.7332,76.4429,63.6674,110.0727,-151.8428,10.3403,-39.4334,83.1510,-73.3988,75.1809,-29.5492,32.1824,99.3065,26.2124
-2992.1875,-201.8443,-80.4139,-24.7493,-13.8939,46.5662,39.2590,76.3918,14.2218,74.3468,11.8666,-177.1539,21.9583,-27.9850,93.8489,-24.7362,85.9119,-54.7881,7.9783,109.0657,0.9512
-2984.3750,-103.8351,53.7146,42.1155,14.2113,39.5050,8.4785,69.3597,-29.7020,-5.6525,4.9567,-112.1660,51.8774,1.7636,50.8442,-68.7781,42.9399,-96.7244,-1.5666,67.1346,-6.0131
-2976.5625,11.6701,133.3279,51.4788,-11.1903,48.9449,-33.3055,42.8388,-130.1264,-33.1440,-59.4512,-28.6734,61.2960,-25.9855,60.3390,-96.3185,-21.5293,-52.1565,3.5161,41.7112,3.5217
-2968.7500,-34.1779,52.5843,40.4954,13.0521,38.0408,-23.2397,-5.0277,-140.9045,-43.9808,-70.2022,-39.5254,50.3613,-0.0851,49.4766,-33.2065,-32.3527,8.0664,-5.5137,65.9386,-7.2976
-2960.9375,-109.2697,-92.4062,109.2640,44.0449,106.8911,-5.5707,27.8585,-144.9415,-11.0603,-74.2056,-80.6234,46.1801,32.5635,45.3593,-37.3432,0.5723,-30.9607,-2.2902,61.9154,-11.3682
-2953.1250,-134.5549,-117.5928,157.8312,88.8311,118.5422,35.7028,38.5478,-97.1832,-36.3402,-136.4152,-68.9132,-16.2047,43.0110,130.0415,-62.6823,-61.7041,-56.1837,-21.5640,36.6954,-36.6397
-2945.3125,-2.3344,-55.2799,185.9038,116.1135,146.6969,2.0622,29.7427,-142.9309,-156.1216,-108.1322,-3.7001,-99.0980,70.9640,84.2146,-34.5326,-107.4790,-29.8964,-31.1511,-42.0227,-45.4134
-2937.5000,114.8473,25.9659,159.9300,91.3406,83.8070,-36.3676,4.8912,-167.7287,-144.9528,-96.8932,80.4680,-88.0438,8.8708,22.3342,49.5540,-96.3004,51.3383,-28.9567,-136.7872,-34.2369
-2929.6875,142.6783,53.8398,115.6088,49.2115,39.5717,-57.5175,-39.3039,-174.8736,-78.1310,-141.0031,110.2900,15.6533,-35.5653,-21.8967,6.2880,-29.4692,115.2117,-43.1287,-178.8917,-41.4114
-2921.8750,151.4499,168.6562,87.2476,23.0254,48.2939,-76.8458,-67.5435,-166.0662,-32.3454,-95.1628,156.0687,97.3005,-27.0489,-13.1826,-22.0196,-57.6979,53.0230,-43.5244,-204.0409,-32.6375
-2914.0625,68.7767,157.0297,73.4385,-23.6176,35.5696,-83.5359,-44.2316,-142.7146,-8.9999,2.2276,68.4002,47.4979,-3.9838,-26.9197,38.2197,2.6170,41.3828,-20.6435,-180.6350,-9.3153
-2906.2500,-21.8773,30.4061,51.6305,-9.2648,12.8477,-52.8903,7.0844,-128.3697,-31.6614,16.6167,-27.2629,-12.3014,10.0828,-12.6630,162.4430,53.9323,90.7471,-0.8855,-166.2254,5.0041
-2898.4375,66.4701,13.7715,32.8245,-26.9152,-5.8710,-40.5965,-11.5911,-74.0231,-50.3213,72.0015,28.0764,-31.1003,-8.8479,5.5925,106.6628,35.2489,39.1208,14.9001,-147.8112,23.3217
-2890.6250,142.5089,54.8120,1.7219,-55.8675,-36.8855,-43.8882,-79.5608,-30.9774,-7.2710,41.0751,107.1190,-25.2052,-77.0749,-25.4481,2.5880,4.2601,10.1974,18.4269,-107.6880,29.3384
-2882.8125,120.1509,67.4324,14.2273,-8.2244,-24.2909,-22.4853,-66.9238,18.6605,79.3905,16.7381,83.7658,-49.7189,-64.6930,-85.8876,-21.8841,16.8629,-48.1295,35.6654,-59.9584,41.9555
-2875.0000,-45.3591,42.9109,-12.4141,2.2630,-50.8424,9.5710,-19.4236,66.1392,89.8965,101.2388,-16.7347,-39.3809,-17.4493,-39.4773,25.4876,27.3136,-72.6114,47.6734,-49.3739,52.4215
-2867.1875,-94.9640,-7.6984,9.8437,-12.3553,-28.4941,5.6004,2.9817,51.5124,-35.7077,196.6465,-31.3365,-17.1333,4.6944,-17.1670,10.7529,49.6661,-52.1988,35.3018,-63.8888,37.7824
-2859.3750,-6.6047,-59.3550,28.0522,41.9720,-10.1908,17.6848,-15.6642,-4.1648,-90.3512,178.0163,24.0156,1.0640,-14.2140,1.0870,-45.0366,30.9641,-33.8366,54.5503,-80.4554,56.0898
-2851.5625,31.5515,-127.2296,30.0629,44.0966,-45.0888,32.9798,-50.5104,-2.0447,-52.1789,70.1804,26.1728,-33.9413,-12.3194,3.1399,-43.0296,33.0589,3.3302,58.6575,-43.2151,58.1987
-2843.7500,-8.0559,-25.8676,26.3267,40.4696,-48.7296,55.6942,-17.0981,68.3236,-18.7437,-44.4184,-51.4257,-37.6982,-53.1707,-0.5531,27.2249,66.4053,-0.2513,58.1133,-46.7209,54.5564
-2835.9375,-37.3606,85.8014,-5.1085,10.1389,-79.0691,48.1553,-48.3757,73.9918,-13.0054,-38.7247,-81.7245,-32.1509,-47.7200,5.0481,32.7749,72.0512,41.4595,60.8478,-5.9250,60.2146
-2828.1250,-64.6531,23.4684,-32.5446,18.7993,-33.4095,42.1950,-75.6490,83.6656,-3.2699,44.9631,-109.0177,-59.6048,-38.2650,-22.3585,5.3263,44.6909,14.1680,36.6772,72.8743,32.8713
-2820.3125,-99.8962,-82.8293,-32.9294,53.4991,3.3053,70.2813,-38.8659,119.3899,33.5264,81.7167,-145.2610,-60.0115,-1.7496,-22.7244,-32.0723,44.3766,-22.0774,41.8067,107.7329,32.5790
-2812.5000,-164.8981,-78.8885,-27.0595,22.4341,9.2748,38.8868,4.1769,52.3679,112.5868,86.7318,-213.2551,-91.1755,4.0220,20.1536,-26.2176,50.3154,-17.0777,10.2147,111.8501,1.5369
-2804.6875,-195.5605,31.3892,16.1637,26.7102,51.6013,9.3506,46.5739,-15.3019,82.0059,20.1028,-243.8977,-47.9903,10.1483,26.3741,52.9892,-17.3941,22.2695,-18.6541,81.3205,-29.1564
-2796.8750,-80.3136,112.5627,27.2955,2.8862,26.8322,-31.9732,21.8685,-78.0758,20.3196,-5.6303,-86.6297,37.0917,-15.8190,-36.5077,-8.9043,-43.2042,103.5153,-12.7386,22.6842,-17.9496
-2789.0625,59.1969,40.9938,25.6789,-33.6872,25.3144,-37.8060,-53.5889,-79.6032,18.8781,-81.1132,58.8919,35.4211,-54.5333,-38.1410,-84.5512,-7.7682,102.0028,-18.0884,56.2951,-19.4958
-2781.2500,64.3627,-94.9293,30.7167,-28.6181,30.4506,-4.2948,-48.3917,-37.4813,134.0920,-148.9509,64.0658,-70.5990,-12.5914,3.8732,-79.5447,70.3088,72.1382,-11.2556,96.5633,-14.3923
-2773.4375,-7.7749,-202.1616,28.4614,-66.8580,28.2931,33.6199,23.5163,34.3383,169.0093,-151.0950,-11.0595,-145.9241,22.0589,74.5794,-81.8400,68.0832,104.9777,-5.2219,165.5410,-16.5867
-2765.6250,-20.3677,-144.8507,-21.2382,-114.5543,15.6909,7.1076,10.9801,57.7084,119.4868,-53.6776,-60.6352,-85.7091,9.2668,25.8189,16.4078,55.4115,92.3663,-21.6193,223.0734,-29.2341
-2757.8125,10.8893,-78.6878,-62.0846,-153.4059,11.9410,-41.1119,43.2967,53.9301,152.8293,52.5950,-64.3602,-15.6413,-31.6743,-52.0997,122.5040,51.5950,18.5974,-32.9768,219.4537,-33.0333
-2750.0000,-29.5522,-119.2323,-104.6261,-192.9610,42.4913,-52.1627,74.9100,85.4436,184.4732,84.1550,-69.7830,-58.2647,-0.3128,-94.7130,116.9043,83.0741,13.1341,-36.7512,249.1373,-38.5326
-2742.1875,-48.4862,-172.2931,-51.6601,-177.0207,95.5443,-45.4278,128.0223,101.4512,200.6247,174.2164,-53.7009,-152.3844,15.5541,-115.8220,-14.2002,62.0432,-5.8251,-11.6426,265.3229,-22.5333
-2734.3750,-41.0663,-165.0163,-44.3405,-169.7276,65.9539,-29.7733,135.4874,108.8068,244.1339,144.6331,-83.2640,-181.1581,22.7764,-34.5922,-43.9596,-3.6397,-69.4375,-5.7553,237.8602,-15.1856
-2726.5625,-83.8429,-102.9298,-14.2173,-72.6392,59.1659,18.4737,128.7626,101.9564,127.4426,-9.1685,-127.0224,-152.1359,51.8079,32.4301,-13.9161,-10.5171,-76.2608,-9.6556,161.1989,-22.0396
-2718.7500,-54.9696,-109.1758,-22.4405,-43.9090,15.0265,2.4446,157.6903,57.7498,46.3891,19.6729,-61.1339,-87.4561,117.4948,-49.8856,-22.2195,55.2575,-82.4341,14.4312,84.1888,6.7546
-2710.9375,-84.6082,-103.9308,-54.1608,-73.6839,-53.6113,5.0467,89.1196,99.0402,51.8456,62.0262,-18.7532,-8.2770,85.6865,-44.6975,19.9760,96.5254,-112.1041,10.4187,54.6793,12.0465
-2703.1250,-42.4449,-26.9029,-120.0714,-66.6573,-46.4407,19.7993,60.3495,106.1342,22.1190,32.1827,-11.5698,35.7045,56.6820,36.2703,99.9614,103.5898,-138.9793,9.0125,26.9693,19.1388
-2695.3125,58.0832,73.4670,-126.6279,-72.2807,-89.9213,17.8735,52.9279,99.5763,-95.2621,61.6826,-19.0238,65.0364,12.0296,28.5812,56.2968,97.0103,-75.5038,36.9970,-14.3969,48.5834
-2687.5000,25.2756,110.4892,-124.5352,-35.2626,-87.7543,29.3053,-18.8464,101.6654,-93.0066,100.8250,-16.8239,67.0140,-22.9718,30.5498,-15.7072,99.0824,-38.3713,39.0475,-47.1167,50.6757
-2679.6875,-42.1391,113.9110,-85.0423,3.1444,-84.1887,42.0478,-52.2146,68.1526,20.6596,67.3802,-50.2267,107.3884,-19.5634,70.9237,-85.3107,102.5533,-34.8417,42.0357,-78.4321,54.1666
-2671.8750,-89.7723,101.1176,-97.7455,26.3437,-96.8208,30.9117,-100.7771,18.4453,45.1559,127.7485,-62.8404,130.5633,-32.3454,95.0950,-62.1254,89.8230,-47.5229,24.7804,-90.9357,41.4560
-2664.0625,-58.5202,97.2019,-101.5404,-13.5640,-64.5423,6.1673,-68.4335,14.6365,4.5752,161.0187,-66.5568,126.6392,0.7829,91.1604,-29.0317,48.9959,-120.3181,19.2521,-94.5344,37.6442
-2656.2500,-16.1013,34.4340,-58.1828,-6.3269,-57.1131,19.7974,-23.9396,21.9743,12.1345,21.4193,-59.1085,97.8720,8.0619,61.3836,-21.7810,56.3161,-148.9681,33.3608,-51.9840,44.9831
-2648.4375,-58.0634,-8.7226,-65.2323,22.5071,-27.0926,34.8462,-30.8395,14.9106,42.2858,-168.5899,-29.0510,53.7063,37.9476,17.1973,45.0753,12.2243,-86.0210,34.2339,12.1639,37.9211
-2640.6250,-109.3820,45.7789,-7.6309,40.9920,-6.4230,8.7466,-10.0789,-38.5040,-47.9014,-75.9471,-8.3532,37.1884,58.4940,0.6443,65.5836,-4.2216,-67.4340,19.7897,-4.0370,21.5084
-2632.8125,-30.0719,53.9317,39.6253,84.1281,3.8996,24.1657,-36.6733,-28.2658,-147.4385,-65.6716,1.9848,47.3226,31.6977,10.7517,-72.2594,-31.0134,-23.2033,-1.5601,-30.5829,-5.2548
-2625.0000,53.5769,138.4088,54.2396,133.6114,55.5745,0.3032,-57.9158,-49.6750,-95.6304,-50.0447,-19.3300,25.8003,10.2618,-47.7808,-93.7467,-89.4440,-80.6370,-22.3350,-16.7744,-26.6691
-2617.1875,27.4215,111.0597,63.0577,71.2878,101.4513,-38.5397,-48.9491,-77.8822,-12.6159,-4.1973,-10.4482,-2.5290,19.0361,-76.1033,-11.0322,-117.6790,-71.8782,-15.1988,-7.7656,-17.8813
-2609.3750,-16.8784,-74.4335,53.7245,61.8171,92.1786,-22.6076,15.8679,-87.2383,15.2539,-87.5271,17.2907,-11.9971,82.6616,-48.5784,52.5290,-127.0697,-10.2782,-20.7478,-16.9117,-27.2463
-2601.5625,36.6852,-91.0628,74.2405,45.2003,112.7531,-15.9336,72.5318,-66.7428,-38.0325,-177.0143,73.8834,8.3890,103.1390,-28.2171,35.9377,-106.6076,8.1745,-35.6512,-68.2121,-43.7635
-2593.7500,104.4891,11.5562,71.0119,6.8287,72.5811,-32.2096,32.4450,-69.9968,-115.0607,-216.2292,144.7171,41.0243,99.8706,-31.6170,-3.3995,-146.8899,39.8753,-41.9374,-36.2647,-47.0304
-2585.9375,104.6292,81.5235,71.1348,41.7985,35.7624,-42.8754,32.7111,-69.9045,-40.7348,-180.1065,107.8912,5.0124,99.9601,-68.6548,69.6212,-182.8206,4.9201,-43.9443,-35.9660,-46.9472
-2578.1250,51.7231,64.4382,52.2122,24.7202,53.8962,-51.9993,50.9331,-88.8667,87.5326,-162.0395,52.0206,-14.0475,44.0107,-87.7387,124.5877,-128.8003,22.9083,-26.0787,-17.7243,-28.9147
-2570.3125,42.4726,-15.0014,42.9421,-19.7117,44.6806,-54.3384,41.8014,-61.1853,115.4431,-135.3065,42.8071,-23.4534,34.7205,-97.1707,115.2019,-27.1347,48.5415,-36.7333,-26.8417,-38.2348
-2562.5000,67.9129,-95.7378,-2.6256,-29.4473,-0.8346,-61.1923,69.3618,-33.8065,180.0661,76.1270,70.2891,-33.1512,25.1318,-69.9043,68.5256,-36.7660,3.8697,-52.0774,-36.2611,-47.8575
-2554.6875,59.9507,-138.8790,-49.5876,-37.5793,-10.7539,-43.3998,96.5213,-6.8346,170.3010,140.1371,60.3701,-6.2415,52.1437,-43.0400,22.4507,-46.7907,-4.1964,-26.2306,-44.0793,-20.8796
-2546.8750,-2.4539,-61.4760,-78.9950,-30.1589,-3.1209,-9.6354,104.2327,37.6791,104.0735,0.6919,32.0064,1.2171,59.7129,-35.6250,65.9222,-39.2675,38.2923,-13.6933,-1.3476,-13.3562
-2539.0625,-13.8576,32.9221,-55.3930,-77.7426,-16.4847,-33.5184,90.9466,24.1932,54.8263,24.2738,18.6414,-12.3287,47.2942,-49.2199,126.4066,-15.7415,-8.2209,6.5281,22.3810,10.1638
-2531.2500,15.8353,27.4145,-97.6864,-83.2346,-58.7462,-30.7513,49.7623,55.8107,-24.3264,91.9627,13.3781,19.2203,41.9792,-54.7139,120.9958,15.8865,-13.6400,-3.7078,-17.7868,4.7832
-2523.4375,98.9348,5.3151,-84.5764,-35.3250,-82.6067,-1.7782,25.9706,31.8344,-48.0626,-41.9855,99.5230,32.1784,18.0662,-4.8041,60.9729,-8.0924,-0.6628,9.4466,-40.5599,17.8007
-2515.6250,49.0427,-10.7778,-27.4732,20.5844,-98.4721,42.2400,-64.8307,51.8548,-64.7840,-21.9614,119.6780,15.1437,1.1572,52.1036,-30.0406,-25.0684,19.3088,32.0915,-55.3364,37.8184
-2507.8125,-4.4513,-99.4820,-8.9718,36.8833,-43.9379,30.0076,-46.2293,33.2726,-119.0976,106.4862,65.2288,-3.4985,19.6491,33.4064,-11.6438,-6.6367,-35.3280,16.0459,-73.7082,19.2331
-2500.0000,-27.6530,-51.9035,40.8289,49.4769,-31.1065,27.5409,3.6803,8.9896,-216.1016,119.2594,4.0690,46.1572,32.4471,9.0137,1.0458,6.1007,-22.6644,32.7975,-95.7740,31.9464
-2492.1875,3.6413,119.1728,36.1291,79.5729,-35.7740,15.8124,-37.9095,-32.8018,-257.6074,-32.4762,36.4064,114.3227,27.7555,-32.8780,-40.7562,-35.6675,43.5002,27.3279,-134.3408,27.1585
-2484.3750,65.0756,286.4134,64.5842,105.8156,-44.2847,2.7706,-119.3430,-41.4500,-265.9713,-41.0885,100.9005,105.6538,-17.7740,-41.6167,-122.4016,-81.2897,104.8134,15.7248,-213.7646,18.5173
-2476.5625,110.9109,192.0611,75.4440,116.4513,-70.3927,14.3316,-144.3783,-67.6974,-217.9320,-67.3163,111.8012,116.3888,-43.9034,6.0474,-75.6485,-70.5081,80.5143,23.1456,-202.7882,29.2763
-2468.7500,68.1608,8.1035,67.7033,108.4823,-78.1034,26.9130,-116.0207,-75.5376,-188.4947,-75.1260,68.1033,72.5147,-14.6302,35.1054,27.5138,-4.3239,72.6011,16.4730,-175.4169,21.4304
-2460.9375,60.9174,105.6475,60.4649,66.0115,-48.3099,-7.3262,-13.1633,-118.8751,-195.5643,-82.4257,23.9062,65.1461,52.1485,27.6449,-16.8194,25.3503,30.1881,9.9413,-112.5440,14.0827
-2453.1250,63.5652,144.0777,-8.8640,33.4348,-6.6089,-24.0814,28.5930,-115.3063,-154.7338,-114.8314,28.6012,105.6786,55.8283,32.0882,-86.2525,-44.0742,-2.3177,-21.7049,-38.7662,-18.3638
-2445.3125,30.9470,75.2329,31.5629,0.6061,33.8461,-46.0252,32.1026,-147.9847,-77.1413,-110.4927,69.0348,72.9547,60.2670,35.2899,-81.9312,-39.7394,34.9268,-51.5760,33.7629,-51.0623
-2437.5000,5.2119,-20.7190,116.8952,9.6826,82.2045,-59.1700,43.5149,-173.7607,-65.6412,-62.2643,80.3600,10.1275,71.6141,9.3957,-33.6943,-28.5033,80.0636,-71.2389,43.1891,-76.8636
-2429.6875,27.4179,-103.7234,141.1799,-3.2888,106.5134,-74.2423,-6.1192,-186.5949,-41.1938,-38.0872,67.6357,-2.7519,58.9245,-3.5430,26.4979,-41.3227,102.1397,-85.2873,-4.4370,-89.7205
-2421.8750,-2.2740,-28.6341,146.5746,1.8424,111.9266,-74.1009,-0.6535,-181.3335,37.3465,-106.8113,36.0156,39.4703,64.3443,1.6160,68.7838,-73.0397,72.3164,-82.1701,-33.9691,-84.4831
-2414.0625,3.5343,11.9505,115.4812,7.4816,80.8458,-72.8335,5.3057,-175.5787,80.3775,-138.0468,4.8974,82.1878,70.2635,-28.7255,37.5688,-104.2487,77.9989,-76.0714,6.9943,-78.7499
-2406.2500,54.5942,26.7967,95.6393,-12.6345,98.0186,-78.7599,22.5137,-158.5713,60.6582,-158.0344,59.0327,62.1481,87.4296,-12.8200,-19.3919,-124.2177,57.9280,-96.3727,22.2121,-98.7694
-2398.4375,58.1106,30.0990,99.2425,-9.3084,27.6346,-66.0017,26.1680,-155.1099,27.3858,-154.5689,62.6269,65.5641,54.0552,27.5378,58.0994,-83.7297,61.2862,-96.0532,25.8782,-95.3404
-2390.6250,52.7275,-10.5103,93.9380,-49.8888,22.3449,-70.2899,-16.0728,-123.5429,-14.7884,-49.0064,94.3156,-13.9089,11.7877,21.9956,52.6979,-52.1293,90.7358,-100.1894,91.6473,-100.8154
-2382.8125,50.4365,-83.0319,128.7324,-52.3692,94.1524,-79.0036,18.7909,-88.8672,57.1501,58.6716,55.0979,-52.2874,9.6263,-17.4555,50.4027,-91.4290,17.2869,-98.3216,89.5225,-103.1953
-2375.0000,-39.5599,-173.2560,107.8282,-71.5582,110.2557,-58.4652,71.9577,-35.8799,147.3964,37.6565,-2.8197,-73.3727,25.7697,-37.6126,66.4166,-38.4299,-1.8613,-78.1065,105.7026,-87.2777
-2367.1875,-34.1061,-203.0268,76.3736,-101.3000,115.8070,-53.9989,77.5683,5.5522,153.0835,6.0694,2.7226,-105.0008,31.3740,-69.3121,71.8840,40.0240,38.4394,-72.5438,76.3323,-81.9180
-2359.3750,93.8992,-146.2540,61.4699,-79.4858,100.9154,-58.8205,99.7316,-8.4698,64.3199,-7.9846,61.8188,-83.0783,53.5366,-84.4561,19.9144,25.0304,-9.7207,-54.3009,27.5130,-60.0150
-2351.5625,92.3972,-7.0043,-12.9308,-81.1782,62.5253,-71.5281,98.3960,-46.9896,26.0659,-83.5184,60.4093,-47.6648,89.2019,-49.1042,18.4601,-12.4700,-46.3821,-62.7054,26.2043,-61.6166
-2343.7500,17.7035,59.0455,-16.5273,-121.0801,58.9379,-90.6286,94.8627,-50.7099,96.6149,-13.2422,-16.1931,-51.4594,85.6709,-52.9590,14.8106,19.8235,-15.2398,-67.6433,57.6963,-65.4258
-2335.9375,-69.6879,-63.5994,1.1814,-103.6826,39.6544,-57.7060,75.6292,3.8589,114.4604,77.3066,1.5091,-33.9530,66.4449,-35.5037,69.4674,1.4201,-32.7924,-49.1475,40.4790,-47.9412
-2328.1250,-27.2375,-92.4033,8.7464,-25.4240,11.2218,-28.1976,46.2344,11.2793,85.1645,47.6977,45.0550,10.4012,37.0823,-28.1952,76.9773,-28.1294,-96.4929,-43.0521,13.0993,-40.6160
-2320.3125,73.7585,9.3451,2.8712,5.3811,-68.6561,1.0629,4.3741,42.2432,43.4276,5.6509,40.1525,77.3069,-4.7169,2.6628,-1.9555,2.8673,-100.6447,-17.7930,-61.7393,-9.7465
-2312.5000,83.3669,88.7123,-61.4002,49.7806,-131.9352,33.6562,-96.8881,87.7988,16.2819,-21.8247,12.8574,86.8238,-31.9088,12.1219,7.7207,85.4659,-56.2073,-14.6831,-121.9816,-0.2849
-2304.6875,10.6741,85.7773,-65.9706,46.8870,-135.5105,49.3048,-100.4396,84.0507,48.8440,10.3830,-28.7407,83.0450,-36.3923,44.2757,3.1190,117.7598,-24.0792,17.5582,-123.5264,31.8700
-2296.8750,-33.2813,42.5567,-74.7860,2.7426,-145.3362,55.7939,-109.2265,74.0487,39.1714,37.3587,-38.5880,110.0088,-46.1136,108.1738,30.2855,108.8026,2.8006,42.0429,-132.3275,58.7679
-2289.0625,-79.3768,66.1731,-85.7458,27.4441,-119.3074,63.7792,-120.1560,99.8818,-45.6546,100.1804,-85.5687,134.8153,-92.9798,96.9246,56.3128,97.6909,-78.4560,32.6955,-107.2842,47.5092
-2281.2500,-93.4453,155.8075,-65.7022,11.1358,-99.2799,62.6181,-100.0878,119.7018,-97.4825,82.9761,-101.5346,118.6201,-72.8430,79.6797,39.3490,43.5804,-92.7119,56.2677,-87.2448,67.2455
-2273.4375,-67.4134,181.5518,-75.5561,1.9206,-110.1548,69.5160,-73.9228,108.6153,-145.2018,-38.1360,-39.3942,70.5264,-46.6043,68.5305,-44.5107,32.5660,-32.8717,86.2368,-97.1028,93.0756
-2265.6250,29.4196,69.0995,-82.6067,65.5031,-117.2272,85.7278,-80.9600,101.3270,-189.1308,-9.4434,-10.4505,-10.7692,-53.5667,61.1781,-51.5616,62.3525,-74.2305,80.7222,-68.1610,85.7004
-2257.8125,29.2943,32.6725,-82.6062,100.1313,-117.2455,84.6015,-80.9360,101.0888,-152.0179,101.3059,26.5327,-11.0192,-89.4629,23.8778,-87.5519,99.1952,-110.5330,80.1733,-34.1712,85.3713
-2250.0000,-87.4369,-50.3696,-59.2024,122.1647,-56.8613,93.3841,-93.5101,88.2531,-54.4987,235.4405,-59.0881,-59.8749,-65.9484,47.9820,-174.1331,86.4349,-53.4378,74.3091,23.2113,72.4369
-2242.1875,-142.6658,-104.9112,-7.2988,67.7079,-40.9779,78.5763,-77.5894,103.9206,34.5391,251.0764,-43.2087,-80.2324,-49.9342,26.5873,-121.2202,102.1761,-71.8516,89.7221,4.0870,88.0016
-2234.3750,-94.2910,48.1414,-102.7979,44.8472,-137.4978,68.3388,-64.0684,80.1925,48.1813,6.3270,6.2724,5.0137,-36.3271,39.7911,1.2843,41.5280,-94.6657,92.4967,-17.4390,101.1627
-2226.5625,-18.0712,125.0482,-131.4470,15.8279,-129.1719,42.3067,-56.6940,88.3141,19.6536,-58.5739,51.6038,50.1201,-28.8662,10.8580,9.6411,-24.2565,-123.6272,60.8697,-11.1249,72.1691
-2218.7500,36.1889,2.0231,-111.0474,-1.1401,-108.8016,42.7534,-0.2715,108.4880,-105.8375,71.5841,34.9765,-3.7265,-8.3452,30.9712,30.0604,33.0134,-175.5409,46.2179,7.2283,55.2273
-2210.9375,-56.4092,-54.8505,-60.5053,48.0450,-21.2850,44.2168,-21.7066,49.8199,-164.1672,49.8987,-23.5038,-25.4241,44.3261,9.2321,8.6245,48.4394,-126.3086,33.2353,21.7260,33.4349
-2203.1250,-132.5038,43.7737,6.5333,110.7296,45.7278,59.8758,-28.6414,5.6562,-134.0083,-31.2917,-67.4753,-32.6152,37.4899,39.0062,-35.3087,4.3754,-29.5839,34.1584,14.7184,26.1422
-2195.3125,-87.3935,124.5935,-19.2301,51.6113,19.9344,57.7393,-17.3820,16.6909,-159.6630,-20.2776,-92.2441,15.3979,-25.1408,86.9913,-97.0298,15.5114,-18.6649,42.7888,60.9033,37.0505
-2187.5000,39.1746,74.8689,-70.5467,1.9429,-31.4123,56.0341,-68.6719,112.1805,-210.8748,112.1746,-33.5650,37.8638,-76.3207,72.4286,-75.3015,38.1001,-68.2990,20.6482,81.5294,22.4088
-2179.6875,84.8433,-20.7498,-95.7659,-23.6218,-57.6582,65.8306,-93.8527,233.7715,-89.9815,196.7343,-22.7915,11.4213,-101.4075,-28.0314,-64.4772,48.7920,-57.8321,31.8710,92.2543,32.8635
-2171.8750,-28.5102,-132.3784,-66.9925,4.8129,-27.9081,80.8994,-101.0288,263.3631,12.9275,189.3041,-67.0242,-70.0227,-72.4980,-72.4856,2.3653,4.4862,-30.3644,32.8609,119.9732,25.3139
-2164.0625,-91.4690,-125.6108,-22.8168,46.6488,16.2362,99.1706,-20.8021,233.3493,94.2304,-24.7329,-95.8497,-63.0583,-28.1789,-65.5320,46.6126,-25.4192,-23.4945,46.6814,92.0806,32.1617
-2156.2500,-96.8638,-97.2960,8.9044,6.0332,47.9296,69.7094,10.9707,153.8775,52.0630,-67.2257,-65.1091,-68.5422,3.6969,-34.0195,4.4115,6.2264,6.9252,40.7365,86.7348,26.5543
-2148.4375,-70.3527,-35.0921,39.5320,-37.6844,4.5253,44.4584,4.6427,147.3044,8.7898,-36.8291,-34.4726,-112.1370,-2.5175,-3.6067,-38.8807,72.7801,68.2478,-6.1111,43.2922,-17.1594
-2140.6250,12.0072,-24.0453,52.0123,-61.5464,17.9773,5.4307,18.1641,86.5841,95.3804,-60.5851,52.0101,-135.8929,-25.8834,9.6526,-25.3141,13.1800,79.4200,-33.2903,54.7038,-41.0251
-2132.8125,87.0628,-161.3016,21.1960,-128.7099,60.1287,-51.6205,60.3819,18.5711,211.6780,-91.6314,95.1896,-129.9594,-19.5505,-21.4030,90.9502,-91.7192,84.2999,-66.5518,94.8236,-72.1964
-2125.0000,52.2704,-231.3973,60.5318,-127.7332,99.4320,-93.4465,136.7449,-16.2857,251.1121,-16.5152,23.5303,-127.8762,18.9419,-130.3091,240.3688,-89.4688,84.3326,-97.0577,130.0857,-107.2243
-2117.1875,-36.7710,-179.7445,79.6144,-111.0137,118.4783,-100.5317,154.8559,-34.3874,270.2852,-34.6535,-31.3730,-146.0329,75.1807,-148.4514,259.5441,-70.4742,136.1210,-112.4468,112.1003,-125.5061
-2109.3750,27.1904,-151.0945,109.6959,-48.2962,111.5272,-84.6369,111.9670,-77.4861,189.4607,-114.7982,35.7199,-116.1929,105.4218,-118.5857,141.7124,-41.4797,199.9132,-120.4334,35.1151,-132.7939
-2101.5625,200.4971,-48.0937,143.1254,-50.2308,107.9242,-104.4222,34.4312,-118.2324,112.9998,-81.5882,179.1547,-120.0104,65.0178,-122.3783,-44.7619,-44.1283,197.0517,-92.8805,-2.5238,-99.7344
-2093.7500,269.6555,19.7493,102.4018,-52.3113,30.1681,-84.3322,-5.2566,-122.1392,72.3890,-122.5406,212.4418,-86.9787,24.4677,-52.3226,-122.3684,-47.9173,195.0466,-65.8786,-4.3181,-66.8286
-2085.9375,220.0616,-29.1580,86.9326,3.8662,-21.3334,-57.2656,-20.6926,-137.8026,57.0244,-174.2518,160.9812,-28.6980,10.1712,-31.0145,46.2890,-26.4583,146.2872,-48.9431,-52.8677,-45.6765
-2078.1250,85.6674,-93.8483,93.6625,-24.7571,22.3642,-75.5199,23.0831,-167.2743,27.8620,-57.7575,130.7211,-22.2121,-19.9156,-24.5057,274.1428,-19.8070,117.7182,-43.3883,-46.2280,-39.3258
-2070.3125,46.9295,-97.8802,90.0402,-63.7283,54.7099,-105.2682,55.5080,-207.1013,60.3584,48.3758,127.1104,-63.0721,49.6445,8.6488,197.6496,-60.5142,113.8035,-48.5838,-49.9461,-43.3275
-2062.5000,119.8372,-60.2613,92.0579,-62.0516,56.6955,-89.6139,94.5778,-169.2718,99.4941,-22.8400,129.1493,-61.2783,51.8549,46.4605,88.8359,-58.5606,44.5393,-47.3330,-84.0260,-41.6815
-2054.6875,107.3282,-73.0499,42.6759,-38.7702,44.2777,-77.0584,45.2495,-145.8366,123.2260,-36.4405,115.7749,-37.8935,2.6684,-3.1137,75.6236,39.0026,-37.1325,-27.8364,-95.5072,-18.4387
-2046.8750,55.3234,-125.3318,23.7964,-56.9854,62.3627,-80.5588,26.4216,-91.8970,141.4526,18.4531,60.9087,-94.0112,57.9836,-96.1867,130.8954,57.0626,-90.2985,-7.6105,-42.4988,-0.6965
-2039.0625,1.4958,-109.4488,3.0664,-76.0424,78.5898,-67.2361,79.7294,-75.8140,194.8090,34.4800,3.2094,-113.9651,74.4433,-43.1195,110.3138,36.2696,-74.3002,10.4525,-26.3574,15.1958
-2031.2500,-52.4308,-127.6512,-14.7686,-59.1919,60.7122,-41.2253,61.9222,-93.8302,140.0405,-57.6144,-14.5889,-96.0091,92.8006,49.8607,129.6397,18.3769,-21.3994,-7.4269,-44.3154,-3.0159
-2023.4375,-45.2799,-120.7514,-44.4984,-52.2312,30.9363,-61.2511,69.2142,-86.7391,110.3646,23.3919,-7.2992,-88.9447,64.2581,-54.0436,248.0564,25.5834,-50.3935,-1.8322,-1.1778,3.8709
-2015.6250,5.3683,-71.3773,-66.7294,-107.7698,8.6593,-70.7926,84.0071,-72.1434,125.1906,0.9159,44.4837,-37.3901,42.2131,-39.4390,188.9646,3.3018,-35.8922,8.8021,-22.5359,18.2577
-2007.8125,55.6653,14.6303,-49.3176,-92.6599,-10.9670,-38.3196,27.4562,-54.8874,32.6743,-92.8863,24.9074,53.7910,-14.1792,51.8070,95.5391,-16.3160,-19.7582,-10.9006,-6.2416,-1.7074
-2000.0000,-6.8448,56.8412,-78.7157,-14.3615,-3.4030,3.4474,-1.8835,-47.4199,-70.6214,-11.4671,-41.4728,61.1617,-43.3714,95.2460,67.3232,28.2695,22.5635,-1.0575,1.2562,5.5270
-1992.1875,-77.8095,-49.3769,-41.5751,20.4852,-3.2922,43.5070,-38.6749,-10.3962,-70.3675,62.4715,-114.3083,-12.9018,-80.0112,132.2458,30.6539,28.3991,92.4512,6.9668,1.2950,5.3096
-1984.3750,-61.4823,-68.2740,11.8699,71.6418,50.1273,58.5858,-59.1717,5.9261,-89.8375,78.6789,-61.8374,-33.6458,-63.3560,75.5567,-99.7149,7.8191,73.6440,30.1492,17.6249,21.3907
-1976.5625,61.2992,124.2605,28.7709,88.2526,29.9991,63.5783,-114.2262,22.7026,-182.8566,-52.6428,-7.9203,57.0502,-82.2545,55.3186,-192.6473,-12.3112,55.2856,42.9853,-36.5913,37.9183
-1968.7500,63.3399,197.0166,-6.0785,90.1148,-4.8829,52.4624,-149.0331,-49.2575,-253.6235,-196.7034,31.2522,95.9757,-79.9015,94.3248,-80.3226,-10.1906,22.1848,37.3085,-34.5564,39.6897
-1960.9375,-90.5699,76.8221,52.1231,76.0302,16.2785,59.6882,-90.7834,-28.1608,-159.3366,-29.7170,-93.5227,5.9358,-94.4998,78.3727,-22.9359,47.9821,7.1360,66.0859,21.5315,60.5104
-1953.1250,-165.4814,-68.3778,48.3241,106.9434,12.4362,107.1069,-58.5400,78.9376,-89.0551,77.2728,-171.2924,-35.1131,-98.0930,74.4186,-98.5503,44.1594,-31.9010,70.4334,53.6209,56.3291
-1945.3125,-148.4826,-16.6679,30.4254,123.7557,31.4950,128.1809,-40.4017,133.9389,-106.8818,-14.8370,-152.1560,-16.2467,-79.7880,93.3674,-153.2765,26.2381,-85.0290,53.2506,35.6017,38.0429
-1937.5000,-108.7649,57.7457,-2.7754,127.2570,-38.7517,110.4936,-72.5597,101.6403,-103.0040,25.7668,-148.3085,-12.6871,-111.7875,97.0125,-76.2904,30.0114,-81.4464,48.8673,39.2752,41.4533
-1929.6875,-113.9856,87.2132,-44.9286,86.8046,-43.9502,70.3885,-77.6603,59.3761,-72.0758,57.4024,-153.4076,-18.0767,-116.7341,54.7074,-45.2347,61.8252,-51.7995,38.8460,33.9911,35.9101
-1921.8750,-181.5133,125.3883,-41.3761,90.0633,-3.4431,58.5974,-38.0535,25.7959,-32.4593,97.7119,-149.8113,22.2424,-112.9701,58.1139,-77.4746,28.3374,-48.4378,43.0543,37.3918,39.0635
-1914.0625,-161.0521,110.5670,-55.8267,40.3252,-17.9349,37.4773,-52.4480,11.2070,-46.8402,119.0181,-127.2124,117.5656,-127.2041,80.5271,-91.7265,50.8469,-63.0658,21.0683,-13.2124,24.2129
-1906.2500,-74.0264,92.2952,-73.7270,22.1358,-35.8725,44.7949,-70.2944,67.1545,-64.6576,100.8744,-109.0573,99.4426,-144.8870,62.4887,-109.4338,105.9068,-81.1487,2.3698,39.7275,5.9079
-1898.4375,-94.5836,36.4256,-22.2247,36.3478,-21.4070,87.5356,-55.7366,81.4989,-86.0741,-104.8860,-94.4974,40.7065,-94.1703,112.8436,-94.7326,157.3620,-101.8377,22.7464,89.0717,20.0011
-1890.6250,-70.1933,25.5033,4.2333,25.5139,5.0142,80.3512,7.7782,106.7927,-96.5487,-115.7108,-104.9880,-44.0939,-68.4935,66.1484,-105.0745,109.7574,-77.5729,20.1867,113.3688,9.0417
-1882.8125,-66.8547,28.5297,7.6364,-6.3683,8.3847,37.3552,11.2472,110.0486,16.9196,107.4087,-65.5358,-77.9415,-100.8751,-4.5880,-65.4663,77.1054,-3.3493,20.0962,81.6236,12.0310
-1875.0000,-65.1213,-5.0488,-64.5655,-75.8598,-26.8496,-2.5717,-23.8875,111.7127,92.7880,292.9459,-63.6794,-39.3901,-98.8536,-39.9270,-63.4658,114.8637,33.2719,11.1881,48.2858,13.4191
-1867.1875,-14.0323,9.7213,-84.4189,-61.0034,-46.7353,2.3918,-43.6765,128.7385,36.0020,236.8544,-9.4652,-22.4901,-82.4834,-22.9268,-46.1158,94.9706,-21.7524,-12.7969,28.2940,-6.8439
-1859.3750,-29.8901,29.5450,-64.2303,-5.0864,-63.5632,37.0461,-23.4223,148.8119,19.2514,108.8009,-26.2035,34.4678,-62.0710,-39.8667,-25.7115,79.1271,-37.7095,10.6731,13.3420,12.9434
-1851.5625,-43.1416,15.9837,-78.4386,-19.5593,-41.7956,16.4864,-1.5756,97.4785,78.0888,94.3188,-41.3414,19.0369,-40.0673,-55.1895,-40.7160,63.8865,-51.0613,31.2982,-1.0209,34.3307
-1843.7500,-39.5854,19.2387,-110.8507,-51.2205,-74.2354,-23.6914,2.0686,26.9472,154.7076,170.6326,-37.6815,-14.6007,-36.2637,-51.7096,37.0758,67.4460,23.3863,27.6019,-32.5893,37.5234
-1835.9375,-79.9797,83.5556,-116.2172,-21.8355,-115.6293,-26.7963,-76.2406,-52.5325,113.3491,165.0191,-42.9709,53.8081,-77.4111,16.8144,68.9243,99.0474,87.9008,14.0973,-107.1102,31.7710
-1828.1250,4.6771,96.9290,-65.5402,27.5976,-64.9796,-20.7079,-97.4937,-73.9626,-18.9693,106.4768,46.7880,69.2731,-62.5117,32.3846,-26.1766,77.6963,101.4732,-5.5698,-199.5859,10.0717
-1820.3125,91.0337,148.0080,-12.1711,43.7352,-48.6377,-12.8822,-117.0617,-93.6865,-2.5757,49.6152,63.2440,48.4510,-81.9209,85.6650,-118.5865,20.0529,47.7487,11.2768,-183.3676,26.0785
-1812.5000,50.6285,72.3350,-17.5487,3.1419,-90.0465,-9.5404,-86.3952,-63.1624,29.0715,43.9876,-16.0610,79.8879,-51.0856,80.2172,-87.7599,14.6631,42.2660,7.1222,-153.9061,20.3374
-1804.6875,-27.7364,-5.2841,12.1286,65.6084,-24.3965,12.9769,-20.6774,-33.5848,-15.2417,-37.5770,-23.3289,108.3701,-21.2044,-1.1841,-21.8876,44.3168,-36.1623,8.1060,-161.3961,12.6505
-1796.8750,-38.3942,-16.1789,38.5007,89.7681,38.9482,8.6218,5.7394,-44.3095,-62.8754,-11.4264,-33.8926,61.5496,-31.6336,-48.8872,-32.3143,-3.3264,-10.8770,6.5012,-102.1970,1.6699
-1789.0625,-29.1849,61.7851,11.7128,97.7810,49.1287,14.3198,-21.0036,-34.1834,-89.6650,-1.4230,-60.5995,34.5757,15.7793,-1.7428,-131.8991,-67.1096,32.2710,-18.9615,-59.1560,-25.4588
-1781.2500,-25.7275,64.9856,52.1758,101.0543,52.5603,20.1894,19.5044,-30.8029,-49.2035,-35.1790,-57.0618,73.8560,19.4374,1.6566,-164.2387,-100.6451,0.6778,-12.8489,-19.8664,-22.3359
-1773.4375,-56.3770,0.0939,57.5389,71.2337,57.8881,26.8861,24.9046,-25.5189,-80.8381,-67.0372,-14.6305,6.0396,61.9935,43.9561,-122.6884,-95.2876,-29.0113,-7.1728,20.3247,-17.3119
-1765.6250,-54.6724,36.5711,59.2517,37.7653,59.5656,2.8219,63.6546,-23.8892,-115.1307,-28.5440,-12.8484,7.5726,99.8974,8.6017,-84.7794,-93.5872,-27.3504,-7.2899,-13.1366,-15.9367
-1757.8125,-29.4126,25.6005,48.5194,61.8509,84.7903,-6.2120,52.9557,-34.7086,-89.8916,-2.5093,-23.5218,69.6567,89.3544,-39.1973,-95.3177,-67.3461,-38.1380,-19.7802,-24.0526,-27.0083
-1750.0000,-8.7072,-58.9239,34.2432,82.3987,70.4673,26.6646,38.7090,-12.0756,-67.2042,-54.0394,-74.7496,92.1856,75.2576,20.4567,-109.4297,-118.6555,-17.4621,-31.5904,-3.5184,-41.6292
-1742.1875,-47.1047,42.4495,66.8711,78.8538,104.0483,28.6461,71.3659,-15.5424,-107.6053,-131.6556,-78.0764,51.6153,72.0508,52.9999,-75.6561,-122.0673,-55.8820,-32.3106,27.9142,-45.3473
-1734.3750,-50.7897,73.5437,63.1924,75.0060,100.3266,9.8310,104.7193,-19.3080,-183.3134,-135.5529,-7.6974,-25.2574,105.5386,13.2333,-5.1728,-125.7963,-95.6003,-36.4017,24.0384,-49.3652
-1726.5625,15.6359,34.7576,59.6017,71.2575,59.7001,-2.5817,64.1749,-22.9703,-186.9343,-175.3598,61.7777,-29.0301,102.1227,-27.4295,64.4219,-92.4288,-99.2114,-45.5230,-14.7435,-53.2805
-1718.7500,7.6636,-43.4398,13.6086,63.1107,13.6709,19.5131,18.2306,3.9728,-87.9509,-112.5898,52.8546,-39.2045,92.3011,-0.4864,18.6065,-28.4511,-72.2167,-22.7775,12.0816,-26.5871
-1710.9375,40.7519,-81.5821,11.6643,26.0167,-25.3136,-6.0298,16.3335,1.9647,-15.9160,-3.7803,50.9884,32.6710,90.5287,-39.4979,-57.1721,-30.4200,-38.1725,-28.9790,-25.0389,-28.8373
-1703.1250,109.1832,22.6356,10.0696,24.2729,10.0513,-25.5358,51.7883,-73.6899,-54.5366,-42.5995,85.4647,177.8976,16.1061,-4.1628,-58.6053,-32.0384,65.2180,-35.3922,-132.8117,-30.7339
-1695.3125,118.6987,101.9476,-54.4305,33.6318,-54.4856,-13.2453,-12.6487,-101.2424,-118.0604,-107.2945,59.0244,224.2166,-11.2141,42.2716,-11.9366,14.4466,145.7111,-32.8300,-157.4805,-21.5276
-1687.5000,119.0169,173.0575,-54.1284,33.8013,-91.2246,-11.1416,-12.2930,-63.9928,-117.7873,-70.1960,-14.6135,150.3358,-10.7399,42.5094,25.5303,-22.2730,110.0106,-31.7368,-123.3601,-21.5143
-1679.6875,7.5470,236.3820,-98.6298,-43.8236,-98.7637,-36.5173,53.2531,-35.5427,-16.3194,69.0785,-23.0472,104.6689,17.9267,33.9567,17.1850,6.1976,68.5185,-7.2982,-95.0523,6.7082
-1671.8750,2.1818,195.8212,-104.0381,-49.3427,-140.2065,-28.6296,10.8860,-3.9879,15.2280,63.4567,45.6158,136.1086,-24.3258,28.5063,11.9314,0.7704,63.1351,-15.3718,-100.6456,1.0369
-1664.0625,114.6643,168.1108,-96.5992,-6.0053,-132.8025,-4.9646,-55.6329,3.4260,-14.3910,-40.2838,90.1103,180.3899,-16.7435,35.9162,19.5081,-28.7848,70.6069,-9.8229,-127.3823,8.2224
-1656.2500,83.5257,65.7861,-56.7670,-2.2580,-166.0022,21.5211,-51.7576,44.2527,-47.6037,37.3834,56.9860,74.0666,-12.7691,39.7362,23.4803,-24.9338,109.4762,2.5926,-19.7163,11.8146
-1648.4375,-29.8244,-82.7279,-64.1357,-9.7022,-100.4034,45.3179,14.9174,109.8823,-18.0200,102.8455,12.6566,29.5490,16.9993,-4.6434,-20.7463,-32.2861,137.1451,8.2837,78.7433,4.2161
-1640.6250,43.2431,95.1827,-62.1137,-43.7421,-98.4145,4.4455,16.9834,75.9106,20.9516,31.7096,14.7329,68.4440,-54.8431,-39.6267,-18.5845,-30.2424,104.2203,4.7461,45.5921,6.0263
-1632.8125,111.8795,199.6623,-63.5490,-80.2257,-63.8797,-22.3457,-21.4154,74.4856,19.4594,30.1277,-23.6295,-7.1078,-56.1484,-41.0579,-56.8898,5.3456,32.8534,-0.6307,43.9822,4.3937
-1625.0000,87.4599,69.0939,-16.0365,-34.7515,-16.3980,5.0544,-10.8741,85.0126,29.9081,3.4975,23.9507,-70.7125,28.4883,-30.5279,-118.2499,-21.1130,-27.5543,15.7984,54.3185,14.7200
-1617.1875,57.6329,-66.8776,26.0763,-64.6672,-11.3168,20.6070,31.2597,126.1442,71.9424,-28.5361,66.1184,-137.7098,33.7194,-25.3880,-77.0123,-52.9695,-22.3582,27.4963,94.2534,19.6539
-1609.3750,2.2587,-192.3879,-31.3616,-85.1271,-31.7872,33.5159,47.8386,179.7294,88.4154,61.8877,8.7342,-122.2466,13.3935,-8.8007,86.6601,-36.3787,-42.7056,5.3165,143.6359,-0.9550
-1601.5625,-65.2576,-189.0316,-27.9487,-81.7332,-28.4117,42.0354,88.2638,183.1623,91.7207,101.1593,-97.7967,-82.9251,53.9044,-5.3644,90.1650,41.0574,-39.1914,9.5568,146.8677,2.2951
-1593.7500,-57.6644,-111.5606,-20.4408,-109.2296,-57.9418,9.5532,95.7759,116.6988,172.1144,-38.4768,-90.2224,-38.5085,61.5078,-34.8228,97.7584,48.5870,-31.5712,12.7947,119.1970,9.6528
-1585.9375,-33.2686,-52.2778,-31.1335,-84.9195,-68.6734,-13.5050,121.0827,70.0318,198.2969,-49.3159,-64.8505,-49.2882,50.9040,-45.4753,123.1482,0.9148,-42.1484,-0.6444,73.3205,-1.1812
-1578.1250,-29.4784,-12.5912,-64.4234,-46.1993,-65.0030,-16.6004,124.7874,-0.2429,91.8716,-8.7697,12.9146,-45.6606,54.6963,-4.7224,90.9376,-32.3595,32.6729,1.4323,41.8381,2.3932
-1570.3125,-2.2860,-21.5039,-36.3105,15.9349,-36.9308,14.3806,115.8900,-46.1209,-65.1614,-163.8181,78.0692,19.3709,82.8845,60.4286,8.1226,-78.2395,58.8965,-3.5734,-2.2537,-6.6237
-1562.5000,25.5565,6.2399,-6.5507,43.7277,-7.2087,6.2228,72.6380,-90.3501,38.4457,-171.2016,33.8689,12.0543,38.7162,89.2297,37.9357,-85.4654,51.7779,-13.3673,-9.6992,-13.9796
-1554.6875,29.4458,45.0518,-2.7396,12.5799,-3.4362,-41.7826,2.4243,-158.5299,152.0898,-95.5349,-36.2858,15.7946,5.5920,57.0817,78.7776,-81.6441,55.7137,-16.1372,-6.0943,-10.2776
-1546.8750,44.5256,25.0793,51.2699,27.6425,50.5376,-27.3737,-17.5927,-142.5052,21.9179,-151.6705,-19.2516,-4.2572,22.6550,73.1398,58.8225,-64.6245,35.8473,-31.5350,-26.2915,-30.3661
-1539.0625,-11.0497,39.4617,65.6208,42.0627,100.8517,-17.8190,70.7297,-164.1217,-74.9154,-210.4576,-4.8742,10.0497,74.0556,87.5584,36.2166,-87.2521,-19.6704,-11.6530,-12.1364,-16.0907
-1531.2500,-16.4168,-35.9482,60.1656,36.6892,132.3547,-15.8849,101.2401,-169.5307,-43.5539,-253.0357,-10.2973,4.5601,104.6423,82.1783,-6.2069,-55.6782,-24.9800,-14.8318,-17.7839,-21.6024
-1523.4375,-0.0712,-90.6456,39.4053,53.0234,111.5481,-3.7557,81.4355,-153.2311,9.4957,-309.9074,42.9760,-16.2208,120.9125,25.5048,10.0493,-2.4053,26.4194,1.7814,-1.7368,-5.4000
-1515.6250,14.9188,-75.6799,17.2909,68.0197,126.3825,-7.5953,22.2704,-138.2760,-49.8157,-185.1335,20.8926,-38.3383,99.8205,-33.5114,24.9397,-24.4748,41.4673,17.7819,47.9523,9.4637
-1507.8125,-6.9440,-26.5485,32.3210,11.1772,141.3568,-49.5122,37.2436,-88.1666,-34.9895,49.8008,-38.0450,-60.2973,77.8611,-92.3714,2.9708,-83.3842,-15.3339,-3.9053,60.7861,-12.5085
-1500.0000,-116.6522,-136.2623,65.4919,42.4887,137.4750,-9.8520,70.3510,-54.9067,-2.0216,8.9033,-114.8368,-101.1015,110.0345,-96.0711,36.1390,-13.1410,51.0195,1.5306,91.7648,-16.3163
-1492.1875,-152.6121,-208.2198,26.4093,40.5560,98.3387,14.9489,68.1981,-19.8944,-4.3143,6.7679,-80.8891,-103.1530,107.9461,-61.0167,34.0457,58.8526,84.1251,-2.7131,54.4900,-18.3617
-1484.3750,59.3199,-30.2626,28.2239,-27.4628,64.1028,-45.0522,-4.0565,-54.9828,-2.7167,8.5379,68.9452,-64.3007,109.7466,-22.0610,-1.1544,23.7477,-54.8700,-20.5517,-13.8911,-16.4937
-1476.5625,140.3925,15.8580,2.1846,-52.3186,38.0122,-74.1537,6.8279,-80.9189,8.0279,19.4546,152.9226,-90.2877,120.6848,-10.9511,9.7836,-2.2068,-147.7171,-18.0594,-39.1257,-5.4634
-1468.7500,174.7152,-20.7596,0.3936,-88.9130,-0.8350,-78.9569,41.9494,-45.6006,6.0174,-19.3796,114.1451,-55.0121,118.8550,-86.5849,44.9618,33.0875,-80.3070,-16.9372,-41.1189,-7.1684
-1460.9375,110.7867,21.3835,7.3420,-116.7506,-30.9474,-93.1804,48.8031,-75.5289,12.7547,24.5617,85.1154,63.0215,125.7639,-79.4672,51.8790,40.1374,-38.1409,-13.8812,-69.3715,-0.1096
-1453.1250,38.9581,54.6387,5.3853,-118.4765,4.0343,-88.4713,83.7443,-77.3562,47.5795,59.6141,9.1808,61.1605,87.7627,-44.2464,49.8868,1.2828,-3.8752,-11.7512,-71.5284,-1.9394
-1445.3125,57.3821,73.1586,-13.3238,-64.9378,-14.7370,-48.2338,64.9334,-21.9333,102.6372,-70.0922,64.4940,5.5581,69.0041,-62.7696,68.1301,-17.3231,14.6355,10.0967,-53.4404,16.4952
-1437.5000,57.1990,3.0725,-13.6298,-99.9902,-52.1058,-53.2398,27.5102,14.8875,102.0834,77.5987,64.1950,-68.6379,31.6359,-62.8811,104.7608,56.4791,-21.4500,6.7673,-18.9520,16.3422
-1429.6875,74.2101,-50.8033,-68.7351,-117.8287,-70.2746,-56.0697,9.2724,33.9081,83.7121,243.5078,83.0855,-86.6181,13.4557,-43.7873,12.5843,75.4795,31.6693,-12.9624,-1.2766,-1.6007
-1421.8750,129.5836,-30.3005,-48.4936,-97.3106,-86.0973,-23.8185,-44.6301,17.2747,66.6733,79.7659,103.3305,7.7596,-3.3908,13.6542,-4.2496,21.8242,157.1433,7.6898,-52.2526,18.8203
-1414.0625,63.7645,10.0113,-7.4527,-57.9869,-82.1288,-12.1747,-40.7445,-52.5561,-3.5837,-100.1740,107.3750,48.9327,0.5496,17.8964,-0.2998,-11.0259,232.4208,18.5501,-48.4237,23.0544
-1406.2500,52.8316,34.2149,18.4890,2.2474,-57.2601,-19.4205,-51.9697,-63.4791,22.0541,-75.2026,96.3046,38.0027,-10.6183,-29.9556,62.5353,-21.9659,150.5990,7.5922,-59.6887,12.2028
-1398.4375,109.5370,21.0734,-33.9206,-11.8593,-107.7467,-23.9411,-102.5535,-41.7460,117.3388,20.4169,117.8754,-14.2664,-62.1500,-45.1495,84.0078,-0.2588,137.4333,23.4449,-3.3066,34.0139
-1390.6250,133.7014,10.3964,-44.8902,-126.5047,-118.7860,-58.0984,-77.7012,21.4380,106.0615,156.4874,106.8973,-98.0760,-73.2430,-91.8867,35.9243,-11.1097,126.7149,15.3150,91.5179,23.2862
-1382.8125,131.5684,-62.5721,-47.1646,-128.4374,-49.1305,-40.6940,-7.1576,93.3243,103.4697,265.2644,104.6140,-136.1747,-75.6538,-93.9236,-40.4679,-13.2555,54.6911,19.5539,124.0400,21.2713
-1375.0000,83.9339,-144.0216,-22.9441,-140.8615,12.0234,-16.9113,16.8732,116.7127,90.3675,215.5439,17.8252,-112.7666,-52.5746,-33.4602,-53.3689,-25.9040,7.1618,12.4780,146.0632,8.7689
-1367.1875,19.2429,-174.5071,19.2240,-135.3279,54.1284,-10.6428,21.8515,122.0483,58.2075,146.7828,-14.0244,-107.3991,-10.5529,-65.0399,25.6663,-20.6063,12.5830,22.2503,116.0367,14.2316
-1359.3750,-44.3635,-130.8949,26.4919,-93.6847,61.3330,0.1949,28.9180,129.4834,-45.8654,191.1372,-43.7862,-99.9198,-3.4404,-93.5144,69.7902,-13.2098,-15.8897,32.6192,123.1090,21.8078
-1351.5625,-117.1257,-205.4294,59.6081,-62.1724,94.3855,40.2270,61.8173,162.7784,-122.0948,150.3443,-83.7117,-176.5841,29.5076,-61.1390,-8.2485,20.0417,-54.5118,39.2655,154.0289,18.2459
-1343.7500,-70.4858,-157.5485,109.1196,-49.2512,106.8293,28.8424,37.1002,175.4797,-73.9300,162.9509,-35.2463,-200.8414,41.8420,-120.3591,-68.8953,-4.3011,-110.7399,52.5376,166.3474,31.1004
-1335.9375,-31.3965,-48.2014,76.0699,-79.8774,73.7119,-9.7219,3.8182,179.6387,76.6769,167.0244,-31.3311,-196.6402,8.6103,-190.1232,-29.1062,-37.1905,-142.5229,49.6848,170.1158,35.4188
-1328.1250,-10.9557,-62.4975,24.3652,-94.1453,58.9355,-13.6896,25.8737,165.1575,208.6243,115.4666,-82.0718,-137.0824,-6.2853,-167.5331,-43.9829,-51.7283,-120.9554,32.8516,191.2329,21.1029
-1320.3125,-75.8305,-126.0998,-7.6503,-88.7068,26.8561,9.8602,67.6186,170.3841,213.2719,120.6180,-77.1280,-95.8199,-1.4966,-125.2332,-2.1656,-9.5587,-81.6857,37.6476,196.0541,26.5006
-1312.5000,-133.3226,-115.3028,5.7294,-76.8565,40.1721,-8.0694,43.7550,147.0244,189.3144,171.1846,-64.8014,-83.1505,-25.3174,-148.5291,48.0442,-32.9795,-35.0233,14.2303,136.2778,3.3101
-1304.6875,-99.1650,-8.8396,5.7565,-5.3496,40.1357,-16.4176,6.5352,74.3187,189.0002,134.4109,-64.8320,-8.8222,-62.5033,-148.1687,84.8871,-32.7465,-34.7198,8.8621,66.1491,3.7834
-1296.8750,-60.0550,100.5961,-27.2773,-0.8871,7.0387,-17.9828,-26.7493,41.5664,118.6249,65.5963,-23.9169,-4.5357,-94.7547,-107.8529,88.6704,-28.5641,5.5349,8.5849,34.9711,8.2196
-1289.0625,-31.7981,165.1911,2.8303,27.7297,0.0873,-25.3882,-33.8958,-2.0379,38.3952,-15.0529,-30.8615,-48.0851,-65.8693,-150.3908,7.5966,1.7778,103.9391,7.0226,-7.0539,1.8206
-1281.2500,51.7391,72.0862,15.2314,40.6523,12.4298,-8.2219,-58.7523,10.6657,-23.5291,34.6037,-18.5214,-35.3182,-53.6986,-137.6188,-90.1898,51.4272,81.6374,19.6200,-30.7699,14.7345
-1273.4375,20.0083,-65.2709,18.3817,44.3361,15.5260,22.1221,-55.8667,51.1248,-57.7113,38.0181,-15.4485,-68.7953,-13.7830,-98.0853,-87.2444,91.8283,-20.9264,24.6839,8.2746,18.4091
-1265.6250,-90.3812,-69.2746,87.8832,40.3827,47.9739,21.0369,-60.6371,83.9377,11.4429,33.7963,16.9630,-35.9260,-18.5242,-102.1925,18.0465,13.5752,-129.1504,21.1133,3.6743,14.4459
-1257.8125,-60.5275,66.9656,82.6342,35.6902,42.6681,-0.7042,-102.1649,42.0025,42.8363,28.8289,11.6114,-3.8078,-61.0278,-71.0459,12.5815,-28.4219,-134.1215,10.6742,-1.6725,9.7432
-1250.0000,99.8788,157.7630,66.9329,55.5603,26.9109,-17.5567,-118.1554,-10.3821,-84.2284,13.4106,32.8110,54.8728,-76.9950,-86.3433,-113.3485,-6.8724,-80.5453,-6.6281,-17.4706,-5.4010
-1242.1875,92.6884,114.9793,59.6304,83.8365,19.5535,20.9027,-89.7611,19.6348,-127.8959,-30.5995,25.4122,83.9669,-84.5745,-56.2377,-120.8997,23.0749,18.4216,-8.5074,-24.8688,-12.1358
-1234.3750,-8.9179,-57.1976,62.9262,122.7218,22.7956,73.2932,-86.7745,23.2489,-88.9664,-137.0056,28.5993,51.6700,-81.5627,21.4703,-44.8529,-10.3728,56.9895,1.9969,13.3326,-8.2620
-1226.5625,3.4613,-184.3740,111.2217,135.6172,72.0386,77.7789,-74.7900,-38.1383,-40.0459,-234.3987,40.7698,-9.6208,-32.5542,71.1860,4.1971,-71.8140,34.5560,18.2213,25.5318,4.6214
-1218.7500,-32.4638,-43.8472,111.2123,136.2143,71.9781,63.6198,-1.1161,-110.8276,-149.4386,-344.0791,40.6347,27.7977,41.1427,107.6121,-33.0579,-71.5534,-0.1762,18.3081,25.4282,5.2135
-1210.9375,0.5717,130.6364,73.1521,134.7670,33.8684,37.3620,-2.5060,-148.5688,-298.8859,-271.8087,2.4519,137.1716,2.7747,143.9873,-71.3751,-35.3409,-37.9610,-27.4975,-12.7239,-32.2359
-1203.1250,118.1552,212.6791,49.6361,146.8774,46.3044,12.2561,-63.3567,-135.7552,-248.7733,-148.9879,15.8125,151.0996,-58.0552,120.9142,-95.1477,-58.5776,-26.2032,-57.4453,-71.3218,-55.1244
-1195.3125,72.4721,97.4807,38.8647,172.7381,-1.5131,42.8710,-112.4635,-146.1826,-150.9078,-195.4049,40.9091,139.7820,-70.1423,146.5929,-107.1711,-70.0592,34.2972,-30.5759,-46.1649,-29.2559
-1187.5000,-70.6723,25.8424,36.6397,206.1544,33.2215,86.7591,-78.0245,-148.0573,-80.4989,-308.2502,-35.4526,138.0242,-72.6886,218.8252,-109.6512,-34.9880,67.3382,-25.5281,-48.4587,-30.8291
-1179.6875,-56.1699,146.8461,14.0618,221.2266,10.6053,91.3933,-26.9464,-133.2865,-103.4455,-366.4234,-58.1640,189.9228,-95.5892,196.7115,-131.4946,-20.2673,12.0240,-11.3486,-70.0987,-15.7437
-1171.8750,46.4280,178.9406,-26.4161,183.4070,-29.9088,89.8672,-30.7721,-63.4132,-179.2943,-406.4872,-24.7803,186.9267,-99.3987,156.7007,-99.2442,-60.4441,8.7995,-15.4608,-73.6393,-18.5512
-1164.0625,29.1211,91.1439,-45.7944,130.6913,-12.3287,65.5897,-13.5016,-45.4381,-126.0453,-241.4497,-44.3017,168.0391,-45.1172,100.7960,-81.8962,-79.5151,-8.3280,2.2965,-20.0841,-0.2484
-1156.2500,-64.8400,33.7102,-33.8259,38.3265,-0.4031,46.6901,35.1088,3.8862,-41.4506,-119.0557,-69.4771,106.5070,-33.4971,77.2445,-33.1992,-30.2332,-32.1078,15.8378,26.8219,12.4113
-1148.4375,-172.2022,-39.1226,-36.2612,1.5690,34.1215,40.6058,32.3087,38.8203,-7.2643,-48.0521,-72.0532,104.5833,-36.2846,38.2914,1.0926,4.6509,-34.2945,15.5606,24.3320,10.6806
-1140.6250,-91.3694,-27.7660,11.4959,48.0148,44.8416,46.4351,-31.3011,12.9642,-106.8742,-73.8311,12.5661,79.8602,-25.8795,49.5405,11.5719,15.7449,-23.2918,24.1208,-70.9497,22.1591
-1132.8125,30.0432,94.1830,-8.1511,99.0664,25.1644,37.0009,-88.3131,-6.2830,-199.8766,-55.9973,29.7612,60.7331,-45.8780,67.3989,-8.3461,-3.5559,-77.7041,-1.3339,-125.6203,3.2419
-1125.0000,72.1330,101.8400,-1.1009,71.8247,32.1877,33.7532,-81.6216,1.1722,-193.1775,-85.4455,36.6338,68.3110,-39.1783,74.9598,35.4403,-70.1580,-70.4227,7.0915,-83.5893,11.0297
-1117.1875,31.0143,61.3113,27.7461,31.3850,61.0110,30.9604,-16.1348,-6.5748,-201.6885,-128.0767,28.2990,23.7046,-10.6885,30.3184,27.0231,-76.9658,-6.3448,45.9431,-19.7570,40.6215
-1109.3750,-23.3047,43.5934,46.3906,13.7515,79.6353,-3.6305,2.1410,12.4728,-146.4006,0.1022,9.7653,-68.0896,7.5926,-97.5283,-28.5966,-21.9708,11.5227,33.4755,-2.1263,23.0176
-1101.5625,-30.9307,106.5685,38.7377,6.8245,71.9620,-19.8112,-5.8849,42.2202,-45.4043,66.9807,1.9300,-38.1862,-37.4294,-140.6679,-36.5290,44.7278,-31.9152,21.1237,-45.7955,16.1184
-1093.7500,-21.7182,81.3853,47.9363,16.7527,44.1402,-3.1893,-71.0666,-22.1800,-73.5578,-34.2920,10.9386,45.5636,-65.6012,-58.9477,9.3758,17.2790,48.4975,28.3428,-36.6080,26.0726
-1085.9375,45.3404,-27.9451,80.9868,13.5357,40.1668,-0.1712,-111.4035,-62.7315,-40.8604,-0.7079,43.7911,79.1717,-69.9298,11.6283,-31.8700,-60.3209,114.7535,24.0768,-40.5671,22.8798
-1078.1250,76.6425,-101.0219,77.2791,80.5671,73.4395,0.7303,-115.4972,-66.0327,-7.9098,70.1267,76.8857,39.0430,-74.0132,-65.5425,-72.8529,-63.6666,111.2541,24.7694,-44.2711,19.9373
-1070.3125,106.2355,35.1981,71.8683,75.8976,68.0174,-26.8429,-48.2923,-107.0329,-50.6584,-82.7253,107.2773,-2.7797,-42.7999,-106.4210,-41.5331,5.2965,36.0539,18.2936,-49.6652,15.2953
-1062.5000,100.5747,241.1590,66.2020,35.9673,25.3484,-27.9034,-54.3369,-148.2806,-202.6388,-123.8014,65.4175,66.1474,-48.8417,35.4441,-10.4667,37.0119,65.5967,5.7598,-55.2941,10.4049
-1054.6875,-15.6478,195.5674,54.9843,25.4830,14.1365,-26.6395,-65.9340,-159.0721,-141.1544,12.5793,-20.0050,55.5202,-60.4418,97.7684,-21.9492,-10.8280,124.5825,-4.0920,-66.4578,-0.0382
-1046.8750,0.3744,71.2220,107.0179,77.2505,67.1845,-21.3710,-87.2729,-106.6166,-15.4137,66.2150,-4.1874,72.1373,-81.7894,-69.6577,-116.1852,-31.4208,105.8135,21.0710,-85.3611,16.7679
-1039.0625,139.4337,35.9148,105.1063,112.0654,27.2845,-7.0203,-125.5572,-108.1106,-91.6126,26.9135,103.6742,69.8021,-120.0843,-107.0423,-118.3784,40.0370,140.0894,52.4505,-156.2041,51.6225
-1031.2500,269.9242,96.0432,57.6433,67.3286,-20.1577,-7.6782,-173.3887,-118.1527,-249.3412,-19.9318,128.9816,22.9160,-167.9243,-7.9762,-20.1151,66.9468,235.8005,35.4793,-201.5853,41.9227
-1023.4375,199.2098,130.9636,19.9781,-3.6150,-57.7970,-28.1227,-137.4100,-118.3940,-176.2619,127.0282,92.0840,-14.1683,-131.9601,65.8891,-21.0421,66.6574,235.2999,29.7065,-167.1553,42.0208
-1015.6250,20.5942,23.9793,17.4069,-40.4657,-60.3330,-17.8090,-104.3246,-48.5309,77.9144,273.1009,-21.7147,-16.1551,-98.8951,63.8496,-132.8593,64.4686,161.8910,31.8712,-64.6143,40.2160
-1007.8125,-117.0248,-149.0085,56.8354,-72.3226,16.1362,-29.3711,-66.2305,-45.6620,264.0978,312.1764,-56.5164,-13.1428,-60.8270,29.8066,-58.6760,104.2818,59.4754,36.9247,-27.0640,43.4096
-1000.0000,42.7945,-128.5511,39.7126,-85.7294,-0.9440,-9.5403,-82.6855,-61.3423,135.7457,148.7075,74.1281,44.3212,-113.3101,124.2128,-2.0428,87.5498,44.5095,51.3028,-42.0552,64.0499
-992.1875,223.0011,16.3075,-66.0163,-80.7416,-105.6205,-33.3172,-42.7402,-56.6230,29.8037,80.6620,151.1679,49.1893,-109.3911,55.0208,38.9936,-18.7827,48.9383,50.5308,-72.6426,69.0851
-984.3750,159.0038,129.9645,-94.9457,-38.9621,-135.4955,-57.1486,38.0116,-49.1029,110.6699,125.4450,48.0010,19.8627,-66.6716,-83.3685,45.8273,-47.3104,-14.8476,61.6979,-65.4282,76.9163
-976.5625,-42.9463,174.6594,-85.8324,5.8599,-126.3176,17.3790,-27.1825,-3.5273,82.6076,-12.7237,-53.1214,29.5883,-57.9001,35.2919,17.7139,-1.7867,-40.5935,76.4859,-21.1532,86.7937
-968.7500,-145.6129,-33.3531,-47.4252,8.9712,-123.8356,69.2085,-25.0668,36.3469,10.8682,27.4146,-86.9479,-40.3872,-19.8210,149.2488,56.9204,112.0395,-143.0522,82.1089,16.4335,89.9678
-960.9375,-180.5463,-243.6315,-48.2703,-24.1792,-125.6033,95.1710,46.8089,71.9730,45.8863,247.3091,-126.0249,-114.6105,15.0157,257.9591,54.8847,73.6211,-177.7628,119.1836,16.7778,125.8874
-953.1250,-123.1348,-149.5642,-97.7670,33.0199,-138.0200,119.7544,34.0418,96.9513,70.2592,14.5565,-64.7553,-16.4813,-33.7925,246.0192,5.1966,24.5546,-225.1325,106.0535,-30.5196,114.1487
-945.3125,10.0736,19.3150,-141.4635,98.0124,-181.6294,119.8287,-9.9231,127.7298,-10.5564,-27.3797,-35.6909,13.4481,-76.8008,129.8730,-37.6916,55.2880,-161.7166,98.8959,-71.0067,108.2030
-937.5000,-77.4314,37.4878,-123.8626,80.2983,-163.9345,92.8022,-28.5841,145.8051,43.9484,211.0007,-128.3342,-4.3257,-96.5040,37.0210,-20.2707,110.3178,-144.0106,117.1425,-89.1789,126.5505
-929.6875,-201.7011,53.8914,-145.0118,26.8296,-147.9787,108.5712,-12.9804,125.1295,59.7268,117.6422,-222.7363,12.1460,-80.9488,164.4154,31.4120,126.6002,-163.0657,132.0410,-73.0950,143.1391
-921.8750,-158.1782,63.0790,-136.3613,71.1479,-139.2121,123.8972,31.4343,97.2526,-40.6868,90.0865,-177.3357,21.4199,-35.5850,210.6095,-32.1048,135.6844,-189.3250,141.1382,-134.2013,152.5179
-914.0625,-97.5070,54.4096,-145.5591,62.6081,-148.2902,91.6332,-13.9911,51.5261,-123.9472,265.6854,-113.7800,48.8441,-9.0563,237.9509,-78.4688,89.9109,-198.4439,123.9985,-213.1498,144.0345
-906.2500,-177.2922,116.2895,-155.2061,53.6127,-157.8101,76.3323,-96.8531,42.3450,-23.6432,293.8379,-160.6740,113.8173,-54.9668,228.8384,-15.2726,117.6743,-208.0232,108.2301,-222.5374,135.0910
-898.4375,-190.6371,102.6183,-133.3984,111.0573,-208.8675,106.5589,-112.2548,-7.3908,71.1220,95.4244,-175.1212,173.2392,-107.4160,215.1679,-29.6118,176.8864,-116.1554,134.2340,-200.4639,157.5870
-890.6250,-110.9882,77.9416,-121.5859,157.4913,-196.9162,106.5796,-100.6455,-69.1315,-63.0932,71.0104,-127.5674,148.6558,-95.8571,226.4890,-91.9364,152.0970,-35.2945,114.7240,-190.3796,133.0680
-882.8125,-92.8897,61.6967,-64.3203,141.3625,-177.5078,70.8932,-80.5725,-48.4290,-263.8324,350.0673,-144.5603,95.5189,-39.8373,137.2536,0.1949,172.7538,-17.9956,100.7287,-206.8396,116.9856
-875.0000,-115.6468,39.5815,-51.9072,83.3763,-164.9398,72.4279,-68.3329,0.4226,-325.3969,436.2773,-132.4011,34.5305,-63.6540,150.1637,12.4806,185.5551,-39.5492,116.2182,-159.1418,130.0375
-867.1875,-44.6637,146.2064,-51.7394,120.1275,-164.6089,123.5647,-142.3231,74.0184,-178.1833,106.2355,-58.4906,109.2856,-100.7073,187.8180,-133.4718,112.0997,-39.3597,117.6666,-193.6794,130.8261
-859.3750,42.5042,235.0230,-144.3729,139.0601,-219.0669,124.9645,-234.0944,55.8141,-48.7468,-131.5869,31.6122,165.2360,-119.5446,169.6604,-78.2062,130.8433,-56.9790,124.4717,-210.0042,149.7991
-851.5625,32.7211,155.8804,-189.9620,59.0230,-228.4646,71.9744,-206.7892,46.6548,13.7622,116.6433,-14.2354,82.2346,-166.3161,123.5400,-14.8690,195.6348,-101.5576,111.1076,-149.2672,140.8051
-843.7500,-31.8125,19.9859,-222.3024,29.2197,-260.6090,75.9008,-129.2184,51.7444,92.5480,380.1146,-119.8253,50.4814,-161.8249,165.6645,-120.2714,236.6702,-61.8876,119.2230,-74.2679,146.0477
-835.9375,-60.7997,27.6249,-252.0974,71.9503,-253.1955,80.6359,-122.0846,-12.6168,62.9157,314.1389,-149.8565,132.2690,-117.7697,173.3342,-76.1124,171.2499,-18.6760,127.4379,-66.7059,153.8229
-828.1250,-144.0961,190.9344,-228.1910,59.3624,-192.0720,70.8337,-61.2275,-62.2771,-22.9903,80.8832,-89.1885,266.7452,-56.9981,197.7005,-52.2360,121.5294,2.2216,115.9477,-114.4296,141.2822
-820.3125,-122.8046,282.8149,-206.6866,12.3560,-170.3380,72.2343,-76.7425,-40.3404,-1.2732,-42.7679,-30.9243,288.8182,-109.6053,219.6597,-104.7375,143.4086,-81.2938,136.0278,-92.5348,163.3254
-812.5000,24.7268,255.9439,-233.9323,-14.4176,-197.3414,43.7841,-140.9849,41.8450,-28.2882,150.8369,-22.4078,189.1355,-136.9427,155.8555,-57.9802,153.5313,-178.5633,102.3184,-119.3810,136.5999
-804.6875,97.2576,294.0804,-232.1760,-12.2070,-159.3341,13.6398,-139.2097,81.0269,-99.2830,263.4455,-20.8830,227.4528,-135.2656,-24.9604,-56.2196,44.6415,-141.8383,111.0814,-82.2199,138.8572
-796.8750,23.3342,185.7444,-162.8676,-50.4591,-89.7697,64.9983,-143.8740,150.7588,-103.7032,223.6074,-98.7996,224.3160,-176.0272,7.7657,-97.8896,41.2928,-39.5653,158.0259,-13.5053,171.6468
-789.0625,-117.4942,-25.5077,-127.4505,-50.6253,-53.0992,115.1521,-107.4208,187.5855,5.9966,186.8750,-209.6124,150.2699,-140.6703,79.5822,-98.4373,114.0455,-4.1951,167.6637,20.3119,171.5208
-781.2500,-264.7737,-66.2149,-96.4863,14.7437,-21.8724,157.0614,-76.3952,218.9607,73.2630,107.6941,-289.8747,107.7719,-109.7444,110.9389,5.5797,108.3412,-46.2850,168.5609,14.6817,165.9286
-773.4375,-332.6548,-63.5245,-92.1295,51.4932,-18.2398,140.8658,-35.9477,149.7333,40.9535,112.9097,-285.7331,75.6752,-32.3996,152.6886,9.0072,39.0292,-113.9856,136.4931,17.4609,133.7190
-765.6250,-295.7925,-96.0882,-16.0235,89.9751,22.1513,132.3249,-32.7212,117.2518,-28.5830,117.8742,-244.8347,80.3241,7.7172,120.1798,-95.8055,43.4615,-75.9442,109.5562,-14.9946,101.2403
-757.8125,-277.9810,-113.7227,77.0338,177.3870,78.5032,150.8753,-86.5210,62.7140,-118.1517,26.7970,-226.9772,25.9127,-47.1954,102.6101,-150.6563,99.8399,10.0448,101.7643,-32.4869,83.6900
-750.0000,-246.7238,23.0757,73.5464,139.2284,112.3197,128.9706,-89.8466,96.6197,-121.2483,24.1737,-193.6604,-50.0591,-122.6370,62.4830,-154.0370,-14.3359,6.4777,103.1495,35.4765,80.5677
-742.1875,-168.4754,102.8596,8.0631,78.0518,47.1458,108.9294,-117.1488,142.5175,-149.3161,70.5527,-111.3428,-5.0348,-78.0581,71.3434,-182.3947,31.4824,-160.0925,97.2420,44.4482,89.4258
-734.3750,-148.5305,17.3302,-79.7185,27.5543,-4.3091,118.3296,-59.7256,201.1087,-163.6532,56.6313,-163.3188,91.6830,-56.7530,56.8886,-160.0434,127.9882,-209.9681,79.3696,100.1294,74.9613
-726.5625,-207.9379,-76.5578,-103.8474,39.6900,-28.1018,124.0008,-9.6216,288.3401,-41.3086,217.3484,-224.6409,31.0529,-43.7703,-40.9269,-147.0238,104.1324,-164.2018,63.4027,182.4633,51.1248
-718.7500,-241.6976,-74.8013,-102.3277,-29.5454,-63.2404,120.2277,29.1555,400.2113,34.7060,293.7038,-223.3013,-40.9297,-42.1137,-111.0997,-109.3362,68.9220,-126.7825,70.1298,254.4572,52.9156
-710.9375,-222.4003,-18.9986,-116.7535,-44.7505,-76.3188,111.0873,-20.9957,350.1202,-52.2109,96.1106,-127.8977,20.1333,18.6152,-52.2323,-123.5822,91.7472,-108.3158,14.6869,274.5089,2.7316
-703.1250,-191.2559,-57.3561,-118.3235,22.8754,-3.5358,123.5021,13.7302,311.8680,-53.2502,-51.6304,-92.6366,19.0427,53.2182,-16.5235,-50.9604,90.4050,-182.0079,-22.1441,307.4230,-35.6266
-695.3125,-242.4268,-250.0328,-98.1896,-28.8234,15.9610,98.5451,34.1820,332.3102,40.4483,153.3286,-146.6732,-71.3571,36.5438,-70.1255,42.3855,0.7550,-163.9991,-31.4918,432.0514,-52.3109
-687.5000,-146.4490,-223.5873,-67.8953,-107.3947,46.6238,29.3961,64.8126,325.8992,71.3293,257.4436,-79.5507,-151.6176,30.0413,-150.5937,35.9002,-79.7505,-101.8405,-73.0995,458.8388,-95.8692
-679.6875,-107.4146,-148.1117,-25.5482,-102.9348,90.3491,16.4775,71.5225,221.5311,41.2815,6.5990,-37.3609,-144.8345,36.6151,-70.0242,42.4842,-73.2194,-27.6392,-103.9077,393.6815,-126.4014
-671.8750,-190.1722,-195.4359,37.9995,-9.3000,116.2886,29.8155,-12.5361,174.3496,104.4608,-77.0577,-84.9635,-154.8604,99.4172,-44.2694,68.2816,-47.4965,-4.2397,-150.8057,311.7346,-173.7601
-664.0625,-137.2352,-177.0701,57.2492,-25.9969,136.9433,-34.9000,-139.8621,120.8595,199.3721,90.9859,-27.8608,-134.1979,156.9492,-97.8284,51.7975,-64.0809,-21.1371,-180.7527,224.4989,-190.4444
-656.2500,-7.1593,-46.5778,83.6522,-72.5707,126.7684,-69.3747,-150.0037,73.5082,115.4668,-138.8192,71.4027,-71.3994,146.6626,-108.2538,115.4912,-74.5293,-31.8874,-197.2360,179.4290,-201.0071
-648.4375,2.0155,-37.0063,95.1647,-27.0729,175.7122,-86.2755,-64.0045,-24.7561,127.6935,-383.5249,45.7796,-59.5089,194.5062,-133.5935,274.3034,-136.8973,-22.5455,-217.7936,189.4730,-226.4959
-640.6250,-99.9519,-209.5969,173.5306,-58.7488,217.5184,-152.9493,51.8753,-93.1782,243.7959,-158.3880,51.0217,-164.7748,274.2279,-238.1000,316.9858,-168.4297,15.6401,-241.7085,229.3746,-258.1635
-632.8125,-44.4145,-328.6953,235.4001,-107.9442,315.8375,-205.7521,113.2867,-179.1077,232.4287,-132.7582,148.7759,-213.5505,298.4786,-250.1267,304.1851,-217.4723,107.3203,-284.9766,250.7841,-307.3595
-625.0000,200.9784,-294.9583,272.1238,-144.3166,354.0158,-230.8568,151.5799,-252.1986,159.9494,-389.2895,259.3964,-175.4857,299.6124,-176.3159,342.2516,-216.6753,105.8567,-326.2085,215.0479,-343.7299
-617.1875,245.4235,-179.1928,283.8985,-169.6618,329.2543,-274.1248,163.9521,-313.2504,172.5548,-450.7737,308.0801,-163.3761,274.8224,-201.4671,317.3900,-278.8344,116.4422,-352.6036,260.3662,-369.0782
-609.3750,223.2668,-166.0417,299.0770,-191.6308,344.9057,-298.3781,142.7528,-298.9099,188.5941,-360.8504,323.1694,-221.8684,253.4587,-260.2309,295.9573,-336.6044,164.4196,-370.0540,310.0919,-391.0550
-601.5625,159.4515,-300.5403,305.6095,-220.2813,388.9200,-304.3318,222.9358,-292.2280,232.0171,-316.5858,255.6178,-289.0092,371.4747,-290.6581,339.8954,-294.0398,170.7496,-359.0388,317.1708,-384.7069
-593.7500,160.8878,-368.7968,270.3953,-183.7104,354.1963,-271.6947,262.4005,-253.3053,271.7149,-462.0887,257.3250,-322.9071,409.7737,-288.8456,379.1072,-292.2417,172.3318,-355.7466,248.5020,-383.1350
-585.9375,279.0885,-356.3061,245.9318,-136.4166,330.2280,-264.8482,238.6482,-240.6408,396.1814,-448.8616,269.8042,-310.0569,349.8496,-312.2999,281.0983,-279.7047,114.6567,-347.5856,226.5829,-370.8377
-578.1250,244.1472,-389.9711,211.3163,-170.2922,369.1201,-278.0587,277.7762,-239.1377,471.5176,-225.7924,198.1449,-272.3616,240.8036,-310.9165,172.9537,-204.3323,115.8324,-346.1999,263.5211,-369.7182
-570.3125,125.5033,-403.3634,198.0143,-218.8905,356.3344,-261.7226,339.2350,-215.3419,312.1813,-164.4039,147.7937,-248.3824,302.0861,-214.2489,197.1163,-143.6665,137.3097,-359.5410,250.7669,-383.3263
-562.5000,88.7540,-228.8745,195.6187,-220.6111,317.4594,-269.3584,374.6250,-180.6570,200.7769,-129.1160,108.3516,-250.5148,374.2979,-289.6929,232.1984,-146.1073,100.6893,-325.2736,250.9167,-349.0574
-554.6875,115.9023,-165.4833,149.1244,-228.4552,272.4939,-273.3181,365.9414,-116.0844,339.3143,-137.9493,98.8253,-258.7482,328.4377,-410.2536,149.1985,-155.6675,92.9739,-297.0170,278.9691,-321.9129
-546.8750,122.3639,-194.7965,118.9282,-257.0299,242.8307,-248.5708,336.5922,-72.2159,347.1862,-130.4879,179.6195,-215.6861,225.9023,-329.5268,119.5213,-74.9431,64.5530,-297.0450,251.3241,-315.4924
-539.0625,150.3371,-271.6303,111.2286,-264.1364,197.6723,-248.2089,292.7762,-80.8533,303.5829,8.4739,207.9326,-260.1299,254.8982,-264.3178,222.3687,-46.7278,22.6220,-279.4938,174.1837,-287.5971
-531.2500,206.0094,-251.7825,94.2355,-279.5619,145.2281,-225.8645,313.6911,-60.8025,250.7102,-117.8738,190.9629,-239.8854,275.6313,-207.4285,205.9425,-63.8277,42.3902,-261.6489,89.7420,-268.0291
-523.4375,257.0725,-200.5389,110.6515,-228.6075,162.2007,-201.0718,404.0436,-81.3725,268.2704,-210.8441,170.4018,-223.2495,218.8001,-191.1524,112.9340,-47.5441,93.5641,-238.8538,71.7014,-252.0855
-515.6250,164.8356,-186.5946,87.7739,-249.9756,139.8873,-208.0270,456.1308,-104.2659,283.5453,-123.1319,148.5546,-171.9172,123.7020,-141.1805,200.6440,-33.5758,72.4378,-229.7055,15.3626,-238.4688
-507.8125,125.6654,-155.5977,83.9469,-219.3221,99.6318,-213.9321,453.3006,-145.1230,206.8867,-52.3778,180.7773,-102.5326,157.6813,-108.1687,161.4168,-37.5673,32.3595,-240.0736,-57.9265,-242.8270
-500.0000,197.4570,-118.6606,86.0690,-182.7479,102.3326,-219.7939,419.4438,-216.0376,100.1967,-86.6604,219.9684,-100.2048,196.6365,-69.2226,164.1546,-109.6201,34.2318,-240.7037,-55.2604,-241.2614
-492.1875,149.2543,-201.7351,110.1917,-196.1945,127.0408,-218.0746,407.6156,-228.9548,88.5382,-171.9483,207.1718,-185.8826,258.6187,-82.2947,224.9164,-85.6910,57.1023,-248.1576,37.4081,-254.7206
-484.3750,157.8543,-299.0245,156.1151,-187.8613,209.5644,-230.3617,417.6196,-220.0822,245.7107,-126.4495,216.1877,-287.7617,231.4321,-183.5846,197.5022,-113.9834,65.7681,-230.2689,117.8827,-246.4002
-476.5625,194.5513,-332.2230,158.1412,-186.4505,176.1969,-226.3754,383.7537,-145.1145,323.0003,-49.8584,181.3105,-358.5442,197.3783,-292.7906,127.2056,-112.1843,102.5348,-222.6074,190.4571,-245.0024
-468.7500,184.7968,-306.8647,148.7245,-231.5073,167.3853,-235.1385,375.4646,-117.6009,240.8537,-21.7245,208.9950,-331.7831,262.9041,-265.4579,155.4659,-121.8391,92.8533,-237.5305,146.5780,-255.0760
-460.9375,128.7023,-186.8564,162.9576,-252.9389,145.2296,-216.7050,390.8484,-103.4452,219.3787,-43.9592,186.3535,-206.3776,241.1060,-177.4783,133.3796,-217.8591,106.8241,-224.6729,161.3456,-241.5205
-453.1250,195.2739,-14.2109,122.8427,-292.7466,142.7320,-233.3320,352.9114,-106.6491,217.5771,-9.5529,147.3840,-136.3258,165.9819,-144.8614,-16.0398,-221.2464,138.4422,-233.2168,158.7653,-245.3374
-445.3125,258.1454,12.7249,113.0287,-266.2850,133.5449,-239.6195,307.3095,-116.5601,173.1090,-18.8492,174.7240,-108.9822,120.1846,-227.9622,11.8721,-157.3517,130.3565,-209.8859,116.4926,-218.8776
-437.5000,193.7059,-51.6564,80.9153,-189.1470,102.0677,-185.8403,240.4460,-147.7786,142.3732,-160.4604,179.7657,-66.9433,126.1213,-186.3770,90.5217,-79.7719,206.9743,-170.8481,52.9230,-177.7450
-429.6875,68.5667,-35.7506,97.1103,-103.7324,118.9079,-136.0630,220.9163,-168.7085,86.9654,-217.7787,122.1208,-50.6126,143.3918,-96.5134,107.4973,-99.9068,187.8957,-152.2079,34.6524,-162.3390
-421.8750,67.1906,68.9050,95.0609,-105.5969,117.5124,-166.6838,293.1676,-208.8985,122.3326,-72.3534,83.2484,-16.5425,178.4430,-99.9159,-4.7774,-103.3090,80.5757,-124.9180,-36.8649,-129.2082
-414.0625,177.0866,37.8122,61.2648,-101.2313,47.3709,-172.5355,223.6933,-204.8473,163.9755,-31.7022,123.6463,-12.2275,72.7762,-171.0829,-36.8084,-100.4770,85.5123,-89.9884,-66.1349,-89.8505
-406.2500,168.7446,29.4652,-21.7770,-111.1344,-35.0156,-135.1693,141.9942,-105.0537,118.3872,32.6760,113.8116,-22.1622,26.8806,-144.5171,63.9360,0.0942,41.2030,-72.7828,-73.6570,-63.7644
-398.4375,-13.8970,57.8097,-67.1151,-83.3600,-79.6941,-55.6160,172.0193,-2.5759,148.5166,61.7497,-41.3063,-67.4010,56.7132,-5.2686,20.4090,64.3501,-35.3951,-43.1003,-44.4783,-36.0002
-390.6250,-60.4289,187.2517,-80.3441,-60.5101,-92.2635,-21.8291,160.1774,20.9876,136.7648,-62.0872,-54.3057,-6.5461,45.6790,55.0719,-66.0002,14.6808,-11.8808,-20.1213,-126.2017,-13.1596
-382.8125,152.1031,258.7455,-80.5174,46.3699,-126.7770,-11.1005,51.4147,-16.4162,-45.9182,-133.8922,92.7678,140.3612,-27.2833,-19.5410,-65.3488,-59.9553,24.6930,9.7304,-263.8842,22.7084
-375.0000,198.0494,304.6343,-105.2848,91.6305,-151.8850,25.5239,-46.9267,-5.4332,-252.1865,-196.3111,104.2642,225.6672,-51.8201,28.2275,-53.2793,-49.2039,0.6692,16.0551,-287.1724,32.9545
-367.1875,-4.4900,348.0222,-96.5467,169.3684,-142.4839,85.2461,-36.7400,40.0402,-315.9293,-150.2328,3.2795,234.4682,-41.8317,73.4736,-115.6963,-3.9653,9.1441,31.8055,-277.9629,40.6828
-359.3750,-96.4714,255.9568,-84.2519,146.6349,-167.5230,106.6992,-22.9782,51.0514,-192.1000,8.3744,-94.1393,172.8155,-101.2638,121.2681,-177.5603,80.8078,21.1765,81.2814,-229.2125,87.9410
-351.5625,-84.6492,161.6840,-146.1513,87.6870,-190.7533,74.6679,-82.3927,62.8498,-68.4538,277.7714,-118.7466,110.9546,-124.8674,132.8487,-164.6030,129.3687,-70.9881,80.5374,-216.6648,98.9789
-343.7500,-67.0731,179.1507,-201.2991,-1.5324,-246.2255,39.5823,-26.0265,80.3851,23.9700,369.9154,-100.5849,128.8318,-142.6894,113.1577,-145.8712,146.6671,-159.3995,89.4510,-163.3741,115.7507
-335.9375,-84.6311,303.4618,-219.5904,16.0707,-226.8427,90.5653,-42.7832,98.7585,-65.7284,21.8880,-155.5495,221.5562,-122.6333,168.3004,-126.2725,127.7965,-105.9605,111.1949,-179.2397,133.3539
-328.1250,-147.4722,345.4833,-175.1823,128.3512,-144.7545,153.1032,-70.8127,105.8170,-240.7106,-191.4600,-147.7899,264.9865,-113.8487,212.1279,-80.9562,97.6116,-168.8237,125.2107,-207.4113,139.6400
-320.3125,-216.5056,170.3065,-100.9765,128.4080,-106.8668,145.8646,-105.0174,143.6629,-163.8750,102.9775,-182.2193,156.2173,-111.2419,175.7503,-115.8130,98.2148,-238.8795,129.5598,-169.7909,139.7077
-312.5000,-212.8423,32.8093,-95.0690,96.1453,-100.2720,126.2884,-97.4943,186.1963,-46.3149,183.1159,-139.9380,15.1370,-103.9095,107.0638,-108.9476,103.5061,-199.2279,101.7963,-130.4715,107.4576
-304.6875,-153.7194,56.7552,-105.7045,84.3151,-110.2190,111.3270,-69.4962,211.1765,17.7169,135.7063,-150.1943,-68.4985,-113.1044,21.8127,-44.6319,92.2333,-175.1172,94.5095,-34.7092,95.6419
-296.8750,-166.6703,-60.3852,-118.4429,34.3697,-122.2641,102.5012,-43.5836,235.0440,42.6522,197.1660,-125.5211,-118.2254,-87.3752,8.4528,15.5896,78.8407,-118.0994,82.7822,21.9398,81.7091
-289.0625,-164.5036,-59.4092,-78.0776,36.5046,-80.2048,100.9177,-38.5543,238.9898,11.6931,200.7014,-84.7237,-40.8488,-45.5238,12.1833,-88.0695,45.5351,-80.9718,52.0604,24.6778,47.8625
-281.2500,-59.6788,-59.7871,-42.0572,-35.7280,-79.4940,44.0514,-0.8576,201.5696,87.3982,274.8835,-11.2625,-76.8249,-44.0030,-25.4480,-51.0618,7.8681,-11.1829,47.2252,-9.9400,46.6541
-273.4375,39.3016,-67.0210,-11.8802,-78.8262,-122.6226,2.7063,-5.9888,84.2929,45.2646,47.1984,19.3640,-47.6517,-13.3081,-32.9392,163.0982,-36.6624,122.7614,35.4598,-51.4165,38.5823
-265.6250,13.5427,12.9944,36.5542,-35.6849,-74.4978,-15.3062,44.1485,-15.7393,-124.6113,-51.2530,31.2566,-0.2281,73.6575,-22.1850,249.5151,-25.9590,202.9584,9.8974,-146.6509,11.7487
-257.8125,-1.0990,103.1086,22.0911,-51.4582,-88.2748,-61.6692,31.3988,-103.6778,-100.3810,44.3786,90.2644,59.2913,60.7422,-0.3401,162.0452,-41.1648,223.2611,-14.0533,-195.7944,-3.9972
-250.0000,126.8671,19.8276,9.2323,-100.6400,-27.4481,-112.7602,-53.7328,-190.0244,71.4606,31.5952,188.8849,83.4011,49.4472,23.0938,77.1860,-54.7853,175.1714,-39.1016,-208.3418,-18.1526
-242.1875,202.0844,-10.1979,87.6280,-96.5832,15.6323,-128.9796,-9.5968,-222.1366,188.5630,-108.9490,194.7687,14.7635,93.4223,-9.2285,83.5874,-87.1738,74.3398,-31.1180,-167.6541,-14.0667
-234.3750,133.8641,-8.6637,126.5710,-60.9905,55.2626,-120.5317,31.1026,-257.7094,119.2258,-217.9344,160.2160,-20.3169,169.9596,-8.0140,122.5456,-158.0294,76.0665,-22.4677,-165.4312,-13.4423
-226.5625,90.3016,-16.4743,119.1638,-33.7588,85.5414,-77.9757,62.4596,-228.6442,39.5473,-261.2815,79.3291,46.2625,127.1612,57.8478,153.1627,-130.2416,68.4469,-26.6242,-136.5708,-22.1759
-218.7500,41.3991,-101.6307,67.4089,-84.8853,33.4707,-70.2987,48.4797,-170.9381,25.5136,-130.0150,101.1027,30.4966,150.0326,78.3600,175.4330,-36.8117,-15.5241,-13.8863,-115.0670,-2.2685
-210.9375,74.5069,-173.7787,65.6640,-88.0156,32.4042,-78.0655,11.5163,-100.2409,-11.5217,88.2197,136.8905,-8.2721,149.9193,1.8688,137.7102,-39.3968,-53.4924,-17.1650,-116.5701,-5.3691
-203.1250,85.5198,-58.0232,76.8235,-43.2579,118.2399,-59.3452,-12.5332,-125.6540,-70.6455,-47.6517,148.5867,39.8590,126.7191,12.2692,76.8920,-66.0906,-6.5483,-2.3614,-105.1819,4.4251
-195.3125,67.2448,64.4356,93.6832,8.1840,98.7772,-5.7548,-29.8739,-146.3776,-163.0628,-324.8217,128.9987,166.6860,108.2310,102.3650,-16.2223,-50.0932,10.1040,15.4343,-124.1029,19.9106
-187.5000,88.9817,85.9018,41.5464,63.6183,47.3115,15.1453,-42.2066,-125.1038,-212.4821,-229.0025,78.4260,115.5167,57.7541,86.4567,-29.3294,7.8955,-39.2357,35.0000,-102.0337,40.3880
-179.6875,58.7285,54.3737,7.4151,31.0473,14.8484,14.6839,-37.5302,-48.8305,-281.9061,66.7968,44.8663,44.3533,62.2897,51.5423,11.5605,-26.1261,-34.5765,73.2148,-96.9727,78.8599
-171.8750,3.8400,70.1954,-48.3637,10.8152,-41.2617,12.1265,-19.4871,-33.2069,-263.9730,156.9348,24.6702,97.5352,44.1916,29.9657,-7.1983,-10.8107,16.4326,85.4178,-115.5655,93.6780
-164.0625,-16.4471,154.6226,-36.5460,58.1707,-65.7787,62.0351,-115.8341,-21.9887,-176.4241,-51.3328,38.0776,220.3182,21.7032,77.9827,-68.3428,1.0978,65.0472,128.7476,-207.5607,141.0944
-156.2500,-26.8329,214.9517,-10.8320,117.4177,-112.3995,96.2093,-235.2723,-70.8761,-148.9759,-209.7060,64.3959,283.0065,-24.8727,176.8900,-114.5740,25.9032,21.5743,146.0796,-251.6699,165.4061
-148.4375,21.6959,156.1963,-35.2157,128.5631,-99.1180,99.6544,-257.8079,-58.8740,-171.6307,-49.1903,41.6349,258.5946,-83.5420,188.6941,-137.9054,37.6006,-36.9912,155.4469,-238.8947,176.6159
-140.6250,54.2432,259.4568,-75.6008,55.6966,-139.8461,78.7289,-223.3452,-26.8820,-247.2812,130.3226,37.8865,254.1831,-160.2055,183.5033,-141.2412,32.2864,-4.5418,183.2961,-241.1313,207.8248
-132.8125,83.5517,359.4763,-154.2368,49.5728,-180.8336,84.8489,-300.1310,4.8543,-250.1779,125.5712,33.9008,249.5302,-236.1096,178.0644,-181.8238,63.7192,95.6617,174.0057,-245.6368,201.7836
-125.0000,51.1192,255.7458,-152.6185,118.6943,-141.5752,131.8665,-296.6604,42.8331,-172.8238,53.0577,-0.8209,251.1339,-232.7612,178.8678,-215.1443,64.4010,97.1173,181.1466,-243.9096,201.9950
-117.1875,-47.7538,191.5735,-145.4529,124.3620,-170.7705,147.5120,-287.6414,86.3553,-127.9267,97.0867,-65.9821,221.2874,-150.8563,148.2184,-243.9104,70.6288,70.1329,190.9352,-201.6493,207.7561
-109.3750,-90.2139,254.8169,-152.8864,80.4302,-177.5701,108.9014,-219.2210,41.2710,-133.6296,89.5083,-72.7373,213.8521,-119.5499,139.9627,-140.2804,62.2490,26.5583,179.3948,-174.0061,198.9177
-101.5625,-25.9145,283.8155,-121.5687,39.2497,-182.6237,81.2494,-186.0537,34.9309,-173.5830,83.6651,-77.7326,245.1708,-86.4921,133.4593,-70.9044,18.6122,-49.2599,169.0809,-179.6223,191.8307
-93.7500,-47.2083,192.2244,-105.8487,85.4651,-166.2843,115.2784,-169.4851,49.9865,-120.1439,-11.7911,-98.3168,223.8873,-106.0287,148.3598,-165.1276,-3.6336,-35.6704,155.9916,-130.8505,169.1471
-85.9375,-124.7448,78.4017,-40.3760,147.4275,-99.1980,133.1549,-175.1655,77.7845,-51.9627,17.4980,-69.1364,142.3561,-111.8101,67.0032,-208.6002,-12.1300,-8.3266,159.2975,-102.3440,160.2179
-78.1250,-107.7681,130.0780,-21.4056,127.8901,-79.6200,80.1765,-191.3509,59.0781,-31.2835,145.2851,-49.4466,88.3340,-128.0882,-24.8570,-114.5778,-68.1316,9.5276,139.0460,-85.3540,140.7927
-70.3125,-69.9317,203.6110,-53.5839,94.2034,-75.1967,55.2667,-184.6921,62.2176,-61.7531,149.9129,-80.9056,92.1748,-121.5177,-20.8630,-35.7144,-138.2879,46.2424,103.5851,-82.5269,107.2220
-62.5000,7.3066,175.5583,-46.3610,99.9182,-67.3745,76.0701,-138.6321,68.7531,-16.8301,-26.0648,-35.9635,136.4210,-112.5455,-14.4642,-100.4606,-95.0526,18.3638,111.5444,-40.3090,113.0566
-54.6875,146.9546,278.9241,-47.7324,61.0355,-68.1534,28.7950,-138.1712,-5.3181,-16.5258,-211.6585,109.3875,135.0732,-75.1716,-53.6674,-137.8044,-97.4283,-17.1114,103.1879,-6.7074,110.2939
-46.8750,89.8080,327.5043,-32.9031,2.3589,-52.7342,-19.3360,-84.5150,-28.1929,-37.0378,-123.0726,87.9463,112.9231,-59.5978,-76.6652,-11.9434,-120.6076,-39.3841,78.1799,7.0847,86.7375
-39.0625,-63.4872,172.9341,-46.2232,-12.4647,-65.4753,-26.6029,13.9817,-42.2131,-11.7051,82.3587,-33.6413,62.6132,2.8329,-53.8152,84.7641,-60.9401,-52.8114,65.2533,27.7245,72.0382
-31.2500,-70.8248,-10.6834,-17.5861,49.6641,-72.2663,29.5901,8.4288,-14.2837,19.5743,2.7383,-40.2692,19.2543,34.2144,9.9820,42.4126,-33.3305,-26.2909,61.9976,-13.6968,63.2952
-23.4375,9.3959,-33.7473,-6.3988,94.3469,-60.5105,69.5071,-52.5815,-3.8111,69.3928,-170.3442,7.6669,30.4591,47.1432,57.3317,-92.3973,-23.1696,-15.2103,72.3699,-38.5855,73.1102
-15.6250,11.3866,-32.0563,-4.4569,59.7925,-58.0112,68.6373,-84.8568,33.4059,-1.0606,-131.6992,-25.6403,-3.5753,-23.1845,21.4351,-52.4612,13.7362,21.6308,76.2084,-0.7408,73.6809
-7.8125,-15.6144,-25.3495,4.4856,66.2438,-10.5152,62.3596,-74.1363,42.6173,-63.5291,23.9390,-51.9493,-30.6070,-85.5119,30.5424,-41.5299,59.6409,-5.5215,49.8026,41.0908,45.2614
-4000.0000,30.5968,100.2411,10.7951,49.5977,-16.4316,40.4442,-64.9896,3.9492,-54.5358,-44.6519,-8.0355,5.8791,-85.0642,51.4569,-88.7108,22.6000,3.9094,45.4565,-8.2172,45.1038
-3992.1875,-62.1806,112.9665,-13.0568,-8.4165,-4.7120,7.0242,-53.0271,-19.6936,-6.3879,-32.9746,-32.4527,56.1669,-36.4740,65.6453,-3.0585,-37.6699,14.8493,18.1326,-32.2039,22.0501
-3984.3750,-58.9156,-93.2503,-9.8594,-4.3760,-37.9414,14.1175,-14.0153,20.7131,31.8002,117.7555,-29.8309,22.5083,38.1715,32.8834,70.6511,-70.8873,17.8352,23.4944,-29.1396,26.0429
-3976.5625,-12.1166,-183.9179,-33.1137,9.2142,-61.6245,72.7071,-2.4507,70.6719,7.5394,19.0453,-54.6750,-1.6016,13.3680,119.6816,45.9212,16.4542,30.3625,39.1896,-16.5177,39.5846
-3968.7500,-46.0789,-42.3546,-69.1189,45.0549,-99.0564,97.5601,-3.6359,107.8873,-29.4651,-164.3965,-55.2722,35.5300,11.8132,84.7365,8.4418,91.0514,-38.8716,40.3719,18.3630,40.3758
-3960.9375,-111.2457,141.0032,-63.3254,-19.3011,-130.6913,47.9187,36.9791,149.9129,-61.6713,23.9722,-50.0808,41.4641,-57.9429,-19.4106,48.7667,60.4538,-69.3101,45.6204,24.0447,46.9696
-3953.1250,-166.6712,17.1154,-120.7916,-2.9081,-151.5796,46.9686,-20.6598,129.6939,62.8744,224.0969,-71.1510,21.1578,-79.9505,72.1930,62.8418,77.6142,-90.0071,16.1101,-31.5192,27.3150
-3945.3125,-158.1551,-147.8181,-75.3136,6.4373,-143.5250,60.4218,-50.3480,65.4267,181.3764,232.1860,-100.2826,29.8035,-73.0089,191.7510,69.8640,122.7327,-116.7588,20.4428,-58.1359,36.6120
-3937.5000,-120.9486,-110.0563,-73.1426,44.4839,-141.7786,52.2839,-86.3363,-6.1363,108.5723,159.9882,-61.7188,106.1498,-72.3688,195.0159,70.5861,125.5655,-79.8122,19.0145,-161.0565,39.6129
-3929.6875,32.8427,-23.7020,-94.3768,94.1368,-163.4385,49.0056,-145.7342,9.9065,-96.6437,65.3900,-10.5615,158.1023,-95.1317,100.8928,158.9144,142.0067,-65.2695,-3.8949,-217.3794,19.2155
-3921.8750,3.9203,159.9537,-88.3143,101.0940,-157.7988,28.5997,-140.8357,-20.7467,-165.5581,144.1011,-5.1203,164.3590,-90.5955,72.0756,89.5512,75.7502,9.5678,5.6955,-176.4064,26.1214
-3914.0625,-67.2158,123.4140,-54.4552,29.8515,-123.3632,5.2768,-144.1403,-22.6002,-57.6664,289.6293,-43.8912,89.4199,-94.2634,107.0603,12.9894,37.2997,42.1958,6.7551,-143.6301,24.8265
-3906.2500,-44.3055,8.9236,-29.5505,89.6615,-134.8711,48.0862,-156.3948,3.6025,-33.7353,204.2080,-19.6132,78.5338,-69.8784,171.0951,36.4704,99.9074,-39.1328,-5.3099,-189.8053,14.5794
-3898.4375,-72.7539,16.0769,-23.9939,96.1261,-129.7314,36.8106,-114.9966,-27.5402,-29.1623,99.4395,-14.6956,47.2990,-28.8414,103.7820,77.6005,106.1717,-33.8156,5.5420,-149.3260,20.9821
-3890.6250,-132.1202,99.3143,26.6590,38.6971,-80.4920,-34.0562,-65.4932,-50.5764,-17.4793,148.7761,-38.6898,61.1598,18.3000,-65.4272,126.8323,10.5407,12.5920,-9.9839,-102.7438,-1.5175
-3882.8125,-129.0482,67.9799,67.7609,6.7157,-3.7999,-36.3915,9.4646,-46.1535,-51.3335,78.5819,-72.2470,65.4645,57.8951,-23.1842,165.5227,-21.6335,15.4388,-36.4804,-100.7098,-33.5709
-3875.0000,-120.3363,-25.7177,42.5057,17.3796,7.5427,-25.8431,-16.9171,-34.0777,-3.5422,90.0472,-62.1575,40.4148,68.1461,-10.2955,138.8816,-46.1532,59.9302,-58.6645,-55.0224,-57.9767
-3867.1875,52.4736,-27.3214,75.3478,-54.8650,76.9868,-85.3877,-21.1876,-73.8985,29.3335,86.6107,45.0296,0.4688,26.5116,-123.3071,98.3603,-159.5721,162.5169,-55.2421,46.7690,-60.2886
-3859.3750,65.2757,-47.9337,88.1849,-112.1168,89.4300,-106.4045,64.5476,-97.7145,-32.7813,62.1858,57.2124,-60.4799,37.8863,-146.3179,145.8491,-145.9849,139.0966,-37.1031,130.5659,-46.6054
-3851.5625,4.4148,-72.2218,26.3656,-101.0278,100.2250,-71.4481,110.6413,-86.1774,14.4814,-73.8793,-6.2606,-12.0868,47.6269,-22.9837,155.6969,-171.0436,78.0180,-62.6491,139.7208,-71.5790
-3843.7500,31.8906,26.8172,-20.0989,-72.5951,90.3793,-44.5702,101.1051,-132.2878,114.1145,-303.5770,-16.3894,125.6472,-0.2662,41.6868,71.9000,-178.7526,140.2807,-37.6478,96.2370,-43.2101
-3835.9375,18.6549,50.1415,-35.2684,-85.8711,75.8372,-77.2340,47.8877,-182.0980,172.0584,-207.9555,-32.2219,110.6737,-16.8487,-8.3474,18.4103,-120.1608,91.8403,-20.4058,118.0592,-20.5473
-3828.1250,-76.8417,-77.7951,14.3077,-109.4017,161.0455,-82.7034,132.4323,-97.1613,36.7603,97.4166,-93.3150,13.4510,31.3229,-68.6285,-7.3093,4.1862,-38.8562,-35.7519,164.6342,-44.1403
-3820.3125,-135.5003,-171.8829,61.7242,-98.0884,208.0993,-47.2839,215.8339,-49.3835,-136.6811,181.6493,-156.5621,-12.9108,77.3514,-57.0580,-35.1559,15.3945,-28.7062,-12.4949,175.0572,-32.8870
-3812.5000,-129.5615,-58.3817,30.7292,-55.1836,139.7465,-8.4505,110.8450,-6.0128,-59.5172,3.4987,-151.2109,-6.6635,44.9893,-12.8922,-30.3885,-51.7920,48.0424,-8.7881,110.0799,-26.0396
-3804.6875,-88.0743,90.6476,1.2771,-11.7367,73.9420,-7.2497,6.4166,-35.0910,95.2030,-172.0805,-107.3062,1.1319,14.1877,-4.1808,12.9362,-43.4265,90.3441,-10.4937,47.6531,-17.6475
-3796.8750,-51.3376,58.9089,3.0725,-9.0475,38.3863,-10.3237,7.2380,4.0823,59.1881,12.5929,-106.1471,-33.8319,-22.3601,-38.2235,-23.4808,-3.8090,21.9039,-8.6778,84.4851,-15.0066
-3789.0625,-50.0568,-79.2889,41.4177,-6.8181,76.3859,-5.0135,44.6116,42.8053,-14.2632,160.8170,-69.4388,-32.2491,-22.3515,-72.7263,-59.3371,-1.6413,-47.9872,-1.9977,85.8741,-12.8227
-3781.2500,-45.3881,-108.1027,44.1598,-37.1905,41.7917,21.9423,120.4001,82.9363,-121.3112,53.4624,-30.3375,7.7311,16.0686,-68.8428,-20.7930,-35.0766,-43.4855,42.5487,90.6749,27.7550
-3773.4375,-66.7248,-127.9262,19.9060,-23.5656,17.2074,78.8727,95.1955,132.0669,-109.3642,-190.8796,-54.2400,57.7040,64.5000,-17.9742,-45.2452,-58.5163,-30.9842,59.7203,138.4834,41.3253
-3765.6250,-90.4123,-114.1055,32.3029,-10.2933,29.2796,110.4546,69.6483,218.8474,-60.7601,-141.5741,-42.4915,70.3235,38.5894,-4.4629,-108.0353,-81.3141,-88.8364,74.1143,150.9463,54.5384
-3757.8125,0.4359,48.2531,-18.7519,-23.4688,14.9059,63.9802,17.6600,242.1828,-112.5933,64.2763,-57.2061,56.4949,23.2347,-90.4039,-160.2656,-58.5654,-138.1442,52.7409,136.9612,41.2954
-3750.0000,-14.4396,69.8856,-69.5106,-72.3369,36.8344,49.8785,1.9863,300.8206,-55.1199,122.4458,-72.6358,-32.0383,44.1916,-104.0502,-139.1923,1.4848,-153.1636,35.0449,122.2795,27.3475
-3742.1875,-96.9813,-82.1581,-46.9191,-117.8510,22.1152,57.9461,23.6779,323.8109,-33.2932,255.9893,-87.7264,-81.2259,65.5146,-80.3555,-43.7568,61.8907,-95.8479,58.7834,109.9519,50.7448
-3734.3750,-134.5781,-188.2600,-85.3853,-190.4190,-17.6633,22.3756,94.3309,248.7496,-109.5172,326.4867,-90.8663,-83.4528,98.8000,-8.7128,208.6484,60.2437,-62.5786,48.6569,37.5704,49.0869
-3726.5625,-123.2734,-105.4566,-108.9603,-142.0998,-41.5446,-2.4526,143.8905,151.5774,49.1648,192.8830,-78.0982,-34.7659,111.0009,5.8265,183.9649,110.4847,-86.3955,18.0418,-56.9124,26.3224
-3718.7500,-8.8282,-128.5203,-99.3943,-131.6439,-68.2750,-7.0124,41.6102,88.5555,205.0106,55.4472,2.8123,-24.9271,82.3633,-20.4881,-27.5534,194.8785,-8.0632,26.0244,-12.2356,36.7008
-3710.9375,36.8970,-152.3198,-88.5328,-121.8973,-57.6996,-14.3329,-21.3589,63.8384,142.1752,103.3264,14.0086,-12.7973,56.0385,-7.5062,-17.7556,170.5794,37.5617,1.0245,-1.2483,12.3690
-3703.1250,0.2646,-11.4966,-89.0168,-155.5090,-58.4594,-67.4059,14.3424,63.7733,141.0025,286.8560,-24.1464,-13.0334,54.3819,-43.8924,128.7059,60.9268,-69.1695,-5.1883,-37.5993,12.6777
-3695.3125,3.7741,-6.5560,-121.3466,-150.9876,-91.0586,-86.0980,54.2135,-6.1405,217.9841,143.5392,15.8547,-9.1365,93.9006,-39.1440,167.3386,28.4156,-135.7500,-5.0119,-33.7817,17.1260
-3687.5000,-45.7748,-125.6914,-63.7227,-24.5302,4.3065,-21.1523,113.0543,-57.0959,239.9119,-91.8053,-36.1920,-23.2994,151.3911,21.5380,41.9422,87.8530,-80.3876,-4.0705,-48.0070,3.5094
-3679.6875,-115.4780,-158.9990,-27.2522,-24.2295,40.5249,-17.7039,184.7576,-57.1963,164.7018,-92.2925,-37.3897,-96.6144,186.7460,22.0612,77.4094,52.1388,-115.1743,4.1743,-12.3746,3.7316
-3671.8750,-148.6357,-226.7725,-60.2321,-21.3899,80.2997,-33.3766,151.0225,-15.7505,94.0571,95.7687,-71.0390,-165.3861,189.6649,-9.8753,153.4359,92.9680,-254.4068,-31.0695,-10.1816,-28.5082
-3664.0625,-126.2477,-342.0194,-71.6582,2.9919,68.6389,-21.8478,138.8609,10.2374,192.9664,231.3898,-119.1316,-176.6149,177.1557,16.7242,178.0294,82.3363,-301.0923,-43.9911,13.5685,-39.2104
-3656.2500,-131.9545,-417.3957,-77.1823,-36.7361,62.8831,-10.0732,132.6094,5.1232,259.7817,115.9344,-52.3153,-145.9527,207.5630,85.2033,97.5344,114.5992,-271.8713,-50.9156,8.2240,-44.0233
-3648.4375,-144.9122,-393.0323,-89.9574,-13.7196,49.8833,3.0285,156.1149,-44.2386,62.3577,-6.7542,-28.7505,-122.5490,303.7299,147.4124,157.7978,139.6111,-284.8927,-63.8241,30.6281,-56.1001
-3640.6250,-277.7802,-279.5813,-45.6319,-40.6110,56.9911,-8.3593,199.7329,0.4995,33.0462,110.6558,-168.0931,-151.0485,273.0160,44.7144,164.1788,110.7192,-207.8120,-43.6017,109.1360,-48.0857
-3632.8125,-271.7568,-236.2561,-37.4080,-68.6088,102.0004,-36.2346,207.2685,82.1311,113.6490,339.9620,-234.5259,-143.6498,170.2190,-93.0935,24.4832,45.7130,-166.8350,-62.4899,185.5532,-76.1787
-3625.0000,-170.4281,-169.6582,-3.8868,-71.3143,135.3139,-32.6517,166.1208,116.0587,109.5572,299.5745,-165.6496,-72.9502,91.7419,-95.6164,-53.8902,5.9987,-170.5663,-65.9750,147.2746,-78.9804
-3617.1875,-118.9592,-186.9200,12.7810,16.1213,114.7770,32.3990,108.1390,96.1354,51.6278,-14.6540,-76.6225,17.8994,107.4301,-4.0019,-75.1035,23.4290,-154.1492,-50.3855,58.1495,-61.6418
-3609.3750,-82.5064,-184.2051,14.4429,53.5530,116.2411,18.3182,72.1707,24.2125,16.7163,-49.8718,-38.6007,-17.2574,108.1351,-1.3946,-0.3054,62.8630,-186.7363,-53.0733,25.0255,-59.3154
-3601.5625,-68.1047,-98.5748,-7.9512,-1.0731,93.6562,-31.2074,123.1656,39.2476,30.7768,111.8786,-61.6263,-76.4746,84.8031,-133.8449,13.4656,78.2425,-172.3771,-36.9616,74.8524,-44.0478
-3593.7500,-147.1466,-106.4226,-16.8019,-9.1613,47.6256,11.4868,76.7231,104.8363,21.4011,66.1927,-108.0996,-85.1493,39.0335,-104.7575,-33.1907,144.1588,-77.4723,-39.8663,137.2333,-52.2395
-3585.9375,-117.9950,-181.0781,14.5428,55.9400,-31.1987,51.3702,-2.5009,99.6268,51.2375,60.7187,-3.3722,-16.6255,-41.5140,-35.4885,-76.6420,102.2674,-12.3699,-46.6517,131.8164,-57.2426
-3578.1250,-11.9069,-144.7983,-22.1629,56.9808,-142.0663,25.5366,-76.7601,63.3613,88.0363,61.2028,69.3102,20.8469,-42.0966,-71.2840,-40.1379,66.3301,22.6841,-55.8406,132.3517,-56.3071
-3570.3125,41.6222,-19.0975,-38.4182,6.4656,-158.4765,-11.1810,-19.5618,47.5367,71.2945,8.1457,52.4487,40.7608,-22.2098,-86.6396,16.8338,13.8395,41.1908,-74.0776,116.3437,-71.9321
-3562.5000,114.1034,18.5351,-36.7273,8.8864,-119.9254,-29.9507,-18.3946,12.6562,-0.4921,10.0470,90.5432,79.6196,-21.3537,-84.0559,53.7765,16.2914,42.6462,-76.7658,12.2883,-69.6183
-3554.6875,108.0363,-21.4010,-42.5906,3.7464,-51.9214,-30.4920,-24.7671,7.2194,-43.8242,4.3981,121.0894,73.9267,8.9711,-52.0295,-25.8141,85.1888,1.5574,-84.6185,-98.3190,-74.8662
-3546.8750,40.3204,-17.0104,33.8948,7.9517,61.4385,-48.8685,-21.7802,11.1288,-3.7949,45.1019,86.9946,-32.4190,84.6637,-121.6732,-60.0351,52.4266,4.8237,-72.2593,-130.5754,-70.7769
-3539.0625,63.4970,7.2438,21.2889,-37.9529,158.7104,-101.7932,1.1256,-75.0672,-17.8443,31.7218,109.8031,-82.8810,107.2800,-170.4352,36.6579,3.5567,-7.0064,-48.7504,-106.9216,-46.7984
-3531.2500,10.0715,-10.1292,3.0859,-20.4695,177.3923,-71.6502,55.4481,-92.8631,-147.4859,-59.2519,18.0133,-63.9538,162.3182,-77.8140,53.7627,59.0846,-60.4347,-63.2417,-53.8595,-64.4328
-3523.4375,-89.3944,-143.5567,-27.1715,21.9483,147.0309,-11.5487,98.7378,24.2838,-67.1773,57.7194,-86.8088,-57.0792,131.3248,-70.2552,59.8451,103.5489,-124.9184,-50.8837,-11.8425,-57.1298
-3515.6250,-202.9980,-256.1438,-37.5852,-20.8049,99.5202,-28.3567,87.8886,51.2752,179.9874,231.5451,-133.7607,-67.3516,83.1978,-152.8611,85.8034,93.8395,-133.5516,-23.5402,85.0312,-29.9876
-3507.8125,-169.3039,-222.4665,-76.6933,-22.2683,60.3184,-9.0849,49.3545,123.5613,361.4659,193.6830,-100.3995,-106.3322,44.3952,-118.1854,83.0722,55.4179,-169.8767,-29.4507,119.2117,-31.5598
-3500.0000,-104.0073,-225.2278,-117.1988,-25.1449,-16.2737,19.0027,45.4360,157.4467,246.5710,116.4417,-30.4358,-145.7243,40.2140,-46.9314,152.9442,52.5962,-139.6002,-35.2011,115.9996,-34.5458
-3492.1875,-69.2627,-155.5639,-79.2525,-25.5820,-52.4072,13.4806,44.9820,158.7805,100.1399,80.6471,6.9834,-145.6790,39.5032,-45.2502,153.2918,54.2198,-69.8691,-69.0187,80.2441,-70.0966
-3484.3750,-4.5675,-18.9651,-47.3482,-30.0811,-57.5796,-14.1054,39.4945,117.0571,57.6791,75.7851,37.3645,-76.6944,33.7648,-86.6400,73.6209,49.7749,29.8188,-74.5793,39.4433,-74.7100
-3476.5625,19.4784,-29.0311,-21.0937,29.7539,-68.3949,-1.2732,-44.6267,69.6803,46.5846,28.2828,26.1077,22.6296,-13.6010,-59.6969,62.3162,39.6613,53.8637,-87.4150,-6.0026,-84.9862
-3468.7500,-26.8709,-4.5229,3.7616,55.1768,-42.5988,15.5296,-56.1354,21.9040,72.0989,-129.6057,14.4636,85.5468,10.6521,39.8251,87.6237,29.1328,42.5122,-100.4220,-51.8400,-95.6787
-3460.9375,1.8752,-9.9425,32.7228,13.6889,-50.6938,-8.5142,-27.5266,-21.7701,100.7194,-137.3713,42.9260,114.5547,39.0253,-3.5766,42.0486,-14.3135,107.2620,-69.0659,-22.5675,-66.2825
-3453.1250,50.4213,4.4107,48.4831,-42.0089,-34.9831,-46.9739,-49.1075,-42.6492,-67.8533,-11.3210,95.1957,56.3579,54.2153,-61.1936,-52.7124,-71.9653,225.8140,-83.4625,62.5082,-87.0967
-3445.3125,86.6757,-29.5588,87.9430,29.9840,40.4339,-39.3389,-10.9780,-76.8287,-139.7109,-45.5813,134.1775,21.8569,56.1227,-58.1176,-87.7627,-105.9260,227.0690,-109.7894,63.2875,-121.2208
-3437.5000,75.6848,-39.7934,114.1526,54.7175,66.6032,-22.3169,-22.0921,-124.2587,-3.8037,-349.0990,122.9215,11.0978,44.7971,4.6937,-26.0489,-116.1459,180.0805,-118.9817,87.8202,-131.6048
-3429.6875,62.4947,18.7490,101.1615,42.2410,90.5742,-46.0086,1.5992,-136.8855,93.9103,-398.8013,109.4775,-38.8699,31.2842,-7.7102,34.4784,-128.5753,131.8943,-133.4430,75.1593,-144.2030
-3421.8750,91.4636,48.4306,95.3200,36.8977,84.7011,-93.2385,69.4498,-142.3627,87.7812,-221.3378,103.2041,-7.6920,98.9380,-85.9828,65.1694,-207.8720,55.8649,-143.4260,-0.3522,-149.6610
-3414.0625,80.5956,3.2441,84.6242,61.6874,146.9838,-115.3245,131.4594,-226.6941,76.8089,-194.7200,92.0976,-18.3647,160.7582,-96.1202,17.0201,-291.0321,149.9923,-148.6697,-46.7183,-159.9787
-3406.2500,148.7304,-68.9597,192.9247,60.4720,182.2770,-155.9155,129.4783,-337.0289,147.8439,-233.0976,162.9933,-20.0371,158.5953,-171.2757,-59.1154,-256.2013,254.1159,-145.7378,-48.0813,-161.3094
-3398.4375,204.6069,-118.4268,214.9792,10.9976,167.3303,-181.0693,78.2639,-388.6214,132.6434,-356.7208,221.6371,-34.9672,143.2029,-148.6955,146.5164,-196.6336,273.9893,-167.6496,-62.6877,-175.8992
-3390.6250,237.8863,-119.5143,215.4339,-25.0855,130.7898,-221.4079,114.4580,-461.8216,58.8615,-429.9438,331.6985,-71.5050,253.2269,-74.7257,367.5577,-269.6794,237.2699,-213.5259,-98.8951,-212.0982
-3382.8125,237.1707,-84.6199,214.8870,-96.1792,130.2537,-274.3645,187.6546,-462.0194,132.0884,-284.1566,367.7721,-72.0445,289.2692,-111.7681,366.6140,-342.7285,201.5485,-218.0198,-134.1055,-212.3079
-3375.0000,257.2072,-98.9930,198.0888,-110.5366,150.4685,-257.8110,133.6114,-441.4684,115.0783,-152.6169,313.6045,-51.8352,162.0800,-91.0796,202.4431,-286.0346,256.5792,-195.1024,-113.5649,-191.7779
-3367.1875,216.2455,-34.3870,190.2931,-45.9080,179.6877,-200.8198,15.5781,-374.9224,-2.9074,-50.0748,195.4456,-59.6309,80.9090,-61.4144,120.2952,-182.3515,250.6193,-163.3084,-119.0165,-162.2580
-3359.3750,151.8887,7.8011,195.0989,67.3060,111.5103,-132.3985,-16.8467,-295.7825,-71.2772,-191.9236,162.8947,19.1674,85.3552,-129.1618,198.7536,-177.0803,222.2792,-117.6828,-182.8687,-120.1493
-3351.5625,199.3879,196.8297,134.7611,45.3671,50.1907,-150.6842,-40.4163,-356.7938,-22.8037,-324.9320,286.2067,105.8067,23.6652,-42.0669,211.0648,-272.9740,269.8024,-117.3428,-273.8710,-107.2045
-3343.7500,290.5035,323.4525,81.0327,30.0248,-3.5142,-130.4317,-57.3784,-336.2152,-75.7268,-341.3514,343.1383,126.0438,-29.4084,51.6078,83.9930,-252.2916,289.9271,-103.0517,-289.2708,-86.6707
-3335.9375,341.8225,305.2565,60.5076,11.8585,-60.0106,-134.7004,-78.1315,-245.4449,-206.4216,-178.5494,322.2877,68.4726,-50.2678,-78.5514,100.1473,-199.4198,235.2510,-84.4728,-236.4555,-69.9461
-3328.1250,365.0379,257.9272,46.8786,0.5721,-73.5981,-142.9814,-91.9756,-185.7710,-219.1915,-43.8212,308.3396,54.7897,-101.2094,-200.8289,197.2166,-175.6542,188.4817,-60.0250,-178.7284,-46.3340
-3320.3125,298.5553,227.8669,13.5514,-65.4213,-107.8786,-112.0358,-89.5091,-145.7872,-70.6617,-40.7920,273.6962,58.4009,-134.8351,-88.8107,125.5948,-99.5967,193.0177,-23.9275,-138.6952,-6.4324
-3312.5000,275.8903,205.5871,26.0263,-87.6212,-95.3560,-108.9506,-40.2360,-133.0049,-21.3284,-64.9775,249.8733,33.8065,-122.6450,-112.0081,-9.2104,-12.7548,205.3628,-7.1614,-159.8670,6.2591
-3304.6875,225.2886,190.3601,8.5568,-67.7856,-111.7770,-94.7378,16.0889,-113.1824,-75.9231,-8.1207,232.1164,53.2559,-67.3898,-128.1754,10.0542,7.1248,189.7628,13.4921,-175.9947,25.9902
-3296.8750,179.6321,180.0679,-39.9571,-77.0141,-122.2417,-71.4519,4.3655,-123.4157,-50.5494,-56.2908,146.3182,78.6495,-42.1697,-30.4124,109.2769,-113.0498,215.1179,37.8692,-150.1746,51.6611
-3289.0625,100.2722,171.0513,-49.1674,-50.9478,-95.3948,-44.7680,31.9564,-132.3532,51.1286,-174.1316,63.8262,69.3350,-51.6334,34.6327,135.8011,-85.9348,169.7794,31.7559,-89.0557,42.6198
-3281.2500,100.1738,136.2676,-12.1245,-15.6328,-95.2862,-39.1341,-5.1965,-96.0450,51.0566,9.2638,26.5980,-4.7339,-51.8274,-2.0824,25.5840,-49.5840,99.7010,34.7338,-53.6922,42.8200
-3273.4375,133.6344,135.0226,23.4733,-16.7749,-60.6227,-28.9444,-43.8038,-61.1897,-170.4566,118.2002,24.9313,30.7405,-89.4582,-40.2598,-50.0694,-86.6960,168.1765,41.6359,-19.7792,41.5595
-3265.6250,123.7460,195.4193,11.7210,-61.2751,-35.3012,-27.0450,-18.7515,-35.6922,-219.3084,33.7960,86.9209,18.8611,-64.4233,-86.8005,-61.0563,-97.1717,229.2937,72.5579,76.7894,66.9375
-3257.8125,76.9097,113.8594,-1.9801,-71.7392,-47.9207,16.6038,4.3615,24.8529,-196.0896,-88.5552,72.9683,-30.9667,-77.3215,-63.3106,-1.9795,-1.6099,181.4538,99.3130,135.4073,90.3554
-3250.0000,36.9797,39.1905,-41.7795,-6.3129,-51.6346,82.0458,-35.6223,132.2882,-125.9576,-56.0072,-5.0645,-70.9000,-118.3029,5.0604,-5.9966,31.8362,36.5330,95.7528,166.9172,86.6638
-3242.1875,95.7741,62.2120,-54.8743,-52.1932,-64.6480,85.3390,-85.9122,228.4164,-140.1294,224.2353,-18.3705,-48.1359,-132.5722,28.1156,-166.3051,-18.0305,-80.6619,114.1011,225.1179,109.6660
-3234.3750,17.2804,19.9229,-26.2700,-95.3850,-35.9628,92.9943,-56.5025,258.2477,-294.6027,291.1858,-61.9589,-19.6796,-103.1314,57.8576,-173.9067,10.7885,-123.1470,110.7605,254.0148,102.3605
-3226.5625,-106.7569,-32.9245,-46.2146,-9.1329,-19.8194,157.8437,31.3584,274.5382,-131.6300,86.5963,-157.0854,32.2170,-124.2251,111.0306,-158.0499,27.0493,-107.1855,133.1837,164.3633,118.4958
-3218.7500,-129.6346,83.3733,-110.0090,38.2630,-119.5226,178.3995,-67.6267,284.9795,135.5031,-11.8495,-146.0470,7.2569,-187.1621,121.3419,-184.0318,2.4433,-60.0671,171.3947,70.8587,165.7749
-3210.9375,-11.7971,96.3575,-133.1051,17.3507,-106.5244,138.7418,-91.9139,261.1158,148.3560,73.4117,-133.2995,-54.0155,-174.3869,61.3438,-171.3046,-58.4735,-47.2473,181.0208,49.0523,178.7464
-3203.1250,-32.9550,41.3213,-119.2027,-4.5653,-128.5210,150.1346,-4.1995,239.2513,-57.7669,87.6841,-193.5427,33.7080,-123.5995,111.3330,-84.5759,65.6033,-33.4297,192.9720,-41.7517,192.7108
-3195.3125,-109.9710,68.4135,-126.1457,58.6638,-99.3639,159.2010,-11.3315,158.5386,-211.7329,45.1047,-237.6244,98.5758,-94.6438,141.4542,-91.6784,131.8184,-40.4623,186.1248,-83.3977,185.8205
-3187.5000,-143.4361,211.0440,-124.5357,95.4328,-97.6475,123.7945,-46.9081,160.3797,-63.1475,194.0674,-236.1463,99.9941,-93.1257,70.1099,-163.2136,24.5704,-108.9395,182.8294,-151.4913,187.4743
-3179.6875,-167.4376,152.1217,-112.4752,38.6356,-121.4782,133.7632,-72.0320,135.6684,94.8978,279.4850,-187.2036,39.8605,-117.1483,302.2053,-225.2924,36.7605,-167.9675,183.7027,-175.1351,199.5734
-3171.8750,-195.3762,-15.7609,-69.3690,45.8753,-114.2570,173.5107,-28.1042,143.0117,-6.9941,102.9609,-143.2046,46.7669,-74.1123,309.3439,-255.3194,115.9922,-160.9509,199.4492,-167.7262,206.7139
-3164.0625,-139.6744,75.9855,-48.6056,206.7670,-57.3723,178.5768,-7.5250,164.0101,-170.2230,-21.8974,-122.5572,139.3130,-89.4181,-36.8816,-234.6832,27.8655,-104.2902,238.0876,-181.6614,227.4958
-3156.2500,-81.0436,203.6719,-96.8849,264.5998,-105.5244,185.3022,-92.9908,151.9633,-219.4894,-106.7898,-97.9621,163.7988,-101.7585,-12.1828,-136.0804,-58.3309,-152.6707,218.8900,-158.6332,215.2231
-3148.4375,-77.2072,172.5498,-91.9636,198.6210,-136.4698,178.7500,-88.2508,84.1190,-176.5459,-101.4923,-93.1529,95.4795,-96.8901,213.7072,-94.2793,-15.3382,-183.8451,179.0029,-83.3978,184.1433
-3140.6250,-77.7367,66.0183,-55.4433,57.2333,-100.8141,150.1219,-51.9183,83.8756,-66.9983,-27.6066,-129.7194,58.7653,-97.4189,250.1946,-167.8819,57.2501,-113.4224,180.2622,-13.5643,183.6590
-3132.8125,-43.8009,29.9238,-54.4742,21.2902,-25.7038,77.2278,-51.1439,48.0830,-28.9970,82.7400,-18.8197,58.4986,-133.4876,66.1222,-241.0348,57.2840,-44.5532,147.3112,-13.2868,147.6165
-3125.0000,6.1333,79.8216,-37.4970,1.3436,-9.5876,40.2240,-34.3686,102.2929,-85.9829,63.0953,33.0862,112.2271,-79.5448,-136.9623,-187.1829,74.3075,-28.6824,129.4919,-33.0143,127.5674
-3117.1875,14.3135,52.9638,-28.2679,-25.3624,-0.2180,13.3867,47.6588,38.7531,-39.7124,-36.2891,43.2495,85.2025,-33.3433,-126.8107,-141.0634,10.5724,13.4412,106.0822,9.5046,100.7635
-3109.3750,113.5415,-23.8547,3.0153,-32.0328,32.2034,13.0138,42.7367,-2.7419,28.6207,-113.6108,75.4684,80.2234,-39.0848,-22.6207,-182.8698,-67.1186,42.6235,64.9294,39.0682,59.0035
-3101.5625,193.8808,21.4263,14.4050,-92.6076,6.7249,-24.1145,16.9133,-28.1358,3.0608,-102.8447,122.8028,54.3422,-27.7172,62.6605,-25.5773,-92.7130,-19.0870,26.6653,-22.2789,33.3400
-3093.7500,159.4930,21.9619,17.0445,-91.9361,9.4971,-59.2399,-17.6646,-62.2815,-68.2492,-63.8323,125.4033,-17.2938,11.9021,-8.8122,123.9571,-91.0673,52.4603,-7.3163,-20.3826,-1.0797
-3085.9375,157.7726,-85.8611,88.3350,-58.6200,7.9252,-30.4852,17.3966,-63.7774,-106.9002,-65.1608,123.6677,-56.2792,10.1743,-10.6405,49.1384,-55.7798,156.6595,2.0459,13.1585,-2.8539
-3078.1250,148.5525,-164.1869,116.1282,-31.8077,-1.1471,-18.9109,7.9520,-72.7758,-42.0486,-73.9898,77.4436,-65.7660,37.9508,-19.9726,-71.1706,9.0054,147.3620,-3.9644,39.1920,-12.1308
-3070.3125,145.3370,-168.5180,77.9173,35.0022,-2.2189,-33.4595,6.5062,-73.7755,66.7986,-0.8071,113.2277,-141.2530,35.7362,-58.3148,-35.4648,-29.2145,109.0648,-44.7829,1.2149,-50.4128
-3062.5000,138.1870,-34.8082,70.7593,27.8518,-9.2411,-54.5382,-0.8874,-117.7273,22.6945,-7.5667,143.0772,-74.6906,28.5835,-28.6135,30.2972,-110.3935,136.8210,-56.6273,-5.7199,-57.6466
-3054.6875,83.5412,156.4001,51.1043,-26.8012,-28.7677,-62.4870,-20.7908,-137.1810,114.1004,-174.8423,86.4381,15.3755,-27.0613,61.5816,10.5574,-130.0775,82.0880,-81.2640,80.8375,-77.3818
-3046.8750,39.8951,78.6180,43.4519,-104.4571,36.7083,-69.3463,7.2954,-107.6410,327.5159,-182.1111,4.8098,-28.5588,-34.7026,90.7706,-70.1809,-63.7627,3.3579,-87.3552,178.3825,-85.1224
-3039.0625,-49.3370,-152.7656,59.2015,-124.7124,89.5824,-66.2284,133.7783,-17.7001,269.3286,-54.9736,-52.4045,-124.0940,54.0584,-77.6431,18.4854,-11.0533,-85.9776,-57.6462,265.3181,-69.4649
-3031.2500,-118.8033,-256.3986,23.6971,-158.2185,128.2063,-64.3639,208.0058,93.9859,160.8862,56.8987,-87.8532,-195.8737,92.5775,-222.3108,130.9082,26.3992,-84.5593,-46.6021,301.9922,-68.0610
-3023.4375,-24.1109,-267.8805,-25.6612,-169.5752,114.9838,-26.0421,195.3817,154.8172,110.6003,80.9212,-64.1439,-208.5056,6.2547,-162.8359,43.4835,86.9991,-60.9872,-23.4675,325.8049,-44.5103
-3015.6250,-11.0703,-325.0134,-12.6685,-156.5849,91.1082,32.3373,134.0994,204.9989,49.6719,57.3030,-51.0796,-195.7920,19.2869,-40.0170,-90.5836,62.9440,-84.0603,-9.0162,373.9605,-31.6114
-3007.8125,-122.8258,-260.9376,18.5274,-56.3989,159.4354,66.1385,165.0109,199.3789,117.9532,15.8844,-166.8045,-165.8731,86.5222,27.9906,-133.4452,-15.9253,-159.9228,-11.1972,298.3034,-37.5158
-3000.0000,-218.7711,-147.0571,27.5255,-47.4179,168.5641,71.1086,136.7228,171.5526,164.0391,-11.7318,-267.7198,-121.1493,95.5594,109.7902,-124.5061,-44.0060,-184.9832,-6.3743,236.4439,-28.6205
-2992.1875,-286.9630,-110.4323,-7.7275,-45.6912,170.4412,55.4453,101.1823,99.4785,128.8686,-9.6105,-265.8789,-82.6775,60.3567,148.3365,-48.8002,31.6649,-149.2983,-12.8115,133.3323,-26.9783
-2984.3750,-245.2055,-33.8591,33.9724,-4.0112,138.2703,27.7382,69.5929,68.3602,-13.3627,105.4443,-187.0819,-41.2574,29.1101,5.8339,-44.1351,109.2875,-177.6610,24.6878,34.1649,14.6111
-2976.5625,-154.8380,-13.6801,-19.7254,16.2611,85.7009,0.3964,15.6005,51.8399,7.0142,200.1205,-129.6758,-58.2393,12.4652,-84.0793,-60.8808,129.5002,-192.4177,36.8854,-16.4086,34.8012
-2968.7500,-144.0121,-73.0506,-45.9688,26.9776,22.5850,39.2892,26.0494,25.7657,17.8551,64.2591,-118.8085,-10.7748,23.2777,36.4493,-86.1855,177.1552,-146.7241,44.1082,-40.5401,45.4405
-2960.9375,-129.2313,-58.4732,-67.2611,76.6466,0.4191,68.7932,3.4441,-33.3542,-77.3589,42.3451,-103.9875,40.6447,-35.9559,160.9281,-35.5332,118.7534,-132.0835,55.9756,-25.7292,60.0299
-2953.1250,-175.3042,-103.7526,-78.4070,65.4675,-47.6017,58.4678,-8.0203,-7.3167,-52.4251,252.5814,-115.0142,29.2145,-47.0405,149.5568,-46.7251,107.4980,-143.2934,42.5653,-1.7657,48.7685
-2945.3125,-106.0712,-36.7327,-80.2505,-7.4111,-49.3215,35.0997,-47.1917,65.0267,19.8124,214.1122,-44.7324,-9.9167,-48.8241,74.4763,-84.6165,215.5415,-145.2014,35.4099,-38.5046,46.8089
-2937.5000,7.2186,77.3419,-107.0444,-34.2412,-38.9890,19.4089,-110.3187,75.4157,30.0972,40.6886,2.6049,37.0026,-75.5518,47.4420,-111.4564,225.6395,-136.0564,4.3194,-30.2022,19.9026
-2929.6875,-16.1456,88.7792,-94.4921,13.2775,11.6882,3.2098,-61.0970,15.1545,6.7294,17.6150,-20.7060,50.2731,-61.9231,23.7586,12.0596,128.0850,-125.5618,-14.9791,-17.5583,-3.6535
