Time,Fp1,Fp2,F3,F4,C3,C4,P3,P4,O1,O2,F7,F8,T7,T8,P7,P8,Fz,Cz,Pz,ref
-4000.0000,41.5420,43.1931,6.4275,32.0116,40.3423,39.0990,20.4475,-44.5366,-53.7440,-55.0826,-11.4658,-21.7786,-13.2749,-82.4272,-29.7450,-15.0333,38.9199,53.5909,-2.9944,59.6842
-3992.1875,19.8428,-49.6121,-16.0656,80.2653,93.0084,90.5529,-1.4229,6.6103,-112.7306,-78.1705,77.0045,29.5877,38.1687,-69.2757,-15.2257,-37.3265,-53.7200,67.2920,-61.2250,73.6983
-3984.3750,-24.2203,-22.7735,-25.9172,1.1669,121.3375,81.6614,-10.6357,33.4166,-123.0645,-52.6083,140.1259,93.6048,65.2627,-43.4823,-25.0572,-46.9688,-62.7126,23.6408,-105.8000,24.5370
-3976.5625,-63.8409,7.5042,5.6639,31.5191,154.1247,77.2236,-15.3997,-9.3177,-128.9384,-21.5845,61.6859,51.0681,59.7987,-87.2433,-30.4286,-52.1569,38.7448,54.4398,-110.9164,60.9944
-3968.7500,-83.0150,-10.7710,21.6783,48.3186,134.3665,57.2320,-35.7103,-30.6035,-113.3514,-43.1021,3.6851,66.9860,38.7811,-35.5618,-14.3353,38.1174,55.6489,1.6819,-94.5770,6.7684
-3960.9375,-105.0910,-103.9514,33.7774,-44.7943,73.7141,-2.6660,-22.9120,18.2188,-65.6553,-31.5168,15.7789,42.0065,50.8617,11.2183,71.8631,50.5061,68.6472,-19.9816,-47.1338,-17.9626
-3953.1250,-209.8598,-137.8428,-3.8370,-8.6072,74.3654,-2.2570,14.1894,17.3477,-30.6557,4.3698,-21.8267,41.3198,50.2426,9.2956,144.3566,50.1954,68.9413,-19.3345,-47.3887,-15.7901
-3945.3125,-148.4744,-77.5910,-49.3104,-17.2694,66.1706,-10.6985,5.4403,-29.3622,-3.4981,31.4083,-31.2810,31.7764,77.7704,34.5171,172.0034,114.0359,25.3775,-62.5376,-126.4874,-69.7517
-3937.5000,17.6502,-87.5961,-60.0467,7.8189,56.7295,-20.3866,-41.5551,-40.3180,-14.5780,20.2032,-4.9917,20.9804,67.0454,22.4834,124.4077,67.6237,15.5634,-1.9873,-136.8297,-11.1944
-3929.6875,12.7625,-57.6096,-29.7933,37.9136,52.2981,-25.0769,-46.5445,-46.2711,16.3495,14.0033,-10.7061,52.1842,61.3200,15.4435,81.8142,98.2110,-60.2528,-41.4317,-107.1669,-51.4252
-3921.8750,-46.1747,-46.6799,-19.5946,-57.0448,63.8203,-50.8256,-35.5801,0.7346,63.2325,60.7529,-37.4685,25.3319,34.5464,61.3536,92.1747,108.7614,-84.1270,-64.9302,-61.5546,-76.1189
-3914.0625,-42.0739,-146.7118,-16.3594,-16.9499,105.3948,-9.5226,-31.5628,40.7982,66.1780,26.5551,-71.1836,-8.4777,0.8195,26.3129,59.5995,112.3660,-44.9569,-25.3732,-21.8902,-26.2347
-3906.2500,-36.0815,-140.8481,-11.2415,-46.9631,37.8711,-40.3218,-25.6429,118.7660,71.0361,-5.7361,-66.0016,-40.3790,5.9856,30.1721,100.9429,154.8786,-38.8890,-53.9294,-16.3200,-55.7102
-3898.4375,-154.3234,-119.2334,-24.3972,11.7559,63.0891,-15.3758,-37.9686,142.4861,94.6591,91.7315,-42.0743,-53.5198,29.8927,-20.2205,52.0412,32.1471,-86.0717,39.2598,6.0078,42.6436
-3890.6250,-114.5181,-79.5787,-18.5188,51.5215,107.3560,-8.3810,5.7601,148.2704,63.3471,60.2580,0.8943,-10.6197,-1.1556,-16.5722,-52.7978,1.4715,-116.2127,44.4978,-24.5991,51.1424
-3882.8125,-9.5809,-44.7807,16.4973,15.4259,69.7712,-46.2376,-32.3534,109.2190,24.2002,57.9553,-0.9920,24.4212,-77.0554,-19.7750,-54.4705,72.9552,-46.2125,8.8728,-26.0483,11.3030
-3875.0000,-36.7066,-108.0378,23.4491,58.2742,4.1322,-75.1482,12.4852,79.1342,141.0205,100.6180,-67.9275,-42.5915,-143.0088,-50.0347,62.8175,80.3924,-38.2660,17.1972,16.4544,21.4178
-3867.1875,-66.3848,-207.8580,-46.1678,-6.4343,-26.0618,-69.6136,53.7711,120.5077,256.3039,104.7417,-63.4049,-1.1508,-102.5162,-10.8474,104.5616,49.2941,-68.8701,-12.0371,21.4122,-12.4101
-3859.3750,-109.6091,-250.2388,-126.3550,-48.7086,-32.8088,-2.6315,83.5069,186.3384,284.0492,133.3257,-71.4329,-46.2615,-73.5751,53.7937,133.7644,4.6513,-111.0300,-18.8244,48.8351,-19.2001
-3851.5625,-116.5002,-222.2749,-134.2025,-91.6320,-39.1993,26.7002,76.5944,178.5287,240.1548,52.2643,-42.1171,-17.0254,-81.2831,44.7876,163.3241,107.3582,-117.8513,-60.2594,76.6177,-63.0201
-3843.7500,-74.5998,-146.5191,-166.2634,-155.7615,-69.7904,-3.1681,45.4883,146.5376,171.0757,57.0087,-0.0028,25.0083,-39.1932,48.5853,168.6915,149.8693,-111.8875,-124.9027,118.2072,-136.2317
-3835.9375,-100.8863,-170.9796,-157.5382,-146.0940,-96.5793,-30.2371,19.1881,118.3567,179.7958,101.5662,81.9136,33.8353,-30.3059,56.1830,103.8621,85.1763,-67.1355,-78.7400,127.6030,-90.3080
-3828.1250,-140.7215,-141.9959,-90.3736,-80.9765,-63.9128,-34.8576,14.3391,39.6318,173.9643,59.5786,40.2775,28.1087,1.0361,86.2267,61.4851,79.9398,-0.9389,-83.1263,86.4543,-91.0045
-3820.3125,-119.2182,-85.6699,-68.8676,-58.5147,-3.8933,-11.1319,0.8390,25.2648,85.4948,7.9479,-48.0129,13.7304,-13.2730,180.6223,-25.5338,66.0616,55.6040,-26.1708,72.6668,-28.0305
-3812.5000,19.0710,-88.5541,1.4311,8.7425,30.9226,22.3951,-38.8608,21.7111,-65.1573,41.1255,-125.5101,10.1439,-53.7856,138.8179,-28.7395,62.9816,87.9407,-28.4151,34.6919,-24.1604
-3804.6875,141.9473,-35.8435,-19.6757,-9.4075,11.3398,-33.4871,-132.9553,73.7723,-49.2022,56.9132,-72.4126,63.1584,-74.7003,80.6193,-12.3383,6.5045,104.8647,-81.0694,16.3347,-83.6892
-3796.8750,115.0172,7.0614,-12.5922,33.6346,-16.0425,-25.1753,-160.8412,45.0482,-5.0404,-84.0817,-28.1132,70.3696,-67.4213,49.6223,-4.7387,-59.7701,112.9790,32.4729,24.1872,32.1878
-3789.0625,44.3464,7.2038,-13.2752,68.9269,-15.1817,12.3771,-124.4754,80.5895,31.3788,-120.8080,-65.5571,32.8244,-67.8980,10.8784,32.1177,-22.7917,43.3342,33.2548,59.2967,37.6343
-3781.2500,-19.8716,-58.2082,-8.5243,39.6550,-8.8774,18.3704,-81.6613,85.5933,-0.7323,-6.0649,-97.5511,0.7272,-62.9296,14.5923,37.4313,-54.3560,49.1344,74.4728,99.8597,82.9300
-3773.4375,-24.7980,-27.3320,-14.4814,104.6836,22.7277,13.6621,-49.5453,79.9019,-6.5351,24.9823,-139.2529,-5.0758,-68.6582,-29.3853,32.0483,-96.6169,44.2333,105.9953,59.7264,118.0998
-3765.6250,-37.5866,64.6784,8.7076,56.8590,47.4834,1.1021,-25.2814,30.3692,16.8202,11.1915,-79.8086,18.2693,-8.2298,-7.2039,-18.1778,-35.7206,-3.5267,22.6609,-23.2536,26.2339
-3757.8125,-104.9381,-36.8663,11.3424,60.4729,88.6888,4.9856,-21.5665,33.2985,19.6369,13.8698,-39.9109,-15.9382,31.6515,-5.5715,22.0525,-32.3717,-34.8462,61.7689,-19.7808,67.2855
-3750.0000,-138.0943,-106.2078,-24.8338,27.2836,54.0907,7.0635,53.3501,-2.5633,20.6738,87.7608,-38.8127,22.0528,105.7327,-5.7367,59.4938,6.1688,-138.9784,-5.9303,51.8917,-5.5284
-3742.1875,-101.0478,-69.3496,-60.8206,-76.7203,19.6849,-27.6723,55.4682,35.7840,21.9308,125.8606,-37.5101,60.2461,107.0177,31.3009,61.1460,44.9161,-101.9235,-109.4406,53.7635,-116.5558
-3734.3750,-100.5954,-33.1148,-97.4186,-76.3247,-15.3258,9.9850,55.9831,-1.4565,-15.4043,52.3646,36.2044,59.8333,69.7062,66.7447,25.2043,45.0656,-30.4786,-72.5444,54.0376,-79.3379
-3726.5625,-87.4520,-20.1962,-121.3278,-98.2336,-38.6381,-13.6651,33.1982,-25.9772,33.9642,27.5844,48.6270,108.1181,9.0981,77.8951,110.9646,20.9205,17.6595,-129.9606,67.0211,-141.1890
-3718.7500,-77.5712,94.4788,-149.5015,-88.4041,-65.2056,-3.5762,6.1677,-126.7352,116.0945,36.5782,20.8046,81.1549,-18.7637,85.7988,157.4809,-43.4763,62.5377,-84.6390,6.7643,-101.9818
-3710.9375,77.1468,142.9989,-99.8360,-39.7292,-87.9250,10.3588,-91.0050,-186.6349,56.0899,-24.5656,-3.1671,94.0433,-42.7836,97.5559,96.8606,6.9783,111.2553,-70.4730,-50.6409,-90.3575
-3703.1250,181.4648,71.1087,-102.5792,-111.4683,-89.0526,-28.1200,-92.5758,-151.9244,-20.2976,-27.0992,31.4602,91.5316,-8.2016,130.9266,21.8516,79.0477,74.5604,-35.7218,-16.4425,-58.1163
-3695.3125,130.4407,-15.1491,-83.6805,-57.5637,-30.5382,-6.9509,-34.4984,-59.5535,-0.0257,67.0240,14.7370,-36.3300,-24.9676,112.9575,-31.5000,25.7665,23.5069,-16.3244,37.4093,-26.1585
-3687.5000,57.9212,-16.9131,-50.2931,-23.1655,5.4639,28.7124,-35.9269,12.3319,-39.2402,100.6541,-24.4788,-75.6952,-27.2310,145.4994,-70.3399,23.9849,21.9448,-52.4418,35.7648,-54.9163
-3679.6875,-37.3533,27.5717,32.3304,21.4703,15.7050,74.6133,-63.1022,-15.5168,-103.1899,-37.4419,-52.4431,-29.8124,-18.2481,153.2964,-133.9207,33.4501,101.6292,27.6805,10.3785,34.0244
-3671.8750,-0.1299,-5.4526,70.4474,93.6038,18.4457,77.0087,-60.7791,-50.8464,-28.6374,-182.0145,-50.9183,8.5677,20.2343,117.6019,-132.0051,-1.5889,33.8056,65.2991,12.5033,73.6558
-3664.0625,12.7902,7.2127,45.2646,36.4302,31.8844,17.0970,26.2446,-38.4583,57.6236,-96.8807,-75.6941,-16.3525,32.4149,54.6226,-83.3908,-62.9260,-24.3272,43.6053,25.3342,49.3422
-3656.2500,57.6566,-54.1720,54.0240,81.1987,5.2663,27.1314,-0.7857,-66.1109,-7.1540,-51.7911,-29.5133,-44.3235,4.5432,25.6045,-73.8250,-89.3160,-14.5163,88.8591,70.1204,97.1471
-3648.4375,120.5653,-26.5102,45.8258,74.0130,-38.3089,-16.7923,-7.7666,-109.7006,-123.8665,-59.6459,73.7243,58.7586,-40.2810,16.6479,-44.2041,13.3447,14.3345,12.1495,27.9615,12.3307
-3640.6250,113.7673,72.4454,37.9173,32.1128,-44.5905,-60.4272,-51.4474,-116.9766,-168.2671,-67.1790,139.2618,124.1368,-10.7988,-28.9961,-14.2814,6.3105,42.4762,5.7269,-13.8879,-0.8470
-3632.8125,82.8668,111.2840,40.8991,71.1094,-2.9785,-19.1653,-120.2318,-113.3386,-201.7594,-26.7974,105.7039,91.4077,29.5904,-62.7306,-47.4528,-26.8220,11.5052,45.2028,25.1646,41.6765
-3625.0000,9.1564,107.3243,36.0755,-2.7007,-6.1729,14.2894,-87.8162,-44.4905,-132.0476,5.7868,65.3624,12.8790,25.1869,4.7487,-14.4146,-30.7572,-28.2821,-28.1341,91.4190,-30.4761
-3617.1875,-98.6605,0.2626,33.1504,-4.6178,-44.4780,49.6368,-52.5046,-46.7288,-62.4320,77.2737,98.9336,-63.7453,-14.3173,112.1420,20.5213,-69.7992,-65.1710,5.4234,124.5787,4.7195
-3609.3750,-121.1787,-93.5109,7.5298,-63.2367,-105.4888,25.2781,-2.8961,2.3479,60.4843,125.0757,110.8116,-52.0715,-39.5204,85.8511,69.7482,16.4609,-87.7677,-87.7310,137.0407,-92.8946
-3601.5625,1.5099,-77.0881,-13.8970,-115.6681,-160.3087,-68.8939,-23.0902,55.6400,149.6094,178.0975,90.8932,-72.1952,-96.5219,26.7769,86.1740,32.9234,-36.1753,-105.7006,118.7019,-116.4089
-3593.7500,112.8027,-1.0755,-8.7327,-75.5037,-190.5371,-62.4747,-53.6941,61.5445,192.3478,146.7321,59.5834,-102.7232,-163.9207,-77.6833,128.2108,38.9773,-29.9967,-64.0735,54.9662,-75.5338
-3585.9375,56.8893,12.7277,4.2236,-95.5502,-212.9775,-157.2637,-39.4958,75.2578,205.9039,124.1762,73.0829,-53.4508,-113.5122,-65.3284,179.0632,126.8346,-85.0311,-118.6677,34.0307,-136.9427
-3578.1250,13.2693,-31.1752,-5.5283,-104.3120,-221.1306,-202.7614,-11.0037,66.2832,196.7731,261.9369,63.8879,-26.8746,-50.7965,-39.6587,170.2268,43.9947,-59.7717,-92.9767,-10.6057,-113.3234
-3570.3125,25.0515,86.3169,-29.8828,-93.6803,-169.8953,-225.8667,2.8869,42.7178,247.0526,275.1115,3.0958,60.1068,-37.6841,-28.5765,73.7870,20.5548,-48.1171,-115.8992,-103.8385,-140.0923
-3562.5000,-54.5702,147.4056,34.3578,-102.4615,-142.0785,-234.3864,31.3771,-3.2374,274.9470,154.8972,-43.1000,50.6986,27.0262,35.1235,64.9526,-25.2803,-21.8622,-89.2419,-112.4627,-110.1880
-3554.6875,-158.2503,77.4325,33.5428,-32.2989,-105.3236,-196.9675,31.8157,-3.2334,310.8096,117.6507,-80.3424,13.2386,26.6838,33.7948,101.0764,-25.1654,-21.6688,-53.6407,-77.1371,-67.0676
-3546.8750,-189.1779,47.2013,0.4685,-97.3967,-99.8311,-228.8065,37.0063,38.5292,315.4397,233.1719,-38.8236,54.5224,31.1001,0.2255,105.9580,53.6990,-86.7449,-188.3035,-1.0585,-207.3498
-3539.0625,-156.3993,78.6654,-40.9112,-134.8123,-102.6475,-231.9575,33.8906,108.0037,275.7793,302.4104,-5.5976,50.5000,-9.7751,-41.6225,66.5431,13.2624,-55.1293,-155.2805,-4.2811,-173.2835
-3531.2500,-42.7273,53.0233,-32.3900,-125.3330,-128.5709,-185.2107,43.6705,81.3921,174.0222,164.5562,40.5301,59.3812,-0.7432,-33.5507,39.0219,59.7228,-45.6238,-145.3665,5.4004,-161.6051
-3523.4375,65.2353,54.6793,-103.5705,-159.5652,-162.2006,-220.1772,8.7502,83.0987,212.5727,129.0180,114.9604,60.5708,37.5927,-33.1659,77.8025,98.4808,-112.8314,-179.1642,7.3827,-206.7271
-3515.6250,54.8494,8.9839,-152.1026,-100.1554,-136.1869,-156.5031,35.4757,35.4656,238.7845,229.1492,104.0394,-24.5929,63.5786,-45.1221,67.2385,13.8820,-159.4022,-119.3203,32.0228,-143.8904
-3507.8125,-53.0952,6.7264,-192.1850,-136.2993,-101.7330,-122.3878,70.6512,70.2972,236.4578,263.7429,65.5756,-64.3131,97.0195,-11.6145,101.1306,48.7349,-196.5391,-155.0376,65.1177,-178.6179
-3500.0000,-98.7444,-4.2424,-166.9747,-183.1573,-74.9925,-96.9847,96.1272,95.4397,225.4430,288.6453,54.4196,-111.7315,85.7696,13.2154,127.3211,37.8934,-207.3842,-131.4659,54.5174,-152.4868
-3492.1875,-61.3452,-73.1624,-165.7182,-110.9729,-109.2122,-57.5408,62.6488,97.6424,227.4813,143.6054,129.3250,-74.1025,14.5747,-22.8829,129.5590,113.0991,-205.1845,-93.8521,56.9674,-111.8251
-3484.3750,15.5027,-32.6294,-198.0077,-139.3496,-138.9925,-51.6600,31.6120,67.3047,195.9723,112.0269,171.6839,-32.0185,-54.1613,18.4909,98.2518,155.7517,-94.5359,-122.8074,-7.1403,-145.6980
-3476.5625,88.2547,-30.2029,-122.3945,-102.8283,-135.8816,-48.8867,34.4682,32.8745,124.3675,114.3614,136.9485,-67.0313,-88.9942,19.7849,64.8475,85.2913,-21.9940,-49.8690,-40.3541,-65.9768
-3468.7500,56.9137,9.1163,-83.8797,-99.4064,-95.8771,-45.2221,75.2237,36.3499,91.6768,44.5995,103.1213,-64.1422,-11.9214,58.9863,31.3443,88.7237,-53.5637,-81.0419,-71.6723,-94.9578
-3460.9375,24.2195,11.0827,-82.7119,-97.3440,-93.2356,31.0767,3.6292,1.4856,19.6471,-27.5003,104.9534,-25.5961,63.8122,96.8499,-3.5110,53.7998,-51.4976,-7.5789,-34.3366,-20.3002
-3453.1250,-17.2330,-31.7050,-17.2922,36.9650,-62.3512,134.6162,-2.7167,-5.1242,-24.1312,-71.3320,25.0396,-32.7984,92.8013,88.9820,-84.1199,-63.8784,-23.1935,56.1260,-4.7451,59.2931
-3445.3125,-108.1942,-15.9970,35.6295,51.7628,29.0220,151.6535,51.4314,11.7776,-44.4048,-91.6500,-32.3742,-53.5033,109.2917,140.6401,-104.2255,-120.0496,-43.3980,36.3113,10.3516,48.0430
-3437.5000,-85.4508,6.4053,59.2479,109.2480,53.0783,176.3871,39.2714,36.3930,-56.9721,-176.2563,-45.0705,-103.5124,133.4817,164.0189,-152.6257,-168.5273,-90.9050,130.1828,-1.8557,147.3111
-3429.6875,10.2529,65.7610,47.8151,134.6758,80.0692,166.0652,29.0512,61.9656,-140.5892,-223.9069,18.2032,-77.5699,122.6271,78.3625,-163.0727,-143.0679,-101.4625,83.9919,-12.1194,101.0401
-3421.8750,12.3093,67.4739,48.7389,100.4461,119.3983,94.0795,31.1740,100.8988,-211.8568,-185.2026,55.8309,-2.2646,87.1276,43.0785,-161.1708,-141.2681,-99.6745,86.1385,-10.0402,102.6693
-3414.0625,-13.2874,6.5344,20.0209,109.5713,129.0707,103.4354,40.6370,147.1819,-202.7702,-213.1541,28.8143,-30.6025,95.9809,-22.8356,-151.9229,-96.1267,-90.5392,131.6312,34.3903,153.4574
-3406.2500,-35.7835,-52.3034,-5.5921,16.7909,67.8327,78.8871,89.1941,196.5686,-117.5834,-201.0000,3.9074,18.1668,107.9409,25.3667,-139.5830,-46.8860,-147.3102,38.2092,116.9183,55.2560
-3398.4375,-143.4256,-89.2863,-8.3464,-20.1495,66.4375,41.1838,124.5944,231.8116,-83.5514,-93.9798,-35.1404,52.7810,105.7534,22.4384,-105.4058,-157.8008,-115.2340,71.6294,151.2929,91.7841
-3390.6250,-190.1204,-67.3245,14.8630,36.8583,90.9819,28.4266,185.9346,182.0114,-96.5701,3.9994,-85.2282,39.3407,92.5188,-28.5196,-44.2834,-134.7704,-162.2135,23.9887,138.6182,45.1174
-3382.8125,-113.5674,-60.1250,-15.6748,-25.8926,61.7664,-38.0920,193.5186,226.4719,-52.3316,48.2376,-78.0596,9.1541,99.5455,-59.2029,-36.9039,-54.4907,-154.9556,-38.4197,110.1907,-24.2580
-3375.0000,-27.5088,-115.4413,-38.7092,-11.1444,41.0374,-60.1177,171.6005,204.4353,-37.5938,-11.0227,-26.3840,-50.5283,114.0799,-45.3690,-59.0211,-2.7156,-71.2062,-23.3271,55.2603,-11.2476
-3367.1875,20.6974,-32.6054,-26.5902,-69.2436,17.4481,-120.0011,147.8296,106.5469,-97.7075,-35.1369,23.4557,35.9470,126.7716,3.6277,-82.9894,10.2082,12.6843,-81.0913,33.4761,-77.9229
-3359.3750,51.1505,103.4895,-32.2071,-39.0948,13.0976,-124.6468,70.2970,28.9130,-66.5819,-2.9904,-18.4372,-6.3209,84.7198,-2.1101,-50.7176,-31.6320,42.8189,-50.6129,28.9447,-51.7433
-3351.5625,19.8036,71.7820,-29.6096,-35.7446,16.9431,-85.1015,73.9521,-4.5173,47.7396,37.3697,-52.1210,-40.3821,14.8740,-73.6329,-10.2529,82.7092,-24.8492,-81.9424,67.6115,-84.2008
-3343.7500,-68.4805,19.1274,-85.9537,-122.3560,-39.1676,-67.5212,91.6499,50.1071,138.1121,17.7830,-34.7480,-23.3852,32.0856,-20.0855,44.2560,136.0944,-42.4756,-133.2393,85.3277,-140.7516
-3335.9375,-95.6135,-9.3822,-79.1397,-114.8223,-68.1350,14.2008,99.4934,20.8889,145.6345,-48.6438,-27.2229,-16.2345,2.4580,-13.3685,14.9081,107.6228,0.0352,-56.3932,93.1925,-58.7866
-3328.1250,7.1512,23.0034,-10.4133,-118.3934,-71.2089,10.8150,59.2289,17.5821,69.0566,-15.1647,-30.7877,16.8162,-75.2625,19.2641,11.4573,67.0484,32.4412,-94.6613,54.9521,-97.4182
-3320.3125,129.8675,40.3379,-28.7357,-102.0265,-51.3429,-6.6324,4.9102,74.2325,51.4321,78.2739,-48.3924,-38.1828,-129.0257,-36.1298,-6.0426,12.4210,14.7923,-41.9935,72.6564,-43.6287
-3312.5000,49.3283,-5.5890,-3.2984,-6.9134,-24.7405,19.6708,31.3338,136.6326,40.5689,67.4683,-96.2401,-86.4350,-140.0311,-47.7497,-16.7912,-35.4627,3.8895,18.4183,97.1020,29.1996
-3304.6875,12.5302,-7.7624,30.8953,-9.0576,-26.3974,17.7173,29.4999,97.7822,1.4633,65.4224,-24.3269,-51.9361,-106.2783,-50.5953,18.2117,-37.6027,36.7331,-18.4366,25.2888,-10.4528
-3296.8750,88.8826,-1.7837,-0.7522,31.9468,-56.9153,23.9017,-1.1974,31.0871,-29.4904,34.5422,18.7494,-83.2839,-136.3729,-8.2723,-12.6396,-68.6007,77.7217,57.8512,31.6149,64.7450
-3289.0625,160.0471,-2.0098,-1.5861,31.7505,-56.6475,60.8783,-38.1077,68.1895,7.3501,-2.5378,18.6434,-155.8202,-136.6606,-9.1304,-12.6911,-31.8026,42.5057,22.9247,31.7304,29.0221
-3281.2500,89.4193,-73.0339,-2.2148,31.7416,-56.1949,97.0465,-37.8243,104.4962,7.3836,34.5812,55.7464,-230.1453,-100.7344,-9.7627,-12.5357,-68.8130,42.4885,93.1835,32.0341,103.6065
-3273.4375,51.0853,-111.7552,67.4625,133.0319,14.5472,167.5108,-4.2465,65.1075,-70.2896,-42.9966,15.1592,-234.1663,-30.4974,-14.0764,-90.0845,-108.5354,38.7745,160.7392,-6.3736,182.8747
-3265.6250,45.7963,-82.4221,134.2016,163.3694,46.3342,162.0191,27.3731,22.7666,-147.9106,-121.5202,-27.3629,-166.1356,37.8019,16.6722,-131.5939,-114.2068,33.1044,155.3325,-47.7413,180.0700
-3257.8125,13.0591,-45.5387,209.5060,235.2577,48.6658,201.0710,-7.4699,-49.0273,-219.9801,-192.4863,-25.3243,-164.5535,39.6595,54.9902,-93.5684,-112.3394,-0.0223,192.4742,-80.5661,218.8031
-3250.0000,-56.0273,-44.0097,210.4827,201.8030,50.6451,165.7734,-42.6729,-84.1718,-181.4034,-264.8081,13.3739,-91.3173,41.1739,55.9760,-17.9019,-0.8381,1.4934,123.2632,-78.7495,142.5922
-3242.1875,-18.0542,-6.4302,137.5218,97.3884,52.6693,93.5237,-3.8350,-82.2622,-142.7874,-152.0810,15.1250,-90.0258,5.7465,93.0347,-53.1894,37.7056,38.0565,90.0900,-111.8865,100.6519
-3234.3750,49.2226,-45.5522,133.8713,129.2729,49.9828,90.5739,-6.7042,-121.0507,-145.8846,-83.0498,-61.8195,-56.4308,-34.3747,89.4141,-93.1831,-39.4605,69.9189,158.2136,-79.7257,171.8381
-3226.5625,89.7900,-40.3777,101.5332,64.4510,91.5915,95.9184,35.7172,-115.5359,-104.6818,-77.7167,-129.4539,-51.5267,-29.1842,94.1158,-50.8735,-34.3308,5.0751,92.6176,-39.2728,103.4763
-3218.7500,25.3989,-70.1554,106.2549,69.6702,97.2388,65.3084,4.1842,-73.9710,-63.4207,-35.3311,-88.0310,-83.5699,13.0694,25.8870,-8.5097,-66.1580,-25.7274,98.0641,2.2231,109.5520
-3210.9375,-32.9378,-92.8873,82.0346,81.9399,73.9229,40.7421,16.6870,-24.3540,-87.1067,-22.8951,-38.5414,-71.5625,62.3762,-36.2745,40.9067,-53.9404,-83.4831,75.5513,49.7637,86.9049
-3203.1250,43.9338,-52.4155,13.0229,-18.5970,42.7943,-27.6376,-14.6201,18.4611,-81.5976,56.7452,4.1696,-29.3461,30.8906,-31.2144,9.5182,-48.5313,-78.0414,11.2261,125.4956,14.0505
-3195.3125,144.2110,-22.5428,-66.5753,-23.7320,1.0578,-32.6183,17.4675,13.6709,-13.7005,161.7825,-0.7091,-71.7237,-48.1866,-73.7400,41.5257,-89.7338,-83.2014,-29.7031,155.6195,-30.8693
-3187.5000,112.5449,-54.6219,-100.1130,-90.8214,-32.6355,-66.5566,20.5969,53.9300,63.2429,238.8676,2.4695,-69.0442,-82.2006,-107.2007,117.5801,-13.8894,-80.3158,-130.5927,194.7863,-137.1555
-3179.6875,3.9303,-58.6468,-140.5914,-164.8666,-36.2870,-70.4539,53.7665,87.2366,96.2387,308.0101,-75.2883,-73.3091,-86.1606,-75.5942,113.6757,56.0006,-14.3823,-134.4440,190.9980,-141.2856
-3171.8750,-61.5849,-88.5693,-99.9544,-159.8080,-30.8442,-65.2539,59.0286,92.6388,101.3276,277.2582,-141.9383,-31.4700,-44.0184,-33.8725,45.8648,97.9766,26.6514,-129.1973,160.3030,-132.7657
-3164.0625,-59.4444,-16.8405,-62.6572,-193.1044,-28.7624,-99.4120,97.9355,57.6884,66.0573,279.1523,-67.9283,7.0333,-79.2139,4.5165,47.7035,62.5947,28.3376,-163.3115,92.2460,-170.7121
-3156.2500,42.1431,49.3424,-67.8970,-126.9491,-70.2386,-68.1212,19.2862,-20.8157,24.2270,200.4871,-35.4556,38.9882,-83.9482,-0.6244,42.9871,20.6540,58.4794,-62.9760,17.6223,-74.2413
-3148.4375,63.3440,105.1308,-8.5183,-72.1905,-47.1213,-82.2338,-31.7794,-34.7263,46.9915,112.4176,-49.3727,97.5424,-61.0775,-15.1520,-8.1332,6.3059,114.2208,-112.0466,-32.4134,-122.0441
-3140.6250,-11.7459,99.6243,59.5785,-6.7364,-52.3107,-123.6540,-37.1581,-39.9404,78.4462,107.0545,-54.5803,165.8029,-66.5025,-20.9592,-50.5658,-109.3540,179.6654,-47.4238,-72.7579,-51.4520
-3132.8125,-20.0885,196.8650,123.4430,89.4700,-23.7534,-132.3286,-82.7967,-121.4089,32.6367,62.4432,-100.0251,193.8231,-38.1701,-30.0008,-96.2574,-118.2726,170.8588,14.9457,-116.3580,12.3836
-3125.0000,-27.2357,224.3083,152.5272,46.8696,5.9949,-139.8093,-90.2433,-128.6800,25.0181,55.0275,-107.2634,186.0591,-45.6322,-0.8251,-103.7485,-15.9861,127.2531,-27.5046,-123.7656,-33.4497
-3117.1875,13.6627,159.8010,157.6740,87.3129,-25.2192,-61.2494,-120.6513,-158.9035,30.4525,23.6654,-64.4487,154.3536,-77.0386,4.4181,-98.1924,-47.6518,132.7025,48.0906,-152.1303,44.0840
-3109.3750,82.3623,158.0953,229.6353,120.5594,-26.6393,-25.8928,-158.2685,-197.3354,-45.3119,-51.8949,-28.8290,152.4550,-78.6409,39.4768,-62.8445,-86.5251,130.9518,46.4798,-189.7038,43.3583
-3101.5625,121.4302,196.7545,232.9561,124.1542,-22.7168,-22.1908,-191.5462,-193.4274,-114.7382,-85.1091,49.1555,118.9236,-37.8870,78.9033,-59.1565,-155.0653,134.5533,50.2118,-220.9451,45.4910
-3093.7500,84.7088,88.6285,266.4936,157.9544,-24.5980,12.7142,-193.6388,-195.3261,-152.9806,-159.1356,120.3466,79.6015,34.0651,76.5509,-61.2749,-85.4266,97.3569,83.1475,-222.9972,81.4460
-3085.9375,62.3382,65.8505,242.3955,99.1080,-49.1390,-12.0301,-181.3909,-145.8726,-140.8804,-183.8233,132.8916,128.6324,46.3782,88.5669,-49.0445,0.5616,74.5104,25.4238,-210.7087,19.6486
-3078.1250,126.0598,129.1691,198.4103,92.3602,-55.5911,55.3254,-188.0500,-152.3143,-147.6812,-190.4123,53.5388,121.7610,2.8008,81.6959,-55.7163,-80.3557,137.7664,88.8007,-217.3270,85.7412
-3070.3125,253.1768,185.8878,183.8380,113.0146,4.3536,41.0766,-165.3160,-130.3593,-273.0832,-167.5991,39.5916,144.2909,-11.3633,67.2296,-106.9944,-94.8823,123.4250,4.5710,-196.5485,3.3632
-3062.5000,260.3823,121.7037,116.3792,14.7645,11.3920,10.9244,-158.4881,-87.3070,-302.3856,-124.6869,82.7506,150.9307,68.5827,110.8798,-136.1741,-14.3099,95.1793,-59.5721,-153.6722,-67.4359
-3054.6875,197.5817,58.5112,122.9324,-13.4839,18.4228,17.7714,-151.6716,-80.2590,-295.6897,-117.7735,89.9101,157.5749,112.5334,154.5451,-129.3531,-44.7396,66.9355,-16.7150,-146.7996,-24.2094
-3046.8750,134.3345,171.8664,93.0458,-42.1821,63.0023,-11.8376,-108.3102,-108.6670,-288.4511,-220.3065,24.6259,238.7760,120.0449,161.7735,-121.9787,-37.6228,144.2345,-80.3165,-139.3895,-87.4886
-3039.0625,96.3413,203.4771,126.4239,-9.6331,59.8276,-15.2019,-111.7030,-111.8344,-291.9730,-260.5894,-15.3976,271.2346,43.8139,158.2693,-89.3580,-78.2704,211.7882,-12.6722,-178.7452,-15.0014
-3031.2500,74.2938,145.0388,138.7736,2.8736,35.6018,34.3894,-135.1547,-63.0623,-243.5563,-283.9308,-2.4578,210.6499,-17.4604,96.7316,-76.7992,8.0207,189.2883,-0.0751,-130.1635,2.1044
-3023.4375,52.1463,87.5064,114.0382,-55.7220,11.2724,-27.1202,-86.7179,-13.3958,-194.2422,-198.3841,47.3924,111.9692,32.1727,109.1111,-100.3476,57.2133,130.6860,-23.5889,-83.6861,-24.4279
-3015.6250,43.3483,78.3218,68.6709,41.0369,76.2890,0.7189,-59.9431,-59.3897,-166.5811,-133.4921,38.5945,66.6418,23.1589,99.8492,-109.5461,-26.2469,86.4343,38.2508,-126.8634,40.0855
-3007.8125,137.9956,102.5849,57.7716,65.2506,65.7518,-9.9931,-106.7265,-69.9440,-251.4809,-144.1549,65.2520,91.7792,49.6018,126.0455,-84.2904,-0.2673,75.6332,-7.4670,-173.5913,-11.5366
-3000.0000,165.4856,128.6968,84.7338,56.3092,93.0621,-18.8549,-115.6628,-78.6578,-333.5365,-189.9717,129.7619,119.7789,76.9025,117.1049,-129.1831,-46.4470,66.6840,18.6628,-146.4724,16.2815
-2992.1875,58.1750,92.0110,156.9071,124.5735,128.5661,-20.5166,-117.4059,-80.1774,-335.3980,-228.6004,128.4698,117.9829,149.4144,42.3728,-203.8780,-85.4357,64.9402,86.9939,-79.1564,95.4530
-2984.3750,-1.0283,67.4315,167.1956,99.9369,139.1642,-10.0813,-107.0552,-69.5987,-288.1650,-144.1294,139.2794,91.2918,160.0342,15.7495,-193.4746,-111.3291,40.2950,62.4084,-68.7467,71.0103
-2976.5625,-11.6351,-84.5448,156.0921,159.8998,128.3612,52.9517,-118.1017,-80.4208,-226.3365,-119.0537,128.6952,7.2023,149.2586,41.7353,-167.4758,-122.6341,29.2450,121.4216,-44.7423,134.5184
-2968.7500,69.4986,-142.7775,92.7520,134.6214,66.3127,63.7379,-107.4016,-32.4961,-178.7648,-144.2414,102.8683,-19.1302,86.2429,88.4815,-84.7300,-39.1912,4.9382,62.1816,-33.9953,70.6550
-2960.9375,40.1267,-137.5085,61.9256,104.8414,34.7699,69.0244,-102.2038,-27.0777,-100.6990,-138.9381,108.5455,-13.9551,91.7418,20.7348,-5.4902,-71.2534,10.1325,67.4393,-28.7621,73.5208
-2953.1250,-70.8375,-73.8358,56.5113,134.4732,66.6237,63.7138,-71.6213,-32.2711,-106.2406,-35.2415,140.6322,-56.3779,86.6459,-58.6029,-10.8578,-76.9221,4.7337,62.1004,-34.1443,70.6853
-2945.3125,-70.7972,-39.1586,19.1174,64.1067,102.4751,-10.5930,-35.0533,4.5204,-70.7887,1.4490,140.7256,-19.7899,123.5559,-58.9274,-48.2280,-40.5962,-66.6645,-8.2448,1.4588,-5.2901
-2937.5000,-109.0132,-77.7339,15.4905,60.4885,136.0746,22.8508,-1.7415,1.0512,-37.5926,-2.1238,64.5679,-23.4447,120.2298,-62.4842,-124.8502,-81.5289,0.6919,58.1652,32.8054,69.3054
-2929.6875,-106.8330,-40.9128,17.2716,62.2753,101.0753,61.6982,-0.0326,-34.0300,-35.9995,-37.3035,29.8077,52.3106,85.3129,-23.6325,-123.0674,-80.0635,37.4444,24.9723,-0.4555,34.3703
-2921.8750,29.0932,24.6620,-25.1856,21.8095,59.8276,92.2915,-42.5805,-39.3654,-4.6628,-42.7324,24.8062,46.8259,44.1511,44.9815,-92.5332,-121.8535,-3.0532,-15.4809,-5.9774,-14.6561
-2914.0625,27.4574,-12.3173,-27.1777,19.8023,58.0313,90.3425,-7.6889,-4.2552,30.1172,-81.7184,23.2592,-29.2066,42.4442,6.0573,16.4485,-88.1988,-76.1012,17.5204,-8.0565,19.1028
-2906.2500,-67.9853,-108.0988,-53.9570,-41.0058,31.4307,27.5912,76.4018,43.0524,113.0925,-34.5097,33.9064,17.9686,88.9438,-57.6614,63.6336,-4.3359,-65.9480,-78.2868,2.0626,-79.1012
-2898.4375,-106.1293,-76.5697,-20.4251,-8.5237,-8.8717,24.1363,35.7905,2.6521,73.3657,72.9960,30.8458,14.4538,85.7481,-98.0764,23.1287,-8.1776,1.5049,-10.7965,-37.5211,-11.2234
-2890.6250,-44.5357,20.7134,7.8601,17.7139,19.5705,15.4320,-10.0723,-43.0057,-46.6047,64.2413,59.5312,5.6954,77.3075,-106.7339,14.3844,19.7269,-7.2922,-19.5582,-46.3570,-21.8670
-2882.8125,-75.9030,24.0409,11.2042,-13.9987,23.0554,-18.2235,-6.8882,-2.6231,67.4834,67.5319,-10.7322,8.9992,7.9238,-29.3281,54.6915,-14.3166,-4.0410,-16.2736,-78.1505,-19.8016
-2875.0000,-84.5680,-19.9387,2.2631,11.9983,14.2395,46.8262,-16.0124,-11.5513,168.2636,58.5126,-19.2845,-73.9940,-37.7546,-1.2107,81.6869,-60.6629,-13.0861,44.7169,-87.2566,43.6436
-2867.1875,-84.7692,-56.4640,-35.2129,-59.5517,50.8696,46.3240,-16.6980,24.9600,204.4786,57.9378,-19.3750,-111.5337,-0.9812,35.3608,81.1292,85.4347,-84.6727,-25.8432,-87.9207,-33.0687
-2859.3750,-119.5734,-126.5833,-72.2760,-59.7010,13.9015,46.2178,-16.9932,24.8666,204.0805,93.7630,-19.0602,-111.6684,-0.8004,71.3379,117.9702,121.9284,-84.8568,8.9979,-88.1912,-0.3693
-2851.5625,-115.6846,-157.0077,-68.6262,14.8544,17.6393,85.8235,-50.5859,-8.5353,207.3692,61.2769,-15.0478,-71.0979,3.0838,2.0244,195.5104,52.1185,-81.3420,47.5404,-119.7641,40.0738
-2843.7500,-72.5947,-45.2292,-23.7670,22.6078,-11.4237,57.6304,-5.9787,-37.7448,177.8535,-5.0196,-43.8413,-63.3178,11.1722,-27.0792,166.2507,22.5138,-73.6276,55.2778,-112.1420,49.7020
-2835.9375,-8.0108,-15.9508,43.6020,85.8672,-17.9829,86.9391,-12.8748,-81.4651,60.8461,-121.8223,-13.1446,-33.0313,4.7613,-33.6762,85.4879,-21.6004,-9.4094,83.5219,-84.0240,85.9349
-2828.1250,-0.8918,25.8760,13.5293,22.6779,-10.9894,57.7985,-6.2212,-74.6397,30.3922,-115.0745,31.0907,10.8142,11.9075,10.2780,56.2790,58.8367,-2.6460,-50.6856,-77.3537,-54.9030
-2820.3125,1.3099,-7.2009,-58.4338,-81.4123,-45.8952,59.7525,-4.4620,-35.7168,69.0323,-77.2241,70.4274,-61.2336,-22.8376,12.3348,94.1681,60.3771,69.2140,-12.7968,-40.5790,-19.1464
-2812.5000,-21.6988,-65.4818,-45.5837,2.3040,-70.0004,35.5087,-28.9087,-23.0002,44.4585,-100.5830,83.5653,-48.4709,-46.7741,25.1976,143.8553,72.7209,81.8779,-0.1044,-63.0108,-4.3066
-2804.6875,18.0459,-62.0025,-41.9753,-30.2278,-102.3554,2.0166,-25.6116,-56.5406,47.6202,-61.2018,50.4493,29.0554,-42.9568,28.8194,184.2939,111.8139,50.2950,-32.6662,-94.6998,-44.5390
-2796.8750,40.6906,-3.6165,-54.4505,-6.8534,-78.8057,26.4268,-38.4163,-105.1872,107.6721,0.0662,38.2298,16.4880,-55.2430,-20.6493,134.6268,62.7954,37.6118,-9.3171,-107.4915,-22.2402
-2789.0625,-26.8192,69.6143,-51.0643,-74.6161,-75.4022,-44.3038,-35.3772,-101.9909,221.5671,40.1739,4.8592,56.7799,-14.6762,-17.2636,137.8031,138.6221,-30.2225,-112.1186,-104.4291,-134.3587
-2781.2500,-45.6353,50.5345,-71.9688,-163.6859,-131.3042,-65.3346,-19.6420,-122.0876,237.1616,55.9812,21.1894,72.7755,1.5918,-1.1675,153.6791,191.1505,-14.3596,-130.2297,-53.6524,-157.7548
-2773.4375,-76.9204,-52.0000,-104.3191,-124.2105,-127.6590,-97.8129,20.6462,-82.6321,203.3162,22.3453,62.0614,76.3234,5.4098,2.4759,157.1116,194.2296,-10.9469,-126.7904,20.6804,-148.7073
-2765.6250,-118.3175,-59.6357,-147.7699,-202.8440,-99.1128,-69.3965,49.8414,-17.2783,158.3814,14.6199,127.8244,68.7732,-1.8688,69.0162,149.4547,223.2212,-53.6386,-170.4621,47.9158,-193.3810
-2757.8125,-46.8756,-57.4287,-145.3702,-165.6314,-96.7182,6.8696,51.8836,-15.0745,87.3052,53.7570,94.4293,-2.9318,0.7032,71.4082,151.6600,78.0695,-16.4836,-98.2823,15.0018,-114.8242
-2750.0000,52.4668,6.6636,-116.0620,-102.5111,-67.4284,0.0361,-29.1762,-94.9738,43.1267,46.7918,87.9305,64.2668,-5.8238,64.7062,107.7745,106.8175,-23.4312,-105.2004,-63.0145,-127.1922
-2742.1875,82.2511,-34.7991,-48.2928,-107.9453,-72.6908,31.6519,-71.7852,-136.4272,37.3991,4.2657,82.8801,94.9252,26.1069,95.4589,102.3475,101.0223,-28.9291,-75.6711,-103.5878,-98.8356
-2734.3750,6.8218,-75.4569,-16.7141,-7.5708,-4.1527,63.0732,-40.5944,-142.0936,31.4713,-1.4687,40.6230,53.3922,20.8398,54.0149,60.7201,95.0290,-34.6250,-10.3346,-109.3691,-22.3953
-2726.5625,-65.6691,-6.1505,18.8180,-9.2466,31.3380,61.4485,-5.4514,-143.8170,29.4958,-3.2552,2.3069,14.8160,19.5270,-21.4778,59.0446,56.9900,34.6295,-12.0535,-76.2064,-16.4437
-2718.7500,-168.2243,-3.8856,58.3009,63.0251,33.7831,63.7754,-3.3543,-105.5916,-5.5294,-1.0922,-32.0709,-19.8058,22.1698,-19.0179,-12.6812,-15.1046,71.8394,95.1810,-39.0941,102.5648
-2710.9375,-129.7909,-37.6241,96.7874,171.3044,-0.7683,102.1071,-1.2535,-103.3720,-77.5587,-108.9340,-29.4576,-17.4203,24.8136,-16.5525,-84.4040,-13.2052,74.0503,132.4221,-0.9792,148.6950
-2703.1250,-31.1067,-43.1110,91.5285,129.8353,-6.0725,60.6949,-6.9014,1.0933,-119.3368,-150.5369,2.4056,14.2276,-54.2944,15.1698,-52.8761,-19.0527,-1.4941,126.9099,28.3789,142.0144
-2695.3125,49.8277,-32.3583,66.5309,140.6247,42.8737,71.5424,4.6938,12.8040,-144.8638,-103.9014,14.5140,-10.8742,-79.1551,-46.8519,-115.0982,-7.6473,-26.7869,101.6590,72.9797,118.9414
-2687.5000,28.9985,-18.3574,44.7919,48.6700,57.0714,-24.3571,18.5375,26.7574,-95.1461,20.9775,28.8609,3.2752,-101.7635,-106.6204,-64.0571,79.0201,-12.8309,-24.3407,86.8319,-15.0086
-2679.6875,-14.9981,-62.5049,34.9072,-30.4325,10.1286,-107.3998,-28.7663,-20.4463,42.4282,84.7040,19.0457,-6.7246,-110.5199,-115.5358,109.8396,105.5383,13.9701,2.5147,43.5320,0.1075
-2671.8750,-81.6089,-128.2581,1.4267,-27.1292,13.5874,-177.0354,-25.6675,-54.2532,118.4054,123.8244,-14.3739,-3.3197,-70.8744,-39.0521,187.1420,145.4537,-18.8265,-30.2283,46.6339,-39.3020
-2664.0625,-50.5230,-132.3176,-76.3542,-101.1315,-27.2561,-180.9682,7.1262,-21.3591,188.0857,156.6462,-18.0946,-7.2065,-37.5313,31.1341,183.1542,141.0817,-57.9247,-104.2775,77.4339,-120.6202
-2656.2500,-92.6911,-139.6264,-119.3863,-142.3864,-34.3487,-115.1525,36.6682,8.2816,180.5149,112.2195,-25.0748,-14.3436,-7.4414,24.0722,138.9218,133.4723,-30.2715,-76.5722,139.9890,-88.3436
-2648.4375,-153.6735,-96.7377,-110.2153,-169.4395,-62.2358,-142.1338,82.4173,17.1198,115.1478,84.9834,-15.8639,31.7236,1.8537,-3.7874,147.8919,216.0727,-21.4273,-102.6691,148.7505,-114.5412
-2640.6250,-122.6231,-31.8041,-114.9944,-138.4437,-67.0701,-147.0686,77.2210,12.0031,146.8436,79.8047,-57.6189,63.8499,-2.7990,-82.5935,105.9195,136.7304,9.4626,-37.7208,143.5659,-46.8477
-2632.8125,-27.1386,-75.4280,-87.3222,-6.9937,-38.4578,-119.5518,68.4812,3.3294,137.9927,107.0817,-101.9424,-18.5668,-11.0018,-90.9447,61.4066,54.8435,0.8032,-10.3148,134.8331,-11.5653
-2625.0000,-40.1087,-88.5018,-26.0948,-55.9930,-14.2946,-59.4828,55.2945,-9.8010,51.6881,57.9073,-41.7266,5.5735,50.3494,-29.7406,11.4497,77.5127,-48.3127,11.6384,86.6528,9.2920
-2617.1875,-14.5931,-99.0701,0.6352,4.5098,49.3667,77.0895,80.6087,-20.4365,-70.1150,-26.7710,-15.0164,-4.7855,40.2060,-3.0378,-109.9996,-43.3183,-22.9300,106.0975,75.9764,117.2913
-2609.3750,46.8044,-36.7402,29.2717,65.9185,76.9305,68.5657,71.8241,-29.1766,-152.0200,-109.5565,-23.4116,23.7603,31.9680,25.5641,-190.5408,-89.2411,3.3516,97.4555,102.2008,113.9152
-2601.5625,10.3523,66.7412,-8.9437,64.4717,75.6501,31.1873,107.1906,-30.7676,-117.7731,-111.1915,-24.6665,22.4641,-6.1149,-49.6856,-155.9243,-128.0058,36.7778,95.9621,136.5721,113.3274
-2593.7500,50.8973,2.2209,-40.1606,105.0308,45.3724,-0.1871,75.5630,11.6374,-75.5156,-105.8330,-18.9346,-45.8272,-37.2000,-80.9325,-77.3029,-85.7731,7.1990,101.4751,176.9445,118.2799
-2585.9375,98.0733,-56.6558,-64.7227,12.2448,-53.2539,-24.9090,51.5901,96.6873,-26.5986,-19.8243,30.4326,-107.4649,-24.6386,-105.5240,8.9719,0.1212,-15.7321,8.6361,188.9746,16.6374
-2578.1250,18.8764,-100.8932,-73.6347,3.1095,-62.2331,3.0214,5.2677,124.3859,37.9779,154.8383,-15.5615,-152.4457,-33.4314,-77.4605,-37.0922,-83.3306,9.9913,69.4559,214.6584,79.5955
-2570.3125,-34.9285,-119.7259,-18.1460,-15.6209,-6.8187,21.3544,23.3467,179.4799,54.9610,245.8941,2.8374,-135.0191,-51.8280,-95.9993,-55.7446,-102.3738,-43.8838,-19.3259,195.7394,-6.8646
-2562.5000,-78.6949,-92.5040,-62.6108,-94.3075,-14.3531,-23.2599,88.4810,208.6234,121.0046,274.9930,-4.7208,-105.5388,-22.1747,-103.4827,10.6571,-73.3584,-122.7111,-27.0595,152.8711,-22.2375
-2554.6875,-50.1232,-99.9387,-106.7259,-30.6397,15.4632,-30.5180,117.9704,164.1163,150.4010,194.4388,-85.9404,-75.7174,7.8319,-73.6149,76.4125,-80.9843,-199.1910,35.5661,110.3609,38.3385
-2546.8750,-44.8680,-129.6809,-101.1385,-25.2722,20.9834,-25.0746,123.1719,169.3155,155.4994,125.5847,-153.4801,-70.1979,49.5369,-31.0469,81.8787,-38.8944,-193.9781,5.8890,115.5616,9.6654
-2539.0625,-124.8219,-138.6271,-72.7563,0.8914,12.2996,3.1742,114.1780,160.3216,146.4039,190.5309,-126.2323,-152.8766,5.0364,-76.6786,73.1518,-10.9962,-133.9650,67.0165,106.5699,76.1145
-2531.2500,-154.5314,-133.3201,-67.1263,6.3116,-19.1349,44.6778,82.4347,165.5767,151.5643,195.7274,-120.7436,-183.3040,-26.2242,-71.0607,115.6738,30.1602,-93.6981,2.3948,111.8320,11.4384
-2523.4375,-84.7482,-27.5153,-140.9967,-99.7783,-19.0723,8.6845,119.1899,165.3327,224.2366,231.4339,-192.7582,-110.2284,-25.9896,3.0588,78.7003,-6.1691,-93.9371,-67.7356,75.5997,-68.9104
-2515.6250,-28.0840,28.1866,-154.9684,-77.9679,3.8908,-5.4066,141.8509,113.9854,246.8166,217.0424,-243.8845,-87.2544,-39.8564,-10.9208,-8.3614,-20.5925,-37.2785,-46.9566,61.2726,-46.9407
-2507.8125,-95.5353,66.7856,-114.0340,-74.2500,-29.2460,-75.5955,145.4214,80.5307,213.3002,184.5491,-94.1266,-46.3745,-35.8211,-43.9998,-4.5155,18.8903,36.2735,-114.2759,29.8507,-117.0784
-2500.0000,-90.0486,108.3314,-71.1514,-68.5823,-60.4331,-106.8326,113.9513,86.0264,145.7413,153.0078,22.5613,-40.5390,-66.8340,-75.1284,-35.7161,-11.6672,76.7689,-37.6435,0.3877,-39.3381
-2492.1875,-50.6721,75.7610,-30.3730,-30.0130,-19.7187,-66.1622,43.3925,89.4243,112.0918,45.3665,26.1308,0.1922,-62.9512,-71.3626,40.9886,-8.3130,10.1629,-34.1003,-31.1648,-35.9367
-2484.3750,-14.1601,77.3344,-65.4498,-99.3006,-17.8577,-27.3429,44.9906,90.9816,113.6050,10.8784,-46.1573,38.0757,-60.9240,4.5542,79.8594,-6.7938,-23.3026,-67.4155,5.4428,-72.8907
-2476.5625,-30.2146,132.3575,-81.0837,-44.1395,-33.5403,29.9235,29.0517,111.9891,97.5794,30.8539,-99.0087,96.4019,-76.4501,-48.0836,27.1947,-96.8189,-4.3260,-13.2761,24.5051,-13.0730
-2468.7500,-32.2384,165.4272,-45.6706,-10.9254,1.8263,28.2413,-8.8273,73.0476,58.6194,-7.1101,-100.8267,94.7791,-40.9331,-49.6756,-10.4088,-61.7837,-6.3028,19.9110,-12.3772,20.1923
-2460.9375,13.4838,106.2440,2.4900,35.0348,-24.0573,76.3031,-71.9495,46.8576,-3.5816,-70.3205,-52.9068,31.9115,7.3352,-38.5212,0.7378,-13.9876,-30.5286,65.8503,-36.5073,66.5067
-2453.1250,53.8596,75.7116,44.3016,75.6518,18.7083,82.0203,-66.4193,16.3192,-35.1397,-101.8812,-47.3454,-35.3050,13.2504,-32.7171,6.5302,-8.5425,-96.1037,71.4488,4.0146,75.5161
-2445.3125,-22.0680,105.8727,38.8064,-0.0317,13.1731,39.4390,1.8174,46.4785,-3.9892,-70.7499,-90.0962,-3.8165,-29.1335,-1.2092,37.0259,-14.3826,-101.9818,30.7457,68.2461,35.0040
-2437.5000,-64.3132,62.7277,32.0008,62.9811,42.3376,69.5598,30.7613,39.3402,-11.1216,-77.9222,-134.1625,-10.6264,-72.8200,28.0070,30.2254,-58.5073,-73.1620,94.7451,61.1877,106.4323
-2429.6875,-27.6223,64.5303,71.1383,100.9399,44.4514,108.6324,69.6582,5.1542,-83.2986,-150.1365,-132.2867,-8.4811,-70.5594,30.1656,-3.6138,-56.6665,-1.3947,60.6895,28.0894,77.8905
-2421.8750,-96.9954,102.2918,110.2225,102.8332,46.5104,73.6487,71.5079,42.9283,-118.5128,-111.3888,-93.4649,-43.3810,-31.3521,-3.7299,-75.4920,-91.8643,35.3163,98.5784,29.9436,120.3879
-2414.0625,-102.6335,60.8036,105.0559,132.4780,78.3131,68.4151,66.1171,37.4537,-86.9650,-116.8839,-98.9021,-48.5386,-36.3993,-8.8766,-117.6143,-97.3017,29.7736,93.2219,95.5529,118.4385
-2406.2500,-11.9365,80.6586,51.2348,46.4708,25.4635,51.5279,49.0900,94.3268,-67.0550,-134.0175,-152.0055,-28.3426,-53.1010,11.3293,-97.3728,-40.3784,49.5773,7.2127,150.5175,26.8855
-2398.4375,54.5541,148.3113,85.2059,43.2622,-14.5880,12.4377,9.8732,53.9983,-107.3360,-100.3465,-119.3248,5.6618,-93.0068,8.3346,-137.3209,-80.6478,81.1744,39.0089,147.2880,55.6537
-2390.6250,50.5447,179.4681,81.6716,74.5584,-18.1387,-28.1492,42.1619,14.1670,-111.1130,-67.1798,-49.1569,38.1733,-96.4179,4.8341,-176.7675,-84.4109,42.2714,0.3095,143.5632,13.8963
-2382.8125,23.7723,81.8768,90.3833,13.1034,-46.4335,-56.4814,14.7074,58.5882,-65.6308,51.2339,-77.7545,10.9277,-87.5752,13.5869,-94.9654,-38.9127,15.6158,-26.1380,152.0945,-17.0946
-2375.0000,-11.8710,-23.5741,90.2483,12.8080,-46.5766,-19.6553,14.4055,58.1655,-102.9898,50.8021,-115.2178,10.8165,-50.5871,-23.5113,15.9883,-2.2573,15.1147,43.5773,116.7813,54.0351
-2367.1875,-36.7730,-13.2834,63.8676,-11.7343,1.0249,-9.0740,24.8529,32.5000,-55.5929,-11.8820,-67.9420,57.4521,-39.8566,-12.8597,62.7025,8.1600,-44.6343,-15.9547,91.2210,-10.6118
-2359.3750,5.0240,-41.3018,35.1869,-4.5775,-28.6834,-38.7915,32.0031,2.5377,-11.4906,-4.8571,13.0190,28.7841,-32.4343,31.4954,70.1265,-21.7111,-73.6889,26.2195,28.3705,25.4368
-2351.5625,118.8572,-103.2770,44.5507,4.6302,-56.3417,-29.4560,-32.7879,11.6307,-2.3270,41.2292,59.0133,1.1643,-59.9643,3.9058,79.6007,-12.5224,-64.7046,0.4443,2.5819,-3.5080
-2343.7500,160.0736,8.1529,13.3058,-60.7715,-87.5995,-60.7243,-27.1656,17.1336,3.2487,46.7278,27.4036,6.9473,-17.0959,-64.2891,85.4754,30.0767,-59.3233,-28.9406,8.1984,-38.7875
-2335.9375,116.7343,36.0376,6.5054,-31.7296,-57.4073,-30.5434,2.9158,47.0886,-77.7180,2.6844,93.2356,-73.8213,13.2164,-108.0400,42.8037,-13.8682,-30.4879,34.1291,36.2657,33.1481
-2328.1250,10.9972,35.5311,43.3032,-32.0940,16.3770,6.2330,39.6062,82.6377,-115.0772,-34.7509,129.6441,-36.9995,50.1186,-108.1973,-31.2567,-51.1955,-31.0443,-1.2003,35.9414,5.3013
-2320.3125,-31.7381,-6.9856,-0.9052,-4.4543,46.1528,36.0041,-4.6951,112.1884,-85.4257,31.8176,49.0367,-44.1799,6.0139,-78.3615,-1.3064,-58.5018,-3.6045,-8.5256,63.6246,0.3176
-2312.5000,-33.9747,25.9875,-39.6237,-6.3178,44.4160,-2.7263,-6.4880,37.2406,-50.2597,65.8863,-27.0631,28.1452,4.4063,-80.0248,70.1464,13.7090,-5.6754,-81.3541,61.8114,-80.7087
-2304.6875,-20.2158,39.9659,-62.3518,-98.1954,58.6748,-62.4578,44.7241,51.2987,-36.0827,43.9673,-50.1545,78.4724,18.7962,-28.6947,48.6060,100.9219,-26.7492,-137.1858,40.9983,-142.7413
-2296.8750,79.2354,-0.3426,-67.3854,-68.3649,53.6371,6.5135,39.6333,46.0474,-78.2057,1.7493,-18.5485,37.5021,50.8799,3.3372,-67.2391,58.8372,-32.1216,-36.3057,0.8856,-38.5683
-2289.0625,149.9914,-0.3444,-30.1194,-32.2401,53.8998,6.7847,2.8446,82.0995,-78.0318,-35.1745,18.3486,0.8312,51.2623,3.6679,-103.7879,23.0715,-68.1988,-36.1272,1.0819,-36.5121
-2281.2500,80.4876,1.4000,-28.1041,4.6292,55.9129,45.8057,4.8117,47.9166,-39.1035,-33.3422,-17.0249,2.9136,53.3855,5.7476,-101.5907,-48.9369,-30.5271,0.8067,3.0444,4.3584
-2273.4375,-2.4374,-11.2566,-3.4903,97.1029,116.5293,33.4332,29.3915,-1.6637,-51.5680,-45.9049,-29.8159,27.5984,77.1063,-6.5789,-149.7949,-98.3391,-8.2574,58.3455,-9.3856,68.8654
-2265.6250,37.4293,-6.1164,74.9235,102.3715,121.9463,-35.1391,34.7811,3.5557,-83.2319,-114.6652,12.1848,-3.9172,119.6221,35.8937,-180.1881,-18.9339,-38.1808,28.6828,-75.0140,37.0688
-2257.8125,-38.5102,-46.7773,69.5353,167.8478,116.5581,-3.5094,29.3786,-2.0269,-51.6933,-156.2288,6.3797,-46.2310,114.3310,66.5633,-113.3802,-24.3194,-43.9030,93.2318,-115.4428,104.2666
-2250.0000,-80.7616,-17.7304,27.8473,127.0224,110.8625,-9.1798,23.6781,-44.9058,-20.4428,-162.0824,0.2626,58.1547,71.7344,97.9317,-7.8699,6.9980,-14.9257,-17.5206,-121.1630,-14.2790
-2242.1875,106.0799,63.4179,-71.7479,-2.7041,12.2679,-34.7498,35.0838,-107.6801,27.9162,-150.8254,-25.7694,180.6404,10.2289,109.3954,-33.2607,18.4188,31.1481,-41.1702,-109.7664,-52.3443
-2234.3750,116.6825,39.3137,-97.6046,8.3141,-13.5844,-23.5700,46.2527,-59.7004,75.0290,-139.8161,-89.0667,117.8673,-15.5362,47.6114,15.1002,29.6077,6.9755,-30.0748,-27.6069,-37.2613
-2226.5625,-15.3173,47.6041,-89.0681,-54.2757,-42.0474,-14.9935,90.8281,-14.3156,120.5542,-21.3920,-116.9782,53.4903,-6.9102,56.2267,96.8710,74.2151,-19.7963,-127.5834,-19.0414,-136.6013
-2218.7500,-97.7248,71.4873,-99.9327,-65.2608,-89.9155,-25.8105,80.0078,48.6760,183.6893,41.6335,-92.2903,42.7074,-17.6912,8.4470,123.2415,63.4235,4.0307,-103.4797,-65.8833,-113.5894
-2210.9375,-78.5828,20.9277,-152.2371,-80.6955,-142.2320,-43.0682,26.7331,31.2237,203.3602,61.2055,0.9469,98.4793,-34.9191,-8.7826,106.1453,157.1898,58.4061,-152.8181,-81.1835,-170.5924
-2203.1250,-0.7564,-6.9142,-218.8354,-178.4266,-171.8396,-35.6285,-2.8387,1.4691,210.7280,68.4814,7.8677,105.9440,-27.4437,35.6838,113.7469,164.6709,65.4799,-145.4562,-2.7816,-170.2736
-2195.3125,-116.1358,19.0489,-190.6297,-117.3521,-107.6399,-7.3894,-11.6056,-7.4895,201.8985,22.5630,-38.4261,97.2031,0.8291,63.9365,105.1443,118.9571,21.3576,-85.2809,23.4206,-103.4268
-2187.5000,-152.8013,16.7111,-192.7304,-119.5706,-109.7437,27.5506,23.3293,64.2566,236.7724,-16.6488,-41.0213,95.1618,-1.2033,97.8882,103.2345,116.9413,-52.0670,-122.4022,21.3166,-138.6477
-2179.6875,14.8361,-61.3317,-199.5341,-91.4867,-80.5554,57.7905,53.5654,57.3070,118.9642,13.4375,-11.3102,52.4155,-7.9453,91.1343,60.6243,37.2308,-94.1906,-23.2133,14.5055,-35.1608
-2171.8750,70.2754,-39.5734,-176.5385,-34.6019,-20.5729,79.8368,39.6006,6.1560,-5.0393,-37.6757,-25.8013,38.4627,52.1014,41.1731,9.8194,59.3393,-73.5144,32.7766,0.4968,25.4402
-2164.0625,3.4176,-36.1168,-136.8541,-31.0339,20.1006,83.5783,6.3432,-27.2804,-1.3379,-71.0724,-59.5937,42.2159,55.8376,44.9052,13.7163,100.1674,-34.1450,1.4573,39.1986,-3.2913
-2156.2500,-86.5429,-55.7640,-84.2834,-14.5703,-0.3374,137.2163,-14.0094,-10.8088,52.2735,-91.5513,-116.4894,-15.1276,35.4685,24.5244,67.5234,43.9006,-17.8732,53.0376,90.8044,56.0807
-2148.4375,-163.5710,-27.4541,-17.7808,-22.1687,29.1627,92.8008,15.5961,18.6167,7.8592,-99.0822,-160.4350,14.4819,28.0515,54.0995,60.2902,36.5922,-61.6564,10.5596,189.3710,18.9827
-2140.6250,-176.6172,-5.1452,6.7106,-34.7764,53.6577,80.3879,76.2161,43.0412,-41.5394,-37.6044,-137.3889,2.0858,-21.3682,41.6794,-25.9383,24.2947,-74.4418,33.0870,211.9400,46.7637
-2132.8125,-42.2025,-45.3884,-35.3568,30.0626,11.5999,39.4187,71.2911,73.9171,-83.4935,31.3459,-69.8944,-39.8636,-63.3462,36.7087,-30.7177,19.4680,-79.7733,-6.9426,206.9520,4.7306
-2125.0000,27.3341,-10.5303,-72.3258,-40.0058,-25.3655,2.5386,35.4626,73.8899,-9.3580,104.4061,-70.2899,-39.7090,-100.2329,72.8406,-30.4067,55.7496,-43.9899,-77.8722,172.0565,-76.3297
-2117.1875,-7.9159,-45.4649,-35.0899,30.1319,11.8602,39.8577,35.8250,1.0617,-46.0191,31.6556,-143.4843,-76.3520,-62.9260,110.1734,-66.9031,56.2302,25.9995,28.4042,137.3592,37.5135
-2109.3750,-79.6203,-116.8490,38.6977,64.8115,48.6314,75.7303,-1.2676,-36.2092,-83.1228,31.4563,-180.1308,-76.4423,10.9250,147.0576,-66.8529,93.2752,25.5346,28.2259,101.2176,39.8035
-2101.5625,-155.7255,-87.6290,106.0828,24.0937,79.0056,70.1983,-6.7618,-41.8733,-88.6312,98.8656,-150.1908,-81.9339,42.3659,104.5349,-72.2070,87.9304,19.6724,22.6577,60.6813,33.8645
-2093.7500,-154.3137,20.1129,107.9684,60.8811,80.8739,72.1643,-4.7511,-77.0398,-12.6421,100.7782,-148.7615,-79.9318,44.2957,69.5080,-33.0709,-19.9135,-13.6845,24.5905,-7.3552,32.6993
-2085.9375,-83.0488,91.7124,109.7053,-7.4793,46.5871,0.9750,-2.8927,-112.3503,62.2063,65.5370,-111.4841,-41.0819,82.0613,35.3313,5.9098,19.0980,-47.1779,-8.6248,-76.5486,-12.7120
-2078.1250,17.1578,-53.7382,104.3929,57.1195,41.2444,-4.2626,-45.0796,-117.7131,21.0137,-12.7507,-6.2588,-83.2883,113.7623,30.0966,0.8382,14.0602,-52.7157,127.1257,-116.7885,124.4451
-2070.3125,-25.5296,-132.0935,97.1801,84.8226,69.9986,-11.3993,-52.1668,-50.9718,-60.0714,17.0636,59.0598,-90.3942,143.5589,22.9527,-43.1372,43.1295,-25.1560,83.9800,-88.9298,86.2726
-2062.5000,-100.6088,5.1522,56.5651,46.1173,66.3477,-51.9371,-18.6527,-54.6205,-63.5590,123.4857,91.9821,-56.9091,102.9569,-17.5906,-46.5262,3.8039,-29.0001,45.4400,-56.4671,44.2978
-2054.6875,-178.3860,32.6889,49.2451,73.7155,95.9966,-22.1711,47.1673,-98.9505,-33.7518,116.2123,84.2015,-27.1286,22.6536,-61.8361,20.3718,-3.2239,-36.5509,73.2065,-99.6923,74.6091
-2046.8750,-133.2332,8.1740,59.8659,14.2558,69.5988,-85.4515,57.9584,-125.3124,14.0110,89.8932,57.3681,-16.4027,33.2985,-14.1342,67.2180,117.6993,-61.1623,13.9219,-123.9558,6.6025
-2039.0625,-14.9888,-85.2311,72.5815,26.9035,46.2968,-35.6322,34.8549,-148.5753,-10.1169,29.6820,33.6283,-3.5736,46.0341,-1.3425,80.1658,93.7194,-48.6653,61.7327,-146.1189,55.3186
-2031.2500,69.2186,-70.6706,51.2445,41.4924,-13.0649,-20.8685,-24.3028,-133.9024,4.7047,-29.5809,83.8345,-25.7735,60.7167,13.3910,132.0593,71.7042,-34.2076,6.4877,-165.3365,-4.8026
-2023.4375,59.9838,-8.5573,5.4455,-2.3793,-58.8800,-66.5623,4.0875,-106.6839,33.0895,71.7070,74.5933,-34.4238,14.9485,-32.3275,160.5042,27.2475,26.8018,-2.2080,-139.9994,-15.2113
-2015.6250,78.6612,-24.5513,26.5354,51.6469,-0.8013,-45.3547,-11.6157,-48.5609,-56.6119,166.9118,-51.7444,-50.1967,-0.9272,-48.1511,70.8511,-25.3112,45.7064,52.0006,-85.7569,50.2994
-2007.8125,85.4448,-52.4404,106.7155,58.7686,43.3684,-38.0446,-4.2154,-4.3287,-86.2178,100.2380,-81.9734,-42.8797,-30.7172,-3.8788,5.2853,-17.7600,52.7223,24.3033,-78.4156,30.2739
-2000.0000,85.4868,17.9272,107.1535,59.1451,43.7735,-0.4839,-40.5792,-40.8470,-85.5839,27.8105,-44.9449,-42.3090,-67.2652,-3.3548,-31.0451,-53.9467,88.0090,94.8596,-77.8349,101.9040
-1992.1875,50.0779,52.8642,107.1472,94.0706,43.7190,-0.3712,-40.4018,-40.8182,-48.4016,-46.0771,-8.3650,-5.1793,-104.2738,-3.2857,-30.8315,-53.5743,87.8606,59.9669,-77.7100,67.7372
-1984.3750,21.7209,59.8623,77.1913,31.0402,50.7112,-30.2116,-33.1735,-33.7325,-41.1534,35.0890,-38.7423,-34.9996,-60.2368,3.8308,-60.5791,-9.1599,94.7650,32.1239,-34.5348,37.0047
-1976.5625,32.2332,-34.2911,52.0803,76.8633,61.5483,17.7965,-59.0884,-22.7918,-67.0527,46.1148,-28.2740,-97.9790,-12.3598,-22.2030,-49.4937,2.0984,70.5208,113.1401,-59.5076,120.4633
-1968.7500,-27.4351,46.3578,62.7681,87.4862,72.1804,28.5994,-48.1969,-49.0536,-129.1540,-54.0693,92.0055,-87.1598,35.3073,-11.4336,-1.6139,-23.8382,11.0818,88.9542,-83.6899,93.8226
-1960.9375,-54.2871,90.8169,108.2550,96.9130,44.6079,38.2012,-75.5104,-39.5258,-192.4648,-153.4632,175.0969,-40.5301,7.7687,-1.8723,-65.9438,-87.9735,90.4483,133.5813,-74.0813,143.7437
-1953.1250,-33.2688,41.1361,204.5950,153.2012,66.8886,60.6559,-89.9792,-17.1546,-280.9312,-132.0134,197.0428,-55.0478,-6.9216,20.5195,-189.4411,-65.2618,110.6665,119.0639,-88.6246,137.2157
-1945.3125,62.3608,67.0638,195.5368,108.0958,57.7713,14.7124,-98.8509,10.8204,-289.8127,-67.9632,187.5921,-26.9721,-16.0072,48.5059,-235.3536,-36.9548,101.4849,75.1507,-132.5676,86.9321
-1937.5000,131.2366,30.2492,156.7372,142.2458,55.9046,13.0234,-172.4725,9.0481,-254.4640,-69.6600,222.3942,-65.6581,-17.8428,46.7435,-163.0323,-112.3959,64.5563,144.4943,-134.2576,152.8849
-1929.6875,99.9590,0.2887,124.7849,111.2405,23.8889,18.1811,-131.2443,-22.8673,-175.2774,-101.4996,263.0493,-60.4943,24.1714,51.8399,-48.8772,-69.9851,34.4850,43.6835,-163.0909,44.5288
-1921.8750,64.2935,-0.0707,87.4303,40.8302,-13.5330,17.9436,-167.4199,-23.1751,-139.4912,-64.7359,262.3083,-23.7336,60.7746,51.5339,24.8618,-32.9799,69.0324,8.4725,-199.3208,0.9614
-1914.0625,110.1352,11.0733,98.5761,51.9248,-39.4589,29.2093,-156.1008,-48.9731,-128.2030,-53.4741,237.0736,24.5185,-2.1345,25.7166,-37.9090,-21.4703,115.0829,-15.2327,-188.0527,-21.1259
-1906.2500,96.6392,32.8645,84.3772,3.6646,-126.7451,-22.8745,-134.1362,-64.1218,-70.2736,-68.5591,147.5084,119.4133,-54.4008,47.5428,-16.0271,37.6905,207.7875,-99.2920,-130.1320,-108.3943
-1898.4375,40.5694,-23.9367,61.5670,17.8058,-149.6387,-45.5590,-119.7771,-85.8724,18.0538,-17.2344,124.3581,97.7115,-112.2831,98.7536,35.2445,52.2549,186.8991,-49.9493,-151.8213,-61.4299
-1890.6250,86.0793,-48.1732,-1.6966,-7.5052,-175.9897,-34.6983,-72.8740,-111.0793,102.9249,30.6417,171.7728,34.5667,-65.6159,35.5103,83.0477,63.3686,91.5638,-74.0584,-140.9746,-92.2543
-1882.8125,164.6580,-39.3489,-29.9064,-102.7612,-167.2984,-61.7887,-99.9274,-102.2470,111.8391,76.5570,180.2406,-30.5328,-20.8994,81.3167,91.8939,72.5233,100.2962,-99.1051,-167.0887,-125.0622
-1875.0000,120.5874,-48.1706,-1.7577,-77.6580,-139.2602,2.4704,-108.6329,-75.0785,66.1007,30.8082,134.0589,-2.2825,7.1673,109.4732,9.0912,64.0311,91.3823,-73.7999,-140.8556,-92.6134
-1867.1875,48.2139,-15.2776,-3.9167,-113.8571,-104.5258,-36.5795,-74.6336,-4.2134,64.0745,65.7599,95.5811,69.6671,4.9259,70.3293,6.9773,62.2453,54.1753,-75.7971,-142.9258,-93.3632
-1859.3750,79.7453,17.5192,-7.1718,-117.1544,-71.8909,-39.7262,-77.7368,-7.4474,97.9371,135.6198,18.0001,29.5240,-35.4272,-6.9148,40.7448,22.3503,15.8864,-43.8890,-76.1031,-59.2121
-1851.5625,13.0924,-49.8736,-3.6195,-79.6466,-68.4599,-36.0783,-38.0475,33.1265,137.5840,139.2753,21.2273,-40.8083,-31.9927,-40.3673,81.3045,63.2529,-51.5920,-40.1874,-37.4880,-50.9548
-1843.7500,-16.2335,-111.9523,-69.7600,-142.8376,-97.7327,-65.1395,5.9303,40.0003,181.5302,110.2304,27.7665,-33.8377,11.7335,3.4675,51.1485,143.4449,-44.7604,-33.1816,4.4154,-47.3619
-1835.9375,-16.1349,-77.6153,-105.5036,-142.6147,-97.6116,-64.8006,6.2977,40.2715,144.8732,73.5709,64.7232,-69.4672,11.8527,40.6910,14.3704,144.0235,-9.5209,2.2337,4.7158,-11.4019
-1828.1250,-16.4275,-7.6602,-69.6437,-177.7937,-97.8941,-100.8669,-30.7311,40.1428,108.8076,73.5103,27.2851,-33.5014,48.5792,77.5135,51.1765,144.1909,61.3216,-67.7537,-65.3845,-85.7809
-1820.3125,34.6275,-27.3556,-53.4341,-126.6247,-81.8224,-84.5804,-50.4062,20.3755,89.0949,90.8062,7.1945,-16.1945,28.6591,94.6773,68.3245,51.7009,76.5022,-17.3904,-119.1243,-33.7044
-1812.5000,108.4774,-58.2583,-49.4318,-53.6567,-41.9534,-80.4943,-9.2811,-12.5835,166.1935,20.9051,10.9022,-12.0917,32.5433,-12.3669,72.2609,19.0194,45.4829,-13.2293,-151.0565,-26.4063
-1804.6875,85.7443,-45.7575,-37.0330,-76.2935,-65.6909,-141.0127,40.2327,-0.1381,215.6875,33.4146,23.0237,37.4106,81.8161,-73.0192,47.5936,-5.2655,-13.1252,-35.6706,-102.5927,-50.0965
-1796.8750,13.9744,-47.2996,-38.6877,-42.9741,-31.4810,-142.5856,75.7003,-38.7425,177.1306,105.8805,-15.8950,35.8544,80.0277,-74.7298,8.8723,-6.6121,-49.7723,-2.1609,-35.1905,-12.4502
-1789.0625,-62.8819,-52.9302,-44.4493,-83.7627,-37.3772,-75.2702,70.0641,-7.4542,171.4769,136.2451,-94.8917,-6.8018,37.1368,-7.5442,40.0515,98.9531,-55.5189,-77.7606,30.1006,-86.6013
-1781.2500,-13.6097,-73.4496,-102.1217,-139.4588,-95.1868,-24.8546,47.5243,43.9308,185.9186,150.7085,-7.7698,-65.3581,-22.6605,6.7339,91.3233,76.6179,-6.1576,-97.2623,8.4842,-109.1469
-1773.4375,87.2328,-8.4158,-144.2440,-144.6022,-137.4489,7.1143,5.5299,38.8613,143.8891,109.7229,97.9157,-70.3655,-27.9112,-35.4425,123.1368,-2.1728,59.7643,-102.2133,-31.5907,-117.7323
-1765.6250,113.2709,88.8149,-116.1651,-153.5416,-146.5161,-38.7122,-3.2719,66.9926,99.0548,63.9320,51.8049,30.8272,-36.9597,-7.4105,114.1433,-47.7678,85.8942,-110.9661,-75.4654,-127.6738
-1757.8125,82.4614,93.2028,-75.9355,-44.3236,-105.4350,-34.3850,-35.9357,-2.7261,103.3724,-78.7193,18.8474,72.1657,-68.8607,-3.2287,81.2846,-79.2220,125.1889,-37.5677,-36.1869,-46.2277
-1750.0000,87.9725,133.9126,-70.4059,-38.8024,-100.0558,8.2378,-30.3043,-34.1527,71.9760,-109.0736,24.2043,114.8115,-63.4682,-34.7475,12.7064,-37.3857,130.7906,-66.8763,-30.6129,-74.7119
-1742.1875,121.5070,203.6360,-35.8770,-75.2749,-65.6752,43.8591,-31.6823,-35.5842,-3.4350,-38.4280,22.5791,39.4481,-101.0791,-36.2793,-97.8882,-38.5599,164.4023,-33.1740,-32.0476,-36.9160
-1734.3750,92.0597,173.3558,43.6529,-34.7359,-60.2953,86.4846,-62.0680,-30.0149,-34.8470,-32.7960,27.9698,-28.9263,-132.6914,-30.8146,-129.5010,-32.7353,170.0146,-27.4664,8.5109,-23.6345
-1726.5625,65.4256,76.8752,14.9832,-61.4004,-52.1206,57.9099,-53.6657,15.3626,10.5432,-24.3705,-0.8241,-20.5009,-87.5095,14.4541,-48.3364,12.8873,108.4342,-87.9618,16.8697,-88.0858
-1718.7500,111.6014,-52.7985,-10.8817,-15.2609,-77.1426,69.1390,-6.4672,-10.4590,-15.2753,-85.1470,-26.8136,-9.2711,-76.5448,-11.4691,-1.3938,24.2967,84.6575,27.3473,28.0289,30.8463
-1710.9375,81.9850,-12.2639,-41.5405,61.0840,-71.9679,74.5694,35.9288,-77.0784,-45.9011,-190.7282,15.3986,33.1642,-71.3879,-78.1943,3.7435,66.8982,55.0748,68.8585,33.3860,73.7951
-1703.1250,43.7276,90.6188,28.1500,92.7819,-75.4491,34.3560,-4.3268,-80.3368,-159.1794,-156.9592,85.9638,66.9445,-74.8801,-118.5818,-71.7731,-10.1572,51.8370,100.7226,101.0922,109.6550
-1695.3125,34.9763,81.9931,93.3407,153.9871,-12.4317,25.6456,-49.0793,-89.0955,-204.9709,-91.6972,77.0484,95.2286,-83.8664,-164.4770,-117.8082,-127.7190,78.1062,127.0906,127.2906,143.3344
-1687.5000,145.5384,122.6738,98.8314,89.4923,29.8844,-41.7694,-43.5368,-83.5546,-199.4795,-123.1422,45.4526,137.8124,-78.5429,-159.0721,-149.5499,-121.9910,48.6824,62.7547,167.7777,75.1612
-1679.6875,143.8663,86.1096,97.0750,87.7539,64.9563,-43.4399,-9.2499,-49.2766,-201.2401,-87.8336,-30.3784,136.1410,-44.4721,-160.9258,-188.5488,-123.5240,-23.9858,96.1711,201.0026,111.7973
-1671.8750,108.7101,51.0470,133.8138,87.5223,101.5264,-43.6233,-9.4724,23.5002,-201.5061,-88.0170,-30.6941,98.9646,-44.8956,-198.2878,-189.0463,-86.5603,-24.1518,61.0793,200.7193,81.8083
-1664.0625,108.6634,51.0977,59.6411,16.3871,101.1956,-79.7189,27.4004,60.3727,-164.6808,-52.1035,-30.9013,61.8922,-45.2048,-161.5571,-152.4568,-50.4911,-24.2077,25.0834,200.5322,40.6801
-1656.2500,43.9162,-49.5483,64.7693,21.5533,69.1612,-2.5141,32.5734,28.5381,-49.5593,-46.9036,-61.7951,-6.8753,-40.2102,-119.5248,-110.5754,-45.1233,-18.9558,66.3808,170.6386,82.8948
-1648.4375,-55.0101,-7.3845,34.6940,-6.4873,75.9226,4.4864,39.5380,-1.5042,30.3578,-3.9063,-54.8723,-35.8387,-33.4162,-75.6955,-66.9025,-37.9579,-11.8971,2.4705,142.5381,13.8728
-1640.6250,-63.9703,18.7344,25.5639,19.4258,66.6330,-40.5643,-6.5527,26.4066,58.2234,98.0373,-27.9956,-44.8567,-78.6775,-84.9201,-76.2928,-46.8497,-20.8863,28.5129,98.3908,36.6352
-1632.8125,36.7234,-21.4927,57.0861,49.9880,23.9953,-45.9672,-47.9958,-16.0269,15.7368,55.6302,40.5384,22.7776,-84.2870,-90.5033,-46.0389,-16.0959,-26.2243,-11.8041,57.8884,-8.8863
-1625.0000,94.3216,1.1847,7.5072,-33.5463,-25.7436,-58.4756,-24.5406,8.4345,-33.8593,6.1229,27.9841,84.3185,-24.9980,-31.1903,51.1059,-28.4536,-3.6533,-59.2189,9.2816,-64.3667
-1617.1875,17.2392,30.1739,-36.7730,-5.7772,-33.1836,-29.6893,5.2090,38.1909,-77.1607,-1.0924,20.7377,77.1660,4.5861,-38.5812,43.5421,-71.5151,60.2228,3.6574,-33.0294,3.0934
-1609.3750,-46.5277,72.4712,-29.7619,1.2850,10.6681,-22.6118,12.2494,8.2502,-34.1592,5.9963,64.8073,47.3127,48.4618,-103.6754,-23.7221,8.7197,32.4044,-24.1750,-61.0406,-25.8765
-1601.5625,-44.4327,74.6192,9.0909,39.1976,49.3656,-20.6852,-22.8689,-26.8373,4.6951,44.9388,66.7431,12.3009,50.1796,-101.9266,-131.1403,-26.2029,-1.5587,48.8416,-59.2016,49.3544
-1593.7500,-53.2731,30.8171,110.9845,135.1564,114.1123,44.2858,-31.9390,-35.8686,-4.3985,-38.0659,57.7402,3.3379,40.9467,-111.1353,-177.5205,-107.0836,-45.4637,109.9026,-68.3133,121.8155
-1585.9375,19.7545,32.8684,112.7267,66.9727,151.7082,83.1091,-30.1608,2.9524,-75.6513,-72.2176,-14.4053,5.2159,42.5632,-73.4976,-176.0664,-105.1339,-43.5145,76.8191,-31.5793,90.8281
-1578.1250,37.2387,15.3692,94.9251,84.2536,133.7534,138.3883,-10.9420,22.2216,-166.4634,-53.9359,-69.0893,-12.4572,24.6332,-55.4171,-194.1658,-122.7461,-26.1148,129.1870,21.6041,149.4530
-1570.3125,-69.2737,-21.1226,94.1223,48.5348,169.7986,137.6660,-11.7282,58.4933,-130.2800,-54.6661,-69.7538,23.8651,60.7071,-19.3394,-121.2681,-87.3581,-61.7144,23.5456,20.7803,41.1792
-1562.5000,-165.4300,-47.2619,65.6711,-13.8235,141.1891,146.2914,33.8259,67.1130,-12.7557,-46.0514,-97.0500,-4.4642,106.1303,-10.9153,-41.0316,-78.6284,-121.9532,32.2588,29.2985,46.1133
-1554.6875,-138.2695,-91.0952,19.5175,13.1210,95.8788,137.2181,-12.3218,95.0267,52.0597,-55.1456,-33.0395,-50.4911,59.8492,-20.1870,23.4940,-51.6034,-130.8851,23.2690,55.1087,33.9635
-1546.8750,-74.3431,-61.1735,-22.8855,-28.1822,53.3209,58.8954,-17.7258,89.6839,46.6232,-23.4956,72.7270,-18.7705,54.3130,11.2947,17.7585,-56.8376,-136.0575,-17.9709,49.6606,-16.7972
-1539.0625,-37.0654,-58.9037,-20.9335,9.8786,55.1162,97.9278,21.2185,54.6853,-25.4681,-58.5083,74.8500,-16.7055,56.1306,-23.8771,19.3707,-90.7302,-133.8774,20.1432,51.5514,25.6242
-1531.2500,10.1112,-82.7348,-47.0754,-15.1568,65.8158,71.8585,32.0545,65.5859,-14.6706,-83.6363,48.8845,-5.7371,103.8569,-50.1473,29.8743,-43.7265,-158.7937,-4.8413,62.3361,-2.0318
-1523.4375,6.7003,-51.1604,-86.8164,-53.7819,61.9189,31.1905,28.2854,61.8810,55.5150,-14.3765,82.3296,-9.3702,62.9872,-54.0169,-11.2350,-10.3386,-162.3075,-43.4184,93.5139,-45.6699
-1515.6250,-12.7403,-35.6337,-70.6059,-2.4462,78.9725,48.4706,45.4581,42.1215,35.6437,39.8220,62.7436,-29.0541,6.0684,-73.9426,-31.3983,-67.0159,-145.8757,7.9516,108.6395,11.6507
-1507.8125,24.4344,-33.5023,-104.8024,-36.5079,43.6255,13.3477,84.2258,43.9604,0.3685,4.6199,64.7750,46.8563,44.7458,-72.2753,7.0414,-65.1051,-109.8456,-26.0824,75.3659,-26.6218
-1500.0000,-17.3832,-4.3770,-112.0057,-7.5633,36.2784,43.2260,112.9849,36.8018,-43.9062,-76.5863,93.8089,2.7614,74.4276,-42.6144,-0.5229,-72.1981,-46.8132,37.8837,-1.9031,40.6994
-1492.1875,93.8965,36.8427,-70.1112,33.4774,42.0360,49.1985,45.8479,5.7502,-38.0795,-106.6883,99.9496,-65.2380,43.2109,-73.8552,5.0097,-66.1942,-40.6819,43.9356,-32.0667,45.9577
-1484.3750,165.4316,72.3078,-32.9759,-1.2347,42.0414,12.4200,8.9620,5.9489,-75.0082,-33.5351,100.3519,-64.9947,6.2427,-36.8466,-69.2054,-101.9464,-4.3043,44.2391,-31.9775,44.9094
-1476.5625,124.1819,31.9745,-1.6506,28.2495,73.2477,6.8432,3.2724,0.3469,-152.7429,-2.1856,131.9646,-33.5597,0.4762,-42.6393,-111.2190,-107.4939,-9.7315,73.7321,-1.6865,78.8180
-1468.7500,66.8902,44.5819,47.6152,-30.3233,48.4014,-17.7853,15.5332,12.7020,-177.5254,-26.8855,107.5417,52.8212,-24.3420,-30.4830,-63.2804,14.9018,2.7940,-54.8352,10.5568,-52.5853
-1460.9375,13.4558,26.0373,26.7251,-84.0384,-9.5973,-74.5657,-5.3592,28.9066,-88.4595,26.2610,50.9790,69.0519,-45.3081,-14.4815,-47.4933,68.1293,54.1757,-38.5516,26.6487,-40.4961
-1453.1250,13.8736,26.3500,26.6818,-48.9045,-9.7421,-74.5071,-5.4026,-8.0371,-15.5465,63.2567,14.2711,69.1348,-81.4194,-14.6322,-83.8587,68.2029,54.4081,-38.4299,26.5914,-40.3860
-1445.3125,176.2402,152.6132,-24.4221,-62.8210,-23.9361,-88.5049,-19.4960,-59.0281,-66.6776,49.2061,74.5185,165.1666,-95.5791,8.1620,-134.2793,-19.7768,75.5920,-52.3617,-58.5139,-63.6339
-1437.5000,264.0588,276.3224,-5.0791,-9.2848,-4.6796,-33.0557,-74.1399,-76.5710,-156.3534,-42.3952,57.2167,184.6506,-186.2914,64.4009,-152.2513,-146.3064,93.2264,36.1522,-76.1678,29.1548
-1429.6875,260.7870,237.9428,-8.8424,22.1510,-45.5221,0.2872,-77.8874,-6.2151,-160.1273,-119.0931,16.8163,144.0372,-153.1095,96.5390,-120.3239,-77.9507,89.7654,-2.4413,-79.9233,-6.9050
-1421.8750,175.9226,187.9650,-26.2062,6.9960,-98.9611,20.0301,-58.2400,87.5343,-104.5042,-99.3927,-37.1767,53.8173,-133.5270,80.0749,-100.9980,-58.2108,109.7074,52.3673,-60.2817,53.2263
-1414.0625,123.6566,170.5798,-44.9685,25.4447,-80.7985,1.3631,-39.9953,105.8830,-50.2820,-45.0958,-55.5529,-1.8034,-79.3378,-12.7893,-119.0713,-75.8693,128.2430,35.7651,-7.0409,40.7174
-1406.2500,7.7322,125.5380,-56.3823,-20.7561,-92.2911,-10.9550,-15.4066,130.5782,11.3020,-20.4555,-66.5695,22.9219,-54.7950,11.6974,-94.7888,-15.1830,83.1303,-45.4824,53.5465,-42.5916
-1398.4375,-51.1885,30.5019,-81.7923,-9.9438,-118.7832,-0.2728,-40.8217,141.2678,58.8875,27.1763,-128.5829,-3.3550,-80.2586,22.1789,-48.5026,32.4882,94.0205,0.2724,99.1283,4.5976
-1390.6250,-19.7482,-8.1789,-122.8565,-13.7761,-85.9248,-40.2440,-8.8908,137.3055,54.8212,97.1535,-132.2393,-7.2842,-48.3744,18.0056,20.1341,65.5062,19.2635,-38.6317,60.0584,-40.2761
-1382.8125,17.4525,28.8768,-121.1709,-46.8529,-84.3198,-74.4651,29.7827,102.0951,19.5030,135.8877,-93.1316,-5.4735,-46.7385,56.5814,21.5213,-6.7328,57.2479,-36.7837,-9.2628,-41.7671
-1375.0000,-22.3394,23.9277,-53.4923,18.0691,-53.7129,-7.6888,24.4538,59.8839,-22.8155,93.6223,-26.0127,-10.6677,-52.0921,88.1576,-57.0929,-47.9738,16.2247,28.0526,-49.5805,28.4306
-1367.1875,-18.5259,63.5830,-50.2184,-13.4079,-50.5019,-4.3207,-9.2754,63.2665,17.4603,22.9556,14.7114,-43.2570,-48.8369,128.3404,-90.1063,28.3700,-15.1967,-38.5171,-11.3038,-41.6521
-1359.3750,-19.6575,26.2922,-15.8954,20.1734,-52.2368,-5.8991,-46.9622,24.6929,52.7806,21.3262,-23.5133,-80.7876,-86.5345,89.5720,-56.0645,63.7529,-16.5626,29.9612,22.0178,29.0638
-1351.5625,-56.0359,-10.2499,19.1788,54.4966,-54.2270,-7.7335,-48.9041,-14.1267,13.8481,19.4365,-24.9809,-10.5654,-88.4787,50.5550,14.7311,24.8889,-18.1750,-6.8218,91.0939,-5.0804
-1343.7500,-116.7722,-36.1470,-9.0994,-7.5306,-45.5643,1.0800,-4.1933,-41.2963,22.5747,28.1948,-51.7955,35.3023,-79.7730,59.1857,60.1775,-3.3334,-9.1376,2.0454,134.8250,3.4553
-1335.9375,-108.7595,-28.2994,-37.6340,35.1952,-74.1527,8.6414,3.2663,-33.7159,30.0602,-37.2953,-116.8613,5.9151,-36.3176,29.5679,67.3821,-31.8064,33.6494,44.6551,177.3033,50.7354
-1328.1250,-27.5341,17.7492,-26.9798,11.1159,-100.5429,-16.6003,13.9241,13.0637,40.7463,9.4156,-142.7215,-19.2738,-25.6671,3.1588,77.7986,-21.0806,9.6350,-84.5471,187.9749,-81.4396
-1320.3125,-45.6014,34.4974,-81.6300,-7.2588,-82.2322,-35.1464,106.2788,68.5411,59.1280,101.8146,-123.8779,-73.7618,-44.3148,-15.5468,58.9181,-75.6574,-43.6785,-67.0513,204.3458,-61.9139
-1312.5000,-119.0671,-39.1416,-85.6824,59.9621,-14.3184,-3.1023,139.2329,101.6187,55.1041,23.8082,-90.4283,-77.6429,-12.3584,-19.6543,54.6395,-43.6383,-117.3928,-70.9665,200.3149,-59.9171
-1304.6875,-150.2909,-35.5281,-82.4815,27.4375,62.8541,0.1875,178.4342,104.9403,58.3264,-9.9482,-86.7216,-74.2735,64.8574,-52.5155,20.6070,-40.3829,-113.8565,-67.6302,133.5338,-55.4605
-1296.8750,-56.8615,-12.2690,-94.6309,121.5678,50.6819,25.1236,93.2835,55.9104,46.1920,-22.0578,-26.3615,-123.2567,52.7256,-64.7184,-28.7784,-52.4789,-55.6729,-10.6492,51.4030,-0.0201
-1289.0625,10.0792,19.4795,-26.2831,118.1966,47.0083,58.5570,15.6281,-21.6199,42.5598,-25.6806,7.4990,-89.7377,49.0970,-32.4117,-32.6575,-56.0789,-58.9910,-49.1724,-23.2262,-45.1127
-1281.2500,-24.6808,-15.4795,10.3652,83.1344,46.6332,58.2949,15.2677,-57.8549,42.2259,-98.0094,-29.3370,-89.9248,122.7675,41.1964,-33.2266,-92.3873,-24.0041,20.6069,-23.5579,25.8182
-1273.4375,-33.5378,-59.5385,-36.0896,108.9739,74.1569,85.9258,42.8026,-103.1904,69.7907,-107.4399,-74.2620,-63.2136,149.3412,31.7063,31.1187,-65.7957,-68.1267,11.2742,-32.9915,14.3931
-1265.6250,-42.3964,-33.6054,-45.5479,64.8144,101.6865,39.5494,33.3365,-76.5230,60.3576,-44.8685,-10.1807,-36.5125,139.9215,59.2138,58.4701,-75.2085,-77.2557,-68.0598,-77.4202,-70.9891
-1257.8125,-121.9709,-79.3835,-19.7050,123.9604,126.5229,102.4664,-14.8260,-51.5561,49.2238,-55.9984,16.2034,-83.5128,128.8089,85.0160,47.1250,-86.3209,-88.0830,-9.0945,-88.5468,-6.1009
-1250.0000,-152.3969,-108.0119,-14.7152,94.2575,95.5118,70.5303,27.1571,-9.4438,54.2391,-50.9759,-52.2604,-78.3572,133.8493,52.9743,88.9256,28.7092,-82.7554,-73.9876,-48.5216,-70.3121
-1242.1875,-124.9648,-12.7846,-23.8758,-20.5880,86.3559,24.4475,54.9807,-18.4873,82.0987,-23.1102,-132.8738,-51.3587,124.7376,6.7915,189.5787,19.5767,-91.5817,-83.0256,-22.6457,-85.3932
-1234.3750,-201.0313,17.9348,-102.5431,10.0637,43.7066,18.8616,86.3081,-24.0275,186.4656,-65.7571,-174.9856,-56.8618,119.1291,1.1151,293.7438,13.9412,-96.9180,-88.5756,7.7361,-92.8349
-1226.5625,-258.4069,-40.6607,-126.5162,-13.5865,-18.2433,-6.0269,98.3400,-48.8637,308.5485,-53.7044,-162.3995,-7.6660,131.2242,50.1418,305.6178,62.9994,-118.5562,-110.4297,-16.1794,-122.1456
-1218.7500,-189.5822,-111.0610,-92.2926,55.9672,-19.9911,29.2846,59.5711,-86.5052,270.8225,-91.4532,-54.6053,-46.2726,129.5295,85.3629,193.6956,61.2581,-85.9977,-43.0890,-87.8897,-52.4371
-1210.9375,-9.8598,-72.5614,-52.1707,60.4187,-52.8354,-3.5142,-10.2971,-118.2467,163.9897,-87.3021,61.0898,-77.9725,97.7421,52.4836,160.6790,28.4186,-11.5411,-38.8596,-117.6972,-51.0255
-1203.1250,10.4590,-18.4627,-31.4475,44.4782,-32.0809,-56.7164,-63.5655,-98.3930,74.7569,-30.5518,118.3849,-94.0706,117.5534,36.2034,144.2712,12.1608,8.5200,-20.0275,-133.9026,-34.2189
-1195.3125,-3.7223,-67.8616,-9.2230,65.0380,27.1802,39.5780,-4.3340,-113.0401,-13.9718,-82.3062,104.1793,-108.6708,102.8672,58.4224,129.3683,-2.6035,-5.9221,1.2962,-114.6059,-3.5555
-1187.5000,59.4419,-39.9123,-16.6514,22.9402,19.7936,32.2148,25.2509,-120.3347,-21.3466,-125.7078,61.3226,-79.9274,95.5332,87.0019,121.8164,63.9872,-13.0176,-42.0388,-121.9539,-50.1715
-1179.6875,58.2973,-41.2800,-18.3868,56.5418,55.1129,30.5512,23.5311,-157.9272,86.9859,-127.4032,-13.8324,-81.4868,57.9009,85.2876,82.9768,-11.7214,20.5829,27.3208,-123.6005,22.7510
-1171.8750,-24.2086,-54.0057,-31.4815,43.7871,78.0856,17.5311,47.4622,-134.8663,147.9851,-67.4370,-100.3421,-57.4013,80.9218,36.2273,106.8052,12.2222,-27.1764,14.3229,-66.5979,10.8419
-1164.0625,-126.4698,-85.4908,-28.3248,12.2891,81.3105,-53.2392,123.6427,-95.5571,114.2417,9.7777,-59.6083,-54.0723,121.1943,2.4157,72.8960,52.4052,-59.6894,-17.4153,7.6563,-18.6192
-1156.2500,-158.3862,-118.6273,10.1876,49.1520,82.8918,-51.6631,88.1732,-93.9032,5.8486,-25.6622,-20.5306,-15.3875,159.8229,3.9574,38.3423,89.9359,-21.8630,19.1879,-25.7409,20.8068
-1148.4375,-59.0552,-17.5128,4.9469,44.2560,77.7286,-56.8379,46.9567,-99.0017,-110.2874,-67.8501,-25.2067,53.5441,154.7063,35.7515,33.0432,84.7136,8.2093,-20.9647,-66.8832,-23.5065
-1140.6250,11.7162,52.0462,79.1542,78.8131,116.0218,-55.5625,47.1901,-97.6477,-181.9691,-140.5925,-23.4320,53.9159,82.0415,72.9989,-39.8003,-24.0647,7.7322,83.3318,-66.5698,88.6274
-1132.8125,38.1298,8.2439,107.0114,176.0176,143.9653,9.3570,2.0753,-106.6398,-227.0023,-185.6916,4.9909,81.9373,73.0301,63.9053,-122.9785,-70.1894,-1.0965,74.2715,-5.6025,87.2350
-1125.0000,50.9947,-85.1211,119.3169,82.6787,82.3615,-15.2695,-22.5895,16.8166,-214.5926,-137.3449,53.8639,57.4029,48.4665,113.2653,-147.6971,-57.8735,-23.4709,-18.3322,147.8170,-4.7217
-1117.1875,-52.1944,-118.5390,83.5736,14.2987,46.7167,-13.9472,15.6947,91.2238,-104.2292,-25.0497,19.6813,22.8154,13.8532,40.5776,-109.4571,-56.6145,-21.8999,-16.9884,219.1837,-1.4055
-1109.3750,-88.3365,-118.9012,9.8827,-92.0363,46.1246,-88.5749,88.0252,127.6757,6.1931,121.2993,-17.4596,-14.7239,13.2916,-33.0565,-36.1573,52.6931,-57.2821,-123.5992,253.5954,-115.9414
-1101.5625,-110.5309,-175.3176,-51.8546,-149.4138,22.4825,-113.2590,63.3033,177.0695,91.5755,280.5994,-41.6617,-113.3138,-11.3173,-57.7434,49.1035,101.9466,-80.7125,-111.2595,265.9571,-109.0975
-1093.7500,-21.1395,-298.1395,-33.9928,-96.1961,-33.5565,-131.3544,45.1821,195.0620,72.5708,298.4958,-23.2649,-131.2976,-30.3247,-39.8261,103.9744,82.8144,-97.5496,-93.3315,248.9251,-91.1052
-1085.9375,-14.1153,-326.3231,9.5153,-158.3360,-63.9454,-160.8021,51.7202,201.7118,79.2261,232.0434,20.7776,-88.6398,13.3204,-33.2538,147.5102,126.3282,-90.7387,-121.7566,185.5542,-124.3740
-1078.1250,-54.7511,-261.1573,41.3661,-94.1263,-68.9803,-129.9062,46.6135,122.7146,74.2375,189.9460,16.1654,-56.6365,8.3138,-38.3302,105.4069,121.1916,-60.5797,-56.8386,109.5402,-58.3179
-1070.3125,-76.1860,-107.7923,19.4136,-115.7280,-53.8190,-115.8166,60.7042,100.9168,89.4549,205.0499,-5.2480,-41.4300,23.5093,-60.1977,83.5182,136.2548,-46.2226,-113.7310,52.7296,-119.5415
-1062.5000,-117.8207,-8.6395,-24.7424,-157.5304,-23.8577,-122.9296,90.5921,130.9177,82.4781,233.9547,-48.8634,-48.4207,52.5064,-67.2528,39.4398,55.1213,16.9248,-85.8266,45.7182,-89.4526
-1054.6875,-131.8022,-22.8417,-39.2521,-101.6913,-1.2431,-100.3957,113.1307,116.5634,31.1608,219.5099,-62.8315,-25.7590,38.1547,-44.6537,25.0291,-32.3555,37.7161,-29.2867,66.3557,-26.7821
-1046.8750,-27.4956,10.2548,-41.4650,-103.5643,-40.3210,-65.5685,110.9700,114.5076,29.1567,144.3773,9.4933,45.2012,0.1039,-9.7504,-13.0640,-34.5334,0.8052,-66.4537,-5.7079,-69.1803
-1039.0625,70.9426,-66.5028,24.4737,-39.2838,-47.2447,1.4105,29.9609,107.5895,22.3126,63.3997,38.9578,2.3069,-43.7874,19.3042,-57.0006,-41.5613,29.0502,31.5271,-82.6217,32.9986
-1031.2500,39.8644,-62.7662,64.9162,-0.5054,-43.6698,4.8857,-2.5483,74.1692,-47.0231,29.9181,6.9138,-31.0858,-40.1753,22.8699,19.5793,34.9089,32.7959,35.0079,-79.0372,37.6540
-1023.4375,-26.2696,-24.0857,68.3122,3.2317,32.8575,44.3185,0.8920,40.6963,-6.4081,33.3743,-26.1892,-64.5310,-36.6101,26.3965,23.1136,2.3194,1.4882,73.4492,-111.5010,77.6893
-1015.6250,-57.4072,-55.4050,71.7108,41.9759,36.3937,84.7574,4.3384,44.2273,-2.8017,0.8250,14.7011,-60.9761,-33.0434,-6.0716,26.6395,-68.2731,40.1760,76.8850,-107.9573,86.3657
-1007.8125,14.4039,-89.7718,36.0646,-26.3316,1.8834,86.1509,-68.2645,82.7107,-1.2468,38.2230,89.5368,-22.4726,-68.5304,-4.5931,65.1173,7.0798,41.8156,8.2717,-141.4609,8.0900
-1000.0000,81.4031,-56.9428,-3.3717,-64.4329,-1.4187,45.7422,-108.6698,79.3895,-41.4928,71.8191,86.5644,-62.7694,-108.8205,-7.9174,61.8057,76.6331,73.6578,39.8637,-109.7648,35.9804
-992.1875,49.9980,-53.5173,-0.2016,-60.9315,37.8838,48.9240,-68.4769,82.6639,-38.1312,2.0215,90.1842,-59.4663,-68.5135,-4.6360,28.1086,116.7870,7.0957,8.0504,-70.4722,6.0765
-984.3750,-5.5595,-75.2505,-23.1805,-82.5790,52.0431,-10.0437,-54.4376,59.7864,49.0939,89.0783,31.6441,-8.3188,-54.3573,9.5029,42.2704,130.7822,-13.6185,-47.9125,-56.3275,-54.9214
-976.5625,-47.6292,-117.4946,-30.6566,-53.7315,8.7069,-17.5131,-24.8965,16.4082,41.8223,155.6372,-49.4009,21.3248,-61.7006,38.1549,71.9462,123.2858,14.1629,14.6157,-63.6791,8.2186
-968.7500,18.9820,-86.0380,2.5668,-57.1996,5.0716,-21.2876,-28.6531,-24.2701,-34.7415,151.8950,-52.7508,53.6764,-28.3431,71.5123,68.3361,119.4979,-24.3557,-24.1609,-67.3268,-33.9072
-960.9375,-6.4645,-5.6338,11.7365,-47.7142,-22.6123,-12.1204,-56.4571,-51.9981,-62.3394,124.1096,-6.1667,26.9750,17.9577,43.8179,77.6905,54.6574,-14.9198,20.0086,-58.0164,9.8799
-953.1250,-64.4727,7.2179,60.3564,0.2131,-9.8487,0.4807,-80.8124,-76.2762,-123.4679,62.7847,43.8545,39.7243,66.7093,20.5753,90.5166,67.2794,-2.0373,-2.3833,-81.2519,-10.3082
-945.3125,50.7035,51.2594,33.1767,-61.6677,36.1163,-64.7187,-108.9654,-67.3545,-150.3812,71.6701,53.0665,84.6700,112.6612,-7.4656,99.5597,76.1060,-27.9580,-28.5755,-142.2874,-45.2981
-937.5000,135.3745,64.7869,11.5044,-12.0499,50.5857,-49.4155,-93.6208,-88.9339,-98.7916,14.0572,31.7683,100.1157,91.1164,8.0061,78.1075,-18.5638,-49.3824,19.7314,-163.8236,4.1732
-929.6875,68.1820,33.4681,50.9891,26.7120,54.2125,-45.9604,-90.1215,-122.3688,-58.0499,17.5952,-1.3913,103.7182,57.7239,47.6355,44.8053,21.9115,-45.6538,-11.8131,-125.2111,-24.2039
-921.8750,-36.8246,-36.6474,50.6801,26.6820,18.0540,-46.3040,-127.4183,-122.6136,-21.1064,53.3258,-1.3668,140.5269,21.5290,84.4720,81.7023,-15.4225,24.2773,57.8514,-125.3968,46.6320
-914.0625,3.8679,38.9387,56.0761,67.3511,-50.3994,-40.9516,-158.0090,-153.1623,-15.4628,-14.2601,41.3516,183.0399,-9.9663,53.0098,124.3123,-10.0479,64.9059,28.2087,-188.8823,12.8897
-906.2500,9.4066,114.3740,25.3204,2.8703,-45.0045,-35.7522,-152.7503,-147.8675,27.0361,-83.0033,82.9067,188.4007,-4.6112,95.4040,92.7820,-4.8218,70.3907,-1.5751,-219.5128,-21.6563
-898.4375,11.6404,81.5037,27.2738,40.0959,-42.9046,3.1510,-150.7972,-145.8765,-7.7647,-118.0472,85.1511,79.4582,34.4391,97.5031,57.9524,-2.8990,72.5841,70.3414,-181.4360,56.5475
-890.6250,-28.8385,40.9318,57.5364,34.6127,-11.5034,-2.6458,-83.5458,-78.5815,-50.2614,-123.7804,6.6925,37.8125,28.7844,91.9034,89.4235,64.3242,32.0862,29.5510,-118.0519,23.2454
-882.8125,0.9725,35.6606,16.1030,-5.5731,-53.7985,28.8561,-88.9935,-9.9878,-55.4512,-129.2041,1.5289,32.4662,-13.5766,86.6033,84.2014,58.8425,61.8883,59.0638,-88.3656,54.3374
-875.0000,62.5823,97.1881,7.4716,56.0364,-62.2882,56.1545,-134.6388,-18.5939,-63.8326,-137.8324,30.1501,23.9286,-96.1350,78.1122,2.7874,50.1577,124.4849,50.3702,-96.8756,47.9076
-867.1875,106.3354,105.8631,15.9948,-40.2066,-90.6203,64.5982,-198.1294,-10.0512,-18.0571,-55.3091,111.9084,32.5441,-124.5424,86.7746,-25.4743,95.6181,97.2285,-46.1662,-88.2335,-58.0491
-859.3750,40.1214,109.5751,19.5810,-36.3905,-86.8980,68.0955,-194.5724,-43.4591,-14.2318,-51.7372,115.7116,-0.7979,-120.9025,90.4830,15.3247,62.1321,101.0235,27.3551,-84.5350,16.7280
-851.5625,7.0918,111.4798,94.3741,35.6212,-84.9737,69.7942,-156.8164,-115.6623,-49.2012,-86.9614,80.7072,38.0578,-82.0639,92.3970,17.3391,27.8472,68.0141,29.0747,-82.6323,22.3168
-843.7500,7.1597,111.4793,94.2684,35.7303,-84.9416,69.6003,-120.9593,-115.7627,-49.0595,-87.0799,7.7742,74.0096,-45.1287,92.4183,-19.5411,27.6576,33.0990,28.9021,-46.6238,23.6993
-835.9375,23.6674,-12.0766,73.6141,52.2869,-68.4518,122.8596,-67.6474,-99.4143,-32.4532,-107.7428,-49.7341,17.4112,-65.7434,35.8965,-39.9623,43.9207,49.6317,115.1721,4.8402,119.8235
-828.1250,-2.7888,-39.5797,46.0116,-9.1128,-96.9118,94.1649,-59.2767,-17.0170,13.2142,-99.3423,-4.2057,25.8590,-94.3119,44.4278,42.6638,88.2327,-11.7761,18.4930,48.3600,18.6396
-820.3125,-46.1584,-10.9837,1.5191,-16.4072,-30.2676,50.5664,7.1950,-24.5204,42.9889,4.1639,-11.5828,-55.5965,-101.7842,0.0547,108.3909,44.6440,-55.0780,45.9185,40.9784,45.9126
-812.5000,-118.1357,-12.9938,-0.5654,16.6905,-32.2173,48.3625,42.0698,-26.6265,114.1726,75.0700,-50.5677,-57.6574,-139.8587,-38.9095,143.5284,42.4639,-56.9792,8.7397,38.9973,10.4025
-804.6875,-44.3223,-9.2075,3.1529,-14.4174,-28.3663,-22.0404,45.7498,-22.9290,118.1679,78.7821,-46.7660,-16.9172,-100.1409,-72.0703,73.4744,46.0791,-17.0775,12.3592,7.8224,11.4090
-796.8750,97.3768,26.4851,40.7730,56.3681,-27.6079,15.4526,9.3376,-22.3291,-27.9228,43.4028,-9.0831,-16.2695,-99.5322,-71.3292,-35.6766,-64.4118,18.7298,82.8757,-26.4474,88.0055
-789.0625,170.2625,-6.6189,5.5956,58.3474,-25.6496,17.1463,11.1260,-57.5265,-25.8031,-65.7714,-7.2145,22.5860,-60.7284,-32.3857,-70.6245,-25.7043,20.7471,49.5937,10.4809,52.5898
-781.2500,106.3968,-35.4758,-61.3239,30.5829,-18.4361,24.0957,18.1583,-50.4774,55.5707,-131.6970,-37.1052,29.6890,-53.6746,48.8074,-100.3220,18.2527,28.0182,56.5684,52.6549,58.5493
-773.4375,76.6762,-30.1777,-93.0854,0.9598,-13.0711,29.1933,-13.6610,-45.2778,24.1026,-90.4699,5.1446,71.9436,-48.4708,-19.8497,-57.8656,60.3631,33.4397,-8.3113,92.9823,-9.4647
-765.6250,44.7925,78.9710,-89.9935,-135.8189,-46.8516,-41.8615,-47.6331,31.7752,64.4993,-13.3834,82.2300,111.0489,-45.4223,-53.6545,-17.5528,63.3217,1.7072,-76.3347,61.1657,-88.5799
-757.8125,2.6568,106.8665,-60.1481,-108.8496,-90.8777,-49.1608,-17.8540,24.5741,93.6569,16.4507,111.0471,30.9087,-52.6330,-60.7031,-24.4799,56.0326,-5.2752,-48.6092,54.1014,-59.1379
-750.0000,-39.1875,66.0676,-65.9943,-114.5850,-96.6025,-92.1576,50.2271,-18.3264,125.1184,83.5873,69.1504,62.0700,-58.5484,-29.4488,43.8993,50.0422,-10.9528,-89.5802,48.3328,-102.6057
-742.1875,-3.0506,66.2677,-102.8269,-114.3130,-96.3171,-128.1507,86.3115,-55.2327,125.5850,83.7275,32.2449,135.2302,-58.4675,-29.1945,80.2781,13.0440,-46.6283,-54.5390,48.5611,-70.8284
-734.3750,91.5205,125.9123,-113.2052,-54.5924,-69.5729,-102.6875,75.8513,-102.6846,78.5131,0.3159,21.7714,198.8378,-68.9381,-76.4878,34.1124,-34.5018,-20.8526,-29.0479,38.2425,-42.9503
-726.5625,58.2332,163.7055,-111.4250,-52.7267,6.3263,-64.0677,77.5392,-100.9819,80.5987,-71.9473,-13.5741,126.5931,6.7357,-37.6289,-37.8983,-32.8994,-18.9182,-27.3993,40.0771,-37.0165
-718.7500,-49.4600,91.1109,-39.0374,51.7438,41.8329,8.1573,39.8313,-65.6836,79.2868,-73.6211,-52.3311,-22.0475,5.0024,-39.1692,-76.3171,-71.7039,49.6239,75.8555,38.5135,82.0191
-710.9375,-42.3582,28.3295,42.1584,94.0126,12.1441,52.1809,-27.0751,-21.5846,50.7860,-139.4927,-45.2988,-51.8870,-24.9409,-31.9040,-31.9471,-64.7146,91.9708,82.9067,10.7564,94.6595
-703.1250,32.4376,-38.7510,82.0654,97.9824,-57.8453,55.9061,-60.2812,-17.7824,17.9875,-99.6558,-78.5863,-85.0301,-58.1918,9.0614,9.1181,-61.0286,61.0290,121.6680,49.7047,133.0444
-695.3125,-15.6796,-86.7262,69.0837,120.0498,-33.7269,78.7372,-36.3867,6.1237,42.2916,-38.7177,-127.7969,-98.0689,-34.3500,69.1233,-40.7177,-74.2422,-21.8046,108.5290,106.7622,122.4446
-687.5000,-92.8671,-21.7425,27.0597,44.0648,-2.6511,36.5204,31.4661,72.9797,72.5522,29.1674,-61.0769,-67.1535,-3.5621,27.1392,-83.6049,-80.5093,-27.6841,-2.6532,100.7750,8.6061
-679.6875,-68.6171,37.6822,16.4974,-1.4650,23.8824,25.7599,56.7697,62.2859,62.2694,54.5038,-34.9182,-77.7875,-14.3356,-20.3869,-94.0435,-128.3338,31.8912,21.6220,55.2399,32.5655
-671.8750,5.8794,41.3569,20.1944,2.2507,27.6671,29.2495,60.3216,29.8401,-6.7477,58.0967,-68.5311,-111.1618,-10.8692,-53.6578,-16.2289,-87.9065,35.7189,25.1451,23.9543,34.6007
-664.0625,51.3291,-18.0151,-6.1539,-22.0850,1.3986,-34.3112,70.8211,40.3419,4.1964,68.6453,-58.2124,-63.5887,-0.4639,-79.9784,31.5419,-3.5286,11.5024,0.6265,-0.3784,3.6914
-656.2500,67.4252,-72.7292,-26.8387,-5.7749,-56.2183,-55.2214,86.9768,-17.5081,57.7943,48.8385,31.7503,-47.3637,15.5887,-100.6520,10.9574,49.4967,27.9388,-18.2365,-19.0614,-20.0183
-648.4375,72.4635,-32.4932,-58.5608,-106.5159,-87.8805,-87.1736,56.0841,-12.3986,99.3456,89.9798,146.6561,-5.1949,20.5841,-95.3754,53.3130,54.4609,33.3314,-119.1369,-49.7913,-132.9240
-640.6250,41.0925,7.3452,-54.6718,-102.6485,-83.9396,-119.5157,-14.2123,-82.6891,67.5025,57.7251,224.1496,-1.4301,24.1702,-17.5043,57.2682,-15.9876,72.3322,-45.4266,-45.9163,-62.6897
-632.8125,42.7033,44.1917,-52.7736,-100.7854,-44.9935,-117.8609,-12.5066,-80.9772,-4.3291,-14.5235,188.6248,0.3406,62.7451,-15.6367,59.2325,59.5647,39.3398,-78.7218,-8.0343,-94.9086
-625.0000,70.1493,71.8925,-60.0205,-142.0773,-15.1928,-125.3519,-19.9454,-14.4172,-11.3038,15.0832,70.9313,29.9665,55.1622,14.0805,15.0470,87.9668,-2.7927,-86.1618,19.7005,-101.9335
-617.1875,87.2954,54.2974,-40.5589,-55.6740,41.3122,-70.1425,-0.6827,-32.1516,-28.5757,-2.6089,15.9268,49.2936,73.2709,-40.5030,-76.4427,-2.9276,-20.2228,2.0998,37.1379,-3.5843
-609.3750,51.9429,54.2081,33.4091,-55.7813,77.3155,-70.4272,36.0790,-69.3787,-65.3393,-39.7984,15.4089,85.1195,72.8689,-40.5860,-39.4318,-3.3213,-20.1488,-69.1389,37.0795,-72.1045
-601.5625,-20.1209,52.4230,67.6779,-57.5898,75.6229,-72.4000,70.1418,-71.3041,-66.7928,-78.6795,13.1718,83.2501,34.7542,-5.3743,-41.1224,-5.4279,-21.7651,-0.0687,35.3308,0.9954
-593.7500,-83.9339,24.8971,112.2063,-14.1557,83.1854,-28.1212,41.4569,-26.9765,-21.9929,-71.3053,-53.8293,54.6365,4.8816,-34.9168,-70.5752,-72.2886,20.8759,7.2508,112.8391,19.1300
-585.9375,-104.5494,39.5730,89.9481,-35.5176,61.9532,-50.6369,55.9744,61.5580,-6.9894,-56.7295,-112.6444,32.2134,-17.7950,-57.2637,-55.8443,-94.9575,0.7204,-13.2121,233.5508,3.1695
-578.1250,-78.5915,30.8457,8.3093,-8.2664,53.3358,-22.5448,120.0925,88.7016,-15.3844,8.4460,-157.8714,-50.6211,-26.8739,-66.0131,-101.5163,-140.0326,-7.8330,12.9337,330.8641,35.2016
-570.3125,-26.1911,12.5765,-9.8679,-26.5668,35.1755,-40.9987,175.6612,107.2928,3.6725,63.0711,-176.6563,-31.9974,-82.5091,-47.3074,-119.7492,-85.6639,-25.9270,-40.4656,312.6217,-20.5743
-562.5000,34.7168,-31.1880,54.4627,-0.3611,-10.4775,-12.9480,129.7271,98.3821,-4.7686,18.1846,-113.9530,-40.8653,-164.6544,17.8957,-128.4967,-94.8052,35.4888,20.6516,197.8815,40.8075
-554.6875,27.3268,-38.2491,195.5033,62.5453,-17.4213,52.8093,85.4962,91.1678,-85.5095,-26.0076,-121.5668,-48.0306,-136.1077,10.8019,-171.5533,-102.2507,28.6091,83.4725,120.8493,110.4161
-546.8750,-127.1216,18.6511,218.5080,49.4030,79.5945,39.5240,109.2227,77.9088,-61.2958,-39.2508,-207.2548,-61.2503,-1.6186,33.6577,-148.6646,-78.7616,-19.3192,35.2549,107.7718,62.2791
-539.0625,-203.6843,11.4602,211.4282,77.1705,183.5174,106.1436,138.8543,70.5563,-68.1761,-9.5940,-289.0577,-142.5694,63.7603,-9.5934,-155.8835,-160.3788,-26.3411,133.9430,100.5892,170.1315
-531.2500,-60.2409,15.2728,179.3540,116.9313,187.4375,146.7662,105.4887,74.2082,-138.0488,-79.9315,-211.8699,-101.8859,67.1267,-5.8498,-188.1088,-156.9969,-57.3512,102.6312,33.4071,135.2284
-523.4375,20.6504,26.5420,153.7385,92.1422,124.8120,120.8412,42.5713,48.3063,-89.4687,-142.8143,-55.2459,-90.7508,77.9337,-31.6623,-176.8914,-146.1707,-45.8964,113.7800,-25.3214,136.1967
-515.6250,20.4682,-8.2241,191.0821,128.3000,88.1374,157.8693,-30.3972,-24.6409,-88.9198,-142.7498,54.3110,-127.6597,40.6818,-68.5268,-176.7273,-109.3924,-10.4801,148.8752,-25.0958,170.2872
-507.8125,12.4748,-15.7860,183.6317,49.6520,80.6606,113.1014,-1.1622,4.6213,-96.1517,-76.4794,46.0555,-61.3658,32.6139,-76.1888,-184.3661,-6.4228,-17.8589,35.1714,2.3347,51.6708
-500.0000,8.8333,-18.9917,106.5354,46.3539,77.5336,109.6897,-4.5717,37.2410,-136.0282,-5.8553,-30.8601,-27.7210,28.8859,-79.5042,-151.6638,-47.1140,49.1152,66.8281,-0.8853,83.8489
-492.1875,-23.1541,19.4615,36.0920,14.7045,44.0630,112.9290,-1.3269,40.5133,-95.2545,-39.5788,-65.1334,12.5812,68.8004,-39.1707,-37.3258,-44.1559,17.7447,-34.8635,37.5427,-25.0049
-484.3750,-80.3885,33.6686,-59.5999,-77.1937,22.3434,89.9297,12.6668,54.5369,30.2797,11.4484,-51.6657,26.6314,82.4557,-25.0937,49.7539,-67.4540,-2.8640,-55.7933,16.7141,-55.9846
-476.5625,-18.7267,24.7804,-105.3861,-50.1900,13.5254,43.8387,3.5564,9.4624,-15.2754,38.3691,12.6859,17.5843,73.0063,-34.1188,77.7335,-2.8577,23.4357,-29.8183,-62.2130,-36.4289
-468.7500,100.8161,4.8036,-90.2595,-71.2925,-8.3842,-14.3412,-18.6513,-12.7105,-110.9207,53.1826,99.9171,32.4427,50.4514,-19.2471,55.6040,47.6319,73.6430,-49.9317,-118.2356,-61.8008
-460.9375,142.1470,-24.3696,-10.3209,-29.5867,-39.4859,-8.7103,-87.0528,-44.0785,-140.7684,22.7884,104.9353,38.1022,55.6901,23.4172,25.2647,-57.0895,114.6536,25.7695,-112.4507,17.4166
-453.1250,70.4773,-24.5318,26.6218,-29.8875,-2.5876,27.9237,-124.4522,-7.4338,-104.6070,22.4018,66.9482,73.7667,54.9148,23.0737,24.9191,-20.8184,44.6639,-9.5331,-112.6582,-17.1810
-445.3125,24.1609,69.6708,51.9147,-40.8410,96.6608,-20.0890,-135.4953,-18.4301,-151.0865,47.3651,19.3019,99.7823,80.4716,12.0725,-23.0867,77.7914,-0.9686,-20.4783,-158.5082,-30.4335
-437.5000,86.9982,134.0277,82.3586,22.3610,127.0599,-26.9439,-105.3856,-62.2707,-193.4105,40.4710,-25.2102,19.9494,73.1651,5.2218,-29.9525,33.5443,-7.4434,7.7346,-165.2000,2.0950
-429.6875,49.6812,96.2308,80.6600,20.4103,88.3127,-65.9416,-70.4237,-64.2525,-122.8876,38.4264,-27.8851,53.9673,70.6984,39.2206,5.0170,68.1508,-9.0576,-64.1953,-167.0310,-72.9996
-421.8750,-27.8472,89.2341,73.7692,13.2681,44.3729,-73.1245,-40.6597,-71.4251,-55.5675,68.1852,-35.7763,46.7821,-9.9821,32.0187,33.7717,60.5453,54.1385,-36.3143,-139.0510,-42.6624
-414.0625,-9.9899,37.6606,55.2865,66.5205,26.8375,-17.8995,-59.4889,-90.1919,-36.8382,-23.6484,-18.2906,65.0024,-29.2759,14.2129,15.9160,78.3324,72.7420,16.9600,-155.6633,13.3401
-406.2500,37.1686,15.4029,32.1119,-25.9286,2.6028,-42.3663,-84.0150,-40.6602,-23.7957,-11.1859,30.4764,41.5243,-17.2826,62.7032,28.3538,53.4084,50.6493,-5.4535,-107.9748,-14.0090
-398.4375,18.8315,-2.3615,-22.5510,26.1279,21.8721,13.6785,-65.0422,15.3777,-4.2483,7.7646,-25.2715,-13.4563,1.2053,81.6931,10.2808,-75.0194,-1.9362,81.6446,-54.7862,80.3960
-390.6250,-68.0507,-18.6709,-38.7561,9.6332,78.5920,70.1776,28.3762,108.8761,-20.2496,-45.8348,-79.5798,-29.9891,20.1417,102.1327,-6.3607,-55.0048,-89.0645,65.1973,-1.1392,72.4636
-382.8125,-98.9909,-48.0198,-70.0055,15.0965,84.2683,38.6409,70.7461,114.3331,-14.3016,-3.4822,-111.9463,12.4279,25.0172,70.5124,-1.0684,-50.0611,-83.2336,35.7138,39.4640,44.1522
-375.0000,-86.7466,-35.1510,-57.0495,-7.2398,97.1505,15.3065,83.3211,52.9985,-1.1467,45.0757,-173.1213,98.0445,37.0814,10.0858,-25.5890,-0.9231,-70.1977,-21.5673,52.2732,-16.0768
-367.1875,-146.4638,-60.2259,-120.0347,-67.5258,145.0923,-10.9718,56.9550,63.7184,83.0608,55.6886,-199.2623,71.7143,84.1845,56.7025,21.9236,45.2591,-94.1071,-81.7852,98.1381,-81.9858
-359.3750,-186.3824,-135.4995,-125.2087,-37.0054,139.8421,56.5624,88.3885,58.2416,152.0693,50.0896,-205.6128,-80.8140,78.0826,51.1191,52.2215,3.2375,-99.2166,18.8052,128.8040,25.9871
-351.5625,-156.4553,-172.9136,-164.5288,-5.6386,99.4389,89.9520,121.6763,91.6150,185.9412,83.3293,-138.1104,-121.4899,36.8228,11.3820,12.3674,35.0630,-102.4719,-19.7528,125.3181,-11.3908
-343.7500,-130.7311,-147.5168,-100.0514,-14.4705,17.8343,44.1486,75.7661,82.7903,177.6199,111.3749,-110.8151,-93.3658,27.3565,2.4351,3.3082,62.6792,-4.9219,-28.5005,45.6353,-24.0807
-335.9375,-165.6089,-76.7195,-25.1681,21.0998,-55.3672,81.7490,-33.7376,10.3760,104.7021,37.8267,-74.1338,-18.8411,-45.7156,-34.1171,39.6408,99.6906,101.0304,7.1517,46.3563,11.9396
-328.1250,-158.9848,1.5821,-17.7790,-41.8313,-85.0656,15.8573,-26.7387,17.4684,149.2838,44.7846,-67.9661,98.1805,-76.2933,-27.1746,46.4613,106.1933,108.4886,-91.6851,18.5812,-94.6815
-320.3125,-62.1096,28.1408,-63.1313,-50.5035,-93.5117,-29.7735,1.5123,44.8168,141.1181,109.9823,-77.5547,89.4559,-85.6352,-35.9882,1.5228,22.9327,100.2019,-29.2617,10.0556,-33.2878
-312.5000,9.4128,30.3674,-60.8257,-13.5281,-54.3059,-27.7514,3.4187,10.8208,106.6083,37.8271,-39.5038,54.3885,-84.3413,2.8457,3.2209,24.3123,67.5734,-27.1897,-22.8134,-31.8105
-304.6875,5.3898,62.0432,-64.0662,-52.1013,-57.6483,5.7275,-0.2232,-29.7155,103.5582,-38.8694,-7.0245,87.7704,-88.6115,35.1230,35.3518,20.1361,29.4064,4.3421,-26.2259,-3.8361
-296.8750,3.3181,-9.3278,-28.3566,51.2771,-22.0350,77.1633,-1.9095,-105.2959,139.4674,-40.6075,26.3874,49.0979,-90.9377,-2.6560,-2.5727,-55.0919,-41.8136,72.8263,7.3146,71.0995
-289.0625,2.5426,-80.3858,-28.3523,50.9522,-22.1213,76.9048,33.7085,-31.5717,139.6885,-4.0502,25.0889,12.7275,-17.9712,-40.1428,-3.1965,-19.0310,-112.7306,2.6192,42.1605,2.6560
-281.2500,-2.8942,-49.0889,40.0076,45.9848,-26.8539,35.0090,28.6802,36.5066,61.2629,63.8482,-16.8666,-103.2955,-23.6624,-45.2878,-45.4779,11.3684,-82.2916,32.7737,72.3649,39.4435
-273.4375,-17.8392,6.7195,25.8761,31.5167,-4.0836,20.6212,14.1624,96.0922,11.3357,86.2447,-69.3334,-117.8140,-38.8620,-22.9380,-60.2794,33.2671,-60.3439,18.4278,94.0734,27.0640
-265.6250,-55.3317,-30.0114,24.2020,-40.4953,-42.8575,-17.3092,12.0930,168.1384,45.8524,84.0921,-72.3619,-82.8827,-41.6243,10.8561,-62.6550,67.6028,8.0616,-53.4507,127.2387,-45.6346
-257.8125,-128.6213,-102.5350,22.7358,-7.2970,-44.4250,-19.0318,10.2302,239.3917,81.5675,192.1333,-75.1974,-121.7550,-44.1987,-27.1552,-64.8503,28.1262,6.6678,14.8811,90.6115,27.1109
-250.0000,-98.7663,-71.9025,54.4221,-47.9470,-49.8376,-24.5977,4.5189,196.8048,76.4334,223.3210,-8.8870,-90.4820,-50.6245,-33.0190,-33.9009,21.7901,1.4234,-60.6281,49.1369,-54.6733
-242.1875,-30.6604,-3.0151,16.3633,-49.3392,-50.9888,-25.9005,3.0581,122.4766,112.5453,184.7579,25.6760,-54.9686,-89.8027,-71.6403,-35.7156,19.6896,35.4236,-26.8721,-22.0901,-26.4632
-234.3750,44.3509,2.7853,-13.7899,-8.8299,-45.2357,-20.2931,-27.5014,54.0578,118.5498,154.0869,67.1350,-12.5525,-48.0827,-66.3722,-67.6474,24.4794,6.3301,-21.2152,-86.4111,-27.3603
-226.5625,87.3070,10.5452,-5.9835,-36.3650,-74.5281,-49.7294,-57.1129,-11.4013,89.4973,161.3584,73.5328,-5.1795,-5.4253,-59.1527,-23.6458,31.2102,49.2004,-48.5996,-78.7795,-60.3778
-218.7500,21.6047,16.6608,36.1785,4.4628,-68.4696,-43.8053,-51.3686,-79.5043,58.7958,92.9729,41.2737,0.5505,-0.4301,-53.5931,54.6936,36.2821,55.4234,-7.6254,-72.7915,-16.7160
-210.9375,-1.1430,64.7340,-23.7100,-17.7593,-92.4624,-67.9305,34.3296,-140.6531,109.0509,-41.4603,52.9639,13.2277,-24.4949,-4.0914,29.9804,159.2972,68.6008,-29.6980,-59.8526,-42.2738
-203.1250,40.8170,37.5102,-52.8960,-45.2746,-84.7572,-60.3442,5.7271,-133.1023,80.0076,2.8004,22.3527,93.5972,-54.8665,39.1093,0.9562,129.0047,111.4851,-22.0646,-88.2099,-36.6527
-195.3125,64.7237,27.2395,-26.1297,49.1634,-58.1038,-33.8001,-4.9221,-106.5939,-3.0878,65.0013,10.6945,119.9211,-103.2906,-7.7369,25.8673,43.6589,101.3264,-32.4789,-98.6207,-40.4818
-187.5000,96.6875,94.0321,7.6881,10.6504,-24.3991,-74.1992,-45.5225,-73.0327,30.8638,98.2495,6.0808,116.3022,-107.6717,-48.5346,21.8132,2.3513,98.2274,-35.8379,-136.9818,-46.1117
-179.6875,167.0046,166.1873,8.8645,81.4970,-23.3399,-36.2380,-81.7745,-72.1150,32.1620,-11.1518,79.8118,80.0325,-144.7138,-84.9919,-50.8984,-107.6220,99.4801,70.1579,-135.9937,65.3162
-171.8750,168.6718,203.6946,47.3960,119.6967,-57.9292,-33.9198,-42.6734,-69.8401,-2.1849,-157.2018,117.8846,82.1161,-106.4119,-83.1080,-86.2668,-106.2525,67.0812,72.5055,-98.6520,71.8452
-164.0625,103.1894,174.0504,16.7748,53.7530,-15.6672,8.2591,-0.7154,9.2918,40.3228,-115.4043,47.8072,50.0457,-102.2699,-78.3827,-81.7996,-102.0399,2.5270,42.7157,-22.4494,45.7741
-156.2500,5.8022,42.5139,26.2529,62.9070,-6.3057,17.5432,44.3477,54.5329,122.9331,-69.5113,-91.1718,-13.9268,-57.0313,-106.5639,-110.2444,-56.7245,12.0732,87.0258,56.8621,99.6807
-148.4375,14.1078,51.6862,35.4313,1.7566,2.7529,-10.4663,17.1093,100.4843,95.2357,-23.9137,-83.4546,-5.2002,-49.0985,-98.0382,-64.9997,-48.7124,21.3245,26.0405,30.8802,34.8002
-140.6250,-15.5834,57.8624,4.6090,42.6117,8.8151,32.5371,22.8688,69.4412,65.5335,-18.3202,-78.7419,-36.4791,-44.1761,-92.5109,-22.7622,-154.7045,62.5834,102.0626,1.8963,114.0481
-132.8125,-49.4161,59.8938,6.6374,79.3167,10.7247,34.3972,24.4776,-1.7410,103.6857,-53.8870,-41.1779,-34.9083,-6.4083,-91.1379,15.3196,-116.8531,29.6974,68.9359,-31.2416,76.6055
-125.0000,9.3600,119.5308,-40.7334,-1.3708,0.2359,59.8566,86.6900,-12.3199,93.4384,-64.8597,-16.0082,-45.7334,-18.0407,-65.1765,39.9887,-128.4191,19.4130,23.4219,-41.7833,26.3652
-117.1875,102.7319,107.7747,-15.4981,56.5508,25.3540,121.9171,74.5078,-24.2976,-65.2104,-114.2365,6.7500,-94.9529,4.9287,-40.6207,27.2431,-178.3888,7.7243,117.5143,-89.7195,125.6423
-109.3750,32.8442,74.7662,-13.5087,93.2261,27.2272,160.7307,39.0829,14.4818,-136.1052,-185.8617,7.2453,-56.4226,42.6443,-2.3147,65.2353,-140.6062,9.7794,48.3615,-51.8986,59.4217
-101.5625,-65.0949,82.7020,-5.5728,100.8555,71.0518,131.5052,-26.3883,58.2149,-128.0457,-214.5349,-22.3059,-11.9536,12.3068,4.9343,35.1697,-170.8747,87.7823,56.1637,25.8796,73.2860
-93.7500,-19.3294,165.3418,-30.9417,112.1767,82.5725,105.9854,-15.1532,33.6616,-189.2874,-240.4958,-12.1548,36.2105,-13.3313,-21.1211,-27.2008,-160.4456,99.4816,32.6622,72.3564,49.9143
-85.9375,57.6870,173.2314,-60.0619,49.7505,54.3430,76.7170,-7.6662,41.3679,-181.2768,-196.2067,30.2448,6.6195,-6.7235,-50.9269,-57.3224,-153.7764,72.4306,40.4177,115.0852,53.3640
-78.1250,-1.9486,43.4679,-48.8367,95.6815,65.4601,87.8008,3.1737,88.4304,-96.9093,-185.5780,39.9941,-56.6142,3.2348,-40.3862,-84.0905,-215.7624,48.7263,121.5234,126.1667,141.6897
-70.3125,-43.0795,3.2115,-17.1209,90.1116,60.0770,82.3859,-2.4807,119.9982,-29.0399,-119.4529,33.2426,-62.3414,-40.3068,-9.3497,-127.3633,-150.2540,8.5214,46.1322,156.7462,66.0466
-62.5000,8.2942,20.4689,2.0969,37.0477,78.1930,64.4797,16.3665,176.0671,-9.6769,-63.8315,-22.0057,-43.5704,-170.3560,82.1786,-218.1524,-132.2553,-9.1773,28.2507,173.8272,49.2596
-54.6875,44.7647,-12.1569,41.4160,74.0822,44.4118,66.6778,18.3113,178.2445,-7.2127,-136.1066,-58.1510,-41.7015,-205.3091,120.8064,-180.8538,-94.1622,-42.7741,65.4605,141.0092,87.3388
-46.8750,55.1903,-0.8341,52.6868,15.0621,-18.4202,77.8307,29.2040,189.3845,-32.7971,-125.4237,-85.3499,6.1120,-159.3150,94.3882,-134.6127,-84.1279,-66.4184,41.6192,152.1428,59.8365
-39.0625,20.1219,-0.0193,53.4485,85.5419,-17.7520,115.4930,29.6035,116.0303,-68.8717,-125.2474,-49.0552,6.4211,-122.8226,57.4710,-170.8704,-121.5894,-30.5635,112.2777,116.7713,133.3024
-31.2500,-6.7438,-27.0010,62.4016,59.2187,-8.8907,124.3611,38.2101,87.8822,-59.7437,-116.8809,-4.5580,-22.0737,-78.1310,29.7556,-89.9297,-39.8425,-91.5124,51.1365,90.5991,66.8013
-23.4375,-64.3190,-82.6845,39.6522,3.2057,5.2657,101.5410,52.1183,29.0386,65.6811,-66.2139,44.2443,-45.2738,-65.1415,43.3367,-2.6921,-26.8000,-111.1597,30.3050,34.7245,37.4307
-15.6250,-57.4918,-144.9619,10.3009,45.5961,-24.1818,73.1256,22.4252,-0.4036,73.5035,-22.1535,87.4566,-75.0745,-21.7569,13.3152,76.9436,-20.3608,-103.4008,37.8727,7.2482,40.6407
-7.8125,17.2414,-35.3337,-22.1564,-21.1103,-19.7337,-33.3855,-10.3658,-32.9485,-32.7768,18.8042,53.5712,3.0278,54.5268,17.1950,44.4735,55.9712,-29.7439,-28.6535,-24.3262,-36.3499
-4000.0000,35.0141,27.0358,7.4659,-13.8935,-21.6496,-8.7855,-17.3361,-49.2091,-59.4002,-21.8301,23.3027,25.5904,50.9906,38.2887,0.9361,35.4928,-4.6465,-18.1838,-31.4091,-24.0687
-3992.1875,7.8943,105.0521,14.8086,-6.7828,-14.6250,-38.7201,-10.4243,-78.8531,-17.1766,-87.9475,-43.0225,143.6219,59.1500,9.2305,8.0675,43.3832,37.5643,-81.1482,-59.6625,-88.9354
-3984.3750,3.0256,136.3323,9.3948,-47.4251,-57.3524,-80.4144,-53.2613,-49.2547,13.3108,-20.8192,-48.0967,175.9103,54.5636,4.4234,2.4458,38.5238,67.0255,-86.8686,-65.6685,-99.3939
-3976.5625,3.8092,137.2703,9.6258,-12.4150,-57.4305,-80.4590,-89.4492,-50.0159,-24.5473,15.9488,-10.5263,139.8571,19.6288,-31.7354,2.4687,39.3123,67.1426,-51.9323,-31.0255,-62.4587
-3968.7500,-30.7492,101.8606,-27.5001,-47.7578,-20.8609,-80.8518,-53.9895,-15.1307,-61.7600,52.3623,-10.3132,140.4602,20.3437,-31.2360,2.1424,39.7659,31.9100,-52.3483,39.2609,-60.5308
-3960.9375,-102.6131,101.1469,8.0647,-14.4059,14.4078,-82.5449,-18.8307,19.4527,-28.2598,13.4848,-121.4064,102.7670,19.7593,-32.0349,-36.4777,-35.0794,65.3758,16.9351,107.2462,20.9870
-3953.1250,-124.0807,114.8347,-15.9856,34.3467,27.0823,-69.8399,-6.2703,-5.5669,20.6483,-10.9812,-181.1036,116.4757,-3.4298,-55.4337,-60.6966,-58.5252,78.2383,29.6200,154.6328,37.7536
-3945.3125,-192.2407,81.8316,-51.7505,-35.6071,-8.9411,-32.8402,31.5886,31.7150,94.8576,26.8574,-142.5084,118.4941,-38.3199,-16.5284,-22.6216,-56.6674,9.4056,30.5958,155.3211,35.0615
-3937.5000,-202.5043,36.7298,-62.6189,59.3438,53.9417,-6.9381,57.3418,19.8946,119.9605,-21.4112,-190.0136,35.4143,-11.3113,-26.7153,3.3472,-66.9104,-37.5263,89.4847,143.9075,100.1855
-3929.6875,-133.5267,70.8781,-27.2338,92.5487,125.0799,-8.7882,55.3465,-55.6707,43.3142,-96.4260,-265.2625,107.5809,60.9528,-27.6532,-35.4410,-30.9089,-74.2192,87.6251,106.7450,97.5140
-3921.8750,-101.2573,139.3305,6.4516,124.0470,195.5205,-12.3398,51.6496,-132.9339,-71.0225,-173.1361,-268.2123,179.0522,58.5110,6.7084,-111.9277,-107.6128,-6.6116,119.0638,102.8843,133.4083
-3914.0625,-69.2891,136.4906,39.8334,155.2499,191.6556,20.8110,47.6473,-174.4986,-75.6569,-251.1569,-160.4668,176.2356,19.7630,3.7654,-151.7166,-110.6184,-10.2919,115.2084,98.7221,130.9367
-3906.2500,-27.4215,36.5701,8.1124,125.3471,122.6899,25.8573,15.5366,-133.1635,-35.3994,-172.2760,-8.8140,108.3280,-11.0829,-27.2817,-146.6068,-67.7211,-5.0667,85.2448,103.4554,96.3926
-3898.4375,-26.9024,-32.6935,8.0373,90.1021,86.3760,25.5518,52.0778,-61.1878,-36.4896,-99.7368,-8.5052,36.0699,-84.2822,-26.6807,-110.8495,-67.1881,-5.1947,119.9405,137.8330,135.0533
-3890.6250,-59.0819,-28.6580,11.2620,23.1614,52.3640,-8.4595,54.9249,14.0827,39.7191,-96.9007,-78.8983,40.1227,-80.1851,-22.7818,-34.7946,10.6497,-2.0297,17.9381,140.5123,29.3519
-3882.8125,-95.3634,5.2769,-27.6169,-14.8782,13.2584,-47.5721,52.6789,11.2489,146.8314,-26.1632,-80.3967,39.0790,-81.1914,13.0193,-36.8375,9.3848,-3.9712,-20.1617,138.0904,-15.9227
-3875.0000,-100.4386,0.4042,-33.2985,-20.7120,44.3563,-53.4812,46.6291,4.6155,177.1486,41.7768,-48.6961,70.2315,-86.0005,8.0155,-79.6889,4.3141,-45.7108,-26.0506,96.8683,-25.1579
-3867.1875,-32.5587,32.4874,-37.0414,-59.5982,77.4030,-57.4414,42.5248,36.9320,172.4163,37.6686,-52.0434,67.3368,-88.8595,4.9635,-119.5918,1.2022,-84.4957,-29.9977,92.5915,-30.3984
-3859.3750,-7.6312,57.6225,-10.7419,0.5630,102.5023,5.6473,31.4737,25.2945,123.7386,-10.3879,-62.3428,21.4944,-61.6727,-42.0410,-94.4462,-45.8668,-60.2258,30.1153,11.3675,34.5697
-3851.5625,-40.3668,60.1101,27.9043,2.0836,103.9551,44.0857,32.7729,-10.9919,51.4245,-9.0954,-60.2938,24.0048,-22.1474,-76.7051,-92.9512,-6.5885,12.3923,-3.4142,-23.5029,3.1919
-3843.7500,-36.2502,64.4505,-5.6097,5.4495,71.2582,10.3706,35.9234,-45.4264,90.9714,68.0506,17.6043,-8.6315,-54.7754,-72.5246,-89.6058,-2.4623,15.8630,-0.0928,-55.5260,0.8094
-3835.9375,13.8171,9.7460,-28.1735,19.7707,48.5142,24.6008,50.0199,-67.9139,104.4746,82.1568,105.4500,6.6879,-113.4622,-130.4010,-111.3152,12.5986,30.2927,14.1857,-76.6032,14.5036
-3828.1250,134.1769,25.3529,-13.4303,-36.6036,-10.9275,-34.8744,-9.5880,-18.1009,81.2797,96.5650,157.5924,-14.6881,-133.8549,-114.9775,-96.7301,27.9547,10.0270,-7.2331,-62.3849,-13.5311
-3820.3125,160.3361,15.7637,13.1165,-12.1770,-21.5629,-8.5513,-57.4003,7.5165,-4.1130,121.7675,110.5273,-61.2677,-107.4537,-124.7543,-107.3502,-18.8864,69.5622,53.1547,-38.3639,52.7640
-3812.5000,69.7869,31.4740,66.9625,38.5575,-4.8885,8.0738,-77.9096,23.4385,-25.1997,101.2600,17.7581,-43.5436,-89.7554,-71.2358,-91.6721,-1.4329,84.3980,-2.1549,-24.0440,2.2379
-3804.6875,-3.8200,28.1458,62.7511,-0.7676,27.7350,3.6441,-45.4647,55.3160,-30.3291,60.7090,-23.0646,-46.8574,-93.1209,36.2287,-59.0409,31.9658,45.1967,-6.5220,-28.7742,-2.1253
-3796.8750,-40.3223,-79.0733,60.6337,67.0104,25.4516,75.3151,-47.9255,125.2973,3.6469,21.2664,-61.7854,-85.0695,-57.3990,34.7866,-24.3086,30.4535,-26.8974,26.2121,-31.4063,36.6477
-3789.0625,-27.4242,-29.8988,35.9138,9.1835,0.5645,13.3826,-35.9884,136.6859,15.0361,33.2317,24.8914,-34.8764,-81.2788,47.7374,24.8207,43.3410,-14.5921,-67.6566,-89.6333,-66.2026
-3781.2500,111.8102,4.6159,34.5422,-28.3013,-37.9678,-62.2067,-74.6988,98.4291,-24.2105,68.5599,96.9161,-35.3316,-81.8058,-26.9609,60.2977,5.5750,19.0597,1.8265,-125.5081,-3.9815
-3773.4375,185.4356,42.5293,36.5626,9.6149,-36.0899,-60.3933,-73.0011,62.5711,-96.0486,33.2953,99.3366,4.6083,-78.9362,-61.2643,25.1742,8.2033,21.1094,3.7128,-123.9789,-1.4930
-3765.6250,158.1557,-19.4585,6.6757,-19.3753,-29.1050,-16.4807,-66.1944,68.8202,-89.7734,3.1345,106.8529,-24.3526,3.0224,-53.4687,-4.8454,15.9299,28.2574,10.6950,-83.3488,7.1327
-3757.8125,51.0287,-20.3046,-32.0720,49.7862,-30.9741,18.5856,-68.2397,103.2313,-92.3417,1.1322,142.5115,-25.1718,2.1166,-54.5277,-6.7104,-96.1986,26.5617,43.8389,-15.5633,47.1402
-3750.0000,12.6386,46.5897,-73.0737,-25.2976,-35.0941,-59.5951,-72.5336,134.4001,-24.1503,106.8916,138.9116,45.7571,-1.0471,-94.8462,63.1867,-99.5792,-12.3820,-66.2675,15.9770,-72.3039
-3742.1875,14.7820,14.0359,-107.5287,-93.8336,-33.6569,-94.2260,-34.2755,172.1275,13.6018,219.2059,103.8572,-25.7653,-35.6606,-92.6198,64.6389,-97.4193,-10.7808,-64.8161,87.0653,-70.4165
-3734.3750,-46.7802,-47.2201,-98.6869,-85.0569,-24.9085,-85.5529,11.2889,217.1521,21.6612,227.8095,77.0945,-89.9933,-62.9735,-83.1026,73.3847,-50.9650,-37.8769,-56.0495,130.4520,-55.4932
-3726.5625,-78.0452,-7.1754,-131.5450,-115.9790,-58.8491,-82.5764,51.1551,219.4814,61.0274,156.7021,80.6264,-85.9202,-21.9907,-42.2916,76.4235,-10.2092,-69.6710,-87.9827,133.1402,-91.1574
-3718.7500,-49.5161,-84.3368,-102.6022,-54.0917,-65.9856,-16.7995,43.8203,174.6123,53.2055,112.3997,73.9461,-92.0529,8.7809,-11.6823,32.2564,-53.6631,-76.6585,10.8962,90.6347,11.6380
-3710.9375,60.8567,-79.6551,-62.8087,-15.3490,-25.2686,23.8275,10.3380,104.5948,-17.7547,5.9598,41.1064,-13.3424,50.3905,-7.2250,-1.0594,-86.2771,-37.7972,14.6295,23.9890,16.1556
-3703.1250,103.9691,-71.2235,-18.2685,28.1413,-17.8020,105.2004,-19.3917,37.3366,-83.9491,-60.7252,49.0148,-78.8893,58.7416,37.9759,-67.6163,-114.1477,5.8127,92.1170,-4.9004,98.6065
-3695.3125,65.8204,-109.0536,15.0222,129.3905,15.4178,137.3230,-23.3690,-4.1620,-88.3853,-100.6516,8.6709,-117.6941,55.8341,34.9122,-71.4140,-44.2829,2.1747,123.3660,-44.0336,134.9730
-3687.5000,75.3152,-64.2411,25.9685,68.2958,63.2918,75.0923,-12.6926,5.9962,-42.1660,-53.9182,19.9718,-69.8524,30.5685,46.4886,-23.5591,4.2256,-59.8102,27.2664,-105.5169,30.1564
-3679.6875,28.1512,-76.0810,50.2682,90.5550,86.5217,62.2102,-25.6607,29.5095,-55.5778,-29.8229,7.6114,-44.6625,54.6427,70.4066,0.6385,-118.9281,-72.4441,84.5273,-118.6521,90.3332
-3671.8750,-34.3752,-103.2732,57.2143,97.4724,93.4081,104.9810,-18.9765,35.6783,-49.3119,-60.0729,-22.1065,-73.8243,62.3530,77.9664,44.4872,-74.4441,-65.4339,21.4417,-77.1314,30.4566
-3664.0625,-75.5590,-108.1200,-22.4955,21.7309,87.6406,99.0983,12.0655,102.2045,18.3260,-28.9665,-27.4766,-115.6445,21.4007,72.8731,74.6884,-42.6092,-71.0709,15.7074,-12.2530,23.7719
-3656.2500,-100.9910,-133.2237,-50.4592,65.7434,60.6252,144.9683,20.8598,110.4865,-10.2813,-94.1056,18.8992,-68.7213,-5.8122,9.5249,83.6406,-33.0292,-61.9496,59.7301,-3.6259,71.6502
-3648.4375,-24.3701,-92.2797,-82.3757,0.8036,-8.3332,76.8881,25.7115,151.8256,-5.8365,-125.1889,61.3142,11.2500,37.0150,15.2189,88.6412,-27.4030,-91.7723,-5.1967,1.0548,-2.3477
-3640.6250,14.3420,-157.2352,-115.1994,-32.0391,-5.1850,79.9111,65.6703,117.2755,70.7255,-49.1667,64.8253,15.3146,40.9319,56.0004,55.7434,-60.6889,-123.4896,-2.0235,-32.1576,-3.7275
-3632.8125,-93.5647,-229.7999,-117.6287,-34.4797,-7.6366,77.3351,99.0340,114.1378,67.7066,22.2624,62.7339,-23.2261,39.2358,54.1708,126.2488,48.4221,-159.8035,-40.4451,1.0388,-42.2818
-3625.0000,-98.6759,-199.5708,-159.2641,-110.1298,23.7155,34.5557,93.2025,144.8125,134.5028,126.4984,20.4318,-64.9652,34.3340,49.1371,120.5573,79.3337,-131.3145,-81.0696,-4.9638,-87.4060
-3617.1875,-71.7885,-137.3453,-131.8983,-83.7753,52.0706,25.7722,48.3712,135.4914,162.3135,191.7404,-61.8780,-145.7073,-10.5781,4.0988,74.8721,35.2218,-69.8159,-18.6863,21.0342,-19.8807
-3609.3750,-35.1628,-101.3759,-95.7839,-83.6686,15.1798,25.7398,48.2876,134.9259,161.8864,264.7401,-98.4404,-180.7013,-46.7454,-32.1931,38.9447,35.8529,-33.5673,-54.5553,55.7842,-53.6415
-3601.5625,-29.1530,-95.0210,-90.2753,-43.1642,-16.3034,31.1118,53.6089,66.7658,166.8670,234.1508,-92.6099,-174.3059,-114.5146,-26.0891,44.4169,77.8881,7.0843,-13.0161,25.9394,-12.2501
-3593.7500,-25.0975,-90.6339,-86.7137,-39.5999,-49.7320,34.5431,56.9862,32.6618,132.9025,126.6118,-14.7360,-60.8783,-146.2386,-21.9424,47.9319,118.9706,10.7935,-45.4140,29.1472,-47.1233
-3585.9375,17.4604,-11.7470,-79.6497,-102.5378,-79.6610,4.4752,26.8649,39.0673,139.4577,96.5722,66.6346,-52.9621,-138.4761,59.7000,17.9544,89.5418,18.0058,-73.3109,-35.1470,-83.0269
-3578.1250,95.4623,-39.4080,-72.1382,-60.0254,-108.1414,11.8532,-39.8061,-28.0686,73.4892,103.9928,147.4505,-117.6046,-94.2784,67.7792,-11.5589,97.5466,25.6702,5.2494,-62.9904,-7.6271
-3570.3125,139.7084,-64.8241,-26.3828,-51.2584,-63.3690,20.4773,-104.2262,-19.9453,7.7942,76.6701,156.5044,-144.0060,-47.8452,77.0993,34.1890,106.8009,-0.4168,-21.9401,-89.5751,-35.4855
-3562.5000,94.1966,-75.0049,-0.3778,8.7571,-37.3424,9.3531,-79.3899,-68.5609,106.3628,65.6059,108.7899,-154.1686,-21.1749,66.6695,23.1882,23.3065,-11.2459,38.1220,-100.9028,28.1369
-3554.6875,10.3175,-17.5526,59.2830,99.4343,-14.6593,31.8827,-56.8951,-46.5249,91.5853,-59.7937,58.7166,-95.6907,-34.8655,15.8765,8.8447,-27.5462,-25.4192,58.8451,-45.5753,60.4413
-3546.8750,-26.1305,86.3384,20.3982,62.5646,-53.5253,29.8568,-21.9429,-49.0269,53.2796,-98.7339,130.0906,-22.7702,-36.1148,-22.4814,6.9611,-28.9509,7.8585,22.0167,-47.7974,20.6376
-3539.0625,42.9127,85.7207,19.0133,96.1969,-91.8913,28.3284,-60.4881,-51.0217,-22.4928,-26.1773,128.9611,13.6379,-36.8735,-60.3515,-31.4171,-103.8623,76.6400,55.7008,-49.5200,55.7984
-3531.2500,85.3022,58.4455,25.9798,68.1863,-84.9021,-1.8472,-90.6791,-44.6576,-52.9118,17.7314,99.1718,58.3925,-29.2863,-89.8825,12.5537,-59.4327,118.7727,-7.2588,-77.8844,-10.6556
-3523.4375,24.1340,-2.3838,34.3979,41.6215,-2.4537,6.4300,-118.4121,-36.8268,-7.8813,-10.8961,71.8264,-6.4104,16.7390,-43.9743,20.9775,-13.5701,92.3567,36.2340,-104.7866,33.4016
-3515.6250,-9.0473,-71.2303,108.8119,78.0582,35.9980,81.7120,-117.1349,-108.9771,-6.8300,-46.5116,36.4730,-78.2308,55.7504,-5.0793,-14.5977,62.2774,58.9400,72.7349,-137.6669,73.8545
-3507.8125,35.1588,-26.6901,81.6147,16.8859,44.8496,16.3957,-72.4466,-173.7072,-35.3533,-37.7221,45.5121,5.3393,28.1524,4.2111,31.2368,107.5182,32.9234,11.6297,-129.1318,4.3690
-3500.0000,97.1475,71.6471,36.2131,43.5106,36.5081,-29.1158,-43.9480,-219.6258,-81.0598,-46.1285,0.3429,107.6990,-16.6558,-3.7039,22.8723,-10.4525,24.7095,108.3322,-103.7892,100.4178
-3492.1875,16.5794,96.4230,62.2566,102.5894,25.6190,-3.1770,19.0107,-194.0831,-55.3036,-94.0812,-47.3853,134.4973,-27.0208,22.8210,-25.0339,-94.9775,13.9477,97.4879,-44.9896,98.7981
-3484.3750,-25.6407,89.5310,54.6425,60.0121,18.0832,-10.8867,48.3266,-165.1780,-26.1721,-101.6638,-54.7714,90.6313,2.9507,52.6870,-69.5843,-65.1554,41.5353,89.9905,-16.8317,92.7780
-3476.5625,-26.7709,123.7165,89.1279,93.5389,16.6462,24.5121,9.7453,-131.1571,-101.9159,-139.1343,-56.0741,53.8422,-34.9882,-22.3529,-71.0297,-29.2369,75.2253,123.6040,16.4339,133.4341
-3468.7500,13.8329,165.6343,58.3644,63.8142,21.9593,-7.3326,14.9224,-90.3684,-59.8869,-133.8527,-87.6377,59.7850,-66.1818,-53.6467,-28.7182,-23.5702,80.6656,58.9651,21.4591,66.3677
-3460.9375,-44.4701,72.6397,33.7005,41.1822,-2.6293,4.9236,-9.7899,-78.4636,136.2668,-48.4554,-111.1067,-1.1847,-90.2897,-77.8505,20.6983,-47.8110,93.2006,71.4292,33.5922,77.2865
-3453.1250,-163.3350,24.0847,-19.5116,27.0024,-18.7674,-11.3748,47.9530,-58.1019,193.8940,-27.5938,-126.1283,-16.7107,-31.9635,-92.6156,114.5684,47.3855,44.1932,22.3486,19.1817,24.5146
-3445.3125,-165.1073,22.6237,-58.6168,-46.0746,-20.8043,-13.5770,82.7981,13.3676,117.6378,7.3794,-128.0636,-18.1386,-33.5485,-58.2913,149.5429,45.6738,42.2945,20.3664,16.8749,21.8750
-3437.5000,-75.7405,7.3030,-74.5646,9.0090,0.3179,7.3710,102.7956,-3.0008,28.5365,-8.4974,-71.8623,3.5742,-48.9944,-36.8275,96.6682,-80.8956,61.5510,74.5475,0.7258,80.3609
-3429.6875,30.5693,42.9229,-0.5587,44.0500,37.3958,7.2697,66.7538,-40.4029,-45.6098,-45.4239,2.2835,41.2238,-48.4969,-36.4277,-50.2515,-80.5225,61.7556,4.6776,0.5386,11.7079
-3421.8750,60.6690,73.3299,31.2479,73.8875,69.2757,1.9693,24.5150,-45.9920,-123.9430,-50.5383,-2.7676,-0.3357,-16.2096,-4.2378,-164.3618,-121.3563,56.7583,69.6104,65.1564,81.5933
-3414.0625,-0.3446,-23.3793,76.9596,82.6294,78.0582,10.5704,70.1841,36.3288,-151.3549,-78.7396,-67.9230,8.9884,-44.0316,-32.1651,-119.5699,-112.2963,30.6634,43.4502,179.6797,66.5522
-3406.2500,-90.4103,-111.1476,55.6229,-42.6854,19.7971,-10.8848,85.8109,124.6133,10.2045,-25.9781,-88.1442,-11.7463,-64.9091,-16.1556,-67.8219,-23.2924,-24.4865,-11.7642,265.1662,6.9397
-3398.4375,-155.1400,-141.5718,-13.3630,-37.6467,-49.1083,31.0069,90.7988,129.2610,89.1266,16.1420,-83.0280,-6.1484,-95.4385,-47.8140,48.2777,-17.9531,-54.2775,-6.6189,270.0154,8.2010
-3390.6250,-120.8935,-73.0083,-52.3504,-74.6068,-51.0107,28.8966,124.8030,163.9232,87.0627,14.2640,-84.9232,-44.5630,-96.9725,-49.4814,83.3840,-19.6153,-56.0657,-43.4700,232.8786,-31.3145
-3382.8125,-93.9605,-44.7655,-22.6402,-81.8704,-58.2108,21.4914,81.5151,193.3034,79.7196,44.0949,-92.1267,-87.2950,-30.8155,-19.4548,2.2001,-26.5836,-28.1520,-15.6185,154.4516,-4.9152
-3375.0000,-110.4282,-60.9417,34.6660,-28.5283,-0.8107,4.6935,27.8334,176.2997,98.9953,100.5369,-108.7402,-30.4463,-47.0730,-35.8359,-51.3795,31.0364,-8.6420,-67.1588,67.6403,-57.1861
-3367.1875,-112.4569,-27.6793,32.4184,-100.7448,-2.9598,-71.6505,25.6123,173.7666,96.7404,98.4440,-74.9095,41.8371,-48.8908,-0.7741,-16.5004,66.1070,24.3145,-104.2592,-4.7124,-102.6327
-3359.3750,-80.3986,5.6660,29.2691,-68.8685,-6.0104,-74.8927,22.4996,96.3484,57.6064,132.4646,-40.9863,2.2030,-51.6209,-3.6215,-93.5109,-10.7236,126.3767,-37.2533,-7.9582,-33.0554
-3351.5625,-10.8993,4.4407,27.5759,-35.5379,29.3952,-76.6829,-16.1582,58.3952,-55.0642,130.9410,-42.6206,1.0091,-52.9091,-5.0200,-95.0685,24.8870,195.8910,-38.7983,-45.7507,-34.3444
-3343.7500,22.3914,38.0021,62.6818,-37.4105,27.6116,-41.6745,18.9853,19.2538,-129.9213,92.2274,-44.4618,36.6057,-54.4048,-43.6228,-59.8189,-13.7107,194.2114,-4.5441,-82.7394,1.6616
-3335.9375,96.3259,77.2025,66.4430,37.3700,31.4912,-1.0112,22.7824,-51.2354,-53.1166,-13.8354,-77.6573,40.8336,-50.2595,-76.5854,18.0864,-83.6602,92.1826,34.3687,-114.0760,38.8239
-3328.1250,71.6583,52.7956,2.6100,-23.4428,-69.2236,-64.9468,69.9793,-41.3182,178.0921,-40.4936,-30.4530,51.4506,-2.7267,-102.1575,101.3977,-36.2111,32.5586,-26.3207,-138.0102,-34.4551
-3320.3125,-29.1656,23.2234,-29.3641,17.6005,-100.0834,-96.0241,75.0253,-109.5416,257.1536,38.7099,11.6007,19.9018,-34.3532,-132.8898,180.5641,-30.9218,72.7885,14.8478,-169.0929,3.6906
-3312.5000,-73.1986,84.4329,-38.5318,8.4510,-109.1332,-105.2959,101.8748,-118.9548,248.0341,29.7142,2.4471,48.1383,-43.1880,-105.8352,208.5366,-39.8413,63.8158,-30.1786,-142.3659,-42.5435
-3304.6875,-84.0867,108.7817,-86.5468,-38.5561,-84.0270,-116.4199,127.8858,-94.2037,273.0952,55.8772,-45.5712,37.5139,20.1193,-6.6396,197.6574,-87.6154,17.9865,-76.0609,-119.4749,-91.9773
-3296.8750,-83.9341,4.1726,-86.5099,-2.5106,-46.8654,-43.4969,127.9613,-94.3931,237.2245,19.0940,-82.5551,37.9240,20.4679,-6.4038,123.8295,-87.3527,53.2109,-40.8854,-49.5174,-47.0497
-3289.0625,-73.1933,-20.8504,-38.8735,-62.8689,-36.1011,-32.9756,65.6489,-46.9639,136.9613,-7.0763,-71.9496,48.9235,31.4092,4.4195,61.6160,34.5059,64.0365,-65.1158,-2.9456,-70.1202
-3281.2500,-30.7678,-48.1949,5.4585,-55.5381,-28.6379,11.2440,-37.9553,-76.8120,107.4172,37.4780,9.3536,-17.3912,39.0436,11.9345,69.1051,-31.9392,71.5596,-22.6447,-31.6590,-29.0880
-3273.4375,-4.0427,-92.2611,-3.9060,-29.9038,-37.8719,38.7734,-47.2512,-49.3452,62.1880,-45.6820,73.9545,-63.4243,29.9750,76.7373,132.8929,-41.0801,27.3836,-31.8686,-5.0653,-37.2926
-3265.6250,-62.6756,-113.6883,-28.6215,-87.6315,-62.4538,50.9545,-34.8855,-37.2062,74.6270,-70.1876,49.1990,-50.8223,42.5532,125.1774,219.3403,-28.5709,4.8543,-54.4492,42.1888,-62.2612
-3257.8125,-64.4721,-115.2709,-30.4898,-54.5156,-64.1891,48.9895,-36.6560,-39.2045,108.9282,-71.8174,47.2892,-15.3873,-33.0274,50.4568,254.6536,6.7749,3.1771,-21.1812,5.2976,-28.4900
-3250.0000,-4.3768,-21.9610,-41.4633,-65.5086,-75.0267,0.9182,-84.5191,-50.2926,98.1466,-8.5197,36.2729,47.9363,-6.7152,39.6272,206.8841,70.0247,-7.6042,-102.0283,-41.6837,-118.8208
-3242.1875,19.9048,3.5358,21.7559,-41.3090,-48.6727,-9.9578,-131.1731,-61.1688,51.6073,54.9919,25.4444,74.4463,-17.2081,28.9943,85.3262,22.4686,51.8123,-77.6816,-52.4496,-90.5296
-3234.3750,-20.2283,33.6149,53.5782,24.4972,-16.7204,21.7683,-100.2189,-29.4342,9.6903,13.1008,20.2066,-4.4583,-22.1071,-13.0465,-29.6251,17.5058,81.8290,-47.7275,13.3991,-47.5223
-3226.5625,12.9311,66.9722,-22.2925,-12.3943,-18.4662,-17.2079,-64.9609,5.6186,45.0714,11.5065,55.2672,-6.0778,-23.7083,-14.7955,-68.2740,15.8597,80.1491,-84.4736,46.5584,-87.1683
-3218.7500,53.6455,72.8547,-90.6014,-6.7286,-12.6633,-11.6273,-22.1482,-25.7711,14.0012,-56.5325,60.8736,-0.1650,-17.7682,-9.0055,-62.3735,-15.2419,86.0274,-7.6580,52.2752,-9.9457
-3210.9375,23.6104,42.9762,-85.6534,-37.8068,-7.6088,-6.7913,-17.0780,16.0992,-17.8104,-51.3137,28.7207,4.9866,24.4198,-3.9775,16.7828,26.8924,56.1515,-38.5929,22.2486,-42.4554
-3203.1250,3.0195,-13.4585,-34.2510,-58.4427,-30.0979,-29.5102,-39.5494,30.4305,-3.1468,-36.6400,6.0099,-17.4177,2.0532,-26.5065,68.3922,41.4714,70.7185,11.9186,36.6793,9.9467
-3195.3125,69.6222,-16.7075,36.3548,9.1276,3.6147,-33.0273,-42.8173,-10.0320,-43.2708,-112.7702,-71.4977,-20.6366,-1.1225,7.1566,28.2035,38.2522,32.4849,78.6369,33.3202,81.6780
-3187.5000,82.5241,-2.6692,51.2696,21.9907,55.6266,-55.2450,9.2196,-32.1873,-28.1047,-134.5953,-129.7005,-42.5685,-23.0019,95.1214,43.3142,53.3364,-60.4404,56.6485,46.2728,59.4086
-3179.6875,12.1646,-108.8896,50.9478,126.6044,128.3883,-18.7129,46.0197,-69.5851,8.8209,-24.6572,-166.1631,-115.7704,13.8619,94.8310,43.1785,-57.8408,-164.6108,162.4109,45.9873,171.9472
-3171.8750,-94.5049,-179.4245,50.3332,125.9198,164.8508,17.5282,81.5224,-33.2703,45.4767,48.9875,-130.9420,-152.2874,86.4125,21.2327,42.7477,-58.3242,-165.0788,90.8715,45.4112,104.2112
-3164.0625,-163.7799,-143.5732,50.1187,55.6263,164.7109,-19.8288,81.4321,-33.5387,45.5435,122.0354,-95.3208,-152.4149,86.3544,-15.9688,5.7183,15.5986,-131.1438,90.7271,45.2451,100.9883
-3156.2500,-88.9483,-137.6389,92.0048,131.4321,133.6689,22.9167,51.4532,-64.6935,-59.2978,55.1832,-52.5986,-183.4520,92.3922,-47.0844,-25.2091,58.6247,-90.1053,96.6819,16.1933,110.4231
-3148.4375,54.0314,-66.5615,131.0440,63.3817,98.7734,-12.1946,-20.3697,-62.6786,-165.9837,-16.5211,23.2734,-108.3461,94.5747,-8.0537,-59.9785,60.8028,-52.9145,28.7732,18.3007,35.7944
-3140.6250,87.3541,-33.1313,166.4344,61.6736,97.2184,23.0393,-58.8386,-64.2998,-241.3008,-91.8641,94.4936,-109.9026,93.1002,27.3176,-24.3916,-51.6766,-18.3657,62.2137,-18.2385,70.7045
-3132.8125,50.1264,-70.2640,164.2829,59.4138,59.1067,20.7212,-60.8546,-29.4582,-206.1502,-19.7426,56.1574,-112.0225,128.0679,-11.8713,10.6542,-53.7104,-56.3674,25.0986,49.6821,33.6556
-3125.0000,42.6907,-42.6134,156.9312,16.9445,51.7953,13.2044,-31.0644,37.1996,-176.1864,83.2003,11.6145,-83.3560,83.8351,-56.2669,3.5087,-97.9451,-63.5738,17.7734,42.4157,27.1334
-3117.1875,63.3856,14.1700,179.7330,72.6262,73.6340,35.8464,-8.1146,59.0267,-190.0641,69.2990,-39.7929,-60.5572,33.7519,-70.5154,-84.4826,-184.0309,-41.6355,38.6025,63.3156,56.5746
-3109.3750,-21.3804,34.4912,202.0890,22.8602,59.0235,-15.9595,-22.6042,155.4164,-132.3826,54.9426,-54.6523,-75.2172,55.2116,-85.2195,-98.9148,-126.5627,-21.1516,-46.0243,154.7754,-26.1316
-3101.5625,-83.2776,78.6611,137.2952,-3.0616,68.2558,-43.9137,23.7585,127.6606,-48.8464,28.4381,-82.6440,-29.0361,28.5101,-149.0872,-126.4923,-117.2486,23.1849,-1.8001,199.0795,18.7503
-3093.7500,-19.8536,106.1207,92.8031,-10.6764,24.7782,-51.5645,16.4134,120.2104,17.9917,21.2409,-90.3160,73.4263,-15.9050,-156.6629,-96.7751,-87.6443,-54.1705,-9.2698,156.6867,2.1881
-3085.9375,20.3235,76.3201,61.0629,-76.5414,-6.9517,-9.4656,21.8177,88.5195,59.5893,-10.1992,-122.2369,115.6201,-47.5678,-78.4925,-54.3097,-8.2883,-84.7752,-3.9941,91.0507,-0.7596
-3078.1250,34.4763,-50.4957,112.3303,8.5992,-29.6740,41.6388,-0.7647,-7.1641,38.1943,-32.6419,-144.1622,56.7936,-33.2259,-27.3199,-39.8479,79.0678,-34.3808,45.2896,0.4194,50.0987
-3070.3125,2.5700,-47.3837,152.5563,-23.3040,-26.4381,7.7033,2.6088,-77.8862,4.7374,7.8631,-31.1411,95.9055,7.0674,49.8059,-73.4318,82.3864,-31.0445,-21.4827,-67.2569,-24.0728
-3062.5000,-98.4248,-42.3883,157.6844,-54.3179,15.6919,-24.3281,7.8817,-72.6954,10.1812,86.2865,-26.2218,100.9073,12.2524,54.8330,-31.1020,51.6077,-25.8185,-16.3634,-97.0268,-19.9557
-3054.6875,-3.3216,-53.3087,109.9159,-29.2345,4.9207,-35.2583,-2.7411,-9.3911,-0.2620,75.8254,-74.2069,53.9927,1.5302,79.9470,-4.6613,113.9214,-72.4983,-63.1408,-72.6821,-68.2025
-3046.8750,61.0650,-58.9444,67.4507,-105.8535,-0.5516,-77.8871,28.9482,58.2348,31.6116,107.6723,-152.8960,-25.6343,-3.8913,111.3519,27.0825,145.5314,-112.8840,-103.6258,27.9773,-109.9927
-3039.0625,-45.9112,-130.9527,29.6430,-72.8172,34.6252,-5.8642,63.2958,93.5283,66.1366,106.1734,-227.9309,-64.6346,67.3385,36.4021,-11.5281,106.7958,-79.6255,-34.4533,96.3015,-29.3043
-3031.2500,-148.5967,-127.6803,-3.8577,-69.4761,74.1041,-2.5364,103.9509,134.1311,-3.0422,72.9738,-261.6657,-24.3513,144.8690,2.7472,-44.8324,147.3720,-111.0770,-30.9814,170.9398,-20.6037
-3023.4375,-118.7373,-97.8618,-8.8049,-38.5946,106.1316,29.3429,62.1678,129.2932,-118.6630,32.3200,-192.8615,-29.5258,139.9548,-2.3622,-86.5764,68.5030,-80.9848,34.0328,201.1389,49.1820
-3015.6250,-114.7902,-93.9503,32.3516,35.3848,110.2578,33.3200,66.4929,96.5648,-260.1759,-74.2227,-79.9602,11.3883,107.1426,1.6203,-155.2134,-0.2727,29.2089,38.1431,240.4489,62.7331
-3007.8125,-43.7437,47.0510,-4.3919,0.4549,73.4789,-3.6087,66.9223,96.9498,-222.5887,-110.6462,-42.9534,48.3917,34.4289,-35.3008,-154.7433,0.0571,64.5042,3.3385,205.8662,21.7754
-3000.0000,-10.2839,45.4449,-42.7367,33.9183,36.0935,-5.1406,29.7549,132.7467,-150.6031,-111.6672,-44.5420,9.7833,-3.8873,-110.8228,-119.8753,-38.2087,98.1999,71.9325,204.6933,91.5771
-2992.1875,-40.1708,50.4751,-37.4320,39.0367,4.3600,-0.0251,35.2410,138.1984,-71.9532,-106.0391,-76.4789,14.8181,-35.5552,-105.6946,-40.3587,-69.8309,103.5432,7.1720,210.1806,25.8912
-2984.3750,-29.6194,95.9449,-63.6785,-20.4087,-21.9223,-26.4589,46.1841,149.1079,-60.8316,-20.9511,-102.9762,25.2957,-61.7790,-58.1086,-29.3825,-95.9984,150.3335,-17.1508,151.1275,-3.7152
-2976.5625,3.4699,93.9504,-65.3729,12.6925,-23.6537,-28.3385,80.6835,147.5785,-25.1546,14.6965,-67.9299,-13.6915,-63.4512,-96.9805,-67.8471,-97.6034,112.6667,-18.9256,113.6335,-5.5336
-2968.7500,32.2706,122.6357,-34.3679,-64.5121,7.3129,-71.5126,74.8866,141.7613,79.2171,46.0431,-37.1736,17.0118,-69.4165,-103.1550,-36.6091,-66.4985,36.6939,-61.0084,2.8424,-58.1623
-2960.9375,51.9306,37.1592,-51.5127,-8.8754,-9.8756,-51.8341,58.9479,87.8070,173.4380,29.2393,19.4365,-37.4394,-49.5315,-83.4848,-53.5177,-83.5441,21.5697,-5.2448,-48.0953,-4.4345
-2953.1250,65.9399,-54.9666,-74.3062,-30.8888,-69.7181,-0.8057,36.3648,66.2049,151.0285,6.7785,70.3942,-60.5355,1.6935,-32.4685,-2.0679,4.7611,0.7950,-27.1412,-68.6824,-32.2826
-2945.3125,26.6925,-128.3404,-78.3435,-70.1588,-73.8177,-5.0339,69.5344,62.3558,147.3858,77.0691,102.1006,-100.8829,34.6673,0.2990,-42.8624,37.8260,-3.2327,-31.3005,-37.5181,-36.5766
-2937.5000,12.0881,-109.0767,-55.7247,-49.7707,-14.2750,17.3923,55.3523,48.1552,96.3938,99.0302,51.4672,-79.5930,20.2858,22.7178,-20.0135,-50.4650,-17.6024,-9.8081,-15.6992,-11.2047
-2929.6875,9.9346,-5.3676,-57.6460,-86.9351,20.7181,15.2695,53.6225,46.4069,21.8449,61.4504,12.2947,-7.8575,18.3573,20.5845,88.2831,-52.3079,-55.5250,-82.8749,-17.4296,-88.0955
-2921.8750,-53.9074,1.6364,-87.2620,-79.8069,-8.9895,22.4468,61.1979,16.9674,29.5875,69.1749,19.4288,36.1730,25.7271,-9.2478,95.8799,-44.8534,-48.1513,-40.6444,-9.8602,-46.9190
-2914.0625,-14.5296,-66.1787,-83.6717,-41.4702,-5.5088,25.8325,64.9713,20.7334,33.5260,73.0849,22.7742,-34.6158,29.2882,-5.8857,63.6816,32.8227,-79.5806,-37.2121,-6.0869,-41.9850
-2906.2500,58.5628,-132.3075,-152.3778,-108.4346,-39.3388,28.9168,31.4322,97.2141,74.1889,76.6852,25.8290,-104.7265,32.5460,71.1763,103.1896,109.2182,-111.3189,-69.0875,-2.6121,-80.5901
-2898.4375,21.6045,-205.4892,-191.1310,-40.4470,-4.2225,99.9527,29.8413,95.6547,72.8061,75.2326,-13.1611,-142.9055,30.7576,69.1837,138.6492,71.5517,-113.1059,-0.0068,-4.1757,-5.4340
-2890.6250,-11.9128,-169.2210,-226.4244,-109.0081,-2.6534,65.4393,104.7090,134.5539,110.8529,40.2297,-11.7048,-69.6344,32.4341,33.6358,140.5555,109.3257,-145.4386,-69.4818,32.7214,-76.9498
-2882.8125,-9.9859,-131.5066,-224.2664,-72.1259,-0.6280,67.3761,107.0350,99.9111,150.3399,79.6798,-9.8024,-67.9132,-2.4326,-1.4561,69.9116,38.5438,-109.3211,3.4910,0.0711,-1.6632
-2875.0000,-20.7609,-73.4993,-160.8070,23.0610,25.6997,56.6169,60.6652,16.5722,140.1286,105.4327,16.3960,-41.8953,24.0039,-12.2493,-14.4324,-8.9405,-84.9108,-7.2386,-46.2730,-11.8219
