Time,Fp1,Fp2,F3,F4,C3,C4,P3,P4,O1,O2,F7,F8,T7,T8,P7,P8,Fz,Cz,Pz,ref
-4000.0000,-84.6245,-22.5233,77.5568,28.6915,45.9266,32.2258,-46.3832,6.2617,-16.2695,-42.5913,-62.9217,-44.6684,9.6935,-8.2489,84.4360,0.9094,-11.6530,-44.6988,28.9403,69.9408
-3992.1875,-50.5852,116.8555,42.1642,-39.8116,47.1631,-76.1397,25.5840,79.5261,-15.7402,-154.0397,83.4815,-155.6102,84.2499,-81.2898,11.6856,38.0923,23.3003,-45.3294,-5.1655,71.6089
-3984.3750,147.1374,69.9213,-77.5312,-50.6115,37.1112,-50.8022,14.2622,31.4819,-26.4930,-128.7822,254.5726,-204.8620,147.5094,-19.6214,75.6321,-46.0145,-58.0509,-92.2730,-84.5687,61.9827
-3976.5625,351.2986,-146.5666,-191.7819,-126.9675,32.5070,-129.0175,45.3994,136.8924,42.2199,47.9451,358.1110,-321.6794,105.2123,-172.5109,34.0269,95.3408,-133.9621,-63.7739,-20.5069,57.8135
-3968.7500,409.3550,-335.1620,-202.1350,-208.4412,21.8035,-177.3401,107.4493,162.2151,67.8404,182.6043,382.5421,-334.6122,130.8155,-110.4970,-13.6842,193.5965,-145.9879,-181.3821,3.4700,47.5505
-3960.9375,224.3025,-379.8877,-134.5953,-251.0183,-21.9882,-184.7587,99.4076,117.4383,60.3719,211.1725,336.8572,-123.6446,123.3185,-9.5680,53.5020,185.7524,-119.1252,-296.0868,67.3576,41.1927
-3953.1250,86.0003,-164.8920,-129.3116,-317.8546,-90.0245,-327.4295,140.1341,194.4217,137.6780,251.4941,266.9157,-120.9360,163.5651,-114.9068,-15.5744,189.6681,25.4889,-328.0357,107.0077,46.5916
-3945.3125,112.9888,3.3955,-208.7326,-253.4020,-131.7575,-296.7964,206.1811,77.7097,242.3069,170.1136,185.2614,-54.9220,121.1032,-48.9418,15.6422,35.8801,52.3910,-300.6840,30.9682,41.2946
-3937.5000,154.2789,-61.0141,-236.8590,-210.6572,-197.1878,-251.8598,213.5367,48.2984,213.2467,104.0429,265.9012,-48.6177,91.9399,-151.6810,24.1436,117.3962,-10.4230,-118.0243,3.2388,50.3008
-3929.6875,282.9819,-249.0127,-172.5915,-256.5279,-170.2158,-226.5273,202.3011,74.2880,202.5936,129.3788,326.9430,-170.9183,81.1791,-89.0239,-22.9701,106.3166,-21.8496,-59.9595,-7.0952,40.7101
-3921.8750,304.4036,-227.3201,-146.6399,-163.6895,-144.5436,-164.4851,152.7648,-12.0389,153.6496,189.4042,240.6848,-148.5092,69.1151,-29.6524,2.6149,19.9320,-34.5795,-108.1948,17.2639,29.8202
-3914.0625,143.2589,-2.2178,-56.2416,-253.3939,-91.4237,-293.9891,169.6989,-31.9151,245.1781,279.8907,145.8625,-58.6575,86.4994,-232.8340,-53.3615,37.0057,-18.8613,-128.9705,103.0899,11.3820
-3906.2500,-9.1631,55.6170,44.9192,-264.3440,9.4480,-268.7343,158.4007,-115.0433,160.4721,231.1317,59.7649,74.9425,75.6289,-97.2519,-63.5863,25.8196,3.5986,-105.9967,22.6800,1.6961
-3898.4375,115.6127,-29.3251,32.2800,-137.0939,-3.4756,-171.2832,34.3116,-92.9743,36.9771,142.5767,155.8522,-14.2517,61.9486,-75.4839,-76.6101,48.8227,-10.7546,19.1801,-25.5204,-10.7890
-3890.6250,245.5311,-179.1094,-12.2150,-76.7098,-11.2424,-143.6949,62.3922,-28.7479,101.6492,170.1908,256.0767,-207.3020,16.4225,-47.5850,-120.4956,-34.0168,15.0314,45.5126,-33.5626,-18.1251
-3882.8125,181.3427,-243.0294,-40.8193,36.5775,-40.1057,-100.1992,179.3777,-94.6166,183.2239,102.7096,189.1850,-164.4529,-13.1906,70.2386,-76.4877,-100.9440,21.7071,-19.2479,-61.7072,-9.5618
-3875.0000,154.2124,-199.9426,6.6166,10.9185,-29.9158,-90.6457,188.4103,-121.4264,118.8507,1.2836,160.3422,-82.5617,-3.7446,5.1258,-102.4440,-54.8083,101.4188,24.0604,-86.8006,1.0502
-3867.1875,212.5350,-106.4097,70.5021,70.7114,-2.2711,-63.6324,67.8998,-205.7865,-1.0606,-155.6848,185.9427,14.7786,60.1432,104.4794,-111.9658,-174.2307,160.5645,12.8175,-131.4412,-7.8912
-3859.3750,235.7795,-12.9127,98.3434,95.4516,98.3351,0.3324,-53.6354,-253.2058,-84.9916,-277.6882,247.4654,40.0754,49.9755,93.7715,-85.5580,-221.6966,114.6540,107.5227,-175.1302,-16.8879
-3851.5625,336.8448,17.4337,23.0319,-12.9762,58.7976,-39.8678,-20.2957,-219.7654,-51.0468,-281.8190,316.8209,-1.7788,82.6593,16.8975,-124.3250,-116.2906,110.5942,68.0833,-143.9609,-19.0371
-3843.7500,295.1700,151.9987,-18.0386,16.8486,54.5108,29.1885,-62.7063,-298.0747,-92.8553,-287.6863,236.4265,175.6303,77.5887,84.2947,-92.8526,-193.6338,104.7799,-9.1094,-148.5424,-22.9373
-3835.9375,221.3765,255.3921,-18.2774,-19.4787,18.0688,-8.9035,-64.2647,-299.5309,-56.8069,-178.7023,196.8928,99.8951,76.3588,-64.4568,-129.5495,-123.1191,102.8023,129.5660,-114.2726,-22.9902
-3828.1250,145.8795,74.0775,15.7785,-23.5062,87.9313,24.3083,5.4968,-230.6895,49.5619,-37.4147,118.6407,20.4645,36.4291,-68.9010,-132.9632,-163.3059,27.1170,159.5509,-82.7073,-25.7482
-3820.3125,1.1601,-140.4521,14.6367,-25.7260,86.6056,95.3282,113.0705,-196.0503,121.7473,-3.3115,4.1658,53.8355,-2.7005,-71.5410,-98.5932,-92.6901,24.2203,156.3458,-13.3392,-26.7118
-3812.5000,42.1855,5.7635,-50.7546,-124.1968,22.0324,103.0931,120.4127,-79.6451,129.6977,-70.4434,84.4244,-14.0543,4.9150,-64.4398,-162.4942,-48.3149,67.0644,57.8998,-5.2125,-17.9329
-3804.6875,288.1990,110.9757,-159.1563,-88.6674,-87.5378,140.8619,83.7666,-151.2305,93.6561,-70.5592,120.6629,22.0741,-68.4778,119.6771,-125.4112,-84.9409,30.9002,-48.5510,-110.0801,-16.1613
-3796.8750,318.2015,-34.8100,-197.5757,-57.1480,-163.1081,63.6238,154.1331,-82.8129,164.6232,-0.6455,152.8861,-19.7774,-180.8738,42.7878,-128.3426,-14.5589,26.7250,-17.9938,-6.9374,-18.3964
-3789.0625,23.1966,-257.6004,-99.0095,2.3578,-63.6790,52.3790,289.5122,-20.3805,226.6027,24.2944,29.1014,-32.6234,-156.2735,30.9043,-139.2956,46.8272,14.5385,5.5715,52.2155,-28.6390
-3781.2500,-357.5261,-217.1129,92.8465,114.1730,18.0499,133.4439,223.2046,-123.6399,197.8951,103.5463,-185.4060,46.8340,-76.3758,37.3433,-95.9612,17.5070,-14.3546,46.4462,59.6755,-20.5887
-3773.4375,-273.8889,146.7197,184.0443,58.3429,71.1186,38.8630,128.2585,-144.5387,177.5486,119.1512,-170.5609,-49.3525,-23.1404,-94.8659,-152.2982,-3.4672,-35.8987,94.6827,-30.5204,-40.1978
-3765.6250,56.6761,267.4618,129.1202,74.4197,53.0793,57.1891,72.2145,-163.5397,48.1036,25.6577,-80.8106,4.3785,-116.0151,32.8374,-170.7498,-96.5469,-20.5523,4.8226,-119.8277,-57.9182
-3757.8125,91.9910,56.9431,57.9290,112.2441,-17.2133,-13.7379,147.9277,-51.7874,124.4152,26.9373,-7.3190,4.8675,-151.1445,-75.7066,-168.4675,-57.8568,-19.4677,5.7250,-11.3804,-54.8991
-3750.0000,53.3928,-52.4912,19.8224,39.1537,-55.4076,-52.5658,218.7541,56.0823,159.8389,61.3346,26.2542,-72.5405,-79.1727,-41.1416,-170.1067,-23.0444,-22.2893,2.7388,-12.8230,-55.7891
-3742.1875,29.7783,-75.9330,33.7003,87.0632,-78.6037,33.6174,84.5936,-4.0459,62.2707,0.7464,37.8050,-60.9250,-66.2034,81.4485,-120.7587,25.7677,25.8760,14.7571,-69.2664,-41.6883
-3734.3750,-38.9998,-108.5284,112.4118,55.8150,-73.9524,1.6419,88.2996,-0.3181,103.5718,-32.9580,3.1985,-95.4431,-62.3910,-25.1211,-152.5770,140.4409,63.8813,122.6371,-64.8614,-36.7478
-3726.5625,14.2743,14.9163,134.1608,39.6135,-15.2499,21.7121,146.0687,-53.5417,124.9345,-49.5928,-87.3648,35.1024,-41.5311,-41.6304,-132.3608,-59.8317,11.9309,70.5761,-80.4190,-51.7675
-3718.7500,41.4508,112.2444,91.7972,68.3203,15.3463,89.6942,65.7354,-22.8660,-27.8029,-130.3191,-22.0383,100.5550,25.2228,-122.2247,-138.2549,-177.1916,-31.1321,134.4319,-16.0707,-56.8978
-3710.9375,34.5674,70.5272,87.3732,62.9694,47.8802,121.6250,-49.6365,44.7730,-143.5806,-173.0725,8.2148,20.9716,93.9268,-16.8630,-179.2140,-145.6017,33.7406,128.2463,14.2432,-61.0905
-3703.1250,-13.4957,-47.3354,76.7835,87.4709,74.2541,147.4114,-61.1446,33.2668,-80.5001,-110.9536,-41.7146,8.2713,8.4841,155.3658,-117.3267,-46.1629,-49.5594,79.9145,-31.5821,-71.4473
-3695.3125,-16.8241,-86.4541,1.9239,-20.2899,36.3751,71.9418,84.1109,142.5233,102.3423,-39.0740,-81.9074,-142.6564,-66.2134,42.3385,-118.7001,99.0562,-52.1211,113.3517,2.3456,-72.0688
-3687.5000,62.7577,-76.6603,-96.0570,-79.1565,-24.6078,83.3733,58.2753,116.6764,77.0913,-28.2919,1.7897,-58.6616,-55.0243,90.2278,-107.1844,-0.8141,99.2084,52.6999,-55.8357,-59.8064
-3679.6875,137.7306,69.5426,-198.6564,-2.6143,-91.1957,90.2129,-119.1525,13.2137,-136.7502,-22.0769,80.8644,130.7636,24.5469,22.5257,-63.2714,-104.2858,245.9249,58.4626,-83.6235,-52.1612
-3671.8750,117.0344,331.0799,-143.9159,48.2764,-35.4305,-2.6038,-138.2100,-5.8948,-155.2238,-152.4775,23.2673,257.5594,-30.5339,-32.8285,-119.0174,-123.4158,225.9754,73.6058,-67.0636,-70.1831
-3664.0625,-68.2873,426.9885,-39.7845,146.5747,30.7430,100.9861,-34.8538,-50.5935,-88.2864,-269.4652,-168.9540,285.7818,-112.2034,106.2441,-89.3664,-131.1567,111.4038,-4.8372,-74.1124,-76.8211
-3656.2500,-163.2742,225.2365,44.6870,122.2227,42.2661,111.9281,11.8611,33.0669,-3.9929,-223.0829,-233.8426,111.3531,-27.5239,42.6698,-115.3722,-46.5162,86.1667,75.0867,-27.8135,-65.1266
-3648.4375,-42.6515,101.0993,26.7394,105.4582,24.3756,93.4674,30.1795,51.3355,-21.1026,-132.0698,-143.1379,18.5386,63.7497,60.6976,-133.7850,-139.2604,68.5205,92.6156,-78.9184,-45.8513
-3640.6250,-8.2798,-5.2647,-8.4815,175.4424,25.2209,130.7616,-42.7492,15.3544,-57.4704,14.7011,-108.7014,17.5119,-9.2327,60.4892,-96.4466,-139.2508,67.6115,56.9033,-43.2737,-44.8456
-3632.8125,-146.6192,-109.3370,31.5710,72.7149,29.3526,60.3541,-2.3587,18.6866,19.4817,91.7807,-142.9819,19.7976,-42.9124,63.5882,-165.8126,48.0757,104.9908,59.5158,30.6713,-40.5593
-3625.0000,-226.7196,57.8217,59.8506,136.2448,-15.2719,125.2107,-11.7106,-101.7295,11.6878,-101.8691,-228.0332,119.3580,-52.3508,201.9604,-64.9283,-34.3384,131.6122,-18.6076,23.8553,-12.0425
-3617.1875,-11.4760,274.3389,-42.5301,37.1370,-81.5476,22.4250,-78.7236,-57.8003,-91.7708,-132.1469,-111.7539,88.2911,-82.4505,24.6919,-57.6956,-27.3993,67.5810,92.6457,172.3827,-4.1986
-3609.3750,184.6523,188.7673,-130.0036,-83.0598,-20.9188,-28.4547,-55.8307,39.0300,-105.3312,74.4800,-18.5996,37.1495,-133.6519,-100.6572,-108.5694,-115.5744,-18.5621,183.8168,228.7975,-17.4798
-3601.5625,4.6650,-25.8926,-131.5856,-49.3420,50.5981,42.5793,-21.0327,72.7530,-69.9906,35.0032,-95.5708,69.9409,-98.9553,-66.0793,-36.5379,-117.8489,-56.8173,250.8980,262.0988,-18.8834
-3593.7500,-177.0169,-137.2455,-23.8898,-53.3257,121.3892,112.9056,85.0722,142.7824,36.6526,-116.1328,-211.2576,-81.9513,-65.9625,3.7891,-114.2020,-84.8007,-96.7823,352.2879,329.6958,-22.0078
-3585.9375,-184.3019,-178.1992,44.1823,81.0880,116.5566,217.6307,79.5822,100.2130,-4.2994,-158.8246,-255.5571,-14.4202,-108.5942,182.0699,-82.4581,-200.3388,-137.3508,240.0853,289.6909,-26.7545
-3578.1250,-233.7967,-123.3454,32.0233,68.2995,104.5042,95.1592,103.8977,87.4532,93.5495,86.3013,-270.0761,-28.0610,-47.4462,-14.8399,-94.9048,-103.0583,-151.1218,156.6982,277.4877,-38.7236
-3570.3125,-269.1441,-88.3186,-2.0137,-70.3487,106.5889,-50.1671,179.3716,125.8565,242.5444,271.5829,-270.4572,-64.5198,-9.1536,-87.5869,-130.2074,8.3869,-150.7493,86.4763,208.4247,-36.5659
-3562.5000,-123.1514,-45.9181,-67.7252,-27.6419,5.0182,-42.1366,187.1919,96.6036,177.8807,58.2234,-190.5040,16.4157,-75.5009,30.0369,-85.1537,53.1852,-144.0443,58.6086,146.6937,-28.0820
-3554.6875,17.3360,58.9889,-28.9531,-26.4368,-30.0655,-40.6145,77.5124,134.8562,68.7121,-50.6109,-82.0618,-57.1190,-74.3372,-78.8371,-120.5964,54.5028,-109.8562,165.2528,148.4487,-26.1216
-3546.8750,32.9173,39.9910,63.9019,60.8770,62.9327,15.0101,-50.0679,80.2138,-95.3549,4.6713,-101.5347,-75.5243,-55.0708,-22.5866,-100.9276,-36.0804,-58.5783,147.0045,131.2920,-43.0861
-3539.0625,25.3374,-248.1592,95.5878,91.0483,94.7607,83.4933,-92.7976,74.4243,-100.5728,146.8221,-72.1783,-119.0517,-23.9651,-65.4668,-106.3984,-5.8042,-65.4583,175.6195,160.9827,-48.2237
-3531.2500,58.4454,-354.5904,-14.0467,54.9072,58.2707,83.6681,17.1794,148.3521,-26.0934,109.6978,-74.1398,-119.8600,11.8325,-28.6446,-106.1713,-5.8044,-66.6433,139.9501,161.3767,-47.6860
-3523.4375,-89.3956,-44.9569,-92.6573,49.8170,90.8145,152.8947,12.2071,32.3339,42.4234,-6.3492,-118.0703,-14.5851,-29.3374,76.2479,-73.8895,-83.7283,-107.7924,134.3336,121.8149,-52.1252
-3515.6250,-170.2654,-20.3759,-27.3511,-29.3289,119.2846,107.0657,77.1783,97.2705,107.8853,58.5857,-129.0491,-208.3297,-38.5665,-79.9117,-82.6595,54.3254,-118.0007,229.6857,113.1978,-60.6407
-3507.8125,-133.5816,-124.2354,12.4761,-25.9263,160.2815,110.7856,80.7045,100.7585,37.8963,99.0993,-127.4869,-205.4891,37.7538,-3.5074,-78.8803,57.9303,-80.6676,92.5956,46.1255,-56.6324
-3500.0000,-8.5777,71.2836,-39.3646,-5.1681,70.6119,57.8617,-82.4189,47.6012,-87.7486,-64.0245,-144.5951,71.7365,95.4151,17.2642,-20.7402,41.8780,-24.9930,-28.1184,67.3975,-35.3009
-3492.1875,-38.2436,148.1733,-68.8665,-139.0588,5.2902,-118.7109,-1.1897,91.8092,29.9489,16.1973,-212.3707,189.3346,65.4283,-11.5979,-13.2556,86.1791,-54.9741,-92.4574,146.0123,-27.6478
-3484.3750,-325.6696,-104.6855,-73.1385,-108.6885,111.2109,-49.0180,104.2906,87.2693,99.8870,122.6785,-292.9185,220.2156,23.6883,130.8208,55.4882,81.7322,-95.7194,-97.5336,141.8647,-31.7746
-3476.5625,-395.3915,-347.8285,-32.7318,-105.6192,188.8151,-45.6224,70.4741,127.4225,103.5214,198.9025,-291.7854,149.8204,63.6398,96.9380,22.9403,231.9977,-93.7762,-23.8947,110.4069,-28.2290
-3468.7500,-426.7488,-414.6029,9.9905,-29.2060,157.7472,-2.8793,39.0133,95.9250,109.5043,241.5067,-288.3068,154.8057,105.9357,139.4180,28.7500,200.6245,-54.4953,-89.8917,45.2725,-22.3626
-3460.9375,-411.1056,-82.3724,-9.3215,23.2200,64.6612,-22.1189,-16.4578,3.4228,17.4737,186.1137,-235.8357,208.8297,86.2340,82.9263,82.5754,108.2666,-2.2226,-107.8746,28.1112,-4.5254
-3453.1250,-239.7220,160.6250,-11.9018,-85.6015,26.3112,-135.6101,-56.1851,37.6780,-58.8203,183.4736,-166.6247,94.6311,120.2817,7.1946,80.1559,142.6828,-6.1999,-76.0929,-9.3086,-6.9670
-3445.3125,-39.3516,9.6585,-57.4923,-58.4167,17.9393,-70.1030,-101.9189,28.9327,-67.1284,63.8437,-141.4310,159.4759,37.3172,218.4842,108.7495,97.1036,-52.1801,-49.3079,-88.7371,-15.4377
-3437.5000,75.2248,-121.0783,-119.9007,-12.0327,-44.2545,-58.4016,-127.4598,40.3906,-129.2512,-108.5568,-59.0425,280.5446,-24.4712,156.9680,157.5565,182.7408,-5.9707,-38.3048,-40.9630,-3.7375
-3429.6875,47.9641,63.3419,-110.1894,-37.5121,-108.3217,-122.5570,-153.8478,-23.9838,-155.2326,48.2249,-51.5015,363.7819,-15.1192,55.6065,167.5183,155.5436,37.3779,-100.1349,-67.0412,6.0823
-3421.8750,-61.4113,342.6521,-74.6072,-39.0884,-109.5032,-123.7985,-119.3315,-171.4508,-83.3217,230.9206,-164.0715,398.9470,-53.8636,-55.8299,240.3981,80.2516,-36.3901,-137.0466,-68.2279,4.7731
-3414.0625,-11.6470,463.1107,-93.8954,-129.5184,-91.5561,-178.8908,-64.6603,-81.7556,-65.2565,175.8001,-76.5010,305.2824,-147.4534,-112.1173,184.4392,98.1235,-57.0165,-50.7967,-51.2762,-14.4147
-3406.2500,53.0185,317.5010,-170.3082,-27.0524,-167.7310,-72.0883,-105.0849,-11.1644,-105.2992,61.6055,-45.0359,375.5574,-187.1385,68.5089,218.3952,20.9012,-61.7475,-125.6546,-19.4516,-17.7313
-3398.4375,17.8969,71.1425,-241.5490,9.6170,-238.7318,-107.0988,-66.3210,137.6148,7.8420,137.6130,-82.3673,340.0756,-258.6263,70.3451,220.5703,59.8963,-96.2825,-89.3092,123.5491,-15.8767
-3390.6250,-155.0103,75.0110,-199.6093,-55.5203,-233.5540,-101.9178,48.6397,216.5943,86.1676,252.8230,-152.5013,197.8187,-216.9199,75.4037,188.9537,102.1178,-161.6278,-119.7453,163.7302,-10.8539
-3382.8125,-305.8239,100.9891,-99.5841,5.4547,-133.2927,-36.6255,-33.3101,170.6747,-32.4223,281.1358,-236.5481,114.6871,-190.1181,140.5856,217.4542,167.4510,-171.8824,-23.0587,83.9958,-19.7622
-3375.0000,-231.7965,-70.1647,-56.7223,-23.7181,-90.1973,-30.4826,-101.4161,286.6104,-63.1812,287.3287,-195.7523,-26.5767,-148.4740,72.6024,149.8146,209.6507,-203.2839,123.5018,126.1079,-13.8509
-3367.1875,-53.3793,-102.9018,-126.4791,-19.4865,-122.7119,47.0591,-97.1305,253.9457,-58.5536,254.9539,-121.5688,14.5868,-180.4395,151.0292,117.5908,67.2649,-200.2836,91.4729,94.6031,-9.5717
-3359.3750,21.0865,43.4257,-192.2071,21.7969,-116.1887,90.6546,-163.7984,187.3275,-161.8886,224.6470,-117.3417,56.8364,-174.3629,83.5092,87.4382,36.9374,-159.2409,203.5095,31.1328,-3.2733
-3351.5625,1.4213,95.6268,-101.1087,38.9219,-22.8384,73.0971,-145.6151,169.5685,-143.3817,134.2005,-100.2616,38.9612,-156.4471,28.8394,-2.8541,93.4651,-144.3545,220.4125,-56.4985,-21.1547
-3343.7500,-120.9895,80.0937,-78.7842,165.3029,35.7385,205.7937,-160.1849,8.0603,-120.6375,120.0178,-116.9355,98.3682,-171.2885,125.4498,-16.8750,79.2395,-160.2281,170.5701,-106.8952,-35.8161
-3335.9375,-150.1542,156.8329,-34.2310,137.9384,-29.4556,140.7391,-152.5097,51.8049,-149.6577,201.0928,-37.3605,-3.9524,-126.8810,-50.6840,-45.6339,124.2823,-153.8517,177.9917,-28.0514,-28.2591
-3328.1250,-82.7094,154.2112,-73.0971,101.1766,-31.0727,139.2847,-154.2457,124.1424,-151.1027,199.7651,-41.1762,-42.6494,-91.8646,20.8009,-83.7793,122.9375,-156.8732,141.0139,-64.6303,-30.1317
-3320.3125,53.5448,-24.5789,-149.1829,63.2316,-69.9177,174.6377,-82.2057,159.2754,-78.7738,198.2368,-45.1861,-7.5082,-168.0475,93.0960,-85.1045,194.3964,-160.0925,103.8466,-137.4329,-32.2346
-3312.5000,-2.3419,-185.5031,-169.4315,9.1338,-90.9340,116.8309,43.6742,175.2642,84.3853,214.5877,5.6596,-28.5001,-78.3845,-0.7581,-141.5725,247.7233,-145.4644,83.5458,-121.3958,-16.5188
-3304.6875,-205.5265,-211.7039,-124.9963,87.7405,-45.2598,125.7299,89.2398,109.9508,56.2122,187.6517,12.2078,17.2321,3.9783,44.1039,-132.3220,256.7602,-172.1383,21.9503,-112.6764,-8.1342
-3296.8750,-201.6410,-172.8097,-119.5323,-11.6033,-39.5580,21.6751,168.8354,115.6911,99.0629,377.7614,51.8120,-124.9637,45.3858,-96.9776,-162.0088,299.8672,-203.7578,27.4120,-71.9226,-2.7283
-3289.0625,-81.1894,-121.3285,-100.5483,-64.3989,-57.3298,4.1652,150.9711,134.9840,81.4474,360.4264,68.9798,-105.5854,27.3447,69.5039,-179.1384,135.5314,-152.8233,9.4256,-159.6355,-20.8019
-3281.2500,38.1651,35.0536,-119.6854,21.7196,-39.2201,95.5589,-14.9983,6.1723,-84.2834,121.0089,85.0554,96.7254,45.1947,161.8991,-161.3524,43.1038,-102.9909,25.3454,-212.4680,-40.0038
-3273.4375,134.0264,166.9434,-54.3357,-21.6668,25.3667,13.4438,-97.4655,-2.1369,-129.5186,2.1157,148.6392,162.5481,110.5351,5.7916,-242.0598,72.2031,-41.6606,16.7782,-220.8131,-48.7342
-3265.6250,93.8415,92.8099,-58.0445,80.8994,21.8850,47.2816,-63.9918,-79.5051,-95.8271,36.1736,106.1748,122.3476,69.8244,76.6625,-207.8027,32.2641,-11.3743,13.1590,-224.2356,-52.5425
-3257.8125,26.5776,-8.3843,-15.8718,86.3659,-8.7255,90.0158,-21.6381,-73.9816,19.7339,116.1331,72.6301,-92.9212,75.0180,45.4398,-201.6345,75.2380,-7.1762,89.4386,-218.7806,-47.4771
-3250.0000,-37.6014,-1.4866,64.3271,128.8809,34.6797,134.7906,21.7515,-103.4106,27.3243,13.1576,41.1583,-122.1146,156.2644,127.2674,-230.4114,-26.7390,34.0750,60.7686,-282.2925,-40.3894
-3242.1875,16.9237,160.1475,124.2083,256.1070,57.7640,84.2652,-28.1634,-190.1484,-22.4005,-147.1136,25.3851,159.4224,31.2077,76.8122,-170.4744,-114.0232,54.0201,-23.1926,-296.1160,-54.6311
-3234.3750,151.7386,226.0999,119.3842,180.6296,16.1472,-103.9643,-32.7748,-84.5755,-63.8403,32.9196,55.9076,118.2663,-120.5514,-148.3489,-210.2356,-7.9914,84.2599,7.1738,-160.6431,-59.6016
-3226.5625,72.2595,5.7600,148.2485,172.8568,45.2270,-74.4894,-40.6895,17.6970,-108.5943,209.6571,9.1352,-36.1755,-128.6160,-8.7963,-145.2911,58.7532,-30.8082,-0.7465,-97.4880,-67.8997
-3218.7500,-29.6014,-23.9754,189.6981,249.6892,87.8963,-31.4098,-72.0150,23.5656,-102.7698,106.0028,-60.0230,-104.0074,-13.0855,-75.6455,-138.7413,65.1147,8.7202,39.9581,-56.7463,-62.6247
-3210.9375,-58.6045,230.1618,196.9835,221.3616,58.4057,-60.4794,-64.4934,-41.7123,-95.1132,-32.7939,-54.3122,14.0121,105.3020,-67.6432,-130.3449,-73.6649,121.1102,-57.4736,-155.1754,-55.5262
-3203.1250,73.9508,222.8942,116.8129,285.5814,-21.5446,6.0056,-182.4403,-85.4525,-175.9400,-150.0491,83.9609,228.6054,24.2469,-1.0699,-62.3909,-116.8936,113.0588,-99.3495,-197.0829,-62.9036
-3195.3125,209.9892,43.1312,2.0773,176.2463,-62.0638,-33.0687,-148.9656,21.2466,-142.3524,-152.8579,225.7109,115.6733,-89.3526,-40.0555,-101.9863,27.3379,73.4684,37.2320,-94.5557,-66.8546
-3187.5000,75.9140,-89.7545,10.1752,149.7657,19.2464,85.7074,-66.6560,66.7826,-133.9371,-69.8110,122.3330,-22.3864,-44.1096,78.8253,-55.7299,-36.5843,9.7303,45.6652,-86.1956,-58.9806
-3179.6875,14.4467,-9.0421,57.8538,125.8978,104.1370,97.0882,-129.7489,40.9177,-195.9277,-21.1544,94.5714,-84.8357,76.7225,-19.6852,-43.8678,11.1018,-15.4043,56.7076,-111.2482,-48.5303
-3171.8750,147.1338,159.8284,13.6709,-21.8193,60.1657,16.6077,-136.6870,-1.7952,-129.7705,-64.3391,122.9765,-54.1414,69.7090,-63.0454,-49.8634,78.9532,11.6216,14.9085,-118.1601,-55.9539
-3164.0625,178.7751,16.6861,11.4342,46.4176,-51.8640,89.0766,-101.6862,-77.5722,-94.6930,-176.5818,155.3446,128.5256,-6.3464,119.5591,-13.9106,3.7611,8.6082,-56.9404,-120.1428,-58.4512
-3156.2500,44.0942,-222.7530,91.8412,89.3019,-8.2544,59.1878,-95.0573,-33.7091,-125.0023,-95.1862,160.3855,24.8658,74.2574,89.8057,-43.3132,85.2300,49.2569,-15.1349,-77.4954,-52.3210
-3148.4375,-60.1982,-253.7865,131.5951,127.5317,67.6934,62.6397,-129.0863,-67.5038,-84.9844,-54.4508,88.7983,-7.4233,224.2076,167.4038,-2.3701,15.0387,87.2629,-81.9845,-180.5192,-49.8641
-3140.6250,89.6894,107.3654,30.4864,66.9161,40.7736,0.2413,-155.9792,-131.1589,-111.8377,-117.5668,97.3937,113.4476,197.2981,67.1549,45.7192,-46.9963,60.4174,-142.6804,-170.4052,-40.2783
-3132.8125,287.4013,376.3163,-91.8334,-120.9089,-81.3699,-122.3641,-94.0770,-69.0040,-49.9071,-128.8759,193.8276,139.1053,75.1956,-54.3024,-2.3953,14.7875,83.3827,-189.5680,-112.4983,-52.9119
-3125.0000,140.4771,19.6081,-133.8136,-89.3824,-123.1833,-52.6191,-24.8335,-110.5009,-17.6501,14.1715,114.6395,208.1217,33.4545,125.6128,66.8392,84.9282,77.7128,-194.1090,-81.2594,-58.2143
-3117.1875,-67.4615,-257.1127,-20.8591,-120.9097,-121.0675,-123.9328,14.3462,-34.0589,57.5360,165.1656,115.4331,64.1026,146.6696,-18.5322,71.0126,125.0279,116.0147,-84.7015,-7.0860,-19.5863
-3109.3750,-15.2091,-98.6228,34.2315,-171.2901,-102.8172,-177.1084,32.6632,-15.4812,39.8485,73.2951,132.4102,47.2481,202.0269,-73.5253,53.3207,-2.7165,203.4822,-136.1449,-23.7807,-1.8301
-3101.5625,285.3639,98.1991,-92.3825,-152.3615,-227.2774,-155.9837,-93.7353,-30.6214,-49.5617,-51.2858,188.7113,216.7082,112.6811,-51.2122,75.9209,-17.1585,222.2669,-221.2887,-39.1887,-17.7940
-3093.7500,275.3077,335.3879,-174.6470,-301.0892,-236.4015,-274.5207,8.2083,-39.4065,15.3594,-96.5126,142.3946,318.5085,140.6977,-96.5629,-6.1382,47.7551,177.4154,-230.0760,21.7438,-27.4239
-3085.9375,-74.7253,408.5948,-98.9095,-262.8105,-196.5336,-234.0601,121.1458,-110.2043,128.2598,-201.7495,-39.8910,432.3113,143.7288,54.0932,34.7938,-21.3321,144.5687,-226.8629,24.6538,-25.0713
-3078.1250,-163.9753,145.5674,-7.4292,-209.7775,-178.9292,-252.8541,138.8256,-55.2635,145.8916,-111.2414,-23.3929,266.8595,198.5111,-0.5121,16.4639,34.3390,161.4862,-138.8866,42.3008,-7.9835
-3070.3125,-96.2274,-243.4767,62.9895,-211.8061,-145.3926,-180.7038,62.4508,-20.3735,69.4581,35.2022,46.0967,81.3513,232.2398,107.8277,15.0699,68.9554,228.3713,-105.9632,4.8915,-10.9609
-3062.5000,-128.4590,-625.4750,104.4028,-66.8338,-176.8639,7.4461,31.0656,-52.4983,74.0036,76.6326,49.6150,13.8606,200.9668,224.1755,94.6621,74.5603,232.2686,-101.0453,-25.5295,-6.9548
-3054.6875,-25.9766,-275.7609,64.5156,-69.1677,-179.6383,-68.7155,64.3826,-91.9260,108.2408,74.7690,45.8633,-24.9400,161.3966,1.2080,128.9361,-0.1228,193.8753,-103.4215,6.7461,-10.2641
-3046.8750,172.4448,345.8527,-57.4812,-115.6024,-191.5207,-152.9868,-20.4036,-175.4584,-50.6396,-83.2023,70.0522,185.1622,186.7355,-46.8537,192.0966,-157.9078,146.4012,-183.9087,-40.0941,-22.6858
-3039.0625,161.0099,370.6024,-105.3868,-194.9337,-202.3182,-199.1677,-68.1119,-113.9073,-98.4486,-239.0856,58.3870,212.3705,176.1802,-93.8213,292.3388,-20.5833,135.0547,-90.3070,54.1468,-34.0190
-3031.2500,52.5575,122.3635,-71.3363,-233.3243,-169.1817,-201.4176,39.1184,-5.4279,45.6708,-241.0169,17.7096,99.5331,62.5873,-21.8504,364.5065,14.6876,96.6815,-56.7680,122.3214,-37.4141
-3023.4375,4.8269,5.8563,-45.5784,-104.0090,-144.3523,-65.9745,65.0419,-53.2739,71.4771,-105.2617,-67.2327,52.4074,-21.2999,114.8324,428.3566,-143.3492,85.0213,-103.5382,75.1694,-49.1197
-3015.6250,-106.2165,142.0155,-14.1669,-109.0497,-75.8802,-70.8891,59.6083,-58.4772,28.9203,-109.8829,-73.4778,47.9227,46.4682,0.1569,386.8295,-219.7253,149.0279,-37.6534,69.6554,-55.1857
-3007.8125,-286.0714,208.3414,54.3957,-76.9380,-43.2717,35.3433,18.3151,-99.5444,24.4941,-186.3685,-152.5318,155.5868,79.3888,69.6469,456.4288,-259.9595,144.2062,-76.6279,-4.7234,-60.1103
-3000.0000,-171.8523,-26.2706,65.0099,4.2332,-32.6189,83.6262,-43.9337,-125.5763,-37.9013,-138.8192,-142.5021,167.2948,53.3658,-65.8095,505.0569,-102.1527,48.4527,4.4489,5.9410,-49.9930
-2992.1875,54.1485,23.8790,6.3761,-86.8476,-92.2174,-11.3521,-29.4303,-73.8575,-97.5500,-86.5282,-18.6880,71.7261,68.0992,-124.5323,520.4048,-49.5939,-42.5397,-15.7160,20.3523,-36.1330
-2984.3750,-28.8703,118.9914,-116.3070,-132.9822,-66.8646,14.6179,-40.9799,-11.1938,-72.2649,-97.2936,-30.8869,61.0933,93.7836,48.6997,583.6771,-60.0894,-125.5688,-97.9357,8.7056,-48.3315
-2976.5625,-26.2416,-53.2748,-186.3950,-234.5302,-100.9120,-55.8237,35.0543,102.0705,40.5868,53.5360,-28.4310,-118.9605,97.0747,-20.4934,587.5207,54.0240,-86.9752,-23.5548,11.6606,-45.9357
-2968.7500,-23.6122,-190.5752,-147.5351,-195.1433,-135.0145,-15.3288,38.0284,32.2760,7.3732,168.3087,-61.9747,-115.0723,100.3288,56.2597,628.2824,22.0863,-14.4173,-55.2326,-55.4448,-43.5927
-2960.9375,-25.1590,-85.0577,-74.8703,-55.9510,-208.3229,56.9590,-110.1928,-116.7402,-105.0407,-16.1348,-63.6805,105.6136,25.3912,55.8034,663.8180,57.9343,-16.0498,13.8905,-56.7577,-45.4527
-2953.1250,-30.8260,-19.6599,29.6559,9.0837,-177.7847,16.0801,-115.5567,-84.9148,-110.6101,-94.7431,-69.4917,101.1330,-52.6897,15.1738,659.1665,53.6231,-56.8133,78.8664,-98.2257,-51.4669
-2945.3125,-3.3475,-61.1240,-13.7091,178.2225,-112.1486,82.3001,-122.8355,-165.0090,-155.1069,-138.2815,-114.1611,94.7513,-59.6790,118.6520,763.5851,-99.6049,-64.4455,71.9343,-140.6091,-59.3837
-2937.5000,-73.3577,150.8852,-50.6263,178.8119,-75.0681,45.9656,-159.6790,-128.6650,-191.1690,-173.3887,-114.3264,-51.2016,13.7776,-27.4313,801.4191,-24.3849,-64.6070,143.4515,-140.5535,-59.8523
-2929.6875,-186.7362,461.5050,15.0658,171.9973,-45.3853,76.2220,-202.9139,-171.7296,-234.6307,-252.9080,-121.8453,-57.5809,43.8450,-33.9233,720.8128,-30.5677,-2.1555,101.5636,-182.9129,-67.7223
-2921.8750,-135.1976,196.0243,67.6757,258.0862,-140.7915,129.3693,-260.2512,-191.9103,-256.2067,-236.5435,3.5751,32.9320,-50.1648,55.4799,737.0731,-13.8615,13.2131,81.5742,-237.3830,-52.6926
-2914.0625,81.9802,-217.8360,36.9079,159.7671,-243.5945,26.1031,-253.9988,-76.5000,-213.2008,63.4199,193.6465,-33.9753,-80.5595,-10.5420,706.8871,66.4329,19.2099,18.1754,-195.2601,-47.0630
-2906.2500,118.4584,-215.4041,-34.6069,161.6971,-279.1477,28.0809,-215.5142,-74.8607,-211.9704,65.6161,122.0228,42.3614,-78.7007,101.6836,671.9147,68.9565,-14.5114,-49.9908,-159.9016,-46.1828
-2898.4375,74.9436,56.9999,-80.1775,118.5820,-250.7600,-16.9989,-115.0874,-9.2823,-148.8012,-126.2645,39.4072,34.6288,-86.8939,20.8471,627.8577,61.4229,-23.2627,-23.2113,-98.6010,-55.3487
-2890.6250,67.4230,156.3581,-87.7904,40.4122,-221.4216,-61.1387,24.2954,20.2366,-8.6831,-133.2168,-42.2100,-46.1805,-57.1219,49.9498,583.7047,-18.1630,-31.0501,-101.4848,-70.3564,-63.5625
-2882.8125,-65.2176,24.5667,-116.5447,120.0920,-213.2276,-15.4262,69.5274,-8.4149,72.2773,-13.3444,-69.9357,-37.1585,-122.4876,58.9116,629.3673,-8.9087,-92.9727,-92.9144,-62.2668,-55.9225
-2875.0000,-54.2152,-33.6164,-105.6961,60.3651,-166.4377,-78.1216,80.3607,39.5300,82.8361,145.1153,-23.0105,-171.5663,-111.2591,-149.5511,566.5845,39.9444,-118.2678,24.2548,18.4271,-45.6765
-2867.1875,-26.3746,30.0074,-113.0415,18.4268,-100.8446,25.9742,72.9983,105.2666,2.1929,101.3690,6.7610,-178.1977,-118.2219,-83.2244,485.5620,-77.4207,-160.7398,52.2105,10.9213,-53.6248
-2859.3750,-68.8578,-81.6950,-120.7237,-23.8669,2.4088,54.7021,102.2859,171.6399,30.1898,57.2578,-0.7721,-222.1890,-88.5189,-163.2751,368.1481,-10.1400,-203.5471,185.8165,73.0541,-61.9175
-2851.5625,-159.2392,-346.3172,-68.3507,-43.1315,17.7149,70.4655,154.6272,150.0494,193.2307,73.1772,-58.2022,-316.1408,-35.7584,-74.2926,273.7296,79.1816,-153.2791,201.4647,88.2252,-47.1544
-2843.7500,-323.2218,-193.5738,16.3708,37.9482,28.3667,155.5803,128.3156,86.7839,166.6090,-135.5765,-195.2327,-194.7493,48.3564,11.0545,284.6181,-19.1673,-142.6348,142.4478,134.7391,-37.0343
-2835.9375,-253.1750,86.1759,51.1051,-68.9792,27.0173,7.6800,164.0040,85.5038,127.9895,-100.3468,-196.2108,-158.3893,-25.5181,-100.6160,283.4616,-56.5155,-178.9728,141.4335,203.2565,-38.9036
-2828.1250,23.1465,-22.8305,11.1176,-37.6532,-13.0798,5.0253,160.9499,45.4660,124.6225,-28.8885,-14.8986,-197.8199,-139.1283,7.9565,316.5088,-241.6254,-113.0510,30.6710,163.0234,-79.5123
-2820.3125,147.1028,-4.2336,32.7463,-19.7207,7.4289,-47.0305,218.4991,-79.9840,255.8576,-43.8487,80.0527,-213.6849,-191.1368,-117.8907,338.1119,-293.1484,-60.5055,13.5021,110.3930,-132.5105
-2812.5000,149.4066,104.6711,109.6817,-157.5027,48.2415,-153.8053,332.3573,-76.1405,332.3974,-76.5102,47.3604,-282.2793,-76.8418,-224.4598,341.9607,-252.3871,-22.6350,-19.3830,42.0676,-166.1995
-2804.6875,62.6587,-156.5274,165.5171,-103.3835,103.9555,-60.6864,204.1146,-94.4104,129.8280,-57.2912,-6.3823,-262.9872,16.3575,-57.1193,507.6671,-122.7451,-39.8419,-70.3836,-10.3626,-147.9778
-2796.8750,-2.2942,-255.9686,205.1105,-134.5243,106.4211,-94.8315,22.6174,-54.9355,-87.9959,-17.3458,70.6744,-222.9665,56.3188,-165.0463,584.0689,101.6390,-0.2762,-30.6311,28.9602,-108.9947
-2789.0625,44.6852,142.5256,179.6224,-157.7802,80.8030,-120.0881,-38.9698,-80.5787,-113.9213,-42.5253,82.6676,-102.0686,31.1949,-153.0844,631.3184,-107.0942,-58.7965,-124.9878,5.1780,-98.1005
-2781.2500,13.9400,288.2944,147.4003,-153.7855,84.4486,-116.1053,0.6965,-150.9931,-0.5928,-75.4870,49.9593,-60.9392,-1.6750,-111.8868,671.7736,-322.5905,-55.0523,-121.1030,8.6417,-94.9440
-2773.4375,-65.3026,-71.4984,173.6419,-162.3501,147.5406,-89.6896,100.8183,-87.9656,-10.8120,24.9861,39.7625,-144.3965,24.9145,-122.2601,587.6242,-221.6488,6.1766,-94.7716,34.5535,-69.3230
-2765.6250,-41.6322,-293.4656,159.7390,-69.0600,207.4860,7.5701,49.7873,-102.1045,-62.1868,121.3013,26.4687,-85.0262,-98.6413,12.2183,463.2729,-88.8821,64.2782,-211.6018,-12.6837,-46.8375
-2757.8125,136.2711,376.7786,87.0490,-171.5765,171.6384,-64.9766,14.9534,-137.0563,-98.3633,159.7925,139.4193,-9.4826,-169.9813,-243.1177,243.0651,-232.9293,136.5982,-245.2327,-46.7122,-46.1373
-2750.0000,295.7943,958.6616,67.9782,-259.5089,189.4044,-83.9353,-4.2812,-192.4186,-43.9387,-226.1420,231.0123,8.6400,-41.7068,-187.8658,76.3987,-692.3965,154.5424,-156.2773,-65.1371,-28.8236
-2742.1875,284.9030,596.1020,55.4634,-95.8943,249.7286,50.6462,56.0397,-169.2431,-20.9603,-607.5422,218.1992,-4.7063,129.1184,-55.0741,-47.7665,-705.3361,107.0590,42.2165,-77.0095,-5.9437
-2734.3750,218.9110,38.3829,95.8032,-21.4488,326.9097,92.0586,96.2271,-56.2115,19.8789,-603.0977,260.2822,-146.2346,170.7851,-86.4558,-301.1398,-222.4342,76.4502,81.5547,-38.0227,-2.1983
-2726.5625,186.1135,-30.1861,97.3048,-19.8623,328.2514,129.6171,97.5765,-127.0435,20.8674,-490.5245,225.5563,-107.6342,98.6080,-48.6842,-410.4182,-73.4034,149.0079,-57.9708,34.1117,-1.2876
-2718.7500,275.7942,271.6858,6.2707,-140.8246,237.0525,38.6281,116.3717,-108.4403,112.3042,-361.5315,245.3273,-125.6141,7.9049,-248.4722,-503.2991,-126.9335,238.0343,-74.0462,122.6964,17.0915
-2710.9375,466.0598,708.0937,-90.1951,-233.2395,140.4133,-20.8199,93.7204,-168.2940,53.2976,-457.0191,407.7024,-39.0784,-88.2356,-197.7237,-599.6865,-258.9247,356.6367,-96.5789,29.8320,-5.9605
-2703.1250,758.9600,825.1022,-77.0422,-47.0532,153.3842,66.3235,-186.3270,-266.5580,-338.1055,-591.9331,605.7198,11.0346,-147.7750,-38.3925,-698.5182,-356.3351,543.8614,-50.5223,-135.4311,-30.3929
-2695.3125,854.5933,673.8206,57.8323,82.8186,251.0643,53.1456,-346.6635,-243.1370,-572.7939,-568.1315,777.4738,-222.1917,-50.6069,-160.3992,-822.7069,-258.0659,602.8033,44.2336,-145.9825,-7.1063
-2687.5000,834.9234,585.1944,108.3742,133.3327,190.4073,66.5996,-370.3393,-303.0894,-485.8214,-406.6835,792.9171,-318.7846,-36.7856,-183.7635,-847.2953,-171.1836,512.4116,-11.3801,-131.8835,42.8493
-2679.6875,702.1973,240.4701,113.8229,105.7437,85.6605,34.9404,-254.1069,-224.1561,-296.9400,-217.3730,762.3077,-423.4849,-66.0603,-214.2420,-879.0356,18.5779,414.9409,101.8949,-89.8827,84.7254
-2671.8750,635.4448,-72.3076,188.2313,107.0858,48.8690,109.2210,-179.9095,-77.2723,-223.0967,-254.1470,690.6901,-570.2628,-28.3746,-66.7857,-953.8827,92.2870,381.4435,174.1151,-122.9196,121.5714
-2664.0625,592.8035,96.0033,215.7531,240.5273,113.1908,210.6032,-226.6005,-197.3035,-270.1407,-373.8401,608.2054,-468.9645,-37.5747,-76.2290,-927.6785,48.0702,304.0655,166.4270,-165.8552,148.5375
-2656.2500,574.2457,535.3375,194.3464,186.0115,128.5803,79.0219,-174.2292,-219.2910,-218.1172,-321.4899,587.8112,-380.6548,-58.7139,-391.6485,-1023.4761,-10.1223,213.7569,145.7920,-10.7349,163.5746
-2648.4375,475.3661,576.2968,162.6187,120.1450,133.6372,48.0807,-96.1961,-177.6353,-139.4338,-316.5162,447.1059,-264.7307,-90.1890,-202.4255,-1130.6753,-41.6915,113.1208,115.8026,99.0371,168.2826
-2640.6250,275.8112,271.5463,137.2091,131.5826,145.0047,131.4420,-47.8577,-92.6891,-18.4471,-158.2717,349.7357,-290.5408,-41.3533,-79.9167,-1267.6212,81.0250,20.7999,92.1097,181.1193,179.3124
-2632.8125,400.5055,80.0147,118.0095,44.2016,125.5785,76.9939,6.6854,34.4514,-38.2533,43.1703,405.6146,-384.1861,13.6810,-62.2383,-1472.4215,98.9108,38.6972,75.6092,198.4117,196.5639
-2625.0000,540.8544,79.1038,44.4063,112.4115,51.7571,75.1392,-32.1680,32.1732,-40.4496,78.1933,441.1285,-238.2365,-61.6880,9.0277,-1548.6688,97.3565,-33.7854,2.6960,196.3130,194.4359
-2617.1875,411.5368,19.4852,55.1125,52.9100,-11.7503,11.5675,15.2912,79.1896,43.6697,160.4912,379.9783,-192.0094,-86.7473,-127.4327,-1576.6694,328.0863,-92.9506,84.0828,241.5287,204.6300
-2609.3750,193.8899,12.4851,83.4849,45.0501,17.4096,40.6361,7.4127,106.8582,-38.5456,152.4253,262.5196,-163.1670,15.8483,11.7530,-1439.0730,356.4536,-100.4459,5.1043,233.4047,196.4959
-2601.5625,57.3725,-18.4227,86.9679,118.2916,20.6736,80.8012,-99.3590,145.6121,-72.6543,192.4443,157.2001,-197.2490,56.5507,52.0295,-1216.4188,323.8989,-131.8192,8.2088,236.3861,199.4859
-2593.7500,22.1874,-161.0240,-25.2386,115.8158,-55.7585,4.2514,-28.8199,290.6593,35.5553,300.7523,119.2149,-273.0589,17.5639,12.5776,-1036.5138,394.6221,-133.8709,5.6076,198.6769,196.8003
-2585.9375,-31.2304,-283.8720,-116.6768,167.0808,-74.4284,22.4450,-10.5116,307.4429,16.5384,428.7848,29.0095,-219.1304,-74.6698,139.8632,-835.9027,450.0619,-223.1546,-13.2598,143.7203,177.8897
-2578.1250,-44.3571,-192.4608,-130.8475,152.5816,22.1550,-29.1306,-61.9464,329.4661,-109.2174,451.0447,52.0976,-233.9714,-88.6516,89.3698,-742.0896,508.7327,-272.1640,77.1167,59.0190,163.2534
-2570.3125,-30.5905,-4.2177,-81.1635,164.9174,70.5985,-52.8725,-158.5254,232.3321,-169.1126,353.1551,30.0812,-73.9786,-37.7787,138.7160,-656.4742,412.2257,-260.3043,53.3254,-69.8239,139.4905
-2562.5000,-76.2030,-119.4076,-91.8706,223.8536,96.6526,9.9857,-206.4978,146.7838,-180.3963,194.8553,20.6943,61.5992,-48.2968,201.6643,-596.2972,438.2877,-235.8289,148.1278,-116.0576,128.3517
-2554.6875,-147.1982,-403.0152,-130.9641,151.3840,131.3184,-29.5664,-98.8587,327.8347,-73.0632,192.1393,19.9370,-51.2636,-50.2010,52.1968,-637.5641,619.9274,-201.7297,215.5327,-12.6844,125.8384
-2546.8750,-230.4637,-381.9241,-108.3379,136.6074,153.6945,64.5777,-113.5132,275.5718,-88.0182,250.1019,-65.0972,-66.4526,8.5994,147.4161,-727.1715,641.2433,-180.9082,200.6278,-27.6021,111.0491
-2539.0625,-176.3085,-222.4277,-15.2927,119.2231,209.4800,47.1098,-167.7581,184.7064,-105.5541,380.4508,-80.7063,-121.2640,27.8035,20.0021,-893.4224,550.9426,-127.6806,253.1163,23.8965,93.6833
-2531.2500,-133.5339,-179.3376,103.3710,90.4233,328.8708,18.2297,-122.3824,155.4426,-61.4671,424.3858,-107.6880,-223.4939,-0.3895,101.1700,-1108.1162,375.2135,-15.8441,224.1980,66.0074,64.9405
-2523.4375,-179.9926,-402.5244,90.7936,147.3788,352.0262,79.1012,10.7508,177.9212,-1.6123,301.0517,-118.8992,-236.9855,24.1764,198.0874,-1197.0957,362.1922,42.7568,141.0252,157.8755,51.9729
-2515.6250,-118.5290,-447.8397,79.1277,-3.7721,341.0957,-6.1340,109.7947,239.2996,97.1558,325.6098,-20.1840,-212.6124,49.6502,-70.1153,-1211.2180,497.0511,32.2819,59.7547,182.6537,76.9296
-2507.8125,9.4140,-319.7299,63.9277,-122.4788,251.6297,-57.9171,168.2959,150.1170,191.3880,346.6035,40.0069,-44.8236,-1.4255,-85.8721,-1080.9199,334.3411,-15.7295,-59.0775,133.8891,98.3612
-2500.0000,-2.8258,-508.8270,12.5429,-136.3914,199.9739,-73.9061,262.6081,170.7197,323.4420,404.3829,26.0181,-61.2456,-52.7012,-101.8445,-951.8498,245.4159,-27.9396,-2.1176,154.9277,119.6175
-2492.1875,-48.1004,-801.9671,72.1187,-113.3754,186.2855,-87.9670,322.8880,193.2687,419.4713,390.1016,-21.0022,-185.7244,-66.0123,-4.8986,-893.8649,268.4134,99.8115,-15.2166,142.9226,142.8475
-2484.3750,-193.6181,-772.3688,138.4548,20.3875,178.3682,-22.2881,314.9321,147.5566,375.2683,234.5600,-64.2633,-157.4630,-109.5667,96.7928,-720.1522,223.1258,94.3160,-91.5742,135.6811,171.8512
-2476.5625,-216.6301,-550.3010,147.3049,-74.3596,113.9644,-87.1193,323.4945,192.3495,383.5874,168.5166,-17.0046,-186.7419,-63.6221,-5.0356,-639.9711,194.3226,71.3308,-152.4251,180.9612,217.3786
-2468.7500,-191.5774,-456.2153,62.2179,-157.0678,64.6152,-137.8997,274.1242,142.1967,296.9778,191.5132,8.3257,-16.0000,-39.6299,55.1851,-508.7676,71.5416,129.4119,-199.2348,169.3045,240.9786
-2460.9375,49.6357,-462.0154,-17.7100,-163.6254,58.4209,-181.5247,156.9100,62.1877,142.5363,184.6469,77.8188,12.8794,27.5179,-61.4523,-333.4395,-8.1168,193.6556,-135.8918,162.8154,234.7515
-2453.1250,247.6016,-511.0938,-67.8665,-213.4424,80.9898,-232.4124,253.4566,46.9352,311.8676,206.5267,101.0666,-112.5217,50.4260,-113.3581,-276.3882,-134.0399,144.6662,-115.7985,113.0874,220.2979
-2445.3125,96.3220,-592.4366,-116.2524,-155.5047,105.3211,-134.5480,425.7592,-2.5764,520.9636,85.1447,55.0707,-125.1841,76.0856,58.4862,-143.6050,-330.2436,64.4387,-162.9664,67.1086,208.6169
-2437.5000,-45.4892,-419.3292,-82.1753,-229.1153,102.1111,-175.2425,422.5103,-6.6466,517.5126,44.1861,53.5458,-92.4068,182.1969,-55.2377,-112.3918,-371.0199,165.6806,-201.6841,97.5867,205.4085
-2429.6875,-39.7214,-98.6712,-41.5474,-296.1890,142.4556,-244.3997,315.8209,-40.1675,448.6341,-62.2374,22.5866,57.9149,223.8516,-15.4262,-147.6468,-440.2763,241.4839,-267.8624,31.6252,209.7725
-2421.8750,66.7916,-99.2807,-5.1719,-226.5211,69.5473,-172.8071,204.9039,-77.9378,189.5408,-284.9089,132.3735,164.9827,223.2465,57.1259,-188.1599,-404.8040,276.0268,-164.2895,30.4326,208.9093
-2414.0625,264.2440,-252.9695,55.1613,-170.9161,55.6006,-113.2728,44.9623,-19.7501,29.4284,-373.6247,231.1118,149.9733,209.5957,42.6100,-241.7413,-346.3882,297.5187,-72.7619,16.2007,195.0180
-2406.2500,244.2956,-204.0849,34.1020,-51.7056,70.2652,-25.1393,23.6265,-78.9736,79.9312,-321.7383,137.4539,201.5527,151.5414,93.6996,-191.7317,-478.3940,241.6241,-94.6444,-5.4283,173.7481
-2398.4375,180.5545,-58.0362,113.2477,-47.2945,150.1314,-92.8081,65.4906,-145.9984,160.6472,-205.6508,109.0044,60.3234,195.6851,-84.0262,-261.5273,-509.2268,211.9442,-20.3239,34.1626,143.7012
-2390.6250,152.9180,-121.9034,231.4963,-5.7921,195.1007,-85.3845,73.4680,-212.9140,131.4824,-198.4713,81.6563,66.1883,203.9326,33.3349,-366.2317,-501.9882,253.3660,-49.9016,4.8680,114.7753
-2382.8125,56.2352,-289.8102,388.6975,141.6556,204.0268,32.9891,9.4048,-240.8857,30.2830,-226.3648,-16.7455,112.0103,177.1297,152.6409,-359.9850,-456.8281,226.7313,-41.5349,12.5303,87.8199
-2375.0000,24.8587,-252.4250,465.2009,108.3915,243.2557,-1.3521,48.6472,-129.5514,69.4029,-151.9576,-85.8405,3.1169,142.6303,43.2304,-470.4471,-455.3766,194.3934,64.1304,49.5072,90.1849
-2367.1875,62.2249,-40.3218,392.4584,213.8715,281.2393,35.0557,49.6511,-202.4659,70.2943,-298.7930,-83.1932,38.9650,32.8788,80.5757,-509.1636,-492.1927,230.8114,100.5392,-53.7531,91.3184
-2359.3750,122.6684,228.8499,380.8246,166.4539,232.3321,22.5597,37.7710,-179.2705,58.3159,-384.5312,-20.4623,99.8981,-14.7822,-114.9917,-596.7819,-393.9173,184.3354,123.0572,-31.8996,79.5705
-2351.5625,45.4425,186.3521,373.5539,88.3752,224.7927,14.4072,104.2620,-76.7136,87.7111,-356.9168,-136.3939,128.1722,13.9019,-13.2242,-534.0527,-439.3065,107.2088,79.9249,30.3112,72.1921
-2343.7500,-116.7387,-118.1148,349.3349,134.3433,163.3059,99.3065,152.8050,-66.1059,172.1723,-235.2527,-233.2815,248.5039,62.6392,144.5942,-378.2621,-502.6673,-21.8686,54.8315,6.5722,83.8830
-2335.9375,-220.9955,-259.7075,275.0102,98.2056,162.7143,-11.9029,262.2465,-31.5924,282.5465,-163.6875,-269.2597,246.7253,173.2762,-3.7009,-307.5688,-320.1367,-56.0391,89.6391,-29.2663,83.4938
-2328.1250,-340.1980,-239.2844,223.7319,153.1293,184.1664,8.9551,247.7317,-120.0431,304.9824,-142.0639,-319.2037,231.0055,194.9619,91.0670,-177.8064,-224.5847,-36.1651,-31.5104,-78.0441,69.1728
-2320.3125,-406.9518,-131.3685,152.9662,119.5551,76.1248,-25.6951,212.7306,-81.9871,306.9424,5.0617,-278.6828,158.7925,124.1397,18.3145,-32.5372,-113.5406,-67.7963,-100.1509,-7.2882,71.3709
-2312.5000,-407.5623,-63.2572,114.4192,-23.8290,0.2956,-101.1431,210.9500,24.2826,231.1258,260.3893,-278.9951,81.7703,122.5083,52.7638,73.9438,-116.3239,-140.2158,-172.5907,61.6821,69.7865
-2304.6875,-447.8836,-208.8515,35.1744,-29.9054,31.7744,-70.2775,168.4620,17.8584,188.6163,291.0038,-357.0312,149.0464,117.1549,193.5146,212.7456,-122.8387,-180.3283,-143.7155,90.9626,64.5184
-2296.8750,-399.4829,-338.7555,-26.3764,-89.2813,5.9529,-96.7135,216.6742,102.1485,273.8214,264.3093,-344.3730,122.0064,54.4947,19.9365,258.2506,-38.6649,-98.7379,-98.1211,136.9458,75.9662
-2289.0625,-441.4826,-276.0826,-69.3283,-167.0556,-37.2604,-67.5384,283.4992,131.0313,339.6463,182.2116,-386.1282,223.5835,-25.5676,48.9617,358.3738,-83.9166,-140.5773,-105.9289,164.5327,69.0265
-2281.2500,-379.5012,-110.4494,-116.2728,-212.8382,-83.4647,-42.3663,236.3306,119.9355,293.4844,208.1356,-358.8972,175.1488,-35.6309,0.9723,382.5144,-58.1688,-220.4345,-46.7373,189.1393,59.1002
-2273.4375,-210.7361,126.9553,-161.4144,-327.8322,-128.8566,-87.4009,190.9680,110.6610,211.1393,198.8779,-254.8811,165.4952,-7.8957,-44.2121,408.4665,-31.6407,-263.4806,-20.7572,75.5580,50.9865
-2265.6250,11.0489,172.4049,-295.5173,-211.7639,-190.2000,-3.3743,56.6513,-62.5591,149.8508,26.6477,-167.8251,287.9059,-32.1143,77.6643,565.4953,-93.0801,-217.4605,-45.7399,-54.9712,26.9367
-2257.8125,-100.8275,-81.8106,-304.2769,-115.3501,-272.2060,23.9953,120.6926,-72.4119,214.9310,53.7541,-212.4177,240.6628,-40.9861,30.8685,626.8959,-31.1738,-156.0808,15.6414,41.8488,18.2510
-2250.0000,-311.6322,-118.0200,-156.9930,-46.8714,-309.1743,97.4279,157.7765,-109.2046,215.0568,15.9019,-357.9591,239.4556,-76.8069,140.1473,808.3746,-141.2364,-155.6561,-20.9234,111.7072,18.6295
-2242.1875,-282.4702,225.6803,-127.7701,-20.4354,-317.2020,51.8119,112.8022,-154.0373,170.1429,-29.9778,-401.5588,303.1887,-157.6810,-15.6340,981.8368,-260.3601,-198.2946,-29.5421,138.5294,10.9711
-2234.3750,-301.0552,416.6848,-147.2389,-144.7289,-299.9198,-79.5220,167.1463,-102.5674,187.5620,60.4774,-419.8949,246.2361,-104.2547,-219.1328,1033.6228,-208.1982,-217.6394,-13.8715,154.6687,-8.3747
-2226.5625,-310.9453,194.4701,-194.9494,-87.2865,-310.8815,-17.1155,82.2548,-77.3598,65.7485,11.6832,-465.5297,234.0753,31.9219,-10.8790,1130.2001,-110.2959,-228.2480,9.5347,72.5604,-18.9582
-2218.7500,-180.5946,-98.5018,-242.4230,-27.6095,-321.5924,45.5342,-75.3929,-14.8888,-54.8029,-36.8495,-364.9308,148.1632,131.3435,87.5992,1154.0615,-12.1348,-273.6149,139.2053,26.7103,-29.2813
-2210.9375,-101.3043,-19.5722,-194.9566,15.0208,-312.3498,128.1308,-139.0895,-42.4505,-81.3890,-64.4290,-316.3994,120.1962,67.7094,208.0405,1161.9086,-114.0379,-335.0371,75.8327,-0.1787,-55.6451
-2203.1250,-311.3983,224.9429,-84.8403,13.3146,-237.4587,128.3886,-27.1290,-153.3421,66.6884,-27.3566,-462.2495,156.8856,31.7142,60.1327,1123.4532,-77.2984,-300.8195,4.1197,-36.4004,-91.3473
-2195.3125,-526.7758,325.1789,-52.9760,-133.6479,-206.8292,-24.6132,77.5977,-85.4575,171.5500,76.4852,-503.3876,113.3301,63.4716,-130.0455,1041.7805,100.1822,-200.8643,-1.8464,-6.8422,-96.2907
-2187.5000,-370.3010,128.3208,-75.2127,-83.7081,-228.2941,25.2887,-54.7582,-108.6640,2.3277,90.2405,-376.6747,199.6935,41.1177,30.6849,1091.0509,76.5329,-151.0247,-92.9178,-62.3745,-81.3280
-2179.6875,-13.7474,26.5336,-180.3533,-79.6795,-297.6564,29.2843,-161.0069,-104.7445,-65.7814,-15.8928,-150.8835,203.1392,-27.1466,-1.4940,1056.4598,116.9942,-181.0921,16.1257,-92.8001,-76.2586
-2171.8750,9.9565,48.8451,-156.3486,-57.5047,-272.8669,53.4350,-99.1107,-154.6682,-4.7319,-102.8644,-197.9609,189.7405,-2.2679,21.4951,1042.0586,66.6013,-158.0098,38.3115,-176.0766,-88.0333
-2164.0625,-140.9544,2.5389,-55.9523,36.0853,-174.6828,115.9877,-109.8271,-203.2039,21.7150,-77.4462,-281.6575,141.7754,23.0118,9.8951,1029.1072,54.5975,-168.5238,62.8943,-186.9577,-98.4024
-2156.2500,-128.1773,48.9369,31.1389,48.3684,-160.7929,55.2269,-58.8411,-79.0244,35.8781,-64.3225,-303.6822,-30.4867,-0.0077,-124.0289,967.8913,104.2831,-156.3459,74.1851,-139.1327,-121.0665
-2148.4375,-176.7050,105.0772,16.9813,68.4047,-138.1408,77.2133,-73.0881,-21.0956,-15.1859,-43.4324,-354.0179,65.0151,-50.2777,-29.1969,951.4805,51.6923,-134.4312,-46.7633,-118.5525,-134.9774
-2140.6250,-214.1532,206.3607,-59.0179,-6.4169,-141.3227,-0.6491,-76.1836,-24.9982,-55.0929,100.6128,-356.2502,170.6814,-53.3982,-143.2355,946.2689,84.2489,-137.3688,-50.5436,-51.8064,-137.7357
-2132.8125,-216.9158,238.3457,-99.3164,-115.5460,-144.8043,-77.8057,-79.5933,81.8073,-58.3049,206.3560,-284.8098,129.0667,-56.8194,-147.5706,866.8047,79.4960,-140.6122,-54.6201,15.6336,-140.7915
-2125.0000,-315.3654,102.6078,-93.3318,-5.3655,-139.0072,0.3530,-73.7270,122.9151,-52.2162,174.4032,-352.0873,60.7738,-50.9587,4.4155,870.6984,-26.9715,-99.5635,-49.3944,56.3655,-134.5437
-2117.1875,-149.4088,127.2266,-65.9698,55.2124,-222.8217,26.9023,-83.4482,186.4469,-61.7058,53.8570,-177.9781,12.8701,-134.7142,-43.2018,785.0421,-111.0314,-4.1212,-24.7642,-24.4979,-143.8945
-2109.3750,180.8070,280.1048,-162.3129,137.0975,-281.3379,77.7678,-179.8589,126.2891,-156.8878,-80.3764,21.3882,63.2851,-194.1840,7.4991,760.7508,-208.8045,9.6129,-82.8383,-152.0587,-165.9426
-2101.5625,245.6091,237.6404,-205.9966,129.6425,-288.1993,33.2907,-223.6261,118.7795,-200.4175,-13.9517,89.3603,18.3642,-200.9996,-37.1715,716.1709,-69.9258,2.9876,-55.2493,-123.9683,-172.3396
-2093.7500,187.9722,143.7984,-230.0721,1.7818,-275.4611,8.4163,-210.8091,241.8708,-187.3508,-1.9200,65.8906,-80.9394,-151.2203,-25.2373,616.2411,89.5580,50.9592,-43.0554,-41.2858,-159.1372
-2085.9375,99.7039,124.3385,-249.7583,17.3352,-259.3304,97.9531,-194.5956,220.3604,-207.8716,-23.4802,8.7758,8.1953,-135.0646,137.1108,593.7786,30.4368,32.3170,-97.4707,-60.1992,-142.5350
-2078.1250,42.0078,136.4536,-272.8673,-41.5195,-246.6195,-0.9178,-144.7585,232.4832,-120.7608,135.5794,96.2193,19.9454,-159.3251,-34.9501,531.9694,78.9115,45.2572,-85.2840,-82.4903,-129.3338
-2070.3125,131.8222,84.1009,-254.4419,-58.8212,-192.3710,-56.2351,-126.3600,176.1780,-102.0883,153.2093,189.1704,0.2533,-141.0439,-17.4426,474.7760,58.9249,98.7259,-102.5525,-205.2204,-110.5839
-2062.5000,224.7366,-35.1400,-231.8770,33.0429,-205.9840,38.6071,-249.8180,125.0386,-190.2647,65.0069,248.2376,-88.2834,-155.6278,41.2233,458.8009,117.1138,86.3352,-45.6600,-147.8030,-87.6848
-2054.6875,199.7936,43.7667,-186.1707,-27.9438,-269.4563,10.5872,-240.1270,207.0553,-180.2808,110.9704,185.4189,-116.6580,-109.0823,13.0343,394.0352,51.4689,60.0942,-71.6120,2.7447,-77.6389
-2046.8750,-10.9749,113.8945,-186.2694,6.2805,-306.7339,46.7755,-204.2373,206.2629,-180.0873,147.1266,38.7565,29.2110,-35.3498,86.0445,429.5459,-22.9940,-44.9656,-143.3652,108.4761,-77.3965
-2039.0625,-81.4941,77.3303,-222.0719,-99.1938,-269.7198,-26.7385,-168.0481,279.7860,-142.5914,72.5963,75.3552,65.3942,-35.3134,-61.6713,391.4195,195.8424,-44.7355,-72.8074,143.5181,-76.8568
-2031.2500,88.3811,211.1791,-265.4214,-142.2176,-239.2608,-33.7975,-174.4063,198.7700,-148.6399,-81.4552,143.3561,95.0450,-115.8280,4.0789,346.8101,225.1284,-16.0705,-79.8002,67.0200,-82.8712
-2023.4375,76.5493,304.3398,-277.4268,-48.8769,-215.4582,26.5054,-186.4086,2.1300,-123.3260,52.8636,94.6423,192.0465,-237.0061,-8.8092,370.6252,138.7793,-28.0938,-57.4263,18.8916,-94.5412
-2015.6250,-31.7728,159.0258,-207.8907,-52.9954,-109.1063,-50.6393,-78.8417,-1.9163,-16.4365,195.7478,54.4273,187.5859,-204.6534,-123.1449,329.0483,-14.0022,-66.5997,114.5094,15.3237,-97.6689
-2007.8125,-196.5162,-113.7265,-124.7784,26.4849,47.8294,-5.1654,-31.6788,44.6506,31.0588,132.2513,-8.2231,233.7331,-47.7042,33.1376,338.1500,-189.1810,-162.5193,124.0462,-44.6483,-87.2006
-2000.0000,-263.8668,-215.1092,-47.2906,29.3601,125.1521,-2.2968,-28.1286,84.6339,34.9510,135.1694,-4.4907,15.2957,-7.3593,-37.1968,303.7183,34.0429,-194.0387,162.0096,-41.2177,-83.3377
-1992.1875,-95.3439,-82.5710,-53.9198,-82.8626,81.3733,-45.5335,-71.6832,114.5218,-44.2601,237.9901,99.1087,-65.2069,-14.1344,-118.6247,259.2535,100.1583,-165.6657,84.8772,-47.8926,-89.5845
-1984.3750,-30.5798,121.2787,-97.2533,-89.7823,37.8980,-16.4511,-114.9457,70.7157,-161.1740,121.1110,92.9488,74.6300,-20.6247,-88.7371,289.1611,55.5821,-172.0072,43.0429,-19.2686,-95.5444
-1976.5625,-61.5511,18.4145,-167.2983,-192.4124,4.7231,-49.0715,-0.9039,147.2317,-9.7786,13.5331,97.0502,-33.2237,56.1904,-122.5560,255.4344,132.3234,-168.0659,151.5186,19.6550,-91.2132
-1968.7500,-92.1935,-188.1056,-198.0165,-116.6810,46.8870,65.6668,4.4881,116.1081,-4.0282,18.3298,65.4586,-28.7141,24.3412,-8.0121,260.1353,136.4019,-127.7921,156.3395,-45.0719,-85.5413
-1960.9375,-75.0681,-137.8464,-106.9582,3.8509,138.8432,120.1983,-161.3155,22.8146,-169.4689,35.9750,46.6280,-48.3987,-30.7340,-27.6858,240.6987,79.3034,-40.7358,277.9739,-63.9920,-104.0829
-1953.1250,-146.9934,-68.6295,151.1033,108.3909,286.7992,156.7421,-160.1152,-13.4492,-204.9016,-110.3666,-25.2498,-48.0817,6.1876,46.6613,168.3284,-141.7835,-41.6898,311.6071,-134.9240,-139.6351
-1945.3125,-220.4249,-2.8769,258.7152,245.5050,283.2947,263.8537,-163.3910,-127.1586,-207.8066,-334.1629,-102.6265,21.8113,39.6689,189.5887,200.5875,-220.3029,-45.0954,272.7834,-209.3163,-142.6465
-1937.5000,-97.5807,13.2079,238.6220,226.9194,152.0783,169.2506,-146.3870,-110.5650,-190.4246,-134.6379,-85.7384,-72.9673,56.4432,-15.2057,217.2090,-93.5060,-28.2008,219.2662,-192.4135,-125.3695
-1929.6875,-57.0531,-51.9852,207.2088,197.0350,47.5467,137.3449,-140.6911,-142.2758,-147.3434,91.6009,-43.1810,-103.9973,-122.1085,-10.2981,259.6090,-53.0110,48.3913,153.4377,-150.8262,-119.4037
-1921.8750,-80.7025,-41.3272,108.6227,171.9954,-15.1494,148.2880,-129.1485,-94.1169,-135.4088,65.6961,-68.8113,-93.1666,-256.8275,-36.5448,307.9304,31.3564,129.8277,164.4710,-69.3854,-107.5989
-1914.0625,-38.0711,106.6291,42.3175,74.2546,-7.5601,82.5413,-84.3133,-13.6385,-164.1867,-73.9061,-24.1753,-50.0332,-249.2604,-29.4723,205.6191,75.0352,172.5548,171.8120,-96.6412,-99.5054
-1906.2500,-65.9828,254.0675,12.4989,116.0366,73.5245,126.3148,-150.9872,-116.6538,-229.4827,-177.9909,-17.0898,104.6246,-96.2009,51.1255,212.8850,7.2092,109.7636,73.6552,-195.3919,-91.9252
-1898.4375,-53.7046,229.7320,61.9218,93.0705,85.8631,27.3361,-175.4151,-104.3962,-252.5269,-128.7840,32.1963,116.5461,63.1101,-47.0390,188.4672,92.6453,51.2089,50.7589,-251.8829,-79.1076
-1890.6250,-48.5139,94.3457,104.2822,168.0567,54.1404,32.3015,-205.8893,-99.1772,-210.6156,-160.6125,37.3800,121.4628,142.3611,67.7657,231.0694,-13.9632,56.5910,-15.2029,-282.4290,-73.3528
-1882.8125,-94.2612,-21.9343,129.7174,228.1366,6.4931,94.3712,-216.2538,-110.8444,-184.5815,-172.3398,-11.3821,109.5118,93.6931,129.6767,256.8475,-25.4523,82.0440,-25.0552,-220.8783,-47.5086
-1875.0000,-150.3450,60.4857,142.8407,100.9079,-17.4654,-2.8644,-166.9109,12.2115,-170.8388,-122.3486,-35.4883,11.2595,69.7113,31.2921,159.3912,96.7726,131.1803,-12.1852,-103.6290,-33.9775
-1867.1875,-83.2785,93.0659,104.1688,98.8908,-19.2142,-4.8843,-168.3824,10.4766,-244.9057,-50.1329,-74.4407,46.2149,-42.0746,103.1290,121.2053,241.2056,93.4975,-120.0988,-69.1801,-35.2623
-1859.3750,169.2109,-41.9506,-0.0515,33.3357,-87.5220,-73.4496,-235.4061,16.2246,-238.5396,65.5534,79.0192,51.6087,-73.4142,-38.5850,17.5320,393.1168,99.2499,-78.5494,-28.2701,-29.1129
-1851.5625,249.9879,-67.6240,-62.9939,9.0922,-149.5468,-99.7025,-187.1401,-8.7221,-189.8913,150.5171,125.7453,99.3368,-25.4654,-27.9804,-80.7797,293.3255,110.2906,-138.7053,17.9358,-17.6797
-1843.7500,11.2415,80.2464,-18.4546,51.3603,-142.0851,-55.4512,-179.3925,-1.1716,-181.7497,83.9847,59.9338,143.6104,-55.0442,16.1151,-72.5232,116.0356,117.8119,-25.3450,60.6409,-9.7635
-1835.9375,-132.2969,147.3179,88.3389,47.8782,1.6281,-58.9459,-146.3832,105.6483,-184.3469,-140.2560,19.3343,66.1132,15.6105,48.4548,-222.9577,38.0163,150.5598,76.2994,92.6018,-12.6151
-1828.1250,-183.4295,25.7951,110.5799,138.8802,96.7934,73.0445,-124.9348,90.9386,-198.5094,-227.0544,-69.8519,88.0576,37.7153,217.2746,-236.8753,-50.5508,99.7424,61.4140,78.0045,-27.0340
-1820.3125,-104.5767,34.2986,119.8072,112.8946,105.9461,82.0437,-78.5045,-9.7505,-152.6872,2.1393,-133.0703,23.0017,9.8127,79.0824,-262.7380,-42.0955,73.9176,70.5419,87.4068,-17.4700
-1812.5000,69.2574,66.8241,8.0162,39.9098,67.0854,43.0434,-6.0736,-48.4311,-80.8732,110.3521,-63.3290,20.9598,7.8944,76.9014,-299.5397,-44.6334,37.0845,68.6675,-54.1920,-18.9240
-1804.6875,103.6690,-39.0361,-103.1933,145.5253,66.8271,190.6471,-80.0465,-122.5118,-117.4683,-36.8204,-27.0320,94.5464,80.5600,223.3271,-262.6742,-8.5605,36.8321,68.3941,-194.1887,-18.7967
-1796.8750,38.8549,-34.1106,-60.6212,150.9344,109.3672,159.0512,-111.2153,-79.7655,-147.2494,-178.1782,-21.9708,62.9385,123.0175,192.5520,-328.9578,106.3388,112.3566,73.9329,-154.3870,-12.8880
-1789.0625,-62.0441,146.7224,55.8834,191.3172,77.8526,127.4298,-141.4291,-111.0532,-177.0775,-245.5784,-89.9937,179.3060,55.4061,270.7540,-322.2330,37.1922,153.8129,-25.5801,-113.6401,-7.0473
-1781.2500,14.7955,257.3456,98.1806,162.5118,48.1359,59.6120,-170.8393,-104.5223,-207.1161,-130.1571,-48.2553,111.4856,-122.3983,92.7394,-314.6484,79.8720,124.0571,15.7113,33.9121,-0.4222
-1773.4375,150.4932,147.8997,21.3746,17.5959,7.3215,-17.3093,-102.3534,38.9236,-173.2575,14.1933,58.3416,-2.4302,-162.2954,15.6318,-391.1205,112.4750,85.1857,46.8998,136.3470,-3.9166
-1765.6250,20.1283,-124.5841,-42.4970,27.6335,54.4469,102.7343,-17.9302,86.3216,-126.4529,-12.5055,30.8506,-29.3846,-80.2591,135.5077,-342.5899,48.0469,-9.7485,92.0418,181.7211,6.5187
-1757.8125,-69.0484,-317.8917,-25.1844,-25.1293,34.7578,82.9810,73.6839,177.9442,38.5357,151.9928,10.5490,-123.1359,10.9679,5.5934,-360.8197,64.8455,-28.4801,74.4057,199.2955,24.1371
-1750.0000,-55.6217,-199.5815,-48.2154,-82.2214,11.7144,23.8983,160.9336,118.2244,90.1525,240.1518,23.8475,-35.2165,98.8538,19.3566,-345.3437,5.3077,-14.5679,-122.5783,72.5150,38.3909
-1742.1875,64.8138,95.7845,-105.1967,-67.2532,-47.2743,-108.1353,103.2277,-13.4407,68.8098,107.3764,112.1512,89.7743,113.7879,-2.8361,-291.7699,56.8504,0.3853,-212.4980,-18.2342,53.6772
-1734.3750,191.6001,152.5443,-81.8468,-148.9421,-59.9150,-193.8151,126.8632,-25.7579,56.8007,-15.0369,135.7852,41.1296,101.0634,94.3203,-339.8067,190.7630,-47.3158,-154.0675,-65.6590,41.2930
-1726.5625,115.5853,41.5118,-14.3225,-50.4112,-28.3605,-90.2823,85.6837,-30.8763,51.9723,-130.2562,55.5931,-1.2924,95.5196,199.7041,-306.5970,184.8813,-87.8201,-55.4286,-70.8932,36.0891
-1718.7500,11.1480,8.0845,61.7849,-48.2782,10.7787,-88.1516,88.1092,8.6319,17.7521,19.1266,19.9762,-110.0956,60.5576,-56.3227,-339.7498,223.6178,-15.7379,52.8158,37.4823,38.4700
-1710.9375,-108.4143,-43.4106,83.7764,-27.2424,105.8113,-103.1223,73.4365,-5.9596,40.4251,188.4238,-68.7758,-124.9681,8.4780,-71.4322,-315.9543,244.2699,40.2317,37.9445,22.7497,23.7327
-1703.1250,-147.3188,-116.2024,81.4605,-29.4996,177.5381,-68.3936,107.4505,-44.8389,75.7759,223.4435,-107.8652,-53.1329,-30.9030,-146.8393,-242.4078,205.6614,2.8892,70.7878,20.7169,21.6776
-1695.3125,-0.3643,-109.1276,52.0452,-127.8645,148.1555,-97.7614,189.3671,37.2135,157.0278,194.3861,-65.0835,-82.4057,-96.3848,-249.3320,-269.9233,138.9812,-25.5724,113.5424,63.5954,29.5051
-1687.5000,2.0658,-176.5738,18.1127,-89.7134,114.2574,-57.6047,229.7681,40.7873,197.7585,197.8405,-98.8402,-42.1583,-129.3775,-63.2896,-191.8900,-5.1967,-92.5514,46.8099,66.9789,32.8166
-1679.6875,-79.3640,-187.8693,7.3165,-65.4116,103.5012,-68.2973,256.3143,66.5468,224.6287,150.4559,-110.4740,-89.7651,-104.2317,-111.1092,-200.6681,56.8006,-68.3987,71.2471,126.5168,22.2612
-1671.8750,-39.5171,-42.8555,12.8079,-59.8043,73.0499,-62.6801,225.1608,-0.3877,156.7932,9.3875,-33.8483,-121.0638,11.2038,-31.6048,-193.1122,62.1048,-27.9557,-28.0137,62.3491,27.9863
-1664.0625,-6.8565,26.0309,11.1425,79.6784,-2.5566,9.8022,76.8515,-38.4729,82.7918,-102.8329,0.5966,-11.4880,46.4730,-33.2446,-119.6651,-12.7325,6.3255,-29.4137,-8.9729,26.5433
-1656.2500,15.6193,-58.2093,72.3248,32.0224,-15.3137,-76.8614,64.3791,23.2993,70.6208,68.8064,23.8659,-98.0567,33.5920,-120.0316,-167.3358,47.2930,-6.5544,28.0476,48.5591,13.9330
-1648.4375,-34.1688,-71.6781,95.2490,54.1294,81.6770,-15.7611,14.6384,10.8311,-52.8293,93.2036,9.8547,-110.8644,57.4436,-59.0483,-104.2204,34.0837,-19.6972,-19.7317,35.8355,1.0535
-1640.6250,80.6452,113.4602,68.7585,28.8354,55.2585,-43.0539,-86.5122,56.9806,-115.6883,-43.7870,18.4183,-138.0684,29.8788,-86.4594,-92.4777,117.4942,24.7517,-44.8974,45.7072,10.7557
-1632.8125,148.2399,217.3992,-43.9423,-7.6409,16.6355,-81.5279,-87.8760,92.9401,-80.7640,-81.9884,89.7541,-139.4492,65.1022,-51.0453,-128.9056,78.7210,57.9929,-117.2565,44.3710,9.2400
-1625.0000,85.7038,-20.7622,-72.7546,105.7954,24.9105,-36.0924,-42.3426,64.8082,-34.9499,0.7212,96.9652,-56.9243,-0.7797,-5.7383,-81.4073,49.8860,31.1180,-143.7067,17.9405,17.6092
-1617.1875,52.8379,-194.2347,-32.8742,38.9298,-9.1200,-106.9586,71.9034,105.4001,115.5690,151.1648,98.8526,-163.7132,-71.9706,-113.7304,-113.1884,200.7814,-1.0728,-105.4514,56.2120,20.6633
-1609.3750,-12.3546,-188.0152,47.6903,45.7760,-2.4607,-63.1084,78.8531,39.7029,86.7800,84.3293,30.4120,-120.8015,-65.4752,77.0045,-67.2406,207.3942,40.4197,-203.4882,-42.8192,27.4015
-1601.5625,76.0414,-65.1818,28.8463,29.2185,-94.2041,-81.6538,-13.6057,-15.3764,-5.4255,30.0983,121.5555,-28.2783,-10.3821,59.3426,-46.6780,225.6319,128.4990,-289.9175,-94.2535,45.7234
-1593.7500,288.4794,77.7184,-42.9606,-3.2822,-238.8971,-151.1458,-48.0240,-12.3968,-2.6061,105.9167,232.7328,11.3242,28.7539,-12.2554,-79.0496,116.9356,130.6181,-358.2978,-91.6418,48.0782
-1585.9375,199.4093,165.1242,-61.2842,83.7199,-257.0973,-133.1345,8.0485,-66.9048,53.6995,88.2538,103.3943,103.4360,10.3750,79.6486,-20.9036,-48.2294,42.2232,-340.1679,-39.5267,29.9159
-1578.1250,-28.2304,78.9694,34.8279,34.1660,-88.8524,-147.6597,140.5715,66.0553,112.4474,74.0651,-60.5107,-21.0259,-4.5468,-44.9813,-70.3013,11.0852,-43.7331,-144.5721,87.0366,15.1891
-1570.3125,-107.3976,-105.6854,63.4330,61.1276,50.8946,-82.6571,206.5904,95.5132,178.6865,66.3646,-141.9364,-65.9774,-49.9588,20.9229,-76.1843,38.9089,-156.2017,-82.4726,79.0825,6.9468
-1562.5000,-77.1188,-319.8600,59.4777,92.5473,120.0866,-12.1998,203.0554,92.4193,175.3669,100.1029,-146.9238,-143.4572,-90.9261,-56.7271,-77.6156,109.1961,-231.2172,90.0847,110.5690,3.1397
-1554.6875,-151.3414,-359.5247,55.0108,-16.5337,189.7723,20.7608,272.0191,162.8335,208.5332,133.3593,-116.4200,-293.4248,-21.4114,-97.8597,-153.5409,105.0030,-164.7458,157.1447,71.5486,-1.1833
-1546.8750,-227.0224,-187.6590,124.0864,-55.0543,259.0097,90.2824,195.5274,85.8133,94.2353,20.1872,-157.3820,-222.8501,48.6353,45.5673,-117.9124,27.3948,-134.7448,153.7719,-36.9140,-4.9723
-1539.0625,-74.1780,70.7649,100.7137,-112.0242,236.8040,31.3551,25.5936,27.3560,-38.5178,-39.4161,-72.8228,-136.7432,98.2353,-87.4522,-138.7383,41.3613,-86.2013,167.9603,-22.8247,8.7746
-1531.2500,97.2421,66.8153,60.9464,-80.3754,196.2012,64.0399,-14.7484,-49.5044,-41.6881,-5.4130,-40.6918,-66.0198,21.4421,20.1429,-139.9593,-72.0675,-125.0618,129.7410,-26.1487,5.1073
-1523.4375,-5.7828,-211.5630,-10.2783,28.8334,162.1387,141.2704,62.4464,-8.8115,108.6770,71.1374,-76.0123,-99.7277,-86.8109,59.2859,-97.6364,-68.9195,-156.3736,168.0778,12.0743,7.9748
-1515.6250,-149.2599,-390.3923,-12.9642,26.6017,196.6165,65.0579,207.1935,62.4421,290.5848,143.2387,-115.7916,-284.8755,-52.5314,20.9999,-170.7679,2.7933,-125.1407,200.9703,79.8477,5.3772
-1507.8125,-298.9090,-292.3819,53.1985,54.2425,261.9485,94.7121,199.7869,-17.4422,210.3219,62.2004,-197.7348,-182.1730,13.5944,123.5788,-176.0538,-4.6312,-98.0683,158.7240,37.4697,-2.3834
-1500.0000,-229.3188,-46.0985,89.6055,20.1328,299.5417,58.6169,89.6224,-53.0610,64.2915,-46.5706,-198.4414,-71.2365,86.9740,14.3989,-209.1006,32.2219,-62.7532,159.7420,3.3400,-1.9071
-1492.1875,-69.4709,220.4678,149.2487,-28.7246,322.3799,8.7831,112.7029,-66.4274,50.5005,-134.0948,-213.9077,24.9641,36.5910,0.4828,-220.9032,-128.6641,-77.1996,75.0122,-45.5461,-16.1945
-1484.3750,2.4817,293.1447,113.9824,8.5208,287.3100,47.0571,77.8828,-100.6833,52.7916,-131.5180,-140.2749,27.2710,-72.7115,2.6690,-216.6211,-126.4232,-179.5569,77.3959,-8.3232,-14.3950
-1476.5625,13.5130,22.8914,88.8218,-85.1205,189.3430,23.4459,127.1614,59.1742,101.1718,-44.8295,-19.5507,-180.3322,-23.9145,-96.0238,-202.2567,-3.0568,-167.8182,125.8925,73.9968,-2.5089
-1468.7500,-81.9812,-316.8817,64.1691,-73.2356,126.8891,71.3556,138.9293,108.5316,77.0318,41.3651,-9.3435,-168.4355,61.3920,99.8065,-152.4019,8.8220,-122.5885,66.9002,50.8091,8.8665
-1460.9375,21.5361,-213.6087,-11.4841,-109.3477,52.4398,34.2658,100.6859,70.8996,75.8747,40.5493,24.8662,-96.5436,95.6998,-11.3720,-187.5708,43.7122,-18.3645,30.9145,49.6165,7.2307
-1453.1250,168.2718,109.9014,-76.9537,-137.2501,24.1906,-30.6085,72.6346,7.4655,47.8962,-61.0775,68.2705,-13.4343,-5.8074,-2.3251,-250.5583,52.8169,23.0495,3.1235,21.6147,-21.2205
-1445.3125,112.4989,159.9028,-59.9334,-50.6411,40.4399,23.0305,17.0776,-85.4645,28.4061,-117.1899,11.1687,77.1787,-62.8229,51.2376,-231.0639,33.4535,72.9485,-16.1560,37.1134,-41.1846
-1437.5000,54.5921,67.7916,-9.0037,-107.1279,18.6030,-35.4250,31.4302,39.5128,42.8119,-28.3848,23.9574,-55.3243,25.0685,-81.2923,-214.6938,48.0096,86.7401,33.4795,86.5126,-27.2574
-1429.6875,12.4850,-8.5357,57.7306,-41.7931,48.5675,-4.0604,61.5682,-1.7036,36.9974,-70.7710,16.5482,-61.0361,128.7547,-13.0076,-182.5386,5.3767,10.3312,27.9218,10.7043,-33.5396
-1421.8750,57.5139,-103.7617,32.5532,4.6434,23.6286,7.4075,72.7907,-26.8074,48.2575,-59.0424,26.2562,-123.6579,102.5386,-112.6290,-169.3129,53.8687,21.0207,145.4694,21.9947,-22.7318
-1414.0625,234.7514,-30.7510,-39.4372,-98.7198,-48.1112,10.0848,112.2078,49.2878,86.7026,-130.1199,100.1610,-194.0605,31.5149,-147.0349,-164.9124,-16.4279,57.9036,113.2135,94.4823,-20.7352
-1406.2500,145.5315,161.8592,-57.8880,-80.5269,-29.3034,65.3120,94.1796,-4.0658,68.6926,-183.6593,43.6078,-27.8923,-23.9637,-53.8924,-144.9903,-145.1610,39.3250,59.5099,112.5230,-39.1974
-1398.4375,-9.7844,42.4172,-34.4459,-129.4435,30.4090,15.4271,192.0510,56.4884,166.5688,-49.2996,-7.0454,-114.8159,-37.5403,-177.8524,-156.2067,-46.9778,-9.3583,117.7114,204.4660,-52.7686
-1390.6250,65.7899,-197.1539,-102.1021,-122.4538,37.0230,-13.5421,234.8154,100.9509,173.3282,-42.0363,34.2029,-70.8346,5.7862,-96.8792,-110.5583,-76.8702,31.8584,18.8187,176.3047,-46.4478
-1382.8125,180.0955,-82.0319,-165.9978,-76.7034,-26.6103,-40.7450,97.3351,37.1760,71.8412,-69.0034,116.2004,11.8753,14.8591,-124.1416,-99.1996,6.0201,146.8263,-76.3100,115.8976,-37.3835
-1375.0000,177.6549,268.3468,-94.6408,-148.6891,-101.9909,-152.6856,59.1061,-73.3519,34.5958,40.2984,113.4519,84.8334,86.1824,-198.1400,-135.6358,-30.8384,215.0418,-183.1934,78.7298,-39.0756
-1367.1875,73.5791,341.1107,-17.9396,-74.3152,-99.0235,-149.2689,62.2122,-215.5379,73.6720,7.9526,78.0611,235.1543,88.8673,-47.7869,-93.7651,-101.3349,182.6079,-249.7251,-58.0957,-36.4243
-1359.3750,106.6620,269.0457,16.9070,-111.7996,-100.9069,-150.7093,60.4619,-180.5656,108.8826,-141.2554,148.8334,196.6308,86.7104,-86.2892,-130.7881,7.3504,180.3220,-181.0967,-59.7668,-38.6286
-1351.5625,147.5608,204.7749,23.5487,-68.4780,-166.9956,-106.3420,31.5088,-208.7899,78.8847,-169.6609,154.4110,240.9084,56.3462,105.0297,-122.0448,-58.1417,221.8264,-243.6704,-88.6379,-32.0385
-1343.7500,45.7331,104.7562,28.4317,42.0956,-161.8358,-26.7287,36.8064,-239.7573,48.1244,-199.8065,84.2525,246.4253,61.2285,184.6001,-78.0984,-126.3653,226.5789,-201.9851,-47.2517,-27.2038
-1335.9375,13.4982,2.3708,31.9125,46.2659,-122.0749,-59.5134,113.7070,-126.1198,161.9579,-159.3557,13.6990,66.5417,64.7139,77.7934,-109.5976,-84.9915,159.9390,-93.7037,26.7327,-23.7757
-1328.1250,-35.9046,-81.1612,18.2486,33.3011,-61.4556,1.5690,137.4523,-64.6358,148.6347,-99.0589,-38.0104,16.5190,15.0482,175.8513,-84.2902,-97.7593,111.1564,-106.5655,48.5650,-37.5040
-1320.3125,72.0079,-77.3945,-52.1034,-67.3539,-20.5370,-31.0446,31.4951,50.1433,-31.4038,-20.4597,74.5893,-89.2021,18.6806,-3.8008,-78.7321,16.7875,149.6805,-66.1144,158.6978,-33.9358
-1312.5000,202.1272,-123.4011,-101.2490,-181.7935,-32.4126,-79.4443,-17.2737,76.1120,-43.2668,42.3248,135.3974,-63.7037,79.5136,21.7628,-89.0183,42.5357,103.3987,-111.4671,149.0298,-9.1719
-1304.6875,74.3037,-144.3349,-87.3495,-98.1827,-55.2326,-64.7918,71.0035,-18.8605,81.9113,20.1484,74.2684,24.8447,93.3976,-0.6236,-36.3035,-52.6498,12.1578,-61.7625,163.4182,4.6378
-1296.8750,-0.3115,-42.0715,-17.2582,-136.3821,-58.8429,-140.9407,177.4927,15.3834,151.2888,17.1924,69.3496,-15.4295,89.4909,-150.8019,-75.4381,-92.6263,8.1159,6.1386,195.0060,0.6444
-1289.0625,71.1326,136.2434,21.8718,-63.5337,-56.4045,-65.0291,70.0285,-55.3256,6.7046,-126.7049,34.4921,97.3477,-55.3560,-0.9181,-34.5687,-198.5401,115.1275,-25.9134,126.6473,2.6986
-1281.2500,285.3329,175.3211,-48.2435,-22.9486,-89.2211,-23.3685,-36.6888,-50.2762,-26.1372,-157.8475,110.4007,28.8765,-160.4506,-33.2873,-29.0075,-157.6759,118.8894,13.7887,96.0423,6.5011
-1273.4375,213.6503,103.4850,-12.2550,-23.2589,-52.9395,-23.5984,73.6938,-13.1309,84.1125,-121.8866,108.4214,-82.4784,-125.4509,-33.5336,-65.3983,-121.7082,47.7510,13.5867,25.5364,5.4014
-1265.6250,2.5396,-71.8248,98.2769,47.9859,58.8910,-22.2758,74.6270,-48.4318,47.9047,-120.3678,35.0057,-7.2817,22.0979,4.7781,-26.2792,-156.1788,13.1561,49.9421,-8.4161,5.8509
-1257.8125,-0.2660,-37.7977,244.1037,11.5260,93.0335,-60.6534,-1.1380,-12.4316,-28.0129,25.4486,67.8902,-45.7934,92.9590,-143.6124,-99.9112,-193.3405,80.8602,13.6025,-10.0639,3.5974
-1250.0000,98.9166,203.2814,201.9343,42.0805,88.1886,-28.0150,-151.9078,-90.4449,-178.9470,21.2326,135.7692,59.7032,51.8260,-74.9890,-67.5900,-308.5002,181.5644,-96.7281,-85.7172,-1.6576
-1242.1875,257.6572,256.9181,73.3230,131.1885,-3.1011,-8.8220,-207.1358,-70.9099,-197.3429,-70.4343,227.2210,42.7431,-40.7546,-92.8204,-10.7656,-289.1001,164.8234,-77.4993,-101.8253,16.6368
-1234.3750,287.6149,147.7343,68.9172,127.5048,-7.1924,-12.4196,-137.1785,-37.1837,-127.5570,-109.8820,221.8973,-35.0145,28.8688,-96.4366,-50.7876,-218.4895,89.2846,-46.0716,-105.7410,12.1320
-1226.5625,184.4861,9.4484,71.4129,166.7325,32.6147,100.8915,-134.3398,-106.5626,-124.8970,-179.4305,149.4984,-31.8620,68.3921,90.8506,27.0436,-214.9612,21.6484,-42.7342,-102.7605,14.5284
-1218.7500,200.3344,-44.8652,13.8624,147.9049,-24.6277,118.1518,-117.5596,-15.9910,-72.3064,-125.0432,165.0692,-124.7586,-63.1242,-38.9067,7.7681,-124.4752,72.9708,10.5534,-15.8320,30.8746
-1210.9375,171.2449,-108.1145,-16.6384,85.1364,-17.8237,125.4724,-74.7343,28.6228,-29.6775,-8.6242,133.7024,-153.5891,-56.5881,-31.5860,52.4973,-189.9359,79.3480,-53.1204,27.1371,37.2709
-1203.1250,27.0665,-4.4625,17.7624,83.2750,53.8746,50.6855,-77.0120,27.1265,-68.1506,26.6977,93.2506,-46.5170,14.8525,-179.3666,88.0826,-118.4762,6.6321,16.1037,-45.9941,34.5695
-1195.3125,124.0569,164.3593,-26.6848,-64.4297,46.7134,7.0488,-48.1466,20.7699,-75.4871,20.1720,121.9682,57.7118,7.4439,-222.9833,7.7777,-88.8660,34.0735,9.4643,-121.9829,27.0207
-1187.5000,192.2716,197.4167,-137.9365,-65.9304,-29.2482,115.6134,-86.0906,-90.3882,-150.6508,-18.1576,118.9112,203.1526,-31.7660,32.5959,43.6300,-162.0580,66.7128,-62.9764,-159.7743,24.6727
-1179.6875,73.7184,149.6655,-114.9958,-77.2377,-79.0097,66.3719,-98.8356,-102.3438,-90.6216,5.7319,141.0882,115.7832,-8.7801,-17.6286,67.6283,-29.0327,19.5544,31.7893,-100.3717,47.5262
-1171.8750,-85.4770,-8.7574,48.2927,10.8179,-97.4200,121.4984,-45.2383,-47.9538,-37.2480,-13.0355,47.6355,-50.2373,45.5683,37.5138,85.9240,-10.6470,-103.2464,119.9048,-82.6274,64.7329
-1164.0625,-147.1356,-69.6109,94.1370,126.4215,-88.2753,204.1772,-36.0945,-38.0147,7.6663,-3.2638,-55.2656,-149.7006,-19.5165,-26.8005,132.7137,-0.6859,-94.5000,129.5812,-39.3301,73.4972
-1156.2500,-89.0404,-80.7085,45.7306,45.7744,-99.3822,120.6130,25.7892,24.6820,70.3074,170.2558,6.5949,-197.4090,-66.8410,-109.3469,85.1990,-10.9643,-72.0045,49.0083,19.7214,62.0208
-1148.4375,-21.8284,-187.7098,-66.5823,114.2426,-138.3930,155.1613,-13.2429,23.4722,-5.9685,168.8751,3.5811,-89.0067,-105.0725,109.2222,157.7321,-49.1420,-74.4080,-23.4628,-17.1215,59.6517
-1140.6250,11.5604,-189.5258,-104.7492,77.8557,-177.2592,117.8505,-87.1155,96.4078,-44.0821,131.6382,0.7457,-54.4529,-71.1584,70.9276,119.3463,23.8213,-76.6543,81.2195,16.1893,57.4351
-1132.8125,-72.8262,78.8758,-45.7184,-5.3276,-79.9254,105.7439,-27.7731,47.5324,-56.9818,82.5928,-122.8748,-29.6994,-11.0428,95.8484,107.1018,11.9655,-159.6991,69.0952,-31.3061,44.4189
-1125.0000,-219.1497,249.2930,-14.6330,60.5416,-12.5389,100.6900,-33.3788,-31.2976,-26.8380,-33.4046,-129.4227,39.0957,-53.8687,90.8215,174.8523,44.1860,-235.6817,64.0282,-71.7510,38.4566
-1117.1875,-105.8514,82.3027,-5.9423,35.0101,-112.5531,36.2354,-24.3933,15.4720,-18.1151,13.1965,-11.3429,-62.5088,-45.0852,26.3936,148.1490,91.0327,-121.0584,108.5575,-96.5984,47.0994
-1109.3750,105.9739,-197.1419,-77.7524,141.9790,-148.0743,75.2774,-94.9228,-19.2732,-88.8999,126.2820,26.2626,-23.5996,-79.7985,175.4701,149.9057,19.3718,-119.9349,75.5805,-94.9509,48.2452
-1101.5625,33.7658,-127.6062,-79.6093,140.8876,-149.6523,111.2584,-170.5015,-20.0754,-127.7376,88.3021,-13.1554,-24.7414,-8.5425,174.4855,111.5771,55.6498,-157.8604,144.5619,-27.3509,46.3448
-1093.7500,-160.0915,205.2163,-25.1066,53.1559,-94.8773,93.5957,-225.7311,-0.5329,-146.2300,33.6628,-69.2096,31.4643,47.0770,193.8806,56.5737,38.2955,-140.4361,91.8923,-10.3999,27.8007
-1085.9375,-194.9455,241.9859,-96.6003,90.4323,-93.1050,95.9334,-223.9635,2.0060,-144.7362,73.0583,-105.2472,106.6740,-25.3107,233.2723,95.5403,3.9914,-139.0056,59.2086,-8.4498,29.2615
-1078.1250,-101.5776,125.0021,-180.8910,-26.1101,-104.1403,11.4548,-124.0069,175.7325,-83.0528,209.6871,-117.0567,60.0914,-182.5097,148.8522,47.6730,103.8895,-116.3620,83.6991,51.6985,17.9270
-1070.3125,-47.9820,108.2848,-197.9843,-42.4619,-84.9849,69.1697,-68.8592,159.6369,-136.1813,193.5079,-170.6434,116.7299,-199.5062,316.6377,30.9860,87.9377,-167.5068,32.3802,0.0396,0.7996
-1062.5000,-147.5618,10.3816,-191.2762,35.9844,-78.0311,186.6781,-170.9164,130.3382,-203.5173,91.1093,-164.3988,87.1708,-46.6880,361.2211,38.0648,169.7715,-196.8504,109.8706,-28.8300,7.4797
-1054.6875,-175.2796,-123.6963,-147.7068,78.2913,-71.2195,194.0429,-201.1302,174.8765,-197.0200,-12.4605,-85.2783,21.4703,-3.0033,368.6770,7.9586,251.4619,-154.3441,117.2064,-56.8621,14.0159
-1046.8750,-202.7455,-114.5627,-102.8760,157.8553,-62.1498,203.6605,-229.0964,184.6596,-225.2734,-75.7782,-113.8964,68.0178,-68.0515,341.3788,91.0686,261.4167,-145.5906,91.7881,-82.6378,22.8128
-1039.0625,-240.0196,-10.2334,-31.8453,86.5969,-63.8839,92.4648,-193.8380,146.6411,-153.2926,254.1102,-188.3061,-44.2326,-69.8866,119.2648,52.3460,260.5818,-183.6465,160.5580,-14.1997,20.8207
-1031.2500,-141.2805,54.1198,-0.8276,81.3220,-32.6310,13.2662,-162.5682,31.6075,-122.2944,395.9874,-231.7040,61.5492,-111.7249,188.1646,83.5947,107.7362,-224.6979,50.3105,-54.7645,14.8349
-1023.4375,-68.0658,92.9399,-71.3636,120.4889,-28.9246,-19.4888,-158.8515,-0.9827,-118.8626,216.2888,-191.6232,249.7988,-144.1076,192.5174,87.2551,112.3309,-221.2787,19.5114,-85.8850,18.3028
-1015.6250,-178.3633,87.2534,-113.4489,10.1054,-71.7603,-24.7956,-91.7027,104.8554,-89.0075,64.0116,-198.0584,244.5169,-114.0299,187.3236,44.3292,291.3551,-192.3881,49.1422,-21.5641,12.2257
-1007.8125,-396.8802,11.3564,-119.7905,74.4682,-40.8457,80.6339,-61.8169,62.4145,-59.4165,58.4796,-278.7052,275.0081,-47.1988,328.8643,75.1230,250.1209,-198.7326,43.5071,-62.4941,5.9044
-1000.0000,-399.5185,-201.7023,-49.2835,72.6632,30.9083,41.8968,-27.0816,97.8222,12.0235,166.8009,-281.4622,163.3467,-12.5094,217.2560,72.7269,211.7403,-201.2074,146.7142,-64.5742,3.4402
-992.1875,-442.6309,-385.3005,89.7271,135.3600,96.1567,34.6671,2.1428,126.7177,3.9521,86.6072,-289.6858,82.1843,53.6897,283.1802,64.8052,167.8646,-173.1611,175.4143,-107.1752,-4.5154
-984.3750,-512.9588,-420.1461,126.4924,241.8093,96.1505,145.1835,-34.8961,127.3438,-70.3829,-23.8467,-327.1131,9.7684,89.6495,283.8335,101.6103,242.7405,-209.3423,210.8579,-72.0425,-4.7111
-976.5625,-342.1913,-177.9027,84.3115,131.3026,55.1886,140.7336,-76.8953,159.9958,-111.6857,118.7227,-221.4487,-68.5855,11.6617,132.5230,59.4466,164.6515,-214.4519,206.3438,-41.8730,-9.8473
-968.7500,-116.6127,83.1672,-82.0663,112.5999,-0.9758,159.0814,-132.1051,68.4189,-131.1911,100.0610,-240.9584,133.8797,-81.5243,151.0095,77.0725,-0.6415,-197.7512,152.6209,-24.9100,-29.1745
-960.9375,-86.1239,78.1431,-124.5356,72.7846,30.7627,80.3210,-101.4160,99.7264,-100.8008,22.2857,-246.5396,166.2392,-49.7947,36.3872,34.5755,67.9632,-203.1304,217.7945,39.9485,-34.5905
-953.1250,-169.0464,-144.3187,-99.4552,61.5198,92.0526,69.1082,-76.1868,199.5627,-75.8736,48.0416,-186.5321,81.1537,-61.5049,135.3276,-14.3979,168.0912,-180.9407,136.4979,63.3472,-46.4463
-945.3125,-160.3209,-135.1740,-127.7771,141.8496,27.9339,115.4829,-104.3617,134.9796,-140.3416,57.3879,-140.8796,90.6755,-52.6183,181.8515,31.1865,177.8137,-137.1374,39.7976,37.3416,-37.6898
-937.5000,-116.1059,15.4298,-154.6488,45.6153,-36.7408,52.2934,-95.0805,144.8255,-95.3600,103.1693,-131.7334,63.6615,-6.2781,44.8192,3.1715,187.9869,-92.8675,49.5344,46.7805,-28.4721
-929.6875,-206.2621,135.6541,-104.9082,24.9746,-22.8135,66.7015,-7.2117,86.2389,-7.7933,7.5285,-154.9505,189.2659,-29.3261,59.3888,16.7136,91.7495,-78.9840,-42.1415,-9.1823,-14.6424
-921.8750,-61.9874,316.2967,-63.7578,-41.2785,-92.4904,-39.5033,-39.9500,54.0330,-40.8279,-61.7368,-39.7252,231.2756,-61.9566,-83.6576,-16.3875,133.9032,-3.6773,-37.4289,-40.7449,-10.3988
-914.0625,109.9643,241.5850,-140.9559,-114.8872,-96.5338,-116.0641,-81.0378,50.4568,-82.2024,82.6344,103.1809,300.9478,-65.9280,-50.0512,-57.8687,93.6974,27.2985,-145.0896,-44.6547,-14.4917
-906.2500,75.1903,32.1089,-175.9093,-43.2547,-95.3387,-41.3843,-115.8706,-21.8774,-117.3238,120.2545,104.3726,376.8645,-27.6473,98.7970,-20.1277,22.7481,28.5371,-143.5120,-43.3073,-13.3200
-898.4375,17.7971,-24.9994,-163.5116,-30.2862,-82.8030,-65.3737,-103.3536,28.1283,-105.0968,97.2291,116.9489,206.1287,58.9922,75.9854,-45.0598,36.1423,111.1378,-61.6091,-65.6118,-0.7848
-890.6250,86.3876,78.8772,-93.1601,-31.3682,-84.3276,-29.4217,-140.9031,-46.9544,-142.9338,22.1416,78.5092,168.3668,57.5895,75.1362,-47.0531,35.4634,180.6996,-97.7781,-66.9839,-2.2871
-882.8125,79.3631,248.1066,-26.4613,-38.1070,-91.5113,-73.1430,-148.1060,-16.7011,-114.4216,15.3852,71.4623,161.9684,50.5382,-115.3769,-90.7009,102.1283,102.6246,-104.6108,-3.0114,-9.4253
-875.0000,68.0595,308.0241,35.9273,-119.1529,-139.0079,-120.1761,-50.6084,46.2416,-53.2095,4.3022,97.1513,188.2879,39.1926,-162.1807,-138.6440,55.4985,56.2594,-115.7647,20.6488,-20.8492
-867.1875,42.2282,176.3923,7.7532,-3.7548,-94.0740,-37.7703,-78.6706,18.6167,-44.5540,-60.3484,69.3275,271.0804,84.3074,-43.5474,-130.1259,-118.6673,65.3485,-106.4818,-5.2525,-11.8073
-859.3750,79.2289,37.5891,9.3802,-1.5721,-55.3496,-35.5856,-76.9516,57.7684,-80.1062,-21.1993,108.3393,126.6862,123.2273,-114.1287,-202.8088,-80.0367,173.2478,-34.4067,-3.3705,-9.9513
-851.5625,192.3005,-61.1547,53.0580,5.6667,-11.5812,45.6430,-106.1977,-9.0576,-109.6200,-51.0165,152.4254,-12.6482,93.2020,-33.6367,-159.4490,-35.3753,180.2148,-97.2902,-32.4482,-3.0351
-843.7500,197.3363,15.0428,93.6870,10.8577,-6.8608,50.8113,-101.5043,-112.9460,-69.1945,-81.8997,157.4903,66.9623,62.1395,-65.1984,-118.1602,44.2482,79.1538,-126.2291,-97.5780,1.8419
-835.9375,195.5014,224.3651,91.4206,-130.8605,64.9573,-97.9349,-30.7252,-114.7587,2.3168,-83.7031,155.6919,175.6872,170.1897,-249.6641,-157.7906,5.9756,77.2112,-164.0923,-133.6175,-0.1701
-828.1250,123.6494,257.6724,89.0972,-98.6421,172.7190,-135.7462,3.9936,-190.6461,-0.2319,-85.5692,79.8838,248.3881,205.1985,-177.1958,-87.4809,-105.3551,5.2224,-201.0227,-101.7132,-2.2212
-820.3125,52.6910,116.8305,125.6161,-132.5988,209.3234,-172.7316,77.5592,-116.7015,36.0745,-12.5836,116.9658,27.9487,168.0689,-250.8941,-124.3416,-31.8366,5.1020,-96.1142,4.0343,-2.4119
-812.5000,78.6132,-32.1807,152.9831,-177.7069,162.7762,-108.8777,140.9699,-53.9348,63.2305,-21.7561,181.9283,-91.6247,121.7914,-148.7377,-134.3613,-77.4709,65.8518,-139.3690,29.6192,-11.7438
-804.6875,73.5611,-213.1973,147.3581,-112.8179,120.2258,-4.0364,98.3819,-95.1861,57.3963,-63.9464,176.9239,-59.2032,153.5183,-117.5940,-140.3938,-118.0982,95.6136,-75.6389,94.1975,-17.0644
-796.8750,7.1124,-314.6089,260.3402,-143.3403,160.2674,-74.6091,101.4023,-18.8529,96.1792,-23.5513,106.5481,-201.1714,230.8452,-186.8447,-174.8420,-41.1234,169.9871,-37.3359,97.3685,-13.7704
-789.0625,-31.5278,-283.2110,367.1262,-43.0699,193.0978,-4.3955,61.2085,-95.7423,55.7451,-64.3742,66.0059,-167.3132,226.9765,-81.2968,-142.4919,-117.3416,201.1843,-111.2558,-11.6633,-17.6611
-781.2500,72.9274,-108.7504,402.9655,27.2320,191.9668,-42.1616,-50.9572,-169.6010,-93.6595,-248.1503,176.5547,-131.3904,226.1620,-153.7240,-144.0999,-117.4957,306.4586,-77.1419,-48.6486,-18.4865
-773.4375,283.9770,66.2461,327.3494,-44.9213,153.3775,-116.3932,-52.5759,-170.9341,-58.5119,-322.3882,248.6898,-58.9080,150.8932,-191.5965,-146.1541,-191.1024,340.2912,-147.4955,-50.0955,-19.7475
-765.6250,185.2553,73.4132,223.9272,-72.8806,49.9749,-73.4378,65.0131,-164.0888,94.8451,-242.4313,146.0642,22.7719,47.8270,-184.2807,-67.9959,-183.5087,171.3348,-106.6641,27.6561,-12.7950
-757.8125,43.9019,-32.0649,222.8493,-142.5107,84.9210,-110.1606,210.9603,-91.9149,204.5815,-132.1179,108.8134,-124.1958,83.1176,-258.6300,-105.4738,-37.5755,99.7442,-37.5159,26.7491,-13.4782
-750.0000,7.4576,-104.6224,220.6631,-40.2602,119.7595,-76.0106,171.8205,-203.8728,165.2366,-61.9124,107.4885,-125.2483,45.3164,-113.0855,-72.0353,-38.7551,169.0710,-109.4998,-46.2650,-15.2457
-742.1875,59.3956,-262.8310,199.8271,12.3141,62.9373,-59.5411,78.0292,-224.5002,107.2385,-8.3798,161.5600,-107.9426,24.8778,-169.2042,-19.2399,-94.5774,255.7733,-58.1541,41.0643,1.3531
-734.3750,95.0705,-227.3507,162.6808,-23.4257,25.7975,-95.3860,113.9299,-150.4468,106.9342,-45.1768,162.3708,-70.9084,62.1408,-205.6122,-19.7239,-166.7031,221.1984,-23.1393,76.0806,1.6694
-726.5625,131.7784,54.1404,125.5201,-23.1837,25.6439,-59.2536,113.8264,-224.4127,70.6358,-227.9918,126.2207,78.1385,62.4093,-168.0410,53.8173,-239.8362,115.6389,-58.1446,41.0911,2.0028
-718.7500,204.1766,162.3030,89.9909,-91.3213,-9.8697,-166.5060,79.3762,-185.7523,72.0010,-189.1712,202.7670,6.8441,100.3367,-239.8407,18.0231,-126.3304,47.7523,-56.5244,77.7419,4.0033
-710.9375,156.7580,43.6151,76.6019,-104.3194,-23.2463,-142.6273,102.0686,-198.9805,94.5151,-92.2259,153.5064,-5.2756,87.4237,-105.4872,4.4069,-102.6811,70.0390,-104.7892,99.5299,-8.8322
-703.1250,-24.3345,-67.7915,107.5188,-40.0428,7.6640,-148.4753,170.0579,-130.9278,199.3326,-97.9826,37.5813,-84.0860,8.8279,-146.8463,-1.8879,2.2659,99.6419,-4.7818,128.6198,-14.3537
-695.3125,-159.8033,-62.6227,186.0349,-105.1757,122.1706,-180.7452,284.6457,-54.3046,240.7551,-57.1480,-29.7148,-114.2896,-23.1575,-215.5937,-34.5553,44.7966,69.8699,-0.2010,98.2983,-9.2596
-687.5000,-150.6338,-53.8456,157.1495,-96.7150,93.2689,-135.4378,219.8236,-82.1193,211.7785,-48.7342,-20.3630,5.1170,22.4594,-132.7610,47.3899,16.9263,43.7261,-98.0401,1.5612,-0.5505
-679.6875,148.8328,-106.7831,63.5143,-114.0241,-0.3854,-192.9132,125.2441,-65.7122,154.0473,-32.1010,144.2841,-51.2258,39.3263,-189.7039,26.5892,108.3068,95.8659,-81.6515,-87.9324,16.4217
-671.8750,296.9900,-99.0529,-40.4655,-37.6946,-103.3987,-111.7510,59.3009,-168.6858,87.9593,-60.8429,226.6203,-42.9052,119.8368,-71.9904,70.4526,42.3126,68.6792,-144.6416,-114.7812,24.0583
-664.0625,94.0391,-21.4724,-70.5926,4.4638,-96.5733,-141.7656,103.2075,-198.8274,130.7242,-17.7546,160.8463,2.2801,127.2001,-137.4461,114.1752,50.1531,-64.6397,-101.7945,32.2160,31.5607
-656.2500,-147.1754,-88.2010,-31.0153,-132.6897,-21.0455,-176.1014,252.8160,-13.3004,244.1945,169.0008,54.8028,-176.8140,20.2760,-208.2035,79.6063,90.6771,-26.2352,-65.2659,139.8967,34.7772
-648.4375,-86.1106,-130.6844,-40.1869,-105.5939,6.7310,-75.2045,169.6732,14.4381,160.9284,159.9622,-26.9561,-184.6374,-134.3932,-69.7241,107.3011,45.4468,36.4468,-39.5059,165.8112,26.2583
-640.6250,50.9875,-66.1504,-45.3535,-110.5137,-72.5050,-80.3365,91.5334,46.1500,118.6727,81.9037,6.3276,-114.4554,-176.0571,-184.2689,65.0073,78.2127,102.1530,26.2246,160.7137,21.7542
-632.8125,33.7596,127.0489,-63.8671,-128.7934,-91.0973,-98.8414,183.0373,-9.5243,211.0643,63.4812,-47.7061,51.3919,-121.0600,-202.1550,9.3856,-13.3847,-20.4795,-28.4262,142.2528,3.9133
-625.0000,18.1652,110.8430,-80.7797,-111.4816,-71.0940,-79.7754,240.1334,10.3711,267.0555,156.6504,-100.1015,-1.1591,-137.4503,-218.4539,29.3812,-29.3813,-142.4876,-9.5030,161.3803,-12.3125
-617.1875,50.2433,-32.7291,-85.0411,-149.5318,-38.4449,-84.0884,235.8836,115.8905,226.7084,226.4500,8.1838,-187.0427,-141.1855,-222.1077,-48.9472,4.2652,-75.8174,56.0373,157.1467,-15.8730
-609.3750,46.1327,-73.5247,-127.5016,-50.7870,-44.0000,58.3770,119.4381,110.1836,110.1771,0.0336,151.2916,-191.1133,-146.1198,-6.9666,-54.4491,-37.2948,95.6770,-19.6522,80.7165,-20.6183
-601.5625,120.4781,0.1264,-161.5019,22.3785,-152.1076,60.2568,84.4562,111.9175,75.1095,-107.9317,264.8736,-224.7348,-143.5977,-114.3983,-52.4874,-34.4022,204.6364,52.0840,12.7414,-17.8968
-593.7500,332.8646,0.8055,-125.5056,92.5166,-225.2155,60.1071,-25.5328,111.6250,-34.9575,-143.9170,377.4933,-296.3394,-70.0712,-40.8350,-89.5014,-70.5196,205.6092,51.7865,-93.2526,-17.1602
-585.9375,515.2520,-134.5610,-120.5788,168.5805,-220.3784,100.8728,-166.5757,43.2587,-176.0666,-29.9654,420.1112,-289.9822,-64.5874,38.6569,-47.5528,-64.6790,141.5517,21.4157,-123.3124,-11.4595
-578.1250,378.7151,10.0868,-43.6090,30.6745,-144.4994,30.6664,-163.5638,8.9195,-137.1129,157.0240,388.8158,-285.5701,-24.0420,-68.7948,-117.5401,-60.7794,109.5685,24.0683,-85.3334,-7.6939
-570.3125,179.3083,337.8154,3.4589,-30.1356,-98.5307,-33.4535,-44.4570,-127.3526,-54.0527,130.0870,252.6541,-127.0407,-13.3991,15.8647,-71.3997,-121.7887,50.7069,-107.2083,-144.2643,3.1878
-562.5000,230.1808,387.8180,-129.2222,-50.7191,-120.3194,-56.3574,-30.0907,-150.4047,-2.7211,108.3882,268.7785,-148.2489,-35.5175,-79.2581,-19.9858,2.4384,31.1159,-58.2648,-165.9446,18.3346
-554.6875,314.2175,154.0013,-152.7523,-38.1763,-71.9653,-80.1455,-54.5571,-101.3405,-64.2182,-27.1722,320.0734,-171.2871,-22.4932,6.7487,-44.3903,15.8024,114.6991,24.7874,-153.4783,31.6465
-546.8750,263.0240,-179.0742,-63.5416,155.0947,-54.8703,46.7803,-146.2661,-84.5506,-192.9538,-228.9965,302.1441,-78.5618,-4.7092,135.4829,46.9891,-75.0756,133.0579,76.5689,-100.2672,49.7249
-539.0625,194.2801,-178.7760,-26.9465,119.7485,-55.3911,9.0786,-146.5858,23.6241,-83.2957,-229.4412,267.6604,-77.4300,69.4815,-48.3770,9.8075,-111.5601,28.8322,110.7303,74.3396,50.2209
-531.2500,75.1860,88.1111,-78.7586,35.0002,-33.3228,-6.0348,21.6849,45.3646,-25.0391,-171.3132,143.8107,-18.6834,55.2715,-26.6270,-4.7304,-199.4656,-55.7851,-10.5355,129.5354,36.3310
-523.4375,72.6021,119.5182,-119.0722,-40.2710,-0.7596,-10.6812,17.4713,114.5808,-66.2546,-138.7028,141.4771,-93.4359,14.5665,-30.4041,-8.7381,-91.8705,-58.8887,20.6804,125.2292,32.9532
-515.6250,247.9574,-93.1153,-121.4287,-111.6103,-3.2466,-13.4060,-58.7793,74.7200,-68.5031,4.8528,215.0989,-205.2288,12.8210,4.7623,-83.7564,15.6684,10.9797,52.8071,87.8685,31.5384
-507.8125,283.8872,-268.2029,-122.2417,27.5805,32.8067,22.3888,-131.4844,-73.6120,-105.1977,-33.0484,253.3046,-57.4606,49.6251,115.4663,-48.1873,-57.2390,46.4144,16.4536,17.0588,31.6882
-500.0000,285.4091,-267.7374,-122.5193,-43.7063,105.3926,-52.3008,-22.6360,-1.4153,4.6656,-33.4182,181.0973,-92.1280,86.9786,-104.2883,-120.0306,-20.5968,47.4186,50.6199,86.7926,32.4025
-492.1875,75.6058,-22.6290,-123.1599,-113.3618,178.6205,-89.3618,123.8595,-2.6077,114.1882,-34.1550,-1.4299,-128.1181,159.9865,-32.3886,-120.1812,-166.3112,48.0899,14.4075,86.1639,32.7825
-484.3750,-71.0668,182.5711,-94.7026,-156.9369,244.9396,-61.3530,80.4595,-10.7320,33.8274,-77.8094,-80.8247,-61.0096,153.1014,-39.4089,-91.1937,-172.9214,76.8769,41.2802,78.6259,26.2770
-476.5625,99.4395,210.9083,-65.0911,-199.3716,200.4027,-105.2138,-0.7869,18.2688,-47.3679,-121.3442,24.9571,-30.7535,109.3684,-82.2769,-134.0190,-142.3862,105.8320,68.2757,71.2238,19.9348
-468.7500,210.3709,-67.3605,-62.0793,-56.4125,129.2601,7.3056,-107.6296,-16.3669,-81.1513,-155.5047,67.1574,47.9156,40.0372,105.2457,-94.3993,-175.4515,110.2051,70.6441,4.2080,24.0059
-460.9375,181.8869,-272.0677,-20.5220,19.0673,133.6611,-25.6611,-66.9192,-12.4816,-2.3736,-114.1261,73.9402,-91.8500,45.2567,73.2926,-89.1932,-95.9565,116.1413,109.5344,8.7314,29.6390
-453.1250,179.8093,-134.3808,85.4286,14.9233,203.4652,6.7416,-70.8039,-54.2274,-43.1828,-82.3492,35.1296,-131.2025,41.8863,106.7353,-56.5413,-210.0536,113.4846,69.7949,-101.3428,26.6859
-445.3125,206.0206,206.5868,185.6854,109.0533,265.5698,69.4115,-190.3743,-211.6910,-236.6698,-203.2724,63.6225,-67.2527,68.8230,22.4632,-29.5500,-255.8414,139.1434,58.3343,-217.1099,17.0476
-437.5000,172.8989,348.2054,258.5928,73.8169,229.3194,-5.2912,-264.2858,-212.5276,-273.4898,-240.5666,101.7825,-29.6406,69.4112,-51.1633,-101.8673,-144.9946,211.4697,57.4938,-217.2362,18.0723
-429.6875,143.1566,212.1803,189.8487,112.9268,159.4124,35.3313,-222.8442,-246.0508,-194.9488,-236.5259,72.3186,124.3390,0.3449,101.5499,-23.7872,-139.8151,182.1573,-80.0248,-213.0270,23.4579
-421.8750,164.6463,91.3531,62.3026,62.2177,-5.3014,17.1174,-129.1996,-116.3948,-66.1928,-217.2963,57.0835,145.5162,-53.5225,121.4371,-40.4681,-119.4294,167.0631,-96.3644,-88.6215,44.0538
-414.0625,36.8641,32.2204,72.4548,37.1976,-69.3215,-10.4131,-9.8551,-35.0629,18.2670,-170.3967,-4.4386,46.3989,-42.6867,168.0338,-29.4057,-108.3488,108.6833,-87.0317,-8.5191,55.3604
-406.2500,-64.4561,-70.4613,75.0512,144.6121,-66.9020,65.4853,-7.0573,-69.2975,-15.8119,-131.0615,-36.4989,87.7401,-75.4025,208.0699,48.1492,-67.8160,77.7633,-85.2736,-75.9592,59.1269
-398.4375,214.5851,136.2147,32.9912,139.3498,-72.1355,-14.3028,-84.8910,-111.1991,-129.5180,-173.3795,71.8057,121.4469,-115.7665,56.4413,7.0923,-35.9390,144.2097,-21.1975,-221.0606,55.2527
-390.6250,284.7497,416.9773,68.0226,208.1771,-37.2666,56.9856,-196.6200,-261.0311,-205.1115,-396.6145,72.2372,305.2626,-81.0351,128.9073,80.1786,-183.9546,143.7737,-94.0444,-364.0827,54.4890
-382.8125,80.6063,492.3773,108.7002,212.6339,-32.7479,23.8941,-191.6969,-257.2346,-163.0414,-318.2151,42.3536,274.7186,-39.6613,23.0075,122.9476,-104.3119,80.0129,-90.2593,-324.4704,60.3868
-375.0000,-120.8104,219.4759,153.0778,78.7850,-62.5372,-43.5155,-1.0715,-177.7668,27.7388,-90.1194,-57.8154,136.8765,-31.5873,30.8153,131.4569,13.0085,53.9659,-117.8069,-211.1658,68.9957
-367.1875,-247.0264,-15.2450,91.6563,125.1240,-123.1335,41.2500,47.7610,-93.1110,76.7338,-6.8189,-190.7736,76.2367,-55.3048,153.8081,217.2071,25.5268,-38.8708,-73.1788,-93.6572,81.8164
-359.3750,-219.1229,11.1189,8.3322,80.5366,-132.6358,31.0838,75.7014,79.6450,67.8404,20.5564,-197.6095,-4.3080,-63.9099,70.8944,172.0907,54.1553,-80.5933,-13.4776,-34.0472,73.7490
-351.5625,-106.7904,16.8925,-60.6029,85.3333,-164.7526,72.3007,44.0374,46.7812,73.3504,-47.6939,-190.0249,38.5530,-58.1188,150.3852,215.4147,23.2010,-109.8991,-44.4187,-64.0406,80.0927
-343.7500,-24.0239,-75.9112,-86.1503,95.5055,-154.4887,81.8880,54.7756,19.2929,84.2702,-147.5476,-140.0182,50.8140,-82.9447,87.2519,227.1734,-1.3340,-97.7829,71.0156,-53.6312,91.8456
-335.9375,-30.9343,19.5891,-59.4091,50.9616,-90.9353,-2.2493,82.8209,9.0811,112.5047,-194.1115,-109.6973,43.4026,-91.4751,41.4189,182.2714,-45.5915,-69.3520,130.7225,-62.9255,83.9083
-328.1250,-126.8470,98.0686,-13.6705,22.4138,-9.3797,115.5939,54.8784,-57.1525,47.7624,-222.6956,-172.3733,165.0037,-47.0053,160.5872,192.4093,-109.8546,-95.9130,66.4147,-125.2222,56.9816
-320.3125,-89.4015,-43.1299,-51.5805,-49.7990,63.5284,77.7603,54.2980,-22.0496,84.3975,-186.9264,-96.6854,91.9439,26.8147,50.0952,192.9292,-0.7615,-131.1127,64.4386,-92.1749,57.4153
-312.5000,-85.9883,-110.3741,-123.5363,-84.0664,27.3879,40.8570,128.6636,-59.0225,195.9816,-3.2048,-130.0355,57.8490,-45.4240,125.5500,195.4376,1.2753,-128.3528,-41.6211,-21.1842,59.8081
-304.6875,-129.0580,-50.1036,-205.9923,-58.8573,-19.2589,-6.5813,193.5366,-32.5092,261.0805,134.0077,-173.8706,50.2570,-200.1599,42.4861,224.4801,66.8134,-136.0873,-52.2032,40.3109,51.7094
-296.8750,-53.9164,-151.6457,-166.2611,-125.4758,-16.7171,-41.8477,196.6353,153.1972,227.4119,100.4101,-94.4928,-128.1300,-159.6909,8.6180,191.7590,107.5594,-166.6216,-14.6193,78.0057,55.8218
-289.0625,-53.9548,-293.4023,-132.7599,-59.3198,17.6079,28.6604,10.5420,149.6911,4.5621,133.6201,-58.2975,-91.7144,-15.4268,117.5360,227.8796,106.1305,-132.3469,-54.2596,40.5059,54.7466
-281.2500,-128.7737,-123.9732,-67.0726,-66.9923,47.1322,-90.6640,-106.3428,68.3811,-76.0723,163.0457,-62.8850,48.8964,52.0328,-109.3668,222.2305,172.9114,-32.8632,8.2838,33.2118,48.8801
-273.4375,-128.4444,49.5970,-32.2355,-104.5267,44.8195,-93.8491,-35.0710,-45.7962,33.4565,13.5928,-62.3161,195.6695,-60.3603,-75.1036,221.7631,98.8307,37.7767,-66.0370,-39.9358,48.1700
-265.6250,-52.6588,88.6166,-65.9475,-66.6215,-26.0333,-54.6013,-31.3413,-43.5351,37.4460,-93.4407,-56.2943,200.8978,-165.2860,1.6036,263.7744,103.1977,77.8662,-133.9204,-36.6393,52.9171
-257.8125,51.6893,191.1776,-143.1016,-140.1769,-104.3305,-132.8246,-35.0542,-11.7433,33.9994,49.0724,15.2869,51.6766,-131.6491,-75.1417,224.3635,210.1079,110.5043,-209.2741,-4.8027,50.2207
-250.0000,-56.6578,116.0154,-183.9512,-111.4353,-72.3294,-138.7604,-2.4631,-54.6737,29.8711,264.8945,-59.8306,85.7523,-63.7149,30.4070,258.2960,169.3159,72.4449,-320.3473,-9.6640,46.8308
-242.1875,-147.3433,-12.5197,-209.1503,-100.0611,-60.6876,-201.0698,9.7938,-6.9564,5.4148,312.3718,-45.2937,136.4631,-14.1486,-31.4076,271.9097,219.1834,86.0484,-309.7783,37.1342,60.0973
-234.3750,-32.9221,136.0406,-165.2572,-127.5971,-126.9474,-305.2873,-19.8379,-1.1529,-23.9241,208.9385,-35.6576,329.2738,-6.5007,-24.1165,243.6576,154.1445,129.7639,-410.1247,9.0376,68.4693
-226.5625,-52.4441,219.6576,-190.3209,-152.1035,-188.1543,-258.4734,-7.4075,-64.3119,62.7976,146.5537,-93.9684,453.1351,-66.8126,25.2080,331.4822,130.1693,37.5339,-399.4315,-15.0063,81.8972
-218.7500,-83.4047,-24.1711,-150.8396,-255.0781,-185.8063,-293.1336,69.5827,11.0688,176.0815,332.7158,-88.7212,236.5484,-63.5710,-44.9280,298.8851,170.7478,6.8559,-222.2042,23.4930,85.8788
-210.9375,-200.3035,-458.9662,-93.3118,-235.0010,-54.4059,-198.7505,92.6267,32.4760,199.4289,391.9184,-137.4194,151.0225,32.7216,124.9924,323.3785,120.3661,-40.7730,-166.9445,44.0300,72.9150
-203.1250,-283.6542,-544.2227,-34.2320,-180.3853,-32.4553,-141.8336,114.2299,89.4233,148.3490,339.6599,-149.5624,-8.9571,55.5740,146.4515,310.4558,179.5221,-87.8442,-114.1393,134.1138,59.5071
-195.3125,-161.2269,-72.6731,-55.3435,-201.9739,-90.6973,-128.1254,130.6491,67.1606,91.0831,61.1862,-93.9211,-28.1373,35.2276,89.7220,254.3731,159.4653,-73.1128,-136.5538,112.9941,39.9040
-187.5000,-31.0037,267.6711,-67.6505,-144.7709,-103.1327,-141.6298,8.8723,-93.3082,6.6267,11.5013,-67.4848,255.4771,-50.3260,3.7880,281.1294,38.2223,-83.5800,-185.1767,65.6704,29.1048
-179.6875,5.6483,21.3916,41.4355,-180.1831,-104.1686,-215.7538,8.5036,-95.3860,43.5840,120.2215,-65.6425,182.4863,-50.4786,-106.7539,282.3128,75.4010,-116.6457,-46.4255,170.7435,29.7097
-171.8750,-138.4322,-300.6529,108.7584,-47.3552,-73.9691,-114.6414,39.3906,7.7675,73.8060,3.2135,-105.5477,67.7528,17.6090,70.9479,313.7893,-4.1591,-157.4633,15.5517,199.0648,24.5694
-164.0625,-255.8556,-280.0425,93.7271,42.1033,-15.1286,-19.9064,24.9344,64.5657,59.6939,-86.1370,-117.7961,-55.3340,3.3421,19.2793,300.9439,55.9428,-134.6243,70.1679,219.0393,11.0848
-156.2500,-196.3864,-292.5411,80.5933,-6.5449,7.6121,-71.2850,48.3825,50.2683,47.4910,47.3872,-128.1414,-139.5153,-9.0242,6.5231,254.0275,116.9464,-76.8820,55.6712,205.9148,-0.4968
-148.4375,-137.9350,-201.0513,65.4695,12.8055,66.3581,-50.6714,33.8321,-113.0308,33.2947,105.8995,-177.4983,-6.6982,-23.3926,28.7649,314.1404,29.9531,-90.1358,-66.8367,190.8073,-14.0748
-140.6250,-68.1372,7.7915,-10.2942,-59.5141,27.4556,-127.7347,69.6488,-78.9774,143.4661,66.7774,-103.5140,-43.5407,-24.4211,-120.6606,277.6243,29.3087,-125.0401,-35.0051,189.0663,-14.2996
-132.8125,61.7667,-146.2743,-59.9641,-3.7424,13.6502,-68.7053,130.5777,-20.8332,167.7545,15.7702,-4.4358,-55.2819,-74.3564,-22.9844,266.2397,-57.2449,-170.8533,-85.0842,140.4232,-26.4221
-125.0000,-37.5703,-386.6172,-55.8978,70.7671,54.5999,-29.9324,172.2688,19.0604,135.8094,-16.4795,2.3932,-12.2876,4.4631,-55.5677,309.6281,-15.0382,-200.9223,-82.4123,144.5281,-20.7927
-117.1875,-44.9676,-220.0296,-29.8871,-45.7778,81.5046,-114.2117,162.9218,44.8998,126.8307,-26.7907,32.1607,16.6614,105.2485,-139.1835,228.9888,123.1169,-173.0399,-163.8035,64.5700,-29.2116
-109.3750,78.6681,76.6119,-49.8194,-101.2647,-12.5346,-98.4418,69.6263,-123.2285,144.9114,25.9343,14.9592,72.6695,49.0853,-10.7423,211.4302,104.3215,-122.1059,-256.1562,-26.3458,-47.5783
-101.5625,119.8641,115.8241,-46.1961,-169.2096,-82.0267,-133.1426,73.8806,-157.8137,149.5499,66.2141,131.3023,4.2272,16.4605,-117.7648,143.4383,109.0859,-45.6148,-147.9711,12.2869,-42.3945
-93.7500,-9.5847,-86.6018,109.7744,-125.8055,-38.1645,-53.4987,45.4842,-114.0596,47.5337,-0.1712,68.9885,-22.8586,99.1733,1.5757,116.8195,81.2014,-0.7753,-106.4409,20.2714,-32.8612
-85.9375,-80.5900,-194.5986,143.1964,11.0483,-3.8476,-20.4054,6.5375,-117.8497,8.9749,-76.1127,-4.8864,123.4924,134.3241,35.3641,116.6697,116.7760,33.5087,-110.4461,-87.2772,-33.8785
-78.1250,143.3366,-43.6844,7.5733,-85.1553,-29.5720,-84.3543,18.5557,-107.6760,58.3807,7.9131,82.1690,99.7765,72.4208,-62.8956,20.4844,166.2980,79.7366,-137.4976,-147.8627,-57.9467
-70.3125,202.9439,13.9162,-79.3529,-28.6558,-5.5927,-24.5998,43.2800,-158.8005,46.4998,-42.3448,71.9111,52.7618,23.2161,108.5342,-26.9767,80.5088,104.6646,-151.8604,-160.7397,-69.3133
-62.5000,80.3026,66.2710,-26.5368,-13.4218,10.1358,-47.1114,59.7672,-71.1735,100.3813,-99.8369,54.4000,33.4973,-33.2407,-22.2968,-82.6725,134.4733,86.3415,-67.4880,-109.8623,-51.9293
-54.6875,154.9651,172.9217,-25.4291,-82.8926,48.1630,-120.3273,61.5623,-71.2489,102.5778,-62.0408,58.1804,73.5397,-68.3965,-20.8006,-116.0470,136.7366,54.3048,-137.8303,-108.6925,-49.2458
-46.8750,162.4319,143.3703,-57.5237,-78.5697,15.9833,-116.7452,-6.8328,-103.5205,-2.4169,15.5420,65.7571,80.3787,-25.7498,-15.5026,-71.6067,179.8008,61.0560,-99.3738,-103.7170,-42.7615
-39.0625,68.8940,-57.1812,-10.6181,-175.2502,-11.2007,-108.1695,3.7765,15.2148,8.5955,99.1263,78.3242,-55.7949,57.8982,-42.1963,-132.1576,227.8719,37.8045,50.0773,-23.7369,-31.2781
-31.2500,33.6812,-234.3910,23.6409,-72.5736,-14.0281,34.7573,-71.2650,85.2951,-66.0400,22.0692,4.2224,17.3793,55.8999,139.4712,-132.3397,115.3029,1.8990,115.8727,-26.4069,-32.4468
-23.4375,30.3582,-275.7011,17.8035,-9.0040,17.0516,100.5785,-76.4028,151.2791,-33.7694,15.9175,1.0092,-60.5562,13.8020,23.0198,-135.6148,147.6516,-73.1071,179.5746,2.8274,-36.7175
-15.6250,-11.8168,-144.8676,45.1177,-54.2893,44.2860,53.5501,-12.3857,140.4152,-6.3415,152.9269,-43.0683,-177.3423,41.8482,-22.2755,-178.7245,65.1462,-44.9737,133.4240,64.2102,-44.8390
-7.8125,-85.8571,26.0933,39.5816,80.5728,38.6774,119.6712,-17.2078,96.7136,-46.7467,37.1074,-83.0199,-71.9810,0.0291,8.5719,-145.6714,-49.2075,-48.7031,126.4346,23.7547,-48.8135
-4000.0000,-75.8596,-11.0447,48.4222,41.6549,66.3722,75.7973,4.3862,116.7537,7.3753,26.1161,-88.5208,-69.9502,-46.0844,-114.5859,-109.4145,-5.0844,-53.7077,158.1104,69.2238,-39.9598
-3992.1875,-36.6785,-110.7988,17.0772,12.3623,72.7244,82.1841,9.4918,86.9508,-23.5077,105.8669,-121.5877,44.1189,-77.9709,0.2071,-107.0826,-74.0818,-14.6465,130.5830,40.4233,-35.6352
-3984.3750,-63.4221,-101.4842,26.7734,-13.8732,46.1270,92.6277,55.6390,98.1965,21.6504,-32.3491,-150.5863,16.2353,-142.8001,45.0664,-63.7218,-28.0394,28.4569,107.1044,85.6668,-27.2678
-3976.5625,-50.0461,-17.0536,4.5615,-69.0120,-48.3698,72.1710,143.8827,188.5451,109.9044,-127.4735,-63.4648,-7.5459,-165.5171,58.0358,-126.2921,-13.9027,76.6575,-17.2827,66.0088,-13.8067
-3968.7500,0.1796,-0.7546,-88.8108,-17.2987,-105.0222,89.5616,85.9745,22.7359,89.0063,-73.7432,-48.4863,228.5471,-112.3743,145.8753,-39.0287,-71.9239,91.7075,-174.8421,-22.8031,1.5003
-3960.9375,6.6664,147.8278,-117.9437,-79.3448,-133.4348,-85.8087,56.3147,-41.8278,96.3559,44.2572,-42.2345,307.8876,6.0362,-32.0536,-34.5345,46.3086,98.0073,-236.1637,-14.3690,8.0534
-3953.1250,-65.4240,112.8255,-117.6833,-43.9964,-132.4543,-158.7785,93.0454,-76.9927,133.0958,81.6508,-80.5507,306.6263,-31.1355,77.4341,34.3378,45.9333,167.7116,-304.0943,-48.5540,7.0031
-3945.3125,-113.0557,-110.7297,-56.9717,49.8150,-145.0270,-134.2863,79.2052,-87.7131,156.2643,105.4754,-58.3916,218.8176,-81.8354,172.4008,91.6473,69.0041,153.8670,-278.5846,-59.3012,29.3997
-3937.5000,-210.3119,-205.9328,62.0848,23.9688,-98.2560,-161.4541,87.6993,-4.0843,127.7664,151.6593,-50.8469,42.3592,0.8265,142.7213,97.2888,113.4301,126.3757,-232.7337,-49.7055,37.1451
-3929.6875,-205.8442,-96.4287,67.8298,29.8271,19.2060,-154.9230,19.8906,-69.7712,-14.0306,120.5386,-155.5839,156.6188,79.1975,183.7707,173.6191,118.5435,130.5746,-330.1983,-114.4235,41.5872
-3921.8750,43.5145,-56.0208,-74.5287,-106.4135,-86.4336,-258.4891,-50.0165,9.4338,-9.9263,199.3091,-80.4094,196.7857,47.4897,2.7305,211.8357,159.5560,133.6643,-323.7640,-3.2439,44.9266
-3914.0625,146.0317,-57.4643,-221.7382,-177.5080,-195.9148,-222.9039,59.2189,83.7823,98.3162,161.2309,-83.0624,157.1049,8.9552,36.8612,207.1845,47.7085,60.8975,-253.1939,102.0815,42.4122
-3906.2500,-104.2762,79.2530,-224.8092,-110.4517,-162.2484,-152.1667,91.5903,119.2633,131.6903,121.2971,-159.5413,115.5897,-31.4085,32.1645,273.6717,7.0019,-14.7242,-219.4912,169.5501,38.0454
-3898.4375,-112.3762,178.2012,-122.6946,-257.2161,-58.3915,-231.2421,84.1602,113.9425,14.2744,188.5624,-131.7980,71.2722,-38.5424,-86.3394,190.3458,146.4989,-23.1530,-153.5981,198.2164,29.8777
-3890.6250,-50.7236,64.9173,-165.8348,-264.2346,9.2074,-127.5707,3.4849,34.3597,-30.3870,107.5825,-140.2879,98.7166,-8.9062,88.9210,215.7600,212.7282,-101.8406,-158.9745,191.6247,21.4576
-3882.8125,-23.3022,-188.6233,-209.2246,-235.5023,75.5491,-60.1438,105.5422,65.5156,145.6801,100.3509,-148.9896,-57.0718,20.4974,42.9354,131.9129,241.6983,-144.7780,-59.6124,184.7796,12.7864
-3875.0000,-26.0574,-260.3519,-174.8137,-236.9803,111.6794,-24.9268,177.3864,102.4635,106.5299,98.9173,-78.8520,-133.0575,165.7265,76.7583,52.8560,91.4635,-147.9105,-59.4696,148.7239,9.9149
-3867.1875,-67.9979,-229.2626,-143.6114,-137.6556,181.6001,8.0898,25.0194,99.1933,-82.8318,94.2682,-121.8918,-29.2304,270.7715,217.4112,44.5965,-23.9742,-120.2394,-97.5485,109.4518,3.8417
-3859.3750,-70.4205,-196.6712,-107.9226,-173.8402,217.0098,-29.4068,23.1521,135.4191,-10.6901,56.1219,-196.4053,-141.8986,269.3313,251.5744,-69.1729,84.0921,-88.0650,-62.1393,108.6658,1.2661
-3851.5625,-5.3743,-60.6234,-112.7889,-107.5726,212.8663,40.5452,90.7275,59.0789,130.8901,14.4247,-349.4454,-112.0959,191.3603,355.2181,-114.4965,-31.4145,-94.4402,-135.3071,33.3086,-4.8610
-3843.7500,38.4890,195.2509,-139.8589,-133.5086,187.5172,-22.7146,137.0852,-3.4800,140.2524,172.5162,-414.6524,7.5302,201.2136,216.6746,-182.0178,-168.1310,-121.0165,-158.7009,43.7390,3.8123
-3835.9375,60.0230,112.8017,-152.2905,-180.8136,248.8039,-70.3445,87.0867,59.6067,-19.7417,233.2578,-391.1718,103.8182,335.7334,312.7861,-381.8970,-181.1999,-64.9364,-169.4717,67.8137,-9.8640
-3828.1250,121.5706,-36.6359,-123.7378,21.8769,352.0718,69.0281,-68.9221,15.6768,-175.7424,3.9869,-511.6652,131.1220,437.2653,597.9299,-503.7718,-154.2756,-3.8533,-141.2667,-11.1177,-19.5399
-3820.3125,48.3776,68.1803,-87.9435,56.8123,351.5779,31.6486,39.3163,-58.0131,42.5040,-33.0391,-697.8786,54.6723,510.0623,521.3321,-618.3989,-83.0966,28.4791,-140.8221,-11.8056,-21.9653
-3812.5000,86.2456,248.0513,-84.0989,60.7974,356.1266,-0.6821,153.6031,-199.6780,119.8026,-29.0195,-768.0183,94.2859,550.9255,523.8019,-654.9760,-79.8856,-39.1339,-170.3481,-148.4603,-19.3389
-3804.6875,401.6374,211.4360,-84.7636,95.2839,282.1618,-37.5162,-68.6176,-161.8630,-139.4062,-177.5107,-622.6323,92.4266,623.2948,521.7834,-586.0463,65.8131,-41.2441,-64.3975,-288.6266,-21.2125
-3796.8750,521.4995,86.2844,-69.9915,110.2029,260.6329,-21.9156,-237.3879,-108.5995,-271.1685,-198.5589,-387.7662,-3.9743,638.1196,498.2265,-537.6662,43.9610,42.0991,-48.0172,-308.3438,-7.6358
-3789.0625,390.1240,-44.1043,-22.4835,120.8721,234.8463,-10.5582,-227.4164,-133.6080,-187.1890,-3.8730,-305.1247,42.3863,538.7064,507.4579,-419.5314,-94.1546,51.1913,-176.9082,-262.3237,1.6907
-3781.2500,290.6659,-142.5827,57.9192,22.4464,206.9494,-112.3009,-147.5596,-87.7382,-180.3282,150.7129,-151.5563,-62.3481,472.2100,256.6016,-415.4936,23.6210,57.1953,-61.9126,-184.4195,7.9182
-3773.4375,279.2259,57.9423,84.3213,12.0189,197.0461,-122.0469,-194.7211,-133.8901,-265.4855,-6.6965,-15.9563,-0.0689,461.7308,354.7662,-429.4472,85.3845,10.2085,-70.9450,-299.5344,-3.8523
-3765.6250,381.8439,337.5252,44.7740,80.6407,121.1754,-86.7494,-308.8419,-245.0136,-341.5984,-193.0701,164.7263,69.2833,496.3076,350.9948,-399.3358,-27.8095,41.2749,-106.9512,-371.6066,-7.5695
-3757.8125,583.8267,435.4763,-36.4349,36.5962,-33.3635,-94.1169,-317.6073,-251.7863,-350.3517,-201.1124,486.7836,-13.0076,451.2397,304.5790,-410.8666,-146.6538,172.6906,-148.6208,-450.3366,-16.9338
-3750.0000,865.8348,295.4412,-109.6683,143.5453,-142.9222,-19.4893,-427.3758,-322.5792,-498.1080,-310.1597,817.8682,23.7232,231.1869,415.1950,-339.3818,-182.5230,277.1159,-146.3204,-554.0870,-17.2959
-3742.1875,876.0840,200.6316,-98.7218,119.6923,-167.3005,-43.6702,-490.9660,-237.1962,-523.6896,-262.0075,1012.1966,-114.3273,206.3458,241.0202,-294.6832,-26.2130,216.7594,-98.8421,-507.6574,-7.4549
-3734.3750,691.4580,298.9461,-108.6815,40.9356,-103.5884,-126.7572,-427.4760,-208.7354,-461.1949,-125.7733,1001.6674,-124.2602,306.6105,155.9684,-233.8674,-73.8258,136.5165,-176.2878,-480.1422,18.4878
-3726.5625,567.8326,457.2717,-199.6414,59.1845,-193.8884,-144.8370,-335.9961,-299.2995,-369.7061,-143.5633,909.1595,-107.1733,361.8744,209.9455,-109.0314,-128.4443,153.2781,-225.7560,-496.6436,35.4343
-3718.7500,641.3234,461.7011,-269.5128,-6.4752,-299.1041,-211.8249,-259.4145,-219.7771,-256.1193,-66.2622,875.7849,-213.9857,329.2530,139.0286,-108.0812,-88.9565,156.1377,-220.1504,-422.0501,38.4853
-3710.9375,540.7700,432.0667,-264.4445,-1.1929,-257.3769,-169.8659,-180.8796,-213.3253,-177.5790,-24.0112,770.3787,-135.8344,224.6010,143.0881,-33.1608,-84.5307,-16.0609,-249.6201,-345.5145,42.4922
-3703.1250,395.1721,252.3792,-231.4329,-110.9685,-186.7110,-172.9720,-112.3954,-106.9407,-73.0889,46.1932,802.9486,-177.7234,146.9101,-8.8956,-4.2729,20.8407,-196.3029,-147.1617,-173.0332,37.4552
-3695.3125,277.2005,-4.6875,-205.8290,-157.1610,-160.4617,-110.4990,-14.3169,-5.9791,-11.0044,70.9958,754.1509,-299.9999,209.8247,125.7337,-54.7680,-28.1979,-243.9319,-86.1345,-79.9575,25.0230
-3687.5000,98.8506,-77.1263,-207.6339,-88.7456,-198.6380,35.5754,57.3472,-6.4499,60.6659,69.3720,604.9805,-339.6534,245.3431,159.9983,-23.6380,-103.6553,-246.9448,-51.5395,-10.3035,22.1951
-3679.6875,-54.9191,86.9949,-110.8965,-135.7822,-173.2936,-11.8097,191.5554,-17.3950,120.8886,57.2799,518.3998,-279.7404,269.4196,-110.1860,-110.9429,-43.5694,-260.3940,7.5811,47.8869,8.9224
-3671.8750,-166.8665,44.9178,65.6326,-72.0250,-108.1674,17.5949,146.5612,-134.5653,75.9093,-60.0235,510.6582,-68.0033,262.3034,28.4495,-85.4242,-160.7022,-234.0370,-33.5308,-29.1367,0.4547
-3664.0625,-129.1480,-20.5178,143.8086,2.3805,-139.4048,59.6402,40.2041,-166.1104,79.5638,-129.6796,588.6067,-64.5987,119.8407,68.7558,-120.2298,-194.1993,-160.0112,6.9794,10.4763,3.6433
-3656.2500,38.2375,147.7003,61.6330,-75.5753,-220.0084,15.3194,104.4892,-99.0252,144.8610,-100.6913,616.2429,-146.5331,2.0327,22.7224,-168.3613,-240.0517,-135.3186,-34.8871,72.7237,-5.5102
-3648.4375,-43.5176,30.7936,50.2978,-51.6890,-230.7825,41.8361,166.6204,-109.1222,170.0088,-0.8782,604.7548,-122.5791,-45.9097,-26.4394,-109.6061,-106.0675,-252.7703,-44.9457,97.8014,-17.8057
-3640.6250,-220.4490,-180.2876,123.7490,-123.0223,-157.7776,5.1241,128.5553,-34.4443,168.9610,145.7206,678.1031,-123.8061,-46.0333,-247.8112,-113.0251,76.7185,-254.4199,25.7716,167.6664,-19.2933
-3632.8125,-264.6585,-118.6565,151.8926,-60.6659,-130.0957,34.0967,45.1885,-42.0901,85.6119,174.0185,595.1781,14.6802,-128.4482,-111.4644,-88.7192,-5.8072,-193.3580,-86.8445,159.2165,-29.0747
-3625.0000,-290.7455,-37.9199,161.1255,-86.2116,-192.3402,81.1701,17.9206,-68.6667,57.3588,146.4123,494.3801,96.2767,-190.7773,-102.9903,-8.2790,2.7521,-116.1837,-111.3933,168.8600,-20.7487
-3617.1875,-178.9552,73.6692,204.1910,-115.9197,-222.7642,14.0758,59.5030,-61.4119,26.9527,-31.3548,500.4717,64.7383,-221.2587,-133.6538,-4.9563,118.1590,-111.1455,-34.1166,69.3405,-15.5643
-3609.3750,-83.9074,101.4945,121.5037,51.6312,-230.9536,154.2283,-22.6807,-215.9386,-56.2189,-150.8877,528.8436,92.4795,-192.4749,-33.0404,57.6528,108.8008,-189.8443,-6.6154,-8.9504,-25.1221
-3601.5625,-106.2020,-132.0218,60.4795,100.8343,-217.5000,168.0120,-47.2342,-165.8470,30.2444,-63.7867,504.8881,-5.1067,-179.0294,-94.7773,67.9495,84.0893,-108.8759,42.5107,74.3948,-13.0216
-3593.7500,-280.0336,-235.0552,98.9019,66.4769,-178.6127,170.2332,63.6603,-126.3388,141.1564,-62.2573,396.4031,32.7782,-214.1360,-94.0389,102.7293,11.8192,-73.4375,45.0452,147.1708,-12.4642
-3585.9375,-312.9398,-56.1654,101.2028,69.0141,-175.8522,136.3548,65.4505,-48.9631,32.9727,-133.8406,324.8433,144.5818,-285.3518,-201.3819,176.4485,13.4263,-72.0849,48.4468,184.8364,-10.9982
-3578.1250,-43.8193,248.7306,89.4915,-47.4676,-187.1134,51.4547,-56.7544,-22.6073,-127.2049,-217.4198,423.3250,132.3898,-259.5643,-250.7324,162.1974,1.0193,-13.7239,37.8282,103.4930,-23.5220
-3570.3125,21.0619,385.3662,84.5324,-17.2009,-155.6433,84.2973,-172.2168,-137.5303,-204.6469,-150.2497,382.5891,163.9627,-264.0135,-146.3109,228.7376,-115.6449,15.3946,-1.0767,27.8783,-29.2866
-3562.5000,-184.3286,3.6754,89.2674,22.7714,-114.4968,89.8321,-94.9950,-131.7791,-54.4039,38.6114,313.5926,57.2459,-221.7580,-252.1759,267.0193,-0.6015,-15.7688,145.6928,67.9417,-25.3423
-3554.6875,-179.8387,-342.1718,56.8410,62.5828,-109.5215,132.2031,56.0745,-89.2017,96.6919,43.3037,244.4752,25.3953,-216.6542,-138.1678,269.1916,3.2786,-47.0617,116.2739,37.8426,-21.5369
-3546.8750,-131.3471,-397.9761,-1.5955,113.3883,-130.5665,147.5616,34.1512,-73.6625,110.7920,-15.0411,223.3722,112.5855,-238.5512,-124.1432,318.4101,-19.8611,-33.3476,25.8216,87.7321,-7.7226
-3539.0625,-239.3019,-84.1811,68.5144,39.7250,-97.0712,34.4444,66.7880,-38.6054,107.4531,-91.8515,183.8355,109.3501,-203.8970,-237.5771,276.2091,-60.4605,32.9297,23.8917,121.1553,-11.3508
-3531.2500,-218.3880,325.4589,91.4757,60.9166,-36.7463,21.1678,52.2705,-125.7375,55.9611,-251.8032,23.1729,205.9821,-180.3989,-142.1420,296.9017,-112.2262,18.0712,-94.2218,36.4057,-26.1202
-3523.4375,-108.0489,225.4771,23.8336,31.5194,-31.0469,-45.7194,57.1439,-82.4984,97.8610,-173.3510,-8.0595,100.0188,-138.5089,-247.2969,337.0413,76.4019,-12.3699,-87.9625,7.0433,-21.4780
-3515.6250,15.4678,-108.3484,-106.6627,-20.7357,-87.2278,-64.4799,111.1649,-27.1356,151.9137,28.2350,46.8866,44.2242,-120.4745,-120.2895,315.3697,93.1730,4.3626,-140.5853,-10.1830,-4.6751
-3507.8125,-48.1576,-169.3110,-99.3179,56.8576,-79.5787,-19.3994,81.0367,-165.9579,121.8182,-75.3623,54.7018,235.3129,-148.5974,-40.4091,357.5943,26.7824,115.9644,-132.3907,-73.5739,1.9877
-3500.0000,-87.8856,1.6325,-30.0732,52.3358,-47.0443,-60.4346,39.8105,-169.9064,79.6183,-80.0762,86.4367,230.3168,-263.8193,-154.6245,313.7631,21.2930,251.4833,-101.3202,-78.0672,-3.4383
-3492.1875,16.5444,70.7210,-68.6817,85.9564,-85.3706,-24.3276,0.7290,-206.7350,41.5643,29.3472,49.3366,191.4900,-300.8905,-120.6624,347.1307,-18.0642,214.1695,-102.1308,-114.4236,-5.7027
-3484.3750,95.8892,80.7187,-96.4015,60.4729,-75.8153,-51.3288,9.5422,-124.6939,50.4099,1.6576,-14.8418,200.5858,-218.0617,-258.7926,317.4436,100.4642,116.7729,-92.0688,-104.8970,2.9443
-3476.5625,43.7122,99.1928,-41.6760,-62.5771,-57.8335,-69.9010,99.8065,-32.2344,103.7157,-127.5925,-70.5465,181.1452,-125.7884,-204.4747,260.2469,81.4310,98.8386,-108.5815,-86.9348,20.0516
-3468.7500,-84.9950,-63.8833,7.4981,20.8242,-45.4218,16.9744,75.5140,-19.3651,152.4661,-151.4113,-129.7791,156.1751,-150.0718,-46.6824,306.5486,18.8318,75.3697,-95.6692,-74.5415,31.6187
-3460.9375,-86.8810,-205.1736,5.4726,-15.9824,-47.2287,-58.3626,109.0161,16.2772,150.0048,29.5605,-95.1808,81.0154,-188.5648,-121.0877,266.6964,126.0337,107.7143,-25.9765,-76.3503,28.9973
-3453.1250,-103.0582,-115.7720,26.1428,2.9020,-26.3549,-0.0089,56.2198,-36.4084,96.2466,-23.7702,-110.8609,248.5688,-204.3610,-101.7804,248.5940,108.9166,161.7751,-77.6150,-161.4622,12.0864
-3445.3125,-132.8301,30.0366,103.2060,77.1857,-22.1035,41.7323,-51.1736,-141.7211,-10.1074,-93.7180,-106.1312,325.5474,-162.7641,-171.0637,286.9425,76.1931,165.2529,-72.8837,-157.1871,15.5872
-3437.5000,-125.5284,2.9171,184.3162,49.5040,-51.8281,-24.4929,-44.5179,-98.0106,33.5929,-49.6483,-134.3308,222.5975,-118.1244,-91.2959,256.3845,45.5173,171.8052,-65.1211,-185.8859,22.1496
-3429.6875,-21.0605,-32.0377,147.5735,155.9721,-51.4209,-23.5725,-44.7205,-169.1882,-3.5635,-12.4535,-207.3682,259.8192,-191.3422,18.6462,328.0324,7.9741,206.5251,-134.2378,-255.4512,21.8740
-3421.8750,58.2082,152.7998,45.6403,93.2364,-115.2275,-124.8680,-0.1273,-124.5921,41.0776,-150.4561,-124.5939,230.8508,-292.7638,-119.6146,297.5289,52.2216,284.0627,-55.5683,-177.2250,29.4106
-3414.0625,62.2362,333.3693,12.4606,27.2596,-148.2962,-120.4240,40.2176,-156.2746,7.4678,-293.7122,-157.0575,271.6435,-288.4420,-7.1154,299.8219,55.2076,287.3696,-121.1720,-137.2672,32.7073
-3406.2500,-66.0649,206.5895,-12.0723,74.9429,-209.7297,-71.3316,-21.7965,-217.3461,19.5043,-98.3361,-253.8548,320.1018,-238.4920,5.0481,347.8164,103.8372,264.3504,-142.1512,-55.6803,44.6649
-3398.4375,-60.4937,141.6843,30.2472,10.4659,-240.3339,-174.4088,-89.9565,-137.5973,-49.6072,53.8777,-247.7854,325.4233,-159.7127,-98.9462,314.7065,181.3081,339.2031,-172.3078,-15.2517,49.4850
-3390.6250,-54.8770,6.8386,35.6191,121.0356,-271.9013,-95.4440,-158.0621,-131.8324,-116.6668,-51.8826,-168.6580,367.8190,-226.8858,52.1321,392.6958,112.8050,344.1164,-166.4342,-44.7851,54.3675
-3382.8125,24.6343,-123.1279,-29.1064,130.5096,-299.5817,-49.5836,-149.2633,-50.1895,-107.8166,-78.7634,-121.6238,267.1192,-254.1615,24.1132,400.6345,157.1931,317.9360,-86.6653,-35.4193,63.1623
-3375.0000,160.5644,48.2863,-70.4384,55.3756,-267.8761,-54.3325,-155.0534,-55.1659,-113.5498,-48.2504,-126.1850,298.8219,-186.0533,18.4955,394.0173,3.9830,207.1755,-91.5202,-75.6628,57.3680
-3367.1875,87.6600,326.8651,-37.6258,-18.6082,-198.0333,-56.9398,-195.6889,-94.0374,-117.1308,-51.5886,-238.5880,331.6973,-224.8145,-57.9707,426.6030,-0.0972,97.5858,-24.2590,-8.7644,53.7354
-3359.3750,-14.7896,189.9165,2.6358,-155.1484,-120.7565,-125.1205,-82.8767,19.5158,-42.2585,-11.4849,-271.5252,151.0338,-258.1374,-127.9969,354.6843,149.2607,100.4712,50.4342,135.5770,56.5653
-3351.5625,-114.7816,-50.5968,-29.6533,-80.2413,-153.0415,-47.8631,31.3834,-12.5020,73.0632,-115.9351,-340.0054,155.8390,-216.0187,59.4434,432.2651,117.0569,104.8206,20.5522,105.3575,60.8575
-3343.7500,-145.7699,-116.1256,-97.9431,-41.3368,-186.3381,-43.6175,108.6491,-45.5482,186.3845,-76.3850,-372.4795,123.6587,-175.9125,-11.1194,434.8955,82.8651,108.1874,129.6455,74.1275,64.1621
-3335.9375,-186.0513,-190.9440,-67.5369,-11.7458,-117.9495,-11.6912,175.6173,-50.9184,217.4137,-46.1417,-413.2442,81.1889,-70.1112,-16.9778,391.2676,-34.6254,137.2758,159.4073,-2.4126,58.1793
-3328.1250,-295.5333,-263.9667,38.6617,90.6507,24.2211,59.0317,98.3925,-54.5195,29.2553,-86.1201,-453.2156,40.5492,-37.5262,52.9841,423.4935,-39.3295,168.1822,120.9456,29.8340,54.0094
-3320.3125,-293.3654,-332.3505,224.5076,57.6964,100.0247,24.3869,-11.1661,21.5074,-79.2313,25.5346,-450.5361,-140.4330,-35.3032,-19.4103,350.4163,72.6157,169.7539,123.1231,136.7263,55.5035
-3312.5000,-248.3874,-427.9315,233.1586,101.5339,108.6154,70.5278,-75.9163,30.3088,-106.9116,33.9763,-441.0568,-94.6044,-99.2925,136.9960,395.1935,-30.6472,143.1405,97.0753,110.4104,63.8113
-3304.6875,-235.2990,-485.3868,171.9036,114.4600,121.2863,46.7475,-63.5724,6.1778,-58.4923,83.5216,-427.4665,-81.6568,-49.1938,38.4879,407.1257,-18.8095,120.6427,145.1033,88.1874,76.2336
-3296.8750,-53.0051,-267.6356,104.8424,14.5701,127.1407,-20.8590,14.9803,12.2257,20.1375,-57.7415,-383.6705,-75.4914,-79.9043,-28.8206,375.3040,-85.7794,126.3668,116.3101,59.1605,81.8694
-3289.0625,44.7315,-61.4481,24.2311,8.1391,83.4354,9.9845,7.9911,-31.3099,13.2232,-284.5797,-316.4325,-9.8558,-196.1754,74.3462,441.9850,-130.3153,84.5655,74.9490,87.5675,74.9676
-3281.2500,-51.9333,-53.6682,-41.7731,-88.6876,16.3162,-55.5846,125.6093,12.7244,130.9141,-204.8164,-345.5892,-2.6167,-225.8581,-101.8936,411.3096,-15.2487,56.3879,117.1693,235.5615,81.6772
-3273.4375,-143.8456,-251.1491,-64.0230,-74.7663,-6.0660,-41.4153,211.9786,26.4836,217.3615,28.6921,-366.9940,11.3803,-174.7979,-125.3742,424.4284,-111.4358,69.9773,25.1225,249.2937,95.1490
-3265.6250,-26.2541,-274.1584,-89.7666,-29.3300,5.0371,-102.7519,112.8428,74.7199,81.3056,150.6783,-244.9039,-49.1098,-163.2547,-187.3399,435.1046,-211.1165,186.0818,1.5648,224.5162,106.1348
-3257.8125,237.1049,-43.4288,-69.7623,-151.1478,-12.1248,-193.3526,-51.5368,167.6869,-155.9925,59.4110,-4.0628,-102.8418,-253.9797,-168.5612,343.5755,-193.0450,274.9540,-15.2656,243.4857,88.8838
-3250.0000,207.9701,31.8264,-28.2676,-110.4736,-6.8055,-113.4676,-156.4100,137.1276,-260.7825,-81.3631,-70.7330,-60.0545,-248.2231,19.7233,385.6025,-188.4863,209.3440,-44.6255,283.9526,94.1458
-3242.1875,-16.2275,-121.9349,102.1711,-159.8647,13.4491,-166.6508,-62.3302,230.5000,-56.6219,-25.2054,-159.4580,-150.3020,-43.5311,-143.0600,332.6314,-57.9666,89.7053,10.9540,269.3714,114.3709
-3234.3750,61.6783,-323.6015,110.7178,-151.1655,94.7915,-193.7459,-18.1489,165.9456,-12.3545,167.0600,-114.0900,-141.4364,38.2366,-207.7360,340.8064,-87.3446,62.1788,19.6217,65.8793,122.7074
-3226.5625,229.2060,-366.7108,27.8653,-89.8494,122.7225,-129.2446,-100.3694,82.9609,-131.4833,83.9302,24.8741,-75.9613,29.5763,-143.8008,331.6353,-97.1234,53.2646,81.8750,-47.0228,113.6555
-3218.7500,152.5373,-268.0185,57.8140,-96.7384,115.4426,-61.9584,-144.7796,112.7625,-138.8003,-180.4096,18.6380,-45.6888,58.7035,-4.0812,250.3102,-105.1062,82.1665,144.9145,-54.1232,106.4153
-3210.9375,72.8025,-205.3719,159.7133,34.3173,106.1096,75.2663,-117.2259,66.4965,-148.1555,-189.8135,-99.6574,17.5458,49.7713,133.5948,277.9841,-299.1469,2.0225,29.8864,-63.2758,97.1364
-3203.1250,124.0561,-119.7456,139.6109,-20.6350,122.7672,-18.5192,-100.6643,120.2189,-131.4973,83.7819,-44.9656,-74.2106,66.8274,-106.7331,220.7039,-246.1741,-87.1125,9.8500,-14.4287,76.8697
-3195.3125,65.6141,-247.8274,78.8126,-9.2971,208.7101,-42.0206,-52.7883,243.2285,-155.5233,132.6713,-31.9853,-171.6680,80.1658,-57.7594,159.7633,-123.8930,-76.9260,-13.9035,-38.2873,52.9135
-3187.5000,-69.1323,-348.2148,9.7138,-4.2589,213.3414,37.1690,-11.2027,210.9131,-41.8419,27.2580,-62.3222,-203.4163,159.1856,93.9227,164.5687,-83.9077,-142.0189,-8.9710,1.5479,57.6665
-3179.6875,-15.6348,-12.3855,-79.1255,-123.9753,160.2140,-88.4018,83.6455,194.8378,53.0994,11.1145,-77.4209,-144.9192,216.4352,3.8420,38.6601,-100.6652,-157.8464,-59.7884,56.6335,41.6810
-3171.8750,-42.1294,102.4351,-69.9634,-81.6896,244.0852,-41.9756,92.4982,57.7369,26.0505,20.9637,-250.5247,-62.4003,226.6677,123.7632,-25.2058,-164.4312,-184.6667,19.3795,-5.2996,14.7064
-3164.0625,-19.7646,-260.8714,28.0408,11.4467,303.7999,56.2919,43.2075,80.4553,12.8636,80.6424,-189.7862,-221.0197,176.7353,110.5188,-148.1815,-32.3453,-302.6246,217.3924,51.6082,1.5906
-3156.2500,35.0544,-241.7323,48.4972,-4.9753,286.9649,112.9958,62.3805,100.6037,33.1339,100.7690,-59.6112,-237.1905,197.2446,93.7187,-274.6728,-49.8121,-354.1179,130.8497,34.9673,-15.0679
-3148.4375,79.5000,225.0397,-88.3839,4.2694,150.7793,87.3541,36.2043,1.3775,43.0562,-35.4612,63.1946,-116.7108,208.3865,67.5806,-337.4662,-150.6366,-169.9441,-1.0457,-26.0271,-41.0667
-3140.6250,134.9837,279.8451,-141.2050,-46.4292,24.6369,-1.2395,94.0878,58.1937,101.0394,21.3412,48.0310,-204.1882,229.5656,15.4821,-500.1770,-93.4056,25.2973,18.1192,-6.9736,-57.0051
-3132.8125,89.7035,59.8783,-76.7673,85.1316,50.7484,99.4139,158.2301,85.2402,91.2787,85.3831,-34.9076,-213.4088,145.9771,225.6453,-546.5955,-140.9199,15.8013,-26.4749,-86.6731,-66.6844
-3125.0000,235.2059,170.7007,-35.5201,124.4988,54.6571,140.8611,51.1859,89.0679,21.3324,-20.7767,79.9284,-245.8225,40.1677,119.6089,-542.1718,-100.6244,-49.8894,12.7193,-82.5747,-62.5545
-3117.1875,345.0777,209.8733,-31.9288,-12.7960,21.8978,70.6407,91.5055,92.2394,61.7548,18.4159,158.1118,-278.8875,79.6795,48.9112,-611.3643,-23.9685,-117.2177,-18.7513,-44.1281,-59.0654
-3109.3750,163.2144,134.2877,-38.1019,-53.8388,51.3700,101.6599,122.0809,48.6470,92.4379,85.8608,5.5339,-174.6972,147.4234,153.4630,-544.2626,-31.0519,-158.2880,-24.9834,-15.4373,-65.3179
-3101.5625,28.1290,104.4863,4.5300,-83.0904,56.6356,107.4649,127.4702,53.8532,97.9399,54.1167,-25.2712,-241.7174,189.9577,84.7947,-611.3253,46.6836,-81.5471,86.5884,60.0632,-59.7622
-3093.7500,35.8643,7.5197,48.0219,29.5037,63.7539,225.1070,60.7327,60.9021,68.3082,-48.7764,-17.2494,-233.8900,123.3296,165.9766,-566.5017,-93.7217,-73.9440,93.9971,103.4137,-52.3474
-3085.9375,60.5005,-37.5616,74.4131,124.9982,52.7645,251.6368,12.9000,123.8374,-15.4178,50.2326,-27.3386,-207.1530,39.5783,81.0516,-503.7344,-142.2202,-120.4281,47.3016,197.6617,-63.0228
-3078.1250,33.3512,181.5447,46.9986,-43.3230,61.9665,77.3417,96.2751,242.9745,30.0686,206.4510,-54.2324,-198.2235,48.0106,-93.6854,-493.7404,-59.5087,-147.6974,-85.1953,241.1136,-90.4899
-3070.3125,-64.9139,118.5341,-19.5144,-71.7420,68.0677,46.9406,102.5617,248.9981,110.4635,175.5750,-84.2471,-118.3984,54.3343,-13.5156,-376.8094,56.1131,-176.0595,-113.8046,141.4661,-84.0491
-3062.5000,28.8086,-139.4974,-107.0220,-83.1586,-18.8395,33.5260,125.8524,272.0130,170.8670,88.7054,-23.2792,-94.5745,77.6454,-27.3585,-315.8461,115.7654,-117.4077,-90.4184,164.8194,-60.6008
-3054.6875,135.2792,72.2105,-215.7822,-153.8268,-56.0091,-39.1524,198.9087,161.7654,207.0405,162.5963,-22.5832,-19.9950,-32.3098,9.5471,-241.1055,41.1675,-80.9848,-196.2943,129.9234,-60.3956
-3046.8750,-36.2625,323.9164,-175.5479,-149.4918,-52.1858,-71.8358,239.9858,54.5071,211.2316,239.4875,-91.9163,-52.4128,-138.2880,-60.5477,-127.3296,7.5630,-76.5473,-122.1733,134.0297,-56.1824
-3039.0625,-127.9192,126.5097,-51.4062,-135.2635,-1.4601,-57.6304,253.9815,105.1482,189.3380,253.2691,-113.3737,-183.9388,-14.3797,-120.7455,-112.6375,20.8732,-98.2019,32.8612,77.0398,-42.0642
