Time,Fp1,Fp2,F3,F4,C3,C4,P3,P4,O1,O2,F7,F8,T7,T8,P7,P8,Fz,Cz,Pz,ref
-4000.0000,-4.3207,-2.9731,-39.7777,7.2036,-22.5711,-4.9491,-26.0348,30.9080,-5.2545,32.7831,35.4300,6.5893,10.0114,-19.7804,-48.1680,63.9417,-19.9273,-5.5633,0.1844,-16.1039
-3992.1875,-10.6744,7.2998,-48.5965,1.0575,-68.1061,-50.1750,39.5975,-12.6382,23.6695,62.2413,-45.2251,72.3638,-34.9517,45.7650,16.9158,56.8456,-41.3956,-117.7822,-40.6873,12.3333
-3984.3750,-74.4695,-11.9220,-77.8529,-27.5363,-133.0980,-79.8522,46.7836,68.3631,67.1458,107.2465,-111.3306,79.6805,-101.3623,15.8615,60.5441,65.2973,-68.5001,-110.4529,108.0008,19.3154
-3976.5625,-105.7761,-8.9056,-150.6135,10.3560,-95.5903,-42.0361,47.4840,33.8682,32.1344,-1.2490,-108.9264,117.4878,-63.2600,53.4384,97.6813,67.2448,-75.0663,-72.6269,-29.7916,56.7952
-3968.7500,-37.2259,26.2557,-6.5166,81.0988,-61.2253,-7.3850,-28.9514,-78.7852,-44.0224,-112.8996,-73.6666,78.1314,-64.2950,161.8643,94.6815,30.0337,30.7740,-2.9548,-65.7369,91.1186
-3960.9375,-116.8262,-56.5618,-89.5700,-34.3230,-35.0027,20.1087,-1.5341,23.4221,20.6792,25.3177,-46.5552,-5.3888,-37.4787,41.1317,84.5372,58.6711,-49.8137,22.5671,66.1942,81.2819
-3953.1250,-56.3406,-36.7325,-26.5336,-8.6508,-44.6789,47.7080,25.9911,14.7414,11.4866,-20.3534,-55.3487,-14.8141,-9.5639,142.4994,74.4964,50.4120,-11.8724,13.1828,-118.7724,71.5403
-3945.3125,-15.0983,-14.7281,17.2600,-2.2290,-73.6135,93.0611,-39.7352,-50.1909,-16.9597,-85.2805,-46.3993,-6.4962,-0.9026,113.6275,82.2112,58.9002,22.7811,125.5440,-76.9813,42.5460
-3937.5000,-49.7065,3.4995,-54.7964,34.3278,-35.3905,94.5642,-0.3014,-83.9787,-14.2482,-119.0675,-6.2952,69.9648,1.9172,78.8927,84.0861,-10.4683,0.9938,126.0509,-111.0210,7.6994
-3929.6875,11.1447,38.8400,83.6154,94.3327,30.2886,86.5118,-8.4088,-165.3317,-22.0919,-163.4203,-50.7381,24.8712,-42.8024,106.6169,1.4160,-54.3996,89.8507,117.0019,-119.6154,-37.6971
-3921.8750,-21.6577,-6.9895,50.3856,-8.3201,70.3140,16.8054,31.8326,-50.3334,55.4220,-11.4224,-45.8304,-44.8792,-38.1674,-36.3101,-68.9051,-49.9847,28.5399,84.3059,164.1633,-70.7416
-3914.0625,-31.4234,-38.4560,77.1928,-52.9293,60.3873,-28.8494,96.1400,14.7257,45.9995,16.6359,-54.8783,-91.5811,-47.4837,26.8058,-5.1712,-21.5262,10.1299,38.6571,119.9979,-80.7360
-3906.2500,43.8671,-14.7913,156.0576,-82.4829,28.5058,-23.4518,27.5030,20.8309,-22.3742,22.7435,-12.8888,-86.2372,-5.7585,31.9811,-0.3890,-52.0197,32.9828,44.0599,196.8855,-75.6831
-3898.4375,32.0934,-22.6441,31.8625,-95.0903,51.5713,-37.0958,13.8194,81.8955,1.2067,46.8100,48.0475,-62.9495,54.9139,-54.8979,-14.6604,-63.5600,-32.3734,-37.5874,220.7467,-52.6807
-3890.6250,154.6677,63.0424,121.0201,-7.3466,-5.0072,-57.3921,-5.5018,-11.6952,-17.8609,-82.7793,-7.6725,-9.3134,34.9383,-1.4145,1.4159,-119.7577,49.4720,-55.8842,96.9524,-36.3277
-3882.8125,55.7495,15.4411,54.6831,-71.1074,1.9188,-87.1926,37.6838,-3.7853,62.5753,-37.8726,0.1072,-2.1842,42.4629,-105.4359,44.9921,-148.4613,-6.7872,-13.6707,174.6697,-29.4756
-3875.0000,-3.2332,-0.7620,30.2858,11.0773,50.7954,-74.0356,87.8261,-62.9175,75.9650,-61.0084,-23.1676,-26.1122,55.9416,-55.5123,56.5300,-134.2172,12.4333,-2.5043,-24.6628,-53.6703
-3867.1875,93.8835,43.9600,130.9969,72.3680,41.7640,-45.7680,42.0626,-107.9504,30.4456,-106.0418,-31.3517,-71.9406,10.5116,-27.4712,11.1713,-104.8728,98.0586,58.7641,-32.9035,-62.7625
-3859.3750,18.2863,-5.8593,51.0027,-2.0450,72.0264,-52.1918,72.6066,-76.6749,24.2382,-74.7671,-0.2475,-78.4711,41.3706,-71.1299,41.1102,-110.2265,31.3555,54.3363,33.1712,-32.5541
-3851.5625,53.0331,6.6623,123.3536,32.8959,71.6327,-52.2646,35.5200,-76.0444,-11.6110,-74.1382,-36.8051,-115.6577,5.5727,2.5657,40.4048,-109.2322,80.0847,54.2585,-1.4072,-32.9944
-3843.7500,11.0258,-44.1201,80.9596,-43.9183,29.4813,-20.0881,-6.3104,29.8469,-17.2036,68.7511,-5.1224,-157.6098,37.0236,-76.4977,33.9536,-75.9880,20.4321,47.4405,133.2818,-75.1852
-3835.9375,-26.9434,-80.1190,40.6127,-46.6955,63.3911,-22.8664,64.9150,64.8067,54.2601,66.7043,29.6076,-196.5240,108.5267,-79.5247,104.5565,-77.6985,-8.2951,9.6668,26.0379,-78.3265
-3828.1250,38.5485,-57.3974,144.7293,-51.0241,93.7554,-29.2032,58.6009,-14.7959,48.1806,-48.9054,23.7815,-201.9921,102.4825,24.9088,97.6222,-45.9749,39.3918,5.3269,21.2469,-48.0176
-3820.3125,-26.7582,-67.6178,74.0450,-117.1681,96.3174,-26.3437,61.5021,-47.2062,51.3127,-119.3195,101.1581,-90.2668,142.6382,-46.4658,26.9019,-5.0630,-32.0076,-60.8136,97.6745,-8.5072
-3812.5000,73.0329,20.6614,104.4560,-52.2164,90.9811,-31.3842,20.5109,-198.5206,-26.4511,-232.6424,96.6334,52.5517,100.9016,59.2593,-15.7040,-46.0592,5.8455,-100.8548,-47.8016,-13.8913
-3804.6875,49.2806,22.5272,154.3291,-39.8143,104.0900,19.0266,-3.0333,-148.3961,-12.7717,-109.5229,0.5546,28.8186,40.6160,-1.5569,-39.8557,-68.6126,48.4850,-18.4380,-0.8155,-37.8221
-3796.8750,-63.5830,-31.7907,-0.9041,-47.5258,96.1103,47.3394,25.3319,-8.3626,15.8095,-6.4990,-6.6235,20.9770,33.2362,27.5208,-48.1022,-38.2727,-29.0672,-26.1163,-42.9130,-45.8527
-3789.0625,15.9033,1.3289,83.2260,-2.8867,70.4926,22.0043,37.0528,-68.9857,27.7423,-31.1284,-31.4587,-4.5230,8.2083,111.9583,-36.9934,-62.5898,21.9084,-51.4433,-32.6665,-71.5367
-3781.2500,-14.2623,-28.2604,50.7138,-103.9099,75.2390,-8.9807,116.1274,-27.2521,107.0288,-25.4015,10.0507,0.3166,50.5305,-30.2580,40.4692,-93.5660,-39.9117,-81.4249,113.9516,-66.8758
-3773.4375,14.3147,-8.0566,42.9496,-39.1899,66.7399,-54.2139,181.9689,-70.7677,136.0744,-105.9285,3.3065,-8.0948,79.6043,-1.7266,105.6952,-100.8038,-19.1639,-123.6706,2.3246,-38.4645
-3765.6250,9.0017,-36.1862,73.3012,-80.3671,25.3358,-96.3511,102.9179,-2.1963,131.2234,-36.3613,-1.3432,-87.4127,37.7780,-7.0911,63.0292,-30.9552,-13.5293,-22.8245,173.8008,-43.9502
-3757.8125,-78.0675,-97.1176,-17.1021,-132.2966,118.1789,-76.2437,160.1307,92.6296,114.6360,94.4600,18.2578,-141.4924,58.2038,-61.2229,9.6237,-10.8684,-75.3234,-39.7272,192.5399,-61.1806
-3750.0000,92.6186,-14.1803,161.2553,-66.4746,149.7734,-81.3842,118.1037,-22.7974,35.7968,-20.9760,13.5979,-146.8299,53.3781,7.3976,3.9792,-88.0394,36.2473,-79.8784,118.0194,-66.6551
-3742.1875,54.2524,-15.1888,82.5654,-104.7088,108.3149,-48.5730,77.0282,47.7294,31.9128,49.5373,10.8725,-77.2221,49.4922,-71.0262,-37.7087,-91.2574,-10.6142,-83.0786,186.4648,-34.1702
-3734.3750,22.0189,17.8311,47.0163,-31.8031,36.0070,-10.6066,42.1118,13.4098,-2.8202,15.2036,-24.7111,34.5388,14.7535,40.7093,-74.2441,-89.3305,5.6749,-45.1316,14.0610,3.4780
-3726.5625,35.1376,28.7982,97.8321,-17.5422,14.0466,4.7158,20.5437,-7.5711,12.7908,-5.7881,-45.9561,12.6499,-43.6450,18.8091,-59.4220,-73.0618,44.0176,39.1705,99.0010,-18.5131
-3718.7500,-131.9984,-64.9940,-1.6019,-79.5364,60.8384,15.7912,104.7242,114.2066,97.1501,152.9743,-34.4541,-50.4918,-32.2951,-81.3493,-11.8454,-98.0548,-29.7401,83.2285,143.6999,-44.7466
-3710.9375,-45.8809,-11.8787,51.2192,6.7298,77.8794,-3.8796,85.1577,95.2281,40.7583,96.9838,-90.7083,-70.3853,-51.6960,9.7466,-32.0175,-153.8128,43.5521,134.5355,54.6394,-64.7250
-3703.1250,-60.3586,-21.1417,36.4544,-7.6073,26.3167,128.8468,33.9955,118.6483,26.7743,83.3955,-104.5715,-84.8911,-65.7005,-4.7638,-83.7792,-167.1810,42.9422,190.2426,145.9965,-79.3011
-3695.3125,-95.7863,-24.1075,-0.2670,27.0859,25.8145,201.6148,70.9016,45.1235,26.8543,9.8578,-104.3872,-48.3567,-102.6524,30.7681,-10.4740,-129.5108,35.1222,154.9910,41.4197,-79.8221
-3687.5000,-24.3433,10.3810,73.8762,63.6224,-45.8332,167.2260,35.6660,47.4396,28.7807,49.1603,-176.3580,-46.9804,-137.7541,106.1594,-9.3079,-53.0011,77.7291,121.5859,43.6922,-78.4862
-3679.6875,-159.1048,-64.0613,-104.1808,-35.0587,-39.6756,136.6347,116.2392,238.5587,109.5156,240.2616,-169.5291,-40.8115,-168.0508,2.3414,-3.3338,27.2988,-49.3934,92.9778,120.7905,-72.3425
-3671.8750,-100.6203,-48.3475,-80.9841,-11.4889,-90.2586,123.2910,140.0789,188.9116,96.5130,190.5920,-181.4467,-54.3998,-144.0848,98.7720,19.9061,14.8232,-33.0416,45.6168,39.1385,-48.9407
-3664.0625,-82.3797,-71.0403,-100.0186,-99.1688,-35.0827,104.6901,121.6772,97.9968,115.2607,99.6581,-89.6150,-73.2499,-88.3642,6.9503,73.9154,-38.9288,-76.1013,29.0129,199.2427,-30.7889
-3656.2500,-73.8439,-91.2275,-91.7534,-125.5561,47.4100,113.3897,167.5836,-2.6201,124.3085,-0.9746,-6.4839,-101.8041,-5.3392,-58.5853,156.2364,-103.3962,-88.5829,-32.2948,103.6529,-22.3372
-3648.4375,76.5085,-2.9805,28.3296,-10.1408,19.7067,49.8882,66.2967,-66.4486,24.1588,-64.8155,-33.5667,-92.5674,4.4774,24.6907,128.3680,-93.0726,18.4478,-22.8115,7.8600,-13.0829
-3640.6250,-5.3844,-52.3156,-22.8287,-92.9927,5.7560,-0.8695,53.7730,104.4790,10.7717,69.0953,-9.9107,-105.5873,-8.9585,-99.2924,78.2627,4.9905,-42.7954,-35.5849,66.8389,9.9265
-3632.8125,14.5677,-7.0912,-3.1382,-3.0067,-11.3405,-17.7825,37.1177,88.2604,-42.7549,53.8595,-63.4108,-49.7661,-25.5490,-6.4252,24.0223,25.8905,7.0284,-15.5172,-123.3277,29.7927
-3625.0000,28.8812,20.6921,47.9179,11.3293,2.9069,33.6546,-22.1872,30.3892,-64.9315,31.9746,-48.5697,1.4013,-47.7972,-29.2029,38.1364,4.1287,43.6238,34.8999,-108.1350,44.0132
-3617.1875,-30.6624,-4.1082,-51.8799,-12.1920,49.3094,6.2489,-12.3344,40.6726,-53.9547,79.2362,-1.5837,47.7149,-0.8955,-54.8370,84.4046,-22.4953,-18.4261,-24.5301,-165.7795,90.3918
-3609.3750,27.4983,17.1057,7.0377,10.9942,-36.5829,-42.4570,-60.7741,27.6413,-66.2783,66.1863,-49.9067,33.7210,-13.2980,40.2376,107.3848,1.5604,14.5645,-35.2606,-141.7335,113.4826
-3601.5625,-66.9358,-47.1461,-92.6360,-83.4296,-63.0770,-68.7663,-13.8134,76.0152,-19.2057,77.5413,-2.8381,8.1202,-2.3041,-21.2895,117.7700,50.0083,-70.0127,9.4163,44.7294,123.9827
-3593.7500,-36.5185,-21.5786,-98.4671,-18.0105,-105.7156,-37.2220,16.9972,-38.7521,-24.2834,-1.2454,-7.9243,38.3663,-7.4602,119.0312,112.0097,45.2980,-49.4777,3.9391,-63.9636,118.3419
-3585.9375,-89.0367,-18.6306,-77.2340,-1.5391,-121.3004,19.3704,-35.1445,19.5259,-40.3135,58.0166,-59.9749,59.6614,-59.5720,103.4091,96.3021,30.6275,-29.1844,92.5135,59.3852,65.7583
-3578.1250,-211.9671,-52.8739,-168.4072,16.5265,-101.2785,76.5634,22.3217,113.4097,17.2644,114.8804,-76.4333,79.5624,-76.0871,49.3781,116.2077,14.5419,-72.8690,40.6922,43.3432,48.7851
-3570.3125,-136.5916,-15.9963,-53.2721,92.9040,-132.9509,119.0601,-8.9050,9.5750,-13.8624,11.0212,-106.5967,47.7687,-106.3025,164.6602,84.4215,57.7400,9.0601,10.1671,14.5835,54.1253
-3562.5000,-153.3080,-70.7596,-106.2226,-29.8152,-149.7231,102.4626,11.7580,103.6236,43.9006,69.0489,-86.8628,-6.1250,-86.6200,74.8425,104.5379,114.8242,-67.9355,-6.4487,138.7335,37.3774
-3554.6875,-70.8267,-42.1689,-57.9737,-17.3420,-28.2906,4.0600,61.6262,6.8753,19.8691,8.2794,-37.9349,6.1744,-37.7352,87.2175,152.8653,92.0986,-48.7346,-97.8696,-58.9139,49.8383
-3546.8750,-11.8821,-19.6076,38.7412,-28.4216,-40.4104,-44.9009,11.9546,-78.4266,44.2900,-41.0441,-49.5618,-7.0859,-49.4049,74.0478,103.6545,42.8106,1.4565,-39.8448,-34.1153,73.7553
-3539.0625,-56.1920,-40.4862,-116.7968,-71.7686,-49.7703,-54.1199,40.0471,23.0222,35.4716,61.3827,-22.4396,20.4021,-58.3210,-9.3816,57.2098,34.2565,-83.3670,-49.0739,-7.5522,64.4286
-3531.2500,59.9106,46.0190,-32.9281,43.2836,-38.7186,-42.9413,-21.4519,-75.1501,-25.9459,-36.8117,-46.9118,69.2947,-46.8277,76.5926,32.1833,-26.9234,6.3372,-38.9126,-101.6064,39.5104
-3523.4375,91.0806,37.2120,-36.9900,3.3825,-78.6115,-46.7103,-24.9032,-41.2885,7.6846,-39.9726,23.6647,28.2314,23.7185,-1.3823,-8.7780,-30.0744,-13.2833,-42.7027,36.3951,35.6479
-3515.6250,54.9987,19.7880,-75.3027,37.2232,-117.7423,-12.7356,46.4075,-6.6751,42.0737,-78.3780,57.9893,-12.0926,21.0126,-4.6190,-11.9788,4.5101,-18.5224,-77.7453,0.1585,69.5401
-3507.8125,125.2794,58.2863,-3.2398,73.4164,-191.5195,24.5856,-26.9285,-42.7182,-31.1911,-77.4401,-15.3506,-12.0740,-15.3460,69.4932,-47.8199,79.4332,40.7573,-8.4373,37.2643,69.7862
-3500.0000,75.1157,3.7027,-127.6201,-12.8488,-95.7351,9.4497,-41.7150,53.7900,-45.9059,92.0449,6.8570,-27.5125,6.8425,-19.8496,-27.1053,137.8952,-53.9660,-58.5785,57.9387,54.5903
-3492.1875,133.1597,33.6144,-31.7960,10.0796,-72.7448,-76.4839,-54.2965,40.4896,-58.4268,78.7213,30.2602,-4.7523,30.2263,3.0202,-40.1791,125.5401,-18.4755,-175.5243,-93.1890,77.6043
-3484.3750,139.7133,37.3620,9.5425,-17.4930,-68.2547,-145.9133,-48.3792,8.6746,-16.4520,46.8828,72.1528,0.5086,72.1070,-101.5993,1.2602,56.6660,-10.2041,-168.9695,-50.8133,119.1263
-3476.5625,113.7635,41.3443,-18.6186,-8.5723,-60.2591,-100.8406,33.0423,-91.6498,29.0276,-127.4728,117.5446,45.2723,80.4901,-129.7259,119.2185,-6.7294,-9.6006,-123.9123,-180.9366,164.1578
-3468.7500,164.6770,90.8438,69.0843,76.2083,-82.4103,-85.9140,-24.6883,-223.1393,-28.6517,-221.9902,59.7758,59.8908,23.7198,-4.9920,97.0356,-28.2944,78.3915,-39.0048,-201.2301,179.0468
-3460.9375,80.6855,79.7792,-54.1102,63.0882,-95.4616,-24.8831,-37.3208,-125.5247,-4.2321,-87.3880,11.0966,119.6108,11.0384,-92.1589,47.9541,-40.7633,27.3676,19.0034,-107.4178,166.0399
-3453.1250,58.7862,112.9202,-39.2091,147.0686,-80.4046,26.2492,-58.8469,-72.8010,-62.7128,-71.6804,-84.4959,171.4375,-47.5493,-3.2181,-10.0137,-25.1387,71.6821,31.1095,-234.5251,144.1417
-3445.3125,-8.7917,84.4935,-34.9942,149.3486,-113.0481,66.6778,-91.0795,-31.7846,-57.8991,-30.6840,-79.7952,138.5582,-79.8409,0.0297,-79.6729,14.7825,74.3726,104.5164,-125.3347,111.5549
-3437.5000,-86.5588,42.9689,-115.9766,140.4141,-46.8839,59.9033,-97.5106,35.0287,-101.2864,36.0977,-14.2850,131.4738,-50.3240,-7.9345,-123.5271,82.4891,18.1239,60.7171,-133.3276,67.7802
-3429.6875,91.3447,120.8225,34.7154,178.1279,-43.0559,27.7737,-166.2884,-33.5324,-170.0270,-32.4876,-9.1248,135.0363,-46.1545,70.7644,-192.7245,50.8254,96.6479,-7.4404,-128.6858,35.6657
-3421.8750,31.8541,72.2778,45.0201,83.4402,41.3742,1.2427,-155.4710,-22.4988,-159.1710,-58.4781,1.6279,109.2037,1.6101,-29.9387,-145.3190,98.7493,57.7119,-31.9949,-13.4372,46.1613
-3414.0625,64.9603,73.5752,116.9240,116.3496,76.4084,-0.6914,-194.0449,-96.8686,-197.7127,-95.8757,-0.0287,69.9785,-0.0283,41.9541,-110.2972,60.2590,103.6770,-33.9479,-189.5984,44.2692
-3406.2500,109.7322,86.3138,164.4889,125.9135,88.0889,48.0176,-255.9679,-121.5991,-259.6060,-120.6343,48.9553,44.4070,11.9723,53.5047,-135.6132,35.4125,139.1604,46.7431,-179.1164,19.0393
-3398.4375,41.1560,38.4769,55.7001,57.1147,162.4168,122.3705,-217.2355,-119.6743,-220.8421,-154.7412,87.5889,45.4869,87.6208,17.6986,-98.2695,-36.7968,70.2885,83.0754,-176.9714,20.4729
-3390.6250,173.3417,100.1899,156.6679,83.0667,153.4984,113.4661,-188.7450,-275.0105,-229.3263,-310.1056,114.9630,73.3208,79.0159,118.6501,-107.1641,-118.2699,128.2811,74.1477,-255.0873,11.6685
-3382.8125,110.2328,73.0943,92.3396,55.7093,126.2807,123.2553,-178.5495,-264.6493,-182.1037,-226.7686,125.0328,81.8486,125.1084,18.2947,-98.3498,-145.0519,85.7793,116.9219,-141.4914,-15.4305
-3375.0000,84.5722,66.9228,104.4573,134.7964,211.5254,98.4920,-167.8949,-251.8403,-171.4278,-214.9875,137.5485,19.8243,100.6487,-6.6136,-49.0727,-170.4001,119.5327,126.1479,-202.4483,-77.0741
-3367.1875,175.6347,77.5801,239.2970,120.5921,236.4739,86.4293,-179.5440,-264.3500,-183.0576,-227.5251,161.7553,-65.4949,125.8816,-55.8062,-25.0838,-182.0694,171.5620,112.0752,-144.7205,-126.0134
-3359.3750,117.9551,37.3391,177.3926,26.6310,248.6832,24.6162,-92.9404,-178.6220,-96.4286,-177.8209,211.2139,-53.5637,174.3680,-191.7611,24.1657,-206.5068,89.3383,18.2528,-61.7369,-113.6957
-3351.5625,169.0341,81.0129,230.2485,78.4174,190.6539,-32.4544,-39.5834,-235.1516,-80.0518,-198.3781,154.4213,-1.8773,154.6047,-101.9701,40.1763,-190.2076,124.7768,-35.8296,-186.0155,-97.6202
-3343.7500,109.8301,43.8340,167.8197,17.8987,128.3214,-21.8315,-28.5338,-113.9879,-31.9838,-113.2381,128.3327,-27.4998,91.5466,-165.4821,13.8874,-142.2130,70.9687,-60.2138,1.4128,-86.8402
-3335.9375,27.3406,-6.3809,43.0874,-28.9280,114.6944,-72.5143,68.2164,-53.1184,27.7873,-52.3998,77.9452,-41.4266,78.1907,-142.3080,1.3109,-81.5295,-9.5154,-107.9026,25.5414,-63.3549
-3328.1250,80.6269,15.6594,135.1210,-10.9939,132.8186,-128.4492,49.7172,-34.5164,83.3037,-33.8251,23.3010,-97.5999,23.5792,-160.3748,-17.5071,-100.1150,58.8610,-18.8423,44.3976,-45.1107
-3320.3125,-23.2302,-25.1373,61.0039,-46.2145,131.7931,-92.5330,86.0674,38.9324,82.6683,-34.3993,22.4991,-98.9164,59.8109,-234.5988,18.5361,-100.8625,21.3126,52.0737,81.1063,-9.0048
-3312.5000,-17.4885,35.0962,66.4893,100.1676,64.3750,23.9797,19.0162,-29.0223,15.6303,-65.3808,-45.7109,-19.6263,-45.3646,-83.2113,-12.8141,-95.0146,100.4490,163.5878,-88.6016,-3.2839
-3304.6875,-71.5902,47.6190,48.1392,116.7028,46.1070,115.6434,-35.8902,-9.8377,-39.2639,-9.2188,-100.7824,71.8172,-100.4011,-27.6615,-31.0113,-76.0244,96.4927,180.2543,-35.1614,-21.4014
-3296.8750,-123.2395,32.3198,-83.7698,133.6763,24.2927,130.7541,16.6558,-31.1948,13.2934,-67.6021,-84.4080,123.7180,-47.9909,24.3352,21.2438,-132.5880,35.3102,91.3653,-158.2699,30.9424
-3289.0625,-8.6179,84.7759,-2.4151,178.9061,-40.2723,103.1116,-11.5542,-168.3131,-14.9101,-167.7463,-111.7956,132.8723,-74.3384,143.5976,29.7585,-123.9132,93.6956,66.7245,-182.1497,76.5470
-3281.2500,-32.7396,15.8070,-100.8076,48.3897,-29.5912,39.7204,-0.5237,-120.1879,70.1340,-119.6507,-27.9367,69.2849,-27.4391,6.1075,77.5258,-75.9950,-11.9263,6.3400,-30.7709,87.4132
-3273.4375,15.1838,-26.9608,-14.1556,-9.0733,21.1432,-19.6197,125.5584,-179.0158,122.2292,-215.5002,22.9683,-63.2482,23.5066,94.6683,165.3449,-62.0337,-9.9831,-50.9961,-52.3489,65.3364
-3265.6250,-46.5250,-87.8336,67.8611,-106.1819,66.2277,-11.6156,206.9890,-207.4997,203.6723,-243.0013,68.2166,-128.4296,68.7958,102.5812,173.5124,-53.7356,-22.3270,-42.9830,97.4167,73.6098
-3257.8125,-135.9784,-91.7986,-27.8746,-161.0484,79.5687,2.6353,220.6741,-119.7330,181.3696,-156.2514,44.7106,-5.3568,45.3309,41.7291,113.9383,-76.2022,-89.6059,-97.7256,148.4394,124.1355
-3250.0000,-25.7165,-5.9595,48.1051,-87.2129,10.6185,-29.4184,78.0625,-115.2788,74.7620,-77.8174,-23.1010,71.4192,13.5640,82.5876,-27.9252,-34.9809,-20.1737,-93.7754,118.1416,128.3656
-3242.1875,-96.4952,-21.8923,-23.9522,-87.4312,10.6209,-29.5253,41.3896,-4.8781,75.1007,-4.4325,-22.9631,71.1458,-22.2533,-26.6033,-27.8346,-34.8160,-33.7609,46.1230,153.7969,128.5513
-3234.3750,-135.7691,0.6433,-67.5088,47.8424,5.1326,36.8639,36.2161,26.0226,32.9310,62.4412,-103.3183,101.3805,-65.5678,39.7017,38.7631,-41.1581,16.9761,111.5189,-166.0603,159.2457
-3226.5625,-213.4197,7.2917,-111.4457,146.7188,-112.7542,102.8529,-80.3699,92.5034,-46.6475,166.8993,-183.0785,131.2232,-145.2876,68.6181,67.9674,25.0928,47.6099,245.5195,-172.3381,152.5483
-3218.7500,-374.2172,-77.5819,-238.5340,90.4431,-129.7874,122.6902,-61.1088,222.8323,-28.3788,260.2020,-126.9873,113.9225,-126.1564,14.3749,51.0304,81.1855,-62.8141,189.3698,-17.7662,61.7072
-3210.9375,-207.6990,-55.9079,-98.3142,44.4779,-99.5154,6.8278,7.4471,144.4416,40.1810,181.7895,-59.6006,33.9306,-58.7302,45.4434,9.3959,2.5642,-52.4683,3.5177,78.0884,-53.8297
-3203.1250,-59.8692,-78.8580,21.2174,-124.1878,-15.9462,-94.7346,127.2934,117.3464,161.0352,117.6807,97.0814,-103.7526,60.9867,-129.1804,18.0595,-98.7673,-79.7280,-130.0372,263.2509,-81.0670
-3195.3125,34.9107,-58.4059,44.6904,-168.9082,6.5773,-145.3552,187.0948,103.2079,183.8409,66.5255,82.7119,-118.4812,83.6515,-142.8586,77.6821,-113.1517,-72.6586,-140.6526,182.3637,-21.3516
-3187.5000,24.3625,-68.4323,69.8319,-179.9757,-41.2452,-120.3342,102.5435,129.7031,136.2903,167.0044,-1.0089,-129.5554,-37.0320,-43.8757,66.9632,-12.9001,-60.5790,-81.6177,242.1078,-31.9839
-3179.6875,-149.6828,-136.5034,-73.5164,-179.5485,-0.5525,-79.8104,106.4848,280.6928,140.2366,317.9746,2.7722,-126.1214,-33.2145,-77.4016,-2.2556,63.8367,-143.9065,-150.0792,280.3511,-65.1149
-3171.8750,-110.8184,-96.8937,4.0450,-106.2153,39.0550,-39.3880,73.3258,210.5727,70.0752,247.8356,-30.5530,-85.7797,7.4999,35.9788,-35.5751,67.4625,-86.7016,-215.6408,143.4707,-61.3412
-3164.0625,-114.7949,-98.9097,-39.2309,-145.7229,-3.1890,-45.8139,31.3078,241.5959,28.0632,278.8404,0.2649,-55.2808,38.3564,-6.4852,-4.7423,61.2343,-118.3094,-185.0495,244.7305,-30.4101
-3156.2500,-108.0761,-108.3189,-107.8161,-174.5310,1.2665,-114.5365,72.9859,247.3177,69.7518,247.5404,41.7850,-51.0731,42.9141,-39.2577,36.7937,66.7040,-164.2578,-249.7537,216.6817,11.2295
-3148.4375,0.5030,-62.4444,4.4595,-136.4739,-70.4313,-148.4048,38.5069,175.8735,35.2802,213.0791,7.1504,-86.0056,8.3121,-37.1644,76.1837,69.0149,-85.3110,-177.6028,219.4596,13.7207
-3140.6250,-92.7654,-98.1702,-20.1164,-160.2664,-20.9831,-136.1228,51.1781,262.5747,84.9635,225.7676,-17.3392,-109.7783,-16.1461,-133.9250,88.7232,81.4708,-97.5267,-129.2969,267.3862,26.3626
-3132.8125,-73.9298,-41.5485,35.4001,-36.9531,34.5623,-117.7347,32.9550,170.3651,-7.2505,133.5422,-35.7362,-55.4317,-34.5129,-43.5800,70.3712,63.0158,-7.7393,-41.8914,40.3906,45.1106
-3125.0000,-109.4779,-63.7048,70.5260,-74.0357,69.7108,-83.7502,-78.6723,168.7387,-45.8676,205.9086,-0.5348,-57.4751,0.7176,-45.6273,-5.3781,24.1479,-3.8501,27.1115,108.9888,43.4585
-3117.1875,-300.1270,-139.6531,-55.4531,-123.2278,53.7714,-98.8719,-57.3985,227.0163,12.4172,264.1757,57.5743,0.3812,21.8542,-60.7850,-21.2276,82.1766,-110.6201,-57.9943,165.4935,64.7073
-3109.3750,-234.3532,-108.3490,11.9879,-129.0165,-25.7580,-141.6018,10.2663,184.6804,44.0940,221.8300,15.0812,31.6390,-20.6087,80.4641,-62.6757,113.6000,-92.7579,-97.7033,160.3803,59.3584
-3101.5625,-116.5199,-81.6962,-120.5106,-187.7650,-121.2292,-128.2878,60.9779,235.3945,94.8267,235.5313,-8.3619,44.9425,-44.0269,19.7567,-50.0746,126.0665,-162.7049,-121.3564,208.3306,36.0559
-3093.7500,30.7234,7.0212,-112.6021,-76.1152,-113.2877,-84.5794,33.0908,133.5016,29.9579,133.6263,-36.3927,89.6462,-72.0382,101.4470,-78.0738,97.9189,-98.3647,-115.6176,4.6616,8.1497
-3085.9375,16.8979,8.7030,20.2243,-19.5495,-54.4499,-98.9737,-17.9157,119.4929,15.9673,82.6143,-50.5158,2.2607,-49.1473,14.0342,-92.1825,83.6564,-9.8753,-59.9807,95.8719,-5.8613
-3078.1250,-67.3713,-53.3490,-32.4037,-69.4311,3.9387,-113.8234,40.6132,141.0352,110.5172,104.1539,7.9162,-50.5626,-27.7108,-75.8425,-33.7461,104.9381,-58.1033,-73.7982,117.6313,15.6734
-3070.3125,-60.0302,-40.1459,48.5718,-62.6948,-63.0792,-143.0742,10.7354,111.1748,44.6578,111.2920,-22.0581,-6.7811,-57.6823,41.8905,10.2854,148.8143,-30.2331,-67.0158,54.9602,22.8078
-3062.5000,-148.9757,-85.4389,-8.7501,-118.2592,-119.4084,-91.6266,-9.4500,165.0114,24.5002,165.1279,-5.3353,9.7045,-40.9587,21.3249,27.0191,202.3966,-89.1116,-52.5302,175.9801,2.6447
-3054.6875,-148.4708,-57.9247,-82.6369,-48.3758,-155.2894,-17.7282,-9.1789,128.2973,-12.1996,91.4102,-5.1671,82.6504,-77.7876,131.2130,27.2147,202.4296,-96.2855,-87.5965,35.4357,2.9362
-3046.8750,-185.7590,-44.5232,-10.3161,20.7046,-193.9729,-19.6337,-10.7061,89.7741,23.3041,89.8883,-80.8083,80.8099,-115.4240,129.3159,25.6176,200.6629,-31.9761,-18.4654,34.0836,1.4312
-3039.0625,-289.0133,-88.4502,-154.9579,21.8317,-119.6095,18.5145,64.8144,165.3108,97.8610,165.4273,-79.4053,46.0367,-78.0179,57.4677,-9.9265,164.9504,-77.1209,87.7164,35.7847,2.9791
-3031.2500,-176.2135,-30.6373,-37.5484,134.0268,-38.2007,62.7192,-0.6227,99.8989,-3.5456,137.0109,-70.9596,-19.6742,-69.5671,64.6829,-38.4269,99.2872,47.1142,199.9518,-98.4958,-25.4176
-3023.4375,-161.3079,-48.8608,-20.0280,43.3342,16.3053,117.0323,-56.9813,80.5863,-59.8721,7.6986,-16.4273,-39.2748,-52.0275,9.0136,-57.8400,79.7293,24.8979,215.3073,23.3160,-44.7114
-3015.6250,121.9360,68.6263,-20.1683,44.9948,53.1677,79.7022,-57.0021,-66.3632,-96.8553,-175.2497,-16.5489,34.4906,-15.1476,8.6960,-94.9143,43.5249,46.4173,111.0238,-149.5362,-7.6545
-3007.8125,443.0842,213.9975,55.6052,118.5713,-19.0733,45.2770,-201.1336,-173.4171,-203.9512,-210.2933,-51.7807,73.1701,-86.3794,84.2899,-128.0982,45.2223,144.8876,149.6420,-216.5116,31.3006
-3000.0000,322.9311,172.5863,-69.9242,103.8477,40.3803,67.5551,-215.5695,-78.7611,-218.3458,-78.6298,-29.3124,94.5584,-64.9169,-4.4218,-142.5861,30.6241,81.5505,170.9606,-160.7862,16.9561
-2992.1875,348.0249,191.4163,29.7913,198.3839,66.0809,92.0853,-189.7614,-161.8582,-192.4985,-161.7183,-40.5996,47.2116,-39.2079,58.1289,-117.8258,-17.7209,161.7140,159.5283,-276.8296,5.8639
-2984.3750,339.8257,168.6577,-16.7874,154.6255,19.4774,83.3169,-199.2639,-62.2589,-164.9600,-25.1132,-50.1970,0.5793,-48.8108,-25.6086,-90.3719,-27.3631,132.5065,186.8019,-144.1779,33.4732
-2976.5625,314.7651,158.6679,-155.2295,129.0196,-9.9836,90.7008,-154.6149,56.4953,-120.2681,56.6400,-77.6504,45.1121,-76.2715,-18.1951,-81.7666,17.1485,61.3112,125.2283,-204.3766,78.2344
-2968.7500,428.4622,214.2838,-110.9182,136.1748,-111.7011,60.8345,-184.2168,63.9866,-186.8252,64.1352,-144.3661,89.4115,-142.9925,99.9825,-74.4083,61.4115,84.5923,97.4090,-196.8505,85.7448
-2960.9375,311.1582,160.8489,-197.6085,53.3290,-125.4104,83.9713,-160.8204,87.4718,-163.3783,50.6254,-121.0799,149.7191,-119.7169,86.1540,-88.0481,121.6717,-7.1775,14.5931,-138.3211,109.2493
-2953.1250,388.3032,202.8114,-119.8425,130.9330,-193.6534,88.5538,-154.9675,-53.6105,-194.4768,-127.4507,-79.3411,154.4889,-77.9867,201.7813,-83.2318,89.3715,55.9034,-12.7764,-272.3637,151.2018
-2945.3125,469.8647,197.7454,-71.6632,70.9468,-219.4925,62.5393,-217.7240,-116.3110,-183.1829,-152.1362,5.7994,91.6665,-29.8563,138.8139,-72.0219,100.4643,63.8849,67.2574,-155.0181,162.5515
-2937.5000,402.2174,150.1126,-177.6893,2.7643,-178.5228,29.3247,-176.6895,-38.2095,-179.0921,-75.0264,8.7463,95.6564,10.0789,105.6409,4.9861,104.3548,-22.5830,34.0991,-117.8835,129.6989
-2929.6875,453.3340,182.7451,-84.9540,18.3439,-121.8008,12.8615,-193.9123,-56.3777,-196.2605,-56.1813,-45.5566,115.4063,-44.2371,162.2253,-49.2488,87.9909,12.8742,-21.3110,-102.0234,39.5912
-2921.8750,364.9622,128.5130,-100.7133,-35.5740,-27.5788,-2.0945,-136.6486,-34.0526,-101.9367,-33.8378,-23.3616,63.6639,-22.0530,0.3111,-26.9864,35.1282,-28.4570,-39.2177,19.3355,-49.0278
-2914.0625,415.3383,131.5939,27.2763,13.2623,63.3985,-58.2996,-44.6353,-200.9748,-83.8652,-200.7442,30.5866,-29.3194,31.8791,17.1460,64.0287,-93.9855,39.7431,-60.3807,-106.5698,-104.9032
-2906.2500,413.1216,81.4108,175.6822,-59.4987,137.7717,-95.1091,-44.2242,-309.5037,-9.3939,-345.2560,104.9324,-137.8953,106.2075,-55.6142,175.4444,-93.7018,66.9339,7.8559,-39.0833,-177.3832
-2898.4375,325.1994,-6.4044,159.3841,-147.9694,231.4512,-74.6279,86.4842,-326.7243,121.3804,-362.4585,235.5827,-228.1651,200.8391,-146.0857,232.1599,-147.1176,2.3661,-45.6014,13.7052,-230.5727
-2890.6250,531.6334,62.0535,303.4448,-117.0768,228.4884,-114.7933,120.5370,-475.6050,155.4933,-512.3159,269.5807,-268.0736,270.8210,-75.1944,266.2225,-260.1894,73.3111,-120.7054,8.8129,-270.4249
-2882.8125,525.2252,16.5229,334.6659,-265.0262,260.6809,-156.7996,225.7243,-480.3440,297.7463,-517.0264,337.7282,-309.8192,302.9475,-228.1501,334.4258,-376.1115,10.9418,-198.6541,214.0641,-312.1384
-2875.0000,442.4597,0.9173,358.5320,-243.3102,320.5251,-207.1425,359.5498,-493.4335,357.6395,-493.0938,324.5252,-285.8980,325.7222,-277.4528,358.2738,-389.3837,9.9667,-281.9473,94.9475,-325.2096
-2867.1875,417.0515,-1.8351,404.7587,-234.2245,329.7094,-235.1214,331.7140,-448.1848,293.8693,-411.8180,260.6641,-313.6136,261.8416,-268.3904,294.4624,-306.3057,45.6748,-202.8809,139.1598,-315.9424
-2859.3750,264.0844,-52.0162,241.4334,-246.6849,351.3484,-177.6449,316.3197,-280.4834,277.5461,-280.0919,244.2593,-292.8709,245.4126,-284.8793,241.0908,-285.7744,-15.2133,-109.3596,126.8222,-258.2380
-2851.5625,275.8728,-4.1151,288.8634,-129.3872,287.7418,-93.4167,216.6784,-270.0446,177.9741,-269.6349,144.6032,-245.3700,182.7313,-127.6039,178.4703,-238.4935,71.1297,-27.0941,-72.7834,-210.7890
-2843.7500,104.2647,-34.9154,215.9003,-55.4874,177.7255,54.4187,106.6342,-122.0054,68.0047,-121.5726,108.5315,-208.2635,109.6375,-53.7167,68.4486,-127.6076,74.8050,46.7822,-68.7905,-136.7403
-2835.9375,-63.1692,-24.5269,109.1179,23.6191,107.9083,131.4663,-0.2159,-44.7530,-38.7729,-44.2959,1.6446,-19.9352,39.7318,60.3796,-38.3736,-13.5078,56.2270,19.8666,-200.6127,-22.4871
-2828.1250,-2.9617,84.3713,130.9844,118.3968,-54.2647,79.1756,-125.4342,-95.8615,-163.9170,-95.3708,-50.6041,185.0725,-49.5364,192.1462,-126.5544,7.2439,105.4328,8.6123,-245.8121,72.4161
-2820.3125,-88.0631,76.1197,-34.4498,102.8847,-109.7352,59.5896,-180.9662,-41.2643,-182.3733,-77.7429,-32.1529,276.7984,-31.1091,62.6065,-109.0516,24.6982,38.2939,99.0697,-227.3163,127.0119
-2812.5000,-84.1171,69.8449,5.1686,176.4399,-69.1578,100.0618,-177.4550,-111.6200,-178.7887,-148.0664,-28.6525,206.5880,-27.6330,140.1252,-68.5081,28.2083,92.6217,137.5812,-363.8015,130.6534
-2804.6875,-106.2174,42.9693,-18.2581,153.9541,-56.6417,112.4910,-165.0097,-99.0260,-166.2647,-61.4350,-53.2121,146.3401,-52.2130,115.6091,-93.0293,77.6810,79.8174,150.0529,-211.3506,143.2429
-2796.8750,-243.9891,6.4362,-91.3516,156.8175,-18.7775,76.2788,-127.2249,-24.0646,-92.3958,-23.4389,-89.4261,184.4562,-88.4518,116.4482,-92.2059,78.5221,40.1216,116.8793,-243.5544,181.1823
-2789.0625,-249.0200,24.6720,-22.6915,221.4427,-61.1721,70.8191,-132.6916,-66.3501,-133.7808,-28.6884,-130.9016,179.3334,-129.9521,185.0554,-133.6330,110.1253,91.2750,111.4542,-214.0265,175.8764
-2781.2500,-328.1616,-50.6610,-106.1401,105.9641,-33.6762,61.2651,-69.2602,-1.7250,-70.2584,34.9702,-30.4853,133.1173,-66.5606,64.5609,-107.1648,137.6405,-6.8458,66.9384,-47.5912,166.4711
-2773.4375,-269.0664,-58.0286,-117.3498,59.7407,-81.9302,49.9651,-43.5707,-12.8488,-44.4766,-12.1151,-4.8256,122.1597,-3.9256,164.3165,-118.4418,163.4041,-40.5867,20.6722,-93.9190,155.3104
-2765.6250,-268.9717,-69.9481,-76.5451,24.5241,-115.1819,53.6637,-76.8823,26.0192,-5.6906,26.7967,-3.1702,89.2008,-2.2908,131.0745,-151.7194,130.1644,-37.9548,91.4114,45.7457,85.1387
-2757.8125,-361.3423,-118.2684,-169.1988,2.8536,-61.8730,70.9111,13.3554,80.4410,49.6462,118.2636,15.0467,69.7948,15.9019,38.3733,-98.4508,37.4719,-105.5315,33.7062,58.9648,-7.4938
-2750.0000,-208.8588,-66.4418,30.0061,14.0416,65.2904,51.0129,29.4404,-13.3011,28.8279,-12.4321,31.1192,13.2469,68.9505,-19.4699,-8.3347,-130.3756,-15.9084,-25.1455,35.0178,-101.2894
-2742.1875,-95.0264,-85.6443,76.5678,-118.4210,221.8026,-50.5326,75.8674,-76.6973,75.3565,-75.7804,187.5417,-86.9449,151.3535,-193.9607,38.1275,-194.8723,-54.3477,-122.6414,219.4329,-128.7499
-2734.3750,2.3411,-65.8652,176.6727,-162.3327,285.8735,-170.5237,139.8535,-160.5379,102.4379,-122.5719,214.5119,-96.5790,178.3049,-203.8977,102.1373,-240.8163,-37.8765,-236.5913,140.3937,-101.6739
-2726.5625,-37.7395,-92.2670,208.3383,-202.6911,169.4858,-248.9618,170.3936,-91.8284,207.0743,19.1842,136.0204,-138.6572,99.7953,-245.2706,96.6932,-210.2053,-45.0295,-206.9926,310.8991,-107.0553
-2718.7500,-185.5373,-153.4824,19.2906,-209.7510,91.3923,-255.0977,349.2372,123.1922,349.0193,161.2448,56.8278,-180.4229,20.5779,-287.3457,91.5484,-178.2862,-137.8729,-214.0961,409.7062,-149.1412
-2710.9375,-63.8906,-90.3751,109.6925,-123.3499,34.7485,-200.7800,329.5322,67.6484,329.4088,104.7499,0.0817,-199.7245,-36.1884,-159.9563,-2.1416,-160.9190,-47.0786,-162.7468,318.9331,-168.7838
-2703.1250,-99.4454,-95.5365,107.8984,-159.1374,68.9048,-166.6543,290.6136,101.8982,290.5894,103.0538,34.1363,-165.2195,-2.1529,-236.7633,-78.0379,-126.7495,-50.5070,-93.5832,317.9522,-134.6366
-2695.3125,-61.4657,-70.2856,69.6477,-122.3699,67.6203,-167.9654,289.2365,63.7006,252.3163,64.9078,32.7469,-129.1530,33.4359,-164.0194,-79.3892,-128.0264,-41.4765,-90.8652,144.5115,-61.9484
-2687.5000,-19.6397,-38.6151,111.2531,-115.7393,-37.8157,-126.4200,220.7096,105.3410,220.8904,106.6048,-35.8012,-87.2320,-35.1249,-85.4122,-111.8868,-49.4450,-10.3377,-49.2919,150.9045,-20.4183
-2679.6875,-202.0863,-108.0034,-117.3972,-156.3564,-83.5068,-61.1141,211.9294,244.7390,212.2160,282.0568,-81.6040,-21.5529,-80.9430,-57.0532,-119.6380,88.9029,-135.5714,-56.9557,214.0463,7.8537
-2671.8750,-319.4898,-88.5816,-129.9985,-28.9092,-169.1525,-0.7467,161.1969,304.1798,124.5860,342.5529,-204.3687,76.1890,-166.7177,77.3700,-132.3345,112.3066,-94.1066,-33.5629,61.2120,31.1725
-2664.0625,-455.7438,-105.6699,-237.4437,10.6904,-239.6536,112.7739,54.6036,418.7667,55.0998,457.1961,-200.9807,153.0888,-200.3417,80.9490,-165.8842,115.8575,-120.9707,75.9895,99.5269,34.6373
-2656.2500,-440.2132,-66.2948,-330.0980,131.0887,-259.3438,204.1020,-39.1881,399.1615,-75.5882,437.6408,-220.7930,207.7892,-183.1645,134.3267,-148.6367,170.2100,-98.6865,162.3557,-96.3617,14.8949
-2648.4375,-242.1862,35.3582,-231.2449,223.9974,-307.5300,265.9421,-160.4853,277.0460,-195.7811,315.5799,-232.1089,232.9981,-231.4890,233.2268,-233.8950,232.0685,4.1542,254.2327,-178.7720,-33.3579
-2640.6250,-323.0313,-1.2342,-279.2457,213.0630,-281.5615,291.9451,-207.6410,340.0820,-206.8243,341.6795,-170.2818,222.3660,-205.6686,149.2807,-245.0046,258.0838,-29.5810,243.2672,-121.0273,-44.4742
-2632.8125,-330.1382,10.4195,-212.5012,276.8847,-251.8430,210.7064,-179.0443,295.8729,-214.1224,260.5351,-177.7085,215.4999,-177.1001,215.0913,-215.3701,250.8550,11.5408,201.0475,-197.5539,-51.8512
-2625.0000,-226.9025,15.1053,-178.4024,203.0638,-216.7848,136.8193,-181.1055,258.0159,-143.0742,259.7442,-105.7918,177.9890,-105.1862,141.2638,-181.3941,212.9874,-10.0382,163.1857,-60.7358,-89.8875
-2617.1875,-194.7391,20.4513,-180.3692,166.1998,-145.7838,134.8952,-109.2132,182.1186,-145.0762,183.9100,-70.9284,213.4364,-70.3233,139.3822,-146.4730,211.0803,-36.7111,56.2891,-133.9691,-91.9796
-2609.3750,-54.9893,77.1134,-70.7343,199.9557,-147.1841,133.5900,-147.7271,33.8175,-146.4841,72.6771,-72.4781,212.4864,-71.8671,211.1178,-184.9587,172.7822,28.7971,19.0096,-170.6168,-93.4795
-2601.5625,-131.6594,11.3831,-113.5039,89.3181,-115.9839,90.9015,-79.6454,65.1257,-41.2925,67.0507,-5.4353,170.1400,-4.8161,58.4566,-116.8497,131.0868,-43.4143,13.3490,-35.6586,-99.3893
-2593.7500,-144.1989,2.0833,-52.1315,111.8412,-18.6328,4.3726,17.5904,-57.4139,-17.9507,-19.4263,-18.2459,121.9590,19.3802,45.9490,-19.5913,81.5485,-2.6738,71.8432,-154.5657,-112.1544
-2585.9375,-132.4875,17.1747,-1.4994,122.6269,-4.0403,56.1016,-41.9293,-43.7107,-77.3683,-4.6597,-40.8116,99.0419,-3.1760,-13.2991,-42.0893,22.2614,39.9030,188.5938,-38.2364,-171.6768
-2578.1250,-163.5005,9.5143,-69.5802,127.7148,1.8559,98.1355,-36.1534,36.3015,-71.4905,38.4207,-35.0815,105.4354,2.5663,-44.2485,-73.2927,-8.7158,8.1269,157.6482,1.3956,-202.9054
-2570.3125,-43.8745,56.6235,55.9902,177.4610,-20.5992,112.8226,-58.7336,-23.0366,-129.9689,-20.8442,-20.7072,83.4837,-20.0446,44.4686,-21.8490,-31.0345,82.5880,101.3474,-90.3359,-188.4876
-2562.5000,-42.9103,7.9782,-19.0970,37.5532,-21.7106,75.8659,-59.9664,49.9860,-94.0965,52.2487,-21.9934,46.8860,15.6869,-30.4602,50.9411,5.0122,-1.3151,102.4090,51.2947,-152.7242
-2554.6875,24.8322,37.8187,-23.3978,70.4465,10.9815,71.7251,-63.3924,45.8136,-135.4175,11.1434,-62.4883,43.0935,-25.7875,39.4206,46.5333,37.8684,25.1391,100.2810,-92.2792,-120.1670
-2546.8750,20.9222,60.9970,44.6656,136.7026,-30.9762,65.9468,-106.4682,39.9770,-104.3928,42.3828,-105.6415,37.6529,-67.9172,33.6656,3.4786,32.0732,87.8293,131.5140,-61.5144,-89.2692
-2539.0625,-145.5584,4.3029,-94.8217,111.4068,-23.4753,110.6240,-25.0933,121.5965,-22.9139,161.0751,-98.3408,82.6644,-97.5937,-31.6479,11.8699,39.7267,9.7179,106.2010,-88.2914,-44.9301
-2531.2500,-110.8416,71.0476,-97.1024,251.3160,-99.7739,182.4982,-101.5103,119.4134,-135.2274,158.9617,-172.8404,154.8770,-172.0675,150.2406,-64.5355,38.5823,73.6056,105.0805,-228.8863,-10.3963
-2523.4375,-172.3843,66.5636,-162.6260,224.9766,-165.3215,263.1195,-204.1801,162.9781,-201.7906,128.5969,-203.5897,235.8450,-202.7879,156.8777,-130.1870,155.1940,41.2574,148.7134,-150.7266,32.8788
-2515.6250,-145.8473,62.2717,-138.0573,215.7389,-140.7637,250.8500,-215.7483,77.6412,-213.2565,6.3312,-179.2381,223.9262,-141.4043,255.6138,-142.7336,179.9047,51.3048,140.4541,-229.4724,94.2459
-2507.8125,-64.8659,36.5476,-17.0312,191.9673,-92.7584,188.0393,-241.8728,14.7446,-202.2795,17.5141,-131.4437,51.4625,-93.5746,229.8176,-131.8295,191.0677,101.1492,151.6484,-148.7775,105.0549
-2500.0000,-175.8052,-30.9391,-95.9134,116.2855,47.3520,146.3372,-174.8921,119.9570,-172.1942,85.8030,-27.5487,9.0956,9.3589,40.1118,-100.8209,112.3326,26.5039,110.9422,-84.9584,98.9556
-2492.1875,-28.8005,69.3747,19.1537,192.5504,53.4175,115.5854,-204.9445,-130.8910,-202.1507,-127.9678,14.2966,126.6748,15.2499,120.3614,-94.8536,7.5451,102.4828,46.1814,-255.1944,104.8017
-2484.3750,13.6008,88.1592,29.6381,131.2176,-10.1096,52.2363,-195.5967,-194.3473,-155.7118,-191.3464,24.5410,173.6520,-11.4566,57.0109,-84.4908,-18.8465,73.9613,19.8330,-70.0255,78.0419
-2476.5625,-17.8191,45.6600,-1.6865,100.0806,-41.4318,21.0905,-80.0517,-114.5955,-77.0728,-111.5163,-7.0106,106.8319,-5.9595,25.8571,-6.9351,-13.0297,34.2366,-46.3056,-101.6542,46.4775
-2468.7500,116.3080,63.3714,67.5450,93.5070,-46.2077,16.5089,-85.9638,-156.2941,-45.8923,-117.1400,-12.0164,28.5672,26.0868,21.2683,62.1624,-17.6555,66.6530,-52.8854,-143.7533,4.4576
-2460.9375,34.9638,-25.6666,-17.6787,-22.5105,-20.4408,5.4957,13.6749,-95.4391,53.8418,-92.2096,86.5239,-56.1458,51.6826,-100.7626,160.8062,-28.7275,-30.1498,-98.9023,-51.3000,-7.0170
-2453.1250,80.1534,-30.7134,29.6352,-11.9707,-10.1225,-20.9559,96.8694,-157.0374,100.1226,-153.7321,60.6074,-118.2948,61.8289,-16.2311,208.0090,-18.2488,-13.6865,-193.3701,-111.3153,3.0624
-2445.3125,41.0885,-76.2879,62.7031,-121.6769,-14.0638,-134.6571,166.8048,-124.8844,207.1468,-121.4912,56.4309,-157.6911,57.7188,-56.9365,240.9561,14.9888,-55.3018,-197.0809,95.4200,-1.1031
-2437.5000,20.0956,-107.4834,2.8537,-177.2809,37.0914,-193.2480,254.8335,-110.6163,258.2630,-143.1425,143.3506,-179.9786,144.7046,-151.5421,254.9959,-44.6624,-115.8885,-287.6750,109.2622,12.8351
-2429.6875,158.5387,-58.1751,111.4560,-178.4222,72.6925,-231.3714,216.3009,-221.9067,219.8204,-218.3520,141.7162,-180.8080,180.1397,-80.6830,216.4897,-82.8606,-65.9399,-323.8070,107.5350,11.2231
-2421.8750,141.6640,-92.6453,58.7520,-299.8624,128.9894,-247.7812,199.4685,-92.4905,240.0766,-88.8545,161.7737,-196.9374,200.2702,-169.1211,162.6835,-99.3524,-129.4579,-270.2194,266.5177,-5.6930
-2414.0625,199.6710,-58.2231,81.9412,-242.3986,190.1892,-223.2821,223.5435,-105.1643,190.2308,-101.4469,148.7225,-209.1679,187.2993,-109.6571,186.7769,-147.9385,-80.0426,-212.7278,148.3915,-18.7097
-2406.2500,182.8212,-21.8213,211.2890,-152.7769,208.5384,-95.6319,130.7606,-195.6898,97.5332,-191.8906,129.8168,-190.2533,131.4736,-127.0295,242.0160,-202.3650,38.1160,-54.0785,95.4140,-0.5767
-2398.4375,14.1989,-24.4759,143.8752,-74.9095,215.1358,22.2762,64.2343,-188.9560,68.0906,-185.0829,63.1555,-73.0874,101.8958,-119.1546,211.5079,-232.5288,48.0369,25.8240,33.6996,42.8054
-2390.6250,39.6211,23.3845,206.5133,21.0161,93.7832,122.2399,-21.2294,-126.1887,19.7052,-122.2375,-58.4592,-46.8685,-56.6320,15.7806,53.0546,-132.6439,127.5377,51.7699,-46.9719,68.2387
-2382.8125,-25.1660,-12.0122,61.9532,-9.2614,-49.7732,88.0089,-17.8882,133.3737,59.1306,137.4068,-92.2814,-79.8508,-90.3639,-90.4895,-53.5939,-55.9606,51.1165,20.5198,98.1754,107.4695
-2375.0000,-99.6734,-7.3868,-17.3168,57.7612,-130.0257,81.0829,-24.2381,237.2384,-20.1368,204.3574,-99.8030,-12.5385,-133.7919,13.5387,-133.9413,11.0250,36.0963,-17.4303,-46.3767,173.9941
-2367.1875,-68.5345,31.9147,-22.9253,89.4393,-209.6301,112.8100,-139.9346,194.7499,-98.7564,235.9588,-178.6720,56.4199,-213.5678,117.2208,-176.6316,78.6567,59.4586,50.2676,19.7162,205.1607
-2359.3750,-184.0611,-17.4204,-179.1931,46.4565,-144.8762,140.8846,-112.2753,222.6260,-72.0220,226.9171,-151.1815,83.7226,-185.9850,72.2395,-185.9660,105.6406,-27.3810,75.3117,80.1756,195.6719
-2351.5625,-138.0866,3.7911,-54.9530,90.9754,-57.6162,118.4578,-99.1123,125.9951,-57.7858,130.3643,-174.1878,60.5171,-135.8918,85.7617,-135.7967,83.1282,41.5314,85.8534,-49.8765,135.6833
-2343.7500,-178.6647,-31.0069,-58.2556,50.9375,11.0915,152.4865,-65.4964,122.8100,-25.0986,127.2571,-141.7487,20.7521,-102.3504,45.7363,-102.1743,80.0763,26.6151,151.8568,14.5356,95.1445
-2335.9375,-184.5138,-20.9614,-100.8202,81.6464,79.5509,183.2704,-35.1196,80.3746,-30.6525,47.8994,-110.5604,52.7390,-108.0565,77.4594,-70.7906,37.7811,22.6087,146.6106,-96.2990,89.3557
-2328.1250,-63.4147,35.5286,25.5770,132.3134,22.9664,164.0099,-54.7966,23.8775,-50.2620,-8.5240,-93.4143,33.6744,-90.8058,95.1354,-127.4527,18.4314,97.2826,127.3259,-80.1909,69.5140
-2320.3125,-131.0720,-24.8960,-7.7771,30.2258,26.6399,95.0031,21.7750,27.6209,26.3749,-40.6995,18.9919,0.8603,21.7119,-83.9414,-50.8579,-14.6709,25.1851,96.2899,27.1623,72.9218
-2312.5000,-27.9311,-6.5035,66.6763,64.9380,101.1152,-52.2071,96.1503,-81.8365,26.8133,-113.0720,93.2018,-71.1560,132.0286,-84.2202,59.5415,-86.9748,61.5895,60.0421,-79.6806,36.1268
-2304.6875,5.0564,-44.2821,66.9770,-42.5063,175.4397,-124.5695,59.3764,-7.4399,64.1043,34.4128,130.2632,-143.3236,133.2034,-156.6576,96.7929,-86.4255,11.9502,57.6410,93.3351,-36.8196
-2296.8750,-90.2188,-91.4260,-29.9775,-66.1944,188.5148,-74.1790,72.3547,78.7041,77.1414,120.6410,106.0740,-130.7375,109.1303,-144.3365,109.8017,-36.1257,-53.1848,-1.0118,34.1003,-61.0079
-2289.0625,10.3940,-51.8008,37.9632,-35.9839,109.4869,-41.8858,-5.7682,36.7459,-0.9248,41.7704,63.7769,-135.2560,66.9520,-38.1153,141.7105,-40.9173,-10.5144,-40.7590,28.7804,-66.2875
-2281.2500,41.4391,-69.7573,34.3391,-145.3307,179.9036,-45.1421,26.5630,-39.7435,31.4646,-71.6358,133.9274,-138.3352,137.2199,-152.4459,211.0591,-81.2490,-57.6340,-79.0566,130.9267,-70.1104
-2273.4375,165.0740,-15.6318,200.3152,-127.0783,233.9185,-100.7906,44.4939,-204.6263,-60.5521,-236.4360,188.6679,-119.8221,228.0843,-60.1674,229.0090,-172.9710,16.9898,-131.7512,7.6746,-52.3266
-2265.6250,162.2007,-22.4404,268.7895,-163.3284,193.4255,-140.9337,-33.0811,-209.0083,-28.0733,-240.7323,220.9118,-122.8070,260.4543,-64.3819,188.4660,-176.1896,29.4697,-98.9415,145.9258,-20.0380
-2257.8125,68.2141,-49.4924,134.1566,-186.6722,168.8384,-128.1619,53.2436,-123.4996,58.3032,-154.1459,196.0574,-73.8843,236.7283,-124.6879,200.8317,-200.5107,-42.4715,-121.2221,122.0565,-7.8465
-2250.0000,158.0304,17.3461,192.3330,-97.2087,116.0586,-107.5781,37.3656,-175.2142,5.4785,-169.7756,106.0024,-52.1610,146.8075,-30.1917,147.9958,-179.0411,30.4998,-101.6996,70.9831,-23.8545
-2242.1875,53.7320,-19.1480,83.4043,-94.8491,81.1869,-31.0935,2.3971,-101.0325,7.5650,-95.5135,107.8518,-49.5522,111.7891,-64.8010,76.0591,-104.6727,-18.6526,-99.2701,213.8245,-21.9650
-2234.3750,63.9264,9.7604,93.9814,-48.9937,128.8150,-57.1128,49.9416,-162.3549,-18.8457,-156.7522,81.1977,-1.4510,122.2729,57.0954,13.6367,-129.8022,7.0734,-88.3383,83.1623,-11.5782
-2226.5625,164.2619,53.6351,125.7125,-53.9988,160.5943,-98.9808,44.6429,-167.5259,-24.1056,-198.8403,112.6996,-6.2136,116.9109,15.1449,-28.6309,-134.7743,40.7863,12.7474,112.6666,-17.0423
-2218.7500,53.2920,1.8776,9.1424,-58.3079,154.0738,-31.1451,38.0465,-100.9930,-30.6657,-131.2334,105.9029,-12.2836,147.2557,-28.1037,38.8012,-104.0402,-8.8690,43.5282,37.8831,13.1956
-2210.9375,74.4261,42.8716,67.6768,34.4733,65.6513,64.7841,-87.4460,-115.3622,-155.1241,-109.5294,54.2096,46.7405,58.7017,140.7471,23.3468,-46.2061,56.9592,65.3984,-115.7862,34.5417
-2203.1250,-29.9551,21.3936,-4.3008,36.7359,-6.2702,140.2054,-85.4197,-41.2234,-80.0661,-35.3143,-17.9812,86.2494,-50.3444,143.0847,-48.5873,30.1269,28.5322,102.7640,-44.9353,36.3909
-2195.3125,-62.0924,30.0255,-74.0311,110.2459,-75.9393,143.8740,27.8692,-0.8364,-40.7439,5.1403,-87.9099,89.9982,-119.1309,183.6678,-45.2647,70.7063,30.1288,106.3761,-146.8421,39.4914
-2187.5000,-75.1587,7.1108,-50.7057,97.8111,-161.5593,131.5900,15.2059,97.5719,-16.3766,103.6229,-136.7675,3.7948,-131.8491,98.2931,-57.8927,131.3208,46.0852,200.0386,-54.7098,26.6438
-2179.6875,-162.1662,-58.0193,-103.3263,11.4221,-69.1204,79.3474,-1.4079,265.0227,4.0381,234.1432,-117.5669,-49.3705,-112.5124,-29.0416,-74.4651,151.9798,-21.3413,147.7496,34.4747,9.8503
-2171.8750,-33.3655,-3.2083,-4.1404,35.8348,-42.8818,-5.1016,24.7766,143.2686,30.2449,112.4616,-128.5748,-22.7382,-87.3833,71.4273,-11.2372,68.4359,14.3130,-2.7461,-11.5322,-1.1402
-2164.0625,0.5306,-22.2740,-42.8616,-71.6566,-81.5533,-43.4478,96.0612,68.6230,101.5533,74.8913,-57.4815,-24.0144,-89.1523,-4.0176,61.0892,29.9906,-47.9724,-4.1366,91.5786,-3.0297
-2156.2500,-1.3826,-36.2921,-117.3876,-71.9465,-83.0327,-45.5852,94.5561,29.1921,100.0698,-1.4693,-23.1960,-26.1120,-17.7246,-6.2626,131.6318,27.7464,-78.3915,-5.3118,-15.1053,31.2845
-2148.4375,78.5386,18.8626,-36.0641,-27.3953,-146.6696,-35.8714,-7.0844,-71.3738,-1.5475,-64.9664,-14.0675,20.6191,-8.4461,77.3425,105.0371,37.3615,-16.7458,75.3636,30.0783,40.4607
-2140.6250,-13.3523,-42.5627,-128.5572,-116.6573,-58.1033,-18.9686,9.4815,18.2669,-21.9646,-12.2579,39.2726,0.5437,45.0405,20.1434,84.6430,54.1812,-92.1225,125.2316,114.4828,19.8489
-2132.8125,0.7142,-35.2426,-39.0888,-68.9673,33.4132,-1.1183,-10.0030,-38.1577,-41.4381,-31.6157,19.5677,-18.5834,61.4822,110.8984,64.1964,70.9486,-37.8772,140.0539,-12.1634,-36.8039
-2125.0000,-4.2249,-61.9913,-3.6271,-143.2850,142.9276,-2.2579,-47.4901,34.4194,-41.9127,41.0230,17.8620,-55.7149,60.9229,73.6476,26.7526,70.7152,-60.8935,100.8856,124.2063,-111.4497
-2117.1875,-61.8223,-79.7931,-61.8290,-165.2525,156.7944,12.9556,40.3747,49.3530,8.9625,19.0209,32.5063,-4.5079,75.7133,51.7492,78.6628,48.8316,-118.5754,-26.9343,101.9280,-133.7415
-2109.3750,42.1340,-26.2526,46.5251,-95.6734,82.2100,-25.2816,38.7884,-62.1643,7.3882,-19.4334,30.7012,-5.7545,74.0540,87.3995,77.1158,10.4942,-52.0084,-98.2090,65.2097,-135.4786
-2101.5625,-9.3103,-52.0900,-43.5196,-75.5021,28.2345,-77.9211,95.8151,-6.0954,101.4170,37.6930,87.5111,-58.4060,94.0093,-76.3568,97.1720,-6.2564,-81.9858,-77.8976,120.1005,-115.6045
-2093.7500,47.1001,-17.4803,14.2879,-18.4805,13.1002,-55.7158,117.6909,-20.1929,49.3005,-13.3484,35.1802,-73.2116,78.8228,-54.2570,119.0862,15.8430,-19.8058,-55.7414,-34.1588,-93.8675
-2085.9375,29.2027,-20.3454,-6.2117,-35.7717,-44.3410,-39.8138,59.2677,32.4188,64.8868,2.3218,-59.4470,-57.3309,-15.6608,-1.4645,97.7029,142.6521,-26.3468,-37.8813,53.2985,-41.4229
-2078.1250,-130.6489,-74.3645,-139.6608,-89.0227,-67.7201,10.1263,72.9066,82.0735,41.5331,52.0336,-83.0130,29.5812,-40.0842,85.3701,37.3871,192.5086,-111.1866,-56.9756,-1.1895,45.0749
-2070.3125,-108.0328,-23.7306,-44.6448,3.1656,-119.6302,68.5073,-15.9970,-6.8375,-46.3652,0.1783,-135.1183,87.9203,-128.0443,216.6456,21.5343,213.8117,-19.7723,1.3671,-118.2198,103.0254
-2062.5000,-151.2154,-26.9618,-91.4314,-3.4553,-129.3392,96.0847,-98.6993,93.4530,-93.0641,63.5269,-108.0110,115.4497,-137.7969,134.1139,-23.1157,205.3131,-31.8679,63.9023,-91.0446,130.1805
-2054.6875,-118.0816,27.8953,-92.9127,135.2295,-166.7545,131.9543,-137.1039,55.0375,-131.4672,62.1563,-109.5986,151.2768,-139.2424,169.8862,-98.4627,167.1127,26.7849,62.7225,-233.5745,128.6403
-2046.8750,-75.5346,34.2178,-9.9845,143.3017,-230.7684,105.2122,-164.0990,65.0044,-84.4586,109.1704,-136.7690,87.4899,-166.2762,106.0471,-88.3985,177.3064,65.6642,70.9200,-119.6838,101.5048
-2039.0625,-79.9343,-20.9650,-124.0041,-1.5997,-161.7227,27.4969,-57.0184,135.0118,20.6201,142.2273,-103.8754,46.7354,-133.2478,28.2392,-19.2651,173.5446,-48.9397,-2.8513,-18.7214,97.4245
-2031.2500,106.2293,30.7435,-39.4688,-24.9651,-151.1304,-33.6853,-46.3748,71.5662,-40.7401,78.8332,-93.4266,21.5155,-122.6586,112.9803,-8.5751,184.3257,-11.8198,-26.0854,-78.1960,107.8983
-2023.4375,52.7406,-23.0401,-95.5917,-147.9961,-133.1934,-52.5207,-28.3774,126.4815,13.2479,96.7906,-38.6123,3.6325,-67.7137,21.0572,-26.5299,202.4523,-91.5407,-43.9732,115.7022,125.7284
-2015.6250,1.5177,-38.4539,-114.4584,-94.7752,-78.0089,-71.1105,61.8612,-1.3663,104.4755,-68.0207,51.4665,-15.0108,59.4934,3.3805,27.7695,72.8195,-86.9917,-60.6196,62.8544,143.8179
-2007.8125,44.0029,-22.8017,7.3806,-49.8530,-29.1236,-132.0054,74.7946,-136.5155,80.4000,-166.1275,101.2442,-75.9610,109.4009,-21.6004,113.7686,-60.1150,-14.6011,18.4321,72.7137,82.6128
-2000.0000,-18.0130,-50.2524,-54.2850,-77.4354,93.2601,-119.4006,87.2319,-124.1495,55.8230,-116.7247,149.5225,-64.4168,157.8062,-156.0843,125.2653,-85.5464,-60.9818,-8.0170,81.0703,20.9145
-1992.1875,119.7793,4.0318,55.8464,-9.2175,91.4398,-121.0021,85.4670,-198.9861,55.0421,-154.5263,74.6072,-102.0766,83.0112,-47.7580,124.5572,-50.1730,14.6169,-80.6692,8.2260,-16.9714
-1984.3750,140.6214,-13.7776,77.0234,-129.9655,76.6680,-171.5506,144.7558,-104.7732,150.3172,-97.2764,23.7548,-116.6998,68.2722,-135.3924,146.8963,-27.7504,-29.6548,-130.2689,169.4511,-31.8001
-1976.5625,68.6679,-72.6736,3.3930,-200.5142,76.0992,-208.8991,254.2569,-31.3716,223.8030,-23.8357,23.1084,-153.1321,31.7400,-135.8296,183.4488,-28.1396,-103.4804,-200.6731,168.8776,-32.4249
-1968.7500,149.1275,-24.2698,88.1676,-155.6661,-22.0812,-196.8469,193.1633,-19.5760,198.6926,24.9891,-2.1309,-142.1800,-30.3883,-87.8720,121.4157,-16.1354,-47.9590,-189.6844,213.7176,-57.6406
-1960.9375,51.8362,-57.7640,-12.8217,-180.5745,-13.0196,-115.5516,202.3176,62.4791,207.8287,34.0716,6.8872,-132.9933,-21.2586,-151.6737,56.6313,-6.8799,-94.5249,-146.4491,293.8248,-48.5970
-1953.1250,62.0544,-29.3853,69.6897,-65.9790,-4.4623,-105.7519,210.9650,-38.9680,179.4525,-31.3540,-21.5876,-160.3146,-49.6255,-69.9695,66.3377,-72.1235,-3.6617,-134.7103,163.4374,-3.0521
-1945.3125,78.1795,-33.3716,86.1033,-118.4934,-61.9932,-125.0547,153.5183,51.4799,121.9770,59.1135,-42.1504,-180.7425,-70.0876,-89.3736,8.9472,-18.4808,-4.7688,-49.0748,284.9601,13.3913
-1937.5000,55.2635,-56.0826,-49.5298,-142.0663,-49.5644,-76.4165,93.0330,173.8704,98.4615,181.5255,-29.7531,-168.2336,-57.5897,-112.8347,-52.4770,31.0955,-69.5804,-71.5020,192.4299,25.7885
-1929.6875,154.7617,7.8859,19.2501,-77.2535,-54.7280,-81.3935,13.9613,168.6514,56.3544,213.3222,-107.9439,-136.3437,-98.6797,-45.9124,-129.4827,63.0652,-0.2521,-41.5401,81.3060,20.5912
-1921.8750,-0.4227,-17.8560,-105.6663,-90.1561,-33.5895,-60.0869,35.1938,263.7174,114.5542,271.4019,-122.8084,-42.1745,-113.4514,-133.7045,-108.1794,47.3305,-59.2364,14.7055,137.4947,41.7018
-1914.0625,13.5733,46.8902,-93.4187,63.0815,-20.2928,-10.6489,47.5749,128.9167,52.8976,99.6128,-110.5061,43.1260,-101.0603,-11.3511,-132.7226,22.7356,10.3558,-5.9095,-58.1592,90.9682
-1906.2500,46.5384,92.5964,-23.2157,132.2585,-60.0504,58.7274,-102.0925,15.0639,-59.8127,22.7654,-77.2417,76.3647,-104.7075,-14.0611,-209.3097,20.0793,86.2153,97.4213,9.1433,124.1934
-1898.4375,-21.0397,44.1402,-95.5666,97.8845,-58.3603,24.5479,-100.3100,89.6534,-21.0705,97.3620,-75.5129,42.0435,-65.8984,-86.3285,-207.4383,57.8641,32.2766,64.2001,10.8970,125.8795
-1890.6250,57.1318,56.4920,-11.1749,108.2596,-120.9335,-36.8792,-51.7734,100.9934,-10.5712,108.7108,-64.0305,-19.5370,-91.3403,-37.8411,-195.8157,69.3941,66.4536,38.7190,-48.5832,100.3192
-1882.8125,-35.1354,-7.5275,-106.2404,-19.8273,-68.9507,-95.7660,35.3213,152.8916,77.4812,160.6158,-13.9871,-5.5808,-40.2256,-133.8106,-144.6383,47.4731,-41.7916,16.7669,69.5060,78.3123
-1875.0000,30.8625,28.6076,-110.0444,11.3273,-0.7083,-99.4170,68.6660,1.0286,73.7787,8.7534,93.3214,63.6159,66.1533,-100.5336,-74.2027,-65.2031,-42.1059,-55.9487,-110.1496,74.5703
-1867.1875,141.1696,60.0458,5.4568,15.7710,5.8294,-56.7770,1.3035,-101.5332,43.3681,-93.8099,135.9458,33.0962,109.8395,-93.9630,-32.4700,-132.5798,13.0123,-52.3659,-70.4959,44.1439
-1859.3750,65.9323,3.0695,-71.6027,-24.3425,76.8198,-96.6889,72.3876,-32.6477,113.4030,12.0798,170.0284,-43.9781,105.9791,-207.9488,-35.2866,-135.5075,-41.3991,-57.3311,30.6058,4.1793
-1851.5625,124.8651,37.5928,102.4924,34.6939,65.9586,-107.4602,61.6178,-42.6226,66.5870,2.1107,86.2693,-90.9111,96.2760,-217.7796,-44.9529,-110.2937,61.5914,-33.1559,-51.1449,-42.6276
-1843.7500,115.5056,17.7510,93.2827,-9.5863,130.7941,-152.5428,16.5579,22.1097,57.4800,29.8386,114.2244,-136.1544,87.2781,-263.9226,-90.9134,-82.3825,44.0854,-7.2990,115.8150,-51.7247
-1835.9375,124.4487,10.0789,65.3744,-35.5694,139.9128,-107.3302,25.8142,-5.8675,-6.3116,1.8432,123.4804,-127.1016,59.5801,-144.7597,-81.5654,-110.1828,21.3589,-33.1510,89.0806,-42.5095
-1828.1250,148.6988,32.7491,128.7642,-11.2511,92.3195,-43.8217,-21.6205,-90.5571,-53.7949,-82.8591,76.0381,-101.7595,49.1826,-45.2937,-54.9124,-156.6938,60.7008,-8.7005,114.6632,-52.9892
-1820.3125,47.9543,-1.4695,60.1397,-40.9403,97.7207,-1.3187,-16.0473,-122.2330,-11.2709,-186.5461,118.6080,-59.4370,91.7844,-113.8417,24.7408,-224.2014,16.2611,31.7439,120.2651,-47.4687
-1812.5000,104.5786,66.1831,119.8678,84.7151,83.4759,57.5188,-67.1296,-208.5554,-99.3994,-237.8740,67.5420,0.2099,77.7489,-17.0481,10.7380,-275.3540,99.7715,52.5264,-69.7734,-61.5965
-1804.6875,-13.8327,35.5998,72.5524,108.3038,36.1848,121.2985,-114.2563,-109.9244,-109.5689,7.7453,20.4436,25.7851,-6.3245,-27.3248,-73.3132,-176.5635,77.8952,76.2510,-11.8451,-108.7728
-1796.8750,-157.7317,5.2669,-40.2516,140.3808,70.3985,155.5675,-79.8686,34.1992,-112.2324,115.8433,-55.1364,96.8473,-44.8886,42.8949,-38.8545,-105.2830,33.1375,73.4539,-190.4141,-111.4431
-1789.0625,-27.9077,41.0725,19.6552,164.1497,20.3125,142.5258,-166.7750,20.9996,-162.1905,65.6236,-67.9985,46.5962,-57.7403,103.8064,-51.6867,-7.3128,82.5960,97.3425,-201.2803,-87.4001
-1781.2500,1.0870,11.1512,-24.2911,52.0584,49.3784,134.6169,-173.5320,49.9476,-168.9997,-15.4546,71.3006,2.4873,44.5640,-14.1462,-96.3547,-15.1977,18.3768,55.3644,-30.9894,-58.1928
-1773.4375,117.7483,42.3191,133.4131,62.6109,134.0766,108.3487,-162.6320,-123.4642,-194.1484,-115.8950,119.2494,-23.9831,92.5202,106.5487,-122.3546,-78.4378,87.9943,-3.9766,-161.0410,-47.3210
-1765.6250,92.8076,60.9733,181.5020,73.5529,108.1606,119.4708,-224.3137,-112.4708,-219.8792,-104.9286,93.6050,23.9309,66.8739,80.6330,-182.9448,-67.2754,117.0906,42.0762,-79.6711,-36.0394
-1757.8125,-16.8281,41.6852,100.8755,68.7840,101.5417,112.8831,-156.6811,-82.1643,-189.3000,-110.6476,51.2711,91.1329,61.5287,38.0107,-116.2412,-73.8222,80.2307,72.4262,-152.9904,-5.4520
-1750.0000,49.0523,89.9837,131.7494,134.5083,22.4247,70.7861,-162.5453,-123.3519,-195.2180,-152.8630,8.4443,121.8196,-18.3111,105.8782,-85.0434,-5.8699,119.2330,33.2739,-192.7956,25.6377
-1742.1875,-15.4616,40.8864,26.2285,34.8226,-46.0861,38.2802,-120.8061,-9.9369,-116.5292,-74.4779,50.2286,126.0915,-13.5413,36.3283,-79.2436,-1.3298,21.1747,-31.2915,-45.9789,67.3258
-1734.3750,13.0997,62.2439,17.7718,63.1892,-53.5427,-6.1983,-55.0124,-53.4795,-87.7901,-83.0569,5.0796,154.4039,-20.7144,101.8201,-50.3862,-8.7469,23.1633,-107.8295,-122.1190,96.0635
-1726.5625,-20.9241,12.7204,-16.2738,-6.0519,-87.5947,-40.2951,-16.8213,-15.6219,-12.6500,-8.2341,8.3437,83.0997,-18.4759,30.7004,-48.1210,30.2367,-22.1698,-70.9821,19.1492,62.2049
-1718.7500,-122.8371,-42.7337,-121.2210,-39.2016,-11.5428,-37.3035,61.4776,25.3389,28.5936,-4.3220,12.7201,49.8821,-14.1306,-2.3241,-7.7568,-2.6800,-80.7047,-35.0425,22.5175,29.4527
-1710.9375,10.7683,41.6628,20.3425,60.1524,-16.0059,-4.8072,20.2773,-90.2122,-12.6661,-118.9237,-28.4028,82.1632,-55.2862,140.1626,25.0988,-81.1003,28.3660,-5.6098,-89.6247,-11.7852
-1703.1250,-4.0799,19.6812,5.4396,10.0570,43.0618,17.2440,42.6195,-141.2016,82.6205,-133.9584,31.0210,67.0009,4.0955,15.2069,47.4918,-131.9665,3.3490,14.3702,1.7870,-26.4550
-1695.3125,-11.2691,22.9778,35.1722,2.6141,108.7701,-27.0553,71.6024,-148.5387,75.5435,-177.3468,60.1010,95.4821,34.1280,-29.0889,76.5317,-139.1763,0.1348,-64.0009,-76.1568,-33.4625
-1687.5000,59.5701,5.1823,110.9110,-31.8365,37.4820,-61.3657,1.5656,-146.8913,5.4504,-139.7530,137.2117,-12.0453,110.1741,-63.3968,6.5697,-63.3976,11.8532,-62.3759,30.9095,-67.4641
-1679.6875,103.3340,-18.0006,9.5558,-94.3910,47.1009,-88.7910,10.4240,-26.3519,51.2561,-93.2656,183.2413,-76.6815,157.1373,-200.8208,52.5015,-53.7307,-54.5415,-89.8549,74.8780,-94.5641
-1671.8750,253.8652,68.4121,92.9648,19.8123,19.4658,-79.4650,20.0281,-128.0620,23.8115,-158.0298,157.0205,-67.5754,129.8447,-118.4950,62.1771,-118.3173,42.8992,-80.5910,-91.4084,-84.9119
-1664.0625,219.1482,63.1683,19.1100,-14.2380,-17.4358,-43.3882,20.3929,-92.0180,24.1197,-85.0459,119.5560,-31.7197,92.3030,-191.4157,98.6074,-119.1537,12.8580,-9.5957,-19.9353,-48.5044
-1656.2500,111.8041,38.1992,-23.3859,19.0614,14.0109,-48.9728,15.1058,-60.6319,18.7800,-89.7146,78.4505,-0.5227,51.1112,-86.9835,94.3838,-50.6443,6.2201,-12.2658,-126.1113,20.2536
-1648.4375,78.3712,41.5762,50.0185,55.2418,-23.6371,-12.6769,-22.2724,-96.3388,-18.6507,-89.4824,4.2611,-1.4425,-23.1660,22.3280,57.0630,-14.2399,58.1646,23.9448,-89.3648,56.9155
-1640.6250,6.4556,-5.1137,-99.0741,-51.0829,-25.7850,-14.8975,11.8567,46.4522,15.4260,16.2416,1.5858,32.1200,-24.9342,-16.8706,17.2435,56.6583,-52.3908,-12.3535,-21.1198,91.0833
-1632.8125,108.2066,43.7292,-31.5020,13.2376,-68.2824,-20.4761,-29.3683,3.8955,-62.8514,-25.3805,-76.4330,26.3195,-67.0549,123.5711,48.0677,50.2084,14.2378,-15.9997,-165.2079,121.8998
-1625.0000,75.8568,58.8688,-67.0375,51.4508,-139.8749,17.8419,-101.6891,6.2532,-61.2245,-61.0943,-74.5409,64.4108,-65.2700,87.8966,14.7900,88.6535,23.3482,56.2498,-21.3901,160.6154
-1617.1875,-66.0295,8.6667,-179.1118,84.1253,-142.0203,51.6105,-66.5601,40.0558,-26.1552,46.6347,-76.2001,61.9518,-67.0373,85.6830,-24.0439,123.5395,-22.2492,53.9488,-23.1350,158.7837
-1609.3750,7.5401,42.9051,-98.7443,123.2535,-172.7228,20.8294,-58.9933,46.3147,-19.6402,89.8216,-105.4069,30.9499,-96.3574,92.9065,-90.4383,93.8702,27.3395,57.0970,-19.4244,92.4081
-1601.5625,-35.7232,10.8892,-179.2343,44.5398,-142.2816,14.1917,6.7159,113.7267,47.0174,156.1595,-111.4611,24.0982,-102.5298,-60.7239,-60.6849,50.3464,-44.5009,13.3879,113.4234,49.1852
-1593.7500,15.3832,24.7387,-89.3631,59.1799,-89.4933,-6.1030,60.7745,56.4797,27.0285,62.8362,-131.1557,3.5772,-86.3473,28.9989,-7.5769,30.1713,-6.1644,-41.9718,-12.3813,29.3103
-1585.9375,8.2881,-3.3285,-23.6988,16.6104,-96.8991,-13.5995,-20.3513,86.0327,19.8516,128.3031,-102.0363,-41.1578,-57.3595,21.5145,-14.6559,59.7884,-3.8483,-49.5380,86.6198,22.2384
-1578.1250,-39.1396,-38.0251,-73.3757,-66.3103,-37.6564,-27.4510,3.1771,145.2247,-30.6748,78.4108,-5.2605,-18.2483,3.2840,-29.3112,8.9126,83.0520,-64.0245,-61.4747,40.2696,45.8197
-1570.3125,87.0463,14.2019,56.5531,-46.6461,-53.8144,-7.7142,-85.6941,18.0142,-82.5963,-12.8896,-21.8702,1.2530,-13.4665,64.4534,29.0716,102.9131,14.4073,-6.8236,-79.4452,66.0007
-1562.5000,21.6496,-14.7970,-12.1124,-75.5927,-48.5614,-2.5885,-80.1532,60.1978,-77.1095,-7.8020,20.9343,6.1465,29.1927,-40.3874,71.6248,108.1640,-30.7045,-1.7915,-4.7580,71.5854
-1554.6875,78.7787,31.2726,10.7365,13.9666,-26.8080,20.0312,-94.1149,-64.1311,-128.1246,-94.2248,7.2381,28.5373,15.3509,55.2752,57.6770,56.9060,18.4078,-16.2579,-87.5861,57.6824
-1546.8750,94.7486,40.8519,67.4215,-4.6191,-81.2090,39.5094,-148.2346,-45.6004,-145.2973,-2.7898,-9.6100,47.7825,-38.6472,110.7826,3.5804,39.5035,23.6190,-35.8593,68.4267,3.6439
-1539.0625,2.9615,-19.0796,-65.6546,-62.9366,-66.3700,-19.7552,-61.1176,79.1846,-95.2329,84.9014,5.7804,25.2882,-23.4071,52.5563,55.7296,90.3588,-78.7994,-128.2010,152.6709,-18.1397
-1531.2500,120.6228,17.2803,57.7182,-50.7990,-53.0843,-80.5679,-47.5576,-17.5775,-118.7212,-11.9525,19.6272,1.2417,27.2813,138.7796,105.3189,30.6627,-20.3136,-117.0959,58.3744,-41.4776
-1523.4375,55.8435,-10.6285,102.6399,-116.1096,64.7557,-35.8364,-76.4396,-9.7910,-110.6550,-41.2675,64.0372,8.7428,71.5329,35.5407,76.4558,-35.4967,-25.6101,-75.4509,135.6221,-70.2625
-1515.6250,59.5902,6.3373,143.0782,-76.9191,179.0907,-32.6119,-35.8233,-43.5186,-144.0899,-75.0983,30.9509,11.7405,75.2842,75.8039,43.0960,-69.1666,16.2007,-72.3024,-1.6341,-66.5422
-1507.8125,57.3902,26.1166,212.5598,-9.6850,137.4709,-0.3441,-77.1550,-48.1870,-111.4683,-79.8717,-9.0783,6.7813,35.0813,108.1040,39.7856,-36.7891,79.4198,-40.1005,-3.8260,-33.7707
-1500.0000,-73.1023,-30.6937,73.7474,-35.7449,108.5550,44.6224,-68.7839,-3.1567,-66.1435,-71.9481,36.5925,14.5165,80.5748,6.1078,48.1675,8.2869,10.2643,4.7951,6.6709,11.6990
-1492.1875,-57.3888,7.2385,127.1437,85.4003,52.8384,97.7943,-88.2191,-96.9251,-121.6245,-127.8210,17.4621,31.4494,24.2675,133.3142,65.7404,-11.4397,84.4189,54.8946,-118.6300,-7.6343
-1484.3750,-115.5803,-13.4065,66.6298,61.6438,-7.7711,111.0681,-37.5528,-83.5839,-35.0034,-78.5899,-5.5620,44.4844,1.0631,72.6199,42.4046,1.9316,48.0442,101.0839,-35.8323,-30.8666
-1476.5625,-155.4557,4.3389,-51.5800,90.1925,-53.0860,176.6394,65.4099,-127.9497,30.9107,-159.0597,-50.2813,145.8206,-43.8395,101.2353,107.3627,-43.4002,12.6411,94.5661,-146.7410,-1.7989
-1468.7500,-78.0773,34.9974,-4.5439,97.9813,-43.1568,149.4578,74.6220,-228.0537,41.0827,-186.2693,-39.7467,155.4002,-33.4913,148.0909,117.5678,-107.4817,32.0535,67.2873,-104.3775,-28.4822
-1460.9375,-162.5397,-55.0752,-93.3597,-22.0726,51.9188,97.4220,133.9931,-134.0053,99.4065,-129.3360,55.9358,66.1295,62.0017,23.0968,102.9257,-85.4107,-72.4235,-17.8499,57.1265,-43.0143
-1453.1250,-19.4272,-22.8930,55.3896,-20.5676,127.5464,25.9375,98.9089,-204.4108,64.2719,-199.8580,58.1634,-5.5975,101.0411,60.6544,104.8298,-83.7972,-1.4234,-51.4291,-10.8279,-40.9977
-1445.3125,-1.5671,-71.9664,113.8834,-144.3080,184.9326,-26.7926,120.5643,-148.0594,159.8815,-180.6246,80.1465,-132.5775,85.8332,-28.0523,89.4827,-99.4383,-19.8323,0.7452,217.9657,-93.2298
-1437.5000,22.3347,-108.6816,139.4430,-191.9881,285.3792,-74.4738,183.2613,-158.6609,185.5332,-191.3416,217.1825,-217.5081,185.6758,-75.7018,79.1783,-184.0317,-44.4592,-82.0285,135.8014,-140.4088
-1429.6875,246.7752,8.2215,266.5534,-73.1255,228.3753,-95.6090,53.5078,-252.6992,18.7392,-211.4968,307.7718,-200.8925,240.0691,-132.8090,-14.5791,-278.0730,62.2804,-104.2529,44.2053,-197.0344
-1421.8750,235.6210,9.6068,184.0515,-83.8640,217.7656,-142.3419,-29.8439,-188.3335,-27.6563,-148.2455,372.7621,-173.8663,229.8574,-290.5057,-60.9412,-287.7137,11.8832,-151.0830,138.9959,-243.2582
-1414.0625,265.1292,38.0889,177.2072,49.0581,137.8006,-149.4220,-36.5556,-159.3174,-71.4147,-118.3453,329.3960,-218.1830,187.2910,-223.5418,-104.6656,-294.7073,66.0160,-158.2610,-43.5695,-249.8340
-1406.2500,324.0397,26.1727,163.7562,2.3847,14.2433,-162.0976,-49.8680,-135.8956,-10.7693,-95.0444,316.4320,-269.1025,174.1248,-237.1890,-81.0010,-197.3060,47.3714,-135.0389,-19.7324,-226.0104
-1398.4375,263.3119,-21.9622,-12.3368,-58.9271,-14.9571,-154.4270,69.1675,-91.1266,107.2249,-87.3977,287.8150,-261.6716,182.3039,-229.4823,38.0054,-152.5606,-54.3138,-160.4671,-45.5624,-180.8347
-1390.6250,266.1863,-29.5650,25.1800,-126.6405,-51.5528,-191.1621,142.7988,-126.7509,181.8194,-86.1415,215.7964,-224.6458,146.0836,-118.1853,112.6054,-115.2153,-72.9024,-194.2902,-7.7820,-143.0591
-1382.8125,54.2164,-104.4653,-125.1590,-199.2048,-90.9934,-157.7446,176.5757,16.7819,252.5564,57.2666,175.9337,-154.4668,107.0137,-158.7359,146.3489,-44.7197,-181.4225,-195.9687,132.1436,-109.1335
-1375.0000,41.8084,-68.3161,-140.9308,-70.2128,-143.8908,-99.7785,161.8901,74.8597,163.8320,41.2187,124.6186,-133.7309,91.4862,-63.7265,93.6395,-23.6702,-123.7941,-173.1061,-55.3860,-50.6583
-1367.1875,45.3395,-33.8818,-65.7631,2.7242,-177.8453,-24.8640,16.1567,112.8976,18.0644,116.1261,16.2498,-132.0347,19.9040,48.2344,-15.1237,51.3365,-29.9952,5.6974,-16.9570,-12.2305
-1359.3750,-112.3805,-77.4273,-193.8453,-14.5722,-124.0539,29.7981,-39.8256,277.6907,-0.9514,280.7993,-2.3778,-78.5827,-35.9340,28.9537,-107.1420,105.0956,-84.1710,93.2525,-34.7965,5.9488
-1351.5625,-113.8298,-35.0308,-86.6254,88.4384,-161.9646,64.7676,-78.5131,275.8024,-76.6676,352.7938,-77.7087,-43.8346,-110.4801,99.9757,-181.8634,140.1589,2.9500,91.1219,-140.3237,4.4236
-1343.7500,-164.1123,-67.1425,-139.2113,37.6488,-216.6657,83.9445,-58.9908,406.1284,-20.1772,445.9940,-57.8395,-61.8862,-126.8230,9.1926,-199.3886,196.4226,-43.4049,75.1908,-16.6502,24.0937
-1335.9375,-227.3817,-74.9101,-208.7818,78.8683,-248.3709,88.1230,-53.4725,410.4477,-51.6900,450.1827,-87.9767,-20.9355,-122.1727,87.4219,-194.9197,237.6886,-63.4196,46.2614,-78.9890,65.7647
-1328.1250,-192.2539,-42.7905,-173.9608,78.4857,-287.6766,85.7031,-91.5628,408.1788,-89.8104,410.7827,-163.7170,13.4252,-197.1298,159.0477,-233.0608,272.3605,-35.6212,80.7373,-9.9225,100.8361
-1320.3125,-328.0756,-86.0552,-318.0828,47.1659,-357.9251,88.3384,-14.6078,484.9529,-12.8886,413.4210,-196.4110,52.8458,-231.0407,124.7356,-193.1622,312.0843,-115.6134,84.2648,100.1732,140.9538
-1312.5000,-276.2956,-41.8528,-301.5881,98.4568,-415.5681,67.5775,37.9365,391.3181,39.6236,356.6538,-290.5071,105.8671,-288.3538,215.0261,-139.6719,328.4046,-81.6406,100.4035,-23.1318,157.6659
-1304.6875,-305.0788,-73.6534,-330.6461,34.2053,-334.7479,75.2745,81.9280,362.1365,120.5878,327.3393,-245.1516,76.3392,-280.2150,111.7577,-95.7398,299.1717,-120.0962,106.9999,124.0052,128.8264
-1296.8750,-329.6011,-98.7603,-283.4431,-24.7791,-176.6738,12.2239,203.1609,224.2064,204.7943,190.2796,-197.5542,86.0610,-195.8342,121.7446,-11.5637,199.1841,-135.1824,45.8601,28.3787,139.2335
-1289.0625,-184.1338,-43.4190,-168.2465,13.2368,-136.5900,16.1778,170.3872,81.2952,171.9989,120.2423,-155.9673,52.7885,-154.4633,125.7234,-44.3956,129.2017,-57.2002,49.7282,32.7588,143.6353
-1281.2500,-279.1272,-80.3362,-231.5029,-10.1825,-51.9510,-9.3102,144.1637,128.9445,182.7470,93.7610,-71.8455,63.0790,-70.5531,26.2630,-33.6862,102.7702,-95.8087,95.1434,43.6688,154.5850
-1273.4375,-150.2162,-29.4433,-133.8461,46.3140,-27.4136,-21.8895,131.8296,-29.5103,133.3893,-27.8247,-46.8303,50.2756,-45.7527,49.7104,62.9077,53.2405,-30.4113,47.4679,-73.5328,142.4371
-1265.6250,-45.0135,-12.7756,-92.8971,11.1174,-25.5792,16.8384,61.7909,-63.6590,100.3280,-26.1084,-43.5161,16.7768,-6.6524,16.4562,66.8000,57.0149,-24.3834,48.1040,31.5561,72.5975
-1257.8125,-65.1050,-33.9387,-113.2445,-9.3648,27.9483,-3.7267,115.4398,-11.1057,116.9514,-9.6903,9.4888,-4.0096,10.1396,-41.0765,120.3825,36.4973,-56.0184,-43.5519,11.3243,52.4659
-1250.0000,5.4445,-20.9142,33.0469,-44.1935,-8.8803,-76.6303,151.7225,-47.8806,153.2175,-46.6004,10.1309,-41.1293,10.5700,-40.9566,156.5982,-0.3543,-13.4362,-78.5493,47.7480,52.9885
-1242.1875,-40.2099,-87.4441,-12.8751,-195.2058,56.0870,-195.7244,179.7990,54.1601,218.2704,55.3089,75.5578,-87.4306,75.7865,-196.0246,184.5951,-9.4033,-103.3671,-54.7474,177.9563,7.3171
-1234.3750,28.7404,-49.2462,61.8071,-127.6000,130.6483,-195.2150,181.4554,-18.1932,145.9044,18.8240,76.5635,-86.1154,113.5870,-122.4787,186.1791,-81.8440,-46.2231,-56.3332,-0.2491,-64.7506
-1226.5625,114.1143,-4.6672,152.9267,-112.5389,184.6642,-141.2456,88.5519,-74.0767,89.9797,-0.1908,95.0081,-68.3391,94.8242,-141.4857,130.2029,-100.8201,5.0136,-42.4541,49.9879,-120.3662
-1218.7500,59.6840,11.8740,97.2457,-27.2537,201.8809,-51.0659,31.8314,-57.7557,33.2350,-57.0010,112.6379,-15.3513,112.2520,-161.2722,110.4128,-120.5813,15.7164,-27.3600,-5.6050,-139.7794
-1210.9375,147.1072,81.3224,190.4148,94.8878,110.9456,42.9748,-22.0592,-147.5791,-57.6707,-110.9593,59.1113,4.4912,94.5215,-68.1990,56.4637,-137.4883,112.9623,24.5999,-94.3435,-193.3435
-1203.1250,83.7774,43.3894,163.8318,67.2868,158.2640,52.2742,-48.7028,-101.1529,-47.3247,-100.6715,142.8332,-22.4061,142.0415,-131.8723,-7.2352,-128.1511,77.6078,30.8086,18.1550,-256.6607
-1195.3125,164.9075,63.8872,210.7185,78.1456,205.0348,26.0235,35.0993,-200.2899,0.4681,-273.9426,153.9984,-48.8481,153.0069,-47.0892,39.5151,-154.3627,97.9603,-63.5351,-40.9037,-245.5361
-1187.5000,224.8799,68.8980,270.4525,31.8507,117.6670,49.6200,58.7558,-177.5731,60.1163,-214.3594,30.0154,-100.4375,65.8224,12.5321,63.1155,-130.7258,128.5931,-4.0296,53.8999,-185.5687
-1179.6875,12.9637,21.8517,81.2967,30.6567,112.4155,117.3071,52.5175,-35.7668,16.8708,-72.6862,-85.8728,4.0771,-13.2611,43.2506,93.8209,-25.9967,53.5633,29.5762,17.7941,-80.5111
-1171.8750,-29.6425,89.6859,69.4541,163.7631,63.4759,179.2926,-69.4159,-121.6633,-105.0689,-84.7152,-169.4592,176.8799,-99.0440,179.2624,45.8310,-37.9753,112.2765,91.4932,-131.0068,-18.1673
-1164.0625,-72.1127,115.9923,62.7613,192.0186,93.7079,172.4403,-149.1929,-54.3990,-183.8511,-54.5827,-139.8997,242.8197,-105.6746,61.4158,-72.0064,-44.8017,128.0530,155.5697,-67.6625,-24.6852
-1156.2500,-48.3819,151.2277,86.2878,285.4844,80.1502,195.7964,-161.7708,-67.9349,-234.4371,-68.2458,-116.1519,265.9586,-82.1142,84.7885,-121.6523,-21.4252,177.2148,143.8453,-254.1294,-1.0106
-1148.4375,35.0402,187.5690,133.5118,297.6513,-19.7074,205.8547,-261.6559,-57.7579,-297.3291,-21.1952,-178.7145,276.8138,-106.8614,168.8586,-221.6087,62.6557,217.7001,190.8256,-276.8916,46.3621
-1140.6250,-112.8438,115.6833,-23.5600,219.5294,-29.8617,231.6181,-309.8491,116.1233,-308.5281,115.5526,-188.5845,302.3842,-154.9131,158.6369,-231.8688,198.4365,114.6539,182.5136,-213.9794,109.4318
-1132.8125,-143.4220,115.9733,13.6775,259.7157,-102.7151,194.6918,-272.7529,152.3022,-308.4404,151.6031,-262.1609,301.2592,-228.6682,268.7207,-195.8350,272.5225,143.8965,116.5141,-279.7732,219.7958
-1125.0000,-179.3587,70.4299,-64.4407,152.5537,-181.9092,189.4222,-241.0126,258.1413,-202.7035,220.3110,-304.0933,259.7936,-269.7762,189.4530,-200.1527,341.2604,80.2529,150.1742,-105.9296,288.8087
-1117.1875,-237.6463,33.4120,-162.8986,131.0621,-169.4513,165.8099,-118.6354,270.6293,-80.3288,269.6690,-328.3966,234.9915,-294.2480,129.8536,-114.8289,279.6510,24.7033,92.4981,-128.4629,301.4708
-1109.3750,-171.1996,29.8113,-18.6039,125.3333,-135.2331,89.9548,-84.5171,193.8744,-10.2117,229.7891,-330.9630,121.9493,-259.9836,89.9993,-80.7593,202.7947,83.6721,88.5859,-98.2504,261.8823
-1101.5625,-242.3624,-45.4802,-90.9121,19.0159,-24.6064,16.5054,-48.0014,231.5212,27.2963,267.3123,-183.1399,49.3190,-149.3264,-57.4459,-80.2915,129.3476,-2.1020,86.0755,41.3382,225.6993
-1093.7500,-123.8751,-10.8634,-1.5591,31.3582,27.6699,-4.2900,-31.8512,99.8182,6.4438,135.4831,-93.6791,27.3493,-60.0280,-41.2258,-65.1843,35.5661,36.4340,63.2302,-16.4336,168.1739
-1085.9375,-56.5136,-13.4764,70.6742,-42.3934,26.8382,-42.1775,-68.8084,63.0311,4.4889,98.5751,-56.3303,-10.7062,12.1580,-78.0943,-65.1913,-2.2919,28.6861,60.3004,190.6881,94.5561
-1078.1250,-114.5238,-57.0372,12.5542,-100.4741,115.6459,-64.3987,55.8739,114.9065,57.1746,150.3312,-42.3583,-32.0930,27.9787,-100.2893,-51.5574,-23.4876,-38.9417,-33.9602,238.4317,36.5887
-1070.3125,-10.3537,-31.7341,122.6254,-134.3437,42.6529,-100.4021,128.7441,114.9965,130.0532,113.2994,-114.1992,-69.2708,-46.0099,-27.2783,-51.7342,-23.4728,-6.4420,-104.0000,273.3748,36.8159
-1062.5000,-85.6890,-71.2186,4.1950,-211.7029,-2.8218,-144.8923,194.1060,217.5849,232.4168,141.7603,-85.5420,-40.9363,-89.4968,-107.7580,-23.4141,5.0446,-102.4676,-180.5341,371.7913,65.5412
-1054.6875,-45.9186,-47.2439,9.8860,-170.9554,2.8178,-176.2771,236.5441,76.2566,200.8618,74.3139,-79.7868,1.5103,-47.8818,-30.1286,56.0032,-62.3355,-89.1689,-209.9586,166.2891,71.3683
-1046.8750,33.5789,-15.0939,57.3189,-126.4612,13.2192,-165.9131,135.7299,12.6903,137.0554,47.6315,-34.2858,-25.2836,-1.5174,-56.7579,29.1772,-88.9614,-38.2514,-130.6297,174.5381,44.9449
-1039.0625,-17.1798,-37.6254,5.5035,-141.2078,108.3731,-107.7981,84.6653,34.8765,121.9999,32.7072,61.9511,-3.3236,57.5868,-107.6242,14.1061,-103.8347,-72.5964,-145.5491,159.5289,30.2652
-1031.2500,46.8975,-16.4848,72.5434,-79.1029,101.3831,-114.8286,113.4465,-83.0772,114.7951,-48.3549,18.0280,-47.5101,87.5311,-41.6434,80.8823,-74.8514,-17.0807,-152.6098,82.3795,23.4253
-1023.4375,-64.4398,-66.8945,30.1802,-119.3937,60.0104,-84.2593,107.8307,-14.4292,146.1906,-16.8135,12.7018,-53.0936,45.0763,-84.0661,75.2594,30.7301,-53.9247,-89.0659,146.8208,18.1785
-1015.6250,-26.1681,-28.2186,31.4422,-46.0756,24.2485,-46.0927,109.8117,-86.1897,111.1839,-88.6821,-59.0298,-15.0767,9.2201,-8.8869,149.2349,31.9038,-13.1918,-85.9122,-26.1531,56.5262
-1007.8125,76.0053,-0.3512,99.6062,-83.8665,-18.5985,-87.0285,29.6942,-128.0502,68.0836,-130.6486,8.1412,-21.1629,40.2668,-14.8169,144.1098,-47.0179,9.4981,-54.8520,39.7808,87.7690
-1000.0000,39.9322,-47.2103,25.5323,-154.9074,92.3178,-87.2222,66.3339,-55.1661,67.7378,-130.8683,45.0515,-93.4998,77.0608,-86.9924,143.7365,-83.1829,-34.4234,14.9555,75.4521,87.7589
-992.1875,115.1964,-16.8143,105.8185,-114.6068,134.5921,-46.0717,35.3297,-158.9235,36.7531,-198.7270,51.3037,-88.4853,83.1970,65.1814,112.7100,-77.9964,20.9786,55.1131,-61.5144,57.0984
-984.3750,18.7289,-47.6507,80.3947,-107.0122,184.1773,3.3761,-26.3654,-147.3616,49.0782,-114.2640,26.8471,-77.1664,58.6325,40.6498,123.9913,-66.5091,2.2143,63.5700,52.8192,-4.2597
-976.5625,20.9591,-30.1431,47.6763,-104.7129,188.4658,7.5248,14.6406,-107.1001,16.1018,-73.0949,31.0740,0.8606,61.7595,43.8317,90.9730,-62.3170,-27.8438,-39.2628,-86.1618,-36.9194
-968.7500,69.5792,-15.6542,100.3513,-90.0171,93.1571,-50.9147,-43.9598,-91.4277,-5.4761,-57.5085,9.6920,-20.7050,40.2780,96.4115,32.3510,-9.7167,-3.4961,-25.6823,-71.7432,-58.1811
-960.9375,-24.5225,-40.0826,-35.6770,-79.0107,30.1510,-3.0435,3.7369,-6.4450,5.2364,-9.6132,20.5931,-9.9603,51.0837,-2.6964,7.0254,37.1952,-49.6660,55.2109,-26.0472,-47.1417
-953.1250,-31.4383,-19.4697,-5.5047,54.2019,23.3437,100.0304,-40.3768,-50.2484,-38.8526,-16.5012,-60.3187,-54.0131,8.0807,100.4002,-37.1035,67.3148,36.3275,154.3238,-104.1514,-53.9050
-945.3125,-95.3794,-38.5503,-34.3436,61.4129,31.5430,181.1066,-69.4889,30.9697,-30.9429,27.6312,-89.2393,-83.0599,-20.9267,71.4935,-66.2277,38.4461,41.3758,266.4487,7.7403,-82.6712
-937.5000,-153.8730,-23.0756,-95.7276,109.0868,44.1955,193.6392,-20.1603,43.6402,-18.5954,3.2227,-76.7256,2.3534,-45.4957,47.0569,-53.9080,51.0391,28.5307,244.0321,-84.9398,-69.9897
-929.6875,-17.7760,67.2676,9.4822,174.3593,-33.5556,188.7823,-62.2437,-34.0708,-97.6510,-74.5680,-81.6191,71.3772,-50.4715,79.2255,-95.9969,9.2448,104.9860,239.2172,-161.0149,-74.7100
-921.8750,-120.0909,32.9743,-96.7129,143.2312,6.2986,156.5211,-95.7221,42.8222,-131.1007,39.2483,-77.9184,112.0085,-46.8489,9.0038,-129.4814,50.0641,36.4131,206.9978,-86.5095,-70.8273
-914.0625,-94.6632,34.9299,-71.1507,168.8526,-4.0910,108.0063,-144.4523,31.4624,-178.8011,64.8187,-89.4764,100.3938,-58.4806,108.5388,-141.2103,75.6439,43.4691,92.5394,-167.2652,-45.1945
-906.2500,-76.5588,19.2471,-126.9015,81.1684,-59.7715,89.1907,-162.4808,123.8144,-160.7953,120.1042,-144.3437,81.4859,-114.4137,89.7676,-159.2419,167.9334,-2.2705,145.7944,-8.3182,-26.8667
-898.4375,-148.9651,-21.2699,-238.1442,43.9982,-24.9451,160.8793,-92.0097,158.6642,-90.2929,117.8907,-182.7185,79.0861,-152.8538,124.5074,-125.7778,202.7264,-58.6552,178.5565,-10.8927,-29.0461
-890.6250,-40.3390,31.3327,-87.3365,117.8731,-20.0653,201.6184,-87.4885,15.5702,-122.7354,48.7406,-215.0464,46.7406,-185.2428,202.2929,-84.2597,133.5733,47.1650,216.3758,-78.4084,-61.1822
-882.8125,-102.6229,-7.3308,-77.4361,55.8393,62.9258,174.4576,-77.8625,62.5824,-76.0802,58.6961,-133.2769,19.4992,-139.5304,65.1818,-111.6331,69.5283,16.1732,189.2987,34.1663,-88.2249
-875.0000,5.8502,18.6306,-0.7712,59.5559,66.6729,68.0414,-1.4947,29.3416,0.3179,-11.6018,-92.7651,-13.9936,-99.0676,31.8303,-71.2530,36.2399,37.1389,52.9808,-102.5123,-84.5257
-867.1875,47.7088,30.7004,81.2936,30.6553,74.8347,-34.9832,-30.7180,0.5067,8.1296,-40.4901,-47.8522,-6.0908,-54.1998,-34.1378,-27.4603,44.3591,46.6047,24.0695,-26.7822,-113.4334
-859.3750,-11.9867,25.5125,20.8146,7.2047,124.4600,-21.5674,-17.4794,-22.8770,-15.5998,-63.9159,1.5074,81.2565,-4.8813,-93.6541,22.7943,-16.0764,3.3466,35.6098,-50.6161,-136.8990
-851.5625,67.1042,80.6603,104.1323,120.5516,97.8893,-11.3516,-81.4383,-122.4461,-79.5258,-90.5195,-25.3419,90.4078,-31.7715,26.6218,32.8553,-42.7069,80.9674,8.9570,-112.6475,-163.5744
-843.7500,2.4759,6.8875,38.7365,-13.8029,142.6200,-3.8311,-37.0929,-41.7031,1.8496,-45.8151,19.0979,24.8796,12.6312,-113.7972,76.2208,-72.0309,-13.2229,-55.3912,139.6073,-192.9541
-835.9375,77.7488,-10.1036,44.2482,-79.2538,185.2428,-72.4083,115.1475,-146.0657,80.1246,-150.2086,61.4213,-43.7423,90.9216,-108.2942,155.4890,-139.4389,-44.7215,-155.8296,108.7502,-187.4367
-828.1250,174.9956,27.9838,219.7470,-87.7177,249.8718,-117.9849,106.3936,-228.3964,35.4061,-232.5703,88.7353,-89.3750,119.2102,-152.7979,109.7630,-221.8285,42.7210,-94.2560,170.9061,-195.9233
-820.3125,103.6275,-18.5670,145.6438,-157.7805,286.9141,-154.1579,69.0413,-154.3154,35.0864,-158.5164,162.4435,-89.6111,155.9006,-226.8933,36.4428,-184.8080,-20.8733,-58.2747,205.4378,-196.0106
-812.5000,202.3023,47.2881,212.5928,-58.7959,243.0165,-88.2810,-11.2698,-161.1878,-46.1876,-202.4117,155.2006,-59.7891,148.6397,-123.9341,-44.8284,-154.7308,57.6275,-30.2319,22.0185,-203.0483
-804.6875,128.3028,26.2563,171.8836,-27.4671,166.4759,18.9424,-15.2266,-128.7006,-13.1104,-168.9472,151.3041,-63.6082,144.7250,-90.6233,-85.7491,-158.2960,55.0505,36.1658,52.9495,-206.7353
-796.8750,99.9018,49.8279,65.7821,15.4670,170.5392,59.7630,25.4103,-160.6148,-46.4388,-201.8760,118.9936,51.1819,148.4075,-12.6987,-8.0718,-191.2528,26.7100,-26.8277,-115.5332,-128.8251
-789.0625,183.5358,87.5787,112.7243,28.4425,70.6579,-3.3682,-74.9069,-150.4674,-109.7166,-80.7391,54.7325,61.0284,85.1390,71.2675,-71.3408,-144.1535,64.8387,-12.7577,-102.9631,-44.8700
-781.2500,41.1638,62.6459,-39.3384,27.4214,29.7835,28.5076,-152.2263,-7.3184,-186.9997,-11.5962,50.4688,129.8784,43.8714,30.2386,-148.6040,-75.0505,12.0904,91.3160,-34.4181,24.0816
-773.4375,33.2839,93.9831,-11.8964,124.8976,-16.5898,128.8842,-272.0493,-89.6658,-269.7819,-93.9417,40.6933,194.2299,34.0953,130.7199,-121.3590,-83.4342,70.4494,153.9022,-217.3773,51.5274
-765.6250,-13.6206,78.9287,-59.4674,114.3647,-63.9604,192.2589,-282.8621,-26.9965,-280.5534,-31.2699,-7.0842,183.5803,-13.6833,120.1937,-132.1001,-57.8068,62.7465,284.4947,-122.3390,40.9693
-757.8125,-64.3332,63.4684,-111.8346,134.0349,-44.1304,211.8293,-227.4669,66.8641,-298.1200,62.5977,-60.6657,166.1308,-31.2627,103.8768,-149.6253,-37.9708,53.0628,269.2840,-209.1196,60.6086
-750.0000,-9.4116,83.1605,-19.5561,189.3389,-59.6503,158.0406,-317.4174,50.3811,-315.0240,46.1261,-76.5974,113.3308,-83.1890,197.2033,-203.4925,19.5271,120.2716,289.7194,-224.2398,80.8949
-742.1875,-102.4481,41.1206,-116.2431,131.6730,-83.1156,170.2818,-268.3011,136.9625,-265.8608,58.7235,-101.4783,125.5766,-108.0576,136.5812,-191.3046,106.0874,49.6191,267.1901,-107.3062,93.2248
-734.3750,-37.6765,84.5315,-87.1249,195.7881,-90.7750,163.3039,-166.3707,-17.6519,-199.8868,-57.8703,-109.5532,154.6077,-116.1210,201.7576,-162.3021,61.4574,80.8769,155.4546,-183.5679,122.3457
-726.5625,-12.6176,89.1327,-58.7153,152.1820,-136.1154,154.6086,-138.1237,-61.9682,-98.5997,-66.1613,-155.3160,145.9337,-161.8655,120.2191,-133.9715,16.1234,78.4662,147.0182,-17.5228,113.7594
-718.7500,-92.3117,36.7929,-141.0428,141.8178,-107.1846,145.1599,-73.6195,-35.0567,-35.0585,-2.2199,-126.8258,100.5103,-133.3542,74.9411,-142.3680,8.0380,23.5407,101.8367,-28.2443,68.4144
-710.9375,-15.7580,65.5803,-21.1144,184.6847,-133.9897,118.9545,-63.8564,-60.9008,-61.2504,8.9746,-81.0850,73.3268,-123.5859,84.9011,-96.4943,-54.7978,75.9890,38.9104,-91.7017,5.3078
-703.1250,-56.4174,9.8992,-98.3883,73.3362,-63.9808,41.5381,-30.2728,83.0650,-27.6252,78.9758,26.4641,32.9328,-54.0066,-65.3508,-62.8041,-57.8340,-21.1170,-36.2220,43.6331,-35.0065
-695.3125,58.9754,29.6582,-13.5987,84.0297,-15.9233,-20.8393,-19.6335,21.0831,-16.9438,-19.9617,73.0606,-29.4175,30.6227,-54.5490,-52.0505,-46.8162,18.7944,-96.3062,-86.9892,-24.2744
-687.5000,133.4035,26.3887,63.2247,17.7554,-48.8196,-17.1725,-15.9366,-11.8335,-13.2044,-52.8291,40.7104,-99.7192,-2.7000,-50.6998,-48.2396,31.2605,42.2212,-21.3410,22.4519,-20.4907
-679.6875,32.0760,-13.2899,-41.7048,-12.2780,-43.4674,-12.2677,62.0162,-6.4947,64.7913,-47.4363,45.6078,-57.7707,2.2273,-82.5980,30.8309,72.5941,-28.2857,-51.1324,27.1360,-15.4576
-671.8750,103.6894,50.5446,70.3170,59.6216,-41.1669,-47.4250,63.9257,-151.1965,30.7477,-155.0753,47.4535,18.1199,4.1091,-6.5512,105.8617,1.8886,41.7848,-84.9732,-112.2182,-13.4789
-664.0625,70.0304,25.8137,36.0721,-8.7482,-39.1048,-82.8392,29.5974,-149.1376,32.4667,-116.9487,85.0494,55.7579,78.7432,-78.7580,181.6622,-33.0587,-14.1783,-118.0622,-39.8240,-11.7533
-656.2500,111.6692,58.3650,43.1275,33.1781,5.2623,-112.9555,36.5717,-177.7744,2.4884,-181.5092,128.9358,99.6943,85.6701,-71.6481,225.7688,-62.6964,-4.2808,-215.8484,-173.1405,-4.7332
-648.4375,231.9877,100.1634,167.8716,47.7858,20.3270,-134.3661,-59.7509,-236.6953,-56.7788,-203.3526,180.5174,77.3329,137.2903,-56.8405,203.5783,-84.6206,62.3384,-200.9318,-158.7451,9.9854
-640.6250,113.1436,38.3356,41.4622,-0.7606,41.2393,-112.9294,-39.2081,-141.7696,-36.1884,-108.3522,200.9485,61.8232,157.7658,-108.1779,224.2490,-62.6892,-13.0167,-213.1662,-67.5169,67.5563
-632.8125,137.6505,51.3310,64.4094,24.0296,-8.4943,-90.1584,-51.3050,-155.4984,-85.2375,-122.0011,113.7358,47.6561,107.5994,-12.1695,174.2838,-2.4075,22.8303,-188.0459,-147.9310,127.4741
-625.0000,84.7378,9.9112,-26.0543,-26.5997,-99.6143,-71.8015,-106.7817,-25.6184,-66.6663,-29.0322,95.1317,-6.9170,52.0432,-66.5752,44.9308,89.4804,-22.1046,-99.3234,10.2571,145.9867
-617.1875,25.1630,16.0843,-89.1715,18.1160,-88.3865,-24.1051,-95.8995,21.6240,-129.7362,18.3080,32.8746,39.8537,-9.1644,-18.6218,19.9365,100.7278,-25.8215,-88.2492,-49.2138,156.8440
-609.3750,75.0665,53.2247,37.1902,68.3126,-107.6593,-7.9139,-188.5067,-33.6122,-185.2838,35.1747,13.1165,57.1154,-28.8751,70.8186,-35.5432,81.4901,47.2856,-72.6719,-69.1695,137.1935
-601.5625,-20.7880,28.6308,-60.2090,42.7457,-22.6726,39.5202,-177.8428,13.4059,-137.5721,47.3007,23.6102,105.6203,-18.3325,8.5063,-60.7521,56.5077,-2.8110,-27.8511,-24.8875,111.7839
-593.7500,57.5589,69.1327,58.6021,86.3636,23.5215,86.1413,-167.9749,-122.3813,-164.6564,-52.3735,-3.6879,115.3127,-9.5803,92.3969,-51.7456,-7.2673,67.4260,-54.8310,-157.4003,84.5671
-585.9375,48.6881,38.5318,89.2032,42.7540,54.5260,79.5485,-174.2918,-128.3592,-133.9216,-95.2371,63.8292,34.7953,20.9884,49.0739,-94.9164,-50.2398,65.4104,7.9837,9.8951,41.1461
-578.1250,19.1200,13.4179,23.1117,13.4261,62.8388,13.2358,-94.2913,-85.0411,-90.8735,-50.7997,71.6522,42.5699,65.8680,20.0510,-13.7626,-41.9156,7.0465,-56.9055,-55.5215,12.0189
-570.3125,103.6925,45.4561,150.1648,28.2250,6.3011,-6.9361,-77.1318,-140.5628,-110.6587,-143.1969,51.6342,22.4815,45.9039,110.1615,3.5650,-24.4342,67.7071,-40.6497,-75.7709,-7.9653
-562.5000,-5.6537,-12.3724,72.3102,-45.8942,2.8646,-11.0157,-43.8575,-70.9804,-40.3293,-110.4810,47.7195,18.4855,78.0480,33.3728,0.0143,9.1522,-5.0589,-44.3085,61.0800,-11.8550
-554.6875,13.5538,-14.4213,92.0135,-26.4819,22.9832,-65.5648,12.9820,-123.8515,-20.4349,-126.2136,30.3625,1.0318,61.7468,89.1346,93.0240,29.2896,1.0789,-130.4246,-60.5076,7.7960
-546.8750,0.1512,-73.1253,79.1059,-110.6983,10.5154,-115.7362,110.2495,-63.3175,76.8869,-28.5398,17.4181,-123.0367,48.8630,3.2747,191.4532,53.8251,-36.1686,-108.1473,67.3247,-5.1614
-539.0625,-101.6485,-145.4125,-26.1987,-175.3341,52.6592,-147.3279,226.1316,-21.1878,192.8155,-60.2652,132.0886,-154.5180,126.5987,-65.9894,233.5078,21.9568,-122.7128,-138.2784,1.7532,-0.5250
-531.2500,159.0973,-25.4484,100.0492,-56.4470,32.3642,-168.3822,131.5668,-261.5087,98.3046,-226.4362,258.3240,-139.4585,216.8997,-49.7118,176.1301,-109.3618,-7.5804,-123.8646,-194.2535,-21.3451
-523.4375,220.5864,-45.7382,94.0397,-135.8280,62.8319,-211.6977,51.7689,-194.0866,55.5564,-159.8589,326.3223,-218.6490,246.9604,-202.6794,170.5218,-114.9326,-39.4050,-131.7154,-97.5158,-64.4201
-515.6250,274.9268,-4.9859,114.8807,-81.3698,84.1433,-264.1703,72.8383,-173.8283,39.6713,-138.4366,236.1765,-198.9933,193.8775,-145.7880,190.7836,-130.6517,-12.4397,-217.7157,-184.9330,-80.6496
-507.8125,305.9959,13.3760,148.4562,-85.1841,7.2056,-231.8968,32.6709,-139.8035,36.5491,-104.2429,195.7901,-202.6001,154.5506,-149.1618,114.8072,-96.6084,12.2638,-150.9556,-82.5906,-84.1342
-500.0000,157.9039,-38.2375,28.8808,-92.1573,-73.8745,-130.7822,98.3620,0.0824,102.2850,-38.1868,151.2549,-210.3665,109.0828,-193.6824,143.6919,-30.7075,-32.1674,-51.3510,-19.4040,-55.7751
-492.1875,112.5047,-39.9644,54.0081,-67.4509,-158.2511,-106.9806,159.7697,24.6758,163.7372,23.5855,28.4250,-185.4425,23.3167,-59.5076,168.2882,30.8968,-11.6850,-61.0523,-64.5010,5.2740
-484.3750,-26.3601,-97.1420,-56.3283,-134.2199,-120.0677,-141.6432,160.7545,172.8326,164.7661,245.9223,-7.8467,-184.9835,-12.8910,-130.7965,96.4564,69.0531,-82.5733,-23.2181,113.9526,42.8658
-476.5625,-71.5723,-81.5381,-103.0102,-75.3502,-131.2404,-116.6707,149.4040,198.6328,117.4632,234.9114,-19.4644,-122.8826,-24.4447,-33.4343,11.2959,94.8605,-72.8022,38.2548,-1.9471,68.1033
-468.7500,-51.2930,-54.2371,-81.2068,-55.0064,-181.9194,-22.2133,99.5723,184.9418,103.6785,221.4101,-105.5703,-101.2900,-110.4903,26.4134,-2.3433,81.1689,-37.0386,129.2198,89.6722,53.8402
-460.9375,-170.0202,-114.5251,-241.4122,-103.6757,-157.6065,1.2311,159.7613,319.2458,163.9100,355.9087,-118.6660,-114.7039,-123.5258,-60.7401,59.0407,68.4799,-130.3369,116.1826,182.2831,40.5784
-453.1250,-119.8482,-55.0225,-189.7168,-19.4639,-179.3917,-21.4393,174.8579,298.4508,179.0526,298.3171,-177.8530,-64.2338,-145.6527,-8.9963,0.3386,46.6955,-74.7609,61.0521,90.8025,55.2121
-445.3125,-149.8439,-80.8342,-148.1879,-82.4307,-137.3157,-53.2689,179.8218,266.5201,184.0618,229.5867,-99.1794,-94.9243,-103.9192,-40.4115,-66.4940,14.7673,-82.3314,67.7720,273.1821,96.6891
-437.5000,-212.1907,-112.2374,-215.0046,-75.7706,-130.5808,-46.4562,187.4470,236.2357,191.7278,236.5075,-55.8512,-88.9700,-60.5272,2.8353,-96.6593,58.4927,-116.4029,40.1326,210.2123,139.8073
-429.6875,-140.7000,-91.0498,-102.9827,-74.2877,-163.9914,-44.8092,115.9372,238.8051,120.2660,276.2906,-90.6565,-124.1751,-95.2732,40.9242,-130.9574,98.0676,-57.9487,77.3334,212.1152,141.7664
-421.8750,-249.6136,-152.5489,-178.3638,-147.2241,-92.7931,-84.5770,151.0511,273.9711,192.4193,311.6787,-55.8410,-126.7930,-60.3986,-70.3980,-58.6338,96.2307,-129.1353,75.1250,244.6155,139.3133
-414.0625,-147.8669,-115.9395,-72.0861,-116.5260,14.0604,-88.7131,147.8311,123.7840,189.2419,161.7183,-59.3620,-130.7809,-26.8608,-1.0848,-24.6344,93.0402,-67.3815,36.5610,64.7783,135.4945
-406.2500,-160.4288,-123.7964,-46.1238,-129.1587,3.6219,-63.1684,101.3378,151.3082,178.7904,225.4698,-33.1666,-141.0860,-73.6032,-48.0906,-34.9139,120.5490,-60.7952,95.6833,123.6601,88.3631
-398.4375,-211.7424,-125.9116,-96.9120,-75.5617,-9.5631,-78.3893,124.1206,248.0738,202.6104,249.4710,-47.7128,-119.1548,-52.0840,-62.8430,-11.9195,107.3100,-77.9778,45.0413,37.7958,37.4724
-390.6250,-44.4657,-71.0684,43.8947,-48.4003,21.8582,-158.0267,155.5249,94.4452,234.0512,96.0785,-16.6474,-162.6384,-20.9539,-32.0044,19.7019,27.6762,-16.7258,-69.0081,64.5533,-5.8245
-382.8125,-78.2493,-143.7280,46.6375,-222.3103,62.2384,-191.7239,306.8992,61.7673,385.4534,63.6371,24.3822,-232.1761,20.1396,-175.2145,97.2914,-5.0079,-99.9361,-137.1162,278.2556,-39.1750
-375.0000,-40.0383,-148.7212,52.3870,-254.2258,31.6135,-223.4254,423.2794,-4.9163,464.8612,33.1981,-6.5801,-227.7207,25.2406,-96.4219,177.8925,1.3092,-129.0833,-237.2243,210.9545,-70.5316
-367.1875,-47.9524,-161.6978,45.0222,-298.2597,-85.1104,-231.2331,379.5762,135.3082,421.1921,137.6716,-13.6318,-235.3737,-17.7487,-103.7437,171.4116,67.5257,-157.4964,-244.4380,344.5670,-77.9956
-359.3750,-93.2662,-178.6822,-76.7417,-308.7015,-96.2340,-242.4513,332.4884,234.1284,374.1340,200.7486,47.9226,-210.4360,7.8672,-188.4614,160.5516,93.3406,-220.5264,-290.0579,369.7666,-52.8680
-351.5625,-21.6797,-113.6590,-0.6090,-202.2697,-130.4614,-240.7800,261.3086,200.8631,302.9830,239.7482,-59.6204,-172.6075,-26.6190,-76.2827,126.6046,96.0693,-138.4528,-287.7843,266.8796,-50.8487
-343.7500,-81.5529,-131.4048,-63.9443,-262.3132,-82.1417,-194.5646,235.6950,285.1631,277.4011,288.3128,-48.6064,-125.2339,-52.5492,-139.5571,101.2175,107.3617,-181.4699,-241.9772,312.5493,-40.2794
-335.9375,-65.7246,-109.1306,-85.5781,-210.6743,-29.1327,-178.6628,215.7977,191.1622,220.5384,194.5766,4.1149,-73.1728,-36.7729,-50.1231,81.5481,123.3561,-167.2219,-259.4755,117.9260,11.9900
-328.1250,6.7844,-69.1664,-9.5285,-173.3628,-63.4213,-141.0729,107.6180,156.8698,149.3922,197.5488,6.5565,-71.4189,-34.2772,-11.0062,-26.4025,163.0460,-101.7163,-151.2744,120.0183,13.9567
-320.3125,-114.7634,-111.3635,-134.5360,-189.1086,-40.7561,-120.5395,167.3995,253.5178,209.2023,293.4691,-8.0342,-49.7247,-48.8186,-99.9357,-3.3870,185.6826,-165.2175,-132.1264,105.0515,-1.1316
-312.5000,-51.0581,-42.8802,-69.2906,-56.6171,-156.8388,-54.7640,160.4370,209.4084,165.2711,176.6356,-88.3626,-20.7879,-92.0948,3.3791,26.8932,178.5683,-71.1012,-102.7295,-41.6569,28.0236
-304.6875,-130.3157,-55.2333,-153.0088,-32.1002,-204.8592,7.0486,39.5482,272.3482,81.4089,276.8511,-98.6261,4.1867,-102.3033,-45.2667,-20.7518,204.5016,-85.6009,-7.2924,54.6882,53.2249
-296.8750,-186.7673,-36.1035,-246.9213,53.1996,-187.0788,96.6414,-53.5243,290.0797,-48.6381,294.8693,-82.0782,93.9493,-85.7015,45.8886,-111.5720,222.2326,-90.8086,43.9317,-36.1667,33.2188
-289.0625,-150.9743,-5.2196,-168.5971,53.7180,-145.0475,101.4721,-84.3306,258.0719,-79.4163,263.1479,-114.2652,135.9538,-117.8357,124.2798,-107.1256,154.2190,-57.8584,80.3962,1.2505,-35.5487
-281.2500,-252.2870,-80.0303,-236.3793,-48.8771,-66.1086,69.1941,31.7861,263.9548,36.7274,269.3205,-71.5379,103.8497,-75.0568,55.5677,10.2443,86.0980,-139.9964,84.7433,75.5633,-67.4241
-273.4375,-178.2012,-65.2052,-119.7518,-44.0886,-20.7696,39.3005,151.3257,88.2248,82.2890,93.8833,-63.3997,74.1335,-29.8682,100.2527,129.0378,57.3701,-93.6759,55.4847,-59.7056,-96.9071
-265.6250,-161.9798,-89.4242,-63.9863,-99.1754,-1.2785,21.5472,98.0400,34.6455,103.0202,40.5960,29.9086,19.5533,26.4856,9.0754,149.0062,40.7871,-100.3384,71.3647,97.1954,-151.2458
-257.8125,-91.8957,-73.1973,-24.3622,-99.4291,112.0617,-13.3683,100.6181,0.9063,69.6103,-29.8443,70.0804,-15.1971,66.7018,-25.2478,152.8389,-29.9462,-85.0425,2.0807,62.9486,-185.7428
-250.0000,63.4333,-4.2314,137.5058,-49.4668,54.6518,0.9513,43.4609,-93.5690,-25.5283,-161.0137,48.5127,-37.7165,82.1773,26.6611,131.9403,-51.4291,19.3275,17.0410,7.9807,-171.0009
-242.1875,7.1553,-51.8370,41.7621,-107.1291,32.6475,14.6543,21.7351,-42.6327,26.7595,-108.7729,100.3532,-60.8492,97.0638,-70.0347,184.4657,-36.5139,-42.1254,66.3826,57.4136,-156.8684
-234.3750,-19.3691,-39.6480,15.7714,-28.0546,44.3941,25.1019,70.7743,-103.9549,38.8072,-96.7878,74.9552,-13.2379,71.7067,52.0223,196.7564,-61.8551,-40.8705,-29.5299,-74.3957,-182.9919
-226.5625,35.5451,-31.9258,38.2175,-78.5480,103.5983,-27.0028,57.2735,-81.8291,62.3178,-37.3521,61.0176,-28.1797,57.8128,37.5194,146.5113,-75.7500,-52.1882,-79.9975,52.2594,-197.6683
-218.7500,24.5660,-29.7260,-13.2307,-125.9443,200.8980,-79.0099,43.8785,-57.6096,-25.0671,-49.8202,121.1863,30.9676,118.0238,-13.8782,134.3757,-88.5453,-92.9911,-125.3704,42.0099,-138.2482
-210.9375,112.0767,33.6370,113.8172,-38.8600,181.6915,-62.5250,-123.0051,-114.8750,-190.9380,-106.7709,137.8553,46.5985,134.7341,76.2160,40.7477,-108.8315,16.8235,-37.2432,-45.7125,-85.3333
-203.1250,77.5232,20.3477,2.7989,-73.8421,181.4354,8.8974,-194.9171,-78.1810,-226.8424,-32.7598,174.4813,82.1736,171.4001,2.2549,-31.9201,-72.1638,-26.3058,68.8259,-9.4814,-49.4707
-195.3125,113.1751,52.7960,1.9847,31.3647,144.3728,44.5162,-194.6222,-114.2958,-226.5410,-105.5593,174.3152,80.9480,171.2768,111.5013,-68.3733,-72.2992,17.8476,35.0881,-149.0530,-13.4095
-187.5000,134.0683,56.7685,23.3983,-18.1999,56.5624,65.3786,-209.0621,-56.1610,-240.9720,-83.1071,122.4192,101.9685,119.4146,132.9941,-81.5614,23.8093,7.8680,21.5904,-92.3581,7.9011
-179.6875,-12.2397,9.2814,-93.3906,-59.9743,13.5461,95.0386,-103.6835,-25.2348,-135.5895,-87.8575,43.3313,168.7852,77.3633,163.2873,-13.9311,17.7113,-70.9939,-19.1173,-96.8729,38.0072
-171.8750,-11.1007,50.3022,-18.7301,46.6896,-57.0203,60.1370,-64.8425,-131.8573,-95.7383,-122.1548,-28.2967,207.0425,42.7747,276.0136,-10.8385,-52.9373,-2.0713,-17.3793,-164.9268,39.5569
-164.0625,-74.8163,6.9276,-118.9297,18.4871,-83.4307,32.3722,-17.8334,-12.3228,-12.7203,34.7065,19.2409,142.4389,16.3466,100.8754,0.4140,-43.4349,-55.7560,26.4992,-15.8255,12.2525
-156.2500,-46.9230,-8.8756,-126.5253,44.8743,-17.2410,24.1968,-24.2121,-56.1872,-19.0955,-8.8218,86.3846,60.4229,83.5234,57.3405,31.2708,-13.3294,-42.1507,53.9666,-129.1169,4.5422
-148.4375,17.8625,2.5594,17.7696,39.1353,17.8509,56.9096,-62.6731,-131.1448,-20.5504,-84.4456,83.4438,-15.7069,80.6109,53.6917,-6.9587,-52.3227,34.7202,155.3252,-62.4806,-35.2715
-140.6250,-75.1911,-25.5770,-4.7837,-19.4686,69.0983,107.7606,27.0329,-79.9652,32.1564,-105.9464,98.6680,34.3034,95.8662,-4.8096,8.9824,-111.1806,-12.4920,97.8250,-14.6929,-57.9354
-132.8125,-2.8812,29.4352,106.0218,52.2623,107.6926,144.9532,29.0968,-224.4533,-2.7764,-213.1095,64.2597,71.6492,97.4841,69.0284,11.2811,-144.7004,71.4631,64.6688,-186.5290,-20.2538
-125.0000,1.5134,28.0599,72.9179,21.0793,112.3925,110.2426,-40.7189,-183.8422,-35.5940,-209.1683,67.9620,74.0937,65.2117,-1.0433,52.6922,-104.1346,52.0359,69.6040,-77.2570,19.5204
-117.1875,-41.1963,-3.9602,-9.2843,13.7972,30.9897,101.4289,-10.6231,-191.3367,-5.5015,-215.3201,23.5589,66.4364,57.8368,27.7944,157.0183,-38.6721,0.7789,-7.5622,-83.0958,48.1870
-109.3750,-6.0193,0.4624,-9.6059,12.4034,-77.5218,64.5141,64.3819,-190.9156,69.5027,-178.5631,-12.9402,28.6755,-15.6351,64.5163,158.2571,-2.3074,-4.6437,-42.8281,57.9862,47.7479
-101.5625,-141.7903,-85.4017,-150.8850,-124.9517,0.0198,31.6446,180.4535,-38.4486,149.5682,-25.7594,-7.3776,-4.0463,-10.0463,-41.7117,127.5617,3.1017,-118.3818,-3.0545,204.1166,52.3534
-93.7500,-78.1505,-76.0454,-81.7579,-95.9159,71.9623,28.1728,141.9277,-41.5878,111.0389,8.4426,-46.4021,-81.3809,-12.0493,-7.5381,89.2682,0.9069,-61.0962,63.1105,93.6616,12.3516
-85.9375,-104.0682,-99.2708,5.8136,-122.4461,160.3632,78.1525,83.8617,-26.2759,88.9681,24.0964,6.0362,-141.2739,39.4134,-103.9243,67.4300,-94.8497,-37.5044,107.7242,244.6674,-84.2075
-78.1250,-56.2795,-80.5508,23.0940,-110.2743,288.4711,20.8332,139.5004,-82.2790,107.5966,-105.5609,97.1780,-124.4724,131.5827,-160.6055,160.2995,-187.9114,-41.2281,16.0396,117.3644,-141.0746
-70.3125,93.8059,-34.3924,218.6730,-101.8136,336.8797,-79.1838,115.4407,-217.9809,83.5294,-203.9202,145.6323,-150.3784,180.0596,-111.9961,209.4735,-212.6772,35.9564,-45.3420,57.3760,-166.6484
-62.5000,6.5449,-83.0365,127.9036,-154.7034,357.9415,-96.5491,173.0355,-160.0400,141.1113,-182.6405,166.7436,-167.6314,238.1928,-202.7315,194.3047,-191.8018,-25.0501,8.9175,111.0293,-183.5720
-54.6875,33.0445,-19.2476,228.8931,12.1532,312.7449,3.8337,164.3799,-242.3568,96.4456,-263.6145,84.6115,-141.1350,155.0819,-65.7156,149.8885,-201.1778,98.8560,35.9185,-107.5612,-156.7455
-46.8750,-32.4198,-5.1432,193.9157,52.0427,168.5985,116.2618,57.7865,-129.6150,26.8405,-77.5300,-22.4594,-65.5959,12.0314,10.3333,43.5253,-124.5006,111.8829,76.9620,-66.0836,-80.8679
-39.0625,-125.7321,-43.2117,-16.9117,28.0814,105.5955,124.8368,32.3477,-8.7217,-36.6188,-30.2978,-12.3802,-19.9088,22.1304,20.5434,54.3157,-40.6734,10.6706,54.1492,-88.4594,2.1581
-31.2500,75.4569,44.1939,82.7561,52.6155,95.0852,39.9160,-123.5872,-202.3315,-192.5718,-186.5652,125.2023,42.2720,85.7318,46.2563,44.6085,-86.3508,66.7704,44.8406,-167.3211,27.6817
-23.4375,127.8893,51.9525,64.6646,-1.6020,114.8322,-15.7514,-177.2585,-145.6956,-172.2623,-129.5910,181.0326,23.7111,141.5806,-118.7790,-44.8363,-103.7916,43.3586,61.7780,-8.9381,9.4560
-15.6250,91.2181,61.5284,64.4826,67.0826,78.4776,20.4843,-139.0250,-72.1765,-134.0532,-55.7262,34.7641,23.0542,32.3298,-45.9016,-116.3814,-31.3388,72.7867,26.6145,-79.6539,9.1304
-7.8125,45.6325,61.8633,15.3907,90.8511,-42.7747,44.8195,-75.6872,-10.5507,-70.7370,-29.7593,-49.3961,47.4938,-51.8132,16.0652,-89.8236,-5.7847,59.0744,16.5466,-19.2465,33.9010
-4000.0000,-21.8910,15.8374,-60.1292,37.3025,-33.0058,66.3959,0.8655,-22.2560,12.6094,-60.5570,-23.7416,45.8031,-23.1584,8.1169,-22.7193,-29.8762,-4.7572,-2.7017,2.3817,24.6301
-3992.1875,58.5163,21.2861,58.6138,13.6895,-60.0023,41.0451,-24.9939,-85.3311,-49.0582,-88.2028,-13.5045,20.1687,23.0902,129.7510,23.2380,15.9395,25.2221,-61.3320,-57.4641,35.5295
-3984.3750,36.6293,-42.2927,0.0641,-113.2153,-9.2999,-53.5985,-84.1664,38.2860,-71.0347,108.8488,74.4357,-37.7627,75.0414,-2.9174,36.8858,67.4520,-67.1509,-119.2591,96.3916,14.1269
-3976.5625,68.6389,-28.7656,31.4081,-116.2176,59.3033,-129.3410,-51.4382,-3.1948,-112.1142,29.8003,144.2809,-3.7974,144.8934,30.3133,69.4339,25.8715,-65.2222,-158.2957,-83.8636,10.6281
-3968.7500,132.3641,11.2458,137.4662,-86.5135,128.5923,-133.3860,-93.0166,-116.9806,-116.5039,-12.5514,138.8200,-7.1390,139.4427,-10.7483,27.6867,-16.0049,8.4026,-59.6262,-55.4328,-30.1665
-3960.9375,15.2312,-35.4908,52.6638,-96.6546,191.0355,-68.2814,-68.4564,18.3895,-91.7471,123.2546,91.5135,-53.3312,92.1462,-94.6652,-19.9141,-63.7318,-23.2030,-0.7981,38.1475,-76.8117
-3953.1250,110.8003,-2.0637,153.5658,-36.0811,182.1859,-112.4705,-40.2006,82.4530,-100.3024,150.7562,45.9025,-134.8175,83.5488,-102.8725,-28.8195,-72.7679,40.8023,-81.2698,-7.5957,-121.7588
-3945.3125,138.2706,-43.0213,182.3795,-147.6009,211.2394,-192.7464,-48.0576,111.4136,-70.9664,179.1611,112.1945,-215.4065,149.8541,-220.1787,37.1583,-80.9095,-0.0642,-124.8339,160.5632,-128.8082
-3937.5000,159.3372,-29.4371,163.7845,-126.5194,229.8986,-172.4183,7.6795,19.9818,-52.0363,-23.8276,168.1000,-194.3997,205.7725,-199.8965,128.7298,-135.4537,1.1234,-172.8028,75.3195,-72.2575
-3929.6875,192.3691,17.1438,270.1546,-56.4789,115.5025,-138.1438,3.3573,-130.5032,-56.1734,-100.8630,126.9616,-160.4470,127.6430,-94.6563,125.2416,-176.0381,83.8931,-105.8298,108.0091,-38.7563
-3921.8750,63.7618,-31.5983,134.8694,-114.0956,90.4503,-160.5284,52.3749,-46.6304,30.0409,-17.5454,139.1824,-111.1499,139.8724,-191.0746,100.1006,-127.2671,-10.9359,-127.5119,190.0572,-25.9017
-3914.0625,124.3133,20.6417,195.7349,-52.5607,115.5476,-169.7665,40.5421,-57.6171,-54.6030,6.9196,54.5567,-84.6989,55.2550,-92.3379,14.1088,-102.3502,61.6477,-68.0511,4.2365,0.1082
-3906.2500,159.5240,61.1386,232.2673,-51.3665,115.2911,-132.3544,-68.6558,15.0413,-90.6122,80.0329,-19.4188,-46.5976,-18.7126,-127.9495,-132.2369,-66.7981,103.2135,38.0680,75.0659,0.7701
-3898.4375,45.1787,12.9792,148.2471,-58.7250,141.4925,-104.4886,-42.4150,41.1524,-28.1754,68.5984,-28.9328,-19.0542,-28.2228,-65.1251,-69.1289,-40.7995,47.0262,-41.3621,-4.6469,27.8836
-3890.6250,55.1992,49.8427,229.5936,22.2705,39.0398,-131.2815,-34.8243,-23.3878,-56.3965,3.5202,-57.1011,26.8263,-56.3838,16.0579,-24.6711,3.5534,106.3860,-66.4456,-100.0206,73.3484
-3882.8125,-33.4373,15.1509,61.2832,4.6082,18.9289,-40.7379,-55.8834,28.4443,-40.2598,18.8220,-40.9162,44.0436,-40.1956,-76.4201,-45.8634,55.2647,35.8130,-14.1827,-14.0254,90.1643
-3875.0000,-4.6815,24.1192,89.3614,104.3407,-62.7869,26.1991,-63.5308,-52.3090,-47.7158,-63.4577,-11.3326,0.6581,25.3909,-10.4981,-16.6525,84.3842,86.8743,12.4687,-197.6410,83.3804
-3867.1875,8.0812,12.5138,106.4520,84.0788,-82.5112,8.1332,-83.1815,-72.0627,-31.1714,-46.7334,78.2421,-17.7301,78.9722,-30.5718,-0.4455,64.5050,81.5728,97.1233,-183.2632,27.5934
-3859.3750,-62.0548,-19.7916,0.6414,85.9167,68.8735,-58.8340,-42.7329,-68.7182,-26.5320,-6.9106,156.9253,-11.0195,157.6619,-135.5549,77.8560,-4.2824,15.9248,61.8759,-218.7863,-77.0950
-3851.5625,96.1300,38.9501,169.1537,138.0696,126.5644,-36.5060,-94.9881,-84.0943,-78.6047,13.1923,104.9141,-63.0057,105.6568,-40.2273,24.4448,-20.7773,115.4782,43.9312,-308.0388,-165.4803
-3843.7500,80.6728,39.7469,114.0220,88.5747,108.6019,21.1766,-75.9102,7.8768,-22.3370,31.6430,87.2643,-5.6405,88.0092,-56.5524,-29.6268,-1.9154,66.0287,-42.6513,-217.9462,-145.5102
-3835.9375,96.1150,65.0435,50.7833,104.9805,8.5428,33.7586,-28.9427,-55.2482,-12.1803,-67.9977,24.5171,79.6245,62.2678,65.0302,54.1977,8.8600,45.7368,-131.3259,-308.9707,-23.6321
-3828.1250,126.7699,87.6658,78.7595,101.5925,-109.3223,-10.4579,-72.7907,-136.1783,-55.8436,-76.4347,15.9670,110.0917,16.7234,56.8272,82.2131,36.8482,62.1063,-101.7941,-207.8136,42.4525
-3820.3125,40.5650,35.8952,-11.1184,52.3531,-16.0352,-26.5269,-53.5039,-153.9552,-36.3610,-131.7097,109.5720,93.7070,73.3300,-33.2308,101.3736,18.9880,3.2751,-82.1056,-188.4986,62.6902
-3812.5000,147.3148,128.3497,171.9691,159.0766,20.2085,12.3476,-127.2702,-263.7862,-146.9437,-279.0294,36.1284,132.2666,36.8918,77.6684,-7.5165,-16.9238,152.0237,23.5324,-329.2588,63.8772
-3804.6875,76.1712,101.5318,135.1667,158.9000,56.5490,51.3174,-163.9491,-226.5073,-72.4358,-205.2380,-0.2119,96.9222,0.5530,4.6650,-44.3088,-53.7311,148.7695,128.2717,-189.9199,28.1616
-3796.8750,50.4712,95.0019,71.8065,170.1747,104.3382,26.7377,-43.1807,-179.7703,-62.4813,-158.9867,-26.0970,108.0293,11.6731,53.1068,1.3485,-116.0778,116.6297,67.4607,-287.1446,2.8991
-3789.0625,91.5323,95.3416,152.2112,142.2037,37.8717,35.9039,-72.6733,-172.2871,-91.7885,-114.9757,-55.2313,79.8871,-54.4599,134.3128,8.7514,-73.6640,136.1775,73.4028,-210.6369,-25.6071
-3781.2500,-37.1106,17.7950,16.9035,49.5251,12.6992,85.3651,-96.8730,-87.4844,-43.7998,-67.6433,-6.0616,93.0410,-5.2929,73.8171,-16.5466,12.0679,22.0653,15.6475,-92.8211,-12.8072
-3773.4375,63.6960,59.3923,48.0448,115.2999,-66.0334,81.2714,-66.6255,-93.2233,-85.3685,-73.8505,-48.4454,52.6413,-47.6757,141.7816,-22.3952,43.2650,74.6582,45.3453,-204.5687,-17.5511
-3765.6250,7.7097,32.4576,28.3974,96.2739,-49.5714,63.3768,-123.1880,34.2395,-105.7439,53.1500,-30.6284,-2.5619,-66.8617,12.9493,-115.0554,59.6706,63.7335,130.2503,-15.1108,-73.0957
-3757.8125,-49.1328,16.7689,-31.1021,110.3953,39.0566,79.6257,-109.6040,84.8525,-127.9698,103.3029,-15.6469,12.3794,-14.8832,-8.7472,-173.5630,37.2215,34.8133,72.2996,-73.5024,-94.4931
-3750.0000,35.3933,65.7802,92.7763,160.8700,-57.9540,58.2084,-131.6705,25.7951,-149.8548,6.7994,-38.3059,27.6601,-37.5414,115.9063,-159.7154,88.1168,102.8983,51.6922,-59.5592,-79.5404
-3742.1875,-23.9266,-1.5482,-45.1868,32.4829,-48.8071,32.9325,-121.5952,34.8906,-67.5949,-21.5487,82.2025,39.0797,45.9600,52.7020,-41.7122,97.1604,-19.4462,28.2357,22.5414,-32.4339
-3734.3750,-30.0936,1.1810,19.9999,62.2400,-20.5072,25.7966,-57.3673,-47.8657,-75.1872,-66.7383,-0.1342,31.6447,37.6200,191.6543,23.4458,52.3592,26.9596,56.9290,-125.2234,-3.1708
-3726.5625,-83.1520,-29.7363,1.3046,10.0857,-75.1135,45.7450,-112.0414,44.4790,-93.6784,98.1837,-55.3713,14.2996,-54.6203,173.7119,4.7038,70.6662,-3.1043,73.7284,67.1250,-20.8060
-3718.7500,-108.6204,-35.9676,-133.7957,-14.4804,8.8821,57.2815,-29.1131,91.4370,-9.5645,107.7255,-44.0008,62.5443,-43.2570,111.3635,15.5661,7.5781,-78.9056,-21.8697,41.0871,-45.8433
-3710.9375,3.5709,19.0806,56.7696,27.6111,-20.4728,-6.5388,52.4654,-10.9557,-1.8089,41.9197,-72.9868,34.4341,-72.2424,119.6720,23.0806,-58.8574,18.9772,-50.8139,-23.3150,-74.2351
-3703.1250,-56.5960,-28.5678,-7.0060,4.3496,63.8227,-31.7116,25.6876,36.3060,8.5935,51.7714,48.6833,-27.0304,49.4282,-16.3770,33.2445,-122.6352,-24.2055,-76.0995,56.9458,-62.9807
-3695.3125,40.1355,-9.4496,55.1151,30.9845,15.0220,-4.9874,-23.1812,-49.5322,-40.1040,-34.4700,74.2584,-74.5962,75.0041,46.4773,21.3113,-60.5018,23.5400,-50.4842,-58.9028,-36.8268
-3687.5000,84.3769,-12.7693,100.7529,-28.8841,-86.2822,5.2302,-51.5517,-40.8696,-31.3004,-26.1998,83.3355,-101.6703,47.0820,55.8395,-80.1261,22.1437,20.4407,-41.3673,90.7473,-27.1730
-3679.6875,27.0585,-39.7702,-71.1631,-86.3225,-38.1249,-55.1099,-2.4746,8.2585,54.9576,22.5470,95.8714,-51.3121,59.6188,-5.3608,-32.1145,-39.7531,-79.7566,-63.7925,102.8605,-14.0702
-3671.8750,104.5477,38.6537,82.7356,-6.9559,-31.1610,-83.6591,4.4033,-21.8060,-84.9923,-7.8955,-7.7967,-6.1609,-7.0481,76.2526,-25.3087,-32.8430,36.9668,14.5898,-31.2399,-6.1695
-3664.0625,38.0834,8.6524,11.6875,-38.5458,45.8520,-42.1673,-138.6676,55.1912,-117.8958,105.7309,32.5813,-1.9627,-40.6649,5.9144,-94.4544,7.1285,4.0780,88.0297,77.7227,-2.2207
-3656.2500,103.8527,58.2166,41.8792,29.1064,76.1205,-47.4324,-108.4806,11.4525,-161.5428,61.6326,26.2074,29.4805,-46.0333,36.8268,-64.3415,0.3677,45.1002,12.7148,-33.0714,28.9822
-3648.4375,151.5208,70.2455,90.9842,6.6546,-57.7284,-69.8081,-96.3926,60.6251,-75.2899,73.4491,1.7243,5.8152,-69.5069,-24.3519,-52.3231,12.5295,55.4489,-9.6967,85.0286,42.0938
-3640.6250,13.7194,-20.8388,-163.3738,-93.2584,-92.0327,-65.6400,-20.7608,173.3714,36.5096,185.8468,41.7940,9.6959,-30.4351,-129.9826,-13.7561,89.2651,-108.3525,-41.5503,122.6886,45.7646
-3632.8125,36.0715,-15.2506,-65.5787,-71.0245,-179.1913,-77.3310,76.0166,160.2815,60.4496,172.4197,-79.9903,-39.2803,-79.2131,40.5514,-27.0430,76.1643,-51.2915,15.7513,38.4840,33.5923
-3625.0000,-63.0721,-73.8049,-169.2755,-133.3038,-134.8529,4.4660,83.2870,204.7072,177.8892,179.5117,-73.2736,-67.7699,-108.4936,-62.4102,16.1597,46.5826,-116.5107,57.5556,184.7994,4.9241
-3617.1875,-79.7759,-70.6105,-186.5252,-115.1502,-79.0516,-11.3024,213.0126,150.5912,234.7830,125.0697,-90.0977,-46.8150,-89.3146,-41.9245,109.8141,-7.5369,-116.5542,75.8094,62.5671,-11.2894
-3609.3750,-11.6297,-19.1281,-41.9052,-46.1498,-81.3913,-11.2332,174.5896,112.3180,159.5231,123.4819,-128.0747,-47.0122,-127.2842,31.4196,71.3199,-8.7983,-23.2741,107.9197,59.1794,-48.6524
-3601.5625,-91.7917,-70.0423,-160.5812,-90.4608,19.9738,17.5193,127.8677,139.7566,149.9712,150.6096,-27.3433,-55.5157,-63.5492,-14.5475,-12.4729,-18.3517,-97.3215,98.7322,119.5083,-57.3193
-3593.7500,45.3506,9.6538,16.0521,12.5293,-23.3546,12.5602,121.4528,60.4932,33.7173,107.0429,-70.3099,-60.7239,-69.5077,126.7870,-91.9627,-24.6032,30.9023,94.8450,-60.8777,-25.6886
-3585.9375,-2.0472,-1.9647,-34.8455,1.9648,-109.2320,37.0415,-2.5144,156.6723,19.9101,203.9264,-82.8184,-36.4926,-118.0117,40.5756,-105.0012,35.6072,6.5977,118.4137,33.1922,-1.6120
-3578.1250,-52.4999,5.2331,-124.7930,22.3345,-90.1506,57.4634,16.4705,175.8094,39.0575,185.7716,-99.3648,57.6781,-135.5531,23.3104,-86.0839,54.7798,-33.5476,32.9348,-87.7857,18.4104
-3570.3125,16.3548,91.9279,19.5804,126.9931,-202.7624,94.1653,14.7628,101.2483,-36.4925,110.9300,-174.6132,130.1358,-210.7923,96.3546,-124.8595,53.2665,77.2969,66.7522,-125.4633,17.7260
-3562.5000,-85.7471,41.8537,-124.9975,94.6762,-164.3164,169.8982,-56.8821,138.7519,-34.9769,112.1607,-98.7969,132.6276,-134.9742,-12.5641,-160.5727,54.8105,3.5900,103.6132,-19.0671,20.0858
-3554.6875,-7.7459,82.1186,-79.4750,174.4359,-155.7564,106.7097,-48.4115,111.3648,-98.3548,83.5082,-126.8756,106.2013,-126.0467,70.6140,-152.1669,63.4679,62.3625,112.5659,-150.5665,29.5455
-3546.8750,-14.8870,36.7987,-87.0850,98.0261,-163.3504,100.3510,-92.0855,139.8342,-105.8785,185.7240,-97.1019,25.6040,-133.2664,26.6439,-159.8985,128.9901,33.9849,175.3727,16.8047,22.8525
-3539.0625,-142.8939,-13.7810,-222.5483,110.7384,-114.7800,149.1247,-80.5971,188.4751,-58.2370,234.1189,-85.1728,38.1383,-84.3302,38.8090,-148.4720,140.6725,-19.8913,223.3288,-75.6540,35.3056
-3531.2500,-73.4431,44.2735,-77.5362,215.8955,-190.7476,148.3279,-46.6484,113.5617,-60.1404,157.9630,-197.7911,37.1054,-159.9372,147.4297,-76.5860,138.8085,83.6872,185.7353,-148.6709,34.2060
-3523.4375,-133.7367,-45.4651,-141.2587,51.2842,-106.4549,86.7621,-36.4452,159.9034,23.2134,168.0619,-76.1474,-25.6933,-75.2853,-25.7119,42.5537,76.1999,-36.3671,20.3941,36.5821,45.3552
-3515.6250,-51.9351,-42.5690,-20.8765,-7.2450,-23.0513,-48.7183,45.8750,22.3468,-3.3208,-5.7259,-29.4024,-50.4032,7.4721,21.2390,125.8019,85.7011,-17.8903,-72.8480,-92.0588,92.6039
-3507.8125,27.0681,-20.0564,59.7250,-67.5823,-14.4452,-76.0105,18.4042,-41.0048,-30.6512,-33.2937,15.5388,-40.9293,16.4265,-5.6035,60.2463,94.4152,1.7514,-27.8845,-12.4943,102.0510
-3500.0000,-32.2891,-84.2709,-113.0323,-126.2897,31.8127,-64.6615,-7.4162,-30.6908,15.6754,-60.1923,136.1410,-66.8111,137.0345,-30.8017,107.3398,67.7954,-101.3148,-17.2621,-2.2711,113.1496
-3492.1875,42.9576,-54.5916,2.8164,-85.3954,0.6679,-58.7219,-2.6326,-62.7730,-52.4069,-92.4797,67.3380,-98.0989,105.2417,120.6129,186.0358,109.7913,-31.4684,-12.0276,-33.4657,118.8528
-3484.3750,-92.9096,-119.6246,-102.4319,-185.6135,5.4251,-88.8867,-33.9518,15.0609,25.4145,59.1602,73.4307,-54.4958,74.3451,52.9261,154.6353,152.7117,-138.7289,-42.8800,181.2525,88.4577
-3476.5625,-48.8472,-74.9977,-92.7377,-141.8893,51.1438,-115.1125,47.6818,-12.1375,-1.8127,31.7713,46.4740,-8.9465,47.4037,63.1968,90.1900,161.6002,-114.9054,-69.7828,47.9166,62.0157
-3468.7500,53.9208,-4.7756,89.6723,-107.4690,13.5584,-114.6452,10.0141,-49.6296,-75.3500,-5.9041,9.2141,-8.7008,10.1596,26.1831,-21.5619,124.2031,-7.9508,-2.9710,151.2726,25.2767
-3460.9375,-94.1808,-80.3278,-63.7743,-148.9090,118.1278,-120.0340,41.4924,56.0471,29.2691,62.5966,41.1057,-50.3078,79.0638,-125.6836,9.8345,45.9754,-94.9208,26.0028,249.7903,-16.3083
-3453.1250,-62.1908,-39.0241,81.8842,-11.2516,79.7944,-121.3283,113.0787,17.8353,-9.0088,60.2158,3.0873,-87.8208,77.0623,-53.4374,45.3334,-29.1324,18.0318,23.0853,70.3978,-53.7853
-3445.3125,-67.3085,-49.8374,3.4486,-15.7108,38.3512,-51.7311,-39.4375,85.5438,-14.3867,54.7623,107.9594,-92.4429,71.9522,-132.2811,2.7279,-34.3117,-18.1634,18.0776,170.9218,-58.3570
-3437.5000,-0.8922,-23.1114,-77.4512,15.3626,31.4592,-20.6007,-9.3953,42.8259,-21.2072,11.8856,101.3793,-61.5168,66.3903,-64.5770,69.6829,-3.9246,-30.0638,13.6215,-9.9954,-27.3742
-3429.6875,126.7247,42.8406,20.8598,38.6276,-92.2372,-32.2891,-22.1425,30.3145,-107.8260,-0.7740,15.9946,-36.3982,17.0247,34.3347,56.8467,56.6810,37.5411,106.3650,-58.7169,-39.1887
-3421.8750,-44.5219,-24.8293,-121.6908,8.0203,24.2126,11.1546,-53.7317,34.9722,-65.2803,77.7423,94.7680,6.8600,58.8138,-33.6145,25.1666,25.4562,-50.7777,111.2592,-19.2656,-69.8496
-3414.0625,-24.2198,-5.1649,11.3056,63.9456,45.2176,33.1314,5.2422,-52.8155,-80.1767,-10.1801,7.0968,-7.3370,44.1589,98.9919,46.0475,10.7945,23.3827,60.6975,-140.2662,-83.9559
-3406.2500,-106.4232,-85.3192,35.8101,-86.6476,33.7194,22.5948,-6.2751,8.9087,18.4387,51.4199,31.9185,-55.0436,32.9976,51.1034,71.4391,-0.3510,-45.0164,14.6405,95.2567,-94.5618
-3398.4375,-87.5004,-99.6170,-57.5501,-138.1159,124.3730,4.1958,83.3676,26.8114,36.2207,-4.7988,85.8960,-74.6125,86.9887,-4.6446,124.9888,-56.3293,-97.2089,-36.2650,42.9542,-40.0203
-3390.6250,47.9213,-1.0747,118.6028,-38.0943,6.5288,-39.7269,39.5209,-17.7722,-8.4914,-12.4896,-31.6320,-44.6972,6.4787,98.1100,44.0471,-26.7938,32.4158,-6.6687,37.1547,-9.9851
-3382.8125,-52.7121,-37.3970,-60.2893,-67.1479,-25.3556,3.2804,-29.3613,97.6117,33.7638,66.7936,47.7916,-1.8556,11.9210,30.8012,-61.9400,-21.2947,-62.2641,-1.1245,183.3340,-4.0064
-3375.0000,-8.4998,-15.5538,-14.3257,-22.3723,-16.3793,13.1142,53.6297,-3.1440,-31.1165,-35.0643,20.0717,-29.1794,21.2203,113.3374,-89.0680,-11.9354,-15.6671,8.2646,86.3636,5.8201
-3367.1875,4.1612,-16.4036,36.1046,-45.1571,-76.9545,-9.6180,-43.9179,10.5602,-54.5364,-21.4562,70.7961,-52.0693,34.9645,17.3257,-112.7331,1.8875,-0.4702,90.1126,238.8539,-16.9101
-3359.3750,-94.5441,-67.4923,-102.8335,-36.3137,43.1302,37.2873,-34.8003,55.9358,-8.2845,60.8294,116.1720,-79.3176,80.3608,-84.0420,-67.7356,-25.6264,-57.3950,97.6120,176.0122,-43.9974
-3351.5625,-17.7987,-5.9892,88.6929,74.9714,13.6693,44.6285,9.7886,-9.2425,-37.5737,31.5709,-23.0062,-108.1223,15.2075,-1.9522,-23.2771,-17.6791,80.4007,139.5572,75.6148,-72.6360
-3343.7500,-100.0560,-75.8305,-32.7738,-40.7700,75.2129,70.9557,-1.6123,52.5793,98.1540,94.3145,38.8234,-118.9367,40.0586,-123.8700,-34.8072,-28.7205,-27.8285,93.5022,205.2454,-83.2758
-3335.9375,-91.5139,-81.2797,12.5649,-31.7325,83.5715,-29.9364,116.8071,61.1993,106.6973,102.8619,11.4590,-146.9625,48.7202,-77.9933,-26.5235,16.0477,-23.8386,-38.7547,72.6766,-74.1186
-3328.1250,-16.2660,-65.2210,128.6234,-97.0061,15.6358,-97.1453,122.9304,104.5237,112.9395,182.1155,-19.2082,-177.3006,18.0796,-145.4081,-94.5309,59.5316,-0.4825,-34.3002,217.8107,-104.2657
-3320.3125,-55.1352,-109.5400,13.5774,-171.3950,159.6052,-137.4601,118.9564,173.7672,182.0836,215.2935,13.0246,-216.7481,14.3396,-257.9266,-98.6381,55.9343,-72.6553,-37.9347,284.8581,-107.5141
-3312.5000,42.0909,-27.0654,188.6360,-72.6828,149.6812,-146.6791,183.0828,54.1233,99.3229,58.5932,-106.6569,-189.0996,-31.3141,-121.3321,-71.6478,46.4572,58.1802,-10.4569,135.9941,-79.6628
-3304.6875,-43.0920,-79.4445,97.2988,-123.3849,95.3554,-89.3104,91.8048,37.0993,156.1647,-31.4781,24.2582,-168.8552,25.6255,-138.1366,-15.0568,-6.4043,-13.2474,9.6290,225.7475,-59.2161
-3296.8750,-30.8876,-63.2281,72.3537,-75.7010,144.4432,-76.5540,140.9377,-60.5049,131.4126,-93.1323,36.5736,-120.2189,110.9658,-88.5482,69.9389,-30.8466,-12.5575,-47.8844,26.9035,-46.3705
-3289.0625,59.6709,-35.6329,168.7800,-89.6717,92.8811,-90.4577,163.4220,-148.7567,154.0109,-107.4252,58.2295,-134.2386,59.6510,-65.5992,55.2832,-44.9216,22.3604,-62.0378,82.4064,-60.1740
-3281.2500,8.9077,-92.5268,3.8966,-173.9612,186.0271,-107.6673,145.6114,-92.2906,246.3213,-87.9955,151.5876,-150.5677,153.0388,-191.9552,111.3301,-99.2793,-87.3700,-113.4810,137.6249,-40.2767
-3273.4375,107.5371,-44.6755,142.4106,-110.8626,140.5688,-150.4872,248.2169,-172.4191,202.0392,-132.1596,70.3472,-194.4990,107.8286,-126.8972,213.7905,-70.2245,15.4872,-49.5218,-9.7676,-10.9752
-3265.6250,33.5146,-103.7757,65.2773,-219.4278,99.4540,-153.9693,207.1751,-67.1904,271.1088,-62.9580,102.4561,-198.0843,103.9644,-166.4850,209.6086,-36.7977,-67.7915,-17.2050,126.1987,-14.3218
-3257.8125,21.6220,-128.1339,-59.7220,-230.8563,122.4947,-167.3089,267.2859,-43.7927,294.3379,-76.5832,89.7147,-211.5190,127.2503,-106.9261,232.5808,-13.2023,-131.1976,-99.7378,44.3204,9.4840
-3250.0000,104.3814,-89.8729,100.9393,-217.6404,-11.8170,-191.0098,280.0531,-67.7452,271.2188,-99.5503,-8.3810,-235.3105,30.1823,-20.7047,171.2110,74.0535,-59.8534,-156.6201,127.0934,22.9384
-3242.1875,-15.4708,-168.8007,-98.0030,-337.0474,46.2779,-169.3244,227.2318,27.7183,328.5182,-5.1011,123.9280,-213.7193,88.5194,-182.0930,155.2544,95.7210,-201.6064,-170.1012,254.2948,44.7883
-3234.3750,98.1234,-99.8984,20.5056,-258.0191,128.8379,-196.2097,236.8805,-36.3592,191.2831,4.8111,59.6886,-203.6905,98.3083,-99.0404,127.7616,104.8465,-99.6063,-92.1339,15.9456,18.0846
-3226.5625,27.6247,-85.3917,59.9335,-187.1062,169.3045,-120.2164,92.4367,4.4636,120.9547,81.6273,62.3498,-163.7633,63.9943,-133.0939,21.1740,71.8789,-50.5492,13.7268,85.5057,-51.7238
-3218.7500,-2.0837,-56.1500,29.1557,-77.4103,284.5794,-77.4390,60.8020,-26.9082,89.4347,-22.7512,104.8171,-122.0355,143.4866,-163.3560,26.3935,-32.2802,-14.5009,19.3861,-49.1194,-45.7354
-3210.9375,123.0606,38.0289,270.2386,48.1271,195.7022,-55.8182,9.0313,-189.4313,-36.2258,-149.2736,89.1264,-100.4673,127.8249,-105.7561,-26.5290,-47.5801,143.3070,38.9062,-135.8937,-60.9030
-3203.1250,37.1964,-10.0709,145.3163,-1.3552,253.8264,3.7957,-42.7335,-167.9290,22.1230,-163.7711,185.4388,-77.9168,150.1587,-193.1639,-4.4396,-98.8636,53.5822,-45.5669,-44.6455,-75.0769
-3195.3125,122.6743,54.4688,195.7357,84.5012,157.3063,54.7498,44.8660,-263.0626,-37.1686,-295.9012,88.0973,-27.0216,89.8425,4.7830,82.0043,-84.7841,114.3174,-100.6936,-205.0460,-23.9029
-3187.5000,131.1542,31.1149,165.1678,23.3449,-20.2137,98.6889,-22.5299,-219.1952,6.5477,-252.0196,58.7460,-57.1292,60.5167,48.7366,52.4508,-40.6897,87.3598,-21.8183,-56.4327,20.2671
-3179.6875,-53.1316,-87.1883,-64.1591,-55.5839,45.5253,90.8679,80.3376,-81.0646,108.5309,-112.8756,87.6515,-136.9921,89.4437,3.9249,117.1589,-48.3333,-49.2015,6.3061,41.4455,12.6804
-3171.8750,-4.5084,-30.6603,97.4302,-42.6145,23.1754,31.9317,168.1168,-66.0380,50.4173,-61.8327,-8.5456,-49.9657,30.2760,92.0152,131.7807,-33.0749,8.4528,-86.6684,-51.7890,-9.0111
-3164.0625,-60.1336,-5.1522,0.7776,-131.9115,73.5825,-28.2624,34.6414,21.7454,64.0524,-11.0304,79.0161,184.8036,43.8590,-41.1504,35.1581,-56.0611,-90.8542,-210.8883,69.7463,42.0459
-3156.2500,-9.7202,49.0538,12.1731,-82.1694,84.0520,-89.4163,82.2204,-39.4133,74.7415,-35.1713,-19.3738,269.6176,18.4944,43.7333,45.5885,-6.9833,-64.4753,-302.0522,-56.6656,127.1529
-3148.4375,-28.6104,23.1315,100.2790,-134.7301,27.2152,-109.8755,61.5081,-23.8673,90.1348,-19.5975,-41.0800,212.1270,-39.1828,24.3284,25.7225,81.8091,-39.6170,-249.5060,65.6293,179.9566
-3140.6250,-142.6729,-50.4447,-91.7863,-178.4546,54.2292,-119.4900,52.6539,40.5599,117.3897,44.8598,-13.9379,165.4858,-12.0195,-22.2346,52.7017,73.4653,-132.9413,-187.1112,127.7953,207.6065
-3132.8125,-3.1369,50.6069,53.7486,-38.5790,-58.1617,-83.5109,51.4098,-34.3988,7.2426,-30.0705,-125.2067,164.4464,-123.2674,122.8159,14.2781,36.7337,14.1583,-82.1153,21.5475,206.8586
-3125.0000,-66.0050,10.9654,-50.1152,-101.1095,-123.9644,-2.9371,-15.2427,10.2538,51.6980,-22.3834,-80.8817,172.0065,-115.9220,94.4694,-15.5515,7.6188,-45.3879,30.4861,133.9124,214.7101
-3117.1875,-116.1401,-8.1176,-176.2453,-79.9047,-140.0077,18.3801,79.8635,31.6736,72.9118,-0.9273,-96.8070,193.3144,-94.8273,151.8703,42.3803,66.2609,-90.2933,51.8412,-19.9694,236.3092
-3109.3750,-136.5211,0.0361,-85.6123,-64.9548,-197.3008,-1.5607,59.7268,84.8512,52.8782,89.2884,-153.9882,210.3611,-151.9810,169.0289,22.0642,155.6660,-57.4728,31.9485,29.8965,216.6542
-3101.5625,-297.2661,-101.4112,-254.3351,-120.3775,-70.9277,15.1414,39.2474,174.6908,141.5055,179.1640,-27.5092,153.0513,-62.4786,39.8262,74.4006,98.7264,-176.0635,-58.2878,185.4290,196.6456
-3093.7500,-184.4577,-57.3661,-60.4994,-77.2556,-23.9936,-48.6186,84.3316,111.0752,41.6959,152.5857,-91.4829,89.2875,-52.4256,122.1762,120.2993,36.3405,-68.1910,-49.9767,87.5041,170.1818
-3085.9375,-135.2942,-55.1637,-45.3035,-133.7943,-45.7084,-33.0388,-9.2231,126.8137,20.2472,94.3668,-2.1035,67.8602,-37.0239,-8.1310,61.5586,51.3057,-76.1397,-0.3206,206.9453,149.0568
-3078.1250,-76.7885,2.3407,-95.7650,-40.0032,-22.0665,-9.1211,-22.4149,40.9194,8.1648,9.5087,-15.3696,128.7710,-13.2682,-21.1013,49.1877,39.6233,-48.6249,-12.3140,54.7468,173.2720
-3070.3125,-20.1755,54.4800,72.8894,52.8867,-110.3218,49.8808,-37.4939,-9.8770,-43.8128,-5.2428,-140.5424,113.7780,-101.4158,74.0265,-2.0748,98.0429,69.0647,-25.1998,42.6435,195.5734
-3062.5000,-197.3702,-46.8651,-113.2595,-54.0357,-150.3666,47.0747,-40.3683,133.5357,27.4217,138.2157,-69.5143,111.9812,-104.3671,-1.6593,-5.1331,132.6720,-76.7488,-95.8782,216.7533,230.0567
-3054.6875,-150.2177,-23.4468,-101.0533,-41.6116,-248.0461,22.6157,46.1205,183.3003,3.0113,188.0233,-205.1385,124.5318,-165.9674,121.0037,44.1714,182.6570,-64.3081,-119.2094,89.1972,242.8764
-3046.8750,-179.4575,-32.0709,-167.2313,-70.5915,-314.1193,-6.2470,17.2093,228.6577,11.2006,270.4242,-160.1582,168.6787,-157.9678,56.2682,15.0876,191.2425,-115.6925,-111.9407,164.2461,214.2850
-3039.0625,-240.5047,-64.6989,-340.2173,-61.3869,-192.9787,5.0823,28.5051,240.2222,58.6004,208.0330,-111.9701,180.0215,-109.7612,66.7218,62.2108,166.0275,-187.0061,-102.4801,34.5104,188.8853
-3031.2500,-111.2426,9.5195,-165.8903,67.1118,-239.5345,31.7017,18.1133,120.0839,12.3084,161.9393,-195.4879,133.6545,-156.2535,167.4856,51.6389,157.1172,-42.2466,-7.7226,-47.9269,142.7752
-3023.4375,-202.6306,-44.2808,-259.2024,10.9486,-148.7312,48.6667,-1.9188,174.2936,66.3798,179.1862,-104.6485,114.6329,-102.3932,37.5917,32.4230,101.5549,-112.8088,5.3831,72.0002,87.0058
-3015.6250,-190.1694,-31.7107,-171.6587,59.6305,-97.0622,-10.5276,49.9112,189.3420,44.3052,194.2719,-163.9569,92.4635,-124.6816,126.5466,47.0696,116.8387,-60.4411,-16.6641,-90.2356,65.0835
-3007.8125,-185.7536,-27.0017,-128.1495,29.2668,-164.4413,-3.7794,-17.3145,233.3380,14.1745,275.3130,-231.3232,99.2443,-229.0325,132.4558,-20.3391,160.0776,-45.6521,59.2447,-16.5182,35.1060
-3000.0000,-266.2988,-43.7048,-284.6030,53.9458,-100.7698,-11.9775,-25.4936,225.3999,79.0939,156.4200,-165.6445,164.0783,-163.3396,87.4105,8.2993,152.3820,-116.5579,49.2047,-61.7414,-9.8279
-2992.1875,-94.2362,55.5116,-65.4579,157.2328,-174.5056,-12.5720,83.9310,4.0656,41.6090,-27.8693,-240.3828,163.5196,-201.0607,197.9839,43.5385,115.2938,29.6456,81.7697,-169.3779,-47.1647
-2984.3750,-114.3806,26.7275,-122.5259,102.3169,-121.4570,4.6377,64.1553,20.5505,132.9311,-10.3396,-114.3305,143.7685,-148.9963,30.3607,23.5780,59.0164,-21.8007,62.1434,-48.2021,-66.7043
-2976.5625,-27.4406,50.5617,-106.5168,118.5049,-31.3141,20.9541,43.4811,-35.8469,38.3505,-67.6965,-135.1857,123.1276,-95.8364,83.8431,39.7160,75.8520,4.4175,43.6244,-172.9453,-50.1408
-2968.7500,33.2532,68.4259,31.2513,73.4554,-77.4225,12.0287,-1.4606,-44.4994,-43.5018,-39.3089,-144.2972,114.2442,-104.9341,112.0941,-42.4085,104.4511,42.9642,34.8749,-40.9571,-58.8232
