Time,Fp1,Fp2,F3,F4,C3,C4,P3,P4,O1,O2,F7,F8,T7,T8,P7,P8,Fz,Cz,Pz,ref
-4000.0000,-100.6031,-65.6913,-34.5654,18.2538,46.1365,99.7526,-10.4093,3.5500,1.9388,21.9206,-80.0378,108.7525,1.0240,126.5765,-79.7110,75.3949,-124.9319,91.4588,4.6477,-88.3481
-3992.1875,-65.1198,-63.5355,2.2032,92.0777,10.5882,103.2145,-82.8530,42.7561,-107.2681,-12.5618,-79.9494,76.2506,38.7253,167.5391,-43.4078,79.5077,-124.9137,167.9488,-12.7312,-52.1377
-3984.3750,-147.4618,-110.1644,-46.8484,48.1186,0.2289,94.8936,-168.1114,69.1924,-156.2929,51.1786,-56.6784,66.9703,27.6126,121.7326,54.0823,106.8405,-173.7272,265.6640,-24.5427,-28.7354
-3976.5625,-144.9331,35.1141,-79.0248,19.0680,-31.2543,28.5001,-53.4858,112.5461,-40.4287,131.8368,-127.5251,111.6141,-41.6072,56.8555,130.4628,77.0999,-171.6691,97.2995,28.6868,-25.4414
-3968.7500,-156.7690,131.0722,-165.5652,-24.3176,-116.1051,-17.2255,-29.2191,138.5657,21.0734,158.1610,-214.7440,175.9422,-126.1969,84.6561,43.4757,178.0228,-182.9706,126.5850,60.2164,34.4976
-3960.9375,-212.8277,41.8552,-185.3246,-76.8934,-134.1751,39.8610,-11.1744,158.4032,2.3621,178.3072,-161.1861,160.1105,-73.0039,106.2824,-13.7304,197.7609,-204.4934,110.6941,73.2933,14.2308
-3953.1250,-121.6090,64.9446,-126.8067,17.8361,-145.9649,66.2665,-61.8364,183.5699,-121.0593,166.7747,-103.3394,186.5993,-85.5208,96.2335,-63.6472,113.8173,-148.7371,66.1183,55.9538,36.2509
-3945.3125,-147.8146,75.6497,-152.7063,30.1832,-171.1738,80.2954,-159.9196,196.3665,-182.8972,216.8761,-166.9180,126.7129,-74.4541,-0.1901,-53.9809,90.4888,-105.4070,221.1733,47.1897,45.8674
-3937.5000,-222.4057,38.0090,-190.9813,30.1934,-134.7409,120.0005,-14.3665,307.8426,-37.0944,254.6605,-242.8680,55.4925,-111.7467,3.0566,-20.6776,92.8202,-145.4606,81.9114,147.2863,7.1225
-3929.6875,-291.9615,5.4170,-227.2178,-0.7243,-168.2565,87.7677,61.2364,422.3879,75.7511,332.5182,-279.7792,60.3318,-183.0001,45.3669,-129.3388,244.2130,-214.4804,17.7080,231.0319,44.4150
-3921.8750,-329.7286,-65.3699,-300.6631,-104.8285,-202.9877,55.3450,98.6183,498.7544,76.3800,446.1927,-242.8987,64.9785,-144.4582,87.4846,-129.2155,285.4305,-252.7167,-14.6705,268.3028,7.5015
-3914.0625,-264.7643,1.5979,-229.3787,-1.1774,-167.9772,56.6850,133.7485,461.8993,74.7496,446.6414,-209.2723,66.3813,-147.1751,89.3660,-96.3536,139.4063,-259.2230,-50.2790,265.0328,-32.6755
-3906.2500,-253.4144,49.9668,-215.7072,83.8895,-224.5719,148.4364,38.2686,405.4678,16.5095,390.5131,-232.2616,48.1888,-132.5012,34.6715,-83.1035,120.7930,-248.3487,107.5352,216.5219,-55.4583
-3898.4375,-195.7394,38.6753,-188.7021,74.3220,-197.8259,142.5597,29.1247,398.4091,-29.3945,383.7531,-206.9122,5.3500,-141.4828,29.3384,-19.5108,187.5474,-156.1469,-5.2711,179.5016,-102.8966
-3890.6250,-193.2254,79.2407,-150.8568,151.6182,-193.2329,74.5453,-42.1768,402.2216,-100.4639,387.8595,-242.7137,10.3703,-174.6211,108.8642,-56.0725,229.1635,-154.1144,2.7774,153.4097,-28.4912
-3882.8125,-227.4773,12.0684,-185.7773,121.1796,-189.4112,117.7939,-2.2502,334.3137,49.7025,283.2447,-204.2754,-19.3496,-171.5225,78.6572,-54.3986,125.0461,-153.8566,115.0963,170.1207,-26.8363
-3875.0000,-157.5015,83.1444,-148.4738,123.9991,-151.3560,85.3057,108.9215,226.6903,88.1138,139.9170,-131.5957,21.1790,-134.1818,83.7100,-54.4718,55.1876,-84.3719,13.6819,149.1632,-26.9420
-3867.1875,-138.5364,70.2330,-165.1855,77.8334,-166.3145,35.8252,-17.9091,250.0922,-1.4848,199.6136,-75.9289,8.7118,-112.8500,70.7705,-34.5463,152.3365,-100.8952,74.2789,109.4823,28.9493
-3859.3750,-156.3392,19.5767,-181.6660,-7.0756,-144.0373,-13.3911,3.5005,272.7610,20.1562,223.5759,-93.0248,-3.4983,-92.2811,59.0953,21.6205,286.7534,-154.1835,62.1512,115.4606,12.0876
-3851.5625,-148.8071,99.2740,-174.8167,74.3737,-135.4301,-39.2454,11.2642,246.7983,65.1507,233.9053,-159.7808,44.6460,-157.3731,70.7818,-7.8610,224.5357,-182.1335,110.3776,130.1144,55.5718
-3843.7500,-160.6389,54.6402,-185.3336,31.4816,-181.1970,-8.4423,1.6669,239.5153,55.7916,299.9131,-133.8999,38.4480,-166.8294,65.1214,-54.6940,180.9833,-159.4553,139.2689,135.7898,44.7105
-3835.9375,-81.3917,65.1105,-137.7700,8.6937,-130.8844,-66.5364,51.1665,217.3579,104.5289,278.0450,-49.9240,54.3608,-154.1925,44.5670,-44.4239,85.5415,-45.6910,-21.7298,127.3955,18.9464
-3828.1250,-70.1980,113.5442,-90.2621,-11.1350,-118.6408,-87.6732,-47.3890,194.1695,43.2105,219.1324,-39.9969,69.2317,-142.6104,23.9771,2.7978,64.0536,-70.9879,65.2248,83.8215,66.1320
-3820.3125,-95.2169,-15.2146,-113.9696,-67.1533,-67.6186,3.0019,-34.1635,210.7972,-16.3235,162.0379,9.7259,12.9033,-91.2354,42.2024,51.8233,81.3703,-96.4973,46.0058,82.6763,42.1192
-3812.5000,2.6567,-20.0730,-84.7915,-0.2686,-36.7099,36.5853,-76.0407,206.3491,-58.9608,157.8734,38.3457,-27.5283,-60.9665,39.3311,-28.2462,77.5915,-69.1143,-26.3096,61.7402,71.0015
-3804.6875,-75.9290,-60.3685,-128.0767,-39.8191,-78.2639,70.7267,-119.3773,239.4712,-65.0544,228.2772,66.5060,-66.4094,-31.1608,37.0090,-72.7711,74.3828,-78.1907,76.9362,77.7453,63.4380
-3796.8750,-33.3732,-16.5047,-79.2244,-28.2122,-28.6842,87.0259,-70.5729,144.7518,-125.0078,96.8335,114.8195,-50.1366,18.7900,53.8353,11.8576,54.3362,-35.1289,20.3500,24.3518,2.0257
-3789.0625,-45.4618,149.7283,-18.0242,68.7575,34.2312,152.6761,-154.4214,25.3923,-209.6185,-22.2525,64.4890,-21.5125,7.0883,47.0152,-1.1615,8.6259,-12.7187,119.1108,-47.8089,25.9673
-3781.2500,-77.5081,120.0235,-85.7831,76.7828,42.1825,163.3693,-111.2340,-1.8961,-165.1864,24.7381,70.2076,-10.8456,51.4305,-52.7522,4.8686,-18.0294,-45.2661,92.9329,-36.3335,-5.0324
-3773.4375,-34.9655,94.9195,-39.9545,52.4091,15.7274,102.6621,-28.4449,84.4324,-46.1612,110.3355,41.5299,-34.5788,24.3707,-75.9138,-23.4977,-5.0725,-73.2166,-34.6459,31.4888,3.5695
-3765.6250,-51.3652,9.8956,-94.0813,-29.8996,-36.6889,54.0065,-7.6243,143.8181,48.8944,170.9874,-48.1022,-83.2523,-28.6457,-14.0216,-75.8185,55.9372,-90.1126,25.8261,83.3082,23.2303
-3757.8125,-7.8217,-14.1672,-82.2749,-17.2591,-23.1746,70.3053,42.1391,86.1679,-12.1082,39.6009,-36.7845,-67.9749,-52.7150,39.8154,7.8219,34.8945,-12.0647,-30.7410,49.8986,-2.1537
-3750.0000,16.0133,83.0788,-22.1758,80.6887,-34.3745,60.9090,-79.7874,1.8365,-96.8057,29.5264,-51.1690,-39.4077,-63.4934,67.9476,67.7755,-11.8497,-23.7208,33.9880,-26.3248,57.7657
-3742.1875,-78.7540,60.7391,-82.6858,60.0454,-92.1910,115.9186,-102.3251,18.9210,-47.1118,-27.1272,-38.1575,-22.4462,-49.8792,86.4755,118.1252,-31.1910,-13.9821,121.1253,-23.8356,34.0945
-3734.3750,3.4298,75.3476,5.7447,112.3595,-3.0710,98.8825,-13.9210,-36.0301,-67.4773,-80.8153,-23.1924,-39.5460,-70.3191,32.9591,59.4283,-48.5846,68.7124,69.2113,-17.0039,12.3746
-3726.5625,27.9725,67.3223,31.5268,105.0339,24.3883,-18.8049,-96.1758,-6.6222,-76.5069,58.8448,-34.8702,-9.3012,-43.4141,-120.2035,-60.9156,-54.6362,92.7632,169.6444,-4.3708,38.0172
-3718.7500,46.1112,17.9031,53.9008,93.3117,12.4344,-64.8931,-36.8382,20.3952,-52.9454,49.1152,23.0572,-55.4614,-19.9126,-128.7735,-75.6509,-28.0838,144.4073,88.6861,10.5046,-12.7297
-3710.9375,114.4060,158.6381,51.4231,59.7408,-61.3767,-61.8385,-110.3479,-15.4264,-90.2366,-23.4526,57.1425,-52.4830,-21.2623,20.7884,-77.2286,-26.3758,142.2125,57.8689,-52.2823,21.6789
-3703.1250,63.6561,180.3403,-35.1119,-56.8698,-147.2587,-35.8365,-123.9185,10.7061,-67.5826,39.9265,79.1802,-99.5614,-34.6613,48.2868,-19.8428,0.2850,160.9704,48.0047,-51.3349,7.0528
-3695.3125,171.3042,290.4484,41.7423,18.9176,-104.7580,-99.4340,-119.0883,-54.7543,-134.5332,-62.2981,157.6248,-54.2475,-65.6632,-15.8179,-15.0350,-27.6718,303.1315,-50.4578,-106.5060,-25.1651
-3687.5000,283.2126,405.8305,86.8475,100.9604,-95.0132,-123.7898,-257.0110,-189.9582,-235.2463,-234.2661,238.3267,-41.6922,-19.4220,-39.6687,-6.9781,-88.3932,380.5543,33.3158,-226.8233,-17.1207
-3679.6875,339.7204,358.8219,113.5465,90.6004,-103.6819,-129.5548,-192.3366,-158.5490,-243.3601,-202.6208,412.6363,-156.5544,45.4203,-117.9402,-53.3219,-204.4992,400.5819,-10.3108,-194.6842,-100.4635
-3671.8750,464.9343,380.5134,135.9380,78.9354,-116.6695,-102.6353,-169.9507,-59.4246,-220.7603,-66.2600,434.6567,-240.7363,31.9623,-200.5348,-177.9441,-177.8955,384.3174,-126.2590,-141.1270,-115.0985
-3664.0625,362.5581,315.6188,67.7292,15.6754,-109.2812,-92.3294,-163.1617,-12.8870,-177.7631,53.5144,329.0796,-230.5247,1.8915,-153.7314,-99.1568,-168.9149,281.4608,-46.8082,-101.9197,-146.3147
-3656.2500,293.5368,215.0786,72.8648,21.7714,7.4389,-45.6705,-47.0252,-77.9885,-97.4202,-47.3580,296.8535,-184.9761,45.1637,-33.5828,15.9922,-196.6026,212.9646,-109.0038,-96.1527,-178.1711
-3648.4375,264.2806,152.3019,114.7591,66.6328,50.9008,-36.2647,-77.1425,-143.3394,-128.3372,-112.4873,264.3887,-138.6969,51.1813,-59.7070,-15.0902,-186.5379,218.2355,7.5405,-116.5094,-136.2651
-3640.6250,210.2343,30.7440,135.8522,51.6959,110.5517,-47.6694,17.9220,-118.4892,-33.0666,-124.4235,248.1411,-187.2290,110.3995,-218.6501,5.0477,-162.2737,163.7145,29.2826,-60.0112,-189.1413
-3632.8125,193.8003,51.7988,192.5465,145.3539,167.7937,-60.4875,112.5898,-205.0408,24.8054,-210.7694,157.5131,-163.1791,131.2204,-194.0033,61.8006,-248.4246,110.8115,18.6121,-53.8751,-169.4050
-3625.0000,157.1861,158.6692,191.0492,253.8212,168.8223,16.4834,-71.9475,-349.7920,-85.5338,-319.3151,118.6929,-49.3413,130.8394,-189.5685,60.3561,-319.7805,144.7268,164.7274,-171.9895,-133.8490
-3617.1875,251.6837,184.6428,290.6520,316.3882,195.9362,10.5412,-155.3907,-392.4369,-241.7734,-434.7510,254.9796,18.5788,121.5558,-232.0552,-22.9748,-362.0353,273.7562,87.9262,-249.1821,-144.1777
-3609.3750,299.4998,129.9326,339.5576,298.2493,173.3337,-47.1167,-251.5262,-339.7741,-264.7110,-344.8834,230.5760,-39.2216,60.5716,-141.2548,-84.9856,-309.0031,286.1063,71.3983,-258.8864,-95.1888
-3601.5625,173.8224,-99.2595,283.9603,176.6134,119.2128,-61.2928,-160.1631,-245.6062,-173.1485,-213.5148,174.6804,-53.5375,80.0813,-118.9736,7.5183,-250.4826,194.9725,57.3747,-179.8528,-113.6757
-3593.7500,204.8611,-65.7431,353.0632,141.6780,189.7838,-97.7858,-90.0949,-209.7353,-139.8830,-214.4475,132.4995,-54.1672,76.2912,-118.0182,2.7436,-251.2759,190.5537,-46.9660,-142.9267,-81.4514
-3585.9375,204.4265,6.2951,313.6763,109.2416,150.8449,-96.7983,-201.5273,-208.3680,-177.1241,-212.8921,92.8359,-15.3133,111.9957,-116.5835,-0.5112,-176.5779,154.6528,-6.8261,-183.3366,-10.7056
-3578.1250,204.7000,-25.9681,277.9836,43.4915,153.5837,-165.1281,-89.2567,-203.2901,-101.6645,-207.6306,130.8894,-9.7850,150.4020,-110.4712,74.9497,-171.1860,224.4696,-176.9924,-162.0393,-9.2388
-3570.3125,173.1906,-18.0395,206.4987,-19.0570,46.5133,-194.2706,60.2185,-160.0009,47.9934,-128.1623,95.1578,-4.0819,117.0116,-140.1693,76.6163,-163.6151,228.5099,-236.9796,-70.9088,66.4430
-3562.5000,74.4970,-186.2993,65.8237,-184.7988,-17.7645,-183.6211,178.4845,-40.9109,202.4397,-7.8978,65.2353,-103.5953,124.4146,-129.0765,157.0943,-117.2602,93.3685,-156.1756,49.3210,72.9457
-3554.6875,71.6206,-222.7507,63.9524,-148.7409,17.7516,-144.1826,250.5504,-39.0315,201.6835,-115.8484,63.1315,-174.3288,86.6240,-53.2040,192.3968,-79.1170,54.0470,-117.5877,73.2050,71.2629
-3546.8750,66.0695,-153.8788,59.3928,-79.3797,50.5578,-108.4640,61.9162,-149.8595,87.2208,-227.5152,94.3425,-101.7870,119.1399,-17.0606,150.0202,-43.6862,14.0498,22.2834,-41.8465,102.9026
-3539.0625,98.8812,-118.6510,23.1815,-76.6716,125.7020,-104.4102,100.6300,-219.3327,52.1112,-222.8280,167.9165,-61.9268,158.0064,-157.6033,188.0243,-75.9206,11.4179,-79.5042,-69.1678,66.9128
-3531.2500,123.6168,-57.5177,45.8843,-50.0674,112.7341,-150.4758,124.2573,-228.9054,75.9048,-159.2449,117.4116,-34.1914,107.7736,-130.2755,136.9556,-84.2747,34.7128,-155.4312,-57.4812,126.8398
-3523.4375,55.2826,-158.4629,-24.5011,-148.5659,45.6478,-179.6684,91.7802,-111.5810,154.5914,-77.7697,10.8254,-62.5685,76.4350,-85.0648,140.8000,-40.7403,36.9330,-77.4859,-4.9602,130.6968
-3515.6250,83.6623,-91.7032,43.8164,-186.3730,77.2491,-181.1785,161.0050,-76.5617,149.9850,-79.6084,4.9606,-64.2682,35.8008,-50.1737,98.3640,-78.5194,64.8736,-183.8599,26.4553,125.2786
-3507.8125,111.3132,8.3176,70.3900,-119.9325,69.0872,-186.4536,79.4848,-120.3033,68.6390,-86.2166,-4.6373,-33.7379,-10.5800,-18.0457,53.2006,-11.0752,57.0919,-187.0046,-25.1653,189.1385
-3500.0000,53.4853,-47.1550,48.4659,-174.9991,48.4041,-167.2410,58.4579,-101.5490,119.7875,-67.3263,46.2818,-51.7287,42.5387,-72.4396,140.5560,42.8531,33.8379,-239.6601,-36.7193,167.5265
-3492.1875,90.1374,-79.1590,49.0032,-204.6221,-22.8371,-162.6090,96.8871,-60.3479,122.3821,-99.9942,83.6772,-10.2936,81.1083,-30.4162,215.3777,12.2200,-0.9332,-302.9020,-21.3060,205.3826
-3484.3750,44.8278,-122.1374,-35.4399,-246.2411,-70.0867,-60.0048,86.3147,-104.1590,184.9687,-143.6791,-0.9050,56.1203,107.6787,36.5692,204.2077,-69.4290,-11.6743,-238.1700,-23.8989,231.2681
-3476.5625,45.8332,-83.8138,-33.5762,-206.5725,-67.0499,-17.1266,162.0473,-135.6725,187.8615,-101.0755,0.8343,61.8035,110.5562,42.8226,170.3679,-173.7877,59.9135,-373.1627,-9.9832,233.4784
-3468.7500,17.8636,-38.4752,-26.7030,-124.9147,-96.0241,-6.2768,23.7950,-125.1947,49.7668,-90.4778,44.5900,109.4577,81.4396,54.0531,141.5611,-89.1661,66.5294,-325.1973,-64.1289,277.7157
-3460.9375,19.3692,-70.6796,-21.3742,-155.8184,-89.5636,2.9975,-44.0038,-80.2763,-17.8808,-82.4406,122.8195,44.5319,124.7787,-10.2975,146.2294,-44.1111,67.6159,-213.7912,-74.2259,209.4339
-3453.1250,95.1552,78.3587,60.2157,-5.4833,-42.8551,-21.4986,-71.5437,-105.1246,-8.2759,-70.1828,131.3363,19.8231,97.3790,-144.4326,82.1784,-105.8331,107.9856,-203.1550,-83.0006,181.4231
-3445.3125,75.3278,96.7600,41.1806,83.2075,-24.7924,-73.6678,-53.7340,-120.6381,10.6796,-48.5992,38.2273,4.4327,79.3349,-233.2507,63.4867,-157.2387,87.7486,-7.1986,-48.7893,162.7893
-3437.5000,35.3195,23.9671,40.9526,81.6893,13.0641,-34.0634,55.8839,-191.3590,120.4447,-193.2201,37.9321,-30.1888,78.0938,-119.3015,135.6133,-191.8657,117.3449,-41.4643,-50.2105,88.9758
-3429.6875,90.8903,45.7357,61.2883,140.7176,-39.5329,26.0705,41.0668,-240.5391,31.7603,-279.3092,58.2070,-6.2896,27.4080,-21.8293,46.3183,-167.9661,66.5198,51.7844,-74.3820,109.7311
-3421.8750,45.1921,-33.7830,16.3352,62.4436,-9.4358,58.8924,-3.0536,-135.0357,-12.2377,-173.7200,49.2073,-83.7189,19.4290,-135.6909,-34.2548,-98.3775,56.4212,186.7136,-24.1281,65.2143
-3414.0625,39.1714,33.3418,49.0437,96.8057,61.3056,-13.6556,68.4808,-61.8839,59.4201,-63.4874,9.8912,-156.5347,17.1070,-207.9409,-110.1598,-134.1539,85.0067,116.2575,44.1786,26.3678
-3406.2500,-33.2135,33.0790,47.3726,132.7615,60.6384,-11.6387,-6.3675,-23.1292,58.6961,12.3391,-27.8060,-117.7830,-55.6189,-168.6171,-148.4576,-132.3604,82.2275,153.3623,45.2534,25.1462
-3398.4375,22.1208,-49.4701,35.4041,86.4123,86.6603,-19.9483,56.4995,5.3177,10.6884,3.8567,-4.7944,-54.3628,-67.6433,-140.6263,-87.0355,-141.8922,67.1741,3.1552,47.9765,-23.3528
-3390.6250,121.6826,17.1841,100.6513,13.2624,78.8846,-61.0755,48.5714,36.9537,-69.1249,-38.4456,-48.5534,-22.7731,-74.4570,-71.4716,-131.3806,-37.2403,27.3514,-33.8856,40.7093,42.3680
-3382.8125,7.8862,-59.5638,18.5206,-97.2932,33.7061,-30.6300,76.2313,30.1729,-5.3414,-8.1737,-95.6764,-28.6198,-46.6615,-4.7432,-67.1059,29.9893,-52.8303,-3.3504,55.2801,69.7188
-3375.0000,-32.1693,-97.6153,-22.8845,-134.1635,30.2279,-31.5131,183.6014,66.0737,138.1497,64.7708,-100.0640,-102.8002,-87.1614,31.6498,37.8874,102.8876,-58.2681,-214.1484,94.5016,65.7910
-3367.1875,-79.8365,-73.2905,-111.9173,-179.6945,-130.9030,-80.0788,168.3322,201.3021,196.9950,163.0454,-115.0774,-151.6565,-101.3103,20.3535,96.2574,201.1123,-107.3147,-223.6331,143.2788,124.2425
-3359.3750,-98.6297,-125.0999,-167.0926,-265.3823,-222.1978,-94.8190,224.9164,222.3656,216.6949,185.1540,-23.2279,-93.6925,-45.6077,-30.1360,152.5123,186.1794,-90.4841,-238.2895,162.9925,106.5779
-3351.5625,-5.0856,-64.6107,-105.9506,-238.7794,-160.2005,-67.2901,212.8099,139.7116,130.7014,138.5363,-36.0519,-29.4603,-57.5978,-2.3555,103.1003,139.5288,-67.3135,-210.6850,127.8151,131.2411
-3343.7500,-83.9503,-71.5619,-114.2373,-244.6357,-130.6610,-35.2424,168.2550,60.5937,123.2610,59.4536,-7.2992,-34.7101,-28.0345,28.9409,95.2557,97.4066,-112.5561,-39.5586,97.0790,123.4902
-3335.9375,-58.5899,-79.3129,-86.3112,-181.3029,-65.9264,-4.0235,196.9123,18.6602,152.0339,-18.4458,57.6828,-77.8011,0.7389,23.3979,86.6426,54.4653,-86.5707,-80.2620,87.9853,114.9661
-3328.1250,-4.2964,-23.1598,-68.4643,-88.0773,-157.2962,17.0668,69.4859,40.6147,97.7168,39.5303,75.5865,-57.0219,-17.5812,45.7231,32.9575,40.3971,-138.6458,-22.1064,60.4019,170.3730
-3320.3125,-67.7699,-14.7918,-131.4007,-113.6592,-219.4745,-42.6683,43.2601,163.7488,108.6019,162.6732,49.7157,-6.0648,-79.7028,22.2200,116.4998,89.5017,-61.4887,-116.7812,79.1897,108.0145
-3312.5000,21.4394,76.2369,-36.6701,-56.6029,-160.0073,-164.7869,101.6926,40.5119,131.1350,39.4519,34.5280,90.5159,-94.1642,-62.6733,101.7196,40.2325,63.3575,-163.8519,38.5054,93.3327
-3304.6875,74.2331,60.8203,54.6290,-37.0034,-69.0003,-181.3876,46.6772,-48.1793,75.2217,-123.2206,51.9134,37.6104,-39.0718,-152.0516,46.5066,-11.4974,113.7912,-3.4137,-2.6977,111.2332
-3296.8750,101.7557,55.0986,85.6374,-4.7201,1.6867,-146.3067,79.3738,-86.1806,72.0219,-87.2156,47.0239,-0.6334,-79.2774,-79.7590,42.0241,-123.5476,141.9602,-41.3037,-0.2802,70.8600
-3289.0625,77.5670,102.6425,60.9151,42.8063,-60.3782,-95.0037,54.3428,37.0406,47.0844,73.0072,-51.5958,13.3446,-177.2285,-65.2470,53.8169,-109.3809,117.4246,-96.9888,45.9446,82.7618
-3281.2500,8.8577,140.6499,-9.3435,-23.2259,-93.9969,-89.2766,57.7665,116.6973,50.5992,115.6610,-48.7441,17.7462,-173.7195,-170.3255,94.0749,-30.7883,82.3675,-93.2525,73.5060,49.1440
-3273.4375,103.5700,238.0482,52.8073,39.1286,-30.2116,-60.1720,11.6028,-37.2571,4.5281,-75.3046,14.5364,46.5135,-110.7964,-177.0409,46.7590,-1.8201,107.7386,-99.1525,-21.7607,75.9487
-3265.6250,101.1681,96.3012,85.8325,74.3306,3.4195,12.7518,-64.6953,-148.3851,-71.6834,-186.4525,10.6950,10.0998,-40.0139,-104.9401,80.3147,33.9770,70.9944,42.7640,-89.7093,109.6326
-3257.8125,101.1462,-42.0893,124.2225,41.8671,115.3949,-19.0033,-24.6371,-180.1812,-31.5411,-145.2730,13.2260,-58.9968,36.1262,-25.5288,157.2474,2.1087,35.6409,-95.0012,-101.2308,75.6938
-3250.0000,107.7137,1.0822,129.1833,-19.0568,120.9205,-48.2392,-19.0208,-135.4398,47.1493,-136.5604,18.3349,-51.5741,42.8182,55.4064,52.7514,-26.2383,-29.1168,-120.2687,-69.2618,118.3304
-3242.1875,-2.6323,-107.6952,15.2114,-126.9477,44.4891,-13.4517,49.6461,-101.6608,115.9036,-138.8068,-23.4897,-91.1319,74.5583,17.3662,158.3227,-28.5521,-34.7888,17.4804,-12.2505,114.0502
-3234.3750,-24.6520,-199.1850,30.5469,-111.5623,23.3527,40.6111,138.6349,-46.5924,94.9778,-47.7719,-7.9884,-110.4217,126.6061,-148.4208,211.2244,-10.5808,-57.1277,-1.5026,47.3804,93.0933
-3226.5625,-60.9889,-234.0165,29.5500,-75.5369,58.8680,6.2940,64.2906,64.1062,-14.2909,99.8888,-8.8048,-145.0912,126.3142,-110.5943,99.8012,-8.9834,-93.7847,70.1237,80.4908,92.8159
-3218.7500,-65.1007,-271.6506,27.7669,-77.3251,95.5812,-28.8567,102.1438,103.9926,21.6436,102.7372,26.6071,-143.5939,127.2324,1.4035,63.5990,-44.2059,-63.2099,-35.0756,92.5811,19.7681
-3210.9375,13.0269,-122.0884,70.2131,37.0726,28.5004,-19.8374,71.2096,2.0588,27.7850,-35.2426,-2.7529,-24.9298,59.3648,83.5689,-3.3788,-35.2560,14.5999,-96.1122,23.7590,62.9455
-3203.1250,-60.5015,-18.2216,-4.0110,36.7642,-120.2857,16.4564,-3.4231,-33.6028,-9.7662,-71.9580,-41.7847,47.0055,57.8039,47.0023,30.9602,73.9666,45.7490,-60.8740,-34.6642,61.4562
-3195.3125,-16.4445,132.1874,-30.6675,-22.0088,-109.5194,-7.7299,6.5106,-21.7354,-71.7488,-59.1483,-31.2350,59.4579,31.8029,22.9418,115.8689,49.7113,124.4897,-155.1157,-51.1720,35.5378
-3187.5000,-22.8458,163.1023,-74.7957,-26.2897,-116.2439,-11.4432,-72.0404,10.6059,-41.2335,-26.8687,-75.1551,18.3765,-9.6891,19.3479,109.2918,118.9347,82.7716,-52.8990,-49.2492,66.1467
-3179.6875,-81.0734,1.1735,-97.7572,-47.4284,-138.8167,39.9665,14.5544,-9.9214,82.4297,-84.4575,-97.9105,-2.5845,-32.0261,34.8708,123.8863,172.2949,59.2371,-38.5551,-17.8443,43.9404
-3171.8750,-44.9230,-32.4091,-61.3506,26.7653,-175.0358,42.6933,51.5159,-7.1118,119.4580,-8.7131,-134.2963,35.7728,-69.0067,147.7085,86.8537,99.9898,26.0871,-139.9050,2.1730,81.1089
-3164.0625,-54.8848,29.8605,-71.0693,-17.2026,-147.4024,-0.7602,-29.6610,21.5295,36.3383,55.8594,-180.8062,63.9513,-78.1361,103.3636,114.6923,129.5144,49.8203,-112.4349,-20.4436,72.1544
-3156.2500,-36.1189,82.8147,-49.0734,-67.4844,-52.0606,-14.5305,64.8713,-28.1498,58.9262,-29.8962,-159.5888,50.7951,-55.5549,90.6920,137.2535,116.7165,103.2764,-197.2895,-23.5405,20.9205
-3148.4375,-31.5718,54.5146,-45.3052,-25.0263,-47.9641,28.4326,32.1706,-21.1040,63.2834,-22.9300,-154.5944,20.3583,-51.2133,96.7441,67.5790,85.6464,37.5201,-119.4410,-9.0651,62.4608
-3140.6250,-81.5513,-28.3215,-95.0729,-73.1246,-24.4207,-19.1746,19.9208,40.3744,51.0977,38.4693,-21.1393,-27.6474,45.5804,-59.7919,92.3680,38.0000,22.2511,7.8331,25.6660,13.4825
-3132.8125,49.7974,-2.8530,6.4713,-10.9427,41.4177,-97.5076,12.9857,-1.8587,7.2214,33.1461,81.6399,2.6188,38.6822,-102.0676,48.4798,32.6371,48.3169,-68.6303,-11.9745,-30.1744
-3125.0000,34.1347,-52.4306,27.9843,-59.8275,26.2042,-74.9248,-38.9857,21.8458,-7.7044,56.7614,29.3920,-11.1934,60.7332,-6.4143,33.5515,56.2110,-3.6370,-48.1852,-23.2019,-44.8532
-3117.1875,5.5452,-79.9696,-37.4421,-86.6829,-1.9572,-28.3224,44.0985,-41.4080,38.4357,-80.5770,75.2164,-0.9877,105.8409,78.2607,115.6902,29.8181,38.4813,-144.7171,-45.7522,-72.4582
-3109.3750,-0.8630,-14.3578,-9.6951,-20.3931,63.0388,1.4088,-38.6526,-83.5383,-7.2530,-159.8064,29.2141,28.3414,135.1063,-2.9489,107.9967,22.5519,31.7947,-42.1354,-77.5367,-6.8885
-3101.5625,-94.3410,-37.8310,-34.0299,-8.2011,112.9215,16.0220,-62.5099,-105.7965,-31.0412,-72.1706,5.1258,5.5468,147.2781,-97.2822,157.2154,-36.8267,7.0413,75.3279,-69.8969,-30.3839
-3093.7500,-9.3419,50.1431,21.0969,80.4256,130.2543,-37.9350,-6.9106,-86.6233,-86.3815,-89.0946,23.5140,25.1807,92.9038,-5.1951,101.9012,-125.7701,58.7641,-47.7908,-61.1273,-48.4047
-3085.9375,-0.8564,129.5743,66.6952,90.4895,66.0472,-63.4789,-143.8486,-76.0126,-113.2679,-78.5798,-4.6192,72.2380,27.9893,42.2994,1.0441,-79.2831,101.9687,32.5039,-102.3599,-38.9491
-3078.1250,-34.9438,60.3998,33.7136,56.9351,106.2493,-21.6456,-104.3792,-71.0274,-35.7441,-110.6968,-0.3214,40.6638,32.4950,11.1500,5.5999,-37.4211,137.6105,0.1791,-90.2974,-108.0725
-3070.3125,33.8006,60.0281,103.5571,92.1747,103.2582,50.9707,-70.0975,-108.2703,-38.4087,-147.0519,-40.1994,1.8639,-7.1894,46.7779,-71.0344,-75.7824,100.0907,70.6142,-70.8630,-73.3779
-3062.5000,24.1272,-89.7785,93.9686,83.9596,93.8208,43.1132,-79.2645,-42.9788,-47.5229,-82.8595,-12.5184,-80.4027,-16.3250,38.9342,-117.1204,-119.6084,90.1447,167.5680,-25.6239,-82.1071
-3054.6875,111.7247,-71.3421,150.6406,32.9753,113.6380,-9.5211,-22.1683,-21.4409,-101.3746,-61.4226,44.4292,-96.4428,3.7923,-50.6957,-133.9310,-62.2062,143.4724,46.7446,-18.4430,-98.5679
-3046.8750,106.5509,-109.7045,143.5313,-6.8201,106.6643,-51.9812,-65.8502,47.2636,-71.0091,7.1673,0.6017,-137.3013,-2.8791,-92.1530,-212.5236,43.3791,67.0352,113.0915,11.4708,-67.8059
-3039.0625,47.2995,-168.1674,84.3383,-64.7283,195.5980,-35.5573,59.3679,26.8401,17.2557,23.6311,15.6925,-159.2834,12.3586,-113.7316,-198.2047,-14.1466,148.5271,55.3150,54.9265,-126.1198
-3031.2500,141.4240,-40.2921,181.5159,65.7009,254.8937,-47.8101,-27.0518,-59.2376,-106.1219,11.4505,75.1519,-134.9501,-1.0483,-124.9921,-210.5204,-63.3479,206.3978,44.8466,-19.0208,-102.0673
-3023.4375,179.4363,-71.5515,147.5688,-0.0238,185.0449,-6.2422,-170.6203,-17.4838,-175.6490,-20.9077,189.4764,-166.7803,75.3934,-120.4370,-170.9780,-95.7278,174.1667,119.2028,-63.6024,-98.1437
-3015.6250,235.4348,-119.8391,133.5960,-83.8111,134.1506,-18.7505,-111.2388,-29.8227,-189.2188,-70.3640,285.7764,-143.6744,135.7942,-22.9671,-37.4711,-71.1792,88.9361,-34.5134,-90.2834,-111.2584
-3007.8125,154.9757,-92.6167,84.1501,-127.1079,120.7680,-66.7858,-50.3430,-41.6863,-128.2787,-45.3463,236.6042,-155.0946,122.6989,38.9824,-13.4592,-9.1492,-26.7598,-7.7788,-60.8632,-49.8591
-3000.0000,38.0420,-139.9009,-1.7788,-172.9237,108.8870,-77.3423,85.0570,-15.0652,7.1728,18.1588,150.9496,-166.0387,111.1130,-117.5902,85.0588,54.3680,-73.9384,16.4312,18.7700,-60.9407
-2992.1875,42.2312,-64.0939,0.4031,-97.6567,38.1175,-72.8177,88.5824,62.6351,83.7418,132.7380,43.4142,-162.9080,3.6383,-151.0941,88.7038,20.9631,0.0088,-13.3002,71.3502,-20.9095
-2984.3750,-27.3554,-62.0792,-71.1952,-95.2051,-143.4503,1.8860,16.3193,212.5200,85.5219,282.5049,8.0913,-123.5969,-31.6354,-111.4196,16.5654,-49.2626,-33.8205,59.1329,127.2709,-18.6567
-2976.5625,-16.7304,-85.8759,-22.5862,-82.5736,-94.8210,52.7723,66.2590,79.6045,61.5085,1.4706,94.9797,-74.1014,18.2869,48.4330,29.6386,-72.2937,-23.4314,0.7485,55.8115,-42.1873
-2968.7500,38.4184,-31.1790,-5.4570,8.5544,-40.6853,107.1472,-27.2893,-122.8326,-32.0010,-237.0862,111.3803,-19.1193,34.7143,139.7618,83.2167,19.1677,-108.5117,22.8376,-81.8339,48.7998
-2960.9375,-27.7593,-62.8270,-75.6616,-93.6705,-37.8928,111.1614,-24.1912,-118.6490,7.1474,-86.0303,40.4467,-52.5039,74.7969,-2.2784,233.4454,23.2607,-140.9151,-9.4338,-69.1058,52.4622
-2953.1250,-39.1153,31.3138,-50.0554,-104.1146,-13.2946,-8.0437,111.7291,18.3040,70.1180,86.7942,-6.6688,-100.1057,26.6910,-159.5386,185.4806,-96.8660,-12.4900,-159.9354,49.1798,41.9404
-2945.3125,-80.4400,26.4611,-55.4243,-108.5676,-54.6842,-86.2767,106.6547,87.2407,65.0784,119.6060,-47.7640,-104.7177,21.5876,-200.8233,33.5167,-101.0133,16.9624,11.5286,102.9536,37.4405
-2937.5000,-31.4425,-98.0902,-0.4814,-58.7345,37.2297,-30.2271,162.8727,34.4717,84.3270,29.7197,7.4595,-158.0442,4.7891,-143.8373,16.8557,-153.8864,31.7402,25.2758,99.9359,-52.7430
-2929.6875,44.3737,-92.8393,78.2781,52.8853,151.9559,-24.4013,130.9108,-33.5017,53.3955,-1.3630,12.4945,-115.5916,-27.2037,-101.0831,-52.0057,-147.9843,-34.6563,66.7850,69.6446,-47.1173
-2921.8750,-16.9984,-189.7850,14.8508,-8.7032,88.4839,24.1978,141.7623,52.3219,174.2850,10.3437,23.3297,-141.3544,-16.3978,-126.5518,-4.0596,-64.2943,-96.2340,76.0764,110.4405,-72.6744
-2914.0625,-4.2035,-140.5824,-7.4150,5.8522,30.1700,2.9348,229.7758,104.2601,152.3326,63.1537,-35.6715,-126.9759,-75.4331,-38.8827,-25.9497,-48.4596,-12.6411,-16.4976,148.5985,-94.0700
-2906.2500,-40.4811,-36.4743,-46.7622,5.3017,27.7678,38.5596,80.7006,177.0661,40.2874,134.8357,-74.7561,-91.7098,-113.5643,-76.3335,-137.9311,-12.7305,-13.1283,124.7990,144.5079,-58.5474
-2898.4375,-16.9506,-48.5797,-20.3030,29.5337,127.1656,65.9644,70.4365,93.6671,29.0611,52.3250,-11.0323,-65.6595,-50.8915,-159.0001,-185.1081,-59.2107,9.1996,112.8769,103.7039,-105.2111
-2890.6250,78.1486,82.8591,114.7203,55.3022,152.1253,17.9000,58.7415,46.8097,-18.5999,41.3489,51.2534,-77.0705,-62.6646,-170.1354,-232.7310,-142.1536,34.0998,68.4760,77.8633,-79.3152
-2882.8125,74.0206,-26.9388,73.5157,-19.1809,110.8436,-59.4330,-18.2112,116.6829,14.4853,185.1002,47.2970,-80.7415,-66.6875,-136.5426,-199.6036,-109.3547,-5.2199,64.8121,80.3682,-82.6482
-2875.0000,115.6528,-54.9922,117.0673,24.0727,154.3125,-52.0230,25.5895,51.2943,21.3239,8.5947,54.1056,-36.6804,-22.9566,-57.2140,-192.7189,-65.8140,36.2319,-34.1186,40.9232,-75.2224
-2867.1875,73.6555,43.3089,104.9777,86.6661,105.1351,46.7297,-96.2496,-143.7528,-64.4733,-185.5644,4.2662,61.7164,1.1233,78.4620,-205.4820,-2.9319,64.0429,64.2688,-89.0618,23.5647
-2859.3750,55.1607,60.1090,86.3861,33.7472,86.4548,28.9730,-78.5851,-161.3068,-9.7588,-167.2210,96.9256,80.6086,19.6952,-12.3782,-186.7419,-56.5532,80.3639,81.1449,-82.6152,5.8677
-2851.5625,214.8771,151.1060,143.0060,89.0101,31.9858,-22.6021,-131.7108,-103.6650,-98.8381,-109.6842,153.8011,63.6912,39.4769,-102.0514,-239.7929,-72.9907,134.9148,31.1933,-89.4166,26.3769
-2843.7500,176.2242,112.7201,102.2543,121.8752,-8.8668,10.4020,-209.2451,-69.4529,-139.3294,-75.5833,150.2939,23.3701,-1.1340,-68.1364,-207.2455,-38.8468,61.0970,62.8233,-104.8387,23.4969
-2835.9375,61.5922,32.3307,20.5169,77.7328,57.2913,76.4028,-33.7827,-40.2729,-37.8277,-10.5168,68.8012,53.0435,-8.7322,-3.2236,-68.6946,-46.7121,-19.7071,-121.5557,-39.3831,-20.3751
-2828.1250,-34.9205,42.0367,-45.1038,16.6820,27.5549,47.4954,10.7944,4.9891,6.7811,34.6374,-69.5862,97.8145,-37.2268,115.7749,12.9542,-1.4837,-115.3917,-76.8665,3.3626,24.8631
-2820.3125,-69.2264,41.9484,-118.5167,-53.1816,-9.9808,47.7718,10.5736,5.4480,6.6038,-1.0057,-69.7779,97.7828,-37.5266,115.9546,49.7958,71.9376,-115.8619,-41.9874,-3.5249,25.3137
-2812.5000,-54.9262,162.4580,-67.3256,66.5342,-67.9039,-9.3639,-12.0371,56.5004,-15.9671,123.9470,-92.3622,75.3417,-96.2198,93.7280,-45.7582,123.9446,-101.7143,-97.5290,10.8384,40.3651
-2804.6875,-101.7626,80.8237,-115.2731,91.0947,-78.9639,16.3350,-58.7993,157.3930,-26.6931,223.7422,-140.0895,27.7455,-144.0563,46.3379,-92.4580,187.7875,-112.6953,-2.2407,55.7457,30.2744
-2796.8750,-21.6906,-82.9092,-29.3139,67.5490,-30.1154,66.9258,-8.6599,61.1715,-12.5096,-19.5744,-89.9068,5.0401,-93.9868,134.8184,-43.2544,128.5237,-32.7635,6.9421,13.5877,-28.9134
-2789.0625,48.8526,-14.1881,79.1121,172.4497,41.1983,175.9537,-120.0587,-160.6232,-87.8639,-203.4577,-55.2661,39.7825,-59.4665,205.7378,-81.5989,52.6902,1.6403,76.5497,-115.5461,6.3457
-2781.2500,18.1124,61.2434,48.2573,142.0497,84.2222,181.6676,-187.7547,-153.7343,-154.5151,-123.6585,-49.9226,46.2219,-17.2467,102.3494,-39.2547,22.5397,-29.2388,45.8505,-142.3970,-23.6921
-2773.4375,58.0818,136.3719,53.1116,112.3392,51.9577,77.0731,-109.7386,-74.1604,-113.4618,-45.1755,-7.8716,51.3563,-49.3223,70.6432,-34.2130,28.0815,11.6000,-89.1614,-94.5476,-18.0302
-2765.6250,24.1597,102.6038,14.0772,43.7209,-59.1963,3.5614,-73.6118,-38.4949,-77.2937,-45.5979,-44.7225,49.5848,-49.2983,143.0260,-35.0753,63.7184,12.5555,-17.0940,-58.0771,54.7375
-2757.8125,-25.5158,53.0741,-36.7076,29.3262,-74.0971,-10.7134,-16.2203,20.4206,17.1433,49.2366,-23.3256,35.0580,-28.0210,91.6484,-49.6800,13.6006,32.7625,-101.7856,-4.8123,40.7565
-2750.0000,43.4153,87.1393,33.1103,63.5116,-77.3838,-50.4055,-18.2063,18.9242,51.2031,83.6586,-25.3241,69.1257,-67.1408,52.8565,-88.6738,48.0780,-3.4117,-137.9015,-1.0901,75.3720
-2742.1875,8.3095,18.1602,-3.1088,-6.3586,-114.7110,-87.1541,-18.2440,19.3574,51.2074,48.0094,-62.3655,106.1452,-104.3048,88.9994,-88.7193,158.4997,-3.6217,-68.0694,-4.2255,75.9439
-2734.3750,15.3078,94.2857,3.7765,-34.1391,-144.9214,-115.8096,61.8236,26.8693,58.3211,55.4501,-55.3009,113.2622,-97.3636,96.2346,-81.6672,129.0075,3.2775,-167.1399,16.5967,83.6132
-2726.5625,-5.6712,143.4161,-20.3222,-19.9261,-243.1148,-30.4754,-72.1034,112.3681,-38.5556,177.8812,-80.2262,53.3734,-85.4209,73.4588,-106.6254,69.4935,-52.8031,-12.2232,30.8701,133.2795
-2718.7500,-69.3397,44.8433,-84.1057,-48.4277,-232.9994,17.1477,10.2742,159.1570,6.8766,151.6099,-32.8544,25.7783,-38.1774,-27.0364,-59.2870,42.2726,-45.5681,-6.0124,80.2309,70.2453
-2710.9375,-33.1968,115.0644,-47.0767,22.8573,-160.0699,-19.4465,10.4698,122.7335,7.1153,115.1303,-69.6766,61.9784,-38.1320,-100.7456,-59.1391,78.8463,-11.5166,-76.0319,55.5749,71.0073
-2703.1250,-122.2927,97.0444,-102.2858,4.8825,-141.3886,-74.3007,-43.5828,142.0475,-10.8862,171.3841,-124.7475,80.9275,-20.3350,-81.7113,-41.2399,98.1601,-29.6988,11.6872,50.7005,53.5262
-2695.3125,-22.3376,22.0735,-33.4429,-1.0583,-107.6494,-40.1089,-10.5776,102.3969,-13.8260,57.6774,-18.7617,114.9276,-24.4845,24.3611,-45.2874,58.5162,0.1826,-99.5499,19.6185,14.0916
-2687.5000,48.8312,58.3036,2.6077,35.1978,-108.6964,-40.7267,-120.3625,64.9340,-86.5554,94.1701,-18.5750,151.1273,-24.4284,60.6238,-81.1333,58.0550,-33.7243,-63.6056,-32.3854,50.8512
-2679.6875,-54.9459,24.5864,-66.2824,1.4990,-68.6778,-0.3023,-80.0974,70.5066,-9.2384,99.6987,22.6561,119.3824,16.6812,28.9248,-77.9261,-10.3604,3.4281,-27.6130,-3.4542,-17.3402
-2671.8750,-11.0633,138.5201,-19.5110,80.4363,15.0052,9.7670,-70.1719,-30.2906,-36.2650,-74.1420,32.5453,165.2880,26.4508,75.8628,-105.0708,-37.1312,81.2456,-54.9882,-59.5632,-43.8884
-2664.0625,-50.7193,134.9105,-23.2800,76.8078,11.1468,43.2753,-182.7919,-69.6439,-113.8331,-113.5268,28.8906,198.6382,59.6746,145.2478,-144.7773,33.5406,42.5225,47.0673,-119.8286,-46.9883
-2656.2500,-25.6280,124.0400,-32.3000,-4.0969,38.0525,-2.4798,-82.6441,-5.2478,-85.6331,-13.1537,55.9894,189.7308,49.6541,173.3738,-80.7364,-12.0550,-3.4442,-105.1340,-72.3028,-92.3469
-2648.4375,-20.8789,128.8192,-29.6597,35.6404,-32.3740,-36.5946,-79.8285,34.7859,-8.7653,100.8540,59.7410,155.4654,-20.7146,66.1444,-4.0483,-9.0148,-69.7402,-65.7072,-32.7456,-52.0651
-2640.6250,-42.6244,37.0993,-88.5121,13.8709,-128.2931,15.7898,-27.5093,87.3045,42.6021,115.3512,37.9847,60.7049,-42.5844,-29.5968,84.1459,43.5240,-91.5290,18.2180,18.0244,-73.2847
-2632.8125,-2.2197,112.5180,-46.2080,19.2361,-86.0557,-52.6812,-22.0255,92.9611,12.1263,120.9873,6.3812,66.0987,-0.2941,-24.2006,52.4996,49.2068,19.8456,-82.7202,5.8985,-67.3609
-2625.0000,-84.4483,171.2953,-96.5383,-28.0550,-25.4522,-64.8177,-109.1869,116.9495,-74.9950,181.9561,-43.8722,52.8446,23.3540,-37.4574,40.2029,110.2236,-26.4148,81.6799,2.2296,-43.0889
-2617.1875,-111.9764,73.7725,-87.1656,-55.6574,20.8585,-56.2629,-25.6486,52.6224,44.5910,44.6181,2.5773,-11.7083,32.7090,8.9780,85.6090,118.9347,-53.9690,123.7786,9.4604,-70.1241
-2609.3750,-24.3507,20.3995,2.3678,67.8824,36.3346,-3.5666,-9.9406,-41.5698,61.3386,-49.5803,18.1796,-33.1099,48.2214,61.5638,-8.8357,61.7864,-107.3636,176.0037,-4.1872,-17.0208
-2601.5625,-37.1665,-132.4229,-47.5413,18.9617,23.3730,20.6717,-22.6774,18.7733,48.6487,10.7657,42.3276,-45.9592,72.2844,11.6970,15.2657,86.1717,-190.2014,197.7824,20.1524,-29.3711
-2593.7500,-9.0831,-140.3502,-55.5440,-24.0750,15.3266,12.8011,116.4975,85.0123,40.8625,77.0127,71.3699,-53.9076,64.2546,3.7149,44.2702,41.4430,-162.1305,13.4636,81.1181,-36.8346
-2585.9375,-83.5362,-38.8182,-97.0837,-27.6674,-27.2515,7.3744,38.1258,79.6927,72.5176,108.7062,28.8632,-22.4057,-15.3225,-37.8295,1.7154,36.1534,-96.5866,150.5857,78.2631,-4.8588
-2578.1250,-82.1401,-72.4411,-55.7669,9.5818,-21.9756,49.7889,42.6009,48.2195,40.0264,40.2474,70.2006,-54.0486,-10.0457,-106.5430,7.0141,4.7153,10.8163,187.5648,61.3849,-73.0433
-2570.3125,64.7049,-66.6232,60.0062,85.2759,56.7619,18.6444,12.5463,-19.8073,-26.9952,-27.7598,75.9819,-48.2362,-4.3187,-64.8022,-24.2411,-63.2867,51.6702,156.9861,13.8935,-66.7965
-2562.5000,35.2937,-131.0435,67.5382,20.7175,101.2599,-10.7566,-16.7548,-49.0849,-93.2639,-20.0125,120.5017,-3.6622,39.1494,16.7034,19.2407,-92.5502,-12.7263,163.1598,-20.8091,-95.8126
-2554.6875,87.8825,-79.4604,123.0705,37.1482,156.7678,-29.1529,37.9432,-140.3794,-37.5266,-148.2847,139.0206,50.9190,57.6196,71.2121,0.7168,-73.8104,38.8871,3.3318,-65.9880,-113.8468
-2546.8750,122.9902,-8.3661,83.1224,73.0757,43.7893,4.9516,-37.8557,-179.1990,-40.2909,-224.0767,26.0386,86.0075,55.5960,106.2120,-1.3050,-2.5829,75.0180,38.9911,-112.9757,-42.3921
-2539.0625,21.8521,-39.5184,15.9282,-29.2501,12.5666,47.7988,41.0942,-136.2784,75.6927,-181.1117,-5.1986,54.8529,24.3243,74.9530,114.4333,-33.6181,78.9013,-28.6008,-64.4920,-73.1914
-2531.2500,61.8097,-34.5754,55.8335,46.5090,15.4569,-23.2616,81.1622,-133.2681,78.7935,-141.0554,-2.3337,57.8049,-9.8376,40.7885,117.2817,-66.5587,118.8900,-129.1096,-50.9859,-32.9033
-2523.4375,61.4221,-34.9707,53.3937,44.9081,13.0042,-60.6782,-31.1155,-135.6244,3.5475,-106.3564,69.1810,55.4152,24.6543,-34.7258,114.7767,-67.8531,83.5395,-58.9759,-87.2097,2.0272
-2515.6250,41.6341,-124.7749,31.5536,-44.1155,65.1573,-45.4981,58.2140,-120.3867,55.9116,-91.0541,121.2902,33.6247,113.7527,16.3550,203.8790,-89.5605,-7.2058,-185.2402,-59.1181,17.5406
-2507.8125,-33.3527,-128.7824,-13.4772,-84.3493,19.1257,-18.5275,48.3723,-56.3571,83.0955,-26.9582,38.1959,61.6311,103.6561,81.2330,194.7832,-25.4870,-81.1402,-190.7227,-22.8965,118.8383
-2500.0000,-117.5369,-107.9958,-138.7012,-63.7953,-31.0970,-32.7650,71.3378,-33.5382,106.0931,32.9286,59.8953,47.4358,89.3620,-6.0905,180.4831,-2.6196,-60.2623,-99.4071,11.1885,104.9250
-2492.1875,-21.6144,-48.1227,-37.8178,65.8389,-5.1982,-42.9139,61.4192,-43.6254,59.1975,22.9147,13.7008,1.3391,42.1830,-53.3303,59.2836,-49.6578,69.7245,-75.0117,13.9138,95.0931
-2484.3750,-37.7318,-98.2951,18.0300,51.4102,-58.3326,13.8708,-27.5420,-23.7735,79.2579,5.8454,-2.5383,-15.8023,-47.0354,-33.6338,42.0340,7.2435,19.6698,50.3242,7.0759,115.2031
-2476.5625,-58.0509,-224.6639,-2.3199,30.7640,-78.6545,-6.5578,98.3039,-7.1447,133.1277,-51.4457,-22.9724,-73.1428,-30.4393,19.8565,132.6039,59.9337,-34.5772,-6.5351,43.6562,95.1001
-2468.7500,-51.0623,-111.7385,3.6388,36.4060,-110.6575,-1.6895,66.4674,-39.2331,28.3136,-82.4446,-18.1029,-68.1918,11.4661,24.6428,137.4845,65.9034,-28.5070,-0.1136,8.2474,137.2783
-2460.9375,-85.2770,-41.0230,-67.5941,-33.1604,-70.8456,0.9753,-39.5595,0.4727,-78.6886,-6.6439,-15.4417,-28.4424,86.1809,27.2172,66.1604,31.6638,-26.6305,36.1073,-15.8879,103.2450
-2453.1250,-25.0904,-16.9277,-5.4210,-44.3490,-8.6134,27.0304,-14.1633,-10.4337,-52.2693,19.5460,9.6167,-2.2971,38.3148,52.1808,-17.7587,-53.1956,-3.3433,-151.2714,-16.8556,92.5894
-2445.3125,-35.5395,-61.4868,-89.8784,-89.1935,-93.0088,15.4195,11.6044,-22.0044,9.5120,45.0808,-37.9722,-50.8004,-8.1958,4.4816,7.6714,46.2729,-11.6933,-126.3090,-4.3362,118.2630
-2437.5000,-99.4394,-160.5046,-153.7780,-188.4979,-119.8400,-11.6541,204.9240,96.9677,129.8431,127.1716,-29.0084,-77.7530,-0.1470,-59.6773,53.6626,54.2842,-75.4923,-190.7910,116.4635,54.4649
-2429.6875,-85.3814,-76.5688,-104.7145,-104.8648,-70.7011,0.2071,181.2088,145.8687,31.1375,176.1966,-90.0902,-102.7575,-23.1369,-10.8902,-7.3792,-5.7564,-132.3314,-142.3418,143.8940,103.5924
-2421.8750,-120.0208,-111.3242,-141.3401,-139.9387,-107.2527,37.3541,70.8025,146.0495,31.7466,139.5030,-89.8780,-102.4589,13.1782,-10.8101,28.8899,31.4948,-166.8589,-37.5914,106.2704,104.0080
-2414.0625,-93.5580,-84.9935,-147.8627,-148.9236,-76.6947,29.5947,211.5132,65.3140,136.4628,22.8981,-59.5676,-72.0574,5.6024,18.3672,-14.7292,23.8337,-140.2712,-81.7436,119.1538,60.5038
-2406.2500,-148.3823,-69.9705,-167.6712,-169.2239,-96.4239,82.5201,191.9442,82.2726,79.8894,112.9928,-116.5560,-18.9579,-50.2725,108.2483,-70.6409,39.8633,-124.9689,37.7745,135.7886,40.6824
-2398.4375,-169.8106,-126.5651,-150.0796,-192.1496,31.2531,100.8314,210.7894,100.6309,60.7394,130.4962,-63.1493,-75.4632,-32.7373,52.5195,-90.1354,21.2967,-77.2727,85.6794,155.4909,-51.7509
-2390.6250,-16.7394,-113.6742,10.0120,-108.6086,154.4405,76.6285,113.1648,39.4851,1.1135,-3.5032,-50.2436,-98.4696,17.3125,-8.7039,-150.1121,34.2183,6.9207,133.0666,91.0284,-38.7041
-2382.8125,-50.4188,-147.5299,49.3572,-106.8363,193.8837,78.6648,-31.1950,41.5809,-70.2541,-1.2599,-48.0927,-169.2161,56.6188,-43.6680,-111.8285,36.3739,-25.6242,310.6972,53.7649,-36.4199
-2375.0000,-41.2513,-139.5422,60.5534,-100.2358,242.1841,53.5416,54.3115,53.5158,-20.7541,83.8314,-73.0915,-158.1129,30.7874,-68.7947,-25.6788,-62.6392,-52.3059,213.1760,87.3376,-98.3049
-2367.1875,-20.8730,-49.3626,43.9612,-45.4433,189.7022,109.6114,38.0374,-0.3654,-37.0333,31.1075,-52.8869,-137.8157,15.1672,-48.7394,-42.3058,-115.4608,-66.7867,267.8406,65.5720,-78.0064
-2359.3750,-21.7437,-85.4440,45.1201,-10.9185,189.9812,147.4213,76.5223,-110.5078,37.4438,-151.8688,-14.9315,-173.7734,89.3096,-84.9433,-5.1693,-115.5358,2.4808,266.2570,22.7469,-113.9696
-2351.5625,93.6341,-4.2893,127.5318,68.8280,199.5231,118.4691,12.2837,-211.4098,-26.8092,-253.6038,-6.7233,-128.4886,97.7207,-39.9087,4.2251,-106.3780,119.0236,170.9189,-68.5742,-68.7083
-2343.7500,37.6264,-26.5367,102.5629,11.1658,174.6940,57.1053,-86.3430,-125.7362,-14.4530,-130.7587,-31.9074,-115.6111,73.7439,-100.2810,16.2207,-21.6448,62.1858,254.1809,-51.9224,-19.8681
-2335.9375,15.7742,-118.6458,45.7617,-10.3571,192.0387,-0.1180,41.1907,-73.9353,76.0608,32.2144,22.0608,-172.5850,89.9352,-194.5162,143.3818,-4.7763,5.5006,125.5988,10.1901,-76.9009
-2328.1250,18.9224,-10.7611,47.9692,27.1004,193.4057,-36.3525,6.7528,-36.1510,4.6037,-3.8209,23.0221,-134.5545,55.1319,-119.7619,144.5613,-3.9245,-26.1761,127.9987,2.4302,-38.9583
-2320.3125,-22.7768,18.2694,3.3335,-15.2944,75.9313,29.5615,-37.5164,-116.2235,-2.6836,-83.7090,15.1249,-69.3756,84.4862,-54.8505,173.8847,62.0587,-32.6957,86.5443,-66.5618,-9.8842
-2312.5000,69.8260,250.5612,60.0121,5.6003,21.7769,12.7776,-17.4864,-207.0147,-19.6709,-174.3077,-38.4575,97.0934,-6.8325,1.3557,120.5100,8.3348,130.0984,-138.6042,-126.0111,46.4632
-2304.6875,76.0997,433.4903,65.3670,-22.8656,-44.6959,-55.3702,-120.7953,-276.1786,-49.0116,-206.2709,-106.3750,323.2023,-73.4741,43.1950,51.8108,-22.7619,172.5600,-132.1229,-196.9978,88.4339
-2296.8750,79.3794,435.4135,32.7281,-91.3535,-114.1569,-51.5439,-79.0856,-235.3541,-45.3329,-239.2417,-65.2973,364.3002,-69.1080,83.0206,56.1488,-18.8701,210.0355,-200.6437,-186.8346,55.3853
-2289.0625,59.4647,522.1296,46.8990,-41.0642,-172.8032,-0.9444,-174.5382,-184.7574,-103.8159,-151.4440,-161.4087,451.1862,-128.9269,133.6358,-2.6879,-42.1905,191.3280,-115.3674,-181.0920,106.1091
-2281.2500,-72.6758,494.5923,-16.1587,-34.0254,-126.6811,80.3892,-201.2231,-138.4431,-93.5305,-68.9252,-225.7517,460.8135,-118.9809,143.0017,-29.7762,-106.7816,94.3840,-2.3478,-141.3914,78.5627
-2273.4375,-12.6489,413.1860,48.9475,60.1481,11.6100,34.8572,-98.7590,-183.9956,-65.1072,-77.2616,-197.9294,415.5736,-126.8539,97.5103,-74.7079,-152.2396,154.6001,-119.1699,-125.0154,33.1425
-2265.6250,71.5978,390.9667,136.2743,72.5090,-11.8700,-24.4841,-196.0934,-208.3701,-124.4896,-138.4090,-147.9006,355.5186,-76.5008,0.1988,-134.3913,-65.5273,203.0320,-71.8001,-179.0813,45.8970
-2257.8125,78.5995,362.4796,109.3592,8.6028,36.4050,-52.0858,-111.6652,-162.0094,-114.1089,-127.8257,-65.1161,292.2008,-67.3878,-27.3801,-160.2802,-129.0760,211.2183,-65.6778,-127.2378,-17.6126
-2250.0000,117.3465,295.7112,150.1925,47.4089,113.4329,-84.9499,-107.4606,-158.9037,-109.9515,-124.5059,-97.5771,221.6259,-63.5087,49.7910,-193.4069,-162.8683,215.1680,-27.8201,-113.1459,-14.3921
-2242.1875,49.3495,121.1748,152.2887,83.4413,152.7354,-11.5855,-140.9770,-157.5545,-143.5107,-159.9317,-95.7924,149.3040,-24.3725,14.2148,-191.2959,-124.4173,182.3691,79.2571,-110.7668,-12.9350
-2234.3750,106.6428,107.9158,213.6894,104.7528,251.3544,-24.9356,-117.1689,-170.9126,-192.7450,-210.0581,1.2914,136.2800,0.0820,-36.0712,-166.8704,-137.6850,169.8633,-40.3751,-128.6186,-26.1957
-2226.5625,108.3457,144.0490,213.4994,140.4365,177.3862,-24.8958,-226.9278,-97.8890,-229.5613,-136.8077,0.7869,136.6546,-37.0445,0.0339,-241.0059,-101.5827,100.7696,-4.6312,-132.0409,9.9191
-2218.7500,44.7014,44.8245,112.9649,110.7541,151.0734,-16.2239,-179.0269,20.7739,-181.7291,19.0925,10.9251,35.6773,-26.5056,-27.2122,-157.4635,-128.8330,37.3348,1.7538,-57.3481,-54.3285
-2210.9375,80.1500,79.6714,113.5378,145.1643,151.8714,-53.4604,-106.0061,57.5238,-180.7767,56.0780,-25.8418,-1.2077,-25.8491,-64.3769,-120.7986,-165.9960,108.0069,-34.7574,-16.5792,-54.4981
-2203.1250,41.9670,40.8604,73.4825,105.9201,149.0368,-20.3568,-108.6092,16.5973,-183.4556,15.3853,-66.2571,-4.7561,-65.8301,-31.2042,-159.7740,-96.8270,105.0421,67.0692,-23.8305,-58.3366
-2195.3125,21.8391,-14.9298,17.4851,84.7040,92.2630,-4.2157,19.8575,-4.2846,-57.0681,-5.2491,-86.6072,-25.2707,-85.7429,-14.9888,-106.6916,-44.6358,121.1380,-24.0652,6.5692,-79.1461
-2187.5000,6.3217,73.8446,-1.9020,68.0606,0.1103,-24.4848,0.9583,86.4227,-2.0580,85.7001,-141.3433,-8.1956,-140.0313,-71.1745,-88.9913,9.1377,34.8463,-6.6199,49.5605,-25.3855
-2179.6875,-84.7395,18.0735,-58.8264,11.8649,-56.5652,-81.3121,55.5222,138.5479,52.4116,138.0536,-125.6323,45.3332,-123.8467,-91.9128,-34.8089,25.3455,15.0124,-27.7237,85.9795,-46.1907
-2171.8750,-17.4075,48.6972,11.6561,7.0614,-96.8233,-85.7413,88.5011,134.0427,85.2927,23.7784,-56.5219,78.2519,-91.2331,-23.2674,-1.1920,-16.0527,11.5806,-102.4249,72.7251,-50.6170
-2164.0625,-43.9147,22.4536,-15.7013,15.3994,-158.9187,-41.0354,-11.3407,106.6753,22.3497,32.6579,-47.2510,50.3053,-81.4568,59.5183,45.5893,-44.3120,-13.6887,46.9992,34.1670,-41.9152
-2156.2500,-31.1127,-72.5094,-36.7509,-43.9806,-144.7075,-26.0581,41.1331,157.6052,74.7264,157.8401,-31.6754,-8.3473,-65.3699,37.5959,97.6910,-66.2806,-1.6551,-12.2772,75.9128,-100.9292
-2148.4375,-44.1013,-51.2851,-51.5846,11.8180,-122.2821,-4.9055,27.8258,178.7169,97.3147,179.1974,-83.8908,-23.7985,-117.0684,-15.1345,46.0287,65.9379,-14.4114,8.6384,89.6315,-79.7625
-2140.6250,-56.2730,-64.2552,-63.6034,-1.5936,-134.0433,19.0295,16.3291,91.6100,85.7139,56.3368,-22.3129,0.5508,-91.9606,-65.0657,71.1786,125.9468,-61.3539,100.3382,45.1334,-92.8034
-2132.8125,56.3500,13.5436,18.1738,39.7700,-126.0026,-11.2527,60.6508,25.3039,93.9433,-10.7222,58.0704,7.6815,-47.0385,-58.2051,79.1449,-51.2458,-18.4901,1.8298,23.9982,-86.0551
-2125.0000,31.8899,23.1997,26.8627,14.0127,-116.0565,-112.6561,-3.1016,69.8909,103.0912,108.1162,67.3710,-58.3065,-38.1981,-50.4526,52.0435,-43.5472,-43.7161,46.2022,35.7420,-41.4209
-2117.1875,-30.6645,-76.2689,-0.5336,-50.8618,-33.2016,-141.1694,80.0478,78.3703,113.1335,42.8435,112.5767,-49.4065,8.5558,-4.8011,60.8738,39.0459,-35.0399,-17.5116,50.1375,-69.8930
-2109.3750,74.6921,99.1504,34.9832,19.1557,2.5753,-143.7867,-30.8951,1.7209,2.0759,-33.5575,74.6978,59.3875,7.2295,29.7436,-13.3695,36.5202,35.5474,-54.3247,-38.5519,-35.4805
-2101.5625,34.7148,93.2311,-43.8281,-58.1796,-38.9787,-112.7608,-35.1876,-4.3021,-2.3344,-39.3320,69.4852,90.8300,39.5697,-13.0754,56.0565,-6.3771,-4.1997,10.4991,-38.1126,-41.4278
-2093.7500,-29.4163,63.1420,-35.7843,-53.6876,-30.6730,-70.9086,120.3807,39.5234,116.1283,-32.2464,40.1300,24.1044,10.7828,-43.0669,137.3431,-36.4314,-33.0897,-55.8301,42.2636,-71.5393
-2085.9375,-43.1375,84.4205,-50.3365,-32.8153,-44.9550,-12.6733,70.3930,60.7465,102.0201,63.2208,-11.8184,8.7591,-3.5866,-58.6624,50.0467,-15.0976,-81.5667,1.2176,55.7031,-50.2695
-2078.1250,-31.8400,-46.3245,-72.8761,-22.9573,-30.2281,37.5461,47.4153,72.9565,79.9190,112.6783,2.2408,-51.5969,11.0588,28.7353,26.7725,-38.7706,-35.0438,-24.7413,47.8483,-111.0049
-2070.3125,43.5590,-6.9919,4.6829,15.9804,10.6013,39.8550,15.5487,39.2589,10.9375,5.2273,42.4172,-48.8585,14.8279,104.2199,-5.3587,-109.3606,5.5721,-56.6127,11.8644,-71.6512
-2062.5000,-11.6848,-64.3223,-17.3961,-5.7384,25.7928,53.5096,-5.9436,15.8943,-10.6842,19.1086,56.9516,-34.7851,29.9572,82.0627,9.8894,-59.6154,-85.4557,27.8444,4.7946,-57.9557
-2054.6875,20.1696,-138.5714,18.6276,-45.3767,98.0980,14.2577,66.6750,13.6189,25.8097,54.0859,91.5845,-73.6288,65.1986,-30.9999,9.2571,12.2173,-17.3790,-46.5961,24.2876,-97.1696
-2046.8750,34.9780,-89.8974,-5.3859,2.9296,38.3694,25.9485,7.2721,-48.7143,39.2637,-45.0034,68.1648,-61.5371,115.4045,-92.1341,59.5966,60.9947,-38.3307,1.8998,-26.2801,-48.4471
-2039.0625,-24.9971,-150.0308,-67.1825,-59.5571,13.8453,73.8250,57.0745,-74.8661,51.9205,-142.9207,78.9547,-50.2478,127.8252,-45.0815,182.1510,-76.0404,-63.0747,45.5982,-21.1611,-74.5252
-2031.2500,19.6380,-37.5883,-20.3757,-51.4574,96.9230,45.2930,67.4953,-102.4308,-11.8035,-134.2447,88.3602,-41.3745,100.8619,74.5636,81.3215,-176.4936,-17.2245,-52.1034,-34.3501,-66.0132
-2023.4375,-43.8217,-66.2640,-49.6601,-115.4687,104.9002,14.6467,75.8356,-60.0910,33.3893,-55.6582,95.6722,-107.6153,145.8008,-29.8928,-20.5902,12.9487,-45.4783,-9.9215,-0.6903,-59.6084
-2015.6250,-52.1886,-180.8628,-93.8450,-195.3954,60.9787,-67.9115,216.2856,5.3479,210.7047,47.0215,125.0734,-188.7641,175.8438,-148.2566,82.6374,151.4927,-53.6377,-161.6347,63.6889,-105.1040
-2007.8125,-33.1101,-163.0355,-75.5739,-177.8771,-30.4852,-123.0362,272.2136,59.2166,229.4879,137.1208,69.9290,-134.4721,84.3512,-58.1707,65.3528,-15.5316,-69.3317,-107.8979,132.2031,-51.1541
-2000.0000,-70.4139,-236.6169,-112.6894,-146.7594,-67.3421,-15.5773,271.7458,93.6731,229.8808,135.8018,-4.6075,-136.5934,47.4764,14.5111,64.6710,-126.9583,-71.4142,-5.5678,164.4868,-89.6001
-1992.1875,-17.3134,-220.8094,-19.4012,-25.2550,-10.7978,39.2639,254.6879,38.5316,175.6774,43.8901,14.2656,-191.3332,30.0095,-78.4319,121.3975,-35.9850,-18.0878,-24.8390,119.8762,-108.6507
-1984.3750,-22.5531,-156.3567,-26.4536,-32.1037,19.3997,30.7436,101.2914,-6.9669,95.1257,-38.3853,79.8045,-162.4392,60.2062,-122.7202,188.7958,29.6333,-59.1118,38.5227,31.7442,-80.0530
-1976.5625,-14.3329,-150.4624,-16.0545,-96.5083,66.0422,2.6739,149.3249,-72.0222,143.0055,-139.2204,163.8052,-190.0997,106.8622,-77.5419,199.6656,-35.3068,-14.6826,10.3403,13.2328,-107.9981
-1968.7500,57.5031,-114.9810,57.9490,-25.3268,67.2942,1.2007,112.9523,-109.4847,70.4852,-139.4619,126.4284,-154.1690,107.1264,-41.7748,89.1558,0.3561,22.3519,-24.2592,-19.1676,-72.3476
-1960.9375,47.1503,-196.7203,47.7594,-37.3630,57.3500,-10.5003,67.4065,-85.1438,96.7860,-41.9032,78.8611,-165.4598,97.2008,-90.2121,79.4687,98.8209,12.1828,-72.0804,-25.9990,-83.8902
-1953.1250,89.3284,-154.9449,55.1031,-102.8739,27.9515,-41.6635,148.4368,-42.2495,141.6690,1.2094,49.8456,-196.2218,104.8389,-47.0919,124.3652,68.8340,54.5562,-206.3541,7.9352,-77.8786
-1945.3125,10.7632,-93.9290,6.7029,-77.1332,-20.1943,-89.5766,138.7422,-18.1204,167.8102,25.5415,1.0895,-171.7351,57.7439,-58.7410,114.5411,56.0844,47.1901,-40.3845,44.4965,-16.6158
-1937.5000,18.5598,-124.5554,-19.3398,-72.0346,28.0137,-118.1496,186.3969,-8.6500,216.3072,35.2226,11.6866,-125.9096,69.0011,-123.0651,162.0821,28.6744,19.1751,-70.0617,61.0080,-80.9951
-1929.6875,116.3010,-28.2561,45.5613,-80.9950,56.1694,-164.7838,178.0222,-56.2277,170.7736,-49.1442,39.2466,-99.1506,23.2124,-132.4465,190.5977,55.2066,12.1082,-113.7952,20.9263,-54.4289
-1921.8750,31.6024,-149.4254,-44.9776,-202.4049,-34.1227,-182.8736,199.2146,36.7407,191.7867,44.0192,59.3742,-152.8528,43.9742,-150.2719,174.6692,111.2788,-3.3984,-24.9833,82.8928,-35.3111
-1914.0625,24.7573,-332.7619,-12.6599,-174.9594,-1.5585,-152.1063,232.2395,140.5486,187.6350,148.0219,54.3587,-195.7112,76.5946,-47.2478,60.5966,31.1926,25.9371,-68.3026,146.9695,-78.3399
-1906.2500,-0.4755,-324.5065,34.2776,-97.8988,45.6211,-71.7451,131.8481,148.9448,88.0700,156.6085,-10.0481,-149.9733,12.8287,72.3781,-2.8609,2.6963,0.8772,10.9689,124.8295,-69.7700
-1898.4375,-19.2969,-344.8441,17.6292,-82.4192,102.1987,-15.9904,115.8347,56.7213,70.8904,64.5671,9.9522,-132.8281,69.4633,90.4053,54.0910,21.6050,-17.7642,25.6387,67.0747,-124.7859
-1890.6250,32.8912,-224.1790,70.9818,-31.9396,119.7728,-37.2428,96.8093,-0.5184,15.7101,-29.4876,-10.0338,-152.6842,124.1082,33.4253,72.0549,37.5149,-0.3960,41.3062,25.5563,-108.7954
-1882.8125,-42.0553,-265.6699,-6.8015,-38.6073,115.1946,-6.6496,56.6419,66.0931,48.3798,74.3078,-52.1619,-231.7047,119.6029,-83.7053,178.8777,31.2628,-76.1671,140.8093,61.6972,-114.9456
-1875.0000,-15.5566,-310.7316,59.8661,-48.8300,109.0588,-14.6075,160.9185,95.1709,78.5014,103.5567,-21.8374,-239.2902,113.5492,-128.3760,246.1536,-13.5443,-48.4935,-45.2191,90.1894,-159.6328
-1867.1875,61.4502,-200.3155,100.0406,-43.5509,39.4329,-87.0675,91.7066,96.7410,9.1269,105.2813,-18.9923,-127.3877,44.0071,-52.5647,176.9458,25.1426,-42.3164,-110.7490,50.3640,-83.8151
-1859.3750,-20.7272,-248.0942,51.0294,-92.4505,26.6161,-64.7406,79.2898,83.0885,70.5399,54.7857,4.6729,-104.6892,68.2754,7.0325,164.5495,47.6282,-88.3430,-88.4830,44.4347,-61.1800
-1851.5625,-39.6040,-233.5934,28.3129,-78.0465,4.0928,-15.1185,94.1673,21.7298,159.2518,-42.4175,-18.3496,-54.6977,82.8537,130.9319,179.4720,-49.5908,-71.0701,-73.9098,34.1770,-11.2339
-1843.7500,-63.6813,-260.3053,-34.5982,-103.8388,-95.6306,66.2985,-5.1508,29.1689,94.7649,38.1679,-44.5645,-9.9094,55.2328,175.6413,153.2037,-41.0223,-60.9950,40.4709,18.6236,33.5236
-1835.9375,-10.3529,-172.6225,-14.1094,-121.2198,-72.9596,-23.8899,15.9217,50.0013,43.6657,59.1487,12.6190,10.2713,41.0028,122.7522,102.3351,14.9528,-7.5226,-82.7229,6.5624,-19.2999
-1828.1250,114.2317,-15.6971,76.6342,-35.3378,-56.0399,-80.8317,-38.7530,-7.9170,-48.1836,1.3772,29.0561,62.6886,22.0143,27.0973,-26.2833,30.1825,11.2049,-100.6617,-40.9244,33.1363
-1820.3125,12.3279,-83.2655,43.8874,-102.9401,-88.6283,-115.2823,-33.9396,30.6663,-6.5436,4.0978,33.0054,28.6023,62.5183,-6.0638,50.6030,106.9232,15.4278,-98.0965,-29.6914,36.0926
-1812.5000,1.5696,-25.6886,31.2875,-151.3949,-102.0722,-166.5878,63.0102,16.3935,89.2459,61.9444,-15.8839,14.6707,86.1708,51.9343,148.6541,91.8243,4.7911,-252.3701,-11.0802,58.2156
-1804.6875,-12.6788,-41.6155,-21.8081,-202.3441,-155.0184,-185.3894,47.4608,-1.3851,37.5379,81.2872,3.7302,-2.7633,107.3172,35.4464,169.2072,110.2173,-79.3442,-91.1506,-5.7892,113.8562
-1796.8750,17.1652,-189.4475,-25.8106,-245.1778,-85.8746,-154.0857,79.9926,-81.0597,33.9167,-71.2603,145.4328,-45.0902,176.5534,-6.9297,239.8663,31.7154,-50.3885,-27.8283,-31.0021,71.6280
-1789.0625,100.1508,-142.1488,97.3256,-126.8674,39.4050,-141.6259,21.6736,-141.5680,11.4391,-168.6553,159.2851,-69.2673,190.9364,-31.1400,106.6802,-102.6268,68.7077,-51.3636,-67.2594,84.5741
-1781.2500,13.5933,-160.3916,45.9082,-145.1035,60.1202,-158.7125,43.7920,-121.6163,69.4049,-74.6001,70.6027,-84.9974,176.7658,-46.9069,55.9444,-118.5162,87.2519,0.5412,-30.2450,32.0037
-1773.4375,16.7306,-122.9288,53.1827,-108.6317,104.5201,-116.1029,124.5890,-115.9501,40.0520,-105.8288,40.6310,-80.0259,183.2906,-5.9958,100.9040,-149.6983,56.4936,-67.8411,-16.4212,-35.8362
-1765.6250,34.1144,-73.2114,33.7049,-57.8993,122.1685,8.7525,31.6239,-174.0279,-125.0566,-163.8037,57.9106,-63.8113,201.0621,-26.8300,82.1181,-60.6278,2.9881,19.0241,-79.7078,-19.4038
-1757.8125,14.0006,-200.9855,14.7230,-115.6375,139.3016,62.1106,13.1363,-85.6119,-106.6769,-75.2990,148.6898,-121.0889,219.3205,-84.1450,26.8377,-8.0475,17.9689,-38.5948,-51.8766,-76.4380
-1750.0000,69.9338,-146.7199,74.7814,-96.3080,125.4640,-27.4632,110.6897,46.8519,25.7469,20.2431,97.5245,-136.3052,131.6175,-25.3950,-132.3932,-97.4077,38.9767,-125.1518,54.7617,-91.3968
-1742.1875,-37.2766,-79.5925,-36.3098,-64.1105,88.4655,-29.1811,184.0822,81.1628,135.9973,91.6300,-49.7831,-138.6644,94.7623,-26.7847,-168.7846,-135.9088,-33.1715,47.1455,135.0945,-129.4765
-1734.3750,-65.7504,-109.7067,-25.6560,11.8475,173.2086,52.8610,158.1924,90.2209,35.9767,63.7655,-3.3379,-129.2777,142.6534,-54.4136,-85.4349,-89.6472,-61.5657,18.2189,106.0601,-193.7771
-1726.5625,36.1213,-185.4710,42.3447,42.1835,205.2951,46.2583,-30.3630,46.6330,-41.6987,-15.7435,102.4654,-172.5461,174.8803,12.3016,-126.7351,-96.0428,5.3989,83.6487,13.8387,-162.7072
-1718.7500,125.1623,-274.0711,138.4934,-11.2996,263.5104,29.8055,-7.7988,-6.7863,-19.2507,-106.0982,197.4324,-188.6672,160.2324,-3.8403,-177.8960,-186.2815,94.5093,65.2489,-2.7762,-215.4561
-1710.9375,184.5575,-75.3171,198.9861,-24.4122,288.0502,-21.2847,17.0882,-93.8517,-31.4801,-120.1094,184.7587,-128.4322,110.9282,-53.6270,-152.7182,-200.1702,153.9537,18.2311,-35.0117,-191.8268
-1703.1250,107.9476,22.4410,116.4822,3.5031,205.5894,5.6373,-29.0424,-104.9134,-40.7346,-94.1193,65.0852,-102.1878,65.6117,-138.4013,-50.5617,-63.0551,77.3880,116.2194,-46.8868,-128.1655
-1695.3125,151.5246,-41.5885,124.1694,9.6433,176.3192,-25.2319,-21.0036,-135.7587,-32.8075,-160.9195,72.5993,-95.7410,73.4780,-94.9704,31.7799,-19.7280,120.0113,51.4326,-79.6448,-121.2716
-1687.5000,231.6391,1.9428,167.3987,18.3565,146.5867,-57.5476,-86.4252,-129.0432,-61.3365,-118.1770,79.6638,-89.7355,42.8778,-88.9824,-34.3350,-14.8368,130.1782,95.2006,-86.5996,-41.8004
-1679.6875,155.5545,-40.7070,126.4181,11.9005,141.6282,-64.0448,-54.0751,-135.5140,5.9145,-88.6193,111.5192,-168.9176,75.0470,-131.1762,34.3368,15.8756,55.1300,123.7699,-69.0342,-47.4911
-1671.8750,153.3515,-44.4557,159.3156,43.3540,137.5358,-68.6262,15.1494,-104.0508,39.0448,-130.1227,70.2569,-137.1904,71.0925,-99.4587,67.8943,-26.4942,87.9621,50.2597,-36.4058,-15.2465
-1664.0625,149.4358,55.1115,151.5009,73.1278,92.7345,-39.8999,-65.3423,-150.2695,-3.5517,-249.3217,62.2869,-35.1503,-8.5839,-34.4343,97.7388,-70.5507,48.0914,80.0626,-89.3843,50.3328
-1656.2500,140.8679,116.0422,143.0309,63.2805,84.2692,-86.8037,-73.5094,-196.1348,-85.8222,-185.1736,127.6659,27.2455,20.0740,-81.0449,126.9073,-80.2472,74.5488,-35.7560,-132.9914,41.3050
-1648.4375,146.7312,121.4289,147.9883,103.9042,17.2266,-120.2306,-141.2619,-82.5198,-116.6689,2.4485,95.4922,-3.9069,-11.8400,-77.1836,60.5090,33.5272,81.4290,-100.1005,-110.2554,82.7657
-1640.6250,99.5290,36.7840,62.8730,54.5039,-141.8974,-22.6909,-116.0887,-21.9278,-55.5843,-10.9506,83.2615,-54.0908,-60.8340,-16.3495,121.0468,56.2734,69.2395,-42.4918,-73.2865,70.2121
-1632.8125,144.0634,149.9073,72.4909,97.8791,-131.3009,-14.3892,4.7998,-123.5632,-7.7751,-112.5912,20.7757,-8.5069,-87.0991,28.2411,132.3143,-43.2017,148.7821,-141.1081,-82.0262,43.4508
-1625.0000,99.1393,244.5946,26.6473,122.8291,-142.1707,10.4737,-42.7912,-98.6424,-55.4396,-87.6854,-26.1563,52.6400,-60.8303,-18.6052,50.1082,-55.1109,68.8618,-81.1468,-75.8747,69.2770
-1617.1875,-18.9895,124.0979,-59.4039,107.6167,-81.2605,70.1534,-17.6158,-38.9098,6.6681,-63.9698,-2.2957,39.6017,1.2108,-32.6250,73.6747,-68.2104,-14.2709,-95.3634,-37.1217,19.9458
-1609.3750,-2.2906,139.4621,-5.6271,193.2792,-101.5312,48.6982,36.3803,-96.2900,23.6026,-159.3690,14.4003,55.4267,18.0667,-16.7785,55.0715,-52.4442,-33.5729,-79.7061,-44.3434,36.5016
-1601.5625,-39.3545,172.1136,-43.6199,156.2204,-138.5802,46.5046,-1.4009,-98.3869,-14.2340,-161.4909,-22.6618,53.5226,17.1361,-54.6730,90.6890,17.5877,1.3619,-47.7896,-65.7765,35.3440
-1593.7500,11.3180,257.5527,-25.8833,170.9481,-121.9162,26.0844,-20.4725,-45.7085,-107.3548,-107.8508,-5.9833,70.3936,-39.0827,34.1912,72.0215,-38.6070,86.0326,-208.0836,-77.3197,15.9806
-1585.9375,33.5755,241.6114,-43.5645,121.3161,-175.6785,44.2879,-110.9819,9.5881,-50.9144,20.4057,-96.7152,88.8824,-129.7331,126.6649,19.9369,16.8218,72.2917,-187.7494,-67.2351,72.2539
-1578.1250,-38.7203,99.1565,-152.8016,13.1799,-212.0091,80.9594,-0.0864,82.3547,59.9375,56.1304,-96.0033,88.8448,-128.9686,15.6111,93.2618,89.7220,35.9825,-154.9532,12.8695,36.0192
-1570.3125,-50.1795,156.5874,-166.2089,35.9273,-188.5145,66.4976,60.6109,67.9901,47.6096,41.7146,-35.4544,111.6793,-105.3923,2.4438,117.4008,75.4921,-10.4938,-202.2776,23.2724,59.6785
-1562.5000,-131.3013,109.3988,-216.2854,24.0568,-201.7014,16.4126,-62.3734,127.9892,-2.3896,138.6533,-11.5673,97.8885,-81.4996,61.6418,105.8700,98.6342,-56.6363,-109.2314,12.1867,83.7300
-1554.6875,-75.6896,57.9921,-119.6314,8.9732,-142.1703,1.1052,-40.6521,112.7602,-16.6761,86.3626,11.0533,82.8693,-22.8913,83.5983,128.0602,46.5529,-71.0526,-124.3953,6.8468,69.5817
-1546.8750,21.4962,84.1986,-21.4023,70.5150,-191.0609,26.4215,-125.3689,28.1688,-27.3976,-35.2918,36.2637,107.4603,-33.7113,108.1669,81.8233,-0.9060,-43.8979,-27.9232,-48.7506,132.0714
-1539.0625,38.5716,-5.6754,-38.2864,50.9951,-171.0653,7.6594,-68.2199,9.5086,65.7499,-53.0200,91.3641,89.9672,-14.6675,17.6608,65.4476,-55.4525,7.1321,22.4753,-21.5075,78.5041
-1531.2500,116.8735,37.7163,45.0608,95.7703,-87.8509,16.1762,-22.8650,-54.8749,-35.8818,-118.4765,137.6985,61.7474,-5.4081,26.4293,1.2767,-46.7218,52.3822,-37.8353,-43.8853,88.2326
-1523.4375,23.9568,83.9375,16.1904,141.3854,-79.8665,24.5202,-160.7455,-47.4330,-137.7532,-73.1125,36.8220,71.3571,-33.3824,35.0205,10.8693,34.8266,28.4146,77.6748,-76.7323,170.8011
-1515.6250,-23.9738,36.2094,3.2995,93.0428,-55.9108,-26.1135,-100.6797,13.0404,-76.6746,-13.7177,-13.0684,57.9949,-46.3932,21.6332,34.4221,94.3952,15.4269,-5.7841,-34.4838,158.4153
-1507.8125,22.1212,46.5692,51.4314,103.7832,-44.9329,-52.6690,-89.6128,23.5936,-139.5873,-3.2555,-1.9220,68.7053,-109.3898,32.3076,45.9895,105.0475,-8.5304,40.8506,-24.6044,170.1190
-1500.0000,-24.9040,-107.1423,4.4405,91.4695,17.9099,46.7091,-99.6831,13.0743,-149.6292,-50.8738,25.1115,21.3402,-82.5260,93.9109,73.4136,93.6234,-126.6138,133.4161,-24.7235,123.7671
-1492.1875,-36.3528,-154.2228,30.0229,115.8029,43.3103,144.7185,-37.2098,-35.8085,-50.1122,-99.8560,50.7243,9.6047,-57.1058,156.1401,25.3940,81.8276,-102.1267,15.6247,-24.0863,113.0641
-1484.3750,-118.5243,-25.9632,-21.1199,174.4741,-8.0225,203.0537,-126.4800,-14.3603,-65.3348,-41.5112,-74.3825,104.2011,-109.4279,104.6938,-25.3605,31.3625,-79.3570,109.1600,-18.7330,172.7001
-1476.5625,-151.0134,12.0433,-90.5829,105.8932,-77.6908,207.1251,-85.0964,62.8138,-60.8958,-37.4445,-69.8230,107.5321,-105.1026,35.9895,15.5390,71.6303,-75.9105,76.4176,13.8134,141.0847
-1468.7500,-83.2396,44.3860,-94.7824,68.6491,-119.0996,128.5364,-52.4602,131.3253,-139.1925,68.9521,-73.9944,104.1898,-182.5197,140.6153,-61.3009,140.2268,-114.1919,4.0196,43.7296,174.8170
-1460.9375,-159.1378,-67.8763,-174.6602,-7.1961,-125.1903,86.3276,-95.5172,236.2178,-71.1784,245.7260,-79.8309,62.2297,-188.6326,171.6072,-66.8345,171.1994,-225.1433,68.0063,94.1875,169.9437
-1453.1250,-153.6573,-62.6953,-132.1579,68.4056,-82.9124,127.5466,-53.2321,167.5509,44.1897,67.9449,-74.2935,67.6998,-183.3945,140.0171,-61.0226,139.6037,-114.7252,39.4406,81.5217,176.5161
-1445.3125,-155.3508,76.3702,-137.8355,207.8950,-236.8255,195.6461,-207.1378,88.7727,-35.6291,-48.9470,-153.9233,98.0487,-190.3540,208.3127,-103.4066,207.8881,-115.4825,177.7520,-3.4327,281.9742
-1437.5000,-183.2599,48.2802,-204.7382,180.2281,-265.9786,238.5781,-236.2910,95.8316,-138.6873,67.9834,-109.7730,142.2325,-220.5600,215.4458,-96.0431,251.0083,-179.4638,184.8896,-11.3388,290.2771
-1429.6875,-119.4037,112.0240,-175.8745,175.3972,-201.3683,121.3506,-207.7005,161.7236,-183.9822,170.7478,-44.8480,134.2473,-192.0058,97.3970,-177.9220,243.9677,-185.6774,143.8795,31.8706,320.4239
-1421.8750,-140.9747,55.4031,-160.4439,118.2112,-149.1864,136.7609,-229.5464,103.2502,-168.7172,75.1439,44.6563,75.8906,-65.8911,-34.0284,-199.2394,186.5522,-137.3226,262.5005,13.8510,300.2113
-1414.0625,-115.2187,80.1840,-95.6884,178.4248,-120.6941,200.5523,-202.0977,21.1623,-140.1534,-80.0732,72.4857,67.9215,-38.4735,30.9282,-244.2570,141.5127,-76.6488,182.5150,-27.2332,256.3973
-1406.2500,-80.7470,219.7600,-97.2191,248.4310,-123.4869,199.1224,-277.9539,55.8647,-216.8827,101.4973,-39.9556,139.7409,-114.3488,102.6601,-393.5670,176.2580,-148.2486,182.3126,-24.2712,292.3704
-1398.4375,-150.7017,149.9974,-169.1780,179.0846,-121.7145,164.3300,-240.2608,204.1971,-178.0546,249.6954,-74.8253,142.2038,-149.6707,31.0222,-280.3235,141.6388,-218.2753,217.7412,63.3080,258.9848
-1390.6250,-142.0932,158.8788,-160.5723,188.3904,-77.3800,137.1803,-121.0253,67.1643,-95.6646,2.5262,-29.1270,187.3036,-104.4425,40.0234,-235.5300,150.6448,-174.7355,226.8240,38.5064,269.2408
-1382.8125,-187.7123,150.6109,-172.1955,179.5471,-52.2809,198.8725,-207.0370,-17.0381,-181.5219,-45.8147,-40.6506,177.2431,-79.4617,102.8588,-245.9807,212.4711,-184.4159,288.7417,-28.7214,296.3329
-1375.0000,-196.8536,35.8961,-142.3426,171.2567,14.2729,155.1008,-177.6139,123.2996,-188.9324,203.3787,-47.7026,59.7209,-88.0307,59.2264,-216.9859,132.8353,-193.6334,174.2075,48.1852,253.9698
-1367.1875,-88.3835,178.8655,-66.8803,245.6495,16.4345,85.0186,-249.5836,126.3344,-260.7243,134.2599,-82.1383,136.8821,-158.9969,-10.7247,-251.3933,24.8866,-15.2355,212.3669,20.2048,258.2924
-1359.3750,6.9536,380.7863,-0.5448,235.9964,8.4674,41.8705,-330.6902,-100.6970,-267.6531,-129.9188,-15.7136,202.9832,-130.1198,-90.7457,-220.9586,-18.1268,185.0372,273.4611,-130.8868,179.5520
-1351.5625,162.1556,467.6606,91.6615,252.2992,64.3696,-12.3374,-274.9554,-154.7886,-248.7251,-184.1552,76.5730,149.0186,-148.3976,-34.8464,-275.6921,-35.2107,236.1901,78.5144,-163.6939,126.7498
-1343.7500,159.8867,395.1309,89.3919,181.2033,24.7869,-13.9512,-314.7290,-120.2903,-215.2981,-112.8068,74.3866,110.6421,-114.1727,0.6275,-314.9324,0.2811,127.8759,113.1580,-154.5358,126.5272
-1335.9375,138.9002,303.9554,32.4001,125.4590,76.4693,1.7755,-151.2687,-139.4561,-124.6297,-169.1273,90.4804,54.6039,-61.6953,-55.5510,-150.9374,-55.9013,105.8373,-13.8578,-118.8812,71.6413
-1328.1250,132.8331,369.7715,62.3266,86.7035,34.0730,-3.5088,-121.9103,-108.6410,-95.0633,-101.4716,47.5062,48.5527,-105.3054,-24.7449,-84.0474,-99.0976,65.7116,-87.8769,-95.3367,103.7357
-1320.3125,15.4928,252.3870,-24.0211,3.7445,-53.5906,19.9888,-172.8456,61.9475,-108.7911,68.9569,-1.7440,73.2848,-193.2108,-1.1618,-61.4547,-1.5040,-17.6901,4.8899,-30.5243,92.6137
-1312.5000,16.5706,183.5052,14.0444,77.2807,-52.8456,95.9712,-135.3875,27.0394,-145.1101,33.9039,-37.5833,112.4995,-192.7204,0.8859,-96.4684,73.5746,19.3276,7.1566,-32.9339,95.9772
-1304.6875,21.8618,225.9180,16.3262,155.1038,-49.8923,173.2381,-243.7206,-78.5582,-143.2131,-144.8354,-35.2047,115.9961,-191.0303,42.2057,-168.2930,41.9260,24.5747,155.7148,-95.3179,174.6131
-1296.8750,12.3291,111.5846,-30.2165,76.1840,-59.7751,164.7450,-106.9047,-196.9174,-6.1638,-264.3521,-7.6490,107.7342,-127.1929,69.7722,-177.9885,-3.4904,49.9956,111.5202,-92.7110,167.4799
-1289.0625,99.4164,164.9418,58.8561,94.9612,-8.0461,71.9548,-129.5036,-180.6020,-174.5144,-211.1979,44.5307,161.1651,-149.7488,50.0368,-236.0840,-60.2117,67.0235,25.0352,-105.6533,222.0281
-1281.2500,103.0268,169.9003,25.4473,66.3345,-41.7979,76.7632,-273.6018,-64.7047,-355.3575,-22.4579,85.2337,166.1841,-146.8022,-19.1130,-269.6688,-166.3503,70.5688,100.1259,-98.0281,228.1559
-1273.4375,78.0007,181.3226,38.4009,41.1480,6.8055,17.0059,-151.3553,58.6372,-232.8453,174.7309,61.2995,106.6464,-134.5017,-114.8375,-330.9070,-263.0512,80.4835,-29.3411,14.2645,169.7214
-1265.6250,-7.0146,203.8449,22.3645,64.0449,-45.5877,-71.6617,-94.1044,191.0752,-102.3223,234.0123,-64.6166,93.1917,-188.1954,-129.4852,-310.1435,-240.6707,30.4260,29.2815,110.3721,193.3632
-1257.8125,-36.6046,175.8777,-7.2469,106.4431,-39.5583,-25.8442,-50.4531,16.9929,-95.4039,-51.2184,-58.1154,138.2271,-144.4874,-47.6489,-228.9902,-157.8171,0.7958,105.3968,31.1791,166.4835
-1250.0000,37.2728,216.4557,31.6124,147.3842,-1.0566,14.5158,-12.3589,-126.5562,-94.0247,-157.9154,-19.1395,141.7981,-143.3200,-44.2907,-190.3896,-80.4332,-30.3722,42.0654,-26.3599,208.1308
-1242.1875,-67.3272,77.6228,-41.0056,79.9192,-74.0382,-20.5379,23.2537,-14.5243,15.8752,64.9694,-54.6413,107.9523,-143.6451,-5.3474,-190.2821,-42.4714,-101.0189,78.3126,59.1569,211.3478
-1234.3750,-66.3609,11.4414,-39.0579,48.0952,-35.4632,-52.9545,135.4205,63.1547,92.3355,68.5021,-52.5815,111.7406,-141.4228,-0.7645,-188.6245,-37.8731,-99.0965,12.2044,127.7328,180.1920
-1226.5625,-21.9356,126.7961,40.3446,129.8115,-29.4234,-81.8261,-5.9576,34.3767,-12.7395,2.5749,-83.0600,121.0665,-172.7445,-29.6498,-219.5163,6.2652,-19.7050,93.6439,65.8194,262.5546
-1218.7500,-91.5405,61.2122,-29.2795,98.5780,-100.4112,-3.6502,-40.3732,76.6291,-46.8578,81.6715,-42.5697,52.4290,-171.1107,11.4917,-179.4658,48.4309,-18.3376,131.1266,69.3702,231.9374
-1210.9375,-60.4805,92.3805,-71.2387,96.0817,-142.7351,67.2641,-9.1383,145.6258,20.6840,187.5254,-121.4116,12.5226,-212.8256,154.3552,-184.7698,82.3227,-129.3023,23.3620,107.4516,230.0380
-1203.1250,-192.1465,68.8873,-210.9270,72.9200,-245.7848,113.5069,-39.6347,228.9799,64.4962,344.7380,-223.9797,58.9414,-317.2865,164.5346,-177.8257,164.5384,-225.9976,105.9291,158.7338,277.4456
-1195.3125,-236.9908,26.2911,-218.7935,-4.3454,-217.0130,70.6403,-11.3263,333.2222,56.1146,411.8363,-158.7390,53.2433,-251.9421,11.6035,-113.0864,121.6400,-129.8718,27.3862,200.5393,235.7213
-1187.5000,-91.5319,174.0836,-66.3458,108.7731,-138.9155,4.1675,-154.7049,193.8443,-122.9449,198.3162,-79.1854,97.9318,-210.2917,56.0614,-145.0437,56.1232,-18.4287,35.2399,57.9838,244.3596
-1179.6875,-37.6485,124.3780,-46.4731,129.3775,-119.3930,99.1790,-245.6671,32.9484,-250.5870,0.2797,-23.2122,119.1086,-118.2282,186.9949,-125.6061,78.0822,-70.5543,125.5812,-63.0419,230.4617
-1171.8750,5.0175,65.5280,-2.8212,139.8250,-149.1063,145.0212,-165.8885,5.8848,-243.4757,10.0734,-51.4611,165.1158,-111.4044,196.7503,-155.4341,123.8712,-62.8978,-4.2178,-56.2695,241.3806
-1164.0625,-65.8357,103.2235,-40.6913,108.8166,-224.3444,110.4036,-204.6541,117.3511,-171.9041,157.3991,-164.2261,202.6513,-187.1171,161.0218,-230.8207,161.1841,-98.7574,68.5182,6.2920,279.8053
-1156.2500,-137.8144,67.8650,-112.6824,3.7522,-186.7061,112.7226,-167.5581,193.7518,-171.4666,234.6649,-162.1217,170.1192,-149.9686,238.2216,-193.3604,127.4177,-99.7428,35.1898,43.4628,211.1393
-1148.4375,-135.4234,107.9391,-110.3072,45.1111,-147.6883,81.4836,-239.0973,235.5810,-279.6602,276.3535,-159.6452,175.0212,-111.4518,242.8516,-154.5386,96.0739,-62.3552,4.3058,21.0467,216.8795
-1140.6250,-175.9559,105.1665,-150.8548,76.6025,-151.5954,116.3775,-280.5679,234.5331,-247.7851,274.1672,-126.0936,137.0593,-79.8669,93.6139,-121.6597,130.8511,-102.8914,106.5501,17.1721,179.7272
-1132.8125,-90.1249,123.8549,-94.0389,130.5307,-95.1330,102.7010,-224.6791,146.9281,-190.5430,223.4416,-106.1770,160.5300,-96.9233,116.7937,-102.4331,43.0618,-52.0606,19.2309,-11.7588,92.9862
-1125.0000,-47.8287,205.0787,-12.7611,211.9811,-86.2024,77.5474,-253.3128,121.8785,-218.8238,161.2695,-133.7932,171.5264,-125.5183,164.4926,-203.7487,-19.1930,-45.7574,100.4415,-25.6085,68.7448
-1117.1875,-64.4063,156.4868,-27.3562,198.6173,-66.1496,101.5773,-195.8226,109.0093,-234.9774,112.2723,-112.2887,159.7009,-105.0015,115.3782,-219.9640,5.7313,-27.3244,121.8417,-14.0258,20.6585
-1109.3750,-90.3145,168.6284,-18.2775,210.9880,-57.4161,40.3513,-150.6726,157.8623,-152.4641,160.9998,-176.1169,134.6027,-132.8140,126.9925,-247.5241,54.3803,-18.2187,63.9917,26.5550,33.2721
-1101.5625,-220.8451,40.2140,-116.8197,47.7962,-119.2926,17.5654,-68.1569,282.1415,-32.5825,322.1599,-238.5688,111.9318,-123.2580,141.0238,-163.7276,104.4505,-147.7354,111.5688,125.3629,11.2770
-1093.7500,-252.9959,-23.7556,-183.9812,-50.9647,-76.7885,-46.7875,84.7235,291.8438,120.6625,294.7415,-231.6503,84.6886,-118.3347,113.4846,-48.5717,150.9501,-110.8762,12.5889,170.1255,-52.3190
-1085.9375,-219.5289,12.9597,-150.5241,-14.0511,-80.6542,-10.4556,7.2261,218.2250,6.5286,184.0007,-198.1084,121.1170,-85.7864,75.6229,-52.8031,187.1198,-112.3845,120.2958,108.1053,-15.2726
-1078.1250,-266.0326,39.7697,-197.0365,-22.0530,-16.4851,18.9601,-3.2477,137.6841,32.4203,177.3441,-172.5387,114.6159,-59.2123,105.8302,-63.0248,143.3509,-158.8636,217.0777,86.4732,-58.1818
-1070.3125,-134.8107,69.3581,-131.8224,6.7239,48.4189,14.1577,-13.0052,132.9194,61.0382,171.4665,-106.2453,72.8875,-67.9157,100.8089,-145.5364,27.3577,-97.6137,211.6513,89.3251,-99.3486
-1062.5000,-115.4597,22.1267,-73.4778,-40.3260,32.4658,1.5244,-29.6223,156.3223,81.7942,232.7549,-158.8244,23.3379,-84.4959,13.9615,-161.9333,51.5425,-78.2275,269.3893,108.2507,-111.3791
-1054.6875,-85.3246,-50.2600,-40.3480,-76.5492,66.2951,-72.2864,77.5294,156.5458,78.3244,232.8742,-124.6328,-13.3875,-89.3053,-23.0548,-55.5721,88.5513,-48.0613,91.9564,115.4938,-147.6129
-1046.8750,-54.5652,19.0289,-11.5929,-77.1076,-16.2486,-76.4169,31.3101,152.4480,106.4849,154.6747,-132.8111,-17.4464,-97.4875,8.6066,-26.5964,83.2267,-17.2671,91.2098,92.7537,-78.2083
-1039.0625,-116.4676,-4.2983,-74.5021,-135.2926,-43.4586,-27.1662,40.4269,128.7222,151.9787,130.8458,-85.6565,-5.1381,-88.3429,-15.3651,18.6931,96.2697,-9.1387,137.8318,89.2351,-101.4649
-1031.2500,-54.8512,-8.0370,-81.8879,-69.9069,-13.1353,-30.3445,70.0722,124.5736,182.0056,200.6043,-92.9856,-8.2651,-59.6680,-18.7795,48.5001,18.8860,-16.4807,63.0424,96.4841,-141.1820
-1023.4375,-82.0119,3.4999,-74.0461,-23.2561,31.4261,-19.2492,2.9623,99.7010,79.2740,137.6335,-158.0861,39.8713,-52.7617,-44.9300,92.5292,66.7705,-44.5856,144.5250,56.9536,-129.6690
-1015.6250,-52.5806,0.6683,-41.6148,-60.9841,62.5722,16.4644,34.4329,24.4489,73.1194,26.2856,-89.6116,38.6271,15.7230,-83.4602,86.1275,101.2798,-15.1102,71.6287,15.5306,-167.5666
-1007.8125,-4.9222,52.1016,-28.9554,-114.4539,38.9498,-4.5514,9.1388,77.4775,85.2041,152.2285,-39.9080,-19.3571,27.4410,-30.7291,-12.0504,117.0584,-37.4080,-16.9910,28.5702,-151.2305
-1000.0000,-87.2771,-61.4391,-113.3118,-263.9081,64.3191,-48.5502,107.8443,180.5292,185.2848,292.1967,-13.2231,-100.3310,52.1413,-37.9899,-23.2518,36.8456,-84.7160,9.4013,131.5988,-194.9148
-992.1875,-67.9512,-73.2544,-89.9826,-239.6399,124.3782,-58.8246,203.2285,170.2922,281.0515,207.8747,9.1408,-183.5913,37.5300,-11.5389,-37.7864,-10.6474,4.6673,-107.4686,151.9594,-241.9165
-984.3750,-69.7416,-71.1473,-93.7682,-202.4632,83.3383,14.8229,162.5034,132.9681,202.7006,171.4602,-67.6131,-146.9366,-4.1852,-49.1627,30.5463,61.7738,-32.0555,-35.4224,122.2333,-205.0462
-976.5625,-115.6948,-184.1593,-104.7114,-244.4230,35.1531,43.3321,223.6154,125.5047,191.1861,126.9126,-41.5311,-118.4119,57.9419,-93.9136,129.6966,91.0531,-7.9384,-77.5156,124.0783,-212.3486
-968.7500,-5.4163,-104.9092,-27.4220,-200.1235,75.2091,-22.8855,189.9711,59.3060,157.9182,23.6319,-38.2115,-110.6290,97.3064,-50.4033,132.0786,24.5946,32.4054,-104.3301,73.3892,-168.4283
-960.9375,-47.2925,-107.7968,-71.2894,-202.9603,31.1056,-26.2370,108.1817,18.9690,150.5041,20.2112,-8.0513,-113.9873,126.5115,-54.0305,161.2917,57.9919,-9.4066,-36.2948,26.6680,-171.6884
-953.1250,-54.1783,-110.6570,-39.1690,-170.7872,62.9953,-27.5756,212.3808,-19.3480,181.0733,-18.1799,23.0901,-116.3326,156.7105,18.3474,155.4814,55.3995,-16.2258,-180.2479,27.9277,-209.9749
-945.3125,-15.7348,-103.1461,-37.7182,-163.2711,64.2328,-22.5573,176.9274,-51.2930,218.9884,-13.1971,-11.4329,-110.3209,121.2543,60.0792,119.0139,-12.8262,-47.6986,-67.8416,30.3331,-167.9477
-937.5000,-62.6506,-145.9553,-47.6215,-206.0952,91.1222,-28.8803,202.1259,16.4164,171.5536,53.4420,-58.3204,-117.6543,146.4436,-20.5254,145.1782,-56.3948,-59.5214,30.2261,80.3517,-211.3010
-929.6875,25.9209,-53.2516,7.9675,-149.4116,146.5141,-5.6922,146.8122,38.6288,6.6201,76.5857,-39.7218,-131.4847,128.1333,-71.6217,52.8254,-70.4500,64.1449,16.8256,61.6583,-225.1869
-921.8750,-18.7085,-92.7479,-0.6466,-118.9259,64.7132,-10.6947,27.3108,107.6507,-39.5151,108.5367,-84.3286,-99.5175,118.6326,-186.9071,80.2645,34.3034,55.5972,153.2216,50.7479,-230.3108
-914.0625,-64.6959,-170.5814,-8.6217,-55.7937,55.5658,-16.0439,128.4646,176.3338,62.0063,177.1543,-130.2986,-66.8973,72.7838,-81.5299,34.3421,-7.2829,-26.3179,145.2735,125.3698,-308.8134
-906.2500,-157.3557,-48.0579,6.7353,32.6797,33.7651,2.9665,68.9787,269.3806,3.8893,270.1369,-224.9269,25.0705,-59.7113,120.1975,-99.2363,-25.5059,-118.8925,233.6873,156.8167,-327.0038
-898.4375,-187.1681,-2.6715,-58.0629,42.0077,5.8163,125.8351,-33.6454,208.2859,-25.3649,134.9756,-216.7167,73.8807,-88.3552,206.7701,-164.9771,97.1294,-112.6147,278.9578,75.4411,-388.3797
-890.6250,-38.3909,115.3137,59.7294,124.9304,13.4693,211.3094,-99.6648,71.8052,-128.0178,-0.5667,-208.9141,122.2810,-81.3935,180.9397,-158.1221,71.3670,-34.7459,219.8508,-26.8889,-377.1934
-882.8125,-30.0211,161.8946,28.1232,207.4443,-55.2570,219.3825,-206.0642,80.9315,-234.0616,118.5030,-240.5041,167.2721,-114.8225,151.7076,-80.6715,43.2007,-97.2837,267.3445,-51.8262,-295.4554
-875.0000,-99.7436,132.3801,-44.5776,176.8626,-54.0702,224.3524,-132.5584,85.9553,-159.2074,86.4709,-202.1946,209.1598,-77.3375,156.3799,-6.3358,84.9405,-130.9238,166.7484,-37.8285,-290.8563
-867.1875,-81.7722,260.5649,-65.5835,198.9652,-111.1726,244.0296,-190.3414,31.6796,-217.6418,69.1362,-186.1880,265.7391,-99.1367,212.7558,-65.3016,141.3857,-112.8692,153.8645,-88.4360,-234.6044
-859.3750,-114.4017,196.1479,-134.1890,100.4589,-180.8627,289.1092,-223.6959,76.8040,-213.6550,151.1984,-218.7905,236.7093,-95.5258,220.5387,-24.8665,112.2320,-145.4111,231.3735,-70.9508,-264.0003
-851.5625,-129.0791,185.6869,-112.8412,124.9014,-158.5949,278.1342,-55.0913,102.8755,-118.7093,140.2081,-233.4488,188.6210,-110.9589,246.2641,-40.4886,27.0306,-124.9930,114.8446,3.5916,-275.4931
-843.7500,-129.1976,154.7712,-113.9367,128.8862,-197.7578,279.7024,-94.9157,104.4878,-84.2004,104.7593,-272.5475,154.0677,-149.8237,284.5299,-116.5557,65.3719,-90.0160,153.8637,0.1849,-237.4925
-835.9375,-92.1055,56.0465,-110.8163,65.0555,-120.6998,250.4665,-54.5210,149.2945,-117.4765,149.5010,-194.4467,124.7025,-73.4684,181.0010,-150.4159,109.9093,-87.8394,19.0694,16.5556,-267.3375
-828.1250,-23.1208,129.2071,-41.8029,67.0966,-87.7279,176.1247,-96.2020,147.9977,-158.8287,148.1396,-125.4381,160.2275,-42.1880,106.3722,-193.3562,108.3494,-88.7737,-12.8325,-0.2301,-195.3294
-820.3125,-65.4805,196.0132,-87.1406,28.7734,-97.0827,133.4190,-143.1991,32.3434,-168.5129,-4.5757,-60.7739,154.3882,21.7733,100.3854,-55.6361,102.4304,-96.0491,88.8962,-74.5182,-164.7225
-812.5000,-19.1333,176.5209,-73.7704,44.1353,-47.7164,187.4058,-93.4834,-24.6194,-118.4811,-24.5917,-11.4024,61.2376,34.4560,117.0861,-7.2154,9.2019,-14.6143,-35.6766,-85.9586,-185.4632
-804.6875,-76.8310,121.9535,-63.4442,95.4281,-36.3768,238.3315,-120.7866,26.3635,-108.4653,26.3372,-74.0753,38.0177,44.1088,57.7287,-107.8334,22.9182,-37.2251,15.6911,-46.4435,-135.3090
-796.8750,-90.7685,-27.8860,-75.3530,15.4585,24.7295,229.9946,-23.2995,18.0835,-10.6641,-19.0013,-85.9911,-7.4763,141.5299,12.1124,-120.6803,-59.6174,-16.0802,75.7948,3.1677,-181.4527
-789.0625,17.8456,-21.1943,39.2902,92.0188,102.4015,164.1917,54.7653,-10.6553,-6.2904,-10.8031,-45.3512,0.5559,108.5338,-53.9660,-190.9535,-161.6005,22.6191,47.4566,28.3779,-211.0977
-781.2500,-18.2305,-53.2157,40.2517,130.8615,103.4057,131.6752,-55.8406,29.8962,-116.5962,103.6805,-7.3967,4.8707,108.8717,-86.7500,-153.9129,-121.3013,-48.3733,156.4028,6.5944,-244.4983
-773.4375,28.6097,33.6539,92.1301,146.5907,156.3369,77.0454,-40.5334,-60.6767,-100.9865,12.0425,44.4674,-13.9353,124.1393,-67.6387,-65.9592,-29.1109,-36.4507,32.2414,-64.5334,-300.0461
-765.6250,22.9092,171.9436,119.4643,214.7361,109.7382,33.8471,-87.7386,-140.8177,-73.8868,-104.1647,-1.2004,17.6864,76.8912,-74.0949,-39.5293,2.5270,-7.0632,100.5092,-112.0336,-233.2035
-757.8125,14.2238,97.2144,73.8145,244.8589,64.1697,65.6261,-59.8958,-181.9724,-119.7563,-146.3834,-9.8555,48.2820,67.6726,-42.5645,-12.0821,-2.8485,54.3375,130.7491,-124.0423,-239.4161
-750.0000,103.9481,84.8584,130.5782,233.3551,48.0253,15.7861,-3.6301,-122.7337,-136.2048,-86.2065,9.9001,35.2471,-23.1103,53.3487,-30.2077,20.1664,109.1457,-92.6243,-104.6737,-217.2798
-742.1875,34.2916,-16.9247,53.9577,131.4248,-29.4886,-21.4807,-7.7233,-11.9127,-30.0138,61.5430,-30.7234,-2.2218,-27.2514,16.8374,39.2968,166.7685,-31.4366,-158.4296,-53.9603,-144.5977
-734.3750,-4.3484,-85.7290,-22.6500,-43.5329,-67.9866,-57.7718,136.2219,62.8892,78.2137,99.2717,-33.3365,-1.7142,6.6431,127.3162,109.8288,167.3607,-139.0119,-263.2603,18.9468,-144.9626
-726.5625,-42.1391,20.2867,-65.4090,-77.6805,-148.6171,-60.2340,130.0690,96.5296,34.3332,95.8441,-76.0839,105.6152,-36.5790,271.6346,102.2441,127.7890,-107.7334,-262.2675,26.9736,-75.5365
-718.7500,-105.5101,31.6760,-131.7554,-137.4602,-213.8200,-49.3213,137.3740,107.5506,78.8969,143.7948,-68.4133,116.3202,-29.3651,208.3390,146.0838,64.6036,-64.0380,-214.9161,48.7820,-65.7683
-710.9375,-36.8147,33.0829,-99.0355,-66.2237,-180.9453,-13.3822,169.7637,69.6004,148.5434,68.7637,-35.6708,78.0410,-34.0571,97.0775,250.9943,100.4646,-137.2755,-284.5280,40.6320,-31.0018
-703.1250,-62.7035,10.8474,-165.8954,-86.6271,-211.6316,-4.0762,102.6000,80.0348,81.6305,116.1145,-29.5102,51.1257,-28.3049,70.1944,257.3380,183.7161,-233.0968,-200.7706,32.8041,51.1040
-695.3125,-113.0231,-35.8685,-216.1863,-204.5192,-224.7336,-14.2527,199.0285,106.0086,141.3000,105.0095,-5.7822,3.7292,32.0333,22.8448,206.2606,136.5019,-72.3597,-177.4892,85.4855,2.7047
-687.5000,-13.4849,32.2215,-111.6159,-136.6057,-83.9515,-17.6057,155.3609,-7.1800,97.8675,-8.2613,61.8172,-36.8580,25.2657,19.3194,88.0664,23.1204,27.2314,-110.3751,36.7184,-1.9084
-679.6875,-1.3200,12.8770,-24.4220,-87.1232,4.4692,-0.3831,95.3519,-100.8019,39.0760,-137.9726,75.0427,-19.8835,75.1467,-37.6215,101.5065,3.3129,-30.5545,11.3016,-20.4060,-22.9859
-671.8750,-1.2312,51.4040,12.6994,-48.7764,41.8248,2.7134,132.2787,-97.5540,75.2183,-170.8293,2.1868,19.9591,37.9732,-34.6752,174.8702,-30.6139,-30.4168,-20.1377,-7.2577,-21.2166
-664.0625,-98.1704,63.8300,-54.2072,34.4774,-24.8321,86.7304,66.2095,-13.3857,83.3625,-51.7615,-64.6938,29.7088,-28.1983,49.1897,71.2220,-57.6089,-92.3076,97.3418,40.4004,24.4391
-656.2500,-115.5321,-56.2376,-32.5363,55.2457,-2.8886,147.2562,13.7462,-25.6854,67.1028,9.8344,-5.9973,16.9621,29.2264,-0.4264,18.1604,-33.0796,-38.6290,48.3435,13.1394,-26.4176
-648.4375,29.7704,22.2785,45.8024,62.6211,74.7494,80.3983,-19.0171,-92.3530,-38.4590,-19.9416,35.3820,23.8076,70.3609,-67.4231,21.7952,-25.9140,35.7018,-50.0142,-51.0267,-20.6896
-640.6250,-12.1531,-16.5171,1.9148,-47.2923,32.1836,3.2612,11.0334,-59.2917,-8.2207,13.0031,28.5463,-54.6616,63.3035,-108.6996,161.2291,6.9850,63.7983,-17.6572,-30.1683,-26.2754
-632.8125,86.1986,48.8934,69.3056,-15.9912,25.9151,-110.6638,152.3833,-172.0137,96.3149,-209.8321,169.9851,-94.9264,57.5475,-148.7563,190.9555,-69.8871,197.1617,-22.0785,-40.1788,-67.6668
-625.0000,240.5287,137.2002,157.6707,142.2112,40.6431,-130.6827,55.7479,-337.8209,73.8555,-339.7612,257.4136,-187.2924,71.8006,-167.8948,20.6819,-162.8279,282.4984,136.4046,-120.6876,-52.1727
-617.1875,278.3492,35.9142,162.5185,146.8188,120.8573,-122.2994,24.6205,-256.2134,-31.1056,-258.2841,300.3291,-364.2522,187.5561,-160.6114,-48.0938,-192.3336,249.3170,141.2886,-101.1772,-119.2847
-609.3750,343.1410,-1.4602,231.3364,144.3214,226.0488,-125.0016,-54.5117,-222.6821,-109.0697,-188.8921,295.2228,-440.3006,219.3168,-236.4010,130.1310,-194.9070,244.1015,69.0968,-131.6495,-123.5006
-601.5625,297.0517,-115.7803,145.2726,29.8774,103.3851,-135.6386,-66.4769,-160.0800,-121.8766,-162.4304,355.2431,-488.2870,206.2274,-283.1089,374.5091,-131.4123,162.0037,130.9608,-120.9726,-98.6765
-593.7500,262.5907,-217.5466,110.8399,-72.0061,32.3595,-130.7149,46.2064,-117.9153,-9.0330,-194.4077,394.8875,-483.7119,208.7929,-206.2430,339.5376,-89.3342,198.5283,28.3843,-76.5130,-132.3040
-585.9375,271.5549,-204.9559,154.8316,-60.5406,76.7693,-121.4308,53.3474,-108.3839,109.2623,-111.0237,291.9690,-400.7749,141.8146,-160.0151,52.0182,-42.8764,136.4763,-29.8369,-36.7615,-87.5899
-578.1250,177.0563,-296.8983,131.3525,-117.6263,127.7193,-142.6983,104.0506,-55.3862,159.1139,-21.1754,268.5845,-385.3769,155.3895,-181.3137,65.0480,-26.9470,77.9519,-156.6107,-0.2019,-110.4338
-570.3125,208.4822,-191.9916,162.7967,-153.8621,122.6035,-182.1089,171.7103,-95.5213,117.9239,-135.4618,300.1247,-316.1247,149.9198,-110.7377,206.0256,-141.1408,109.3534,-297.5140,-25.2813,-78.4335
-562.5000,138.1392,-190.9419,84.4713,-186.9502,45.7408,-183.3647,131.6413,-132.4988,113.9917,-135.5968,222.9008,-280.7201,146.7123,-75.9969,275.2620,-141.1636,107.9870,-190.2641,-41.4986,-8.2940
-554.6875,77.7344,-248.0358,97.0874,-104.1842,57.8264,-168.7676,254.5270,-228.6237,201.0086,-304.8894,198.6122,-230.4530,195.4628,-170.3850,287.4416,-200.3089,154.5525,-177.1584,-32.5593,-32.3040
-546.8750,204.5578,-189.9881,189.9344,-46.2712,78.1577,-185.0132,200.6656,-317.5879,146.2802,-395.0276,217.5644,-283.0307,178.4726,-223.6014,195.8701,-142.2761,175.3359,-153.8932,-87.1266,23.8300
-539.0625,164.9676,-368.4419,150.3671,-188.8540,75.0853,-222.7596,234.4152,-208.0336,181.1572,-174.6539,288.1083,-358.1072,212.0964,-224.3041,118.9060,-142.7268,135.6956,-191.1336,-15.3227,-15.5409
-531.2500,203.0624,-468.2960,157.4875,-218.8349,156.7152,-213.9057,388.8625,-198.8634,298.7266,-202.6709,295.3422,-313.5809,219.4324,-143.3914,51.6403,-244.5594,138.7299,-255.7599,50.3790,-82.3144
-523.4375,178.6422,-314.7662,168.0921,-136.4148,240.8513,-129.6481,326.8236,-370.2895,235.7964,-448.2910,232.0702,-190.6562,267.2845,-94.0563,98.8775,-305.9743,149.2497,-137.9842,-47.6937,-71.6978
-515.6250,119.8651,-196.6880,182.3349,-87.4399,329.6399,-75.8337,341.4407,-538.1580,251.5171,-615.3604,247.4353,-176.1870,392.7955,-188.1528,223.7643,-325.8178,196.3983,-194.6529,-135.6889,-130.5324
-507.8125,159.1647,-155.6207,223.6532,-46.4661,334.5296,-107.0186,346.1663,-532.0134,293.3412,-499.4122,288.8825,-206.7213,360.4138,-218.2406,190.7535,-319.6340,200.6242,-258.3109,-124.0914,-126.3693
-500.0000,145.3014,-307.8090,172.8073,-129.7450,321.2722,-156.4583,332.7646,-396.1035,280.0289,-400.7098,311.1684,-219.5028,346.8924,-194.5714,213.5941,-257.6747,115.6800,-200.2323,-70.4105,-140.4590
-492.1875,254.1711,-268.3462,249.6970,-125.3695,361.7604,-225.2500,299.1195,-428.5369,209.4684,-507.3659,351.1929,-142.6286,350.1305,-190.2343,253.1861,-253.0407,153.4619,-265.4955,-126.4902,-137.8938
-484.3750,254.7772,-91.2448,246.3217,-123.3522,322.9931,-226.3949,186.2379,-430.3106,170.6630,-472.3698,237.9632,-71.1033,274.1354,-118.2264,102.5408,-217.7486,188.9728,-228.1094,-154.8942,-67.6813
-476.5625,166.2695,-176.3516,155.8315,-209.5358,269.1241,-242.7434,243.2698,-372.2637,263.7663,-451.5566,257.6179,-124.7812,294.0490,-97.3984,121.8004,-124.6407,206.3664,-278.9315,-118.1500,-85.6670
-468.7500,233.2353,-249.0765,223.8165,-176.3262,264.7515,-246.6904,238.8090,-412.7985,222.3762,-455.3327,289.7552,-164.0605,289.4693,-101.1563,189.5670,-127.0922,238.2334,-280.3423,-139.3757,-54.2523
-460.9375,172.6893,-344.4123,195.2850,-200.7163,236.8749,-201.2286,136.8669,-366.9271,83.4928,-372.7180,260.3831,-155.9334,297.4002,-127.5005,270.8445,-81.1229,142.5812,-93.3572,-141.2779,-10.4401
-453.1250,236.5856,-314.3978,262.1906,-170.7522,304.4367,-169.4162,131.3778,-408.6957,78.0658,-414.7432,291.4479,-124.4579,291.7874,-132.4850,264.5791,-121.7908,136.3564,-134.0150,-163.6901,-17.2717
-445.3125,287.2567,-121.7121,312.8771,-154.0979,318.7921,-154.9059,-1.2880,-429.7455,19.4580,-436.0576,269.3086,-73.2942,232.9862,-117.7588,168.1300,-143.7370,186.9025,-116.9688,-215.8705,32.5971
-437.5000,210.2181,-162.8361,270.8564,-230.2382,314.4489,-233.2018,-5.6422,-360.5842,52.1577,-330.1688,263.4619,-114.9340,264.4926,-195.8136,125.9818,-110.4573,249.7314,-122.7296,-184.9981,-10.3283
-429.6875,240.8224,-201.4171,266.4694,-198.8314,310.7517,-272.9547,137.6483,-326.8670,121.5021,-370.7282,223.2604,-156.0168,260.6631,-125.3011,121.4835,-150.6033,280.1920,-195.9336,-123.6946,-15.6945
-421.8750,237.9642,-274.5608,225.6186,-235.9792,233.6030,-240.2667,60.5049,-293.6914,117.4049,-374.8452,218.6063,-123.6478,256.3956,-92.3228,153.5530,-117.2802,207.1862,-92.6940,-131.3970,15.3941
-414.0625,246.6910,-300.2010,199.3549,-261.6302,245.0494,-230.0866,107.9744,-282.0065,165.9169,-363.4648,302.5430,-76.7721,304.7370,-191.8394,274.2333,-179.4336,145.7541,-187.9520,-121.0201,-12.0027
-406.2500,252.8959,-258.4558,240.5676,-219.8875,286.9879,-261.5096,112.9571,-276.9076,133.9424,-247.6707,270.9674,-71.4961,272.5878,-186.9497,205.4253,-210.1584,150.7964,-215.8073,-101.3486,28.0055
-398.4375,164.9429,-310.9648,187.6174,-308.3941,307.7709,-241.1868,134.8016,-219.0455,192.8262,-153.1255,218.2326,-161.4707,257.2967,-165.2931,152.4737,-189.1174,168.6770,-197.9218,-54.6176,-26.2274
-390.6250,185.1226,-254.4263,209.7979,-286.8482,293.6924,-181.8125,194.7972,-196.1225,141.8618,-241.5315,129.6361,-176.3898,243.1610,-142.5602,137.6801,-129.0128,294.6790,-281.9790,-46.9717,-42.3947
-382.8125,201.4368,-132.8529,187.1156,-235.2587,161.7661,-167.3922,98.9576,-217.1322,84.0514,-299.8745,144.1842,-125.2586,222.1788,-164.7564,115.0390,-113.8418,309.8117,-194.9915,-91.7958,7.4954
-375.0000,317.7933,-87.3329,201.4743,-189.7135,139.8876,-190.0294,151.1707,-276.1784,98.2946,-322.2546,268.7731,-112.1766,199.2535,-223.9932,55.4426,-209.6851,320.9756,-219.0589,-99.8263,-53.6480
-367.1875,386.1809,17.1159,235.8623,-120.2199,65.0452,-228.7159,76.4399,-241.2607,60.5989,-250.6830,304.4028,-114.1428,125.3888,-188.2778,16.9143,-210.5465,284.1631,-220.1660,-116.6622,-56.8273
-359.3750,281.1108,-88.9912,164.7875,-191.2699,-5.2533,-226.9514,116.2649,-92.8863,174.4525,-138.6668,269.5733,-185.6490,91.0765,-260.0864,129.9536,-207.9563,177.8820,-148.8275,-22.2483,-93.5411
-351.5625,269.8769,-135.3450,153.5513,-166.5615,-15.7032,-238.4303,289.9311,-66.7573,274.1409,-149.9081,221.5821,-234.3931,80.6175,-271.1177,154.8384,-255.6089,237.4298,-195.7228,58.3765,-106.4830
-343.7500,244.1763,-124.2591,124.8467,-157.4046,-6.5997,-267.4553,225.1471,-21.1721,320.3806,-68.7052,83.1378,-226.6890,89.7240,-188.6933,53.2812,-172.7718,176.5073,-114.1735,76.5493,-62.9619
-335.9375,128.2145,-170.5233,78.8796,-203.6001,58.2506,-276.8432,328.1180,44.0718,349.3728,33.1520,37.4422,-236.3300,81.5893,-234.6109,44.4798,-109.2510,130.3129,-125.9842,149.5466,-110.7670
-328.1250,107.1319,-121.9966,127.7859,-119.0069,70.9873,-265.4380,303.9946,19.1340,251.2727,-29.1767,49.6349,-225.1600,94.3606,-148.7030,19.5776,-59.9176,72.9905,-110.9918,120.9942,-63.7492
-320.3125,63.6343,-165.9834,81.2760,-127.9108,26.3129,-164.5326,111.4904,83.7138,95.7823,-1.9921,41.4109,-198.4871,122.7321,-85.2745,47.2731,-32.0687,-4.7500,20.4955,77.0170,-38.2121
-312.5000,117.8700,-112.3271,101.4978,-109.1553,120.3751,-108.9746,58.7333,29.9636,80.0373,-19.1421,60.9179,-142.1547,106.8513,-102.1844,104.7218,-11.5401,-56.7680,-100.3623,17.1984,-56.9986
-304.6875,107.9821,-52.8800,87.5944,-119.6040,107.3282,-196.6163,45.8812,16.0307,104.1997,3.5131,10.3183,-121.0187,93.8723,-79.2814,127.0858,11.8076,-101.9127,-110.4141,13.3295,37.0359
-296.8750,-53.9712,-215.5791,-45.3757,-247.1975,48.2225,-220.4063,134.9841,102.9590,192.3082,53.0138,61.6628,-145.0234,108.8453,7.4937,178.4035,26.0183,-88.1294,-166.6083,79.2876,48.9476
-289.0625,-17.7956,-215.2368,-9.2148,-211.7295,12.2595,-185.1419,208.2277,101.9470,193.5601,-20.4337,24.1489,-109.9660,108.9674,-29.6682,214.8688,26.3058,-17.2240,-201.7354,99.2865,82.9361
-281.2500,-101.9789,-229.3543,-61.4172,-225.7092,-39.0594,-201.3212,231.1207,197.4974,289.4567,220.6732,-100.7219,-125.3515,57.7436,-192.2611,273.9866,48.1685,-136.6914,-145.3265,186.1168,102.4967
-273.4375,-190.3306,-283.7211,-114.7859,-314.9335,-17.5453,-255.7452,436.8561,327.8121,458.1950,350.5367,-116.7564,-179.9813,5.3665,-209.0790,330.9502,30.8084,-190.3298,-269.1603,320.8725,46.8441
-265.6250,-157.2107,-251.6998,-118.6808,-317.7503,-57.5467,-223.7619,434.0888,360.5477,345.4338,271.8171,-83.3069,-148.2025,-33.5087,-103.4774,217.4110,63.8700,-157.4918,-236.5848,323.9000,77.6199
-257.8125,-185.8003,-316.4666,-147.2860,-312.3470,-11.2517,-143.5736,333.6147,331.4899,243.9654,279.2965,-74.5731,-105.2057,11.9098,-58.6548,189.1727,35.1506,-186.3769,-195.8135,273.7175,46.6263
-250.0000,-159.7081,-256.6144,-82.2150,-217.3388,16.7257,-153.7848,288.8314,322.0382,236.1913,306.3744,-120.1529,-41.5913,41.0198,-31.2235,180.6448,-9.9352,-160.5901,-310.4317,240.2288,35.2709
-242.1875,-205.1329,-234.3627,-134.6697,-194.9299,-70.8166,-132.5999,164.5519,306.0035,222.9208,253.8616,-171.2406,15.4324,-9.3697,26.6154,202.6210,120.4077,-137.3260,-217.6516,185.9758,91.3497
-234.3750,-167.8258,-126.4574,-166.3939,-156.8628,-64.6303,-92.7653,97.0160,200.6469,192.3939,110.0196,-129.5960,18.1193,-4.0225,66.1233,208.3376,199.4244,-98.3358,-180.2157,97.5060,57.1205
-226.5625,-77.7948,-3.9124,-73.3954,-69.1406,-44.7122,-38.2723,-29.7771,144.9650,64.6138,90.8489,-110.2154,35.4742,-19.9393,121.3087,117.7979,144.1158,-44.6237,-162.1234,26.2686,73.5772
-218.7500,-137.0271,-63.7096,-133.6610,-128.7561,-30.0606,9.8744,-51.8263,267.9455,42.5700,214.3294,-96.0972,10.5043,-6.1150,97.1781,57.9918,83.4846,-103.1803,-80.3828,92.4970,47.7233
-210.9375,-78.6841,-112.9976,-72.3564,-107.8582,68.1738,-4.4702,83.7019,218.4432,105.1120,126.3200,-34.3997,-3.9470,19.2993,-25.4255,45.7725,34.3852,-46.1669,-164.1129,121.3074,32.4141
-203.1250,-37.8214,-73.8417,-31.5294,-33.4976,109.9466,-112.3485,15.7748,147.4115,73.1992,91.7744,-30.1707,-0.9412,61.2590,-96.5644,50.1036,74.7594,-75.6318,-124.3761,66.2667,70.5883
-195.3125,-42.4730,-115.2743,-34.2210,-74.7179,108.2009,-116.8199,50.3350,143.8027,71.7666,87.6488,3.5369,-6.5178,96.7032,-26.2860,84.9278,-1.4408,-45.6198,-165.2308,66.1526,28.2027
-187.5000,-53.1463,-57.8007,26.0652,-17.0246,133.4369,-131.3862,38.8785,93.1226,24.3105,37.4488,-7.7727,51.8215,48.1315,105.9036,35.7414,-51.7022,-21.6382,-107.1755,45.7667,49.7558
-179.6875,-87.0913,-93.6656,-8.9172,-17.6628,98.4116,-132.2997,-31.8340,57.1144,-10.4040,72.9066,-43.3500,14.8282,13.2972,68.7635,37.2975,58.7143,-55.9366,67.5304,21.9517,47.9994
-171.8750,-17.6668,-131.2298,28.4725,15.0177,63.7611,-132.8915,80.8335,93.4277,28.2705,72.6795,-41.5546,-22.8439,-21.1524,-40.0453,39.2476,58.4543,-21.8700,30.5628,77.1269,9.5950
-164.0625,23.1190,-57.4993,32.2261,54.0070,-4.5148,-94.1642,12.8877,60.0712,34.3370,2.7765,-74.3828,51.8030,-52.2181,-37.5180,6.5988,62.5226,-51.4352,104.9113,45.4895,47.5328
-156.2500,-36.8605,-13.5993,7.2063,-6.8278,8.4382,-84.2695,25.1711,-39.1143,83.6303,-134.9577,-24.9842,135.6289,-39.0574,45.1896,56.1781,36.7634,-41.7812,43.4245,-12.3592,19.6691
-148.4375,15.0343,35.1083,61.0602,42.1622,26.2670,-32.5544,-29.6773,-97.4725,28.7936,-119.8781,-7.7040,187.2829,-95.0198,171.7184,-0.3675,16.8368,9.7432,-11.2302,-61.7562,33.6532
-140.6250,-65.5970,-12.7677,12.3912,64.5783,14.5748,25.5783,-187.0467,-37.4023,-93.5586,13.6205,-93.9504,209.3663,-106.5062,194.6769,24.5689,76.3399,-36.2550,81.5149,-84.8941,55.0827
-132.8125,-74.1098,-23.5622,3.8436,54.0703,6.9977,50.7746,-122.2935,62.7535,-63.7826,75.2071,-139.0870,198.5328,-113.8730,184.7187,-19.3688,66.9334,-45.1383,-33.6788,-22.8673,43.6191
-125.0000,-31.2103,89.0052,-28.2967,60.9225,-24.1709,18.3374,-114.1095,104.2936,-20.5776,116.1765,-131.8010,164.0815,-106.8156,5.1424,-50.8605,-2.0766,-37.6165,8.4988,24.6620,119.5576
-117.1875,-114.6813,73.1427,-78.8119,10.3504,-36.7209,2.4709,-90.3044,125.4102,4.2468,136.7097,-72.8825,148.2126,-83.1322,-119.8522,-26.7161,-16.5021,19.5205,28.2409,47.5781,103.1063
-109.3750,-84.1831,135.1957,-46.3588,38.6993,-3.3058,-4.4801,-93.5356,83.4558,-35.9513,94.1708,-76.9887,104.2751,-86.4765,-15.9204,-67.5969,-21.9911,49.6273,21.9109,21.7615,95.6177
-101.5625,-92.7179,124.1641,-92.9354,98.9687,-12.9236,19.4770,-212.7862,71.4378,-80.1591,8.5637,-122.1256,92.2688,-130.8509,8.9450,-77.4973,77.4445,-30.2942,221.4936,-15.0690,119.0839
-93.7500,-107.8326,71.5179,-107.0925,150.6211,-25.1253,75.8010,-78.6153,56.7917,54.0528,-6.6759,-135.8517,112.6525,-143.8067,31.1987,-126.9648,63.2592,-150.8019,169.4552,35.6707,65.9638
-85.9375,-94.4859,152.2890,-56.7891,197.6994,-10.8587,86.5579,-99.9865,-5.4362,-42.2786,4.5022,-122.1030,197.4729,-129.2841,114.8790,-221.9398,75.5184,-137.8470,145.8496,-5.5199,76.3038
-78.1250,-135.3113,108.8275,-60.6579,83.5534,60.2277,117.0895,-175.5483,-84.8846,-153.8021,-38.5480,-89.5203,191.0798,-58.9401,183.3432,-189.0866,105.5672,-38.0703,138.0006,-88.7447,32.4574
-70.3125,-44.6182,126.8448,33.9874,100.8795,118.8199,62.0883,-153.5915,-101.8498,-131.7966,-56.1150,-67.4252,136.1730,-73.0847,129.2947,-167.7189,53.0973,87.2230,50.6306,-96.1443,14.1283
-62.5000,62.9792,125.7471,-1.4597,101.0838,10.3228,23.9646,-224.7005,-28.9256,-165.8659,-20.7925,7.5752,60.1592,-144.3177,55.1243,-129.4248,89.5149,53.4222,156.1307,-85.9401,48.7072
-54.6875,105.7314,59.7866,-29.7530,70.4260,-91.0175,65.9707,-177.6489,-58.8602,-119.7717,-51.3283,89.7315,-6.7135,-98.3853,61.0916,-45.9546,60.0791,-10.2253,125.7607,-92.6668,17.4540
-46.8750,59.7911,48.0846,-6.7392,93.0529,-102.0484,50.2613,-153.2883,-0.4993,-131.3617,6.4204,77.2041,-22.3019,-74.1352,83.3508,-96.1673,82.9326,-56.5670,43.6747,-59.2038,74.5116
-39.0625,-27.5283,27.9531,-61.1039,39.2612,-118.4596,30.1292,-169.3124,54.4498,-110.3374,59.7506,60.3031,-5.3014,-16.2694,-8.7938,-75.7724,64.3600,-38.2891,129.1584,-29.8440,54.1767
-31.2500,9.2598,95.9105,16.6424,72.5543,-4.7579,-5.9182,-55.2282,-54.5099,-70.2017,-122.8270,63.5141,67.7914,-11.2946,-6.8549,-71.2686,29.8719,33.0953,58.7301,-50.4619,17.9562
-23.4375,6.0009,160.7968,11.3454,136.7830,-46.0943,95.9701,-131.1794,-134.5317,-73.1021,-129.4728,22.6862,96.8275,-89.3581,95.0221,-75.7916,60.3231,-40.5610,88.2294,-104.0771,46.6934
-15.6250,-69.7395,47.1721,-67.4368,59.4999,-121.9224,162.3427,-98.6274,5.9367,-40.4997,82.3656,-55.6341,52.3670,-92.9178,88.3931,-79.8068,54.2613,-81.6996,81.2088,-13.5650,38.9481
-7.8125,-56.7199,127.2838,-56.4627,104.9520,-109.9934,133.4505,-122.3274,52.1422,-137.1422,91.9470,-80.1901,97.6492,-115.7212,62.5011,-104.0615,26.9449,-34.0826,92.9303,-3.1944,83.9673
-4000.0000,22.7730,20.9150,34.4965,-8.8282,-5.7369,-14.6983,-52.6699,-89.4760,-46.2059,-72.0616,26.7619,-12.4591,16.2553,-56.0152,71.8959,-30.2375,30.7803,45.2498,-54.0772,68.8044
-3992.1875,-2.7569,-2.6617,48.2095,1.0659,80.4144,-74.7659,69.9509,-76.6867,76.4533,-58.9983,3.3304,-36.4827,29.6138,-79.8602,13.1707,-54.5621,6.4840,-13.9643,3.6855,9.9975
-3984.3750,12.1182,-23.8269,63.3284,15.3724,57.9771,-24.4298,83.9724,-26.5098,54.4985,-9.5516,-54.6970,-58.0985,-28.6296,-29.3056,-117.1611,-76.5012,21.5925,36.2227,50.7786,25.5870
-3976.5625,-22.1043,-198.0866,29.3500,-54.4221,-12.5516,14.8071,48.8841,9.5597,55.4304,-9.2052,-15.8232,-92.8131,46.0260,44.1419,-76.6069,-75.5422,58.5995,37.3267,40.6748,-7.9226
-3968.7500,42.4682,-133.5594,61.1710,-60.4249,-18.2670,45.8417,79.6059,2.4386,49.1650,-52.0460,51.8484,-98.7337,40.4850,74.3755,-45.2550,-81.7804,53.4085,-73.7779,27.8139,-12.6429
-3960.9375,5.8903,-135.1754,-14.1540,-62.5696,-20.1262,43.7249,4.1809,73.1704,10.7532,54.9654,87.3683,-64.8017,2.7864,-2.5462,-10.0668,-48.1804,-53.9219,-4.0404,39.2591,-13.5156
-3953.1250,5.6100,-206.4941,-11.1853,-99.4157,55.3071,-28.0836,116.0609,221.2034,85.6466,203.2656,90.1923,-99.5692,4.3857,-111.1709,-43.5871,-9.2825,-124.9475,-75.0055,146.6542,-84.0932
-3945.3125,-3.2192,-145.3583,-19.7691,-72.8204,83.1906,-0.4374,106.4115,210.6803,112.9993,193.0126,7.4663,-34.8861,-4.5672,-48.3408,-88.6626,-18.9252,-133.5261,-48.5386,146.0457,-92.2301
-3937.5000,-100.3089,-65.4681,-117.6101,-99.4804,57.8196,84.9591,80.5168,147.9203,124.1068,130.5253,20.4700,-23.4491,8.2192,36.2403,-37.9825,-43.8124,-124.3619,-39.3215,98.5779,-152.6193
-3929.6875,-57.1598,12.6687,-73.2127,-57.8921,64.6978,91.6098,123.8846,79.4122,93.4694,99.2927,27.7187,-52.7582,15.2562,116.0724,6.9568,-37.4596,-80.9482,-207.8548,57.8663,-144.7691
-3921.8750,-104.7014,-34.8812,-51.5060,-34.9885,12.8806,75.5663,34.5471,99.2002,41.1188,82.3511,49.2754,-31.7655,36.5876,99.2076,-7.8246,56.1925,-128.2333,-113.0866,36.7746,-85.6207
-3914.0625,-104.1456,-139.3293,-85.7023,-34.9774,15.1597,77.6285,73.3038,63.0957,79.8662,46.5236,14.9241,6.3244,76.0128,63.4418,68.4682,94.9552,-127.4141,-147.2178,24.4068,-119.3786
-3906.2500,-5.6419,-111.8252,-57.9589,-43.0229,-31.6145,67.6392,100.0322,52.9538,69.5777,36.6494,-68.4889,33.3737,29.3782,200.6375,23.7008,84.6639,-134.6366,-190.4202,24.4881,-91.1965
-3898.4375,-62.9937,-133.1687,-79.0762,-64.9208,-16.2499,45.8064,113.9130,29.9708,84.4376,13.9365,-15.7638,11.5865,44.8796,140.9912,40.0806,62.5263,-120.7190,-105.4717,29.8203,-111.8633
-3890.6250,-35.6607,-36.8113,-13.5063,30.8770,48.8092,36.6744,178.5064,-54.2926,111.0061,-70.0622,49.6554,39.4997,73.0732,-15.9755,32.1517,-19.8973,-23.1062,-184.8168,15.6652,-119.8383
-3882.8125,-77.7216,-7.8395,-23.3271,24.2882,1.4735,-46.8500,131.7035,-28.9643,211.1743,-7.4789,2.6711,-43.9803,99.8534,-27.3328,22.7929,6.2727,-29.8844,-155.5528,27.3638,-55.2193
-3875.0000,-118.3871,-154.4673,-63.7537,-122.8901,-2.4685,-161.9623,274.2971,112.7679,316.7389,171.5103,-0.9280,-122.0567,96.0207,-32.2642,129.8197,37.8369,-105.2794,-264.8791,133.6571,-95.2061
-3867.1875,-31.7104,-207.7556,-9.8354,-106.7183,-23.0699,-181.7155,216.2610,201.8748,222.6620,223.8721,15.8126,-142.7827,1.5256,-16.8376,147.1943,53.7576,-53.3447,-213.8750,148.6884,-77.8559
-3859.3750,38.5102,-173.4765,26.6249,-71.9942,-24.1255,-146.9154,67.7776,162.5429,111.1298,184.7892,52.0903,-143.9490,-72.4265,-92.8590,37.1023,126.2368,17.1509,-73.3279,87.0053,-77.9558
-3851.5625,102.1184,-73.7860,93.4632,-8.8814,6.2123,-153.7106,97.6947,80.6164,103.9937,-6.8946,82.7682,-150.7039,-42.9804,-100.4882,-42.6012,82.1261,81.0739,-79.3755,54.0732,-83.6623
-3843.7500,35.4307,-106.3823,21.9965,-6.0597,-29.7434,-115.8071,61.3177,44.3973,141.5632,-6.8695,10.1518,-148.7534,-40.8421,-26.4195,-3.6306,82.7159,49.6963,29.2689,44.5697,-44.6775
-3835.9375,-68.0612,-243.7847,-82.2684,-74.0296,-23.5010,-72.7017,177.1458,85.4008,220.3415,71.3797,16.7288,-143.6139,1.4875,-58.1498,113.5248,14.5054,52.4908,-37.8808,103.5132,-111.5027
-3828.1250,-7.8120,-78.4555,-18.7900,-50.2530,2.4927,-46.8372,202.7402,36.1769,208.8781,59.3953,43.0526,-117.7282,-46.4382,-70.1213,66.4297,3.0405,77.0287,-118.2867,85.4670,-121.5962
-3820.3125,40.6429,-29.9118,31.8887,-37.2614,15.6871,2.2358,68.5308,12.1561,74.5991,-1.3967,56.5684,-104.6280,-70.1700,-57.8768,7.5215,15.7780,90.7631,-34.4917,24.1511,-107.4976
-3812.5000,117.8912,-93.5547,113.3626,-31.4596,96.6848,-26.8877,112.1125,-18.0666,45.1185,-31.3858,100.8828,-96.7179,-25.1130,-161.8248,52.3949,-123.6831,133.3037,-97.8900,22.2995,-135.6121
-3804.6875,159.6984,-51.6299,118.3861,-25.0969,138.2364,-95.4611,153.2512,-51.7328,86.1869,-27.8212,69.7423,-92.2554,16.4792,-193.2262,21.7923,-119.5921,69.4236,-125.7494,30.5136,-93.1894
-3796.8750,49.6049,-125.5930,41.5025,-135.6213,60.8815,-62.9252,185.4902,16.7089,191.3553,-33.1555,65.6905,-96.6852,86.1580,-198.5180,18.2723,-13.3939,65.6300,-129.5039,68.5073,-96.6705
-3789.0625,103.2557,-36.7952,23.3646,-81.3951,42.2689,-7.6350,166.4862,-114.0804,135.2728,-198.7239,120.3839,-41.3585,104.5759,-109.0508,37.4875,4.5608,84.5746,-110.5235,-11.5143,-77.4147
-3781.2500,57.2581,-12.6255,-26.4358,-57.8186,28.9902,16.0051,79.8349,-127.4968,48.5351,-139.9226,108.4222,-17.6756,54.3246,-49.2249,99.0254,-46.1245,3.8984,-16.2051,-38.1714,-52.8183
-3773.4375,37.2062,-32.5008,-46.3049,-114.2938,82.6472,-41.3991,96.1343,-38.9420,27.7517,-14.1455,161.4033,-75.0424,108.0059,-70.4497,79.4877,-66.8358,19.1773,-105.9325,-0.6468,-72.2875
-3765.6250,106.2082,-33.3205,22.8773,-115.7017,114.3518,-119.7468,16.5007,28.6853,59.0312,53.6932,157.4280,-80.3583,102.7243,-148.6205,-71.0252,38.4929,53.4929,-107.6162,13.6438,-2.7256
-3757.8125,2.7125,-101.6253,-46.4338,-148.5860,154.5518,-188.5827,20.3623,68.8176,136.8059,93.0294,124.9438,-76.1642,143.9350,-182.2857,-67.0623,78.3208,-14.6990,-33.7897,44.2597,-34.6698
-3750.0000,21.3628,-47.7749,12.4018,-95.3101,212.9024,-169.2590,151.3782,15.0986,156.7311,39.5145,72.6061,-91.8164,91.2895,-126.7937,-82.9724,-10.6851,39.2561,-85.8053,68.8306,-86.4762
-3742.1875,3.4629,4.5380,29.6837,-43.5703,118.7034,-115.4760,94.8480,30.8356,63.1024,19.4561,15.7107,-75.0152,-2.9163,-73.8366,-137.4600,5.7714,91.6655,1.6293,58.2768,-68.8416
-3734.3750,-1.6026,-105.2946,26.7999,-83.9778,78.3542,-44.8340,127.1714,99.4443,95.3273,88.2658,12.6494,-78.3610,-6.2867,-41.0146,-177.1024,-34.9293,86.9178,-38.0787,102.8992,-108.3661
-3726.5625,47.6757,-55.7744,39.2524,-0.0271,54.3571,-69.8347,102.8623,147.4232,70.9082,136.4459,-49.0679,-66.3518,-67.3117,-29.8407,-164.4128,-60.2892,66.5146,-23.4388,121.9999,-58.5555
-3718.7500,-28.2542,-60.4533,-2.4994,29.7452,12.1640,-38.0224,23.3412,178.2244,-8.7228,130.4407,-53.9934,-71.5438,-72.5435,-72.8554,-59.9554,8.1786,26.8966,42.0085,95.8445,-62.9542
-3710.9375,33.7563,-34.2056,62.6931,126.4691,39.9235,-10.2446,50.7721,93.9890,-18.4016,10.3912,-62.9744,29.2076,-81.8294,-82.9059,-68.5585,-1.3768,53.2155,-36.5959,54.4062,-71.4175
-3703.1250,42.9143,10.1792,70.0292,170.3406,9.8273,33.6865,-16.6222,-10.0718,-47.9132,-94.4954,-54.8117,110.1093,-73.9740,-39.8044,-170.0187,-31.7752,62.6822,113.9290,4.7827,-26.7384
-3695.3125,-57.1874,-18.6916,-32.8984,140.9600,-19.5283,114.3674,-9.2568,-3.3611,-4.6646,-50.6107,-83.9087,43.7694,-67.3766,41.0614,-124.7434,12.5764,-1.1143,120.2094,12.3298,-55.3163
-3687.5000,-56.2005,52.5336,-105.7376,141.6829,-56.7793,113.1541,-10.7715,104.4620,-6.2956,94.3902,-157.9131,79.5401,-141.6850,149.0440,-125.3842,48.0183,-0.8186,-19.4256,47.3985,-18.8106
-3679.6875,-91.6191,158.3609,-181.9823,70.0153,-132.4313,110.5487,-85.6833,137.9076,-81.3271,128.0135,-233.3344,224.9119,-144.4008,182.6341,-127.4428,82.0800,-0.9321,15.5303,27.0575,16.2886
-3671.8750,-73.6530,246.5648,-126.8430,52.7399,-77.6906,92.3489,-68.1907,81.7892,-100.9575,35.0688,-252.3634,389.6783,-126.7223,162.6295,-109.1101,62.5634,17.3460,-107.1147,-12.0744,34.7752
-3664.0625,-91.9404,227.5070,-112.9567,-1.7852,-101.1904,104.9056,-91.9271,93.4428,-51.8199,83.8881,-349.6489,439.1940,-150.2943,248.3891,-169.0580,111.8003,-70.6294,-90.0283,3.7337,121.9964
-3656.2500,-183.2375,67.4382,-170.0767,-92.3013,-85.6798,84.4736,-39.6530,146.1078,38.3211,136.7069,-369.9520,455.7019,-170.8660,338.1599,-189.0204,91.0535,-90.6150,-109.9336,54.4105,102.2107
-3648.4375,-166.6422,119.2824,-116.3043,-39.9139,4.7283,100.9396,50.5262,50.6789,17.3682,41.4314,-390.3546,435.1041,-154.5383,353.8330,-246.0793,-2.7941,-38.6938,-127.9509,55.1393,119.3130
-3640.6250,-197.9858,158.2122,-77.4857,-1.4656,43.1837,102.4493,-22.2435,-20.6746,-18.5366,-103.7691,-351.7184,436.5539,-153.1652,207.5619,-170.1350,35.4038,-104.7196,16.0770,6.1978,158.4571
-3632.8125,-192.2308,129.2164,-106.5761,3.0849,86.7432,73.0589,22.0905,-87.9038,-11.3405,-96.8574,-306.9792,371.1234,-71.7015,177.3994,-88.1042,78.7074,-98.6585,-46.7900,-20.4401,129.6879
-3625.0000,-164.8242,121.8586,-79.0184,65.3016,77.9522,63.3177,12.0813,-61.4825,15.5058,3.6926,-316.5679,324.3738,-118.6098,203.8987,-208.4100,105.6660,-141.9469,14.9783,13.9499,157.5509
-3617.1875,-180.2732,35.6794,-129.3205,14.6809,-9.7013,123.7330,-1.7829,-2.8994,-35.4977,24.4077,-293.0113,310.7778,-132.3822,189.5557,-184.5872,91.7873,-121.0844,70.9007,29.3572,107.5536
-3609.3750,-95.4313,190.8068,-40.3319,64.3617,-31.0510,139.4591,-60.3324,-60.9963,-167.1889,-33.5499,-278.1707,289.4702,-153.8528,240.5053,-95.4971,-3.7702,-0.9247,-20.8841,-49.2159,86.8390
-3601.5625,-106.3332,215.1725,-90.0948,52.2983,-154.1430,89.4383,-109.6167,-1.8227,-143.6171,-10.2451,-290.0921,239.4045,-204.0750,226.7249,-107.1856,93.9322,-47.5173,74.5706,-36.6591,111.3649
-3593.7500,-166.5518,120.2249,-150.1712,-8.0678,-214.5354,103.1275,48.8058,84.0705,15.6631,75.7751,-277.3225,216.0414,-227.5992,239.6638,-167.1842,70.3401,-142.4207,49.7289,73.7966,51.5808
-3585.9375,-183.5737,138.4850,-132.0548,80.7806,-233.7217,121.0214,30.4416,138.1783,-76.8571,130.0055,-259.3550,233.8796,-209.9265,256.8014,-185.9898,50.9445,-194.1286,103.0819,94.0030,69.9856
-3578.1250,-241.3358,47.0041,-189.6826,58.8992,-218.6659,135.1713,-64.6892,225.5561,-136.1458,254.5015,-244.1345,174.9702,-195.0092,160.1927,-170.5742,212.8043,-215.5895,151.6925,95.9305,48.6385
-3570.3125,-234.4517,53.1686,-145.6680,99.6705,-174.9662,142.9828,-57.1731,269.6058,-128.7858,261.6650,-236.2665,72.7111,-151.4450,130.2514,-236.5278,293.3255,-174.4095,52.9435,104.3919,19.9301
-3562.5000,-219.4183,103.4919,-130.5083,114.6011,-160.1160,120.9547,-79.4999,246.8102,-151.2705,275.9791,-258.2639,87.6045,-136.7391,181.4918,-332.3518,198.0068,-124.0786,68.3337,97.8062,35.3669
-3554.6875,-225.7429,-7.5331,-132.7110,38.1874,-89.6190,118.5831,63.8190,169.6737,-45.1032,161.9557,-187.6227,121.1547,-102.3871,178.3911,-260.5456,47.3564,-60.1038,27.3783,114.3338,-40.5465
-3546.8750,-106.8218,5.6854,-83.6724,86.0291,-76.8712,94.4601,39.3988,107.8192,-32.6802,63.2143,-137.7351,96.9574,-89.7925,190.5335,-211.5055,59.9590,-46.8818,75.6583,74.0292,-27.2177
-3539.0625,-139.2513,44.5585,-115.9844,54.5261,-109.4762,97.9816,-31.3718,110.6394,-65.6090,66.1436,-171.2047,137.4168,-86.5552,156.3424,-133.8349,137.2145,-112.0087,150.5738,45.2789,-23.2425
-3531.2500,-169.9317,190.1817,-146.5548,58.7668,-31.3301,67.2551,11.6109,116.2304,-60.7858,108.8318,-127.9238,106.6247,-81.5711,161.9256,-164.4337,106.2229,-38.3886,14.2277,51.0150,-53.5284
-3523.4375,-95.7986,193.6116,-108.3190,61.8149,-66.3801,68.3294,-60.5964,153.6294,-95.1612,220.3241,-126.8392,70.6300,-116.7871,125.3244,-200.2607,107.0293,-69.9610,52.6729,56.1365,-15.0223
-3515.6250,-80.1125,69.5870,-126.5300,8.4244,-84.8792,49.9584,-79.2628,171.5826,-41.9890,164.3704,-36.2083,89.1868,-62.4524,33.2775,-107.5536,162.3955,-121.9829,34.6784,41.7350,-32.9697
-3507.8125,-1.4779,149.4995,-82.7961,16.9910,-41.4243,57.5455,-35.9657,30.4932,-70.8658,23.3703,7.3727,132.6944,-92.1673,112.1843,-100.9050,94.7213,-78.0513,43.6247,-3.5893,11.0214
-3500.0000,-70.1349,186.1157,-120.3610,-52.7333,-41.2743,56.8310,-109.9604,29.1249,-72.0351,59.0952,-28.3518,131.9010,-93.1908,74.7969,-27.5818,94.7471,-147.4248,150.2606,-14.5319,47.7073
-3492.1875,-63.2522,121.2737,-112.3940,-81.9103,-34.5834,27.6686,6.6108,73.3432,7.3686,102.3992,-21.5357,66.6486,-85.6729,7.9689,52.2778,65.3266,-106.2615,51.4465,42.0081,18.9303
-3484.3750,-30.4176,119.3744,-79.4823,-14.1316,-37.9424,-13.5485,3.1494,68.5380,39.7354,61.6800,-24.7698,25.3420,-90.2121,40.1095,48.0715,23.8611,-108.1492,49.5614,42.4545,52.0882
-3476.5625,-117.7355,33.3204,-95.7306,5.5019,-91.4561,44.0900,22.5390,88.6083,-13.0472,44.8290,-5.1627,45.8880,-69.9129,23.1059,105.6984,7.2693,-159.1960,68.5227,51.9906,36.0878
-3468.7500,-77.3638,73.9645,-90.2893,80.8320,-123.2709,86.4339,27.6450,93.3960,-44.1215,49.6960,0.1392,51.1322,-64.9141,64.8078,37.0163,49.3852,-118.5490,4.1763,45.7040,41.7712
-3460.9375,-71.6442,44.9722,-121.4960,86.5241,-117.7362,128.1336,-112.9016,98.5477,-112.8484,91.9238,5.7828,56.7369,-59.5684,69.8812,-29.3391,127.8558,-112.5535,115.1729,6.1672,47.7970
-3453.1250,-81.1736,35.7320,-90.9586,76.9740,-14.4560,122.5846,-9.7088,91.4628,-9.8284,84.9077,36.1754,14.1017,6.5278,-47.2898,-36.9645,12.0923,-86.8099,70.9269,50.3131,-31.4350
-3445.3125,-49.4949,67.6929,-21.2236,144.6385,56.0270,82.2323,-13.3160,87.5947,-50.6081,81.1093,-41.2332,-26.3317,2.8206,-14.2480,-112.4100,8.5404,-89.8688,138.8693,58.3864,-34.4790
-3437.5000,-79.6217,2.8558,-12.2939,114.5148,100.7099,91.0851,-78.7262,95.9596,-116.1864,89.5488,4.5385,-18.5703,11.2992,66.9996,-141.6748,-20.7989,-13.7441,144.0235,27.0151,-99.3300
-3429.6875,121.4340,169.2162,90.8186,209.6022,130.5926,10.1467,-159.9281,-22.4426,-233.5560,-28.7854,217.4977,-25.6143,76.9753,22.4527,-186.7509,-101.9336,222.5708,28.3815,-98.4525,-179.9959
-3421.8750,334.4357,312.5337,204.8779,317.6531,97.4274,-22.8308,-339.1772,-202.8789,-376.9760,-246.1603,368.3969,-58.7040,117.5935,-11.1134,-255.9013,-135.1115,329.8282,171.6849,-258.1327,-212.7203
-3414.0625,461.7762,263.1899,304.2724,374.0562,122.6028,2.5449,-387.0697,-324.9338,-462.0347,-368.1524,467.6358,-106.4393,179.5540,-59.3176,-230.7260,-219.9170,457.4207,228.3336,-341.2584,-297.1031
-3406.2500,565.4150,403.1367,376.9549,407.7640,121.0718,1.2187,-425.6485,-326.6502,-463.7905,-295.8085,466.1714,-181.8708,103.8061,-98.2265,-195.2640,-331.4045,456.3043,227.2693,-344.4280,-298.1987
-3398.4375,477.2990,350.3356,284.8796,318.7306,102.7805,-53.8555,-370.9830,-235.0855,-372.2971,-204.1856,447.9421,-237.0486,85.3002,-190.8747,-103.5687,-275.6237,332.4295,279.4571,-273.3218,-316.0493
-3390.6250,433.8191,201.1809,276.4410,240.3503,94.1310,-98.2717,-159.6555,-169.8491,-197.1407,-212.8971,439.3540,-281.5744,150.4384,-199.8525,-38.2338,-211.1881,254.1943,130.2917,-179.6605,-324.2603
-3382.8125,366.7419,99.4321,276.3985,208.3747,57.8790,-98.2820,-195.9180,-133.2088,-197.5770,-139.2147,403.1667,-207.6961,112.9728,-126.4039,-38.5111,-137.3496,187.3617,134.5176,-169.3733,-250.0755
-3375.0000,278.7596,11.7812,186.4519,121.5109,40.7280,-78.1828,-176.0905,-39.4693,-140.9142,-9.4349,386.0760,-261.7142,95.6109,-32.8406,55.2954,-191.3930,135.6205,47.8497,-123.6979,-266.7915
-3367.1875,264.8236,33.1686,205.5493,107.6956,22.6378,-96.0341,-83.2015,-20.6633,-85.1924,-26.5789,295.0377,-242.6882,115.3048,-51.2264,74.1380,-245.3741,120.9182,-1.7829,-74.7402,-210.4676
-3359.3750,182.1930,-13.1473,79.9457,60.1798,-29.1480,-74.5886,-99.0118,0.4602,-27.1683,-42.4031,205.2954,-258.3555,136.2945,-140.3025,132.2640,-150.0495,74.5135,91.8750,-55.6567,-151.8448
-3351.5625,133.4551,-27.5678,64.2323,-24.4344,-45.0383,-16.2402,-77.9228,21.4995,-80.2432,-21.3165,226.4436,-200.1172,157.1826,-119.4744,153.2919,-91.8167,96.0050,-27.5668,-59.1707,-130.3242
-3343.7500,156.2213,-4.4852,49.0209,-71.5357,-24.4289,4.6076,-130.3303,79.0434,-205.8127,73.2812,211.0909,-179.3767,140.5658,-25.1378,63.8071,-71.0832,48.0044,-39.5192,-51.5847,-72.3091
-3335.9375,79.5419,-114.8570,6.3617,-148.0852,79.7261,-0.9953,-26.1882,36.1531,-102.8270,30.4399,242.2790,-185.0917,208.4979,-142.2390,130.8518,-76.7872,-27.4531,-9.9205,-15.4591,-77.7454
-3328.1250,126.6075,-67.4962,53.4456,-64.8923,163.6292,-26.8428,57.7170,-63.9692,-19.0759,-106.6421,289.2182,-247.0679,181.1855,-132.5795,104.6403,-103.7266,-16.1693,-32.5839,-17.5461,-30.4385
-3320.3125,80.5760,-79.2340,3.4267,-40.7921,77.4382,34.2074,7.5243,-40.1773,4.5793,-8.8067,202.0549,-260.1472,131.7711,-109.0171,17.3113,-79.7588,-26.9866,61.6487,2.7113,-6.2341
-3312.5000,65.1370,-93.3771,-8.0018,-56.0877,28.8543,95.8523,179.9305,21.2336,102.8357,15.6549,116.4900,-235.6286,81.9638,-230.8586,5.5740,-54.1867,28.7882,-23.5220,89.5025,-91.4387
-3304.6875,79.6518,-43.5791,6.5224,-6.4327,6.2320,36.4500,231.2975,35.6058,154.0437,67.0777,57.8739,-185.1616,23.1062,-252.7345,19.7788,-113.6600,43.5130,-78.7643,119.7432,-76.7060
-3296.8750,37.0154,-191.9412,-1.1024,-83.9249,-38.5419,28.9027,223.5121,138.8375,220.1053,96.3561,13.0973,-228.8401,15.0970,-224.7424,48.8247,-47.2689,1.0790,-16.1570,166.6991,-84.1258
-3289.0625,55.2761,-208.4191,54.1685,4.4840,-20.4189,47.2588,204.6302,119.9770,164.0731,77.5382,-42.7720,-210.6231,-4.0036,-170.8417,29.7642,-28.9686,54.5418,-67.6555,143.2562,-65.6535
-3281.2500,3.9947,-119.4596,72.8925,58.3395,-38.8380,103.0600,39.2013,64.5848,72.4962,22.1890,-61.1924,-155.9653,-59.6459,31.5249,11.1391,-84.2176,73.4436,21.2861,58.6833,-46.7357
-3273.4375,86.1035,-36.1230,88.0050,106.5849,-22.8558,155.2612,18.1801,-66.3720,14.3338,-71.7206,-8.2242,-102.9155,-117.8864,84.2928,62.9048,-105.0533,121.7238,-36.3737,-29.3803,-104.4252
-3265.6250,178.4035,55.4065,181.3074,163.0285,-3.6708,138.6597,-73.6240,-121.1079,-3.6128,-126.4164,10.9336,-46.6606,-97.9195,-6.7328,8.8668,-11.6819,107.2022,-49.8447,-90.0347,-47.9244
-3257.8125,92.0517,5.2900,126.9567,112.8273,15.8582,47.4087,-90.0814,-101.4853,89.7940,-69.7570,-6.5661,-64.0512,-42.6038,-98.3949,102.1668,81.0495,57.0321,-29.9659,-82.1684,-28.0724
-3250.0000,76.3938,-45.1417,146.2988,61.3157,72.0890,-43.1460,2.1655,-82.1429,144.9040,-50.3692,-24.3695,-81.7451,13.4107,-42.3517,157.1665,63.4908,41.5557,-116.3951,-46.9549,-8.5272
-3242.1875,49.9897,-71.3287,115.8977,36.0571,40.5777,-37.4601,-64.3313,-39.5365,114.2694,-7.7163,-90.9245,-39.1822,19.6724,73.9571,163.3992,-3.8098,-18.6785,-1.5912,-32.2823,71.2674
-3234.3750,2.0800,-84.0190,28.9938,23.3032,27.5645,23.7300,-40.3355,-15.4299,101.1422,-20.5658,-66.9831,-15.1141,42.4371,97.7911,187.1128,-16.5963,-102.4223,-14.2834,-18.7759,58.5635
-3226.5625,6.0207,-114.8674,30.9359,61.4026,-7.5900,-12.2306,-40.4789,21.5333,100.8748,16.4425,-67.1886,-14.1955,80.0616,23.4721,223.6759,57.4721,-169.3234,-80.1415,-8.0594,132.7061
-3218.7500,-110.7876,-196.4659,-92.8755,-55.2441,-58.5010,-24.9495,-17.3730,81.7687,123.8601,76.7325,-117.1485,8.9741,66.9310,-25.6076,246.4852,154.7999,-145.9815,13.2500,39.2928,156.0996
-3210.9375,-111.8012,-92.2742,-92.8966,-91.0971,-57.6169,-60.8711,20.5417,82.8201,124.6574,77.8286,-116.3150,82.9386,30.6007,47.1229,173.0928,81.9386,-5.8415,-22.5576,47.8281,120.2839
-3203.1250,-104.8087,54.9154,-86.9116,-12.9489,-88.7337,-55.7916,-11.5426,14.8758,129.4550,45.9307,-148.4843,87.9024,35.2747,125.8757,104.6914,50.0766,-68.6995,19.6288,18.1637,162.4630
-3195.3125,-213.2232,-87.3061,-163.3342,-51.2089,-55.2498,-21.1127,95.9681,-23.4471,237.8508,7.6603,-77.0622,12.4673,105.5551,86.2486,174.8829,84.8155,-211.9722,52.4188,54.2410,160.2387
-3187.5000,-188.1482,-132.0458,-138.2678,-25.9770,-66.2606,4.0660,156.9937,1.7520,225.7647,68.9141,-89.1445,1.5342,57.3427,74.1231,126.5722,110.0675,-186.7632,8.6942,94.1179,185.5038
-3179.6875,-227.9758,-136.6881,-180.1004,-65.6341,-145.1736,71.3451,116.1148,-2.9343,146.7816,64.2848,-168.1309,32.7076,-21.7660,106.0876,85.3441,216.4446,-121.4646,73.0668,74.7620,180.8702
-3171.8750,-148.3121,-127.8540,-130.4382,-91.7900,-206.5874,84.1220,127.7290,7.8913,159.2987,3.1699,-192.6201,81.3736,-83.3658,155.5706,59.6042,155.3331,-6.6716,11.9457,65.8784,119.7316
-3164.0625,-112.9490,-22.3311,-94.0762,-21.2475,-243.2929,84.6022,91.0529,-63.5701,159.5173,-68.2331,-192.4146,155.7375,-83.2667,228.7815,23.5577,44.9185,-6.1830,47.5100,24.1971,120.2852
-3156.2500,-121.3397,4.4459,-63.4720,5.5439,-139.7477,78.3319,47.6288,-143.7724,41.9873,-148.3704,-125.9722,148.3613,-15.9186,259.2474,51.7629,38.7623,-49.4522,75.3173,-42.8809,77.0890
-3148.4375,-44.1857,82.7763,16.6695,83.8751,-21.6569,85.6102,-17.2406,-210.4129,-59.9847,-177.9468,-81.9786,192.5366,-9.0149,192.2551,58.5306,46.1675,27.8230,-23.3334,-112.5556,84.4340
-3140.6250,-17.0326,39.1034,7.8102,40.2078,-31.5664,1.8876,-137.1088,-109.0414,-32.9483,-40.5081,-54.9833,182.7101,-19.1089,72.2747,49.2925,73.5767,21.0860,4.0160,-100.5774,111.7744
-3132.8125,-22.8411,-106.5476,37.9934,-1.4146,35.5711,-111.7771,40.0751,-41.6032,71.1474,-45.9994,-59.9353,104.9253,11.8504,67.3651,43.0918,-4.9554,48.3835,-72.5796,-6.5040,70.1571
-3125.0000,12.8499,-106.7159,110.6766,-35.5388,71.2130,-186.9374,39.7687,-41.6445,33.7446,-45.9667,-98.3962,103.6400,11.3091,102.9687,78.3788,68.0173,15.1727,-106.6850,-18.3114,106.0282
-3117.1875,-56.7642,-175.1721,39.0551,-138.9542,36.5545,-185.3942,41.1514,-3.9663,71.0339,-8.2151,-23.1753,31.0649,12.4621,30.2649,227.3600,179.7013,-54.3434,-105.0859,-9.4762,107.5980
-3109.3750,1.2756,-117.9564,26.0807,-151.7091,59.5474,-198.2033,138.1709,57.3637,131.9594,90.1882,36.7067,-54.8513,71.2691,-55.8023,139.9799,94.0331,-32.1982,-222.8303,59.6089,94.8067
-3101.5625,21.6828,-96.3662,9.4674,-130.0973,43.8940,-214.6662,48.5252,114.0319,78.2228,109.9332,56.9482,-108.4101,91.4323,-72.5077,85.9289,3.7185,-45.7004,-96.2232,73.1792,151.3562
-3093.7500,25.2903,-163.5863,14.0475,-92.2858,47.4378,-136.9233,52.0692,7.9049,45.6906,-68.1055,96.3815,-30.7750,58.7993,-31.9837,163.0704,7.6127,-43.0174,-57.4092,14.2345,119.0940
-3085.9375,94.2882,11.5771,85.0261,12.9228,9.3880,-64.7731,-59.9687,-139.8046,-29.4319,-143.7227,59.2078,77.2513,-53.4284,38.9477,160.6136,42.9093,27.0520,-128.2016,-106.4275,154.2173
-3078.1250,17.0291,110.4920,4.7516,5.8776,-34.9108,-34.8747,-103.2554,-109.7442,-36.8003,-39.5738,14.7676,107.0369,-60.9063,31.6235,115.9035,35.9606,-15.1358,-135.2400,-102.2120,147.0897
-3070.3125,5.9015,134.5439,-43.3916,-5.0327,-46.0705,-45.8318,-78.3754,25.4901,-10.9951,58.7490,3.4606,58.9745,1.7654,-15.5487,68.3400,25.1820,-26.1885,-181.1279,-34.1461,136.1073
-3062.5000,-44.4811,13.3318,-96.7893,-19.1945,-99.4848,9.9582,-131.7377,119.4892,-28.4295,115.8486,-51.1069,78.6708,-52.8224,40.0492,14.5260,119.1684,-76.5072,-20.2773,7.1516,155.8725
-3054.6875,-167.2290,-144.2359,-148.5487,-106.7068,-40.2570,32.4041,36.5427,142.1499,66.7859,102.6179,-28.0381,-8.9731,6.2388,63.3145,109.3587,105.8209,-94.1990,-107.7651,67.4936,68.2862
-3046.8750,-24.4408,-106.2530,-35.7718,-140.6680,-38.4813,-39.5916,112.3756,108.3702,105.5567,67.9473,45.5687,-44.0546,7.8545,28.1378,73.7442,34.0218,12.6452,-211.7001,72.5833,70.2422
-3039.0625,63.9309,-121.6641,-15.3997,-156.0188,-91.1066,-54.9853,-13.1997,129.2052,52.9220,89.8997,177.7568,-131.5260,65.0644,-24.4258,-15.2778,-18.1699,-2.9271,-52.0306,50.3945,54.7996
-3031.2500,115.2869,-247.0898,39.9570,-70.3803,37.2643,-35.3793,42.2257,149.0561,-1.7052,145.8766,195.9391,-259.9936,121.2814,-151.9786,-34.3019,1.6509,-57.5186,-35.3626,88.0376,0.3517
-3023.4375,32.6419,-258.5228,26.3097,-10.7492,97.6391,-11.7736,65.6633,172.9149,21.6827,132.8581,72.1191,-309.4571,107.5052,-201.5324,-11.3321,62.4802,-139.1112,58.2925,127.3665,23.8981
-3015.6250,-83.2602,-304.2110,-56.5940,-92.3737,161.7613,-20.4086,93.8450,201.5291,86.8213,161.5955,63.0444,-319.1647,171.4873,-210.3241,16.3794,90.0694,-113.9680,12.7091,145.2751,-21.8058
-3007.8125,-61.1186,-210.8608,4.5428,-68.9533,185.9356,-106.9871,117.0796,189.2110,110.0116,222.3977,50.0121,-257.8193,158.5249,-151.0643,-33.8547,40.7196,-57.7885,-69.8268,143.9879,-34.4670
-3000.0000,-51.8787,-201.3984,-23.2212,-95.4291,158.2051,-60.4653,-57.5940,199.0079,9.2963,232.3270,22.0692,-211.3656,130.6570,-67.7020,12.0091,14.4777,-83.5181,79.7324,88.9455,-25.0309
-2992.1875,-29.7985,-250.0886,0.8595,-108.0627,145.3155,-36.0975,3.5776,149.6693,-3.5751,73.1292,82.9730,-188.0497,117.6370,-43.4759,108.7206,2.0934,-96.4111,67.1476,70.2675,-37.7517
