Time,Fp1,Fp2,F3,F4,C3,C4,P3,P4,O1,O2,F7,F8,T7,T8,P7,P8,Fz,Cz,Pz,ref
-4000.0000,43.2519,0.5249,13.6359,25.2955,8.3945,7.9662,1.7279,-28.5918,-5.3257,-31.0796,4.9396,16.5061,1.4046,34.7658,1.7753,-28.6358,103.1534,-33.8712,-36.0559,-38.1282
-3992.1875,112.1361,174.6603,-24.1358,-11.4643,42.3856,-68.1149,-0.1786,-67.9899,28.6880,-33.4782,77.1895,10.9854,37.5544,-39.6665,74.1000,-31.0321,-38.0790,-140.7747,-38.5560,-40.5930
-3984.3750,-29.5677,208.2020,-66.5010,-12.8339,-36.2174,-36.8054,31.3258,37.0163,24.1096,71.5325,-75.1633,67.5833,-64.9685,29.2894,-4.1701,73.9796,-178.9277,-73.2927,-76.6530,27.3438
-3976.5625,-20.3841,110.6478,-92.9738,-4.3122,-62.9363,-26.6038,-32.2650,46.9404,-2.5592,44.4583,-64.6251,57.8198,-70.5593,76.1463,-30.5294,9.9013,7.1188,-31.9197,-33.8449,0.1840
-3968.7500,46.7003,36.9856,14.4529,27.1001,44.2398,-30.5106,-35.9516,5.7706,-43.3228,40.2873,-105.1814,15.1045,-23.1875,-0.1005,39.0291,42.7210,5.0665,-36.6600,-73.1289,-4.0807
-3960.9375,10.3323,104.8663,-26.5705,25.0612,-71.0347,2.1288,-40.0794,38.1617,-47.5343,35.6821,-35.1971,2.7077,4.6108,-77.7927,109.1406,75.0971,-30.4491,-39.8550,-40.8649,28.2082
-3953.1250,34.5103,163.2880,-77.0452,-57.4304,-83.7648,-48.6749,-16.6611,24.1050,12.8050,21.6302,98.3379,-37.9670,63.6085,-126.9273,169.7997,24.0171,-146.4079,-51.4944,-18.0466,51.0458
-3945.3125,-100.9473,97.0549,-75.1632,-18.5704,-120.1384,-47.1290,20.1112,60.3974,12.4995,57.9244,-11.7761,8.4867,8.0542,-16.7082,133.8068,97.2854,-211.0248,-14.7847,-49.8885,124.2326
-3937.5000,-85.6617,112.5866,-94.5310,-37.9612,-139.7739,-30.8321,-35.3652,40.4401,-7.0537,0.9699,-31.1419,28.5161,-30.2025,38.2620,77.5666,77.3072,-53.8956,-35.3280,-33.9856,104.1737
-3929.6875,4.8780,131.3797,-38.6563,-54.1066,-46.1632,-47.2914,-15.5900,-13.2704,13.6499,-15.7369,-10.2438,7.8012,-10.1349,-14.5245,61.5946,60.5750,-138.5170,-52.6427,-50.8304,87.3617
-3921.8750,-56.9352,33.8202,-66.1272,-79.6094,-110.9060,-39.1066,-7.1549,31.6743,-14.9894,66.2125,35.2913,-31.1628,1.0701,-5.6595,70.2875,105.5048,-162.5038,-80.3164,-43.0293,95.2088
-3914.0625,-3.2026,-88.1929,-48.0559,-97.5667,-92.1108,-93.3704,-61.1762,13.1738,-33.0800,47.7176,127.3782,-98.1798,77.4979,-23.2439,162.5408,49.9850,-109.9350,-134.4460,42.3205,76.6108
-3906.2500,-20.6604,-35.4107,4.8220,-115.7297,-76.5051,-114.8413,-81.4011,65.4696,-52.3689,63.0237,107.2773,-68.5147,43.6782,-7.0326,68.6076,28.2606,-124.5734,-82.7859,59.4643,128.8128
-3898.4375,10.3269,63.8249,-35.8508,-85.4438,-80.4577,-81.8647,-159.1753,24.2241,-93.2134,-15.2105,139.6238,-28.5715,33.0719,-10.3635,28.1186,-49.0021,46.2311,-54.6775,89.0531,87.4733
-3890.6250,122.4151,-0.8338,9.5708,-114.0639,-73.3197,-74.7916,-77.8574,-4.9214,-49.9608,-44.3437,111.0782,-63.7895,18.5786,-38.5953,-0.2658,-5.1578,-15.8582,-84.4791,164.7504,58.2338
-3882.8125,-8.3474,-27.3417,-18.8533,-141.5415,-138.0312,-139.5774,40.6122,114.0934,32.4413,111.6843,9.6771,-94.4678,-46.3499,-102.6799,-65.5012,113.8500,-40.8157,-112.1382,207.5976,66.1503
-3875.0000,15.4824,-3.2555,-28.6839,-152.4219,-76.1527,-223.7631,30.6767,102.7121,95.4397,100.3172,109.8831,-140.9084,24.4329,-185.1586,-1.1369,29.4570,53.8238,-160.1998,160.0530,18.6702
-3867.1875,108.1230,53.6134,30.2948,-130.5125,-17.4685,-202.1562,52.5402,51.1311,44.2424,48.7472,94.9043,-104.0433,24.8483,-162.8351,-15.9650,13.8634,7.2562,-104.4745,41.3134,39.9899
-3859.3750,87.9539,137.6856,-27.5270,-82.4150,-38.5921,-149.3510,-5.3877,-7.2397,23.2476,-46.6117,111.1190,-54.4990,12.2328,-147.3076,-36.5918,-44.5208,128.8793,-56.5526,19.7734,18.5190
-3851.5625,163.7891,71.7643,15.6464,-113.3226,41.2720,-144.5475,73.6771,-75.6083,102.2546,-77.9716,80.3386,-105.8792,28.0965,-213.7920,-30.2060,-75.9037,99.5033,-88.6306,58.2438,-12.9505
-3843.7500,54.2268,-2.5634,-27.5712,-82.6331,-2.2582,-114.1475,141.3444,28.6276,132.8619,26.2737,-35.8466,-77.9149,-31.4782,-146.6828,-73.2171,-8.6751,60.7037,-59.1132,88.3121,17.1877
-3835.9375,50.5012,-78.0408,-103.9423,-87.0973,-41.9415,-117.8976,101.8553,61.7212,130.3185,59.3812,34.8202,-111.2307,-1.2721,-149.7192,-38.3804,-48.5936,93.7478,-64.7472,224.2311,-22.8174
-3828.1250,41.0779,-88.2168,-79.0154,-132.2675,-17.3221,-165.3541,200.6694,86.1127,155.0838,83.7873,-13.1977,-114.1357,-15.8549,-124.4534,-50.2364,12.7809,-55.9175,-41.0921,213.4559,1.4782
-3820.3125,1.3487,-23.6846,-86.3878,-67.7444,-62.0128,-136.1139,119.1970,79.2088,110.5529,2.8987,-20.5208,-59.8594,-32.3179,-94.4906,-57.3788,-32.1371,45.0995,-12.7409,136.3787,30.4852
-3812.5000,103.6641,8.8956,21.2799,-36.1771,8.3337,-139.8221,42.7701,-72.6432,34.0729,-110.9335,13.2059,-63.3500,21.5757,-133.4799,13.5397,-109.0041,114.1639,-17.3424,62.3615,26.5469
-3804.6875,83.3336,57.8186,70.3057,12.7331,57.0353,-128.1835,17.6949,-60.1369,8.9465,-26.4106,-11.7194,-22.0140,-4.8501,-120.1268,-48.1901,-24.5138,-47.4447,30.3987,-30.3045,74.9661
-3796.8750,-3.9637,74.7820,15.3753,-5.3125,38.7739,-73.4893,-37.3312,-42.5667,-9.1330,29.1728,-29.5914,-15.8870,0.4808,-101.7144,8.1249,-5.9607,-28.0180,46.1955,21.0862,56.4478
-3789.0625,-19.7111,-46.7047,71.9990,-20.8115,95.0640,-54.2478,-17.8134,13.5545,-26.6590,85.3077,-118.9035,-41.2984,0.3931,-81.7596,27.9950,50.1385,-113.0502,64.5432,40.0321,75.4834
-3781.2500,-95.8609,-89.5824,25.2287,6.2878,10.9613,8.5923,-62.6964,77.2784,-35.5917,112.0536,-128.6237,-2.5807,-40.0834,18.7967,-18.5363,76.8471,-84.5016,90.4975,31.5740,102.1282
-3773.4375,-20.2167,-188.6582,70.2532,-22.8178,18.6588,16.2358,-55.7875,47.8057,-28.7266,119.6034,-11.5397,-61.4500,13.2200,-9.8526,-10.2647,47.3541,-112.1535,60.2519,72.9194,72.5752
-3765.6250,-82.2701,-182.4382,74.5856,-50.6270,-13.3422,-15.8235,21.4264,125.6378,12.4413,160.4585,-79.1541,-50.4909,-64.8404,-5.2142,-151.6890,125.1687,-174.5309,65.3005,77.5660,113.3258
-3757.8125,-90.6895,-84.5762,-5.4400,-93.7935,-92.7032,-23.2319,-21.7131,155.1401,-30.7421,152.9803,-13.1251,-52.4733,-47.1575,-10.9154,-84.4636,118.6485,-76.2768,-13.9988,69.8714,69.7373
-3750.0000,-34.7115,-65.3196,-20.0704,-74.5644,-35.6712,-1.2399,-36.4565,104.0507,-45.5198,174.9107,9.3083,-51.5356,33.8615,11.7778,121.1723,103.5275,-229.6315,-63.8966,18.5848,54.5516
-3742.1875,-165.8432,-92.1643,-49.7977,-65.4392,-101.7419,41.6528,-29.2919,146.8737,-38.3953,180.7539,-57.3614,1.1678,1.5133,129.3654,128.7072,72.3216,-255.1171,-57.8920,132.1994,97.2766
-3734.3750,-142.5365,-70.5581,-98.0810,-113.8695,-77.3785,29.9947,-4.6827,98.1537,23.1797,132.0504,-32.5744,-23.6851,-2.3123,81.3994,80.6930,-13.4286,-127.1558,-71.4362,224.2710,48.4608
-3726.5625,-141.8268,-35.5588,-61.9591,-113.9090,-77.6118,29.7283,142.3249,97.8408,97.1551,131.7542,-105.3765,3.2188,-64.6796,81.8257,-29.9125,23.2310,-195.8206,-38.5866,152.7423,48.0502
-3718.7500,-173.3333,-32.7670,-94.0362,-77.1544,-74.0459,34.2565,110.1341,65.3422,100.9303,99.2764,-64.3919,0.1997,-46.7444,50.0552,-24.7220,-9.2924,-121.7046,-36.9321,155.0164,15.4521
-3710.9375,-52.5980,-52.7318,34.1313,-62.1512,16.7706,-22.9613,90.1922,-28.9062,80.9604,6.0529,26.8424,-50.9433,33.3315,-43.4685,29.7274,-29.5668,-105.3499,-23.0251,29.5518,-4.8938
-3703.1250,-85.7677,55.4036,72.4082,10.9468,18.6950,-21.0796,19.3603,-27.0473,10.0946,-29.0633,-7.8282,-4.5196,22.2736,-77.9004,32.2850,9.2609,-65.9333,48.9881,-74.8091,-3.1304
-3695.3125,-5.3522,64.1408,85.2808,19.6447,30.2137,27.4073,-41.8756,-88.5833,-14.1691,-127.5741,78.1055,-4.2554,83.6662,-64.7350,118.4406,-89.3113,-20.9240,56.6131,-65.5649,-64.7601
-3687.5000,-16.5805,-17.7751,108.5059,7.6878,90.0838,87.2487,18.2376,-102.7730,8.9221,-104.7425,27.3968,-1.2257,76.7019,-4.2272,104.9469,-66.5347,-137.5768,43.5918,-78.9593,-42.0375
-3679.6875,-119.9710,-86.8477,36.5796,44.5765,18.7972,88.9407,20.2115,-64.1050,10.8682,-66.0492,-6.4664,9.2133,42.0764,34.1264,70.2996,-64.8938,-28.4067,44.4248,-6.4916,-40.4551
-3671.8750,-1.7746,-74.3316,50.2437,-13.9436,68.1001,28.2369,32.7801,-87.8296,60.4190,-52.7484,6.2737,-52.7137,57.0197,-61.9207,84.2600,-51.6505,-15.6459,-15.1383,4.5952,-64.2710
-3664.0625,-68.0807,33.6838,15.4172,-10.9692,32.9073,-6.9709,107.8545,-50.0434,61.4738,22.0630,-65.4876,-10.2706,20.4674,-60.4692,85.7195,-13.8979,-117.4138,56.7988,-27.8180,-26.5819
-3656.2500,-61.3020,4.8008,22.6829,-4.8981,39.8138,0.9196,6.0293,-79.1443,-3.3689,-81.0087,15.8482,0.9648,63.2386,21.0793,131.2726,-43.0372,-39.0971,61.8422,-57.1286,-55.7857
-3648.4375,6.8290,-68.7428,129.2941,27.5154,109.0689,33.1577,-35.4462,-83.8868,-44.8560,-122.7260,12.5419,6.0040,54.0438,53.9698,53.1875,-10.8155,-75.4506,23.2301,-131.0840,-23.6369
-3640.6250,-37.0032,-7.2404,80.9531,17.9701,-12.6325,21.4460,-46.8696,-95.5681,-56.2926,-133.3783,38.2846,40.5928,9.6203,116.9087,6.1553,14.4740,56.2135,-23.3231,-139.9921,1.5746
-3632.8125,56.0501,15.1682,32.5058,5.3155,-25.4407,8.6341,-22.4027,-108.3427,5.1629,-146.1279,61.9337,13.0745,28.1339,67.7534,67.0253,1.6652,44.7701,-106.9679,-118.9928,-11.3092
-3625.0000,-30.5458,-37.0704,12.4219,24.0092,-8.8937,-11.8238,105.4080,-90.7643,95.9645,-56.5246,5.9316,2.6935,25.2617,48.9460,85.2478,55.2122,-111.3491,-88.2499,-135.6432,42.1617
-3617.1875,-35.2579,-111.4118,-66.7624,-17.3931,-51.4474,19.6202,63.1183,-60.2775,90.6639,-25.0092,74.8184,-56.8551,69.7178,7.0384,153.3623,12.6666,-45.5850,-94.6133,-71.3915,36.5429
-3609.3750,17.5288,-131.2673,-13.4425,-36.2987,1.4989,-38.4335,116.3247,-44.2818,106.8691,-8.9890,17.2177,-73.8685,71.2561,-13.3887,169.9693,28.6250,-132.3338,-79.4723,-55.6301,52.4270
-3601.5625,-123.5970,-132.0294,-52.0189,-37.1076,-73.4513,-40.3853,113.6381,26.8260,104.1835,25.1429,-22.2903,-38.8324,29.3057,58.2754,131.6716,62.7024,-97.0180,-46.2268,-21.7700,86.4251
-3593.7500,-53.8421,-132.8904,-87.7061,-38.0189,-73.5162,-40.4342,77.8521,-9.1531,105.4006,26.1878,53.0993,-61.9898,36.4428,22.8356,96.2779,63.6881,-27.8147,-83.0759,11.9968,50.3305
-3585.9375,-53.8909,-62.5565,-89.1952,-72.7354,-112.3750,-42.2827,112.2678,62.0745,102.8255,60.4465,13.6837,-56.4040,-13.4374,-16.4110,20.0895,134.8836,-62.4416,-85.7219,10.9676,84.4404
-3578.1250,-89.2603,-29.5189,-161.9886,-74.7552,-185.5422,-42.4294,76.3865,63.0176,103.9478,24.4167,-22.0398,-39.2284,-9.4783,22.0444,131.5996,98.7898,8.6027,-86.6594,80.6441,48.2638
-3570.3125,-17.1883,-99.0301,-123.3429,-74.3348,-110.2658,-3.1231,114.9480,28.4122,105.5228,-10.1618,-56.3002,-47.8149,39.3219,61.9495,245.5713,64.1468,-60.9159,-53.1484,45.7847,13.5405
-3562.5000,-82.5751,-59.0014,-119.1427,0.6255,-143.4424,73.7282,45.0715,68.3693,35.6580,29.8179,-89.0173,7.3497,-27.0611,65.3999,102.0927,67.0656,16.0801,-14.0813,-20.5141,53.3780
-3554.6875,21.7172,149.7198,-120.2543,-0.7178,-107.9267,36.2815,-66.1054,-5.9617,-38.5051,29.5090,57.9620,46.9499,-29.3605,28.5486,-8.6912,-7.3085,49.7694,-17.3053,-23.0955,15.9215
-3546.8750,-10.9881,152.4382,-82.3571,36.9329,-34.4054,36.8302,-64.2852,31.7126,-73.6650,67.2050,-15.0571,99.2528,-81.7068,103.6851,-116.4751,104.3259,-52.5653,19.4773,-89.6694,53.4683
-3539.0625,-93.4626,34.4119,-131.2121,23.8281,-83.6359,97.6323,-113.2100,92.6461,-122.5756,91.1635,9.1680,65.5005,-51.5922,127.0712,-57.0130,127.2190,41.3192,41.5210,-68.9890,40.2765
-3531.2500,5.6021,-44.0617,-66.5219,16.2650,-18.3127,89.9855,-120.5936,48.1326,-93.9352,46.6784,38.9502,11.2276,15.4824,84.0007,47.0005,119.6605,-0.2651,33.1271,-110.7455,32.6357
-3523.4375,-72.1913,17.5977,-40.6722,77.8464,-65.8290,151.4884,-58.8218,35.7822,-105.1451,34.3559,-82.1231,85.4237,-46.9891,109.0719,-1.8399,108.2685,-43.7302,93.8910,-85.3473,94.1525
-3515.6250,-76.7550,49.4929,-79.5790,38.6751,-105.1008,112.2441,-97.8033,33.6979,-35.1023,-4.7007,-48.9490,56.1799,-42.6885,33.3919,-3.4391,-4.8578,-11.9621,158.9196,51.3086,54.9259
-3507.8125,-65.6230,24.0819,-32.7834,13.2024,-22.6692,85.7039,-51.0827,81.3233,-60.3515,42.9481,-74.0724,39.6910,-48.4540,7.3961,-65.3342,42.7174,-140.5172,203.6605,25.6732,65.3993
-3500.0000,-110.0064,49.1725,-43.4893,73.2283,-33.7339,147.6715,-134.8562,70.4583,-144.0966,69.1058,-84.7049,96.6086,-88.8402,70.8921,-148.7332,31.8016,-45.6065,262.9177,-55.4568,54.3804
-3492.1875,-14.6525,74.0099,59.5528,63.0020,104.9507,176.3964,-216.8859,-48.6518,-189.0922,-49.9861,17.4182,79.1373,-10.4373,26.1329,-120.3830,-87.3716,-54.9625,251.9367,-65.8212,9.1105
-3484.3750,-39.1523,119.9807,106.7600,108.9250,152.7978,187.2721,-168.7630,-74.6058,-214.9368,-75.9264,-45.3132,154.0070,-44.8616,110.5120,-181.8861,-112.3815,-113.1983,262.1156,-55.0369,19.9947
-3476.5625,-36.2252,86.3949,112.4078,111.3003,158.0870,228.6015,-237.1884,-143.0972,-209.3278,-144.4049,-2.6004,147.2542,-37.3769,116.3397,-212.9400,-180.9254,65.0000,262.7534,52.2026,-48.6643
-3468.7500,6.9464,24.0553,195.3036,118.9231,277.6297,238.1841,-155.3585,-133.3345,-164.4615,-171.6261,-66.6363,129.4184,-19.5797,89.4038,-203.7374,-172.2193,-31.5720,234.6496,59.7001,-76.0748
-3460.9375,-25.9479,-9.3372,161.1559,120.4947,205.1306,239.7165,-116.5726,-94.6093,-162.6412,-132.8815,-64.7317,106.9090,-27.0345,54.4086,-201.5930,-133.5511,5.7756,235.5088,61.1530,-74.5287
-3453.1250,31.0490,-23.8296,147.9066,70.9645,192.5316,190.1522,-91.8966,-106.9799,-100.9251,-108.2334,33.0783,32.8074,49.9330,-31.6964,-66.5616,-145.9791,-77.9818,150.2806,117.5183,-124.0805
-3445.3125,-40.8509,-95.2280,145.7606,33.5298,153.0418,150.6843,-21.1218,-0.2455,-30.1083,-37.4849,-7.0053,23.9147,40.6410,39.2856,-32.4306,-75.2983,-184.6650,113.1587,115.9860,-90.5291
-3437.5000,-80.2191,-135.0863,106.1640,-6.3591,113.0955,110.7665,12.2017,-2.9525,3.2590,-4.1785,27.4560,-11.4646,57.9863,36.8200,1.2498,-78.0591,-47.8237,72.6046,181.0061,-130.4170
-3429.6875,18.9085,-107.4547,172.0632,-13.7563,215.6470,29.3527,42.0201,26.8414,33.1311,25.6280,20.4278,-34.5421,50.6731,-44.1507,-78.5623,-85.3231,-89.4896,64.5607,138.5358,-137.8058
-3421.8750,-24.2744,-45.1253,162.6664,13.5427,168.9046,-17.3605,-4.4502,91.3403,-49.2916,90.1349,48.0952,-8.7315,19.4480,-52.4263,-161.6859,-57.8783,-61.4837,91.2314,95.7724,-110.4874
-3414.0625,70.2274,-57.0993,152.9686,37.5367,195.8633,-27.3742,-124.2261,81.5430,-60.0141,80.3445,111.4646,-39.4678,63.7381,-99.0117,-97.1146,-68.7336,-1.7888,78.6159,118.7258,-157.4669
-3406.2500,52.5781,-110.2270,132.1276,89.3750,173.6890,61.4572,-35.1496,169.5988,-80.8864,168.4145,-20.3099,-19.6506,24.1709,-83.7728,-81.6908,57.2605,-125.2696,59.8562,65.5347,-105.5985
-3398.4375,-27.4337,-49.7090,46.9387,79.8611,52.1690,49.9366,-46.4221,195.3145,-92.1058,194.1435,-67.4413,-13.5668,-2.1510,-94.8918,-18.6274,119.9143,-29.1231,48.7629,54.9986,-80.0718
-3390.6250,91.6489,-37.0960,59.8475,56.4441,64.7493,-10.4788,-70.6014,172.1279,-79.2225,133.9656,55.5358,-57.9821,45.4558,-155.9189,-5.4667,132.6618,-15.8807,60.7857,-37.4294,-67.4451
-3382.8125,36.7755,-21.4460,37.8113,72.0774,42.3870,3.1641,-56.7227,111.9996,-65.2874,110.8453,106.5550,0.9823,15.3127,-30.8935,-102.2716,109.4716,0.3738,75.8703,-92.8110,-16.7613
-3375.0000,83.3284,-81.3471,51.2191,83.1618,92.4717,53.2702,-79.4046,52.3264,-50.9111,51.1792,121.0212,-5.6096,25.0743,-16.4143,-124.6415,12.7367,46.0634,50.4287,-46.7381,-76.6236
-3367.1875,88.7265,-76.3952,130.4798,88.0944,171.4158,58.2288,-37.2423,57.5014,-45.6852,56.3566,15.3428,11.9269,-2.8768,-11.0961,-156.1638,54.8500,-53.4147,90.8469,-112.8063,-71.6391
-3359.3750,49.6144,-10.9381,54.2448,118.5305,94.8630,92.6873,-113.5767,55.1794,-121.9621,17.0400,87.1596,46.8290,12.6751,22.7125,-121.2028,15.4705,83.5878,120.7765,-116.3676,-111.1487
-3351.5625,195.3504,29.3600,60.8576,122.8136,137.1570,98.9928,-144.0684,-49.2887,-115.3909,-86.4353,166.8344,35.8970,55.6060,-7.6376,-77.3883,-52.0626,88.4405,54.5684,-112.0637,-141.8093
-3343.7500,108.8852,47.4420,41.2798,141.8904,81.2595,79.0993,-52.7555,-67.9528,-61.0135,-69.1037,74.3097,91.9805,-14.8677,83.7999,-133.7699,-33.7916,37.0610,37.1691,-128.9553,-87.6669
-3335.9375,89.1519,98.2742,-15.5559,86.7162,-12.8891,95.9546,-35.6939,-87.8575,-7.8898,-126.0058,91.5334,91.7273,-16.9777,100.9767,-79.4193,-90.7608,88.4197,-18.4658,-78.0869,-107.7699
-3328.1250,105.4671,43.1549,0.6639,31.5891,40.0246,37.8566,53.4105,-71.7165,45.2857,-109.8631,33.8112,50.5117,-15.6001,80.1905,-63.0271,-37.6842,-1.1817,-3.0424,-97.1605,-91.8243
-3320.3125,-4.4274,3.8329,-4.3121,62.2580,-2.2582,31.5574,11.3217,-40.7740,3.2658,-115.9196,27.8761,53.0893,-15.9174,74.2055,-68.8369,-43.7978,64.9916,62.1923,-66.4345,-61.0700
-3312.5000,44.0643,16.9042,47.1042,40.3225,85.8544,9.6608,-47.3642,-62.4303,17.6540,-137.5758,117.3432,4.2299,55.0038,-20.3862,-16.2452,-65.5096,8.5542,39.8376,-53.2947,-82.9151
-3304.6875,-39.9952,2.4163,65.9760,60.8302,141.4257,29.2102,8.4045,-43.6303,0.4981,-44.7764,26.2640,42.6463,17.9498,35.4551,-71.2122,-9.7646,-111.4571,94.9412,-103.6969,-27.3082
-3296.8750,-44.8273,-73.8262,-11.9079,90.5856,99.2444,60.0061,-33.5757,-85.5696,32.5909,-86.7211,21.4354,22.4737,34.4015,30.5376,-1.9450,-51.7582,24.7661,125.3112,-37.8404,-32.4450
-3289.0625,36.3918,-63.0256,72.2582,101.3826,147.1164,34.8502,51.4894,-147.4582,79.7342,-148.6159,-41.3331,18.4545,56.2309,4.6592,82.3655,-40.7044,-33.9669,99.7378,-62.9198,-21.5354
-3281.2500,-70.0995,42.0710,70.7313,65.4781,107.2987,31.9915,11.8607,-149.0393,41.1810,-150.2002,-43.8078,57.1972,27.5226,39.0769,43.9724,-43.3464,0.5675,98.4702,-63.6971,12.6773
-3273.4375,-0.1542,5.6147,70.6466,29.0191,107.9266,32.5807,-24.3188,-185.1741,42.0821,-223.3350,104.1658,24.0211,65.1387,39.9415,8.0420,-79.5414,34.5426,61.6590,-29.0141,-23.6601
-3265.6250,17.1866,-117.4508,86.9671,45.9530,86.9631,47.5650,101.9060,-132.9114,94.3889,-171.0770,9.5391,12.2597,18.4097,55.1887,-50.4742,-27.3345,-54.1048,43.2553,-12.9231,28.4037
-3257.8125,-21.7415,-86.7714,-26.9688,-28.3621,-27.2533,44.3022,98.8856,-63.8936,127.4477,-65.0686,-30.3418,-18.3481,-13.1466,15.1803,-16.2530,-67.3679,48.9758,4.6207,89.9263,25.2262
-3250.0000,12.4730,17.0494,-28.7567,-65.5299,7.6818,-31.8033,170.0127,-28.7320,162.6589,-29.9212,-69.0647,-45.1043,4.1390,-96.6909,56.1099,-69.2566,-23.7964,-68.8446,87.9379,23.1966
-3242.1875,-107.5143,72.6674,-81.7332,-44.8984,-119.5721,-49.1114,152.9469,27.2248,145.6708,26.0246,-158.9972,-13.5350,-38.7761,-76.7693,112.2622,23.6586,-2.7915,-13.5000,37.7490,78.9703
-3234.3750,-58.8097,14.9872,-103.0088,3.4334,-141.1215,2.2829,94.5699,5.8778,124.3762,4.6657,-70.2268,-23.6963,19.9033,-62.1537,201.1010,-34.7329,46.9142,-35.4332,16.2640,57.4445
-3226.5625,-53.3015,54.0980,-100.4752,7.5697,-138.8584,-31.5162,170.9859,45.3269,126.8755,118.0984,-140.6489,12.4232,-52.0637,-22.7476,93.7342,41.6727,-89.5897,-65.5553,-14.4208,96.7154
-3218.7500,-150.1031,133.9012,-165.2353,-18.5918,-202.8893,-58.6116,106.0996,128.4807,99.0657,164.2388,-131.3783,36.0846,-107.9339,-13.6499,-6.9488,87.7840,-80.4090,-92.9687,64.5960,105.6918
-3210.9375,-99.0110,43.6076,-149.1009,-72.8554,-151.0143,-116.8153,122.1030,181.5311,115.1581,180.2788,-115.2074,-34.8137,-91.9760,-70.6647,-26.7290,177.7892,-134.3327,-112.4817,80.5284,121.5655
-3203.1250,-185.7303,-42.4915,-130.7621,-53.9335,-169.9312,-135.8291,176.3215,235.7878,132.4587,270.5284,-170.8495,-54.6031,-92.7150,-90.4899,-9.3000,232.0057,-150.0913,-23.7957,64.6717,175.6427
-3195.3125,-111.4238,30.4447,-126.3825,-50.9706,-201.8037,-131.7935,107.5994,167.1027,100.8194,165.8355,-55.4533,-58.3503,-33.0622,-122.2775,68.1821,126.2815,28.1891,-20.0480,32.8814,143.7751
-3187.5000,-35.9617,105.5236,-83.8502,-9.8665,-159.5197,-126.6158,76.0376,172.5683,69.3409,208.2890,-123.9028,-14.0318,-82.4304,-116.9385,1.8105,131.7014,-71.3832,-15.1498,-31.7421,149.0553
-3179.6875,-120.5105,126.6049,-135.3175,-24.7658,-174.2356,-104.4487,61.4876,195.0401,54.8712,229.7480,-101.3580,14.1464,-100.3471,-57.6099,-49.5791,80.1286,-50.9745,-30.2420,-10.3580,134.3428
-3171.8750,-114.6169,97.1304,-127.3389,-54.2191,-130.5056,-96.8350,32.3797,165.9636,62.8559,200.6542,-56.3578,-8.4863,-62.0484,-49.8423,-5.5256,88.0047,-115.1166,-25.8756,-5.5096,105.0792
-3164.0625,-144.7752,65.5912,-124.4046,-14.7243,-127.8125,-20.2767,36.2277,168.8369,29.7931,204.5135,-127.4079,21.6656,-95.1396,-10.1335,-38.5231,164.8356,-145.3294,13.4515,-35.7135,144.7666
-3156.2500,-113.6021,132.4001,-126.1284,50.1240,-129.7737,12.6317,-38.5745,93.0576,-8.9233,128.7276,-55.1106,33.9529,-82.0079,-86.0777,-77.1737,89.0190,25.8002,9.1408,-4.5645,105.8065
-3148.4375,13.9742,119.6064,-28.4492,37.3679,-68.3243,-0.0641,-50.9813,43.6712,-21.2397,79.3302,-67.4046,24.1205,-104.3434,-98.6408,-163.4278,113.5926,13.3294,31.2339,-51.0057,93.2409
-3140.6250,3.2481,73.5159,-39.0617,26.3091,-79.1668,25.9332,-98.6796,69.9828,-104.8511,31.6304,-78.0041,44.6144,-112.0931,-0.5138,-173.9956,102.8654,143.5380,56.0362,-61.7395,82.3787
-3132.8125,112.4604,76.3731,41.2743,30.1956,-0.0530,32.8834,-165.4328,-33.7597,-134.5093,-35.1238,38.3468,45.3478,-32.3454,43.5593,-93.6253,-0.9185,146.6967,23.7990,-94.5066,15.4641
-3125.0000,53.1221,121.6665,89.0704,40.5235,120.5247,43.2823,-154.7297,-23.0567,-197.7145,-24.4368,-61.8561,108.5352,-51.7797,127.0748,-118.8095,-27.2557,52.2869,34.0297,-117.8070,25.9968
-3117.1875,57.8189,161.9928,58.9189,44.9043,90.1549,49.7379,-184.9738,-90.3043,-190.8704,-91.7008,-55.0167,124.7833,-59.6799,133.6326,-112.9481,-94.5462,91.9205,38.3323,-44.0478,-4.4191
-3109.3750,55.7152,53.5051,92.9737,42.4875,124.9989,10.3922,-78.0229,-92.3604,-83.8273,-93.7736,-19.9657,61.9968,-27.4453,58.3674,-114.8872,-22.6481,-15.2453,0.8487,24.9166,-6.6455
-3101.5625,-58.3409,45.0627,10.0905,-0.8821,4.9047,0.0893,59.9862,8.6340,17.2704,7.2077,-102.8669,52.7222,-80.4965,48.1344,-123.7867,41.3055,-24.3803,-7.5805,121.9306,20.1767
-3093.7500,-47.1056,-14.0721,-13.4996,-60.9539,-18.8885,-60.9202,73.2927,21.9298,67.6657,20.4863,-53.4656,-13.4429,-11.1319,24.1962,35.6000,54.5576,-48.2153,-31.7009,169.2521,-3.7055
-3085.9375,-93.7649,-133.1039,-29.9815,-73.9248,-71.5659,-40.8293,130.6958,116.3183,88.1616,77.8612,-104.9704,-40.1595,-23.9371,44.3444,56.0761,147.9035,-200.9615,-10.7098,155.6765,53.5032
-3078.1250,-124.0872,-162.7900,-170.1098,-68.5374,-212.8857,-35.3846,99.4489,158.0567,93.9998,120.5860,-63.1357,-43.1262,-46.4134,86.8400,61.8869,153.6004,-55.3654,-40.3538,161.4497,59.0599
-3070.3125,-54.2105,-128.2792,-133.0410,-68.9517,-176.0045,-35.7387,136.3913,194.9884,131.0351,120.4960,-63.0951,-46.6567,-37.8534,49.5310,61.8955,153.4915,-89.5643,-75.7894,126.4299,58.8078
-3062.5000,-152.5314,-16.9721,-165.1685,-61.5682,-207.3196,-66.2927,178.1374,236.7158,135.8663,198.2016,-204.2571,3.0501,-97.4906,54.0201,66.7005,195.1872,-118.9809,-34.4175,133.2049,100.3575
-3054.6875,-166.4111,39.7889,-176.8503,-110.7296,-183.1891,-79.3927,129.3214,187.8848,160.1391,186.3447,-142.9646,-27.9410,-42.4697,4.9612,164.9518,146.3218,-96.9427,-48.5809,119.4320,51.3587
-3046.8750,-115.4312,-84.6004,-123.6793,-95.0326,-93.1981,-63.6392,145.3423,166.8869,140.2568,165.3168,-163.8136,-48.8608,-41.6687,20.7426,108.0491,162.2984,-152.0535,-32.8839,65.5064,67.2071
-3039.0625,-155.4075,-89.9331,-165.4566,-66.2850,-172.1594,-32.8369,103.4185,161.9323,135.4218,124.3320,-131.6173,-27.9041,-62.1376,52.5670,66.1792,121.3273,-17.1213,-38.1313,95.6310,62.1092
-3031.2500,-26.3350,-32.2118,-139.1929,-111.4860,-109.0681,-43.9888,129.5434,115.0180,124.6391,76.3913,-105.3665,-52.3877,-22.1791,4.4280,129.3511,110.3979,-28.1338,-118.3262,84.8171,51.0547
-3023.4375,-84.2607,49.5131,-128.9198,-100.6899,-172.9637,-69.1496,102.6696,162.0970,97.8577,160.4476,-132.1201,-36.7334,-31.8737,-21.7174,176.5138,157.4670,-50.1599,-142.5232,61.0029,98.0001
-3015.6250,-30.2514,-70.8178,-181.7012,-80.9449,-188.9100,-122.3639,49.7449,146.1245,82.0250,144.4524,-1.9266,-101.2818,11.7687,-73.9097,160.6187,141.4782,73.7596,-123.7600,116.1473,81.8970
-3007.8125,20.4645,-196.4514,-91.7842,-136.5018,-99.1540,-180.8863,102.5183,161.8420,97.8943,196.1470,13.9750,-164.2989,26.4934,-95.4188,102.4228,157.1807,-50.6182,-143.2948,97.0029,97.4909
-3000.0000,-32.2719,-109.5353,-146.3171,-154.5120,-116.8481,-161.8651,84.8495,144.1127,117.3172,215.3949,-3.5829,-135.8605,14.7900,-76.3891,121.7665,102.4376,35.5442,-126.2759,114.4144,79.6412
-2992.1875,33.8885,-44.7205,-111.9585,-159.6267,-47.6469,-164.9472,82.0758,67.2740,114.6389,102.5375,104.7643,-143.2217,92.5717,-116.4672,192.0103,25.5905,31.6183,-130.3431,74.7341,39.6896
-2984.3750,10.1542,2.1903,-64.4923,-112.6411,-36.3346,-154.9317,55.4059,40.5306,51.0600,112.7715,41.2097,-113.0762,50.1228,-143.4601,129.3472,72.8359,-61.2172,-119.3034,16.1553,86.8368
-2976.5625,-6.0389,20.6554,-80.4797,-129.1044,-88.4761,-134.3682,-33.7178,24.3368,-1.9768,96.5552,62.1998,-121.1441,38.9184,-159.9094,113.2202,56.6282,62.5000,-99.7024,0.1357,70.5370
-2968.7500,59.8203,-19.8252,-49.4206,-64.5206,-21.5596,-102.7601,-38.7991,19.1887,-6.9640,54.3810,94.2427,-85.9263,49.0892,-91.3187,71.1369,51.4557,21.2737,-71.0479,-39.8211,65.2790
-2960.9375,-7.3259,18.6910,-81.3582,-25.9360,-89.6362,-27.1584,-70.8656,23.0433,-38.9445,21.2175,98.2640,-24.8781,7.1815,-15.7347,1.0466,55.2910,96.0277,-67.3905,-35.7734,69.0195
-2953.1250,85.3163,111.0056,-57.5064,-74.5530,-65.9196,-38.7535,-119.1349,-25.3013,-51.1246,-64.1450,160.0807,-33.5632,24.0502,-64.3476,-10.2532,-30.0761,117.5897,-80.9216,22.0877,20.5564
-2945.3125,62.6131,87.9660,28.9969,-62.5204,-16.5480,-26.6984,-70.7527,-12.9985,-74.6536,-14.8597,62.5512,-11.8859,-25.0973,-52.3182,-106.9078,19.2052,-11.2080,37.1986,-36.3983,32.7403
-2937.5000,54.3512,-25.6184,22.9415,-0.0363,14.2688,3.8088,-149.9212,-19.2464,-117.7378,-21.1287,129.4657,-10.1523,-11.8279,-21.8328,-187.1271,-98.0596,121.4442,134.7790,-8.4335,-10.6232
-2929.6875,125.9438,-60.3495,135.7296,70.2973,163.9325,42.1625,-148.2502,-127.6547,-115.9752,-92.5577,132.2300,-9.7226,42.9629,-56.5045,-148.4936,-168.4838,51.9595,135.2139,-78.6129,-45.1436
-2921.8750,51.6848,76.0708,95.6734,137.7783,160.7518,75.6600,-115.4232,-202.9147,-119.0612,-168.8381,55.1335,71.9433,33.2651,-23.0283,-78.7181,-207.7509,83.6134,166.8044,-116.6428,-48.5121
-2914.0625,116.3180,210.3900,91.5086,96.1541,119.4659,34.0564,-119.6969,-244.2753,-123.2485,-283.2147,124.9310,94.2744,10.0948,-27.6486,-157.0453,-249.1214,183.1720,125.2977,-86.7687,-89.9815
-2906.2500,148.7577,137.5040,124.1461,128.3277,114.9976,66.2434,-124.1683,-211.8405,-127.6341,-213.7916,83.5298,104.2966,-61.8587,4.5226,-307.5717,-107.6957,74.5199,122.5892,-90.0915,-57.6562
-2898.4375,99.2323,-18.3330,72.8283,148.5536,63.5737,125.4791,-138.5868,-154.3604,-141.9676,-156.3185,106.1684,86.6205,-61.3471,62.7475,-322.0471,-85.2198,130.9117,142.9368,-33.3609,-72.2780
-2890.6250,147.0551,-5.8221,124.8538,91.1306,115.4969,103.0665,-123.6578,-176.5360,-89.9503,-250.5043,84.1611,64.5575,9.9271,77.3136,-124.1764,-144.3987,73.6608,50.6390,-20.2711,-94.5560
-2882.8125,29.4804,123.2874,74.4843,43.3091,65.0286,52.2518,-63.1196,-153.1134,-103.3245,-227.0912,70.7463,98.9046,-3.7058,100.4631,-100.7173,-157.9707,25.9956,37.9421,-31.5832,-71.2323
-2875.0000,84.8919,142.3980,61.1104,28.4917,88.5556,1.4338,-150.5812,-203.6938,-116.6992,-241.6804,204.3303,65.2758,37.8329,49.6068,-114.2712,-244.5446,116.3370,23.2560,-11.8876,-121.9081
-2867.1875,123.2617,4.4630,138.6859,31.6208,165.0393,-32.4374,-73.0931,-163.3312,-113.1250,-165.3298,97.8670,5.0898,21.1966,-21.3057,-147.8729,-131.1824,84.6272,-9.4736,-8.2311,-118.6414
-2859.3750,64.4274,-19.6684,78.0586,42.5524,105.3240,-19.5098,-59.8033,-150.1658,-62.7575,-152.1756,74.1928,-11.1010,18.1161,-45.4178,-97.6817,-118.0165,130.7079,-33.3905,3.2236,-142.5725
-2851.5625,138.4406,-14.9482,120.2727,-23.6576,147.4495,-50.7272,19.3246,-181.1532,16.4550,-220.1775,116.3712,-46.9490,59.1807,-76.6813,-55.6458,-186.0104,64.6604,-64.4543,8.5315,-173.6570
-2843.7500,32.5624,-17.1152,81.5891,-25.7671,108.6809,-16.8478,127.5476,-147.0478,50.7617,-186.0858,40.6440,-20.6441,31.2883,-42.8504,-57.5194,-188.9030,28.7126,5.5808,-28.0654,-139.6415
-2835.9375,57.5280,-26.4189,36.7459,-0.0219,63.7561,-25.1214,45.6153,-192.0956,42.9086,-231.1386,142.7612,-25.8095,87.9585,-14.1708,44.4473,-270.9441,194.6182,-4.5278,-37.8138,-184.7760
-2828.1250,160.0014,4.7752,70.4003,31.2271,60.3362,-65.8984,42.1810,-195.6551,2.5564,-234.6983,176.3836,-30.9578,108.1976,-55.0045,77.9193,-237.4920,120.0263,-8.1349,-76.0612,-188.4189
-2820.3125,92.5733,8.0687,37.1609,-0.4183,27.0221,-62.5778,8.8494,-192.1174,6.3022,-231.1636,143.0970,-64.4685,92.1623,-124.7428,81.4864,-159.9340,159.5278,-4.6392,-37.2174,-184.9574
-2812.5000,172.8983,-88.8798,121.6630,-61.3108,111.4489,-125.5044,20.2559,-217.8392,54.7852,-256.8914,154.5676,-164.2139,168.7681,-224.7343,202.7995,-185.6344,168.7993,-101.3896,8.3753,-210.7444
-2804.6875,138.0289,-53.0212,157.9709,-96.3976,184.6849,-162.6292,129.4527,-218.7717,91.0616,-220.8250,116.8368,-144.2600,157.8327,-188.9262,164.9035,-149.5367,98.8641,-100.3378,-26.2384,-174.7310
-2796.8750,171.3961,-19.9022,120.5181,-63.2293,184.1634,-127.4989,91.8967,-256.4541,53.5803,-221.5073,227.3420,-139.4356,170.8451,-226.8571,90.2475,-224.1878,272.1826,-103.0267,7.3944,-212.4639
-2789.0625,276.2181,-55.3263,194.5123,-63.6058,221.0922,-127.9130,91.7801,-293.6898,53.5414,-258.7459,227.2949,-152.1228,164.5434,-227.3382,54.0358,-187.3988,201.9622,-103.2605,-63.5234,-212.7547
-2781.2500,126.5947,-100.1936,109.0607,-38.4234,98.5825,-66.7757,80.2058,-232.3796,41.0400,-234.4334,140.7949,-98.2146,127.8795,-92.2736,115.3638,-163.0627,122.2841,-41.9395,-36.8997,-151.4961
-2773.4375,143.7216,-48.3008,91.3507,-91.4865,80.8176,-47.8838,62.3729,-250.3277,60.2790,-252.3783,160.0490,-105.8462,132.9478,-110.4601,133.4307,-217.9881,139.3737,-59.8606,51.4791,-169.4888
-2765.6250,91.0095,-31.2446,106.7933,-74.3955,59.2084,-32.8452,77.6882,-124.1350,75.6693,-126.1849,65.4450,-87.4185,49.2268,-132.5058,1.6476,-91.7715,86.6083,-77.6282,33.0123,-117.3336
-2757.8125,43.4410,-79.0310,20.3811,-17.1493,9.7439,-8.6554,-44.8438,-99.7968,-10.7965,-64.8409,89.9794,-101.9306,80.7179,-145.3983,99.9998,-67.4046,178.9999,-55.2378,20.6931,-130.0218
-2750.0000,98.4773,-59.2131,79.5610,-32.2935,105.8747,-60.8633,-59.7919,-114.8663,-61.6717,-6.9072,75.1187,-105.7868,136.6247,-123.6902,231.9455,-119.4521,59.0141,-105.2426,-29.0209,-145.1142
-2742.1875,23.3230,6.4097,73.5447,-36.6237,99.8124,-30.2646,-28.9484,-84.1391,-67.7561,23.8243,-4.9447,-29.1030,59.8219,-20.1812,115.6734,-125.7020,-16.1782,-4.4384,-102.9445,-114.4027
-2734.3750,83.5642,-4.5539,62.9215,-47.5424,89.1423,-4.2580,-113.7167,-95.0181,-78.4571,-24.0492,132.3940,-42.4660,60.1797,-31.2661,-6.2155,-173.5574,44.0424,20.7868,-113.4734,-125.2903
-2726.5625,73.7702,-48.5567,124.2500,13.4978,150.4310,-16.2959,-162.5496,-70.9599,-164.2200,1.0159,119.6902,-44.3213,82.3685,-43.4051,18.8412,-1.4746,-70.7804,45.9731,-192.0647,-64.2333
-2718.7500,-10.9814,-28.4985,70.6258,33.6005,59.7662,3.7213,-252.3366,-50.8535,-216.9417,-15.8695,140.0197,-45.7015,103.8434,-60.4869,111.9430,54.6611,19.4454,66.2201,-171.6155,-44.1248
-2710.9375,101.5154,-92.1769,116.2437,39.9607,105.3503,10.9966,-170.8831,-116.5041,-136.4160,-118.5106,111.5967,-68.0237,116.8421,-89.3201,120.2969,-9.9630,60.9298,73.7229,-95.9165,-72.7736
-2703.1250,39.3695,-154.4974,162.2127,48.6765,114.2964,19.6240,-15.0722,-107.8099,-53.5415,-109.8056,10.5151,-44.4132,74.8297,-43.8033,54.9963,-75.2375,-0.2444,117.5753,-86.8776,-64.0746
-2695.3125,-0.6808,-194.7143,122.2742,8.4975,111.3343,16.3568,17.8336,-148.0179,16.4269,-187.0014,43.5316,-74.4091,114.9030,-47.1791,125.7868,-189.4172,29.6908,77.5381,-20.7460,-104.2743
-2687.5000,-14.2713,-173.4818,180.7852,-5.2233,132.8248,0.5446,76.1796,-126.7825,37.8383,-128.7563,27.9994,-72.8199,110.0976,-63.1018,110.0216,-168.1564,-124.9190,27.9493,0.8343,-83.0276
-2679.6875,-63.2164,-11.5845,92.9417,15.7111,118.9600,23.3837,25.1772,-103.8958,23.8965,-68.8586,51.1109,-13.5058,43.9271,-77.3749,-51.1071,-182.2357,2.1153,50.0130,22.0563,-97.1224
-2671.8750,82.7862,-41.7236,138.0347,21.5994,201.0307,-4.8267,34.1137,-132.0627,-4.1036,-134.0132,97.1806,-36.4337,71.3095,-105.6954,-79.2808,-210.3676,78.1146,20.0315,63.2329,-162.2678
-2664.0625,48.5447,-111.1016,137.8765,22.2388,162.8571,-6.2895,106.7971,-59.4822,-5.3576,-61.4113,-51.0063,-41.8454,39.4861,-70.2664,-7.7064,-63.7433,7.8539,20.7983,-6.8425,-126.6625
-2656.2500,9.0942,-79.6721,60.5092,-17.3169,86.4812,27.0491,29.2772,-63.0928,28.1766,-101.9989,-18.3997,-47.2959,75.1889,-38.0298,136.6504,-104.3127,75.3978,-18.6293,24.8723,-130.2530
-2648.4375,46.7038,-77.1845,98.1871,-49.8173,124.1575,-9.5600,29.7932,-62.6590,28.7532,-64.5405,-53.7414,-47.8726,58.9121,-0.7385,137.0561,6.1595,-97.9996,-86.0046,27.6348,-92.7961
-2640.6250,-100.9882,-84.9853,51.5593,-21.6088,40.5271,17.5325,20.0091,0.4800,-54.9789,-38.3753,-101.3939,23.7089,-3.7026,136.2645,53.1557,33.3381,-34.7034,-22.6742,-13.9169,-29.6310
-2632.8125,12.5153,-41.5737,95.1148,-14.1871,84.0831,24.8316,-119.5897,-66.1822,-156.5268,-105.0099,54.1555,45.9057,11.6896,180.4689,-50.5418,-33.2835,7.8051,-50.1338,-77.2752,-22.2645
-2625.0000,19.5784,0.4001,100.2187,28.7979,89.1904,28.6911,-114.6539,-25.2960,-189.5371,-27.0945,-15.7437,96.4330,-42.2093,221.2205,-118.6905,7.6482,-55.1390,-78.0374,-104.0982,55.6533
-2617.1875,-41.1637,9.5934,-37.4876,1.9958,-12.5173,0.7568,-142.5307,-16.2001,-106.3649,19.0282,-42.4498,81.8163,-57.7854,230.1805,-36.6527,16.7908,60.1173,-138.7315,10.2670,64.7795
-2609.3750,17.0006,68.6998,-14.3068,-78.8922,10.6687,-49.2662,-9.5268,-29.2087,-10.3053,5.0479,-92.2577,43.1896,-61.8649,143.0466,-13.7194,39.8223,-22.7103,-185.5153,-1.4718,87.8038
-2601.5625,-79.6380,76.0139,-43.9222,-71.5642,-54.9424,-6.0758,33.6744,13.9762,-3.0531,48.2625,-158.8774,68.1339,-116.8762,149.1166,-80.5929,83.0520,-49.3461,-107.0868,7.9757,131.0318
-2593.7500,-57.3344,-42.7042,-19.6000,-50.2785,-30.6093,18.0737,-15.1817,1.1074,20.1370,36.4251,-171.5484,26.0067,-45.6501,137.1477,90.4762,-2.7822,-28.0227,-120.7007,99.3694,82.2089
-2585.9375,-100.1167,-119.5007,8.6173,-92.0852,33.6296,-26.8717,85.8546,66.1312,48.2184,101.4856,-216.3167,0.1279,-32.0406,165.0863,118.4416,99.2730,-174.7977,-162.4183,91.6512,110.2811
-2578.1250,-116.6001,-135.9796,-45.8715,-108.5811,-93.8387,-8.5049,67.1819,84.4581,30.5899,9.8508,-124.7951,1.9523,-52.0894,183.3353,26.6947,80.6323,-15.2683,-73.8292,146.2202,128.6589
-2570.3125,-28.5309,-118.8982,45.1802,-91.5122,-1.7636,46.4210,49.0429,-6.6689,12.5020,-81.2402,-68.7173,-2.3974,-25.9918,128.1378,-27.5064,25.5386,-33.1731,-55.6830,92.3373,110.5814
-2562.5000,-72.4025,-20.7569,36.2831,-28.3828,25.3616,36.4051,3.9558,-52.7468,-33.5428,-17.2806,-115.5962,60.8541,-51.2817,154.9929,-37.6666,-19.5013,-77.0316,-28.4845,49.4979,137.5553
-2554.6875,-21.2293,29.4484,18.4179,-48.1924,44.5216,19.4520,-50.0868,-106.7712,-14.5440,-108.2698,-58.4312,45.9579,10.5836,137.9090,91.2110,-110.4906,9.1754,-118.2254,101.7060,83.5810
-2546.8750,11.2080,-42.0854,50.7971,-85.7403,76.9286,-21.2448,54.1120,-74.5487,17.6991,-76.0147,-63.0099,-13.9537,28.5234,59.0754,86.3386,-41.2323,-63.3592,-120.7202,134.1582,115.8518
-2539.0625,-51.3041,-34.5529,-13.7782,-42.2322,-61.6161,-13.8918,61.3571,-30.2703,60.9838,-31.6945,-18.5463,-15.8441,-16.7340,-6.6987,-15.4940,2.0789,14.1552,-78.1674,211.6484,123.1766
-2531.2500,6.3339,-12.8543,9.7878,14.4311,-37.0128,-62.3816,122.7405,-42.8437,159.4097,-81.2207,-67.9252,-34.6052,-14.6420,-129.3133,7.8168,-10.4648,-32.1673,-90.4640,234.2833,110.6476
-2523.4375,-82.8692,38.0002,-12.4921,30.2472,-97.2527,-48.7166,210.2789,7.7361,172.9817,6.4039,-201.1571,7.5791,-79.7425,-115.7789,-14.7239,40.1454,-52.3479,-39.6125,215.0564,161.2695
-2515.6250,5.1179,21.0684,-64.5834,13.2737,-149.3012,-63.8469,158.0106,-8.4807,157.7500,-9.7627,-69.1997,-16.7830,-31.2121,-94.0377,41.9380,-12.0363,106.6783,-55.5555,233.0178,109.0964
-2507.8125,54.2674,0.2927,-13.5323,-7.5395,-135.2045,-86.8142,171.8779,41.4484,171.6569,40.2143,-92.0874,-13.8887,-51.1589,-43.1433,19.7606,37.9249,-19.1351,-112.3430,177.1169,123.0707
-2500.0000,-60.1843,95.9281,-135.0877,18.0589,-219.7115,-98.3714,86.1473,140.7864,85.9572,176.5976,-176.5807,77.7587,-152.4565,91.1594,-65.0281,100.2955,-29.5593,-51.7274,131.6013,148.4513
-2492.1875,-18.4349,102.7769,-164.4587,23.8677,-175.0354,-90.7194,20.6060,185.3244,56.4496,220.1862,-168.8691,34.8664,-125.9607,-11.3269,-20.6254,144.8708,-22.7698,-80.9064,102.2805,119.0332
-2484.3750,-98.0761,93.2437,-140.2291,50.2838,-187.7520,-66.4575,45.6586,246.4633,8.5350,318.3732,-255.5674,34.1318,-154.4275,-60.2089,-33.6307,279.0479,-137.3844,-19.4792,23.5439,180.2171
-2476.5625,-172.5780,89.8811,-180.8583,46.8634,-191.3326,-33.0370,-32.1466,242.7556,4.7579,277.7110,-222.1233,46.8297,-145.5179,-26.9267,-37.4916,239.3789,-105.8435,47.1067,55.9438,176.5594
-2468.7500,-100.3249,56.2863,-105.7488,14.2000,-116.1719,-31.8604,5.7842,206.7949,42.7235,242.8010,-146.9238,36.8276,-117.0816,11.1098,-73.5947,240.4578,-210.5425,14.4445,21.0807,177.6498
-2460.9375,-195.0708,67.7091,-168.6475,-10.4532,-216.0090,16.3218,16.7158,254.8386,53.6851,253.9044,-172.7349,73.4990,-157.4002,94.1538,-98.7022,214.5497,-164.2542,59.7841,68.2045,188.7455
-2453.1250,-115.2731,76.6962,-156.0155,-35.5493,-203.3088,27.0679,28.1912,193.4336,101.1936,192.5644,-197.0024,49.8674,-122.2885,69.7638,22.7365,153.1974,-84.4059,33.6869,75.8726,127.3933
-2445.3125,-138.3172,88.8396,-109.2342,11.5107,-193.4565,37.9736,74.8137,203.1793,74.8483,202.3687,-261.1190,82.8748,-147.0798,79.5278,-3.6750,236.9969,-178.4096,80.7449,17.6770,174.1926
-2437.5000,-146.9682,45.3929,-192.0574,71.9772,-239.2137,102.2891,-7.1706,194.3298,29.8915,193.5790,-121.8425,95.4022,-138.1516,107.7072,-86.6908,191.2098,-46.0153,107.2159,8.8640,165.4011
-2429.6875,-32.6135,-14.0386,-107.8910,81.4551,-117.9750,76.6160,-33.1712,168.4793,3.9214,204.7855,-74.5594,60.7445,-90.5175,81.8926,-75.7008,202.4150,-141.6104,117.6936,-86.9612,139.6094
-2421.8750,-147.3531,45.4412,-155.8200,71.8443,-128.8289,101.8502,-45.2850,230.5273,-45.1627,302.8956,-86.3739,92.6626,-103.8892,106.9834,-87.8130,227.5236,-222.3137,178.0783,-96.9028,164.7245
-2414.0625,-179.8460,83.1843,-188.5110,4.4932,-161.4461,69.3443,-78.1631,233.8306,-4.0120,270.2544,28.0628,39.5899,-31.8264,37.3362,26.3213,230.8845,-219.7547,145.7222,-24.6010,132.0955
-2406.2500,-197.1828,-2.9109,-172.0541,-11.6999,-181.9129,85.9965,49.0966,287.2796,12.2797,323.7599,-28.3469,21.1484,-40.2157,54.8417,43.6162,321.4039,-342.0500,93.5197,-41.1537,185.6168
-2398.4375,-233.6787,-39.1375,-247.7614,-13.0318,-220.5413,84.5143,10.2015,285.5857,10.4119,285.1312,-66.9229,49.6942,-83.2092,163.2147,4.7559,282.7853,-167.5036,92.1780,-42.8762,183.9957
-2390.6250,-94.0245,-110.1933,-136.3383,-13.2043,-146.0289,48.1923,-26.5574,213.0478,10.6834,175.6673,-29.3475,25.8556,-76.8310,163.7462,-68.9608,210.3160,-132.7952,55.9880,-44.4551,147.5230
-2382.8125,-176.2654,-16.1385,-112.8110,10.7298,-159.4137,71.9772,-3.2177,199.6204,-39.9550,199.3151,-79.6775,99.9757,-131.6275,224.3794,-155.5832,233.9584,-179.9962,114.8966,-90.9434,171.1573
-2375.0000,-133.0652,132.3781,-139.8473,-17.8745,-112.3594,83.2247,-103.4355,99.6555,-66.1517,136.4226,-31.5615,97.6511,-75.3206,161.4772,-34.7637,134.0565,-66.7442,88.2592,-83.9893,108.2503
-2367.1875,-74.1553,226.6099,-79.1892,6.2288,-51.6081,70.1808,-79.9642,86.3878,-116.6563,123.2283,-81.7378,118.9042,-70.9438,111.2858,-11.2402,157.8529,-112.7858,76.3215,-130.3504,132.0443
-2359.3750,-123.6962,247.4115,-131.9863,96.8902,-105.3134,127.6959,-132.9495,69.6757,-132.6221,106.5944,-98.3710,170.8782,-108.3756,131.6520,-65.1660,104.2097,-22.2814,96.9416,-110.1834,152.3976
-2351.5625,-22.5342,207.9327,-99.0920,93.2672,-71.3247,124.9243,-173.2603,-6.3421,-136.9064,66.6520,-27.2916,147.9911,-65.4983,128.7299,-31.3826,-8.7422,-26.0586,57.2697,-45.3310,112.4530
-2343.7500,-60.8602,135.9678,-103.6967,90.1576,-75.8327,120.6676,-105.0833,26.1361,-140.7075,62.2026,-31.7092,146.2601,-87.3526,161.3176,-110.0960,59.8030,-64.3383,90.1111,-47.9950,145.0122
-2335.9375,-34.6942,55.5153,-111.8098,116.5635,-120.8466,149.9281,-186.4160,-18.8835,-150.0190,-18.7399,106.3631,94.3894,-37.5309,79.4209,-118.3151,-21.1486,101.8856,116.4644,46.8341,100.0775
-2328.1250,58.3694,115.9584,-49.0248,70.8794,-21.9636,102.1124,-87.8597,6.0016,-87.4384,43.2232,58.3236,56.4683,-36.8008,-41.5616,-129.6374,40.8015,-48.9741,70.7275,70.5587,89.0398
-2320.3125,-78.3081,154.6586,-119.9916,38.4551,-128.8262,68.5548,-48.0486,157.1377,-11.6073,157.4382,-47.4619,62.8792,-86.0542,-38.2951,-89.7087,118.0114,-81.5824,74.2357,109.5217,92.2531
-2312.5000,-84.3413,79.0310,-122.3218,-1.3126,-131.0532,29.6595,-15.5858,190.9293,21.8748,154.3057,-14.5973,1.6513,-27.7830,-78.3679,16.8674,78.8820,-52.5463,33.4009,173.1237,16.1217
-2304.6875,-115.1684,12.6220,-119.4678,37.1230,-92.0900,32.9775,61.0801,267.9239,24.5594,268.3729,-120.5237,20.5496,-63.4743,-38.2248,-17.3655,117.9447,-154.3113,71.7661,140.9156,19.1890
-2296.8750,-159.8976,-67.6767,-128.5190,62.6684,-101.0256,135.4039,15.8447,259.0243,16.3380,259.5503,-129.3651,44.8282,-89.4253,28.0407,-99.5123,37.1063,-58.9710,203.2414,166.7930,-25.6422
-2289.0625,-26.3755,-108.7151,-60.3251,127.4805,5.2862,168.0968,46.8468,217.3770,47.3536,181.9807,-134.9635,70.6240,-94.8576,59.5633,-177.4144,-4.4749,-100.3605,267.9731,53.9136,-67.2294
-2281.2500,-91.5866,38.5146,-54.8779,168.5450,-63.1424,210.0447,52.0912,186.9866,52.6108,150.6607,-165.3065,139.6445,-137.5103,65.3278,-208.0675,1.1978,-94.5019,308.9582,-10.7291,-61.5680
-2273.4375,-50.7012,149.8605,-120.3370,173.7210,-54.4788,182.0994,60.4299,121.7012,97.9577,85.4537,-46.5423,127.4095,-65.4317,0.1977,-90.6198,-64.0316,-53.5504,173.0520,-6.2796,-126.8024
-2265.6250,-72.2192,128.8150,-72.2017,152.5083,-43.2109,157.7648,145.3595,133.0209,145.8988,96.8521,-182.1784,121.2960,-77.7636,11.6770,-5.5669,20.3449,-145.9987,151.7546,-63.2409,-78.4361
-2257.8125,-102.4412,100.0848,-140.7652,158.6099,-111.6393,199.7440,76.5912,138.6410,114.1414,102.5513,-176.5312,111.8645,-76.7909,17.4647,35.7825,-9.9736,-34.1514,157.7691,-93.9134,-72.7625
-2250.0000,-1.5183,60.5218,-70.1893,153.8710,32.0739,159.8900,35.9709,61.4110,110.5313,62.4009,-69.7393,64.6982,17.4846,-22.5858,106.2785,-87.1373,-39.1480,117.9445,-169.4511,-112.9396
-2242.1875,-33.3371,99.2094,-69.3637,192.3934,-2.9571,162.3011,36.6050,99.4294,37.1711,100.4992,-105.6966,125.5678,-45.8489,52.6198,-2.9691,-12.0441,-35.9014,156.3680,-236.7593,-74.8692
-2234.3750,-7.9615,160.1023,-114.3455,183.1207,-47.8010,153.9238,-44.5593,54.6583,-7.9920,55.8121,-39.4561,126.5052,-47.2965,45.0358,-12.0173,16.2640,95.5359,111.9943,-176.8829,-119.5891
-2226.5625,4.4078,173.0181,-65.3354,160.8591,0.3494,93.5538,-32.7419,103.8934,-32.1661,105.1273,-101.2108,118.0795,-81.7296,20.4615,-73.0512,102.5712,1.9780,89.6260,-200.0224,-107.3037
-2218.7500,-44.9663,124.2009,-117.0773,181.8564,-50.2465,116.4461,-84.6905,89.3746,-84.1068,90.6926,-41.7208,133.4533,-89.7592,80.1521,-124.8227,51.1371,58.6690,110.5148,-144.9291,-121.7577
-2210.9375,81.9095,-30.3524,-19.5819,133.1096,47.3933,67.6056,-97.3957,40.1114,-60.8086,4.5135,93.0109,61.5294,-6.1368,104.1046,-100.3499,1.9630,79.6176,26.6615,-123.5873,-170.9574
-2203.1250,17.5328,11.8443,-15.3397,70.1159,14.7820,72.5179,-20.3482,81.6126,-55.7544,46.1028,23.4900,80.3591,-48.3174,145.8010,-133.1352,43.5542,86.3099,33.5521,-153.4918,-129.4055
-2195.3125,87.9958,82.8870,-51.2552,69.9748,-57.9887,74.2819,-92.4480,45.9815,-55.8481,-26.4400,61.8195,53.3406,-25.8130,37.3598,-59.0674,8.0101,191.8381,68.2899,-83.5502,-164.9949
-2187.5000,144.4042,34.8920,43.7702,91.7879,37.1798,59.0001,-71.6118,30.3129,-71.0064,-42.0283,9.1097,31.1569,-21.2215,-15.1094,-74.0324,66.4136,72.3191,54.9805,-132.6674,-143.6311
-2179.6875,52.2186,48.3120,19.1938,104.9972,49.7488,72.1255,-133.3819,43.0445,-95.7715,7.7835,21.8023,61.1411,-40.1015,34.8317,-135.5882,42.2256,120.1912,68.0734,-156.4007,-130.8605
-2171.8750,112.0310,73.7503,10.6117,95.2091,114.3102,27.2615,-105.1662,-39.2198,-31.5474,-74.4007,160.4889,60.5056,24.5694,63.7787,-107.1465,-76.9461,145.0725,-11.8246,-131.1501,-176.0837
-2164.0625,96.4033,163.7531,27.5822,79.9816,58.4266,7.9586,21.5865,-57.9367,-14.7868,-93.0380,104.7322,78.0440,27.8086,44.2669,-17.1525,-58.5660,94.5172,-28.1702,-183.3608,-121.7574
-2156.2500,87.7234,155.7086,-54.5065,71.7025,-24.5102,36.6160,-24.7085,-103.6917,-24.0785,-101.7097,95.9199,64.6166,25.4194,35.7144,47.7894,-104.2232,190.9024,-36.5530,-121.6295,-130.4785
-2148.4375,171.9879,100.6164,32.3381,51.3791,63.4922,14.2377,-11.0588,-89.4804,-10.4182,-124.4156,73.0599,21.5744,35.3816,-23.8784,24.6757,-89.9253,100.2394,-91.9805,-143.9449,-116.2545
-2140.6250,59.2529,23.5253,-14.8152,44.0566,-20.4975,77.8685,-21.4037,-26.2660,-57.7568,-98.1227,99.1973,44.8294,2.7408,76.5369,-59.4370,-26.6314,92.5844,-28.4112,-116.2652,-53.0329
-2132.8125,108.9762,37.8927,36.4838,58.1922,30.9633,56.9507,-80.2965,-84.6061,-42.6439,-156.3884,188.7939,25.4413,54.5140,18.4067,-44.1062,-121.8990,142.3913,-14.3912,-103.1474,-74.3596
-2125.0000,138.3630,138.9272,102.4335,87.9798,134.0808,49.6896,-88.5430,-129.3028,-124.8811,-127.0111,107.0552,85.9198,25.7724,47.9285,-89.1222,-92.5228,100.8468,50.2770,-178.3895,-45.0407
-2117.1875,135.6454,171.8752,64.2848,86.6663,170.0979,86.3319,-163.8807,-167.0939,-163.2176,-164.7286,143.2087,79.5161,44.5973,10.3531,-90.2344,-167.2326,239.1941,47.8404,-182.7365,-82.8179
-2109.3750,215.0183,146.9424,149.2245,96.4534,217.2131,61.0798,-116.1221,-192.7807,-152.4544,-190.3502,154.4490,36.3157,70.8395,-88.1096,-79.2440,-155.8338,143.6466,-12.4953,-208.9858,-108.4929
-2101.5625,120.1479,86.7576,82.9162,70.9958,152.0820,69.5844,-145.6076,-73.7196,-180.9395,-108.2245,88.4391,59.3072,18.6958,30.1840,-108.4883,-73.6826,118.8443,-2.0751,-164.4963,-63.4140
-2093.7500,155.9705,53.2643,48.3034,73.2408,117.6517,72.7967,-180.3893,-70.9592,-142.7213,-105.3964,128.1228,27.3109,53.3499,-3.8073,-32.0352,-144.8316,189.7389,-0.9368,-129.3128,-97.6262
-2085.9375,127.3947,60.3669,89.2952,79.0893,121.8241,77.6137,-102.5771,-29.5946,-138.9020,-63.9648,95.4089,29.8178,38.5145,-35.1939,-64.9944,-66.3798,55.2459,5.8055,-158.5340,-56.2400
-2078.1250,82.1212,86.7846,41.5891,70.2419,0.3003,66.7324,-150.4662,-40.9246,-149.7880,-112.2249,157.9988,25.9772,29.6169,-46.2866,-76.6492,-77.6106,187.0439,-3.1546,-133.4808,-30.5504
-2070.3125,176.8465,41.2175,102.8811,24.3947,61.7687,-17.1474,-162.3638,-52.2496,-161.6830,-123.4844,256.5962,-41.5451,99.0812,-94.3737,-14.2957,-51.8357,104.8369,-85.1137,-179.4377,-41.8538
-2062.5000,91.7238,-8.2074,121.3254,10.6934,81.3909,-71.8766,-143.1159,3.5803,-179.4289,-30.5941,128.3469,-30.7718,40.3198,-38.3099,-69.7764,41.0942,90.7710,-63.9257,-195.2394,13.9996
-2054.6875,85.3909,-48.8420,79.5627,39.7900,112.8039,-38.7953,-149.0619,-74.7789,-148.3729,-71.8901,123.8878,-37.9034,71.1507,-42.4276,-0.4507,-37.1610,155.4982,-69.9348,-132.2410,-27.3380
-2046.8750,110.6000,-22.9271,178.3382,30.4328,211.7646,-50.1509,-51.4603,-86.5785,-123.7618,-83.6277,75.9716,-40.6758,109.5118,-90.9818,61.4307,-85.8637,-31.2252,-44.4000,-141.6785,-2.1255
-2039.0625,44.5088,17.6834,144.8101,69.7680,178.4230,-8.8017,-85.1417,-118.6727,-120.4418,-115.6571,115.7562,-8.2471,107.2011,-86.8231,28.0060,-153.8643,78.7398,30.8287,-138.4164,1.7947
-2031.2500,179.3633,12.2464,177.2245,64.0525,211.0254,24.4941,-89.8678,-232.8120,-89.1705,-266.7329,185.4912,-29.0200,139.0930,-127.7098,23.5249,-231.9056,143.6653,25.0045,-76.2085,-39.3280
-2023.4375,139.0754,-27.3304,170.4943,60.1905,167.4806,18.6370,14.2550,-239.0995,-59.0467,-235.9621,142.0818,-34.1144,105.0169,-132.7526,-20.1034,-164.0945,68.4409,21.0279,-10.1575,-8.6003
-2015.6250,93.9357,-106.7419,87.9175,15.4723,85.0904,46.9325,-31.4636,-247.2375,-30.7685,-244.0356,170.8217,-68.8435,119.4016,-104.6421,44.4265,-209.1295,164.3533,11.2043,120.0278,-53.7167
-2007.8125,150.1348,-85.8054,183.6884,1.1031,144.0495,-3.4177,26.1713,-225.0277,-9.1370,-221.7702,155.9170,-60.6666,119.4755,-82.1727,29.3285,-187.8201,78.6156,-38.2723,68.5681,-68.4828
-2000.0000,86.5345,-41.6817,116.6659,8.9295,151.2163,-32.5676,33.0144,-181.6160,-2.2974,-142.3083,126.2104,-39.0311,80.7339,-74.5019,-36.5622,-180.3045,122.0674,-30.5588,40.3146,-61.0444
-1992.1875,191.1731,-113.3103,79.8838,-26.9992,151.6210,-68.4642,33.1234,-181.9492,33.8077,-178.5849,199.7435,-110.2148,140.7086,-110.5921,73.7962,-143.5292,120.7688,-137.5909,38.3246,-97.3481
-1984.3750,147.2586,-121.4838,66.5435,-71.4827,101.4766,-80.9183,56.6957,-156.8263,21.3796,-117.4031,187.7210,-120.9221,130.6600,-86.2425,97.6127,-45.3009,5.9134,-111.1681,-41.2080,-36.2044
-1976.5625,95.2361,-30.7613,14.1056,-122.0687,48.2393,-96.4740,-32.8198,-172.7912,-69.1404,-169.3069,244.5879,-81.7590,134.5085,9.0029,118.3356,-98.1636,130.9424,-91.8418,-22.8381,-52.1572
-1968.7500,186.9558,25.7034,146.4164,-100.9075,107.7479,-73.2815,-84.5843,-223.0014,-120.9096,-219.4615,230.2137,-47.6689,149.1216,30.9980,140.8232,-112.2786,80.7284,-34.7585,-72.7147,-66.3600
-1960.9375,119.4357,29.9166,147.4872,-26.0036,109.0057,-71.3418,-83.5939,-221.4538,-155.9280,-180.8714,121.5902,8.5555,89.7105,69.7417,68.0634,-110.6388,119.2669,74.0734,-105.8456,-27.8135
-1953.1250,194.6572,-71.1186,190.3105,-21.3458,115.0169,-64.6512,-114.8440,-215.1556,-114.1871,-211.5249,237.7058,-75.8684,124.2993,-70.7582,1.0449,-141.2480,194.5541,43.6579,-66.2265,-58.5176
-1945.3125,162.3757,-100.6581,226.6388,-18.1940,151.5415,-64.4538,-41.5900,-178.3588,-40.9345,-174.6813,164.3280,-88.5934,97.4261,-106.7577,-36.4763,-30.3623,57.3418,12.7281,-133.1013,15.2721
-1937.5000,68.4476,-54.8537,126.3246,-6.6994,15.4205,-52.9096,-30.9714,-130.2072,-30.3212,-126.4847,138.2939,-69.1645,71.3698,-95.4046,11.3560,-19.1177,138.4678,-11.8637,-122.6281,26.4156
-1929.6875,123.6125,-68.9585,111.1076,-21.1151,74.3974,-67.2676,-9.2446,-144.9499,28.4038,-69.1880,87.3579,-91.3100,77.2237,-109.9480,70.3004,3.2291,53.6981,-61.3593,-138.0478,11.6599
-1921.8750,18.1768,2.3148,71.3022,-20.1391,-3.2134,-68.2296,23.8970,-74.2997,-12.4561,-34.4924,9.8270,-32.1460,28.6843,-39.0893,66.6638,36.9767,-16.6836,-59.4640,-139.0651,82.3038
-1914.0625,27.8866,47.7267,-28.3532,-79.0178,-64.6699,-57.0461,-38.7962,-136.4954,-1.1589,-95.6408,132.4507,-42.1876,84.4574,8.9169,188.1726,-25.1213,64.0840,-155.4244,-59.9370,57.1048
-1906.2500,37.6971,-10.7567,16.0934,-139.8037,-93.0317,-121.7695,79.6123,-91.5891,80.2518,-87.6931,66.1849,-71.2651,64.3168,17.0067,195.7827,19.8750,-67.0401,-180.2962,-15.7003,102.0066
-1898.4375,-67.1400,-45.8958,-93.1025,-139.2529,-167.0357,-121.1565,79.3934,-54.3337,80.0272,-50.3982,29.2652,-62.5088,23.2440,54.4430,159.7573,20.2243,73.1731,-179.8211,89.8927,102.2607
-1890.6250,49.5122,-32.5609,-7.8000,-162.2065,-116.5410,-181.0436,55.6838,-77.5773,93.3157,-73.6042,42.8363,-96.2621,41.7533,-5.6188,172.2444,34.0745,49.8982,-202.8470,100.9944,79.0152
-1882.8125,-38.2731,54.3130,-27.9404,-179.6214,-138.4928,-164.3844,107.5380,-62.2772,71.1680,-21.2684,-14.0317,-44.4424,4.7829,46.8564,151.2981,49.4685,-37.8255,-185.3387,81.6515,131.3167
-1875.0000,-45.4573,117.8014,-71.4818,-222.4439,-107.8414,-171.1373,27.0020,-105.3800,64.6302,-28.3295,51.6953,-48.5326,34.9575,40.9298,180.9529,-29.5364,-10.9555,-158.2388,143.9109,88.2227
-1867.1875,-27.7982,-3.8538,17.8263,-240.4285,-17.3443,-189.0448,81.3219,-50.6281,44.9486,25.4584,-3.7248,-92.3661,43.2140,21.8509,162.4588,61.3057,-98.2346,-175.2905,126.0334,105.9753
-1859.3750,-123.1347,-98.5218,-43.8624,-229.4218,-79.8403,-177.9615,54.6478,32.1360,55.2767,110.2524,-29.1426,-96.4265,-0.1128,69.7692,98.9579,146.1560,-52.5205,-129.3514,136.1582,116.7279
-1851.5625,-67.6282,-113.3533,-22.7022,-208.5669,-57.4873,-155.0224,77.8292,55.7497,115.4529,96.8981,-7.7082,-127.5702,42.6216,-17.4544,158.3111,95.8714,-66.9487,-109.5717,155.1243,66.3340
-1843.7500,-117.1695,-56.2429,-37.5864,-186.7692,-36.1793,-96.1374,135.9647,77.3076,136.5910,118.4858,-95.3199,-91.3088,12.8533,-31.7258,143.6399,117.5346,-186.4323,-51.8571,141.0414,87.8879
-1835.9375,-139.4233,-42.8408,-59.1689,-173.6862,-57.5695,-43.9603,78.4200,57.1712,115.0412,61.3809,-43.6389,-74.2192,33.7131,-15.6949,159.2828,-13.5006,-138.6283,-39.8500,224.2709,30.7474
-1828.1250,-77.1856,-154.9509,80.7432,-146.1105,45.5345,-51.2912,106.3837,49.5445,107.0036,16.7799,-87.4609,-112.2127,53.5817,-60.1614,151.4248,52.9697,-216.3181,-47.3465,145.0132,23.1050
-1820.3125,-199.2465,-171.3747,-12.6393,-91.8471,-47.6564,-32.9279,124.0582,104.6218,124.6810,71.8810,-142.5874,-79.9083,16.4081,-4.9385,169.2758,144.1514,-163.3217,-64.1444,127.4560,41.1628
-1812.5000,-153.0683,-160.5561,-35.7715,-82.3433,-33.6013,-18.3256,175.0001,80.9555,175.6181,85.2365,-129.4659,-102.3070,55.7738,-64.4699,256.3925,84.5894,-152.0861,-88.6947,138.1487,-18.5226
-1804.6875,-204.3359,-140.1920,20.6471,-62.2994,23.0041,-35.1807,231.4905,137.8377,195.1117,179.1423,-219.7883,-82.7004,22.4268,-81.4597,203.0634,141.5757,-238.2967,-68.7051,121.3990,1.3447
-1796.8750,-190.4132,-90.6317,-0.7247,-48.0606,1.8148,-18.8465,136.1880,116.9193,136.8126,158.2456,-166.9196,-69.3634,-0.9521,-102.2456,107.9238,120.7649,-84.3133,-54.5135,170.8583,-19.5805
-1789.0625,-61.3417,-100.9318,25.0573,-58.6684,63.7823,-66.3598,125.0326,106.1400,125.6646,110.4820,-105.9039,-107.2344,39.8184,-148.8723,133.9251,147.0931,-130.1552,-100.1652,124.4743,-30.3582
-1781.2500,-140.0545,-144.0371,12.0568,-67.0783,-22.0295,-77.6731,112.0842,130.5400,112.7201,134.8995,-153.6852,-85.1712,11.8483,-51.3110,158.1314,171.6081,-173.7964,-38.6197,79.2877,31.0596
-1773.4375,-81.8724,-190.2392,-35.0404,-113.5929,-68.9429,-51.0892,65.0441,83.8396,139.6803,88.2108,-54.5702,-121.8882,67.6644,-23.8572,258.2439,88.0146,-45.5467,-50.1721,102.0078,-15.6185
-1765.6250,-86.3445,-159.1020,-4.7865,-116.7649,-38.5063,-57.1532,169.3559,78.4823,169.9964,45.8711,-97.1038,-87.6191,34.0164,6.9402,178.7215,118.7756,-118.9511,-19.3861,97.0931,15.0512
-1757.8125,-136.3719,-139.5347,-21.0755,-132.4995,-54.6098,-72.7750,116.1331,62.5778,153.7782,29.9824,-77.1993,-90.5903,33.5891,-8.8093,162.6508,66.9967,-30.9189,0.8326,186.6422,-0.8255
-1750.0000,-50.8596,-123.4312,34.1876,-152.7016,74.8339,-126.8522,135.4704,44.2251,136.1129,85.6396,-20.7421,-163.0063,108.3595,-172.9990,218.1224,12.7615,-85.3285,-53.4058,166.7579,-55.1497
-1742.1875,-76.7947,-111.7939,43.0168,-141.3658,82.8425,-153.3985,143.3660,89.4145,144.0178,130.8332,-86.7225,-143.6049,63.9377,-163.6425,153.1462,58.0601,-110.1893,-8.0963,141.4346,-9.9272
-1734.3750,-35.9811,-107.4309,12.6078,-137.2887,52.6117,-111.1987,76.0272,23.3532,150.6886,27.7703,-5.9489,-143.6827,86.9193,-157.5403,159.9179,-45.8963,35.6908,31.9649,145.8758,-39.9544
-1726.5625,-0.4267,-176.3354,47.9567,-101.4741,88.1372,-38.2494,148.4538,59.0370,149.1253,63.4503,-81.4328,-97.6535,26.2027,-48.6848,48.4530,26.8881,-138.6846,32.7661,40.0850,-4.2355
-1718.7500,-133.0273,-133.4074,-18.8287,-58.8185,22.5268,80.5374,45.7459,66.5811,46.4200,70.9848,-110.0820,-9.9498,-41.8745,70.0002,-55.1487,34.5286,-97.2267,145.4149,12.1548,3.3336
-1710.9375,-86.6383,-50.4839,-2.6110,-45.1768,74.9219,96.3067,-11.9558,9.1264,24.7214,-23.4778,-57.7322,7.2114,-13.0404,48.6674,-38.7385,-22.8302,-84.7643,124.0637,24.2376,-54.0987
-1703.1250,-92.3917,50.2734,26.4673,19.3003,67.1799,88.9115,17.2059,1.5142,-19.1095,5.9003,-102.5182,69.1327,-74.7220,42.1660,-156.4632,6.6531,-90.4520,117.5506,18.1830,-24.6868
-1695.3125,-20.2977,16.8611,-7.5933,20.6211,-2.7065,55.3517,-53.7573,4.7482,-53.0725,-101.8695,-25.4635,46.0240,-32.7270,44.5078,-80.3380,-64.0139,86.7036,119.8802,89.9803,-58.4190
-1687.5000,54.5453,-83.8195,70.1052,-9.3128,38.1608,60.5333,-11.9668,9.7303,-11.2736,-59.8933,-20.6539,-11.3899,13.4886,13.5906,-1.4610,-58.9411,-48.3807,88.9615,58.5347,-53.4053
-1679.6875,-28.4521,-26.3618,-18.0261,12.8903,-12.8035,46.8552,-27.0197,67.8591,-63.3176,72.2239,-35.6863,15.0511,-53.0416,-1.1943,-127.4291,0.2741,8.6793,111.1861,80.2455,-31.2464
-1671.8750,42.2976,10.8329,20.5998,13.8404,62.9953,12.9196,-98.3175,-2.2631,-60.6098,2.0922,4.0339,8.0891,-40.6311,-35.2331,-161.6558,-70.7623,79.4898,77.1599,81.7186,-65.3400
-1664.0625,35.3024,39.2613,47.4877,7.0380,53.0502,2.2353,-35.3594,-13.1436,-34.6417,-8.8034,-116.9924,55.9760,-84.2086,64.9752,-134.6286,-7.5538,2.5551,70.3688,3.4587,-2.1894
-1656.2500,-12.2325,27.1280,-39.1649,-5.3266,-33.4333,26.9915,-10.9365,-25.5810,26.7916,-21.2540,-93.5679,51.5325,-76.6391,88.6279,-74.1461,-19.8989,60.0617,58.0139,60.6559,-14.5931
-1648.4375,59.3763,-6.8727,-0.6637,-39.5477,5.2308,-8.1099,27.6526,13.1300,64.3842,17.4418,-55.0024,0.8899,-62.9279,17.4341,-109.5147,18.9038,-8.2774,24.8047,62.0123,-12.8458
-1640.6250,-73.2074,1.9119,-68.3552,-30.9797,-62.3035,-38.4236,34.0457,93.6350,34.7891,60.9221,-48.6268,16.9822,-108.5453,24.0279,-212.0730,99.4960,-0.8055,68.3831,70.1843,30.6944
-1632.8125,18.9083,-11.6118,-80.3290,-79.7234,-74.1260,-50.0506,-14.8469,80.8403,22.9010,49.1009,50.4497,-19.1805,-85.3770,12.3156,-223.9342,50.7879,91.3502,19.6517,127.0599,-18.0661
-1625.0000,-0.2856,4.5468,-27.6020,-63.7766,-21.2461,-70.9851,37.9610,133.7477,38.7182,137.9802,-7.7667,12.5283,-92.9160,65.2994,-208.0998,66.7737,-68.7894,-35.3834,71.6486,-2.1290
-1617.1875,-48.9193,28.2278,-114.3151,-76.2844,-107.8044,-83.3796,25.3325,84.2008,62.0996,125.4035,-20.4324,21.8785,-67.8074,125.8228,-37.7069,17.3047,-10.3842,-82.8747,93.7978,-14.6469
-1609.3750,-13.4113,-7.9541,-77.8683,-111.6464,-71.2052,-119.6344,60.8669,47.8030,98.6408,51.9781,-20.9629,-39.9356,12.8825,52.4894,145.8441,16.9843,-81.8339,-118.2187,93.1036,-15.0122
-1601.5625,-115.4558,-3.6898,-149.9631,-71.5683,-143.1461,-81.4510,98.8471,84.8449,99.6361,51.9908,-57.0326,3.1535,-39.0964,89.5977,72.8554,91.1029,-147.8257,-44.1170,96.8682,59.0656
-1593.7500,-109.6968,-33.6459,-180.2358,-67.6902,-173.2675,-2.4776,68.6364,17.6748,105.4375,-52.2142,22.7026,-11.1830,-20.1163,59.5034,42.6671,24.0202,-38.0297,31.7824,136.4324,28.9424
-1585.9375,-52.2420,-9.9298,-83.7982,-44.1160,-112.6849,-15.8063,128.1270,-32.8038,92.9446,-64.7291,-63.8572,21.0634,-56.4561,83.1138,-7.8247,47.6319,-119.5273,19.3831,54.7072,52.5180
-1578.1250,-55.2250,57.3135,-86.7949,-12.0017,-115.5314,18.4063,15.1779,-71.7432,16.0128,-103.7064,-30.8567,69.6392,-76.1427,117.2651,-83.7684,-29.2219,17.5217,122.5218,16.5476,49.6363
-1570.3125,49.7363,21.4959,-12.8292,58.0501,-42.4181,93.5533,-57.8068,-107.7352,-56.9579,-176.7377,44.0852,77.7462,-28.8029,117.3578,-83.7674,-65.1254,52.5144,121.6066,-55.6496,13.7054
-1562.5000,25.4468,-1.5929,33.8965,104.8444,-32.5476,140.4435,-84.0416,-60.9863,-156.1702,-93.0374,-20.2143,103.7412,-79.0113,128.1893,-183.0010,-18.2930,28.2704,98.4385,-113.0835,60.5190
-1554.6875,32.7172,75.8430,-31.8106,111.1844,-24.1127,74.8764,-185.7118,-89.7011,-147.8212,-85.7982,-11.9638,101.4331,-62.4685,99.5629,-101.6703,-82.9214,105.5742,-1.1828,-37.9658,31.8802
-1546.8750,-8.2180,70.0714,-1.7092,0.3234,6.1242,-5.8949,-46.5763,-23.6265,-81.6657,17.2329,-127.9138,57.1925,-48.4638,92.7354,38.4661,20.2347,-110.3174,-111.0080,-8.0399,62.0382
-1539.0625,-171.9441,-23.5083,-101.3992,-58.3463,-93.4293,4.5256,36.7607,59.6374,0.6958,100.4483,-228.6567,6.1397,-64.2261,65.1030,121.8041,103.5790,-99.0084,-99.6483,74.0974,108.3892
-1531.2500,-52.6781,-45.1129,-86.0792,-115.0227,-77.9718,-53.0646,126.1119,74.9036,90.0684,78.6683,-177.4104,-73.2723,-27.0519,-65.5332,137.1374,44.9284,-15.7192,-191.2945,157.2477,86.7420
-1523.4375,-91.5697,22.1075,-92.9030,-117.8596,-121.6610,-132.8155,229.3231,142.0140,157.3016,145.7275,-220.3053,-46.6441,-95.5678,-72.3270,20.3310,112.1208,-88.5702,-195.0967,154.2643,153.9428
-1515.6250,-102.3521,11.4087,-140.6107,-128.6008,-205.2410,-143.4786,145.6421,168.2168,183.6434,134.8779,-157.1010,-65.5404,-99.3260,-83.0341,9.6334,101.4121,6.6759,-205.8027,213.3878,143.2436
-1507.8125,-58.8347,-85.0040,-95.0086,-120.0447,-123.5178,-171.8525,191.2701,176.7174,192.2912,180.3249,-148.5997,-96.8105,-57.9447,-74.4489,54.2342,146.9960,-90.7720,-197.2143,116.8199,151.8459
-1500.0000,-174.4636,-59.5804,-179.5461,-59.6482,-207.9371,-146.3942,179.7535,165.0622,143.7989,242.6149,-160.2391,-48.1751,-77.5782,-12.0247,79.6916,172.4151,-65.3675,-171.7851,71.1141,177.2924
-1492.1875,-85.7452,-41.8307,-158.7227,-76.9137,-149.9984,-161.5987,127.6003,112.7596,128.6670,153.2564,-65.5342,-91.5230,-21.6540,-101.2492,101.5060,83.1855,22.3685,-224.0103,89.7639,125.0914
-1484.3750,-51.2394,27.7035,-87.0988,-77.3826,-115.2582,-201.0114,199.2533,110.2565,163.3422,150.6963,-105.0260,-60.5613,-55.4199,-103.6793,26.1323,80.7465,-83.0946,-224.4426,88.2272,159.6901
-1476.5625,-106.1814,43.7756,-106.9129,-97.3052,-97.9591,-146.8860,142.4662,90.2949,180.5818,130.6844,-87.9645,-34.6715,-69.2288,-49.5764,-29.6877,24.8517,2.9783,-209.3320,174.2500,139.8382
-1468.7500,-57.8835,-48.9194,-18.4745,-153.9826,-9.4103,-132.5205,193.9405,68.5884,195.0798,71.9227,-109.6630,-64.5055,-38.1302,-34.2346,-15.2636,3.2109,-89.6990,-124.9724,258.5345,118.2415
-1460.9375,-146.8781,-173.9358,-2.3301,-102.9653,-29.1662,-42.4650,210.1180,84.5749,175.2894,87.8529,-166.6486,-62.7543,-34.5040,-18.2080,0.8659,-16.7344,-73.6665,-2.9182,274.5296,134.3419
-1453.1250,-99.6217,-267.7231,51.0785,-56.7025,60.3391,-27.1690,153.5524,27.8126,154.7528,31.0333,-41.3825,-134.4442,67.0154,-148.9382,54.2473,-110.4298,7.6118,43.3814,250.7747,40.6937
-1445.3125,-71.5135,-273.6656,155.3444,-62.5932,127.6989,-69.0276,221.8293,58.8945,186.0594,99.0570,-47.2676,-166.6780,71.2654,-228.8166,11.4814,-44.2902,-102.2487,1.5309,174.8705,34.8939
-1437.5000,-105.6418,-166.8738,84.3800,-61.7329,93.8292,-103.1438,187.8454,97.7099,152.1098,100.8132,-7.3915,-122.1719,39.4011,-188.9501,-59.5311,-41.4145,-32.3584,3.4273,175.7140,0.8394
-1429.6875,-7.5197,-104.8423,154.6787,-33.6198,200.2197,-71.0121,147.1137,56.7681,148.4091,96.8115,-48.2681,-104.6476,27.3471,-229.8371,-100.3079,-82.2972,-74.2156,30.5725,132.8103,-76.9643
-1421.8750,-86.5412,-113.9648,181.8397,62.3414,228.4733,-6.0409,138.2293,84.6607,65.5605,124.6471,-131.2866,-35.6601,-19.6811,-166.8823,-183.2342,-54.3469,-83.2070,92.5617,53.7657,-85.9258
-1414.0625,-52.0578,-113.6008,148.5258,62.7989,195.2491,33.4214,30.8516,51.0435,32.2152,16.9721,-54.8068,-32.6874,6.3498,-126.4378,-142.6585,-87.9041,22.2861,92.0506,53.2280,-156.3896
-1406.2500,11.6698,-121.0070,177.4683,56.5036,187.2780,62.1257,59.7229,42.6671,-12.8803,8.5408,-62.0743,-16.2941,6.7129,-60.7450,-113.8303,-23.2181,-89.9672,85.7897,-59.0487,-127.6049
-1398.4375,-30.7903,-57.6411,132.2242,119.0048,105.1173,126.6252,-59.6073,-3.9191,-95.1728,-74.1048,1.4758,57.5802,13.5063,39.7415,-86.2000,-105.7434,7.5826,148.3211,-101.5191,-100.0262
-1390.6250,96.3527,-36.6971,154.5912,210.1087,164.5610,185.7183,-184.3297,-127.9052,-145.8646,-235.1549,98.6221,77.0751,62.8712,25.8277,-62.9776,-156.6704,64.7301,169.4509,-186.3810,-113.8438
-1382.8125,74.1923,46.9441,167.6625,223.9085,103.7021,198.5019,-135.3515,-153.1944,-170.8511,-259.5087,73.4733,121.7569,2.3191,37.6068,-162.0466,-107.9058,42.5835,148.2761,-241.5306,-64.9646
-1375.0000,94.7880,102.3201,80.4980,244.4533,90.6083,184.0249,-148.6166,-203.7382,-147.0843,-273.1138,134.0740,117.7979,6.6067,-12.8727,-175.3587,-158.3937,133.1727,97.8489,-187.9268,-115.3363
-1367.1875,144.0221,151.3243,167.9903,222.6509,178.1646,125.1918,-134.2326,-225.6321,-132.6638,-259.0697,111.3248,127.1065,0.4466,1.2976,-198.0252,-144.2372,41.4134,6.0774,-243.6656,-101.0583
-1359.3750,31.7146,108.7545,123.9409,216.2955,134.1840,116.8041,-142.3940,-197.0861,-140.7881,-230.5900,103.0314,154.2375,-14.5148,103.9156,-205.2442,-188.6423,35.1067,34.7557,-214.9456,-72.3367
-1351.5625,123.4037,94.1822,109.9064,201.9366,120.2115,65.4151,-156.5483,-247.5432,-117.9085,-282.1139,198.7274,96.6877,38.3222,15.5341,-146.4590,-239.0522,91.7874,-14.5706,-159.2254,-86.6146
-1343.7500,128.3398,99.8578,112.1217,172.8320,85.4858,31.2753,-80.4568,-171.7568,-78.7787,-206.3984,127.6749,83.3966,-3.2587,-18.6001,-179.4153,-163.2202,26.7316,-44.6473,-153.2472,-10.6454
-1335.9375,123.2839,94.5090,34.3516,131.7280,7.7680,26.1266,-122.3622,-213.9733,-83.6491,-211.6900,196.6274,53.8711,24.8249,-23.7410,-112.3714,-168.3888,162.6672,21.2718,-123.2650,-15.6755
-1328.1250,196.0736,60.9884,109.4367,133.4732,82.8989,27.8215,-83.4162,-212.3362,-81.6675,-247.1244,198.4219,22.4103,55.1990,-96.0323,-110.4825,-203.7057,93.4536,23.0392,-156.4230,-13.8526
-1320.3125,133.6682,104.2482,80.3254,142.0125,16.8345,34.3090,-112.6665,-168.9008,-146.8779,-203.7648,168.0263,52.4161,9.1099,-88.5253,-175.7846,-197.2339,137.0503,66.6033,-112.7694,29.7643
-1312.5000,174.9670,144.1916,51.9243,112.2526,62.4813,6.4881,-177.2067,-160.7682,-139.3814,-231.7080,214.3319,37.8235,32.6780,-117.3208,-167.3828,-299.0664,213.3343,36.8633,-36.4088,-34.9181
-1304.6875,141.1115,109.9750,90.3782,113.3351,100.9764,-29.4923,-28.8958,-86.7894,-64.0335,-84.8013,31.4874,39.5227,-21.0211,-116.2777,-166.1242,-187.0543,38.4732,2.9686,-35.1889,-33.7510
-1296.8750,50.3156,89.7902,-2.1066,93.4631,8.5340,24.5637,-48.5312,-32.7651,-46.6313,-30.8453,11.6958,65.7298,-59.8745,-25.1964,-185.8061,-170.9985,124.6548,53.1219,50.0855,-53.5351
-1289.0625,108.4626,41.5317,21.3639,80.5457,32.0440,47.5653,-24.2113,-8.7897,-22.2771,-6.9346,71.8511,35.5564,-23.9678,-38.1635,-162.5347,-147.9893,40.7847,5.2250,37.3089,-66.3649
-1281.2500,42.2645,80.9120,-48.5172,85.2767,-37.7964,87.2103,-21.2463,30.8306,-56.2699,-4.3831,38.6699,98.6219,-84.8485,74.5146,-231.6012,-71.3409,45.5787,44.9643,7.1932,-26.5469
-1273.4375,98.0200,100.2406,-98.4403,69.9508,-87.6853,73.7969,-108.3228,-19.6021,-69.3078,-54.8846,61.4349,78.1273,-63.4147,61.1364,-135.7072,-121.7356,171.3092,29.6421,27.0294,-76.7750
-1265.6250,94.1205,96.9092,-29.0180,31.9674,-55.2355,32.7245,-39.0495,12.3232,-36.9955,-23.0321,-16.4471,80.4407,-85.9398,93.1088,-140.4654,-15.7782,62.3976,26.6691,-10.7724,-44.6502
-1257.8125,31.1314,68.4500,-95.6845,-31.1230,-121.8809,39.5438,-31.8796,55.1529,-29.7826,56.7250,-46.4179,76.9841,-102.1365,173.9749,-96.3289,-8.9220,104.3831,-1.4082,-3.6657,-37.6257
-1250.0000,102.1380,-2.0363,-56.3441,-66.2088,27.4821,-32.6372,6.2907,56.9837,8.4308,95.4908,-7.3931,16.3469,-28.3905,138.8389,-20.1820,-7.0665,-0.6413,-71.4818,-3.5577,-72.5975
-1242.1875,-32.4062,-32.0778,-88.5507,-60.8480,-40.7006,-28.3761,47.9115,61.2580,50.0949,136.6962,-76.9108,39.4856,-41.3194,217.1471,57.4327,34.2193,-65.2037,-66.1060,3.0051,-31.1231
-1234.3750,-41.0427,-76.2157,-131.8459,-68.5891,-83.9745,1.7746,41.4339,54.4235,80.6606,92.7928,-9.5280,2.2852,-10.9486,173.3472,87.9508,26.3984,-2.8717,-73.8330,65.4664,-74.7477
-1226.5625,-10.5817,-116.2678,-64.0410,-74.2239,-16.1507,-4.9765,146.0547,84.6889,185.3209,122.9970,-53.0401,-47.9197,-16.8475,55.6439,44.5502,130.6795,-148.4332,-114.4510,25.0308,-44.2702
-1218.7500,-133.3561,-132.5962,-82.4755,-56.1037,-71.5687,-23.9763,164.4193,102.6997,203.7327,140.9465,-34.7979,-46.1193,-31.6936,37.6866,-10.1004,148.7080,-95.2394,-61.3184,78.3509,-26.0454
-1210.9375,-50.1341,-121.9389,-65.9036,-113.9820,-17.9866,-44.9747,179.7934,81.7138,219.1461,82.8957,17.4329,-76.0883,31.9485,15.7333,79.2529,53.7418,-118.0550,-48.1851,161.6733,-83.8154
-1203.1250,-85.1139,-121.4793,-66.5354,-113.0607,-18.6104,-46.1735,215.9594,154.5219,182.3593,155.6353,-56.5224,-53.8961,7.4921,51.5862,78.4122,126.5602,-222.0669,22.7509,127.7999,-47.7857
-1195.3125,-104.6855,-141.6295,-122.7565,-61.7407,-111.8258,8.0225,123.5244,171.7274,162.9672,135.7723,-2.0727,-43.3595,12.8628,68.8405,95.9689,69.7741,-30.6835,3.0887,143.3298,-67.3536
-1187.5000,-20.9128,-59.4424,-72.6282,-85.0639,-61.6940,-16.4320,99.4317,147.2850,138.9172,111.2657,-26.2750,-38.3804,-3.6449,44.4471,71.8739,119.3422,-52.9430,-54.2211,86.2137,-54.5680
-1179.6875,-78.9271,23.9329,-133.2923,-72.1873,-122.3567,-40.6936,75.5284,160.0382,78.0641,197.9548,-50.2671,-5.7514,-44.7086,57.2494,47.9820,169.1079,-39.9987,-41.3390,63.3061,-41.5859
-1171.8750,-5.2423,-44.0028,-126.2486,-68.6138,-78.3138,-71.2578,82.3346,92.4957,121.9123,166.3484,29.4323,-82.4894,39.2990,-46.2517,164.7825,138.5799,-37.3719,-73.7565,67.1040,-108.8986
-1164.0625,-21.2665,-96.6536,-34.9058,-49.7440,-23.9700,-91.5211,136.4422,109.2532,139.0654,147.0424,-26.5698,-96.1380,49.0550,-66.4489,182.8827,228.3461,-124.4371,-90.8743,-19.7895,-54.9106
-1156.2500,4.8179,-71.2164,-82.4572,-59.7715,-108.5224,-65.6881,51.6543,61.1104,54.3188,61.8363,72.5338,-105.1150,74.4509,-77.5387,209.0860,181.2023,42.5934,-99.8931,-28.5824,-28.8224
-1148.4375,54.0454,-57.6305,6.1344,-45.6433,-19.9339,-51.7017,-6.9835,2.1206,32.7178,39.7836,86.7880,-92.7359,84.8446,-63.4681,186.4300,195.2098,-49.2271,-120.7525,-85.2253,-14.5809
-1140.6250,-78.4720,-14.8101,-61.0263,-37.2624,-86.1034,-8.4647,-0.3814,45.3815,2.3638,82.9780,-16.7021,-20.7379,16.1428,53.8490,156.0319,238.4624,-40.7905,-77.3628,-111.6097,28.9075
-1132.8125,-37.5416,-9.5545,-51.7317,-31.4362,-77.8234,37.2155,-65.3237,53.0972,-25.5351,53.6237,-7.7521,-14.9708,23.2987,61.6204,165.0953,173.1719,35.0776,-72.5237,-106.5427,-36.1492
-1125.0000,0.8790,-6.8064,26.0559,6.8889,36.9517,40.3927,-98.7641,56.3179,-95.9329,93.7751,-4.3006,-10.7583,40.8258,28.8925,131.6663,176.3770,-67.5471,-69.1855,-172.9632,-32.7049
-1117.1875,-3.8835,22.7351,-15.3471,2.0100,-4.4616,71.3605,-140.4013,15.3336,-137.5282,51.7257,63.9615,-2.4137,42.8907,23.9513,90.0347,97.3794,68.6362,-38.0545,-107.5813,-37.4660
-1109.3750,90.4529,81.3600,47.3517,-8.7648,58.2252,24.4237,-113.9343,-32.5469,-74.0240,-32.2194,17.3226,-18.7476,63.3401,-60.8866,153.5053,49.4877,-12.0829,-48.8225,-47.1035,-48.1239
-1101.5625,19.4454,79.6221,43.6983,-10.8933,17.5619,19.1326,-44.8166,-37.7886,-78.8699,-0.5251,-61.6553,6.8004,4.4104,-29.0707,75.6438,82.2331,21.8528,-15.9395,-48.9681,20.8641
-1093.7500,55.6933,45.1283,10.3031,26.2203,-15.8488,22.0865,-151.4334,-71.7802,-112.4551,-71.5841,15.6149,1.9286,26.3042,-26.0017,78.0260,-25.7730,199.0280,-13.8097,23.4242,-12.8950
-1085.9375,132.3855,15.0715,89.3502,102.7835,63.1774,63.4933,-182.5959,-67.3172,-142.5830,-67.1956,20.3371,29.6036,11.9009,-21.4830,-27.1512,-21.3225,99.6650,27.7742,-40.7225,28.7991
-1078.1250,75.6356,63.5470,65.9460,150.8947,2.7509,113.4444,-243.2088,-90.3041,-240.1585,-90.2562,70.6180,89.1425,-15.1413,28.5771,-122.7615,-45.3197,182.8587,180.8966,-62.3056,42.0417
-1070.3125,203.0292,84.1630,127.6907,173.1546,101.4719,137.5405,-327.6594,-175.1362,-288.5807,-175.1575,169.0346,75.5289,49.3830,-20.2090,-99.2045,-130.1601,205.1947,238.1653,-145.7316,-6.5627
-1062.5000,115.0234,101.3731,146.0264,226.0054,83.7824,155.2355,-309.5016,-157.3669,-306.3916,-157.4568,40.0527,129.1580,7.4109,34.6090,-81.0456,-76.4164,152.1415,291.0303,-197.5434,11.4285
-1054.6875,83.2758,139.8204,116.6146,229.1010,90.3481,199.1761,-340.0807,-188.3454,-262.9447,-188.4993,46.3184,127.8241,37.5842,4.6819,0.3583,-143.4258,191.3271,295.1422,-159.1012,-55.3302
-1046.8750,137.5155,122.2639,174.1945,212.1929,220.9043,182.1137,-209.6645,-205.3125,-206.5036,-205.5259,-6.4132,113.7403,57.6162,-12.2390,19.7663,-123.4254,68.5069,242.2522,-210.6604,-72.0836
-1039.0625,79.0108,62.9532,150.0155,189.5303,160.7042,194.2982,-197.0103,-193.0255,-193.8182,-193.2980,6.1152,109.1840,45.4235,36.0889,-3.5638,-148.1647,116.9414,290.6065,-231.9639,-59.5856
-1031.2500,154.3591,-38.5139,192.6867,193.7182,203.3491,199.3308,-227.5046,-223.8792,-188.2867,-260.2061,48.4892,77.1991,76.1045,42.2708,1.9540,-215.0385,121.2209,223.8136,-193.4172,-90.2310
-1023.4375,92.5572,4.8560,199.1969,167.7535,172.8358,168.2129,-148.1496,-180.8796,-144.9036,-218.2645,17.7138,78.2586,35.3531,11.3083,-65.6712,-100.0608,24.3647,197.8746,-219.0154,-11.0261
-1015.6250,52.5586,33.9983,120.5111,126.5822,58.1177,125.8904,-188.9836,-186.0767,-149.7150,-223.5228,122.7346,54.0081,80.9074,6.1515,40.5261,-105.2775,124.2929,192.7316,-118.8083,-16.0171
-1007.8125,90.9425,36.5335,161.2149,59.8055,134.7844,55.9687,-149.4125,-182.8647,-110.1191,-147.3674,89.1490,13.5977,93.2697,-27.5980,80.1317,-28.0869,-12.3890,124.9901,-80.1975,-12.5987
-1000.0000,-12.2720,2.4655,125.3127,27.4238,135.8483,19.4450,-111.4425,-73.2538,-144.1185,-36.8126,53.9773,15.4229,45.7372,10.0533,-28.8646,46.4932,-10.6658,127.6467,-112.1711,25.2186
-992.1875,64.8152,-27.3164,133.7122,-1.6591,181.2129,-9.7845,-176.1575,-102.3358,-136.8165,-65.9461,98.1001,-11.9758,82.0470,18.0060,16.4298,-19.6172,31.3479,98.6054,-70.8397,-3.6609
-984.3750,30.7958,-26.2090,133.0006,-0.8444,143.4657,-48.1123,-103.9654,-30.5106,-137.6093,5.8242,23.1242,18.8925,44.4446,89.8599,14.6304,52.1664,-71.7227,100.4690,-138.5998,68.3585
-976.5625,-31.4112,-19.3112,30.0865,41.7613,40.5191,-40.6453,-169.9647,-22.8846,-203.5878,13.3999,67.9506,14.4692,67.5367,60.5048,96.6462,59.7534,4.9972,143.1235,-130.5467,76.1744
-968.7500,41.9666,-16.8285,70.7599,80.9597,81.1594,-1.5813,-239.3414,-19.6438,-235.9498,16.5910,108.3579,-5.0341,105.6910,-10.2491,137.2792,99.9537,-60.6904,146.3785,-196.8777,79.5927
-960.9375,-27.3099,52.9894,31.7746,115.4969,-30.8598,-3.1700,-279.3606,87.9509,-312.9525,87.1326,68.1195,47.9438,34.7476,24.3488,60.2757,207.5065,-96.0243,181.9837,-231.8465,150.3561
-953.1250,14.4162,58.7958,-32.2050,158.0298,-58.8777,40.2418,-380.3683,59.5530,-340.9576,58.6784,76.8807,64.8536,29.6335,31.9522,69.2701,105.0655,15.6265,223.5925,-188.8177,122.1220
-945.3125,-32.4178,12.0357,63.2536,216.0136,1.5423,100.1065,-320.9309,9.6153,-317.5161,8.6853,-8.9065,84.3147,23.6322,19.0211,55.7188,91.0795,-101.2673,281.6530,-236.3275,145.3392
-937.5000,-124.0961,58.4143,5.8556,194.1387,-19.8911,115.1141,-305.3385,-12.1679,-338.9181,-13.1527,5.4594,118.5239,16.0827,70.2461,34.3314,-39.7532,-53.0117,295.8521,-186.6778,123.7055
-929.6875,-8.7315,138.8450,19.4949,169.3033,66.7124,92.1667,-290.6808,-71.8904,-324.2648,-36.9293,55.8722,129.1765,42.5768,84.5290,48.9831,-136.5187,-76.7121,200.0993,-210.9770,64.1307
-921.8750,-37.9174,177.7229,22.5708,173.9135,32.7484,131.6714,-287.5733,-32.1600,-321.1566,2.7477,-14.2648,168.6495,-18.0591,124.2660,-20.9107,-96.8365,-72.9510,204.7975,-240.8141,104.0068
-914.0625,-33.6069,147.0917,-4.8585,215.0163,5.2865,139.6715,-351.9527,-60.9214,-311.5381,-62.0549,68.0837,154.3853,9.9683,96.5082,-12.2872,-124.6435,38.2892,210.9826,-165.1453,39.3848
-906.2500,35.4886,109.2477,67.4914,212.9077,40.6033,137.4632,-243.5188,-62.8629,-276.1089,-64.0371,29.2213,136.5513,-0.2710,57.5637,-50.8504,-90.6356,-34.6727,172.9621,-130.6590,37.5688
-898.4375,-33.3671,110.4324,-41.1193,214.8327,-67.0446,176.3032,-204.0182,-23.7391,-237.6157,-61.9649,-5.5915,163.1407,-60.9568,96.6738,-120.3549,-88.5636,73.4156,210.9850,-59.1059,39.8039
-890.6250,79.3657,81.2010,-30.1402,221.3495,-57.1066,149.7422,-192.8997,-49.9990,-189.5152,-125.2718,78.1843,117.4411,-12.9626,33.3935,-74.2650,-115.8724,115.0903,111.6132,-15.9459,-23.3513
-882.8125,65.5386,101.4161,-8.7268,172.3096,-35.7345,60.6326,-135.3295,8.1987,-167.9582,6.8796,26.4048,114.8758,-51.5086,54.5793,-125.7163,-94.7288,66.2181,27.6875,-29.3264,-2.0557
-875.0000,46.3615,117.2693,-25.6693,117.9040,-15.7106,42.1691,-153.0968,-8.9470,-149.7455,25.6881,119.2645,100.2560,-26.5888,73.4299,-143.4986,-148.9294,152.9830,-26.5972,21.9483,-56.1068
-867.1875,109.3712,37.3091,76.5725,38.6812,86.4974,-2.0923,-12.6568,19.1203,-83.3324,17.7142,111.3232,21.3360,19.3890,-7.4987,-114.0751,-119.9182,38.9478,-105.6852,14.4344,-63.9523
-859.3750,-2.9672,29.9822,32.4531,32.0950,42.3481,-47.7085,16.4383,47.8441,-17.2595,83.3934,30.0391,10.6902,3.6850,-15.7707,-47.9907,-54.2514,67.5596,-112.1333,8.5867,-35.1488
-851.5625,94.6275,-49.4041,25.2753,23.4485,35.1403,-17.3764,-26.4962,4.5318,-23.2234,3.0373,96.6841,-47.5488,81.5344,-59.0867,93.0464,-134.6179,130.0994,-120.6346,0.7015,-78.3854
-843.7500,62.9091,-82.0996,28.7778,27.4917,38.6166,-15.3454,86.2831,80.9267,16.5233,42.3890,62.0242,-44.3396,51.2052,-56.6996,22.7946,-58.2781,-6.6528,-151.4350,-29.4630,-38.9191
-835.9375,54.1444,-91.8667,-53.7716,18.4692,-80.9629,-24.3667,78.0371,72.2740,44.2414,70.6899,127.3155,-47.5227,23.7925,-28.3679,-22.4893,-29.9830,89.5403,-160.2971,32.3422,-47.5011
-828.1250,123.0167,-58.9960,18.3169,-18.9171,28.0878,-26.7425,113.4638,70.2799,79.6251,31.6502,51.2480,-53.9861,7.8961,-67.3662,-61.1189,-32.0303,17.3769,-162.5116,-4.1841,-49.4254
-820.3125,3.0882,-3.9358,0.5874,1.8801,-63.6755,-44.9246,133.1043,89.4929,63.2267,14.8144,-2.6188,-1.2025,-36.6823,-11.1503,-78.5380,-12.8790,38.4195,-140.5382,-17.4866,6.8485
-812.5000,31.4080,23.3631,-40.9037,-40.0864,-105.2040,-86.8640,92.0197,47.9702,95.0920,10.2475,65.7521,-43.0037,7.1057,-52.6787,28.3026,-54.4604,101.7023,-182.3275,-23.5266,-34.6226
-804.6875,23.1104,49.0536,-51.0188,-49.6638,-41.3563,-133.4074,193.3483,74.8653,159.3669,110.0990,-17.4939,-40.0296,-19.3346,-62.8015,18.5564,46.3713,-47.6105,-226.7193,-31.1468,-7.6890
-796.8750,-53.3374,42.5810,-165.2937,-90.4036,-119.6641,-103.1098,225.5433,69.6197,228.5047,141.8143,-59.8965,-26.2786,-61.3534,5.9267,13.6722,77.0693,17.9150,-161.2718,34.0947,-12.9017
-789.0625,6.4458,-39.6547,-104.3367,-136.9059,-57.7398,-114.5672,288.0052,58.6450,290.9020,56.8011,-34.0561,-84.7763,-17.0154,-42.0826,40.0348,66.0375,-28.3248,-172.5778,23.6024,-23.8532
-781.2500,-73.6294,-85.7538,-79.2516,-181.2789,-105.6833,-125.8799,312.6307,83.8340,279.4668,81.9522,-83.0689,-84.8362,-44.9977,19.0673,27.5600,164.1608,-73.4118,-111.7451,-20.7166,37.3452
-773.4375,-34.2649,-82.4106,-109.7251,-177.2242,-100.1890,-120.7534,246.7339,53.4888,249.5016,14.5697,-3.6566,-104.5748,13.5453,-11.3255,107.5538,60.7533,1.9299,-108.4718,-14.5670,6.9995
-765.6250,3.3762,-114.7736,1.0749,-174.8868,10.5754,-156.3283,211.1590,17.4613,213.8544,15.5017,34.0403,-129.1413,58.4046,-47.4051,109.8563,61.6590,-100.4257,-104.9062,-47.0894,44.9615
-757.8125,-41.0324,-126.2055,-46.1878,-184.6149,-72.7265,-167.9602,163.5550,43.3927,166.1783,-32.6108,59.6777,-125.2988,48.8588,-21.5267,99.1200,50.5269,-5.8304,-79.4037,14.3572,70.8758
-750.0000,1.5502,-154.6541,-0.4652,-212.3528,-28.0425,-195.5931,136.9745,-20.6608,176.5138,-95.7035,106.2921,-179.5860,119.7020,-84.6303,219.3819,97.4095,-68.2435,-106.9048,93.8147,43.7986
-742.1875,-97.3780,-114.6063,-68.2628,-206.6065,-95.8744,-154.7322,178.9011,20.7959,181.3641,18.7146,-36.5986,-124.3012,31.9992,-7.2248,187.1523,174.7978,-167.1519,-65.9076,29.7929,85.2209
-734.3750,-106.5652,-55.8177,-187.3211,-217.1278,-140.9703,-163.1258,134.6028,50.0189,173.9814,120.9033,-8.7469,-118.7776,1.4524,-15.0698,142.6871,129.9559,-72.3372,-111.1677,91.5404,40.3986
-726.5625,-72.9803,-92.2347,-79.6101,-253.8671,-70.2925,-203.7203,206.1296,121.0657,171.4158,191.9203,-48.1111,-161.5220,2.5519,-90.1034,104.0401,200.9373,-178.7345,-183.6316,126.1075,74.3854
-718.7500,-165.2503,-115.5249,-141.7707,-241.4773,-132.4819,-191.1722,218.8255,206.2801,185.0229,241.1015,-72.3322,-137.2555,-39.6913,-40.9820,42.5625,213.0821,-164.9854,-204.9595,175.8493,123.5250
-710.9375,-83.8385,-105.1439,-128.2476,-265.4031,-118.9951,-214.9302,196.2538,147.2214,198.3504,181.0063,13.1291,-153.0175,4.3757,-28.1424,93.7825,153.9535,-118.5570,-264.5925,153.3105,100.3765
-703.1250,-100.0971,-52.4358,-111.4004,-282.0005,-138.1834,-235.3419,215.0519,164.5305,180.0513,235.2795,-42.0673,-147.9804,-14.8936,-46.9358,111.3606,208.1885,-169.7825,-245.8823,67.1469,154.5808
-695.3125,-80.8647,0.7572,-127.0673,-228.1264,-153.8852,-214.2647,52.3780,75.3580,91.2719,110.0716,88.2248,-122.8874,57.0822,-25.2197,207.4550,81.9456,-9.5266,-226.6826,52.5016,139.2883
-687.5000,24.0424,-0.3588,-53.0575,-192.5714,-80.9100,-177.4925,17.4311,2.9102,19.2113,0.5852,125.1959,-109.8264,105.5801,-24.7915,244.2563,9.4311,-45.5793,-155.7870,18.5705,139.7056
-679.6875,-59.4614,-13.8804,-68.4673,-136.4355,-96.3536,-120.1250,4.1000,-10.9243,5.7698,22.7166,36.7538,-57.1937,55.5590,33.2453,193.6765,-4.4742,-24.0372,-99.3035,76.2609,161.7248
-671.8750,-21.5331,-12.9570,-61.4465,-168.8723,-52.3622,-76.3159,-25.7492,-41.2870,48.7982,29.3241,5.7331,-80.6471,63.9248,2.7527,237.5581,-34.9041,-21.0721,-166.3814,151.4129,95.2044
-664.0625,-86.0800,-42.5036,-57.9027,-163.7742,-48.8511,-72.9572,125.9648,35.9147,127.3892,107.4926,-99.7467,-84.6492,10.1296,-28.1651,169.0014,116.2264,-155.5506,-195.9133,123.1344,136.2406
-656.2500,-135.5282,-57.9678,-146.2719,-178.5931,-173.2487,-50.5005,149.7986,59.2178,188.0919,56.7671,-77.1300,-68.5783,-27.3433,30.0286,118.5511,102.4660,-28.9356,-140.3544,179.9740,122.3820
-648.4375,-14.9920,-79.4376,-126.6616,-198.4283,-117.6663,-33.0455,243.6533,5.5351,244.8109,3.0600,-22.5316,-89.7360,-0.8203,13.2386,102.1002,11.7272,-49.3336,-194.8004,161.8294,68.5371
-640.6250,-75.2190,-36.6643,-154.8226,-190.0385,-182.8585,-24.3466,290.7746,52.1123,254.7998,49.6093,-85.6874,-43.2292,-60.3307,59.7065,37.9136,-15.7480,-40.4813,-151.0095,171.9609,77.9474
-632.8125,-42.0082,-2.4464,-188.5536,-191.2221,-179.6201,-21.2144,258.3756,19.1585,259.2599,16.6281,-10.4080,-65.5385,-33.2340,-10.3702,42.1963,-48.7471,29.8006,-150.7917,243.5626,7.8180
-625.0000,-20.7785,-17.1884,-94.2629,-205.3836,-85.3635,-74.0413,281.0482,78.2773,244.7872,1.7237,-63.0939,-85.1203,-38.9879,-62.3878,-9.4523,10.3261,-54.8738,-129.5396,196.2493,29.7485
-617.1875,-38.8591,33.7401,-112.2940,-188.8704,-139.4203,-92.1784,227.4456,61.1175,191.0348,21.5412,-7.0929,-56.8638,-53.2850,-42.6934,-63.3875,-80.8835,33.1405,-113.6010,249.6657,12.3840
-609.3750,17.6384,18.2431,-51.7395,-168.7789,31.1011,-104.7183,216.4675,12.5828,216.8985,9.9843,17.4792,-77.3842,2.4229,-91.3794,-37.7246,-92.4682,-51.2605,-93.0572,236.7048,-36.3680
-601.5625,-82.2295,-46.6154,-10.5615,-128.0564,35.2505,-63.6116,295.1559,17.7152,259.4282,52.0948,-89.3011,-62.8339,-31.5650,-86.4040,-69.4103,-50.3937,-116.0127,-51.8706,244.4231,5.5305
-593.7500,-75.2124,-111.5847,-37.4979,-122.4559,8.2861,-53.6152,269.7776,-45.2347,269.8827,-10.8765,-42.1990,-85.0066,-1.4939,-75.5165,-21.1898,-113.3977,-3.8880,-44.7941,288.0678,-57.6659
-585.9375,-13.1742,-156.5137,64.5868,-94.8263,110.3354,-24.5706,337.4792,-52.1080,300.4087,-54.7747,-50.0753,-84.1668,12.4220,-82.5620,-64.9161,-120.3252,-81.7240,-52.6730,210.7938,-64.8023
-578.1250,-33.9010,-107.2105,5.8997,-80.9722,14.6174,25.7178,316.4565,-36.7168,279.2139,-39.4081,-35.7151,-55.6159,-29.0346,-67.3525,-123.3706,-104.9923,2.6783,-38.3156,191.8001,-49.6869
-570.3125,19.5509,-54.7276,25.3957,-62.9386,-1.9171,9.2009,264.6681,-52.1025,264.2451,-91.8178,-15.1794,-49.8287,3.6373,-82.9293,-27.6138,-120.4437,-13.7447,-54.7631,212.0235,-65.3610
-562.5000,-47.8674,-17.1095,26.0148,-60.7742,-2.3279,-27.1657,267.0541,-14.3248,229.4500,19.9364,-161.5049,-34.6202,-39.0258,-82.3404,10.3094,28.2645,-46.0193,-52.0680,182.4226,9.1195
-554.6875,-20.3995,43.4000,-54.4824,-68.7336,-45.8547,-33.6409,225.3714,-19.6269,224.5817,14.6111,-132.9545,-41.2930,-47.2539,-124.8448,5.1480,-14.1030,122.5884,-59.4849,210.7395,-33.4926
-546.8750,50.6358,8.5121,20.5884,-68.1094,29.1869,-69.5172,301.3158,19.6948,263.3324,89.9140,-167.8362,-82.7573,-73.5263,-231.7386,-103.4063,61.1536,17.7823,-94.3027,213.6777,-31.4937
-539.0625,-63.9915,-36.0440,-64.0129,-42.1502,-55.4393,-80.0503,292.6278,83.3808,291.4537,117.5816,-141.3785,-66.4066,-87.5688,-167.2735,-111.5975,88.7746,9.3136,-102.7810,241.9926,-4.1432
-531.2500,-28.1457,-72.1212,-62.1321,-77.7127,-53.5792,-115.0898,259.4730,86.5892,258.0963,83.7759,-66.4432,-78.4497,-9.3332,-92.2837,38.7130,-18.0817,9.3219,-137.7729,278.8239,-38.2830
-523.4375,-75.6254,-85.5068,-77.5829,-125.5990,-69.0506,-93.4339,284.0417,146.5180,245.4619,143.6908,-153.8206,-57.0509,-41.3661,4.4247,61.7345,78.7748,-107.9690,-114.0730,234.3839,21.2809
-515.6250,-90.3652,-65.1573,-164.3027,-140.7581,-155.7945,-71.0356,123.3924,170.2141,158.6012,167.3695,-132.4680,-66.8943,-66.5133,-9.1091,48.5217,138.4028,18.4729,-58.6342,291.7200,7.5994
-507.8125,0.8188,-10.8738,-70.0931,-120.9875,-61.6164,-85.6888,110.7155,119.8874,72.7048,117.0259,-111.1987,-88.4445,-34.5182,-132.6828,35.2649,162.0124,3.8500,-37.2467,244.0269,-6.1213
-500.0000,-50.9156,7.4871,-123.8067,-102.1366,-115.3536,-29.2461,59.1507,177.6812,19.9280,137.8031,-163.8420,-45.2634,-86.1138,-76.1413,-17.8923,182.7387,23.3202,87.2328,159.4626,14.2582
-492.1875,6.4807,-7.0139,-134.3831,-45.1558,-125.9533,34.3373,-59.2340,132.6483,-24.6769,129.7502,-101.3533,-39.8244,-73.1704,-84.4358,-25.8975,100.6387,115.9180,109.8535,184.0651,-68.2052
-484.3750,-0.1021,-14.4720,-29.9401,-17.1438,14.4666,64.9671,-26.5449,127.6823,-29.2122,161.7684,-144.8311,-8.6270,-81.8127,-52.6609,-104.8414,95.6058,38.5631,103.5205,109.7431,-73.6141
-476.5625,0.0566,20.8154,-28.7633,18.5981,16.6242,67.3341,-59.0797,57.4781,-24.9717,91.5527,-68.5807,13.4405,-65.5273,-49.1335,-138.0179,-47.6650,179.9465,103.9212,112.1912,-107.2735
-468.7500,122.5896,1.4884,65.7868,-0.2821,147.1552,87.0974,-73.1836,5.6983,-40.3122,39.7618,-11.9588,-8.7254,-8.2463,-65.1869,-115.7878,-99.5071,91.7121,85.7110,96.0608,-159.5245
-460.9375,15.7491,33.7885,61.9591,-2.5357,70.3046,120.5057,-37.6123,77.5916,-40.9736,74.6365,-88.6973,37.5907,-68.4545,6.4197,-154.8949,8.3163,55.1196,49.1349,96.6111,-125.1224
-453.1250,13.8883,66.0729,25.1145,-39.8092,70.4295,120.9043,-72.0089,42.5069,-39.6109,2.5337,-89.4588,46.8258,-78.5500,45.0431,-152.9940,10.1659,88.5001,12.5501,167.1842,-160.7102
-445.3125,26.7486,8.0982,72.9905,-28.3535,81.2790,96.0500,51.3633,55.1929,10.5205,-21.7979,-151.4907,47.3269,-95.7519,57.4398,-177.3368,59.7827,-4.3717,60.7126,112.5323,-111.5393
-437.5000,-32.4015,-15.8820,-26.1470,-51.9147,19.1151,108.1893,28.7623,31.8844,-11.3254,-44.1198,-139.5348,63.5661,-104.4079,144.8367,-163.6691,-0.5908,78.7465,142.8653,91.8976,-98.3670
-429.6875,51.3739,-73.9204,27.6486,-3.5454,108.8844,124.2727,-61.8620,-23.4565,-30.2059,-26.4736,-86.6525,53.4448,-52.1007,162.2001,-108.0523,-55.9887,56.7947,120.9591,37.2309,-154.2352
-421.8750,-41.9182,7.9791,38.3697,43.7544,83.5832,135.3004,-85.5215,26.1662,-90.1176,23.1364,-111.8359,99.7266,-65.9669,174.5295,-95.4750,30.5733,-36.2054,98.9937,-53.4612,-105.1517
-414.0625,-14.6262,140.4645,-6.3242,0.6365,38.8745,91.9238,-164.5534,-16.5921,-132.4093,-55.6302,-9.4452,101.0846,-51.5369,132.4726,-101.2899,-48.2455,62.3681,91.6208,-23.5349,-111.4650
-406.2500,23.8853,72.1938,69.2056,-32.2448,77.3895,56.8010,-86.3118,-12.0816,-91.4310,-89.1276,-43.8339,62.9977,-42.7435,98.6832,-97.8548,-7.7991,-74.8122,95.4984,-17.3328,-71.5210
-398.4375,-88.3647,-41.8325,-13.0361,-4.8928,-4.8675,121.9288,-92.8004,17.6906,-98.1826,-22.3670,-89.9781,78.0631,-65.2568,202.1503,-68.1576,57.9053,-46.7536,123.6155,13.1413,-42.3271
-390.6250,-25.9346,-85.1650,17.4073,-12.8613,62.5528,152.7480,-168.5670,-22.8115,-101.2195,-62.8842,-58.4410,51.3225,-16.2314,197.3302,2.2382,17.3357,-19.0141,81.4253,43.3289,-83.4229
-382.8125,-44.5776,-34.5606,31.7711,3.1039,39.8934,168.5136,-114.3727,-6.3453,-120.2914,-46.4326,-80.9678,102.7312,-64.6407,250.4773,-92.4166,34.7386,-72.3174,98.1747,-43.5127,-30.5655
-375.0000,10.3162,-15.4205,-19.3303,22.5982,-11.2314,153.8200,-162.6043,-56.3088,-168.7962,-133.4103,14.0323,112.0397,-52.4696,274.1861,-105.5123,-15.2842,88.9053,83.4587,-55.7853,-44.1527
-367.1875,87.3255,-10.1394,59.6963,64.2269,67.7718,160.2685,-153.6651,-85.0938,-160.1373,-161.2050,20.1562,117.4261,-42.5383,245.0612,-133.4522,-7.1320,-10.7410,53.8861,-116.8955,-36.5800
-359.3750,-16.8809,61.9365,23.5054,64.6400,31.5611,160.5132,-113.9172,-83.0618,-157.6651,-86.1864,-15.9339,157.9241,-66.5002,283.7485,-130.5826,-5.1704,-8.5914,91.1070,-182.1940,1.7951
-351.5625,12.2477,55.3618,18.6551,23.3925,63.6907,120.1009,-115.7950,-157.6628,-122.8295,-196.8004,53.3046,109.2749,29.9751,244.7945,50.6348,-80.8377,20.8860,15.6721,-115.1378,-37.4696
-343.7500,-31.0994,45.3258,44.3270,14.6815,88.3461,71.2399,-15.1102,-129.7004,-94.4303,-169.8505,-31.9237,108.5817,20.6511,235.3997,77.4084,-16.9411,-162.0892,7.7859,-84.5082,25.8226
-335.9375,-110.5593,1.1769,-40.1114,5.8552,-32.1169,98.2781,-21.5077,-137.8269,-65.1164,-177.9928,-42.2669,81.4135,-4.5321,189.9156,69.0929,11.8706,-66.1808,69.7924,14.0418,54.0193
-328.1250,-52.6495,-11.5726,-15.1631,28.4185,29.8026,50.7163,5.5125,-110.5379,-2.3913,-150.7153,-91.2359,57.6202,-22.9814,106.8467,22.1696,39.0941,-146.8839,93.2039,5.0088,43.6249
-320.3125,-152.2041,28.2210,-48.6803,33.5230,-40.7397,17.7022,49.0974,-31.6863,4.8997,-34.8787,-159.6712,79.4717,-73.7005,112.3362,-8.2026,118.8727,-142.0363,99.1566,13.5504,85.7791
-312.5000,-113.8221,-4.0524,-116.2587,36.5696,-108.3433,-13.3636,20.6582,-24.8680,12.1641,-64.0711,-45.1799,25.0850,11.5469,45.7769,146.3764,52.6222,-68.2632,103.0515,55.0558,55.8900
-304.6875,-84.7184,-45.5884,-51.1171,30.3515,-115.2198,-57.6852,126.9904,43.7202,44.1973,-32.4933,-88.9543,-0.4783,4.9567,2.9762,140.7061,121.1382,-178.7459,132.6848,-16.6686,86.7573
-296.8750,-146.9758,-74.4814,-115.3414,71.7633,-143.4625,-11.3599,101.9875,54.9725,55.8969,51.7453,-117.0842,17.0391,-32.9617,13.8323,77.6962,58.3185,-101.5936,175.9517,27.2748,60.2753
-289.0625,-102.5093,-99.6198,-27.8355,46.9134,17.0283,3.7118,119.7524,34.9882,110.3543,31.7515,-103.4930,-0.9359,-11.4700,-6.5361,20.4457,1.2664,-160.7099,80.9670,76.9779,2.5511
-281.2500,-188.1070,-116.8108,-10.3982,31.0024,-39.5501,-15.2690,177.4734,128.9637,130.7656,88.7179,-194.9604,32.5252,-75.8390,87.0595,-32.8491,95.1666,-210.8721,30.9311,63.6513,58.7738
-273.4375,-160.7624,-160.0621,-90.0149,-11.9700,-82.1792,-20.3034,138.1566,124.8976,164.1371,85.6432,-128.4914,-10.4182,-56.3638,83.6140,-0.1973,92.0293,-78.1033,-11.1564,130.2860,17.9499
-265.6250,-144.7909,-248.6667,0.0059,-66.3005,-29.1793,-40.6885,230.5000,107.4962,220.1631,104.2260,-112.3829,-66.0804,-10.0961,64.8298,55.0997,146.5532,-201.6855,-65.5929,114.5842,35.7819
-257.8125,-197.8752,-268.3334,-94.0330,-49.6900,-86.2356,-60.1254,250.8019,127.0503,203.1536,123.7685,-95.3319,-64.7284,-9.5301,83.9978,74.3481,130.0367,-114.3204,-83.0834,99.8438,54.5608
-250.0000,-95.1772,-236.2087,-57.2749,-52.2818,-86.4996,-59.7651,216.9217,92.4234,242.9524,52.1304,-21.5092,-106.0962,46.4776,-25.0296,149.3846,21.3394,-81.1736,-119.7674,100.9057,19.1465
-242.1875,-115.5965,-187.1814,-7.6347,-37.9751,-73.8742,-83.4996,269.9395,107.7039,221.6516,67.4040,-82.7944,-81.2888,14.3594,-46.1485,91.3210,36.5497,-101.1225,-69.5522,47.8730,70.6316
-234.3750,-89.9207,-162.0535,-51.8956,-12.5759,-81.1545,-90.1355,156.0673,29.0923,180.4592,62.7858,-15.9903,-75.8919,12.5099,-52.1621,49.3615,-42.1280,66.0046,-42.2403,77.9387,28.2207
-226.5625,16.1772,-197.4796,22.2721,-12.7309,-7.0031,-89.3163,195.6567,-5.0555,183.7232,28.6319,21.2481,-105.1807,44.9470,-85.7105,51.8506,-2.3455,-3.4248,-112.4788,10.4621,30.2661
-218.7500,-33.3809,-106.5672,-68.2198,-27.5402,-60.5118,-105.1499,146.5991,18.1561,134.3467,88.8339,4.8286,-79.8801,21.6886,-62.9057,74.6917,20.7965,52.4964,-126.3718,-0.6541,52.6596
-210.9375,23.2971,-50.4129,-42.4685,-76.1005,-71.7857,-115.7335,101.8076,9.6329,126.2274,43.2976,66.6387,-103.4505,61.9368,-108.8418,138.7789,-24.7924,39.6563,-104.0199,24.4806,6.3113
-203.1250,8.0588,-31.1471,-24.6374,-21.5639,-90.9806,-97.2158,123.1172,104.2140,110.2159,100.8664,-25.4584,-50.3206,-30.8076,-87.6677,-24.0329,32.7194,-46.0829,-83.5681,12.7241,63.0644
-195.3125,-40.9334,-45.6221,-112.5601,-0.7827,-176.9298,-36.4496,38.6857,93.0462,62.4585,89.6865,34.6846,-44.6126,-36.9249,-63.2407,-35.5893,58.4824,81.4152,-61.8728,2.2226,51.0696
-187.5000,12.6050,-62.5461,-54.9449,-17.4573,-84.3419,-52.1358,25.8071,79.4354,49.2491,76.0681,54.3631,-62.2538,31.7569,-41.2469,97.3964,81.8103,-75.5429,-112.6309,-80.7255,36.6332
-179.6875,-127.0645,-26.6761,-92.5374,-16.3371,-120.9661,-15.0281,29.7269,118.6315,-20.1585,188.2568,-19.1608,0.5502,-5.1010,71.5557,99.1816,83.9451,-73.6957,-75.5958,-110.8674,74.9974
-171.8750,-89.3942,-25.4570,-86.7866,-14.8704,-79.2475,-8.5752,-70.9934,90.1883,-49.2107,122.8107,59.6484,-1.2370,17.3952,79.7137,70.3130,18.4523,-0.5108,-72.2126,-69.6642,8.7203
-164.0625,-78.4926,-14.9752,-38.8087,-4.1582,-31.2987,3.1293,-20.4636,104.0040,-35.0095,136.6277,-39.2987,20.8929,-16.7579,93.1330,46.6927,106.2106,-165.0745,-25.5788,-126.1994,21.6964
-156.2500,-156.2398,-22.1403,-82.4787,-11.1024,-111.9984,-2.8171,-23.5835,100.1716,-38.4584,132.7968,-8.9003,9.4800,6.0745,88.9030,116.4177,102.3172,-65.3003,3.4069,-94.3804,17.0229
-148.4375,-51.8031,-24.1048,-46.9535,-12.8478,-39.5076,-3.5636,-57.5073,101.5490,-36.7115,134.1722,-10.3133,-22.3746,19.9394,15.8853,117.3305,103.6373,-102.3335,-67.4046,-92.3610,17.5578
-140.6250,-153.8716,13.4309,-47.9410,24.9054,-113.5301,-40.8069,-54.9363,140.4272,-70.4660,174.0449,-85.2262,32.6442,-72.5791,54.3753,-27.2543,179.4583,-98.8633,6.2824,-85.8389,92.5925
-132.8125,-87.0518,10.8643,-84.0324,92.5584,-113.6572,-2.1501,-161.4553,33.2138,-103.3146,66.8266,-10.2537,60.1099,-52.9464,94.7729,-25.9328,72.1880,74.4852,38.8689,-49.4220,21.5311
-125.0000,10.8948,3.4521,19.0178,120.3644,-9.6471,27.6636,-127.8242,-44.8425,-107.0130,-11.2304,-17.1461,65.9286,-17.3497,90.3305,6.5320,31.0708,-2.0164,32.6114,-158.8509,16.6225
-117.1875,-56.5592,110.6483,-51.3357,122.7738,-118.0337,31.0807,-121.5935,-39.2961,-138.1117,-5.6843,-14.4412,90.6574,-24.3043,58.4827,48.5899,-37.4433,71.0819,70.9488,-117.6765,21.3088
-109.3750,23.3723,156.2536,-39.2889,132.5914,-69.0209,43.8972,-179.9605,-61.3400,-159.8155,46.2720,-3.3540,64.5413,-12.9738,-37.9634,63.0329,14.4563,11.5624,11.6894,-104.1069,-1.5987
-101.5625,-51.7536,149.8103,-48.2994,127.3629,-78.0661,-0.3329,-184.3919,43.5709,-201.5755,151.1874,-85.3189,93.0959,-92.3607,29.5417,-52.5704,156.3071,-64.0031,-63.6212,-105.5897,65.4417
-93.7500,-36.0815,130.1704,-104.5117,72.9405,-134.3140,18.2413,-311.0218,64.2872,-291.5374,134.9085,6.5079,98.4003,-99.6742,123.8526,-106.3769,102.9674,93.2186,-82.1315,-15.2858,48.2848
-85.9375,-10.8252,50.1344,-42.1328,98.1252,-71.9792,7.4241,-245.0588,92.6087,-225.9019,126.2274,-5.0767,97.4418,-84.6366,151.7843,-115.5946,94.2368,-20.9569,-56.0334,-57.3842,75.7343
-78.1250,-85.6721,10.0035,-84.8572,93.2141,-149.7484,39.5128,-210.2024,126.8280,-191.3722,123.4448,-10.7593,90.1498,-95.0172,148.6183,-118.9109,128.4043,10.7673,11.9629,-22.5851,109.0796
-70.3125,-34.6790,-10.2710,-67.7303,38.1589,-133.6670,57.4504,-189.4954,72.9066,-133.9990,32.5257,43.3953,64.2011,-40.4447,168.3045,-25.3836,74.4352,-8.6761,-7.1917,-38.9425,91.2785
-62.5000,-120.3944,-26.2311,-13.3085,57.4067,-79.2914,38.6838,-131.5035,130.2831,-150.3320,89.9050,-50.1461,74.3021,-54.8948,151.2818,-42.5507,131.7602,-129.8030,47.9571,-85.9955,147.7738
-54.6875,-154.6003,10.3120,-44.3805,24.1575,-37.4104,8.4087,-196.0087,102.1599,-178.1612,98.7851,-44.1877,33.6289,-24.9198,48.7492,1.7867,66.5859,-21.4361,85.5981,-10.5533,81.7686
-46.8750,-58.9650,0.7046,57.3955,-21.2350,101.3140,-36.0138,-127.6671,59.8935,-110.1461,56.5263,-15.3876,-33.6467,47.9148,-66.9290,68.9656,61.2686,-102.2217,76.0956,-52.2707,38.6192
-39.0625,-107.8324,22.5954,6.6686,35.8744,13.5387,-49.9311,-64.8383,48.1280,-121.6349,81.7650,-30.0850,1.1109,20.5589,-42.1045,56.6499,49.4487,-8.5077,99.0984,-131.4966,62.9666
-31.2500,43.2900,31.4991,18.9461,80.9931,25.7707,-35.8403,-159.0125,-46.6383,-105.1294,-12.9850,93.2079,-17.8389,68.2149,-100.2787,72.3188,-81.3639,107.1872,110.1056,-153.7398,4.3170
-23.4375,59.4524,82.4733,109.2667,62.1750,79.0489,-55.6952,-102.1526,-63.3560,-85.5883,-30.6900,72.5493,-6.0551,55.4920,-117.3985,17.0221,-98.1275,17.9465,92.1710,-203.9402,22.7163
-15.6250,23.8723,152.7014,36.8483,61.6149,43.5834,-17.2938,-134.0530,-59.8311,-117.8022,-26.1597,111.1419,33.8805,27.8566,-78.2658,-53.0188,-130.6485,88.9499,92.4893,-130.9039,-10.6375
-7.8125,99.9838,88.6362,82.1282,67.7657,88.8114,28.8162,-85.2588,-85.6008,-70.3275,-88.9234,82.4306,22.4215,33.9309,-67.4292,-42.3640,-84.4633,60.6467,29.5167,-85.1795,-37.2886
-4000.0000,50.2282,80.8872,46.2620,118.9827,17.5676,79.3242,-110.0701,-32.0704,-107.1167,-49.5741,58.7762,68.0571,2.1824,3.9945,-60.4725,-52.6692,62.3511,74.3388,-120.3839,-12.4940
-3992.1875,117.0170,43.0777,46.9666,81.3698,91.7168,79.9623,-149.8820,-107.1815,-110.9200,-88.0093,132.6665,31.5683,53.0870,2.5118,-24.3567,-128.0142,130.3836,36.0153,-91.3790,-87.1732
-3984.3750,159.3121,15.7763,162.1779,19.2493,206.3683,11.0844,-74.1952,-66.8032,-71.2223,-47.9597,102.0627,-15.9533,36.8034,-66.4815,-131.7379,-13.8731,31.9168,7.1778,-156.8707,-46.3603
-3976.5625,82.4976,44.3745,117.2906,-22.9721,196.9128,-33.9029,-84.6022,-40.5282,-81.6240,-59.0105,93.3476,-8.3321,14.1917,-39.5826,-177.2171,12.1728,130.3422,35.2367,-131.4665,-19.6444
-3968.7500,174.1342,31.4185,176.8433,-35.7520,256.8932,-84.4452,-64.5601,-128.8094,-24.5741,-110.6260,80.0869,-43.1635,43.1442,-91.2486,-120.2359,-40.3373,152.2352,-13.2618,-111.6046,-34.4862
-3960.9375,120.7228,48.4126,191.3522,-53.5860,233.8254,-107.0533,-15.5558,-152.1455,-12.5713,-134.2932,20.7693,-23.4866,50.7300,-40.9743,-33.3008,-63.8978,134.0631,38.1795,-168.7983,15.6193
-3953.1250,143.1468,71.2666,143.7081,5.4248,222.5965,-80.8248,-101.7055,-201.6295,-25.7245,-221.1052,157.2894,-42.8122,134.8170,-126.8532,64.4833,-149.6095,227.7429,61.4632,-113.1410,-33.4249
-3945.3125,204.4702,63.0299,169.9644,32.3297,175.2717,-91.7059,-4.9591,-214.2227,35.0247,-234.0268,147.7119,-52.3249,135.0132,-173.8505,89.1739,-125.4339,113.3199,51.6349,-89.5752,-8.5763
-3937.5000,104.0864,68.0926,64.5219,-33.4703,31.2402,-87.2957,71.1002,-137.5161,74.0772,-157.6488,78.4180,-45.5021,67.2647,-134.5538,56.1564,-122.9579,153.1877,56.0995,52.3010,-5.4260
-3929.6875,186.3463,9.8019,42.7208,-91.6276,82.8422,-146.2460,119.8095,-126.1646,159.7860,-109.6184,129.7747,-115.3050,98.2193,-194.6184,68.7985,-111.8407,94.7155,-2.7991,166.8468,-65.6370
-3921.8750,105.4607,-35.6388,65.7759,-135.9461,68.2967,-160.3649,214.3768,-30.9604,180.3510,22.2648,5.9737,-124.0550,52.2991,-171.8521,54.3002,-16.8701,14.0771,-47.8687,153.2482,-7.0054
-3914.0625,79.1070,-96.5259,2.3673,-197.7224,4.2838,-149.9451,75.4982,-22.1954,114.4645,-6.2911,127.7065,-154.7778,101.6456,-90.5358,136.3455,-8.3425,128.9830,-74.3982,159.2056,-34.8198
-3906.2500,128.9994,-151.1712,91.2024,-217.2606,92.5108,-172.2867,50.8701,-9.1845,53.8348,6.3992,142.6841,-165.4939,128.9579,-39.9730,149.6538,78.4276,3.1323,-130.6917,136.4268,-21.3874
-3898.4375,53.0753,-156.6185,47.2374,-221.6081,47.9342,-142.4408,78.4574,-17.9668,44.4109,-39.7072,98.8431,-137.2016,102.6624,25.7893,141.1742,69.4007,104.4552,-135.8003,128.8501,7.2486
-3890.6250,155.1864,-124.0084,119.3093,-224.9202,119.3908,-144.5586,74.0937,-167.7045,113.0382,-189.7646,134.0475,-146.9499,127.8728,-14.4035,137.7557,-45.5813,206.8403,-174.8719,122.3393,-33.0702
-3882.8125,173.6545,-0.0525,135.7371,-205.8939,98.2039,-164.3442,125.0909,-190.0972,128.0287,-212.4803,113.5968,-94.2012,84.3642,0.7330,79.6906,5.7856,119.5649,-190.6069,32.1912,18.9524
-3875.0000,138.8570,71.6452,-10.0799,-240.1255,-47.2348,-163.3902,50.8530,-189.7411,90.7747,-175.4426,152.8787,-108.3674,67.1746,-35.3897,116.3626,42.9014,261.0287,-156.5942,100.7986,-17.2721
-3867.1875,186.0031,-21.7133,41.0498,-227.4165,39.2739,-186.4975,98.5641,-141.4403,138.4718,-127.4594,93.1032,-168.8524,108.9223,-133.5724,202.9981,54.9544,132.4408,-179.6388,145.3684,-41.5559
-3859.3750,30.2875,-105.9222,24.3317,-241.5684,21.9319,-202.4679,227.4341,-49.9885,193.3224,37.6798,39.4608,-189.4657,82.5747,-150.6089,147.7994,109.1622,47.9734,-159.5494,234.0957,-22.6888
-3851.5625,24.0444,-147.6362,-15.9043,-283.2318,55.0691,-206.9481,220.8091,-18.0278,260.6800,31.3251,109.3078,-210.3362,123.1638,-119.1456,179.1120,29.8789,41.0013,-165.9731,330.3416,-101.3211
-3843.7500,3.7006,-167.4691,35.7584,-268.0095,69.1022,-229.5443,270.0947,-5.1679,235.9506,7.8629,-22.9507,-170.3871,69.3567,-31.7884,156.3335,79.4987,-85.0858,-151.5087,201.4967,-88.0549
-3835.9375,-71.6636,-136.3075,-79.5776,-271.7949,-46.8699,-234.1498,153.3902,-11.3094,119.2215,-35.5955,9.7685,-162.7775,19.9015,-37.4342,76.5554,73.1251,-54.1852,-121.0456,229.6608,-93.7831
-3828.1250,-61.8389,-160.9490,-67.7209,-365.3856,-35.6481,-259.5653,162.8872,-2.2565,165.6964,-25.8582,21.6835,-211.9395,27.8685,-63.8875,86.9922,82.9381,-184.0877,-146.3927,308.0440,-120.3178
-3820.3125,-168.6176,-268.2087,-144.4603,-402.5886,-150.0207,-262.5946,303.8060,103.1952,232.5874,41.2834,-129.0214,-206.9124,-17.7746,41.0484,155.8403,151.1539,-185.6155,-148.3531,443.8361,-88.4509
-3812.5000,-120.3166,-428.3737,-163.1129,-422.7059,-132.3087,-244.5355,319.8292,9.7522,322.5811,-52.4721,-36.6366,-291.7065,100.0971,22.0833,356.7941,20.4710,-31.0485,-205.2212,490.7358,-181.4799
-3804.6875,-63.0696,-372.5963,-28.8153,-331.8858,37.3514,-221.5395,377.8017,-42.7483,306.5265,-68.2794,-50.3104,-255.3313,121.1904,-29.9456,304.7176,-32.2615,-114.5388,-219.1525,333.5951,-196.5640
-3796.8750,-116.5411,-213.5226,-48.2212,-242.7740,18.3060,-167.2527,283.0854,-99.9480,211.7737,-125.7840,-69.7122,-133.6081,48.3187,60.3273,173.9415,-53.6776,-26.7476,-166.7890,243.7538,-180.3410
-3789.0625,11.0308,-156.3942,-24.5872,-220.6195,77.2990,-107.9232,230.4128,-152.1067,159.0706,-178.2495,-46.0676,-117.2818,55.4220,45.6502,159.2174,-69.0523,-39.8978,-180.3871,156.9705,-195.0705
-3781.2500,-31.5471,-22.4157,-36.0947,-192.6193,29.1448,-82.7518,253.5947,-165.4247,146.2246,-154.8761,-94.5892,-52.8462,14.2818,69.8227,146.3444,-44.5821,-47.2165,-188.1471,77.0375,-133.9494
-3773.4375,-5.5016,39.2123,-79.9638,-200.9774,-52.3803,-89.9390,133.4308,-211.0870,100.0272,-200.8410,9.5183,-57.6039,62.6581,61.6484,249.1256,-164.4596,120.1106,-197.2660,135.7653,-179.1739
-3765.6250,90.3914,-4.3119,20.0120,-209.5031,46.9496,-137.2894,157.1199,-186.9057,123.6894,-176.9561,-1.5349,-103.2040,71.0884,-24.6891,199.7754,-177.4933,40.2780,-277.5564,124.3529,-154.5567
-3757.8125,2.0198,12.9105,-39.2615,-228.2899,-49.9709,-159.9047,170.5764,-99.9706,136.1056,-90.3110,-23.8624,-100.5089,-3.7084,-47.2795,66.1651,-90.7689,57.1731,-226.1082,173.6918,-104.1835
-3750.0000,37.4827,-21.0290,-75.6961,-227.2345,-50.0536,-122.6811,204.8845,-64.1892,171.3800,-54.8209,13.6509,-147.0463,52.3815,-122.0149,175.4059,-55.1940,-12.0825,-260.8220,171.9004,-104.9620
-3742.1875,-52.9087,-40.8303,-136.9761,-176.0444,-111.9826,-148.3222,252.3603,-17.2609,217.8168,28.8148,-121.7027,-117.4954,18.0861,-74.6064,259.8134,28.5321,-102.2112,-209.4012,114.2679,-20.5918
-3734.3750,-86.9289,-39.2345,-208.8618,-139.4642,-148.5180,-110.5725,177.2477,-17.9340,179.6599,27.8558,-83.6837,-92.8887,19.5265,-37.7946,259.6275,-46.3388,-30.9578,-208.5867,148.0389,-20.8134
-3726.5625,-38.6059,-25.2922,-122.3993,-160.5478,-61.7018,-170.4857,188.4814,-43.2659,190.8557,2.2369,-33.3149,-122.9460,64.5225,-99.6445,271.8023,-34.8718,-123.3579,-231.4397,159.1741,-8.6880
-3718.7500,-104.1923,-19.2635,-118.8337,-188.5403,-95.7908,-203.3107,189.8280,-4.4978,155.1555,77.7210,-29.8648,-113.4551,32.5444,-60.4011,201.0731,40.7076,-82.6790,-226.2053,162.4177,30.5472
-3710.9375,-28.0996,-13.5414,-74.5844,-183.8455,-52.2003,-160.4471,84.8801,0.9786,123.1632,45.9164,14.2704,-137.8955,62.9718,-127.4525,207.0436,8.9922,-6.3027,-221.2797,165.3807,-0.5151
-3703.1250,-52.1123,-0.9292,-29.4391,-171.2630,-44.7100,-151.6983,127.8459,44.3607,93.0876,126.0206,-87.7085,-95.9533,-6.6875,-82.6052,103.9263,89.1791,-100.0510,-174.4700,105.2604,80.3183
-3695.3125,-100.4997,56.3222,-115.6525,-148.0430,-130.5746,-165.3106,38.4871,29.4019,77.6782,73.7909,8.9360,-87.6456,27.0735,-97.1098,162.4585,0.0220,62.8290,-117.0189,124.8026,65.8086
-3687.5000,17.7468,69.2214,-65.2308,-136.1881,-117.8000,-151.2864,124.7898,5.0964,126.9370,12.2142,60.2208,-115.8803,61.3922,-194.9760,175.6499,-24.4849,5.3535,-139.9364,135.0164,41.9459
-3679.6875,-73.4202,49.7171,-123.2142,-154.7495,-213.4337,-136.6692,173.7223,129.4008,139.8129,136.2507,-35.9250,-90.9280,-55.3357,-144.2473,5.4448,99.6263,20.4414,-125.2696,182.8433,55.6906
-3671.8750,-11.0674,77.7466,-128.6700,-128.7715,-182.5434,-143.5068,130.2137,122.2716,169.2504,165.8571,-40.5419,-95.1120,-59.1821,-186.9600,-0.2048,56.2968,83.0704,-135.0628,208.2394,-24.0050
-3664.0625,-11.2228,113.2551,-19.6368,-22.3041,-75.1593,-108.8486,163.2141,155.6474,128.1997,161.9682,-116.6643,-21.5191,-69.8956,-153.1673,-40.3410,52.4694,-57.8207,-100.3663,65.1470,9.8017
-3656.2500,-72.9495,158.1980,-122.1593,57.6080,-140.3378,-27.7471,95.6709,161.4880,60.6007,204.5439,-144.3559,40.2034,-96.9316,-109.9135,-34.0359,21.1072,-13.2880,-21.2206,36.5104,53.0702
-3648.4375,-37.4399,159.3788,-157.4447,93.7580,-68.2782,-27.4010,57.3774,160.5827,59.2542,203.3772,-143.8046,44.5985,-77.1968,-110.4130,2.5110,56.9998,-83.5089,-55.8326,35.1449,52.5898
-3640.6250,-146.9932,154.5020,-202.7806,89.8465,-149.2641,0.8864,84.0535,261.6323,48.8727,267.1769,-299.3290,93.4801,-156.1181,-9.9690,-5.9961,194.8558,-157.8162,-25.5090,63.7401,117.0651
-3632.8125,-150.1789,82.0200,-168.7337,87.3190,-225.8658,34.5644,6.1406,257.0979,43.9012,225.4044,-228.4801,80.1447,-143.5029,21.8755,-10.0927,153.1285,-89.7461,-28.7929,129.7528,112.9494
-3625.0000,-152.7279,9.1648,-62.0454,49.4259,-193.8167,29.8802,36.8858,288.2269,38.5908,293.2953,-232.9917,66.7236,-158.3853,53.3677,-88.5281,184.0615,-233.0483,-30.4374,124.4371,144.4858
-3617.1875,-250.7540,52.8371,-127.8150,94.0762,-223.2276,37.7423,7.1936,331.9278,-28.1655,336.7624,-261.9784,120.2239,-199.3846,97.4243,-154.4171,153.5636,-154.8327,11.4626,130.6835,151.5871
-3609.3750,-122.9510,41.3466,-65.7550,116.5685,-161.8068,63.4506,-79.6484,245.4891,-78.0605,213.0940,-163.1291,90.8264,-115.0925,48.3372,-56.4488,140.9189,-132.7711,-1.7938,151.7980,102.5410
-3601.5625,-150.0607,48.9436,12.4007,125.1500,-157.2843,104.2480,-40.3659,322.1615,-75.8395,216.5370,-195.2088,140.7525,-159.2989,125.3495,-163.3726,217.3901,-230.6463,7.0367,87.0201,179.5984
-3593.7500,-179.0531,20.6877,-128.3077,166.8729,-262.6313,110.1906,-72.9227,326.9971,-71.4584,294.1439,-152.1655,135.9093,-159.8678,130.5252,-121.1526,222.0253,-188.3950,47.0139,91.4057,184.8191
-3585.9375,-188.4106,12.0708,-63.3764,87.2369,-161.3360,63.7785,-9.8266,279.4886,-8.4170,247.4107,-161.4799,97.9345,-102.8632,120.3489,-21.2810,211.3132,-268.5067,37.6338,46.4544,174.6915
-3578.1250,-238.4362,33.7891,-77.0978,38.9459,-175.6908,13.7080,47.6339,191.3436,12.9844,195.0493,-139.4676,90.7281,-77.1726,142.5245,36.9342,158.9695,-176.2961,58.5969,30.8585,159.9236
-3570.3125,-126.8820,41.0943,-32.2392,10.2483,-93.4587,59.2314,17.6953,88.8107,18.9904,18.3083,-20.8723,66.4957,0.1217,114.3084,81.7485,56.2348,-170.4891,65.1551,33.8810,94.7596
-3562.5000,-170.7774,-37.0731,29.1671,72.0885,-32.6721,120.2932,5.3213,111.8383,-30.4433,115.1284,-105.7417,84.0273,-26.9428,137.6412,32.1176,153.0615,-285.1558,126.2456,-81.5297,155.1479
-3554.6875,-202.6990,-104.2531,-38.4382,111.9159,-64.9014,125.3461,-139.0395,78.8831,-100.8639,118.9742,-63.6308,99.4752,-36.2375,214.9758,-0.5096,82.9102,-140.8397,199.3214,-44.9286,122.5490
-3546.8750,-63.3809,-140.1914,70.1923,110.9812,79.1125,123.6416,-105.1435,39.1848,-141.0240,42.0816,-65.2767,82.1445,-23.3436,176.5556,-75.8782,7.0168,-212.2824,162.6370,-118.0610,120.2024
-3539.0625,-181.0778,-115.1430,18.8227,135.0334,-9.8740,143.9282,-159.2270,96.5037,-195.1715,135.2069,-154.9499,81.1604,-51.5710,122.1370,-19.2477,100.1416,-223.7573,186.9416,-166.1857,213.8685
-3531.2500,-226.2976,-159.6083,-63.0630,90.5683,-55.3728,98.7058,-205.8055,86.3358,-167.8102,125.8501,-90.1391,9.3490,47.9830,76.2238,228.8815,89.7808,-197.7349,141.7384,-71.7920,168.0432
-3523.4375,-219.5219,-153.0994,-18.9494,27.0929,-11.8681,69.4743,20.6282,130.1771,-14.4327,132.5073,-119.3324,11.9702,1.5481,83.3081,88.0051,59.4303,-367.7306,76.5198,-32.3807,138.2184
-3515.6250,-257.4691,-120.3054,-56.5446,-45.0930,-50.0683,31.5373,91.3812,128.3351,55.2603,130.4936,-120.2496,-5.9959,-59.3609,44.6973,-59.5817,-15.6024,-264.4516,38.5929,-1.6592,99.7053
-3507.8125,-201.5790,-203.6738,-69.3071,-58.4400,-63.4273,56.4444,114.9916,115.3553,115.8148,117.3472,-169.3293,-26.3256,-102.2583,68.9409,-109.3064,7.2205,-278.3377,25.5034,-52.0637,50.0457
-3500.0000,-333.8549,-370.2084,-132.2217,57.0480,-200.9339,138.1916,122.4743,196.2416,86.2341,125.0717,-307.5872,23.3952,-195.0930,187.0390,-175.1692,88.9105,-340.4037,104.2553,-78.6092,58.2470
-3492.1875,-333.2543,-368.8558,-202.2579,92.4248,-197.5573,141.8328,86.8638,88.0399,87.5642,53.7133,-193.9577,-4.9593,-115.5608,116.0491,-63.1241,-56.4901,-374.5697,103.8948,-46.2421,-12.6409
-3484.3750,-305.8537,-340.7151,-100.4989,15.5875,-59.3804,60.2654,152.0613,43.6441,115.7066,81.1657,-238.5313,-58.2238,-62.5202,34.8574,39.7224,-65.0800,-487.9532,26.3191,-90.0657,-20.7281
-3476.5625,-343.2713,-342.3864,-137.5491,13.9400,-97.0076,22.8931,113.4738,5.4689,77.0567,42.8400,-238.9276,-49.1720,-71.5991,69.8752,37.7579,-140.4401,-279.1653,23.9394,-22.6800,-58.5999
-3468.7500,-227.4586,-294.8290,-85.3638,26.5343,-46.3976,0.7723,90.1381,-54.4444,90.6669,-17.2228,-226.0859,-54.9297,-82.7165,10.1550,-21.9576,-163.5409,-233.1348,-35.1882,21.9744,-118.2152
-3460.9375,-261.5544,-119.1933,-87.0814,62.2204,-47.6852,-1.2507,86.9236,15.7538,50.3949,16.8270,-337.1562,34.6426,-209.8359,7.5352,-243.5667,-129.5288,-233.0344,-35.2211,20.7358,-83.7242
-3453.1250,-214.4259,-35.3171,-106.5664,111.1496,-68.7306,-21.0207,-8.0305,-4.7853,29.3800,-3.8477,-247.9910,43.0463,-182.9238,-49.8213,-228.9223,-187.2567,-78.6978,-22.0078,68.7552,-140.9721
-3445.3125,-95.8552,-127.0051,16.3922,195.5247,-19.3266,-8.3420,3.4631,7.1376,-33.1747,-29.0516,-307.3827,21.3502,-157.2165,-110.7228,-179.8289,-138.5251,-100.9294,26.6509,-60.7650,-128.7674
-3437.5000,-192.8521,-82.2639,-49.2090,310.3395,-122.4762,72.7862,-137.5794,50.5387,-137.2725,14.2200,-374.3499,83.0981,-216.7299,-104.1647,-209.2900,-95.3099,-21.7430,70.7525,-87.8274,-85.0978
-3429.6875,-82.1737,64.1565,-43.1270,280.8368,-42.9402,5.6109,-241.9153,19.6573,-205.6591,-16.7859,-221.6300,71.4374,-160.7036,-171.8923,-204.0396,-126.3760,19.1340,-65.4526,-49.1675,-115.7243
-3421.8750,-110.9543,141.0992,-74.4997,252.8672,-74.8485,-26.0249,-201.6785,23.3444,-237.4758,60.7776,-252.3718,118.1823,-216.1431,-94.0584,-272.2267,-85.8722,-45.4660,-59.1247,-78.9456,-74.7963
-3414.0625,-125.2542,162.5293,-162.3883,274.3810,-126.2662,-4.1633,-252.9307,45.5496,-252.7845,45.8644,-266.6251,162.6290,-238.5994,1.2870,-249.9170,-100.8487,-24.5812,-73.2986,-59.2116,-89.3522
-3406.2500,-118.3085,136.1927,-119.0429,212.1319,-120.4430,-34.0578,-174.9295,51.0158,-174.8270,51.2129,-297.6273,136.3325,-248.9291,7.8906,-244.3564,-21.5667,-192.4541,-136.2278,-88.2120,-46.6534
-3398.4375,-241.2231,117.9867,-175.5473,89.0243,-177.4666,-55.8074,-159.7589,66.6473,-159.7068,102.7355,-318.5008,113.1101,-276.8509,59.6530,-266.6562,29.8860,-105.2021,-49.0113,-107.0573,5.2083
-3390.6250,-116.4075,104.5127,-153.3147,-30.3473,-118.7421,-31.8102,-247.8322,-20.9576,-174.8255,16.0344,-149.6391,48.2441,-184.4417,45.1767,-206.2025,-57.9000,20.7990,41.9528,-123.1387,-45.1765
-3382.8125,-126.3419,165.2678,-53.8327,-39.4749,-56.7570,-6.5690,-223.6411,-33.3018,-260.6784,-33.4013,-196.5332,76.1761,-196.6532,33.9470,-255.4790,3.5761,-94.9720,138.1543,-203.9630,-20.3110
-3375.0000,-141.8477,150.4558,-68.9049,15.8386,-109.3262,51.1204,-276.9854,-86.1818,-240.0734,-123.3637,-139.9866,85.0374,-173.5346,18.1755,-234.3009,-49.4780,30.6896,192.8049,-115.3338,-35.9799
-3367.1875,-33.5084,47.4780,45.8589,18.9907,41.9520,55.6595,-200.4756,-156.2036,-164.6010,-156.4668,-61.5853,-3.8868,-64.3110,-125.7439,-158.2744,-119.6724,-1.8001,160.2987,-113.8390,-68.7932
-3359.3750,-100.0746,122.5763,12.7230,23.2343,82.3383,59.2936,-124.8471,-189.1069,-162.0163,-79.4465,-58.1034,39.4275,-71.5301,-85.5585,-191.1547,-153.7425,1.7902,163.8887,-146.2404,-65.4943
-3351.5625,57.2927,210.6073,33.5254,76.4189,102.6709,79.8802,-216.2662,-207.0458,-179.4737,-133.4611,72.3168,70.6523,2.2665,-65.4030,-98.0883,-243.8465,159.3252,145.4359,-129.6818,-119.2338
-3343.7500,132.4126,215.3675,111.0785,152.3451,142.7624,157.2200,-176.9283,-167.2275,-177.1726,-130.7176,38.4844,121.4554,-7.6407,-25.4880,-132.2746,-168.1838,129.5981,220.7299,-230.3626,-79.2186
-3335.9375,126.9699,245.5635,67.0771,217.7192,98.3039,223.0157,-220.1314,-137.9384,-220.4186,-138.4987,105.0941,152.7337,-4.0790,-33.1154,-176.0234,-139.0522,265.3045,321.4771,-237.5921,-49.7392
-3328.1250,218.4207,232.6509,199.9628,239.9936,266.7408,244.7167,-236.4379,-188.7407,-199.7549,-117.3627,200.6039,131.9425,65.3814,-85.8395,-190.8657,-118.0217,180.9158,308.1227,-286.9105,-28.3615
-3320.3125,139.8712,225.7319,223.8529,268.2666,254.1945,269.4210,-213.7274,-91.5370,-214.0761,-56.2123,114.0999,184.5597,27.3359,11.4372,-204.7158,53.0204,67.5042,369.7611,-366.2275,69.0193
-3312.5000,86.6631,172.1554,132.0843,250.8874,161.9983,361.4773,-268.6667,-37.9792,-196.0492,-38.7029,95.9430,188.4835,38.8657,104.0788,-76.2288,108.4225,119.4489,351.7526,-315.1910,50.7596
-3304.6875,53.9640,141.0625,169.8175,184.0005,162.3088,362.0383,-160.1076,35.0814,-123.5141,34.3097,21.2901,171.6107,53.0649,140.2301,32.7588,181.3254,-88.1085,285.2384,-347.6418,124.0000
-3296.8750,-38.9951,117.6950,69.2977,125.8593,98.3714,335.3533,-186.7780,45.9086,-150.2145,81.0935,68.3671,175.8654,42.1939,224.1519,7.4963,154.0009,-40.9370,332.4678,-266.3342,171.0008
-3289.0625,64.4336,81.7151,108.1608,125.1109,209.8338,300.0697,-223.0421,9.1462,-150.5028,45.2919,143.8374,137.5957,104.0766,187.4761,43.6387,118.0847,-43.3592,260.0957,-198.6139,98.4055
-3281.2500,-2.2846,15.5764,110.8760,130.2054,139.1575,265.6296,-111.4389,85.2436,-74.9295,121.3507,-0.8449,145.0616,28.8742,226.6446,9.6322,230.0380,-143.9505,228.5686,-160.0423,137.6674
-3273.4375,-25.5171,27.9225,14.0784,107.7937,41.9739,279.6913,-98.3253,98.8550,-25.8439,134.9276,11.9673,116.0349,30.6324,167.3271,59.1233,170.5153,7.9438,135.5447,-8.9652,114.4447
-3265.6250,43.4001,-6.6053,48.4212,71.5247,75.9441,239.9043,7.9438,132.6295,7.4031,131.6716,-26.0685,98.2092,14.2138,164.1730,19.7729,204.1580,-98.0198,63.6695,24.2697,148.3750
-3257.8125,1.4104,-14.0528,-34.1338,30.3525,-43.9738,193.2187,-2.6819,195.5248,-3.2464,157.5444,36.9865,100.6842,-26.9905,227.1324,-64.4766,266.9277,-34.9015,21.8937,52.6015,211.4198
-3250.0000,80.9155,-109.0039,-22.2006,-29.3252,-32.3938,131.0361,-65.8167,169.9304,7.6010,94.9315,157.5460,25.9075,37.8046,201.6069,-16.2236,204.2102,10.7261,-38.3816,166.4420,185.9725
-3242.1875,12.6802,-142.7238,12.9822,-61.7626,-34.5542,57.1062,79.3083,204.5958,78.7102,166.5824,83.3637,-14.7765,23.6739,126.3305,-18.7145,275.7511,-93.4053,-71.4104,166.5443,257.7790
-3234.3750,8.2320,-110.6631,-26.0439,-65.4065,0.0865,17.9783,39.2459,165.0817,38.6266,164.0575,152.9742,-25.1072,42.6703,86.8677,-58.4157,162.1033,77.2615,-40.6355,161.4615,218.3957
-3226.5625,154.0408,-70.3710,55.1727,-94.8061,154.9839,-46.8998,82.4359,62.8275,44.8091,135.7964,198.8447,-59.3497,89.6449,21.6584,-49.8679,170.7138,47.1816,-70.6099,95.6481,153.2585
-3218.7500,100.9005,-17.0501,74.4403,-77.1641,99.9385,-27.7279,63.6980,81.6414,63.0542,117.6030,143.7605,-26.2436,50.0863,39.5067,-68.2708,189.3985,135.1339,-53.5397,41.9012,135.1790
-3210.9375,197.1486,-96.3450,69.0874,-51.1325,130.2793,1.8463,57.3686,38.8752,93.7141,37.8293,248.0781,-97.2835,141.5199,-76.2276,34.7353,109.4977,160.4893,-63.0731,67.5764,55.5054
-3203.1250,165.4000,-127.6633,145.7298,-11.1116,206.6293,4.4227,96.0593,41.1171,95.4001,40.0709,176.3977,-70.8388,138.9246,-36.9522,36.7469,111.6071,23.8294,-57.6103,-34.7338,94.8332
-3195.3125,126.9920,-130.6455,105.7188,21.2545,130.3327,38.3493,18.1179,-35.2738,54.4525,-72.3170,210.0598,-37.9792,144.1295,32.6803,70.0884,-2.9140,161.5140,-60.7954,-3.6851,91.5218
-3187.5000,273.4880,-19.7363,184.5956,-7.4862,171.9382,-28.8218,-13.9148,-176.7608,59.4198,-250.7939,289.6327,-44.8199,196.6935,1.2146,149.3315,-33.5291,167.1063,-161.0842,-33.7220,97.1077
-3179.6875,234.4890,82.6618,104.9759,-9.7371,92.0578,-34.4939,-19.4306,-145.7323,-20.0977,-220.7482,245.7015,19.3303,109.6431,68.2585,32.0764,33.3736,199.1776,-128.8797,-72.2551,164.1988
-3171.8750,265.6310,43.1842,65.4909,21.1563,89.3188,-37.0090,-133.7910,-185.5343,-60.4575,-223.5375,316.9208,3.1093,141.9379,65.4702,64.9815,-42.5518,300.4047,-98.5162,-77.6341,124.4490
-3164.0625,271.1799,50.0927,107.3989,63.4444,130.9836,4.8801,-129.7493,-143.9278,-93.4088,-144.9193,247.5535,19.3217,119.7258,34.0927,33.2977,34.9335,166.0312,-21.7507,-141.6125,166.1012
-3156.2500,175.1785,129.4488,7.7539,73.1775,-5.8939,50.2193,-194.2478,-98.8592,-157.9018,-62.8324,220.6382,70.1482,47.6516,79.1757,-30.9482,43.8832,245.1003,23.4710,-133.1363,175.2129
-3148.4375,247.4308,167.0376,11.3520,75.1553,71.4825,17.8166,-226.4982,-93.5287,-191.1367,-57.4847,261.9872,62.1289,73.1128,47.5155,-26.9484,11.0853,211.4267,-45.0515,-97.3951,106.5721
-3140.6250,206.7892,91.6961,79.0530,71.2222,101.9765,12.5124,-160.6253,-63.0846,-197.2536,-27.0210,145.4333,77.3917,32.6295,114.9559,-69.8354,78.4070,171.8371,-14.4806,-102.5440,137.0346
-3132.8125,258.6889,37.8815,62.2910,17.8280,85.0145,31.7519,-215.1835,-117.0699,-178.8031,-154.9803,238.4224,7.5640,113.3064,60.9538,58.8443,24.3015,328.7961,-34.3630,-52.1296,83.0572
-3125.0000,333.6933,43.1534,141.6225,-11.4751,127.1609,0.0878,-136.6316,-148.9475,-137.2324,-186.8257,243.5229,-11.6607,130.5927,29.0505,63.6363,-7.6904,263.8565,-63.1465,-81.5996,88.1807
-3117.1875,228.9006,114.6246,68.1562,-10.5861,16.5167,-35.3789,-136.8686,-111.6129,-100.4522,-149.4526,243.8243,29.4916,60.2027,66.3540,-46.3781,-7.4640,369.1049,-28.7223,-47.8714,88.5138
-3109.3750,317.7585,62.7356,55.3286,-27.0535,76.5260,-86.1889,-78.4583,-161.6263,-5.0144,-126.4211,266.7907,-49.0395,118.2334,-57.6799,50.2612,-94.5871,282.0153,-45.6424,5.5138,1.4964
-3101.5625,171.4793,-13.3315,85.3561,-31.6727,106.4015,-128.1450,97.8195,-131.7832,61.2933,-60.5350,149.6191,-48.6182,107.0553,-27.8623,79.7548,-27.8516,65.7705,-15.7135,-0.2508,31.3290
-3093.7500,126.0460,-93.5679,40.2278,-76.4503,98.1283,-101.2505,51.9578,-141.0754,88.4601,-105.7860,178.3031,-78.2294,143.5833,0.8190,144.1038,-146.2492,126.3827,45.0692,58.8394,-13.9802
-3085.9375,199.6772,-124.7666,156.1482,-107.1901,213.9150,-95.3088,94.1456,-208.3143,93.6904,-208.9778,220.0591,-98.9213,189.3344,6.5530,149.5207,-104.5875,59.0524,13.8946,-8.0117,-45.2462
-3078.1250,107.5185,-76.7822,132.2773,-58.7397,153.9253,-82.1679,69.5503,-123.3442,69.1286,-123.9549,197.0200,-38.0468,118.5546,55.4989,15.1384,-91.7146,107.9138,61.9186,-30.6630,-32.3097
-3070.3125,198.5125,-20.6611,121.5539,-37.1495,179.0981,-55.8740,-15.8933,-134.2152,57.7247,-97.7714,222.1440,-35.4604,118.8334,7.6030,2.9032,-176.6923,127.9430,48.0950,24.8464,-117.2246
-3062.5000,110.0769,-38.0081,175.3844,-19.0170,196.8398,-2.0284,75.2289,-42.5370,74.8891,-80.0367,129.8382,-7.8183,82.9401,25.2561,-52.7745,-85.1188,4.5207,100.8187,-64.0921,-99.5926
-3054.6875,49.4905,-98.5186,114.0655,-44.0379,98.4356,46.6694,49.2138,-67.9975,85.9145,-105.4472,104.3876,-45.3172,87.1302,-0.2261,31.3982,-73.6860,84.9518,110.3980,15.8261,-125.1057
-3046.8750,91.9635,-160.9937,159.7929,-106.0134,181.0888,-17.5698,94.2566,-95.4096,168.0042,-95.8078,112.9995,-120.3257,139.7385,-64.6523,113.6286,-65.2029,22.4464,48.0316,22.8071,-152.5765
-3039.0625,13.9991,-133.9303,77.0769,-113.4404,98.3135,-63.2511,157.8679,-32.2672,157.6568,4.3834,67.1612,-101.1727,99.0578,-37.5199,104.4077,-38.1517,14.4817,4.2151,119.3390,-125.4951
-3031.2500,66.7833,-116.1277,25.1028,-130.1222,46.2912,-115.1739,179.2251,-10.3700,216.0615,26.3305,125.0850,-130.3265,97.7505,-89.6208,87.9401,-53.3398,102.2847,-47.8434,207.6263,-177.6610
-3023.4375,50.3860,-132.5419,41.9337,-182.0114,63.0811,-135.2904,305.3873,80.3293,269.2734,190.0768,-5.1773,-143.6648,22.3553,-108.9114,-5.7226,74.2763,-90.1117,-64.0963,190.7200,-124.0307
-3015.6250,-48.3607,-196.3040,-60.5918,-174.2576,-40.4707,-90.7506,276.2124,160.6921,239.1465,234.4910,2.2011,-112.2289,-23.3983,8.4623,-71.7418,81.5540,-12.8569,-56.6933,232.4669,-116.7468
-3007.8125,17.5551,-201.4165,9.5234,-178.8530,67.6293,-130.5537,271.6898,120.7075,235.6778,120.5547,36.2563,-109.4722,23.5536,42.4894,-39.1086,4.4784,-16.9277,-96.6375,191.8638,-156.8199
-3000.0000,-33.9551,-181.9827,27.1944,-158.8974,-25.7038,-75.8037,252.7269,102.2709,215.7672,65.1671,16.8805,-72.0067,3.7999,97.0655,-21.9155,21.9604,1.5539,-77.0251,139.7994,-102.3432
-2992.1875,21.5905,-161.5063,-60.0903,-137.8907,-111.9819,-15.9971,164.8041,51.8896,164.8986,14.8350,113.5739,-80.6364,45.9721,83.7057,75.3375,-28.5005,127.0995,-92.3448,159.7809,-152.8129
-2984.3750,76.6552,-71.5386,-39.8665,-82.3846,-55.7405,-32.6851,221.3777,72.0040,147.5361,72.0029,23.7933,-48.5826,15.2836,29.8469,58.0916,28.5402,-28.8497,-107.1630,108.2641,-132.7885
