Time,Fp1,Fp2,F3,F4,C3,C4,P3,P4,O1,O2,F7,F8,T7,T8,P7,P8,Fz,Cz,Pz,ref
-4000.0000,-7.1977,-22.9704,16.1666,-35.1005,-7.7060,61.7715,-62.6042,-72.1608,-48.9789,-66.6234,-24.0131,94.5945,63.5670,62.2169,-10.8362,2.8238,-4.3532,-21.0077,2.0194,75.8643
-3992.1875,-127.1092,-72.7540,-105.5159,-155.6562,-94.8104,14.2381,69.6655,134.1148,122.9016,213.5526,-74.1709,46.7312,52.1775,52.4303,51.4216,26.1073,-87.9283,-106.3006,161.9170,26.9212
-3984.3750,-127.7214,-109.2346,-141.9019,-156.8893,-94.6266,17.0247,143.2348,133.6868,118.1818,139.0207,-75.0322,-24.8281,54.0925,91.9789,75.7160,63.6875,-90.1967,-108.2963,160.1013,-8.7350
-3976.5625,-123.2321,-209.6141,-135.1893,-220.9977,-52.3450,-47.0640,296.8981,103.3534,167.1561,108.5752,-31.7992,-52.2863,62.1053,28.6590,137.5097,71.3622,-119.3604,-173.1927,236.3704,-37.3028
-3968.7500,-131.8903,-253.1304,-213.6349,-228.2418,-94.2298,-50.2894,401.4142,170.8735,221.1404,175.9788,0.2833,-54.8929,58.9665,101.2127,175.8962,28.8826,-127.6685,-181.2535,192.4791,-115.0351
-3960.9375,-131.9454,-288.0330,-177.4801,-158.8636,-57.5306,26.1017,289.5264,169.9940,146.9933,100.9749,-37.0378,-16.9063,97.4259,214.3966,147.6821,-6.9971,-162.3706,-77.7170,86.1704,-114.1816
-3953.1250,-175.2530,-156.1814,-186.5773,-131.7154,-68.0804,129.2559,168.3901,195.8667,82.7366,90.7226,-47.6111,48.8321,125.6344,281.3527,103.1034,19.8787,-170.3228,-86.4390,-27.4005,-86.5912
-3945.3125,-151.0054,-61.7679,-162.1259,-0.9934,-117.0899,191.9805,-29.2016,109.2924,-7.4245,40.0231,-23.6397,75.1220,114.3841,345.8918,18.1988,7.2949,-39.7136,8.3923,-74.4404,-61.4673
-3937.5000,-55.8550,-36.4490,-136.7671,-11.3465,-92.2007,147.6289,-112.9096,97.6180,-17.6359,102.2195,39.2270,66.3055,105.0327,338.3592,-17.9175,-3.4018,89.8003,-38.8718,-85.5875,-71.4555
-3929.6875,-8.4090,47.1791,-155.1157,1.6179,-111.0159,130.5929,-134.3141,77.2521,-63.3003,81.7205,130.3937,122.7938,87.9762,433.1457,-48.5272,-58.8034,209.6193,-25.8495,-247.4413,-163.1594
-3921.8750,54.0438,73.8238,-51.4682,99.6072,-44.8395,236.5713,-214.7227,-40.1170,-165.0486,-72.7857,122.5525,192.2823,81.9138,539.9537,-89.6584,-139.2061,201.4429,36.1703,-362.3091,-205.8794
-3914.0625,-24.1599,100.8217,-59.4769,126.9649,-16.3161,304.9102,-150.7801,23.8740,-104.5176,28.0683,78.0508,223.1137,75.1960,535.1287,-60.2909,-110.2507,87.6078,-148.4605,-335.8320,-213.2605
-3906.2500,-64.7200,61.4729,-65.8416,122.9876,-59.1531,337.9131,-158.1816,90.5257,-103.0683,20.5676,-2.8032,181.5835,34.1227,605.9771,-74.3648,-79.6406,83.4249,-154.4377,-305.7094,-182.0061
-3898.4375,-95.7253,-40.3269,-136.6468,92.5822,-57.4389,379.4781,-83.0392,91.7223,-69.8784,22.6041,-37.0983,112.5904,37.6044,684.3929,-42.9500,-40.4880,-18.2025,-185.8614,-231.0451,-142.2131
-3890.6250,-169.1771,-43.5752,-248.9012,-16.2640,-170.1705,343.5952,61.6658,163.4785,15.1841,93.2043,-39.8390,76.1364,37.6318,649.3617,8.6810,31.2101,-21.2794,-189.7474,-129.8327,-179.8863
-3882.8125,-146.6268,15.1796,-224.1563,-28.0920,-182.9071,296.7155,48.3820,113.2428,-14.5479,5.8089,-52.5808,65.6647,63.6565,567.3374,9.8043,18.9056,107.6421,-167.6323,-107.6236,-191.5778
-3875.0000,-59.7190,32.2929,-205.0607,-80.5502,-127.2893,244.1888,103.4611,94.3552,1.9939,-13.2498,-33.9800,85.5376,47.0292,478.6695,26.2064,-36.0540,160.9099,-186.1718,-56.0733,-208.9284
-3867.1875,4.8425,61.0715,-136.3186,-15.3434,-96.0330,279.3215,98.1953,52.1229,-9.3539,-55.6565,-1.7291,10.0499,43.0452,514.6595,32.0980,-187.3693,189.8381,-52.0659,-97.8895,-249.6386
-3859.3750,-23.7890,32.6614,-20.7761,131.6817,56.0196,323.2580,27.7152,-18.3116,-55.4282,-125.2574,2.3217,-20.6494,85.8573,522.4595,36.0888,-182.8825,90.5765,24.8463,-161.9187,-207.5625
-3851.5625,-65.9693,96.7140,-28.7817,161.1686,10.5240,317.6447,18.6839,-26.2852,-84.8682,-171.3965,30.8318,10.0903,80.1088,480.7069,21.4906,-116.9383,49.7687,53.2016,-204.5057,-178.0524
-3843.7500,-18.1415,144.7745,-15.7819,210.6810,-13.9780,260.0336,-116.3493,-88.2525,-145.6210,-195.5402,43.3469,-12.1787,94.3521,460.9688,-30.0872,-141.0069,132.9640,100.5606,-261.1010,-164.5555
-3835.9375,13.8915,141.0399,-19.5762,207.4195,18.7221,184.6316,-121.1835,-56.0165,-108.7328,-90.4873,76.0638,-14.2605,54.7873,349.4359,-41.5658,-107.8839,129.3554,-9.8792,-231.5034,-167.8671
-3828.1250,79.0268,101.4108,-22.2710,238.2697,-58.4862,110.3308,-124.9099,-59.6683,-109.0934,-94.3215,145.8837,-15.2587,53.3108,312.9999,-51.6146,-110.6569,160.8508,-15.2282,-201.8083,-207.0940
-3820.3125,69.5175,57.1401,42.3869,229.4876,5.6506,177.3794,-135.2827,-106.9582,-122.0846,-141.8005,136.0601,-96.9249,81.1791,343.9120,-39.6202,-120.0763,151.6996,-25.2220,-175.7734,-215.9869
-3812.5000,39.5089,97.3762,10.5503,200.2255,10.2928,221.9246,-57.1571,-29.7337,-102.5964,-137.7600,103.7338,-90.1036,14.5403,352.3185,-33.3584,-78.9896,157.0463,-90.7190,-207.2463,-210.3933
-3804.6875,45.5093,173.6238,-24.2834,241.9838,-24.0657,226.4663,-130.0318,-27.5010,-118.8997,-99.7178,32.4100,-122.2943,-19.1089,357.7229,-72.9769,-38.9111,92.4031,-50.2106,-235.7330,-133.8160
-3796.8750,-41.6287,122.7275,-80.2618,225.6148,-44.5687,172.8554,-113.0506,98.5843,-8.0696,137.1745,-98.0628,-66.6535,-73.9207,304.9635,-67.0461,51.0111,-29.3891,-102.8553,-113.3737,-79.3988
-3789.0625,-142.0663,162.5443,-219.5429,231.9525,-147.3820,182.9325,-32.3477,143.3836,4.6239,107.7785,-52.8309,-56.3321,-138.0502,389.8841,-68.0205,-14.3576,10.5154,-27.8107,-108.3144,-144.2921
-3781.2500,-94.1445,175.7186,-132.4789,315.6595,-60.8574,235.3481,-20.2867,-28.4586,-65.5955,-101.2652,-40.2424,-78.6793,-86.8419,406.1460,-46.9800,-111.3731,-11.2243,54.5935,-131.9144,-130.8438
-3773.4375,-118.6648,186.4517,-121.8600,291.9294,-50.7776,248.3063,26.3266,-18.7486,-50.1998,-91.7627,-30.0952,-66.4901,-149.0911,382.9451,-52.0047,-63.8375,-0.4141,-5.4479,-121.9714,-119.8521
-3765.6250,-63.4284,66.9500,-136.4870,312.9684,-65.9510,236.0091,10.6914,-34.2832,-42.2732,-70.5069,-45.1903,-116.5700,-162.5990,335.4826,-58.2262,-5.5634,-14.8441,49.2793,-101.2940,-134.1216
-3757.8125,-114.3834,-89.7464,-117.3004,226.8311,-10.3101,147.5105,138.8479,56.9817,98.3414,131.5578,-137.4871,-169.8680,-179.3183,246.8081,9.3347,87.5007,-136.4739,-37.1727,22.1736,-114.6004
-3750.0000,-174.8876,-8.9876,-216.6576,168.1557,-111.2163,123.4519,185.4576,214.7190,124.9144,178.0974,-164.3320,-83.7388,-239.6073,297.5620,-2.7146,98.0357,-125.6577,-62.1762,32.0923,-103.6425
-3742.1875,-141.3282,200.8235,-182.9611,308.5432,-115.0757,159.4292,34.1182,99.5227,4.4529,26.6940,-167.1196,-48.5819,-241.8616,297.3513,-71.2800,57.6317,14.2166,5.8741,-75.9435,-69.6463
-3734.3750,-93.8595,247.5358,-133.3576,285.8384,-102.0273,101.2866,82.6827,-34.7615,-17.6770,-71.7912,-44.0043,-70.5487,-191.2245,204.0196,-47.1775,34.1265,96.9946,-53.1796,-64.0767,-92.7587
-3726.5625,-8.5355,158.1103,-40.9090,231.9904,-83.1326,48.9842,138.1052,-90.1760,2.8205,-90.4117,10.9716,-160.6822,-97.7544,152.5149,8.1716,16.4698,112.6335,-73.3765,-49.3646,-147.0334
-3718.7500,-3.9486,91.9465,38.8004,201.4171,-4.9837,19.9248,68.7740,-48.3401,34.7685,24.2053,16.2005,-153.5869,-18.0480,87.2390,24.4069,-14.9425,46.5256,-105.3048,-11.4068,-178.0666
-3710.9375,-14.5537,116.5931,-6.6807,226.6594,-51.0241,50.6479,59.2571,52.3024,60.6367,124.6276,7.2310,-87.7112,-62.5610,117.7270,6.1301,-60.5540,1.2157,-116.4344,-57.6432,-223.3094
-3703.1250,-44.7954,87.6054,-4.8080,303.2610,-85.7171,128.6965,23.1067,90.2997,30.3965,89.4074,-101.3771,-83.5114,-58.7421,233.5366,-5.3158,-21.8166,-169.7336,-41.2095,-122.5329,-147.2137
-3695.3125,-126.5755,41.0773,-92.4722,222.3227,-137.9531,153.1707,45.4170,148.7569,46.8323,110.6503,-79.5298,-59.8865,-72.4826,222.7597,-6.8647,74.3710,-214.2318,-52.5395,-63.9740,-87.6738
-3687.5000,-86.7483,222.1544,-158.5392,262.9898,-240.5943,162.2187,14.3412,44.8354,-20.5416,6.5137,-36.0737,-14.6802,-100.6411,232.5437,-50.9496,45.1700,-70.1335,56.7285,-130.8129,-153.5403
-3679.6875,4.6925,242.8351,-62.9987,284.2786,-145.6343,149.8415,35.8666,-43.4816,-31.2844,-45.0152,-87.0101,-27.8980,-77.2115,147.8931,-29.3207,30.5714,-119.4253,76.6123,-146.0617,-167.8102
-3671.8750,-30.4066,137.9767,-63.0004,251.0280,-110.2145,77.8923,144.8435,27.6637,62.5503,62.9219,-125.4884,9.3136,-114.3519,112.6526,13.9903,29.4216,-189.2608,5.9586,-40.8626,-131.6368
-3664.0625,19.1613,82.7859,-48.3408,230.4400,-96.1394,94.5654,47.4752,5.4671,54.7501,113.5169,-148.3014,-47.8542,-135.8592,167.0236,-25.3685,6.9161,-209.4371,90.9670,7.9802,-116.8244
-3656.2500,15.1428,-26.9986,-16.2620,157.2605,-63.6470,55.6171,116.5077,73.6744,122.8541,182.5079,-152.7067,-124.6482,-138.9803,91.7541,13.2505,2.8086,-283.2116,50.3840,109.2208,-120.6153
-3648.4375,64.7347,21.8162,-0.5789,171.6858,-48.5559,36.2431,168.1494,14.4978,54.9296,-23.8889,-137.5034,-107.8682,-159.5225,73.0470,13.9684,-18.6850,-164.3802,99.4030,52.0675,-141.8084
-3640.6250,121.9355,44.2358,95.7111,194.7172,46.1363,60.4448,78.3949,-111.0603,-18.5131,-150.6592,-115.6932,-121.5164,-99.4840,24.8992,2.3174,-69.5774,-105.9482,156.0338,37.5229,-119.4050
-3632.8125,138.2854,-9.1963,114.1592,141.9016,63.9890,43.7724,132.8036,-93.4483,20.9488,-96.2553,-24.7284,-139.0417,-80.3136,-28.1436,31.1076,-51.3096,-124.3758,101.8167,54.1424,-137.8571
-3625.0000,193.5963,11.3277,170.5668,163.0352,46.7917,66.0220,78.1842,-147.8730,-38.4599,-186.8992,-4.8039,-154.6516,-59.2107,67.7182,8.0482,-105.0843,-68.8514,86.5599,2.7164,-117.3676
-3617.1875,150.5731,73.5016,161.6388,120.8260,73.2575,21.8899,31.2229,-121.6446,-16.7646,-87.8857,-51.2223,-52.6412,-105.4744,-12.8238,-23.9216,-78.2078,-41.6736,-28.0312,63.9500,-90.2310
-3609.3750,127.7051,156.8326,66.8603,98.7662,-22.1168,-108.1324,82.4354,3.7602,94.7675,148.3089,-109.4872,-35.5068,-162.6085,-142.2746,-15.4615,-26.1840,41.6538,-86.4712,111.3478,-147.9505
-3601.5625,175.2960,99.6168,79.5351,112.1586,26.9610,-167.7343,57.1146,52.6261,95.0626,159.9694,-134.2945,-58.9566,-112.3132,-199.3165,1.1989,-13.7127,18.4306,-74.4413,88.1954,-135.2259
-3593.7500,163.1398,86.6517,100.4684,99.8041,11.3005,-144.1194,41.0580,72.7586,36.9409,32.8936,-39.8428,-0.1817,-90.7875,-286.1649,-6.7792,-28.9849,6.4507,-88.1544,39.2984,-77.2515
-3585.9375,218.6908,178.3951,121.1073,157.1526,-42.6587,-121.8413,-13.2833,-91.3915,-67.9569,-167.4636,17.3190,-15.7353,-32.5807,-227.3704,-27.0392,-82.5493,97.1721,2.8475,-45.8922,-56.5800
-3578.1250,208.8087,97.6992,146.3081,112.0595,18.9432,-168.0451,10.9237,-102.9835,-0.5071,-34.2614,5.0394,-63.7656,-43.8446,-273.0783,-7.4979,-57.5616,87.4470,-78.5754,13.4691,-31.3587
-3570.3125,169.5833,93.6609,67.1678,38.6176,-61.7886,-209.6307,77.7915,0.0835,36.4056,-4.4065,35.4234,-68.1638,-85.4785,-351.1851,1.7372,10.0755,153.3722,-83.3369,43.4869,-0.4902
-3562.5000,217.1740,71.4244,76.8425,16.9817,-50.7134,-271.4467,-22.5315,9.9538,8.9389,5.2490,44.6193,-56.7896,-74.3303,-449.5397,-30.5946,56.5101,132.1072,-0.2812,55.3098,83.1740
-3554.6875,128.0247,52.4332,92.7877,-36.4012,36.6322,-364.0464,-44.5978,98.0901,79.3999,204.1838,60.0708,-40.1997,-57.9490,-578.7076,-15.5196,183.2091,77.0882,-18.9717,70.3931,99.0856
-3546.8750,119.7341,9.2973,123.5907,-42.9403,29.8318,-368.8355,-88.8046,91.1031,71.5448,196.0010,90.3886,-45.7955,-27.7357,-583.0911,-18.1527,139.7677,139.9252,41.1943,97.3399,55.8439
-3539.0625,110.8583,0.5684,187.8038,-17.0804,131.4415,-376.2627,-25.6034,44.5296,61.2387,76.2260,7.1173,-54.0251,-36.1382,-627.1353,13.3734,19.7266,131.1667,31.7766,122.6956,47.0013
-3531.2500,73.9427,33.7919,148.9762,-88.2731,129.0148,-376.7794,44.5664,115.9189,105.4660,110.4118,-32.1977,-55.3315,-73.6153,-737.2841,31.9685,54.6429,59.3505,65.3170,190.0096,45.1075
-3523.4375,57.1420,-122.8852,167.2589,-33.3605,146.6911,-394.2274,24.8407,133.4180,123.6277,127.7095,-50.3935,-147.5678,-92.0161,-754.3876,34.3321,109.6637,6.6388,187.9742,243.4297,63.3138
-3515.6250,31.6523,-182.2634,177.8516,-93.1510,229.6857,-419.4155,71.4190,143.2342,141.5259,137.3344,32.7217,-172.5344,-44.1333,-889.2587,74.1708,156.9888,-17.7763,127.9443,217.1634,73.8240
-3507.8125,138.4663,-6.3316,178.7468,-126.6525,156.9915,-491.3519,71.3288,106.3721,124.4902,137.2755,180.1486,-208.2270,-42.9703,-923.9059,60.7111,46.6186,124.1015,163.2240,112.2114,74.6352
-3500.0000,176.8935,67.2121,181.2504,-122.5524,157.9069,-487.7312,-0.1467,144.1102,98.3707,137.8232,182.1853,-243.3514,-4.2251,-958.0124,47.3464,47.8513,56.5855,236.1228,78.8687,113.0497
-3492.1875,124.8757,16.3134,162.3120,-138.9056,138.3816,-505.6004,52.9382,198.4175,126.2080,154.9505,162.7738,-224.9541,-59.9560,-1011.6370,52.4840,102.6366,39.6249,253.5829,96.0927,131.0137
-3484.3750,164.0173,20.5655,239.5289,-29.1122,179.0090,-537.3588,20.1926,54.8913,83.1058,84.2510,239.5190,-146.4378,-55.5659,-1006.1759,42.9721,-39.4282,113.8131,363.2128,-4.5193,135.1207
-3476.5625,221.2219,76.8603,335.8157,-6.2690,237.7080,-551.1041,-32.4803,3.4150,46.6406,33.5851,261.3240,-86.8956,-33.1400,-1093.7302,27.4954,-17.4441,101.0459,313.9084,16.9255,157.2819
-3468.7500,262.1406,152.8640,378.8084,0.2599,243.1147,-581.2005,-64.4364,-65.3519,-20.8285,-72.3688,230.8599,-80.6834,-64.0344,-1012.6568,-10.0130,-11.7476,141.9861,319.3105,-48.9211,163.1493
-3460.9375,256.2853,147.0769,408.0079,29.9779,307.7222,-514.1436,-183.1983,-109.9013,-49.3944,-44.0906,185.6280,-125.3083,-70.7444,-945.4517,-49.4070,-56.8456,101.1340,347.9266,-55.5585,192.2162
-3453.1250,197.4491,88.2919,310.2224,-63.3154,283.3466,-500.1298,-170.9580,12.5753,15.9814,114.2092,198.4097,-148.9697,-94.4693,-931.3186,-47.5303,-43.9375,112.2865,253.5537,-10.1783,168.2797
-3445.3125,211.0844,32.9650,325.8966,-49.1643,261.4289,-520.7065,-193.2549,63.5153,10.5957,91.9676,176.6578,-207.2112,-79.7641,-915.8059,-48.8925,8.4215,125.9035,266.6516,37.6572,146.7885
-3437.5000,128.2419,-84.8573,349.0925,-95.5228,284.0350,-459.8279,-134.0470,85.9606,47.1187,78.2422,88.4145,-220.9863,-56.5749,-854.8676,-9.1051,31.2816,45.0167,219.2671,166.0025,169.8008
-3429.6875,64.1991,-78.8787,210.0904,-124.0990,218.4573,-415.1982,19.9815,92.2308,88.6522,48.3490,22.9800,-212.9872,-121.6052,-736.2000,18.5391,1.9506,15.9189,189.6893,241.1653,140.6169
-3421.8750,21.9089,-86.1540,202.8472,-130.9331,210.6412,-347.8648,47.7758,12.2672,94.8453,40.2215,15.3071,-257.2684,-92.9020,-668.8508,35.0295,-5.6263,-62.4299,146.8784,268.0914,133.1901
-3414.0625,-48.5235,-156.5891,128.4646,-201.9312,209.6965,-384.7299,193.4340,120.1639,195.8739,185.9696,50.4979,-257.7319,-93.3671,-705.7296,96.9037,65.6568,-132.9353,39.9289,266.8869,132.6227
-3406.2500,2.3039,-212.7785,106.3450,-186.6919,113.0102,-369.3911,170.3625,134.3271,169.7771,162.9801,64.9509,-242.9750,-78.6019,-616.4347,85.2450,44.2024,-83.1955,89.2465,175.9503,147.3096
-3398.4375,0.8406,-178.2691,103.9455,-186.7626,147.0394,-334.3954,94.0030,95.1945,132.3202,159.6986,63.1117,-244.5481,-44.1568,-581.5049,63.2404,78.4524,-118.7609,54.2849,138.7317,181.7045
-3390.6250,26.2268,-153.9096,57.4025,-231.9959,98.9322,-307.5952,118.5151,119.9332,108.3484,111.2921,125.1319,-219.2915,-54.8877,-518.8005,50.8385,103.5545,-129.4876,7.1841,127.3866,170.9554
-3382.8125,66.4223,-148.7477,133.6644,-191.4320,138.6298,-267.0414,11.8438,-23.5195,-6.7825,-68.2980,164.9643,-142.2597,22.1582,-367.3567,24.5172,-2.5424,-54.4121,82.9008,26.8568,211.0116
-3375.0000,63.4203,-150.7936,166.7321,-158.0819,171.1444,-233.7255,-66.0137,-101.1590,-67.8990,-147.0670,160.6019,-35.4554,54.9820,-371.1844,1.2423,-6.8335,13.4594,44.4282,-10.8450,243.8780
-3367.1875,82.0233,-62.2449,113.4043,-175.1581,81.2636,-250.8560,-84.2505,-156.1746,-84.7106,-165.2117,179.8515,-53.0833,37.3826,-351.4843,-23.8515,12.4920,101.9366,131.5654,6.0767,226.3501
-3359.3750,47.6422,-96.6984,115.0885,-244.2540,155.3987,-248.0373,-82.4824,-80.1782,6.8143,57.6518,108.1167,-87.7394,2.7641,-385.8565,-15.8052,87.8340,31.4160,96.7233,76.0148,191.8320
-3351.5625,31.1163,-147.3073,64.6274,-330.5161,104.4046,-225.4107,13.1569,87.6810,91.5383,189.3860,57.2405,-101.5686,-85.0226,-326.4463,-4.3375,110.0281,-19.2670,80.7413,130.8200,141.1706
-3343.7500,64.8923,-148.6248,63.4717,-260.4897,102.7127,-152.5249,-62.8814,49.8539,8.7332,40.4381,55.6738,-140.1274,-49.5263,-180.7982,-27.5356,35.5211,15.3459,150.0777,92.9398,139.8133
-3335.9375,37.0211,-177.5965,70.6763,-324.1322,183.3856,-71.3328,-19.5541,20.3913,18.5044,10.8668,26.4634,-96.3606,-42.6959,-136.8768,-6.5080,6.3679,-13.6946,85.7759,170.4216,146.8151
-3328.1250,6.7591,-136.9621,77.4860,-283.1909,78.6684,-65.5888,22.3880,25.5463,15.1842,-20.0982,31.8702,-54.0187,-73.2819,-93.4284,-11.5832,11.8215,25.8722,55.0815,139.5185,116.4255
-3320.3125,-10.9851,-155.8240,56.8100,-231.7612,57.4665,-49.3914,37.8306,-31.8032,9.8950,-41.5635,11.7957,-75.1998,-57.3746,-151.5474,-2.4527,63.7756,-28.0525,1.9068,120.1209,132.5460
-3312.5000,-32.5241,-107.4910,-36.6530,-288.1482,-36.5135,-144.0416,88.4881,19.0568,67.5001,82.1927,25.9347,-60.2007,-42.2828,-210.5384,14.7356,152.9367,20.2153,-91.0607,132.9424,110.8756
-3304.6875,17.3456,-56.7635,-19.7072,-237.1527,-56.0833,-126.3313,31.5643,-36.6698,15.5502,25.3666,80.4833,-5.8248,11.1900,-119.1932,2.2796,59.4931,70.8865,-39.6101,42.1755,91.6107
-3296.8750,63.8270,-80.4423,27.8504,-225.5716,26.9641,-79.0649,42.2468,-99.7880,-14.7821,-72.8427,54.6403,77.1235,58.2469,-71.3157,22.3941,-38.3523,47.1531,-64.5458,53.0273,102.9583
-3289.0625,74.8084,-105.6314,39.9079,-215.5204,38.5247,-30.3458,53.4512,-162.3859,-72.2984,-208.5234,66.3099,88.5488,69.7847,12.9908,20.6465,-27.6877,56.9189,15.0209,-7.5945,77.8149
-3281.2500,40.3977,-104.2229,76.5736,-142.8914,111.6915,5.9308,-56.7374,-199.3669,-124.0924,-246.5903,28.5925,124.5481,105.9041,48.8357,-3.3231,8.5875,58.2917,51.2015,-40.5928,114.2813
-3273.4375,-48.1545,-52.9625,20.0940,-162.4379,90.7188,22.0122,-41.0685,-110.4763,-37.7586,-46.7812,8.7349,140.3728,84.8601,-9.5415,7.5927,60.7241,5.5113,-1.7572,9.2833,130.6083
-3265.6250,-88.1960,-23.1978,-57.8823,-131.5005,-23.7446,16.5516,-83.8892,-42.0729,-14.5979,56.5372,-32.6064,97.6761,43.2980,58.5168,-22.9123,92.3633,0.2301,61.8009,3.6754,125.4411
-3257.8125,-132.2311,-102.4404,-103.8444,-140.5761,-33.1877,44.0530,-19.7042,57.3308,23.6231,83.8643,-41.9398,87.9619,-2.2784,85.5149,-10.8927,83.0085,-115.0635,17.3793,64.0832,116.2871
-3250.0000,-129.2752,-134.6980,-135.8081,-208.6760,-65.6183,47.5127,56.5019,98.7579,29.8294,14.2232,-2.2693,19.2268,1.1271,124.4497,15.0313,13.6791,-77.3698,19.9663,102.5139,84.1423
-3242.1875,-91.8157,-167.4581,-96.2718,-170.2912,-27.5461,85.4375,58.2195,26.6952,27.0880,-19.9112,-0.0894,-15.0266,3.0169,125.8320,22.2925,-20.1460,-75.1686,57.0749,139.4547,86.5051
-3234.3750,-99.0910,-139.9624,-140.4772,-213.6786,0.7909,77.5710,124.1954,92.8813,98.1643,119.2115,-7.6418,-23.0429,-4.8540,81.4022,49.5275,82.2762,-117.7126,-54.5667,166.6676,79.1263
-3226.5625,-39.0074,-80.1173,-150.3271,-187.7373,-45.5137,67.0071,39.5428,82.4253,53.9312,108.6964,-17.8249,38.2719,20.6159,106.2586,17.6660,35.0428,-56.9081,-30.8501,86.2538,69.1033
-3218.7500,-49.5666,-90.9316,-86.8117,-163.4614,-20.4501,19.7525,-44.7520,71.3173,24.3404,97.5377,-28.6445,100.9169,83.4296,94.4046,8.4301,-12.8399,-67.7564,-41.7621,75.2007,58.4423
-3210.9375,-24.5788,-66.1969,-95.7455,-173.6571,-65.8209,10.0093,19.5163,25.7740,9.5250,51.9520,0.0928,129.0939,74.7809,85.0349,14.1424,52.8406,-9.0565,-121.1164,-5.2867,13.3408
-3203.1250,21.3653,13.4891,-49.7262,-57.9223,-19.2353,19.1808,-45.2614,-110.8099,-61.5989,-49.6776,46.7895,101.2022,84.0691,93.5647,-15.0638,62.4755,0.6015,-111.5035,-66.8098,23.1976
-3195.3125,-46.3892,51.4642,-47.4013,-90.9081,-18.3330,20.6204,-7.7288,-73.0855,-43.9896,-47.9946,10.7941,101.5952,47.6431,57.3405,-11.4277,63.4215,-31.4519,-179.5856,-29.0049,61.3653
-3187.5000,-29.5466,33.0280,-103.4753,-74.3259,-110.8259,0.6170,45.4255,-56.7377,-36.8909,-67.6801,27.4064,117.5733,-9.1966,108.6554,-17.2872,42.9785,20.0864,-128.0636,-47.5718,78.1399
-3179.6875,-12.6444,14.6358,-86.4964,-22.7130,-57.2585,-20.3766,-11.3581,-40.3299,-14.8219,20.6987,7.0740,133.5852,7.0021,87.9706,-19.3437,22.5866,-32.3354,-76.4780,-31.0700,94.9734
-3171.8750,-33.8923,-6.9149,-144.6635,-44.2790,-78.8295,-5.5546,2.7257,46.9391,55.2605,182.9351,-14.3979,111.4253,-14.9589,65.0770,-9.4644,38.0552,-19.9121,-98.0392,-17.6941,73.6671
-3164.0625,-31.3855,-38.7262,-142.0790,-6.1189,-113.6451,31.9780,-31.4252,48.9632,28.4369,111.9307,-12.1077,38.9958,-13.1812,101.8817,-20.5555,40.2782,17.2725,-25.8382,19.4500,76.1190
-3156.2500,-77.6764,-15.3431,-191.2879,-53.7811,-127.2423,90.6734,27.6328,72.1937,15.0145,24.1486,-24.6079,98.7487,-26.2131,123.8337,-12.9205,63.7032,-64.3523,-36.4275,78.8137,99.7805
-3148.4375,-93.6715,36.3356,-207.2005,-71.1719,-142.5354,111.6338,49.0090,56.7515,28.9937,45.6940,-3.8012,45.7862,-42.9564,181.0359,-13.3148,11.4355,-80.6852,-19.7209,96.5059,47.7491
-3140.6250,-102.7648,-42.0948,-139.2187,-78.6848,-39.9295,67.4668,42.2983,50.2200,67.3276,112.1503,-10.0890,1.7155,23.1920,99.1003,26.4301,-31.9301,-90.1199,-28.1014,123.1105,4.6274
-3132.8125,-151.5587,-92.2404,-117.9370,-129.9220,-18.0082,51.5632,99.9060,107.9967,73.1022,96.9227,-25.0662,59.9351,44.6339,45.4104,53.7887,64.0199,-105.2697,-113.1825,73.0291,-10.1829
-3125.0000,-158.0036,-63.0442,-124.3098,-64.8335,-98.7329,79.9779,92.8784,27.1278,14.2783,-20.9428,4.3213,88.4917,36.4201,147.0220,32.8277,56.3238,-41.0664,-83.8996,-2.6923,19.3641
-3117.1875,-155.9955,-26.4016,-161.2253,-28.3147,-97.9956,78.8122,55.3004,-10.2866,22.7672,15.6465,-32.8341,124.4866,72.6476,145.0408,35.0338,-17.9178,-39.4055,-117.1560,34.0504,56.3730
-3109.3750,-120.6401,78.6005,-159.7967,-30.4749,-170.8983,41.9694,93.0859,-9.3402,35.7028,53.6043,-31.6381,124.8228,36.2114,181.3745,28.2253,-53.8066,-5.3958,-117.0613,-37.8373,20.7381
-3101.5625,-76.7847,88.0966,-112.8676,13.8468,-124.2955,13.5997,28.3842,-36.8877,16.1944,63.0682,-58.9377,133.6465,45.2650,152.1783,11.2209,-44.1932,-30.8919,-73.4515,-63.2097,30.6086
-3093.7500,-83.8305,115.6783,-83.8394,-28.7545,-95.5811,-30.6892,94.7937,-7.3307,18.9352,18.6403,-66.1306,125.5647,0.4115,106.0408,16.1366,22.5248,-73.2946,-114.7387,-35.4607,23.5910
-3085.9375,-7.2803,156.8504,-41.2147,47.2268,-125.2652,10.5937,26.8122,-74.1637,-52.4106,-85.1739,-22.7155,131.0759,6.1489,110.4693,-15.2227,-8.1510,2.9044,-39.4149,-133.0963,30.1789
-3078.1250,49.1711,106.9110,16.3156,67.0852,-33.0386,29.7512,-99.2664,-90.0927,-73.8111,-29.0806,-2.3946,113.4709,25.7874,91.7634,-46.8273,12.0814,23.0036,-54.1819,-148.8151,50.6740
-3070.3125,32.9134,55.2648,-36.8510,50.2182,-121.4963,49.1856,-80.0333,39.2911,-29.5807,65.3291,18.2371,96.1595,-28.2790,147.3182,-56.6400,32.6193,77.3967,-104.6464,-129.2197,34.4735
-3062.5000,38.8547,-45.1797,-30.8178,91.5344,-79.7451,127.7990,-110.5953,7.8769,-65.4189,-40.0557,-12.9236,64.0432,13.8472,261.0442,-51.7056,-35.6441,11.9883,-98.8926,-54.4170,40.4783
-3054.6875,-85.3584,-28.7864,-48.9303,36.6814,-62.1305,108.2354,53.7062,26.3194,21.0302,15.4235,-31.2377,81.7737,-5.1828,167.5901,10.7988,-17.0580,-110.5820,-153.2849,33.2549,22.3390
-3046.8750,-84.2279,7.9461,-82.7063,-32.8501,-96.1662,72.9977,92.3807,29.1243,17.6771,-18.7317,8.7963,46.8495,-2.8704,131.4556,18.2433,22.8831,-40.8051,-117.3254,34.2975,-11.4467
-3039.0625,-48.6506,8.1218,-82.0384,-32.9485,-58.7489,72.1909,56.5088,-7.6164,13.2803,-18.4291,9.2857,9.3675,33.8885,129.7463,18.5679,23.2753,-110.5808,-81.9031,104.8032,-10.7750
-3031.2500,-91.9786,-0.6077,-125.2790,-76.9692,-102.2228,64.4639,122.7500,58.7529,79.0127,84.9906,2.8784,1.9803,62.7424,157.1042,57.5367,16.7705,-154.2612,-90.3814,132.4311,-53.9982
-3023.4375,-102.4593,-46.4893,-135.6715,-53.1590,-75.8470,88.5711,148.8458,84.9776,89.7995,74.2610,-44.6728,-46.5625,51.4408,181.2995,73.2488,6.1178,-130.0894,-65.0079,121.9264,-64.3673
-3015.6250,-122.8948,-103.3285,-157.0181,-109.3191,-61.4196,65.7115,199.9939,136.2633,119.7520,88.6034,-67.1740,-33.0620,29.1863,119.5208,89.6709,20.5308,-115.8747,-121.5880,171.4910,-49.6806
-3007.8125,-34.1427,-85.9790,-138.1765,-92.3105,-78.7909,47.0325,182.3638,81.7642,87.9256,34.1678,-47.4714,-51.3637,47.1214,136.9236,83.2901,-33.8479,-27.4672,-103.9762,119.2784,-66.7920
-3000.0000,-8.3390,-95.5949,-38.2902,-67.2723,-16.1079,34.3961,59.7854,34.3179,35.6974,23.7801,-21.7160,-26.6175,72.1038,160.3709,47.7472,-82.1769,-2.0098,-78.3045,39.1193,-40.8486
-2992.1875,-39.4913,-57.1727,-108.3556,-64.2002,-86.3630,36.7997,27.2625,73.9279,23.0899,63.4439,-17.9041,50.1810,39.1377,198.8529,10.8669,32.5477,1.4938,-109.5806,8.0208,-36.8466
-2984.3750,-16.8971,1.0016,-85.6737,63.6088,-100.8612,94.9434,-98.5102,23.2856,-66.8595,-24.1461,4.6631,71.7316,23.9265,219.0703,-48.5723,55.0210,-11.2464,18.8979,-110.3223,-14.0913
-2976.5625,-56.7066,66.7670,-54.3869,58.9979,-32.7447,124.6708,-139.6788,-19.7593,-71.4487,6.8715,-1.1684,64.8733,17.3207,210.8714,-61.7924,49.0929,-51.3948,14.9772,-114.0491,17.2672
-2968.7500,-44.8227,78.2208,-40.4096,-0.9425,-55.9281,136.0840,-127.1226,-6.0941,-76.4662,-16.4022,49.7063,40.7117,-6.5894,259.3589,-70.8225,-48.1316,-3.8542,-8.2494,-102.0549,-5.6740
-2960.9375,13.3072,-6.0878,18.8145,-14.6484,40.1413,120.7369,-141.3045,-58.1816,-91.3521,-68.4264,34.8357,-12.2037,51.7531,242.0872,-47.7457,-26.1114,17.9356,13.7816,-79.8023,16.6376
-2953.1250,-17.1223,-35.9604,-12.5162,-44.9278,45.6655,124.8290,-64.0261,-15.8121,-73.8039,-98.9913,3.4145,-7.6663,56.5432,208.2528,-17.6474,53.3634,-82.8307,19.2576,-39.0817,22.4040
-2945.3125,-55.1654,-4.4324,-88.4599,21.1727,-31.4175,156.3112,-67.3334,-56.0355,-78.4834,-102.1432,-36.6080,-11.7253,15.7273,239.8188,-37.2583,50.2350,-120.1958,86.1352,-41.9475,19.5671
-2937.5000,-115.7203,-30.4125,-149.9104,-40.2364,-56.9977,93.2911,17.8602,102.2425,53.8864,129.2123,-99.1372,-1.2780,-10.5879,137.8817,2.8462,97.6095,-182.0684,-9.4721,73.6913,-5.7710
-2929.6875,-129.3369,-43.4502,-198.4180,-54.7119,-105.6253,6.2198,153.0164,164.4837,117.2814,154.5331,-36.7236,-13.8733,-22.9598,86.8896,53.2432,85.9447,-55.0023,-23.1292,96.2878,-54.1608
-2921.8750,-61.0082,-46.5458,-91.9831,12.7429,2.6992,2.0982,113.1231,14.6761,39.8486,-32.1970,-2.3599,-17.5189,46.6193,81.8595,64.1354,-63.7674,47.0137,9.1674,57.8456,-56.5987
-2914.0625,-41.9389,42.0962,-33.8071,30.9202,59.7824,21.7223,133.9866,-75.3700,47.4122,-11.1637,-18.2476,2.5845,29.9489,27.5763,69.5095,-116.7240,30.7676,-6.7983,7.1746,-72.2785
-2906.2500,-24.3341,59.2786,-14.0989,82.6265,42.4036,2.8923,79.4138,-55.8515,27.4588,7.4280,0.4120,57.2365,-24.1718,80.8446,28.2288,-134.1261,48.0656,81.7833,-44.9377,-89.4053
-2898.4375,-43.0856,-29.9053,38.2538,62.9708,95.6790,17.7101,-14.5139,-39.6871,9.8838,23.6710,-19.2723,-0.4617,-8.6376,94.7710,4.1619,-43.8806,64.0123,27.0206,6.6092,-72.8783
-2890.6250,-23.9428,-11.1974,22.5017,46.2006,-30.1370,73.4274,-30.5423,-18.6183,-21.2921,-28.1764,0.9577,-17.2549,-25.1973,150.6001,-22.6357,13.2670,153.8511,11.1564,-8.9419,-88.4510
-2882.8125,91.8467,-1.8448,106.3897,90.0728,15.6968,155.7984,-204.9187,-82.9042,-113.2489,-92.3810,10.8434,-45.3975,-16.1015,231.0865,-89.7565,-12.9305,163.3383,91.9545,-68.8424,-78.3746
-2875.0000,24.2196,-68.9070,109.8729,57.5322,93.1395,230.7677,-201.6761,-5.5935,-106.5563,-88.9878,14.3204,30.0663,-13.4022,269.1791,-81.2794,-9.5255,96.4180,59.3477,-30.1341,-74.6981
-2867.1875,15.5305,-78.0292,138.2951,82.9194,84.5271,220.6836,-174.4590,-51.3311,-113.7598,-134.6379,5.7400,57.4844,13.2484,295.2310,-61.1412,-92.1743,122.4492,86.6721,-73.4621,-83.0741
-2859.3750,19.2883,-74.6985,142.1575,85.7437,198.3565,187.0408,-96.7855,-121.6158,-75.2568,-130.8261,-26.3969,23.3588,53.3522,149.7372,-4.6449,-162.3756,19.9294,54.4400,-34.3290,-79.0015
-2851.5625,-37.5720,8.0390,46.4062,27.9520,140.5855,89.7941,65.2984,-69.4857,-23.0176,-115.6024,-12.1365,37.6397,30.8556,51.6494,38.2931,-73.1719,-2.2061,-37.3989,-20.7889,-100.5307
-2843.7500,-22.3456,57.8665,-11.2578,77.2574,81.9074,66.6572,43.4821,-128.2552,-55.5671,-174.2852,3.2263,15.0291,45.4640,138.6856,22.9383,-57.8656,12.7515,12.8677,-5.1522,-84.9605
-2835.9375,-77.8772,36.9243,-33.6793,55.8047,59.4811,79.7787,57.9129,-76.7770,-18.8176,-122.7157,-18.1651,-7.3212,59.3292,150.9911,41.3516,-117.3015,-43.0501,27.3764,44.7399,-70.1360
-2828.1250,-17.6745,26.7160,-5.3662,81.0832,14.7948,70.6596,87.1064,-121.5318,-14.4753,-130.3822,10.1851,20.0812,87.9438,141.0674,62.7501,-198.9835,16.8964,123.6268,-34.6022,-114.5612
-2820.3125,30.2669,74.2426,82.6863,162.1018,102.8531,83.3017,-9.9525,-218.5379,-73.7527,-190.3035,-12.7184,70.2455,137.3128,78.9248,45.3809,-184.9184,29.5920,170.6270,-92.1889,-137.2355
-2812.5000,-0.7049,77.8594,88.8300,130.2091,72.0154,88.0501,-3.9079,-138.4359,-58.6362,-147.1124,-6.5277,75.5201,69.7846,82.8931,23.4839,-141.7426,33.3774,175.7176,-87.6652,-167.8110
-2804.6875,-16.7842,26.3724,72.8594,113.2077,56.0724,143.7041,-93.9615,-117.4311,-80.3597,-126.0181,14.5592,21.7000,53.1617,174.7800,-17.0474,-120.6656,87.0620,194.7078,-68.2365,-183.4934
-2796.8750,-51.2717,27.4776,37.4776,8.7977,130.7309,180.9678,-18.4104,-42.8323,-52.6323,-124.3217,-57.7584,-14.5114,54.1438,211.2898,16.1196,-118.9879,53.3381,90.2894,-30.2041,-181.5799
-2789.0625,-23.8263,88.5232,29.0290,69.3205,85.3354,171.1863,47.1093,-88.2716,-80.7222,-243.6594,-29.1287,-23.7614,8.0755,237.7720,12.2236,-127.3574,114.5613,46.7996,-38.2197,-189.7224
-2781.2500,79.1112,51.0691,62.0654,101.3361,82.4337,165.9163,-30.8621,-165.2129,-98.1504,-210.5024,-70.0073,8.4982,3.5168,231.7800,-20.8075,-131.2378,77.2838,44.8047,-40.7320,-156.3692
-2773.4375,30.9868,2.5536,12.0399,52.2983,69.4788,114.6077,-6.8751,5.7971,6.1251,34.5979,-45.9413,-5.2790,-10.0866,142.7642,-0.8594,-34.1722,-6.0486,31.7429,-17.2882,-169.0673
-2765.6250,-12.8434,28.3371,40.2977,112.5567,60.8080,141.6104,-15.5848,-2.8968,-10.1317,-11.0094,-54.5741,-14.7396,54.6147,169.0786,21.5241,-79.8076,-51.0720,92.9814,-61.5508,-177.4718
-2757.8125,-79.4277,-3.6290,79.8017,81.0743,173.3956,69.8766,60.9442,-73.3510,-0.9424,-81.3695,-87.9621,-12.9361,93.5798,59.6679,71.2986,-113.1931,-116.8533,27.4753,-21.5727,-137.6317
-2750.0000,-108.7805,-33.3474,11.5488,14.8377,69.2386,0.4113,176.7243,-31.5575,56.0619,-39.4782,-82.1047,-44.8671,61.8022,26.5377,102.0754,-107.3356,-6.3921,-37.7860,-15.3466,-131.5503
-2742.1875,-14.5448,25.5277,35.8924,74.1970,19.6786,23.5688,54.1006,-80.1670,-16.7585,-87.9940,-94.6526,-21.1948,11.6354,49.0501,29.2102,-82.8859,88.6723,57.5504,-95.5235,-106.8787
-2734.3750,4.0317,184.7453,17.5773,126.8977,75.4718,41.0905,-1.1745,-135.4236,-77.0743,-143.1493,-38.8574,70.8373,29.8243,-8.0607,3.1771,-64.0801,72.0776,40.2258,-182.3439,-87.8646
-2726.5625,50.6007,266.9569,29.2474,172.5955,13.2542,51.6247,-99.4422,-123.6716,-105.7167,-131.3042,-27.0637,81.8810,4.0167,38.8576,-47.9909,-89.2706,118.4828,87.8914,-170.1681,-75.8606
-2718.7500,70.3153,180.3121,13.0634,121.4441,-2.8136,70.3290,-116.5688,-29.7815,-35.3018,35.6708,-81.1224,27.0855,-49.6263,56.9589,-62.4721,-32.3199,67.0373,1.7077,-43.8506,-55.7102
-2710.9375,46.3169,49.9556,-47.8299,60.5852,-100.5792,119.3482,-66.3869,130.4025,19.0510,122.9429,-104.8852,2.5993,-110.9600,142.3923,-62.9617,16.9279,42.8898,-22.1879,2.7675,-79.2651
-2703.1250,88.1063,55.3887,-4.9394,136.5276,-94.5574,161.1881,-134.4033,99.3850,-34.0274,55.0091,-135.8512,7.9238,-105.4871,182.6715,-87.4930,22.9699,13.5450,89.7124,-60.8133,-73.0284
-2695.3125,29.4818,103.4168,7.5408,113.0738,-7.9347,135.6432,-121.8202,74.9678,-44.4993,30.6825,-49.2302,56.8608,-93.4095,157.5836,-82.3794,35.6155,-9.2138,31.2033,-47.7914,-60.1985
-2687.5000,-0.1634,37.4446,12.9999,117.6139,-39.3221,140.1148,-116.2253,80.5632,-45.2301,0.3678,-6.6215,24.8113,-51.3301,124.5261,-63.0392,41.2654,-3.9822,71.6852,-41.7666,-54.3786
-2679.6875,2.6803,4.9671,13.9476,83.6542,-1.2136,66.1014,-78.1244,45.6540,-15.0707,38.5516,-42.5232,26.2698,-50.7389,87.0017,-45.2215,43.4101,-36.2544,4.6637,-3.2446,-16.0668
-2671.8750,26.7584,98.7298,-33.8666,1.9408,-85.8563,-18.6472,22.2317,107.9968,36.1703,100.9867,-53.1784,50.9933,-61.8906,1.7564,-18.5969,32.8064,22.7151,-112.1157,-13.4727,-26.5143
-2664.0625,43.2222,150.8917,-54.2953,52.6327,-106.1105,-39.9757,-35.0135,51.7431,-1.6479,80.8245,0.5604,67.1295,-45.6373,52.9572,-44.2546,-24.4060,74.0890,-164.5018,-67.3037,-9.5737
-2656.2500,-10.7719,96.6017,-75.1862,33.8794,-125.8201,-25.7273,-56.7080,104.0372,13.1703,133.2013,52.8375,82.8307,-30.8309,-6.2465,-45.4562,27.9327,21.0048,-218.3459,-49.5857,42.9110
-2648.4375,52.7208,88.8046,-47.5945,60.6223,-172.0407,-71.9569,-28.8917,20.8352,-52.3639,-58.9307,80.6013,110.0494,-3.5227,-16.9097,-38.9142,18.7787,48.4184,-84.6960,-90.3669,70.8840
-2640.6250,65.7045,66.4970,1.4877,72.8770,-84.7684,-59.6641,-51.5761,-111.8745,-72.2599,-118.5640,19.8558,48.7742,46.2952,-42.0357,-20.2781,32.1246,96.3264,-2.5482,-76.6512,84.3456
-2632.8125,49.7224,-20.7703,-49.3887,-49.8201,-63.4407,-75.3018,7.7851,20.4741,37.1976,87.8717,6.1555,-2.4404,-4.8302,-94.0733,1.4801,55.5131,150.2720,-88.3592,13.1119,33.8460
-2625.0000,136.7259,-39.0425,-30.2801,-68.5175,-117.1142,17.0855,-46.8489,39.8246,-2.3654,33.3003,25.4557,-94.6470,-22.9437,-2.0673,-30.5563,0.8951,203.2138,-36.1706,-4.1344,16.3325
-2617.1875,112.2265,7.1812,-19.6705,-58.7032,-106.2808,-10.0018,-108.9980,87.6576,-11.2570,81.2101,36.2526,-47.3456,-12.5450,7.4753,-58.1469,121.7824,72.6559,-95.4856,42.1061,27.3089
-2609.3750,50.0199,84.7034,-119.7727,-51.5853,-133.1533,-74.7723,-62.8440,133.7908,29.2696,164.4228,46.3452,36.2705,-39.8391,-20.6507,-52.5092,168.9700,45.4049,-52.5165,50.6355,0.5739
-2601.5625,13.0096,12.4318,-85.6827,-18.2596,-61.8356,-40.3222,-101.4951,95.1123,-2.9529,88.8227,7.6294,34.0973,-4.9222,13.4742,-46.5885,93.3420,43.3609,-18.3487,49.3532,-0.9729
-2593.7500,-0.3622,-36.1917,-61.9514,-68.2804,-37.8713,-17.2063,33.5092,82.0825,40.5695,75.8738,-5.4458,-16.4087,-18.3493,-0.7123,5.7382,7.3627,-5.0455,-67.5442,36.7153,-13.8787
-2585.9375,31.0052,-40.0663,-65.4855,-36.5427,-115.1674,-21.3200,30.2695,78.8059,52.7196,109.6768,28.2203,-57.1505,14.9806,-42.1134,16.1609,41.1365,26.2938,-35.0024,-1.1853,-17.0468
-2578.1250,-30.4840,-137.7991,-19.8774,-28.6423,-32.3200,-50.2593,39.1737,87.6743,79.8542,155.6158,37.0275,-48.7321,59.4710,-71.3176,47.2674,86.0555,-35.2210,-62.3121,8.0548,-8.0697
-2570.3125,-84.8386,-121.3875,-1.1323,22.4163,-13.3269,-69.0179,94.2319,106.6863,93.7802,137.6971,-18.0256,6.8526,41.1167,-53.3262,67.1188,68.1220,-53.5949,-44.4821,-9.5624,-25.9488
-2562.5000,-34.0016,-35.7785,50.7993,71.6827,38.8496,-54.5540,-0.5066,11.8909,-3.1051,-31.0265,-39.8858,-15.3546,55.9709,-39.0898,29.4818,10.3814,-3.7675,5.5481,-28.9843,-10.6388
-2554.6875,-13.8216,19.1794,36.0730,21.3011,24.3762,-106.7200,22.1056,34.4470,18.0177,28.6039,19.5904,-30.2027,41.1811,-91.4688,23.8052,68.9808,-18.5949,-115.0890,-8.0525,-24.9922
-2546.8750,13.9999,46.7881,28.9831,13.5735,-56.4604,-77.2102,15.3741,27.6568,18.8592,57.8865,12.7130,-0.3897,-38.9547,10.8426,-14.8270,26.2261,9.2287,-87.0879,-14.4764,-31.7111
-2539.0625,-38.0844,29.4894,9.9861,30.9643,-1.2003,14.4203,33.7358,8.9607,27.6186,40.2621,-80.0695,53.5367,-57.9842,65.2966,-5.3607,7.5812,-42.8554,-32.9883,39.1889,-13.3392
-2531.2500,-47.0848,-14.7124,-35.9212,21.4557,-46.8428,41.1718,98.2027,73.3708,42.1769,-5.2575,-51.7605,44.5730,-103.9067,18.8857,3.1018,36.0468,18.1500,-41.8047,100.9510,-21.8760
-2523.4375,31.9090,-76.9143,47.1605,29.9544,-37.4965,13.9432,-2.3342,9.7745,-9.3579,-69.7926,-42.4569,-19.3820,-20.8196,-8.4796,-8.1195,81.5024,62.1621,-32.6196,110.6976,-12.4226
-2515.6250,-1.5538,-74.5746,13.7878,-38.9828,39.3987,-19.7090,1.6736,49.7202,25.6598,44.2167,-38.6100,-52.7757,-17.1740,-6.2548,-3.0013,159.5004,28.7193,-136.8875,113.9809,-45.4264
-2507.8125,6.0730,-32.1328,-13.4933,-31.8100,-23.6114,25.7606,47.7793,59.7651,51.0423,91.3238,-28.6702,-43.0470,-8.4167,40.1095,14.9506,95.5941,1.3781,-129.0627,51.3500,-72.3417
-2500.0000,-37.7018,-112.0795,-26.1771,-6.0178,0.9786,49.8537,72.4728,84.3912,60.0597,43.0186,-4.1356,-55.7097,52.9500,-8.8855,54.9771,47.2773,-113.3558,-102.6396,113.3023,-10.6708
-2492.1875,-70.6315,-109.1795,-97.0173,-74.3669,-69.5771,-20.1838,187.0151,124.8636,115.2855,82.5585,-0.7564,-52.5144,20.1762,-43.0020,82.9329,13.8113,-110.2473,-168.3759,153.0950,-7.1637
-2484.3750,-35.7204,-4.4409,-96.0143,-39.8545,-68.2910,-93.3493,151.4133,52.1853,74.5623,46.9463,0.4629,-51.4658,57.2647,-6.2258,74.4115,-21.8126,-75.2935,-64.2613,46.7267,-42.8215
-2476.5625,-63.8164,2.2956,-52.0128,-33.3283,49.0000,-86.4915,84.8028,59.5036,64.7683,91.3296,7.6696,28.6065,64.3632,-72.4098,60.3433,22.5566,-68.3425,-93.1662,19.3453,-35.4850
-2468.7500,-12.8194,-16.8512,-35.9203,-52.6958,29.3842,-107.5187,101.2875,39.9221,41.8601,34.8042,96.9638,8.8105,80.5635,-56.4586,64.5759,2.0228,-17.2869,-76.9944,-33.9419,-19.0542
-2460.9375,10.0690,-100.1015,22.0654,-31.1435,50.6597,-86.6211,49.6688,-12.7727,25.5071,19.1562,82.1394,-7.0713,65.6713,-72.5590,45.1417,-13.6162,-65.3357,-53.9218,-11.3370,39.2730
-2453.1250,-74.8629,-113.1709,-66.7602,-45.3793,-38.8703,-28.4962,144.2575,45.7296,84.5512,77.7079,29.4955,-22.7438,12.9858,-51.4238,63.8438,44.9543,-149.2009,-67.6565,46.4702,60.7959
-2445.3125,-69.4090,-73.8457,-97.1979,-5.2081,-105.0108,14.0473,114.2526,14.6357,32.4150,-27.3302,35.2427,-17.0158,-18.2943,28.1491,29.4614,13.9258,-107.6691,-26.9924,52.6712,66.7059
-2437.5000,-60.8025,-99.3743,-52.4882,-31.8743,-96.0024,22.7605,86.3902,-13.3145,28.7411,-18.2296,44.1445,-8.1322,-46.4134,-0.0891,7.8384,23.0300,-98.9847,-87.1813,97.0099,75.7547
-2429.6875,-60.4968,-134.1991,-87.0842,-66.8279,-167.2947,62.1973,89.2319,63.4292,73.5850,95.5598,46.7475,-42.5352,-80.8253,2.4073,4.7118,-11.1827,-29.6013,-52.6767,63.0363,41.4886
-2421.8750,-39.8369,-79.6690,-28.3353,-10.4103,-108.2449,48.0042,1.4167,49.5057,64.5431,154.6808,-4.3015,-56.5820,-57.8794,25.2845,-10.8857,11.9532,-7.8606,4.1833,14.3971,27.5584
-2414.0625,-35.0276,30.0185,-59.4386,-6.8301,-66.0385,16.9677,7.7469,128.7286,72.5269,197.9548,1.7925,-50.4705,-88.7735,-5.6715,-23.3639,91.2403,-38.9673,-97.8171,18.8946,-3.2335
-2406.2500,14.4807,44.4203,-44.8486,42.4620,-88.1381,31.6442,-14.2247,33.6431,-23.0464,-8.0884,16.5864,38.3522,-36.9624,9.1069,-29.9271,33.2121,10.6390,-48.1251,-71.9222,11.6621
-2398.4375,4.5915,-0.5784,16.3459,68.3769,-26.6363,18.9403,-62.6028,-15.8631,-86.9496,-129.5497,40.9799,62.7814,-12.5391,-3.4778,-45.1214,57.7678,-34.1530,-90.8335,-79.1539,73.1486
-2390.6250,-3.7000,26.0245,-29.8639,23.9022,-71.5385,-28.1422,-35.3736,-24.7727,-52.4107,-29.4076,67.9676,89.8152,-22.5129,-13.4355,-42.6440,84.9211,-42.3483,-99.9548,-122.7948,100.2244
-2382.8125,58.6676,18.2830,33.5682,87.0914,-7.8026,-72.5537,-117.4986,-70.0357,-49.4738,34.3724,58.6035,6.5034,42.1698,-58.7133,-32.1625,38.7139,20.1179,-2.4280,-199.7950,127.9398
-2375.0000,7.1872,36.6860,54.1499,34.4408,12.0790,-88.8024,-96.4784,22.8435,-4.7021,92.2896,5.3836,-9.6508,26.0124,-110.8124,-15.2097,-13.3465,38.7309,16.2432,-145.6508,111.7984
-2367.1875,9.4023,39.7880,58.4210,37.4975,-20.3466,-12.3341,-91.7543,-45.5765,-67.8724,-86.0932,-27.1410,-5.1005,67.5580,-34.1787,-9.8762,-45.7013,77.0415,89.6025,-142.8152,79.3435
-2359.3750,-20.6861,-26.4069,100.3895,42.2655,58.9287,-7.1490,-86.3378,-40.3071,-31.2322,-8.7758,-21.9699,-36.8456,-1.1855,-65.8127,-21.5377,32.6460,-23.9535,59.6574,-66.2917,84.5795
-2351.5625,-18.6800,-59.5003,-6.5462,-26.8570,-10.6968,-76.8458,-9.8231,74.0692,45.5341,142.6516,19.2952,-32.4846,-70.8278,-61.3250,-20.0921,74.0856,-21.8562,-9.1976,-29.6709,51.9045
-2343.7500,48.6242,7.7075,-10.1861,-30.6670,-14.0350,-43.2248,-86.0144,33.7484,-18.0043,66.3656,52.8656,-72.8179,-74.1618,-27.5050,-59.9961,33.8093,10.5480,58.2521,-67.7644,48.5145
-2335.9375,-12.1140,17.8721,37.1333,-55.5053,70.5811,-32.6391,-75.2644,44.3662,-0.7093,77.0098,26.3817,-62.1941,10.4681,-53.7137,-18.5443,44.4723,-85.0927,-2.3488,-21.9241,59.0649
-2328.1250,-15.8371,-21.9490,33.4658,-24.3141,30.2055,-36.0355,-42.5348,3.9534,-1.3626,36.6224,22.9012,-28.5600,44.1076,-19.9024,3.3657,41.1321,-53.7096,30.0534,-25.1223,55.6097
-2320.3125,-3.4566,-79.6602,45.9030,23.9978,79.9293,13.6846,-65.7305,-56.3717,-45.8037,-60.6740,-1.4846,-15.8168,19.8634,-6.9689,-11.9995,16.8839,-41.2142,77.5615,-47.2414,68.2479
-2312.5000,17.9211,-24.3567,-5.6616,-26.6686,-8.3422,-37.5747,-6.9431,-34.7046,-22.4346,-38.9790,21.1257,6.9438,5.6250,-58.0057,-6.4726,2.6245,-20.7244,-7.9344,-26.3845,53.8805
-2304.6875,41.7546,35.4198,20.2304,-1.8702,-92.1661,-48.3710,-17.7137,-45.6103,-50.1356,-85.8536,10.1825,-40.8355,-5.1574,-31.5708,-23.8319,28.8044,4.2182,17.0125,-72.0932,42.9620
-2296.8750,8.0936,1.7039,21.6174,-0.5647,-17.4970,-83.6632,21.0184,-44.0241,-25.2161,-48.2213,11.7359,-2.1131,-3.4383,-66.6309,-3.2899,104.4843,-30.3333,-17.5517,-70.3036,44.5382
-2289.0625,47.3363,40.8755,27.9017,38.6531,-47.9322,-40.0572,-9.3368,-37.5436,-26.7008,-4.6876,-18.8082,41.5091,-70.8193,14.2192,-36.1281,37.0628,45.0193,57.7787,-134.6144,13.9999
-2281.2500,58.4880,16.9399,112.0886,84.7773,0.5372,45.4636,-143.7785,-63.1678,-65.0054,-30.2706,-44.4557,16.0325,-59.2915,61.9877,-71.2069,-62.4706,56.2626,139.0050,-89.0428,25.3486
-2273.4375,1.2359,29.6062,53.8761,62.5167,15.6087,59.5998,-93.6218,-11.1997,-26.5675,21.7305,-29.5092,104.1655,-81.1539,40.3789,-58.1962,-84.4112,69.0949,46.8292,-40.8801,3.2935
-2265.6250,45.9872,110.2739,28.6630,108.2707,-9.3267,71.7497,-118.4678,-73.2327,-69.0837,-40.2738,-91.5695,153.2992,-106.0118,52.7827,-87.7997,-72.3564,78.9306,56.6467,-65.7125,-21.7589
-2257.8125,-36.1576,62.0395,-22.4539,95.1279,13.8315,58.0013,-95.2204,-13.1670,-16.8974,56.8243,-177.5282,139.5256,-119.7612,39.2872,-72.2732,24.8015,-38.1261,79.5614,-6.4436,1.2881
-2250.0000,-118.4412,15.6492,-70.7204,48.8380,-34.1667,84.1003,-32.1297,49.7437,-5.3384,8.7630,-188.6315,91.5985,-130.6562,102.6488,-53.8558,86.8087,-49.3220,139.3341,52.6690,-9.8234
-2242.1875,-98.5680,-70.5757,23.1631,68.7147,22.9859,104.3531,-85.8927,-41.2090,-58.7382,-118.1503,-96.5836,38.8326,-36.3937,123.1700,-39.9305,33.9528,-29.3652,194.2605,72.9170,10.2025
-2234.3750,-91.4918,-133.5739,32.2540,-29.1849,105.3429,39.8091,34.5327,5.0322,38.0332,1.1340,-50.3391,11.2848,-26.9244,21.8995,22.4839,6.2794,-57.2023,95.3828,151.3468,-17.5806
-2226.5625,-101.0576,-179.2091,22.7033,-39.7062,97.0512,-5.3739,136.2937,32.6104,98.0900,28.7514,-58.7468,-70.8980,0.8947,-23.0050,79.7559,-2.0526,-102.6786,120.8559,211.1024,-63.0177
-2218.7500,-61.4638,-174.6946,26.3048,-35.0516,173.9084,-38.3871,249.1918,-37.6727,83.2023,-115.4928,-130.0050,-30.9262,40.8689,-55.7355,133.8391,-36.2419,-169.0145,89.4854,215.9890,-23.3071
-2210.9375,-63.1301,-105.4279,-13.3391,-71.6305,97.5090,-3.6367,283.8289,-40.2035,85.3894,-116.9849,-131.5192,-33.2016,39.6003,-57.6986,140.5712,-75.6825,-99.5966,53.8587,144.6127,11.1497
-2203.1250,-32.4898,-75.8537,-18.6880,-76.8987,92.3968,-8.5794,131.7605,-118.4462,35.9154,-86.1928,-136.7338,-38.1654,70.6365,-25.3514,88.0285,-43.8194,-33.8579,118.5274,104.5213,5.9044
-2195.3125,-62.0350,-34.4677,-11.2410,-141.3672,137.0727,-37.7152,102.4871,-74.8964,47.0633,-4.6084,-56.1478,-30.3210,41.4701,-91.1943,64.2736,37.8284,-28.3018,53.9923,110.2261,-23.5500
-2187.5000,-28.6666,-36.1750,24.1088,-71.9300,98.6510,-38.9457,64.1110,-76.4479,7.5796,-80.1217,-20.6625,5.4184,40.2112,17.8821,42.6828,-74.6522,-29.8371,87.3485,108.8219,-25.1184
-2179.6875,-24.1389,-67.7334,63.6223,2.6692,138.3888,37.9854,30.8850,-109.8593,-24.1000,-149.4951,-18.0244,8.3132,44.1091,58.1223,35.2682,-143.9812,-96.2291,91.8532,113.5541,14.4524
-2171.8750,-49.9107,-93.5869,37.8402,-58.0250,75.8302,48.6253,78.3569,-62.5750,25.0660,-66.1725,-6.6892,-17.0848,18.7154,33.0732,42.9462,-97.6026,-86.9221,-3.9382,158.9751,-11.2818
-2164.0625,-47.6805,-90.4236,41.0594,-55.7120,43.2722,53.2782,82.8234,-21.2940,26.6585,-61.8529,33.6444,-49.4790,59.3269,38.0345,57.4239,-56.2389,-83.6112,33.2756,126.3821,-44.0162
-2156.2500,-94.0938,-101.8999,66.6233,-32.0340,106.0579,42.2827,34.6316,40.3384,62.6873,73.8186,-13.6688,-23.5109,85.2906,27.3525,61.8537,6.4527,-130.9456,-13.1547,115.1299,-55.4035
-2148.4375,-62.0001,-69.8729,65.6904,0.1593,105.3419,41.7853,-3.0758,39.4655,27.7044,35.9889,-15.4779,11.9583,84.7646,64.1731,44.2657,-68.3655,-62.7712,18.9176,41.3725,-93.3009
-2140.6250,-9.0409,-86.9952,83.6196,54.2184,160.4792,60.1405,15.0641,-15.5772,18.3187,-19.0180,-33.4279,-6.7206,66.0960,8.8466,49.0263,-124.3384,-79.7294,-33.1564,59.4498,-75.3607
-2132.8125,-65.0598,-38.1068,23.5593,-37.7118,63.6260,0.4999,177.1952,34.3548,87.5891,30.9424,-19.3627,-28.3995,6.4406,-86.4796,79.6365,-36.3137,-136.6751,-160.2315,109.5036,-61.4229
-2125.0000,-36.0124,-44.1558,-57.4393,-8.5839,-54.1783,-43.0934,206.3652,27.3322,73.3019,-13.0474,9.7536,-36.0234,-0.1584,-56.7628,76.0358,-7.2401,-107.5642,-96.2672,67.5964,-32.4281
-2117.1875,-25.8143,-34.0464,-49.2921,-33.2984,-8.8419,-34.5443,177.6738,-38.5297,16.5268,-114.8721,55.0169,9.5073,45.3909,-47.8923,70.5017,0.9781,-132.2860,-86.1600,42.8280,12.7158
-2109.3750,-27.2123,34.4783,-50.7455,0.4010,-47.1073,1.4121,139.3783,-77.0047,-15.5817,-152.3018,89.6811,8.4421,80.3457,-11.6155,68.0770,-110.4176,-63.6096,53.3505,-64.5523,11.2546
-2101.5625,-14.5012,12.1271,35.9093,83.2116,76.7264,87.4764,5.1720,-173.3960,-52.2050,-139.6470,29.4432,21.4817,93.4028,38.7758,40.2073,-207.7261,-85.8225,206.9657,-120.8470,23.8934
-2093.7500,-76.1804,-13.6110,47.1693,57.6410,87.1560,99.1525,-20.4562,-53.1987,-2.7127,17.5854,3.8157,-3.8697,32.0665,13.7698,16.7920,-13.4388,-146.4169,146.1861,-77.5553,-1.8709
-2085.9375,-19.7433,-63.2478,32.5417,43.1841,36.6887,84.9280,-71.9913,6.0830,-33.9958,2.9029,26.2941,-18.1282,17.8320,72.8536,-18.1427,81.9480,-90.8970,131.5073,-92.1738,-16.5426
-2078.1250,-5.4474,-120.0481,46.7681,-12.4245,87.0778,26.5479,-94.6721,20.2182,-0.8922,90.0784,3.6240,-40.5445,68.4528,87.7876,-1.4326,60.1759,-76.5353,39.6716,-42.9381,-2.3681
-2070.3125,-30.9459,-74.6502,-52.8087,-72.8233,25.6657,74.3737,-83.1566,104.5686,13.5999,138.4696,51.1445,8.2391,43.2671,99.9291,-10.6024,34.5910,4.0189,49.0333,-68.5013,-27.9932
-2062.5000,13.6102,-30.1831,-6.3362,41.8433,35.2970,158.2534,-182.5998,3.9633,-98.3380,-73.1019,24.7081,18.0866,53.1237,147.1261,-52.4532,-29.9543,13.6331,164.4593,-94.0292,-18.5654
-2054.6875,8.3256,-0.5425,25.2865,71.6756,103.0765,153.2836,-115.8932,-38.5086,-85.0918,-115.5509,-17.5764,49.0908,12.1232,68.4669,-38.0137,-35.3478,-26.5919,88.0433,-28.4209,-23.9838
-2046.8750,53.2514,80.3156,0.1147,46.7172,41.0516,91.4993,-29.9856,-100.7996,-76.2070,-140.8064,30.3462,24.2913,-12.6754,80.9982,-27.5439,-60.5459,53.3986,62.8291,-53.6142,-49.2012
-2039.0625,78.4924,105.4847,61.2497,37.0649,66.3272,43.0057,-4.7835,-112.8042,-56.1116,-115.7590,19.5851,13.7852,48.8249,32.8172,6.2643,-72.4591,43.7165,-52.0898,-64.5120,-24.1276
-2031.2500,61.0016,86.9180,-31.3555,-15.3246,-26.1357,-12.2480,49.6702,-21.5651,-10.8066,-24.4709,37.0781,67.5296,30.5812,-22.1235,11.8338,18.8582,-8.7037,-140.7600,-47.1758,-6.8095
-2023.4375,101.4250,57.2468,-28.0480,95.1867,-59.6920,-45.6053,-20.9829,-91.4213,-51.5212,-58.2813,40.4787,72.1699,71.2462,-18.1749,-0.1255,22.0629,66.7695,-65.5242,-146.9446,33.4141
-2015.6250,107.0949,97.8294,-22.4884,100.9605,-17.0027,-39.7158,-88.4001,-86.0262,-62.0710,-15.8356,46.1336,114.0605,40.1669,-48.9755,-31.2877,-9.4825,107.4939,-25.0315,-176.4716,38.8860
-2007.8125,175.3696,201.0352,13.6747,134.3508,-17.7199,-77.2129,-126.2374,-124.0395,-99.2491,-53.8051,118.3906,76.5490,39.6908,-49.1701,-52.4918,-84.4341,175.8353,8.0729,-249.4167,0.9464
-2000.0000,207.8594,198.4634,119.0480,130.9570,88.7629,-44.5056,-203.8766,-201.8702,-185.1705,-204.6065,113.8563,73.2494,72.4205,-53.1680,-73.1032,-124.2012,173.3965,5.3697,-287.1806,33.2018
-1992.1875,210.9662,130.5155,84.0256,99.1689,15.8514,-43.2038,-202.9201,-164.1165,-186.6117,-203.8187,115.9286,74.5595,36.7536,-14.5755,-93.9500,-14.3741,211.5718,-62.7394,-249.3501,71.0539
-1984.3750,196.8299,117.3205,68.7622,86.1372,-35.3113,-21.1612,-254.2205,-105.6118,-143.8181,-71.2596,100.7546,59.6145,21.8448,7.7576,-110.0128,-28.8021,197.4940,-41.1038,-192.7741,92.6537
-1976.5625,89.4994,44.9269,66.2989,48.9103,-1.6723,13.6785,-219.7214,-35.3037,-78.7272,35.1037,61.3832,57.4629,19.7348,5.8913,-85.6125,41.5594,90.2190,-113.6668,-90.3999,90.0537
-1968.7500,93.5237,48.8986,72.1883,-17.9631,-68.6828,19.8678,-103.8780,-30.6512,-79.7937,-69.1954,67.3595,-10.3391,25.9765,12.3742,-50.7202,84.2516,94.3037,-108.8757,-85.6821,58.8069
-1960.9375,145.4543,-5.2315,125.9787,-0.9319,-15.7909,-0.0492,-124.1382,-123.0983,-95.5076,-125.5894,47.2395,-30.2437,43.1178,-44.2616,-46.5813,63.8494,111.2920,-58.1718,-35.0690,75.4572
-1953.1250,92.1469,12.3848,33.5216,-54.1408,2.8474,-91.2211,3.3457,4.2073,24.2125,38.7622,-8.1250,-11.4106,25.0104,-134.1527,12.1257,8.2013,93.0323,-146.7028,52.2878,56.8569
-1945.3125,74.1515,-5.6835,-21.6290,-72.0434,-52.2180,-73.0861,59.1242,-14.1996,43.8248,57.3870,-26.1799,-66.2860,7.2081,-42.7416,26.0084,-47.1579,75.0787,-59.9224,-2.0686,38.5600
-1937.5000,-1.4336,-46.3307,-28.3714,-76.5422,-21.8852,-78.5582,89.2992,15.7797,51.0738,50.4026,-32.8232,-35.7563,0.8049,-84.9425,38.1621,-17.1261,-0.4669,-98.7361,-7.0324,68.6645
-1929.6875,-34.5513,-9.5105,-62.6635,-74.5872,-92.1004,-112.5877,127.9248,54.2070,80.5783,88.8827,-31.0203,-33.7752,2.8469,-118.6937,53.2275,21.3468,1.4416,-63.1014,-5.5502,70.2170
-1921.8750,22.9354,48.9104,-40.3535,-17.0235,-69.7198,-90.0190,2.1408,2.2420,12.0419,36.9866,-44.6232,-11.1911,-11.5220,-95.8515,-1.9774,6.4087,23.9596,65.1374,-52.4664,92.3692
-1914.0625,-17.4216,78.5023,-45.8932,-22.2954,-3.1991,-59.3000,-3.5003,-39.5789,-42.1273,-77.7680,-14.0718,94.5482,-16.7419,-28.8676,-16.3104,-35.3805,18.6316,59.5361,-58.2400,86.6657
-1906.2500,30.4844,55.3613,3.8285,25.6964,-26.4269,-9.3308,-26.8986,-136.1591,-101.1659,-212.2849,-0.2624,108.5386,-2.7095,59.3618,-28.7897,-94.9322,101.5574,106.1829,-81.7712,63.2025
-1898.4375,19.4008,-26.7689,103.5627,49.6915,73.3472,16.6354,-74.2954,-110.7437,-56.1348,-76.8090,-48.4438,60.5228,23.3260,11.5910,-16.5863,2.5046,55.4954,24.8215,-59.3085,51.7345
-1890.6250,-2.2663,-12.4896,81.6959,-6.9153,14.5105,-4.9914,-96.2960,13.0702,5.7764,85.0507,3.7825,1.8995,38.7593,-46.7739,-12.6895,54.3288,103.8480,-33.1415,-11.4530,29.6681
-1882.8125,31.4302,21.1538,80.1792,-8.1624,13.0139,-6.2642,-133.9535,11.2340,-32.4556,9.2575,2.3636,-36.3805,74.5411,-47.7895,-17.5742,15.5034,137.5513,1.2523,-13.2647,27.9582
-1875.0000,22.3384,12.0056,70.8605,-17.2089,40.7088,-15.3309,-71.4312,1.5998,-40.0590,-37.3253,-43.8446,-8.4618,28.5235,17.3921,-17.8088,42.8879,58.4571,-44.1452,-22.8878,18.4528
-1867.1875,57.7046,-22.6762,70.9980,53.2061,-33.1539,59.0479,-143.4667,-35.5971,-85.7453,-74.4622,30.4006,-8.0819,-8.0433,91.0217,-67.3369,42.7099,93.8305,-8.0983,-58.0682,18.3949
-1859.3750,55.4848,-60.9321,66.5402,51.0201,36.3861,54.8128,-222.1072,-3.4076,-63.9981,31.7996,26.0515,-12.2920,24.7933,51.0362,-71.7627,37.9183,56.6235,-11.6545,-25.8568,50.7334
-1851.5625,-15.4236,10.1127,-7.6114,-19.8661,36.2224,-19.1307,-39.4515,70.0814,-0.0562,31.3579,26.0100,24.7856,24.9307,-59.6553,-2.7346,37.4109,-14.2590,-46.9014,8.6666,50.3616
-1843.7500,3.4784,98.9390,-25.9495,35.0390,17.8704,-37.2831,-20.9834,-58.6456,-31.6303,-60.3145,7.7762,6.6506,43.8806,-3.5571,2.6085,18.6874,40.6753,6.6417,-7.9837,68.7677
-1835.9375,-52.7978,147.5503,-47.4581,48.7310,-3.6580,-21.6523,-42.6912,-7.6042,18.3462,64.7860,-86.6379,22.3024,-14.3568,-24.6806,-12.9775,-3.2681,89.4377,-15.0365,41.1816,46.9473
-1828.1250,-66.7429,133.4664,-95.6472,68.7111,-88.8689,4.2670,19.9118,17.7186,65.0017,126.1723,-135.7304,11.2425,-99.2761,1.4792,-16.6922,-51.9428,74.5189,40.5729,60.6421,-38.5905
-1820.3125,-48.5641,45.4984,-3.7250,122.7792,3.0256,58.2858,110.6059,-112.8544,-22.2919,-186.3601,-153.7172,65.2661,-44.0892,19.7373,29.4350,-108.5294,22.7116,58.2809,8.2016,-21.0349
-1812.5000,-15.6308,113.2843,-45.0544,49.5953,-38.3295,-18.9472,143.0552,-152.6709,-48.3690,-228.1279,26.0464,62.0295,-48.1555,-21.2535,16.8338,-39.3718,90.6537,-14.2670,-30.4980,11.2744
-1804.6875,126.7496,185.5243,-78.9432,15.8630,-145.2538,-52.7358,-38.0518,-115.0229,-68.5467,-79.4074,213.2562,-8.7554,-7.7791,-17.8164,-52.6927,-36.7345,163.0449,-13.3597,-64.7492,-22.9588
-1796.8750,202.0261,190.6787,-32.9462,-13.9647,-100.2940,-43.6343,-140.2579,3.5355,-76.5571,-33.7796,221.3654,-73.6276,37.4893,-45.4861,-68.5345,-28.1791,203.3345,-43.5442,-24.1025,-88.2886
-1789.0625,300.9579,254.5036,-37.2989,14.8644,-140.6974,-10.8856,-143.8140,-0.2538,-115.3286,-111.5103,255.1388,-77.8457,34.4104,-49.5011,-78.4712,-69.9989,338.2896,19.9283,-101.8087,-165.9737
-1781.2500,403.8661,286.2898,70.3047,11.6373,-34.1421,-14.1908,-221.4210,-78.1148,-145.8434,-115.3121,214.8828,-117.1227,68.2946,-89.5817,-90.3155,-109.8992,299.2238,51.3523,-140.5650,-169.7195
-1773.4375,295.7477,284.0304,-6.1268,-61.6456,0.3765,-53.5646,-150.0739,29.9608,-68.2820,28.8190,175.5983,-83.4544,66.1390,-91.7429,-56.2953,-76.8637,192.1266,-21.2789,-108.3778,-172.5256
-1765.6250,216.2449,239.3710,-17.9401,-36.3272,-11.4955,-65.3532,-125.1263,54.6230,-57.3367,16.5289,163.9308,-94.1874,91.5932,-66.3149,-31.7064,-88.2467,182.6479,3.6882,-118.5965,-147.7345
-1757.8125,188.8638,141.8143,-11.6402,-62.9124,68.7368,-95.0539,-119.0823,23.3781,-18.4814,96.3320,170.3756,-124.8265,98.1525,-132.7868,-15.0260,-45.5491,120.2906,-24.2405,-75.7141,-104.8437
-1750.0000,181.9453,99.7229,18.1215,-70.0533,24.4103,-102.3062,-52.6049,52.5750,-6.8107,51.5886,163.2814,-132.0235,91.1617,-176.8172,6.2966,19.6087,78.3953,3.2834,-48.3783,-112.5124
-1742.1875,170.9854,88.6006,115.8370,-46.2391,48.0366,-78.6136,-66.1819,-34.2779,-38.8019,-35.2044,114.1445,-145.2745,78.1208,-115.9058,-3.5759,5.7235,31.4470,62.7561,-25.1002,-89.2407
-1734.3750,69.8257,92.2884,82.3582,-42.6098,51.4636,-75.1125,10.0386,41.6790,24.2045,40.8012,80.8011,-67.7159,7.8700,-149.1806,9.5505,-27.3797,-69.7172,30.0370,47.9652,-86.1651
-1726.5625,63.2544,120.5978,38.4651,56.6459,-28.5204,-81.9983,39.8450,-2.7498,29.1707,33.4325,74.0395,-37.5512,-34.7985,-44.8408,0.5135,-71.8813,-41.2865,58.9377,40.6141,-93.4815
-1718.7500,-4.3803,52.8771,3.4983,58.8693,9.4210,-6.9221,40.5895,-1.2001,60.4811,71.0501,2.2156,-36.4475,-70.5406,-43.5643,1.1995,-71.4094,-72.9014,25.7995,149.2134,-55.8414
-1710.9375,-46.5132,10.6697,-40.9799,-53.4184,-72.1536,-14.3675,106.8422,100.8677,112.5586,137.1858,-5.0964,-80.8732,-114.7858,-50.8192,9.8811,30.5762,-10.0038,-16.8417,211.3288,-63.7012
-1703.1250,16.4656,3.5486,-13.3472,-96.6148,-44.6297,-60.7311,24.2069,91.0299,44.3022,53.4080,22.7148,-90.2134,-123.9191,-59.9868,-35.4944,131.6515,18.0095,45.6131,203.5486,-36.4695
-1695.3125,-20.3841,-33.4271,-52.5508,-98.6567,27.0495,-25.9489,94.7287,88.3236,78.6049,87.7462,-16.3060,-55.4081,-125.8955,-25.0025,-3.1277,91.8503,-89.8203,8.2199,200.9185,-39.0977
-1687.5000,-84.2705,-97.4398,-81.7959,-56.7413,-76.3131,17.7822,176.2032,95.5521,114.4231,95.0232,-45.3639,-84.6624,-117.9124,55.9253,33.5638,24.9792,-118.6908,48.7667,171.2376,-68.7834
-1679.6875,-138.8971,-117.1930,-65.7822,-75.5757,-60.4171,33.7512,191.9311,111.0274,154.4476,184.5623,-103.1702,-68.6764,-101.6813,-0.9222,58.1337,4.3576,-137.3130,29.5648,116.8071,-53.2187
-1671.8750,-129.2219,-36.6335,-93.4681,-66.1029,-88.2287,7.0037,200.9502,156.8107,113.6146,82.4211,-56.6682,-59.4008,-92.1566,-28.4954,53.7208,13.0509,-56.6299,-31.3286,89.6729,-44.3503
-1664.0625,-35.3876,21.0812,-34.0075,-8.4761,-65.8858,-7.6019,75.1074,-5.2472,-4.4347,-79.5617,2.9887,-36.9852,4.5158,-5.9320,24.4805,-39.1057,36.2047,25.9479,-28.3144,-22.3278
-1656.2500,-60.3458,-2.9964,13.6566,2.3423,18.6567,-34.0124,85.4633,-32.0972,16.9006,-32.3404,13.8533,10.6272,15.3850,-32.1671,38.5072,-29.0705,-22.7494,-33.5680,-18.0985,-12.1097
-1648.4375,-49.2464,-28.0238,25.3814,12.2136,-6.7437,14.6338,133.8648,-20.9004,37.0920,-21.0801,-11.2281,22.2825,-9.6991,16.6493,54.3444,-128.9969,22.3467,10.9775,-79.8326,-37.8422
-1640.6250,-8.7471,-58.6512,65.5052,52.4764,33.2551,17.6750,63.6731,-55.2953,20.5543,-18.4116,-44.9099,-11.6735,-6.3905,19.8519,36.4170,-198.5156,-7.1575,15.9192,-75.1555,1.8244
-1632.8125,-74.2479,-123.2713,-3.3754,-48.2652,38.2423,-14.2918,141.4816,23.3188,95.2037,96.2695,-39.5837,-6.6439,-38.0884,-11.9546,60.4700,-157.0260,-1.6543,-85.1349,0.5219,6.4869
-1625.0000,-62.5951,-111.7341,7.8932,-71.8611,-24.6245,-3.1164,79.4401,71.0921,68.7931,71.1172,-28.1035,-32.4710,-63.6392,36.3763,21.8311,-110.3893,80.0023,-74.0458,46.3575,17.2992
-1617.1875,-43.6844,-57.9428,-10.5915,-122.2179,-43.2518,-21.6974,23.6617,162.1219,89.7275,162.2212,-46.3643,-51.0576,-44.9455,-19.0498,10.0581,-56.5080,63.9131,-90.7088,99.4484,35.3546
-1609.3750,-0.8105,19.7972,-39.1200,-81.6260,-71.9296,-13.3325,-5.1668,170.0953,46.1799,96.2567,-0.6682,-42.7016,-73.3013,-10.5229,-21.5410,-85.6833,70.7832,-49.4147,70.4861,6.3554
-1601.5625,3.5711,-10.9622,37.8596,-6.5408,4.9017,26.5308,-75.4891,62.5648,-7.7177,25.7845,-34.4632,-2.8468,-69.1546,29.4939,-45.5119,-82.3628,-29.8425,26.3744,40.0266,45.8540
-1593.7500,-133.2396,-111.9098,-33.3561,-38.6580,7.5311,29.1892,-0.0162,174.8274,76.2905,175.1127,-103.4528,-0.1969,-102.2052,32.3053,-16.6079,103.7581,-131.6530,-7.0303,77.3632,48.1506
-1585.9375,-146.8978,-91.7009,-83.4190,18.3784,-79.6892,88.9954,-14.3992,160.2397,29.6198,87.6018,-117.2923,22.6041,-116.1083,128.2601,-35.5660,89.0361,-40.3148,84.7163,-8.1515,33.5978
-1578.1250,-48.0576,8.0142,-53.9867,11.9072,-50.4165,82.2959,-58.2799,43.1637,-23.0969,6.5981,-51.6279,89.9025,-86.5139,121.7128,-58.8504,7.8175,24.5255,-28.0394,20.8328,26.5420
-1570.3125,-7.1145,47.8287,-47.4505,16.5367,-81.0499,14.6957,21.9351,12.1851,-1.4181,-24.3165,29.1412,95.2954,-43.8210,91.2682,-19.3062,-97.3116,29.4723,-58.6819,59.9173,-4.4158
-1562.5000,20.5741,5.3891,53.8357,78.9099,-16.9315,4.8452,-25.0881,-108.0378,-48.7610,-107.4757,56.6651,86.4256,20.6167,82.5692,-10.2794,-142.6851,22.1643,39.4244,-19.2364,22.3748
-1554.6875,-46.2347,44.4526,20.6142,82.7767,23.6812,8.4985,-21.5996,-68.7548,-21.3564,-31.1295,23.6937,90.0429,24.5453,12.3699,1.6288,-67.5528,26.3589,8.0334,-50.8857,25.6639
-1546.8750,-19.2949,106.2651,12.1424,109.3908,-21.9545,36.9016,-103.3651,-77.7120,-86.1840,-113.0240,15.4726,81.4010,16.2223,77.9201,-41.4927,-76.6761,123.2982,69.4021,-94.7733,16.7052
-1539.0625,-36.1091,54.3207,29.9144,127.2391,32.6518,91.5528,-121.8706,-96.3998,-93.2542,-131.6532,-3.5004,99.0059,-2.8543,95.7183,-54.1070,-22.5489,36.4872,17.0211,-7.4010,33.9929
-1531.2500,-90.7656,-0.4765,9.8347,37.2373,-24.5952,34.3529,-33.2269,30.0635,8.6128,30.8719,-23.3165,114.7545,-22.7800,38.6693,-19.7155,30.7301,-19.1702,-39.2014,78.1207,13.4244
-1523.4375,-21.9238,-1.7708,8.2593,70.7301,-26.3356,-4.3455,-35.0855,28.0305,5.8662,28.9039,-61.6318,112.9951,-24.2026,74.1141,-22.3203,-8.4864,-90.3332,-4.9280,76.1478,11.3520
-1515.6250,-43.9841,-24.9625,20.7802,13.3139,-13.9850,8.0577,14.1654,40.1014,5.3112,-32.9683,-48.8425,52.3279,-11.5301,12.6604,-0.9258,40.4017,-111.3912,-63.5586,123.2769,23.3759
-1507.8125,-15.3429,-66.4516,14.0051,6.5964,-57.9353,-35.8411,44.1183,-4.1310,1.7414,-77.1522,-18.3487,8.3568,-18.1587,5.9086,5.7829,32.9912,22.2485,-35.4853,116.1084,16.1003
-1500.0000,-7.5529,-58.7874,58.3775,14.0214,23.2646,-65.5940,14.2284,-34.2074,24.4631,3.8272,-10.7034,-21.4629,-10.6409,-23.6973,7.4670,2.7337,-40.9672,-28.2679,123.0899,22.9728
-1492.1875,-56.9597,-38.3260,6.5527,-36.7520,-28.7375,-80.5530,73.1360,134.5203,104.3620,135.6216,-25.2552,-36.4950,-25.3253,-38.5057,30.0002,24.2775,-90.3762,-147.2476,213.8692,7.6415
-1484.3750,-45.5166,-62.0205,-56.4233,-25.6771,-126.8914,-32.6639,83.8952,145.1062,90.4692,109.2697,-50.9580,11.3222,-14.1618,46.5301,29.7683,-2.3192,-78.9359,-102.3772,153.5008,18.1646
-1476.5625,-53.6251,-140.2576,-65.9592,-34.1550,-64.6095,-79.3197,146.1090,134.1498,110.7666,135.3671,-24.2090,37.5880,12.4408,-37.9752,62.6694,97.5430,-192.0475,-181.0539,109.5840,44.1411
-1468.7500,-62.3312,-149.0905,-111.1004,-43.2310,-109.9334,-88.5733,173.7207,88.5944,108.9688,125.8725,40.9421,28.2416,40.4371,-83.0746,79.4210,87.7999,-130.7610,-119.3196,30.0769,34.5184
-1460.9375,-28.6400,-115.5279,-41.8440,-9.9173,-76.8521,-91.4291,59.7372,47.4550,40.0994,48.7970,37.4905,24.2863,36.8302,-85.7843,34.2760,83.4629,-27.0851,-86.1864,-8.0181,67.2921
-1453.1250,-45.9527,43.0291,-95.5870,-62.6107,-58.7744,-73.2839,78.7618,66.3270,57.8856,104.7243,-16.9571,43.3216,-17.7849,-31.4930,18.1373,65.1393,-9.4136,-140.0474,8.8875,49.0617
-1445.3125,-33.6732,55.1735,-82.7337,-15.7072,-82.0927,-60.5337,92.3864,42.8065,37.0722,44.2546,-39.8052,19.9512,-40.8006,56.3953,11.5498,41.4254,-32.1505,-58.3062,-14.5952,25.4351
-1437.5000,-30.4029,-12.6850,-80.8890,-12.8114,-44.4196,14.2206,93.0219,6.2968,29.0704,7.7912,-37.6512,57.5746,-38.8221,20.2876,15.1790,41.7167,-62.8899,-89.5671,22.9291,62.8079
-1429.6875,-49.5866,-31.9983,-100.5012,38.6359,-100.2032,-5.4691,73.2044,23.3422,28.6525,24.8900,-20.9475,74.7436,-58.2938,37.7358,0.6446,58.5579,-13.0806,-40.2710,3.0047,42.7321
-1421.8750,-15.5337,-68.0682,-29.8718,37.3223,-65.7374,-6.9118,-2.3519,-15.3471,-4.9860,-13.7427,-21.9999,-0.8431,13.4787,36.4345,0.2200,93.6595,20.9644,-6.7300,1.3448,40.9068
-1414.0625,-75.8923,-58.5352,18.3475,11.6039,18.3149,4.2452,8.7089,32.5738,16.0893,34.2265,26.5438,10.1673,24.8437,-26.2637,17.8333,103.3667,-4.3995,-32.5844,-24.7094,14.6807
-1406.2500,-56.4051,31.8507,39.4182,65.7346,39.2228,25.2520,-44.3788,-20.6601,-32.7215,-18.9562,47.9332,31.0247,9.0588,-5.1165,-10.6713,50.9299,16.0736,92.4197,-110.9115,-1.6918
-1398.4375,-63.2250,-10.0558,105.1837,93.5584,104.8224,-19.0474,-14.7596,-28.1814,-2.8101,10.5807,-32.9766,60.5810,1.9635,-12.2798,9.7650,6.2089,-61.7540,85.1265,-83.4174,-9.3627
-1390.6250,-88.3888,-35.3171,6.5965,33.0356,43.0663,-44.6924,106.4958,19.9546,60.1060,57.7703,-95.2375,70.7811,-23.4860,-37.7818,47.3283,17.1449,-51.9273,59.4925,-38.2782,-35.3791
-1382.8125,-76.7603,-23.7856,-19.1921,79.3177,17.1097,-33.5313,44.5509,-6.0999,29.6648,32.7724,-83.7060,45.7809,-12.1421,-26.4786,26.8610,-9.1139,-40.3169,141.6584,-63.3348,-24.5889
-1375.0000,-83.3935,4.4926,-63.2359,72.3475,46.8952,-40.6175,73.3635,23.6094,72.9791,98.5335,-90.4284,38.5307,-19.0587,-107.4237,43.5215,-16.6127,-46.9588,98.5746,0.3554,-32.0453
-1367.1875,-62.1806,60.6182,-40.4306,93.2296,-4.4689,-17.8503,23.0225,9.1719,20.9267,11.1432,-67.3044,24.1278,-33.1352,-10.5202,6.2324,-31.2504,10.2436,84.3460,20.8971,-46.6433
-1359.3750,-56.2256,66.4950,-34.8799,98.8571,-36.0900,-12.3327,-45.5677,50.4921,43.6786,126.5138,-98.4301,-7.5234,-27.4676,-41.8678,-15.0281,83.8739,-18.8174,19.8692,61.1942,-41.4859
-1351.5625,-120.4778,37.1742,-101.5328,-0.7115,-65.9169,-42.0097,71.6401,131.6178,127.0842,243.6929,-90.7588,-0.3791,-94.0051,-34.4073,5.5886,127.8081,-48.0913,-79.7968,137.2902,-71.5253
-1343.7500,-47.1993,-30.6025,-99.6437,1.2661,-64.1964,32.8683,0.4029,96.3103,47.2562,135.4380,-88.5452,1.3145,-92.0023,77.6027,-29.9864,92.3097,-10.8364,-7.9097,32.9459,-70.0076
-1335.9375,-44.5836,-63.0319,-61.4214,39.5894,10.8631,71.1010,-35.4683,97.3690,8.1873,62.5447,-49.9906,39.3531,-53.6600,78.9618,-26.9201,93.1787,-7.2465,-4.6700,0.9639,-32.1367
-1328.1250,-14.9254,36.5806,-31.1481,102.9607,40.9755,101.3867,-116.2836,17.4852,-69.4759,-54.2921,-19.3930,68.4318,13.7273,72.3682,-40.2458,49.0983,91.3802,23.6287,-76.9612,-39.2098
-1320.3125,14.9692,31.4331,73.3662,97.5674,145.3346,58.9198,-157.8333,-62.1316,-75.6008,-59.8586,-24.5550,-10.2432,81.3575,31.0241,-23.5041,7.2789,51.2446,18.1699,-46.6205,-45.0283
-1312.5000,20.8565,2.2750,43.8704,-1.8265,115.6818,29.4536,-3.3768,-17.7318,-18.2650,-52.4171,20.2761,-39.9184,51.9794,1.6822,18.7996,13.4739,-12.9008,-46.2821,28.7239,-74.8426
-1304.6875,52.8803,-35.7379,77.5162,29.9351,112.1766,26.1401,29.2301,-95.1713,-32.5297,-129.8116,53.2436,-80.4416,85.7444,-1.5135,44.2675,-63.1566,19.0840,20.4252,-9.7801,-78.4961
-1296.8750,37.8855,-86.7457,97.1487,-20.3027,131.6563,9.8323,48.8398,-75.5928,-11.9338,-110.1890,37.2041,-60.9594,68.4934,-55.7059,49.2194,-43.7747,4.0513,-29.8628,44.7166,-59.1432
-1289.0625,-15.9691,0.3959,42.9272,-39.3880,40.2804,-8.3218,105.5927,-55.8561,26.9012,-53.4011,19.3087,-41.3274,14.3819,0.2563,47.3027,-98.2360,55.1631,-13.9938,61.3618,-113.6314
-1281.2500,-46.2832,5.0805,49.2561,36.0692,46.4576,35.0751,37.8969,-86.5520,3.3269,-48.0507,-47.0423,0.8557,20.8142,6.7663,30.1629,-92.1311,24.8123,131.4260,-5.4401,-144.5592
-1273.4375,-75.3049,12.0642,56.8835,41.8327,53.9320,79.7830,82.4930,-5.9512,43.6726,33.5881,-113.0971,45.3389,-45.4616,-22.4122,31.4266,-11.7149,-39.2493,137.1642,-34.9515,-174.1736
-1265.6250,-34.2899,18.0957,62.5579,12.6475,59.4560,121.5545,14.1256,-37.2931,-9.9054,-34.7125,-107.1196,13.8752,-39.6975,94.4654,-1.5351,-6.2305,1.7077,178.9624,-29.4128,-168.7215
-1257.8125,-35.5471,-19.1259,56.9626,-94.7947,127.7129,117.0807,8.5128,31.1449,22.9484,33.7700,-112.4072,-27.8359,-44.2024,52.0938,1.1771,25.0368,-69.6143,71.5162,74.8823,-100.5074
-1250.0000,-82.8216,-30.3601,-29.6473,-142.2386,3.9580,103.6094,68.8979,128.6067,51.9687,57.2637,-125.7051,-78.5464,-57.7177,38.7281,15.3755,48.3272,-81.9535,59.0811,62.1848,-77.2789
-1242.1875,-49.7638,-103.2492,3.0822,-109.3374,36.5492,99.4948,-45.3614,50.4308,1.7620,17.1196,-55.6677,-119.9091,-24.8897,71.7068,-15.7054,7.9875,-48.9638,127.9966,59.8444,-44.6853
-1234.3750,-10.0204,-99.4318,43.4974,-105.7334,112.8289,103.0832,-115.9117,53.9680,-18.6270,56.6879,95.0586,-116.5618,15.6236,39.3839,-28.3693,11.3568,-80.2959,131.6282,-6.7999,-41.3795
-1226.5625,55.3043,-69.0191,38.5054,-39.5267,107.7156,135.2707,-156.8614,-23.8820,-84.3811,-58.1238,164.3689,-157.6081,47.7253,34.6549,-40.6469,42.3393,-50.0581,266.8722,-82.8412,-46.4574
-1218.7500,-5.7502,-129.9601,83.1455,-30.6735,190.2411,107.1045,-38.1446,-89.0597,-61.5012,-123.2640,99.3138,-148.9965,56.4621,6.5670,16.2225,50.9943,-76.1923,240.7690,-74.2253,-37.8708
-1210.9375,-18.6651,-142.7463,69.9260,-114.6656,139.9020,57.0857,132.7196,-102.0799,12.3281,-99.2396,50.3933,-162.2370,43.3343,-6.3754,75.2989,1.8191,-18.1911,86.8310,-16.4629,-51.1185
-1203.1250,52.0029,-35.9339,70.2942,-114.0590,66.1572,-52.3265,133.1782,-101.4793,44.6871,-24.5951,14.0581,-161.8739,43.7890,-79.7212,73.2908,-34.7267,17.3849,52.5025,18.9046,-50.7483
-1195.3125,-16.2979,105.9261,35.7023,-147.4010,67.4437,-124.6799,171.6755,11.1950,79.0442,50.1146,15.7600,-160.4501,8.2743,-151.0028,74.5087,3.8059,-87.0013,19.2401,20.3182,-49.3108
-1187.5000,-37.5116,85.8758,13.2108,-62.6351,8.8295,-72.9176,112.2526,-11.0196,11.3740,-45.0614,67.5435,-145.9200,22.8463,-63.1755,46.1720,18.4506,-107.3089,104.1005,-71.1698,-34.7525
-1179.6875,-7.3963,-24.8310,41.0651,-32.5225,36.5644,-44.7975,30.1783,-56.8611,-21.7826,-53.8651,58.6578,-117.0290,50.7508,-35.0093,23.9981,83.4658,-147.2924,64.3192,-76.3097,30.1733
-1171.8750,-47.5950,-100.8366,-4.3886,-108.7055,-45.0057,-15.9735,95.7985,83.0090,56.4318,49.0424,13.4563,-162.4267,5.3371,-6.1464,42.9003,112.2097,-118.5950,22.2507,22.2445,58.8176
-1164.0625,-45.4704,-167.4917,-2.5060,-105.5388,-80.2288,22.2069,22.7612,47.2514,4.4438,-22.6825,15.5829,-124.4674,7.2535,106.0652,8.4322,76.3353,-80.5795,60.5368,25.1562,96.8375
-1156.2500,-60.9214,-182.7022,16.8066,-120.9281,-24.0189,5.8414,6.1790,103.9718,39.2984,70.0661,-0.8574,-105.0528,-9.4029,15.7306,6.0243,169.9326,-131.1413,10.2835,79.5227,116.3313
-1148.4375,-20.2401,-142.7629,-13.7423,-116.1612,-54.6637,-24.3690,-24.2594,110.8517,31.7478,76.9776,4.8315,-135.4774,-3.9201,-14.4576,-6.3260,175.6993,-91.5802,50.1958,85.0370,86.0007
-1140.6250,13.7715,-142.4678,-13.9504,-116.0396,-18.9650,-24.2298,-24.3445,37.0978,25.6315,77.2548,4.8475,-135.5342,-4.1042,-14.3088,-10.0609,175.8382,-126.7018,15.4728,84.8973,86.0448
-1132.8125,-35.6852,-157.6220,-65.6161,-201.3540,-34.7324,-75.5388,107.1056,132.9049,111.0411,209.0999,25.3997,-114.0245,-55.7575,-29.6175,23.3304,197.5518,-107.2975,-139.6721,69.3013,70.6626
-1125.0000,2.3330,-83.2815,-98.7924,-197.1718,-67.0036,-71.3410,148.0416,100.2360,103.3980,140.4761,-6.5732,-110.0003,-15.9257,-25.4329,48.9140,91.7917,-68.4277,-135.2947,73.2036,74.8060
-1117.1875,2.4678,-118.7853,-101.8338,-162.8396,-70.1332,-73.9870,182.1283,97.7445,91.3681,64.0174,-8.4145,-75.8153,-17.9637,-27.1020,57.8044,52.2078,-69.4327,-241.7489,107.2533,109.1214
-1109.3750,61.2848,-58.5821,-149.1817,-137.7988,-190.5704,-83.9218,171.9040,50.9548,41.1810,-18.7480,53.4183,-12.9138,-28.3211,-1.0665,30.6390,42.3400,60.2417,-180.4831,25.9973,99.1646
-1101.5625,134.6832,14.2208,-72.9445,4.8393,-78.4159,-81.2538,26.2718,-55.2136,-28.9235,-51.8888,55.8280,25.6046,45.8934,-34.4391,6.1901,45.1038,27.4910,-72.6043,-76.6577,101.8359
-1093.7500,71.3648,57.3299,-27.4235,12.7845,3.0175,-35.2727,-1.0779,-82.0542,-36.8864,-42.7022,65.5164,72.4394,55.3820,-25.5059,4.9438,-18.8016,0.0166,-63.3986,-104.0208,74.8311
-1085.9375,74.6253,61.0454,49.6924,15.3405,7.0523,42.3212,-69.8495,-114.2784,-82.9888,-110.9000,69.7789,2.8950,96.4516,89.0244,-6.7507,-87.0801,73.0997,-26.5655,-136.7888,42.4546
-1078.1250,100.3514,52.2585,77.2934,-28.6058,71.5824,33.4181,-115.1186,-86.9764,-57.9496,-10.5720,60.5167,-6.1336,87.0035,43.0457,-21.0922,-22.8331,27.6413,-70.2213,-76.0531,33.6053
-1070.3125,139.4509,56.8593,46.2837,-24.1535,3.4967,2.9186,-73.9930,-7.2473,-48.4481,-3.8176,103.6220,0.2472,55.9300,12.4657,-23.0579,20.8404,67.5531,-100.4534,-106.9134,3.1846
-1062.5000,208.8205,56.7567,117.5601,10.5984,37.7072,37.7234,-185.5690,-118.1979,-159.4840,-188.7435,137.9989,-2.0530,127.1352,10.1731,-48.9760,-55.1545,101.7277,-30.3680,-177.4807,38.0942
-1054.6875,193.1628,5.6689,136.8254,-39.6398,93.9088,20.5316,-129.1557,-172.1364,-143.3452,-205.6656,157.3536,-19.3265,146.3213,-7.1296,-17.8422,-71.1262,120.8752,-79.2505,-158.0672,58.0339
-1046.8750,185.8822,-35.9991,92.4842,-11.4670,12.5099,50.7402,-136.3609,-178.6693,-157.2499,-248.1750,186.0823,-26.1758,138.8885,96.9503,-29.3718,-113.6733,183.3922,-51.7068,-130.2647,51.4093
-1039.0625,161.3213,-24.9112,102.8752,34.4524,59.8492,24.6998,-162.8227,-167.4260,-130.1197,-163.9050,123.5350,-15.2531,112.1791,70.7671,-39.8497,-66.4408,88.6286,-74.4005,-83.7119,62.5679
-1031.2500,72.9405,27.3787,10.4518,-18.4210,4.3681,6.8676,-71.1003,-38.9570,-47.3869,-35.4099,68.1487,3.8877,56.6420,15.7772,-18.9089,-10.9791,34.0333,-91.8629,-32.9675,44.9599
-1023.4375,74.6365,29.7832,12.1145,-16.1900,5.9789,-27.8597,-33.2935,-72.3652,-26.0271,-32.7891,32.8276,-30.8437,95.1734,-19.1191,15.0563,-45.3870,35.5030,-55.2040,-31.1311,47.4868
-1015.6250,32.4053,-10.7007,5.8638,-56.8506,36.6741,-69.4740,-2.4063,-41.6460,-1.3331,-1.0494,63.5794,0.5498,88.7773,-96.9219,27.6773,-13.6639,-5.9589,-60.4117,-2.2063,42.1460
-1007.8125,3.2447,31.9142,-23.2955,-15.3976,-29.5337,-61.9743,-31.4459,4.1905,9.1836,44.8070,71.4008,9.0666,59.4542,-16.6268,7.0754,-78.8081,70.6378,-53.4803,4.8116,13.9435
-1000.0000,32.1553,61.6332,-31.3662,14.1549,-37.6515,4.6325,-39.3962,-2.8428,-27.2560,-36.2109,26.2843,38.7087,14.2009,49.7512,-19.9772,-48.8144,28.2936,-58.4160,33.9267,43.8771
-992.1875,9.5941,39.9179,-89.8984,-42.7356,-96.2296,19.7925,49.1883,49.6930,-20.1281,-93.6605,-33.3203,90.9268,-45.5332,64.6733,-16.1653,40.7559,41.4691,-44.7683,81.5810,22.3939
-984.3750,25.3486,-15.4358,-74.0974,43.7262,-116.4655,37.3121,29.1019,-6.3878,-10.8615,-76.7159,-53.6109,34.5208,-28.9499,44.9337,-10.5328,58.7096,20.9555,7.2440,96.5804,3.2973
-976.5625,-24.2760,-63.1259,-50.6654,-4.1583,-20.0735,24.4849,-21.3508,91.2204,56.0093,131.9090,-30.2790,21.8007,-42.7519,31.8334,-13.8169,9.3447,-63.9497,-5.0730,118.2186,-9.1104
-968.7500,-63.0768,-65.9450,-89.3919,-42.1746,15.1535,59.5139,14.0209,127.6896,50.8216,94.3864,41.8700,-16.0337,-7.7292,66.5746,12.3530,-28.1396,-68.0472,62.4990,79.6874,-46.6218
-960.9375,7.6352,-65.1999,21.4157,28.3660,124.9229,97.0874,-134.0716,-18.2677,-64.2326,-51.5557,77.5319,-52.2775,28.8141,30.8416,-36.6075,45.9651,-32.6372,98.6463,9.6977,-45.5396
-953.1250,31.0716,-39.6966,9.9582,17.6605,113.4279,49.4183,-108.4282,8.5458,-38.1586,12.2722,102.9072,-25.7444,17.0745,-54.1573,-30.0961,72.8407,60.4993,18.5810,-36.5575,-55.6663
-945.3125,88.5362,53.8623,33.5472,41.0094,63.9720,37.8101,-157.7610,-76.5694,-91.7482,-72.8335,90.2954,-37.1374,40.3554,43.8812,-51.2215,-48.2047,153.6511,77.5932,-83.7746,-66.6972
-937.5000,66.8762,68.3433,47.0184,20.2598,77.3950,-20.8977,-107.2116,-61.7541,-59.0994,-21.0056,66.5512,14.4036,17.4997,21.8001,-40.7917,-33.3079,60.6652,22.5343,-70.1030,-51.7843
-929.6875,51.5388,89.1944,-4.1770,40.8705,25.1515,-35.2539,-48.3489,-1.5608,-24.7449,38.1992,51.1211,36.3343,1.9620,-29.9461,-24.4770,25.9821,44.9962,-26.1363,-121.0918,-65.4756
-921.8750,72.1193,41.0115,14.5639,97.4329,7.8522,-15.6559,-103.5589,-18.3904,-73.2327,-51.6236,33.5998,20.2546,20.3370,26.2448,-40.2215,10.2529,30.2356,31.1735,-135.1387,-8.1718
-914.0625,8.6773,13.8551,-16.7142,105.9996,13.5298,64.9488,-60.7935,-48.1938,-71.6413,-80.4252,2.0396,64.2100,-11.3271,69.4209,-35.9452,17.5537,-33.5571,4.5204,-126.1993,36.1768
-906.2500,8.2119,14.7137,-54.0082,106.5659,-96.8089,65.5590,-24.0579,-82.9720,-51.2202,-79.1986,1.4464,28.1965,-12.0241,106.5766,-25.5123,-18.1089,0.6133,76.9004,-92.2709,37.5733
-898.4375,19.7620,27.6308,-41.2718,48.1820,-48.1176,42.2209,-11.2872,-32.6627,1.3308,8.1221,-60.1335,5.2731,-36.7079,45.7618,-18.4924,-77.6805,-24.2105,-16.6393,24.6962,15.0651
-890.6250,12.1808,56.4604,-83.6476,6.7085,-127.5395,73.7915,56.3556,37.5718,50.5742,77.3630,-28.8593,1.2897,-79.5259,40.8330,-10.0468,-81.3232,3.8282,-57.2303,52.5473,-25.4943
-882.8125,29.4175,5.1562,-66.1867,95.0908,-110.1177,56.2119,0.8231,19.6849,19.2942,60.4774,-11.7744,20.1926,-99.5219,58.7232,-40.4303,48.9238,-50.3250,-1.9377,35.2351,-6.1551
-875.0000,-54.4694,-7.2264,-80.8377,13.3760,-87.8168,42.5255,60.1620,116.7279,78.4882,157.5206,-26.8201,7.0299,-113.6527,7.4871,-17.3830,183.1080,-132.6120,-83.7138,92.8029,18.1307
-867.1875,-42.4347,6.3659,-104.5478,-9.3831,-147.5765,18.7891,35.4170,94.7423,28.7000,61.5455,-14.9598,-16.1408,-101.8660,57.1847,-32.2344,123.2745,-51.9947,0.4988,35.2996,32.4163
-859.3750,-40.4874,-59.0644,-67.3306,28.8115,-110.4026,57.0082,-1.3951,59.7419,18.9028,63.5541,-15.1917,-14.3131,-101.1759,57.8135,-37.7762,89.4218,-84.4712,39.6985,1.7305,71.7005
-851.5625,-79.1156,-28.0234,-71.6737,25.4678,-114.8024,53.6832,-5.7860,94.2158,26.7000,98.0279,-20.0156,94.0104,-70.0743,53.8696,-27.7288,87.0465,-55.5335,37.3979,-37.4041,69.4881
-843.7500,-35.7237,89.0852,-23.9777,107.1776,-68.1612,66.4056,-104.1607,-40.2326,-36.6628,37.5742,-8.8326,70.4259,-59.9622,65.9479,-64.4861,26.7637,24.4178,85.1853,-97.4976,46.3788
-835.9375,-27.4062,64.1750,-13.3441,81.8389,16.4114,41.0775,-94.6173,-27.7045,-29.3129,50.1031,1.2556,45.8365,-49.9455,-34.0420,-52.6966,76.4717,-38.7082,60.9595,-88.6635,22.2640
-828.1250,-63.2143,-40.8122,-11.8169,82.4113,-19.1247,43.6586,-19.2158,12.7484,24.3131,89.5555,-34.7992,-24.8088,-12.0645,4.8474,1.6111,43.1189,-74.9740,132.6805,-88.9496,-10.9000
-820.3125,-82.1049,-57.8364,39.6465,99.9337,69.2728,59.1989,-78.8907,29.1883,8.1372,106.9894,-93.9469,102.5408,1.7230,19.6584,-10.9337,22.7554,-94.3329,10.3809,-107.2909,42.9416
-812.5000,-102.4714,99.7134,15.6417,45.0092,45.1916,-0.7104,-101.0393,81.2068,-17.6445,84.9965,-154.5886,301.4779,-58.9802,-3.9990,-57.4526,37.9728,-45.1818,-147.3248,-57.0961,95.3843
-804.6875,-139.8220,63.3405,10.6716,114.1400,3.1461,32.4335,-107.1711,5.3068,-68.4566,-64.9126,-271.2329,334.5136,-64.6754,101.3661,-66.9450,35.2780,-83.0253,-76.9411,-22.8628,165.9277
-796.8750,-291.1534,-120.9477,-39.2679,105.3219,-9.8682,93.6259,-10.2791,30.4920,10.6024,-2.7421,-395.8692,322.6480,-79.3596,88.7566,-18.7414,170.6704,-234.8527,-84.4681,106.4007,228.5678
-789.0625,-385.2043,-176.9084,-98.9112,49.8082,-69.5898,72.1128,75.8706,119.0006,112.3905,159.7502,-419.2437,229.1319,-102.7791,102.4179,19.6669,224.3921,-258.4103,-34.6517,154.9406,208.5587
-781.2500,-322.6340,-218.1962,-69.9146,42.9432,-40.6714,65.2457,31.6408,113.1922,83.8606,116.9316,-317.0128,186.3134,-74.5867,131.6934,12.1091,107.8025,-232.3612,-5.1472,147.1120,203.2524
-773.4375,-295.4928,-188.8539,-75.3358,35.6835,-10.1711,96.9779,98.9809,110.0165,89.4627,76.7400,-250.2271,220.1428,-80.8330,126.5441,33.4559,-4.1526,-240.7517,-9.9938,139.8609,163.5989
-765.6250,-226.5295,-152.6301,-74.9163,106.2798,-46.8306,98.5560,62.1372,2.7127,31.5010,-29.5856,-213.6360,185.8752,-81.2677,90.2162,9.3455,33.7811,-172.3380,96.0490,103.4452,129.8528
-757.8125,-205.3460,-94.1335,-52.2657,94.1223,49.7364,-23.6146,48.5189,27.6904,63.2837,68.3609,-227.8340,174.9088,-59.4970,-68.8929,22.8251,96.9975,-151.7146,50.3789,90.2663,119.4122
-750.0000,-192.9404,25.6307,-74.3745,73.2163,27.5315,-80.5323,63.1154,7.9399,25.3757,-24.4189,-177.8273,191.2422,-82.5154,-54.7781,6.8962,3.4907,-34.8759,31.0132,68.3182,100.2790
-742.1875,-150.0172,0.9732,7.0526,152.8567,72.8615,-70.9023,34.2296,-127.2205,-18.3241,-123.5987,-133.3168,166.1670,-39.0319,-10.1447,11.4655,-94.4251,-27.5301,77.2358,41.9109,111.7484
-734.3750,-157.2198,-3.7495,0.3611,112.3958,66.0676,-40.3720,137.2137,-94.4456,58.3435,-17.8379,-140.9538,125.0407,-82.6938,-52.6403,42.5997,-61.4087,-70.3169,3.4067,70.3852,108.1658
-726.5625,-60.1981,25.8056,-44.0876,106.1907,-15.4891,-10.5879,129.4095,-62.3898,45.6336,-58.8100,-112.3883,83.2133,-91.1474,-59.9155,31.1861,-103.1106,27.1100,33.8726,98.0948,103.8849
-718.7500,-34.7092,-51.1073,-18.0549,62.4797,-26.5700,-55.3008,119.0783,-70.7991,31.7586,-104.2608,-124.3666,74.9470,-66.1508,-69.7173,31.3557,-74.2732,-19.0065,27.8724,159.2930,133.1557
-710.9375,-72.8410,-86.5908,-91.6360,-8.8252,-64.2706,-55.6140,191.1088,3.2117,77.9645,-29.2898,-125.9841,40.1348,-104.7956,-35.1454,40.2577,37.0038,-57.7614,-40.6853,192.8658,98.8829
-703.1250,-106.9487,-83.9926,-91.1790,-42.0803,-26.9354,-53.8872,154.1525,-29.6903,88.4310,46.7778,-126.5930,6.4249,-69.4378,2.4363,39.1191,114.3679,-127.5063,-37.1561,193.4687,102.7182
-695.3125,-161.1287,-99.4053,-108.7876,-92.3862,-7.6760,-34.2134,173.1092,102.3871,170.5103,215.8148,-145.2974,-8.2786,-124.1660,-52.0612,42.9319,99.7075,-217.3264,-87.6290,280.9937,88.5574
-687.5000,-182.6840,-118.1320,-129.7460,-114.0353,-101.7769,-15.8848,152.6712,195.1325,145.6527,161.5135,-57.4008,-25.2791,-109.2803,2.0578,33.8080,8.7260,-170.5320,-1.4000,259.1453,35.1045
-679.6875,-120.2712,-87.8329,-24.7150,-48.6851,-33.8952,-20.5627,109.2047,154.9120,93.5867,48.2479,-64.5523,-28.2219,-42.4377,-40.8600,44.4681,-31.2181,-142.7762,31.8666,218.2811,32.7063
-671.8750,-106.6763,-36.3016,-8.4998,-32.1338,-17.8399,-40.0448,87.9000,136.9204,98.1505,103.2086,-49.5454,-45.9121,-27.4475,-98.6086,45.7657,25.0696,-23.8449,14.3844,127.5923,15.5612
-664.0625,-88.2052,-14.8326,10.6054,22.3126,1.1020,-18.6299,-39.5452,85.8627,19.4248,16.1008,-67.6824,-96.6518,64.3958,-78.4948,28.9127,48.2901,63.9489,105.8433,39.7840,2.3704
-656.2500,-126.4090,-13.9738,9.0490,22.1018,110.3712,-18.8739,-5.6750,51.1910,4.4171,-19.6198,-33.5110,-20.9886,61.5484,-80.0667,37.2740,12.8953,-44.9425,37.6920,3.3083,4.5822
-648.4375,-99.2883,120.2631,0.8381,15.2438,64.9820,-25.7664,59.5019,-28.1036,-9.6619,-61.9658,-7.0359,11.0766,52.0093,-14.3177,41.4090,-66.1162,-54.5193,-2.0558,-74.8396,0.1991
-640.6250,-71.8929,115.8280,-7.0855,9.6804,55.8841,-33.3618,12.9427,-34.0678,0.1668,6.0196,-53.3034,5.5013,41.7282,-60.3064,25.0454,-34.7990,-62.8316,29.5382,-81.7024,32.1706
-632.8125,-106.5164,84.4309,-41.0187,12.1137,21.7606,-65.9581,52.3423,8.9970,39.5329,85.0273,-15.6146,11.9764,6.4037,-94.3266,27.7797,45.5413,-63.1724,-0.8199,-80.5854,2.1949
-625.0000,-26.5160,62.7145,7.6881,59.1892,34.2728,21.0864,27.3579,-49.2599,-26.5231,-46.2933,-4.3157,-8.8485,17.6934,-44.7407,17.6082,-12.4306,-53.9029,83.5082,-175.8314,-18.0748
-617.1875,-2.9382,54.6354,31.9771,49.8559,95.3624,10.7170,-23.0495,-58.8853,-47.4317,-55.9852,18.5429,18.9841,40.5388,-20.5954,5.3332,-21.7617,-66.0656,41.4718,-151.5021,10.3067
-609.3750,36.1246,97.0900,-0.2366,56.0206,25.9330,16.8410,-18.9996,-13.9875,-43.7906,-48.1569,58.8573,27.3620,6.8439,20.0165,-9.7856,-50.5609,43.2397,14.9890,-146.6976,19.2424
-601.5625,90.3620,48.7712,55.7440,41.3758,44.6891,37.1585,-110.7843,-65.8548,-88.4452,-99.0964,76.3359,-24.0105,24.3090,-34.2089,-38.0363,-28.1322,60.7141,72.7486,-127.7102,42.4324
-593.7500,69.8878,-39.2072,36.0217,-46.9727,24.7255,-18.2280,-57.3086,28.5998,-27.6183,-5.7210,92.0815,-77.0269,3.0332,-128.1690,-22.0367,66.6151,3.4714,-14.1508,-41.4484,26.9711
-585.9375,44.5525,10.0045,11.4463,-35.1720,-0.1000,-41.4731,-46.7265,44.2257,-2.7512,46.8346,28.9365,-60.8336,-23.1336,-116.0219,-23.9807,45.5345,-22.6491,36.1366,-31.0622,6.7116
-578.1250,-10.0543,100.0105,-8.3968,18.3706,53.8014,-59.9763,-30.4255,64.6391,26.6774,103.1781,-29.5096,-2.8305,-7.6022,-99.1633,-4.9510,-7.7626,-112.0501,-13.7890,-13.9472,28.2501
-570.3125,-61.3307,158.4081,-59.8982,39.2669,-35.9726,-74.1290,27.1763,88.4250,36.2578,90.8833,-46.6511,59.5795,-61.7631,-114.9806,-9.0412,54.3207,-59.1258,10.6883,-29.5094,17.1913
-562.5000,-2.5244,149.9455,-35.3057,136.2573,-47.6621,-11.1835,-59.1688,6.3353,-39.2675,-28.2904,-59.7319,51.1519,-38.8680,-90.7298,-38.1515,45.5318,-71.1239,109.3049,-74.9965,46.2864
-554.6875,-71.0401,120.2172,2.9797,103.9397,-45.6761,-7.5414,-57.8617,85.9799,3.9473,51.2748,-96.1450,57.4735,-38.3177,-125.8125,-24.6287,51.4729,-35.4415,45.6664,-37.8025,53.1256
-546.8750,-7.6728,152.4164,-2.8374,135.5178,-125.7982,24.9898,-64.6935,9.5513,-46.9220,-62.2367,-66.6972,55.7485,-45.9074,-95.0318,-39.2768,12.3438,133.1076,148.9728,-113.7194,51.9093
-539.0625,34.7247,163.6974,42.3899,145.1381,-80.8858,70.5643,-131.4946,-52.7930,-92.3349,-122.6787,-60.2377,68.1269,-75.4903,-87.2415,-75.9657,-49.7134,139.6748,196.3630,-105.6002,64.7907
-531.2500,50.9591,218.8587,25.4605,92.6063,-98.1439,54.9842,-112.4779,7.7339,-67.5782,-64.2568,-42.9747,18.4071,-58.2594,-31.6312,-64.2896,-171.9045,119.0671,146.6502,-124.6498,15.5719
-523.4375,114.0245,180.9049,131.3717,122.9078,-29.5637,52.2464,-191.6420,-66.8637,-122.8834,-101.9549,-11.9029,18.5856,-27.2173,0.7807,-89.0346,-100.2097,76.2860,180.8236,-200.8670,-20.7509
-515.6250,74.5745,145.4888,127.7736,50.6917,40.4969,12.9925,-159.3372,7.0674,-61.0128,44.8760,-17.3681,55.3158,-32.7142,-77.3483,-71.7366,84.0157,0.9890,110.5357,-169.6024,-19.5326
-507.8125,78.2130,188.2097,95.2733,20.5719,-29.3511,18.8293,-155.9717,51.1180,-41.2594,89.8193,22.2293,64.1999,-30.1463,-73.4113,-71.1645,19.3590,3.7688,155.3963,-165.2600,-10.1672
-500.0000,48.4374,162.5642,65.3681,28.0413,-23.6108,63.2574,-188.0406,97.7886,-22.0574,136.3828,26.3870,74.7383,-26.0202,-30.9114,-71.4885,-118.6799,-26.8732,200.8910,-124.3311,0.8454
-492.1875,0.8533,154.1535,18.6561,18.6972,-33.6920,54.8781,-198.9378,201.6767,2.7797,203.1526,13.7150,69.5244,-37.7336,-41.2468,-75.0507,-87.5038,-5.3309,158.6277,-101.2180,-40.8981
-484.3750,67.4533,154.9728,52.1403,87.5383,-36.5877,53.6902,-239.6642,92.7884,-77.3536,57.1464,9.2089,34.5566,-42.2834,-44.4224,-103.2524,-12.0989,25.3843,230.5978,-173.9137,-38.3957
-476.5625,100.6857,121.4770,48.2691,52.0120,32.1466,13.1414,-245.7752,55.5791,-88.8262,56.8156,3.3214,72.2900,-12.2168,-122.9783,-99.4846,133.9821,-47.2679,163.2593,-174.9777,35.7958
-468.7500,64.9625,196.0588,-27.5490,18.5332,-80.0729,-23.3602,-211.8853,130.4370,-68.3657,95.5484,36.4496,112.1244,-53.1291,-125.5102,-110.1864,136.1234,-13.8824,133.0193,-176.0130,76.0760
-460.9375,30.0756,200.5237,-26.5115,56.8886,-80.4439,-59.0165,-249.1798,135.1678,-75.8507,99.1544,-2.6072,116.8576,-55.2253,-89.2312,-118.2969,67.1305,56.3324,139.6569,-209.2095,118.2425
-453.1250,-47.8226,268.0195,-70.4775,51.2335,-87.8333,9.3166,-184.5021,94.9272,-51.0409,132.7889,-11.6998,151.6334,-100.3601,-59.9888,-113.4944,64.1551,-23.4670,102.3272,-216.4188,116.4426
-445.3125,-0.0303,285.2398,-56.7457,66.2614,-111.5321,61.3363,-245.1507,1.4115,-99.5049,76.1446,-73.1263,133.1561,-125.8318,25.9144,-152.5204,81.9089,-11.5895,190.7159,-236.9320,135.3804
-437.5000,-54.4481,164.2936,-40.2249,49.0667,-95.4569,79.1372,-266.0151,58.7264,-70.7051,133.3156,-95.7759,154.5233,-111.5372,-31.4227,-145.6585,212.4895,-31.9247,141.9210,-151.6541,157.1534
-429.6875,-54.1678,169.0809,-74.0068,16.5606,-166.6953,46.6270,-229.2062,139.7483,-75.3757,103.1861,-94.7515,162.6386,-184.5677,-66.0918,-166.4026,293.7657,38.4321,112.8643,-150.6953,128.6645
-421.8750,-34.4511,158.3537,-53.3383,38.4913,-109.4906,31.5585,-281.9708,127.2334,-91.6951,90.5240,-113.3073,114.2497,-166.1778,-46.3515,-174.2840,244.4972,22.2197,102.2903,-130.2991,154.6617
-414.0625,-33.2929,94.1119,-88.2220,6.8628,-107.8530,34.9359,-209.3113,206.1859,-9.0860,206.3179,-113.4377,84.3568,-203.3734,-45.1965,-148.9986,177.6959,-48.5569,5.2059,-22.4717,162.1407
-406.2500,-5.6384,91.3942,-57.5956,1.7251,-151.7205,29.7980,-180.1807,167.6479,-29.7387,130.6214,-159.0993,120.0016,-212.0957,-15.5764,-145.2636,138.4112,-21.8535,107.6496,-64.1548,161.1547
-398.4375,-17.1944,154.5004,-33.1743,27.3594,-90.8001,18.4410,-194.2666,121.9383,-71.5832,47.7613,-173.9832,186.4873,-227.0476,-103.1943,-159.8216,203.9465,-69.3619,136.9095,-75.0480,190.9989
-390.6250,-33.6049,247.7813,-85.6061,48.1244,-180.7477,-69.7757,-137.2359,110.4002,-18.5388,147.0687,-154.7370,213.1607,-280.8729,-119.6865,-161.7250,192.6446,-51.7259,126.3549,-55.8105,181.0236
-382.8125,-26.7246,224.3811,-77.7346,92.1756,-209.3990,-60.6965,-167.9397,85.1850,-11.6539,195.6913,-149.2193,152.1770,-311.4225,-75.9124,-180.3674,167.6569,-45.8073,139.1294,-83.2822,194.3799
-375.0000,-40.6505,215.2051,-129.6686,45.4108,-151.8630,-109.4228,-73.4707,148.1866,14.7100,184.5230,-129.5229,179.4336,-291.8047,-128.9649,-134.4838,156.8811,-60.6958,96.1413,-97.5641,221.9613
-367.1875,27.6222,253.2572,-130.3914,9.8343,-189.1268,-108.9542,-112.8312,151.3937,-13.7375,150.5564,-58.6498,183.9227,-259.0100,-166.8431,-143.1290,86.3057,-63.3860,241.3869,-133.6587,226.7674
-359.3750,-24.3617,206.0878,-72.3629,65.9784,-132.6464,-123.7431,-167.4572,139.3726,-4.1809,212.3540,-114.0475,173.1987,-204.4937,-184.0027,-132.4349,148.4891,-187.3406,300.3977,-150.0034,216.3447
-351.5625,-121.4979,218.7889,-96.4831,110.9542,-157.3294,-37.6936,-193.2484,192.2146,-3.7946,228.0071,-177.6152,191.3565,-231.1474,-99.3395,-147.6039,165.5343,-179.4549,315.2767,-140.5050,160.7957
-343.7500,-38.0924,273.0532,-44.0546,162.4583,-141.4708,52.8986,-252.5072,65.6235,-110.9965,27.2236,-163.6591,249.1035,-217.2733,-11.1561,-182.4892,75.1448,-97.0308,299.7236,-197.4587,145.8237
-335.9375,8.7094,288.7410,-30.2344,69.3443,-55.2312,-5.1239,-166.3787,46.4529,-68.6548,44.8644,-153.3198,268.2850,-206.0239,-108.6017,-146.5026,93.1661,-122.2101,175.5912,-80.0177,128.2701
-328.1250,10.4611,260.4085,11.5428,74.1650,-51.0413,-73.2078,-127.3202,55.2397,-36.8789,90.4628,-151.0471,241.4495,-167.8411,-142.1300,-112.9683,102.1317,-120.4460,148.4353,-112.6395,101.6830
-320.3125,9.6153,193.4992,46.7252,74.3679,57.5470,-36.9051,-166.8756,20.4312,-49.7011,55.4544,-155.3882,172.0473,-135.2760,-108.2886,-102.8908,30.5039,-123.2823,188.6954,-77.8755,142.5130
-312.5000,-42.2178,182.6182,29.9118,-9.4446,77.1251,-15.6174,-112.4529,44.6256,-32.2721,42.4412,-137.7394,160.6762,-117.7291,-89.4744,-74.6365,-54.1270,-140.1082,143.9803,-58.1297,168.3614
-304.6875,-40.8494,83.9566,32.3020,-6.0698,78.9041,-12.1415,-147.8598,51.0290,-43.2870,48.6450,-137.9046,131.5417,-118.0001,-88.4875,-84.5191,24.4412,-139.7349,221.4806,-91.1912,176.4297
-296.8750,-84.3338,9.4696,-14.1588,-12.5669,68.8219,-57.5247,-196.1307,156.6010,-13.9284,154.0098,-185.9300,127.5875,-166.1392,-136.3706,-111.8300,167.1643,-184.2128,219.1406,-29.1144,209.6618
-289.0625,-104.2593,135.5489,-106.0549,-30.5286,-61.7175,-75.3595,-142.8804,214.7176,8.4062,175.9116,-207.4109,77.2085,-187.7415,-156.7197,-106.5454,189.4451,-135.1373,240.3737,-48.5024,196.4599
-281.2500,-71.9791,172.8473,-72.7401,-32.3091,-29.0557,-150.0077,-148.4501,179.0436,-12.7384,139.0153,-176.7002,116.0610,-157.1562,-234.9032,-101.3225,189.9327,-173.8575,278.8104,-85.6898,235.4727
-273.4375,-30.7366,219.1161,-104.4690,-59.1599,-23.4513,-143.7165,-108.0862,225.3230,6.1299,185.0727,-174.0480,200.8849,-191.6332,-230.1560,-102.1551,162.3672,-239.6167,220.2128,-114.9311,283.4438
-265.6250,-45.5357,209.3465,-120.2386,32.9181,-113.8933,-84.4830,-199.7885,176.5543,4.2610,247.0785,-229.4541,227.6819,-247.1725,-138.4786,-149.4913,78.7470,-149.4223,317.5720,-129.2267,310.3748
-257.8125,-108.0854,221.8350,-146.7545,78.2190,-141.0909,-74.0132,-191.2389,154.0463,41.3110,334.3413,-258.6159,243.7486,-276.4711,-166.5760,-154.3234,165.3768,-213.9755,296.1771,-85.2709,289.5622
-250.0000,-133.4247,271.5342,-169.0634,89.6992,-201.0982,-59.3577,-141.4991,209.7469,34.1146,278.8170,-209.5869,264.0251,-301.5791,-190.5020,-154.7357,184.2086,-204.3225,241.9913,-75.1176,235.9577
-242.1875,-95.7123,244.2984,-93.3207,59.2029,-163.0553,-92.6686,-178.7163,215.5111,12.4668,248.3566,-173.5141,234.3700,-265.6471,-190.4080,-156.3715,190.0934,-202.6217,214.8579,-71.9143,280.4119
-234.3750,-136.6413,209.4330,-136.2313,-49.9672,-169.6743,-60.6431,-186.5872,323.6251,30.3455,319.2308,-145.0899,197.0883,-274.3755,-160.9786,-163.1693,262.3139,-209.5587,147.0892,-76.3653,317.2218
-226.5625,-120.7101,194.4266,-155.2820,2.6971,-262.4383,30.2238,-244.6135,344.5779,-2.8030,303.9365,-130.8239,147.6799,-260.2618,-71.7122,-184.4694,283.3741,-229.6424,238.1814,-165.9727,339.8875
-218.7500,-123.8239,161.3764,-158.3746,1.2898,-230.2526,138.0301,-323.6925,345.4821,-35.8899,303.5980,-174.6092,149.2410,-266.2071,-40.5138,-214.2704,320.3827,-303.7706,276.2236,-203.6307,378.5052
-210.9375,-186.2776,244.9859,-184.8080,10.5117,-294.4199,149.4767,-278.1339,323.0376,-13.7406,317.9113,-240.7401,274.4635,-295.5015,-68.6897,-212.5459,298.0321,-296.2305,219.9230,-160.6379,357.7745
-203.1250,-170.9253,230.4067,-167.4329,27.5044,-239.7789,57.7049,-298.7724,234.3966,-8.0188,339.0246,-262.0780,298.4988,-280.9950,-126.0895,-209.1379,283.4742,-247.8834,276.4198,-144.8411,344.8430
-195.3125,-187.2624,77.1381,-143.7486,-58.2245,-180.8444,9.2231,-241.1065,262.0508,37.5193,330.4221,-167.1136,180.8462,-222.1938,-214.2006,-152.1724,238.2089,-125.2208,266.2170,-20.7469,264.2061
-187.5000,-79.9311,-20.4823,-57.3975,-194.3179,-131.2582,-87.6112,-82.8126,95.3453,12.8025,52.4645,-9.4961,52.8500,-101.7432,-239.6646,-66.2178,34.5847,88.1114,168.6668,158.9951,62.2157
-179.6875,64.6596,-187.8572,178.2147,-330.1890,102.5819,-182.2039,113.7278,-144.0994,19.2106,-186.2396,113.3773,-74.8855,56.9559,-373.8983,67.0969,-204.7972,196.7010,3.3586,303.9909,-138.5314
-171.8750,206.4180,-288.0834,296.9886,-468.9334,257.5768,-247.6585,303.4198,-242.4034,46.6157,-285.8137,228.4158,-134.4650,171.8129,-477.9926,177.1904,-267.0373,266.4493,-130.8008,304.1341,-272.1323
-164.0625,368.7902,-225.7052,433.3773,-481.1018,356.1836,-220.5258,216.7057,-323.1145,-76.3950,-513.8017,289.0654,-176.4374,232.2814,-380.5016,154.2618,-457.6835,357.8139,-68.3708,220.8784,-314.1317
-156.2500,365.0734,-225.4160,463.6664,-483.3977,422.6843,-189.5087,244.8836,-287.9172,-33.9531,-405.8651,242.6240,-177.5105,222.6481,-352.1234,170.2011,-423.4360,247.0994,-207.0483,182.5319,-241.2420
-148.4375,275.5666,-203.9332,367.1699,-465.5077,251.3933,-211.2931,183.2608,-196.5221,30.4891,-130.7335,106.3719,-120.3798,123.2202,-376.5508,112.4535,-74.0090,191.5939,-184.5253,128.3937,-148.1658
-140.6250,133.2590,-165.2581,215.8876,-395.4358,173.3181,-177.8836,103.8606,-122.9382,31.7159,-20.4278,-10.6901,-9.0398,42.9943,-272.7877,50.1060,109.6043,48.2979,-109.8107,126.4636,-72.8975
-132.8125,31.7581,-120.7848,77.4111,-424.5826,34.0429,-131.6846,147.2755,36.4255,84.4512,65.6626,70.0580,43.1077,49.5711,-118.2298,64.2552,-60.9978,121.8156,-169.3023,167.3344,-131.8352
-125.0000,201.7124,-156.8702,114.3961,-465.3041,106.2275,-131.0483,145.1460,-106.7690,19.3054,-151.8002,176.2646,-62.2952,192.6070,-157.2287,107.0449,-242.1605,325.7878,-170.3613,231.6691,-237.3291
-117.1875,247.0218,-318.6121,238.7312,-559.6968,266.7568,-190.0708,267.3807,-199.6145,16.0350,-318.9247,224.8384,-79.3464,313.9990,-292.8795,199.4419,-297.9851,335.1337,-295.0853,312.3638,-291.4883
-109.3750,240.1092,-390.6078,233.8357,-565.3533,299.0391,-230.3482,445.3650,-310.7316,-3.3973,-540.3273,254.1805,-41.6549,344.1522,-188.7856,265.5375,-445.0799,397.2611,-366.0644,340.8118,-326.9141
-101.5625,317.1718,-448.6540,315.9033,-592.0840,343.2798,-221.6831,451.3046,-445.9122,-15.8787,-600.7918,296.4887,-101.0173,422.2650,-34.7486,292.9192,-579.2408,438.3602,-389.1104,383.2179,-313.4106
-93.7500,279.1046,-446.8461,317.8323,-698.9830,270.3697,-220.1735,450.1028,-404.2510,42.4007,-413.4289,368.6623,-131.5329,421.2403,-72.8580,282.9023,-354.5744,400.3372,-491.3187,416.4771,-380.0811
-85.9375,328.6056,-392.4911,298.3204,-613.3522,214.0225,-201.1218,392.4543,-382.0552,-13.2055,-428.5258,384.4039,-107.5057,436.7808,17.5848,249.6441,-259.3835,342.8907,-470.9962,254.2917,-430.2213
-78.1250,244.6757,-331.5934,318.3605,-450.1949,269.2315,-34.5308,299.3683,-322.3135,-71.0719,-442.0790,253.7184,28.0638,378.8882,255.5696,197.8231,-346.6603,82.0214,-444.1473,100.6626,-331.8355
-70.3125,82.1747,-172.3056,107.8168,-224.6587,131.8495,161.4517,197.6865,-160.1938,-59.3465,-244.2565,78.4553,155.0145,203.4194,521.9576,103.3147,-258.5537,-47.4140,-319.9136,-61.5649,-242.0732
-62.5000,-79.2569,-46.9811,-64.6592,1.8968,-41.4646,356.4773,-13.9353,-35.0341,-74.5355,-82.3999,-60.7373,171.0004,64.0226,604.3849,-11.4485,-96.4131,2.2210,-157.6524,-152.7319,-115.2841
-54.6875,-136.1126,6.8891,-161.5687,-53.0179,-140.2227,223.0371,-2.9932,55.6601,-17.5965,7.9852,-13.3515,42.5230,74.1981,358.3640,0.1561,68.2560,120.4337,-242.8585,-32.3499,-59.9742
-46.8750,-74.5445,-102.8487,-130.0605,-131.5406,-219.5618,71.9906,100.3571,-56.2727,-25.7240,-141.2546,163.4568,-67.5641,176.7979,313.7465,59.9159,29.2925,287.0645,-212.6819,29.4366,-133.2899
-39.0625,27.3365,-243.2991,-17.2421,-134.7784,-70.5929,74.2417,174.0320,-160.9212,-30.0864,-246.2041,199.5845,-96.3660,213.7189,351.4334,104.1441,-111.4042,212.0178,-245.2349,96.5353,-236.3359
-31.2500,70.3414,-230.6601,-4.3061,-125.9355,-21.5201,124.5824,295.8164,-144.4868,24.6635,-229.0766,209.8399,-151.0887,223.7618,399.2213,159.5964,-242.0195,183.1087,-372.7076,138.7463,-328.3102
-23.4375,133.0732,-198.3297,61.3462,-27.4160,80.2754,117.6118,248.3099,-222.3715,-2.4385,-271.2698,162.8227,-228.1266,249.5264,351.7062,163.3358,-283.9514,139.9290,-304.5097,96.6726,-294.6110
-15.6250,60.2315,-161.6136,56.4105,5.4866,110.4813,75.0332,204.2204,-187.8766,42.6040,-126.0928,154.2367,-227.7859,204.7129,196.6038,145.6819,-138.5055,100.1783,-302.9356,129.0173,-221.5444
-7.8125,57.5096,-123.8233,16.5913,110.4699,69.8028,36.5514,126.2496,-113.3061,27.2963,-88.8261,148.7719,-225.3670,162.0230,155.6117,107.7949,-100.9853,97.5466,-158.2821,56.4778,-182.4105
-4000.0000,197.8418,-293.6885,150.4781,-21.7387,241.0718,-4.7463,275.6732,-311.2432,18.3676,-296.2973,319.6785,-366.3084,380.4867,200.3513,232.9220,-292.5201,268.8824,-376.6017,167.6828,-389.0865
-3992.1875,157.0372,-234.5261,68.7845,7.1923,160.6283,-13.5849,268.7159,-250.5671,27.4271,-235.3837,276.6117,-269.9205,302.4836,231.2824,194.9826,-231.6337,228.8843,-388.8799,160.0402,-366.9294
-3984.3750,139.0552,-221.4718,46.9103,130.0232,103.9937,38.4527,175.5704,-240.0045,-5.0282,-224.5837,258.3633,-260.6519,247.2958,286.0757,140.9423,-220.8703,212.6952,-342.2579,107.2137,-320.8895
-3976.5625,63.3904,-232.0249,38.3618,230.2532,132.6819,139.8654,168.7347,-217.0510,-11.9051,-238.3853,177.4189,-202.0018,205.4205,316.2250,130.8647,-197.7301,31.8095,-318.2381,100.7098,-262.4578
-3968.7500,7.7874,-81.4284,-24.1241,314.6227,35.4257,188.4017,144.9606,-208.9449,-47.3312,-267.0344,118.5299,-86.2158,183.5968,330.4780,106.4174,-190.4473,11.9860,-205.0741,-26.7229,-219.8838
-3960.9375,-19.4967,62.5734,16.7068,429.3936,40.4747,192.3044,3.4860,-246.4458,-118.3449,-304.2982,51.9416,-14.0376,192.0776,301.0800,55.6175,-152.7582,-14.5255,-97.5018,-124.8489,-147.9147
-3953.1250,-102.7701,115.6703,-36.4459,381.2609,-11.4640,175.2767,25.0178,-156.8486,-73.7949,-177.4605,-35.6437,37.2385,105.5650,286.7257,37.3091,-99.9693,-61.0373,-80.8311,-172.9611,-96.8487
-3945.3125,-68.4767,145.4128,-78.0331,415.7736,-89.8495,207.8674,-14.8916,-129.6026,-65.6824,-112.9743,-112.6662,64.1518,29.6068,284.9706,-0.3687,-146.5378,-96.9936,17.4967,-210.5216,-34.1345
-3937.5000,-125.1633,154.2480,-107.5934,429.3815,-117.2208,215.5303,-41.8087,-15.2604,-7.9350,75.6078,-211.6851,103.1540,-68.3487,185.2635,-30.6968,4.9954,-257.9525,60.9299,-232.0768,78.6874
-3929.6875,-205.4922,279.5373,-199.7934,489.4253,-245.2370,232.6142,-96.3657,181.5360,21.2525,271.6436,-376.3563,224.6036,-231.9578,167.9486,-103.4722,238.9847,-409.5586,219.8151,-385.2705,236.9645
-3921.8750,-368.8551,393.8758,-309.0271,678.5175,-353.3004,417.7207,-350.9726,362.3746,-32.0026,416.7251,-593.0748,405.1046,-410.6198,319.6380,-250.9036,420.0179,-641.2070,543.7633,-548.5046,490.2929
-3914.0625,-638.7032,577.8137,-528.7455,832.2025,-534.8506,604.3990,-569.0850,654.8132,-29.0045,672.4139,-810.2968,658.2040,-626.7870,433.8721,-399.7774,601.6491,-840.3568,726.3179,-643.2262,707.2236
-3906.2500,-827.2373,808.1592,-697.1448,961.2800,-739.0958,767.4526,-772.9230,813.6611,-57.9271,831.5039,-976.2190,815.7034,-754.6570,599.4575,-522.7963,687.6835,-957.2012,954.2875,-761.6355,864.5583
-3898.4375,-957.8442,989.5110,-805.6117,1041.3547,-846.4234,806.4861,-878.9102,996.5126,-30.5699,1050.5967,-1192.2379,997.2097,-932.6260,531.9905,-619.9396,906.7233,-1158.1354,1029.2797,-824.1343,1008.9119
-3890.6250,-1090.7953,1134.6223,-986.4138,1086.1700,-1063.0968,811.2365,-912.2719,1179.1329,-8.2256,1197.4579,-1333.6095,1142.4728,-1073.9508,464.2065,-691.5613,1163.5260,-1325.4227,1138.0364,-886.9744,1117.0305
-3882.8125,-1103.7894,1222.7832,-1007.2570,1143.0227,-1119.8268,790.9999,-1115.6847,1228.8088,-74.0717,1247.3660,-1316.0378,1189.7834,-1091.3353,409.4092,-777.7153,1286.3821,-1267.7672,1224.8671,-1006.8589,1238.2092
-3875.0000,-977.0288,1240.7926,-1023.3356,1025.7062,-1170.7960,701.5783,-1240.3427,1246.3434,-78.6301,1375.1320,-1071.7329,1205.9452,-1103.9824,286.3914,-842.9719,1268.0945,-1105.3745,1135.5645,-985.9780,1254.2518
-3867.1875,-737.2673,1229.9065,-991.4028,1019.4708,-1211.7657,587.2192,-1279.9913,1201.9932,-132.6265,1257.0160,-853.4409,1123.2078,-1068.6462,138.4077,-857.5955,1112.9126,-899.9866,1194.3811,-994.0798,1171.4041
-3859.3750,-537.7444,1390.8738,-817.7006,1009.0718,-1109.9784,504.6705,-1325.8928,1040.5002,-270.6096,949.7645,-787.4099,1071.3206,-1038.5745,-16.7947,-882.1243,1062.5814,-734.8478,1249.0668,-1041.4270,1119.4196
-3851.5625,-456.1133,1469.0504,-801.8824,880.8563,-1094.0836,446.2907,-1272.6973,979.2205,-271.9921,887.7253,-659.2895,971.6443,-983.4177,-181.8656,-854.6686,1074.4573,-617.6183,1184.9670,-960.6678,1019.6514
-3843.7500,-360.6700,1315.1364,-699.2479,801.5300,-990.3929,365.7755,-1242.7122,931.8429,-229.0977,914.5835,-628.3729,813.8799,-877.4766,-224.1026,-789.2621,954.2328,-556.5912,1169.7972,-901.1096,933.8008
-3835.9375,-416.4127,1186.1279,-608.7905,712.0914,-861.8923,237.1231,-1113.9318,982.3633,-129.2949,1002.3386,-645.6695,825.0279,-856.7500,-350.5157,-712.6698,894.9117,-611.7683,1039.5538,-781.7424,872.8679
-3828.1250,-409.3978,1188.9797,-563.5662,578.4789,-815.6383,136.2802,-993.3930,951.7409,-86.9973,971.9462,-635.2291,830.0405,-808.2950,-375.1590,-648.9890,753.4536,-499.1949,971.1814,-705.6113,803.8015
-3820.3125,-343.0684,1041.2419,-456.0177,541.2486,-633.0778,60.7997,-920.5580,872.5221,-94.4128,818.9561,-598.5068,749.4605,-733.5597,-375.4767,-586.7012,637.4045,-502.3291,928.2380,-569.1663,760.1560
-3812.5000,-337.2387,833.1041,-373.9516,442.5889,-551.0095,69.8853,-764.2231,803.9197,-66.1906,714.5850,-625.2986,679.4897,-723.3480,-401.2654,-521.5476,679.9697,-530.9819,823.9177,-459.2062,690.1332
-3804.6875,-324.2985,667.1699,-321.7722,387.1017,-533.8459,50.1364,-747.7917,743.5338,-63.7813,690.4256,-644.0015,580.7288,-704.0612,-418.9224,-504.9427,729.7419,-517.5355,867.8282,-447.1386,628.3303
-3796.8750,-386.3448,567.3422,-275.5721,292.6922,-450.6684,23.4515,-663.3692,787.2524,12.9975,771.3694,-669.7213,513.0854,-728.7933,-517.5579,-465.1251,773.6204,-544.0983,766.8735,-334.0679,596.6511
-3789.0625,-369.3856,616.6243,-293.3559,205.3551,-503.4851,-29.1748,-531.9523,731.0869,39.8966,715.4316,-574.4549,455.5598,-706.5459,-494.1777,-419.3495,680.6127,-420.6712,710.0420,-281.9908,539.0958
-3781.2500,-356.0207,557.4131,-243.7187,150.4934,-415.8995,-52.3462,-445.1446,594.4303,7.8425,541.9977,-522.8063,428.5459,-616.9150,-441.3783,-361.7357,544.1121,-406.8538,648.7502,-269.5098,548.0663
-3773.4375,-373.7036,431.2586,-225.1141,64.6483,-359.3571,-69.5097,-315.3877,573.8408,64.0018,521.6293,-466.2257,442.5983,-558.3591,-419.6072,-286.9748,412.6728,-389.0999,522.5302,-147.0600,526.1132
-3765.6250,-273.3281,353.2636,-192.4463,25.9175,-326.7708,-72.5628,-281.5868,456.4179,18.5361,367.4302,-358.6107,397.8206,-486.7796,-347.7584,-262.3965,333.3942,-323.3069,513.4886,-118.5490,481.3366
-3757.8125,-239.6974,348.6209,-120.5074,-45.4925,-216.9323,-109.3062,-244.5493,379.3618,27.3737,364.5966,-357.7694,392.4100,-484.9774,-419.6483,-247.5768,366.4844,-325.2822,437.8340,-86.7724,439.9413
-3750.0000,-203.3216,347.8390,-154.8071,-77.0896,-250.3478,-142.2470,-204.7540,417.1823,61.5519,402.6379,-316.2046,354.8722,-479.4592,-450.7849,-229.9809,293.4452,-252.5246,366.0528,-50.2285,402.4254
-3742.1875,-158.7398,251.3712,-108.8957,-135.4140,-240.5677,-205.9362,-194.7666,350.3175,72.3644,409.9808,-268.4591,288.6579,-431.7720,-401.7038,-208.7116,228.7149,-207.5659,372.6063,-41.4780,408.2395
-3734.3750,-213.3984,193.7598,-166.2112,-258.9249,-223.0303,-187.8208,-103.0370,365.3094,61.9066,314.1866,-286.9757,265.3094,-449.3588,-308.8603,-192.6026,278.8432,-226.8635,314.0258,8.0440,384.9340
-3726.5625,-217.5420,188.7486,-132.0053,-224.8794,-261.9912,-116.1499,-105.8014,286.9175,5.5106,164.0110,-252.0065,258.5753,-412.4722,-197.5036,-192.3735,201.5703,-195.6696,343.0739,3.0823,342.2571
-3718.7500,-196.6796,136.8427,-73.7723,-201.7663,-164.9450,-55.4189,-119.5775,270.6353,14.4979,183.9357,-228.0621,240.9648,-350.6149,-209.1255,-163.8646,112.4011,-244.4820,291.2600,-11.8643,324.7186
-3710.9375,-168.9185,127.9457,-80.6266,-277.6941,-207.9982,-97.7356,-51.4603,336.3712,77.6054,285.8807,-196.2418,158.3754,-318.8904,-323.8458,-122.9415,176.2673,-217.4080,245.4734,-19.8876,278.2118
-3703.1250,-88.4535,30.8475,-68.7624,-299.8665,-159.3531,-195.3030,-2.6518,235.9191,66.6944,222.6475,-219.7363,56.5971,-304.4977,-382.8601,-103.9739,370.9672,-135.6311,218.5229,-10.1929,250.5310
-3695.3125,-94.1760,-82.3594,-38.0707,-410.1845,-53.8890,-309.0213,102.9530,229.3908,135.2117,289.3330,-187.4528,11.7346,-307.3285,-385.0727,-58.4159,401.5740,-107.0723,103.5015,88.3213,205.7808
-3687.5000,-44.3941,-68.9614,-19.8637,-426.9539,-71.9259,-290.1844,121.0614,245.4857,128.9863,232.6282,-167.6884,63.4949,-287.6915,-290.7698,-44.9636,160.7865,-21.0289,152.1083,101.3548,147.6644
-3679.6875,-52.7538,-7.6053,44.2129,-327.8192,29.8904,-223.4471,40.0124,162.5377,43.0897,75.8748,-138.0928,88.2281,-220.2332,-296.6024,-52.2304,76.9584,-64.1429,211.7006,57.2546,136.5320
-3671.8750,-54.1136,-46.1390,42.3085,-326.6329,28.7093,-150.6650,74.9671,85.7071,17.6457,-35.7554,-102.5173,84.0833,-182.8087,-295.4419,-32.0867,74.2421,-30.2729,173.4120,90.1814,132.5326
-3664.0625,-22.2662,-120.3673,111.6230,-292.1970,25.7306,-152.6358,0.1257,8.1930,-3.0883,-77.0709,-67.7660,6.2638,-111.2146,-259.0782,-30.4023,-3.1674,37.7846,203.4601,157.3280,126.8656
-3656.2500,-13.3615,-148.4523,158.0142,-351.6669,108.8160,-141.5106,45.3348,15.8408,38.4664,-32.2224,-19.9854,12.6154,-62.5934,-246.6584,12.5484,-141.4207,44.8761,104.6870,199.5489,97.3846
-3648.4375,139.6934,-31.2908,173.5714,-334.9408,89.0550,-160.1898,-11.3008,-42.2457,-25.3476,-90.1022,143.9253,63.2384,-44.8525,-228.0910,-24.1111,-236.3985,129.1095,116.1923,106.9373,38.1861
-3640.6250,211.8080,-64.9747,175.2042,-295.1107,128.3495,-230.7726,-117.8940,-77.1731,-27.5362,21.1715,146.8640,-10.9657,-41.0901,-333.4712,-61.7960,21.7889,131.3904,81.8809,108.3920,38.1714
-3632.8125,174.4883,-138.0066,99.4192,-400.6877,89.2056,-341.7582,-10.9427,66.5635,67.9542,165.0957,145.3365,-15.4915,-77.8122,-443.2981,-29.4333,92.6311,164.2176,-97.7572,175.4189,33.8421
-3625.0000,203.7282,-144.3822,128.2103,-403.6645,44.6137,-311.1418,18.5477,20.9534,-6.5837,-63.3328,211.3448,-24.3455,-11.0133,-338.5631,-9.2613,-98.8672,193.5928,-69.7103,134.0092,61.1956
-3617.1875,188.1808,-90.4574,145.2307,-346.3976,62.2383,-255.2797,37.2300,-108.3558,-65.7846,-229.4546,156.5377,28.1206,44.9632,-281.6299,6.9743,-119.0582,178.1615,-121.3341,116.8193,113.8840
-3609.3750,183.1444,-60.9464,102.7790,-313.5984,-14.6216,-148.8784,68.4305,-151.0551,-57.3931,-234.9606,115.2139,21.2084,41.4118,-210.2013,18.3238,-161.6483,243.2258,-56.3351,76.1591,107.2010
-3601.5625,220.0670,-164.3915,178.3071,-273.8058,96.4818,-145.4796,-1.4180,-222.6977,-69.4521,-233.4119,117.8174,-51.6390,80.7764,-205.8187,18.3723,-123.1911,210.2378,13.7484,112.4771,107.5974
-3593.7500,139.1938,-175.5379,169.0677,-351.7803,87.8015,-152.8438,24.9415,-122.0247,8.9441,-59.5494,109.5968,-26.1701,73.3094,-249.2501,33.2453,-59.4118,129.4351,-32.8473,172.0261,60.3249
-3585.9375,127.2813,-82.6340,157.8025,-324.7750,78.0791,-124.2192,52.2627,-169.2919,-36.5363,-179.6369,137.3130,-38.6289,27.7638,-146.7320,13.8166,-106.5700,152.5782,-9.3707,159.5521,12.1316
-3578.1250,134.7838,-110.2381,203.9734,-314.3302,197.7768,-150.1564,61.9809,-234.0620,-61.4607,-244.2293,110.4164,6.4341,38.5937,-134.8149,20.0378,-98.2245,160.1252,-108.3689,166.5059,-16.5293
-3570.3125,151.2499,-128.7997,185.1253,-329.9031,179.4393,-167.1048,116.6565,-178.7764,-24.6012,-188.7640,165.4595,60.5700,58.3478,-150.9633,47.5310,-152.8281,141.6250,-162.2989,147.4401,-36.1106
-3562.5000,147.1303,-167.8659,215.7092,-261.0375,173.5140,-171.6108,111.7331,-221.9856,-31.2522,-231.7996,159.8858,16.2248,90.4807,-154.7118,64.2702,-194.9314,137.5248,-96.6965,142.8021,-6.1626
-3554.6875,63.5742,-181.2929,164.8739,-341.5938,197.1574,-257.5269,208.3756,-161.5386,24.6092,-171.1850,146.8439,-35.4541,78.1413,-275.9087,101.3597,-99.3835,88.9664,-145.4217,163.7485,-20.5340
-3546.8750,93.7370,-220.9346,161.7675,-343.4260,157.5141,-221.7062,242.7366,-165.2925,35.1263,-210.7735,144.4940,-149.3197,112.4781,-277.4106,131.0970,-139.0336,84.1164,-44.3319,194.4275,-61.0818
-3539.0625,105.8287,-313.5977,210.6004,-328.3376,279.7983,-207.9555,181.0036,-117.0506,54.1681,-126.3604,84.0347,-138.1789,125.6935,-226.0278,131.1834,-198.6810,26.1776,-67.2303,206.0421,-49.6052
-3531.2500,66.7382,-282.3769,169.2724,-329.4349,202.9060,-210.3804,214.0886,-46.8994,65.9871,-93.0402,116.3738,-107.1257,86.6873,-153.8580,120.9319,-166.4276,57.0354,-142.2228,166.4957,-54.2022
-3523.4375,124.3135,-224.4110,156.6275,-303.8530,190.6817,-148.1188,90.8321,-169.0003,-9.3710,-141.9819,141.3559,-83.2982,111.3117,-128.0305,68.4897,-142.4311,79.5491,-83.4446,117.6298,-67.0223
-3515.6250,89.4531,-188.8110,158.5716,-300.6959,229.0313,-108.2703,130.1327,-130.4532,20.9566,-102.2701,69.8752,-44.8037,77.4647,-124.6601,77.3296,-102.7835,44.6175,-118.0033,153.3536,-102.1655
-3507.8125,94.5106,-184.2247,164.4474,-223.6191,162.2936,-63.4897,136.3490,-123.8977,1.1046,-169.5480,39.2864,-39.2971,47.4932,-79.4049,69.2319,-133.1362,119.5980,-43.5545,122.0176,-133.2906
-3500.0000,95.6454,-251.5026,201.4145,-253.4655,236.6322,-23.6304,137.6295,-196.1994,4.1679,-167.6931,40.7415,-38.6322,49.5530,-39.1064,73.5526,-168.3468,49.6392,-41.9374,157.7663,-132.2479
-3492.1875,40.4508,-237.0495,146.0771,-305.6476,181.6557,-41.0897,229.5867,-176.7598,65.2868,-75.1068,59.8451,-58.2026,32.2486,-55.1650,98.8421,-111.8170,65.3383,-131.5645,172.2080,-187.4348
-3484.3750,108.9817,-237.8162,183.4864,-270.1090,219.4035,-75.8100,193.2645,-175.5376,42.1362,-110.7365,97.6488,-130.9627,107.6316,-89.5227,114.5941,-111.5016,63.7504,-61.3759,135.3826,-223.8021
-3476.5625,111.4828,-269.5601,220.8872,-264.5994,257.1362,-72.5441,193.9081,-137.2751,34.9918,-145.3242,98.3935,-130.6660,108.9506,-86.9358,117.7767,-73.1425,-4.8830,-59.1289,172.5500,-186.0996
-3468.7500,108.8527,-270.3773,216.1738,-194.2298,178.7407,-38.4028,189.4321,-141.0639,6.3212,-222.9693,93.9859,-135.4080,105.1005,-52.5066,111.6333,-112.8393,27.3476,-25.9349,134.6125,-153.4347
-3460.9375,107.7993,-306.5658,213.0582,-122.2942,212.9212,-39.6831,113.5335,-180.2214,15.9422,-150.9854,91.1304,-138.4942,139.7936,-53.5355,107.2083,-224.8974,-8.8530,-26.0846,133.2670,-119.1051
-3453.1250,41.9240,-264.5223,147.1341,-149.2008,183.2833,-67.7854,193.8063,-135.1367,57.0328,-105.7538,135.4249,-131.3213,110.6201,-44.4259,125.3421,-253.7139,31.1095,-89.9900,138.1225,-148.5079
-3445.3125,98.1265,-174.3531,168.2968,-196.0520,205.7186,-80.8112,143.1623,-222.9083,-7.4900,-193.3925,120.7735,-145.9915,170.4875,-57.2673,112.6019,-157.4066,87.1424,-68.7394,88.0786,-162.7494
-3437.5000,108.2592,-163.2191,178.4102,-217.9901,216.0953,-142.9060,153.4427,-174.7019,22.4391,-108.0517,94.0246,-135.6588,144.2525,-119.2122,107.6628,-36.1104,26.0871,-127.4828,97.9728,-151.9759
-3429.6875,87.6119,-111.8178,121.7634,-165.7197,122.7028,-124.7739,132.9528,-47.2071,46.1298,-17.4247,110.4797,-82.0202,87.2086,-100.9679,79.7064,-55.5026,40.2487,-146.9327,77.1136,-171.8885
-3421.8750,147.6986,-120.6413,182.8592,-101.7400,148.0361,-97.9176,84.1881,-130.9308,-26.1410,-175.0148,98.6461,-93.5827,112.8593,-37.0284,65.5799,-139.1173,65.1375,-120.5852,67.0036,-145.9905
-3414.0625,99.2631,-132.9515,169.4488,-112.3091,170.8545,-72.5907,180.9123,-180.1162,-4.5575,-224.0649,122.2758,-69.5930,99.9565,-48.6508,98.3377,-188.2054,87.4869,-167.7029,123.4019,-158.5365
-3406.2500,95.6108,-170.4414,167.8301,-148.1271,132.4525,-36.4967,179.4357,-180.4672,31.9536,-150.2830,120.6674,-107.7592,135.7986,24.4700,116.2408,-225.4673,118.6059,-99.9829,154.6065,-196.2310
-3398.4375,35.2437,-265.6151,177.5120,-135.6869,179.3350,11.8759,116.2449,-95.4887,39.5427,-102.1777,93.3189,-134.5823,145.8875,-1.1651,108.5367,-140.4078,22.0006,-88.9186,200.1117,-185.5673
-3390.6250,39.9588,-259.6704,145.2874,-164.1933,184.3030,18.3266,121.1448,-126.3744,-15.9268,-206.9429,135.0315,-129.2518,151.0284,5.2478,97.0413,-61.2246,26.4643,-82.7159,133.7143,-179.7509
-3382.8125,57.6127,-205.7603,200.0130,-107.7914,276.2060,37.7075,27.9738,-254.3007,-72.3056,-260.7510,78.6628,-110.9247,169.0750,61.5574,71.2431,-115.0553,43.8577,7.4870,81.2635,-160.9350
-3375.0000,19.0982,-172.0054,197.5967,-178.5977,310.9518,-0.1021,99.6479,-219.3658,2.1958,-151.6887,39.1217,-149.7144,166.9323,23.6403,111.4546,-153.0014,112.0964,-64.4385,113.6893,-162.2295
-3367.1875,73.3400,-151.5172,180.9416,-157.7344,257.4476,-51.2161,120.0944,-197.6694,-11.0117,-203.8749,96.3237,-202.7441,113.5156,45.3984,92.3124,-168.1973,200.1020,-79.6045,131.9051,-177.7538
-3359.3750,96.1538,-163.4907,166.8716,-132.3921,317.5176,-63.8285,106.1106,-210.4293,-6.7927,-179.5237,82.0700,-179.2122,136.6301,-3.3649,100.9963,-180.8573,152.6571,-90.2098,119.6934,-153.7066
-3351.5625,65.6240,-157.8183,135.4770,-160.4706,211.2564,-57.8350,147.7994,-167.5270,23.1897,-136.5088,86.4519,-137.0042,141.3672,-34.5564,113.3525,-137.8629,156.8387,-119.1589,124.1456,-147.9774
-3343.7500,79.6883,-142.5429,112.6905,-109.0045,188.5967,-79.2816,88.0940,-189.0093,-25.2198,-194.8809,100.4104,-159.1630,192.6678,-19.2055,102.0271,-85.2608,170.6106,-68.4802,68.2102,-132.6093
-3335.9375,89.3450,-166.6647,122.5133,-166.9939,198.5367,-68.1601,134.9849,-140.8690,6.3547,-146.6250,109.9401,-111.6893,165.5303,-45.3112,111.1678,-111.0365,109.9639,-127.1784,77.8891,-121.5994
-3328.1250,118.4917,-136.2773,116.8351,-100.5353,156.9699,-35.5628,92.3780,-145.1994,-2.6622,-113.8419,140.9389,-116.6765,122.8451,60.0352,77.5258,-189.2869,138.7966,-131.3587,36.0760,-126.0491
-3320.3125,95.3352,-123.1873,128.8621,-86.4200,205.0909,-22.2885,67.4682,-204.8158,-8.1495,-100.3589,78.6138,-66.9283,134.8230,37.0358,73.3897,-138.8235,79.3155,-153.8099,47.9662,-112.7508
-3312.5000,43.6187,-66.6424,39.3404,-169.9095,116.6542,-36.5913,163.0144,-71.9661,49.8186,-40.4122,25.7122,-81.6925,82.2153,-14.5667,86.0272,-41.8863,28.2605,-237.7913,138.3177,-126.9523
-3304.6875,20.7898,-88.1898,14.7135,-120.5469,92.1033,-23.0173,138.4528,-58.1971,55.0102,-26.5487,1.6898,-142.5238,57.4740,-1.3097,75.7826,-65.0340,5.0942,-153.8433,150.5701,-113.2125
-3296.8750,41.0507,-137.6367,34.1950,-98.1313,110.6522,-3.3612,82.9823,-38.3088,11.3414,-80.5644,19.7421,-49.2225,39.7944,-18.9911,43.9737,-45.0663,25.0080,-236.7663,135.9292,-56.3354
-3289.0625,93.1008,-84.2708,49.4763,-43.9608,52.9963,-23.9286,99.3180,-167.5999,-49.6585,-209.7619,-39.4312,150.9165,17.8726,71.0807,20.0088,-65.2743,76.7090,-287.8744,82.0979,-2.6242
-3281.2500,52.2974,-157.7478,75.9145,-11.6867,116.4815,5.6293,88.8021,-212.7385,-48.8054,-217.8055,-195.4758,179.2368,9.0667,135.2590,27.4097,-72.3183,1.5511,-220.8057,76.4295,99.2721
-3273.4375,-104.1170,-278.8270,57.7552,-96.0714,135.3691,-11.4423,181.7043,-82.4655,63.6979,-87.4357,-251.1451,161.9859,27.6310,81.7862,96.1407,-88.9504,-16.2229,-236.3275,201.1811,119.6009
-3265.6250,-113.7400,-252.1043,48.4008,-68.7097,126.0502,-19.7420,135.4200,-127.3801,60.7129,-58.2638,-224.0283,79.5604,53.9690,73.0720,90.4566,-59.7781,9.7972,-173.0327,191.7439,111.7584
-3257.8125,-122.6047,-189.6331,38.8065,-75.6435,115.4840,-102.3151,124.8857,-99.5408,83.0813,42.6559,-198.1769,106.9137,44.0251,27.0721,77.0852,41.1482,-70.4364,-250.9716,183.0696,139.6977
-3250.0000,-113.8702,-178.5558,-60.1838,-65.0365,16.5188,-54.3141,135.9575,-50.0856,62.5992,18.1928,-150.7420,155.8918,-19.3478,110.6350,45.6778,-19.3137,-27.0750,-240.3060,122.0098,115.2646
-3242.1875,-75.6345,-209.9835,-19.6646,-24.9844,20.0486,-12.8381,102.5375,-119.1264,16.0913,-86.7686,-111.8172,123.3943,20.7568,151.6588,46.7141,-125.2717,-24.2128,-129.1216,89.4660,120.3548
-3234.3750,-74.9013,-171.9215,-18.6322,-57.4842,57.0930,-10.8953,140.6262,-79.6610,41.2311,-47.2224,-74.4018,88.4235,-15.6564,7.1318,52.4873,-48.7198,-58.8605,-161.4319,90.4381,122.9659
-3226.5625,-41.9132,-102.6105,-20.3408,-22.7833,-16.6100,-11.7292,101.9811,-79.9380,14.7830,-84.4248,-76.7452,50.7229,19.1553,5.8155,46.4041,-11.9181,9.7432,-56.4856,53.6681,122.8451
-3218.7500,-22.6170,-83.0027,-0.7343,-2.8253,38.9924,9.7162,12.6398,-131.9258,-7.3912,-62.3480,-93.7942,35.3433,38.2493,62.7707,20.9772,9.1687,26.6518,-35.2282,72.2086,108.0508
-3210.9375,-6.7706,-29.8501,-17.5673,-18.3726,-13.8503,29.6824,-4.1325,-109.3689,-31.4009,-76.7255,-37.2945,57.5285,-15.1241,120.2317,-18.3826,-6.1848,79.1113,-86.4161,55.3163,56.8263
-3203.1250,60.2776,2.5010,52.8117,13.2258,56.5057,26.8202,-7.6877,-185.6177,-61.2877,-152.9032,-41.5975,54.9281,16.6876,116.8465,-6.2705,-80.3284,109.7700,-54.3961,15.6385,54.8135
-3195.3125,28.6768,8.1912,57.5554,19.1259,98.2209,-3.7181,34.1231,-142.5135,-0.5847,-72.7185,-37.5616,23.6931,20.8300,11.7758,25.9372,-111.1226,42.7660,-82.0248,91.3315,61.1667
-3187.5000,13.4742,-40.7378,42.7022,5.3708,9.3382,-17.8741,56.3551,-82.0031,29.8869,-14.1376,-17.1315,-27.1316,-30.6374,33.0785,14.8129,-51.5184,27.1615,-61.2498,111.4458,47.9346
-3179.6875,35.7843,-157.1837,28.3635,-4.9365,-5.0350,5.4435,79.1002,-94.9961,20.4611,-62.0740,4.8010,-3.4403,-8.6142,55.8550,29.1811,-63.4295,49.0714,-70.9768,99.0810,72.2148
-3171.8750,37.0025,-84.7266,-43.0624,-38.3973,-75.4998,7.6374,80.7650,-55.0914,14.7147,-59.1112,42.6314,36.1759,-7.7085,57.5007,21.5329,-60.4546,190.8952,-103.8240,65.6357,75.4042
-3164.0625,68.9306,17.4229,-10.7781,-5.2067,-79.2588,-31.4952,3.1436,-94.4926,-18.2220,-61.4568,38.1582,-3.4945,23.8858,-18.1900,-0.8546,-26.7747,186.4274,-105.9729,25.9110,73.3022
-3156.2500,26.4621,12.1497,-16.8754,-46.4673,-49.3995,-111.0615,34.1483,-26.3045,32.4583,42.7885,-5.7214,-8.5604,17.0780,-98.3276,15.1291,41.5216,38.5583,-110.5284,55.8153,68.8117
-3148.4375,-3.5503,18.3127,-46.5132,-39.3344,-43.0769,-66.2092,78.6322,-54.6679,-5.1746,-58.5199,37.8575,-0.1742,60.7140,17.9565,37.6083,13.2548,44.1479,-68.6432,-44.8107,40.7758
-3140.6250,-7.6943,15.3159,-13.2830,26.6009,64.1025,2.4668,0.9810,-167.1905,-59.8565,-133.9821,70.3049,-2.9365,130.1995,88.0641,36.2921,-62.1870,74.6016,-35.9178,-83.5731,38.5939
-3132.8125,7.1269,66.2586,-34.0888,-28.5688,43.2464,19.0665,17.3026,-76.7696,-34.1177,-44.5185,121.7139,51.2590,108.6355,30.0923,31.4017,-81.6896,53.0161,-124.2573,-138.3613,19.3643
-3125.0000,53.3660,43.5890,-20.4742,18.6169,-17.2040,33.0424,-79.9464,-98.9691,-65.5225,-29.6895,134.5378,65.8562,120.4719,80.4985,-3.4271,-103.8132,98.8556,-6.2031,-197.7305,-2.4657
-3117.1875,49.6223,5.8979,15.1593,16.7534,18.3654,68.9934,-118.1749,-63.1878,-94.0020,-103.8666,95.3724,28.4522,118.3080,114.8744,-15.7300,-140.9487,94.7085,-8.1615,-131.0706,-39.2952
-3109.3750,93.3826,85.6932,26.3054,-9.6649,29.4484,80.4174,-68.8736,-123.9057,-108.9426,-164.5336,143.7158,-32.4487,129.6345,126.7145,-2.6291,-165.5839,138.0728,-33.6398,-157.8881,-99.6280
-3101.5625,81.2532,109.5775,86.5628,13.9725,89.6362,66.9213,-156.4551,-172.5401,-135.8805,-140.1191,92.1680,-8.2525,152.0629,112.6381,-27.6258,6.8680,90.5481,-9.0253,-169.5840,-74.8666
-3093.7500,-3.4100,96.8908,36.2828,1.0067,39.2843,17.8572,-58.5560,-74.7324,-75.8986,-78.2765,41.0770,15.3951,100.9416,61.9941,-6.7316,141.7535,5.4824,-20.9860,-111.7960,-86.6608
-3085.9375,-5.0549,25.1884,0.0138,-0.0133,39.9371,17.7699,52.3797,-72.9388,-45.7967,-150.4541,4.0078,-55.9623,100.8239,62.3280,44.3455,69.6205,39.4434,50.0290,-42.9792,-121.4635
-3078.1250,-76.3251,-80.1813,36.1155,-35.7272,148.9547,-18.9918,161.6891,-72.8194,40.3334,-76.3043,2.3094,-92.9734,99.0666,60.9892,105.5886,-40.1837,-33.2310,-20.6214,62.2112,-120.9236
-3070.3125,-104.1854,-107.1691,-65.3704,-28.0847,121.3864,-10.3780,208.4333,10.6941,90.7003,7.2411,11.0243,-82.5856,70.7124,70.0244,116.8961,-30.6024,-26.4948,-81.8962,104.8206,-146.9928
-3062.5000,-45.8784,-83.0251,-41.6904,-74.3349,108.9783,-22.6345,122.3505,-1.6568,59.2664,-5.0878,33.9069,-132.0577,93.5196,19.1961,91.9786,-41.8982,67.4099,-22.0349,93.5988,-121.9185
-3054.6875,-72.5522,-38.9053,-105.9931,-101.6366,43.5896,-50.9168,131.3001,81.9713,88.3307,78.5561,41.8134,-85.5350,27.3370,-8.6584,65.3701,3.7878,4.3390,-82.2016,137.4009,-111.8500
-3046.8750,-57.8565,-23.4412,-125.9324,-50.6351,-50.4410,-70.8745,147.6282,99.9281,68.7332,22.5262,58.0946,-31.6681,43.5152,6.8198,68.9931,-51.1871,-51.3532,39.9569,82.5692,-130.4421
-3039.0625,-58.4863,-58.3352,-89.2076,-16.0173,-13.8050,-34.2059,147.6163,26.5061,41.7325,-49.8731,57.0484,-31.1566,79.3641,5.9289,82.7603,-87.5183,-87.3767,75.7517,47.3930,-129.3947
-3031.2500,-60.6484,-24.7946,-91.0183,-17.9930,-15.7021,-0.1101,183.0759,25.5251,35.2762,-87.8259,91.4759,-32.1970,39.6732,3.4666,81.3134,-125.4092,-19.9308,74.9680,10.6833,-129.9120
-3023.4375,-0.4352,1.0812,-29.4611,7.3465,9.7639,25.3174,98.9067,-21.1271,2.0735,-98.4674,79.2815,-78.8972,64.3470,-7.6464,58.3418,-61.9837,4.8927,66.5241,0.3361,-103.0910
-3015.6250,-21.8522,-19.7172,-51.5305,-48.9999,23.6062,-70.9171,113.1099,66.5430,68.3190,63.2112,55.4557,-101.2524,40.3879,-68.4189,58.5006,136.7630,-51.9156,-59.5900,85.3598,-87.9310
-3007.8125,-29.4565,8.2677,-58.7838,-56.5881,-56.7364,-78.3661,143.1474,133.9975,106.8971,130.6757,10.4535,-144.8203,-4.7607,-39.4030,58.1596,130.2853,10.0948,-65.9279,78.2046,-93.9897
-3000.0000,-15.9352,22.3381,-46.9197,-44.1116,-44.9662,-66.7273,81.3051,109.5261,89.7538,143.2121,-14.4268,-95.3036,-29.7966,8.7119,24.8450,32.8844,-11.7705,-122.1885,92.1716,-43.9662
-2992.1875,-46.0473,-7.2650,-78.6943,-74.3284,-113.8275,-61.7556,123.8501,226.3923,135.0750,223.0723,-46.9369,-89.4470,-136.4673,-23.8404,5.7717,148.8200,-7.2666,-151.1310,132.5161,-37.6093
-2984.3750,1.8060,6.0574,-102.5051,-61.6272,-173.7334,-85.8513,63.3770,203.1874,91.5298,162.8588,-34.4736,-112.6517,-124.1733,-48.4480,-19.4459,162.6871,111.2128,-102.1457,110.8330,-23.3205
-2976.5625,118.6275,52.3157,-91.3497,-86.0079,-162.6696,-111.0110,38.8727,140.9099,50.0089,100.5900,85.9583,-100.9195,-113.9155,-75.1150,-38.0258,64.4843,156.6558,-125.2339,86.1209,-11.0978
-2968.7500,172.7113,107.8157,-104.9385,-67.1713,-249.3465,-125.9359,61.6421,127.8694,31.3401,50.5523,145.6646,-113.9408,-91.3994,-52.5383,-33.9755,14.5172,175.3715,-69.0939,35.6734,-60.6438
