Time,Fp1,Fp2,F3,F4,C3,C4,P3,P4,O1,O2,F7,F8,T7,T8,P7,P8,Fz,Cz,Pz,ref
-4000.0000,-210.9229,-159.9840,99.8033,24.4247,164.1362,52.0298,135.5952,151.7364,31.5177,-48.6874,-181.6352,-113.2080,44.3954,55.6046,77.9937,23.7158,53.9145,109.7452,64.5436,15.4882
-3992.1875,-115.5512,-62.7489,134.0391,89.3442,52.6211,160.6476,-124.6899,-218.5614,100.3376,-126.9600,-116.2592,-119.0970,42.7546,89.1149,185.7279,-17.2701,108.1865,176.1652,-43.8386,11.3302
-3984.3750,-222.3526,-169.6739,176.1182,57.0796,205.9700,166.1520,-45.1443,-29.0158,104.0005,21.6341,-226.0054,-117.0979,28.2205,-53.5352,79.3032,-13.4174,117.9981,215.4107,136.6346,15.0171
-3976.5625,-212.2318,-263.6596,84.1235,71.7305,152.2695,111.6340,194.3776,64.5033,-25.4100,1.1795,-101.7471,-28.0973,34.4450,37.7692,-49.2009,-69.6192,63.0577,196.5774,47.0400,-4.3516
-3968.7500,-138.1016,-188.6444,204.1196,115.3585,125.5534,195.1588,-164.1487,-293.0363,19.1714,-64.2852,-97.4263,-59.0544,20.5445,83.0702,33.2879,-24.8177,147.5155,241.7305,92.4382,40.2778
-3960.9375,-233.9457,-248.5821,148.1398,-12.0087,218.8980,139.7639,222.3916,165.5038,-75.2211,-13.6903,-158.0122,-190.9130,67.6127,-9.5982,13.7998,29.0331,67.1374,151.9014,143.8860,19.9473
-3953.1250,-116.9928,-165.7193,166.9440,40.3972,55.0319,159.2054,20.7200,-146.1895,-57.8389,-69.3095,-32.7244,-137.9022,86.5627,-28.4677,142.0947,9.6820,95.4885,169.8431,21.1059,37.4097
-3945.3125,-239.0947,-251.8964,228.6907,-43.2792,191.1256,184.6385,-101.0437,-46.9655,39.4734,62.0127,-159.4381,-152.8950,70.1315,-150.3907,129.3197,107.2729,90.0422,193.7113,186.2750,60.8166
-3937.5000,-276.9569,-218.8185,123.6501,-111.7466,124.4651,80.3490,163.4718,179.5281,-66.9979,65.5710,-84.8356,-39.5754,57.5828,-36.0610,24.7689,111.1039,-9.1955,91.7933,48.6762,28.4623
-3929.6875,-11.6930,-163.6246,223.6934,-53.1370,78.8786,107.1928,-250.9709,-270.9460,68.6227,52.2105,-26.0482,-126.0918,23.1713,99.3699,87.3136,100.0234,72.8984,80.9532,4.1503,53.1993
-3921.8750,-78.4322,-404.4179,159.7080,-115.5646,237.3044,-28.9505,89.5896,143.5891,3.2198,170.8508,-94.1986,-192.5537,34.2296,72.7826,-51.1776,108.9315,5.3352,20.0764,118.6152,61.9237
-3914.0625,-57.3032,-348.3377,187.5455,-55.1612,119.5592,-37.2255,44.9858,-86.0531,-7.3658,85.3332,-33.4108,-93.0868,25.6295,26.0332,-23.8451,135.6764,39.1575,47.0120,4.8934,88.4879
-3906.2500,-191.7147,-375.7813,272.8223,-80.3281,206.2556,11.9725,-126.2281,-146.2950,113.4827,131.2714,-173.1022,-121.1179,31.7866,-36.2885,97.9162,255.8636,60.6412,24.3694,193.6077,135.4935
-3898.4375,-242.2345,-285.2971,118.9536,-161.6360,126.8434,-102.9187,270.4795,140.3836,31.2044,48.1088,-146.8218,-20.1941,31.7771,66.2796,53.5449,247.9439,-59.3252,-91.4114,114.2011,90.3834
-3890.6250,6.6833,-140.3799,199.4503,-13.5761,-48.2049,-21.3840,-161.4652,-328.6065,111.3111,-92.6653,-33.0339,-13.7974,-13.2205,220.2379,97.5562,181.4137,56.4513,-47.8222,17.1625,133.6620
-3882.8125,-160.5842,-376.6258,214.7069,-35.7637,78.5401,-41.0371,74.3707,17.2029,88.1902,-5.6283,-131.3660,-111.5302,-1.6312,234.9697,2.3258,231.6680,39.9930,-33.4746,172.9162,147.7241
-3875.0000,-70.8262,-285.8349,132.9130,-11.9841,-75.7434,-48.6845,103.1973,-101.0052,78.0367,-126.5965,-33.6038,-48.1800,7.4427,225.7046,66.0593,221.9053,14.7882,-43.1621,22.6346,137.7686
-3867.1875,18.9637,-160.0004,195.0892,-60.2272,-12.0504,-22.3137,-202.0425,-332.2720,175.8755,-103.5714,-84.7530,48.2343,-18.6393,140.4211,127.7736,210.1274,35.9521,-87.8821,118.3339,161.7971
-3859.3750,-114.1841,-257.0691,63.2637,-153.4620,78.6784,-152.8972,218.7844,51.5280,6.7358,92.5035,-108.7650,99.7708,4.1371,82.1598,32.5014,188.3748,-81.3911,-180.5970,97.0621,139.8541
-3851.5625,-56.9734,-268.7814,200.6976,-57.4221,-40.3424,-88.1666,-121.1420,-362.4366,68.8718,190.8633,-85.3583,87.6857,-19.9223,108.1862,132.5003,213.8934,13.8002,-153.0445,20.0508,202.1977
-3843.7500,-299.1193,-439.8373,209.6888,-155.8259,154.2120,-77.8282,34.4958,-57.8207,149.5785,308.8188,-262.2610,22.2682,-14.5781,116.7835,104.0611,294.9976,-37.3407,-179.9327,168.6281,210.1227
-3835.9375,-258.1789,-361.7823,113.6744,-180.2198,-13.2174,-98.4418,161.1779,-79.1714,126.2976,210.8121,-178.0005,108.9815,2.7864,241.4163,192.6364,236.1366,-104.6021,-237.8154,6.2094,187.0746
-3828.1250,-107.1851,-245.6601,201.6237,-131.6363,2.3271,-46.0501,-191.2113,-358.5964,212.9953,222.7904,-166.6295,85.7626,2.7033,108.0277,280.1807,212.2535,-14.7730,-187.7262,56.7603,237.0082
-3820.3125,-236.3617,-301.6716,74.3186,-115.2912,60.6581,-97.8722,196.1990,64.7870,120.4541,277.5634,-222.3582,103.4190,-10.4100,54.4115,114.4722,157.1382,-69.0178,-241.8812,73.0854,218.7174
-3812.5000,-152.5244,-218.6543,128.9156,40.9739,-139.1100,-41.7446,-78.4961,-319.9414,174.8315,111.2578,-96.0059,121.1177,-27.0715,182.7289,169.6796,137.9516,15.3353,-188.1190,-13.6879,236.3556
-3804.6875,-261.6794,-430.6104,205.4179,76.1528,11.0489,-0.6688,-38.3013,-132.7626,213.1275,183.8893,-278.5880,49.8334,-21.5987,110.9603,171.7985,103.6937,64.9111,-116.4389,163.4620,237.9191
-3796.8750,-372.5808,-470.2897,170.0506,179.5033,-22.6248,2.5948,220.0861,-20.3971,139.5678,183.7030,-315.8402,50.8282,6.1189,112.3698,210.0737,31.6095,77.2277,-117.5949,57.7613,201.6526
-3789.0625,-422.8523,-379.3268,305.1925,272.3908,4.2055,102.4126,-121.0672,-325.5738,274.5242,281.0441,-366.4142,-144.5516,-9.9160,100.3061,271.8615,19.0436,197.0150,-22.2259,188.5699,225.9128
-3781.2500,-487.8177,-478.0265,172.5212,104.4880,94.2634,44.4649,261.0129,203.4969,176.6862,329.6176,-280.6246,-241.6072,31.6424,77.4585,100.8472,31.7007,60.0657,-82.6526,268.5992,165.3928
-3773.4375,-172.1037,-161.0299,68.3898,2.1615,-118.1368,89.1001,47.6451,-82.8932,108.4116,187.7581,18.9052,-125.9719,20.8678,47.1885,70.3922,36.9386,1.4570,-79.5128,133.1695,134.4465
-3765.6250,-167.6122,-225.2311,114.9097,-96.4939,-33.8759,100.4207,-52.0977,74.3560,116.7971,342.5931,-119.7364,-225.5629,-3.5830,56.5810,79.5889,45.8499,-1.3515,-35.7051,283.4033,143.1744
-3757.8125,-351.7918,-338.0786,1.6038,-101.9303,-72.4121,61.9600,313.3882,402.8490,2.3699,374.6699,-343.9879,-119.8173,-45.8894,90.1975,75.9760,41.9772,-63.9809,-39.6933,243.8354,139.1191
-3750.0000,-414.9599,-188.9190,158.1424,-57.4830,-60.1060,110.3793,-117.3154,8.1480,120.8047,419.6246,-409.1903,-73.0857,-87.2961,26.6940,159.2280,161.9681,30.9367,6.1825,220.1135,184.9323
-3742.1875,-561.4587,-404.0535,47.2110,-96.4677,88.7662,75.3587,213.5541,414.0317,82.7994,565.1707,-335.6704,-329.6812,-30.5281,136.7481,12.0308,198.5276,-58.2750,-66.3832,323.9570,147.3075
-3734.3750,-267.7679,-530.9727,-41.6904,-10.3672,-110.3148,135.4047,124.4858,177.9619,139.8467,436.7932,-58.8972,-308.0867,14.9109,230.8682,68.8732,71.1524,-81.4210,-84.8849,164.8404,93.7491
-3726.5625,-299.5231,-561.3156,38.8052,-215.8420,-26.9937,107.8752,-14.2231,112.2711,256.3105,479.8446,-235.5315,-42.9686,-19.9310,54.3944,150.1068,78.1944,-133.7759,-77.9698,313.1380,100.6092
-3718.7500,-580.2799,-243.6374,-28.8784,-388.4435,18.1759,-66.8003,360.9554,414.4721,150.6189,300.7720,-303.1192,221.1326,-10.9486,-50.2149,119.1749,47.0968,-241.5213,-144.2010,247.2817,69.3309
-3710.9375,-409.3112,70.7703,5.9771,-285.4439,-129.1264,-29.9045,-81.3606,-65.8286,221.4831,76.2633,-120.9465,146.9253,-19.0077,58.7517,189.8039,44.5509,-152.1267,-74.8592,140.9562,103.6179
-3703.1250,-363.7437,-94.1931,-87.7301,-272.9688,-38.9643,-49.5488,117.7692,245.3328,125.7937,127.2441,-105.1357,-21.7150,-5.0240,37.1729,57.8728,59.4589,-182.1827,-97.0490,189.0891,81.3644
-3695.3125,-110.3512,-120.3236,-148.8167,-158.8210,-207.1585,-35.5360,58.5592,38.1477,-10.2499,27.8983,92.5382,103.4268,-17.9981,50.2595,-3.4272,35.0313,-169.0510,-121.5775,-46.1467,56.7695
-3687.5000,-59.8329,-68.3091,16.0357,-177.6987,-186.4063,58.4389,-288.7537,-199.1315,44.6750,8.5173,38.3614,123.6508,-56.9057,32.2909,15.2185,53.5752,-89.5807,-68.1328,7.5669,75.1403
-3679.6875,-159.9105,-131.8528,-45.9004,-135.3006,-63.4041,72.6587,90.2155,106.8726,-92.1546,-54.5913,-58.3721,99.2571,-37.3415,117.5786,-46.9016,-8.6251,-112.1379,-165.4255,-89.4742,12.7691
-3671.8750,51.0578,-95.3423,30.9901,111.9977,-169.5760,298.7366,-272.9994,-403.3215,-126.1347,-235.8391,18.9709,324.8458,-78.7248,157.7337,-44.1763,-115.9853,20.7081,-197.8432,-226.6851,15.2595
-3664.0625,7.6040,-172.2309,25.2568,104.7259,10.6503,295.2128,-167.8336,-224.1141,-168.7116,-168.6570,-169.0888,394.9476,-112.5582,5.2907,-123.0710,-121.9525,19.2944,-273.8389,-127.4865,9.1574
-3656.2500,-32.7711,-211.0179,-86.6160,136.3935,-98.2369,332.5854,-20.7560,-225.0010,-244.3964,-207.5645,-94.0376,248.0782,-98.4018,151.7650,-125.0783,-87.0150,-16.9802,-206.9150,-270.4119,-29.0408
-3648.4375,-31.2504,-242.8935,-8.8079,243.8079,-92.4447,412.6657,-383.0352,-551.2433,-132.3684,-131.7643,58.9156,218.0386,-32.9643,8.9462,-10.3772,-83.3678,47.2927,-168.2692,-231.6488,-25.5302
-3640.6250,-123.1572,-87.1591,-210.6399,11.6506,-72.2559,249.1227,3.1040,-127.0537,-187.9518,-77.5309,116.4668,422.5312,-13.0207,-229.4753,-102.3001,-138.3126,-141.5004,-258.2171,-216.4880,-80.6161
-3632.8125,108.4969,146.1445,-188.1536,-37.1137,-267.7470,273.9131,-230.4376,-470.5507,-92.1842,-165.9289,-5.4047,263.5106,-135.3343,-22.5409,-42.8925,-115.8985,-98.3572,-200.7992,-264.0006,-58.3438
-3625.0000,139.1561,-138.5283,-190.8866,28.9562,-157.4445,348.4855,-195.2174,-252.2646,-57.6143,-21.4998,-78.2739,43.4040,-163.1891,-24.8159,-192.7034,-80.6788,-69.1654,-168.5676,-91.7102,-97.2665
-3617.1875,189.2127,-86.7812,-353.4626,79.2585,-245.9608,297.2299,47.2223,-83.7646,-111.8540,-112.8517,166.2713,213.6183,-116.7102,-3.8851,-282.3294,-97.2537,-144.6942,-222.1294,-180.2393,-150.9883
-3609.3750,164.1886,347.8961,-269.3599,-15.6840,-306.8057,310.6581,-308.6976,-401.6220,8.6149,-176.4821,143.7266,448.6512,-151.1380,-176.2503,-161.2640,-86.1328,-121.1632,-175.9662,-134.0855,-140.0031
-3601.5625,16.4541,870.8993,-420.1974,-374.4836,-234.5557,161.1568,19.4849,35.6486,-179.8223,-143.9833,290.4773,557.9023,-128.3986,-399.5229,-348.1223,-90.9199,-309.0504,-286.6882,-69.8338,-180.9183
-3593.7500,424.7402,1350.9379,-471.2705,-424.4259,-466.5453,113.4328,-288.5562,-308.3134,-305.4643,-305.6890,795.2479,657.0800,-95.1482,-339.9865,-399.1875,-104.9023,-325.6422,-300.5858,-259.8091,-195.0289
-3585.9375,588.2379,1199.2131,-519.3682,-577.3208,-403.5528,139.6832,-408.6415,-245.3058,-318.0965,-171.3775,787.2148,575.3666,-88.0586,-351.4620,-374.2604,-116.8813,-398.8543,-312.4627,-130.7826,-207.1361
-3578.1250,512.7505,843.5245,-670.7153,-549.3679,-405.7798,249.6890,-43.9066,46.5248,-284.9429,-102.2463,751.2000,611.5750,-62.3196,-244.1393,-378.5656,-120.0778,-503.1950,-458.5232,-170.9741,-247.4451
-3570.3125,685.8609,913.4282,-562.7377,-411.9952,-478.6915,543.0143,-486.8859,-323.3563,-141.4449,-31.7605,1046.7659,576.2552,-39.4666,-393.4637,-417.5407,-122.9297,-424.9622,-707.2045,-208.8404,-250.4014
-3562.5000,684.9882,1090.3724,-670.9950,-413.7715,-401.8171,916.0974,-300.0778,84.5721,-323.1623,117.5431,1238.3291,397.8502,20.1504,-499.9995,-562.7415,-82.9739,-508.4026,-1306.0649,-209.9112,-321.5609
-3554.6875,789.8026,986.0118,-670.8463,-204.0345,-436.5315,1764.5887,-409.8332,-135.0757,-434.4344,-103.7026,1316.5616,402.0186,65.3472,-316.0748,-489.5037,-83.5693,-464.5206,-1799.4590,-422.5672,-358.2712
-3546.8750,833.8003,855.8571,-552.7719,-55.2931,-279.3234,1700.9902,-546.6949,-198.8157,-426.7453,-169.9825,1256.9434,524.2440,58.2358,-344.2090,-554.3308,-222.2161,-357.4801,-1755.8816,-343.2788,-350.0285
-3539.0625,848.5684,837.5024,-648.1956,-76.9536,-261.5861,1571.8839,-199.9902,112.0175,-594.5187,-81.6936,1167.0806,728.1356,35.3087,-364.8034,-649.6387,-464.3151,-390.7246,-1635.7443,-399.4540,-371.2373
-3531.2500,994.5867,844.4049,-498.6505,-144.5440,-367.8958,1538.7341,-601.3372,-290.2101,-483.2874,30.5958,1174.4316,918.1393,-6.6392,-325.3988,-536.9490,-608.4150,-359.0341,-1596.5800,-466.6558,-332.4425
-3523.4375,877.6294,729.3638,-546.3398,-262.2846,-229.4219,1456.3357,-390.9010,31.3674,-495.2545,92.7047,1059.7681,912.0421,-20.6346,-335.2112,-621.4805,-508.7197,-446.5036,-1678.5951,-373.0620,-379.8476
-3515.6250,855.6616,674.3290,-609.3267,-75.2135,-290.2350,1396.6273,-341.7174,-29.3128,-484.4790,-116.4221,1003.0648,854.8100,-36.3393,-139.2727,-573.2881,-350.2887,-394.1520,-1561.8407,-536.7422,-368.5044
-3507.8125,825.3910,681.0044,-497.8857,-2.6276,-287.6227,1362.3240,-634.1467,-248.5916,-373.2435,-153.0795,974.0059,639.1233,-17.8891,-211.8896,-462.6624,-312.4206,-282.7407,-1312.6071,-429.9764,-330.7111
-3500.0000,702.4958,595.0854,-589.3418,-56.8271,-265.8790,1273.1069,-283.4095,103.3102,-464.8651,-133.5776,889.2802,479.6856,6.1918,-191.3606,-480.9130,-293.4099,-313.9251,-1014.2029,-449.0699,-384.7738
-3492.1875,687.1575,546.7497,-499.5294,65.3626,-320.8813,1219.1392,-558.4175,-356.5459,-337.1892,-190.7861,839.0627,427.6528,17.0331,-136.5315,-279.8740,-239.1105,-200.2720,-644.4661,-535.8907,-367.5385
-3484.3750,596.3651,492.9779,-487.4425,-134.0737,-158.6014,1160.4132,-398.1577,-122.1088,-398.2143,-104.6809,785.3301,519.0085,16.4949,-307.4206,-413.5631,-262.5252,-262.0586,-527.4025,-419.4154,-391.0080
-3476.5625,613.3217,511.9841,-584.8944,-260.9325,-291.8528,953.1213,-201.3970,-109.1720,-460.7576,-56.0683,805.2969,756.9561,-57.8584,-293.8149,-547.7745,-250.4562,-348.4759,-406.8133,-510.4677,-341.9841
-3468.7500,628.0373,563.7589,-539.8647,-459.2075,-391.6396,449.2775,-448.2048,-393.7936,-267.7914,-9.9482,820.9540,808.4857,-73.6108,-284.7260,-392.4879,-167.8843,-402.1519,-147.6899,-394.0322,-259.4592
-3460.9375,565.4344,468.2272,-681.4288,-524.9717,-272.9947,51.8122,72.4477,18.0632,-262.3792,-5.3502,760.2378,487.5497,11.5468,-205.2028,-313.7669,-161.8654,-481.2835,-37.0992,-355.1535,-290.4893
-3453.1250,575.2973,480.1731,-493.8286,-131.4591,-304.1917,-53.5224,-143.7315,-344.9211,-148.7631,-111.5320,771.9195,276.9075,68.1841,-126.4801,-125.8496,-304.6656,-235.2894,109.7167,-418.1075,-249.3208
-3445.3125,510.4172,453.3865,-418.2557,-93.8676,-153.4074,-196.9320,-177.9504,-194.9235,-147.1426,-72.6862,745.7725,284.3445,56.7456,-233.7777,-270.9471,-339.4812,-182.2523,183.5618,-276.0606,-247.1540
-3437.5000,486.2935,430.3663,-523.2258,-192.6927,-255.1578,-334.9186,50.3415,-76.4168,-214.0294,-103.3366,723.3127,553.3693,33.6346,-226.5807,-264.5671,-221.8013,-282.2661,225.9286,-375.5387,-240.4930
-3429.6875,486.9938,433.1714,-418.6673,-160.8736,-185.4034,-376.4168,-285.8821,-448.4234,-73.3484,-145.4362,725.5848,517.0188,61.2410,-268.8380,-123.6387,-153.5667,-222.7719,292.8798,-309.4868,-209.2829
-3421.8750,448.7857,397.0870,-501.2987,-309.1272,-7.8127,-603.1351,111.7536,-51.5574,-155.8101,-43.6695,688.8660,514.5827,71.7724,-313.2648,-278.8800,-235.4925,-320.7000,215.7052,-211.5854,-217.2269
-3414.0625,471.1992,421.6278,-485.6114,-360.9440,-174.9203,-660.5749,-93.2780,-329.3763,-139.9175,-65.5517,712.6805,645.5737,21.6621,-149.3378,-226.7787,-183.0824,-334.6534,338.9130,-334.3596,-164.8209
-3406.2500,416.9304,370.4728,-399.8870,-313.6208,-124.0012,-756.0389,-226.3095,-279.1745,-127.9605,-15.3736,661.7031,443.6753,37.4611,-99.3707,-176.6362,-169.6229,-282.1481,386.2054,-183.0812,-188.3631
-3398.4375,346.8099,337.4669,-404.2981,-177.3060,-89.2128,-795.6906,101.5793,-24.0510,-169.1039,-93.2934,592.7918,371.7459,33.8539,8.4903,-254.6096,-173.2598,-242.9684,311.4213,-258.9183,-229.0071
-3390.6250,394.1681,385.9431,-256.5283,-204.6831,-121.2631,-755.2188,-299.3888,-387.7870,-19.0316,-238.0191,641.2504,528.0826,44.2696,-98.4628,-141.3789,-170.7049,-180.1277,423.8762,-218.5702,-152.4451
-3382.8125,349.9842,343.8830,-344.5821,-430.7708,-62.1260,-953.6347,-20.1566,1.6936,-108.7601,-179.5255,598.0500,628.6765,68.8171,-297.2355,-156.9604,-75.9636,-307.0223,480.5578,-128.0158,-167.6824
-3375.0000,303.3770,299.4008,-327.3626,-95.4530,-151.7287,-1081.8351,-74.6313,-236.5475,-90.1929,-271.7361,552.3173,616.6325,83.5525,-94.7087,8.7544,-19.9320,-170.2426,709.5734,-287.1878,-185.6190
-3367.1875,241.4852,240.6338,-140.6988,190.4263,37.0951,-1149.6554,-253.7125,-342.3791,-49.1634,-193.4968,493.1789,517.0855,85.8775,-89.7474,-61.0795,-126.4479,30.1686,854.0813,-213.9094,-218.1003
-3359.3750,265.7325,267.0082,-234.1624,33.3035,19.8041,-1389.6608,132.1325,7.7197,-143.2320,-176.3496,520.0775,540.4950,77.8832,-108.8895,-191.0262,-145.0683,-64.9824,872.5248,-196.7369,-200.6832
-3351.5625,337.5007,340.8864,-98.3878,-76.4555,-174.2717,-1436.4840,-245.8165,-369.9832,-80.0336,-223.9535,592.3763,609.2104,60.6861,-81.7743,-54.7205,-82.4440,-45.0099,973.2609,-168.3240,-101.0109
-3343.7500,289.0738,293.5652,-157.0780,-165.5684,-46.8127,-1603.8334,-9.2243,-23.1218,-101.2715,-97.9973,544.3514,594.5126,65.3578,-139.1213,-149.8773,-103.2750,-113.2680,918.5785,-48.3479,-121.7833
-3335.9375,266.6693,308.2689,-263.0469,17.1773,-150.6415,-1562.5166,70.1223,-54.5141,-60.7522,-167.2845,559.2177,568.6142,66.6045,-59.7180,-108.2875,-98.3605,-83.1879,959.6781,-148.6373,-116.8035
-3328.1250,290.6915,299.3777,-100.8729,70.1842,-96.3448,-1472.1211,-208.4294,-221.8012,65.9340,-151.4060,548.3598,553.9014,37.4456,-154.1711,-166.5412,-156.2915,11.3564,941.9686,-27.7714,-100.6661
-3320.3125,257.1021,302.8633,-182.5659,-40.5537,-64.9099,-1515.6631,190.1955,214.0989,21.7805,-158.3461,514.7616,369.3750,53.1297,-123.4839,-246.6605,-200.0670,-58.7604,866.4428,0.2509,-107.3744
-3312.5000,283.5298,332.3603,-55.5120,86.5804,-193.7626,-1387.5259,-160.4672,-209.2933,185.3966,-360.5385,579.0535,172.6402,113.2327,-32.0436,26.9717,-146.0856,50.4349,921.7095,-50.9908,-53.3231
-3304.6875,276.4662,327.3516,-35.2130,-32.9343,-24.3746,-1403.2166,-64.8967,32.5659,169.2763,-266.4709,537.7041,-57.8212,152.2673,-194.3610,10.8612,-50.8462,23.2789,836.2656,74.0346,-69.0150
-3296.8750,289.2641,342.1811,-108.3358,8.2616,-95.4096,-1401.3878,84.2940,109.0362,23.7675,-227.8036,587.0673,-49.6458,139.0908,-119.0650,-60.6397,-12.0085,9.8972,806.4659,-63.3508,-30.1024
-3289.0625,359.9697,414.8969,-10.8007,107.2394,-69.8154,-1302.9731,-330.9087,-122.8889,11.9419,-203.4739,622.1770,-164.7936,97.3975,-93.1235,-145.4787,-61.5171,123.5652,869.3701,-2.0795,31.4742
-3281.2500,300.1092,357.0463,-46.0775,181.5254,-29.0280,-1264.4392,-34.8825,284.4286,-96.6709,-200.9103,598.5716,-265.7199,107.8096,-16.9998,-254.1224,-95.8234,123.0086,730.5145,-36.5880,-2.7406
-3273.4375,295.5064,389.4445,83.6465,345.9313,-117.2700,-1059.9786,-270.8728,-99.2804,-39.2627,-254.3358,593.0724,-275.6248,149.0188,78.1291,-13.7465,-184.1310,236.4076,717.7111,-192.0973,18.0573
-3265.6250,298.4827,358.4041,112.7268,165.8044,96.8363,-993.2370,-240.5211,42.3578,-120.4666,-150.3964,596.9932,-350.1653,197.7797,-76.3900,-57.9997,-191.0895,185.5592,642.3059,-59.2267,11.2186
-3257.8125,293.4921,355.3773,-15.4047,47.5909,-29.2619,-973.7720,36.6744,209.8290,-172.8437,-167.6460,590.7968,-323.8914,177.1935,-128.0951,-75.4505,-25.2447,79.4362,557.7412,-143.5477,31.1896
-3250.0000,297.7134,361.5308,51.4290,220.4476,-107.4273,-870.4155,-336.2186,-199.7875,3.7672,-210.9398,595.6335,-396.6580,197.0629,-97.8451,139.0739,5.5640,169.3081,588.1771,-115.9067,25.1270
-3242.1875,228.9064,294.6298,7.0140,355.1631,71.1605,-913.3858,24.6747,162.3902,-2.8407,-180.4586,527.2820,-580.6768,249.4382,-66.8516,96.3629,-147.8548,193.0655,475.4021,-89.4844,-54.1727
-3234.3750,269.5381,338.1363,145.8077,389.2165,-9.0727,-811.2225,-93.2194,-103.2388,-10.2141,-224.7651,567.2077,-508.4834,241.6229,-0.6502,124.8738,-228.0599,267.8616,472.8721,-199.8607,11.7434
-3226.5625,333.4553,403.8991,123.6772,58.4544,44.7473,-759.0710,-223.0847,-49.8239,-31.4944,-172.0016,595.2352,-449.2468,194.3484,-93.3984,-6.5460,-101.2082,141.7928,386.4445,-42.1547,64.7296
-3218.7500,288.0958,395.3730,-45.9500,4.3224,-85.9372,-928.4848,86.5948,150.1353,-162.2586,-193.7264,584.8151,-390.5136,185.8463,105.3691,8.5459,-50.8426,43.7534,507.5572,-132.9313,43.2317
-3210.9375,325.6371,399.7194,126.1027,315.9801,-131.9933,-1271.3081,-291.1096,-300.2902,-27.3350,-240.7915,290.1199,-469.1246,94.7966,204.8004,181.3176,-24.8183,297.2901,1027.3689,-107.0488,69.4056
-3203.1250,268.7018,379.5635,165.4705,356.0540,55.2640,-1710.9055,5.5178,70.6229,-98.0733,-91.5206,120.7658,-569.4376,65.6415,61.5257,37.4039,-21.4859,345.0961,1136.5212,-0.8313,35.8973
-3195.3125,302.1493,414.7628,112.0067,311.4148,-142.3397,-1616.4211,-82.6774,-91.3036,-148.6328,-70.0847,448.6059,-357.5922,93.3513,83.4126,-15.3308,0.0072,259.1123,983.8729,-85.4518,57.5590
-3187.5000,294.3698,373.7026,165.1310,225.4573,-52.3896,-1343.4398,-285.3424,-110.6898,-59.5985,93.9227,108.0206,-445.2128,-18.2946,63.8681,1.5171,54.0755,266.8315,860.8299,70.5154,37.7974
-3179.6875,200.4353,316.4609,129.9202,263.2685,98.2178,-1231.8689,157.7041,259.6335,-93.8863,169.6085,-281.8938,-510.2005,-84.0545,176.9951,-32.9565,-54.1814,278.0611,755.4835,34.1627,-33.2921
-3171.8750,260.5156,378.1912,249.5480,280.0233,73.6243,-1075.5435,-161.4619,-133.2617,-83.3239,106.1137,-111.9763,-493.3983,-33.7063,187.9467,51.4136,-80.6143,328.7117,699.9929,11.6325,14.4474
-3164.0625,234.4367,352.7254,208.8616,174.5559,143.7077,-969.6199,-55.9472,194.5368,-160.0604,176.3116,-141.4068,-453.9756,-54.9137,-73.4463,-100.5412,-10.3728,270.2239,557.2003,112.8015,10.8661
-3156.2500,248.9130,368.7764,245.5519,251.5742,-0.8613,-822.4001,-17.0382,122.7193,-122.4061,30.8722,-55.4640,-262.2194,-56.2322,-107.4710,-99.1154,-8.7517,287.6202,419.8096,-25.6543,12.6652
-3148.4375,298.3439,419.7536,318.0408,186.4825,36.3232,-713.4620,-237.3988,-97.3589,62.0487,30.2047,-191.7687,-292.7400,-88.9758,-143.7299,11.1127,-46.3489,304.0668,317.2329,80.6819,49.2503
-3140.6250,262.0010,384.9272,194.6059,212.5645,61.5766,-654.5280,191.3525,221.6873,48.5963,54.6318,-340.0323,-410.2333,-83.6614,-83.9193,35.4317,-131.8722,262.0901,199.7466,31.1105,-0.0827
-3132.8125,260.1597,385.5529,324.5114,484.0931,-64.8683,-377.3338,-118.5863,-234.9751,143.5039,-72.6103,-417.9907,-493.4439,-116.1252,11.2202,166.1057,-111.0779,436.2330,257.6162,-18.1310,20.9218
-3125.0000,247.9880,374.8044,371.9665,393.2486,94.2164,-257.6818,-70.9952,-3.0953,154.9802,12.6941,-653.4744,-550.1907,-183.9998,-124.1267,66.3199,-63.7461,437.0426,129.0374,96.1876,-4.5359
-3117.1875,266.4859,394.6807,264.9517,262.0322,26.8108,-254.5717,81.1607,2.3379,49.0090,-56.4676,-380.4678,-282.4666,-103.6556,-118.9377,71.0815,-58.8617,301.6306,30.0003,-74.9525,0.5433
-3109.3750,302.4165,431.9282,323.2456,359.2010,-24.3340,-87.2398,-299.4334,-304.9826,71.3608,-34.3367,-383.2313,-327.5204,-117.4525,-23.4772,167.1537,-73.6852,373.6827,54.2700,-16.7921,22.9179
-3101.5625,233.8045,364.5854,274.8805,422.7883,75.8555,-27.6540,93.3465,88.0786,-48.9295,-44.8517,-603.7217,-516.3096,-106.6337,113.3006,193.5674,-121.1819,384.4585,-26.1123,-29.2736,-24.3657
-3093.7500,284.3298,416.3307,310.5175,499.4601,-71.0019,117.8554,-126.8960,-278.8984,-12.2089,-191.3827,-372.2773,-511.1847,-48.3805,150.0643,302.9841,-47.6986,414.9702,-58.4835,-133.7655,12.3455
-3085.9375,298.1088,431.2868,272.3147,222.3564,77.2782,41.4431,-127.0115,-131.7373,24.6839,-82.7572,-398.7830,-506.0117,-59.4586,-34.0485,229.5531,62.9333,295.6172,-126.6994,6.9112,12.2007
-3078.1250,248.0345,417.3493,132.1617,234.3750,11.5885,9.9990,174.9588,23.4937,-41.3623,-112.0826,-417.3342,-419.8783,-79.9172,47.8701,163.1790,-3.3933,238.6586,-83.8649,-93.3613,-16.9037
-3070.3125,259.5725,429.9678,275.5363,412.9904,-27.6242,151.9942,-231.6121,-309.8291,103.1180,-186.9283,-520.4798,-527.3416,-129.7468,81.2777,233.3317,-6.2284,390.3440,21.4876,-25.1322,-19.5101
-3062.5000,209.8856,346.2966,210.6279,389.3894,129.8596,85.6225,145.5421,141.5837,76.3092,-142.0715,-684.0426,-623.2094,-139.8175,17.3745,133.1880,2.6281,352.1012,-75.4504,51.8171,-83.4187
-3054.6875,226.2878,363.6480,248.7402,501.8838,21.3200,122.1960,36.6974,-114.0229,78.5182,-177.2328,-450.7036,-579.1626,-99.6997,93.4671,135.0628,-31.5092,381.3658,-142.3776,-52.2364,-81.3268
-3046.8750,242.9223,381.1866,287.0285,474.6036,134.9272,84.8633,-71.0188,-37.4985,80.9108,-64.2463,-549.3345,-646.0576,-152.1373,-14.3173,26.1109,-29.4935,399.5567,-208.1483,125.8844,-79.0800
-3039.0625,224.7787,363.9084,179.4714,482.5395,102.6750,49.6154,264.4650,224.2126,11.4728,-97.1148,-718.9290,-599.8925,-216.0592,63.0338,-43.6780,10.6608,360.1633,-238.7667,93.1696,-111.6812
-3031.2500,242.9749,417.8972,291.1995,526.8222,30.6549,233.5726,-175.8333,-214.8720,124.3226,-241.7397,-633.3912,-556.5830,-220.8695,101.6465,31.8069,86.0646,430.8071,-163.1198,61.7188,-73.0236
-3023.4375,224.3672,400.0191,146.1113,253.3317,145.7918,197.6344,86.0459,156.2269,17.3501,-129.2040,-582.8495,-512.2382,-177.0340,-5.6009,-38.5405,52.6347,253.1480,-263.3154,133.4521,-106.2100
-3015.6250,262.5688,403.8901,95.7984,282.6680,-51.3383,218.4013,35.6982,-39.9191,4.1577,-142.9209,-439.6809,-373.2359,-144.0390,54.8980,95.8943,38.9742,215.8266,-308.7522,-19.0536,-82.6377
-3007.8125,296.5255,438.4549,150.2304,413.7781,-31.7664,270.8364,-165.9698,-131.3875,97.7065,-123.9214,-815.9539,-496.6404,-229.6952,37.0849,262.0609,95.0249,328.3712,-287.4745,106.1737,-63.3496
-3000.0000,269.5162,411.9918,34.6870,517.9613,-36.1860,263.2285,271.4180,158.1937,56.2753,-165.9110,-995.3649,-534.1525,-263.9282,69.2734,220.2462,53.0893,328.6591,-327.1931,64.4289,-105.0515
-2992.1875,332.1158,475.0708,81.7371,501.7825,-99.0673,345.1441,-48.6586,-270.7118,104.4322,-191.3526,-680.3594,-519.2181,-202.2608,43.0241,231.0265,-9.2837,339.5000,-277.3452,41.2503,-57.1867
-2984.3750,300.5876,478.9660,-77.3209,214.5216,36.9225,256.8748,124.1442,85.2632,56.4785,17.0784,-609.6732,-563.5424,-176.5188,-115.3730,109.6879,-20.7924,156.0585,-391.6384,135.9614,-68.4578
-2976.5625,308.3379,487.0826,-159.0994,354.5747,-79.8405,210.8257,190.2454,4.5144,49.8093,9.7735,-570.8824,-492.7171,-160.0863,-48.5033,212.6333,-28.0338,152.2749,-467.6751,22.9392,-75.4620
-2968.7500,340.3203,519.3552,4.3839,412.9007,-25.3978,260.9650,-86.4742,-198.0507,177.3826,26.6869,-766.0540,-508.8015,-236.2246,-178.4281,229.8173,24.9544,263.3588,-483.4872,111.1569,-58.2412
-2960.9375,329.6480,508.9034,-94.7385,358.6435,22.4214,159.4343,293.2139,180.7966,79.3373,74.9779,-856.0424,-457.6470,-282.6572,-167.9960,57.3791,-0.6803,201.6023,-541.9403,120.7617,-83.6521
-2953.1250,408.8446,552.2542,-30.9525,464.3210,-168.9074,220.7499,-47.2460,-194.5264,107.1873,-7.8750,-673.3399,-425.7422,-289.3740,-66.6893,84.8445,-9.4472,264.7771,-510.5223,115.2373,-19.1888
-2945.3125,434.6814,578.1780,-57.4554,200.7172,-85.5551,154.7079,37.9673,72.8321,81.7378,39.9535,-654.1693,-485.3023,-318.8436,-128.7295,-88.0002,74.4595,155.9817,-603.4401,231.4113,-8.0496
-2937.5000,476.8105,620.3340,-177.6170,128.4815,-276.8915,105.9521,175.5417,100.5332,72.6223,-80.8991,-544.8638,-380.6611,-314.9432,-101.4519,-60.5099,138.6928,68.0168,-609.0461,153.9221,19.4145
-2929.6875,514.4410,657.9199,-45.2155,298.8133,-253.7181,198.7064,-168.3940,-169.2793,133.0581,-94.2306,-735.2343,-428.6217,-366.4784,-151.6503,36.5330,124.4589,224.0309,-514.1320,211.9792,42.4095
-2921.8750,453.4340,632.8073,-122.3624,406.6008,-146.1080,118.8568,196.1409,232.3797,20.9403,-61.1297,-767.3973,-428.2903,-356.8449,-228.4369,-113.9797,48.6499,228.9924,-586.8108,172.4894,2.8308
-2914.0625,497.7674,676.9666,-93.0935,477.8157,-263.1436,145.3660,-68.9477,-141.6074,51.2286,-251.6637,-509.3829,-285.7083,-304.9974,-88.8437,-47.0880,4.2138,251.7172,-520.1206,26.3790,32.6345
-2906.2500,501.9214,680.8775,-103.9012,332.9392,-163.2984,168.7434,-115.1684,-42.7142,77.4222,-188.3099,-696.7161,-366.3937,-356.4908,-99.3830,-57.3005,30.6580,216.7002,-493.5632,121.1809,22.3235
-2898.4375,493.1372,671.7736,-127.5550,351.2171,-186.3303,142.2331,118.7867,81.3400,18.7586,-102.8264,-750.1319,-351.0863,-369.6614,-12.7896,-80.3639,-66.7603,214.1628,-478.8944,-6.8740,-0.8565
-2890.6250,439.4212,687.6685,19.9719,430.6604,-223.2437,286.8524,-284.1568,-284.5194,56.2597,44.7819,-706.6359,-384.7846,-382.4427,-50.0680,-43.2558,-30.0418,311.2354,-405.1086,-4.7792,36.1012
-2882.8125,322.3326,676.1324,-116.7387,235.8479,-174.4065,147.1892,93.6755,130.3938,-5.4815,166.1397,-762.6548,-444.8926,-363.3773,-147.6289,-68.3906,55.4146,163.8848,-499.6137,75.0811,10.7937
-2875.0000,478.4380,690.7285,-153.1302,278.3396,-357.2969,218.7981,-52.1949,-125.4141,33.0830,19.7761,-681.6094,-367.8510,-366.4733,-0.9003,43.7800,19.1691,169.4796,-425.8551,-28.7628,11.7771
-2867.1875,310.0831,697.7798,-48.8450,278.4781,-179.5495,282.0431,-131.4454,-131.5937,100.3223,86.0564,-903.1728,-446.3269,-397.0602,-81.5519,37.6095,-24.4206,229.9604,-395.4728,105.0685,5.4048
-2859.3750,164.2995,691.3292,-142.8471,300.3029,-162.1090,258.9658,217.0525,142.9567,8.2675,30.0281,-844.2902,-427.2583,-373.7819,-64.5209,-92.8552,-44.3147,185.7866,-413.4324,50.6071,-14.2799
-2851.5625,260.1613,716.4393,-20.0614,283.8813,-223.9428,378.6364,-174.7305,-248.7926,130.9856,-69.2646,-715.8979,-487.5938,-369.1129,-15.7553,-43.5469,4.5311,240.0108,-329.6755,27.8977,-2.2175
-2843.7500,92.4231,687.8760,-135.6958,142.9864,-82.2280,333.8487,151.0551,114.0354,90.2678,0.0010,-789.2266,-527.5466,-349.6479,-131.4554,-121.6857,35.9394,126.8036,-404.4078,162.7692,-43.6087
-2835.9375,158.2477,717.8058,-118.6135,201.7816,-173.8355,347.7500,131.5582,-52.4377,34.2586,-131.0301,-657.1046,-434.9453,-312.5821,-77.4534,-67.1041,17.0552,150.0541,-385.4785,4.3404,-26.3050
-2828.1250,222.7323,746.3264,7.3098,224.3644,-85.6486,323.4589,-73.1673,-110.1381,51.0737,-115.2488,-672.4526,-528.7011,-328.4430,-170.6712,-124.6933,-4.0204,227.4179,-402.7841,126.7344,-10.2020
-2820.3125,139.0475,731.6198,-19.7483,203.9202,-75.4547,219.1633,268.1568,195.2046,-48.1060,-178.4617,-659.0694,-443.6017,-304.2521,-125.9043,-187.2684,-31.0904,184.4187,-463.1325,64.1478,-37.1027
-2812.5000,250.9696,772.4365,156.9856,310.2180,-119.5307,318.6350,-107.7929,-253.7368,54.4883,-369.9380,-589.1875,-376.8931,-276.4936,-133.3869,-48.0718,-113.4043,312.4655,-362.7525,-11.6802,-8.2494
-2804.6875,94.7625,229.0518,163.8085,182.5474,107.4594,322.1734,120.3229,47.3966,26.1536,-253.3574,-615.5325,-406.2900,-200.5851,-162.8293,-114.8104,-142.6652,225.9202,-319.3553,100.5771,-1.3451
-2796.8750,146.5369,-37.4153,93.8050,158.0124,38.5888,359.8773,198.6237,-22.3066,-43.0226,-286.6272,-459.9824,-291.6767,-143.1531,-13.1160,-73.3770,-138.7730,152.9987,-277.8457,-35.0105,2.7100
-2789.0625,55.1463,-517.1154,240.8509,201.4620,112.7140,503.6056,-95.1080,-205.0402,68.8314,-212.8907,-567.6948,-364.2119,-124.4054,23.5906,38.0848,-65.8710,201.6223,-204.3611,107.4245,39.7724
-2781.2500,-230.3329,-1015.9814,151.0294,155.9838,205.9495,446.4517,366.3079,182.3758,15.8020,-120.0415,-617.5727,-417.7926,-24.0443,80.3892,94.6499,-45.8606,85.8262,-184.8112,161.9842,22.9367
-2773.4375,-122.9751,-1191.0847,213.2506,222.4914,84.1662,505.3358,97.7111,-196.2338,114.7910,-131.1962,-442.7036,-355.5125,14.1103,141.1978,194.2396,-93.8394,119.1959,-88.2836,116.5519,48.1091
-2765.6250,-167.4642,-1519.0781,226.8669,136.3115,244.7447,442.6015,221.4660,37.5184,129.1545,-81.9785,-500.7670,-269.0256,14.4504,-29.6537,61.1947,-80.4543,64.9894,-143.4336,306.5062,61.6385
-2757.8125,-225.1124,-1859.2762,189.5610,74.1460,97.3790,438.9452,442.3209,111.3543,130.5823,-118.6860,-351.0467,-158.6214,64.4529,-29.4594,61.2245,-8.0072,-26.1482,-140.5678,273.5224,98.2228
-2750.0000,-246.7602,-2270.5488,298.5149,12.1540,132.2126,507.5361,146.3491,-110.6374,313.2444,-47.1710,-461.3965,-234.1599,82.3248,41.9398,243.4915,27.6608,-20.5033,-32.5245,380.7629,170.0209
-2742.1875,-467.8369,-2633.3169,166.3085,-143.0837,293.8647,334.9645,603.2274,382.2245,328.7166,150.1665,-593.2177,-294.0366,150.5421,56.1475,295.5793,-30.8543,-182.0019,-122.7162,465.8341,184.6284
-2734.3750,-420.7675,-2693.9937,202.4973,-66.0004,145.8598,367.7958,344.4607,51.4256,402.5535,185.8591,-444.9434,-221.6794,184.3647,91.7233,443.0431,4.9953,-162.1664,-120.5848,326.2611,220.5968
-2726.5625,-663.8229,-2903.8486,230.8387,73.1393,285.9789,393.7787,299.7950,189.7354,395.5161,361.6724,-598.8513,-267.3525,180.7045,47.3985,435.6324,105.9634,-128.9381,-197.3808,459.8273,212.6799
-2718.7500,-852.7153,-2883.5884,169.6188,-191.3664,223.5086,402.2090,569.5820,348.4907,296.8860,372.8967,-513.6245,-219.7451,208.5142,204.4903,410.6407,191.3559,-284.7589,-219.8107,366.8115,224.1756
-2710.9375,-895.1238,-2786.9033,296.1526,-202.2134,202.7410,562.4046,145.0437,34.9174,350.9895,351.8323,-459.9629,-204.5636,178.2341,220.2989,390.3867,244.4764,-219.1336,-130.5602,349.5207,277.3876
-2703.1250,-1078.0367,-2689.7793,206.4760,-319.3725,296.7511,468.4080,459.3013,459.1448,224.8702,482.5505,-549.8301,-148.7588,145.2544,129.8689,226.9065,301.3733,-307.1035,-217.5935,368.0172,260.3598
-2695.3125,-969.4396,-2477.1978,270.5933,-179.8351,140.5166,493.2178,265.3401,156.1273,252.5242,362.0330,-560.1941,23.7030,115.7089,266.2131,365.2040,328.0355,-211.9513,-187.9138,256.2793,324.0968
-2687.5000,-991.6857,-2291.5330,417.1687,-170.9627,286.7020,563.4931,192.7738,192.5139,326.6118,544.9446,-708.4282,132.4494,102.8417,229.9730,401.9239,364.1317,-112.6776,-113.8615,400.9853,397.2551
-2679.6875,-1037.1473,-2162.1387,288.8293,-219.1120,303.9584,504.8750,504.3226,431.0095,235.7675,672.9407,-469.8770,222.1331,180.6524,246.7958,309.7201,271.3130,-198.7393,-131.7978,347.7708,378.4779
-2671.8750,-950.1080,-1972.2935,368.2936,-136.5643,236.9698,617.0803,106.6085,69.2327,351.7098,751.7133,-355.8321,189.4635,168.2211,324.3816,352.3155,277.2713,-110.0032,-54.0081,354.3281,420.4728
-2664.0625,-1023.7977,-1871.2258,320.3547,-248.5442,371.5605,566.8969,425.4825,498.0618,304.2276,887.0911,-478.5108,139.2280,161.6939,276.5237,268.4873,338.8077,-154.8988,-64.7034,484.4795,409.0366
-2656.2500,-848.1921,-1698.9088,273.0105,-217.0377,177.7063,590.3289,377.9356,377.4651,259.3111,803.0507,-343.8777,310.4316,151.6666,266.2446,295.2299,364.9212,-145.1013,-1.8778,335.1978,435.1682
-2648.4375,-842.3441,-1554.4037,417.2332,-179.0984,284.3717,583.3427,154.8698,301.3682,328.9245,872.5334,-385.9938,268.0212,155.2078,187.4822,328.4995,434.5728,-43.8893,66.4213,439.4500,467.8205
-2640.6250,-1042.9724,-1440.4185,348.2941,-135.4383,360.8633,511.2235,525.6688,636.1360,224.3540,839.8463,-494.5621,269.3097,155.8461,265.5317,260.5904,439.0496,-50.3366,104.4850,407.5272,435.2886
-2632.8125,-915.7619,-1315.6353,510.5128,-45.7408,303.4589,597.2893,173.5595,209.9845,312.9158,670.2787,-519.2681,281.6082,137.5665,351.7099,384.8147,379.6488,81.2172,225.6290,386.7186,449.8771
-2625.0000,-1082.6375,-1238.9775,476.9832,-179.9255,525.2875,633.6399,359.6744,543.0772,279.6953,671.9487,-666.0310,208.9938,133.6665,245.1035,278.2660,382.4802,36.8748,226.9472,494.1513,415.6841
-2617.1875,-883.3365,-1183.1882,421.9440,-193.7334,396.5767,649.5202,378.2838,451.6500,225.9350,543.0879,-466.5739,223.7391,156.1830,261.9756,260.1987,437.7869,22.8519,314.6833,335.0501,396.9604
-2609.3750,-780.6619,-1082.0575,487.6106,-162.9626,424.5310,675.1398,39.5216,222.8606,289.8621,496.9089,-515.7052,176.0474,115.2146,252.5115,287.8206,501.7654,89.2221,375.0415,397.6336,387.9106
-2601.5625,-908.8409,-1072.8030,386.7614,-187.8327,469.9601,571.2869,415.2710,598.5923,190.2586,432.2256,-509.6278,218.7196,135.7884,260.5057,187.9019,474.2218,16.4373,310.8122,333.7031,323.3288
-2593.7500,-766.9449,-968.5095,456.3089,57.5672,354.7350,637.8843,117.3679,116.6663,222.0180,205.9174,-334.4177,284.6606,158.0329,328.8877,256.3598,359.0620,147.3313,376.9125,188.1380,318.1210
-2585.9375,-902.0015,-930.2058,495.2544,63.2171,503.8879,563.9273,155.8286,302.1263,188.1488,245.0054,-447.0966,172.8589,161.4118,256.6440,222.1949,324.2876,168.4074,342.3327,294.9653,283.2849
-2578.1250,-893.3055,-888.1707,391.2819,-35.1816,435.1078,493.1021,344.3922,307.6811,157.3395,176.1870,-298.9458,285.0374,211.5952,298.4754,265.1074,328.5915,63.6114,310.7657,122.8514,251.5172
-2570.3125,-666.8944,-806.4316,438.3674,-197.6702,444.3405,574.3791,-13.0696,-13.7818,241.5620,76.4043,-257.0157,328.1370,207.3432,196.3206,348.0501,301.9232,54.3603,390.1798,132.7601,260.7712
-2562.5000,-762.9943,-763.2048,261.2902,-364.4675,451.4041,468.5428,398.3193,397.6180,102.5994,46.4647,-254.5152,331.9479,213.9854,239.9862,245.8022,272.0897,-97.3722,290.3558,173.5012,230.8422
-2554.6875,-677.9323,-681.8263,271.7055,-244.9081,239.9200,476.2507,150.1682,40.4672,149.1032,18.9933,-139.7728,338.1410,193.8070,396.1406,329.0385,244.7434,-49.9827,334.9532,43.7002,240.3824
-2546.8750,-922.7296,-612.3335,307.6191,-278.0071,384.9140,398.5061,148.4717,184.7837,222.0912,163.0128,-330.8054,258.7101,184.1985,246.7598,364.7613,242.8793,-51.8231,261.9752,182.3853,238.3945
-2539.0625,-930.3936,-551.7247,150.0094,-250.7642,300.3727,275.3051,469.2859,357.6088,174.5419,151.5217,-237.5907,243.6725,227.3989,234.8502,390.9452,194.4918,-124.7951,146.4202,67.5357,226.8730
-2531.2500,-651.4974,-487.5854,142.2963,-183.7650,180.6821,339.0692,19.9273,-17.7373,240.8640,179.9104,-66.7193,195.4212,196.3368,188.8137,382.9987,185.9942,-81.7991,138.7016,96.5564,255.2235
-2523.4375,-681.5714,-450.4440,0.9734,-389.5358,221.3709,157.2782,353.9586,427.3286,134.5471,367.6888,-32.7040,268.4534,164.9475,46.1485,166.4116,226.8849,-241.6496,-34.6973,203.9630,221.9398
-2515.6250,-542.1025,-382.7783,-38.4699,-424.5651,71.9142,115.4349,203.8627,166.2547,169.0927,327.3476,104.9772,370.2900,170.5687,188.3686,274.7084,260.6541,-288.9630,-74.2700,25.2239,218.5242
-2507.8125,-688.3542,-356.8306,62.7295,-500.1100,172.0872,142.2961,85.3564,194.7891,235.2643,392.6511,-93.9458,174.6633,123.8335,179.2114,266.6256,288.0503,-258.7269,-47.2602,193.1167,209.7288
-2500.0000,-837.7766,-333.0562,18.1024,-472.6256,237.4333,95.3978,408.0563,443.5374,153.5847,384.1347,-71.9020,125.1350,145.7539,170.2398,147.6977,279.6242,-270.1900,-23.1353,77.1767,164.0968
-2492.1875,-664.1373,-302.2466,198.8738,-332.8918,159.1317,199.9629,0.0831,-0.3909,187.2718,305.9742,-8.6758,153.9072,123.0647,91.6531,181.1463,275.5749,-121.4626,78.3231,73.5951,159.8348
-2484.3750,-826.5229,-291.4677,141.9822,-352.9814,248.1601,140.9231,235.4378,382.0286,130.2680,285.1551,-110.3385,201.9301,111.5141,33.3792,86.9101,291.8449,-166.0758,20.0513,122.3442,101.8897
-2476.5625,-707.0737,-280.8463,120.2636,-197.0398,115.3440,154.1275,175.9689,139.6176,108.4134,115.5109,80.9910,359.0753,120.8168,194.2865,64.8448,232.2831,-128.4914,65.9061,-40.7575,79.1100
-2468.7500,-639.4815,-252.0903,191.0408,-163.7682,183.9949,258.8883,-121.0786,-12.3512,142.0192,111.3456,32.6025,276.6307,83.5460,152.6637,24.2461,191.2046,-59.6933,96.1923,61.6117,74.7999
-2460.9375,-653.0592,-267.5073,32.9911,-315.4699,208.8181,208.8918,271.0743,306.8862,56.7669,25.3608,49.1954,297.3013,111.7837,177.2089,-24.2002,216.3036,-184.6527,117.6005,-22.8548,25.6492
-2453.1250,-552.0313,-239.3265,139.8821,-282.3859,130.5512,314.9028,-100.8938,-174.0030,126.4281,-161.7101,74.5433,361.8393,132.9253,246.6828,193.2732,285.3132,-122.7300,217.8957,-61.4233,21.4145
-2445.3125,-774.8788,-219.0125,131.2598,-326.9814,304.7676,303.4681,146.6024,146.5897,80.5412,-99.3011,-89.8206,273.7833,131.3212,125.6287,110.1933,275.7835,-137.9444,206.6257,68.4821,-25.3574
-2437.5000,-743.7877,-191.7520,90.9112,-188.4504,153.2441,335.3834,179.3774,105.4563,40.8935,-176.6241,118.9280,264.9591,135.7060,230.8620,-3.6416,198.5216,-102.8042,271.5830,-76.3696,-29.8711
-2429.6875,-542.6520,-168.4374,156.9548,-90.6861,107.0839,399.7604,-196.5355,-124.3542,105.5993,-149.5722,174.8830,215.4623,105.1317,185.4633,-12.1166,115.6309,-13.4884,331.8688,-13.8606,-39.0230
-2421.8750,-572.0944,-200.6848,20.7616,-187.3091,190.6976,224.9745,217.3478,291.6421,6.0493,-64.7385,177.4413,257.6912,123.6455,194.8279,-111.8453,52.5101,-133.4809,197.8713,-41.5889,-102.4182
-2414.0625,-403.8812,-141.2739,124.5436,-263.1073,146.2555,253.2388,-84.8378,-158.4308,35.4483,-109.9450,269.8336,318.8505,130.3935,223.1729,-8.6151,81.3565,-108.3038,260.8042,-153.3759,-73.8515
-2406.2500,-505.3286,-104.5218,132.0015,-431.3944,299.4820,223.2543,-41.3757,69.1671,42.4969,6.5364,121.7399,209.6332,104.4117,119.1767,-75.7372,87.8791,-149.3047,266.3662,-5.4949,-67.6216
-2398.4375,-585.6379,-82.6137,50.9142,-332.3718,144.1570,214.8125,134.5642,98.2468,34.9784,-74.5063,214.9774,233.8574,140.0652,220.6542,-9.4164,79.8693,-166.9171,257.3498,-154.1731,-75.9331
-2390.6250,-507.1384,-40.8878,172.9501,-214.3822,117.9301,335.5706,-258.4385,-220.6040,120.5656,-100.4234,181.2020,167.1647,131.5302,194.2558,112.0156,53.9768,-51.6957,302.4137,-107.7498,-65.1322
-2382.8125,-512.6568,-49.1534,24.2901,-322.2474,189.0180,258.7063,142.8945,216.8970,-65.5605,-66.0022,132.6013,195.7594,121.1945,118.1711,-37.2559,51.4065,-153.3715,193.7448,-74.0176,-68.0255
-2375.0000,-217.6169,31.1637,39.4879,-235.4019,-18.0562,273.7774,-136.9367,-135.7653,-123.8458,-197.7112,357.7595,316.2033,125.2796,168.9588,14.3192,29.7051,-105.1409,208.8986,-233.4521,-17.0624
-2367.1875,-310.9347,76.1497,56.6539,-253.7497,71.8307,141.8867,-193.8406,-9.4717,-107.1792,-181.4316,254.7554,217.5838,131.3745,110.7034,67.8441,81.9722,-105.6980,152.9759,-111.9204,-1.1392
-2359.3750,-342.8138,76.6031,-43.4389,-316.4935,-30.5360,3.8155,71.0422,146.6138,-170.7794,-173.3814,364.4080,257.7170,163.1593,156.2217,76.1156,164.9971,-199.2456,123.7713,-244.6482,-29.4626
-2351.5625,-220.6198,90.1453,14.8331,-367.0208,-47.5633,61.1831,-275.7693,-236.9935,-41.0382,-116.9754,375.3324,200.1991,134.3577,176.1072,133.7460,148.3844,-172.8425,213.8980,-189.0385,-9.4277
-2343.7500,-401.1775,82.9532,-93.3444,-507.1478,100.9743,26.1835,55.9810,205.9899,-75.7773,69.0037,256.7137,160.2278,104.0330,103.5545,-48.0982,76.3400,-273.7582,141.5517,-83.8752,-44.8402
-2335.9375,-272.1670,104.3633,-136.6715,-479.5623,-53.6537,92.1166,-61.4294,-59.1933,-8.6924,24.8291,423.8784,258.1147,134.1381,169.8763,54.8950,-40.8472,-293.4534,133.0342,-194.8916,-52.4031
-2328.1250,-291.3993,117.5591,-75.9371,-494.0706,41.7839,78.1818,-185.8048,-36.3128,50.4276,194.7159,253.0062,165.0473,98.7060,81.2495,77.9254,-128.9733,-254.3673,153.5397,-68.8510,-66.9125
-2320.3125,-380.8651,96.5592,-162.1707,-507.6705,28.2502,-7.6349,131.8872,281.6295,-35.4307,218.6387,304.1247,184.0309,92.4227,141.6999,-81.9973,-142.0482,-308.6275,139.0676,-152.7928,-80.3778
-2312.5000,-145.1076,153.8405,-93.8899,-407.9011,-125.7947,60.1413,-242.0015,-165.9880,32.2035,139.0611,397.6654,99.5206,66.7981,134.6684,-14.4140,-74.6122,-208.2830,273.0828,-122.2500,-50.3429
-2304.6875,-257.5121,144.0237,-166.4783,-515.1358,-14.6715,24.1225,14.3006,238.6066,-41.0450,249.6734,278.2712,58.1797,49.7976,-13.2122,-124.7114,-37.0210,-275.4072,235.2121,-17.5642,-87.1675
-2296.8750,-195.2272,133.9397,-130.1305,-447.5566,-90.6286,59.1214,12.5103,53.0992,-116.3632,138.2312,413.7929,198.8282,72.2941,21.8761,-126.0803,-2.4883,-249.9183,232.2737,-159.9669,-89.0455
-2289.0625,-180.8668,180.9688,1.5640,-427.7813,39.7724,154.5405,-259.9644,-110.0601,-132.3477,85.1608,277.6058,104.8304,34.1416,42.3215,-142.1289,-17.6068,-153.4620,286.6651,-33.0181,-68.5770
-2281.2500,-246.5307,148.0168,-131.5186,-487.9056,52.4007,131.2710,156.8453,234.0596,-265.1295,-12.6568,279.6358,149.0890,62.1226,129.0434,-201.9612,-41.4921,-246.3026,226.2797,-56.8554,-92.8736
-2273.4375,1.8558,183.1449,-48.2974,-374.8550,-123.6932,177.3898,-239.1221,-234.5917,-147.6235,-151.1790,425.9243,189.6458,72.1190,210.0621,-46.4999,-70.0780,-161.4921,304.1887,-154.4130,-84.8768
-2265.6250,-60.9563,154.1426,-66.9984,-395.8636,77.3195,47.6701,-38.9645,38.9191,-167.0552,-96.5892,322.2600,128.3165,62.2523,117.1561,-176.9707,-89.5592,-173.5238,247.1760,-67.8758,-104.7928
-2257.8125,48.8279,190.8092,-54.8694,-245.1667,-21.8549,-13.1406,8.0052,-22.7636,-264.6680,-122.1659,433.4248,281.8682,66.4343,91.1211,-201.6019,-115.2105,-122.7972,186.9953,-231.5394,-93.8765
-2250.0000,41.6136,216.5184,128.5004,-106.3701,13.2186,-13.6360,-359.8325,-281.2207,-192.0583,-12.4939,348.8057,165.6760,30.9632,-20.6504,-166.0013,-79.6245,23.8549,221.0481,-161.9672,-58.7241
-2242.1875,-164.1523,219.7223,-3.4711,-165.0304,63.9816,-108.3914,58.0566,138.0628,-213.8160,38.8753,242.8771,66.2075,31.6026,-6.7206,-223.7588,-27.3479,-63.6547,162.7738,-148.7399,-80.8938
-2234.3750,30.1595,236.0365,-12.1490,-140.5150,-130.9804,-43.7842,-208.8503,-276.4284,-115.3094,-7.4576,443.2462,124.0545,42.7497,19.4958,-125.2425,-0.7837,-61.5692,187.7899,-227.2528,-54.7733
-2226.5625,-23.7967,250.1538,-58.8561,-259.1624,-30.9318,-90.1381,-147.7598,-29.8815,-125.8496,166.2267,349.5850,145.9200,-1.0916,-101.3116,-244.7674,-11.2317,-126.6457,104.7757,-61.7763,-65.6732
-2218.7500,-11.5282,225.5717,-183.1509,-239.5061,-119.4769,-176.0087,21.7547,66.0877,-175.9829,188.3468,362.3803,274.2681,-34.2074,68.3307,-295.8760,-25.2577,-188.5080,89.1786,-146.9126,-80.1474
-2210.9375,26.6078,226.9083,-96.3555,-124.8925,-144.9336,-125.7306,-333.7097,-214.8852,19.9535,200.5809,290.2624,208.7247,-59.5529,43.0703,-173.9252,-13.1952,-101.6293,99.6627,-63.9624,-68.5370
-2203.1250,-154.2111,220.3345,-200.3074,-193.1292,-65.1115,-266.1269,113.1609,231.5023,25.1342,281.1225,175.4346,210.4863,-41.6109,-60.8951,-204.7287,-80.8465,-189.4712,-2.5768,10.2608,-99.6515
-2195.3125,66.5645,263.4047,-181.4850,-106.6970,-305.5425,-210.6809,-91.2505,-82.3823,79.0890,224.4321,330.4249,260.0652,-57.2486,-7.0509,-150.7489,-173.7169,-140.3230,14.9641,-76.7660,-45.9882
-2187.5000,107.5074,267.7145,-165.3081,-199.0233,-290.5801,-193.8138,-113.2738,44.1618,94.3988,277.1369,188.8158,197.0637,-107.9441,-102.8280,-171.4166,-122.2102,-153.9600,-42.1247,114.5900,-30.9547
-2179.6875,44.5059,274.1307,-255.9317,-256.2346,-345.4174,-247.6818,162.9402,209.9415,39.8933,259.0744,233.4888,248.3442,-80.8751,-47.3696,-153.8866,-66.4892,-240.3583,-131.9964,-8.8701,-49.7017
-2171.8750,105.7527,298.8509,-146.1246,-152.1237,-309.8263,-210.0665,-168.4926,-157.8927,148.7968,222.4529,222.6273,169.0901,-86.2372,-48.4861,-81.9504,-67.3339,-134.3509,-62.4339,27.0879,-14.0206
-2164.0625,-92.8875,274.7588,-194.0263,-202.8188,-139.9035,-330.0933,185.4431,269.6671,98.9892,283.1714,90.1243,152.2102,-86.4764,-98.2550,-203.7239,-152.8528,-183.6186,-145.5592,119.3555,-27.0234
-2156.2500,-2.1652,328.1010,-163.4160,-176.1004,-293.4855,-298.5465,30.8454,42.6915,128.6844,129.4084,220.2103,288.9125,-78.4453,-31.4781,-136.9777,-122.8519,-167.3273,-117.1499,9.1093,2.4960
-2148.4375,-9.4938,319.4541,-87.6913,-212.3818,-180.9270,-256.8288,-149.6483,8.8604,168.4696,132.7970,177.4585,176.7815,-59.0657,-138.5796,-98.1444,-83.7289,-133.8838,-81.6136,116.9845,5.1364
-2140.6250,-90.9146,271.7956,-231.9307,-180.7078,-144.3177,-291.0046,180.9497,267.1149,-14.7258,97.2587,241.8536,173.7869,12.6710,-101.5873,-98.2753,-82.5354,-195.4122,-84.0113,10.8894,-31.1609
-2132.8125,38.1055,329.6291,-87.6070,-8.5677,-220.1532,-145.5636,-262.9606,-212.1222,19.6372,22.2778,266.8969,130.4268,-12.0018,-67.0089,-26.8466,-120.7675,-40.4406,20.1739,10.3429,3.1120
-2125.0000,-97.2167,298.1761,-142.4997,-102.7222,-57.1623,-163.2750,10.9847,172.5168,-37.2169,3.1211,127.8216,70.9537,-0.7927,-123.6078,-83.6258,-104.1854,-102.2725,-71.8278,130.5925,-16.8047
-2117.1875,-46.9063,312.4338,-151.6404,-45.1888,-214.4340,-172.1837,-0.3457,14.8617,-11.3264,-153.2698,217.5895,166.3143,3.8629,-60.4116,-20.6440,-3.8397,-93.7864,-47.0504,-19.4375,9.0463
-2109.3750,-53.7444,339.6028,-39.7691,-44.7240,-175.6693,-131.0426,-254.6914,-128.7771,-9.4314,-41.6118,174.4117,91.7274,-19.1309,-130.1909,-18.6564,35.5298,-29.7991,-9.2440,55.5532,47.9174
-2101.5625,-86.4154,341.0174,-169.6230,-70.0455,-197.5964,-222.5670,16.3157,253.9221,-214.2525,48.3626,216.6414,139.5193,-11.8643,-79.6473,-112.3840,14.2135,-111.7725,-101.1241,-2.1742,26.0955
-2093.7500,151.5825,332.1573,-92.7168,35.3109,-304.7804,-181.2888,-347.9897,-183.6907,-174.3118,15.0839,321.7564,176.1222,-1.0171,34.6772,36.6356,-19.3497,-42.3423,-99.2244,-69.1650,29.0351
-2085.9375,-49.4266,271.3319,-140.7343,-17.3194,-169.8467,-300.8701,-104.1475,134.8676,-149.2927,113.9188,153.0693,86.8921,14.7914,-50.8776,61.7267,6.1874,-98.1253,-149.2037,57.9539,-19.9201
-2078.1250,-93.3664,261.6471,-173.6089,86.1365,-204.7824,-333.2617,45.8279,100.5514,-184.1437,79.8791,257.6390,159.9197,29.6900,-48.2761,-10.0441,8.8796,-85.9363,-148.0022,-45.8143,-17.7149
-2070.3125,-39.4725,314.9113,-33.5200,77.4725,-174.7431,-263.6638,-291.2846,-88.8265,-81.0591,74.7930,242.2408,76.9682,-11.3142,-127.7129,-53.8791,39.5365,-8.1269,-118.8169,90.3733,12.4561
-2062.5000,-76.2848,277.5546,-131.0597,48.1523,-163.2976,-360.6431,123.0505,327.2424,-179.6074,50.1024,245.3674,84.4621,4.3617,-116.7143,-151.3393,14.5884,-76.2925,-216.2121,64.9328,-12.9720
-2054.6875,104.2615,281.5606,-41.2026,271.1963,-331.4704,-268.1763,-228.2840,-133.3601,-163.7664,-81.1795,363.0287,171.4088,23.6243,10.7178,10.5975,-79.9587,49.5570,-130.1768,-95.1292,3.0071
-2046.8750,-5.8915,240.9124,42.0462,238.5616,-140.2121,-257.2859,-183.1923,21.4889,-229.5529,38.9685,252.1767,29.8308,45.7871,-54.4528,-18.0889,-144.1022,83.7787,-90.7263,17.2193,-25.6115
-2039.0625,94.7804,200.1784,-22.8223,169.7579,-133.0701,-247.4865,7.7976,103.2218,-295.4598,10.9982,363.3486,34.2507,56.9486,-8.6963,-120.8839,-99.3552,26.2934,-120.3608,-117.5670,-54.3288
-2031.2500,164.5237,234.6151,97.4537,108.0388,-86.7709,-162.5144,-387.1104,-253.9308,-138.2097,-89.8216,327.7750,41.8762,27.2361,-145.7740,-74.5257,21.5440,79.3204,-39.8216,-71.2010,-7.8906
-2023.4375,-8.2683,202.5889,-31.7667,47.8014,4.0833,-215.9967,33.5860,130.5252,-195.4393,-109.0819,225.8722,55.1094,43.0239,-165.2924,-130.6471,1.9971,-3.6209,-60.7218,-56.3000,-27.9068
-2015.6250,178.9533,249.6378,-7.9545,206.5548,-120.0476,-117.4220,-163.7346,-250.0323,-209.6269,-231.2969,425.1642,75.4680,79.8182,-68.7533,-71.7305,-157.5020,83.1566,32.4603,-173.3761,-4.8677
-2007.8125,158.7511,229.3379,21.4866,158.8764,-18.5130,-86.2110,-209.3984,-146.8990,-181.1799,-164.8397,336.2155,-82.4827,55.9696,-113.5644,-152.1832,-276.3495,103.7784,93.3214,-5.7963,-13.1806
-2000.0000,110.6929,181.2598,-87.9081,189.3347,-17.8045,-45.8071,47.1495,0.4369,-254.5666,-274.1948,365.6178,-84.1645,93.7724,-1.1402,-152.4542,-275.0106,64.4191,127.4016,-148.0582,-49.3024
-1992.1875,187.7634,188.3691,5.8409,273.8892,-72.9540,122.7518,-337.2271,-421.1304,-125.8150,-401.4104,304.2989,-67.6094,88.5247,18.4326,50.4053,-218.5329,148.3893,180.6503,-163.1828,-30.2732
-1984.3750,10.4382,151.1442,-92.7986,174.0120,48.5529,25.9435,4.0907,-4.9864,-224.4566,-278.9800,197.7329,-21.3422,83.9747,-43.3315,-49.1286,-170.4178,49.2632,83.5558,-84.6678,-55.6016
-1976.5625,164.7022,165.5434,-102.8504,195.7110,-72.3612,17.7424,-118.0478,-235.3131,-198.5183,-288.9815,363.9026,75.5711,63.8883,-16.4646,-97.0755,-107.7123,47.6121,74.0903,-198.5963,-29.3343
-1968.7500,225.2244,190.2571,11.3735,122.6700,41.0458,22.8422,-298.9078,-269.3339,-159.3158,-211.6891,286.5094,-34.1433,36.4079,-124.3257,-130.7508,-67.7169,84.9015,40.9389,-56.2356,-26.7756
-1960.9375,181.9610,147.2810,-93.1922,17.8158,45.6855,-41.8324,73.4997,-6.1066,-227.9102,-205.1723,321.5010,-67.5205,81.9930,-80.9338,-126.1926,-24.4895,-22.8232,-60.9555,-122.6722,-57.9755
-1953.1250,309.7405,169.3941,15.2828,115.9709,-30.6422,30.5480,-297.1259,-412.9008,-121.4740,-170.6201,312.6597,-109.8078,40.7802,-46.4892,-55.5896,-64.2304,80.3292,7.2265,-158.0798,-24.1263
-1945.3125,127.0508,127.0351,-51.7350,80.6309,122.5871,2.4552,-71.1669,-2.1002,-152.5213,-54.5163,164.4960,-142.5236,41.8114,-113.4876,-123.4787,-131.4350,36.2415,-24.0367,-48.9500,-54.7386
-1937.5000,204.5726,135.8730,-67.5853,167.4881,-41.0203,62.5520,-88.0438,-164.1597,-168.3792,-253.2358,252.6641,-86.9924,62.3002,-18.2537,-29.1761,-73.4620,62.6271,30.9226,-168.6666,-34.1634
-1929.6875,172.8070,139.4756,22.2944,142.0629,11.1371,117.3870,-293.1855,-295.4783,-44.4887,-237.1968,114.6587,-183.6750,42.9356,-113.2871,59.8581,-20.7608,104.7596,45.6483,-13.6339,-18.8497
-1921.8750,131.8675,99.0029,-117.0150,108.4543,55.1287,17.0358,118.5546,79.0789,-146.7877,-191.3380,189.6357,-141.4527,74.3115,-104.4879,-80.3026,-159.2313,21.9991,16.2330,-42.7849,-47.7048
-1914.0625,383.4117,105.0923,-24.8906,262.2651,-37.4613,74.0958,-268.3394,-343.0008,-165.6647,-284.0716,385.2113,-88.7268,68.4673,-49.2571,-100.0351,-177.2742,132.7463,103.2989,-131.5193,-30.1216
-1906.2500,302.2407,59.5243,-21.5121,223.3235,75.2534,42.3941,-156.8994,-83.7381,-274.2827,-243.5274,271.1757,-87.6545,54.8849,-119.7241,-170.4915,-65.0422,118.7519,104.7042,-24.9596,-64.2564
-1898.4375,389.1359,41.0565,-102.1255,282.3975,-42.0196,37.6677,-53.4215,-163.4761,-281.8722,-359.9863,369.3181,13.5404,76.8377,20.8717,-104.9137,-34.7892,88.2229,61.2246,-207.3923,-71.3554
-1890.6250,410.6553,98.2830,5.8336,240.0279,-45.7120,73.4223,-350.3951,-386.6464,-138.8722,-325.8536,286.1888,-27.6214,23.9343,-17.9632,-71.7678,-0.9586,130.4742,59.4117,-105.2273,-37.8657
-1882.8125,285.0844,79.4949,-112.3663,122.5094,20.4721,-41.9623,44.5604,10.1077,-220.0100,-259.8345,273.0948,36.1468,32.1349,-61.9146,-188.7542,28.7601,13.5828,-53.5064,-78.1954,-45.4999
-1875.0000,423.5049,112.7497,-67.6435,196.9399,-155.4287,4.5852,-204.6199,-386.2794,-139.2195,-361.9176,349.1097,78.8947,32.1921,-16.9169,-35.8068,73.4246,64.9217,-9.4715,-174.2642,-1.2037
-1867.1875,281.6946,112.8275,-56.2147,62.1064,-35.5763,17.8506,-121.0442,-153.8968,-92.7243,-276.2851,170.9937,15.4130,7.9721,-115.1870,-62.1571,84.8372,27.5349,-34.6884,-58.5936,9.8181
-1859.3750,269.7343,101.8036,-165.0335,23.0613,-108.9638,-54.1297,98.3145,-44.7532,-129.4706,-239.8910,239.8311,123.7852,-0.2381,-41.6720,-134.7319,11.0086,-50.2452,-70.1039,-128.1780,9.6228
-1851.5625,308.5392,106.5841,-40.1733,-2.3155,-57.6682,37.5533,-253.6984,-321.9804,-5.5388,-149.8175,176.5092,63.9059,-41.2818,-25.4919,-119.6272,-47.1691,9.6407,-19.8256,-9.0806,25.1100
-1843.7500,115.5350,55.5970,-152.2213,-47.5702,49.7698,-37.6661,146.4736,151.9735,-46.5078,-152.6173,21.4675,59.2213,-46.6549,8.8314,-197.4220,-50.2292,-66.0484,-60.4253,56.1278,-15.2806
-1835.9375,209.4631,255.5749,-116.4507,123.0295,-98.9813,37.9331,-38.5782,-215.3164,-47.6661,-336.6227,126.4360,131.4407,-47.8756,81.9970,-125.4008,-87.4760,30.7089,9.8011,-50.8674,-15.8378
-1828.1250,173.0482,256.2480,-31.1192,128.2027,23.8595,51.0957,-101.0493,-93.9999,-36.2673,-288.0529,24.1331,68.2934,-79.2150,-15.2728,-223.8286,-148.1519,83.2283,19.5963,64.7283,-40.8156
-1820.3125,153.2419,378.5701,-74.2940,149.9329,16.2053,9.7563,150.0240,83.8437,-190.3551,-293.9759,86.5175,60.7221,-48.1981,15.0042,-267.7262,-227.3091,76.0349,10.9266,-49.1812,-84.2661
-1812.5000,208.8139,400.2906,67.8144,211.9804,-25.1658,117.6956,-259.6921,-288.0932,-86.1625,-298.6451,77.3353,-19.5465,-49.6769,-62.4334,-127.3385,-123.1968,174.9065,77.5538,-17.8225,-52.4422
-1804.6875,-6.9075,185.7433,-33.4743,38.6862,93.1235,54.2733,78.2653,161.6517,-115.3776,-106.6908,-28.0795,-49.1477,-10.2342,-127.2514,-119.3691,-77.4724,27.7351,-21.1985,58.1548,-81.0013
-1796.8750,93.5630,286.4156,-64.6967,3.4968,-11.5372,24.9275,9.2479,-53.5903,-73.5286,10.3114,83.7470,29.4192,10.4601,-46.9947,-3.3389,-181.6843,-7.2823,-50.8637,-112.8192,-75.4840
-1789.0625,86.5119,280.5844,-23.5710,-32.3360,102.1885,-42.0615,-134.3999,-49.4442,-33.3095,198.6854,-25.9122,-4.5776,-12.2012,-153.3661,0.0543,-250.5162,6.5922,-47.1411,31.5941,-71.5929
-1781.2500,72.1329,267.4491,-135.9068,-40.5789,63.4749,-115.5092,194.5777,206.2867,-109.5262,160.6086,42.1506,67.0422,1.9020,-117.1379,-75.9723,-215.7745,-65.5669,-120.8302,-77.4405,-110.1306
-1773.4375,210.2036,336.7858,-53.9173,33.5524,-75.9142,-31.6457,-203.1792,-225.7230,44.5816,94.8291,83.7016,37.0066,-31.3290,-71.5816,41.3220,-97.7345,6.8135,-78.1681,-141.1520,-102.3412
-1765.6250,32.6524,266.5284,-153.6741,-68.0192,81.9800,-19.5477,102.3853,152.5975,91.9385,179.3206,-56.3363,-63.7076,-23.5085,-170.7545,-22.1423,-123.4451,-75.4570,-139.2195,-26.5891,-128.2812
-1757.8125,139.1025,338.2984,-179.5718,-96.6606,-91.2797,-6.5959,148.7956,-20.2590,102.1618,117.6494,62.6560,-16.5001,-19.6826,-48.0440,25.2753,-186.2974,-98.9881,-128.3654,-157.1869,-117.3495
-1750.0000,189.2983,213.8309,-42.8465,-110.6289,-28.8907,-15.0465,-120.1840,-142.5017,200.0079,143.5870,-25.5939,-101.6473,-47.0213,-58.7297,50.3117,-123.5394,-42.9002,-102.8730,-26.1487,-91.7977
-1742.1875,59.3326,50.2169,-130.4313,-128.8507,-42.7669,-137.8150,270.6134,212.0051,149.5553,93.2301,-4.9752,-80.0065,-14.9667,-34.6988,-0.9585,-26.0622,-127.3438,-187.6456,-75.4099,-105.5246
-1734.3750,212.5421,204.7803,-72.9989,-6.0086,-133.6279,-151.5903,-77.6356,-207.5432,242.1239,-33.1135,86.8262,-59.2950,-4.7452,-87.6558,129.7997,-42.5814,-32.8202,-130.3613,-124.6586,-48.2225
-1726.5625,168.9831,197.5903,-71.4657,-79.0027,15.6560,-258.2902,107.2836,87.0752,169.8006,78.6814,-61.1281,-95.4546,-6.1627,-194.4873,93.6695,-114.9870,-53.7364,-197.9418,17.2184,-46.8048
-1718.7500,298.6326,328.6181,-109.8760,-14.8571,-96.9980,-330.9403,215.2767,12.7235,56.5460,-32.4800,82.1353,-60.5073,27.1481,-123.2267,128.6072,-152.3387,-41.0269,-199.4354,-160.8636,-48.3156
-1710.9375,323.9526,355.3206,36.2345,86.8266,-62.1185,-258.0853,-154.2423,-246.1273,90.8085,-107.1303,41.0627,-137.0022,22.8667,-196.4688,200.0539,-81.1805,80.8182,-130.4018,-91.4076,-13.2990
-1703.1250,102.6696,170.4221,-36.4226,46.7931,49.0291,-327.9990,250.5734,159.3422,18.3307,-106.5276,-32.6098,-99.1831,54.6581,-158.4448,126.7679,-79.7546,5.5637,-131.0916,-92.6821,-49.0090
-1695.3125,186.9030,116.0513,24.2866,136.2023,-37.4638,-229.5558,-20.2890,-220.8970,77.2393,-191.5885,62.2264,-38.9602,55.1297,-24.0366,186.8792,-92.9665,59.9433,-72.3881,-139.6024,-25.3507
-1687.5000,125.2865,54.8367,41.9934,44.6866,54.1034,-210.1256,33.9101,16.9255,94.1656,-173.6321,-31.8076,-132.6999,32.9627,-79.6179,92.9958,-111.1616,37.8077,-124.6572,18.5113,-7.6814
-1679.6875,237.9928,239.9417,-87.1464,57.3993,-75.1719,-263.5609,199.2959,72.8993,39.2580,-191.5337,58.4690,-77.2325,21.5527,-23.0296,74.2855,-129.1922,-5.4062,-176.7405,-106.2252,-25.8417
-1671.8750,395.7827,258.1139,-24.3544,79.0784,-86.5192,-199.1228,-143.4381,-268.2552,64.2797,-128.5229,45.7933,-125.8119,-8.7167,-33.5369,136.5074,-67.3149,49.4344,-150.8877,-46.0270,-0.0768
-1664.0625,198.6725,27.3865,-73.6249,27.7697,12.1133,-282.7746,211.8687,159.6142,14.2718,79.4485,-77.8005,-138.3953,-35.0462,-82.0765,-23.2935,-5.4740,-18.1006,-199.0554,12.1434,-12.3422
-1656.2500,290.0361,155.1243,-7.5766,122.8503,-141.9318,-216.1475,-54.5378,-178.2506,42.5928,-39.2738,134.0507,-72.6110,-37.2027,-15.3032,-31.7636,60.6843,45.6829,-169.8801,-134.3671,16.7156
-1648.4375,310.8189,142.2743,23.7189,7.2465,-38.6878,-220.3097,-133.6283,-109.8091,-0.8286,-44.7192,90.2842,-152.5092,-18.2287,-57.2738,-0.9895,128.0995,22.3933,-175.4265,-0.5997,11.0402
-1640.6250,372.1259,99.9401,-121.6268,-31.9146,-74.0860,-254.1456,124.6503,37.9683,-73.8729,-151.8192,128.0090,-76.9879,14.9626,92.1380,37.1600,92.8676,-59.0060,-140.5807,-142.4724,-24.2608
-1632.8125,409.3565,67.5194,-3.2034,115.7512,-101.7008,-133.2576,-234.3070,-357.5005,44.8740,-143.1676,61.6131,-68.6735,-32.6770,65.3067,82.0912,102.3949,68.7330,-24.9496,-131.5571,21.2067
-1625.0000,245.9562,45.4558,-91.5787,26.6891,-7.0922,-184.2054,80.0095,68.2668,-45.1515,61.6872,-64.4541,-84.1040,-53.3656,-96.3128,-44.7443,87.1406,1.1031,-40.0937,-7.4243,5.8907
-1617.1875,322.5397,194.3628,-77.1380,37.5028,-138.6616,-168.3826,-52.8750,-174.1970,-68.3387,39.3476,59.4112,-69.6820,-32.5705,-45.1260,43.2565,27.7034,24.6833,45.6072,-99.4633,20.4012
-1609.3750,148.9525,22.0802,-31.0484,8.0341,-19.5454,-119.9564,-116.0537,-200.9584,52.1453,49.6697,-114.9453,-96.5683,-26.4027,-34.2851,125.9072,-36.0611,23.8639,90.9890,86.1889,30.5825
-1601.5625,36.9947,-88.5856,-174.4987,-64.8798,57.0249,-153.1117,290.2456,95.7271,54.1159,15.4370,-112.7268,-93.9569,-8.0186,80.0359,18.0387,-70.3613,-83.5358,56.8575,51.3025,-3.7622
-1593.7500,223.8683,-6.4384,-83.2719,-85.0447,1.2854,-24.6434,-96.8026,-289.9427,144.7704,-76.1373,-57.7348,-112.6592,-20.8047,99.0256,108.8485,-15.0149,-29.5607,110.4126,34.1010,14.5643
-1585.9375,50.2728,-213.7797,-144.6882,-218.7904,122.9312,-84.8600,209.5709,88.7927,155.7855,8.6496,-157.2726,-210.9658,9.0078,0.3751,83.0129,106.6925,-132.1117,50.3416,184.2732,-10.7351
-1578.1250,68.3169,-264.5027,-154.6353,-92.0119,3.0354,-57.6457,272.3889,-32.0477,182.2814,-38.1098,-56.2350,-147.7657,25.7615,28.1843,109.6597,133.8808,-107.5707,40.7587,32.9198,-20.5526
-1570.3125,81.1397,-284.4698,-25.9820,-4.5475,95.7757,0.1346,-2.1471,-158.2475,274.4086,-18.2573,-147.4859,-236.9370,-3.8039,-25.4007,91.9319,80.6921,2.3860,95.8015,158.2056,-0.7533
-1562.5000,7.5891,-217.8341,-130.8607,30.4915,100.9881,6.3367,333.8143,177.0097,95.0194,-86.9528,-179.1762,-268.6285,-8.6513,54.4865,-13.3031,84.9550,-27.0655,29.3283,125.9532,-32.4855
-1554.6875,224.8273,1.5614,-8.1055,146.2264,-70.1577,57.1341,-95.6227,-251.1410,107.2757,-183.0382,54.8459,-183.6910,-5.5233,103.9652,36.0895,24.8282,77.3127,42.4665,-2.6606,-19.5913
-1546.8750,214.2960,27.1643,-47.3019,33.0695,74.7795,-55.0048,86.0650,3.8188,104.6003,-39.0604,16.0576,-148.6604,-11.1573,-44.5039,-77.4560,-51.2355,15.8532,-31.3758,98.8025,-58.6253
-1539.0625,319.4550,168.4262,-76.9852,106.5001,-27.7746,-120.6201,203.2567,-25.7472,0.4655,-105.5897,60.8930,5.9147,-18.6573,-36.4455,-70.4557,-117.7832,35.9220,-25.7053,-37.2154,-88.1310
-1531.2500,369.9954,220.0401,54.5550,125.2279,-6.0791,-61.0679,-143.3064,-261.0821,21.5697,-120.9121,-28.0024,-46.2988,-69.8699,22.8227,-49.2188,-59.1165,120.0876,31.2049,54.0067,-66.4140
-1523.4375,188.3212,110.4131,-53.2920,16.6576,32.2358,-94.9660,263.7881,145.1989,-123.7010,-81.6421,-98.1605,-80.8699,-45.1085,98.7052,-84.3521,-19.8383,11.0053,-3.2489,54.8440,-101.0698
-1515.6250,234.1417,86.2454,35.1837,135.4763,-25.1357,-4.5964,-51.8273,-206.2444,-71.6329,-140.0695,-8.8788,-28.1014,-30.3102,188.8878,3.8503,-4.2312,86.2694,47.6306,-35.9825,-85.3927
-1507.8125,91.4403,-55.4765,75.9665,101.6868,162.8253,0.0370,24.9286,17.6687,-31.2301,11.8206,-151.2190,-134.0024,-47.2886,82.3815,-102.6233,-0.3035,89.3617,16.8377,108.5263,-81.3949
-1500.0000,123.8761,-22.0947,5.7239,136.9522,54.7591,-33.4096,211.6612,130.5125,-102.8328,-133.3354,-37.5120,-93.9257,-39.0210,85.8646,-174.0977,38.5852,71.4640,20.0309,5.0081,-78.4207
-1492.1875,193.3945,154.3352,118.3983,209.2035,-15.3614,117.0103,-225.6719,-196.7202,-100.5025,-202.5643,-69.8220,-127.9374,-63.5166,53.2631,-60.6384,78.3925,186.0783,131.1592,44.4388,-38.5204
-1484.3750,34.5414,102.3581,-4.4632,124.0060,44.9948,31.8517,91.5071,267.5363,-186.7036,-69.3310,-155.5779,-103.4642,-43.1576,41.1270,-73.7063,29.6730,77.7893,12.7683,66.3432,-51.1473
-1476.5625,160.5255,158.1818,-16.6395,251.5501,-76.9706,57.3208,-104.6696,-75.5742,-126.2147,-81.4376,-55.5807,-5.2973,-38.2484,102.6463,24.9085,-93.3678,123.6733,38.0593,-49.0617,-26.0921
-1468.7500,27.5426,26.0013,33.0433,192.0105,46.9584,33.5954,-128.9235,48.2302,-2.8463,42.3323,-188.6402,-65.2409,-68.9831,6.0176,-36.6047,-43.5408,113.7649,16.2136,103.4247,-13.1617
-1460.9375,-58.2069,-58.9837,-125.2053,143.6256,-38.0477,-14.1066,154.9080,258.0772,-51.3889,31.1569,-125.5420,-39.0979,-51.5285,105.4651,-48.0207,129.3519,-10.9192,-100.5496,56.9859,-24.1510
-1453.1250,27.6233,-113.4279,-34.0183,161.7495,-128.6149,41.5778,-193.8355,-90.6586,77.5203,86.4031,-105.9918,16.4474,-75.8638,51.3240,43.9997,184.6652,32.1009,-79.8835,77.0025,31.2871
-1445.3125,-79.1696,-219.5344,-139.6127,22.1580,-15.9444,-100.5677,139.7024,352.8561,43.6685,236.8617,-101.1623,20.2281,-42.9722,-54.6149,-63.7523,78.2018,-82.8631,-146.0015,150.2507,34.9512
-1437.5000,146.3249,6.6063,-159.0766,37.7549,-218.1520,-82.6309,10.3407,113.4476,23.9711,180.4369,65.8675,38.1590,-71.3157,-0.4557,-82.3686,-15.1344,-55.1386,-91.9927,27.6389,52.7491
-1429.6875,99.5429,31.4302,-128.9681,-42.0112,-113.7614,-52.1697,-142.4054,106.6470,90.8622,321.5935,-50.5022,-79.3305,-117.4870,-78.7375,-125.4075,52.0944,-57.5188,-98.4121,160.6272,46.1221
-1421.8750,39.5877,77.0397,-222.1788,-135.0034,-97.7033,-145.0599,241.5413,381.5002,34.4425,375.4052,-68.1458,-61.1404,-97.2010,-98.3370,-145.7489,32.9849,-144.0985,-154.1562,104.2903,-9.8254
-1414.0625,178.4649,181.4364,-74.6977,5.7476,-131.9548,-70.3056,-124.8505,-58.9931,108.7232,229.8872,-28.0661,-96.2793,-79.2561,-60.2822,2.6067,-2.4435,-4.2017,-48.2367,35.6543,-8.0900
-1406.2500,17.3168,-84.2341,-54.4037,22.3741,-1.3685,-86.7740,116.6443,329.3694,18.8331,286.1951,-154.1060,-186.5766,-66.0592,-39.4177,-88.2044,-56.0471,-3.6675,-28.5098,124.8521,-24.5241
-1398.4375,42.8988,-165.2130,-24.5242,154.6474,-82.2147,-20.6924,109.6936,175.2553,-25.4593,132.0667,-48.5114,-82.2837,-36.6939,28.0172,-58.4137,10.9234,41.2495,-0.2043,-23.3665,-31.3709
-1390.6250,58.5527,-43.1627,31.2804,101.9029,10.8850,-1.7205,-129.3009,10.0899,66.1936,113.8613,-101.9757,-26.0654,-43.3822,-135.6424,-2.6817,29.8231,60.4137,-15.9733,65.3680,-12.2871
-1382.8125,30.1271,104.7654,-141.1390,-30.9949,22.7574,-99.9999,287.5110,352.6886,4.6423,52.4139,-51.6154,58.9402,-11.1539,-197.5266,-65.1461,-106.5012,-60.9059,-76.9670,39.8766,-37.4222
-1375.0000,226.4244,160.3734,-44.9665,131.7499,-64.7818,-40.7297,-94.1169,-102.1675,100.6949,-35.4591,10.3748,8.5213,-53.5957,-27.8548,-42.0106,-155.2531,62.0399,-17.3889,-7.0178,-13.9722
-1367.1875,64.1895,-36.5975,10.5255,111.8832,64.0219,-22.1821,71.6476,173.3461,82.0828,20.0044,-154.2835,-119.5715,-58.3174,-82.8725,-97.5401,-64.6854,67.2649,-35.5000,115.4352,-32.1941
-1359.3750,85.6748,-14.8915,-37.3855,99.6879,-56.6010,-33.0828,171.9806,162.3942,71.0796,-64.9718,-52.3382,-20.0881,-28.0912,-93.3142,-34.4686,35.4638,25.5051,-46.0316,-1.5248,-42.8300
-1351.5625,123.7230,23.3381,77.1412,67.9812,-15.7674,44.4133,-155.2344,-127.1124,148.5258,12.4762,-83.9504,-52.1881,-48.6389,-198.3472,6.0328,39.0429,81.4576,-5.1393,73.9763,-2.0355
-1343.7500,21.8829,-78.3640,-26.3549,37.3023,65.0500,-22.1463,219.5687,247.3652,8.9609,19.8960,-37.5171,-81.2935,-0.7991,-190.4129,-97.4884,46.5954,4.6111,-70.2800,79.4599,-31.2596
-1335.9375,213.0094,77.8577,27.9947,159.5037,-64.2961,32.0960,-93.8271,-213.3622,26.2496,-109.8555,91.7890,-63.5633,10.6484,-99.6663,30.8403,26.9820,91.8440,-16.5968,-43.2061,-13.6456
-1328.1250,116.2917,52.1920,41.3735,99.7975,96.4008,-28.6684,-6.1413,-54.0187,38.5829,-23.5793,-76.8858,-86.8028,-7.5417,-122.9008,7.2138,3.4054,75.7158,-39.8989,38.1769,-37.0024
-1320.3125,136.5379,142.4440,-82.3964,15.0116,10.9200,-78.6203,238.3743,44.1135,-10.2286,-36.4991,22.2835,-26.2055,7.2753,-25.3024,-5.5535,-9.3393,-18.7528,-88.3687,-115.6029,-49.5233
-1312.5000,253.5922,153.4617,76.5275,26.9501,-14.8617,6.0866,-190.4189,-275.0686,0.6611,-25.7411,-0.8510,-50.9331,-41.8787,-51.0445,5.3651,75.5981,81.5066,30.8399,-67.6732,-1.3585
-1304.6875,79.2006,-56.0088,44.8699,-5.6287,137.7879,-25.8067,108.2657,133.1978,-105.0115,53.4427,-30.5163,-82.2262,-1.0761,-82.3560,-100.2708,116.9617,29.3746,-0.5290,-63.3048,-32.7601
-1296.8750,191.6158,56.2857,125.9091,142.5363,36.1197,55.9667,-141.3908,-262.8976,-96.9721,-86.7002,52.5251,-0.8413,11.5303,36.9986,18.8091,52.0106,131.0655,77.7793,-231.2389,-24.4731
-1289.0625,93.0264,-42.4618,208.8287,150.6278,192.3591,64.5907,-204.1124,-180.0750,-51.0338,-3.9550,-46.5568,-64.5762,15.4139,-64.7898,-9.2160,23.9434,171.0308,86.9559,-152.2735,-15.3066
-1281.2500,75.5366,9.8492,81.7386,168.7838,139.5771,-25.8201,73.1562,-13.3018,-177.0906,-57.2351,49.3542,29.6793,27.9034,-43.6036,-99.2246,7.8511,115.4703,71.1141,-202.3209,-31.1545
-1273.4375,204.4428,103.5158,142.9492,192.2831,54.1029,72.0334,-342.2901,-393.2516,-152.8437,-106.2217,75.5478,91.2083,-12.7793,17.8483,-37.9376,32.0363,167.6560,130.5453,-178.0602,-6.7181
-1265.6250,29.0437,-2.1630,72.7346,123.3996,205.2138,1.4374,-8.1008,14.4067,-186.0001,-66.6258,-28.6459,95.3273,23.3464,-52.1256,-71.0618,-38.1921,92.6223,62.5393,-107.2054,-39.6965
-1257.8125,176.9478,145.4186,117.7173,271.7394,29.5012,9.0113,-110.7501,-234.7967,-141.9414,-204.8512,91.3553,176.6315,17.2769,30.0779,-25.9707,-140.2270,178.3034,105.7144,-274.1458,-31.4827
-1250.0000,198.2423,166.3516,213.9867,258.4057,88.0889,67.8449,-308.0714,-249.6796,-119.5822,-145.7740,5.6198,89.2066,-24.0244,-21.4636,-77.5870,-190.9715,237.7160,128.1564,-146.7700,-8.9837
-1242.1875,197.3294,95.0396,104.9475,222.8205,53.3541,32.3396,24.3120,9.1084,-226.5217,-181.0202,82.5939,91.4765,16.2197,54.6663,-112.5022,-189.0324,160.2817,93.2701,-215.7032,-43.7949
-1234.3750,316.9087,215.1822,231.3015,307.6656,-40.9899,120.2019,-362.9291,-453.7349,-139.0508,-276.8911,136.9620,107.1316,22.6141,70.1579,49.9856,-210.6961,254.5550,108.7573,-236.2214,-28.2144
-1226.5625,112.3329,115.1261,166.3814,209.2840,152.4083,55.7650,-60.3775,-114.8072,-129.8293,-158.0425,-35.9369,79.5273,50.8310,-31.6252,59.2201,-238.6264,175.2091,45.9625,-123.9883,-55.8984
-1218.7500,128.0567,201.3228,145.6675,225.1535,57.9898,-2.4901,-43.6656,-207.7407,-150.3964,-252.0205,92.3568,133.1168,55.8412,58.7736,38.6585,-185.3779,161.9296,27.3538,-211.5617,-39.3899
-1210.9375,162.5992,94.3187,180.6995,188.7983,93.3290,31.9654,-302.1878,-319.9139,-4.2126,-217.2462,19.3778,20.4363,18.4881,-54.1208,37.8366,-78.3869,180.7958,97.4642,-36.3719,-4.1412
-1203.1250,84.5429,-20.3367,64.0133,75.7719,161.9379,-48.3163,170.5988,41.1969,-46.7304,-223.1913,15.7073,15.0525,65.2441,-59.7340,-4.6828,-84.1024,64.2427,19.8488,-43.8938,-46.6013
-1195.3125,293.5832,48.0572,171.3300,143.7712,48.5335,21.3751,-127.6508,-366.7370,59.7672,-300.1424,161.0145,11.6554,85.3086,-63.3759,101.8135,-159.8265,144.3686,18.2134,-116.4071,-13.0684
-1187.5000,131.2426,-150.9540,185.1772,-18.6504,135.6743,-2.4245,34.6917,-60.0952,73.8076,-176.5441,29.8416,-121.1959,59.0525,-85.4993,5.8570,-37.0158,70.5150,-38.9022,73.6350,1.0045
-1179.6875,151.1470,-130.7655,60.1806,-33.8811,10.9390,-91.0963,167.1504,-38.3569,23.0085,-118.8135,126.8095,-61.9033,76.6948,46.5136,64.0611,21.9321,-12.9674,-88.8807,-46.1839,-13.7768
-1171.8750,203.8197,-79.8343,149.8763,-52.3926,27.9021,-39.0956,-146.6879,-277.9155,112.9215,7.6211,35.4456,-118.9302,56.2171,-47.8047,191.9621,75.5730,30.1192,-107.1814,40.7173,3.1320
-1164.0625,36.4093,-142.0113,13.4035,-185.0321,148.6946,-138.2671,268.3460,135.3674,13.6892,54.8949,-26.0848,-71.1065,99.7994,-110.2882,165.7220,85.0575,-102.1284,-203.6498,84.4593,-23.1186
-1156.2500,176.7293,-143.4925,85.5785,-114.9958,0.1249,-67.8016,-27.0053,-196.7457,85.1237,-94.1831,85.0147,1.3493,82.7110,-39.1511,201.1416,84.1867,-36.2590,-98.4809,14.8616,12.2761
-1148.4375,31.1573,-325.8847,115.7804,-120.8979,178.5985,-38.3193,41.7336,17.2249,116.6041,-64.1989,-29.8624,-78.1600,101.8981,-80.9872,158.5997,41.3667,-33.7306,-104.2910,185.3257,6.7106
-1140.6250,47.9697,-273.8775,-12.7224,-68.4646,86.3370,-57.5589,280.7491,108.4503,25.3942,-118.9344,64.5435,-22.3740,135.1657,10.4562,177.3683,-14.1576,-79.7592,-156.8234,61.0819,-11.5623
-1132.8125,150.0925,-172.5514,93.0284,-1.7580,45.3216,-26.5730,-127.9933,-227.0798,130.4485,-123.4228,98.1631,-64.3571,117.3075,-31.8893,246.3862,-19.4393,12.2332,-91.1272,93.1065,20.4078
-1125.0000,85.8891,-343.5354,26.3601,-31.4359,125.8871,-93.0215,210.8957,183.9965,101.0980,-81.3249,106.3736,-93.7393,125.4917,-97.6609,68.9962,-49.1353,-41.6719,-120.8550,134.7202,-9.0322
-1117.1875,314.7778,-185.4287,43.6980,91.9101,-77.5684,-3.4819,-29.2636,-128.9804,81.7602,-210.2417,236.5684,-76.1221,93.8348,-7.4604,86.6044,-68.8395,42.9475,-33.6004,11.3326,8.5238
-1109.3750,277.0651,-12.9168,77.3763,17.6173,-6.6724,-7.6156,-142.0442,-96.5793,115.7691,-103.8116,88.0735,-116.1673,19.9947,-119.9374,10.5565,-72.1941,62.1812,-1.0209,149.3042,5.4217
-1101.5625,176.4154,61.6658,-64.9497,-13.6491,-0.8049,-76.7586,195.1623,128.7852,47.7840,11.6099,94.5634,-73.2269,51.6523,-188.4173,16.5271,-103.5555,-16.8566,-32.4498,47.2605,-25.6872
-1093.7500,219.1783,-2.3310,88.0757,63.4574,-69.5836,1.4338,-203.3043,-233.5193,164.1561,90.3823,65.3659,-141.9528,28.9757,-183.5676,131.8521,-61.5793,83.2470,44.4573,54.5750,16.5452
-1085.9375,35.6481,-221.6004,42.7370,-14.7642,33.2722,-44.7448,118.9103,161.8383,46.1666,154.7950,21.8081,-186.0249,77.6273,-155.0955,86.8124,-69.9612,4.0324,0.9900,116.5330,8.4155
-1078.1250,138.3438,-48.6486,39.5600,88.1947,-116.7510,25.2318,6.2266,-62.7169,-30.6667,41.3357,130.3919,-41.9446,55.2512,-49.4942,83.9221,-109.1909,51.3197,32.6699,-62.3629,5.4300
-1070.3125,94.6856,-23.0581,101.9768,77.7589,18.8292,49.7930,-150.8300,-109.6475,-4.8999,66.4721,-26.4625,-53.2754,20.4445,-133.3155,73.6213,-119.8280,95.7052,57.9376,69.3609,31.0367
-1062.5000,-14.3480,-26.8639,23.9385,73.8711,14.9324,7.8905,175.6675,178.9469,-154.5744,-11.8597,-28.7732,16.9456,30.7522,-64.6005,-4.1235,-87.9289,47.3901,18.7522,-4.3747,27.1906
-1054.6875,117.0353,103.7096,85.2545,134.3730,-70.6204,105.3273,-240.5142,-237.1354,-57.8808,-96.8416,-38.7659,4.5089,-12.8235,-4.5700,94.4894,-27.6914,126.3202,112.9083,-15.7455,51.6899
-1046.8750,-63.7316,-77.8958,7.3552,22.6866,72.6161,100.5384,13.1478,88.6055,-24.3852,7.9804,-188.9871,-36.1316,-12.0213,-8.7582,53.9095,5.3382,30.5923,71.8448,84.6901,10.9803
-1039.0625,-66.5359,-46.5801,-33.6365,18.9222,-5.2701,58.6518,119.6752,-26.8080,-27.9686,-70.3092,-44.3217,217.1203,10.1478,97.9463,50.2517,-72.7400,-23.9550,-2.3190,-23.9717,7.1697
-1031.2500,-47.8596,-204.8056,55.8131,-69.3980,47.2967,73.2058,-120.3286,-157.7489,61.9024,-18.1331,-137.2283,233.8027,-54.0079,113.0702,-7.9660,16.6275,-21.5219,13.9550,133.8327,59.7996
-1023.4375,-207.0407,-364.9193,-73.6544,-192.6109,101.9347,-21.1533,300.7732,226.3968,5.8731,73.1271,-192.0426,250.5731,-23.2687,93.2822,-27.0826,108.0901,-157.9673,-75.6871,149.7261,40.5195
-1015.6250,-159.9281,-318.7650,-27.8600,-112.5614,-0.1929,23.7391,-20.9102,-169.2418,126.1107,81.6281,-180.6552,333.5839,-19.1250,64.7272,166.0652,116.8116,-105.8726,-30.0850,90.8794,86.4892
-1007.8125,-357.4872,-482.2993,-52.7757,-241.2139,121.9727,-75.0842,138.7458,172.4487,137.6435,350.4258,-351.0027,271.8983,-28.9006,-33.5507,141.5132,127.8317,-184.9354,-89.1981,243.3362,97.7527
-1000.0000,-290.2025,-380.0127,-92.8881,-209.0489,7.9099,-153.1049,209.1652,204.8849,60.9886,383.0149,-205.5600,232.0186,-34.4343,71.9622,64.7746,124.6450,-189.4455,-92.5166,134.5832,94.8156
-992.1875,-199.2018,-361.0128,71.7027,-190.1822,26.5530,-98.4301,-175.7134,3.0252,117.0455,328.3192,-185.4542,139.8215,-61.0140,53.1623,46.7375,216.1554,-99.4712,-74.1475,188.5499,113.5743
-984.3750,-265.5184,-392.3467,-33.0736,-256.6654,105.8201,-204.1054,234.0780,411.8149,48.7521,333.2728,-215.7165,145.2802,-32.2610,-14.9927,-21.6487,184.3088,-178.3597,-141.1408,157.1594,81.9783
-976.5625,-148.1320,-242.0112,49.8056,-140.4995,-31.2860,-159.1233,-49.5236,16.2107,133.1266,231.8870,-132.3398,229.3902,-61.7728,67.4812,25.6264,121.1122,-84.7724,-60.4926,26.4258,92.0347
-968.7500,-229.5287,-289.4575,73.8660,-189.1403,102.7988,-135.9496,-25.8921,223.8430,83.6986,292.7267,-252.7831,69.7005,-54.0284,17.1335,13.0926,145.1227,-79.5420,-39.6610,154.8978,79.2886
-960.9375,-163.4289,-259.4308,-5.6220,-124.3148,23.2948,-179.3279,190.1652,291.8817,-32.2692,176.0242,-147.7834,100.4704,-6.8749,85.2352,45.0241,102.5837,-95.7389,-79.3827,44.8117,73.9953
-953.1250,-93.5724,-119.6290,64.6439,-20.7365,-16.4612,-146.9553,-216.0341,-42.3283,112.5251,173.0935,-149.0771,133.9908,-25.1678,8.0736,152.7113,24.7901,-11.9712,-82.3663,113.4954,107.4533
-945.3125,-255.4502,-141.5571,-66.8492,-77.9110,34.0138,-243.3319,165.0469,411.7273,90.5692,297.4263,-206.1375,148.7684,-47.6103,-124.8481,-17.3506,2.2413,-102.8689,-175.1082,196.4253,85.1618
-937.5000,-114.5393,-1.7057,-70.5838,-9.3330,-188.7822,-137.9435,-57.1674,113.4849,13.3800,219.5248,-62.4703,182.2941,-83.1188,17.9687,-19.6485,35.4471,-60.7616,-107.0949,90.1145,118.6266
-929.6875,-210.4693,-133.6852,-62.1783,-104.6316,-107.4327,-93.4070,-122.2061,231.4348,22.3434,338.8066,-161.6930,80.9655,-88.7223,25.9182,-10.8003,80.8168,-101.5168,-133.9395,238.9711,127.2417
-921.8750,-231.2623,-50.5386,-194.6792,-162.8318,-130.0158,-189.7569,185.8446,429.4564,-71.5836,426.1938,-110.8249,168.7515,-57.7727,38.9657,3.1548,58.2921,-195.9209,-226.6809,76.9184,104.9604
-914.0625,-113.4349,242.2332,-74.5718,-116.4236,-193.0087,-107.4928,-243.5312,34.0690,48.0983,436.1983,-99.3931,142.1288,-107.1790,-60.4005,50.7085,31.3689,-84.0430,-146.8191,51.4856,115.2823
-906.2500,-216.8609,383.7758,-146.7223,-222.2510,-81.2700,-180.4801,51.8736,403.4566,13.5271,511.9739,-205.2361,-2.7451,-140.9487,-96.0147,-92.9934,70.2008,-143.3058,-252.2153,122.8029,80.3533
-898.4375,-87.0575,654.5429,-158.6572,-162.8645,-240.3498,-193.2483,-33.5725,169.9920,2.1759,351.9633,-143.8995,22.5842,-156.7763,37.5581,4.5184,132.2381,-111.7568,-264.4000,-29.6829,68.6277
-890.6250,-141.2450,563.3304,-107.5966,-219.4950,-153.4254,-180.0087,-164.9999,110.5565,163.8251,402.9670,-274.5945,-37.0835,-146.5594,-57.8934,130.0241,146.2809,-111.2579,-250.5881,90.8457,82.9016
-882.8125,-244.9398,493.5891,-253.0934,-254.6769,-189.0849,-216.3016,241.0146,442.5468,128.9218,441.4174,-234.8389,38.7110,-136.3506,-93.8864,20.9788,110.7765,-203.1463,-251.3168,20.8104,47.6262
-875.0000,-83.6682,548.8195,-197.6274,-129.9171,-353.8042,-50.6216,-143.0629,19.4602,185.9787,386.8315,-142.1622,21.4609,-191.8205,-111.9352,3.8833,203.2300,-103.6500,-127.0814,4.7376,67.3028
-867.1875,-187.4116,338.0713,-196.1647,-235.1704,-242.5300,-86.9379,78.8983,388.4045,151.0335,425.2557,-212.5223,-50.7804,-186.3558,-147.9858,-104.2088,278.6874,-163.8527,-162.8428,145.6618,31.9773
-859.3750,-161.8878,327.5966,-280.4416,-210.1586,-364.0296,-98.9740,141.0650,266.5429,140.3544,376.9237,-112.6540,48.2247,-139.8708,-50.7776,31.9739,267.3936,-208.0436,-138.3333,-5.1753,20.9064
-851.5625,-252.1161,376.3922,-231.4691,-232.9006,-241.2834,-50.7440,-102.5117,130.9502,264.9262,463.8604,-244.5680,-48.5267,-173.9105,-74.3404,45.3971,243.3497,-171.1810,-56.5667,113.2561,34.0870
-843.7500,-334.1671,364.3617,-352.3622,-280.4925,-178.4178,-135.3546,291.0643,524.4957,143.6456,415.9547,-219.3283,-59.1033,-151.1580,24.2426,-76.0271,232.4566,-258.2227,-139.6497,100.8193,-13.5800
-835.9375,-101.2918,420.2552,-223.3555,-121.1959,-306.6792,-7.0475,-57.5040,64.9062,200.2781,139.9653,-88.2082,-76.7705,-140.0166,115.7216,17.4627,214.4682,-121.3680,-50.8315,15.2940,5.6593
-828.1250,-211.3253,309.2717,-192.2731,-161.8229,-165.8528,-50.6378,84.0604,315.4546,195.0112,208.0998,-204.0115,-119.3367,-115.0999,-0.6956,12.0502,134.5843,-131.4393,-91.9197,150.8680,0.0006
-820.3125,-222.3832,403.2624,-279.2397,-139.5070,-253.1064,-101.2576,219.5390,301.9037,108.7044,121.2023,-67.8706,15.0463,-61.0874,59.8392,72.5987,48.6528,-171.1646,-70.0470,-2.6145,-12.7003
-812.5000,-156.0960,397.6272,-138.8596,-109.8671,-224.0168,-35.5141,-154.6373,36.7193,138.7537,77.6890,-74.4159,8.7673,-76.7695,14.7034,102.5004,114.0819,-86.3361,-4.8239,62.2685,16.9530
-804.6875,-212.8591,304.9636,-197.5425,-97.2905,-137.0056,-94.8161,227.1561,382.4917,7.7533,55.1426,-132.0215,23.4515,-60.1797,-44.4811,8.3569,129.4697,-115.2852,-28.6485,74.0889,-41.4413
-796.8750,-25.1146,386.8256,-78.7145,17.7917,-163.5182,-11.5969,-56.6039,-50.2790,91.2654,-118.8780,-11.1442,33.6381,-30.5017,1.8291,91.7189,-7.6405,4.3460,86.0307,-55.5841,-31.3284
-789.0625,-142.9257,302.1586,17.5460,3.3095,41.4060,46.0779,3.1131,81.4417,77.2237,-133.4118,-97.8343,-90.7274,-22.9203,-13.4200,-32.4916,-133.3033,57.3719,177.1558,70.1946,-45.7628
-781.2500,-120.4590,324.7627,4.0513,60.0708,28.5403,70.0211,211.0413,142.3689,-44.5599,-254.6848,0.7285,7.1710,-16.5375,120.5918,-155.4431,-182.7101,66.9640,197.5390,-83.7932,-94.9400
-773.4375,-56.7924,387.5864,179.7542,193.0058,56.8689,208.1786,-201.8465,-270.5089,-16.1362,-299.7320,-6.5450,36.2747,-40.2112,74.7912,-126.1825,-190.9036,204.3773,225.1226,-56.5686,-102.9143
-765.6250,-207.9942,270.5799,95.5936,145.0688,192.3305,122.4977,192.4420,120.7777,-63.5662,-274.6140,-90.6877,25.5383,-17.4803,-10.8555,-210.7711,-201.9332,129.4646,140.8575,1.7961,-150.7351
-757.8125,-55.2409,316.5487,141.3904,225.0798,54.7111,168.8038,-18.3768,-201.0391,-53.0328,-447.5362,67.1062,35.7518,-6.4390,72.4464,-163.3998,-229.0011,184.4695,186.5645,-128.8897,-140.5965
-750.0000,-59.0540,171.9824,208.6192,185.5363,157.5242,235.5760,-60.7273,-134.3681,-22.0498,-343.9846,-11.6722,-44.5867,-14.5464,-44.8047,-206.5899,-161.6168,208.3213,216.7230,6.8824,-110.0082
-742.1875,-96.3058,133.9829,94.3897,146.5474,79.8491,230.9205,192.4533,44.8189,-135.5148,-347.8758,22.1027,25.6408,-23.6386,-13.4946,-282.2236,-165.6776,132.6923,176.4395,-101.8151,-113.8675
-734.3750,52.1008,175.6513,171.8114,187.1846,8.8180,307.9357,-207.7488,-356.3568,-20.3265,-344.0886,63.5058,-7.4800,-37.6320,26.4557,-169.2150,-162.0820,196.0929,216.8157,-95.8512,-73.0727
-726.5625,-65.7518,92.0852,83.9624,32.5458,105.5171,182.7083,146.8258,33.2410,-70.3947,-210.5284,-60.3489,-20.8395,-26.8677,-23.8401,-182.4700,-101.7279,82.2989,132.9462,-4.1468,-86.5259
-718.7500,44.2447,201.3890,48.9711,34.7545,-39.9639,148.3597,38.1932,-186.3674,-67.5908,-244.1014,89.6403,55.6521,-41.3799,13.7237,-179.8603,-62.5176,61.6690,99.9475,-142.6007,-84.1253
-710.9375,-13.0919,143.4032,132.6699,10.6400,42.2542,157.7302,-135.7250,-212.2485,52.9212,-87.9396,-9.7049,-8.1648,-49.9283,-87.0160,-132.5571,-15.5990,87.8847,75.6566,45.6570,-37.0265
-703.1250,-122.7710,33.0808,-20.9914,-30.8369,-0.9102,3.7857,262.9973,110.4968,11.0834,-94.1086,21.6006,59.6828,0.8721,-20.0971,-101.6106,-59.0297,-31.3352,-0.9687,4.5466,-43.2755
-695.3125,68.7500,83.9761,65.5490,53.8783,-99.8867,53.0769,-92.1240,-354.5843,61.4541,-227.0570,146.0847,72.7302,32.3387,-7.9804,59.5337,-46.2626,49.4940,48.6188,-51.3555,6.6825
-687.5000,7.1545,-120.2131,34.9743,-9.5160,54.0154,59.2833,98.6754,-18.7353,-79.2870,-183.0897,79.4584,42.6876,35.9632,-38.9627,-81.4294,34.4130,10.0042,55.1068,61.6307,13.5424
-679.6875,102.7237,-25.2349,22.5519,48.2392,-69.9711,82.6650,86.5738,-214.7932,-162.8727,-378.9697,214.9856,104.8030,38.4172,59.2162,-93.2247,22.2529,29.6778,77.7627,-126.2502,1.5603
-671.8750,172.3742,-26.1432,165.2245,117.0761,-0.8643,226.1615,-210.4315,-476.7333,-57.3636,-492.7223,175.5865,28.0117,59.4805,-19.5080,14.0673,18.2120,138.3578,110.5300,-58.0256,34.6832
-664.0625,100.7715,-98.2874,53.6311,113.6489,-3.0406,150.4317,155.3098,-184.9362,-131.1089,-604.7198,173.9472,-10.0162,105.3326,-21.4687,13.1052,-20.0629,79.2431,107.0557,-61.0707,-3.4379
-656.2500,180.8721,51.2854,134.7369,262.9074,-106.5384,268.4333,-240.2989,-656.4827,-122.1434,-742.9964,182.9945,71.6574,62.2794,133.2689,94.8579,-11.6297,187.5262,186.2937,-156.4136,5.1468
-648.4375,-34.9087,46.0160,127.9754,220.2895,107.1070,188.6000,-63.7349,-405.8423,-164.0334,-528.0908,-42.8256,139.4932,37.4019,89.1622,52.7515,55.9535,156.1440,108.6786,-22.6166,-1.1170
-640.6250,33.4157,149.8614,14.3115,181.7672,-7.1822,110.8932,79.8852,-410.1550,-203.8141,-605.0731,101.4597,283.4365,42.0409,85.1763,12.7544,15.6399,85.5774,70.1788,-165.7376,-4.2722
-632.8125,151.6761,161.6707,96.5833,157.1716,0.4636,156.1554,-277.5614,-696.5083,-84.6354,-522.0696,147.6739,255.3178,33.8166,57.1423,58.7050,-12.7198,126.1773,115.6407,-85.9007,41.5276
-625.0000,1.1772,10.7373,13.0808,39.8079,27.3228,146.6805,116.2534,-265.6049,-166.2037,-420.7861,139.1460,173.4621,50.1307,120.3620,-61.0953,-58.8204,25.6548,104.3584,-61.8347,-4.4199
-617.1875,135.5271,38.6692,77.4317,172.2844,-129.9918,285.0812,-149.1429,-642.8982,-101.9070,-501.6181,204.4617,128.4545,26.7227,148.4289,4.9580,-30.0606,116.7071,166.9441,-173.9238,-12.5097
-609.3750,69.0922,-62.1417,117.0132,104.9829,19.9396,324.7502,-110.2649,-419.9027,-24.3715,-425.1613,98.0061,20.6954,46.7115,3.7441,8.2423,46.9599,114.2152,169.7834,-30.7604,-9.3454
-601.5625,59.6053,-37.9889,32.5358,57.6175,-28.2226,203.4062,100.5243,-320.9968,-70.8829,-471.7359,124.5061,84.8953,63.1612,140.0263,34.4875,-74.0596,44.1054,157.5906,-148.6642,-56.2237
-593.7500,151.3976,-16.5303,163.3462,77.5203,-9.0966,297.3916,-246.4088,-669.7949,-13.0830,-560.9833,109.2893,68.3816,73.6721,196.6187,166.0324,-90.7684,124.8217,247.7160,-128.2590,-35.7979
-585.9375,20.6813,-111.5652,62.6263,-55.1074,147.5035,233.9002,94.1788,-219.0765,-185.7899,-513.7175,83.5766,79.3825,98.8160,132.7305,29.0704,30.0272,16.0001,186.3498,-83.3699,-61.8705
-578.1250,212.0269,8.4583,75.9592,64.3054,12.1264,247.4916,-150.2455,-500.3630,-244.4434,-572.3820,244.9206,130.4461,93.3736,108.8987,43.1615,7.8756,80.3824,200.0517,-245.4407,-47.8852
-570.3125,226.2915,58.4380,125.2318,41.6498,134.6980,260.0492,-320.7095,-451.6664,-231.1563,-486.0663,184.1893,106.4555,82.7082,47.0224,20.1891,-53.3202,107.5063,177.7130,-127.5623,-34.9471
-562.5000,187.8013,124.6737,47.7479,1.2409,56.4873,146.8845,-29.9481,-199.7567,-270.6171,-451.4937,218.7141,103.7145,72.2396,80.4172,-56.5239,-130.2563,45.4006,102.6449,-236.4603,-74.7522
-554.6875,295.4489,161.0686,156.4153,35.9640,16.4144,217.9017,-436.0726,-532.7175,-161.9215,-341.7475,217.3840,28.1118,27.5051,77.9529,-21.0850,-95.0321,122.0315,137.7405,-167.2084,-39.4000
-546.8750,145.8316,-93.7805,71.8116,-80.5908,116.0727,134.6861,-79.4277,7.0906,-171.4955,-132.2267,60.8082,-54.7323,22.7231,-5.7494,-104.9123,-68.0503,22.5553,92.5970,33.7754,-49.2934
-539.0625,201.2217,-108.6234,18.2071,-62.1541,-48.2985,81.5078,-95.8479,-83.1587,-151.0688,-110.6885,155.2413,-70.5750,48.9363,87.5686,26.2603,-84.0525,-16.8905,40.4761,-87.2578,-65.1776
-531.2500,143.0267,-132.0161,65.0383,-122.2922,33.7846,54.7959,-195.8146,-0.9352,-66.1964,84.3319,93.1051,-133.9715,59.3711,-12.6594,73.8738,-73.5860,-23.6871,15.8153,63.1587,-54.6116
-523.4375,105.7656,-205.4550,-47.1943,-161.4861,30.7950,-56.9455,206.1530,401.2146,-141.3743,193.3228,90.9314,-135.4100,58.7022,-51.9173,-37.5638,-112.1659,-106.5026,-92.8777,-10.5045,-93.0912
-515.6250,239.4491,-106.9410,51.5204,-65.7396,-54.2595,5.2908,-208.9764,21.2868,-77.5952,184.2919,154.7006,-145.9028,46.8849,-63.2210,61.9432,-85.7926,-14.7652,-66.5996,-54.2143,-66.6129
-507.8125,97.2640,-179.2765,-24.6389,-173.8696,88.8118,-70.3050,8.0612,422.5376,-79.6763,292.4409,42.6188,-185.2364,59.0395,-103.3641,22.5892,-88.2599,-99.1365,-140.1670,48.2124,-68.9821
-500.0000,99.3371,-36.3571,-98.5554,-138.7598,-58.9049,-69.6165,8.2936,311.9831,-115.5007,256.8599,116.7990,-110.3174,40.4910,-66.2413,23.4945,-161.4589,-110.3664,-103.4641,-91.1304,-68.0939
-492.1875,139.1378,-31.6917,49.2624,-100.9180,-21.8750,41.8401,-283.7253,165.1926,-113.5770,333.0712,82.7138,-182.6622,-3.9560,-65.3646,-47.8607,-158.9017,-8.5501,-30.0026,17.2784,-29.4526
-484.3750,21.9262,-113.0240,-34.9401,-149.0876,2.1235,31.3134,109.2568,520.3958,-306.6561,396.3080,35.6317,-155.9946,-6.5794,-39.4654,-169.2236,-170.3391,-75.1013,-42.5332,4.6658,-76.8052
-476.5625,168.7101,-37.3508,41.8602,-40.2756,-104.9007,109.8113,-217.8138,82.5618,-227.7147,254.5746,113.5417,-77.3264,4.1488,0.4412,-16.5900,-165.7670,7.7555,31.9480,-95.9458,-72.1479
-468.7500,13.7169,-156.4339,25.8828,-56.2466,62.3143,131.5648,-49.6052,360.0186,-170.5258,387.1250,-11.3018,-166.4035,41.1974,-88.3942,4.2826,-180.9312,-10.6751,16.6799,28.6823,-87.2378
-460.9375,33.1246,-68.1142,-65.7012,-38.8222,-68.1060,76.7408,78.9565,340.8249,-223.9299,407.1032,81.2686,-184.0744,32.0474,40.1882,-13.4423,-161.6875,-49.1398,-1.1671,-129.3127,-104.9195
-453.1250,83.6633,-87.6473,-17.1467,-26.2683,-20.3777,126.0881,-276.3480,94.7881,-138.1857,568.2732,-16.0210,-280.6056,-0.2864,-21.0741,72.9726,-38.2944,-1.9060,48.1448,-10.1522,-55.4475
-445.3125,-78.8111,-215.1852,-151.6164,-189.7287,66.3288,29.4512,141.3565,511.7569,-160.4406,730.4571,-75.3064,-340.1292,21.3265,-44.3168,13.3838,12.1045,-143.2256,-9.5359,36.9897,-77.9732
-437.5000,11.4541,-159.9756,-96.3348,-136.4505,-100.2296,85.5936,-61.2351,161.4257,-29.9230,602.4069,18.1536,-357.9084,3.8612,47.1976,69.5512,-41.7342,-93.6000,44.5543,-49.1229,-58.7403
-429.6875,-71.2196,-277.6680,-75.9737,-187.0973,29.3063,143.8511,-3.7058,365.2314,28.6913,661.4859,-107.2973,-373.5919,-19.7077,-42.1873,-19.2006,16.5408,-97.0279,65.7553,112.8607,-37.4013
-421.8750,-36.3361,-277.8077,-152.0699,-118.2022,-46.6387,142.6900,214.3303,473.5443,-46.1463,477.1302,-35.1802,-300.7167,-41.5864,-81.0003,-167.4086,51.3732,-98.9487,64.5224,-29.6298,-38.5008
-414.0625,47.8380,-158.6507,6.1250,-1.0315,-37.2961,263.8508,-178.3665,78.1517,39.3207,305.1033,-22.7738,-289.5500,-54.5911,-70.5006,-119.3124,26.5156,42.4300,148.6001,-16.8202,9.7057
-406.2500,-149.4079,-179.9041,-54.1072,-59.2729,85.6276,168.6222,202.5554,422.3702,17.3778,247.7024,-81.7651,-274.7755,-5.2500,-93.3794,-141.6153,-32.7350,-19.5512,126.2854,-4.4357,-12.4846
-398.4375,-30.1141,-60.6089,-5.7913,93.0257,-50.9152,180.9716,-7.0333,28.0861,-7.0037,112.8792,40.7938,-189.4528,1.9438,-44.6962,-56.3617,-57.4226,60.4103,138.5412,-133.5092,-0.1160
-390.6250,-58.3536,-158.8200,108.0029,98.7882,99.0447,222.8285,-113.1014,32.3422,-1.8859,155.5948,-64.1586,-220.6405,7.1979,-113.5131,-51.6288,-15.5901,117.4473,144.2982,13.9233,41.7572
-382.8125,-34.8456,-135.2833,21.5265,85.2920,47.7199,99.4511,167.5590,202.3233,-87.0102,34.0725,-2.3484,-124.0645,17.8752,-16.5594,-100.1465,-64.9907,57.5754,61.8112,-104.9170,29.3896
-375.0000,107.5377,42.1506,92.9450,189.6910,-28.7197,171.9892,-238.9168,-314.8123,58.7733,-39.5222,33.3512,-124.5905,-0.0141,18.3030,45.2429,-29.4860,146.2825,62.2374,-139.8540,64.9312
-367.1875,-71.7507,-67.0768,13.6892,114.4344,75.1723,94.8845,49.9827,46.4313,54.8911,67.2681,-44.5941,-201.7688,7.9007,-23.4563,-33.0263,77.3663,68.7119,23.0149,-39.4568,60.8240
-359.3750,18.2650,23.9911,-5.2647,167.4723,-91.6582,77.1012,-78.8781,-193.0736,74.3162,13.3845,48.7726,-145.6502,-20.9449,32.1001,-13.9934,59.5311,84.2241,42.1043,-195.7720,80.0251
-351.5625,7.8468,-57.3544,91.3673,190.0820,4.1119,100.9227,-239.1337,-244.9462,135.3438,112.1376,-38.2804,-158.9354,-26.3831,-18.7399,9.6297,46.3228,141.7173,100.7934,-66.4859,103.8298
-343.7500,-136.6334,-96.7570,-24.0653,113.6355,-1.1909,-13.2941,122.5500,44.1124,21.3195,146.8573,-4.3724,-53.2558,2.7378,88.3887,-30.7926,6.0870,25.3789,25.4357,-143.2782,63.5915
-335.9375,3.0273,7.9859,45.6521,146.3249,-116.3553,57.6492,-284.6585,-364.7018,92.4540,107.7617,66.6840,17.5719,-43.8255,157.6695,2.9314,40.0109,82.7343,94.2337,-179.9162,97.5130
-328.1250,-98.1343,-128.0819,10.5484,-27.8052,31.6748,-13.2111,-62.6414,3.7209,58.7762,258.9023,-41.0514,-16.4044,-37.8879,87.1625,-66.1695,43.1388,-10.9852,26.2353,-2.3634,100.6385
-320.3125,-7.7915,-37.6564,-43.0562,-9.4351,-59.8184,-64.5475,-43.1751,-123.4074,80.6100,134.5527,54.7257,42.1123,-34.0857,108.1763,-45.7635,27.7715,-23.3917,46.7560,-158.3296,85.2725
-312.5000,59.3209,-5.4434,24.1290,20.7226,43.4908,39.9299,-305.9102,-276.7181,112.2422,130.0266,-24.7130,-0.5832,-49.1039,28.0014,-14.5559,96.2078,45.4039,78.0863,-56.4943,116.7095
-304.6875,-65.4873,-95.1445,-70.6087,-72.0218,93.8783,-17.4807,76.4592,68.0680,-18.0285,184.6146,-82.0420,52.8307,-34.5270,43.9521,-71.2485,112.7499,-50.7284,21.5283,-77.5845,96.2521
-296.8750,51.7951,-82.7528,-25.2460,9.3350,-45.6438,103.2275,-282.1244,-291.0799,28.8093,121.3240,1.7270,62.3458,-33.1683,90.0124,47.1549,85.3977,8.0584,68.0890,-102.5779,142.9038
-289.0625,-69.4499,-308.8758,-43.4055,-112.8279,82.3333,48.4393,-117.1825,-17.6910,121.1371,252.5516,-88.0015,-28.6370,-11.3347,-1.4168,30.0473,141.5597,-66.3239,17.1501,90.9221,162.0575
-281.2500,-66.6896,-307.0070,-189.5682,-113.9961,-64.7139,-21.3351,67.7221,20.6487,124.4696,255.7885,24.2872,10.3811,-3.8503,111.1752,31.9434,107.7389,-151.6127,-16.7781,-13.5995,128.2201
-273.4375,-19.5015,-223.7022,-105.2895,-103.7322,-18.3017,26.3444,-178.9344,-226.5498,283.2551,379.5176,-37.9819,-51.1592,-32.9719,48.2214,80.2762,82.3718,-92.9167,-5.2551,67.3315,139.8360
-265.6250,-139.0240,-238.1113,-192.7303,-224.1739,41.3976,-58.6720,211.7177,273.5603,197.3290,441.5659,-86.9351,-100.3919,-25.4080,-74.4083,-42.1037,70.3092,-182.0623,-54.4266,158.5365,90.7558
-257.8125,2.1937,-131.7799,-157.4161,-155.8701,-109.1644,-58.9186,-10.9358,-59.6240,271.1651,332.3796,-13.1449,-27.8817,-47.9313,-75.2748,30.2780,70.0209,-134.0253,-19.8384,87.4849,90.4341
-250.0000,-117.4289,-286.2634,-136.9214,-206.3901,21.4769,-73.9626,83.6393,181.4315,330.2046,428.4232,-174.1737,-80.1796,-38.4195,-126.9331,51.8585,54.9442,-151.1178,-0.0530,282.6332,75.3158
-242.1875,-156.5065,-291.2067,-288.8863,-247.3632,-94.3495,-113.4452,373.7408,324.0056,253.8066,317.0321,-67.6389,-8.9302,-9.1298,-21.0200,48.9929,52.4152,-260.4662,-74.7116,172.3110,35.7563
-234.3750,-57.3068,-191.8630,-187.5519,-186.0493,-141.8688,-84.6199,-3.8802,19.8839,355.7106,272.9723,-75.8130,-17.3940,-42.3647,-29.8077,114.4172,81.1927,-173.4779,-11.0597,235.2987,64.5027
-226.5625,-199.5729,-227.9906,-262.6879,-258.1874,-32.8428,-194.2415,363.0689,422.3319,319.1508,347.4777,-149.4267,-17.3058,-25.6236,-104.0273,40.3848,81.5263,-248.8465,-82.8521,302.8164,27.8006
-218.7500,-113.4391,-106.7317,-247.4200,-69.9194,-166.4281,-141.4446,120.3654,106.1345,263.0007,218.3944,-21.6378,72.1732,-25.2862,-13.8283,92.7614,61.2662,-163.3613,2.7726,70.7225,7.5043
-210.9375,-147.9334,-176.0920,-139.7654,-71.2652,-57.5988,-105.2471,9.0779,141.3759,263.2434,293.7397,-169.4555,72.0454,-67.6945,-14.2204,56.5189,171.4110,-121.2636,-32.2026,211.0299,7.6082
-203.1250,-193.3262,-151.3683,-261.0201,-118.5024,-107.6857,-224.9458,290.8712,348.6898,178.5826,284.1935,-106.1532,208.0220,-43.0370,-25.4885,45.3761,160.6641,-219.2103,-149.0706,93.4166,-3.1841
-195.3125,-39.2311,-32.1598,-140.7715,-71.2410,-135.2679,-213.1325,-103.8681,-119.5102,301.4268,186.1606,-94.3572,256.4848,-46.4613,-14.2508,203.7379,135.4342,-134.6625,-134.4306,71.3023,45.5283
-187.5000,-160.6535,-83.4682,-195.0436,-124.4821,-7.3579,-302.8249,172.9203,229.8168,247.7595,244.6348,-148.0535,129.4516,-16.8731,5.4986,149.5952,155.7195,-186.0875,-187.2921,123.6674,28.7438
-179.6875,-18.7191,59.5620,-194.9614,-19.3732,-155.1110,-228.1559,62.0075,-27.5578,102.4478,63.4757,37.6172,167.7665,-17.3937,116.6078,113.8076,120.3640,-131.6261,-149.7957,-86.6322,30.3181
-171.8750,-48.1080,30.2542,-84.1902,-50.5867,-80.1498,-150.7920,-155.1943,-137.1949,142.8375,105.0516,-32.0225,133.7716,-19.7714,9.4227,153.7095,197.7211,-85.0912,-109.6034,58.7720,70.5968
-164.0625,-170.1564,14.2795,-211.0847,-103.4545,-135.8525,-204.0771,193.9523,176.5040,52.5773,126.9874,-11.3010,191.1311,7.2715,-7.3890,136.9688,181.4431,-179.8585,-162.0590,-29.4934,54.2325
-156.2500,-31.9162,46.5750,-71.6812,-3.0280,-215.2545,-98.0561,-216.6355,-271.5165,121.6344,86.2384,57.7144,185.7891,-24.7185,61.1090,168.5298,213.4815,-68.6720,-94.2108,-102.4539,86.1768
-148.4375,-139.3949,-60.8489,-74.9987,-76.3110,0.6480,-173.7450,0.1124,54.8018,82.9815,232.8039,-17.9689,146.7532,-33.9896,-15.0720,-17.6270,248.8171,-102.2669,-132.0671,34.8752,84.4218
-140.6250,-20.7642,22.8325,-135.2112,-65.4785,-135.3612,-233.3263,49.9173,-42.8274,60.4327,101.4627,69.4591,234.8180,-43.7109,35.8664,-3.6872,226.2560,-127.2957,-154.8107,-94.7104,61.7735
-132.8125,7.1926,-20.1645,-36.0761,-74.2948,-73.0080,-168.5544,-217.9272,-200.0833,198.2304,93.4726,-12.7746,151.2222,-30.7572,63.1586,134.5879,217.0637,-79.8884,-127.1994,38.0654,89.4785
-125.0000,-130.5130,-122.8285,-143.6004,-144.7594,-71.3150,-274.4257,225.5870,132.0108,165.3748,24.8256,-45.6468,117.9777,-7.2947,176.8242,101.2102,258.2362,-178.1111,-160.2370,39.1696,56.5366
-117.1875,5.5199,13.2410,-78.3679,-44.4752,-189.8655,-170.5403,-113.1896,-280.1708,160.2781,-126.0547,95.2238,148.4734,-12.9153,207.2479,131.5882,215.1625,-91.7667,-93.5156,-1.9708,87.3522
-109.3750,-69.4747,8.2854,-11.1487,-86.2001,-50.3986,-212.6651,-9.9298,-30.3055,118.1660,-55.9163,17.0897,142.9702,-21.9638,127.6785,14.9515,137.0836,-78.0252,-134.7979,132.8894,82.1703
-101.5625,6.3368,155.1190,-79.1233,-12.1154,-156.1452,-241.9931,106.0923,-24.6786,14.8498,-157.9754,97.7702,187.2754,-23.8975,171.9313,-14.8807,-3.1853,-67.1160,-128.2731,-38.4682,52.7942
-93.7500,59.6241,208.4272,83.4008,74.4714,-104.3698,-150.8248,-245.3952,-303.5312,69.0335,-175.5175,41.9375,130.0734,-41.8929,151.6824,38.7800,14.0594,56.1870,-77.2493,13.6824,69.9200
-85.9375,-56.7563,92.0801,0.2567,-8.5907,31.7531,-233.3083,111.4911,89.9811,-86.4423,-146.7022,32.4637,158.2283,-37.1229,142.7960,-153.2141,79.6543,-29.9249,-122.8782,2.1639,24.3960
-78.1250,131.9644,210.8316,84.2186,143.4490,-32.0178,-146.6823,-244.5679,-303.4413,-109.8119,-169.7724,156.0869,170.4787,-47.3291,155.0182,-141.1048,-18.6543,87.3076,-75.3984,-127.2544,36.9763
-70.3125,-3.4435,110.4484,162.0714,112.3760,119.1258,-141.1588,-240.6938,-153.9164,-68.2905,-15.9206,50.5997,28.6249,-13.7919,86.1568,-100.1112,-13.0546,109.7497,-35.0254,-16.7724,42.4532
-62.5000,2.1910,115.0975,55.9715,115.3615,49.3092,-135.5784,20.2074,-75.3694,-171.7108,-81.0227,94.1771,107.8229,-6.9201,92.3672,-131.0656,-6.3909,62.2981,-29.5961,-188.2598,11.9824
-54.6875,97.0998,176.0144,190.1735,173.6413,34.8105,-0.6955,-396.6055,-419.5109,-183.8188,-128.8059,119.0384,95.3152,-15.8892,79.8803,-70.7255,18.5828,165.4822,65.1321,-164.4327,36.8144
-46.8750,-69.4061,-25.4898,125.9581,111.5119,153.9147,-26.2257,-19.7823,29.9786,-246.3301,-78.9747,19.5029,69.4137,4.2812,54.0111,-168.7946,-43.8452,101.2992,74.4517,-87.0171,11.2449
-39.0625,14.1995,128.1071,101.8491,158.4888,-17.8858,25.3456,-154.9040,-288.4704,-194.7338,-247.0380,108.0738,83.6064,6.7822,179.2477,-45.7576,-66.1676,115.9989,122.8697,-214.5052,-11.2186
-31.2500,-31.2659,117.6414,126.6825,75.4087,116.2804,87.8502,-204.0489,-190.9248,-168.1938,-183.1372,-13.4168,-1.2590,-6.8625,131.4298,-56.7785,34.4668,105.8131,112.2296,-51.0419,-21.7327
-23.4375,-2.4367,111.4635,9.8135,32.6409,72.7449,9.6464,121.0989,59.9004,-246.3555,-185.9340,56.4009,31.1838,5.7163,89.9272,-135.4911,29.4083,26.5494,34.8930,-128.2986,-62.9467
-15.6250,135.6190,143.4977,114.2077,134.1248,-7.5186,41.6914,-252.5218,-350.0249,-141.2617,-189.4754,88.4574,25.8691,4.7628,47.6780,7.0466,-11.3933,119.0991,66.8095,-97.2951,-30.9071
-7.8125,-16.5037,-8.6382,64.4450,50.4596,89.0779,-5.4277,65.7428,76.9411,-42.3210,-125.1703,-33.6367,-22.5920,27.9625,-36.7112,-4.5738,-59.3467,46.0635,-14.4295,30.5492,-42.0186
-4000.0000,79.4628,68.9871,39.0287,88.6534,41.3216,-12.9153,8.6515,-58.0957,-28.4981,-250.4504,47.6028,19.8376,18.9230,19.0176,-24.1226,-66.7590,54.3039,-17.2704,-78.4502,-55.6358
-3992.1875,27.8983,-54.0305,165.9142,2.2089,131.1990,76.0146,-196.0062,-117.8997,23.0630,-202.1128,-46.6288,-38.0086,-6.3615,34.4344,-46.3892,21.3083,85.0258,69.7406,77.6594,-4.3099
-3984.3750,-56.8860,-103.2768,40.5820,-47.4411,116.8784,-12.2564,193.1864,161.1456,-66.5809,-220.9536,-24.0724,56.9342,15.8653,93.6400,-98.8568,-31.8239,-14.1315,-15.4497,26.5821,-20.1861
-3976.5625,105.6942,23.8179,133.6024,80.2658,25.8955,42.8349,-191.2964,-298.4929,25.1221,-280.4390,31.8463,76.2175,-3.1946,75.1893,-6.9659,-87.6077,99.8952,39.7177,-25.1446,34.2913
-3968.7500,-84.9322,-97.3101,116.4193,-5.2340,155.7211,24.7328,11.0359,12.6987,80.6161,-118.0924,-96.4442,21.2735,-3.9462,-15.4737,-62.2840,-33.5791,47.5674,-11.3129,98.9536,52.5706
-3960.9375,3.0388,-9.8494,23.8218,-57.1368,-10.8674,-32.7732,100.9886,-117.4929,59.7062,-215.1225,31.8606,111.9148,-6.3357,1.4753,-46.0058,19.0519,-16.4448,-30.7446,-26.3480,68.4451
-3953.1250,27.2048,-21.2021,119.4382,-68.8409,47.7430,24.9341,-96.8873,-281.5086,191.0138,-160.9222,-20.6495,58.7427,8.1868,-123.3816,48.4819,2.8835,39.3924,27.0360,101.5679,125.5246
-3945.3125,-75.9573,-124.8802,-24.2592,-170.8621,89.0598,-81.6646,273.9859,125.2337,120.0159,-87.9859,-16.4830,25.2650,48.9866,-119.5525,14.6678,-31.5763,-83.9659,-41.4901,67.2054,91.3054
-3937.5000,122.3807,2.9413,71.5400,-78.3831,-37.1419,-24.7665,-72.6544,-295.5478,103.5156,-217.5285,79.1858,9.2884,14.5831,10.7730,35.3587,-47.5201,18.4077,50.4876,-18.6544,111.5906
-3929.6875,12.5576,-72.4060,103.1900,-153.0652,141.5233,-31.0250,-5.4424,-9.4518,59.8637,-153.1744,-37.3158,-68.8557,14.7840,4.9378,-44.1023,-18.6045,9.2223,79.3082,150.3655,104.7311
-3921.8750,25.8742,10.3863,43.9762,-104.6037,9.3297,-17.1465,118.9507,-33.1759,-0.6498,-216.6400,14.3364,-19.8583,13.9410,56.2545,-31.4215,-115.5393,3.2662,91.2731,20.5336,81.0247
-3914.0625,47.2488,31.2145,174.8217,-12.0877,30.1766,76.7883,-227.6487,-306.8741,166.8869,-237.0275,-38.9654,-71.8232,6.0176,-34.3884,62.3168,-133.4165,114.7691,181.3011,75.7690,100.3796
-3906.2500,-67.7528,-14.3371,19.3027,-127.9365,131.6832,-6.6322,204.4406,87.1355,120.0582,-212.7279,-84.6372,-9.1546,22.7140,-6.3912,-21.3067,-143.6199,-15.6605,99.9770,98.6794,53.3880
-3898.4375,81.1936,65.0524,64.7293,-82.8369,-6.8830,-36.0976,-45.5330,-272.9214,127.1708,-208.4603,34.6428,72.4621,-0.1741,75.5601,23.0300,-136.8579,12.1951,72.6071,-0.4583,60.3531
-3890.6250,-3.3176,-56.0300,84.7072,-168.1983,123.1069,-17.0096,11.0366,-107.4151,181.8425,63.4019,-92.5467,-19.3867,7.4083,-52.9517,41.9218,-155.5474,-19.6193,-14.2064,193.9847,78.8772
-3882.8125,-52.1928,-105.4795,-3.6852,-181.9197,35.7352,-105.2859,290.2979,59.7840,130.1483,81.9546,2.9113,-34.5873,52.0087,-30.8172,63.4552,-134.5903,-92.7484,-99.3729,73.0880,63.0546
-3875.0000,61.1848,-27.6861,76.1770,-138.3880,-68.4002,-63.3006,-107.2321,-265.7951,207.7023,157.8014,8.6114,-101.5488,9.1222,-25.4420,142.2441,-56.3682,-24.2742,-57.2754,114.4545,104.4920
-3867.1875,-35.5141,-125.9719,-25.0245,-234.9251,-22.5751,-164.3684,195.2172,182.6345,106.2095,420.6606,-91.7653,-166.5781,-27.6378,-89.1291,2.9741,23.8241,-115.1552,-119.2352,226.7964,75.8827
-3859.3750,39.6843,-50.3700,-20.3381,-193.5643,-200.8765,-160.5330,52.5712,-35.0403,109.6188,458.4510,-14.2435,-88.7113,-57.2871,-84.9069,43.6133,63.9240,-101.9410,-115.2966,89.0365,79.1793
-3851.5625,-68.4836,-193.1401,11.9990,-266.5583,-94.5339,-166.0429,-26.4460,69.9399,213.6855,523.9367,-91.0913,-131.2084,-30.9196,-126.0355,111.9094,168.6869,-130.3888,-119.7043,260.9602,110.1373
-3843.7500,-93.1299,-218.3905,-159.1370,-291.0152,-156.6476,-229.0138,280.1275,301.5223,114.2826,458.0229,-7.4015,-83.1579,-1.2160,-42.6114,85.7468,178.0212,-232.7460,-180.5624,128.4489,83.6490
-3835.9375,66.5723,-60.3013,-67.9177,-132.1228,-248.4285,-100.6250,-179.9804,-122.5732,94.2349,435.4928,47.6273,-65.7698,-47.9770,12.1594,102.9465,121.7285,-100.8951,-92.0583,75.2970,100.5200
-3828.1250,-75.3035,-132.7951,-104.2593,-201.7965,-101.7535,-137.7882,113.3879,243.8276,19.6464,616.4669,-98.9211,-66.9521,-65.7691,12.3686,-8.3991,83.8977,-150.8242,-129.1071,177.6306,62.8503
-3820.3125,-39.1342,-97.2560,-103.5722,-167.4317,-210.0524,-64.9057,41.8266,60.2877,57.1034,577.5204,-24.4180,-30.0838,-53.1501,50.6333,66.3038,10.1305,-141.8625,-96.1036,36.0182,26.2378
-3812.5000,-92.9756,-151.7361,-12.8817,-150.0695,-84.3546,61.9818,-161.7632,1.7397,109.5656,701.6255,-117.9352,-123.2245,-70.7384,-44.1182,45.0149,99.3828,-80.2472,-45.0887,156.4339,41.6383
-3804.6875,-158.3963,-252.7885,-117.7643,-249.2782,-41.2093,-6.6863,174.1432,337.7009,-70.5316,740.2382,-76.0221,-82.9272,-57.1572,-1.4274,-97.8342,103.0983,-176.8689,-40.6189,89.3176,9.4952
-3796.8750,-15.9171,-110.9489,-81.7476,-178.5861,-115.1827,101.5511,-157.0783,-105.4643,1.2772,662.7896,-40.2097,-47.7384,-84.1387,-2.8409,-25.7667,64.7151,-99.5151,64.7591,19.1079,44.2621
-3789.0625,-156.9644,-147.6433,-118.2396,-212.4161,-5.6479,27.2825,25.2146,260.9101,-0.4077,805.9117,-149.9215,-85.0657,-67.3925,-77.7744,-27.1900,99.8449,-139.3357,-6.3621,122.4311,42.5393
-3781.2500,-103.6287,-93.9621,-171.3493,-124.8622,-132.7295,9.4104,44.9289,131.7121,-18.7067,675.4853,-21.2393,-29.9983,-55.9050,15.6942,-8.2128,81.3987,-139.6132,-24.0838,-71.8398,24.2219
-3773.4375,-62.3037,-88.3062,-58.4549,-47.3185,-91.8211,122.5495,-318.3910,-12.4981,21.0025,676.1177,-90.5720,-98.9412,-91.1294,56.1598,-5.2322,83.9757,-36.5015,51.2080,73.9130,63.9167
-3765.6250,-205.7109,-93.3857,-170.2822,-86.5025,-58.6094,45.9780,45.6377,388.6552,-56.9899,633.1118,-94.6261,-103.5926,-63.0760,52.9203,-82.9582,5.8663,-107.7860,45.7923,32.9948,22.9177
-3757.8125,-50.7734,61.8764,-83.7687,68.6551,-190.0711,169.7623,-271.0035,-76.8623,30.3750,386.5034,-43.3311,-16.8936,-72.5704,30.0264,41.6797,-17.8824,18.3881,165.7314,-128.5692,36.2801
-3750.0000,-126.7112,-14.7396,-89.1121,28.9452,-12.3763,163.6937,-165.4929,137.8026,23.8926,415.1158,-157.9115,-60.0644,-75.3405,-86.7346,-38.5310,49.5444,12.2858,194.8240,5.0533,29.8027
-3742.1875,-81.5696,64.7213,-151.3763,109.3227,-75.5966,136.7159,-8.8474,73.6021,-77.5010,238.8783,-38.4002,23.8623,-50.0452,-39.3956,-65.6425,-14.9053,15.2570,203.0141,-162.2157,2.4297
-3734.3750,-21.5864,89.0178,20.2165,169.5422,-50.9778,197.5992,-351.3863,-158.7709,-17.0274,223.5382,-51.0502,-26.3663,-34.2564,-89.2134,32.1080,-101.4957,130.4953,297.0601,-69.6137,25.9198
-3726.5625,-134.1884,-59.2693,-58.7612,128.1843,18.0916,154.9241,10.5677,275.3686,-243.0982,288.7074,-56.2772,-32.1501,23.7687,-94.5963,-10.6835,-108.6232,56.6892,254.5468,-6.5265,-17.1309
-3718.7500,4.8520,44.0843,48.8920,232.4617,-95.2178,224.9001,-248.8376,-58.8510,-467.5192,173.5690,88.1398,-35.2870,20.8183,86.6849,-13.8071,-112.0780,149.0872,287.6832,-115.7815,-20.5205
-3710.9375,-61.1253,12.4073,89.5427,200.7140,92.4720,264.8744,-245.2555,90.9484,-574.9311,248.5017,-18.4675,-106.4414,17.1452,52.9620,-84.9231,-35.5049,162.6827,254.8241,28.0018,-17.8978
-3703.1250,-52.7297,55.1057,-10.4342,174.3428,28.5436,164.2373,20.7707,210.1966,-602.9472,181.8965,27.3149,13.8051,32.3328,62.6335,-75.6406,-63.5167,88.9168,157.3604,-105.8001,-45.8641
-3695.3125,54.7581,91.8912,62.6847,248.0633,-7.3064,200.7089,-309.1360,-157.4795,-492.8472,105.4468,28.1875,50.1412,32.6216,26.3922,70.7603,9.5910,158.1241,194.0036,-104.4828,-9.7150
-3687.5000,-103.3376,3.0962,8.2348,194.2075,47.2960,107.6209,39.4410,264.3525,-549.2993,84.5193,-27.5142,-6.0853,45.1972,7.5849,-21.3885,63.1694,95.9763,140.0973,-17.6809,-29.1070
-3679.6875,72.7065,142.4402,43.9210,265.4906,-99.9754,143.6856,-144.8359,-30.6606,-550.6103,-65.2078,81.9304,-7.1659,14.7246,79.9400,-22.3819,61.9119,152.3031,139.3459,-159.7267,-30.3391
-3671.8750,-28.3243,76.7054,120.5588,199.7134,50.7026,145.7115,-214.1900,8.2854,-401.9601,46.0854,-62.7017,-79.3154,29.0207,-64.7653,53.5882,64.6227,160.9014,107.5539,20.2097,8.3930
-3664.0625,-145.2397,30.0931,-37.6811,119.0657,-34.4797,59.8806,178.6500,253.4426,-340.1625,32.6009,-74.2011,-17.3242,28.0761,-2.3374,41.7161,52.4997,34.0641,25.9112,-62.6886,-3.7165
-3656.2500,-51.2099,122.4223,59.0245,142.3587,-85.7338,119.0050,-202.5971,-164.4700,-208.4133,-20.8802,-88.7520,4.6082,-9.1671,57.0319,136.8100,110.3511,102.5804,118.2332,-75.6254,18.1364
-3648.4375,-182.9091,-44.9808,-3.9839,45.9295,109.3153,92.4329,64.4746,212.9694,-272.3679,135.0097,-187.0254,-96.1738,-19.8628,30.6867,-36.8052,231.5250,36.0075,127.8608,73.7697,-8.7001
-3640.6250,-140.9795,-73.7510,4.6402,89.1430,43.9949,137.5109,0.2039,0.0726,-227.6721,67.6098,-106.6550,-125.3080,-19.0160,111.9930,-28.7674,238.3527,51.4998,169.1480,-25.1790,-37.8791
-3632.8125,-111.5202,-114.9944,106.8170,47.8966,184.2215,166.1516,-154.5435,-82.2753,-90.4054,58.8286,-150.7555,-168.9086,25.1411,30.8325,72.8323,156.7348,85.8538,162.9960,108.4553,-9.4960
-3625.0000,-158.4386,-92.6146,-50.3840,-33.7245,174.0954,44.4323,202.4026,201.0919,-174.4982,-27.2413,-14.2145,-144.8597,70.3142,93.3130,-10.9212,108.7754,-36.1416,80.4902,25.7614,-57.4580
-3617.1875,35.5946,-4.2859,40.3554,55.5935,7.8886,98.6677,-183.7324,-258.6116,-84.6434,-122.3124,76.2750,-163.8537,30.7186,73.7495,42.2790,199.7850,61.5789,202.9371,-26.9689,-40.4623
-3609.3750,-72.9996,-149.5796,-34.5139,-53.7135,153.0865,59.3006,71.5442,32.1340,-13.3866,-14.9035,0.1366,-239.4592,53.2472,-75.4346,2.8719,307.2182,-29.2170,128.7835,109.7410,-80.0581
-3601.5625,8.5345,-104.7397,-59.2595,-42.8901,17.4142,-2.9247,156.9965,-102.9340,-2.9758,-115.2815,86.1383,-192.9161,71.6174,9.5243,88.6213,244.8194,-53.0361,68.7741,-56.3905,-105.4973
-3593.7500,34.4075,-114.5703,76.3413,19.2667,117.0785,59.2105,-111.2310,-224.6597,58.8003,-91.2476,0.4716,-277.0365,70.8747,-2.1704,150.7341,232.7916,39.6869,59.1229,74.8581,-80.5730
-3585.9375,-80.8126,-229.4846,-43.1337,-25.6605,144.6887,-60.7078,284.5329,206.6324,-24.4762,7.8111,-9.2698,-287.2149,80.1040,-47.9211,29.7966,222.7481,-50.4393,-21.5836,100.0843,-90.6914
-3578.1250,60.9604,-159.4075,-7.6198,81.3995,-3.7335,-25.6229,-47.7290,-126.0905,120.2554,5.9278,25.9906,-252.3944,35.7336,-12.6711,101.8731,184.7301,17.7853,13.7074,64.3148,-55.7959
-3570.3125,-144.3949,-188.4527,-75.2125,-52.6637,75.7395,-56.6458,105.9070,175.1223,235.9038,195.0184,-114.8737,-246.6819,26.0666,-80.5352,107.8606,190.6304,-77.0783,-50.1037,211.4795,-49.9858
-3562.5000,-125.8772,-101.6185,-202.9334,-69.8527,-51.9061,-111.7788,272.4812,193.2727,144.4552,65.0609,14.1509,-156.0597,50.5135,11.5039,126.7568,172.4428,-153.5750,-103.0192,52.5536,-68.2671
-3554.6875,-40.7709,-52.2004,-6.0590,15.5478,-38.9660,-62.3061,-119.3797,-87.9975,156.6220,76.7629,-9.2388,-142.8427,20.0252,-85.8569,139.2704,184.8792,-17.2620,-53.3239,138.2523,-18.9358
-3546.8750,-119.3562,-165.4638,-87.8589,-61.7350,27.3287,-180.4859,278.1510,383.1502,38.1421,141.8889,-54.3010,-151.2849,32.5265,-166.8761,21.1313,176.6812,-92.0204,-97.2831,200.3321,-27.2461
-3539.0625,11.3500,-71.4362,-26.3761,-36.7330,-132.1072,-156.3606,8.9725,75.5916,134.9651,128.3609,43.9374,-127.4210,10.2662,-142.5960,81.3086,126.7905,-54.4124,-107.9362,154.7203,-3.2446
-3531.2500,-44.7186,-199.1765,-49.6507,-128.5056,-8.2986,-106.9784,60.0286,273.3053,222.0508,252.1495,-126.5946,-187.3144,-16.9243,-165.0764,58.7466,140.1623,-98.5973,-163.3312,344.3944,10.0203
-3523.4375,-82.0638,-201.1936,-124.2039,-94.5470,-46.7587,-144.8485,278.8680,419.8208,108.8782,175.7447,-55.3829,-116.4624,11.2053,-130.8031,19.9320,65.3027,-129.9614,-200.9771,236.8340,8.0433
-3515.6250,47.8830,-107.9191,-29.4590,0.6998,-96.9383,-13.4059,-102.0338,36.6093,167.0239,86.6989,-33.8777,-58.3119,-13.9872,-145.2345,78.4296,49.7607,-26.5826,-142.3133,225.5883,66.3812
-3507.8125,-92.1052,-177.5645,-137.6323,-103.9884,-60.0110,-158.8709,266.1915,442.5552,167.2754,123.8302,-69.2992,14.9368,-19.8397,-144.5870,-31.9691,87.3312,-137.6191,-211.5556,261.4746,66.8294
-3500.0000,6.2416,-43.8672,-146.4725,-5.3384,-214.7562,-130.9922,73.7682,102.8552,158.8804,-32.6419,31.6274,116.5470,-48.2812,-43.5898,-4.0052,115.2654,-96.0987,-183.4493,78.7066,94.6352
-3492.1875,-13.1730,-99.9423,-59.0647,-94.4541,-128.2555,-43.8551,-95.4282,116.4079,171.7457,53.1964,-27.2100,92.3987,-59.6717,-140.3592,-25.7832,202.4738,-78.5183,-133.0876,199.2164,144.7052
-3484.3750,-98.0626,-149.4879,-221.1344,-179.0456,-179.2148,-96.1735,183.9657,359.5652,45.1573,74.6460,29.4983,150.7975,-16.5477,-81.5861,-5.0172,187.2461,-200.3898,-148.1840,114.2867,129.3334
-3476.5625,34.7936,-122.2876,-156.4569,-150.9037,-262.4483,-68.7342,-154.9301,-16.5575,183.3324,138.8958,56.9580,140.9491,-42.0956,-17.0648,95.5175,177.7833,-151.8720,-85.5260,106.1183,156.7248
-3468.7500,-98.0289,-186.7616,-221.4422,-213.4419,-143.3272,-170.9513,147.5434,395.7186,117.8724,368.5540,-7.2563,2.4473,-46.8491,-82.2057,-41.5971,259.6906,-212.1448,-148.5199,184.3272,128.4769
-3460.9375,21.5342,-31.8382,-242.0486,-128.5926,-273.8293,-154.7717,90.4276,191.4035,59.8151,310.6495,81.9280,17.3533,-73.3298,-29.9400,-62.3081,202.0130,-173.9922,-134.1164,57.9361,107.6389
-3453.1250,-32.3120,-52.3232,-116.0560,-112.1546,-183.7461,-64.9830,-76.1234,134.6742,149.3807,399.3972,-48.2993,-3.1474,-94.2639,-87.0821,-46.4070,107.9508,-104.5376,-118.1073,250.1714,123.4151
-3445.3125,-160.7366,-111.3818,-284.6378,-134.2970,-169.2243,-160.7510,342.8171,481.4534,127.3994,451.6536,-71.0847,10.8067,-68.0771,-36.7826,-69.0597,49.3533,-209.4857,-176.6546,191.8746,64.6474
-3437.5000,-43.8699,-29.1445,-235.9279,-53.1506,-267.4284,-112.2137,-12.9743,51.5059,211.7298,389.2527,-23.5694,-14.9297,-81.8013,85.8247,52.6075,61.0747,-144.0467,-93.8927,168.8773,76.1900
-3429.6875,-190.0830,-106.9820,-242.2790,-94.0826,-126.6769,-118.7237,165.1919,413.5481,132.0189,419.8637,-139.1292,-21.7209,-76.4282,42.3834,-27.7740,54.7655,-164.4451,-100.1818,268.8561,69.6936
-3421.8750,-134.6596,-17.1741,-258.0012,-39.3847,-252.2948,-134.5911,224.0248,288.2657,78.9526,257.1714,-46.0393,146.1464,-68.3774,26.5951,-6.5029,2.1152,-154.3806,-81.8245,112.4819,53.8557
-3414.0625,-91.3853,-8.5216,-101.8728,-64.8503,-133.0762,-53.6021,-24.3397,76.8177,197.7485,266.3811,-109.1009,118.8631,-69.2288,-110.3611,39.6310,48.3335,-80.0696,-37.6110,191.9751,62.8822
-3406.2500,-178.5883,-168.3338,-229.2186,-117.7930,-77.3075,-70.0706,364.8811,428.9792,107.0889,286.1893,-126.6234,101.1312,-47.6473,-91.7797,-50.6825,69.1178,-171.5289,-55.8547,175.0329,9.4670
-3398.4375,-77.1453,-30.4949,-121.9271,20.9027,-151.9194,1.1153,-5.2747,-15.2276,141.0856,173.6715,-19.4910,172.0550,-61.8375,16.4667,-16.3280,-44.4320,-61.9945,12.5595,31.7367,6.7141
-3390.6250,-199.9256,-84.8738,-30.8410,-32.6213,49.2720,19.1048,86.3609,187.3883,121.8993,265.0107,-184.5771,115.7682,-79.7004,-39.4994,-109.1638,-26.1672,-36.1441,28.7770,154.2682,-12.2278
-3382.8125,-189.4276,-38.9580,-91.4785,-20.8639,-11.2550,-4.6044,247.3238,164.3358,98.0159,205.6913,-99.3648,91.7877,-71.5926,10.8269,-132.6966,60.4054,-67.9923,-29.7089,-9.9014,-35.8651
-3375.0000,-84.7810,-4.8916,54.0355,-20.9658,23.3590,102.8467,-121.6083,-167.6002,206.3024,129.5557,-64.9984,162.9574,-80.1499,-28.6989,-98.0594,59.1405,1.6421,-30.0353,25.0822,-1.3427
-3367.1875,-88.7605,-44.4419,-24.0672,-95.6909,56.3843,-11.3061,205.8847,195.9118,90.9785,52.8651,-69.2420,342.5285,-77.9007,-32.8259,-211.0248,-55.7075,-79.1340,-139.9665,21.4765,-5.4140
-3359.3750,65.1144,73.8569,23.6678,-11.5774,-152.7630,-0.6087,-76.7895,-196.7444,102.5061,-46.9549,-21.6255,426.9590,-100.4797,51.9043,-54.1309,-44.6962,-20.1622,-126.0370,-105.2869,42.3752
-3351.5625,-75.6810,-67.5128,58.7565,-82.1319,28.4446,-75.5489,-41.1390,-51.0453,210.3972,172.6218,-206.6712,314.7384,-87.2552,-96.0308,18.1226,138.6782,-36.2127,-126.7463,70.3213,77.5252
-3343.7500,-122.6472,-11.0403,-100.3280,-94.8587,-21.5045,-124.6386,240.3979,83.5386,160.1396,197.0820,-108.8676,301.3700,-63.0930,-109.1201,-31.7726,88.9108,-114.6575,-174.6060,-48.2222,64.5275
-3335.9375,32.9400,39.9916,23.1390,-43.0411,-41.9165,-37.1605,-148.5590,-268.3651,248.4466,139.1140,-57.5168,241.5554,-85.2541,-57.6582,-16.1034,29.7028,-17.3439,-122.9036,3.7833,116.0872
-3328.1250,-97.3989,-92.8892,-39.3042,-103.1516,77.7778,-136.5805,156.6050,146.8774,184.8558,186.2890,-121.0804,214.8366,-70.4037,-48.0993,-115.3403,40.5992,-83.3810,-149.1042,47.9127,89.7536
-3320.3125,-8.8939,-2.9163,-18.9098,-14.4202,-83.7008,-43.1468,-6.3854,-199.0371,169.1148,61.3340,-27.7834,272.9845,-86.4250,83.3161,-57.7199,62.3512,-41.9338,-129.4567,-107.1201,74.2741
-3312.5000,-57.5976,-88.1496,76.2884,-27.9072,46.6213,15.0907,-93.6040,-177.1590,227.1892,120.2090,-78.6948,182.9379,-54.5927,-42.4733,-36.2847,46.9159,4.0950,-72.0107,54.6677,95.6025
-3304.6875,-85.2246,-151.2926,-61.4365,-55.3162,19.0405,-12.5832,246.3114,89.8617,126.3597,56.2170,-34.5060,192.0051,12.5310,-70.1593,9.2459,-53.4106,-76.0948,-99.4775,-7.4426,68.0348
-3296.8750,18.2024,-83.3750,81.8897,13.3227,-20.5116,94.8016,-123.7662,-280.1063,195.5963,-129.7007,-37.2622,152.1255,-5.5180,-36.7832,79.8381,-55.6859,38.8026,3.1122,26.4954,101.5254
-3289.0625,-148.1369,-180.2176,55.4573,-82.8078,100.1936,31.4428,180.4182,135.2110,169.0927,-9.3325,-136.7810,14.4925,-0.8575,-99.1747,-20.3149,27.2947,-17.1880,-23.0479,141.7008,75.2716
-3281.2500,-104.8263,-66.3998,28.6600,-74.2946,-0.4729,41.7341,118.2583,-38.8159,106.2385,-35.2977,-54.6413,61.5194,4.2905,-16.9204,27.1884,-72.0717,-21.6044,21.4399,9.5375,48.6706
-3273.4375,-112.4190,-74.4862,167.9708,-46.6877,138.9535,71.1368,-108.8472,-81.7619,98.5025,105.8632,-171.4010,16.6402,-16.5494,-24.5673,19.8010,-152.3286,64.7109,84.0363,108.4874,41.1793
-3265.6250,-223.1375,-116.6845,54.1627,-52.2060,173.2768,-42.5610,218.9824,246.2419,-15.3313,176.9601,-175.2679,49.6621,-4.6411,9.6886,-56.6893,-119.6807,-10.7735,42.5294,32.3422,-35.4106
-3257.8125,-96.9976,-130.0251,150.2017,5.1159,84.4318,89.6028,-162.3727,-170.9400,116.7029,52.9225,-117.2719,-38.4605,-14.5534,67.8016,39.6791,-23.1781,67.4841,135.8736,-14.9594,-13.1453
-3250.0000,-162.5192,-267.0280,117.5898,-131.2383,236.9518,94.1186,62.6241,164.2478,158.0993,168.2625,-184.9303,-144.2296,23.7637,-37.7458,7.4000,-92.3116,1.9087,104.5630,130.1023,-8.5231
-3242.1875,-93.7934,-127.7807,6.2052,-97.3601,51.7032,129.8876,134.8855,89.6944,82.7473,57.8643,-77.3338,-72.7364,11.5628,70.9710,6.3783,-165.1922,-26.1775,103.5059,-46.5983,-9.6470
-3234.3750,-39.6178,-75.0771,97.2732,-79.0399,69.8955,185.1236,-213.4453,-111.4420,100.8679,76.9280,-96.2881,-54.7865,-18.3807,89.1386,24.8274,-110.6265,33.3498,157.9082,43.1588,8.6883
-3226.5625,-162.4050,-162.3300,-27.6234,-165.6905,91.1390,59.4012,139.3071,278.5175,13.0400,99.0540,-111.1909,-32.7663,-1.3500,148.3473,-26.6782,-15.0170,-82.8206,106.3489,-8.0253,-42.9232
-3218.7500,-15.1801,-51.5603,51.4757,-88.3481,-12.6412,139.6807,-147.9672,-155.5607,55.2195,-40.8301,5.9261,-26.7309,18.2822,117.5652,89.8290,-45.4004,-5.9858,147.7880,-107.2247,-36.5255
-3210.9375,-49.0651,-155.8941,89.4779,-158.1204,135.4852,177.8653,-36.3575,66.2685,20.3095,-38.7919,-67.0646,-25.8005,46.0435,8.6799,54.2407,-117.8738,-16.1710,114.1320,35.4927,-35.2195
-3203.1250,63.1424,-44.1286,-12.4331,-151.8049,32.7020,112.1422,82.3775,38.2188,-82.5070,-212.6416,88.0593,92.2393,59.3426,126.8983,25.7512,-182.2546,-67.0164,49.5722,-133.7010,-63.8107
-3195.3125,132.8622,25.1524,95.1665,-45.9930,31.4137,183.9313,-286.4395,-293.3719,-10.8140,-213.9881,48.6950,52.7931,28.9705,161.6091,97.7726,-111.1389,37.0320,84.5166,-98.3982,-28.8946
-3187.5000,-62.2292,40.6324,-34.0439,-136.0012,85.3381,53.9156,135.9630,92.2790,-103.9212,-123.1110,29.5253,70.5512,57.5934,105.5109,41.9832,-55.8135,-79.5057,-39.3445,-81.8940,-47.7775
-3179.6875,95.4392,197.8790,-17.5079,-48.2621,-45.0071,33.6511,-140.9055,-294.3462,-87.2766,-177.4827,157.1224,161.0701,53.0891,122.1751,132.9546,-75.7343,-35.3898,-57.4586,-239.6590,-30.9071
-3171.8750,41.9069,38.9281,36.8323,-101.7254,82.4551,15.1994,-123.0033,-165.1752,4.1811,-123.0393,63.5129,67.3838,55.8876,65.6401,113.7323,16.1402,-38.9359,-75.7687,-81.6144,-13.2302
-3164.0625,28.9646,60.5813,-87.2444,-114.6004,-3.4926,-34.6494,158.5251,-31.3759,-45.7621,-281.9959,124.5143,91.3015,58.2291,236.7118,64.1062,3.6151,-104.4883,-88.4808,-233.9815,-25.9531
-3156.2500,155.7817,222.0047,44.4320,12.2717,-19.6994,59.2670,-261.2470,-413.8758,12.0598,-370.2112,182.2777,74.9780,41.3068,221.5370,85.2460,-86.1555,33.6763,3.5708,-212.6099,-4.9214
-3148.4375,80.1831,181.0268,3.7042,-28.2739,123.7081,-54.2164,65.6037,-12.7441,-65.5185,-262.8171,178.6378,34.2516,67.1255,69.9582,-65.0215,-198.3258,-6.7205,-71.7788,-147.6280,-45.2893
-3140.6250,201.0957,337.5674,20.4697,58.6827,-42.3957,-36.1868,-100.0527,-288.1304,-84.6042,-390.9369,306.5156,52.0425,79.1389,50.8844,26.2081,-181.0148,44.1563,-20.6212,-271.1651,-64.1559
-3132.8125,148.7193,283.8188,111.9470,40.3412,85.1997,-18.4374,-191.0487,-269.8330,-29.9794,-335.3581,177.0943,-3.4657,85.9879,-41.4935,81.1371,-127.0126,83.1197,-2.7535,-112.9890,-46.3189
-3125.0000,106.5388,241.2773,-40.3911,34.1903,5.9905,-134.4876,134.1890,18.6982,-109.1598,-266.5779,207.8780,27.2305,103.8002,26.3325,76.2612,-204.8163,-14.4817,-114.6910,-189.6230,-88.2864
-3117.1875,204.1730,339.5611,97.0783,96.8448,-76.4316,-69.7226,-241.8219,-356.0198,-44.5271,-238.0065,235.4776,54.7340,73.6259,16.9692,141.1947,-249.8232,79.1662,-86.8271,-195.4718,-60.4519
-3109.3750,56.1988,225.2480,14.9506,53.8857,25.5673,-151.5548,43.5715,76.6852,-52.4900,-99.0224,117.4693,-26.3561,55.5388,8.9964,22.5249,-220.4348,18.5794,-130.5702,-62.9145,-68.2165
-3101.5625,189.2346,252.9560,-28.1824,81.9236,-91.4480,-121.3927,36.9647,-113.6229,-22.4496,-214.0547,220.4834,2.5710,32.3476,2.0290,-20.1456,-191.0522,20.2418,-101.3175,-209.3821,-74.9813
-3093.7500,257.9370,285.3308,77.3515,114.6153,15.1864,-51.5725,-186.0408,-226.3195,10.2540,-180.4527,180.1572,-74.8440,30.3517,-112.2885,-24.1608,-231.0120,110.7619,-33.4129,-107.2077,-42.0904
-3085.9375,185.5869,319.6607,3.8284,78.2452,14.7779,-124.8025,107.9315,104.9634,-174.1033,-252.9142,216.7900,-37.2979,42.1441,-37.6530,-134.2374,-267.0270,54.7343,-69.5610,-178.0966,-78.2486
