Time,Fp1,Fp2,F3,F4,C3,C4,P3,P4,O1,O2,F7,F8,T7,T8,P7,P8,Fz,Cz,Pz,ref
-4000.0000,87.6916,21.0937,20.4819,41.7717,55.0130,52.5830,-498.6493,16.8263,-49.4978,-23.6806,104.2928,-44.0986,22.1238,19.0230,-0.2272,-4.1037,-57.6902,87.6277,52.8535,5.5635
-3992.1875,52.0624,-50.6193,126.4488,5.1840,52.3526,49.9884,-474.9003,-24.3737,-54.0660,8.4962,-8.4300,-84.9966,-50.7761,125.0474,-113.9122,28.3760,256.0511,15.4488,16.0082,38.1181
-3984.3750,-31.2602,-100.0225,72.7137,-9.0995,34.9784,-4.3075,-317.8856,31.7229,-73.3440,26.9735,-24.8500,6.4201,-44.2361,71.3787,-95.3037,121.1642,64.1006,72.5743,1.4533,93.9802
-3976.5625,8.3791,79.5397,42.9370,-4.4230,42.5587,-33.6557,-246.9302,1.7652,-31.6862,33.3888,19.6854,86.7969,-41.7695,41.6618,-89.7446,90.8985,32.0880,-28.3516,-65.1555,26.7794
-3968.7500,42.5740,77.6618,73.7243,-7.1886,-73.3170,-75.4552,-261.4299,-4.6572,-1.4791,63.3437,-21.2425,42.7275,-114.8851,109.5059,-169.6567,121.1645,274.6794,-170.7383,-67.2201,94.1285
-3960.9375,42.6253,6.6370,74.3615,27.8971,-109.3357,-75.4047,-123.0841,69.7685,32.5751,100.1509,53.6866,42.5215,-44.5292,-0.8032,-59.7193,157.2791,-44.9168,-136.2703,-33.4396,57.3214
-3953.1250,-34.7023,-1.7808,65.6028,19.5880,-153.7509,-119.7539,5.8607,60.7925,170.2236,127.5574,-26.7889,-4.0901,-38.0489,-46.5153,40.8106,74.9964,156.1095,-214.2198,-42.0674,48.1045
-3945.3125,-69.9337,31.9097,-49.0587,-17.6258,-157.0852,-122.0061,-7.1036,19.9237,164.9639,123.0718,-29.1726,102.4093,-50.2369,-13.1141,36.4340,-3.1785,83.2453,-75.0746,-8.5946,80.9942
-3937.5000,10.7459,76.5236,-32.8257,27.0594,-31.5221,-33.3642,72.8468,-1.0445,104.5975,63.4802,-12.6522,79.8369,-26.8822,-33.8138,-22.0401,-98.4560,-14.7494,4.9616,-34.2282,-51.2276
-3929.6875,-45.1597,19.5577,-19.1907,41.1441,-91.5696,53.6715,77.1988,12.3763,43.6209,76.2787,-70.7514,19.6853,-76.3455,15.8930,-120.1231,-122.3439,243.7042,55.3894,-55.4753,-38.0454
-3921.8750,-111.5769,-12.9064,-52.0613,114.7315,-50.1200,132.2049,108.0559,89.2939,-64.8575,116.5751,-29.3592,22.0512,2.7677,-89.9013,-5.7030,-44.7267,-107.3638,128.3305,-18.2209,-71.3628
-3914.0625,-73.0387,24.5801,-12.9722,151.2746,-47.7119,171.6894,211.8863,92.1538,-100.3874,81.8117,-62.0263,-48.6427,-10.8589,-13.7431,-40.3373,-79.1698,104.5404,-9.7842,-122.0233,-105.7455
-3906.2500,-153.1500,13.4158,-28.5251,141.1684,-172.9548,119.5193,114.0680,112.3508,-80.5737,138.4022,-76.3512,8.0176,-78.8090,117.7735,-94.6316,51.7288,91.8243,-20.5559,-133.4832,-11.7758
-3898.4375,-94.0529,-33.5407,-75.8755,94.2641,-109.9886,35.5426,240.4753,138.7521,-19.5678,164.1912,-12.4703,69.8881,-31.3636,-3.5187,-31.7179,150.8250,-132.7312,-102.1335,-109.7496,-59.6210
-3890.6250,-59.7528,-70.2950,-45.0217,-48.4440,-78.8312,-43.2351,299.1052,95.3519,46.6284,231.1846,-90.4019,-10.0409,-68.1888,-45.6067,-75.6255,107.1206,144.9617,-174.5263,-77.8238,7.7323
-3882.8125,-53.0528,-135.6423,-113.7821,-78.7472,-73.2895,-74.6131,295.1423,100.3551,87.2127,272.5797,-83.9374,31.4472,-51.0380,33.7144,2.8623,111.8246,-130.9619,-98.5072,-36.5047,12.4891
-3875.0000,-3.0330,-121.6775,-97.2387,-64.7442,-56.4455,-20.6888,301.5151,79.6490,101.0880,214.2598,-103.1788,-26.7603,-63.6889,123.3317,-18.3476,90.8165,20.4220,-155.1968,-129.8943,-45.4712
-3867.1875,-143.8617,-87.5573,-101.5338,-29.5917,-133.4648,-24.6199,253.0612,39.0795,59.1125,172.0828,-143.2841,5.1869,-103.0963,156.0988,-60.4168,159.9498,124.0020,-84.7520,-130.1419,23.7208
-3859.3750,-191.3930,3.8716,-2.5323,-9.1362,-34.1853,0.7398,378.9376,26.8124,-27.5548,86.2068,-116.0839,29.4469,-11.7438,34.1622,37.8212,74.3830,-103.1607,-28.0195,-109.0899,-61.7961
-3851.5625,-112.1705,83.0547,77.2264,34.0601,-65.1583,-66.1569,412.5963,-40.7108,-23.4762,-18.9149,-183.1450,35.4613,-49.1139,76.9826,6.8000,-30.4427,185.4726,-160.5575,-172.3000,-19.5649
-3843.7500,61.4956,149.6859,-38.5720,30.7023,-143.6942,-71.6129,323.7294,-83.7812,6.0464,-62.5809,-2.7627,175.9430,-24.3755,-1.7429,37.2210,0.1896,-66.4519,-163.6389,-175.0633,11.1235
-3835.9375,280.2683,227.4247,-27.2740,38.4500,-132.1239,-95.9709,363.0128,-145.7526,52.6591,-162.1489,83.7124,223.5303,-13.9550,-63.3763,10.7302,-62.0858,-25.2740,-191.6257,-239.7309,-88.1045
-3828.1250,281.9378,298.0651,7.9293,38.1011,-206.6659,-97.4299,316.2310,-219.8358,13.1673,-163.8177,9.0615,258.0204,-75.5679,7.8951,-27.8749,-64.4678,114.8644,-155.7240,-309.5120,-53.4321
-3820.3125,231.5070,387.6101,-4.9738,57.6588,-73.3085,-73.9898,367.3904,-124.0151,-112.4245,-141.5870,70.3076,207.4251,7.9818,-41.9444,31.4290,-77.9525,-220.1334,-100.9269,-256.3999,-140.8708
-3812.5000,209.3837,258.4605,43.4292,34.5165,-24.6584,-62.2574,406.9027,-112.9050,-139.7146,-94.0635,9.8357,71.1300,-6.5452,-30.4746,-31.9722,-104.1465,72.2120,-193.8521,-210.0045,-130.0198
-3804.6875,124.1507,137.2175,-13.2724,-16.7320,-7.1269,-43.6322,378.3558,-58.9008,-124.1099,-40.6386,28.2539,87.7552,-4.6261,-13.0946,-51.4736,-13.4296,-50.5422,-138.8874,-155.7208,-76.2626
-3796.8750,207.3668,149.4295,38.4747,-40.5346,44.8589,-29.5649,421.3250,-45.4452,-185.0562,-100.7663,7.1192,64.8351,-2.1410,1.7218,-74.5175,-37.2637,-40.8694,-127.4803,-143.9963,-136.0689
-3789.0625,144.8274,120.8919,78.4804,-33.0924,-61.9223,-25.2571,378.5919,-78.7515,-181.7470,-135.6405,-98.7897,67.1677,-40.2653,78.7881,-35.3248,-70.8542,176.1150,-119.8394,-102.0319,-59.6211
-3781.2500,124.7253,134.8052,19.9307,-19.2045,-46.2612,-10.5036,385.3607,-26.6063,-168.9801,-158.0631,-9.2561,155.9704,-1.3858,-16.7020,-20.6781,-55.9956,-92.4838,-70.7451,-18.6189,-81.7290
-3773.4375,112.1355,191.2222,77.8831,2.1818,-62.0966,10.7412,397.7028,-79.9717,-113.7168,-137.9961,-97.2386,139.2733,-93.6841,4.3049,-184.5353,-72.6538,173.4538,-190.1704,-32.7154,-61.3506
-3765.6250,39.0904,153.1940,-4.6197,-36.8897,-34.4013,-34.4682,269.6443,-88.7933,-159.9103,-37.3772,-68.6868,166.1427,-85.6054,69.8708,-156.8534,28.2371,62.9614,-123.0529,-37.2737,39.5839
-3757.8125,132.6975,104.8170,20.5272,-49.3153,27.9492,-46.0348,323.3002,-64.9619,-247.4550,-87.1087,-5.4881,116.6720,4.8033,94.0735,-23.5153,-21.2252,-92.9125,-136.2961,-15.1858,-9.8434
-3750.0000,101.2487,37.3871,93.6348,-115.7992,-9.7696,-82.6632,313.9683,-101.1939,-212.0474,-86.8956,-42.3632,42.1563,-20.4114,130.2354,-61.2334,-58.7457,190.2284,-167.6116,22.8407,62.6822
-3742.1875,14.3334,19.5123,38.2807,-133.7368,9.0474,-64.7566,324.2517,-10.8764,-159.0858,-34.1284,14.2966,97.2126,6.5130,38.9499,-44.3985,32.2927,-145.1072,-80.3798,39.4180,43.7581
-3734.3750,-1.5910,37.6356,20.9241,-150.6815,65.8627,-44.8598,408.6238,8.4380,-32.1147,-52.3557,-76.0655,79.2689,-11.4795,-89.3435,-62.5667,-22.6741,47.5757,-97.1650,-13.0104,25.8202
-3726.5625,-96.1338,12.1513,-82.0374,-106.2385,-37.9332,-37.5712,370.4651,14.1474,83.2645,-9.1715,-178.0560,84.7305,-47.3402,-81.2394,16.6523,-16.2405,20.6948,-16.5539,-39.0420,105.2859
-3718.7500,-58.5316,13.8121,-77.8619,-34.6482,-32.5714,-32.1372,367.5357,57.0095,13.8061,-4.8373,-98.9020,89.3552,12.0647,-77.0038,95.0278,-48.6603,-154.0676,20.1990,-73.9277,-0.1144
-3710.9375,-30.8313,40.5711,-51.5768,-78.9606,-43.1140,-42.6084,312.7870,8.9583,-35.5594,20.5886,-144.6737,5.0766,-30.5991,60.3241,47.4980,-59.9956,151.3388,-93.9676,-82.7285,25.5803
-3703.1250,-52.3958,-16.9200,-39.5418,-135.5315,6.0833,-139.3406,316.8576,20.6535,11.8243,68.7623,-95.7039,53.5623,2.3879,35.4002,95.7227,25.4170,-117.5188,-116.3868,-35.7847,37.0262
-3695.3125,-1.7128,-37.1632,-21.2462,-156.8591,60.5347,-158.8353,437.2715,1.5900,101.4639,49.1746,-113.4978,-2.6970,3.8316,16.7267,75.1934,-30.9315,-34.1204,-205.5718,-20.5984,-19.2936
-3687.5000,-87.9072,-54.2612,-78.7971,-103.0421,-32.8862,-141.1839,408.9043,-19.3313,153.2568,64.7383,-132.1705,13.1994,-43.1248,70.2124,17.8031,-15.1323,53.4847,-117.6172,-38.2713,33.5412
-3679.6875,-56.4005,-23.6610,-43.6599,-2.5277,2.3900,-70.8401,399.3237,15.4476,75.7537,61.0076,-60.1564,46.8056,-0.0890,-79.6199,15.1217,19.3686,-129.2435,-51.9663,-78.2466,-42.9385
-3671.8750,-59.5386,7.2872,59.8273,63.3308,-40.9902,-40.1578,348.1891,-28.4346,104.6051,54.6172,-175.8212,3.7560,-66.4062,-123.1010,-66.2238,-24.7861,217.4423,-91.9871,-83.8849,-13.0788
-3664.0625,-102.0530,-0.1217,-60.0378,20.8280,-123.7369,-49.8351,293.7853,-1.6760,167.1173,116.8809,-111.8554,67.3717,-61.1156,-95.9287,-2.9118,38.7095,-2.2258,-64.3626,-20.8764,13.4342
-3656.2500,-67.4819,-72.4331,-60.8065,18.4150,-161.3743,-13.4276,396.5895,34.1797,201.7549,78.2474,-74.8069,-81.9028,-14.5287,-59.6782,68.5182,-36.7077,29.1884,-65.6564,11.2269,-24.9707
-3648.4375,-58.7262,-134.5480,-57.3768,26.1871,-267.8271,26.1631,244.6864,-0.7769,129.6015,43.8114,-106.5852,-77.9690,-76.1320,53.7642,-2.8503,39.0646,211.8588,12.2310,18.5207,87.8285
-3640.6250,-78.6408,-50.3136,-113.6068,41.3009,-139.9343,44.0982,218.2274,16.6238,34.8032,23.7346,-53.0252,48.3304,-33.2570,-2.4521,14.1364,129.1878,-125.1658,97.4600,33.1657,30.9699
-3632.8125,-166.5189,1.9625,-96.7848,22.4562,-49.9993,25.0779,338.9183,-76.9259,51.0606,3.7094,-180.4464,28.6722,-55.3615,-21.6191,-5.8368,73.3583,134.9035,43.7232,13.8509,11.1538
-3625.0000,-248.2662,24.3780,-110.8251,44.7547,-27.9367,-26.8005,316.8383,-91.3283,71.4754,-49.1586,-157.7399,160.1766,-21.8805,-73.6358,52.3393,20.6853,16.1395,66.1298,70.6784,32.4970
-3617.1875,-88.8176,77.9945,-14.6724,62.2433,31.3247,-40.4931,369.0675,-106.5355,19.1074,-137.8332,-172.8385,218.8876,-25.4464,-87.4660,0.7244,-141.7948,32.5592,48.7158,88.6991,-55.9719
-3609.3750,-119.7397,46.2566,60.1323,31.3741,-39.7874,-1.5525,254.0434,-105.1077,-17.5954,-135.8551,-242.3143,184.2602,-89.7572,61.3568,-72.2533,-139.6307,281.6965,52.9223,56.3541,-17.7819
-3601.5625,-178.8842,21.3164,-0.2695,6.2953,46.8917,48.1703,260.9123,18.1199,-116.4911,-13.0671,-156.0065,160.4553,-21.0502,-35.0260,-22.4212,-16.6534,-60.4035,98.9199,101.8032,-78.7915
-3593.7500,-85.3823,8.0170,22.9810,-7.1458,70.2132,71.5341,313.5384,40.9906,-131.7360,-27.6294,-206.0677,72.2929,-58.3667,-48.7670,-110.9353,-31.0310,136.1799,14.5519,52.8976,-93.1609
-3585.9375,-28.1495,29.4538,-70.0292,-20.8465,-59.7398,15.6455,213.9982,58.6153,-115.2232,-48.4313,-150.4072,125.8830,-71.7596,42.2440,-57.7084,22.3432,50.5354,0.9367,72.7368,-2.7719
-3578.1250,10.4707,103.2872,-65.6537,-18.1574,-18.2939,-16.8529,248.9661,25.6446,-76.2945,-44.8300,-72.3591,129.8836,-32.8515,9.6417,-17.0747,62.1199,-52.7398,-66.2910,4.9742,-35.9973
-3570.3125,-106.4774,20.5613,64.1781,-31.0343,0.5909,-106.9135,188.4909,-65.8934,52.0984,10.2144,-161.8954,75.3303,-75.1968,28.4892,-71.9979,44.3389,250.5064,-113.0868,-43.3492,56.2263
-3562.5000,-168.6542,-79.3766,107.8024,-60.1184,118.2660,-136.1847,225.9174,-95.6354,95.3074,-19.9462,-44.6449,45.5941,42.1325,-0.8698,44.8894,14.3559,-61.4709,-2.0841,-1.8745,26.2465
-3554.6875,-27.6793,-114.1647,72.5818,-60.0629,157.0906,-99.3192,332.6131,-95.2454,94.6802,-55.9765,-42.2643,-63.9895,76.3072,-73.0880,81.9347,-95.4973,113.7306,-36.9546,-37.2583,-9.5970
-3546.8750,-24.3304,-75.5621,-38.2398,-56.6194,46.2890,-62.0617,215.8072,-58.4683,93.4648,-20.6016,-42.5138,-28.1616,27.5283,-108.9064,44.3743,-58.9537,116.3784,36.5652,-0.2519,62.9667
-3539.0625,-0.4575,-52.4226,-10.5229,36.3623,73.0395,-35.2646,273.6673,-32.1334,8.8130,-67.6621,22.7697,-0.7786,63.2990,-156.1891,34.3792,-32.8541,-73.4665,23.6295,22.3028,-20.9340
-3531.2500,-50.1663,-102.8477,44.6424,21.7883,-18.7675,-54.0221,249.0845,-87.3537,-11.3809,-50.2633,4.4686,-56.9503,19.2961,-28.0265,-22.1717,-15.3038,228.2019,-96.8741,42.2970,33.6105
-3523.4375,-84.9006,-138.2812,4.7968,-14.7963,-21.5948,-91.7892,167.5963,-17.5686,-15.5677,20.1477,76.1512,-23.1089,70.8315,-30.8621,85.2823,55.2539,-55.1487,-27.3854,76.2911,67.1571
-3515.6250,15.9134,-109.1678,37.5044,-90.8433,11.1256,-97.0209,267.7753,-59.2330,125.8131,-58.8918,72.3701,-100.7175,72.9807,-72.1627,80.2899,-23.6515,44.0551,-103.3748,69.8297,25.2388
-3507.8125,20.4084,-139.3641,37.9158,-156.2130,-24.4793,-132.5671,226.7606,-94.2005,235.9084,-57.2197,-36.7359,-62.6260,0.4361,2.2335,42.9940,-22.8659,83.0092,-62.6838,74.0567,99.0295
-3500.0000,-33.1156,-124.5695,-89.6834,-140.5977,68.9110,-113.1305,314.8575,-39.1693,218.0275,-39.5461,-16.8576,-44.5217,60.6259,-51.3879,135.7153,-4.0763,-184.0789,22.0030,88.2913,7.8111
-3492.1875,-169.3033,-86.4366,-86.9380,-68.6424,71.6404,-37.3556,312.4261,-73.7998,182.5146,-37.5350,-123.6630,-79.0728,13.5415,-48.6677,64.7786,-1.9385,134.2421,-9.9739,55.8741,9.9353
-3484.3750,-250.5153,-62.3184,-99.2055,26.3003,58.3592,-13.5881,147.0896,-50.4375,58.0165,-14.5204,-26.4899,18.3866,35.3932,12.0444,50.8419,58.2057,-53.4360,84.0478,44.4601,33.0642
-3476.5625,-150.0385,-66.5132,-64.7712,55.9357,92.7939,21.8671,176.5745,-52.3792,-18.7713,-53.8069,9.3686,-57.4563,48.7213,46.4358,11.6124,19.0362,11.5809,43.7554,38.7403,-43.1223
-3468.7500,-114.5412,-136.6743,-32.2816,20.6109,15.2593,17.3676,131.2149,-57.2792,49.5008,-22.0410,-68.7533,-62.2562,1.8391,42.8830,6.4281,-23.0895,150.7065,43.4994,38.0541,25.7486
-3460.9375,-51.0237,-39.7948,-38.7557,-58.6780,8.7636,-26.0898,230.0114,-27.1213,114.8413,-66.2104,-0.8433,5.0065,41.5667,-74.6210,72.3131,-67.1593,-104.1633,35.2838,99.4165,-18.3339
-3453.1250,-100.5724,16.0243,55.7208,-73.0323,29.2057,-42.6103,208.8783,-44.0182,134.1455,-46.4314,-17.0065,-11.7849,-2.3816,-17.1813,-54.8453,-120.2818,197.9550,-85.0075,14.7190,1.5291
-3445.3125,-152.0487,-2.0671,34.2855,-20.3018,7.7232,-63.0442,72.9416,-64.8162,75.5710,42.4609,35.9108,77.5303,3.3998,-38.6482,-39.8973,4.7044,39.1821,-32.2096,-38.8882,53.5029
-3437.5000,46.8689,-13.7625,25.2387,2.8162,71.6317,-36.0876,95.5246,-75.2190,64.4219,32.7516,63.2204,-5.7516,70.8181,-121.7336,97.4692,-4.9122,-9.2170,-44.0231,-122.1022,-30.1356
-3429.6875,60.7153,-71.5198,73.1406,15.8713,9.4685,-25.1914,66.1644,-173.6816,148.2358,-31.0066,-35.5477,-69.0860,30.4991,-73.8690,107.7800,-31.5824,214.4001,4.0943,-143.3768,17.1821
-3421.8750,-8.1196,-105.9452,38.3930,16.2648,11.6467,14.0422,100.2582,-62.7904,186.4145,7.5919,4.0277,-30.0637,63.4930,-108.6685,146.4483,-29.8927,-102.6655,74.5551,-74.2960,-18.1500
-3414.0625,-56.1151,-119.5367,60.5026,2.4916,-2.3233,37.1120,156.3242,-40.0582,208.4648,30.0424,-46.5659,-118.2015,25.1025,-122.6372,57.9655,-44.3595,130.1511,25.8393,-17.3682,-32.6406
-3406.2500,-144.3861,-137.3946,38.3570,-52.5524,-25.5613,13.9134,129.2379,10.4181,147.2861,43.2516,-69.4371,-67.5852,4.6725,-34.8643,35.2385,-31.0720,39.7386,76.8694,68.3065,17.6291
-3398.4375,-115.9251,-109.5150,35.9416,-58.8633,119.9530,-24.5489,234.0192,44.6515,107.8798,3.2211,-70.5726,-69.2176,55.0754,-73.3603,69.2843,-107.0326,-72.9626,70.6454,96.7286,-95.3630
-3390.6250,-161.6903,-120.8563,97.3244,-34.3918,107.2569,-0.2182,181.7084,-4.3209,131.2870,-9.0041,-119.9433,-119.0621,10.8046,-12.0538,-16.8755,-157.2003,232.1967,24.2134,49.9435,-71.5525
-3382.8125,-110.0325,-69.7583,77.1468,-19.4814,123.9996,-20.4451,120.9506,48.1621,36.1530,6.2253,-28.8763,7.5498,35.2635,3.6973,-1.5799,-66.9101,-104.2198,39.2301,29.6083,-92.2901
-3375.0000,9.7575,-20.5153,56.1192,-5.4264,139.8917,-5.5307,169.4631,-10.2124,-58.8194,-15.4036,-49.6764,-13.6951,19.4397,19.5918,-23.1339,-51.4709,50.5338,-51.6246,-26.5827,-113.8923
-3367.1875,-85.6317,-45.4387,-11.0633,-66.5304,35.6088,-35.7681,98.9209,-3.7453,-53.9314,27.8196,-6.6563,-7.0903,5.2177,62.3401,-16.8308,63.8204,24.1761,63.3602,-16.9294,-34.6369
-3359.3750,-55.3385,-86.6820,-14.5575,-71.9469,106.0252,-2.3180,130.1897,66.4261,-57.3202,23.7541,101.0548,-46.7849,103.4515,-50.2296,90.2001,60.8149,-193.5284,93.0351,-23.5777,-111.6883
-3351.5625,-62.1162,-94.9874,47.9020,-80.4327,21.3794,24.0698,115.5149,54.5520,-69.7435,48.6498,52.6916,-95.5333,60.0388,-24.8599,41.1701,12.7512,79.7668,14.6357,-31.2845,-49.7846
-3343.7500,-30.3317,-63.7032,-68.0526,-49.3287,-58.6848,55.0470,106.5279,85.2882,-76.5536,6.1626,83.9176,-27.6722,54.6654,6.0970,71.7425,43.3044,-135.3609,80.8325,-0.3868,-19.2701
-3335.9375,51.2371,-86.6331,-53.2126,-2.4386,-43.9510,68.8145,191.4516,25.8201,10.4504,-90.5261,24.9303,-124.0164,48.2974,56.8457,86.1259,-53.3400,16.3175,21.8105,10.3156,-78.9669
-3328.1250,-45.7249,-114.0813,-11.8796,5.9373,-76.7400,37.0751,119.9720,-6.1573,51.9673,-86.7136,-6.5830,-82.8637,23.1922,62.1086,54.0076,-86.4829,129.5463,65.2807,18.5112,-1.1530
-3320.3125,-32.1053,-65.9428,-32.9628,52.9042,13.0660,51.9311,59.1943,45.4698,-43.9010,2.7023,119.4955,-30.1040,76.5802,-33.0392,31.5051,-108.0222,-139.6700,113.3521,65.3052,-59.7455
-3312.5000,3.1567,38.8317,39.6100,87.5077,-24.4838,88.4279,-53.8295,44.7351,-192.1053,1.7630,45.2078,6.2919,-18.2033,3.4556,-153.3479,-145.9200,211.8139,113.0520,29.7396,-60.6910
-3304.6875,30.0323,101.2431,67.8238,78.7454,-33.3964,116.5623,-139.1157,35.6468,-311.6451,-44.5156,73.5546,70.3439,-17.9862,30.5972,-162.5350,-81.1604,26.9435,244.3960,20.8227,-69.9775
-3296.8750,42.1855,76.9370,120.3403,90.2699,55.9898,168.9843,22.0079,-22.1410,-186.8629,-139.4951,53.1942,-24.3137,38.7341,-63.9796,-73.3982,-102.0969,3.3561,150.0263,32.2039,-164.9740
-3289.0625,1.6146,0.9152,0.1531,49.0758,-28.3434,121.6991,8.5177,-32.6311,-13.7650,-77.1665,-30.8877,-34.6763,-18.4678,-0.2582,-46.9714,-76.7322,138.1167,73.9447,60.8814,-65.6599
-3281.2500,29.5220,-6.6125,-118.5507,6.3731,0.8184,113.9057,-1.3846,69.3873,-22.1488,-48.3192,71.5240,-5.5255,32.2563,-8.0512,17.9598,-10.8592,-151.6730,102.3649,53.0574,-73.8477
-3273.4375,48.9132,-22.6517,-25.7535,25.1598,-17.5185,95.6024,-20.6869,14.9007,-78.0163,-29.9704,53.4161,-97.8865,-1.4089,10.6433,-73.6064,7.5045,149.0772,50.2665,1.7264,-55.5391
-3265.6250,-77.6281,-114.6078,-13.8657,4.0307,-5.7760,71.3907,-84.8045,26.5108,-103.7738,18.4853,29.3902,-122.1466,14.8876,22.4425,-25.0608,91.9801,91.9324,99.2628,85.4942,-7.1170
-3257.8125,-45.3849,-82.7746,58.8125,34.6881,103.7648,69.9704,-14.0239,24.9246,-67.7067,-19.2568,28.1580,-123.6140,43.6399,-14.9695,-25.6921,17.2595,52.5532,-9.9474,82.0630,-81.9050
-3250.0000,20.7896,-18.0132,86.4379,30.2823,-16.7660,23.4948,-62.2086,-21.7122,-41.6615,-67.0432,-18.1542,-60.1475,-23.1720,48.5724,-73.3741,-66.5117,259.1825,-50.2214,41.5756,18.2619
-3242.1875,31.6409,-7.5669,22.7525,40.5664,-43.6111,-3.2865,-53.6069,-11.6381,-31.8963,-57.1245,66.2305,24.0256,31.1363,21.7984,47.6545,-19.5761,-116.5310,-4.7949,51.7963,28.1296
-3234.3750,65.4269,-79.1782,58.0181,2.7868,28.4955,-42.1306,17.0458,-50.6144,39.8273,-22.2463,27.5514,-87.8600,50.1622,-54.0448,82.6322,-21.6947,91.7254,-110.4362,14.9640,25.9407
-3226.5625,-63.9671,-102.9542,28.1264,-91.1636,-0.5626,-107.1344,22.6201,-41.7380,120.4162,-14.4978,34.7001,-79.8976,58.9201,-45.0428,126.4620,22.0509,-3.1557,-65.2339,95.9825,106.6178
-3218.7500,-87.3356,12.2995,-31.7279,-80.0756,49.4330,-57.0991,108.3322,7.1940,97.0844,-38.6878,85.8952,-30.8923,79.8003,-69.0083,103.3622,-1.1440,-203.0287,-54.9900,71.0613,46.3407
-3210.9375,-35.2178,64.0321,-89.0723,-64.4998,-45.0840,-41.5716,11.6259,-14.3851,0.2732,-23.3828,-9.4255,-15.3992,-20.1221,55.5311,6.7545,13.1503,94.6592,-73.2623,16.6312,97.5699
-3203.1250,14.0260,-60.0980,-109.2716,-48.7776,-29.4630,-25.9012,-9.8575,75.1872,-20.3823,29.0754,6.4007,-35.7484,8.3737,72.2147,60.3052,66.6079,-206.5337,11.6186,102.3467,76.9565
-3195.3125,74.4119,-141.0825,-44.3202,-95.9154,-0.6943,39.9140,54.9012,103.9046,82.1190,21.6804,-37.6399,-152.9499,12.5679,-45.9557,53.0155,22.2188,-42.5702,36.6276,126.2087,-4.5134
-3187.5000,-46.6297,-122.4686,-98.7783,-41.4681,-56.3499,57.3177,-38.6792,122.2145,136.2242,75.8876,-92.1032,-62.5368,-44.1952,8.4831,-3.6668,-34.5577,-22.9718,91.2173,110.6694,49.6351
-3179.6875,-66.9965,-37.1575,-80.5504,-26.3370,72.6966,76.4092,-19.4817,141.2319,82.0481,94.8000,-36.8703,-43.4171,-1.8124,-45.3925,-20.6307,-51.6298,-182.7181,70.5045,125.8387,-41.5177
-3171.8750,-137.5308,-75.0061,26.5289,-29.3645,32.5840,36.3465,12.6418,64.0912,77.7442,90.5597,-113.8025,-120.4604,-26.1364,-12.4286,-24.7495,-18.8628,166.4371,-37.3713,122.8520,-8.8179
-3164.0625,-151.7945,-122.5655,-99.1034,-8.0975,16.7532,20.5784,-3.8732,121.2566,62.7611,148.6345,-56.4430,-99.2027,14.8779,-28.1610,70.4407,76.2149,-94.1353,55.0535,109.1581,12.1911
-3156.2500,-23.8193,-101.8893,-111.4928,49.4138,-31.8181,46.0515,-16.0512,146.6745,14.0529,99.9672,-30.8409,-111.7090,-20.5454,34.3417,-15.1058,63.5461,-1.4752,6.7102,60.7102,-36.5596
-3148.4375,-114.0836,-51.4264,10.9146,64.7134,-129.6068,57.3200,-151.3666,84.8875,62.1659,75.1081,-55.4573,-98.4216,-84.6802,82.6412,-112.8503,75.6851,154.0281,21.1575,5.0560,48.5035
-3140.6250,-162.9738,-65.5779,72.7145,120.4039,-32.9900,44.9836,-55.2145,35.5064,85.6954,-11.3438,-31.6696,-75.7294,20.2655,-3.6706,57.8218,26.2312,-71.1237,43.0051,-8.1989,-1.0354
-3132.8125,-83.1684,-56.0522,45.2215,59.7847,-23.6763,17.3414,27.7145,-29.1852,131.9286,-39.0972,-95.1934,-138.3647,-2.4664,42.7209,67.1980,-1.5319,185.4683,-18.4550,-69.7552,8.1227
-3125.0000,19.8634,-23.3003,-105.0314,21.4084,-64.1247,-24.0541,-51.0485,3.3805,127.4172,30.4078,-26.4764,-33.7598,-6.6748,38.3646,99.8305,30.9673,-63.7025,14.3412,-37.0528,40.5379
-3117.1875,43.8841,35.4440,-80.2961,45.0303,-38.5714,2.5531,-24.7378,29.9555,116.9129,56.9154,37.2379,-44.1668,19.8618,-46.0068,88.4752,20.4733,-110.9006,-32.8699,-84.3442,-7.0571
-3109.3750,-44.0633,-16.7654,6.4882,-7.3104,-98.9868,-20.7954,-122.3255,41.5813,166.4721,105.4821,48.9793,-30.5250,-21.7960,-69.3288,-8.8346,69.0272,47.0023,-85.0454,-101.5902,115.4101
-3101.5625,-35.2380,-44.1837,-20.9378,-69.8616,-16.6026,-86.3508,-77.0571,50.0101,137.8548,76.8606,131.5199,-22.0741,51.7452,-97.8563,72.6807,114.3973,-260.3536,-5.4261,-58.0354,123.6805
-3093.7500,-0.1730,-45.3699,49.8857,-106.1713,-17.9708,-87.6612,-42.4668,12.6861,99.5012,38.4910,56.2964,-60.3893,17.9021,10.8548,34.4578,39.0239,19.5645,-77.5750,-94.2392,122.2021
-3085.9375,29.1177,19.6725,42.9508,-77.2462,-100.1029,-58.7306,-86.5877,5.6130,54.4144,-4.6117,49.3204,-31.4593,-7.3521,39.8201,27.4883,67.9145,-91.2688,-13.4766,-30.1974,150.9943
-3078.1250,106.9996,26.3130,-18.3911,-68.7357,-86.6320,-10.2075,-1.0510,17.1461,67.9498,6.8926,98.9556,-55.9327,15.6086,-21.6284,40.1274,81.4091,-153.5442,-5.7841,-22.5560,53.3855
-3070.3125,-8.0354,-53.9492,-67.6299,-80.1371,-101.0750,49.4066,-51.3679,3.7717,90.6014,103.5018,-24.3266,-69.3113,-46.5728,2.0194,-10.1383,104.0020,46.3296,18.9977,2.1803,112.8897
-3062.5000,-89.4967,-99.6232,-223.2752,-20.9484,-36.9221,77.6137,-97.0381,104.9997,81.8673,204.7140,1.9878,-6.0850,-22.6840,-7.7382,17.2165,132.2146,-280.2382,114.3819,26.5205,67.0012
-3054.6875,-69.7194,-80.0594,-126.6730,-36.5162,22.4809,64.0680,-37.3977,127.4763,31.4011,228.1713,-48.4587,-56.6231,-32.9587,-21.2470,-33.1659,81.6740,-49.5394,-6.9966,12.1106,16.3587
-3046.8750,-81.6603,-92.2106,-68.7814,-47.7896,-29.8357,10.8191,-89.4263,112.2549,52.2444,211.9388,-26.6122,-34.8686,-53.6073,-36.4496,-84.2516,102.4450,-60.5268,50.9312,34.0012,74.0349
-3039.0625,-8.5523,-55.3176,11.1523,-11.0129,13.8963,-18.3801,-8.3573,82.0919,59.1456,108.7688,54.2956,-28.0685,9.1512,-103.6202,-41.2765,36.2766,-199.5123,88.9064,36.9364,-29.2403
-3031.2500,35.6907,-46.2869,55.2440,-38.0962,-16.2304,-11.4330,-1.0962,-20.9281,103.2085,5.7500,-12.6580,-94.1306,-18.5999,-22.6352,-34.1442,6.2613,55.6974,28.0110,11.0056,14.6447
-3023.4375,-3.1486,-83.3137,13.2750,-41.2387,52.5850,20.4573,-42.8556,-25.9926,62.2335,0.6907,56.3398,-26.2346,28.2271,-63.6896,-2.0464,75.2114,-228.1785,95.0643,43.0242,46.4911
-3015.6250,30.5073,-15.8386,11.8060,-76.8808,87.9030,-18.1565,29.9307,-63.5647,23.7611,-37.8683,54.8381,-27.8393,20.2081,-65.2462,-40.4499,73.6643,-54.5516,-12.3968,5.5365,44.8320
-3007.8125,102.9971,21.4771,-61.8030,-110.6729,13.0568,-54.9259,-80.4061,-27.2962,-49.8566,34.4251,53.1776,8.4039,-14.6694,7.0515,-40.0105,71.9718,-16.0426,-9.0118,7.8917,117.0392
-3000.0000,135.3724,18.6809,-61.5192,-79.5708,88.1140,-54.7948,-42.7964,9.8802,-49.5566,36.6188,92.4224,46.5430,55.4487,-65.7637,71.3508,37.1862,-230.6897,-13.7293,40.1557,8.1454
-2992.1875,91.3819,44.5252,75.4055,-87.8259,39.8151,-65.0190,20.5103,-38.2991,-23.5948,25.4605,44.3012,-38.6817,20.4642,-75.9244,-13.6335,-83.9486,111.3556,-57.8119,-4.9303,33.9101
-2984.3750,52.4746,-29.5372,33.4156,-91.9892,34.6085,-69.1501,15.9335,30.6297,8.4728,57.4142,76.2820,30.1938,23.2302,-43.9858,-18.5112,-15.9688,-172.5245,9.2076,-7.9063,65.7899
-2976.5625,90.6667,7.4987,37.5364,-125.0595,38.5200,-66.1858,57.4970,34.6569,-24.3479,24.4699,80.3673,34.1561,34.5175,-3.9691,22.7157,25.1085,-170.3183,-92.6805,-5.7897,32.7636
-2968.7500,40.5406,-5.7813,-54.6322,-174.4361,-90.8817,-85.5268,-35.2130,51.3781,-6.4620,78.2310,60.1450,50.8085,-7.4631,49.7561,39.6386,78.8939,-79.3771,-72.8760,85.0195,123.4538
-2960.9375,56.0580,-26.4154,-36.1663,-124.1719,-71.6341,-66.2179,-53.2434,70.7555,12.0813,60.6481,153.5820,33.1175,53.7494,-4.8744,96.2239,61.3465,-309.8470,-22.4207,136.4831,68.8000
-2953.1250,89.0749,5.4447,70.8011,-127.4154,-74.8927,-69.4152,-91.7515,30.6333,46.1294,57.5652,39.5147,-7.0806,-38.9226,65.9990,-53.6925,-15.7015,74.2161,-95.4815,27.4452,65.6541
-2945.3125,65.6152,52.8453,46.3118,-80.1090,-62.6162,-57.0614,-188.7056,43.0644,-15.2648,107.0430,14.9962,79.2753,-52.3549,78.4335,-41.0576,70.8106,-124.1824,-12.9865,-30.0407,78.0770
-2937.5000,106.9975,94.0937,20.6668,-3.9488,-16.4842,-10.8518,-67.7833,54.3495,-40.7970,117.3744,-10.6683,53.4745,-22.7434,-58.2930,6.4449,45.1758,-152.7653,-6.6466,-94.6784,-21.6535
-2929.6875,70.2667,57.2347,16.9169,-6.8976,-57.4688,-14.7428,-107.9386,13.5360,-81.4204,77.6104,-14.4469,49.5605,-28.0028,-25.1179,2.8541,4.4529,90.5897,-9.4175,-96.4198,11.5329
-2921.8750,69.1675,21.0204,55.8031,62.7968,55.1903,-11.9897,-104.4245,-20.6201,-152.3787,6.5071,61.4319,88.3049,56.6118,14.7038,78.9343,-29.6016,-156.4620,60.4604,-97.5058,-59.6227
-2914.0625,97.5093,49.2569,160.1392,90.9326,48.3031,18.2098,-110.4326,-101.3280,-158.8739,-111.1409,18.7593,8.4910,21.7696,43.9780,-0.5395,0.7911,153.9517,-16.2224,-104.1492,-66.3259
-2906.2500,1.2808,128.9362,92.9197,65.5131,-56.1471,23.8584,-175.9890,-58.5817,-114.9116,-68.3235,-12.4700,51.1328,-33.6346,50.7076,-31.5691,80.6488,57.8191,28.5450,-24.3506,13.4413
-2898.4375,64.8437,122.4053,90.5043,57.9000,-57.7854,21.3035,-104.7203,12.9666,-43.1483,-32.7090,22.1110,11.5703,-19.2225,-24.7676,-32.7839,4.3191,-19.5503,21.1053,39.2438,-98.9927
-2890.6250,66.3974,17.8635,53.0993,59.2857,-95.4324,57.7440,-104.4332,49.5035,29.6140,39.9013,-88.3181,-62.0016,-90.5652,47.7666,-107.0010,-32.0109,228.1318,-12.3493,5.8332,-62.4139
-2882.8125,60.0946,11.4781,-26.1696,87.8187,-64.9277,51.3323,-72.9879,80.1931,60.5277,70.6633,-20.5855,5.5813,-59.6693,5.4438,-76.0562,34.8187,-59.0861,-18.6446,-0.4227,-68.6775
-2875.0000,117.1003,68.3921,32.8634,74.6492,-43.1127,0.2188,-50.2236,-7.8182,82.7504,19.7198,-35.5481,27.4540,-54.8361,-9.5859,-53.8149,-53.0571,209.0049,-171.6527,-48.3816,-46.6445
-2867.1875,11.0844,32.2937,26.9044,38.4728,-84.3047,-41.8941,-127.4552,-49.8361,3.9762,13.7761,-4.5155,95.3187,-29.2856,58.3992,14.4169,-21.9251,173.1154,-102.6596,-14.3368,58.4062
-2859.3750,14.7105,105.8350,33.5914,76.9493,-5.8306,-36.3570,-85.0228,-7.2038,-63.1459,20.4817,39.1774,100.8326,21.4243,-8.9669,58.3116,21.8643,-35.1729,-100.0128,-46.6397,-8.8951
-2851.5625,-2.5648,124.4725,85.3884,59.5241,-63.2575,-56.7215,-104.4910,-64.4769,25.8282,-1.7116,-19.0363,79.4440,-61.4881,5.7762,-72.7020,73.7474,229.6852,-186.2746,-97.8488,79.9112
-2843.7500,29.3916,85.3617,43.4235,21.3526,-142.4453,-61.8322,-108.7134,-32.4924,58.0612,-5.6485,13.0024,111.3163,-43.2759,37.7719,31.5426,179.8948,-89.2477,-119.2821,-100.8053,111.9806
-2835.9375,176.7438,92.6594,14.8541,-7.4159,-134.2249,-90.5472,-27.5146,-61.1085,66.7066,-34.1873,20.4394,45.5838,-23.5866,9.1586,77.1990,77.4446,22.2105,-182.9013,-94.3677,83.4472
-2828.1250,71.8808,92.7546,15.0870,-41.3889,-171.2167,-91.4597,-99.5121,-61.9303,29.1549,38.0745,56.6695,81.6493,-31.6587,45.3504,39.6502,39.7991,58.4970,-111.7285,-93.1325,119.7329
-2820.3125,-11.3388,115.4946,6.9662,16.2923,3.4467,-26.7256,-107.8551,2.9017,-88.7343,67.9926,86.5643,147.3687,36.8587,1.1837,69.7675,32.8103,-199.6226,-19.9055,-71.2449,1.6704
-2812.5000,-22.3044,69.4828,-5.9053,4.2234,-9.6472,-2.7421,-45.9457,-47.0213,-27.3621,-18.8382,-37.3008,61.3255,-19.3304,62.2770,20.1379,57.0728,70.5472,-30.8476,-47.1206,25.8662
-2804.6875,-117.4277,-26.6857,-178.9407,14.0035,-108.8999,44.0932,1.8057,36.9065,93.8619,-8.8117,-27.3116,71.1378,1.7366,109.2328,140.3636,67.1967,-235.4576,50.0625,68.8503,35.9304
-2796.8750,-168.7064,26.9953,-156.1215,32.6313,-124.2887,66.7758,99.4248,133.6806,116.9327,88.0557,-77.4649,20.7970,-12.5403,95.0389,127.4478,-19.8266,-181.6310,-2.1877,16.6738,-51.1571
-2789.0625,-201.5063,65.1710,-153.7956,0.7480,-158.1811,31.9537,64.5392,134.9489,45.5098,163.4233,-148.1283,58.9554,-83.5803,23.3473,19.0225,55.6546,31.7351,1.0616,19.9987,-12.7289
-2781.2500,-73.8695,87.7922,-165.0231,22.3119,-58.6097,21.5822,56.0994,162.6781,72.5405,80.2542,-48.3310,48.5681,-37.4483,-59.9025,9.0585,82.5993,-192.5125,22.7688,41.7793,-95.8493
-2773.4375,-10.9747,80.6573,-60.9941,-19.8711,-65.7877,14.4636,86.9145,81.6550,102.8187,73.3350,-92.2825,4.4181,-66.2641,-29.9006,-33.6617,1.7939,117.5209,-54.2900,-35.1968,-102.7162
-2765.6250,-73.8850,87.7260,-91.7730,-11.8565,-22.7718,-15.4590,56.9153,87.8306,35.2954,79.6166,-49.0278,84.4722,-42.2531,13.3043,-27.1797,9.1973,-50.2572,-11.1443,-26.9743,-59.3631
-2757.8125,-0.4930,91.0937,-50.2592,25.4588,17.5544,24.9229,99.2249,18.3092,-32.9215,-62.8046,28.5376,51.8190,18.7298,-19.1953,13.6168,12.9019,-12.7697,-43.7022,-59.4499,-91.7128
-2750.0000,-13.5599,78.0106,5.8036,48.3248,-73.5838,44.8581,-27.9321,-72.6723,-87.5872,-80.6800,48.6508,71.7192,1.3532,36.8726,-3.0394,-3.8438,221.3146,-21.7174,-107.3852,1.5066
-2742.1875,11.4681,102.0417,-3.0419,72.2990,-8.6242,71.8930,-73.0101,-44.5599,-169.1558,-52.4634,112.8778,98.7506,57.0027,-8.9567,61.4138,24.5182,-71.5502,38.3711,-118.2229,-44.1623
-2734.3750,19.3986,39.9872,43.0278,80.1777,111.2372,44.8282,10.8137,-108.5610,-122.8308,-79.3547,48.9995,-38.3092,49.9760,37.1091,-1.2390,-39.2277,183.5132,-23.6516,-145.1666,-70.9308
-2726.5625,6.9565,-43.4240,27.7518,67.7082,94.7511,66.4138,-40.7225,-123.9100,-137.8584,-131.5883,70.7582,-54.7135,65.6126,94.8321,19.7520,-55.3157,100.2340,103.9765,-156.4620,-13.0370
-2718.7500,93.9592,-26.3895,11.9180,119.6929,153.7327,124.4536,18.1958,-102.8034,-190.4276,-184.3682,128.9728,-32.6743,99.7331,6.0080,4.2059,-69.9503,11.3625,121.0467,-211.3066,-101.7011
-2710.9375,21.9605,7.6405,45.0909,117.6784,74.7121,119.4927,-21.8906,-107.7039,-156.9894,-151.1535,14.1805,-37.6504,1.4685,39.1976,-110.3518,-37.5906,221.5416,49.1014,-176.1541,-32.3547
-2703.1250,-42.8425,47.8670,-21.5362,87.8690,118.8937,52.7319,-13.7892,-26.4029,-113.3510,-70.7357,57.5976,42.5826,14.8294,9.5939,-102.7052,6.9835,-125.1242,54.3523,-65.8038,-61.7972
-2695.3125,-34.4375,21.2945,27.0417,-8.7342,167.2831,-8.8314,35.5126,-14.9033,-27.5190,-22.1214,-39.7785,-18.9937,7.5701,21.1828,-52.8608,-54.2423,95.4175,-42.2033,12.7413,-123.0390
-2687.5000,-84.7986,-28.0288,-27.1358,-58.0868,75.9119,-26.1382,-17.9542,40.8464,65.5574,33.7481,-94.9045,0.6838,-38.4196,114.0307,-33.7719,1.7865,45.2228,-21.5062,68.5294,-67.0098
-2679.6875,38.4360,24.2514,-42.7213,-40.8345,97.1549,-5.8450,3.1731,99.2011,13.2332,18.2203,-36.4173,20.9627,-23.0445,61.4736,-49.0636,22.4213,-148.4250,-39.2096,86.9184,-119.3815
-2671.8750,22.5788,78.4327,9.6055,-21.6835,39.3015,10.3491,-53.8129,41.4423,-44.1949,34.5804,-131.0356,0.1359,-98.5644,76.8314,-143.4625,38.9510,116.8719,-91.0270,70.1983,-29.8419
-2664.0625,-92.0389,34.8688,-37.8175,4.7196,65.6972,36.7858,-26.5710,67.9309,-91.3815,24.1893,-68.3985,26.5764,-25.2488,30.4502,-43.6116,101.7403,-207.6145,6.4134,131.7299,-3.0375
-2656.2500,-27.7006,-6.7464,-5.2879,-1.9309,97.0603,32.1675,79.6281,26.3694,-95.6128,-54.2547,-72.8074,-52.0363,-9.4152,26.0089,-47.8086,60.4761,-3.1607,-71.2053,126.2150,-44.2857
-2648.4375,9.1808,-39.8222,-6.2127,-35.0411,-14.0316,-5.9052,43.3654,-11.6455,-59.2842,-91.1431,-72.6695,-16.1054,-49.9865,25.1236,-84.4608,60.7664,104.8688,-33.2738,163.2552,29.0338
-2640.6250,97.5107,-21.4535,-56.6973,18.2943,45.3357,-19.5300,103.5512,11.8005,1.5030,-68.5693,-13.0707,-29.7208,-16.3442,-25.3188,-61.6543,46.5098,-158.7062,-14.8870,146.7523,-58.1963
-2632.8125,21.5332,42.6185,9.5294,12.3302,1.4061,-27.4515,96.4290,-33.0564,30.9965,-2.3013,-57.7828,-37.6425,-41.6433,3.9369,-69.1607,-34.0541,152.4659,-91.8079,34.9469,-28.7245
-2625.0000,-25.3603,66.7928,-5.1421,36.4730,-13.4260,-42.2713,-27.6147,-47.8143,-20.4095,20.0746,38.6075,95.5435,22.6947,-10.7072,64.4371,25.4843,-104.2823,-32.6192,-46.7623,30.8587
-2617.1875,112.7061,133.9231,-5.8613,68.5728,22.7016,-43.1348,9.2897,-121.6224,-20.8683,-91.6103,74.9588,93.6762,52.4617,-48.4085,99.9976,-49.0325,-73.1051,-70.4856,-119.5216,-6.6116
-2609.3750,129.7747,151.0552,44.4165,49.6715,-73.1779,-64.9976,-85.8248,-181.4401,-7.3315,-150.2961,14.2999,144.8118,-12.7971,-34.0914,40.5497,-70.5444,85.1105,-18.3615,-102.2852,80.9360
-2601.5625,109.9926,202.3436,63.8346,65.9233,-18.8979,-47.7121,-67.8034,-162.1046,-97.6482,-167.8278,70.8053,200.1134,29.6199,-52.6202,60.2482,-52.8927,-145.5777,32.9112,-86.8912,26.6373
-2593.7500,104.8143,197.2278,131.8635,95.7716,-24.0032,-15.8276,-72.1874,-167.1765,-175.3714,-135.7661,28.9103,85.0087,-0.9484,16.4601,-18.4639,-57.6420,130.3699,-8.2355,-125.8999,21.9390
-2585.9375,45.0215,137.5114,31.2907,107.0201,-50.7099,-6.5446,-97.1932,-83.8486,-165.6980,-89.2998,75.4063,94.3128,-4.6905,25.9449,-44.7719,26.0146,-68.2906,3.0245,-79.5076,68.6558
-2578.1250,72.7773,165.3430,64.2618,63.8246,55.1547,-47.7100,45.3520,-52.9679,-60.4631,-131.2837,107.4580,16.1672,47.8389,-15.0324,-12.5188,-88.7893,-112.4370,-75.1602,-88.5654,-9.0824
-2570.3125,51.5262,38.1706,39.2433,42.6330,30.0226,-71.8728,57.8837,-77.0947,-11.2194,-46.2784,9.5007,-45.9846,14.6190,34.0028,-0.2887,-111.5991,77.4642,-61.3451,-74.6330,40.1906
-2562.5000,16.6751,-31.6028,-67.3806,77.8413,70.2975,-31.6332,25.8094,0.1746,-6.5749,32.1195,50.9536,-4.7237,71.0987,-72.5617,114.3529,1.9963,-238.2876,9.8769,-38.2959,-29.1334
-2554.6875,2.4322,59.2346,-7.4049,98.6536,93.1804,-8.7900,12.3383,-50.9669,-57.3403,-18.8928,37.0058,-18.8643,42.5897,-49.5210,27.5995,25.1862,28.5786,-110.3160,-88.3644,-42.8612
-2546.8750,-37.4145,89.4818,53.9679,22.8689,44.4498,-56.5455,-108.7630,-61.7099,-141.7141,-30.5023,135.4510,79.4109,54.6533,48.9345,15.2407,12.7797,-82.1491,-80.1136,-128.0359,92.8317
-2539.0625,-43.6034,12.3820,47.9931,-18.2588,112.3801,-26.6523,-5.2238,-31.8029,-110.4412,-72.4654,202.5562,-0.6543,146.3616,6.0365,120.5356,-64.9718,-228.2612,-50.2619,-99.0639,87.1735
-2531.2500,-136.2900,-114.2207,22.5339,-39.8927,12.8190,-16.2667,6.8034,-21.4099,-26.6742,-25.9344,66.1569,-63.2241,67.4544,-19.3598,57.3238,-18.2290,100.1833,-2.9202,-50.6002,171.0230
-2523.4375,-199.6890,-107.5223,-77.6250,36.7749,21.5670,29.4191,16.1113,24.2846,19.3949,56.9023,39.0649,-52.4865,58.2391,-45.4622,67.4171,27.8240,-173.1115,73.7265,26.1702,108.1803
-2515.6250,-207.3350,-80.0725,-9.0289,100.1977,-18.9289,62.8557,50.1625,-16.2645,53.2208,16.4957,-38.2727,-130.0063,2.4702,60.1839,-9.7493,-12.3777,100.3452,-3.8862,19.6906,31.0843
-2507.8125,-261.2382,-132.8777,6.3149,46.3734,-39.6918,4.0516,-8.0660,35.9433,68.7924,68.8464,-57.8677,-114.7674,-33.4154,112.5982,-66.1870,40.1777,117.5735,13.2505,35.9621,83.7547
-2500.0000,-131.5289,-144.0797,-1.7537,0.1563,98.1571,-4.1453,94.3007,64.7561,60.9574,96.7945,-30.8565,-87.9142,24.4351,-43.3867,-2.0213,69.3302,-105.6462,-34.0090,59.8357,2.0197
-2492.1875,-92.7194,-105.1723,36.2790,-30.9584,26.1044,-39.2405,22.7655,-8.3391,25.2141,-12.1694,-28.7565,-84.9639,-6.2643,68.7349,-36.7578,33.5741,215.2849,-63.1807,-6.1934,77.3891
-2484.3750,-46.7278,-59.0585,46.5057,-20.8742,36.2507,-65.1376,-75.5870,-34.2344,-73.3257,-37.9297,91.5478,34.1996,38.9405,153.0635,9.7156,44.0212,-160.6139,15.8507,3.9827,87.9669
-2476.5625,74.3325,-8.8892,66.7876,-4.7417,56.4650,-9.9907,-19.8909,-52.0836,-126.8079,-55.6440,111.9063,-19.5816,48.5271,135.4333,-6.7670,-9.4905,-74.4714,-38.0765,-49.7901,34.5871
-2468.7500,-19.4566,-31.5676,1.2280,6.5429,-9.1685,-1.6887,-47.0661,-42.7913,-119.1448,-46.2091,9.4066,-47.2079,8.5054,106.9512,1.8783,35.1459,41.8541,43.1530,-3.4190,116.3723
-2460.9375,-68.5581,-45.5567,-45.6317,99.5352,17.9146,62.3212,-20.5480,-16.7929,-127.7876,-129.0722,-0.3869,-21.1265,35.6967,24.1620,29.2309,26.4832,-146.1710,171.0913,124.6632,33.8557
-2453.1250,-82.2572,-24.1495,-22.0802,155.9279,41.4064,121.7271,-70.6209,-67.4042,-105.0286,-142.5490,-86.7902,-71.6573,-52.2979,84.7808,-167.0170,-60.7986,262.2499,157.4162,111.1453,20.7407
-2445.3125,-106.9007,-12.6891,-46.4804,167.3702,53.9442,134.1740,-130.6631,-17.9725,-56.2153,-57.9793,-38.1276,51.8680,-43.0753,60.4525,-154.2169,-48.0317,-8.2930,203.7919,51.6767,-3.3087
-2437.5000,-12.7778,10.5237,18.8718,120.5647,82.2510,126.3694,-64.9585,10.2102,-26.6512,-28.6591,-8.7064,-29.8624,10.9136,14.8615,-52.6726,-129.5122,49.8920,86.9214,4.9532,-84.6119
-2429.6875,-51.5688,-27.1728,50.3249,81.8612,2.6525,82.6735,-108.1778,4.5002,-69.9955,38.7721,-52.2055,0.5040,-59.4783,9.3794,-168.0394,-98.8914,258.2178,118.1546,2.3318,-16.8009
-2421.8750,60.4732,13.9868,59.6187,89.0103,48.9077,55.8381,-60.5578,50.6494,-133.4930,48.0542,-4.8504,46.7340,-19.1264,-91.2580,-122.5429,-88.4181,-51.6576,125.2460,43.5708,-80.1400
-2414.0625,166.7221,-20.6459,97.1166,53.3559,49.3722,19.2035,-22.7386,13.9944,-95.7838,11.5314,-115.3008,-62.8359,-58.3244,-16.6949,-121.8619,-124.7558,265.6990,19.5251,9.0110,-79.2853
-2406.2500,87.6098,-134.6351,49.2607,-60.6476,38.4886,-28.7803,2.7107,39.9891,3.5741,73.6730,-53.1031,-74.7401,-19.8512,81.5300,-22.5391,11.5606,-24.2989,11.4572,36.0955,-16.7716
-2398.4375,62.0601,-195.0719,24.9532,-50.0952,51.1745,-15.2149,126.7081,89.5358,53.4717,87.3586,-2.3472,-98.0879,14.4199,21.3036,-8.6645,24.4219,-84.7792,-49.0594,45.7295,-76.7160
-2390.6250,25.6544,-196.3533,55.8007,-87.3909,-65.9944,-22.4977,46.8528,83.2259,84.5074,117.1828,-46.4539,-104.2805,-40.9811,15.2362,-52.6510,18.4267,123.9353,-51.4291,79.5127,27.4992
-2382.8125,34.6889,-82.1788,30.0881,-113.2347,-54.7101,-85.3242,58.4378,93.3715,131.9975,91.4579,1.8888,-20.0058,8.5450,-84.3872,69.8133,29.8791,-182.9439,-42.3403,123.7604,2.1666
-2375.0000,40.1363,-5.6055,72.7818,-141.6759,-12.0099,-115.7509,100.4259,-11.0841,174.8929,61.1232,-102.3719,-51.3396,-18.0439,-78.6159,75.6679,-38.2814,138.6002,-140.8608,59.4123,8.2256
-2367.1875,13.4350,-66.1767,-31.6739,-168.2731,-42.4690,-109.3299,33.2464,-5.6886,180.6341,66.6421,-58.7882,-8.8146,-2.3023,-70.9862,118.3643,4.4162,-27.9938,7.4697,68.9101,88.1472
-2359.3750,83.8440,-171.6410,-64.0383,-133.7709,72.1844,-68.8126,112.1595,36.8144,186.4737,71.2715,-18.0960,-77.1785,46.1983,-104.2653,123.1707,-26.7872,-167.5302,7.8955,103.5092,-16.8356
-2351.5625,2.9543,-147.4110,-3.6905,-107.5753,22.5401,-45.6015,135.7593,-13.9847,136.0170,21.6090,-103.7132,-125.8450,-22.1880,30.1637,-0.3384,-76.2976,137.6820,-2.9892,58.8041,43.8863
-2343.7500,-63.4975,-38.7357,-71.8903,-69.9273,65.3498,-2.9409,104.7975,28.6735,69.0120,-9.5970,-25.8766,-11.0509,36.7595,-0.9630,79.5961,-34.3558,-209.6908,71.5896,62.5614,13.0605
-2335.9375,56.2058,-23.9090,-18.9386,-20.1283,80.3284,12.8722,120.9969,-29.5193,48.1660,-30.6589,-46.8985,-32.1125,17.3054,-58.9503,21.6734,-92.2743,85.0981,-19.6840,6.4724,-7.6293
-2328.1250,18.3619,-26.6332,-61.5538,-22.8732,-36.2507,5.1386,-68.3680,-36.2620,40.7681,-1.2680,-16.4706,34.2786,-16.8455,-28.4819,14.2017,11.2478,118.3322,47.5063,-31.1614,96.1327
-2320.3125,35.2829,25.3997,-4.4226,29.1352,21.9418,-9.8357,-48.0031,-52.2526,-10.8796,-90.1299,41.7126,56.4165,42.8525,-44.2634,73.4829,-3.4954,-41.7057,64.4507,-14.0349,7.6253
-2312.5000,-0.7516,25.4619,104.7753,64.1948,-16.8091,-11.7500,-12.5951,-163.1942,61.5199,-163.9555,-70.0754,17.5904,-41.0519,28.0016,-75.1976,-151.1954,416.3636,-6.5490,-14.8503,43.1719
-2304.6875,-25.5527,-35.2277,80.2208,39.5057,69.7049,0.5962,0.0487,-150.8821,110.1632,-115.5327,15.3927,67.0318,19.1627,-33.4903,-26.6164,-138.6401,4.6333,74.7221,-3.4148,18.9652
-2296.8750,94.3635,-55.2042,97.3724,53.5146,123.9303,18.6420,18.3870,-134.8813,128.4933,-98.4224,-3.4436,-62.8204,16.4742,-89.2731,-45.3459,-85.3981,159.6278,-51.3190,-24.2852,-36.5484
-2289.0625,-17.2148,-61.6794,50.0246,-22.9792,-34.3466,7.1934,-65.8045,-35.3815,118.3085,1.1892,-50.7826,-37.1562,-47.4534,10.4591,-55.6031,14.3480,188.1352,-57.8508,40.3414,63.4488
-2281.2500,17.1090,77.7510,-21.4213,-59.5680,-31.7124,-27.3559,46.9030,4.0306,120.0261,-33.2920,24.7850,149.4105,-10.6381,-23.9195,20.0444,16.9997,-163.5033,-94.4910,38.8766,-7.6653
-2273.4375,92.0807,187.8326,-20.2173,-88.5135,-102.4345,-62.2650,11.2583,-67.9044,85.4061,-104.1255,-120.0119,261.6243,-97.7426,14.3549,-15.6630,-54.7028,227.5615,-124.5012,-26.9373,67.8805
-2265.6250,-78.0987,123.7740,-88.1702,-83.6113,-98.3077,-57.3329,-20.5530,-62.9853,126.6417,-100.1026,-152.9530,339.7054,-79.1027,-17.5205,62.4835,22.4492,-47.5616,56.3418,49.1040,109.2834
-2257.8125,-79.7628,52.2154,-11.6158,-50.2172,15.3315,-17.9109,93.1373,-97.5669,167.3892,-169.5783,-185.3897,159.2829,-39.9745,-13.9013,67.1167,-46.9111,90.8304,55.6790,48.6451,3.1760
-2250.0000,-123.2847,-27.2089,50.0906,-58.6817,40.1201,-30.3425,-29.0375,-181.9968,155.2931,-107.8923,-197.6851,111.0127,-56.3525,47.8608,17.8890,-94.1237,293.3944,47.1780,40.3499,65.2260
-2242.1875,-83.9507,-21.7816,59.6447,-53.2952,160.7810,-56.9203,54.6456,-99.5749,129.0454,-99.3601,-78.1201,120.5985,56.7563,-52.5460,138.5235,-85.4962,-159.2337,51.5341,44.9137,-34.8903
-2234.3750,-93.3620,-67.1002,85.4641,-98.6477,112.6928,-31.2346,80.5657,-73.9070,81.0327,-36.5913,-125.3199,36.4189,-15.8094,-26.6887,-19.6050,-59.6382,218.4487,-27.8576,35.7201,-8.7594
-2226.5625,-124.3820,-63.0174,-60.3234,-59.5843,2.9912,5.8616,-65.1374,0.1661,8.4061,0.5729,-87.1139,110.6598,-40.9447,47.5797,-19.3417,51.6328,-24.4922,151.1650,39.9285,65.7736
-2218.7500,35.3497,-8.1729,-34.3604,-4.7709,66.0566,68.7105,33.9169,-47.0019,-38.4729,-120.5133,-62.1484,62.6557,13.0673,0.5819,43.6632,-32.3529,-39.6927,135.9254,23.8913,-54.9572
-2210.9375,29.0300,-14.3736,66.5527,-11.0145,-16.9308,59.5037,-12.0907,-130.2192,-11.4046,-165.6348,-108.2471,16.6098,-29.0339,-9.4669,-2.3983,-79.3958,305.0851,58.6392,17.8132,9.2709
-2203.1250,-12.0171,14.6785,25.7027,17.9901,16.3353,18.5557,-15.8543,-61.1674,94.9173,-134.4929,34.9079,48.8247,51.7461,-50.2758,103.7953,-46.1932,-191.9424,17.6115,81.9917,-31.2631
-2195.3125,11.7017,3.4623,85.5979,-64.2521,40.3475,5.3673,-28.8731,-74.3613,81.9972,-73.5984,21.8014,-0.2221,33.7797,10.6713,54.7175,-96.2484,147.8293,-99.6711,35.9280,-7.0510
-2187.5000,-53.2556,-61.4202,11.8329,-94.1463,-33.2960,-31.4555,-138.5561,-1.1909,45.4217,-0.3379,58.0395,73.0865,8.5116,46.9723,16.9821,14.0559,-24.0602,45.4234,76.2282,103.5128
-2179.6875,9.4132,-33.6514,-26.2775,-30.3827,74.7347,3.3753,-30.5770,34.6434,-29.4984,-1.4235,92.9138,35.0386,29.7604,-28.0773,-58.1038,-23.9963,-101.3162,74.1715,104.1833,-8.2915
-2171.8750,-15.6394,-58.5829,19.9135,15.6836,11.0635,49.5145,-94.3041,-30.2191,-57.1194,7.7956,-44.9361,-29.7185,-57.4430,18.1811,-157.9009,-51.7502,367.7729,50.2179,45.4381,38.2136
-2164.0625,-7.1930,-50.0235,-42.4109,93.2471,58.8965,97.1530,-120.5309,54.4355,-45.2352,19.5258,40.7272,19.0331,21.4299,-81.0734,-37.1914,-39.9994,-82.6950,92.7720,53.2090,-23.7849
-2156.2500,81.3212,-32.4273,15.3145,111.8500,43.7797,81.8372,-61.6959,2.1346,-23.2800,-32.6904,-11.5656,-70.1644,-4.6711,13.7209,-52.4367,-92.2132,216.9225,-29.6384,-33.9725,-75.7412
-2148.4375,8.0787,0.4302,-28.7085,73.7017,-74.0930,74.7684,-141.6203,-4.9202,-68.0640,-3.6628,17.3831,32.9057,-28.1413,116.7694,-23.4429,47.8177,108.7902,-32.7818,-71.9044,27.5539
-2140.6250,28.6032,21.0571,-38.9738,59.3109,25.7962,63.4452,-5.7901,57.7734,-78.1004,-13.8967,117.0872,-14.2620,71.8326,-3.4491,76.3036,73.5878,-220.6202,-11.1753,-85.0854,-56.4209
-2132.8125,7.7338,0.2850,45.3640,38.5201,-73.7191,37.7205,-69.3677,-4.9389,-30.5362,33.4723,17.3842,-77.8341,-15.3704,6.9261,-23.3596,47.9543,249.6196,-67.9760,-106.6691,28.2068
-2125.0000,-73.4878,-9.8330,-1.6652,28.3746,-83.5744,64.6478,-115.3002,59.0152,33.6699,60.5055,81.3387,23.2544,20.3578,-40.0556,40.6244,74.9859,-182.5413,62.8799,-46.5989,18.4783
-2117.1875,87.0921,8.8532,22.1123,47.0285,14.3807,51.3737,18.5749,8.7712,-15.3238,-25.6581,68.0821,-62.8616,43.6582,-52.2319,27.4065,-48.1858,47.1174,-23.4757,-61.7357,-67.4636
-2109.3750,84.3139,42.1843,-21.4641,10.3298,-102.0224,81.7494,-97.9110,2.1841,-95.6737,3.8324,61.4691,3.6768,-25.1116,51.2520,-53.1587,-18.7099,115.4403,9.8310,-99.2242,36.2475
-2101.5625,157.2474,44.2190,-15.3422,12.3335,14.2843,86.8310,-92.6821,81.3023,-127.3123,10.0182,177.5597,9.9220,67.5931,-53.5747,26.9851,-12.5492,-303.5808,11.8437,-61.0095,-31.3633
-2093.7500,157.4330,10.5013,93.0327,-22.4128,-98.1603,48.1656,-130.1994,5.6693,-127.6845,-29.5459,101.8857,-29.5907,8.3347,54.8430,-12.6458,-52.1528,189.7057,-92.8968,-95.5439,40.2703
-2085.9375,63.8622,57.0374,-8.3483,-10.9066,-161.3535,-16.2405,-157.4794,52.3028,-117.8113,17.1581,111.4650,91.1642,-3.1361,101.4999,33.9628,68.5011,-185.8016,-11.3734,-13.8251,87.1469
-2078.1250,46.5632,39.8333,-21.4705,-27.1493,-102.2888,-29.3956,12.4962,75.1911,-58.7011,77.1066,61.2931,4.1625,-3.5311,51.4026,20.8138,55.3924,-133.0449,-63.6094,5.1534,0.2577
-2070.3125,-53.2798,-24.9231,-55.1402,-90.9457,-134.7879,-27.1021,-22.0901,78.5279,-19.1599,190.5051,-46.4362,-30.3904,-84.4062,53.7797,-85.8951,94.7385,84.1896,12.6051,46.5902,76.8235
-2062.5000,-20.3184,-61.8872,-163.0161,-58.9434,14.5254,12.9973,18.1343,154.6785,57.1732,193.7068,65.6455,9.8588,7.2289,-91.0467,-10.7989,96.8849,-339.8198,45.6226,78.8411,-30.8257
-2054.6875,47.1433,-64.3591,-55.3873,-26.4462,48.3462,46.5980,51.8727,78.3263,-54.9870,117.4071,-9.7896,-103.4027,1.1846,-130.3772,-50.2214,-15.4767,184.7224,-26.8645,6.5985,-32.9755
-2046.8750,-4.1030,-46.5250,-38.4666,-43.6400,29.4577,27.4989,-41.0992,95.2823,-110.8418,97.4090,81.0807,-49.3410,45.4567,-112.4283,3.6480,1.4641,-78.4617,61.9725,25.6613,21.1730
-2039.0625,66.3612,-45.9736,77.1467,-43.1290,145.2801,-4.8877,74.6306,63.9472,-105.9981,-7.8907,122.6496,-80.5787,84.0740,-70.7837,-27.7901,-66.9112,-148.9505,26.5149,25.4256,-83.9991
-2031.2500,-93.2374,-64.4744,127.7157,-25.6750,12.0453,46.6781,-58.6976,41.5686,-128.2122,6.7714,26.1490,-103.8681,-3.7053,53.8120,-124.2878,-53.3354,255.5495,44.0113,8.1438,3.7828
-2023.4375,22.9115,-53.2281,33.0328,19.5173,64.5727,61.9924,-42.2760,93.9583,-149.6721,59.1956,78.3983,-87.3976,46.5796,-77.8568,-35.0259,-1.0004,-191.2588,125.2651,54.6229,-90.6967
-2015.6250,179.5641,-38.4858,51.8388,35.2046,83.6031,43.8082,49.6559,38.8498,-167.6252,-32.8807,-13.8652,-216.4338,-21.6641,-23.0100,-164.2866,-19.1768,281.4698,35.0217,-0.3885,-145.6854
-2007.8125,41.3633,-69.5896,51.7798,3.0447,9.7706,43.7832,-23.2755,1.9006,-130.4375,4.1997,-12.9762,-142.3038,-18.6928,51.0058,-90.4086,17.7972,109.3338,108.9464,37.7450,-71.5256
-2000.0000,22.7840,-53.0718,38.3286,-15.5056,180.5516,-6.6404,146.3987,25.5527,40.3408,27.8713,9.5111,-119.5576,85.3114,-110.3944,79.0730,-69.6405,-191.2142,54.4620,54.4719,-195.7872
-1992.1875,-1.1357,-41.8904,46.5332,-74.4048,115.9786,-71.4224,154.7150,-40.1536,48.7654,-0.8061,-55.3708,-110.1469,55.8341,-138.1509,88.1913,-134.4300,207.9419,-4.3826,31.8413,-113.3990
-1984.3750,-66.3668,-1.0055,-20.5665,-69.6054,159.1101,-28.5111,161.7366,77.8567,18.8996,80.2304,24.4569,-30.0241,101.6191,-168.2194,131.0136,-90.5194,-350.2581,36.4786,106.9190,-143.3247
-1976.5625,-60.0355,-29.5765,24.8967,-63.2633,167.7941,16.9488,207.3187,122.4233,-9.4093,87.8207,-78.1655,-168.3686,47.8411,-122.7408,29.3795,-83.0766,-62.8741,7.8786,78.5413,-171.7092
-1968.7500,-105.4935,-74.9512,-65.4413,-37.7190,40.6586,36.6164,43.0776,143.1975,-25.5338,145.6162,-94.5793,-111.5095,-4.6835,-66.0561,12.9366,11.5732,-37.2907,67.4957,68.3604,-40.8856
-1960.9375,-2.6892,-8.0776,-101.5279,-40.9243,115.7760,0.5408,154.0936,143.2320,48.5948,72.6697,53.2611,-110.4093,80.7830,-139.1277,86.7458,-25.5209,-321.4937,-5.6334,66.4312,-113.8281
-1953.1250,-54.9066,10.7937,-51.6218,-22.1296,-18.1171,-59.5296,131.1075,47.2754,98.7364,85.7373,-6.9113,-60.3234,-20.1572,-52.1957,-47.4561,-48.6065,189.3516,-161.7668,-20.5005,10.2308
-1945.3125,-116.7749,53.0264,-82.3863,-15.9755,-12.6609,-126.2464,63.4674,89.6800,68.2239,165.1635,35.2748,93.1237,2.4062,-46.9228,31.6911,104.6646,-295.4987,-119.5378,-14.0754,52.6359
-1937.5000,2.6809,32.5622,-27.8487,-35.5164,6.0941,-109.6635,118.1307,70.3799,-23.9859,146.8825,53.7500,-36.1300,32.2923,-65.3439,50.1328,85.2191,-106.0144,-141.0156,1.6477,-2.6714
-1929.6875,-22.3269,-27.3533,-94.7565,-25.5105,-134.6116,-29.5326,-58.6698,150.6355,-53.6484,226.1546,-14.2295,-65.8284,-61.1036,13.7934,-53.8745,128.3211,-24.9607,10.0674,11.9293,113.5730
-1921.8750,18.2609,13.3316,-195.0647,-19.9023,-51.7019,-19.7968,-12.8618,234.5037,-7.7112,237.0328,69.3970,-19.9226,-12.1613,-49.4887,-8.2815,175.0200,-441.3452,15.7591,52.8211,13.3949
-1914.0625,7.8117,2.9655,-97.4179,-66.3395,-63.8487,-32.1006,11.8945,111.3282,17.1621,150.8567,-54.0417,-105.0724,-76.6023,12.1808,-93.7639,125.6599,110.2728,-30.5923,7.6639,38.1576
-1906.2500,-95.4303,-30.1920,-130.5874,-28.5740,-60.8042,-29.1888,-22.1648,114.3723,57.2153,80.8978,22.7252,7.9932,-23.2354,15.0499,-18.0505,128.5118,-237.9546,78.2722,45.7090,41.1127
-1898.4375,90.9364,50.2568,-43.1671,-18.2115,27.8374,-50.6707,103.3855,-16.9659,71.8657,-125.4496,37.0846,-13.3433,25.5741,-6.4871,33.2648,-40.0373,-87.5814,-17.2713,20.3539,-54.3454
-1890.6250,16.8854,47.3078,-15.1431,-22.2525,-125.9370,-22.5515,21.5210,-98.7034,64.1162,-96.1947,-44.9688,51.9283,-65.6727,58.5877,-48.8266,-48.9775,225.4175,14.7914,-18.4017,47.8014
-1882.8125,-52.8578,12.6599,-82.8229,-20.9829,-10.4002,-16.1310,100.9651,16.8600,69.6666,19.3548,-1.7189,57.5080,13.5931,-9.0370,67.3832,30.3878,-301.3290,86.1707,18.1411,-56.7701
-1875.0000,-170.9419,-34.3312,-57.8519,36.9343,13.7872,44.9459,89.0609,5.0714,20.8715,81.5538,-124.8422,-27.2722,-36.7187,14.9899,-17.7701,55.3945,178.6267,38.1997,-28.6665,-68.7010
-1867.1875,-225.7861,-19.0626,-118.6426,52.1021,-82.7763,58.2785,-44.5924,92.5412,-38.6700,169.0087,-74.7199,59.2097,-51.3271,102.2600,-4.6721,142.6453,-123.1938,88.4996,21.7820,-18.3885
-1859.3750,-53.7762,48.0656,-43.5829,49.1241,-7.4785,23.4668,30.6213,130.8660,-0.3576,133.3125,0.2482,24.5428,-9.8300,30.3739,-3.7337,33.7332,-197.1687,-55.3559,19.0864,-127.2516
-1851.5625,-44.4236,56.5386,34.8298,-47.4964,-149.8403,-8.9903,-1.8305,135.5524,4.2880,211.9833,-32.4468,-7.7706,-74.4550,70.8458,-73.4638,-35.8237,164.2462,-116.8559,-42.2647,-12.7644
-1843.7500,-31.5210,70.5707,-22.2158,-69.5561,-96.6538,-65.8847,14.2602,152.8040,94.4631,191.2132,20.4223,82.4737,-15.3900,-22.1393,53.3610,17.1787,-349.8309,-32.7975,76.9391,-69.7422
-1835.9375,32.0588,63.2559,-28.5956,-41.9649,-101.8298,-71.1310,120.0060,73.7028,126.2918,39.0879,-95.0589,3.3576,-84.2689,-28.4804,-62.1736,11.8183,99.7859,-40.1014,104.7915,-112.0802
-1828.1250,-1.2487,30.0373,-102.8790,-39.2831,-102.9221,-35.2830,-28.1544,35.7139,125.2321,38.0689,-96.4367,76.3463,-111.5667,-28.7237,-100.6058,84.5566,-3.5153,67.7050,177.7465,-39.3167
-1820.3125,89.6018,15.9719,-39.0241,16.5497,145.1382,-45.2828,72.8519,26.8912,79.3375,-7.7899,-32.6647,30.4821,-9.3748,-148.8267,-73.8932,-35.5560,-158.6895,53.6561,163.8530,-159.4212
-1812.5000,10.3376,-28.1873,57.7373,42.2872,58.0841,14.6179,21.7460,-23.0323,28.3405,-20.7481,-120.0100,-56.4788,-70.5142,-15.0214,-161.2917,-85.7595,290.0870,44.5049,48.8564,-62.6220
-1804.6875,-68.4811,-1.8835,-24.0605,33.4785,49.4844,42.9652,-22.9068,78.4969,56.7871,80.7442,-91.8955,45.0212,-33.9763,49.2306,-22.2276,-20.4998,-245.7290,71.8078,76.3134,-71.3846
-1796.8750,-17.9872,13.7206,29.4424,13.9756,30.1913,23.6149,67.7419,59.3228,37.5255,24.5350,-111.4846,-11.1889,-31.1902,66.7852,-5.8641,-39.9443,14.7847,-53.5945,21.0608,-90.8609
-1789.0625,-71.0886,31.7248,-31.6631,-3.1222,-103.7161,-0.3307,-67.2249,72.5516,87.6502,110.7304,-98.6747,39.0087,-70.7981,79.7449,6.8973,46.0169,-2.3056,-36.5806,-31.7948,32.0674
-1781.2500,79.3662,111.2886,-91.2239,5.3335,-90.0616,13.2773,20.3688,49.3400,175.3217,51.4756,24.6914,52.7596,4.9363,-16.7526,131.2137,22.5179,-344.8780,-27.0137,-57.0945,-64.4739
-1773.4375,85.3614,117.4104,-51.2308,12.3413,-195.8671,17.4326,-12.4833,-20.3225,141.5373,18.7642,-45.4042,20.0653,-73.7801,60.3095,24.0596,-10.4401,189.1513,-90.9028,-120.8402,12.5361
-1765.6250,-0.6446,66.5449,4.7520,31.3449,-176.6776,-0.4134,-67.3419,36.0305,123.7365,38.0628,84.5130,76.3923,-13.3346,5.3710,42.9021,82.6139,-213.8629,-36.7859,-31.5813,31.5410
-1757.8125,110.3216,36.6433,123.6993,1.3029,-58.5339,-28.3134,51.7526,-28.6767,169.8821,10.3031,92.3790,-25.3349,4.1196,-96.6166,-22.3151,17.6156,2.1006,-171.7304,-25.3851,-33.5193
-1750.0000,79.8937,6.3470,124.2555,-64.1324,-130.7998,-100.6116,-57.5753,-64.7886,206.6145,47.1409,18.8379,11.5471,-47.6747,-94.9855,-22.9438,54.2210,112.6907,-95.0729,-20.6032,77.0227
-1742.1875,122.1784,13.7626,-11.4910,-92.8502,-9.3596,-127.2041,27.7976,20.7985,255.0489,95.6758,67.0052,24.1267,39.4529,-193.6706,136.1467,65.5301,-337.0523,-18.7143,-13.1291,-21.7524
-1734.3750,86.6199,-56.6693,23.9109,-127.4102,-10.7976,-91.6325,26.3186,-17.4685,217.6398,94.3624,-81.6875,-88.1453,-35.5908,-86.2014,24.3807,-9.0178,155.4043,16.7893,-48.5149,13.6220
-1726.5625,45.2074,-27.9369,-21.5580,-98.8156,-19.1016,-62.9079,-19.0236,48.4259,135.3760,87.2126,-16.2321,-22.2412,-19.1743,-57.5773,15.7625,56.5969,-168.0277,115.4604,-19.7493,42.1423
-1718.7500,90.7499,53.7542,31.9166,-18.2605,71.5542,-45.2236,108.5968,-8.7311,79.0562,-42.9905,0.1704,-78.3968,-1.1621,-40.0186,-40.9051,36.1575,-52.4948,20.0860,-44.0346,-88.4080
-1710.9375,30.1757,28.3472,39.3032,27.1980,-68.9005,35.3658,5.1056,-74.9869,12.6328,-73.2979,-103.5348,-71.6514,-61.1080,76.4470,-34.6807,43.6211,238.9680,30.6233,-69.4285,-8.0567
-1703.1250,78.6595,-29.0017,-18.2562,39.7163,20.6995,14.0097,57.6678,-21.1844,65.2552,-19.5488,-13.1863,-54.8474,51.9274,-17.0460,165.6050,59.1340,-275.5643,43.2028,-55.7748,-65.6692
-1695.3125,95.7554,-10.7381,70.7843,-12.1703,0.8923,-5.7538,73.8334,32.2107,45.4807,33.7992,-71.2453,-75.4429,-20.2331,-37.9364,-2.5172,-34.7617,129.5472,-79.6324,-108.5230,-12.6840
-1687.5000,-45.6087,23.0807,-8.6365,21.4961,-77.3757,-11.9706,-77.4628,137.1561,2.2484,138.6960,-3.7498,29.5240,-38.6013,-79.2661,-45.0849,106.9033,-152.8100,-9.8992,-38.7197,91.8494
-1679.6875,23.4788,22.3513,-4.6020,20.6234,-1.1765,-7.7317,-1.3003,103.5566,-30.5411,68.0426,37.2015,-3.0687,7.7410,-77.1490,-5.2085,110.0192,-154.7282,-81.7157,30.5317,-15.1908
-1671.8750,-52.2888,-18.2295,-15.4165,14.9012,-120.8376,18.6665,-48.0027,20.1156,-76.2036,21.5498,-46.7074,-13.5100,-73.0299,134.1224,-88.2001,100.2929,262.5451,-51.3777,-10.0717,84.9221
-1664.0625,-8.5929,-9.3503,-113.7946,58.6334,-74.0543,67.5209,-37.2574,69.1412,-102.4346,-3.4779,37.8439,72.5048,-11.9768,107.8414,-4.7353,111.0255,-221.7822,62.4150,-1.2224,22.4699
-1656.2500,133.8548,-7.7190,-0.4218,60.1162,-33.5354,70.1266,3.2419,-38.0869,-135.9121,-110.7647,41.1312,-34.7331,-14.6186,111.3224,-75.5189,4.5118,201.6707,-41.0456,-70.6320,-11.2329
-1648.4375,3.0520,2.6585,-30.3079,36.3512,-62.2676,41.4814,-98.4993,-66.5634,-164.6309,-65.3012,48.1757,46.7781,0.5122,155.5517,5.4662,48.7535,106.8384,4.2456,-59.2919,69.8077
-1640.6250,6.7998,-28.4131,51.3518,39.1428,19.5462,13.3860,19.3159,-58.4878,-120.7944,-131.2830,129.7667,-18.1645,115.2449,53.3303,161.0016,56.5398,-101.4223,-26.9253,-55.4051,-32.6071
-1632.8125,-7.9004,-42.9246,69.5551,-10.5108,-73.1044,30.8379,-73.3385,-76.8551,-138.4284,-111.7052,73.9095,-37.5441,17.5076,108.6712,-5.9229,37.8799,306.8713,-41.5345,-69.9739,58.5316
-1625.0000,0.1571,35.3293,-32.4801,32.5958,-28.0010,40.0476,-137.2439,5.5293,-129.3379,6.6154,155.8107,118.8302,23.5066,43.7576,-34.1004,83.9689,-213.0972,71.6157,-62.8000,30.4036
-1617.1875,58.7648,59.1413,32.0462,56.2629,72.6445,30.8109,-74.6006,-40.5466,-139.7036,-39.5179,109.2507,36.7542,27.2850,-2.6028,-80.7346,-36.3974,127.5168,-9.6857,-109.0799,-16.1795
-1609.3750,-38.2261,32.3623,-2.0385,29.3339,-33.3130,33.9786,-143.5576,-72.2166,-208.6708,-35.2540,76.0926,77.0906,3.0726,111.4375,-39.9589,40.6360,135.5011,33.4195,-99.9589,97.6297
-1601.5625,26.6495,62.4502,-39.2755,24.2632,39.5734,34.0013,-71.6603,-37.0379,-136.7927,-73.1463,148.7868,40.2822,88.7781,73.3292,105.6620,40.5123,-221.6563,63.3706,-71.0016,-13.7219
-1593.7500,56.5747,-12.4081,-9.4709,19.2454,-78.5064,64.0766,-114.7229,-43.8094,-33.8761,-79.9858,-5.4688,-77.4736,-15.2929,177.2776,25.3336,-3.5518,300.2426,23.3842,-110.9985,15.9790
-1585.9375,45.0962,-23.6662,-58.0699,42.8341,-125.9781,88.7590,-126.1827,56.0234,-8.3697,-91.2219,92.8806,22.3664,16.9266,91.8220,50.6110,21.9946,-133.2778,117.0027,-16.3960,4.2641
-1578.1250,104.8199,35.2818,7.5370,31.6280,-23.2518,44.6464,12.5542,48.0542,-89.6721,-61.2609,85.4212,-21.5999,23.3544,-25.4278,-30.9234,-59.2624,31.4436,35.8171,-27.5995,-77.2567
-1570.3125,24.2931,25.9945,-9.1103,-48.8179,-76.7878,28.2900,-112.9687,68.8379,-105.2397,69.4446,-5.2838,-1.8020,-50.0327,-5.9167,-84.7101,34.2324,126.8952,61.3932,-3.0542,52.9679
-1562.5000,-5.0169,-38.0835,-73.5551,-42.0478,42.8748,1.1422,-68.2942,114.8192,13.3765,115.3471,77.2109,-28.8025,40.6454,-107.2037,34.7001,79.9241,-288.4409,67.1648,108.6776,-11.6205
-1554.6875,65.4286,-108.4166,72.7558,-42.5227,4.2776,-0.2591,-69.8808,3.5436,48.7376,3.9998,39.4507,-103.0559,-17.8381,2.2648,-114.1354,-68.6301,273.9962,-2.3143,39.1570,23.5431
-1546.8750,38.5215,-99.0983,78.7221,36.6569,-26.6640,5.9898,-135.8093,9.9184,-55.2490,-26.7016,119.3512,13.3413,6.0428,8.3733,-107.3090,11.4657,-34.9459,110.8589,11.2870,66.3473
-1539.0625,159.0623,-14.3100,135.1399,51.2910,30.8383,26.6887,-6.2876,-43.2683,-145.7914,-116.9613,64.7008,34.1928,8.8192,28.9332,-89.0363,-4.9926,15.5960,-14.5266,-8.1472,-24.4004
-1531.2500,91.6498,94.5434,94.6003,18.9863,-119.6168,-13.5675,-156.7248,-119.4104,-259.3026,-156.1729,-47.8943,214.1087,-85.1898,172.5589,-91.7106,64.6053,335.1729,-116.8645,-5.5389,118.9068
-1523.4375,45.8031,188.9512,11.6159,-26.7680,-19.5202,-59.2738,-128.6042,-55.0068,-231.2774,-164.8433,15.0671,316.5669,-17.1105,89.7321,8.1734,55.7605,-96.7000,-57.6578,89.6159,72.7547
-1515.6250,70.8114,215.2064,75.4793,-1.6675,-29.5914,-33.1304,-101.6376,-137.7579,-168.4044,-247.6689,-32.1265,232.8748,-61.2926,42.7642,-111.0885,-100.2311,385.2964,-101.5987,44.6140,62.4587
-1507.8125,-19.8702,229.7719,14.6311,48.7395,-125.3623,-18.6811,-198.3763,-87.2038,-118.2391,-161.1973,-18.0109,283.4926,-87.1043,130.0961,-98.0475,-49.9250,118.5585,-17.2281,-11.0927,112.4559
-1500.0000,62.1524,207.0485,-3.5040,95.8506,39.5647,-37.5287,-34.4153,-69.9590,-27.3803,-143.0353,-0.2004,191.8097,-24.3656,38.1330,-44.3136,-69.9277,-45.4493,-111.1673,-34.1031,-16.8522
-1492.1875,-126.1858,193.9788,15.0119,83.6120,-51.8571,-18.7275,-87.8049,-123.0702,28.1255,-123.2218,-90.7412,173.7795,-86.6579,56.8167,-97.9178,-50.2776,363.1857,-123.4515,-81.4634,75.4920
-1484.3750,-186.9618,169.4596,-8.9352,92.9282,71.2775,-5.3762,-76.6322,-74.6286,41.1680,-110.8596,31.2718,261.2993,9.8456,-3.9512,-12.9587,-38.0776,-153.6429,-44.1872,-73.2732,14.3747
-1476.5625,-45.7301,63.9476,105.1114,94.2448,111.3982,-1.0223,37.5284,-180.1858,-65.8001,-180.4924,-1.7162,43.8178,24.3595,73.2935,-46.0144,-180.8713,268.5551,-42.9255,-72.0868,-55.7399
-1468.7500,-91.2543,-50.3097,56.4111,119.8242,62.7644,24.5858,-10.0715,-118.4904,-150.5312,-154.8768,-13.4459,-3.4060,14.7974,135.7868,-57.8175,-119.4109,152.9789,87.5926,23.3508,-30.6077
-1460.9375,-18.9368,-13.7152,-9.4232,191.2639,143.9813,105.0492,107.1851,-36.9530,-217.4198,-184.4231,30.6687,-69.7900,74.9228,33.1341,-13.7704,-111.1031,-92.7182,88.9568,94.6297,-170.6308
-1453.1250,-18.2191,58.2784,25.1399,157.1073,31.5923,103.9109,31.8373,-38.0231,-218.9153,-149.5768,-118.8215,-33.7720,-43.1961,67.8938,-126.3181,-187.3932,401.9924,19.7257,61.3083,-99.2506
-1445.3125,-104.0895,77.6826,-27.9058,141.3622,89.6063,88.1758,15.8981,-17.6993,-125.0239,-91.3404,-60.9109,97.6453,26.1915,52.0592,41.5483,-92.2875,-141.9109,39.8995,80.3836,-115.4849
-1437.5000,-33.3084,8.7446,11.7018,142.2795,128.2585,91.0985,165.6025,-51.7314,-122.4875,-125.4558,-132.3569,-10.2878,39.4875,-19.1191,81.0603,-89.5356,104.8709,-65.2856,11.0992,-150.0713
-1429.6875,-97.7286,-91.3888,-25.8977,78.0064,54.7080,53.8218,18.1015,-51.9648,-87.1549,-15.7723,-96.9926,-10.4165,7.2610,54.4945,43.3806,-16.9751,110.4259,-23.6636,-18.3863,-3.8583
-1421.8750,-17.2494,-10.6246,-49.5959,17.6359,141.0633,29.4426,67.5037,-1.3028,0.0745,-2.1895,63.2747,3.3520,72.9680,-42.9915,55.6059,-40.5169,-266.1044,-14.1490,-8.9836,-64.7492
-1414.0625,-17.1760,59.7431,20.3130,-17.1299,64.0144,-10.3412,27.4956,-79.0477,32.8946,-6.0134,-50.8609,-0.2770,-21.9485,-46.8676,-58.5655,-117.4594,225.9746,-50.0357,-44.9863,4.9697
-1406.2500,-107.6381,40.5733,-1.3223,-37.4391,79.4143,-31.6806,5.9413,-63.3470,48.1546,-27.4030,-35.5310,89.5452,24.4998,-68.2929,67.7230,8.0463,-144.5145,36.5244,6.4537,20.1320
-1398.4375,-60.5395,16.9618,14.6091,-25.1991,132.3550,-14.4726,132.9406,-83.1128,100.9579,-121.2586,-92.6514,-4.0896,47.7512,-51.1638,120.5633,-85.9004,41.5837,-22.3761,17.4367,-74.1511
-1390.6250,-79.3410,-36.5483,-47.3691,-8.8521,-3.6127,-3.1626,-2.9678,-70.7868,75.8589,-72.0221,-116.6641,-29.6196,-28.6603,34.0699,21.5139,-37.7412,199.7604,99.8356,34.5169,47.6712
-1382.8125,58.5606,-3.3542,-83.6529,59.2013,34.1230,34.8533,34.8282,3.2347,39.4502,1.9105,30.0234,-28.4528,39.3962,-112.9915,58.1747,0.1161,-225.3587,132.7407,-3.7094,-25.8125
-1375.0000,62.0565,-35.5611,28.6558,27.8560,-1.5478,36.4725,36.2146,-69.1468,40.6335,-33.5517,-42.6950,-99.6875,14.6655,-37.4428,60.4361,-35.4193,235.1398,-4.7589,-140.3401,12.3151
-1367.1875,-101.5503,-23.8664,-36.1392,3.4184,-29.3172,8.9909,-64.5008,-22.6238,49.7050,12.8909,3.4965,19.9834,35.4074,83.0003,142.6019,47.9486,-70.4855,41.6474,-130.0721,58.3386
-1359.3750,-5.4512,73.5345,-2.2287,65.6860,40.6046,6.2061,5.4873,-99.4071,-27.5262,-26.9722,36.3836,53.3457,33.0016,79.1508,65.4696,8.0093,-8.3777,-37.2540,-174.1112,-55.9404
-1351.5625,-19.8039,60.4804,125.2331,122.5120,-51.9288,-13.0248,-86.9831,-190.6431,-83.2102,-46.2875,-19.1763,72.2566,-41.9833,133.8544,-64.1030,-11.3797,329.2647,-16.5948,-222.6001,35.3318
-1343.7500,-22.4124,22.1742,88.4536,120.0959,22.2945,24.4979,23.3074,-118.1399,-10.1433,-82.8667,54.0170,71.9118,57.5142,24.3033,83.0798,-11.0186,-166.3438,15.8133,-121.3428,-38.6522
-1335.9375,-40.3226,4.5698,32.3752,101.3808,2.2087,4.7202,150.2932,-172.9475,6.6170,-138.7525,-76.0907,-20.7389,11.3530,77.4626,62.9566,-67.9540,272.7735,-73.0790,-104.3924,-21.9233
-1328.1250,-70.1264,10.0640,-75.6164,72.7707,-32.7729,-29.9568,5.3717,-96.6571,-28.5320,-62.5435,-37.0903,18.7171,1.9595,80.7257,65.9484,8.2231,67.9580,3.1326,6.6596,53.9046
-1320.3125,50.6754,61.1670,55.9977,52.7649,173.8452,-44.0340,101.0502,-112.7810,-6.0904,-77.7443,21.5099,-69.2366,73.9475,-118.4120,50.5465,-80.0073,-22.2244,-16.0637,-47.6912,-71.6689
-1312.5000,-0.1253,-25.3334,182.0129,37.1663,78.8622,-65.7121,80.1240,-169.5123,-28.2514,-62.5480,-36.4871,-125.7935,13.6748,-29.1513,-44.4536,-64.8425,348.9960,-32.8501,-99.6453,17.1631
-1304.6875,58.2305,-0.6821,60.1890,-9.2737,103.0421,-40.2390,104.3573,-108.1025,-40.2699,-37.2137,62.6712,-28.2051,55.9526,-77.7438,17.7006,34.4662,-190.6400,26.5105,-41.4616,5.1380
-1296.8750,168.7359,4.1214,100.5146,-40.5658,71.3694,-72.6187,72.7421,-103.5519,-73.1458,-69.7340,29.9730,-60.4679,12.9239,-36.1780,-51.9948,-35.0736,165.9013,-74.9851,-37.1358,9.2713
-1289.0625,28.3389,-28.9789,59.9304,-3.7545,-42.2034,-37.8990,-114.7693,-69.9042,-75.9304,0.8397,25.3901,10.3699,-34.5047,70.4826,-91.5680,-1.5059,96.5053,31.6262,-0.7007,115.5077
-1281.2500,64.0955,6.0652,28.5004,67.2047,35.3722,39.9684,-74.1208,-29.1150,-35.5634,5.5517,67.9631,-21.6550,39.5386,-34.7058,23.0137,-33.7978,-184.7165,32.3779,-0.1119,9.8957
-1273.4375,45.6987,-12.0460,4.9247,14.0086,-97.2071,53.6799,-58.6352,-14.4842,-21.3484,19.1064,-64.6082,-116.8312,-25.0028,-20.0277,36.4468,16.7623,218.9178,-21.0217,-18.6684,97.1474
-1265.6250,-23.4933,-10.9545,-103.4490,-19.9845,-133.5820,17.5908,-57.9455,59.3437,52.0665,93.8590,8.0242,-5.8111,24.1356,-55.1512,184.0868,128.5259,-272.2702,14.7782,51.9733,97.5988
-1257.8125,-5.7345,43.0892,-82.8750,-72.0326,-76.0185,2.4501,35.6940,44.1179,110.4347,115.5628,-7.3982,-57.8496,0.7392,-35.3272,95.6754,39.2423,-78.4788,-37.4798,-0.4368,45.0111
-1250.0000,-98.4780,20.6280,-112.8101,-94.5814,-178.9537,10.8051,-104.1658,87.3932,116.2997,232.7724,-73.3129,23.6156,-92.6459,9.9955,-7.2209,119.4545,4.7831,10.7696,-58.3478,161.9276
-1242.1875,-81.4108,-34.0439,-54.9361,-8.3255,-48.0772,-6.0419,-10.2185,109.4566,63.9564,179.7711,20.5790,6.8713,14.9632,-42.8809,86.6927,177.4575,-296.1413,-9.1863,-76.4686,72.6395
-1234.3750,-73.1500,-94.5177,62.1400,1.1329,-114.0000,-33.6901,33.9216,6.7052,-2.1975,113.9597,-81.3297,-57.6743,-38.2361,37.4520,19.8131,111.6675,240.1459,-104.9421,-103.3971,116.5672
-1226.5625,-42.9389,4.9667,-52.8279,-4.4574,-82.9680,-39.3936,-7.9878,36.8928,-44.4117,108.0845,21.7264,9.7323,14.5225,-40.2715,87.8980,142.8303,-186.6397,29.2552,-38.3729,110.4451
-1218.7500,125.5730,34.7483,-18.4856,-9.7496,25.3616,-41.7980,64.4000,36.3701,-10.3314,33.5000,58.0784,-65.5743,28.4242,-115.6894,13.2862,31.2849,-53.0915,-47.2476,-46.0486,-1.3720
-1210.9375,5.4792,-49.0798,72.2524,-58.6395,-30.9098,-23.7987,7.1862,-19.7502,-29.8551,13.3150,0.8351,-120.4893,-35.9732,11.2952,-115.9211,48.1476,178.8317,8.6652,9.6802,89.2130
-1203.1250,12.8965,-113.4082,47.4931,-17.0250,127.3242,-12.2969,56.4813,-8.3732,-55.8720,-11.3752,86.0916,-108.9179,60.5245,-13.2266,-31.6288,60.5058,-235.7377,86.0699,51.9053,-9.7084
-1195.3125,78.5633,-117.4986,152.9852,-21.1643,122.8015,-16.5477,-21.9770,-49.7576,-133.6330,-15.8219,8.5965,-113.1036,-0.9887,56.5094,-146.0842,-54.8919,251.9682,46.7237,12.3837,-14.3676
-1187.5000,-17.5183,-72.3456,50.7240,23.9482,20.5364,28.4515,-123.1824,32.1071,-89.1541,28.9781,16.3606,4.9561,-19.7083,64.4943,-101.2687,26.9537,-90.1007,126.6359,57.1176,30.2189
-1179.6875,18.4464,33.8565,18.5194,59.1144,99.3312,-2.5010,27.6639,37.0116,-10.6290,-2.1771,-14.8258,-25.9447,14.6999,-40.4740,-22.4075,-4.1630,-125.0826,56.5904,21.9021,-75.1426
-1171.8750,-53.7047,32.9526,49.2201,23.1829,-17.9731,27.4471,21.4029,-6.1876,-18.2044,-9.4347,-95.1099,-32.9459,-58.2499,-10.5390,-102.6440,-11.3701,190.8267,20.4511,20.5865,28.4045
-1164.0625,-45.3452,5.5429,23.4230,65.7539,30.2283,1.8927,32.6508,42.1067,65.7246,38.7948,26.1049,15.5413,29.6435,-110.1079,18.6305,-0.0745,-293.7647,62.8037,62.7714,-34.5465
-1156.2500,60.5226,6.6248,24.1291,66.8174,-43.0867,2.8290,33.4012,5.8877,140.1669,39.5161,-84.1804,-94.4864,-31.3867,-35.1724,19.4089,-36.2796,129.1740,-41.3537,-41.5449,-33.9793
-1148.4375,51.2406,-38.4447,-100.3112,57.7306,-130.5479,24.6101,-55.0033,27.5177,125.4542,98.0917,-61.6000,-34.6631,-53.1549,60.6063,41.0494,22.3614,-57.0629,18.3398,-52.0126,61.4411
-1140.6250,61.6678,-26.8110,-49.0311,33.3408,-5.2962,4.0837,107.2889,6.8327,66.4305,3.3614,-9.3182,-56.1495,24.4632,40.0796,93.3844,1.6998,-185.5648,-40.2753,-5.7909,-33.4336
-1132.8125,-79.7009,-62.9900,20.4488,-72.8532,-46.8405,-37.2478,66.7730,-34.6683,99.6068,-1.1837,-122.8286,-59.4393,-54.1841,35.7537,-21.0722,-2.7541,235.1303,-6.6849,28.6382,35.9070
-1125.0000,-144.1175,-92.2305,-7.1193,-102.0964,72.5712,-27.6283,39.2130,84.7750,107.7436,118.2090,-41.3793,-13.7923,23.4089,-65.6155,61.4396,79.7324,-321.2444,104.8550,104.0189,-28.8003
-1117.1875,-12.8489,-136.7811,58.0160,-75.6448,64.6752,1.6893,104.3562,76.9100,62.5809,110.3065,-49.2385,-132.4536,4.1255,-73.2772,-19.3407,34.9146,20.1073,-9.9073,59.0995,-73.7927
-1109.3750,-6.3383,-93.0889,-13.6073,-102.9420,-6.9672,-33.7454,-4.2513,79.2982,27.6688,112.6508,-10.8409,-91.8698,-9.8854,-70.6934,-17.8598,74.3538,-43.3209,67.5885,66.4407,38.4718
-1101.5625,66.1276,-92.4557,-80.2748,-102.2937,73.3389,10.7699,113.0969,122.6306,70.7182,81.9406,69.5040,-159.3543,78.8552,-138.1658,99.5772,43.7405,-321.7785,69.0297,103.7336,-65.3118
-1093.7500,30.0842,-92.3314,-86.4440,-102.1532,-79.8560,40.7777,-4.0567,42.4652,64.2794,38.7418,26.3428,-128.3454,11.1073,2.8634,56.5165,0.6251,168.2627,32.9745,31.5327,38.4145
-1085.9375,28.3907,46.1354,-162.2665,-33.6693,-118.6880,38.1300,-152.8441,2.6545,24.2015,-37.1088,134.5313,163.0010,37.6469,0.2348,127.8142,34.8599,-253.3678,102.2670,29.6896,72.4876
-1078.1250,96.0430,184.9405,-15.7352,-0.8423,-119.1735,38.8261,-80.2741,-106.8142,-49.5124,-110.6157,61.0649,236.6841,-1.3172,-73.0410,54.4618,-75.5601,59.3854,28.9034,-7.7993,-1.0777
-1070.3125,-75.1072,118.9425,23.9941,3.1790,-115.4680,41.7216,-112.5100,-67.0807,-83.0252,-34.9228,-83.1930,276.5708,-64.6741,-33.1241,-16.6774,-35.7750,169.3144,68.7467,-4.0821,38.5667
-1062.5000,-81.8080,77.3936,-49.8219,31.6466,29.6931,78.0612,-4.2875,5.0997,-11.0800,1.2225,-47.0018,201.8979,15.3757,-32.7656,93.6377,-35.5401,-189.2949,26.0268,24.0896,-109.3381
-1054.6875,-55.5697,32.7827,12.3167,23.0533,-17.1981,67.3412,21.8820,-41.7763,51.8278,-45.6794,-131.8652,44.1614,-55.8102,66.5496,-27.0891,-120.3554,330.0578,-87.7443,15.2205,-83.2766
-1046.8750,-57.0258,-3.5424,9.7548,56.7545,-20.7769,63.9179,-17.6410,-8.3559,48.0395,-12.2874,-61.4154,114.7137,-31.5584,100.1584,6.5024,-12.8760,-58.3088,-90.2073,13.6515,-49.9154
-1039.0625,54.2729,1.8678,54.9530,98.2028,24.3937,36.2478,64.5886,-0.1979,-16.9953,-40.1561,-16.2192,12.9959,-0.5589,-1.4827,-22.1509,-40.6530,53.1136,-118.9204,-16.1752,-114.7939
-1031.2500,-63.7317,-10.0301,-0.1509,86.3548,-103.7366,92.2802,-27.4833,18.6555,-72.3303,14.6683,-34.3120,31.9725,-51.1946,54.5718,-77.1032,-22.7253,217.2152,-60.9227,-63.3059,14.0411
-1023.4375,-71.7334,17.0661,-79.2459,113.5050,1.1471,86.3102,4.4540,86.4999,-77.6658,45.4852,70.6014,26.9349,65.4257,-24.3870,101.9484,9.1947,-248.6754,-33.9269,-36.4377,-65.1227
-1015.6250,37.3995,21.2953,33.8139,81.7961,3.1827,88.4838,-30.4569,-21.5147,-112.8357,-62.5474,-0.3411,-44.9672,19.4694,87.8062,31.1577,-62.7392,212.6067,-135.7786,-103.4167,-26.1237
-1007.8125,-33.2684,56.7073,30.0712,82.2776,-37.5712,11.8513,-143.1580,-25.3257,-188.7891,-65.3828,32.9263,99.3203,8.4743,158.1941,27.5826,7.5236,-68.9368,-30.4244,-68.1888,44.0731
-1000.0000,52.0231,36.0623,49.2869,26.6984,92.6265,-41.8384,23.0921,-5.1919,-133.7766,-83.2677,52.1369,45.5423,58.1351,31.5328,46.9528,-46.2718,-124.4940,-86.1299,-18.0123,-46.7756
-992.1875,11.0050,-73.8904,2.2023,-83.1882,8.5254,-87.8321,12.0354,-16.3558,-34.0523,-20.4448,5.0477,-38.5404,4.7092,57.5678,0.0291,-20.3643,151.6293,-56.1265,46.8703,53.0875
-984.3750,21.1301,-134.7020,-95.7288,-143.9299,58.5904,-112.6764,98.1370,106.6323,52.8301,102.5316,91.1078,-26.4901,68.2680,-40.2515,86.2649,-7.3085,-330.1064,24.0235,125.9045,-7.8996
-976.5625,-25.0569,-111.8278,6.0487,-155.9860,48.3538,-85.8239,125.9369,97.3164,116.4187,56.2055,-28.1391,-109.7516,2.0170,-86.3701,-32.7963,-90.5527,150.8878,-22.1276,115.6461,-54.1701
-968.7500,-153.1887,-99.9231,15.8726,-109.0005,-14.8237,-75.9255,25.7924,107.0538,126.0673,139.9227,-18.3322,-62.9758,8.8030,-112.4467,14.1987,-80.7401,-13.0986,94.7801,91.4553,-7.3863
-960.9375,-37.6688,-53.3835,31.3516,-62.3769,37.6550,-22.3804,115.3159,123.4415,105.3852,45.2882,71.1134,-120.5775,106.4357,-206.8767,140.8349,-138.2854,-213.4059,71.3324,102.9288,-101.9514
-953.1250,3.7335,-47.9638,-4.2659,-91.8664,-71.9654,-21.9403,42.7404,50.7360,69.6173,46.5663,-38.5460,-118.2926,5.6701,-59.4080,68.3729,-99.9244,180.1855,6.7896,73.3156,9.3950
-945.3125,14.4809,-1.2087,-102.5351,-81.0138,-22.2210,-46.1529,18.5299,99.3859,45.2127,95.2015,84.1494,3.3232,26.9745,-46.5962,44.2723,22.7871,-300.8878,17.5922,155.0563,-14.9103
-937.5000,67.2272,-53.4719,-6.8027,-133.1730,72.5223,-61.3726,76.3227,47.0332,-7.1672,42.8397,68.8372,-86.0805,19.6426,12.2120,-44.8252,7.4951,68.0652,-140.6095,137.8012,-67.2024
-929.6875,-55.0793,-70.7976,-29.1236,-149.3959,14.2211,-82.6509,-18.9288,62.6307,-29.5732,95.4260,-26.5227,-34.5360,-10.4431,26.9571,7.0405,59.1520,16.9411,-51.8558,155.5063,21.4634
-921.8750,-51.2330,-102.9802,-94.2801,-111.4807,170.0775,-74.7853,99.9777,107.3696,89.1857,103.1591,18.2604,-62.8565,87.9598,-112.1545,126.0636,-43.0514,-296.0101,22.0479,159.3625,-80.7183
-914.0625,-102.0932,-151.8792,-2.1363,-91.2720,151.2277,-56.6208,81.1748,52.4056,181.2503,11.1989,-73.6624,-153.8832,-3.7490,-19.9678,-76.6121,-98.9443,181.3452,42.2609,73.5260,-25.5844
-906.2500,-88.0048,-172.8283,-60.0361,-112.1223,167.3356,-40.5092,134.3265,31.3949,197.2771,-46.8180,16.3724,-65.9678,67.2824,-40.8425,49.6654,-45.8863,-296.3678,127.4236,123.6443,-46.4985
-898.4375,3.2834,-82.5838,-70.7208,-90.7880,192.6445,-15.2074,270.6877,-53.4230,112.5213,-131.6403,4.5997,-113.8713,95.2683,-15.5122,113.1352,-93.6418,-99.8458,6.7800,73.9652,-131.1981
-890.6250,-21.7308,-2.6628,-103.7082,-80.7678,12.6562,-11.2136,90.7563,-50.5340,42.4893,-90.7541,-65.4748,-0.0881,1.6122,99.5090,80.3185,-53.7011,-19.6504,-18.1497,48.9980,19.8108
-882.8125,62.3550,11.3411,-87.5981,-31.6517,65.7782,-31.1203,106.9440,-33.5424,22.5849,-111.7634,25.5368,53.7701,57.7039,42.6132,133.6072,0.3396,-321.3415,-3.9814,-7.8586,-37.0875
-875.0000,92.1874,-29.9108,53.2666,-107.7937,95.6484,-111.2858,99.8770,-149.8020,-21.5536,-154.0147,-18.7123,-27.6280,44.9138,35.4653,89.6389,-43.8628,235.7343,-80.0650,-83.9617,-7.2280
-867.1875,-17.0249,-33.2135,48.0880,-109.9962,127.4844,-115.5082,21.7653,-118.1106,10.2689,-86.3171,49.9990,3.9156,94.4780,-43.7370,158.6311,61.8785,-118.2730,-13.2023,-17.1132,24.5798
-859.3750,18.5149,-32.7812,87.6740,-76.4698,131.0747,-113.9911,61.4093,-42.6714,86.8570,-9.8741,89.4587,-103.8069,89.0545,-77.1935,88.3760,28.3637,-84.4998,-83.5961,-16.5160,-45.8488
-851.5625,-41.4992,-92.9161,56.7065,-64.5132,-82.8756,-34.0333,-115.4934,36.2247,55.9125,69.0277,21.3718,-60.0864,-50.2975,75.7816,-88.4175,107.3020,137.6962,-71.5301,-6.4611,70.1877
-843.7500,82.2376,-75.3098,-67.5084,-11.8141,-24.0684,25.6749,-56.6330,95.8685,5.7378,55.6787,81.0318,35.3674,-6.5532,62.4940,-29.4518,92.9837,-300.3579,-18.7145,12.3490,-17.0247
-835.9375,88.7559,2.0833,-60.9184,-5.3238,-91.4704,32.1781,24.0238,29.3125,-61.6141,-48.8682,-22.5165,-32.3969,-40.7492,105.0156,-22.6897,26.4613,198.4133,-118.0923,-16.0363,-10.4218
-828.1250,-75.8846,48.3080,-123.4783,-29.9941,-154.0094,4.5290,-40.4545,38.6179,-15.0899,-2.5485,23.7793,50.6735,-9.5518,151.3677,97.9290,72.7916,-71.9978,-71.6156,30.4423,36.0297
-820.3125,104.6654,86.7137,-78.8349,-60.4795,-35.3441,-59.9236,42.2848,11.1297,67.6674,-30.0206,69.2565,58.9162,12.8108,49.9035,69.7456,8.3199,-138.1676,-137.9457,34.1268,-65.3135
-812.5000,111.8979,94.7999,-2.4894,-53.2808,-68.9755,-20.6880,-64.2743,-59.6526,34.1532,-27.7854,-1.5744,61.8497,-75.2391,16.1336,-109.7332,10.5528,186.3547,-59.5685,-28.4761,48.0552
-804.6875,-2.8144,-21.0755,-10.0826,7.9523,33.4554,45.5905,-35.7729,5.6184,-10.2884,1.5046,64.6491,90.8210,23.3205,-65.5910,-8.1605,39.8300,-279.0837,36.8518,67.9730,3.4716
-796.8750,21.9737,-66.4635,89.8333,-2.3389,60.3887,-1.6439,138.2333,-78.6090,16.7946,-118.6908,-19.6331,-67.7254,36.4635,-1.8147,18.9119,-117.3927,167.9990,-79.2396,57.9157,-6.5972
-789.0625,75.8082,-46.8176,67.8011,-17.6005,-34.6249,-96.8405,42.3026,-136.7762,67.9494,-140.8287,142.1366,-52.2314,59.7853,12.9971,33.0571,-102.5571,46.0902,-59.2776,41.9169,118.3914
-781.2500,229.5403,-35.2869,83.6758,-6.9780,90.2655,-118.1445,95.2862,-121.0437,84.0237,-125.0692,230.7938,-147.8654,108.9791,-118.2966,12.1027,-50.8239,-151.8884,-12.4185,-16.1687,60.2882
-773.4375,95.1572,-132.8723,85.4479,0.5348,-16.9415,-42.5537,-48.8292,-45.4089,14.0200,-12.4061,49.3402,-219.6055,11.5731,-42.6937,-57.9605,-11.1831,242.0282,31.3548,-8.3424,173.0992
-765.6250,-65.7267,-83.9674,-7.2787,15.5366,-37.6347,46.5356,-69.4320,43.7320,-6.4536,3.7569,101.3832,-129.8636,82.4898,-100.5985,104.4900,40.9535,-235.5755,114.6267,75.9909,152.4085
-757.8125,-0.9276,-19.3804,26.6984,-25.7776,-3.6274,44.3214,1.6686,4.5738,64.8051,-35.3739,63.1130,-169.4413,35.5476,-101.8013,-7.3628,-34.2118,76.5549,4.5998,72.0267,77.4297
-750.0000,-106.2947,-89.9533,-12.4739,-26.2532,-42.7647,40.9547,-111.3764,2.2754,60.9359,107.3566,58.6959,-63.1721,-4.5906,4.8294,-46.3643,35.4757,40.5033,39.4358,1.9228,147.3060
-742.1875,13.0916,-74.7775,-30.8865,23.0175,86.8546,23.3367,-54.6654,20.7305,-29.1673,53.8381,152.0134,-44.1662,74.8595,-13.8087,9.3749,17.8982,-259.7661,55.0244,-19.4273,56.9307
-734.3750,-46.8245,-30.9090,13.4082,32.9715,-15.8220,30.4107,-10.2586,-45.1131,-131.5487,-48.9740,48.0164,-37.4725,11.9115,66.2511,-56.1861,-10.9813,171.6718,29.3210,-44.0718,137.2667
-726.5625,-139.7921,16.8964,-84.3456,44.8635,-40.5309,78.4289,-34.8843,4.0006,-81.9562,-36.8312,59.9647,83.1573,20.2574,6.2528,-6.7913,1.0894,-237.9609,111.5695,73.2367,149.5465
-718.7500,-17.7660,-2.3235,-26.0920,62.7422,54.7641,64.4472,60.4978,-11.8799,-23.3409,-124.6775,45.8984,-41.2361,30.3610,-45.7437,-58.4086,-86.8417,-9.5602,23.8186,91.5471,61.8338
-710.9375,-9.1458,42.0357,-21.2381,0.2079,-88.3400,32.0620,-45.5152,-7.1424,-55.1021,-84.9122,13.4331,-1.0404,-39.6857,31.8503,-91.4255,26.8339,104.4078,33.6797,30.4707,175.7250
-703.1250,85.0217,99.9387,-103.8184,-9.7898,-22.8857,-13.7806,-53.9619,56.1516,-63.2856,16.4109,113.5030,61.6867,34.8141,-51.0154,46.1039,53.0545,-292.0554,-11.9232,18.9496,130.1622
-695.3125,91.6764,37.3402,12.1094,-74.3073,-54.9382,-83.1341,-121.9074,25.9485,-20.9412,94.2421,45.0582,-6.0928,-34.4210,27.6135,-57.8665,22.7779,171.9971,-111.0244,-44.0690,172.1149
-687.5000,-27.1159,-12.7234,33.5856,-53.2938,-70.4301,-97.9467,-174.2959,83.3081,0.9873,152.6372,102.1617,51.6689,-18.5676,-25.2306,-73.2734,80.0560,-158.4314,15.4273,48.4733,193.6154
-679.6875,15.9931,-4.9106,47.9737,-45.4004,54.9788,-82.8704,-12.7714,61.5708,89.8518,94.9444,44.1460,-44.6952,-6.2589,-120.1803,-93.7885,21.2293,-43.9223,-11.2270,56.9211,62.0231
-671.8750,0.5839,-90.6113,-7.1389,-25.0284,-73.1085,-65.3023,-66.7389,6.3474,71.2474,149.7625,-47.3787,-100.5706,-88.3941,43.3674,-149.7973,2.9082,222.0569,43.6300,40.8806,116.9368
-664.0625,53.0230,-74.4733,-94.3922,-8.8221,60.6718,-42.8899,-43.8268,66.9826,59.5229,136.4366,11.9320,-78.6161,-11.3500,-6.2471,-52.9555,-10.5742,-182.1162,131.3317,93.6996,-6.3067
-656.2500,33.8048,-94.0023,34.7034,6.7127,77.8010,11.8676,11.4428,10.9774,77.1831,7.4790,-118.4250,-170.3270,-43.6126,-62.5187,-108.7700,-66.7054,327.0788,77.3835,74.8723,-25.1873
-648.4375,-96.0654,-117.1925,44.1425,17.5779,51.2895,57.9688,-88.9317,20.3419,51.2152,16.8881,-72.4322,-88.6967,-7.7096,-53.4567,-25.2193,53.5287,91.5770,123.7945,51.4004,21.2818
-640.6250,60.9112,-66.5372,102.4394,33.2798,72.6240,41.9121,42.5524,-31.4369,-36.8783,-71.8488,-13.6105,-68.2342,41.3810,-68.5471,33.1757,1.6109,2.9701,35.0487,-2.2176,-67.3934
-632.8125,28.2196,-65.5407,100.0897,-0.6856,-40.6919,39.1970,-69.6054,-70.8592,-39.5937,-38.2284,-90.4491,1.5795,-59.9941,38.7097,-79.0779,-1.9629,321.6981,37.6680,-70.4783,40.2902
-625.0000,5.9839,17.8958,6.2002,12.7911,13.4640,18.9267,-53.2945,-17.8336,-21.8281,15.8409,-0.8454,90.8280,-0.3345,-18.6028,11.1185,14.9025,-192.1255,85.7395,13.7091,-16.5838
-617.1875,58.3389,69.9073,25.9233,-5.1443,33.2246,1.2535,40.6147,-35.2036,35.5674,-75.4766,-92.6624,-0.3552,-39.4682,0.6796,-43.0938,-76.6324,212.6890,-36.5837,-38.4986,-33.8476
-609.3750,-16.3697,100.8474,-20.3986,-10.1426,-85.0526,-8.4725,-77.5122,-7.6072,26.9467,-10.8272,-64.5273,63.3882,-71.1604,64.8993,-51.3535,-12.2099,103.4135,29.0479,-42.7446,67.8332
-601.5625,53.6837,64.5347,22.0416,-10.4074,29.4246,-40.4557,0.1244,34.7473,33.1018,31.5812,49.3478,-6.1377,15.0429,-78.1361,-9.8724,-7.0458,-108.0818,29.4119,-42.2442,-37.7379
-593.7500,10.7315,-49.7798,84.4789,-54.6915,-19.1053,-52.4494,-11.2406,23.1142,59.2830,94.0064,-35.7873,-91.6557,-43.1933,-53.1805,-94.3930,-18.8744,306.4094,-14.2223,-50.7394,24.7046
-585.9375,-21.2222,-47.0952,52.9149,-51.9904,23.3670,-84.4483,-5.5824,28.4988,65.4958,98.4346,79.0649,-14.1797,36.5600,-85.2398,21.0903,60.3017,-112.1193,25.1461,-11.2295,-6.8575
-578.1250,73.9140,-56.3203,155.4552,8.7945,51.9317,-55.3508,24.1773,-16.0166,-15.1583,-19.0285,33.9905,-133.6155,43.2928,-56.1969,13.6595,15.5766,230.5009,-54.3843,-91.6161,-51.3070
-570.3125,15.4453,-79.1495,126.3980,19.9687,-86.0935,-47.8624,-114.6551,-45.1257,-79.3770,-12.0886,41.3070,-52.6530,-16.7327,24.2348,-52.3561,133.2486,278.4825,-7.5047,-77.5978,66.6423
-562.5000,28.1740,-32.7877,69.5616,-2.6766,41.0976,-68.1843,-24.2618,8.9664,-62.3580,6.0571,168.8051,0.4911,65.9383,-32.1495,1.8266,113.1089,-96.3091,-65.4424,-30.3764,-26.2147
-554.6875,53.4299,27.1100,94.2775,-48.7930,-9.1631,-80.9690,-109.3185,-41.3774,-73.7540,66.7753,44.8362,-13.8198,-41.3647,65.0130,-120.4492,63.5279,316.4521,-108.8267,-75.5998,34.4924
-546.8750,113.9809,87.3005,-25.7119,-23.6238,-91.1104,-17.4588,-192.0599,60.5966,-81.8229,130.8077,72.1575,87.1641,-46.4568,18.4684,-57.4220,127.2518,-113.5218,22.0987,-49.5193,25.4940
-539.0625,205.3806,2.3303,37.1584,32.3775,-65.2067,81.8996,-92.9403,49.4224,-92.0229,46.6964,23.2991,-35.0150,-45.3528,-29.2298,-104.5579,6.8220,118.4079,7.8799,7.4076,-58.6492
-531.2500,23.7720,-74.6460,27.0277,61.3727,-185.3009,144.2532,-175.8090,76.2586,-137.1916,73.5881,-61.5726,-10.1984,-103.1842,70.0575,-150.6905,32.3973,288.3030,107.6748,37.3422,41.2060
-523.4375,-41.7353,0.4774,-35.9898,136.4563,-65.2828,154.7046,-129.5557,123.1962,-53.2266,46.5818,21.6370,35.7014,-24.8495,6.4333,-67.7214,42.0609,-128.6826,113.5557,42.3754,-58.8497
-515.6250,-41.8549,69.9912,-0.5980,170.9186,-103.8717,189.5463,-129.9033,48.5393,-16.8239,-28.0148,-90.7720,-40.0036,-92.6062,41.2093,-142.3466,4.1284,329.7411,42.8350,-63.1918,-23.4928
-507.8125,-66.7274,45.7511,-100.9557,145.6118,-166.1994,161.6271,-155.9839,95.1484,-6.1389,55.6472,-7.9315,42.5396,-63.5824,13.2228,-59.7138,87.4487,-81.6333,124.3682,-16.5004,23.1095
-500.0000,31.2436,2.3538,-103.4517,68.1328,-58.6777,122.5471,24.7988,92.6076,66.4241,90.1674,25.7347,-34.0806,-2.8217,-25.9108,11.7537,-25.3823,-88.1087,11.7483,-22.9577,-89.4313
-492.1875,-70.2002,-28.4511,-28.3484,36.2382,-94.5502,86.0629,-9.8144,20.6815,142.6140,55.3027,-84.0089,-34.0994,-81.1979,48.5383,-97.1798,-61.6080,197.9857,51.7426,-17.8038,-14.3665
-484.3750,-11.6416,28.7351,-0.2352,59.3340,7.5940,40.5738,18.5912,11.7651,135.8376,-26.5559,17.2289,66.8632,-5.7956,-71.0306,-31.1190,-32.8487,-200.9070,75.7382,5.3555,-96.3127
-476.5625,111.3095,45.3139,91.2844,39.8179,-10.8682,20.4801,0.3929,-80.7489,80.4911,-83.0042,-39.1593,-26.7765,-43.5431,-91.1939,-87.6712,-52.6920,274.6362,-12.8673,-47.0824,-78.8502
-468.7500,8.7073,48.3401,-18.7496,7.7408,-47.8659,20.8336,-73.3383,-6.7974,8.6181,-8.9983,-40.1024,46.0334,-39.6153,-54.9152,-13.7655,93.9174,-3.4189,25.9842,-8.0669,-4.9470
-460.9375,-14.3916,95.8630,-1.2733,19.1517,43.6414,0.6786,18.4457,10.6562,27.2667,-27.4863,-23.5679,62.3259,4.8478,-74.1384,40.6307,112.0240,-95.9271,-66.6772,-30.5568,-97.5431
-453.1250,-120.1127,94.7796,31.6058,18.9478,-71.4578,-4.0805,-59.3740,-30.4762,24.3488,4.4438,-138.6477,57.0211,-87.3532,68.0329,-37.5743,106.5434,290.9417,-101.9284,-100.6443,8.2692
-445.3125,-98.6885,80.8389,-53.3553,4.8852,28.6092,-15.6982,-33.0211,-41.4493,87.6172,30.5295,-40.5924,117.8532,11.9497,55.3367,135.3762,95.2094,-249.0452,-9.0321,-113.5773,-39.7801
-437.5000,-0.9270,2.2445,14.0383,-3.8401,59.0177,-21.9717,71.6914,-84.0721,157.2664,-49.0268,-84.2151,-35.9710,7.3225,48.9952,92.6655,-57.7754,130.3633,-86.7852,-121.1640,-82.4732
-429.6875,-110.7203,-36.8995,44.8758,-43.1238,15.8918,7.2035,-45.1320,-17.2286,151.3928,90.8794,-55.3954,29.6536,-22.4492,5.0860,12.4060,8.6937,-13.8289,-20.0764,-89.2969,-15.7247
-421.8750,-7.0586,31.3988,85.1793,-45.9708,93.2261,9.8302,32.5075,60.0684,82.9950,58.2391,20.8575,-5.2894,29.5700,-102.3841,15.5887,11.5998,-226.5301,-56.9255,-19.9884,-122.5322
-414.0625,15.8502,17.9463,104.7394,-94.5777,2.8076,-7.2969,16.3891,6.6212,30.8676,4.8506,-107.6500,-59.9779,-51.3264,27.3953,-37.9802,31.7572,219.0143,-104.5184,-31.4320,-29.0817
-406.2500,-53.6855,-87.9515,-41.1420,-58.6394,3.9460,30.1204,90.8345,80.7317,70.3124,43.0084,-70.6121,-60.1170,27.8460,27.7188,147.0092,68.4602,-236.9128,-32.5687,39.6699,-28.0905
-398.4375,-28.6796,-168.2975,24.5431,-34.1658,69.6221,21.0785,230.8358,36.3922,63.3252,-1.2760,-116.0519,-179.7145,35.5987,18.6020,102.5375,-12.2871,69.7561,-77.0717,30.3179,-72.5395
-390.6250,-93.5854,-92.5449,-8.6782,6.3936,-37.6018,-12.8718,87.9434,3.1688,68.4756,1.5556,-77.3995,-67.2036,-9.8920,-15.4164,32.1669,27.0772,111.4710,-0.4665,37.0730,4.1102
-382.8125,-32.5405,3.1543,-48.9463,-4.1059,106.1298,-17.8750,121.0207,35.9011,102.6070,-2.6532,-8.8224,-35.7519,43.0752,-56.4921,64.7375,-14.6108,-213.8346,-9.9201,63.7752,-110.2976
-375.0000,-120.9574,-49.5975,40.3286,-92.0658,85.4027,-38.3295,174.6456,16.1943,120.3125,50.7064,-177.7154,-130.7499,-24.5048,-41.0275,7.8583,-34.7420,226.4185,-97.8193,81.0264,-57.1462
-367.1875,-246.2620,-106.2481,-17.2966,-148.9375,100.7931,-60.6941,153.3943,104.5972,211.1448,140.1715,-163.5137,-42.6482,3.6355,-100.4808,96.0861,90.2248,-250.2693,23.3802,132.3781,-41.9061
-359.3750,-194.9333,-124.2504,-68.2566,-97.1737,159.8312,-2.4148,249.8006,90.6516,197.6530,89.2879,-178.6830,-94.9007,-34.6583,-78.2751,-65.0488,38.8356,-92.2584,76.2216,149.3736,-130.0081
-351.5625,-245.7752,-70.4043,-89.3636,-8.5709,-7.2794,86.7121,82.0568,69.5689,142.0365,105.2706,-236.0081,-6.2916,-142.9399,83.7703,-195.3232,18.2978,102.5543,165.9230,63.2232,-40.2566
-343.7500,-100.1565,109.8953,-115.0155,31.4763,40.0709,60.2846,93.7799,43.9467,117.8890,42.7058,-153.8987,186.7578,-73.1211,-16.7464,-39.1588,-8.7945,-243.1628,66.0670,34.5169,-140.0654
-335.9375,6.7602,146.4937,-40.3611,32.8167,-32.2937,-13.8417,131.7944,-65.3715,120.0460,-29.5553,-264.5069,149.1034,-123.1473,-16.9503,-37.7153,-81.5782,287.4532,-72.4830,-33.8930,-102.5637
-328.1250,-112.3745,98.0417,-56.7527,18.1048,-85.6983,-67.0155,42.7674,-7.7264,142.1743,28.1426,-172.1736,242.3970,-104.4080,3.7946,-17.3257,12.5943,-78.0212,19.9235,23.6473,-45.1232
-320.3125,-33.7063,105.3865,28.6676,-44.8158,73.6956,-92.3980,128.5487,3.7123,119.1276,2.6377,-87.0637,179.4816,-27.8351,-58.6614,-6.1434,-49.4388,-103.6352,-41.8742,-38.0226,-106.8824
-312.5000,-40.2425,98.5358,53.8878,-51.9451,-12.1084,-68.9892,43.1343,-81.0477,-2.0950,-9.0623,-101.1580,166.3804,-63.5671,1.6740,-55.1534,-25.6734,136.5217,23.1312,-112.8919,28.1587
-304.6875,-23.2278,79.2417,73.6722,-35.5345,45.6538,-86.0362,100.2961,-61.2539,57.2547,-25.2130,-7.7153,185.8233,26.7298,-89.4501,75.3854,-5.3688,-337.7726,39.6803,-62.2128,-25.2669
-296.8750,-88.3774,84.7926,117.3148,-30.2809,15.2607,-80.2331,144.3047,-54.6043,138.4666,-18.5007,-113.4529,80.1164,-40.3676,-46.7199,-28.2365,-73.2109,124.8144,-59.9129,-90.6864,-18.8376
-289.0625,-147.4250,130.4438,15.0566,15.0640,-50.0157,-36.3274,5.4242,-9.8392,74.7929,26.3151,-70.0984,123.5050,-62.6195,34.0981,-56.7472,8.0486,-73.5510,21.6100,-78.0538,62.6757
-281.2500,1.9806,104.5434,-6.7441,22.8517,38.1597,-21.9682,58.0091,5.3765,17.5914,41.5773,-56.3124,63.3287,-22.5518,11.3626,-5.8193,-14.2589,-100.4136,-38.4219,-69.9752,-33.3682
-273.4375,-55.3296,46.9480,77.7538,-35.0647,-25.3646,-49.3143,-5.1037,15.8993,-6.2819,15.1460,-120.2423,-0.5324,-55.3153,94.9265,-32.5961,-41.2649,266.0050,-60.1521,-55.6017,50.8908
-265.6250,-61.5402,40.4622,0.3631,-40.8880,8.2281,-90.5722,-8.0901,86.5183,27.9655,11.8107,21.9214,67.7114,29.2209,16.5796,74.7350,-8.1761,-196.4834,-30.7987,44.8671,10.2347
-257.8125,75.1921,70.9256,71.9369,-10.7674,6.7640,-55.8842,27.8761,48.0833,-45.8249,-63.5716,-17.9873,-8.0975,-25.4124,14.1872,-74.9916,-47.1428,187.0234,-69.4961,-28.7220,-28.4639
-250.0000,1.6229,33.0938,65.2043,-14.9471,-36.9968,-27.4980,-162.4529,77.3657,-86.9014,113.7591,-27.1961,56.8049,-68.5604,42.4862,-118.0121,55.5949,43.1733,-1.4891,-65.6102,74.5319
-242.1875,-1.3882,-41.1805,29.0292,-89.5856,73.7940,-27.5649,-15.2211,151.2018,-48.4162,150.6507,45.1239,-17.7518,53.0579,-31.6668,65.5065,18.8816,-275.0885,-3.9440,-34.9564,1.0742
-234.3750,-51.6713,-90.7091,46.5988,-139.4796,-18.6727,-10.8823,-32.2455,95.8056,-28.1672,95.3169,-48.8204,-74.5532,15.1381,21.9309,82.7669,-1.0649,132.3851,-18.6392,-83.5540,92.3734
-226.5625,-0.4488,-75.7327,-80.3306,-53.8773,-0.6214,7.2947,-49.7543,77.9213,-7.4026,40.4826,5.7316,16.1419,29.9914,3.0203,101.5333,91.4884,-307.6725,174.1615,-65.6518,74.1584
-218.7500,83.7288,-26.7980,-25.2991,-5.3289,56.3694,62.4185,42.6852,23.9780,-24.6746,-50.4114,-123.7832,-76.2098,-20.3900,-14.9343,10.2348,36.9823,-11.7232,117.9042,-52.8079,-17.0989
-210.9375,-88.2834,-24.0534,-60.4666,-37.9900,-16.8406,63.3336,43.9325,-12.1611,15.8719,-12.5097,-159.4971,-39.7485,-46.7216,58.9076,10.7427,0.2724,26.9770,157.4513,21.8364,57.4415
-203.1250,-108.7421,-9.7552,-76.0741,-59.1056,115.5112,46.7952,139.7502,46.2435,75.9873,9.9351,-103.6781,-19.7420,20.5819,5.2895,68.7966,-51.8977,-308.7395,137.5425,108.0207,-68.4769
-195.3125,-100.9708,-71.2087,5.5640,-85.9735,86.1065,53.5085,110.8159,54.8968,85.3606,54.6357,-207.6283,-86.4773,-62.0651,48.9285,-70.9021,-81.8073,157.8030,75.8981,46.4506,-24.1375
-187.5000,-122.4022,-57.8574,-54.0027,-73.0336,64.5181,104.0234,15.6909,105.3521,27.5446,105.1299,-158.7861,0.5956,-44.3005,62.3628,-19.7960,6.0892,-214.8912,161.0591,95.6822,-10.0138
-179.6875,54.4135,-58.2516,-11.3100,-73.8435,70.1753,72.7923,169.8198,75.0579,71.9798,37.8778,-116.7101,-105.0858,-2.3874,-42.9433,22.5443,-98.7711,-73.2800,91.4602,97.1461,-114.6376
-171.8750,13.1212,-99.7389,-20.7133,-115.7580,-50.2657,61.4600,122.8430,101.6741,174.3217,65.5430,-165.7323,-116.8535,-49.4903,-53.3489,12.7944,-109.7322,62.1850,120.7610,91.5023,-14.3608
-164.0625,-16.9687,-94.0165,-121.9057,-40.4743,-3.5056,70.3223,133.0871,221.4960,222.8732,148.4091,-47.5645,-71.4233,-18.2922,-81.5545,-14.7538,-63.5022,-353.1378,127.2494,98.0459,-78.8953
-156.2500,-79.5691,-86.7861,-4.6020,1.3026,-71.2705,75.6842,66.8255,154.8202,156.9381,80.7806,-152.9132,-140.4823,-93.9522,33.7528,-119.8072,-20.7607,182.0568,29.2383,70.0860,-35.9210
-148.4375,-111.7620,-84.1444,-38.9054,-30.5238,-68.6249,4.4385,69.9740,120.5508,198.4163,84.5537,-114.8620,-65.1260,-40.7661,-0.5538,30.5463,55.3845,-95.3945,33.6271,109.5331,3.4393
-140.6250,43.9527,-34.5989,-18.2974,-87.4496,24.9228,-49.9113,201.0318,67.1717,220.7987,-5.7838,-59.9229,-119.8742,31.2131,-91.9665,123.7828,-35.5786,-79.8882,-57.0881,89.8720,-87.3033
-132.8125,11.5114,-32.1980,15.1577,-85.5232,-50.6766,-54.4100,50.9342,27.6454,146.0395,27.7345,-64.1404,-87.7599,-31.0798,14.4698,9.8656,-39.6911,169.4415,-53.9412,-12.9387,56.8025
-125.0000,-7.6749,-15.5419,-38.1281,-34.3447,79.9889,-71.6570,35.1049,48.3683,94.5308,85.4934,64.8825,5.6058,67.3338,-76.8440,103.1951,-19.5640,-304.9760,-1.5477,4.5006,3.1415
-117.1875,70.1727,-7.8368,7.6447,-27.1164,88.7035,-100.8562,118.3202,-16.8560,68.0681,-16.6920,-1.0654,-60.9727,51.0663,-69.0965,75.5598,-121.3858,124.6933,-99.1065,-23.0131,11.5371
-109.3750,42.2696,-1.8747,-24.3346,-91.6378,18.6797,-132.8064,48.7924,-11.8230,38.8634,-11.6248,38.2367,52.7094,37.1691,-29.1058,79.1841,-43.9556,-78.4430,-21.4101,19.7242,89.1709
-101.5625,151.2757,37.0004,94.5824,-88.2598,101.5541,-161.8552,132.1737,-39.8960,85.5643,-76.6607,82.4181,23.2931,62.6789,-57.2077,51.7047,-72.6366,-143.6361,-87.8210,-10.6538,-12.3011
-93.7500,128.6703,15.2865,215.8891,-76.4771,38.8164,-151.5015,-3.0545,-101.5627,25.6634,-101.2949,-19.0076,-3.7049,-43.5976,100.1027,-121.3695,-61.9120,326.5487,-143.8193,-66.6382,71.6303
-85.9375,128.3185,49.8335,181.4479,-6.4355,115.3365,-149.8905,-1.0184,-98.9763,29.0111,-135.6846,54.8184,-2.4490,61.2487,27.6646,63.8047,-23.9428,-94.0274,-107.5775,-32.3789,36.7963
-78.1250,191.0128,41.4378,176.0729,19.6613,35.8940,-84.2270,105.0613,-141.3498,98.4054,-178.0310,-25.3164,-46.1363,24.8916,21.2887,58.0107,-175.9261,249.4943,-186.2955,-75.0762,-5.9809
-70.3125,76.1615,102.5074,54.1457,45.2141,-85.0981,-60.1174,-52.4065,-116.2702,125.2547,-78.9291,-75.9909,124.6462,-75.2522,118.3533,-28.3229,-114.4530,170.4145,-88.5688,-82.3256,55.6845
-62.5000,145.5655,171.8321,-12.5251,114.0166,67.1608,-17.7608,27.3827,-110.9489,23.3629,-110.5786,2.5727,129.6801,3.6151,-23.3328,14.5931,-72.7383,-40.3809,-54.6041,-83.3339,-85.4067
-54.6875,73.4655,170.6565,93.2998,112.3138,26.9103,15.0941,-13.3397,-187.1229,-51.0235,-186.7166,-76.3699,88.2284,-44.2868,45.4815,-62.9864,-40.5228,381.3118,-56.1309,-189.8454,-15.9877
-46.8750,23.5730,155.6920,78.3252,96.8097,10.8745,-1.8590,-28.8494,-129.0917,-28.2043,-92.6542,15.8943,144.9845,20.7056,-7.5137,68.6322,53.8905,-90.8259,-35.4606,-169.1602,4.6190
-39.0625,137.1266,163.1919,87.8078,-2.2419,58.2792,-66.3593,56.0867,-155.6181,56.0572,-119.1503,61.5952,80.1975,60.8697,-109.0462,114.6785,-47.2494,93.5409,-166.3433,-160.0324,-22.3218
-31.2500,3.9796,135.9984,55.5819,-29.9838,-84.0143,-98.5568,-48.6776,-187.8521,26.6181,-114.3550,64.5990,119.7216,29.1583,4.7264,119.0416,-7.0808,173.1649,-87.9150,-116.6049,92.0282
-23.4375,18.9990,115.9600,4.5153,55.4252,47.8501,-41.6029,46.7248,-129.9492,12.3300,-165.4239,157.7428,67.3937,93.8912,-10.3437,103.5580,15.2214,-162.0314,-37.3460,-67.0408,-33.4864
-15.6250,20.8626,11.7803,42.2988,55.6889,11.5560,32.2015,10.9697,-128.1950,-57.1089,-164.6384,9.7299,-43.0714,1.4743,62.4391,-43.0808,-21.6280,367.6221,-70.9214,-64.6397,3.8569
-7.8125,19.9358,10.8137,-31.7161,54.1582,-25.5261,31.2041,-61.5802,-19.2345,-129.3479,-18.6515,81.9241,28.6739,20.3717,25.4030,-6.5120,14.7223,-20.5684,-0.3022,5.9600,3.3862
-4000.0000,76.3843,58.4127,12.4367,81.9433,48.0998,-3.8021,-28.2081,-29.2511,-120.8395,-24.2310,33.8758,43.2592,21.7324,9.0736,1.6867,-28.0113,41.2223,-45.9007,-26.1598,-46.7830
-3992.1875,-32.5893,-15.4308,40.8067,43.7580,-69.9846,24.7650,-74.9618,-37.9340,-21.0193,-32.7891,-48.2884,35.4269,-31.5862,73.6755,-6.6800,-0.8264,213.2814,-15.0777,-29.8817,54.1350
-3984.3750,-66.7190,-14.4255,-65.9903,81.4266,8.7986,65.1883,3.1264,-33.7526,91.6516,-102.4801,29.4212,76.4563,46.6334,4.1279,107.8062,39.2070,-242.8671,54.6031,5.2456,-16.0962
-3976.5625,-84.1520,-31.7153,-12.0861,64.7974,-8.6984,45.3169,55.9168,-127.8697,143.0184,-195.4628,-64.1650,-15.8232,3.5604,58.2798,50.9784,-54.0547,232.7068,0.9759,-12.9367,0.3723
-3968.7500,-187.0704,6.5403,-48.6453,32.7141,-43.6451,46.0018,20.2482,-127.4265,178.9397,-157.8746,-62.1998,95.4506,-14.7898,95.9897,52.6986,-16.7486,-81.1825,107.9111,24.4338,37.4070
-3960.9375,-99.6561,24.1334,-27.8673,-19.0279,52.7776,31.0435,151.9444,-105.6185,199.2166,-246.9261,-40.8666,44.0703,43.5913,7.0391,110.7827,-69.0893,-99.7622,89.2011,41.1677,-52.2185
-3953.1250,-113.6623,-60.6893,-86.4981,-68.1713,-41.1968,46.6962,93.2438,-91.1993,102.0916,-157.3635,-135.9418,-13.7221,-15.6408,59.6973,89.4534,19.1731,167.2960,143.0969,25.5046,72.7612
-3945.3125,-83.8457,-100.6661,-127.3025,-2.4620,103.6895,42.2106,88.3932,-20.9064,59.8197,-14.9317,7.8487,20.3432,60.0545,-54.8040,84.9687,52.2974,-294.8501,172.8569,54.7025,31.5932
-3937.5000,-36.5976,-88.1996,-4.6635,45.6973,117.0409,91.1848,27.0055,-83.1494,-39.9897,-77.0408,-52.9044,-78.1557,10.6473,31.1365,-50.0779,-47.1304,174.4633,113.0642,-38.6449,42.8712
-3929.6875,-147.3746,-58.7422,-14.0386,41.8494,73.3797,119.1691,-91.3921,-18.3818,-49.7935,-12.1325,-61.6545,-12.6572,-10.9928,59.0925,-58.1289,-19.5482,-6.2240,142.2809,-9.9865,107.1612
-3921.8750,-98.3623,-79.4913,42.3727,21.7971,168.5319,139.9562,1.0156,38.2046,-69.7873,7.5860,-41.5812,-28.3612,47.3068,-31.1586,-1.3766,-73.1556,-169.1617,120.3030,38.4806,-20.7600
-3914.0625,-206.4054,-81.3030,36.7404,-50.3164,53.6396,170.6966,-42.6245,68.7449,-75.8242,75.2652,-194.5529,-34.1293,-55.7909,72.5453,-81.6899,-115.8215,215.8944,116.2711,35.8930,46.2738
-3906.2500,-243.1161,-82.7786,-111.5482,-16.0854,91.1043,170.7890,-5.9219,142.6495,-5.5130,75.3118,-120.1510,3.4523,-4.3037,-0.4009,-7.6592,-43.1318,-241.7389,219.6062,104.6600,8.6649
-3898.4375,-150.0411,-95.4577,-86.0469,-28.0572,155.3828,158.6871,92.5926,57.3645,55.5923,-45.8357,-167.9326,-118.1741,-3.3085,-12.5550,-18.8312,-91.6443,96.4281,135.7469,91.2275,-40.1520
-3890.6250,-143.4971,-124.6311,-121.0509,-20.5381,49.1514,162.0880,-15.3961,23.5868,93.2005,-43.4726,-128.2122,-115.3007,-9.2494,-9.2123,20.4948,-52.6506,67.1122,141.3914,132.2968,35.5430
-3882.8125,-39.8095,-125.6540,-7.9071,-20.8765,127.0738,91.6445,97.7767,62.9694,130.9684,-40.9538,-51.3128,-111.2745,68.7395,-190.7316,96.9715,-86.5015,-180.1128,33.1922,200.5162,-72.6165
-3875.0000,-4.6713,-125.2381,208.6877,-89.7735,50.4435,13.6553,19.4017,57.7992,88.1949,65.0157,-165.9508,-151.8166,-64.3836,-47.7986,-128.1225,-127.8984,278.1519,-73.5591,130.1773,32.6798
-3867.1875,-41.2982,-91.5851,55.5040,-126.4277,46.0534,-29.0738,-59.7350,125.8898,117.6822,170.2455,-60.3159,-83.1137,-36.6177,20.3885,-59.9660,12.9762,-216.3692,-6.0376,162.0857,100.2376
-3859.3750,-40.3757,-54.3920,-16.1382,-159.5363,50.2183,-63.2464,52.6861,128.5414,191.7310,173.0321,-131.1073,-152.8699,-50.5576,23.1187,-21.2552,15.3955,-39.3623,-75.9585,127.5406,65.3378
-3851.5625,-216.5314,-89.2571,-94.8341,-193.7054,-63.6740,-104.4616,-25.9539,123.1508,294.7263,203.7841,-171.9471,-84.6769,-90.8545,53.8158,10.3832,119.7640,-5.3778,-76.9196,196.9434,169.4004
-3843.7500,-154.0538,-97.4689,-134.8866,-199.2354,8.0879,-144.0225,81.0571,194.4305,364.3730,202.2025,-101.1107,-50.8302,-16.3636,-58.8461,117.6610,116.7941,-398.8045,-50.2209,260.0053,56.1107
-3835.9375,-159.7823,-102.8860,-71.1272,-169.9742,-72.3561,-115.7806,70.8753,111.5136,390.8237,82.4282,-182.4685,-132.2047,-65.7976,5.2853,71.7265,107.6227,87.5986,-90.7243,182.8713,119.6211
-3828.1250,-221.6805,-59.4649,-138.5363,-160.8789,-101.9647,-109.6856,3.5433,154.4582,358.1404,162.5196,-138.9580,-15.7310,-56.9200,11.2643,114.6414,187.3078,-291.1766,-14.3602,190.5924,161.9935
-3820.3125,-76.4790,-89.9513,-56.8663,-155.6920,-18.4682,-101.4861,86.3278,163.5117,329.5746,208.7164,-167.3237,-116.1659,-46.0935,-52.6577,87.6567,86.0930,-179.8881,-45.8892,160.4112,60.4558
-3812.5000,-109.3490,-120.4912,15.7438,-151.5637,-90.0380,-64.3290,-24.9453,162.5195,289.9645,244.8721,-239.7350,-78.6602,-129.7715,-16.6196,-59.4017,10.8312,68.3890,26.5394,127.1744,132.8807
-3804.6875,-97.3969,-74.1798,-39.8083,-103.5934,39.2379,-9.3130,65.6291,181.3905,306.2075,189.8878,-148.2710,-61.3051,-21.8582,-108.7355,67.3865,-44.5645,-341.5409,72.8415,173.7899,3.1576
-3796.8750,-94.4089,-70.8258,-37.3082,-64.5792,79.5492,-6.2354,142.2609,73.3195,344.5060,81.9506,-218.7443,-167.9178,-61.6491,-105.7990,-39.7882,-115.9110,188.6020,5.1973,70.4562,5.4813
-3789.0625,-177.8364,-153.8773,-91.2196,-40.9771,65.4342,14.4511,52.4781,93.8615,290.4113,139.6313,-196.5992,-109.9357,-38.1794,-157.2586,17.6211,15.3505,0.3363,132.1776,57.7250,62.4145
-3781.2500,-77.2514,-193.9367,-91.1361,-45.3862,140.3134,51.1413,125.6944,131.4190,178.3340,176.3286,-159.4292,-146.9682,8.9323,-158.7274,54.0245,14.6108,66.0259,92.1729,-18.0025,-48.6677
-3773.4375,-133.1796,-144.5007,-81.5472,-30.3112,4.6764,61.3373,25.4040,141.4787,39.7686,224.5331,-221.7511,-135.5135,-77.1271,-37.6916,-46.0917,62.3719,361.2558,69.6677,-39.2382,34.7561
-3765.6250,-195.7257,-99.6630,-108.5696,-20.8464,53.4243,34.9375,35.5010,151.9465,121.6020,198.1434,-100.6466,-14.6423,-0.1548,-64.2525,74.1861,145.5437,-193.1646,7.5796,3.9238,7.5881
-3757.8125,-177.6748,-46.2240,-18.9917,-72.7890,33.7595,-58.8547,88.1967,58.0179,210.0376,140.3512,-120.9274,-35.1780,-36.5806,-11.2104,17.0417,124.3182,142.0271,-185.9069,-13.3173,60.0201
-3750.0000,-270.6029,-68.7454,-85.3684,-164.6900,-30.8863,-161.5868,-15.0765,101.1491,252.5276,184.6243,-76.1449,82.3314,-37.5273,31.8951,59.9192,168.1591,-56.7268,-104.3237,67.4875,176.5199
-3742.1875,-137.7425,-146.4710,-88.9579,-169.7972,115.2506,-199.5134,165.4538,136.0932,211.8293,145.7046,-77.5299,7.6313,32.7075,-43.2022,131.5986,128.8044,-204.7336,-111.9331,131.0981,63.8175
-3734.3750,-121.1934,-199.5012,-37.8492,-188.2227,57.0601,-147.7395,143.6826,114.7414,114.8495,160.4910,-171.2026,-123.3836,-40.7438,-28.5952,-1.0365,144.1449,198.9951,-60.8391,112.4025,114.8234
-3726.5625,-103.4109,-147.2878,-127.5093,-205.4150,116.1010,-91.7132,126.1539,171.6531,134.1326,181.5511,-77.6029,-30.1536,25.1812,-117.7397,93.5730,126.7479,-276.0739,26.5247,128.9600,61.0818
-3718.7500,-18.8234,-96.2822,0.6420,-154.8223,134.9327,-35.8818,218.4321,79.3735,77.2121,52.4105,-95.1778,-122.1456,38.3676,-100.0869,73.9684,-1.8532,90.6594,-64.3077,3.3113,5.1296
-3710.9375,-89.1913,-61.2343,-5.1458,-83.1987,-15.2202,-3.9926,65.7463,38.1471,33.3327,48.3259,-99.6821,-16.1034,-18.1973,-31.3721,32.3827,66.6059,90.4603,4.9249,-32.2901,110.2389
-3703.1250,-41.1025,-12.7327,12.5057,0.8594,77.0498,-22.6485,82.5091,55.3828,49.9069,29.6982,-7.7027,2.3895,38.3141,-124.2136,50.2435,83.5183,-178.3526,17.6303,-54.4365,16.7911
-3695.3125,-46.6081,-17.8252,112.5600,-3.7004,31.6893,-31.8982,-0.3320,-26.9800,1.8938,20.4710,-52.3112,-6.7312,-9.3282,-59.6522,-33.5132,0.8157,273.2688,-24.2620,-96.1875,80.7413
-3687.5000,-98.7835,35.4270,-15.0409,-19.9248,52.6426,-48.7921,19.1602,-6.9804,-16.7570,40.6093,5.4574,87.4916,51.0501,-112.7344,97.0658,20.4667,-164.7959,99.2204,-7.5822,63.0467
-3679.6875,-100.3614,35.2796,-12.0440,-55.5584,131.1724,-44.0782,206.2576,-3.3661,23.1951,7.3536,-64.1521,-18.7054,60.3090,-109.2234,100.2324,-86.2727,8.7196,27.3106,25.6199,-44.0564
-3671.8750,-163.8400,-27.7697,-46.9529,-48.1080,23.7507,-42.2562,98.4366,36.3511,60.2501,47.2118,-134.6395,20.1890,-48.8536,3.3887,-45.5209,26.1013,86.3577,34.5100,67.9087,67.9555
-3664.0625,-66.3906,-70.9228,-125.9686,-19.7793,130.1979,-9.5355,129.5074,67.9774,90.2222,41.9826,-28.1864,51.9775,10.9055,-75.1034,-13.3805,94.3798,-273.1727,25.6203,95.0930,-11.1346
-3656.2500,-49.7842,-18.9293,-37.8248,-37.3263,35.7673,-31.6662,106.7313,9.7590,67.3653,20.9123,-85.5697,-6.1056,-43.5826,-23.4417,-73.1155,35.7931,200.4675,-28.1195,5.4269,39.9231
-3648.4375,-180.4890,-8.2396,-27.9957,-26.1927,46.9948,-21.0958,80.6456,93.2479,2.2209,31.5572,-37.2331,41.5037,1.8992,-13.0776,-26.1621,45.9168,-141.2129,86.8583,50.4668,49.6889
-3640.6250,-140.7237,-4.1026,54.2711,13.3762,130.6469,-12.0764,163.0135,66.2001,10.5331,-32.3344,-64.4165,-22.4543,13.1103,-4.2745,-53.7681,-18.5050,-31.4779,20.2977,54.9564,-52.1086
-3632.8125,-176.4627,-38.4676,85.0448,-20.5693,15.7490,-53.5547,46.8693,24.6494,77.3474,36.2831,-142.0898,9.0698,-55.0072,28.0445,-59.8997,49.5770,179.7939,-14.7509,-16.0650,52.5993
-3625.0000,-54.1576,-21.7793,30.8779,-73.4779,146.8673,-106.9790,102.7605,44.1590,132.2196,55.9576,-10.6858,65.6432,65.7602,-62.5921,144.0142,105.7108,-330.9385,-104.7286,-70.0387,-1.6474
-3617.1875,-3.0414,-5.2822,81.5264,-127.6022,88.7446,-128.5979,116.4463,-14.5354,108.9011,71.4248,-68.4645,43.9980,11.1944,-11.4289,84.7137,46.6399,71.1542,-228.9101,-159.2247,48.8987
-3609.3750,-138.0692,36.0680,-62.9738,-120.8946,18.4230,-125.3647,-28.0423,61.6203,72.4349,183.7544,-28.3717,120.2001,-20.3377,64.5964,49.2376,159.4261,-203.9133,-82.2218,-49.5718,124.3035
-3601.5625,-66.7170,36.7686,-58.1284,-84.8544,134.4264,-46.7780,50.8193,104.1351,3.3185,153.4443,15.1061,52.7358,13.5932,-3.0376,-18.9048,90.5597,-238.6772,-47.1702,-13.5720,19.0455
-3593.7500,-43.3104,-10.4884,34.7768,-60.7864,8.4329,9.8605,-76.2743,50.6958,-50.7421,137.1927,-74.3600,35.2993,-80.0690,53.3828,-146.0229,73.7383,170.6546,9.9401,-95.5259,111.8420
-3585.9375,8.7322,-63.0959,-18.6732,27.9126,66.0494,68.1503,-20.7311,71.9170,-33.1277,120.6070,-15.1511,56.5019,-10.1191,-36.5503,-53.5017,57.5775,-303.4106,97.7199,-44.8270,58.2850
-3578.1250,-30.6116,-66.1067,51.4890,-10.8067,101.2265,29.0428,86.4155,32.7384,0.1058,81.6230,-164.3236,-19.7246,-42.1952,-38.8895,-56.3933,55.0127,78.1340,23.1014,-48.5278,18.3138
-3570.3125,-250.6502,-40.8259,-72.0467,-55.2423,88.6527,16.2427,36.8433,93.8607,133.6399,179.9493,-174.1845,41.3323,-58.6677,22.0817,-33.0085,151.7527,-141.0091,83.8012,-23.9338,78.6489
-3562.5000,-153.1258,-82.9969,-77.0377,-62.1415,194.5970,12.0000,141.8218,88.5454,200.7207,138.8358,-105.4648,-0.0697,9.9707,-19.4019,35.9147,147.0355,-325.6574,5.0726,3.2117,-0.4794
-3554.6875,-130.3240,-94.9093,-20.7736,-73.8052,104.7371,32.0088,51.0371,35.4786,146.0498,85.9726,-193.4702,-53.2405,-74.9566,74.3731,-90.9491,56.5590,153.9847,28.5995,-44.4075,92.6424
-3546.8750,-172.3004,-66.6122,-63.3113,25.7135,137.0114,64.2235,8.4284,67.6145,28.5858,117.3141,-88.2424,14.7824,-5.5033,32.3537,-24.6259,88.2931,-309.2207,162.3511,19.1668,49.9647
-3539.0625,-121.6630,-50.7105,-45.2398,75.8203,117.8451,82.0392,99.4213,12.3518,8.7313,62.2547,-142.3983,-40.6138,-12.8885,-23.0690,-6.7131,105.6210,21.1730,35.7109,-36.6674,-6.1293
-3531.2500,-222.0859,-80.8640,-82.2079,10.8592,8.5761,45.8057,-11.6529,12.0366,43.8250,63.1563,-103.5917,32.9289,-37.8990,13.4670,-7.8638,252.8966,26.5400,41.0301,2.4413,103.7339
-3523.4375,-169.7918,-98.3143,-60.4678,-5.4264,104.9712,32.2667,120.9607,-1.5722,65.6220,12.7703,-6.0481,19.1620,67.2429,-0.3102,124.6775,201.8712,-272.4466,23.0593,20.2547,15.2862
-3515.6250,-162.5535,-124.8651,-20.8112,1.1630,-1.7860,72.6178,124.4695,-35.2908,-6.6660,-20.7196,-111.5875,-50.7303,11.8796,113.8107,91.0875,94.7326,191.5099,-6.0129,-79.0345,91.7310
-3507.8125,-189.9948,-14.1147,-160.8522,8.0251,-31.2950,42.2635,93.2632,8.2892,72.3580,23.0952,6.1909,102.6685,46.7793,83.2305,169.7867,100.8933,-259.2552,36.2332,-107.0251,97.4730
-3500.0000,-114.2618,97.7859,-42.7327,15.0162,50.3053,15.0611,101.2188,-55.9787,43.5362,-3.9436,53.1443,111.1926,33.0200,18.7952,31.6292,36.1872,-42.8854,-99.3646,-137.8640,32.3462
-3492.1875,-134.3671,77.8387,2.5523,29.1344,-50.0084,-11.9968,-109.6903,-45.1023,-58.1310,42.1717,101.2611,120.8461,-15.2775,101.5207,-69.4001,155.6259,76.6662,-84.8049,-158.5610,151.3743
-3484.3750,-88.7586,-16.4124,-55.4605,75.9306,75.3387,-33.3627,15.0916,6.4777,-45.0840,22.0006,192.1082,100.1888,123.3585,6.9356,128.2667,97.7691,-334.1381,-39.5291,-78.5610,56.0934
-3476.5625,-100.8737,-63.4168,-34.2044,64.9519,-12.1107,25.5178,36.1233,-44.6998,-59.7718,-64.9182,141.2168,10.7558,84.7537,102.5941,76.1690,8.1518,75.3420,-85.0054,-89.3206,114.0542
-3468.7500,-155.1111,-46.5700,-167.0945,44.8026,-35.7727,39.2445,-60.0149,5.9684,-121.6100,-50.9773,230.1938,98.1663,98.6329,116.1040,88.9110,169.3851,-261.3482,34.3853,-5.2321,163.8679
-3460.9375,-64.6635,7.9418,-177.3267,-4.7111,26.1717,66.6205,38.4962,-41.7105,-96.7991,-98.3851,294.8504,14.2125,108.1397,32.2570,4.2887,121.2530,-136.4210,54.4376,14.4961,42.3148
-3453.1250,-115.7117,27.9633,-87.0460,14.2589,-28.4463,84.5005,-54.5078,-95.8976,-79.4882,-116.2950,278.0096,31.7452,49.1399,86.9193,-124.8662,65.6140,94.0464,109.0035,-106.2842,96.2651
-3445.3125,-102.8533,39.8859,-35.8646,62.1114,58.7916,136.2794,-77.6202,-45.1828,-250.2627,-101.3007,478.0891,84.1714,178.4686,28.4823,-38.1351,43.8784,-386.6360,191.4887,-131.1636,37.1060
-3437.5000,-151.1975,-7.4414,60.0788,49.6918,6.7306,158.8023,-91.9838,-59.7287,-302.2850,-151.5612,538.9340,-41.6791,219.0954,50.7991,-16.6683,-8.1204,57.4552,107.7198,-179.2963,58.6826
-3429.6875,-227.4037,-84.6601,-59.8695,7.3547,-37.3030,150.4229,-211.2760,5.8259,-165.2093,-13.7191,678.8896,-49.4370,246.5471,42.2233,10.8803,56.9830,-195.3544,171.0621,-115.3317,86.3642
-3421.8750,-87.2345,-119.5112,-53.4528,42.3516,40.9588,193.3932,-133.2286,-24.2628,-87.7790,-80.5266,723.2117,-80.8535,266.4012,10.9841,-20.2324,-10.5668,-196.8506,100.7706,-117.0145,-55.6241
-3414.0625,-147.2573,-109.5549,-10.2166,88.1294,-27.0383,201.1631,-162.3918,-127.5610,-154.5404,-145.5301,585.3300,-74.4941,174.4894,128.5468,-124.5679,-4.3200,165.5033,75.2844,-142.9050,24.1831
-3406.2500,-191.5492,-83.8908,-94.2798,113.5925,36.6102,154.6328,-136.8727,-64.1645,-129.6007,-118.8256,687.1711,26.5612,261.5718,81.8038,11.7862,22.6236,-301.4809,100.5186,-118.1030,13.6821
-3398.4375,-144.2381,-0.6623,-45.7771,90.5934,10.7575,129.6514,-89.8064,-89.2244,-155.1147,-216.5758,700.5804,-35.8538,234.8170,93.6044,-88.3318,-39.9102,61.1014,7.3107,-141.7633,24.7106
-3390.6250,-148.7438,-41.2674,-55.1033,14.7342,-71.0149,157.8158,-171.6153,-133.1400,-165.4814,-151.1765,767.1464,-8.1263,239.3555,85.5571,-60.3328,24.6946,-15.1474,72.2697,-147.2807,88.8846
-3382.8125,-91.5479,-19.2032,-25.7658,1.5105,66.8162,114.6258,-69.7838,-141.4079,-138.1931,-231.1283,872.3798,-14.7562,358.1611,-68.8579,78.3030,16.9415,-204.7872,58.8870,-162.1486,-66.3154
-3375.0000,-89.5482,-52.3829,45.3439,38.0162,-9.6602,149.1813,-146.2113,-142.9398,-214.1613,-159.3312,761.3651,-54.6623,256.2097,75.4790,-72.3274,-22.0692,183.3688,24.2485,-266.2805,4.2264
-3367.1875,-74.3662,-72.4140,61.6063,52.6549,-31.0522,128.8819,-203.5021,-53.3207,-235.9747,-70.3783,815.5083,35.5706,238.7582,91.9673,-130.8125,31.0777,-259.3643,38.7761,-147.2580,-17.0830
-3359.3750,-136.3703,-99.6464,145.6839,25.0733,52.3105,103.3780,-46.9817,-78.9080,-153.9708,-95.6310,681.4559,-101.4185,215.4662,-7.7501,-194.5009,-68.9907,99.7044,-23.8877,-69.4345,-80.6081
-3351.5625,-365.3826,-48.8803,-27.2200,-29.5210,25.6197,77.8724,-110.4742,-31.5069,-106.9619,-83.8869,583.3939,-17.4225,180.6334,40.5372,-146.2086,14.9325,114.8091,62.4678,-54.6098,39.8693
-3343.7500,-36.7730,-0.5116,-195.5232,-51.5273,40.4886,55.9741,-59.3779,-15.5047,-93.3546,-177.5491,673.9465,35.1639,240.6788,19.4226,14.6777,-6.5519,-223.5313,4.4469,-7.1796,-19.0689
-3335.9375,338.7206,-83.3007,-64.9676,-133.6947,-122.8395,-33.0705,-112.4345,-140.6627,0.1094,-266.3716,549.3436,-91.4281,129.2681,77.1607,-39.6064,-60.2012,255.0235,-78.7221,15.1033,37.8316
-3328.1250,267.6793,-119.6374,9.0456,-101.4272,-87.7770,-69.6743,-114.0567,-141.3709,36.0328,-155.7408,477.1906,18.4235,122.3502,3.3537,-3.4424,-23.4052,-133.9900,-9.4330,82.8422,0.1811
-3320.3125,-162.7744,13.5825,114.6337,-39.6281,53.7932,0.2597,-8.1196,-71.5400,-43.4790,-123.5674,254.5960,50.8047,116.5597,-37.9165,-8.7284,-101.0745,68.5363,17.4032,39.1303,-114.9386
-3312.5000,-522.5862,39.4012,-46.1471,-13.2512,-35.1030,96.7760,-96.5935,24.8746,-21.3850,-26.7995,94.5995,72.7603,29.2207,95.4178,-60.4385,-79.1450,234.7122,148.8357,64.0138,-19.4555
-3304.6875,0.8830,-35.5312,-267.6645,17.3578,74.2052,97.5328,-60.8273,61.5390,-23.0341,-62.7789,206.8669,-1.0471,81.6725,21.9882,12.1019,-42.9656,-191.9008,108.5293,165.1504,-130.7341
-3296.8750,543.6338,13.7894,-70.9103,-4.7971,11.7148,72.5341,-159.8128,-36.5545,-268.4297,-87.5175,257.3780,-99.6326,-22.8867,70.8022,-270.1179,-104.5559,278.7870,-18.5234,1.5296,-82.7743
-3289.0625,476.3632,193.0672,150.7999,-2.0146,-99.8813,73.4837,-342.8768,1.2940,-342.8836,-49.3079,333.8436,121.7351,-51.3547,71.5754,-344.4012,-104.2040,-70.5747,125.3853,-101.1441,-45.8604
-3281.2500,278.4900,346.7059,278.8710,45.1053,-82.1660,55.7746,-289.5990,-17.5188,-105.9871,-140.7538,279.6716,139.4455,-26.9832,16.6890,-254.3428,-196.5055,-23.6084,66.6478,-160.4707,-175.6146
-3273.4375,409.8860,512.5997,117.2193,70.4608,-245.2612,77.3072,-414.0822,-32.0963,-84.8315,-81.9587,229.7347,124.3921,-139.9913,1.0515,-343.0452,-138.5554,212.6548,92.1578,-241.5597,-81.1168
-3265.6250,931.4998,646.7049,-180.2173,97.0048,-323.2054,74.0267,-455.3653,38.5182,-199.4637,-47.9702,448.9965,120.5359,-132.3373,-75.3919,-347.5352,-68.4044,-217.9248,154.8788,-214.4509,-195.4254
-3257.8125,1068.7554,607.4189,112.9664,93.1387,-327.5964,73.3420,-385.0426,-0.2818,-275.4779,-85.4028,339.8458,-64.7409,-184.9669,-76.2401,-496.4304,-253.6785,305.1244,115.1966,-219.7467,-271.1466
-3250.0000,1040.1605,542.2313,228.2551,98.3562,-286.9449,41.7532,-380.6368,5.0074,-382.3816,-42.7456,272.7893,13.0738,-159.2840,-70.9851,-419.2336,-285.8660,99.2814,190.6266,-179.9426,-266.7646
-3242.1875,1095.5636,526.9857,69.5010,117.5054,-115.3785,67.1086,-208.2680,-42.7619,-284.3259,-127.1506,152.6864,-35.1829,-137.8331,-82.7904,-322.0763,-298.1185,-22.6393,140.0125,-126.1793,-389.4503
-3234.3750,931.0220,397.7807,-71.1781,92.6852,-221.7977,73.5024,-239.8451,-73.4915,-58.2084,-121.5083,12.6032,-66.4165,-243.2145,33.4540,-390.8828,-292.3300,339.5468,80.4492,-80.3652,-274.0896
-3226.5625,928.0817,323.1851,-74.2475,88.4464,-262.6509,34.4852,-243.8287,-39.6195,48.5215,-123.2570,123.1083,-69.0494,-171.4681,-5.7096,-247.0865,-257.9422,-156.7059,111.4980,-49.9457,-314.1358
-3218.7500,700.3893,306.8082,130.8992,35.3945,-721.3384,-18.3410,-149.6082,-92.5627,-42.5449,-212.8255,-2.1929,-159.4939,-292.5030,-21.6825,-301.0920,-385.3679,142.2602,23.7420,-67.3336,-367.9980
-3210.9375,287.4433,315.1343,205.7600,78.0290,-1641.3850,56.5215,-149.7127,-53.8237,-78.9098,-136.7091,-72.8076,-122.2484,-471.9532,53.0522,-263.4008,-237.0900,149.9592,137.6908,44.9776,-220.1549
-3203.1250,685.7367,289.6558,255.8399,122.8506,-2035.2643,32.5779,-100.6171,-4.8894,-104.0675,-87.4028,51.7686,-146.8147,-504.5280,-8.0233,-215.5030,-224.6144,18.8251,146.8483,89.4959,-282.1279
-3195.3125,939.2054,190.3310,334.0892,57.8181,-1886.0369,0.7788,-244.3705,-73.8209,-211.0634,-82.9644,-52.5342,-216.2498,-563.5778,-39.9507,-359.4629,-258.0061,481.8983,153.1543,24.1616,-241.9549
-3187.5000,527.1462,200.4679,272.7894,67.2326,-1507.4047,12.4246,-269.6912,48.6899,-163.6045,2.9139,-75.3935,-94.2259,-457.4850,-28.4300,-273.9716,-172.9490,33.3981,232.9201,103.2793,-304.3311
-3179.6875,326.4823,315.9608,249.8618,40.9888,-1311.4490,27.4061,-146.6494,99.5338,-113.7880,18.1147,-169.9154,-117.8630,-449.7206,23.4338,-298.1298,-232.5557,289.2559,31.0325,147.7509,-401.3730
-3171.8750,323.8973,241.4968,128.0117,-68.2257,-1288.4900,-58.5755,-195.5584,87.4082,-89.9160,79.3465,-217.4109,-93.4634,-475.4694,121.3499,-274.2353,-208.1211,285.2079,-42.8028,178.2755,-230.3596
-3164.0625,559.0492,88.7378,151.8718,-81.7480,-1046.8594,-108.8683,-99.7579,110.9767,-104.3365,66.2645,-82.2140,-180.3708,-341.6492,33.9428,-178.6237,-149.0006,-80.1799,-55.9315,164.5118,-244.6581
-3156.2500,674.0780,61.8389,303.6126,-144.4305,-1043.4043,-140.3212,-132.1080,5.3749,-136.8902,35.0156,-186.1976,-250.4456,-437.2371,39.3828,-357.1743,-107.0512,350.3403,-83.2207,-3.4071,-167.1130
-3148.4375,471.6800,105.5006,273.9111,-101.5719,-892.4387,-134.2340,-163.9272,-25.6891,-94.8879,4.3037,-214.6470,-170.9636,-345.7812,-28.6257,-169.1705,-64.5526,41.4068,31.0445,4.2273,-125.0120
-3140.6250,345.7709,48.6168,365.6651,-124.2666,-656.0479,-152.7046,73.7063,-118.3135,-41.4311,-160.9813,-305.6610,-227.0375,-220.6331,-47.1882,31.2982,-231.6064,265.9210,-61.2419,87.3131,-218.4720
-3132.8125,258.2404,-39.9186,341.7869,-178.6165,-681.3563,-176.8357,49.6862,-141.6046,44.3852,-73.9309,-400.3589,-214.7701,-276.6783,39.5999,7.1183,-219.3153,316.8332,-80.1861,102.7558,-132.5761
-3125.0000,391.8457,22.6440,261.0152,-151.8825,-506.5889,-183.8811,41.7711,-111.7968,109.3197,-44.7916,-259.9680,-148.4065,-231.1817,-4.5263,-37.9476,-189.9245,-114.1997,-89.0275,129.3129,-177.5889
-3117.1875,417.4355,-23.8424,320.2069,-128.2108,-523.8951,-198.9909,-11.1807,-201.0515,94.2224,-132.7253,-309.6593,-201.1121,-292.4701,91.2905,-164.0604,-205.5956,331.7648,-170.9241,46.8199,-119.6603
-3109.3750,425.1394,17.7709,251.5063,-158.4524,-522.1287,-194.0096,-81.0361,-160.2206,23.2344,-91.5727,-267.2776,-86.7191,-241.9110,58.2062,-14.0636,-91.1727,-84.1609,-93.7124,52.4333,-79.6263
-3101.5625,504.1704,130.6897,225.1320,-187.4009,-367.0655,-184.7373,38.4247,-113.1044,-4.4405,-118.1462,-292.6166,-77.0312,-189.8366,-42.5989,69.2470,-81.4712,-147.7970,-193.2013,-11.6517,-144.3099
-3093.7500,392.8679,124.2540,173.4348,-228.7042,-347.3762,-198.8231,-124.4627,-127.3559,-57.4512,-59.0915,-343.3458,-19.7051,-257.3038,16.2412,-57.7923,-24.1287,126.2753,-164.0470,-90.0867,23.6592
-3085.9375,238.5443,109.7695,84.6859,-138.0562,-217.7607,-176.9647,-104.4066,-33.6612,-73.4908,-38.0990,-283.1444,38.5739,-141.8900,1.0252,110.1407,34.1654,-239.7458,-73.9364,-34.5697,7.5762
-3078.1250,233.9086,33.9421,78.5992,-75.7615,-189.5149,-146.4670,-37.6887,-77.3328,-117.8637,-7.4815,-362.3264,-42.5106,-151.2166,104.4481,102.7381,-46.9014,210.9162,-149.1858,-77.4016,0.1367
-3070.3125,182.7307,15.5640,57.9696,-93.0195,-139.8457,-131.5267,-96.5244,-61.5673,-138.7783,44.5636,-309.0972,45.8566,-126.8209,156.3207,116.7922,4.4783,-18.9457,-132.9769,-25.7782,51.1596
-3062.5000,158.1768,25.7802,218.9585,-120.6807,91.4215,-190.9978,26.2524,-85.2107,19.9082,-14.8140,-257.2883,22.8183,-42.0904,23.7815,130.4653,-55.5491,-115.2233,-229.1680,18.4572,-46.2276
-3054.6875,-25.5488,-18.2008,279.7740,-164.5512,112.4661,-205.6793,11.8350,-135.0699,152.3966,-28.4217,-416.7193,-29.4282,-111.7919,9.0466,41.9434,3.2097,263.3629,-167.5730,9.4987,49.1878
-3046.8750,-7.4483,-37.3772,77.3915,-114.6281,202.2880,-186.5688,103.2150,-81.1307,133.7052,-10.2457,-397.3807,-10.8685,-49.3439,-8.8888,170.2335,94.7769,-213.2850,-11.1788,24.3529,-6.5948
-3039.0625,38.2299,-63.0000,88.5634,-35.1623,246.6535,-103.9208,187.1653,-107.6512,32.5877,-73.5371,-495.5322,-111.7681,-60.8503,74.7129,143.0894,-5.1131,147.6335,-73.2442,-2.2383,-33.8336
-3031.2500,-125.3428,-50.8826,57.4904,-25.9551,249.7536,-97.5340,117.8723,-101.4338,37.2460,-67.0947,-489.9814,3.0861,-59.2933,154.0567,146.7169,-1.2550,52.3356,-27.5599,6.9235,80.6925
-3023.4375,-58.1572,-21.0184,57.1727,-31.0030,393.6062,-99.4117,226.3489,-103.4740,108.6733,-104.9260,-342.7090,1.6953,63.8028,-31.8645,255.1253,-39.6518,-162.2462,-67.1229,-32.1468,4.9616
-3015.6250,7.5865,-61.6143,82.4221,-2.5047,269.0097,-110.7493,103.3966,-151.9825,59.6629,-43.2345,-389.9308,-46.1629,-14.6362,29.7653,169.0848,21.4899,216.7780,-73.1397,-73.6592,102.7786
-3007.8125,-1.9531,-107.5148,-38.6250,-14.3076,329.1104,-85.3906,54.1409,-52.7951,10.3676,54.1399,-363.4837,87.6761,14.7303,18.0909,230.7599,83.3344,-215.5171,20.5494,18.5391,90.3002
-3000.0000,-68.5527,-0.5220,150.2411,-83.2133,478.1128,-117.1407,205.8006,-121.7166,52.0021,-14.6202,-431.1698,92.4071,5.6441,-50.6966,124.3617,-22.9310,67.0958,-82.8760,-14.3570,20.7139
-2992.1875,-301.6453,45.9688,156.6167,-72.6236,407.5913,-148.4026,99.9612,-153.1504,93.1558,-7.9028,-498.4011,170.6390,-32.3291,-43.9814,129.4797,92.3064,148.2516,-0.8113,-4.7495,135.6441
-2984.3750,-67.9837,68.2096,-36.2574,-17.2859,433.8315,-120.9274,200.8836,-125.8395,120.0782,-54.4513,-432.9136,160.6287,44.0686,-126.5335,303.3676,46.3039,-145.8792,55.0067,51.6214,15.3249
-2976.5625,20.8831,13.6446,-56.9139,-1.7516,410.2758,-69.2627,216.0246,-147.3465,172.2142,-111.8251,-563.2675,28.8139,-28.6807,-74.8892,208.4624,-49.5091,291.2481,106.0154,32.1933,30.2091
-2968.7500,-176.3953,-78.0756,-44.7181,45.6345,419.5651,-21.7538,153.0162,-27.0128,183.2071,8.6303,-440.8048,76.8572,29.1764,-63.4012,219.4273,-38.4737,-153.7744,187.8805,113.6289,40.9559
-2960.9375,-236.4492,-175.5991,77.6789,18.2248,502.0695,-10.0473,237.2275,21.5109,194.4102,20.2564,-392.1769,-22.8953,88.7352,-52.7281,229.6197,-101.2479,-4.5987,-14.0642,157.2731,-22.1041
-2953.1250,-360.7096,-160.3263,87.8907,-37.3842,398.3660,-36.5481,136.2424,-6.1761,165.4305,102.6556,-491.8011,59.1514,13.4340,29.7522,201.6315,-54.2210,220.4269,-34.2233,170.7221,96.6514
-2945.3125,-212.6712,-118.7582,-48.5945,2.3038,516.9681,-100.7635,182.5651,3.4381,212.7801,113.3357,-444.1545,105.5059,73.9591,-70.4755,321.9748,-8.8806,-195.2872,5.9142,176.4871,-4.2883
-2937.5000,-267.2048,-104.7985,-34.6690,-20.6218,490.9817,-87.5969,232.3123,-20.5609,225.5523,89.3856,-541.1487,8.2538,23.4862,-57.3102,260.7355,3.8510,240.4407,-86.5666,154.6653,8.1741
-2929.6875,-582.8441,-175.9503,-184.8366,-21.6562,484.9007,-54.5440,189.9694,85.3315,220.2442,231.3096,-434.2841,39.9110,68.1662,11.7483,293.4183,146.4863,-111.9216,-17.1464,187.7613,76.5549
-2921.8750,-383.5890,-189.2052,-196.1071,-0.7942,543.7451,5.4016,251.5551,146.1179,133.8624,256.0983,-335.5505,-9.5309,99.8831,-37.3050,244.0300,133.0204,-160.4068,-99.8309,138.7811,26.8341
-2914.0625,-222.4346,-170.5719,-108.4830,-17.0366,371.4951,20.2423,80.0562,122.7931,147.4055,269.7613,-430.9734,4.9265,-32.7424,50.5434,109.5539,146.4559,104.0657,-81.6254,51.7127,150.0258
