Time,Fp1,Fp2,F3,F4,C3,C4,P3,P4,O1,O2,F7,F8,T7,T8,P7,P8,Fz,Cz,Pz,ref
-4000.0000,9.9508,-0.1240,-19.3292,4.7544,19.0703,19.8114,20.8893,13.4451,-13.0095,-13.2693,53.5131,-49.7462,10.9335,-9.0724,15.1107,3.1406,-7.8909,-52.0502,11.3589,-17.4863
-3992.1875,-13.0215,11.7337,-8.8696,52.6033,-43.7122,30.9006,-4.9838,-49.4750,34.7064,-148.5599,-7.7621,108.4093,-14.9933,-35.3211,26.3294,-95.8660,39.7264,64.9450,22.9417,30.2687
-3984.3750,47.0437,36.6267,-56.3633,76.4978,-54.4465,20.0391,-52.8083,-60.3440,-13.5141,-86.8020,55.0048,96.6176,11.1282,27.4791,-21.3853,3.1809,-6.6078,-17.0012,-23.4332,19.0878
-3976.5625,118.0511,72.4705,19.0874,77.3465,22.7726,-13.8715,-12.6793,-130.2605,-10.7889,-157.0785,21.7268,98.7650,51.1957,-43.7625,-18.1471,-104.8134,-5.9999,89.0012,-57.8724,-15.1428
-3968.7500,2.9098,98.1635,-31.6113,103.0401,-28.1531,-27.9294,-99.7064,-107.3305,10.7880,-135.5067,8.2903,193.7690,-0.8850,14.8445,3.9498,-80.9663,-14.5443,77.8657,-67.4664,80.4789
-3960.9375,70.2121,129.3053,-33.8678,134.1820,-28.6319,-28.5350,-100.2942,-71.9467,-63.1842,-63.4754,45.3061,119.2295,-0.5186,14.9074,4.5008,-82.6592,-19.6449,74.1738,-105.6192,6.5601
-3953.1250,56.9258,45.8451,24.2794,120.7215,-43.7028,-43.7428,-78.4780,-86.1597,32.2403,-78.0388,-42.2762,140.0806,-15.7514,-37.6319,63.4556,-132.9501,1.6511,129.8785,-84.3852,28.0390
-3945.3125,-50.4167,79.3299,-88.6195,84.2057,-45.8274,-46.0064,-44.7155,-52.4271,28.6234,28.3416,-7.9106,135.8921,17.9665,32.7806,60.3641,46.7112,-105.1016,-12.4617,-122.2099,61.4814
-3937.5000,26.6410,50.2202,-45.1225,19.0949,35.4514,-74.8766,36.4429,-8.2958,73.3912,-0.8690,37.8642,106.1021,-10.9075,-33.3938,31.6720,17.7779,-134.4613,-42.4048,-116.6552,32.3290
-3929.6875,-85.1960,9.2097,-93.5163,-56.9170,-11.1650,-48.6482,-10.2978,17.9277,172.2681,61.0072,-46.2621,167.4161,-57.6796,-6.4731,57.0883,79.9358,-176.7231,-50.2382,-53.0162,131.2796
-3921.8750,-10.2928,-22.0557,-85.1708,-87.1841,69.9607,-76.6720,33.7076,62.9043,106.9036,253.6428,-37.6366,-8.5126,-49.7009,37.2037,-44.7377,161.8535,-206.2408,-116.3267,-47.6395,65.9940
-3914.0625,-43.3275,-125.2760,-83.7743,-155.4027,35.1481,-38.6477,72.7635,27.9341,218.5866,218.3345,-107.9550,-43.4027,25.3253,-34.0708,31.4865,90.8275,-169.7186,-9.3629,22.7749,67.7573
-3906.2500,-116.0652,-128.2055,-162.0734,-193.3306,-78.3693,29.6776,31.1146,97.2663,177.5776,250.3234,-110.9801,-48.9858,57.6479,33.9525,138.0176,160.0992,-172.8956,-84.0856,19.4803,99.8342
-3898.4375,-68.0621,-114.3855,-71.6203,-180.5056,49.8599,11.7477,123.2049,79.3523,158.3089,158.0731,-56.2487,-104.8179,39.7223,15.7407,82.2917,68.1317,-160.3205,-71.0618,32.9207,7.6685
-3890.6250,-151.4481,-163.9609,-125.5588,-159.0834,106.6914,-5.5855,106.8937,25.0324,251.6401,141.4159,-144.9165,-13.0429,-50.5996,-1.8774,66.1642,50.7536,-104.1417,18.5712,88.9516,64.1008
-3882.8125,-127.4371,-105.1344,-210.1002,-100.2630,96.9175,21.4781,132.9735,89.1107,130.3752,241.1599,-119.1874,-96.8564,49.4786,24.9101,-17.5645,113.7768,-116.5617,-29.3925,5.3701,16.9468
-3875.0000,-97.8214,-75.7092,-141.0434,-70.8367,-55.2532,54.1395,18.6567,157.7918,125.7036,162.5061,-122.8566,-30.0766,45.1580,-53.6996,-21.6937,36.4060,-51.3839,71.2475,36.3732,12.3920
-3867.1875,-163.5078,-1.5923,-177.2841,-101.7111,-163.7245,54.4990,-89.9641,195.1644,89.7451,236.5430,-119.8278,-28.5877,8.5309,-15.6141,-21.1039,110.7259,-11.5040,73.5996,39.0689,86.5445
-3859.3750,-74.8941,17.8297,-45.2240,-83.2840,-29.9022,5.1545,6.7090,108.8340,40.0784,186.8882,-96.4912,-115.7950,-3.7891,-29.2236,-33.2123,61.3578,5.6691,92.2438,-12.9556,0.0066
-3851.5625,-98.3167,-7.7907,-36.2020,-71.9066,-21.1257,-59.2408,-21.6709,44.4499,85.3563,122.1753,-196.2014,0.9506,-32.1565,-20.8826,49.6263,32.9354,50.7842,136.8402,-3.0437,45.4195
-3843.7500,-51.0964,5.2369,-58.5366,-24.8849,-5.7099,-44.9903,-43.4111,132.7165,-83.7048,210.1088,-108.2658,-21.6344,-16.8747,68.1094,-45.8720,158.1633,28.5465,-26.9095,-94.4903,23.4997
-3835.9375,50.6315,36.7622,85.6302,6.6347,66.2067,-84.2476,-45.6536,20.4761,-87.2739,96.5545,-72.8184,49.2737,-19.0853,-8.3934,-84.8684,8.8993,94.8092,2.8369,-100.4565,-15.9179
-3828.1250,33.5643,90.4789,137.0114,24.3569,44.3252,-104.3116,-139.7014,-73.5739,-107.6386,38.1942,-57.1738,137.3874,32.9047,6.2985,-68.6582,-13.1747,113.2774,-49.2042,-117.2337,72.8714
-3820.3125,118.6908,139.3941,190.5910,3.2818,99.6333,-160.1754,-121.5668,-93.4231,-163.8110,-17.9534,35.6752,80.7101,51.0909,-12.8000,-88.2498,4.9673,126.9435,-36.0476,-173.8259,16.8752
-3812.5000,89.0288,74.5071,193.3729,-26.5987,29.1419,-119.8392,-192.2386,-89.0715,-123.7838,-86.9000,-34.2716,157.2302,-19.5270,-9.7008,-10.6395,-28.6899,166.8071,73.3171,-99.2259,57.0816
-3804.6875,16.2598,72.5105,118.0528,41.4116,-9.4613,-84.6075,-230.0177,-18.8239,-199.8419,57.0537,-35.3268,117.6666,-57.2458,62.2955,-85.1244,80.5530,129.5718,35.5904,-65.7222,55.2055
-3796.8750,108.8409,58.8653,179.0770,28.7699,16.2856,-97.0299,-95.4458,-67.2258,-101.5543,-28.6341,-9.0283,68.4505,-32.6113,-23.3452,-60.2579,-78.8462,115.6800,92.2111,-80.8833,6.6820
-3789.0625,50.9229,35.7183,114.6120,5.6270,-83.4668,-86.9520,-122.3763,-56.1345,-54.7626,-18.8358,-72.2331,150.7444,-22.4767,-13.4876,23.1185,-31.7558,92.2863,68.3448,-68.5547,89.6618
-3781.2500,64.0405,48.6266,56.1914,53.5399,-68.1814,-71.8284,-70.2716,-41.9933,-112.9177,-3.9793,17.6114,55.1053,-7.2928,38.4251,39.5459,20.3922,33.9403,44.5304,-127.1902,31.7056
-3773.4375,7.9229,27.2904,70.5314,32.2089,-89.1461,-20.9627,-91.4237,-63.1057,10.6616,-135.3717,-40.7903,143.2145,-29.3555,16.0894,17.7131,-38.7094,84.3455,129.4714,-77.0823,46.4984
-3765.6250,-31.5448,57.5943,26.5313,62.5186,-132.4659,46.5481,-97.9296,3.4236,-32.1064,-32.1101,-9.5470,98.9868,1.2307,83.4046,-61.4732,102.8348,78.4056,18.0714,-259.3235,76.9511
-3757.8125,110.5399,129.4444,105.0787,29.3752,-55.2342,51.6068,-20.8943,-28.4911,-28.3305,-28.2758,33.2481,29.3060,43.3686,14.2775,-20.1141,33.9391,80.0082,18.2183,-505.0258,7.9548
-3750.0000,38.4843,93.1447,25.4854,-7.9174,-58.1509,46.5095,-25.0102,-32.5613,40.3047,3.4003,-45.1090,134.4796,1.3544,8.9925,86.1016,-8.1197,42.4606,51.2268,-471.8852,76.8095
-3742.1875,11.2630,99.6954,-38.2604,-1.3587,-12.2280,20.2521,21.7150,-22.7835,-23.2047,50.9217,-33.6187,70.5194,-24.8085,56.5610,60.1777,39.6735,-21.2364,22.0941,-288.9047,13.5306
-3734.3750,-6.5517,11.6469,17.4041,-89.3947,44.0971,39.3932,113.8361,-40.6105,105.6809,-78.1527,-87.7220,88.9571,-5.5687,-35.4699,42.6498,-125.1304,31.4637,109.3670,-131.5449,-4.3503
-3726.5625,-99.6247,-47.6581,-10.1713,-76.6900,54.1658,49.2823,124.7024,-30.6891,79.3224,42.5187,-113.0893,24.1578,41.4191,11.2492,-21.1211,-5.1857,41.9146,14.4065,-121.4371,42.5277
-3718.7500,1.1977,-52.0662,99.1516,-82.0875,127.1279,12.0733,160.4600,6.1346,41.8620,42.1015,-76.5552,-87.7401,41.3047,-26.1240,-20.9931,-42.3309,38.2665,10.3406,-160.4384,-31.6852
-3710.9375,-48.7596,-101.2742,79.6842,-96.2877,71.2909,-43.9420,104.4164,-49.8516,132.6072,-51.1281,-94.8084,39.5670,-15.6121,-9.3015,33.3375,-61.2897,57.8148,64.4872,-70.2529,59.3026
-3703.1250,-1.8719,-19.6320,19.0606,-49.6367,48.2884,-31.1063,44.2133,-36.9944,-1.7924,-38.5050,-7.2148,52.7403,-1.6820,78.3738,10.5237,-11.3972,-0.7899,5.4929,-94.2263,36.1562
-3695.3125,64.8130,-24.1833,53.2341,-19.1782,46.0852,-33.4740,78.8116,-76.3366,-4.4031,-187.0721,-45.8213,49.7138,33.0521,75.8554,8.5034,-87.6924,30.3933,106.2992,-65.4096,-3.1904
-3687.5000,-31.4557,20.3066,-14.5310,-9.6739,14.9300,9.2036,10.4564,-68.6374,-34.9527,-107.6000,-75.3911,91.7558,1.8352,118.3801,14.5367,-7.9498,3.6288,44.1742,-55.5385,76.5229
-3679.6875,9.6152,61.1417,-6.9455,31.1844,61.1195,-18.7729,19.4408,-61.5962,-64.1560,-63.7726,7.3881,26.1516,-26.0322,90.2642,23.9243,-35.8495,-26.7864,49.4037,-87.3191,11.5970
-3671.8750,-63.2544,22.0238,22.7008,-7.9091,17.3638,-60.7090,12.4707,-103.5068,76.6852,-179.8874,-35.7775,129.5920,-31.8476,46.1905,91.3646,-114.7046,4.8458,150.6933,-55.0528,78.7185
-3664.0625,-70.6777,49.3504,-57.2071,-15.5567,47.0439,-68.2002,4.9391,-37.9687,-41.0127,-113.5477,-5.4994,84.5007,33.7855,149.5635,10.2580,23.8930,-37.0772,71.4407,-99.3307,71.3035
-3656.2500,37.6544,-52.5726,21.6375,-82.4525,91.4664,-25.9517,86.1487,-31.6751,-71.9626,-71.4467,2.5333,17.1613,41.1661,82.6934,-56.1081,-5.7536,-70.2531,144.9369,-61.8612,4.6392
-3648.4375,-66.9619,-122.4493,-18.4542,-117.2967,13.9345,7.3399,8.4068,1.6579,-1.8610,72.6959,-37.3881,49.8848,0.5935,152.8720,-58.4269,64.6353,-70.3748,73.5039,-27.3403,75.0288
-3640.6250,0.7159,-55.0221,18.7601,-84.8355,52.6939,8.9244,9.9476,40.2879,-74.4697,110.1452,38.9901,-60.0747,39.3174,116.3569,-57.4527,66.3327,-73.1920,0.3735,-100.5287,2.7298
-3632.8125,-33.4426,-87.4436,55.1399,-48.2251,-21.3960,8.6571,-27.3657,40.0663,-37.9414,-37.2509,-34.4806,50.1110,2.1894,116.9840,16.6660,-7.8212,-1.8573,72.4040,-64.5714,39.5782
-3625.0000,-91.1574,-42.4189,-8.0248,32.8368,-82.0492,19.8358,-88.2430,51.2832,-135.9510,47.8053,-59.5103,23.7631,-23.4890,164.0589,-8.7577,77.4670,43.9280,46.8979,-19.1656,50.8911
-3617.1875,32.4308,-23.0886,53.1070,52.2023,14.5904,-29.6910,8.1719,38.7947,-113.6616,-38.8336,-71.2352,-26.2816,1.1346,41.4415,-57.8910,-8.9344,28.0085,100.6925,34.5336,-35.4909
-3609.3750,-35.6775,-21.4595,14.5514,18.8682,-23.4766,-66.9187,6.8837,0.5977,32.9276,-112.1786,-107.6701,45.9817,37.0571,3.1208,-21.7214,-47.0444,29.3921,137.8029,71.5346,37.4291
-3601.5625,80.7492,24.7109,28.5386,65.0811,27.9915,-90.5938,21.1341,-22.0469,-63.9340,-171.9607,17.4380,-51.1899,51.5201,17.3580,-43.9958,-32.5940,75.3215,42.4721,46.0879,-22.0880
-3593.7500,71.9315,-19.3711,166.2796,-13.9604,19.2056,-62.5167,49.1305,-30.9353,-36.0546,-291.9841,-27.7037,13.3839,5.7307,-28.6474,21.4736,-115.3914,135.9958,102.9025,71.3893,-30.8583
-3585.9375,-29.3405,-15.9120,131.5791,-45.4589,-15.0376,-22.8907,-22.3304,45.7175,-70.6103,-178.4676,-24.3064,15.5270,-28.5145,10.9013,-12.5089,35.3523,105.2232,36.8993,75.2476,8.9304
-3578.1250,35.9337,-20.8999,129.4259,-15.3987,20.2625,12.2776,-24.2516,42.9200,-72.6196,-145.3987,10.6420,-60.7714,-30.2071,-27.9911,-50.9465,-40.3467,99.0011,100.4407,104.6529,-66.7253
-3570.3125,-1.4311,-24.5384,86.6362,-18.9835,-60.0897,42.7920,-67.8210,0.4611,-5.2822,-223.9890,-31.0620,43.2853,-36.5465,-34.5398,-20.0351,-119.7074,131.1330,167.3451,171.4057,0.9672
-3562.5000,58.0432,0.6727,40.6980,6.2836,5.3975,70.1486,-39.5464,-8.1559,-125.0946,-195.7348,34.0773,-2.7917,-45.0331,30.7625,8.7327,-55.2147,50.1160,86.1095,125.0066,-44.4770
-3554.6875,51.0213,-41.6089,106.2698,-0.9475,35.3904,62.9979,-9.7734,-52.2765,-21.4178,-239.9818,27.7179,-10.3671,-52.0164,-50.4337,1.9958,-99.2220,42.5924,184.3800,117.1025,-51.4231
-3546.8750,-41.8036,-64.6935,79.0481,47.0167,-29.4221,36.0403,-109.8050,-43.2118,24.4721,-120.0334,38.5486,35.2751,-5.8034,-4.4355,-25.5377,-16.0404,19.2744,90.8686,58.4056,31.8370
-3539.0625,82.2126,-45.9259,138.6771,64.8390,-5.3963,22.9274,-50.9975,-19.3025,-25.7887,-98.2184,99.2287,-52.2211,18.2574,-54.5800,-1.2278,-29.0028,37.8062,3.2046,-29.4431,-55.0489
-3531.2500,64.8911,-64.5069,116.9676,12.3148,-63.7208,1.4627,-35.5393,-40.7492,63.6031,-118.7605,42.5575,36.9360,-3.0310,-76.0831,124.7285,-50.3254,54.9868,-50.7981,-12.6442,-2.2895
-3523.4375,46.5601,-12.0933,25.2578,28.7910,-45.0581,-54.0042,-17.0927,14.8016,8.0012,-27.3104,60.8805,18.1117,15.6814,-20.5838,106.6849,42.3530,36.1670,-174.7892,-31.8430,-20.5158
-3515.6250,117.3802,-12.5247,62.6977,98.4173,-6.2459,-89.3269,21.5007,-57.4996,45.5403,-136.6944,63.3518,19.4368,-19.4515,-92.9278,108.7873,-103.8135,70.4963,-105.6338,72.1031,-55.5934
-3507.8125,-55.3993,-9.5624,-10.4519,102.4393,-79.0431,-52.2523,-15.5100,-57.4039,119.4930,-98.6787,28.2124,93.1680,-19.1882,-18.8778,73.2926,-66.5833,74.2242,-137.0679,110.4549,18.7345
-3500.0000,-8.7892,1.7938,5.7896,77.8612,-26.4535,-35.7843,36.8677,-40.9071,61.8437,26.7560,44.4737,-1.6906,-2.5289,-39.4222,15.1971,-12.9411,14.3473,-162.0986,121.2096,-75.5244
-3492.1875,-20.0197,-44.7086,29.1897,-3.5695,-39.7094,-49.1706,-12.6023,-54.2608,122.3371,50.3431,-41.1156,57.5975,-15.7213,-89.8204,76.2450,-26.1498,2.6209,-103.9671,214.1191,-51.6374
-3484.3750,-9.2066,-34.1628,-34.3569,7.0465,-65.9277,-38.5048,-39.0330,30.4336,22.8870,244.9771,-29.6693,-5.0459,-78.8669,-42.1702,14.3385,94.6810,-22.0522,-198.7667,224.0903,-40.6908
-3476.5625,43.7605,-51.4586,23.2494,24.8158,-7.0050,19.3050,-17.3246,51.2759,6.5779,192.7731,-44.0723,-57.5366,-130.8663,-57.3680,-37.4229,42.6666,-4.5762,-146.4169,242.2158,-92.5927
-3468.7500,-100.1221,-55.6032,17.0163,56.7347,-87.9375,50.2624,-61.4655,8.2543,73.4248,186.7078,-124.3327,46.1368,-100.7197,-27.4179,-44.0316,72.7872,27.0563,-148.9065,237.4996,-25.3435
-3460.9375,-61.2689,-51.9997,22.5323,95.4077,28.8596,18.9682,18.1292,13.9808,6.0208,156.3971,-79.8503,-58.4252,-19.8268,-20.7042,-73.8912,116.6666,29.4423,-182.6461,134.5429,-92.3353
-3453.1250,45.5424,-50.4404,59.0140,61.0387,29.6065,-17.3768,18.6723,-59.3437,42.5548,45.0419,30.5795,-22.0372,-19.9867,-95.0451,-36.8164,-30.5061,30.7823,-76.4324,100.5350,-55.3830
-3445.3125,79.8054,-16.4279,-54.0423,60.1251,-47.2081,-20.2763,-58.3478,-25.2345,3.5464,190.1307,176.4489,-99.1797,-22.6993,13.0595,-39.2998,76.7615,-76.4153,-112.7530,-7.0227,-20.9709
-3437.5000,111.5204,-20.9620,-17.6476,20.6709,-47.5838,15.2628,-21.9301,47.3207,38.9770,188.6797,175.7699,-173.8637,-59.9603,11.6215,-39.3406,76.4817,-116.1612,-81.6228,-12.1260,-95.1065
-3429.6875,-43.0118,-104.7489,-73.4928,-28.0337,-66.2152,34.5456,-40.7618,66.6195,94.1595,207.9711,84.8324,-81.7914,-41.4758,-6.0728,16.3701,58.9443,-94.1578,-25.7221,44.5378,-2.4962
-3421.8750,-19.7117,-82.6944,-49.4923,-4.8947,-42.0089,21.6733,-53.7492,53.7708,8.2070,232.1214,146.7294,-166.8619,-17.1488,-18.9148,3.9295,119.2658,-72.3072,-38.9566,-3.9291,-15.0275
-3414.0625,38.4383,-129.7881,49.3615,18.0984,20.0469,-27.3501,-28.8841,-32.2251,69.1001,109.1308,61.4759,-143.0869,8.0206,-104.9084,29.3337,-39.5613,-13.6101,124.6617,18.4622,-26.7161
-3406.2500,-24.0643,-86.5360,-18.4305,-9.5604,-47.5548,15.9725,-59.6657,-25.8789,76.3476,152.4887,32.5574,-99.9424,-22.4631,12.4356,-0.9087,40.9482,-41.5615,62.6453,26.2207,16.9502
-3398.4375,28.3791,-34.3318,3.7224,-27.2687,11.7888,37.2399,-0.4985,32.4161,23.5405,137.8054,54.5839,-188.8449,-36.9931,-2.2687,-89.2108,25.4163,-95.5623,78.5780,112.9383,-71.4300
-3390.6250,-135.3193,-93.2860,-60.2628,-51.1294,-15.0130,121.3496,-27.4773,43.5533,34.5879,73.9670,-7.5434,-68.8972,-63.6759,7.8683,-4.6672,-37.2749,-83.7117,196.3754,194.5238,-23.9672
-3382.8125,-151.1301,-73.3394,-111.3468,38.9092,8.0717,181.3566,-41.5623,102.5881,-53.4549,134.0203,-20.7812,-120.0328,-40.4645,66.9093,-55.2272,21.9333,-134.9579,145.0781,178.0257,-74.5950
-3375.0000,-91.8859,-156.3315,-47.3763,-7.9926,34.2040,207.4067,21.3962,92.6738,9.5384,87.1308,-30.9647,-167.1175,-50.2054,-17.0000,-64.7491,-24.8056,-147.1516,202.8236,271.5823,-121.1757
-3367.1875,-113.0381,-175.7286,-146.7912,-64.2936,-28.0754,182.0518,-4.0533,177.3472,21.1353,208.8386,-55.5574,-155.5877,-113.3466,31.6846,-90.6691,97.0410,-166.7369,111.1790,320.7537,-36.1534
-3359.3750,5.4054,-93.5277,-94.6080,-15.9907,-11.7713,124.2917,11.0884,192.6193,-73.6724,224.1589,34.4477,-213.4518,-96.8887,-26.0259,-73.9958,76.4957,-155.7177,18.1323,262.5361,-93.5252
-3351.5625,-15.5426,-45.7268,-47.8127,-2.0895,-75.8696,61.1284,-15.1644,129.4847,10.1172,87.0744,9.0488,-129.7115,-49.8333,-90.1408,10.2691,-60.4546,-37.0961,66.6962,204.9277,-9.3045
-3343.7500,-59.6003,-19.0295,-58.1170,24.7139,-85.0821,13.8657,-25.5235,119.2471,-0.1879,150.8968,36.5262,-139.0513,14.1114,-26.3565,-36.5630,40.4936,-45.5713,-12.8292,90.2330,17.8239
-3335.9375,26.4811,-3.1753,32.7204,39.6724,-32.1476,-43.2465,28.2609,63.1680,53.6424,93.8991,17.1445,-159.2413,31.2026,-119.4158,17.7380,-16.3944,-30.9019,2.8017,-0.3061,-1.9024
-3328.1250,-45.5433,-6.4240,-47.5375,36.5262,-112.3224,-49.4606,-16.0518,54.9912,82.3825,123.8097,-26.3528,-20.5222,-12.8122,-52.5827,83.9309,12.6097,-32.3328,-0.6490,-72.9267,101.2678
-3320.3125,64.9693,69.8710,-40.2484,112.9257,-102.9562,-78.1304,-7.8191,27.3672,-19.3209,169.2869,56.6880,-49.2441,32.7249,-81.1955,-17.3264,22.1676,-28.2134,-30.5567,-137.9817,36.9922
-3312.5000,48.3871,53.0634,14.9536,96.2204,-84.6867,-59.9131,-26.6785,-28.3612,-1.1252,40.6657,38.6289,42.9280,14.1645,-98.9154,38.3128,-69.3779,-10.1901,22.4390,-86.1209,55.6055
-3304.6875,-36.3083,74.1532,-0.9399,82.4105,-100.5261,-38.7937,-41.6421,-43.1946,-53.0150,61.9378,60.4536,64.0166,35.4941,31.2648,-14.1485,61.9687,10.7335,-131.6468,-99.3402,77.1224
-3296.8750,64.0901,103.3516,144.2557,76.7106,6.7260,-41.5678,-7.5093,-82.9246,-55.8174,-50.6848,59.3738,25.2144,33.9179,29.5532,-52.5215,-50.5769,40.7498,-102.6292,-141.4467,1.7352
-3289.0625,15.9969,56.0507,91.9594,64.5203,-45.5266,16.1606,-59.8725,-97.1669,1.8830,-65.8220,6.7813,119.9209,54.8394,13.3341,-31.3989,-65.6420,27.2735,-45.0938,-118.0368,59.8394
-3281.2500,92.1441,96.0051,26.9173,104.5831,-37.5377,25.1380,-51.9968,-53.1638,-100.1597,-20.7083,53.4301,17.8903,64.0047,22.3691,-22.0345,-20.4572,-1.9411,-75.3123,-114.3670,-4.8033
-3273.4375,18.4515,57.1160,60.0391,30.8036,-41.3975,21.2623,18.0272,-57.0132,-30.0592,-61.4496,50.2295,51.0086,60.3197,-92.4478,11.4654,-61.1247,-6.0002,-8.3840,-12.5399,-8.3069
-3265.6250,-31.4486,43.0193,-32.0248,15.8216,-58.4671,3.1880,-37.1536,-38.0686,-11.1534,31.5966,69.8182,106.9458,42.4306,0.5301,-6.2331,-5.0019,-21.2526,-92.6433,-27.8933,47.9902
-3257.8125,100.2434,68.5224,-0.4938,42.4481,-27.9425,-2.2848,31.2608,-43.5260,-16.6540,-47.7545,101.0001,27.4863,0.1375,-4.8779,-48.3419,-84.2654,-29.9022,-32.3055,-1.6343,-31.1159
-3250.0000,-6.8116,32.2749,-42.7064,5.3291,-69.1699,66.4902,25.9323,-48.7391,89.1008,-88.8566,-13.5828,132.2799,-4.9097,-10.0449,-16.2031,-88.2884,-32.2955,0.2938,31.8903,38.0167
-3242.1875,1.5718,39.4810,-106.4747,13.6650,-60.9569,75.7090,35.0452,34.4995,-12.6814,-6.5062,33.2650,31.5420,41.4847,36.2365,-43.6211,31.1404,-95.2318,-62.6525,3.8814,10.6030
-3234.3750,2.5576,5.2974,6.3624,-56.3989,15.8577,4.5171,110.7611,0.3399,27.1297,-114.5459,36.7124,-2.5935,44.4781,-108.8881,33.5459,-76.8292,-59.5660,43.9971,110.4845,-23.2192
-3226.5625,-91.2635,-53.6925,-20.5895,-79.2682,25.8679,-22.4799,84.6777,-26.6320,37.1474,-67.3856,47.3493,7.4828,17.6759,-97.8248,80.9149,-66.6114,-82.6957,90.8590,192.3089,24.1593
-3218.7500,29.7075,-37.8862,0.2528,6.6634,82.6728,34.3169,141.3940,-42.8058,-90.0335,-120.4150,67.7744,-119.6382,1.6732,-40.9517,-8.9192,-119.5839,-67.0260,176.5136,171.9502,-65.6591
-3210.9375,-56.8157,-54.5808,-19.4076,-8.9052,63.9837,125.6109,48.6216,-62.4816,-35.7051,-174.9460,-24.3090,-28.2647,19.1656,-23.5846,-28.2528,-102.0588,-48.8651,230.6780,191.1038,-10.9866
-3203.1250,-90.3456,17.7184,-55.0771,-7.4830,65.2829,126.8999,-24.1535,-24.1541,-108.3621,-64.4733,14.5967,-26.8761,20.6547,51.7779,-63.5842,47.4694,-47.7036,125.8472,51.2720,-9.3062
-3195.3125,20.0292,21.9188,25.1565,-3.1590,70.4792,133.0847,18.9699,-54.9260,-65.1269,-168.0883,-15.6041,16.4089,27.0450,-15.9557,-57.0284,-57.0984,-7.6376,130.9135,20.3513,-39.7328
-3187.5000,-39.2973,33.4110,-4.3014,7.4609,-32.0297,67.5707,-47.6026,-83.3996,-57.5821,-122.4048,-7.5212,97.9996,34.7266,65.6087,-12.1799,-49.3761,38.7347,71.2894,-3.2418,42.1350
-3179.6875,90.2071,127.7493,25.0918,66.9274,-2.7013,22.9087,-55.3284,-55.0165,-211.1852,-94.8569,58.3952,52.4540,27.2457,94.0291,-19.4884,17.2099,26.9566,24.5070,-155.9602,-39.1449
-3171.8750,32.7175,175.0903,108.4896,79.3929,-29.3738,-3.7556,-118.0458,-81.6307,-200.7863,-156.3104,-3.6973,173.9064,0.7597,31.4398,-8.8042,-46.2138,109.1807,106.7336,-177.6581,8.5655
-3164.0625,21.2604,233.4826,21.9323,137.9064,-79.0108,-17.3739,-204.7145,-58.2019,-177.3217,-23.7213,20.2412,160.4279,-12.6756,54.8967,-59.0677,88.4046,97.4597,-10.9709,-225.2830,32.3296
-3156.2500,171.1479,207.2312,70.7175,182.7724,-30.3026,-78.6405,-156.0362,-119.4163,-129.5205,-84.7643,69.5205,136.3009,37.2339,-43.2870,-45.9923,-46.6174,106.0913,-36.3274,-181.5448,-28.5663
-3148.4375,83.2352,154.1842,48.7122,94.8388,-52.3977,-99.7035,-141.1593,-140.4338,-77.5194,-105.6072,84.9842,224.3811,51.3360,7.7253,5.2735,-68.4474,88.9266,-124.4735,-93.5806,59.7252
-3140.6250,107.7607,143.5873,77.1498,49.3586,48.9493,-73.3140,-77.8348,-76.9939,-196.0697,-78.9935,112.8811,141.9209,115.8795,36.1939,-77.0217,33.1787,8.2116,-205.1674,-104.1448,14.4684
-3132.8125,94.4370,60.1422,61.7402,-34.9630,33.4484,-14.7772,-56.3565,-91.4017,-65.4767,-166.2284,24.9211,163.6070,101.5703,20.8097,-18.1755,-19.0443,29.6481,-148.7073,-11.5430,36.3499
-3125.0000,45.9049,46.4932,-27.8692,-48.4851,-19.2526,6.5544,-144.0727,-34.0135,-116.0736,-35.6686,83.7401,112.1064,86.0561,79.2162,3.4673,76.5234,14.8949,-197.4343,9.8841,58.0287
-3117.1875,164.6643,24.1477,27.8177,-34.7004,36.3429,25.1850,-53.4869,-15.3250,-136.3679,-53.7943,101.8458,19.9035,30.8371,23.9293,22.3993,-15.5985,-6.5552,-149.8707,22.6289,-34.0028
-3109.3750,42.4241,6.8000,42.5146,-85.9149,-23.0590,39.8169,-74.8930,-37.6380,-47.6494,-74.9267,43.9404,108.7044,45.6153,1.6317,37.3304,-0.7350,10.9996,-131.3001,41.3894,54.9494
-3101.5625,20.5216,55.7982,-16.4427,-38.7802,-45.1223,17.8014,-23.9473,14.4027,-32.5743,13.2929,59.3671,12.8677,60.7342,16.6901,-21.3882,88.4766,-11.0887,-188.3821,-15.4786,33.2519
-3093.7500,82.0771,12.2516,-24.9482,-12.1948,-16.7292,9.2331,4.4566,-31.1081,69.9517,-105.0331,14.2402,41.4804,52.3000,-65.8007,7.3304,-67.8652,16.2778,-22.0261,11.1151,24.9914
-3085.9375,35.9295,1.0027,-111.1447,-22.3164,-66.0415,-5.0345,-9.8354,-44.3247,55.7901,-9.0671,0.3972,64.4113,38.1581,-5.9990,-6.6527,-7.9150,4.9529,2.6361,0.0241,85.0290
-3078.1250,51.2744,51.2583,-92.8444,-42.9344,63.1363,-58.8058,120.3642,-62.0401,39.1248,-25.5903,21.0455,-26.1480,58.5159,-96.6899,13.8542,-61.4537,20.1361,52.7925,-19.5598,-5.4361
-3070.3125,-77.7266,28.1651,-81.8811,-65.8987,-1.0332,-84.9300,130.2220,-88.1110,233.1106,-161.4713,-78.6681,57.9455,31.5242,-121.7379,98.0058,-123.3539,66.9779,134.6045,62.5210,41.7352
-3062.5000,-75.1402,65.6711,-78.3190,-63.2686,40.3934,-117.4559,134.6814,-47.5864,126.7062,-120.7515,-0.7965,-48.3494,73.1262,-82.1883,28.7571,-46.6568,69.4261,32.0201,100.2217,9.5094
-3054.6875,27.8523,-7.4123,-5.3576,-136.2369,112.2171,-82.5827,133.5394,-48.6618,88.6930,-158.6186,35.4729,-49.2475,71.1267,-120.2362,-9.1026,-121.5539,31.2774,98.8317,168.3275,-28.3282
-3046.8750,-25.3460,-94.7008,-100.5825,-223.4044,52.8367,-67.9154,74.1987,39.0620,103.4855,76.3030,-24.4725,-35.3347,48.9246,-32.4905,4.8292,3.3344,-91.0615,46.4536,186.2521,59.6287
-3039.0625,13.5953,-127.8456,-95.6604,-220.4223,95.6051,-25.0976,117.0041,81.9412,72.4284,156.3812,-17.2804,-138.2700,55.8724,-25.5870,-25.0988,10.3836,-89.2493,14.2231,154.3441,-7.2672
-3031.2500,-90.9653,-125.4882,-22.2321,-218.9434,21.8857,11.2224,116.3189,45.3238,145.8734,45.9635,-90.6030,-28.7099,-18.6859,-26.1855,11.4612,-64.0697,-17.9388,85.4987,190.9542,29.3199
-3023.4375,-110.8947,-41.4843,-79.1657,-132.8236,-35.1895,28.1961,96.2869,62.3612,52.9797,63.2013,-74.2967,-48.4876,-38.6030,64.8692,-8.3278,27.1254,-1.9781,30.4286,136.2457,9.5569
-3015.6250,28.1713,-7.4809,-3.1118,-64.6986,3.7335,29.1693,135.2655,-9.5889,54.0813,-82.5518,-71.9962,-83.2651,-73.5253,-7.0731,29.8763,-44.6733,30.9783,99.3508,99.5564,-62.2182
-3007.8125,-73.4071,-3.1291,-76.7023,-26.2310,-32.9890,-6.5051,62.6116,-46.1931,91.5428,-81.9628,-107.3606,28.3101,-73.1040,67.3209,31.4301,-7.1366,70.2866,102.6327,68.2390,12.3470
-3000.0000,-16.6956,52.5167,-14.9964,30.5284,28.5884,18.1178,49.2586,-21.4990,-30.6870,-94.0597,-46.4372,16.1904,-11.3827,128.0153,-91.7255,17.7076,55.8996,18.2124,-50.7650,-36.7870
-2992.1875,-45.7269,59.4121,-10.0294,37.5315,33.4265,22.9832,18.1633,-90.5533,-25.6668,-234.9049,-78.2690,168.3132,-6.4120,95.9594,-12.6413,-51.2034,62.7660,95.0457,-43.5074,5.3134
-2984.3750,-70.4701,174.6065,-74.7640,47.8311,4.5588,-42.8486,-47.6292,-45.3114,-54.3284,-152.4617,-68.8187,176.7503,-35.1472,141.2018,32.7433,31.1793,1.9386,-0.8107,-68.9281,50.7083
-2976.5625,51.0299,191.0628,17.7438,28.3899,23.9373,-133.4217,45.8331,-99.8134,-71.7426,-169.7667,-13.1305,122.4421,21.3599,50.6986,15.3686,-23.1807,18.3653,-19.4274,-52.0905,-3.6580
-2968.7500,-29.0119,145.9696,2.7094,-16.5995,8.7659,-184.5398,-6.2499,-112.8671,-12.6984,-110.6279,8.9955,181.5883,43.3131,35.6380,37.4385,-37.1032,43.2460,-63.5897,-26.7914,92.4144
-2960.9375,49.3333,153.2743,-24.9324,61.8064,17.9796,-212.2562,-33.9354,-103.5182,-76.2449,-29.0716,92.5061,118.1472,89.6628,81.9861,-27.0927,82.3819,-19.4720,-162.3616,-123.0802,64.8874
-2953.1250,73.7800,107.6877,-35.4696,51.3182,-29.7059,-148.8744,-44.5116,-78.0702,60.3106,-39.4131,8.1095,143.7995,5.1134,34.4357,36.4678,-2.0329,-30.0855,-68.0400,-99.2650,54.4459
-2945.3125,-31.6321,108.2496,-145.8520,50.9755,-140.2480,-113.3404,-44.9319,-6.4729,59.0298,107.3861,-29.1558,179.6187,-68.2927,107.0291,35.1741,107.6950,5.4601,-137.5594,-133.2845,90.1518
-2937.5000,45.8430,114.7209,-63.3450,58.5355,-93.8927,-103.9039,75.5460,4.0275,32.6474,81.1031,17.4643,80.3391,-22.8054,6.5320,8.7725,81.3348,12.9072,-166.1808,-196.3964,26.7512
-2929.6875,-69.3197,105.5393,-39.4843,48.4432,-108.1832,-155.1158,23.3826,-10.1199,128.6162,29.1674,-32.5773,176.4058,0.0243,-43.6219,30.7197,66.3163,37.7080,-140.4446,-170.1415,122.6854
-2921.8750,-65.9367,142.8992,-72.0802,86.8929,-103.9257,-187.7750,27.7675,-6.7099,59.1454,107.7801,6.9170,70.0315,-32.6023,32.7762,72.2174,107.8484,40.0609,-173.1597,-202.3180,90.1711
-2914.0625,42.7010,111.5093,7.5733,55.5897,-97.4183,-143.1869,35.4069,-73.0402,66.9176,41.6549,14.6572,40.8987,-98.9753,-33.5713,115.9561,-32.3628,114.6633,-64.6361,-128.2323,23.8951
-2906.2500,-28.8229,75.9680,-31.9221,125.1281,-173.0626,-108.7457,-41.1013,-38.5205,27.5540,76.3743,12.2336,75.6248,-100.5043,0.9259,40.5416,39.2730,149.1211,-65.2530,-93.2750,58.4631
-2898.4375,12.3860,81.1776,16.3202,131.4175,-89.9606,-99.5494,7.1487,-27.2450,-35.0586,86.8517,59.5486,-23.8961,-54.2912,12.1854,-59.1278,49.6657,84.3288,-24.1234,-86.5556,-41.2227
-2890.6250,-78.2444,-8.4604,29.7139,75.8557,-76.6981,-86.1953,20.5596,-13.8188,52.4782,-9.5298,0.0008,26.7305,-40.9295,-11.4056,65.3465,-9.8017,29.6844,26.1622,-0.6728,9.2245
-2882.8125,-58.2263,-23.4472,14.7534,25.9417,-17.7923,-101.1853,42.6176,45.2558,37.6779,85.7272,22.0883,-61.9740,-18.9213,-26.3454,50.4626,49.3762,14.6941,-94.8974,19.8721,-5.6779
-2875.0000,17.9466,-88.2804,59.9413,-3.8262,27.2671,-129.0243,87.8295,16.4897,83.0201,58.1410,-5.6781,-89.5303,-9.7635,-128.1270,21.7157,-15.2858,19.8525,16.1814,131.5732,-70.4424
-2867.1875,-98.6369,-99.8675,9.3890,-14.3518,-23.4198,-69.6124,37.3028,39.9709,105.6238,80.8035,-57.2140,-29.8347,-24.3602,-68.6660,45.2210,7.2926,-25.7333,40.5171,156.5413,-10.9653
-2859.3750,-35.5408,-36.7540,41.5281,12.8156,45.5939,-36.4990,69.4765,72.1576,-45.0719,40.1770,11.9352,-144.4330,7.7354,-35.4963,3.4256,39.5813,-33.6160,-2.4466,114.2196,-88.7882
-2851.5625,-4.7870,-111.9839,72.3227,-61.3683,39.2649,-5.7311,63.3073,28.9952,58.8780,-38.8053,-67.2736,-76.3879,-34.5200,-41.6805,71.2747,-39.4860,-2.8436,63.2460,145.5558,-57.9775
-2843.7500,-23.8339,-96.0159,-58.6827,-45.3584,55.1338,10.2358,6.3394,82.0317,75.0410,50.4007,-51.2998,-97.1320,-55.5740,47.3336,14.3283,49.6426,-21.8671,-25.8597,127.1061,-41.9695
-2835.9375,23.1738,-117.9948,30.3557,-68.2997,145.0602,25.2530,21.4322,98.1185,54.2572,29.6658,-72.2801,-154.8292,-3.5789,-10.5946,-80.5812,28.8303,-9.8429,57.0687,104.7063,-99.9202
-2828.1250,-122.6585,-158.8229,22.5473,-74.0984,99.1379,90.4224,-60.3203,89.3495,9.6281,95.0643,-118.1124,-52.3665,-11.4368,-18.3752,-126.3406,94.1555,55.3378,86.1555,135.4611,-34.7280
-2820.3125,-30.3019,-136.4528,48.9312,-16.6959,126.4097,117.7984,-69.8794,189.7831,-147.7996,158.6620,-53.7614,-172.6932,-22.0971,8.0544,-135.8951,121.6881,42.7224,2.4402,87.4212,-118.3343
-2812.5000,46.5025,-130.6257,91.7670,-45.8445,95.1358,123.6255,-63.9814,158.6750,-67.7777,17.7071,-47.9670,-129.5804,-89.3112,-59.0613,-93.0040,-20.3273,118.5584,79.1745,128.8409,-112.5061
-2804.6875,-5.3972,-76.4971,34.9064,-61.7001,75.1597,140.7554,-120.7787,139.8731,-87.4432,72.0468,-30.8893,-112.1616,-72.2316,31.1175,-112.8196,70.9490,102.7014,-7.7860,78.5757,-58.3805
-2796.8750,68.2551,-73.8111,78.5902,-94.0066,118.7300,183.4324,-41.0269,145.6218,-154.5670,115.9488,-25.2602,-179.1923,7.3940,0.8548,-180.0934,77.7849,35.3961,-5.2040,46.8624,-125.7087
-2789.0625,-70.7309,-142.7804,3.6323,-92.9657,6.6567,218.4591,-78.9119,217.7157,-82.3390,188.1924,-137.2885,-69.8739,6.3682,-0.0662,-108.0112,112.9554,1.4443,-3.2588,84.5024,-53.6999
-2781.2500,-29.6274,-30.6513,-62.2331,19.1650,-22.3180,153.5929,-70.6997,225.9199,-148.0021,269.5424,-129.2323,-24.4493,-59.5592,44.1157,-99.8347,121.2337,7.5960,-102.2150,20.2491,-82.5926
-2773.4375,4.0272,3.0300,9.4526,17.8467,12.2682,115.2768,1.0721,114.6894,-38.1172,121.4497,-239.6326,47.5127,-97.9412,5.8475,-64.1209,-26.9335,41.2977,1.3739,55.5524,-83.9516
-2765.6250,-135.0740,4.9530,-28.6066,-15.2273,48.1079,113.2110,37.1075,75.7046,-39.9648,119.5987,-314.7970,119.7315,-63.0738,77.8252,-29.1580,8.1345,43.2573,-31.7803,22.1158,-12.0651
-2757.8125,-63.1285,-29.0689,49.3801,-14.2509,162.9997,81.1939,115.1935,43.7680,-71.7579,87.7995,-273.9152,14.0055,51.8456,8.8592,-61.1513,12.2556,9.2697,4.1062,-46.2733,-81.1304
-2750.0000,-151.6637,-82.5853,64.8752,-31.7741,141.3980,59.6762,56.7844,23.3261,53.9541,30.4868,-331.5320,66.7736,67.2599,-11.6154,-8.6500,-8.1314,26.7888,56.4949,6.8421,-28.7084
-2742.1875,-142.2512,-2.1496,3.3166,12.6425,115.7370,34.1114,68.3219,70.8321,28.6285,152.1217,-284.2136,5.5007,5.6149,-0.1374,-34.1928,76.4348,1.2647,-39.1679,-18.0808,-54.3338
-2734.3750,-57.3386,-58.2056,57.2537,-43.4452,169.5776,52.0487,123.3590,51.8473,120.8030,22.2730,-266.3983,-50.2834,-50.5282,-93.1537,56.7584,-52.4964,15.2390,45.6633,67.4954,-110.4689
-2726.5625,-61.9834,-98.8148,12.6475,-13.0839,87.8692,43.4416,77.8529,43.3130,149.4424,14.8706,-238.1443,-58.6140,-59.2279,-27.7224,48.1566,-23.9874,45.6646,4.9565,98.5234,-45.1602
-2718.7500,12.9157,-57.8719,57.5839,26.8280,133.7091,15.3874,123.8968,15.3343,84.6326,23.0235,-157.3425,-123.3898,-14.3788,-55.7307,-52.9043,-15.9215,15.6430,-25.2090,104.0966,-110.3024
-2710.9375,-69.2660,-70.0202,78.4241,-20.3603,80.4589,0.2320,144.8403,0.2571,142.7113,-28.9343,-208.6427,-28.2691,-29.6273,-108.8364,4.9251,-104.9567,3.5270,103.5270,162.5674,-52.5572
-2703.1250,-142.7009,-37.4216,1.0171,47.1932,75.9554,-41.1682,103.5322,-4.0738,101.5503,76.8457,-140.2037,-69.3877,-34.1283,-39.1868,0.5056,-35.2521,-33.8340,30.0218,160.7959,-20.0603
-2695.3125,21.5153,-84.1678,27.2602,0.3965,103.1078,-87.9158,167.8770,-50.7575,166.0353,-79.7279,-77.1163,-78.8600,-43.9767,-122.8808,26.7306,-118.8909,-10.5431,124.1612,184.6751,-66.9220
-2687.5000,-38.2196,-178.8686,-38.4413,-59.3563,37.3173,-80.6094,138.2840,-43.3968,247.5750,-35.2733,-105.9865,-34.2811,-73.7788,-78.5286,108.0170,-74.4915,-35.1991,99.3651,231.6133,14.2592
-2679.6875,-64.3671,-135.9631,-63.5536,-50.5156,48.1216,-68.7037,150.2868,41.5653,185.7227,123.7816,-95.2652,-133.0938,-61.9774,-29.5694,9.9066,11.5109,-97.2558,72.1686,205.1561,-47.9556
-2671.8750,-115.5461,-151.1001,-43.7134,-101.7304,31.8803,25.1529,133.2446,61.4765,241.8223,106.7848,-184.5883,-75.9660,-79.2245,-46.6590,-7.2564,-42.5396,-112.3662,127.9229,260.6357,-28.2299
-2664.0625,-199.3731,-129.8925,-132.5231,-80.6062,-21.0132,82.3580,80.5550,156.7343,190.2905,202.1258,-163.5659,-91.4848,-58.1225,84.5999,-60.0627,52.7542,-91.1249,43.0375,142.4643,-7.1507
-2656.2500,-34.8528,-141.3378,-103.9873,-56.1367,44.4482,111.9147,73.2210,149.3493,146.1114,120.8268,-99.1942,-172.6629,-65.6758,77.2184,-30.5245,7.4111,-66.5365,67.4968,61.6368,-88.7260
-2648.4375,-92.5769,-198.0352,-130.6933,-43.9250,-19.3267,121.2238,9.6512,158.7147,118.6855,167.2735,-126.0802,-89.0956,-93.4757,50.5779,52.7631,54.8049,-54.2006,79.7123,39.5610,-5.5587
-2640.6250,-130.7607,-96.1891,-95.8577,-11.1753,-20.5547,83.0881,-28.3673,230.6370,7.8194,313.2721,-91.4247,-162.9728,-94.7232,48.4928,-22.3972,163.7535,-92.3217,41.4764,2.0395,-43.8345
-2632.8125,-100.7884,-65.1946,-26.8711,-16.2828,-25.6258,115.1055,-70.2325,189.7144,3.1033,234.4208,-133.6176,-94.7117,-99.8201,7.5610,-64.4071,47.8553,-61.2986,142.3941,67.6660,-48.9702
-2625.0000,-159.3697,-55.7545,-92.4324,99.0534,-127.2472,123.5731,-134.6438,161.2398,-62.1503,244.0048,-124.3735,-11.9966,-91.4732,89.0757,-55.9656,93.3953,-51.8194,81.7852,78.7559,-3.6573
-2617.1875,-43.3041,-8.6535,-2.3525,181.0412,-74.2221,103.6992,-81.4046,104.4175,-118.7604,76.2438,-71.4837,-68.6383,-111.4859,106.2490,-112.8798,73.5937,-4.6874,93.8319,56.4948,-97.6989
-2609.3750,-100.3295,5.3522,10.6315,88.9281,-62.2914,115.7316,-69.2596,42.4913,4.5322,-21.6299,-133.6965,-19.3898,-99.5988,44.3208,-26.8943,12.6785,44.3523,142.7929,70.1332,-48.8549
-2601.5625,-129.9078,45.8082,17.0721,59.2634,18.0856,49.2186,11.3278,50.0092,-61.7204,58.9276,-52.4633,-85.6793,-18.2634,14.8473,-19.4528,93.2095,14.8524,7.2066,6.2164,-78.5577
-2593.7500,-29.6191,-29.8734,48.3709,18.4481,86.3259,43.5540,116.7666,7.3726,42.8674,-56.6745,-58.3823,-91.1169,-24.0743,-63.7700,84.8270,-22.4117,9.2067,1.4590,1.1411,-84.4169
-2585.9375,-98.6301,-63.8480,-63.6243,20.3303,48.2693,42.5929,77.9080,6.4289,78.1586,-21.5928,-60.6134,18.1564,-26.1838,45.3125,82.8080,49.6583,-23.7331,-102.5833,3.7587,-12.5733
-2578.1250,38.4003,-31.7671,9.4191,87.2622,84.2563,41.6796,115.0962,5.5378,4.5013,-21.4599,12.2033,-92.5190,9.7604,7.4586,8.8463,11.7871,-27.6223,-141.5793,-34.5865,-86.6746
-2570.3125,5.6879,-29.4332,81.7189,53.4377,46.5044,4.0201,76.5449,4.8971,114.0972,-97.0778,-62.7262,17.0434,8.9527,-67.1490,45.1365,-25.8427,-25.2674,-104.3128,-31.6940,-14.5378
-2562.5000,-45.6799,25.2447,-8.6352,72.9625,-7.9005,23.7198,60.3439,24.6084,61.0557,33.6473,-6.3154,-37.0357,-45.5095,-10.4052,64.7801,67.8743,-41.5663,-153.6851,-82.4581,4.9541
-2554.6875,46.7108,11.6766,16.7600,59.2433,53.4486,48.1741,84.8962,-23.9290,12.7527,22.1185,18.8508,-48.3686,-20.2147,-58.9026,52.1610,-54.6510,-19.1127,-98.3194,-59.4878,-43.8071
-2546.8750,-14.5344,-49.5393,-51.4819,68.8708,-13.8504,54.9768,17.7955,18.8709,-18.1949,27.9218,24.3742,-5.3499,22.4309,-16.0513,58.8885,-11.8403,-10.3012,-88.5956,-50.1708,35.7806
-2539.0625,25.8683,-9.1008,-6.0664,38.1474,31.4929,26.4301,-10.6677,100.3137,-46.4969,-0.6292,68.5535,-70.6815,30.7335,29.4585,-6.7351,69.6201,-75.8331,-84.2186,-80.2122,-29.9767
-2531.2500,29.1861,-5.7594,32.2637,6.3254,-41.2490,-9.2169,-9.2255,28.6524,102.0879,-73.2933,-3.3616,4.8701,-5.0575,-43.1317,68.5431,-2.0286,-1.4599,-9.9324,-76.3679,8.1549
-2523.4375,30.5554,65.6325,-5.3486,6.5485,-77.9451,-46.8098,-46.7388,-45.9667,28.7254,0.0760,69.7719,41.4747,-5.7991,-6.6753,30.8778,71.3681,34.9694,-44.5781,-144.4759,44.3377
-2515.6250,127.4840,127.5862,99.5858,33.3244,-10.0910,-88.8520,22.2925,-88.0314,-50.0920,-79.0014,100.4626,-0.3790,26.0053,-85.6603,-48.2461,-81.6779,95.9476,87.3183,-153.0399,-34.9356
-2507.8125,33.5236,103.6349,109.6263,45.1938,-37.1350,-78.7998,-41.5681,-113.9942,-2.7970,-140.9858,37.2508,83.8605,-1.0887,-75.5504,35.7350,-71.6381,143.0264,99.3236,-139.5049,11.8871
-2500.0000,92.8459,162.9835,101.9582,68.3580,-7.8881,-49.4447,23.8720,-122.6542,-121.1969,-150.6646,102.3336,2.4056,-8.8800,-9.1335,64.0218,-42.2926,132.4033,17.6279,-186.6734,-69.9817
-2492.1875,153.3757,118.5422,127.4892,23.7273,17.5649,-23.8868,13.5166,-170.1154,-58.4072,-271.1453,90.6266,101.1365,-20.4649,-20.5133,16.5027,-163.7449,192.9810,78.1377,-160.6614,-44.6614
-2484.3750,75.4020,110.6039,43.5227,-19.4090,6.5159,2.1773,-34.3386,-143.0746,-105.1096,-171.1445,116.4141,164.3760,5.4446,79.6055,-68.5074,-64.7038,150.0596,1.1646,-167.1618,18.1631
-2476.5625,150.7774,116.0177,87.8921,-85.1947,87.8174,10.6003,11.1550,-136.6750,-97.4667,-199.7897,161.5530,98.9573,49.7013,87.0835,-60.1630,-93.3006,84.4806,-29.4611,-196.3261,-47.6589
-2468.7500,75.5598,40.8264,41.6673,-194.5902,4.5281,37.4254,-71.9480,-107.8775,40.5837,-173.0380,115.0942,236.9272,3.3599,114.9560,40.5864,-65.5078,9.2979,-34.6738,-166.0928,52.9156
-2460.9375,147.2322,6.5314,-30.6582,-158.0942,-30.8706,2.1535,-143.1545,-70.1774,-31.4614,-61.3883,189.5350,201.8020,41.9174,152.7354,79.2421,46.1869,-23.9909,-172.9795,-198.9605,54.3995
-2453.1250,209.4659,-2.2105,71.5695,-167.0499,-39.7171,-43.5655,-114.8107,-151.9207,-2.9676,-180.1866,180.5336,193.2122,107.0281,71.0719,107.4426,-72.5662,38.2710,-76.7362,-172.2913,45.4275
-2445.3125,131.7560,26.0954,60.8604,-138.9660,-48.5132,-52.2293,-162.4147,-125.6208,-48.4177,-153.9425,170.5805,219.6676,133.1900,60.4519,59.6899,-9.2807,30.5897,-118.4265,-143.5755,108.5056
-2437.5000,259.4976,13.8517,124.5977,-116.4326,14.1395,-99.4395,-98.5718,-134.8676,-131.4209,-163.2417,307.0823,100.5664,159.8019,14.2932,13.3824,-19.5386,18.3525,-130.6666,-156.4221,25.0364
-2429.6875,207.7007,-37.9388,105.7888,-133.4505,-41.7516,-81.1926,-154.2749,-117.6655,-4.9739,-109.1079,251.0387,190.9081,103.8633,-5.4122,67.5275,-38.3559,-33.4338,-76.4497,-171.8319,79.0120
-2421.8750,196.4963,-14.1270,20.5780,-73.8704,-89.0502,-92.3482,-165.3795,-55.8662,-87.9209,62.6147,276.5943,143.8564,92.5263,94.4878,19.2773,60.4273,-44.6165,-158.6305,-252.6488,67.5999
-2414.0625,142.7544,3.1389,40.8216,-23.8404,-70.8959,-37.0616,-109.0373,-73.6174,-69.4251,8.7864,222.6135,90.2402,111.6515,77.8377,2.4766,6.6712,-28.3513,-72.3684,-236.0321,13.6375
-2406.2500,-7.0318,-41.6444,-44.9682,2.1325,-118.7849,24.1710,-120.7406,-12.4268,-43.9748,-4.1081,136.5851,114.5753,136.7312,139.1299,26.6373,30.8490,-37.1378,-80.1409,-174.4818,74.6290
-2398.4375,58.0761,-11.5199,-10.8655,-38.9947,-11.7755,95.3064,-13.5476,22.6627,-119.6287,-43.1080,170.4624,1.8108,96.7109,99.3329,24.7011,-8.0709,-43.0265,-87.0092,-180.0484,-1.4684
-2390.6250,35.3964,-0.1914,-0.5580,-95.9182,-38.5556,106.6453,-40.1504,-41.0525,-36.0825,-178.9245,143.5461,123.2315,70.8913,73.7396,34.9644,-106.7919,-30.7175,31.3301,-96.4325,45.6304
-2382.8125,-4.3364,67.0831,-41.3010,-30.8997,-42.3882,102.9402,-79.8079,-44.8275,-75.5798,-72.8050,176.5813,119.6095,104.0288,143.0986,-42.8199,-1.5649,-69.4617,-78.3696,-170.8697,41.6899
-2375.0000,130.1848,94.6144,29.2021,-2.6317,28.0350,98.4877,-47.2200,-85.3544,-79.8399,-150.4258,172.8802,78.2295,99.4241,65.7141,-46.3555,-79.0859,-76.9627,-49.8236,-143.0716,-36.0010
-2367.1875,63.5211,28.9489,-7.4873,-34.5645,-45.7365,62.8335,-82.8290,-84.0912,-42.3016,-112.2643,135.9851,189.6451,26.6231,104.1203,-46.0887,-41.8245,-37.6563,-46.4596,-68.4811,38.1075
-2359.3750,112.4537,42.8860,47.4261,-55.8908,9.0890,6.7806,-28.8479,-67.2310,-134.1699,-96.5094,190.6953,60.6592,44.4209,84.1318,-65.2242,-23.9622,-22.7426,-31.4928,-54.2984,-18.1736
-2351.5625,101.4502,66.8788,71.4040,-67.1611,-41.0312,-43.2211,-4.8149,-116.3282,-36.9989,-181.7192,140.4687,120.7060,68.2756,-38.8095,-4.3123,-110.0531,1.2241,62.5335,5.9182,5.5903
-2343.7500,113.4987,148.9224,-29.5628,-20.3872,-103.1024,-69.1733,-103.7358,-69.3880,-62.7750,-61.8954,187.2962,167.8111,78.1854,8.2947,-67.3390,-27.1065,-22.7534,-66.3779,-52.8249,52.4131
-2335.9375,237.3516,131.7735,66.2670,-1.8167,-83.3718,-48.3309,-83.8615,-48.6500,-78.7607,-114.2617,208.9346,79.7118,62.9073,-43.7951,-119.5706,-42.3502,-3.9336,-48.4930,-69.7901,0.0401
-2328.1250,109.4172,3.8253,38.3102,-25.0562,-109.4305,-38.2930,-72.7872,-38.7093,41.4484,-141.4287,107.7853,88.7899,34.8310,-69.6893,-0.5945,-32.3946,8.0840,34.5927,-21.5618,82.8610
-2320.3125,25.5194,25.9240,-10.5957,31.7522,-85.4448,-14.2025,-12.6635,-14.7166,-7.2864,-7.5546,131.6825,-34.0818,-14.1982,-9.5348,-12.5534,28.6018,-40.8427,21.7405,-35.2900,33.7448
-2312.5000,30.0749,30.4714,-4.0560,1.0213,-43.0086,29.3428,-43.0924,-45.2697,-0.5826,-38.2255,28.0478,9.4793,-7.7740,-39.9218,30.9356,-75.9430,-36.3233,131.3259,40.4196,3.0783
-2304.6875,-38.1053,33.2674,-76.2588,2.5329,-78.3137,67.1428,-114.2580,-7.5801,0.3714,36.3358,28.6622,47.2774,-44.0882,-2.0694,31.6726,-1.2525,-68.5507,64.1789,78.3778,40.6579
-2296.8750,61.8575,27.2171,-42.3194,-2.8045,-7.4716,64.0942,-44.2795,27.2605,-38.5279,70.0453,26.4260,-65.7719,-46.2483,-41.0542,29.5579,-3.4026,-74.6346,23.1742,72.4821,-35.6003
-2289.0625,-6.3198,-5.9702,-6.5269,-36.2922,-45.7713,26.9000,-45.4498,-11.0526,34.4106,-4.4015,-11.9458,7.0152,-47.5590,-42.1884,28.2870,-4.7060,-36.8731,61.0252,110.4350,36.9834
-2281.2500,-11.9928,59.3389,-49.2183,28.7254,-14.5770,-15.7885,-51.1329,-16.8717,-117.1460,63.6355,56.1786,-35.6944,20.6234,63.1754,-14.4810,26.4658,-77.5959,20.4022,34.8812,31.0724
-2273.4375,30.3353,65.6600,33.0882,34.7567,30.6125,-7.4700,-5.8200,-82.6993,-36.7241,-76.3267,27.3124,-27.4153,28.8155,-2.4541,30.7473,-76.3588,-71.3170,96.7872,6.3103,2.1599
-2265.6250,-70.7239,33.5822,-75.9950,2.4021,-42.5944,-7.5478,-5.9024,-44.9308,37.2929,-2.7106,27.0562,9.4531,28.6142,34.5083,67.5764,-2.6063,-102.4321,29.7958,9.3229,75.8391
-2257.8125,35.1512,0.4532,-73.1332,4.0057,72.1373,-2.6635,35.9509,-4.2158,5.2550,38.8422,68.7568,-131.7156,-3.6341,2.4245,35.3681,39.0932,-171.5978,31.7680,11.2703,6.4837
-2250.0000,-1.7094,-70.4120,-40.0095,-67.1393,30.1324,29.4650,31.0567,27.7473,74.4518,-3.3547,-10.2770,-99.6477,-44.6355,-38.4119,67.4083,-2.9589,-137.5206,135.9934,44.4460,75.3756
-2242.1875,-95.9688,-59.6801,-29.2802,-22.6922,3.7380,3.1813,-31.2374,75.2981,-24.7341,81.0424,37.2907,-125.9800,-34.0386,82.3465,-31.9552,81.5809,-91.8450,76.8389,20.2168,85.8781
-2234.3750,-0.7258,-0.4463,36.9403,-33.7481,33.8284,-3.6020,-2.0418,31.3575,-32.4287,-0.0496,30.3655,-96.8233,-4.9343,1.6086,-76.8095,-36.3625,-32.6733,136.1794,45.4729,4.8925
-2226.5625,-37.4733,32.7854,-4.8282,-34.8109,-8.0841,-8.3765,-42.8403,26.4221,-0.1238,-5.1496,-11.5525,-27.6887,-9.8225,33.8669,-116.6541,-40.3120,1.4904,135.5263,43.7219,73.9036
-2218.7500,-0.4871,34.7544,-36.8516,36.8665,33.7541,-3.3964,35.1092,68.2380,-69.0579,-0.4995,-6.7250,-132.8033,-4.9610,38.8789,-148.7314,0.4900,3.3968,136.6261,10.7183,4.6808
-2210.9375,-28.7957,-28.5716,-29.1804,44.2448,41.3201,4.2766,42.7758,1.7478,49.6990,-103.1415,-36.1830,-89.2288,-71.3881,-27.4056,4.8888,-102.0027,45.9913,215.4055,53.3889,12.1584
-2203.1250,-36.6993,34.5038,-39.0995,71.0237,-5.7105,-5.6542,32.8472,-8.3569,-34.1382,-40.4032,27.7536,-98.2310,-7.4121,-0.2875,-5.0824,-2.1100,1.9812,101.5793,-25.5514,39.0477
-2195.3125,85.1216,120.3300,54.7132,86.5529,50.9922,14.1756,52.6571,-25.6960,-88.2282,-130.9042,47.4259,-116.4758,12.3159,-17.4057,-59.3036,-56.4439,-52.2800,82.4890,-44.7419,-15.2942
-2187.5000,8.7387,114.9570,-29.6646,44.8750,-33.5014,2.8130,4.2798,-0.2341,11.4837,-178.6092,-1.0963,19.0567,0.8545,-27.7366,40.2682,-65.9803,-56.7425,77.2066,-15.1323,84.1641
-2179.6875,70.9975,106.2338,-37.3884,36.8465,-4.3509,-40.9015,34.5440,-44.1346,-68.1468,-75.6695,103.0314,-96.7582,68.0442,1.5717,33.5006,-0.8789,-31.5461,-2.4116,-92.8736,40.2905
-2171.8750,107.9190,38.1664,75.5255,73.4738,34.4468,-74.9688,36.4491,-114.3747,-30.1515,-147.0699,67.8318,-94.9482,69.8882,-69.4583,72.3813,-108.1129,41.2934,70.6217,-90.9815,42.0688
-2164.0625,37.5488,37.7968,35.1424,108.7991,-41.0623,-40.3321,-75.9443,-80.9092,-105.4582,-39.7729,101.3390,-61.4523,29.4282,1.2035,31.9632,34.3437,40.8362,0.3779,-126.3919,112.5446
-2156.2500,137.3163,31.5730,30.9056,67.2776,-10.4274,-9.5401,-80.2042,-49.2866,-109.6314,-45.3073,134.0004,-139.8114,-11.8807,-39.9765,27.6900,29.9577,34.5307,29.2863,-97.6528,71.1808
-2148.4375,60.6543,-44.0948,-15.7693,-9.6875,-94.2330,-19.2046,-91.9077,-60.1183,26.7327,-56.2965,49.2277,-40.6372,-21.6311,-87.6099,53.9536,20.1136,63.7759,58.7498,37.6241,170.3581
-2140.6250,51.8478,-16.9139,-96.5907,-17.8034,-64.1911,-26.0220,-24.7628,-30.1164,-17.0472,9.5439,78.3127,-121.6070,7.4767,15.6028,46.0768,85.1071,19.8798,-18.9274,-6.2608,126.3952
-2132.8125,51.2936,-18.4729,-22.1618,-19.6621,-26.8935,10.4124,11.6156,-65.8605,19.4026,-136.3617,42.6636,-83.3354,7.8356,-19.9299,121.4484,-23.6335,19.2317,49.6363,-7.9137,90.6853
-2125.0000,-94.0504,46.1713,-104.5167,44.6760,-109.3858,3.0411,-69.8024,-38.4160,48.0558,-72.0783,34.2275,18.1242,0.3960,8.7268,112.0233,40.8070,14.7856,10.4135,-48.3733,155.1749
-2117.1875,39.0920,110.3173,-34.3731,108.5131,-75.3815,-37.8300,-72.7301,-42.4688,-101.7971,-75.2883,67.2903,-58.9109,32.4560,3.8861,-1.9047,36.7499,41.8437,2.6917,-20.3368,78.1814
-2109.3750,29.5470,29.7691,27.0738,27.6609,-87.0718,-48.4036,-47.3549,-90.2215,-76.3743,-50.1862,18.6689,2.3295,20.8206,-6.6543,-48.5417,-11.0030,103.1990,28.2671,74.9925,103.4830
-2101.5625,44.1487,8.3686,-29.3232,5.9578,-34.6154,-32.8307,-67.8392,-0.8328,-132.7998,149.0500,36.1967,-90.2705,38.3310,46.9467,-105.0201,79.3778,46.7123,-62.9888,54.4905,46.9402
-2093.7500,126.6461,21.8646,24.1729,19.1638,18.7325,-53.3545,-15.4304,-21.5380,-44.3365,55.1891,15.6339,-111.9818,17.7395,-47.5390,-53.6027,-52.3314,59.1249,-14.3532,66.8984,-10.6984
-2085.9375,-30.4884,39.7147,-33.9602,36.7255,-39.5660,-110.5245,-36.6701,-6.8983,7.4662,-4.3339,-6.5689,-23.3576,32.5086,-31.6801,35.1532,-36.6997,77.8907,3.6347,49.6441,78.0100
-2078.1250,25.2242,60.4166,27.7545,92.1367,21.9783,-86.8403,-12.0769,-18.4012,-40.8872,21.0014,56.0846,-108.8780,58.1385,-43.9686,-13.2438,-12.2109,62.5073,-10.5275,-70.7931,-7.4147
-2070.3125,-60.7059,10.4804,84.8131,6.9117,4.8733,-66.8094,7.8647,1.4498,16.0875,-33.2966,-71.8936,-53.0620,41.1179,-60.9043,43.7098,-29.3570,82.4589,79.6592,-15.9056,12.5083
-2062.5000,-110.1372,-5.9522,30.3680,-9.8192,-12.7400,-10.2754,-9.6963,57.7997,-1.4178,59.8976,-52.3710,-105.7339,23.5875,-4.3542,26.1860,63.9798,101.9060,-41.6375,-31.5291,31.9391
-2054.6875,77.1725,7.3681,82.6527,-31.7950,40.3877,-30.9929,43.4896,-0.1021,51.8230,-72.1386,73.9097,-127.6599,2.8120,-62.0458,42.4148,-67.9199,79.0978,6.8055,-89.4102,-25.8690
-2046.8750,21.5459,21.7381,-16.0043,-17.7190,-58.4227,17.3432,17.7395,-25.9499,100.0996,-60.1230,49.2499,-42.5619,-22.8991,-49.7010,90.6861,-55.7779,59.3425,21.2998,-109.2519,59.3662
-2039.0625,-9.7985,95.3947,-83.3598,55.6535,-15.9356,23.9763,97.2890,17.5037,-4.3093,19.2076,55.8811,-110.1692,20.6894,-7.0609,23.2586,60.6689,-44.1116,-45.8991,-140.7941,-8.0849
-2031.2500,-49.5469,21.6482,-15.1145,16.6255,15.1562,18.2060,128.4376,-25.4296,100.8801,-96.8314,-60.8776,-6.1938,14.8732,-85.8259,54.4319,-56.2720,-12.9768,56.4927,-40.7485,23.0657
-2023.4375,-151.5937,-11.4071,-50.1665,54.2953,15.9471,19.1341,93.2915,-60.6637,64.7816,-59.1802,-58.9286,-41.5259,15.7584,-11.9058,92.3119,18.4782,-10.1363,23.5995,-3.0096,60.9199
-2015.6250,-63.4925,-27.3095,9.9263,37.1132,112.8792,-30.7855,116.2927,-37.7478,14.8143,0.6195,1.1782,-164.7077,39.8021,-98.8274,115.3406,-31.6147,-26.1395,42.8453,15.8737,-26.0606
-2007.8125,-102.1709,-68.0054,-71.7737,-3.8669,31.0226,-39.5020,71.5002,-9.6312,117.0212,28.6225,-44.5020,-63.7114,31.0554,-142.5514,143.5615,-3.5115,-66.9440,38.2875,115.9476,39.1520
-2000.0000,-52.3580,-52.2089,-89.9710,12.6592,13.6582,-93.7154,54.2022,82.9786,98.7373,121.1289,12.3144,-118.2062,13.8065,-87.7818,53.2898,53.0802,-86.2491,-51.7623,131.5206,-15.1232
-1992.1875,-39.5060,-75.3466,-2.1249,24.2542,27.3493,-116.8813,103.9469,23.6417,112.4950,24.6837,-10.8125,-68.6592,-9.3924,-110.9589,30.0734,-81.2680,-38.5030,66.2250,179.1295,-38.3458
-1984.3750,-96.4446,-26.2815,9.9356,73.0627,2.2484,-139.8515,5.8983,35.4948,14.4505,73.4042,1.2651,17.0816,-34.3895,-61.9499,-31.9357,4.5691,10.4494,10.4305,121.9303,10.6323
-1976.5625,31.7156,-3.1133,111.0874,59.9779,66.2357,-113.7265,32.9364,62.4415,-105.5043,100.2254,28.4467,-103.0647,-43.2890,-144.8280,-77.8534,-4.4855,32.5089,32.7359,109.8271,-72.2738
-1968.7500,-29.3587,-29.1825,116.9987,69.6481,-1.0165,-106.8568,-34.2698,-4.8646,11.2722,105.8123,-38.6065,-23.4794,-37.4300,-173.9672,1.9737,-72.7937,42.3128,77.7891,118.4607,7.5582
-1960.9375,-0.7390,34.4472,36.6122,97.0135,-8.5620,-114.2886,-41.7705,-12.4734,3.7531,135.0840,28.0397,-68.1890,-7.8664,-108.4135,-79.4927,30.5865,-0.1842,0.5521,75.7936,0.0975
-1953.1250,31.7182,31.9301,109.0704,94.2395,-9.2613,-78.8595,-5.4303,-50.2262,3.0581,60.2187,-46.4525,-69.0543,-8.4555,-145.9931,-43.1138,-44.1746,32.1723,68.1569,107.9620,-37.5052
-1945.3125,-109.8590,-40.6425,-6.5083,57.4213,-88.0080,-10.4707,-48.1421,17.9719,-2.7179,165.3033,-87.9846,-0.9803,-87.0944,-77.6265,25.2092,61.0141,-5.5152,66.7129,141.0756,30.8410
-1937.5000,-53.3003,-53.0748,-15.9444,8.7513,-61.6147,53.0692,-20.7151,118.3320,-86.3486,228.5606,-61.3729,-121.7484,-97.5843,-14.1110,-21.3247,87.3673,-53.0579,88.4199,128.3423,-52.6454
-1929.6875,-91.5839,-126.3526,16.7583,-64.7528,-66.0656,85.7563,-25.1411,76.8426,57.1776,113.9829,-138.6057,-15.3895,-137.9172,18.5534,-25.7196,9.8737,-20.4527,157.2694,195.7502,-19.9837
-1921.8750,-122.9226,-87.6810,-53.5902,9.6969,-62.5741,53.3891,-58.6217,117.2905,23.6789,117.3535,-98.8927,-12.0739,-98.2990,95.1612,-59.1500,86.3120,-16.8895,20.0747,164.1021,-16.3642
-1914.0625,-13.5728,-83.3051,26.7569,47.8512,-18.3818,59.7185,21.6053,50.4465,-6.1517,13.4239,-91.4714,-42.0624,-53.9709,28.4791,-51.8763,-16.5312,21.3678,58.5683,132.1418,-83.0357
-1906.2500,-111.7154,-76.4357,-5.3878,55.5035,-51.6714,27.5499,26.3494,18.1078,-2.4976,-56.0047,-123.5407,35.4311,-13.1357,33.2849,25.8909,24.1179,29.1197,66.5616,103.6848,-5.2128
-1898.4375,-69.0669,1.2218,41.2614,61.9520,68.8232,1.1768,72.8731,27.5723,-103.0031,-82.6117,-76.8187,-28.2728,33.4924,42.8797,-0.5470,33.5684,-34.3242,38.3566,40.0411,-68.5747
-1890.6250,-90.2550,-18.9684,56.0509,6.5538,83.4679,-21.0502,87.5461,-67.8099,22.6402,-142.0458,-135.9397,59.1571,12.2675,-15.3743,50.1600,-61.8213,15.3780,124.2878,89.5458,-53.7905
-1882.8125,-165.9992,10.2893,14.2872,70.6008,40.5660,-26.8207,44.6830,-73.7353,16.7203,-0.0385,-104.6244,90.0355,6.4885,51.8143,8.3269,6.2324,9.5294,12.6880,48.5096,-59.5534
-1875.0000,-40.0258,31.2986,76.2582,91.4043,103.4089,-1.8389,107.5680,-84.9006,41.5364,-85.2668,-78.5656,41.6699,31.4549,-33.2321,-3.7548,-78.9512,-5.5702,33.8306,-1.7714,-144.5524
-1867.1875,-119.9472,-13.5903,25.3381,81.3146,51.3633,21.2385,55.5567,-62.9658,100.4476,-173.3948,-93.4008,137.3882,53.5255,-10.1851,19.2548,-57.0442,-14.5664,59.0805,-10.9540,-48.4595
-1859.3750,-98.2707,42.1119,-23.9814,67.8281,112.9096,7.9149,80.1406,-38.4314,13.9655,-38.9187,-68.6343,50.7098,115.1960,50.4546,5.8671,3.4609,-28.9627,-60.0699,-95.5340,-97.7559
-1851.5625,-82.0357,-11.6384,28.2413,12.8907,92.0087,24.1475,96.2656,-22.3279,141.0127,-59.8654,-126.3089,29.5649,94.4276,-6.3516,59.0197,-16.4588,-47.8211,-43.6828,-79.5843,-81.5038
-1843.7500,-167.7872,-62.3974,-101.5270,-2.0503,35.1160,4.3760,39.3909,30.7805,120.0561,103.1815,-72.9813,46.4166,74.6560,46.8281,76.1835,109.6128,-98.6794,-94.2848,-95.6387,8.7480
-1835.9375,-64.2025,-134.8052,-63.9541,-39.6384,146.5720,5.9524,113.8607,68.2460,47.4438,104.5744,-34.2995,-63.3752,75.2291,11.3652,39.6986,111.0435,-101.1809,-60.5456,-98.3516,-63.6329
-1828.1250,-110.1113,-143.7065,-77.8757,-85.7113,95.5331,66.0293,63.8431,91.2174,107.3130,54.4658,-121.1115,33.3190,62.3072,-2.5955,26.6980,23.9705,-76.1781,34.6898,-38.5788,-3.5176
-1820.3125,-56.0844,-55.6607,-93.8522,-66.8283,79.4352,50.0580,10.7662,112.1385,18.1343,148.2998,-63.9776,-20.0261,46.3455,18.3936,10.6563,80.8415,-92.2192,-52.1158,-54.8576,-19.4470
-1812.5000,-38.1100,-37.6638,-37.8868,-84.9927,98.2866,68.0277,65.6462,21.0104,72.8969,20.1008,-81.8817,35.5709,28.3445,0.3333,65.5742,-47.3231,-39.3111,-33.9957,-37.1984,-37.4282
-1804.6875,-154.4668,-49.0204,-88.2611,-60.5164,-26.1977,91.6414,-21.8137,43.5321,59.3079,42.5481,-95.1324,94.8093,13.9879,132.9074,89.1510,49.1525,-15.7509,-114.2250,-13.8909,22.2377
-1796.8750,-57.8807,12.5694,16.3051,0.9117,41.2543,122.2025,9.6588,74.0109,-57.3373,72.9724,-64.4349,15.0081,8.5709,90.4344,-27.3257,42.5910,10.7580,-159.5112,-93.6277,-57.1306
-1789.0625,-24.2951,47.1619,85.8690,35.3518,0.7081,117.7603,-68.8632,-40.4996,12.0035,-4.5841,-104.7467,120.1937,4.1551,49.9605,-68.8139,-34.9576,115.2719,-89.8091,-164.3600,12.4933
-1781.2500,13.5261,84.0006,50.6886,107.0434,-34.5823,46.5650,-139.1295,-38.7687,-96.3963,71.0899,-29.8256,121.6479,42.9869,124.7239,-103.0479,3.7257,117.0564,-157.8533,-197.8222,14.3712
-1773.4375,61.0993,61.5944,103.2539,84.4953,-18.1191,26.1185,-87.6500,-59.2905,-81.0578,-23.4807,-50.1463,100.8528,22.5714,67.2424,-50.5377,-53.8338,94.5906,-39.1648,-115.5387,-42.9993
-1765.6250,-86.8575,-16.3652,19.2760,7.4029,-66.2025,15.1203,-97.7173,3.6384,55.7304,39.3960,-133.0095,90.4967,-25.3953,94.2038,-24.5835,46.0515,52.5737,23.9744,-17.8029,20.0697
-1757.8125,-64.3323,6.1640,9.7765,28.8045,-1.7915,41.6233,-34.2825,67.0747,9.0249,102.7999,-70.3782,-30.3482,-71.8648,83.6686,-34.1247,72.4464,4.0517,-24.4013,-30.5573,-63.3536
-1750.0000,-65.6505,-29.1553,7.4155,-6.6479,-4.2259,40.2757,37.3069,28.6788,43.4514,63.3759,-145.5766,76.9397,-74.1843,-28.7224,37.4833,-39.9890,3.6691,45.3452,38.8390,-28.6287
-1742.1875,-77.2174,-5.7359,-80.1937,-18.3524,19.0923,26.6713,60.6447,52.0367,-7.3733,123.6981,-122.0268,26.9814,-13.7448,-5.3796,-13.1540,57.3156,-7.9608,-37.1472,26.9880,-5.1424
-1734.3750,24.7075,-79.8261,-6.3074,-57.5502,128.9029,-10.4341,133.4710,13.8964,28.2953,49.5379,-85.9731,-47.4748,-13.8021,-79.5314,-13.2887,-16.8642,-12.0903,29.8511,93.6269,-79.1468
-1726.5625,-67.6999,-67.2650,-33.7629,-80.0988,65.3725,-0.8974,105.9562,24.4085,111.6154,-50.9657,-112.2648,35.7025,-41.2133,-33.0426,-3.7857,-7.3895,1.4305,8.4937,140.9170,4.4894
-1718.7500,7.6242,43.0411,-27.4837,-4.9045,107.5818,-31.6066,75.1886,66.6774,-29.3087,-7.7090,4.1863,-32.3590,-34.8862,-26.8012,-71.5291,35.8439,5.7065,-128.1183,74.9672,-26.1108
-1710.9375,68.3502,-1.2412,72.1825,-14.3006,60.1911,-42.9168,27.8172,-17.6401,-3.8553,-56.0314,-6.9595,29.9779,-9.1568,-75.1507,-8.8744,-86.5153,66.3782,-102.3481,100.4071,-0.3141
-1703.1250,54.5735,-16.0246,17.3580,5.8076,-31.6928,-59.7251,-27.0475,1.5355,-57.8945,37.1389,49.3926,11.8198,10.0779,-19.0153,-26.7107,6.6049,87.5480,-186.0711,86.3469,55.9781
-1695.3125,161.7269,-13.8646,95.4702,-27.1320,10.3692,-55.5808,52.0377,-30.3332,-90.9792,-31.7278,90.6857,-20.3860,15.2684,-50.9173,-58.5990,-25.3138,88.6638,-148.8508,52.2343,-12.7717
-1687.5000,96.9348,-43.6589,61.6264,-22.0173,-60.5042,-16.3769,17.1838,-28.1430,-51.0252,7.4601,-52.9693,92.4444,-55.4932,-47.7686,17.5567,-23.1720,94.8166,-108.5856,58.1752,63.5162
-1679.6875,23.5389,23.9335,-50.8258,10.4930,-25.9809,19.2303,-21.2770,81.4537,-199.6693,264.0536,-55.2287,16.6862,-57.8635,23.7744,-93.8845,122.3661,21.3699,-110.9190,-16.4635,25.2128
-1671.8750,-1.7578,-1.3730,-39.1943,-50.8944,-51.3607,30.9445,27.3589,129.1642,-115.2268,311.7758,-116.3770,28.0161,-83.1424,-38.5766,-119.2420,61.0201,-3.9842,3.8368,29.0066,0.0065
-1664.0625,-91.7953,-57.4334,-98.3031,-105.0379,-74.4872,6.9106,3.2485,179.1340,-65.5292,435.7446,-139.2809,40.5873,-33.1731,11.3117,-69.3550,110.9156,-25.0897,-122.1545,43.7451,50.0421
-1656.2500,-8.9950,-79.6545,-7.5674,-163.3373,17.2355,-85.2714,94.9876,160.9626,-84.9727,416.5677,-48.3444,-88.9884,22.6400,-43.9490,-51.6083,91.6640,-11.3458,-144.2996,56.3417,-42.0651
-1648.4375,-100.9933,-100.6766,4.3575,-219.4330,-7.8435,-36.2563,70.9291,136.0031,37.7803,318.6131,-109.2069,-3.3736,-39.3462,-32.0098,-2.6684,30.6259,-33.4042,-25.2575,105.1340,7.0261
-1640.6250,-122.7330,-16.4535,-127.4707,-136.2752,-29.6705,53.0055,49.1226,188.3009,-95.2128,333.9148,-57.8228,11.4896,-61.0859,57.1639,-61.4737,118.8278,-125.2150,-46.9563,83.1790,-14.6348
-1632.8125,-7.6336,-7.3863,-78.4688,-56.2650,-16.6584,102.1167,98.1630,90.4587,-82.3571,163.0867,-81.5895,23.2076,-47.9769,-3.8138,-48.4259,-52.1046,-80.1792,68.1845,93.0799,-75.4377
-1625.0000,-62.7294,43.4832,-64.6661,-40.4519,-39.8403,116.0207,2.0093,67.4236,-31.7088,140.0683,-67.5519,73.7165,-71.0714,47.0085,-71.5812,-38.2317,5.6577,-20.8881,37.7797,-24.4469
-1617.1875,69.7168,104.8958,39.6887,19.9087,27.5273,110.4729,-4.5949,61.9397,-111.5009,60.6031,37.0297,-6.2129,-39.6182,40.3784,-151.1882,-43.8097,31.0472,-100.4147,-41.9694,-103.8995
-1609.3750,33.2207,33.3596,148.0853,-15.6714,-11.0541,144.9746,-43.1561,22.5118,-77.2514,-88.8000,34.6605,101.9055,-42.1160,1.8089,-79.7495,-120.3298,65.4868,-30.9057,-7.6776,-69.3022
-1601.5625,-3.6201,31.4720,72.1368,52.4015,-12.9833,180.1273,-82.0610,20.7376,-153.3548,-90.5553,69.9381,62.6693,-43.9634,146.8779,-118.6595,24.7980,63.5775,-103.7450,-44.7324,-71.0613
-1593.7500,61.4753,26.5289,107.1301,82.4228,21.0347,177.2296,-11.0227,-18.0804,-118.5083,-129.3446,31.1612,23.3930,-46.8577,70.8962,-83.6156,-51.1121,93.6185,-38.6479,-50.8382,-146.8627
-1585.9375,-10.4679,59.5368,28.0731,116.3991,-19.9925,136.2738,-89.0333,14.0577,-12.7235,-134.1725,-46.6549,129.0573,-87.8032,65.8637,-88.6257,-18.0683,127.6092,-39.6114,-51.9955,-77.7222
-1578.1250,50.1883,155.1409,56.6180,105.9756,44.5800,53.9162,-60.4444,42.7926,-95.3283,-68.4020,55.1228,83.3341,-59.1549,20.4250,-171.0334,9.5666,117.2058,-119.9754,-97.5479,-122.9795
-1570.3125,22.8447,93.7458,137.1463,43.5604,51.1449,23.5652,-53.8630,-60.4633,-51.9376,-98.6133,61.8988,126.6163,20.4914,-82.9997,-90.4496,-93.7836,125.7978,-41.3577,-54.1095,-79.2344
-1562.5000,-13.6888,56.1538,58.4726,41.9483,46.5094,-17.9840,-59.4783,-65.9110,-57.7480,-30.0229,57.4724,83.6995,52.9392,22.3732,-59.0710,11.6687,88.1914,-147.9519,-56.8774,-10.6953
-1554.6875,81.0152,45.8071,13.0422,31.5778,148.1187,-26.2901,42.1509,-74.1017,7.7048,-75.1707,85.2927,-34.9518,43.6370,-23.0112,6.5669,3.3800,-27.1675,-89.3118,-102.3908,-55.8979
-1546.8750,56.5289,-14.7408,-91.5906,-63.9904,79.5306,-57.8067,10.5905,-32.4851,122.9519,-69.5067,90.9213,43.1894,49.1315,-54.5984,85.0067,44.8927,-52.7293,-77.8839,-127.1039,59.6923
-1539.0625,138.1965,-3.1493,-79.0743,-52.4082,93.0931,-81.1742,-12.8120,-18.7175,25.3567,17.3015,140.6945,-54.5171,99.7744,-5.0446,24.6000,95.5431,-41.1421,-137.3016,-185.6499,36.4310
-1531.2500,164.4530,-81.9612,-14.9708,-96.2260,84.2559,-53.9431,15.3813,-27.3416,90.3571,-28.2738,96.0695,-63.6255,54.0150,-13.8845,15.7924,12.8079,-14.9601,-76.1263,-89.5906,27.7713
-1523.4375,21.6164,-118.8771,-19.9686,-133.1446,4.3302,-21.8059,-26.5182,40.9421,84.2570,77.0514,53.3424,4.1603,-24.8466,54.1663,9.8801,154.9751,-50.8839,-183.0514,-21.6266,96.0015
-1515.6250,117.8169,-92.7556,8.0763,-143.0192,33.4520,-30.6149,38.6332,70.2775,76.2235,32.4289,82.6570,-76.9960,-33.6589,-27.7367,2.0187,73.1886,-61.7574,-122.9280,3.4055,51.2886
-1507.8125,-8.8756,-80.5418,-54.7917,-164.7948,-66.3227,-56.3222,11.8913,6.7205,196.2892,-67.0824,19.0770,41.9382,13.6302,-53.5336,85.2563,9.5119,-48.5405,30.2802,51.5417,134.6688
-1500.0000,-19.9160,-20.6865,-137.0045,-139.9263,-74.4416,-28.3790,-33.1916,71.8154,40.0029,71.0470,47.1433,-3.4726,4.5692,47.3164,40.1494,111.4741,-57.6734,-14.8556,6.3348,89.6948
-1492.1875,19.5787,18.7191,-57.6765,-135.5123,-69.0150,15.1194,-63.7297,42.4711,10.2622,41.7373,17.7532,3.6727,-24.9485,17.7261,10.5913,45.0037,-55.2582,59.5550,80.6752,23.2754
-1484.3750,-51.7661,16.2779,-135.1999,-102.9390,-109.4355,46.7689,-104.1196,111.2832,-31.3330,73.5838,-23.4895,34.9625,-65.3190,86.2798,-30.8218,113.6884,-91.6922,57.1184,114.1582,91.9947
-1476.5625,-3.4625,31.4853,-117.0801,-18.7110,-56.2159,28.0644,-86.8662,128.7427,-123.2649,55.0814,30.9138,-58.0850,-49.0475,67.4800,-50.5757,131.0151,-111.4690,72.3340,93.2946,36.3667
-1468.7500,-42.1063,-8.2510,-122.9124,-22.4245,-24.9438,-14.5974,-55.5652,87.2576,-56.1595,-24.3584,-47.6245,9.9192,-53.7257,-12.2686,-19.2855,52.4002,-46.1994,173.5873,159.4734,67.7844
-1460.9375,-82.0938,22.6616,-163.0888,43.5130,-28.0154,-17.6125,-59.6049,84.4204,-60.3976,83.8413,-51.5200,-67.4170,-57.7534,58.6264,-59.3469,159.4279,-51.2797,63.4896,154.3022,27.8477
-1453.1250,-35.3928,-1.7260,-74.5746,54.1483,24.6079,-0.9307,-5.9544,63.2849,29.0678,-10.2541,-34.7183,-88.0393,-41.0765,-35.7731,-5.7096,28.1679,-39.6592,110.0809,130.8321,-66.3815
-1445.3125,-111.1776,-42.6142,-119.5654,49.2883,-57.2617,27.2487,-14.8017,91.6554,58.0251,-18.8445,-80.4113,-23.1667,-86.9023,29.3295,59.4270,20.4088,-9.5420,69.1646,160.8624,-1.1224
-1437.5000,4.9909,3.4399,-106.6032,59.3725,29.8218,4.3793,35.2954,68.9739,33.9325,-4.4918,7.8432,-83.3296,-72.7808,42.3803,-0.4794,-2.4072,0.5259,-60.8014,100.8511,-60.9133
-1429.6875,15.3541,-21.3037,-24.4434,-0.3469,2.1031,12.7098,44.5895,4.5006,116.0309,-106.9245,-20.6983,35.7090,-101.4595,-22.3605,44.8120,-68.0045,45.7892,-15.5903,75.0393,-15.5058
-1421.8750,-15.6768,18.5516,-58.6778,39.5339,-69.0096,-21.3594,-63.5150,7.6316,45.7327,-29.7655,19.3608,75.3499,-61.5378,54.4921,10.7059,45.9939,85.6521,-81.7868,-26.1690,24.4931
-1414.0625,62.1419,25.2494,61.9328,81.2658,-21.2851,-47.5741,-15.7834,-55.3825,19.2882,-129.7532,30.2670,47.8551,-13.7691,-8.7958,21.4486,-54.1500,128.3616,-39.1435,-53.5228,-38.6510
-1406.2500,-19.5249,13.4476,46.0393,35.4991,-38.0529,-63.2874,-32.5527,-106.8913,76.3255,-144.2254,13.6829,105.8563,-30.4986,-25.5814,78.6837,-69.7857,151.5646,-16.0133,-30.3829,55.6975
-1398.4375,76.3590,109.1897,37.6926,60.2808,-46.2740,-72.4485,-77.7726,-115.8518,-43.0736,-43.1512,115.6399,23.4237,-1.6833,3.1787,33.4773,-4.8777,141.3156,-61.3267,-144.6945,10.5967
-1390.6250,198.9329,55.6377,164.0356,76.7690,-66.8018,-127.9148,-97.2924,-135.1098,-26.7665,-172.3725,96.2925,76.6962,14.8314,-54.3574,12.9761,-134.2603,193.7689,26.0486,-128.3107,27.1973
-1382.8125,134.5135,-8.9072,132.3862,83.2648,-61.3221,-123.3839,-165.8062,-93.3749,-58.4586,-130.6182,100.9509,43.9725,56.3477,24.0973,-19.5254,-20.6546,164.2331,-3.5746,-122.9262,68.7860
-1375.0000,150.1909,6.6495,188.8338,62.8585,68.2541,-104.7588,-110.2248,-74.5422,-76.0450,-111.7721,83.7080,-46.6352,39.9625,7.6513,-72.9223,-36.9481,108.7950,46.9016,-108.4356,-21.5209
-1367.1875,6.8803,-30.7961,73.2714,-9.5495,26.8391,-72.1389,-113.6435,-42.7038,-7.6368,-78.9143,5.4724,21.7510,-2.4155,39.2055,-4.3219,-42.2324,72.3474,80.3664,31.0537,47.1656
-1359.3750,-0.8276,-39.6523,-44.6869,52.6316,20.0312,-79.9220,-48.4606,61.7346,-88.6163,-12.4587,72.8345,-22.2552,-9.1922,69.3504,-11.1179,25.0749,-6.5039,1.4335,57.1513,3.4514
-1351.5625,84.7007,-59.2635,9.5948,-1.9460,73.4701,-62.4565,78.9678,5.4322,-34.3434,-105.7386,53.4460,-42.0020,-28.7158,-61.2469,43.3336,-105.3591,-26.1106,86.7400,107.5053,-16.0080
-1343.7500,23.0905,-120.0267,-22.2674,-63.6792,79.7638,-92.1386,48.2535,-26.0151,7.7781,10.8303,58.9108,-36.9048,13.6097,-55.0016,11.6364,-25.9460,-17.8733,60.8929,81.7150,63.3720
-1335.9375,122.9750,-126.2969,85.3622,-104.9200,187.5522,-168.3248,82.0399,-27.9641,-31.5850,8.8989,129.8689,-149.3002,48.4283,-58.2623,-27.5462,-65.0347,-23.1365,89.5517,40.4395,-12.7458
-1328.1250,39.8132,-138.6190,70.9400,-118.2130,135.2910,-146.5628,67.7789,-79.9550,100.0038,-116.0695,78.7801,-54.7554,33.1958,-73.5690,31.2142,-116.1653,-1.4523,182.1495,97.1154,9.0793
-1320.3125,7.4545,-31.1540,1.3234,-9.7087,102.8341,-69.9954,71.3240,-38.1501,31.3982,-112.2489,82.4902,-50.4050,0.7661,-32.0800,-1.2284,-38.5039,1.0363,78.5548,29.5962,-23.3032
-1312.5000,114.3336,-30.4414,76.9459,26.0462,105.6263,-30.1702,74.1084,-72.0891,70.0469,-182.1789,85.4443,-47.7922,3.5800,-103.3310,1.5824,-146.5863,1.7711,115.2093,-4.6727,-57.4328
-1304.6875,19.5716,-55.3746,10.9191,2.1540,-34.2288,-22.9915,8.2474,-64.6766,114.0420,-27.7677,56.7462,33.1710,10.7415,-22.2298,45.7427,-65.3168,-23.1486,20.2161,-29.5921,23.7749
-1296.8750,61.2017,22.0908,57.2945,78.6518,-23.6837,-49.4118,54.7884,-90.8651,87.4465,-16.9679,103.4395,-67.4524,57.2981,-11.7331,19.3115,-54.6595,-15.6638,-43.3691,-128.0992,-39.6173
-1289.0625,5.2296,0.9608,106.0704,57.5490,-85.7324,-37.4409,67.7294,-114.6566,173.2394,-114.7699,42.5419,55.3283,33.2636,-73.8309,31.2754,-115.5930,33.2200,40.4335,-114.2067,9.3890
-1281.2500,-88.0811,83.4802,8.5073,105.0946,-109.1184,-24.8256,6.3194,-101.8061,111.6853,45.0595,18.2984,30.7623,8.8867,12.7142,6.8912,7.1121,10.7480,17.8915,-171.6586,22.0389
-1273.4375,52.8001,48.1988,48.1351,105.8376,-69.3083,-21.0134,46.0957,-98.7570,78.3370,12.0886,22.2501,-39.5864,-24.2950,-57.5295,46.7116,-62.9798,10.4732,87.5506,-136.9019,-48.1072
-1265.6250,36.5934,-39.1818,-10.3399,53.4798,-90.5956,-6.2977,-12.2235,-46.8072,129.8816,-9.9803,0.1074,11.9619,-46.5790,-42.8676,99.4316,-48.1702,-6.9061,71.1053,-83.2460,40.6340
-1257.8125,103.3359,-42.6162,-11.8614,50.0662,-92.9322,-44.6309,-13.5943,26.0914,18.3867,98.8888,72.9108,-100.5215,26.0905,-7.2633,61.0990,24.5849,-45.3376,-38.3880,-86.6348,2.3260
-1250.0000,14.7167,-61.3972,4.2588,-3.6958,-112.6185,-28.3210,-34.3170,5.6458,107.5440,42.4110,52.3637,-47.3448,5.4171,-65.0015,77.4138,4.0046,-29.1287,48.7560,0.6207,18.6724
-1242.1875,-125.3454,-60.6243,-106.0665,32.0830,-149.7456,7.5330,1.5171,41.7452,70.2586,115.4755,51.3672,-48.6146,-32.7060,44.8070,76.2886,76.9662,-63.3751,13.4491,0.4245,54.5626
-1234.3750,-2.7625,-43.2016,-85.7463,48.5095,-55.2304,66.0338,59.9949,27.4920,18.6328,27.1847,37.0161,-100.2168,-10.1838,30.2648,60.8255,-11.4237,-116.9664,65.7871,17.8797,-33.8894
-1226.5625,2.5791,-38.0190,-118.6769,54.6902,-124.9653,106.2808,-10.7800,-7.0143,94.7509,-80.3505,2.4218,49.9329,-7.9128,32.4756,27.1012,-46.0580,-109.8036,106.8694,24.0781,42.4006
-1218.7500,64.8676,-10.8845,-126.6550,45.8242,-96.7551,98.4770,-17.6085,60.4213,-23.1763,-13.9503,69.7754,6.0492,22.3064,98.6384,-53.6697,58.2507,-153.6910,-7.0860,-19.7734,-1.3604
-1210.9375,20.9969,-55.8927,-25.7869,1.8095,-68.6982,89.5236,47.4070,14.7081,41.7449,-22.7020,-13.0175,-2.9744,13.3751,16.6622,11.4142,-24.5845,-128.7307,53.7967,41.2157,-10.2672
-1203.1250,-154.7128,-55.7491,-101.7622,-34.0559,-71.4845,86.7114,6.5765,48.1402,0.8172,84.6891,-52.6548,30.1529,-27.4041,86.8301,44.6475,82.7269,-128.6171,53.8270,41.3547,59.9672
-1195.3125,-66.1807,-1.3614,-42.4897,-14.6761,-11.0266,110.1431,30.9914,35.8167,-85.8415,35.3294,-29.0489,-56.4504,-2.9362,37.2448,32.1369,33.2840,-110.2544,107.1119,24.7506,-26.5428
-1187.5000,-57.3535,-28.6649,-35.9189,-41.9903,-41.2665,80.8688,0.7055,5.7953,-5.2079,-68.7271,-95.1344,24.2465,40.8368,6.9606,111.9209,3.1483,-101.5965,115.6904,68.4456,17.2414
-1179.6875,-1.4761,-7.9192,-88.2827,-21.2580,17.5436,65.6402,59.4742,-9.1843,-20.5227,27.2516,-37.1713,-27.9971,62.6626,65.7174,23.7627,98.0520,-150.8881,-40.6713,-16.8050,2.0715
-1171.8750,103.9943,-7.5701,-51.0543,-56.9251,17.9459,66.0073,59.8398,-82.5683,-20.2319,-119.1728,37.3942,46.3729,63.0836,29.0808,61.2160,-11.4433,-116.5822,30.5590,-52.4509,2.5053
-1164.0625,7.4277,-34.2655,-117.8732,-12.6433,-49.6952,108.3146,-44.8376,-75.0042,-50.9831,-112.6594,-30.0852,125.6894,68.4561,108.3954,140.6255,68.0034,-107.3345,3.7370,-77.1478,81.8798
-1156.2500,-4.5011,23.6880,-92.0429,10.2807,-22.6875,98.2663,-17.8656,-11.8037,-98.0645,-122.5080,-2.9213,5.6762,59.4806,135.3576,130.6874,95.0959,-120.4365,-8.4251,-56.1873,-1.0892
-1148.4375,-35.3907,28.6925,-52.1648,-20.7437,-56.6248,102.2644,-14.8460,28.4470,-21.1012,-155.2973,-72.7078,45.7159,25.5628,65.3771,97.7960,25.2521,-80.4974,31.4557,19.8211,38.9889
-1140.6250,-10.0776,88.8928,-99.0785,4.4321,-103.3582,53.4576,-62.6222,16.8965,-141.9327,-20.8977,25.7042,33.9614,13.8439,127.5875,49.1080,124.5972,-89.3573,-49.4531,-25.9629,64.2590
-1132.8125,104.7747,27.6447,-14.4443,14.1598,-55.5445,29.1933,23.1415,-44.1081,-166.2039,-81.9581,38.6657,9.7714,26.6674,29.3514,134.9782,-10.5099,-81.6609,65.1891,-52.1915,3.0841
-1125.0000,8.7883,1.5558,-79.6497,-46.9640,-83.5673,74.0721,-42.9426,38.0263,-121.3295,0.1184,-27.2110,54.7275,34.6418,37.2658,106.9920,71.5279,-71.8115,39.9824,-42.2720,48.0494
-1117.1875,20.3939,13.0571,-64.2456,-0.5009,6.0144,52.5544,10.5706,164.7563,-179.8450,89.7813,-10.4886,-76.7135,14.2241,16.7757,12.6059,124.1633,-96.3635,-19.6125,-30.7436,-46.3842
-1109.3750,-33.2579,-76.6928,-11.0964,-19.2886,22.3442,32.7873,99.8246,107.2442,-53.6187,33.2045,-68.0048,-23.4041,30.5612,-40.9601,28.9672,-6.4372,-44.1693,31.5331,20.5332,-30.0696
-1101.5625,-64.3991,-36.9404,-45.4404,20.4263,25.1718,-1.4834,66.5731,74.2322,-50.8888,73.1227,-28.0135,16.4056,70.3953,-1.2033,-5.1742,33.4569,-40.4757,-69.8161,-45.6845,9.7355
-1093.7500,117.9976,4.3682,36.7605,60.6902,70.5391,-29.2045,74.8618,9.7694,-41.6022,-28.4110,54.5228,-48.2157,41.7682,-102.8889,-32.7612,-31.1013,0.7714,-63.6174,-39.3431,-54.9039
-1085.9375,90.0988,12.3850,4.6628,-1.3448,-35.3895,-25.2274,5.8551,-22.9956,36.3747,-24.2439,-14.2353,29.8654,-27.1595,-97.8724,45.3472,10.0410,43.7167,-91.7223,38.6946,23.1495
-1078.1250,86.7439,78.9460,-33.8752,-4.8350,-36.7634,-26.7018,-32.6044,49.7800,-2.0921,158.4553,21.5508,-82.4892,8.4703,-63.3070,7.0091,45.7225,5.2148,-164.2653,0.2868,-15.2461
-1070.3125,9.5749,36.7158,32.7845,22.8802,-43.9412,3.0175,-2.8714,42.7531,100.6350,151.3631,-22.4657,-52.6302,-35.6932,-107.5319,-0.1378,-35.3841,-2.0882,-67.6152,-6.9280,-22.4375
-1062.5000,-54.9990,43.0928,-36.9476,64.1918,-76.5084,7.3334,-35.5351,84.3225,68.9629,229.8669,19.1141,-11.1628,-31.2550,-29.1639,-69.6830,43.1045,4.2060,-166.3587,-71.5440,18.9626
-1054.6875,119.9634,112.0185,1.8690,98.0490,-0.5287,-27.8024,-70.6553,85.4403,-77.1486,157.9150,57.2347,-46.1310,7.7293,-27.2431,-141.6671,44.1403,37.0541,-168.5471,-108.6086,-53.0819
-1046.8750,77.5787,69.5985,28.3372,55.5612,-47.8915,-1.2913,-117.1292,39.2049,-13.6124,74.6139,11.0098,54.5483,-2.6341,-0.6670,-114.0068,-39.1663,65.5543,-105.0968,-45.0273,10.5159
-1039.0625,76.1954,103.1784,28.8173,89.0665,-10.2520,-0.7807,-117.6005,2.9651,-87.0682,74.2972,48.7768,18.2394,35.0038,36.9014,-150.3458,35.5178,64.0593,-175.6366,-45.4437,-25.8910
-1031.2500,52.9882,44.9665,78.4984,65.7770,39.5865,12.9296,-29.8800,-57.0747,-73.3269,-95.8072,25.7362,31.1389,11.8434,-23.3217,-26.4873,-61.5911,75.7630,-58.9840,36.3395,-49.0943
-1023.4375,-78.3693,89.6179,-25.9597,40.3442,-27.7163,-18.5160,-97.3081,-51.2702,-30.7403,-53.0704,-5.4524,110.8912,54.5367,19.3000,16.2128,-18.8567,50.3207,-85.4763,80.9700,30.5426
-1015.6250,81.7188,144.7181,-2.9614,24.3609,-4.5684,-32.5183,-75.2890,-65.0297,-44.6932,-29.9041,90.8067,24.1111,76.6794,5.3660,2.3732,-32.6830,-0.6637,-101.5135,-39.9447,-20.3651
-1007.8125,84.0548,76.0732,-4.7112,-44.3663,-43.1671,-70.2858,-76.0197,-101.5460,101.6019,-103.4894,90.3239,59.5823,76.0745,-33.3166,74.7852,-70.2553,0.6051,-29.3042,-38.6131,51.9739
-1000.0000,41.2920,33.3297,-49.5477,-52.1949,-13.8584,-78.1647,-47.8465,-37.1772,93.8063,34.8123,119.7372,-22.0378,31.3678,32.8864,30.1023,69.0608,-42.2266,-106.1837,-81.3671,44.2097
-992.1875,75.0537,-2.8590,25.1668,-88.4750,96.9951,-78.5021,63.8757,-36.2623,93.5694,35.6698,83.6921,-58.0923,69.2124,-77.3601,30.9657,-41.0699,-78.5088,-73.5134,-47.5606,8.0030
-984.3750,-36.1867,-80.0381,-59.1119,-164.7552,48.8572,-51.8460,51.6028,25.6469,156.3390,97.5200,34.6480,3.8513,94.0603,-50.6044,55.8197,20.7930,-154.7900,-114.8422,16.2499,106.7866
-976.5625,2.3184,-109.4742,-52.6402,-195.2873,94.4711,-45.4415,60.0820,71.2939,126.8741,142.1028,80.3482,-97.4404,102.6586,-44.0991,64.4308,66.3931,-220.3147,-109.4148,21.8159,41.3232
-968.7500,-52.5386,-165.2597,-37.5215,-215.1672,72.7373,-66.3961,75.2138,49.5906,216.0633,47.3423,-15.2992,-46.0825,43.9077,-100.9401,79.6953,-29.3457,-170.1900,80.6542,177.0268,56.5094
-960.9375,-102.5986,-76.2421,-125.5915,-161.2572,19.8159,-9.5574,59.1503,70.6857,126.0629,141.3794,-31.1499,-97.9265,-46.0440,-44.9906,26.7576,65.7094,-151.2633,99.5318,197.0381,40.4901
-953.1250,-39.3302,-46.8754,-91.3167,-133.0034,55.2405,25.6274,94.4292,32.1320,125.4219,66.7831,-31.6587,-173.4079,-46.6434,-82.6936,25.1745,-45.8846,-86.9883,198.7603,225.4034,-71.1702
-945.3125,-89.1155,-61.5559,-35.0886,-111.7874,1.6156,45.7549,3.6550,-21.4699,144.7215,-60.8539,-49.2135,-42.9378,-64.2941,-63.4410,81.5307,-63.5233,4.2351,184.9357,211.7190,-14.8865
-937.5000,47.0424,39.7135,35.0933,-80.6155,108.9340,5.8331,0.8204,-61.1273,30.9817,-100.5501,-51.8299,-8.5042,-30.0034,-29.2363,-31.1656,-66.2215,34.4154,39.0774,171.9929,-54.6505
-929.6875,24.1795,86.9953,82.2766,-69.4364,119.2472,15.9054,10.9731,-123.7850,42.2346,-199.2345,-150.4485,111.9363,-19.7120,-56.0245,-20.8746,-128.9085,81.6003,51.2214,149.2688,-7.4146
-921.8750,-84.1866,118.7848,-35.0237,-37.7546,39.0664,-28.5286,-33.3716,-92.9473,34.9876,-132.4224,-157.5702,141.8715,10.0795,47.6745,45.9148,-26.1041,78.2930,-23.1220,75.0459,59.3130
-914.0625,-42.2778,126.8753,14.9729,-64.7764,125.1837,-15.6692,52.5782,-81.8142,47.0522,-84.3099,-109.4028,44.1246,-13.8330,-13.3238,58.0099,-86.9965,15.2904,54.8400,12.1285,-38.6522
-906.2500,-119.2764,49.0697,-32.9334,-37.6912,78.4071,47.2873,42.6306,-55.5856,147.2091,-94.0885,-192.1311,144.4722,-61.6456,-24.2157,85.1988,-96.7858,-27.6077,117.8995,5.3121,24.4745
-898.4375,-66.8308,67.7127,-49.3754,51.8458,98.0881,67.6850,63.1332,-34.9135,20.8256,-74.4296,-134.4191,128.2814,-4.0028,33.3349,-42.1668,-3.1355,-8.0493,-39.5847,-82.0476,8.0485
-890.6250,37.5935,66.3616,60.1846,50.3883,96.7645,29.0730,24.6316,-145.2407,56.4510,-184.7675,-63.7137,164.0975,-5.3633,-5.1110,-80.5336,-114.4730,60.5120,-5.0736,-48.4086,6.6272
-882.8125,-12.3373,87.6713,116.4064,71.5841,6.1000,11.1034,-102.2144,-199.9267,1.7335,-165.4536,-7.3630,183.5647,50.9212,51.0869,-96.2541,-94.1654,116.7276,-19.9125,-62.1192,62.8470
-875.0000,99.1657,93.4311,237.0780,113.2376,127.8825,-14.4204,-55.6090,-225.1754,-134.5272,-227.6838,41.4287,47.4943,98.6542,25.7283,-86.5207,-157.4167,158.4059,21.6991,-126.3755,-36.4766
-867.1875,80.7061,75.2448,290.8003,93.9491,70.7246,2.1023,-112.9553,-282.3705,-117.7496,-320.8531,21.2734,101.4712,78.4402,-31.5745,-32.7485,-176.6106,210.1321,144.3537,-74.5810,-19.7546
-859.3750,134.0338,163.8555,238.3311,147.4655,55.3723,-13.5784,-165.4993,-223.7616,-170.1604,-226.2265,78.9056,49.2495,26.0254,25.9170,-122.1757,-83.0123,192.6608,20.8128,-55.9783,-72.2368
-851.5625,202.6389,92.7642,276.1557,111.2843,56.3146,-86.9623,-90.7521,-187.8523,-58.2589,-226.2873,42.8296,13.3373,26.9062,-46.2851,-84.2983,-193.0978,191.4895,55.5587,12.9262,-108.4110
-843.7500,2.4409,67.8799,173.1840,86.3073,-46.5384,-80.1549,-83.7997,-142.7441,-14.1585,-109.1369,-23.0449,94.6211,34.9887,-2.2906,-40.2337,-111.9844,167.5201,-4.4959,59.0303,-27.3905
-835.9375,39.9237,140.6940,142.9178,159.0336,-2.6927,-72.6584,-40.1556,-135.9387,-117.3417,-64.2804,57.7683,-8.3816,78.7707,4.3948,-106.4761,-67.1738,169.2590,-2.8415,-44.1598,-130.6617
-828.1250,-28.4633,143.6673,144.8036,126.9206,-37.6978,-35.0222,-38.3618,-97.9820,-42.3778,-174.2557,-14.2728,103.7598,5.7025,-30.7707,-31.5676,-103.2001,172.1490,105.9568,-76.2019,-92.7860
-820.3125,-70.1054,137.3959,-10.5470,155.5685,-45.9499,29.3534,-46.8144,4.7184,-87.6550,-71.4856,-22.5726,58.6492,-38.6200,33.8010,-2.9048,35.5134,95.8012,28.5134,-118.4924,-64.1672
-812.5000,-38.5693,64.3283,24.3023,82.4296,25.9913,27.9204,-12.0732,2.6147,-15.7292,-35.5058,-23.6831,-16.2501,-39.7488,-40.4303,31.9525,-38.5693,57.6681,96.2730,-50.5792,-102.3419
-804.6875,-167.7390,4.5729,-4.5391,22.6086,-76.7568,35.7767,-41.0246,47.8050,29.4861,8.7783,-53.4949,65.1403,-69.5744,3.6333,76.0941,5.6458,-2.1490,106.3327,30.6314,-21.2274
-796.8750,-93.3305,9.4253,3.2315,27.3906,-67.8994,43.2288,-32.3699,129.5883,-72.6868,90.6584,-7.7211,-35.8614,-60.8060,48.2907,10.8269,50.4501,2.6454,41.0063,0.4461,-86.5132
-789.0625,-67.6427,-34.4172,105.2956,-51.5196,-76.7394,70.9778,-5.4197,83.6776,-8.5587,81.8594,-53.6529,-44.5583,-69.7464,-33.7457,-34.1485,-31.4318,64.7416,137.9688,62.5585,-95.4983
-781.2500,-88.7611,-55.0586,45.5652,-37.2254,-99.3768,84.9195,-27.2660,134.9614,-30.2216,206.2665,-39.3905,-67.0542,-92.4916,53.4165,-93.9241,55.8809,8.0473,82.1346,40.8684,-81.2902
-773.4375,-12.4575,-48.2448,56.2825,-30.4760,-52.5691,131.3079,19.3296,144.6937,-20.4218,107.1339,-29.6995,-93.0840,-118.7917,64.0309,-83.2504,-7.3538,15.8131,88.7503,13.6302,-144.6234
-765.6250,-120.5631,-49.8214,12.6059,-32.1169,-133.1539,87.2862,12.5297,138.0220,45.9687,62.6055,-73.4097,10.4799,-126.4883,93.2446,-53.9881,23.0151,48.1935,50.9588,45.9938,-41.3625
-757.8125,-35.2822,-34.9968,28.3426,-17.3559,-116.3321,-6.3427,-7.8704,154.7418,-10.2278,116.4698,17.2700,-83.5482,-35.7860,72.8450,-74.3267,149.7755,27.9843,-74.4258,-9.2338,-61.7006
-750.0000,-17.6608,-51.8201,157.4312,-69.2416,-61.1608,-62.6358,46.0723,98.8116,43.9278,24.7010,-1.7022,-28.2177,-17.7385,-19.2057,17.6803,20.8936,11.1330,13.5286,-61.1130,-43.6832
-742.1875,-107.9889,-2.5848,58.5825,-55.0711,-85.9329,-51.8936,21.0649,110.9235,19.1348,35.9955,9.3767,20.1628,-43.6463,65.7844,28.7285,69.0614,-9.6577,-7.4683,-115.9488,41.3775
-734.3750,-26.3394,10.6509,73.7341,-6.8872,3.2851,-36.1670,73.0452,89.0303,35.3540,-58.6937,25.4438,-74.4425,-64.5527,80.7758,7.7703,84.2356,-31.4378,5.5331,-173.7840,-16.5541
-726.5625,-89.0530,-52.4608,41.5384,-70.0380,-29.8425,4.2001,40.6772,19.7927,113.2186,-126.7060,-7.8446,40.5916,-23.8096,85.4170,11.4544,89.0727,-59.5590,48.1696,-95.9780,61.1592
-718.7500,-84.7782,-11.5759,-24.6495,-64.1860,15.0318,11.5595,11.3124,27.5545,10.0916,27.2837,73.8549,11.6281,20.9269,129.0478,-17.8602,132.9011,-122.6657,-52.1851,-125.1643,31.8726
-710.9375,23.7667,-7.3902,17.4588,-61.0271,57.2001,-20.7888,53.2431,-41.3803,15.2691,-78.4047,78.8462,16.9709,25.9605,23.9837,-12.8816,-8.9595,-50.4609,56.7542,-88.0538,-0.1062
-703.1250,-46.6471,-7.1439,14.6245,10.1953,17.4276,-24.0917,-23.7734,-43.2660,-24.5030,-79.0330,75.8824,51.3536,-13.9517,57.9624,-51.8603,25.2289,20.8005,21.7399,-51.9015,70.9568
-695.3125,51.1182,21.3044,120.9877,73.6303,50.8506,-28.1970,9.4034,-84.9540,-102.0612,-156.4483,145.1037,-63.0485,19.3304,17.1399,-93.6445,21.6185,49.2716,49.9205,-94.5510,-6.7746
-687.5000,35.0688,4.9536,138.5519,23.2770,31.4803,-48.1056,-10.2232,-176.4372,-47.4254,-248.6394,126.5212,65.7443,36.8062,-39.4729,-2.2427,-70.7797,103.9515,104.2875,-75.0073,47.6912
-679.6875,42.9524,49.5477,74.0799,-4.1203,40.0677,-112.0701,-38.8903,-167.9755,-110.8326,-92.8775,170.8743,74.4834,119.2271,5.8557,-66.8920,47.7667,77.5955,6.6142,-171.5080,56.1016
-671.8750,104.3072,41.6470,178.1010,-47.0085,71.1542,-155.5453,-45.0605,-174.0159,-81.7339,-172.5938,164.7157,68.7327,76.1456,-74.3137,-0.0438,-32.1816,104.7493,69.4348,-109.5076,13.0172
-664.0625,3.5599,11.6631,107.0281,-40.9828,-0.8556,-154.1301,-78.3328,-135.1572,-41.7435,-133.3906,130.4582,107.8817,40.9628,-34.5840,75.6838,6.7727,110.8138,39.1421,-103.6132,88.8238
-656.2500,71.3554,10.2299,107.5133,62.5985,74.6830,-153.1760,-42.0623,-133.7504,-114.1935,-95.6343,204.7383,-1.4058,79.3308,-34.3144,39.9545,8.2745,73.4457,-33.6039,-140.1683,16.1851
-648.4375,57.7846,-3.5507,93.6505,14.8448,96.8681,-131.5849,16.8605,-148.6898,-55.9898,-183.2071,116.6692,20.9522,101.3435,-85.3952,24.8624,-79.5585,95.7395,59.2838,-49.0825,38.1993
-640.6250,25.5550,36.0213,-13.8520,53.4531,63.4080,-128.6562,-16.8600,-72.2823,-124.4319,-69.4195,82.9399,24.6564,104.7054,27.8663,-8.8881,33.9548,29.3991,-78.4766,-10.6519,41.5590
-632.8125,73.0490,49.3468,41.3944,31.8242,118.6913,-111.9855,38.1612,-91.1274,-107.1155,-87.8667,63.9505,-29.8777,48.8127,-27.1218,-26.8968,-20.7773,7.8220,-29.4881,109.5281,-50.3237
-625.0000,-24.2155,22.9286,48.8894,40.4612,52.2294,-69.0692,-28.5683,-84.7172,-26.5524,-81.0369,-2.7952,50.8302,-17.8347,16.1365,-20.6640,-51.2547,51.5037,13.7408,116.9527,-6.9646
-617.1875,33.7048,82.7062,40.5912,100.3041,80.9652,-39.9568,36.9020,-92.1050,-144.7690,-50.9948,62.6414,-30.2579,10.7056,7.5799,-102.2354,-21.5306,40.4026,2.1680,71.5836,-88.4053
-609.3750,13.4550,27.3357,58.1366,151.0091,61.5469,12.9964,54.2167,-74.6343,-53.1399,-144.0680,5.9205,-13.4975,-8.9099,-48.1235,-84.9705,-151.9408,57.1641,158.4309,87.0657,-107.9935
-601.5625,-87.8496,-38.0788,-12.3545,190.6807,27.0871,88.8912,-16.5193,-35.2160,-124.5642,-30.1789,9.1391,-9.7917,-5.5804,27.1156,-82.7683,-75.4039,25.8921,162.6444,55.4953,-68.6401
-593.7500,-11.9808,-31.2874,71.3560,127.5654,111.8158,61.9771,66.9396,-61.6001,-113.7808,-20.0734,18.5428,-109.8722,3.9472,-72.4457,-36.3717,-138.6662,-2.1594,240.0510,28.1225,-132.0798
-585.9375,-98.2733,-81.6362,14.9148,7.3209,91.3997,4.9014,46.2483,-82.1354,49.8497,-2.0926,-38.2059,-56.1073,-15.6763,-56.1566,17.8623,-122.0687,-16.3510,295.2897,82.5938,-41.6774
-578.1250,-50.1211,-67.5341,-7.0757,-14.4648,69.4368,-17.7297,61.0128,6.7765,-8.0550,49.3507,13.4797,-151.8911,-0.8564,-41.4339,31.5477,-33.0247,-38.0839,201.9774,60.5151,-63.8266
-570.3125,-67.1938,-154.6362,12.7283,-65.4356,90.2712,38.4318,118.5735,26.4956,122.8454,-2.3757,-77.0447,-203.8795,-54.2451,-94.9065,89.0282,-86.1626,-54.0091,291.4515,150.2310,-80.1678
-562.5000,-216.5275,-231.9897,-144.7116,-108.6425,78.8604,100.3356,143.8877,125.9679,148.4966,133.6704,-160.8253,-214.1268,8.1112,-32.6363,151.2534,13.4554,-132.1740,212.6681,142.6942,-17.7669
-554.6875,-156.0797,-170.5414,-152.3468,-81.0429,183.2453,56.0308,209.9928,156.2385,104.9592,164.5382,-95.8173,-184.5649,74.2612,-76.5703,107.2721,6.8750,-175.5249,62.6768,27.9577,-61.5595
-546.8750,-192.5433,-100.9845,-121.8816,-117.3298,101.7298,10.8173,165.1965,74.6190,170.5135,83.5392,-212.7169,102.0904,29.5125,-11.4012,172.3650,-37.5889,-175.7660,-44.2309,26.3135,77.7465
-539.0625,-359.8201,-91.2325,-187.2142,-107.4052,72.4192,54.7968,173.6005,156.2036,142.2809,165.7564,-389.4339,146.9445,0.9511,106.9612,143.6494,154.1427,-165.7882,-209.9349,70.8741,122.2489
-531.2500,-431.4237,-125.7877,-113.8558,-176.7675,109.8028,54.4664,283.7018,119.4930,252.7580,92.7059,-500.4637,110.4983,37.0818,-2.9784,143.6297,117.5860,-130.0903,-139.9455,177.1329,122.4562
-523.4375,-472.7329,-132.0406,-124.1875,-147.8108,63.4951,44.4294,199.1072,109.0831,205.5286,155.9834,-474.1990,173.3354,27.5078,-13.6207,131.8897,143.3366,-65.0775,-216.6644,170.6848,221.9523
-515.6250,-262.5620,-60.7908,-121.0176,-76.3385,102.6842,-26.1107,129.0087,112.1811,25.8117,160.7734,-287.4557,66.6824,30.4208,26.2300,61.6408,147.5865,-64.5530,-216.8841,100.7406,151.9523
-507.8125,-213.5080,-45.6322,-68.9590,-95.9552,8.7689,-11.7549,69.8093,90.1899,40.9948,102.4944,-272.8192,81.9264,9.2277,-32.0156,76.2781,52.7542,-14.1217,-96.2209,151.6918,166.8513
-500.0000,-256.9594,-52.9723,-76.3955,-103.0606,1.3612,-19.9104,-46.8792,156.6987,-113.3103,243.7278,-206.6966,38.6642,1.5328,33.2276,-3.5901,155.4133,14.8244,-104.0599,179.1422,159.2422
-492.1875,-105.8837,-76.7604,11.7189,-91.5965,15.4998,-43.5267,-33.0182,135.7578,-134.0611,149.5357,-192.0376,16.9572,-21.6138,11.0213,-62.9176,60.6296,60.3358,10.6382,225.1347,64.1866
-484.3750,-136.2121,-105.9394,-55.5615,-49.5093,-51.7535,-38.5493,-63.5571,66.4218,-92.2224,117.9690,-186.7798,95.8367,-16.1656,52.4162,-57.6577,65.4536,102.4589,16.9233,230.7082,105.7199
-476.5625,-32.4515,-36.0203,-16.7334,-15.3061,24.0893,-36.4784,-62.0040,70.1866,-125.2751,85.5196,-74.4352,25.8215,-13.6267,18.8965,-56.3067,69.3778,67.7012,-53.6936,125.3814,35.3571
-468.7500,-4.3525,-41.7500,49.4368,-89.7375,16.2775,-81.0685,-33.1057,-11.6908,13.0222,4.4598,-81.7469,55.1490,-21.7440,-62.2731,46.3766,-48.3297,62.3083,10.0220,154.3996,64.3472
-460.9375,-128.4497,-23.6857,-44.5846,-73.3606,-4.7267,-65.8649,-53.3998,40.2330,-43.8796,94.2177,-67.2677,70.2624,-42.0668,25.3507,23.8512,39.7630,43.7306,-42.4689,136.2168,116.1298
-453.1250,-71.8720,-1.9271,-17.9137,-15.2750,22.9646,-39.9639,-26.9946,31.8615,-90.0619,86.7002,-41.1019,-11.9195,-52.6993,16.6714,-94.9719,31.5631,67.8646,-21.2696,194.7254,33.6197
-445.3125,-145.2539,-4.1093,-22.1997,-17.1154,-54.2941,-8.0187,-103.5432,27.5493,-57.1933,46.2547,-80.8906,94.9386,-92.2868,12.0396,-98.7500,27.4254,136.0568,10.9662,262.2684,66.1560
-437.5000,-48.1978,24.1616,-26.0301,11.5119,-59.1094,24.3682,-72.6407,60.6820,-98.8652,80.2629,-13.2408,-19.7474,-98.4324,80.8488,-105.0821,60.7352,128.7197,-102.3494,184.2579,-11.8528
-429.6875,46.9899,15.5815,75.2832,3.3030,-30.7815,50.9006,-44.5948,14.9715,-70.3931,-1.5442,-59.4484,8.7150,-70.4321,35.8145,-114.2795,-58.7838,120.5458,-76.5313,175.3902,-20.7064
-421.8750,-10.8655,28.9502,-23.4481,-18.9422,-56.4987,62.3824,-142.5977,100.2140,-130.9728,121.6296,-48.7129,57.1140,-22.4896,119.7250,-175.5460,63.6525,64.3345,-132.7764,117.4682,27.3795
-414.0625,39.4140,45.4671,-38.0368,-1.0278,2.9262,46.0052,-48.4542,121.6124,-147.3939,143.9754,10.1568,5.6680,-37.4060,67.7833,-191.6670,48.2435,-23.7107,-81.8813,99.7025,-61.3767
-406.2500,-63.5064,14.7897,-110.8323,-67.2890,-70.8485,82.4197,-48.5140,121.8134,74.9824,182.1513,-64.1691,116.0118,-110.5269,-5.3600,-45.0036,12.6434,-54.9436,-44.2072,67.7245,12.6640
-398.4375,-45.4801,33.0643,-200.6731,-48.5831,-87.6728,28.7721,-28.6229,141.9633,58.3140,350.2920,-7.5559,26.3068,-91.7021,51.4375,-25.3978,105.9908,-106.2141,-165.5817,15.6914,-4.3486
-390.6250,37.1682,-23.0123,-148.8704,-69.2096,-34.8543,6.7708,59.9115,120.7743,73.2933,257.1208,7.6853,-31.7504,-39.2314,-44.1123,-47.1531,12.0094,-56.8181,-118.3230,64.3074,-25.7061
-382.8125,-80.5351,-69.4403,-199.4086,-79.1723,-85.3771,-8.5914,9.0975,143.2427,132.9209,390.6225,-44.4293,-9.1712,-54.1142,14.9834,-62.2727,108.6839,-100.7558,-128.4276,88.5683,33.5762
-375.0000,-46.5923,-105.2260,-160.2911,-79.4775,-46.2562,-43.3098,47.9241,220.3615,173.2129,504.7899,-41.9028,-116.9395,-88.3579,-19.2785,-59.7444,148.0034,-171.0187,-130.8868,52.4753,-37.4855
-367.1875,-121.8022,-143.1538,-203.3325,-115.9134,-89.2905,-14.1831,41.5964,213.3397,313.3470,462.8433,-49.5219,-85.8734,-130.7570,-99.6853,6.6215,141.1925,-139.4212,-64.5186,49.2142,29.2985
-359.3750,-90.2579,-74.3282,-243.6219,-118.5880,-129.5768,-19.3117,37.0214,209.0765,162.2379,459.6664,56.6007,-89.0583,-98.4124,-31.3529,1.7245,174.1310,-106.0603,-172.4088,10.6916,61.8273
-351.5625,38.0709,-51.7012,-143.1193,-164.4457,-67.0752,-29.6402,100.2430,162.6157,115.9373,340.3066,83.5094,-135.4353,-36.2763,-78.2143,-8.3838,54.8820,-81.8843,-114.5129,-0.0405,15.1642
-343.7500,-42.7018,-95.1702,-192.7100,-137.3841,-114.6671,-6.0728,51.3682,151.0569,141.5288,402.8673,33.3154,-37.9280,-12.2452,-17.1742,-21.6037,79.5373,-124.7907,-123.7284,-9.8907,76.3930
-335.9375,-26.6850,-43.8413,-170.5009,-50.5093,-20.4593,15.2953,72.2940,172.2934,88.9252,389.2415,54.9083,-126.6200,-27.4183,-32.3429,-37.0226,137.9938,-141.8819,-177.1463,-63.9502,-12.5736
-328.1250,-31.3741,-82.2104,-67.0030,17.6790,-25.9552,8.9609,67.5134,93.8411,194.6231,163.9487,11.7968,-95.0225,-70.2948,-75.2120,30.8525,59.7717,-75.6652,-77.2887,-67.7225,18.7611
-320.3125,35.4384,20.9148,-106.0085,86.3770,-101.9508,-32.8757,-47.7580,52.8926,80.8341,162.1735,81.1772,-25.9392,-73.6745,31.4110,-47.7744,130.0477,-6.9408,-149.9371,-139.9966,51.5894
-312.5000,159.3838,112.1870,29.1232,142.2411,-76.8057,-80.5696,-20.8837,6.0962,-2.7899,115.5678,106.6985,-35.6985,-47.9091,-52.8099,-21.2549,9.4816,13.9440,-95.4498,-191.1275,-69.4247
-304.6875,55.7323,150.8615,-5.3477,146.5185,-75.2559,-79.8687,-19.6037,-29.2881,-1.0238,8.3837,34.6207,39.9285,-46.7500,-51.6306,16.6479,-25.6703,53.2405,-22.5790,-117.8675,-31.0485
-296.8750,73.3751,203.8287,15.4876,235.1077,-16.4080,-22.8711,0.9757,-7.3668,-163.9545,-5.4818,91.8299,-12.1452,-62.2997,5.8392,-73.1487,-40.5261,71.8539,-40.4119,-170.3113,-83.3726
-289.0625,164.2621,156.0455,111.5630,222.9613,-31.3127,35.3687,-13.2002,-59.1867,-250.6328,-129.0680,113.2914,10.0256,-40.6049,-45.4396,-88.7070,-92.1171,130.7260,15.9862,-148.5170,-61.4439
-281.2500,158.3122,115.4193,66.7982,218.9830,-77.0620,26.7476,-96.2231,6.1409,-332.1583,-26.4942,140.9018,38.3338,-49.7572,-17.5780,-170.1302,47.4377,125.7641,-60.4772,-118.5847,3.6264
-273.4375,231.3049,119.7437,109.9818,257.9737,-32.8671,32.0663,-89.3003,-23.5873,-178.7230,-54.9563,110.4542,-65.4010,-42.9639,-47.7753,-201.6059,-19.0534,165.7689,-57.0045,-150.7096,-63.3455
-265.6250,94.1004,124.8747,75.9592,229.7857,-139.8747,34.1785,-196.5786,-94.5062,81.4992,-14.5860,38.8098,47.6473,-78.3717,-46.1781,-90.2885,-53.7296,207.5816,-52.7505,-180.0503,12.4779
-257.8125,63.8487,166.9507,46.8913,271.5533,-96.9359,40.2411,-116.9049,-50.4746,-167.3231,-42.2462,119.1064,-18.3603,3.1611,35.3591,-83.0247,28.5429,143.3553,-82.5435,-244.4464,-16.7502
-250.0000,112.1354,109.5752,98.3621,215.8801,-7.4547,91.8502,9.3089,-71.8813,-188.5903,-171.3262,133.9479,-39.8206,54.2341,-60.5484,-105.2186,-139.6173,122.6860,1.1980,-126.2979,-38.4224
-242.1875,101.5327,31.2979,12.9335,172.3193,-92.8732,78.5599,-149.3792,-83.1801,129.2438,0.7198,84.8888,-15.1948,-31.6021,-73.3583,-117.3274,-77.6753,80.1267,-43.9726,-30.0554,22.9960
-234.3750,232.7265,21.8114,7.2971,164.5708,-62.5076,35.0698,-120.2736,-126.6754,270.8902,106.5867,114.6208,-131.7680,-74.6479,-116.3708,-161.6399,-46.9280,36.3846,-53.3514,-39.0153,-56.7800
-226.5625,95.7737,-7.8239,-27.4937,135.6908,-96.2966,73.4296,-81.3209,-86.3064,237.3747,74.3275,-30.7943,-55.5062,-72.8460,-113.5289,-86.1138,-44.3144,7.4976,57.0997,1.8603,19.2912
-218.7500,-71.0194,38.6866,-90.1330,181.9666,-121.9342,82.9379,-34.2151,-2.7827,101.0115,160.2203,-58.0661,-45.1034,-98.8979,6.4543,-39.4394,40.4479,18.7712,-74.2983,-24.1189,29.5120
-210.9375,-23.9236,51.0938,-0.8818,161.1526,-70.6816,24.3413,18.7828,-60.3539,190.5471,67.0390,-79.4434,-65.8013,-84.0567,-51.6549,13.1306,-90.8749,67.9561,-26.8094,-11.2021,-28.3595
-203.1250,-44.4668,31.8546,-61.2782,176.7017,-129.0768,-35.9096,-4.8652,-46.5734,241.4278,119.2329,-66.4718,-15.1650,-70.8720,-38.4182,26.0426,-39.8443,49.5015,-117.9838,4.0562,22.1078
-195.3125,120.5409,22.1585,-67.1226,203.8141,-62.9318,-6.6107,-47.9672,21.7583,124.8691,187.9782,1.0450,-131.9754,-3.1477,-44.6392,-54.4993,28.7356,-29.3925,-128.6061,-76.1361,-57.8709
-187.5000,91.2504,-41.8332,-25.2755,140.6437,-58.0879,-1.6150,-80.3723,26.7921,203.9982,84.4408,-31.7341,-53.0896,-35.7249,-77.1554,23.6482,-39.9769,-22.5758,-16.5407,-70.6397,-16.1523
-179.6875,23.7228,-2.0708,-59.6681,111.2361,-18.4914,0.1315,-78.0227,66.5740,132.8807,88.6508,7.2294,-50.4614,-70.5537,-0.9284,-11.4609,74.0528,-16.9952,-83.7301,-135.4011,23.3057
-171.8750,88.8887,29.3978,48.6321,142.5434,15.7899,-3.4233,-6.9824,64.0558,57.4720,13.5750,-33.1125,-90.1277,-36.6860,-3.9988,-88.8707,-2.2122,15.2938,-18.2333,-175.4719,-16.5297
-164.0625,-18.6356,29.1658,-27.7696,178.1660,-96.6267,30.3147,-119.6382,98.8387,18.3578,49.8180,-73.1463,-18.5103,-2.5204,67.2313,-54.9834,32.8372,50.8879,15.5438,-177.2585,17.9277
-156.2500,26.6397,39.7229,-11.3730,190.5969,-44.2452,7.8537,-30.4898,77.4230,-38.9461,67.8641,15.6131,-113.0933,49.4437,82.2582,-3.2985,85.6856,62.2913,-114.8795,-272.2529,-76.8141
-148.4375,77.0188,21.3768,115.1145,102.1396,9.2308,-13.5096,21.7514,-15.8797,50.8448,-61.9638,-41.5261,-59.5882,28.5066,-11.6138,86.4769,-7.3476,114.7962,-64.2141,-291.1585,-60.4549
-140.6250,64.5663,11.1804,64.7538,127.8394,-5.1337,-64.7257,-65.8497,6.9684,-36.2122,73.3675,-19.5141,-36.9453,14.7179,47.6495,35.3962,125.7636,105.4558,-111.3994,-336.9260,-0.9529
-132.8125,180.2602,57.1260,115.5290,175.6922,9.6410,-124.7951,-14.3055,-15.0337,-95.1065,52.8567,-5.3552,-96.1498,28.0770,-11.9332,-24.5254,67.0300,153.2691,-65.4390,-326.5445,-60.2935
-125.0000,90.3076,73.4166,92.6436,156.9005,-13.2337,-148.5137,-37.4046,-110.6707,-6.6579,-77.2855,-28.8417,28.9786,5.7839,1.8378,25.9041,-28.3411,240.4280,-15.1447,-240.8150,-9.2921
-117.1875,151.2584,136.6021,125.6588,186.0102,18.7914,-116.3246,-41.5979,-115.4054,-47.2977,-117.5260,39.5646,-11.9990,0.3841,70.5006,-16.7657,5.1877,198.4929,-93.9517,-284.1914,-87.3919
-109.3750,196.2122,40.7885,173.6655,162.1311,30.8111,-105.1328,-30.7982,-140.1355,38.0609,-213.7474,13.9741,-0.9801,11.9843,8.1692,-5.4437,-93.2734,209.5660,21.2205,-204.5859,-112.4863
-101.5625,61.9898,-21.2183,32.4779,100.0683,0.6319,-100.1394,-24.1990,-134.0698,44.2050,-23.1671,19.1935,41.8340,17.3872,50.6347,36.6731,24.0585,183.4491,-77.8215,-162.1999,-69.7882
-93.7500,193.2735,-29.7291,62.7881,57.5112,103.9422,-144.6479,41.8921,-103.5084,-35.1460,-28.0856,122.9078,-74.8451,47.2930,-66.3988,66.2889,16.8914,140.8422,-122.3660,-135.3215,-113.5821
-85.9375,152.3661,-69.4377,51.8955,-16.2346,56.0489,-156.3553,-6.2256,-113.1408,-9.7007,-110.1928,74.4318,24.2587,108.9970,-78.6206,90.6954,-30.4605,137.0399,-22.1250,-105.6592,22.4195
-78.1250,136.6192,-84.0005,74.1588,5.1780,41.2995,-135.9101,-58.1971,-91.6236,-97.1004,-49.1499,132.1053,-27.4881,130.8430,-19.6951,39.2559,66.3305,88.3932,-37.7321,-120.8545,7.5679
-70.3125,149.8212,-104.6071,128.3611,-49.4486,95.4849,-118.5097,-3.2273,-111.1505,-42.5541,-140.1433,112.7272,-46.2829,74.6374,-75.8118,18.7651,11.0823,103.7007,81.5972,-36.1154,-48.3267
-62.5000,-28.6572,-104.9168,-24.1367,-49.7664,16.9734,-13.8088,-45.9555,-42.3768,-47.7169,-69.8212,33.6544,22.2077,-4.2665,29.3666,13.5725,117.1359,103.3104,43.2224,31.9104,20.0692
-54.6875,59.4668,-51.6397,-37.0384,-29.4861,40.0539,8.4971,-22.0816,18.9939,-170.2654,-8.8995,56.1723,-27.7002,18.4276,52.1445,-1.0138,103.7875,52.5227,-9.5440,14.5348,-66.9324
-46.8750,21.8450,-53.1096,-2.7036,-64.9491,38.3858,5.0559,12.0462,-20.3750,-62.5672,-45.7191,16.9446,43.6295,16.3681,-23.8224,69.6430,-8.2956,17.9815,23.9310,48.3983,-32.6874
-39.0625,-38.6143,-6.4297,-29.2159,-18.2587,11.8738,-21.2316,22.3287,-9.5948,-88.7141,2.6044,26.8645,17.1056,99.4559,59.3551,79.4515,39.7635,-6.4093,-71.4407,-46.5949,-22.2989
-31.2500,-7.4235,25.8983,6.9107,16.0901,84.0036,13.1328,94.2517,-47.1603,-89.2085,-179.4127,24.4339,-20.7705,135.1925,21.1864,114.9134,-34.5221,-7.1481,-5.1716,-84.9426,-60.2538
-23.4375,-81.1641,-46.7222,-37.9119,-20.5071,40.1873,5.5454,13.2275,-53.6751,-58.6582,-147.3825,17.0724,82.3861,126.9863,51.0678,106.4178,-4.7561,-8.8356,-7.8617,-18.2487,42.8328
-15.6250,4.5648,5.0983,-55.2755,-3.6534,59.8136,23.4069,32.6562,-34.7509,-112.6434,-16.9283,109.1652,-46.0046,72.2300,33.3923,15.3846,52.4461,-62.0640,-28.1060,-37.1049,-11.6271
-7.8125,25.6084,-8.7801,3.6568,-84.4893,7.7390,44.5700,17.3789,-12.5309,-17.3389,-103.1784,20.5686,12.8981,20.7762,18.0242,36.6548,-36.0437,-72.9887,62.9335,54.3263,10.2151
-4000.0000,-1.6031,-54.2069,-40.5227,-48.6959,0.5384,76.2184,14.9658,9.3007,-13.1228,-72.2346,8.2946,7.8342,25.7034,56.3905,39.2050,22.4517,-71.6939,-5.3353,22.2760,24.2363
-3992.1875,140.1019,-55.2590,35.5454,-83.9487,114.1156,6.8604,91.8786,-23.9559,-9.7599,-144.0581,47.9495,-62.3556,28.9554,-50.0372,42.5801,-47.6807,-38.0590,30.2514,22.5560,-45.6801
-3984.3750,59.2243,-135.9036,21.0204,-95.8062,27.0872,-6.1114,42.1940,-37.8157,49.9939,-12.4951,-38.9725,-39.1442,16.6194,-63.0749,30.3538,-61.4280,20.9768,90.2461,118.2348,14.8009
-3976.5625,65.7050,-130.1881,-6.1536,-55.3200,37.3970,-31.7418,51.8479,9.6651,-13.9097,106.4144,7.4728,-102.5799,26.6470,-14.7559,-69.5304,23.1687,-8.6343,26.5933,126.2640,-48.3615
-3968.7500,66.2553,-60.4090,67.7356,-89.7829,37.7608,-30.3307,52.5564,-26.8053,23.2257,-5.6404,-65.0132,-64.9821,-8.2652,-87.3878,-31.3725,-87.1939,26.8111,132.9852,197.3394,-47.4865
-3960.9375,-62.1862,57.3728,-69.3663,25.7477,-62.8800,-18.9255,-83.7353,-16.2815,-3.6349,77.2903,-91.4967,-17.3825,-71.1719,-2.0255,16.7921,34.4331,2.2632,109.3790,175.4176,0.3904
-3953.1250,19.7181,138.5137,-17.1223,106.6242,-46.1767,-2.1819,-29.6748,-0.4033,-24.1546,55.5788,-74.6248,-37.4406,-90.7170,-58.3052,-39.6883,-22.5823,-21.9364,121.1122,116.8435,-93.3824
-3945.3125,-37.5176,80.5091,-8.0171,119.3422,-73.6182,-27.6048,-56.7549,-63.6790,96.1777,-46.2980,-101.9016,83.3466,-43.4049,-84.7433,-29.3144,-86.7639,24.7227,133.7023,131.1306,-9.3134
-3937.5000,-29.1118,52.1595,0.7373,125.7058,-27.4168,-91.3873,-84.1914,-17.3089,-42.8381,108.4676,17.4650,-18.2058,-33.4402,-37.5368,-56.2868,33.7032,32.0447,35.9498,68.0790,-36.5879
-3929.6875,85.8508,-8.6233,122.0497,64.6228,57.3403,-115.6326,-35.0759,-42.3842,-68.3203,44.7810,-7.6160,-43.2205,-57.9143,-135.7849,-6.7203,-28.2800,75.9190,80.7438,79.5852,-61.3204
-3921.8750,45.4606,-15.7483,74.0298,22.1880,46.7469,-161.2359,-46.3107,-53.8111,-78.1484,31.7366,-18.0548,19.4192,-68.7336,-108.3906,56.4900,34.3684,68.4551,4.1936,108.7471,38.5980
-3914.0625,129.5611,33.6429,91.5050,71.2521,100.6457,-143.3468,-28.0530,-72.7351,-62.4868,-61.7989,36.0036,-36.4401,-50.0438,-90.4840,1.1944,-21.4777,47.4968,19.1351,53.4077,-16.9783
-3906.2500,25.9177,-0.7023,89.2383,71.5625,62.7996,-70.2182,-101.5362,-109.4125,46.4272,-174.0970,-38.6894,72.9409,-51.1055,-17.3298,37.1517,-59.0826,47.7983,91.3301,21.3211,55.6862
-3898.4375,-16.3811,97.3045,7.3210,98.2149,18.2922,-40.7477,-145.6729,-80.7406,-34.2993,-73.0543,-9.0425,65.6804,-20.8161,50.1749,30.4683,43.6566,74.4598,-22.1182,-91.4060,48.7058
-3890.6250,67.1242,144.1233,97.2060,110.6732,-2.4160,-97.4864,-94.0063,-102.2661,-19.2405,-95.2017,7.4091,45.2117,-40.7189,-43.5213,10.5738,-13.8035,121.9300,26.2278,-113.3363,-8.4822
-3882.8125,9.3824,86.7067,31.8536,157.8786,-102.3728,-85.4826,-119.5883,-91.0488,26.5635,-50.6061,-20.3938,128.5020,-66.8661,3.5179,-16.5801,-4.5301,134.1614,-31.6648,-64.5105,75.0779
-3875.0000,109.5284,80.2012,29.4019,185.9814,-32.4363,-160.5907,-86.2769,-94.9231,-12.7337,-55.0974,87.7027,52.6973,-32.1080,2.4612,-17.8480,-6.3502,162.2970,-141.6681,-69.7824,-0.4565
-3867.1875,129.3843,64.4106,122.6590,99.7777,-49.7945,-177.0106,-29.2643,-147.0926,43.6645,-146.8902,34.5030,109.5781,-48.6445,-50.8951,112.5855,-132.4751,181.1364,-121.9790,-13.3526,19.6992
-3859.3750,86.5930,125.9741,75.2672,89.9068,-94.8131,-149.0930,-38.9007,-83.9110,-75.5804,-47.3381,61.6494,62.8134,-20.8300,14.0907,30.3818,-33.2549,172.3339,-200.9358,-21.5636,47.2101
-3851.5625,165.0067,132.7476,159.0750,167.2355,-48.6319,-101.9896,-64.3336,-73.5259,-102.6351,-111.5725,72.0062,37.2398,-45.8045,-47.7254,-68.6302,-95.8334,178.7380,-88.7015,-47.5822,-15.0831
-3843.7500,30.9278,139.0301,53.3968,208.0591,-115.9481,-95.3978,-95.2601,-68.6461,-25.1892,-145.3172,3.8651,152.1676,-77.2731,-5.0526,-63.1439,-89.9309,219.6551,-11.9587,-41.1023,27.1184
-3835.9375,71.0866,179.5742,26.9735,213.1341,-33.0212,-84.5658,-47.9438,-57.5156,-88.4902,-100.8038,50.9745,52.3527,-65.4879,5.8726,-14.4154,-79.7801,154.8343,-40.9773,-69.3757,-72.4258
-3828.1250,133.3566,100.2350,127.6572,132.3118,31.0049,-129.6496,53.4789,-103.2820,13.3022,-183.1798,5.1906,43.6198,-36.5970,-149.1058,13.4071,-198.5365,145.1234,55.1015,27.4448,-80.8832
-3820.3125,74.0259,75.3009,99.7466,37.8805,41.4246,-155.3468,27.3028,-56.6507,-14.4898,-66.1536,14.8047,17.2942,10.6942,-101.6971,-12.3703,-78.9055,84.8215,-3.4120,39.6695,-33.9397
-3812.5000,109.4953,110.1802,102.6310,1.2487,117.6392,-115.2608,103.9250,-53.2128,-11.4843,-101.3080,-18.7705,-90.2426,13.7901,-97.4891,-9.3506,-112.4665,83.3224,30.8644,40.6874,-104.1986
-3804.6875,-29.0225,41.0670,27.5279,1.6142,42.8582,-79.1937,65.5552,-54.7778,96.5166,-103.4557,-56.3403,-17.7931,13.8925,-98.2958,27.6678,-77.0371,119.8313,68.1472,42.7037,-31.4657
-3796.8750,-8.5485,25.9589,12.4266,56.9748,64.0707,-130.1413,51.1862,40.6588,45.5256,64.4123,2.0884,-106.3412,35.9941,-112.1090,-60.3145,-17.6087,104.3459,18.4302,-41.2807,-45.7289
-3789.0625,79.9278,8.8702,103.3309,3.3374,82.2849,-147.1037,69.8260,-13.8987,99.5312,-29.7187,-52.4723,-50.9026,19.0985,-165.9249,-4.3054,-146.1811,156.8656,36.7128,-22.2742,-27.0037
-3781.2500,22.0477,20.4387,75.8932,-18.6602,18.1490,-173.4289,6.1191,-4.8058,72.2054,-21.1999,-6.3895,-4.8139,65.8499,-82.1034,5.3586,-99.1215,169.0504,-21.3449,-79.6134,56.3696
-3773.4375,129.1119,90.9727,117.3988,15.2942,23.9560,-203.8200,12.3547,1.2422,3.8259,-17.7065,35.6575,-72.7820,145.5565,-39.3360,-62.0332,-95.1017,133.1903,-20.4681,-149.0051,-48.3082
-3765.6250,-1.2471,101.0754,52.4666,-11.2038,-41.6866,-157.6818,-15.8600,9.8413,11.9845,26.3463,-65.7197,9.7883,117.8138,-67.0354,-15.8895,-86.5415,107.8844,59.9609,-31.8505,-2.4455
-3757.8125,-14.0494,122.7336,-34.9139,9.8400,-17.7933,-170.0056,-28.5282,143.9886,-111.3023,158.9601,-41.5391,-40.0904,68.6224,-5.1928,-28.1979,11.5678,59.1345,-59.0601,-9.1481,-15.0259
-3750.0000,40.5504,107.8037,25.1032,-41.7174,5.5010,-110.9417,-4.7921,167.5417,-89.1881,69.9893,-54.9505,-90.5842,92.8320,-54.9551,-41.1086,-75.9237,42.7896,31.3146,45.9510,-65.2151
-3742.1875,-140.0037,-4.2663,-22.0230,-153.4321,-41.3519,-9.0464,-14.1963,231.9449,-25.2097,169.8746,-101.5136,-63.2341,83.8938,10.1176,-50.1703,62.4161,0.3013,-9.4486,75.9093,-0.5616
-3734.3750,-105.0686,-3.8220,-17.6533,-152.6495,0.2909,-3.6656,26.8943,235.8524,-57.7279,246.2942,-23.5702,-168.3860,89.4500,14.6909,-44.7443,103.2612,-33.6798,-43.7139,7.3585,-69.4113
-3726.5625,-83.1679,17.5871,1.6784,-132.9118,-54.1079,16.6478,-26.0616,145.7151,-1.2992,154.6765,-76.6649,-75.6046,72.9555,-37.8038,85.6202,-23.9491,-13.7068,47.9730,-5.2512,-12.3249
-3718.7500,-63.1191,107.1546,-88.8314,-78.0249,-107.3675,0.0976,-42.8757,128.7299,-91.7196,210.2109,-19.6054,-55.6745,57.6136,92.8413,33.1267,32.9816,-29.5678,-38.1794,-55.7078,7.9169
-3710.9375,42.2815,106.0878,-14.9896,-80.7776,-70.2793,-35.1115,-41.3396,93.1014,-91.8039,99.1139,17.8136,-54.4067,95.6251,21.8380,-39.0396,-2.7381,39.9302,-37.9858,-19.8190,-27.5007
-3703.1250,-46.5620,50.7872,-40.3842,-135.7728,-169.4389,-59.5829,-66.0526,104.2185,-7.1360,145.7634,-8.0152,29.6067,107.3785,-4.4287,-100.4633,44.2730,54.1985,-23.0308,30.8229,93.8188
-3695.3125,-59.4606,74.4568,-15.8231,-78.8101,-142.6580,-106.1208,-40.8230,130.2848,-90.5160,207.3788,19.1119,-89.4307,134.0692,-13.7474,-109.9369,108.2340,41.4303,-35.1365,20.4106,47.0867
-3687.5000,-69.7014,63.7949,84.3963,-90.1948,-153.2265,-116.0266,-13.9367,84.0068,-29.2490,11.6673,8.9018,-63.8361,51.4068,-60.4317,26.2343,-13.1563,66.3162,95.4026,80.6418,36.9899
-3679.6875,-107.2525,59.8408,6.3201,-24.8909,-194.1019,-83.2504,-54.3513,80.4349,-33.2616,80.6756,5.3929,-31.5481,11.4412,47.5684,-13.8998,57.1483,25.9143,56.6483,77.5783,33.5936
-3671.8750,-54.0108,42.6941,66.0442,28.2121,-98.1728,-22.6925,7.0367,29.6765,-46.4770,102.5159,-8.3032,-81.4749,35.2794,71.3680,-100.2515,-29.7405,-25.6834,110.6852,26.3044,-53.0101
-3664.0625,-130.8153,0.5119,-18.2657,-50.7281,-108.2847,3.7974,-3.6224,-17.1293,16.2552,91.3118,-55.0400,18.5374,63.0676,172.0976,-109.6589,-40.6996,0.6841,137.6820,19.9737,10.3251
-3656.2500,-90.0809,41.8981,-8.0258,-9.1113,-61.8538,50.8184,7.2630,29.6167,-47.4579,62.6747,28.7782,-118.9004,73.4010,183.3681,-136.5230,42.8976,7.6134,74.2239,-77.8141,-52.7861
-3648.4375,-62.7318,-2.1047,55.8187,16.1093,-33.8215,79.4213,34.7513,20.9655,53.4269,-57.3441,-16.7860,-127.7570,28.3300,64.2300,-33.7969,-75.9018,-1.8492,136.3572,-16.0091,-61.3084
-3640.6250,-127.3761,-33.1088,-53.3340,-15.6785,-105.7929,82.0047,37.2410,60.3119,92.3277,90.6466,-14.3455,-52.6147,-5.7395,67.0778,-32.0706,73.2894,-102.3048,35.4995,-10.2014,14.1683
-3632.8125,-26.9734,-2.0479,-93.4358,-56.4154,-35.7201,42.6203,70.7762,130.7154,52.2773,159.7186,19.1633,-55.4295,-7.7636,27.9709,-108.3039,69.5347,-142.7018,-4.3198,-14.3578,-25.3080
-3625.0000,-110.3603,-15.7659,-37.3264,-104.9490,-53.4424,-12.5789,16.5174,76.3173,107.4245,104.0060,-35.1144,36.9475,11.4100,10.0465,-15.3481,51.9677,-121.8879,17.0628,7.6698,67.4038
-3617.1875,-94.4050,34.8765,15.1404,-55.1361,-0.8214,-32.4432,33.5990,19.2752,12.9231,82.6665,55.9678,-56.3261,65.9312,27.4660,1.9503,68.7499,-71.7163,-73.2059,-81.9609,47.4691
-3609.3750,-20.5403,4.4279,58.5140,-17.4203,42.7042,-62.4229,77.5778,-47.8610,56.3227,14.2544,25.9709,-50.7165,36.3527,-39.2252,83.1331,-35.5650,-33.6421,2.4190,-111.7052,17.4218
-3601.5625,-79.0669,14.5908,-7.5031,-6.1062,-59.1708,-89.8192,11.1604,-39.3968,63.3339,20.4530,33.5821,67.4825,81.3652,42.6636,16.9102,45.7100,12.0447,-92.3485,-134.8530,98.9683
-3593.7500,41.2535,134.6149,9.3232,41.0635,-6.2084,-108.3826,29.5888,-95.0746,44.1948,-36.4643,88.0553,122.5205,100.2219,24.3974,-74.4686,-10.1558,25.5940,-183.2809,-190.1548,43.3621
-3585.9375,-1.1149,162.9492,35.4617,-0.4693,-51.9433,-118.6671,56.3239,-178.4406,144.3589,-83.0550,-32.1600,258.8392,53.3722,-57.5897,25.4462,-92.7241,53.4474,-154.9144,-126.1613,107.0410
-3578.1250,-102.9522,165.8357,-33.8502,1.5377,-13.1343,-115.4202,59.6071,-64.2458,110.0910,27.9341,-100.8225,188.7106,20.0645,-18.0375,102.9034,19.2581,-13.1419,-221.9918,-122.6193,110.2736
-3570.3125,-23.8907,69.6351,13.7375,-26.5545,35.5808,-30.2871,145.7926,-53.1434,122.7144,-70.1419,-125.5626,127.4621,33.6567,-78.5955,79.2417,-41.8509,-5.8279,-143.1743,-78.1866,49.3946
-3562.5000,-139.0717,94.1909,-35.9084,-37.8987,-14.9506,29.5832,58.7315,-29.2900,108.0957,-84.4590,-175.5405,222.9482,19.9879,17.5794,28.3237,-18.2231,53.2514,-118.5963,-88.0086,109.2551
-3554.6875,-68.6041,200.4052,-31.9053,32.4114,64.1581,36.0892,28.3141,-60.7797,-33.8705,-7.0953,-96.8540,155.0828,26.9561,24.3969,-111.9603,24.0594,88.9911,-152.3698,-122.1902,4.7650
-3546.8750,-45.4748,117.2873,29.7531,54.3855,51.9213,24.2257,16.5509,-109.6175,27.8185,-57.0634,-108.4966,179.8490,-21.4250,-61.1520,-50.6119,-99.0163,146.3855,-60.4969,-27.7336,-7.0888
-3539.0625,-104.5025,93.0219,40.2622,64.2125,25.5307,-1.8077,-9.3628,-98.6079,-35.6264,-10.1598,-60.2805,116.4617,-46.9639,-12.8681,-2.4121,-51.2508,156.6419,-84.7662,18.5688,3.9088
-3531.2500,32.6614,124.9690,149.9712,59.2452,98.3433,-75.6579,63.9261,-98.3901,-35.8750,-122.0194,-59.8527,42.2543,-9.3119,-86.3908,-39.0237,-125.2753,153.1017,-17.8362,15.0617,-69.9008
-3523.4375,-44.6680,82.4211,102.1917,51.7766,87.6637,-86.0204,-19.2820,-108.6676,27.3810,-132.3647,-106.9167,105.5312,17.8352,-59.4352,-12.1460,-98.8164,145.0761,10.6120,44.0493,-6.2210
-3515.6250,21.7453,42.6363,101.1667,81.0652,123.7308,-86.6486,-19.7483,-109.1937,-84.6042,-23.9376,-34.2182,-5.4495,53.7274,-22.7432,-12.5327,-25.6043,105.8124,-64.1927,39.7786,-80.7898
-3507.8125,43.8635,-5.4340,159.8521,-2.9411,108.5089,-27.5897,2.4833,-124.0122,-62.8897,-76.7813,-47.8049,16.2491,3.3130,-74.3664,9.7645,-151.6901,127.2545,62.7011,98.1936,-58.6740
-3500.0000,-41.0740,-19.5507,31.4944,-53.9953,90.2364,28.4064,-52.3373,-67.8807,-81.2176,15.3505,-65.4384,71.8924,22.8302,18.9451,-44.9927,-58.8315,76.6602,48.5589,83.5558,-2.6122
-3492.1875,-3.9625,-18.6016,72.1907,-17.9923,169.0150,106.4336,-10.1127,-62.6940,-76.5022,18.5632,-60.0021,2.5743,27.3916,-49.6995,-113.7146,-53.9153,7.1233,49.4560,85.9554,-71.5066
-3484.3750,-92.9357,-72.7467,11.8046,-38.0957,71.7044,83.3436,-33.9796,-12.6083,47.1161,31.6893,-120.6519,125.1385,4.8525,-73.4680,-63.5416,-4.1130,-12.5087,31.2624,102.2511,15.4866
-3476.5625,-105.8687,-50.8392,-75.5332,-52.1506,58.4432,70.2910,-9.7991,48.5306,33.7953,201.8946,-59.2455,1.7510,-44.6447,-12.1986,-39.3275,56.7452,-61.0850,-87.8858,124.5938,2.5333
-3468.7500,-111.9959,-56.1210,-80.0713,-59.3990,52.9834,29.0235,59.1840,43.4821,139.2716,232.9426,-137.0198,-39.8560,-122.3525,-90.1397,30.6715,-21.5888,-31.8623,46.7584,154.7195,-38.6304
-3460.9375,-161.2737,-0.5486,-170.7511,-108.7965,-38.6281,10.5884,42.0166,99.2854,157.6153,398.8653,-189.9318,-21.6161,-175.2242,-34.2520,49.5181,106.9204,-82.7824,-2.7462,104.6867,17.0544
-3453.1250,-11.6556,7.9282,-123.5379,-102.2894,10.6633,-13.9638,90.7493,148.9987,95.8693,373.7284,-104.9311,-83.4903,-90.2059,-58.4738,-11.7492,82.3428,-144.7986,-64.3607,43.5383,-44.3620
-3445.3125,-93.8800,-75.4407,-67.1654,-79.6270,-7.8876,4.6180,73.6366,57.8691,151.2768,170.7678,-85.7709,45.7684,-70.0468,-75.5617,-29.8752,-9.0897,-52.6569,28.1804,66.5247,48.3599
-3437.5000,-100.9199,-47.6023,-110.5965,-18.7595,21.7566,-2.6093,-7.2801,50.9415,33.8945,237.0284,-18.4023,1.2245,-40.6984,-9.4591,-108.8035,94.6794,-25.3044,-15.0734,24.6990,41.2845
-3429.6875,37.3399,-48.4525,0.2774,-20.5789,59.7011,-37.5481,32.1000,16.3209,71.8080,127.6192,-15.7131,2.9677,-112.0596,-118.0609,-71.4484,-14.2445,43.3523,18.9636,58.1542,-30.4985
-3421.8750,-5.0394,-90.9453,-47.4819,41.9577,-24.0044,-48.1483,-15.1694,6.0454,99.0826,116.5705,-25.6612,66.0556,-84.0809,-54.3328,-44.7562,12.1691,36.3665,-58.6437,86.9514,33.0647
-3414.0625,61.6204,-95.3801,-11.1974,71.5475,12.3371,-11.7129,-15.3954,41.8272,-12.5887,115.6098,47.4539,-45.8107,-11.0658,-17.5624,-82.0224,47.6440,31.4353,-98.2095,12.7912,-41.3213
-3406.2500,-8.7630,-60.8544,23.0461,35.0895,-27.3629,22.6579,19.3292,-33.4342,94.6977,39.6333,-27.4720,-11.7431,-50.1108,-56.8617,26.6490,-27.9314,30.4536,-27.8236,47.5730,-6.7722
-3398.4375,-96.7058,28.1230,-33.2610,52.0866,-46.6141,77.4666,0.5025,-15.2404,39.4478,93.1352,-8.9451,5.7723,-104.7258,-1.7246,7.7638,63.9414,12.9279,-80.9833,-4.1969,11.2297
-3390.6250,-11.3028,7.4572,21.7754,30.4441,8.4899,94.6117,55.0347,-70.6857,56.5443,-35.9745,8.9441,-13.3777,-87.0051,-57.2491,-10.7834,-28.8241,26.7519,4.1945,45.3794,-44.4251
-3382.8125,-112.0521,-59.3575,-15.3312,-2.3468,-28.5525,58.5954,19.4200,-70.2756,130.5090,0.7829,-63.3101,60.3131,-85.4505,-19.9445,26.5174,8.2552,-5.5648,43.2302,84.8005,29.7620
-3375.0000,-31.2177,-12.5703,-35.8416,43.4650,-12.0021,37.1728,35.3897,-16.2554,36.0888,90.1776,-45.9574,-34.4004,-69.3078,-3.0446,6.4092,60.9498,-29.2754,18.8600,25.8099,-64.4506
-3367.1875,-2.6729,15.9230,30.3612,70.9804,17.2622,67.4383,66.0688,-59.5273,66.3661,-26.6965,-88.8886,31.5603,-112.4791,-46.4630,-37.0138,-92.6540,33.7213,118.1849,19.5051,-70.9764
-3359.3750,-41.9282,81.6117,24.7695,100.6965,11.7288,24.8880,23.9495,-65.5993,-13.1437,3.6487,-94.6118,25.7225,-81.4609,21.2964,-43.2480,-25.0602,63.9295,7.7167,15.3942,-40.3000
-3351.5625,65.6644,119.1547,103.0275,102.2764,127.0542,-43.8254,65.6721,-133.8194,-8.8038,-102.1231,-52.4672,-43.2768,-38.6010,-84.0988,-1.6487,-93.6084,100.9898,45.0923,-17.8821,-108.7767
-3343.7500,-9.9385,78.5082,94.0961,60.6617,44.1877,-52.7450,21.1976,-142.2423,93.3426,-111.0786,-59.5136,57.5156,-46.9542,-18.7109,-9.2591,-102.3690,94.8547,74.2792,-22.3711,-43.4611
-3335.9375,47.3963,101.8169,46.1152,47.0013,33.2616,-26.7186,9.6619,-41.7088,-27.5607,24.9416,3.3964,-26.7364,-20.3769,43.6199,-56.9196,70.8291,11.6727,-43.5850,-104.9171,-91.1897
-3328.1250,85.3342,-2.2693,84.7400,-57.0508,71.9464,-25.1024,48.7278,-39.5678,-25.8702,-46.4117,-31.0786,10.5953,-18.2140,8.5369,18.0097,-1.3704,48.0941,28.1501,-67.8729,-89.3266
-3320.3125,-5.3336,-56.9553,24.7688,-42.6917,48.0332,24.9024,-10.8103,-26.0288,-86.7645,-33.3481,-16.1520,24.3289,32.3366,132.8349,68.3273,48.8232,27.9249,-26.6981,-88.4323,-39.0655
-3312.5000,50.6863,-71.9254,86.4910,-23.6202,146.8194,49.6051,51.3451,-37.7827,-134.9576,-81.5510,9.4770,-25.2417,20.5723,121.8346,20.3229,37.7306,12.4587,29.1494,-137.3053,-124.1087
-3304.6875,-44.9891,-132.5887,57.5209,-49.2377,118.9153,131.6011,22.8002,-28.2313,-15.8471,-110.4377,-91.5895,56.4748,29.0837,93.1196,28.6105,8.9350,-12.6986,109.3022,-91.8784,-78.8654
-3296.8750,-114.7263,-96.3117,-14.4977,-14.9027,120.9613,169.5385,-11.8009,84.2698,-87.7774,38.6511,-15.7000,-15.8580,31.5266,168.3418,-79.1539,122.0925,-47.8910,3.4015,-126.4954,-113.6680
-3289.0625,-71.5056,-53.0788,69.4409,-7.6028,129.9671,179.4194,35.5472,57.7217,-41.7622,-25.2794,-41.8454,30.7429,-68.0900,105.5032,-68.9879,21.2045,-40.1286,47.4408,-118.1770,-140.5302
-3281.2500,-121.4381,3.0061,-23.7635,82.5510,0.8286,160.1439,-20.2598,75.0241,-60.8942,-44.3374,-97.1340,84.1927,-50.8661,122.4996,-14.9838,75.1633,-19.5112,32.3390,-133.0158,-49.5443
-3273.4375,-23.2315,-4.7573,8.1770,74.8548,106.8416,82.0120,12.0740,71.4881,-101.8740,24.7958,-27.2667,-67.2122,18.4980,7.6426,54.1580,34.2919,-27.7430,-10.6230,-104.7194,-127.4068
-3265.6250,-31.4141,-82.9234,-3.2721,-5.2342,94.4680,-3.5338,37.0139,22.5559,32.7523,12.5506,-74.7897,-6.0292,7.4483,-114.6370,152.8952,-13.9790,-36.3707,51.0155,27.1620,-65.6788
-3257.8125,-81.2605,-62.7488,-58.3716,-19.9721,40.4392,-58.7386,57.2991,42.9744,15.7548,142.6774,-54.9645,-61.4918,-10.2683,-58.5805,97.9870,115.0978,-86.6431,-32.9904,83.3945,-9.5942
-3250.0000,12.2310,-39.2204,-34.1269,-104.3493,63.7656,-71.6032,117.9398,30.7536,113.1092,93.1862,43.2190,-111.6201,-22.6491,-144.1775,85.4166,29.5402,-134.5693,24.3502,70.9696,-22.1654
-3242.1875,141.8670,-50.5429,-120.7271,-150.5775,-60.7454,-85.3243,-6.2643,53.6850,99.6227,152.8643,324.5481,-88.6030,-72.8949,-84.6477,34.9875,52.1244,-180.3391,13.8590,-10.2986,37.4069
-3234.3750,365.0417,-38.3146,-140.7863,-104.2475,-41.7040,-30.5038,-60.9236,72.1701,-29.3112,208.1245,638.4273,-291.0345,-17.6041,-66.5779,-19.8987,107.2716,-274.5543,-10.0842,-174.0227,-91.4679
-3226.5625,432.7725,-111.5334,-33.2897,-108.3528,-9.1030,1.8616,-101.0350,69.2080,-32.6934,94.9502,745.8637,-368.9307,15.2265,-143.9726,12.7652,-7.0269,-242.2124,92.5154,-212.2113,-94.8019
-3218.7500,463.7390,-45.5045,-113.5395,-43.1984,-51.2562,-3.5220,-143.9045,100.4962,-149.8104,163.0346,851.5465,-411.5699,46.2869,-113.1220,-66.3186,60.9231,-211.6113,17.3713,-286.1583,-63.8817
-3210.9375,593.8476,14.6744,-10.6404,51.1184,-22.2566,-11.7550,-113.6214,56.9377,-230.7826,45.2996,918.3903,-420.0641,76.4842,-157.1187,-110.2701,-56.9676,-188.8595,42.3675,-331.9683,-144.8156
-3203.1250,449.7607,-24.3493,-16.9293,46.2343,-102.4448,17.8146,-157.5381,87.1720,-126.9429,1.3769,765.0306,-279.7575,32.4661,-90.3303,-43.4261,-26.0629,-192.3056,38.1700,-299.9826,-77.9558
-3195.3125,351.1581,-16.8770,-44.7315,53.8516,-93.1306,63.8813,-147.9604,133.9125,-154.5896,121.9834,665.1647,-307.9438,4.9304,-44.0431,-34.0845,56.3584,-185.2550,-24.5336,-292.5022,-105.5888
-3187.5000,252.3077,-10.6526,-2.7858,59.2307,-87.0563,69.6912,-141.6270,66.4129,-111.4845,54.3646,524.0537,-229.3922,-61.8690,-75.0147,-28.0070,-11.4614,-38.4585,87.5058,-216.2778,-99.4799
-3179.6875,167.3445,10.4668,-19.9346,114.5182,-105.0759,51.3945,-194.3959,85.8148,-201.4741,147.6619,470.8353,-137.9332,-42.7824,17.9010,-120.0358,44.6158,-17.7548,2.4532,-230.1515,-43.4678
-3171.8750,238.2684,10.4882,19.8141,148.7104,-28.1934,17.9951,-155.2710,127.1219,-235.5664,150.8826,438.5201,-208.5779,-75.8058,-16.2842,-226.1670,11.6133,-18.1480,38.2899,-124.1344,-113.5561
-3164.0625,120.3482,-36.3418,-32.2769,101.0580,-80.1502,38.7407,-169.9936,111.5773,-30.5027,99.2613,276.3591,-151.0788,-164.6918,5.6655,-132.1532,-40.2451,4.6127,96.2849,39.0281,-55.5016
-3156.2500,57.2690,6.6765,-59.5204,108.2680,-70.2586,48.3302,-123.8766,121.8718,-94.5804,72.5159,250.0469,-178.7211,-155.7416,51.4571,-85.2991,5.7514,12.2306,69.1342,47.0357,-82.5895
-3148.4375,80.7879,29.2967,37.8420,95.0945,-9.7487,-1.4893,-25.1538,35.7635,-70.0606,-49.6073,201.3374,-154.7732,-131.2043,-34.1625,-60.8580,-79.6430,-0.5518,126.5805,105.6349,-95.0848
-3140.6250,-37.2509,18.3588,-15.3423,47.3741,-99.7848,-17.8626,-41.9818,57.1032,-50.0649,44.7266,149.0699,-61.3678,-110.2326,-51.3497,-40.9628,14.4076,-11.8866,79.4900,128.6850,-1.1282
-3132.8125,58.2964,8.0180,49.0624,36.2585,-34.2231,-63.6377,23.7831,48.0539,-58.4652,35.6878,178.4029,-144.3570,-82.6788,-59.9373,-49.4735,42.0777,-22.6262,33.9923,48.3302,-46.5643
-3125.0000,20.6046,5.4303,80.2168,-2.0998,-40.9069,-70.6617,-19.7025,42.7568,8.8798,-80.5826,62.4852,-40.5990,-88.3859,-102.7875,-19.2448,-37.5027,44.3891,101.2470,115.7193,20.7445
-3117.1875,-35.5578,20.3865,-14.0776,82.0974,-61.0425,-54.1326,-2.6486,96.0133,-48.2170,83.7121,43.1060,-98.2762,-72.5562,23.9130,-112.4711,53.4677,-11.0387,46.0599,60.6510,0.6115
-3109.3750,-22.9292,-72.8592,-35.5696,94.1084,-8.3672,-1.7987,49.1997,112.0744,4.4800,99.8306,-14.4761,-120.1601,-93.9381,2.4161,-60.9047,-4.7480,-34.6661,128.6668,37.3685,-57.7274
-3101.5625,-164.2595,-108.0605,-114.0012,57.1799,-87.6306,-8.4097,-29.9076,143.1862,109.2324,167.9989,-93.0155,-15.9927,-98.2814,-4.0435,6.7083,100.0807,-1.2358,92.3365,1.1331,46.9819
-3093.7500,-71.3520,-86.0131,-52.1878,79.5162,12.3595,-55.7727,-2.7704,133.5449,62.2361,121.4320,7.6878,-136.5654,-36.3897,-14.2574,-3.4354,126.1734,-48.5506,45.2512,-80.8541,-0.0525
-3085.9375,-55.9312,-104.4640,-1.8676,24.3631,-11.1309,-42.6373,-26.1270,74.3962,148.7374,25.3638,-15.1091,-50.6432,-23.0087,-37.9832,120.9145,66.7607,-102.3613,95.6713,-135.3475,50.4041
-3078.1250,-146.0728,-54.4742,-98.0949,2.6712,-70.1680,-29.0501,-12.0356,124.6895,88.7050,112.7468,-1.4688,-1.2530,-9.1927,48.7329,133.7115,189.7921,-158.7136,4.5471,-225.3891,100.3166
-3070.3125,-67.2249,-81.4842,-50.3248,11.9963,-22.1991,-17.4581,37.0487,100.9848,101.6683,89.1600,-24.8312,-25.8648,2.6152,-12.5485,72.4966,128.8355,-80.0667,49.4084,-251.4377,39.2263
-3062.5000,-138.5794,-117.7009,-53.7413,-25.8718,-26.4276,-22.0602,-4.0698,96.0785,96.4351,121.3803,-101.4001,42.3300,-1.7922,18.9619,-5.9215,161.6760,-11.6162,47.0744,-182.6889,107.9337
-3054.6875,-50.9506,-29.9237,-34.1673,-8.7325,31.3428,35.3362,-20.1988,81.1747,-65.8020,106.6189,-6.9798,-10.4639,55.7895,77.4724,-94.3386,182.5332,5.8387,-75.2618,-234.9379,55.6509
-3046.8750,-27.1142,-40.9471,26.6114,-89.3875,18.3263,58.9301,-32.1239,31.4681,31.1593,-16.9376,-55.3561,49.9410,5.5672,27.1744,1.4327,59.5943,29.4924,18.6018,-175.9939,79.5613
-3039.0625,-112.9280,-91.6327,-63.2561,-70.6948,-35.3358,114.8705,-48.7039,51.0995,50.4872,39.8588,-145.3922,68.7095,-47.3177,120.2170,94.5569,116.0003,13.5019,-66.1739,-86.6958,98.8293
-3031.2500,-89.0520,-102.6221,1.5697,-12.2919,30.7036,143.5129,53.4122,44.4315,80.5136,-40.6216,-115.7293,-49.8222,-56.5136,111.9596,50.3740,35.1219,3.2111,-43.2566,-62.7035,17.8026
-3023.4375,-133.3269,-146.7672,23.2528,-23.0233,-20.3956,92.0096,2.3767,-6.3877,139.3904,-53.2547,-19.2274,45.4983,3.1318,60.5389,35.0401,-15.9123,-7.2283,-17.4832,-71.8577,113.6256
-3015.6250,-32.9204,-117.2173,-54.3722,-29.0455,-25.7985,12.2112,-2.9719,24.4919,59.9678,50.8207,122.9594,-33.4626,33.4653,54.8211,-6.5942,88.7676,-82.9617,-93.0101,-77.3107,108.1605
-3007.8125,-11.0633,-164.2217,-66.5421,-41.6114,-37.7423,36.8696,21.1294,12.8218,121.9931,2.3558,0.5863,-45.9763,-14.7653,5.5544,54.2150,39.9053,-25.2457,-0.0867,15.6846,96.1395
-3000.0000,-183.3690,-126.3825,-102.8634,-4.3229,-35.8294,37.3863,-12.9218,14.9914,85.8832,40.7355,-69.9538,-8.6217,-13.1584,43.1324,18.8810,77.8826,47.3289,-31.3001,88.5300,133.9717
-2992.1875,-58.1818,-71.0405,32.3081,16.4827,62.5877,-47.5944,48.5220,3.6598,1.2663,-6.3777,28.9983,-93.7545,10.9378,-4.7888,7.0440,30.3704,68.4063,-82.0245,3.8699,49.3090
-2984.3750,-39.5382,-87.2506,83.9443,33.7504,4.4698,-105.1275,-8.5822,-90.2280,53.0949,-137.0432,44.3951,67.5669,62.4806,-25.2718,58.6531,-100.6940,121.9315,-63.3003,-11.3431,138.0924
-2976.5625,32.3848,19.8323,48.8822,70.3221,6.6536,-140.3605,-43.3979,-124.8201,-53.7671,-170.4017,121.0767,32.2109,101.3186,48.5476,24.5607,-24.4547,87.7609,-131.2784,-45.2561,140.1861
-2968.7500,87.9054,39.5118,72.4182,19.5085,29.4429,-153.9931,15.3828,-174.8125,4.9648,-220.1497,108.3549,18.4544,87.7562,-38.0339,47.0633,-74.5960,73.1944,-41.6704,9.4194,89.8787
-2960.9375,-21.9784,35.7892,28.5575,-18.6924,-50.1649,-88.0237,-27.2389,-144.2158,-0.6890,-117.3060,64.2189,121.3148,79.7798,-8.0263,40.1702,-8.1475,33.2374,-150.4564,75.6962,156.1754
-2953.1250,134.8713,16.8139,47.4374,-4.1276,41.9752,-105.3034,27.8822,-124.8774,-91.5950,-133.6991,121.8173,29.9415,99.5382,-26.2613,22.0346,-25.9412,-20.9648,-204.4945,92.7237,102.2291
-2945.3125,125.3199,-26.5634,71.9245,-82.9465,30.7297,-80.9808,53.6049,-172.9504,7.0979,-218.4937,73.0050,91.1742,86.8909,-74.9028,83.4923,-111.1414,-29.5651,-107.9230,118.3525,163.8755
-2937.5000,77.0532,65.3502,22.7150,-61.4595,-18.2211,-94.3481,4.6213,-112.7310,30.1010,-83.9945,60.4698,77.7290,37.5342,21.7572,34.2471,-13.0408,-42.8591,-191.0450,35.2910,150.8302
-2929.6875,161.2839,114.7639,40.9994,-13.4575,-0.6674,-76.2030,22.1296,-167.0098,48.5930,-137.9885,80.4250,59.7847,18.6744,-34.0750,15.4935,-104.4256,5.3510,-106.6775,13.7223,59.2836
-2921.8750,99.6644,123.3264,10.4377,65.7044,-65.9609,-68.9006,-80.2140,-196.1461,92.2376,-130.8434,13.5151,140.0057,-47.0515,-26.7662,58.8996,-97.6670,48.7178,-99.1531,57.3063,102.8879
-2914.0625,105.2775,129.1427,22.1152,142.1311,-19.0126,-59.3400,-33.3166,-148.0317,-43.8686,-46.4397,-11.1634,40.4930,-74.5384,20.8001,-3.4414,-50.6448,20.3387,-58.3893,64.1368,3.7519
-2906.2500,38.5967,62.6532,25.4994,74.2705,-15.3592,17.9234,7.2776,-144.2180,70.7188,-42.3372,-81.1510,79.6834,-107.3303,-49.9313,-0.0889,-155.9147,23.6578,51.0724,137.6652,7.3121
-2898.4375,-22.5462,72.6967,-76.5602,48.9615,-44.1554,25.7387,-57.5821,-26.8642,-32.1318,77.3085,-71.6062,88.4458,-98.5736,31.8851,-29.1779,-38.6393,-37.4676,-9.9143,147.7491,52.4333
-2890.6250,69.6513,59.0869,-15.2684,70.0140,-18.5945,13.9055,-33.0964,-1.1671,-6.6367,29.3042,-83.7147,2.5683,-75.4647,-53.9434,-3.9207,-87.0037,-51.2421,47.4385,134.1766,3.9071
-2882.8125,-68.6437,24.9796,-53.4686,0.5801,-92.5200,11.5685,-34.1089,-2.9860,102.3643,64.7859,-157.3393,111.2034,-112.8582,-55.2794,30.8394,-50.8829,20.4901,49.2977,136.0997,75.8783
