Time,Fp1,Fp2,F3,F4,C3,C4,P3,P4,O1,O2,F7,F8,T7,T8,P7,P8,Fz,Cz,Pz,ref
-4000.0000,76.1337,49.6274,82.3027,9.6021,4.6583,59.0708,-18.2407,-23.9492,-81.6683,-72.5261,-28.7367,2.7367,-12.4958,-14.9158,-40.0384,-20.2229,73.3569,63.5080,-55.4563,-32.4755
-3992.1875,-142.8756,111.0441,-190.5596,-140.0459,-195.9444,5.6559,-109.3159,68.2573,9.3710,129.5844,-45.9180,168.8012,-117.1712,40.3376,-58.3408,64.9183,28.4046,-16.5941,36.8773,96.1983
-3984.3750,176.7302,291.0739,-34.8036,-33.0640,32.0843,-22.1484,81.2156,150.0797,-203.0417,99.2966,219.5457,214.4780,124.0754,-61.8172,205.9915,-10.4631,-390.0012,-505.1829,-103.1977,-43.5407
-3976.5625,5.1358,117.8903,-183.2403,-206.3034,-301.0929,-171.1725,-33.4488,-75.3157,306.3766,20.7930,-77.1990,101.9172,-156.4744,44.8210,-55.9018,-22.9318,140.4440,271.1092,-32.4687,62.5089
-3968.7500,34.7278,287.8947,-154.4993,67.6638,-164.0774,-32.9953,-43.9217,62.5044,-146.0019,83.4996,97.2654,349.5587,34.5441,34.6661,228.4244,-4.0886,-322.9391,-368.4188,-111.5396,88.7651
-3960.9375,147.2378,294.7888,-68.8375,73.5445,-80.1292,-20.9121,40.5371,-0.7662,-63.4909,-53.8935,-112.3565,178.0796,-49.4137,-64.6040,54.6680,-49.7995,34.5479,23.9246,-143.7177,-48.1056
-3953.1250,-18.6755,338.2572,-284.5946,46.0128,-371.6181,-54.2350,-177.4146,-35.4472,121.6800,-52.6778,-145.4040,438.1827,-225.2253,10.7259,-126.5291,-40.2012,183.6874,207.9515,-67.2902,63.6277
-3945.3125,442.2841,869.5847,-16.4944,224.3588,-179.2403,-43.7030,-132.5073,-26.2614,-385.3393,-228.5990,268.4496,779.1479,-4.0302,-54.1022,-8.8395,-186.8784,-306.3832,-457.2600,-243.0186,-111.7963
-3937.5000,484.2101,1121.8351,-46.4352,52.6390,-430.9126,-332.2378,-275.6464,-351.1339,-87.3959,-481.5854,53.2522,932.0302,-305.6272,-48.9784,-445.2110,-338.0069,297.5372,321.5395,-275.7929,-144.2793
-3929.6875,700.0565,1689.0026,-75.4458,337.8754,-388.6512,-287.8133,-415.8594,-347.0418,-450.4977,-477.6063,354.0105,1342.8628,-162.0651,-153.8915,-256.6283,-449.8340,-85.5958,-307.7089,-484.6049,-212.7984
-3921.8750,1370.6735,1724.9117,84.3053,478.8780,-303.6046,-238.6207,-406.2986,-372.1840,-624.8665,-687.8674,586.5444,1171.4274,-79.5714,-400.0715,-393.2823,-603.8167,90.9754,-167.2587,-628.6731,-496.5908
-3914.0625,1600.2079,1637.7347,-82.0176,459.8141,-619.6347,-184.4876,-720.7906,-393.3835,-463.2196,-710.1837,676.9996,966.9104,-232.2626,-310.2953,-635.0272,-571.5947,354.5513,273.2320,-647.7812,-481.4294
-3906.2500,1558.7777,1454.6012,284.7115,734.8233,-217.5952,33.7049,-578.2277,-139.5174,-945.5498,-642.4316,1188.5327,816.4540,207.9246,-314.4669,-308.6778,-495.5856,-250.8839,-403.3047,-798.8403,-596.2180
-3898.4375,1486.1057,1346.2003,317.2039,554.5789,-406.7931,-154.3627,-547.9053,-365.9085,-475.1177,-757.9299,962.8057,333.7148,2.8461,-282.8938,-608.5837,-531.1522,273.4536,402.9412,-735.1464,-602.2715
-3890.6250,1492.3004,1386.6740,60.5654,735.2341,-555.1147,-80.5344,-622.7056,-256.3886,-476.7620,-613.5132,1036.9738,259.8680,53.4635,-210.4037,-352.5918,-466.9870,-2.2937,21.1086,-696.5380,-493.4099
-3882.8125,1309.2164,1202.8400,241.6471,761.6075,-339.6996,25.9992,-406.7757,-151.1480,-556.7347,-620.3911,1141.8815,-2.2928,234.9090,-289.2178,-247.8690,-439.7977,-10.4005,-58.0994,-637.2361,-609.8618
-3875.0000,1345.9778,1238.8107,90.5532,444.7944,-528.4588,-51.6383,-669.9911,-156.0701,-452.7908,-626.4036,843.6136,-117.6406,-61.2112,-221.1852,-585.3373,-375.0092,412.3960,541.6282,-533.0661,-505.4567
-3867.1875,1247.7252,1139.7638,356.4422,626.9942,-44.2173,65.7275,-554.2118,107.0278,-999.8591,-511.3831,997.3719,73.0262,219.3706,-215.1501,-321.7638,-274.8748,-144.8643,-261.7090,-564.8979,-537.0422
-3859.3750,1140.1045,1066.3342,427.9941,411.8513,-158.3059,-120.2619,-447.7602,-190.2241,-526.2703,-552.7140,589.7861,-40.6902,-51.1095,-181.4707,-620.5251,-313.9649,344.5253,368.6139,-466.0753,-577.9918
-3851.5625,1258.1687,1183.6080,174.2628,458.4528,-449.6740,-190.5020,-591.5782,-335.7209,-377.8840,-441.2755,518.9334,293.3262,-113.2227,-143.0266,-360.5471,-372.1802,251.6966,98.7404,-456.4841,-392.1731
-3843.7500,1126.7374,1051.3688,333.0459,536.5713,-182.5036,-179.2289,-362.8782,-288.6906,-480.0286,-322.3184,676.6122,303.8347,156.1586,-280.0848,-21.0267,-392.4459,13.2998,-245.7204,-485.3954,-456.8647
-3835.9375,1177.7930,1101.5836,13.3231,198.1644,-429.8456,-388.4712,-500.6683,-316.1730,-29.6152,-239.8549,281.7668,129.7950,-219.4216,-233.6383,-379.0461,-332.4509,379.4559,403.4048,-297.7907,-374.0593
-3828.1250,1103.9229,1062.8699,46.6799,369.8715,-104.0825,-172.6156,-358.3581,46.4611,-478.1034,-135.2590,351.0411,382.8548,-22.8210,-129.0812,-90.9451,-180.4525,-257.3258,-480.4154,-269.0744,-380.1433
-3820.3125,884.2098,912.2797,151.2031,148.7354,-38.1348,-141.6102,-145.8639,-34.7475,-192.4444,-254.5167,-97.5243,191.0309,-210.9004,-99.3844,-319.6749,-154.0294,120.0270,-32.1011,-139.2024,-462.0912
-3812.5000,350.4531,870.6467,-124.3070,-34.4211,-204.2166,-160.6117,-166.3880,-127.9592,81.2724,-17.7686,-410.1176,319.1858,-348.2426,-8.6849,-192.4148,-77.8555,183.4230,-39.7140,-8.3104,-225.0201
-3804.6875,273.7452,511.0412,15.2377,-7.5050,227.7840,-94.5549,156.1505,-100.1005,-75.9922,82.0474,-161.6232,347.3962,-17.8659,-91.9368,128.9400,-96.3590,-246.2012,-609.3657,-53.3674,-234.9031
-3796.8750,-238.8764,102.4888,-199.1213,-238.5081,-61.1179,-235.4096,86.7982,-169.1529,516.8898,122.9659,-413.0422,205.6649,-258.3047,22.9178,-124.6421,-14.8449,226.3112,108.1528,134.6953,-46.6901
-3789.0625,-539.7945,-163.3518,-226.7606,-49.7602,55.7171,-80.5174,56.1903,168.5660,338.5392,312.6734,-258.7084,359.6812,-23.2289,140.5377,323.5441,148.8168,-322.4509,-615.6105,146.5302,106.2934
-3781.2500,-475.9270,-487.4319,-122.5870,-162.2118,194.3909,-87.8235,268.4215,160.1073,401.9880,266.2065,-524.5516,19.4533,-65.6887,94.9472,240.5624,181.0901,-48.4572,-235.6218,243.1768,97.0682
-3773.4375,-695.0092,-778.4532,-290.3410,-242.5826,-46.8678,-108.0449,136.7403,102.7469,452.5939,463.8526,-619.3085,-74.7170,-216.4763,183.4643,71.6610,293.8940,223.6845,107.5487,371.9353,331.9602
-3765.6250,-443.7814,-598.1592,-24.8061,-61.6235,253.1893,10.0470,215.3641,144.7096,-19.5303,469.8217,-133.7194,-141.5975,136.6446,80.2793,334.1079,223.1211,-297.9516,-557.0694,268.9881,264.1485
-3757.8125,-694.3408,-779.6952,-70.0819,-314.4828,22.4477,-146.6704,95.2017,-85.1307,593.5941,311.0073,-326.9297,-446.3501,-67.8083,143.2850,66.7501,170.6123,258.6268,281.5645,401.2507,326.5259
-3750.0000,-1007.6488,-987.9965,-145.0954,-136.0553,129.9847,-75.0928,92.3308,96.3463,516.0649,527.5380,-218.8355,-227.8243,98.2811,213.5979,393.7081,279.0706,-195.5079,-277.4951,437.8371,433.2288
-3742.1875,-1025.5699,-1253.9392,59.2994,-155.2238,332.9663,-91.1124,367.8983,188.2485,423.9283,546.4872,-346.3173,-466.9243,131.5374,195.3024,339.1057,356.2679,-144.2986,-156.2173,486.8390,341.3264
-3734.3750,-1338.0059,-1567.3949,-200.7850,-292.8737,72.4787,-93.5934,291.0216,221.6968,714.4103,651.9955,-570.2861,-617.5066,-73.9583,265.5738,152.0211,470.2849,176.5072,339.6951,629.4282,483.9902
-3726.5625,-1104.4415,-1439.8477,-98.8359,-130.4560,429.0700,117.9891,500.2101,431.2199,297.9278,567.5843,-138.1902,-628.0346,315.9982,181.9099,545.0300,418.6134,-505.7010,-447.4240,508.0842,362.7144
-3718.7500,-1138.6940,-1510.1594,-206.6829,-447.8536,392.8842,119.7629,573.6274,247.9383,739.6708,309.3854,-431.9022,-848.4079,115.8809,145.4467,250.2370,324.5515,-83.6954,326.6793,575.9580,325.6351
-3710.9375,-1323.4666,-1519.9816,-443.0093,-421.7211,376.2348,251.0723,519.5910,269.2156,685.0118,401.7753,-448.0859,-607.2472,171.0236,238.5444,527.0026,354.8611,-374.1294,-68.6414,635.4073,455.1360
-3703.1250,-1157.0670,-1495.6469,-226.1299,-362.3801,628.8306,282.5868,661.7943,299.7179,457.5430,395.4008,-416.0448,-722.9023,272.6806,231.8457,558.0242,371.7748,-419.4365,-219.8492,587.0669,301.8367
-3695.3125,-1497.4791,-1731.1469,-257.0264,-456.8178,302.6633,179.3403,482.2565,232.4678,682.4002,437.2926,-630.7876,-902.3547,24.8142,347.4160,233.2742,473.9401,154.5520,494.2730,667.0098,416.8029
-3687.5000,-1383.4855,-1618.2524,-24.5031,-97.8009,606.9564,336.5487,566.1780,424.7007,177.7181,409.6669,-179.0723,-782.3539,368.3813,246.4481,462.0151,450.3187,-401.0711,-200.2230,532.4257,352.2391
-3679.6875,-1193.1525,-1606.0299,103.3649,-260.4473,513.6277,244.0982,508.4843,221.2917,487.4069,204.3987,-272.0125,-1060.0404,203.3915,116.8209,75.1067,327.7042,70.6423,551.6260,579.2159,258.0205
-3671.8750,-1096.0842,-1475.0455,-169.0069,-235.3202,204.0699,192.4278,270.5841,205.6757,505.9487,333.9741,-215.1736,-782.9440,122.9406,174.0045,167.9919,328.6348,-44.8218,366.3206,637.8371,387.6332
-3664.0625,-693.5880,-1284.6659,-73.9259,-150.7336,369.9991,138.2108,364.1627,261.5421,267.9245,353.0518,-157.8551,-652.4066,234.4078,119.6418,370.3912,288.9728,-311.9149,-40.6317,580.9201,259.7008
-3656.2500,-1072.7900,-1383.0352,-218.5154,-354.8358,115.2731,-41.6723,219.1088,153.7601,747.3276,428.5171,-523.2231,-798.5706,-77.2103,195.6368,42.1317,364.3907,293.3816,740.8362,692.3845,371.1316
-3648.4375,-1109.2612,-1350.6616,-73.3434,-181.1416,406.3513,103.2458,251.8591,407.8089,301.5604,534.8302,-194.7992,-690.9340,244.6830,118.4454,405.7041,402.1736,-270.5688,-34.9422,547.6716,367.3894
-3640.6250,-1022.9667,-1405.5287,59.6360,-341.6490,390.2687,51.9609,383.4524,281.6688,469.6108,481.9638,-283.5766,-964.5314,176.7934,29.0520,242.0930,351.8864,-8.7462,368.0456,490.7803,240.4432
-3632.8125,-1119.0895,-1362.8104,-305.7654,-333.5324,97.8104,17.3079,273.6932,246.1751,690.3771,702.7769,-355.7361,-706.5084,9.6333,103.3229,207.1061,405.9188,-35.2352,305.7520,533.5743,388.1752
-3625.0000,-796.3376,-1111.2267,-256.2682,-151.5110,329.2904,102.5664,542.8613,330.6114,481.0104,750.5222,-195.9597,-584.5929,183.1668,78.4952,438.0777,385.4228,-556.9072,-390.7426,432.2830,251.8148
-3617.1875,-1032.6718,-1277.7631,-359.8407,-458.5708,78.7255,72.7564,438.0002,262.9937,853.6432,645.2312,-521.2504,-763.7763,-100.5857,193.6240,113.0050,437.0020,-18.6076,322.7718,545.9653,330.4135
-3609.3750,-1042.2122,-1113.5029,-299.6094,-433.7883,247.9973,242.7904,349.9882,469.2387,434.1697,703.8247,-167.7001,-558.1030,146.2074,216.6223,391.8244,473.0634,-522.4897,-319.8951,428.5160,388.8962
-3601.5625,-586.0778,-939.5833,-73.6749,-506.2969,325.0056,136.5217,353.7170,290.1918,363.4119,487.1488,-15.4481,-664.7500,173.8720,36.3163,211.3817,291.8201,-276.7172,-39.9222,284.7721,245.0815
-3593.7500,-614.4814,-828.1900,-221.2254,-394.2818,-5.4570,-46.2188,95.9991,69.6918,546.2751,412.0577,-126.6868,-408.8781,-20.2986,72.5762,64.4658,206.7737,46.6507,213.6760,254.6155,390.8474
-3585.9375,-373.9394,-659.8316,33.2059,-84.2631,210.1111,-11.9564,201.2976,102.2331,138.1298,334.0112,54.1005,-191.9967,217.8323,67.8459,389.5978,142.7109,-418.0648,-531.8244,142.4784,312.6307
-3578.1250,-523.2300,-810.3195,-50.1734,-304.0745,-57.1089,-133.5105,190.8284,-56.0229,530.2497,248.1669,-214.9325,-387.9590,-18.0483,93.3178,121.9279,131.0580,136.4280,267.9054,236.5721,337.6200
-3570.3125,-550.7880,-663.0724,-154.8040,-262.1060,21.4538,-17.2676,85.1586,95.5336,276.2296,400.1498,84.8193,-237.1320,183.0680,61.6099,420.0851,154.0412,-278.2935,-216.5683,172.4999,378.4446
-3562.5000,-294.2638,-477.7742,48.6673,-182.0339,260.1567,3.0753,177.6304,77.2056,111.3031,235.2708,103.6901,-402.2275,222.7846,-104.0019,254.3965,68.4612,-161.9802,-65.0226,75.5415,176.3697
-3554.6875,-535.3975,-545.1462,-96.4945,-71.5909,4.2378,3.8028,-78.4948,5.2699,258.8517,124.8303,-189.0750,-254.9605,-57.9196,43.7979,-74.9194,118.9641,263.7802,466.9990,114.0198,249.7145
-3546.8750,-287.4850,-368.4577,92.4196,209.9610,266.4408,119.6433,35.4920,157.4662,-250.5046,129.5219,73.2758,-29.5864,200.9512,47.7149,222.9085,115.7109,-332.4224,-374.9581,43.6179,144.1770
-3539.0625,-255.3612,-442.5764,17.5878,-179.2575,80.9250,-64.2752,180.7653,7.9151,224.4198,127.4694,-148.1342,-290.0001,-8.1108,45.8887,-0.0111,94.5488,15.6252,255.3486,110.4934,104.8888
-3531.2500,-426.9242,-404.3516,-163.8757,-211.0962,8.7967,10.1921,181.4355,192.7690,260.7936,200.8526,35.8284,-180.0248,117.4310,82.4763,294.4705,131.1156,-366.9150,-161.9191,77.8009,178.0344
-3523.4375,-191.0527,-310.7134,54.1087,-116.4705,336.1589,80.1095,325.5938,263.0959,37.6069,50.7163,106.2661,-293.6072,275.4070,-30.4891,365.4525,72.1884,-447.0771,-347.8365,-38.4271,-9.3646
-3515.6250,-359.7741,-409.6961,-126.4883,-319.4376,43.9588,9.4551,70.2108,118.8702,222.9506,89.0504,-221.8856,-218.7842,-47.9904,82.0016,35.8707,129.7024,123.2558,292.7612,37.8341,102.7052
-3507.8125,-160.5133,-247.6877,-65.0620,-156.3598,251.8245,144.8530,130.8876,215.7197,-194.6441,149.4826,-13.9876,171.0925,145.3514,142.5574,317.3878,138.2598,-452.4185,-528.6620,-10.8293,88.8527
-3500.0000,-66.8857,-260.3286,-76.2366,-273.9040,56.1205,22.6365,155.0076,19.9740,124.1828,-10.6652,-172.6873,47.3415,-69.3878,166.5155,-26.6700,76.2574,-6.7156,58.2931,47.9309,76.4038
-3492.1875,-272.0286,-8.7224,-224.1565,-91.1782,-127.3134,-13.3006,-28.5733,-16.4808,50.3762,63.5204,-26.1062,192.8809,-50.3946,165.7897,47.5680,57.1616,-69.6946,-75.4109,18.0254,222.2916
-3484.3750,30.4938,256.5490,101.6172,140.2572,196.9885,54.4652,38.5796,13.7941,-360.7297,-17.5646,261.1905,39.1197,215.9872,-61.2314,187.5602,-52.8181,-294.0567,-405.5161,-136.1542,31.8896
-3476.5625,-41.2908,8.4988,61.1226,-2.5888,-63.9627,-23.0359,-185.4953,-173.1828,-35.0120,-93.8823,-35.8021,-74.9307,-77.4090,8.5096,-183.7174,-43.0054,336.3703,402.1936,-103.5469,64.2512
-3468.7500,154.4248,131.9644,158.1471,229.1059,105.6356,75.0027,-162.0187,-77.5934,-415.7451,-144.6069,96.7574,424.5957,75.5464,68.8119,59.5844,-61.0806,-134.6878,-315.5928,-190.3714,13.1914
-3460.9375,288.4293,299.7166,157.4707,81.0884,105.5632,0.3335,-17.2109,-225.6927,-306.1888,-367.0053,-234.3785,496.4221,-126.2049,67.4087,-199.7780,-136.8671,209.5166,168.8751,-162.8806,-135.5721
-3453.1250,93.2546,420.3178,-160.3523,61.9462,-67.6374,-24.4543,-79.5059,-175.8918,-258.6533,-245.4846,-333.6635,580.1465,-220.3646,41.9283,-187.2538,-102.6010,190.6601,256.3034,-77.4536,-14.4074
-3445.3125,298.9828,588.8360,-13.2415,232.7727,191.1489,87.7157,142.1801,7.8896,-478.1669,-208.9844,-2.9906,432.8387,80.3929,-141.5917,106.2756,-145.4408,-342.3309,-346.4261,-118.0568,-161.2803
-3437.5000,26.8672,280.4880,-77.9476,-39.2384,-168.8557,22.0656,77.0926,-57.1343,80.5852,-273.2634,-251.1496,145.6948,-179.8164,-23.9057,-180.0063,-82.3862,230.9006,438.0909,-38.4298,-116.9418
-3429.6875,-36.0261,252.3774,-108.3913,74.0270,-88.5722,176.7094,83.3068,96.1619,-207.3295,-158.1963,-135.0151,444.8412,-36.4468,93.1005,121.0376,0.0369,-148.5937,-257.1122,-65.4694,-74.2659
-3421.8750,201.3009,277.4768,72.4209,-4.4666,55.0003,62.6093,226.8121,-55.2669,-174.9874,-272.8479,-285.6247,292.2102,-113.8682,15.3582,-104.6264,-73.2303,160.1020,-19.1349,-39.2373,-189.3364
-3414.0625,142.0479,217.0086,-107.3031,-28.4903,-124.9458,-43.0113,46.8239,-160.2018,13.9390,-266.9839,-354.7788,259.0527,-256.2557,20.1334,-282.8062,-88.9390,452.3435,309.4080,6.5327,-37.8760
-3406.2500,446.9517,343.7029,143.1560,205.7002,236.3354,60.5706,113.0572,-20.9158,-470.9516,-238.8931,115.2841,214.1201,138.5192,-134.8817,77.2675,-151.0427,-157.2846,-405.9512,-111.4786,-156.1923
-3398.4375,252.8728,114.3979,51.6594,-23.0907,-40.3144,-31.8152,-15.6309,-112.5874,-49.7640,-292.7348,-50.6293,10.2086,-66.0828,-43.8457,-162.6024,-119.5214,353.1520,350.7692,-58.4078,-138.4477
-3390.6250,71.0634,282.3880,4.4678,41.4411,-124.6311,32.1384,-172.9685,-12.8940,-170.1720,-230.1829,121.7798,366.6494,10.2249,92.5602,46.8869,-77.7048,-4.0716,-181.1555,-99.9508,-39.3156
-3382.8125,198.1215,479.2603,217.1747,63.8746,14.9943,-50.0027,-71.3664,-94.2735,-361.6757,-311.7141,114.1087,283.9866,21.3798,47.8712,-71.6791,-125.3463,158.5343,-159.2695,-112.5807,-158.2800
-3375.0000,49.1111,364.0793,17.8525,-14.7194,-293.3972,-174.1659,-269.7599,-182.6654,-156.1020,-180.2334,-121.6054,230.3011,-214.6041,32.1947,-270.2551,-83.3062,574.1818,361.6873,-14.1827,9.7818
-3367.1875,494.6982,456.5046,81.1489,114.3403,-47.1276,-74.6769,-133.4869,27.6163,-460.8816,-7.0591,235.3311,219.2880,77.2724,-125.8220,86.8716,-90.9240,-71.5926,-423.7897,-132.1130,-37.4789
-3359.3750,384.8528,168.4804,41.0425,-170.0290,-161.2335,-151.5995,-26.5763,-87.4966,48.9597,-11.2635,-27.1574,-44.1504,-121.2124,-130.2352,-174.3898,-75.2814,312.2282,275.3386,-30.4140,-42.1338
-3351.5625,66.0241,60.4974,-111.0053,-65.3301,-203.2541,-10.4303,-104.5673,-19.5006,6.9522,166.6684,77.4167,243.5097,-60.3792,11.4743,3.4445,17.4486,-40.8353,-146.4039,3.4228,62.3478
-3343.7500,236.6705,159.9922,40.4480,174.8801,22.2721,32.2462,83.9745,-13.9804,-208.5785,62.1243,156.5073,210.6809,62.6103,-57.3130,45.8165,-38.6541,-186.4700,-396.7414,-71.2269,-153.6652
-3335.9375,31.7272,164.8856,-176.6719,111.5104,-230.7604,-37.6526,-60.0260,-158.0229,52.4084,-44.9675,-134.9912,102.2816,-196.0904,-16.6449,-244.3798,-47.5592,383.3960,313.4420,5.6007,-77.2090
-3328.1250,144.4286,381.4568,-20.1129,259.8390,34.9075,82.1484,96.6750,35.6469,-267.8974,0.6714,131.2037,183.6076,107.9614,-81.2655,168.1771,-55.6417,-277.0807,-452.7381,-91.8574,-105.0238
-3320.3125,130.6960,155.6058,42.0523,-140.2426,24.2029,-39.4587,196.0118,-49.0794,124.4146,-83.0752,-27.0201,-49.4750,-24.2950,-56.2869,-63.6520,-61.3726,62.0246,132.6608,-34.7031,-153.2372
-3312.5000,46.6818,35.5116,-161.0318,-257.5565,-141.7268,-22.2833,29.1438,4.9884,178.5854,-29.9942,62.5163,224.2486,-70.9140,107.5166,-46.6961,-4.8481,-91.0393,-20.0941,24.2818,10.3841
-3304.6875,355.1525,307.9043,57.3815,-20.3589,113.8767,-23.6099,101.7977,40.5776,-153.7826,-67.3818,244.5828,258.4955,89.8217,-41.1744,25.8103,-83.9950,-344.6808,-484.4559,-54.2226,-138.4830
-3296.8750,128.0049,326.6475,-70.8079,35.2053,-234.1300,-151.5587,-137.1389,-197.4478,196.3017,-11.3667,-67.9753,92.1192,-235.0015,-58.4643,-359.2916,-80.6717,344.1188,310.6378,-33.3063,-82.9356
-3289.0625,165.2544,396.8123,117.4238,354.2139,-120.6971,-36.0674,-169.6275,-83.0106,-167.1421,103.1242,266.9081,242.2259,42.3528,-54.2952,12.0909,-61.8776,-110.6628,-460.8648,-135.9218,-115.9035
-3281.2500,320.6258,164.1165,284.8032,123.3611,-26.0709,-125.4371,-0.9270,-172.4156,38.5609,-60.2262,139.9399,-32.5074,21.6409,-107.9718,-77.3508,-123.6944,115.6688,-22.2739,-120.3718,-205.7151
-3273.4375,105.3845,17.8266,-59.4115,-161.0805,-185.0250,-174.3829,-87.7797,-111.3782,282.7805,74.8937,-20.6220,64.2170,-127.9111,63.8258,-90.3593,-14.2760,77.4865,114.8239,17.6600,1.9614
-3265.6250,289.2565,166.6650,-44.4776,-81.3672,160.1910,-13.1774,111.5374,49.8323,-32.8650,126.2028,140.9804,151.1200,99.2946,3.7862,181.8349,-9.6424,-440.6251,-473.0428,-43.1497,-94.1935
-3257.8125,105.7490,122.1244,-198.8991,-124.0333,-105.9397,-58.3374,-6.4769,-68.3161,290.1886,44.1646,-160.8039,-42.3410,-210.6434,32.3968,-266.3273,15.9067,220.9366,364.7765,91.7084,-65.6885
-3250.0000,3.7848,336.1728,-48.7679,266.8954,-27.4900,93.0878,-112.8996,46.1384,-147.1318,122.7523,135.9909,144.8319,-7.9568,-36.3841,-78.8568,20.2554,-161.9131,-298.8255,-9.8072,-61.5498
-3242.1875,159.7095,280.1268,160.2643,178.7268,107.8918,-28.5963,-13.3908,-75.4950,-84.5679,38.2516,160.6938,-52.0773,55.4841,-195.2669,-90.4482,-91.1073,31.0854,-141.6008,-62.4115,-220.5069
-3234.3750,59.2826,107.7463,-100.0351,-62.7767,-187.0625,-140.6037,-162.1878,-150.4421,244.7589,109.4592,-25.9478,18.7260,-132.7225,-87.4266,-129.3817,-56.1103,247.8393,216.3907,-21.2873,-38.7350
-3226.5625,392.5871,300.1073,31.4063,25.4783,90.7458,-45.8544,-30.2307,17.3845,-175.1919,94.4355,216.1733,112.3272,116.1096,-28.8178,186.4686,-43.0906,-331.7209,-468.9651,-108.4050,-91.1929
-3218.7500,201.1298,247.7019,-20.9007,-95.0283,-109.1846,-98.8689,-46.0018,-181.5477,178.1312,-105.3414,-58.4828,-88.8243,-132.2665,-7.9653,-196.4300,-85.9881,250.9883,360.9442,-52.2563,-70.3977
-3210.9375,52.8079,380.4724,-140.0440,144.6520,-117.9307,2.2994,-128.5819,-81.2806,-15.3139,-40.8944,152.0306,121.2580,19.0400,-54.9032,51.8765,-96.0544,-72.0952,-102.9400,-128.8858,-6.3680
-3203.1250,201.0235,351.7953,97.3701,224.8763,156.9121,20.0124,36.4174,-26.4527,-34.2394,-169.8931,96.1067,-46.0821,80.0571,-147.2890,-4.2150,-123.8409,-27.6886,-128.3652,-188.9560,-172.7805
-3195.3125,-104.7575,79.1368,-9.1917,94.1093,-168.2210,-49.2441,-142.5298,-95.5862,301.9478,-127.8449,-230.8153,-42.3737,-218.4545,4.3978,-293.2812,-22.5100,440.8216,445.3303,-72.9469,-21.1188
-3187.5000,183.8171,226.8681,148.6299,208.7547,26.0520,35.9124,-95.0766,26.7010,-200.4785,66.6279,146.6625,151.7747,79.6914,15.4931,122.0830,0.1333,-218.3240,-459.6504,-168.5188,-47.0354
-3179.6875,353.4763,219.6777,33.5620,-148.5035,-198.5464,-79.8380,-136.4969,-125.9190,51.2030,62.2008,31.2242,-74.9796,-119.5038,-26.3153,-140.4581,-37.5703,198.6324,203.4689,-102.9777,-51.8546
-3171.8750,272.8355,350.2220,-164.7878,-86.0284,-323.4248,-19.8532,-259.1802,7.1993,-71.3273,122.5383,200.5004,131.0453,-60.6260,32.6413,29.7407,-5.3949,-125.6385,-155.6303,-109.6689,81.1081
-3164.0625,404.3944,409.9827,53.0596,10.6604,41.9185,-58.6698,-40.6443,42.5382,-256.6844,11.0876,307.9852,91.3172,116.3161,-42.2009,102.1849,-62.8536,-309.7789,-410.6312,-188.1537,-67.7231
-3156.2500,-11.2746,169.5284,-89.3223,-121.8878,-173.9592,-201.7149,-146.3089,-99.3333,261.8087,14.4326,-55.7789,20.3989,-183.9123,-2.2301,-260.5952,-27.4316,295.9311,301.2341,-38.8135,46.2636
-3148.4375,20.7626,236.8234,57.0176,122.3157,83.9123,-18.0101,-36.2272,47.5669,-104.9633,89.5431,163.1977,130.2811,77.0937,-1.4953,70.3973,2.4736,-232.6416,-509.2085,-74.7081,10.0268
-3140.6250,160.6483,92.9772,133.2283,-18.6316,-23.3302,-51.4611,40.7296,-59.6827,82.1004,-54.5106,-17.9825,-161.9719,-44.1712,-34.9101,-110.7552,-34.3820,188.6222,53.1747,-73.7489,-60.3667
-3132.8125,126.1385,164.7831,-128.9265,-50.9525,-284.9512,-18.2818,-146.6840,9.6960,40.8511,15.0837,86.4510,-19.5423,-75.8476,-2.6612,-40.2867,-11.5755,50.5819,21.2613,-70.1262,118.9155
-3125.0000,370.1301,302.1164,-15.5787,18.2419,-24.0524,21.3956,41.4105,87.5818,-247.9375,56.1931,458.4011,-53.5537,213.4777,-108.9163,220.7282,-66.3555,-442.0183,-471.2605,-140.0040,12.7057
-3117.1875,8.2096,8.5489,-140.1399,-202.4929,-221.0692,-65.8567,-45.3954,-110.4532,252.4110,-30.6031,148.4173,-178.4481,-37.8132,-13.0722,-87.1734,-54.8245,145.5255,397.3724,-43.7723,108.6072
-3109.3750,59.7202,96.4575,26.7159,167.2302,-52.6610,27.3335,-97.7691,-16.0373,-129.7941,-45.9373,352.8758,99.1786,161.7733,7.2354,154.3881,-62.0971,-257.5070,-321.5901,-165.0895,92.9840
-3101.5625,273.7184,238.8731,260.0398,206.4220,32.2147,-70.0373,-122.6758,-187.1781,-80.5882,-216.8408,180.7891,-109.6796,73.8050,-90.0164,-53.5952,-159.2479,133.8832,68.8317,-229.9727,-78.2025
-3093.7500,157.4194,298.0597,23.0432,126.3001,-239.2587,-84.7388,-320.9208,-202.6498,88.3393,-122.0649,90.3605,-52.7519,-85.7316,-32.5591,-141.9366,-112.8916,335.0366,306.0114,-204.1570,53.3200
-3085.9375,516.7791,409.8656,148.6562,204.8154,68.8786,3.1621,-85.5719,-3.5116,-300.1919,-107.6929,399.5586,-37.1738,212.8080,-164.4981,167.3546,-146.1938,-218.2558,-318.3123,-265.7565,-78.5584
-3078.1250,238.0921,166.6071,-32.7683,-107.7166,-112.0445,-68.0054,-82.2734,-183.4426,144.2469,-213.3889,106.6897,-145.6348,-54.3518,-87.4853,-196.4202,-147.0696,313.4513,495.3571,-120.4092,-38.4938
-3070.3125,-63.6601,251.3062,55.7405,84.7148,13.9571,57.7635,-139.0481,-22.4305,-133.3592,-124.1252,231.7553,163.8898,82.9686,1.4880,1.7476,-67.2360,-126.8796,-121.0331,-173.1060,13.5378
-3062.5000,87.9042,191.3446,369.6340,166.5130,144.3495,77.8890,-9.4420,-149.0559,-40.6421,-287.5138,141.1871,-0.2224,106.4284,-88.1937,-51.7117,-153.8542,25.1027,30.8644,-231.4484,-150.0870
-3054.6875,105.4535,102.3948,89.5022,151.2604,-244.2858,-18.0124,-176.8426,-243.7059,269.1271,-308.9195,-29.4325,14.7038,-126.4168,-36.8751,-219.2047,-159.8746,396.1366,436.8401,-140.7733,-24.6979
-3046.8750,525.6500,417.1189,167.0028,325.6588,16.7394,59.7362,-62.5928,-92.6928,-276.4919,-267.6621,378.6120,55.3227,172.3250,-105.8990,78.9949,-194.2877,-168.2350,-337.6228,-211.4460,-130.6375
-3039.0625,456.3306,346.3505,59.0101,-24.4522,-127.7281,-122.0339,-96.8309,-237.1931,93.3931,-264.9188,86.1408,-237.5304,-53.1495,-177.4229,-176.3087,-216.5706,361.9083,473.4335,-102.6172,-128.0712
-3031.2500,119.3667,255.9609,-2.6670,27.7721,-114.8765,-73.4678,-156.7489,-78.3598,-4.3477,-32.8315,133.9779,33.0197,28.3543,-127.5838,57.7274,-111.8830,-43.5845,32.8579,-85.4357,-5.1287
-3023.4375,197.8363,158.0278,271.1180,72.4531,122.4716,-56.4422,42.8104,-25.0665,-134.6620,-89.2972,150.2660,-24.9541,115.0726,-111.2904,37.2567,-88.1209,-103.6890,-98.3511,-74.8034,-135.7339
-3015.6250,-70.2491,-40.4332,58.3134,-54.4580,-236.7550,-48.9933,-205.1814,-125.3494,131.5265,-116.3255,-27.0543,-16.4371,-160.0880,117.4562,-283.7920,-0.7107,368.7023,478.9660,46.2897,20.1232
-3007.8125,189.1731,253.6406,148.9808,206.1410,-72.4876,115.9520,-186.6791,38.8794,-363.8148,-99.8439,321.1366,185.6205,114.3912,61.7092,63.6927,-30.7923,-215.4569,-350.2886,-80.1180,-35.4964
-3000.0000,237.0262,302.1760,93.1196,-25.8125,-127.7502,-12.6575,-205.7111,-90.4390,-14.7146,-154.9356,43.7842,-90.8869,-63.3954,-66.5945,-138.3718,-93.6825,220.8368,331.9070,-29.0719,-90.6638
-2992.1875,53.8625,293.8079,-66.7097,-67.7479,-175.9989,-62.2305,-290.7138,44.2824,-63.5318,128.0212,30.4450,43.6700,-66.0461,-78.8330,-3.4104,2.3292,3.2179,79.1988,0.0390,44.2508
-2984.3750,227.2740,222.0286,196.0840,-33.0735,124.3959,-19.1957,-27.0970,124.6225,-276.7891,207.5854,109.7098,-24.1377,82.0715,-146.4625,77.1943,26.3623,-312.8630,-273.0037,-34.2461,-96.2244
-2976.5625,-85.7479,-58.2005,-136.5324,-169.8280,-171.6186,-94.5787,-101.8709,48.5477,272.5844,95.7428,-223.4662,-63.3474,-228.8775,35.5186,-254.6186,84.5452,182.7111,469.4652,146.0854,48.9196
-2968.7500,3.6581,33.0300,-223.7211,62.8794,72.8066,75.4854,68.7898,256.9267,-106.6091,83.3577,-18.1830,181.9400,32.7578,59.9594,136.0466,94.3939,-462.2874,-317.6665,168.8678,36.5435
-2960.9375,26.5469,90.7260,-268.4398,-124.9530,101.6979,-6.0157,208.9155,138.7468,32.6406,-34.5983,-209.4371,-46.3113,-69.7219,-58.1607,-54.8264,20.3325,-122.8458,233.6137,264.0875,-44.3846
-2953.1250,-273.2395,211.7551,-403.8318,-176.4503,-143.1003,-30.1945,0.3659,76.8953,8.2908,198.7930,-235.3790,112.8050,-151.4906,-8.9193,-5.3816,76.6929,-103.9961,216.3034,247.6667,115.0651
-2945.3125,26.1757,265.0012,-11.0068,18.2752,30.3290,31.8351,100.0226,177.2542,-331.9087,298.3860,-27.1035,65.1708,65.4085,-56.4735,242.2937,99.0892,-471.0031,-325.9026,22.4366,-5.2760
-2937.5000,-57.9618,-136.3056,-28.7238,-64.5724,-280.8007,-58.6939,-99.8699,49.0521,128.3519,244.4017,-302.4118,-135.0048,-246.5418,110.4290,-179.6067,176.8043,148.4893,504.3998,80.6634,87.8402
-2929.6875,-29.0213,-107.4936,-71.3696,175.6855,-139.8534,80.8782,-142.6874,263.9567,-207.3031,275.5224,-51.6291,78.9723,-46.2274,104.4438,71.6075,201.6304,-347.9250,-203.2210,40.9960,119.0809
-2921.8750,93.1941,15.6190,-7.7522,-15.7919,-38.6375,35.7010,-41.2386,182.1169,-69.7292,119.8736,-135.5861,-113.7684,-64.9193,-14.2997,-9.9146,103.1616,-118.1209,132.3526,61.5663,-36.4400
-2914.0625,-226.5145,151.8445,-274.0511,-124.1926,-304.3638,-10.3935,-232.7148,136.3530,142.9909,185.3063,-218.4779,24.6120,-231.0898,50.0690,-128.3764,129.8193,90.8435,375.1000,95.2415,102.1593
-2906.2500,-6.9670,407.3480,-74.0966,132.6777,7.1718,116.7723,-105.9470,190.8501,-390.0977,165.9935,90.9006,116.3023,47.6240,-5.3076,109.4456,83.4063,-319.9967,-316.9918,-69.8437,-26.9827
-2898.4375,-112.8916,161.3598,-37.6353,-6.9579,-175.7892,6.4206,-177.6746,-30.1660,-59.6845,19.1572,-203.2439,-67.4955,-179.0365,104.8117,-183.2577,78.5848,313.6996,492.4558,-32.4266,10.3711
-2890.6250,-130.9826,-33.7594,-21.3497,186.2578,-48.9216,133.9117,-123.5726,97.6686,-261.4173,36.1453,-76.5548,97.6090,33.5726,158.7906,200.8851,103.9348,-124.7434,-122.2400,-82.1651,64.5961
-2882.8125,106.6660,-112.1333,90.6657,109.1897,172.6799,135.1044,171.2408,62.1970,-187.5156,-72.2075,-114.1303,-121.5453,88.7149,13.4604,165.7597,23.0968,-96.5244,-94.3039,-54.2251,-117.4882
-2875.0000,-140.2318,-8.0449,-319.8665,-67.4490,-126.3013,-19.2751,55.4797,-54.8625,174.8546,31.8788,-304.2823,-17.2370,-173.5848,44.5819,-60.9622,31.3041,220.2110,327.1709,52.1657,23.8906
-2867.1875,-24.4773,354.7415,-156.7479,86.5882,185.3679,71.9951,220.3578,73.7268,-247.1590,86.6296,-67.7738,111.7780,85.3060,25.3570,251.9909,26.2323,-364.4503,-468.7800,-74.8023,-68.0734
-2859.3750,-218.0049,161.2613,-98.9190,-70.6853,58.7425,-17.0534,168.9415,-51.9878,214.5490,-112.9427,-341.5839,-87.4965,-144.6901,46.8290,-131.3685,4.5550,216.6049,323.9865,49.9243,-83.3527
-2851.5625,-395.5442,53.7924,-177.1165,104.0304,54.0781,87.8858,16.4942,53.3001,63.2850,-153.5400,-237.4103,349.2718,-57.2982,115.3156,48.2497,13.5891,-30.3083,-133.2179,85.6564,22.3856
-2843.7500,-119.3806,-126.9661,80.3621,135.4307,239.0887,88.4844,165.6985,54.2424,-192.4197,-262.5147,-164.5461,498.7422,67.8771,43.4415,123.5324,-48.1778,-103.6174,-348.8498,83.0186,-86.2338
-2835.9375,-339.3836,-381.8845,-122.3586,-153.3694,-110.1327,-77.1335,0.6744,-111.0562,156.6627,-207.6925,-513.9092,664.0298,-232.7348,172.3613,-78.4435,-5.4393,345.9485,275.4025,251.1733,152.9513
-2828.1250,-253.3722,-119.7560,-68.0877,-31.1482,127.6319,-22.7456,127.6241,-19.3468,-155.3006,-115.8472,-313.2660,976.3715,3.6851,153.2853,306.6019,-27.9097,-234.5191,-586.4058,128.3117,171.1474
-2820.3125,-303.8822,-205.1465,-45.3560,-150.4866,40.8591,-110.9173,151.0359,-217.1833,235.1904,-350.5753,-586.1855,816.1774,-206.6440,139.6553,-36.9011,-106.1674,278.4617,102.2257,220.8898,157.7806
-2812.5000,-561.4062,-356.5083,-64.6517,-19.8479,-50.9547,-19.1097,-87.5821,-162.0303,143.7213,-332.3229,-532.1327,946.0120,-186.9010,232.0372,18.5670,-47.9826,234.4876,-47.0947,213.4666,360.4322
-2804.6875,-404.7397,-305.6554,254.2289,32.9720,268.4019,42.8541,120.9501,-99.7230,-124.6591,-306.9324,-286.8957,751.0436,58.2811,73.5571,153.2136,-85.6208,-29.3937,-417.3594,124.1679,202.2242
-2796.8750,-527.7925,-393.5205,51.3754,-264.9629,-44.0207,-123.9523,29.7178,-229.1995,370.2310,-179.3110,-565.4272,548.3368,-249.1116,92.3192,-158.9343,-42.5059,447.0337,304.6957,214.1053,257.2609
-2789.0625,-405.7302,-235.2402,36.6121,-0.7816,161.6364,9.3422,162.5607,14.4149,-119.7994,-82.6072,-248.8410,719.7847,24.3743,114.1865,195.0248,7.6088,-167.4556,-557.1837,127.1196,170.4128
-2781.2500,-303.0614,-274.3568,113.4180,-75.0412,239.8634,-24.8222,313.9574,-56.4282,-79.3183,-225.3814,-318.6884,430.8069,-34.3431,82.5947,-58.4614,-19.0453,145.5956,-67.5403,160.6569,28.1003
-2773.4375,-544.9375,-233.9926,-107.3471,-68.8565,19.4934,-61.5546,129.7676,-55.8458,67.6232,-78.7153,-320.1091,504.3008,-114.1571,118.4620,-57.5330,25.5988,187.1582,9.6270,202.6392,175.2527
-2765.6250,-148.2209,-83.0214,95.4569,82.9137,369.6895,31.2659,297.1195,74.2985,-205.9552,-168.4998,-44.9473,415.3939,162.2917,-8.1340,182.9653,-46.8823,-222.7828,-577.7407,74.1478,11.9480
-2757.8125,-95.9251,-346.4648,75.8270,-74.7706,92.4251,-26.3830,94.0138,-92.0333,105.0281,-372.7571,-285.2519,175.0392,-102.8144,45.8072,-204.0319,-70.2906,428.8769,319.5057,163.1980,66.1824
-2750.0000,-75.5835,-185.8195,97.2276,122.6132,224.1881,106.0172,4.9264,38.6774,-276.9465,-313.9725,-8.5083,308.7773,121.8644,67.8039,112.0210,-58.4175,-42.4068,-397.2068,80.2863,88.4784
-2742.1875,92.9478,-52.9716,280.8059,10.1715,298.1255,-4.4208,153.0005,-108.4612,-93.8177,-461.0726,-8.5959,125.6803,83.5384,-79.0589,-108.7561,-184.2733,127.4314,-123.8166,73.5000,-58.0989
-2734.3750,-93.8201,-63.3988,44.0662,0.4158,-84.2736,-93.1651,-119.2478,-122.9172,185.0394,-292.5027,-135.0178,184.2901,-145.3009,15.7887,-269.8781,-97.6241,364.0325,219.3552,170.4136,74.0282
-2726.5625,194.6014,49.3755,280.4792,219.8344,151.4884,68.2515,5.6483,75.7958,-276.0130,-93.7919,136.7436,164.0880,138.0783,-115.2134,76.1720,-59.6985,-120.2674,-477.4030,108.4594,-93.6969
-2718.7500,65.2299,-255.6614,182.0634,-84.6115,-56.6044,6.8053,-91.3079,14.6462,67.0784,-43.9644,-109.3432,-152.9713,-104.9436,-28.0779,-240.6609,35.3602,420.6153,415.0334,191.6433,-80.2870
-2710.9375,-66.1352,-315.6661,42.6380,-4.0559,-12.7293,124.3502,-156.3053,206.4842,-108.8325,73.8533,80.5686,40.0078,24.9843,53.0646,-13.5115,114.8813,8.5243,-138.5095,131.8165,1.1348
-2703.1250,54.5453,-229.6188,140.2410,12.5363,196.1829,75.8972,124.7095,157.3167,-47.8007,-49.3511,68.5018,-117.9885,75.3152,-32.8064,-62.3418,38.6896,-9.6055,-157.1155,78.9654,-157.4637
-2695.3125,-311.4240,-243.1926,-138.8100,-142.5263,-83.5852,-20.2207,30.0543,25.4651,262.6037,-34.2371,-138.2376,-102.6402,-113.0604,92.6728,-155.8733,64.7117,292.6862,356.7250,135.4619,5.2889
-2687.5000,-56.5192,-93.8602,96.9943,-61.7159,263.4953,105.5180,229.2304,151.4696,-273.1874,17.7167,96.9145,24.5917,218.7351,-2.0040,300.4691,30.5471,-329.2138,-477.6453,5.7851,-89.1059
-2679.6875,-45.7034,-187.6410,110.6737,-331.0667,130.4327,-64.9058,243.2499,17.3113,70.8610,31.5030,-111.0718,-218.3367,-15.0352,-60.8407,-90.3567,26.7716,174.7489,272.8582,88.9415,-111.6678
-2671.8750,-188.4227,-190.9633,-83.2098,-156.9693,10.7808,-74.8912,87.6785,155.5950,99.3578,169.7303,99.3888,-4.8026,47.3515,-33.2173,48.2381,70.0833,-108.7974,-117.1392,86.5409,27.2349
-2664.0625,208.6557,-179.4841,82.6828,-41.0840,175.9061,-130.1184,252.8629,137.6288,117.5371,77.6837,301.6283,-95.4957,187.4122,-161.8529,103.6118,-35.8120,-271.6394,-351.4574,-42.1367,-101.1289
-2656.2500,-48.6981,-259.4298,-154.8760,-260.6477,-134.4459,-220.8069,14.5796,-63.8188,468.2993,134.1592,-11.6157,-147.6526,-120.4066,-31.9404,-170.5056,9.2569,246.1414,341.8675,-16.2728,66.0518
-2648.4375,-101.4965,-101.7838,-25.8961,3.3680,105.7458,-54.9275,71.8267,103.2891,-63.4112,264.1818,191.7092,19.7700,162.1515,-11.4819,253.9459,66.0592,-297.5600,-448.3028,-101.8723,49.7863
-2640.6250,3.8507,-136.0004,88.2082,-66.5244,-37.9442,-87.9483,39.1901,-40.4966,160.9562,120.2872,-25.8416,-268.7253,-20.1481,-43.9425,-36.5098,30.6439,194.8235,254.6220,-102.3821,-19.4020
-2632.8125,-34.7025,1.8960,-65.6090,36.6472,-264.5696,-21.8761,-298.3718,25.8177,80.4377,150.5000,113.6940,-90.1314,-59.8845,22.7096,-42.9032,56.9748,122.3426,146.7080,-103.7849,84.5221
-2625.0000,292.5837,188.6298,212.3911,152.6407,86.6283,110.0129,-205.1278,46.9519,-302.3401,23.5053,354.0671,-68.7264,172.5436,-65.8410,88.5317,-27.8455,-147.3969,-264.4904,-198.4072,-114.7644
-2617.1875,168.1967,-41.3125,41.6989,-6.0679,-192.8953,49.1975,-300.5911,-86.6346,-31.7940,0.7701,-0.2822,-200.0411,-142.2566,94.9035,-264.7689,52.6251,468.2214,526.6882,-110.7360,-26.7602
-2609.3750,115.1167,12.0903,61.2932,222.5468,45.8622,179.6882,-134.7785,117.0802,-415.9752,93.3398,165.6796,-33.0314,97.3628,77.9455,85.2360,91.4582,-147.8773,-334.8527,-127.7831,-43.4475
-2601.5625,-78.6072,-181.1653,121.2148,-4.5220,142.9377,18.4834,183.3389,-6.9055,-61.8977,43.2012,40.9743,-301.7317,68.7694,-8.7287,-38.4591,38.5956,47.3071,69.8799,-38.5516,-129.8556
-2593.7500,-378.0212,-269.1185,-236.5704,-127.2983,-67.7301,-46.4314,82.7159,2.3899,278.5098,126.3438,12.5604,-144.1427,-29.7059,111.9085,-28.8964,84.3932,64.8508,157.0036,49.9718,64.0470
-2585.9375,247.8479,-29.7784,-53.0953,5.2059,188.8686,-10.0810,229.3386,38.9493,-52.8942,14.7276,342.4406,-70.2904,242.9563,0.7935,265.9496,-46.5215,-398.4103,-482.6970,-97.2732,-82.8075
-2578.1250,380.2877,-2.8611,-138.0609,-142.7514,-78.9901,-167.1972,-1.4896,-190.9591,341.2673,-106.3601,73.8598,-225.9201,-72.4963,-8.7865,-148.6839,-108.8783,226.9184,354.2250,-104.9727,-19.1242
-2570.3125,297.9198,267.2844,-42.8515,126.4923,-20.6710,-73.1213,-163.1409,-60.6729,-78.3585,-84.2486,278.4846,16.6604,105.5632,12.8346,129.8848,-98.8977,-171.5484,-290.6408,-186.4822,39.7707
-2562.5000,321.8157,221.6774,246.5936,81.9642,121.8831,-77.8393,-58.5778,-102.1969,-120.8384,-199.9620,273.3491,-243.5627,157.4222,-28.3640,51.6587,-122.9518,-40.8471,-20.3452,-196.8191,-75.1552
-2554.6875,29.3905,34.7435,-30.3175,-34.9173,-190.9425,-132.9113,-260.3915,-120.0999,118.3405,-71.0378,179.8501,-188.1595,-17.3603,63.0877,-75.9697,-44.8218,159.5668,391.6975,-101.5129,90.5719
-2546.8750,180.9023,151.7476,135.6740,118.1355,121.1416,-5.0631,14.6803,43.9158,-267.6366,-54.2052,418.2815,-58.8529,243.0655,-65.5632,162.3317,-70.4059,-355.1752,-300.4324,-194.3205,-37.8088
-2539.0625,87.3378,-12.3350,73.5822,-45.9203,-87.8692,-30.3150,-84.3362,-128.1664,74.2985,-152.4844,135.6031,-265.6922,-50.5169,-53.3259,-303.4886,-67.2086,325.0022,590.3814,-113.2326,-25.3108
-2531.2500,121.3982,128.2487,-3.8797,199.6575,-127.2577,186.0855,-344.7233,15.4099,-333.1048,-47.1110,277.5715,-84.8919,27.0400,53.5671,-122.6744,18.8378,42.8452,61.8823,-112.4950,44.8491
-2523.4375,405.9431,132.3175,192.1331,168.7066,67.8368,234.9566,-186.6437,27.4554,-395.1141,-182.2979,253.0237,-255.6544,113.8194,28.8988,-38.3845,-21.7735,12.0873,-4.2218,-109.3255,-126.5620
-2515.6250,70.9448,-26.1643,-54.4091,10.1954,-287.6423,135.2726,-248.1304,-35.0672,130.3534,-61.0473,-141.0969,-243.0110,-181.6599,150.6820,-172.6875,68.5040,310.8490,470.2307,14.2930,32.4723
-2507.8125,171.4149,180.8370,54.5024,216.1694,-69.6669,134.0503,43.8216,110.8624,-91.7744,11.6499,77.2690,-96.9112,88.1529,38.9099,229.4758,26.0813,-325.9726,-412.9179,-60.6606,-42.0469
-2500.0000,75.6601,119.5720,66.1426,-20.1541,-131.9810,-112.4816,129.4757,-135.5310,324.7888,-50.9775,-58.6419,-341.1432,-51.9780,-96.1815,-52.6776,-78.0807,175.9211,334.6606,-50.9395,-66.8918
-2492.1875,-39.9242,39.4724,-61.0820,5.6645,-74.1858,-91.8702,2.2465,-77.7865,50.5239,116.5392,107.6004,-135.2473,15.7173,-39.1199,4.2975,-12.5178,-9.9968,43.4473,-95.0779,64.4216
-2484.3750,256.7299,-14.3904,146.9140,126.7153,280.8271,-32.0453,137.2233,19.1733,-329.5960,66.2548,205.0894,-221.1622,194.0455,-87.8743,102.5100,-12.8823,-239.7702,-187.6345,-151.0338,-95.0796
-2476.5625,21.5422,-109.1007,-140.9359,-38.1004,-118.0318,-136.0849,-78.6678,-85.7330,79.4675,144.1149,-194.2836,-214.9750,-161.2048,64.5198,-149.1762,74.3441,264.6656,492.5280,-33.8424,57.5649
-2468.7500,163.8511,139.7132,-139.2936,175.6044,-7.3934,-62.6160,32.9268,62.8675,-212.9896,256.4892,63.8618,7.7136,66.6431,-7.5841,219.6542,55.8331,-331.4322,-349.8410,-101.1646,59.7126
-2460.9375,184.8916,232.2491,-41.9289,-48.9871,-93.0191,-220.4390,131.2536,-96.8295,105.2438,96.5503,-96.2783,-148.9407,-67.3414,-129.0021,-12.8144,-51.5942,42.1559,269.4898,-80.8024,11.5315
-2453.1250,-183.7857,320.0911,-140.2866,3.7094,-264.3727,-208.9557,-40.1395,-47.2337,116.8130,144.9082,-84.1332,10.6670,-121.1251,-43.1130,-37.0113,7.5755,60.0853,252.1947,-97.1374,170.6542
-2445.3125,142.5302,365.9242,282.3170,190.3792,48.2489,-81.4974,-22.5839,80.3354,-452.7221,126.2162,154.0197,-7.7805,85.9638,-99.2796,17.7747,21.6729,-210.1118,-229.2344,-192.5437,5.7101
-2437.5000,298.0464,64.9177,111.0732,-40.8233,-233.0013,-104.8920,-377.8882,-53.9618,-183.0886,174.6658,-91.6742,-178.1235,-230.9134,-13.3027,-374.3270,83.3212,403.8788,595.5613,-70.8031,91.9057
-2429.6875,362.6728,59.0260,-6.0917,94.0823,-56.1697,108.8263,-347.1099,123.8557,-409.3672,242.2190,85.7504,-0.3702,-9.0992,-19.2247,23.6761,97.7094,-165.0555,-149.5563,-76.9607,86.2102
-2421.8750,159.7272,-72.4524,9.1614,-2.6013,106.0948,86.9623,-0.9055,28.0853,-27.2649,36.1576,-157.4053,-240.2671,-31.7942,-76.7604,-33.9035,27.1710,54.3802,210.7118,-33.7245,-45.1108
-2414.0625,-374.1904,-43.8912,-261.5466,-44.2549,-91.6139,35.1484,-15.6655,13.3553,251.9289,169.1371,-281.5248,-70.1637,-149.1094,18.7610,-47.4722,95.3073,118.9202,310.1263,-39.4340,124.6213
-2406.2500,-82.7283,178.0537,-24.8883,107.4733,182.0514,51.7048,221.9186,66.9859,-99.5899,222.4700,64.7623,-16.7211,134.1235,-37.3714,226.3366,49.1111,-433.2469,-418.1795,-169.8073,-5.3086
-2398.4375,19.7782,-69.9793,-140.2213,-176.8042,-154.2900,-100.7415,68.5008,-121.3961,335.8985,178.7911,-88.9517,-241.3249,-109.1949,-43.5153,-73.8853,14.1245,161.6207,423.5771,-68.1873,62.7414
-2390.6250,-15.8225,0.9142,-143.6774,-1.1794,-83.7659,-30.2833,-8.0424,21.1283,38.2939,249.0275,129.2405,-23.0371,88.0126,-44.7596,253.7887,23.9524,-294.6094,-208.7548,-67.6656,133.6979
-2382.8125,96.5207,147.7445,15.7904,5.3691,111.6783,-91.9158,114.3323,-113.4360,14.5623,41.1649,30.3664,-120.8887,78.8419,-107.1233,119.3750,-77.6611,-112.9795,-27.2282,-97.2575,-0.4737
-2375.0000,-123.2197,174.4691,-183.8475,-39.1972,-197.0101,-143.6572,-121.4122,-201.1109,255.7755,24.1931,-131.6188,-24.8943,-158.3182,24.4143,-116.1952,-42.6104,194.6131,385.2965,-70.9457,131.2510
-2367.1875,194.9204,283.0664,45.3777,175.1078,105.1684,-24.5347,34.6891,-45.9238,-212.2101,70.0930,281.3000,93.9414,172.6330,-76.1974,187.1087,-73.2176,-329.0088,-455.3982,-208.8030,-6.1827
-2359.3750,169.1971,46.7703,54.7229,-61.4932,-32.5404,-162.3148,-30.0989,-182.6487,89.9011,43.0753,106.3416,-152.1713,-25.9595,-139.7209,-170.4949,-85.4712,242.4846,363.0467,-94.5771,3.4624
-2351.5625,31.7658,-20.2233,-56.6598,-23.7892,-33.9766,-17.7868,-141.6084,-2.0751,-94.6686,224.3503,177.6889,-7.0072,53.4698,-103.9380,47.2007,11.2872,-69.7102,-90.1717,-55.0563,112.4199
-2343.7500,246.8177,-15.7303,102.4199,15.3854,162.0699,105.2128,16.3595,46.9644,-120.8251,52.0780,116.5215,-142.4221,89.2395,-92.7201,22.3708,-4.5916,-137.5175,-193.0074,-52.0976,-59.1933
-2335.9375,44.9202,-112.1797,-114.4647,-45.4282,-275.8584,108.2613,-273.6254,-59.9569,287.1215,54.8553,-174.6187,-63.8469,-260.0050,94.5447,-304.4462,71.6421,329.7711,380.3036,62.9189,91.2346
-2328.1250,127.6594,76.9893,47.2747,178.3819,32.8346,196.9323,-185.0131,65.7389,-212.3710,70.2327,170.8841,134.2957,62.3637,36.3992,41.3581,34.9695,-185.3915,-486.8336,4.5174,33.2422
-2320.3125,79.1205,28.8504,108.7258,-81.1143,-15.7786,1.3095,-124.7116,-130.8760,68.8426,-89.6899,11.0833,-133.9225,-59.2823,-12.0541,-190.1788,-49.0470,294.1895,237.7978,60.8195,-15.0640
-2312.5000,-84.4940,6.6318,-102.9249,-68.6884,-80.4964,8.5986,-189.5266,-12.5802,76.9303,-8.6948,19.2157,-15.2608,-32.7157,69.3793,0.1836,7.6067,24.6539,4.3081,74.0130,103.5257
-2304.6875,63.2720,13.7826,96.7875,9.0938,229.1465,62.2376,121.0225,41.0642,-53.6230,-29.3592,72.7310,-109.2965,145.9271,-60.8433,163.8913,-35.0505,-249.5382,-303.8390,9.5471,-100.5545
-2296.8750,-166.5732,-109.6706,-74.1087,-150.7444,-125.8372,2.2742,23.9604,-92.8991,474.2531,21.3759,-244.3389,-167.9782,-194.3843,-47.6511,-226.0199,1.0363,259.6840,451.4678,61.4892,-13.2263
-2289.0625,53.4049,109.6850,8.8119,69.2280,31.0050,48.1342,106.7009,26.9515,41.8805,103.9287,168.4238,61.0964,95.6841,-111.6684,113.9103,-37.7790,-294.3438,-419.4653,-0.7845,-40.1067
-2281.2500,219.0878,-5.2951,111.4378,-117.1077,22.5576,-107.2903,135.1398,-91.4995,107.2319,-88.8011,86.8728,-131.2149,47.7347,-82.9957,-5.4722,-92.2837,117.3586,132.3752,23.6440,-85.2999
-2273.4375,-36.5376,-155.6017,-54.2454,-91.7318,-141.1980,-14.9790,-102.7377,0.7754,89.2808,3.2028,69.0285,-1.8796,-6.8776,46.3792,13.8480,12.2534,107.7407,122.9280,119.7759,81.2059
-2265.6250,193.5312,-65.2313,85.7810,33.3398,180.7763,161.0556,109.1141,103.7757,-139.9769,31.9090,244.8783,-45.9017,178.9409,-108.5399,116.8783,-19.3549,-294.2021,-384.8227,33.6213,-110.6053
-2257.8125,-61.4610,-214.8502,-110.2152,-151.6262,-88.2553,76.0855,59.9905,-18.2270,399.8192,-90.3803,-98.3138,-203.9703,-146.9330,-46.4472,-299.1175,-7.0949,259.8738,451.4926,95.4947,-48.4124
-2250.0000,-143.5319,-85.4951,-50.2698,47.3633,81.6872,173.0676,82.8521,77.7358,54.5409,6.2996,108.4557,38.9138,93.4084,-23.4170,90.8673,3.3074,-280.1563,-299.2957,47.3264,-25.2743
-2242.1875,12.1164,-34.4576,118.3072,-7.0127,177.2633,83.6845,141.3743,-47.6684,76.9363,-83.3761,-54.1302,-123.5785,46.2233,-75.7512,2.4883,-51.5126,-18.5221,-2.3982,27.8106,-150.5089
-2234.3750,-218.1577,-53.3649,-130.0810,-26.3403,-71.1287,56.3657,-107.0831,-1.0182,196.3771,-36.9899,-155.6457,-41.0145,-99.3454,80.9641,-61.8523,36.2243,173.1607,189.5586,113.3391,6.3012
-2226.5625,82.5020,107.6687,116.4766,133.2438,249.4109,118.9606,139.3681,134.5281,-183.3291,-84.7188,164.7778,-15.5522,189.7720,33.5556,184.7029,0.7412,-335.2811,-529.6174,-8.2544,-115.0175
-2218.7500,153.6602,-67.7955,-69.5093,-217.7247,-10.6187,-67.0086,137.2503,-51.5033,329.4247,-51.0137,-132.3605,-200.6654,-148.5383,-5.4123,-258.3315,-10.9708,227.7651,280.7229,98.5880,-43.9005
-2210.9375,135.4521,19.4046,-165.8516,-96.0103,-35.0077,-17.3163,39.7852,72.1246,84.8255,145.3589,64.1955,105.8640,-1.8476,7.2706,85.3204,25.0140,-247.5827,-335.3285,9.0689,42.8584
-2203.1250,99.6939,-14.9591,23.1920,-25.9047,118.9789,-48.2160,192.7229,4.1433,16.6584,4.1343,71.1841,-35.2556,111.1370,-59.6569,164.3662,-46.5431,-178.5311,-230.9451,-27.0619,-98.0100
-2195.3125,-370.0450,-169.3208,-218.7797,-74.7975,-197.0562,-33.1017,-50.3689,-17.8218,325.4868,55.9227,-134.7964,-21.4176,-102.4330,65.4115,-4.6112,45.8191,195.5267,283.4722,64.7988,64.1158
-2187.5000,-166.7709,0.3356,-1.7063,94.3383,130.9464,112.0401,57.5351,164.2466,-118.7480,89.7152,120.2674,86.3776,180.8102,25.4667,324.3977,49.7519,-374.4524,-532.1420,-48.3515,-48.7930
-2179.6875,-111.2387,-119.7708,22.5736,-131.3263,-29.8593,-11.6176,81.6272,-33.4980,273.2272,2.6691,-150.4789,-184.6809,-100.8073,49.7159,-130.4491,39.6936,208.8096,297.5155,6.6912,-98.5286
-2171.8750,-173.4176,-75.5715,-82.8472,17.3358,-24.3612,-5.9513,13.0278,45.0565,93.4825,154.9122,1.1153,4.5588,-32.8817,128.2679,-14.9735,101.2665,-64.6597,-116.5576,15.0212,-19.9751
-2164.0625,88.7570,9.9607,161.0403,103.2922,255.4394,17.0140,255.7545,31.8854,-104.9526,-43.5494,61.0479,-119.9509,132.5103,4.0898,80.8033,-2.1187,-120.8376,-241.3164,-40.3560,-181.1498
-2156.2500,-115.7432,-53.1945,-59.7938,-66.4554,-75.4838,-19.7326,-1.2298,-78.9952,262.9380,-154.6996,-232.6846,-121.1968,-118.4534,4.2056,-103.1258,-32.3004,378.2882,469.2659,35.5575,-34.0290
-2148.4375,89.2208,82.0843,84.7970,174.2323,179.0079,87.9362,32.1754,28.5458,-218.8183,-157.4650,95.0519,133.9455,168.2761,-36.2879,225.3590,-77.0969,-191.2341,-345.8038,-76.1573,-110.5395
-2140.6250,186.3919,3.5811,152.5514,24.0687,99.6227,8.7474,26.7049,-160.7725,33.5754,-311.1110,-57.0656,-56.8036,-46.4994,-4.6366,-222.0458,-113.5500,257.4413,349.3420,-14.7316,-189.9310
-2132.8125,-15.4879,14.0156,-28.7929,68.8144,-81.8632,10.4731,-118.8802,-48.1894,-1.1703,-124.8494,-54.2690,129.3367,-96.7546,107.9089,-146.5562,-6.3396,126.0019,77.3721,63.5884,-40.4385
-2125.0000,98.2413,21.0479,205.4216,111.1077,226.2196,60.7597,152.1051,74.9338,-209.3933,-75.0337,143.1039,-79.0013,147.7091,-26.0205,51.4587,-14.1339,-183.9030,-338.0539,35.4561,-174.4349
-2117.1875,-108.8704,26.2651,56.7691,-26.4602,-143.5817,-49.8109,-69.7806,-35.8053,120.5734,-150.0626,-5.3538,-263.2043,-91.4745,9.1958,-243.4115,-13.0350,382.3542,475.7136,3.4699,-65.2959
-2109.3750,254.5616,565.0474,71.6281,301.4908,-54.8777,112.1240,-128.1784,88.9675,-378.9846,-134.5961,414.7319,-138.8971,172.1227,-49.0985,101.2461,-72.2030,-240.9491,-323.0850,-197.0374,-160.6814
-2101.5625,655.4780,685.3101,92.9460,173.8862,-106.7405,60.4955,-107.1257,-36.8160,-138.0782,-187.6833,400.2469,-596.1586,99.2977,-174.9447,-61.6714,-151.9599,19.2344,218.6155,-255.0965,-323.6404
-2093.7500,479.4771,474.6591,-135.6987,102.3465,-372.5693,51.9321,-300.0453,28.4602,73.8470,24.3001,427.8157,-568.3554,27.7242,-146.7415,-33.5557,-69.5784,18.4623,324.3574,-185.1164,-148.5563
-2085.9375,641.8822,497.4106,76.0231,195.1655,-15.0350,116.7355,-51.6119,166.0864,-229.9100,-22.3826,640.7597,-577.2271,303.5708,-266.2059,214.9072,-112.2058,-382.9750,-217.5693,-199.8038,-268.1540
-2078.1250,335.6989,331.5890,-64.8699,-41.6251,-266.1228,48.9435,-119.7916,26.0890,180.7809,-162.6822,279.1049,-645.7192,-25.1326,-149.2847,-220.2565,-84.6062,190.0203,637.9549,-14.0902,-188.3688
-2070.3125,181.6431,318.9177,-80.6604,190.7060,-61.0964,218.2576,-98.8669,157.1929,-203.4476,-105.8776,410.5909,-367.1021,161.7702,-55.2684,58.6931,-27.8488,-281.9385,-80.4864,-28.2882,-167.5029
-2062.5000,349.4110,205.0599,99.3623,110.8326,81.7248,176.3503,43.8740,5.0784,-208.8611,-221.2654,332.8677,-556.7057,145.8307,-96.4614,-93.5829,-85.7853,-10.0704,192.9016,-38.6874,-282.8566
-2054.6875,22.0320,89.0631,-32.7670,-6.1833,-123.6323,82.2832,-124.5575,-16.1854,-9.4333,-94.7807,128.0083,-467.4601,-8.9143,-43.7981,-152.0071,-16.4234,225.6528,498.1435,19.7596,-83.3610
-2046.8750,107.3062,139.7169,170.7322,149.4172,226.6242,174.8210,114.6151,113.1699,-357.4488,-2.6935,368.7851,-375.6295,303.3724,-62.5521,235.1700,-1.6104,-324.0608,-262.0495,-72.2105,-175.2973
-2039.0625,-121.2000,-193.4080,76.4118,-44.7994,21.0542,116.5547,56.9865,-18.2879,98.7714,-97.4131,53.7579,-581.6295,34.8427,63.8832,-117.4838,46.5205,256.4542,566.0212,51.0277,-123.0478
-2031.2500,-170.8790,-242.7005,-54.1319,81.7964,37.2921,207.0990,0.1562,183.0600,-69.2153,-44.3285,144.5607,-307.8128,129.8398,117.1152,119.6848,97.8511,-181.2862,-12.1665,70.0633,-33.0089
-2023.4375,105.6186,33.1745,55.4818,39.5287,221.6799,170.7882,183.4895,145.5480,-143.0403,-229.0937,107.5014,-418.8593,126.3482,-30.5060,-27.9973,-13.2177,-152.8770,16.8029,98.2491,-180.8422
-2015.6250,-126.2480,154.6985,-158.2708,-122.0990,-140.3030,30.1285,-31.5345,-32.3100,82.7910,-76.1948,-69.9140,-339.2496,-128.0663,12.5412,-242.0359,9.8306,213.1849,524.4365,183.0845,8.9778
-2007.8125,57.1977,126.5478,34.2961,60.5893,126.0480,112.7897,87.7505,161.1442,-349.1085,153.9994,233.9968,-184.3545,193.2585,-15.1190,207.2354,69.7341,-378.4939,-313.6709,83.2051,-55.9247
-2000.0000,-2.3188,-318.5443,7.9212,-210.6741,-10.5554,12.5146,98.0866,60.6303,102.0691,237.2238,-86.0431,-431.4529,-29.6928,-4.7438,-39.4829,132.2383,158.9146,436.3374,163.3797,-45.7953
-1992.1875,-249.7046,-355.5106,-184.3509,-142.8145,-57.0613,77.3627,-22.4856,235.2230,92.3064,411.5458,-130.9511,-184.4370,-42.8167,58.7266,97.9033,236.4769,-125.6182,81.4069,159.6533,91.4182
-1984.3750,-162.3949,-232.7892,60.0386,-56.3076,224.0853,101.8652,222.6038,222.4581,-30.8225,325.5126,-107.2036,-270.7778,59.1845,-27.1605,84.9299,185.9388,-215.5086,-148.8684,140.5873,-68.7487
-1976.5625,-371.7222,-334.7015,-56.2531,-195.4676,-111.4431,-14.2822,33.0234,70.0428,294.4197,318.8350,-369.1165,-313.7670,-258.3554,40.3058,-324.7192,217.4782,312.9734,592.2486,246.8898,72.4305
-1968.7500,-181.4270,-144.9916,108.0693,-41.0131,161.6526,150.1848,123.0457,234.2493,-313.7709,335.7511,15.6013,-150.1619,82.1693,-16.6370,59.2474,191.9864,-305.9861,-273.0788,154.7906,15.1857
-1960.9375,-84.6820,-293.8358,99.8583,-226.1130,116.1943,31.0920,151.5119,77.8917,-140.4996,180.1059,-103.2321,-380.1348,7.9324,-25.1434,-60.3672,126.5069,69.5503,385.1082,144.1425,-30.6301
-1953.1250,-178.8132,-282.5488,-155.2500,-181.0746,-102.1785,33.0943,-29.9379,79.6251,-27.1453,217.5739,-136.9462,-84.9909,-22.7329,86.4420,162.1229,133.8300,-60.8280,184.3689,82.5827,154.6423
-1945.3125,23.2654,-150.0701,60.8098,20.1364,149.5994,66.2374,184.7764,38.5031,-179.6589,213.1852,-68.5072,-54.7020,137.5286,-28.8309,340.7638,60.2239,-316.0680,-281.2484,-102.8327,39.0335
-1937.5000,-354.1198,-351.0366,-84.5941,-112.1212,-142.1043,-79.0725,39.0340,-107.0680,188.4082,250.3575,-396.5511,-125.8762,-181.6877,46.4599,-62.0653,123.1963,288.2668,535.7219,11.3179,186.9693
-1929.6875,-408.5114,-157.9868,-68.9955,43.6249,56.2070,10.6454,18.3045,165.3887,-200.5635,376.5524,-86.5695,181.9464,45.4234,61.7494,210.1206,185.1387,-328.4537,-292.3622,-44.5303,201.8888
-1921.8750,-252.7468,-73.7726,21.7539,-118.4991,73.6696,-81.4921,145.7395,72.9900,110.6432,99.8985,-215.4381,-21.1083,-47.3557,5.1701,6.4313,76.4042,-69.0006,107.7534,2.7740,108.9363
-1914.0625,-421.1080,-170.6834,-272.6667,-181.7678,-185.0301,-45.7794,-38.9933,72.4382,365.7118,62.1054,-289.4510,87.7061,-138.2989,115.4438,79.5882,87.0127,-27.7075,184.7051,79.9265,290.8299
-1906.2500,-116.4183,-111.5683,-58.0705,-19.0152,102.2797,19.9320,174.2854,101.8856,-8.2396,128.3027,-38.4560,79.5317,143.7810,-2.2883,402.7405,32.2831,-463.4334,-460.3815,-37.9249,136.6953
-1898.4375,-190.6635,-256.4026,-175.4306,-164.2277,-198.3857,-59.3162,19.6019,-88.6338,388.8919,194.5550,-302.4191,-74.5927,-183.8389,27.0310,-45.0856,69.0409,163.9197,378.6243,60.2774,165.6012
-1890.6250,-218.7883,-108.1044,-206.6829,51.6581,-82.9392,129.5320,-47.9762,99.9473,26.1046,199.9222,-75.2418,187.3940,-11.5241,105.4345,180.2119,114.6953,-252.6687,-248.3279,-3.4293,170.5963
-1882.8125,-104.8023,-133.6909,30.1750,-9.3627,116.6137,109.4747,114.5532,6.6119,5.4349,-41.6287,-95.9691,19.4646,11.1373,84.9209,12.5967,40.2526,-69.1306,6.8588,3.9563,2.6712
-1875.0000,-440.9813,-152.4228,-72.1263,-65.5102,-96.0001,43.2768,-98.0946,-58.8823,159.6178,2.6673,-270.8473,99.4007,-168.1077,129.2634,-163.1849,77.9499,226.2816,372.9130,52.1926,156.5915
-1867.1875,-98.3722,14.6306,105.3388,206.1172,192.1528,111.8373,80.0065,45.3670,-250.4862,-3.2866,55.0452,204.1058,122.7703,13.3457,123.7776,11.0753,-275.5750,-445.3195,-63.8223,40.2371
-1859.3750,-16.2934,-148.8454,5.2428,-65.8289,-19.2743,-25.1677,-21.4439,-91.9523,199.8918,-103.7993,-228.6232,-44.7352,-142.0931,-14.1214,-196.8470,-23.8560,331.0477,302.9534,51.6264,49.3228
-1851.5625,-169.0396,-196.1307,-48.7047,26.3830,35.4476,66.9747,-112.7402,35.8888,-2.5924,60.8387,-136.1122,157.5919,-22.4071,40.5526,77.6936,47.7521,-33.2254,-237.6772,37.2262,140.5508
-1843.7500,8.6929,-158.9436,141.8129,-41.9507,227.6237,1.5502,114.4227,-29.8239,-106.6301,-42.0712,-18.1447,54.3513,103.9250,-25.3462,121.6771,-34.4814,-69.0419,-305.8522,3.2701,0.2036
-1835.9375,-167.5789,-158.7532,-88.6783,-184.2835,-150.2164,-118.8807,-79.4331,-223.5377,214.3431,-14.9720,-101.1755,116.1202,-120.2707,37.7509,-109.3351,-53.4018,280.1486,218.9817,70.3156,172.8499
-1828.1250,-2.6137,6.6342,50.0431,50.5899,98.1562,-17.0971,58.9175,-48.0351,-87.5010,-24.6734,148.0168,255.1212,140.3138,-7.9460,212.8665,-76.5743,-328.5041,-600.0518,59.5533,90.6771
-1820.3125,-49.8922,-180.2398,75.5065,-103.8141,-24.7447,-101.5778,84.0231,-169.7987,303.4400,-145.6307,-120.0577,21.8918,-93.1414,17.1194,-166.2154,-73.3868,220.6268,159.7029,150.5507,41.2493
-1812.5000,-28.5240,-18.4225,-18.3939,-47.5567,-118.0017,-121.4094,-83.2266,-116.9076,-10.9904,-19.9270,6.5292,405.3535,-73.3722,32.8331,-76.6368,-52.5967,63.3815,-135.9443,64.1986,130.4725
-1804.6875,355.4089,330.9823,170.2622,-17.7378,70.3015,-116.6915,31.0769,-112.4648,-409.8796,-51.6690,159.6743,521.3430,79.5387,-108.9190,74.4918,-144.1159,-116.3179,-421.0532,-45.6104,-85.7750
-1796.8750,92.0948,315.1364,-73.3379,-106.1799,-283.6669,-212.2291,-174.8944,-208.2794,44.0213,-148.6506,-192.4284,608.0713,-256.9829,15.0777,-242.6460,-116.8019,427.7549,298.6090,41.3273,0.7287
-1789.0625,133.7731,462.2610,-27.9600,215.3417,-18.6765,-57.8113,-57.9292,-17.1482,-242.1609,-141.6915,-1.5414,872.7895,-16.3937,22.0346,95.1720,-109.8148,-201.2565,-574.8396,-24.8042,-65.8318
-1781.2500,203.4274,285.3431,9.3866,2.8109,-18.7399,-167.4590,15.9788,-164.0993,88.5990,-214.8084,-183.7160,615.4813,-171.1068,-14.0575,-199.1010,-143.1992,183.7278,20.7096,8.0124,-139.4575
-1773.4375,-46.9546,141.4074,-149.3253,-72.7502,-214.8499,-142.1650,-143.1706,-67.1101,111.2857,-43.9672,-121.9378,602.1693,-192.6755,83.7854,-137.4191,-35.9591,107.6413,-19.8171,72.7846,30.8631
-1765.6250,154.5333,203.3559,102.8238,-13.4496,73.9052,-1.0215,71.5464,75.7277,-114.1846,-12.2866,57.6971,412.7121,34.7679,4.4563,77.1223,-27.1203,-289.6161,-522.5091,26.4050,-121.9922
-1757.8125,-121.9984,-2.6971,-46.0455,-150.1575,-184.3610,-112.8767,-40.7491,-73.4380,399.3747,-124.6151,-236.6796,227.2654,-236.1185,76.1340,-255.3556,-22.0534,311.1486,254.8407,135.0297,-13.8524
-1750.0000,-51.2832,68.5143,-11.6610,130.4006,-4.3686,-4.4627,-6.7968,34.6605,-45.8530,-126.6847,55.2033,518.1094,23.3755,74.0715,72.4341,-47.0698,-182.8778,-554.6182,62.9039,19.5243
-1742.1875,113.6123,21.8860,125.8702,-22.9082,95.7523,-87.9139,93.3117,-123.1068,-55.9134,-210.6059,-64.7920,287.1294,-7.7709,-9.8421,-48.6497,-112.7616,120.2862,-110.8973,119.9319,-64.9650
-1734.3750,-173.7154,-88.9643,-109.8602,-135.4652,-140.3909,-102.6268,-68.8356,-64.1326,184.7783,-42.7675,-190.0427,344.9370,-169.4312,83.9812,-137.9955,-3.4417,182.2007,93.5595,216.7141,102.2954
-1726.5625,-11.9122,144.3066,64.5237,25.0957,181.5891,34.7545,142.1409,109.9436,-44.4483,-125.8322,132.8151,335.8541,117.2587,37.8825,109.7652,-38.3377,-324.8049,-589.9185,96.5910,-54.3647
-1718.7500,-196.0647,30.6238,-22.0544,-90.3036,-53.3992,-88.8192,18.1573,-87.9389,420.4119,-248.8529,-137.2993,137.8361,-115.9366,61.8363,-160.4437,-74.9885,227.2654,244.7010,120.5142,5.0216
-1710.9375,-227.4688,-1.2941,-132.8851,88.0714,-18.6313,20.3687,15.9150,57.9367,123.9870,-67.1278,8.3538,356.6157,39.5626,59.5560,167.1138,-24.2999,-298.9493,-385.9872,87.1814,76.1486
-1703.1250,-78.5432,-97.8550,26.6555,-45.1971,142.4943,-2.0959,213.0269,34.1449,62.9051,-91.0826,-87.6634,112.7710,52.2941,-0.3610,107.0011,-26.8517,-186.7855,-168.3091,129.2047,-58.3935
-1695.3125,-411.0218,-288.8009,-182.2123,-202.8612,-66.7941,8.0301,39.7171,44.9407,294.4257,29.5534,-296.0846,86.5608,-159.1098,120.3209,-102.5228,96.3033,111.9977,271.9725,251.8324,98.6661
-1687.5000,-195.0906,-143.3667,11.2911,45.8345,309.2794,165.4920,196.7622,202.0926,-174.7363,38.5333,7.8617,169.7186,116.1584,55.3318,89.3107,89.8101,-412.8844,-463.4383,148.7984,-39.9382
-1679.6875,-128.8332,-285.6401,-29.8996,-99.2073,157.6266,14.2394,118.0966,13.5349,224.4265,-150.1891,-215.9057,-55.8133,-98.9212,14.6368,-245.5793,13.7514,215.5737,376.5008,179.0719,-45.2371
-1671.8750,-214.7277,-161.0664,-53.2365,24.6022,97.8186,101.8362,-15.7234,63.8394,54.4401,-63.0460,-127.8118,141.5484,20.9302,27.8000,98.3984,17.7212,-49.1527,-63.7721,90.1941,41.3183
-1664.0625,-104.2794,-50.1392,179.7815,63.7632,293.3687,113.7677,179.8151,38.4800,-8.1909,-124.5518,-153.3795,6.2815,77.0983,-70.6889,72.7144,-26.5178,-80.5121,-94.7021,-12.3313,-131.7937
-1656.2500,-450.2748,-149.6343,-116.6548,-108.4811,-4.5321,37.2556,-7.1083,-75.3251,319.6859,-54.5003,-375.3834,3.6150,-201.6930,73.3684,-224.3974,47.4188,345.6461,506.8461,61.6878,11.6450
-1648.4375,-172.1578,23.9855,29.0324,134.3891,251.6828,109.8351,65.0845,70.9595,-269.3435,54.6440,64.6999,150.0456,123.3043,34.5078,104.5869,44.3126,-257.0761,-340.4992,-48.1987,-63.8374
-1640.6250,66.7797,-159.5724,168.5487,-50.9138,96.7191,-8.7420,20.1183,-120.9140,15.5117,-100.3590,-16.3894,-152.6513,4.4181,-46.4878,-124.5882,-48.1204,261.0818,353.0441,-58.2261,-109.4572
-1632.8125,-32.8565,-151.7322,57.4805,25.1796,-52.8093,-9.9124,-127.4239,-49.3667,13.7300,-28.9691,56.9504,67.0952,37.4765,-49.0819,57.6758,-42.7367,89.5710,76.8936,-88.8546,35.3144
-1625.0000,95.2543,10.8494,194.1446,44.9917,305.3990,-19.3518,118.7861,-22.0859,-217.2633,-112.8419,194.0007,56.6016,218.5226,-95.9269,157.6495,-96.6488,-137.1375,-289.4355,-139.7213,-86.1628
-1617.1875,-111.1509,-159.0472,-66.7067,-196.6696,-30.9038,-171.2885,-33.5226,-137.2998,218.2219,-80.1982,-66.4399,14.6623,-82.9155,45.7337,-141.8681,-36.4317,323.6342,416.6788,-31.0884,91.8679
-1609.3750,-77.6341,-125.0326,76.3805,-24.3994,112.7094,-63.3271,36.0771,42.3759,-115.4177,136.3309,224.0315,159.6377,164.0795,79.2762,221.5154,36.9084,-312.6854,-500.3310,-139.5685,87.7756
-1601.5625,14.5615,-173.3395,175.1679,-179.4362,99.9858,-112.6894,97.3556,-80.2690,165.6771,13.5544,29.1806,-109.6712,45.5896,-6.4745,25.5705,-24.4425,23.7536,12.4109,-154.3403,1.3931
-1593.7500,-158.4762,-64.8987,-124.2770,-107.7174,-125.9598,-154.3037,-91.6035,-85.1548,232.4891,117.5367,-11.8942,67.8148,9.2975,-11.4776,203.4234,-29.1079,23.8773,-22.1954,-84.3742,141.7578
-1585.9375,92.5929,186.6114,33.3638,37.0614,141.1862,-143.8405,101.5486,-1.9558,-88.5512,90.6111,219.0938,79.4050,244.5821,-112.3728,434.3571,-90.0948,-358.8539,-545.6414,-150.2951,4.2227
-1578.1250,-51.7592,42.7180,-123.4157,-178.5490,-236.0815,-264.7711,-54.7095,-159.1469,343.0034,43.2949,-47.3269,31.6398,-136.2254,23.3495,-91.1067,-44.6228,268.9993,257.4859,-50.6081,103.3056
-1570.3125,107.8935,132.8318,-68.1661,14.8671,-145.3176,-99.6965,-110.9514,41.6669,-80.4747,97.9720,227.2658,307.8901,30.0382,115.0613,109.4352,17.3673,-241.1652,-497.4342,-138.9228,120.3711
-1562.5000,320.1547,134.5629,83.7210,14.9244,-66.9322,-130.9886,4.4434,-62.8895,-2.2562,-43.6982,123.4762,92.8034,10.6342,-26.5819,4.5959,-74.3831,39.3863,-181.6420,-140.5756,-21.9055
-1554.6875,23.0284,48.8859,-125.7850,-2.4051,-239.9246,-193.6816,-168.5590,-88.8274,154.5277,76.2537,-11.6913,214.3602,-116.5282,-15.6258,-58.6004,-33.0434,196.4815,45.6530,-88.6313,134.4187
-1546.8750,210.6091,201.8799,74.4228,43.9405,106.7850,-140.6918,30.1484,-0.0781,-269.9651,18.9002,261.8118,267.6166,208.7544,-73.9631,323.8799,-97.5429,-283.6840,-646.3124,-147.9759,39.4398
-1539.0625,64.8646,22.5607,-44.6932,-244.0219,-160.8327,-224.0101,-16.4599,-119.6364,196.2473,-100.7383,-40.9867,36.6118,-76.2975,62.4110,-16.9304,-60.8259,306.8511,191.4151,-14.6109,102.1825
-1531.2500,-66.9585,30.1522,-76.8968,-26.0702,-119.5142,1.5726,-85.1475,67.7110,-55.6722,49.5204,110.1414,189.5270,47.0140,66.6710,171.1931,19.9249,-143.7575,-365.0269,26.6454,142.8139
-1523.4375,64.6761,-83.7913,141.3841,34.3694,135.2859,35.6403,95.6618,-7.4559,-96.0348,-25.7391,108.7215,-70.0582,98.5033,-45.5679,21.7769,-24.9712,-48.7910,-198.8830,16.4155,-44.0467
-1515.6250,-140.8695,-147.9048,-44.4717,-31.3036,-162.0382,-4.4359,-90.6723,-120.7578,158.4301,43.8544,-76.8444,-34.7502,-120.3814,24.0501,-165.7572,12.3670,234.9869,261.0315,54.0326,98.9490
-1507.8125,114.0302,72.3959,41.1441,187.4660,34.1031,81.9257,31.4589,75.3754,-196.6378,92.8946,156.0136,161.0047,116.4711,-36.8855,177.1456,1.5628,-354.7454,-539.5754,-7.8955,0.3872
-1500.0000,95.5017,-16.7330,-126.6624,-79.1755,-171.1914,-87.1146,-27.8302,-20.8955,184.9183,-2.4502,-158.5481,-7.6182,-160.8662,14.7895,-138.3538,6.7428,188.1469,249.4351,111.7891,14.4480
-1492.1875,-84.0484,15.0887,-284.5032,21.1459,-181.5101,12.8043,-111.1550,189.7983,-45.6253,97.1581,-95.1300,203.7336,-110.1565,77.4133,-2.8593,101.6935,-64.0691,-142.6886,141.4125,113.4544
-1484.3750,127.7814,121.2770,18.0410,91.8405,157.5474,58.0981,80.9119,197.8766,-257.7246,-77.8377,-12.3442,65.4902,28.1861,12.4401,-30.9939,43.4160,-135.8236,-213.3358,70.4445,-99.1273
-1476.5625,-88.8212,151.0527,-30.8222,-56.8512,-112.7800,-28.0100,-151.4254,1.5666,22.7619,-127.2143,-207.9484,90.8932,-232.1532,74.0737,-374.5028,32.7056,349.9831,446.5484,97.0816,-2.0931
-1468.7500,127.4614,404.6918,88.2427,160.3589,78.8239,53.7731,-107.8390,83.1497,-409.8410,-8.6940,94.3270,357.1956,35.0242,-28.3926,0.8874,-14.5019,-173.2897,-427.6725,-3.3764,-68.1686
-1460.9375,202.5992,374.1861,93.1956,-47.5400,-63.6959,-125.5531,-140.3681,-96.3743,-112.5074,-78.2732,-84.5461,214.4155,-132.9302,-97.9441,-215.8424,-84.5204,287.3949,243.0495,-0.9217,-101.3232
-1453.1250,202.5049,585.4294,-132.0883,92.3324,-289.4406,-94.1250,-329.1335,-66.1263,-191.4698,25.9117,-16.6457,577.4113,-188.7219,-30.7520,-147.7820,-64.3913,74.7730,-39.5784,-72.7214,2.2724
-1445.3125,720.1837,1068.4302,123.4101,326.9637,-108.3987,-95.9116,-184.0886,-104.0869,-597.5848,-160.0966,167.0236,871.1899,-80.3415,-178.7580,-150.9390,-222.4223,-149.0006,-508.3386,-296.7026,-257.3195
-1437.5000,891.5680,1662.1321,8.6340,251.3389,-553.6108,-283.9427,-556.2861,-366.2780,-418.9479,-348.3315,-94.5486,1345.7516,-540.5932,-146.9998,-743.3158,-332.4561,478.9401,188.6017,-372.9210,-299.1323
-1429.6875,1573.1416,1744.9921,174.0829,649.9205,-426.5892,-155.7767,-612.2578,-238.2656,-990.1212,-367.3708,291.0788,1474.5176,-290.5006,-166.0433,-469.4746,-364.9359,67.0660,-644.2907,-571.9362,-429.7473
-1421.8750,1709.4036,1495.5538,361.2684,715.2415,-497.8450,-226.8743,-610.4989,-382.5222,-803.4957,-512.6555,257.4136,1220.0411,-341.2578,-200.3185,-650.9070,-418.3913,555.0062,-87.3750,-649.1888,-611.5864
-1414.0625,1656.7705,1442.2034,265.5726,872.6927,-702.9762,-249.8686,-816.6346,-405.6574,-752.8091,-387.8228,235.8693,1198.6841,-447.2652,-149.4975,-746.1918,-362.8434,676.9962,-36.4525,-633.3502,-561.3171
-1406.2500,1419.6442,1206.3052,650.3669,1057.6210,-282.6147,-85.3801,-506.2583,-242.3068,-994.5843,-371.4929,509.8015,957.8024,-104.6049,-244.1812,-546.9878,-327.1753,333.5385,-484.9723,-624.9994,-729.5404
-1398.4375,1348.6747,1170.5726,462.3279,597.7372,-508.0611,-236.6973,-547.6895,-429.7398,-484.1607,-485.9389,138.9329,954.1441,-422.6034,-284.6503,-881.5681,-396.8762,823.2708,392.6847,-486.4356,-697.5329
-1390.6250,1381.8757,1239.0077,344.5178,630.0521,-368.2602,-133.8079,-517.8964,-253.9598,-822.5602,-310.1756,389.2718,984.6898,-187.6722,-255.9199,-485.9206,-339.6596,293.1701,-314.5078,-489.6744,-595.3248
-1382.8125,1275.2550,1132.6173,453.9488,557.5954,-259.2307,-208.6799,-371.8587,-328.9421,-750.6427,-384.1591,351.8070,873.4856,-153.8428,-293.9270,-524.0441,-373.5354,431.3849,-0.3755,-492.6486,-633.8412
-1375.0000,1363.3130,1220.8906,170.0902,433.8721,-507.4795,-235.8360,-619.1104,-429.2055,-484.0547,-375.4353,67.0628,994.0155,-403.8807,-210.2214,-623.4297,-374.0013,552.2498,297.3646,-475.9269,-477.6433
-1367.1875,1226.9274,1084.6791,323.7870,507.6895,-22.1731,-45.4503,-318.7987,-274.9315,-660.8959,-331.1776,184.8528,855.0689,-78.2940,-203.9658,-213.2787,-332.2861,-42.2865,-368.3049,-472.6494,-544.8931
-1359.3750,1190.9030,1083.8318,-11.1465,118.8980,-210.4847,-196.6693,-286.1006,-463.2587,-113.3132,-372.5050,-259.9695,851.5296,-404.4180,-208.3063,-474.7139,-374.2357,378.5892,474.4330,-369.9651,-512.7134
-1351.5625,1260.7255,1189.8085,-239.2088,223.9656,-217.9015,-130.0417,-293.5187,-286.7206,-341.8977,-195.9708,-46.9341,844.8398,-249.1532,-178.8150,-151.2536,-314.1108,-115.7290,-90.0458,-370.4356,-373.6841
-1343.7500,1065.2384,1063.4558,-0.5320,202.7514,20.4214,-76.6837,-93.1811,-196.4447,-361.6692,-326.6790,117.8041,309.8778,-52.7960,-272.5616,-135.0680,-321.8190,-102.2296,29.3071,-322.1346,-430.8823
-1335.9375,413.5640,1256.8994,-141.0010,-97.5928,-268.3926,-106.4641,-233.9837,-227.2998,12.3835,-246.5217,-132.5891,59.7932,-287.4518,-155.4386,-347.9987,-218.7081,231.0795,573.4323,-164.9806,-204.2079
-1328.1250,155.6257,894.0441,103.2950,-4.1874,196.5557,63.5087,9.9806,16.5865,-295.7971,-76.6343,0.7582,9.4414,51.9467,-95.5581,78.8189,-84.0201,-378.8326,-213.6709,-107.0713,-181.7803
-1320.3125,-189.6649,160.8460,30.2612,-279.0908,160.1799,-9.8247,157.6254,-56.8297,71.7564,-39.0447,-292.2136,-393.2073,-63.4951,-21.9643,-68.6590,14.4775,118.9941,565.9576,73.5502,-71.6201
-1312.5000,-432.0071,-10.4245,-159.7897,-171.0351,115.7932,56.7982,76.2366,46.7185,-7.7858,137.5177,-114.2113,-325.9071,77.6952,44.5668,218.8611,89.1896,-124.2758,181.4530,111.1115,141.4928
-1304.6875,-166.6443,-132.0072,45.9160,-82.2593,323.1385,5.1519,283.5887,32.0012,13.4744,49.8423,91.5084,-596.8888,276.2325,-79.1480,351.1031,-1.8072,-246.7222,-82.2231,23.4294,53.3756
-1296.8750,-460.2697,-566.5995,-159.3265,-235.4192,6.5389,-163.4368,114.9854,-99.6466,579.7826,138.2405,-186.7127,-802.8035,-2.5164,8.2065,72.4289,64.1755,267.8507,573.0881,151.7966,251.3357
-1289.0625,-506.2502,-682.6085,13.0921,-34.9295,324.6232,8.6263,248.0633,71.3689,198.7564,272.2756,57.7079,-704.0932,281.7830,32.2126,389.4131,134.8609,-305.9228,-246.9527,105.8249,274.9482
-1281.2500,-602.0494,-990.4276,94.7162,-272.2162,295.9472,16.9321,330.3900,42.6311,391.0289,134.5621,-190.6544,-990.1370,156.2027,77.4807,177.6352,173.4078,124.5976,394.3097,219.1363,282.8430
-1273.4375,-886.6774,-1098.0599,-173.4606,-240.3001,138.5121,115.4471,172.9472,179.1142,343.4661,307.0667,-201.7984,-853.9702,153.2790,176.9383,350.1159,288.5919,16.2583,250.6811,322.6507,454.9479
-1265.6250,-734.6462,-911.0514,-44.9359,-123.7152,376.7700,206.6472,410.2182,306.2822,250.6521,250.2804,-36.2796,-908.1374,338.9464,84.1039,515.2841,249.8335,-325.3232,-197.1760,260.8785,288.7697
-1257.8125,-1052.7162,-1088.1628,-199.4710,-371.1661,37.9754,125.8022,256.4377,152.4167,794.7872,206.4730,-301.8123,-1063.3467,42.2118,186.2395,176.4253,277.9879,201.0265,574.8784,365.0636,427.5783
-1250.0000,-1090.5411,-1126.0957,-167.7315,-199.3621,216.4669,304.2122,287.9370,330.8139,348.1640,383.9214,-49.0969,-847.3339,292.9605,217.6257,538.8431,351.3202,-365.3900,-202.8452,327.5044,458.6430
-1242.1875,-931.1292,-1353.8132,-107.7167,-286.2914,312.2336,216.9093,420.7322,279.5136,480.9110,296.6847,-210.1244,-1081.0452,217.3386,167.3252,340.5504,336.4938,-65.4576,237.8018,415.2721,371.0422
-1234.3750,-1197.2950,-1480.1124,-357.2591,-306.7625,174.4780,225.0688,318.9945,361.6948,636.0871,195.9265,-311.6808,-925.3022,144.5371,249.4709,349.7530,360.5000,-16.1362,357.8115,429.4951,525.9087
-1226.5625,-939.9490,-1362.8990,-82.2570,-189.7107,558.2671,314.7658,518.8106,377.4205,138.8489,-45.2707,73.2891,-871.0430,531.7147,155.1687,696.4796,211.9803,-427.2125,-229.5655,299.2827,395.3408
-1218.7500,-1031.6683,-1560.7373,-72.2703,-422.6571,312.0415,178.4638,382.6056,94.1586,442.6171,2.5566,-136.7469,-1080.7780,270.9267,165.8897,303.2250,208.0822,148.7138,662.0528,383.0767,478.8137
-1210.9375,-1141.9019,-1424.1458,-78.7443,-216.0918,379.3558,245.6794,376.9230,161.4173,252.8621,289.8864,3.7273,-866.0420,406.2766,196.1154,590.5090,275.5474,-348.8873,-10.8744,379.3690,508.7934
-1203.1250,-1108.3884,-1426.8516,0.5602,-359.7498,493.4455,139.6868,528.0330,203.4711,588.9666,221.0237,-138.0334,-1081.5386,362.2660,164.1510,521.5749,267.1064,-245.6209,197.0814,410.4843,329.6049
-1195.3125,-1359.9456,-1642.6469,-268.1956,-504.4485,189.5071,91.6551,334.1087,302.4968,981.9874,137.1457,-259.8248,-982.0840,169.6519,300.1425,363.6461,326.6446,-3.4601,508.9029,546.5460,465.3900
-1187.5000,-1004.0257,-1392.9906,-39.4478,-219.6726,490.0775,247.1141,451.7105,420.0201,254.5399,34.7853,152.8629,-789.1962,480.3390,197.6349,555.2126,255.4509,-493.7670,-191.7273,444.1135,362.6862
-1179.6875,-844.7256,-1339.9252,-57.2813,-272.4574,252.0867,154.0250,285.7564,108.0022,272.5846,162.8999,-86.0165,-918.8948,165.8216,141.5931,59.2362,252.0617,158.3896,635.1149,462.1411,380.4665
-1171.8750,-870.6450,-1225.0940,-161.2979,-121.4191,184.9409,270.7555,145.6297,260.8108,-14.5922,536.8222,-6.0685,-690.8322,225.0081,185.3462,323.0956,387.8195,-219.6949,81.6918,400.9608,460.0444
-1164.0625,-767.1147,-1262.8513,-84.8251,-264.9015,371.2779,236.9824,368.9993,374.1185,172.7795,466.2489,-112.6511,-834.3242,261.4458,151.6098,399.4291,386.2083,-292.2119,7.8602,398.3033,316.1435
-1156.2500,-1069.9707,-1320.0099,-370.7094,-532.7292,48.2820,97.8707,194.0264,346.1059,694.7757,437.3638,-362.5644,-827.1716,-12.8243,269.5333,187.4634,423.8528,73.8730,478.6068,483.2960,470.9173
-1148.4375,-859.9421,-1039.3140,-146.6966,-287.6784,308.2033,211.6517,305.9882,458.9963,256.6976,477.3905,-28.5929,-639.1560,283.7953,162.3559,520.4062,370.1398,-526.1307,-401.7291,340.1993,363.5933
-1140.6250,-748.5721,-1069.2839,-27.3221,-387.2411,97.4988,72.8289,278.3374,210.2891,596.0635,449.8282,-203.2561,-777.7437,57.0334,97.6039,162.7491,309.6963,-27.7002,271.3757,311.5218,298.7097
-1132.8125,-791.5814,-971.6553,-152.2811,-289.1304,-26.5153,132.6764,155.3557,196.2545,545.0431,435.9164,-33.2489,-497.6851,107.1518,157.5085,295.7890,278.5012,-246.6633,-52.9434,198.4944,431.4940
-1125.0000,-445.3954,-802.8538,-3.9936,-259.8057,229.7062,95.7627,301.6194,196.4532,325.3404,326.2587,113.9664,-496.4203,261.6410,83.6695,405.0554,192.4658,-393.3049,-304.9190,51.7359,284.5612
-1117.1875,-592.9124,-844.7585,-237.3695,-371.1314,-149.7232,-26.7944,69.2266,37.0186,569.9989,386.9802,-119.4693,-509.8013,-24.7228,181.1926,136.7125,233.4595,129.3769,391.4064,116.3334,419.0170
-1109.3750,-385.5952,-637.8773,-90.8775,-93.6156,70.7277,45.5055,104.7125,220.4430,55.5078,533.5504,173.9370,-252.3673,212.2968,70.5708,392.2328,239.7370,-438.0890,-421.4229,5.7860,344.3308
-1101.5625,-314.4114,-637.1214,24.5375,-198.1741,39.0986,-96.2512,147.1399,41.8129,318.0111,466.0942,-3.7435,-431.0016,34.7815,-34.0790,30.6913,176.3714,-14.5548,176.7633,42.2115,239.6357
-1093.7500,-558.1743,-600.2969,-197.9510,-89.6241,-109.3944,-61.8984,-38.3024,40.3095,389.5972,537.7736,-43.3062,-212.5389,-17.5021,37.3744,102.3037,205.7296,-11.9825,74.9590,45.7370,348.0584
-1085.9375,-389.7798,-432.3483,25.7525,78.0970,186.3051,86.6439,184.4731,115.0013,97.4390,356.6605,105.2944,-246.9194,228.9633,-33.9657,362.0956,128.1672,-335.1533,-390.5649,-67.5197,129.7025
-1078.1250,-589.8934,-525.9218,-185.0189,-120.6282,-96.4468,61.7516,84.7913,16.2675,512.8268,220.1266,-250.5620,-346.7598,-92.1779,86.2685,5.4734,157.9838,204.2150,359.4369,50.7835,176.9357
-1070.3125,-426.8273,-363.3519,-197.5712,42.8393,74.0475,195.0721,145.3462,260.7440,95.4010,280.7884,30.7879,-138.4364,127.4536,109.7015,286.0803,201.7615,-336.2339,-426.3918,2.2854,164.3786
-1062.5000,-101.5816,-320.6009,-35.9043,-159.4743,88.7724,99.6293,234.1456,201.4583,184.2891,112.6931,7.3523,-344.8909,55.7383,14.4072,43.9127,123.2058,-80.3744,-31.8913,10.0529,32.1127
-1054.6875,-258.7114,-337.2245,-167.5829,-210.1141,-152.8256,41.8468,-44.3873,142.8378,309.8063,164.2566,-50.4140,-108.6926,-87.6723,102.7625,-50.5599,146.6840,114.0857,128.1714,31.4704,157.5190
-1046.8750,-48.0667,-163.0983,59.5469,70.0291,258.3767,84.8558,182.8936,150.0058,-87.8427,97.6217,103.5931,7.2544,177.4613,-0.0816,213.7549,58.2460,-307.6027,-505.9006,-76.2970,-19.2599
-1039.0625,-267.4237,-206.9870,-23.2900,-42.7877,28.6117,-35.0760,101.2019,-114.7623,272.5669,-57.9365,-162.3548,-147.7631,-95.0777,28.1423,-198.8640,4.9148,317.7685,366.0862,22.9998,9.0515
-1031.2500,-259.2309,11.6207,-15.5540,106.9533,72.4307,45.5562,34.0772,1.0419,-15.4910,-13.9327,175.2628,78.7365,124.6837,-2.0878,102.0877,-22.1768,-130.3340,-258.4235,-73.1510,52.9191
-1023.4375,93.4966,47.7583,176.7502,-67.7228,191.8174,-56.2210,79.5382,-63.5590,30.1226,-41.3209,220.4493,-97.2085,129.7551,-66.6987,0.6020,-72.6449,-57.7628,-81.2374,-107.6798,-85.5799
-1015.6250,8.8850,-178.4476,7.7464,-150.6793,-124.0779,-151.2762,-198.2957,-84.4378,156.4144,10.0027,124.3516,-44.4594,-71.0250,58.4057,-204.1322,1.8459,280.4633,327.5777,-49.5093,76.6467
-1007.8125,230.3010,6.3439,208.8061,140.3871,187.0930,-61.2766,-35.0569,-31.2734,-340.2320,-82.6250,325.2758,118.2857,213.1033,2.5662,143.1786,-73.8723,-201.2220,-400.5073,-179.2806,-53.0681
-1000.0000,169.4384,-54.1178,147.6414,81.2328,-20.9503,-158.4675,-96.0297,-275.2994,112.9343,-215.4301,-67.0268,-53.1908,-73.9573,15.5494,-174.7068,-119.5929,442.9182,419.2411,-134.2306,-76.9461
-992.1875,-10.0333,46.7777,-6.1055,289.4930,-27.5580,18.7547,-174.5719,-170.8970,33.4784,-111.8283,37.0981,197.7068,29.6558,8.9279,76.8455,-98.1182,88.4127,-76.6741,-135.7758,-9.4185
-984.3750,192.7146,108.8562,178.3767,140.9669,194.0614,19.2131,83.1350,-61.2552,-39.6571,-147.9777,184.4462,13.8057,156.2197,-137.4365,77.6116,-134.2972,-94.7762,-190.2462,-109.0546,-192.6160
-976.5625,-40.5339,-54.0609,-72.1102,-266.5102,-93.2520,-47.2713,-57.1002,-16.5416,226.2477,43.9505,-29.1383,-89.0461,-124.3602,17.2618,-208.5333,25.7006,201.0424,316.1676,80.7236,-37.7332
-968.7500,105.3370,20.1091,47.5618,-120.8564,174.6101,109.3909,99.8543,213.3214,-205.6753,90.0374,237.4072,30.2023,150.9947,26.1123,131.4799,62.9188,-389.9714,-556.2461,16.6590,-101.6885
-960.9375,127.2395,-29.6877,73.2974,-204.1229,15.5364,61.1432,125.9024,55.2883,150.5552,-178.7507,-67.9775,-129.4821,-59.5675,15.0814,-137.4136,-14.4932,124.1532,98.4944,74.7109,-149.5000
-953.1250,-33.0280,126.3437,-98.1064,-46.5307,-118.6569,109.7556,-9.1864,104.1251,16.6200,-18.6753,-56.4798,139.6671,-71.4237,27.8929,-14.4133,27.7734,-69.9265,-165.9867,21.6101,-26.4484
-945.3125,269.5275,251.1742,115.3305,45.8795,94.9751,139.2081,130.5600,133.7959,-248.4122,11.2511,156.8455,95.6185,89.6378,-89.4343,52.4060,-13.2301,-259.0805,-496.5150,-62.6325,-180.5227
-937.5000,133.5714,9.4808,4.2538,-89.1943,-272.9026,29.1814,-162.2242,-13.0150,157.0304,-62.3066,-27.3209,58.0686,-188.0107,57.7570,-278.2559,15.3696,275.2557,283.4260,-20.3783,-33.0657
-929.6875,218.4650,163.6030,58.0571,136.5866,-72.9081,156.0148,-110.1452,151.0280,-303.7003,-45.0129,283.3608,258.3225,100.3540,73.7951,105.9362,15.6522,-271.5488,-509.7794,-76.2772,-52.7571
-921.8750,185.2616,165.6578,100.8331,-35.6545,-102.9410,-21.1524,-29.0794,10.0717,-39.3838,-148.6976,69.0032,42.5398,-33.7170,-29.1458,-107.8979,-57.0420,83.7067,91.0953,-2.1547,-119.4112
-914.0625,-111.9852,183.6688,-179.3896,-85.8881,-271.9464,-117.3000,-161.9875,-12.8564,194.9031,-60.3603,8.6697,239.7451,-100.7567,20.9236,-20.6841,-47.9420,103.9078,110.8951,17.9743,41.9498
-906.2500,268.3981,388.2619,116.0198,120.4920,96.6906,-79.8046,59.7724,-84.1448,-207.1039,-205.3665,267.9602,314.5469,146.4911,-124.3500,92.1537,-191.2932,-216.1870,-350.5733,-127.2328,-103.0240
-898.4375,315.0509,363.1216,14.6912,27.1692,-150.3889,-143.0059,-114.1783,-331.1255,-13.7956,-232.0522,19.5473,212.6488,-153.1277,-78.3099,-338.6970,-195.5168,359.0166,470.2437,-79.1339,-19.6643
-890.6250,436.7569,484.0138,-3.5657,289.9010,-22.3877,21.8512,-168.0577,-129.0515,-435.4516,-66.6935,185.1903,377.7678,34.4508,-59.2202,10.5180,-127.5240,-186.7381,-320.9178,-96.9901,-37.2509
-882.8125,434.0704,374.5078,111.8022,147.2591,56.2281,-10.6527,19.6834,-87.3423,-210.4066,-97.6790,-31.5457,87.4969,-46.4939,-127.4577,-131.6402,-104.1769,-12.7757,-7.3414,-28.1819,-179.1531
-875.0000,-27.5822,300.0343,-118.7809,-66.3231,-174.0870,-21.1014,-100.5158,12.4372,0.6624,2.4031,-188.2056,149.2720,-202.4695,-27.6374,-214.6982,7.8656,126.1783,237.2066,75.6721,-4.9860
-867.1875,81.0865,407.8622,74.9864,79.4115,166.9485,137.7796,131.6610,207.5532,-427.8660,-23.1691,5.4657,196.3531,79.0842,-89.4691,90.5750,10.9258,-360.4738,-390.8234,9.8802,-140.4558
-859.3750,-73.7986,182.1577,-12.7745,-74.3577,-30.5404,49.1580,43.3192,46.1693,-74.8792,-73.2208,-339.3640,-39.0722,-193.7023,-29.7891,-253.6608,43.8371,295.3913,510.6697,103.5920,-117.3874
-851.5625,-112.0215,283.0888,-16.8671,204.5326,38.6539,119.1991,3.6314,79.4429,-408.2887,-39.6295,-123.5059,214.1273,-30.1071,-33.4625,-37.2331,21.5661,-23.1102,-90.2205,-4.0555,-83.6659
-843.7500,382.9726,390.2184,215.2711,172.6440,161.0701,-16.5077,88.1601,-130.0484,-396.4160,-211.7902,-38.4248,113.5384,3.1547,-168.8649,-136.5990,-149.0625,121.7200,54.2492,-141.4415,-255.6668
-835.9375,357.6555,329.0264,35.1003,42.4735,-201.8122,-122.4869,-164.6231,-233.8138,-97.8787,-206.2392,-144.6331,117.6530,-197.8727,-90.5440,-277.2367,-144.6912,485.2125,488.3571,-130.1252,-102.9458
-828.1250,502.0797,472.5658,190.6852,294.0432,-9.9564,-40.7171,-45.6462,-78.8359,-529.5540,-160.9511,157.8875,235.4744,112.6528,-192.4702,134.8671,-176.4431,-37.5099,-279.7364,-195.0513,-167.4695
-820.3125,361.1531,295.7852,189.9404,84.2932,-194.4436,-224.2526,-155.9874,-226.1693,-125.4818,-160.9534,-99.9053,12.9843,-159.1818,-155.6824,-268.3423,-148.0342,527.5076,494.9121,-122.2690,-130.2575
-812.5000,114.5827,329.3401,76.5682,225.9040,-196.5451,-190.4265,-231.9602,-155.1432,-238.0958,20.3900,-67.3095,266.8238,-98.9896,-85.5518,-52.1789,-80.1762,212.8382,73.8573,-155.1468,-22.6931
-804.6875,202.5797,345.4457,251.7879,209.0856,161.9348,-163.0076,126.6501,-127.5347,-247.0722,-61.6750,-76.1443,109.2210,36.5150,-166.8046,13.5414,-116.4016,90.8483,-48.4900,-207.4153,-214.5104
-796.8750,-172.1421,215.8204,2.2894,45.5844,-87.2835,-155.2719,-11.4554,-192.6119,167.2242,-52.4200,-360.6655,6.9169,-207.3399,-47.7359,-198.4185,-46.5613,492.1357,528.4162,-88.3842,-95.0046
-789.0625,31.5092,420.5162,74.1436,217.4211,168.8583,27.8125,23.8013,26.6526,-275.1244,-16.8179,41.1588,224.9291,102.5828,-49.3175,167.9686,-45.6679,-216.2113,-390.3060,-199.0000,-169.1476
-781.2500,301.5613,336.6390,63.3957,-40.3180,-25.5913,-56.6670,-23.5005,-130.6498,-27.9576,-63.7618,-79.5949,66.3773,-101.2715,-59.4347,-136.2063,-81.0250,160.9379,197.4920,-138.1547,-178.8057
-773.4375,191.2334,296.4265,-167.6915,-8.3888,-182.3699,6.5056,-143.1223,5.7081,-75.1646,-0.0595,-54.6755,311.4785,-120.7658,4.0978,-36.6969,-25.2871,-52.3093,-52.1266,-35.6715,-4.8057
-765.6250,250.0867,248.3987,-26.5737,51.7202,143.0235,112.8551,145.4444,112.2427,-189.1434,-114.1634,-22.5775,122.7466,83.6638,-73.1605,179.9627,-54.3302,-308.2778,-308.4460,-10.9871,-155.5881
-757.8125,-158.4998,-21.0796,-161.9150,-179.6165,-67.0595,49.7563,46.5163,12.3325,263.3915,-175.6953,-304.9067,-52.4231,-165.5071,48.1457,-139.8297,5.4635,235.2994,480.7671,110.2430,-33.7901
-750.0000,-74.8910,132.5758,-36.0854,81.1954,171.0185,176.8119,26.7310,102.5683,-269.9489,-123.0915,77.9243,147.5268,132.8097,64.6003,171.5206,-1.4210,-275.9607,-311.8589,55.6237,-52.8439
-742.1875,146.8271,177.3464,16.8615,-12.8642,114.2074,83.0145,43.0618,-28.0576,-143.0985,-216.3440,-89.1339,15.6101,-16.2602,8.2193,-69.0171,-55.6774,88.0069,156.7630,68.1676,-145.7180
-734.3750,-117.2241,264.3831,-227.9368,-29.6495,-204.3289,58.4814,-164.3506,21.5796,-20.0407,-56.3430,-186.9282,247.9568,-159.1011,58.0972,-57.2830,9.7832,142.1815,140.5676,156.9500,14.6663
-726.5625,102.4709,448.1535,-26.9923,156.2913,-3.1340,76.6888,36.9849,113.9446,-222.1986,-37.6012,-22.9977,191.0212,19.0573,-70.2666,109.1561,-30.5988,-198.8254,-375.7891,97.4813,-150.1915
-718.7500,62.5978,231.3512,-106.6219,-22.3238,-302.5213,-76.6497,-116.2530,-2.2341,251.0984,-116.3899,-285.6088,0.5378,-314.6758,-2.1656,-373.9514,-3.8202,432.6191,430.3070,200.4642,-81.5702
-710.9375,156.8925,288.6906,-8.0877,143.2108,-131.7382,-14.8355,-128.3274,95.7379,-164.4782,92.9702,68.9450,244.1873,-77.8769,59.0794,-92.8960,48.6518,-139.7976,-352.4676,84.5927,-55.7982
-703.1250,307.6496,192.5146,154.9152,49.2182,-4.4994,-108.5369,-0.9300,-34.8155,-147.5040,-73.1782,122.9534,113.3184,-5.4917,2.8432,-112.3848,-50.1158,49.3625,-94.6310,-8.7666,-148.4974
-695.3125,37.9564,62.9107,-134.5399,61.7958,-256.7089,-103.6771,-179.9880,-65.8140,77.9890,-141.7778,15.5288,226.0206,-100.6331,118.1714,-70.2991,-38.8653,204.0342,130.6923,5.4096,77.3662
-687.5000,160.2759,255.3124,-38.9900,221.3650,60.0685,29.1639,99.9529,67.1584,-228.4980,-118.4010,186.0951,284.7036,140.6889,31.5035,209.7500,-61.3483,-339.2386,-623.9130,-46.4211,-8.7680
-679.6875,-25.1280,174.0133,-195.1636,-173.7744,-169.8883,-54.7118,91.1638,-53.5847,313.3175,-126.7110,-191.0336,53.6979,-162.6052,59.1420,-93.9125,-38.0485,145.8181,176.8158,87.0448,19.4291
-671.8750,-83.3103,255.9256,-257.1211,-125.7115,-158.6131,30.6082,-8.4087,178.8726,68.2897,68.1730,40.0666,247.8822,-30.6703,70.9685,138.6444,40.9551,-331.9511,-477.2917,65.6953,68.8231
-664.0625,252.0499,203.3705,-8.5524,-106.1261,16.1650,-13.5351,94.5449,134.8551,-49.1363,23.5993,105.6788,54.5951,30.8354,-46.6412,56.6992,-12.0624,-275.0925,-420.7339,15.8984,-85.2141
-656.2500,119.0675,68.4746,-191.3465,-96.8671,-350.4166,-123.0125,-161.8729,-11.5037,246.0567,98.6857,-40.0434,90.9868,-200.3146,-8.5883,-162.5877,3.8182,156.3894,45.4218,59.7416,100.4159
-648.4375,248.3056,267.7866,-53.9247,208.5868,-100.8067,-58.2956,-24.0992,90.3123,-91.5528,53.9562,281.4321,228.5673,77.9896,-17.3365,123.2887,-36.6562,-309.8759,-772.1731,-55.2208,56.2453
-640.6250,61.4825,80.0545,-65.5804,-10.0210,-260.2948,-143.6397,-34.4239,-67.9404,300.7993,-103.8289,47.8507,-40.8897,-123.7345,81.8862,-181.9190,-33.1446,244.8618,28.2391,41.7691,119.0577
-632.8125,-70.5113,53.1434,-136.4243,34.1846,-293.9612,-29.1831,-214.9543,8.6075,47.8935,47.1724,162.1013,144.4630,-16.9051,123.9146,78.6967,22.4310,-24.6295,-277.6031,17.5485,270.6719
-625.0000,244.6780,86.4187,165.9168,104.5638,7.5394,51.4627,-170.3098,-19.6715,-199.7692,18.3565,280.5072,3.9961,134.4794,21.1566,123.4584,-24.4397,-163.8373,-346.1280,-87.4708,96.4998
-617.1875,12.2574,-76.8831,30.6411,13.3597,-310.5755,27.5185,-453.2851,-117.5526,104.9578,67.9518,-38.6792,-21.0447,-187.1095,106.8023,-232.3858,53.7026,308.3365,442.7142,-37.0983,182.7427
-609.3750,-20.9776,99.9929,74.5270,227.3000,27.4597,218.7079,-297.1027,110.6914,-289.1670,76.6776,42.2854,169.0575,41.5416,116.5912,106.8988,93.8063,-249.3128,-326.2666,-67.5918,82.1282
-601.5625,-131.1274,58.9724,2.4923,-21.6757,65.5439,146.9718,-38.8604,39.0090,79.8281,-105.5096,-286.6693,-124.7277,-147.5254,45.5030,-221.7469,55.1501,171.2061,339.9318,104.0175,-25.3563
-593.7500,-376.0398,23.1820,-257.3275,-20.4343,-11.1610,144.4377,-5.4311,146.5235,40.9618,39.5055,-252.3885,18.7124,-132.6750,79.6146,-114.1690,120.4700,-36.1074,166.2683,211.8138,83.3620
-585.9375,31.6676,-26.0065,-78.5593,73.3838,242.6983,140.4861,248.5772,215.6113,-183.2728,36.0994,36.4696,-59.2633,129.4728,2.3302,138.9471,69.6847,-434.7375,-266.6895,130.2083,-103.3131
-578.1250,14.2707,-255.2836,-209.9145,-153.8945,-110.5702,8.4363,6.4606,10.5953,274.3849,15.5913,-167.7559,-155.3110,-169.4809,91.9575,-213.0485,72.7110,147.5312,527.2475,184.4977,-13.0664
-570.3125,134.3113,3.8595,-46.8488,106.2274,53.5691,135.7813,23.7507,63.9568,-148.5756,-3.5336,105.4285,81.0444,65.5731,-0.0256,60.3413,0.4500,-291.7933,-265.4088,59.1705,-31.4278
-562.5000,204.0842,142.7550,178.9355,72.0809,96.4061,30.8614,65.7450,-113.9638,-105.7523,-181.9158,-72.6716,-97.8400,-23.8362,-104.2476,-154.5666,-96.3872,131.7129,192.7872,25.5983,-135.0185
-554.6875,-113.6350,140.1895,-50.7656,36.4697,-169.2481,-14.5476,-162.7805,-49.3831,-3.4895,-42.8143,-117.2409,39.8088,-110.9275,35.0404,-88.9502,2.5066,202.6871,299.4245,60.5068,41.8911
-546.8750,59.3139,208.2864,65.1881,105.4939,92.7310,101.6790,-11.6660,103.8157,-217.5575,73.9036,180.8186,81.0901,138.2045,3.9828,173.2572,26.4119,-288.6112,-263.1962,-45.9337,-98.5510
-539.0625,-63.2661,-21.1404,-27.4331,-122.0404,-219.8754,-27.6505,-177.1383,-62.5475,241.8244,129.0731,-95.6730,-123.1478,-202.0052,59.3878,-286.1165,77.6529,330.5608,601.6487,9.0708,-42.5211
-531.2500,-20.1291,92.1225,128.6162,169.0793,-138.8181,91.6588,-350.9561,93.7218,-188.1835,248.8734,97.5067,106.2794,-53.3174,33.4349,-93.8456,120.7708,-46.6288,-56.8832,-51.2934,-31.8516
-523.4375,198.4046,133.7921,329.0378,212.5802,61.5847,35.3430,-225.4068,0.3521,-171.7524,-27.9439,4.0592,-98.8871,-41.6656,-97.1083,-224.2328,-5.1465,175.6697,200.0982,-113.2550,-197.7636
-515.6250,-55.5484,55.0000,-15.0478,100.6042,-135.5153,-14.4697,-274.3817,-49.5172,110.1292,-77.2663,-156.8600,-2.5066,-199.7133,37.8511,-310.0959,14.1077,311.4348,476.5192,-13.7321,-62.1644
-507.8125,176.7253,145.4297,86.0734,192.8118,224.5638,123.9066,120.8285,52.7844,-228.7786,-48.4196,129.4045,62.0731,124.4223,-79.9927,49.2042,-43.2898,-333.5426,-344.7882,-26.0199,-179.3676
-500.0000,-3.2076,-71.3220,-29.0353,-92.1898,72.3935,-27.9300,226.7912,-136.1337,319.1257,-88.7670,-132.5374,-200.5140,-74.0541,-47.0185,-176.7303,-54.9277,157.3142,427.7448,41.4880,-145.7486
-492.1875,-118.5972,24.4613,-78.6248,40.3263,58.7378,32.7264,103.2586,-38.5617,160.4821,-27.6184,75.0515,80.4197,81.9284,15.4604,141.8297,-42.0113,-164.3528,-142.2693,-71.5224,-46.6400
-484.3750,156.9142,123.1597,179.6664,34.7169,242.9348,-39.7396,177.5995,-112.1229,14.7798,-247.5855,149.5057,-29.7516,178.1950,-57.1520,142.2299,-155.8543,-64.0308,-146.2696,-182.6316,-191.6185
-476.5625,-75.7610,-110.3032,-34.2531,-126.0763,-44.0802,-106.4084,-36.2818,-176.8865,243.8410,-164.7529,-101.2239,-23.0803,-82.5679,62.0365,-108.5480,-67.4713,340.0727,363.4844,-25.9582,1.2156
-468.7500,3.2092,-102.1364,14.4429,23.7261,262.5031,90.5111,123.4289,54.9153,-184.5041,30.6433,169.6462,99.1947,176.2605,1.8174,162.2402,-0.4100,-281.1808,-470.1047,-16.7041,-58.3619
-460.9375,-25.6078,-271.7385,-51.6893,-214.2756,85.2332,-49.3862,130.2876,-85.1185,264.3624,2.2174,-44.3043,-152.2843,-61.7870,-27.1835,-198.8183,-11.9555,184.8271,276.5774,60.7419,-49.7215
-453.1250,-12.6777,-118.6086,-117.1091,-130.5621,-90.3184,-77.5838,-119.1537,-40.4636,88.8835,120.4825,147.4613,75.9804,-17.6634,17.5156,-44.1718,3.2182,-45.4955,-59.0986,4.8799,106.6108
-445.3125,377.3402,163.5981,222.5663,-21.7824,65.1994,-142.7105,-36.5127,-67.7451,-230.4536,56.8286,304.2832,48.3570,118.3157,-44.6754,38.5121,-64.2731,-144.6235,-299.5625,-96.8727,-28.9436
-437.5000,246.0930,136.5769,41.9863,-152.2379,-298.5483,-211.0938,-364.1480,-210.2867,103.9225,60.9128,12.8577,88.5570,-224.9402,69.9001,-325.0630,-19.3277,428.9997,414.6938,-49.8815,123.2719
-429.6875,274.5926,235.3134,112.1273,88.0151,-46.5896,-32.7885,-331.0872,-32.1590,-266.0348,94.6569,230.1304,268.4797,37.8480,30.1757,38.0326,-15.6904,-101.6481,-362.3329,-161.2099,84.1712
-421.8750,175.3037,29.2832,160.4430,-45.5404,-34.4898,-57.3024,-172.8768,-166.8694,113.2285,-77.4117,-15.4181,21.6294,-89.4903,-67.3332,-206.7243,-83.1278,328.9749,208.9250,-84.3492,-12.7147
-414.0625,-60.8742,4.3567,-90.1793,-0.0196,-138.3347,-50.7718,-203.6335,-123.5391,230.4871,39.5666,27.1227,137.8631,-124.5745,13.1981,-201.4118,-25.9443,201.6159,45.1703,-37.4705,105.4428
-406.2500,210.0432,63.5180,126.2472,96.5281,187.8276,-91.2217,160.6334,-91.1966,-29.1754,0.5705,244.7007,98.1447,128.9210,-99.2278,14.8946,-101.8645,-156.6147,-489.4308,-152.5527,-43.3503
-398.4375,10.7724,-102.4718,-14.5478,-173.1142,-99.2460,-230.8798,19.6612,-267.0624,345.9507,-65.6319,-42.9121,31.2743,-118.5758,-17.8467,-198.0094,-104.5583,383.9543,297.7663,-103.8464,75.6701
-390.6250,137.2157,165.2376,9.3188,-11.0926,34.3313,-96.8908,6.3325,-61.3004,-106.3064,31.7839,165.1476,275.0728,88.5622,-29.8187,155.7159,-76.0241,-188.8229,-452.3911,-187.5088,64.3205
-382.8125,293.2800,179.5791,30.7619,-136.4856,55.4510,-149.3246,138.5545,-149.9767,25.0609,-56.2286,39.7828,2.4906,-2.5484,-80.1865,-43.0260,-111.2045,109.0860,-12.8415,-137.5744,-59.4186
-375.0000,11.7485,38.3431,-232.4371,-134.5063,-172.0780,-192.4154,-52.8913,-156.3136,202.7177,10.1002,-4.1978,106.3093,-112.0500,60.7846,-86.4072,-46.1309,218.3118,130.9978,-64.3157,119.1874
-367.1875,180.5025,100.4000,57.6257,68.7115,155.6208,-122.2787,164.8948,-49.4465,-165.3698,-28.3452,215.0627,213.3788,171.1363,-13.9978,204.4101,-85.6575,-278.1382,-507.8250,-176.8219,8.0343
-359.3750,35.3581,-116.4342,11.7751,-215.9642,-110.6200,-240.0514,44.7379,-205.5000,229.6380,-109.6902,-51.5720,94.5901,-113.5571,88.3374,-172.6832,-60.5808,281.5361,369.4754,-111.2439,110.9968
-351.5625,43.4194,31.9075,-91.9047,-66.4708,-68.6928,-124.6725,-96.2702,-89.4094,-20.2405,-29.9203,137.9628,320.9733,21.5954,131.8197,89.3695,-40.4448,-163.6505,-217.1012,-171.5378,192.0892
-343.7500,117.2928,70.0913,65.1934,-28.1946,86.9862,-78.5159,23.4854,-189.5640,26.7139,-203.3935,75.2663,110.1711,42.9922,-3.8936,-10.8513,-138.0634,-16.9475,-0.7634,-168.0340,56.9880
-335.9375,-180.5958,-18.4393,-68.5071,-44.6876,-157.1402,-64.1622,-183.5836,-213.5328,150.8081,-152.6940,-95.1954,160.6258,-149.6652,83.5933,-217.8720,-61.4029,249.9256,406.7210,-44.3516,182.0851
-328.1250,6.2234,133.7226,169.4612,72.4644,191.3685,99.8212,-20.0134,-12.8944,-418.4592,-98.3811,179.9983,251.7355,169.0231,-7.2753,129.7170,-56.2311,-333.4945,-318.0811,-68.0319,54.8170
-320.3125,5.9152,-8.2397,-14.7476,-278.5405,-30.3220,26.6385,-57.6423,-123.4291,-13.8759,-98.2274,-113.9598,31.7358,-112.2861,-6.2838,-200.8681,-38.2144,195.9711,493.0160,73.1268,56.4146
-312.5000,-86.1890,3.9977,-261.7950,-160.3784,-57.8463,109.6046,-121.1242,69.1777,-76.1894,58.0585,5.2603,261.9218,-47.1353,40.8514,-9.2858,37.3304,-175.4427,16.2104,121.4113,141.1460
-304.6875,21.2686,-29.1959,-67.3107,-51.6799,173.1315,84.0899,109.9114,43.2929,-138.9014,-3.1257,53.9906,126.6721,63.4673,-56.4568,1.7805,-12.9108,-204.2155,-49.9291,54.2425,-29.5682
-296.8750,-200.2516,-146.3346,-157.8260,-27.9594,-174.9044,-7.4257,-128.0786,-84.5996,102.3552,15.6879,-183.2654,108.4781,-175.8644,37.2363,-199.1656,26.7425,243.9974,433.8865,79.0618,101.7205
-289.0625,145.3707,163.6646,58.7848,177.8589,41.1640,63.1452,-58.9721,95.5833,-451.3129,13.5791,107.5831,253.3843,97.2137,36.0179,164.9402,17.0110,-321.6507,-448.1522,-68.0256,27.0875
-281.2500,251.8542,128.5388,135.2223,-103.4912,-140.9625,-81.4509,-94.0604,-49.4035,-190.1278,-94.6978,-147.7244,-1.8308,-130.0098,39.6618,-128.1469,-9.0100,209.6024,222.7319,-31.2568,-5.6855
-273.4375,-55.3899,137.6734,-9.1252,12.3756,-283.8762,-4.8449,-200.9554,26.8009,-333.7940,56.2030,-105.7963,186.1931,-133.7063,117.4977,-51.0155,77.6193,47.0162,-11.2464,-21.3134,146.7234
-265.6250,25.8038,183.2265,228.9253,93.6292,-10.4288,-23.8617,72.5300,43.3527,-426.0319,0.4724,-15.4999,93.6161,56.5898,-11.2681,112.4634,11.7453,-151.0811,-243.7140,-80.9774,18.5280
-257.8125,-112.3868,9.4097,-68.4341,-114.4971,-346.4004,-138.2820,-78.4195,-107.5092,121.2848,32.3528,-313.5887,15.6922,-236.0242,95.5716,-112.4596,44.0074,345.4173,463.3988,26.9405,162.9396
-250.0000,130.7725,146.9419,-32.4625,93.6864,-126.0621,-28.4192,-43.0707,75.9057,-281.1375,107.5188,-19.3685,201.0879,16.6647,60.6992,217.8865,45.4702,-216.7657,-345.1738,-45.8628,91.6288
-242.1875,310.0820,78.6566,87.6364,-8.9942,-80.6209,-92.4263,-34.6153,-62.5556,-88.3824,5.8096,-157.0234,-47.3343,-126.1157,-39.0115,-141.6739,-7.8134,211.2694,257.4935,-77.5166,-44.5190
-234.3750,47.4814,61.4747,-9.2024,45.3938,-177.1144,-115.3877,-204.1139,-86.9696,-73.6312,57.1257,-141.5990,114.3404,-161.9173,12.3239,-164.1593,15.4756,267.3102,279.1441,-94.1436,81.3764
-226.5625,184.9659,128.3652,251.0123,217.8123,191.4135,-40.3317,17.4243,-48.3761,-364.8037,-87.5266,6.8529,81.0680,108.3930,-94.3001,94.3596,-70.9512,-50.5337,-145.0678,-203.7267,-61.6826
-218.7500,-134.4298,-155.6038,61.3024,4.3408,-108.9952,-119.1857,-61.9745,-236.6950,182.1138,-93.0710,-291.5913,-145.0566,-170.5098,12.1770,-206.0254,-31.6466,548.7238,699.8142,-100.2231,8.3718
-210.9375,-147.5084,-29.2834,10.8539,167.1287,23.8533,51.2052,-39.1203,-67.7790,-88.7469,4.6123,25.2345,26.0902,68.1594,-0.1019,110.8368,-14.9665,10.2208,-15.0714,-113.4871,-3.3445
-203.1250,71.7081,13.3566,98.6875,-0.8084,110.9566,-8.1231,120.9961,-128.5956,36.7236,-202.4211,-70.6723,-179.4445,4.0828,-59.0700,-97.0521,-87.9079,232.0906,382.4493,-70.4513,-134.7532
-195.3125,-59.0525,58.0506,-121.4672,-166.7131,-146.9321,-81.4488,-62.8954,-128.4189,148.1346,-127.4612,-178.5474,-67.9240,-166.4402,16.9629,-205.9276,-40.2094,384.9158,569.9108,44.5602,51.8322
-187.5000,215.6841,191.2358,60.8346,0.8260,144.6094,-83.3458,117.6544,-20.8267,-256.9944,-20.0855,39.0196,4.0537,81.9681,-94.5618,84.5980,-62.9891,-111.7516,-138.1014,-32.9889,-59.1471
-179.6875,70.0826,-25.8973,-58.2324,-144.9741,-159.2327,-238.5973,-2.1875,-177.5979,212.5257,-65.0656,-153.7740,-188.2797,-133.6308,-65.4317,-146.2501,-75.8764,414.2527,598.5620,67.1039,7.5330
-171.8750,26.3802,-34.1451,-108.4239,58.0943,-172.1981,-105.9975,-90.1761,-7.5190,14.8507,31.7852,164.2933,93.2580,48.1314,32.5396,133.7573,-19.9929,-48.9121,-110.9616,-11.9721,106.0394
-164.0625,200.8405,-106.2255,115.5213,-13.7086,-24.0524,-140.2695,59.9539,-78.3284,-17.6537,-75.2291,241.4865,-49.0417,102.9202,-36.3368,25.8626,-80.5169,58.1541,-5.2312,-47.9084,0.6989
-156.2500,-85.8145,-183.4017,-82.6846,-90.6416,-296.0560,-191.6934,-176.0849,-167.2943,151.6398,-16.3964,5.5601,46.5597,-132.6315,59.6317,-173.1598,-24.1929,441.0284,378.2862,14.9846,171.2077
-148.4375,69.5576,78.4387,48.1208,206.4229,17.9385,-60.1258,-82.1218,0.7154,-267.0441,5.4075,175.6225,143.1468,112.6363,9.5959,141.7909,-25.3558,-68.0651,-377.1483,-110.1241,47.7011
-140.6250,55.6185,28.9758,-39.3918,-89.8120,-144.3983,-148.8692,-134.4860,-162.5937,270.0030,-83.1003,-169.6288,-91.5523,-180.2177,33.2721,-204.5909,-40.9536,483.5752,384.1634,-89.5322,34.9110
-132.8125,91.1361,133.9480,-117.4770,-19.6341,-186.3088,-80.2126,-286.4433,-94.5107,44.3912,-15.2127,82.5592,161.1650,-87.7244,139.3322,-64.5553,-11.9585,133.5724,-35.1850,-159.5601,141.5051
-125.0000,373.7275,168.9874,183.4847,86.5636,77.7923,-72.5322,-96.3773,-161.4151,-204.1508,-191.2905,274.7792,22.9296,80.5781,1.4384,-93.5210,-128.5513,31.6996,-103.3760,-195.5414,-32.8504
-117.1875,71.7392,-27.5224,9.8444,-39.8123,-206.7164,-172.4497,-196.9328,-261.9208,173.6621,-142.9748,27.4205,-39.8542,-131.3419,11.9452,-268.0704,-103.5260,401.1987,512.7847,-40.1364,89.1948
-109.3750,46.3044,86.5139,59.7226,145.3232,62.2860,23.1209,-1.9846,-65.9530,-144.0371,-94.1909,187.5574,84.8869,156.2202,-47.0616,184.8591,-96.9759,-184.7820,-249.5360,-66.2481,-6.2850
-101.5625,-45.6751,-74.9759,40.0262,-52.0940,41.6992,-33.8822,51.3785,-197.5658,204.7280,-260.9735,-88.8724,-191.8793,-45.2124,-28.6135,-166.7976,-113.6134,323.7403,469.6597,18.0856,-61.3059
-93.7500,-270.2497,-161.0645,-129.3022,38.8567,-17.5186,91.4681,-118.9084,-109.8278,73.7796,-135.4072,-73.9189,-65.2544,-53.9751,98.1734,-116.0822,-5.5155,206.5595,317.1365,72.7486,66.0045
-85.9375,188.6433,-88.6821,63.8178,75.2313,174.6866,100.2489,36.2397,-64.6656,-211.6807,-90.4033,119.4559,-92.1891,131.4702,-39.5930,76.0361,-59.2157,-35.1095,-30.8389,3.8602,-107.2460
-78.1250,118.3437,-194.4668,-162.2742,-171.5744,-200.3257,-52.1693,-116.8332,-181.7007,261.6512,-21.6028,-106.3541,-170.2792,-166.1965,-43.5545,-225.0443,-46.1820,459.9984,674.9505,108.7572,-0.6950
-70.3125,109.1484,41.8372,-98.2889,29.6853,-27.2697,10.4567,-17.8491,-8.7054,-5.0010,41.2182,141.9012,41.6940,66.3794,-89.4799,95.9235,-52.0009,-109.8418,-105.2201,27.6857,-9.1193
-62.5000,71.9092,75.0930,-24.3697,-78.1187,-27.3038,-62.9890,19.0533,-119.7910,179.3127,-69.0133,-78.9252,-140.3631,-83.0237,-87.4544,-162.1950,-66.5049,277.3285,456.6418,-9.4311,-80.5848
-54.6875,-193.1380,-16.4636,-273.2887,42.2429,-240.1685,-18.2782,-230.8898,-75.7178,77.7195,49.9072,-143.5707,15.7685,-174.7940,68.7144,-156.1447,43.7047,330.5971,509.5758,39.5919,76.0857
-46.8750,-35.7602,35.4080,-28.7936,199.9891,113.3581,115.8147,-24.4409,21.7286,-265.4499,-36.8021,28.1708,4.2940,67.5715,57.2791,51.2620,25.3777,-72.6733,-34.0141,-13.9892,-81.8593
-39.0625,-273.5768,-202.8863,-172.5128,-74.4473,-104.3366,8.7041,-95.2202,-160.0332,290.1797,-106.7188,-261.2753,-175.3384,-195.0854,61.6458,-276.5328,3.9723,465.8490,785.1816,133.2182,-2.9982
-31.2500,-102.1880,-101.9876,-142.0573,97.2861,-1.8630,75.7369,-102.8380,16.3437,-47.0723,33.4924,25.4526,40.1971,9.3091,20.1452,9.8368,23.7284,-63.5062,43.4896,57.5560,28.9883
-23.4375,246.0477,-141.2322,43.2304,-48.1537,-1.5823,39.5981,7.3716,-20.4552,-9.4318,-76.4563,-9.9994,-141.4115,-30.5857,-88.5032,-137.9708,-32.9759,146.0470,359.7326,53.7483,-79.1689
-15.6250,-41.8046,-218.5406,-156.5746,-125.6750,-275.3878,23.3705,-157.5160,-0.3430,270.0597,-18.4936,-171.5255,-83.0827,-206.4844,43.7481,-226.8494,50.2942,353.4363,565.7943,115.8313,90.5660
-7.8125,-48.6293,-13.8417,26.6257,8.7938,89.8108,59.1295,98.6056,107.7556,11.5628,54.4516,10.9412,-45.7619,65.1092,-29.0069,101.2300,32.9906,-178.1448,-177.0910,38.9178,-55.7167
-4000.0000,-93.8342,-36.6773,-50.3578,-126.4094,3.7214,-68.9161,91.8240,-44.1709,220.4895,50.4066,-137.7089,-89.4617,-63.1947,-55.5447,-44.0811,-7.1991,54.0644,260.1033,62.7714,-52.1021
-3992.1875,-32.0033,61.2733,-173.1409,4.9239,-45.2742,-45.9516,7.2768,126.2124,-83.0531,222.1335,141.0745,118.3772,91.6907,-69.3616,237.0904,28.0507,-373.9166,-341.8604,-14.2898,44.7448
-3984.3750,269.3614,11.7515,71.5890,59.7762,17.2611,-57.4800,108.2491,78.1084,-164.1313,28.3631,275.3867,-41.2847,157.9329,-80.6960,151.7898,-37.0131,-317.4409,-281.3942,-62.8623,-40.9314
-3976.5625,77.8716,-142.6318,-136.5400,-26.2447,-337.0837,-81.8771,-98.6357,-19.8626,182.9947,78.7346,101.8215,8.1806,-70.6743,78.1187,-19.3975,29.2838,56.2543,165.2933,-5.2718,154.5401
-3968.7500,238.7388,18.3532,-0.3156,168.1135,-16.0735,54.0808,40.8303,116.5387,-227.5572,143.4599,347.6302,143.0161,210.7087,68.2833,336.7910,34.7728,-519.7455,-618.7545,-124.3369,33.3562
-3960.9375,77.1232,-36.1483,-57.5766,5.9853,-72.5545,-40.4683,-14.1922,-50.5690,87.3926,-23.3313,67.9320,-61.6674,-21.9811,83.9472,-51.5334,1.8685,-11.2256,139.7054,-72.9053,12.6512
-3953.1250,-107.5091,-9.6446,-108.8679,101.8670,-123.0720,53.9814,-210.2486,81.3238,-107.6473,-0.1099,161.2176,143.6593,33.2553,142.6319,80.1270,46.4028,-228.6716,-250.8135,-45.4706,143.9583
-3945.3125,167.0500,20.0351,185.0188,200.9223,60.5818,90.6110,-62.1586,118.3985,-324.5981,-108.7304,196.6838,70.1462,134.7518,105.4645,116.9572,21.2124,-269.0170,-429.2758,-14.8954,-3.6035
-3937.5000,69.7625,-5.1327,-66.9414,67.1132,-263.6334,22.4001,-236.9364,-23.3774,53.6302,-139.2217,-129.7247,295.7530,-206.2473,221.4511,-208.1142,40.3591,233.8515,146.4790,65.8372,74.9762
-3929.6875,254.0221,426.2787,-14.3513,321.8780,-26.2901,149.7614,-109.1818,140.4125,-404.6441,-231.1524,105.4359,716.9308,13.6905,163.9928,65.3792,-28.5850,-353.7578,-754.2825,-28.8868,-92.8939
-3921.8750,181.7569,496.1531,27.7119,179.1081,-20.4731,43.5790,-27.9611,-37.3477,-247.5079,-371.6350,-147.9537,684.5440,-178.8124,95.9771,-297.6785,-92.8323,140.0900,-82.6084,-28.1692,-235.3375
-3914.0625,10.6754,503.2207,-81.0470,289.5379,-128.4893,81.5891,-172.5620,-36.9145,-280.1527,-221.9182,-221.1690,905.3639,-233.9804,97.1790,-259.5591,-50.4565,112.1811,-177.6948,-21.2467,-124.5718
-3906.2500,329.9684,541.6608,149.5583,432.3514,176.8745,91.9663,24.2011,-63.1091,-485.5020,-246.8625,-66.0001,768.5533,-15.6141,-40.2730,-65.0568,-131.0170,-24.4387,-522.5300,-157.9838,-298.4684
-3898.4375,223.3123,330.1423,70.2184,184.2066,-85.7222,-98.6181,-162.9777,-252.2684,-82.7658,-361.7705,-292.8026,541.7641,-233.4570,28.3230,-292.5509,-155.6658,575.0474,325.7387,-121.6639,-194.3211
-3890.6250,306.0565,414.0401,194.2664,301.4789,112.0729,-11.8040,-147.7736,-92.0167,-579.6423,-310.2586,122.8151,628.3953,123.0750,4.3234,162.3770,-166.1932,26.9066,-431.6518,-212.9527,-181.7655
-3882.8125,339.4951,237.6221,268.9841,158.4180,77.5339,-84.3366,-70.9128,-164.1144,-354.8974,-344.1034,49.1164,297.6709,50.2073,-31.0363,-20.0180,-169.6325,308.3955,99.5499,-212.6122,-254.5813
-3875.0000,19.3286,164.6110,37.0837,154.7503,-116.6466,-58.4765,-263.6799,-100.8225,-177.7308,-206.5541,-74.1898,360.3378,-65.9765,31.0181,-31.0427,-82.1059,307.3365,206.1952,-143.8645,-81.9863
-3867.1875,210.3428,251.7658,206.3492,274.2727,236.3460,72.5525,-56.2952,30.6429,-483.4756,-256.8503,129.6926,344.1725,190.0473,-20.7717,211.1140,-104.8762,-133.6336,-372.1248,-197.9764,-208.2464
-3859.3750,68.5620,5.1145,89.8274,25.9950,10.5313,29.7663,-169.7087,-121.6984,-79.9936,-298.9572,-61.2397,117.1789,-69.1200,46.6369,-200.5513,-77.4592,394.6348,440.7832,-55.8831,-104.3149
-3851.5625,78.0964,51.8228,61.6338,212.0835,94.0400,186.3264,-158.7976,71.3311,-362.1576,-214.6781,277.1796,272.5539,161.8064,92.4063,103.1310,-34.9733,-155.7551,-319.0045,-114.4329,-59.0174
-3843.7500,186.1636,19.0564,104.9596,142.6934,175.0710,192.3974,-3.3788,4.8881,-277.8705,-353.8871,209.1306,58.4233,179.9758,62.6736,109.3253,-92.9208,-46.6788,-171.3794,-110.4899,-163.2361
-3835.9375,-145.8107,-65.7708,-177.7913,21.2387,-107.9875,92.4335,-174.0412,15.3961,-42.6209,-193.1533,-1.9784,178.2296,-32.0849,182.9126,9.4396,8.8713,80.4038,64.2458,-18.5881,67.5031
-3828.1250,31.8008,113.9721,11.0059,128.3656,192.5205,134.0566,53.8360,168.4805,-436.8930,-76.8676,222.5053,293.6136,212.0799,77.7101,272.1456,7.1204,-478.0214,-703.6878,-85.1486,-1.2090
-3820.3125,-38.6183,-96.3324,-100.2273,-152.5541,-66.0106,-14.3579,17.6662,57.5086,80.7798,-39.6509,-73.0580,-2.0767,-60.6521,113.4567,-23.2200,49.3935,51.5283,110.3419,22.2412,34.0145
-3812.5000,-129.8672,-116.4350,-236.2616,-34.2595,-18.3596,106.4345,30.6701,177.7363,-52.3509,192.7714,81.5802,155.4459,57.5383,161.4163,207.6026,133.8318,-354.7088,-434.4456,2.8307,117.4532
-3804.6875,57.0117,-33.4116,-35.1622,-23.8297,221.4315,51.3416,234.7860,123.0790,-140.4405,28.2916,172.3550,-10.9226,146.9454,68.4655,115.5522,44.8533,-340.8940,-418.2275,-54.4968,-12.0237
-3796.8750,-80.7617,-65.0351,-186.7269,-91.0519,-113.4466,-101.4112,10.2310,-65.2419,151.8443,-12.8537,-17.5386,57.0434,-88.8688,62.8724,-110.1843,-5.8919,85.3369,80.3934,-15.4695,165.8562
-3789.0625,118.1252,170.0181,61.3574,212.4163,62.3306,-72.4992,41.3100,36.1061,-330.2774,54.6599,229.2551,231.6803,187.6150,-55.0615,285.7602,-49.9469,-345.8296,-665.4346,-164.8048,83.3946
-3781.2500,170.6958,153.7229,118.1123,159.5504,-101.2308,-163.9317,-84.9594,-163.8943,-123.7771,-109.1887,-45.2843,-7.0523,-61.6975,0.6585,-98.6543,-69.5855,306.6625,130.3664,-111.4943,65.5709
-3773.4375,200.8112,290.9623,34.3956,365.2224,-147.2767,10.1801,-275.7044,-100.3347,-496.7200,-190.4681,89.7248,203.7734,-11.2683,137.9446,-35.5271,-38.7435,161.7263,-116.2876,-149.6249,165.3170
-3765.6250,437.1150,352.3716,326.8504,425.0684,182.8548,117.4522,-92.2938,-139.6030,-715.5724,-374.5894,233.9336,90.7696,172.6313,-10.6259,-1.2032,-151.6136,48.8788,-263.9136,-262.6237,-20.7932
-3757.8125,32.3145,124.6841,119.2125,160.8143,-97.1350,56.6163,-260.9998,-198.9829,-220.5023,-249.8288,-47.9643,29.6491,-120.9547,38.7099,-319.0123,-65.9892,489.9898,391.4022,-137.7244,101.9995
-3750.0000,103.7086,161.2208,121.7811,266.8077,52.0796,243.0065,-146.5318,133.8518,-472.2807,-62.8680,136.3729,178.7496,100.1260,41.2550,87.3986,34.8871,-174.7339,-483.1714,-136.6390,67.0025
-3742.1875,105.4357,24.0534,16.6823,92.1282,-15.3829,211.7217,-28.7602,139.9997,-95.8102,-166.6125,-152.9747,-109.8650,-83.6465,83.1082,-127.8984,67.2618,144.8418,50.5027,7.7410,-1.7087
-3734.3750,-173.7397,25.9640,-133.3418,163.5440,-127.7807,244.5549,-139.9238,210.2614,-133.2405,-58.2504,-157.2302,-3.3825,-118.4195,190.0857,-94.1266,151.5720,42.5556,-120.7111,11.2398,104.6978
-3726.5625,39.9690,136.7651,135.5020,236.8379,214.6950,293.2686,93.7585,259.4112,-484.8994,-45.0390,72.4195,-66.0292,113.4852,17.9149,26.5307,91.4841,-302.9471,-570.2126,-54.4191,-68.0504
-3718.7500,-22.5080,-30.6246,-8.8417,-71.0785,-112.0424,112.7761,-48.7691,79.3542,36.2378,-3.0418,-182.1272,-209.8954,-159.6884,21.5440,-227.0324,84.0401,233.4007,215.1085,25.7239,45.0031
-3710.9375,141.2166,99.1895,51.0052,126.2262,-15.5916,98.4906,-98.1249,175.5077,-194.4665,131.1736,96.5585,-4.5329,83.1502,-29.6137,199.6286,53.8735,-304.0731,-567.4420,-55.9437,67.2797
-3703.1250,221.5741,4.6123,213.4807,65.1614,36.4891,-34.1889,29.1326,7.2667,7.3781,36.9789,-37.1238,-246.5657,4.2547,-88.1671,-6.0948,-7.9044,23.0327,-202.4714,-44.0320,-28.8485
-3695.3125,-20.0851,-59.9762,-10.0564,69.1002,-185.4606,-110.8764,-155.6417,-31.9829,191.2351,181.7678,69.1889,-250.5920,-72.2411,-53.6986,-119.8513,30.5176,170.1876,-53.4731,-38.1195,151.0480
-3687.5000,234.1890,54.3661,224.3238,252.9775,122.5119,-96.6465,-29.5262,18.6885,-159.0830,234.4580,487.4536,-309.6855,257.1588,-186.3289,151.3314,-33.7967,-205.8259,-639.7134,-203.3236,17.8527
-3679.6875,101.5829,-147.1853,156.8076,84.9503,-90.4222,-200.3281,-131.3154,-194.5444,218.6949,169.2435,234.8183,-524.6986,17.6547,-142.8602,-172.3869,-41.1263,401.2936,216.1528,-124.4279,60.7602
-3671.8750,166.7506,-10.9435,151.0728,290.7358,13.4225,49.7952,-172.3276,-17.9573,-187.7457,126.8448,410.9958,-273.8953,167.4064,-39.5679,40.7184,1.3168,-94.7962,-453.2351,-162.7263,90.4992
-3664.0625,369.9962,-17.6451,296.4242,176.6087,123.3547,158.9855,10.7185,-18.3036,-77.2013,-130.5226,335.2720,-423.0400,166.8951,-41.2207,-34.1017,-54.5517,-30.8765,-317.6737,-98.9922,-58.7141
-3656.2500,63.7409,-74.8468,6.2655,-23.0171,-202.2411,126.6813,-128.7658,22.8321,225.8514,-14.4087,81.0467,-381.6826,-39.0231,36.6433,-65.4667,32.3596,193.6039,13.4212,19.2401,92.5903
-3648.4375,63.2703,64.7327,120.8648,150.1513,132.9260,204.1585,133.4755,247.7406,-172.4246,138.4656,231.6232,-268.5434,231.5958,-69.7309,304.9493,67.7424,-368.2293,-793.8657,-50.7923,-14.3464
-3640.6250,-200.5235,-162.0442,28.1261,-79.0234,-70.2552,110.3020,115.3617,118.3105,289.9165,82.9892,-47.1408,-471.7721,-25.0421,-15.4472,-45.9920,94.0301,177.6046,0.4791,37.8286,2.3647
-3632.8125,-200.7902,-162.2943,-87.0884,60.3571,-73.9148,252.0131,-36.2373,223.4586,29.7835,152.0786,167.6520,-220.4368,76.1945,52.4114,95.6223,133.6195,-173.0066,-418.6565,39.0129,106.6561
-3625.0000,183.2547,-129.2370,63.0246,93.0629,187.7622,220.0526,117.4779,191.9460,-257.1139,121.4714,207.7858,-326.7957,147.0477,-53.4292,26.5805,89.0204,-174.3789,-417.6222,37.4937,-36.7537
-3617.1875,-7.2718,-177.7405,-179.4117,-62.8000,-166.1357,48.5400,-87.3654,57.8805,90.4832,246.3061,-36.6435,-314.7180,-150.4268,-2.8109,-254.0446,130.5671,269.7460,166.8885,164.4331,123.3016
-3609.3750,96.2190,67.7690,5.1584,111.3680,-17.0300,51.0384,25.7727,207.8331,-197.9701,250.1500,257.9780,-128.6092,144.5042,-74.1820,188.3572,76.9638,-257.1877,-639.7249,94.3646,51.3779
-3601.5625,35.3585,-63.1219,126.3530,-89.8573,-188.3100,-84.8691,-35.4898,35.3868,219.1283,151.5822,10.2258,-338.9052,-56.1136,-26.9515,-58.6309,60.8763,245.4804,75.2200,140.8897,25.0589
-3593.7500,-98.1211,-54.6222,-17.0730,56.3153,-259.2212,-82.3816,-288.3867,111.3426,40.6182,302.4196,48.8821,-116.7853,-35.9068,12.7010,90.7849,117.7383,113.5754,-160.4442,78.8111,137.1772
-3585.9375,76.4722,50.9491,246.5684,266.5819,115.9478,-38.8227,-96.2336,45.3655,-242.9131,200.3035,128.6548,-182.5879,152.1087,-163.5902,172.2972,10.8234,-26.3478,-369.1924,-61.2419,-39.6482
-3578.1250,-155.8697,-145.4462,-2.7322,138.9005,-58.8504,-140.2130,-122.0513,-165.5732,319.6104,100.2171,-193.5154,-285.3568,-134.4684,-80.8146,-187.1726,-2.2488,515.8318,314.1336,-12.2444,78.5895
-3570.3125,-55.1598,-43.7919,-41.9802,310.2957,159.4008,40.4724,23.1540,15.5591,26.1206,135.1929,133.3965,-104.0438,134.1794,-83.9746,140.4351,-2.7760,-153.9794,-495.5899,-50.2016,38.9041
-3562.5000,-89.7708,-76.4832,1.4542,29.3574,92.3202,9.8286,104.0082,-14.6425,255.2237,68.8146,-9.0182,-356.0844,20.8127,-78.4826,-37.2956,7.1635,128.8449,34.2714,58.4843,-66.1324
-3554.6875,-211.0522,-91.8286,-94.7818,-57.2264,-77.4414,96.5456,-28.8300,145.5079,50.6713,193.7872,2.9146,-196.7656,-16.0692,45.3861,12.2976,133.0154,-27.9401,-15.5052,112.5272,57.2130
-3546.8750,84.6874,-77.1553,111.0063,61.2243,239.8300,229.2948,142.3221,316.6932,-364.9701,143.7548,135.9089,-247.4195,174.4678,-5.7399,145.9328,143.2018,-397.7952,-490.4213,93.5595,-104.4309
-3539.0625,-162.8662,-287.8039,-151.4961,-185.6378,-60.1994,112.7380,-8.8308,200.5715,183.0932,176.4104,-201.3925,-327.3879,-182.7496,98.8402,-264.7512,207.0282,165.0877,284.3835,234.2969,-0.3628
-3531.2500,-105.9764,-195.0119,-131.5654,-94.0320,34.2135,169.6416,12.4468,294.9168,-52.4227,307.5241,184.7805,-86.8772,60.6280,82.8811,49.0355,194.6244,-339.6026,-500.4316,151.4837,56.1877
-3523.4375,94.2516,-239.9184,80.6930,-210.0929,27.9597,15.8614,117.0341,140.5733,16.2994,227.9246,214.2838,-279.0623,82.3674,2.2271,5.1411,107.1722,-103.0235,-157.0309,142.9594,-24.9617
-3515.6250,-130.7948,-183.0952,-51.3023,-260.4034,-251.5694,-43.1648,-161.6619,117.9709,106.7750,280.0652,116.5280,-154.4972,-48.8955,89.3510,-17.0273,146.7560,59.3538,76.1480,164.1895,135.6658
-3507.8125,141.5236,20.0968,165.0674,-58.3240,39.2761,26.1857,-91.0186,225.7438,-261.4858,167.5449,333.1781,-85.5477,184.4951,12.8330,199.2071,83.2574,-332.9833,-456.4630,16.7507,21.6582
-3500.0000,38.6663,-221.9016,-17.7453,-160.4436,-179.0784,-81.6698,-234.5797,6.3053,183.0349,59.8004,2.6439,-230.8076,-94.8024,51.1174,-129.7688,57.0226,303.5096,427.7178,91.1059,59.4604
-3492.1875,55.9988,-168.6949,-74.3698,66.6439,-52.2625,79.6739,-253.9746,59.0723,-129.2647,113.2758,128.3426,4.1636,52.0312,66.6174,105.4700,62.6790,-63.8051,-115.9545,38.6616,111.5015
-3484.3750,120.1615,-139.6913,145.8379,-9.4470,131.3796,116.8375,-32.5670,23.6617,-200.8219,40.5533,54.8914,-179.0513,65.2409,30.9191,-4.4515,53.9603,0.6274,20.0606,34.0032,-35.6515
-3476.5625,-254.1867,-161.2135,-30.4623,-103.0429,-154.5039,87.5000,-96.6853,-42.2551,29.1320,159.3120,-122.0616,-135.7694,-136.6014,111.7363,-180.8965,124.7117,225.6107,350.6040,152.8448,81.7234
-3468.7500,-113.1647,86.6344,51.5934,108.7561,148.9739,170.5330,169.5227,187.2007,-253.6514,96.4274,180.3898,-54.0956,197.5955,-26.0824,232.0414,58.3279,-405.1183,-455.6315,50.0199,-93.5251
-3460.9375,-215.7204,-121.1221,-125.9230,-135.0315,44.8618,65.9734,214.1210,84.0546,268.9304,-7.0717,-145.7482,-269.0236,-25.3251,-57.4926,-19.6279,31.2384,90.5697,287.5132,159.5876,-161.3637
-3453.1250,-217.6554,-158.2509,-242.8043,2.8338,37.3748,95.0787,97.3362,223.5679,154.1545,171.0841,-43.2300,-19.2801,-7.0387,9.7713,46.3533,117.1742,-226.0815,-170.7135,122.8137,-58.5151
-3445.3125,134.0903,-86.7329,55.9907,38.3711,264.5774,63.8552,214.2055,155.7624,-60.0459,-7.1029,71.9892,-87.8740,113.7461,-22.3116,52.0263,31.6696,-226.1454,-274.4109,-16.3157,-164.0116
-3437.5000,-37.1133,-46.1874,-58.1700,-168.0572,-70.1893,-122.3253,-8.8909,-67.9978,233.8056,-83.2374,-78.7499,-55.4294,-88.6659,85.6654,-98.2717,-9.3659,202.8888,329.9694,-10.3857,16.5616
-3429.6875,86.4352,219.1314,108.4149,-80.7018,133.7953,-139.7423,84.7444,-10.9842,-149.6471,11.3823,234.3004,184.8055,205.5516,-5.5964,325.2149,-75.7878,-411.3884,-459.0148,-132.7132,-1.0900
-3421.8750,146.6488,69.1071,60.6757,-301.6828,-61.5498,-298.5005,75.0382,-131.3132,208.5183,-36.3642,38.0200,25.6877,-40.2199,-17.2055,-54.6454,-86.0218,36.9800,235.6089,-36.3962,23.9133
-3414.0625,74.2866,-3.4975,-133.6239,-199.2190,-255.4724,-199.8053,-155.2496,-32.1902,125.1324,174.3411,136.1915,198.0353,-60.4879,46.6598,8.9305,11.3556,-70.1718,22.6864,33.3769,196.4055
-3406.2500,305.8007,17.7437,78.9609,-107.8804,-5.5049,-60.2394,-52.6900,70.8060,-136.4962,167.8921,239.2709,6.2582,97.4096,-35.6179,111.4103,17.8734,-223.5399,-235.5188,54.9843,41.7614
-3398.4375,-26.5343,-171.8914,-51.3009,-264.4038,-245.4010,-6.5262,-217.9902,-22.0634,285.0336,111.5774,-148.5077,-124.3822,-222.0621,18.2613,-276.9753,71.6456,324.2910,523.4538,180.7451,131.2891
-3390.6250,100.0695,24.4183,82.3738,2.0504,35.6494,164.1522,-119.3593,75.0307,-129.5216,63.2225,168.6966,82.9633,59.6188,-30.8963,3.6266,17.4291,-286.9684,-263.7144,26.4514,81.8029
-3382.8125,267.9570,-17.0194,153.3297,-181.2283,69.9716,87.0939,25.5283,-147.6173,52.1248,-122.9016,91.1778,-140.4379,35.2417,-70.8005,-72.5048,-99.6604,-11.9958,222.2997,-14.6001,-31.4261
-3375.0000,-84.3664,-122.6730,-110.9196,-217.7197,-9.9436,116.8358,-17.8252,-117.4670,157.5608,-201.2308,83.4571,34.9746,52.9317,69.1207,67.1401,-80.1868,-46.1813,257.1326,-14.8480,108.1819
-3367.1875,-5.3736,61.9880,14.1515,2.1213,373.4674,242.9031,182.1093,-28.9890,-229.7969,-296.2555,246.0905,13.7224,259.0957,11.3539,156.1332,-109.9192,-353.1351,-224.8701,-75.8059,-23.8903
-3359.3750,-112.1283,-44.1186,-99.5172,-139.7949,112.1214,17.2198,-5.7128,-252.2670,171.0883,-152.0359,-126.0249,-100.2894,-94.7794,6.8463,-251.6400,-78.3253,279.1941,584.3991,-5.5117,45.3050
-3351.5625,3.2004,1.8679,-17.0961,45.4071,158.8596,27.6503,-67.4656,-131.4330,-183.9571,79.2965,103.9865,129.8348,118.4824,-19.5452,161.7085,-46.5627,-201.4070,-143.2902,-98.1226,55.6363
-3343.7500,36.4137,-105.2920,98.1964,8.4766,164.4792,-78.0546,84.6444,-127.7401,41.7904,-99.5268,-39.1132,-124.1849,75.3352,-14.0935,92.9370,-71.0095,42.7997,101.7855,-64.8894,-87.1769
-3335.9375,-320.3425,-109.4342,-170.4782,-66.4185,-103.8774,-88.7182,-37.2130,-65.0037,289.6134,-73.3056,-124.1740,-26.1560,-71.5423,121.4250,7.1995,6.0833,179.0973,272.9476,0.4045,48.0932
-3328.1250,87.6580,264.1753,40.6045,59.4629,107.5335,-61.6121,102.6791,36.5121,-195.8795,-81.3349,270.5587,75.6655,204.2325,2.7074,256.2593,-71.9331,-324.9246,-408.2693,-117.5586,-70.8637
-3320.3125,248.6237,179.7184,-14.3505,-130.7044,-204.0980,-152.5547,-99.4813,-128.0340,117.5679,-208.4443,104.2515,-53.5612,-81.5389,57.9553,-165.7441,-92.1081,293.0309,386.4695,-61.5779,-15.8582
-3312.5000,161.3783,198.0486,-35.5135,132.9441,-188.9542,8.3105,-265.8803,-2.7818,-159.1990,-118.7544,229.7606,219.0438,20.1150,147.0212,32.0650,-21.0904,-4.2155,-122.0255,-146.8033,72.9860
-3304.6875,185.2203,187.4459,216.4095,226.6698,26.2784,77.2389,-233.2316,-80.4725,-235.9865,-233.0254,114.3682,103.7168,26.6674,68.1294,-83.0382,-63.7116,126.5380,7.4294,-227.0000,-79.1145
-3296.8750,-84.4063,58.3691,111.8867,61.9313,-223.9631,45.7135,-448.0592,-147.6230,-46.2139,-226.7547,-63.4851,108.9374,-180.7996,183.7978,-297.6172,-8.5552,420.9028,406.4761,-144.6382,73.3621
-3289.0625,245.4604,248.7954,238.8771,110.7278,86.3151,62.7126,-210.4041,15.7490,-580.0149,-99.9792,283.2057,198.6996,154.8894,90.9815,122.3373,-25.5965,-233.2887,-423.0854,-235.7894,16.3634
-3281.2500,111.3439,80.2074,61.8907,-233.4689,-54.3922,-150.2770,-19.7525,-122.8858,-57.8369,-56.2243,-5.0925,-52.5408,-36.2137,24.1748,-54.7113,-41.9011,231.5354,322.3354,-87.9521,23.3719
-3273.4375,-120.7926,128.5977,-149.1121,-149.6624,-81.1248,-141.2643,26.8638,-3.5208,-9.6527,27.5286,40.6115,140.2386,48.4360,33.3883,212.2399,-21.2562,-105.6241,-50.2521,-73.1150,142.4176
-3265.6250,79.6970,190.6017,30.5186,-55.2250,209.7827,-108.6342,245.0871,-44.5372,-122.9401,-122.1332,36.9591,26.6453,142.6649,-43.7941,208.8328,-97.4499,-220.2471,-200.3571,-117.6949,-7.9311
-3257.8125,-56.7135,88.6819,-118.7454,-191.7056,-86.2288,-183.9077,22.3971,-192.4637,95.8775,-159.7108,-148.6015,24.1469,-115.8257,28.1301,-124.4996,-84.9421,241.2771,471.6879,-42.1662,136.8398
-3250.0000,184.1194,190.0040,24.2387,14.0766,131.0144,-39.9187,18.9446,-12.1186,-531.1105,19.9734,141.1226,240.9411,144.1433,-11.6807,202.4591,-37.4655,-290.0038,-306.1094,-116.3889,96.8926
-3242.1875,4.3254,-24.3431,22.5951,-129.7902,55.6332,-189.5779,91.8620,-123.4204,-126.7761,18.9934,-154.7794,18.0862,-23.5934,-14.1414,16.7712,-21.2437,164.0506,323.4030,-14.2592,58.3047
-3234.3750,-307.9485,-19.1793,-199.5251,-55.1181,-129.2256,-191.6959,-19.6953,-15.1719,128.1258,55.5543,-157.1298,236.7952,-85.2945,58.9688,52.6303,20.0725,28.6841,82.4814,26.4295,203.3087
-3226.5625,130.4873,313.6852,8.0705,66.2753,41.6467,-167.0995,78.4501,8.7965,-66.3394,-31.1823,87.2642,187.2340,64.3362,-100.2234,113.2604,-92.1578,-270.0581,-323.8542,-96.1995,44.0314
-3218.7500,109.9683,293.5745,-89.2795,-129.3047,-276.4465,-228.4700,-202.3670,-198.2043,130.2561,-16.8582,-194.3023,88.7139,-236.6895,-14.3642,-205.0735,-67.8309,308.2929,464.9065,-9.7777,129.8265
-3210.9375,160.7431,344.7636,0.6613,166.4202,-75.2453,44.4641,-258.9098,38.1048,-476.8811,35.7865,41.4574,289.5374,6.9486,74.8020,104.9155,24.5075,-168.0915,-258.0934,-65.0636,109.9578
-3203.1250,149.1023,122.5021,68.1865,119.7030,-8.4638,111.9569,-117.8923,-41.0372,-224.5039,-152.0397,-147.2020,-11.0791,-62.3215,32.5182,-85.5294,-6.9043,208.0490,293.4034,-4.8189,-6.3551
-3195.3125,-197.5620,-48.7808,-226.2964,158.9802,-155.7180,148.4470,-190.9032,-40.1961,-4.0954,-78.8754,-221.8737,61.3143,-123.2282,105.2535,-47.9973,41.8139,212.2365,437.9385,34.4261,103.3687
-3187.5000,-69.9554,45.1948,-85.5133,252.5464,207.2933,180.2045,97.3280,63.9136,-228.5048,-47.4620,-44.2450,19.9958,115.2819,-46.7526,166.8207,-2.6451,-255.3934,-101.3928,-82.0895,-48.6393
-3179.6875,-307.3443,-85.8526,-226.7197,-195.8949,-45.7010,0.9619,29.5498,-76.9869,328.0785,-42.0706,-295.6299,-121.3249,-161.8194,-41.7520,-158.3698,-6.3632,211.0110,681.3141,33.3970,30.3650
-3171.8750,-168.9540,50.8928,-157.1388,-93.5391,61.0914,107.5271,25.5429,65.9212,-78.5684,175.1180,66.7981,-16.8092,47.4140,-44.9294,57.2660,50.9946,-283.8045,9.7838,-4.3169,63.2046
-3164.0625,87.4662,-78.3589,44.4678,-13.1803,189.9208,89.1036,191.5500,10.8418,-207.2761,84.2997,11.2582,-254.2760,74.5745,-137.1120,-34.0639,15.8359,-26.6675,231.1857,41.9635,-101.9517
-3156.2500,-173.4386,-197.9478,-124.2390,-28.1403,-52.5751,-7.6285,22.2400,-120.5449,64.7482,25.1778,-194.5970,52.9623,-83.7377,-12.5850,-56.7261,1.0470,241.2193,428.3442,98.9577,59.6224
-3148.4375,-47.9878,-37.1898,83.4116,28.2837,229.2978,-56.9984,194.2802,-60.5606,-203.9321,-23.5840,-24.0543,518.5886,117.9986,-61.7049,187.9965,-77.9451,-229.6152,-360.2518,50.2945,10.5668
-3140.6250,-322.7238,-311.6494,-25.1142,-317.4991,45.9788,-275.5753,196.1255,-241.7856,349.1880,-94.5663,-463.7135,557.0069,-226.6599,13.9750,-214.4882,-73.1947,339.3714,348.9706,267.4276,122.3161
-3132.8125,-620.4394,-433.0710,-195.6085,-192.2369,60.6952,-188.0968,208.9958,-80.9618,179.3563,29.4891,-487.3324,901.5104,-113.1140,138.7207,166.0937,20.5584,-26.5871,-193.7611,358.6089,283.1480
-3125.0000,-549.7396,-467.0851,-43.6725,-157.5606,212.8497,-109.2031,325.2823,-75.7254,110.8633,-75.0618,-481.5242,796.4362,-27.8332,69.8609,208.1139,-16.9226,8.8008,-194.1734,324.1742,178.3832
-3117.1875,-680.8466,-457.9253,-222.5386,-288.7040,-112.8211,-68.1190,73.7529,-144.3092,410.5856,-69.4166,-624.5296,727.5594,-269.4599,185.2133,-43.7029,34.2266,300.4461,307.6791,299.9453,293.8432
-3109.3750,-338.7380,-150.5690,-5.2025,-87.6224,214.7181,111.1789,180.4079,0.3260,-32.5496,-109.5748,-223.2903,760.9193,38.0092,107.7745,209.7209,-17.2473,-341.7690,-476.3539,113.9039,143.5284
