Time,Fp1,Fp2,F3,F4,C3,C4,P3,P4,O1,O2,F7,F8,T7,T8,P7,P8,Fz,Cz,Pz,ref
-4000.0000,-7.1246,-16.8464,-15.0210,-54.5160,37.0343,-25.9052,-19.1644,-36.4922,-5.7227,18.0296,-30.1286,-33.0791,12.0050,-42.2141,-34.7789,-15.4774,65.0638,132.0303,31.8689,20.7724
-3992.1875,-33.7880,-78.8015,-39.7618,-117.0455,13.3382,-87.8225,103.1679,85.5353,263.9156,177.9004,17.9103,-115.3001,24.7923,-104.4318,197.3677,-3.0263,-276.4228,-174.4248,147.0321,-40.1561
-3984.3750,110.1059,-77.2150,76.0613,-116.0303,-17.8047,-120.2067,219.0723,127.1228,307.1136,36.3278,23.5092,-94.6899,-42.8671,-101.1130,55.0851,-181.0324,-132.3730,-28.3339,149.7395,-107.5413
-3976.5625,-39.7663,-86.3842,-87.8769,-55.7748,-34.6930,45.6517,54.2234,182.9646,142.5617,56.0017,-30.6533,-49.3270,-59.2755,-44.5364,37.0482,21.2061,-176.0584,-71.9686,175.7121,59.3415
-3968.7500,66.4426,-50.4767,28.2752,-20.4279,-63.4753,-58.3993,134.5004,114.9164,186.1423,-47.2107,121.2781,-77.5101,-53.5774,-111.8617,191.1321,101.5644,-278.6878,-243.5305,72.8120,-43.6714
-3960.9375,127.7032,116.4670,89.4777,4.9557,-75.1952,-33.3995,-25.1477,-80.0844,-83.2148,-205.3842,72.2523,38.1594,-28.8282,20.8563,-77.7572,52.9638,170.7533,-39.0198,-41.0232,18.3643
-3953.1250,87.5463,76.0073,121.2714,68.9402,-79.3123,-2.7922,-102.2073,-13.4815,-123.9846,-26.9392,176.8256,34.2530,3.5283,52.1739,-11.0562,194.9646,-9.2078,-392.9096,-80.2479,14.0164
-3945.3125,248.9513,61.0906,258.6308,54.4760,-86.8757,-11.6456,-38.7000,14.6687,-134.1891,-34.9401,204.9607,24.2874,31.4393,43.0230,-56.7785,2.5101,118.3668,-300.2731,-233.9274,-104.7914
-3937.5000,122.5561,75.3806,84.1961,67.2049,-40.2378,107.6961,-213.0013,97.0102,-234.1959,11.2416,103.2901,66.0190,115.5526,88.0748,-157.3035,11.2440,63.1744,-143.4175,-183.4092,15.6117
-3929.6875,89.5047,-27.9896,91.1112,34.2823,78.7526,4.3804,15.0519,103.7061,-79.8304,55.7878,109.9772,-19.2384,160.0115,-15.5267,106.5517,19.3450,-284.6972,-244.2554,-109.5388,-86.6268
-3921.8750,27.4649,-21.3708,24.0375,-29.6423,159.7368,-26.9429,94.1170,-37.6016,-73.4544,-157.6672,5.6718,-5.3227,129.4617,-10.1318,39.4058,-121.5645,-29.5545,152.9139,-30.6708,-42.8653
-3914.0625,-128.3395,-1.5022,-103.7996,-44.3151,141.9633,-9.0055,76.4116,-19.6523,-17.8309,-101.8590,-13.3890,-17.2182,112.1594,-28.4719,167.5035,43.7836,-184.1593,34.3282,95.4514,13.1642
-3906.2500,48.2587,-35.2349,49.7733,-44.5871,150.5816,-37.6767,231.1244,-85.2961,101.2091,-276.6457,67.9605,-50.3658,83.2583,-95.4163,102.0258,-21.4647,-41.3852,73.1061,27.9691,-125.4119
-3898.4375,-38.9438,17.2352,-10.4521,7.3425,91.3945,122.8585,-12.9724,-71.7410,-69.5582,-263.2473,7.5005,55.0662,60.5497,64.8464,-141.2626,-8.5100,154.6158,164.1024,11.6784,-0.7789
-3890.6250,35.4375,-13.7031,69.9082,80.8697,99.7971,92.0040,-5.4677,-65.5679,-61.7140,-146.2217,87.6382,31.6415,67.4369,34.7082,49.0726,72.0707,-122.8238,-182.3393,-19.0029,-66.5374
-3882.8125,157.2771,36.7951,87.7267,25.8398,118.6421,72.5936,12.5072,-121.9309,-190.4091,-236.7465,68.2348,49.8407,85.7650,52.0148,-81.1307,-93.8963,106.1848,47.6658,-37.2338,-84.8539
-3875.0000,-49.6423,76.5307,-58.2119,-5.9423,157.7369,74.4469,-23.2786,-10.0338,-150.8710,-15.0102,-3.9252,31.5488,124.3455,15.5817,30.9041,18.3886,-64.5465,-122.0742,38.7938,-8.9055
-3867.1875,51.8374,71.6509,16.2599,24.6745,86.2372,-35.3069,162.3500,27.2719,33.0834,23.1393,70.3221,-14.1094,-20.6696,-94.4579,179.3640,-53.9223,-101.9115,-229.4424,-69.7802,-117.5674
-3859.3750,-16.1771,179.2732,-61.7628,25.7861,7.2412,31.4387,-63.5157,21.0734,-45.4592,17.7775,-44.9323,59.5116,-62.1896,9.9985,62.3168,13.2499,77.2440,-119.2919,-136.8534,61.2664
-3851.5625,-43.2560,115.8394,-91.8517,31.8446,-57.7994,-33.8645,-56.4281,101.8341,71.9608,136.3792,-2.2326,11.6381,17.2371,16.4067,290.2411,168.3841,-265.6837,-426.2265,-128.9589,69.0590
-3843.7500,64.9241,118.6424,-14.6855,-34.8561,-88.5869,-65.9303,-16.0657,32.8482,114.6566,31.2345,38.7232,12.1351,-14.0880,57.0568,148.4313,62.7780,-86.3795,-244.9277,-159.8181,38.0924
-3835.9375,-38.1623,120.1946,-162.7841,1.1960,-162.6301,77.7644,-163.9717,103.6192,39.0971,139.8470,37.4153,64.8982,-51.6692,164.4760,108.3597,170.9392,-187.3172,-275.8691,-120.9306,146.8893
-3828.1250,37.7006,90.6930,-76.9301,41.2057,-112.7311,54.4060,33.0829,117.3493,163.5032,80.4185,13.0690,44.0918,-75.3010,67.8432,86.2669,111.0618,-216.3407,-197.9063,-150.0958,-22.3720
-3820.3125,-63.9773,164.6442,-37.6093,79.6723,-35.3801,93.4971,-1.4073,9.5175,-17.6461,-63.5797,-130.8247,120.6688,-35.4850,69.6570,-205.3755,-69.3869,176.1152,125.5148,-143.8265,17.8106
-3812.5000,-176.2677,122.0026,-44.8988,71.5504,69.3645,11.9955,28.4879,-34.9068,12.5950,40.8291,-29.3158,68.5710,68.7285,24.8789,44.3939,-40.4185,-146.0434,-195.6967,-46.1652,11.4020
-3804.6875,-98.2898,-46.3914,-34.9271,7.6839,79.3506,-15.2582,111.6479,-25.0794,23.0897,-22.5185,-56.5401,-5.7718,79.1837,-2.6464,54.4272,-67.2003,-31.9660,-45.6869,-1.2686,-14.7729
-3796.8750,-382.3652,-118.8337,-229.0102,-30.2264,69.2810,84.4548,-45.2555,74.7070,-23.4782,151.0726,-213.8254,18.3474,68.5836,132.7924,7.3848,142.9669,-68.9228,-11.7187,137.5780,159.0079
-3789.0625,-336.7041,-179.5340,-140.3383,-56.3828,11.9610,-11.0827,116.6069,163.2544,174.7275,166.4234,-162.3582,-27.8269,-26.2662,110.9779,169.1187,158.8963,-268.1646,-175.0508,183.1795,64.5305
-3781.2500,-314.3345,-193.5424,-82.9537,0.1534,-38.6519,82.0714,27.1930,109.5012,122.6493,-31.5393,-215.1883,36.2459,-115.4119,167.8601,6.5635,-3.4775,70.3024,130.3103,171.4741,122.7366
-3773.4375,-372.9875,-286.5604,-145.5822,82.6959,-27.2566,166.2340,1.7729,119.7601,170.5687,16.5124,-168.0262,24.0436,-30.5525,177.7478,90.0164,153.1695,-161.2496,-101.3522,149.7638,170.9542
-3765.6250,-196.1775,-217.1318,-31.7554,45.6935,-23.4159,58.8424,114.8149,49.4767,174.9504,-89.9839,-91.3914,-10.5772,-63.2465,70.0826,55.9383,120.2672,-54.3761,-29.5903,44.4856,101.6166
-3757.8125,-219.3060,-28.6433,-171.8797,-12.2480,-87.5367,67.5135,-60.1147,58.2402,-37.6399,65.5572,-157.6978,41.9317,-91.9086,115.4815,-45.1087,164.4088,64.5654,21.2460,93.2411,220.3403
-3750.0000,-121.5461,-107.2639,-62.1094,-56.2789,-51.7740,-80.9028,121.8526,129.9159,108.6741,248.0202,-48.0957,-62.2606,-19.6819,2.7941,136.7634,127.4706,-223.6356,-266.0537,121.9049,72.9669
-3742.1875,-118.3802,-174.4873,-21.9255,-123.9075,27.3790,-75.9225,163.2395,97.9953,114.3917,179.8734,-80.0894,-70.8327,21.9408,43.5046,-77.9573,21.9250,61.5715,-50.9613,125.9760,41.9802
-3734.3750,-273.0322,-259.5070,-74.5538,-68.3313,47.7234,16.2635,72.8165,191.2840,171.3102,236.9298,-60.8926,-64.7206,5.7607,99.4222,50.5226,152.5848,-127.0223,-202.6821,78.2567,99.2043
-3726.5625,-22.5325,-149.3831,117.9770,41.4047,59.2143,25.5915,119.5662,53.7298,144.4006,-9.8552,58.4658,-14.7868,-21.2706,35.4872,-12.8219,-58.6102,19.5041,-161.2917,-92.3135,-0.4324
-3718.7500,-9.5797,-67.8141,87.9682,86.6020,29.1409,142.3779,-130.2375,-12.3781,-68.0672,-149.2077,-44.7247,61.5202,23.1401,78.0199,-225.7326,-87.3673,242.5076,98.5667,-43.4369,117.3786
-3710.9375,2.6687,-159.9536,70.2581,65.1109,49.3565,50.4770,-1.7370,41.8258,23.7680,-20.2550,9.3939,-39.5322,41.8503,-50.1450,12.6751,41.1944,-59.2177,-97.3202,75.7474,26.4867
-3703.1250,-9.4122,-103.4415,95.2195,-19.7233,75.2137,2.2184,97.4405,-6.3133,-23.7370,-104.6634,-75.8250,-16.6631,-5.7947,-25.6620,-108.2611,-43.6072,104.7027,208.4215,134.5731,-20.7707
-3695.3125,-208.6587,-92.0728,-78.9827,-78.6994,10.9080,83.8212,69.4594,75.4083,21.6057,51.7898,-103.2049,-17.7031,-69.5992,18.6800,-26.3496,112.4389,-92.5265,46.0039,287.2521,61.8329
-3687.5000,-32.5629,-127.3542,37.1604,-79.3281,-54.0559,-19.2289,260.8484,45.5037,177.3323,59.6216,13.7670,-83.1978,-100.0583,-84.6292,90.9497,9.8450,-162.4575,-92.1177,254.2774,-77.2209
-3679.6875,6.2263,-86.9304,-37.0002,-5.2504,-126.3234,16.4269,76.9392,8.3043,29.7589,23.1482,-60.5659,-13.5570,-135.8213,-12.2271,-92.0666,-28.0533,124.3202,124.4708,223.9887,33.4264
-3671.8750,15.2975,-114.2126,-26.8654,108.1483,-152.2995,-10.6043,87.3188,55.4134,113.4805,106.9841,22.3996,-4.4296,-125.2848,-2.5103,64.2237,19.3622,-146.6199,-180.6683,233.0005,7.3816
-3664.0625,100.1859,-29.7024,65.0955,122.3594,-97.4813,-28.8350,142.5218,-73.6815,133.0156,-94.3869,4.1784,30.9011,-107.9498,-20.9910,9.3355,-181.4367,115.2392,45.9707,72.7997,-46.8794
-3656.2500,-95.9269,89.8115,-70.9419,65.5792,-49.6704,16.9454,41.7155,-62.7703,143.5433,-46.7547,-59.0463,42.9573,-23.6215,-11.4630,129.4401,-61.2322,-10.8880,-112.3942,17.5969,73.8689
-3648.4375,67.7615,112.1204,31.8255,18.6027,-19.0719,-209.4796,219.7224,-108.0383,283.8899,-16.3007,116.5444,-60.1032,6.5069,-165.1346,343.3638,-32.2139,-196.2585,-334.0165,-133.7980,-42.5901
-3640.6250,116.4102,90.3876,39.5536,-4.4183,-10.5383,-200.9545,43.6944,-98.3533,109.1953,-79.9120,88.0948,-33.9725,14.5793,-83.8503,57.2269,12.7387,63.3311,-73.6894,-224.2445,76.8952
-3632.8125,72.8905,11.5178,-5.8770,22.4244,-18.1700,-137.5715,-74.4920,2.1888,100.3596,20.3347,152.5010,-43.2852,42.4958,-19.7023,158.9526,151.5524,-154.2520,-290.5417,-230.8381,105.2402
-3625.0000,246.7365,79.0012,178.0592,89.6322,-17.4693,-136.8444,-110.3075,-70.9181,64.8964,-161.0785,189.2731,11.8736,-30.2458,-21.2041,49.0624,-68.2906,89.5004,-81.0804,-339.0968,32.9195
-3617.1875,135.5338,107.4420,93.9497,117.8014,-62.8300,-0.1548,-268.1805,-81.0833,-128.6303,-170.5487,104.9949,83.9754,-2.0388,78.2548,-107.8797,-4.1997,155.2256,20.3390,-238.4132,133.5589
-3609.3750,134.7312,37.2744,137.2475,82.3812,-56.7993,-32.0615,-78.6426,-1.8305,-85.7524,-54.6041,148.1309,34.3122,3.5658,48.1157,45.6027,75.3051,-159.6870,-153.8942,-132.3275,-6.4001
-3601.5625,67.6419,39.8153,30.2593,14.6698,-53.0830,7.7341,-75.3951,38.1310,-191.1755,-50.9730,3.9799,46.9572,-67.1373,50.6809,-62.2271,-32.4977,89.1091,202.5737,12.4511,-2.6670
-3593.7500,-41.4638,-69.6275,-83.7391,10.9709,-92.3783,41.5386,-78.1544,145.1080,-120.6083,130.6667,0.8297,-9.2611,-69.8452,10.2574,82.9414,75.7065,-158.1087,25.0203,221.2410,-4.9273
-3585.9375,195.0868,-9.4254,58.9237,-0.0683,-96.0337,-74.0154,101.7661,66.7487,-125.3797,-21.0410,106.3399,-33.4496,-110.8982,-105.5146,3.8028,-76.4424,-27.7120,122.0738,141.6817,-119.5603
-3578.1250,125.7379,131.8773,16.6945,36.0035,-100.5870,30.5417,-123.2059,-12.5044,-240.0628,-62.6572,63.9576,66.1790,-78.8497,-1.1770,-184.2623,-81.5061,114.8025,195.2338,73.2174,22.9077
-3570.3125,127.5916,62.3788,94.6675,36.2922,-95.9482,-1.6921,-8.9766,-7.5419,-161.5288,16.9507,178.7962,18.8976,-0.6094,3.3682,40.8474,33.6481,-164.5152,-154.4572,4.9536,-45.4219
-3562.5000,146.6206,46.0409,113.8134,19.7373,-39.1743,17.2186,10.4130,-99.4280,-251.8418,-111.2970,50.8035,35.8641,18.7697,22.0604,-87.8866,-21.0562,137.3224,112.9882,-45.1780,-25.6132
-3554.6875,-41.8115,-1.7282,-11.4992,42.7426,-16.8624,38.6884,-41.6613,-40.7640,-155.6264,59.0065,-1.6406,9.0426,40.6908,6.3140,44.9583,147.7875,-50.2879,-74.0297,-21.7622,33.7558
-3546.8750,144.6089,-26.6404,118.0484,52.6183,39.2830,-89.9987,125.1310,-95.2426,9.4596,-32.8392,90.7791,-31.5912,59.4573,-48.5710,100.6623,19.4825,-4.0771,-132.2422,-150.4931,-131.0382
-3539.0625,140.0828,38.5058,107.6613,46.5620,66.4664,-63.6266,-69.0288,-68.6710,-110.4024,-41.6532,44.2560,17.6800,50.2621,14.6097,-93.6245,-26.7904,238.2044,4.6152,-225.1692,-29.7831
-3531.2500,242.0527,0.1602,180.7775,8.0195,29.1327,-64.7462,-69.6912,4.4115,-36.7673,68.0410,190.2471,-59.4099,48.5660,-60.7060,89.6205,45.4332,-45.0456,-313.0631,-262.3370,-67.0258
-3523.4375,371.0941,92.8806,239.9669,30.5448,16.8326,-78.8262,-120.2786,-83.4602,-124.0766,-129.2257,249.3073,-3.2247,-38.0840,-37.9793,-71.0402,-78.3198,189.7448,-77.7090,-343.4690,-43.2349
-3515.6250,192.9256,126.4189,84.9492,62.8817,-63.6804,22.9024,-237.0679,-53.5286,-167.5881,-61.6878,168.1674,65.6910,-8.9341,63.5629,-114.9106,-48.2768,47.3419,-77.5635,-168.7955,96.3665
-3507.8125,183.0551,45.2537,118.2373,52.5235,-67.9048,-54.0783,16.4617,-21.2726,13.2269,-65.8242,164.3525,14.2361,-12.4826,-13.5894,28.5262,-126.9247,-102.8055,-52.1706,-72.8152,-53.7390
-3500.0000,66.6420,34.5447,-4.0167,6.6184,-79.6889,44.3908,-32.5531,-33.5522,1.4932,-77.5102,-32.0008,31.4647,-61.5814,10.7154,-166.5938,-65.1353,169.5103,219.6776,92.6051,-28.3961
-3492.1875,-14.9816,-117.3573,-12.4743,65.5243,-86.6824,72.6638,70.2223,68.9909,141.5494,62.6164,33.4579,-23.3892,-105.8761,-34.1645,45.1106,37.4724,-122.4009,-71.7054,187.8199,-109.2502
-3484.3750,138.7622,-139.9001,78.4414,77.8007,-106.3321,89.2900,123.3682,11.8905,84.9524,-30.9224,50.2860,-22.0068,-162.8251,-55.6798,-11.8267,-129.5754,102.0240,83.2398,131.3661,-165.7794
-3476.5625,-54.3986,-16.3222,-94.5439,60.2012,-166.8855,174.0373,-48.4015,60.8871,23.4351,128.6255,-48.7870,36.8273,-113.6795,29.9261,0.3157,-44.5346,15.5683,-2.7107,151.0082,-6.2079
-3468.7500,24.2412,-8.9326,-43.7240,32.4204,-191.6556,39.5927,112.6386,147.6911,183.7308,215.9820,0.9568,-16.5566,-100.7447,-30.6636,161.2827,-30.6873,-187.1216,-204.9106,54.4481,-102.8526
-3460.9375,-15.0001,-13.4275,-88.7836,-7.2496,-125.3391,32.2519,31.7882,102.5936,140.1272,172.4230,-153.1867,2.3635,-34.7251,34.8504,-30.6575,-1.7537,55.2985,2.9917,14.9706,-36.4104
-3453.1250,-142.1463,-140.8084,-147.7489,-64.8030,-36.9392,9.0153,82.0169,153.6071,228.6098,296.9765,-66.2242,-88.6765,53.3916,11.4766,204.5039,196.2940,-246.1952,-298.0311,-40.4114,-21.8571
-3445.3125,78.6758,-96.2241,48.2555,-126.3892,49.3923,-126.2768,169.2036,55.5796,168.0457,126.4829,19.7119,-134.1961,28.4459,-86.9485,180.6223,135.2884,-60.7631,-218.1359,-206.8510,-82.3715
-3437.5000,41.0463,6.9318,-34.1839,-127.4092,40.2567,-135.0034,-60.0734,9.1089,-24.9868,117.5322,47.2000,-88.3979,19.0354,-22.8039,134.2643,198.8232,114.2306,-182.6753,-277.7381,92.6635
-3429.6875,139.9595,0.6351,108.9269,-99.8619,37.6520,-249.1744,-27.7892,43.2004,45.5371,114.1414,154.2538,-115.7842,53.1774,-64.0995,314.4739,121.9113,-103.2606,-364.7106,-318.0601,16.2420
-3421.8750,151.7887,47.2485,82.9513,-53.3991,47.9417,-91.4498,-126.5879,-56.8135,-90.0461,-22.3684,54.2215,-1.4477,26.2164,56.5012,-6.4162,-87.1185,190.1593,35.1543,-270.4798,63.7042
-3414.0625,-64.9908,4.2844,-35.6299,44.4796,2.6180,119.6817,-171.9929,7.5745,-98.2449,43.5254,8.5990,70.8378,17.6482,158.5094,22.1013,13.2563,-97.0348,-41.5980,-101.5003,92.5694
-3406.2500,68.5968,-71.3142,75.1537,73.7171,4.6243,120.1556,12.9740,-64.6847,-98.0654,-102.2260,46.3533,30.1570,19.4241,47.8644,23.9971,-59.0207,3.0814,94.9494,-71.1823,-53.2346
-3398.4375,25.2917,-10.7959,25.0446,30.0639,-9.2856,142.7332,-109.9604,-113.8452,-220.7845,-150.8803,33.2074,41.7698,-31.7099,34.3316,-99.0256,-36.2036,206.3181,192.5992,61.2248,44.0617
-3390.6250,76.9202,6.6805,46.8797,11.3837,-60.2632,-18.7291,22.0525,-56.0353,-14.5496,-18.5540,129.0173,-25.2750,-45.8935,-54.2403,142.9129,-13.4247,-93.5243,-176.8478,114.5772,-43.6930
-3382.8125,46.3076,45.9151,15.4824,15.4723,-129.5003,-14.4391,-10.1717,-51.4663,63.4276,-13.4815,23.5874,15.0865,-115.3302,-13.0589,0.5970,-119.9145,123.3914,39.4524,119.6669,-38.7140
-3375.0000,-187.9181,-13.4309,-159.5175,26.9800,-193.3517,67.2679,-39.0151,104.5186,145.7805,252.9901,-78.4372,14.0885,-69.3708,31.5405,82.6600,35.9912,-181.2920,-88.8456,237.1591,43.6712
-3367.1875,-65.7351,-31.3572,-63.0997,-27.1049,-133.8204,-56.6228,205.5502,90.9164,206.5406,166.8615,-18.0363,-42.4328,-9.0183,-55.4572,106.1451,-50.7068,-233.6119,-70.7864,114.0535,-79.5637
-3359.3750,-63.7331,111.5392,-101.8692,-60.3757,-62.5074,-59.7048,19.9189,-21.8897,58.0911,17.5120,-57.8224,9.8607,25.1222,-21.6450,-43.5916,-125.6292,14.8942,73.0889,46.7495,28.9879
-3351.5625,-33.6792,70.4951,-67.5869,-30.5705,-27.1582,-135.7234,91.3416,-23.6416,129.6982,89.2230,14.4510,-33.0329,-13.6950,-60.7803,212.7272,-55.4947,-200.5744,-212.0316,6.5056,-46.4159
-3343.7500,27.1483,97.2135,-1.5295,65.9957,1.9310,-106.0021,84.5378,-67.6471,86.0618,-27.3288,-29.5081,29.4376,-57.7696,-31.1711,20.8092,-99.6147,106.7041,-10.4297,-142.9968,-90.0865
-3335.9375,-92.0350,117.9545,-56.4769,157.5711,21.0000,22.7215,-117.2842,-12.6518,-79.5942,28.1190,-48.4644,96.4107,-2.8469,60.4531,-34.1177,66.2697,57.9937,-128.8269,-190.4944,2.2581
-3328.1250,46.0404,79.9513,167.8388,83.3997,61.3011,-48.3119,-40.8568,-46.3916,-1.9869,-42.1695,65.8540,36.8315,74.3295,26.3328,43.2217,-41.5970,20.4975,-202.0121,-297.7392,-141.1526
-3320.3125,-33.8641,140.9611,156.1750,74.2421,85.5881,123.6589,-235.4304,-95.1363,-161.3932,-127.4796,-56.8109,151.1428,24.4980,197.2217,-189.4617,-164.4843,293.0323,176.8203,-271.9925,-79.5688
-3312.5000,-138.6734,1.0999,49.6091,180.2065,52.9615,274.7420,-195.9128,19.2220,-119.7175,-49.6918,-53.3586,153.6726,-45.2374,201.2203,-75.0446,-50.2842,12.6586,72.7235,-60.1496,-148.8783
-3304.6875,5.6843,4.4103,95.2034,289.3354,24.4724,282.9610,-76.2218,27.7186,-220.8853,-223.7709,-80.7381,196.9835,-182.8215,136.3678,-213.4488,-187.9536,263.4229,358.7587,14.8354,-250.0572
-3296.8750,-76.4750,28.2383,-33.7014,276.9778,6.4810,337.6873,-168.0286,46.7130,-348.5604,-168.3609,-135.6363,215.2201,-127.8942,154.0238,-267.3648,-170.1330,251.7003,347.3127,144.3230,-120.7378
-3289.0625,-51.8958,-53.1788,69.1550,195.3935,36.2407,146.1662,45.9353,39.4658,-135.4702,-175.1937,-32.7695,87.9686,-25.2062,-0.5701,-92.5205,-140.5572,-5.3087,196.5639,134.5619,-201.6826
-3281.2500,-106.8429,-3.1281,45.4826,70.2693,48.4460,122.0917,21.3563,-58.3370,-159.9322,-271.5948,-130.4322,79.7012,23.9291,11.2955,-190.2375,-128.5557,186.1536,459.2624,150.2316,-115.1899
-3273.4375,-201.9456,-27.2016,-127.3429,46.0088,59.4886,58.8822,106.6102,-11.2768,35.4447,-114.1380,-82.2328,24.4822,71.9069,-14.9726,115.9024,-43.7062,-154.5457,118.7752,232.7470,-103.8372
-3265.6250,-50.9288,-17.1574,-39.0561,19.8614,110.6112,-0.2353,267.9818,-70.1071,86.9300,-172.5690,-67.9135,10.3179,49.9777,-37.1393,130.1655,-213.7736,-3.1760,129.3516,101.3573,-199.3973
-3257.8125,-123.8048,51.0068,-122.6667,17.8253,137.8196,62.7523,74.4338,-79.8305,-32.5097,-71.9097,-114.4883,49.1624,76.1430,26.8043,-26.4976,-76.7527,65.3170,92.0535,-4.9278,-24.8530
-3250.0000,-52.3292,16.5321,-8.9189,-16.8439,140.3664,-81.9142,151.2299,-77.1867,117.3931,5.1039,35.3067,-51.2562,115.6590,-81.9008,123.1884,109.6288,-144.8701,-221.9185,-144.8487,-58.9633
-3242.1875,73.2188,37.1242,46.9137,-67.4515,121.9584,-136.5399,23.0882,-131.5078,99.3412,-86.8681,18.1706,-40.3401,134.2213,-26.5597,-151.0968,55.0389,158.0168,-25.8208,-193.7140,-3.0410
-3234.3750,0.2135,105.1871,4.1992,36.4061,5.9953,-68.7064,-128.6078,-63.3951,131.7255,18.5957,86.4866,24.3496,92.2287,41.2461,-82.9393,85.8843,-55.6401,-238.2676,-195.1162,65.3364
-3226.5625,148.5687,147.6122,128.8454,113.6277,-53.6263,-55.5290,-78.9192,-86.9374,145.4810,-77.5929,137.1701,69.8559,-41.4186,54.3971,3.5996,-84.9387,-12.9789,-161.4039,-293.1595,-67.9544
-3218.7500,-32.8291,248.3086,8.7411,143.1074,-136.0092,154.9044,-307.9759,-23.2184,-48.5225,-50.5335,-19.9017,171.6312,-51.8236,154.8096,-115.6336,-58.5254,157.9464,45.7201,-261.9422,33.0030
-3210.9375,-22.4852,152.7710,-12.6194,83.3470,-85.6586,133.0923,-147.2878,102.2758,40.2247,112.3035,31.7846,80.6053,-36.4765,58.9781,44.8864,29.6616,-183.4176,-155.4526,-146.9620,-62.2892
-3203.1250,26.6872,62.0416,-33.1547,-8.6077,-106.5160,149.0659,-19.7847,81.5768,-16.2227,54.9338,-61.7049,57.1912,-57.3302,74.9375,-159.7977,8.6305,7.0233,141.1726,8.8087,-82.7998
-3195.3125,-155.0890,-85.6162,-188.6368,-14.5082,-152.3255,176.0959,-66.2428,255.9240,48.3671,230.6164,-144.1385,19.5894,-104.1332,101.9546,-95.4387,183.6409,-173.4745,29.8484,214.6223,-18.2540
-3187.5000,-63.1063,-98.5133,-86.3570,7.3527,-196.3819,94.8716,148.0662,286.0182,114.7222,150.0486,-77.8037,-18.8530,-147.1806,-15.2774,45.6995,66.3898,-187.2517,-17.7730,237.1750,-171.9702
-3179.6875,-127.3151,13.4144,-158.2702,-21.9682,-158.6431,133.4537,39.1678,213.9007,-67.1279,78.2557,-149.6714,38.8242,-109.4310,22.3060,-100.3809,29.9188,-5.2030,199.4246,279.5125,-59.8877
-3171.8750,-134.8338,6.0598,-201.4808,-99.5706,-92.2127,51.7423,142.9538,206.4866,-0.2870,218.1684,-45.8301,-37.0282,-5.9764,-21.3988,113.2434,206.1511,-363.4760,-124.6987,236.5460,-67.0987
-3164.0625,1.6221,1.6701,-95.7130,-175.2147,13.1658,9.9742,175.7037,55.0164,-41.4994,67.0194,-50.0162,-41.7424,62.4240,9.8408,-38.1875,54.3122,-122.7974,118.1271,92.5266,-71.3780
-3156.2500,-129.4209,-24.1985,-165.4426,-60.3482,90.0369,86.7126,-6.0625,21.0454,-111.2331,70.3642,-119.7017,38.5940,65.3178,159.5882,-35.1412,166.9693,-147.5996,21.4699,31.0181,78.8493
-3148.4375,-9.4140,-8.9973,-36.1204,94.5812,71.9464,-4.5045,51.2278,4.1387,-18.9077,53.7674,9.6739,27.5479,11.2544,32.3848,20.9815,149.6838,-203.3855,-139.1845,-129.4307,-11.8830
-3140.6250,7.2101,113.8260,-59.1863,41.1221,10.4472,43.8713,-156.8886,15.8254,-152.9941,-7.2457,21.6592,75.2240,-13.2098,80.7872,-223.3093,124.9816,59.4528,53.7723,-181.2820,110.9778
-3132.8125,-54.4177,50.4208,-51.5151,-21.5725,-18.3115,51.0006,-149.2671,134.2619,-108.3400,147.4930,103.3986,8.7016,30.0781,50.9557,-68.8495,205.0388,-142.9758,-218.5397,-173.3829,118.5959
-3125.0000,168.8743,98.9253,112.0743,26.6467,-1.1788,32.0261,-130.7225,4.5869,-163.7714,-18.8780,121.0579,54.1804,11.2609,69.0215,-198.4809,1.9870,115.4783,40.0254,-336.5912,26.0986
-3117.1875,128.1637,234.4502,65.6612,126.8720,-47.0514,169.0585,-398.1830,-78.0893,-284.2247,8.7441,74.7161,169.2776,-34.5626,169.0951,-282.1398,-8.0707,145.9555,140.6123,-340.7999,126.6082
-3109.3750,178.8010,250.3383,124.6043,177.4498,-100.5778,79.4413,-229.2861,-94.3999,-151.3254,-43.2742,133.7316,144.1045,-51.0333,79.5239,-40.4364,-23.7750,-85.2453,-19.4874,-289.6583,1.4602
-3101.5625,130.6515,273.4401,74.7662,94.2306,-113.8946,66.0218,-169.1807,-143.5172,-165.2384,-203.1209,46.9474,136.1276,-28.3039,29.1589,-200.5470,-147.2978,184.7785,284.6363,-125.3236,24.4979
-3093.7500,-6.1570,65.9126,-30.7313,62.3791,-109.8557,33.9650,-54.7447,-29.2801,-13.8184,-51.6276,52.5123,29.2204,13.7750,-39.8505,-49.3185,40.5339,-93.8450,77.1045,159.3695,-7.1100
-3085.9375,110.2583,-63.4021,98.9892,3.7447,-53.6139,-57.8939,185.9068,-46.8462,79.8083,-104.9558,-1.7043,-35.9147,33.0539,-94.6695,-102.8736,-51.4564,-11.2885,194.7482,276.2627,-171.5363
-3078.1250,-81.5215,-43.8899,-68.4818,-13.0809,-1.5739,68.0593,128.3373,-30.6248,21.2128,-52.5036,-170.1238,20.3823,48.1313,-5.6763,-161.6563,-72.6663,42.0959,284.2154,400.9518,-82.1595
-3070.3125,-128.1095,-19.1566,-39.7499,-59.6919,100.6631,-50.7845,340.9563,-2.2021,123.8086,13.1505,-177.3326,-8.2134,77.4137,-13.4762,88.7700,-44.6619,-250.3456,-44.1510,319.8387,-163.5849
-3062.5000,-101.6741,77.5960,-49.9931,-103.2865,126.8963,-61.6302,257.5779,-49.7951,3.4023,-107.2182,-224.5363,27.2267,103.6883,12.7257,-68.8190,-128.6750,23.2337,229.4919,170.7176,-137.0256
-3054.6875,-215.1966,-0.5882,-134.1957,-40.8129,116.1734,37.5851,62.2335,86.6664,-43.9788,102.4602,-197.6960,4.6907,129.0098,0.9920,29.6273,43.3610,-161.1290,45.1891,163.6515,-74.4071
-3046.8750,-74.6094,-34.6673,18.7040,-40.2328,120.5453,-31.1114,141.0081,128.2370,-2.2534,107.2480,-45.7424,-40.2545,60.4249,-67.6500,35.1903,11.5011,-125.4250,-24.0397,58.6899,-179.7024
-3039.0625,-129.1638,86.1141,-84.5423,-24.8093,54.7605,13.0400,-72.3736,135.6646,-140.6931,78.8774,-74.9436,37.2702,-6.3186,13.5670,-214.4289,91.4858,101.1535,26.6139,74.5849,11.8481
-3031.2500,-63.9741,81.6560,-52.0423,40.3691,12.7238,-29.0560,-40.0149,130.8502,-73.3896,74.2686,31.6083,27.0167,-11.3121,8.5439,-36.2909,197.2319,-148.5450,-329.0124,35.2371,7.1448
-3023.4375,140.5345,145.5145,50.7770,-1.1451,3.9932,-37.8651,-84.3432,12.3278,-116.7894,-154.0677,23.4665,65.4043,-20.0059,73.8187,-116.8498,4.2624,90.0658,-55.3435,-110.8193,35.7220
-3015.6250,42.0238,117.3996,-58.4143,6.3580,-31.7329,109.3377,-267.6841,49.7989,-153.2066,30.5814,61.3086,88.0205,54.3016,184.1086,-43.4276,41.2986,-78.3113,-117.6691,-244.8821,183.3081
-3007.8125,175.7133,76.4824,49.5896,34.0685,-107.2556,70.7396,-158.8045,47.4815,-81.4120,-9.5666,206.3516,45.8502,51.8168,108.5966,101.2128,-35.4488,-155.5273,-124.8325,-321.7425,71.0823
-3000.0000,113.5592,48.7147,-18.2516,75.9201,-140.6180,148.2890,-227.7713,-20.6838,-224.4726,-114.5827,100.5358,86.4246,-16.5156,112.2389,-115.0149,-67.0463,168.4296,199.1784,-137.4596,149.0004
-2992.1875,-19.8452,21.7080,-44.3536,49.5280,-129.2193,48.5981,-33.0077,-11.0967,-65.7881,-65.8435,75.4841,28.6722,-7.0953,12.6396,42.5086,53.1147,-104.8953,-4.0949,81.5599,86.6785
-2984.3750,-22.1267,54.8090,29.6583,-23.7569,-56.7186,-99.0004,187.8572,-156.4247,44.0010,-103.0205,-71.4480,-17.6878,30.4220,-133.8531,-30.8607,-130.6329,67.8671,204.7170,219.6591,13.4489
-2976.5625,-244.7262,7.6171,-170.6443,-106.3349,-0.5127,-114.8803,134.4024,-63.0576,137.4663,174.4965,-160.6971,-67.9179,86.6428,-150.6284,25.4448,-73.6782,-84.6537,157.2588,383.4599,106.9338
-2968.7500,-139.4882,-131.7348,-88.0971,-176.0577,8.5522,-252.9072,327.8045,92.1698,330.7802,293.8725,-41.0952,-172.8849,58.7168,-215.5564,182.6170,-102.8596,-294.3538,52.6199,420.1180,-67.7367
-2960.9375,-91.2394,-189.0736,-75.5375,-232.7816,57.6204,-168.9412,193.1991,104.3894,85.0785,196.2278,-65.4950,-156.9291,70.7799,-130.4817,10.7647,-128.0444,68.9775,382.0037,397.7736,-55.4111
-2953.1250,-123.4079,-254.7983,2.6085,-160.8977,99.2815,-164.3656,197.1676,146.2218,52.9504,274.1985,12.6883,-169.2844,75.4370,-125.7915,125.4965,23.4000,-103.1061,68.9750,331.0431,-87.4768
-2945.3125,52.8807,-149.0679,191.2057,-124.5649,102.3900,-197.3455,238.5983,76.5134,57.2805,94.6229,17.3155,-120.0113,5.5419,-121.6510,-18.3147,-83.7027,143.2361,104.3748,155.7639,-157.1110
-2937.5000,-36.8847,-27.3829,89.7335,-38.2834,38.4534,-78.3658,26.9714,48.7560,-7.4510,102.9812,-47.1263,-23.7596,14.6019,-39.5493,-155.1963,-37.8644,194.5454,49.7483,136.4290,-0.7950
-2929.6875,20.6460,-4.3938,118.5539,19.3041,28.8266,-124.0872,128.6491,76.2964,94.1258,131.6278,54.7323,-47.2020,41.9716,-122.1469,55.2409,-83.7223,-63.8767,-208.6024,90.3879,-83.1899
-2921.8750,59.4975,140.9090,118.6965,-11.8036,-7.4869,-50.5105,-18.3697,-33.8781,-53.0132,-15.4699,55.8898,27.4726,5.6387,-48.4491,-55.0428,-193.2848,186.0279,41.3696,23.6245,-9.3007
-2914.0625,-8.4073,73.4703,8.0859,-9.6540,-45.5465,-14.6642,-91.1763,2.1957,57.0678,57.6744,129.2895,-5.4324,4.5470,-12.4844,164.9042,-11.5725,-91.8137,-201.4160,26.1058,63.8475
-2906.2500,113.2044,18.5286,175.9812,-64.0006,-62.1001,-142.3197,74.5193,-51.2264,187.6472,-69.6916,149.1943,-62.3618,-12.0519,-66.0166,222.3643,-102.3523,27.8190,-81.7312,-98.9258,-26.5210
-2898.4375,0.3192,47.0996,87.3595,-70.8458,-39.1464,-82.4601,-49.3014,-102.1514,25.7029,-83.5788,60.5774,-28.6234,45.8507,-43.0330,23.2920,-42.6385,196.9754,123.4812,-69.4614,142.6065
-2890.6250,35.0179,12.2715,163.3242,-1.0827,34.4188,-154.9889,98.4726,-100.4673,63.3499,-81.8602,173.5497,-66.6653,84.3625,-152.4451,134.8179,-6.3113,-48.2964,-157.7384,-69.3942,107.3257
-2882.8125,138.4882,116.1905,196.0612,-3.5717,29.7553,-159.7700,57.0007,-252.0462,-87.2684,-270.4193,242.2735,-10.3677,79.6276,-120.1130,-52.9143,-157.2498,229.1983,49.8014,-71.5923,139.7722
-2875.0000,124.3584,172.5140,68.1966,18.3409,12.5052,-141.1383,-34.0992,-197.2388,-216.5143,-141.5956,261.3860,13.6980,98.2913,-101.3720,1.7407,-65.7736,-29.8970,-68.2561,55.5980,231.6225
-2867.1875,228.3400,65.9378,108.4313,-54.6408,89.3662,-284.4078,153.9008,-193.3401,-101.6483,-137.6879,265.5957,-68.8674,102.0508,-171.5286,41.5153,-98.1728,-102.9268,69.7447,123.8729,88.5581
-2859.3750,10.5188,-11.4230,-13.1547,-131.4200,150.4270,-186.4706,68.0892,-95.2581,-77.5815,-112.6041,33.9787,-79.9537,53.0064,-146.4669,-80.5331,-0.3663,100.2576,272.9673,222.3328,186.6946
-2851.5625,-18.3273,-37.7794,33.2308,-159.1965,124.4920,-286.5297,115.2621,-11.1653,79.4944,7.4868,80.3425,-152.6868,25.9661,-209.4020,150.4230,119.4623,-67.5955,-140.8395,194.7964,123.8362
-2843.7500,177.4417,87.4525,166.2265,-139.3821,35.1699,-227.9962,26.0431,-99.4766,-44.8277,-190.8416,139.3061,-67.6915,-61.4693,-114.7450,-12.0275,-79.1131,269.1503,-50.0396,3.8481,108.5601
-2835.9375,82.2593,132.7315,98.2641,-58.5213,-32.0877,-76.3955,-188.1437,-93.7366,-113.1431,-112.1420,108.3011,24.3279,-56.8564,37.9787,-79.4566,-0.6331,208.9618,-181.1654,14.9432,224.3368
-2828.1250,230.7256,70.6570,186.9520,-17.0068,-54.6793,-62.1453,10.3259,-115.3484,48.1796,-207.8060,196.9356,1.7434,-42.5979,15.3548,7.7870,-23.4885,75.3981,-278.6765,-48.3148,55.7440
-2820.3125,178.1532,53.5375,167.5838,-33.5371,-37.3070,28.0599,-82.2583,-136.0219,-81.5696,-264.5515,103.4952,21.6330,-25.3963,31.6927,-159.0454,-43.3967,304.8130,-15.2192,-28.6355,109.0867
-2812.5000,90.3687,-33.7861,112.9878,-51.2561,17.8739,10.0841,-27.0598,-43.8857,9.4651,-98.4957,122.8349,-45.0632,29.6043,-23.1554,79.9058,48.5218,-63.9970,-207.9858,-12.1593,91.2286
-2804.6875,83.1501,-75.5662,143.9517,-58.4264,49.6167,-32.3386,40.6939,-122.1942,-32.9517,-214.9047,80.7152,-58.2084,-12.8466,-65.4516,74.3898,-31.0024,173.7315,100.7834,-19.1567,48.8994
-2796.8750,-82.1268,-64.3902,3.8644,-47.6501,18.3265,83.2044,-100.6395,-80.5582,-136.4543,-172.3817,49.5287,-22.8932,29.6516,-21.7834,6.7877,11.4317,184.4372,146.5233,96.7735,164.5231
-2789.0625,60.9967,-61.8222,86.1782,-9.4686,27.4519,19.1503,128.4153,-108.5292,18.4407,-163.4669,168.7348,-53.8794,38.5553,-123.7178,88.6059,-162.7194,11.5160,-27.3703,100.0859,26.5323
-2781.2500,83.6863,31.2917,33.0437,12.2614,48.1441,39.6502,76.0168,-160.9721,-70.1238,-253.0325,79.4724,35.1375,22.0036,-30.1041,-148.0355,-289.3316,245.1704,206.3090,87.9307,84.0739
-2773.4375,-22.0428,-3.0002,-75.5225,48.5923,85.4473,2.7678,39.1973,-123.8159,38.9041,-68.9922,79.7771,5.4108,59.0484,-29.8748,34.9154,-69.3141,-70.5950,-109.4308,123.3751,84.2189
-2765.6250,124.1777,-32.3562,43.8530,17.8699,94.7008,-61.1692,85.3383,-115.6981,84.8989,-98.0065,89.0184,-24.1681,-4.9635,-56.6906,7.8291,-134.3272,38.5542,0.7522,57.7611,-16.7052
-2757.8125,-28.9633,-43.0657,-84.1422,5.7868,76.6117,-6.4379,-115.8917,-22.9229,-42.4709,67.6125,-2.1162,-4.5148,-23.3327,-1.8481,-120.6301,-41.6827,167.3624,94.6066,116.7925,112.0201
-2750.0000,4.0406,-116.6448,28.0029,3.8535,42.6837,-186.5499,33.0265,53.0097,142.3062,180.3762,73.8878,-106.5719,15.4599,-145.8515,101.0649,-39.8689,-10.7195,-119.4241,78.9684,3.8831
-2742.1875,76.7544,27.4636,102.8542,6.6159,43.4833,-185.9622,-40.3488,-20.3730,32.7733,33.8081,37.5693,-33.6705,15.9574,-108.1498,-117.5544,-185.3582,307.9103,94.2619,-59.1762,41.4224
-2734.3750,51.2986,108.4124,72.5298,16.2316,13.1521,-68.5060,-178.8994,23.0937,3.0717,77.0804,81.0651,20.5554,59.3052,8.4138,-74.3352,-31.9701,36.3910,-211.2074,-83.4805,121.8103
-2726.5625,258.0459,103.5444,146.3964,12.0553,-22.9657,-32.8449,-106.2467,-13.2385,76.5686,-70.4512,191.7456,14.7818,-14.1527,9.1794,-38.9023,-106.3604,32.0472,-145.5149,-193.6051,11.3789
-2718.7500,106.0941,91.9720,18.5427,0.1771,-39.7735,59.1299,-234.3210,5.7312,21.3338,-13.6976,26.7037,33.0760,-31.3158,27.2635,-56.2092,-86.4357,90.0214,52.4965,-99.4488,140.2483
-2710.9375,-10.8234,-23.5575,-26.2835,-10.6587,-48.5232,-21.8336,51.6370,71.7624,271.1423,125.1128,18.6945,-66.9016,-3.4245,-125.5938,192.5383,-58.4322,-235.9945,-97.4811,-5.2530,59.1664
-2703.1250,-95.7250,-3.0993,-4.1059,-25.5036,-26.2614,-73.7893,146.5964,-54.2144,255.9519,-1.1013,-105.3288,-33.7487,-18.5366,-104.4503,104.2786,-182.4309,99.9889,238.5378,14.9198,44.0634
-2695.3125,-204.3911,-6.4014,-157.6998,5.9063,-32.7399,29.5303,65.7702,-23.9474,174.9871,101.9235,-150.1378,-3.3576,10.5994,-38.0346,133.2364,-43.1566,-43.7681,93.8169,117.3292,110.2105
-2687.5000,-42.2027,-18.8787,-54.4523,63.1713,-39.3537,-13.2843,169.7944,-30.8273,204.8652,57.7890,-47.1122,14.6176,4.5814,-7.7685,89.0517,-124.0114,-57.7022,44.9198,68.5756,-43.8142
-2679.6875,-62.1139,32.5328,-114.3106,79.3337,9.9543,108.8122,-2.2933,-91.8127,32.6041,33.5208,-107.2148,81.3426,-20.5416,78.4049,-118.2573,-110.9654,168.2919,165.9591,49.7045,42.0498
-2671.8750,-52.1941,41.7819,-66.3374,124.3427,23.1291,47.7729,10.4520,-42.9391,118.1798,193.0991,-22.4929,50.0797,-44.8129,17.4307,76.2897,-25.0424,-138.8995,-141.1788,23.6761,-19.2407
-2664.0625,95.9324,84.2143,89.8333,131.5406,31.5216,-16.0709,-17.5916,-70.8711,-20.0335,90.8592,23.4076,61.8684,-72.8739,-10.3482,-98.9564,-89.9187,115.0916,76.8703,-145.1710,-47.3546
-2656.2500,20.9502,45.5327,5.8762,21.6264,21.8299,46.9984,-210.7570,66.0892,-103.3644,190.5032,12.1770,11.7492,-10.0300,15.7896,-108.3205,157.1232,75.9904,-66.1793,-148.1340,89.4334
-2648.4375,140.4830,-10.6585,173.4091,-34.7873,41.6524,-80.4321,-82.4299,85.5445,25.8014,99.6296,105.4406,-59.2983,10.3134,-37.5727,56.8233,103.6861,53.3576,-193.7712,-205.6193,-38.3015
-2640.6250,150.7402,70.8612,180.6379,-24.4952,13.1871,37.8472,-221.4202,19.6847,-150.3613,-76.5789,39.3773,36.4835,-19.6532,80.7707,-155.3735,0.9407,416.4542,27.3706,-229.4367,42.6387
-2632.8125,182.3287,66.7318,176.1934,112.1615,-27.9156,106.4948,-262.0893,15.1798,-82.1944,-45.4370,144.6294,72.4857,-24.2719,112.4701,-51.2295,70.5685,94.8833,-329.1509,-163.9281,37.9195
-2625.0000,272.4791,122.1427,200.3006,133.3690,-77.4543,56.6968,-129.2042,-34.7801,-22.4843,-167.7623,131.4218,88.5373,-74.3408,62.7117,-101.5313,-53.2442,185.8495,-133.1463,-213.9042,-12.2768
-2617.1875,20.5809,117.4947,-31.6563,92.5244,-51.0333,118.8647,-177.4043,-9.7994,-33.8509,-70.1588,45.1424,89.4352,-48.4642,87.9182,-38.9140,81.9097,73.7871,-68.1852,-148.9535,122.4764
-2609.3750,77.8795,-36.9900,32.5794,-26.1275,-23.4000,-73.7561,70.5828,-18.6135,176.9824,-43.3539,110.0483,-62.0304,52.6149,-30.6610,245.9182,110.3030,-185.1182,-117.0748,-162.8163,3.4168
-2601.5625,43.6242,-36.0701,31.2572,-96.3485,49.6987,-74.9205,69.0217,-128.9769,138.2651,-117.1097,-38.6309,-41.5949,51.1457,5.2194,97.1914,-74.8304,96.4272,235.4970,-91.2433,38.7973
-2593.7500,-132.4697,-71.9900,-79.9140,-62.3862,12.0144,-1.8687,140.6492,-58.1220,173.7378,64.3455,-112.1553,-40.6158,49.8881,4.3074,279.6657,-1.7266,-185.8575,23.2682,82.5329,37.3895
-2585.9375,-60.8689,-69.2389,1.5978,10.2630,21.0483,-30.1147,296.9980,-85.5587,181.9138,-1.5176,-105.0001,-9.7280,-15.6680,-23.9152,176.8582,-176.9155,-8.4723,130.7279,119.9979,-101.3362
-2578.1250,-131.2704,1.4971,-148.9049,80.9132,17.0990,39.6595,144.3282,-91.0040,67.0569,-6.4199,-145.8708,53.1325,-20.2276,8.8813,62.0176,-144.1099,96.9375,201.2200,154.4396,3.9345
-2570.3125,-28.8306,33.0575,-39.5706,113.4268,17.0100,-107.6946,217.4875,-127.6024,213.0420,-6.4789,0.0921,-2.3776,-19.9396,-101.4593,282.0302,-33.4280,-187.8323,-48.4748,45.7127,-69.9547
-2562.5000,36.0632,133.0473,-11.7815,72.3941,46.3829,-79.5825,62.0856,-208.7677,93.4751,-126.1156,-83.5249,51.0715,-29.1978,-36.3429,52.4786,-79.2910,122.8569,192.2931,-30.5965,-5.4173
-2554.6875,-95.6174,35.4751,-79.5684,80.8092,-22.7822,-37.9959,-79.8888,-57.4880,98.3416,98.6899,-77.7370,47.9373,-24.9978,79.2349,130.3634,73.3208,-45.0083,-46.4897,12.5281,72.5703
-2546.8750,11.8616,-30.9735,75.7822,48.3729,-85.7800,-27.2604,38.2974,24.9422,107.3627,33.6356,4.1884,16.1736,-88.6494,51.9523,139.4178,-26.9028,28.2430,-8.1559,-19.2204,-65.3133
-2539.0625,-92.4455,110.7627,-36.6802,50.1279,-123.5652,117.6811,-146.3333,96.5647,-115.4466,31.7637,-72.7104,95.2834,-127.1108,86.8741,-84.3590,45.0800,205.7170,133.4040,52.2120,5.9969
-2531.2500,-47.1184,50.1299,14.4828,60.5280,-145.6918,59.2864,-96.3309,221.8489,-27.6170,156.5553,52.0166,22.6182,-75.9205,-8.5420,77.5179,96.7460,-101.1957,-138.4230,61.2752,-90.0490
-2523.4375,79.7684,36.0234,72.1983,10.4759,-124.2528,43.4512,-75.7836,169.6714,-81.2368,65.8719,35.2696,36.6151,-55.1786,49.5998,-86.0591,-66.0283,95.4412,58.2918,11.8533,-69.5666
-2515.6250,-44.0594,-16.8050,-62.8061,-7.2725,-74.5053,54.9380,-100.9718,216.7866,-180.5704,186.4762,45.7878,25.1583,-8.1342,98.0580,34.6455,55.5194,-133.6128,-134.6960,28.7055,88.2221
-2507.8125,59.1687,16.3925,-26.7697,-79.9655,-37.7050,-91.5240,118.8803,106.9552,-70.8494,77.1326,83.3433,-43.1385,29.9578,-11.4303,219.4116,93.1415,-241.6541,-136.6755,-44.4167,15.0468
-2500.0000,-66.6529,65.5289,-126.8026,-134.7160,-25.9588,-43.0294,18.6668,-28.9177,-60.1909,12.7238,-54.1889,-26.4254,75.9910,-0.9596,118.1023,66.7316,-15.7253,123.3140,6.3960,134.8130
-2492.1875,-151.7988,-53.6596,-103.1690,-114.7766,33.4841,-92.8157,152.1388,-43.0687,219.1678,72.0325,3.9421,-85.9009,99.7166,-50.7789,288.4958,54.0605,-242.1266,-138.0278,130.9098,84.2760
-2484.3750,6.2657,-72.6863,26.6644,-97.6495,92.1333,-73.3960,245.8226,-96.0145,202.7377,-91.4653,-49.7490,-68.1015,46.6373,-67.3974,124.0953,-108.4084,20.6615,54.8225,77.6043,30.9112
-2476.5625,-48.9321,-126.9874,-72.7769,-116.7818,102.5483,-24.2067,71.2432,-85.2067,102.0403,28.7750,-75.7218,-82.6039,93.3127,-18.2555,171.4258,12.8805,-34.7963,-35.5632,163.0327,151.2941
-2468.7500,62.2633,-226.9185,12.1673,-145.5179,115.3774,-158.6146,231.0695,-109.9966,261.7559,40.4181,8.6847,-178.9428,142.3995,-116.7161,330.1830,-11.4088,-169.9000,-100.5850,97.8396,16.0582
-2460.9375,4.1644,-74.1672,20.8062,-133.5604,88.9213,-112.3188,55.5949,-137.1024,49.1662,-24.2735,-92.2321,-78.8742,78.1915,-33.4707,118.6219,-38.0068,123.7220,158.1105,4.3187,98.5084
-2453.1250,-119.2427,-21.7326,-34.8712,-45.9007,32.1763,-132.3038,-1.2070,-46.5202,102.2608,138.7201,-76.4635,-53.5878,57.6890,-16.5112,244.7584,163.1176,-140.9661,-176.5202,20.4747,114.6570
-2445.3125,-39.6827,-119.3656,16.4049,-73.2862,12.3881,-117.3313,13.9450,-32.0001,154.3053,6.6452,-99.7629,-58.1400,0.1306,72.4006,112.8507,216.1985,78.2887,-27.2211,-41.4507,-17.2692
-2437.5000,-185.2323,-54.1095,-136.4369,28.2363,-67.5000,134.5658,-250.0283,108.4132,-36.7795,146.4578,-253.2014,70.2446,-116.5359,251.2320,-78.1842,431.1910,38.4692,2.9945,-115.5011,12.7051
-2429.6875,-114.9895,-19.0768,-131.4935,98.5653,-96.5858,178.2747,-208.2085,262.6304,-67.0633,263.0804,-283.8565,80.5620,-221.3962,220.8583,38.5993,585.0053,-277.5851,-209.0346,-222.7707,-128.5326
-2421.8750,-152.2767,14.3838,-244.0937,-8.6627,-25.2143,139.4348,-246.9397,259.2795,-144.8903,185.1298,-435.0723,74.7838,-187.7984,217.9309,-112.1780,545.2576,-69.1709,71.3872,-119.6227,-95.3384
-2414.0625,-321.4238,-156.0205,-420.5653,-107.7442,93.3126,110.7604,-93.5425,377.0708,46.4231,266.3247,-539.1570,-22.7324,-69.0435,189.1676,79.1867,627.6771,-379.6217,-134.0549,62.6536,-124.9901
-2406.2500,-219.7133,-229.5944,-381.1972,-110.9729,245.6938,115.9388,167.7139,308.7074,124.5924,12.3610,-572.4029,-25.3099,-64.4437,194.2560,46.4128,485.9588,-313.2496,-67.6774,22.7572,-304.8071
-2398.4375,-330.3033,-235.4810,-464.1447,-10.5072,309.7695,289.8337,-26.3526,225.0377,-70.5647,-144.9167,-656.9802,64.9565,-75.1469,295.0562,-111.6902,475.9547,-108.1499,32.4210,-17.4553,-204.9216
-2390.6250,-227.3542,-237.8446,-315.5605,57.5074,386.3899,256.2959,12.1202,116.9317,-32.1703,-180.6338,-545.0223,30.3631,-72.3058,187.4147,74.7598,442.5306,-321.5345,-181.9683,-126.1216,-313.4900
-2382.8125,-181.8452,-157.6824,-231.4256,68.0583,434.5533,267.3126,-87.8524,16.3813,-206.2167,-354.8136,-572.5332,70.9793,-61.9138,161.3192,-136.2416,306.6585,-30.3675,145.2018,-257.2539,-303.5282
-2375.0000,-329.3541,-164.5428,-317.3239,60.6009,423.7175,255.3537,-173.8388,77.8410,-181.2684,-182.9938,-585.0769,33.5075,-0.5157,113.2315,-38.2473,441.8002,-249.2085,-108.6245,-194.3926,-205.5620
-2367.1875,-162.0622,-314.6328,-212.4271,-54.0574,419.6870,141.1968,4.9897,37.1007,-2.5043,-188.3804,-516.8285,-80.5418,-42.3146,72.9371,30.5713,438.7486,-223.2754,-188.6802,-204.7522,-320.8133
-2359.3750,-226.8176,-307.7857,-321.5832,-47.7682,346.6169,253.0010,-142.2421,74.2959,-112.8073,-151.8333,-554.6553,-11.0512,-115.1625,220.5988,-190.6804,475.6428,-41.3605,-111.7575,-199.1915,-174.1225
-2351.5625,-82.1833,-235.5607,-281.3520,61.9275,242.9504,258.2134,-174.0864,78.8938,-108.7103,-73.8734,-294.0975,18.9122,-146.6039,226.6640,-112.5159,444.9571,-284.0712,-424.4677,-301.2478,-206.0379
-2343.7500,102.7215,-121.1064,-124.8656,141.8697,104.5385,341.6738,-312.6716,-22.2737,-247.3532,-322.6835,-175.2909,108.5987,-211.7910,271.9761,-288.0985,270.5193,41.4734,-134.9376,-468.0808,-197.7230
-2335.9375,9.2695,-145.0128,-191.7460,153.4608,38.7743,459.7945,-415.6314,58.1985,-350.3578,-169.8467,-132.8526,95.7126,-168.3223,242.9559,-243.0461,388.7419,-52.3200,-158.7572,-422.2841,-80.7491
-2328.1250,109.2253,-150.5264,-46.2312,148.4615,39.4067,312.3211,-234.2037,131.0602,-314.9891,-133.6126,-24.0206,44.6045,-131.4518,132.3372,-98.5931,278.3779,-163.7099,-164.1810,-498.1267,-192.3776
-2320.3125,-10.7732,-130.9977,-141.6799,98.5095,55.0839,254.9016,-291.7552,146.9638,-372.5944,-192.3242,-120.1491,86.7215,-116.5231,221.7684,-193.0903,185.0790,-3.0395,102.4547,-372.9406,-66.9520
-2312.5000,-156.8617,-276.5923,-219.2264,57.4504,87.6550,177.3700,-77.4047,214.7672,-122.2847,-88.1196,-163.3796,21.0006,-47.6863,217.0912,-51.6760,327.6795,-394.4853,-115.0300,-133.8614,-72.6410
-2304.6875,-105.8954,-332.1653,-202.7302,-32.5713,180.2746,195.8891,125.0033,159.6258,-66.9122,-217.8545,-219.5788,-9.0676,-29.7973,162.4644,-327.2098,199.3227,-169.8843,146.5385,-13.7406,-128.2850
-2296.8750,-237.7443,-288.5675,-272.0583,11.6006,185.0866,273.6141,-19.3865,163.6988,-247.3168,-67.3729,-215.5939,32.7750,48.2881,167.0285,-471.5280,167.1793,-160.1131,190.3018,64.5818,-14.7240
-2289.0625,-89.4445,-280.8387,-111.2494,54.9148,200.0391,178.4821,105.3905,104.9201,-160.5415,-53.7404,-92.4788,-31.7919,99.5192,-2.2676,-273.6772,72.1867,-259.2076,22.2163,1.0588,-148.0197
-2281.2500,-57.7478,-145.7267,-45.0555,15.6231,194.3828,135.7477,-12.4290,-12.4631,-240.3611,-243.7207,-137.9774,17.1546,129.1435,27.8305,-354.4367,-81.3928,89.1099,264.5446,-38.0501,-81.9128
-2273.4375,-84.5565,-171.1372,-38.3626,24.8231,202.2195,69.5128,-5.7354,-5.3408,-87.6777,-128.1878,-57.9790,-27.2315,99.2671,-0.5714,-127.6814,37.5420,-149.0844,-79.6554,-29.6687,-38.3126
-2265.6250,57.8465,-205.3606,74.5354,26.2244,132.2426,0.4866,70.1552,-76.0143,-47.7963,-162.4545,17.2192,-47.1676,28.5923,-33.7677,-197.7395,-106.3268,27.9407,62.3370,-64.1128,-72.5164
-2257.8125,-50.2939,-139.1400,-45.1202,59.0870,49.7006,101.9288,-159.5315,-48.2276,-130.4756,-61.2566,-30.1334,34.7498,19.3716,104.4975,-317.3583,-76.7435,95.4159,94.7563,-33.1328,64.7323
-2250.0000,6.6846,-83.8350,54.3302,80.0619,-33.7514,18.4753,-24.1203,-22.3407,-32.0519,-35.9576,68.6156,19.6463,46.2569,57.8639,-144.8701,-88.0687,-60.0145,-164.7456,-83.0767,-19.9296
-2242.1875,29.0134,7.8155,74.1245,102.3879,-84.8613,76.3744,-150.3736,-75.1165,-158.2876,-199.3006,-22.2954,92.0634,-7.5031,115.5841,-308.0259,-102.0544,243.9216,102.1102,-166.6837,36.7624
-2234.3750,-94.0602,-9.9442,-56.4895,85.3122,-178.3746,166.8693,-172.0203,50.7035,-105.9074,35.9660,-43.6064,60.5970,-27.6570,94.8935,-145.5629,97.5697,-90.5573,-161.4505,-79.6984,89.0524
-2226.5625,15.9216,-76.6634,24.9469,19.2818,-242.8495,102.4103,-16.6065,133.5662,-61.4613,8.2739,38.1301,-3.0458,-92.7543,31.2501,-101.0497,71.2458,-51.9748,-87.9482,-76.6778,-12.6126
-2218.7500,-40.9579,-134.2435,-40.4687,-3.5870,-234.1892,221.1094,-156.0538,178.5761,-273.8632,88.7280,-28.9878,23.3169,-46.7017,112.7585,-276.3810,42.0741,101.7673,64.7078,5.4804,104.8804
-2210.9375,-20.0214,-219.0404,59.9237,-16.6427,-168.7505,139.6098,-55.6985,206.3734,-172.4537,189.9691,34.7121,-51.2385,17.1487,31.0700,-102.9010,34.6940,-157.6978,-89.8456,-8.5722,-14.8280
-2203.1250,61.7763,-137.9931,111.1691,-74.8588,-117.4700,118.9676,-40.4996,111.0025,-195.1988,57.0425,11.2677,-45.8917,-4.1353,-26.7673,-233.5879,-169.8467,99.7045,203.4774,2.2289,-73.6810
-2195.3125,-46.2300,-139.7591,-42.3939,-112.8821,-48.9946,113.5201,-47.0874,141.8328,-127.7407,161.3254,42.0259,-69.0902,-10.2077,-32.4078,-94.0721,-101.1909,-148.7015,-9.9953,175.2412,-6.3359
-2187.5000,65.4681,-206.8366,3.7520,-213.2076,-0.8275,-22.2316,147.0437,115.3579,65.4305,170.3159,87.4855,-174.2005,-0.5783,-132.3658,-10.8439,-53.8530,-249.3924,-40.7551,143.9553,-107.3022
-2179.6875,-64.7378,-160.8264,-136.0057,-201.4295,-31.5674,58.1177,-68.7229,120.9917,-39.3061,213.4165,-54.9582,-92.7735,-30.8412,21.7683,-187.5087,63.5800,-98.9653,181.5974,118.7633,8.8342
-2171.8750,-45.0923,-142.9837,-113.9033,-147.8033,-80.4587,9.3045,-7.6233,145.4825,57.8213,273.3802,41.4556,-114.6292,-6.2365,-27.2654,18.6935,124.8635,-360.6979,-117.2190,102.4214,-78.1858
-2164.0625,67.1609,-66.5485,42.8042,-105.5876,-32.7612,-17.9160,1.0757,-29.4211,-43.4505,61.9514,50.4878,-86.4776,2.9765,-90.6999,-45.4929,-122.2624,-3.8303,100.5594,-33.3282,-142.5983
-2156.2500,-27.7302,48.7281,-60.6545,-24.5309,-62.2317,27.7152,-175.3855,-21.4639,-182.8542,105.4014,56.3830,-23.0154,11.0416,-46.2761,-0.8088,-3.5202,-63.1323,-64.8370,-94.2336,-62.1475
-2148.4375,168.1582,67.7595,40.6465,-4.7165,-106.9799,-17.9080,-75.0967,-67.7593,-192.4874,22.6056,194.0525,-30.5662,-35.1504,-55.1116,62.6291,-49.0312,-114.6723,-186.4918,-215.4181,-218.9460
-2140.6250,154.7675,124.5166,-13.3406,17.8076,-123.0505,114.1651,-239.1256,-47.3713,-355.4214,-104.4878,66.4454,58.0088,-51.6479,39.7523,-248.2428,-100.8563,118.5130,46.5618,-194.9294,-162.0342
-2132.8125,47.6927,86.5804,24.9877,15.6475,-84.8488,78.5374,-127.8533,-8.6892,-171.0490,-30.2752,66.1656,6.6128,-12.8439,-32.0888,-62.7941,-25.3964,-130.0068,-273.0988,-127.1531,-234.8198
-2125.0000,148.0253,45.0395,134.7230,-96.1048,26.7387,-30.6925,56.8271,-82.6253,-61.2747,-177.6647,65.2979,-69.0453,61.3762,-104.5401,-25.9446,-97.5531,39.8972,-173.3374,-168.9742,-382.1992
-2117.1875,-48.2969,-11.1534,-2.2010,-80.5153,147.6641,17.4156,-44.1314,-35.2080,-125.1457,-57.6771,-35.2124,-76.7524,144.9645,-94.6537,-15.7458,59.6407,-50.8554,-229.2268,-190.4247,-262.2199
-2109.3750,92.9303,-11.7970,35.4287,-80.3834,150.1280,-53.9452,30.4882,-33.2320,-49.4412,-56.1182,148.8370,-122.5561,147.1030,-166.2323,96.0153,25.3666,-192.0638,-299.5659,-332.3066,-297.6954
-2101.5625,216.4448,110.8432,11.3532,-27.9564,89.8786,32.9962,-214.5843,-130.9567,-294.4240,-191.2472,198.1838,-18.6593,12.5518,-78.5049,-148.9168,-70.6277,72.0431,104.4243,-454.8701,-174.8617
-2093.7500,119.7407,49.2656,-54.9176,16.2781,-12.5829,114.7407,-279.8394,-86.8769,-286.5769,-0.5736,241.3386,-4.7419,-53.1912,2.0181,-32.0170,84.1744,-236.0656,-62.7838,-341.6279,-131.2204
-2085.9375,188.0414,45.6909,56.8213,-20.4825,-47.0635,44.4810,-132.0871,-121.8105,-285.7180,-108.9151,242.5029,-32.5300,-50.9326,-68.4663,-29.0989,-23.0383,-62.1448,40.0372,-239.3893,-239.5700
-2078.1250,31.4488,100.2326,-75.3391,-36.1327,-68.4657,59.3144,-263.2407,-106.6484,-306.7645,-94.1505,109.7874,-6.3098,-35.5707,-52.8610,-88.0726,-7.1648,26.8860,94.9676,-115.0440,-114.8009
-2070.3125,58.8818,55.7800,-7.4904,-8.7872,-36.8850,-55.8744,-86.3721,-111.4895,-128.8042,-26.3594,177.1018,-53.8303,-4.2007,-131.2732,89.9550,-85.3010,-157.0842,-90.1185,-89.6839,-194.0276
-2062.5000,97.5142,23.5187,69.5637,29.7463,-106.1227,-14.8750,-156.2974,-219.1232,-236.6298,-207.3423,142.6347,13.5357,-37.6274,-17.4888,-126.8130,-229.2406,198.1594,265.0011,-87.1124,-191.0387
-2054.6875,65.3381,-45.5400,34.8190,67.4860,-140.1796,62.3195,-154.0135,-179.5504,-234.2344,-168.0924,181.3941,-16.5278,2.1446,-51.5045,-14.3581,-77.9814,24.5947,21.2928,20.6552,-188.8345
-2046.8750,266.8767,-20.8873,212.7961,57.9402,-145.5631,-52.7907,60.9728,-185.2817,-166.1289,-284.1433,248.8783,-39.4430,-3.3801,-129.8122,-20.1987,-230.0456,84.7557,10.2799,-25.8905,-304.9174
-2039.0625,123.2711,46.6150,56.6281,55.2574,-191.1214,11.9540,-59.2093,-157.1650,-212.1647,-183.3349,91.2360,5.7330,-49.0493,-101.2717,-102.1862,-274.2702,187.7951,113.1225,41.4144,-167.1274
-2031.2500,53.8801,46.3191,-15.3247,-50.2145,-188.4985,-59.1176,89.8161,-7.8439,84.0145,75.6892,55.8203,-80.2543,-46.5030,-172.5422,194.0393,-199.3107,-198.9613,-202.8348,40.9267,-202.1308
-2023.4375,-4.1098,93.4344,-77.8683,-72.2926,-140.4939,-46.7971,64.2465,-34.1247,58.6023,13.1230,-44.1742,-36.5186,-35.5517,-124.4191,-16.3437,-259.9703,-11.2898,90.6466,-53.1441,-154.7224
-2015.6250,-170.3114,30.3594,-148.6008,41.4246,-135.7059,30.3209,-80.5041,-30.5979,-11.9912,89.3766,-115.3486,9.6178,5.2061,-47.5046,-12.9142,-145.8361,-73.8253,27.9283,-10.3918,-41.5039
-2007.8125,-4.1605,-49.3700,68.0284,68.4873,-103.5849,-10.2216,100.1263,-144.7249,94.7921,11.9926,-46.1481,-25.2423,38.3208,-87.2604,129.8859,-296.3621,23.9931,19.5753,-90.2731,-155.9285
-2000.0000,-14.3606,-25.4498,50.2990,57.1917,-83.8433,46.8778,-28.5782,-161.1950,3.2359,31.2857,-138.2768,-1.7093,21.0876,-68.3763,2.3520,-276.2461,258.4654,183.8879,-67.4724,-26.6775
-1992.1875,-4.1041,-87.0860,61.0240,-2.6543,-108.6764,-51.5915,56.1876,-40.2070,162.1416,226.0649,-52.9252,-88.2066,69.3075,-129.0513,124.2857,-153.6909,-47.6111,-158.3480,47.8075,-51.9647
-1984.3750,91.2031,-26.6648,124.8172,-47.4416,-154.4823,-98.0130,157.0145,-87.1665,225.1038,68.8977,-26.5057,-72.7830,59.5788,-138.6762,-32.7377,-310.1102,153.4021,42.4918,72.1579,-62.1879
-1976.5625,-87.2413,75.0186,3.8722,-15.9657,-201.0561,-69.1861,36.0997,-95.8845,289.3306,132.9967,-37.8130,-16.2301,50.1064,-74.0579,30.5098,-209.2996,43.6769,-31.4173,138.7726,74.8543
-1968.7500,56.9311,77.3114,122.5555,23.1128,-266.0473,-170.7796,191.8132,-161.0137,481.1886,30.7014,43.5163,-50.1317,22.2409,-138.8612,296.3824,-273.9084,12.5599,-167.7212,35.9949,-27.4985
-1960.9375,60.9546,116.4628,120.0967,27.0353,-269.2039,-99.5381,78.3874,-311.2984,331.9064,-44.7289,-32.2729,-5.4833,56.2420,-104.8264,220.1130,-423.6736,333.3152,116.8332,4.0780,117.0213
-1953.1250,54.0886,1.7332,144.7480,19.0613,-243.2778,-110.2174,140.0668,-212.4829,356.7551,88.9697,29.0840,-72.8951,82.3422,-152.7017,392.9766,-287.3510,78.1657,-173.5350,65.2593,178.6624
-1945.3125,168.1448,44.9237,229.3258,-7.0010,-269.4839,-136.0168,187.6441,-201.7818,330.5279,-46.4252,75.3843,-63.5595,56.3420,-178.6905,219.7468,-350.1596,262.9561,46.0080,38.3404,152.2296
-1937.5000,-0.0438,156.8826,84.6660,0.6998,-267.9673,-97.0818,79.9710,-126.3397,222.0679,28.9499,4.4721,-2.1303,59.1045,-139.9297,148.2790,-274.2327,234.5052,53.2959,185.1773,264.5785
-1929.6875,45.9299,62.0107,140.1811,-22.4472,-248.3233,-224.0195,319.4718,-69.7557,315.7763,47.4843,22.7527,-76.4970,152.0263,-193.0303,498.9857,-291.1739,0.2127,-146.2633,231.1600,100.0947
-1921.8750,37.9019,18.1442,163.7067,-32.5949,-113.7015,-162.9638,342.9702,-83.1712,192.4962,-37.9633,10.0620,-49.4499,212.9577,-169.1343,191.6984,-414.1287,271.9410,124.2111,221.1696,160.6330
-1914.0625,44.1768,-46.4228,130.5362,9.5497,-73.8045,-122.6257,309.7947,-6.2619,342.5362,184.9237,122.7056,-65.4180,179.1926,-165.9601,-98.2665,-225.7886,67.9575,-150.0093,262.5261,237.4833
-1906.2500,266.2229,-1.2252,291.1315,-49.5634,-96.1785,-218.5632,360.3954,-65.5970,357.3462,125.5722,211.1341,-115.1434,120.1687,-261.0617,-84.4747,-284.7267,219.7452,-68.4449,131.6725,178.0957
-1898.4375,137.8136,115.5480,150.2841,-73.1276,-91.0321,-175.9661,182.5562,-133.3777,142.7175,131.7928,106.1506,-70.6859,89.7007,-219.6212,141.8808,-279.1288,337.0888,13.6818,143.3981,330.2848
-1890.6250,138.0116,114.9344,188.0537,-3.0837,-126.3093,-283.7902,294.3409,-131.5593,328.7059,133.6299,143.8114,-51.2698,92.8446,-179.5939,179.8637,-239.9541,160.0367,-198.5880,211.7476,259.0916
-1882.8125,147.5537,123.6864,270.1848,42.3095,-117.2579,-238.2759,228.4866,-196.3936,337.0449,-41.1680,116.8536,33.6766,28.3526,-98.2283,-251.7968,-378.4508,451.3595,197.5312,292.4776,304.2760
-1875.0000,83.1391,128.4962,236.3691,46.7622,-153.1702,-199.7166,157.7003,-158.1772,301.4528,34.1061,154.9807,17.5376,66.9199,-132.8210,7.6141,-376.9083,246.7267,62.7055,402.2911,379.5299
-1867.1875,260.7297,200.3184,389.5736,85.2253,-182.0909,-338.1843,348.9449,-260.9666,346.8768,-68.6079,235.1407,-11.6323,74.4942,-272.4206,382.0437,-589.3907,248.1151,99.9044,299.1245,276.7930
-1859.3750,135.5631,285.4023,251.0390,63.9363,-174.7714,-294.4114,283.4533,-290.5018,317.5613,-25.0427,132.5745,48.7511,119.3390,-190.7832,243.7287,-581.6385,402.7811,219.3692,382.2304,431.3253
-1851.5625,85.3634,164.4506,236.4914,-20.3989,-153.5130,-418.7111,414.9317,-121.0802,560.2203,218.5006,265.0121,-44.9671,178.1333,-205.2174,266.3867,-448.9453,72.4046,-76.2382,473.2968,416.8181
-1843.7500,124.3893,132.7261,238.1778,-122.5327,-115.0760,-453.8248,416.6039,-45.4621,562.0775,220.2573,267.6968,-78.2595,217.1278,-203.4572,158.2298,-520.0717,287.2700,173.3667,405.5719,455.5380
-1835.9375,-7.6786,104.9283,132.7777,-149.7547,-72.7654,-448.0497,275.1692,106.0670,456.8317,335.9381,272.3353,-85.0218,296.0252,-124.7918,346.9836,-294.3150,120.0324,75.8692,379.7595,534.1915
-1828.1250,124.5700,95.4573,277.6873,-87.6726,-1.1850,-448.9894,421.0506,104.8920,419.8984,187.9239,344.3162,-42.9865,294.2290,-52.8365,382.0522,-295.2748,76.1136,66.6948,228.2637,349.1674
-1820.3125,43.1111,189.3079,190.9047,6.7085,94.6752,-279.6417,223.2428,17.0151,222.2798,63.2127,220.6301,92.5259,281.7451,80.4108,147.4377,-346.9490,345.5119,300.8570,217.0980,408.4716
-1812.5000,13.4626,192.9612,163.9491,46.8878,67.3231,-233.5142,268.2652,26.9480,341.4794,146.3080,265.7926,77.7155,217.0693,53.4346,340.6556,-226.8455,104.7081,24.8372,220.7697,307.5887
-1804.6875,153.8707,228.6716,277.0708,12.1155,70.0095,-229.3531,309.3563,-43.0782,344.7355,2.4603,270.0501,76.3961,111.4481,19.4966,233.9256,-296.7177,280.9818,235.9116,81.5331,237.7731
-1796.8750,67.2214,247.3552,142.1473,30.2999,44.6199,-217.2501,64.4053,4.8533,210.9453,124.5898,209.2994,91.9735,123.7784,68.4979,210.1519,-100.6530,229.2155,183.9559,64.2862,396.9332
-1789.0625,197.3335,270.8240,245.9949,55.2490,1.9559,-297.4194,95.2251,35.5357,240.9248,155.4937,313.3336,62.9529,43.8535,-10.7682,240.1314,-69.8693,78.2170,67.7630,17.8223,280.8587
-1781.2500,139.1851,352.0674,219.5984,66.9520,-25.9860,-176.8420,-79.1961,45.9729,67.6702,92.1642,212.1490,166.9931,-56.3189,108.7136,-43.1357,-96.3627,264.9905,395.3520,64.1456,327.5611
-1773.4375,23.9862,200.2738,136.1647,91.6073,-73.9906,-150.3307,-15.6397,108.3758,131.3917,191.8118,238.9567,128.5264,7.4716,135.1310,93.5768,3.0819,9.6940,138.8847,228.4548,317.2281
-1765.6250,132.0077,167.6883,179.9464,95.4566,7.1914,-215.6367,102.1428,5.9738,66.3377,16.6771,248.0170,95.5144,15.4660,32.7368,65.5100,-99.2905,187.6168,317.6246,266.9838,215.1125
-1757.8125,1.7261,246.8206,39.4414,104.0056,13.0503,-173.2737,-1.3665,-24.7158,-74.9979,59.2774,216.8240,125.0011,-14.8340,39.0249,108.1694,17.0446,127.2463,327.0554,276.2353,294.7276
-1750.0000,117.0065,257.5222,92.5089,45.0982,-44.5540,-266.4013,161.6954,-44.8489,199.2478,112.4642,345.2252,38.5668,-34.5810,-55.1641,345.4022,70.9280,-178.5628,22.0324,181.0532,164.9136
-1742.1875,135.5818,275.5590,73.8876,-7.5145,-64.8668,-250.2493,105.0637,-101.6826,215.8100,92.9725,214.9552,53.9512,-91.0246,-2.0602,140.9316,87.0951,86.9547,215.3399,93.1891,218.4324
-1734.3750,-69.9103,209.5621,-69.7725,67.8282,-99.2412,-173.1523,35.3998,48.4445,256.3419,390.4595,144.6637,55.7946,-50.5072,37.9980,218.4305,273.1997,-119.5843,-60.3938,63.2927,258.9262
-1726.5625,-33.3884,140.5799,9.5923,103.1815,-57.6248,-168.0579,113.7484,89.5657,188.8726,359.9429,114.4220,49.6016,-44.9846,7.0592,150.9279,168.2751,22.9085,79.9122,-41.5915,154.4356
-1718.7500,-206.9516,176.5172,-104.1211,141.4430,-61.1241,-24.0649,-109.0014,196.5896,-33.7126,356.3270,39.1310,138.4355,-47.5601,114.0166,-71.6715,202.2379,94.3230,258.1403,-4.5439,261.8651
-1710.9375,-173.0008,209.9657,-25.3096,68.2045,-94.1314,-19.5929,-67.2269,275.1124,43.2127,362.2151,154.3936,98.3109,-79.6304,80.4512,116.2587,243.6879,-187.7530,9.8752,28.0391,119.8065
-1703.1250,-42.3534,271.1307,4.2161,59.6639,-137.4528,46.5632,-73.7423,195.3433,-36.1545,171.8240,148.3912,149.5403,-159.0023,111.5673,-109.0997,89.8151,118.8962,317.3444,54.3666,40.4760
-1695.3125,-76.9213,200.1115,-69.4566,163.9238,-138.9999,156.5103,-74.4409,194.3931,37.2964,282.2761,111.2225,141.3121,-196.5766,73.4763,-73.6439,235.7458,-57.6670,35.6217,158.5452,39.9728
-1687.5000,92.5640,159.1621,76.9381,124.2304,-104.5181,45.4876,108.9318,120.5011,110.8273,171.7944,149.1417,63.4458,-233.0950,-37.5751,35.8610,271.7159,-27.1707,-75.0323,83.8104,-70.4640
-1679.6875,-65.5494,210.6344,-60.2519,69.9322,-168.6431,53.8466,-102.2883,92.0071,-63.2294,180.7263,47.4919,96.3016,-224.2024,44.7648,-64.2217,391.0580,130.7370,81.7385,135.5137,122.5243
-1671.8750,-35.4602,100.3300,-28.2288,-40.1657,-211.5763,-24.6179,-144.2803,197.7094,77.9391,322.8775,154.0902,-3.3158,-155.1084,39.2869,76.9287,458.5702,-155.1571,-133.2907,165.4490,117.7282
-1664.0625,97.3828,56.8077,73.5464,-47.5040,-219.7700,4.6530,-187.5090,116.1589,-38.1397,131.7947,183.4755,11.2734,-199.2701,67.5462,-150.1602,340.8158,188.7164,175.4571,88.1597,110.7098
-1656.2500,-5.7658,163.2998,-39.6628,24.1602,-223.9758,110.8915,-301.7038,112.6188,-189.1915,127.7368,217.9106,84.2405,-203.4243,101.7791,-153.2137,300.0616,154.5712,36.1811,54.8966,217.7047
-1648.4375,99.1463,197.8772,-33.7969,22.8648,-219.1372,-30.8495,-111.8400,-28.8783,-109.1879,-13.2638,261.4313,50.0616,-160.5193,32.0534,109.7812,195.3330,84.5152,-0.0178,-17.3099,76.7765
-1640.6250,-120.6573,188.7749,-117.6224,13.8597,-121.0040,30.6954,-122.6759,-76.0707,-156.8642,-95.9307,-42.7098,85.6481,-23.2983,57.6267,-10.8991,183.9069,250.7422,308.0694,8.8047,103.1782
-1632.8125,-282.8029,61.3402,-99.7712,97.5075,5.7732,47.8715,42.1605,-22.6096,8.1319,-4.9387,-24.1604,44.8421,104.5682,1.8404,81.0861,312.1174,-52.3703,-66.1758,22.5848,11.2350
-1625.0000,-112.9521,55.9342,9.0821,57.1656,76.5400,9.0550,76.9870,-98.1420,7.1143,-153.9314,48.4121,42.6583,102.4250,37.0627,-30.9374,162.3134,189.5529,34.6108,-158.6052,-63.6810
-1617.1875,-220.8467,122.7928,-110.7997,53.0880,65.5488,145.4782,-115.9216,1.5915,-75.6421,-52.6496,39.2780,92.9367,55.5277,136.5264,32.3090,224.7475,115.7142,-179.3643,-196.5183,73.6622
-1609.3750,-91.1828,112.2237,-82.1011,43.5641,-15.8997,64.4456,23.7232,68.8758,27.1392,87.1795,106.7213,49.1025,12.1764,92.5356,247.0826,143.7124,-139.5308,-400.7379,-241.8616,-6.4278
-1601.5625,-79.6364,123.5730,-146.5002,18.9438,-44.4589,108.3068,-188.7369,113.0721,-185.1766,21.9285,42.0946,82.8903,-16.2719,136.4401,-3.2357,114.5854,117.1154,-38.1974,-195.2630,75.4099
-1593.7500,-120.5341,47.4845,-152.3291,47.8745,-51.4756,64.6993,-267.6146,253.8253,-226.9219,90.2304,111.0536,45.3512,13.8277,92.8812,-8.9784,291.9844,-134.6885,-149.0881,-61.0757,69.7964
-1585.9375,35.3587,27.2189,89.6410,28.6095,5.3033,-24.1046,-172.6890,91.3840,-241.8755,-217.6626,170.8269,23.2267,-0.2765,4.1273,-205.9279,166.1550,127.3364,147.8687,-10.0467,-54.9965
-1578.1250,-54.4138,43.3198,28.9660,44.7004,53.4307,61.4356,-233.3887,-79.6956,-339.4698,-315.1828,73.9811,87.2514,-25.0325,89.7115,-266.4901,104.6732,213.6857,304.1690,111.3638,31.5714
-1570.3125,-11.4308,-19.8176,43.0559,51.5309,66.3173,1.7073,74.6882,-140.0265,-105.3106,-300.9516,125.9064,23.7313,-47.0341,-6.9674,40.6987,7.9304,-60.1866,30.2555,189.5503,-101.1018
-1562.5000,-96.3657,1.1589,-45.7571,2.4538,49.3078,58.0669,95.8699,-45.2487,-158.0461,-279.5980,-36.0462,64.1591,-99.9219,49.4470,-159.0138,-45.7018,102.0422,227.4475,281.8726,-79.6451
-1554.6875,-229.4340,-27.0069,-186.6977,-25.7757,-19.8451,99.2440,27.9356,180.3785,-115.9051,19.6146,-67.1058,27.2185,-57.9595,54.6959,-116.8561,253.5060,-242.8917,-117.5189,394.0666,-37.3338
-1546.8750,-13.8562,-127.4946,-28.9768,-91.3485,-9.3546,-36.9362,149.6437,228.6489,-30.1177,-5.5283,56.5044,-82.4242,-46.3496,-81.3999,-141.0580,153.3479,-167.1349,-41.8008,293.9230,-172.3476
-1539.0625,-55.4868,-99.1553,-77.4450,-169.1114,50.9373,24.6726,27.1476,179.7280,-115.5190,56.1461,7.9486,-86.0018,-20.9387,-57.7019,-189.4313,140.9859,-33.5940,56.6992,216.5874,-73.5452
-1531.2500,-26.4514,-175.1335,-43.2385,-175.2235,157.8840,-16.0804,172.3154,139.4453,66.7279,91.4631,81.0745,-150.8766,50.1257,-97.3608,102.8453,101.2500,-284.3801,-299.1261,105.9043,-149.0858
-1523.4375,-1.2795,-114.9439,-53.8850,-114.1878,181.9858,45.3166,87.6196,17.3165,55.1226,-104.0507,-40.6347,-62.1879,38.3428,0.1388,-55.7365,-21.3285,-14.0116,-28.7839,-44.6073,-123.4471
-1515.6250,-147.2045,-121.8500,-102.6166,-51.2491,169.9846,106.6013,-71.1562,43.1021,7.4409,-4.6467,-50.4155,-29.9656,100.4540,62.5308,6.6033,76.9921,-195.7591,-140.5522,-86.2001,-23.9076
-1507.8125,31.5673,-153.0394,92.3632,-82.6024,215.6782,42.5868,49.7653,-21.4046,17.4559,-68.5476,71.5125,-82.0929,74.2522,-39.3759,-20.3734,-61.0099,-156.7664,-66.5743,-117.0656,-160.6552
-1500.0000,-9.9795,-124.5129,44.0384,-89.2482,204.0632,104.2692,-108.6087,-32.1888,-140.8211,-78.7232,-11.8404,-45.3144,26.7412,-13.5889,-213.6285,-36.2996,47.9029,174.0895,-17.1940,-60.6908
-1492.1875,-63.7667,-107.2187,-9.5229,-72.1565,149.1936,49.6863,-51.2060,97.7872,-10.3377,51.8598,8.5815,-79.3808,-27.0224,-68.0702,62.8715,93.1456,-250.6734,-196.4751,70.4553,-113.9811
-1484.3750,48.0291,-66.3114,35.5078,-66.4814,118.9298,-17.2935,-117.2023,31.3715,-75.2612,-50.9470,17.6061,-63.1168,-20.1829,-60.9402,-40.0295,-10.8100,0.3576,-14.4120,41.7417,-142.6513
-1476.5625,-21.3815,-29.6028,-151.6537,-30.0009,76.4771,15.5152,-230.3702,27.7610,-116.3681,20.0607,-21.5553,-17.8197,13.4564,44.9828,-6.1001,132.0347,-138.8380,-118.5588,42.8532,-35.5243
-1468.7500,115.5099,-103.5736,-40.5111,0.7858,40.3325,-21.3826,-9.2330,-81.5553,69.8223,-15.6404,91.5889,-70.3230,-22.6118,-28.7925,106.1171,96.1692,-281.7115,-262.3668,-30.7174,-144.0885
-1460.9375,40.4228,-72.4860,-123.3312,-38.3832,30.2417,42.7662,-55.0421,-91.8014,-86.9298,-24.2666,9.7943,-36.8037,-68.6312,-1.5210,-124.5981,85.3737,-40.5619,14.8576,-34.2028,-42.5840
-1453.1250,-28.5147,-106.2495,-119.9921,-108.4131,31.3119,44.0458,21.3320,58.1177,-9.5180,126.2609,13.1664,-80.7137,-28.4993,0.8892,25.8488,161.7281,-285.2652,-264.7690,-32.5205,-75.9318
-1445.3125,48.9876,-134.5519,2.7945,-170.9988,152.8445,18.7805,107.1429,-3.5052,-71.6693,-82.7497,-47.0073,-81.8360,-16.9193,11.7584,-72.2765,25.5333,-32.4944,24.0804,-95.3771,-173.8088
-1437.5000,-81.7102,-89.0443,-137.6103,-90.7762,232.1856,135.3126,-69.2482,39.6834,-175.0184,-111.9379,-112.3624,-27.6839,-9.5457,17.4327,-138.5819,105.1512,13.0472,33.7067,-14.4349,-92.8812
-1429.6875,98.1011,-120.0031,-15.5014,-16.0509,279.0341,108.3445,88.8528,14.3663,-52.8830,-247.6368,10.7897,-67.0333,1.3195,-119.3856,56.5994,-68.7506,-157.8830,-137.1364,-9.0071,-228.4440
-1421.8750,98.6445,-13.1873,18.3461,-16.5703,275.6350,215.1330,-97.3174,-99.1925,-203.0071,-359.5750,-65.2958,15.3243,-2.0715,-49.4479,-166.4613,-219.8922,123.9264,144.7661,-43.8261,-157.2338
-1414.0625,-23.3477,41.0868,0.6630,38.3611,256.6894,233.3554,-189.0276,-80.2967,-220.6747,-267.0643,-7.9084,35.2813,53.9815,-31.0690,-37.0638,-53.5806,-102.8217,-116.8830,-59.1935,-137.5782
-1406.2500,156.5589,80.2683,193.8780,112.1964,226.6427,204.4881,-143.8566,-219.4974,-174.4534,-404.6561,2.3834,65.9214,-11.0731,-59.7881,-138.7907,-193.3705,112.3584,27.4098,-125.6383,-239.0098
-1398.4375,37.3063,67.2990,63.9447,203.8851,169.4535,294.4700,-271.8236,-165.8367,-340.3698,-350.3815,-89.4673,139.0343,-30.2851,30.3414,-230.6495,-177.2998,204.3567,120.5306,-67.2042,-110.5906
-1390.6250,90.4092,-20.3029,50.3704,186.9158,117.6263,168.7901,-66.4172,-69.8340,-207.9322,-180.7756,8.0302,41.3290,-82.1546,-95.1761,-24.1674,-117.8949,-94.2789,-72.9728,-13.4072,-197.8249
-1382.8125,128.6407,-51.7428,53.9296,49.0953,46.9598,134.2667,-99.8670,7.3209,-278.3501,-177.0168,-61.3383,22.0944,-151.8718,-55.5343,-278.5349,-152.3337,156.2280,282.6868,60.5620,-193.8958
-1375.0000,33.4712,-77.5874,-9.9010,23.8719,18.9120,143.3380,-162.6927,90.0816,-268.1550,17.3479,-50.1048,5.7883,-141.9874,-9.2986,-157.2757,-33.1778,-80.6929,46.9465,142.1400,-183.3850
-1367.1875,175.3882,-40.3240,145.3638,25.7403,62.9807,3.5139,-7.4208,24.9494,-222.8690,-158.1846,-3.7850,-10.5494,-134.0080,-74.9596,-74.9352,-172.9292,27.5083,49.3482,73.8318,-321.7724
-1359.3750,-43.5731,93.0900,21.7661,122.7618,84.2128,98.8412,-94.9935,-26.0140,-309.4305,-208.5411,-163.3178,113.4055,-110.8835,20.5257,-199.4363,-113.5060,160.8295,147.8753,31.6975,-188.0120
-1351.5625,-72.6806,-41.6365,-42.9722,128.6311,92.3114,70.0039,135.3033,92.8749,-117.1407,-89.0656,-154.0094,31.3170,-28.9226,-45.1469,29.9043,40.7677,-185.9864,-163.7372,73.4349,-252.4169
-1343.7500,-44.2589,-153.8025,-12.1743,-18.9539,158.9813,25.7223,202.1382,123.3203,-86.3111,-169.0348,-232.1724,-38.6478,1.5825,-52.2575,-86.2209,33.6043,53.7503,112.2045,31.7371,-258.2603
-1335.9375,-76.4375,-149.5601,-125.9723,-16.1448,228.0682,95.8346,52.3797,156.1791,-52.0695,-24.5923,-86.9313,-46.6857,34.4886,-19.9643,-15.9244,103.8493,-224.1529,-166.4846,-69.5742,-113.7129
-1328.1250,112.4409,-171.2599,-0.7210,-3.2842,205.2177,-0.9900,104.6497,24.0928,73.2022,-82.1046,113.3539,-70.4090,12.4374,-5.6060,110.4041,7.1370,-315.9832,-258.0994,-231.8531,-135.1106
-1320.3125,-85.7877,-194.0588,-142.5814,8.4824,208.2738,149.1035,-39.2045,-9.0722,-69.6410,-41.7132,-29.4554,-2.0759,53.2756,108.6724,-69.3612,10.3500,-127.9380,71.1663,-183.2415,53.3972
-1312.5000,-228.2504,-371.0987,-143.6752,7.0060,243.0891,146.9518,70.6957,100.5086,2.2527,141.3988,7.4832,-90.1166,88.8514,32.7073,149.6155,119.3130,-375.1335,-175.8107,-78.8927,52.6421
-1304.6875,-145.5820,-322.9708,-21.6326,-50.3150,218.0685,48.9679,46.7242,39.2291,-57.7271,44.6479,21.5466,-91.4730,-9.4266,7.9041,-21.2765,57.4355,-46.1642,83.3749,-65.3939,66.0517
-1296.8750,-328.7263,-258.6342,-143.3968,-21.4321,93.2583,108.1789,-149.0350,173.1543,-217.4846,289.1067,-99.2012,-27.7405,-58.5126,104.2973,-105.9527,300.7674,-158.0406,6.7272,104.3103,200.6557
-1289.0625,-276.8250,-276.2387,-120.1249,-74.5088,5.5098,20.4436,20.2532,270.1312,-47.1928,423.6063,-111.9223,-83.3691,-71.5562,53.7458,26.4061,287.1404,-351.8564,-151.8365,157.0737,77.3081
-1281.2500,-326.7000,-291.6029,-285.6287,-125.3415,-12.9727,74.9665,2.7844,288.3714,-64.6555,369.3735,-239.4099,-65.8542,-16.3496,108.4500,-100.9730,157.7823,-155.4561,114.8463,143.1068,133.2122
-1273.4375,-374.7232,-304.1287,-333.2781,-103.3351,11.4181,26.3320,102.1848,277.4703,107.7340,357.9878,-176.0580,-99.0694,81.6988,60.0019,145.5085,146.2772,-414.2189,-72.6154,130.9921,85.9436
-1265.6250,-188.2102,-222.1061,-97.3873,-92.7867,63.3766,-31.7421,192.1208,146.1220,50.6583,44.1469,-122.1852,-89.8446,61.2868,-34.8807,14.5140,51.3350,-122.4128,184.4993,-32.5685,-7.7730
-1257.8125,-255.9090,-183.2982,-99.7036,-54.4368,22.1560,110.9821,-105.1316,142.5909,-136.6068,77.1190,-124.5321,-25.6418,-15.3289,71.0360,-98.6731,230.2125,-48.8415,152.3864,-28.3234,136.2954
-1250.0000,-107.6085,-246.4831,-15.0158,-48.0891,-3.0436,48.7092,-20.3808,191.0615,-51.8885,90.0803,-1.9073,-74.8871,-77.9522,45.9563,97.1123,242.0795,-252.2498,-86.7027,-92.0810,38.3485
-1242.1875,-86.1787,-154.5127,-139.2037,-61.5876,-19.0742,142.6065,-107.5023,175.6932,-176.0389,1.2017,-125.1563,6.2889,-56.4316,140.0399,-137.9628,116.1151,14.4702,217.3434,-69.6786,60.5529
-1234.3750,-242.7448,-169.5463,-228.3905,-7.0875,1.9102,200.5048,-86.6158,271.3355,-154.1774,170.3209,-139.4186,9.4168,38.0750,124.1290,-80.0217,173.1535,-210.8368,-44.6345,21.7167,45.7307
-1226.5625,-41.3225,-213.5777,26.4060,-50.5968,109.9046,124.4183,21.2498,157.9827,-194.3252,21.4358,-30.7167,-50.9969,72.5696,11.2377,-82.0976,-49.8024,-9.1273,88.4145,-56.8926,-103.0967
-1218.7500,-45.4691,-180.1720,55.6401,-54.6578,137.3674,188.7901,-169.4358,40.1010,-348.0128,-22.9838,-38.5968,-30.1804,64.5069,39.8012,-126.7092,14.7173,127.9933,155.8883,-95.0571,-0.4872
-1210.9375,60.5280,-180.6243,96.0283,-18.5731,141.0001,118.3183,-92.9678,-29.6317,-124.5427,-55.2718,39.6453,-69.2221,30.5841,5.5213,134.8175,165.3871,-152.7186,-195.4791,-164.0909,-69.7474
-1203.1250,32.6063,-31.9681,-47.4976,-11.3829,33.7429,120.9700,-125.4258,-172.2600,-9.9909,-160.4650,-102.0396,21.8588,-2.2473,119.3575,-8.5661,131.1705,30.6671,58.2351,-226.0383,8.0971
-1195.3125,-200.1003,15.8929,-258.8209,1.0132,-32.3024,91.8202,-189.6812,-53.6937,182.7525,30.5341,-165.5280,13.0123,42.1184,90.4001,110.2567,249.1539,-272.7789,-173.8762,-106.8031,127.1201
-1187.5000,-52.5122,-80.9472,-98.8597,-96.2901,-20.0264,-43.0099,-30.6482,-78.8313,305.7733,-29.1847,-42.7504,-98.9695,92.7785,-44.2416,123.3485,114.4354,-228.9177,-60.6485,-132.2726,30.4382
-1179.6875,-58.9027,-86.7546,-109.8734,-137.5479,4.3275,55.2132,-114.5630,-51.9046,0.8511,-112.8379,-88.9589,-44.9214,80.4893,54.1661,-70.4994,65.7988,-24.0522,214.6143,-103.6804,129.7960
-1171.8750,-65.1913,-92.4713,-37.7909,-108.7165,40.8068,-19.4697,31.6373,-53.8737,0.0300,-113.4053,-53.0948,-63.7299,43.2909,16.6675,222.7525,101.2648,-206.0907,-72.0147,-38.9985,19.2291
-1164.0625,50.6966,-10.9863,-23.5290,-62.6916,53.5067,-42.9437,82.0087,-150.6357,-96.6144,-282.7685,-148.0717,10.5708,-16.7177,66.3814,52.1877,-32.0557,121.0744,150.5603,-62.1198,-40.1327
-1156.2500,-55.3178,-10.4048,-210.1767,42.4327,13.3231,63.6835,5.4819,-43.2909,-135.1513,-138.0320,-186.9711,67.5152,-20.6369,136.2039,-24.2673,110.7372,-55.6952,-25.7988,8.8463,30.5865
-1148.4375,106.6190,-24.8700,-35.8804,27.5068,3.1020,16.2738,143.8910,20.9988,-34.7541,-148.3694,-122.9559,37.6930,-29.6206,89.9926,-106.8055,64.4817,-104.4867,-109.1944,-110.2504,-88.7561
-1140.6250,38.5484,83.6630,35.4003,-4.4207,37.8959,86.8798,-115.7155,-17.6985,-257.3587,-185.7009,-122.9704,104.2878,-32.6085,160.7963,-365.3510,25.2464,214.6859,139.3707,-212.3579,19.8917
-1132.8125,55.1369,65.8380,129.3334,47.2984,57.3615,33.1352,-132.6658,-70.7457,-163.3089,-129.3937,-29.3665,54.2312,25.0403,70.2560,-88.2478,44.6681,20.4965,-124.4261,-264.8397,-32.8371
-1125.0000,219.9022,90.2057,231.4450,36.2113,86.0443,-12.3907,-66.4491,-262.5854,-135.0818,-282.8942,-36.6108,38.0594,-21.1206,-12.0628,-95.9617,-184.6800,325.5145,145.9882,-311.1342,-114.3661
-1117.1875,57.1069,104.0063,19.9991,49.5696,57.1931,69.5434,-166.7857,-252.9653,-89.4018,-90.9423,-173.4319,70.4539,-48.8386,70.0695,-87.2094,-28.5534,198.9469,19.8202,-190.9904,5.5337
-1109.3750,69.4147,46.9029,36.6514,26.0220,-72.5440,-60.4064,32.9723,-126.2447,185.3604,0.0832,-120.1900,15.5146,-105.4694,50.3129,114.6143,24.6617,-70.4984,-179.2225,-143.7637,-87.4818
-1101.5625,-22.4010,95.6947,-62.8225,-65.6245,-136.3640,23.5630,-66.3840,-41.6206,160.0116,-24.9953,-181.0867,29.8462,-167.2022,60.4703,-21.6681,-38.2044,83.9336,81.6146,-58.6441,-2.6025
-1093.7500,-49.3587,-0.6707,-52.4465,-56.4219,-163.3143,-3.6108,18.1213,41.8481,243.5200,58.7517,-98.1620,-20.7997,-48.0920,33.4834,98.9034,8.7818,-223.8089,-189.7167,21.3050,-28.9026
-1085.9375,64.9721,-25.7371,110.2037,-82.9214,-36.9434,-99.4530,180.9009,-89.3868,260.3027,-108.2201,-117.9842,-31.8271,4.3051,12.8231,41.7420,-159.9201,-39.2436,30.2656,-39.4568,-159.9076
-1078.1250,-99.3629,-14.4775,-27.8180,-36.0734,7.7949,-17.9325,42.0282,-80.2595,194.4409,-62.8336,-255.4918,8.2963,12.0432,57.5202,12.9438,-41.2446,42.6274,41.5661,8.1307,-77.5830
-1070.3125,-45.7031,-65.2355,-3.8504,53.7714,-4.4465,-67.4114,177.1596,-56.1324,292.5760,35.5412,-195.0439,-19.5425,-37.2322,8.2167,222.1310,19.4268,-113.4836,-255.1107,-42.2951,-163.2834
-1062.5000,-11.3229,4.7479,-83.1547,52.3645,-46.9172,-36.1308,24.0229,-24.2472,103.4473,29.6741,-198.8977,51.5429,-79.7587,112.6749,-77.9458,12.8684,132.1449,-9.0544,-76.9756,-58.2389
-1054.6875,-135.9842,55.6731,-180.5098,-2.0935,-109.4194,-24.8963,-37.1611,97.5903,152.2685,226.7435,-149.8246,34.0165,-31.3425,124.0932,44.9188,135.2700,-169.2933,-309.0791,-26.7327,27.7250
-1046.8750,42.6589,60.9007,-24.5747,-68.2525,-136.6044,-52.3397,82.9140,33.7251,272.3574,126.0906,-67.4918,-8.2679,-58.6382,59.8395,54.0470,-39.0190,-94.4080,-269.7981,-91.2166,-73.0195
-1039.0625,-67.9469,90.8659,-107.9067,-2.6622,-182.0255,83.9862,-146.2816,-12.3726,152.1925,153.1936,-186.4375,85.1678,-69.1912,197.3455,-175.0760,24.4672,76.1811,-98.8128,-60.9696,27.9703
-1031.2500,2.1005,-14.5288,-66.5873,67.5726,-178.7801,125.9650,-31.8292,29.1806,193.6805,194.9281,-108.7705,44.7561,-101.1063,128.5064,-23.5625,65.6009,-99.5749,-274.1725,-25.1006,-77.4142
-1023.4375,33.4229,17.3673,3.0062,64.0992,-108.2185,122.2623,-35.0986,-10.9614,-66.5401,7.9596,-148.8565,88.7036,-141.7296,124.9762,-174.7551,-84.9446,248.9601,144.7624,-27.9438,-80.4999
-1015.6250,-117.1605,43.3472,-46.3090,53.7220,-84.5467,145.6608,-85.2608,87.0069,-79.6482,106.0860,-159.8787,73.8069,-118.2592,74.5492,-39.8370,12.6207,-7.4387,-40.2263,68.2973,-19.5123
-1007.8125,-22.8026,33.2654,58.3056,-27.7119,-53.9113,-7.9698,129.5145,44.9241,135.1792,64.1380,-130.0023,-8.5684,-13.8452,-41.9090,101.9994,-140.8609,-88.8650,-86.2437,58.4733,-135.5858
-1000.0000,-75.3179,51.3182,-75.9611,-114.9985,-40.1121,5.5705,33.4315,-15.0018,75.1656,41.3432,-189.0235,1.6788,36.7128,44.7979,4.9929,-128.1734,69.8221,2.8546,76.7988,-11.5242
-992.1875,96.9674,118.1640,-38.4338,-83.4756,-39.4974,-104.0815,71.1573,-51.1381,149.9551,5.3303,-5.2861,-29.5722,37.0553,-27.6856,152.7757,-89.6997,-144.6962,-317.2434,38.9060,-120.6946
-984.3750,355.7827,377.5544,54.6109,-0.3989,-56.3209,-122.1558,16.4078,-178.7223,-13.7244,-195.1305,-22.0514,88.7188,-54.0631,-44.6013,-158.9205,-328.6579,219.3288,83.2102,-88.4495,-248.3193
-976.5625,203.1397,542.4748,-31.8098,164.2246,-69.5777,-61.6782,-143.7887,-117.7455,-100.8407,-61.0306,-109.3025,186.4226,-67.6371,-57.9671,-171.0561,-268.0430,137.8568,36.1788,-135.2714,-224.4201
-968.7500,341.3364,610.2342,118.6053,196.6816,-65.9670,-132.3433,7.8571,-149.9141,-60.1195,-94.0919,42.2425,151.3757,-64.3694,-201.4738,-57.3646,-337.5733,99.2601,-106.9771,-278.2692,-367.6880
-960.9375,380.1167,685.5763,118.6031,200.7345,-102.7383,-95.3885,-212.9230,-223.4735,-206.8098,-167.5482,78.3461,205.6949,-101.5052,-128.3629,-278.0799,-338.4786,385.2454,38.4341,-308.6808,-257.3682
-953.1250,372.3164,502.3072,184.0106,158.1899,-110.1002,-103.0257,-220.3099,-157.6315,-104.1037,-26.6227,181.8161,129.5024,-72.2525,-61.8423,-64.4138,-124.9862,61.6343,-355.7737,-244.7182,-264.6800
-945.3125,358.7030,243.2427,242.5963,3.8558,-88.2531,-155.4281,-88.5346,-135.5847,-8.2245,-4.5078,92.4365,19.3096,-50.8190,-40.0969,-79.5897,-66.2848,153.2422,-157.7884,-187.5733,-242.7966
-937.5000,19.3363,44.4161,-85.5828,-124.2230,-48.1522,-115.5661,-85.5207,51.7277,-5.0955,219.8572,-88.7201,-65.9764,61.8562,-37.0932,-2.5116,120.6979,-44.9377,-74.6022,36.7951,-18.6842
-929.6875,-3.0691,-47.4688,-105.8150,-216.3575,4.9139,-209.7474,225.4242,142.9864,121.9756,163.1455,-34.9617,-174.2610,78.4731,-205.1272,234.4852,26.6344,-242.1455,-95.4555,121.0765,-75.6387
-921.8750,4.7607,-4.1160,-101.8207,-172.2517,46.2397,-131.6613,156.5914,73.5021,-94.7082,-90.3165,-30.9967,-65.3575,46.3385,-89.8962,-18.2690,-188.1492,80.8704,298.9179,93.5854,2.6543
-914.0625,-49.2591,-57.6328,-84.6755,-15.0051,27.7261,-40.4181,63.9133,55.1722,-77.2339,-35.6353,60.0801,-24.2712,26.3460,-35.5066,73.1266,-98.7750,-112.9818,35.4220,111.2223,20.0692
-906.2500,16.7032,-61.1650,100.4434,51.2363,28.2223,-3.1451,64.2161,-91.1499,-2.7787,-181.9614,23.0994,4.6584,63.3449,-35.0934,-0.5131,-208.4014,59.1892,242.9403,1.8522,-89.5249
-898.4375,-185.3481,18.2805,-6.4552,59.4805,32.7247,111.1391,-42.4761,-123.4596,-72.3146,-139.2821,-155.9143,61.3278,140.3366,6.3247,-70.1409,-130.0118,102.3209,321.4212,46.4717,24.8576
-890.6250,-64.3424,-36.2256,13.6888,75.7720,90.2932,-15.5168,162.8849,-102.7312,59.1955,-119.5835,-25.9202,-29.3355,124.3695,-157.2074,172.2607,-146.5771,-128.4857,91.9652,27.1182,-64.7343
-882.8125,92.7952,16.4134,29.9521,22.2153,106.0264,-73.0097,104.3717,-159.8573,-145.1489,-175.7348,-10.8258,-20.2622,29.5508,-177.5747,-70.2012,-239.9708,170.8441,425.6430,44.8998,-12.1778
-875.0000,-30.3129,34.7755,-65.0369,5.4069,85.5212,-56.7536,47.6162,-33.2365,-164.7232,60.8573,4.9858,-18.3217,45.4778,-124.1838,20.0978,-77.6111,-93.1001,162.0438,63.4058,41.1053
-867.1875,85.3176,8.8822,96.7045,14.3457,137.7753,-78.7270,98.5936,-128.8744,-77.5602,-71.8201,19.4940,-23.0205,59.1411,-110.0211,34.1170,-136.4959,-13.2670,172.2111,-67.3570,-54.8672
-859.3750,-28.2219,1.8286,44.2760,78.1382,122.8837,16.1654,-136.5929,-179.6519,-128.5448,-85.6444,-69.1860,33.7247,80.6442,-15.0028,-90.0093,-76.5029,155.3907,235.1956,-109.2822,113.9927
-851.5625,51.0953,-24.3811,91.6979,156.7811,59.8430,-83.0793,-125.9384,-131.5797,-8.6721,34.3626,49.9436,8.0299,53.9843,-41.1281,66.6887,6.3379,-117.0821,-70.9616,-135.3768,87.6708
-843.7500,75.7452,71.7438,42.4522,111.7799,-61.8460,-130.9448,-174.9686,-33.1412,-55.4640,-13.2750,-71.6198,44.3814,-31.3375,-15.8803,-128.2953,31.5354,153.8021,199.2192,-75.1309,112.6921
-835.9375,-132.5479,38.9021,-140.7466,43.8329,-171.4811,-57.7516,-211.9494,187.3663,17.7902,244.1383,-183.1572,23.2338,-105.6219,21.4277,-55.2313,251.7960,-54.2915,-8.5891,138.1424,185.7363
-828.1250,-11.5387,-120.6386,-7.6615,-45.8180,-183.8177,-108.2397,-4.6555,249.1798,188.3127,268.8394,-159.4388,-70.2324,-154.6164,-27.9478,42.1022,129.3683,-74.0648,7.9183,154.6860,26.0719
-820.3125,-107.6525,-145.2888,-110.7033,-105.5722,-103.2562,-27.8163,-34.4824,292.9034,84.7349,238.4519,-226.8522,-53.3827,-111.7129,15.5895,-97.6594,62.8678,41.0310,228.2938,200.1189,106.2993
-812.5000,-149.8168,-222.9948,-115.7977,-113.3758,-34.7420,-105.4347,107.6481,325.5804,265.1158,344.9961,-195.3500,-131.3993,-6.8719,-61.9174,191.5112,132.3144,-316.9200,-25.3827,193.4767,28.4507
-804.6875,-77.4989,-183.2018,-37.4139,-144.6780,44.2741,-172.5257,187.2509,184.7648,269.9783,93.0338,-190.3931,-110.5361,35.4566,-55.9032,50.1527,-82.7267,2.6407,225.4362,126.3258,-2.8967
-796.8750,-134.8810,-136.1361,-64.7437,-95.6828,91.5958,-89.3085,12.1614,84.2566,169.1615,29.3730,-108.1613,-60.0224,81.0845,27.4131,59.1039,0.5448,-20.5314,62.5168,104.4692,80.0344
-789.0625,43.1936,-97.6369,91.3698,-23.2482,101.3755,-116.6263,132.5170,-15.8062,215.7876,-70.8600,-63.5164,-43.2387,16.1571,0.1882,142.4792,-62.7453,-17.2272,-39.9285,2.0457,-57.5985
-781.2500,-33.8463,1.7617,43.3657,76.0882,54.0590,19.9673,-26.2399,-63.9654,-15.6933,-117.1838,-222.0036,95.2369,-68.8715,136.8647,-89.2442,-74.1311,292.9527,200.4995,-39.4862,41.6705
-773.4375,-90.6271,-19.6073,21.6155,160.6628,33.0016,35.7972,-10.7300,-10.8842,37.0946,44.7231,-170.2587,61.2445,-16.6454,42.7831,109.2896,15.7204,25.3860,-136.8365,-25.7750,20.1746
-765.6250,110.2784,-30.2904,197.5526,114.9291,62.6477,-44.6643,55.4643,-165.1136,140.5843,-109.6864,-68.8441,10.3857,49.2842,-37.5843,28.4982,-211.7342,261.5520,-42.4608,-141.3668,-60.6180
-757.8125,27.0316,27.8627,105.3396,102.0559,81.1360,9.7412,-73.4981,-219.4867,84.9308,-90.2417,-51.5965,53.4793,104.0526,53.9091,-27.4403,-156.3245,177.5457,-89.2752,-153.1335,67.4249
-750.0000,106.2963,37.5236,117.6331,147.6921,94.1113,-50.3375,86.0125,-242.3662,171.7561,-114.3093,34.1296,50.0291,43.3011,30.9161,96.0881,-143.4135,-22.9280,-290.5781,-178.4327,6.9600
-742.1875,107.3938,109.0321,76.7605,113.1778,16.9196,19.4458,-63.6647,-282.3823,-51.5777,-190.5038,-80.3226,107.6619,1.3919,100.7830,-164.5425,-109.6277,294.4413,-9.0481,-141.8905,113.3537
-734.3750,8.2466,45.2811,8.6349,120.4019,-49.5300,98.9734,-95.5814,-129.6333,-9.1416,-37.9357,-39.0469,100.0238,-65.7733,143.3995,-122.4194,78.9187,19.5396,-282.7885,6.3935,155.4766
-726.5625,107.0322,4.4706,116.4321,8.5682,-125.0392,61.4670,12.4377,-57.9170,99.2396,-112.4176,-42.8634,32.5645,-68.9958,68.9875,-123.3786,4.4279,83.6115,-112.5658,34.6270,43.5512
-718.7500,-60.3932,-21.5581,-99.9906,-53.4672,-120.7556,211.7719,-56.7426,56.6161,65.4384,-72.0850,-185.9063,41.0074,-27.4265,109.3883,-156.5283,44.7607,56.4541,1.4130,148.6624,157.4155
-710.9375,-51.0093,-116.7953,-49.6150,-43.7022,-69.6732,153.8903,140.8761,72.9487,228.4339,-92.9741,-98.1765,-30.0005,-14.0706,14.6038,78.0989,23.8882,-143.8784,-199.7904,123.4798,62.0605
-703.1250,-23.9994,-55.3759,16.3890,-51.2758,34.0565,183.6826,97.1161,-45.0581,74.0600,-211.2159,-180.8317,21.5500,-22.0670,44.4831,-112.6437,-93.3250,200.4384,143.6555,9.9375,54.3593
-695.3125,-122.3388,-84.3164,-14.9559,25.7994,77.4403,190.1250,29.0120,-1.4124,80.3474,-57.8145,-175.8597,21.9639,20.5874,51.0064,39.2745,23.1170,-5.6114,-95.2655,16.0342,60.2846
-687.5000,68.2505,-103.3233,117.6348,5.8126,136.7808,102.5285,161.8516,-125.8107,176.5842,-218.4740,-44.9910,-20.4782,42.1883,-0.5115,61.1218,-64.4788,81.3172,-116.2123,-72.9183,-64.8440
-679.6875,-0.3855,-30.5508,39.9991,8.6171,132.9309,135.7349,-26.5039,-201.3917,62.6352,-221.3098,-85.3595,54.1541,75.5891,143.7753,-88.2251,-31.2476,225.0147,-42.3982,-105.0629,78.8195
-671.8750,39.8326,10.0661,46.2111,49.2702,102.9323,69.7905,16.9917,-157.1245,69.5466,-68.3142,29.0938,25.9118,81.8285,77.9245,137.2605,49.8297,-52.4242,-318.7396,-205.3716,48.3142
-664.0625,132.6343,103.2756,105.9984,37.5238,53.5275,19.4730,-105.9414,-170.2579,-126.9461,-154.7245,51.1130,55.7473,67.6573,64.6944,-23.6816,-37.4728,217.7525,-14.4882,-252.0810,71.4148
-656.2500,64.8429,35.8754,31.1869,40.1827,16.5146,19.5728,-216.4776,-95.9858,-163.0331,29.2695,86.5203,7.3606,103.8779,27.8638,49.7739,110.6428,44.3165,-185.8721,-143.4118,144.8966
-648.4375,202.0608,-38.5171,142.3746,-34.1543,18.4912,-125.3084,-33.0454,-94.7134,-16.1466,30.2508,159.9111,-81.9284,104.0848,-43.9575,198.2023,75.7518,-65.0739,-260.2401,-182.7752,35.3740
-640.6250,101.8671,4.6887,32.1517,-61.8820,-16.9491,-87.5809,-142.0430,-129.8275,-88.6656,31.8445,48.8873,-48.4858,66.8836,-5.1642,51.2475,112.4825,117.1164,-43.0423,-140.5576,182.4527
-632.8125,30.6809,-67.1174,-4.0724,-62.6146,-52.3974,-159.8510,-31.0335,-54.9344,132.8345,216.4209,47.8434,-116.5575,30.6678,-77.3629,272.2953,224.2248,-198.6895,-324.8551,-0.3541,146.5152
-625.0000,140.6727,-96.7314,39.8781,-128.1518,-81.6553,-224.9006,86.1545,-46.8273,141.5257,77.1951,17.9678,-147.7737,-35.3593,-142.3354,96.5098,123.1852,51.7202,-39.4562,109.0508,80.7880
-617.1875,-58.5450,-155.5664,-98.3863,-185.8849,-35.1209,-142.1356,57.1471,109.0999,40.0254,233.7884,-47.1208,-156.4161,10.4045,-96.5031,104.5206,241.9696,-112.1012,-97.2885,191.2551,162.8505
-609.3750,-3.5662,-241.2051,0.5409,-201.4190,27.6041,-188.1536,268.3309,173.2343,139.7093,260.5688,13.9651,-206.6865,36.3656,-142.4598,204.6954,195.9492,-267.6916,-217.8898,140.6541,42.1055
-601.5625,-25.4086,-156.6464,-61.3512,-151.7532,38.5272,-65.9547,94.6990,148.5840,4.5895,161.5523,-48.7728,-98.6677,9.5282,-21.2051,-4.9340,60.1519,-8.0946,6.6886,84.2528,126.5617
-593.7500,-24.2458,-155.1006,-95.2380,-45.0907,5.4496,-26.7568,61.0835,188.9388,44.4788,201.5249,-11.5209,-81.2836,12.6858,-17.9573,145.4371,138.3593,-216.4982,-272.7413,86.8449,93.0014
-585.9375,129.0547,-108.4164,31.0076,-32.2802,23.5206,-45.3906,77.5960,23.4492,25.5081,72.6449,4.8563,-67.0335,-7.0153,-36.5467,87.9284,-28.2744,76.2713,-119.9986,-6.4106,-0.4015
-578.1250,-9.7036,-34.7971,-80.8056,5.4782,21.5366,63.9288,-106.9358,21.9236,-48.4988,144.7321,-34.8204,-4.7749,-9.7666,35.8156,-23.6248,81.0513,114.9658,-151.3386,-3.7098,108.1385
-570.3125,85.6447,-44.0810,23.4882,31.3387,17.6515,-13.6519,-2.3729,-18.5067,56.5890,139.8948,32.5924,-39.2096,22.5782,-4.7123,117.8932,187.4640,-71.1974,-336.5549,-83.9202,-7.2278
-562.5000,67.3247,7.9872,38.1167,83.5565,-3.8882,39.1335,-97.4837,-75.5867,-110.9775,-28.5889,-27.6654,37.1734,0.2740,48.1240,-14.2548,56.2378,227.9924,-39.4330,-136.7823,44.7663
-554.6875,-22.5957,-11.5433,-21.8544,170.1770,-62.0404,54.3157,-119.1870,-59.2622,-23.1215,23.3197,59.4728,50.5922,-22.6409,63.3591,148.0043,108.4229,-37.4266,-268.9308,-85.2539,96.1481
-546.8750,150.3250,20.7803,88.0077,96.6491,-99.3613,18.3656,-10.0579,-169.0813,50.5738,-158.9313,168.4441,18.4573,-59.7184,-9.5398,74.0838,-38.5329,65.0392,-96.5655,-88.8743,22.3928
-539.0625,5.7804,87.6408,-67.5916,23.6776,-107.1495,45.9767,-129.3873,-140.3307,-68.1784,-130.6171,46.9582,66.6992,-31.2493,92.1244,-82.2842,27.0911,133.0355,76.3161,15.0543,160.1944
-531.2500,-16.6095,-4.3529,-13.0306,1.8602,-124.8070,-44.2528,36.4274,-84.4239,98.2123,-2.1626,65.6105,-30.6537,23.3649,-35.0537,193.4720,46.8660,-100.7843,-86.6323,97.1155,32.1397
-523.4375,14.1820,-43.1437,21.7196,-36.7464,-90.2817,-45.2593,70.4151,-49.3045,-14.2173,-77.5076,25.4501,-32.0377,21.1724,-36.0145,44.4085,-65.1559,212.6141,226.6202,58.3814,-6.7031
-515.6250,-115.9196,-137.8433,-41.4213,-25.2541,-41.6656,3.8341,45.5193,109.9241,-39.5357,82.2445,35.3975,-69.9811,105.0774,-60.8847,91.4526,93.9184,-21.8957,26.9473,139.7518,4.5435
-507.8125,-7.7303,-170.2486,77.7298,-93.4673,41.2432,-60.7588,200.9107,193.4602,6.4358,17.2922,115.6283,-119.0722,113.2744,-124.4430,100.7643,-6.7050,-90.0701,64.6043,72.4261,-133.8988
-500.0000,-98.4599,-119.5655,-59.0411,-147.5847,89.2340,25.7594,28.3951,206.1246,-92.4822,66.4639,15.9526,-69.0864,124.5650,-1.8880,-72.8281,42.8064,66.8258,151.3369,53.2172,-12.2322
-492.1875,26.6636,-64.0477,0.0436,-91.8601,76.0651,-60.8691,13.7418,156.6482,41.4642,126.4827,258.1213,-111.7965,110.6992,-88.4811,134.4143,103.1637,-194.4137,-251.0643,-103.1325,-62.7216
-484.3750,255.7595,58.4653,91.1125,-74.1370,19.8878,-79.4845,-115.9281,28.1868,-50.5891,-2.4879,348.2715,-66.5580,16.8330,-70.0668,-32.3605,11.5347,105.3605,-22.4537,-295.4663,-45.1918
-476.5625,75.4497,90.5695,6.7821,27.1844,-98.7012,58.4942,-308.9868,92.3334,-133.0261,135.1565,336.0318,22.3751,-30.4368,67.9441,30.4868,149.5199,-39.2814,-131.2684,-264.1989,91.9350
-468.7500,145.8942,20.4252,122.1929,63.2568,-131.5577,-8.7651,-121.3132,25.2362,-17.7336,30.5448,377.5396,-9.1377,-24.9662,0.7189,109.0538,81.2560,-74.1386,-96.2998,-193.1848,-13.1774
-460.9375,74.2210,20.1830,44.4875,28.2416,-133.5393,24.8950,-160.7647,22.0573,-130.5535,-10.1496,261.9453,10.4851,7.3915,-2.5923,-151.4935,4.9086,136.8948,184.5578,-18.2620,56.6290
-453.1250,-37.0889,-55.7058,-31.8579,22.5753,-63.1970,-13.0922,20.1390,131.2339,50.9823,135.4951,257.7102,-46.4775,41.0854,-77.5485,-44.7022,76.9037,-219.7036,-67.2288,117.0178,-19.2237
-445.3125,-30.4210,-118.5968,-22.2117,-75.0903,-15.8682,-38.0641,141.0296,69.4209,61.5090,36.1416,156.4550,-69.4982,51.7742,-65.4911,-107.9330,-58.0883,-36.2788,257.9922,160.3174,-82.0689
-437.5000,-277.5734,-85.3027,-174.3674,-76.5608,-21.3465,67.1625,61.1405,137.8289,19.2601,105.0043,2.3948,-22.8429,45.6722,2.7629,-3.9482,47.1390,-141.6732,291.3714,229.8351,22.2773
-429.6875,-184.8228,-132.1041,-34.6202,-88.1352,10.0724,-48.7118,239.1529,97.1431,160.9086,25.7489,32.2310,-94.0061,76.4721,-112.0855,247.9139,-31.7406,-225.1267,244.6693,182.2463,-130.4766
-421.8750,-169.1368,-44.9568,-55.9390,-70.7549,62.4311,-31.6209,144.0943,39.4217,-6.4950,-105.5429,9.0187,-32.7446,91.2166,-95.9706,4.7155,-162.6494,74.3597,507.9078,199.6027,-78.2644
-414.0625,-133.4418,-79.8170,-93.2480,-70.3721,99.7783,-67.5241,180.0443,114.7096,-5.8986,79.1659,118.8224,-77.9764,90.9545,-131.8514,41.5131,-13.5505,-207.1546,156.1423,234.9526,-78.0603
-406.2500,56.2427,-65.6740,71.4320,-90.9914,117.1082,-85.4076,197.9706,60.0090,-25.3230,-49.1303,208.6216,-82.9408,34.6841,-149.7183,-87.7180,-142.4339,-16.6412,206.3982,109.3068,-133.8427
-398.4375,-70.4345,20.1210,-31.2499,-4.9640,89.0815,71.3618,-51.4506,69.9808,-162.0884,-3.7552,142.0777,18.2623,6.0625,-29.9414,-189.2863,-59.6427,34.4934,150.2690,54.3182,22.0300
-390.6250,22.5340,7.5718,69.7183,88.7105,43.6944,25.7804,12.7731,98.6093,-98.2066,-11.7322,205.1835,31.5328,-3.9182,-0.5054,-15.2265,-30.2081,-118.6951,-143.1818,-28.0241,-60.4421
-382.8125,5.6738,26.2187,48.8644,106.5870,24.4939,117.4183,-153.8304,43.4494,-190.1347,-140.4950,110.4866,96.7333,-60.7030,90.1444,-218.9760,-86.5480,217.3185,157.5712,-45.1534,-6.6964
-375.0000,-113.4288,13.6072,-76.2263,129.2147,-26.9659,140.8066,-204.6756,177.0477,-130.3108,28.4837,94.5613,95.2637,-38.7377,113.5466,-123.9767,47.8761,-41.9203,-66.9338,83.4686,15.7904
-367.1875,16.1682,37.6948,29.3872,48.5544,-68.7399,63.9095,-63.8408,137.3415,-25.8210,-12.8626,162.3451,53.8752,-81.0773,36.6615,-203.3183,-102.9982,53.5899,98.2976,107.7992,-136.0130
-359.3750,-116.9365,116.0765,-39.6960,56.1971,-100.2328,180.3180,-169.7073,179.9496,-131.0313,-6.8998,18.4451,133.4436,-113.1227,116.0765,-381.3473,-60.5565,167.3881,246.8011,186.4486,-57.5155
-351.5625,-141.6318,-13.1359,-24.3752,103.2288,-84.3400,160.1254,30.8372,196.9687,70.1626,46.4575,69.9586,62.5225,-97.7768,22.8885,-145.9863,30.2827,-172.3992,12.7149,233.5025,-151.6236
-343.7500,-125.5526,2.4593,-120.2804,14.0586,-105.6641,175.7440,119.1588,139.8111,48.1420,-48.3745,-26.7286,52.4800,-119.6388,1.5099,-168.8498,-101.0525,19.6110,310.4333,250.3739,-99.9131
-335.9375,-316.3303,-11.7989,-324.0365,-70.9595,-88.8538,157.5136,98.6399,231.8165,29.2774,189.9439,-84.2490,11.7140,-66.3532,20.2843,-4.5593,64.7697,-205.2455,84.2885,341.4022,-9.0598
-328.1250,-199.7669,0.2987,-159.4467,-58.6204,-70.7043,29.6503,264.4583,214.1703,84.7423,98.5942,-30.4209,-7.3025,-85.7269,-34.5799,13.0591,9.9388,-122.7120,26.5338,247.7779,-137.8472
-320.3125,-225.3214,9.2893,-155.9661,21.6243,-28.6633,145.6985,47.1624,146.4404,-94.9032,30.1638,-137.6875,79.5115,-81.2036,81.4616,-202.4153,16.0342,133.7078,211.6622,152.0610,-22.7268
-312.5000,-165.4148,-70.2813,-52.0255,48.3164,1.8194,141.2003,78.3257,142.1727,46.8906,24.1789,-34.4945,24.3025,-51.2333,39.9510,10.5443,121.5786,-121.4034,-43.7473,72.7970,-102.1641
-304.6875,-41.3312,-15.6524,80.1001,33.2052,60.4958,126.9191,25.6690,17.1229,-41.1398,-174.5928,-14.1009,39.9540,-30.0640,25.6518,-152.3331,-3.6604,215.6959,152.0621,-83.2458,-117.3837
-296.8750,-112.4057,89.8222,-37.9263,67.9446,54.0093,194.4868,-201.1290,11.9497,-84.3085,-69.5045,15.1600,102.0412,-74.0523,130.2036,-122.3611,101.9759,109.6186,-59.3038,-153.4252,23.2383
-289.0625,39.5629,102.3587,124.0925,115.7356,-41.4428,100.1120,-150.8869,-45.1731,41.5656,-54.3783,139.4743,78.5198,-132.9970,72.8148,-34.3658,44.6575,51.6254,-222.5841,-211.5507,-35.0890
-281.2500,-37.3381,166.0405,0.2503,144.6801,-89.7549,125.8961,-272.5030,-92.1363,-43.4124,-28.0857,14.9440,155.3179,-144.7927,172.5830,-157.2108,-39.4946,257.7695,-17.7327,-181.5130,99.7435
-273.4375,-83.5287,120.4106,-10.8787,134.3247,-137.3797,79.3822,-173.4109,-64.3966,55.3160,70.9008,77.1318,99.4246,-118.8923,126.0512,88.6431,60.0549,-34.3765,-274.1766,-191.7802,89.2713
-265.6250,81.4682,109.9906,92.1844,89.1724,-144.8191,37.0878,-144.1471,-143.4523,12.2291,-81.9128,105.5285,79.4966,-127.8051,83.7291,-66.3483,-56.1842,167.7085,32.6058,-201.8414,9.0236
-257.8125,-17.5914,117.5254,-51.8067,25.9720,-177.3346,115.7428,-249.9384,8.4543,-55.9004,32.2344,34.8878,74.3118,-122.7776,88.3583,-172.3654,59.5492,69.7211,39.3151,-18.9407,86.7263
-250.0000,128.9410,52.6669,33.8038,-72.6322,-166.2661,-18.0005,-18.1289,58.9633,65.5484,45.9599,119.8468,-34.9285,-186.1497,-45.4090,-13.7606,72.8722,-135.6387,-95.3410,92.5665,-47.9721
-242.1875,41.7929,142.1537,-24.2542,-122.8795,-185.8567,-1.3779,-39.9773,1.8390,-64.6603,-47.9566,-12.8414,17.4888,-169.1686,8.1874,-144.8160,53.5611,95.3413,170.3498,112.4483,41.6927
-234.3750,-128.9487,77.0283,-130.8989,-48.7237,-183.0591,-33.3541,-0.4096,43.1321,48.5473,102.5280,-11.1062,-11.2944,-93.7875,-23.8172,114.4964,168.6589,-180.2853,-105.5622,152.7397,81.7483
-226.5625,-46.3471,55.2533,-40.1991,-70.2246,-128.9188,-123.9635,128.4938,-47.2150,68.0788,-25.6361,5.9875,-38.5572,-2.0597,-78.4726,95.1466,4.1119,-25.5375,83.9039,96.3846,-9.8317
-218.7500,-163.7535,44.4778,-166.5092,-10.7296,-34.7904,7.4278,-35.5985,-23.5455,-21.3972,-3.7804,-84.9032,26.6563,17.6720,16.8669,-32.1659,25.5888,33.1849,143.3343,121.0319,84.5904
-210.9375,-61.2098,-28.3478,-52.8670,22.7156,43.2811,-97.2297,116.2642,-18.9205,56.0738,38.0185,-7.8349,-17.2226,21.3466,-13.8367,192.4359,32.0246,-179.1158,-69.2647,48.6286,-58.0387
-203.1250,-49.9915,18.5195,-41.5420,-0.1424,129.0451,-47.1674,53.8044,-79.5753,-78.7670,-60.4708,-107.0617,16.5886,69.7178,-0.8226,-53.3093,-65.8085,185.2882,188.8387,-44.0528,-45.9503
-195.3125,-114.6164,25.5285,-0.0532,42.1526,133.9481,-3.9547,-14.5007,0.9320,-36.4618,93.1861,-66.1143,22.8801,37.2316,5.3358,-11.8973,51.5160,-18.1693,-154.9139,-1.5822,-3.7217
-187.5000,72.6576,37.4510,199.3362,18.3570,113.7388,-59.8241,38.0782,-17.6696,-19.2894,35.7183,-14.2672,12.9740,-20.3632,-13.6015,-143.5948,-41.2650,99.3125,-144.7290,-60.2102,-97.5849
-179.6875,-28.4790,111.9773,50.3244,59.1727,38.1158,86.9148,-220.7448,55.3296,-204.5242,71.8514,-90.8064,128.9621,-96.3642,169.0637,-365.6880,31.5699,210.3756,-33.9639,-20.2202,48.1542
-171.8750,5.7422,41.8571,-20.3271,130.3415,-69.1711,128.0075,-108.2048,97.6718,-91.4053,76.3233,-14.9820,100.4393,-130.0255,137.0730,-143.4582,146.7393,-35.1897,-243.8319,-18.8668,-21.7585
-164.0625,50.2932,52.0884,-10.6446,104.8541,-96.1245,176.4547,-98.3320,-1.6272,-152.9401,-169.8382,-78.8009,122.7081,-120.3383,148.4274,-169.8886,11.2673,221.6031,117.6575,-44.1371,-11.2956
-156.2500,-82.8030,25.6604,-80.6036,43.7071,-90.7466,219.2384,-129.0901,115.4415,-185.1121,-127.6362,-112.2424,89.6534,-42.3015,118.1202,18.0491,54.1589,-16.2791,56.4791,70.9539,67.5170
-148.4375,25.3479,-77.5173,75.6897,-24.1936,-45.1242,82.2717,62.3953,88.7672,-103.0548,-155.1926,-30.4243,12.3037,-34.0094,54.0684,63.2100,-8.7041,-82.8826,129.5865,109.3045,-70.4040
-140.6250,-116.4715,-42.6480,-76.9794,-24.0401,-50.4600,152.3590,-90.0753,86.1580,-252.9560,-121.6837,-182.5422,67.9947,-1.6578,125.0724,-198.5742,61.4982,128.5482,376.7282,179.7295,35.7378
-132.8125,-164.0871,-18.5798,-87.4345,35.3119,-23.6011,70.6491,10.6783,114.7511,-116.6515,52.0122,-157.4390,42.8640,-12.1091,42.2734,-63.1620,125.8875,-128.8126,48.0824,169.3658,-10.9319
-125.0000,-70.5215,74.6868,10.2992,-11.1382,-35.5452,60.1517,34.6268,30.5481,-164.1588,-142.0951,-170.1323,70.4795,-61.3534,31.6846,-185.5591,-31.5186,142.0449,282.6554,87.2163,-22.3840
-117.1875,-140.2547,110.6458,-104.2643,-10.8891,-3.7938,56.3455,-79.7080,101.0508,-241.9565,-72.4959,-138.1001,77.9355,7.1114,64.7849,-80.2322,75.7856,1.5851,107.9008,88.7711,83.8641
-109.3750,124.1694,-10.2283,31.3309,-60.4922,22.1055,-63.3098,56.0987,55.7036,-69.6200,-83.7574,71.0940,-28.1123,32.7181,19.0342,166.2243,-6.7634,-153.6959,-153.6700,-31.5323,-36.7318
-101.5625,76.7275,13.0519,-23.9284,-36.9452,-32.8607,-41.8045,-107.9584,39.5234,-160.1355,-62.8510,15.4518,13.7462,14.4728,75.4456,-37.1720,13.8554,82.1561,10.8972,-41.6806,92.8378
-93.7500,-48.6550,-40.6255,-81.1228,-20.3487,-52.7840,-61.2503,-91.9559,130.4022,3.4047,174.1002,-6.1223,-38.2599,-6.7202,19.9075,89.4719,251.5187,-216.9339,-253.4796,9.2292,109.4536
-85.9375,14.0460,22.7970,-14.2226,-62.6456,14.3925,-102.5831,11.1284,16.3885,34.0069,58.1450,-86.5951,-43.5377,-12.8119,-57.5197,-64.8141,174.2829,21.1094,20.2823,-66.7421,67.1874
-78.1250,-211.7588,42.7185,-108.8200,-76.4368,30.0651,24.5852,-83.2822,33.8858,-22.9015,111.6910,-217.5392,20.4282,2.6016,69.5481,-122.5833,227.5518,43.6255,42.5302,-46.1958,193.4197
-70.3125,-43.6957,1.4980,0.4480,-13.3857,29.5854,-12.4018,26.1637,-1.7780,50.0271,38.0549,-35.6113,23.8150,1.8602,106.4622,-13.5152,118.6572,-68.9858,-104.3364,-157.7881,46.5019
-62.5000,51.1599,27.0856,27.5081,48.4619,-54.1041,127.4133,-130.5992,-9.6417,-142.2461,-116.7786,-45.8656,112.2098,-82.0820,208.1799,-243.6443,36.5797,239.1883,166.5884,-131.5616,37.3990
-54.6875,-63.3699,-122.7297,-55.8192,39.9058,-63.1985,155.8157,-66.7393,93.0876,-77.9048,20.9874,-18.4974,23.8968,-17.4241,127.4866,3.8458,213.1042,-86.0446,-52.8993,36.2686,28.8886
-46.8750,18.0933,-180.5476,32.8458,-52.6424,-10.2943,26.2201,133.1154,110.8126,-62.5807,-36.2481,-4.1268,-68.4369,-2.7628,-40.2030,18.3119,46.6295,-2.2477,136.6456,49.1027,-28.6033
-39.0625,-132.0102,-83.9209,-131.0413,-96.7395,-63.9402,83.0698,-31.5795,130.9997,-151.8074,57.9851,-95.2911,-23.5523,-20.6429,18.5539,-108.7520,140.6259,23.9669,197.6144,181.3914,138.3665
-31.2500,-77.6128,-134.7856,-69.4195,-112.3474,-113.0905,-36.5900,104.2254,159.6901,94.4491,121.7052,-32.9369,-90.3560,-31.0190,-29.1854,26.6765,242.1113,-201.3001,-63.8809,202.1763,17.8394
-23.4375,-8.8354,-100.2450,3.5881,-77.5509,-39.8485,-35.8361,30.4109,49.7910,57.0890,-26.1646,-145.1722,-37.1228,5.0092,8.4863,-158.5099,58.9972,114.8294,218.0413,131.3760,17.7269
-15.6250,-106.3934,-56.0588,-63.7383,1.9014,4.0465,9.5685,-36.7311,22.5470,27.3884,55.6128,-64.7324,-9.6506,48.6870,16.7985,-5.0387,67.5244,-51.4082,-54.3972,106.2270,62.2468
-7.8125,67.2437,12.3401,47.1334,0.5652,41.1423,-61.8175,37.3314,-84.5062,28.8641,-16.4265,45.9104,-23.7920,48.5583,-54.6897,68.6148,-76.7516,-17.4164,-20.6074,-36.7186,-10.0300
-4000.0000,34.8482,60.0804,-4.7653,31.1384,32.6415,-8.7831,-79.7643,-112.5167,-110.5230,-25.4899,45.9006,27.2001,44.9271,10.3711,-34.4108,-25.7745,51.0826,48.2818,-90.7686,60.5383
-3992.1875,16.5910,-27.7316,50.3932,83.9836,-20.7094,-62.6226,47.9744,-94.3129,53.7151,29.0034,103.7217,-9.8652,28.7985,-7.1960,131.1670,102.9441,-211.9196,-249.6827,-76.1933,7.6068
-3984.3750,5.9927,-2.8994,113.2219,38.4794,-31.4006,-37.8253,71.3762,-144.4663,40.5990,-165.8597,-17.8117,37.1710,-18.6751,55.8803,-100.6102,-18.7042,128.7440,21.0235,-18.9667,-2.6882
-3976.5625,-86.8698,9.6834,-23.2081,14.7212,-56.3456,44.7301,-29.4873,-26.8587,49.2199,-45.9613,-79.6133,36.3533,-80.3955,65.7215,-17.6558,100.4100,0.1616,-107.5188,166.0260,44.7786
-3968.7500,76.0122,-36.9935,79.1134,-32.2827,-63.5458,-34.9693,145.4141,0.5058,149.6121,-54.2978,-12.6692,-38.7460,-124.3678,-50.6853,48.0680,20.2821,-11.6991,-84.3422,151.7799,-108.0175
-3960.9375,-0.8516,-8.4091,-6.3152,-74.0334,-38.5032,26.5939,-13.4401,25.1104,-9.7486,-65.4060,-96.4815,1.4158,-98.1022,11.1619,-110.9637,-28.6053,122.7198,226.1076,178.7795,-8.5631
-3953.1250,-68.7653,-110.8753,-37.8024,-35.8279,-32.5186,-4.8767,62.6498,100.6667,139.8381,85.4370,-18.3393,-78.7019,-18.8836,-94.0453,186.9762,12.4709,-189.9378,-52.5108,213.7252,-76.1511
-3945.3125,41.9379,-175.7441,43.3279,-31.0293,-23.9356,3.2445,105.3568,32.8203,145.0254,-55.1350,-46.5899,-80.4661,-11.0516,-85.6582,83.5177,-90.8676,25.0020,198.4801,182.2618,-141.1483
-3937.5000,-82.5825,-158.8117,-91.7517,-15.4298,-50.5546,87.1765,4.8499,114.7831,80.0021,65.0892,-72.0571,-39.3059,-36.4146,-1.4621,-17.1551,66.6023,-64.2457,74.2883,230.5979,-19.3319
-3929.6875,12.3876,-98.3899,-25.3292,-25.3304,-55.6753,-29.3958,143.8572,107.2604,256.5043,57.8339,-4.0292,-85.1604,-41.2795,-117.7679,123.6976,23.5814,-180.0260,-41.4392,147.4336,-135.0247
-3921.8750,-50.5393,15.1334,-58.8032,-53.1334,-14.7003,-25.8634,-1.0348,34.8386,184.1072,-49.3262,-109.9128,-20.5392,-37.0530,-39.9667,53.6307,-83.3443,109.3141,212.9584,47.3639,-56.6179
-3914.0625,-166.8262,-31.6973,-34.6415,-29.2871,46.9257,-75.6747,95.7143,57.0738,317.3593,11.1725,-86.1486,-49.4925,24.8278,-52.5109,261.2155,13.4005,-148.7179,-151.0081,68.9557,-68.5522
-3906.2500,-55.5950,-60.0340,85.0326,12.0566,130.0562,-102.9919,250.9818,-46.1953,287.1185,-163.8470,-112.8796,-22.5240,34.2164,-42.5625,85.3134,-161.3616,104.7408,-38.4681,-32.9564,-132.0012
-3898.4375,-151.6225,20.3833,-21.5443,92.1468,97.9394,11.4567,68.9932,-116.7239,142.6067,-123.1406,-143.8732,71.6457,39.3572,72.1459,-21.8464,-120.3823,148.9653,-29.1428,-60.1041,-16.6938
-3890.6250,17.8916,50.3362,89.4329,191.7908,61.3725,11.4604,104.5655,-228.6989,177.6602,-161.8798,2.6833,76.4954,40.0552,35.4038,125.5685,-158.8565,38.7039,-175.2836,-172.6901,-162.8444
-3882.8125,72.5583,140.4318,106.5723,246.5849,41.9518,176.6155,-63.7080,-286.5156,-28.1312,-254.4758,-52.6219,167.7800,-52.0934,89.8033,-151.8799,-214.1917,374.6119,91.7539,-261.1171,-107.8568
-3875.0000,-54.1430,119.1639,43.3517,296.0269,-20.8217,297.4232,-164.3376,-57.6644,-92.2661,-61.4037,-42.2878,200.4284,-150.5913,173.8571,-32.6791,15.1402,72.1577,-210.5622,-249.8792,-23.2148
-3867.1875,38.5660,36.2885,141.5444,212.8617,-106.1979,211.6218,-140.5376,37.5940,-69.9776,-146.9361,20.4511,156.0615,-235.6925,199.3035,-8.0667,39.8667,130.0899,-47.4979,-264.2301,-71.1916
-3859.3750,-83.4748,-15.3288,7.9890,90.9437,-128.3311,224.0842,-312.4925,159.0982,-131.4543,-24.2425,-75.5788,111.8146,-221.5512,212.0193,-142.2240,235.8377,148.3039,76.8382,-72.3221,53.0858
-3851.5625,-29.3252,-101.7554,32.6294,4.2351,-140.2734,65.7588,-105.2384,292.8123,74.2757,145.6523,22.5858,-16.1228,-233.2077,53.9413,-45.1599,297.0283,-149.3120,-115.6585,84.7931,-68.4425
-3843.7500,18.6765,-88.3297,8.1323,-17.6170,-163.3699,78.2888,-58.1235,266.3762,10.8605,47.3803,-75.4120,2.9627,-257.0152,29.7164,-289.2502,125.0589,145.9372,179.7106,165.7516,-55.1334
-3835.9375,-120.3896,-51.9568,-102.4276,88.4787,-164.5190,149.7800,-60.0689,262.9080,-28.6014,82.0668,-148.4706,58.3177,-146.8717,65.4466,-107.3892,124.0509,-29.8717,40.0220,164.6717,-18.8657
-3828.1250,-2.2978,-2.4559,65.1738,137.7141,-69.5159,135.4175,69.1653,98.6052,-8.8854,-155.0870,-53.3738,72.9001,-52.5767,13.3130,22.6438,-112.8063,55.4419,124.4525,0.7459,-180.4620
-3820.3125,-50.5142,19.7402,9.4727,124.6340,58.1873,262.7611,-61.8952,41.0086,-139.4697,-137.5442,-145.5930,118.7558,-33.5781,67.8868,-107.6417,-204.9724,182.4752,322.6139,-15.4688,-88.3550
-3812.5000,-58.2536,-127.5762,41.2657,82.0494,128.3910,148.6071,79.5500,107.9308,73.4660,77.5152,-76.3282,-27.3993,35.9281,-83.0435,145.5935,-63.6159,-141.0314,-36.7494,-24.1605,-165.7484
-3804.6875,-14.4368,-48.3591,86.6228,-14.9937,173.1460,8.9906,123.5719,41.4037,42.9773,11.1192,-104.5211,-43.5139,44.9811,-111.4351,5.3850,-92.7169,114.0163,113.4492,-88.2897,-156.6069
-3796.8750,-132.9290,8.5516,-45.3305,41.6576,152.5927,-48.9208,27.2923,54.5841,-16.7980,63.4243,-88.0272,-11.0514,61.7252,-59.1279,57.8700,106.8850,-5.2284,-111.6443,-103.6912,-29.7588
-3789.0625,128.2814,24.1452,85.4263,93.0036,136.7328,-175.1451,156.7364,-74.5225,2.1576,-64.5599,79.1704,-26.9473,45.1696,-112.1288,77.0812,16.1952,10.1977,-166.0709,-230.3827,-119.2262
-3781.2500,119.5413,191.7869,33.2400,119.3909,84.9162,-79.3128,-79.7686,-163.5690,-124.8435,-116.5023,27.4062,104.1362,-43.3395,56.9243,-158.6738,-36.4476,283.6934,1.5757,-276.0165,13.3566
-3773.4375,35.9789,143.6122,19.2449,140.9736,34.2928,15.7261,-132.0797,-69.3855,-66.6316,14.7826,50.8304,103.4965,-19.6444,117.1852,46.7827,59.1263,-11.6465,-256.6063,-256.4268,0.1474
-3765.6250,65.6720,103.6726,125.5097,65.7962,-6.0880,86.0053,-100.1127,-74.9413,-73.1372,-172.6864,10.5036,109.1728,-59.7075,149.6877,-31.4962,-92.0491,195.2555,19.4571,-192.5795,-39.8238
-3757.8125,-77.0953,31.2819,-64.6832,28.1608,-48.9285,151.8379,-182.5963,62.0620,-82.0886,-70.6034,-32.2879,75.3254,-65.2272,142.7450,33.7647,46.3359,51.7170,-17.9244,-21.1715,63.7641
-3750.0000,75.0910,-26.1722,-10.9142,-65.5260,-105.8287,22.6124,-20.1105,151.0327,80.9340,-17.5600,58.8715,-29.2714,-84.7920,50.7456,199.0003,100.6780,-146.9000,-180.3928,24.1929,-64.7119
-3742.1875,51.3373,-15.5836,-76.0844,-124.1619,-133.6783,29.4431,-123.5638,194.0584,-59.9774,-11.4882,-7.9310,-22.6164,-76.3106,57.7997,-51.7249,108.0487,40.5591,111.2098,103.6094,16.8506
-3734.3750,-31.3391,-95.9091,-88.1669,-135.7036,-145.4346,-19.6123,-26.9095,327.2052,35.2278,123.6970,17.3468,-91.2061,-14.7254,-28.0386,119.6663,168.5407,-251.9110,-146.1068,230.1474,5.5134
-3726.5625,86.9328,-48.3076,38.7114,-158.3025,-92.2405,-75.7193,172.7336,232.3195,14.4079,-44.1617,35.5701,-83.4748,-33.1864,-83.9427,62.0280,-72.0190,-63.4502,7.5171,206.6413,-86.8932
-3718.7500,-23.7173,16.3839,-45.3178,-91.8100,-64.9445,24.2810,50.4745,146.5453,-107.3086,18.0794,-48.1293,0.0496,-6.5464,16.2497,-22.5155,-45.4791,-33.8732,2.2631,199.2589,13.8051
-3710.9375,39.6690,-24.8946,26.7014,-64.2753,44.3977,-86.6789,232.2890,69.8426,73.0658,16.3883,24.2157,-70.2442,30.1389,-94.5170,197.0233,26.1201,-250.2844,-248.9733,120.9553,-133.4590
-3703.1250,47.3071,18.0644,-6.0226,-127.5094,84.9907,-119.3946,124.3781,35.4049,1.7172,19.9389,-45.2017,-67.8666,35.0699,-91.0386,-20.1897,29.9600,2.5648,-30.9399,125.9243,-55.4888
-3695.3125,-89.9739,-83.8952,-79.6586,-124.6572,84.6852,-157.0079,122.5697,143.0911,109.4772,238.6131,-45.5312,-106.3931,71.1011,-54.4606,125.7002,211.9186,-311.5039,-309.8151,162.0216,17.5856
-3687.5000,80.2048,-89.4282,65.1709,-94.3661,82.8275,-232.1803,156.2454,66.2441,179.7162,88.7423,99.5934,-101.2754,-3.4211,-56.4406,86.0550,63.3308,-245.1453,-208.2610,85.5819,-56.9089
-3679.6875,74.1811,45.8325,15.8058,-64.2875,-2.2344,-60.5488,-77.2856,52.2081,-17.2333,75.6708,87.5040,10.9963,-88.1571,78.3844,-109.8047,123.5444,-214.9695,-107.8957,42.9545,78.4026
-3671.8750,142.7947,-26.2734,92.0856,-66.5669,-36.6613,-22.2660,-3.1605,126.8500,56.5036,114.2731,127.0596,-35.3219,-49.2483,44.8540,39.0189,162.4262,-428.1816,-319.9242,39.9977,-28.6365
-3664.0625,102.1129,-66.6935,159.0714,-107.1559,-5.4000,45.7095,-10.3103,119.2081,-62.0306,-2.4319,11.3056,-17.5990,19.3586,76.0174,-78.4513,9.0025,-117.6847,-9.2501,32.7497,-33.9885
-3656.2500,-117.9905,-110.5170,-1.3573,-80.1470,-18.5517,106.2960,-23.8628,288.1857,-38.9559,167.4745,-73.8665,-23.3381,43.5703,62.7892,18.6797,106.1880,-302.5973,-158.9808,162.1179,27.2652
-3648.4375,25.3541,-142.9077,79.6748,-113.6969,-47.2526,-33.6778,129.0732,293.6353,3.5997,137.8331,43.4107,-87.4801,15.2352,-39.9981,26.2838,39.8270,-299.0946,-121.2881,163.9497,-75.0505
-3640.6250,10.7452,-16.2636,-14.2385,-162.2109,-66.9049,-17.5987,-75.9276,271.1548,-128.7852,153.2340,-14.2803,-53.5407,-6.0491,-23.7391,-142.0762,91.5096,-137.5264,40.4820,217.8512,51.6814
-3632.8125,21.2125,-76.5476,-2.0641,-152.6369,-127.4563,-78.4105,45.1913,282.8047,28.9615,238.7607,35.1163,-109.8465,7.7697,-84.3775,90.6909,104.3074,-408.8959,-159.6889,261.8750,-8.4907
-3625.0000,31.0882,-66.4464,9.5163,-107.6689,-152.6153,-30.8217,165.7373,144.8691,112.1396,-8.3181,-64.0923,-43.2159,-17.0288,-36.6179,-46.1347,-105.4956,-151.8641,202.5307,270.3087,-33.2792
-3617.1875,-223.8513,-74.1499,-149.7151,-46.5007,-165.5881,66.9809,188.4732,168.1460,98.5240,14.8111,-149.1122,-11.6053,81.3606,-12.6472,14.2291,27.9100,-266.6281,122.9546,294.9626,28.1407
-3609.3750,-97.1953,-88.2701,-10.3387,-59.7440,-136.9666,-50.6255,400.8341,122.0475,163.5421,-29.4475,-9.5353,-68.1337,148.3499,-93.0921,190.2177,-53.0715,-315.8333,3.9484,139.2434,-125.8538
-3601.5625,-86.7390,-42.5981,-40.1536,-13.2052,-55.5501,30.5634,224.0097,91.7591,-14.6240,-59.9159,-112.1762,7.4396,156.1320,-11.7404,14.0007,-192.2587,11.7808,191.7650,43.3453,-44.0542
-3593.7500,-76.0562,-30.6969,-27.7272,67.5751,-42.8944,43.0037,198.4441,65.7486,69.4856,25.8852,-26.5790,3.2112,132.1547,-36.1401,173.0499,-108.1800,-187.3780,-149.1914,17.7318,-68.0045
-3585.9375,110.6803,84.2346,93.7619,77.4019,-68.1934,-19.5144,134.9591,-72.1893,42.6771,-148.2613,22.0583,29.4717,33.2201,-61.5007,0.1520,-134.0604,103.5137,1.8985,-79.8105,-92.9260
-3578.1250,12.2000,127.9520,-14.9544,50.0159,-176.7002,54.7716,-121.7252,-34.3074,-30.3134,-0.6002,-13.5247,62.6237,-1.9172,49.9403,-108.9576,87.8628,76.2193,-59.2059,-36.5220,55.9556
-3570.3125,108.9097,83.8436,90.5314,41.8165,-180.0105,-59.7535,-17.1698,32.7986,110.9454,32.2845,56.0875,4.9954,-41.8530,-27.4364,-3.8284,82.9973,-73.9214,-173.1612,-12.0067,-57.9789
-3562.5000,43.0679,88.1751,91.4745,-24.9528,-179.8774,51.1647,-127.1349,31.3722,-37.3183,-5.3793,-53.8656,32.0563,-77.3444,9.6317,-224.2479,9.5788,247.3984,146.3390,24.9679,16.5252
-3554.6875,-42.6029,-32.3049,74.5990,-39.5325,-159.5531,71.2935,-107.8922,161.1768,-18.3564,125.1799,2.3676,-23.6122,-56.6396,-7.0921,-57.4488,140.3784,-83.1100,-113.9904,115.1651,37.2312
-3546.8750,87.9911,-42.5581,177.9826,-84.8731,-129.9832,-9.3361,-6.3637,152.2554,-26.1144,-30.0028,32.8494,-46.4430,-63.6885,-50.5729,-65.3805,-14.5689,11.6176,51.9069,103.6157,-42.8338
-3539.0625,-53.5300,-8.9239,-48.7422,-121.3252,-136.5155,56.9435,-86.9361,144.2525,2.0369,-37.2827,-83.7913,-20.2103,3.1574,15.8534,-35.4257,14.3971,9.2644,120.7140,205.9802,61.0058
-3531.2500,-8.0699,-32.3094,-32.4708,-110.7848,-120.0531,-35.7783,186.5146,123.2770,239.2289,-20.5394,6.5579,-77.0946,22.0023,-76.7282,202.5550,-4.6190,-260.1327,-114.5212,181.3699,-68.1609
-3523.4375,-22.8600,24.0391,-86.4415,-54.5092,-99.8460,-16.7516,204.7386,-5.9328,110.2047,-112.0459,-48.3488,-9.9952,41.5848,-57.5712,-36.7111,-131.8979,7.2246,189.0067,165.5200,-11.5875
-3515.6250,-113.7704,2.2736,-185.5300,-39.3464,-51.7503,-5.8130,177.8602,3.7864,83.1043,44.3690,-36.3678,-18.8306,52.0562,-45.5088,9.9310,60.7428,-260.5374,-8.5758,213.5936,72.8928
-3507.8125,33.2746,-61.5595,-28.6585,-104.2429,32.2887,-104.9351,297.9612,-96.5220,166.9862,-55.2514,10.5599,-83.0677,27.4708,-108.5096,21.5401,-1.6534,-183.3769,103.7657,148.6403,-25.6959
-3500.0000,-70.3322,-59.0603,-104.4355,-136.8058,65.6702,-33.7108,147.4176,-137.4586,89.2344,-21.5230,-65.1819,-43.9023,24.2359,-1.1585,-91.5195,-4.7068,-5.8487,211.4763,185.0678,82.0649
-3492.1875,-3.7103,-63.3334,-30.9695,-106.1327,67.3014,-34.2449,258.1518,-101.1164,236.7675,88.4768,8.3178,-79.6633,26.2505,-74.5679,55.7017,-41.5025,-185.1134,-73.5936,109.7827,-26.9333
-3484.3750,88.6584,30.1322,30.2591,-48.7237,54.6785,26.9548,133.6679,-188.0069,39.0818,-34.7713,-4.4409,-7.6484,-22.9930,-50.2459,-141.3115,-163.5562,189.3731,231.0891,-44.7376,-39.1981
-3476.5625,5.6076,88.1847,14.0737,80.2692,38.6445,84.7546,-102.2140,-131.2752,-51.9794,22.6034,16.3893,46.1939,-1.6440,-29.3298,-83.7158,-33.9936,71.4519,78.3541,-57.6301,19.1447
-3468.7500,180.6618,16.3233,164.9938,78.3452,41.6995,14.6348,-63.9632,-130.4135,24.1109,-84.8989,93.3201,9.4691,2.8014,-25.3237,29.0122,-67.3223,34.5921,6.6667,-130.4108,-87.4283
-3460.9375,81.7618,23.5073,52.9582,-54.5441,4.7980,13.5657,-211.6485,-57.4826,-86.7348,-122.3427,-16.7208,-1.8820,38.2860,46.7388,-8.2234,115.4006,76.8008,84.0373,-53.1322,96.0495
-3453.1250,-6.4584,-135.6331,-77.3919,-249.7390,-15.4110,-117.8001,23.3830,103.1819,185.1474,75.9406,34.9232,-174.5751,91.4702,-46.5012,301.2571,314.8474,-363.3213,-250.9186,101.8654,112.2268
-3445.3125,-76.6748,-169.7996,-149.7307,-389.9446,-14.6208,-190.1715,243.4497,139.8597,295.0642,113.2190,-37.4372,-233.7155,92.6452,-119.7521,227.7491,131.2902,-151.4424,-2.8768,172.8762,113.3834
-3437.5000,-298.1155,-251.1797,-311.2851,-330.3636,-29.0310,-130.7325,192.3245,235.3586,279.8083,319.3122,-125.0210,-212.0063,115.6150,-60.1984,251.0408,153.5406,-232.7687,-49.0398,301.7126,173.3427
-3429.6875,-201.3690,-365.3873,-162.6420,-232.5985,-28.2438,-130.1007,377.4366,162.0882,354.8008,283.6339,-88.4071,-218.1243,80.7773,-59.4536,362.5654,80.9966,-240.9401,-58.0475,222.7789,-45.5128
-3421.8750,-188.6201,-281.5962,-150.0017,-114.8454,21.5290,-7.4687,205.5579,26.8365,145.8141,74.9527,-147.8073,-96.2044,57.9199,27.2974,80.0795,-53.5616,158.9065,201.9557,164.8565,-32.3720
-3414.0625,-142.6358,-164.5545,-102.1253,2.1509,70.5344,42.4146,143.9241,1.8583,121.0992,87.5430,-25.9705,-44.9193,34.2975,3.2982,166.8574,-40.8483,-112.0219,-68.8161,69.2077,-55.9797
-3406.2500,49.8522,26.9694,27.2615,-16.3633,89.0347,-13.2153,124.8165,-91.5993,-8.0699,-41.3596,29.3582,-7.8679,16.1685,-52.2196,1.1461,-133.6278,80.5355,124.9020,-90.9215,-74.1083
-3398.4375,-88.1900,-6.0289,-160.8627,-48.3886,85.0321,55.6627,-99.7822,13.4655,-122.7223,64.2508,-47.8345,4.3786,48.5388,53.7652,-4.0719,120.1019,12.6006,162.1282,-18.5209,69.2675
-3390.6250,-1.3481,-164.1533,8.9140,-68.5216,107.9270,-31.5701,105.5474,-0.5431,45.5656,86.7864,10.8711,-83.0169,35.8087,3.6375,166.6502,142.7452,-111.4788,3.2099,-73.1983,-54.4675
-3382.8125,16.1545,-111.6341,60.3538,-50.0221,123.4623,56.8366,-27.4597,-132.8900,-122.4753,-46.0331,-11.7779,-4.4415,13.7092,92.1519,-111.9794,-26.9706,259.1110,196.9499,-125.2143,34.4415
-3375.0000,-114.6530,-172.4164,-5.5199,64.1644,93.6845,100.9371,-129.7649,-89.5095,-42.7908,218.8736,32.2651,-17.1864,21.2985,62.3628,4.1009,54.0280,21.3806,-109.6378,-81.5071,79.0564
-3367.1875,-74.4026,-237.1654,76.6625,70.3876,28.9481,-0.9297,-48.9791,-9.0551,38.9889,264.8380,-32.6414,-44.2960,-6.0693,34.6127,-23.7503,26.0724,97.6828,0.7998,-76.7313,14.7008
-3359.3750,-315.5172,-198.2814,-72.5122,74.2541,-83.1412,106.8654,-234.5352,172.0714,-73.5653,335.4581,-180.9183,35.1667,-43.7922,179.5158,-98.9661,207.7683,101.6507,41.8917,67.7121,159.9962
-3351.5625,-332.8481,-179.6231,-47.8914,92.9166,-131.4302,95.4638,-63.2727,270.0269,97.7108,322.9064,-156.3931,23.5587,-55.7133,131.2172,72.6450,232.2763,-160.6227,-151.2654,120.9640,38.0839
-3343.7500,-267.6663,-115.4800,-89.7602,-18.9290,-100.2194,126.5572,40.5077,226.4950,91.5046,132.8473,-272.3701,24.0669,-61.1410,88.4166,-80.2486,42.2766,79.6176,124.0832,184.7159,32.6595
-3335.9375,-326.9996,-103.8391,-225.1409,-76.2846,-88.5118,64.1584,161.7830,274.4879,212.8128,181.3010,-260.8596,-24.4358,-49.0824,26.1149,115.3535,90.7969,-189.6528,-40.0791,266.9908,44.7393
-3328.1250,-153.2822,-141.1563,-37.4622,-43.5953,25.2412,-41.1999,314.1362,131.5540,254.2104,1.8157,-147.2980,-47.9191,-6.9932,-42.1511,120.0267,-162.6297,-50.8973,28.7838,159.3286,-97.1514
-3320.3125,-216.8769,-98.7831,-73.0923,32.7874,100.6827,107.1491,130.1871,95.3401,-39.6829,-70.9615,-219.0532,55.6973,30.7814,69.2930,-99.6130,-160.3639,165.5804,211.3688,129.3843,14.6577
-3312.5000,-140.6877,-163.6305,12.0646,109.9671,185.9127,81.3017,179.0507,68.9580,45.2558,14.1047,-98.0135,-1.2155,42.3449,-29.4681,58.5689,-39.2866,-73.1790,-99.2911,65.2725,-83.7411
-3304.6875,-13.5897,-36.5962,69.1308,60.0392,207.0380,29.3413,125.8411,-20.5130,-6.8748,-111.9178,-114.0796,28.5197,27.7960,-8.3353,-104.3519,-92.3181,228.9639,62.9471,-89.9233,-62.2566
-3296.8750,-108.0088,78.9316,0.6821,35.6041,137.6538,32.8826,-126.8697,-16.4664,-39.4915,2.5820,-71.6562,32.3882,31.7339,-3.6977,-25.7765,96.1639,99.6023,-101.3233,-113.5994,89.7375
-3289.0625,48.5214,130.3972,130.1862,-18.8978,120.2087,-93.6453,-144.5988,-71.4461,52.8888,22.0487,19.7172,-36.8576,14.6147,-131.1301,66.7821,41.6117,80.1539,-84.6771,-238.3161,35.6667
-3281.2500,18.6954,206.5099,56.3365,-12.7647,46.4075,-21.5296,-403.6684,-108.7627,-95.0562,94.1641,-17.2738,25.2160,-58.8643,-58.9196,-191.0134,41.7111,296.3761,130.6321,-198.3721,182.2436
-3273.4375,48.5970,95.3617,53.2241,87.1135,7.3453,-22.6676,-331.9798,-37.3022,12.7837,203.0500,53.4777,21.8656,-22.6008,-22.9596,-119.0376,38.5766,10.3236,-154.3448,-97.6540,107.5673
-3265.6250,175.5092,46.2022,117.1221,107.9830,-2.7202,3.1829,-157.2602,-121.8302,76.6545,-27.0626,7.2338,35.8986,-33.3484,-34.0115,-239.0517,-190.5730,242.2795,76.6676,-42.9350,-12.1276
-3257.8125,-30.3942,-53.7685,-25.8019,79.0436,1.4099,44.2400,-44.3421,-81.1290,117.7309,-22.9564,-61.8264,7.0134,-28.8972,-29.8572,-51.8731,-76.5159,72.4400,11.8766,138.9951,29.3844
-3250.0000,32.4487,-167.0145,84.0187,-69.1539,74.2908,-140.9603,286.3490,-82.6509,301.5913,-97.0716,9.8685,-143.3884,44.2969,-177.9567,205.0846,-40.6889,-75.6927,-136.2043,166.6790,-118.3681
-3242.1875,-46.5046,-70.0593,-39.9585,-183.1630,171.3724,-116.9564,272.2467,-96.9661,177.6576,-182.9937,-77.2473,-114.4868,68.6794,-152.8445,45.2320,-127.6657,197.3911,136.9270,193.5627,-20.9278
-3234.3750,-112.0292,-65.6482,-108.5028,-142.7214,175.8974,-112.4902,240.5893,-18.8091,182.1832,-69.4495,-35.9234,-115.7032,73.5043,-148.2699,159.8385,-50.1728,95.9013,-138.5231,197.8998,-16.0329
-3226.5625,5.6519,-18.0446,-19.8395,-97.0779,154.6213,-97.8292,218.1551,-40.4363,49.9269,-164.6989,-57.3962,-57.3157,15.5117,-97.5045,-45.3561,-108.4816,389.6113,48.2112,68.4367,-73.9508
-3218.7500,-99.1303,-17.8987,-135.6395,-25.8865,111.8811,43.3947,-44.7466,-10.4955,-101.7713,-23.3860,-99.3326,3.2038,-26.9502,6.8160,-161.0192,32.7640,389.8857,48.5131,33.5449,67.6901
-3210.9375,-10.6715,-105.5280,-1.1857,-42.4573,99.3820,-42.1441,89.6163,-22.2778,68.8208,-34.7976,34.9845,-66.1184,-2.1685,-41.6263,83.5969,-52.7270,197.3696,-108.9683,-18.0715,-54.4277
-3203.1250,-9.9557,-69.9165,34.5268,-42.7966,135.1250,-43.4521,15.2443,-97.8016,31.6844,-181.9638,-40.4511,-41.1872,33.8501,-42.8263,-64.5338,-162.9727,550.1159,137.8163,-88.4193,-18.3072
-3195.3125,-63.8097,18.1461,14.6733,45.3022,189.3088,-26.3118,-41.6719,-116.8573,-24.9861,-128.6553,-23.4485,0.7137,51.3118,-25.5777,63.7986,0.2408,391.2905,-160.9708,-140.2845,-0.7381
-3187.5000,137.4891,183.3497,191.9705,140.5506,145.6383,-33.0334,-11.4003,-270.7477,-105.4706,-319.1863,79.7053,93.3378,-29.0860,4.8094,-16.7047,-154.4007,556.5936,-101.6252,-326.9857,-81.0425
-3179.6875,131.0707,282.8464,105.5500,204.1049,22.2611,101.5577,-317.8207,-320.3259,-190.6456,-331.4214,141.1386,176.1691,-77.1961,102.5015,-138.9237,-128.7462,586.2110,-1.9574,-368.3710,53.9540
-3171.8750,196.9400,172.6308,142.4174,164.9634,-50.8249,28.4479,-206.9240,-209.5827,-6.4824,-257.3359,250.8763,79.5158,-41.0206,29.4853,81.1817,-55.7788,229.0923,-147.0288,-372.4467,-55.7585
-3164.0625,190.0691,59.6637,133.5456,87.0646,-59.6663,19.5794,-142.7644,-181.5724,-89.0549,-302.9958,131.8568,44.9021,24.3939,20.7143,-0.4736,-173.5719,398.2387,163.1585,-239.2752,-27.2341
-3156.2500,26.7795,-68.7033,-39.7423,29.7637,-11.9087,-6.6783,-22.0234,-24.9373,-114.0295,-72.0316,106.4266,-22.2193,109.4014,-5.4496,120.4679,-53.7484,58.9759,-36.0662,-16.4981,20.8968
-3148.4375,80.9404,-49.6229,-13.5749,-92.0921,87.2999,-165.4959,261.1933,-35.8333,-15.5272,-82.6027,131.4495,-95.5564,134.8425,-127.1734,146.8891,-101.4754,-27.8641,18.1292,73.7307,-100.5448
-3140.6250,-72.0562,8.3085,-141.5692,-174.0995,106.3582,-72.4559,132.2646,19.1337,-70.1698,-27.3189,2.3085,-52.4380,117.1232,-35.0431,-18.8582,-46.3550,31.1703,147.1891,131.8066,28.8589
-3132.8125,-65.3702,-90.0724,-131.8740,-166.4030,116.1179,-99.7102,217.0455,102.8229,87.9092,130.6906,122.8670,-121.9771,90.0987,-98.2110,139.1080,1.4840,-278.1252,-127.0947,139.5802,-34.0447
-3125.0000,113.8312,-86.9589,-18.6666,-199.1995,119.3823,-96.4709,146.3349,33.0217,18.4931,-49.7981,162.9283,-118.8662,20.5569,-94.8812,-41.4323,-106.1824,41.0931,122.1216,36.8387,-30.4638
-3117.1875,91.5206,-73.3410,-45.9690,-151.4977,55.1373,-85.7174,-28.8974,4.7385,-9.4218,-3.7689,171.4823,-102.7846,29.5026,-48.0489,41.5098,13.6543,-52.1832,-75.1595,84.6096,52.6257
-3109.3750,216.0119,-19.9305,126.5306,-62.0020,43.6827,-171.1766,70.6908,-42.7307,53.4954,-87.9254,233.8448,-85.7846,-17.7602,-96.4293,141.2767,-70.7016,-67.6924,-162.6722,-36.8007,-68.5029
-3101.5625,152.6060,127.5851,90.1211,14.5851,7.3193,-23.5402,-148.6118,-42.0935,-165.4787,-85.9831,124.2970,45.3833,-52.9387,14.2859,-114.8620,-68.9577,114.9150,-15.0670,-100.0991,79.4622
-3093.7500,152.7758,162.6860,164.2888,85.7771,-28.4510,-23.2983,-221.3114,-5.8288,-90.8310,97.5909,197.3411,65.5563,-52.5272,51.6064,-41.3813,77.4113,-271.9146,-295.8934,-204.7836,80.0270
-3085.9375,330.7019,235.5307,315.2123,157.7142,-97.4766,16.6774,-291.2368,-147.8007,-160.4141,-82.0788,238.1365,120.5920,-122.3780,55.6686,-221.1452,-29.4698,11.0070,-81.9743,-343.7220,47.3276
-3078.1250,191.6684,306.4375,164.1739,264.6995,-174.4595,86.7041,-479.1338,-114.7156,-199.9542,25.3051,160.9813,196.6224,-162.1893,125.7819,-223.8716,77.7043,-22.0097,-151.0063,-271.6121,154.6929
-3070.3125,218.1908,156.8880,198.6862,221.2295,-176.9070,-25.7288,-186.4706,-81.0693,-18.9202,60.2547,195.3844,90.9851,-164.4603,13.4357,30.9749,2.4461,-171.5091,-230.5230,-174.9506,5.6045
-3062.5000,97.2985,106.9310,106.7932,135.3528,-195.7629,-43.5501,-168.2036,-25.8102,-0.2760,41.8024,29.3707,78.4969,-146.1430,31.7088,-96.5926,-52.2158,23.6090,34.5874,-49.6933,61.1182
-3054.6875,42.5234,-18.8831,13.0217,80.6310,-178.4736,-63.2055,-4.7906,102.6194,127.5240,169.5252,46.4977,-3.8449,-91.6834,-24.8519,29.9989,38.2920,-312.1491,-160.1760,71.7209,41.7921
-3046.8750,112.3560,15.8997,53.8536,9.5069,-101.5839,-133.2708,147.2423,69.6545,169.9458,63.8467,14.2364,-26.1972,-88.6342,-93.8263,-38.7918,-67.5948,-172.3189,49.6439,106.7304,-63.9498
-3039.0625,-53.3683,27.1409,-120.8736,-15.1654,-20.2447,-87.8853,81.7167,114.1440,67.8067,182.6234,-88.5836,-15.6635,-80.1425,-85.3497,-140.1547,50.9728,-161.0166,95.9275,223.1884,17.7647
-3031.2500,-3.6976,-64.2187,-64.1996,-35.4340,37.4968,-178.1042,286.6006,99.0516,236.0821,240.8233,-68.0017,-100.6329,-22.2595,-175.4736,100.8934,71.9473,-392.3387,-65.4256,202.0464,-108.1309
-3023.4375,-13.0176,-109.5792,-77.5208,-44.6991,98.2363,-117.3199,163.4852,12.9650,150.3590,81.0107,-118.4221,-52.4546,-35.3894,-40.5944,-22.0751,-14.0991,-121.6296,171.2440,157.9035,-47.0412
-3015.6250,-127.9024,-118.4887,-163.4053,15.4876,85.4252,-57.0813,2.8099,36.3387,174.0844,215.6595,-58.3975,-35.5763,-12.0773,19.7355,111.4176,83.3155,-342.4854,-85.6487,147.2297,13.5005
-3007.8125,15.6275,-45.0049,27.1127,19.0648,55.0143,-123.4610,10.5598,-29.8771,145.2392,149.7082,23.0385,-40.4394,-41.3761,-46.5569,45.3377,-19.8737,-127.9680,-46.1503,10.9668,-52.5787
-3000.0000,-13.2971,31.0329,-9.8300,60.1815,-17.8484,-12.2879,-246.1443,6.4616,-2.0601,223.3007,-49.9816,37.8311,-114.1302,63.7033,-100.2094,53.4849,19.1091,-39.0665,-51.7394,94.8965
