Time,Fp1,Fp2,F3,F4,C3,C4,P3,P4,O1,O2,F7,F8,T7,T8,P7,P8,Fz,Cz,Pz,ref
-4000.0000,10.4042,25.7819,1.0218,32.7527,-14.3467,36.5779,143.2576,-18.2682,5.9447,-142.2133,36.0817,-8.5445,83.1947,1.9313,-74.8906,-106.9445,275.9871,-41.0573,-227.4309,-47.5279
-3992.1875,-392.2878,-130.4491,-212.3916,16.6250,101.9618,-66.7350,-251.8469,-85.5443,48.4892,45.5350,-66.1176,-147.5283,347.9799,-27.5607,114.2096,118.4855,53.1188,251.2503,350.6415,251.9000
-3984.3750,203.2175,114.4958,167.3964,120.7022,-69.5333,56.1552,-16.7886,146.4020,25.2442,201.5367,-164.0243,85.6951,-777.1197,131.1630,493.5805,165.1691,-1315.7303,-79.6180,205.0220,-67.4629
-3976.5625,-207.1804,54.5006,-11.7301,61.8351,156.0164,-86.9105,-83.6340,-290.6106,-117.9494,-237.4316,176.2174,54.0019,699.8129,-48.0637,-349.0172,-310.1407,1057.5177,87.6887,-349.5970,83.1819
-3968.7500,-114.7306,-166.6172,-26.9769,15.8596,30.4986,45.8966,-315.5975,171.2387,14.7648,406.4594,-225.6790,-107.7830,-527.2373,120.5914,480.2491,371.4278,-1237.1890,131.9743,654.7068,140.7488
-3960.9375,146.5207,23.0365,74.5620,-4.3673,-15.2813,37.4551,118.1991,13.8602,6.2387,100.1279,-4.7247,31.2155,-205.6910,38.0072,28.3483,-81.2033,-127.3777,-128.2019,-143.1709,-126.9604
-3953.1250,-341.5901,-182.6317,-265.2457,-104.9546,121.6057,-119.3679,-183.3350,-106.9137,-40.6450,125.3996,-24.8121,-89.1042,484.6288,-8.9531,-55.9875,163.7487,374.3316,188.7827,245.5211,192.9638
-3945.3125,181.2762,-47.3117,105.9298,-74.5444,-57.5061,31.8037,-28.9054,227.3325,-72.5291,310.7137,-219.4946,26.5881,-869.0993,143.1022,535.7305,534.7538,-1526.0892,-37.9108,518.3123,-24.0977
-3937.5000,-111.3461,-22.5145,-54.4066,-155.6698,111.8221,-129.5719,69.0075,-153.9696,-86.9711,-183.5520,156.8344,-23.2262,588.5511,-54.3761,-399.0963,-142.8142,965.9058,38.8387,-233.4773,34.2515
-3929.6875,-196.7136,-282.4374,-148.4610,-169.5026,53.4694,-3.6698,-279.8032,190.9816,112.8851,416.4590,-201.5026,-263.7333,-277.3583,144.4253,350.3021,421.8737,-979.5988,148.3220,697.0407,158.9217
-3921.8750,139.8642,-51.4645,69.4083,-8.4340,-22.0037,68.1400,161.2724,77.8787,73.6619,80.4323,-83.8696,65.6808,-425.5316,180.1442,125.6885,86.5142,-532.4635,-141.2302,-24.4418,-138.5263
-3914.0625,-457.3041,-155.2099,-202.4608,-41.1155,183.7787,-165.8167,-145.3709,-269.0102,58.6853,-120.3945,3.5296,235.3772,627.6314,54.0986,-220.7544,-3.6632,705.1225,211.6782,79.2468,213.2488
-3906.2500,-157.6134,-102.0756,79.5559,12.0953,-12.5277,-31.8884,-81.1517,123.0016,157.6187,342.7045,-343.9264,481.9723,-854.3026,226.9515,574.7415,423.1057,-1524.4543,76.2403,586.9314,89.9454
-3898.4375,-506.0045,-99.0732,9.4709,-19.8357,137.0003,-175.1096,217.9452,-206.1238,86.4045,-61.3543,-15.2292,595.4591,436.5031,8.6649,-195.8727,-237.2702,875.7029,103.3925,-257.5279,91.4519
-3890.6250,-842.4767,-328.1170,-168.6797,-37.8231,142.5029,-133.4134,-142.0176,19.6458,239.1331,344.4846,-329.5293,453.9200,2.4100,124.3055,432.3768,280.2451,-439.9574,356.1440,634.9400,352.9206
-3882.8125,-318.9222,-51.1589,170.1803,97.1889,2.9988,-15.7158,161.9968,62.4451,136.8769,92.3957,-270.0001,683.4003,-576.8275,205.9652,476.7183,175.8139,-721.8774,67.8468,99.5223,65.3820
-3875.0000,-786.0508,-130.8717,-110.6394,18.5046,198.8013,-185.7346,-79.6562,-329.4819,2.9148,-227.4267,-19.1035,587.2216,797.2774,34.9110,-210.6930,-70.3738,1102.6421,381.0870,-53.6688,371.1107
-3867.1875,-398.7747,-164.1489,75.9709,-15.7362,-16.9292,-71.3251,-109.9063,78.0292,153.4108,215.2092,-355.5503,481.4973,-669.1185,185.2991,637.3454,444.9082,-1320.3739,294.5045,717.6667,300.3137
-3859.3750,-221.1846,-22.1594,122.8736,-49.7210,65.5765,-135.6639,232.1082,-281.1862,53.1655,-329.8874,48.4919,492.0587,260.5982,10.9490,-126.3106,-208.5385,656.6696,133.2174,-162.7052,124.7298
-3851.5625,-505.9303,-341.4717,-110.5408,-157.0147,125.8058,-150.3257,-146.1765,-148.7491,113.6116,94.6584,-97.9091,184.3387,285.1704,34.2822,115.6514,289.6570,-11.3439,366.5882,639.5806,366.8461
-3843.7500,63.6819,-123.4550,168.4038,-115.9681,-36.6190,-17.6342,134.8610,92.0635,135.4179,260.6130,-177.7544,354.9668,-684.0240,129.9824,357.0519,310.2726,-1090.2333,11.2863,432.3490,20.3162
-3835.9375,-355.7991,-120.5576,-166.7676,-182.0778,141.8035,-169.1032,21.7803,-317.2850,93.0669,-188.5981,111.3893,313.4755,819.6241,-58.4792,-384.7346,-175.3053,1133.7924,197.4971,-25.0808,197.5994
-3828.1250,-135.6263,-215.9843,-122.2690,-208.5044,2.9409,-88.8964,-151.6490,93.0538,174.4221,403.9086,-273.4732,211.6855,-495.9438,168.7449,503.1474,454.8218,-1280.4011,219.9596,860.2428,240.6098
-3820.3125,46.3451,1.3388,-31.9840,-200.1776,-55.1951,-109.9281,197.6734,-75.8107,7.5421,-95.7878,-1.3496,339.6705,36.0740,111.7367,-70.1341,-81.2478,137.9093,28.2633,19.3879,35.3405
-3812.5000,-390.4031,-189.0178,-318.4078,-215.5492,-11.0186,-64.6818,-233.6939,-142.4201,-22.0413,-18.2362,-75.6743,126.9814,449.5150,83.0162,-100.2023,143.9173,267.7610,330.9896,599.7770,335.3621
-3804.6875,145.8929,-109.3307,35.2149,-101.8700,-171.7933,178.6017,11.9380,174.0358,37.4316,222.4240,-238.7219,151.3546,-850.0746,215.3623,362.8459,312.1933,-1372.5168,22.8501,747.3417,26.4500
-3796.8750,-277.5987,-111.4581,-79.9697,-103.0391,43.5766,-10.9779,45.7339,-199.3623,-40.9550,-151.7680,109.6169,110.9243,580.4351,-84.1483,-562.9625,-283.4004,1128.3378,116.4925,109.0247,93.6500
-3789.0625,-200.4881,-243.9545,-39.5253,-59.5743,-26.3757,29.0622,-241.8627,170.8531,110.3088,362.6828,-199.7287,-31.8499,-408.2831,29.9669,174.8357,342.6385,-936.0142,174.8647,957.3828,169.5226
-3781.2500,220.1705,36.0516,232.4496,44.3884,-49.8376,43.6040,68.0257,36.6071,14.0859,-67.3135,56.0415,93.8983,-283.6650,7.5898,-143.7719,-49.7566,-124.1449,-141.0171,74.3407,-149.1231
-3773.4375,-293.3691,-161.1200,-24.7629,22.1392,170.5192,-103.0859,-223.2692,-183.8763,-23.3496,-105.5673,158.9754,-198.5260,673.8613,-102.0129,-291.6578,-88.4116,808.7322,156.5158,260.0446,144.0182
-3765.6250,226.5126,-132.8641,309.4616,86.3275,-10.6648,45.6594,-109.1656,184.0978,90.6854,297.6704,-89.4630,-159.5023,-793.1916,46.8450,407.9535,279.4262,-1305.0637,-75.3076,602.3265,-75.3663
-3757.8125,-37.8955,-79.9406,180.3722,69.1712,153.7818,-83.9416,57.6080,-203.2639,-2.6141,-238.4159,263.6808,-140.7935,549.2964,-119.6414,-531.7457,-293.0940,1109.6794,-39.7681,-296.7314,-59.1433
-3750.0000,-217.7938,-330.4758,18.8035,-6.4413,102.7981,10.9808,-285.0946,111.8855,93.6335,185.0323,-64.2973,-300.5222,-89.5331,49.3976,114.0366,314.9095,-544.8421,152.9459,680.7594,145.6460
-3742.1875,289.8925,-68.4693,271.8037,44.4907,-49.6522,79.4555,115.7241,105.6256,14.4496,30.0994,19.8432,-120.6871,-497.9738,81.0024,107.4577,13.5439,-491.0930,-184.5635,94.9267,-192.0229
-3734.3750,-161.9080,-167.9331,-27.6717,15.9177,165.4053,-73.5885,-107.9378,-231.1651,-64.2450,-124.3708,210.2120,-235.3247,711.1465,-108.9059,-339.6850,-177.3738,997.3140,69.7716,-7.4670,58.7824
-3726.5625,219.6544,-138.0176,194.2417,80.7303,-18.1221,111.7516,-142.2595,246.4479,-26.5356,388.5913,-116.1120,-196.5672,-758.3151,39.5795,505.5968,336.1408,-1431.9265,-93.5888,582.6354,-88.9841
-3718.7500,116.9395,40.5625,126.8452,48.1986,97.9814,-30.2535,87.0674,-80.2568,-131.1789,-123.7624,227.5019,-79.1296,387.7362,-65.2712,-299.4222,-321.6717,756.3045,-150.7356,-401.5795,-158.1331
-3710.9375,-190.4498,-124.5123,-133.2222,-12.9930,57.4557,2.0587,-355.2835,62.3446,-60.4934,311.2155,-54.1151,-228.3261,127.2810,4.2047,173.8315,112.8201,-249.8963,124.5405,378.5318,131.0795
-3703.1250,297.4863,151.7095,170.0182,53.1071,-116.7820,85.6672,-13.3763,255.2780,-87.4923,282.5591,-104.6608,-34.2168,-707.0120,50.9936,329.4846,120.6890,-990.0606,-199.3474,55.0809,-191.4055
-3695.3125,-211.1961,100.3171,-115.3683,1.5542,75.3333,-90.3898,-113.0880,-104.4646,-188.1373,-152.7780,160.3524,-134.7252,737.0610,-160.8814,-398.5441,-166.1309,1073.2029,43.2059,-280.0723,36.4309
-3687.5000,35.3730,-38.8045,72.5207,73.2856,-31.2257,96.8293,-218.5548,265.0778,-112.4751,252.2079,-180.4725,-240.9334,-656.4995,62.5325,412.7215,460.3640,-1314.2090,-0.5694,528.1539,1.6005
-3679.6875,188.6982,79.7973,168.1428,86.7202,26.8980,44.7554,173.6687,-7.6406,-200.1137,-207.0594,171.1494,-180.4151,101.4809,-25.3378,-229.2366,-182.3985,425.8391,-184.5367,-340.8500,-198.5586
-3671.8750,-124.2004,-92.7793,-96.4442,-51.0477,92.8398,-73.5417,-199.3211,-16.6040,-60.9760,114.4398,56.0651,-296.0775,315.3968,-107.4305,-90.4806,65.5855,222.9158,52.3307,292.9062,50.0813
-3664.0625,637.3072,211.0141,274.3670,-28.4287,-88.8237,2.5533,62.0326,168.8609,-21.4158,151.4181,1.9743,0.6476,-821.3879,-31.1186,204.7638,66.0557,-1123.8313,-331.0178,207.2093,-316.8637
-3656.2500,400.3693,397.3141,133.7135,-19.3157,139.0056,-175.8570,33.9089,-341.1738,-235.3462,-506.1142,414.7648,45.9045,693.2860,-172.3155,-672.5009,-516.9972,1246.9222,-244.2903,-524.0109,-238.3417
-3648.4375,586.7809,337.0011,181.4328,62.1788,1.2548,-17.8883,-284.8661,36.1684,-224.8747,52.7621,63.8951,20.5617,-508.5454,-51.1290,145.6013,115.3462,-990.8278,-253.4823,363.2186,-229.3904
-3640.6250,849.0458,670.5045,322.9814,148.4659,-41.7204,-25.1106,78.1366,-154.6398,-268.5951,-287.4835,293.1206,310.0365,-183.7516,-168.1260,-303.4062,-408.4491,154.9389,-550.1834,-502.6566,-531.6572
-3632.8125,488.7065,592.4299,-29.0750,140.1507,47.7116,-156.9579,-272.4632,-361.0825,-251.9222,-347.3626,311.8831,252.9295,531.5430,-189.7363,-435.0928,-392.8942,713.3049,-285.9812,-161.1876,-259.5295
-3625.0000,1121.7028,731.6801,277.2060,244.1811,-161.5105,1.5359,-111.7774,-19.1549,-277.8861,-117.8271,134.7473,413.1673,-816.8777,-30.9901,162.6311,-200.9221,-1219.1487,-583.1349,81.7703,-544.0255
-3617.1875,793.0042,791.1987,153.7719,127.4593,45.5106,-122.7277,23.1763,-438.9627,-364.6010,-576.0253,497.7877,400.6856,603.8713,-265.9977,-697.3712,-767.7008,1235.5632,-542.3192,-601.0245,-522.3054
-3609.3750,526.8065,525.2592,89.8616,2.2706,54.1069,-77.4745,-259.3632,-99.2553,-134.7814,-16.6872,115.4987,190.7657,-194.6991,-109.4735,119.1277,-97.9443,-646.0208,-398.8290,433.7425,-367.0058
-3601.5625,837.8529,660.5269,280.1775,-39.7199,23.8880,1.9823,116.2595,-93.3066,-90.7521,-233.0825,207.1375,346.0557,-372.2355,-102.7344,13.9238,-424.9148,-261.7044,-682.7982,-243.1703,-656.5089
-3593.7500,318.5238,387.4121,-130.9009,-101.1206,200.2763,-152.9807,-146.5176,-285.7947,-62.1252,-242.9007,292.8444,155.9620,687.9052,-221.4199,-399.7422,-470.3365,947.3706,-318.3785,-166.5381,-297.4228
-3585.9375,703.6720,315.7634,128.4938,-32.0422,-55.8255,-4.4648,-143.8622,156.2258,14.0210,234.8423,-39.2017,158.3517,-817.4667,-35.6119,374.1445,116.8015,-1338.1578,-403.8872,358.7137,-370.8018
-3578.1250,496.4819,389.7280,95.5257,-28.3707,21.6574,-148.3522,82.3975,-172.1229,-130.2263,-315.7776,317.8840,163.3691,399.6416,-216.1965,-470.3127,-433.4399,1025.7515,-377.6444,-484.4075,-368.6093
-3570.3125,138.1403,67.5963,3.4361,-69.8083,2.0634,-94.3703,-266.4781,28.3927,-38.5834,104.4814,33.3456,-147.7060,-23.2065,-87.9014,62.0654,208.1803,-208.2465,-106.5270,423.3623,-94.4948
-3562.5000,520.6674,203.3079,306.2031,-4.4003,-137.6986,59.4715,111.4472,108.8022,-30.0791,73.6679,50.1545,-101.9302,-602.3575,-43.7321,105.3936,-6.2616,-491.6878,-385.3038,29.1151,-382.5257
-3554.6875,-84.8243,-14.0107,-8.0677,-12.0464,63.4884,-70.7440,-91.6675,-242.8544,23.3611,-133.2128,237.4161,-268.1790,738.4718,-137.6254,-466.3852,-358.7838,1334.9238,-99.3948,-191.2303,-109.6270
-3546.8750,154.8891,-56.1088,172.8810,157.5413,-125.0712,108.2721,-240.5991,156.7430,167.0567,376.2097,-154.1256,-233.1912,-735.4213,78.7229,411.1030,223.9844,-1097.2378,-193.1978,468.7767,-188.4437
-3539.0625,231.1089,196.2549,220.3147,233.5787,-41.2051,44.7515,28.9141,-165.1664,-6.7880,-240.8675,200.5543,-74.7364,156.9799,-94.4674,-352.8829,-319.7563,881.8226,-277.7916,-476.7104,-289.8374
-3531.2500,-64.1547,-27.8237,-29.7196,149.1539,40.2267,-22.2434,-366.0462,-84.5704,0.9122,21.5673,50.3726,-285.7177,202.0680,-124.1264,-52.3971,54.0060,308.6460,52.2505,282.3179,47.3360
-3523.4375,459.6894,73.1839,236.3443,109.8179,-136.2518,95.8584,-26.9599,216.1598,82.7359,248.1894,-49.8711,-203.6077,-781.8732,-42.6717,286.2864,59.9427,-818.6987,-241.2340,135.5873,-240.3718
-3515.6250,-112.6238,-41.9806,-113.7677,-40.7210,28.0697,-108.2477,-81.0547,-61.3232,137.3551,43.5976,177.0633,-221.6730,706.9706,-282.4272,-432.2415,-327.3475,1320.7841,-32.4261,-367.3910,-40.3042
-3507.8125,-43.6260,-148.8145,-118.5620,-77.9232,-123.2372,-3.0212,-230.8638,374.5210,316.3098,588.3667,-258.0852,-260.4009,-547.7506,-67.8412,517.5632,400.7377,-1105.3346,12.1698,403.0373,27.1532
-3500.0000,74.7777,75.7023,-22.9804,-64.7829,-102.2148,-19.4381,195.6518,136.7667,190.6159,-18.4364,8.6322,-54.7643,24.7113,-119.8897,59.7982,-94.7619,282.6190,-139.5090,-464.0962,-137.0527
-3492.1875,-410.6912,-233.6306,-325.2591,-163.5082,35.9706,-65.7262,-142.6936,90.1318,218.0681,81.8944,-53.0091,-208.9726,530.4459,-92.8165,50.1075,114.8404,396.9229,216.3704,32.8777,219.8962
-3484.3750,251.3297,-99.4880,-64.0476,-135.7474,-217.3457,84.4772,8.4003,388.0251,259.0406,450.7953,-239.3277,-93.7026,-788.4006,57.7604,531.0045,301.0273,-1295.4861,-54.4191,165.4885,-34.6291
-3476.5625,-61.0469,-59.7755,-247.2511,-200.4397,-71.1156,-135.7717,47.0555,-54.5238,185.5585,44.2411,117.5385,-92.8604,682.2422,-162.1106,-352.5354,-251.2413,1104.6031,66.3948,-464.3734,74.3695
-3468.7500,-79.0254,-183.6236,-200.0393,-219.7041,-134.4191,-89.5915,-272.8934,285.3542,269.5182,494.1435,-232.1465,-227.5729,-336.5535,-42.5483,428.3375,454.9345,-952.7415,207.3849,465.2499,229.8547
-3460.9375,181.2925,76.7738,45.4424,-135.7236,-182.5023,-66.1424,121.3773,199.5379,73.7319,186.3851,-40.6202,18.9678,-237.2779,-54.7093,84.5563,37.4375,-162.1455,-15.1585,-365.7687,-3.4150
-3453.1250,-385.0424,-102.4733,-265.7304,-139.3989,-17.2277,-121.3520,-263.0023,-2.9552,-16.7134,202.9563,-8.9299,-144.1361,626.4387,-109.5371,-154.9511,54.2426,715.9760,300.7585,-159.4900,307.6635
-3445.3125,185.3873,-58.9475,8.8676,8.7134,-184.1460,79.2330,-170.6527,344.3748,-36.3452,439.3956,-246.2250,-52.4670,-826.0813,91.4292,524.4001,437.9190,-1384.2479,87.4209,233.7144,103.5787
-3437.5000,25.9695,63.6988,-47.4070,24.9203,-56.9822,-51.0766,-7.1941,-81.1655,-166.8766,-281.0330,149.8492,39.3194,477.3901,-39.5000,-379.1062,-208.2882,1062.4954,123.5093,-558.9709,118.5672
-3429.6875,-151.4486,-79.6206,-169.6640,58.1655,-69.7488,-27.3593,-311.7244,126.3144,-68.3672,219.5761,-167.0499,-117.8518,-159.9576,21.6045,231.3850,365.5381,-520.5449,319.4440,351.3893,325.6361
-3421.8750,272.1173,169.0010,67.0433,129.3561,-163.5801,-12.6829,109.6457,140.7853,-125.8967,123.2128,-86.2058,45.9232,-510.5143,37.6745,99.9337,122.3999,-480.9412,6.2809,-210.1793,9.6633
-3414.0625,-285.4482,-1.5036,-197.3931,64.3877,85.4431,-204.1706,-154.1297,-197.9228,-170.5849,-106.3201,99.3736,-106.4368,730.8365,-117.4207,-422.7267,-32.9346,1109.6395,300.6573,-241.9600,294.5332
-3406.2500,150.1940,-22.7840,79.3883,111.6443,-79.2789,-38.4254,-206.7277,224.6330,-114.0237,315.4593,-182.3990,-122.5667,-719.5460,84.7307,367.8849,426.0354,-1232.5994,157.6071,368.6122,165.6972
-3398.4375,177.0468,214.0961,76.3475,103.0398,-10.8710,-116.5256,9.8315,-110.6253,-228.3034,-204.5659,191.3822,58.4622,342.0845,-66.9610,-482.2859,-240.8026,907.1104,52.3822,-625.6301,49.9919
-3390.6250,-94.7437,-21.6355,-108.3144,77.8167,-11.0430,-156.2464,-431.2310,33.4727,-119.1761,196.7663,-33.5887,-88.1103,121.2598,-30.2751,-43.1235,196.7251,-65.5836,294.7063,191.4953,304.7158
-3382.8125,364.0262,155.1581,201.5745,113.1424,-179.6767,-105.4075,-47.8012,158.1647,-30.4849,247.7246,-92.4659,37.8525,-709.1501,-16.0160,264.6957,136.8801,-767.0147,-22.6005,-18.7040,-11.9894
-3375.0000,-199.0718,15.0784,-65.4267,43.5628,-6.2134,-262.4687,-93.2616,-146.0479,-39.7217,-131.2132,159.5209,-80.0715,714.5529,-209.6670,-370.4123,-241.8872,1240.7065,205.8196,-265.8607,197.3888
-3367.1875,30.5835,-142.2234,66.3315,25.7588,-131.9369,-19.7486,-179.9893,278.5352,54.8331,403.6919,-197.3534,-203.2251,-660.8828,-4.5276,459.2757,330.1898,-1201.7593,142.5974,595.8531,144.6133
-3359.3750,73.8014,4.9764,120.6115,32.4505,-5.1857,31.4885,240.7666,0.6654,-75.1008,-96.8399,115.0863,-75.8813,91.0180,-98.8698,-259.4618,-316.1803,496.0174,-40.8933,-311.8718,-60.6729
-3351.5625,-313.8706,-241.6706,-149.9794,-73.7102,126.7256,17.8665,-102.3469,-14.0884,22.1113,72.7447,14.0241,-235.3861,371.2007,-149.0780,-164.1224,-0.4561,250.1528,232.3045,283.4962,218.2076
-3343.7500,315.3887,-34.3945,154.3735,-7.9271,-45.4195,138.2040,129.4306,216.1426,69.2882,191.3488,-111.7454,-75.9604,-793.7674,7.6781,287.2639,119.3049,-1158.0055,-101.6989,244.9418,-102.9300
-3335.9375,-113.4526,-5.2573,-151.4073,-15.3027,124.2744,-23.6104,80.0762,-164.7690,-54.6904,-227.1901,166.4036,-88.6742,663.0825,-115.7250,-498.4999,-410.0865,1193.6689,44.6858,-395.7975,29.7675
-3328.1250,-126.4911,-194.2960,-168.3868,6.1485,-3.1681,143.4015,-193.4818,258.1548,39.1768,343.1487,-261.3290,-213.5691,-530.1234,124.7025,329.5638,307.3862,-1034.7219,88.4167,539.3627,85.3598
-3320.3125,115.5135,-22.3259,22.6468,37.5928,4.3683,149.4248,218.9416,81.1303,-63.9447,-166.4345,-5.9550,-58.4727,-192.5024,94.1534,-69.2706,-91.0725,88.5869,-151.9091,-308.3890,-166.0530
-3312.5000,-325.4527,-288.2901,-196.2773,-87.9243,151.9707,39.4851,-146.5853,-102.8793,-62.0260,-129.0037,56.3770,-239.3213,581.2849,21.6336,-105.1329,19.4657,598.1421,172.1767,56.8397,164.5932
-3304.6875,187.8427,-161.9892,130.0830,-103.1509,-73.1259,144.8449,-40.8776,296.4381,7.2064,305.7915,-172.2440,-169.8960,-783.6810,164.4210,515.3700,381.3826,-1314.1783,-69.9540,324.4890,-61.4200
-3296.8750,-134.0602,-61.9238,-62.7754,-142.6320,65.5094,-49.0299,61.5964,-81.4747,-38.8205,-181.6527,160.7536,-103.7122,641.0152,7.9699,-376.3575,-179.9371,1110.1615,7.2318,-455.1275,2.2961
-3289.0625,-245.0055,-242.8751,-112.6687,-114.1298,-21.8391,11.0837,-171.9830,161.5853,131.1308,279.9009,-189.5367,-188.5478,-218.1630,103.5107,306.8558,392.7328,-759.3513,165.8556,523.2560,171.0530
-3281.2500,118.1390,-55.7922,170.4939,1.4139,-107.1573,35.2698,295.4523,113.7443,121.1476,47.5902,-38.3910,-52.3547,-376.4576,56.1194,112.2216,12.5300,-324.1216,-128.2907,-134.2057,-135.1310
-3273.4375,-399.2241,-291.2021,-125.8517,-58.5535,73.0329,-78.0510,35.4007,-110.6200,117.6657,-66.2462,88.3519,-273.6665,686.8309,-130.7949,-221.9677,-27.2143,918.7612,170.3055,-54.2334,155.1837
-3265.6250,90.4614,-258.5485,136.8739,-26.4382,-105.6731,72.7286,77.3918,298.1341,197.2879,379.0640,-196.9289,-192.9158,-778.7786,21.3939,591.9910,491.2109,-1369.3639,-28.0718,434.9361,-24.3570
-3257.8125,3.3506,-29.7282,117.7793,-115.1663,59.7520,-130.3250,279.5347,-198.9310,104.0452,-339.4483,211.8423,155.9900,525.6478,-145.2479,-236.8472,-190.1897,971.4943,-6.9938,-532.7458,-7.7645
-3250.0000,-301.5018,-229.6158,-68.0526,-173.6049,56.4960,-97.0974,-127.0642,-92.7288,212.0822,24.3225,-98.4033,227.1801,118.5196,-0.6061,347.5537,245.6857,-317.1588,303.4165,322.8408,319.1646
-3242.1875,-25.8429,-24.0246,49.6113,-108.5560,-119.2776,56.6448,248.7940,24.0287,219.6360,103.6873,-205.7420,530.8448,-499.2549,152.5530,501.5667,69.1558,-743.6151,16.2776,-34.9546,31.6137
-3234.3750,-706.3717,-176.6207,-379.9231,-157.7186,74.7485,-42.8192,113.4736,-222.4264,193.9852,-107.1645,-79.6977,469.3088,834.8159,53.5004,-75.6651,-141.6053,1003.8263,297.4130,-224.0211,298.8576
-3226.5625,-406.0086,-193.2981,-284.5428,-139.9496,-87.2618,124.6590,25.0380,239.0696,289.2896,317.9690,-468.0078,492.6927,-614.1106,295.3961,717.0641,540.6124,-1404.8044,227.7118,462.9315,246.0990
-3218.7500,-311.6857,-28.0630,-180.2296,-151.2734,-20.3946,43.0593,238.4899,-61.4962,61.4896,-93.9482,-83.9917,560.9794,297.7202,178.2083,-171.2389,-17.2314,555.2372,123.0751,-498.1919,128.2244
-3210.9375,-563.1022,-315.5255,-310.6386,-227.2999,32.7915,-13.2461,-220.7828,-8.8022,5.9608,179.3892,-180.3716,357.5563,350.9986,158.3088,28.6811,402.1887,-11.2050,424.5885,199.9153,438.6757
-3203.1250,32.8312,-105.6586,31.2868,-194.9832,-139.6855,106.8153,83.2380,185.2853,-19.2174,115.1455,-230.1439,443.4562,-630.4853,205.7779,370.0432,449.0452,-1032.5562,138.1978,91.4943,154.5095
-3195.3125,-385.5569,-137.1231,-230.1301,-192.0248,75.4785,-81.4634,43.9344,-297.9756,-23.7449,-367.4604,80.7886,256.0063,835.6688,53.8929,-406.9605,-70.4739,1223.7747,334.1121,-291.3313,332.9798
-3187.5000,-211.8599,-280.4675,-122.4345,-88.9357,-74.1918,99.3959,-142.2695,103.8966,83.8834,181.1069,-273.0626,108.6683,-453.9393,234.1434,399.1703,477.1785,-1065.6879,322.6457,620.0413,329.6500
-3179.6875,-31.6167,-64.3195,39.7797,-15.3511,-58.3871,76.7767,203.0173,-101.6840,-10.9843,-172.7501,12.2449,197.8172,38.7863,102.9127,-174.1109,-95.6064,417.0787,97.3464,-219.0195,86.8181
-3171.8750,-585.4030,-338.1697,-221.0283,-41.7759,84.4255,-0.8541,-93.6987,-180.2893,96.1301,43.3654,-62.0511,-62.0415,512.6423,-11.3362,-178.4698,46.5604,603.0564,394.1562,350.8464,376.0013
-3164.0625,-82.7631,-152.6029,133.5926,107.2387,-40.3182,167.9785,149.9876,136.5939,81.7011,285.9972,-223.5902,35.5158,-751.1245,121.8830,248.7038,178.2538,-1040.7283,85.4859,466.2688,67.6704
-3156.2500,-387.6410,-34.5704,-3.3195,118.7047,190.3731,30.2781,123.1457,-258.0620,-128.2798,-255.9254,165.8397,-25.4694,730.5039,-15.4380,-660.6606,-362.6085,1399.8920,147.7332,-295.9081,113.7742
-3148.4375,-291.2301,-185.2097,22.0738,143.5071,140.4309,127.9220,-219.3933,132.6083,-102.9203,245.4973,-143.7903,-184.1353,-275.3961,118.5784,172.2867,248.8817,-649.0150,192.6261,609.2695,174.2754
-3140.6250,55.6207,-14.4513,214.8837,209.7046,149.8700,173.9872,194.4473,68.7278,-131.1594,-113.6158,75.6369,-63.4216,-156.0544,18.0205,-75.2770,-184.1528,85.1868,-120.1236,-170.0733,-147.8192
-3132.8125,-534.9953,-218.1385,-121.7604,109.4461,327.8738,20.5992,-105.1560,-121.6325,-25.8681,-156.2057,97.8646,-178.1681,757.9492,-61.0019,-228.3703,-116.6917,937.1250,164.1281,-21.9556,139.6428
-3125.0000,-104.9527,-139.1646,117.2645,82.8764,51.5850,148.9160,23.8850,300.7277,139.1267,227.9626,-222.3587,-12.2562,-695.3655,103.6888,525.2921,379.5350,-1234.3696,-58.3378,338.9515,-63.1496
-3117.1875,-290.1622,-43.4736,-4.9920,-32.9967,149.9796,-48.0471,232.6477,-80.1924,53.8122,-188.1546,133.4600,50.3554,615.9265,-55.9119,-332.3020,-258.5238,1112.7136,-22.7502,-480.4558,-39.2591
-3109.3750,-367.6357,-295.9953,-130.4907,-110.0843,60.1936,9.7800,-77.8167,197.6578,147.2858,308.5123,-159.0095,-111.2632,-24.8363,74.2700,311.8473,275.1936,-512.2234,164.3603,391.9135,164.4693
-3101.5625,117.0587,11.6095,57.1662,-49.0210,-119.4637,86.7802,294.8359,201.7151,115.9181,129.3998,-121.0235,114.2431,-461.6002,116.6289,280.2467,59.1396,-519.3048,-129.4846,-248.4716,-125.6394
-3093.7500,-416.7384,-64.2706,-293.6761,-90.4586,-29.6206,-44.7130,-19.9949,-149.7454,95.0345,-76.2445,6.2616,21.2459,730.2039,-51.5174,-144.9222,-72.4655,987.2552,181.3264,-290.4458,183.7473
-3085.9375,-59.3384,-92.9317,-97.2994,-50.6596,-237.5198,187.0462,-44.6329,266.0565,180.3958,303.3940,-357.3020,-3.5441,-801.7118,180.5926,749.1824,454.2320,-1433.9897,34.0169,382.8939,48.4335
-3078.1250,-142.1806,69.1124,-143.1930,41.8442,-136.7440,179.5296,241.4326,-73.4111,-10.5500,-183.2406,-3.2928,27.3635,292.9496,99.4226,-67.9521,-252.3310,700.2789,-63.3682,-579.0663,-70.1908
-3070.3125,-479.3232,-92.0961,-360.3796,56.0871,-60.1994,180.7495,-159.7705,111.8324,66.2364,222.8560,-229.8154,-190.0037,110.5189,100.9851,228.5969,189.8145,-235.4869,191.4676,208.6619,188.9680
-3062.5000,107.9732,143.1308,-64.1246,149.7728,-169.2211,182.4406,173.4386,224.5681,214.4855,187.4758,-238.7333,-39.9539,-695.5865,67.0263,304.6954,155.4880,-879.0735,-103.8412,-83.0592,-103.3981
-3054.6875,-301.1067,14.9738,-318.2600,21.0596,54.3586,-108.2557,29.2788,-176.1097,181.3227,-103.3449,57.8997,-145.3039,741.9325,-150.3358,-427.6473,-172.2743,1245.0145,127.4471,-351.2648,119.8244
-3046.8750,-54.9411,-88.9113,-130.1427,91.6330,-51.7507,78.3465,-76.6294,230.5039,184.4569,340.1602,-288.3889,-214.3834,-652.1745,110.6002,458.3004,455.2903,-1147.5721,45.2724,386.8701,49.3950
-3039.0625,60.4168,201.3553,35.1461,135.3546,40.2727,23.1233,272.6135,-81.6840,19.7369,-230.1409,55.0965,-85.3085,64.7198,-18.2935,-148.5234,-188.9380,586.7524,-140.3549,-552.8115,-152.8916
-3031.2500,-254.6694,61.2186,-122.9810,100.6697,101.9189,-61.5089,-216.5408,-130.3155,9.5981,-93.9062,7.1351,-242.6475,347.3696,-65.6006,-85.8270,20.3866,411.9097,134.8196,81.0269,129.4463
-3023.4375,398.7256,222.5490,242.3834,155.4859,-83.9396,45.3767,-36.2428,123.5822,-31.0369,49.8871,-77.1471,-97.5321,-795.5612,41.6172,205.4514,164.2795,-939.6484,-172.1271,31.4624,-167.6839
-3015.6250,63.5085,204.2493,34.1200,66.6658,74.5352,-163.3663,-97.5808,-305.1684,-164.3420,-341.9580,279.7046,-121.0782,724.8345,-93.8094,-590.9352,-374.5027,1400.1514,-42.8489,-549.8285,-45.4833
-3007.8125,254.3802,43.0758,46.9609,45.9921,-95.8242,-40.9632,-266.8150,75.2144,-151.5199,184.3519,-82.6287,-180.5155,-475.5046,139.9015,303.7904,225.8756,-872.7876,-12.1607,344.0353,3.9153
-3000.0000,480.5945,268.2012,220.1163,94.6227,-107.9041,21.7692,125.2500,-84.0588,-274.3951,-342.0002,158.7136,29.3237,-156.6980,54.9333,-112.0952,-227.3789,232.3060,-230.5452,-484.7440,-228.3820
-2992.1875,-128.4176,-22.8769,-100.9397,13.0441,48.8351,30.2934,-194.8651,-220.5726,-226.4785,-258.6033,141.8208,-180.0560,588.0386,-44.2440,-285.2622,-106.8935,749.4169,116.4632,-73.8184,112.1327
-2984.3750,339.4789,92.9506,179.9342,94.4069,-147.4728,275.7815,-25.0728,169.8912,-129.6098,95.7996,-98.5079,-229.5293,-785.3118,89.5455,363.5810,136.5999,-1209.6821,-159.3889,219.1511,-158.3642
-2976.5625,120.3737,154.7586,59.7804,85.7268,63.1564,154.2409,75.6928,-208.6753,-322.8045,-428.8580,320.0860,-275.0580,676.2270,-67.7021,-528.6082,-497.9647,1245.0911,-114.9300,-597.9794,-131.9316
-2968.7500,55.0556,-85.5897,19.4300,54.8815,59.6504,187.5455,-257.7295,45.5780,-252.1664,81.3201,18.1846,-424.7761,-99.2419,38.8870,203.0005,123.3088,-615.1173,49.5573,390.7183,48.3930
-2960.9375,376.3122,129.5895,184.6296,23.5887,40.6672,168.4266,163.3765,26.4367,-198.9679,-85.8729,118.6013,-186.9760,-230.3126,20.0514,0.2625,-190.7901,-294.0647,-226.5702,-237.9532,-228.7251
-2953.1250,-244.5354,-33.3346,-184.2773,-69.8009,221.5885,18.2080,-95.5873,-269.8257,-162.8889,-234.1985,177.4137,-224.2912,834.6138,-54.8923,-405.6459,-192.0425,915.0635,105.2343,-118.8327,100.0533
-2945.3125,191.5644,14.7081,56.7880,-56.1943,23.5202,150.9995,-37.6042,44.9311,-105.8165,191.5144,-127.2552,-128.6471,-614.4451,187.1692,351.4731,269.7535,-1392.8868,-75.4600,493.3491,-62.1238
-2937.5000,48.9027,153.9720,20.0850,-58.3816,170.6365,3.0139,183.6008,-359.0796,-214.5493,-433.5679,258.9740,-17.8078,635.5952,2.4487,-494.1749,-428.2356,962.2225,-94.1560,-423.2905,-99.1175
-2929.6875,-174.6682,0.3762,-78.5020,-36.4325,143.9223,15.1701,-247.0602,-163.9780,-93.1374,-165.5311,5.4893,-115.8503,204.9451,50.8691,-4.7533,95.8853,-281.3017,163.9712,408.1663,169.0726
-2921.8750,348.8914,277.8566,263.0099,-6.3814,-29.7131,98.4549,57.3449,-44.7273,-120.6212,-156.3188,36.9248,78.1730,-445.7418,24.4170,41.8598,-40.8161,-638.0019,-159.3616,-53.1964,-151.6216
-2914.0625,-136.5712,108.3118,-34.5201,-69.3699,114.5970,-88.2996,-92.2739,-304.5493,-196.1882,-269.2038,246.5688,-70.8554,837.5713,-88.0867,-585.6275,-337.6127,1163.3729,69.7151,-221.7215,65.6241
-2906.2500,217.8058,-29.3628,119.8141,-32.4620,-62.1798,101.8470,-122.0378,180.5189,-5.8674,251.8272,-116.4269,-136.0221,-663.1545,139.3095,303.7941,221.5208,-1297.3467,-46.2417,519.7000,-37.1844
-2898.4375,202.9685,95.7125,109.9270,-48.7963,0.7783,17.7707,234.9718,-124.6272,-16.7943,-237.3577,188.3177,-36.4512,245.7352,-55.5220,-330.9719,-303.5629,657.4804,-153.9663,-481.1183,-158.2564
-2890.6250,-221.9603,-152.2620,-164.0328,-86.1832,21.7048,1.6349,-112.0731,-30.8630,113.2062,-32.6378,-23.8607,-162.9597,264.7379,-34.4254,-16.8788,82.2566,57.5013,155.4675,219.9264,155.6487
-2882.8125,320.8138,38.4417,122.7002,34.1275,-170.6812,140.2168,137.5349,181.6466,106.8954,69.8567,-132.0484,13.1944,-771.6595,105.3915,269.9894,75.8570,-984.0155,-148.8093,59.7617,-145.7191
-2875.0000,-178.1267,-39.5833,-151.2959,-9.3083,-3.8217,13.0590,9.4239,-128.5981,-56.1957,-277.4282,154.9925,-75.4071,719.2013,-58.5360,-444.9292,-345.3237,1225.7749,71.0576,-369.2416,58.1438
-2867.1875,-17.3233,-194.8336,-133.5307,-59.9463,-95.1408,141.6983,-191.9230,292.9316,70.5005,254.0668,-220.8153,-167.2509,-513.0295,106.3367,454.9246,334.3012,-1147.5481,107.0558,564.5743,112.8514
-2859.3750,153.2163,81.6122,-55.0404,-99.8720,-16.7793,110.0710,253.4345,77.1993,38.9090,-108.6949,40.8449,21.5842,6.2862,-35.0657,-165.4389,-248.3200,219.5806,-97.8289,-353.8760,-102.7489
-2851.5625,-371.3763,-91.0361,-358.6700,-131.8980,119.4948,-9.6602,-123.2980,-5.6714,103.1921,175.3946,-31.5470,-134.7007,548.6478,-44.5846,-210.9815,-75.1030,362.8497,180.1145,105.4678,181.5629
-2843.7500,153.1164,10.3830,17.7860,-30.8253,-54.1360,109.7216,69.0269,260.5826,222.5708,405.6333,-216.8213,-51.9350,-764.9437,75.0125,386.6451,191.2695,-1257.9637,-112.6710,207.9970,-102.9923
-2835.9375,-186.7388,22.4213,-85.1349,-55.1465,172.8186,-104.2776,112.9853,-173.5477,82.5279,-212.5227,183.8679,-80.5817,749.0245,-174.7878,-451.1419,-278.7815,1215.7950,22.5963,-483.9369,14.0292
-2828.1250,-79.0683,-115.9584,-52.4979,-52.8691,94.3905,2.3195,-222.4916,151.9032,5.0755,223.9152,-133.6048,-121.6674,-285.2675,41.0074,278.6106,340.7594,-822.6944,149.6893,432.7097,156.6897
-2820.3125,267.3244,159.3589,174.8570,-23.8745,-8.3535,8.6495,152.7171,86.0953,-98.6692,-26.9164,52.0389,105.9332,-241.0051,11.5345,-7.8444,-92.9326,-89.7515,-131.8119,-310.9004,-129.9479
-2812.5000,-266.5956,-127.6059,-102.0872,-135.1712,117.6156,-158.3204,-125.3552,-82.0588,-45.7426,-84.1091,113.8762,-60.7740,657.0812,-118.2508,-137.6757,-76.9793,818.1086,181.7354,-35.9324,180.1179
-2804.6875,284.3910,-138.6482,150.8939,-77.5248,-141.4622,-15.3354,54.4767,281.7539,61.1255,243.7006,-154.8094,8.4276,-816.8922,61.9219,557.4876,323.9783,-1304.1898,-17.3314,375.0628,-6.8267
-2796.8750,67.9307,-4.1809,72.3994,-48.3706,-1.0577,-166.8315,195.8434,-163.9060,-55.5161,-276.9771,217.0704,77.1218,501.5490,-91.3910,-403.8248,-342.5610,1152.9128,-3.8829,-474.4800,-12.2955
-2789.0625,-102.1398,-104.2861,-40.6798,-7.7719,-3.1756,-96.8792,-174.3525,52.8518,89.2697,197.7595,-92.7347,-35.7660,-125.3980,-19.2680,181.2420,168.3079,-425.3299,163.5699,374.3750,168.7180
-2781.2500,282.4644,174.2472,228.8962,95.4789,-138.6612,-11.2544,205.0821,102.2982,64.7112,100.2047,-28.4794,123.9655,-517.8301,-44.4732,84.0481,-76.1050,-427.1890,-149.4133,-191.0346,-149.6121
-2773.4375,-240.4687,38.2433,-110.0773,-4.8167,73.3076,-165.1777,-59.9991,-236.8299,-16.4005,-164.9436,137.3945,6.1307,724.2641,-161.2350,-364.7745,-231.1255,1124.5676,141.2831,-221.0850,136.4928
-2765.6250,235.0894,-84.2502,98.4739,12.4415,-121.1641,5.4557,-72.5724,154.5993,7.0400,189.4735,-159.4079,66.7998,-722.0522,119.5632,504.9636,344.4402,-1285.1520,-1.5043,395.4714,14.1842
-2757.8125,226.2412,47.8204,129.6048,-31.7297,19.9012,-73.3340,142.4328,-217.3897,-144.9817,-366.5507,262.4735,172.0163,449.0620,-32.0741,-344.6898,-285.4262,887.5164,-67.7061,-527.4407,-64.5995
-2750.0000,-85.2526,-158.7021,-60.8911,-97.4991,86.3898,-115.7347,-232.1669,-78.0236,32.3658,30.7799,57.6758,-54.3916,294.7414,-75.3347,15.9764,148.0560,-58.1685,174.7062,354.9679,186.0389
-2742.1875,340.8639,57.3528,254.2143,-23.6696,-40.5285,-22.5187,155.8062,89.9797,89.3182,87.7867,-2.0261,112.7616,-529.0960,56.0208,257.3257,-14.8003,-792.4991,-171.2029,44.0688,-160.7076
-2734.3750,-213.9968,64.4195,-42.6687,18.1630,141.5565,-171.2913,-30.1833,-317.0198,12.2590,-319.2286,227.8382,183.9014,902.1025,-56.6288,-443.3869,-384.7011,1254.2697,56.4192,-370.9265,57.5239
-2726.5625,60.6819,93.0555,98.0204,82.5972,-12.7443,-31.4575,-183.6176,43.5768,5.7870,115.3523,-130.1563,287.6001,-464.0089,121.3271,432.4716,271.0219,-1145.3065,30.2332,395.6985,51.3945
-2718.7500,190.1122,293.4021,203.4473,35.7486,19.6375,-108.8947,215.6607,-254.0920,-145.9942,-367.3556,184.9407,429.9919,229.4441,-29.9887,-196.9098,-247.5199,567.6047,-106.6840,-458.9625,-100.0548
-2710.9375,-246.7401,-108.4970,-82.3924,-84.3428,64.7864,-174.5922,-107.2983,-137.0622,8.9610,44.6348,45.7041,143.1153,457.8057,-95.5734,31.3704,16.6178,305.5194,193.6845,229.0258,201.2560
-2703.1250,293.3514,43.5255,164.7049,-2.4837,-130.1173,-1.3351,102.6585,219.9470,71.8721,217.6432,-128.9424,243.1508,-728.9565,114.8037,499.6785,116.7701,-1124.8177,-118.0157,136.0532,-102.4580
-2695.3125,-136.6154,106.4744,-71.2743,24.2785,74.8740,-126.1726,86.5562,-273.1438,-90.3407,-422.4756,203.3051,227.0884,800.1697,-47.9143,-362.1269,-340.2047,1294.7715,67.5598,-505.1015,65.7037
-2687.5000,-52.7457,-90.6924,-24.3884,3.9387,-24.2170,-42.1206,-122.6790,66.6493,30.3262,138.2970,-162.9235,90.8935,-365.6833,109.2645,420.9260,331.7041,-908.6125,137.8801,457.6413,149.7985
-2679.6875,156.5568,12.5400,169.9151,1.0119,-49.9345,5.3613,255.4859,-32.1015,3.4060,-107.4665,64.3116,176.0798,-97.2929,10.8693,-45.5556,-134.9315,180.1475,-129.3529,-317.1658,-132.7220
-2671.8750,-392.2580,-254.3267,-121.8899,-90.0004,97.2609,-29.2610,-110.4247,-66.9843,-31.6311,4.6261,71.8971,-43.8476,639.1320,-23.6459,-191.2460,-22.7271,686.0430,170.1613,82.8191,162.6581
-2664.0625,114.6644,-135.4679,160.0380,-6.2582,-60.7974,142.8730,24.3646,251.8961,-43.9285,286.5052,-160.5921,54.9450,-731.7258,148.6027,421.8580,296.2901,-1234.4414,-71.1546,378.6206,-69.1737
-2656.2500,-169.0130,-32.2245,-28.6565,-44.1549,118.4771,-8.6275,129.5331,-156.8698,-157.8996,-232.2929,184.2324,123.0987,660.7000,-76.7832,-464.6799,-332.3553,1225.3779,-20.3258,-363.2875,-36.6776
-2648.4375,-198.8608,-238.1001,-102.4898,-38.1533,43.6646,26.7598,-201.4240,173.2324,-11.9793,280.7884,-143.9349,13.1247,-184.8276,-3.2773,232.6312,253.8664,-599.7118,112.2263,591.6797,109.7498
-2640.6250,211.6208,102.3088,155.9940,55.1575,-27.8683,29.4710,166.9142,100.6895,-48.7622,-48.7559,6.8417,197.4169,-330.2060,-1.4474,14.3365,-75.5386,-224.7712,-178.1521,-122.9847,-182.5289
-2632.8125,-315.7368,66.8848,-151.3632,19.6268,104.7626,-131.6642,-104.5757,-206.7341,-99.4143,-209.2002,119.6789,72.8482,758.6617,-125.4790,-366.9008,-161.8487,1042.5200,140.7573,-87.6132,134.3315
-2625.0000,174.0181,135.5947,110.4091,87.2545,-110.4488,21.3556,-62.9698,166.0016,-57.9143,236.5266,-193.0550,151.3932,-780.3116,100.6447,374.0208,321.0225,-1248.0966,-53.6212,401.9756,-43.6213
-2617.1875,64.3187,272.8311,-1.2876,119.3999,-38.1829,-91.1035,156.1600,-203.7328,-96.9230,-316.2321,144.2727,296.4379,394.1077,-84.7178,-473.5280,-342.6010,1070.6625,-76.7676,-586.9586,-82.1065
-2609.3750,-183.9267,23.5539,-200.5053,81.0487,-53.3949,-32.0704,-190.2149,-35.0090,72.5464,-0.5327,-157.4379,133.9576,-61.8146,-25.6035,135.3378,193.2318,-198.8370,192.9528,289.5473,196.9281
-2601.5625,283.6550,209.0586,44.0946,91.5113,-212.8121,65.7775,201.1856,99.5462,95.8170,-13.9861,-162.6778,268.2445,-699.0618,35.3295,234.0926,33.9295,-575.7821,-111.8546,-87.0661,-109.2335
-2593.7500,-221.5383,-13.2057,-273.0855,-25.8115,-52.0212,-67.1775,30.8218,-107.7270,-0.7325,-110.2911,47.7592,96.7280,600.9533,-134.5477,-414.0206,-246.2341,1240.6210,136.9570,-240.5834,124.7832
-2585.9375,125.4653,-159.2407,-16.0446,-31.8808,-198.9626,116.1156,-43.3404,333.2454,71.9729,441.6731,-258.5515,-13.5791,-831.7211,49.8196,432.1070,341.8693,-1227.7026,12.5701,493.1898,15.0833
-2578.1250,116.9703,113.1912,92.4746,30.5188,-54.4762,40.8829,248.9638,-37.2943,-40.8673,-186.8745,112.3392,94.5575,121.9197,-62.3462,-379.2590,-248.5529,733.2390,-120.4193,-500.5862,-134.1959
-2570.3125,-345.0155,-102.8244,-145.4756,-45.5311,73.5791,23.1879,-136.1745,18.6747,86.8184,126.0755,-68.6815,-143.7751,214.2802,-42.9857,-103.1601,137.5198,164.9921,150.8873,267.0995,142.0860
-2562.5000,176.9030,32.0415,119.4709,-15.6719,-64.4688,105.4043,202.5605,248.5769,169.4043,245.9745,-168.9248,-62.2411,-769.5558,76.2864,273.9213,146.5583,-931.5705,-175.7891,155.7727,-179.7162
-2554.6875,-277.8849,-106.8152,-179.3127,-84.5487,113.7293,-47.1184,122.5807,-125.2766,53.2324,-200.9050,135.1825,-104.4519,769.8647,-77.1920,-393.7927,-263.2039,1287.1875,12.3955,-369.3967,-1.2997
-2546.8750,-78.8755,-222.8501,-82.2835,10.4274,-46.2059,124.2014,-109.5905,229.7074,76.9120,264.0768,-220.1321,-117.8525,-492.7672,131.1725,512.3062,385.8922,-1082.1066,17.4442,428.2946,22.9943
-2539.0625,140.6756,66.6147,83.2786,88.9158,-27.6589,70.0407,201.7474,-9.7586,-52.9101,-196.3903,85.2149,46.2308,39.9539,40.0568,-94.0230,-147.4562,332.8682,-174.7864,-477.4782,-179.2342
-2531.2500,-356.0434,-184.1624,-156.4115,13.1673,99.6585,-22.3819,-112.1479,-65.5216,-35.0074,40.8189,48.4961,-193.9403,572.5680,-15.3281,-113.7052,52.8803,538.8603,137.9215,43.3981,132.2909
-2523.4375,267.4732,16.2909,139.1398,39.6766,-118.7755,89.4539,73.1625,229.9890,2.1525,301.3256,-140.5817,64.1125,-749.6248,96.5417,402.9153,202.5150,-1160.0576,-132.8159,139.6150,-122.9097
-2515.6250,70.8836,242.6180,-107.4272,19.0461,-33.3676,-119.8549,11.3653,-235.6447,-132.8444,-275.3304,211.7983,186.0103,696.9910,-112.7403,-503.6175,-410.0242,1282.8713,-42.4238,-584.3690,-37.2970
-2507.8125,159.1395,189.8186,-128.1295,72.3050,-165.0376,-31.2827,-230.5524,72.5954,-44.9488,69.9035,-122.7152,15.7714,-317.3563,49.8630,208.7060,229.3230,-775.1360,31.3623,312.5423,51.2397
-2500.0000,616.7391,436.3167,142.4907,141.8734,-152.4285,-16.3953,149.8283,-60.8135,-105.7410,-321.5027,144.0497,-7.1812,-230.5586,-46.2179,-108.5899,-197.9736,-3.1019,-277.2854,-462.1891,-265.9387
-2492.1875,147.6353,179.1432,-137.5889,60.7560,8.4914,-149.2116,-204.4684,-230.9557,-128.2592,-196.6645,230.4611,-287.8229,665.6556,-179.0176,-351.6829,-221.0452,901.4607,-3.3640,-191.7371,5.1719
-2484.3750,638.6494,176.0972,90.4576,128.8001,-203.4366,42.1252,-159.6630,255.0683,-84.6304,326.3681,-66.8787,-281.3465,-832.9955,13.3402,318.4037,192.0811,-1283.9187,-263.1354,226.9423,-243.5406
-2476.5625,406.5168,366.8730,33.3446,108.6628,-2.5832,-50.7208,3.9703,-170.0849,-252.1980,-319.7907,320.4229,-228.0683,508.0619,-117.4959,-620.6964,-452.9999,1159.4193,-262.9167,-672.6115,-263.4896
-2468.7500,176.2324,136.5401,41.1066,53.4282,78.1905,30.3193,-319.5184,58.6308,-170.8694,92.9166,63.3131,-477.9147,-72.8276,-35.4572,-24.9803,142.7846,-373.1171,-75.5966,292.6888,-71.5173
-2460.9375,501.9263,250.1395,321.8320,97.1523,27.8991,90.3336,143.9238,81.3503,-185.5905,-31.3750,123.5127,-382.8321,-454.9094,-12.4477,-2.2279,-55.4111,-365.9616,-374.6059,-227.9812,-379.5972
-2453.1250,-115.2595,20.8573,-4.3371,43.9838,215.7116,-51.5514,-72.4988,-207.8540,-217.2390,-210.6089,288.0051,-488.6432,838.1866,-155.3488,-475.4443,-270.5649,1234.4679,-64.8495,-280.6544,-80.5994
-2445.3125,271.2602,-14.6915,220.2099,149.5635,36.2896,99.3062,-142.2141,163.6947,-31.1415,344.9543,-42.2718,-411.7404,-628.9358,70.5007,300.0976,174.0539,-1159.3680,-190.2021,315.4845,-186.8237
-2437.5000,265.4394,119.3807,290.3922,177.7563,143.4512,-13.2213,37.6969,-281.1230,-108.4368,-246.8668,372.6380,-306.2354,508.4206,-80.0463,-511.7176,-453.7087,1015.2427,-256.3742,-640.7839,-263.4831
-2429.6875,-27.7251,-172.8523,83.2570,131.6548,193.3331,-0.0635,-315.6908,-193.2868,-59.0344,-13.0445,161.3106,-439.0454,337.6368,-29.9233,-57.9318,0.1789,123.8125,7.9560,192.5811,7.5703
-2421.8750,412.6098,20.3947,336.6316,185.0624,5.7043,180.6065,84.3952,23.0962,-136.1108,20.3493,83.3361,-223.3819,-510.7667,77.7121,159.4214,-76.3670,-668.3521,-322.7451,-37.4574,-326.8712
-2414.0625,-199.8745,-29.1759,17.1764,100.6334,165.2249,45.4258,-88.3301,-295.3832,-234.0555,-298.1489,297.0524,-248.5609,935.0054,-57.5072,-527.1254,-394.8176,1393.7439,-77.2461,-332.4371,-94.1942
-2406.2500,-7.0962,-82.4665,107.9870,152.5129,-1.9396,173.5322,-254.7904,162.4209,-181.7068,159.6494,-99.2698,-269.4628,-444.8499,143.5688,372.6126,283.0387,-1052.7935,-74.8750,527.9165,-77.1906
-2398.4375,89.3470,48.8504,216.4183,109.0144,68.4729,97.2579,109.3655,-135.1400,-221.7480,-321.9159,211.3222,-89.7632,250.7464,-5.7437,-255.9858,-308.4698,626.0658,-209.2673,-291.1044,-226.6177
-2390.6250,-376.6382,-277.2258,-138.5632,-6.8783,155.5026,36.5688,-171.8725,-84.1461,10.8149,-14.9328,39.4926,-260.4719,485.0904,-29.4864,-132.0821,-1.4466,404.7927,95.4432,367.3912,80.5563
-2382.8125,134.7647,-117.9227,114.8555,-22.3666,-32.0683,144.2858,155.2545,279.2775,154.7880,239.5088,-143.5459,-81.8101,-694.2452,114.1810,305.2840,143.0377,-1053.2665,-211.9336,316.3878,-216.8551
-2375.0000,-297.2415,-57.0492,-124.1452,-67.2930,133.9050,-20.4458,136.9692,-106.7428,62.2894,-218.5073,164.0261,-63.5899,794.9496,-87.6042,-484.8270,-351.9566,1258.2639,-34.0816,-362.1303,-50.7536
-2367.1875,-193.3008,-164.1894,-92.1775,-34.2194,16.9003,83.8080,-163.3439,218.2197,129.7847,325.4764,-204.6604,-106.3955,-350.7381,90.5884,354.0111,303.0357,-960.0649,49.5335,514.3560,53.3728
-2359.3750,64.9351,93.9309,151.0667,14.1207,4.1288,107.3324,190.5961,58.4771,-31.4520,-55.2586,53.4577,63.0507,-70.3345,4.0515,-173.8190,-114.6689,141.6083,-171.1969,-316.8595,-180.2722
-2351.5625,-397.1346,-156.2374,-124.9969,-60.8331,132.0719,-20.4613,-122.7446,-70.6014,23.0066,-0.3434,78.0092,-139.7965,646.8934,-87.8072,-266.0299,-22.7443,700.2203,141.7441,98.5292,131.7730
-2343.7500,211.2710,29.0683,190.4180,19.7115,-103.4877,74.2406,82.3781,244.8484,80.9788,279.1406,-153.1202,-9.1731,-801.4185,80.8335,380.3166,292.7319,-1259.7990,-108.7856,320.5037,-103.6620
-2335.9375,-107.2691,203.4009,38.8693,18.2662,38.9381,-78.0507,150.5338,-200.6851,-72.0511,-314.3842,190.9772,94.4674,627.2016,-34.5267,-506.3335,-300.8024,1201.1426,-27.9364,-596.5717,-35.1322
-2328.1250,-166.4195,-67.8555,-32.2885,63.2187,-32.2298,35.0426,-251.8920,94.1565,4.3072,275.4489,-132.2016,-50.4888,-178.6619,114.4978,193.3241,289.0154,-619.2911,143.2385,327.6691,150.7913
-2320.3125,234.5979,-18.9338,216.7320,113.3656,-114.2002,64.3348,143.8454,87.2231,-5.1199,157.5365,20.5809,50.7271,-333.3665,107.7217,38.2249,-49.9024,-253.6471,-151.5059,-256.7948,-151.0612
-2312.5000,-302.0776,-273.7353,-63.9737,33.7787,156.0557,-106.1217,-63.1353,-193.4446,44.7087,-159.1354,171.7939,-83.7890,783.1127,-62.8066,-279.6253,-182.5775,1039.2106,166.2554,-160.0549,156.3039
-2304.6875,142.3086,-110.4390,187.4003,22.3022,3.4338,-1.4975,3.9601,93.9441,111.6225,165.2435,-128.4263,19.7889,-656.1686,41.7462,523.5599,362.8160,-1225.6387,-7.1208,354.7445,3.7944
-2296.8750,-21.7667,112.3577,128.2962,-71.6548,128.3026,-206.3582,165.5316,-258.1294,16.0294,-223.8374,206.4484,106.8647,534.9087,-200.1814,-270.6710,-210.2360,1072.7784,-56.0090,-548.8899,-55.2214
-2289.0625,-283.6782,-44.6758,-118.6460,-87.4524,100.3294,-160.0753,-192.7261,8.9127,-11.4147,226.2070,-108.9851,6.0908,102.2102,-43.9881,253.1659,349.7857,-210.4580,162.2577,242.5402,174.8929
-2281.2500,246.5782,168.4690,153.5823,55.9510,-30.4423,-34.6015,116.1761,97.1682,-107.6391,-16.4937,-83.3949,203.4918,-543.2829,118.3964,305.2194,181.0299,-559.5409,-113.3111,-212.7589,-103.7726
-2273.4375,-235.3077,-66.5596,-105.3583,-3.8228,113.5666,-146.3075,-106.1009,-272.7449,-146.0720,-201.3919,171.8591,54.7170,815.9105,-67.4061,-395.8923,-187.9167,1315.0624,192.8642,-307.2766,188.3260
-2265.6250,139.3608,-148.9826,31.2766,19.0091,-114.8098,27.5712,-225.7815,232.9070,27.0822,414.2497,-203.5675,43.5465,-701.1567,107.3727,440.5092,354.7022,-1160.4991,93.4467,453.7552,106.0387
-2257.8125,116.2473,108.7818,51.1233,31.0358,-95.9974,-25.3447,86.7165,-41.1896,-26.5475,-43.8357,94.9898,136.5471,164.8509,-19.6466,-311.8110,-250.4108,750.9116,-54.9124,-484.9138,-58.0529
-2250.0000,-330.4892,-127.0921,-170.6649,-27.5910,-23.8273,-62.9139,-245.3869,31.0606,45.1653,211.4078,-88.3685,-86.1228,236.2507,-21.3416,54.1564,224.7810,162.8093,231.9893,228.6931,234.1695
-2242.1875,255.9991,2.2586,198.7631,66.0252,-205.3938,47.7575,48.7241,215.5587,45.1340,139.9207,-139.1643,97.4233,-754.0519,90.2004,422.3676,300.2375,-903.0177,-65.0968,75.5998,-58.3379
-2234.3750,-103.7845,-5.7072,-40.1288,22.3058,-3.3378,-152.9055,-5.5206,-243.2617,-46.2387,-355.8907,201.3430,114.6314,735.1495,-111.5873,-404.7282,-232.6316,1338.6288,149.6014,-354.8389,143.7686
-2226.5625,85.0152,-28.0672,-26.4368,36.1839,-100.6777,-28.9912,-176.1630,100.4835,75.9782,318.8620,-202.2759,90.4405,-574.9136,85.1990,453.6755,295.0504,-1075.8776,141.7733,502.2585,157.4746
-2218.7500,175.6054,202.3452,77.0505,91.8561,-70.2217,-72.2765,184.9815,-88.9315,-2.9760,-17.5162,20.9519,268.0278,-103.2756,-30.2097,-67.0497,-224.4075,316.2196,-71.0370,-428.7361,-69.0123
-2210.9375,-321.5736,21.9813,-199.2428,51.7397,58.4310,-164.3530,-202.6358,-144.1453,51.2722,37.2735,-29.9638,101.8372,429.5540,-85.4242,-85.6043,-23.7057,521.5884,239.9083,58.3938,242.6700
-2203.1250,215.8513,137.2554,117.0739,132.2785,-104.2551,-31.7873,3.3524,135.2755,109.1602,169.7265,-190.3141,233.2987,-797.8785,47.0004,414.4603,182.6516,-1192.2971,-40.9735,208.1857,-28.9711
-2195.3125,-195.3958,76.8390,-132.2903,72.1324,87.3359,-133.9164,83.6405,-260.9556,5.3628,-411.4667,156.8508,202.0832,753.8361,-92.2574,-388.0913,-361.6495,1209.9020,57.4489,-449.6852,51.6651
-2187.5000,-190.0840,-162.9587,-131.0577,8.5995,15.5440,14.5376,-99.4510,33.3653,79.1695,103.8624,-196.2381,-17.5079,-274.7243,91.0568,421.8865,300.5755,-825.0493,158.5708,539.9494,162.8990
-2179.6875,273.3529,88.3726,107.3182,-21.7802,-40.0917,32.1404,286.5819,-22.1452,-12.8529,-97.6225,30.4564,73.0257,-255.1925,-0.4833,35.0691,-121.9944,-80.9877,-110.6617,-194.1687,-112.6955
-2171.8750,-240.5591,-179.6777,-260.6734,-148.5552,69.8677,-77.6613,-81.7399,-95.0408,23.7229,12.5016,65.2288,-111.8301,625.8895,-110.4353,-296.1671,-84.9788,811.6693,221.1840,30.2706,217.2776
-2164.0625,143.6290,-216.5903,3.4596,-80.1800,-180.0039,149.6675,35.0684,390.1869,140.4479,387.7504,-245.0626,-69.5320,-836.7594,80.7365,482.6938,400.1730,-1371.3610,-0.2613,414.8505,4.4198
-2156.2500,-120.6407,-60.0011,-160.8855,-27.2990,-89.3908,58.5006,237.3731,3.9544,84.6919,-181.4440,65.3581,-14.7132,431.9380,-11.5827,-380.8572,-243.1258,1072.8783,3.6016,-412.9978,-13.9571
-2148.4375,-252.3219,-156.8006,-272.6340,16.1830,-126.1598,57.9093,-131.6922,186.2941,119.5380,293.9273,-252.9411,-89.2787,-231.6587,170.6785,205.1227,306.1140,-467.0661,207.4542,473.6643,205.2491
-2140.6250,260.0605,144.4833,54.6828,71.7638,-202.8304,54.4090,122.3024,183.7524,6.4978,181.4379,-131.3070,164.2484,-601.1667,132.0436,92.2269,83.5092,-447.9913,-94.5387,-140.4971,-91.4188
-2132.8125,-274.1510,-72.8592,-221.6359,-40.2960,35.8262,-110.7322,-154.3243,-128.4182,-12.1917,16.2975,63.9137,34.1557,665.5800,-71.2276,-368.2924,-118.7463,1093.3527,185.0856,-217.3291,183.2292
-2125.0000,100.9835,-83.8021,-8.5954,-16.9594,-81.1011,28.5121,-161.5576,268.7697,90.5193,413.5168,-254.4447,62.4701,-774.1462,31.8797,470.5290,462.3582,-1346.6949,51.2959,404.2203,66.2934
-2117.1875,33.4195,93.5467,34.7549,-84.3195,71.2564,-147.9274,137.5066,-56.7021,-51.4455,-241.9072,150.0058,141.0961,371.2855,-181.7034,-332.2723,-156.1798,837.3253,3.1001,-437.8300,-1.3457
-2109.3750,-318.3796,-152.3378,-162.1426,-153.9346,132.3607,-161.6238,-205.6465,41.5616,120.3449,39.3855,-72.5565,-55.4965,210.5201,-47.5502,58.5943,196.9806,-112.7383,277.3965,440.7937,279.7465
-2101.5625,169.8852,-16.1528,107.0183,-52.4691,-77.4275,-2.2319,136.2664,199.9292,241.2472,161.8065,-160.8397,101.9950,-696.1167,36.6965,364.5791,62.2740,-925.7096,-79.6729,189.5958,-76.0342
-2093.7500,-294.6412,-128.8060,-240.6382,-59.8529,88.9188,-129.6858,44.3546,-147.5254,187.3045,-112.6056,73.1382,46.6605,684.2771,-162.9051,-351.2281,-248.2645,1071.3285,135.9464,-169.4391,127.3045
-2085.9375,-48.2616,-234.4997,-129.3628,-59.2806,-92.7649,17.7873,-63.6092,257.9199,335.2973,402.8868,-306.9313,10.2846,-712.2368,20.4181,420.8249,451.0953,-1322.4337,84.6465,673.4130,91.6057
-2078.1250,-5.3829,19.3040,35.4124,-51.1964,-37.9574,-36.2326,284.8930,-18.0966,205.8018,-93.0663,10.5195,102.4169,4.6368,-70.7461,-258.5647,-118.9809,446.0931,-99.6370,-267.1422,-110.5855
-2070.3125,-437.8286,-202.2145,-136.1490,-131.4577,83.4892,-61.6053,-107.9208,31.5337,216.9616,65.5930,-61.9852,-106.7666,310.1704,-95.2690,-100.3544,112.5455,258.3769,204.4409,282.8774,194.8476
-2062.5000,168.2346,-88.2028,178.8044,-18.1820,-116.5071,106.5557,58.7780,346.7013,164.6907,233.8057,-178.9197,22.5862,-844.6828,71.7515,287.3894,244.6391,-1140.7228,-75.9942,220.4848,-78.1378
-2054.6875,-146.1991,-156.7417,-82.7658,-51.4506,62.9254,-80.8228,-20.0530,-62.6395,-61.1151,-100.4855,168.7707,17.3947,658.7657,-115.7769,-526.3438,-273.7773,1218.4368,76.7960,-375.4122,64.2991
-2046.8750,10.6863,-209.9400,-67.9938,-69.3763,-68.2731,7.1216,-224.5084,246.3307,63.4298,355.5231,-193.9486,-77.4436,-503.2977,45.0199,334.1837,366.1043,-981.7977,108.6867,554.9773,116.0834
-2039.0625,223.7635,107.0378,90.9742,-33.0941,-56.2760,-17.7227,265.2035,1.5239,76.1949,-110.2330,23.6892,80.9179,-197.2383,-51.9694,-58.0298,-99.7649,75.0065,-127.7893,-323.3432,-128.9193
-2031.2500,-318.9126,-188.7642,-196.8332,-116.6009,169.9139,-120.3579,-59.8493,-138.0898,118.1699,-66.8155,49.4723,-60.4837,581.9885,-118.7626,-199.0611,-56.4731,623.0465,211.7912,49.4764,208.2457
-2023.4375,131.6521,14.7298,63.6210,-18.8210,-9.5883,66.2804,53.3742,232.5809,85.4543,194.9133,-204.0214,52.4121,-774.3853,67.7241,429.1812,241.0984,-1319.4861,-51.0616,322.6129,-45.2638
-2015.6250,-175.5074,199.4957,-74.6604,25.2140,146.1382,-34.8169,135.8456,-198.4500,-163.0039,-311.0515,166.8911,97.5849,668.3309,-107.5295,-481.2491,-374.0322,1188.0043,-22.3500,-442.9537,-36.5422
-2007.8125,-196.4348,-102.4804,-139.7009,-29.4914,80.1285,10.3308,-186.4150,65.7323,27.7644,248.1693,-144.2161,-151.9726,-132.5897,-24.5507,261.4843,332.0377,-593.0265,115.7603,555.6470,118.4262
-2000.0000,239.5384,-53.5524,146.1845,-15.2506,-0.9283,76.4242,246.2502,58.8902,93.4989,-53.6108,9.2873,23.3947,-360.5986,-70.6191,70.2344,-6.8706,-227.2157,-175.9217,-63.6998,-183.6267
-1992.1875,-318.6697,-188.8284,-156.1194,-116.2206,174.8055,-5.6836,-20.2308,-170.1269,85.0680,-171.5587,116.0652,-95.4287,697.1226,-187.9010,-343.1964,-161.9821,1044.3584,118.0733,10.7443,102.0899
-1984.3750,109.8089,-42.3653,78.2881,-110.4585,-68.6871,192.9278,-5.9611,285.5776,136.4118,358.2149,-211.1031,-45.5101,-796.2758,9.5476,406.0617,293.6279,-1271.1335,-69.1449,509.9186,-67.4137
-1976.5625,-12.2332,152.5365,-9.8460,-55.2540,-9.7485,67.9978,199.7486,-59.2256,48.2155,-171.5311,112.5781,12.8630,329.6302,-78.5300,-453.1424,-308.2388,999.5820,-103.4439,-420.3802,-118.4604
-1968.7500,-222.6353,-92.9102,-166.3237,-18.4131,-56.1614,93.7049,-177.8647,113.6028,147.6653,222.3423,-158.5367,-145.1027,-122.7431,21.0257,13.2412,195.4985,-231.8677,135.9917,493.9037,128.1404
-1960.9375,222.7628,70.4553,129.0160,39.2618,-127.7220,133.2532,228.3370,227.2938,112.9966,152.1052,-128.7971,40.7658,-708.2653,23.4269,125.5067,51.1298,-630.5048,-190.4208,59.1218,-200.3758
-1953.1250,-316.0853,-11.4552,-151.9208,-42.3360,105.3941,-73.4903,56.2641,-127.2966,-57.9624,-202.4335,108.7983,52.3712,701.8058,-110.4590,-449.4903,-229.5479,1222.4484,86.4850,-232.9813,69.7767
-1945.3125,30.3833,53.9967,64.4667,23.4279,-46.1266,69.1067,-58.4673,236.4201,11.4047,198.3382,-208.1295,48.3493,-699.6405,68.9842,354.7733,317.0736,-1211.0228,28.2528,499.2065,29.2919
-1937.5000,190.8598,214.4466,90.8611,8.1966,17.3325,-14.2850,188.7829,-141.8190,-35.2314,-251.8308,162.7073,111.3362,208.7901,-125.5525,-353.8949,-317.2373,709.2805,-85.1906,-429.5107,-91.1938
-1929.6875,-97.8437,-109.2823,-188.9278,-104.2331,105.5927,-109.8784,-201.1283,-89.2775,124.9279,92.7450,-2.1587,-131.8344,260.0598,-147.3016,28.1826,101.2010,137.5213,209.6504,299.4925,217.0906
-1921.8750,415.2674,16.8304,141.0978,-82.8215,-42.2735,-37.6327,91.7893,167.0929,161.9425,202.1685,-79.7042,49.8514,-696.7670,-38.2144,431.1086,137.4918,-966.3504,-92.8728,145.3976,-77.7551
-1914.0625,-144.2588,54.2655,-84.5499,-80.1064,173.1558,-226.0788,12.0284,-205.2231,45.2738,-243.0951,219.2992,43.8746,842.5757,-189.8215,-309.6082,-381.9073,1287.9113,102.0088,-344.3738,100.6683
-1906.2500,-28.6591,-6.1313,-38.0778,-34.2572,-1.2480,-32.4080,-197.5786,171.5712,128.7693,243.7427,-183.7057,-19.9251,-434.7986,75.6898,508.7549,288.7735,-1059.4409,95.1332,508.9492,110.2438
-1898.4375,197.9824,186.5188,62.4272,16.6268,-10.6187,-5.6917,159.8383,-21.5374,-27.6618,-169.3154,87.5206,154.3420,33.7771,-6.7363,-162.7521,-161.4244,364.0536,-119.2842,-353.5786,-119.1270
-1890.6250,-287.4373,-87.8984,-238.1534,-46.6017,20.8938,-85.0755,-213.8038,-26.7410,3.7922,81.5112,-6.6938,-35.4462,468.2395,-49.2761,-131.3918,53.2558,581.5087,169.6660,214.7352,168.3711
-1882.8125,186.4570,35.0077,87.5728,41.4885,-206.2320,130.8723,0.8914,335.3918,71.6018,298.6812,-209.3063,69.1186,-822.8630,92.5216,451.2749,269.2962,-1124.5884,-134.6082,337.4337,-130.7481
-1875.0000,-189.6610,114.8657,-91.7346,16.5183,-53.4307,-11.2240,43.5561,-136.4915,3.4029,-320.1659,131.6977,147.6535,652.8363,-49.7070,-426.0378,-349.6823,1348.0548,-2.7887,-390.8619,-14.9342
-1867.1875,-167.0165,-3.4750,-110.2582,3.3408,-145.8223,42.4649,-195.9451,138.3837,204.0209,247.7365,-241.9069,17.0111,-395.5444,114.8482,363.3744,182.0753,-740.2643,107.3544,545.5673,112.6735
-1859.3750,179.1054,272.6634,116.7050,68.6629,-138.7152,50.6575,252.0251,-38.2248,138.1436,-148.8306,-50.1935,208.8755,-351.4853,48.9176,112.3475,-252.6113,-7.2154,-172.6559,-304.4103,-174.2021
-1851.5625,-239.8272,99.7374,-187.3948,36.9079,70.2819,-33.2346,-90.0672,-305.9409,-18.8568,-306.5455,72.9996,49.6773,629.4211,1.8971,-191.7850,-188.4284,910.7407,145.7974,-159.5281,145.7879
-1843.7500,238.8904,122.5081,63.1831,58.8551,-119.0004,107.5566,-59.4813,130.0035,-25.1656,166.4141,-190.9924,155.1848,-772.8618,179.5590,426.7255,246.4234,-1248.4304,-58.7331,284.0602,-43.5024
-1835.9375,-24.4037,140.2251,-27.2673,6.7574,11.6500,-19.6907,107.0497,-217.0628,-79.5088,-254.6113,175.9858,174.6494,570.6519,-58.8182,-435.7332,-394.7269,1126.1249,-56.5826,-507.3364,-60.8610
-1828.1250,-165.2000,-71.5359,-109.2197,-27.8391,2.8062,-27.4537,-194.8932,-5.6683,95.6398,140.8103,-104.4914,-54.3634,-26.2384,6.2806,253.2329,220.5650,-422.5992,104.4889,405.6826,114.2659
-1820.3125,289.0096,137.7333,233.8618,39.6109,-21.9727,20.8305,184.1870,6.7847,34.8428,-177.7071,11.0360,140.6782,-419.0826,55.4341,229.2760,-24.0485,-424.3486,-209.9213,-194.1730,-204.5312
-1812.5000,-245.4852,59.2811,-80.7855,-72.6780,141.4880,-109.6282,-57.4496,-270.4979,-59.7018,-381.9812,176.4253,83.0074,810.2358,-75.1555,-269.4016,-264.4202,1151.0798,70.5817,-236.8044,68.8912
-1804.6875,157.3139,40.1697,124.8732,-21.6254,-130.6911,133.2436,-71.7369,193.5338,-36.8817,193.0728,-170.4131,105.6982,-710.9639,204.5896,488.2070,272.5121,-1295.9380,-68.7276,411.8947,-55.3190
-1796.8750,93.7263,117.6443,100.1267,21.0140,-45.2877,108.7232,197.5708,-125.7884,-135.4238,-273.2247,178.8088,153.9923,329.2953,68.9505,-382.4883,-376.8892,857.4055,-144.1427,-459.7034,-153.9352
-1789.0625,-275.9507,-110.9643,-151.7080,2.5368,34.0150,114.0843,-200.1704,26.7662,-19.0703,100.3140,-69.7899,-96.7815,151.5215,37.1973,26.6577,106.5603,-39.1855,114.9902,365.5265,109.3322
-1781.2500,193.0720,112.1517,133.1769,49.7811,-121.9245,216.1778,157.8080,239.0636,-27.9514,128.6246,-136.1260,77.1924,-702.4698,102.1927,275.5737,60.7930,-802.0341,-224.7775,96.5716,-230.6157
-1773.4375,-311.7005,-6.5744,-146.7653,37.1726,76.2649,46.4294,60.9596,-114.4625,-124.6687,-260.8791,117.8488,18.3436,708.5757,-30.6487,-371.3184,-291.8162,1261.1255,-12.5373,-303.2318,-32.4384
-1765.6250,-11.4560,-57.2437,21.3192,91.6022,-49.4891,177.7160,-138.8468,202.0215,-29.3417,201.6133,-211.0963,2.5725,-631.1915,137.5502,494.7569,317.5627,-1147.4316,-49.8598,489.9550,-48.1967
-1757.8125,141.3371,200.6337,113.9515,103.5748,7.2835,86.5665,175.8668,-145.9091,-120.4496,-257.2913,112.4449,169.3728,86.4645,10.3104,-221.5353,-324.4443,553.3475,-204.4798,-448.2070,-212.3968
-1750.0000,-279.4004,-9.0132,-155.9604,-34.0075,67.4908,-35.1309,-240.9216,-84.3971,-132.1080,61.2174,4.5718,8.6644,404.5807,-2.4833,-160.4084,-6.0425,378.6753,105.5528,186.0133,105.8265
-1742.1875,278.0019,126.5155,145.2946,-40.3996,-108.0826,45.3583,96.4716,180.2876,-51.5636,216.9082,-130.2900,127.1579,-727.0308,78.9229,324.9149,185.5723,-1032.7333,-190.8328,181.4725,-180.7187
-1734.3750,-147.8040,51.7972,-14.6715,-115.0359,99.0894,-114.3893,157.6346,-309.2552,9.7248,-457.6269,226.7652,151.4142,804.9770,-117.9018,-459.9458,-341.0352,1319.4225,-4.8769,-456.2749,-9.5338
-1726.5625,-59.9004,-141.1612,36.0932,-26.9317,3.0325,9.5977,-121.4304,34.9065,134.7553,-2.4638,-122.2313,55.4396,-321.1284,117.0058,399.8517,187.0398,-914.4250,67.8258,405.6624,78.4069
-1718.7500,233.3366,153.2125,172.1902,21.5149,-7.6829,35.9439,234.8274,-86.5443,-133.8511,-233.9111,108.1112,228.8196,-38.9599,32.2865,-15.9466,-228.4810,82.9080,-194.7389,-460.9496,-190.2872
-1710.9375,-216.0839,-14.0841,-164.3943,-110.7400,132.8941,-117.4077,-139.5668,-201.7072,-213.1592,-92.1001,114.3844,1.5556,690.4763,-47.1282,-205.4521,-12.7286,689.5756,125.8222,-101.3297,134.2916
-1703.1250,371.6930,44.8786,91.2344,-50.7553,-88.2681,65.4533,-29.7300,165.3358,-104.2120,237.9218,-113.4271,37.5810,-707.7299,135.6875,345.2648,280.2692,-1255.3732,-107.8275,169.5415,-86.8411
-1695.3125,-10.8937,120.4579,-53.5175,23.8219,25.1395,-5.0939,45.7052,-235.9863,-138.6427,-346.4007,215.5062,114.2442,692.5079,-8.8912,-498.3310,-452.0815,1212.0529,-46.0232,-669.9197,-47.3805
-1687.5000,-183.4037,-87.8577,-58.1816,61.4876,-16.3562,99.4384,-252.7303,15.7635,4.0209,51.3425,-123.9725,-0.9631,-122.0491,132.6234,268.0998,167.5979,-615.1951,122.8090,246.6563,131.1770
-1679.6875,286.5955,66.3494,150.6880,75.6960,-101.3021,89.5269,177.3622,5.0894,-43.7560,-142.3329,30.0448,172.3732,-279.0921,48.7006,111.1239,-63.1303,-284.0027,-143.4361,-372.1234,-136.6881
-1671.8750,-154.7622,-128.8316,-250.8077,-49.4932,48.3407,-127.7776,-76.9006,-211.9816,-76.9348,-138.4233,129.0730,-44.6611,752.4061,-131.6245,-254.2551,-133.2705,996.7531,157.5845,-180.3225,160.0201
-1664.0625,262.0891,7.2286,-64.0777,-18.4508,-131.7472,-14.8609,0.0839,196.1531,37.1334,342.7128,-217.3357,-41.4448,-751.7098,91.2782,558.5495,310.8033,-1364.0597,-39.7589,377.7106,-19.9944
-1656.2500,73.3112,205.6733,-74.9710,-31.0186,40.5613,-136.5488,246.4311,-218.2974,-47.3853,-255.7036,159.8825,95.1728,487.5359,-103.4130,-335.2022,-397.6841,981.4114,-67.4567,-548.7578,-67.5808
-1648.4375,-273.8735,-71.3016,-155.2942,-27.0301,70.4018,-142.6792,-127.6270,-42.1829,91.6477,103.4192,-99.2346,-58.6232,111.2484,-36.5437,134.6008,145.3633,-211.6175,178.0180,334.2936,182.3498
-1640.6250,234.4842,120.3129,206.9455,24.5529,-81.1367,-1.2247,271.9096,63.4852,14.2752,-47.9102,-71.5105,120.1904,-591.2969,68.9135,166.9399,67.9693,-581.8424,-151.5313,-72.0741,-153.0940
-1632.8125,-149.7770,17.2698,-58.4468,-42.5170,93.6575,-119.4038,4.7914,-275.4613,-177.7409,-312.8446,189.2435,38.3640,724.3555,-13.2596,-540.2757,-234.0190,1285.0299,104.6843,-315.0012,95.8073
-1625.0000,249.9204,-74.8013,67.1137,-30.6470,-73.5919,80.3564,-88.3465,108.5121,-14.8234,255.1157,-156.9126,-55.4868,-730.9524,149.5103,285.3877,296.8785,-1163.9476,29.2756,436.9270,38.6429
-1617.1875,199.5267,52.0610,58.5923,-44.8460,28.1148,-1.9400,271.4222,-194.5639,14.0465,-230.9559,149.8658,10.6145,179.7047,-78.7616,-384.9771,-299.2375,756.9808,-107.3315,-421.1168,-116.5374
-1609.3750,-261.0652,-233.2986,-141.1496,-118.2955,84.5498,-17.4786,-39.0259,-99.8711,70.6681,-26.2723,-4.7984,-225.4949,309.9988,-58.2606,-70.5557,161.3964,189.5314,166.7806,277.5891,161.0036
-1601.5625,277.1387,-11.8086,213.9292,33.0949,-73.1491,117.8127,206.3772,109.6239,-50.8677,-1.7921,-67.0465,-53.7472,-656.7034,114.0775,285.6310,186.8217,-924.8246,-144.5318,43.1018,-144.5844
-1593.7500,-86.4501,-24.1391,-65.7912,19.6879,125.3316,-87.6787,36.9646,-279.6335,-219.1927,-391.0430,248.8636,-74.8206,828.6557,-55.3636,-434.8936,-238.4852,1314.7747,61.3208,-461.0755,54.0277
-1585.9375,55.5911,-160.8450,-27.8932,-12.1198,-20.5899,22.4221,-144.7999,162.6926,-33.9285,272.2607,-152.8471,-183.2858,-457.3420,92.7833,485.1211,460.7574,-1109.8873,79.4239,456.2647,92.2077
-1578.1250,206.1512,23.9813,64.5413,-37.3911,-1.9457,-67.9474,278.9512,-38.4488,-51.1145,-112.9007,108.3933,-53.2172,76.2746,-34.5323,-84.3290,-34.4358,272.0472,-111.1175,-412.7994,-109.0298
-1570.3125,-305.1693,-206.1224,-189.9299,-126.6138,147.7253,-175.2603,-122.2283,-108.5194,25.7527,1.0034,80.1448,-197.0767,666.8006,-68.7837,-117.6672,42.4383,497.8498,182.6664,59.2140,187.7568
-1562.5000,302.9764,-19.7205,202.0875,23.6549,-47.0895,-4.0949,-24.8936,172.8562,13.1100,246.3561,-54.3402,-25.4235,-594.0202,66.4432,384.4123,213.7359,-1214.5919,-137.0305,105.6626,-117.9485
-1554.6875,-28.9897,70.5681,70.9932,78.8184,152.9860,-98.0247,-44.6766,-287.8415,-226.6086,-398.3544,325.2930,29.1372,892.9623,-64.4135,-481.5135,-320.0121,1268.6609,-30.1966,-717.8799,-27.7391
-1546.8750,16.7190,-58.4589,2.5622,89.6333,46.7031,17.6976,-369.7567,47.0999,-184.6718,46.5496,-27.0511,-75.6164,-95.4095,87.3858,258.1900,308.8409,-761.3740,107.1805,278.1609,124.0900
-1539.0625,329.3137,184.4461,158.0450,86.3885,-17.6143,63.3534,80.0852,-17.0342,-139.7831,-274.5960,109.2547,80.5847,-123.7277,23.1340,-27.1916,-123.3656,-26.3505,-165.7317,-393.8294,-161.0984
-1531.2500,-235.6483,-29.2412,-116.0444,-21.4630,149.4429,-100.5749,-193.6645,-253.7227,-45.4948,-254.2978,166.0519,-119.7815,779.2003,-139.6979,-301.0910,-103.1223,921.8369,153.7063,-79.3724,153.0968
-1523.4375,252.1705,-33.1091,144.6551,9.4685,-67.6868,50.2740,-80.5907,117.3409,31.5812,263.7359,-129.9796,-79.3196,-724.9344,10.2551,401.7252,304.8582,-1227.9325,-37.6205,408.7957,-26.9052
-1515.6250,24.0199,55.0546,17.3882,-7.5635,26.2292,-114.8284,86.5005,-192.5291,-96.2837,-193.1497,218.5350,15.1947,581.9294,-189.7242,-461.3477,-336.0560,1183.1927,-35.5157,-416.8907,-43.8292
-1507.8125,-146.7228,-185.3982,-96.5002,-38.2484,-13.5224,-43.5763,-173.0233,96.9535,11.1889,243.2854,-87.1728,-134.9023,-46.9049,-46.3377,196.9299,211.3591,-431.3493,134.4526,467.7197,136.5687
-1500.0000,215.1811,35.8337,148.2752,42.7454,-136.5634,54.3544,219.1307,122.0975,36.3617,11.3886,-63.2186,110.7012,-499.9049,14.7384,184.8629,-21.5452,-455.0172,-166.6660,-119.9750,-169.2987
-1492.1875,-305.9829,-98.0419,-188.0333,-20.3672,40.2690,-61.8040,-43.8089,-176.8224,-6.5448,-214.5572,92.8161,-4.7785,706.8402,-138.2672,-299.2081,-173.4982,1098.9589,128.4860,-182.6828,118.7312
-1484.3750,133.7928,-44.9468,56.6073,-2.5374,-117.9455,72.9738,-56.7595,215.1610,55.4942,214.3877,-200.1046,-16.2819,-739.3564,70.6666,424.5828,365.4283,-1274.8972,-10.6003,468.4703,-3.2931
-1476.5625,34.8326,68.4352,104.5298,3.5804,40.1369,-25.9565,175.5493,-141.5539,-80.1657,-215.3355,183.7299,69.5111,374.7358,-102.0852,-446.2997,-321.3051,878.4697,-90.8524,-473.9880,-101.9815
-1468.7500,-292.3648,-224.4565,-103.8100,-42.5960,125.8986,-50.1741,-178.4075,-17.5541,6.8613,164.6394,-27.4580,-136.9750,240.4342,-15.1252,-29.4660,131.6482,-12.5516,170.2207,288.2437,168.0017
-1460.9375,226.4928,13.7484,158.9274,-16.6744,-15.2126,65.6913,194.7246,98.4960,-25.0309,133.6679,-83.1624,52.6297,-599.6121,26.9210,270.3889,101.6435,-794.2435,-157.9877,69.5432,-156.8917
-1453.1250,-312.6791,-33.1019,-155.3695,-96.7955,184.6137,-101.4759,100.7873,-252.4689,-81.9659,-180.3156,149.7340,-41.8143,814.1556,-177.0624,-375.7153,-286.3496,1270.7673,56.7356,-222.1155,43.1642
-1445.3125,-72.6920,-178.7706,-13.5004,-33.7633,-3.4026,40.4974,-50.9648,220.6819,61.2373,329.7928,-218.8566,-82.0838,-587.8562,39.0939,465.2627,296.7451,-1162.8993,2.9420,616.2889,2.3506
-1437.5000,76.7954,41.0833,77.9018,10.8078,15.1478,22.0092,261.7960,-18.6227,-31.0081,-129.5351,98.9163,84.1800,91.7302,-53.2008,-289.2050,-345.5931,534.9839,-183.5321,-289.6837,-199.8805
-1429.6875,-352.3094,-176.6996,-127.3057,-67.2713,103.0364,-36.1185,-127.0579,32.4545,-15.9034,31.5031,11.1811,-120.1899,400.5438,-37.1243,-163.2775,-0.5734,351.0589,121.1273,266.7026,109.2078
-1421.8750,267.4495,-49.5743,238.3692,25.5409,-119.1552,108.6263,54.9925,252.3829,-17.9098,140.3960,-93.4443,62.3488,-740.5783,107.8311,312.4565,218.2852,-1068.7111,-151.6977,218.9227,-149.7876
-1414.0625,-139.5809,0.7391,-85.7474,-31.4608,72.8401,-104.4309,26.2144,-180.4580,-119.6983,-181.4651,200.0175,34.0897,775.3867,-105.0014,-414.5224,-324.5876,1303.4932,11.8762,-399.5512,5.4315
-1406.2500,-167.3241,-60.6752,-79.5875,-57.2178,-68.9246,9.7589,-189.2699,154.9265,68.7526,373.8758,-228.5713,-69.8918,-396.3756,120.4191,435.7178,267.7370,-939.9536,73.7894,523.1458,83.8751
-1398.4375,130.0229,167.0410,95.6950,-5.8383,-40.5299,40.0957,245.3618,-36.5556,25.3356,-147.6342,14.8610,143.2651,-146.9003,39.9964,-49.8992,-217.7905,96.8161,-177.5715,-303.9720,-180.4986
-1390.6250,-308.8846,-25.5239,-266.2914,-93.7487,74.5395,-64.8397,-80.2901,-177.3004,66.6199,-31.4185,6.3149,75.1367,557.1269,-27.7005,-227.7389,-101.5893,643.0618,116.7721,65.6421,118.8060
-1382.8125,168.6342,65.3773,22.1566,-73.2200,-76.9316,76.6522,61.5200,221.3569,99.3515,257.1958,-249.1029,329.4686,-845.2454,114.0280,428.7784,297.9898,-1305.9906,-119.9761,368.6323,-106.4300
-1375.0000,-173.2561,108.8531,-45.8078,-100.0990,149.1861,-102.2528,214.8942,-250.3576,-5.3020,-472.5345,148.5709,409.3893,630.9096,-64.6271,-411.0399,-284.7687,1201.3730,-19.5547,-395.6750,-27.0431
-1367.1875,-272.3605,-128.9008,-44.0005,-57.2273,113.0459,-26.4017,-114.9295,-28.3220,105.7929,-29.5339,-147.0457,190.0786,-140.2110,120.4754,287.8855,230.1945,-550.4948,118.2332,526.7040,121.0657
-1359.3750,167.3195,135.1835,245.6239,100.4858,-37.2260,79.2855,139.0779,-69.4679,-7.2608,-33.7031,-6.6849,297.6038,-363.3578,117.4192,63.6306,-140.0132,-181.3715,-212.9186,-194.0585,-212.9426
-1351.5625,-335.9613,-16.7246,-109.7238,90.2058,121.4841,-55.0080,-179.9080,-277.5735,-142.3033,-94.8354,107.7360,126.1324,714.3387,-53.6203,-365.5402,-165.1701,1145.5044,100.9011,-133.7572,93.0377
-1343.7500,149.0914,46.7394,107.2831,153.2754,-65.4391,125.0329,-72.5263,86.6260,-35.0001,159.3224,-186.8267,124.0176,-759.4840,89.6680,404.5450,346.9537,-1114.0306,-22.9582,421.8025,-19.6357
-1335.9375,-24.0256,85.0349,75.1280,85.1876,123.4877,-54.0851,226.6638,-348.3121,-29.8372,-423.6183,182.3561,166.7304,458.5130,-52.1824,-436.4753,-346.0305,1212.1660,-35.1608,-453.6980,-51.4333
-1328.1250,-335.9242,-261.4837,-39.8369,20.2562,154.5468,-22.0563,-71.9625,-133.0906,74.4675,12.5776,-68.8842,-21.3855,84.5860,53.1300,71.6730,88.1166,-50.5427,176.2216,464.9099,163.8845
-1320.3125,204.0318,102.8903,246.0752,102.2143,36.5257,79.8448,251.2927,4.9855,30.6589,-180.3676,-21.6845,154.4022,-510.2924,118.3302,174.6535,-102.8677,-530.1467,-166.2949,21.3891,-174.8678
-1312.5000,-314.0347,113.2128,-123.0432,-28.8783,181.4315,-68.2930,-8.5131,-326.9528,-44.1823,-401.3114,153.4096,6.1426,811.6291,-65.5010,-378.3212,-324.8409,1309.9387,94.2983,-144.0940,81.3282
-1304.6875,0.8100,-29.5344,-49.2503,4.9308,-74.7629,79.4640,-116.3844,151.9779,140.8658,261.5873,-249.2446,-65.2043,-657.4630,118.5582,542.5273,301.0143,-1189.8809,2.7588,663.2199,9.4063
-1296.8750,39.6755,10.7503,-37.4176,43.7918,-25.9059,-19.7284,263.7491,-93.0434,42.9552,-131.4496,86.1445,21.4702,236.5126,-16.3289,-181.5515,-311.0528,714.3129,-151.9490,-316.3485,-162.4353
-1289.0625,-378.0889,-231.6431,-229.2387,11.9614,75.2317,-27.6066,-149.7910,44.2625,70.3380,153.8257,-58.8848,-133.5553,337.6806,-23.9066,29.7129,46.1745,189.6775,130.6418,320.3712,122.9893
-1281.2500,68.4553,40.3130,140.2721,72.4785,-69.2600,84.8497,147.0118,304.8812,110.0619,119.4030,-148.9242,53.7547,-651.6442,88.8416,290.2485,86.6977,-910.3672,-160.9532,170.3773,-168.2178
-1273.4375,-412.1303,17.1091,-113.3553,-57.1551,118.0826,-95.8298,77.6404,-95.6114,150.6445,-244.1069,134.9363,-16.1018,822.7533,-55.5394,-514.2757,-387.8608,1353.1870,38.2689,-274.6694,19.4296
-1265.6250,-42.4375,-139.8241,-58.7146,-38.5416,-83.3220,69.7381,-160.4368,327.1214,280.4615,399.6017,-211.6787,-105.7034,-519.5490,147.3256,312.3992,255.7698,-1055.8795,32.5080,553.4461,38.2996
-1257.8125,296.3553,164.3680,85.0484,54.2183,-123.5584,66.4461,166.6024,66.9881,56.4288,-118.5437,82.9361,110.8186,-82.6288,71.3444,-205.7795,-263.4402,339.2380,-184.5104,-444.2396,-185.6459
-1250.0000,-201.8448,-53.4673,-192.1986,11.9347,2.1401,-27.8773,-184.3939,-64.1715,34.3513,-28.7300,27.4885,-18.7002,448.1106,13.3257,-152.9411,-62.6743,578.1133,124.6482,76.0416,124.3362
-1242.1875,213.5732,10.3662,142.1965,76.2973,-140.4928,123.4282,114.2612,234.2646,149.9012,232.6763,-195.5854,96.4304,-870.3377,164.9337,403.4548,161.6775,-1151.1050,-129.7641,246.8940,-128.0205
-1234.3750,-107.2509,77.9407,-14.6483,37.4119,33.6178,-71.5081,140.6273,-179.5202,30.1999,-255.1182,181.3056,50.2927,627.8716,-101.6873,-488.3309,-362.1703,1343.2172,23.3888,-494.3993,9.3858
-1226.5625,-4.6742,-66.1047,-24.1054,-1.1191,-86.9236,-7.0934,-236.6216,214.0320,19.8327,396.4134,-146.3759,-69.4902,-375.5664,35.0396,199.2016,325.2862,-737.0502,139.2919,450.5815,146.1091
-1218.7500,398.9516,197.9337,227.5163,15.4380,-129.3445,-13.5937,125.2015,134.6593,-169.4359,60.0319,69.3346,109.7991,-343.7919,29.8520,-174.1940,-48.1613,-16.1120,-153.5230,-304.3224,-153.0358
-1210.9375,-64.0134,17.3342,-86.4739,-25.6492,70.5673,-142.7309,-150.6134,-141.3334,-188.3395,-179.9651,176.3407,-56.5618,628.1790,-25.9684,-451.1626,-67.2192,963.9401,161.9024,-28.8337,158.1475
-1203.1250,346.4613,40.2048,203.9932,67.7202,-117.0608,72.5683,-44.9592,185.0770,28.1914,183.4298,-138.2267,-23.4734,-882.2662,153.6436,317.2259,370.0965,-1228.3110,-36.2417,382.0041,-29.2250
-1195.3125,106.0750,153.1999,62.6116,39.2452,0.4534,-67.9790,108.7963,-212.3419,-113.1265,-323.9889,203.7442,20.7341,447.3870,-60.5798,-448.1679,-285.3808,1206.4390,-13.4379,-524.9142,-22.4252
-1187.5000,32.0010,-97.5332,-24.4785,-0.9749,-50.7960,-45.2636,-236.1604,-6.5043,-53.2032,100.8107,-42.5742,-213.8034,-117.7630,36.4471,198.6949,177.3689,-382.5796,177.2643,384.3654,183.5939
-1179.6875,587.1291,140.9766,239.6514,27.0463,-191.7761,34.6895,138.1106,110.5532,-157.0442,108.8347,64.8740,-96.1118,-552.5212,5.7106,58.7472,-109.6637,-495.1819,-144.5078,-115.1193,-140.1076
-1171.8750,-58.2493,23.9387,-115.7477,-19.4778,-31.3290,-99.8844,-143.1749,-97.8956,-144.4223,10.3723,194.3667,-229.9799,710.0140,-91.5505,-517.6599,-244.2012,1076.4006,133.3310,-196.0856,129.6275
-1164.0625,212.7187,49.2688,97.2102,109.3502,-186.5225,112.8810,-224.0772,261.9694,31.5559,260.2120,-167.8415,-126.5069,-731.9880,157.5144,357.2083,335.5418,-1326.4558,35.3227,320.1969,48.6964
-1156.2500,150.2587,268.1734,144.7548,152.7780,-66.1038,13.2464,7.5789,-204.5603,-140.8570,-353.3232,208.6690,31.5282,382.6078,-14.8188,-366.2904,-241.0734,863.2050,-15.7647,-726.8472,-13.6058
-1148.4375,-201.7863,57.4614,-51.3105,46.5702,-41.3471,-36.0199,-373.3879,-70.7240,-116.9275,111.4955,-23.9408,-128.0834,221.4620,9.2102,61.5771,222.6555,-51.8838,254.5964,118.4241,267.4078
-1140.6250,357.6693,195.3037,216.1584,77.9095,-214.0118,47.2498,6.1743,160.6226,-106.4612,195.8282,-72.8665,30.8327,-648.9758,93.7685,292.9244,197.8883,-864.2040,-67.4874,-131.8036,-52.0106
-1132.8125,-160.9926,28.9848,-78.5030,-18.9010,41.1600,-63.6135,-68.4304,-171.1352,-217.1344,-172.9360,203.7432,-43.4238,820.2997,-90.8089,-369.7737,-244.9625,1184.0615,168.2917,-509.0980,167.4196
-1125.0000,128.9228,-32.7706,5.4089,-45.1621,-132.1165,56.0670,-204.4481,169.6327,-59.2745,351.7979,-158.8677,-106.1345,-528.8062,66.1541,486.0192,353.6786,-1233.9607,121.4040,414.0613,141.3786
-1117.1875,293.8076,132.4478,40.3038,-56.4301,-97.3773,-18.2599,161.4922,-89.6055,11.5864,-91.4592,140.1232,-33.8787,131.1309,-44.8825,-250.1742,-235.6580,444.0109,-85.2933,-334.7267,-80.6313
-1109.3750,-212.7423,-197.8165,-169.2537,-70.1833,-13.1587,-45.0690,-196.0416,-42.3092,131.9542,29.8097,35.5017,-244.1275,435.4392,2.5908,-129.8174,67.5176,288.3142,185.8191,318.9804,186.8259
-1101.5625,247.9680,-18.7650,141.4784,73.3661,-143.6179,119.4058,115.7238,232.2448,113.6180,83.3395,-138.7219,-42.1004,-760.7982,93.3319,438.7513,194.9290,-1149.8341,-127.9596,252.9147,-126.4068
-1093.7500,-139.8096,85.7753,-87.2804,36.4248,69.4098,-73.6089,106.9646,-216.6627,-79.2039,-365.5739,192.4198,-50.6026,739.3419,-171.4135,-304.0868,-327.0967,1276.2825,25.1475,-381.5622,12.8656
-1085.9375,2.4569,-86.6600,-50.0072,-31.5049,-5.5675,-0.6169,-112.7571,113.4142,67.9540,332.4684,-163.7657,-196.0996,-437.4995,-61.1572,504.0404,222.8283,-973.5065,80.6509,606.8586,86.1083
-1078.1250,258.1901,63.3844,81.7452,-57.9374,16.9707,21.8676,275.9782,61.9729,53.6045,96.0032,65.7337,-101.1336,-158.7533,-150.4178,-63.3538,-233.7329,56.2752,-179.1040,-193.1967,-186.1161
-1070.3125,-277.4063,-189.9694,-160.8585,-100.7690,141.0918,-1.0296,-113.6685,2.1740,29.8618,36.1786,107.3904,-270.5947,627.4432,-136.0697,-306.0704,-34.6588,646.4351,132.5222,115.3815,122.2323
-1062.5000,248.0304,-52.2735,215.5855,1.4482,-34.7185,191.1112,41.7490,305.3867,39.1685,119.3559,-81.8909,-115.0369,-724.1655,93.3063,291.1746,267.3927,-1291.1082,-125.5253,358.9186,-126.3726
-1054.6875,-27.7339,24.2039,72.8312,7.4762,117.2701,11.0633,192.9227,-205.5696,6.2898,-390.6180,286.3754,-73.7144,714.9528,-123.5051,-513.7097,-426.7043,1177.9611,-70.6561,-478.6650,-85.1661
-1046.8750,-52.1893,-211.0238,-35.6299,-52.2272,81.5062,-23.7247,-98.6210,52.7116,155.6434,234.6121,-33.2604,-218.1326,-55.7025,-47.0633,259.6360,162.4174,-677.6982,92.8520,480.9172,100.2540
-1039.0625,370.6618,71.0845,199.2458,-87.5832,22.1151,-47.1777,319.1616,30.3055,22.3393,-45.8281,102.1106,15.7671,-226.8832,-34.2974,163.2872,-118.1244,-359.8642,-188.1595,-186.1522,-179.9488
-1031.2500,-205.5781,-46.9615,-120.9904,-171.0856,178.5548,-219.7639,34.7946,-143.1983,-77.0989,-145.3532,201.6568,-83.5036,850.6242,-96.6684,-194.1160,-291.7713,892.5577,86.0536,-94.3166,87.6754
-1023.4375,132.0871,-26.0846,56.6816,-114.6792,-84.0926,-6.4552,66.3484,365.1624,137.3490,436.9597,-183.2665,-52.8826,-699.8457,117.8401,462.3028,216.4080,-1477.8947,-114.5916,490.3046,-101.8148
-1015.6250,-8.8053,9.2334,-15.2036,-44.8157,27.7151,-114.6976,325.3112,35.9841,65.2487,-3.2539,188.4890,22.1563,515.1041,-101.1953,-528.7740,-369.9163,808.9800,-127.3978,-423.5557,-136.8309
-1007.8125,-107.0751,-194.8688,-169.4943,-73.3856,-16.9400,-122.3820,-123.1385,137.3602,56.7010,319.0678,-37.4097,-59.2554,138.5254,1.3186,-59.2809,209.2944,-381.6553,174.3667,320.0779,185.6656
-1000.0000,384.9168,157.3180,98.4987,-38.6572,-190.2759,-38.7802,181.6967,149.0038,-79.5464,35.6572,-58.5234,245.5984,-547.6108,122.1098,61.4528,72.7690,-768.7963,-75.7373,-137.0336,-60.5198
-992.1875,-266.1458,-1.6044,-263.5744,-127.0174,-74.7280,-217.2577,-33.5800,-176.4085,-73.8829,-178.8016,80.1599,177.3205,781.0038,17.8201,-373.8149,-252.7930,1077.6954,196.2490,-260.1818,202.1845
-984.3750,29.7607,-126.5534,-95.6761,-112.4208,-275.2194,-49.7841,-49.8726,321.0956,-17.2859,502.6323,-297.6266,49.9792,-707.3444,220.4678,564.7988,428.5302,-1440.6777,91.1366,493.5042,111.8163
-976.5625,143.9906,56.8132,-8.4410,-105.4761,-151.3506,-73.9559,184.1455,3.9587,-114.3360,1.4479,70.9532,137.9433,152.6693,87.4603,-266.2086,-109.7643,502.2508,-28.0159,-483.3999,-21.1784
-968.7500,-201.8070,-77.9145,-200.2594,-99.6195,-86.5930,-82.2057,-302.9081,68.7556,-11.4817,176.1766,-80.6333,-17.2050,180.4653,116.3606,-128.2708,175.8472,-20.0619,290.8146,259.5757,300.6856
-960.9375,240.8113,189.8024,93.3589,-8.3118,-307.3600,63.9835,-45.5167,325.9645,-12.1828,286.3045,-230.6541,166.0625,-885.1300,226.6818,203.0446,212.8554,-1160.6917,-41.9003,140.9329,-29.9894
-953.1250,-190.0907,73.9568,-107.5467,-53.5488,-104.6820,-63.3601,-62.6982,-96.3359,-140.4307,-136.0631,91.4005,110.7386,567.5965,-11.5327,-550.0948,-209.6192,1150.8751,143.6074,-326.1732,135.7811
-945.3125,72.4518,-83.4606,55.9829,-0.3731,-160.5997,26.6955,-266.4431,177.7474,-49.2974,284.9315,-204.4851,-18.1946,-666.2329,151.6409,349.1071,395.2470,-1154.0319,142.7111,535.0101,152.9138
-937.5000,308.7141,221.8540,239.2513,57.5605,-89.7481,-48.5034,99.5209,-118.4317,-162.4171,-230.3267,121.8873,126.5812,-116.2506,39.5526,-239.9450,-195.1224,277.8410,-68.4872,-355.0353,-69.1802
-929.6875,-195.6010,34.5438,-44.0826,10.8654,68.4392,-111.3323,-331.1464,-181.2370,-41.1773,-73.2294,63.2393,-83.3019,408.9395,-23.1736,-266.5728,-38.1151,510.8641,234.4286,124.2661,235.0419
-921.8750,288.7171,201.9003,217.2211,107.8300,-149.7056,75.4754,-144.1552,153.5634,72.7040,260.4553,-176.0976,30.4489,-910.0748,127.7249,325.3665,186.4777,-1221.2117,-66.6015,221.1208,-55.0839
-914.0625,-104.1934,230.9795,22.2782,30.5473,22.8870,-82.9524,-45.4438,-261.8447,-85.6535,-265.0486,189.3045,17.9104,659.5536,-103.6206,-421.8520,-340.1196,1270.2458,46.8477,-524.1898,43.5460
-906.2500,-65.8845,59.2327,-16.4746,34.4320,-16.3811,-12.2220,-268.5406,28.8935,-14.8753,171.5593,-143.8137,-131.4813,-299.6834,3.1758,421.0563,280.3896,-768.0952,175.8799,393.5479,187.2865
-898.4375,336.5905,320.6731,159.9596,84.5232,-60.4318,53.7063,92.5280,-52.1900,-22.9063,-129.6506,45.8903,81.2898,-269.6239,-4.8464,46.1317,-204.9044,-84.1311,-120.7973,-399.5235,-113.7497
-890.6250,-174.2649,54.7294,-201.9595,29.2313,90.1014,-51.7425,-270.7931,-194.6316,54.6742,-51.2191,83.2708,-134.3635,615.8663,-73.2585,-243.1157,-126.5578,846.1897,141.4837,-208.9613,147.7843
-882.8125,210.1807,53.0991,99.4262,62.2392,-86.0457,102.0974,-153.7880,253.1920,99.5515,396.4575,-201.2920,-128.7444,-810.2175,117.6013,499.8481,395.0179,-1337.9492,-82.4227,210.7945,-65.3956
-875.0000,4.2759,128.0894,65.4598,101.8991,100.4578,-42.3998,33.8361,-221.3063,-81.9084,-335.1736,199.2980,-15.5218,516.2842,-63.8855,-416.4666,-226.7024,1200.4019,-18.1015,-663.7269,-25.9157
-867.1875,-146.9033,-57.2426,-28.8160,91.2272,78.6006,9.7699,-355.8543,-23.1462,44.2789,82.8136,-76.3305,-110.6531,-57.6278,-11.7226,148.8776,228.2034,-324.6280,204.7646,274.3233,209.1693
-859.3750,252.3253,164.8556,256.3425,103.0130,-4.7810,36.3850,75.8877,3.4357,33.9112,-73.7832,-5.9294,-11.3912,-470.9592,-22.1279,176.6248,-2.4589,-348.0396,-129.3629,-136.2103,-131.2809
-851.5625,-282.6507,-88.3186,-92.7075,-80.4385,196.5808,-166.2205,-89.6109,-272.1804,14.3067,-202.5762,161.9947,-213.4214,796.2976,-150.7676,-172.7753,-131.3093,1192.0309,112.9242,-108.9422,106.9971
-843.7500,113.1888,-114.6853,106.0602,-72.0849,-8.2412,-41.0279,-75.2815,183.9738,177.4918,326.3868,-180.4879,-198.6630,-695.5479,11.3690,651.5566,398.5701,-1262.8914,-37.6011,498.0063,-24.9471
-835.9375,60.6060,148.5238,91.4150,-20.1276,86.5376,-93.2294,166.6108,-163.2550,-22.7180,-241.0168,180.1700,41.6680,391.1872,-151.8907,-210.4704,-315.9080,899.6934,-110.8877,-541.3888,-114.2711
-828.1250,-264.7508,-71.0880,-150.0349,6.9993,100.4517,-78.2592,-259.3063,-37.3129,-6.7766,140.7080,-54.9695,-126.8515,221.9677,-62.9931,135.6853,138.7634,11.3230,153.5114,257.3112,157.5125
-820.3125,216.2672,127.7022,219.9069,99.5301,-81.2097,71.0985,37.1751,147.9811,68.5589,179.7695,-98.8460,20.9979,-657.7047,12.2774,322.1780,67.7885,-775.4280,-174.1856,-0.6590,-171.2917
-812.5000,-298.4626,34.6741,-34.9293,42.2744,106.3098,-73.3259,-143.1571,-179.4766,71.1106,-184.9093,168.0586,-85.9888,778.6698,-205.2449,-410.0228,-259.9212,1347.7521,63.1519,-375.3615,52.0916
-804.6875,-51.4405,-139.6279,76.9496,42.7360,-41.4771,146.9492,-289.7515,298.7448,108.3521,256.0594,-188.9158,-160.2797,-582.2056,14.9174,473.4208,401.0033,-1115.2164,49.5547,433.5066,52.1399
-796.8750,113.3254,23.8099,110.5652,30.9543,-8.5064,142.9763,73.3594,36.7173,-116.6564,-190.2180,128.3231,18.1386,148.6969,-62.1793,-119.3801,-155.3038,525.5524,-128.6942,-493.8478,-136.0445
-789.0625,-334.6153,-142.5264,-224.5686,-66.6101,133.6466,64.2268,-299.3022,31.9237,-121.4632,209.7138,-15.5056,-207.2628,437.6507,-30.0676,23.0764,59.6087,357.3423,154.4161,146.9747,152.9242
-781.2500,204.0319,43.7426,94.8900,-21.5741,-25.5793,200.0698,-17.3519,313.6945,-23.6912,307.1775,-152.5537,-73.1030,-713.6535,30.6136,489.0591,232.0714,-1110.0267,-160.1691,121.3058,-153.5115
-773.4375,-241.4908,-16.2011,-84.8424,-45.7291,162.9854,57.7333,24.3844,-158.6843,-19.1127,-276.5064,190.8752,-106.1850,798.7087,-221.8959,-388.0647,-241.6026,1328.1633,12.1531,-465.4916,-2.1552
-765.6250,-270.1029,-219.2624,-7.6865,-39.0172,55.3967,170.2540,-192.9870,247.7809,204.3090,350.6244,-185.6311,-250.4335,-339.0740,-71.5673,313.6213,385.5223,-917.7132,78.4200,489.4432,74.0063
-757.8125,-7.4811,76.9073,168.7089,11.9510,47.0795,162.0146,202.8549,91.4768,48.9871,-100.0090,39.6412,-77.4853,-91.5317,-82.0065,-100.4572,-138.0977,116.7318,-176.5788,-339.3774,-192.5634
-750.0000,-389.0641,-129.2159,-170.1456,15.6403,184.4471,42.4985,-99.5793,-100.0900,2.3735,-181.9201,58.5631,-195.8645,598.5437,-89.7378,-181.7554,-72.9874,718.6484,108.2561,14.5023,92.5254
-742.1875,198.3633,-70.3318,14.0063,145.3362,-36.1662,226.9778,84.0098,193.2987,112.7522,111.1091,-195.5776,-87.2719,-799.2499,56.5033,479.8596,257.0484,-1228.1885,-163.4239,284.2607,-165.4046
-734.3750,-104.1381,-21.4098,-120.7868,124.0990,123.2642,91.5244,168.6168,-272.2274,161.1829,-427.7728,162.2630,-76.6781,609.9174,-190.1961,-390.4006,-393.8066,1283.8354,-97.1211,-476.8755,-117.2863
-726.5625,-244.1586,-232.0517,-128.1265,88.2860,114.0867,155.4866,-133.3401,-25.3550,262.9871,76.7008,-138.5825,-269.6963,-134.5552,-51.4993,262.7343,184.7029,-512.7283,66.1806,506.2872,57.1822
-718.7500,111.9490,-52.5587,147.6730,127.6368,58.0799,174.5966,251.8253,-6.3668,59.9241,-52.7146,4.9937,-106.6131,-301.7701,-33.6740,59.9814,-91.6559,-158.0008,-238.5711,-88.4261,-256.1859
-710.9375,-419.1150,-197.3202,-162.7363,52.7545,261.8065,46.4833,13.7500,-207.5836,5.6189,-107.3442,145.2081,-270.8113,821.5914,-198.0835,-360.9297,-219.2158,1139.2211,45.8258,-24.3504,20.1603
-703.1250,-18.4074,-113.3184,79.6169,136.6307,99.2961,252.1181,72.4636,180.9194,174.0546,133.7060,-178.5860,-178.2845,-665.1931,43.2321,469.8289,279.9018,-1240.5846,-132.9709,446.3501,-142.7727
-695.3125,-101.8932,-22.5416,-6.2395,122.3141,233.5876,91.5601,279.9474,-199.7563,124.3049,-393.4166,184.5001,-45.0047,534.7750,-116.6492,-242.5482,-395.1396,996.2804,-172.2376,-448.0948,-192.8997
-687.5000,-363.0464,-284.4860,-216.8009,36.2677,205.1161,64.2747,-42.2780,29.8357,243.7969,202.6915,-96.6551,-256.4825,174.9001,-71.2768,355.3424,91.0559,-286.6746,41.1629,378.6327,36.1715
-679.6875,123.5207,-44.6976,120.3705,63.9752,63.4196,143.7389,295.2328,146.1487,212.0302,60.5064,-63.4154,-32.2533,-444.0906,-29.1781,434.9232,-14.0352,-681.6856,-249.8325,-86.9467,-253.0015
-671.8750,-401.1434,-113.2248,-183.7260,-39.6048,236.4081,-88.0715,100.4450,-195.7871,126.9769,-207.9303,156.0805,-81.3635,941.4493,-150.3730,-200.6940,-246.3672,1183.7317,37.6220,-296.7640,29.4988
-664.0625,-133.4162,-93.3706,-13.4490,-54.8269,38.7539,45.4655,13.0579,231.6000,224.2625,402.9063,-239.1415,-60.1370,-543.5944,55.7608,630.9730,401.5849,-1365.3206,-34.2788,459.6364,-21.6899
-656.2500,-31.3954,79.7811,25.1176,-22.7418,39.4080,-63.6909,271.9374,-98.7077,114.8461,-185.9590,106.8170,124.3505,338.6584,-90.8101,-177.0350,-150.1307,635.8755,-132.0272,-529.6364,-131.5666
-648.4375,-323.1317,-177.8877,-185.1201,-33.4857,121.1833,-90.6700,-160.0022,-88.8317,86.5713,-66.6560,-5.5121,-52.0261,457.9243,-45.2184,90.1485,226.3137,130.0740,198.3167,90.1950,207.6542
-640.6250,275.5217,-2.1711,122.0315,71.1842,-12.6258,67.7494,72.4600,69.4181,-11.3138,-55.0025,-69.5349,105.9584,-523.2780,113.7569,470.6558,275.0969,-996.1010,-92.5139,-86.6632,-74.7290
-632.8125,-109.8707,-37.5749,-105.8947,0.7764,198.4513,-123.9002,-9.1854,-416.3908,-93.2921,-321.4237,239.8158,21.8060,902.2736,-152.3477,-346.8447,-211.1633,1325.3691,96.0480,-510.5620,99.7735
-625.0000,85.3016,-123.4589,-12.2791,-14.1174,33.0307,-31.0455,-210.2837,6.2761,34.2288,321.5917,-116.0648,-69.8631,-366.6491,-22.9740,444.1077,358.0135,-1049.5366,96.3024,420.9196,117.7312
-617.1875,309.7557,133.9381,120.6233,67.2861,18.9228,27.1054,105.8950,-118.7620,-89.9439,-209.0831,149.6166,134.7198,58.7749,-38.3224,-121.6367,-245.4955,332.8816,-123.4497,-518.2871,-118.0026
-609.3750,-230.3015,-90.2367,-201.0313,54.1085,100.1987,36.6775,-253.4931,-146.3570,-44.7168,-237.3551,55.6551,-42.3084,544.4346,43.7442,-148.8993,-16.5698,564.4907,182.2341,-76.1206,183.6118
-601.5625,252.6400,4.6006,133.3151,113.9409,-80.5028,185.2409,6.1411,185.9990,30.4880,58.2914,-137.3525,31.6379,-740.7671,155.7876,404.7579,279.2945,-1170.6511,-116.2526,122.9291,-108.7861
-593.7500,-108.8773,-6.0858,9.1748,-2.7154,199.2920,-49.6806,176.2523,-232.1117,-94.8057,-397.5302,251.1816,16.0480,752.4175,-153.6599,-491.9976,-250.2816,1315.4932,-35.6325,-487.4590,-50.6881
-585.9375,-64.1588,-208.5935,-23.7768,-64.2032,128.2272,26.5614,-77.4412,100.9243,18.0387,191.7541,-92.7433,-56.3946,-238.2770,-40.9616,283.3659,303.2376,-718.1620,60.0233,468.1905,61.5076
-578.1250,311.5869,94.9388,198.2978,-6.6385,18.2296,63.8513,179.8945,27.9952,-18.0713,-28.9211,63.7852,163.1674,-276.8398,-4.2293,-47.2513,-139.2052,-27.6673,-233.9663,-355.1307,-233.2374
-570.3125,-192.9901,-94.9240,-123.9870,-91.4567,61.8084,-74.2281,-143.1533,-111.2813,-11.5762,-22.9618,110.5703,21.3024,613.0178,-69.8796,-333.1735,-93.9963,942.1795,68.7286,-88.8439,67.5746
-562.5000,231.0025,-94.2305,180.2918,-54.7141,-113.0548,81.2388,49.3774,264.9601,108.4513,317.4585,-170.9296,28.9647,-849.4590,121.9955,411.3712,354.7023,-1239.1808,-115.0027,366.8652,-108.0867
-554.6875,44.4755,34.8930,91.0246,-67.5150,54.5263,29.1696,181.3310,-155.3244,-55.0677,-360.6535,221.5139,122.0336,494.4409,-41.6709,-522.5713,-286.0991,1210.7496,-38.3910,-525.9149,-51.2961
-546.8750,-11.9092,-128.9099,-88.1487,-89.2494,-52.8588,104.1694,-257.6135,67.4509,-52.5474,154.2605,-70.4818,13.1458,-92.6882,70.7149,67.5454,266.1234,-362.3027,161.2930,328.2659,170.4896
-539.0625,416.2393,86.8295,152.2094,-15.4301,-180.6795,124.7145,93.9813,123.7510,-70.4883,63.6924,-32.8312,214.7701,-551.1614,126.6335,124.1668,-8.1307,-463.6366,-188.5526,-233.0566,-178.1682
-531.2500,-267.7285,-70.6200,-96.5916,-30.7922,46.2767,-14.9203,-82.6211,-236.1032,-26.6234,-298.0332,121.7821,109.1742,704.9781,-49.6364,-272.3199,-221.5325,1171.5646,89.2819,-356.5474,84.9432
-523.4375,57.6430,-63.7397,135.9216,11.1644,-52.4624,143.7384,-34.8928,142.3155,131.5283,153.4679,-205.3860,8.8781,-755.4969,71.3715,511.4150,303.2908,-1250.7310,-20.0828,317.1198,-14.6794
-515.6250,113.7562,96.8686,125.1740,-39.1140,82.5510,-14.8455,284.5565,-164.5058,8.4342,-263.2786,200.2458,31.2993,334.7516,-162.8636,-382.0520,-334.0963,879.6329,-91.4482,-579.4230,-101.5453
-507.8125,-144.6858,-128.1400,-48.1707,-88.0174,127.8994,-79.0586,-73.5937,-43.9654,18.6806,38.2943,14.6227,-70.9328,195.2337,-115.7397,31.8725,151.8574,-50.7581,161.0510,177.3229,163.8815
-500.0000,427.6222,90.6098,270.2208,-46.1665,-69.9794,-19.5365,244.0054,125.2782,-33.3411,23.5588,-17.6684,207.5582,-664.4043,-20.8883,311.4716,64.5050,-853.1807,-190.8535,-28.2590,-181.9414
-492.1875,-125.5014,-7.1521,-23.8566,-72.8098,150.6281,-165.4956,97.0951,-241.9332,-106.8627,-271.6355,238.0720,94.5214,805.2995,-167.5292,-349.3315,-303.2847,1264.6274,6.0676,-338.2911,0.7150
-484.3750,64.7793,-98.5488,28.4413,10.9038,-19.4145,31.9044,-36.4144,213.1903,16.9561,292.4507,-153.2137,-3.1790,-542.6006,66.1590,363.1599,371.2125,-1187.0625,-31.2306,480.8958,-23.3240
-476.5625,170.0466,110.0278,74.7182,79.6230,-11.4535,-33.6863,266.0611,0.3184,-123.2194,-142.4701,104.1912,187.0728,51.5130,-37.1503,-291.3304,-247.2720,499.2338,-226.9943,-401.8897,-237.3541
-468.7500,-259.1891,-38.9671,-240.5624,70.7653,75.8781,-91.8508,-86.0225,-59.1167,-35.9992,-55.9928,-34.6533,51.7181,321.8688,-60.0395,-91.3660,-13.3404,346.7573,39.7718,218.6955,32.9646
-460.9375,175.8761,147.3443,152.4478,187.2162,-83.4825,116.2785,196.2063,149.7102,25.5037,4.7235,-176.8875,221.6403,-830.3479,74.3591,337.8159,121.8247,-1085.1729,-268.8876,227.4780,-274.4267
-453.1250,-190.8610,94.7927,-55.3834,100.8351,112.2863,-55.4152,207.5654,-242.2744,-35.8350,-388.3604,181.9606,157.6849,688.4395,-98.0710,-568.7615,-417.8003,1359.8057,-94.7415,-354.5374,-116.6830
-445.3125,-4.8207,-177.0275,-85.4808,-31.8280,6.7441,23.6007,-7.3273,129.4342,115.5015,240.2061,-170.7797,-22.5689,-448.0799,54.1838,318.3254,247.2320,-884.4255,-39.0266,672.0176,-39.2909
-437.5000,293.0082,-22.0565,124.2060,-51.6913,31.0192,-24.5920,386.5557,-29.0700,-6.3812,-177.4597,86.8940,147.9421,-167.7286,-31.7710,-60.8140,-169.9268,148.2178,-264.8904,-161.6369,-273.0832
-429.6875,-292.3237,-188.3180,-174.3078,-76.7933,172.0217,-104.0132,12.2105,-218.7838,-123.5147,-220.3660,81.8249,-8.8090,597.2026,-37.9553,-250.1225,-65.3086,790.3905,99.2367,162.4601,86.8311
-421.8750,220.0579,41.1373,112.8787,82.8150,-56.2618,72.2580,78.5886,104.1634,-168.9704,101.3539,-168.5923,166.1261,-808.0432,173.5409,294.1929,219.9303,-1198.4946,-143.6091,390.1326,-142.5726
-414.0625,21.7250,192.8216,-24.6901,92.6826,61.6934,-66.2072,161.1920,-291.6066,-270.1690,-442.6431,202.2968,283.2844,558.8602,-38.7034,-616.1647,-433.5259,1238.6730,-85.7400,-481.8813,-98.7266
-406.2500,32.4769,26.5350,-96.2288,31.5686,-47.3697,8.3381,-242.1512,38.6218,-123.3757,70.3235,-111.9239,97.4482,-250.2926,108.0551,82.4657,226.9878,-619.1487,74.2256,404.0113,84.0656
-398.4375,444.0541,188.0923,125.0611,54.3025,-122.5674,7.7232,161.3499,75.6707,-161.7339,-41.8967,19.9867,168.4322,-436.4983,70.6464,-28.0899,-68.6678,-281.9832,-216.9421,-210.2744,-212.2847
-390.6250,-136.9965,-77.0371,-165.3097,-70.6504,25.5102,-172.5643,-55.8290,-178.9336,-159.7756,-113.8010,136.1208,-52.2988,667.4131,-37.4418,-392.2551,-139.9745,1069.2240,86.4403,-91.2323,82.6289
-382.8125,294.6753,-35.4550,144.0290,77.1080,-179.7044,61.8462,-41.2748,203.1332,-72.1378,156.9276,-153.0802,33.6652,-826.8770,197.1540,321.1931,315.3459,-1246.6455,-94.9798,369.3772,-87.7839
-375.0000,249.9133,93.6498,134.9121,136.4220,-43.3765,14.8165,169.7894,-248.2208,-156.9588,-553.7636,258.3390,168.1481,374.3261,1.3111,-570.7626,-357.7401,1097.9135,-125.0638,-594.4046,-136.6416
-367.1875,-38.9032,-91.3578,4.6863,90.6039,-65.2285,-5.3455,-182.2504,-49.7069,-67.9417,-61.6287,-11.1393,-75.5181,-16.7265,89.3265,-3.8496,60.0136,-145.7437,99.7852,306.5901,97.2947
-359.3750,385.2704,225.6193,279.4435,162.7844,-197.0679,120.4797,164.7093,112.7713,-162.9285,-10.5402,-36.7646,121.7905,-700.6599,142.3237,85.0014,-145.2696,-604.2053,-251.8714,-188.4770,-255.7625
-351.5625,-69.3361,119.7336,-25.6245,127.1191,11.2200,-1.5277,-67.1781,-265.5519,-321.7468,-317.2672,203.5040,70.2317,646.3810,-54.5087,-587.8978,-377.3436,1294.2100,2.3783,-402.3464,-11.6906
-343.7500,252.1964,-19.0136,164.4243,129.5681,-131.3915,77.5666,-61.9204,143.2000,-206.4930,164.0282,-135.5713,-0.2130,-783.4167,97.7520,337.2282,288.6022,-1133.0951,-81.8809,406.7464,-81.5548
-335.9375,214.2196,117.7402,168.9526,55.5240,19.4988,-65.8396,383.8029,-147.5441,-167.7538,-202.1629,183.5154,0.8120,137.2861,-120.4802,-357.1218,-334.9213,832.0526,-245.8217,-480.6270,-263.9066
-328.1250,-169.8121,-57.6352,-101.6276,-13.6513,114.2138,-153.3809,37.4155,-51.4111,-0.1712,75.4901,12.0352,-236.3116,230.7046,-134.8479,-114.5752,17.4158,266.9087,60.0794,148.8102,50.5423
-320.3125,397.3465,155.1802,167.9766,22.3804,-95.8523,-31.7370,270.2374,142.8770,-26.4016,11.2694,-87.5591,-44.2510,-752.5423,21.9661,264.0956,174.8995,-928.7991,-165.4431,-63.6359,-160.8097
-312.5000,-31.6467,75.7817,-73.6010,-91.7861,-8.1319,-238.2739,136.8485,-247.9954,-122.8302,-344.1131,201.1076,-142.4066,693.8690,-111.4078,-457.3401,-252.7587,1311.0458,114.7840,-427.2142,108.6251
-304.6875,161.0667,-155.9343,-22.5037,-112.2990,-179.7637,-114.1578,-68.8400,205.7669,73.3731,255.0955,-169.2375,-278.9049,-582.0441,48.8609,438.8275,347.1746,-1032.3364,147.1826,533.7312,156.6657
-296.8750,366.5175,117.0890,127.3208,55.9392,-177.6455,-112.2902,264.1892,-48.7296,2.3226,-220.9554,109.4722,-94.6817,-103.1682,-23.1174,-73.2640,-312.1320,330.0654,-96.7311,-426.5564,-99.5269
-289.0625,-179.3417,-44.2724,-127.2171,70.7932,-29.9592,-109.7956,-138.1530,-120.5858,-70.1176,-37.3860,44.7208,-242.8677,411.1371,-22.4781,-107.6927,-127.8143,517.8651,197.6233,-29.2420,193.8346
-281.2500,245.3956,61.9659,180.8298,106.2469,-237.6643,123.2889,22.1269,296.1225,-132.9728,304.7243,-173.3345,-159.4607,-864.8312,210.7459,420.3959,178.0407,-1276.4852,-93.1798,108.5672,-89.2165
-273.4375,-43.9017,-18.8561,-17.1687,95.6587,-35.4336,-3.6629,79.3407,-87.1765,-222.8807,-228.1842,207.9439,-105.1172,625.0329,8.9442,-515.4887,-354.0925,1172.9042,16.1530,-644.6030,2.6784
-265.6250,50.5634,-173.9371,-36.4306,116.7886,-55.5197,87.0999,-160.6947,148.2215,-170.1131,226.5547,-94.1356,-200.0544,-317.4287,97.8485,236.2881,248.4249,-812.9514,125.1068,287.8229,127.2248
-257.8125,477.8057,109.7747,237.0793,190.7221,-4.7977,65.6593,222.0483,-56.6049,-229.5567,-200.9336,147.5141,-4.2167,-267.0105,2.5454,-79.1754,-215.2661,-72.8978,-148.1681,-415.9607,-153.4135
-250.0000,-61.4624,-44.1108,-84.9806,36.0608,149.2939,-146.3575,-136.7908,-232.9895,-75.5952,-230.9903,181.5355,-218.9834,620.6254,-136.3374,-218.1592,-244.5073,861.3122,150.3812,-117.3182,146.3143
-242.1875,292.3868,60.1164,110.0606,0.5001,-135.5037,10.7091,-53.4991,291.6887,80.4501,254.9866,-172.7766,-175.6479,-841.5236,55.8562,564.8722,205.2759,-1393.1359,-115.2359,335.3096,-102.8738
-234.3750,106.3410,152.4299,-12.8032,-82.9607,-75.2081,-76.1233,80.8638,-15.5101,-80.3954,-90.9076,170.8039,-80.2347,430.3581,-141.8367,-329.9240,-359.7978,950.3594,-116.7055,-524.8954,-117.9520
-226.5625,61.7246,-140.8713,-182.2800,-165.0600,-135.5736,-25.5939,-236.3754,254.6440,42.0984,361.5074,-111.7969,-180.4548,-183.4746,-18.1702,122.6271,313.4512,-612.8226,97.8729,373.1662,113.2754
-218.7500,544.4855,128.2207,75.6137,-141.7639,-247.5233,10.3163,167.7710,253.1627,186.9780,64.2859,-42.7972,-0.2887,-627.7903,52.8864,12.5179,54.0734,-661.4306,-161.8305,-134.4071,-147.0791
-210.9375,-52.3373,-84.3393,-269.1191,-248.1108,-80.1472,-151.4053,43.2710,-55.9164,281.2076,-136.5340,96.5344,-164.7829,604.0698,-108.6867,-407.1482,-181.8935,953.0457,126.3926,-174.5755,129.8911
-203.1250,311.2129,-179.5308,-68.4957,-239.1021,-248.4194,47.2203,58.1540,400.3279,332.7593,391.9231,-248.7702,-187.9148,-889.6271,126.0782,491.4528,346.4292,-1466.9119,-20.9067,464.4866,-3.8146
-195.3125,222.6015,45.1049,-11.0424,-119.2465,-156.8505,31.6980,299.8475,52.4432,95.1613,-251.7405,117.6670,-24.2178,157.5031,-1.2943,-297.0690,-332.3563,691.8978,-126.3974,-509.5316,-132.6522
-187.5000,-122.1415,-92.4348,-164.7534,-79.5839,-91.5116,23.9871,-111.6155,117.3886,122.3731,68.3998,-94.3487,-181.7042,0.3130,63.1439,99.2411,98.6471,-150.5927,112.8817,228.2152,114.2650
-179.6875,419.0381,94.9791,194.4622,36.0297,-213.2107,160.2137,208.8752,255.2400,75.5289,93.4283,-101.3052,-84.2515,-820.7958,125.5193,383.4362,51.5511,-915.9101,-232.3428,-116.1533,-228.8588
-171.8750,-30.6318,-5.5028,-67.2097,5.7518,1.1685,7.5559,56.4551,-154.7698,-42.2164,-281.4102,194.9472,-201.6998,642.0371,-63.9742,-357.1781,-285.3811,1233.6182,-6.6273,-502.3561,-15.8913
-164.0625,271.5343,-58.1567,99.9293,59.2801,-89.6593,174.7007,-106.1266,231.9999,-23.1865,214.4987,-109.5509,-221.3227,-664.2820,138.3313,360.9343,320.4182,-1212.8934,-44.2247,251.1279,-35.1521
-156.2500,441.2732,248.7729,173.6344,156.4037,-18.8923,63.4421,185.8578,-63.6296,-135.5564,-230.9693,205.4695,-42.3642,31.0247,-10.7621,-264.3510,-307.1598,464.1909,-222.4661,-711.7406,-222.7888
-148.4375,-52.9619,33.6665,-138.6754,116.4912,34.7997,-28.8513,-200.1762,-46.2781,28.0275,41.5240,44.9796,-247.4470,303.1373,-29.8856,-99.6346,-32.7659,282.0568,82.9274,-52.6700,86.4868
-140.6250,387.7291,155.5175,112.9445,133.5249,-156.5373,111.7809,87.7468,314.9764,130.5529,217.8970,-157.2711,-147.5791,-881.6537,109.9178,444.9511,179.5184,-1215.8724,-225.4155,-4.7319,-216.2828
-132.8125,-24.6553,126.2657,-32.5318,33.4557,26.0087,-72.6831,124.5468,-90.8334,-55.0173,-336.7897,215.0769,-187.8125,659.3315,-76.3578,-364.4724,-263.2317,1180.8682,-63.8765,-564.8151,-72.1499
-125.0000,126.6159,-76.3569,7.6189,-28.0105,-44.8613,4.4534,-129.0062,205.9425,19.9944,141.0757,-116.4187,-296.4153,-443.0772,109.9766,483.6593,436.5643,-1030.6986,24.9052,353.6023,38.5481
-117.1875,531.5533,113.7020,218.4398,22.2194,-94.0226,-6.7200,191.1077,47.3981,-28.2985,-202.3695,171.0944,-127.3318,-162.7090,99.0108,-41.5365,-126.9373,38.5122,-203.9429,-514.2631,-195.0247
-109.3750,91.5084,23.7284,-74.7600,2.4012,-21.2624,-79.9249,-249.8136,-99.1571,-28.6366,-166.8311,176.5744,-202.2868,533.4481,62.0157,-224.7158,-127.4542,613.4539,119.4468,-257.1470,133.3253
-101.5625,547.2954,229.6148,188.8718,67.4277,-310.6465,108.7067,-169.8600,273.1062,12.8600,277.5018,-141.9977,-16.3844,-970.4146,176.8598,405.8618,243.8124,-1398.5021,-147.3827,49.7260,-120.4784
-93.7500,218.5291,284.9287,25.9430,16.9031,-180.5940,-18.2019,-40.4857,-111.1421,-79.1889,-255.6732,186.6871,37.9568,407.0854,-24.8258,-420.0366,-288.4051,1082.8105,-110.3938,-707.8607,-102.8198
-85.9375,131.1187,18.5694,36.3413,32.6927,-137.2552,64.2020,-324.7642,79.9045,-33.9415,43.4122,-82.6549,-139.3779,-322.1581,166.7968,323.3560,306.6415,-698.5587,31.1983,182.7777,50.1008
-78.1250,592.8601,266.4002,346.9061,139.6824,-86.7052,152.7971,21.1247,-14.8750,-241.5073,-200.3236,125.3688,-17.5176,-456.0924,181.6178,81.8954,-84.1334,-347.5807,-279.4653,-487.3899,-267.7519
-70.3125,-21.5439,106.0432,20.2858,85.4788,136.6158,10.2082,-269.1898,-268.8016,-238.2840,-236.1931,226.7732,-162.8518,647.6026,36.2666,-355.6850,-265.0544,968.9487,25.5622,-369.6963,27.1741
-62.5000,321.8011,95.4605,201.4077,110.0147,-88.3101,190.3553,-197.7226,241.9869,-59.3278,236.6349,-137.3271,-169.4172,-865.8420,253.6475,449.3913,207.7174,-1366.5364,-172.7532,283.6514,-162.1616
-54.6875,198.3728,215.1005,145.7626,88.7940,38.0081,96.7485,149.9592,-145.9605,-117.0972,-484.2662,209.6502,65.2583,287.9253,86.2947,-268.2408,-401.2180,933.1225,-213.7967,-691.6634,-221.2208
-46.8750,-27.8517,126.9121,-32.7003,35.7354,40.4548,27.3067,-177.1676,-104.7445,-3.7122,-262.0356,-51.9254,139.1175,-42.2412,88.1073,286.2940,151.9727,-284.1320,59.9722,94.1303,73.8344
-39.0625,397.8672,408.7210,238.8061,36.6683,-94.0819,39.8440,167.6951,-18.5659,44.6574,-177.8421,-89.6180,444.9828,-729.2672,27.9079,373.7679,17.1321,-742.1816,-226.8257,-260.1065,-209.0876
-31.2500,-171.7692,187.1254,-112.0762,-112.8090,29.9627,-127.0128,37.1509,-260.7437,58.6273,-273.9887,79.5710,384.4506,570.1530,-103.6690,-236.0723,-299.0320,1111.1091,19.9223,-343.6563,24.5861
-23.4375,108.5655,112.5050,70.9876,-47.3427,-118.0449,91.0676,-1.4112,252.0030,166.5289,199.7712,-279.7054,306.8916,-904.3962,150.6964,607.9531,249.6880,-1358.4559,-65.0190,421.6468,-52.8085
-15.6250,121.1528,229.1712,125.3246,33.4193,-29.7499,34.4473,309.2816,-62.9480,-2.2673,-301.1492,82.5863,394.6259,28.3658,-16.6219,-220.7078,-360.2676,620.2440,-175.8668,-486.6841,-185.8737
-7.8125,-243.5125,-68.4391,-88.6013,-53.1087,49.2230,-32.4524,-51.2988,-20.1750,40.6373,106.6297,-55.1920,103.0951,141.7150,-11.2141,-30.6338,48.4840,73.5110,113.7072,196.6660,111.7316
-4000.0000,0.2761,19.5057,20.0379,-47.0664,-39.1444,22.6078,92.8693,114.5350,74.9278,153.6116,-140.7573,178.5664,-397.3379,79.4865,159.9242,111.4082,-487.4675,-36.1868,90.9224,-34.3352
-3992.1875,-329.7500,76.9131,-222.5769,-61.8789,157.2752,-147.2897,-40.7705,-310.8319,-57.9376,-382.1534,213.1263,120.8343,1117.2925,-163.4352,-633.5490,-313.9243,1813.9800,170.8184,-413.6308,162.1482
-3984.3750,-23.0294,-37.8977,-51.4199,-1.9007,-2.4935,-49.4053,-308.6484,44.5806,4.0035,47.8681,-70.1404,0.8943,-115.1739,8.4273,201.7474,336.5449,-560.6645,210.4278,492.6416,222.4720
-3976.5625,248.2880,93.8492,132.3155,22.6367,33.2630,-123.9596,60.0260,-211.4135,-179.4970,-427.5177,252.4470,151.5209,392.7565,-64.1471,-200.3260,-286.3894,829.0164,0.0726,-359.4919,1.3308
-3968.7500,-234.9188,-143.8933,-165.4649,-39.3245,175.5240,-237.0392,-236.7835,-322.9515,-181.5103,-282.4560,190.1452,-33.3346,896.3286,-103.2450,-90.9805,-215.8957,1041.4602,290.5404,177.7873,290.6922
-3960.9375,198.2614,114.7301,153.1417,41.1088,-21.8191,-66.7216,-64.2284,-40.0691,-120.1027,-35.9515,-27.2678,141.1990,-371.7570,68.0635,376.8373,-6.9435,-748.8529,8.6878,296.5640,20.4753
-3953.1250,-138.8634,235.0192,-56.5675,19.1924,136.4843,-201.7525,-14.9810,-431.5390,-217.0429,-499.8198,320.6910,156.4062,1103.7744,-66.9828,-675.6995,-544.3639,1685.4932,108.2394,-461.0730,104.8764
-3945.3125,-151.6941,-24.3488,-111.9506,5.6185,43.1737,-110.4510,-253.4150,-44.7003,-14.6547,144.6306,-39.8778,-45.0448,121.8119,61.3002,5.0459,135.5426,-375.6205,222.2627,511.6189,231.6617
-3937.5000,199.2714,187.0464,85.4468,39.8078,-55.4013,-61.3940,127.8882,-104.0804,-38.5229,-98.1390,104.9883,119.2642,55.4627,-70.6450,-236.3836,-254.7546,320.7827,-48.8241,-190.8810,-49.8111
-3929.6875,-268.4618,0.7650,-233.8456,-6.6903,103.3397,-160.0597,-226.4915,-312.2157,-25.1070,-267.6850,171.4753,-86.1071,942.5413,-205.3161,-442.5988,-203.8311,1286.7438,258.7524,-24.1836,255.0070
-3921.8750,212.9203,60.6063,58.9985,51.9610,-82.7617,59.4208,-79.7672,55.8044,84.4694,-46.0505,-89.5330,-84.3527,-499.2281,-21.8447,367.3805,200.2856,-877.2167,26.3693,388.7392,33.0044
-3914.0625,-18.8306,75.2660,-34.3279,30.4172,115.9257,-145.2907,158.7846,-367.3624,-8.1710,-505.6241,282.2587,-65.7852,834.7363,-224.5692,-458.8262,-442.8083,1557.5610,24.4112,-474.5762,11.7734
-3906.2500,-207.3198,-217.7951,-165.3920,-17.8347,93.9282,-93.7260,-192.3839,-56.2757,154.4666,136.0690,-29.2321,-303.9333,218.1764,-99.0178,109.1933,50.3505,-10.1180,211.7355,428.3709,209.8713
-3898.4375,230.0126,43.9342,122.3583,66.7172,-23.2913,10.6556,96.2288,48.6513,186.9183,58.6042,25.2879,-123.2927,-271.7063,-67.6503,-77.9002,-173.6279,-107.2297,-121.7380,-117.8005,-127.2307
-3890.6250,-295.5917,-24.2491,-179.8275,32.3331,151.5359,-107.9197,-168.0895,-252.4097,141.4102,-204.8862,183.4893,-312.5803,926.5557,-185.2484,-525.0327,-290.6227,1505.9210,133.4483,-254.0352,120.7012
-3882.8125,135.8595,-49.3449,93.0571,76.0465,-17.5330,90.5975,-225.3597,168.6209,122.0029,216.7355,-107.3291,-329.7825,-535.0239,-21.7592,374.9372,314.5082,-920.8185,-14.9750,388.8845,-11.2292
-3875.0000,176.6143,26.8240,103.2206,81.0166,102.6330,-46.6304,79.6456,-187.0794,-124.1494,-323.3766,288.1938,-133.7267,535.5514,-195.0208,-384.8018,-336.1003,1294.5669,-99.2069,-588.9456,-111.9331
-3867.1875,-70.4210,-183.7696,-92.3906,10.2276,125.0772,-58.6341,-299.1000,-87.5880,-62.0620,-40.3078,113.9714,-216.4246,442.5712,-133.0639,-28.3814,56.4702,371.4940,166.1377,150.4059,168.6327
-3859.3750,421.1588,132.2237,251.6042,113.0404,-45.8846,64.9676,-27.2777,0.5260,-122.3732,-97.6002,71.9955,-16.5391,-394.8951,-8.4924,135.7220,-1.3107,-410.1752,-156.1128,-165.5524,-149.1930
-3851.5625,-140.7299,96.7454,-51.8728,77.3671,128.6574,-91.9379,-181.9271,-301.8892,-203.2121,-435.4445,306.0550,-59.1418,1023.1995,-200.4345,-606.7325,-376.6570,1658.8175,71.5197,-445.1091,61.4534
-3843.7500,81.2798,39.1927,72.5701,53.6423,-42.8348,69.0912,-277.6764,117.6192,-116.1059,168.6430,-77.8130,-152.8184,-366.6419,-39.4447,291.7346,299.9501,-834.1388,30.0916,377.3176,38.0878
-3835.9375,208.5005,236.7955,178.1941,74.0744,24.8033,-10.7183,121.7277,-180.6909,-230.8478,-314.0996,237.1069,-8.3477,320.5562,-191.3006,-263.5998,-330.2628,868.8906,-144.9210,-549.0827,-152.1482
-3828.1250,-257.9502,-18.2436,-64.8457,28.8587,147.8120,-70.2037,-267.5173,-202.7081,-215.2559,-113.5646,127.6007,-174.5370,622.2919,-139.8320,-173.6944,-93.2034,746.5850,161.5813,75.7693,154.9737
-3820.3125,232.5432,85.6504,241.0625,96.6077,-24.2354,88.2664,-33.8580,142.2379,-165.7067,120.9446,-28.9499,-85.8025,-548.0647,56.5965,208.2133,66.8484,-703.9081,-160.6279,145.6559,-163.9341
-3812.5000,-187.2162,18.2762,-18.3011,63.0797,157.4102,-60.5625,1.5280,-227.1355,-167.4709,-319.8968,294.6479,-158.3575,952.2979,-165.2897,-673.2133,-411.4519,1719.3960,-32.8263,-412.8394,-56.1730
-3804.6875,23.4770,-157.6129,15.8078,97.0508,42.5747,46.0811,-184.6267,138.9509,14.2460,155.7363,-25.2165,-305.4391,-197.6791,-57.7076,59.8080,247.7326,-539.6085,20.5826,502.1580,13.1216
-3796.8750,329.1167,78.4029,162.8430,120.9300,41.6190,45.6358,184.1118,-44.0301,-95.1450,-247.6907,202.3921,-82.6258,53.1413,-130.2152,-342.2032,-265.1402,497.0870,-229.4728,-316.9131,-244.6969
-3789.0625,-260.3573,-89.6701,-136.2283,57.7161,218.5762,-34.9235,-151.2428,-195.1618,-100.6540,-251.2925,192.0987,-231.9162,814.0381,-208.8495,-382.4239,-196.1969,1096.9839,96.2062,-27.2035,79.3848
-3781.2500,187.8455,112.9287,195.3902,118.2037,-1.7652,113.2112,-2.9527,174.4021,-62.4576,44.8121,-54.9324,-155.5384,-551.3529,-23.7832,319.0924,173.4865,-888.4883,-138.2057,177.2808,-140.8016
-3773.4375,-5.0903,167.3537,65.8465,66.5068,162.6812,-52.8541,52.1610,-285.2484,-264.4774,-376.3262,360.1557,-171.3570,931.0435,-226.9224,-506.5992,-433.0622,1586.8625,-74.8413,-611.4984,-87.2165
-3765.6250,-5.8750,-149.0313,-16.5346,29.0117,79.3561,11.2552,-285.5542,75.2453,-161.3197,130.6823,61.1295,-397.0058,144.8409,-86.8925,257.8368,184.5468,-250.3262,84.2825,337.8809,87.6004
-3757.8125,375.3263,20.5268,175.0478,57.4756,11.9683,54.3213,125.6602,82.7194,-118.2104,-81.3107,174.7488,-204.7311,-38.5106,-79.9078,83.3022,-138.8465,18.2322,-200.5091,-300.7279,-200.6348
-3750.0000,-257.7152,-190.1490,-170.6207,-48.3043,143.3420,-69.8739,-145.3637,-114.0986,-58.3721,-130.6205,245.8033,-325.7133,1045.0353,-167.1945,-333.5808,-188.5770,1277.8069,120.7299,-228.6989,114.8714
-3742.1875,151.4614,-167.6020,43.9437,8.1623,-121.0309,144.1692,-188.1929,395.3213,9.7141,342.3295,-96.9291,-255.4851,-474.1052,47.7585,397.7874,394.9704,-1133.3577,-48.6333,322.6431,-38.3388
-3734.3750,48.4036,-24.3369,11.2494,9.3414,-6.7197,36.9162,0.6962,-41.5551,-132.5095,-241.0378,270.2550,-65.5626,701.4066,-94.5989,-478.1356,-261.7848,1185.1302,-66.5284,-588.3507,-71.8775
-3726.5625,-207.9894,-173.3770,-193.7692,-70.7750,7.3186,-21.6596,-314.7389,47.2061,-6.0626,106.2192,-27.2176,-46.9658,304.8358,-5.2939,51.5409,268.0949,-62.3683,187.1609,281.2805,199.3100
-3718.7500,254.3456,112.2740,45.9194,-67.1796,-158.9578,-40.5184,109.4869,104.6868,-23.9251,90.2016,-70.3993,305.3012,-379.1094,50.7205,256.9842,141.7226,-521.3489,-132.4490,-99.3185,-112.7907
-3710.9375,-381.8428,3.4014,-298.9315,-106.1200,46.2119,-164.9301,-50.8194,-202.4296,-37.3676,-142.4344,106.1769,330.0177,998.5023,-109.8295,-306.1965,-202.2805,1333.3375,120.9235,-382.5817,129.5422
-3703.1250,-127.5340,12.0517,-104.2687,-29.5050,-89.0643,-7.8021,-148.6316,176.9836,47.7289,237.4766,-267.8234,381.2326,-466.2187,158.1600,478.1565,398.2701,-1057.3339,44.9199,328.7445,66.4633
-3695.3125,-59.1126,222.7585,11.4769,4.1809,-11.3108,-75.6077,114.6152,-184.5353,-56.1245,-453.5621,103.1005,536.4670,416.0370,-19.8001,-322.4113,-184.1143,940.9365,-79.6030,-619.8798,-75.5901
-3687.5000,-333.7746,-52.5855,-140.8508,-60.1729,55.4177,-118.4871,-259.1960,-152.1694,47.9627,-128.7338,1.0430,201.6263,477.4601,-61.8543,-107.1493,104.3751,413.5000,203.1012,124.3523,211.3190
-3679.6875,245.3114,-1.1932,220.5696,-9.7717,-136.1077,58.3813,-7.3019,62.9645,116.8084,87.8836,-53.3202,198.4961,-525.4056,42.8421,182.9184,100.6606,-701.3336,-100.5237,37.4169,-89.0070
-3671.8750,-208.7564,-137.9745,-42.1872,-42.5584,42.1644,-20.9588,-48.5778,-308.1325,-71.5634,-319.7516,247.7778,86.1538,935.5997,-71.6793,-555.2771,-381.3194,1582.7817,99.1577,-415.8220,89.4403
-3664.0625,-40.3206,-214.2347,25.5713,20.2023,-73.9955,156.2281,-200.3463,126.2826,-41.4058,152.1308,-115.4095,-28.6929,-325.6740,179.3326,359.0258,238.2365,-857.3791,76.8825,422.4965,82.4779
-3656.2500,125.6697,21.0023,173.8527,44.4722,-1.6728,119.9266,205.3847,-92.7787,-113.7499,-287.4850,156.1767,84.9313,147.4672,33.8545,-154.1070,-275.6797,498.8080,-165.0079,-396.6616,-174.9990
-3648.4375,-366.2151,-188.5966,-170.7311,-96.1003,167.8144,-4.2512,-101.7339,-141.7546,-15.9643,-115.0376,103.6398,-219.3156,716.9697,-89.5172,-202.1992,-66.5297,739.4819,152.0806,167.2213,141.6798
-3640.6250,127.3334,-81.7710,136.1243,-25.2136,-40.2564,119.0227,95.5401,202.7289,-39.7251,82.8898,-94.9553,-94.1611,-561.0735,70.5490,364.2003,167.1029,-987.4811,-100.1839,310.6359,-103.1655
-3632.8125,-215.5078,-2.3704,-80.4412,18.2418,109.2079,11.8534,136.3853,-270.2538,-108.9582,-426.6672,229.9271,-51.4699,872.4574,-109.8420,-512.8963,-415.7656,1478.1838,29.9321,-453.4861,10.5080
-3625.0000,-252.9411,-179.5304,-87.5872,15.1607,-8.8591,113.1165,-238.3656,52.1570,104.2268,190.1664,-144.6855,-203.3790,-133.3589,29.1968,178.3581,274.7782,-569.4416,150.3768,494.8120,148.6646
-3617.1875,104.2263,1.8601,113.8384,90.6466,-65.3864,94.9414,147.4124,-1.8595,49.9473,-84.4418,34.3866,-36.7757,-120.7030,11.7945,-131.7797,-110.0938,98.3125,-118.2125,-238.2841,-127.6362
-3609.3750,-347.3562,-239.4944,-225.4868,-10.6106,107.3498,-25.0022,-118.5413,-193.6878,40.8920,-201.8802,106.6982,-189.9564,785.3896,-70.3986,-286.7604,-118.8092,1013.6332,203.6236,-56.2372,193.3060
-3601.5625,109.8340,-169.0896,-32.0309,-11.0691,-104.1139,93.8491,2.2513,220.2818,271.6358,212.5071,-227.2204,-105.4014,-716.6600,49.1921,534.0794,296.2995,-1243.2622,-25.1732,401.6764,-17.9223
-3593.7500,-124.4174,-15.1666,-128.0448,-69.0067,56.9011,-112.7865,237.5546,-205.2400,212.8619,-285.6270,119.1403,-51.3664,580.7729,-156.7193,-295.5998,-276.1112,1122.3430,-33.5696,-463.9727,-40.6806
-3585.9375,-296.8152,-187.3484,-134.1903,-67.0391,49.8341,-82.5354,-99.2814,9.0810,206.9589,112.0747,-127.8602,-202.4788,18.3339,-14.7635,249.5082,231.3237,-357.8418,171.1207,418.2174,172.4893
-3578.1250,247.3684,40.0156,191.2229,54.4881,-30.6938,-52.7224,226.4066,3.9824,54.6016,-2.6464,0.3932,50.9124,-395.6271,52.7502,25.2295,-67.6547,-345.6560,-127.1121,-161.9762,-127.7915
-3570.3125,-196.0792,-51.2586,-100.0068,31.3799,118.1425,-196.5642,-64.5286,-286.8188,-52.4270,-183.1006,206.3275,-18.3757,851.9166,-91.4147,-522.7887,-321.3722,1245.1428,135.4003,-323.9452,131.2594
-3562.5000,206.9816,34.9802,106.2826,117.8249,-80.4556,9.1323,-78.9634,103.9014,-66.9104,134.9748,-133.8757,6.8301,-635.8752,114.9580,457.7393,290.4688,-1205.4407,-7.9879,220.6729,6.8974
-3554.6875,135.4047,139.5449,71.8980,81.5838,31.2298,-99.8604,217.9090,-297.0809,-138.1074,-412.6595,203.3947,121.3246,428.5869,-66.3669,-273.4059,-294.3983,970.2047,-64.5912,-694.4381,-65.1908
-3546.8750,-205.5103,-130.1871,-149.8171,21.0530,66.6353,-138.1716,-150.5403,-188.4339,45.3603,-9.6599,-13.6186,-98.5180,311.9882,-31.0267,129.0333,71.3621,96.8918,217.7293,125.0614,226.4388
-3539.0625,308.4929,101.9593,181.3767,112.4408,-118.0728,-28.5726,180.8585,-40.8713,45.7247,-8.7284,-68.8718,87.4835,-572.7528,80.2225,389.4286,-0.9246,-694.6718,-115.9192,-204.4641,-104.0200
-3531.2500,-105.6677,109.9241,-76.6038,119.6430,100.0179,-140.1779,-40.9279,-445.5380,-176.1206,-413.0643,239.8868,13.2570,892.4079,-67.7569,-383.4626,-369.4853,1419.7687,112.9733,-618.2968,114.2984
-3523.4375,180.2318,114.9606,37.4822,158.9390,-41.7780,47.3002,-218.6660,-36.1353,-170.8690,32.6776,-107.4237,-15.9384,-467.1795,157.3377,321.7009,298.0447,-1007.5468,101.7497,230.9906,118.7551
-3515.6250,267.1948,236.9979,137.5914,139.2468,-17.5889,-1.2088,137.6045,-266.7138,-254.6291,-417.5764,198.1902,84.8228,217.1618,35.4398,-313.0889,-300.4084,693.0131,-74.6077,-560.7159,-76.8094
-3507.8125,-187.7737,-76.8699,-93.2232,36.6565,81.7238,-84.6355,-203.0197,-277.2509,-81.3246,-169.8077,84.0093,-143.3719,497.8383,-10.3931,-137.8951,-15.8418,550.0213,206.1998,74.5768,206.7355
-3500.0000,320.8470,44.8332,231.5482,86.6743,-72.3645,18.5532,47.9094,10.8332,59.5661,81.5905,-75.2079,-75.0325,-688.8914,56.3761,333.9393,161.3708,-915.4868,-102.5303,56.5461,-94.1002
-3492.1875,-167.8390,13.2040,-29.0125,19.3636,144.1892,-130.5873,8.5087,-358.4526,-16.9177,-361.4195,232.8201,-76.0660,850.0844,-93.2170,-475.6313,-317.8279,1441.7733,55.7355,-537.9260,49.6839
-3484.3750,-114.8683,-214.7456,-13.9140,0.7548,11.4619,28.9542,-160.2416,59.9102,34.2930,204.2310,-119.5842,-243.4578,-242.0482,67.8579,384.4266,321.6387,-831.0482,131.7987,465.2907,137.2033
-3476.5625,176.4152,-30.4343,118.4559,10.4070,-41.0348,51.7555,267.2475,-27.4578,-53.2471,-102.8447,101.9473,-109.6461,-3.0107,-19.8179,-33.2119,-207.6128,194.2210,-127.2715,-298.2064,-135.0420
-3468.7500,-286.2196,-175.0072,-192.0757,-65.8326,87.5805,-39.3602,-118.1579,-117.7837,39.2853,-82.8971,101.3007,-309.7734,675.3336,-73.4249,-232.8750,-150.8523,783.9250,149.7800,82.2849,140.8097
-3460.9375,337.1671,-44.5613,103.4220,29.9873,-94.7497,181.5808,-43.5656,251.9448,41.8715,139.1132,-114.1997,-196.9206,-759.2352,148.0221,284.5302,292.9906,-1234.3702,-120.6444,319.8941,-115.2642
-3453.1250,151.1165,50.3960,-20.5497,18.3298,37.4141,-15.9663,53.5494,-166.8286,-156.0603,-387.4125,287.5489,-171.6024,657.7055,-49.0372,-647.5908,-345.7101,1214.8785,-46.3281,-499.0670,-55.8750
-3445.3125,5.6319,-164.0652,-142.9521,13.2836,-84.7922,44.0684,-251.7739,152.9390,-56.4251,298.6032,-76.1104,-365.7453,-129.5375,48.4708,75.7963,193.1382,-622.9873,111.0296,446.5195,115.1398
-3437.5000,339.3885,62.6672,70.8641,64.4612,-165.8203,111.3229,183.0748,183.9279,-26.6006,182.8488,26.3420,-187.7390,-321.6568,6.1880,-76.5583,-142.7643,-363.8273,-184.0373,-205.6370,-185.6517
-3429.6875,-141.6533,-171.3906,-188.1189,4.8488,14.3627,-75.2361,-113.8559,-75.9377,43.4031,-76.7903,180.9810,-335.5707,775.5962,-143.9229,-408.8117,-181.5556,980.8265,148.5197,-123.7059,141.7438
-3421.8750,340.4631,-77.2856,101.0631,29.4405,-137.2439,30.4027,-81.6325,287.3923,76.6090,249.7628,-91.0094,-265.2797,-664.8677,-0.8391,433.1440,365.8644,-1319.2986,-23.1299,358.4850,-9.6277
-3414.0625,170.9905,106.1906,37.6165,35.4003,18.4812,-107.5890,149.9519,-143.9139,-59.8538,-364.3394,277.2941,-107.6717,591.9820,-175.4080,-400.5538,-285.3786,1006.8852,-71.0504,-549.0140,-73.6801
-3406.2500,-204.8247,-94.6339,-145.1654,10.0672,18.9168,-32.8939,-253.7932,40.4299,50.3549,151.2127,-28.5172,-215.4104,222.7567,9.6872,40.3297,119.0204,-252.9152,139.5424,305.1132,146.9886
-3398.4375,212.7373,112.8835,124.4027,76.0872,-153.3176,162.1618,88.7747,201.1520,-10.0793,201.1635,-43.6804,-18.8568,-429.1844,132.1320,90.6277,-52.1712,-681.5408,-213.2310,-86.3344,-208.9864
-3390.6250,-279.8295,6.2586,-181.1734,-31.0389,17.2992,2.0609,-33.7759,-141.3070,-95.6773,-141.0969,207.9641,-139.4973,990.8455,-64.5946,-471.3048,-283.5866,1178.9124,40.7477,-227.0370,35.8695
-3382.8125,62.0500,-73.9106,-5.2887,-75.6649,-101.5692,104.4554,-114.8822,291.7241,-29.7793,329.1377,-130.6011,-182.7154,-453.5020,112.1708,367.2343,333.5072,-1296.0383,-19.0985,642.7927,-8.7378
-3375.0000,196.7885,95.7251,-5.5772,-117.4747,-28.6536,-6.3271,179.8143,-2.4226,-103.0887,-111.8278,210.2833,-36.1721,389.8821,-72.2555,-441.3960,-327.5846,629.7018,-153.1364,-208.5839,-156.5699
-3367.1875,-85.9543,-116.0966,-276.3383,-153.7344,-6.1683,-56.5821,-237.9469,56.9148,29.1341,168.6917,35.3024,-122.1282,410.0428,-48.1731,-196.5921,61.7956,62.3346,113.2402,459.5041,123.1624
-3359.3750,380.8186,33.5624,77.3963,-75.4950,-241.1869,112.6706,78.7529,301.7710,163.8579,192.7545,-81.1317,49.3580,-634.3307,48.4024,194.7581,122.7175,-1056.6814,-196.5199,292.1698,-184.5912
-3351.5625,-129.7215,-19.0932,-133.1993,-93.5893,-48.5549,-99.4178,15.1265,-93.7454,99.2028,-164.6082,212.1510,-87.5276,844.0188,-162.3821,-493.3142,-307.7683,1246.1013,12.8561,-217.6156,8.2770
-3343.7500,18.7323,-116.7263,-17.7821,-51.6246,-152.8594,-20.4616,-199.5019,243.7514,141.5737,392.0431,-162.2163,-191.4301,-438.4179,25.8709,431.6111,358.7856,-1071.8907,36.7343,598.6592,50.2300
-3335.9375,194.5458,163.9322,138.9592,18.6572,-71.8858,-85.1878,214.1712,-41.4305,78.2474,-112.9831,114.3038,-35.0767,46.3549,-111.5693,-110.1073,-183.3432,332.2648,-160.8356,-315.7352,-161.5367
-3328.1250,-249.2535,-34.0009,-154.9131,-2.6570,110.5094,-158.5302,-117.7525,-151.2833,113.3097,-39.6749,84.1870,-218.3703,595.7318,-148.6445,-146.5464,-73.1665,590.1551,168.6101,83.1655,168.0967
-3320.3125,316.2311,109.3381,117.4970,104.3335,-94.7890,76.4382,7.5766,194.1825,129.6648,195.9651,-130.2537,-55.4299,-751.5927,86.5806,346.3448,162.3515,-1168.7531,-121.4613,156.4519,-110.9501
-3312.5000,-148.5366,137.3982,-77.3685,97.0404,40.6108,-44.8748,33.6320,-183.6526,44.6929,-291.7367,175.1045,-28.8211,707.8015,-71.5060,-435.0993,-398.4745,1250.1052,-39.8817,-518.6301,-48.3324
-3304.6875,-175.4664,-171.6635,-74.3726,68.6507,-31.0649,30.7026,-220.4529,186.3797,194.6087,299.4228,-174.9122,-208.3794,-283.7121,41.2791,376.2812,302.5661,-820.8973,60.1293,473.1656,64.2146
-3296.8750,241.0448,68.6640,154.0402,62.6675,-60.3572,1.6955,191.8584,83.8436,54.9333,13.0271,38.2625,-17.5877,-241.9239,-24.5272,53.1242,-94.9508,-89.6891,-222.4324,-306.5785,-222.8500
-3289.0625,-191.0936,-12.6506,-128.1990,-18.9628,134.7153,-96.9730,-164.4560,-198.3879,-79.4099,-85.0894,137.9513,-78.4878,688.3899,-123.0135,-227.8019,-119.2028,918.1684,81.2477,-141.0827,82.4235
-3281.2500,231.3787,58.6534,138.1901,52.0610,-76.5591,96.0203,-81.1774,216.0396,-34.1130,292.4626,-160.9527,4.1857,-774.5989,107.1552,443.9381,331.2303,-1264.3572,-141.0042,281.1291,-128.6261
-3273.4375,34.6594,37.7218,79.3625,-5.1410,83.9047,-74.2159,116.8646,-174.7767,16.9054,-245.2581,222.8491,18.5800,525.1386,-136.9239,-460.5774,-315.6045,1175.8518,-106.4568,-548.9667,-114.9603
-3265.6250,-92.6436,-194.7705,8.9501,-26.8866,86.8394,-107.0186,-209.6745,12.7993,131.3468,163.4152,-30.5545,-123.6336,-23.4638,-95.5877,168.2600,201.9596,-325.2001,103.7509,343.3374,109.1803
-3257.8125,383.2897,139.9262,299.7505,26.5736,8.9653,-38.6057,152.9679,46.6041,-20.0025,-61.6768,52.4858,93.2923,-469.9547,-64.0463,127.3649,-59.2287,-379.2504,-191.1459,-166.0817,-189.4799
-3250.0000,-248.0115,-35.6109,-78.6998,-43.2056,179.8536,-160.4406,-42.6128,-221.8837,-31.6177,-219.0826,173.4829,-28.0710,767.4331,-111.7826,-361.8811,-290.7491,1203.6954,102.0171,-199.8580,92.5911
-3242.1875,30.4852,-2.3299,69.6619,-10.1318,-38.3976,25.5785,-40.3925,257.4688,80.6189,444.3735,-240.4936,-26.6521,-775.2495,110.3246,486.7167,226.5929,-1298.4740,-20.6791,465.2719,-15.4583
-3234.3750,52.9294,194.8556,-14.0500,-24.1445,-12.7630,-22.4763,206.7475,-46.2587,-39.2437,-80.2748,105.3523,73.6485,279.8969,-46.6561,-331.7534,-372.1649,833.1583,-92.4611,-497.7121,-99.6418
-3226.5625,-184.5791,-111.8653,-237.7035,-50.0583,-16.0055,-25.4456,-201.0135,96.0628,30.9851,247.1046,-91.1124,-112.9860,127.3524,-13.5615,32.7752,175.1174,-73.7995,186.8015,319.3311,190.2890
-3218.7500,249.2692,74.7473,118.9796,-39.6151,-138.9127,109.9489,154.5490,269.7699,-18.4314,235.8993,-133.6377,95.6769,-692.9157,47.8909,315.7207,163.8078,-908.5990,-120.6012,13.8125,-115.4224
-3210.9375,-256.7010,96.5293,-163.1658,-123.0128,56.3308,-61.5079,56.2973,-195.3910,-115.7163,-192.1944,132.1817,107.4573,789.0455,-86.5372,-297.2634,-301.4210,1187.9275,119.3364,-350.6505,116.9890
-3203.1250,-6.9234,29.0804,-83.5368,-49.6071,-121.6023,89.8292,-84.2042,176.2256,109.7838,290.4882,-256.2711,38.9739,-603.0645,174.8187,517.5186,255.1498,-1237.6274,70.7861,496.7087,85.2345
-3195.3125,65.7011,207.4371,36.9270,22.6162,-74.7444,63.9893,257.0970,-69.3352,47.0748,-177.0115,47.3064,161.2563,68.5260,75.9920,-207.8491,-321.4574,451.4624,-119.7002,-416.1091,-124.7459
-3187.5000,-349.3083,-101.8067,-190.2328,-40.7568,28.5388,-16.4625,-117.2030,-76.5513,40.7450,73.8289,-32.3116,-66.0988,391.7136,32.5400,-176.9371,39.2640,352.2722,202.4980,188.3855,198.6782
-3179.6875,357.8841,41.1294,192.7974,-2.9311,-177.9771,72.2952,118.6556,196.4575,18.6279,163.9051,-115.5425,58.6843,-805.9402,121.2886,243.2236,275.2444,-1087.8672,-86.8861,191.1701,-79.6791
-3171.8750,44.3773,44.3368,-31.8981,-35.8524,1.7529,-114.6923,77.7957,-284.2983,-58.2468,-391.8151,244.7084,54.6975,696.6845,-66.7210,-605.4026,-316.5710,1376.3331,70.2085,-368.8781,63.1845
-3164.0625,63.9628,-6.3334,-12.4814,19.3743,-89.3516,49.4633,-196.9521,64.0618,-2.9902,104.5920,-166.1224,36.8109,-498.3839,172.4078,295.0693,215.7410,-856.1341,110.7762,495.2248,118.2312
-3156.2500,217.5790,251.9945,197.9465,137.6137,-137.4769,112.6456,196.3035,-93.5275,-197.7344,-199.9469,33.2675,283.8932,-252.5782,124.5548,-83.3914,-308.9085,175.1924,-179.6843,-372.6180,-186.7447
