Time,Fp1,Fp2,F3,F4,C3,C4,P3,P4,O1,O2,F7,F8,T7,T8,P7,P8,Fz,Cz,Pz,ref
-4000.0000,-65.4901,-46.1801,88.0130,-6.7793,57.4099,31.7829,51.4384,58.9399,97.3642,96.6179,23.7831,0.1840,56.9152,-41.1347,-16.7620,32.9288,-196.4858,-72.4654,-74.7028,-23.1196
-3992.1875,373.5513,288.4041,-183.4427,81.4139,-66.3082,128.7333,258.7740,82.4664,-319.6850,9.7742,82.8307,21.2719,-470.9417,17.5581,-178.6043,52.3244,64.4149,-55.1754,48.2785,-75.0595
-3984.3750,-251.8232,-90.4116,-27.2506,55.2550,-205.3937,-121.7111,-247.3016,-93.3912,202.9586,-128.4606,-386.5561,-8.0113,87.9022,170.9290,-281.8473,10.4034,739.1490,234.8414,373.0106,-31.3580
-3976.5625,254.9607,242.9547,-47.8883,37.2444,31.6989,152.0297,282.8108,143.9354,-111.2642,146.5049,327.2921,43.8688,-226.1280,-71.5730,174.0813,43.7756,-619.1420,-312.0477,-420.1986,20.5115
-3968.7500,228.0678,39.6379,-145.2565,80.5459,-212.9270,-92.9326,-218.7813,-63.4543,-171.2354,-171.2609,-174.5831,-54.9646,-249.9061,123.2411,-108.6874,-12.5186,792.9623,188.4064,289.9407,-41.3279
-3960.9375,-128.9152,-105.7232,106.4077,5.8469,1.4525,-25.9090,-187.4203,4.1440,154.8538,43.9729,2.5032,-62.8028,147.3730,79.0729,-42.4759,40.4422,12.0991,6.8765,-101.8980,24.8442
-3953.1250,387.1711,234.9715,-119.9583,31.1468,-5.1670,152.1662,210.0055,71.7840,-328.1251,39.2486,180.6707,-32.6340,-372.4350,-2.1126,60.7935,39.9520,-141.9102,-109.7007,-147.8155,-55.9760
-3945.3125,-235.8969,-106.4833,2.5554,-27.6561,-139.9140,-167.8974,-291.7213,-136.7014,161.8266,-205.6130,-395.3524,-58.5863,116.6919,118.6342,-148.0809,-45.3854,851.1683,287.6994,424.2726,-44.9050
-3937.5000,133.2320,228.2708,-16.7150,-44.2665,97.5589,33.2714,202.7816,64.0509,-41.0170,106.7783,466.8974,-6.3270,-13.9951,-122.4312,198.2487,-27.1753,-646.7067,-220.7535,-401.5156,44.3859
-3929.6875,259.5101,109.1449,-208.9235,13.2225,-168.8864,-123.4616,-137.5928,-91.0973,-232.8142,-195.7470,89.2439,-126.9863,-169.6427,13.6074,4.6946,-84.6481,603.5798,221.9176,251.8229,-39.2295
-3921.8750,-290.0089,-227.7332,24.1933,-42.9982,-9.0332,-110.9339,-197.7287,-78.9719,257.7644,-34.9917,64.8452,-225.3547,357.0822,23.9678,52.4122,-35.2974,122.2585,129.9234,53.5102,45.4621
-3914.0625,268.0460,119.9593,-88.2039,-79.7099,63.3294,71.1429,241.6931,66.6919,-257.2294,37.3050,541.0599,-154.2128,-158.7803,-125.1933,196.6706,-26.2649,-410.7340,-154.6292,-266.3986,42.6684
-3906.2500,-163.7836,-312.2250,-22.4740,-55.2605,-129.1882,-268.6672,-317.7828,-197.5303,101.9339,-226.3009,-128.6639,-126.9463,236.5192,121.8243,-179.9503,-79.6971,842.6191,292.0493,426.9456,33.0153
-3898.4375,28.9463,-12.8124,31.8835,-107.2170,144.9142,-31.8638,176.3432,39.8691,46.7200,121.7328,439.2468,-2.0698,216.4347,-82.5675,93.0266,-14.4622,-620.5331,-182.7040,-401.1607,85.9843
-3890.6250,270.9934,194.8915,-220.5550,-3.9262,-71.7483,-101.7967,32.7487,-29.4672,-206.3186,-93.9822,74.4309,-35.9482,-111.4773,-7.7108,22.2828,-53.3354,288.5663,59.8011,52.9838,-21.7973
-3882.8125,-357.4901,-116.9095,2.5682,-34.0919,-31.8721,-245.2205,-257.3560,-63.2825,312.2572,-53.1779,-141.9091,-70.2852,444.2225,30.7181,61.0485,-47.0866,291.3495,134.9137,56.7545,53.9742
-3875.0000,199.4341,265.6972,-109.9699,-2.9018,76.3623,82.7503,254.9492,118.2931,-203.8689,92.0231,443.2053,-38.2532,-73.7976,-119.5309,278.2054,-2.3126,-559.7050,-185.6877,-475.2180,50.1151
-3867.1875,-156.8582,-125.9133,-111.7471,29.0893,-145.6343,-175.5118,-333.9827,-176.3605,15.7910,-275.0226,-256.9582,-113.4366,181.9697,134.0507,-91.8427,-75.5796,911.2163,336.5869,328.7084,11.0482
-3859.3750,-175.3103,-37.6433,15.4026,-93.0246,128.2844,60.1313,11.9787,-13.1051,106.3874,-1.1460,236.7928,-24.7156,308.6631,-33.4639,144.0005,-36.7408,-446.0251,-67.2573,-286.4826,99.9010
-3851.5625,235.7199,163.0788,-209.0892,-101.7355,-24.4072,55.2088,117.3935,-54.4272,-265.7030,-152.8571,157.9948,-31.5962,-137.3402,-4.5882,-9.7284,-64.9053,104.0828,98.2844,89.7024,20.1558
-3843.7500,-411.4269,-237.3551,-77.6808,-150.5476,-40.2178,-143.8575,-228.3595,-141.8863,271.1583,-129.7077,-260.9966,-47.5943,397.6098,89.2160,-172.5959,-49.3063,440.2713,330.7970,391.8860,77.3082
-3835.9375,92.4150,127.2061,-210.3225,-137.4063,84.9373,200.0749,336.8815,165.6450,-118.0723,179.4409,377.0501,1.3752,-65.5496,-155.0515,171.5255,32.7660,-780.7643,-78.8058,-229.0734,90.4314
-3828.1250,-115.4697,-150.9795,-310.7577,-29.0133,-198.6855,-47.7603,-167.6461,-7.6001,-35.0883,-104.2092,-310.7090,-100.4152,-57.4965,73.9592,-187.1150,20.1506,697.6014,486.9004,583.2933,-11.2021
-3820.3125,-378.1720,-166.9398,-107.9202,-78.3706,39.9492,81.6413,72.0424,158.4016,242.1923,210.3999,-36.2276,-117.9451,181.8472,-19.7663,13.4638,111.8654,-376.7798,188.8545,2.9072,43.4317
-3812.5000,101.3667,67.3130,-297.9696,15.4316,-40.2718,185.2326,285.9346,152.5838,-205.4643,57.1825,31.4784,-127.3155,-338.7635,-27.3563,116.2379,78.1760,-144.1102,141.9252,61.6070,-37.7762
-3804.6875,-447.9125,-340.2321,-100.7788,-5.5217,-100.2677,-131.9832,-250.9935,-128.0234,287.1736,-184.8356,-432.6693,-149.4526,225.9184,96.3363,-54.7616,-36.4670,677.0198,403.3239,462.6601,12.2631
-3796.8750,143.6787,75.1131,-70.7302,-80.6275,149.6060,117.6806,255.9606,12.2476,-51.3618,29.0404,368.1167,-48.7194,-75.5903,-133.1366,231.1216,-52.5628,-669.1566,-130.4832,-317.5228,77.1750
-3789.0625,141.7178,-31.1148,-213.3226,24.6720,-140.1497,-63.2625,-180.6864,-203.0981,-120.5583,-296.7234,-178.7240,-83.5949,-145.7579,89.8077,-60.5913,-103.5878,735.1783,325.1539,384.7457,6.4802
-3781.2500,-283.5224,-173.5803,38.9112,21.7719,38.8977,5.5689,-148.5877,-97.6637,207.0978,-43.6993,-36.8062,-51.6615,289.9255,46.5713,44.4622,-25.6338,-43.6269,146.6125,-76.1570,74.5996
-3773.4375,237.7776,242.4730,-181.4310,87.3208,38.3962,188.8929,254.0132,48.2495,-307.8851,29.7956,219.6502,-17.2591,-263.0432,-29.2287,116.0157,21.3666,-263.1131,-70.5225,-257.6828,-0.8144
-3765.6250,-308.9596,-92.5104,-51.7930,69.8662,-89.1327,-122.8350,-239.4437,-151.8918,154.1492,-169.7758,-421.9846,-34.8695,161.0121,137.0070,-268.4633,-22.2271,807.6251,298.4308,356.9060,-18.2325
-3757.8125,54.6473,201.8762,-75.7896,-22.2329,107.7035,184.8164,361.4649,156.3395,20.5318,213.0363,289.7937,13.8886,-83.6009,-71.4136,147.4101,68.4224,-765.4119,-321.3097,-439.2205,30.7226
-3750.0000,244.2574,181.2553,-274.8908,27.6302,-166.5378,20.4320,87.3433,-7.4796,-180.2113,-60.2180,-21.4876,-77.4072,-394.3487,57.1251,93.2516,2.4446,371.5599,8.9291,171.6293,-60.3758
-3742.1875,-258.4771,-144.6695,-31.2348,-16.7587,-69.0374,-66.2348,-109.0903,17.4272,285.8551,74.2528,-35.1036,-163.9570,106.7044,80.4468,152.8189,44.6308,43.3989,-36.0367,20.3016,36.2838
-3734.3750,283.8698,151.4760,-195.6016,-1.1520,23.4672,136.1483,350.5311,220.3687,-209.1536,240.7575,388.3709,-146.4742,-390.3380,-50.2556,354.4406,107.6171,-576.9146,-337.0713,-316.1118,16.9603
-3726.5625,-205.1951,-195.7945,-152.3998,4.0522,-226.4595,-186.9162,-267.3053,42.8667,165.4272,-8.1976,-376.6467,-251.3896,-16.7801,139.6797,29.6350,71.8952,761.5864,158.5723,426.1844,-13.7700
-3718.7500,-152.0359,-1.8120,-60.9221,-81.4914,11.8818,51.2788,192.0993,246.6242,147.2701,305.1171,192.6118,-160.0306,38.0353,-63.1330,341.0628,119.8021,-628.7319,-314.5664,-294.3102,40.7729
-3710.9375,181.6082,86.6214,-254.0806,-28.6193,-146.3938,2.8909,180.9377,88.7793,-194.5806,0.8086,-1.7075,-173.2621,-303.8471,-1.5474,145.9243,34.0081,301.3681,-15.3020,180.5896,-81.2841
-3703.1250,-295.3792,-213.5485,-18.7829,-48.2960,-57.2329,-129.0963,-170.8416,-42.6652,263.0723,-19.0972,-243.6641,-122.0496,298.7737,85.5212,-60.7889,11.0153,385.0905,105.4679,231.0312,-29.8875
-3695.3125,233.6936,211.3369,-125.4945,-8.9746,93.9379,169.9561,348.4315,145.9252,-246.3338,133.0385,311.4782,-7.8195,-174.6841,-95.4274,89.5435,44.6906,-563.3438,-207.8287,-293.6201,-26.4718
-3687.5000,-184.2221,-135.7866,-80.2390,66.3435,-118.9247,-154.0257,-231.3246,-213.5155,-54.7610,-298.8818,-378.4518,-74.6066,51.8370,169.6530,-160.1525,-63.8861,952.4090,359.9475,484.8272,-56.0644
-3679.6875,-227.4770,-143.2217,55.7417,23.3557,126.9259,-18.3153,13.5897,-78.2568,81.5413,-53.0932,87.3266,-13.6838,224.0875,46.4432,231.8305,-32.3197,-289.1560,-0.5874,-227.0438,42.0616
-3671.8750,279.2742,118.3056,-215.4142,75.2761,2.6627,4.3226,72.4404,-92.0910,-373.3550,-177.4146,72.0642,8.1456,-268.8642,67.1241,179.7704,-54.8053,181.1417,85.7584,-1.0488,-46.9090
-3664.0625,-306.2388,-184.4191,17.2285,-17.0023,-21.8182,-203.2935,-354.9888,-188.1804,79.5855,-198.9972,-355.5019,-17.2334,294.0332,152.6464,-66.5213,-55.2045,615.4488,309.9816,292.8539,1.9202
-3656.2500,115.6885,132.3042,-19.7271,-50.8755,199.1136,126.5323,233.0212,105.1591,-286.1230,131.8548,306.4169,55.8136,-73.7294,-104.4486,190.6204,29.9660,-617.9979,-146.4549,-374.9282,38.1713
-3648.4375,-67.6077,-120.2107,-57.9839,49.0030,-97.2409,-132.9064,-283.2321,-116.7753,-251.1298,-199.5885,-319.9672,16.5998,-76.7891,112.2292,-142.4874,-19.6775,851.4525,409.9175,427.1256,-37.8348
-3640.6250,-212.8679,-194.6563,155.8716,8.9705,153.5045,-66.2622,-142.4211,-12.6170,-37.9901,52.0700,-34.2726,45.4882,247.2910,-5.9802,33.4793,17.3956,-139.9687,123.4034,-104.6906,28.2723
-3632.8125,357.8731,165.8694,-88.4054,53.8397,93.1477,57.3209,127.3459,37.4668,-538.0456,-7.3598,163.3919,94.2889,-291.8384,-67.3021,-64.6272,2.7449,-63.5718,61.7556,-26.6536,-32.7133
-3625.0000,-240.5385,-150.7472,95.2026,19.6118,-17.3365,-199.2445,-350.0575,-145.5998,-61.1707,-153.9502,-351.1584,19.9846,184.9638,115.3197,-432.8827,-15.5098,743.9459,414.0942,465.4017,3.1948
-3617.1875,125.8245,216.4174,74.5669,0.1400,181.9428,145.9672,216.3098,91.1047,-338.5713,119.2398,326.1103,144.4586,-130.5233,-89.3206,59.6462,31.2812,-718.9140,-132.8723,-327.8716,54.8717
-3609.3750,156.9513,73.3185,-71.4105,68.3792,-111.1088,-73.1302,-149.6347,-164.5100,-373.3419,-244.9155,-149.9426,71.6288,-277.3829,93.7484,-50.0956,-66.7539,613.0400,285.8995,337.5994,-17.7576
-3601.5625,-175.0813,-82.9118,166.5307,17.5211,53.7378,-91.3587,-241.7437,-146.2543,84.8318,-116.1991,-96.1430,51.7050,216.7074,36.7365,114.0241,-72.3779,-2.0060,129.6014,-64.9857,72.5243
-3593.7500,438.3315,320.2867,-70.1960,70.0256,0.9351,111.8002,145.5433,-52.6253,-371.7415,-59.1123,181.0937,72.1476,-313.9471,-89.9390,281.5273,-74.6933,-304.8154,-65.3925,-295.2973,19.1696
-3585.9375,-90.8909,-102.1446,-33.5450,68.9338,-182.5029,-144.6859,-405.8368,-235.6440,105.0918,-278.6953,-443.3698,-3.0172,124.8112,128.8295,-51.6025,-99.8637,818.0023,355.0959,334.9060,18.2081
-3578.1250,109.9416,99.4914,28.1671,25.8915,99.1189,136.8970,133.8416,46.3958,-16.0273,77.7926,242.2655,94.8977,2.6081,-29.3563,157.3292,8.3487,-669.2255,-215.4099,-446.9004,116.3151
-3570.3125,207.8197,128.1295,-194.2126,124.8105,-160.3369,60.4312,-53.5158,-66.6278,-239.2831,-143.8051,-127.1487,91.7714,-294.7289,149.4168,-139.7758,5.7796,411.5571,59.0531,108.2652,39.3687
-3562.5000,-348.5244,-181.4209,29.2722,60.5747,-82.9529,-9.2281,-306.0926,-60.8442,205.3622,-29.5949,-233.7967,57.4981,221.8421,190.0664,-26.0663,41.5259,170.3317,29.4174,8.3577,116.2824
-3554.6875,360.5589,176.4458,-180.9079,32.6891,-37.2161,220.5013,144.7325,132.3211,-261.7220,127.9979,215.9894,66.5985,-320.3245,14.0470,276.0560,69.3922,-527.6826,-244.9272,-371.2850,88.5612
-3546.8750,-7.6553,-155.0071,-193.4268,53.5022,-269.8159,-122.1043,-419.7875,-136.8558,55.8834,-214.7740,-457.6193,-20.6123,33.2020,221.7623,-68.1363,-21.0949,862.2076,302.5048,386.8820,38.5273
-3539.0625,-8.5338,18.8791,-49.5836,16.6581,18.9447,56.6555,-18.9678,42.3215,125.8564,75.8167,89.1432,85.5470,139.0881,32.8356,185.0145,15.7544,-512.6045,-155.7426,-318.6301,107.8618
-3531.2500,242.4243,201.5714,-222.0317,93.5680,-151.5605,32.1819,-44.3643,-55.7537,-266.5110,-167.8638,-82.3218,96.4698,-290.3660,81.6601,11.9485,-35.6742,300.3468,95.7561,108.6042,8.9463
-3523.4375,-401.6473,-125.7301,-15.4242,47.5212,-165.0274,-90.2910,-350.7855,-103.8243,235.2214,-70.5427,-388.8426,83.4372,246.2876,177.5670,-111.1042,11.0581,393.5337,190.3645,238.9895,69.0845
-3515.6250,199.0000,265.6830,-193.1763,-17.8743,-13.8360,207.9223,279.4889,157.7914,-163.4547,192.4651,240.3744,161.0805,-300.4783,-1.8979,150.5226,83.8324,-693.7772,-297.4393,-355.0626,73.8883
-3507.8125,11.0246,-27.5579,-201.6240,42.0869,-278.3302,-94.5413,-206.9231,-34.2774,11.1867,-109.2380,-356.1381,79.0679,-199.9180,210.0224,-299.5147,42.1593,700.4457,148.1756,442.3308,28.0292
-3500.0000,-111.0511,-7.8674,33.8983,-9.0057,-41.8678,30.9329,-7.4226,129.5956,137.8114,165.0090,100.2919,168.0258,34.6226,40.9040,-26.6053,80.8548,-478.3851,-220.2677,-207.3329,117.1375
-3492.1875,411.5748,268.4970,-112.0138,91.5083,-115.8220,31.0297,28.7142,56.0758,-377.0587,-19.1517,173.3771,166.6047,-480.3341,40.3774,44.9552,17.1498,-27.6625,-154.1389,-72.4349,42.8512
-3484.3750,-191.1508,-51.4774,175.7697,51.7242,-158.1020,-230.2336,-453.5302,-168.8080,95.8070,-206.6876,-271.9509,124.8878,101.4583,145.5880,-69.8155,-65.4304,599.9804,157.7682,240.2760,74.2653
-3476.5625,395.7842,395.2029,129.1528,77.5501,88.2272,89.1316,123.8521,40.9213,-244.7725,40.3979,379.3975,186.8026,-277.1965,-48.6187,102.0445,-18.2699,-711.9045,-308.7829,-508.4924,100.2989
-3468.7500,386.4783,210.6024,12.1957,140.0874,-174.7782,-99.8259,-323.0780,-184.6841,-324.7063,-257.8740,-141.5948,143.4131,-358.1996,127.8906,-308.4047,-71.8770,755.0657,139.4160,221.5126,57.0196
-3460.9375,-1.2820,-0.4258,228.8572,35.2191,40.8135,-31.2098,-180.4514,-41.7083,38.0111,-4.5604,73.9801,138.6354,4.4472,49.0127,-56.2898,-2.7757,-161.3104,-141.7777,-236.8515,162.3510
-3453.1250,449.7526,310.3193,5.1881,63.0535,-34.9045,76.1428,183.9224,28.9884,-404.6663,-7.5369,292.3244,172.5823,-551.3058,-63.1749,50.5790,-15.4089,-168.0778,-254.3157,-207.5733,86.3900
-3445.3125,-187.9091,-80.6278,185.8538,24.2323,-185.3015,-220.2032,-333.4306,-157.0215,69.0278,-156.2312,-299.0944,95.8727,-76.6729,153.0280,-173.2175,-25.8615,740.7286,128.5771,385.1746,82.7710
-3437.5000,164.2046,202.2044,150.2824,-43.8429,35.0695,73.2340,217.9828,100.7358,-113.5484,175.8502,363.2866,169.9382,-224.3106,-67.0283,120.7558,37.6437,-700.8311,-361.8348,-351.3955,119.9174
-3429.6875,313.7509,106.4166,-18.9863,36.4394,-206.2322,-94.9783,-133.2508,-104.1725,-208.8474,-175.7645,-99.0158,147.3536,-394.6636,94.2769,-267.9105,-39.1818,644.0579,104.1338,396.4351,24.4038
-3421.8750,-191.0203,-116.6628,223.5079,-11.5326,-37.7848,-72.4774,-185.7874,-81.3680,253.6574,-43.6620,-114.6351,95.5323,140.7948,78.3573,-209.8651,-8.9133,102.8070,55.8821,137.0772,82.6473
-3414.0625,249.6005,254.6377,26.2832,78.8049,21.9648,207.3600,242.0270,51.7567,-237.6205,53.7614,239.1333,155.0393,-461.5327,-82.2806,-41.4854,15.6787,-336.2661,-170.1225,-90.0616,32.2010
-3406.2500,-215.7991,-35.0829,129.0359,71.1436,-205.3185,-129.8518,-353.2162,-212.1644,86.1041,-246.8837,-393.2047,184.5357,-102.8415,130.1130,-268.1375,-69.1831,885.8867,243.9522,570.9180,24.7411
-3398.4375,104.2062,321.6116,204.2069,-100.1246,52.8103,-18.6528,125.9394,-26.6790,50.2340,11.8861,232.8959,333.4580,-138.7478,-125.1064,136.6232,-90.3066,-552.6468,-314.6168,-233.7516,99.6964
-3390.6250,352.1064,395.1517,27.1360,-27.5881,-197.2860,-158.6490,-52.0890,-203.4088,-236.9185,-273.5817,-127.2053,376.1928,-427.9314,-9.5222,-77.7706,-163.2354,503.6700,3.6224,295.3925,32.4453
-3382.8125,-309.2126,14.4896,216.9299,-90.2014,-117.5472,-225.8423,-265.3382,-233.3363,320.8311,-157.2427,-378.5457,308.7883,201.8046,32.9530,0.6367,-128.9078,368.9908,81.7599,232.4704,75.0475
-3375.0000,239.6565,388.9955,21.8133,1.2944,-19.7024,93.1036,237.5596,48.8632,-168.3892,52.2205,160.3009,296.5156,-251.4350,-124.4915,173.1736,-39.2278,-489.7267,-248.0682,-238.4337,26.7621
-3367.1875,-57.9112,57.0401,9.2089,57.3446,-215.3443,-176.4386,-363.0346,-183.4298,1.9243,-216.8315,-476.3978,136.7816,28.8694,81.6403,-206.7486,-81.1900,902.3108,298.7239,485.3216,-22.9884
-3359.3750,-0.6077,79.9835,177.5226,-94.7131,135.9214,-9.0866,62.2617,21.1788,97.1748,62.0307,21.8099,120.9651,233.1016,-153.3350,108.2294,-51.9190,-447.7957,-135.6147,-196.0442,35.1744
-3351.5625,372.7437,206.9319,-14.2521,-38.8169,17.1191,-16.7655,200.5510,-60.2592,-241.7065,-130.1720,-60.0043,39.1056,-181.7990,-163.3624,-121.8138,-102.5209,311.0398,25.9844,176.5300,-83.7175
-3343.7500,-268.1147,-222.3321,160.8254,-46.0764,82.1506,-136.6395,-102.3810,-178.9004,226.3148,-138.5846,-436.0748,-42.9028,361.2175,-61.5012,-131.0542,-96.6507,513.9163,194.5047,345.0575,-55.7664
-3335.9375,221.7333,128.1113,-24.4474,-47.6751,264.8482,267.1857,522.3749,114.1340,-215.0726,118.6794,150.5816,-7.2283,-120.1670,-209.0090,199.3905,7.3529,-684.7067,-264.3857,-254.8570,-57.1562
-3328.1250,-35.4890,-164.5370,-106.8552,11.6322,-37.5806,74.8868,71.9999,-77.9758,-188.5990,-110.2229,-445.9399,-16.6559,-129.6713,75.4069,-250.2682,24.7569,675.7491,216.6839,614.2165,-102.6642
-3320.3125,-273.9510,-121.4093,81.5687,-121.2677,224.8080,190.3679,334.3941,110.6939,0.7142,189.6594,-37.6810,-11.2655,131.6761,-67.3725,-26.1378,91.5140,-477.9812,-127.4511,58.0910,-24.3667
-3312.5000,248.7968,190.8881,-102.9360,-55.0591,150.2962,225.9735,480.9369,110.4718,-477.9631,41.6395,108.7300,-12.7597,-457.9622,-105.0695,-137.8624,52.5046,-132.6687,-61.5203,230.0222,-98.9744
-3304.6875,-273.5076,-188.8627,159.5558,21.1443,7.7624,-63.4845,-140.5862,-68.8025,-106.5934,-63.4431,-326.9723,-81.2567,-13.5369,83.2639,-352.6296,46.3122,611.8591,296.4817,587.0634,-57.5936
-3296.8750,178.7357,192.9350,153.5548,86.8464,222.7448,188.5822,406.4209,183.4438,-442.7504,226.0041,327.8973,23.7736,-314.6366,-142.9238,-138.8787,107.4090,-659.2503,-165.0822,-190.4819,-26.6984
-3289.0625,179.5977,88.3068,83.0640,194.1062,-105.7579,-28.8238,-69.0349,-33.7905,-513.4084,-102.0548,-146.7319,-9.6393,-459.2236,43.4547,-576.5720,48.3694,819.3202,292.9429,548.5818,-60.2670
-3281.2500,-77.5433,-62.3095,323.6461,112.4102,97.7898,-46.2100,-49.4920,21.9910,-235.9613,64.9074,92.6442,46.0167,-73.6918,-47.0959,-226.2364,45.5296,-37.9976,34.0252,44.7266,69.2204
-3273.4375,562.6187,261.3401,75.4047,154.9197,33.5347,73.6400,217.3009,105.9894,-779.4020,75.0804,433.2965,92.8998,-690.0371,-147.4646,-143.6479,39.7183,-136.2186,-63.7451,-89.0020,41.9098
-3265.6250,49.3972,-110.3983,237.7992,170.0813,-134.0995,-204.9120,-428.3251,-98.4102,-396.1705,-129.1622,-139.5137,34.4219,-270.6878,13.8540,-496.4404,-3.9790,934.4305,373.2124,454.0355,57.2369
-3257.8125,247.2921,227.9869,297.3124,87.3439,108.3857,74.6553,145.1746,144.3059,-520.8419,223.7204,470.8275,57.0693,-433.2415,-146.7469,-143.1280,90.2342,-451.9318,-131.7872,-367.8902,79.6760
-3250.0000,257.8597,170.0072,203.3839,204.2117,-96.5543,-19.1754,-132.7052,-23.3911,-687.9721,-90.8317,-28.2470,0.3124,-786.2505,89.2494,-458.2050,85.0647,825.3787,300.8305,311.8210,-14.2982
-3242.1875,-202.6440,-150.0256,380.4645,130.0669,44.5001,-26.0388,-212.6380,6.8756,-143.0363,50.5819,-107.3996,-6.4371,-278.1814,120.2703,-354.3099,126.2059,363.7935,156.4814,96.5930,52.7296
-3234.3750,370.9446,213.0036,135.5242,70.9215,94.5576,245.1435,314.4781,167.1692,-535.1766,174.0204,345.5338,6.8445,-819.1802,-14.7225,-304.3647,160.0231,-222.9333,-112.9302,-137.7189,28.7641
-3226.5625,-141.9721,-194.4917,152.0625,50.2777,-145.9131,-33.2178,-292.9616,-0.0921,-114.8080,-30.1170,-262.1292,-87.3820,-582.6498,185.8133,-471.9354,135.9774,917.0491,358.2314,579.5729,8.2815
-3218.7500,-72.5474,-87.6318,187.9836,-55.0173,72.9844,260.7733,182.9425,256.9916,-43.0684,337.1043,287.5926,-87.2324,-547.7391,-36.3080,150.8468,201.1728,-630.6979,-134.2977,-228.8324,44.1620
-3210.9375,257.7730,-38.9217,-87.3304,29.5016,-165.3369,206.5724,18.6697,202.8684,-206.6107,136.1015,12.1284,-142.2787,-934.0893,56.3610,-13.5431,176.9413,261.3821,125.9730,277.5588,-47.1699
-3203.1250,-304.1140,-320.4126,94.2198,-41.1311,-130.8205,56.1699,-314.8203,125.5520,377.7579,132.9041,-211.5780,-107.4801,-349.5110,126.8999,56.8737,148.6190,191.4649,160.1489,276.8816,23.3420
-3195.3125,230.4275,109.5054,-80.8862,-68.4088,-11.9404,250.1535,209.0912,319.6187,56.4239,327.0925,312.1466,-24.3074,-745.6285,-47.2395,323.6613,172.6945,-680.2521,-253.3934,-242.5398,-3.7882
-3187.5000,-157.1735,-170.7390,-79.1715,-68.8399,-230.2428,-80.0538,-414.1841,63.4958,351.9268,-1.9337,-384.3637,-96.2838,-450.8870,138.4970,-5.7109,84.0608,761.0670,237.9785,530.9863,-39.0877
-3179.6875,-304.4988,-212.6939,56.8699,-214.9796,88.7667,56.0303,-22.1754,236.6615,634.7693,318.3431,7.4274,-105.9386,-59.7950,16.5377,240.2198,151.5270,-547.3550,-190.3753,-214.2172,59.9181
-3171.8750,32.1712,-87.6991,-174.2182,-90.2119,-33.3335,81.0425,3.7695,188.7335,365.4291,122.5097,-113.8428,-118.6859,-401.8663,42.4643,118.0865,108.3849,35.0884,-65.8470,86.4498,-25.1847
-3164.0625,-543.2289,-415.7650,31.7005,-136.4505,-84.4456,-115.9972,-414.3483,27.7512,866.1476,35.6169,-458.2165,-167.4440,244.1485,138.4211,177.9129,52.8678,374.7139,97.7470,250.2189,-2.2950
-3156.2500,-19.6270,2.1628,-118.4230,-141.7404,97.4123,138.9471,208.5340,172.7428,495.7833,143.7048,200.4431,-60.2358,-15.9111,-84.6959,616.7231,9.2883,-790.8657,-362.7832,-422.1483,-41.4467
-3148.4375,-167.1343,-181.0646,-193.7308,-78.1828,-124.9059,-120.2822,-271.7482,-234.4493,641.2442,-298.4109,-390.1102,-135.1883,238.8713,134.0519,247.3711,-146.8522,715.5519,156.5835,309.4180,-153.7666
-3140.6250,-371.5857,-243.2303,32.0853,-142.5376,210.8890,-41.4273,-119.9566,-155.5592,902.8591,-73.4377,-17.5918,-130.0287,831.8284,-44.0969,436.0948,-159.6009,-368.9229,-223.9532,-316.9051,-111.9817
-3132.8125,84.0127,36.6148,-184.1827,-72.9371,178.6316,72.4202,104.8329,-150.7020,392.3464,-179.5057,95.9302,-125.9032,540.6674,-77.3159,366.8143,-186.3327,-159.5354,-224.5738,-283.3317,-218.2535
-3125.0000,-473.8481,-380.9897,4.1399,-68.7342,145.9541,-217.1773,-367.8406,-366.2957,874.4778,-395.0329,-414.0596,-194.1920,1243.1799,74.1003,187.0913,-261.6241,548.6474,60.4880,108.9525,-213.9426
-3117.1875,-45.4887,-58.3681,-63.3184,-167.3300,446.5007,10.4514,336.7214,-213.6693,622.8016,-168.3288,217.2262,-150.2591,1211.8950,-176.3091,598.5853,-279.4664,-887.1179,-425.3139,-658.6432,-207.4245
-3109.3750,-29.2715,-216.9236,-189.0098,-115.1206,173.8267,-225.1422,-9.9179,-412.2631,570.8766,-476.8686,-313.7183,-202.5343,1232.3838,-7.9155,214.8983,-341.9987,466.0160,12.7175,61.6073,-296.1246
-3101.5625,-409.5047,-349.9158,-38.0771,-250.3134,324.7587,-185.1709,103.9901,-299.2899,905.6153,-216.8299,-126.1097,-161.2034,1713.5586,-114.9161,291.7864,-297.7507,-407.1874,-191.6363,-319.5141,-219.2248
-3093.7500,149.8657,67.6607,-297.6563,-182.9914,286.1951,-39.6667,470.4448,-153.7928,277.7767,-181.2752,203.0786,-52.3528,1122.1719,-189.4401,327.2101,-265.3112,-657.0130,-301.5474,-427.2174,-257.8227
-3085.9375,-200.2437,-247.2591,-114.6968,-111.1193,64.1518,-298.6600,-230.6113,-337.7945,496.5163,-366.2308,-313.2841,-53.9631,1377.3907,29.6134,31.1502,-277.7921,364.9154,87.1605,100.7365,-185.8869
-3078.1250,236.1986,14.3790,-68.1654,-131.7019,257.6775,5.9129,294.9007,-71.2272,175.8175,-25.6057,430.9507,29.9983,1056.1869,-180.8040,408.6470,-196.2399,-1097.7224,-460.6361,-727.8273,-65.3926
-3070.3125,372.1618,-26.5042,-218.2205,-101.8292,34.6333,-181.0595,108.8815,-257.2177,-11.4897,-321.5575,97.6337,-8.5925,647.3953,-36.7699,148.6082,-253.4990,127.1337,-79.9718,-30.9220,-141.4631
-3062.5000,-210.3916,-256.8868,15.2922,-157.4158,157.1305,-241.5200,10.3530,-244.6893,441.8193,-198.9902,-1.2056,-32.6321,1027.2441,-61.1649,308.0831,-230.7526,-244.3559,-135.7235,-156.4096,-55.9871
-3054.6875,307.9928,156.6411,-212.3556,-95.1482,186.4874,81.9075,518.7264,-31.2850,-80.0843,-22.5427,395.8871,34.1932,319.9015,-214.7331,448.4474,-153.5382,-816.1461,-354.6927,-481.1400,-99.6582
-3046.8750,-117.0362,-163.2721,-142.4257,6.7152,-73.5769,-142.1043,-147.3406,-182.3205,137.6229,-209.5538,-231.5124,-41.3979,464.2028,39.3255,40.3777,-123.3188,517.8528,99.0031,183.8322,-102.7497
-3039.0625,122.9603,7.8502,31.5824,-34.3784,210.4301,104.9408,247.6516,28.6969,53.4149,110.5000,456.1695,-14.9292,415.6030,-153.5779,214.3583,-58.6910,-859.1789,-434.2887,-595.1902,-2.7848
-3031.2500,515.4503,118.4198,-71.0394,40.9311,-2.1722,3.4009,71.0770,-73.8901,-306.4627,-139.0655,279.2762,-6.0584,-18.6484,0.9024,-146.2219,-78.9701,130.1804,-218.1896,-133.8253,-68.4327
-3023.4375,-36.9367,-186.8662,194.5489,17.4375,5.4133,-98.9850,-287.3602,-102.3196,141.9309,-57.4726,29.4881,2.0070,394.3977,118.6022,-100.6433,-27.3320,105.8805,-172.8350,-122.1787,13.1112
-3015.6250,470.6857,249.8485,-11.9157,101.8974,56.9628,172.6209,204.2049,132.2313,-320.7672,141.1093,521.7366,127.0427,-143.6331,-50.7724,317.9123,24.1764,-864.6382,-510.6015,-705.6757,27.6114
-3007.8125,77.8221,-37.9570,-90.9095,165.8604,-243.0161,-163.3079,-389.7579,-129.7485,-70.9715,-194.8657,-182.5862,85.5603,69.8566,164.3714,17.9490,-55.8587,607.5065,46.1900,132.4183,21.5913
-3000.0000,-10.7816,49.5074,-3.5696,7.1172,27.3206,-75.9475,27.5636,-6.4348,164.1777,38.4654,234.3979,62.3794,340.7190,-78.1926,363.2792,-77.9087,-642.0906,-288.7362,-483.2094,108.8750
-2992.1875,377.4590,226.7706,-218.5058,8.1301,-77.5984,-107.8110,143.6799,-38.3636,-197.9955,-102.4566,166.1844,31.9517,-58.7134,-74.0242,184.3977,-104.8213,-43.9950,-77.9400,-131.1302,3.8991
-2984.3750,-305.8707,-210.5265,21.0657,-8.3630,-94.0279,-271.2150,-276.7723,-127.8440,298.3902,-118.9329,-328.6326,-21.9899,549.4485,19.6720,-90.0284,-81.5814,433.7689,258.4243,170.5460,23.4126
-2976.5625,121.8310,112.2036,-44.3528,-36.8560,134.5652,67.4200,318.8170,136.7073,-98.2442,182.6355,267.6230,24.0796,152.6065,-191.6602,138.5727,6.9182,-755.6310,-156.2742,-455.8713,-5.0671
-2968.7500,18.7525,-131.8732,-73.6071,35.8619,-152.6685,-183.7631,-189.4010,-39.5587,-53.7019,-104.6353,-350.9829,-41.6668,121.9656,35.2182,-294.6252,-12.6749,724.2928,302.2753,354.9763,-108.3703
-2960.9375,-171.8317,-182.4336,125.7173,-14.8745,83.6543,-57.4197,10.8948,85.7067,145.4594,131.6344,-5.0636,-25.8458,394.9644,-59.3478,-96.3050,38.3828,-311.2240,-30.6290,-187.6237,-19.1211
-2953.1250,264.8857,114.2701,-113.7783,34.5899,28.1816,34.1562,249.4414,104.1863,-277.2519,39.1121,86.1263,-43.7981,-175.8846,-40.7379,-40.7609,39.9965,-85.6508,-16.3768,-103.0877,-74.6717
-2945.3125,-296.2175,-235.8468,68.9714,71.2968,-120.0603,-187.0670,-339.8159,-45.1283,124.3380,-36.2143,-393.5456,-45.5129,226.6003,141.1558,-226.0055,46.5904,654.3549,231.2001,284.8046,-2.9840
-2937.5000,207.6720,163.0365,-32.2641,13.0009,35.7217,152.7422,182.9618,258.5832,-233.0666,304.4984,350.8410,37.7828,-167.8957,-68.9708,150.7849,132.0015,-774.7939,-284.2804,-511.3848,79.7156
-2929.6875,160.6618,9.9794,-115.4892,35.7581,-230.4692,-114.4088,-230.1982,28.3318,-243.4623,-36.7689,-247.7367,29.1113,-214.3576,140.9513,-226.3588,68.2146,690.1799,230.3189,249.5182,-3.5540
-2921.8750,-140.7643,-45.4857,151.9648,-54.8430,-36.0028,-29.9404,-219.7513,111.7054,59.8666,194.5981,55.2888,113.0751,88.9345,4.5291,-105.8921,85.8503,-209.1419,-71.4052,-191.8860,116.8218
-2914.0625,548.1987,397.4016,-80.2914,35.8580,-85.2220,140.8666,98.0605,246.4077,-540.5622,218.2919,373.7032,138.3384,-548.5133,-80.6315,64.9037,104.8084,-470.3083,-190.8816,-382.0710,67.4960
-2906.2500,-63.0244,-71.9083,52.2939,93.4006,-245.6098,-166.5254,-540.3273,-25.0831,-112.1079,-52.2210,-301.1276,51.4291,-48.0405,199.0794,-241.4895,64.3155,712.5583,287.5670,307.7034,54.0012
-2898.4375,158.0901,148.1348,95.2532,32.2835,17.3739,170.4430,90.6485,238.7925,-253.2762,284.6501,366.4448,94.8753,-224.1721,-50.8757,94.4759,134.6228,-825.3518,-230.6864,-456.2342,133.8658
-2890.6250,214.7227,63.6560,-133.3717,88.6206,-212.2095,13.8684,-101.9077,46.1196,-410.0485,-19.0483,-120.5251,-61.2387,-380.8857,86.6108,-171.0963,77.3477,497.2115,247.5275,268.2887,14.1669
-2882.8125,-329.9749,-234.1375,65.7738,0.7011,-85.0523,-78.9998,-268.7737,25.1633,157.0113,70.9759,-251.8150,-79.6171,223.2590,65.8623,-80.9564,67.8594,198.6267,230.5356,145.6288,67.2123
-2875.0000,262.1496,216.8628,-158.3366,-5.4665,19.8697,246.9206,278.1714,204.9909,-361.2273,213.7901,257.7431,62.7560,-331.8804,-85.1747,133.9854,99.4819,-615.3804,-126.7722,-246.3761,26.0108
-2867.1875,-175.4398,-150.8724,-101.1690,13.6591,-177.9327,-25.9018,-251.6234,-67.9140,-83.1531,-59.1489,-419.4790,11.4026,-90.6692,120.1034,-284.7984,46.8599,775.0797,418.2902,546.0154,-25.9073
-2859.3750,-166.2666,-105.8250,17.8300,-82.4295,123.0819,166.0779,234.3796,197.9905,-1.2315,280.7393,103.1297,-54.1477,28.4079,-91.8276,54.1983,125.1619,-621.7487,-64.8769,-146.8333,18.9842
-2851.5625,135.4330,18.7129,-176.7560,-27.0654,-33.4639,82.5289,186.8686,114.3582,-304.9217,86.0815,-91.7727,-100.2536,-312.1086,7.6735,-177.3246,102.5788,242.8332,166.3969,294.7478,-101.6845
-2843.7500,-426.5963,-261.4727,42.0205,-26.3622,-36.6729,-67.7214,-110.3523,74.0401,169.8172,119.7364,-278.4131,-139.0258,198.8301,78.5468,-178.5358,113.3080,242.9018,202.0730,330.7647,-31.0081
-2835.9375,218.8713,136.8291,-129.7528,-50.2050,85.5812,202.5192,453.9287,307.2053,-259.0274,352.8852,358.4943,-90.3342,-302.7964,-93.1587,163.7297,169.0348,-799.7592,-171.8712,-289.8684,-18.8715
-2828.1250,-7.6538,-53.8859,-144.5541,39.9573,-221.1917,-106.2657,-148.8171,-0.6553,-89.8800,-29.0125,-280.6640,-66.6652,-170.4012,151.1521,-217.0257,70.9722,732.7198,339.2453,468.5814,-69.7531
-2820.3125,24.6620,153.2607,-5.4253,-33.9887,26.9512,-4.1572,64.3221,101.3859,86.2298,146.0059,115.0699,109.8925,78.9785,-41.6437,31.1017,30.3609,-465.9412,-120.7461,-238.0845,32.2709
-2812.5000,460.6166,484.0002,-170.7742,85.6176,-66.3553,-23.4698,118.0623,-29.0051,-337.1757,-57.4206,94.4164,237.9967,-344.1393,-23.9155,-135.1758,-52.6348,4.8615,-37.2148,-48.2428,-24.1610
-2804.6875,-154.5524,114.6219,27.8312,103.1660,-159.7255,-190.8798,-343.3115,-122.4928,118.4327,-77.9450,-367.3780,180.0249,186.7901,102.7884,-339.5460,-30.4939,514.7817,155.3410,250.6488,28.3451
-2796.8750,204.9947,368.9698,-73.8501,40.4119,32.6301,111.4412,364.0560,216.7472,-165.2714,262.2728,192.6199,152.7627,-135.5710,-144.8316,73.7998,70.6363,-743.7748,-328.4642,-374.8508,0.5596
-2789.0625,-81.6869,-23.9377,-147.8123,34.4140,-225.2860,-109.5005,32.1674,-5.2824,16.7490,-69.7955,-469.6683,5.2275,-62.1746,74.3043,-185.1089,27.1575,764.5171,192.5284,499.4539,-110.4959
-2781.2500,-399.9937,-166.4525,29.7066,-38.1418,-48.7431,30.9871,209.6949,135.1258,341.2947,180.5847,-219.5395,-0.8696,262.7764,-43.1079,102.4042,79.6592,-292.7301,-56.0170,5.2234,-7.0981
-2773.4375,240.1832,192.4827,-216.3940,4.7054,-111.7913,188.9081,403.6855,182.9648,-126.8201,117.3872,47.0695,46.4288,-313.9116,-106.1534,76.3588,56.0090,-250.7053,-119.2104,-22.6783,-70.3009
-2765.6250,-257.8040,-164.7467,-4.6053,-1.5588,-191.9566,-77.3176,-155.4836,-46.3379,270.0219,-74.9568,-401.5227,2.5962,119.3861,33.7232,-224.8216,-6.8279,622.3966,226.5753,464.4312,-41.6146
-2757.8125,122.7476,179.5777,22.7548,-78.2788,128.4507,208.0304,423.9234,127.9425,40.4297,173.2970,323.5055,67.3144,-146.7371,-195.8698,96.5488,8.7864,-825.1063,-271.1449,-314.9847,22.6354
-2750.0000,173.2483,123.8143,-70.0198,6.9036,-74.2677,-31.7186,73.2394,-111.8762,-89.3108,-175.5686,-172.5705,11.9156,-311.9803,-31.5610,-290.1820,-69.4169,561.3432,200.0609,402.5277,-33.2298
-2742.1875,-237.9302,-40.6130,156.6305,-18.5207,41.4168,-26.0978,4.9077,-68.3196,321.4260,11.9520,-94.2998,-19.0985,98.2821,-98.8368,-137.5434,-44.8922,-60.7517,33.6955,96.4790,82.3034
-2734.3750,320.7104,306.7572,-27.9832,83.8135,78.8578,157.3162,447.3867,41.0206,-156.1417,12.2555,272.8151,17.6409,-452.7436,-209.3938,-28.1081,-45.0129,-416.2611,-109.9765,-117.9076,8.5927
-2726.5625,-239.1357,-78.3700,85.9378,191.6930,-138.1729,-96.7629,-173.6373,-212.1302,214.8658,-203.9445,-385.6087,-52.0985,-118.1584,51.6208,-354.1547,-61.3402,816.9581,384.9839,518.3588,-24.5824
-2718.7500,-65.2124,96.2921,154.6848,84.3636,114.6193,155.9712,299.1536,76.5342,135.7013,121.6896,233.8162,-20.0337,-194.7217,-173.5791,154.5960,7.0462,-662.1447,-108.2958,-291.6348,44.0541
-2710.9375,214.4727,93.6800,-27.9042,116.7359,-105.9039,-26.5846,5.6717,-107.0889,-83.8245,-170.9800,-97.0437,-55.2838,-450.6190,-26.0857,-27.9321,-64.8071,497.4477,240.1283,268.0770,-28.6168
-2703.1250,-301.2890,-140.3551,201.1719,22.7463,-23.7839,-127.5299,-242.2177,-134.0916,403.3788,-89.0260,-198.3311,-45.8981,109.2400,19.0756,17.1535,-58.8825,227.7947,146.2521,139.5129,53.3638
-2695.3125,207.7018,192.3494,-0.0544,4.4577,106.0538,111.2640,327.6490,68.6440,-55.7574,76.6736,298.1880,-26.8058,-311.2294,-181.0942,257.9740,-26.5322,-494.3421,-188.9915,-300.4461,-0.9446
-2687.5000,-274.3688,-185.0278,48.6506,49.1149,-139.1836,-98.0265,-321.5751,-104.7021,140.0587,-132.7247,-388.4104,-51.7922,-4.7083,123.7049,-171.2866,6.5656,852.6271,313.7874,412.6378,-26.3153
-2679.6875,-273.3314,-78.2800,155.5399,14.9176,114.7486,192.8280,4.3389,150.1073,100.0763,194.0475,159.1644,18.3679,66.0364,-62.3556,118.5774,90.7928,-588.3311,-107.3004,-324.1616,80.4776
-2671.8750,-23.6639,30.0594,-95.0519,53.2804,12.2239,164.2588,49.8457,10.4846,-222.4248,-55.6247,-17.6628,-83.9366,-255.7196,18.1170,-130.9792,39.4453,258.2038,212.1481,136.5584,-22.1848
-2664.0625,-571.9941,-271.5779,138.4638,32.7388,61.7846,-7.2573,-231.6089,-87.0739,231.2452,-79.2333,-298.4776,-106.1712,271.7249,67.7119,-301.4604,20.7424,378.9834,367.7616,291.4710,27.2481
-2656.2500,47.8560,100.9645,-21.8605,-16.6582,232.5174,237.4131,343.1352,83.5533,-222.9585,91.3549,311.9622,-83.2492,-144.6909,-165.5730,199.2364,9.5846,-690.2740,-68.5411,-283.5641,13.8442
-2648.4375,-138.6270,-225.8529,-67.5614,-26.4059,-34.1256,-139.2897,-179.4973,-219.1932,-48.5305,-285.4503,-357.9958,-164.6993,30.5535,81.8069,-67.4448,-86.6217,812.2437,484.8672,550.1281,-31.9214
-2640.6250,-257.7752,-204.3137,96.1678,-145.7582,202.6467,-12.6016,56.2421,-19.5492,115.3636,24.1497,98.4357,-74.7575,269.2882,-47.4147,170.2524,-19.7404,-432.8648,47.6812,-96.7874,94.7235
-2632.8125,145.3000,92.4228,-138.9789,-24.9561,77.5670,45.2724,114.1831,-72.7315,-340.6601,-101.0770,156.0907,-54.6716,-185.8829,9.4910,44.1459,-36.1825,6.0691,134.6149,60.3921,5.5198
-2625.0000,-436.8079,-209.0127,95.7710,60.7423,-18.6349,-159.9957,-422.0376,-204.0448,151.2751,-196.4431,-269.4561,-75.7197,306.9323,98.3238,-161.1038,-66.7692,584.0698,361.5253,321.5792,20.2092
-2617.1875,42.0915,198.5707,6.5344,47.4391,150.1852,118.7691,150.7859,111.6823,-193.7909,155.2424,303.0790,-17.7653,-1.2501,-136.8689,190.6549,22.2275,-731.1055,-144.6262,-429.3202,41.9128
-2609.3750,-77.3773,-25.2468,-40.1357,103.7363,-117.4161,-184.8802,-188.7894,-120.0050,-131.2825,-184.5024,-295.8126,-64.2364,-9.8360,36.5393,-149.9981,-52.1178,768.4114,299.8656,331.4398,-41.7971
-2601.5625,-330.0809,-138.2799,205.0739,-44.1285,91.8472,-197.7117,-54.5509,-21.8590,188.1566,22.5971,96.1121,-2.8740,383.5344,-49.1999,58.1731,-35.9377,-188.1964,-59.7760,-167.9246,56.3506
-2593.7500,261.9003,207.3393,-18.1341,-14.3954,52.7207,-53.9068,273.3394,-24.0841,-291.8720,-90.6749,387.7347,32.0944,-96.5456,-52.3688,18.9872,-68.3363,-194.3516,-135.8693,-208.7654,-19.8949
-2585.9375,-219.2737,-204.1957,176.5493,31.2290,-47.5292,-226.2568,-302.9255,-270.4526,123.0489,-299.0985,-152.8450,5.9392,357.3488,142.3848,-374.3355,-112.0732,731.5734,192.0201,294.4038,-9.2514
-2578.1250,113.1801,92.9245,153.9044,-58.5016,187.8968,155.0684,262.4882,0.8582,-155.3584,45.1722,449.2807,57.4447,114.9278,-99.2326,190.9889,-39.9650,-765.0048,-319.4911,-497.8521,42.0576
-2570.3125,110.5746,-16.0352,-27.8768,8.6735,-30.7973,-63.6960,-30.1879,-180.9242,-226.9138,-246.6701,-138.6995,-14.1698,-28.6294,85.0484,-101.7700,-78.0885,603.3515,169.9202,237.8159,-66.7408
-2562.5000,-325.1319,-170.0715,174.3670,-75.1644,98.5111,-8.5011,-84.9210,-52.7274,121.6140,28.4739,-46.7292,4.1871,321.9237,67.3473,-46.5590,19.9906,-78.2158,-19.6346,-21.4622,25.4648
-2554.6875,268.5341,177.2373,-47.0960,-43.7050,134.1324,175.0334,392.7080,93.8054,-319.6119,63.9613,283.6576,3.8416,-228.2661,-81.0838,99.9824,23.0414,-503.6569,-197.9532,-235.5324,-49.0190
-2546.8750,-196.8215,-183.4994,53.4251,-18.2463,-59.2733,-92.4749,-204.7104,-172.6961,75.1882,-201.6018,-314.0414,-79.5385,130.5925,93.5084,-202.5123,-54.1728,683.0717,248.8034,459.5001,-58.5123
-2539.0625,45.7868,128.7523,84.9725,-56.7916,155.3398,159.0273,266.8770,78.8212,-77.9743,158.8729,378.2967,-11.9230,-21.5017,-131.9113,194.9985,10.6218,-832.3148,-210.4753,-352.5236,9.0114
-2531.2500,128.5028,106.0920,-117.4642,61.7212,-10.0115,-42.4003,27.5417,-123.5983,-206.1528,-190.6050,-81.2872,-103.2754,-148.5988,32.7086,-154.4058,-60.2052,516.3337,224.2979,293.4912,-119.4192
-2523.4375,-356.6355,-132.3973,216.3629,68.4751,66.8821,-113.6180,-263.6043,-84.7956,201.9973,-40.8575,-42.6969,-27.4062,296.6534,35.6012,-224.6012,-17.2614,172.3535,125.3806,89.8354,-6.5985
-2515.6250,373.9230,350.8061,-13.1630,94.8805,94.4420,171.8615,205.9574,127.7012,-394.2417,134.5915,537.6483,38.1182,-371.4795,-119.8857,170.8764,24.6859,-680.1685,-233.9470,-410.2703,-15.1126
-2507.8125,-126.9725,-115.4635,17.8324,86.8345,-132.4763,-201.1448,-350.9641,-172.2793,4.0740,-238.4529,-277.5196,-41.8391,63.9577,168.1924,-239.1251,-46.0380,860.0135,321.3455,426.2676,-58.0865
-2500.0000,54.6239,65.7884,127.4079,57.3276,125.1741,91.3943,88.6505,84.2942,-33.0042,128.0715,382.8806,67.7496,-8.9843,-52.1871,53.4060,29.4523,-717.3205,-234.8253,-410.6715,88.5075
-2492.1875,334.6926,169.4904,-163.6435,125.2288,-93.7867,57.3611,54.7032,-97.7037,-323.7537,-162.9875,90.7433,-3.2723,-334.5992,59.8154,56.3713,-48.2008,229.6751,78.3832,8.7549,-19.4947
-2484.3750,-436.5266,-285.0802,130.1082,92.9225,-18.9675,-15.9189,-274.5157,-131.9318,265.3602,-89.2773,-238.6799,-39.5248,255.6703,170.6496,-125.9033,15.7348,408.6267,116.4666,152.0759,18.3023
-2476.5625,246.6837,185.7719,-1.7306,73.0153,107.2729,367.2419,364.7120,213.2818,-270.1417,219.8897,475.3957,-24.3748,-352.6825,-71.1440,219.2384,114.3184,-843.2078,-360.1094,-570.2986,33.5164
-2468.7500,-18.7388,-220.0343,-19.2499,53.4663,-95.1634,-92.2617,-313.7343,-171.1716,-31.3187,-238.6305,-204.2242,-150.9002,35.2975,168.4299,-165.2777,-35.3078,897.4232,253.7214,325.7456,-20.9266
-2460.9375,-8.6379,-175.2830,203.8643,-41.4936,165.0106,130.8185,-54.6146,86.9712,45.1667,167.4606,495.7470,-75.8333,74.9510,-12.3958,-16.2034,67.2385,-605.3672,-262.8433,-402.6085,165.2448
-2453.1250,349.2057,-27.8253,-154.3932,-34.7938,-9.1682,140.5854,175.2051,133.7901,-385.7730,103.2195,394.4515,-176.1176,-390.8217,-3.5916,-7.4433,92.1529,-141.6170,-44.7967,-114.3765,101.0716
-2445.3125,-583.5687,-539.9734,8.7953,-88.6432,-29.9163,-137.2473,-213.5928,3.0182,327.7922,45.3829,-214.4865,-197.9814,323.9203,158.6916,-286.2799,103.7033,472.7625,252.7787,325.4110,153.3451
-2437.5000,85.7031,57.9519,-104.9461,-88.4401,77.4089,226.0057,370.6963,366.3328,-226.5990,446.6441,627.7114,-17.7892,-339.2929,-100.9998,261.9488,199.3866,-1144.9796,-344.6533,-518.8416,223.6888
-2429.6875,-212.5937,-239.7195,-225.3231,-69.8369,-226.8863,-151.3452,-190.6094,25.0405,-88.6295,-41.7178,-191.7101,-101.2231,-90.1410,181.7136,67.5960,74.7790,632.7559,307.3509,415.3499,66.4244
-2421.8750,-470.9812,-252.4538,86.3258,-47.2518,-25.1712,51.2764,-134.9530,227.7370,186.4166,343.9239,193.8286,27.3283,149.0914,54.4436,86.2109,183.6411,-540.4772,-161.6228,-194.4246,195.1710
-2414.0625,299.6602,165.8164,-244.0891,19.2826,-171.5007,197.8930,121.7152,301.4294,-400.6555,270.5570,341.4164,26.8332,-510.7992,-18.8998,269.8006,161.3578,-472.9095,-163.7039,-232.3320,121.8776
-2406.2500,-461.2513,-383.4606,-45.0158,-36.6824,-230.3540,-228.0404,-414.1767,-14.4117,312.8107,-44.3555,-415.5886,-105.1908,277.8585,215.2861,-119.1449,66.7495,701.3412,271.7884,450.3645,100.0768
-2398.4375,131.5146,137.9715,-53.2158,29.0543,-54.4848,277.7458,202.6402,345.4715,-135.0085,388.4711,532.1716,70.4947,-315.7716,-48.8417,240.6322,183.0548,-1097.8500,-401.0750,-539.3199,165.9993
-2390.6250,34.6307,-100.2619,-258.1519,106.1021,-295.3407,36.8390,-112.2347,30.6629,-83.5880,-74.4102,-223.7532,-97.5379,-188.1612,187.3278,-75.2685,75.1649,529.2849,205.3815,313.3086,-1.7789
-2382.8125,-441.6404,-294.8615,46.6333,16.8423,-63.4992,84.5922,-173.4643,152.5307,406.6147,231.3917,-28.0381,24.1069,265.2354,125.2093,-246.5098,159.9948,-228.7866,-129.4200,-56.3019,120.1493
-2375.0000,433.9588,192.3899,-211.7820,12.3840,-139.8431,340.1880,227.1652,334.2420,-293.4383,266.0445,446.5852,20.5578,-470.6321,-60.1422,228.0798,147.4089,-725.2376,-344.4857,-376.2057,80.8931
-2367.1875,-335.4648,-330.3900,-94.2135,-53.0736,-205.2154,-203.2510,-389.2549,-99.0688,376.5140,-166.3452,-463.8731,-81.0201,310.5198,167.5310,-58.3622,-22.3131,862.4795,223.5239,437.9886,15.6328
-2359.3750,79.2664,155.0176,75.5844,-59.3379,74.6329,150.5162,111.5204,218.8355,68.7054,297.4950,477.9090,125.6032,-68.0911,-138.5990,259.3863,64.1002,-973.7051,-486.2986,-553.6597,149.5946
-2351.5625,188.7794,122.1729,-133.9529,-21.8977,-134.8354,-96.9972,-62.9687,-29.5475,-140.4717,-132.9604,-100.5663,24.9175,-204.0809,16.9612,121.8615,-48.3227,401.7855,79.5687,118.3747,12.2564
-2343.7500,-447.6962,-267.6312,189.6207,-94.3676,78.7830,-212.4534,-288.4153,-107.8607,478.5258,-29.3430,-253.0239,18.3074,453.1004,47.6464,-103.5908,-35.5677,258.5046,41.5925,81.5885,80.0219
-2335.9375,472.0185,264.7621,-60.6537,-19.6872,122.5680,160.2893,306.3415,155.0220,-213.3658,160.4774,451.7711,98.8528,-310.6234,-165.5451,233.1441,9.3217,-791.8142,-339.3006,-511.1474,49.9553
-2328.1250,-72.0141,-208.6034,-35.6251,-35.7172,-36.3567,-291.7030,-293.6474,-222.8177,216.0773,-291.4333,-405.2005,-60.3338,267.0017,79.5767,-255.8213,-121.1363,986.2839,348.1729,458.4875,-71.8156
-2320.3125,89.5605,92.6344,201.0165,-50.1547,237.3541,17.9267,53.0092,49.9689,86.1234,129.2970,345.4908,103.0772,138.2159,-160.7202,-56.1964,-28.3406,-647.1417,-227.7986,-399.3330,55.0232
-2312.5000,382.3121,244.0453,-38.2157,66.5696,71.1899,-37.2899,-2.1908,-153.0937,-336.7230,-219.8383,69.3159,10.6299,-209.4691,-32.8574,-38.4409,-118.0353,279.6515,135.4164,69.0332,-73.9923
-2304.6875,-398.0634,-184.6193,319.5194,60.2404,134.9925,-193.5768,-453.4526,-308.2262,278.4489,-267.0366,-343.9460,0.1234,443.8567,103.9680,-231.7442,-122.7912,589.4079,234.5987,274.3670,-10.0557
-2296.8750,328.7334,330.8740,86.3463,49.0277,158.9016,271.2673,158.4171,45.7689,-321.3414,87.8879,377.9721,97.7284,-265.7951,-92.1276,306.0640,-4.1138,-793.8243,-268.1670,-474.2619,13.9919
-2289.0625,-119.6978,-153.8606,-46.0240,21.6194,-83.4106,-119.1240,-340.9788,-233.4633,23.6861,-301.4199,-526.3618,-71.8867,190.3700,179.6012,-120.3517,-73.5278,973.8790,408.9288,518.9702,-118.1582
-2281.2500,-86.7308,-85.2004,166.0238,-50.3843,128.7021,166.9031,-55.9638,89.7229,126.1157,167.7093,126.7520,66.8974,183.9356,24.7234,-91.3609,81.0522,-506.1215,-155.6098,-220.4580,21.1050
-2273.4375,434.4816,83.6873,-130.7455,-57.1731,-20.0110,128.1483,163.2465,50.1234,-316.3153,-17.9635,51.0595,-83.1270,-257.3808,22.0499,52.8403,28.7259,49.1205,13.0634,18.3327,-91.4342
-2265.6250,-431.5315,-430.6130,178.3572,-149.1221,-5.8685,-261.7883,-410.7168,-228.6425,470.1705,-223.7995,-411.8351,-143.3133,567.2131,184.2430,-226.1322,-66.9134,873.2635,274.6105,456.0080,-77.1179
-2257.8125,319.8229,215.4546,113.7610,-65.7678,113.5818,188.5992,149.6600,110.9199,-144.0981,152.6878,627.6553,-23.1628,-119.9700,-64.2841,150.2004,27.0102,-802.4061,-345.6014,-480.0834,6.5099
-2250.0000,35.6170,-70.0338,-30.4069,37.0463,-140.5486,-176.5850,-287.5536,-253.0935,5.0944,-358.4092,-252.4734,-240.5751,141.2922,159.6575,-141.0229,-113.7634,988.5042,354.6907,466.3472,-137.4201
-2242.1875,-304.1782,-128.0809,305.8961,-22.6971,85.7944,-61.3022,-246.2997,-64.6405,304.7752,13.9708,46.8668,-124.5420,442.0184,18.0409,-171.7830,-14.6783,-91.2218,-20.5974,-49.8172,15.1112
-2234.3750,368.6775,227.5013,-53.2251,-51.8325,-16.2841,57.6105,55.5655,54.4342,-310.9975,22.9602,238.8390,-153.9156,-136.7494,-46.9751,93.0714,-0.5913,-156.3487,-14.3044,-79.3819,-49.7489
-2226.5625,-363.6840,-329.1329,138.5216,-117.1358,-82.5150,-338.6587,-487.7581,-230.6657,395.1379,-263.2182,-488.3807,-219.4653,607.3885,107.8828,-303.2483,-104.2999,1011.4548,449.8862,595.9544,-78.7508
-2218.7500,215.1123,178.3771,113.3738,-65.3392,39.3738,77.2046,112.0668,147.3663,2.3342,188.7462,479.5875,-25.9072,105.5601,-211.1793,75.5339,-12.4095,-872.7725,-236.8841,-336.6851,43.3621
-2210.9375,79.4661,-27.5616,-170.2436,-59.9879,-206.2162,-241.4131,-207.5961,-135.0600,-21.9303,-239.7642,-280.9432,-161.8161,155.2592,20.3175,12.8741,-115.4416,680.6638,400.9424,548.2867,-91.9777
-2203.1250,-466.4234,-256.7054,172.9622,-112.8423,-10.9844,-193.2385,-232.4585,-49.6793,431.6485,-8.4531,-158.6652,-111.9306,572.7890,-4.3920,-84.9775,-38.5898,-42.1545,136.5538,319.0284,30.4911
-2195.3125,332.4613,189.9079,-129.1479,-88.9697,-56.0659,128.6628,310.4024,163.4270,-275.1422,130.5751,310.3636,-121.3428,-169.0791,-158.4084,163.8785,16.9680,-649.3026,-84.1585,28.4310,-14.3358
-2187.5000,-387.8683,-389.6698,-32.4035,-105.2375,-180.3058,-288.6157,-290.9393,-181.6441,336.9603,-213.5787,-584.8255,-281.9283,516.9478,47.4504,-217.4258,-88.5091,916.5145,498.0303,891.7343,-101.3115
-2179.6875,-10.9704,-13.0075,62.5602,-79.2996,25.6762,173.3330,170.9508,208.5067,64.2439,286.4960,245.2707,-113.3031,135.1297,-224.5089,134.4814,52.7453,-886.5891,-213.6373,-66.8451,30.9248
-2171.8750,210.6613,-37.6284,-250.7884,-68.6463,-178.6633,5.9658,40.5100,-31.6561,-139.8085,-138.7551,-288.9563,-207.9830,-31.0317,-23.7527,4.0801,-48.3752,390.1094,254.4252,577.3088,-99.1435
-2164.0625,-430.9117,-327.4226,65.7383,-78.1568,-45.1326,-117.5679,-230.0891,-45.9792,436.0454,-5.1560,-376.3384,-111.8185,544.7130,35.8608,-302.4801,-1.9956,240.6428,139.3313,463.3019,-2.3481
-2156.2500,423.8954,210.1464,-180.4501,3.6428,-34.3068,261.2297,331.6319,260.0237,-251.8704,263.7644,332.6495,-28.3347,-251.3400,-173.2398,111.2753,80.6402,-874.5967,-270.5047,-228.4551,8.7626
-2148.4375,-233.2872,-307.2657,-166.5980,-56.5110,-202.4533,-274.9587,-277.6477,-92.9419,315.2959,-163.2882,-644.3801,-196.8218,352.6797,61.7279,-130.9284,-49.4098,930.3378,372.7750,661.9062,-86.0791
-2140.6250,-54.9639,11.8447,14.7696,-87.1664,51.9295,15.3802,86.6118,198.6295,238.9614,313.2108,161.1514,-16.8092,167.1732,-160.8232,160.3721,59.7173,-754.3561,-255.4961,-248.2988,58.5857
-2132.8125,374.9841,195.5738,-264.2858,-45.2090,-155.1159,-43.6692,137.4723,65.8188,-187.8165,-3.6888,-81.7324,-113.2037,-184.8027,-73.7660,175.2730,-21.5308,97.6091,67.8511,146.1246,-74.1546
-2125.0000,-403.3428,-230.9413,94.4853,-50.4687,-52.3440,-271.9381,-310.8863,-89.1987,466.2689,-48.7920,-456.8561,-47.8139,506.0704,29.1025,-163.0341,-42.2952,444.3929,170.0163,317.3651,-8.0895
-2117.1875,421.1098,346.3021,-40.0562,-69.0204,33.1328,144.5342,251.4929,217.5072,-219.0065,220.8237,400.7990,111.2944,-252.4555,-179.3416,289.3688,28.2139,-1018.2125,-342.1682,-475.7523,77.6837
-2109.3750,29.0463,-80.9877,-114.0982,-110.0673,-149.9078,-332.5207,-225.6739,-259.3206,111.2344,-329.1031,-444.1089,-36.1165,189.5237,77.7410,-41.7406,-160.8091,877.8179,392.2118,505.6971,-32.0500
-2101.5625,-68.9327,31.8233,144.9828,-67.0125,71.1806,-37.4605,-4.7172,-1.0362,259.5917,75.0972,182.1273,111.5730,228.6035,-67.0847,-39.7278,-35.7179,-557.1544,-127.3464,-225.8186,116.3283
-2093.7500,388.5945,349.1308,-254.5004,38.5098,-107.2930,113.0586,257.6837,40.6962,-285.6644,6.7331,112.8206,42.7183,-353.9464,-63.4597,110.7472,-14.9095,-240.6354,48.5554,-84.8869,11.1580
-2085.9375,-557.7481,-245.3929,-67.7637,7.2272,-103.5555,-176.2561,-253.7441,-138.3965,453.3431,-135.4531,-654.3448,-27.9461,348.7658,161.3813,-141.6001,-12.7799,607.1509,369.6926,482.2718,15.1887
-2078.1250,162.9238,334.0955,-163.0753,-45.0987,20.1472,315.4230,348.8345,242.4895,-83.7511,282.3468,241.5244,243.3652,-333.6603,-154.8500,350.0157,73.2028,-1099.2406,-386.2805,-449.6995,103.1745
-2070.3125,-8.9614,91.0355,-335.9521,-77.9657,-188.7320,-116.4627,-120.1736,-115.1889,-0.3904,-184.4338,-593.2158,217.1125,-102.6645,112.3917,65.0746,-59.3092,663.9427,250.2488,468.8337,-33.3975
-2062.5000,-316.8805,28.9651,32.1934,-68.8354,69.4170,-3.3380,-117.1582,34.1400,296.0010,110.8116,-296.9286,401.8677,194.3399,40.6358,-115.8673,34.2273,-277.9519,-162.2551,-49.6785,116.0403
-2054.6875,419.5316,414.1940,-186.4266,69.5646,-3.1935,181.0559,288.1237,72.7387,-401.4187,1.3146,-39.3517,439.8781,-502.5126,-67.8791,178.4522,-11.5659,-385.6047,-234.5237,-226.9645,43.7306
-2046.8750,-427.1125,-186.6135,-4.0287,66.9576,-40.7988,-260.5939,-264.6360,-331.6867,296.2264,-329.2072,-811.8405,327.8657,232.6848,151.6232,-80.2370,-139.1961,948.8333,185.2435,508.7951,6.4221
-2039.0625,68.9828,239.3234,32.0791,36.0505,143.3159,143.4849,323.3620,71.6205,-70.4530,185.0107,181.4581,437.5646,-281.4921,-105.2010,324.8102,9.3983,-841.1591,-548.3610,-505.8257,116.8251
-2031.2500,94.8491,54.0136,-154.0839,-8.1000,-80.8534,-153.6960,136.0793,-151.3321,-74.3956,-222.0435,-446.5326,214.0020,-246.9630,74.7409,27.6330,-79.2842,626.7100,39.8111,293.3431,-33.0297
-2023.4375,-360.6787,-155.6560,209.4179,-76.6070,136.6448,-194.2197,-51.5522,-80.6165,400.3615,-6.4148,-302.8735,246.0948,264.2387,71.3304,-196.8989,-10.0593,135.1732,-169.3900,-21.8665,73.7701
-2015.6250,551.3146,333.1896,-12.6445,-10.6543,98.5850,98.7461,388.3040,64.5841,-335.4961,29.6907,320.2870,244.6488,-471.2209,-112.6461,316.0125,-35.9677,-535.9575,-453.1778,-481.6611,36.0219
-2007.8125,-154.9583,-266.2117,99.1040,-11.9082,26.3196,-377.5234,-272.0729,-374.4398,217.4996,-409.4328,-596.8300,97.9816,229.1568,182.2022,-13.2954,-168.6102,1115.8325,177.8844,396.4108,-35.9298
-2000.0000,126.8923,85.5191,239.9650,22.9437,240.1810,56.3383,198.6954,-13.3409,-45.4154,61.5776,279.2304,275.4334,-107.4120,-80.8623,274.5010,-37.9415,-678.4022,-490.0127,-552.5005,105.2274
-1992.1875,269.8426,87.3322,-119.1457,25.8622,-7.9421,-44.7518,171.4906,-151.2028,-294.3220,-222.3928,-152.6808,99.9317,-318.0041,38.1416,246.3642,-92.0028,379.5016,-29.8347,117.6686,-32.5753
-1984.3750,-444.2562,-309.8730,123.7573,-91.2273,87.9551,-168.8553,-64.7211,-128.0753,352.8309,-54.3626,-276.6137,48.4237,292.4469,60.1496,-25.7512,-32.6192,297.3995,-6.6636,247.8253,26.6241
-1976.5625,403.4611,255.7390,-56.6023,-87.5479,164.6000,238.8288,564.8568,205.8309,-341.3296,207.4418,462.2751,88.6831,-512.4632,-156.0997,198.9095,65.7047,-824.0282,-423.7896,-346.3282,30.5796
-1968.7500,-215.0222,-255.8339,-71.1114,-72.0135,2.0789,-181.6712,-2.7620,-177.4407,158.3942,-211.9360,-546.0673,-37.2268,24.4944,159.5300,-293.5749,-25.2955,914.5299,294.9953,619.4232,-94.6228
-1960.9375,-99.4973,-71.3862,117.3949,-27.4738,228.5878,117.8521,296.6490,122.3094,126.1213,234.7192,194.6432,150.8901,-116.5732,-56.8619,4.9560,86.1592,-658.0267,-328.2768,-284.9028,21.1816
-1953.1250,377.7890,159.7982,-150.4166,63.7796,33.7778,71.0735,286.7532,38.7638,-324.5011,-32.9294,74.0584,29.7128,-568.0228,-66.5551,252.1654,-8.0961,65.1867,-61.8316,-19.5175,-99.3212
-1945.3125,-315.1374,-252.1919,152.6521,72.8723,115.8434,-177.8787,-219.3133,-136.9419,308.7907,-135.7306,-284.7166,1.3812,138.4247,15.6101,-144.8144,-56.4759,638.2853,124.4826,236.7345,-53.9760
-1937.5000,455.4038,378.2759,109.1209,176.3739,220.3198,220.6115,325.0735,188.7855,-395.5756,226.9047,628.9920,68.4771,-528.8386,-210.8429,143.6135,52.8310,-807.3202,-405.8646,-644.6807,13.7753
-1929.6875,-19.4814,-26.6817,23.1885,193.4752,-13.6213,-160.3262,-202.9799,-154.9057,-114.3283,-262.8982,-229.7672,-91.8433,-173.5138,107.3264,-200.3438,-46.7601,969.8043,280.4428,287.5707,-108.8803
-1921.8750,-113.1317,20.6151,251.5317,170.8228,177.7198,68.0006,-11.7541,36.6653,77.1873,110.5763,328.7549,98.0973,-55.9506,-33.2662,-119.0244,38.5378,-319.9192,-235.0405,-438.9853,8.7184
-1914.0625,644.6873,390.3560,-19.7460,259.5881,16.4432,127.7534,231.8896,22.6406,-524.9603,-49.5489,425.6895,84.4369,-621.0844,-46.4597,-22.2941,-12.3003,-127.2167,-147.1178,-385.1452,-78.2943
-1906.2500,-193.4060,-96.7961,241.1493,194.5007,21.3277,-235.3698,-315.3506,-266.2509,178.1040,-265.5415,-268.2859,14.9123,154.9833,104.5097,-385.4285,-96.5622,829.7046,245.9926,182.8803,-37.1632
-1898.4375,388.0157,415.5677,220.4961,177.8702,146.6866,184.0024,288.9154,153.3422,-357.4297,227.9584,630.2734,139.8598,-453.5885,-173.0955,180.8969,48.0266,-876.0529,-402.5147,-782.7325,52.4210
-1890.6250,251.1823,102.6884,-25.4125,147.0001,-98.2218,-97.8909,-31.0962,-128.3368,-235.2227,-201.8293,-167.4669,-68.4429,-294.4373,59.0682,8.9565,-51.8637,676.0685,234.7742,100.4561,-119.2605
-1882.8125,-46.2810,-123.8016,211.1161,61.5265,100.3069,100.6235,-15.6885,34.3851,147.4224,107.7992,142.2125,19.6623,14.1301,37.6277,-86.5841,66.2577,-218.4746,-131.5739,-337.0019,6.4614
-1875.0000,607.9888,284.4125,-59.7196,81.7239,50.4754,308.8217,412.3870,131.7761,-490.3620,95.0888,460.5836,42.4280,-623.7651,-49.1724,195.5467,64.8010,-479.3830,-252.2963,-526.8436,-43.1686
-1867.1875,-316.2457,-253.8664,114.0068,1.4655,40.1904,-106.4669,-186.0280,-172.3074,198.4584,-172.0964,-431.5666,-115.2695,137.9387,161.5977,-182.7667,-4.2911,882.3612,229.5693,270.9041,-53.2554
-1859.3750,171.2245,234.5532,141.3979,-3.1350,215.5854,289.9254,356.2575,297.2827,-141.0989,370.3963,515.0105,22.7071,-311.7752,-141.0059,65.5849,157.6697,-916.3683,-441.9742,-717.7855,48.3109
-1851.5625,253.7616,70.0329,-170.1741,44.3399,-22.9940,88.3603,118.5587,95.9082,-232.6344,-15.0914,-127.4088,-142.2732,-329.4806,98.4627,-99.0136,97.3884,432.0663,131.5788,31.6194,-116.0859
-1843.7500,-397.2637,-229.0084,136.7770,-8.6911,136.9538,27.2968,-126.6417,145.0240,294.3810,181.9268,-78.3463,-56.7474,160.3517,110.4358,-159.0917,158.1780,-8.0259,-27.3747,-196.5028,7.0172
-1835.9375,388.8859,346.1148,-72.1934,38.3917,75.9995,296.3713,326.3079,341.2625,-391.5674,304.0640,559.8730,28.8941,-562.8270,-61.5045,292.9482,169.5796,-840.0740,-366.2668,-712.5732,19.2178
-1828.1250,-279.4683,-147.2504,3.3839,38.0163,-70.4180,-216.0354,-333.2189,-134.9723,161.0907,-208.2798,-394.4436,-43.9215,100.5839,198.1266,-36.4933,-16.8638,848.5494,301.4408,201.9764,-16.0419
-1820.3125,113.9522,246.1594,113.7180,115.3913,113.9446,114.3466,33.0554,122.5738,-58.5058,196.1728,451.0586,140.0377,-156.3023,-58.5049,220.8148,49.8797,-764.2124,-324.1756,-705.8036,131.4543
-1812.5000,484.3983,300.5843,-153.9668,203.7711,-117.7229,-43.2654,23.3213,-71.8782,-363.1441,-145.3841,183.5389,-18.0036,-425.2577,3.8676,100.1557,-63.2374,310.1082,80.2304,-159.5522,-26.0616
-1804.6875,-220.7332,-88.5236,134.8725,131.6376,-48.8660,-231.3943,-274.9171,-111.8360,329.7883,-76.4430,-5.5222,-23.5489,231.3385,35.7487,-270.9782,-50.4453,413.9279,79.1412,-21.7979,42.9145
-1796.8750,488.1805,480.3955,-44.3463,137.4658,-44.0587,176.4669,279.8396,222.1843,-364.3985,221.4765,771.4402,90.8857,-536.2266,-143.4398,209.8467,54.7935,-847.3895,-407.0533,-719.1578,83.8393
-1789.0625,-145.5757,-47.3627,-77.2193,66.6516,-222.9168,-222.3511,-340.1007,-176.4714,44.7916,-214.2912,-179.3207,-89.3423,-18.4295,154.7520,31.0038,-59.8340,876.7767,295.1573,264.8892,-21.8953
-1781.2500,-96.2237,107.0025,153.0244,9.9438,42.3621,153.9535,-73.9052,125.9874,53.0922,235.0673,417.0741,29.5539,-45.5521,-19.9779,186.2600,82.9178,-623.0675,-288.5886,-530.0472,97.4782
-1773.4375,487.0838,267.3123,-187.8459,65.1564,-78.4800,217.1655,61.1957,115.3413,-434.7664,4.3137,223.3786,-91.6367,-497.8675,6.1936,249.4231,46.4654,-75.9574,-58.4292,-194.0795,-23.2558
-1765.6250,-347.8820,-249.6138,40.1124,5.1607,3.4919,-69.8535,-333.9206,-96.5247,272.2360,-97.6518,-282.5651,-84.0331,244.6760,161.1746,-145.6064,14.7695,567.9934,162.5477,237.6972,21.8070
-1757.8125,324.5789,386.8719,-32.5828,79.5278,114.8226,336.5143,254.3636,234.9915,-315.4713,307.7695,673.9265,63.9481,-416.5348,-94.5173,148.7467,119.1069,-976.8212,-395.1936,-673.2565,96.2266
-1750.0000,-69.1104,63.1892,-144.4381,71.7471,-107.0210,-69.3026,-187.5383,-59.6662,-96.3215,-134.9944,-208.7993,-158.2340,-87.8973,124.6615,-183.0423,15.0431,775.3498,300.9729,304.6966,-51.5150
-1742.1875,-221.6777,86.6436,131.8796,-10.8899,95.3287,96.0480,-95.2510,142.8426,143.0149,214.4243,286.6515,-30.2656,76.9026,-77.0254,-90.6756,74.9849,-432.4228,-168.7497,-306.2552,76.8920
-1734.3750,474.3040,396.6364,-165.3183,18.0030,-55.8363,202.9392,157.5563,138.8679,-449.2163,64.3486,393.6215,-33.7889,-514.9006,-118.2051,309.1897,13.1354,-333.6796,-139.9787,-312.7179,-0.2102
-1726.5625,-385.0867,-216.7097,74.1952,2.5931,-109.2924,-181.4907,-410.9737,-171.4250,232.3122,-136.0408,-321.7707,-51.6225,276.0485,195.3346,-185.2617,-12.2246,740.8395,265.5309,338.5572,19.3786
-1718.7500,248.4884,311.9037,69.6179,73.0971,33.1697,255.0218,136.4489,228.2159,-249.3131,300.5042,629.8270,128.4782,-316.1905,-65.2471,67.1949,117.7230,-947.8738,-402.1296,-575.3532,125.8718
-1710.9375,166.2762,87.7116,-192.7663,95.7990,-229.1892,-45.2855,-163.9569,-34.9718,-218.7429,-110.7903,-148.4323,-99.2223,-250.2597,111.3794,-49.1407,11.4338,622.7441,218.4529,326.9934,-27.4468
-1703.1250,-311.3308,-37.8416,73.5284,5.1396,-71.8716,-34.9458,-153.6936,122.4903,305.5323,230.5811,44.9635,-52.2496,126.3470,-25.3494,-74.8214,85.6199,-171.0459,-118.3428,-11.0463,92.8855
-1695.3125,412.5879,370.1201,-196.7452,25.9505,-159.1247,208.8825,347.0454,293.4204,-295.8121,291.4176,436.8565,-102.8008,-549.7098,-111.6311,167.9474,127.7023,-608.4090,-273.7146,-236.6701,42.6639
-1687.5000,-359.6575,-332.0604,-83.1096,-43.3396,-228.4782,-154.4196,-236.3622,-70.7771,369.7940,-72.8764,-441.4341,-208.4563,189.1837,186.0159,-305.3868,46.4457,835.2276,359.8662,607.6580,-26.6647
-1679.6875,-27.3717,106.3052,4.0425,43.8762,4.6905,373.8091,217.7760,311.5550,-22.1187,382.3675,417.8488,-12.5778,-201.4729,-57.8593,1.8017,194.1800,-942.7647,-256.1224,-395.6020,60.5104
-1671.8750,49.7909,77.5362,-238.9660,84.9585,-165.3227,203.8730,10.7405,30.7126,-228.2045,-44.5698,-194.0562,-145.8421,-299.3212,103.1204,-57.1440,74.4122,400.2021,276.7720,313.0282,-109.4799
-1664.0625,-526.3428,-252.5034,148.8039,0.7790,75.4486,76.6644,-189.5443,-22.3919,306.5264,12.2356,-246.2259,-89.3602,270.6443,85.8403,-184.3271,59.2699,174.9045,192.4029,193.3802,-52.7234
-1656.2500,312.2498,305.1576,-38.7437,66.3171,145.8965,367.1491,357.8519,194.1838,-395.0639,191.7104,374.2585,-56.1699,-468.7365,-138.7252,216.1717,86.7956,-709.5690,-165.2345,-339.5165,-93.2811
-1648.4375,-384.6612,-251.6591,9.2806,2.4016,9.9070,-172.8144,-182.2083,-161.6903,203.9450,-201.2480,-569.7251,-192.4204,203.4765,93.2624,-213.7623,-32.2663,985.4727,474.6664,581.1111,-192.2869
-1640.6250,-129.4663,110.6190,159.3296,-23.4685,232.9866,124.3078,188.8556,172.5044,95.9633,279.8557,241.3844,-42.6045,21.6750,-160.7204,-63.6185,83.1720,-658.5112,-183.4245,-359.2554,-42.2530
-1632.8125,317.5815,240.7613,-140.7183,36.5579,-30.0522,-28.6917,145.7703,19.5722,-241.0842,-57.1703,-94.6782,-85.8905,-278.2118,-56.7802,-32.5922,-18.3508,245.5413,156.4291,86.3533,-158.3281
-1625.0000,-382.8702,-214.5811,152.7436,-31.9234,42.4476,-249.1633,-258.7565,-165.8372,420.3742,-131.6608,-389.1938,-13.6635,417.4001,89.6396,-253.0148,-59.1545,493.9404,193.7305,264.3777,-85.9056
-1617.1875,394.2053,317.5961,7.6825,7.1073,81.4297,156.8715,294.2226,131.2469,-275.6978,165.3316,457.7620,136.0670,-279.5442,-129.4318,226.0303,15.7999,-804.0668,-329.4445,-541.0507,-47.0024
-1609.3750,-125.4366,-131.9072,-54.0001,15.4868,-126.2276,-271.7518,-281.4682,-187.3283,67.6361,-263.3262,-484.9711,-72.8476,172.9115,177.8565,-91.5782,-63.0480,963.2887,381.7369,450.8791,-144.7519
-1601.5625,-162.5745,6.0818,194.7522,12.3179,121.5862,-23.8914,40.3667,97.5672,168.3781,168.4879,129.8027,64.7036,162.7586,-52.4232,-64.6948,49.5648,-412.0154,-184.6810,-255.8037,-7.0585
-1593.7500,330.9158,254.6880,-129.8497,49.8107,-54.9722,56.5936,304.7989,105.0862,-265.2179,27.9152,100.1584,-75.0878,-345.7405,-119.0369,15.8060,8.2004,-23.5203,-42.3990,-8.7550,-110.7230
-1585.9375,-536.0958,-331.1971,27.0605,-79.2059,-45.0056,-190.4073,-127.2320,-105.8780,479.7024,-109.1239,-514.9370,-102.3634,399.2843,74.8237,-267.1554,-20.1305,657.3431,250.3341,460.7171,-63.8830
-1578.1250,150.9892,181.0036,-102.9962,-95.1618,44.9993,303.6464,404.8030,279.2033,-128.3855,311.8722,421.0215,97.4215,-246.7064,-92.2697,189.9266,128.2239,-976.6909,-362.8702,-434.7421,25.9945
-1570.3125,-87.4382,-128.2825,-236.4752,-87.5590,-162.4478,-49.7745,-59.6599,-112.1833,68.1172,-225.5944,-374.5222,-72.2351,21.8986,142.2004,19.5576,-39.9277,718.8898,312.5008,451.3694,-107.5808
-1562.5000,-352.9136,-147.6242,139.9455,-106.0516,68.0332,32.7379,-51.1513,-29.6537,371.4750,40.8607,75.8935,84.0282,288.3679,40.5485,29.1105,-2.6405,-320.7462,-93.2806,-95.6980,48.7408
-1554.6875,369.9005,258.3234,-130.3361,17.7691,-55.2060,167.5229,230.6144,32.1475,-302.8748,-8.4228,320.5464,33.6013,-312.8763,-82.7807,273.9021,-35.2465,-335.9157,-110.7124,-218.3829,-37.6465
-1546.8750,-356.2731,-291.6836,67.4624,-5.3671,-115.3675,-259.6325,-343.5451,-247.9969,372.8425,-251.6348,-437.7265,-99.7599,397.9610,77.9293,-154.2342,-116.0541,836.8734,393.8756,461.9260,-60.9794
-1539.0625,210.3591,205.0890,66.9927,34.2559,68.2197,142.9812,207.0872,191.6151,-33.7516,261.9034,443.7687,46.6351,-81.5215,-216.6190,29.3766,39.3481,-848.5767,-269.7920,-520.0168,48.4252
-1531.2500,100.9311,24.8159,-151.4577,-5.1164,-187.2034,-185.4223,-84.3288,-62.7948,-67.3112,-177.5789,-251.7967,-24.9685,-43.9696,5.8502,-78.0361,-65.7252,661.0681,323.5816,320.0933,-96.1722
-1523.4375,-301.0101,-130.9781,159.5424,-91.0372,-23.1514,-204.3380,-177.2224,-46.7296,390.5485,23.4233,-125.8444,101.8956,375.9946,22.7489,-61.9597,-26.6508,12.0142,61.3515,-48.4293,-6.3208
-1515.6250,430.7095,285.8813,-65.8213,-26.2913,-64.4810,121.3845,221.4988,132.9652,-312.9708,92.0414,347.7104,97.4208,-291.4376,-129.6905,264.7449,-1.4057,-556.2480,-121.1853,-406.2240,-47.8344
-1507.8125,-404.9613,-339.6239,53.4900,-88.9073,-129.1457,-310.2432,-320.1262,-261.6869,321.1895,-302.6702,-526.0779,-77.3925,451.8120,137.5164,-130.8834,-112.4310,928.0814,484.9128,480.5988,-75.6937
-1500.0000,-69.9769,31.5037,178.3799,-103.9174,106.7968,71.7522,208.8988,83.2755,77.8981,152.2267,370.7634,10.4095,134.5901,-104.6877,178.0858,10.6539,-776.0211,-234.4079,-414.9953,49.0401
-1492.1875,153.6467,-61.7149,-97.0139,-128.2259,-95.5781,-93.5772,117.5641,-119.0799,-87.6530,-196.1886,-125.7712,-155.0896,-31.9067,22.8306,49.7128,-80.5372,396.7029,199.0185,300.1815,-79.5263
-1484.3750,-421.2700,-460.4662,180.0503,-245.0903,71.5219,-183.4274,-84.2640,-171.9453,483.2315,-139.1084,-288.8001,-99.1205,575.0182,42.7749,-187.1672,-79.5307,243.7217,150.8388,321.7320,13.3648
-1476.5625,370.3787,84.3362,-95.3591,-192.3971,90.1379,276.2657,414.4473,103.7277,-195.3602,99.4967,317.6749,-5.5916,-178.5696,-157.7130,236.4865,-6.3330,-793.5908,-182.7519,-258.1003,-4.2028
-1468.7500,-342.3770,-416.2436,-136.0955,-167.0606,-60.5910,-95.4018,-142.2095,-266.9532,277.7529,-308.2384,-642.2187,-194.4029,403.5242,167.4514,-173.1989,-83.8214,850.7281,582.3063,716.7151,-119.1134
-1460.9375,-293.1304,-191.8326,93.0983,-151.7740,205.6349,207.9125,235.1387,35.3350,249.7663,140.9975,174.8845,-38.2468,300.4958,-81.4513,-16.9123,23.9690,-754.0732,-38.7163,-114.5589,-0.0786
-1453.1250,111.7140,2.1907,-176.0508,-98.8266,46.4805,48.8537,260.0678,-49.7467,-167.5428,-128.1423,-21.4360,-160.4350,-79.8761,-55.6787,154.9840,-60.9715,2.9309,261.9615,255.9002,-122.3984
-1445.3125,-502.6502,-364.9728,98.6133,-116.0845,137.1563,-227.3793,-201.1613,-253.0113,474.9543,-184.4514,-370.9075,-143.8074,597.5534,-2.1250,-85.2763,-131.4023,408.5961,385.3924,450.0858,-68.9126
-1437.5000,345.2183,271.0733,25.4613,28.8718,211.0170,139.5837,276.8024,77.9080,-223.3825,109.4100,473.7936,4.0261,-137.8628,-222.3613,246.6578,-45.2243,-924.4421,-173.9554,-391.4850,4.7613
-1429.6875,-73.2297,-182.1790,-38.9137,32.5709,-37.3672,-254.7181,-264.5175,-280.4419,79.0975,-321.9841,-398.7971,-134.3914,236.5385,43.1590,-75.6596,-155.1716,839.2993,463.4579,561.7087,-96.8141
-1421.8750,-183.1981,-114.9524,207.1415,-7.2878,171.7225,-46.5425,-56.3089,1.6735,215.0047,108.0894,140.1093,38.6517,334.3684,-150.8949,-13.4937,-37.1004,-431.6127,-69.7198,-146.6991,39.0496
-1414.0625,363.8297,150.2917,-99.7584,47.9054,12.8421,51.6510,152.8984,26.8067,-312.0040,-14.8250,201.9799,-10.2534,-192.7116,-127.8777,121.6842,-44.9525,-166.3165,20.2102,-21.9653,-47.0523
-1406.2500,-387.9140,-319.2145,106.6071,-34.6549,-38.7646,-255.8859,-375.6205,-170.7945,335.2568,-175.4600,-400.8713,-24.8938,489.5075,78.3731,-222.8587,-73.7288,666.1042,324.3501,456.9496,-24.8988
-1398.4375,328.3958,256.2981,42.9474,12.7902,81.6157,157.5832,147.8747,168.5985,-242.5302,237.8899,454.2804,95.4788,-89.3068,-131.3746,153.5830,45.5090,-904.4315,-331.5038,-480.1169,58.2431
-1390.6250,85.7926,-128.0883,-131.5387,-18.6221,-92.8571,-163.8323,-209.5299,-115.8851,-124.1122,-193.6307,-345.4670,-78.9950,139.1105,135.0427,-167.8385,-34.3685,752.2471,269.8157,438.0063,-79.4626
-1382.8125,-253.0239,-254.6965,170.7173,-76.2957,135.4469,-45.4746,-91.1108,2.3929,215.0326,71.6165,29.5942,2.2996,403.2698,32.1822,-158.4659,27.4882,-149.4606,-104.1621,-43.1845,38.5798
-1375.0000,525.6257,207.1714,-78.5457,-35.4657,70.2205,147.3563,247.7695,48.1443,-438.3140,6.3280,332.0754,11.1019,-288.0581,-107.1590,217.3892,-30.1824,-354.5188,-205.5830,-213.7868,-26.8902
-1367.1875,-302.8743,-304.0783,49.1017,-54.7445,-22.0841,-238.9027,-322.4285,-265.1977,240.2769,-270.0361,-496.5318,-45.1863,426.5680,94.3825,-169.8173,-118.0604,857.2228,302.8737,505.4686,-46.4550
-1359.3750,164.6256,198.6480,55.6707,-9.0717,131.5594,207.7980,198.3635,108.4088,-157.2301,213.5391,391.8297,144.4851,-45.8909,-119.1391,93.9214,32.5803,-856.0781,-389.7235,-433.3200,69.9201
-1351.5625,205.0634,28.3219,-189.7389,31.5911,-114.8035,-74.5310,-46.8942,-101.0139,-218.6888,-214.9085,-220.8680,-26.8462,-72.2837,75.3563,-78.3839,-59.8933,591.7271,142.7155,379.9599,-65.7075
-1343.7500,-262.9160,-228.4303,161.4092,-15.2039,53.4139,-126.2759,-172.5375,-79.8634,279.3755,-48.7729,-90.9489,-6.6125,388.8604,22.3783,-130.1072,-40.5241,87.9314,-45.3533,121.7089,28.2144
-1335.9375,546.6048,264.3016,-56.9528,56.5166,19.1013,169.4682,270.2766,69.7693,-417.0853,27.8360,462.4184,33.1339,-271.5134,-122.0748,239.6331,-33.7656,-544.2280,-324.8856,-333.9691,-6.3736
-1328.1250,-200.0741,-271.1419,46.5570,13.0854,-61.3518,-167.9360,-360.0697,-340.7493,127.3418,-382.6926,-463.3644,-84.2560,383.0161,165.3207,-171.7577,-142.9742,960.4031,299.4109,536.1738,-50.1013
-1320.3125,25.2597,25.4036,167.9907,28.6043,170.1453,247.6248,54.5796,36.6866,-81.3338,142.7283,282.8469,37.3199,98.4432,-80.3446,96.8300,22.5459,-677.0613,-318.3763,-397.7563,71.1184
-1312.5000,141.8391,1.2078,-144.2695,145.4242,-68.0834,119.4479,-0.5328,-54.6102,-320.6678,-133.5848,-249.7123,-90.7990,-141.7752,47.3114,115.6928,-6.0086,424.9033,114.1818,174.6885,-94.3593
-1304.6875,-446.8799,-270.2696,156.1725,118.9346,11.4165,-59.0048,-323.8906,-158.1931,309.6930,-127.1699,-428.5139,98.7992,451.7225,126.6427,-171.6996,-29.6247,433.4157,52.3932,148.7570,-15.1264
-1296.8750,453.7618,384.6006,-8.0574,140.7981,68.2395,292.8768,173.0812,44.5558,-405.6176,39.5679,289.9902,376.7557,-263.4452,-73.6668,68.2357,-17.3433,-670.6084,-383.0086,-498.7578,41.4469
-1289.0625,-269.9517,-233.8681,-26.5629,85.3543,-98.2334,-130.5536,-322.2714,-304.0020,53.8157,-382.9866,-721.8226,284.4239,267.1612,274.7208,-281.1361,-85.1821,998.0468,299.2897,465.4279,-14.2739
-1281.2500,-386.2651,-172.9576,139.2614,75.2543,141.6572,219.3868,26.7883,8.8009,71.5559,75.8144,-115.2423,413.4521,175.0892,109.4387,67.8601,70.1119,-524.0220,-273.0865,-353.0674,151.3479
-1273.4375,46.7091,-22.7470,-210.5545,121.5080,-62.1207,162.6386,154.1429,-49.0831,-351.3168,-126.0727,-208.3976,283.8315,-249.5766,126.5281,233.1652,11.2834,119.4127,-17.0568,8.8809,21.3116
-1265.6250,-612.9704,-506.1777,91.9873,60.1067,20.4770,-85.7339,-241.1089,-223.5976,318.1604,-191.5759,-605.1467,182.5715,457.1273,208.9448,-125.1416,-25.2158,586.0458,203.2701,369.1086,29.6349
-1257.8125,196.9731,58.9895,18.0998,97.3123,167.6518,319.4817,384.2376,107.4740,-268.7953,139.4943,277.6654,219.9125,-205.5854,-121.0247,168.1371,39.6298,-819.6233,-322.7697,-438.0069,66.5463
-1250.0000,-179.5646,-317.2975,-38.1641,37.1054,1.4293,-105.7236,-76.8499,-242.8734,4.9111,-321.8401,-587.9623,52.8607,178.3846,115.6141,-182.0040,-88.1208,880.3367,355.8043,556.5072,-63.9359
-1242.1875,-321.1458,-212.6425,211.4570,-34.2104,214.1211,34.0006,63.0290,-30.2972,217.4709,74.7519,-44.6251,155.7277,317.2176,-2.8771,-78.2148,13.0484,-351.9256,-172.7707,-77.1413,75.4847
-1234.3750,301.4411,128.1814,-89.7274,26.6772,60.9826,137.8862,241.0403,36.4462,-339.7557,-42.4938,58.8355,112.7998,-278.7142,-46.1425,61.7369,-4.7559,-149.8243,-43.0897,-17.4992,-4.9017
-1226.5625,-477.8858,-404.8933,125.2113,-14.3441,-19.0344,-235.1147,-315.8289,-226.6951,389.1326,-231.6097,-572.5583,33.9977,449.4870,131.6770,-275.1855,-72.9472,793.2385,338.6421,574.1765,-11.1738
-1218.7500,194.3364,92.5553,90.6277,25.1406,130.4324,170.3908,273.8183,142.6607,-123.5403,210.7627,384.5558,109.7066,-173.8581,-197.0019,241.3801,22.1665,-855.1656,-325.1228,-370.6243,64.0502
-1210.9375,47.1384,-160.4014,-95.2834,-15.7276,-92.4645,-197.4911,-95.9433,-117.3574,-52.5099,-231.2320,-351.7393,-75.9402,7.5231,-15.0154,19.5708,-95.2625,722.1663,301.8012,502.2763,-48.0696
-1203.1250,-310.2210,-235.5269,223.5982,-126.8012,79.4568,-136.5474,-106.8501,17.4482,340.2894,86.6000,-34.1682,22.2276,325.6965,-63.2511,-139.3968,-0.1058,-127.8481,-21.5311,73.9037,86.6182
-1195.3125,408.6111,236.5349,-88.3340,-76.6683,-12.4564,102.5728,242.3905,183.4207,-302.7215,178.5941,351.5425,41.6113,-391.9243,-192.2650,172.7971,28.0960,-499.5154,-146.6113,-157.1854,31.5034
-1187.5000,-337.4458,-368.2740,51.9031,-153.3951,-128.2056,-345.1514,-315.2150,-116.4527,388.4476,-121.2431,-463.5807,-38.8414,298.6590,57.8599,-163.8373,-51.4690,795.8749,303.4350,609.8387,24.5536
-1179.6875,112.8496,82.2390,75.4159,-88.8258,6.3427,82.4368,186.5094,237.9733,8.8648,343.2144,478.6113,170.0187,-154.4928,-174.7231,116.8254,78.5369,-899.4355,-406.2216,-381.8305,158.8987
-1171.8750,189.1705,17.8026,-168.9543,-14.1579,-240.0245,-124.9068,-59.7270,28.4701,-126.5748,-50.2544,-134.1678,34.9822,-254.4729,19.8114,-55.4508,0.2970,443.4618,126.2616,362.6752,23.3451
-1164.0625,-356.8405,-246.9708,138.3257,-66.8535,-78.7123,-148.5712,-191.2514,78.6446,400.6153,147.9655,-194.2328,11.6018,236.2018,-3.0303,-187.0398,63.4805,72.8451,2.3415,167.7605,110.4497
-1156.2500,499.7393,258.8271,-103.8101,-18.9453,-63.8291,160.3501,300.7998,277.4037,-282.6156,235.7652,407.2571,63.8114,-521.5309,-208.2522,267.9419,62.1529,-722.0478,-300.9297,-276.4702,88.1464
-1148.4375,-181.3316,-281.0162,-40.5298,-66.6538,-183.5389,-253.3300,-295.7563,-135.4281,259.5956,-177.0153,-447.8533,-92.5836,93.2003,75.9235,-108.6620,-56.6206,884.4059,355.1900,625.6877,5.2523
-1140.6250,-2.8922,72.6233,105.1785,-62.9181,71.2082,75.4540,106.1841,156.1952,73.2057,261.6547,432.5323,90.4862,-128.6553,-109.4647,73.2020,62.0342,-766.7475,-275.2605,-285.7271,113.8059
-1132.8125,223.6049,124.3299,-165.0035,22.9201,-125.9678,-10.6973,56.1479,-4.1217,-233.0573,-45.6126,87.9568,-32.3326,-362.3575,-12.7273,60.1190,-14.9049,199.3269,127.4395,187.0326,-46.5341
-1125.0000,-456.8218,-309.8781,149.8711,-25.1953,-31.0696,-172.7785,-252.8050,-93.3694,412.7073,-24.7959,-221.5006,-48.0774,319.0017,45.0364,-174.8901,-15.0897,327.2870,185.1339,279.7584,11.1911
-1117.1875,371.6811,271.8226,-14.3741,30.5925,62.7071,177.0222,355.1215,220.2639,-229.6654,215.8932,532.9140,9.0864,-359.7537,-229.2879,248.9670,33.0529,-848.7466,-323.2459,-438.5553,30.8090
-1109.3750,-200.9367,-230.5703,-94.6445,-49.6786,-91.5623,-233.2466,-202.0239,-154.1616,240.9578,-194.4618,-429.7502,-180.7968,147.5209,21.3437,-52.2265,-83.2886,866.1581,370.3299,571.0916,-49.6126
-1101.5625,-263.1546,-80.5811,129.4117,-75.6035,132.5237,25.8599,57.2378,179.7832,317.8854,285.5526,233.9825,-66.3174,113.1188,-122.6900,-12.0418,85.0101,-566.6860,-217.7817,-192.9554,100.3166
-1093.7500,244.7852,146.5664,-178.3359,-24.3249,-103.2267,85.1334,153.6365,201.9059,-210.9667,123.7402,182.8390,-118.6371,-379.0361,-64.5001,10.3051,84.6000,-23.1857,-26.6421,33.2869,-24.5568
-1085.9375,-457.0316,-344.0350,79.1755,-58.8100,-64.7082,-169.3203,-285.6794,-17.6998,451.4402,15.2141,-330.0009,-152.6932,320.0947,120.9217,-245.0610,54.1574,541.4095,185.6963,351.7102,-23.1700
-1078.1250,248.3438,220.5263,-32.1878,49.8531,7.9456,270.3727,302.1599,312.8364,-137.0504,344.8176,550.3019,-6.5885,-342.6490,-136.5000,231.7027,133.0021,-968.7886,-409.7992,-525.6777,49.3589
-1070.3125,-50.3400,-113.9534,-154.5324,32.5007,-187.4070,-109.9560,-188.0490,-67.6423,33.5042,-145.5789,-307.4317,-165.4803,-61.3165,108.0893,-37.5492,-6.4963,773.0400,311.7184,406.9626,-73.0997
-1062.5000,-281.9645,-98.3963,113.1104,-23.8674,42.2608,46.7398,-32.1941,88.9024,227.0145,195.0471,141.9065,-8.3574,130.9985,6.6503,-28.7708,82.2244,-338.2719,-131.8179,-211.4585,46.4497
-1054.6875,359.4431,261.1885,-205.2047,20.8213,-93.0504,169.4568,238.6591,211.4638,-422.4221,170.6891,264.2324,-32.1808,-481.6105,-17.7155,204.9997,110.4021,-328.3896,-157.2545,-202.7392,-14.9533
-1046.8750,-498.6275,-314.6797,-37.9511,-63.9479,-143.7906,-176.2587,-290.9081,-62.4081,260.7084,-66.0876,-485.8532,-47.4435,238.3745,187.4525,-104.6643,43.7979,712.9074,249.8197,451.4754,6.2062
-1039.0625,64.7082,178.8237,-39.3722,-25.3619,35.8082,224.3846,256.8989,303.0702,-182.8683,373.4775,503.4259,134.6498,-316.3323,-72.0348,260.0129,157.1995,-974.4299,-451.7487,-495.9423,113.7119
-1031.2500,20.0428,-6.6608,-191.7225,-36.7286,-188.5588,-74.9489,-115.3057,3.5750,-225.3531,-73.9239,-163.2924,-17.2022,-210.9279,142.5484,-2.2892,42.2588,564.3443,171.7650,338.7397,-1.7215
-1023.4375,-310.4186,-125.9578,155.0715,-49.9548,11.2480,-94.1117,-208.2932,56.2461,195.2847,126.8480,35.2170,73.1052,208.6106,85.2488,-205.4000,77.2740,-117.8886,-53.6275,-26.5007,125.0029
-1015.6250,515.0232,382.6319,-118.2462,72.7178,-42.0741,182.5939,215.5834,223.7887,-520.1803,183.4870,460.5745,57.3118,-542.9420,-41.1317,108.3543,102.0420,-593.0855,-247.0792,-361.7610,71.6213
-1007.8125,-344.0072,-229.2417,-21.9879,57.9317,-164.8370,-234.1481,-347.9958,-119.1053,91.9310,-159.2959,-398.4926,-101.9142,142.1050,203.0288,-88.3193,7.2625,834.1607,299.9815,467.4817,21.8058
-1000.0000,17.5750,167.4653,93.7953,32.6930,59.9431,138.6776,135.0036,216.5599,-196.4636,286.4757,563.0270,87.4183,-219.3382,-48.2666,211.5704,115.4827,-879.0734,-393.4279,-506.7405,137.5405
-992.1875,248.3974,187.4322,-136.1048,52.7548,-169.9962,-56.2226,-95.7582,-15.4938,-428.5185,-127.4685,73.7902,4.0545,-377.4226,123.7620,-20.2971,9.5295,372.0859,118.5045,181.3986,16.5822
-984.3750,-296.8040,-111.6168,171.9494,34.7628,-8.9588,-114.1331,-338.5152,-110.5663,137.3492,-76.4206,-58.4174,55.6553,224.4388,138.7137,-188.1906,-6.7422,178.0168,101.3241,57.4000,104.5841
-976.5625,474.0641,448.3818,-50.9640,102.8285,-11.8977,249.9933,173.7523,106.3897,-563.7593,140.6473,599.3859,127.3025,-550.6610,-47.2716,285.9364,43.7812,-774.8917,-253.7650,-507.4806,101.6284
-968.7500,-241.7524,-126.3005,-61.5028,90.2265,-204.4744,-125.5360,-386.6360,-196.2987,-59.4793,-235.9185,-402.4566,-65.6966,28.6505,237.0864,-90.5773,-18.2469,866.4809,402.4816,464.9708,19.0378
-960.9375,-91.1990,164.3501,91.2334,99.9109,21.2577,210.2572,59.3319,176.3268,-126.9612,246.8289,338.0563,87.6123,-185.7773,21.7343,25.2260,136.3437,-741.9299,-256.0011,-404.3068,134.7514
-953.1250,286.6132,261.2594,-203.7210,126.8921,-163.7289,97.3222,94.5397,27.2195,-423.1167,-49.1570,41.8201,-23.7792,-445.8604,56.7062,-50.7122,35.7105,200.0737,86.8638,114.7920,-14.2314
-945.3125,-437.7519,-252.0056,102.1294,35.6630,-5.8881,-183.7793,-223.4160,-144.0623,287.5104,-109.3031,-313.5408,-48.3603,337.8686,105.4589,-257.8189,-23.8134,494.6939,170.4755,304.6073,34.6004
-937.5000,445.4203,349.2439,-42.5459,38.9448,107.4297,185.6221,294.1147,115.1467,-408.4070,150.0333,570.5695,139.5575,-357.9330,-149.2802,184.5479,3.5564,-838.1107,-387.3812,-465.0285,73.9277
-929.6875,-2.1583,-62.2401,-99.8973,-20.4811,-96.9489,-311.6895,-203.0875,-309.3425,12.0148,-347.3138,-442.0371,45.7771,136.6262,87.2800,-129.7856,-168.5591,931.3575,326.0630,530.6349,-56.4310
-921.8750,-130.9736,90.0228,128.4309,-44.2163,167.3826,-47.2806,97.4724,-45.1041,165.0811,63.0658,42.1277,274.7047,253.8469,-88.4813,-121.3824,-54.0789,-464.5996,-224.8346,-231.0598,60.9152
-914.0625,332.0392,377.1084,-191.3879,31.9034,-5.4609,72.9411,218.8245,1.9579,-337.9853,-73.7358,-57.9058,212.4820,-287.0480,-79.3680,71.8066,-56.0575,-72.5786,-79.8360,-49.8271,-38.8881
-906.2500,-542.0837,-250.9401,69.6628,-69.1384,36.5686,-288.9606,-290.9401,-213.1085,401.7931,-214.6510,-567.0114,70.1219,563.9297,109.5749,-179.1280,-93.9879,707.1174,171.9531,412.1710,-33.8240
-898.4375,227.6538,272.8326,26.4927,-72.3758,176.3845,108.9356,327.1034,110.6144,-156.6782,182.2106,491.6894,174.5647,-32.3222,-153.6814,143.7271,-6.9848,-880.3461,-500.4458,-506.0108,33.0365
-890.6250,101.1941,-64.5759,-99.8036,-57.7709,-59.9530,-274.3331,-93.0505,-235.8247,46.7336,-311.0751,-369.7774,-24.1378,246.3399,86.9268,-166.5877,-144.0018,788.0521,147.0155,423.6717,-93.2392
-882.8125,-162.1003,-81.8402,170.9901,-75.0729,136.8304,-150.4688,-6.0381,-76.1321,354.1900,32.7739,-63.0633,63.2730,517.0693,-10.3846,-78.7751,-53.4340,-249.6087,-256.4791,-156.6278,30.5921
-875.0000,462.1465,366.4189,-129.6689,21.1748,21.1417,62.9241,282.4781,28.0881,-313.8015,-9.8581,152.1463,21.2311,-151.6308,-90.1235,282.5411,-53.1393,-329.5949,-301.3842,-306.3012,-49.0276
-867.1875,-447.0976,-295.8123,25.1940,-43.0940,-8.0287,-296.1561,-260.4762,-258.1660,391.7060,-258.9458,-612.0760,-118.2970,629.1859,138.6189,-77.6101,-107.1824,871.7402,196.1555,402.4467,-78.1279
-859.3750,76.9277,193.1893,17.2226,-12.1675,166.9937,172.9769,318.8040,136.7804,-21.6446,210.1582,334.9176,58.3709,142.1584,-126.4404,171.4414,30.7188,-891.7250,-440.1037,-585.5945,23.9660
-851.5625,115.9950,56.2480,-229.6236,-8.1476,-79.8855,-147.8137,35.1393,-147.1903,-11.8476,-220.6480,-316.0288,-114.8640,189.3031,29.6152,-75.4533,-103.5168,624.9606,160.7650,262.5047,-112.8331
-843.7500,-357.3147,-135.0854,79.0778,-94.5805,117.8105,-169.0081,-60.9119,-131.5738,480.4415,-59.8565,-191.3175,-26.5365,718.9525,-29.8109,-207.7590,-93.7072,44.9946,-31.8851,-35.9469,11.9283
-835.9375,404.3769,414.5712,-153.2312,-1.0141,32.4809,111.7738,331.9957,112.0215,-230.2817,75.9051,347.3466,-1.2168,-103.3903,-188.2152,146.9000,-39.8332,-565.8457,-289.4870,-399.3237,-0.3196
-828.1250,-355.0393,-203.8734,-100.6086,-57.5584,-134.9240,-311.5329,-312.1872,-200.4577,337.9091,-237.3935,-518.0350,-166.9860,576.2001,122.2670,-202.5455,-91.7142,960.0718,356.7670,459.1407,-56.6500
-820.3125,2.4477,83.5398,11.7841,-51.3027,88.4652,94.9765,167.4706,167.8733,154.8208,279.1096,366.4417,-17.9478,247.5264,-132.4639,-18.1759,56.8005,-757.2719,-269.1938,-484.6248,55.8216
-812.5000,235.1352,69.1639,-253.5579,40.2016,-141.9068,-24.2955,-24.6824,-24.5750,-111.9782,-98.1600,-120.8821,-136.6580,-18.8360,41.0791,-63.5968,-19.4804,388.7219,208.1338,134.9198,-63.4523
-804.6875,-418.9256,-267.9582,87.3033,-52.0955,-21.0551,-160.3097,-307.5567,-87.7752,450.3796,-14.1709,-256.9088,-88.1517,579.9568,51.7951,-125.7812,-23.9824,225.6870,186.5849,112.5532,20.4856
-796.8750,528.6866,326.5763,-99.2076,51.2640,-23.5781,204.3123,204.1987,129.6551,-287.6385,130.4359,475.6671,19.9995,-231.6090,-133.8216,238.6645,1.0103,-762.5855,-238.2715,-523.1039,18.0599
-789.0625,-51.5137,-147.6930,-113.4792,68.8195,-183.8798,-249.8564,-396.8622,-287.7111,211.5699,-323.7394,-456.5189,-140.6359,306.0684,145.7589,-179.6948,-132.1293,979.2451,448.0364,445.3901,-69.1528
-781.2500,-21.6904,129.0038,96.1335,99.2772,61.7236,105.9147,-4.9737,30.8453,126.5842,106.0031,304.2870,32.6334,183.5640,-85.7797,-8.1288,-11.3313,-610.1376,-155.7993,-439.2808,66.5350
-773.4375,337.9380,206.5001,-220.3903,106.5817,-108.8310,82.5087,82.7120,-65.7773,-264.5121,-138.4348,59.8826,-100.2637,-207.0280,-36.4428,190.2254,-71.8189,169.4503,132.2650,-46.0323,-66.9284
-765.6250,-458.6252,-343.2087,46.8500,-58.3691,12.3998,-163.0959,-236.7838,-201.6042,443.1070,-127.0587,-369.6560,-125.3996,502.0951,120.6122,-94.6533,-51.7434,497.5494,283.9974,246.8472,-19.6192
-757.8125,350.7657,218.9974,-66.0409,-58.4252,84.5128,276.1902,386.6240,200.4576,-220.4227,239.1893,510.6943,20.3533,-234.9165,-101.4214,161.3624,81.7767,-876.3795,-313.3340,-562.3298,15.5824
-750.0000,-94.3467,-191.2762,-157.3452,-45.9412,-117.8050,-183.9765,-146.4354,-148.9279,128.6389,-219.9917,-425.3902,-144.3413,187.6809,174.1005,-151.0946,-36.0286,894.1808,330.8708,400.0250,-112.6525
-742.1875,-249.2502,-65.3771,114.4313,-26.3540,116.9872,14.0147,-22.3279,48.8307,251.7044,124.9738,138.7361,54.0800,275.2836,40.6955,83.5859,42.7120,-423.3364,-246.8841,-389.6144,48.2208
-734.3750,280.9131,289.5823,-209.6894,82.3236,-98.1350,94.0662,94.8252,91.6624,-330.1039,21.0072,219.8943,-12.4153,-306.9633,10.4161,310.3250,25.1842,-140.6191,-104.4823,-281.0729,-18.8071
-726.5625,-492.8334,-308.3674,9.2634,11.0407,-99.1775,-273.7926,-382.9269,-165.4111,439.1107,-162.8465,-405.7851,-122.8409,500.8126,119.1595,-58.8559,-60.3239,771.9200,245.8908,279.4045,-19.7617
-718.7500,227.0007,199.2193,21.6861,26.2649,61.2601,143.8581,217.8391,214.0144,-99.2478,290.7817,563.0477,37.2223,-110.9734,-198.5928,248.4776,48.8111,-902.0175,-406.2152,-618.6035,66.7763
-710.9375,55.5736,-77.4287,-116.0618,31.2873,-185.4893,-176.7028,-212.6248,-33.7670,-54.7547,-140.7789,-272.3352,-135.9126,81.1030,31.4718,-36.4424,-32.1578,719.8384,265.4860,300.1964,-33.8761
-703.1250,-325.5403,-176.8046,177.3801,-33.4856,31.9731,-104.9907,-213.8110,74.7099,310.8453,114.9208,56.6121,-25.8353,447.2807,-7.2902,-111.1352,35.9098,-226.3318,-81.6879,-117.9156,111.6837
-695.3125,490.5838,287.0357,-142.9435,6.9899,-103.3385,88.9499,163.2129,158.4161,-341.2948,125.8368,398.7453,-16.5285,-277.2685,-106.7726,155.3856,23.8807,-432.1185,-215.5526,-286.7000,48.4848
-687.5000,-310.5204,-268.3525,-25.4926,-91.7906,-205.8723,-306.3169,-341.9811,-163.0883,364.3139,-159.4362,-438.2744,-153.4598,428.9285,120.4756,-93.3319,-63.0038,803.6383,282.2572,457.1670,20.0555
-679.6875,111.2755,188.1186,6.7269,-91.7655,-26.6226,166.2451,204.6626,235.2289,-9.3659,313.0953,476.5578,-10.5894,-54.1626,-141.4822,268.7715,78.5357,-957.8508,-386.1448,-493.1902,125.4243
-671.8750,132.3083,-37.1479,-221.7245,-107.4501,-219.0712,-62.9148,12.5580,6.8321,-92.6965,-100.0771,-156.3471,-202.4265,-63.8928,33.8794,113.1365,-11.6987,433.0075,230.7772,300.7860,-29.8988
-664.0625,-391.1669,-384.9454,72.2240,-208.7348,0.9033,-97.6094,-24.0682,43.8893,459.3036,122.2144,-81.7240,-164.8461,451.6953,-3.3879,-70.0497,41.3303,-57.9850,58.0105,92.0306,44.1959
-656.2500,400.8754,160.7443,-163.3494,-121.5196,22.3558,217.1814,475.7842,249.4321,-256.2068,216.9781,418.3580,-106.7823,-263.2245,-165.1330,208.2401,74.2654,-745.3694,-170.2118,-347.1644,-8.2181
-648.4375,-334.0777,-293.5620,-82.8948,-118.3181,-43.1671,-216.0030,-104.3416,-184.9889,338.3023,-252.2045,-492.4919,-208.7082,368.8697,136.1052,-152.4745,-66.8341,804.0826,464.5110,533.5603,-110.6137
-640.6250,21.7871,96.8969,99.2253,-45.4172,250.0104,150.5479,263.2960,108.3213,78.4216,150.3347,389.4408,-25.9327,109.5718,-122.9742,30.5285,20.7652,-812.8632,-201.0931,-448.0675,-1.3115
-632.8125,290.1110,153.8218,-93.1268,10.9837,56.6927,-5.4303,70.3855,-120.8905,-225.9211,-189.6460,12.8371,-107.6673,-157.1755,14.4639,-89.0275,-72.2513,331.7697,241.8388,99.8516,-120.5072
-625.0000,-332.9814,-258.6817,207.0379,-15.1135,172.9080,-145.8471,-290.9553,-187.5572,294.1741,-110.0680,-164.1310,-64.8839,436.5038,56.3702,-230.0406,-58.5780,338.6486,285.1823,108.1337,-41.1847
-617.1875,482.7090,310.5781,28.9333,95.5457,178.8585,228.4765,193.4410,111.5083,-473.0171,154.2286,578.6223,-21.3654,-366.0919,-157.9603,216.6910,22.4735,-747.6344,-132.6817,-519.7888,-35.1225
-609.3750,-98.5684,-201.1090,49.9130,42.2547,-21.1176,-228.1246,-336.1179,-234.3554,-12.1377,-301.3867,-355.5250,-183.7813,168.3819,120.7561,-204.5447,-86.2942,990.0045,516.4689,480.2798,-123.9941
-601.5625,2.9327,75.9290,295.5132,1.6223,225.5627,17.9867,20.0520,11.4770,-24.7172,54.6883,369.0680,136.4586,82.3913,-75.8979,-105.1030,-18.8447,-565.8627,-156.7753,-334.0812,11.7868
-593.7500,466.7919,328.3201,-23.4766,42.3801,16.6385,-6.5278,106.5811,-123.3093,-417.8579,-226.8575,124.9936,150.0851,-346.1549,-63.1291,-20.3028,-129.1400,140.7765,58.4280,57.0221,-123.0370
-585.9375,-334.1809,-226.1369,239.6520,-21.7735,58.8493,-183.8816,-254.7247,-263.9398,322.0592,-257.2303,-419.8451,192.8336,320.3420,88.7127,-271.3735,-118.2492,568.2558,204.6397,344.0907,-80.7417
-578.1250,342.9696,308.4838,60.7983,-13.8714,137.0945,335.8247,375.0341,144.4773,-226.0317,151.4267,394.3772,307.6189,-448.1722,-127.3841,136.6073,31.9389,-904.1718,-456.0767,-457.7712,-2.4086
-570.3125,-56.5626,-161.5609,-22.6641,-97.6167,-93.2910,-41.1086,-112.8693,-195.7502,93.2656,-261.5475,-423.0271,77.7560,-91.3059,156.8723,-168.0914,-59.5219,768.6850,233.5381,512.6841,-85.7149
-562.5000,-140.1293,-104.6749,248.7065,-147.5056,142.1891,120.8729,86.1544,38.9206,253.3116,157.3782,143.5387,166.7488,-4.6991,-14.0413,-115.8996,49.4819,-479.8033,-274.0638,-171.1173,75.8357
-554.6875,480.4312,234.3298,-55.7670,-91.2504,-15.1849,147.9838,261.2849,102.7201,-345.4775,37.4263,208.1962,83.8698,-565.9210,-97.7751,167.4008,9.9215,-250.0161,-148.4612,-80.7067,-7.4730
-546.8750,-299.5051,-265.1714,157.2425,-134.5461,-23.0742,-189.3978,-297.0803,-160.9818,306.1588,-153.0101,-460.5717,2.4536,160.2693,77.9127,-134.8431,-52.8253,688.9836,229.5058,474.0239,-15.3139
-539.0625,376.3544,305.0739,124.9189,-22.1364,128.7249,292.9393,295.2780,210.0261,-242.5795,255.2494,464.3916,154.7307,-460.9172,-174.7007,162.6224,70.4834,-960.3141,-396.8171,-469.5578,62.5358
-531.2500,155.7183,47.8447,-65.8196,36.8207,-98.9122,-7.1830,-78.8496,-127.4190,-177.7205,-227.9350,-313.0998,-35.4430,-284.5092,75.2481,-101.3890,-46.5368,678.9273,259.4148,432.4041,-54.0563
-523.4375,-247.5532,-40.0510,240.6846,18.0293,97.7231,42.0134,-101.6421,-40.5583,201.2969,41.1877,30.7979,87.6482,20.0420,-23.5787,-162.1109,1.9520,-150.8209,-42.1828,-10.5121,68.6139
-515.6250,554.5241,410.3861,-21.4680,151.5852,19.6959,222.5361,187.8885,101.6310,-503.3339,74.6287,396.0030,120.0696,-647.0510,-138.0310,89.4794,12.5689,-408.1039,-156.3736,-265.0145,-9.3767
-507.8125,-198.5830,-166.3517,110.2155,99.9402,-69.5002,-196.0980,-377.7448,-206.3343,141.8293,-234.0642,-389.8905,-4.7011,108.6377,140.2914,-366.1167,-54.3031,909.2029,355.1678,492.1773,-24.5505
-500.0000,274.8661,341.4137,156.3186,115.7464,123.7491,217.7564,72.1226,170.1718,-217.6452,252.6999,502.7201,188.9658,-361.3200,-107.9465,-26.2310,79.5751,-873.0992,-333.8469,-514.2064,131.7184
-492.1875,342.0139,195.8949,-136.7993,145.2944,-168.2431,-38.6533,-182.2965,-49.5839,-329.3244,-148.7928,-119.9487,6.3717,-434.4803,39.5835,-26.6393,-27.7736,525.3902,256.9130,252.1944,-14.2610
-484.3750,-181.8302,-81.6465,192.9841,76.7491,50.6922,-111.0804,-329.7285,-13.3819,182.8095,70.6811,-45.5690,5.6929,114.1587,-36.0153,-174.1221,6.6221,101.5136,47.4866,77.3628,58.6723
-476.5625,606.1452,423.6010,-13.4485,89.0075,28.4105,234.2879,199.6238,259.6100,-539.2753,269.9265,558.5710,57.7926,-607.4198,-204.7949,97.1646,84.9119,-697.4607,-292.0919,-368.6113,36.3931
-468.7500,-151.2860,-194.5481,77.7512,-2.1381,-101.2393,-150.7113,-406.4058,-53.7633,27.2578,-116.1730,-414.6176,-107.5000,33.6010,106.0121,-289.9498,22.5945,860.9990,353.8770,558.9338,-19.2696
-460.9375,135.7030,127.6704,188.2160,37.0176,120.4099,290.6398,-1.0651,241.2004,-194.0049,289.0540,432.5785,113.4977,-224.1891,-76.8960,-105.7282,139.6142,-791.3530,-274.8831,-387.2777,91.3632
-453.1250,456.1932,130.4007,-58.7518,109.7258,-53.3898,191.5235,-27.2102,30.7027,-516.6720,-68.1757,39.2798,-22.9739,-472.3875,78.7637,-171.0037,58.0877,261.9230,146.9424,140.1053,-82.4607
-445.3125,-284.4869,-294.0513,265.0412,70.1891,86.5900,1.2342,-289.5314,-85.9738,136.3491,-37.5758,-222.1343,-29.6828,217.0788,145.1421,-360.4935,52.1412,324.6737,177.4224,205.0958,-15.5207
-437.5000,560.4810,338.1070,79.4098,104.2484,158.1566,367.5402,259.7476,169.9432,-566.0718,181.6030,512.0309,79.1900,-520.8978,-78.8684,150.6171,88.4378,-875.8992,-316.4607,-535.2753,19.0059
-429.6875,32.0881,-84.0956,45.4735,67.9476,-21.5976,-143.4926,-287.3271,-266.4731,-123.8116,-328.5392,-401.1010,-101.2830,31.7977,181.7664,-140.6373,-83.4244,878.0690,384.2696,410.9495,-87.8042
-421.8750,84.9320,72.8865,277.6201,47.7510,209.7578,162.6321,54.7760,1.2504,-115.5555,124.4553,345.9928,57.3484,-32.5203,-28.5266,17.2357,28.1781,-694.0270,-199.9515,-419.8239,33.4871
-414.0625,498.6862,274.7794,-59.2705,107.5109,-15.9394,195.6821,160.7895,32.9050,-526.3186,-27.6225,158.9867,-58.1020,-516.8558,39.1595,122.0082,38.8804,-146.0676,34.8394,-150.5876,-82.2788
-406.2500,-371.4048,-279.1801,167.9596,44.3752,-9.5045,-55.0951,-236.0233,-107.2814,175.9835,-57.5293,-383.7869,-88.4527,222.8443,228.9132,-239.0878,66.2120,420.7313,252.6455,242.6134,-38.9286
-398.4375,394.6225,273.9384,81.2034,104.2895,123.9634,337.1926,376.2374,248.5876,-389.7209,298.6043,523.5021,46.2242,-453.4764,-79.2796,150.8865,143.5114,-1071.3938,-321.4723,-614.1188,21.4575
-390.6250,129.3079,-97.2621,28.1730,48.8903,-1.8506,-155.8118,-42.8206,-171.8263,-77.6773,-267.5289,-335.4921,-189.4058,-30.0637,126.2347,-159.4689,-53.6226,698.1186,360.1000,383.8293,-104.4472
-382.8125,-37.1823,-87.6782,323.8258,-14.8074,258.0496,-42.0428,143.9038,-22.4766,179.9676,65.0940,219.3385,-40.3272,153.9316,-57.5782,-48.0954,-11.3821,-494.8819,-160.6892,-243.6377,44.3536
-375.0000,621.0098,251.5815,-15.8225,43.1995,64.6407,133.4104,356.2901,43.5514,-418.6736,-16.6161,359.8074,-49.5634,-444.3585,-103.6683,310.9372,-30.9838,-406.0658,-175.7181,-293.3352,-38.1559
-367.1875,-286.4662,-304.8187,135.8515,12.5122,-3.4343,-153.7783,-225.9794,-171.0761,281.9612,-156.9620,-368.3142,-81.4795,293.6076,121.5183,-15.6969,-43.1444,543.8236,214.4737,307.1455,-33.3484
-359.3750,281.9894,191.6733,98.3395,15.6832,143.3281,323.9138,362.6447,269.1597,-161.6280,320.5403,552.4412,65.4473,-296.6695,-173.4488,277.5444,104.4220,-1146.4554,-450.4788,-640.5270,76.2989
-351.5625,85.0324,-111.2164,-103.4964,-41.5016,-58.2452,-23.7485,87.8966,-4.9488,-71.5133,-101.2901,-235.1765,-134.9798,-133.2587,65.2492,2.3835,16.6935,444.9155,158.2317,319.4619,-51.3987
-343.7500,-345.4168,-225.6233,210.0583,-123.2850,145.5992,33.0657,71.6419,88.4095,312.9195,177.3464,42.7443,-4.9954,288.4390,10.3119,-235.3403,90.1796,-344.5568,-134.7404,-81.2779,78.3122
-335.9375,475.3864,277.2017,-71.1492,-43.8208,11.6814,306.1101,417.6110,250.0001,-410.3929,191.2036,463.8640,8.2161,-471.6167,-87.3518,144.1578,102.9852,-761.6585,-302.4081,-353.7035,18.2590
-328.1250,-247.2433,-270.4046,-16.7667,-64.8056,-118.6503,-117.2586,-188.8432,-100.8242,228.8481,-157.3388,-399.3794,-121.0081,241.8607,150.5178,-22.7885,-13.5925,618.6098,237.4097,431.3146,-38.2290
-320.3125,163.1333,173.9493,36.4923,26.1231,82.9178,268.3116,306.6509,248.2692,-124.1014,301.0212,539.3303,42.6686,-183.8648,-53.7192,361.1964,120.8575,-1123.2799,-445.8900,-569.8154,89.1774
-312.5000,174.4009,78.2116,-241.2777,70.0025,-158.5623,27.8146,102.0522,7.2979,-258.0495,-87.6761,-69.0479,-124.7136,-244.5937,145.0124,266.1102,34.3034,216.8317,123.7889,140.0330,-42.4661
-304.6875,-419.9362,-164.1544,49.2556,37.1814,-14.7155,-46.3125,-119.1632,4.6873,288.2283,57.9909,-104.9805,19.2128,301.8824,105.0065,5.3783,47.4017,-103.0053,-16.3226,-0.9540,65.2039
-296.8750,452.7933,425.5272,-180.1792,97.4069,-23.8330,238.6040,350.6628,254.1149,-421.4612,270.6804,586.0971,158.1646,-481.6141,-124.9306,253.6672,88.3757,-926.6908,-343.3328,-575.8284,55.9119
-289.0625,-190.3987,-78.6985,-79.4842,14.7240,-105.8204,-246.3495,-245.3871,-121.3286,191.9764,-140.4821,-301.6742,2.2243,132.9993,122.2291,-269.9670,-33.0420,709.5834,310.7146,359.3362,-26.2672
-281.2500,43.7603,189.3856,118.4304,-0.7084,129.4429,98.9978,136.8887,187.5158,129.5771,314.6352,522.8793,200.5322,-112.2489,-121.3740,-72.3065,76.0185,-929.0146,-374.0213,-572.3080,134.7988
-273.4375,324.5652,224.1195,-171.9487,-2.4503,-123.5955,-6.9725,104.8292,81.0454,-164.0673,-12.5667,124.0735,19.5280,-442.7633,-46.2575,187.0265,-6.0612,-21.8215,8.9851,-49.1910,27.5578
-265.6250,-426.1029,-281.6379,67.1326,-86.7423,-31.1501,-168.4286,-204.7027,-8.9197,515.6893,8.7516,-221.1557,2.9857,199.0985,46.2714,58.8486,3.8025,133.5741,98.3559,145.2466,83.7795
-257.8125,355.4141,216.7648,-110.6586,-12.8804,47.4340,315.2648,462.9166,291.2638,-179.4427,346.1987,558.7414,44.5683,-532.9376,-132.0388,321.8149,130.7995,-1132.8026,-355.0816,-556.1194,89.1386
-250.0000,-215.3235,-284.0564,-153.6200,11.7737,-141.1561,-57.2247,-92.6684,-7.7325,216.2708,-63.5192,-400.5368,-143.0527,-27.1494,155.4484,-162.4259,64.2625,574.5422,336.2589,451.2788,-26.6933
-242.1875,-227.5481,-86.4116,45.7922,-38.1637,132.6617,254.7468,145.2252,303.7197,230.2925,432.2030,279.6917,-16.2714,-50.0775,-49.6841,-0.2256,203.9557,-922.8698,-277.0540,-375.0116,99.8700
-234.3750,358.5392,216.5433,-255.4421,-17.7479,-22.1753,285.0466,285.4256,259.4957,-295.2961,205.2405,238.2083,-62.1584,-537.6253,-58.4413,102.2682,132.4467,-415.8070,-47.9604,-145.8787,-55.2265
-226.5625,-368.7359,-334.8552,46.9503,-78.7274,60.6217,-35.0018,-143.7196,-24.0809,410.6859,-5.0596,-263.5589,-125.4284,278.3765,97.3731,-292.6163,46.2284,326.6380,206.6545,282.7333,-45.7054
-218.7500,344.8418,236.5830,15.1186,34.1034,213.2057,412.7504,375.9534,313.1427,-248.5878,368.4241,662.4720,26.0868,-380.8867,-192.0138,115.3127,134.8709,-1219.0747,-420.9028,-626.8351,32.6019
-210.9375,2.7718,-107.6095,-81.2840,5.3333,-29.7972,-13.0979,-86.9987,-40.2267,-91.4095,-131.6745,-203.1003,-144.0055,-39.7150,41.0046,-54.3845,-8.5287,541.5886,252.9416,292.9902,-100.6863
-203.1250,-190.5806,-90.1334,222.8954,-14.8272,200.8086,108.7184,34.7316,118.0527,173.2817,210.8709,213.0506,13.5135,151.9451,-97.4026,-82.4380,66.4680,-575.3409,-156.6750,-293.6936,19.6259
-195.3125,498.6844,280.9524,-121.2776,109.6638,78.0535,281.1631,281.0737,216.9490,-466.3546,163.0247,387.7796,-35.3375,-487.7278,-73.1316,126.1358,99.5165,-597.4788,-138.5808,-346.6474,-66.4234
-187.5000,-353.6410,-325.5334,51.9822,63.5508,30.7309,-58.9509,-279.1403,-87.7170,219.4053,-104.3656,-391.9963,-119.7764,269.9711,172.5107,-179.8692,33.3393,511.5941,305.8431,307.6960,-77.0562
-179.6875,171.0195,196.9223,42.1097,92.3446,205.2985,373.8607,337.5896,271.5276,-235.0026,329.1381,593.1486,54.6701,-256.5107,-131.9516,215.0356,130.5512,-1224.4312,-368.8251,-686.0588,23.1971
-171.8750,110.4133,-4.8729,-164.9409,64.9344,-37.3206,22.4626,58.0893,-44.4328,-186.5498,-170.5565,-160.9485,-78.0977,-99.1446,65.4010,-65.3032,-17.8155,360.3873,234.3333,233.0185,-109.7519
-164.0625,-322.7568,-193.2567,145.3501,-20.1247,162.4323,76.4867,2.0257,9.0221,268.1836,67.1665,40.4293,48.4868,319.4740,44.0729,-233.2531,40.9570,-329.6641,-98.2369,-100.6714,16.6518
-156.2500,440.3456,286.6266,-124.0707,1.1092,77.4720,397.7932,434.2399,219.7642,-444.7701,204.1602,474.0410,37.3468,-430.6069,-115.9312,196.0740,89.3550,-876.2853,-288.4490,-432.9857,-31.6610
-148.4375,-372.6267,-315.5373,-52.5139,-110.7151,1.4923,-7.9169,-119.5787,-76.5092,175.2483,-128.8474,-445.3466,-112.8318,262.2644,138.0049,-28.6319,13.4173,553.8914,265.2385,437.5730,-108.0082
-140.6250,81.7381,102.5975,46.2618,-150.2805,174.7610,386.6589,385.8996,318.4850,-96.5654,376.3997,465.5568,97.2348,-156.7085,-130.8155,254.9552,148.6022,-1216.7289,-479.8307,-520.6507,27.8861
-132.8125,280.3901,53.0294,-257.5943,-96.4954,-92.6153,157.5572,230.6847,124.8072,-256.9642,-0.0225,-20.2512,-60.3658,-317.2746,41.7299,133.8457,61.6522,28.0986,-4.5055,164.5317,-92.8751
-125.0000,-336.1801,-212.7762,44.2521,-119.0017,63.7324,20.2125,-16.7502,60.8842,337.2860,83.3124,-81.2398,21.7473,240.7811,49.9409,-151.5406,57.0658,-140.5890,-98.5606,69.2940,26.0735
-117.1875,487.4540,397.6077,-163.7267,-37.3012,39.2571,329.0424,512.0005,258.1414,-388.2715,280.8107,668.9266,145.0425,-521.9826,-158.6324,153.2610,82.7070,-1084.9496,-475.3599,-519.6750,38.2082
-109.3750,-116.4141,-135.4698,-96.1207,-80.0556,-112.6505,-188.5703,-79.6992,-149.0382,118.7660,-200.1061,-251.3194,-7.1049,131.8297,92.3387,-218.3894,-70.5058,624.1520,218.3609,418.8557,-40.0957
-101.5625,56.4638,140.1619,74.1099,-50.1528,95.0879,129.5105,276.3057,168.4658,29.3732,265.6475,546.1532,126.3916,-68.8070,-142.0590,97.6560,46.1289,-1041.1917,-422.2963,-504.0219,130.2441
-93.7500,443.8277,246.2806,-253.1031,17.2930,-120.6310,24.1111,280.8109,62.4958,-374.4124,11.9177,258.0896,-17.5828,-434.8434,-103.8823,284.2247,-27.2800,-205.8487,-39.3494,-87.2660,23.1245
-85.9375,-332.4106,-251.2126,33.0440,-94.9094,18.0277,-200.8836,-18.2750,-53.0827,314.1244,6.5935,-112.5173,-60.1891,289.4165,-38.3812,56.1824,-38.9471,98.6353,57.8700,149.7253,52.3690
-78.1250,410.8217,385.7448,-75.3895,-22.6523,93.1190,242.5653,572.0904,278.7774,-349.9174,302.6907,699.2855,86.6358,-484.9086,-221.4112,387.5844,69.7432,-1207.3252,-503.4145,-659.7792,90.0482
-70.3125,-74.5650,4.1222,-176.3434,-17.9475,-117.3201,-150.5365,-42.1098,-77.9025,-49.4496,-126.7385,-243.4613,-51.0942,-37.7382,81.0107,-44.6012,-23.9623,550.1329,237.7446,327.1572,-10.8161
-62.5000,-146.9579,106.4663,68.5756,11.6597,92.1498,133.3120,168.6600,206.3590,10.8442,303.7606,372.7771,122.0725,-14.7671,-76.7026,54.1696,110.8727,-868.6403,-296.2417,-455.0833,125.2157
-54.6875,485.8845,351.0561,-223.2067,43.5602,-53.0924,210.4234,319.6816,208.8868,-504.5126,123.5202,378.2240,13.5152,-530.4482,-150.0905,240.2179,45.9779,-491.9519,-161.8599,-285.9349,16.5346
-46.8750,-272.1130,-161.1796,10.1865,-49.3907,-39.1542,-141.2751,-179.1061,-33.3997,204.2765,-8.5206,-193.0891,-9.8732,214.9996,9.6511,-150.5672,-5.9426,324.7059,166.6044,182.2617,30.0179
-39.0625,472.7900,406.4482,-25.6005,-45.4814,72.6197,338.8827,410.9633,336.1545,-349.1393,398.2581,766.4335,138.5782,-448.7551,-246.7447,106.5046,111.8559,-1261.7146,-464.0469,-731.6611,104.3367
-31.2500,203.0161,65.4329,-156.9613,-36.1735,-95.1950,-11.5783,23.3881,-14.9022,-189.0910,-98.5643,-96.6794,-66.5702,-179.0506,24.2667,-208.0449,-3.5741,430.2997,246.7168,223.8352,-26.9411
-23.4375,-166.5779,11.5906,146.7633,-22.7576,136.0992,110.1052,71.9816,143.1860,111.9889,242.7561,246.4042,90.3872,84.6650,-76.6550,-52.4404,83.6668,-617.7466,-197.4866,-362.6606,92.8864
-15.6250,552.9399,447.8505,-165.3737,95.7997,-29.4794,314.8884,385.6839,199.3896,-533.7372,188.1826,488.5501,109.4688,-598.4378,-169.4023,370.2857,47.0537,-787.4623,-291.4749,-492.9030,0.8527
-7.8125,-166.9538,-97.2885,-1.8878,5.9534,-48.4388,-143.7052,-145.9859,-111.7717,142.1610,-122.7425,-225.6375,-20.8406,188.0606,30.4320,-17.3778,-61.4843,418.2753,108.0809,187.3783,-18.5652
-4000.0000,118.7424,209.0306,25.4283,-11.5687,53.0017,52.2062,148.3689,63.0149,-36.4709,84.8180,245.7076,39.5217,-77.7277,-117.4657,122.0407,-17.1247,-425.4312,-256.8199,-296.0746,40.9714
-3992.1875,93.1357,115.6630,-180.5903,-3.9762,-189.9637,-263.4978,-167.2351,-253.6096,-62.0622,-377.5410,-435.1815,-93.5322,-29.4207,114.1669,-9.7792,-147.8248,1052.4835,308.6007,515.3712,-92.2452
-3984.3750,-371.8979,-33.1084,134.0647,-15.7337,-59.2848,-242.5956,-291.2560,-194.6153,399.0636,-136.2757,-336.4775,-35.9286,394.6219,95.4745,-134.9955,-80.5805,507.1503,47.7097,218.5171,2.1859
-3976.5625,471.1506,531.1767,-159.2834,51.5210,-132.5955,51.3559,150.7685,25.4177,-336.8743,-24.9659,146.3395,0.7066,-304.3960,-53.2381,160.8191,-43.5689,-100.3612,-206.2523,-142.4481,-71.3770
-3968.7500,-216.1673,20.0728,-31.0045,-5.5632,-224.2890,-407.0747,-416.6091,-395.9262,267.8398,-446.0511,-713.2682,-201.0149,410.2566,220.7378,-260.7477,-176.9659,1418.9486,400.5055,745.3298,-163.3071
-3960.9375,291.7808,494.2525,87.5990,7.6591,5.3285,5.8062,-3.6957,-56.9496,-56.1185,-32.8027,328.4612,-82.4105,49.2515,-103.9923,-67.0337,-101.6525,-299.5326,-258.4703,-232.6467,-44.9259
-3953.1250,651.4150,574.0800,-193.2356,82.4977,-276.4743,-128.6859,-209.1569,-301.3562,-338.5580,-386.9515,-59.1695,-290.1875,-197.2202,15.8683,-89.6968,-215.1267,859.5540,304.1458,364.9516,-215.9565
-3945.3125,31.8201,272.6839,111.7908,59.1876,-155.4446,-228.3717,-491.8408,-362.9474,220.9146,-303.2875,-155.0333,-316.1117,400.2385,97.6122,-335.5501,-184.8223,794.6385,311.6755,336.4800,-169.1458
-3937.5000,797.3231,827.3720,-48.1238,151.9347,-93.3499,165.0355,48.5620,-44.4520,-490.6070,-56.5317,573.2560,-254.9538,-384.2943,-100.6127,-15.3188,-89.7976,-280.3979,-91.8115,-279.0433,-181.2765
-3929.6875,173.4865,310.6805,1.5869,89.3397,-265.6350,-263.9363,-525.4245,-363.3300,-2.4979,-448.1678,-367.8715,-462.1469,176.8221,129.8387,-443.4634,-183.5893,1409.3768,579.4163,672.1652,-279.7738
-3921.8750,376.6486,514.9954,168.3710,78.8018,-60.8635,14.1341,-247.3915,-48.1527,-20.2893,14.2642,430.0497,-295.2651,12.0441,-72.6463,-275.5863,-62.6406,-190.8282,1.6817,-187.5931,-149.2125
-3914.0625,851.4951,638.9496,-177.2797,93.8818,-260.5083,-37.1609,-187.7192,-136.3504,-441.5587,-257.6896,234.6269,-456.7579,-335.2097,-16.5366,-142.0797,-133.9332,555.4963,329.5238,173.2058,-275.0576
-3906.2500,78.4052,112.9775,148.2243,-13.8841,-155.0224,-300.3589,-594.9730,-325.4378,250.3772,-336.5401,-133.7496,-535.0931,392.7633,86.7629,-476.4702,-168.5860,1039.1561,569.5954,448.2634,-206.7656
-3898.4375,849.4380,709.1234,65.8436,50.4616,-17.4179,169.5816,-52.1001,-2.3925,-495.6093,-13.2454,744.0615,-397.2860,-352.1839,-144.8526,-80.7551,-70.6297,-380.2422,30.7065,-372.6728,-142.3640
-3890.6250,432.8502,329.6021,-34.2216,18.1686,-227.4947,-261.1429,-554.8961,-397.0101,-193.2786,-479.6362,-234.8297,-571.1245,60.1951,119.9032,-289.7108,-207.4275,1375.8376,734.2226,610.8110,-279.6290
-3882.8125,328.9419,331.7579,215.4877,16.6276,22.1833,-48.1391,-303.9877,-145.8857,-18.1320,-83.2727,313.9953,-357.1991,124.3993,-36.5756,-222.9604,-95.5144,65.7006,165.5104,-98.9328,-140.1399
-3875.0000,909.4614,597.3018,-96.4740,102.4553,-142.7938,81.2567,-100.6919,-90.3787,-588.7108,-137.5378,447.2455,-374.8963,-409.1169,-93.7176,-129.8287,-99.9184,284.8111,212.1162,-53.3911,-195.3026
-3867.1875,81.8085,16.6732,137.4544,-23.8074,-129.9043,-308.4917,-673.5763,-297.0177,120.6506,-306.9601,-161.7176,-435.6940,374.3276,138.0848,-518.8328,-124.0239,1173.0317,573.7164,447.1683,-145.5794
-3859.3750,792.1436,552.0328,174.4014,49.9315,18.0004,132.7950,-121.4506,-2.6272,-467.9872,24.6630,873.3768,-250.4547,-215.2265,-120.1160,-113.8321,-59.4055,-448.8775,-94.7293,-574.3428,-71.8448
-3851.5625,541.0684,371.9338,63.8614,113.2346,-203.5740,-235.3654,-560.7775,-369.6895,-397.1263,-452.1819,-6.0093,-397.6568,39.7265,134.2448,-223.2821,-194.0286,1155.8468,562.4125,292.7463,-219.5734
-3843.7500,-72.3050,252.5434,369.1377,131.3407,-8.3506,-76.7623,-549.3701,-174.9705,-57.3882,-73.2413,230.3331,-239.0427,380.5646,106.4327,-320.9839,-36.2732,216.4687,223.4011,-187.3006,-61.4998
-3835.9375,700.8315,569.6209,72.8496,162.9114,-120.6755,179.3360,-182.4699,45.2381,-721.2616,-0.8147,564.2002,-240.9385,-284.2088,29.0639,-175.2181,33.2711,-109.5869,110.7986,-371.9658,-99.9735
-3828.1250,221.9621,-85.3278,85.5892,68.5426,-217.9830,-212.5596,-756.5930,-272.5369,-12.0643,-317.3868,-265.9950,-337.7786,425.1072,259.7935,-491.4427,-77.5627,1091.6188,539.3392,407.5447,-124.4135
-3820.3125,766.3049,389.9340,95.5999,47.4287,-62.0260,202.8098,-193.4772,67.9555,-407.5909,133.3240,668.0857,-144.3307,-44.2935,-26.2276,33.5775,13.1642,-660.0107,-188.8924,-567.7359,-4.5915
-3812.5000,653.8098,314.2962,-128.3329,38.4314,-320.9952,-93.7116,-379.2551,-154.4442,-412.0788,-236.8804,-29.7378,-329.7622,-11.6522,115.8609,-5.2977,-87.6406,731.5019,360.0030,226.1104,-154.6828
-3804.6875,-14.2922,-1.9401,196.2432,0.9459,-71.4770,-100.7724,-458.6024,-124.3730,167.0071,-95.6101,-70.1698,-262.6785,494.5692,107.4927,-158.7365,-40.7442,300.6617,178.4741,44.5475,-51.2812
-3796.8750,697.8366,500.0442,-16.9894,41.6744,-100.7499,238.4106,101.2908,30.9412,-524.7512,22.9030,420.6644,-145.3503,-234.0551,-34.6881,218.0439,-11.7420,-403.1174,-135.9021,-412.8919,-80.6730
-3789.0625,-121.9226,-107.8773,83.8988,-41.4382,-183.9113,-212.2943,-458.7305,-344.6261,88.6426,-389.4847,-504.4614,-227.8352,453.4863,248.3191,-121.0576,-122.0844,1160.4557,479.9611,518.9350,-163.9279
-3781.2500,142.5504,122.4416,242.1090,-61.2477,84.2323,167.2978,67.5224,-2.8896,-49.6172,62.4469,318.6943,-31.9707,205.3793,-0.3619,74.1210,2.6047,-518.7024,-175.8797,-384.9446,-42.8720
-3773.4375,335.6209,69.3105,-67.1690,59.5120,-77.0899,79.4668,18.3525,-163.5849,-284.3905,-282.0651,-242.5938,-119.5349,-31.2435,167.5139,24.8591,-49.6922,509.6896,326.8421,151.7289,-204.2757
-3765.6250,-562.4127,-369.9353,201.5592,109.2778,44.5697,-19.4135,-299.8972,-152.3110,312.9067,-159.6118,-595.0038,2.9044,604.2130,324.4377,-330.4579,58.5978,518.2712,371.6501,231.5167,-119.6875
-3757.8125,39.8770,93.1014,19.5914,182.3484,119.5441,387.0362,253.1797,180.2961,-348.5236,173.1744,107.9585,115.6801,-167.0538,66.6496,1.5533,166.4841,-610.9767,-50.2856,-332.4668,-81.7857
-3750.0000,-506.2374,-594.3223,39.1922,125.0302,-7.9170,-70.9464,-204.1909,-166.5298,146.6340,-247.4920,-786.5588,-121.9351,365.2793,268.5001,-344.8539,46.2974,1120.5575,591.4527,696.2563,-209.2936
-3742.1875,-367.6889,-490.0839,213.5614,86.4617,203.3702,214.8069,119.1515,192.3913,173.6110,259.5999,-94.3658,17.2237,244.4319,73.1276,-132.5461,202.2326,-438.1411,-15.0389,-87.2435,-108.0386
-3734.3750,48.2541,-284.4928,-156.7601,149.2607,16.9977,175.9500,153.8767,153.6899,-272.1244,36.0613,-313.7979,-21.2403,-201.1284,142.1045,49.1225,158.2204,180.4639,219.8203,286.5888,-221.4323
-3726.5625,-875.5645,-854.6569,123.2596,67.4164,75.9435,-95.6012,-301.1348,-7.6947,447.5495,-51.1723,-765.0182,1.6548,555.7276,310.4869,-294.9088,150.0946,726.6345,451.1324,657.9076,-162.4852
-3718.7500,-185.5029,-304.9528,30.1857,122.4720,167.8035,363.7805,306.7674,341.8531,-196.8825,335.5377,175.7077,204.4936,-162.5195,68.7667,-19.0210,266.7377,-737.4150,-130.6920,-170.9281,-107.6241
-3710.9375,-544.0323,-769.9005,-121.5278,111.9380,-21.9675,-45.4547,-139.9583,6.7835,90.0570,-110.3894,-745.2367,16.7498,161.6111,319.4799,-243.7477,153.4904,971.0789,523.9545,834.7266,-223.3750
-3703.1250,-745.0111,-863.2948,136.4267,51.0537,236.9068,65.9312,45.9061,228.3500,309.7193,296.3232,-298.6072,165.6806,308.4745,171.8765,-131.8787,263.8956,-221.6981,36.2978,205.0908,-38.4651
-3695.3125,-268.5885,-597.3335,-174.2978,103.5329,109.1264,196.7073,325.1573,286.2947,-259.3274,206.4098,-202.5927,149.9894,-297.3731,79.6216,110.3475,241.5275,-70.1985,119.9785,287.7754,-92.1983
-3687.5000,-1141.4574,-1188.6766,50.7594,37.8207,77.1135,-201.7622,-110.8638,-2.9951,553.4747,-44.7502,-928.9197,119.0903,478.6297,231.2227,-287.6859,144.4590,914.3358,508.5682,921.4084,-87.1407
-3679.6875,-384.3745,-607.0804,63.8283,19.1132,274.1135,215.7912,528.1193,378.7495,86.3028,410.1395,42.7684,279.2130,-134.3561,-88.1749,-17.7180,247.8179,-799.2164,-217.8578,-51.9941,-1.0658
-3671.8750,-484.8274,-883.0769,-185.6982,-13.1322,60.5354,-144.2043,205.5386,92.9487,239.5423,-23.5397,-754.1477,104.7927,19.0699,100.9032,-229.3054,124.2177,780.7842,380.2287,826.1222,-103.5454
-3664.0625,-982.8455,-1028.6405,93.3384,-124.8331,229.4989,-83.6872,118.4325,225.6722,665.4105,294.3090,-544.6191,237.9335,334.1326,84.5737,-206.3862,229.7990,-4.5294,53.9373,392.8826,65.5328
-3656.2500,-337.7895,-524.1572,-225.5931,-10.4756,93.5194,220.9197,461.4169,384.4778,-23.7124,305.2392,-199.0002,250.1503,-390.8076,-15.7103,209.6167,249.3990,-387.8952,-46.3245,115.6423,39.6688
-3648.4375,-1108.5551,-1083.5190,-114.3025,-43.8548,-16.2432,-181.2591,-161.4182,18.5015,638.4379,-60.6279,-1004.2715,141.6177,380.5324,241.3118,-118.1794,134.2037,909.2230,514.7711,887.7925,41.0416
-3640.6250,-596.9329,-641.4982,-66.5455,-25.7756,141.4591,271.0246,290.1753,397.9875,280.0795,429.9785,-33.1051,300.5599,-86.6373,-6.2006,186.4576,273.9081,-838.2563,-174.6837,-119.6183,198.8800
-3632.8125,-510.3276,-730.5551,-340.8760,-11.7349,-93.9080,34.2675,54.7249,198.4288,115.6157,83.5245,-634.0086,175.4616,-140.9097,123.2527,61.0480,184.3214,508.2737,327.8517,593.9612,72.6654
-3625.0000,-1105.6433,-1079.5344,-49.9959,-114.4883,49.9117,-78.3407,-94.6065,233.0379,699.4307,301.2381,-634.8401,210.5661,406.1029,154.9473,-88.2226,252.7448,118.1894,185.6820,449.8626,179.6536
-3617.1875,-266.7043,-522.2780,-314.8733,-51.9810,41.9921,318.3394,449.3481,482.9397,-7.5324,478.2479,-13.3788,240.9469,-374.6685,-37.1126,271.7584,307.3013,-739.7584,-176.2595,-89.0332,171.9072
-3609.3750,-948.3138,-1026.6046,-252.2901,-100.9649,-116.4675,-169.5083,-111.2544,105.3214,569.0102,26.7183,-977.5466,120.8298,238.0638,208.3765,-67.8022,167.8974,860.0056,474.4054,842.7121,87.6526
-3601.5625,-683.2266,-585.2240,-57.8990,-84.1533,114.8805,171.4403,303.9138,410.5111,357.4150,443.0082,-154.9661,279.5306,27.6595,-39.3071,90.4198,264.7980,-817.4304,-215.1018,-128.7169,245.2104
-3593.7500,-102.9091,-497.6653,-332.3447,-103.1309,-86.5777,9.6099,214.3131,173.9186,-28.0288,22.5042,-389.1937,116.4386,-247.6080,53.2187,109.8728,110.9912,213.3374,148.6083,339.0694,154.9628
-3585.9375,-620.2089,-908.7355,4.7123,-198.6044,-6.5523,-240.7680,-219.8599,-2.2136,565.1005,30.4527,-490.0687,88.8383,382.6981,132.2937,-102.2192,68.7802,394.8190,191.9228,415.4992,235.2110
-3578.1250,206.8737,-221.4455,-125.8279,-111.6807,-26.1047,179.2834,275.3914,309.0879,-190.3667,340.8426,374.4898,215.6636,-409.6001,-110.2364,282.0897,148.6415,-789.4037,-322.3872,-345.7153,251.8780
-3570.3125,-301.4213,-590.5736,-177.7601,-165.1019,-226.0444,-276.0341,-253.7463,-72.9714,270.8064,-150.1477,-630.3941,91.1464,52.7343,129.9263,-25.9909,-5.3371,946.1948,324.0407,652.8365,163.1968
-3562.5000,-265.6440,-483.6256,-2.4876,-235.3322,23.2131,-63.1668,69.2691,213.1741,334.2557,282.0746,26.8402,267.8360,80.3401,-98.6753,113.1045,93.9390,-465.9481,-277.2790,-160.3488,338.7369
-3554.6875,159.7470,-269.0965,-289.6516,-196.9600,-116.9339,-54.6665,223.9213,183.9456,-136.7331,106.9153,-0.3285,166.1409,-355.5047,-92.6708,193.8165,55.7209,24.4788,-30.9933,85.0668,235.8850
-3546.8750,-641.6581,-824.3735,-27.5264,-261.2800,-38.8140,-307.9040,-248.2112,-30.0202,601.6240,-33.9929,-508.3419,99.7473,419.9990,94.6925,-131.2298,22.5013,624.4342,219.7000,473.9306,277.3318
-3539.0625,62.3400,-296.2531,-105.9454,-227.1444,66.7746,129.3410,372.1157,295.4933,8.4437,365.5940,409.1016,242.8208,-247.0364,-168.4882,268.1825,119.7350,-894.2524,-454.1656,-374.7906,346.2442
-3531.2500,-305.8226,-628.3362,-263.5511,-278.1434,-164.8109,-284.5657,-4.7171,-7.1447,291.0871,-84.9896,-517.6794,50.7489,36.7383,78.2138,75.4187,9.4326,808.0394,194.8864,625.4279,188.9988
-3523.4375,-622.7566,-559.1920,24.2035,-209.7985,48.9501,-107.1627,62.7373,170.5469,504.1637,239.7606,-80.2201,265.0273,212.9480,-39.6931,143.9754,92.4113,-358.1950,-230.6386,22.0883,293.1081
-3515.6250,36.5797,-145.8158,-277.8148,-78.2015,-105.0297,106.5170,312.4809,163.5081,-128.5292,86.7770,98.4968,296.5719,-419.6260,-47.3505,393.8047,48.0724,-337.2370,-243.9212,8.9767,212.4693
-3507.8125,-687.9927,-729.3792,-78.6998,-135.4393,-126.8976,-355.6897,-185.6954,-187.4128,583.9495,-191.0999,-582.7659,239.2729,402.9649,149.1909,42.7242,-72.4906,727.0944,120.0449,687.1588,190.9774
-3500.0000,-48.9306,-195.3086,-40.8741,-94.9874,57.9506,87.8095,403.8279,218.3803,107.1658,288.7455,376.6496,425.6867,-147.7098,-143.5583,338.3457,60.2109,-995.9169,-582.2785,-330.9588,266.2018
-3492.1875,-93.1131,-275.5275,-229.3325,-69.7883,-203.4642,-246.9455,-3.8968,-115.0763,64.1095,-228.6736,-323.2357,422.8526,-41.6684,108.4612,113.7016,-89.4249,501.9165,73.1960,498.7447,115.1709
-3484.3750,-452.8082,-388.2625,51.8217,-76.9957,-33.2839,-223.1395,-163.0852,-89.9597,381.7277,-20.5190,-75.6382,705.6077,348.0478,96.1185,-45.3849,-54.1128,-177.4982,-182.6474,66.1615,212.7464
-3476.5625,351.1975,62.6740,-209.3323,22.4959,-73.3827,31.3911,237.4777,89.8783,-356.9700,49.3617,400.6761,851.0724,-353.5595,-18.5270,98.2465,-22.3097,-646.2933,-402.7992,-259.7473,136.0307
-3468.7500,-426.7531,-573.3674,-100.4146,-17.8968,-185.4118,-447.0045,-350.9090,-277.2018,265.4460,-317.6904,-444.0412,777.6293,378.9274,235.9736,-232.0785,-136.1268,788.2224,188.2499,541.5875,61.4070
-3460.9375,-112.6019,-84.2981,37.7082,49.9064,-10.2298,-14.1973,44.8919,80.9293,-110.8707,151.4812,504.3815,1027.3832,-34.3270,-30.3121,199.7888,-17.8953,-979.0660,-486.4709,-485.8533,162.9932
-3453.1250,-86.2983,-93.1116,-187.0554,39.8595,-197.9048,-201.2206,-105.1368,-177.7772,-299.0660,-291.1952,-12.0895,952.2839,-148.4724,148.5662,196.8192,-137.5182,274.8384,28.9882,169.8988,12.7249
-3445.3125,-593.1996,-424.1313,124.0829,-79.2881,3.2975,-330.3749,-307.3499,-232.6067,305.6952,-199.0014,-64.7860,1082.0760,346.3296,166.3928,-5.2878,-138.5614,80.8277,-91.5632,47.6723,104.3593
-3437.5000,414.2804,161.2183,-146.3793,-57.0428,-46.0790,23.8988,157.8620,-25.0118,-406.1481,-28.3780,621.9248,1217.2747,-476.4662,5.6221,386.0156,-109.7547,-849.8608,-458.7244,-566.1840,91.4051
-3429.6875,-217.9731,-331.1955,-105.5653,-92.4909,-189.1807,-448.5500,-425.6703,-424.1389,111.3037,-500.4949,-327.1694,1112.7714,152.0240,230.1923,60.5673,-268.3533,834.9424,207.5001,345.3883,-14.2533
-3421.8750,-104.4648,-41.8509,115.1142,-14.1006,67.5697,-42.1635,-19.3849,-91.4269,2.6669,-20.7597,446.5280,1262.1144,6.4282,10.6339,134.9601,-118.2363,-779.3670,-490.3835,-599.1484,133.9536
-3414.0625,264.0100,44.4236,-194.2822,108.2393,-130.7225,-93.8136,-36.1224,-216.7552,-345.0505,-293.0752,139.1650,1027.4082,-304.2574,141.0282,83.3149,-157.8703,113.2770,-159.2936,-162.7166,45.1113
-3406.2500,-441.5630,-343.3487,56.3693,105.6325,-62.9877,-320.4466,-407.8827,-332.0666,310.3330,-298.3799,-195.2860,875.7433,351.1523,244.5175,-142.3376,-156.1011,424.1716,-58.0520,8.9027,113.3200
-3398.4375,314.6730,447.6937,-72.1264,229.8649,-8.3746,138.7885,161.2395,17.4899,-407.4128,50.1925,596.1077,857.9276,-403.5686,5.8599,279.8728,-42.3736,-898.1608,-569.9653,-855.6566,131.3919
-3390.6250,-197.7551,-30.9590,-125.3070,244.4548,-209.4324,-280.6383,-332.3120,-328.6159,-20.8218,-368.9113,-375.2382,622.4489,57.0300,282.5826,-67.5912,-133.7324,872.0091,110.5438,140.2385,4.8086
-3382.8125,-178.5829,22.9913,72.2230,227.7366,25.2034,27.6138,-23.2080,-19.0316,104.5400,87.6844,229.0294,675.6545,71.3898,76.0380,58.6388,1.0019,-555.0468,-435.1974,-617.0992,93.9342
-3375.0000,412.5489,297.8677,-258.3192,256.9612,-85.1957,101.8434,197.8932,-18.4743,-373.1685,-58.7527,194.2401,492.7993,-406.3382,2.4428,279.8424,-53.5097,-212.1897,-266.9866,-449.4825,-52.9913
-3367.1875,-377.4126,-210.3453,54.1247,206.1858,-29.6218,-208.9573,-298.0699,-255.9402,343.1649,-222.2227,-373.6871,328.9243,346.9619,130.8973,-142.0152,-108.0338,577.8795,101.3305,24.2804,-33.9176
-3359.3750,368.4181,394.2460,-17.5783,248.2473,119.8232,271.1094,255.8316,77.4644,-242.6160,148.1915,549.2151,369.8911,-275.8583,-123.7900,117.9831,-5.7831,-966.2700,-490.4985,-850.1187,79.0220
-3351.5625,59.3434,49.9078,-187.2195,256.4141,-87.6481,-45.7206,-135.1659,-275.0285,-46.3186,-315.3091,-354.8555,53.9496,31.3781,146.6469,-234.9423,-105.3567,727.7889,288.8278,140.6660,-53.9448
-3343.7500,-333.9393,42.3714,131.0516,285.4677,194.7719,127.3253,-36.3127,-138.6349,235.9539,4.0828,0.8697,79.8867,276.5714,24.0151,-245.9954,-18.5362,-302.1392,-35.8790,-360.5573,44.9971
-3335.9375,355.3334,485.3637,-65.1399,342.0594,72.7588,336.9416,247.1405,-76.6639,-437.2356,-116.9494,249.1521,-40.6349,-359.7116,-98.0725,220.5188,-71.5199,-389.5783,-87.0493,-447.2452,-39.5042
-3328.1250,-464.5511,-88.8201,107.5557,225.5495,25.6196,-78.5761,-350.5645,-379.8242,213.5011,-383.1223,-495.7900,-233.2826,400.9132,185.7836,-48.1196,-129.8986,793.0989,358.7729,314.1144,-50.1071
-3320.3125,203.6601,404.0960,66.4184,262.1717,167.6496,396.0510,195.8787,20.1709,-231.5684,127.8665,382.3964,-162.8016,-118.2672,-39.2076,205.4113,37.7969,-932.1068,-275.2488,-637.3778,56.4561
-3312.5000,242.7973,231.8977,-180.8464,230.6875,-42.4305,112.5786,-50.7621,-224.9386,-221.7625,-265.2624,-340.5510,-445.4338,-72.5905,117.7089,-78.1595,-59.2502,581.6611,360.6614,244.0834,-80.0826
-3304.6875,-339.0638,35.7094,160.0009,141.2939,188.5799,124.1642,-149.3636,-139.9758,229.2201,2.6835,-182.5130,-469.9913,342.2445,17.7601,-213.6740,6.9506,-3.3215,163.7489,11.7548,41.4889
-3296.8750,459.8635,518.3154,-141.3576,202.6918,106.4134,447.5747,282.8763,108.8067,-476.9969,142.4557,288.3364,-513.7587,-438.1308,-173.3918,182.6389,56.5409,-577.5885,-58.3787,-314.8080,-3.1284
-3289.0625,-210.4519,-82.3262,-104.9316,165.8931,-1.9825,7.7614,-303.1331,-182.6361,111.5918,-186.0062,-629.1244,-694.7509,261.2885,121.2927,-293.2885,2.7467,931.1386,572.3790,595.5545,-74.9485
-3281.2500,142.3556,341.1656,75.7159,167.2733,214.8403,409.1375,171.0524,182.1243,-111.5622,325.7494,250.5763,-513.5753,-73.0336,-175.8160,-223.0121,137.1652,-722.9421,-94.6428,-353.8632,32.4455
-3273.4375,290.1871,312.6483,-132.6566,209.6438,-29.3287,165.5268,0.2768,-24.1078,-319.7473,-101.4999,-249.7403,-609.4247,-243.3975,-89.9256,-173.7383,1.4644,513.0010,402.3587,284.7527,-101.1613
-3265.6250,-381.6209,-8.5007,227.4286,66.4579,108.9378,-26.6711,-337.1138,-104.9210,260.5753,1.6650,-367.7277,-579.8578,298.7400,-24.5439,-217.0712,13.4774,437.5785,363.9004,244.9452,1.6850
-3257.8125,399.6040,597.3884,13.5654,39.3134,116.2839,276.2073,258.5865,234.3360,-394.0474,303.9110,338.3397,-497.2628,-465.0742,-237.1202,120.6835,110.4393,-576.8841,-87.5246,-346.8448,9.5892
-3250.0000,-175.2378,57.1976,6.6305,-41.8838,-36.4411,-171.9889,-225.7837,-102.4799,151.2759,-105.9282,-622.7344,-686.7411,116.0398,13.2750,-398.6361,9.1519,1098.7747,605.0633,661.4293,-106.5647
-3242.1875,142.2898,304.4048,187.1684,-40.6540,180.2917,156.2415,175.2730,226.1478,74.1126,332.6833,145.5754,-541.7806,-72.3314,-209.8687,-255.5244,128.6218,-484.0876,-28.8672,-252.8047,0.7438
-3234.3750,562.5398,513.3154,-139.6146,-6.7384,-72.2650,125.1936,180.0795,84.4909,-325.3783,44.0058,-69.4311,-646.1373,-471.0438,-169.3111,6.2982,21.6704,250.7311,250.9085,130.6705,-141.2486
-3226.5625,-324.6982,46.7456,106.2050,-85.2336,25.7614,-70.2911,-234.5685,-73.5937,324.7841,-3.0998,-484.9738,-582.9314,214.8796,3.8859,-298.3147,26.1201,628.3417,417.3677,402.8803,-78.6422
-3218.7500,273.0341,645.1507,-6.9670,22.2473,96.8159,406.2394,313.8240,256.3420,-339.0296,325.8224,321.4891,-436.7546,-485.1789,-144.9307,30.1206,160.7458,-745.1362,-110.1958,-405.9404,-7.0240
-3210.9375,-265.2324,141.5396,-86.1642,46.7224,-129.1435,32.7589,-206.7879,-116.7359,-14.8537,-157.2810,-602.1099,-625.6227,-50.2651,143.2701,-196.4684,46.5174,1037.5145,618.3024,568.3293,-122.4127
-3203.1250,-353.8908,193.5641,183.3579,29.8865,140.6043,229.9609,27.2587,116.8736,108.0867,224.3106,-2.0805,-501.8390,72.4155,-65.8067,-73.3801,128.3885,-248.0665,36.5529,-153.6419,0.9084
-3195.3125,325.0813,450.2035,-21.5314,40.6387,8.9712,282.7878,226.9608,97.1012,-463.3981,19.5163,124.5717,-595.4932,-426.3380,-86.2966,53.3283,65.5045,41.8923,152.3914,-4.0300,-93.1687
-3187.5000,-390.3994,-194.6146,222.1766,-76.0173,32.9193,-97.8176,-262.7889,-208.1068,258.7464,-175.7176,-439.2873,-680.5932,369.5366,121.8470,-289.4198,-8.3248,909.6505,492.9215,547.3133,-68.6515
-3179.6875,286.0331,410.4987,153.8515,-31.7423,185.8489,349.5369,257.4330,164.6455,-286.1263,235.0203,448.8015,-453.7786,-250.6066,-129.0694,119.8144,100.8164,-736.7130,-202.6034,-429.4146,10.8251
-3171.8750,18.1736,177.3093,-45.7915,-16.7801,-50.5248,-33.4145,-163.6343,-144.9118,-119.3213,-221.5665,-412.4613,-542.3159,-46.0803,74.7227,-153.2418,-31.5026,894.7201,409.6241,498.6269,-115.0089
-3164.0625,-371.2716,138.5572,276.0881,-19.3328,123.6034,31.1100,-171.2443,-5.9893,203.0438,101.3380,-90.3007,-403.3970,239.0022,29.0397,-160.8258,65.9041,-59.2597,54.4055,-32.7570,23.6630
-3156.2500,360.8260,448.3344,-21.5426,10.6046,-25.7490,249.1779,193.7024,102.4649,-424.1267,98.7745,237.3946,-443.0132,-425.4623,-47.1600,167.1148,74.3952,-241.8381,12.6673,-144.6810,-52.1617
-3148.4375,-353.0218,-265.8393,116.9166,-105.3653,-71.0209,-199.6919,-292.3025,-163.0193,302.8360,-166.7386,-579.9332,-560.5889,301.1990,165.7772,-244.8976,8.6026,1013.9026,495.1305,619.6351,-96.8989
