Time,Fp1,Fp2,F3,F4,C3,C4,P3,P4,O1,O2,F7,F8,T7,T8,P7,P8,Fz,Cz,Pz,ref
-4000.0000,-174.9957,80.1560,4.1941,-57.0463,68.5466,-30.5773,196.3574,82.2654,-163.5747,203.9321,125.2887,8.9544,-141.7102,-522.1082,152.7395,160.9709,-182.0352,7.9906,100.3402,29.9835
-3992.1875,-196.8354,-462.1467,-53.8707,137.1046,12.6025,95.1566,-227.6352,25.8213,362.4367,-365.5921,-187.8948,-232.6892,275.0797,1030.2335,-197.7906,-371.4000,607.0733,62.0693,-55.1135,119.6027
-3984.3750,-332.5121,-346.2773,32.2830,-204.8529,28.4809,-76.9239,-28.4462,38.5708,261.6866,201.0974,119.1225,-184.1545,-7.9146,114.8314,74.8893,193.4440,-158.6457,-33.6665,167.6527,95.4202
-3976.5625,-405.7949,-238.9095,-150.1201,91.2332,80.9401,108.4557,50.2335,189.7996,-143.6815,22.2783,12.5993,-147.1504,27.5122,35.7915,79.0417,-22.2385,297.0598,215.0530,-40.1361,97.6829
-3968.7500,-395.5648,-785.0479,-98.9813,-63.0257,26.1878,123.4098,-298.5956,22.5787,493.5519,-180.0416,-154.4093,-463.6245,371.5370,1035.5067,-14.3014,-188.4240,414.3939,159.3266,81.6146,113.5005
-3960.9375,-530.2257,-246.9946,-47.6794,-160.2675,133.6541,99.5009,195.7444,148.5131,-84.0919,352.8391,118.7638,-265.9393,-21.3153,-502.7126,296.5340,232.5930,-210.1968,134.7292,164.5353,54.4624
-3953.1250,-397.0219,-634.0351,-88.4795,86.2124,101.5555,280.5103,-136.0204,72.3561,277.1378,-272.4201,-250.1861,-491.3478,413.7484,847.0446,38.2587,-319.5355,593.1835,168.0408,-81.6689,88.3257
-3945.3125,-356.1492,-623.4158,33.4402,-298.1657,78.3327,71.2127,-48.1202,-98.1104,469.1255,110.0162,-53.4538,-480.0863,276.5388,299.6191,346.6702,136.0340,-137.7397,-32.9593,105.8368,63.8881
-3937.5000,-420.7649,-260.1800,-137.0906,-30.4419,130.4924,157.4646,189.3666,-10.0071,-34.4113,54.0503,-75.1521,-246.2511,176.8393,-172.3589,362.6472,115.1882,81.8570,119.5957,-22.1107,40.9899
-3929.6875,-364.9436,-690.5410,-1.1748,9.4857,35.1379,182.1897,-370.7494,-130.4571,538.5414,-321.5270,-305.4471,-405.9908,531.6363,1132.3203,-87.9607,-189.2701,490.9980,109.5993,4.3740,66.5351
-3921.8750,-388.7546,-5.4850,92.1586,-92.9176,57.7008,91.3005,-17.4442,1.4902,-32.1030,252.3271,120.6699,-93.3307,-3.1840,-399.6327,7.8669,275.7021,-233.5205,55.9871,128.2670,13.4624
-3914.0625,-172.9547,-205.7511,-9.8655,246.1616,-8.4275,283.0798,-336.4860,48.0977,9.8695,-251.2063,-127.5884,-160.0063,260.6538,705.1211,-311.6692,-264.7102,582.6658,136.0371,-142.2247,59.0307
-3906.2500,-85.3357,-288.2146,50.9713,-110.5164,-71.5983,123.7068,-345.7354,-35.4639,287.7592,72.0655,-27.0282,-244.8609,172.3843,574.9398,-138.3829,18.6940,-31.2610,-16.0779,59.1268,47.4458
-3898.4375,-138.2961,192.8359,-71.7386,110.3103,-4.8121,221.7734,11.4996,173.4241,-351.9571,209.8150,-37.9920,34.7564,-98.4696,-326.8452,-148.6167,119.5839,-46.7862,147.2451,-58.0797,35.2952
-3890.6250,-83.8105,-344.6942,-12.0023,196.1089,-99.2859,281.3191,-513.8664,50.7499,218.8072,-242.0713,-343.5491,-199.1880,252.1784,1197.0337,-564.4326,-259.1498,538.2408,136.0178,-66.8735,95.5866
-3882.8125,-173.4945,134.6403,85.6012,-35.2730,-54.1323,83.7020,-119.3951,113.9057,-163.5573,336.9147,48.7585,43.7233,-203.3280,-256.2208,-207.3801,281.9894,-251.9340,-18.3816,96.1858,46.7087
-3875.0000,-122.1989,86.0170,-39.8047,334.3257,-17.3809,216.0958,-168.9247,100.0764,-255.9694,-190.1124,-148.9419,101.6611,36.1659,419.5278,-292.3362,-281.8911,504.9297,73.2233,-127.7811,68.8189
-3867.1875,15.0983,-226.6626,111.8002,-8.5393,-23.3994,-0.5028,-235.5217,-114.7690,259.6851,-108.1963,-68.6815,-115.4315,222.7080,674.4891,-176.3323,-238.8114,188.8492,-169.1814,53.2446,36.9249
-3859.3750,7.0214,263.3683,36.0648,43.2594,64.0826,-76.4570,207.5660,32.0405,-333.0532,187.4035,115.2458,103.1565,-76.1379,-583.9849,118.3453,-18.0425,-28.6380,-138.9444,-20.0747,-1.3370
-3851.5625,109.1367,-262.4180,71.5227,180.5686,-35.3847,32.8130,-342.1830,-40.9543,287.4235,-398.8661,-251.6697,-120.0517,326.2588,989.9207,-211.8210,-420.1448,639.1704,-101.5050,-192.2308,71.5931
-3843.7500,37.2996,93.8356,187.0466,-130.6212,-4.7872,-145.8746,-77.9166,-33.9206,68.9849,197.9240,48.4710,31.7817,-2.2870,-225.0463,54.0479,174.8150,-239.0014,-167.0404,23.6728,40.5599
-3835.9375,28.4630,197.1470,36.5641,236.9602,8.5205,-2.5537,-78.6460,74.1266,-193.5184,-96.2837,-137.3893,174.6434,66.1527,58.9614,-168.0861,-194.2324,352.8460,4.4221,-154.4429,37.5135
-3828.1250,13.0934,-164.1231,137.5436,38.1738,-60.6292,-86.7756,-379.0011,-155.3954,380.4906,-177.1119,-218.8451,-20.0716,238.1006,778.6474,-175.8100,-237.9015,269.2260,-76.6797,12.8779,27.9096
-3820.3125,-135.2314,398.7162,28.5836,17.0688,23.4523,-84.9736,176.7160,-41.8739,-171.4742,232.1529,-32.2291,202.2936,-166.9259,-697.6909,196.5434,170.5172,-226.4040,-7.7523,-21.7491,-43.6657
-3812.5000,-138.7889,-128.6957,-11.6341,209.6641,-1.5128,95.5998,-191.8482,-79.6043,300.3120,-354.8978,-399.9027,-95.5824,305.8288,837.8584,-172.3950,-344.3766,544.8138,62.9278,-231.6710,27.4956
-3804.6875,-167.5326,-9.3334,109.9654,-146.2218,-6.6641,-78.0350,-67.6586,-141.5589,307.9602,99.8329,16.2047,-85.6742,57.4053,34.3225,-48.5474,146.5139,-219.1676,-100.6103,-76.7889,75.4408
-3796.8750,-91.1830,143.2072,-29.3333,140.8130,19.1344,77.4330,-20.3466,-21.4159,-164.3456,-73.3369,62.4115,69.3763,-8.9317,-74.1923,-221.5915,-27.4967,140.9550,86.9512,-239.8296,157.4648
-3789.0625,-92.6722,-415.1337,9.5278,-1.1110,-56.4623,79.0541,-419.9553,-164.1524,385.5579,-214.4474,-80.2866,-223.4259,247.9505,1024.6605,-327.5357,-132.4406,282.3375,89.6628,-93.7505,196.6251
-3781.2500,-270.5096,117.2215,-19.9428,-92.1526,48.2817,12.2973,141.0921,27.7425,-197.9017,310.1091,110.6759,40.4510,-151.5327,-518.8767,48.1896,317.2939,-348.6791,59.0056,50.9848,130.4060
-3773.4375,-236.9267,-160.0006,-91.0210,227.1989,33.5122,161.9597,-148.4767,-5.9692,59.0193,-309.0030,-252.0008,-69.2564,252.4050,801.0987,-277.7155,-302.6360,496.7981,132.7531,-118.9212,169.5615
-3765.6250,-288.3656,-99.3038,-27.1239,-118.1045,-33.1250,-68.4417,-156.1575,-50.7635,229.9628,87.7825,-77.7537,-42.0346,94.3313,455.2152,-101.6959,93.3360,-184.7444,15.4273,81.1165,123.6467
-3757.8125,-335.5868,281.6681,-179.0146,110.6641,-13.6585,36.3444,99.3787,129.6380,-292.9465,85.7707,-44.3004,136.4269,-132.5637,149.4808,-104.4732,17.5112,-54.0992,114.2944,-100.6583,81.9051
-3750.0000,-155.0733,-304.6960,-96.2012,75.3958,-131.8343,118.8445,-402.4623,-43.2735,338.8996,-342.6370,-216.2116,-185.4180,205.2974,1772.6995,-385.6143,-337.6970,340.3607,18.8654,-193.7648,91.8433
-3742.1875,-146.1958,167.3202,31.9778,-132.9029,-50.9560,-47.3228,21.0382,12.1472,-160.8826,155.3125,170.2276,52.1001,-219.5011,386.2939,-72.4086,159.4610,-420.8779,-73.2289,-38.5166,36.0989
-3734.3750,-34.7928,-67.1273,-68.3530,206.2831,-59.4169,109.0247,-223.9763,-12.9372,-117.1875,-382.3073,-113.8624,24.1453,82.2157,1384.4780,-317.7357,-342.9414,397.4593,79.1816,-236.8071,82.8266
-3726.5625,-101.4527,-233.7140,-20.7685,-94.2308,-85.1688,-27.7266,-284.1706,-149.1603,220.4922,-223.1042,-28.0881,-75.9267,126.8849,1389.7920,-159.2062,-111.5034,-54.2503,17.4731,-16.2123,56.4315
-3718.7500,-195.8387,242.0282,-146.9307,63.3211,8.8704,66.7649,142.8972,20.8616,-385.6252,-89.6325,30.9462,128.3001,-74.2289,375.3103,-25.4210,22.2014,-145.7539,138.9981,-104.3834,-32.7453
-3710.9375,9.6181,-321.4295,-74.2997,92.2340,-75.3848,213.0738,-333.3148,-52.3322,236.0976,-527.4577,-298.2781,-277.6568,328.5031,1841.8765,-353.8986,-380.3888,379.6531,138.3198,-173.8021,-33.1411
-3703.1250,33.2152,60.2341,-5.5456,-217.8191,-64.5676,60.4563,30.5376,17.5412,42.9487,56.8070,-9.4006,-136.4978,-83.6544,469.6209,45.7093,204.1132,-508.8671,-10.2931,-39.1182,-75.4652
-3695.3125,20.2060,-16.7033,-200.4363,133.1492,-107.4988,233.1941,-124.2712,118.7519,-6.9018,-317.6305,-312.1855,-73.9596,87.5458,1079.7635,-146.3541,-136.0729,185.0257,88.4363,-291.1214,-12.4669
-3687.5000,-29.0062,-341.9406,-100.5631,-129.3415,-157.7236,111.6880,-353.4150,108.6650,421.0752,-253.4095,-322.2711,-232.6953,258.5632,1468.9237,-155.7120,-71.5782,-72.2477,-98.1024,-89.4003,13.2580
-3679.6875,-140.5417,220.5408,-137.0291,-37.7490,-59.1802,37.8151,16.1073,294.2073,-280.3277,80.4784,9.2927,62.2464,-36.7944,66.6932,-6.3941,150.5867,-286.9131,-29.0054,-90.0436,-23.4021
-3671.8750,-43.6304,-273.5909,-103.0935,147.3351,-103.4887,181.3551,-426.0255,144.1311,117.7009,-471.3271,-249.8034,-199.4086,363.2993,1531.0801,-337.7258,-327.9348,481.9348,37.4915,-198.3359,-26.6872
-3664.0625,-33.7293,-11.7800,136.8158,-178.2441,-24.6840,16.8174,-74.2577,53.9728,-86.2587,100.8030,64.0350,-144.1077,12.3625,367.5301,-60.1199,243.4868,-315.2812,-89.0933,-6.6772,-118.0570
-3656.2500,-43.7467,89.1414,94.7696,194.0536,68.9852,195.3302,32.5662,123.8604,-351.2052,-270.0380,-124.0909,-75.7141,115.4691,469.0432,-247.4674,-128.0745,311.5772,46.3672,-186.9997,-123.4145
-3648.4375,57.4915,-260.7655,169.9280,36.7886,-24.5452,122.0505,-258.5058,-58.0921,198.1429,-376.7791,-232.0748,-259.1205,262.8346,1275.0371,-318.6777,-235.5324,310.7346,-93.9846,-44.1616,-122.5992
-3640.6250,1.2336,357.8535,81.5459,13.6462,25.4270,-2.7986,206.8615,38.3846,-444.0676,125.9419,85.3956,56.9663,-158.3756,-252.5433,-37.4426,156.4793,-165.7070,-110.9097,-24.8866,-174.3687
-3632.8125,129.7394,-71.8214,69.8573,248.4949,-42.2173,169.0674,-244.1290,-8.4524,-53.5673,-471.7225,-145.4885,-102.2264,233.1460,1130.7562,-341.5633,-441.8907,598.6657,-84.1323,-278.9549,-112.4660
-3625.0000,111.1023,21.2861,239.9843,-138.8416,-5.6625,-66.2836,-72.3789,-95.5238,39.8097,-42.6314,172.3909,-79.6186,70.4949,340.0211,-21.9100,-50.4974,-191.1517,-239.5792,-80.2229,-126.7961
-3617.1875,98.2570,225.2243,119.8635,124.6221,76.0538,71.1079,140.1376,6.1493,-303.1085,-197.8098,89.0009,19.7923,95.5765,32.0161,6.4845,-206.3773,150.7888,-142.2803,-264.7610,-100.4153
-3609.3750,223.2298,-348.1265,107.5006,-28.3417,-24.7412,58.2633,-238.6787,-152.4587,379.8007,-465.3455,-105.7033,-287.0571,412.4702,1157.0378,-78.4441,-290.6068,313.5898,-189.2369,-203.5934,-76.3141
-3601.5625,164.5695,162.8616,53.4544,-164.9281,5.8309,3.6986,186.7969,15.2069,-154.9884,144.4244,208.8986,-46.5848,-11.3463,-481.6448,199.9284,281.4694,-374.3535,-243.9169,-81.1285,-130.9535
-3593.7500,232.3250,-151.7753,-58.2518,153.4057,-79.1927,222.5028,-254.4085,88.2116,98.5707,-369.5469,-86.1971,-158.7324,280.2158,727.1523,-204.3904,-270.1839,434.1463,-66.2512,-255.3601,-59.2755
-3585.9375,235.9905,-142.5816,96.9127,-201.8183,-113.1887,9.1409,-281.8418,-13.9759,325.0679,7.2667,106.5246,-188.0307,102.6762,327.0038,-10.9125,69.9639,-228.4653,-164.7618,0.2488,-51.7766
-3578.1250,198.5652,283.5439,-85.0660,19.9738,-35.4620,47.6184,53.5761,99.6730,-190.6263,84.9292,72.1003,34.5686,-44.0330,-483.3376,139.4021,35.9610,-122.2322,12.5636,-103.3187,-50.4668
-3570.3125,247.4700,-296.1127,-66.7874,13.9967,-87.9516,65.3548,-367.8438,-102.4690,412.9968,-263.2798,-240.1318,-279.5840,376.5656,855.8376,-62.0969,-311.8935,351.3802,66.1332,-84.6848,-32.9345
-3562.5000,158.2942,184.1102,32.3669,-185.5173,-16.0355,-57.0896,25.5594,-76.8028,-115.4857,352.3469,116.4856,-69.8624,-40.9902,-703.1035,222.2554,265.0925,-403.1880,15.5238,112.7907,-118.5882
-3554.6875,342.6337,-14.1747,-104.0361,185.5767,-70.6158,173.9178,-219.6008,-28.7078,-107.5261,-187.6470,-129.4806,-96.6530,115.9200,150.4857,-132.9781,-164.5415,416.7718,167.3704,-86.3277,-71.8263
-3546.8750,396.8044,-200.7383,-41.6854,-79.8254,-146.6931,14.6648,-340.0866,-112.9119,283.2768,-50.9703,-30.7465,-145.6987,65.6389,209.0601,-33.5134,8.5037,51.5374,14.9469,184.2855,-84.3493
-3539.0625,308.5453,314.2869,-90.8400,79.5903,-28.0336,1.8886,126.9402,58.3649,-283.4516,85.2078,67.4913,136.8079,-206.1659,-871.9233,139.4606,107.0549,-34.2317,105.0021,100.3795,-134.4159
-3531.2500,276.0705,-206.0051,-12.2953,180.3408,-52.5048,79.8252,-272.4083,-83.6882,307.5752,-386.0283,-258.6321,-116.9706,238.7841,638.0377,-185.9326,-401.7957,568.8143,110.7489,1.1224,-93.8097
-3523.4375,142.5750,159.6048,76.1732,-118.3766,-16.5355,-90.3667,75.1002,-67.8818,62.5555,217.6234,51.1387,45.1594,-152.3601,-710.0301,161.5545,165.2502,-301.2648,16.3736,153.7673,-153.3408
-3515.6250,222.3123,67.4168,-95.2132,203.5617,-25.3082,105.5919,51.7532,-17.9364,-38.3554,-136.6231,-192.9629,57.4850,-31.3503,-148.9148,-45.8333,-189.6012,343.8532,134.1467,-79.4743,-141.7609
-3507.8125,255.3438,-281.6021,-21.3983,-72.4541,-97.0100,-5.2501,-167.4781,-127.8382,511.0313,-98.7737,-229.9233,-89.9836,150.9206,363.6564,-82.0785,-115.3403,62.2507,-41.9010,62.4578,-106.0135
-3500.0000,120.7910,257.8095,-48.2279,-37.4822,-19.9650,-69.7654,211.6503,66.5866,-106.2496,280.4271,75.4703,250.9508,-208.4822,-988.4731,113.0239,189.2808,-316.0522,-32.6079,107.7294,-96.9555
-3492.1875,166.0242,-256.0833,-1.3561,151.0602,-86.1066,-22.5615,-291.5851,-33.3201,416.2020,-258.7871,-172.4982,77.6036,131.8645,527.3005,-243.2383,-314.4965,470.4688,15.3877,15.6498,-14.2292
-3484.3750,190.4405,20.1115,103.6446,-185.7366,-85.9988,-213.2803,-39.7720,-75.1734,371.8263,251.0654,117.6145,145.3556,-206.6654,-582.7155,83.5779,231.8020,-346.9160,-132.5473,220.6714,-57.4417
-3476.5625,216.0374,156.4716,-87.2567,128.3814,-42.1191,-73.9025,137.1442,27.0658,141.5148,-87.0106,-111.1875,248.2573,-142.1112,-482.6434,149.4729,-106.8233,137.8225,-69.3905,-32.2351,-29.5928
-3468.7500,218.3275,-188.6068,-46.5562,-8.8530,-142.1037,-144.9202,-225.4368,-225.1375,804.8999,-339.5965,-216.4584,140.7505,155.1010,438.2950,80.9000,-248.9378,142.2666,-240.6371,43.4278,9.8294
-3460.9375,150.1967,486.8687,-76.3421,-22.6651,-90.5302,-284.4560,223.4822,-145.8709,184.7815,109.3128,120.7681,552.7742,-280.1984,-1137.3110,345.8336,235.4638,-380.8326,-306.4021,84.5861,-21.2859
-3453.1250,228.5534,41.7535,-177.7304,226.1488,-154.4277,-129.5831,-171.2407,-136.2310,523.0709,-431.4794,-310.6584,415.2205,131.9447,267.6329,99.1233,-305.8268,402.5842,-225.7701,-79.9081,23.9691
-3445.3125,83.7467,77.3766,-65.3417,-150.4182,-93.9640,-311.9878,88.7196,-171.8924,595.1948,47.4257,-163.3661,342.4218,-15.1249,-430.5323,395.1410,99.5814,-337.2274,-367.4111,236.3347,-13.0608
-3437.5000,17.9718,297.0255,-131.9963,127.0557,18.6747,-159.4560,353.6364,-16.6138,159.2238,-54.7334,-192.1328,460.6198,-46.2628,-792.8008,293.1017,-77.0772,-15.0803,-220.1078,31.5024,-7.1802
-3429.6875,160.4187,-260.2711,-18.5394,36.4322,-64.8716,-156.8128,-121.4479,-161.2666,785.4294,-308.9021,-335.8572,131.9071,248.7596,422.2875,-71.9175,-294.7443,270.2847,-181.7118,35.7320,30.7740
-3421.8750,69.5666,252.0836,39.5343,-132.1611,18.5821,-245.5959,342.0420,-29.3495,289.2477,227.5335,52.0396,263.8275,-244.6419,-1176.0505,281.6510,241.2019,-415.7991,-165.7443,124.5658,-22.7079
-3414.0625,96.5643,-138.7702,-5.6515,168.6913,37.4365,1.3811,76.2462,-38.6992,425.8022,-368.3712,-250.3523,70.5322,111.7264,-9.5423,15.9199,-282.1719,420.9639,-31.0204,-92.8966,40.5256
-3406.2500,83.8581,-253.4572,131.3767,-183.8172,46.9682,-156.4547,103.5803,-158.8964,633.6519,-85.1431,-3.5828,-49.5755,63.3378,-277.6494,116.3353,1.6040,-153.0356,-148.1156,143.8288,28.9251
-3398.4375,95.0261,219.7216,-0.7936,50.3217,109.3015,-105.5075,413.7297,-70.3064,22.2687,-32.1036,121.9871,223.1657,-143.2780,-999.0306,132.5514,-19.8193,-69.2621,5.5808,-18.6582,6.0867
-3390.6250,304.8871,-305.5376,-0.3743,78.2611,6.7381,-69.9464,-101.6060,-254.1484,534.5533,-436.5767,-99.9124,-34.4832,259.7600,507.4302,-161.6936,-424.7385,423.2219,40.8811,-52.5824,40.8264
-3382.8125,185.9293,142.3298,65.1529,-160.2880,81.6669,-189.3068,332.1346,-189.9267,45.9738,217.0383,186.2840,140.9884,-117.1071,-934.9941,198.1538,118.4467,-397.2375,-6.7341,76.6000,-42.3638
-3375.0000,182.9045,-33.9019,-47.4839,190.3686,89.9603,28.1944,146.7158,-155.8737,-105.7799,-336.5602,-73.7062,102.3515,173.8799,90.4804,-61.1888,-325.5804,374.2220,97.5097,-171.3955,-9.7313
-3367.1875,181.4839,-207.6740,100.3947,-108.4446,26.4046,-191.8133,-36.2793,-338.3638,224.0688,-298.7387,0.7500,66.2039,173.4120,495.6603,12.9115,-142.1791,-47.7620,-78.7603,40.0989,-10.6232
-3359.3750,69.1438,317.6154,22.2758,-1.5360,103.6145,-232.8427,363.7458,-231.8706,-406.1048,-45.9084,106.2101,393.0985,-127.0896,-428.2567,267.0202,37.2398,-262.7920,-14.0382,-69.4102,-16.5477
-3351.5625,43.8542,-197.1830,-5.8975,116.5509,4.0538,-115.9077,-178.3424,-297.4580,150.7232,-442.2375,-289.4405,143.9511,284.4149,1123.9724,-18.9893,-432.4884,345.2498,66.6393,-199.0117,63.4548
-3343.7500,-150.2036,175.1666,16.0983,-174.2921,35.8126,-240.8425,137.6840,-238.9335,-123.2384,168.5716,62.0454,276.9655,-24.9204,-177.6078,298.1343,177.9342,-515.5890,-20.5535,30.5470,10.5776
-3335.9375,-61.8897,161.8745,-110.6169,152.2365,52.0217,-75.4800,121.0120,-110.1178,-323.9317,-178.3555,-138.1922,260.3198,67.0437,246.0958,134.5387,-169.3709,136.9121,103.5610,-160.6231,28.9725
-3328.1250,23.1831,-276.8171,17.3184,-118.9759,-18.3794,-132.4700,-119.0970,-165.6953,242.1293,-161.7223,-157.8335,-52.6905,157.7156,851.6689,78.5357,-117.1034,-23.8593,-21.6886,30.8364,7.9944
-3320.3125,-78.2068,221.9881,-12.2907,-74.7685,58.1098,-89.0304,330.2638,61.1630,-340.3663,249.3859,68.9811,211.7781,-277.1886,-538.4078,195.9930,184.6320,-405.2369,52.4914,35.7530,-23.5663
-3312.5000,-9.9507,-269.6758,-52.3589,164.2265,-50.4240,53.9790,-224.8697,57.5509,94.7288,-342.0528,-191.7088,60.8029,84.5014,1002.2159,-285.0499,-334.1792,402.0508,121.2213,-105.8232,44.4039
-3304.6875,-9.4141,14.8362,61.7867,-175.6140,-49.4210,-163.8342,-74.8429,-12.9046,-49.8922,101.6741,178.7856,139.0370,-169.5954,12.1113,13.0960,256.1948,-404.4726,17.1367,36.8027,9.5519
-3296.8750,13.4921,146.7023,-21.7762,137.0214,-3.7893,8.6549,-11.4995,85.9295,-429.2485,-93.3192,56.5743,238.6322,-145.4088,-35.7674,2.5407,60.8527,76.3110,146.3609,-185.3012,-3.0279
-3289.0625,132.1572,-224.8332,102.3164,36.8920,-88.4935,-89.1933,-401.5948,-121.6249,97.1284,-225.7610,-77.0444,142.8669,125.4945,898.2214,-167.4327,-109.9261,194.8432,18.2325,-101.7857,9.0215
-3281.2500,251.2039,671.9780,121.7216,131.5535,-89.6788,-253.7677,-15.3823,-138.9025,-583.1973,124.1116,236.6494,824.4290,-370.3247,-663.5817,35.9031,240.6251,-317.3835,-73.6141,-121.9600,-83.6573
-3273.4375,713.2450,783.7009,19.0139,612.7009,-285.3681,-174.4352,-522.2974,-352.3007,-393.6202,-605.2069,-87.7998,1126.9159,-144.2109,667.6082,-434.9037,-414.9992,566.3882,1.4499,-468.2769,-115.4537
-3265.6250,1058.1837,1237.1897,168.1203,408.2891,-381.7903,-467.3188,-448.4708,-571.9421,-357.1590,-309.7695,170.5315,1460.2041,-438.2715,-66.2906,-249.9487,-156.8596,-74.0269,-217.7009,-264.7992,-299.4667
-3257.8125,1374.0508,1591.5833,138.0713,635.9038,-294.4484,-388.3604,-146.7740,-492.7415,-865.8918,-413.4783,176.7253,1357.3862,-505.5073,-610.4484,-206.1504,-371.8700,313.3901,-218.0014,-334.4835,-441.6493
-3250.0000,1785.5759,1406.4661,280.5672,630.4880,-431.2531,-504.8438,-630.6027,-719.0247,-247.9947,-786.7365,-12.5833,1168.1039,-107.1327,524.1508,-505.8662,-708.4145,690.4584,-439.7541,-310.6432,-559.2921
-3242.1875,1680.5828,1198.7762,434.4694,243.1180,-232.5740,-609.9533,-109.0209,-566.9376,-721.6751,-119.5887,471.5224,990.2419,-396.3671,-1013.9236,-94.1639,-114.5295,57.8599,-475.1313,-133.3912,-665.5557
-3234.3750,1514.8204,1069.2528,337.5096,595.0658,-242.4842,-412.9028,-353.2996,-480.7162,-562.2100,-585.3517,152.7438,857.5502,-52.4326,66.1844,-449.3421,-690.5518,877.4935,-290.3404,-370.0310,-727.6840
-3226.5625,1341.6033,934.1200,492.0097,263.9808,-237.1124,-517.4122,-347.1932,-511.0887,-262.1989,-284.7107,232.3766,717.2892,-83.0106,-74.1151,-442.1129,-390.1661,317.6138,-358.1079,-120.2187,-796.3770
-3218.7500,1255.7971,850.3925,365.8633,330.6011,-108.7271,-312.5841,42.2969,-232.1184,-830.8772,-116.7049,363.3806,629.4212,-283.2700,-862.2029,-310.5280,-296.4081,373.0385,-198.5251,-171.0528,-813.7405
-3210.9375,1109.9409,741.4615,326.5573,525.0837,-260.6629,-205.8880,-512.4299,-346.3248,-246.6452,-598.9504,29.1860,553.3987,117.3772,607.7394,-571.1576,-741.8901,896.4192,-239.0807,-247.0664,-855.2626
-3203.1250,991.4728,659.8277,425.5570,162.1514,-158.2054,-217.9129,-82.8733,-211.2658,-553.0769,52.1231,311.3009,431.6859,-262.6855,-691.0576,-251.4862,-92.0494,144.0410,-288.3510,-48.7616,-905.5005
-3195.3125,974.4675,645.6254,259.9290,535.1631,-214.3123,56.4752,-285.9105,-83.8071,-611.1400,-373.4304,-3.2140,449.4043,-98.3481,136.5248,-638.4337,-479.8326,796.1055,-129.2110,-312.0756,-853.3506
-3187.5000,897.4362,604.2628,361.1974,298.4598,-306.3615,-100.2342,-516.1174,-167.4742,-179.2021,-346.1400,24.1231,405.0041,-108.0670,533.1721,-647.5217,-342.7609,402.1098,-243.1774,-108.4923,-827.3074
-3179.6875,896.0565,640.5519,321.0609,244.6164,-140.3748,-68.3495,-4.6898,12.4593,-699.6885,-93.2243,240.0775,438.2493,-407.2212,-611.7219,-356.9968,-127.0608,154.6473,-139.5479,-74.3013,-759.6786
-3171.8750,911.8699,657.9044,296.0076,510.5089,-272.2406,16.6494,-508.2118,-197.5285,-136.0300,-744.3024,-152.9159,450.6054,-28.2256,909.6196,-639.4319,-630.3513,733.3922,-159.7993,-271.0349,-675.9552
-3164.0625,886.9056,669.3720,379.1147,85.5172,-207.4075,-159.2218,-168.6015,-189.3905,-312.1643,-110.2219,113.2365,461.1105,-351.0759,-220.9015,-262.7138,39.5237,-170.7580,-220.9180,-49.5828,-632.0972
-3156.2500,947.8394,696.7206,107.0542,388.6691,-218.8603,82.7634,-146.1119,-57.3960,-511.4821,-346.2977,-122.7733,520.4946,-256.0891,169.3482,-388.1545,-343.7551,276.9579,-20.1748,-271.2969,-538.4008
-3148.4375,955.4103,740.5486,-36.4597,255.1559,-388.4387,-24.6952,-437.1479,-201.8761,42.8435,-343.8917,-267.2766,561.4133,-105.5000,873.3184,-348.1009,-488.5377,2.2838,-84.8844,-194.4773,-463.1541
-3140.6250,988.2347,810.6177,-189.7794,68.5663,-261.5914,-68.9694,107.0354,-25.1549,-480.6486,126.7613,19.4407,628.5568,-407.7503,-567.6555,50.1688,-55.0704,-528.2712,17.6047,-196.4423,-361.7124
-3132.8125,519.3318,728.8619,-246.9188,322.0060,-257.3232,56.9783,-318.6170,-46.2376,-59.9265,-408.4633,-368.6846,240.8992,86.2311,883.6582,-302.4088,-480.4706,233.4723,180.3214,-350.2303,-200.0685
-3125.0000,87.2570,332.8120,-41.2976,-222.5337,-60.7886,-68.3448,-2.5474,11.3990,-2.3822,127.0546,-54.0636,-178.0295,-40.0213,22.7500,124.7516,128.8744,-550.0475,133.7707,-9.2390,-106.6794
-3117.1875,-130.7137,221.8409,-162.6352,5.2571,72.0243,176.3770,242.6189,220.0830,-271.8327,3.6283,-176.3721,-261.8798,-15.2428,-134.2345,148.9618,-31.7265,-135.5173,266.2715,-122.2049,-10.2441
-3109.3750,-180.8573,-460.4690,-110.2225,-180.2087,-9.4986,226.8571,-146.5318,123.4851,440.5509,-55.1292,-309.9698,-651.0046,256.3535,983.6992,-93.1301,-127.6408,-10.1530,144.5264,2.5595,112.9517
-3101.5625,-400.7549,-81.5608,-121.6085,-352.5363,71.4039,104.5154,282.5370,295.0802,-48.8736,557.3660,81.6566,-514.9153,-195.8783,-571.3060,262.0086,484.6960,-617.6833,133.9784,133.5499,136.3484
-3093.7500,-399.5441,-607.6158,-199.9681,-150.1821,71.8039,319.2438,-16.3521,289.7295,238.7455,-0.1325,-217.6974,-813.7631,201.9605,711.7662,110.1656,38.0370,155.9063,203.5032,-42.4326,239.7999
-3085.9375,-502.5218,-780.9819,-127.5689,-619.2955,106.0977,97.7211,165.4645,250.1082,567.1947,475.1008,1.6781,-960.8780,127.5755,159.6515,402.0467,439.1195,-615.7604,28.7727,239.3548,310.0048
-3078.1250,-691.6125,-511.4526,-292.3309,-389.0656,175.1556,226.0509,404.1763,452.3437,144.4493,566.2095,18.9218,-795.1142,-1.9960,-446.7782,383.7947,383.0831,-452.6188,154.9017,190.9937,400.0601
-3070.3125,-655.1860,-1037.5448,-221.6599,-382.4532,126.6855,258.8552,-3.7265,265.0119,765.2307,231.6919,-205.4293,-1091.9283,360.9329,800.3951,86.9424,48.4339,5.0668,119.4967,261.0572,468.5765
-3062.5000,-754.2598,-538.1906,-176.5337,-549.9717,237.6601,119.0989,518.8334,236.1239,222.4798,790.6765,169.6904,-898.2989,-34.7119,-808.0941,462.5555,570.2806,-657.8799,53.5345,406.6037,401.5427
-3054.6875,-701.1890,-836.7432,-308.3288,-235.3813,222.3187,317.4638,313.5115,213.3472,309.8082,290.7375,-147.1142,-992.5560,237.7546,237.4874,183.2466,70.1936,133.3207,209.6997,142.2289,451.6104
-3046.8750,-763.1588,-1003.4839,-190.2247,-565.1639,188.3776,177.7287,211.0442,110.4487,648.1292,517.6660,6.9549,-1094.9413,208.1650,136.0641,264.8138,369.9829,-386.5671,146.7646,324.7644,457.5860
-3039.0625,-859.3000,-536.3939,-290.3361,-377.0508,248.5988,260.7908,477.4340,302.3535,32.2117,709.4260,89.8535,-863.5078,-40.6534,-810.7443,346.2089,489.6165,-413.7217,328.6415,263.1115,428.3635
-3031.2500,-801.2890,-1111.2710,-231.3678,-304.9312,169.8099,353.9810,-52.1198,287.3421,567.4435,253.2052,-257.1881,-1135.9957,311.6839,719.6698,0.6545,69.2782,136.3233,420.6492,318.5405,448.2549
-3023.4375,-865.6898,-753.6187,-149.8474,-571.3970,222.7232,178.7024,358.8832,403.8682,244.2581,847.5660,81.3379,-942.9404,-85.4357,-669.4470,338.6702,590.5303,-668.1544,283.2075,498.5453,380.6989
-3015.6250,-770.2610,-904.1573,-237.5522,-238.0212,230.9169,310.2442,271.7133,462.2059,192.8353,390.7134,-44.3407,-883.0690,84.2417,-20.8467,67.4796,170.5778,59.1912,341.5930,206.3322,437.9505
-3007.8125,-612.5844,-1134.5820,-75.0531,-512.8114,170.5459,141.9972,28.6878,293.7192,648.7006,405.0071,80.1514,-1014.0227,172.1686,326.0773,8.4463,258.7924,-241.2193,251.1825,326.3182,451.4164
-3000.0000,-660.3189,-548.4175,-124.0035,-391.9674,275.5914,165.2848,493.2547,389.7783,11.0724,612.8997,251.2351,-731.3966,-171.3900,-973.6405,253.9834,501.6107,-466.1520,377.3223,242.8686,400.4362
-2992.1875,-620.4874,-1001.7961,-159.4622,-171.5155,204.6483,313.0912,91.2822,244.3288,525.9606,-11.7679,-116.2136,-876.2773,234.5924,573.2228,-76.0218,-48.1220,276.5021,378.9734,68.8883,436.9715
-2984.3750,-709.1080,-703.7210,-67.4122,-471.5752,243.3658,74.3793,402.7911,188.3726,360.4013,483.0958,232.8500,-672.6752,-41.9256,-621.4524,236.4829,482.6855,-518.4047,183.1113,329.4308,380.0209
-2976.5625,-653.0611,-611.9928,-194.7370,-154.8910,271.7992,203.3316,421.9882,280.0893,86.4406,98.6321,67.5743,-542.4044,88.1881,-344.6059,144.6422,171.1629,-5.6699,271.9247,103.6221,397.7367
-2968.7500,-485.9743,-974.3720,-133.0697,-359.3148,188.1874,153.3001,116.1322,83.8001,624.5652,-98.8725,54.2605,-738.1796,295.3547,452.3691,132.7572,47.6043,-121.8750,190.7510,162.8215,420.4752
-2960.9375,-444.3797,-264.2375,-124.9064,-341.5330,240.8568,86.7583,489.8288,127.0254,-29.8331,238.1958,317.4795,-361.4428,-28.0146,-973.3423,433.4064,384.6116,-609.6805,159.0679,96.5591,352.7260
-2953.1250,-282.2043,-665.5922,-104.2218,-81.8054,182.5058,217.7897,33.0691,36.8107,247.3278,-367.2299,7.2182,-487.1615,396.1942,481.5353,49.5769,-73.8784,221.1361,178.9580,-94.1678,371.5499
-2945.3125,-363.6533,-536.6625,104.8115,-428.2075,217.6685,-14.8321,204.6346,24.9296,234.9068,98.7097,215.3085,-424.5548,164.7702,-338.2285,257.0889,428.0053,-530.7361,25.1921,174.4898,321.7446
-2937.5000,-459.8986,-246.5077,-34.9772,-97.6315,249.5351,138.7575,358.4446,214.2703,-161.3759,-5.1158,111.6193,-269.7278,60.5154,-551.9612,191.8189,214.1282,-136.4346,136.6376,5.3586,327.1558
-2929.6875,-365.4017,-680.7510,-12.0854,-173.8041,118.8673,161.0695,-97.0988,53.3016,412.1096,-204.2963,-50.4044,-430.2322,340.0180,537.1379,-6.7920,88.9005,27.6441,53.7941,62.9236,348.2948
-2921.8750,-314.9409,-138.0510,4.7524,-290.9294,143.6142,66.3190,249.3401,105.2930,-233.4605,435.5508,332.5573,-118.7798,-84.5653,-1026.9762,228.5685,618.6890,-628.4257,-4.1001,180.4790,289.4005
-2914.0625,-137.4177,-524.3297,-70.3795,1.0010,74.9565,247.6450,-155.1691,103.3572,-88.0027,-6.5661,37.5512,-303.2821,207.9157,222.9456,-103.0535,102.5095,251.6155,101.0893,41.0698,323.5818
-2906.2500,-157.0719,-544.8856,19.3008,-340.8541,40.1722,80.7675,-102.9143,82.2104,112.3305,449.1197,126.3356,-433.0279,40.2195,-202.2911,97.1085,448.1480,-332.5559,-26.9204,334.4915,264.5898
-2898.4375,-220.0794,-115.7736,-119.3853,-76.4461,91.6648,124.5468,198.0545,235.7329,-284.7406,456.5081,59.7988,-167.1149,-135.8635,-857.0795,213.9578,344.4893,-150.1329,84.7383,164.5744,234.2701
-2890.6250,-92.6608,-517.3545,-25.6905,11.6420,-25.6104,107.7537,-333.6198,-2.3550,358.6389,-75.7692,-179.3701,-146.8307,213.5105,486.6487,-96.8275,-39.8199,291.7768,32.8206,79.0400,252.3823
-2882.8125,-151.3874,90.8984,-11.1463,-103.2800,-14.9172,-62.1971,48.5783,-24.5994,-140.1242,451.8536,91.3487,309.3042,-249.2785,-1042.9053,137.2641,634.7749,-436.5485,7.7535,159.3820,155.3648
-2875.0000,-188.5664,-87.3019,-162.0698,274.1417,-84.7283,190.4276,-212.6525,43.7211,-108.3794,7.0136,-390.3771,269.0040,-106.5096,-52.9750,-160.1074,335.9067,368.7109,213.2688,-55.7495,149.9240
-2867.1875,-264.8757,-200.7432,-58.1444,-17.5861,-77.8067,109.9139,-182.0805,-0.1149,289.2827,183.0122,-324.2653,79.5152,-75.8459,-23.1191,16.3479,291.8730,-96.1651,99.6387,146.9764,105.3658
-2859.3750,-233.5426,216.4859,-26.5885,128.4654,124.8925,104.0472,326.2040,140.7174,-267.4652,249.7289,-72.4602,221.6849,-228.5683,-1058.8246,230.4933,-81.4432,-101.4696,163.6710,70.3714,98.4800
-2851.5625,-128.5348,-417.7179,77.5941,157.7632,102.7829,171.8512,-119.8916,-48.8010,314.4612,-306.9676,-336.0307,-149.5296,243.4125,443.2148,-31.7365,-456.1536,493.9648,125.3815,34.4027,165.2751
-2843.7500,-319.6281,-118.0630,99.6825,-179.4035,118.5029,-26.4608,194.9279,8.5708,5.3139,339.2757,-56.6742,-16.8571,-138.7090,-1005.9385,357.9655,522.0872,-366.7737,72.9883,226.3701,75.9921
-2835.9375,-334.5366,-169.1946,-137.0476,138.3887,60.9232,176.4446,104.9887,175.1664,-83.6828,26.7349,-295.1148,3.0356,-9.6385,-434.0066,119.8674,283.5434,249.7024,160.8200,33.5203,57.9338
-2828.1250,-231.0376,-454.0257,-30.3790,-134.5858,-0.2749,99.7657,-81.6082,98.1572,463.7967,169.5696,-189.1776,-182.7077,134.8765,4.4381,5.1284,95.3787,-69.3821,16.0603,206.0741,53.3103
-2820.3125,-171.6576,96.0554,-45.8220,-72.9293,134.5854,82.9803,415.7510,302.0678,-103.8669,447.3784,124.7088,58.4605,-138.7484,-1263.4215,210.3275,-177.8163,-399.6604,-30.7935,263.5507,109.6156
-2812.5000,-45.1226,-516.7751,-107.1388,75.4089,99.2315,169.3770,24.2346,131.1366,496.6215,-238.7050,-230.2756,-221.2376,314.8139,292.9275,-108.3513,-754.8963,358.2915,-12.4694,247.1590,268.1074
-2804.6875,-159.6895,-316.7551,-79.5497,-298.1334,104.3311,-97.3306,308.6063,84.1046,376.0412,228.1493,53.6568,-120.0576,11.2810,-819.8625,174.8832,189.9725,-461.9153,-165.2489,517.6951,220.5267
-2796.8750,-192.5816,-140.0202,-225.2773,37.8915,90.0859,51.6774,273.7254,231.8036,11.0872,46.7390,-128.6892,-7.1561,50.4260,-671.1003,-6.1600,117.5761,67.5560,-24.3090,306.9301,184.6745
-2789.0625,-171.3252,-542.2363,-92.8652,-113.4238,11.1593,35.8538,-109.0565,141.6519,546.3475,-6.5608,-218.9072,-243.1389,254.7675,231.9390,-132.0865,-81.6949,86.2294,-75.2081,397.3204,168.0116
-2781.2500,-241.9404,18.6927,-94.3089,-129.7909,96.0292,-1.8281,367.3655,250.6653,-116.2713,469.3707,73.0732,15.0331,-149.7794,-1203.0619,160.1744,284.2728,-373.0552,-112.9535,359.8956,129.5269
-2773.4375,-154.4612,-458.3213,-118.6794,121.9411,79.0818,155.6227,11.8862,151.8006,189.1983,-143.6299,-244.8612,-193.7072,265.7990,242.0586,-195.4908,-181.6844,486.8211,-27.5671,94.5523,214.1770
-2765.6250,-163.8410,-398.2564,56.1064,-199.2497,110.4355,-36.7765,148.5380,33.0829,142.8739,286.5436,2.3650,-202.3234,36.5477,-391.6658,-21.0106,212.5323,-157.1898,-74.0341,293.3902,167.0063
-2757.8125,-81.8063,-0.7301,-42.6812,131.5784,141.8830,84.2870,270.7037,116.8524,-396.0638,114.2279,14.0690,-5.4716,-62.2869,-638.1204,27.9475,-69.7564,205.2012,40.9721,57.6917,141.3084
-2750.0000,43.8267,-438.7128,86.1166,45.4293,51.0617,-6.0236,-187.5660,-84.7704,173.6559,-234.5301,-151.6562,-170.0668,250.5317,556.1493,-27.5272,-272.4884,435.2574,-80.4003,6.5938,159.2463
-2742.1875,-73.6722,214.1960,108.8208,-48.2901,113.3573,-130.4501,239.1114,11.5121,-390.7313,265.6831,237.5605,184.2270,-166.7688,-1001.8417,251.9366,227.7537,-247.8914,-95.8729,26.4303,108.1136
-2734.3750,-6.1531,-34.8591,67.5511,288.7981,71.2993,84.1931,-132.1478,42.8703,-212.0950,-327.0626,-24.1802,142.5721,120.9970,242.1850,-156.5606,-364.9641,523.0538,110.7352,-187.6996,139.0689
-2726.5625,40.5112,-60.8423,153.4220,-42.9318,7.1653,-13.0106,-157.2954,-18.6279,-52.2430,-21.6530,134.2324,119.0326,-13.0639,-39.5886,38.0802,13.4880,-135.8666,-20.5032,32.3397,77.2114
-2718.7500,16.2532,370.2952,16.3666,166.2503,17.5531,107.8949,110.7178,139.0009,-557.3591,-12.0808,144.7896,351.6071,-259.0693,-655.4625,195.8545,135.1095,-91.7535,-11.6215,-133.5111,50.4818
-2710.9375,56.8452,-222.8026,19.1431,141.1275,-98.7711,145.6798,-365.4621,-6.5194,142.4073,-340.7082,-111.8234,95.0000,108.8243,853.6289,-169.5649,-157.4616,299.3003,-76.8685,-163.5235,124.6424
-2703.1250,-89.1968,225.4738,11.3334,-62.2484,-68.1200,27.8483,-5.2189,95.3657,-268.4236,313.1282,248.0022,346.7812,-264.8942,-551.9988,42.4426,422.4341,-482.3288,-85.7200,-67.0991,80.2325
-2695.3125,-87.8214,155.1921,-173.0445,280.9615,-129.2655,247.4909,-263.4921,130.7242,-232.8547,-129.5811,-46.7197,309.0226,-8.1649,364.7491,-215.1014,-56.2208,221.5185,54.9094,-312.2415,115.3044
-2687.5000,-80.5581,-49.2830,-94.5222,-38.2170,-202.1749,69.0456,-404.9066,-47.0258,176.6756,58.5895,67.4486,205.1269,-2.4959,480.4941,-25.7671,169.0148,-194.7186,-149.5529,-95.4757,120.3150
-2679.6875,-74.3344,341.2627,-199.0075,66.8209,-105.8264,37.6000,40.7419,30.2424,-368.8537,247.8169,256.6647,468.2478,-254.8615,-618.9545,162.6031,358.3141,-296.0340,-76.0080,-161.6951,88.3560
-2671.8750,19.5219,-268.6118,-138.8616,149.8049,-138.6977,171.8315,-375.9892,-92.8327,278.2888,-317.3494,-50.4905,123.9934,172.4583,911.3453,-218.4022,-96.7811,325.3863,17.2095,-209.2793,111.0854
-2664.0625,-77.7868,53.3187,-55.8650,-144.8060,-59.9178,33.9015,37.1344,-47.0509,30.3072,243.3951,289.2295,171.5637,-185.3788,-403.5791,84.4635,390.0335,-477.4169,-11.7268,-26.9844,46.6917
-2656.2500,-125.1319,74.2623,-145.8852,185.6536,-14.9646,201.9879,21.2954,9.7626,-131.7328,-139.8324,88.9608,193.1411,18.7704,57.3848,-114.6635,5.8709,141.7777,80.3563,-286.6962,67.3261
-2648.4375,-165.8047,-214.1861,-42.2049,-43.7319,-104.9263,47.7851,-278.8939,-143.7253,411.9906,-73.3888,7.3819,112.3769,159.6697,601.1694,-195.1126,72.3899,-76.2902,2.1572,-187.7093,59.6980
-2640.6250,-291.1793,326.7305,-136.1780,-3.9999,-50.0213,27.9268,105.3243,56.1620,-232.9815,346.4878,134.2007,386.9672,-228.1164,-707.8890,114.8435,346.3331,-449.1053,121.3136,-174.3490,2.4450
-2632.8125,-134.0774,-256.9083,-121.6752,147.2961,-49.4194,116.5961,-246.9711,-76.4266,222.5493,-263.1661,-144.5001,34.0415,227.6261,776.6186,-18.7160,-300.2635,373.6523,135.9932,-194.5074,16.7271
-2625.0000,-38.0078,-91.5992,127.8264,-215.3329,79.7481,-183.7420,149.7230,-193.0187,68.1259,207.2145,251.8216,-45.9085,0.3778,-333.8797,305.7318,133.1806,-268.6436,-85.3309,76.3556,-63.9600
-2617.1875,108.4680,159.1830,130.7658,142.6782,136.9048,-107.6261,226.9152,-153.1329,-258.9219,-120.9237,218.6205,141.6144,3.5500,-332.0374,14.6451,-193.8919,263.4826,-9.1864,-164.3361,-24.1702
-2609.3750,163.9739,-244.0852,183.7450,-27.9599,16.8660,-201.4430,-234.8901,-285.2026,345.1312,-289.0610,86.4477,-24.8537,239.8216,638.0480,-116.4171,-288.9456,246.7189,-59.9828,-109.9886,64.7056
-2601.5625,-81.2169,316.9966,34.0683,-104.6289,78.8834,-276.9117,240.7001,-65.9122,-244.4994,223.2228,268.6656,230.0261,-128.5919,-835.6388,285.9154,223.4243,-351.7905,-27.4313,-76.2724,62.9560
-2593.7500,-76.6348,-66.1492,-147.8286,168.9578,-9.1925,-55.5467,-88.9134,-65.7990,159.6406,-400.7144,-134.3291,84.6973,239.8141,598.5056,-6.9720,-216.4243,425.5613,-23.0590,-247.7812,137.0393
-2585.9375,-55.6772,128.0367,-53.3265,-139.0421,-57.0993,-217.7832,-30.1549,-154.2829,218.2283,-11.2267,180.0824,142.7364,4.6472,-42.9170,123.5353,209.1543,-292.7071,-178.2850,-16.8755,121.5509
-2578.1250,23.2273,452.2487,-155.8356,169.0595,-31.5295,-100.0162,86.6662,-36.7394,-289.2588,-114.6935,187.5247,408.7913,-134.5495,-404.5063,58.0780,32.7886,-4.0170,-30.5013,-148.9653,129.0840
-2570.3125,119.0450,-50.6564,-94.4039,129.4838,-124.3940,-75.2748,-365.6033,-196.2479,286.2466,-421.2604,-8.1048,175.7712,146.2571,832.9896,-100.4662,-273.6667,301.6993,-40.7521,-124.1175,153.6015
-2562.5000,-1.2293,495.3987,-71.0125,21.5536,-38.1601,-197.5946,99.0975,-61.7976,-240.3215,80.1956,272.2629,420.7030,-270.0111,-725.6922,215.9600,190.8994,-311.7222,-22.0537,-0.3003,67.0907
-2554.6875,46.7221,154.6997,-133.3893,360.6391,-27.3917,70.3655,-145.9521,-87.0665,-155.6960,-459.1003,-46.1198,285.8975,108.9673,424.8564,-139.3833,-384.2956,544.1508,95.9224,-198.2558,78.8576
-2546.8750,-30.1405,5.1372,43.4344,18.2900,-7.8374,-81.4724,-151.8424,-240.1404,58.1769,-134.2033,56.6963,170.2733,103.1728,159.6877,0.4643,-24.2876,8.2243,17.0957,3.9986,35.8549
-2539.0625,-152.7910,478.8571,-48.4962,222.9271,73.4691,8.9282,196.5837,-75.9477,-548.7745,-79.9991,37.8140,371.9219,-135.4044,-632.4166,129.6059,68.0261,24.4867,104.5215,-83.4932,17.1229
-2531.2500,-127.4584,10.5083,-62.4294,246.8903,-23.2022,68.3496,-258.0231,-199.7603,24.3020,-461.8488,-270.0770,63.5409,217.0686,822.5988,-178.2805,-276.7040,471.8318,93.9591,-60.0128,76.4244
-2523.4375,-303.9689,429.3510,-62.1487,37.7172,25.6535,-77.0428,146.5837,-53.3705,-415.4162,237.5518,61.2703,249.3503,-222.2697,-611.2692,42.0635,238.8265,-268.7072,56.6007,289.6798,3.9478
-2515.6250,-218.6726,196.0547,-119.0350,343.4077,50.2729,122.4392,-20.9343,73.8906,-472.3299,-114.1860,-179.5290,155.0157,88.2379,138.6486,-235.7353,-222.7947,483.6198,177.1218,128.2011,-16.6540
-2507.8125,-102.6049,-110.5193,40.8804,-1.9393,-5.3233,-47.2747,-189.7023,-23.0510,-55.3693,82.8632,-130.5417,-14.5603,248.5797,371.4823,-221.7510,11.3693,106.7665,-58.5462,244.5258,-76.4243
-2500.0000,-158.8341,359.6843,-53.4589,78.5272,65.6094,5.7467,230.3272,176.7822,-626.7071,283.7431,-39.7587,186.6279,-28.3754,-716.1151,-21.9824,248.3506,-126.4169,-10.4573,152.6154,-133.4245
-2492.1875,-129.2844,-210.3657,-25.0192,155.5560,37.4013,71.5949,-145.8783,58.4396,25.7755,-275.6212,-378.1930,-152.4054,404.4988,818.1933,-324.4424,-236.9107,501.2790,53.4530,75.4820,-104.5944
-2484.3750,-144.3237,53.0040,69.8697,-198.4841,90.3192,-127.1144,207.3625,43.5524,-136.2545,297.5056,9.8449,-94.0094,58.8185,-411.0789,27.5700,262.3286,-359.6395,1.8088,235.8202,-156.2915
-2476.5625,-89.7676,71.0492,-23.6083,118.7215,77.0586,36.8406,114.2907,134.3465,-228.6875,-53.7009,-83.4579,-39.9499,112.7705,8.2052,-139.7502,-88.7597,221.0930,126.8273,-62.2086,-102.3174
-2468.7500,-24.7427,-286.4815,78.4212,-101.0810,-20.9002,-43.6927,-186.3316,-57.3658,351.4449,-61.4404,-54.2855,-193.4299,216.2679,661.1393,-146.6020,-96.3714,74.3770,-19.6514,37.2505,-72.8138
-2460.9375,-69.9583,263.8327,69.2568,-47.7931,65.4243,-52.4439,281.8901,43.7327,-282.6640,260.6896,193.7375,127.8992,-197.4687,-746.2874,101.3820,188.8804,-287.6270,-30.3300,61.5245,-118.4948
-2453.1250,83.0551,-216.6267,43.3257,149.3084,-12.6665,68.0758,-148.6485,-18.9081,205.4710,-389.9776,-126.9966,-8.5197,181.0724,733.6083,-255.4058,-277.6592,427.6875,17.2566,-101.9809,-70.8992
-2445.3125,69.3358,13.1714,102.7042,-208.5435,-24.0951,-129.1161,58.0975,-32.2512,154.9420,147.6724,190.5881,51.3393,-53.0711,-200.1727,24.1101,297.1238,-395.7340,-138.8616,94.8308,-120.9825
-2437.5000,-14.9268,174.5062,-60.4223,86.3683,20.6604,39.1963,190.3826,135.9388,-156.1666,-52.1368,138.6998,146.7118,-31.7415,-217.5731,-27.8619,23.4416,11.3273,-11.4661,-165.8698,-99.5526
-2429.6875,31.4995,-237.5341,22.1522,-37.2368,-69.6648,12.2261,-204.6887,-39.1675,478.4707,-263.2852,0.4898,-65.2546,235.3285,819.8936,-239.1669,-186.5706,92.1522,-71.3697,-153.8885,-53.3968
-2421.8750,-5.1540,357.3929,21.6813,-104.2627,-7.0073,-98.8162,235.2256,70.6790,-147.9660,213.5808,294.2772,265.7361,-205.6813,-689.8166,53.5220,253.4372,-507.1660,-72.3349,-121.9392,-90.2738
-2414.0625,83.5568,-13.2751,-36.4073,184.7340,-58.1842,65.5542,-151.4624,50.9403,162.9781,-394.1812,-94.5379,99.1353,177.7180,648.9142,-223.3984,-281.1815,354.9722,-18.8889,-313.6195,-36.7260
-2406.2500,-47.7169,65.0650,83.5566,-158.5733,-61.2064,-72.0273,-69.1416,-49.7562,283.0237,56.1096,26.7030,35.5547,41.1887,68.7777,43.7260,170.2659,-339.8562,-151.3963,-95.2460,-63.1071
-2398.4375,-32.0806,431.3939,-83.5360,122.4861,-33.6997,19.3448,132.1715,40.5185,-251.0543,36.3984,42.9333,309.9398,-89.4252,-393.5406,23.8247,76.7091,-114.7758,-29.9483,-219.9318,-82.5270
-2390.6250,221.6859,-19.1904,-0.4809,82.8380,-133.8065,-82.1174,-336.4160,-134.0551,272.0605,-284.2160,-20.7169,135.4482,251.1539,864.4597,-260.9603,-280.7454,244.5336,-92.3405,-211.4877,-109.7745
-2382.8125,333.7650,583.5949,120.9351,-76.8914,-74.4485,-217.2519,79.3702,-11.2757,-305.4805,278.5874,359.0154,331.3085,-214.9386,-706.2824,44.6301,135.2000,-452.8865,-157.3875,-66.6688,-244.6645
-2375.0000,539.4720,295.0472,77.9891,253.3937,-112.5698,-1.7205,-220.1738,56.1717,-237.4122,-241.9727,58.3952,178.8248,37.6160,352.6258,-293.1391,-348.2288,420.3860,-56.7636,-248.2234,-249.8941
-2367.1875,609.8182,118.0925,262.7030,-90.2534,-144.4870,-148.5442,-293.1078,-15.7494,20.3692,16.0975,170.4206,68.9567,-35.1489,241.3011,-181.2696,-53.0224,-108.6826,-198.4923,-37.1268,-285.4576
-2359.3750,533.0161,498.0883,146.3191,65.1250,-47.2116,-80.4775,105.9070,88.2449,-610.0065,158.1251,200.3842,284.0008,-262.0573,-574.2737,32.5349,51.1424,-149.9099,-98.3173,-114.1375,-291.1177
-2351.5625,454.1861,-144.9520,131.9309,79.2283,-93.6070,16.6152,-275.1298,-72.7522,37.6470,-260.8978,-143.6875,-96.9849,129.0648,992.3089,-127.6988,-365.7387,369.9543,-107.1223,-157.1767,-193.7626
-2343.7500,316.5643,314.2486,171.8049,-164.9856,-29.8100,-164.0542,132.0902,-105.4941,-290.4342,294.3838,227.5183,53.2584,-235.5784,-366.9000,169.3421,188.6776,-400.9987,-209.6834,22.0502,-190.1540
-2335.9375,374.6556,266.2175,82.4186,187.8883,-8.0786,-31.9621,-29.9088,-121.4651,-379.8156,-199.5878,27.4785,37.2579,6.5210,314.6036,-66.8533,-267.1664,359.8204,-45.4854,-201.9934,-131.7882
-2328.1250,407.6892,-19.8648,225.9944,-113.1147,-29.9604,-218.9371,-180.9635,-234.4895,57.7687,-91.5916,61.4109,-112.7952,114.5663,531.0487,2.9250,-124.0384,39.5416,-154.3518,5.9170,-134.4669
-2320.3125,241.8561,412.2558,127.7108,-56.6693,45.3270,-170.7622,236.1544,-2.3544,-518.5328,288.5545,183.5016,120.3124,-205.2489,-635.4085,198.8632,109.2362,-265.5854,-73.0629,-19.0393,-158.9931
-2312.5000,243.5726,-150.1038,15.9874,104.2321,-70.4817,12.9661,-279.2208,-39.6794,30.7643,-190.7845,-111.8688,-102.0463,199.5100,943.8210,-242.6811,-368.9662,403.8767,-0.2408,-87.4583,-85.9557
-2304.6875,188.1172,215.4232,105.1246,-178.0665,-58.2726,-155.4790,-42.7199,-23.1491,-174.1199,303.7686,235.6498,25.4678,-115.9226,-255.1926,29.6463,161.7313,-389.8673,-161.5816,138.9672,-106.0592
-2296.8750,172.1919,233.4913,48.8006,147.6894,3.2382,-27.3735,-25.6955,30.9335,-376.4532,-47.1706,68.7122,115.5324,-24.7875,54.4330,-63.4881,-225.0515,191.0020,-36.3659,-54.0948,-51.5951
-2289.0625,175.3855,-186.3039,196.6339,-102.6402,-33.8510,-135.1345,-280.5453,-78.8329,212.3905,-45.9416,-40.0521,-139.2689,160.4943,716.2434,-171.4738,-186.6619,52.9879,-104.0026,90.0023,-12.9653
-2281.2500,93.3931,399.7997,150.3079,-84.4844,31.8948,-181.0440,150.4831,96.2768,-458.9664,460.1536,209.0554,107.7931,-289.4015,-728.1661,2.3953,208.5904,-344.1893,-8.7752,113.9419,-58.4795
-2273.4375,233.2983,-95.2365,74.8906,127.3149,-53.9853,0.9537,-254.6313,58.2840,-56.3713,-55.8904,-159.9556,-113.2751,76.6309,740.4647,-292.8550,-307.3078,427.5856,25.3426,7.7657,-59.0820
-2265.6250,169.2367,15.8010,196.5250,-194.1438,-3.8684,-172.0177,50.3395,33.3467,-8.7381,323.1689,35.1154,-102.3036,-169.3195,-95.9362,85.9952,71.8823,-268.6586,-73.4955,154.6457,-157.6343
-2257.8125,23.2945,220.9800,80.2999,109.6584,52.5299,-30.8359,191.4639,137.5645,-307.9557,60.3504,-117.6819,38.8076,-175.0951,-103.1339,6.0028,-154.7979,111.2998,96.8250,-97.3515,-163.0376
-2250.0000,-63.2306,-288.4088,134.5390,-8.5573,-35.5944,-86.2201,-230.9811,-27.7857,334.3267,-252.0229,-320.0280,-236.6405,137.5919,1348.1871,-196.5363,-357.0214,306.6913,10.5856,-77.8922,-107.9884
-2242.1875,-152.4880,254.5547,117.0882,-139.1262,21.7688,-214.3169,228.9041,-8.8274,-199.1296,133.9214,29.9456,-33.7679,-283.4433,225.7198,153.2430,104.0803,-310.6380,-43.3572,-62.1419,-161.6415
-2234.3750,-21.6019,-107.3791,31.7927,157.1020,-29.0076,32.7371,-113.1088,-92.7274,84.6133,-538.0217,-273.9473,-155.7756,109.7011,1612.5509,-77.8452,-457.7098,489.2490,17.8454,-317.2589,-135.1411
-2226.5625,-60.4801,-42.0485,141.7555,-165.1633,-69.1895,-113.9663,-76.8631,-240.3752,267.6085,-170.6647,-17.5656,-118.5571,-37.9295,1095.5798,179.3440,-91.2121,-182.6774,-125.7040,-180.1184,-208.3965
-2218.7500,-125.5241,279.1526,-0.4409,71.2395,-37.5046,-35.7987,76.2348,-51.1655,-205.5655,-128.4716,24.6533,107.4966,-142.7072,437.4896,184.3695,-121.8945,-1.7124,-14.3819,-315.1558,-202.8067
-2210.9375,-4.3736,-338.4672,48.5785,6.9153,-120.1041,13.5718,-388.5176,-148.7625,395.5089,-483.0909,-219.9311,-210.2704,200.7229,1736.7081,-97.4327,-329.3751,330.4555,-33.8664,-265.0045,-116.0133
-2203.1250,-147.7538,149.4769,84.0944,-146.7868,-30.5303,-60.5551,124.2451,-39.8475,-47.9683,29.8225,73.0113,44.4957,-277.3971,188.3359,232.2721,220.6915,-410.9179,-36.8434,-92.3650,-153.7207
-2195.3125,-154.8521,-104.2908,-36.0885,164.3540,-32.2936,150.6327,-32.7301,-11.6318,52.8809,-420.0115,-193.7765,35.5493,6.8027,1134.4036,-71.7537,-265.9826,286.0712,62.4766,-309.4436,-89.1252
-2187.5000,-134.5226,-294.5917,57.1788,-164.7818,-100.9781,60.2487,-159.2442,-138.9703,331.1869,-106.3517,10.9120,-91.9606,-46.5637,1080.8953,-88.2991,47.8163,-221.5463,-92.7655,-79.0510,-68.0859
-2179.6875,-105.9626,155.3843,-61.3165,-4.0571,-64.5925,126.1147,89.5167,73.9586,-338.2782,143.5543,149.8557,120.7872,-310.6861,41.6204,14.4071,187.8487,-262.8908,-27.7528,-120.4329,-38.8049
-2171.8750,55.0552,-247.2286,-8.3515,64.9171,-136.2671,179.4341,-407.3169,-19.6722,191.7587,-280.1168,-126.7573,-192.0496,109.6657,1381.9213,-225.4546,-272.6859,284.2415,-77.2997,-100.3853,51.9286
-2164.0625,-17.9381,207.2116,28.6274,-207.6901,-75.9781,-77.2589,32.8733,17.7094,-102.2410,381.2536,240.6529,27.1206,-257.0089,-163.8719,177.7037,314.8194,-526.6772,-184.8573,73.6520,15.6557
-2156.2500,101.1676,78.7441,-106.2860,118.8791,-74.3539,118.1483,-28.8723,103.1932,-164.1217,24.6782,31.1452,38.3720,-98.5545,287.5536,-67.0668,-40.6227,154.5760,-65.3239,-194.2299,64.4851
-2148.4375,163.8318,-281.1635,-5.6318,-156.0951,-125.2126,35.0808,-221.0863,-15.7845,341.5731,126.6742,22.2213,-189.8359,-33.5656,498.5379,-39.2789,60.5050,-98.6608,-143.2628,8.4427,92.8646
-2140.6250,9.6825,338.1821,-54.7835,-19.0629,3.1359,59.2033,242.9152,81.4528,-259.5680,407.8799,193.5041,127.1808,-304.3925,-1133.3232,203.7202,305.8291,-322.6906,-49.9990,-38.7068,80.4356
-2132.8125,5.9769,-89.0361,-26.4805,192.4262,5.1938,87.7684,-168.6805,-72.8692,209.7962,-150.4985,-143.8000,9.6403,202.2518,34.4076,-97.8440,-216.4286,445.7800,49.6938,-149.4256,146.4506
-2125.0000,-108.4884,218.0742,78.0843,-90.9986,71.7297,-173.4360,156.9910,-113.9397,-16.6154,322.4114,145.1583,188.3731,-95.8910,-1258.7012,264.8626,330.6043,-300.5565,-28.3810,88.0967,68.7051
-2117.1875,-69.1955,292.9530,-62.5944,257.8881,119.7258,16.1154,273.3859,-35.2643,-303.2738,-2.9762,-33.1380,230.8466,-53.2767,-1105.9783,160.2922,5.3534,301.9128,117.2971,-118.6662,38.7085
-2109.3750,24.4564,-140.8319,108.0953,36.1286,79.2343,-106.0003,-33.8951,-194.2501,271.4563,-162.0037,-81.0661,-75.3543,154.6835,-235.8581,111.0839,-153.5314,290.6926,0.3175,9.9191,63.0608
-2101.5625,-7.1509,425.1702,149.5338,26.2310,192.7516,-211.3682,412.6129,-78.4826,-348.0982,210.7401,180.7813,186.1924,-207.6263,-1667.0687,336.6566,182.3377,-127.8000,40.0905,84.2449,32.1573
-2093.7500,101.8865,-64.2103,114.6284,253.3194,129.0547,-62.0852,-27.2672,-40.0775,57.0587,-338.9107,-220.7503,4.3593,161.7511,-230.5103,-65.1364,-293.1823,649.4163,183.5085,-18.7846,70.9048
-2085.9375,-6.7886,71.7572,188.0365,-87.6820,137.3990,-209.5321,193.1836,-40.3775,130.5197,101.7822,-0.9615,3.8308,-95.6001,-967.7563,117.3932,184.6313,-127.1269,145.2171,224.5054,-2.0549
-2078.1250,-28.8643,260.3503,19.0386,218.2915,183.2299,-48.3792,355.2343,84.9203,-221.4040,-175.9593,-59.5836,128.9019,-117.3500,-1100.3690,22.5061,-58.0034,271.9838,299.5265,61.3672,-23.4190
-2070.3125,39.0596,-269.0716,89.0497,99.7849,94.4968,-15.2425,-89.7465,-101.7928,436.7376,-510.7050,-172.2054,-168.0627,209.9049,72.0933,-164.3827,-280.6488,446.0819,227.8252,129.2376,10.2156
-2062.5000,-41.2336,318.3663,43.8596,-15.9518,114.3229,-60.3167,343.1082,37.3082,-160.3575,68.3890,149.9896,153.7769,-276.0762,-1371.7417,120.5439,225.5393,-302.0533,182.9258,189.8996,-34.3574
-2054.6875,39.0799,151.3841,-95.7270,311.7479,-12.5357,131.2106,-90.4810,81.0084,67.1886,-437.9609,-173.2443,161.1903,-12.4387,-41.8389,-238.9634,-318.7193,411.4862,263.6257,-46.8560,46.6702
-2046.8750,70.8403,182.8842,47.1527,-16.1225,-33.8044,-91.8439,-93.6128,-32.8524,174.1808,-109.8269,80.9975,158.0630,-87.3816,-338.5406,-131.9995,-28.5083,-189.5670,49.7649,195.8545,44.1376
-2039.0625,114.6457,473.4673,19.0884,210.4432,67.1774,-10.8484,135.3142,50.3420,-477.8177,-174.6613,200.2892,276.9881,-189.2765,-919.1962,-85.9979,-19.2804,65.4767,93.9736,64.5994,53.6379
-2031.2500,167.7571,-176.6722,72.3447,168.7041,14.0088,79.4463,-326.4895,-189.1781,89.5304,-599.2192,-39.1165,-110.8203,268.1446,567.5501,-253.7094,-295.7710,505.8257,41.4714,46.6429,107.4275
-2023.4375,10.4108,298.8007,95.1532,-58.0514,103.8055,-44.7124,173.2887,-167.1543,-365.6045,10.8123,203.0502,-15.0691,-149.9250,-881.2472,246.1437,278.3325,-248.3207,25.5203,136.2288,56.7536
-2015.6250,22.7269,-6.0862,31.6075,198.0737,121.4471,112.7918,0.6889,-119.4851,-244.0516,-418.5540,-116.1711,-150.6842,154.6660,121.7471,35.6239,-151.9532,467.2420,144.2178,-97.5594,104.7248
-2007.8125,-50.7953,-254.7972,177.2211,-175.5484,76.2152,-108.5773,-110.7639,-194.6603,157.6793,-88.7506,-8.2319,-263.1516,153.3848,119.8764,181.2682,176.9395,-29.1019,-34.9521,144.8102,66.8394
-2000.0000,-218.5596,138.2926,41.5707,-60.4549,155.6968,-62.1969,303.5380,-0.0692,-381.8620,178.7914,113.4555,-32.8568,-93.1573,-826.2717,413.6682,262.5640,-161.6792,43.6318,81.9037,4.6928
-1992.1875,-177.8559,-313.1955,8.3739,62.3123,12.9573,52.6270,-242.7691,-142.0411,320.1106,-294.2376,-175.4146,-211.1404,278.7684,759.1651,86.5067,-247.3894,407.2081,49.6457,-53.5615,45.9943
-1984.3750,-170.2624,222.2772,18.0893,-166.2209,-27.3339,-84.6699,22.8430,-96.1135,35.9636,302.6784,127.6506,17.4788,-152.4335,-555.5972,316.2651,349.5912,-429.0628,-48.4449,59.8729,19.1869
-1976.5625,-91.2648,89.1548,-121.7878,172.3397,-61.8806,105.4459,-154.1727,20.2162,-67.7615,-22.0535,-121.9191,23.4808,-36.2136,75.1473,65.4003,-12.0679,282.1289,100.8663,-108.3156,62.7737
-1968.7500,-92.8720,-263.5531,-50.2590,-106.5709,-128.6814,-7.0578,-339.7983,-54.0572,445.9489,50.6385,-197.0985,-161.1283,35.3953,551.3079,100.9415,60.7011,-1.3185,-6.4298,135.9119,61.7490
-1960.9375,-256.0352,311.2459,-107.2916,-12.7421,-7.8504,-27.1053,191.0413,146.1341,-198.9332,361.7875,-106.8316,148.7270,-314.5771,-719.1366,300.9294,261.9313,-303.3047,77.7301,184.5780,5.1576
-1953.1250,-185.3781,-250.1797,-107.5162,130.2281,-62.6590,155.6491,-214.3689,109.1166,314.0342,-153.3027,-437.7758,-145.6460,88.2651,824.3592,-103.3088,-253.0813,364.5565,148.6735,8.0372,41.3530
-1945.3125,-144.6122,-69.4537,-25.6146,-214.2457,-22.1956,18.4778,88.3514,118.1895,103.0810,407.7474,-98.5864,-135.9141,-195.8289,-307.1451,199.5800,234.0236,-437.5312,49.6958,225.5994,-22.3656
-1937.5000,-132.4859,-21.3624,-196.3515,113.0206,7.4723,251.6508,174.4105,277.5993,-141.5110,52.1004,-269.0664,-51.8461,-110.5540,-148.2222,100.8084,-85.5798,66.7935,132.0739,26.4794,-9.7398
-1929.6875,-188.6990,-394.6093,-74.4153,-71.4633,-54.3175,152.4527,-180.8951,142.6305,459.5888,-46.9014,-292.8927,-259.1456,158.3741,709.3887,-106.3122,-108.5298,45.7530,5.0856,180.0104,39.5266
-1921.8750,-268.5562,193.5590,-83.1261,-79.4864,8.3198,107.6022,215.1835,282.0174,-173.0014,460.4528,29.6411,-11.0830,-216.3685,-769.7410,68.9205,323.8841,-385.9391,-3.5517,170.8728,-4.8787
-1914.0625,-166.2980,-302.2091,-87.7211,148.3942,-46.2701,248.8622,-231.6792,165.4993,224.5623,-170.1394,-232.7519,-236.9530,145.0082,694.3741,-230.7724,-196.6403,455.5276,63.8915,-44.1813,62.8032
-1906.2500,-178.4391,-208.3435,83.2919,-192.7269,-37.1547,15.7059,-96.9248,43.5921,396.7298,221.9111,48.4816,-212.2251,-87.0535,-53.9860,87.1556,158.4779,-224.4723,-88.0879,119.3745,51.0726
-1898.4375,-245.1200,4.9957,-60.2624,82.2280,52.0109,93.0085,162.2796,121.1474,69.3527,78.3828,15.1471,-62.0514,-120.6630,-343.8624,53.5177,-57.9862,130.0237,90.3950,-53.6410,54.7812
-1890.6250,-174.7504,-450.6308,-95.7479,-44.6009,-38.3546,56.3526,-167.4915,-62.2564,695.0823,-141.0875,-167.1540,-319.8615,246.7885,833.3802,-129.0772,-277.4077,271.5653,19.9162,16.4037,55.5265
-1882.8125,-221.0434,206.1479,-213.8786,-181.8417,-9.7617,-98.9563,339.1330,40.6978,136.1275,402.8324,155.8949,-34.3268,-164.4397,-756.1302,266.6955,229.5496,-442.5829,-61.2082,75.7956,-25.3936
-1875.0000,-146.5802,-141.3456,-286.2590,82.3924,-65.6600,86.4971,8.4684,41.3946,394.9688,-147.5349,-136.3378,-106.0751,166.1021,531.2401,-62.8033,-283.7879,265.0751,-21.5926,-166.0757,49.4358
-1867.1875,-132.2443,-302.9583,-123.7792,-319.6596,-84.3831,-118.2314,-13.3518,-54.0640,631.6732,271.9822,99.3078,-237.9691,34.4658,178.3962,62.5676,134.7629,-354.4733,-112.1464,92.9289,28.1056
-1859.3750,-99.6299,11.7041,-234.0479,-131.3374,4.7036,-45.7200,318.0902,130.7397,-30.3986,345.7403,173.1955,-18.6142,-111.9225,-519.2136,136.1754,135.5429,-284.7303,-8.4415,-13.8140,-7.9894
-1851.5625,30.7466,-455.9159,-282.5445,-107.3389,-112.6109,15.5366,-98.7459,-28.7155,620.3389,-107.7743,-96.1889,-177.5437,280.4618,902.0075,-96.4701,-243.9578,90.7726,-89.9945,-25.7947,16.6600
-1843.7500,-117.0843,135.3140,-288.2394,-300.6380,-44.1367,-136.4160,374.2588,40.6308,173.8463,438.5490,230.2458,110.3259,-129.3898,-574.0878,192.7146,302.3675,-759.9677,-61.7453,108.0361,-24.9047
-1835.9375,-87.0568,-81.6175,-331.0891,62.4359,-36.4860,113.4969,146.0943,33.8107,204.2444,-119.3267,-71.5032,67.0075,157.6359,374.7781,-108.2690,-181.5067,44.2107,74.3537,-142.3031,5.3721
-1828.1250,-90.0216,-364.5354,-112.9289,-294.4257,-46.8908,-34.6060,34.9256,-115.0142,607.6709,99.8252,38.7604,-154.3341,193.6580,446.6161,0.7750,37.6505,-380.6721,-104.5666,99.3708,-32.3637
-1820.3125,-127.1910,90.3839,-185.9715,-170.0602,21.4416,2.0894,438.5745,105.9775,-17.1334,357.7805,185.8270,101.1267,-138.5287,-619.7874,110.6221,257.5992,-522.7437,-70.6852,61.8385,-69.3095
-1812.5000,-53.0833,-433.4777,-221.7538,-59.9736,-97.3616,112.0385,-112.5804,-3.7891,609.3639,-156.0281,-180.8666,-192.1972,230.5466,962.1689,-219.3260,-145.2279,113.4661,3.4496,-4.4368,4.9905
-1804.6875,-119.1031,-78.4522,-142.6806,-322.7681,-16.9288,7.8339,260.1494,2.3121,283.6734,327.0758,81.3169,-113.6791,-58.5781,-393.1469,153.5842,447.8377,-655.5287,-63.5590,175.1552,-25.8755
-1796.8750,-114.8501,-143.1871,-213.3599,28.6692,45.5854,156.8986,226.1138,41.6700,66.2488,-111.6118,-135.2839,-110.9380,164.5668,122.8726,45.7181,9.1039,86.7898,11.6887,-103.0219,13.4964
-1789.0625,-125.0854,-400.4070,-3.5188,-203.7823,18.9243,-37.5521,-42.4292,-151.4929,571.3586,-85.7912,-145.3731,-268.7124,338.2040,554.3959,145.3521,-38.1138,-64.4317,-104.5793,-7.6849,3.3599
-1781.2500,-183.5497,174.1802,12.0712,-142.7903,123.0669,-96.2583,377.7915,46.0986,-149.8225,297.7784,52.3008,-34.7115,-14.4292,-828.4062,381.7386,234.4251,-332.9084,-57.0926,-31.6110,-55.0365
-1773.4375,126.3123,-394.9667,75.9578,25.0713,21.1993,78.3355,-220.7336,36.9768,282.3448,-226.3864,-213.7491,-338.4380,380.2572,743.2137,-70.5903,-362.7625,433.9516,-29.3105,-179.2332,8.8626
-1765.6250,234.2717,-40.9666,189.9420,-284.1274,-32.6989,-102.9807,-108.1219,40.9586,102.6000,328.5970,267.3204,-225.0635,-20.9891,-356.1784,117.2246,192.1903,-373.1579,-202.4465,68.2679,-24.1528
-1757.8125,319.1887,218.9852,57.8649,100.7818,-20.3563,59.6617,-92.5592,166.8930,-322.1927,-23.4954,173.3084,-100.7513,-5.2653,-267.5682,-51.0222,-49.9522,203.7375,-47.6365,-164.2914,-45.2260
-1750.0000,369.9164,-221.2700,149.6031,-96.9295,-96.1080,4.0817,-405.2107,0.6143,283.8733,-153.7755,80.0876,-413.6595,232.2629,668.8741,-253.4731,-106.2980,219.4103,-138.0381,-78.0318,-64.5071
-1742.1875,205.4043,281.2831,127.0908,-184.9934,-11.6421,-92.7554,85.9275,161.1031,-326.3447,449.7299,351.6152,-143.8117,-195.4890,-825.0485,53.8486,313.1258,-367.1943,-126.6830,1.9744,-124.0539
-1734.3750,221.7040,-193.4111,-6.6206,59.9606,-110.2063,104.2255,-378.1661,138.3959,18.2967,-126.0049,-39.0997,-240.2065,149.5844,695.9423,-226.0480,-187.6870,353.0527,-4.5304,-157.2171,-36.8073
-1726.5625,123.2301,-46.8388,36.9281,-259.5603,-123.2742,-36.5544,-261.9854,70.9441,61.1990,248.5531,188.4529,-234.3534,-65.1226,76.0865,0.3352,258.7964,-379.5148,-69.1465,94.8679,-30.3188
-1718.7500,41.0082,328.9954,-123.2830,91.2445,-56.2685,133.9240,-18.5459,168.7477,-465.6504,125.3304,101.2372,-28.2602,-187.5795,-193.5089,-87.0446,62.5064,-39.7792,95.4943,13.1963,-6.5850
-1710.9375,159.0569,-150.9452,-2.2304,-0.4344,-130.2187,108.6384,-411.8738,32.7878,207.8217,-156.6452,-143.7383,-310.9497,80.2262,1030.1953,-332.1830,-220.5484,184.2011,38.3668,95.7947,41.3950
-1703.1250,53.2248,341.2538,-1.0730,-182.8285,-46.4311,-38.5468,102.9453,143.9403,-304.6441,395.5248,150.4136,-90.5382,-396.8949,-587.1520,35.7998,331.5270,-554.7585,37.3305,235.4972,5.4664
-1695.3125,136.2188,-102.7901,-63.1159,122.2594,-50.3201,156.0863,-179.4664,118.8923,-109.2653,-181.5571,-168.6661,-190.3650,-19.1862,600.4060,-320.4551,-208.6378,302.1474,155.0883,0.9998,53.3398
-1687.5000,44.7193,-195.3333,99.3443,-208.4400,-61.0351,24.1997,-201.3587,23.3324,162.6315,163.8901,-44.2276,-248.7030,-76.9896,320.4078,-195.1898,173.7461,-281.5103,28.3329,261.0317,31.7079
-1679.6875,-139.5667,287.3452,-21.0042,10.4528,30.7858,51.5165,118.9762,197.9760,-434.3043,265.5244,-16.5940,-39.8287,-233.6051,-461.4197,-94.7157,275.3137,-185.9398,158.7825,145.2527,22.2671
-1671.8750,30.7114,-244.4589,-27.7917,1.9552,-103.9623,81.3803,-402.1721,44.1552,258.3621,-145.3187,-279.4300,-340.4258,163.3569,1003.3972,-358.7008,-98.5957,266.1984,83.7699,105.0286,52.3722
-1664.0625,-1.5545,145.2413,15.8770,-268.6046,-37.5850,-60.3172,81.1610,160.7805,-103.5667,522.3292,20.2058,-224.5564,-234.2542,-535.4656,14.7927,421.9750,-540.2662,-54.7983,319.2627,-15.0772
-1656.2500,52.2993,-83.0097,-77.3493,82.6735,-24.0928,177.0803,-49.4490,214.4813,-12.3298,24.0365,-256.0878,-318.6259,39.2797,325.9143,-188.6252,-149.3870,287.4067,-1.2770,55.6042,38.5715
-1648.4375,-37.2954,-347.6577,48.9802,-202.1865,-50.8037,9.0128,-142.4462,46.7325,483.4148,114.3585,-166.8094,-377.1405,18.3248,452.6781,-26.4415,49.8548,-82.4581,-89.2155,212.5189,54.7581
-1640.6250,-221.4317,135.1145,-32.2508,-30.9148,50.1715,75.4183,289.9951,186.4409,-148.3719,327.0860,8.8743,55.7762,-282.1536,-769.0070,224.1614,226.4835,-267.7906,41.3046,61.8770,10.3936
-1632.8125,-30.1119,-375.6768,20.9783,119.9338,-40.8150,238.2560,-281.1158,55.5887,345.3342,-207.7134,-304.9844,-185.8778,210.8150,791.7585,-163.7835,-271.4175,416.2731,57.2586,-98.2830,26.4759
-1625.0000,-91.6964,54.6704,143.2954,-165.0659,13.9547,29.2043,59.9190,66.8582,27.0869,318.6035,37.2653,-65.4316,-145.1450,-557.4777,178.3905,327.7990,-384.5784,-75.6760,121.6568,-35.3474
-1617.1875,-24.8350,156.3727,27.0616,217.8124,59.8084,132.6205,54.3677,97.5790,-235.6367,-164.6640,-152.0737,38.3836,32.3974,-124.1032,24.9941,-83.5718,314.0709,60.8466,-163.9423,-4.7151
-1609.3750,76.7863,-164.1370,168.6395,26.2502,-20.1324,16.8289,-245.3253,-90.8782,274.4207,-207.0523,-120.5839,-78.0410,136.7160,495.9267,-90.5517,-124.0740,205.4240,-48.8410,-98.6962,26.7164
-1601.5625,2.6803,359.6055,127.5022,47.1024,70.8081,-24.6313,191.2785,51.9867,-428.2250,192.8300,205.1728,210.7921,-234.6344,-942.6696,89.1837,164.6958,-185.8583,-18.2079,-103.1627,22.4632
-1593.7500,217.1505,-199.0893,91.9687,199.6271,-12.3988,86.5007,-285.5443,-56.5578,50.7829,-393.6747,-87.4766,-45.7706,206.6224,639.3870,-277.4846,-348.9123,556.4153,-13.9772,-239.0128,96.8209
-1585.9375,183.5372,83.1852,168.3705,-155.6995,32.2502,-130.4044,47.6390,-127.1295,-19.3247,12.8115,245.8383,28.6300,-11.2125,-424.7299,129.8297,205.4641,-286.4037,-222.7757,-27.9062,63.1368
-1578.1250,162.8946,273.4304,72.7065,196.8891,109.3673,-7.3478,171.7226,-75.7685,-334.4329,-228.8206,113.0466,115.9926,39.9340,-446.7387,70.0516,-73.2729,290.7909,-33.6233,-329.8586,77.4097
-1570.3125,275.0287,-247.5627,188.8031,40.3814,20.6620,-73.5611,-225.4121,-290.6675,297.1909,-333.6517,-63.9668,-172.8874,266.7951,587.8843,-106.9378,-214.1997,437.6460,-97.7428,-218.0265,83.4351
-1562.5000,76.9397,327.2058,242.6335,-34.4857,152.9801,-168.0122,304.2082,-163.8142,-347.4683,123.2375,318.7558,135.9908,-157.5892,-1014.7310,165.8229,242.5910,-182.6930,-85.1074,-100.4610,26.2137
-1554.6875,264.2178,-118.6702,177.8271,238.7066,92.8620,23.8665,-126.8563,-227.6409,-43.7194,-528.5387,33.8091,-2.7781,255.3991,429.0831,-228.0791,-373.2784,637.3086,30.8590,-300.5300,72.3403
-1546.8750,337.4690,-80.5886,256.9745,-130.7108,38.8047,-154.3143,-85.9062,-370.5061,34.9156,-46.3120,296.8420,1.4048,39.2967,-191.3107,-4.0025,72.8486,-97.7983,-105.2224,-51.6309,40.4176
-1539.0625,190.2397,298.9973,28.6107,160.5651,70.1568,-15.9918,163.5049,-193.8860,-522.9195,-16.6519,178.3394,214.0947,-78.2638,-604.0699,25.5417,65.4067,139.6705,-8.8004,-164.2425,32.9966
-1531.2500,157.9190,-189.5203,30.1636,85.0217,-65.2907,22.2042,-312.1560,-265.3797,177.1482,-271.0447,-113.2358,-42.3228,217.0601,757.9811,-155.9721,-153.0942,353.9668,-74.4971,-125.9161,71.4668
-1523.4375,-65.1371,396.2114,19.9546,-30.6297,3.4837,-25.3308,191.4635,-92.6148,-309.5829,232.8114,206.4301,313.5093,-234.3629,-760.7608,163.7660,313.6401,-431.4491,-121.9335,2.6490,24.1810
-1515.6250,106.5132,144.6337,-95.5514,342.0018,-26.8041,115.8334,-108.2644,-135.1691,-131.5630,-398.6571,-93.2325,343.0333,126.9474,372.3167,-209.8253,-353.9481,442.8567,48.3175,-178.0789,54.5853
-1507.8125,101.2679,-71.8515,49.0436,-30.3103,-46.7586,-70.9087,-111.8324,-210.6017,160.4932,-69.9554,14.2404,266.6519,51.3198,112.3331,8.7146,-25.3834,-125.8027,-133.3310,203.3242,-20.9219
-1500.0000,-120.9189,339.7062,-71.3217,157.7668,52.7889,-6.5795,320.6203,0.0143,-399.3863,104.7308,40.7292,477.3159,-179.2216,-743.4812,109.2661,112.1607,-102.3214,-38.9246,86.7644,-67.3861
-1492.1875,40.7437,-202.8952,-52.8104,180.0087,-92.0133,48.5770,-249.0725,-92.5342,244.6001,-316.7063,-233.9131,273.8207,207.0790,782.5131,-239.3173,-236.4045,340.9577,-89.6908,-33.9116,-12.0123
-1484.3750,-101.9389,323.1425,-54.6366,-72.6815,-87.7374,-101.6022,78.9222,53.5820,-160.8273,342.5076,94.1037,454.9688,-272.9839,-653.9156,88.7466,386.6954,-541.0892,-126.8015,140.0645,-13.9983
-1476.5625,-49.1193,234.6666,-184.9496,317.5739,-89.1551,98.7263,-124.6335,142.1788,-254.7052,-192.8264,-183.4159,396.6082,-73.5125,133.3085,-188.7294,-111.7504,285.4142,101.5758,-54.4489,38.5033
-1468.7500,69.6549,-34.9073,-24.3598,18.1990,-122.3055,-108.0555,-258.2372,-27.3228,200.2664,-69.2024,-96.0006,152.1870,-23.1908,368.2811,-137.2661,-25.2514,51.7318,-97.1651,239.9640,15.8865
-1460.9375,-22.8212,400.2536,-47.0951,121.3704,38.3298,-167.1210,306.8328,60.8689,-447.0744,166.0664,212.0754,386.5084,-302.1527,-831.9531,22.8543,135.8836,-42.1736,-120.2020,182.0512,-7.0412
-1453.1250,115.2292,-271.0815,18.6791,214.1755,-3.4553,-101.7091,-214.6155,-130.4619,134.1062,-429.1502,-52.3416,120.3371,240.3856,778.3312,-315.5255,-349.4641,659.3715,-122.7536,2.6606,95.5199
-1445.3125,-24.4118,81.9470,93.7442,-159.2789,35.0769,-321.9989,79.2844,-92.4831,-158.4953,232.9406,278.5496,230.5057,-125.8016,-508.1988,126.4227,239.4986,-324.8019,-191.9931,250.5672,96.3673
-1437.5000,-31.3265,143.6269,-62.4932,193.5152,64.9391,-148.5724,105.8465,43.1771,-425.3524,-33.3317,84.0936,330.3591,-25.2380,-187.8613,-29.9644,-100.9029,263.7830,-24.5325,30.1703,122.9116
-1429.6875,9.0616,-237.3464,89.5739,-8.5225,-10.0053,-178.8650,-218.2526,-59.8628,132.0521,-64.2438,-19.0362,151.5436,126.5866,479.6447,-135.0331,-94.9566,129.5806,-124.7801,212.1022,128.7443
-1421.8750,-165.6367,395.5892,54.5294,12.8083,87.0353,-178.2306,297.5363,88.0008,-490.6859,304.6951,238.7052,409.6436,-312.6776,-989.8859,160.7700,273.8478,-327.6458,-90.1103,211.9146,93.4692
-1414.0625,-36.7624,-72.9627,-32.9519,245.5814,-34.4487,26.9437,-232.1424,0.3924,46.1621,-298.8243,-107.0104,136.2769,75.6249,575.2021,-184.8725,-255.7913,504.6544,4.0953,-45.7078,151.7342
-1406.2500,-59.3894,114.0316,91.0550,-128.2924,-36.7935,-105.3818,-34.2710,13.3029,23.4360,304.1925,164.7922,76.4426,-239.6076,-366.3357,86.0186,236.1050,-328.5991,-126.1963,247.1726,92.4917
-1398.4375,-109.9534,274.0143,-33.8972,181.8427,52.7543,63.3609,208.6025,183.2652,-357.1921,179.2013,2.6001,208.6396,-217.7452,-490.6476,-2.0777,-36.0037,77.2618,68.5680,20.0977,41.3057
-1390.6250,-6.9703,-325.4304,38.7099,-5.4694,-24.6227,24.6363,-159.9450,34.7787,339.7105,-43.1866,-182.0136,-51.6008,111.6416,573.4865,-112.5923,-220.5096,145.5839,-4.1351,88.6104,39.6640
-1382.8125,-175.5781,207.5337,-26.3000,-129.0632,101.5350,-40.6700,435.9253,116.7014,-202.0328,333.8019,156.7514,140.5727,-247.5652,-999.9609,262.2863,229.3526,-516.6443,36.5677,164.5133,-25.5790
-1375.0000,-101.9231,-175.3102,-133.0541,202.5760,82.0440,182.2685,71.0244,8.8523,94.5281,-361.9795,-171.2471,-42.0245,195.5072,362.9491,-102.5917,-430.5480,401.3747,251.5005,-43.3178,13.4303
-1367.1875,-143.8216,-112.6517,-27.3693,-169.8034,79.5047,-42.3491,177.6359,-68.5468,237.4711,1.7370,44.2360,-83.1385,43.9954,-193.8436,188.0183,-29.9548,-309.2192,173.8732,161.3042,-64.1133
-1359.3750,-250.9105,236.7606,-176.8978,97.2972,157.2864,102.8554,470.0102,76.8402,-277.7634,-73.8094,42.4786,98.5322,-67.6716,-746.6802,222.3942,-68.6171,-101.9334,346.0599,-53.2835,-102.8508
-1351.5625,-164.2066,-309.0191,-48.6220,101.5093,73.9415,156.8495,-27.7997,-126.9805,400.7952,-534.5079,-197.4702,-105.9977,317.4462,668.2243,-91.4000,-381.4359,302.0706,293.0398,-106.0317,-85.7954
-1343.7500,-146.1663,341.5674,46.9817,-35.8239,140.9097,-42.7851,398.7719,-141.4352,-165.3570,-34.8591,228.9135,209.8427,-102.0926,-891.5464,188.1630,117.0849,-384.5485,204.3787,-18.4343,-174.3927
-1335.9375,147.7825,212.9846,59.4857,300.4174,84.3616,80.4811,43.2005,-203.0020,-152.5548,-573.3333,-53.8249,184.5603,204.3074,149.7309,-130.3988,-384.5211,436.7511,216.6038,-357.9199,-162.0859
-1328.1250,278.5305,61.2426,232.7883,-96.8856,-4.0661,-151.4647,-114.5226,-250.7556,204.9795,-253.9431,83.2712,63.1011,119.4670,64.6570,42.8751,-28.2705,-137.2321,-5.3717,-192.5795,-172.9845
-1320.3125,142.7912,382.9622,90.5761,44.8262,82.0616,-73.8820,258.2269,-25.0057,-414.9821,-28.1072,197.8265,287.1288,-132.8417,-849.7778,157.6167,123.4225,-203.6358,139.1729,-258.7592,-168.3786
-1312.5000,234.8495,-335.5341,109.1722,61.6458,2.2121,18.4904,-238.2199,-79.4680,265.8707,-412.4329,-151.8047,-99.0480,290.6382,676.5710,-191.8313,-261.0534,379.7017,159.5075,-238.1080,-112.9764
-1304.6875,42.4939,104.6016,167.3562,-238.1828,72.3610,-143.5286,261.9707,52.6877,-79.7477,270.8594,164.1617,69.4055,-129.3013,-772.5496,198.3224,311.0815,-551.3526,-33.5499,62.1438,-164.9785
-1296.8750,87.9879,44.5066,-8.6159,111.2373,70.1042,11.3126,195.9771,134.6859,-108.4620,-163.0367,-122.0532,76.6795,62.6455,-66.6551,-14.7048,-195.9713,161.4900,82.2453,-138.7410,-120.1254
-1289.0625,101.1189,-258.9010,78.0543,-184.9731,-21.4514,-86.2067,-48.3137,-36.6593,419.4288,-39.2223,-109.5889,-95.3721,149.1999,350.7515,-38.0412,-35.3282,-178.1091,-81.3120,120.0503,-107.6264
-1281.2500,-74.2371,303.1728,-30.8028,-66.9646,41.4311,-48.1983,357.8818,148.4935,-276.1946,257.0393,76.3501,163.0810,-217.7191,-897.2386,184.1005,260.7593,-388.1329,-81.3538,155.3190,-142.6245
-1273.4375,132.8711,-299.3384,-112.2005,100.5456,-70.0858,91.2469,-165.4846,30.0733,266.6573,-302.2416,-262.2533,-66.0201,252.8249,712.2601,-155.3008,-298.6831,380.2477,-85.9580,45.0611,-77.1757
-1265.6250,87.0736,-29.7080,-47.5061,-239.9485,-75.6752,-102.2069,120.3008,94.7669,110.5323,386.5944,58.2571,71.0081,-161.5588,-473.2380,93.4185,242.9845,-510.2924,-203.4538,350.9023,-123.6316
-1257.8125,45.6251,34.2115,-129.4691,113.1462,-31.7048,73.7024,112.4033,270.8017,-191.1915,194.7093,-133.9259,99.3664,-95.5461,-225.2028,-172.5376,-22.0565,116.5828,1.4059,134.0860,-94.7340
-1250.0000,116.8625,-352.1314,89.2702,-132.8857,-97.9857,-38.7042,-256.7482,121.5334,431.7520,156.5672,-245.3806,-233.5424,49.1372,545.4193,-283.7595,48.6540,45.0620,-105.0459,344.9890,-60.1429
-1242.1875,-37.6934,160.7243,38.1943,-169.3503,29.1660,-52.8899,317.2975,254.4640,-170.1432,583.5729,-2.6475,-65.2242,-367.9605,-975.6937,106.1965,439.5245,-426.2002,-48.2845,366.0656,-74.3484
-1234.3750,102.3621,-367.8677,-39.2727,89.7144,-23.4177,126.5229,-128.0859,102.9750,230.5857,-118.8257,-337.3101,-253.3200,104.5611,527.8821,-191.2608,-151.9973,452.1152,56.0650,118.7644,-4.9539
-1226.5625,56.5589,-168.2697,61.3944,-215.4083,-10.7365,-29.9094,45.7393,-16.3422,221.3788,275.9774,-16.8004,-154.2535,-88.8031,-327.5127,92.4633,241.6674,-297.4684,-60.4300,284.6259,-51.4145
-1218.7500,-39.1833,157.3125,-2.8959,140.1395,80.1492,125.7292,202.5763,65.3892,-247.7434,63.7702,-8.2718,74.8300,-80.0680,-539.6746,-8.7888,-6.6929,97.0724,124.1276,-23.4678,-42.8183
-1210.9375,89.8331,-347.3374,92.5738,38.6825,-15.8978,147.0941,-289.8075,-60.1404,324.8624,-133.6447,-169.9451,-197.3163,273.4024,585.8306,-207.2614,-278.2755,296.2760,41.4138,-35.7859,15.5250
-1203.1250,-22.7378,207.4238,12.4264,-112.2355,73.1742,30.8709,254.2070,44.7310,-305.1920,411.3168,190.7717,-21.0269,-137.7303,-1002.2440,190.6453,229.5423,-380.0731,33.1126,62.2772,-27.7307
-1195.3125,185.7926,-217.7594,-102.6304,152.6803,54.4400,135.7513,-81.7304,-34.3161,-126.1066,-291.6339,-108.4404,-246.6364,298.2531,316.9135,-35.3725,-326.5053,531.6764,170.9053,-150.5493,4.1104
-1187.5000,163.8665,-240.3256,59.8459,-204.7765,73.7895,-105.8222,8.9307,-200.7969,72.4487,-18.9814,90.9230,-267.6409,204.7367,-145.5136,275.1852,20.0309,-90.0882,7.2528,108.1799,-53.5092
-1179.6875,23.4653,252.5764,-11.1860,98.6090,162.4806,-29.8717,342.0597,-52.7877,-439.4823,19.0971,55.7548,26.8567,58.7608,-804.2632,277.1993,20.9587,121.7368,113.1067,-138.6096,-88.6234
-1171.8750,115.9201,-323.6655,81.6511,107.9743,28.9067,26.9106,-262.9508,-178.9496,242.4267,-326.9469,-217.5400,-209.7816,410.6207,686.8010,-107.9138,-325.2431,565.3455,63.8023,-185.5273,-31.8897
-1164.0625,-28.8815,162.8733,76.2207,-115.2507,92.7361,-126.5459,209.8088,-75.3569,-203.9911,254.7381,180.9022,4.3660,-36.7848,-826.4053,254.7323,183.3196,-249.2631,-11.7356,-50.7123,-37.4097
-1156.2500,69.7154,-56.2445,-44.8143,243.3484,55.5244,84.4025,-95.0835,-85.3893,-214.9682,-269.2118,-87.2899,-44.0954,247.2378,155.9475,-13.2464,-304.6948,587.5621,121.1327,-303.5026,25.4603
-1148.4375,115.4037,-150.1961,114.2511,-65.3760,-13.6626,-51.5550,-266.8343,-183.3070,54.0719,-37.9955,-2.3458,-142.4107,222.3120,205.2625,108.9050,0.4447,104.4069,-44.8997,-118.1906,0.4095
-1140.6250,-44.1410,357.5831,59.0572,101.0367,82.8214,3.2687,118.1348,17.5265,-663.1443,163.9150,125.3174,169.0299,-54.8325,-769.5281,310.7729,165.2280,-19.9121,6.8354,-207.1569,-18.8901
-1132.8125,35.5225,-231.4539,64.0724,178.0463,-30.1064,82.2797,-426.6925,-86.4590,-69.1417,-344.9616,-162.8009,-47.3246,319.2177,853.8920,-15.1439,-232.7870,550.9127,-20.2428,-232.9009,60.0099
-1125.0000,-62.0117,91.3542,109.8672,-160.9973,24.7813,-92.9045,22.3196,-42.6385,-355.4152,288.9607,212.8894,108.1626,-112.9548,-533.9548,324.7481,437.0125,-391.4639,-117.5137,20.1451,31.7076
-1117.1875,4.1663,51.8065,-43.6439,185.2532,27.0516,121.6184,-57.0196,61.8671,-471.9386,-158.4737,-14.7515,102.3395,63.6139,85.0774,61.3048,25.4670,271.9083,52.9214,-230.1057,62.1050
-1109.3750,52.5396,-252.4870,117.0413,-72.3854,-39.0303,24.3279,-300.1225,-71.4203,55.6854,-71.6501,-1.1593,-32.2445,187.3371,540.1854,1.0943,76.1639,1.3908,-110.4502,-8.1299,38.6893
-1101.5625,-139.2314,223.0670,-6.4481,-25.5783,53.4364,47.9110,237.6083,173.1512,-544.8558,356.9713,170.2566,249.0392,-192.0673,-758.7604,245.7102,320.6624,-365.2073,-21.9643,46.6730,-47.8757
-1093.7500,3.4436,-443.9661,-44.4830,92.1418,3.0158,194.9345,-166.2255,135.1604,5.0891,-194.9461,-197.8786,-83.2308,247.9865,821.7985,-86.2343,-268.3664,338.6079,48.9623,-22.0514,-11.9923
-1085.9375,-128.4897,-154.5479,112.8626,-300.5884,96.2217,-52.6292,211.3866,71.5872,-58.6468,329.5660,105.4038,-73.0663,0.4051,-307.3386,255.2215,256.0186,-568.1987,-83.6952,232.6267,-38.7151
-1078.1250,-249.2058,75.0073,-17.6000,38.8081,144.1594,38.0233,265.1510,199.2001,-298.1440,89.2179,-62.1543,54.2780,91.0652,-216.0817,124.8423,-21.4565,-57.7311,75.8521,5.4996,14.7630
-1070.3125,-99.1242,-302.6046,-10.2639,-160.3340,-17.9723,-28.5436,-168.2486,22.6064,334.1188,-14.2751,-126.8839,-158.5557,245.4920,637.8738,-14.6998,-14.0768,-118.5421,-20.8188,120.1913,59.0335
-1062.5000,-107.0928,250.7431,-163.9927,-200.2553,20.6951,-36.1468,338.3011,161.9656,-298.7061,420.1418,195.3205,89.5804,-240.1199,-877.1605,272.6812,457.2049,-655.3306,40.4781,145.8058,14.2561
-1054.6875,105.2961,-204.5971,-239.3626,103.5370,-61.0610,146.5906,-140.8314,49.6550,28.8510,-206.0999,-100.1250,-94.9405,162.6407,592.2502,-170.6109,-133.1840,295.2292,112.1282,-28.2164,85.8271
-1046.8750,4.7854,-93.7669,-13.6387,-248.5852,-9.4230,-103.5723,12.1822,-17.5435,72.4133,240.7851,162.5576,-89.3169,-15.5411,-172.3672,56.2287,314.5499,-403.1487,-59.1106,258.8597,55.4857
-1039.0625,-73.0052,176.7243,-95.2197,67.8671,82.1096,32.9808,260.8533,83.9442,-378.3018,121.2933,79.9036,120.9974,-96.9872,-512.1054,9.7386,120.9148,-61.7406,107.3561,38.6207,45.8447
-1031.2500,53.7086,-363.2679,-2.2870,-10.8606,-5.6484,53.0144,-195.9531,-116.0749,229.4581,-225.6593,-120.2178,-115.1670,216.0356,758.5903,-226.2320,-153.1779,171.0972,58.3128,59.9020,102.6956
-1023.4375,-72.2240,177.1203,11.9815,-120.4075,103.5881,-41.5793,333.6001,-63.7281,-306.4959,156.7103,225.0002,156.0468,-172.5962,-733.3447,82.1195,266.0472,-483.6665,1.6462,144.5046,80.8917
-1015.6250,19.6972,-153.6727,-78.8949,206.5806,46.1664,123.6839,-15.0492,-119.5425,-67.5633,-413.0976,-86.9498,27.0999,102.6442,536.7169,-192.7068,-339.9058,415.4349,91.8272,-46.0417,135.9368
-1007.8125,141.6129,-242.3912,13.2167,-181.3807,-22.7195,-76.0633,-32.6600,-173.3468,208.2804,10.1461,42.1346,-98.7938,-24.1649,151.6480,-26.5013,46.1806,-200.5238,-65.9960,181.4105,81.9754
-1000.0000,67.1434,209.4666,-63.0861,20.5495,37.8679,-7.1921,258.2796,6.4412,-309.2702,117.9227,38.7853,80.9240,-211.3409,-585.6512,6.2635,79.8068,-135.7924,-2.2100,71.4370,41.6164
-992.1875,81.6331,-338.7168,22.5652,11.8964,-31.7082,5.6153,-279.8348,-126.8295,328.1254,-310.3183,-168.5904,-200.3942,205.4066,862.9810,-237.0097,-274.5851,300.8296,47.5227,15.4339,91.2012
-984.3750,-121.9687,124.0415,69.1001,-240.0553,61.4624,-130.6571,206.9759,-8.1867,-67.6567,323.3254,170.9447,-44.7877,-188.9655,-671.5131,249.6161,248.9066,-537.6188,-16.8297,198.3130,26.6825
-976.5625,-53.4034,-89.0953,-82.2103,90.9693,26.6973,47.2265,17.8897,97.5826,-0.2413,-121.9329,-127.3810,-86.0440,25.8481,243.3106,60.3495,-307.4896,233.1286,85.9625,-16.6669,58.3158
-968.7500,-59.8007,-272.1081,-17.4775,-220.9096,-57.4484,-105.8453,-135.1163,-56.5863,471.1553,53.9151,-25.6249,-203.1971,55.6582,458.0577,90.1373,-93.7772,-196.1536,-62.1894,152.3974,50.9935
-960.9375,-170.7539,249.3242,-58.3259,-94.5713,24.1066,-146.4316,265.2788,86.7046,-195.0023,197.1553,117.5422,123.1234,-278.0630,-316.5981,196.3309,48.3296,-377.9100,3.1396,76.8753,10.1257
-953.1250,-51.2183,-405.7567,-82.6791,-17.1655,-80.3802,-62.5221,-237.8412,-85.5111,330.3537,-416.0779,-201.7840,-159.0606,136.7096,1755.2747,-85.9550,-418.0390,267.7856,-20.0316,-51.1297,57.7497
-945.3125,-178.3841,-111.4813,-67.7424,-310.6087,-57.8305,-155.2990,145.3799,-106.4150,51.9255,113.9980,72.2070,-69.9121,-251.2484,815.3745,297.0620,111.8920,-563.2079,-145.8893,103.1509,0.6605
-937.5000,-117.7198,-86.4509,-188.9943,56.3908,-64.7259,89.7357,60.3431,-8.5441,-180.6611,-228.1882,-160.0178,-44.9755,-115.3735,1320.4581,64.8254,-230.4411,94.6707,-51.9420,-152.7810,25.3679
-929.6875,-27.8021,-453.1150,-130.9816,-170.7831,-157.0550,0.0011,-249.4170,-97.4249,316.9389,-133.0670,-212.9469,-243.7588,88.7062,1820.6687,-25.1414,-135.4881,-27.2731,-136.7364,-28.4541,9.3140
-921.8750,-207.2326,68.8655,-170.3335,-129.6679,-26.5055,-38.0624,300.4583,47.3519,-345.8376,158.6547,-31.2557,11.1162,-243.5456,421.6255,267.5163,229.0597,-347.4811,-142.8555,2.4889,-66.0915
-914.0625,-225.5675,-301.0721,-192.5789,134.4527,-72.3482,122.9659,-126.5875,-85.7851,107.5188,-452.5209,-347.4614,-121.9223,211.3105,1872.7474,-122.7312,-307.2841,441.3906,-91.8808,-122.4638,-15.4009
-906.2500,-290.6085,54.3598,-38.5353,-146.6645,-68.6913,-52.7042,27.7053,-114.6066,-68.9060,106.6271,-9.3428,-3.6219,-75.5698,814.0665,31.3256,213.6936,-327.4589,-192.5953,57.8707,-81.4160
-898.4375,-187.2828,263.1009,-153.1481,237.5057,-89.6844,164.9928,-11.7103,65.9065,-549.9459,-43.9360,-123.8997,214.0168,-153.0635,774.9267,-192.3136,-47.0384,161.1177,-19.9517,-156.4681,-85.0750
-890.6250,14.8417,-98.3044,-89.9585,133.6756,-213.4007,117.4662,-426.3095,-91.7788,-47.2156,-237.6506,-243.6190,130.4835,57.1956,1685.4913,-313.1285,-167.9208,222.4160,-134.5099,-58.9965,-58.9381
-882.8125,-10.5720,439.7734,-77.3412,59.5835,-70.4700,-53.5897,173.5319,-41.9989,-697.0784,178.0419,136.1049,437.4258,-297.1018,43.5600,66.4783,211.5977,-295.7666,-195.5989,-15.1071,-120.3495
-875.0000,161.7309,12.5197,-49.0178,303.9965,-69.6337,85.0494,-164.9732,-196.5372,-374.1981,-454.5794,-56.4649,245.0602,135.3183,1288.4370,-235.2421,-347.2045,543.7620,-164.9859,-265.5195,-55.0617
-867.1875,85.4344,147.7341,130.7037,-45.2566,-40.8829,-102.9127,-59.0407,-274.6631,-268.9992,-91.7689,196.4018,241.1399,-15.9063,585.5850,16.4558,88.4183,-201.3432,-205.9601,-131.5456,-96.3827
-859.3750,10.3598,459.1234,13.6216,214.5389,26.6274,75.3453,156.0387,-171.6048,-643.5745,-97.8402,117.4379,382.4125,-95.8924,66.1084,47.3159,-64.8244,3.8434,-0.7184,-312.4199,-102.4985
-851.5625,71.7793,-78.9433,74.0424,112.3599,-79.8885,62.0872,-334.3746,-294.0601,114.3348,-330.3822,-116.9962,75.2073,185.5807,1232.0754,-149.3095,-334.5297,240.4650,25.0229,-251.7884,-42.1144
-843.7500,-39.0103,372.8422,69.2432,-81.6418,-30.7899,-126.3478,101.0186,-152.7052,-295.0205,325.8471,209.3689,291.8319,-297.1709,-426.1588,139.8481,174.5287,-469.0586,18.6017,-82.3808,-83.9263
-835.9375,92.6093,46.9982,-91.1487,222.3754,-114.4057,81.6165,-242.2433,-17.9709,-51.9364,-201.5522,-60.8707,168.8468,-53.5013,628.1431,-166.6308,-353.0490,330.8573,150.5881,-267.5753,-23.3345
-828.1250,53.3290,-63.6650,-59.4463,-116.1501,-180.2802,-33.3209,-284.3768,-60.1237,347.1581,86.1996,45.0299,53.0087,-131.7854,367.4046,11.0063,8.5129,-237.1773,39.6809,-26.6740,-28.6477
-820.3125,-136.2966,344.3146,-184.1063,90.0862,-106.8028,61.4178,67.0909,145.3757,-111.1007,144.5333,29.5444,258.8251,-330.3910,-492.5334,142.2400,102.6605,-181.4551,94.4427,-148.1519,-44.3074
-812.5000,-101.5750,-218.3363,-78.4087,127.7701,-172.0103,131.4944,-414.0928,-5.7838,546.9799,-262.7535,-304.5761,-39.0037,69.3391,939.8536,-192.1749,-231.8165,344.5721,59.5552,-218.2612,25.3755
-804.6875,-158.8569,357.0721,10.2761,-107.0412,-92.5794,-73.4153,5.7431,10.0777,193.9791,302.9527,77.3055,124.1939,-282.9501,-587.8085,116.3942,260.6954,-451.3681,1.6973,-30.3942,-32.9462
-796.8750,-34.4311,270.1445,-119.3399,242.9436,-85.9483,91.3813,-87.7824,26.6294,172.7252,-231.6826,-89.1334,215.0676,-46.5046,92.3960,-123.3797,-237.1346,235.4470,90.5550,-257.8429,20.4356
-789.0625,-25.8182,-3.5099,-2.7549,-30.7580,-100.8138,-48.6294,-227.0745,-75.6113,547.5994,-150.0569,-8.3328,76.1659,72.0921,285.6617,-115.9333,-118.7275,-73.5955,-7.3775,-40.0879,28.0113
-781.2500,-119.5507,464.4844,-26.5275,80.8689,0.2155,-34.9639,153.2489,157.8005,-174.8906,156.1543,152.0900,272.9174,-208.6454,-876.3069,-30.8839,113.2570,-203.8828,73.3713,-100.7175,-32.7587
-773.4375,87.7787,-136.4650,2.7656,170.7567,-105.8762,105.7393,-368.4040,114.2460,294.6818,-291.5708,-148.4257,-28.2816,150.6557,662.7914,-368.7966,-260.6915,425.8553,35.1721,-209.2834,33.5182
-765.6250,111.8062,133.3528,64.7487,-175.6195,-60.8286,-125.8490,-13.3280,65.4114,97.8673,247.4185,206.7792,107.2510,-154.3804,-598.5040,22.9947,314.0699,-429.6959,-116.3052,24.8350,21.4897
-757.8125,74.6404,272.9321,-87.4691,165.8472,-58.1992,-21.6201,-18.5114,133.3668,-55.1009,-88.8498,90.7593,249.5577,-86.5792,-270.8260,-92.4633,-22.4274,130.6355,-47.9665,-188.2645,89.2648
-750.0000,45.0680,-39.8248,-49.0816,-39.2563,-163.0878,-55.8028,-384.0670,-11.0739,459.4777,-124.4615,55.3866,30.4909,97.7722,430.3237,-164.3107,51.7195,-5.5041,-115.0171,-79.7584,127.6341
-742.1875,-39.9878,402.9349,-99.2075,-33.0828,-80.7265,-32.4653,42.8554,121.9979,-215.4761,266.3716,337.5071,238.9391,-245.3711,-904.9525,41.2948,406.3062,-372.0498,-94.5371,-94.7903,77.5062
-734.3750,60.6574,-129.6184,-109.6162,170.0824,-140.2058,104.5684,-407.5568,74.7620,214.3060,-295.1002,-39.6678,45.0669,148.1898,595.5312,-299.4166,-118.4093,395.1013,-30.3532,-207.1239,141.0806
-726.5625,-10.2716,115.3517,1.4160,-136.9860,-96.2818,-112.9315,-148.4832,39.9966,177.4627,294.9045,181.6201,121.6712,-69.8444,-393.6571,-76.6674,287.3503,-344.3137,-101.6954,107.9764,69.1081
-718.7500,58.0907,325.5847,-107.2646,175.1538,-22.8455,33.8884,71.8327,150.5203,-190.0401,111.1428,72.1747,232.5629,-106.5389,-502.3701,-187.6703,-7.6467,76.6664,73.2865,-34.6537,32.4503
-710.9375,224.3344,-176.2252,-11.0404,13.3255,-82.0866,-15.4086,-270.9335,-81.0606,421.3291,-121.6710,-50.3323,-37.6217,173.6303,479.7134,-310.7575,-203.7053,171.4768,27.1755,60.6202,56.6935
-703.1250,31.5240,333.9604,11.1149,-85.0208,18.3500,-103.7344,228.2437,13.3185,-110.3994,377.4308,229.1055,132.1626,-245.2524,-1078.2332,4.0730,295.1420,-373.6839,45.0475,76.8064,-32.1090
-695.3125,26.1749,12.5833,-33.2667,235.7119,-54.2242,147.3885,-220.1851,43.1394,176.3676,-144.0390,-182.0030,-95.6187,41.3291,277.3625,-370.6895,-189.5843,500.6326,216.3770,-104.5646,-2.4602
-687.5000,-115.3130,-58.8488,78.2042,-122.3306,-40.5222,38.3571,-109.7378,43.8301,323.8953,334.3785,2.7812,-239.5032,-105.2903,-271.3510,-150.6056,214.5706,-134.2318,144.5760,139.9034,-74.9706
-679.6875,-216.1336,121.3482,-26.6780,90.1729,75.1325,155.0007,226.3025,196.1768,-150.9129,265.3808,-28.8170,-124.7472,-174.2308,-779.2658,-34.9237,72.3042,81.6590,218.4546,36.9870,-106.8300
-671.8750,-62.6579,-428.1217,20.7506,36.9937,-8.6936,128.9363,-203.3539,59.8281,521.5673,-165.2714,-201.0873,-333.6834,205.0935,520.0510,-171.9377,-284.6267,410.7939,126.6349,14.3786,-59.3941
-664.0625,-113.5831,189.0665,6.7655,-144.9670,47.8759,-31.5025,260.5912,121.0941,65.5805,372.6581,116.2455,-125.9979,-177.0031,-1073.0515,181.6197,216.0142,-343.4123,75.4459,173.3326,-146.3561
-656.2500,43.4614,-5.8125,-90.2575,215.1827,3.6372,203.0094,-20.5716,134.2886,114.5837,-166.5086,-165.4776,-186.3814,93.8747,-28.0796,-136.9148,-285.4321,481.3887,161.2180,-57.7765,-96.3636
-648.4375,73.4579,-221.6536,48.6832,-91.6781,-21.0866,12.4581,-65.7443,-20.5596,436.4580,10.3189,-25.2128,-228.7860,48.6502,-108.3231,-34.4743,0.1092,53.0945,-20.0478,112.0559,-67.4267
-640.6250,-27.6878,205.3453,-22.5336,62.8572,54.8374,14.7805,230.8938,91.4439,-150.8168,121.9380,123.8722,30.6512,-168.7002,-986.5898,150.7656,111.4316,22.7600,19.5735,-61.3012,-28.6353
-632.8125,24.7200,-341.0787,-12.1923,72.6813,-22.0606,61.6455,-273.9344,-8.0047,446.4588,-345.8619,-85.4682,-289.3658,244.4804,496.6593,-133.4566,-245.6677,495.9402,34.7518,-116.1037,91.7028
-625.0000,-69.4707,92.9706,-0.4640,-195.5584,29.3482,-108.0721,142.6500,40.9619,127.0515,180.7318,257.6097,-91.9512,-146.9678,-922.7629,208.7102,317.6158,-371.4382,-23.6423,105.4628,67.4397
-617.1875,40.1489,25.7874,-108.9281,150.3636,25.8268,76.0210,31.9746,78.7139,89.4942,-258.9337,1.4684,-90.7580,36.4221,-258.2361,24.6363,-196.3550,335.0517,49.7742,-68.1889,104.9842
-609.3750,127.6054,-236.4641,19.4687,-113.9656,-13.7271,-50.0489,-131.8223,-11.6762,512.7233,-129.7003,20.2228,-291.6869,92.6141,55.9816,43.4210,-141.4340,71.3375,-1.9419,125.0048,87.3818
-601.5625,-5.2796,298.9522,-5.4943,-31.7637,91.1544,-76.4446,319.9844,146.5905,-103.4235,175.1373,216.6133,-22.9629,-189.5271,-1180.0671,201.7930,126.0842,-166.6257,41.0235,95.8172,-11.5571
-593.7500,70.0023,-152.4735,-3.2916,130.1790,20.6917,0.3009,-118.0877,2.0003,376.5902,-373.8528,-74.8232,-129.0996,216.4730,368.0286,-90.6991,-349.2364,471.5486,46.1423,-6.2097,27.6576
-585.9375,13.5945,178.4843,123.2088,-183.8306,75.0842,-239.6417,228.1706,-18.2682,243.8154,119.4840,162.0680,34.0966,-62.2688,-826.7347,255.1072,180.7514,-358.9694,-116.4084,218.0452,-29.8302
-578.1250,53.9972,112.2146,16.5149,123.3587,82.6927,-89.7649,194.1664,95.2655,25.8762,-98.4256,-55.2710,74.0751,-22.1751,-527.5864,73.6538,-111.5223,243.4061,28.8681,45.0824,-26.5089
-570.3125,118.2371,-385.1368,119.6837,-104.4883,-8.6113,-59.0581,-179.9655,-21.3378,569.7360,-68.4204,-170.7213,-335.0801,117.7182,276.2581,-80.9481,-118.8994,202.5757,23.0099,213.9803,-33.3368
-562.5000,18.4822,183.5350,92.8450,-94.5290,82.6987,-12.3298,306.8846,99.0785,-48.4442,382.5399,58.8079,-179.2358,-276.3814,-1109.8505,148.4000,147.6718,-214.1548,99.1884,218.8473,-134.1534
-554.6875,147.5853,-177.9468,76.8757,184.4558,4.2083,194.2462,-151.4453,10.3291,266.2546,-257.6597,-212.8104,-266.5619,74.3714,383.9506,-198.4253,-381.9163,548.9744,158.2270,-5.4377,-76.1169
-546.8750,115.0265,0.0167,154.2555,-103.9217,-17.2422,50.1731,-1.3902,-97.0557,231.2189,149.5221,83.9538,-116.5013,-180.5704,-457.0454,-12.8939,134.8548,-187.5520,19.6395,171.6058,-109.7357
-539.0625,49.0339,250.5089,46.1862,184.6943,19.9440,164.6638,149.1469,53.1024,-172.2407,4.1944,-59.7562,34.0856,-249.9200,-599.3394,-10.8704,-10.8946,168.5790,58.6243,33.1649,-106.7964
-531.2500,46.0929,-243.8918,40.1844,23.5927,-68.0605,122.1883,-224.2629,-62.6879,446.3178,-149.0413,-211.3814,-264.2736,36.7420,499.3040,-53.7880,-164.5549,270.7158,20.6708,169.7810,-75.8098
-523.4375,-111.4994,233.1076,-10.4723,-117.6115,38.5082,-1.9215,348.6769,107.8897,-47.8240,426.0345,105.3284,15.7337,-307.2484,-1094.7096,225.6227,299.0893,-412.7141,40.1058,257.7069,-163.4710
-515.6250,45.4561,-173.3603,-107.5613,179.5002,-16.4885,232.5177,-6.8727,120.9996,111.6335,-113.3707,-176.4195,-117.7286,35.3308,170.9215,-167.4508,-203.7432,411.4396,161.1061,-9.8285,-113.5808
-507.8125,10.3956,-172.7554,77.3494,-147.6187,-11.7486,86.9575,-6.3835,11.1242,258.0135,218.2638,-64.1316,-190.1553,-1.1421,-230.6040,16.4776,164.4607,-186.4344,20.1337,164.6183,-149.6956
-500.0000,-68.8061,170.6818,-6.8883,48.3076,73.3928,150.2801,277.8958,148.0997,-195.7467,207.6741,-74.0257,-88.7525,-84.7341,-791.1326,115.1900,153.4406,-19.3431,47.0446,48.8814,-159.9517
-492.1875,81.7807,-416.0368,70.6940,-22.6660,-8.0008,155.3877,-196.0313,5.8711,432.2781,-156.0822,-143.0908,-414.5484,286.4495,612.0731,-175.2948,-137.7537,343.5062,-49.2350,-13.0425,-45.4080
-484.3750,-9.2379,56.7124,84.6715,-211.2689,30.9539,-51.0900,147.4489,93.0599,3.6281,409.5465,312.2515,-106.9179,-67.9811,-843.3617,57.5941,354.4294,-380.1876,-138.0843,35.3968,-31.4623
-476.5625,65.4608,-78.8734,-61.6397,188.3790,-64.5537,97.1352,-183.4324,130.9435,-35.2799,-69.1584,-18.7176,41.3815,116.3095,188.0554,-236.8656,-87.7248,433.8722,-99.2213,-207.4739,42.1898
-468.7500,21.3107,-51.2339,38.2024,-38.7821,-144.2211,-23.4870,-341.1327,9.9982,173.8912,177.3415,-64.4948,31.8457,68.6896,215.4781,-137.1665,232.3143,2.0314,-213.1967,-43.1981,31.9901
-460.9375,-32.5265,491.7032,17.3401,114.6081,-48.6254,30.2237,41.4203,173.3620,-473.6351,267.0876,62.0039,269.5934,-209.6055,-758.6847,-13.2286,394.5840,-122.4003,-162.8417,-133.6622,11.1039
-453.1250,125.3827,-86.5875,68.2492,117.3029,-99.7501,81.6695,-422.3007,40.4723,53.5969,-233.3860,-143.7224,-9.9109,207.8383,801.8627,-219.5521,-33.3732,318.8849,-108.7298,-222.3692,98.9759
-445.3125,18.0828,156.9974,65.9473,-251.6587,-19.2742,-103.0667,14.7990,38.4041,-207.4532,387.9531,258.3624,61.4193,-87.9462,-522.9048,253.9070,441.4746,-598.9978,-146.7835,-17.3043,59.6506
-437.5000,-51.5131,53.2523,-81.6516,66.3125,5.5174,78.9130,-23.4599,111.0284,-246.7594,-18.0511,0.1256,23.4241,93.0012,101.1543,104.0200,33.9756,70.8940,-40.1194,-157.5617,95.0338
-429.6875,30.6804,-249.6117,75.5604,-185.6826,-15.2006,-55.3181,-159.8836,-97.5466,313.6699,-7.2013,11.7371,-183.7500,213.7036,518.8372,39.9531,44.3152,-126.4655,-167.6484,27.9776,106.2182
-421.8750,43.2859,289.9389,88.1724,-122.7993,89.4424,-153.1290,330.0583,-47.7167,-153.5298,187.9981,281.7310,122.4779,-141.1727,-754.0269,198.2445,129.9932,-396.3124,-190.7514,2.8772,81.8156
-414.0625,154.6944,-265.7012,15.6099,-5.9486,18.1062,-78.1522,-148.2276,-158.0950,396.0862,-362.9768,-11.4632,-170.5054,262.7475,754.8972,-59.6763,-422.5143,278.6287,-79.0488,-27.4196,192.2204
-406.2500,-77.4038,-37.7571,-5.4523,-333.1062,77.1617,-246.6742,197.0226,-141.9487,262.1117,203.5793,224.8598,-153.9557,21.1276,-367.8279,247.9005,180.4904,-514.9180,-63.8166,196.7627,171.1270
-398.4375,-113.4430,67.2034,-154.4518,23.0363,116.5418,-64.1369,267.2667,40.2377,-71.7710,-55.8794,3.2044,-118.3881,54.6037,-257.3769,60.4753,-79.5192,83.6942,110.4918,18.9754,169.0935
-390.6250,50.1097,-366.1900,16.1712,-125.8680,64.4863,-150.0150,-76.8538,-119.9756,389.9010,-142.6884,-83.8116,-352.2194,224.6467,502.5070,-63.3337,-240.8823,175.8608,64.4132,179.7995,155.6567
-382.8125,5.1095,151.8912,82.2372,-158.3966,207.8055,-229.4151,430.4656,19.2779,-316.0093,290.9143,203.6008,-100.5983,-149.8575,-1084.1539,222.2742,82.1632,-290.4294,158.8283,238.0350,38.6756
-375.0000,22.7552,-320.3802,23.9644,72.8347,157.5034,6.8304,40.4009,-0.8225,-46.2222,-281.8294,-73.3439,-268.3378,232.2942,329.8689,-93.4941,-381.1529,431.9326,212.9096,42.9214,91.3489
-367.1875,-128.9042,-225.8557,85.3943,-233.9202,154.7739,-78.2292,174.0749,-49.1931,-60.8163,182.1679,134.4417,-243.3345,72.0932,-342.5922,38.4341,156.2496,-282.0221,95.7169,241.4969,78.7220
-359.3750,-153.5967,67.5953,-50.2196,74.4504,180.3312,41.6785,331.6368,107.3883,-529.4335,82.0475,108.1569,-12.3899,-64.1179,-551.9778,-26.7611,55.5315,46.0819,213.4962,75.0004,89.0559
-351.5625,16.0596,-359.5448,13.5318,6.6908,79.2911,33.9235,-82.4424,25.3192,10.2649,-257.6806,-46.7394,-204.0795,182.9848,616.8524,-219.6042,-100.8013,251.4893,172.6333,101.8661,116.7402
-343.7500,55.8738,209.5169,59.4266,-114.7357,144.7448,-66.6541,366.6313,108.4122,-532.9496,228.7033,256.5074,62.3941,-212.7659,-954.1949,117.6676,347.9715,-409.8720,142.9590,104.8440,15.5838
-335.9375,166.9053,-134.2373,-12.4553,153.1222,70.0635,118.9669,-37.1472,72.6891,-312.9281,-321.7434,0.9458,-44.9553,118.7057,298.0288,-175.9044,-239.0740,335.0085,149.4961,-101.9833,90.6394
-328.1250,114.7321,-80.1189,114.4750,-168.0433,40.6976,-83.6206,-94.0763,-93.2147,-78.2010,24.6571,238.2190,-101.4844,60.9348,22.8566,-50.6609,32.7247,-244.3427,27.8519,89.9919,107.4959
-320.3125,37.8577,406.2678,32.7133,68.9906,96.0904,-16.8901,154.2582,45.1808,-639.1640,90.2924,230.7644,148.2639,-93.4937,-609.9056,12.8396,97.7512,-144.2782,90.5371,-58.7565,99.6604
-312.5000,56.9245,-65.3568,13.9252,92.9026,-26.1271,36.7738,-344.4463,-10.4816,-37.1861,-261.0901,-82.7099,-18.0367,252.0123,805.1861,-228.7019,-180.2431,226.6884,110.1754,-112.5484,152.7756
-304.6875,-84.3090,391.7794,13.8384,-69.7861,8.4896,-71.8472,22.5608,63.5681,-478.5820,254.2174,212.5273,240.3837,-150.7921,-627.1014,64.4346,370.4460,-476.5877,74.5434,24.3229,80.5962
-296.8750,24.3741,185.7786,-92.3334,259.3991,-31.8824,151.4370,-195.5953,103.5008,-478.0295,-257.6096,31.6585,170.6732,71.3375,295.6154,-154.5678,-141.9947,301.0943,78.8209,-183.9214,83.3279
-289.0625,156.6490,-66.5400,82.1039,-47.9460,-35.4440,-39.6950,-241.1154,-124.9581,-121.9507,-119.7841,171.4276,14.5955,99.0221,361.7394,18.0550,-5.7898,-21.6677,-103.2911,-53.5575,74.6610
-281.2500,116.2687,421.4945,75.8915,62.0916,75.6814,-82.4595,118.6760,-57.0638,-681.5186,56.3304,312.5139,229.8683,-90.9156,-636.6968,193.9787,60.7054,-130.9693,-38.0250,-200.8766,68.3558
-273.4375,200.5864,50.2459,122.4063,230.8620,-9.0216,1.4542,-423.8475,-231.4820,-159.3800,-485.8191,65.3211,56.8339,284.8355,845.5196,-201.4038,-408.0739,516.4011,46.9498,-329.4844,151.7542
-265.6250,172.8591,516.0076,243.8673,29.8124,51.1490,-171.6687,-83.3895,-256.9319,-445.3735,-35.0101,370.0835,251.7729,-36.4934,-503.4344,27.1690,115.0910,-178.2510,18.9049,-219.1679,52.1024
-257.8125,189.8890,428.4782,151.0885,356.7784,59.0158,29.9658,-103.2286,-165.6424,-576.5688,-384.5059,94.5645,270.4373,54.9657,-6.5130,-67.5426,-235.0473,472.9167,71.6274,-450.1096,33.2102
-250.0000,153.9570,8.0713,186.3694,103.1729,-21.2260,-44.3622,-325.9757,-240.2866,-66.7745,-312.8867,56.1259,48.1773,162.4353,543.2733,-71.1884,-128.0883,297.0702,-32.5910,-311.9875,31.3657
-242.1875,67.3750,555.0239,61.9916,170.0297,35.3403,-21.3133,99.6078,-71.5644,-670.6660,39.0395,263.0100,329.2661,-182.7215,-757.5416,60.4672,187.1759,-35.3306,91.5722,-295.5415,-56.1226
-234.3750,160.1487,51.3230,47.9885,385.4446,-49.9539,185.0795,-356.4904,-86.4969,-247.1906,-416.6703,-118.7498,93.6909,132.4742,699.9929,-360.5381,-269.1941,727.6044,185.0820,-379.7357,-34.2565
-226.5625,-3.9866,241.7885,99.0983,76.7828,-2.1098,52.5780,-13.4580,-71.3067,-308.6983,111.7414,6.6117,109.2445,-148.2693,-277.5270,-90.4384,221.5518,-33.3523,127.7144,-123.8455,-93.2858
-218.7500,-132.0685,395.2527,-1.7202,378.7041,39.5132,210.1445,105.5674,48.9257,-559.1136,-100.8554,-167.0087,192.8198,-175.9197,-157.8599,-120.3439,-64.7125,402.8384,175.4198,-324.9194,-47.2519
-210.9375,-48.5100,23.4210,119.1278,226.4291,-56.9803,37.3428,-324.7255,-123.1889,37.0771,-236.7452,-192.9465,94.0545,55.0448,699.2904,-257.5775,-165.2792,452.6263,48.7851,-172.3253,0.4287
-203.1250,-10.0546,486.5228,164.8677,132.6388,58.9106,-174.5359,158.8809,30.6095,-581.8729,285.2196,71.9925,360.2050,-305.0765,-836.6520,-31.9369,246.0037,-35.5995,89.0735,4.1341,-101.9840
-195.3125,83.1955,-51.5927,147.4283,347.0878,65.1508,29.3787,-116.7503,14.1912,-234.9693,-284.0239,-348.2745,159.1341,80.6178,470.2482,-270.5159,-360.9191,691.9877,182.1642,-116.6020,-45.5885
-187.5000,-57.5698,-50.6436,183.0028,-3.2930,87.3439,-118.7121,64.6602,-61.2074,-91.1498,117.7795,-165.5118,121.0820,-31.7287,-156.0316,-18.0818,3.1923,-11.4448,77.2764,127.6566,-47.1914
-179.6875,-211.7215,252.8577,57.1868,247.0074,147.6409,12.8139,268.6190,-3.0108,-439.6982,28.1247,-144.1822,216.6016,-85.4311,-465.5858,0.9110,-124.1593,258.8314,134.9978,-28.5050,-26.1856
-171.8750,-192.1785,-251.9038,148.0840,115.0082,42.7703,-41.9858,-265.6994,-131.1109,236.4351,-248.7719,-236.1199,-59.1718,263.5371,766.4296,-93.3749,-290.7649,455.7412,50.4169,-9.9461,28.5211
-164.0625,-310.2874,263.7276,173.3169,-69.4034,109.9239,-200.4191,162.3426,3.1569,-220.1382,289.6576,118.2815,149.4302,-118.1470,-753.2418,260.6678,209.9514,-258.9359,-31.7836,115.9318,-20.4142
-156.2500,-127.9449,-9.2262,28.0164,247.8331,28.3229,21.5941,-167.2085,41.8536,-73.2098,-186.4904,-172.8819,41.4574,104.6553,388.6192,-107.8602,-339.9098,522.8688,115.4733,-91.7414,55.1082
-148.4375,-15.2128,-104.7131,74.1283,-36.5517,-38.4852,-42.0038,-196.3021,-23.0359,117.0390,151.8153,19.3936,-23.0824,-35.1798,139.6841,-100.9622,-39.3328,5.0234,54.1328,124.9876,27.0267
-140.6250,28.5737,362.8236,-24.7094,197.4861,2.5914,43.4596,107.6148,136.1259,-461.6406,200.1198,68.6915,247.4215,-243.9325,-620.0867,-91.0617,7.2279,85.3251,99.8595,-43.2565,-34.9979
-132.8125,112.9067,-43.0724,24.0188,242.9093,-85.2948,92.4574,-358.9144,-36.1644,98.2397,-266.9797,-213.4379,75.4771,133.8433,825.6085,-338.6071,-348.6185,488.1140,79.1378,-101.9254,13.5271
-125.0000,62.7878,435.6184,83.2835,28.8654,-11.9310,-104.9743,29.1352,-12.8828,-322.3953,196.4676,102.9831,356.1011,-174.8467,-585.2198,-24.6197,150.0865,-299.5158,29.9875,56.9418,-37.3932
-117.1875,142.3717,234.9574,-57.7448,330.1675,-33.1409,85.2998,-149.1586,30.0796,-393.2660,-239.4256,-109.9173,325.4025,14.2030,228.7690,-276.9631,-249.5403,378.5969,180.5406,-147.4918,5.3961
-109.3750,155.1698,38.6148,-6.5213,45.5332,-104.7030,25.8051,-283.1382,-66.7054,22.0561,-43.0135,-23.5403,118.9877,27.4640,389.8138,-229.0142,-53.8571,5.8926,89.3488,39.3369,-17.5680
-101.5625,33.2035,482.4922,-95.0513,127.0297,-5.9394,48.5790,178.1213,102.7606,-546.3636,235.5902,109.0350,251.8128,-244.9797,-690.8027,11.1598,77.0147,-148.4632,109.4328,-13.6132,-69.2753
-93.7500,60.2752,-51.6006,-33.5089,229.2919,-34.2436,110.3850,-238.5694,-19.7352,63.3007,-254.7186,-233.3304,-17.3234,182.6277,804.5934,-296.6028,-451.0400,478.1823,172.5572,-94.4912,-7.9272
-85.9375,42.5885,318.6091,61.2820,-85.3254,32.0693,-89.5539,148.0244,38.0378,-139.8589,353.2365,44.5630,40.8252,-128.5366,-534.8857,15.9017,46.1589,-347.9117,154.9477,61.8696,-97.3240
-78.1250,65.0157,272.8713,-98.8166,236.4199,28.9972,155.6164,133.6685,172.8952,-265.8635,8.2285,-188.4733,28.0470,-68.5525,-143.1340,-146.5296,-299.5879,239.1669,319.4427,-128.6796,-110.6117
-70.3125,-49.6124,-155.8618,-35.9434,31.7249,-52.0054,107.7150,-172.6860,50.7061,272.0365,-3.7680,-198.5198,-129.7692,66.3485,470.3812,-159.9841,-239.3331,126.1298,206.8804,36.7367,-84.9559
-62.5000,-247.9342,349.6933,-94.7673,69.0624,50.8096,86.1271,319.2498,175.8251,-304.7761,341.4967,-37.2920,69.7158,-287.4241,-839.7631,72.8354,105.1734,-176.5207,254.6297,46.4255,-143.9980
-54.6875,-150.6515,-113.1880,-106.9670,245.7588,3.1099,185.1201,-61.2370,90.5347,159.0590,-258.6246,-342.4568,-162.2191,141.4198,692.6957,-272.7373,-458.6997,555.4012,212.9662,-69.2774,-82.4399
-46.8750,-64.1359,45.2335,58.0774,-106.4586,34.5922,-17.6355,175.5712,34.5094,63.0661,198.5346,41.6519,-70.8724,-99.5107,-318.7484,0.9648,34.7063,-234.4423,-16.4372,121.2610,-101.6343
-39.0625,-23.6637,121.5548,-51.9214,164.2502,58.2827,129.5728,248.2788,145.4229,-196.9291,-59.4132,-104.3227,3.4028,-100.4370,-208.0957,-111.4221,-150.9959,192.7487,24.1128,-52.2648,-27.8723
-31.2500,-77.2050,-421.0763,-73.9070,-32.2183,-36.6788,69.7590,-142.9795,-24.6603,476.0492,-193.2990,-274.2663,-239.3098,206.6010,833.4082,-209.7711,-138.6409,211.8555,7.6535,33.2350,58.8871
-23.4375,-230.3917,130.6517,-156.5532,-85.5332,46.7390,-12.6926,397.1190,76.6168,-161.6559,274.1299,84.1240,118.3354,-207.0006,-720.7307,182.2174,329.0242,-360.6206,-3.4401,90.0586,-23.9990
-15.6250,-90.3143,-219.4220,-196.9303,207.9889,-3.2247,132.1010,25.4386,73.1258,89.9476,-354.2001,-249.2415,5.2102,155.6689,636.4402,-80.5530,-264.0702,483.1475,31.7044,-124.8539,9.3682
-7.8125,-33.1105,-160.2916,-27.1508,-126.5864,-11.0020,-28.9607,46.9683,-14.1987,183.6244,35.6646,-6.4327,-44.7319,31.4513,33.5852,124.8567,88.0262,-159.9780,-119.9919,71.3897,-4.1157
-4000.0000,-151.7646,-28.2148,-55.0492,-7.1136,65.3420,-15.9888,185.4943,53.4209,-56.6317,39.5519,-39.8982,28.2496,-4.3133,-307.0673,147.8427,53.4989,-32.4688,-30.2563,35.8470,45.0102
-3992.1875,-110.0189,-546.4227,-11.8107,-88.1562,-11.8365,-44.2656,-244.7487,-121.8503,611.8319,-246.0536,-252.2636,-220.0607,334.5256,947.1371,-64.1058,-195.9169,222.1328,-20.7628,150.3813,89.4708
-3984.3750,-101.2792,27.4032,2.4477,-247.0748,51.8831,-212.5730,252.0210,-32.1352,39.3126,358.3897,130.4050,89.6427,-90.6714,-657.7246,248.9669,335.7110,-505.3511,-81.2887,232.9397,-4.0857
-3976.5625,20.3747,-164.8354,-17.4083,126.4316,9.2825,-12.9678,-133.3006,-51.5143,165.6645,-212.2951,-146.0343,-2.7362,220.0230,533.3410,-137.0858,-270.7983,392.1132,42.0966,-64.6220,50.2447
-3968.7500,14.8589,-273.3201,162.5485,-197.5960,-29.1081,-162.5733,-279.8768,-163.1190,456.9081,41.7835,70.3103,-151.3444,106.5361,417.3632,-64.3729,19.4699,-103.6068,3.2676,178.6260,47.3693
-3960.9375,-21.9972,183.9146,90.1458,9.2923,54.7855,-51.5463,92.2434,59.9321,-203.2412,154.5656,145.3445,71.7342,-185.3629,-466.1021,13.0143,59.4405,-102.7536,74.0784,180.5304,13.1311
-3953.1250,6.2651,-349.7805,79.8298,66.5708,-59.2313,12.5940,-391.5840,-22.9224,448.7562,-220.6269,-194.5517,-120.0967,172.8687,1030.7211,-287.5525,-353.5649,382.2977,31.9984,174.5043,77.9914
-3945.3125,-137.9088,36.0947,82.0841,-186.8660,-17.1982,-167.7384,-19.8764,17.7538,46.3381,406.7630,175.1326,102.6224,-229.3744,-440.9267,10.4326,274.0067,-427.1749,31.4572,386.0550,7.3873
-3937.5000,-111.2272,-111.1277,-35.8157,164.8071,-12.2935,45.7901,-170.3011,122.2902,-34.2787,-4.0011,-52.3311,61.2205,21.2098,359.2523,-249.7479,-208.5811,339.2266,200.7759,98.4326,1.6168
-3929.6875,-30.9223,-308.7993,89.8939,-113.3678,-49.8169,-123.0805,-298.1927,-44.5966,422.7899,12.7818,36.7856,-106.6049,110.4314,777.2203,-196.3703,-156.6001,35.2698,106.6807,252.4037,-55.5607
-3921.8750,-33.4033,217.7996,19.8028,-57.9064,30.1435,-192.7639,186.1463,33.7139,-271.9900,163.8103,188.1619,118.7935,-180.1933,79.2570,-5.7636,-41.3671,-212.5706,70.7764,182.5766,-161.5556
-3914.0625,57.9583,-426.8178,-32.4989,30.0891,-132.5954,-60.6237,-376.7608,-54.1885,264.0447,-365.4425,-158.6777,-153.0101,209.0108,2307.2505,-460.4005,-533.4089,408.4815,-12.3165,-40.4920,-102.7588
-3906.2500,-166.7536,-157.5282,-6.8786,-335.7614,-127.1836,-144.6004,-90.7978,-64.2220,-40.9723,323.2216,162.4032,-124.9182,-168.9008,1374.1722,-174.1413,155.4688,-552.6129,-59.5335,124.3512,-149.0764
-3898.4375,-191.5029,-110.2103,-179.3126,30.0625,-94.5799,125.3795,-75.8687,59.6982,-359.0996,-32.1584,-9.5448,-111.8383,-82.9014,1678.9860,-307.9436,-162.7028,57.2441,163.2091,-143.8811,-136.4585
-3890.6250,-154.2121,-351.9320,-64.7354,-100.5709,-153.6401,129.3663,-363.0173,-156.4168,195.8487,-211.6103,-78.5103,-253.7825,142.1328,2306.0100,-373.8085,-231.9322,-9.8257,61.9545,-34.1313,-131.8473
-3882.8125,-281.3480,296.9542,-82.5948,-52.4309,-51.6861,74.8845,174.4158,-24.9964,-482.6877,103.5338,125.1283,97.8433,-243.3315,889.4679,-95.0997,157.4369,-416.4307,41.2429,-52.8150,-221.7065
-3875.0000,-144.1014,-267.8100,-50.1094,150.5768,-82.9421,217.7742,-268.8271,-66.2321,-46.8809,-451.0339,-247.9055,-126.1838,193.5681,2133.3909,-355.0787,-397.9032,391.4043,74.8942,-195.1832,-152.2280
-3867.1875,-224.4227,-135.1870,89.7970,-258.7211,-78.1522,-46.9510,-88.7060,-109.0988,20.3877,92.7931,76.4756,-95.8310,-71.1307,1314.7947,-28.6739,37.1578,-461.3863,-75.0763,8.8608,-195.3669
-3859.3750,-191.7790,181.4634,-60.3435,90.1737,-47.3928,61.2723,58.4040,36.9856,-349.4582,-56.4180,0.8388,123.4992,-146.9156,979.0553,-140.3109,-222.8207,-41.2517,64.9048,-203.1580,-160.5759
-3851.5625,-114.7034,-337.5335,-17.0762,-50.0519,-159.2663,30.9063,-409.1557,-139.5557,355.1714,-268.3180,-102.4275,-125.7932,154.7458,1940.9336,-314.5939,-287.4660,108.3637,2.2855,-87.8106,-116.3890
-3843.7500,-209.3528,132.7645,34.4613,-158.3632,-47.6421,9.7665,86.5419,-12.8649,-217.9461,262.0751,244.6046,38.1765,-271.3852,224.9708,33.3933,206.1923,-476.8609,-21.0994,30.7932,-173.9675
-3835.9375,-48.7530,-233.7093,51.1892,138.7638,-90.2037,210.8469,-297.5870,-30.9792,168.1214,-308.3802,-143.1639,-200.6482,76.6813,1492.2754,-313.4680,-399.9911,422.1889,-0.2686,-194.4435,-82.3561
-3828.1250,-71.6590,-148.7556,176.3864,-236.1711,-134.5159,5.3682,-280.3347,-52.6745,439.7186,147.5903,55.5225,-221.0475,-92.7874,916.1583,-187.9234,-17.7418,-336.3088,-161.9965,102.7748,-67.3074
-3820.3125,-123.6010,188.2287,-25.4629,13.1097,-80.8752,60.8376,-1.0974,114.5872,-55.7862,130.5368,112.1982,-17.4676,-256.3536,197.8739,-129.4191,2.4748,-106.9072,-36.7689,-18.0637,-47.3295
-3812.5000,52.2387,-443.0689,45.4396,-22.5242,-160.6075,59.0769,-515.1782,-71.4192,604.5289,-274.8474,-74.4163,-312.1613,144.8698,1482.5460,-313.2234,-292.6366,351.3374,-71.7832,-17.1790,24.3911
-3804.6875,18.0557,157.6205,86.3086,-212.3393,-60.9457,-156.7611,5.6793,7.5132,92.8177,279.7685,260.9593,-50.9064,-254.9834,-243.8894,59.9325,226.2509,-419.5541,-104.8663,56.6759,-7.9580
-3796.8750,136.0121,31.4442,-13.7281,177.8646,-90.8248,-0.4834,-310.3703,18.5582,67.1763,-222.5377,-22.5552,-74.5449,86.2568,757.7865,-293.8395,-313.7890,473.6984,-20.8417,-174.4001,76.7777
-3789.0625,72.4627,-66.3256,105.6946,-163.8817,-134.6500,-136.7591,-409.0441,-7.9769,334.0754,117.5679,98.3823,-211.7661,58.9755,618.0757,-209.2017,26.5931,-80.5727,-153.3737,114.9653,49.9558
-3781.2500,-36.2180,390.8410,-40.0339,67.4495,-29.0888,48.8049,36.1592,179.3398,-398.2235,230.5680,211.2193,84.8889,-195.5116,-446.9165,-21.7027,102.8723,-118.0675,20.9492,-25.8238,-21.0342
-3773.4375,218.3444,-92.8115,5.4303,222.8372,-167.9881,204.5989,-576.5020,-69.1519,124.7165,-385.3021,-0.7702,-15.2831,180.2361,1104.4786,-378.0767,-364.7162,488.7292,64.4903,-262.4453,-11.8330
-3765.6250,250.7363,504.3505,155.7152,-9.7385,-119.8861,-13.8182,-204.3927,-175.8625,-312.5031,95.6594,444.0688,283.3301,-221.2342,-401.3304,-80.6571,263.5254,-356.7451,-43.1716,-194.2503,-118.8473
-3757.8125,438.4543,518.8759,59.2944,375.1236,-133.4101,112.0771,-333.9778,-160.2685,-444.4674,-404.0893,164.2171,335.2675,-23.4298,236.1274,-320.9514,-162.9488,430.1024,40.4861,-425.7867,-140.5767
-3750.0000,496.0093,85.1602,194.6864,8.5188,-147.4052,-47.2273,-452.8438,-280.9094,95.4592,-268.1033,153.1506,30.9776,113.2145,591.5770,-183.4875,-99.6668,101.8017,-112.0549,-155.5401,-151.5139
-3742.1875,289.7327,443.6641,55.2376,-27.5846,-1.0366,-76.3927,145.4637,-15.4120,-448.5048,144.0759,308.2855,149.8609,-174.0359,-761.9539,157.1470,128.8151,-279.4278,-0.4413,-114.1424,-180.3204
-3734.3750,367.4934,-144.8435,-13.2054,89.0967,-97.4235,113.4659,-361.2828,-45.9340,145.5449,-327.8174,-90.6059,-175.2712,309.7467,859.6629,-241.2715,-342.7773,362.4466,78.1966,-280.7762,-101.1341
-3726.5625,212.9878,335.3481,85.0807,-190.1053,-86.2583,-45.9938,-77.3680,16.2092,-13.6484,211.9979,192.2189,-1.7191,-69.7758,-402.9805,43.9959,271.3413,-530.0157,-6.4748,-117.7009,-149.2626
-3718.7500,259.9076,489.0158,23.7725,257.0829,-36.8226,150.9506,-62.0387,66.7474,-367.4943,-252.7786,21.4706,159.2551,-20.9314,-171.2986,-162.3476,-120.1373,185.9249,112.2663,-315.2509,-136.0105
-3710.9375,363.4310,-73.8178,205.0296,22.7036,-80.5993,1.4550,-392.2440,-156.1905,181.2913,-291.0721,-17.7493,-136.2588,234.5059,634.1396,-237.2086,-159.1272,256.4958,-135.4425,-104.2737,-101.2138
-3703.1250,119.9897,388.4001,210.3066,-70.3437,77.0515,-103.0534,203.5591,-3.1388,-510.9416,302.6877,319.0789,54.2318,-165.1062,-979.5413,137.9371,288.9348,-267.0164,-167.1512,40.7214,-132.4337
-3695.3125,237.5900,-161.3759,146.5786,191.0548,9.7707,90.4704,-261.6775,-29.0875,-60.1756,-385.6088,34.8917,-119.2868,213.2923,536.8801,-181.9705,-362.0539,589.5538,-47.8422,-157.3145,-48.6601
-3687.5000,237.2301,50.8295,256.8711,-143.5024,-3.7228,-93.0136,-75.9753,-139.0652,14.6618,19.0947,256.7180,-6.8319,-154.3034,-308.6127,152.0941,78.9556,-253.8908,-118.5430,89.6574,-47.8943
-3679.6875,201.9925,404.2140,72.2704,218.8745,24.5755,53.6075,108.8446,-28.9357,-390.4714,-129.0685,145.6825,250.7483,-228.8385,-569.1172,78.2556,-105.9115,132.7355,22.8625,-190.2799,-12.0461
-3671.8750,305.3022,-122.9385,177.1832,66.4742,-88.7424,-25.2515,-370.9160,-179.3269,303.9510,-279.8003,-42.8820,-83.1976,60.1754,602.0788,-144.1412,-219.3457,342.9438,-119.2303,-120.7420,57.2950
-3664.0625,152.7576,359.0589,131.2160,-132.7531,-3.4315,-180.0308,173.4186,-4.6324,-256.5261,372.6144,316.6963,127.9672,-389.7480,-1062.7130,288.5798,360.3682,-405.8384,-165.2413,44.9030,11.7203
-3656.2500,270.7101,-85.4679,31.6852,202.8412,-59.2335,50.6555,-217.8194,-30.4856,-25.5672,-277.5621,-40.2856,66.5905,-12.2189,270.9965,-30.2839,-179.5036,485.8884,-47.7860,-188.0379,59.5889
-3648.4375,227.3412,-57.3789,60.8180,-142.8276,-113.1224,-67.0153,-186.4729,-146.7131,225.1250,81.8940,136.3759,96.8295,-92.0132,-141.5186,110.4639,217.2624,-259.7268,-160.6861,-20.3200,52.1013
-3640.6250,108.7797,424.5887,-136.2451,167.1611,-70.0127,66.1086,58.7073,-14.1356,-192.4330,31.1973,196.8711,341.8906,-253.0561,-781.3671,25.0259,93.8652,-60.5961,73.2211,-241.8021,75.3983
-3632.8125,299.2010,-87.5268,-12.3588,145.7643,-194.2212,42.2037,-551.2339,-256.6231,851.0240,-506.6230,-82.7207,-48.1238,163.8945,664.9211,-290.5103,-369.6544,445.5755,52.0969,-297.3643,125.6448
-3625.0000,183.9994,362.7319,91.8913,-133.1204,-84.6539,-182.3658,-2.8439,-224.7803,588.8613,76.9408,316.0765,94.2047,-281.8236,-1069.4954,109.3128,213.2151,-370.9767,-26.6674,-93.5594,47.2288
-3617.1875,209.1403,37.3342,-29.5709,184.8077,-73.2354,63.3937,-158.1592,-161.6366,651.9594,-448.2337,11.1866,-26.1652,36.7521,-50.6128,-230.6040,-201.6486,428.8204,104.8981,-314.4807,73.1015
-3609.3750,156.8382,-154.6132,63.4968,-157.0365,-141.6657,-63.3410,-320.0503,-215.0312,1040.6379,-170.9586,68.7816,-115.0768,56.8643,-31.0727,-99.0807,75.9577,-115.8399,-18.0361,-49.9099,56.4666
-3601.5625,-5.3423,387.6025,-103.3180,62.8587,-70.6269,27.0135,102.1825,-14.3306,395.3765,29.4699,122.5104,159.1306,-256.9691,-1119.5759,65.5674,240.7149,-136.4747,101.1321,-71.2369,-0.0845
-3593.7500,291.1628,-193.5585,-51.4899,184.8727,-186.3562,116.0327,-430.9972,-180.9895,1036.8077,-542.5155,-265.1407,-117.0290,125.8896,514.7354,-320.1884,-257.9485,582.6401,81.9672,-159.9456,16.0127
-3585.9375,283.1515,220.7386,90.8108,-119.3149,-121.5353,-109.5152,-66.7594,-150.2205,627.7357,113.9773,60.6850,25.2429,-245.8102,-962.5140,-30.4947,325.8672,-269.8563,3.2455,7.8183,-62.4502
-3578.1250,211.9580,151.8879,-58.0893,256.5330,-74.3686,109.7541,-103.7154,-3.6388,332.4203,-254.7283,-196.6824,61.3273,-27.7307,-339.0152,-251.0167,-117.5186,433.4595,179.3429,-272.6357,-27.1231
-3570.3125,139.1877,-164.6163,49.4276,-25.8762,-111.6078,-3.5609,-251.3598,-152.6808,844.5958,-147.0845,-162.6803,-88.2282,79.7930,171.0709,-253.1947,-9.5463,115.2388,36.8471,-63.6978,6.6002
-3562.5000,43.9357,443.4401,-49.5343,29.1613,-21.6553,-28.3832,276.5120,42.7734,158.2420,232.1218,68.8610,218.7270,-312.2281,-1214.4866,-19.8666,333.9814,-260.5563,81.8504,-88.2456,-18.1913
-3554.6875,325.8771,-117.3677,-86.3451,206.0880,-122.9146,117.9717,-273.5159,-31.6346,600.0546,-356.5836,-297.4677,-39.1889,163.9291,439.2284,-386.4406,-254.4022,513.8985,153.0174,-261.6774,18.1637
-3546.8750,356.1997,160.1479,-12.7861,-162.8790,-92.3312,-65.3319,58.7632,-67.7208,343.2839,194.0800,69.5674,72.2154,-93.5625,-737.6702,18.3252,297.5838,-404.3380,-27.4671,-55.7452,-92.1352
-3539.0625,399.0825,239.2736,-114.6820,192.1093,-3.1905,53.9319,216.6108,-22.2438,-15.9886,-201.6802,-104.8278,266.1850,25.4644,-619.1134,-8.3585,-60.8655,164.9655,85.6100,-294.2801,-119.8928
-3531.2500,511.1062,-139.5464,2.5381,15.7082,-101.0388,-48.6892,-142.5380,-234.6828,654.9130,-377.3900,-244.1524,127.2211,290.6352,306.7332,-110.0017,-201.2759,137.4465,-118.2029,-146.7376,-112.5495
-3523.4375,398.0517,592.5874,-75.3210,13.4527,-34.9592,-126.4253,407.2182,-128.2249,-48.3039,59.8605,9.4636,602.1669,-155.3341,-1242.6523,218.2701,163.2697,-502.2542,-161.1130,-48.2801,-190.3195
-3515.6250,686.4218,283.1228,-178.7833,376.8441,-152.4877,27.2655,-63.6517,-269.3705,289.8791,-668.5570,-314.5349,609.4988,219.1177,271.4372,-216.0975,-527.8297,418.5371,-84.6094,-252.4521,-183.6918
-3507.8125,910.5626,649.3691,-12.4669,84.1724,-261.2850,-247.2968,-42.8236,-432.7960,310.8905,-209.2456,73.2218,850.5439,-129.6541,-518.6392,-84.7341,-104.1843,-342.9241,-317.3707,-62.8654,-311.3148
-3500.0000,1191.3164,1248.2834,-44.5440,490.6618,-287.0539,-206.2575,0.6273,-354.6151,-310.5585,-315.2954,114.6115,1223.2074,-309.8564,-919.2495,-226.7573,-320.9120,79.1824,-212.5246,-344.6840,-417.3452
-3492.1875,1559.3655,808.3970,120.6379,384.8542,-417.3089,-298.9523,-532.7507,-521.2061,297.3004,-627.1584,-87.7871,948.0880,3.2411,348.5723,-502.5759,-559.4453,342.6289,-337.4141,-328.2769,-436.1222
-3484.3750,1393.2378,1312.3337,97.6352,206.9777,-325.0322,-358.8678,-2.3236,-323.0125,-388.0345,10.8382,257.6476,1108.7723,-498.8903,-1256.9084,-156.5711,42.8809,-421.2151,-326.5059,-71.0513,-496.1083
-3476.5625,1293.7372,895.9016,-45.7841,604.5275,-343.8383,-60.1657,-328.3106,-245.2153,-272.7916,-537.5907,-143.3280,966.0647,-164.4083,70.2299,-519.9973,-542.2304,569.5983,-109.9744,-241.2555,-455.4961
-3468.7500,1075.6639,750.8313,169.2210,238.9522,-277.7845,-140.0673,-295.9637,-251.0507,-131.0600,-175.6467,72.0920,740.7199,-206.4871,-267.1174,-341.0598,-252.9692,-34.1728,-187.0468,33.9464,-461.4831
-3460.9375,762.0942,1106.3289,133.7502,443.9379,-83.0869,-27.4808,111.9138,8.6114,-899.8722,-63.1602,185.0452,779.8924,-316.1045,-1001.1237,-264.6044,-214.1742,110.5036,-42.6096,-138.3464,-422.9772
-3453.1250,698.2578,339.4802,243.9843,371.1418,-101.5700,45.8247,-437.5739,-102.0396,-311.9276,-394.0470,-146.3458,191.7356,199.0255,580.7402,-520.5040,-470.7494,644.9843,-36.4541,-131.9658,-275.7659
-3445.3125,341.8480,582.0414,199.6332,45.6576,5.2494,1.5206,69.3219,110.6906,-796.5469,370.5034,103.6902,146.9750,-250.4647,-936.0526,-49.9983,256.1157,-240.2069,-40.9045,145.8343,-210.1583
-3437.5000,199.9033,230.0926,-28.2760,369.5511,20.5978,288.6881,-120.3400,177.8800,-765.7577,-78.5041,-232.8274,-43.3153,73.4792,49.5819,-313.0594,-191.5820,569.0876,204.1191,-101.9435,-70.1037
-3429.6875,95.9846,-188.9125,116.8342,-23.4297,19.7558,176.8584,-267.0827,-7.9557,-287.8858,67.4536,-88.3760,-374.6352,145.4661,231.3725,-166.1559,27.7000,148.4187,100.1451,111.2774,1.9527
-3421.8750,-198.1772,185.8945,102.7069,55.3552,230.5769,161.7747,270.9496,87.9657,-965.3123,236.2169,81.8568,-241.1834,-53.8382,-887.2408,149.5177,270.7946,30.4252,192.9279,28.2552,23.7504
-3414.0625,-208.2669,-457.2819,160.6309,125.2876,225.4907,219.7724,-184.0311,-74.0664,-280.6639,-331.0334,-263.8983,-624.6976,482.9482,715.3440,-47.8113,-222.1135,723.5827,251.7797,-52.7495,118.6059
-3406.2500,-416.4491,-101.5689,238.4655,-232.7181,335.3786,40.6568,261.8541,-33.2155,-569.0691,298.6554,181.2599,-619.3300,156.6309,-714.1838,360.7711,333.9128,-187.4133,184.5296,231.1667,86.3635
-3398.4375,-407.7802,-195.9588,62.1398,92.7260,373.1962,269.3996,270.6046,121.5021,-744.6812,-60.7869,-29.7278,-721.0931,311.1468,-228.9433,149.2143,-99.2006,490.4484,335.1523,64.9118,130.9684
-3390.6250,-264.0403,-685.3575,173.8791,-228.6857,276.8612,160.2030,16.3301,13.2502,-117.1623,-23.2278,-65.6946,-940.8430,385.7644,359.5161,113.6588,-24.3057,211.4261,161.8277,243.6993,168.6270
-3382.8125,-371.2965,-122.7059,62.6401,-192.8634,349.5957,121.9964,530.0767,158.0052,-780.6724,416.3985,190.3779,-536.5759,-56.6564,-1039.1874,334.1160,341.6475,-246.6802,230.5006,242.5077,167.2768
-3375.0000,-275.8311,-661.3815,86.0992,29.9283,283.9028,292.5145,2.4866,71.4596,-315.4698,-149.3280,-116.8804,-770.6271,406.6578,600.9051,-156.7647,-223.7534,587.0037,289.8936,91.9931,226.6334
-3367.1875,-374.6089,-406.3460,206.3225,-366.5501,279.0732,81.7772,197.6110,80.6490,-414.4413,448.7092,260.6077,-759.9536,49.7350,-454.2215,148.1109,375.6160,-319.6046,157.0351,380.2472,163.7443
-3359.3750,-373.6939,-334.5548,-14.7649,-46.7954,302.6929,265.7561,307.4611,227.5571,-782.7707,190.4788,76.8101,-649.5562,85.4849,-382.7713,110.6917,153.7169,172.4646,262.8921,169.1928,199.5543
-3351.5625,-375.6638,-828.7224,-19.7508,-266.8216,152.8713,185.8482,-100.6629,112.5502,-13.9223,112.2923,-148.9273,-839.0884,300.3898,677.9587,70.3128,148.8643,100.7129,120.8545,308.2275,267.4761
-3343.7500,-582.6371,-224.8514,-124.7224,-367.8604,218.2022,118.9202,420.2341,374.5340,-633.0795,742.1680,187.3627,-501.6135,-134.7375,-898.4481,369.9612,670.0690,-634.1182,158.8121,382.2860,236.3963
-3335.9375,-439.8994,-714.2791,-198.9991,-82.8652,150.9104,301.7183,-57.1899,374.2165,-265.5548,153.7057,-106.6784,-649.4388,304.8490,571.8930,-33.7170,7.9339,247.8305,266.4948,209.0167,309.0228
-3328.1250,-413.7553,-652.3538,-23.8458,-472.6115,176.0746,35.9160,81.7271,291.2788,-162.5666,584.6442,178.6727,-657.8875,112.8659,-135.2934,250.9831,366.1985,-498.8291,117.5810,482.1573,300.0565
-3320.3125,-464.0652,-279.8205,-151.1376,-179.5538,234.7119,129.6650,285.2224,494.9043,-694.1111,531.1904,88.6026,-489.7606,22.4028,-558.0859,234.2484,275.0577,-197.9833,242.2295,289.8559,319.6417
-3312.5000,-355.3541,-803.3486,-76.4295,-262.9904,86.2205,131.4339,-263.3471,349.5151,7.3914,311.6695,-166.5097,-782.6592,316.9983,767.2900,-93.5299,130.8599,87.9588,175.8974,258.5403,358.2397
-3304.6875,-487.4957,-160.7112,-101.5559,-416.2416,137.7231,32.3341,263.2467,508.2620,-568.9434,875.3522,139.5519,-439.4137,-185.2706,-876.2903,359.8648,730.8603,-749.0278,78.7198,407.4046,295.9854
-3296.8750,-398.2837,-457.7126,-266.3291,-38.5701,112.8456,234.6078,27.1923,416.3638,-401.9633,159.3609,-209.0599,-456.8205,164.8227,355.4718,195.5898,51.1810,150.3973,202.9186,145.6007,315.0825
-3289.0625,-405.9179,-570.6263,-125.9286,-398.3369,107.5430,8.0327,57.2252,225.5946,-39.7594,408.5042,-68.5447,-500.1175,157.1105,54.4980,483.4424,301.6346,-421.0052,19.2651,312.9559,271.3360
-3281.2500,-501.0146,-101.9349,-222.9664,-168.5107,181.1034,95.0005,400.8385,385.3893,-652.0642,531.2637,17.5477,-228.8390,-87.0889,-816.0958,532.8847,350.6947,-373.9219,135.1624,113.8659,247.1380
-3273.4375,-443.6447,-817.8417,-237.5546,-153.2175,70.8619,153.4418,-90.1569,260.6323,144.1139,113.4114,-253.9571,-501.1277,302.2057,713.9191,261.7357,-29.8510,175.7070,123.5257,100.1979,269.4041
-3265.6250,-670.1294,-375.6056,-213.9680,-434.6646,133.8676,31.0202,411.9918,321.0145,-125.5383,687.7501,99.7048,-292.2815,-114.3540,-806.9756,690.7554,618.8040,-754.5800,1.0378,329.7054,182.8250
-3257.8125,-582.2760,-391.9953,-343.0282,-7.8663,120.6630,231.9639,246.5100,375.7609,-106.8903,116.4391,-175.2884,-237.0756,159.4334,19.4240,304.1270,84.7998,73.5141,158.9111,31.5490,200.5985
-3250.0000,-397.8254,-523.8593,-75.4760,-301.3387,50.4949,58.5096,-36.4351,165.0927,381.4415,200.6914,-91.7123,-374.2967,206.8746,249.5683,205.0791,205.3531,-304.7467,28.3830,215.9923,173.9844
-3242.1875,-422.8024,84.9304,-98.3200,-174.7909,160.4746,-1.3558,418.2564,289.0361,-265.6724,397.6110,105.4942,-102.8874,-147.1285,-987.8623,366.6577,366.5718,-470.4871,143.4556,191.0527,113.9742
-3234.3750,-306.8774,-431.4183,-90.2722,27.3955,44.4358,43.7030,-87.1960,112.8881,478.1217,-181.6178,-216.4466,-241.5898,228.8094,638.7263,-65.9068,-213.3601,348.7718,117.4481,26.0013,158.8800
-3226.5625,-352.9508,15.2014,10.7990,-228.1178,30.6347,-149.2563,198.3316,66.7300,322.9511,396.1985,141.6122,7.6771,-221.2456,-694.7001,218.5409,365.7471,-471.0182,-32.5653,154.9866,112.7911
-3218.7500,-241.1306,57.7566,-57.2370,159.1059,68.4741,-33.3061,129.7989,71.4980,144.6186,-76.0659,0.5674,85.8567,-69.4205,-322.3353,-32.0942,-107.2325,274.0906,113.3379,-84.1311,154.6041
-3210.9375,-164.6007,-322.0594,58.4282,-119.1501,10.4164,-211.6455,-157.0898,-142.0458,777.0681,-143.6840,6.1805,-202.3008,119.1635,343.8973,-26.0735,-174.5643,138.9633,14.9440,131.4457,160.1319
-3203.1250,-337.0349,280.2285,-7.8443,-112.0707,129.2016,-277.9561,438.1010,10.4603,122.5368,303.8142,269.8790,98.6207,-277.2369,-1156.9904,275.0230,199.2181,-313.2037,52.5949,136.0961,93.7127
-3195.3125,-175.1143,-261.1416,-24.7736,121.1300,34.6459,-37.8986,-56.3898,-79.6829,657.3395,-302.3830,-151.0986,-175.1053,108.7443,479.5459,-182.5740,-331.6935,517.0717,144.6133,-88.9234,149.6547
-3187.5000,-183.2857,-162.6499,78.2215,-277.1961,3.3044,-154.9501,83.9804,-85.9447,726.0805,242.3405,135.8210,-180.9554,-190.3616,-445.9933,67.7206,212.3172,-369.7749,-4.4618,218.9818,106.5008
-3179.6875,-152.1183,44.2388,-108.4284,47.2261,25.0155,24.3588,227.7358,56.1683,355.0887,17.4586,21.0998,-37.4370,-231.1436,-487.3260,27.3802,-47.2915,47.7091,132.8304,4.2393,102.6932
-3171.8750,-82.4554,-412.4523,-34.5667,-84.6230,-84.5120,-47.8150,-175.0673,-127.2260,1017.6436,-201.9689,-162.1677,-147.4631,61.6364,615.0152,-81.4924,-231.4562,118.7776,-8.3715,73.9953,102.4002
-3164.0625,-303.9126,210.7724,-79.7855,-151.4523,-4.6202,-93.1106,331.0567,11.2806,348.0714,340.5784,123.4921,211.4203,-349.7027,-973.8835,278.5843,275.3396,-560.3443,-19.6829,168.6833,21.0142
-3156.2500,-158.8651,-205.5064,-112.5135,131.5322,-60.0023,131.1132,-142.3238,-22.7053,609.9619,-280.4050,-239.3721,-41.1876,94.4763,536.7540,-84.8603,-309.3984,324.1015,91.5212,-71.1459,61.1420
-3148.4375,-81.6670,-232.6985,44.9263,-285.5117,-54.6134,-79.5205,-58.5975,-85.5567,695.0615,133.7656,27.8971,-140.6718,-42.1645,-78.3784,182.8278,142.0222,-406.3091,-42.1278,182.1913,-1.5664
-3140.6250,-99.5645,101.0985,-44.6745,7.7739,67.1490,15.7949,294.1246,82.5685,55.0410,80.9522,-24.8737,99.8097,-131.8885,-609.7267,167.4944,16.4441,-142.8149,117.1871,23.4939,-54.3195
