Time,Fp1,Fp2,F3,F4,C3,C4,P3,P4,O1,O2,F7,F8,T7,T8,P7,P8,Fz,Cz,Pz,ref
-4000.0000,19.3532,1.1057,47.1041,-20.3158,24.7571,-22.3182,-89.6067,-109.2904,-23.1529,-75.6021,77.8546,-12.4224,41.8875,0.8326,31.9409,-2.9170,139.6878,78.3249,-38.3334,48.6708
-3992.1875,5.1318,-49.3119,-109.6608,34.9333,-68.4210,76.1311,117.5603,134.7439,38.2023,206.0721,-151.4585,48.9972,-81.4376,100.5493,-14.8869,21.5125,-294.4723,-110.7214,-53.1927,-34.8153
-3984.3750,25.2561,4.6111,-125.0973,-16.4724,-14.0018,96.9364,-9.8894,43.1501,-52.0796,5.1126,-20.4447,-77.2315,-39.0903,10.6205,-104.3645,5.2840,183.6887,261.5661,0.2968,-49.9560
-3976.5625,-78.8654,-134.7096,-52.7696,-86.1391,-42.6541,95.4905,24.3833,225.2863,57.3711,297.8852,-129.6612,-77.7154,-63.8526,46.4387,-31.0992,40.7981,-234.3507,-17.3672,106.5402,-13.3395
-3968.7500,-89.7432,-109.7955,-241.1967,-96.5514,-56.2842,88.3020,273.9181,290.6926,198.0822,216.9375,-172.6580,-85.9423,-71.5352,3.5243,0.4214,34.5594,-243.1981,-96.0881,61.0420,-92.4689
-3960.9375,-37.8321,-23.0793,-46.8413,-81.1676,-22.3533,-11.0838,-47.7347,78.8916,134.5954,78.7726,59.1329,-74.3742,15.8693,-58.5928,10.7424,8.1173,90.7839,-44.9849,111.3440,29.2008
-3953.1250,-69.7839,-55.2200,-115.3209,27.3611,-92.8121,28.6768,137.7414,228.2388,248.2585,302.7650,-155.9299,38.3403,-82.2136,54.4389,15.2151,-24.1768,-430.0789,-320.7319,78.8097,34.0364
-3945.3125,26.5047,111.8782,-123.5779,53.1341,-43.0391,19.6960,18.5020,34.8665,92.1916,-36.9608,19.2188,29.3057,-28.7544,-27.2724,-66.0560,-70.2220,126.2528,-12.2482,-34.4757,26.1191
-3937.5000,14.9858,63.1825,7.3548,110.1039,-43.5246,-69.0781,-72.5626,53.6845,39.3196,128.4929,4.5769,86.4661,-28.1798,-42.7943,-44.1267,-87.0703,-61.1654,-128.5264,22.4438,84.4083
-3929.6875,22.2008,71.2308,-160.9702,82.8270,-36.7211,-56.0925,270.1240,139.2731,163.2032,142.7336,-127.3459,64.3901,-39.5227,-102.5504,43.5556,-146.1687,-191.8888,-189.0808,-41.8788,-47.5472
-3921.8750,63.9097,77.7830,26.1807,19.0526,62.0271,-124.5937,16.3313,-41.6331,19.5882,-74.5354,98.2148,-5.1881,75.1664,-207.8029,47.7363,-178.7717,204.8934,99.8780,-33.7056,30.9902
-3914.0625,-36.9350,-59.2195,-43.1981,21.7258,11.9601,-11.6492,237.9686,105.8985,133.4107,184.6413,-154.7740,33.6834,-16.6813,-57.6079,88.3634,-139.9311,-422.8517,-141.7017,2.9271,34.9876
-3906.2500,-77.3449,5.2120,-119.1449,-19.1533,52.2809,94.7569,232.0876,27.9117,55.7025,-76.6965,-84.3551,-42.9909,4.4385,-25.9491,11.4448,-143.6425,-39.2064,135.1352,-71.9844,-4.5703
-3898.4375,-144.2580,-25.8496,27.4060,20.4622,44.6789,94.6635,11.6965,27.4146,-90.5130,69.4436,-45.4319,-5.1762,-8.6741,48.2005,-59.9767,-69.8594,-138.0056,140.4945,35.6110,70.3747
-3890.6250,-127.1282,-9.8768,-167.9882,36.1227,-27.9612,191.6201,253.3567,194.9840,5.3252,164.6616,-205.4748,16.6928,-90.6419,72.4059,-74.3480,-48.0321,-400.7961,-17.1261,52.2707,-52.6167
-3882.8125,15.2500,28.3433,-56.1561,-32.9704,20.1489,156.8330,-3.7054,-24.1846,-66.5803,-53.8708,54.7107,-55.1891,-1.2972,-36.1382,-108.4744,-45.9583,130.6526,232.5004,89.1820,-49.3613
-3875.0000,-24.8219,-115.8878,-59.7621,-37.5155,-52.1359,152.5915,64.7573,190.1827,40.0522,235.1396,-96.5438,-22.5250,-33.4125,106.8614,35.9486,-13.3328,-328.3213,-122.3099,84.6500,-52.5468
-3867.1875,-9.8046,-33.0312,-153.2824,-23.9545,-26.2589,168.4581,152.3462,94.6837,55.8045,29.2904,-42.7380,-80.7521,2.6197,49.9748,51.4718,-34.6009,-31.2719,-71.0629,-6.7823,-72.6341
-3859.3750,27.7593,-29.6142,63.7327,-20.8444,-8.8220,53.8790,-145.5191,-20.2622,-20.8925,-11.0184,64.6125,-9.4318,25.8979,45.6330,11.5413,-111.3200,114.3576,-66.2495,30.3318,71.8305
-3851.5625,-32.8919,14.5938,-104.4489,94.0639,-92.2759,69.0949,87.4024,139.6095,66.2177,149.5004,-139.2558,114.7000,-68.4212,134.0958,27.4172,-96.2376,-330.2469,-266.6616,-30.7401,-22.8890
-3843.7500,6.2459,194.6010,-63.8607,167.7789,-59.9160,73.1188,-166.8448,-40.6992,-186.8597,-141.1745,48.6390,118.6373,3.1058,65.3649,-4.9030,-56.3521,202.9142,19.7117,-132.0119,-17.8107
-3835.9375,-55.7198,96.5112,15.6352,209.3858,-88.7494,4.0347,-162.2113,35.8765,-145.0482,83.0409,-19.5577,160.4680,-32.6882,107.5242,0.6724,-14.5715,-209.9851,-217.9926,-20.3726,25.1765
-3828.1250,-60.3495,92.7491,-165.5292,100.3391,-61.0190,6.3052,130.8052,35.8385,3.1306,-26.3517,-90.4449,51.6512,-36.2654,72.0442,39.6061,-13.4485,-140.6060,-150.3872,-23.3673,-82.4880
-3820.3125,-89.6324,97.3324,-17.3620,69.6348,-26.6800,-30.0618,-88.8144,-36.8437,-69.3387,-25.4026,22.0076,52.1713,13.5975,36.9135,41.8866,-12.9755,41.1470,-39.4136,-20.0075,-6.8121
-3812.5000,-128.0726,23.7536,-201.3335,65.7763,-130.3416,42.4286,128.4020,216.3366,39.0387,229.4143,-235.7014,123.5389,-99.2523,145.6344,77.0123,22.3505,-487.2637,-321.5982,12.2177,-44.2781
-3804.6875,-27.2249,90.4649,-204.0370,27.2162,-73.1296,39.2258,12.9581,-9.1474,-75.2605,-68.4438,-18.1540,47.2147,-42.4041,69.6563,-35.5598,18.9867,109.5688,-42.5114,8.7461,-46.4484
-3796.8750,-97.6867,-52.1160,-61.0435,-10.6465,-60.7455,35.7205,-27.8012,60.0603,-41.8651,148.3869,-57.9056,43.5897,-65.9437,103.3659,-75.4352,15.3239,-136.8641,-113.7025,111.9806,-11.9093
-3789.0625,-105.0662,-58.6082,-207.9612,-17.4048,-79.5896,146.3156,191.5506,206.4019,31.6440,184.3600,-204.5957,6.0752,-126.2876,103.1858,-111.2067,14.7657,-211.2673,-48.8279,70.3279,-158.2651
-3781.2500,-81.5971,-0.2496,-0.0462,-29.3149,-25.2649,132.7634,-118.2223,80.5990,-128.9931,59.1695,-32.4533,-43.5964,-86.0076,52.8563,-234.1306,2.0525,166.1875,222.9038,128.5283,-133.7798
-3773.4375,-145.1821,-98.9536,-63.1629,-23.2828,-81.6334,179.1560,74.9458,310.7403,-8.6833,362.9312,-243.3625,2.6754,-160.7031,136.4700,-187.1023,-25.7191,-353.3986,-15.4213,205.6978,-196.3375
-3765.6250,-54.1737,-43.0732,-74.7024,-37.6539,-5.7740,167.1610,61.7614,149.5166,-20.7557,56.3202,-70.7144,-46.4459,-50.1487,-22.3059,-125.4740,-74.8936,162.5505,217.8215,120.4725,-244.3060
-3757.8125,28.2382,-65.7873,154.1572,9.3745,3.3008,63.5691,-153.0305,81.6842,-50.4426,99.0885,47.3399,-2.1733,1.8945,-51.6883,-80.4591,-104.6761,105.9448,55.4939,132.6515,-125.8793
-3750.0000,123.1401,-7.0130,71.5210,32.9075,-21.1813,17.4813,93.6944,145.3751,13.3725,126.3874,-35.1333,61.6098,-44.4440,-60.5645,-88.9486,-113.9655,-79.2184,-165.3659,51.3511,-170.9526
-3742.1875,213.8331,118.5579,272.6597,53.2426,52.2928,-75.7967,-183.7419,-96.1161,-79.9971,-150.5081,240.1557,42.1938,52.7963,-153.6446,-145.6374,-169.4565,365.4019,31.5648,35.8574,-79.2401
-3734.3750,106.7174,47.3257,197.0111,86.7762,-29.7837,-78.8776,-41.9906,83.5939,64.8282,102.7968,-19.3592,111.9738,-46.4995,-9.5334,-74.1342,-99.7495,-266.7574,-249.2994,69.5780,-44.3234
-3726.5625,34.4394,114.9330,-60.8050,84.1624,-25.5982,-5.0989,103.6420,45.1952,100.5227,-46.0081,-56.0700,74.6123,-50.7852,-46.5571,-73.7805,-101.1864,-56.1429,-4.3568,-2.8481,-80.5637
-3718.7500,-74.3396,40.0451,40.8653,44.0516,-16.6881,22.1894,-89.2285,71.2953,54.7132,54.6651,-28.2843,28.7478,-48.6817,-19.0889,-117.9343,-72.1205,-58.9973,63.1132,98.2258,21.6927
-3710.9375,-131.1804,-50.9029,-159.5088,-11.1061,-43.4665,115.4293,295.8475,274.3596,184.8610,221.3126,-264.5714,-25.1582,-116.4960,38.3405,-62.1342,-54.1060,-498.9411,-97.4914,112.2643,-68.0968
-3703.1250,-113.1824,-33.0066,-68.0650,-99.4062,48.8806,60.5337,128.8142,70.3012,55.8753,-19.1798,-26.0498,-117.2082,-9.1272,-54.3755,-80.4828,-36.2414,12.9367,203.7332,95.1532,-49.0505
-3695.3125,-134.9926,-160.9092,-18.4158,-121.5102,6.2998,35.8358,176.9663,191.4416,141.0814,213.5209,-159.3321,-105.0612,-45.9031,-4.8920,6.3605,12.8258,-464.9510,-64.8340,178.2604,-35.8008
-3687.5000,-73.4623,-98.4770,-131.4316,-95.2583,13.4575,32.4961,320.5032,150.9689,174.6514,99.6061,-163.3080,-108.5526,-57.3756,-81.0486,-33.4476,9.2524,-260.5639,34.8995,99.7234,-148.2066
-3679.6875,11.9274,-48.1876,103.3953,-81.1541,48.5381,-26.9932,-35.0977,16.3404,5.0699,39.5178,71.5689,-95.1979,14.0628,-104.3607,-92.4150,-50.4729,73.6981,156.4928,185.0273,-96.7719
-3671.8750,-17.9363,-113.1575,3.9897,-75.2993,-11.0528,94.2652,195.0455,246.4729,52.2303,233.1995,-137.8153,-48.0879,-71.3302,17.0806,-81.6288,-3.4488,-375.3224,-48.1932,155.0921,-195.5802
-3664.0625,3.5446,-57.7815,26.9038,-125.0923,49.1256,115.8815,32.5817,46.9882,-73.2536,-39.7464,32.1148,-135.6202,-6.8476,-34.1184,-131.4908,55.9270,208.9455,290.4388,105.5084,-209.0487
-3656.2500,3.5739,-127.8484,135.3678,-89.3367,16.2740,77.0392,-7.3435,117.0509,-112.1980,141.8484,-43.4026,-64.6030,-37.6226,74.2262,-96.8131,89.8502,-105.2018,10.6369,141.4869,-136.9665
-3648.4375,40.8439,-20.6807,-43.9221,17.6748,-11.2682,118.4420,180.0084,157.3998,-70.8723,35.7302,-111.7100,-23.3248,-62.4534,42.8335,-91.8845,58.0206,-66.1686,-20.9664,37.7313,-204.6379
-3640.6250,42.3107,51.6960,135.9669,18.8943,13.2278,77.0498,-192.4213,4.9602,-184.3471,-80.1951,67.1601,-27.8447,3.6597,38.6327,-95.7642,53.4023,289.0747,122.6327,4.1749,-61.1184
-3632.8125,-10.2288,-36.9323,43.8662,36.1114,-50.0623,58.6546,44.1360,168.5318,-57.8227,194.8913,-98.9763,26.6372,-64.6891,129.4272,-40.6449,143.7877,-289.6934,-245.7764,21.6366,-42.5928
-3625.0000,59.3211,33.5262,43.8369,-35.5668,7.1526,-15.6277,-31.1534,20.2386,-95.1679,-63.8945,84.9421,-47.7749,28.0737,19.3291,-3.4224,143.2692,133.5630,-34.1207,-49.7914,-41.9805
-3617.1875,24.5607,-36.3097,115.5018,-34.5480,-10.2873,-90.2095,-106.7400,53.6448,-59.8140,118.0039,46.5577,-13.4892,40.3902,16.9220,105.4950,141.4464,-110.4487,-172.7481,21.4907,30.3295
-3609.3750,3.9382,-22.0065,-159.6868,-20.3722,-54.5284,-35.6385,204.8401,182.2338,68.6988,173.0891,-118.7123,5.9580,-8.4119,-37.3225,161.5632,122.7791,-305.3805,-228.2698,-34.0650,-60.2110
-3601.5625,50.3606,23.3503,-4.8484,-45.1401,21.9173,-100.0113,-45.5016,-31.1139,-33.7297,-75.7818,111.0438,-59.5410,63.4355,-175.5162,59.6740,131.1633,164.7259,30.2540,11.4297,22.2860
-3593.7500,17.7800,-43.2949,-1.0008,28.0930,-33.8693,-133.3883,104.1476,118.5371,80.8361,110.3419,-69.2031,53.9611,-33.1420,-61.7157,26.7787,134.5426,-322.1588,-281.2171,50.9339,26.7872
-3585.9375,76.2972,120.1440,-85.0734,51.4317,-16.3629,-143.6605,92.9512,-40.6806,33.5169,-157.4074,30.6059,43.5697,1.3957,-72.8081,16.9825,123.0261,52.9844,-82.6309,-67.4594,-19.6218
-3578.1250,67.8641,76.6447,123.8928,77.8240,4.7169,-192.8882,-141.1935,-126.8471,-15.7592,-97.1213,91.4650,67.2245,22.1585,-83.8654,4.2327,110.5654,47.2145,-52.9839,-38.8024,79.0141
-3570.3125,36.0701,9.7854,-52.4902,80.8703,-19.3040,-112.4678,159.3174,-10.3348,65.6193,-17.1494,-48.0525,75.5412,-28.0320,-40.2644,13.1373,117.7605,-264.9568,-120.7316,-107.4837,-22.6974
-3562.5000,83.5732,127.2240,71.3976,58.2214,59.6209,-135.7402,-85.8378,-218.4928,-141.6887,-297.8676,185.7009,51.1594,63.2193,-136.3617,-47.6606,57.2589,276.1429,209.8021,-128.8642,-9.1209
-3554.6875,22.7268,66.3067,43.9477,137.2192,-26.7111,-90.3647,-41.3566,-26.9992,-96.3578,4.0608,11.1131,170.4240,-10.0887,-54.8203,-0.8238,66.4055,-275.0847,-62.0072,-85.5760,1.1079
-3546.8750,4.3249,118.8231,-118.0611,83.6650,-27.1761,-31.5356,90.6208,-5.0176,-37.5553,-84.5272,-40.0642,45.1444,-28.5623,-68.8191,-14.5391,125.0061,-45.9426,61.5821,-103.8253,-86.2251
-3539.0625,-0.1761,44.2483,20.8242,9.0151,-13.5938,-40.8041,-138.4838,-51.1417,-82.8555,-56.2375,61.6531,-0.2382,19.0401,-76.9287,13.6384,152.5055,127.1221,24.0892,-2.1782,16.3290
-3531.2500,-21.3280,-12.9843,-110.9260,58.7212,-65.9798,10.2765,131.7614,109.1023,41.1922,104.4232,-144.2913,50.7387,-40.4339,10.3133,102.1635,166.3548,-313.5057,-277.0824,-92.1724,31.2361
-3523.4375,-55.2841,127.9791,-80.5111,59.6300,-20.7727,5.5652,-131.7540,-44.4151,-110.5418,-158.6902,-40.0734,45.9145,15.6870,-31.2422,95.8908,87.4127,180.0090,40.9210,-162.9652,173.3318
-3515.6250,-203.4000,16.7905,-56.2487,52.3821,-33.2092,-7.2987,-72.4291,52.9224,-50.4296,85.0386,-200.0067,68.9325,-23.4832,66.0442,158.4640,74.3268,-247.6001,-176.2116,-63.8862,308.2786
-3507.8125,-189.8747,-40.7718,-222.3456,-40.2183,23.0150,10.4894,238.5872,32.9466,41.3490,-43.5472,-255.3249,13.6052,-15.0816,10.9928,175.6955,18.8979,-162.6403,-56.7463,-50.1425,216.8697
-3500.0000,-151.6415,-73.6296,35.2429,-143.1152,117.9929,-63.0217,18.3324,-151.3249,4.8233,-154.4532,-71.9480,-60.0227,77.7245,-99.3633,176.6185,-54.8329,193.0297,52.4208,58.2922,291.1497
-3492.1875,-131.0088,-193.0884,-49.7506,-122.6065,51.4079,-75.1347,261.4689,55.8090,211.6865,90.0485,-231.1779,-72.2422,18.6445,-74.3189,237.9303,-67.1644,-346.9176,-313.0269,115.1380,242.8352
-3484.3750,-16.1318,-79.3031,-4.5152,-148.8439,95.4932,-139.9890,123.9000,-119.7755,147.8188,-195.1771,-38.1961,-137.2077,74.4009,-139.0210,173.4880,-58.2392,155.3255,-92.2519,18.2358,252.7562
-3476.5625,-73.2572,-100.5131,116.7251,-100.0814,50.5524,-165.8510,-50.6677,-73.3683,48.9537,35.5758,-28.2068,-16.1783,35.2196,-17.7441,112.0402,-11.3126,-110.3949,-218.4641,32.3460,337.6729
-3468.7500,-96.1376,-18.4858,-121.7899,16.9318,-12.0910,-37.4661,114.0440,55.3161,30.3577,16.6083,-156.9930,39.1126,-23.5178,0.7937,93.8459,-30.1372,-167.9390,-170.4754,-96.2768,209.8325
-3460.9375,18.7826,26.3491,33.4650,-43.2449,39.1680,-65.2744,-208.4086,-158.1854,-108.4322,-195.5698,145.0016,-25.7943,85.7377,-100.8670,66.4456,-21.1607,300.3077,51.3140,-51.1032,255.7754
-3453.1250,-1.8526,-135.3605,-23.8213,-99.9641,-22.4477,-48.6334,-9.4221,41.7655,55.2184,77.7029,-58.5530,-10.2447,6.2429,-47.0797,119.4896,68.2592,-245.9956,-249.4483,-1.4712,236.1711
-3445.3125,-14.4421,-42.0285,-107.0740,-111.6174,16.4774,-59.9256,16.6521,-79.1988,80.9267,-153.9527,-33.0930,-57.6332,25.3452,-131.2311,108.5797,129.7321,93.6850,19.8017,-13.7912,189.6019
-3437.5000,-67.2695,-59.9387,54.4316,-94.5179,33.4179,-118.4693,-116.5356,-102.4196,59.3666,-28.8780,-17.8663,-5.2739,26.8454,-116.6393,88.4014,71.9632,-26.8409,-31.1825,109.6342,278.7727
-3429.6875,-43.9455,-71.7090,-64.9004,-36.2654,3.9860,-89.8647,167.4376,35.5413,159.9568,35.3805,-211.5076,-14.7555,-49.9805,-51.8931,79.3659,63.3601,-284.2806,-184.0639,63.2195,197.0910
-3421.8750,65.8211,-32.0187,122.1901,-102.5540,45.5944,-123.8054,-160.1024,-146.0209,-19.9920,-145.9050,-97.7290,-47.7788,-35.4730,-47.7012,-27.2201,29.2142,213.7013,103.4891,67.2520,237.8438
-3414.0625,57.9320,-110.9698,114.6352,-75.4822,-31.5975,-57.4021,-57.3013,67.7631,-26.5948,177.1503,-399.5946,18.5568,-154.9640,91.8328,3.5325,22.4148,-320.9526,-115.6031,59.6478,194.9475
-3406.2500,12.7900,-50.1779,-34.1887,-49.6507,-6.1917,13.7563,87.2946,-9.6724,7.5713,-9.0153,-364.7430,-21.3489,-126.4041,16.1243,1.0347,-17.6349,-12.9285,52.0102,-20.2016,46.7898
-3398.4375,-28.6443,-55.6822,105.6832,-55.1251,21.3516,-103.3851,-67.4003,-53.4130,-0.5717,19.4929,-189.1817,7.4377,-61.6182,-27.8893,-6.7719,-97.9856,87.8346,10.3417,79.6530,76.3199
-3390.6250,-80.1761,-143.2958,-52.5320,-1.6961,-22.4815,-78.6323,287.8153,117.7615,173.1891,192.9187,-383.7278,34.1295,-133.4712,34.9973,20.3220,-73.4358,-278.5463,-250.4510,63.4131,-44.2529
-3382.8125,-29.3478,-22.5537,-0.4142,13.0972,-0.9567,-136.5272,8.4232,-88.6942,77.3044,-87.3066,-148.9341,-24.8187,-92.7504,13.2309,-112.2407,-21.5426,335.3823,46.0892,8.5135,-28.4977
-3375.0000,-29.0569,-92.3536,36.1695,14.3462,-54.2267,-99.9798,7.4668,58.2899,77.8562,169.9025,-222.6670,48.6792,-139.5978,86.8974,-111.3662,14.7915,-85.2065,-162.9053,45.0709,8.6986
-3367.1875,-54.4178,-47.8100,-98.9036,-12.0454,-19.1153,-14.0821,129.8966,33.6608,52.7759,-1.5068,-210.0798,-12.4611,-98.9165,61.9243,-62.1465,27.4823,101.4799,22.4027,-51.0186,-51.7714
-3359.3750,-85.0256,-44.4992,121.7562,-77.6800,56.6158,-51.4290,-127.9095,-114.2156,-57.5665,-112.1842,-64.7397,-13.8498,-24.4760,61.6972,-62.1844,-11.0687,387.9395,167.4699,22.6311,58.4932
-3351.5625,-66.8794,-129.4352,-2.8162,-59.5532,6.7275,44.9674,151.0246,17.6641,38.8322,56.8932,-225.6463,9.5243,-77.1644,121.2196,-2.4761,12.1303,-84.8712,-127.7363,43.0389,8.5077
-3343.7500,92.9292,-41.7208,-18.7578,-75.7644,54.2330,-7.9757,24.6469,-144.7793,-51.1070,-216.3655,52.0792,-80.4449,15.8784,32.3972,-55.1320,-4.0152,392.9150,172.6699,-7.9062,-6.8460
-3335.9375,49.6424,-155.0992,43.2149,-83.0715,2.7521,-56.0174,-24.8486,-11.3287,47.8408,65.2529,2.7211,-54.5205,-29.6796,57.4744,-65.8958,94.7434,-37.3555,-12.0064,89.0486,55.6962
-3328.1250,-32.6057,-97.4361,-184.7601,-61.3181,-39.4841,8.9988,187.7292,90.1995,149.8480,56.9518,-152.6138,-26.5342,-59.2599,85.6119,36.3931,122.5590,-118.6447,-58.6753,42.0596,-25.7168
-3320.3125,-29.9517,-23.8607,-38.8497,-57.6557,-3.3148,-28.0818,-105.7670,-92.3692,76.7514,-89.4629,-6.0529,-26.6451,15.4508,12.6431,73.5719,86.2727,272.9811,86.5635,80.9637,48.7520
-3312.5000,-157.3888,-82.3845,-133.0163,24.9113,-59.6499,24.7274,165.6302,104.9633,202.5495,145.0225,-284.5778,99.1455,-91.2617,101.5584,88.6352,64.8867,-241.4964,-182.3051,57.7785,-8.8795
-3304.6875,-177.8753,39.0376,-151.2529,75.4355,-12.1182,43.4871,74.0278,-22.7231,74.3184,-93.5234,-156.1814,81.8904,-38.4988,11.4264,34.6512,10.4580,267.9081,115.7341,-66.4585,-62.5738
-3296.8750,-41.6624,-0.8307,63.2116,105.6579,-35.1458,0.9374,-152.8805,-29.7194,-42.2211,47.6084,21.9316,75.3299,-5.9934,41.9793,-7.6280,40.7307,158.0516,-65.5031,-35.9989,-31.5674
-3289.0625,85.9513,-49.3028,-15.9210,128.2872,-57.8858,31.7758,61.6221,74.7028,-11.3520,78.1655,15.4361,70.1846,-17.7704,72.9340,-13.5045,34.4063,-29.4646,-182.3818,-119.1305,-184.1626
-3281.2500,131.2299,31.8855,213.5758,103.5764,30.7374,3.2632,-225.1920,-101.2151,-149.8365,-171.6411,244.5939,41.6927,85.7694,-29.4677,-41.7443,-31.2695,403.6682,74.3840,-108.6156,-138.1254
-3273.4375,121.8225,22.3793,167.3963,129.1667,-46.0183,31.0398,-86.7173,73.1552,-85.0345,113.8399,88.0770,142.4981,-4.7756,109.4182,-50.6956,-40.6449,-167.8784,-181.5529,-117.7871,-146.7883
-3265.6250,221.2145,156.6640,18.0111,123.5617,-31.2708,28.6216,-16.3995,-77.6435,-88.4187,-146.8522,195.3364,103.1091,7.6937,69.1075,-126.8465,-43.2195,178.3031,59.2704,-194.1563,-222.6664
-3257.8125,126.5101,96.8585,209.5277,98.8580,9.1807,-0.8952,-156.1811,-106.5459,-79.9120,-65.6678,202.5113,111.6141,14.2071,77.6888,-155.1043,-71.8932,119.4169,71.0140,-42.6304,-140.6558
-3250.0000,-23.0924,52.1427,20.1562,125.2575,-37.0915,66.6912,132.1393,70.6764,134.6985,74.6490,-98.2228,142.2223,-52.6398,108.3791,-13.2712,-41.4565,-276.4196,-79.1757,19.0073,-219.5470
-3242.1875,42.2034,117.3314,11.6582,49.5676,13.2985,22.1892,-96.6031,-121.1761,53.2251,-191.1321,150.9268,23.7304,73.0140,-10.0326,52.4607,-50.1206,282.6194,198.5198,49.5380,-153.5549
-3234.3750,29.0470,-35.9182,-40.2787,1.4304,-8.5441,43.2280,71.1937,-26.4897,111.2933,13.6218,24.6444,7.7908,50.8587,48.0946,147.7407,-28.2327,-186.7643,-60.2235,142.6221,-95.0115
-3226.5625,-8.9641,-4.0234,-225.0798,-37.5454,8.0483,80.4171,255.1777,-27.6282,110.5279,-133.4489,-12.5102,-65.9869,24.6241,48.3857,74.1741,7.8127,91.9308,77.1400,68.8569,-168.3304
-3218.7500,-14.1617,-9.3158,-12.0914,-6.7178,21.7589,35.4062,-47.0286,-108.9730,-43.4444,-104.7447,127.1556,-35.9686,37.0863,40.4671,-43.6007,36.6613,264.4582,143.3194,99.8881,-101.8659
-3210.9375,-69.8535,-65.1107,-175.5796,43.6162,-59.5896,91.8864,193.2617,131.1859,86.0824,98.4713,-111.6702,20.5559,-63.4201,134.0454,-23.8851,57.0120,-177.5450,-53.0229,44.4299,-191.9037
-3203.1250,-94.0487,16.6012,-127.5882,19.4624,11.6407,139.8677,20.0977,-79.1336,-12.8847,-184.8056,9.9884,-79.4106,0.3038,72.1232,-49.6764,67.8676,361.9117,310.1154,20.4654,-180.4605
-3195.3125,-150.1866,-110.6191,-42.5334,-72.6408,9.7697,151.8913,68.9697,43.5862,36.1794,84.9458,-52.2769,-103.3310,-9.2658,121.2413,-0.4297,79.7767,-46.5363,113.3210,104.5514,-130.9721
-3187.5000,-88.7190,-84.2494,-229.8781,-46.1382,-25.3589,185.5208,248.4645,112.9317,105.8537,43.3243,-92.9517,-107.6495,-33.7375,116.9636,-3.5813,38.2875,-54.4480,140.0830,-9.7604,-244.8940
-3179.6875,6.9618,46.3292,-24.0337,-21.4370,-23.5657,133.3569,-133.8254,-12.5196,-92.2768,-45.1125,112.5876,-48.7735,3.3249,65.8787,-91.5385,61.0006,252.8584,236.0571,-54.8850,-148.6335
-3171.8750,-88.1531,-12.8923,-84.9711,60.4685,-80.6552,146.3933,99.0743,184.2332,67.7817,188.6602,-95.6564,1.3023,-58.8275,188.9921,-5.2996,73.9135,-263.6440,-139.7798,-43.8056,-172.1736
-3164.0625,-4.0657,70.0877,-32.7268,3.5836,11.9696,124.6405,41.2120,15.2161,9.0427,-91.3511,103.2842,-94.4121,50.3183,20.3141,10.1379,15.0326,243.0020,119.5515,-100.5355,-193.5313
-3156.2500,74.9353,-27.0155,230.4259,11.6045,39.4479,19.7821,-63.7672,20.0813,-22.8137,61.5100,145.1594,-51.2290,56.4283,25.5245,-21.5384,-16.9429,41.6005,-47.2009,-56.3676,-113.9956
-3148.4375,93.5853,62.5296,105.2373,66.2849,12.9574,42.5724,141.9173,79.6139,-0.0064,47.0481,57.6736,7.6094,0.3509,48.3891,-72.5704,-31.2627,-80.2089,-133.3419,-142.5406,-164.8161
-3140.6250,113.5927,152.4353,230.3823,121.3187,63.3227,-53.2910,-138.0174,-90.4962,-132.8415,-123.0777,255.5442,-14.2029,79.6127,-10.4060,-94.2526,-53.2328,292.3377,61.8739,-123.3721,-39.3067
-3132.8125,39.4118,43.1448,115.3452,117.1523,-18.8368,-21.3664,41.8356,125.1884,10.1151,166.5935,-6.7593,54.7796,6.4411,94.5847,48.8647,-21.4078,-308.3048,-292.1026,-20.3970,-6.9984
-3125.0000,109.2834,112.8990,5.3400,82.0411,26.1304,-21.3896,41.7789,-22.0485,-63.8646,-91.6584,176.9735,-19.1832,75.2056,-52.3708,12.0303,15.4688,113.0413,-47.0637,-91.3746,-6.6542
-3117.1875,149.3638,82.8686,188.5421,87.1339,30.4897,-94.2200,-179.0818,-58.0976,-99.6556,-17.7392,286.9378,-18.9505,96.4152,-51.1435,-24.6152,14.5492,12.6363,-76.8050,-16.1598,103.8823
-3109.3750,154.9526,52.3387,15.2626,56.7300,-8.2898,25.4375,87.5601,134.3632,-16.9393,101.7004,75.4100,-9.2116,6.5826,-5.4151,-51.7649,-11.8636,-262.3124,-107.0898,-10.4385,3.9179
-3101.5625,120.1983,88.4729,124.6162,-13.0145,80.4477,24.7439,-132.1191,-13.5167,-126.5623,-82.2132,185.5323,-118.8175,70.7873,-79.0400,-88.2653,-85.6239,231.3772,281.2638,95.9231,40.5867
-3093.7500,4.4981,-62.3355,114.0335,-22.7066,58.2682,87.0989,39.2298,158.6465,7.8557,162.9118,-47.2684,-57.3797,-5.0258,-17.6224,-62.7205,-133.3360,-305.8569,95.6863,191.3440,66.3041
-3085.9375,29.8494,32.8962,-77.5142,2.6512,82.0005,153.5122,179.6628,41.8901,1.3363,-64.8833,19.9679,-101.8889,27.4121,-61.1408,-70.1205,-140.9900,-70.1096,332.1237,75.8146,-13.9433
-3078.1250,19.8622,22.7929,19.5831,-8.3386,80.4847,139.5790,-55.2487,-9.2303,-85.5412,-5.0544,152.8827,-113.7581,91.2785,-74.0235,-9.8859,-116.9950,-9.6669,356.2343,135.9262,46.4470
-3070.3125,-22.8198,-90.0093,-166.9967,-15.0216,14.4051,174.9420,274.1341,208.9551,95.8776,213.0840,-69.8923,-117.3215,16.1329,-39.6046,61.6376,-46.7007,-401.9475,67.6251,129.3409,-65.8627
-3062.5000,-16.3978,-48.7003,-14.4927,-114.5952,116.0215,105.4124,94.6530,30.2533,27.3998,-76.6762,118.4308,-221.7797,104.9536,-145.0845,30.2532,-5.3035,166.8471,356.1021,64.8425,-24.0921
-3054.6875,-64.8145,-132.2227,41.1792,-57.0134,48.2873,88.0278,77.2952,158.6825,46.0515,199.6946,-47.0596,-129.0909,13.0933,-16.4256,12.0143,50.2419,-303.1622,96.7491,52.4957,68.8235
-3046.8750,-67.6760,-30.1970,-142.6022,-24.8711,18.1252,87.1941,186.5123,157.6909,45.2652,88.6491,-85.0039,-93.8462,-9.7507,-17.2144,11.3227,49.3371,-199.6922,128.9045,-56.2981,31.2784
-3039.0625,42.0721,44.4421,76.2097,-19.1286,46.4596,-60.0459,-144.6603,10.2941,-64.9235,14.1798,172.6720,-57.0061,94.1825,-127.4197,47.2214,-23.9593,85.4076,97.6747,18.5009,141.3232
-3031.2500,76.6790,-27.0673,-33.1017,13.4627,-19.1353,-59.4519,113.0097,157.7404,81.7375,197.5658,62.2207,15.6810,39.6918,-52.7855,84.9744,-24.4068,-406.6464,-254.7206,-17.8436,105.2219
-3023.4375,62.1923,99.3222,-11.5266,33.9576,34.1049,-110.9599,-48.3788,-76.8950,30.3123,-147.1363,305.6673,38.2675,122.6147,-104.2560,33.6303,-38.9532,106.1636,46.7623,-102.2951,91.0038
-3015.6250,-23.1273,48.8754,9.2152,90.6021,-18.7859,-90.3286,-100.6427,-56.3938,14.0152,19.2916,215.3042,132.9946,76.8273,25.4105,54.4267,-18.3493,-188.8194,-107.5784,-45.6001,111.9298
-3007.8125,24.2041,167.0795,-228.3892,137.9093,-93.9044,0.9558,63.7472,-2.2189,-3.6283,-35.6014,123.5874,188.3800,14.4699,80.7394,36.8660,-0.0887,-212.2079,-131.3032,-174.2527,-16.5015
-3000.0000,165.1931,237.9489,25.6368,137.8749,-18.2678,-39.0986,-305.1979,-225.3934,-299.6259,-257.8577,452.5363,148.4159,117.8267,4.7117,-76.0555,-40.1792,281.0757,80.6356,-139.2645,54.6983
-2992.1875,296.1922,121.8286,54.6835,127.8403,-56.5481,-10.1556,-130.1575,-87.5776,-197.6337,-84.1179,370.5146,177.4500,67.9991,33.6789,-84.9862,-48.2732,-220.6308,-210.4241,-114.2720,9.8965
-2984.3750,364.6442,155.1581,55.1712,55.2593,30.3234,-45.7562,-129.6302,-232.2892,-161.1772,-339.9076,518.9346,67.9332,152.9718,-149.9002,-83.4674,-120.9118,270.0601,103.9385,-116.8320,-62.4713
-2976.5625,274.8067,100.1982,215.3726,71.3741,40.1270,-70.6588,-226.4171,-183.3179,-147.0380,-143.0275,457.0886,81.1072,139.0882,-135.7914,-71.2608,-107.8454,109.5060,14.0329,-65.6947,23.8562
-2968.7500,259.9771,155.2356,-17.4148,126.4935,-44.4792,-8.5658,-18.2014,-12.3392,-86.8914,-46.1260,298.2509,142.2847,41.1830,-75.6742,-120.0538,-83.7806,-117.0913,-71.9022,-151.5548,-61.8195
-2960.9375,432.9518,223.0848,162.5751,88.4210,12.4211,-123.6646,-352.1555,-236.5599,-273.9402,-270.4369,625.2222,101.2586,141.8767,-188.7628,-196.0451,-87.9204,409.1162,171.9702,-118.6232,-28.7170
-2953.1250,387.9327,142.9442,190.5860,149.3549,-23.1856,-131.7692,-178.1284,-135.7945,-136.0026,-58.7588,433.2238,203.2305,93.9084,-124.8560,-95.0451,-133.0713,-92.6467,-155.1400,-57.6906,-73.6192
-2945.3125,310.8119,346.7064,114.4912,212.1986,15.8196,-133.9679,-70.1657,-249.1039,-102.1588,-319.1527,394.1130,201.1117,110.6211,-201.0458,-61.1494,-172.3218,216.4347,13.6151,-135.8646,-186.6376
-2937.5000,294.0994,294.8926,315.7931,196.4473,29.9422,-227.7734,-236.8073,-341.0320,-83.9256,-301.1816,448.4311,218.3896,120.5680,-220.8528,-79.8632,-155.1730,235.9744,-108.2020,-11.6461,-132.2656
-2929.6875,242.1396,172.8287,265.8627,214.4493,45.3933,-240.8422,155.2939,-208.2084,86.0563,-242.4438,213.5141,205.4195,56.5317,-196.9060,-56.8194,-168.2696,-97.7604,-370.2878,-27.6796,-219.1438
-2921.8750,347.1873,241.7769,371.9130,142.4589,112.9821,-281.9069,-106.5831,-396.3732,-65.9573,-466.7066,466.6021,126.4531,176.3835,-274.9614,-24.7774,-210.3596,429.4923,-91.3836,-99.7288,-150.0396
-2914.0625,347.7004,137.1955,187.4326,143.9270,-17.7177,-209.5291,-70.0429,-140.1116,7.4602,-63.5355,283.1805,162.9365,90.4965,-128.5767,48.7009,-211.0010,-167.7606,-265.0088,-28.3357,-113.4835
-2906.2500,222.2664,117.6684,-87.0025,88.4562,-37.2921,-79.0942,96.5674,-46.7742,27.9313,-118.2848,155.8052,109.4805,46.2279,-145.1333,32.2264,-117.5908,-11.0280,-75.6201,-47.8978,-203.8841
-2898.4375,-9.8615,25.4599,106.8529,32.2880,38.5981,-69.3528,-77.5262,-74.1467,-73.3065,-71.7554,128.7490,45.3189,52.0098,-136.3934,-31.9514,-107.8716,179.0433,44.0909,35.8341,-83.9957
-2890.6250,-244.7906,-138.5518,8.9339,44.3193,21.4686,16.5841,192.5687,195.6829,-24.3487,197.9880,-227.0880,58.3517,-58.1203,-49.4526,-19.9283,-57.9472,-265.6976,-85.0192,47.7797,-107.9063
-2882.8125,-97.2612,-27.1146,15.4588,-20.2016,70.3162,59.9769,-21.8486,-19.0207,-201.9350,-89.8130,0.5276,-45.1720,2.3778,-117.0619,-123.4590,-51.5724,337.9828,343.3015,-16.8350,-101.3822
-2875.0000,-49.5590,-120.5143,63.1537,-77.5788,8.7189,107.5054,-84.1373,28.3988,-117.3854,30.5093,-24.6586,-34.5536,-35.2531,4.4584,-112.8483,31.9441,-36.1304,144.7936,65.7009,-53.7089
-2867.1875,-78.2002,-78.2672,-184.4981,-36.2996,-38.7510,190.6797,110.2397,38.4860,2.8257,-69.4881,-162.1944,-25.2788,-56.5526,50.6340,7.4180,42.1123,-64.6535,115.8926,-33.1140,-117.3913
-2859.3750,-213.2330,-38.3993,-38.5641,-31.4156,-3.6017,152.4520,-184.7769,-73.8337,-108.3608,-143.9031,-126.1124,10.5928,-30.8730,86.4016,6.2808,40.8846,187.4544,296.6019,-28.3389,28.5150
-2851.5625,-303.4138,-93.6740,-95.7551,19.3204,-75.0940,206.0609,15.0279,163.6899,-55.7022,165.5377,-366.1584,100.3115,-155.7779,213.0155,-51.0058,57.5073,-360.5735,-4.8417,-12.7114,8.2800
-2843.7500,-186.9909,58.6491,-84.3607,-4.3394,-13.9138,180.2712,-84.5349,-46.1709,-153.4339,-117.4047,-134.6107,38.6304,-76.3435,113.2328,-112.6883,-42.2664,142.9550,252.2952,-72.4905,19.6337
-2835.9375,-112.5075,27.0381,60.0912,34.0463,-25.6299,66.5237,-233.0628,-48.0020,-156.1299,26.6762,-62.9700,108.9904,-49.7571,37.4948,-78.3334,-117.9916,7.5899,44.5138,-33.2271,164.0329
-2828.1250,-109.9748,-5.5220,-116.3993,72.4891,-55.0927,-1.1735,29.4673,-6.7686,-40.7670,31.8387,-204.2829,152.4073,-85.1730,42.8133,0.0707,-111.6681,-59.7837,-128.2447,-100.9096,96.4780
-2820.3125,-93.0466,46.3302,81.4911,18.3351,5.7055,-132.4658,-211.5783,-211.1314,-171.9940,-136.6088,-5.1874,93.2163,-37.4905,21.5238,-94.1170,13.0548,343.2472,28.4030,-119.1990,148.3080
-2812.5000,-196.3154,-92.0163,11.1969,19.9735,-66.8628,-91.9652,11.1533,11.2973,-58.4310,123.7446,-258.2647,133.8164,-138.3628,208.0256,-53.5009,89.5803,-252.8984,-321.1387,-117.6762,114.9419
-2804.6875,-194.6305,-55.4181,-94.1617,-13.4377,-7.0978,-52.5008,88.8640,-94.2960,-19.9146,-129.9219,-181.4062,26.3672,-47.4499,138.4860,59.0592,56.0641,65.8525,-108.7596,-186.2049,81.5161
-2796.8750,-218.1888,-78.0499,-13.7699,-36.0953,-35.7202,-45.2847,-123.6937,-88.1543,-48.6609,24.1368,-136.7667,-2.3360,-32.7400,181.6890,102.3585,136.2938,-62.5932,-131.5972,-138.9893,198.8337
-2789.0625,-203.6009,-134.5258,-326.2157,-56.5950,-153.0046,120.0837,77.8923,187.1459,5.7420,225.3716,-264.9728,52.1190,-133.4323,348.0468,47.8095,191.6698,-435.9272,-188.3063,-160.6177,107.2993
-2781.2500,-197.5645,-93.5395,-283.2343,-86.6378,-79.8984,125.9121,-136.0475,8.9123,-60.3982,10.0632,-74.7330,-50.9797,-43.2539,205.8556,16.7042,50.4996,98.1787,203.4307,-48.7979,113.1973
-2773.4375,-325.4220,-255.4445,-158.1342,-143.5883,-49.5684,66.8305,62.0860,170.7671,137.5564,319.8495,-317.3557,-72.9906,-72.8010,110.7491,142.6918,28.4287,-345.5766,-63.7211,104.1388,91.1964
-2765.6250,-309.5178,-205.6113,-176.2816,-198.7949,19.9780,11.4915,190.9993,152.3902,192.2818,116.4105,-298.2270,-165.2534,-45.9842,-18.6085,123.4331,84.1058,-49.6341,90.8384,48.8300,35.9338
-2757.8125,-232.2504,-233.4200,-26.0752,-226.6561,12.6004,-58.5035,-136.7368,44.3445,121.3528,119.2973,-111.7186,-162.1821,-5.6177,-14.6308,89.5219,160.1325,134.7042,133.7773,126.8588,149.0112
-2750.0000,-155.1336,-191.3770,-272.0028,-219.6674,-99.6044,-11.6542,131.3627,203.1534,280.2698,241.0533,-283.3494,-114.2609,-120.1811,106.1979,64.4668,171.0131,-245.1346,-105.4475,132.7449,49.9448
-2742.1875,-100.1230,74.5733,-140.0504,-199.7729,-17.5128,-63.8996,-67.6108,-70.1181,154.0897,-105.2803,-42.0905,-166.4367,-27.4093,-20.0652,12.3089,118.8007,336.9014,195.2198,82.5219,34.7683
-2734.3750,-97.4564,111.1898,42.5638,-163.2324,-8.7067,-99.5005,-30.9645,3.2380,153.5480,78.0167,-114.1485,-129.9704,-27.6574,16.3114,85.7918,45.2345,-82.3585,-84.4283,118.9526,71.2443
-2726.5625,-31.6422,106.9490,-68.6725,-166.5396,-7.8461,-27.9499,152.8587,75.7598,190.1711,40.4899,-116.0709,-167.3508,-23.5068,-21.1572,84.4302,44.8137,-87.5229,-89.9558,9.5360,-3.1355
-2718.7500,-0.0719,33.4745,70.8306,-170.0968,22.8069,-71.6497,-111.5582,-5.9779,71.5418,31.6988,60.7744,-175.9919,34.6816,-64.8886,39.8144,36.1441,191.0985,12.2870,40.8588,99.2231
-2710.9375,-41.9452,-43.4481,-81.0962,-142.1002,-32.0326,-77.8043,213.5490,209.8359,213.4555,284.4700,-126.8092,-144.0824,-37.8824,-35.0716,71.7442,31.0251,-271.7269,-310.9291,-1.2637,57.1353
-2703.1250,7.7338,41.1842,-29.4914,-163.5500,50.9001,-135.3974,118.2310,4.2174,117.9324,-32.1918,72.1510,-202.6178,40.6780,-128.6977,13.2278,9.4613,268.9557,-16.6268,-57.8392,35.5862
-2695.3125,-93.2809,-25.8707,193.4260,-124.7069,51.6228,-96.6908,10.1876,42.8778,83.6992,153.4247,-36.5563,-126.8636,5.7135,-90.0284,15.0077,48.1987,61.9932,-188.0002,-19.1172,74.3375
-2687.5000,-108.8519,-4.4824,73.7970,-104.4110,63.8913,-33.5354,258.6060,107.0087,110.9205,70.5263,-118.8254,-137.6595,-3.2552,-63.8993,42.2404,75.3902,12.4271,-201.9558,-67.9374,-45.4618
-2679.6875,71.8349,70.1663,222.4015,-99.8633,117.8929,-106.1240,-34.7181,-112.6060,-72.6161,-112.1298,177.1620,-172.2097,88.1171,-135.5223,-30.2822,39.8352,404.1339,47.3536,-29.5193,28.9800
-2671.8750,72.6225,0.9226,4.1245,-64.2166,-14.3998,-30.6181,115.0265,146.8723,40.9357,221.3181,-3.7289,-97.6603,-9.5452,12.9569,9.2902,78.3760,-193.0427,-198.2248,42.0066,-5.4711
-2664.0625,42.3091,40.5771,-172.2700,-93.6655,-35.4758,87.7931,12.7045,118.2661,48.4021,81.6849,41.2658,-199.2083,10.8902,-15.6547,16.7643,86.8195,163.6323,123.0702,82.4312,-71.0354
-2656.2500,-51.0008,-122.7545,58.3419,-151.1201,6.0236,96.1948,-124.6219,126.6332,93.8607,238.0207,51.2849,-263.7722,45.3942,-7.2875,63.2410,95.2587,35.3674,29.3991,234.8556,11.3956
-2648.4375,-40.7249,-183.4973,-39.4391,-142.9793,4.9382,109.1916,145.6598,212.6132,180.9279,212.9842,-83.1059,-213.7359,17.1265,5.6787,112.3330,71.2943,-166.3400,-102.6962,138.8923,-49.5695
-2640.6250,39.6025,-33.1853,113.8040,-131.7921,56.5233,42.2431,-177.9829,-38.3497,3.0516,-37.9995,144.5523,-170.6592,85.8989,-62.3120,45.4808,41.3818,371.9980,189.2651,42.9741,30.5060
-2632.8125,-36.6126,-38.4200,72.5152,2.8327,-34.1165,36.7320,-74.2063,140.1310,71.6186,251.4677,-81.3118,-30.1440,-28.2208,80.1386,40.0711,72.9235,-231.1864,-63.3030,37.5146,25.0356
-2625.0000,-10.6816,57.4831,-81.6319,27.6057,-20.4505,103.3779,29.7443,96.7907,27.3525,97.1213,-50.0447,-73.4784,-32.6505,35.7503,-40.1882,65.6198,39.7173,138.2471,-7.7900,-55.2957
-2617.1875,21.2014,54.3487,94.1724,24.3256,3.2358,20.9755,-161.3598,14.3853,-17.9715,88.7017,89.1902,-45.8755,2.8513,27.3062,-85.5023,20.2691,106.6263,98.7736,58.8480,46.3184
-2609.3750,21.1825,19.3117,-12.9066,59.1460,-39.5194,60.6702,98.6228,165.0835,58.8000,202.4047,-91.4735,-5.1667,-71.4170,66.9713,-82.7179,24.0209,-279.3835,-112.6217,23.5895,-23.9611
-2601.5625,22.8170,90.9271,60.6447,-9.3814,40.0508,61.0229,-85.7279,-56.5540,-51.7687,-56.2361,92.5086,-79.8106,8.0670,-43.7091,-119.2822,60.4280,284.2431,205.6239,24.9756,12.3957
-2593.7500,-42.5327,-44.4461,66.2158,31.0872,-16.7789,102.3687,-6.1156,95.7845,27.6540,207.1026,-85.4741,-0.4603,-58.9510,72.6004,-77.8522,65.8296,-167.0791,-71.1085,100.3684,17.7547
-2585.9375,3.7167,37.7787,-137.6104,42.1649,-31.4676,120.3135,158.1156,113.7402,44.6893,77.0657,-66.8743,16.5019,-59.6259,15.5173,-96.8179,8.8276,19.1366,9.7236,41.3588,-112.2893
-2578.1250,72.1654,70.2240,77.7546,39.4483,22.0845,4.4577,-104.4572,-39.1220,-34.0817,-1.7933,148.9388,11.6610,26.6782,-100.3695,-102.5869,-32.9739,263.5900,113.7760,73.5433,-44.1363
-2570.3125,84.6558,11.7179,17.1799,50.7803,-18.8514,16.6470,130.0003,121.0671,52.1986,194.4180,-58.1970,23.8705,-32.7685,-50.2026,-15.3014,16.2788,-251.9202,-122.1306,-20.2092,-67.9244
-2562.5000,163.5924,90.6610,98.0283,24.5616,67.2305,24.2951,-47.0638,-56.2673,-125.0564,-92.9024,170.0961,-42.4714,58.4362,-153.5798,-82.5635,-13.0162,248.9879,238.4046,-117.5163,-24.2752
-2554.6875,151.1809,-26.7412,193.5402,12.9831,19.8206,8.5880,-134.4981,76.0263,-138.6682,186.4045,118.0661,15.8254,3.0357,-59.3188,-133.1752,8.3388,-113.3982,50.6174,11.8278,34.0247
-2546.8750,115.2170,7.2960,12.5074,10.8556,-11.5885,85.3292,88.5356,152.7819,-62.8217,153.1924,11.4694,-17.4280,-41.1424,-18.6007,-131.3291,85.1435,-151.3941,-21.7632,9.6301,-73.2250
-2539.0625,89.6073,-18.3060,127.8062,-49.9254,47.8642,16.4184,-163.0706,9.8839,-94.6208,10.3185,164.2323,-86.3395,82.5584,-87.5411,20.8668,90.2974,174.9809,128.2136,54.7791,41.8678
-2531.2500,-68.6559,-104.5626,-1.5333,-32.3639,-6.8582,33.8510,111.6515,248.3354,32.9333,321.8090,-184.6463,4.0937,-12.0764,39.8668,148.4195,70.8035,-369.2919,-170.4630,72.2892,59.3176
-2523.4375,-111.5261,-9.4235,-156.4952,-6.4023,18.6429,24.6931,65.7991,92.2144,-13.0923,55.7265,-83.1509,-42.0733,21.5055,-6.3143,103.3764,61.7170,78.7816,171.2382,28.1961,50.1601
-2515.6250,-104.2458,-70.1238,-40.3065,-33.2939,25.9592,-6.3089,-1.9360,24.2246,30.0133,98.7667,-39.4855,0.9054,34.3406,-0.3460,109.4833,-6.2162,-88.9367,74.1235,141.2502,93.1568
-2507.8125,-50.4214,-88.2808,-198.5585,-49.6339,11.9831,19.2386,317.8821,85.7941,165.6784,123.3810,-161.2842,-47.5610,-5.9109,-11.8152,134.1417,-17.5987,-281.1497,-13.4652,88.8637,-29.2946
-2500.0000,14.9083,-57.9337,12.6769,-124.4720,82.2742,-63.7056,15.2197,-70.1378,46.8464,-69.5146,51.4153,-128.5289,76.1891,-129.7901,89.2987,-26.4832,206.1519,192.4518,118.9681,35.7373
-2492.1875,-43.3579,-114.1765,-11.6679,-42.9095,12.0938,-14.2594,137.9283,90.3151,59.4033,163.9892,-118.4704,29.8991,-1.8924,-8.3654,101.8559,-50.9685,-309.1257,-147.2192,96.4806,48.1736
-2484.3750,19.4637,52.6712,-91.9282,54.7523,58.6976,16.2923,168.7650,-101.1016,-94.9244,-136.3733,-15.2889,23.4305,41.3241,-51.8298,58.5204,-94.3509,104.6345,90.1838,-52.8997,4.7020
-2476.5625,24.5299,22.7733,95.0602,60.6555,75.3722,-54.9133,-49.1556,-134.2812,-165.0032,-96.5036,98.1548,62.1988,82.9137,-49.0576,60.4299,-90.4777,39.6967,95.8692,-12.0311,80.4793
-2468.7500,-14.3567,-16.0859,-88.8803,55.6030,7.6155,54.9227,244.9729,48.5984,-18.0262,86.4399,-158.3560,62.0145,-39.5813,24.7656,24.3909,-54.5537,-315.2288,-49.4152,-16.1066,-29.6877
-2460.9375,-1.0388,32.2615,-38.6381,33.7519,55.9627,-5.0416,1.3244,-158.3161,-78.8432,-193.4196,39.3209,2.0321,26.0138,-36.2136,-36.4422,-78.4324,295.0370,244.4987,67.0122,-16.6639
-2453.1250,-64.4730,-30.1336,5.8681,111.1492,8.7398,2.2323,118.8984,-78.0059,39.5806,-3.0438,-136.7377,119.2979,-52.5164,45.0511,-29.0191,-71.0676,-119.4142,-100.3159,109.3947,-9.3839
-2445.3125,-11.8154,127.5618,-47.5367,163.6504,21.5605,-14.3842,139.6017,-131.5723,-13.8792,-203.5418,-79.7224,139.6683,-33.0685,-8.5726,-45.4875,-50.6033,73.1690,56.9408,-49.1221,-63.0106
-2437.5000,69.6539,68.0670,141.8486,103.9494,28.0935,-9.1933,-184.9032,-198.3527,-117.5485,-160.2629,74.1064,108.8329,32.0886,-40.3988,-3.1617,-8.3420,154.5987,103.0220,-38.8448,53.1571
-2429.6875,31.3237,-41.2363,-116.5533,65.4462,-74.9643,63.1965,70.7672,57.0714,26.9758,94.2385,-146.8638,70.1989,-45.4756,141.9835,105.3617,64.1233,-375.7879,-145.7054,-42.3583,14.5341
-2421.8750,-12.4167,22.0630,-125.3761,-48.4551,-24.4951,53.1942,-85.9395,-63.8871,17.1062,-134.6479,26.7367,-50.8323,31.1899,58.9796,96.4837,54.1939,108.3943,126.1587,20.7302,41.5024
-2414.0625,-108.5619,-74.0331,-118.5915,-39.7638,-71.3509,22.7859,-42.0723,16.7384,134.8365,92.0521,-112.0482,29.7291,-11.0379,102.5639,176.2056,60.8752,-269.7784,-146.3499,134.4265,85.0750
-2406.2500,-171.8197,1.7562,-291.9112,36.8274,-92.3317,107.2711,152.7112,64.2864,182.4940,-7.3115,-284.9619,41.1948,-89.1684,76.0554,113.8431,108.4672,-193.1180,-70.9985,35.0302,-14.4521
-2398.4375,-170.7758,38.8527,-72.9472,38.7104,-39.3298,32.0576,-142.2007,-83.8664,33.4553,-82.3891,-101.5777,38.9490,-34.4168,37.8426,38.7844,107.3661,159.8677,71.6718,71.9298,57.3171
-2390.6250,-93.7823,-60.1106,-136.0173,80.5409,-80.6161,42.7886,124.8080,109.9272,117.3599,148.4933,-238.2370,85.6546,-103.4734,121.5842,12.6767,-29.7886,-324.1956,-202.7056,78.7917,-5.9545
-2382.8125,33.6586,32.3787,-148.6578,31.8275,-24.6424,29.9783,39.2940,-48.8110,-4.2742,-121.1615,7.5236,36.8183,-14.4798,-0.2172,-35.9773,-78.4984,224.1603,64.3521,-4.9010,-54.7876
-2375.0000,-8.1504,-9.3696,-9.5356,59.8657,-52.9529,-52.0867,-42.4911,16.1746,-13.1721,90.9054,-37.9514,64.7304,-48.9521,63.7250,-44.8873,-13.4614,-28.6730,-153.8112,93.1540,-26.8686
-2367.1875,-14.6644,19.1712,-123.1058,89.2081,-77.8193,-18.8578,139.0323,123.4711,20.2418,88.2966,-114.1487,98.9477,-93.3631,60.9748,-84.4854,19.8789,-70.2579,-230.7101,-18.4872,-103.6449
-2359.3750,74.6722,108.5675,76.1530,107.3990,-6.9573,-113.7789,-175.5793,-155.3846,-111.4914,-189.4740,122.4958,77.0149,0.3940,3.0732,-106.2305,-0.9249,406.0202,-0.7520,0.7124,-14.5795
-2351.5625,25.4034,-10.6328,26.8304,128.9865,-61.2039,-52.3029,31.1782,15.1505,23.1672,54.1554,-110.4558,138.4831,-66.2655,100.5710,-7.5758,-13.3339,-171.2906,-261.3814,-13.6774,-64.1059
-2343.7500,32.5716,31.6051,-37.0617,100.0240,-6.9728,-43.3596,41.4136,-84.8341,-3.7122,-119.7332,-26.9958,0.4031,-9.6226,-37.4655,1.5335,32.7069,222.7886,26.4145,-77.6103,-128.1930
-2335.9375,25.9941,-44.9052,136.2987,23.3031,-5.0793,-91.1619,-153.1170,-59.5824,22.6494,-20.3956,36.7284,-10.4380,17.6762,-85.2570,27.8802,57.9957,146.1719,-86.5022,56.7090,-29.0343
-2328.1250,47.4682,-94.3778,-22.2614,8.6210,-28.5040,-64.9210,166.3787,113.7022,122.0641,78.9877,-84.4873,14.7678,-34.0245,-58.9995,16.2797,10.3369,-114.3922,-241.3752,7.0924,-113.8144
-2320.3125,148.6857,6.8936,156.9077,-65.3085,51.2705,-107.9290,-96.3370,-113.2455,-67.7489,-147.8599,204.0143,-27.2719,61.3405,-101.9812,-62.5485,-31.5658,373.7358,35.4576,3.2205,-82.8526
-2312.5000,150.5091,-96.2248,158.6840,6.3626,-19.2649,-69.3505,15.5130,35.3714,7.0189,74.8542,22.1341,47.2860,-14.5875,46.6294,-23.7728,-29.8691,-152.4662,-314.0590,39.9490,-81.2824
-2304.6875,108.2734,-33.4093,42.4094,-1.0161,31.3942,-74.8202,121.3137,-80.0430,1.7446,-151.4463,17.1717,4.8035,2.8274,4.2055,-30.0432,-36.2190,157.2215,-75.6424,-2.3614,-123.7578
-2296.8750,50.4830,-56.1445,234.5553,-22.9436,70.5917,-140.8282,-92.4094,-146.0020,-27.0770,-143.3061,98.6405,-24.2368,45.8611,-24.7664,-21.8728,-28.1174,240.3703,-63.7469,80.7682,-5.8037
-2289.0625,25.6444,-115.9275,26.6733,-47.9281,2.7256,-90.8888,215.7826,87.9761,134.0359,90.7799,-144.9269,-10.3291,-45.4603,25.2075,28.2472,-14.0670,-241.5023,-227.8849,20.8513,-65.8953
-2281.2500,21.9903,-13.5257,-15.0231,-51.7109,28.0912,-59.7381,-46.7923,-64.8103,54.3702,-171.8940,70.6629,-53.2174,42.6493,-90.6015,23.5765,-19.8080,281.7394,154.1393,17.1308,-34.7963
-2273.4375,-61.8126,-26.2648,-29.8709,5.3490,-62.7398,-0.7328,-61.5452,67.2356,76.5415,107.2496,-90.8884,78.7381,-40.4917,42.4345,45.7505,2.3110,-188.1110,-70.9479,39.2551,-12.8435
-2265.6250,-49.4810,56.1310,-197.5569,52.5609,-54.2540,89.4212,102.8370,47.4467,56.8635,-59.4256,-110.3103,58.8506,-43.7888,58.6327,25.0750,-18.4047,-70.8597,82.0847,-54.4554,-106.7278
-2257.8125,-14.2954,55.3807,56.5821,51.6255,30.1550,12.4252,-121.8968,-140.4948,-93.9428,-173.2646,34.1026,54.8145,20.0865,18.6829,-14.7440,-58.2725,210.2387,221.9494,-19.3190,-36.7744
-2250.0000,-85.4904,-50.7652,-50.6498,51.2859,-35.9113,88.0097,138.9213,83.1371,55.8372,86.4700,-220.8533,94.3794,-76.6084,131.3192,24.0351,-55.5507,-282.9983,-60.5661,-20.5772,-108.2102
-2242.1875,-44.2383,61.5284,-8.4447,21.4033,35.5241,57.0409,-2.7842,-94.7566,-47.9107,-202.3054,-30.4013,-10.5963,7.9359,26.4120,-6.7213,-86.3731,321.1341,191.3287,-14.3806,-102.2003
-2234.3750,-39.0385,-39.2159,102.7061,-7.5366,24.6665,21.0159,-38.5442,-20.7180,-47.7018,-17.1638,-29.9942,27.3725,0.7223,64.4424,-5.5170,-122.2507,10.2744,-49.7908,61.7533,8.7563
-2226.5625,18.0490,-17.0724,-56.2239,-21.5711,20.5968,44.8850,170.5764,4.2269,-22.5930,-103.0964,-78.7010,15.2523,-32.7152,51.3844,-54.4088,-135.2248,-3.7231,-28.0251,12.7903,-40.3746
-2218.7500,88.4249,18.3739,124.1206,-22.2920,75.5714,-31.9382,-125.9705,-219.5088,-172.1754,-252.7253,175.8604,-25.5630,67.9005,-25.3643,-58.0074,-100.8940,347.5460,147.0298,13.1160,29.7852
-2210.9375,57.1139,-48.8676,56.7912,52.2877,-23.4997,10.5316,62.7421,6.0216,-20.4789,46.9117,-39.2583,53.9199,-42.8440,90.1701,-52.3234,-22.2688,-280.8270,-200.5755,-54.2527,-1.7399
-2203.1250,97.4009,97.4771,-11.9468,57.4680,-21.6224,15.5987,-42.9273,-62.8233,-52.1720,-131.8153,77.1889,22.0209,-11.1663,22.3187,-84.0290,-17.0411,110.3241,15.3876,-153.0163,3.3351
-2195.3125,25.0360,60.1838,89.6458,54.9989,-63.9467,-65.9750,-234.2442,2.6715,-22.5200,42.7856,67.9837,123.4634,-13.3203,49.8091,-17.3739,11.5511,-102.1392,-162.2675,-85.4399,141.7491
-2187.5000,-6.2362,99.9713,-124.6454,129.6215,-110.3447,-24.4544,-8.4847,81.2688,55.2320,11.5001,-109.1272,166.0026,-73.7512,92.3997,23.3852,53.2509,-309.5094,-228.8223,-151.7456,110.2803
-2179.6875,33.9791,174.2345,23.5366,62.7346,-24.0904,-133.4241,-265.1758,-174.6086,-90.4780,-170.2606,148.2209,92.0345,27.8767,-16.4984,-11.3484,18.4544,186.5598,55.1034,-112.5462,184.3012
-2171.8750,-25.7043,10.6020,-0.1710,38.9337,-51.2518,-121.2856,-30.7929,57.5990,32.9020,136.0514,-58.3230,105.1575,-21.9680,68.6979,74.0199,-42.2476,-365.2098,-249.8280,-31.2501,160.4257
-2164.0625,16.2498,16.6028,-98.2248,-24.2117,-13.5228,-36.4802,17.2350,-3.5183,7.9310,-35.9468,26.7533,-30.0541,18.3279,44.5668,50.0413,-31.2962,-6.4050,2.8604,-59.2988,62.2051
-2156.2500,20.2076,-49.4010,84.7041,-55.3651,-1.3495,1.3374,-201.7243,-2.6394,-64.0465,38.0351,100.8212,-65.2828,37.6118,44.4336,14.0564,6.6532,-1.5664,6.5762,14.6559,135.9720
-2148.4375,-22.9399,-92.5186,-141.4403,-62.6245,-76.2529,31.0487,85.1877,211.1298,112.8669,178.9139,-125.2022,0.3841,-57.3958,38.1956,43.9701,110.4977,-396.8030,-176.7823,-28.4843,92.6473
-2140.6250,-39.3578,32.1068,-89.8621,-80.1257,-24.1666,-26.4798,-156.1122,6.6825,18.5526,-25.4287,73.4710,-20.1875,20.8958,-93.2774,23.6522,125.0995,77.6268,121.5903,-44.8882,181.0619
-2132.8125,-133.1717,-26.6425,-115.6900,-33.0198,-107.7312,-53.4082,-145.8465,199.8078,101.8196,278.7808,-99.2450,63.8465,-54.5651,-9.1570,70.9427,172.3026,-437.2867,-111.3973,2.2963,228.0829
-2125.0000,-74.2392,31.3494,-197.7633,-45.1535,-59.1188,-61.5985,-6.8348,117.6823,92.8400,48.7578,-71.2284,-18.3530,-28.8848,-17.2743,60.9868,127.2563,-203.5018,51.3343,-44.7587,145.8676
-2117.1875,-40.0531,-39.4101,55.3918,-116.0379,32.6730,-139.5422,-195.5412,-70.2005,16.1266,-28.0356,108.0255,-96.3005,73.3006,-95.1483,94.2889,50.4613,41.5407,85.3186,60.4203,214.8932
-2109.3750,-31.6598,-136.9636,-79.2252,-143.7193,-3.6212,-53.2980,147.9051,126.0884,138.5972,131.3490,-99.4991,-47.0471,-5.9686,-9.8261,106.7861,24.8742,-408.1715,-117.4832,31.7945,117.1320
-2101.5625,71.1726,-34.0758,-7.4059,-145.9437,73.9176,-54.5995,-36.1751,-94.1417,-45.4704,-162.7753,157.3829,-121.3261,76.3933,-83.0298,-4.2706,-48.2579,187.4852,267.1234,-5.3825,79.8153
-2093.7500,45.0038,-94.1760,113.4061,-101.1700,75.5415,-44.8985,9.7316,-12.3851,-71.5470,30.0698,93.2668,-38.6085,47.6272,-37.2383,-30.3367,-111.3908,-188.8027,65.7759,110.4413,89.4917
-2085.9375,29.7652,-75.3403,-44.8202,-82.4410,72.1604,17.7540,256.5739,14.3379,27.3397,-17.1047,-64.9252,-49.9333,6.0988,-85.4871,-4.4478,-123.5715,-169.1860,84.3642,94.2300,-31.8779
-2078.1250,13.5249,-56.5116,155.9149,-98.7182,140.1598,-39.5803,16.4488,-115.9183,-66.7600,-110.2719,99.8532,-106.2577,69.7590,-177.7338,-61.5573,-141.7382,200.4106,243.9450,148.0108,21.7372
-2070.3125,-35.7060,-105.6866,69.6721,-78.0018,42.8353,22.0857,188.2733,128.8022,68.1214,171.5396,-133.3368,-45.5869,-38.8762,-43.9915,-36.6710,-81.9077,-340.9273,-51.4448,98.7948,-27.6368
-2062.5000,21.8589,-12.0824,21.2300,-54.4869,73.3254,82.5540,28.9114,-30.6480,-17.1826,-135.8135,38.2408,-95.1112,20.4445,-130.4308,-85.9749,-57.2739,138.4634,322.9294,16.3827,-40.2135
-2054.6875,-24.7679,-58.6675,153.5788,-31.1676,48.4186,68.8235,-131.6500,-45.3206,5.3070,-2.4028,23.6230,-35.8360,20.8146,-34.0765,-26.4748,-71.8463,-49.2962,206.1367,75.7544,18.9979
-2046.8750,-66.6961,-65.5591,-69.3459,31.8610,-0.6637,175.7913,122.4549,62.7045,113.4869,-5.2848,-163.2972,-1.8454,-40.9951,-0.0203,7.7187,-73.7202,-127.3642,128.0419,-2.1665,-94.0825
-2039.0625,-79.7218,-7.5537,61.6101,-15.2047,50.6962,123.6701,-150.5025,-100.3519,-12.4187,-167.2583,5.6463,-53.9499,16.6124,-15.0609,-44.1938,-52.6985,388.4257,326.8336,90.8165,-36.2771
-2031.2500,-105.4422,-104.2410,-0.1154,29.0306,-25.1165,171.8427,43.8060,94.8617,71.9614,64.0319,-203.0857,30.2447,-79.0314,69.1879,-32.8219,31.6130,-130.4078,-16.0288,65.0952,-62.1645
-2023.4375,44.7280,9.9600,11.0573,38.1742,29.6265,145.9201,19.0227,-114.0048,10.2537,-254.7523,28.0559,-31.6464,-4.8963,7.3526,-94.5430,6.8255,300.5861,203.9757,-101.7272,-124.1451
-2015.6250,71.1023,-32.6294,255.4124,29.5175,54.4235,96.1937,-176.5455,-163.6872,-113.2543,-157.3704,125.3904,-7.3355,52.6249,31.7094,-34.0541,-5.7543,186.7995,54.2023,-75.3707,-26.9314
-2007.8125,77.3319,-27.3694,43.6422,34.7189,-5.5693,142.2980,88.6962,-8.5358,-103.9249,-38.1417,-12.4128,37.8312,-0.6690,113.9037,11.2908,2.5157,-195.1277,-115.7208,-140.1548,-91.8504
-2000.0000,117.5069,82.8376,120.7951,4.8796,45.0997,34.3547,-165.0798,-188.4017,-246.6286,-217.9325,211.6945,4.9599,67.9265,43.0536,-58.4103,-30.2699,337.8315,170.2782,-99.9899,-51.8270
-1992.1875,83.4784,-20.1498,159.7526,41.8358,-8.6024,-36.7854,-53.0851,-2.4882,-98.5384,40.0456,29.6175,79.8820,-4.8608,155.9903,-19.3221,-65.2640,-118.3413,-179.8643,-27.0209,-50.0026
-1984.3750,104.9334,106.3441,36.2168,98.2897,-16.4920,-13.4203,-28.5868,-52.0584,-147.9368,-119.4432,16.0156,67.3154,-24.4658,69.4432,-68.7309,32.2426,183.9144,-18.5318,-111.5424,-99.6790
-1976.5625,95.4917,96.9360,206.7590,53.8392,5.4534,-63.9435,-298.9514,-103.5255,-197.2293,-96.8510,149.4994,53.8428,33.7511,18.9950,-46.0464,55.8522,280.2705,42.9179,-14.9682,-3.2773
-1968.7500,45.3484,11.8171,10.6270,74.6790,-46.0938,34.8425,55.9406,69.3002,47.7621,76.0352,-82.7144,78.6616,-41.4453,80.8472,15.9286,6.7664,-226.0407,-148.2980,4.9116,-88.5689
-1960.9375,-4.6593,102.8281,30.6196,23.6723,28.1048,17.8025,-70.9834,-94.6928,-5.0782,-161.8962,84.1770,24.6366,40.1711,-9.1276,0.0550,-46.1694,285.7286,153.6170,24.9454,-68.7239
-1953.1250,-70.6639,36.8550,70.6161,63.6680,-36.0825,21.7694,-67.9299,55.2892,35.0669,99.1290,-59.9157,101.6081,-21.1345,103.8879,40.1696,-6.1111,-166.4313,-123.4174,64.9708,-28.8824
-1945.3125,-71.8204,105.7209,-74.5200,97.5222,-48.6990,59.5839,43.9535,20.1297,73.0612,-45.9705,-95.1674,103.4438,-47.6791,105.7648,4.1323,-5.1987,-63.7833,-19.6267,-7.1484,-101.1807
-1937.5000,-56.4263,121.1395,84.8681,77.9303,9.9504,-1.0468,-199.5908,-150.4599,-24.3877,-179.5185,65.1138,78.8317,19.2732,45.1948,-19.3535,-65.7367,233.4050,172.7138,9.2715,-14.9424
-1929.6875,-32.7230,3.8543,-35.4189,101.6285,-19.8080,24.6196,157.1133,-13.7683,75.4428,-6.7806,-166.2825,105.5143,-63.3973,107.9123,7.4618,-38.9672,-236.0557,-85.6074,-38.0109,-62.3941
-1921.8750,4.3180,146.8974,-70.3606,103.6783,16.2400,-46.3579,12.1906,-159.6936,-32.3611,-224.6551,19.6328,33.5543,15.6812,-37.0118,9.6333,0.1610,328.7552,162.3897,-106.9376,-60.5001
-1914.0625,-59.8413,82.7534,6.4860,109.5273,-42.0991,-80.5322,-94.9314,-45.8319,-29.3679,35.2352,-51.6463,110.3913,-7.9422,39.8535,86.6042,40.0872,53.4155,-112.7807,-65.0693,16.1906
-1906.2500,-49.0557,92.5527,-199.7036,120.3319,-93.9716,-29.7669,64.8720,77.9886,57.5820,48.1006,-147.9872,87.1845,-50.5431,52.6721,99.5298,52.9671,-7.0005,-138.0251,-125.2380,-44.1508
-1898.4375,-9.0697,63.5434,-14.7235,55.3363,-23.0933,-64.7975,-226.0878,-66.9678,-86.2431,-59.8217,111.8476,16.1792,30.1017,-55.3035,-8.3408,19.0533,420.7404,78.9118,-14.2109,31.7015
-1890.6250,-28.1201,-62.5149,-32.7678,0.2779,-59.5564,-45.8917,49.8667,135.9963,78.8693,180.1695,-91.3355,35.1153,-51.2156,37.6551,10.7241,38.0894,-127.4943,-257.1618,36.7718,-23.4855
-1882.8125,11.5802,48.1608,-24.0654,4.9805,23.6343,-37.2358,57.5842,-76.2700,13.7450,-106.0572,27.2111,-30.1782,11.3936,-64.6311,-17.4577,8.8700,299.9409,64.4774,-63.4918,-88.9213
-1875.0000,31.6835,-1.7435,176.0247,25.0925,27.0072,-58.1805,-109.2940,-60.1486,-42.9866,21.0812,81.1603,22.9323,34.1854,-48.5242,-1.2490,-10.9520,107.8099,-57.4402,-44.3715,1.0315
-1867.1875,18.4301,-15.0060,-93.2152,11.8544,-63.5418,4.5253,99.4484,149.6195,92.9140,193.8787,-115.2407,-25.3022,-42.4765,-22.7618,60.6012,50.8743,-221.6654,-140.6931,-92.5901,-47.3643
-1859.3750,-48.5209,-11.9823,-56.1748,-90.0819,-15.8106,-32.4497,-156.4655,39.7071,20.1348,46.9886,32.6343,-134.2404,28.6986,-95.6906,61.7463,89.0060,239.1112,144.3373,52.4898,26.5136
-1851.5625,-109.3012,-213.8006,-83.9627,-151.8706,-40.9536,-24.2721,71.7274,231.9162,138.4892,312.2090,-142.3041,-126.0298,-3.9668,22.5110,180.0263,133.2913,-315.8841,-198.4399,130.7136,34.5372
-1843.7500,-9.9847,-148.5234,-160.6422,-156.5443,11.9563,-27.9936,178.0025,117.2532,61.9410,51.5696,-37.1616,-166.7067,38.8561,-18.1739,139.4056,92.6861,-4.8402,-28.1539,-14.9658,-6.3336
-1835.9375,2.4836,-136.0810,66.7993,-144.0525,39.4907,-55.5587,-70.5691,14.7466,-76.4658,59.0678,44.1215,-122.2236,51.8953,-9.7096,73.9275,64.2382,42.3685,-15.6905,32.4841,111.9372
-1828.1250,-34.6079,-173.1815,-78.2890,-146.1105,-7.7021,18.3308,187.2684,163.6795,71.5555,208.0101,-174.1406,-120.2822,-38.8377,28.2100,75.8943,103.2418,-310.9434,-121.7467,-4.6187,39.6714
-1820.3125,-42.1650,-110.7454,22.1451,-188.6093,88.0242,-64.2142,30.6912,-65.8025,62.1427,-58.4617,36.1084,-203.7798,64.1786,-164.3083,66.4127,93.7959,244.2327,150.7195,58.8311,66.9446
-1812.5000,-74.7116,-214.3003,23.5862,-222.1135,38.7254,-98.7602,143.0947,45.6959,210.7256,163.0244,-71.6193,-128.2902,25.5580,-52.8461,141.9278,58.3422,-246.5190,-163.7786,165.2760,68.2180
-1804.6875,-58.6072,-127.2241,-210.3031,-168.9715,21.9771,-40.6711,312.1451,31.8532,233.9707,2.1896,-123.7113,-143.1427,1.8362,-30.7291,127.0945,44.5395,-124.6768,-5.6564,77.3825,-19.8418
-1796.8750,-99.8639,-62.4916,-74.5736,-141.1694,50.8242,-51.9280,42.8767,-89.3308,111.8775,-46.0014,10.8209,-117.3377,56.6701,-41.9651,115.9160,-40.6126,79.7990,128.1259,106.1271,78.7417
-1789.0625,-132.3255,-130.9504,-180.0269,-34.5622,-19.6142,99.6094,232.3720,98.2649,153.5631,105.5918,-203.8281,-39.7311,-30.9389,73.5973,120.5407,-35.9698,-340.8832,-81.2605,37.6735,10.1359
-1781.2500,-11.6895,-46.3314,-53.3869,-53.8625,27.7592,80.2561,-44.9996,-105.0021,-49.6457,-133.6766,70.6028,-96.0275,34.7332,17.2653,-8.7318,18.7717,272.4639,216.4125,-52.6793,-9.3753
-1773.4375,3.1583,-135.5166,108.4534,-72.9747,-13.6867,58.1073,-103.1853,56.9134,-71.6616,137.2150,10.2594,-45.1437,-14.3044,68.1225,-31.8104,142.7106,-133.9192,-84.6777,-1.8392,41.3113
-1765.6250,-66.0508,-28.7675,-108.7446,-36.1416,-61.6115,98.9125,83.5567,171.7842,6.2729,142.0782,-168.1318,-3.2990,-73.7008,35.9341,10.0622,184.6002,-203.3790,-83.8257,-71.0410,-28.0431
-1757.8125,-120.9670,56.2876,-23.6811,13.0048,-28.5797,37.0338,-161.3649,-1.0314,-55.4764,6.2365,-11.2357,44.8488,-28.3550,-26.9538,-51.7599,122.7948,127.4340,107.3250,14.0422,56.8885
-1750.0000,-150.2384,-8.9987,-161.9466,54.8018,-93.0628,81.8033,103.3192,153.7750,99.4140,235.0141,-223.6587,89.6470,-110.5803,54.7989,-7.9454,93.6414,-359.0387,-167.8358,20.7738,27.4843
-1742.1875,-81.2142,26.0092,-160.9178,-52.0961,-13.6301,81.8758,30.3143,-29.0871,-10.3933,-58.8722,-39.8160,-20.2418,-30.7572,18.8703,-43.8316,57.7951,202.7163,148.2720,19.8043,-8.6127
-1734.3750,-64.3342,-63.1280,-0.0488,-70.1437,6.7443,23.8165,-28.8530,-14.1069,4.6319,67.0654,-25.1227,-5.2875,-6.5168,33.7866,8.1272,35.8049,-27.6328,59.2757,36.6755,43.1393
-1726.5625,21.0956,-12.7163,-125.6117,15.3573,-3.1129,45.3108,213.4910,44.4242,26.1941,14.5626,-39.8738,53.2220,-16.3057,18.2524,-6.3684,-52.6397,-222.4362,38.8392,-88.8924,-82.5433
-1718.7500,127.4757,57.6376,58.7525,15.8074,68.8689,-27.2354,-80.1700,-176.0679,-120.2771,-168.9742,254.3019,-19.3108,86.8038,-128.3339,-79.9047,-163.1446,269.6586,321.3336,-53.5098,-82.2896
-1710.9375,93.1132,-11.7442,26.3855,52.5096,-7.6234,-23.5471,108.3808,49.6645,31.4853,93.7069,37.7537,58.4045,-16.8508,-13.6857,-75.1991,-121.4036,-257.9260,6.1140,-52.8772,-151.7816
-1703.1250,104.8439,141.9629,-105.8775,64.3222,-3.0674,29.2384,86.0409,-45.4691,-100.6366,-112.4577,126.2747,37.2303,11.3211,-34.9285,-97.4042,-69.5578,141.5084,228.9456,-181.1325,-210.1722
-1695.3125,121.9753,158.0742,92.2332,116.5378,-2.6908,-31.5701,-157.8852,-105.1911,-197.3499,-98.2330,213.1930,124.4482,43.0103,-21.7851,-83.2196,-92.3063,122.3625,140.1993,-128.9976,-123.1721
-1687.5000,215.1475,146.2331,-64.5857,174.8036,-92.8729,69.6618,54.2064,33.1370,-96.0203,3.0506,93.1704,151.7193,-58.0330,43.4062,-165.9913,-65.0071,-206.7235,-83.4778,-176.8106,-206.1080
-1679.6875,231.1541,197.2336,97.4211,154.9207,-26.9398,84.7593,-262.8201,-136.6553,-228.8298,-240.7891,291.9626,55.8496,29.5275,57.4629,-188.9131,-50.8579,371.9840,214.6707,-196.7774,-155.2008
-1671.8750,96.7681,97.8448,139.0389,196.6322,-67.6993,162.4652,-185.2762,15.1243,-150.0670,21.9326,75.3828,134.5699,-31.0964,172.1122,-110.2428,-9.1239,-114.6225,-60.5336,-155.1434,-113.6923
-1664.0625,86.1388,193.1900,21.4164,222.0946,-39.3550,192.9286,-81.9822,-65.3285,-193.5558,-131.5691,68.5448,127.0445,-32.8275,128.5188,-153.8352,-52.6443,191.4757,140.9875,-235.7482,-194.4296
-1656.2500,140.7080,176.7259,257.9767,205.7574,17.9461,98.5999,-285.4604,-159.5556,-249.8383,-152.8516,230.8911,106.7197,9.3621,-2.8673,-247.2359,-72.9615,315.7318,194.6981,-146.1569,-104.9741
-1648.4375,111.5897,112.5670,81.8452,212.7124,-36.5487,106.5695,52.3296,32.5030,-58.8354,2.1451,-19.4337,114.6823,-70.5814,42.0369,-167.3428,-28.9770,-171.6587,-80.2586,-175.2627,-134.2119
-1640.6250,70.1723,177.0941,107.4137,136.3629,48.6056,22.2410,-142.1736,-161.7183,-143.1202,-228.1289,153.9277,30.3472,52.6520,-79.3497,-67.7486,-39.2874,350.5963,265.4578,-215.6551,-34.7434
-1632.8125,41.7393,112.6243,146.9578,142.0111,-8.9753,-85.0790,-175.6561,-84.9322,-66.3944,-5.4136,83.2705,143.0133,23.2727,-39.7399,8.8454,-36.6018,-66.1374,-9.8023,-139.0503,41.7226
-1625.0000,144.0418,179.9086,-36.7414,174.4077,-8.7142,-85.6484,7.5858,-85.4004,-103.9235,-151.9470,119.3643,143.4302,14.6986,-76.3837,-64.8147,-73.1663,70.8981,57.7038,-176.6864,-32.0445
-1617.1875,233.8388,198.6833,200.0336,123.3076,71.6539,-178.7108,-232.6451,-288.3431,-232.9399,-281.9496,355.9346,86.3502,100.0884,-169.5170,-120.9767,-92.2247,407.3876,147.6868,-52.8232,57.6841
-1609.3750,183.0358,77.8579,149.2120,107.6054,42.3831,-119.3723,46.5062,-82.8974,-100.5651,-39.5777,120.9221,108.6597,30.3972,-110.2654,-62.7425,-106.8830,-135.6629,-113.8993,-33.5584,6.8145
-1601.5625,169.9215,134.7176,173.1046,59.6043,103.1545,-96.3297,-77.6526,-204.7287,-186.4918,-272.4736,255.5992,22.6732,99.1260,-159.3097,-75.8052,-119.8419,306.9496,190.1928,-81.5850,-6.3462
-1593.7500,140.5163,0.2828,286.6753,30.3062,47.8787,-55.5801,-184.0995,-54.8501,-146.7213,24.3268,147.9766,25.3857,28.7019,-46.6551,-108.1698,-43.0988,-38.7319,-15.0126,30.0732,70.1854
-1585.9375,74.7758,5.5019,36.9142,70.6556,-3.0565,62.8162,44.0706,99.6670,7.6748,32.7675,-28.9635,-3.2553,-23.9037,-39.3540,-64.9044,-72.7100,-138.7221,-45.5486,-35.6241,4.3763
-1578.1250,4.9271,75.6131,143.0521,35.9132,62.5236,-14.8789,-179.8375,-86.8885,-69.0221,-117.8587,113.9710,-6.9843,57.2707,-116.1406,-30.7505,-75.4211,247.1284,166.7894,0.5767,110.4614
-1570.3125,-88.7714,-18.1103,8.3436,83.3257,-16.1552,-2.4225,52.3842,72.7032,90.4231,115.6487,-129.9303,79.4376,-30.5303,43.2164,54.5388,-25.9856,-303.8216,-137.6920,11.9192,86.6916
-1562.5000,-12.3673,59.2618,-91.2477,54.8421,12.2193,8.1338,25.6847,-64.5977,26.9667,-130.7230,26.2734,15.9664,25.1326,-20.3269,27.9314,-16.4548,124.2986,114.9151,-16.6290,23.0310
-1554.6875,-10.6140,-10.0166,127.4863,55.7050,25.3616,-65.9513,-122.6351,-101.5327,24.8748,-22.7423,60.8134,50.8409,22.1468,-21.5194,-10.3182,-17.5779,-49.2491,10.8683,91.1711,94.7149
-1546.8750,-96.6564,9.9099,-69.5645,110.7621,-1.6767,-42.8385,195.2179,32.7144,86.9672,38.4227,-134.4204,111.9083,-54.2110,2.4781,-23.3747,6.4960,-311.5501,-74.9552,40.1788,8.6098
-1539.0625,-81.8478,128.6767,53.2273,54.6714,65.1366,-102.8771,-50.0626,-138.1588,-84.0818,-169.5267,60.1840,50.8351,15.2312,-58.6677,-83.5831,18.4180,228.9422,185.0358,54.0408,57.3551
-1531.2500,-85.5350,-16.0442,49.5080,51.0898,3.9728,-34.4130,56.1498,41.4625,21.3620,84.0012,-89.7039,47.2628,-33.7156,10.6812,-15.3013,14.8378,-267.0222,-134.4498,85.3957,53.5968
-1523.4375,-18.9804,16.4810,-60.9439,-22.2454,19.3202,40.3014,92.5918,5.3342,-14.9534,-63.2103,-17.3365,-26.0606,-0.5288,-25.7192,-14.7738,15.5112,10.2645,73.3141,-22.9853,-19.8977
-1515.6250,-36.0875,-35.6586,101.9303,-39.2340,38.4778,55.3750,-111.5775,-16.4233,-108.9000,25.9436,71.3604,-47.0418,43.3920,-10.7642,0.1084,-6.4687,27.8691,57.4202,29.9902,68.9494
-1507.8125,-73.6362,-73.2429,-81.6412,-5.6821,-32.5383,167.0010,145.7769,206.3561,-72.3156,174.6292,-147.3694,27.5199,-38.3660,100.7281,38.5269,32.0991,-360.9216,-154.8823,-42.4834,-3.6491
-1500.0000,-7.3454,29.0130,-13.3703,-10.2750,7.3557,124.4830,-116.0139,-19.9890,-223.8770,-87.7994,103.7312,-15.0600,33.8154,22.0884,-41.2107,63.5222,233.0847,86.6394,-46.0991,27.6066
-1492.1875,-77.1144,-42.7717,57.8209,24.0802,-48.3300,122.9295,-81.8452,88.6230,-78.4871,166.7122,-82.2211,19.3035,-55.0740,93.3983,-42.9993,97.8976,-224.9371,-194.8698,59.2327,61.8061
-1484.3750,-70.2870,1.0331,-113.3764,-1.9714,-26.1998,98.9770,113.9007,101.8362,7.4981,33.8317,-107.5627,-3.7411,-37.5205,33.3060,6.8130,73.8735,-77.3455,-45.7688,-2.8243,-35.3870
-1476.5625,-22.8631,-22.5724,43.0114,-60.4298,35.3880,-2.3622,-96.7252,0.6748,-56.9049,5.5755,48.6765,-68.1854,51.0718,-68.1798,52.2232,9.4506,110.8075,106.9126,79.7189,47.0091
-1468.7500,-63.3329,-132.0672,-143.4905,-65.7889,-35.8729,31.3985,192.7288,218.5980,86.7747,260.3952,-174.9550,-35.5391,-39.5582,1.4236,85.7140,6.1232,-386.8754,-143.2679,74.3536,6.5042
-1460.9375,-44.9118,-44.6703,-89.0828,-82.2455,39.8003,-23.9377,64.0818,53.4442,-5.6400,-15.8514,26.2957,-89.9872,40.1764,-126.0572,30.1046,24.6909,158.2977,120.4262,22.8982,24.9019
-1453.1250,-30.5463,-101.3211,67.2536,-103.7540,2.1552,-123.3132,0.4072,100.2515,77.8966,178.8506,-0.5135,-42.4876,7.3733,-79.5878,39.4448,71.2077,-179.5676,-216.9261,106.3875,108.2407
-1445.3125,-30.4830,-30.2696,-110.6935,-67.5607,-33.1128,-117.9982,188.4035,141.7458,193.1221,146.2466,-105.5986,-2.2914,-28.6194,-75.4228,81.4839,76.4262,-213.7031,-250.5748,37.5790,39.2928
-1437.5000,-59.7676,-23.5730,0.9958,-96.7116,8.8470,-116.0300,-102.9277,33.9129,122.0069,38.3185,41.9563,-72.4363,42.0678,-109.5996,83.1726,41.3014,107.7602,0.3860,148.4121,114.9937
-1429.6875,-111.2917,-181.1115,-160.5656,-148.1133,-72.6455,-21.3152,139.4723,277.8192,254.6252,319.1211,-192.7127,-50.8404,-37.1579,58.9676,178.6047,100.9303,-471.9687,-260.8831,166.9883,63.4448
-1421.8750,-68.5203,-102.3612,-224.8088,-175.2195,-22.6210,25.6957,112.1573,104.0448,190.5418,71.2542,-37.0874,-150.9425,4.7481,-42.1600,78.3335,73.8587,28.5784,28.1232,104.8798,36.2072
-1414.0625,-85.5497,-155.4108,-25.8644,-157.1264,-19.2917,3.9113,-19.9332,118.4829,168.6653,159.5874,-58.2745,-99.8463,-22.9810,9.9143,19.2521,50.9834,-129.6797,-94.6725,157.9682,124.1661
-1406.2500,-114.9264,-114.7998,-200.2524,-116.3845,-50.9580,87.7763,246.5915,202.5548,215.4174,169.5541,-195.7867,-54.1026,-87.4382,56.6357,-8.1904,61.7494,-300.2453,-159.7877,57.7105,23.7896
-1398.4375,-74.5557,-5.4443,-49.9087,-111.8843,2.3273,54.4017,-80.1148,-14.5975,34.9244,-10.6921,27.4328,-85.6011,9.6254,-13.8811,-4.8832,28.2599,195.8805,91.8165,98.2128,64.1615
-1390.6250,-91.4318,-91.3313,-102.8227,-58.6423,-75.8951,74.7817,85.9308,226.9935,165.1772,304.7888,-135.5787,-30.3624,-66.5244,43.3394,15.1725,11.5136,-418.1926,-240.8021,151.4697,47.2766
-1382.8125,-67.0096,-31.9303,-186.4194,-102.1060,-40.7907,28.4647,113.2651,143.8911,155.7278,74.5879,-72.2849,-75.8307,-47.6908,-76.1391,-31.4753,76.0664,-76.9754,-40.1247,107.0412,37.6986
-1375.0000,-51.1509,-86.0883,44.4090,-157.1224,20.2797,-107.3842,-22.9155,45.2607,166.7377,121.8511,12.4334,-101.8559,22.3785,-138.1551,53.3199,50.0758,-61.3364,-128.9947,193.0579,158.5621
-1367.1875,-57.5975,-163.5397,-106.0528,-164.4445,8.2134,-110.5307,303.5768,188.3210,310.4297,228.8011,-139.1350,-105.1918,-9.8761,-142.4780,122.8079,45.7842,-349.9438,-277.1288,150.7816,81.1325
-1359.3750,37.3058,-102.6556,28.8313,-208.4210,69.8640,-194.3196,-1.5635,30.7621,115.4747,34.1434,106.6227,-189.1832,80.9252,-226.4444,74.6481,34.8429,237.7466,30.0541,141.8674,107.0576
-1351.5625,-20.8338,-161.8171,39.6615,-127.4556,-31.0416,-147.1583,-26.7482,226.1566,163.4690,303.4238,-65.6581,-105.2375,-22.2858,-68.4733,48.4331,82.8482,-243.5797,-239.7980,187.9003,117.9337
-1343.7500,-15.2801,-85.2920,-167.7850,-85.7975,-51.0468,-25.3044,57.7503,202.2509,138.1628,168.4157,-55.2274,-93.6006,-37.4252,-93.8067,-13.0830,58.5505,9.7985,-56.9493,124.6499,19.5263
-1335.9375,13.4072,-55.6251,4.8899,-126.9915,-12.8597,-34.2941,-135.5620,82.5240,55.0350,122.5862,82.3207,-102.8124,4.2228,-102.9806,-58.4402,11.4058,143.2773,7.0257,188.5488,83.2644
-1328.1250,-24.2207,-128.2467,-103.7397,-128.4866,-52.4704,40.4154,158.8075,268.4875,203.5935,307.4435,-136.4203,-102.3302,-72.0704,-29.4561,-22.0995,49.9608,-315.4883,-205.2703,187.1482,10.7103
-1320.3125,8.5431,-95.4728,2.0294,-201.5766,38.7701,36.5307,-29.4226,80.8710,52.5453,9.7328,42.2253,-179.4397,-1.2378,-105.5109,-98.3619,82.9220,244.0971,143.7990,184.1510,43.5667
-1312.5000,19.1152,-190.8939,84.5805,-190.8706,-4.2458,8.4506,-55.8420,127.0538,135.2928,202.8058,-22.3201,-133.7538,-31.9757,12.2340,-52.8284,54.6805,-132.4972,-91.3239,229.9515,89.2170
-1304.6875,-5.0123,-146.0217,-155.5450,-145.8729,-4.4065,99.6659,181.0173,107.5230,189.3313,73.1735,-79.5467,-153.7775,-25.6081,-6.7261,0.0075,-1.2649,-51.7646,24.8605,171.0642,-40.8208
-1296.8750,-9.8091,-115.8074,21.6595,-115.5236,58.2902,57.2451,-46.7375,-45.6299,72.7367,-43.0808,61.5447,-159.4501,33.1974,-13.3229,-43.8013,-117.8613,259.2660,231.3674,201.5265,-10.5091
-1289.0625,-88.2020,-159.1854,-56.7398,-52.7831,6.3388,126.2267,242.8900,171.6103,141.5246,210.0470,-200.9413,-54.7367,-72.5285,55.4750,-48.2234,-123.0543,-240.2469,-57.6930,158.3855,-88.7899
-1281.2500,-69.0878,0.9145,-109.6319,-33.5517,54.3089,73.7102,154.0069,-27.6340,51.8062,-136.2939,-69.9208,-70.5262,-25.3411,-70.2178,-101.1515,-138.7447,340.7112,243.7267,107.7558,-104.5559
-1273.4375,-103.6228,-68.6307,35.8043,-31.9709,52.3622,-38.4452,41.4923,-29.5155,50.4331,9.7169,-72.5537,-35.9707,0.0670,1.4429,7.2701,-104.0885,131.0213,103.5073,108.4662,-32.9751
-1265.6250,-92.4534,-22.4636,-170.0546,13.3056,-14.3273,14.1020,203.6376,60.2919,102.7395,-11.5750,-167.4597,16.2831,-49.2787,16.8025,22.3872,-50.7324,36.0704,45.0130,-21.1187,-127.6824
-1257.8125,-3.5959,101.3955,-7.2249,67.2874,14.6706,-43.6454,-148.4882,-180.1782,-66.2406,-178.1402,68.3098,32.2420,5.5200,-41.1284,-72.8012,-72.6736,476.7682,274.1869,-72.9929,-38.6943
-1250.0000,-31.6392,73.3649,-74.2760,145.3665,-67.8131,37.7005,5.4834,47.4269,-22.1312,85.3549,-108.7989,149.2937,-80.2863,76.0268,-65.8992,-65.5163,-115.3666,-34.5233,-100.7717,-31.6075
-1242.1875,-33.3202,177.6858,-183.9486,143.7989,-67.1199,111.3838,-68.2112,-62.6254,-95.6765,-134.7911,-71.5421,112.6978,-63.9004,76.5353,-65.6470,8.9794,270.8362,210.0942,-137.1956,-68.1584
-1234.3750,-97.2276,78.7654,40.1079,114.9845,-36.8375,78.8171,-211.1360,-58.9226,-127.4639,-20.1894,-31.5303,79.8553,-27.2216,116.7946,-25.6398,49.2226,171.7736,41.4470,11.1247,9.0307
-1226.5625,-70.5117,-0.5386,-39.2255,70.7663,-25.0719,146.8425,113.5122,83.3536,-60.6593,11.9866,-147.8792,36.6080,-60.9172,148.6464,-31.0355,43.0590,-83.6375,-108.5886,-67.9534,-70.1750
-1218.7500,92.7374,57.6946,128.9903,-10.8978,66.2676,21.4145,-122.2653,-187.7957,-185.2888,-260.2548,168.2996,-15.0818,55.0941,-13.9430,-83.8718,-45.5568,466.4427,125.8787,-45.4719,-11.8286
-1210.9375,101.3804,-39.6632,137.6010,32.8414,-0.7487,-6.6176,-3.6349,-32.5488,-67.5304,5.8930,29.8833,67.6238,5.1926,68.8566,-1.3107,-36.7829,-88.0322,-251.2347,-36.5965,-3.0846
-1203.1250,128.0756,92.0236,-16.7123,58.6235,-16.7039,-13.6073,26.0264,-113.2522,-37.7375,-183.8972,58.5334,59.3749,5.8998,24.7033,-8.7138,-6.9615,219.5511,-120.2969,-115.6580,-47.2813
-1195.3125,95.4840,95.4055,199.6592,61.1025,3.9396,-126.8920,-271.5797,-188.2432,-77.2357,-150.9785,128.8819,55.8190,43.4691,20.2482,23.5822,-10.4414,362.8135,-116.6798,-77.0177,96.2093
-1187.5000,81.8511,10.7426,40.9869,83.5235,-33.9697,-101.2316,9.7445,-53.3091,20.2075,-16.1416,-66.7923,81.2004,-16.2659,82.7317,85.8331,14.0254,-37.9107,-270.0827,-125.4268,47.6548
-1179.6875,131.4051,96.2631,92.5139,27.1446,38.6372,-160.3677,-158.7195,-258.1531,-111.1420,-294.0743,204.7112,21.7852,66.9335,60.4279,-10.7106,-8.2989,504.5179,60.6854,-180.6275,62.3018
-1171.8750,77.6508,41.4866,145.7263,79.4591,-14.3102,-143.7914,-105.4666,-131.2978,-21.7943,-20.3223,36.9098,112.0596,-7.5934,150.8339,5.4411,-27.9170,-42.3328,-168.8263,-129.1303,78.6363
-1164.0625,-9.2040,95.6132,-52.1418,97.6674,-2.2580,-84.3078,100.6599,-107.5479,75.4381,-142.6712,-12.9741,62.2265,20.8749,100.1412,102.4836,-41.6378,11.7300,-80.4218,-180.7243,-8.1193
-1156.2500,-24.0107,45.7841,76.0203,12.9291,44.6181,-138.7606,-138.1369,-198.7282,-17.2686,-161.9531,115.1738,5.4469,98.8084,44.5023,157.5854,-23.3236,243.8074,46.0143,-53.2647,83.1723
-1148.4375,-29.0565,-64.2806,-74.0589,7.9383,-35.2596,4.5321,115.7941,54.8160,15.7595,92.4864,-144.8986,39.4102,-27.4250,151.5956,117.4322,46.7308,-253.2952,-203.7650,-59.0539,43.2200
-1140.6250,-4.7025,66.0506,-84.7256,33.3489,-5.7515,31.2201,-78.8816,-101.2311,-103.8195,-174.6490,27.4238,28.7821,19.2289,105.0981,32.6666,-0.8130,262.9757,136.8313,-103.4347,32.6738
-1132.8125,-77.2458,62.4841,19.7007,99.8597,-44.5325,63.0068,-157.4336,-33.1818,-109.2985,40.2972,-51.1554,134.2542,-11.0495,172.6978,63.9963,-42.2670,-91.6322,-42.4718,-37.7194,64.2176
-1125.0000,-126.3402,120.3735,-207.3886,157.8205,-100.6338,166.2257,54.4445,106.2854,-44.3362,69.6699,-205.2678,126.1678,-89.5421,202.7318,19.7815,-13.2787,-175.7433,-54.3208,-49.5509,-53.7764
-1117.1875,-101.8848,143.8085,-38.9310,76.3323,-47.7522,78.9934,-216.1037,-17.6821,-94.8200,-17.3873,37.1532,38.6397,-7.2398,78.3327,-31.8801,-27.7273,200.6471,75.3375,115.1566,5.7811
-1109.3750,-22.9154,-23.2393,-26.9847,14.3481,-64.8983,17.2667,51.8284,141.8294,100.1723,179.0196,-61.8966,49.6113,-39.3448,89.4451,16.9450,-52.6756,-283.4074,-267.4772,159.3488,-56.1568
-1101.5625,70.7031,-0.6425,-1.3845,-32.9825,24.0420,-29.8052,41.3983,-52.0115,52.8061,-88.9055,111.7051,-70.7601,47.0093,-30.7776,5.4223,-62.9819,161.1654,36.3407,41.1976,-103.4369
-1093.7500,34.1642,-37.1926,140.0524,-34.4623,17.3440,-73.0208,-111.1460,-20.9957,10.2946,53.0150,105.1411,-40.2844,61.7885,-0.1497,73.7534,-32.4483,-86.4221,-69.9969,110.8888,1.1232
-1085.9375,-52.7816,-18.1468,-58.8823,19.6552,-25.4414,-13.6428,130.8823,148.5979,32.3635,111.5181,-93.8008,18.7837,-20.9966,95.0666,57.6873,26.6821,-313.3602,-121.7102,24.1797,-50.7045
-1078.1250,-21.2816,84.3216,45.6217,-18.7812,30.3256,-56.8107,-168.6173,-77.3354,-84.1071,-113.4976,120.6862,-24.6950,43.8487,15.7472,-21.9229,-16.7340,211.1002,227.9941,56.9262,16.9213
-1070.3125,-69.3303,-34.7629,32.5596,4.2267,11.5661,-32.5267,75.3299,57.1670,49.8695,93.9115,-112.3646,36.2702,-22.5054,76.8748,38.9094,-66.6948,-293.9349,-31.8227,79.1187,3.9949
-1062.5000,-32.7840,71.7543,-73.8874,4.8334,47.3743,-27.6521,152.8587,-48.7451,17.4392,-86.0816,-34.8104,-33.1628,8.3617,-29.3928,6.3424,-62.0579,57.6408,180.9604,-25.0776,-65.3221
-1054.6875,6.8111,41.3304,110.7045,44.4890,37.2973,-63.7248,-103.5339,-47.6058,-55.9316,-11.0306,76.7801,4.4530,30.4285,-28.6053,-30.1694,-61.3726,97.2479,114.7823,14.7722,9.4017
-1046.8750,8.0629,42.5657,-68.0338,80.7902,-50.7877,51.8509,121.6899,105.1529,59.3296,104.6367,-65.9544,82.7136,-35.9589,49.8296,11.9661,-19.0393,-287.4352,-164.7122,-18.7245,-59.2187
-1039.0625,49.5119,118.9935,47.4264,17.2925,7.1764,57.6304,-130.8754,-109.8748,-46.2021,-146.4703,159.4955,14.1786,48.4309,18.4748,-20.6917,-14.5064,246.0361,87.9620,-48.0164,-17.6353
-1031.2500,-25.7759,9.6797,78.1174,48.0395,-31.8959,51.6532,-27.1789,68.3347,-15.4834,140.6448,-30.7875,44.8839,-19.8705,122.3661,9.9011,16.2697,-250.2087,-197.0958,18.9361,13.1952
-1023.4375,32.0905,66.5151,-81.0243,69.9334,-42.7917,113.8167,35.6419,93.6781,-100.6207,19.9100,-41.9062,33.7388,-36.4032,111.4047,-38.3582,42.1903,-17.2862,-34.0021,-99.9579,-34.8104
-1015.6250,26.4908,96.8943,93.3731,65.3760,-19.5377,67.5352,-267.9559,10.5850,-219.1920,9.7350,95.4999,60.1460,1.6858,139.0011,-84.0591,-5.3381,153.1579,101.6158,-34.3079,65.7271
-1007.8125,5.2942,39.6827,-72.8014,113.2141,-78.5546,122.6427,43.8305,139.8542,-92.3787,138.9150,-107.6688,114.9442,-84.2745,230.9817,-67.3633,13.5266,-289.9221,-131.3399,-56.2676,-26.3308
-1000.0000,27.6541,133.0187,-11.4026,65.6048,47.8659,37.2849,-5.8222,-129.3341,-177.0194,-203.3505,63.7141,-7.6981,29.6744,34.5153,-43.1172,-36.0623,295.5235,208.2216,-68.6838,-38.8310
-992.1875,-113.4228,-10.0761,57.5270,29.5509,59.9708,-4.5268,63.0892,-23.9842,-108.1181,11.9069,-87.3475,24.2152,31.7385,29.5979,99.6750,-77.1049,-93.4538,-4.6558,36.4316,30.2109
-984.3750,-104.3973,0.9373,-185.4277,4.5957,52.5836,46.7570,297.0719,27.4451,-59.1291,-10.7442,-147.2884,-35.7778,29.6636,-30.2211,149.5633,-64.0480,-118.2960,76.5821,-23.3454,-29.6401
-976.5625,-36.2766,-1.9632,-8.2930,-102.2610,91.7222,-68.8554,-2.8119,-51.0112,-137.0245,-52.2807,67.8535,-113.6761,83.9549,-107.9334,70.5601,-32.8908,160.9195,285.8909,44.9847,38.6012
-968.7500,-76.0441,-146.7607,-83.0479,-108.0321,16.6909,3.6292,217.3926,205.6011,8.1696,241.2399,-153.8738,-79.4898,-18.7084,0.4387,68.6587,3.3600,-405.6866,0.3282,75.4120,-36.0564
-960.9375,-56.5104,-57.2659,-62.4807,-124.5057,90.2885,24.4030,163.8854,42.5050,-82.3349,-32.9360,-23.2974,-168.9993,38.4315,-52.8850,16.0670,23.9084,140.9935,265.0464,-10.8595,-52.4050
-953.1250,-74.5260,-109.3180,99.5242,-105.5286,69.4623,1.6317,30.8474,56.8540,-140.3878,129.3256,-46.2783,-81.0618,9.9169,35.2415,-7.0685,37.9085,-17.8678,72.2213,6.3080,35.6860
-945.3125,-39.0873,-110.9136,-80.0031,-71.1049,7.0472,80.3022,183.2309,172.6232,-63.0021,134.0113,-114.7827,-76.6788,-30.5094,76.8129,-1.7531,79.3550,-123.2229,1.8710,-63.0749,-69.7652
-937.5000,113.3557,-27.5138,114.4684,-94.6735,54.2663,17.9684,-173.3672,-74.5987,-161.6080,-112.2901,190.7011,-103.2878,63.9706,-22.6051,-65.4325,16.7944,382.3789,225.4899,-15.4624,-22.2199
-929.6875,107.7101,-69.1967,145.8462,5.6541,10.1151,12.5259,3.9248,68.0483,-58.3255,66.2656,1.1116,38.9949,-8.2942,45.8634,-34.2148,-25.8701,-185.0550,-96.9588,-56.9625,-27.7751
-921.8750,103.9642,103.0149,68.1524,71.8812,34.6434,8.9770,-36.9017,-119.4219,-135.1479,-194.2802,107.4280,35.1761,24.3943,5.2366,-75.0936,-29.6318,197.4083,110.4871,-130.5613,-31.4165
-914.0625,32.5660,67.5764,172.7929,71.4594,14.3769,-33.2143,-225.3521,-124.5418,-140.6151,-52.4838,102.0800,65.7083,21.7874,35.9704,-43.6203,0.9574,91.2134,39.2756,-25.8186,73.2848
-906.2500,4.6716,38.6475,-73.0527,77.5372,-53.3436,52.0882,42.6711,106.8051,-19.5946,68.7754,-107.7377,76.7397,-64.1176,84.1970,-32.6544,13.0379,-182.4092,-23.4072,-89.5716,-25.5115
-898.4375,31.6741,65.6140,65.0008,-0.4812,44.9163,5.2847,-150.3888,-121.9461,-102.6584,-198.0520,140.3292,-6.3212,51.3306,-35.6675,-42.7797,3.0181,371.8335,249.7760,-97.4202,1.5873
-890.6250,20.0835,-52.0035,124.4523,22.9026,19.3229,-8.1224,18.9582,-26.3284,-43.3242,45.4735,-20.1894,17.0124,3.9093,24.8559,17.5021,-10.6075,-167.4669,-148.6164,-38.8887,25.0798
-882.8125,71.5022,35.3791,-39.0691,4.2878,18.9974,-24.5430,112.2794,-79.7364,-23.0010,-118.0151,73.3122,-36.6497,30.8765,-65.6273,0.7854,-27.2448,60.2555,-61.9966,-92.3633,-28.4167
-875.0000,51.3793,-20.7815,82.8556,-51.8694,21.8207,-85.5118,-95.9253,-103.6972,-12.2276,-33.0570,158.2571,-61.8536,72.4382,-89.6557,48.5046,-16.4359,110.4129,-80.9378,-7.3991,56.5243
-867.1875,-0.9714,-73.1792,-116.4476,-34.2773,-70.4240,8.2618,144.5885,137.0487,156.2795,171.5995,-78.0020,-41.3162,-32.2137,4.0499,69.9626,42.1215,-363.6027,-274.0924,-59.6936,4.2131
-859.3750,19.4380,18.1672,-95.9763,-47.9364,-39.1908,64.7805,-166.1455,-62.4576,-44.4614,-138.9850,126.4874,-58.0228,48.0505,-13.4922,52.1777,61.4264,221.1044,63.4723,-108.2405,60.6525
-851.5625,-19.1477,-54.4758,7.4913,-16.5913,-61.1745,59.2964,-134.8751,5.0240,22.7905,38.4062,9.9819,9.2672,-6.4565,91.9621,46.3945,55.7348,-169.1502,-150.9469,-40.8065,92.0869
-843.7500,49.1668,-22.2125,-98.1158,16.6571,-44.4256,137.7033,52.2587,-27.6204,27.9255,-104.3253,15.3988,14.4635,-3.4800,23.3146,14.5112,23.9407,4.5361,-83.4510,-149.4745,-50.5664
-835.9375,104.8304,68.4021,104.6137,37.2649,-4.4060,46.4626,-222.2285,-191.9185,-100.5795,-157.7072,181.1532,-3.9803,55.2205,5.0263,-4.0150,5.4938,236.5424,43.3795,-93.8034,5.1228
-828.1250,9.8065,-26.6728,-28.3451,47.1659,-65.6918,96.5101,47.5681,78.0462,23.2118,112.1653,-99.7643,45.8605,-41.9111,92.0215,45.7598,19.3456,-315.0753,-191.4476,-47.8379,-54.8902
-820.3125,-21.6178,11.8396,-24.6861,-19.3414,12.5332,27.1477,-22.0419,-65.3898,-10.3833,-105.3521,50.9176,-60.6963,15.8712,-51.3822,-23.8582,58.7983,215.8855,128.3069,-80.2650,-51.2993
-812.5000,-24.8861,-96.4898,190.1127,-57.6973,45.5076,-53.0640,-28.4826,2.3064,20.1764,73.2541,45.7483,-67.1055,18.3907,-57.6401,-30.3241,53.3966,-102.9742,-50.7820,-47.5552,16.4327
-804.6875,39.8063,-31.8600,39.8905,-28.1003,39.7200,-55.3443,189.9919,36.9118,53.6680,-3.2313,-30.4334,-32.5629,3.1157,-96.9597,4.1662,13.9372,-143.8237,-55.8983,-123.9039,-59.8746
-796.8750,42.3539,40.6200,186.5229,-26.6487,108.3242,-165.7753,-69.6618,-221.6328,-57.9865,-187.8600,152.2250,-34.1621,97.9170,-170.4270,39.5154,-61.6735,211.1357,156.8122,-16.4205,12.6656
-789.0625,-10.5850,-47.3879,96.6605,26.2971,63.7380,-72.7142,209.1679,-17.7082,72.8444,15.9680,-47.5871,23.7284,36.5917,-77.4071,96.3661,-77.7889,-368.3372,-106.9330,-33.4507,-40.2962
-781.2500,123.9274,51.0431,18.2638,19.6901,79.7268,-3.2088,130.4410,-169.3504,-41.8713,-245.7564,132.0559,-17.9312,80.4214,-118.9360,17.6709,-119.4603,117.6435,133.7633,-111.0238,-81.8036
-773.4375,152.3382,-25.6138,154.7576,13.9922,48.4804,-14.8115,-101.3562,-143.1086,-125.6783,-73.6094,194.5941,7.3148,71.0775,-56.5663,-30.1263,-93.2399,6.5403,57.3633,-46.7079,17.5756
-765.6250,79.2103,7.1966,-28.2610,45.7511,-6.3092,59.0207,119.2646,3.5333,-90.0527,-0.0634,-25.3828,44.0171,-31.9875,54.2294,-66.4823,-56.5810,-242.0324,-15.5518,-48.9518,-55.5925
-757.8125,59.8442,57.7563,59.4818,-8.7253,44.5799,-0.4037,-124.3530,-166.0853,-112.6778,-169.7676,172.3836,-15.5158,42.8310,-79.2209,-90.0847,30.8254,231.1188,246.2633,1.5374,-5.0147
-750.0000,-33.9046,-71.0680,34.8343,3.4000,-22.7071,-62.2327,34.6194,28.8642,119.2829,135.0796,-36.2235,33.5451,-18.5483,-30.0809,32.9073,115.8274,-354.0648,-127.2836,48.6042,7.1572
-742.1875,11.1104,8.8559,-102.0344,-58.7298,-9.1941,-51.3285,81.3162,2.5350,129.9870,-38.3376,11.9494,-66.6429,7.5926,-93.1934,43.6587,163.5708,-63.4811,56.9209,-12.5790,-18.9118
-734.3750,34.4324,-71.9179,66.3844,-68.5568,0.2927,-103.1243,-191.6615,-49.5024,40.0054,18.5279,143.4147,-45.5283,48.6874,-71.0073,26.7208,110.6107,-3.6084,81.4202,81.5232,75.3102
-726.5625,38.5036,-33.9249,-109.4293,4.3649,-55.9950,-22.1795,73.0770,104.1656,121.7634,100.0935,-69.3434,36.3339,-35.6072,-27.0857,35.5382,45.4113,-244.9083,-56.2917,14.3636,-26.7127
-718.7500,66.3190,98.8148,29.5194,32.0450,35.3705,-68.4915,-119.4310,-161.4239,-34.7171,-202.5880,142.6348,26.9537,42.4622,-109.4071,-47.8866,-1.0368,381.5107,218.7285,-29.0483,1.0179
-710.9375,47.2465,8.6655,117.5645,82.8255,12.5496,-126.7034,-32.8364,-73.9449,52.9017,-6.2180,9.7305,77.6732,13.3061,-58.6413,39.7920,12.6043,-59.9164,-117.1178,-13.3820,51.8438
-703.1250,80.3325,77.6700,-65.2171,80.7563,4.4942,-125.7774,115.8830,-110.3518,54.6657,-150.7238,11.9969,78.5418,11.2039,-94.7314,41.6274,51.3882,114.8382,-48.7955,-120.5654,-20.1740
-695.3125,57.6669,124.9219,128.2417,57.9387,36.7041,-153.6001,-169.1207,-211.5041,-47.3078,-179.9767,131.5012,87.6654,53.3552,-121.5718,12.7176,-14.5794,268.8206,69.7635,-38.5127,62.0469
-687.5000,-36.5356,30.6434,-39.8326,68.5726,-39.6200,9.0118,103.2973,60.7503,42.1533,92.1679,-146.5069,103.2353,-53.7044,4.0209,29.2500,-35.0996,-246.6579,-164.1889,7.9795,-32.2787
-679.6875,34.5692,66.6675,0.4115,-0.4868,26.7765,47.9139,-40.9922,-84.7100,-66.0839,-162.3960,76.7893,-3.8774,2.7554,-67.0786,-115.9158,-69.3282,318.1503,188.1397,8.7663,-66.2996
-671.8750,64.0827,-79.8933,140.0491,-41.1344,1.5353,77.2119,-48.8680,-18.7983,0.0752,50.4025,33.4919,25.4138,-42.8034,-0.7802,-159.6817,-40.1632,-38.6047,-64.1079,107.9266,-36.9329
-664.0625,49.7020,-59.3417,-55.1848,-56.6767,-5.8568,102.5981,196.3157,42.1696,98.3230,0.2635,-51.6794,-60.1950,-38.0960,-13.3917,-61.3436,-15.8969,-53.2035,-113.2273,93.1798,-122.4592
-656.2500,31.6688,-77.4436,103.9244,-109.8576,61.9898,-32.6704,-86.1298,-128.5140,-0.0599,-97.5289,107.4825,-85.4466,64.1798,-74.6562,24.3556,-3.2797,246.5255,79.9862,180.7710,0.3592
-648.4375,-34.3562,-177.5274,-73.9545,-106.0422,-15.1055,-26.9523,177.4058,95.7610,189.5486,127.6278,-143.3228,-5.7032,-36.7514,5.0562,66.0534,2.3335,-275.6608,-160.7512,219.3456,-30.8246
-640.6250,4.0815,-69.1604,-140.3590,-66.7722,17.3905,-19.7929,110.3731,-81.5275,122.6070,-123.7692,10.3361,-72.5024,-3.0693,-61.7844,-36.7954,-27.6064,220.5997,158.9487,152.3620,-97.5560
-632.8125,19.4336,-53.8835,21.1283,-16.5959,-2.0432,-6.7360,-23.7444,-68.9350,61.5680,36.7051,24.9001,14.6042,-15.8675,-11.7298,-60.7423,-88.6507,25.7813,33.5602,132.2567,-47.4019
-625.0000,-1.8035,-5.1928,-106.9503,32.9870,-38.5040,85.7061,178.4983,60.0070,80.9118,54.5271,-103.0966,33.1124,-72.7465,43.7118,-78.2917,-69.3002,-170.5565,-22.3980,-30.4551,-138.8435
-617.1875,26.3179,57.8447,28.3374,24.9243,-5.6546,36.4853,-164.8887,-100.7108,-116.3863,-106.3010,68.2477,20.9779,-18.7403,-42.4926,-128.4878,-8.6027,245.4305,216.9667,-37.8295,-40.9403
-609.3750,-83.6938,-51.2586,-12.5114,20.7098,-51.0819,32.0989,50.5680,115.3818,-9.8367,183.6636,-155.5271,52.6824,-87.7963,-9.8691,-58.8334,59.9390,-284.6529,-138.7812,27.6306,-45.1916
-601.5625,24.5013,20.8372,-45.1308,-12.3055,25.0599,-38.1065,128.1996,-102.3493,29.9150,-181.1819,31.9138,-16.4078,13.4486,-117.0554,-17.9739,-9.3207,140.4814,-30.3314,-5.7127,-78.2350
-593.7500,133.6508,-46.1088,174.1848,-44.3663,49.7364,-112.3632,-94.2030,-214.1365,-8.3674,-183.0933,178.3033,18.4556,62.9188,-117.2959,-20.1574,-84.6297,179.5665,-95.9324,67.8769,30.6621
-585.9375,93.5158,-50.3357,-10.7764,-13.7226,-4.9509,-41.9373,161.0589,-70.2731,100.0345,-76.3601,-43.5664,17.0179,-18.2542,-46.8566,15.3578,-50.2425,-140.5659,-206.7894,27.1532,-44.7355
-578.1250,34.2345,65.2837,108.1199,-39.2213,70.4095,-106.6678,-88.8223,-245.5666,-1.7024,-251.7742,149.4075,-11.5557,76.4161,-111.5647,23.7290,-42.0056,364.1186,120.1913,2.2654,0.7142
-570.3125,-36.6893,-4.7282,108.3665,31.6375,-14.9075,-71.0540,-15.3579,-26.5438,71.9109,78.1142,-34.2547,98.2198,-17.2778,-1.9354,23.4529,-5.4185,-197.7831,-195.4382,36.7062,0.5000
-562.5000,24.1890,91.0656,-7.5582,92.3022,-18.0908,-40.6525,50.8763,-70.7493,64.3219,-114.2161,32.9022,54.7996,-30.0406,-45.5136,-94.0153,23.9665,74.1475,-64.2557,-44.0613,-79.9111
-554.6875,133.2180,94.0139,246.6600,95.1214,14.6535,-117.1026,-245.7166,-184.8068,-49.1008,-154.4085,177.1964,51.5369,13.6378,-84.9425,-133.3305,-16.5057,219.2222,-59.9271,-6.6923,63.8184
-546.8750,152.7585,78.4774,84.3972,114.4375,-33.7052,-133.0670,31.1622,-54.4137,44.9609,-25.1603,15.0275,145.7687,-32.4360,-28.8926,-40.1436,-32.4894,-146.1058,-322.0473,-57.8298,48.0493
-539.0625,194.7530,225.3839,126.6035,121.2076,8.4848,-165.5918,-220.5064,-270.5887,-96.5233,-277.4706,204.3103,114.4571,60.7267,-133.3946,1.4993,8.9731,389.0057,-32.7258,-121.5207,89.7275
-531.2500,88.1132,118.6527,122.1609,155.3328,-42.5250,-206.7678,-188.8136,-92.4458,-27.6598,11.5232,53.9583,183.4879,0.9278,-64.5586,34.4878,77.7794,-67.4794,-245.0209,-17.8824,158.7392
-523.4375,30.8847,97.3257,-78.8476,132.8549,-41.5581,-115.5582,48.2465,-38.9362,62.5965,-46.1068,-37.9611,90.9175,-18.3358,-47.3363,51.8749,132.9783,-52.5120,-160.8945,-74.8509,66.1525
-515.6250,5.8098,70.1494,109.2898,35.5389,24.0134,-111.1970,-166.5253,-108.2745,-4.9806,-78.5947,77.2563,22.5082,47.0576,-78.9618,56.4183,100.3279,167.5840,-11.6332,3.3127,144.7061
-507.8125,-91.8509,-60.6011,-25.1588,-26.3698,-38.1508,46.5528,101.0694,122.7380,115.8303,188.2581,-167.0905,33.5006,-40.1462,78.7944,105.3555,112.0809,-420.8310,-248.9250,44.8542,82.6605
-500.0000,-61.2083,-66.0439,-28.2857,-135.9670,42.0397,117.5837,23.9502,8.0325,-35.0547,0.4024,-23.1324,-152.1897,22.2400,1.8438,28.5981,72.1297,139.0468,99.0714,75.6851,42.9235
-492.1875,-123.6583,-233.5714,51.4794,-198.6564,42.0152,122.5007,-8.2549,160.2026,-29.0308,225.4125,-89.2682,-146.9733,4.7646,43.7837,33.7472,40.0715,-98.1450,35.9824,152.3948,85.0767
-484.3750,-190.3961,-195.3863,-196.0204,-159.6403,11.5903,204.1048,257.2010,241.0263,52.6760,196.0816,-264.6664,-139.0611,-46.6020,88.4147,78.5960,84.6996,-233.5646,110.6278,14.7956,-17.0673
-476.5625,-197.3247,-61.4059,-97.7148,-132.8177,40.9980,190.5052,-85.5267,42.6478,-106.8055,-38.4537,-92.2720,-114.3437,32.3881,38.8500,103.2496,72.1236,111.7963,385.0568,5.9849,80.5775
-468.7500,-212.7860,-112.9611,-186.9456,-43.5454,-23.4867,174.3486,118.1855,172.6756,-13.8440,164.4033,-291.3958,-21.1822,-66.5650,133.7167,87.3509,55.9901,-394.3082,123.9754,60.6059,64.6658
-460.9375,-129.4462,-30.7141,-170.3571,-66.4671,58.8749,115.9830,132.6740,-33.5110,-35.0795,-150.9409,-127.7092,-79.2092,-2.6114,1.3746,29.2560,34.6589,111.3927,383.6920,-33.9813,6.5610
-453.1250,-99.9028,-35.2513,41.4154,-36.1767,46.5912,33.8157,-95.6266,-78.5008,-79.1050,-51.1022,-25.8280,-50.0252,16.9196,29.2309,20.3604,62.5332,72.2981,237.6201,-4.3926,71.6472
-445.3125,-89.9530,-24.3701,-90.3873,9.5213,-4.6164,49.0295,138.4277,44.8659,8.2588,36.0946,-156.5115,38.5564,-41.8012,80.4685,35.8662,40.8076,-125.3192,37.9846,-100.4138,-23.8579
-437.5000,2.1931,102.7083,78.0130,31.4241,50.3844,-42.5663,-172.3074,-156.5667,-118.1559,-202.5024,83.9911,21.3484,40.5435,-10.0960,-18.4136,-13.7128,389.2307,271.5237,-79.2440,32.8391
-429.6875,-73.0508,62.4012,110.0110,95.9267,-19.6128,-84.5729,-32.4562,56.5698,59.0342,120.4557,-140.8861,125.7344,-55.0776,57.9249,12.9118,-19.6293,-176.5497,-120.3007,-15.4990,27.1333
-421.8750,18.6640,154.0501,-50.0140,46.3820,-33.7471,-61.6455,28.3104,5.6316,82.1661,-77.6554,-43.7837,76.0742,-45.2941,-29.1088,-36.8130,41.4028,126.6473,-29.1621,-100.8148,-22.6116
-414.0625,15.5375,79.8551,88.1001,7.9937,-48.6353,-70.5717,-275.7563,-41.1645,35.4603,-14.6306,94.4643,66.5726,2.3650,-1.9927,-9.3793,67.5842,160.9848,-65.8752,-32.9986,114.7860
-406.2500,-79.5771,-16.3268,-155.7666,-18.3921,-108.3428,13.4862,29.1503,188.9925,194.7426,179.3411,-149.2505,42.0671,-69.8302,120.0996,76.0541,79.7568,-250.5914,-196.5424,-61.1894,53.1870
-398.4375,-89.9912,44.1894,-128.9184,-29.0758,-40.4146,39.2285,-128.2350,-7.1545,73.7365,-53.9778,23.7291,-42.7306,15.6585,71.8912,65.1951,31.6244,268.5106,144.4657,-106.6837,42.2875
-390.6250,-137.9937,-73.8815,-67.6744,-6.3572,-66.0823,100.3630,-32.2122,163.0796,98.1307,190.0663,-133.8772,18.8679,-47.4309,132.0631,52.7321,18.8912,-198.9387,-77.0989,-15.7964,29.7799
-382.8125,-76.7355,-47.6938,-146.1474,-50.3906,-11.7424,131.7272,183.0251,120.5322,92.7662,36.3385,-139.2017,-59.2846,-51.8394,53.4718,-25.4820,-22.5940,-31.1015,53.6094,9.3373,-85.4674
-375.0000,-27.6198,-68.6545,87.2250,-71.5643,56.3916,31.9381,-63.8676,-54.1676,30.2678,-64.5443,57.3180,-85.5791,14.1204,-9.2772,-88.8383,-86.2336,266.5597,174.1612,58.2994,-0.8726
-367.1875,-38.1453,-80.2472,-33.0371,22.6120,-5.1673,57.4850,183.5604,81.4427,167.1134,70.8769,-99.7785,15.4699,-53.7901,53.3055,-61.8434,-96.5340,-165.3464,-82.8865,-24.3973,-47.9267
-359.3750,102.6694,96.5056,42.0585,23.1420,69.2435,-52.6241,-0.6673,-212.5938,-16.6815,-297.3394,159.4622,15.8779,66.9251,-56.7644,-24.4898,-96.4838,400.0796,200.4067,-130.7379,-47.6259
-351.5625,136.1372,59.9206,183.7872,91.3276,41.0508,-131.0867,-117.2332,-145.9937,-95.8105,-120.9369,154.3544,83.9357,76.0094,-63.1961,43.5097,-65.7840,83.1951,-47.6204,-63.4428,20.3131
-343.7500,126.2104,119.9426,-43.8530,116.1171,-2.9109,-103.9628,57.7645,-45.8281,-67.3376,-93.9673,37.8727,75.5910,23.0630,-71.0455,35.1067,-73.4869,108.9774,-22.0162,-110.5522,-61.1426
-335.9375,105.3351,134.0104,115.5569,94.9643,51.4324,-128.7861,-225.1695,-182.6112,-165.7969,-193.9486,196.4286,50.3021,77.8904,-96.8463,-27.2366,-135.1380,477.7800,203.6213,-26.6268,23.4462
-328.1250,-2.0310,96.5965,6.4709,163.3120,-22.9057,-56.1106,31.3762,0.0689,-18.7689,24.5237,-22.4850,161.5075,-9.5360,13.8321,10.9181,-172.2872,-119.8434,-114.1910,-29.2200,-49.4667
-320.3125,43.4062,177.9767,-15.7941,103.4582,38.6765,-6.6462,44.7112,-135.4623,-78.9327,-257.2060,102.4136,64.5165,36.6337,-10.6891,-49.1197,-159.6484,278.3268,143.7924,-90.0148,-109.5755
-312.5000,-12.1503,16.3651,141.9307,11.6134,27.1532,40.8151,-92.9338,-53.0044,-106.0882,-27.9564,40.3088,1.5291,-0.3510,72.7863,-76.1578,-39.0133,48.5122,52.7822,-6.8302,-25.6958
-304.6875,-65.8963,-72.4304,-91.5164,-42.4292,-7.2269,173.0576,187.1756,79.2197,27.5337,30.0574,-119.9611,-49.6588,-42.4049,169.0466,-16.4003,-53.5745,-144.4246,34.6046,-26.8576,-150.0082
-296.8750,-58.5323,39.8715,24.1414,-35.3622,58.0940,141.3939,-65.6093,-138.4539,-77.7353,-187.8209,69.8615,-80.7390,49.3653,63.4079,-11.5389,-122.0315,322.7086,324.5075,-20.7969,-108.2238
-289.0625,-84.1567,-20.8127,-76.1980,43.7046,-35.4736,149.7217,89.5975,52.8420,40.9950,114.2566,-104.2910,38.1746,-30.2782,108.7488,34.3205,-113.4940,-229.0869,-17.5481,-12.7498,-99.4446
-281.2500,-20.4766,78.8027,-154.2156,38.0720,-3.9219,107.3376,84.0848,9.4276,-0.9751,-113.3665,38.8698,-40.6101,9.0703,-7.6186,-44.5141,-118.6579,188.4295,187.6972,-55.4043,-141.3587
-273.4375,46.5561,4.7730,95.1065,-1.2046,6.2758,24.3023,-219.0598,-37.6326,-83.5812,-50.6413,141.3730,-12.0403,36.7208,-16.6377,-52.9942,-54.4666,222.2872,185.2839,-24.7196,-39.9327
-265.6250,-2.5096,-9.3377,-24.6527,19.4204,-31.9594,49.1567,25.6506,97.1797,15.7058,46.9506,-52.1905,13.4284,-22.8004,45.2287,9.4250,7.6208,-106.8838,30.8094,-75.1387,-124.6026
-257.8125,-2.9252,95.1927,81.2476,18.6989,53.5615,7.6610,-163.9808,-130.3553,-62.3422,-216.7990,127.8852,-27.4436,69.3267,-70.2476,5.4960,-33.6470,387.5570,311.9700,-76.9092,-55.6234
-250.0000,-72.9802,-9.9137,42.4954,54.3307,-18.1614,-33.4884,-57.2581,49.4355,81.9632,108.7599,-57.6731,6.0279,0.0155,-0.3898,75.9110,-0.5699,-137.6019,-38.4795,-7.3425,14.6971
-242.1875,-11.0827,51.9349,-111.2799,9.9151,-3.9307,-41.7005,81.3907,39.1519,110.2131,-47.7456,8.7369,-38.5466,24.7311,-45.5908,67.2768,-8.5449,30.2157,59.0340,-52.8276,-30.0265
-234.3750,66.4639,24.4425,112.5802,-51.8401,41.2253,-149.2659,-173.2867,-69.4773,39.1319,-83.6023,196.7775,-35.4623,73.7135,-116.1379,-3.6940,-6.8670,216.6581,102.1850,59.3178,82.8914
-226.5625,63.8659,-49.1811,-70.7029,-21.7361,-36.7409,-113.9902,118.8500,111.7117,222.8870,134.3536,12.6974,0.4713,-5.9190,-81.8521,33.1850,-7.3417,-276.9724,-180.7688,89.3004,8.6647
-218.7500,96.1668,89.0891,-37.0823,-24.7294,26.3669,-153.8221,-32.1206,-77.1865,108.5529,-164.7716,194.5121,-39.6870,66.4018,-157.6627,-7.0310,-10.9140,249.2705,133.1531,50.1865,5.3445
-210.9375,20.0187,-22.0800,30.0717,4.8284,-0.2417,-125.1084,-3.5299,24.4541,64.7785,82.6289,40.8784,26.7001,14.8624,-19.9320,22.3030,-18.9346,-104.8983,-82.3527,78.6136,34.5646
-203.1250,19.8247,12.7074,-112.7917,4.3407,4.6513,23.5424,182.9825,26.0140,104.9437,-62.0490,-27.7777,-42.9567,-9.8083,19.7392,-10.4175,-52.0123,-34.0653,23.1092,5.9892,-72.2605
-195.3125,77.1904,-0.9506,127.8947,-44.5833,63.3212,4.7410,-129.9341,-176.8724,12.6704,-192.1708,212.1071,-62.0512,70.0522,-73.0385,-66.5863,-34.5442,307.2854,151.0998,61.8932,19.4564
-187.5000,72.8649,-75.2826,51.8875,-13.1982,-5.5278,1.2328,49.4192,37.5135,82.6886,58.9706,26.3165,-27.8459,-6.8240,-2.5351,-32.4657,-0.7809,-151.9896,-133.5650,56.0831,-20.5274
-179.6875,136.7309,59.5827,46.0915,15.3899,31.2646,-43.0808,-105.0440,-117.8951,-34.0811,-170.6686,167.7206,-34.4357,42.1711,-120.8336,-76.1387,-7.8133,370.9174,176.9602,-21.5171,-27.3070
-171.8750,74.2477,31.1011,160.9245,21.6291,8.1984,-40.7471,-211.8364,-42.6493,-31.1825,15.3337,98.7719,5.6202,21.8087,-44.4888,-36.1529,-5.1928,133.4839,44.1418,19.5223,49.5512
-164.0625,48.2203,41.0773,-45.7744,66.3209,-43.0034,10.0235,20.7887,80.0250,56.1544,63.7632,-33.6986,20.1264,-45.1448,6.2962,-58.7156,8.8736,75.5512,-51.2080,-42.9895,-47.1328
-156.2500,98.6453,126.5010,150.9686,46.4694,8.9902,-53.7525,-298.1245,-94.8317,-79.0539,-111.3355,236.2636,-5.9083,42.8569,-57.4541,-119.8255,-17.6088,515.0229,105.8705,-65.0626,37.6306
-148.4375,92.9751,49.8393,106.6138,110.5234,-53.5567,-97.6298,-123.1544,80.1951,22.6262,136.4364,9.1419,96.9494,-51.1017,7.6784,-91.0416,-26.1872,-51.5413,-180.1111,-72.2512,66.2942
-140.6250,108.4044,171.2719,-22.6146,125.6739,-16.8965,-118.4181,-108.1064,-89.6809,2.4080,-142.6800,100.1299,76.9089,11.5337,-122.0965,-39.1544,-9.6640,281.9930,80.9969,-127.3344,46.0674
-132.8125,47.1891,110.0512,93.4943,99.1734,3.2403,-186.8599,-212.6843,-121.1977,-27.4432,-29.4460,106.4577,82.2158,53.7486,-80.5251,77.0857,32.2184,152.8666,21.4468,-49.0744,125.1805
-125.0000,18.3779,11.2410,-40.9845,0.0636,15.5363,-139.9219,164.1137,70.6627,56.1050,90.1678,-27.7884,-17.0851,32.5149,-107.5705,124.7271,80.5005,-153.8055,-146.6755,-45.4105,25.7014
-117.1875,84.1046,-27.0250,135.0743,-109.4922,121.4938,-186.4358,-65.5130,-158.9079,-25.7715,-176.6465,258.4900,-171.8300,153.7637,-190.0642,79.9336,-2.6727,406.0172,94.7262,18.8096,90.7748
-109.3750,49.3804,-167.7286,135.6671,-109.4942,66.0533,-150.4012,43.4123,-14.9476,83.9078,78.0577,112.3279,-98.0301,92.4510,-80.0172,116.6939,-3.3085,-83.5583,-185.2854,53.5714,90.3934
-101.5625,96.3637,-51.7407,-32.0166,-63.7984,54.4198,-62.6744,95.0142,-111.3005,63.2825,-166.5405,129.8871,-119.5345,90.4563,-66.2707,95.1512,12.7522,175.5811,37.4071,-77.9622,-4.2802
-93.7500,44.8530,-31.2591,168.7910,-43.6061,61.5985,-47.4445,-183.8617,-207.1358,-31.8327,-151.6259,145.9321,-66.5439,76.6084,-15.0212,37.1164,27.3203,267.1928,127.5836,-94.0070,84.5379
-85.9375,-35.7050,-7.8180,-22.4368,15.5334,-3.9282,17.7275,101.1812,-33.0375,33.9893,-14.7861,-117.0487,-1.6079,-23.5871,87.1663,67.0282,56.8423,-92.1878,-56.2572,-176.1045,3.3098
-78.1250,-14.8206,49.0717,35.7848,0.1356,60.5772,37.3465,-136.3212,-197.4694,-128.7233,-253.4655,87.4027,-55.2103,71.2491,-3.1955,50.3952,39.8190,457.8278,281.3218,-156.7535,23.5363
-70.3125,-59.1885,-32.2771,60.7389,24.4910,11.3595,60.7189,-113.0701,-66.1521,-68.6841,-11.4079,-33.3962,5.9356,20.2689,57.1882,74.5080,26.5489,63.6229,59.6633,-64.6555,47.5081
-62.5000,2.7341,30.6705,-88.9945,17.1384,17.0010,56.3864,66.4530,-70.5394,1.6563,-164.0437,0.1075,3.3751,32.7390,15.8710,70.9235,-13.4109,197.7425,123.3095,-108.2454,-66.2061
-54.6875,80.5948,108.5625,137.2016,24.7369,44.7991,-87.9908,-261.0451,-214.9515,-141.0344,-234.7088,188.5311,43.7720,88.4549,-54.4833,38.2981,-10.4082,453.7636,201.8783,-67.8898,11.0303
-46.8750,-1.3415,61.6634,53.5999,82.5325,-32.3098,-62.1707,-15.3653,28.8150,-5.5378,82.8005,-77.8219,69.3603,-32.6510,8.3480,27.8733,51.7909,-117.9570,-125.3177,-45.3347,-36.5252
-39.0625,-16.6800,117.3494,37.6107,32.9278,26.7959,-79.7581,-107.0848,-62.8052,-22.4239,-157.0657,53.4160,-20.4495,20.8369,-120.2204,-25.9480,71.5855,361.8821,177.0642,-61.1663,-16.4739
-31.2500,-76.1214,21.9350,118.4988,42.2185,18.1234,-109.4410,-100.8803,15.4843,20.6032,67.9699,-11.4554,22.6312,6.4352,-76.8919,17.1302,78.2837,-12.3756,13.3565,-18.1035,63.4689
-23.4375,-56.0238,43.0730,-112.0486,28.0538,-16.5282,-49.5860,106.8503,75.3135,46.1727,17.5488,-59.7646,11.2586,-24.4420,-16.0216,5.7682,65.5303,-60.0483,33.2229,-104.4853,-22.0288
-15.6250,-19.9293,43.2066,68.3848,-42.1081,47.7397,-53.7338,-190.3869,-113.8348,-103.2408,-97.8422,158.9046,-65.1043,59.3720,-57.1539,-34.5906,25.7768,329.2176,246.0580,1.1356,48.4690
-7.8125,-31.7721,-38.5988,-51.1387,-19.2238,-26.5766,46.1593,54.4163,95.0561,-4.6098,110.7941,-70.3545,-2.4262,-33.6285,42.7510,-7.9067,15.0703,-172.4163,-81.0282,57.8030,1.0133
-4000.0000,17.3084,50.5442,-53.2311,11.6776,5.1087,34.5674,32.6508,-42.1528,-53.7087,-78.7819,13.0633,-2.5129,7.3933,5.5976,-2.3486,-1.0295,104.1670,41.3761,-4.0807,-27.1172
-3992.1875,28.6113,27.4413,137.9778,57.9951,-24.6874,6.3471,-215.7490,-35.5376,-119.3371,38.2650,57.3270,78.5855,-13.4502,49.8688,-68.2634,6.3651,-24.1817,-52.8557,42.1418,53.6270
-3984.3750,-20.2920,14.1276,15.9876,79.1146,-56.6967,106.9199,-5.3527,137.8966,-58.1583,137.1510,-100.6264,67.4892,-75.2510,75.9397,-79.3704,69.5722,-212.7785,-136.3154,-6.8273,-30.8180
-3976.5625,-17.1984,-16.1867,125.9751,-22.7647,32.4812,70.4934,-224.9446,-46.6573,-167.9723,-10.9660,84.4145,-78.6099,19.7836,40.0063,-78.4812,70.7842,249.6304,185.2257,67.2000,42.7323
-3968.7500,-61.5490,-200.9426,78.5262,-102.0948,1.6283,61.6065,22.9754,164.3283,4.7565,236.4650,-108.9760,-52.1569,-42.0446,140.6194,-15.0530,97.5478,-320.3883,-70.6772,92.7830,32.8483
-3960.9375,-19.3613,-124.1543,-60.3919,-95.8635,25.5269,72.2686,69.4668,26.8864,-22.9505,-12.5225,-25.8428,-79.1421,-12.9575,76.7925,-42.0801,107.8686,39.0876,182.9395,-6.0776,-31.4873
-3953.1250,-41.7207,-109.9107,133.1361,-82.1859,41.2386,-27.6207,-176.6014,-38.1176,-86.2086,32.9134,57.7565,-32.6851,32.7046,50.4023,4.3371,81.6466,53.0615,162.0312,77.5219,51.6254
-3945.3125,-82.6366,-115.2365,-16.8685,-18.0635,-5.6244,7.9363,152.7762,70.3372,93.9916,140.8251,-165.1997,3.2158,-35.5407,48.4618,76.2080,79.8792,-302.5465,-90.4447,35.5873,-60.8039
-3937.5000,-16.3606,21.6238,123.3048,-21.7523,47.9985,-70.2924,-110.6128,-119.9882,14.4112,-123.0536,50.0258,-2.6946,41.2361,-67.2801,34.2814,37.3154,222.0183,152.2856,-3.1479,-30.0419
-3929.6875,-58.5914,15.9826,112.9881,77.0493,-45.7950,-117.0173,-83.5333,17.1803,114.3242,123.5632,-70.2389,170.8846,-43.4918,33.4776,23.8507,28.2521,-240.8833,-205.4535,25.6252,33.2280
-3921.8750,-9.5346,135.6268,-56.0470,126.1542,-46.1663,-136.4282,43.8635,-40.3197,166.5527,-45.4789,-53.2303,150.7672,-42.9110,-60.4509,3.7221,8.4953,-50.5500,-85.9271,-31.2911,-24.2031
-3914.0625,-15.4281,60.3255,116.9547,14.3061,6.1910,-144.7854,-148.6904,-123.7755,118.8328,-92.4904,46.8374,66.6967,4.8934,-70.3338,-7.3648,-2.2075,120.8724,-21.3286,68.8392,75.4120
-3906.2500,-70.3283,-99.9778,-13.0291,-4.5367,-61.8184,-53.1463,126.7319,113.7754,247.1112,181.5263,-191.0965,85.6356,-94.6582,58.7874,11.5405,90.0980,-388.7246,-285.7406,13.9783,20.0319
-3898.4375,13.8116,19.7677,36.0149,-27.3232,-45.1971,-2.4475,-152.7712,-20.5956,38.4515,-27.3845,78.9962,-12.3682,-24.3870,34.9722,-85.5104,103.4713,152.6831,-62.1123,-43.8455,32.6889
-3890.6250,22.0008,-76.4326,116.1226,16.9372,-91.6484,5.3000,-219.2574,97.0736,44.8314,199.7397,12.1548,68.6666,-48.1074,79.2021,-41.5170,74.8936,-188.8176,-297.4010,71.3806,76.4071
-3882.8125,23.7785,-39.0511,-61.1668,18.7985,-73.5626,50.6466,45.8742,104.3610,125.8328,96.4961,-53.1048,3.3060,-56.0234,50.0393,-33.9130,8.9154,-115.7806,-191.1270,2.2145,-63.2667
-3875.0000,-1.3855,-28.6144,166.5869,-6.2879,27.1306,59.0400,-165.9363,-72.3090,-14.1041,-80.7215,101.6962,-26.0060,26.5378,-15.0878,-63.2622,-19.0160,141.3301,65.2052,47.0924,-18.8922
-3867.1875,-57.9471,-119.5786,35.9701,7.2255,-26.8926,114.0151,108.8230,91.6107,149.5603,156.6688,-101.8912,27.2892,-34.0936,38.3792,26.9862,-2.3380,-440.9640,-166.8755,61.5767,-75.9029
-3859.3750,34.8300,8.8000,22.6843,-4.9063,29.8006,65.3392,22.9622,-68.0969,62.5938,-151.5653,69.8461,-58.0640,31.0724,-83.7964,-21.4081,-14.2989,75.0359,103.3670,49.4077,-88.5661
-3851.5625,45.2531,-86.1679,173.0526,-30.3946,31.3317,34.3155,-82.2774,-64.1593,30.2609,-0.1589,75.2462,-16.7741,41.2558,-42.3264,19.8428,-8.6033,-125.2706,-62.7082,93.8848,26.4293
-3843.7500,56.6688,-109.1580,-33.5781,17.1148,-2.0013,49.3019,154.4774,24.8049,154.9197,14.2890,-57.3714,-38.4830,-7.3453,-63.8374,35.0892,7.1032,-287.6333,-84.8062,70.3697,-32.5659
-3835.9375,74.9326,-55.3040,125.6293,-35.5304,94.8284,-83.8527,-88.9051,-183.3785,56.4268,-157.4229,175.8614,-98.3456,95.8479,-197.4998,10.1837,-53.3386,188.8580,178.9616,123.6992,90.2815
-3828.1250,-20.5595,-149.2027,135.1048,-24.9268,60.5319,-145.7573,104.9310,46.6778,213.1811,146.1120,-33.6450,-14.9636,38.9373,-186.9109,94.5290,-78.5341,-362.3929,-161.0123,169.2877,100.3897
-3820.3125,45.7877,-48.2666,59.4098,-29.4717,58.7779,-182.8006,30.6436,8.6120,137.8096,-3.4717,75.6704,-53.7253,76.9547,-261.4554,93.7328,-43.8761,21.1341,45.8337,24.7270,25.3430
-3812.5000,39.7780,-52.6769,197.3634,-34.3686,18.8342,-228.1865,-198.0141,36.1896,55.0852,134.5838,103.6461,11.1535,62.7347,-159.3526,84.5754,-15.5648,-88.6495,-64.6369,89.8134,89.9493
-3804.6875,-32.6929,-54.5493,-60.1194,-1.7180,-47.2406,-153.0277,171.8646,185.3404,203.9109,246.2278,-115.8420,50.5914,-34.4930,-84.6880,85.9597,24.3064,-405.9300,-277.5768,51.4574,-18.8848
-3796.8750,-43.6643,41.0731,35.8809,-12.5670,39.7437,-201.3702,11.2649,-49.9927,116.2529,-62.6161,55.1601,-0.4732,51.5587,-133.5229,72.8399,-26.3161,147.2676,-42.0255,41.5936,40.7758
-3789.0625,-76.8798,-97.5574,33.6512,-11.6739,-28.7569,-164.9781,121.3803,133.4150,224.3398,229.2887,-129.0646,35.2079,-41.1418,11.3868,71.4676,46.8152,-378.7633,-356.7192,77.4857,76.2023
-3781.2500,-36.9553,-21.0493,-140.4361,-40.6251,-53.8952,-45.4407,130.6604,105.0015,196.5979,91.3839,-84.1594,-28.9507,-40.1374,21.4517,44.2578,93.1036,-125.7170,-173.3115,13.5249,11.7825
-3773.4375,-57.0270,-42.5320,51.4795,-60.5720,-34.7691,-34.9094,-189.0736,41.5807,95.8568,63.4645,36.7554,-18.1119,0.8410,31.5050,17.0438,67.3934,30.3586,-54.8911,62.5526,95.3691
-3765.6250,-59.7055,-113.6269,-56.1861,-27.1174,-64.9898,43.0076,108.5747,192.5720,135.5209,250.9769,-142.9315,22.1323,-66.0540,71.9623,21.2217,35.0848,-391.1987,-231.0870,25.9878,-11.6260
-3757.8125,-53.6918,-1.0352,59.8288,-56.9699,34.1563,49.6257,-69.0522,-22.7090,-6.0944,-38.7862,10.0642,-45.9337,14.6687,-31.8805,-9.9007,41.4811,142.9056,162.4107,-2.8744,-5.9258
-3750.0000,-130.2814,-79.0493,123.2513,6.5673,-10.4367,77.6408,-78.3127,114.4071,57.6842,208.8520,-109.5264,18.3900,-19.3926,32.6689,54.3726,69.2786,-285.5647,-56.6639,59.6743,21.1851
-3742.1875,-74.7911,-21.9858,-110.2355,27.1996,-30.1208,67.7628,95.5420,140.6570,82.5859,86.6405,-121.0474,7.8171,-31.6643,21.3281,42.7518,58.1790,-123.0157,35.3280,-24.6644,-63.5986
-3734.3750,-23.2126,-4.8292,85.3620,-26.0720,35.8018,-67.0031,-148.4942,-31.9885,20.5971,-12.4810,75.5254,-53.6666,43.9831,-75.9093,18.2307,34.1836,140.6384,158.4430,63.0961,58.7168
-3726.5625,-13.9979,-134.0392,-51.3741,-51.6997,-24.6028,-128.1174,119.0947,163.0217,215.2650,219.0732,-97.2569,-6.5025,-14.3127,-28.4883,103.3603,8.8433,-411.0842,-146.7968,142.5185,32.6980
-3718.7500,16.7539,-34.7075,-93.5726,-91.7751,16.3939,-132.6783,4.2571,10.6087,172.5072,-44.7986,44.4880,-84.7808,49.8365,-106.5107,98.0387,-32.9480,111.6947,128.4833,137.4891,27.2275
-3710.9375,1.0106,-48.8664,32.7463,-36.3491,-25.3858,-149.7452,-86.1207,65.6786,190.2377,120.8093,-11.2486,6.4432,-7.3991,-51.0437,42.2027,-14.2462,-147.9789,-61.7118,157.9643,82.2695
-3703.1250,-41.0401,-20.3394,-117.2299,-8.2191,-43.4293,-79.1155,168.1987,136.4726,224.6785,117.1580,-160.3027,4.3760,-60.9341,-16.8653,40.0588,21.1592,-190.0066,-139.2393,80.1468,-30.9809
-3695.3125,-53.4880,2.7799,85.3873,-55.4935,19.3905,-94.8858,-104.8731,-28.1288,96.7333,-10.8915,6.2451,-49.1056,24.4882,-70.0871,59.5107,41.1678,150.5700,-10.1555,68.9207,62.3608
-3687.5000,-106.9891,-120.1688,25.9792,-108.8287,-19.1438,-6.7136,129.9750,207.2243,184.7410,261.0224,-162.2436,-70.6440,-15.8329,17.6369,147.9126,56.1295,-499.9017,-344.1245,49.6517,113.6639
-3679.6875,-25.4001,-73.0349,-111.3371,-167.0667,-8.7410,40.5563,29.9529,106.7070,82.8727,50.0749,-4.6593,-171.0799,22.8648,-44.5379,83.4200,103.1956,-135.3414,-15.0327,-43.5202,160.0647
-3671.8750,-79.2624,-162.3491,-26.0995,-151.7566,-45.3588,55.3622,-177.5433,119.7308,22.5518,245.6659,7.4944,-121.9745,4.3592,41.8273,60.4716,116.8125,-259.1945,-34.3738,-27.1444,246.0253
-3664.0625,-130.7275,-142.2813,-183.4475,-61.0463,-75.5751,119.5523,107.3541,257.1790,85.6343,272.7019,-185.9606,-57.4641,-69.8123,142.5960,49.9237,107.8246,-449.7051,-84.3476,-113.3612,89.3979
-3656.2500,-85.9442,-26.9735,-64.5525,-51.0921,4.2674,92.9897,-139.4799,8.8876,-88.0238,-12.0078,43.8312,-84.7085,7.1870,41.6123,-49.3678,44.0870,123.0218,276.9224,-67.3382,99.0152
-3648.4375,-96.6124,-142.1221,-76.0801,-61.5908,-17.5490,119.9656,70.1996,182.1403,9.8688,233.8359,-149.8153,-58.4047,-46.0953,68.1750,11.8925,33.8988,-343.6948,19.7547,-8.7646,88.1955
-3640.6250,-87.1991,-62.1827,-174.5164,-52.9868,4.2081,133.0553,83.9953,121.5321,-51.1161,62.8240,-100.3943,-82.9928,-12.3088,7.8521,25.2491,47.8159,-16.3928,241.6564,-138.0924,27.4760
-3632.8125,-95.4913,-34.9391,32.3480,-26.0860,-19.4997,122.4491,-257.9225,110.2180,-208.7961,161.1001,-2.6657,14.7096,-18.2731,69.8180,-59.1039,73.0280,10.2370,268.8885,-112.1199,89.0618
-3625.0000,-118.4930,-21.4174,-132.4796,92.1078,-106.4032,179.1460,-18.5541,313.2244,-118.1679,326.7136,-202.6454,70.7095,-131.6280,163.0913,-115.1597,92.5383,-361.8835,70.4102,-134.8325,-39.0396
-3617.1875,-9.0047,52.5892,-21.8296,60.7976,-3.7783,70.3584,-162.6644,20.7559,-189.0270,-40.1462,55.8554,-0.7928,-33.0519,-19.1276,-185.7214,58.5547,274.4601,321.4321,-96.0527,-0.6472
-3609.3750,27.4266,-51.4518,87.7926,97.4398,-11.7831,-2.4772,-89.8749,57.2334,-152.9485,106.9454,18.3196,72.6549,-17.0477,17.6017,-76.3448,-15.4788,-75.2128,-64.5669,-59.3281,35.7066
-3601.5625,98.9494,91.5898,-54.4788,99.1869,-27.8171,-32.2155,26.0250,-10.1591,-148.7524,-71.8196,23.8658,78.2134,-23.3834,23.4440,-70.8693,-45.4130,103.1466,-27.5087,-128.4950,-68.8407
-3593.7500,89.4832,117.6295,151.2534,89.9285,-14.1992,-82.9633,-280.0748,-97.5594,-235.5491,-49.6026,157.4297,64.7604,18.8229,10.2731,-84.4015,-22.3512,235.5356,-0.4370,-66.6638,27.6079
-3585.9375,25.0210,18.6525,11.0159,95.6606,-68.5654,-37.7261,20.8049,130.0427,-45.3397,178.6340,-93.0009,108.3064,-58.8294,91.0992,-3.9385,-14.2906,-285.0939,-275.3854,-60.8235,-1.9291
-3578.1250,79.2543,143.3610,27.4696,80.0932,-14.7465,-56.7888,-107.5896,-72.6378,-64.4049,-134.4103,109.2505,52.5548,20.7076,-1.3703,-23.7770,3.4679,226.9311,-45.6590,-146.2900,52.2323
-3570.3125,21.9309,51.5214,73.3888,92.9740,-73.9102,-81.4124,-170.5694,47.1187,-17.0172,131.9841,8.9616,99.2488,-33.8015,45.6074,-12.1580,50.6752,-110.5634,-277.4619,-62.3084,135.8584
-3562.5000,9.8397,74.9151,-154.4417,116.1104,-126.2859,21.2068,4.7157,150.1508,47.6430,160.6673,-73.1020,92.2000,-76.3789,1.8402,-21.2697,81.1270,-122.8887,-254.0499,-144.0749,17.7456
-3554.6875,25.8933,127.4584,42.8685,63.3964,-66.3501,-37.0332,-309.8397,18.3294,-120.5336,65.4909,126.9845,70.2951,-5.8271,-91.7816,-78.2251,59.7252,246.9455,8.5228,-127.7069,69.7844
-3546.8750,13.4447,9.4858,-41.2929,85.1738,-118.3234,28.2159,-62.9258,230.0066,-58.2101,312.8342,-104.4183,96.8861,-106.0734,45.0981,-89.6872,86.8220,-292.7298,-178.4130,-105.8329,-13.6612
-3539.0625,12.4886,43.9955,-75.9656,14.4482,-54.7494,67.9724,-96.4893,122.2203,-129.3680,94.7195,8.6540,-10.0238,-62.5753,-25.5061,-160.6571,90.4202,164.0280,172.1222,-105.4582,-84.6115
-3531.2500,-93.7710,-61.7977,30.0696,-20.5877,-39.5683,64.4324,-172.3809,192.1314,-132.8270,274.3001,-31.5565,-51.2427,-68.7535,44.5785,-162.9387,50.7154,-11.4807,137.3880,34.6172,-14.8552
-3523.4375,-128.6426,-96.2170,-150.4846,-56.2316,-25.8019,143.2942,162.1289,233.4693,18.1308,242.3208,-174.3819,-83.0646,-82.4973,49.0696,-85.8143,-54.5899,-116.6568,102.0239,35.1071,-120.6860
-3515.6250,-88.9573,-91.0978,35.5073,-122.3334,95.1565,-0.2950,-17.7971,-20.6383,-15.3474,-49.1103,86.3440,-154.3426,47.1186,-131.8937,-83.1367,-88.3531,416.7089,353.2132,75.1395,-80.9686
-3507.8125,-76.2688,-183.9862,49.5294,-144.4395,69.0900,-21.8983,217.2395,104.2493,109.1717,149.4633,-82.9139,-102.6196,1.9195,-79.8627,4.5396,-110.1175,-132.9257,14.4100,53.1792,-103.2344
-3500.0000,36.9058,-70.3850,-51.9548,-101.0415,86.1837,-48.9979,226.7990,-34.3307,44.2059,-136.4253,36.3001,-130.3901,39.5996,-144.3196,-23.2874,-100.3812,191.8700,199.0782,-80.2802,-131.0008
-3492.1875,74.2813,-67.5829,90.7700,-63.4467,50.9623,-51.9060,-71.4616,-110.7216,-70.5609,-103.1312,142.7321,-60.9696,44.0973,-37.5881,-63.9217,-103.4524,123.9110,130.9769,-42.5386,12.4356
-3484.3750,48.0019,-22.4507,-82.1213,16.4925,-7.5464,-1.4754,199.6166,-24.7529,-20.9619,-54.4606,-65.4936,61.8045,-46.2993,122.4943,-51.1966,-91.1841,-147.7395,-69.7977,-138.4409,-48.7661
-3476.5625,58.4784,128.4223,73.7290,62.1793,57.9836,7.7016,-86.5390,-273.0249,-195.5930,-339.0332,164.0272,34.3287,25.0284,94.3239,-151.7155,-118.1686,461.3365,187.1647,-161.6024,-3.2215
-3468.7500,-4.4389,30.8974,116.2049,104.4674,-12.4552,52.4624,-42.1335,-82.7081,-115.6323,-39.0118,-12.8292,78.4558,-46.0206,212.7457,-108.6370,-74.5568,-22.9658,-156.2633,-85.1657,3.9419
-3460.9375,12.2329,47.9612,-8.7224,16.3619,11.0667,74.8124,90.8887,-96.7660,-57.0472,-127.3483,8.8889,-9.8045,-22.2922,161.7727,-86.9514,-88.3513,170.2546,-34.1326,-67.1258,-84.2859
-3453.1250,40.2535,-29.6193,198.7032,-26.3960,70.7113,-10.5043,-104.7429,-144.4815,-106.1045,-138.3487,143.9685,-22.7230,40.2523,76.1342,-98.9139,-99.8038,268.8502,29.3681,31.2581,13.8438
-3445.3125,36.0186,-67.4743,13.9077,-29.4146,12.5141,25.9188,189.3548,37.5596,39.5985,80.4280,-40.1989,14.1029,-20.6462,75.2518,-26.1258,-100.5077,-191.8349,-150.3987,-7.6035,-60.2586
-3437.5000,79.5817,46.4495,56.8996,-20.6408,47.8468,34.1518,-98.7286,-102.5728,-136.8839,-132.9714,187.4141,-53.2803,64.8149,-27.8160,-56.5400,-56.4047,274.2417,210.6127,-104.6721,-16.5657
-3429.6875,65.8964,-37.8833,112.6628,-0.1284,-3.5583,17.1361,-151.0982,28.0392,-153.6218,107.3748,96.7955,40.0767,19.6217,65.8646,-37.2190,-72.5535,-124.8919,21.3929,-47.9869,39.8871
-3421.8750,120.4009,51.9614,-11.3649,19.5789,22.3983,5.3170,55.7494,-21.1240,-131.1351,-90.0375,83.3560,63.6346,33.1268,52.7544,-12.6943,-158.5125,-0.8901,75.3354,-134.0911,-46.4587
-3414.0625,102.3647,140.2533,186.0604,72.7280,77.3715,-90.0540,-222.9456,-226.8463,-152.1879,-258.0196,208.3779,78.6330,110.5474,-42.9223,38.2819,-217.0425,298.5872,234.7503,-114.7489,41.6402
-3406.2500,-45.8714,63.3290,-40.6792,100.6782,-21.4103,-21.6298,66.1247,-11.7693,25.5552,29.8103,-91.7875,146.4344,-18.1174,63.1966,70.0565,-111.7889,-340.1447,-18.0249,-52.6010,-0.4497
-3398.4375,-53.5122,125.9911,-121.8266,58.2281,10.3826,-28.5954,21.8143,-129.0665,-19.0831,-197.7292,11.6245,28.8386,2.7690,18.9222,-11.5707,-8.9370,108.6722,220.7861,-23.8562,-7.9486
-3390.6250,-64.9004,8.9043,46.2946,11.0239,20.0468,-152.3131,6.7219,-70.1237,2.5269,6.9681,-40.6941,50.4830,-11.6220,3.8882,10.0456,13.1586,-112.2190,-37.1255,105.1390,50.8081
-3382.8125,-22.4996,16.6013,-89.7721,18.6166,-3.8181,-141.2318,239.4335,15.6450,124.9555,-17.4923,-139.2310,25.9304,-48.6716,-20.3390,22.4642,26.0487,-176.3707,-135.2718,41.9395,-47.6285
-3375.0000,25.5520,64.9478,29.8048,-4.1430,37.6973,-166.5044,-81.1922,-194.9369,-12.9461,-191.3142,127.8803,-1.9762,46.6387,-83.9240,-5.4599,-1.4197,294.1347,89.2349,20.3810,35.5845
-3367.1875,-18.4435,21.2347,-51.6307,58.0469,-46.6412,-100.8532,59.0996,55.4199,17.1076,131.8146,-63.0395,101.0684,-23.5138,56.4301,61.5707,-44.9455,-276.4040,-164.3069,-23.2272,-8.2322
-3359.3750,72.6133,148.5575,-138.0172,79.2855,-9.0435,-38.1632,46.4668,-104.1540,-68.7680,-173.9750,72.0749,89.1719,50.2137,-66.1651,85.6562,-93.4252,132.0419,67.1685,-107.7899,-56.9982
-3351.5625,49.5732,89.7854,52.5112,91.4197,23.5764,-103.5878,-56.2864,-132.8435,-61.7498,-92.8834,79.1128,59.1653,64.8146,-58.8752,92.6430,-122.0122,38.4275,-61.4363,9.5437,60.1445
-3343.7500,-58.4690,17.9985,-165.9397,54.5515,-19.4195,-29.0258,239.9569,15.4761,86.2792,18.2333,-139.8588,61.1619,-23.8247,16.4209,93.6330,-47.6013,-173.2342,-167.0789,8.8864,-11.6985
-3335.9375,-60.7049,51.0052,-24.5912,17.4782,38.9800,-32.6673,-58.9816,-171.4050,-64.8753,-205.8582,76.9697,19.9560,33.6468,12.5134,-20.5756,-14.4020,351.8992,146.0677,42.0246,21.2553
-3328.1250,-24.1287,-18.1928,14.5927,53.2013,-31.1884,44.4728,17.8407,-22.5021,-25.2319,53.8464,-68.3733,95.5482,-66.6087,88.3993,-91.9860,-11.4177,-140.1442,-133.9801,112.9596,-12.9779
-3320.3125,86.3412,92.4938,-13.3222,58.8247,22.8204,91.5065,101.5824,-122.6681,-88.6707,-194.5098,52.1627,32.0472,-10.8815,25.1944,-118.4934,-74.5402,146.6430,47.8333,-22.2048,-113.3091
-3312.5000,109.3087,45.6836,191.2641,11.9449,36.1341,39.0416,-135.1951,-211.3381,-105.6113,-209.3815,109.2047,16.0375,12.6538,9.4794,-98.4979,-17.1617,170.9651,36.1785,2.1242,-19.1346
-3304.6875,2.7150,-25.6931,7.3189,45.5104,-20.2954,39.0262,159.4561,-27.5449,78.9098,-25.7704,-111.3108,16.4785,-56.3179,46.2215,-24.0473,20.6619,-252.3028,-210.0401,-34.0828,-55.4948
-3296.8750,22.3164,29.1203,61.5610,-40.7298,49.1539,-52.7858,-80.6678,-192.5346,-13.3499,-264.9460,127.3620,-76.8835,56.2534,-82.8371,-6.3879,1.6765,294.5990,124.9342,-50.0914,-0.6594
-3289.0625,-12.7727,-111.7735,134.1316,-40.6841,19.8926,-15.3115,-43.5184,-83.2480,23.6921,-7.8415,17.3607,-39.9543,18.4952,28.3902,30.5711,1.9844,-127.1629,-85.7661,21.2086,-0.5144
-3281.2500,7.6851,-55.1368,-22.7436,-54.0891,20.0793,49.7097,132.2076,-54.3976,88.3125,-127.1616,-29.1082,-85.4690,17.0204,-17.8282,58.0906,-7.1733,35.5604,6.0522,-97.9379,-119.8227
-3273.4375,-17.5048,-46.1419,165.7371,-45.1432,58.1041,-18.9203,-120.7186,-123.2131,19.2856,-122.1594,49.7802,-117.6378,45.7299,-12.7063,25.9607,-1.9950,255.6745,121.2467,-88.7478,-4.7828
-3265.6250,-96.0472,-88.5046,-26.1010,-16.5474,-31.6466,11.0885,128.9732,89.6225,158.9090,127.5130,-214.6759,-15.1508,-58.4183,90.0653,91.4833,100.8287,-278.5730,-165.9170,-24.9040,-12.0774
-3257.8125,-19.0873,24.6186,-94.4450,-45.4584,-5.6240,16.5918,-49.8106,-88.0157,54.0500,-160.2926,10.3518,-47.1680,17.8810,22.3383,60.5102,107.1573,255.6429,121.3896,-18.5595,30.1217
-3250.0000,-32.6145,-94.7615,-38.2650,-57.8804,-33.6386,36.5844,-65.1214,41.8282,73.6839,79.3836,-43.0909,-26.6943,-16.8104,79.1001,43.0366,126.9823,-109.5999,-32.7857,109.2853,86.8251
-3242.1875,-75.3474,-67.3636,-224.2726,-30.5025,-54.5498,108.3703,189.3831,150.4888,145.1337,76.8875,-155.7505,-29.4182,-69.4397,76.6736,4.3740,161.6035,-186.1052,-39.1989,66.9300,-25.6678
-3234.3750,-66.1313,-24.0146,-74.3282,-57.1776,-12.9531,75.1005,-101.1532,6.0898,37.5466,-29.6803,30.5433,-62.1964,8.9544,43.1868,6.6660,128.1682,137.3595,109.3418,75.5143,87.7865
-3226.5625,-99.4615,-56.2169,-183.8969,-19.4046,-106.2780,113.2594,45.7309,192.1234,186.4150,228.1991,-187.6974,11.4792,-75.8481,118.1356,81.4166,92.1764,-422.7189,-203.6737,77.5540,125.7072
-3218.7500,-70.8901,42.4738,-229.5728,-26.7320,-61.3471,68.3109,-71.4578,37.0762,178.2064,-72.9990,-12.0551,-32.9429,24.3789,0.9877,147.0784,48.0807,-5.9518,70.1801,2.4892,154.5273
-3210.9375,-107.7101,-29.2319,-87.6303,-28.4640,-50.5657,-9.0501,-187.0750,-4.3880,172.5923,32.3810,-17.7884,-1.7718,31.7643,-4.5737,178.3385,43.5795,-149.5320,-1.3456,105.0192,222.9608
-3203.1250,-102.5829,-60.0061,-222.7154,-24.2509,-31.5149,40.5337,193.2445,45.1151,222.9377,44.7469,-151.5784,10.3539,-13.6088,44.8165,154.5506,-17.9771,-320.2019,-31.9528,40.5049,52.3576
-3195.3125,23.0955,31.7699,-54.2544,-38.4888,32.1250,26.6712,-41.8787,-151.8249,24.8399,-152.3391,91.1799,-40.9721,37.8989,-43.2444,-6.6960,-31.9920,193.6832,235.9995,26.5351,38.2953
-3187.5000,-42.7205,-69.9530,-9.2624,1.7732,9.4045,-1.6953,187.4583,75.7259,106.2328,112.0726,-85.5441,41.1999,-26.6332,39.1895,1.5486,-60.5152,-328.9105,-111.5265,66.0680,-27.2570
-3179.6875,15.3099,60.1587,-18.4259,60.8868,48.3743,26.7946,178.6660,-41.8528,24.4915,-153.6425,16.5595,-4.7738,27.2419,-42.5218,-7.3479,-105.1945,81.2949,17.7730,-15.5486,-108.9626
-3171.8750,74.4977,48.4197,223.5662,84.1408,56.6764,-25.5709,-94.9865,-167.3003,-28.1035,-132.2317,147.8327,16.3911,74.3228,-22.0938,13.9064,-120.7337,69.7033,-63.7426,43.9815,-14.5180
-3164.0625,104.6824,7.6622,36.5795,79.3859,-1.4109,9.0584,197.3507,13.2641,80.3092,-23.7945,-37.8972,50.5525,-12.0862,49.3388,11.1697,-86.2830,-250.9232,-243.2780,3.5238,-90.0655
-3156.2500,96.9165,105.9499,137.6325,70.6743,56.6922,-36.2681,-69.2298,-179.1175,-76.2093,-253.3126,173.4152,4.7638,55.9515,-33.1819,-71.5123,-95.7887,303.4865,64.2303,-3.8879,-62.5713
-3148.4375,33.0646,42.1401,144.6160,113.8595,-1.1534,8.2868,12.0585,12.3717,-31.8301,47.0427,-3.3424,84.8697,-7.9802,11.1767,-27.2911,-88.4062,-182.1617,-208.3453,38.6035,-55.1638
-3140.6250,17.8114,61.9174,-15.7929,132.6448,-11.8952,69.4303,72.9698,36.4742,-80.8299,-1.9749,-53.5204,35.5858,-24.2717,35.1378,-40.4550,-100.4356,83.7317,-49.3613,-12.3027,-141.1545
-3132.8125,-17.0895,27.0507,129.1516,62.7764,-19.4678,103.9126,-259.7687,33.9165,-193.4782,106.3380,54.6621,32.6467,-3.6124,69.4360,-79.2655,-66.1229,225.0132,92.9879,24.1323,-69.7977
-3125.0000,-117.1395,-1.9726,-45.0220,68.7527,-90.4835,225.2314,7.3173,339.2078,-146.2740,411.5176,-192.2971,43.5579,-127.7778,153.5880,-142.2209,18.0333,-296.8742,-6.8325,-4.5785,-169.5763
-3117.1875,-46.6827,103.4926,-7.6951,34.2224,-15.4773,226.0435,-139.0724,156.0088,-219.5522,81.2017,29.2360,-30.0352,-44.7567,-29.7641,-215.6681,-18.3096,266.7111,345.8298,-39.7938,-168.8604
-3109.3750,18.9340,-41.8933,167.8157,-6.1689,17.8945,107.9939,-73.3435,148.9332,-116.6880,220.0111,20.9488,-37.4837,-9.9709,-73.9799,-112.9621,-99.5105,-54.5075,23.6686,97.1392,-102.9860
-3101.5625,117.9954,-118.8378,89.7831,-118.1034,100.9882,-7.6100,252.8463,70.3268,62.6378,31.2997,16.0946,-190.4726,46.3359,-189.7403,-7.8033,-104.2698,44.6660,-18.0720,125.5235,-144.6614
-3093.7500,121.0646,-185.7704,269.7475,-185.0360,183.9085,-120.2160,29.0381,-116.2930,22.9657,-118.4422,160.2529,-229.4608,118.4792,-228.5081,-10.6471,-107.0467,364.8765,162.2044,199.9000,-0.3420
-3085.9375,18.3355,-182.5080,126.9404,-112.7692,82.4452,-79.6230,217.3974,71.2743,137.4882,143.0201,-93.3755,-116.2476,-6.3413,-78.0753,-6.2931,-66.6328,-160.7076,-82.3189,132.4847,-32.8118
-3078.1250,78.9018,-17.9528,155.4175,-87.2016,118.9896,-87.7210,98.0845,-83.8344,-17.6734,-123.1915,82.2688,-124.7346,41.0597,-123.3353,-88.6312,-74.9142,356.9630,119.4407,16.3641,-77.9922
-3070.3125,66.8658,-64.9950,324.3111,-28.2419,104.8842,-102.4196,-26.8607,-61.5522,-69.4447,9.9779,104.3262,-28.8278,60.5808,-27.2060,-29.5637,-89.7927,99.0834,-103.3661,75.6476,-18.7699
-3062.5000,114.7257,-17.1547,84.1193,18.6118,60.7720,-47.2243,248.0985,-7.3576,95.6994,-9.9268,11.2716,-12.0251,56.9588,-46.1734,98.4079,-145.7816,-28.9364,-231.2963,17.8450,-111.6428
-3054.6875,197.6419,30.7285,203.9724,-3.4912,101.5967,-111.9854,-36.8723,-217.1244,31.9048,-219.8067,278.2740,-39.1807,161.8896,-147.1036,107.4330,-171.7390,406.1230,-78.1635,31.0906,-28.4733
-3046.8750,123.3689,-43.5832,125.6589,-7.7962,28.5098,-78.9604,142.9266,-1.1144,137.8980,69.1034,17.1030,30.4711,69.2529,-78.2462,177.2540,-175.9147,-194.9904,-362.2201,62.1315,-32.4956
-3039.0625,113.8988,51.9101,-30.8556,-17.2849,22.5590,-14.1373,96.5500,-47.2924,18.6986,-124.1689,80.7128,-16.0612,67.4451,-87.5895,93.8790,-113.2969,146.6451,-91.5038,-52.0404,-41.7291
-3031.2500,11.5916,20.5649,39.7924,21.3768,-19.2503,19.8282,-125.7004,-12.3453,-56.3573,20.6737,41.5015,17.5552,16.0250,-15.7969,17.6482,-40.5333,9.4932,-121.6139,56.9345,103.1859
-3023.4375,-60.2637,-16.3448,-178.0858,20.4852,-67.1654,96.2357,132.4941,136.0573,55.0453,132.9851,-176.2616,56.6200,-72.6587,59.4468,19.8768,-3.3242,-237.2418,-158.2945,56.3637,31.5566
-3015.6250,-5.3119,3.5439,-49.1730,-99.6155,41.2422,5.4418,-67.4944,-99.7402,-35.7414,-102.9098,63.7755,-70.5182,49.7263,-67.5098,39.9132,16.6791,274.8246,213.8241,111.5836,51.7158
-3007.8125,-86.6019,-111.8177,-23.4765,-110.9742,-1.8270,31.3849,68.2299,145.1931,64.2131,252.9274,-130.4095,-45.9131,-22.0539,-5.7282,65.7038,5.4229,-298.3188,-44.2879,170.5564,40.6330
-3000.0000,-79.0882,-34.3916,-194.9777,-104.5307,-15.0536,79.1226,152.7748,156.9454,74.9778,153.5969,-120.8097,-71.4994,-39.8281,-68.1509,3.2983,53.9609,-80.7119,104.3665,108.3275,-21.6540
-2992.1875,-52.6125,-10.0047,-28.5185,-79.1377,-22.9620,25.7976,-157.7440,103.6324,-87.3166,174.1870,9.7604,-14.1421,-19.4573,-46.6392,-49.1569,110.4358,-20.1035,129.9975,99.0364,109.0092
-2984.3750,-106.6363,-29.1217,-192.5342,-28.2455,-86.5658,82.9552,82.2226,270.8148,-32.1056,304.2893,-190.1655,41.7237,-89.5351,45.3716,5.8911,166.4048,-390.0142,-98.8894,45.2512,55.1832
-2976.5625,-30.1099,49.3110,-75.0092,-55.8003,-15.2618,16.6614,-167.2320,57.5508,-133.3347,16.9389,37.4478,-24.8591,15.7476,-57.0716,13.4970,137.9263,179.6056,224.7664,-17.9932,62.8993
-2968.7500,-43.0320,0.3024,20.0838,1.1918,-34.7450,-34.0790,-108.1770,116.8177,-38.0310,150.1207,-50.3722,71.1063,-6.2077,1.0278,72.6457,86.0050,-219.1829,-68.9961,75.3081,85.1773
-2960.9375,35.1883,43.4362,-79.6760,9.3367,-2.3156,-60.6673,86.0403,-19.7472,46.4311,-60.5202,-3.0618,45.2305,19.5528,-24.7119,83.9472,60.2321,-71.8781,-27.6380,-23.2357,22.6081
-2953.1250,82.4174,55.5755,186.5592,-48.5247,68.4530,-161.2627,-199.7356,-194.3305,-18.1080,-198.1897,189.2619,16.3462,107.2197,-89.4656,91.2498,-4.5477,187.4681,55.7484,25.2200,141.0322
