Time,Fp1,Fp2,F3,F4,C3,C4,P3,P4,O1,O2,F7,F8,T7,T8,P7,P8,Fz,Cz,Pz,ref
-4000.0000,-103.5989,27.3705,-13.3382,50.1160,24.6640,-1.5239,-93.7625,-81.2938,-74.5776,-137.1718,39.2601,43.1666,-27.5109,36.0308,-55.0604,-22.1764,58.5059,47.0406,35.0141,106.3885
-3992.1875,393.3245,-1.5487,259.6050,-27.7375,189.9519,-168.0140,252.3581,-323.3071,-96.1293,-342.6907,239.9802,-101.8997,135.7471,-241.0588,143.6998,-225.9364,136.0766,-88.9664,40.0661,-132.2096
-3984.3750,39.0659,-36.6648,176.3489,22.3277,182.0598,7.2990,168.2989,71.4928,188.1476,-59.4006,-319.5518,-15.5569,-93.2026,-138.3589,-232.7628,-124.9157,-4.5470,122.8416,-135.1122,44.9984
-3976.5625,21.4754,-122.0726,-17.2517,-68.5944,100.8661,-76.6793,121.9190,-122.9996,31.1201,-34.3911,38.6155,-120.3667,154.5609,-146.9484,308.4965,-24.1617,51.5247,-138.6676,271.4324,-109.0906
-3968.7500,226.5314,-230.8640,196.7627,-70.6175,242.2991,-118.0747,371.1747,-20.9290,318.6936,-77.7912,-187.5925,-166.0772,0.9472,-262.9652,7.3677,-250.8235,83.2030,-37.5974,-49.4332,-76.5996
-3960.9375,-87.5409,-51.7483,-62.3425,-9.8338,20.6395,-9.5521,1.3122,122.0829,205.1841,64.7467,-188.9575,-20.4000,-73.7901,-7.0783,-30.9112,77.4344,16.7672,-103.6015,24.5663,33.8135
-3953.1250,316.1449,74.1204,112.2723,-69.7540,87.7267,-165.2793,175.1908,-180.1778,122.3963,-92.9602,133.4650,-76.2580,64.2585,-126.4482,217.6158,-40.5442,38.0959,-329.8897,44.3434,-156.0435
-3945.3125,54.1709,95.3084,87.2087,2.0758,25.1458,30.2866,38.4081,158.8592,315.9395,173.6316,-332.8518,40.0437,-181.3988,-3.5479,-250.5814,7.7408,-116.2672,-27.8738,-285.6140,77.3946
-3937.5000,-54.9861,58.3777,-133.0533,-45.9718,-119.5995,29.7228,-109.5589,-24.2277,-13.6710,210.1158,34.6613,-13.1960,38.7879,33.2074,191.0625,227.9134,-82.7941,-205.0069,99.2813,6.6887
-3929.6875,256.8032,-84.6466,158.5893,-84.0787,100.5700,-79.9450,218.3927,-26.4479,130.6058,22.4951,-38.9003,-102.6655,37.8986,-150.1613,41.6428,-140.0202,-49.4086,-67.2643,-112.9162,-29.1485
-3921.8750,-160.4162,-42.6719,-99.7689,-20.1326,-9.2477,66.4049,-76.6500,190.3712,92.9070,130.8996,-186.5354,3.9739,-36.0075,33.4596,-32.8195,79.0383,-112.0220,79.5024,-107.1438,119.0230
-3914.0625,168.4576,-62.5856,34.9404,-87.0282,54.0308,-56.1400,94.3932,-151.7206,-30.7145,-138.5826,243.9517,-98.4822,210.2118,-88.8115,396.8600,-79.7807,-26.5328,-116.6608,82.7557,-110.7258
-3906.2500,62.5199,-97.3338,99.8176,-53.0471,120.4901,10.4585,157.6227,131.3343,180.8337,-1.9165,-242.4315,-51.2542,17.5868,-95.9522,-16.3150,-160.4663,-130.8954,165.3219,-197.2312,66.6578
-3898.4375,-112.0948,-58.7118,-187.9919,-79.6760,-19.7017,15.4312,-19.8235,-9.2211,-70.2680,38.1327,20.5065,-46.8852,170.3013,20.2679,319.8393,139.2355,-125.9241,-7.3486,122.1221,1.4074
-3890.6250,274.6449,-20.7886,112.4979,-58.9430,136.4177,-86.3137,244.0480,-149.5128,46.9237,-102.5224,-7.1937,-71.9842,142.3493,-118.2353,217.3398,-147.7744,-18.6477,30.2396,-86.2169,-135.5617
-3882.8125,-128.0624,-0.3150,-94.4651,9.7397,-32.9038,111.4988,-0.5219,155.7771,132.7032,204.4096,-287.3961,30.4114,-64.0718,42.8129,-63.6466,86.7633,-101.8393,121.3991,-136.0545,27.0364
-3875.0000,150.3015,0.2716,-13.3785,-60.2560,13.8507,-26.5709,115.9843,-167.8211,29.5614,-9.5256,125.5097,-70.1933,200.6214,-58.0153,348.5023,21.4519,3.0555,-231.3628,109.2271,-183.2695
-3867.1875,211.7144,63.8708,154.7237,3.5860,109.6235,-5.6461,209.5292,35.5777,234.4292,9.5414,-293.5953,4.5839,-35.6788,-71.8900,-108.3402,-102.8819,-39.0418,-62.1321,-283.5097,-12.5918
-3859.3750,-82.7566,87.6346,-153.0616,-11.1860,-87.4658,17.4516,-98.7941,-14.8321,-36.5380,141.8010,-86.5949,43.2729,61.1593,134.3783,133.9380,249.9634,-49.9981,-178.7379,-15.1021,12.2430
-3851.5625,339.5580,19.1579,109.8899,-76.0776,69.1951,-121.7077,201.6467,-266.5305,6.2217,-36.1840,67.1974,-81.0966,215.7752,-78.5825,215.0041,0.5696,22.8034,-282.6300,-82.9217,-125.2191
-3843.7500,-29.1532,5.6435,-28.1929,-5.8591,-31.1733,108.0928,-11.9348,71.7423,87.9643,153.8000,-291.1293,43.7942,-32.6757,114.4023,-145.0220,155.1072,-131.4494,-51.5648,-308.8363,142.2570
-3835.9375,84.4142,16.4511,-159.0119,-50.8203,-124.2503,51.2055,-106.2371,-206.6688,-227.0047,59.1209,202.8269,-22.2053,204.1891,94.6651,349.2813,245.9746,-50.4160,-216.2157,17.5653,14.0304
-3828.1250,202.0883,-145.6841,36.2269,-49.4866,73.7382,-8.6457,125.5459,-48.0546,78.0816,70.4996,-114.1357,-75.9799,70.1211,-38.0628,29.6580,-35.1233,-1.3358,42.1778,-178.9890,28.8168
-3820.3125,-194.7504,-189.3086,-194.0579,-58.9002,-8.7785,55.0229,4.8248,50.1115,30.6954,243.4166,-160.6413,-68.3142,60.5343,24.7177,167.4990,212.2972,-44.7778,33.0889,162.9356,21.0950
-3812.5000,245.7808,-98.5656,55.9881,-103.7769,171.0616,-133.9574,292.4696,-140.3887,61.6529,52.6917,-19.7931,-145.1500,165.3297,-201.1622,308.7439,-50.9169,12.1330,-51.6891,148.2368,-203.3161
-3804.6875,-89.4651,61.3901,-43.7484,16.2194,108.1251,23.2689,117.3441,273.3352,144.8483,245.1807,-486.8131,41.4082,-117.6798,-42.8628,-232.8366,70.0509,-109.7587,248.7446,-113.3035,-7.5426
-3796.8750,-126.4821,-7.3953,-184.2785,-24.8204,7.4159,-5.2361,13.4408,59.3464,-105.7182,177.9617,-111.5775,-20.5571,110.5637,1.6970,214.8424,225.3132,-2.4103,2.4107,273.4128,-181.5349
-3789.0625,198.7714,-137.9734,157.4017,-42.7655,239.9215,-30.5538,318.7751,106.5404,161.9185,40.9456,-283.1089,-90.7102,11.0255,-170.5717,-32.2536,-94.2386,8.1409,83.2464,2.3269,-205.3752
-3781.2500,-148.2353,-60.7905,-138.1784,-11.2009,93.1788,115.8950,21.8612,251.5478,160.3342,259.7277,-283.9556,-0.3000,-26.7889,12.9140,-106.6463,124.9632,-91.5810,18.8538,77.9553,-57.4695
-3773.4375,251.5672,-116.7997,64.0069,-122.1535,151.2277,-83.8528,224.7435,-97.6482,69.5308,20.3298,140.0315,-129.6983,177.2347,-113.7974,206.8136,-39.0095,-41.5148,-213.7793,127.4044,-182.8012
-3765.6250,18.7714,-171.4462,66.5705,-78.0724,154.6537,29.7417,153.0198,198.5073,219.1017,206.2952,-298.6503,-44.6309,-76.3916,0.8139,-268.3966,1.3434,-166.0983,81.9315,-173.8379,79.1914
-3757.8125,-147.7023,-18.7135,-175.5483,-67.9151,-48.5851,45.7065,-16.3787,-7.9573,-23.9872,220.6599,84.9920,-24.5457,122.3175,52.7832,187.7276,201.0885,-119.3488,-152.0081,189.2595,-13.4721
-3750.0000,213.6776,62.8332,95.1370,-52.8409,113.9773,-50.5384,255.0456,-31.6528,173.7150,122.8366,-11.5356,-53.0200,62.8517,-152.4846,54.6955,-116.3653,-71.7987,-106.1748,-45.8428,-71.3801
-3742.1875,-175.1848,28.1270,-171.4264,1.2316,-76.7047,124.9769,-85.7639,289.4338,127.2020,407.7917,-240.3482,61.0499,-128.8692,131.9760,-174.6117,169.9169,-141.5072,-35.5757,-116.2301,105.4525
-3734.3750,182.3586,-69.1771,-119.6122,-61.9705,-133.9940,-5.1100,2.8305,-26.0907,-77.9236,202.1668,143.2662,-49.9087,107.8466,74.8412,171.5327,112.6266,6.1809,-203.6109,101.8087,-97.3570
-3726.5625,65.0546,-43.3664,10.3326,19.8104,-76.1579,88.8985,58.5739,250.4873,163.0712,294.6598,-314.0760,15.7055,-128.3335,21.7819,-249.2309,22.4271,-38.0330,137.4583,-224.0841,34.8926
-3718.7500,-125.2316,14.5130,-222.7086,23.3203,-196.2865,113.9863,-137.6545,163.1752,-70.8802,244.2666,-33.4107,-1.6091,79.5195,9.7701,68.0343,231.3138,19.7788,-52.4138,148.0564,-12.8196
-3710.9375,333.8321,-52.2997,76.5442,-31.0363,68.8801,-99.6405,235.4407,-50.8590,119.4592,-43.8259,47.6358,-112.2316,123.7050,-201.9571,74.6589,-129.5150,128.8887,-155.0287,10.5104,-114.2919
-3703.1250,-42.9272,-38.9597,-69.0377,39.8831,-38.7915,49.8961,16.7150,207.2980,193.9872,177.2569,-281.1929,20.8525,-94.9764,20.4592,-254.6184,19.7875,35.1306,-1.4817,-47.9288,109.3609
-3695.3125,149.1554,13.2419,-116.7990,-24.8200,-47.6275,-107.7022,41.8273,-134.6671,-74.6485,55.2398,149.8045,-40.1804,115.1922,9.7285,212.9616,119.9810,124.2095,-266.0971,215.4997,-83.1563
-3687.5000,217.3370,49.5061,60.5016,29.7373,58.5973,-38.2568,146.0265,79.4130,140.7729,86.2941,-259.1618,15.9839,-73.5875,-31.9824,-197.4029,4.2170,54.3301,-20.6661,-171.0435,23.3426
-3679.6875,-121.4699,63.8345,-222.1813,32.2088,-149.1518,83.2563,-173.7448,163.5977,-68.7435,243.4558,-64.1028,67.6566,-25.3304,163.3662,-2.7383,273.5312,-2.5286,-147.1607,52.4468,72.8735
-3671.8750,316.5621,-58.0312,20.9276,-47.3401,21.8921,-39.4385,105.3040,-34.4347,-46.4773,46.4341,142.7962,-68.9203,108.7581,-33.5010,167.7809,-33.3399,51.4086,-234.8942,0.7574,-48.8590
-3664.0625,-24.7654,-46.2937,-90.3326,42.3097,-50.4445,144.4660,-42.0116,332.1620,63.4217,191.0325,-298.7423,55.9342,-111.5574,114.1920,-201.1229,77.3680,-42.0646,-48.0172,-199.3771,208.9788
-3656.2500,61.9504,-62.4951,-211.5652,-4.4520,-132.7424,60.4315,-90.2877,-10.1575,-204.6389,106.7207,204.7747,-19.2723,135.1811,102.9342,266.0352,140.1632,82.4875,-311.1084,170.5457,52.8485
-3648.4375,229.1157,-68.2892,34.6165,-7.9646,78.3608,-21.2102,155.8659,51.9195,114.6958,58.8190,-61.2929,-48.4388,51.3248,-52.9191,-1.3971,-89.6376,75.4297,-177.8102,-153.1533,81.0780
-3640.6250,-137.0783,57.5744,-314.5689,19.7789,-84.8976,70.8209,-83.3325,143.7085,59.7063,260.6112,-115.7618,41.3085,34.1033,111.8739,89.7941,223.2026,-7.9987,-192.8493,8.7688,137.9509
-3632.8125,304.2780,79.9452,-137.2506,-36.6759,56.3409,-82.6670,129.9875,-156.0208,-20.7799,106.9212,245.3046,-72.5848,212.4178,-113.8946,267.5454,-3.4733,83.0816,-311.4391,64.2215,-50.7090
-3625.0000,50.5354,40.1622,-194.0503,7.4241,39.4376,47.6835,38.1957,228.1125,180.6148,382.1068,-214.7858,2.0463,-99.4397,-57.8324,-228.8940,15.6956,-63.0012,32.8376,-117.5263,189.4598
-3617.1875,-83.2935,-22.6624,-439.9438,-52.6574,-93.5566,23.0125,-23.6838,19.2413,44.9377,357.2965,54.0692,-51.4509,95.6397,-8.7598,223.6080,174.8773,-54.1641,-64.9284,311.6673,92.5548
-3609.3750,68.7784,-113.6307,-203.9690,-50.8300,69.3077,-34.8116,247.3257,33.2073,318.1074,261.3436,-113.2109,-97.4739,0.6020,-140.8813,55.0056,-103.1140,-7.4759,123.1279,42.7159,35.4444
-3601.5625,-320.6077,-80.0464,-394.4305,5.1961,-81.2672,106.9254,-15.0921,211.7747,237.8610,438.9811,-192.0208,6.0458,-39.8889,73.4890,-23.0686,111.4313,-42.2436,85.7625,111.2940,104.8732
-3593.7500,177.2109,-178.2692,-122.7243,-79.9268,45.3297,-97.1345,183.6818,-141.4640,69.7949,123.8514,264.4176,-117.1482,195.8402,-19.8976,323.1095,-129.7748,105.1664,-188.4315,223.0833,-98.5553
-3585.9375,59.8527,-151.7334,2.7594,3.2198,60.6842,29.5518,123.2451,167.0610,194.4983,247.4822,-161.3821,-26.8281,-82.6867,-4.5478,-213.9785,-187.2626,24.3049,82.1194,-173.4206,137.7134
-3578.1250,-109.0084,102.3274,-282.2677,17.3065,-221.4737,38.7494,-233.6989,29.1389,-126.2902,367.6657,215.2949,25.1839,0.2800,78.2413,89.4167,189.7598,31.9236,-155.8331,114.5749,75.4755
-3570.3125,248.2244,215.4390,58.7682,26.2183,-136.5824,-96.0266,-3.5610,3.2345,-6.0363,267.9055,153.0579,10.5973,-98.6748,-93.9419,-47.0926,-56.1655,74.5964,-79.7554,-159.3630,-22.7654
-3562.5000,-220.2010,170.8933,-145.8405,88.3803,-302.3427,140.5691,-281.0572,276.7319,10.5944,467.5432,-123.9063,123.0969,-265.3098,142.2681,-251.3039,181.2801,-40.4097,51.7049,-240.9935,178.3091
-3554.6875,79.2714,85.2613,-81.5716,26.8792,-272.2214,23.0781,-179.6581,-99.8422,-181.8878,202.1164,308.0598,-5.4493,57.9739,24.3513,181.4166,99.6459,119.4650,-210.9626,24.2991,-12.7596
-3546.8750,39.7699,83.5893,94.6999,79.5457,-94.1254,53.5114,-40.2586,76.5232,67.5944,305.6245,-139.0005,42.5501,-131.7768,-18.6814,-265.8996,-53.0962,82.2968,67.3072,-330.4864,55.0784
-3539.0625,-205.2991,120.3832,-158.5855,42.9680,-198.6071,131.4056,-293.4344,80.3805,-148.4803,382.6152,85.3456,59.8485,-18.0912,95.7806,-42.7857,208.6446,-21.4487,-37.9530,-48.8477,-13.6631
-3531.2500,239.5747,4.0867,164.0263,-2.6115,14.7979,14.2023,28.3025,-74.8714,-120.6744,117.5224,224.6174,-61.5007,48.5071,-132.8552,23.2662,-129.6860,72.6869,-84.3404,-130.3074,-130.5816
-3523.4375,-142.7806,-24.4691,12.4107,65.0817,-61.0393,85.7648,-84.1764,178.6814,-14.0778,261.2130,-145.4030,46.0990,-137.1650,48.2124,-272.9776,-22.2985,43.5538,132.0366,-160.0599,51.2249
-3515.6250,71.2740,-53.6047,-81.8277,-17.6092,-42.5033,-44.2837,4.7289,-135.3492,-218.1022,93.3256,312.0247,-53.1040,99.5815,-8.3351,184.2066,-4.5083,118.8135,-39.2128,160.6082,-225.6006
-3507.8125,169.5209,11.4102,165.0633,32.7754,132.1379,19.7419,177.7738,74.7066,65.9649,46.5336,-65.4323,7.6748,-130.5754,-91.7967,-267.5106,-271.6377,7.1661,200.6262,-233.6471,-161.3843
-3500.0000,-236.7483,133.9415,-118.5573,85.6505,-76.7419,178.2928,-106.6870,158.3276,-71.4482,130.2920,-92.4507,123.3520,-120.2622,102.2525,-146.7712,33.7686,-83.0151,145.9831,-6.4229,-39.6821
-3492.1875,155.5024,69.9431,78.3266,14.8932,84.8689,-28.6617,201.3739,-159.5636,-21.3644,-114.4300,105.0749,4.4524,77.5912,-68.2143,86.5415,-247.3203,29.2987,10.8010,69.3247,-209.5245
-3484.3750,-110.1206,53.0095,52.3489,69.0035,61.5958,131.4722,102.5781,183.6735,210.8649,81.9652,-286.3189,68.3888,-130.4518,-18.6028,-305.0592,-124.3339,-58.3045,203.7312,-159.8680,-86.2900
-3476.5625,-8.5172,50.3146,-54.3994,-16.7641,-7.4556,98.8661,32.0162,-33.8085,-42.6696,85.6452,121.5553,-18.7426,94.7575,-51.7252,139.6062,63.9425,-61.6797,-46.0997,118.2035,-265.8295
-3468.7500,122.2985,6.7623,191.0343,29.0689,129.6476,124.3983,204.6442,137.8491,165.9375,0.4724,-147.3880,-0.1438,10.1247,-100.7184,-130.5561,-204.6402,-35.9111,84.2015,-243.5856,-240.2642
-3460.9375,-254.6046,19.5099,-96.2279,68.7723,-82.9657,243.2443,-156.4319,255.8725,-11.1343,81.6455,-177.0895,86.0615,17.7671,128.5896,-85.4640,98.0780,-59.8705,60.8412,-22.1072,-158.4027
-3453.1250,168.8032,-154.4458,172.8017,-55.7037,40.6992,72.3833,75.7942,-63.8092,-72.9249,-127.8603,166.5582,-120.2983,214.7377,-116.8136,220.9823,0.1034,47.4614,-149.2424,84.7029,-403.2880
-3445.3125,-83.4955,-194.1716,229.1305,4.6329,98.6220,202.7596,22.3216,323.7792,130.5644,39.8913,-364.5458,-38.0414,-60.0460,-59.9951,-238.3343,20.3494,-62.9661,126.9368,-237.2690,-161.9640
-3437.5000,-177.1171,-75.2094,23.1471,-31.3290,5.2216,71.8504,-146.4652,155.1152,-148.2430,-18.6188,18.0371,-41.0410,176.8701,-8.4734,182.0518,220.3317,-14.7169,-72.1811,197.4654,-219.9642
-3429.6875,107.3190,-70.2611,284.1990,-54.8414,193.8256,-71.0791,224.7881,122.4289,149.9531,-162.1375,-125.3419,-97.7408,144.8137,-224.9988,75.4839,-143.7116,-11.4694,71.6844,-10.7871,-252.0193
-3421.8750,-341.4976,-25.5671,-83.9812,24.5839,11.1734,150.7489,-32.1941,380.5490,186.9312,-87.8636,-308.0169,52.3300,-1.5264,33.2382,-71.3954,4.9858,-143.4930,256.3273,-2.3255,-67.3427
-3414.0625,65.5345,31.9780,20.6753,-6.0534,43.3374,-1.5736,108.6646,-30.4675,-40.2630,-351.7015,90.2012,-5.4474,212.9958,-46.6503,253.6139,-148.4340,-15.6855,66.7942,160.0159,-256.8654
-3406.2500,7.2758,46.1488,174.0398,42.4423,162.1687,5.7302,116.2306,160.1756,187.2289,-233.8783,-305.9173,40.6958,37.1891,-75.9610,-217.7102,-214.2484,-38.2310,325.9006,-144.0136,-138.7789
-3398.4375,-176.1020,74.2090,24.3029,10.1598,49.8883,3.9390,-34.3096,10.7616,-73.3637,-199.1147,57.8293,25.1592,218.2782,-5.3758,147.8571,40.8486,-9.8978,71.9114,199.8508,-251.7993
-3390.6250,226.9187,-14.3831,299.9337,-50.8717,253.9495,-87.5135,278.5200,-118.3228,129.3693,-365.0012,76.9560,-85.1578,237.7241,-207.4180,92.8002,-233.6939,5.7765,-17.7519,-30.9279,-306.5156
-3382.8125,-127.9039,-84.8289,22.7335,-25.0102,89.1493,78.1928,1.5130,230.7967,146.2718,-52.7099,-234.7900,6.5037,-1.7153,30.6827,-220.1579,41.9093,-136.4273,85.7657,-138.5990,42.9126
-3375.0000,22.8193,-73.7246,-105.9306,-105.1226,-39.1342,-49.5563,-52.9567,-81.5129,-92.2938,-69.8438,187.0472,-64.2505,201.4158,49.2972,276.4892,135.0831,-90.0939,-44.1869,118.3052,-122.1357
-3367.1875,-49.7486,101.0149,0.1050,-3.9281,-5.7613,56.3167,52.2741,171.8217,123.8164,-1.3331,-257.4698,89.1592,-59.7891,118.5338,-96.1956,-16.1260,-198.1113,199.5053,-271.1591,-89.5781
-3359.3750,-283.9418,254.1477,-247.4597,63.8132,-178.0132,177.6037,-231.1067,181.6084,-124.6554,9.6138,-101.6223,190.4043,-12.6152,275.2011,60.4829,215.0816,-184.7540,-34.3913,21.7633,-42.6293
-3351.5625,258.7580,165.1290,65.8446,-10.5232,26.5714,-59.2804,45.3734,-92.7888,-67.2981,-264.6041,140.1405,18.1858,118.4337,-35.2700,118.0561,-95.8635,-29.5513,-160.4693,1.5618,-132.8776
-3343.7500,46.0786,200.6972,-18.2094,46.5149,16.7530,-68.5718,-38.5170,80.4365,105.6875,-237.2078,-127.5134,91.4506,-38.9323,26.8426,-149.8008,-105.2323,-29.7678,15.0807,-104.0799,77.4534
-3335.9375,282.0751,331.9520,-23.5748,-12.6070,12.6093,-294.1620,29.2799,-328.6151,-157.6325,-389.0776,308.5514,23.8728,177.4187,-88.3483,323.0791,-110.8818,64.6969,-205.6815,236.0053,-74.5462
-3328.1250,392.8759,408.9364,202.8546,41.0218,130.2264,-398.0234,182.8816,-285.9197,68.8088,-310.2051,-53.6245,40.1070,-37.4653,-228.7989,-76.2718,-213.8111,141.9089,10.2911,-4.1720,-68.8440
-3320.3125,96.2551,676.5167,-69.1091,101.6367,-140.5759,-264.2668,-162.9273,-190.5648,-129.1418,-30.7016,5.7624,192.0786,-161.7886,-22.6349,-127.0808,139.8689,20.7057,100.8919,15.2221,-119.5460
-3312.5000,413.3777,1065.8138,199.6385,181.1770,-127.7014,-289.8267,-78.0430,-362.5279,-301.4347,-128.4984,91.9212,290.3435,-112.3968,-121.8022,-42.1470,-142.7494,22.2052,66.1638,-159.6618,-365.5900
-3304.6875,164.0457,1098.6028,402.9381,283.2739,-108.3256,-158.8987,-168.6296,-11.9697,-62.2149,-146.7952,-110.4200,332.0967,-239.5159,-249.4882,-279.7390,-342.9003,54.1908,-7.0392,-268.0807,-52.1626
-3296.8750,553.1934,573.8671,402.7328,-2.9174,-70.4781,-526.4699,-95.7323,-562.8850,-135.5081,-292.5676,994.7796,-79.3208,164.8789,-469.6560,382.1913,-195.5282,302.6567,-426.7488,332.0224,-15.2615
-3289.0625,1048.7533,225.4520,449.9296,-108.0898,14.7357,-589.7198,62.5664,-626.4846,21.5569,-135.0033,1005.3763,-200.3021,28.6551,-423.5121,61.5076,-259.8476,305.4764,32.8631,122.4844,-189.0579
-3281.2500,617.4415,324.1823,82.2901,15.0023,-240.9070,-183.8099,-304.9796,-294.8876,-161.1964,160.7438,786.0181,20.8390,-80.4609,-18.1819,-85.0868,-37.0082,157.4230,165.6550,185.0671,-408.6962
-3273.4375,812.4770,413.2578,264.9887,-86.3635,-94.2318,-258.5619,-85.1808,-442.9506,-273.6282,12.8595,1189.0654,-38.4941,65.7867,-129.4824,208.7141,-147.7926,34.7119,-27.2285,203.0340,-778.0088
-3265.6250,543.6609,744.3939,-167.1584,5.9260,-304.4496,82.7586,-370.2402,155.0836,-227.9421,537.0626,684.2930,224.1069,-402.8440,137.2745,-481.3663,82.4751,-409.9105,548.9958,-417.9276,-695.2524
-3257.8125,380.7256,1075.4043,-664.3906,116.9872,-653.7812,358.9767,-793.4100,321.0442,-688.3468,703.1776,812.4379,385.9615,-346.5734,301.9148,-242.5443,284.6318,-501.6481,457.1203,-227.9772,-787.6046
-3250.0000,622.7429,860.3051,-123.6784,127.9736,-406.2126,237.0672,-289.6452,198.8707,-441.8483,324.1832,691.4830,249.8026,-210.3840,-40.5635,-290.7908,-241.3362,-294.4774,346.1160,-268.1094,-652.0893
-3242.1875,25.3604,228.7805,-63.3382,39.2658,-383.0449,260.7595,-340.2627,296.3425,-271.7085,346.8160,383.0407,111.4875,-150.6197,92.5308,-267.4690,2.2967,-223.7157,346.7352,-56.6606,-334.9680
-3234.3750,256.8946,39.1656,4.9002,-114.6365,-276.9843,35.3508,-87.9612,-77.2699,-387.6606,48.3814,672.4460,-58.1666,66.0164,13.4594,205.7336,144.8512,-167.0502,192.2427,104.7418,-560.9305
-3226.5625,225.4557,113.5745,74.1590,-7.3287,-96.9237,177.9285,18.3778,397.1242,-134.5901,-67.0338,42.7889,73.9130,-196.4085,45.3871,-351.1434,30.3835,-269.3882,406.7900,-419.8725,-381.8685
-3218.7500,-106.5625,28.4538,-174.1313,21.7712,-159.4406,409.0086,-192.8502,407.0483,-345.0581,-19.9210,52.7331,176.0656,-223.3400,385.9559,-157.5063,224.4567,-354.2608,109.8652,-328.9975,-151.3301
-3210.9375,16.0656,-128.1156,22.2255,-10.0456,-36.3696,310.6635,40.5507,235.5360,-149.9424,-154.2434,-118.5927,70.9899,-209.6081,214.1313,-145.1578,53.1005,-266.5302,21.4796,-382.5064,-29.2817
-3203.1250,-494.9649,-76.3985,-225.0411,29.5003,-135.9662,320.6098,-59.6903,576.3735,42.5484,-107.2575,-549.7312,106.8012,-310.5922,186.4826,-208.5584,356.9968,-285.5009,72.4055,-295.7449,127.0799
-3195.3125,-261.5625,122.7520,-151.8764,-19.6963,-62.1444,137.9873,160.4892,245.6696,6.4694,-326.8083,-219.3806,25.0114,-16.1177,-34.7116,305.5166,320.3705,-193.0253,-326.2244,-97.5061,-167.1042
-3187.5000,-263.8674,-55.8859,171.5773,10.6123,151.9224,240.5834,336.9423,495.1883,292.6352,-298.1317,-703.7018,25.1934,-206.3771,-79.6005,-180.1249,165.9705,-230.3056,-118.6129,-522.0332,-65.0840
-3179.6875,-666.0015,-385.3381,-69.7490,-72.4895,20.1771,402.3911,-16.4075,583.9417,124.0239,-209.2389,-614.8528,-50.8483,-117.4470,82.7444,-18.5827,548.7706,-315.4041,-167.7929,-291.3735,60.1344
-3171.8750,-304.7985,-481.5048,240.2542,-168.4538,148.7253,162.4692,221.5604,195.9729,176.7022,-486.0562,-340.6346,-214.8876,8.7974,-158.6410,109.3031,345.8648,-201.1979,-264.7013,-317.3746,-107.3775
-3164.0625,-555.1171,-309.2487,194.7536,-63.1354,66.7337,263.9877,102.0126,408.4825,277.8794,-421.4135,-643.0129,-62.7680,-219.5356,-57.6058,-193.3979,263.3841,-274.5492,-93.1375,-461.9505,-6.4332
-3156.2500,-353.8072,-318.3569,152.8964,-94.3889,24.3772,258.1636,23.1081,108.6604,-169.3005,-500.0939,-243.7871,-102.0442,-41.2176,-25.9407,241.5622,294.5769,-215.2552,-313.9252,-226.8467,-122.8178
-3148.4375,-227.7049,-473.7320,351.8319,-67.4307,77.7745,274.0615,75.9885,197.5669,-116.7384,-411.0336,-522.7886,-119.2940,-246.1336,-84.5780,-183.7135,89.4959,-194.2105,58.0372,-486.9946,2.5380
-3140.6250,-677.9403,-324.4299,61.4688,-21.1405,-175.1619,388.6631,-213.4532,201.2106,-296.4755,-186.2582,-482.0779,8.6535,-315.3753,139.5347,-180.3242,461.1195,-292.4853,135.7276,-304.4682,79.6020
-3132.8125,-315.0588,-32.0516,229.2077,11.5253,-81.0193,224.3386,26.2108,-183.0773,-423.1299,-459.3979,-168.2067,43.2616,-221.4910,11.7803,23.2400,223.8412,-211.6538,76.4786,-223.7903,-121.2702
-3125.0000,-597.5876,-68.1465,219.5492,122.3041,-53.3047,325.5417,-56.5226,212.1913,-249.1931,-432.0032,-544.8063,140.8749,-414.0535,75.5395,-390.6553,141.0605,-177.2682,355.7930,-295.5831,52.3955
-3117.1875,-532.3409,-353.4510,77.6866,9.7199,-84.8083,256.5476,-52.4713,-3.7201,-392.4597,-537.7955,-25.6023,-22.5757,-78.8186,80.1146,92.2416,219.0911,-42.0906,104.9010,262.4467,-164.1326
-3109.3750,-211.0830,-594.8298,382.8221,-43.5745,147.6450,157.4690,290.5667,81.2892,-124.7814,-526.6585,-161.4270,-146.4301,-104.6113,-93.3850,-154.8747,-100.9541,33.0562,250.9345,56.4505,-300.7289
-3101.5625,-603.7411,-460.1396,113.0779,35.7562,-49.8070,291.4898,-54.2904,362.4378,-211.9702,-246.4005,-283.1901,-11.4972,-191.3287,114.2134,-241.9209,143.1013,-8.7136,244.0999,119.5311,-167.2042
-3093.7500,-213.8596,-350.9323,195.8806,-14.2495,-2.7330,43.0413,103.3922,-31.8781,-312.6297,-383.5944,130.6675,-79.6301,2.5339,12.3759,172.6429,-30.2764,136.0673,-34.2094,299.2043,-305.1461
-3085.9375,-349.4831,-346.3046,189.1952,4.4017,-9.1868,-0.9818,95.5717,254.2594,-25.8063,-133.3571,-317.0323,-43.4222,-224.1590,4.9711,-238.3614,-75.2618,69.3031,250.9319,-13.6965,-55.6389
-3078.1250,-462.7372,-353.2969,-76.0855,-81.0609,-199.2599,-45.6009,-132.8706,62.8204,-290.5717,80.3048,42.6490,-85.9301,-48.4798,106.9733,158.0093,212.1618,26.9392,102.4764,365.8184,-63.6954
-3070.3125,-39.9023,-352.2673,255.7097,-78.6160,21.7115,-228.2109,199.7597,-83.6168,-107.2894,-28.9991,43.4260,-152.7634,-47.7259,-113.9962,47.4886,-191.3689,168.6445,103.0552,190.4179,-63.7168
-3062.5000,-364.7831,-219.9575,-23.1695,5.0781,-111.0222,-104.5268,-117.2950,187.2706,-92.6739,205.0079,-236.5370,23.7354,-253.6860,157.3361,-231.7622,5.3925,54.6406,270.9713,112.2863,243.5674
-3054.6875,-147.3267,-143.3217,-122.6923,-71.3395,-210.4181,-204.5023,-33.0039,-168.4981,-155.7174,252.3607,140.8602,-49.8942,-22.2708,93.0364,182.3887,16.5044,59.9887,31.2078,363.5477,143.1967
-3046.8750,-153.1175,-325.0224,-63.4563,-114.2831,-77.0888,-255.8046,137.0396,38.4211,343.9676,422.3954,-129.0657,-147.4806,-110.1550,-67.5658,-51.7680,-218.7275,55.0493,130.1428,182.4996,312.5320
-3039.0625,-247.8001,-523.5855,-314.0839,-246.9845,-69.6407,-322.9548,70.1978,-139.4819,313.7979,539.5985,135.1637,-271.5623,118.0858,-23.9800,322.1956,8.2179,31.2451,-139.7455,509.5977,429.0414
-3031.2500,137.3991,-526.3037,-133.8465,-266.3250,184.6442,-437.2859,324.2151,-363.5747,456.4562,462.6176,57.3326,-344.7056,188.2082,-212.5535,355.0672,-179.0031,99.2948,-106.8088,366.5757,461.3736
-3023.4375,-257.6354,-464.2924,-410.8163,-147.5936,90.6978,-272.8776,83.0195,-52.8913,583.9055,663.3879,-329.7981,-228.2795,58.0587,-86.4091,114.6470,58.4906,126.0940,-10.1002,358.2845,698.4768
-3015.6250,67.2549,-561.3594,-318.8480,-221.7121,219.6897,-476.5297,247.7646,-550.2587,453.3038,387.1215,276.0099,-384.0492,405.8686,-216.2960,646.2128,-35.0424,380.8468,-459.4604,717.9987,494.5482
-3007.8125,284.7950,-694.8654,87.7719,-216.8165,442.3031,-512.6139,471.1605,-475.0528,749.3261,279.4265,-15.5846,-404.4659,298.2974,-288.6012,281.4085,-365.0125,387.2191,-277.2391,303.3177,606.2209
-3000.0000,-85.9942,-644.6928,-158.9029,-193.0381,232.6115,-354.9909,77.2453,-317.1115,466.0772,400.4543,31.4795,-283.9184,308.3951,15.7675,402.2691,-60.2802,262.2844,-297.2928,424.3330,726.6470
-2992.1875,252.2252,-622.5483,92.4188,-223.9809,335.8959,-472.3956,291.3269,-508.2045,422.8072,135.4777,245.6065,-336.9478,412.5124,-101.8389,504.1759,-250.5414,319.3551,-380.3608,340.3833,572.0734
-2984.3750,-113.2580,-425.1462,30.0679,-85.3124,237.4757,-277.5043,118.7206,-91.9855,396.8625,183.7888,-147.9768,-101.9595,129.9222,129.9156,-71.6365,-92.5265,164.7208,-113.1098,9.7022,803.8010
-2976.5625,0.0237,-311.9673,-105.4938,-74.8542,137.8332,-303.8157,-55.1036,-301.9614,-34.2862,-63.0994,341.2654,-75.8413,324.1571,213.4942,270.3993,-8.6955,241.8865,-352.0793,298.8539,740.3316
-2968.7500,255.6711,-478.5143,272.3046,-82.0459,295.5164,-404.8708,212.4257,-329.6736,232.8937,-273.7168,130.8349,-152.1582,260.7152,38.3248,21.7581,-367.6088,322.3758,-131.7763,132.3325,749.1556
-2960.9375,-109.4081,-457.7869,39.4143,-68.1858,172.4968,-307.6176,-20.7438,-195.0509,183.4086,-139.0153,81.6319,-69.3327,211.5246,246.5026,46.3485,-122.2178,238.1632,-75.1449,364.1011,699.3259
-2953.1250,341.0060,-393.5872,267.0151,-109.9712,325.9588,-374.8790,316.5797,-556.9511,116.4041,-390.8257,454.9600,-141.2850,363.8469,68.2009,309.4940,-410.3070,266.4622,-258.0313,392.4179,411.0050
-2945.3125,123.4961,-435.3732,285.7094,-59.3999,345.4864,-247.1102,224.9916,-206.7915,281.4796,-298.5880,33.3057,-79.9605,89.2114,85.9025,-150.3221,-392.3737,153.8187,17.1507,139.7653,649.7575
-2937.5000,-32.0040,-380.1292,22.4350,-106.4658,155.0410,-291.2875,34.4259,-397.5598,-19.3917,-231.2664,393.6762,-105.0363,266.6184,152.6578,247.9158,-105.3591,175.2224,-138.6127,512.1888,458.6002
-2929.6875,252.8367,-306.6127,325.4893,-92.9841,273.8979,-392.2055,375.1887,-388.0702,137.0384,-368.6751,220.4042,-101.1760,166.3587,14.7070,0.5103,-390.0770,177.9385,4.9024,199.9348,320.7392
-2921.8750,-264.3958,-261.1826,74.5078,-37.3942,59.7050,-166.1816,12.9081,-51.6099,31.4565,-106.1320,5.0602,16.8745,61.0297,202.7370,-214.9721,-164.8526,12.5975,191.3931,174.6043,435.8574
-2914.0625,28.6080,-356.5135,209.7666,-127.9265,47.7432,-288.9274,110.8685,-394.9250,-53.8914,-154.3481,397.0137,-138.4803,232.9741,43.0562,213.8465,-287.3661,127.5167,-9.8979,395.5661,129.2246
-2906.2500,49.4098,-335.1106,450.8254,-82.4448,104.5571,-306.9528,204.6223,-154.5029,332.5471,-171.8376,86.7123,-128.1390,32.6710,-83.9070,-244.5861,-451.1852,149.1988,116.5578,100.2673,185.3546
-2898.4375,-66.1287,-311.0337,368.5751,-126.2021,-13.9418,-279.2765,-23.9430,-310.3586,65.7069,-217.6120,481.0585,-130.3270,133.0622,16.8476,40.6796,-240.2828,103.5800,-104.2779,371.6921,139.2288
-2890.6250,246.0609,-385.2958,663.0347,-164.6401,95.2622,-353.9177,159.2154,-421.5543,139.5648,-328.7056,444.1176,-180.8378,96.1675,-57.6521,2.6792,-461.6774,100.6701,-3.4328,156.8466,64.8016
-2882.8125,-172.9601,-242.7803,364.3071,-84.0635,-91.7346,-138.7453,-138.8180,-57.9165,208.2521,-111.9956,145.9228,-17.6186,-53.9638,156.6636,-221.5808,-282.2725,-72.4407,174.2430,89.7729,207.2159
-2875.0000,168.2968,-147.9865,402.8659,-129.8268,-128.4463,-249.2803,-65.5695,-425.9862,-48.7725,-331.9957,698.0720,-90.6744,166.2394,47.2298,183.5249,-318.5547,21.7635,-82.8091,325.0534,-50.0415
-2867.1875,209.1004,-142.7385,553.9710,-60.9738,-14.6350,-209.3631,12.2297,-238.5885,212.7325,-291.5192,297.7527,-81.8031,-14.0234,-96.7204,-253.8274,-462.3874,62.4809,133.6267,13.8305,-9.7911
-2859.3750,-112.8435,-148.2152,293.3618,-64.7215,-163.5378,-103.1337,-247.6927,-204.8635,-48.4425,-148.7180,330.6883,-54.5250,56.9951,46.7004,0.0979,-99.8991,22.4842,58.3867,254.8953,-50.2036
-2851.5625,237.2861,-151.6509,555.8086,-71.2880,-13.3908,-173.8746,50.4502,-348.1252,-44.5805,-291.8900,371.7003,-103.9440,134.0938,-96.8521,78.1231,-389.3641,90.5650,21.1696,112.0506,-193.5615
-2843.7500,-107.8756,30.5902,368.9986,44.6376,-125.5141,6.0708,-172.6775,52.3213,26.0218,-147.3751,-35.6329,85.3187,-88.1213,83.2742,-292.1964,-282.1648,-43.6409,202.6698,-57.1166,23.8230
-2835.9375,-9.6709,129.2069,223.5718,-10.9782,-199.2587,-66.5864,-172.4311,-204.8363,-193.9871,-221.4548,369.4374,33.8094,133.0645,46.8563,185.9079,-98.5478,-15.4424,-50.4324,218.1588,-159.3620
-2828.1250,47.2727,44.4941,319.8705,4.7588,-103.2938,-45.5620,-3.4490,37.6779,158.7277,-88.8527,-49.7973,26.0465,-66.0532,-5.8286,-123.2718,-224.2518,-28.5297,147.1575,-111.8615,-137.8439
-2820.3125,-224.2701,53.3122,-5.2949,34.1579,-280.7879,143.0302,-290.9271,227.7809,-18.9753,100.3250,-7.5453,92.4373,-60.6471,184.0553,-6.9354,1.6206,-90.0800,15.3109,37.6637,-58.7249
-2812.5000,264.6458,154.5476,218.9822,27.8213,-130.8382,-1.9607,-67.9470,-64.7057,-126.2315,-44.0614,179.2359,22.4479,53.2597,-34.6435,179.9366,-217.0497,47.8337,-164.1233,34.6913,-203.1484
-2804.6875,-31.4720,174.6928,83.2509,84.7573,-155.9139,118.9763,-165.9822,314.7599,31.5052,224.4916,-324.0315,114.5307,-192.8795,49.6050,-323.2567,-22.8101,-71.3036,102.4065,-260.3569,28.4006
-2796.8750,-60.0828,251.3859,-162.9556,42.2129,-219.4577,127.4763,-229.4990,66.7893,-252.2080,197.6150,53.2168,110.9797,0.5234,132.4596,54.0957,245.0132,-100.8916,-172.5140,27.1638,-35.4622
-2789.0625,189.8988,183.6087,22.4060,55.8060,2.5669,55.4983,29.5698,105.3335,-30.3580,89.2600,-127.9833,59.4188,-34.4910,-50.1558,-163.9422,-48.6401,-26.9113,-28.9070,-144.7425,3.2375
-2781.2500,-156.2935,116.6511,-197.3822,87.5464,-107.5418,238.3795,-190.5009,250.7646,-103.6154,308.7675,-276.4162,121.9648,-70.6791,133.0723,-164.1656,171.5634,-92.0812,11.5724,1.1945,112.8487
-2773.4375,155.4034,182.5732,-84.2980,54.2174,6.2319,93.1516,33.3159,-76.9254,-173.9840,128.1880,21.0760,41.6811,116.0250,-47.7512,169.5300,-46.2944,8.6586,-135.0754,66.0792,-67.6128
-2765.6250,-23.9278,283.4057,-130.2464,150.6074,67.9564,191.8600,22.1001,206.3285,71.6241,263.5558,-431.4724,124.7805,-115.3338,-95.5880,-282.8333,-57.2219,-29.6467,107.2358,-253.1137,104.8985
-2757.8125,-12.3984,295.1158,-369.3153,106.7411,-60.4399,135.4763,-106.2396,3.4975,-202.8511,281.8304,-9.1259,89.7829,87.2116,-4.5171,102.7268,180.7676,52.9476,-161.5493,40.6122,-23.6503
-2750.0000,379.1112,262.7719,-68.4199,116.5959,168.1283,68.0127,195.4017,-63.4221,-49.3703,105.0316,-112.8027,40.5736,56.7356,-181.5227,-36.7151,-144.3015,127.5092,-88.4074,-236.6829,-90.2431
-2742.1875,-60.9544,243.8710,-317.0741,179.5716,-7.8402,259.0025,-127.4932,238.1419,-41.3963,332.7003,-399.1020,151.6333,-82.3103,45.9318,-212.7503,83.0728,39.5159,35.2025,-254.5471,137.6647
-2734.3750,203.8627,190.8386,-252.8617,103.7817,18.0794,136.8789,8.5003,-139.4125,-198.5276,175.2698,-5.4834,45.2318,91.5686,-38.6701,144.1662,73.3741,127.4370,-228.3134,-25.4632,-19.5017
-2726.5625,162.5193,325.5612,-155.8193,181.1629,42.8164,196.5363,33.3268,139.8126,81.1728,198.6188,-459.0681,162.9643,-215.7369,-14.4489,-309.0941,-13.5496,17.1661,47.9720,-416.5929,151.1400
-2718.7500,-66.2167,551.9256,-507.1418,194.4515,-198.8006,285.8659,-318.2161,118.7201,-269.4624,251.6459,-186.0319,281.4133,-125.3944,221.4201,-35.7185,332.2005,-106.4699,-77.0843,-189.0688,167.4726
-2710.9375,276.0314,507.2316,-251.5034,162.7931,-54.4522,135.1216,-63.7862,-67.4562,-161.1453,101.6048,-41.9855,162.6879,-55.0844,-39.8220,34.6435,71.8858,23.8686,-52.2206,-197.5586,17.7766
-2703.1250,-87.1766,354.0653,-341.3127,192.4311,-70.5470,263.9260,-189.7959,245.9374,-67.2456,268.1219,-315.4384,184.0140,-144.2546,53.5128,-164.4830,238.1133,13.7598,76.2193,-244.5289,111.6822
-2695.3125,141.3332,299.6344,-277.4162,117.6953,-6.9147,180.4846,-127.0833,-94.9287,-297.6088,111.3950,77.8448,105.2219,102.3386,43.6532,229.1882,228.1392,65.4070,-152.6053,-15.7097,-81.6366
-2687.5000,142.8408,230.1307,-132.5499,174.3900,100.6896,212.9734,17.6279,159.1290,-6.9899,108.5957,-401.9377,126.2642,-83.1057,-33.2675,-214.1709,4.0889,68.0162,130.5040,-329.9435,26.0111
-2679.6875,-175.2995,227.0166,-391.3119,179.2844,-84.3197,283.8806,-240.2831,230.6175,-117.9514,216.2236,-294.3487,156.7995,-13.1739,112.2502,3.8379,222.4583,66.0155,22.0314,-50.7835,24.1168
-2671.8750,253.3126,268.6377,-44.3442,135.8387,115.4120,78.5192,106.5536,-84.1853,-29.1811,-25.3967,-94.9556,59.1780,114.5475,-129.4614,167.6706,-92.4050,177.7755,-111.7149,-78.8331,-180.0227
-2664.0625,-22.8745,273.4394,-81.1617,187.5224,78.3668,187.3558,-41.3759,246.2260,80.8416,84.1860,-426.4236,161.4928,-106.5214,17.0135,-162.3031,16.9157,78.7334,104.7503,-282.7033,-32.9334
-2656.2500,145.7556,300.0795,-193.1576,95.6914,3.1713,38.0446,-115.4687,-86.5065,-177.2800,-27.3666,86.9426,65.7971,149.2692,-21.6636,277.5897,162.1206,141.5425,-184.9486,-9.6891,-180.9544
-2648.4375,326.0388,267.2980,-9.5352,113.7011,186.6074,-37.6903,104.0805,-14.6665,42.2242,-28.3381,-208.0751,29.1969,1.6665,-205.7776,-54.9041,-60.0969,180.9752,-5.0691,-321.0622,-71.3503
-2640.6250,-87.7708,275.4460,-335.9885,149.3968,-30.0101,75.5393,-185.4335,99.1576,-99.2768,195.6712,-204.2170,110.6967,4.9727,17.1060,-14.4902,237.6471,154.3563,2.7957,-101.4982,43.2669
-2632.8125,324.4035,193.5826,-78.4839,63.2110,117.3525,-109.2354,109.0389,-233.0502,-136.8034,-62.3271,161.6788,-14.9308,189.3071,-129.9348,243.9897,-20.5774,250.7401,-183.3625,-75.8984,-177.1153
-2625.0000,-0.2112,184.9021,-56.7667,129.7471,101.9237,58.1872,19.7333,155.9427,68.8918,69.8683,-331.2207,103.4608,-83.1520,1.2556,-175.3285,0.3847,102.3161,90.6835,-329.1287,-8.2963
-2617.1875,-42.9617,247.0994,-278.1869,98.1089,-46.6193,92.5280,-128.6959,-30.1392,-153.5059,67.9859,-3.2265,95.1039,99.2962,73.3784,264.2712,182.2931,94.7821,-164.3906,85.5605,-156.5564
-2609.3750,263.9867,200.9241,7.0585,88.4447,165.5194,46.5019,194.5661,-1.5968,59.7758,-51.2557,-121.5853,45.0347,17.4127,-118.9068,35.5537,-120.1609,84.9164,2.1607,-135.0819,-201.1470
-2601.5625,-140.7842,252.0474,-236.4005,126.8173,-5.0335,205.7859,-86.8734,268.2781,72.4022,108.8243,-255.7256,127.7870,-80.1996,4.0720,-98.9055,112.6804,-37.6437,125.0451,-82.4451,-77.3642
-2593.7500,198.9328,203.6779,-130.3969,27.8305,100.8932,52.5600,130.1642,-67.3775,31.5098,-79.6020,106.6675,-15.0452,136.7081,-184.4208,228.1851,-1.9414,20.3091,-99.5887,81.7301,-265.0596
-2585.9375,38.7765,7.3993,-86.2751,13.8971,182.9319,59.4260,212.3310,198.0573,371.7425,75.0592,-399.8509,-33.8672,-39.2858,-176.7912,-131.6348,-31.4823,-33.6354,127.8828,-148.0183,-72.6399
-2578.1250,-102.3879,-64.8444,-340.1517,-61.9756,38.0013,24.3654,30.5221,52.5680,190.0421,114.7969,-67.3462,-60.6185,110.7645,8.9501,276.5957,228.0580,-34.5489,-119.5854,203.2971,-143.1324
-2570.3125,290.2704,10.6894,-0.2373,-34.2241,194.8873,-77.9048,297.5390,-86.1524,273.1523,-97.6721,-59.0522,-64.3583,46.6412,-128.4957,101.6745,-57.5919,42.3511,-79.2771,-36.5520,-206.8253
-2562.5000,-95.8915,326.4176,-230.1327,139.2657,-0.0181,132.0504,-79.2341,234.3661,152.5031,2.0791,-289.6470,178.1747,-147.3103,81.2672,-202.0921,115.9603,-27.5528,-8.7349,-105.2350,40.7196
-2554.6875,211.3221,421.5520,-159.6722,104.4225,-38.5489,-55.5866,-8.6392,-173.7214,-106.7741,-220.7673,185.2018,134.1646,33.1610,41.4634,199.5896,75.9469,104.9424,-227.8144,97.5105,-108.3246
-2546.8750,136.1832,310.2800,-59.5887,101.1959,23.5425,5.3591,53.5909,109.7792,176.5719,-49.0289,-304.3342,127.3691,-160.7586,-6.7559,-215.1329,64.5040,-5.9545,82.7046,-223.1626,28.2393
-2539.0625,-167.4039,180.6030,-339.9376,46.9360,-181.7756,92.9297,-225.6070,196.9175,-29.4676,186.3439,-143.2986,73.1030,-73.0975,81.6506,93.7113,446.6927,-28.2621,-11.1585,70.7568,6.4447
-2531.2500,237.8822,-153.2421,-20.4545,-74.8116,26.7535,6.3442,131.0509,74.8739,107.3370,64.5544,-45.3717,-129.5835,25.4481,-114.0907,266.4766,176.7553,26.2891,-97.2006,-15.4436,-114.5099
-2523.4375,-132.7303,-207.9895,-195.8635,-39.0549,-74.5980,160.8712,-44.1669,412.9556,262.2922,255.8710,-405.4211,-38.3611,-112.9198,77.2688,-19.6855,367.9017,-98.0659,93.8769,-69.5842,77.6620
-2515.6250,48.9257,7.5771,-253.0112,-55.8113,-58.6535,28.7076,7.9006,-12.6640,95.5479,88.5019,124.8151,-48.3044,87.0302,19.9369,364.4873,274.3558,-21.1232,-216.7623,183.6090,-125.8357
-2507.8125,181.8701,139.3820,26.0993,8.1766,111.5611,-60.2227,215.2581,46.9426,339.0776,0.3669,-256.7009,12.8767,-109.7513,-104.1517,-54.0624,-107.9554,-28.9188,-84.1686,-139.9516,7.9236
-2500.0000,-189.8410,82.5746,-222.4354,3.7011,-26.8381,-51.7216,-70.0126,18.9931,127.0326,81.6679,-175.8757,54.5333,-28.1598,124.2284,101.7506,157.1975,-13.3340,-210.1523,85.8673,164.1177
-2492.1875,206.3582,-84.3412,48.9012,-74.4844,134.6500,-221.3178,201.6083,-335.0764,105.8673,-197.1320,57.9124,-79.7725,133.3523,-8.4791,301.5127,-48.7219,102.1563,-271.2618,60.6207,69.2008
-2484.3750,-125.8174,-66.6540,-51.1426,9.9766,34.7659,7.6908,-8.1385,78.4746,153.3411,32.6730,-410.7466,42.8780,-114.5521,112.3807,-166.1679,107.9064,-54.7447,99.2511,-201.0555,299.9127
-2476.5625,-127.0380,36.0377,-228.2405,-37.9369,-106.1330,-23.2834,-147.9150,-61.9604,-207.1886,38.5029,-36.4217,33.5227,39.5386,155.2540,244.1667,297.5836,-90.6554,-43.2313,114.2948,123.6571
-2468.7500,17.4646,4.4285,-0.6464,-40.1819,46.6685,-54.5672,115.0248,53.2796,92.9814,8.0190,-325.3541,-3.5443,-63.6488,-22.1517,-5.7526,8.9788,-120.8748,101.9703,-160.6646,94.0826
-2460.9375,-392.5661,-89.6702,-251.5790,-18.5944,-92.0329,61.6755,-134.5458,244.0620,64.6825,89.0651,-318.8553,25.8702,-20.3562,130.9804,75.7932,199.8854,-109.6155,7.6891,61.8429,212.0395
-2453.1250,21.3500,-204.8181,6.4090,-92.6822,93.2099,-158.1226,160.8322,-158.2159,29.3272,-276.9383,196.6076,-115.0713,238.9140,-13.9488,371.3330,17.7591,93.6026,-211.6726,195.3415,-6.0407
-2445.3125,-151.0146,-167.2793,6.1060,-28.3971,91.1739,-50.2229,122.9396,170.2158,285.7075,-57.2449,-283.2501,-17.6487,-56.1115,57.8022,-144.4420,89.3224,-7.4819,107.6838,-117.4931,103.5990
-2437.5000,-174.4811,-51.7854,-232.3046,-56.3003,-72.9383,-32.3486,-41.0444,5.6182,85.0257,34.4254,-7.1712,-16.2494,72.8048,114.5758,242.7326,255.9026,-31.6386,-93.0029,210.6213,-59.7929
-2429.6875,170.3322,-59.0313,93.5213,-59.1853,144.2056,-111.2126,286.2357,0.2508,265.5871,-79.6560,-159.8221,-81.6069,-4.0317,-147.3759,55.1738,-79.2599,-2.5489,-28.4656,-6.0114,-99.9463
-2421.8750,-283.4798,-21.8623,-167.2691,31.3373,-43.2471,67.3520,-48.0846,253.3313,187.5847,172.6933,-311.1605,46.2280,-191.5016,69.0670,-132.0378,172.9665,-33.0669,80.5055,67.7286,80.3512
-2414.0625,62.3366,-99.0414,-54.4622,-33.7632,-40.0636,-40.4323,102.2277,-184.9495,45.2209,66.7031,133.1708,-75.9708,31.7098,-37.8432,239.4665,29.8733,101.0580,-136.8902,274.1624,-135.6907
-2406.2500,-6.4681,-97.8812,51.7101,7.4074,-7.5107,29.1251,134.9251,105.1150,336.2280,173.0521,-312.1563,2.4337,-154.7187,32.5915,-204.6809,-47.8683,-2.4766,111.0677,-109.0862,8.6178
-2398.4375,-152.3233,1.2899,-247.1665,-26.0916,-158.9798,59.7150,-90.4189,-10.7885,0.2417,167.4350,11.4905,21.3908,22.8294,137.0924,120.1439,204.4481,-78.0336,-70.9641,130.6569,3.9508
-2390.6250,241.7420,7.3695,92.8337,-69.1676,35.4430,-114.7944,178.1485,-183.8230,85.1527,-79.2922,22.0728,-80.1126,70.3030,-146.4914,57.9247,-79.3327,-34.6830,-28.1147,-36.6748,-57.8403
-2382.8125,-234.1005,57.5524,-43.0739,7.3082,-101.0272,78.8163,-142.1691,157.2774,96.2033,152.0900,-225.2908,56.8293,-139.1408,48.0122,-224.2241,114.9772,-158.2424,198.8662,-89.9503,100.4820
-2375.0000,49.7351,94.4514,5.6809,-18.6708,-124.8129,-18.8509,-91.8135,-197.9168,-221.0722,-18.8213,338.0791,17.0462,58.1337,62.2117,120.3523,128.0296,-16.1111,-45.4724,123.4934,-142.4897
-2367.1875,163.1603,30.9077,195.0008,38.5325,-9.0270,22.0291,24.1217,27.4275,-30.7869,-50.1893,48.0123,52.2452,-193.0329,29.9434,-351.5211,-87.4009,-7.4301,208.7364,-149.5327,-62.9116
-2359.3750,-122.9668,25.8696,-67.2222,48.7603,-159.7587,128.4375,-236.4723,60.3108,-216.9879,18.9939,191.3812,83.1092,-87.7220,174.2265,-98.9223,129.7049,-11.2711,63.4661,128.9292,-65.8113
-2351.5625,265.3186,-114.7605,197.9310,-35.2689,31.9033,-48.7444,175.3352,-189.4208,-99.8026,-193.4173,308.1400,-91.6503,68.0087,-113.0733,130.1143,-156.7563,95.2861,-40.4289,94.8107,-204.3246
-2343.7500,-141.9457,-101.9369,56.5231,10.6379,1.0172,103.5462,-2.4012,184.3304,90.8580,69.6356,-163.6873,18.3762,-145.8446,41.0868,-267.4501,33.2470,-66.7285,184.1596,-66.9103,-13.3664
-2335.9375,-80.7094,-4.5453,-92.3967,-16.5721,-73.3523,101.4172,-40.6290,-38.3549,-203.9494,69.2600,164.0612,25.9643,-1.1439,112.8219,99.5647,215.8537,-74.2130,-35.6989,207.9347,-160.8571
-2328.1250,53.1614,-82.4849,44.3145,15.3167,26.9251,91.9492,134.7946,99.6153,44.9092,59.5404,-213.5678,28.6974,-120.7891,67.2121,-130.7600,-14.9064,-45.0565,169.1000,-44.5724,-95.6941
-2320.3125,-290.1733,-111.6025,-243.1898,-16.2789,-77.0015,134.2874,-79.9891,179.3864,-21.4406,139.6216,-98.3906,46.9084,-40.6318,220.4172,59.7159,249.1306,-108.1067,70.7052,209.7127,-51.7294
-2312.5000,106.5995,-65.6024,32.3924,-90.1448,89.1662,-68.2569,234.3141,-169.7423,-38.7042,-62.2006,250.9268,-50.8946,125.6113,19.7323,153.2599,47.2985,-62.0690,-58.5766,151.0814,-215.6688
-2304.6875,-214.7866,-107.7289,-22.1983,-53.5087,73.1722,62.0792,33.4523,218.0005,92.8694,178.8521,-169.9246,24.1641,-147.3085,112.9088,-340.3688,178.3414,-207.1994,252.0140,-135.7111,26.2384
-2296.8750,-190.3952,-189.0553,-173.0138,-101.9015,-40.0243,21.2412,-79.6118,-6.4402,-204.7644,102.7248,303.9914,-67.6304,143.5756,110.9144,170.8193,249.1844,-76.5426,-4.5820,171.2899,-123.0601
-2289.0625,128.9912,-116.3823,161.1563,-56.6010,182.7783,-86.5804,254.3276,-40.8662,56.6038,-42.3996,47.9010,-75.6276,35.4621,-107.0792,-82.9809,-152.9782,-3.8855,103.8267,-106.7132,-119.3632
-2281.2500,-249.0719,66.8651,-166.1363,-5.2703,-33.8644,63.1548,-109.1703,184.2748,-12.4710,220.0226,-22.6635,32.1175,-71.1096,7.4279,-188.2420,145.4243,-134.6729,182.7850,-28.1656,-4.1120
-2273.4375,118.7731,12.0382,7.4555,-54.3703,31.3899,-19.2021,29.2214,-156.6704,-167.6390,26.3499,335.6683,-84.2392,104.2146,-149.1870,133.3938,25.7391,-13.5729,22.6398,94.2683,-232.9602
-2265.6250,-40.2934,-111.6716,128.1193,31.2798,78.7243,101.5552,39.6899,185.4972,27.2904,111.7928,-241.8884,-44.8782,-105.3700,-174.6597,-295.8663,-109.8161,3.6130,321.5976,-134.2168,-73.7175
-2257.8125,-182.7766,-114.7689,-53.6296,7.5529,-28.3617,103.9305,-140.2581,42.2701,-226.1957,77.8468,90.1940,-37.1351,82.6472,-23.4903,75.4683,41.2508,37.3831,108.1429,181.8849,-179.9008
-2250.0000,96.5492,-82.0345,241.4203,-10.7329,194.3539,-5.8800,155.5918,-30.1527,-76.8908,-104.3008,17.0617,-57.1017,83.4620,-132.5140,3.5817,-178.8845,34.9486,141.4828,-102.2304,-251.3001
-2242.1875,-248.3196,-5.4608,16.2643,45.5480,115.8775,174.1331,-141.7616,296.2310,-116.7854,39.3556,-134.3336,64.7374,-67.9510,48.2589,-220.5323,111.7794,-98.6873,183.6285,-128.5638,3.1093
-2234.3750,174.4478,-110.2159,130.7324,-98.5843,158.0391,-42.1838,-27.4814,-103.7255,-221.0347,-177.3225,567.9075,-113.0911,195.2648,-94.3221,188.9824,-66.8923,-26.6828,-132.5587,12.7456,-64.8156
-2226.5625,100.8863,-219.2643,224.8598,-113.5428,178.8846,-20.7883,-5.5170,138.0320,94.4149,-7.2772,183.8907,-77.7093,-40.8171,1.7927,-193.7927,-154.8299,-170.0065,145.9634,-376.2491,214.9555
-2218.7500,-273.8359,-207.4521,-134.1752,-125.2232,-105.4312,98.4667,-290.7104,183.6470,-153.2896,112.6231,375.7520,-0.3347,41.9655,304.7656,110.3080,258.0979,-263.5052,18.3416,-117.4092,298.5532
-2210.9375,84.4916,-201.5795,131.8229,-124.3067,13.2935,-4.2040,12.1412,83.3301,-106.9576,-62.4107,383.6330,-112.4405,50.7881,-53.1698,155.4487,-26.9057,-150.9760,24.7863,-215.5394,271.1833
-2203.1250,-345.4978,-174.9911,-107.5019,-42.4941,-151.2896,161.8586,-225.3228,395.7440,-12.9309,141.2801,72.2005,-45.3186,-113.7022,-33.4167,-155.7279,176.7902,-193.7637,227.9565,-187.9775,475.5040
-2195.3125,-120.4866,-196.3797,-115.8348,-81.8995,-195.8780,41.9422,-159.7923,-52.8309,-278.9029,-14.0247,577.8082,-17.0141,97.8047,251.2926,167.0921,205.4731,-74.5697,-39.8669,106.5792,173.8140
-2187.5000,-8.5364,-190.8028,144.7749,1.5115,-43.5262,83.9887,29.6822,62.5585,-14.9208,-45.3756,31.3610,72.9155,-115.7449,293.9731,-267.1375,-45.8725,-67.4442,107.2695,-236.9269,217.0584
-2179.6875,-332.0053,-92.6075,-89.0348,-4.9213,-166.5809,145.6514,-241.2459,123.5616,-174.3353,88.8923,-19.5232,48.3342,-18.6983,172.2737,-22.7757,162.4221,-144.7348,31.0076,2.1637,351.8822
-2171.8750,80.3632,-136.5399,92.9897,-113.0476,-56.7929,-38.8157,16.6723,-207.5676,-173.9054,-57.9751,383.4328,-120.7578,90.1824,-122.5513,160.4110,-58.4242,-118.1993,56.6012,30.0865,168.5384
-2164.0625,-171.4726,-143.6348,-27.2049,-76.9340,-141.2281,96.5448,-104.6326,185.1203,36.3068,78.9638,78.2106,-16.1520,-140.1534,51.4277,-216.6196,41.5336,-265.8875,297.0012,-82.2198,268.9875
-2156.2500,-114.0970,-86.5016,-106.2134,-85.6334,-108.4814,55.1264,-35.7597,-75.9844,-77.3018,-72.9012,219.2157,-37.5380,112.7028,46.5922,256.5477,110.6926,-172.3867,2.6020,257.6462,81.6342
-2148.4375,-32.6809,-75.2966,158.8121,-9.0960,83.3018,63.7762,157.1496,42.9611,225.1230,-173.7119,-323.7236,-1.3688,11.6019,-53.1922,-27.2430,-137.0848,-126.8426,189.2617,-48.4453,128.3289
-2140.6250,-370.8830,-96.6741,-158.7787,3.3592,-159.5331,187.8470,-196.5632,277.3098,55.9300,-12.1074,-163.2541,44.4202,-11.1035,143.4620,23.3639,207.5612,-146.9174,98.3331,106.8458,179.4045
-2132.8125,155.2039,-133.7223,32.9073,-77.1766,-40.0860,13.2439,70.0097,-7.0253,29.0194,-223.1947,249.5333,-82.1788,108.4870,-29.5708,216.2729,-3.4794,-43.7187,-113.2867,176.4090,-67.2465
-2125.0000,-89.8680,-132.8927,25.4303,-19.1149,-45.7976,117.5027,-9.5764,465.4989,243.9496,-9.4228,-271.8283,38.8430,-191.0668,111.2213,-266.9641,-45.6716,-182.6792,168.9466,-68.1964,110.9382
-2117.1875,-151.3414,-159.4507,-215.4479,-102.2088,-140.9142,96.3690,-140.5679,297.6283,3.4706,-66.0501,147.3989,-0.3604,117.9686,237.6263,190.3858,117.7415,-209.0492,-138.2062,222.7901,-19.2921
-2109.3750,186.1764,-138.9775,136.6540,-85.1441,101.9564,-27.7376,176.4273,173.7785,173.9819,-189.6529,58.5967,-26.8781,66.9702,77.0404,-44.3039,-189.8244,-118.4289,-117.3302,-73.2314,-32.5416
-2101.5625,-234.7711,38.0851,-90.7124,8.2859,-50.6390,112.7297,-160.0478,314.4997,21.0300,24.3034,-94.6569,124.1951,-122.4926,254.9982,-233.4568,135.1729,-186.2714,-43.8896,-70.7218,145.7364
-2093.7500,114.1242,71.0130,23.7582,-59.0666,-46.3995,-28.9354,-45.6922,-121.9139,-121.0955,-116.8868,276.9594,-18.0922,65.8855,3.8252,139.2288,67.0354,-85.2829,-222.5864,31.6127,-32.1607
-2085.9375,24.5089,-53.5511,106.7241,-28.4604,1.3245,17.9209,2.1475,36.1753,148.2581,-104.5742,29.1083,-44.9320,-32.2454,-94.8452,-143.5972,-141.6034,-67.8094,4.2330,-196.5704,126.4162
-2078.1250,-84.4069,-127.3822,-37.6112,-90.3114,-69.2527,-51.5145,-68.3143,-216.0336,-31.6947,-174.5640,363.9773,-79.7052,264.3244,55.1665,301.2672,45.4510,-0.6593,-244.2396,151.9420,-16.3307
-2070.3125,246.9178,-77.9282,313.3007,-48.4204,172.4207,-140.6858,284.4700,-341.9849,100.5934,-264.3005,-94.9002,-72.1429,249.1393,-70.5725,175.3857,-116.2418,83.7118,-124.4600,-45.3124,-141.8497
-2062.5000,-228.9142,9.3944,29.0550,31.6140,35.9393,90.0089,-36.9049,71.9267,74.7203,77.8219,-414.9376,33.1635,38.8013,14.5277,-71.6515,151.9197,-41.0786,33.1633,-98.7242,16.4646
-2054.6875,72.8533,-4.6575,26.4050,-74.4018,-2.9562,-94.6777,72.3018,-296.5492,-73.5729,-180.4322,428.6375,-77.4063,295.0361,-23.7768,442.8693,-69.3002,50.7150,-297.5979,133.4450,-278.6350
-2046.8750,154.8072,-63.4750,219.9418,-32.4263,118.3169,-11.1246,229.6726,-64.7963,231.2993,-205.4617,254.4199,-17.4844,84.4374,24.1460,-98.4620,-316.2886,-8.3129,-109.1280,-171.2072,-230.5553
-2039.0625,-99.6580,-35.6567,-13.9440,8.9927,-4.8279,87.0619,-3.3793,33.5834,35.7464,3.1194,93.7919,48.4250,35.4142,159.6904,-73.2024,3.3364,-16.7645,-152.0476,102.7169,-131.8984
-2031.2500,186.5650,3.8758,138.8556,-1.5394,111.7092,-16.0253,224.2614,-180.3215,42.8834,-63.6001,26.8696,-2.2274,5.0897,-17.0699,-67.2396,-136.3481,23.4640,-112.2561,2.3291,-161.5642
-2023.4375,-356.9694,58.6649,-142.0927,36.5044,-94.5138,109.1400,-92.8507,166.0273,94.2603,208.9371,-143.7847,114.8015,-163.9777,182.3950,-309.0231,62.2192,-134.0655,188.7889,-48.8170,-36.0069
-2015.6250,-164.8526,40.1270,-184.3909,-45.1263,-136.0833,-6.0365,-24.3104,-169.9765,-130.7293,94.1213,292.2230,16.3065,88.6016,140.4942,163.8210,131.4476,-46.9553,-110.5036,249.6802,-334.8250
-2007.8125,38.1941,-2.4228,136.2585,-35.7306,75.2817,-52.2468,187.1635,-69.0172,118.2146,12.2681,-11.8174,-50.5835,5.1053,-125.4409,-102.4219,-134.3707,-19.9084,58.1778,-74.8933,-306.7183
-2000.0000,-208.1705,32.6558,-54.5039,-53.5887,-4.7709,16.1642,-39.7849,72.5530,-35.2601,117.0368,91.7571,-14.8552,-0.8154,-20.7629,-35.0853,154.4113,-125.2882,-46.5186,101.1135,-165.0391
-1992.1875,76.0625,36.3604,98.3237,-70.2276,37.7564,-87.8094,113.8454,-141.2607,-139.1565,-59.5903,281.9527,21.6041,5.8564,133.5067,8.8399,124.8070,-87.0891,-78.6026,-1.3010,-231.7859
-1984.3750,-196.5044,45.2816,-51.6443,30.8718,-37.5381,94.4336,-35.3393,262.1357,44.1238,85.9844,-161.6121,123.9913,-179.2807,205.9498,-286.0477,-23.5939,-147.6940,106.5200,-167.5203,24.6351
-1976.5625,91.9888,53.2645,-7.5390,-38.3622,-29.7863,-118.2619,9.5177,-97.4097,15.4372,-15.3900,213.8845,-108.7902,121.6219,-263.5777,236.0925,-234.9469,69.7425,-306.3092,227.3049,33.0803
-1968.7500,385.5154,-39.6812,293.6147,-71.8288,88.0103,-255.8792,237.4142,-161.8837,243.7852,-42.7086,183.3862,-149.5385,-127.4535,-329.0436,-196.7456,-337.2425,81.2157,-83.0661,-146.8374,151.5627
-1960.9375,-151.0795,-12.6920,-124.3444,-1.9368,-255.3143,-11.5765,-252.8114,82.5478,-25.9982,200.8707,169.8163,111.0157,-287.6342,356.4012,-320.7013,201.3679,-67.4177,50.0839,-121.1022,248.9165
-1953.1250,139.8819,-2.1158,41.2516,-8.2432,-125.0999,-65.7131,-13.5074,-227.4705,-115.2682,1.0007,336.8353,-12.0770,-11.2715,46.3943,66.8817,-72.4706,82.4868,-150.2217,30.1556,48.7826
-1945.3125,-127.2006,-22.5575,154.8060,98.1612,26.0565,14.1133,65.7299,72.4710,146.3850,117.0873,-394.1847,-72.2387,-78.9626,-389.6739,-185.6052,-249.3563,166.3219,179.4235,-60.6568,274.5749
-1937.5000,-269.9324,-130.6338,-168.2904,-3.1636,-187.4475,21.3117,-147.7023,-177.2262,-102.6326,161.5243,90.1735,-20.1563,74.6743,132.5899,263.2387,162.1081,93.4897,-33.5633,146.8696,61.7065
-1929.6875,231.2742,-85.7392,68.5499,-32.3168,-60.0245,-34.5196,89.8026,-233.9599,24.2924,-4.0824,218.4980,-16.0706,-18.7618,114.7843,60.0167,-187.4712,32.5890,-23.5807,-160.6584,-104.2280
-1921.8750,10.0197,116.7254,-64.0682,24.9412,-119.0664,54.2073,-116.1511,75.8617,39.7601,231.8666,11.3655,-75.2821,-113.6672,-347.4565,-144.6717,-134.5032,-11.7686,2.9636,-63.6378,168.3641
-1914.0625,230.1082,91.5534,25.6644,-32.1254,-65.7612,-184.7027,48.2485,-419.9645,-90.4405,30.1648,360.5808,-175.3274,123.7744,-440.3309,239.9663,-153.1944,172.2100,-128.1187,191.7212,2.2759
-1906.2500,-40.9193,-3.7108,35.2960,58.9471,-18.5530,10.3054,58.5459,-115.8911,104.2462,225.3677,-364.2842,63.0860,-195.8774,84.6737,-300.4978,5.0108,41.0697,234.7091,-115.0296,13.0553
-1898.4375,-252.3413,101.6539,-220.4621,55.2380,-126.7390,123.9186,-123.5602,-38.2079,-76.4812,302.1740,-68.5156,22.9507,-46.9395,-58.7679,-41.3814,155.8063,4.5133,23.1385,200.8052,-57.5873
-1890.6250,276.1389,174.9476,225.6865,53.6884,172.9619,-127.5672,213.2188,-325.6149,2.6698,-96.1088,157.1916,-131.3639,68.8808,-567.3289,37.6160,-426.5037,217.8345,-44.5190,27.5226,-125.3438
-1882.8125,-84.5938,307.0536,102.6300,147.3561,-22.5629,-29.2345,-167.2255,-117.2106,-119.4059,-33.5862,-259.2792,137.0056,-90.5056,-27.0802,-194.5833,-144.0060,102.9395,193.6350,-122.9673,-63.3193
-1875.0000,128.3639,380.8677,11.2735,99.9823,-76.4045,-8.1864,-183.9769,-391.1054,-356.7998,-123.3609,-19.0427,143.1367,2.8099,103.8754,119.9257,98.1926,69.7475,-14.5102,-14.7641,-447.6245
-1867.1875,133.4687,280.8606,158.0695,148.5824,70.8978,140.0211,0.4216,-58.8439,-25.0441,-48.9735,-423.6612,75.9159,-217.7430,-227.0410,-358.4507,-232.4639,38.7002,167.4972,-326.4220,-336.8033
-1859.3750,34.0699,463.3914,-131.6329,155.9277,-108.3116,35.7549,-288.7090,-89.0626,-276.8136,-79.0762,23.2316,79.5913,-64.8324,-257.4785,-132.3773,-226.6089,115.1358,-36.9869,-38.6036,-294.4921
-1851.5625,710.2159,929.4973,69.2182,224.6292,19.0040,-203.9445,-51.3164,-402.7175,-407.0641,-355.6129,150.6884,210.2094,-121.3943,-276.3773,-188.7742,-429.1979,193.1068,-98.9104,-171.2448,-497.6422
-1843.7500,358.7474,1072.0065,-124.5361,337.4396,-100.3027,45.7627,-243.5401,31.0355,-267.9357,-105.7319,-447.4383,405.0031,-424.5609,-63.8699,-637.7698,-105.3833,17.4723,113.5779,-276.4902,-285.4170
-1835.9375,349.2278,782.4680,-167.3383,215.5976,-106.6664,4.4223,-175.8267,-268.2615,-346.8821,-146.8990,-47.5880,221.8757,-62.7790,-106.3989,18.1853,-73.6274,113.7852,-210.9802,31.2054,-364.2820
-1828.1250,402.9090,449.1510,103.0780,122.9421,128.1676,-91.7079,95.0786,-180.3550,34.3469,-205.8758,-254.5054,93.6774,-48.8090,-201.7485,-152.6845,-316.6721,96.2932,-51.3344,-266.9208,-239.9750
-1820.3125,-13.8164,350.4621,-190.9024,106.2606,-55.4090,20.7626,-198.4323,-67.8500,-147.8488,-93.2557,-106.7993,137.4879,-48.2554,57.4875,-40.9765,53.8693,31.3969,-115.0777,-50.4507,-128.0812
-1812.5000,385.2053,293.5431,9.8744,65.9744,72.7546,-71.0081,39.7989,-343.5965,-277.3111,-332.8925,168.6653,62.7048,7.0320,-34.5254,124.4557,-37.8606,114.2540,-242.0641,-72.2374,-220.4577
-1804.6875,15.7819,311.1898,-59.7911,159.7626,3.4586,81.7755,-138.4276,104.1972,-124.2400,-104.9668,-414.3114,195.2670,-245.1385,80.9971,-348.5717,-33.0389,-10.3462,162.5055,-301.4808,78.6916
-1796.8750,-65.7406,301.7551,-248.5488,112.0507,-112.9434,39.4665,-254.7582,-122.1040,-350.2736,-111.1292,20.6390,132.2359,5.5751,75.4006,123.2905,35.6873,48.9426,-23.0306,74.1612,-37.2834
-1789.0625,158.6920,140.2992,98.6472,78.6803,51.5986,-52.8861,92.8528,-103.4547,-113.3744,-239.3420,-35.4370,44.3483,-50.7735,-90.2460,-42.9344,-239.6595,98.1786,132.3879,-158.2604,-93.3212
-1781.2500,-240.0180,58.7195,-140.2966,86.5546,-76.0249,115.6153,-180.7036,175.0423,-129.6437,-71.7037,-198.6418,74.5387,-68.2745,40.9312,-60.3294,111.8219,15.2711,191.6586,-28.8367,0.4725
-1773.4375,125.1791,-31.9458,66.6782,-0.9345,57.2407,-43.9679,61.6304,-205.5703,-143.0350,-341.1640,119.0593,-123.2584,176.1032,-304.0177,331.1637,-121.8029,134.2671,64.8388,160.4678,-196.8589
-1765.6250,-82.2757,-27.2454,101.0194,97.0368,91.8356,64.8189,59.2836,161.1696,111.8757,-122.2638,-360.8779,39.6276,-158.1962,-84.5949,-296.0341,-196.0555,67.6111,351.3753,-117.9061,-51.8677
-1757.8125,-268.8300,33.3690,-161.7195,66.1640,-133.6871,98.5089,-165.1911,120.8111,-149.3501,58.5455,2.1375,116.5969,-51.6009,242.7134,30.6568,131.5930,20.8525,130.8062,223.6124,-203.0083
-1750.0000,114.7205,-143.9255,243.6685,-45.1499,124.8954,-83.7065,239.4370,48.5454,145.5256,-13.5563,77.2910,-170.5086,133.1048,-344.9122,141.4562,-271.6890,123.1950,58.3309,80.2313,-276.0734
-1742.1875,-240.1271,-182.6184,80.6685,-21.1708,109.0793,11.6911,39.6681,291.8826,239.9912,193.9295,-304.9728,-132.8581,80.3938,-284.9303,15.8405,-139.3836,48.1323,125.4640,75.4473,-33.5473
-1734.3750,48.1199,-138.1878,94.7611,-27.2107,123.3458,-45.7954,90.9831,-60.6698,-39.4606,25.5221,-70.1350,-46.6699,131.7465,24.1512,214.2859,-12.9756,91.1612,-77.2797,189.7534,-165.9259
-1726.5625,-59.7484,-103.8296,117.7521,34.0398,110.4928,89.6201,78.1761,295.6815,94.9522,124.0232,-339.3698,43.4010,-212.0119,48.1303,-313.3857,-25.6671,-51.9131,238.8962,-164.0452,78.5734
-1718.7500,-265.8270,-28.6585,-173.4447,-10.1928,-107.5577,92.8391,-176.8308,335.8230,-122.8481,200.3156,-79.7915,-75.0480,-25.9519,-205.1066,166.7626,198.4241,-48.1895,67.8738,120.9672,117.8263
-1710.9375,127.0687,-90.5499,133.3445,-58.9997,51.3644,-113.9878,167.1441,128.9125,73.3086,-5.4617,-177.2646,-173.8837,97.0699,-375.4359,289.8474,-81.5627,63.4874,39.7853,-13.0647,-16.0006
-1703.1250,-276.3224,-70.7518,-39.1439,27.6199,-84.0078,81.8865,-79.1855,471.7054,195.1591,190.4622,-569.0304,21.6227,-112.2216,3.9206,-103.4103,114.1392,-58.1290,165.3981,-99.4027,178.8678
-1695.3125,-28.4166,2.3534,-30.3293,-15.2475,-112.0940,-53.9382,-107.2352,4.7939,-52.7118,-93.3050,-7.4659,44.6608,117.7732,197.5752,273.6163,125.1410,13.5531,-113.6708,183.5522,5.0126
-1687.5000,8.5309,-30.4800,188.5480,-8.8231,-40.1421,-54.7030,38.7663,77.9328,166.4552,-92.0122,-228.8190,47.3358,-31.1934,123.2634,-58.3091,-58.8136,-55.7254,170.3145,-166.4513,77.1779
-1679.6875,-373.7350,-59.5160,-99.7604,-47.7730,-179.3965,27.3461,-211.4407,158.8804,63.4161,99.0990,-112.3580,20.3496,122.6377,166.7435,242.5532,169.0295,-121.2122,71.0939,119.3381,47.1231
-1671.8750,-11.1042,-152.6561,141.8409,-89.7641,24.2463,-98.6961,176.2473,-3.2647,120.2782,-99.8841,-91.0108,-28.8141,254.3661,151.1184,373.2951,-67.2344,-39.7965,-58.2304,25.0206,-153.0484
-1664.0625,-364.0628,-82.3916,20.8532,73.6802,-60.7086,149.6664,-55.6683,428.9935,146.5234,74.5237,-504.2577,166.4254,-123.5148,361.8767,-225.5780,70.8754,-76.9798,223.8542,-221.9095,57.1763
-1656.2500,-97.3845,186.4513,-61.4916,83.9360,-179.0366,69.6143,-246.9514,127.8363,-301.6236,-42.5001,112.1051,111.5970,14.2112,134.1995,134.1415,137.5361,49.4537,-36.4708,8.7554,-98.0096
-1648.4375,185.2665,223.2598,236.1498,97.5795,-66.3675,36.5641,-97.2472,204.6915,-226.7656,-149.5157,42.4746,118.3030,-93.0742,26.5189,-158.1602,-116.7855,14.8915,212.2076,-305.5640,-132.1852
-1640.6250,-151.2998,98.8213,-4.4652,38.9818,-232.9515,128.2490,-373.7866,333.2538,-392.1953,-20.7820,354.6310,126.2621,34.3980,265.5877,6.3011,158.6513,-75.9192,158.6430,-80.1245,-151.6590
-1632.8125,293.8998,-52.7567,286.7351,-71.6464,22.2600,-57.2291,-9.5367,-110.3322,-358.8291,-243.2358,720.4869,-80.6518,325.6225,-31.5348,297.4812,-174.1405,52.0497,-100.0789,13.0499,-375.3511
-1625.0000,-46.8444,30.8060,212.0462,85.2545,57.5625,127.3968,-84.2056,221.1811,-102.3908,-21.6093,-346.5415,201.4200,-80.0433,372.4230,-328.2155,-26.8387,-76.8752,194.2487,-255.6546,-81.9389
-1617.1875,-210.4348,114.4613,-104.4887,63.6288,-149.0078,106.0773,-253.7377,15.7521,-417.8438,67.0831,108.5697,250.9973,44.3980,608.4237,53.1924,282.5262,-64.6776,-38.3393,72.7336,-104.4174
-1609.3750,118.9129,-118.9402,205.9225,-108.3416,15.3571,-60.2872,20.6555,-113.7188,-292.3456,-135.2620,788.6047,-3.2378,244.7699,257.3718,180.5092,-105.1605,-87.5099,45.0409,-196.9305,-197.9210
-1601.5625,-190.7521,-215.4242,135.3445,-133.4971,-19.3048,17.2594,-197.9724,37.6898,-250.9122,-94.7153,865.6586,-63.4058,248.1372,151.2276,146.8386,-137.9351,-150.3381,54.3080,-83.5798,-84.4970
-1593.7500,177.1089,-163.4406,342.3333,-140.0394,76.5711,-143.7260,8.9431,-379.4262,-266.9401,-255.6887,778.2144,-117.1077,416.9946,26.5522,389.6325,-299.2444,5.3504,-210.9173,72.2504,-209.5766
-1585.9375,57.1038,-246.2824,390.4298,-75.5823,161.5723,-20.5518,56.9546,-37.3867,76.1465,-59.4753,-130.0522,-140.2588,170.9844,-181.9513,32.5718,-212.3622,-8.8249,22.0164,-117.7652,22.4670
-1578.1250,92.7210,1.4931,155.0852,53.8250,184.1230,77.1662,116.5217,24.1847,98.7567,186.2819,-694.7220,-194.1047,-100.4850,-747.9332,-201.9505,68.0299,96.5509,-82.5032,374.7473,339.0153
-1570.3125,227.3733,383.3378,131.7989,275.3557,270.7153,53.9536,350.1130,0.8372,258.4213,310.1163,-1343.3582,70.0173,-676.9296,-697.8715,-999.4811,-65.5573,124.9800,299.0398,193.2940,719.6263
-1562.5000,-636.2612,259.8735,-546.7789,230.6154,-371.0081,186.4210,-402.6053,206.1311,-162.2480,515.6580,-439.2151,442.4591,-729.6481,683.8727,-905.2611,397.5532,-140.8703,561.2560,67.5972,629.9076
-1554.6875,-298.7506,-36.4837,-308.2151,4.8930,-390.6211,56.9591,-238.1994,-217.4846,-365.8018,129.2893,719.0397,221.6969,-124.2656,774.6666,105.0304,193.7285,-50.6016,-15.4008,192.9920,-88.7453
-1546.8750,-11.8926,6.5233,200.6937,56.6467,9.1073,89.8522,198.5343,183.2588,290.9678,162.2792,-424.3253,-56.0080,-275.5359,-369.1856,-414.3367,-176.7427,-8.9815,97.2964,-116.2560,163.9297
-1539.0625,-276.8705,24.6217,-193.2559,20.2895,-201.0491,27.8385,-195.6183,194.0571,43.8119,246.3582,-119.5336,-74.9119,-191.6965,-285.9493,-220.6042,164.8391,7.7518,45.0827,110.5888,320.6799
-1531.2500,30.5376,-159.9041,-40.7976,-102.6888,-159.8081,-149.7624,-81.3907,-130.7191,-61.9445,-4.1462,548.6343,-21.2421,-40.4888,270.6957,41.4679,22.8100,-2.1130,-33.6952,-75.1848,-5.1471
-1523.4375,-342.6429,-109.0146,-67.9577,-9.5914,-186.1839,82.0190,-217.7774,137.8685,95.6651,117.7396,191.2639,174.0988,-139.8609,612.7305,-169.0145,107.1821,-128.5617,50.8984,-236.5109,78.4072
-1515.6250,-81.0700,-58.3950,-5.3763,-94.5168,-161.8395,-75.5238,-156.4223,-130.8631,-63.0105,-3.6910,769.5942,26.7628,-5.5422,343.4334,186.1804,133.1988,-44.2888,-214.8096,94.8415,-117.3590
-1507.8125,97.2765,-124.9704,211.9883,-76.4966,18.2979,-42.2487,60.7127,87.2358,337.1057,67.7001,250.7057,-28.6040,-266.4359,82.9470,-221.8432,-17.9782,-77.2149,0.2853,-184.0000,25.6856
-1500.0000,-194.9385,-64.1697,-69.2261,3.3282,-42.1490,155.4076,-110.7345,209.7014,201.6092,301.4764,-249.7410,-28.1211,-253.9044,-88.1651,-173.4396,289.2379,-87.7197,-10.2453,50.5773,295.1130
-1492.1875,123.6875,-25.5239,117.4301,-58.5833,72.2658,13.9062,113.6824,-40.9625,60.0082,196.1027,-97.3701,-206.7415,-102.5404,-562.4453,-95.2361,147.2851,-50.3669,-6.9104,-17.0163,262.3965
-1484.3750,-312.1866,-39.3680,-86.4186,-5.0247,-169.8174,177.8944,-201.4004,268.8526,1.9000,323.2111,-44.4603,-3.8655,-344.6528,-68.2342,-484.4914,273.8381,-206.5018,259.8773,-313.0783,388.1610
-1476.5625,-228.6501,-60.8846,-278.8705,-72.2878,-289.5161,58.2116,-247.0966,-69.9945,-227.8405,168.6373,461.8043,14.0137,-96.4063,253.2887,166.5991,338.6859,-122.2617,-113.0009,121.1949,84.2622
-1468.7500,76.4116,-70.8887,7.2256,-63.3496,-3.6668,-21.9131,148.7385,-41.2634,93.9816,14.6334,197.5949,-71.8075,-68.6172,-85.6394,12.2151,-73.9072,-63.4650,17.6692,-135.9855,2.9297
-1460.9375,-226.7330,48.8543,-240.9113,7.2492,-104.0620,135.6918,-98.6607,116.1635,-7.4651,135.3671,170.1841,44.6700,-95.0553,71.1614,-125.3782,120.2422,-120.9064,-39.9483,16.5968,85.3244
-1453.1250,284.2294,32.7200,6.0825,-30.4374,31.6549,-57.6061,148.0470,-187.2994,-127.7964,-57.7978,308.8270,-79.0969,114.5743,-159.9526,158.0752,-36.5329,72.7541,-266.4477,176.2262,-72.1623
-1445.3125,64.4727,-44.0971,-12.6401,-20.0797,49.6565,71.3960,92.0266,162.5159,111.1449,145.3259,-113.2070,-61.8873,-124.4897,-176.7626,-191.1470,55.0092,-76.2767,41.3288,-113.8162,129.6613
-1437.5000,-95.8776,-134.5869,-244.9686,-120.8810,-110.9615,22.7233,-105.5992,2.6388,-159.5530,132.7597,499.1301,-131.6937,155.8092,-44.2589,308.9883,299.8588,-61.9361,-187.5528,217.4912,-31.1830
-1429.6875,269.4462,-190.3970,137.4097,-121.7360,162.1253,-72.2344,240.4670,18.4904,75.4615,-35.1025,367.1314,-174.8730,96.7922,-212.0584,65.7789,-162.5899,-13.8934,-174.7144,-85.5134,-53.3161
-1421.8750,-79.6501,-151.6663,-21.6460,-18.8751,39.7728,101.3510,-64.9071,226.8485,100.9984,210.5481,134.7376,-86.9135,-172.6463,-151.3212,-239.8375,9.4994,-11.2760,-136.3656,-12.9279,265.0715
-1414.0625,237.0314,-185.1941,23.0914,-111.3846,47.2006,-147.3209,52.5020,-241.0365,-2.6839,72.9155,512.0634,-256.3683,55.6515,-363.8586,245.2541,54.2917,164.1137,-276.2608,233.3747,89.2077
-1406.2500,34.6846,-140.7313,68.8087,-61.2300,55.6154,-63.9860,97.8855,-11.9198,226.6180,193.2833,80.3962,-188.2530,-82.0454,-355.3864,-113.6420,63.1099,67.5068,84.8340,-145.2965,97.3419
-1398.4375,-134.4614,-133.1420,-66.2796,-65.9560,-5.7950,-15.5268,-37.5378,-73.6954,55.0722,168.7652,129.9155,-155.2072,149.4350,-195.8064,301.6421,149.0405,74.0803,-188.9489,178.1980,-1.4077
-1390.6250,319.9865,-240.9704,298.2570,-61.3818,284.4160,-128.4698,363.6399,-185.8475,235.1376,18.8306,-130.9986,-175.6047,145.4967,-236.6329,150.4836,-184.4467,176.2719,-192.1169,-1.7261,-5.5477
-1382.8125,-120.2981,-117.5395,-21.9483,2.3206,36.8739,29.8293,-66.9399,81.2144,97.4054,214.1164,-118.6279,7.2662,-101.1760,103.7942,-206.3985,156.3243,16.7329,70.9441,-125.3731,151.5440
-1375.0000,142.4946,74.9519,-63.0633,-73.9628,-40.6076,-120.8279,-72.4520,-289.6691,-201.2675,-83.5720,686.7708,-60.0899,188.1838,-10.7464,265.7324,79.1046,33.2654,-157.9273,66.0038,-184.3266
-1367.1875,255.5642,118.7325,160.1166,-13.5272,182.1960,-81.1868,187.3202,-29.2437,95.3510,-43.9646,174.4836,-80.5244,-30.1565,-338.9802,-209.8372,-175.8118,5.1100,60.4866,-208.2956,-71.9001
-1359.3750,-18.8070,90.9956,-130.1608,-12.9015,112.5217,-40.0769,7.6292,-25.3657,-11.5369,108.1090,32.7424,-50.8681,47.0243,-187.7404,51.1218,121.7303,12.4714,-107.6210,220.9145,5.0022
-1351.5625,418.3554,-34.1923,184.1153,-57.3255,352.3961,-203.4096,394.4823,-261.9001,118.1463,-130.2515,-21.5079,-176.6393,212.7262,-388.9496,253.5787,-153.1839,167.3757,-268.1429,164.6457,-86.5227
-1343.7500,106.8631,6.9723,61.7122,19.6023,339.6100,5.5972,196.6740,92.8922,288.1562,115.7356,-437.3724,-184.5362,-94.2021,-660.8139,-164.5715,-54.7296,66.6498,-16.3460,28.7798,304.2920
-1335.9375,158.6282,-10.6803,-135.4514,-63.2457,142.0589,-117.2270,73.1192,-214.1472,-18.5960,102.8955,137.9625,-200.5594,75.0768,-453.5225,189.4700,78.8762,83.1573,-139.3590,256.1099,180.2958
-1328.1250,108.2758,-165.4473,-35.7281,-40.0572,131.4099,-18.1532,100.4539,-76.2816,117.5645,18.9684,18.1792,-30.2700,-8.7464,87.6695,-78.5940,-77.6140,-1.4208,56.5246,-145.6420,59.2180
-1320.3125,-246.2197,-134.4469,-291.1849,-45.6212,-51.4156,93.6855,-157.3810,-2.6748,-29.4640,57.8206,240.2412,10.2477,212.2689,271.6256,289.2079,142.6632,-41.1622,-123.8321,60.4498,-51.0820
-1312.5000,355.8908,-128.8702,127.9856,-122.7461,220.3824,-184.8874,262.4146,-319.4606,132.1611,-184.7172,476.8553,-201.6839,410.8728,-228.8379,413.5789,-210.4839,139.7086,-364.5756,206.1199,-257.7726
-1304.6875,83.1928,-118.0879,86.3291,42.6394,216.3769,31.7358,184.3940,44.9414,347.9663,31.9502,-225.3047,59.3490,-72.3074,170.9063,-325.8181,-103.4088,77.7916,-74.1545,4.0167,31.7388
-1296.8750,3.7016,-128.1700,-140.1398,27.0995,62.5477,26.4840,30.5606,-144.5355,46.9354,-47.2640,62.6936,61.7845,31.6770,311.7681,107.9382,146.7750,139.0541,-223.6013,346.0483,-48.5915
-1289.0625,234.7312,-212.7212,135.9300,-0.3336,228.2655,-29.2253,306.2542,-16.4394,212.4704,-28.9196,-248.7944,-109.2404,-60.7950,-184.8113,-95.7766,-56.4762,158.8844,-28.4909,48.6364,5.6616
-1281.2500,-157.7977,-148.8803,-173.5896,41.1437,28.3949,138.4371,-40.6296,225.0046,121.3971,323.7967,-484.8350,-80.5376,-149.8282,-202.0025,-148.0360,295.6553,81.1472,35.9783,182.6606,209.2927
-1273.4375,219.9579,-155.8076,-25.8192,-75.6264,64.8078,-116.6605,143.7693,-140.2960,12.6148,67.7372,67.3388,-201.9561,144.3797,-310.9602,292.9197,38.9917,143.6784,-147.2980,278.9052,-10.8027
-1265.6250,-8.7485,-243.2052,-11.5188,-69.9780,79.7715,-64.2123,121.6952,93.9372,247.3753,119.2231,-136.9168,-113.3519,-61.8416,-76.3627,-60.5408,15.8935,20.7799,115.9484,-89.2577,76.6699
-1257.8125,-142.2825,-96.5199,-216.0801,-71.7548,-88.1288,-122.7027,-47.2278,-110.7796,-31.7437,61.7619,319.9523,-16.0807,137.0583,232.3060,322.1291,178.8571,62.0194,-159.7365,197.6917,-128.7661
-1250.0000,308.4702,2.4628,148.6557,-73.3893,165.2852,-273.8949,280.1516,-188.1750,185.4558,-125.4137,280.0818,-99.6031,133.2505,-139.7168,208.0620,-302.8805,125.5673,-166.1121,-21.0725,-206.8661
-1242.1875,-76.3618,5.8307,-42.2225,-16.8177,48.1063,-131.7001,15.9338,62.7896,252.0245,51.7925,-203.3545,-24.2008,52.8744,-37.3347,89.4519,-53.2149,57.5335,-58.1129,86.6042,6.4316
-1234.3750,191.6361,-114.0167,-46.2805,-64.3292,79.7530,-173.7230,158.5529,-273.4440,99.4313,-99.2169,-61.0308,24.6938,158.2983,325.8287,305.6206,16.2147,79.3250,-212.3023,248.0620,-219.4619
-1226.5625,88.9184,-76.5691,-15.0583,74.9299,73.7013,77.5469,152.4652,88.6193,240.1404,-31.9356,-543.4016,164.2807,-214.9630,393.2924,-361.8972,46.9541,10.4374,105.7855,-137.1477,-42.0435
-1218.7500,-113.9878,-32.3993,-228.0437,37.1050,-66.5678,121.5294,-98.8285,59.3797,-10.3975,-96.9485,-95.9898,-58.9657,84.5524,-151.5237,158.3683,200.4114,89.3383,-130.4073,258.4094,1.1142
-1210.9375,332.4371,-219.9022,133.3274,-133.5728,148.5296,-215.1411,300.2322,-204.4855,130.4517,-286.6096,230.7149,-268.3040,373.4058,-378.9847,446.9512,-246.7904,148.5995,-214.2348,105.3016,-152.3464
-1203.1250,-112.1254,-205.4181,-78.3071,-54.9663,10.6278,15.1695,15.2970,98.6150,176.2835,-21.2974,-164.5370,-5.6293,161.2893,217.5628,123.5907,-17.9897,-49.1234,45.9030,-127.7636,-33.8068
-1195.3125,119.9629,-44.3460,-85.3041,-28.1172,3.3544,-65.9457,81.0011,-202.7023,-89.2470,-212.4226,122.8082,-92.4951,410.7768,-85.3107,483.8142,-25.6394,146.7781,-180.3630,138.7557,-225.6582
-1187.5000,211.2305,-23.0862,260.8809,48.3550,275.2775,-87.8680,279.8858,-77.8189,146.4320,-306.3553,-265.6503,-100.7588,241.4679,-363.9745,-53.7591,-341.0703,202.8925,16.5632,-192.5000,-64.2896
-1179.6875,-96.6491,-14.0581,46.8951,92.4724,61.0250,-7.0235,-44.3942,-71.1918,-105.0865,-226.5266,-184.2658,60.7650,211.9939,82.1374,62.5181,-150.7243,176.8410,25.2587,97.0718,-21.1387
-1171.8750,285.1266,-55.4026,234.5835,94.1894,138.4425,-77.5357,215.9873,-288.9013,-27.9221,-370.0634,-181.2739,119.9031,141.1584,305.8987,102.4069,-332.7588,241.4562,-16.3808,20.2745,-239.3133
-1164.0625,-47.3882,-1.0503,59.9703,166.7834,37.5619,189.6358,42.0625,125.0498,127.9150,-102.9379,-722.5378,230.6295,-143.9442,388.3616,-328.9593,-67.0906,48.7925,142.6474,-136.7782,-9.7846
-1156.2500,52.1908,-77.6612,-47.5505,-22.9054,-34.2380,-29.1767,44.2292,-203.9825,-54.1692,-212.8061,88.2433,-64.3499,299.0146,-15.1492,370.7249,8.5935,114.2047,-179.2719,244.2130,-192.2085
-1148.4375,221.1832,-224.8450,315.3627,-107.9343,181.4080,-144.5377,295.8334,-135.5472,198.2175,-291.2333,157.4545,-146.4812,293.4235,-132.1899,106.8526,-364.2593,36.0717,-10.7339,-115.3355,-235.1612
-1140.6250,-166.8784,-16.1428,51.1978,28.0529,-10.0317,68.9748,-78.6414,40.7349,43.4970,-77.8132,-106.3818,113.3863,175.7704,302.6578,-48.0533,-41.2423,-36.1295,21.6645,-46.9434,-132.2323
-1132.8125,255.5273,18.9894,204.5158,-24.2931,143.9967,-109.0773,184.3510,-247.5199,12.2657,-328.9648,-25.8085,-16.5419,439.5591,12.9447,399.4646,-293.8123,70.1413,-154.4694,58.8781,-273.8401
-1125.0000,47.0706,-48.7331,192.9709,52.0325,279.1631,63.0146,209.4764,145.3582,258.1700,-192.9800,-736.0667,-0.9593,169.5138,-145.6008,-54.8306,-231.2099,2.5732,94.5202,-114.1225,44.7047
-1117.1875,-32.4359,-22.5603,-73.6445,49.6711,86.2524,53.9739,16.5352,-11.8919,-9.0091,-55.1437,-413.4099,93.1694,50.3848,211.7333,9.7884,126.2609,28.9305,-125.6055,227.7712,35.1450
-1109.3750,197.1879,-180.2564,94.8842,8.3379,69.4908,1.0853,110.7301,-27.9704,84.9779,-72.1638,-244.6351,117.1933,-113.6013,452.2358,-189.4631,-75.1031,11.4456,-2.5767,-142.1819,-18.2387
-1101.5625,-151.1065,-176.9246,-89.5265,21.7810,-152.2164,146.2231,-185.0141,153.9585,82.9975,-0.1742,-208.7633,107.5702,-114.5002,412.7931,-81.6019,69.5762,-55.9669,69.4657,-68.0417,89.4167
-1093.7500,161.6102,-5.6054,63.0933,-25.4422,-36.8994,-68.6462,41.2643,-172.1040,-21.9457,-215.2127,128.0634,-13.4440,111.5921,50.3412,254.2339,-34.7767,46.6299,-109.4741,103.0772,-125.9070
-1085.9375,-51.4020,133.0060,87.9864,74.0214,61.7040,28.7787,102.8199,184.1278,223.4029,-43.9592,-471.7991,112.8428,-120.9993,37.2086,-272.5999,-120.8022,-61.4631,98.8676,-180.4649,82.0837
-1078.1250,-185.3060,32.6582,-198.0393,31.7005,-77.6137,-36.7793,-73.5318,43.3653,9.8083,-36.7065,-206.5819,128.8638,69.4866,338.1035,101.6506,106.1917,15.5208,-106.7640,176.0543,52.1080
-1070.3125,219.0233,-196.4451,122.1826,-61.7876,59.3256,-158.0868,173.3601,-114.1197,146.4875,-231.2144,-143.1566,60.5659,169.2172,438.2592,201.1297,-162.5693,32.7630,-55.1282,-53.1910,-142.5933
-1062.5000,-155.9821,-78.9235,20.0486,-19.1652,-7.0782,106.2371,-77.0930,224.0035,116.7944,31.8977,-318.0335,90.7305,102.6430,297.0651,-49.6771,28.3231,-166.3160,62.1183,-111.7357,-25.6546
-1054.6875,198.5969,29.1138,172.5056,-69.7935,109.1026,-71.9106,76.0480,-65.3331,-24.3053,-146.4735,349.6104,-161.7550,218.6219,-395.6006,176.0539,-151.2759,12.1847,-182.0818,137.2549,-94.1594
-1046.8750,170.9496,1.9458,243.7390,1.6802,143.0768,-37.2542,109.9686,152.1380,119.3897,-76.0569,-19.9605,-54.3648,-114.5938,-252.4348,-304.4055,-264.0519,-15.5120,105.5057,-242.9441,123.1598
-1039.0625,-103.5000,41.9339,-114.8647,35.0515,-105.7888,42.5269,-211.9414,85.7143,-166.7694,-31.5362,-48.3523,74.9433,-33.6373,158.8755,33.3234,147.3002,-9.0414,6.2203,44.0212,93.6274
-1031.2500,381.2350,-0.8823,138.7279,-17.1963,73.5470,-107.4946,188.3475,-137.4851,-23.6989,-255.8274,-89.5849,-33.3596,36.5062,-66.6082,103.2284,-150.1502,53.6397,-107.8504,-69.8282,-20.6764
-1023.4375,-40.8718,68.4489,-57.5417,72.8384,-85.9705,99.6191,-82.2236,178.4272,-0.5043,-12.9973,-248.6161,133.2524,-234.1676,176.0716,-314.6519,-17.4304,-86.5138,102.1899,-210.4851,259.1668
-1015.6250,17.9126,91.6206,-169.9315,-18.5239,-198.6111,-50.4355,-157.9129,-191.8291,-333.4434,-16.3575,374.1918,70.5594,94.0140,247.5923,271.3127,89.1133,-28.8018,-84.9170,93.6878,35.8686
-1007.8125,60.6590,63.7784,57.6445,-24.8800,-8.2656,-43.4794,106.3654,-38.0633,3.6123,-9.7215,-95.0202,11.7768,137.1954,-3.8550,94.2785,-124.3123,-91.0864,61.9813,-180.1269,42.6003
-1000.0000,-211.9086,106.5766,-122.1233,-29.2760,-40.2592,-2.8953,-73.6869,39.3067,-102.6900,103.5234,-127.5462,-28.5596,178.0630,-146.6605,133.9477,134.8981,-116.6958,-35.5018,73.7390,155.9749
-992.1875,327.1622,47.0130,147.7728,-81.9375,228.4115,-211.6559,268.9218,-206.6490,-16.3119,-104.5997,141.5253,-231.4734,190.5666,-613.8043,146.2394,-146.2583,69.3525,-201.3127,120.2352,131.0235
-984.3750,-39.8303,-3.6058,5.6011,38.7563,161.0189,-60.4688,90.4598,128.3270,244.9954,156.1973,-441.4203,-40.9278,-245.9512,-278.9702,-364.4646,-106.4426,19.3608,169.7991,-72.2766,466.0190
-976.5625,-153.5738,22.9663,-284.3350,8.0573,-57.1451,-94.1036,-89.7698,-163.5194,-156.4803,48.1409,40.8358,102.5061,-22.2564,311.0490,153.0462,116.5409,11.5856,-14.8978,201.3972,211.2112
-968.7500,-7.2563,-7.3611,-48.1973,-37.2912,-4.2194,-115.6286,72.0710,-147.2412,-104.8508,-47.8184,204.1556,140.8840,-6.4681,474.1934,58.6494,-89.3484,-89.0863,59.5170,-145.8228,-30.4647
-960.9375,-302.5505,-93.3455,-280.7112,-77.3024,-164.9373,54.1693,-197.7279,95.3359,-190.8922,122.5282,264.8802,148.5038,16.7118,644.6841,119.6665,265.1101,-208.3796,-96.7547,-19.6573,-80.7997
-953.1250,203.7129,-185.7939,-7.6513,-166.1388,109.9149,-113.4954,149.0388,-146.5272,-64.3599,-8.6052,355.1228,-153.1782,143.4351,-39.2721,319.2072,60.1002,-54.1096,-294.4569,99.0231,-138.5603
-945.3125,60.2469,-82.9445,79.6784,-38.9837,160.0486,-26.8637,89.0712,160.8971,205.4494,150.5437,-293.3189,-181.6465,-173.5201,-504.8965,-181.9078,-74.5766,-20.5266,54.1161,-149.9645,314.9925
-937.5000,-9.7743,92.2926,-139.5665,-26.1999,-59.3962,-136.8569,-167.4679,-133.3163,-124.3435,41.0453,150.6568,-130.9199,-25.0526,-357.1219,185.4114,183.1236,84.4810,-87.9306,165.4509,278.9408
-929.6875,282.8201,103.1785,170.8268,-20.7957,30.8009,-231.1918,69.6184,-227.8533,-34.4837,-127.8136,166.2480,-81.3617,-82.9455,-267.6650,-17.6334,-94.5118,96.1435,-6.3103,-103.4925,184.5676
-921.8750,-223.7175,53.9288,-143.9356,4.0831,-174.1579,-31.6850,-208.4562,8.4228,-18.8117,71.1307,36.7464,85.9281,-176.9573,188.6539,-112.7696,103.7085,-93.3276,119.1296,-12.5532,310.0329
-914.0625,39.2101,-70.8694,-78.2227,-55.4384,-36.6491,-151.7316,1.9355,-295.8442,-64.6731,-49.5094,63.6638,1.4390,33.4775,178.4170,245.5218,93.3548,28.6617,-75.9607,284.8073,79.9643
-906.2500,-106.0040,-41.7813,-17.6473,79.6232,24.7449,56.1256,64.1954,58.7948,178.3533,83.7425,-646.5150,100.2954,-272.1687,128.1088,-281.2471,6.9351,-11.4473,268.8385,-72.8985,213.8112
-898.4375,-288.4281,91.0186,-276.2997,76.0741,-234.0893,89.7042,-268.7593,-16.8581,-226.8616,43.7034,-95.9149,153.3502,-90.0323,310.5436,83.7868,224.2513,-17.7893,85.3744,166.1608,101.3909
-890.6250,211.7140,98.4043,104.6381,24.9083,-37.3187,-117.1035,38.8732,-150.8759,-140.4544,-163.7427,175.2404,42.9963,-40.3032,29.5982,-49.6006,-165.8233,60.4638,92.5275,-37.1935,-32.4048
-882.8125,-197.5379,110.3979,-36.8373,91.4543,-141.9545,70.6766,-250.9068,182.6685,-135.4829,96.3626,34.0530,135.4299,-255.9418,143.2740,-449.3229,21.7088,-31.6626,280.2424,-129.9064,155.3940
-875.0000,72.5395,-7.2983,-36.9863,-29.1513,-179.2691,-39.2577,-214.3642,-148.5035,-319.1963,-88.2869,549.1542,-35.5750,38.7220,33.2574,139.2433,131.5067,62.5215,21.2621,138.6572,-138.4960
-867.1875,134.9708,19.4370,209.2276,35.8063,-6.2064,22.2122,-4.4667,59.7303,35.4686,-101.5534,-50.3488,2.0925,-120.2130,-89.3213,-202.7868,-139.2599,19.1077,223.6857,-256.3627,-76.9644
-859.3750,-113.8626,190.8746,17.1562,82.0229,-52.4343,49.3615,-159.8587,13.6218,-83.1908,-37.1698,-58.1076,46.1015,18.5780,-134.2024,45.9351,-184.3393,16.4143,78.7844,56.3303,24.2558
-851.5625,299.6302,112.6365,271.4367,16.0837,128.6845,-175.1292,203.0850,-247.0982,22.5089,-262.4480,48.4345,-77.6155,162.7094,-322.7090,225.9885,-446.0509,149.0697,-70.7389,12.3538,-90.1438
-843.7500,-175.8960,22.3825,23.6833,69.8258,-9.2168,54.3858,-80.0025,129.1690,143.1736,3.2535,-380.9760,118.8485,-121.1271,200.8165,-204.8919,40.2859,-10.2676,155.7193,-181.5816,66.4511
-835.9375,-23.3387,-36.8173,-61.9986,-9.6549,-131.0558,4.9465,-167.0201,-104.5170,-164.0995,-84.0331,341.6623,17.1679,50.0887,188.3873,187.2831,174.6533,72.4496,-79.7637,146.5159,-203.9115
-828.1250,266.9204,6.7492,310.0357,84.8717,129.8352,-28.7280,130.6728,44.5780,96.3687,-119.5696,15.0338,-30.9722,-130.9513,-249.2577,-286.7904,-447.1985,186.9103,139.5054,-127.6273,-90.5053
-820.3125,-106.1424,54.9628,-14.2746,98.7790,-10.6165,51.2208,-155.9737,125.2734,-43.5300,33.4903,-13.8872,-14.0555,-196.3042,-242.2447,-206.1425,-109.4072,131.0428,187.3815,132.9135,63.5354
-812.5000,167.0872,46.4650,102.7278,-35.5749,-3.7574,-127.5290,-3.3180,-163.7218,-149.1035,-182.1793,507.4607,-80.0133,-6.3628,-164.9150,167.7844,-68.3254,88.4839,37.5692,53.7272,-262.0963
-804.6875,-93.1566,137.5206,43.2499,49.1185,-26.3687,33.2728,-100.1532,180.8157,48.8277,14.6758,-29.6022,96.2598,-212.8499,70.0052,-222.6900,-91.6522,-66.5178,198.2882,-240.8742,-101.1664
-796.8750,-66.2663,128.6865,-38.1081,40.6627,-71.8703,24.1613,-108.8759,23.4285,-107.1522,-69.4061,219.4431,-14.4156,35.7688,-159.9686,136.9495,-63.8878,66.5831,-91.8859,171.6069,-110.1404
-789.0625,173.6708,-19.0349,245.5999,-17.6011,138.7033,-96.8277,175.4556,50.1792,139.9565,-190.3777,136.5438,-158.5960,62.4706,-463.8043,-57.3195,-294.9921,94.7661,76.0600,-116.8201,-46.9829
-781.2500,-260.5840,2.0408,-100.8994,-2.8300,-97.9283,33.9716,-208.4239,179.6909,-61.1773,-25.6006,121.5051,36.0909,-26.9862,107.1754,-109.7114,202.7083,-58.2371,132.7693,-94.4085,9.9712
-773.4375,82.6032,64.5560,-25.9312,-4.1551,-23.0987,35.2192,-60.8520,-77.3340,-206.8563,-135.4108,417.8976,73.2224,-61.9966,219.6229,2.3284,129.8544,-29.7851,-122.0528,-31.5761,-209.5994
-765.6250,-99.3072,162.0241,23.9447,158.3663,26.6514,193.4256,-48.3810,301.5880,62.3786,59.7137,-304.7332,167.5692,-380.0391,47.0721,-536.6393,-115.0005,-36.3841,187.0657,-249.7653,169.7921
-757.8125,-237.9312,128.7410,-268.9102,54.5154,-82.3356,84.8644,-193.6420,118.7301,-119.1460,60.0348,-8.0872,30.3259,-83.8024,-98.2272,53.6853,33.3819,-33.7281,12.4204,209.2927,171.4224
-750.0000,96.9960,-27.9310,84.8142,-65.1945,124.2696,-113.0839,159.6631,-5.4848,11.9257,-140.0594,15.1233,-104.9567,12.0201,-258.8901,2.5935,-91.6059,-49.4848,29.3960,-53.0659,83.6833
-742.1875,-317.5821,13.9003,-170.9814,-2.7768,-57.6366,71.4625,-207.5537,214.7667,13.4474,80.3092,-130.1075,110.9880,-206.6286,255.9648,-288.9289,312.9296,-182.7297,107.8434,-80.8792,231.4365
-734.3750,-57.8082,26.0751,-180.4051,-33.3971,-105.1851,-49.6418,-70.4161,-162.6222,-70.6655,-115.9971,301.9896,65.3859,41.0629,283.1848,215.8870,192.8041,-28.6162,-92.3417,212.6367,-72.4522
-726.5625,-66.4894,-18.1462,-45.2744,9.1000,-6.1629,11.8751,101.2731,82.6047,248.7915,-127.7029,-40.3019,28.9229,-116.6416,51.0609,-89.6676,-40.6752,-36.9074,181.0669,-146.2253,-10.7269
-718.7500,-206.1848,52.5820,-191.1894,-7.2042,-116.1854,85.3249,-119.0746,44.7436,-46.8243,-166.5081,365.3954,-34.1132,67.6347,-97.1069,131.7801,216.7916,-36.2361,-31.5998,98.8724,-11.0608
-710.9375,233.7751,35.0118,160.5801,-42.1943,125.4849,-78.5111,196.2508,-155.3820,11.2706,-330.6199,571.7467,-138.8055,162.5987,-368.5491,116.9141,-240.0255,53.1192,-84.5419,-23.3485,-63.6618
-703.1250,-196.4422,-8.6959,-39.8309,8.2573,-2.0169,50.5027,-41.6080,120.3170,103.1720,53.0972,39.9925,21.5966,-37.5525,16.8896,-157.0296,-36.9522,-60.6776,81.3382,-67.6866,102.5858
-695.3125,-8.1450,-31.8969,-56.7252,-23.5351,-18.0131,-1.9901,15.0378,-117.4885,-60.4311,-0.7168,24.7372,-10.0202,166.7931,74.8412,195.5224,129.6163,23.0243,-186.2673,191.4495,-60.6592
-687.5000,62.2451,-101.9267,45.4912,-12.7896,47.1099,62.6910,116.7670,94.8812,152.0786,26.6181,-239.3659,10.5998,-134.7197,67.0012,-289.7769,121.3838,-81.1370,93.2873,-230.2571,115.2671
-679.6875,-334.8384,-43.4513,-332.7890,-17.4241,-220.2748,198.8614,-225.0087,119.7108,-42.9571,123.4023,80.0955,43.7403,-71.7022,202.6734,-6.5117,477.6504,-161.7837,81.3175,4.5568,103.6800
-671.8750,83.6539,-12.3790,-32.4658,-62.1022,-31.0629,-16.3619,183.7952,-169.8363,71.6124,-130.2359,87.1370,-77.1826,154.9075,-122.0329,294.3373,-31.4825,-59.8326,-28.0297,71.9450,-111.2848
-664.0625,-253.8355,36.7591,-62.1194,12.3739,-24.8232,62.4722,79.6058,130.6521,261.1789,58.1553,-345.7167,56.3958,-22.4128,31.3448,-65.7167,-98.5206,-149.8380,196.6510,-89.5869,78.8000
-656.2500,-125.8571,-10.6421,-178.3057,-79.4227,-103.1346,-15.2414,-35.1364,-169.4176,-37.8247,-58.0333,458.8826,-42.3251,120.7156,27.1861,186.6818,153.8843,-91.3906,7.7919,250.3073,-109.6634
-648.4375,65.5106,-30.5899,20.9156,-22.7710,-14.0256,72.5234,126.5124,28.9999,123.5958,28.2286,106.9107,-20.2014,-121.7163,-67.4714,-311.4567,20.7819,-111.5023,269.3961,-86.3392,-94.6532
-640.6250,-385.8568,9.7252,-270.6206,59.0102,-195.6774,258.5320,-202.5940,214.6274,-59.7760,249.6948,-146.7507,172.0759,-118.8626,376.1412,-161.2708,206.9373,-175.3533,273.2174,24.2972,-19.4122
-632.8125,44.9534,-16.7424,-31.9549,9.5115,-68.1301,91.7526,71.4846,-62.5204,-115.9453,8.3494,165.7542,52.9558,83.1671,173.9846,225.0835,-106.6923,-25.0232,35.2658,103.1036,-221.9493
-625.0000,-138.1400,79.9413,18.8116,120.6297,-16.4693,180.1427,122.6505,319.4867,155.9782,131.1501,-480.5471,27.0162,-194.6351,-251.9685,-311.3629,-54.1069,2.4439,273.4529,-114.9082,86.6692
-617.1875,-93.1139,125.7152,-152.3018,38.3552,-114.6989,80.6256,-50.0730,146.5717,-90.0210,104.0045,-99.7241,-120.7625,36.6802,-497.8031,142.3240,140.5698,48.0191,0.7320,247.1736,61.3815
-609.3750,184.8527,-19.4951,67.5518,-13.4096,-5.9491,-67.8739,132.1603,144.6944,54.9655,-46.1385,-26.9218,-128.0766,-0.0168,-350.5904,68.9992,-81.7174,80.5754,102.0282,-38.7553,-12.8763
-601.5625,-313.1848,-24.6823,-121.6222,16.4273,-230.2182,74.6231,-239.6362,286.7831,-98.0997,57.6919,227.9588,42.2602,-3.6858,159.6559,-8.2583,209.0333,5.1237,60.2935,-43.6583,-54.1452
-593.7500,181.1711,82.5409,189.6080,15.0423,-68.0902,-92.4703,-4.0431,-138.7107,-266.7699,-332.0909,539.2217,-0.2227,271.0311,29.3173,266.8670,-105.8079,184.0617,-255.0180,98.8072,-368.9974
-585.9375,199.2260,241.5213,377.5417,207.6945,156.7501,21.2079,109.2391,84.5556,-5.7381,-256.1209,-521.7399,151.3687,-129.4964,-77.2283,-353.2281,-321.8515,202.7430,9.4175,-233.9456,-34.0869
-578.1250,-27.8550,295.3545,22.3337,225.7054,-13.5658,33.7276,-135.6273,-86.3594,-250.8847,-171.3319,-360.8178,150.7449,-116.1526,-62.9114,-155.4277,-15.0510,257.2809,-77.3007,137.1557,125.6522
-570.3125,162.3471,204.5596,115.4477,100.8066,78.4493,-130.3693,66.8137,-214.8791,-85.7035,-191.1854,26.3988,-15.3462,-59.4813,-300.1978,-98.2989,-105.8563,238.1534,-28.6350,10.5934,34.7538
-562.5000,-261.4154,132.8374,-35.4141,45.4916,-108.5027,-24.4075,-157.7283,37.6290,19.4612,59.9786,24.7249,4.7713,-61.7300,-119.4124,-64.0579,147.4230,60.0829,39.0519,-59.8769,67.8813
-554.6875,96.1385,33.4251,57.0455,-25.7237,-54.1398,-116.1470,7.0285,-238.5639,-146.0817,-107.5839,154.3498,1.6475,177.3173,119.6733,322.4724,128.9848,102.3134,-236.9470,120.9263,-207.6943
-546.8750,74.2814,46.6736,172.1104,71.1043,61.8449,35.7860,48.3718,133.9076,77.9862,43.5088,-390.3567,39.9487,-110.9816,-58.5209,-222.3304,-122.7468,46.1730,92.7043,-216.6094,-18.6114
-539.0625,-135.4041,83.0808,-49.6665,11.1340,-86.0187,71.8633,-210.1414,59.5006,-106.8401,113.7176,198.1388,-87.2834,35.8911,-314.5352,72.0708,-13.3233,12.1778,-47.5149,136.0027,17.6055
-531.2500,262.1127,-47.2479,300.7901,-90.5280,79.3564,-130.7843,137.5562,-180.6047,57.5766,-126.8191,291.8505,-188.6709,201.9958,-369.2971,238.7091,-178.6255,59.4104,-142.4548,76.8347,-147.8904
-523.4375,-209.0063,-96.1654,129.6020,-32.5578,18.0993,65.9760,2.6018,162.6822,253.3304,141.0362,-428.9604,-28.3239,-5.4731,-25.6309,-114.1859,239.5260,-94.9673,17.9907,-42.8965,49.0141
-515.6250,-129.1655,-85.1310,0.3710,-78.8306,-36.2109,10.6927,-16.4063,-76.0826,-23.9844,84.8167,-41.7967,-17.6302,162.0016,142.0308,235.8638,295.6330,-83.3969,-182.6046,250.2977,-116.1406
-507.8125,27.4074,-105.2798,159.9030,-47.1211,49.2511,23.2418,105.3258,118.9923,208.4649,57.4028,-174.8557,-22.4581,-46.7315,7.5558,-154.2852,-60.4090,-103.0398,43.5983,-86.7103,-30.4711
-500.0000,-176.6677,-98.0655,-58.2201,-45.9493,-95.9443,98.1399,-113.6118,157.3807,61.2063,94.3151,12.4874,-70.9240,-43.0868,-99.5555,67.9759,88.9163,-95.3278,-54.8727,131.6440,81.5425
-492.1875,254.9765,-18.0947,176.3968,-57.6430,65.5903,-107.1943,157.1606,-158.4480,38.6738,-150.0151,174.5855,-149.3958,82.2845,-340.8840,231.9574,-151.9875,56.1132,-150.5613,177.7131,-13.6697
-484.3750,-173.0130,82.2875,52.3677,51.7618,-58.5114,62.8844,-114.7199,157.1161,59.4735,91.0572,-240.8394,120.0810,-150.9303,160.2299,-221.6110,90.5632,-89.0617,159.1316,-108.7850,156.5174
-476.5625,-226.2418,63.4344,-176.8964,-6.5555,-213.8539,91.7140,-233.8460,-34.5885,-242.9949,7.8551,266.4881,89.2385,135.6103,301.1052,360.5850,267.8560,-72.4960,-106.4144,153.4509,-108.5466
-468.7500,98.8988,-31.9520,164.2506,-34.5806,52.2245,-8.9738,105.4169,-25.8071,58.9533,-131.8815,57.2421,-73.4777,182.5912,-130.5194,260.2305,-164.3501,7.4972,-97.4870,-153.8701,-99.1307
-460.9375,-180.9598,-65.3260,-26.6201,-18.1996,-27.7129,20.3416,-122.3447,39.9309,87.8425,6.3532,-94.9288,21.0106,139.6063,158.8731,181.9462,13.4770,-24.5067,-131.5881,-11.1650,78.2701
-453.1250,216.1629,-54.6846,100.5157,-29.7869,26.3432,-109.3261,76.8746,-236.3065,29.7208,-88.4113,-3.1239,-14.5971,120.5912,103.2841,237.6328,-41.6842,91.4799,-190.6556,105.5095,-51.3115
-445.3125,-84.6752,32.0672,33.6953,75.4356,-4.5426,45.1338,-64.8725,135.5758,181.6447,98.9326,-510.1893,105.1854,-166.3160,146.8438,-233.5369,39.3161,2.5445,139.3758,-229.6847,175.2118
-437.5000,-233.8942,94.4130,-226.5199,48.5360,-227.8286,42.1937,-288.0169,-50.9497,-151.8518,58.8500,4.3817,135.1940,52.3988,367.0163,243.9317,294.9112,29.2037,-79.9994,43.7207,26.3199
-429.6875,107.2748,14.2182,98.6837,26.8552,-86.6813,-36.2666,-37.7564,-166.9724,-12.9200,-95.7709,147.3839,51.8867,11.5457,179.6965,129.8292,-115.0072,90.2895,15.0953,-211.4350,-89.0997
-421.8750,-205.6220,52.9992,-87.1905,27.3406,-162.6054,34.2331,-261.5836,50.9449,19.8968,83.5543,36.3828,112.4991,-63.3451,288.3681,-54.2752,30.0758,-44.6894,54.1172,-172.6170,55.4174
-414.0625,140.3675,49.7004,26.8315,-75.7765,-84.6383,-144.3448,-75.5361,-311.2043,-123.4039,-171.2150,374.2669,16.7605,235.6347,220.9543,466.4915,-73.9318,-14.7884,-197.9335,34.0639,-160.1470
-406.2500,34.8468,13.9587,165.3476,-10.3238,53.8374,-78.3482,25.9919,-26.7835,160.7951,-71.4263,-257.2300,24.1040,81.1681,67.1342,128.8394,-191.3430,-14.3592,-22.4457,-211.6846,15.8548
-398.4375,-81.7488,74.1201,-32.2254,-6.0708,-69.7883,-54.4607,-208.5782,-112.4993,-111.1394,24.2258,61.2264,-2.3409,142.6254,18.2353,190.1308,127.1470,44.9699,-174.0732,128.4721,39.7430
-390.6250,321.6985,91.3953,211.2827,32.2918,25.6742,-69.4383,-41.0920,-165.0689,-90.9945,-102.9946,122.7141,48.0384,-18.8429,78.4703,-152.5148,2.7898,98.3758,-87.5646,-65.2962,-48.2349
-382.8125,-165.8878,203.6888,-87.2488,167.4028,-124.8918,221.5907,-339.6541,235.3444,-95.9177,148.7884,-393.7590,313.6658,-352.2875,517.7299,-413.0863,220.4877,-70.2256,58.9252,-199.0328,168.7848
-375.0000,-10.2722,148.1912,-209.5747,80.6075,-174.2604,135.8250,-243.0232,-72.0449,-293.6559,-49.2491,-0.9949,207.4258,-33.5260,470.2047,238.5558,172.3809,-20.6399,-207.3793,97.4011,-27.0033
-367.1875,58.0884,6.5013,41.8640,36.7574,-33.8567,57.8858,-29.6476,70.3961,-6.6304,-19.4773,-333.4036,89.5521,-36.9604,209.5272,14.0132,21.1180,-21.2723,-33.8867,-219.3548,42.0144
-359.3750,-196.9186,-1.5827,-189.0869,15.1481,-79.8467,84.5493,-187.6696,22.4088,-202.0457,41.8689,-121.1747,83.7656,100.2236,274.4575,153.1116,343.4633,-28.3023,-147.8244,88.4940,68.6216
-351.5625,120.6289,0.9467,75.5471,7.0278,73.7522,-54.1594,75.8701,-153.9350,-159.8723,-99.1689,-2.3718,76.5400,108.9814,247.0208,125.7755,21.4306,43.2442,-112.1289,-15.0892,-70.1371
-343.7500,-259.2696,45.0920,-110.2720,84.5852,-38.0863,164.7525,-148.0430,212.3187,-52.1601,190.4064,-405.9170,258.9073,-222.6516,541.2401,-277.9174,93.0549,-159.6265,177.1502,-253.0385,148.7034
-335.9375,-123.1665,41.2446,-290.0901,-9.0936,-180.9311,59.6729,-254.9624,-78.4341,-344.4661,82.9756,187.5464,139.6669,76.7165,473.4757,242.3974,246.6776,-92.5005,-73.5583,59.9928,-30.4686
-328.1250,109.5824,-41.8923,27.7567,-30.3037,-47.0951,-25.6802,-12.2277,-16.4559,-64.0955,-4.7310,177.7094,-5.1444,28.7840,95.4223,11.4220,15.0324,0.3067,18.4380,-164.2656,-78.9313
-320.3125,-96.4641,-35.8195,-78.1996,-42.9155,-117.0656,16.1633,-192.3068,60.6886,-98.5781,145.7533,111.1385,-12.4744,34.0709,101.5883,54.6916,277.6314,-28.6944,-116.3839,88.6926,-37.2184
-312.5000,248.2853,-41.8871,101.6704,-10.6661,99.7988,-24.1051,59.4302,-127.2702,-141.2409,-7.8950,-75.6030,-19.0340,67.1760,25.6800,125.7700,91.1308,70.1168,-123.3110,117.4584,-114.6537
-304.6875,-149.4695,18.6151,-64.9599,100.0117,5.1867,140.2062,-108.3353,220.3363,-53.4104,191.0171,-386.7722,143.9573,-171.1427,228.3539,-369.5425,146.2186,-8.5376,182.2893,-138.1870,86.4512
-296.8750,-161.4906,79.8243,-250.8646,35.1911,-105.7030,66.2072,-222.3773,-74.3742,-348.8839,114.6114,128.7790,110.7196,85.2548,303.6810,145.8707,293.9773,15.5088,-74.4231,167.8639,-134.7512
-289.0625,107.7846,68.3918,69.5446,13.3408,103.7296,-17.4207,23.8774,-48.6931,-142.0299,28.5855,-63.3187,55.9093,75.9726,111.4160,-46.3945,27.1426,3.8747,19.2369,-159.7521,-181.5798
-281.2500,-215.5848,26.3207,-130.7265,48.7522,-23.5171,187.3084,-288.5534,155.3151,-232.8851,157.9068,-2.9713,98.9967,-49.9530,206.5712,-134.2707,232.7037,-71.4329,47.2134,-61.0093,22.9206
-273.4375,228.4381,-90.3302,7.4182,-51.4224,5.6457,33.4522,-76.5886,-146.2413,-279.3449,-145.3669,469.7426,-73.9882,90.5047,-18.9051,228.2179,42.6484,21.6525,-141.3862,139.1108,-94.1539
-265.6250,53.9860,-86.3774,35.1197,54.8581,-2.6179,98.2171,-87.0750,138.8169,-33.2485,-10.0127,-162.9391,86.5320,-248.4283,194.2442,-293.6602,-37.7433,-10.6704,142.6142,-139.1375,154.3913
-257.8125,-131.1644,80.8625,-262.8827,72.4420,-191.5879,95.2878,-277.2654,-49.8485,-332.8835,57.6276,55.7186,202.4584,-67.0523,486.7649,-38.2055,253.1856,-19.7035,27.9131,167.9030,40.2101
-250.0000,121.4407,52.9131,44.8876,7.8395,43.2243,0.1987,67.3018,-144.6527,-136.7340,-38.8992,36.1567,78.1196,21.0980,173.1170,-21.9805,-24.0576,-46.9709,105.0268,-70.2841,-128.1513
-242.1875,-249.6965,70.2317,-95.1106,9.4065,49.2696,155.3537,-110.9065,156.7697,-59.3835,149.8154,-64.0620,62.8274,-117.4689,34.6853,-233.4381,130.9580,-205.9891,156.3534,-158.1897,99.7384
-234.3750,117.7175,53.0965,-1.5494,-124.0243,70.8648,-79.9384,-18.5695,-189.2569,-259.4919,-50.9152,584.2542,-111.8879,161.4972,-199.1601,193.6367,6.5333,-153.4683,-73.7463,69.4207,11.1877
-226.5625,-7.0447,-36.1391,81.8477,-96.8976,117.3172,5.7105,26.6089,40.6557,-67.7360,68.3092,191.4626,-48.1790,27.3501,-76.0317,-50.3872,-53.9052,-243.0847,223.0622,-231.0513,132.5460
-218.7500,-300.9386,-117.5316,-218.9088,-109.5680,-37.3704,109.2134,-165.3452,-2.5948,-260.1439,133.3902,334.5807,-24.7441,278.0685,175.9093,422.4725,234.5006,-218.8536,35.6966,109.3417,15.7497
-210.9375,153.8754,-153.1750,78.0777,-122.5568,223.6871,-33.5218,278.4303,-146.0576,-38.8030,-48.7556,267.4385,-151.1679,282.5259,-184.3940,318.0577,-128.3451,-79.8836,-70.8959,38.4723,-90.2545
-203.1250,-230.9301,-8.4013,-117.5676,7.3586,137.1189,175.1416,7.5650,246.8535,20.8776,158.5049,-146.2463,0.9888,-132.5950,-121.2435,-279.8984,120.2678,-181.5250,141.8936,-98.9654,229.1310
-195.3125,-34.4438,13.6594,-234.8984,-66.0491,19.8598,96.1300,-38.9907,19.0770,-282.1400,113.0834,290.3361,-85.7836,8.5662,-198.7721,156.4291,224.2029,-158.8890,-11.9945,239.8655,75.8133
-187.5000,-46.2465,-66.5228,-103.4664,-56.5715,78.3776,118.9571,92.2085,262.1424,-5.3680,207.5059,-89.2805,-46.8416,-151.4682,-137.4815,-112.4301,28.9815,-240.4756,257.9247,-86.4907,135.3185
-179.6875,-432.5791,-99.2633,-431.5795,-52.7556,-101.6510,197.2211,-200.1414,302.6209,-187.1840,282.3674,-10.3704,60.9798,-37.0226,271.2534,186.2143,290.1978,-273.6080,154.2722,161.6131,102.2525
-171.8750,-8.7277,-131.7674,-126.5039,-116.3471,130.5121,-10.2974,140.6830,-16.6601,-177.8141,-74.5509,334.7106,-83.1628,159.5827,-7.7911,347.9958,46.6325,-130.5649,-19.1453,129.8835,-105.6037
-164.0625,-313.8483,-48.1814,-197.4217,-38.4292,94.6921,65.2572,-6.4890,280.1085,5.5442,73.6034,8.8762,4.0790,-94.7651,-2.7601,-88.1486,87.1637,-188.4841,203.4709,-33.7656,117.5783
-156.2500,-219.1913,-22.8307,-312.5734,-51.4274,17.6335,26.5625,-47.8970,19.6241,-221.3487,-5.4875,338.7885,-7.9945,86.6351,69.0084,277.4509,122.4264,-92.6606,-52.1557,273.3114,-32.4998
-148.4375,-26.0422,-73.9203,-75.2108,-38.5109,145.1038,8.4398,152.2039,73.7275,15.3023,11.0140,-7.7661,-27.9724,31.5776,-21.6491,76.5885,-77.7310,-74.3098,70.7815,-60.0601,-14.0166
-140.6250,-379.4694,-37.6086,-373.4549,-43.5457,-44.0257,115.7132,-148.2919,217.1925,-27.6817,189.9090,64.1524,10.6103,-8.0554,124.0949,185.1806,324.5308,-144.5598,-70.9233,115.9916,55.8368
-132.8125,102.3967,-82.9928,-157.3932,-106.9669,100.1502,-70.6970,103.5097,-117.0098,-70.3600,-35.8775,467.3359,-100.0383,173.5830,-23.8475,294.0272,65.1042,-13.5299,-291.3079,177.3027,-93.9957
-125.0000,-76.5754,-13.1577,-99.1816,3.4483,83.5021,26.1141,-23.5391,235.9946,133.1196,131.5679,-23.2639,-29.2766,-24.5747,-109.5603,-195.9046,-57.0750,-15.3186,-47.5080,-105.1624,185.3793
-117.1875,-97.5196,107.6879,-225.9578,11.7870,-43.1385,-26.0813,-188.5720,-38.0216,-179.4152,76.0142,256.1635,-65.4407,106.2671,-197.2756,267.1689,147.7265,104.8879,-207.7136,226.3581,95.7462
-109.3750,166.7841,127.8444,89.5314,55.9381,16.5011,-39.9488,-20.3427,-51.6890,-159.6638,24.8078,61.8670,8.6852,-88.6189,-97.6441,-74.4956,62.8698,124.3686,-49.6051,-175.8420,9.4353
-101.5625,-279.4534,176.4515,-195.5451,91.8512,-268.4181,154.6329,-454.6742,215.0634,-299.5034,180.0475,220.0802,112.4887,-189.0218,133.4240,-173.6414,294.4872,-2.7066,32.9242,-162.5634,92.5605
-93.7500,166.3161,26.0527,60.3941,-42.7555,-123.3184,-102.7784,-199.9925,-263.1712,-340.3286,-189.7122,811.2635,-119.4348,214.5614,-158.5331,379.1802,-71.9140,162.2101,-258.5225,73.6787,-128.2970
-85.9375,112.4831,-60.8770,213.7290,36.2837,67.1995,-19.7105,-84.9131,-34.9397,-40.7471,-182.9940,85.8970,-0.9715,-33.4272,-0.9698,-88.5581,-171.8075,108.5534,39.4892,-189.6146,100.3044
-78.1250,-136.9238,77.5971,-121.5297,77.7521,-157.8848,85.7569,-310.4211,-75.3255,-303.7865,-79.8772,303.9782,95.5619,-110.0125,179.9943,56.1180,192.6992,71.2921,-32.1057,123.4921,133.2813
-70.3125,101.9780,143.4159,21.5494,53.4999,-87.6240,-25.4102,-132.5924,-151.3158,-272.4566,-157.3718,414.3914,68.1425,-112.2556,69.2826,-17.8759,8.5564,65.3639,31.6713,-92.0637,57.6235
-62.5000,-371.7190,92.6304,-256.9841,59.5977,-181.9650,137.8174,-338.3692,121.0644,-222.7503,78.5442,65.2391,140.6642,-95.0652,271.9747,-0.4141,209.8282,-90.1614,120.8154,-37.1829,147.3412
-54.6875,-11.1040,-106.8640,-161.1970,-78.8480,-49.9859,15.3535,-22.8256,-186.2513,-238.7295,-120.2266,312.3649,-86.8722,296.4026,3.9989,503.2966,125.3891,-9.3991,-185.7218,325.9671,-122.6437
-46.8750,10.6104,-118.2032,37.6981,6.9365,76.1238,106.0697,100.8264,123.6128,68.4129,-31.8043,-221.3439,14.9174,-17.9953,58.1952,-139.8561,-39.8585,-56.5104,47.8944,-72.7194,40.5369
-39.0625,-278.6411,15.4540,-300.3977,54.1154,-188.7543,209.7733,-312.5002,116.4488,-235.4637,69.6190,68.9926,124.7053,-24.3740,311.3552,2.0315,284.8844,-63.6205,-30.5021,200.6023,33.6982
-31.2500,150.3233,-45.6483,9.7467,-51.1192,-62.3813,44.7487,33.4223,-122.4083,-147.0698,-97.6562,456.5236,-60.9946,67.4702,-36.2518,168.1277,9.8868,-21.4994,-127.6188,139.1436,-168.8709
-23.4375,-231.6734,-108.6993,-67.0901,-31.8411,-101.9673,153.7814,-80.6235,169.7841,106.3465,120.1400,162.1311,-8.3905,-43.6229,74.2018,-88.6932,83.9684,-120.3321,-15.7150,4.7710,13.6035
-15.6250,-69.0366,-84.1496,-109.3045,-85.4293,-106.9398,2.4123,-14.0451,-129.4248,-12.6298,39.5379,307.3291,-72.6743,208.8648,35.2528,312.0516,117.6349,-26.5689,-274.2003,310.9675,-138.3177
-7.8125,89.1556,-29.9929,87.0482,-10.8186,52.6656,-56.3370,144.0912,-5.0097,182.9853,52.5788,-153.8730,-48.7889,-34.0642,-132.0934,-112.6201,-123.0653,27.7751,25.9285,-22.2266,-13.6172
-4000.0000,-121.0672,-18.0951,-112.5498,-9.4575,-58.0783,4.9154,-51.3557,20.6884,81.6613,156.9976,-47.5068,-0.0818,-57.5881,30.3478,-26.8094,77.5039,-20.7736,32.2579,88.2685,38.2438
-3992.1875,251.1079,-136.3544,105.6813,-120.1560,51.0266,-141.8844,241.9760,-235.8640,84.0250,-23.2622,245.5093,-126.9235,162.6180,-79.0694,230.6488,-178.4422,1.9658,-84.9532,147.9962,-255.5659
-3984.3750,-130.2438,-234.1657,66.3941,-72.4584,84.5969,40.7646,203.7857,204.0486,340.8663,234.9293,-381.0604,-70.1273,-60.7457,-43.0779,-211.4881,-141.9750,-132.8377,168.3145,-90.8512,-72.9277
-3976.5625,-13.8889,-116.2251,-62.1810,-105.0531,30.8939,-48.8221,149.3153,-32.2742,105.4458,110.8943,115.1188,-126.3322,179.6404,-133.3160,212.1342,-83.7331,-47.8952,-133.6689,207.0776,-199.5419
-3968.7500,348.0550,36.2644,204.8169,-72.3288,188.7546,-183.8776,307.4253,-20.0809,228.5770,-94.6124,89.8847,-117.9880,116.6020,-305.0168,-34.6703,-364.9690,-1.3949,19.8816,-167.4320,-187.6452
-3960.9375,-11.0728,170.7154,-65.2314,25.4269,-6.4366,-10.9676,-71.5196,117.1014,-1.3220,7.8502,-106.4601,59.0717,68.4845,16.2501,-8.5834,-7.2528,-42.9539,50.4117,-101.0167,-87.7920
-3953.1250,341.7581,103.1174,55.6533,-7.9518,78.3107,-71.1093,87.4789,-201.7913,-134.2998,-124.7438,126.1799,-16.2163,190.3403,-44.5248,260.4937,-140.5785,65.4432,-87.1301,9.3868,-296.0152
-3945.3125,67.6709,41.5521,90.6257,38.0446,41.1274,112.7847,49.5594,203.3673,87.7929,135.7001,-205.1457,32.4740,-104.7537,-43.2814,-254.3933,-139.8939,-66.1034,134.3964,-296.1852,-75.2041
-3937.5000,-7.3026,74.1397,-96.2669,-6.2273,-71.9200,37.8390,-99.2350,-18.3022,-169.9663,63.3132,232.6644,-71.4234,187.3039,-191.8798,220.8649,6.9641,36.4898,-148.9254,125.4018,-113.2416
-3929.6875,375.8756,36.8361,234.9724,-10.3276,149.1453,-144.0245,233.0959,-126.9050,16.3558,-190.0023,49.5951,-117.3146,225.4902,-336.3983,75.2568,-322.1176,140.1971,-9.1665,-120.8931,-185.2059
-3921.8750,-87.5058,137.9966,-33.3294,99.5508,-7.3387,67.5784,-71.1256,122.9780,-64.8645,-11.8556,-254.0893,117.6306,-41.9073,96.5473,-264.9649,75.2408,29.3475,163.0798,-193.7752,-83.7048
-3914.0625,161.9526,213.0091,-20.8063,73.9973,6.0017,45.0369,-20.5259,-120.3031,-343.2817,-178.8583,236.1243,90.7353,118.5624,74.3657,78.6971,53.4749,69.3514,-42.8394,-46.7720,-290.3763
-3906.2500,-28.7916,93.7602,103.5096,95.0898,131.1065,134.2290,67.8583,190.1568,-31.9412,-87.1374,-190.8966,96.1168,22.7973,16.9113,-200.8901,-187.5881,-14.8864,156.9985,-270.0424,-127.3271
-3898.4375,-137.1690,-13.0774,-45.7820,32.0559,92.6020,23.8349,-7.3777,43.0455,-141.2014,-85.0055,65.4512,10.3486,205.4278,16.8723,129.9035,-77.2528,90.2738,-159.7595,154.0860,-127.8770
-3890.6250,302.1522,-65.2612,268.5938,22.1976,297.7551,-211.9219,308.0560,-192.4520,-7.8354,-355.2555,12.4810,-24.0151,226.7322,-34.5319,113.3719,-421.2879,249.1042,-140.8941,32.8956,-179.8060
-3882.8125,-102.1689,23.8970,21.3466,79.4785,124.2712,-15.3244,-11.1430,40.4275,41.9004,-119.1599,-270.1868,90.9392,54.3655,125.4156,-95.8689,-114.9887,91.2855,125.3528,-86.9780,-20.3780
-3875.0000,154.7870,37.3494,45.3840,12.7601,76.0689,-62.4154,50.9402,-227.4016,-188.0951,-274.7663,269.4633,-19.2043,263.3241,-32.3162,261.2236,-87.3708,139.7664,-72.1110,209.4872,-288.6666
-3867.1875,194.1952,-26.7960,266.8700,73.6942,224.2963,49.8753,236.4650,33.1500,72.3095,-233.0053,-97.4823,54.2814,-30.2981,7.3074,-325.2759,-269.3994,75.6551,111.8221,-134.6601,-176.5823
-3859.3750,-142.9312,-11.4263,-16.1491,99.5649,-20.9851,209.6782,-119.5225,120.2325,-170.7825,-107.7317,-11.9586,143.1479,-54.4281,278.4286,-167.2945,113.0754,21.0347,-12.7282,94.6767,-89.9904
-3851.5625,257.8737,-31.1607,185.7320,45.7176,108.6376,82.3676,120.4021,-80.8230,-150.0052,-268.5837,6.5333,28.4386,38.3785,41.4524,36.6315,-87.5567,71.3228,-66.4112,5.9448,-180.5363
-3843.7500,-106.8450,62.5523,86.0950,125.1862,9.7342,168.5125,-87.1914,300.5916,-25.7586,-106.9930,-385.5762,154.5325,-206.3864,163.9168,-245.0487,36.2265,-10.9400,133.3797,-214.3830,89.3649
-3835.9375,115.8124,40.6791,31.8372,20.0019,-81.7864,6.0760,-141.4137,-83.5843,-224.1421,-266.9973,368.6949,23.5690,69.2518,74.7925,178.6860,-15.5695,73.1978,-168.4337,117.7071,-37.3316
-3828.1250,340.5222,-50.2007,336.6243,5.8499,76.7059,-92.3816,90.4002,-34.7944,46.4659,-289.0411,122.0007,-34.1548,-66.0803,-96.3565,-250.5415,-260.4077,88.3527,23.7383,-217.2060,47.9424
-3820.3125,-64.5289,38.1659,55.6779,60.8990,-165.5558,32.4149,-262.5438,17.2675,-157.6673,-87.8424,-10.4333,102.5178,-51.1689,212.7487,-199.5485,122.9904,35.7559,42.1748,-90.8922,136.4662
-3812.5000,319.6074,107.6931,212.9030,18.5922,-44.6710,-101.6498,-31.3298,-300.5529,-255.6804,-331.5209,220.3294,25.7477,179.9176,41.9968,141.6316,-85.4709,105.3177,-63.2738,-20.4007,-145.8909
-3804.6875,96.9297,168.3753,123.3163,59.9556,13.3799,30.4436,-45.9381,89.7987,-47.5232,-196.0583,-126.8471,82.2424,18.1330,-8.6203,-167.0824,-135.8111,-44.9676,139.4530,-204.8012,-50.0940
-3796.8750,86.5616,88.4177,-29.9506,-24.1725,44.7521,-10.0913,-14.2370,-98.4799,-272.0449,-234.2299,125.3081,14.2071,270.6979,24.1497,269.5535,45.2293,-54.9057,-80.4617,175.1553,-164.9409
-3789.0625,178.8996,-63.8869,136.4666,-21.9364,247.7745,10.0124,263.1373,32.8549,-29.9480,-174.7930,-221.8132,-19.2264,68.9459,-65.4494,-5.1271,-81.1134,-66.1783,85.2593,-81.2466,-71.1804
-3781.2500,-313.4629,7.1172,-238.7893,32.0819,20.1084,187.4316,-111.1849,284.5303,-107.5407,78.9402,-192.6924,85.2236,-121.5276,112.2355,-122.5520,206.8177,-170.1519,192.3050,27.6107,105.8878
-3773.4375,156.5832,57.5209,-67.6498,-29.8279,7.8383,30.2425,60.8884,-93.4164,-265.7665,-149.9511,345.8552,-54.2784,124.4312,-155.6885,270.4792,-60.8510,-50.7133,-2.2750,149.9065,-125.6639
-3765.6250,48.3770,20.6178,104.2372,54.9377,70.2962,166.7342,49.7007,190.3270,-54.2899,25.8138,-326.8806,42.2063,-106.9034,-90.9326,-254.8095,-142.8612,-121.5575,278.8495,-166.1328,84.4655
-3757.8125,-51.4514,-8.8656,-72.4827,44.6663,-68.8568,174.6448,-126.1066,51.4912,-301.4312,35.9761,-283.2230,77.5352,46.1526,136.2533,82.2734,121.5406,-81.0099,74.3752,193.2221,54.9988
-3750.0000,266.3722,-75.7442,226.4266,-10.1482,83.5998,35.1405,136.7104,-14.7852,-148.0014,-102.3027,-130.9238,-38.3236,15.8392,-113.9685,-22.0008,-128.4833,-41.8486,184.4791,-47.8108,-11.8977
-3742.1875,-176.6529,-25.4783,-21.4850,24.5262,-90.7845,191.7939,-147.3105,216.1168,-98.4088,167.5610,-84.5107,30.5895,-158.3329,6.9435,-195.1604,140.6239,-132.5413,235.7599,-100.7370,108.3605
-3734.3750,201.8218,-31.7120,53.1014,-60.5868,-51.6872,-25.0493,39.1490,-184.4958,-168.3662,-10.1034,248.4474,-84.7755,102.0249,-98.6184,248.2223,34.2431,1.2754,-121.4821,175.8543,-108.9042
-3726.5625,134.1548,-98.1466,123.5472,-50.2568,55.2372,-27.1020,183.4422,71.6713,198.4594,62.9825,-268.7731,-42.3141,-84.7921,-64.3944,-158.5965,-114.3854,-100.0997,165.0698,-135.7980,35.6070
-3718.7500,-152.4262,-138.4696,-172.8941,-118.2005,-94.7387,8.9585,-76.1779,-40.0356,-59.6210,174.1641,169.0890,-37.7646,96.4887,155.8915,169.6678,179.0845,-175.3763,54.7240,177.6324,-39.7672
-3710.9375,235.9517,-275.8858,130.5937,-195.0596,174.1973,-163.1023,303.1314,-211.8862,63.1731,4.2023,252.8965,-214.2038,218.6990,-162.9687,217.8775,-66.5743,-65.7334,24.2494,41.9848,-212.2614
-3703.1250,-114.9530,-167.5968,-27.1845,-77.4086,127.8538,11.5353,110.1637,146.9857,239.6808,218.9202,-344.6544,-71.6835,-12.4150,-62.1168,-196.2635,108.4388,-133.3912,168.4996,-60.0097,35.9566
-3695.3125,82.2857,-5.1427,-70.8339,-45.6496,83.6413,-67.6603,66.3212,-189.9901,-60.7108,-43.2221,14.9586,-18.0823,164.6226,42.9198,200.7518,66.6387,-6.8973,-90.1178,211.1599,-117.6755
-3687.5000,146.9364,-8.3294,102.9145,62.6738,147.7894,34.4828,130.8568,23.3617,42.2236,-123.0572,-214.0376,71.1003,-101.9738,71.2860,-248.8775,-161.8449,24.9572,188.6057,-178.3465,-15.9857
-3679.6875,-193.6346,38.2910,-181.5281,88.3608,-99.2672,154.4377,-152.8181,70.5414,-166.0395,-37.0972,51.7531,76.5175,-91.7658,82.4549,-56.7211,105.4647,36.5973,60.1399,115.9071,30.5069
-3671.8750,288.1799,64.2702,145.3959,44.0313,6.0364,-32.2771,100.8689,-226.9712,-94.9852,-258.8355,341.9466,-41.6892,-22.1530,-178.0397,50.8568,-153.8942,167.6007,-89.0159,38.5237,-119.6826
-3664.0625,13.5255,141.7459,102.8689,152.6147,-71.1326,74.5050,-86.9151,64.0249,48.5799,-149.1064,-29.3986,152.6057,-356.0460,112.9571,-431.0931,-82.7903,105.1127,95.3386,-198.4114,133.6277
-3656.2500,143.9583,98.3300,-9.5665,116.3160,-183.2201,-36.6040,-161.6280,-266.8695,-207.7862,-258.2903,335.3761,97.9397,-101.8366,186.0692,8.0683,26.4238,272.7301,-158.2182,146.7610,-14.9609
-3648.4375,356.8596,31.3144,285.4488,104.3707,0.1133,-108.3306,96.0967,-118.3965,14.2321,-218.1298,-141.4084,63.7840,-247.1929,40.5312,-284.3305,-192.0096,240.7675,21.6053,-164.6746,22.8250
-3640.6250,-81.3477,50.1999,-29.6135,111.0089,-166.6449,54.8588,-218.2770,82.0083,-77.8468,19.9160,-163.3306,122.6193,-230.6626,203.8840,-194.8642,118.4471,119.7032,6.3503,-4.2477,112.5273
-3632.8125,309.2672,-15.1014,205.1302,-32.5946,-41.6038,-149.1562,54.1456,-195.8142,-62.1786,-219.2779,366.6013,-95.7562,78.6879,-146.9545,150.4357,-122.2877,159.4492,-199.1305,72.9941,-128.9898
-3625.0000,76.3249,-70.9873,212.3242,1.2508,38.8540,6.2222,61.9934,143.7607,241.8883,-62.1025,-104.0762,-31.9301,-170.5668,-101.4093,-281.8909,-149.6587,-1.3959,62.8020,-192.4216,25.8835
-3617.1875,38.1622,-37.0577,-42.6904,-24.6563,-31.9072,9.4124,-8.3889,-35.8526,-12.2740,-20.1357,8.0556,-12.8561,51.9876,48.9494,124.5938,36.7877,-3.4436,-149.4712,158.9522,-81.4419
-3609.3750,280.1662,-111.0332,173.4441,-74.0004,220.4507,-104.3135,281.3598,-39.4048,168.6333,-95.1368,-69.6607,-109.0090,84.6781,-175.6060,9.2247,-259.7070,-7.3701,-46.6783,-124.5755,-85.6975
-3601.5625,-100.8794,-103.0672,-47.4315,-67.3766,73.7764,43.9280,-12.9354,145.0217,97.4976,54.7847,114.5383,-79.9858,85.3062,-99.2116,46.7570,-39.2753,-104.3431,-3.9099,-46.2069,62.0120
-3593.7500,250.3355,-138.8500,143.9487,-121.5363,191.3472,-94.5819,179.0066,-140.3267,-77.4391,-156.0788,342.0384,-166.3348,314.2232,-202.5710,385.5844,-140.5815,-0.0565,-213.9150,166.4347,-114.0474
-3585.9375,82.9131,-23.3311,143.6892,62.8948,192.2523,53.1954,106.2903,191.6118,70.9157,-78.6932,-503.1558,100.0850,-89.5360,130.3468,-238.2968,-101.6372,-24.4600,114.3822,-207.6675,107.1706
-3578.1250,-96.3795,113.3453,-151.4204,89.7254,-102.6956,126.1384,-225.2910,81.7233,-259.5939,-5.1763,-247.2086,184.1316,-18.1392,350.4281,53.9686,154.4554,-28.7162,-30.1697,70.3717,32.5410
-3570.3125,293.4323,83.0684,150.5526,32.5332,15.4330,-10.8821,77.2147,-56.1562,-103.0820,-141.6656,17.8288,6.1761,27.3465,-81.4643,62.3371,-276.4288,46.0899,-59.7040,-135.5287,-69.0692
-3562.5000,-92.1472,120.3871,-3.8410,79.1131,-102.8188,91.7040,-149.6647,157.5938,1.0450,0.4245,-172.5782,60.6632,-126.5862,-50.7602,-91.7411,-172.7313,-20.5037,48.3876,-165.8833,143.9337
-3554.6875,170.0194,137.4500,56.5059,14.5407,-79.3321,-66.9571,21.1854,-183.9194,-84.1249,-156.7642,107.8174,-62.9651,81.2628,-246.2901,262.9767,-75.2668,100.6628,-214.7943,97.5232,-15.3232
-3546.8750,122.0515,90.3166,146.7160,55.3761,12.9812,-10.8319,148.8763,90.3453,228.5000,9.7978,-425.9659,-7.3266,-157.0728,-228.0437,-270.4947,-130.0480,19.6417,90.8135,-228.3124,149.1976
-3539.0625,-221.0792,29.0741,-210.2131,29.4446,-160.8621,72.1586,-134.6064,101.4865,-17.0362,169.2050,-158.9149,27.3152,-73.5801,39.0577,-3.1578,211.0233,-6.5357,-74.7205,98.6549,122.5870
-3531.2500,178.3430,-97.6427,105.3812,-41.2771,43.7853,-51.3657,182.4113,-95.9147,42.8746,-26.9422,46.7191,-64.9494,21.4538,-47.3617,129.7350,-133.4208,41.8053,-131.7923,-27.8740,-75.5500
-3523.4375,-200.5564,-53.7125,-5.3237,51.3105,7.1003,169.7571,-1.9010,235.3459,43.4410,121.5256,-210.0065,116.8392,-124.8518,246.8635,-237.7430,-22.2496,-90.2024,17.8014,-228.8188,107.9600
-3515.6250,-56.8595,-15.1761,-65.4308,-31.0136,20.0076,36.4979,11.3691,-117.7877,-235.4243,-46.4206,243.8638,45.8368,256.4509,224.7005,290.4021,-8.4566,-50.6037,-257.0289,127.8422,-98.9310
-3507.8125,61.1039,-1.4266,90.7103,-29.3441,214.1422,-26.5741,278.8799,40.2614,142.8982,-35.2159,-115.0663,-23.2079,118.9576,-96.2972,5.7435,-254.4999,-72.7917,-68.6687,-139.3210,-15.6305
-3500.0000,-248.0571,-29.7730,-199.2504,-52.8627,33.1737,14.2727,-11.7226,81.2443,74.1171,80.8754,-1.1159,-54.3862,123.3531,-90.3825,155.9582,6.3640,-99.0942,-60.3900,150.3746,61.5936
-3492.1875,178.2540,-129.6741,37.2455,-101.5854,86.6533,-115.4413,226.1284,-196.3575,17.7410,-158.6303,309.3675,-124.5085,176.2509,-111.0078,246.6986,-160.3207,11.0559,-89.7035,121.5335,-179.7614
-3484.3750,-241.1507,-56.3328,-4.9597,43.6185,7.4158,137.0914,0.2677,241.2986,123.6319,59.0744,-209.9048,95.2078,-158.5877,178.5880,-309.3242,-17.7969,-91.5444,196.2363,-190.1214,-0.8684
-3476.5625,-171.8215,85.7601,-149.4188,62.4505,-100.0721,104.3800,-69.8616,60.7022,-166.7508,63.5066,49.5763,39.9341,27.3425,-1.0666,97.4301,133.4955,49.6107,-84.0910,197.9709,-71.2138
-3468.7500,89.4787,30.7489,159.0754,47.7947,24.3667,-28.4570,164.9443,74.9603,68.7462,5.7730,-84.0046,-61.6298,-68.7892,-280.8454,-72.8729,-146.3442,136.6916,-32.5525,-67.0485,-20.6789
-3460.9375,-297.3214,30.6514,-29.5068,19.0208,-164.2859,40.6164,-170.3559,145.1476,-8.8560,112.9216,95.2996,26.5551,-36.0516,45.2839,32.6711,69.7167,-4.3322,-66.1007,-30.2217,84.7767
-3453.1250,216.8530,18.5165,222.8653,-76.2256,-96.0030,-184.3570,45.2839,-226.7397,-85.5534,-185.0167,531.6089,-109.0027,179.6517,-142.6281,359.1973,-155.2554,89.6028,-253.7386,28.5747,-103.8272
-3445.3125,48.4739,61.7870,220.6871,15.8120,-23.2968,-73.9319,7.3555,65.7786,134.1575,-0.5963,-94.7085,-5.7916,-152.2573,-106.1748,-192.8953,-81.8731,26.9505,0.0356,-278.2761,114.9785
-3437.5000,-133.8858,56.1134,-40.4534,-25.5859,-137.5555,-41.4385,-142.5529,-119.6351,-125.1074,33.8565,195.0283,20.5573,27.8864,111.3405,133.0704,171.5723,-14.6494,-216.1381,67.9100,37.8561
-3429.6875,132.5593,77.1929,242.1928,-57.2991,32.9429,-126.2201,138.3115,-132.3479,9.3512,-88.0017,219.5923,-8.8705,52.8210,-11.4178,83.8445,-134.2545,-63.4816,-124.5925,-226.1659,-11.5413
-3421.8750,-276.7851,125.4903,-8.9222,-36.6428,-108.3416,27.1944,-148.6184,94.1621,-19.9756,66.3162,77.3392,54.5328,57.9521,104.9945,163.7861,129.1027,-190.1218,-75.8366,-213.1059,141.2774
-3414.0625,156.4296,66.3549,121.5124,-170.4381,22.9257,-207.8487,54.9842,-287.8014,-109.7953,-131.8469,429.6891,-195.7289,447.6646,-314.0418,589.3190,4.0254,-73.2103,-344.5622,10.5093,-58.3606
-3406.2500,38.8948,-15.5848,208.1939,-86.8442,145.4227,-120.6950,178.8202,56.4240,161.5780,31.1444,-108.7575,-147.0869,56.5821,-373.8795,-95.9599,-55.8895,-85.0890,-5.0815,-281.7250,175.1921
-3398.4375,-207.0706,22.0792,-120.5287,-32.1281,-109.4814,-8.9169,-149.7647,22.2773,-129.4709,105.7173,186.3836,-18.4971,-14.8994,-4.1029,52.3566,239.8086,-48.3718,-107.9970,37.6105,176.3628
-3390.6250,189.7678,-3.5036,152.5341,-50.3879,16.3841,-175.4176,124.4230,-144.1680,-75.8065,-95.0270,240.3415,-80.3305,75.4216,-133.6031,106.4939,-109.7635,68.1203,-96.2076,-127.3050,46.2604
-3382.8125,-199.0294,30.2717,32.9859,4.9421,-140.3812,-38.5628,-143.0246,138.7576,-48.7859,115.5500,-64.3853,-1.5770,-80.9288,-33.7537,-124.0645,173.0018,-4.0412,41.9510,-233.9407,219.5235
-3375.0000,93.2626,77.1605,53.5204,-37.6238,-230.0636,-126.5880,-121.4097,-206.2164,-320.7107,-46.7990,398.0296,-29.9582,86.8283,24.2178,300.5032,231.8965,77.9027,-226.8101,24.5254,19.8895
-3367.1875,149.7733,169.1957,253.2588,45.3946,-176.5763,-73.4799,-31.6107,-5.0614,-83.4940,-65.0605,9.6342,82.6250,-117.2433,77.3131,-86.7623,-8.1049,29.0146,-64.4435,-375.8882,146.3953
-3359.3750,-51.5797,179.3801,-31.8394,39.0741,-352.9406,-28.2097,-317.6761,-33.7363,-259.1333,17.8064,201.3764,93.8962,-35.1729,196.5728,141.1097,257.0542,40.2717,-194.9234,-83.1860,191.0741
-3351.5625,393.8642,27.3151,256.8325,-38.7782,-137.5454,-180.2086,-29.9834,-222.7038,-227.0558,-133.6254,416.9492,-87.7229,69.6893,-101.4496,246.7970,30.9585,168.2862,-275.6932,-93.7215,38.4833
-3343.7500,40.9395,-8.1424,211.1533,24.1999,-146.5308,-4.6092,-147.6688,135.9424,-87.3705,42.5079,41.1116,-9.2151,-158.8629,-36.8948,-91.9575,132.4329,63.9041,5.1524,-234.7229,213.5060
-3335.9375,149.9469,-39.6246,191.4063,-54.8772,-131.5826,-99.0467,-132.4414,-177.4597,-291.7818,-161.4244,498.2324,-56.2555,114.5311,52.6449,438.2462,149.8853,102.4780,-237.0667,85.2256,-64.5117
-3328.1250,249.1668,-79.9396,405.8490,-20.4207,83.5341,-67.3481,82.9645,-35.7410,-40.0588,-239.2568,124.5345,37.6895,-37.9136,195.3118,27.6155,-76.5379,26.2181,-31.1555,-305.7024,-70.3929
-3320.3125,-181.8264,-19.4496,20.1046,51.9295,-43.5454,136.1609,-190.8353,130.8113,-130.5266,0.7009,-76.3854,104.3852,-91.5775,250.7760,-62.2534,236.8375,-18.2491,-39.4278,-103.8727,95.5563
-3312.5000,215.2053,-7.9723,148.3683,-50.6446,82.3821,-104.3440,82.3662,-145.6728,-114.0282,-128.3786,123.7531,-121.1704,145.8043,-245.7745,247.9437,-2.7810,63.2924,-99.7340,-22.0209,-34.5070
-3304.6875,-123.5867,4.6477,7.8260,-15.3875,51.4912,49.2925,-20.2485,154.9964,39.6384,61.6643,-163.9642,-1.3394,-30.6553,-55.1925,-112.7113,39.7234,-134.0244,195.1182,-255.0762,118.5805
-3296.8750,-116.5642,-21.8736,-124.8798,-97.8491,-44.5556,-9.2053,-81.0405,-51.4678,-201.8636,-33.4491,365.1866,-61.5711,203.7446,-4.7378,342.4981,165.1066,-126.5057,-78.1914,104.7075,-14.4684
-3289.0625,189.2638,-101.6483,192.1930,-102.2198,162.1729,-131.9683,199.9484,-28.2158,41.3702,-118.8647,130.1293,-164.5232,116.9194,-311.5565,108.4878,-104.7812,-31.2194,53.2248,-79.7706,45.2196
-3281.2500,-227.8145,-62.3178,-101.6256,-28.5722,-20.9930,-21.6194,-129.9708,119.1683,-31.2789,64.8104,-15.8683,-33.0212,43.1685,-17.2757,-1.4624,225.4254,-25.8326,127.7631,-5.1993,155.0335
-3273.4375,207.4167,-13.6806,71.8516,-58.0429,78.1307,-179.9745,42.3973,-257.1737,-225.6573,-202.2507,377.5019,-53.3861,216.7529,8.2848,281.9515,30.9419,93.8674,-68.4343,79.6897,-112.8657
-3265.6250,72.4519,-8.2905,216.1361,7.3583,112.0360,-70.5922,2.5527,-3.7655,-44.2762,-130.6060,153.6196,-40.5857,30.0912,-140.4372,-198.8981,-80.8285,64.3267,148.1122,-266.7161,67.9832
-3257.8125,-11.0457,-90.3913,21.9089,-41.6735,27.4318,-81.6898,-153.8193,-122.8280,-201.4109,-67.4723,364.2204,-116.8040,166.9265,-150.6439,84.7437,127.9279,122.2793,-74.8409,143.3583,20.3591
-3250.0000,290.6000,-34.3842,265.8090,40.0910,234.9419,-95.7055,162.9284,-172.8302,5.5319,-153.2912,-128.0140,-32.5990,79.8867,-127.7616,-113.4721,-215.2343,178.3422,16.2793,-47.4767,-30.1797
-3242.1875,-110.1030,92.2759,-47.6166,116.2570,29.1095,67.9389,-114.6724,62.8450,21.1427,9.5277,-257.6212,144.9817,-86.5396,182.7727,-280.0836,-15.7521,58.0497,108.0738,-60.7276,95.9570
-3234.3750,287.0405,32.7961,46.7891,-28.9013,125.1117,-130.5636,53.5511,-318.6483,-140.4359,-225.8300,498.6762,-120.4867,265.9055,-236.8287,256.2022,-141.3860,174.6084,-233.3132,160.8831,-140.0534
-3226.5625,201.5414,-88.4021,244.5399,-50.7809,285.4469,-115.7807,214.1132,-11.8583,204.2912,-174.9350,107.2958,-143.7137,58.6704,-333.1602,-134.1970,-273.7533,54.4699,-37.4117,-170.2407,20.2338
-3218.7500,-133.1919,-71.8138,-140.9152,-55.2970,45.5880,-62.1814,-62.5405,-30.2379,38.8168,-83.2441,199.7063,-26.2323,113.2356,89.3130,177.1874,74.6928,1.1204,-160.7052,162.4102,1.3535
-3210.9375,208.3572,-80.9632,75.8911,-86.6709,188.9990,-138.3483,266.0692,-143.4087,145.5664,-160.3511,86.4257,-68.8535,147.0801,-24.9839,210.8736,-186.6107,-8.9713,-134.7842,48.3201,-149.2841
-3203.1250,-193.2457,9.7497,-135.4396,56.1523,87.2782,128.3441,17.5369,270.2973,155.1853,69.3777,-419.0566,90.6313,-100.2445,94.5745,-294.6255,42.9348,-93.2206,132.0104,-106.9817,116.9503
-3195.3125,-83.2822,51.0619,-231.1975,36.3840,-45.8600,68.6528,-42.4272,-46.3970,-125.6271,-100.3037,72.0972,86.1015,60.0534,182.7534,13.5207,131.1141,-16.8682,32.3867,180.3279,-53.2129
-3187.5000,-92.3033,42.3078,-56.9632,124.9928,-18.0191,133.8933,22.5968,91.8272,123.5146,-72.0833,-376.7428,180.9521,-168.6837,283.8528,-252.3604,-61.7962,9.4501,305.6899,-145.4309,-62.4430
-3179.6875,-311.6433,104.2569,-286.0188,121.5176,-174.4732,198.8534,-170.6962,119.7852,4.3601,-7.1610,-166.9093,148.4542,-67.7537,201.6604,-4.5939,76.0154,0.4594,190.7051,91.4674,-71.9405
-3171.8750,255.3899,-67.4281,92.2766,-32.4834,57.4152,-10.8448,171.3504,-162.9317,15.5162,-253.9138,397.3125,-184.2842,201.5463,-412.1899,263.5736,-280.8092,110.8263,20.0358,96.7233,-208.0826
-3164.0625,-23.2585,-28.8093,119.8980,65.3088,83.6135,89.7547,50.7040,158.6595,152.9896,-41.3932,-164.1796,-73.5250,-101.8743,-348.7339,-259.9870,-142.3526,79.4922,163.6831,-75.7732,76.0984
-3156.2500,-51.1320,154.6149,-87.7034,111.6062,-50.4115,30.1658,-83.1759,-85.9464,-128.7556,7.9116,-114.8335,127.7874,-126.4948,142.5383,-100.7274,164.9381,121.9549,-75.8847,282.5353,-57.9066
-3148.4375,10.9025,146.8851,51.5829,114.3318,51.4356,95.4062,92.8292,53.2606,121.3413,37.0152,-378.5920,141.9958,-206.2351,97.6216,-328.5751,-63.9459,8.2733,57.3693,-77.3209,-66.0717
-3140.6250,-408.7838,78.4535,-243.8314,76.4494,-25.4019,239.9501,-92.8723,197.7895,81.7589,107.4113,-235.0824,79.6286,-98.6831,21.0094,-74.1413,80.4734,-94.1221,-80.0649,101.0814,41.0967
-3132.8125,-1.1622,100.3203,-106.9565,13.4412,113.0621,46.7798,154.7251,-105.4198,35.4494,-122.9167,123.7942,-4.7327,112.1977,-98.2885,137.6457,-112.7940,-3.2132,-305.2431,122.8023,-78.4380
-3125.0000,-261.1638,121.5354,-202.7008,87.2380,15.9005,170.9561,-52.3017,165.7247,196.5128,111.0809,-303.9904,183.9534,-131.5822,282.7545,-253.2538,-24.7295,-121.9571,-2.0632,-208.1781,118.3894
-3117.1875,-250.2129,96.7602,-367.4731,1.0487,-149.2718,116.1486,-180.3649,-73.1076,-79.4392,57.0862,82.2250,61.7306,218.6384,191.8038,316.8560,177.3751,-76.7147,-237.8855,154.8353,-46.7595
-3109.3750,147.0283,37.2293,85.0200,-44.8471,156.8272,-92.4306,198.8483,-97.7234,190.8488,-115.6996,-126.2621,-103.5518,194.1536,-273.9280,145.2812,-178.2904,4.7815,-122.4791,-81.8998,-71.6720
-3101.5625,-257.2401,20.1833,-124.9796,30.7278,19.4521,64.5038,-85.4307,133.1935,126.6625,78.0092,-188.3027,52.3987,-52.8525,65.8558,-138.8406,88.5435,-47.2312,36.4416,-28.1794,121.9449
-3093.7500,48.3339,-24.9992,-54.1495,-23.8088,52.9214,-84.7099,58.1168,-199.0532,-59.7059,-71.4484,176.5300,-7.5728,90.9967,63.5289,189.9098,-60.7421,47.6072,-43.8262,172.4055,-64.5781
-3085.9375,-48.2613,-16.3742,-13.4924,21.6158,57.2100,-43.1398,25.4845,61.4878,164.7378,5.8640,-186.8285,45.5634,-161.3551,67.9735,-173.5355,-129.2573,-13.7482,281.7057,-170.2450,49.7106
-3078.1250,-125.7999,47.3438,-126.7518,31.0190,-94.4096,-10.4632,-198.0705,-89.8527,-59.7101,2.2776,176.9172,-7.2276,-92.6088,-46.4918,79.1268,86.3515,84.9879,98.3383,174.1994,-27.8696
