Time,Fp1,Fp2,F3,F4,C3,C4,P3,P4,O1,O2,F7,F8,T7,T8,P7,P8,Fz,Cz,Pz,ref
-4000.0000,11.1119,-40.3387,-69.5441,-39.3340,-24.2076,10.9108,-8.5001,19.1016,11.9298,44.4128,-34.7729,-13.3346,-34.7562,-4.0846,29.7791,1.3354,-19.3359,91.2574,29.0429,33.8790
-3992.1875,-84.0575,-67.1216,-49.8606,3.9011,70.2602,25.9388,13.2831,114.2449,-40.1503,102.9167,-15.7019,-28.7208,-88.1192,24.6290,-21.8788,59.9020,-149.8194,103.8844,39.4699,-201.8282
-3984.3750,87.3562,68.6727,9.3904,34.7017,20.2850,-2.6425,74.6280,65.9350,-52.6918,-129.0599,-29.0747,-41.5571,45.0581,-55.3023,3.0119,-137.0222,232.2894,-180.9652,-34.5740,-29.9829
-3976.5625,-125.6516,-74.9453,-64.7670,-38.9031,-17.0938,10.0500,0.5659,29.2146,-15.6327,128.5799,-66.8480,-4.7929,6.8231,15.6327,39.5096,45.6562,-192.0250,135.8258,140.0069,-66.5228
-3968.7500,12.9419,28.0399,81.6889,29.0986,94.1453,-18.9004,112.1144,67.0973,-50.9822,-90.1811,43.9845,-40.4297,6.1667,-28.1039,4.6084,-63.0719,87.2601,-180.7868,-37.8169,-138.4846
-3960.9375,33.9916,-21.5126,56.6002,-20.4454,-4.1751,-13.0764,49.1190,-30.5754,-38.8757,-77.5057,19.2646,-28.6181,52.9540,-25.6235,16.1652,-51.3726,72.0298,-86.9602,18.8022,94.0274
-3953.1250,-57.9871,-80.0723,77.5020,-7.9859,53.5069,-17.9744,35.1146,-45.2455,-53.7741,-17.8085,76.5352,-6.7960,1.7206,28.0116,2.7188,80.3475,-195.2411,32.9062,68.4349,-103.4711
-3945.3125,125.2575,68.5905,152.6173,33.6846,56.4024,-51.0041,112.3196,-78.7138,-87.4783,-234.9410,116.0074,-4.7717,76.6778,-39.9652,6.4682,-100.7547,197.7286,-274.0629,-64.7564,10.2306
-3937.5000,-134.8167,-87.0511,25.4245,-49.9463,-33.0141,-14.5835,22.2203,-57.4944,-30.4829,43.6328,62.1636,15.9605,22.3275,25.6990,27.9186,66.8421,-167.6102,29.7047,97.7711,31.6534
-3929.6875,27.3964,4.6133,127.5406,5.7357,69.8818,-47.1274,89.4214,9.0251,-73.1983,-109.4977,91.6205,-27.0020,51.2562,-18.7730,21.6671,-14.2606,-5.6547,-228.2181,-20.4020,-121.6479
-3921.8750,73.5145,15.1979,56.5668,-17.6737,-0.3201,-35.3582,92.5319,-23.5580,2.9881,-104.7510,20.9717,-24.0619,53.0809,-56.6768,62.3145,-120.4926,75.2464,-144.2590,-8.6880,65.9702
-3914.0625,-117.8954,-36.7301,-61.9144,-0.5853,-8.0225,-5.1399,49.1335,43.3572,33.6777,182.5241,-23.1853,42.3862,-101.6240,42.2155,19.4620,92.7939,-292.3957,52.2411,81.5465,-160.9143
-3906.2500,99.2651,109.9097,51.1671,76.0630,32.8370,-23.9812,126.3001,46.8292,-36.0827,-107.6681,16.2083,9.3815,-25.7875,-38.8946,-12.8440,-125.3922,171.5402,-290.7457,-86.6854,-83.2546
-3898.4375,-111.9894,-31.8571,7.8345,-30.6960,-46.7146,9.8616,10.0625,4.8924,-5.2389,-2.2545,-26.8128,2.9741,-33.3515,14.0237,18.4544,16.0068,-74.9279,26.8790,88.6972,22.0305
-3890.6250,-12.4172,-2.7809,119.3551,33.3946,65.5976,-27.4479,86.6763,7.8023,-39.5509,-108.9914,48.0110,-31.5844,-68.0746,-10.6311,21.5969,-18.7495,-11.5655,-152.6355,13.9476,-158.8577
-3882.8125,64.5116,38.6608,78.2395,4.8391,-10.7349,-37.7946,83.6517,-30.9464,-5.5119,-147.4152,8.1786,-33.7912,37.5461,-62.1104,56.0860,-131.1814,171.1984,-213.8232,-49.4639,59.6142
-3875.0000,-178.2386,-65.5561,-61.5328,-64.3683,-2.7216,6.5474,-18.0322,50.6485,3.8802,118.5302,-21.3150,11.3639,-102.5094,39.0805,27.9238,96.7603,-248.7271,106.3874,94.4977,-78.5669
-3867.1875,45.4250,88.6541,25.1143,19.8470,10.7137,-10.8816,68.7007,64.6512,-19.3290,-125.1411,28.5907,-49.0777,-90.1762,-24.9212,-30.8331,-36.9058,115.7765,-195.0222,-32.1528,-64.3638
-3859.3750,-77.9260,-34.1294,-73.2348,-68.9358,-49.8524,-5.0452,7.4381,3.6456,103.4712,35.1854,-32.5164,-36.5125,-77.8386,-13.2152,18.4146,11.4159,-112.7038,70.5663,91.2002,58.8615
-3851.5625,-161.4527,-48.0671,-3.7313,-11.8662,56.4442,-16.0143,79.0250,38.4919,101.1183,70.3778,-36.7796,-40.0918,-82.6626,3.3563,53.5077,45.6096,-161.3663,25.0218,44.4109,-164.0850
-3843.7500,-90.6592,20.3146,59.0864,-13.4855,47.0457,-5.4764,106.9265,29.6397,92.0737,-85.1572,-46.7372,-49.3737,16.8181,-43.7714,7.8957,-110.9249,119.3182,-45.2612,-27.0998,11.2773
-3835.9375,-302.5894,-121.0170,-84.7997,-48.8075,50.9455,41.7047,1.1205,71.0823,22.3349,213.6203,-80.4072,-81.3491,-90.4062,31.5024,-23.4128,113.8523,-267.7235,308.7878,114.7097,-94.0542
-3828.1250,46.0338,17.2153,97.8823,18.4335,87.4116,4.4812,73.8747,108.0759,-50.8535,-80.0650,-7.5256,-118.7733,-55.0939,-47.3068,-24.1732,-70.8252,116.8001,-43.6400,-97.9432,-130.8586
-3820.3125,-43.6494,-37.8406,30.2703,-36.6182,19.5742,2.4844,6.3270,-32.2380,-8.3379,-72.0637,-74.9544,-74.4930,59.9207,-40.0360,56.7637,-64.8113,60.0557,113.6206,22.0999,60.0601
-3812.5000,-233.3123,-16.8468,62.7038,-15.6171,90.7917,-19.2917,40.8241,-35.5050,-10.7831,-2.0020,-6.3386,-42.1536,-18.0221,6.1628,54.7407,42.2799,-92.6748,102.9589,46.2064,-162.9899
-3804.6875,2.2457,113.3719,80.3621,44.5968,72.2243,-21.4616,96.5335,-16.5768,-29.0333,-165.7787,11.4817,-23.6105,73.2461,-58.9718,36.9095,-159.4530,248.8467,-150.5549,-104.5159,3.1586
-3796.8750,-120.4624,-46.6645,-49.2365,-10.4376,16.3977,9.6479,3.9848,-34.9085,26.4684,73.2053,-7.9516,-5.3107,-20.7438,15.2876,18.8307,41.5819,-156.9077,183.6984,53.5232,-14.9298
-3789.0625,88.9668,57.4551,100.3287,23.6868,93.7365,-38.7823,44.5908,-30.0834,-42.8843,-143.6602,68.7665,-37.8569,18.4022,-38.7826,-14.0946,-65.2253,158.4832,-96.9229,-87.2955,-120.8890
-3781.2500,67.4382,1.6396,68.9457,2.8643,26.1209,-9.1169,-21.7450,-96.2137,-72.1802,-98.4915,37.5284,-31.3531,60.6161,-28.5309,-42.9707,-58.9975,172.9623,60.4781,-71.0704,70.2274
-3773.4375,-141.8219,38.1154,42.8609,110.3431,37.8088,60.9812,-120.7881,24.9507,-135.1768,133.9924,11.5881,53.4583,-75.8666,76.3134,-141.5518,99.5505,-106.3002,205.2084,-104.5276,-138.3695
-3765.6250,79.1451,223.8115,120.9969,190.0379,-31.2927,49.8648,-79.6161,67.3089,-129.9709,-82.3638,52.8528,58.4729,-36.1455,-1.5095,-135.9385,-117.7203,254.6766,-135.9110,-269.8085,-22.7729
-3757.8125,-19.4076,55.0070,-21.3693,56.2312,-97.8992,32.8195,-108.9484,-0.8471,-51.2585,108.7782,57.6113,100.9944,-68.9312,58.4049,-56.8273,72.5256,-124.8543,84.4830,-86.5791,20.3404
-3750.0000,174.4220,107.6151,74.6702,108.8362,34.9015,-20.4896,-11.8808,-12.6015,-63.1546,-87.6736,154.7720,50.9234,-45.3303,3.9257,-68.3218,-14.8071,33.0014,-177.7376,-173.9558,-102.1719
-3742.1875,119.1042,122.0916,80.5693,88.3011,-31.4489,-3.2343,-41.9598,-79.5085,-56.1979,-117.3006,122.7810,56.7059,69.1392,-26.1137,-60.9725,-118.3068,154.7513,-89.1517,-156.4983,125.1863
-3734.3750,-46.4460,96.3589,62.2620,97.5670,-50.0007,39.6236,-134.2477,-23.6265,-111.4387,85.8852,67.5880,113.2952,-96.5837,77.6607,-152.8222,84.0191,-152.7378,133.2588,-41.2251,-75.6587
-3726.5625,251.0307,253.6464,185.9798,184.8450,-35.5380,10.8117,-82.5246,-8.7474,-132.6880,-154.9546,155.4054,90.8840,-120.3013,-5.7168,-136.6784,-122.6710,285.8079,-235.3810,-234.9772,-23.5183
-3718.7500,38.1554,75.5865,32.3448,76.7746,-77.4312,33.0658,-161.1613,-50.2224,-64.2895,58.8518,74.8749,122.1292,-126.3637,50.3554,-67.8963,18.2955,3.0019,45.6302,-59.0751,81.2913
-3710.9375,-16.8991,126.3775,92.5650,127.5617,19.5397,32.6835,-62.9533,10.1532,-77.0461,-62.4873,99.1973,110.2271,-140.5729,56.1234,-80.2716,6.1391,18.0164,-42.5131,-79.3235,-114.0721
-3703.1250,116.5012,153.6387,74.2553,119.8032,-33.0338,28.2804,-42.2823,-79.0296,-56.3512,-225.4118,43.9759,92.7772,-48.3054,4.7234,-59.2015,-120.5871,256.5338,-83.2629,-50.1445,90.0293
-3695.3125,-32.5757,39.4418,-1.5095,75.5930,0.9382,36.6639,-82.0737,-81.6730,-59.1067,-6.7737,5.3052,90.8886,-125.4813,53.4382,-61.5844,23.2618,-138.4301,226.5589,81.5961,-58.3182
-3687.5000,164.2650,201.1631,167.6492,167.2999,96.8270,-3.0961,51.0434,-95.4216,-109.9648,-240.2643,27.5408,113.8978,-66.7519,-4.5503,-75.0765,-174.9890,234.5268,-137.7646,-107.7848,-71.7866
-3679.6875,-22.8022,84.9880,38.9105,86.1094,5.8074,27.2351,-2.7446,-111.0811,-52.7234,-72.6623,-27.1302,97.0104,-48.8983,21.6804,-18.4798,-81.1331,47.6011,99.9991,58.9348,58.8650
-3671.8750,-77.9531,64.7628,65.1346,100.8716,106.7512,12.1831,-12.5891,-48.7914,-63.5378,-10.0998,35.1486,50.0830,-133.0822,38.4821,-27.9460,18.6941,-77.4055,81.7148,39.6127,-171.5615
-3664.0625,86.8187,123.4641,117.2826,54.5519,48.6080,-10.9126,40.4743,-32.6112,-10.4511,-176.6860,13.3345,-7.9431,-45.3378,-33.6055,-11.5145,-112.6004,157.5392,-138.7348,-6.8381,28.9139
-3656.2500,-46.9306,-80.3445,-20.0759,-44.2713,22.9625,-5.7914,-21.9693,-57.9439,74.1334,91.2373,-86.9794,40.5366,-146.0824,42.0019,37.4113,81.6387,-256.0459,152.3243,178.2274,-33.1045
-3648.4375,173.8726,69.4103,65.1308,70.4680,34.8790,-20.7696,64.1401,-7.7255,13.2684,-79.3007,-0.7324,15.5705,-134.2665,-13.0390,12.8760,-52.5585,68.9235,-154.1131,-23.1805,-93.5955
-3640.6250,43.2259,44.7259,-5.1096,45.7634,-34.6628,22.0087,-6.2022,-40.9646,15.9645,-2.3047,-34.9368,18.1581,-58.8742,-3.8590,-20.1098,-50.2080,9.4668,68.9680,22.9424,93.4867
-3632.8125,-71.1055,70.3860,64.9954,107.4098,36.1531,28.0770,-81.1957,-42.8607,-57.9890,33.0449,35.2082,54.1034,-98.1151,38.4718,-57.7455,21.5223,-140.6804,132.4103,14.4243,-91.1002
-3625.0000,136.4268,207.9202,200.9723,173.9181,24.8299,18.0705,-54.3219,-89.9147,-105.0929,-233.7918,97.2139,79.9019,-0.4774,-16.0662,-104.5357,-172.9106,279.0630,-150.3613,-128.2686,82.1583
-3617.1875,30.1825,67.6992,54.1937,103.6704,-82.2522,43.1991,-163.2080,-87.7268,-66.9435,98.6277,24.4649,118.9571,-109.5676,64.8693,-102.0808,48.9364,-142.9728,167.1234,48.2974,47.6775
-3609.3750,251.9307,183.4886,70.4236,149.4355,-29.3214,9.9243,-73.0941,2.4631,-86.7921,-30.9636,77.7292,99.0139,-130.6437,17.3943,-122.6361,-44.1952,77.9843,-137.4335,-81.1529,-81.8290
-3601.5625,174.7888,140.3943,52.7582,71.3083,-84.2968,4.7297,-90.8761,-89.2563,42.4654,-85.4812,23.1000,80.1763,-38.5810,-11.6427,-103.1017,-99.2319,177.0737,-71.9420,-17.5290,157.7853
-3593.7500,-81.6764,60.9863,49.7911,96.8776,-12.5732,22.5120,-92.9720,-91.2758,77.4190,23.7227,20.1750,116.0456,-115.7962,50.1221,-67.8761,9.4711,-79.1827,95.2526,78.8022,-26.9130
-3585.9375,87.1734,193.8988,184.1427,159.7589,11.4578,15.1502,5.2420,-64.9945,28.6772,-207.8014,43.5593,104.2188,-91.6834,-10.2690,-78.3548,-186.5236,335.8934,-226.3309,-67.5994,71.6805
-3578.1250,-67.9022,73.9100,20.5886,74.7379,-76.4240,35.1727,-82.4504,-80.6289,87.0471,69.7648,-44.9552,125.4991,-107.4422,44.3048,-56.7308,-19.3930,-28.9420,112.1735,58.1073,93.3923
-3570.3125,144.9077,146.8232,102.9502,112.6214,6.6101,-13.0014,-36.2394,-34.3653,97.3114,-66.7728,36.4413,61.6842,-99.2734,-0.7725,-47.2216,-45.3423,42.1029,-96.4496,-79.2966,-80.0224
-3562.5000,140.3363,106.3524,51.9248,72.1126,-80.7538,-2.0939,-12.4239,-84.5102,120.1752,-116.7403,-13.5495,84.4639,-4.4548,-22.5864,12.8779,-132.7010,178.7870,-63.5275,-83.1270,127.1764
-3554.6875,-153.1130,25.0231,-25.9582,60.7552,-10.9712,28.2578,-53.4747,-51.5150,80.1911,100.4497,-55.3863,81.4059,-81.4639,51.6579,-26.8760,47.1346,-114.4241,172.5534,81.2008,-59.4823
-3546.8750,94.5024,131.7666,120.2264,97.4621,62.8716,-5.4991,57.5335,-14.4814,44.2575,-155.3513,-19.1587,8.4050,-45.3894,-44.7176,-63.5849,-172.9754,309.4417,-176.3832,-57.4486,-22.1078
-3539.0625,-12.3455,-43.9382,3.9626,-43.2803,19.2588,9.4683,-21.9152,-55.9139,74.8816,21.3833,-61.3783,38.9607,-88.7190,9.4177,4.2467,-32.5235,-8.1405,140.2110,118.4516,82.8380
-3531.2500,34.0362,1.6051,-12.0396,37.2279,77.9118,5.4902,35.8853,0.8975,22.7465,6.3672,-5.3388,23.7673,-141.7686,13.0084,-10.6865,-10.7870,3.4921,47.0398,24.6018,-115.9890
-3523.4375,66.4451,69.1677,-24.0284,34.7434,28.5669,6.4723,60.6864,-46.2995,47.6116,-114.6830,-53.2844,48.5725,-7.7738,-20.8556,-21.6333,-132.0571,247.1740,-59.1964,-12.2824,93.1934
-3515.6250,-234.9218,-21.0314,-114.7746,14.5069,13.4689,35.7069,8.7175,-26.2561,68.7256,126.5320,-107.9735,33.6369,-23.5000,47.7889,-0.3331,71.9663,-194.9355,237.8244,144.0880,-32.3772
-3507.8125,-140.5869,108.4849,-15.7984,73.9849,76.0899,20.4583,108.4544,37.4884,58.5332,-67.5778,-44.9451,-13.5949,1.5102,-17.2675,26.6512,-85.3062,146.6666,-53.5169,-6.8691,-42.2718
-3500.0000,-272.0547,-21.7921,-159.6185,-21.3352,5.9073,36.8586,74.3861,3.4228,98.5469,119.4882,-78.7178,-46.6221,3.7741,-19.3257,65.8241,-45.3700,-55.5170,203.3147,178.3636,108.0528
-3492.1875,-210.9465,-66.4726,-123.8396,-31.0524,117.3358,20.1495,112.9156,77.9466,63.1582,194.1524,-78.8883,-46.0454,-105.3270,-4.5534,67.5925,-7.7981,-135.1413,195.7387,135.2055,-111.0506
-3484.3750,16.8798,91.5703,31.6576,20.9416,89.4754,3.2008,122.1584,13.1596,-1.5252,-52.5242,-33.3484,-0.7689,13.3114,-49.7279,3.0527,-181.5289,233.9798,-67.2112,-23.2795,82.5409
-3476.5625,-219.7663,-5.8469,-31.3043,-5.5181,63.1566,33.2764,-15.0626,-49.0843,9.3428,104.3624,-96.2597,84.0649,-13.4597,61.4297,14.0504,49.3302,-143.3816,188.3886,126.7957,56.6809
-3468.7500,-73.7636,71.3930,123.3976,71.6818,144.5024,1.7069,104.3639,-41.6698,-19.1457,-144.1068,-53.5028,18.5483,31.4643,-2.8226,22.6855,-90.1433,178.8985,-155.4190,-7.4998,28.4420
-3460.9375,-134.8078,-59.4062,49.0538,-59.1658,71.7877,3.0025,67.7399,-77.3139,55.3268,-70.6532,-163.7868,-18.0170,103.3944,-8.8287,97.2720,-52.6626,119.1505,-39.3307,109.1341,249.1727
-3453.1250,-280.5237,-135.8660,52.0632,-99.6675,148.4228,-11.8761,108.4564,-37.6177,96.1477,80.1571,-196.7046,-14.2204,-2.2930,33.2598,101.2007,62.2139,-97.2883,61.0986,138.1169,33.2329
-3445.3125,-51.8606,-46.9509,138.4465,-46.8028,162.4208,-27.8944,158.5264,-22.5798,109.3143,-125.7251,-146.2506,-73.0758,84.4122,-59.2333,77.4618,-144.5582,271.6658,-201.2035,-18.5905,157.6396
-3437.5000,-250.5070,-139.3426,42.5239,-104.2421,103.1094,-5.1744,26.2779,-44.8528,124.1859,145.0902,-206.0925,-21.2247,24.8696,8.4779,92.4101,16.3995,-101.7020,128.1848,99.4045,135.7596
-3429.6875,-115.7516,-6.3267,150.0083,-6.2711,175.2055,-21.7176,134.4274,-10.7313,49.4559,-76.7071,-98.5210,-23.9692,23.7778,-24.8673,91.7469,-95.2149,102.3149,-123.0778,-47.2207,24.2514
-3421.8750,-177.4399,-30.7451,114.0486,-65.7465,65.8463,-2.5689,62.1279,-46.0704,50.2810,-75.9838,-98.3868,-23.1606,133.2983,-38.3590,92.6290,-130.2717,146.9156,-41.8524,33.6769,245.3065
-3414.0625,-327.3037,-145.3265,39.9355,-75.3748,66.3341,26.1842,-11.3337,27.4326,13.9560,181.5977,-98.3869,-22.4964,24.7072,43.1466,19.3512,90.5748,-177.6842,160.2140,130.4319,26.1926
-3406.2500,93.9532,-5.7897,145.9440,-5.8933,24.9321,2.2152,21.3095,60.0371,-62.2715,-41.7497,-65.2655,-61.7287,57.2645,-41.1773,-20.8387,-95.4780,242.8444,-190.6978,-44.7524,96.1650
-3398.4375,-57.1568,-120.6082,-12.4017,-120.7718,-21.8317,5.1480,-62.4141,12.2871,35.1502,203.5565,-114.4864,-73.3063,8.5261,-24.7741,4.6108,2.1487,-82.9900,186.0239,190.7137,121.8021
-3390.6250,-100.3213,-57.4771,60.2053,-22.6906,88.3614,4.9973,47.8060,49.4899,73.5121,56.8084,-77.7459,-109.9337,-27.2156,-47.7126,41.9949,-69.2373,-19.9016,108.6579,114.1201,-60.6431
-3382.8125,-70.7559,-28.6315,8.5213,-63.9032,0.2560,3.2919,68.7302,-1.6174,131.5865,-31.2806,-130.2954,-87.8662,30.8120,-75.8373,100.0742,-157.9264,149.9230,67.9173,143.1987,144.6203
-3375.0000,-229.8161,-187.4013,-78.7687,-117.7248,24.5488,15.1044,21.0476,95.6618,120.0660,324.0407,-142.4379,-100.3958,-90.7170,1.9700,88.5531,87.8288,-254.8979,191.5757,265.6865,-13.7264
-3367.1875,58.0324,-75.2562,-0.1362,-75.6398,29.7564,-14.8305,136.2747,137.8407,89.4444,72.2349,-64.6562,-130.0249,-85.3011,-60.3007,94.9216,-53.5089,138.1992,-187.9402,62.0435,28.8062
-3359.3750,-85.4182,-182.4121,-80.8032,-182.8605,-50.3430,-1.7331,55.1937,56.7051,118.5229,175.1111,-145.1644,-100.9486,17.8771,-31.9445,86.9808,12.8772,-110.0051,161.2129,200.0909,132.0544
-3351.5625,-108.6761,-100.3738,14.7312,-100.8766,82.7630,-7.5700,79.3017,80.7637,31.7906,88.1859,-85.4571,-77.6656,5.3113,-18.0570,37.2201,0.5040,-63.0528,103.5455,107.3352,-101.5274
-3343.7500,26.0291,-35.3678,112.2206,-69.9335,32.8163,-14.7510,103.3636,30.7667,-17.9873,-70.8295,-97.7882,-89.4339,66.7637,-73.5309,61.4012,-157.9176,283.8853,-77.2434,31.5021,69.8454
-3335.9375,-107.4502,-168.5269,15.5466,-99.1526,46.7102,-7.6942,7.2616,44.6151,33.0867,236.0163,-122.2605,-76.3489,-65.8878,2.7596,75.4327,76.5564,-166.3643,141.8139,145.5293,-62.9340
-3328.1250,158.2440,-43.5307,109.0470,-44.2135,67.7631,-35.4347,101.3139,102.6083,-18.6847,-0.0122,8.4411,-92.1191,-8.3475,-63.2428,59.6024,-85.8057,169.5520,-190.0510,-46.3219,-78.5897
-3320.3125,-22.1012,-117.5818,-13.4979,-118.3299,-17.2411,-5.4833,15.3125,53.5384,42.5021,134.8925,-39.8951,-65.9412,17.2037,-21.5249,47.7218,12.7955,-10.5713,50.9853,54.7612,93.7206
-3312.5000,-123.7691,-43.9415,35.6558,-44.7483,32.4610,0.9091,29.0051,104.1647,19.3796,148.5018,9.4788,-17.0634,-42.4861,32.2489,-12.4728,101.1469,-183.0443,19.7060,-11.4570,-113.2979
-3304.6875,24.8484,69.9645,71.0710,34.0907,-40.5834,-1.8974,27.9548,29.0348,-17.4935,-35.6798,45.1181,-16.9347,31.1462,-21.7683,-12.4302,-46.2549,142.7670,-181.4069,-177.4574,106.9289
-3296.8750,-108.6481,-98.2380,-103.6279,-29.1757,-105.7421,43.8230,-109.2140,74.7926,-9.4657,266.0424,-20.3293,28.1083,-33.2667,71.4684,-40.4986,183.2807,-307.5523,141.3686,-64.5548,79.0567
-3289.0625,137.1624,42.8718,-65.0138,76.8694,-66.5921,28.6978,3.9141,114.8501,-42.1484,-24.9508,57.5566,-4.5460,-28.3405,12.1476,-0.2781,41.1422,-26.5777,-139.6128,-240.3800,9.4544
-3281.2500,59.4836,34.4860,-155.8975,33.4145,-193.9516,23.7911,-50.4635,-12.5995,14.6707,-5.4738,39.9574,15.2957,28.1490,11.0167,56.4404,60.5148,-34.0800,-42.1481,-143.7262,212.3695
-3273.4375,-76.8645,-30.5683,-104.4393,4.2977,-104.9620,20.0093,-35.4997,39.2955,-7.1570,119.3637,90.7210,-6.5115,-65.9661,54.3567,34.5045,187.2888,-239.2914,33.6608,-32.7142,7.6108
-3265.6250,159.5667,-3.8616,25.7837,-41.0661,-84.2158,-34.3329,58.2248,22.9425,13.7718,-117.0812,148.2549,-95.5798,28.7292,-52.8603,18.3101,-12.1868,137.2808,-257.8636,-111.9844,138.5892
-3257.8125,-39.9699,-168.1194,-109.9559,-169.3914,-109.4288,-19.2173,-76.0096,-1.3661,25.7612,114.5343,48.8433,-83.5980,41.5343,12.1708,30.1647,184.4223,-308.1293,104.6458,74.8011,150.6241
-3250.0000,145.3383,-54.5293,-93.8435,-90.8656,-55.7824,-37.7559,-22.3917,88.1769,6.6027,21.9905,103.3014,-66.7665,-12.7629,-18.9182,10.8606,91.9119,-157.7095,-131.0421,-56.5782,-15.5241
-3242.1875,185.2639,-48.3340,-132.1234,-84.7426,-130.5404,-29.1604,-24.1698,49.3079,77.0520,56.0083,27.3771,5.6621,58.6006,-24.9446,45.1492,17.0023,-82.6614,-162.1883,-50.3761,165.9428
-3234.3750,-31.5790,-124.9047,-130.1631,-91.3753,-91.0507,-35.8412,-57.7148,52.6793,118.7497,207.2863,67.7149,9.3440,-9.7350,38.3212,48.6792,205.3880,-369.4155,-27.0859,-20.9152,-50.3538
-3226.5625,191.3481,-7.7110,62.5663,-9.2513,-81.8001,-56.6793,24.4942,24.8005,54.1933,-151.7082,149.8206,-56.2270,147.7433,-36.7117,-16.0518,31.5318,63.6032,-367.3111,-184.7386,32.0798
-3218.7500,-40.7818,-133.5762,-36.7611,-135.1905,-107.6106,-37.3878,-74.3611,-37.1349,64.5880,5.2455,49.8836,-7.8460,196.2364,46.8244,-4.8343,226.6501,-203.4433,-72.6057,-29.6105,116.4719
-3210.9375,56.5409,0.0048,0.3661,-36.6803,4.0408,-63.3129,-36.7688,-36.6228,29.4218,-104.3601,14.4193,-6.0169,199.2285,21.1199,-40.1762,156.2542,-106.0755,-220.4818,-108.0436,-65.7203
-3203.1250,123.8375,66.5458,-47.5476,-5.2143,-80.3606,-68.0235,-11.2246,-84.1702,92.2032,-152.0591,-33.0712,-17.2392,263.2313,-46.5712,21.4273,-2.1944,66.2795,-259.4738,-180.5575,107.0466
-3195.3125,-58.6862,-44.7293,-158.2704,-46.5538,-79.5721,-50.7431,-83.4968,-46.5302,57.1789,143.4497,-68.3487,20.7458,229.4876,39.7050,-12.7767,221.5975,-361.2095,14.7356,-81.8611,-74.9960
-3187.5000,159.8706,104.0613,-39.9187,31.1648,-34.7249,-70.6331,-38.7170,-1.8456,-44.8060,-107.0191,49.4476,28.7795,348.8536,-17.8700,-78.9468,46.4477,67.3726,-364.0825,-285.1466,-67.0146
-3179.6875,-58.2139,-8.8007,-161.2169,-10.7734,-155.5404,-20.3460,-159.6022,-13.8179,-19.4454,102.8563,38.6124,92.1678,413.6311,40.7771,-125.7805,146.6657,-149.6921,-89.5868,-151.0950,32.3321
-3171.8750,-23.5625,61.0801,-116.7677,59.0384,-74.6057,-19.9014,-151.7515,31.9618,-84.3423,-36.5069,157.5471,100.3044,387.2016,41.0090,-191.8728,119.6758,-151.0490,-127.3587,-223.2996,-179.6014
-3164.0625,109.0181,88.8706,-97.4088,86.7559,-126.7740,-15.0899,-130.9984,-59.3553,-100.3422,-273.0004,140.3984,84.3320,481.7261,-40.1226,-171.0690,-116.4143,157.5285,-135.3015,-299.6339,24.3667
-3156.2500,-177.9686,-56.9071,-207.6155,10.9085,-163.5052,6.2212,-276.8104,-57.2248,-135.8893,94.9669,-5.2972,122.8142,411.7447,72.2275,-133.8207,179.9855,-93.4858,140.2112,-165.5092,-121.2193
-3148.4375,66.5136,116.7713,-96.3567,114.5172,-88.7759,-19.0457,-129.1682,17.3536,-133.9873,-161.6396,143.4796,123.7472,488.2564,147.3414,-132.1354,403.8442,572.9551,-635.8873,-341.9520,-193.3866
-3140.6250,102.2688,47.7023,-104.8499,45.3709,-96.8079,-16.7902,-101.2812,-65.8300,41.1654,-97.0139,245.5268,151.9287,665.0736,353.2544,5.8004,1020.9549,643.6628,-917.7784,-166.1512,18.7093
-3132.8125,64.2679,9.8677,-27.0968,7.4662,55.4129,-52.9286,-23.1511,-23.7691,83.5556,-19.1304,323.8427,84.3572,709.1822,452.3057,-26.0186,1395.3583,499.5710,-1132.4275,-99.0946,-159.9720
-3125.0000,227.7422,32.4944,28.1182,-39.9847,0.0865,-126.2853,-78.5623,-116.2558,28.3947,-294.8274,342.6276,29.2248,839.7971,340.2289,-81.3958,1194.2035,733.9661,-1391.6995,-216.6179,-31.2071
-3117.1875,-20.1036,-144.1940,-115.9749,-182.7472,-69.5536,-144.5371,-185.2924,-149.0447,31.9356,-70.8090,273.1188,69.7960,772.1546,365.0793,-77.0784,1272.7814,205.0238,-1007.2701,-77.4308,-137.7392
-3109.3750,149.8637,-80.0834,-79.2598,-117.7070,-32.3867,-202.1637,-111.2213,-149.0265,32.2758,-254.9928,346.4329,-3.8396,700.3471,239.5177,-113.9686,1017.1779,303.8693,-1155.0909,-259.4628,-284.5056
-3101.5625,158.3583,-177.4709,-226.0431,-180.1724,-142.7316,-197.4557,-184.6516,-185.5117,33.1159,-253.6971,274.2628,-38.9774,703.0898,144.5696,-150.3657,798.0771,30.2394,-865.4624,-286.0112,-99.7592
-3093.7500,-32.9053,-192.6203,-270.5836,-124.3922,-112.8316,-137.3288,-227.8460,-81.7551,-46.7989,-115.1415,230.3537,-9.8569,625.1149,162.4808,-194.5202,755.2587,-407.1890,-494.5765,-266.2980,-290.7856
-3085.9375,-10.3793,-28.9984,-215.3551,-67.8482,-130.1800,-147.1903,-172.2821,-63.2578,-174.9697,-316.8850,176.2199,-26.9828,682.9360,56.2680,-211.9254,444.1744,-244.8269,-649.0148,-419.8683,-198.0744
-3078.1250,-250.6607,-128.1843,-318.9308,-131.1119,-160.3425,-117.1620,-202.5294,-93.5775,-130.9353,-90.4314,146.2956,17.0946,654.9974,90.2212,-168.1312,489.3157,-659.2863,-222.2590,-202.2376,-191.1524
-3070.3125,-1.9492,-56.3774,-164.5009,-59.3791,-78.4975,-162.9081,-120.7737,-84.8925,-159.9087,-229.9701,228.3949,-84.8338,629.0890,-21.8607,-160.3467,278.4770,-481.7707,-362.5263,-271.6125,-330.2635
-3062.5000,101.1357,-129.2198,-178.7121,-96.2990,-129.3039,-128.2114,-97.6661,-98.8577,-99.5334,-206.1790,177.8585,-98.4234,654.5775,-83.0144,-100.2151,81.9790,-343.8695,-189.4910,-168.6569,-86.0164
-3054.6875,-114.0334,-168.3316,-175.1845,-100.4809,-51.3659,-71.7617,-130.8224,14.9231,-95.4216,17.3807,182.0862,-94.2668,513.8455,-31.2804,-96.3326,161.2672,-665.2693,157.3056,-31.9386,-266.0384
-3046.8750,110.4757,22.2192,-16.9879,-16.0073,-3.7691,-69.3515,-46.3204,26.3602,-120.6671,-266.4384,266.9801,-46.4654,489.8024,-96.9804,-158.8119,-120.7991,-299.9899,-41.3109,-193.5994,-181.4310
-3039.0625,-37.9709,-56.1867,-140.7482,-94.4901,-90.1393,-22.8480,-169.7818,12.8399,-96.8606,14.7923,180.9301,51.3900,332.8519,-26.0913,-135.2477,-21.8076,-588.6649,337.1187,-61.2027,-83.7613
-3031.2500,41.1957,-11.9990,-49.9047,19.6283,37.0916,-5.5517,-115.6463,103.9148,-116.4612,-4.3779,162.4999,31.8443,168.5143,-18.2045,-155.0871,-40.1986,-474.7699,169.1385,-123.2013,-250.5273
-3023.4375,191.0571,31.8527,20.5963,28.4035,-39.0304,14.2640,-81.8559,64.6311,-191.4073,-117.9378,122.7356,29.9473,204.8610,-70.9568,-84.2762,-224.9620,-185.1822,105.7491,-79.5693,4.3598
-3015.6250,-3.5496,-21.7615,6.6398,9.7169,21.3873,46.1806,-94.5258,50.8892,-241.8064,52.0714,110.5296,90.5995,83.7793,12.0585,-59.9181,-90.1402,-485.0907,403.9255,113.6308,-119.2112
-3007.8125,216.8606,128.6251,124.7058,125.0277,102.8169,-2.2155,59.8087,-14.8426,-161.2097,-233.9322,191.3459,-11.7623,93.7280,-124.4753,-15.5677,-374.3235,-18.9805,95.0464,-18.1895,-74.8070
-3000.0000,150.9731,-8.2951,11.4694,23.0323,26.9332,24.0116,20.8340,-53.8775,-124.9153,-17.2424,116.8747,-50.4245,-16.5886,-99.0811,55.4808,-264.8033,-225.1548,414.8571,161.6808,70.3134
-2992.1875,214.4782,55.1798,122.6307,86.4433,138.4440,20.3290,58.2463,19.4923,-235.2348,-17.1393,153.8198,-49.6831,-123.4913,-86.4059,-18.0839,-262.8607,-233.9635,300.0718,83.9515,-113.1965
-2984.3750,252.9194,198.5746,152.7103,124.7638,57.8503,32.9349,51.5584,-23.2394,-203.6557,-170.1681,148.6781,53.9552,-89.4691,-101.5172,12.2433,-415.0385,86.1779,161.1271,-52.9082,101.1957
-2976.5625,32.1967,83.8042,110.6335,114.9234,17.0887,69.4543,-26.3006,-65.1244,-208.2296,45.6740,107.3936,123.4466,-238.5793,7.1487,45.4146,-197.3423,-274.8633,467.0500,148.0947,-13.5617
-2968.7500,251.4392,162.9906,267.5206,124.0402,100.2794,-1.5534,130.7930,-55.0498,-125.8675,-238.5388,155.0787,23.8840,-225.7267,-118.5264,54.5349,-443.6954,155.0457,86.8857,15.0305,-40.3988
-2960.9375,174.0036,14.4757,104.7033,10.4564,11.7579,17.0420,78.1868,-143.6801,-66.2069,-144.4627,103.0686,8.6262,-201.5464,-82.5394,75.9516,-310.7594,41.2768,359.9953,183.2597,128.0783
-2953.1250,183.4631,93.8472,89.7828,89.7673,70.1367,32.7289,63.4703,-49.4102,-118.6583,-13.4694,51.9677,67.2667,-287.4586,-0.5195,-12.7342,-140.8992,-196.6335,368.0200,121.4004,-144.5719
-2945.3125,282.7517,193.0319,110.6821,118.8809,17.3155,38.8274,121.5623,8.6634,-96.3109,-138.7018,-0.3131,14.6969,-226.5539,-58.4889,45.3772,-264.2627,149.2970,78.7908,-25.6839,60.5732
-2937.5000,-95.8697,-79.6943,9.6676,-13.9159,27.5803,57.5223,57.7415,18.8307,-13.8671,127.1768,10.5196,-48.7660,-214.5364,-11.2696,128.5913,-69.5143,-263.6961,402.6808,264.3461,33.8233
-2929.6875,125.7302,35.7890,172.8628,31.4977,155.0542,-29.3799,184.1231,-1.8044,-33.2307,-113.7527,174.5695,-68.0300,-159.3120,-104.6592,108.9967,-271.5706,62.5076,23.7487,63.5706,-96.7645
-2921.8750,167.7684,42.6802,96.4676,3.3162,40.9217,-3.7604,107.9072,-77.0500,-35.1944,-116.3058,99.0243,3.1088,-121.6709,-95.1168,105.8009,-310.2522,104.1479,170.1900,69.1804,121.0601
-2914.0625,43.4464,-10.7934,85.7212,19.7780,104.4372,23.6133,60.3290,-14.6516,-83.5153,55.8070,15.1381,-7.1030,-202.3799,-37.8105,58.2587,-172.2630,-126.6038,326.3069,156.4548,-73.4831
-2906.2500,91.8569,72.4464,166.6954,32.9467,148.6570,6.8353,141.4602,-7.5489,34.8548,-119.3968,-86.0294,-36.6247,-155.3809,-114.2555,66.4109,-383.5979,308.3834,91.0788,28.4057,44.6621
-2898.4375,-202.5910,-82.1763,5.8158,-51.7464,99.0141,71.3625,17.7300,15.7066,131.3722,159.5669,-209.0377,-13.0001,-239.2311,-7.9030,-21.2900,-137.7825,-92.4924,534.0195,225.5203,30.9716
-2890.6250,-3.6378,81.5979,111.3445,111.9621,167.7785,65.4647,50.4007,85.3656,91.2795,7.9372,-213.6328,-16.9827,-241.6896,-43.2013,-98.5934,-251.5630,71.0176,273.3568,72.0363,-157.3466
-2882.8125,41.8449,56.8796,38.3787,52.1714,58.0317,54.7831,50.5733,48.5212,128.6893,-29.2197,-247.7182,-52.4641,-127.6383,-93.9656,11.6056,-322.8706,222.0724,212.1609,117.0420,63.8512
-2875.0000,-173.0850,-87.2550,43.0026,-22.0236,136.8693,33.4634,92.3321,53.2810,133.6896,196.2544,-279.1983,-47.3404,-230.0023,-42.7398,163.4030,-170.5601,-133.3185,383.6017,219.6697,-115.3621
-2867.1875,10.9190,25.5224,155.5424,20.6944,138.6097,16.5852,241.9993,128.9518,172.5791,14.6161,-312.7629,-118.3244,-188.4773,-135.6082,166.0941,-386.3797,295.2217,36.9088,-19.8189,-2.6954
-2859.3750,-256.6258,-66.2561,-19.4682,-35.1460,36.7867,98.9034,66.1087,138.0676,144.9187,317.4343,-413.8790,-34.8593,-250.5081,-12.3948,64.2358,-154.7583,98.2182,365.6819,134.1568,116.4357
-2851.5625,-132.2814,22.8591,82.4302,17.9156,65.8669,74.5708,95.1116,203.0912,100.1440,235.1684,-384.0880,-43.4975,-292.6571,-6.9433,19.2717,-126.2258,363.0946,67.3680,47.0393,-75.5640
-2843.7500,-21.7095,28.1846,38.5416,-47.8189,-13.8534,42.3165,124.3238,122.3152,203.5666,117.0722,-354.0784,-86.9431,-223.6029,-91.8918,85.5097,-277.5297,578.2200,0.2216,51.1043,174.6444
-2835.9375,-273.1930,-119.5553,-109.4023,-88.6100,-16.6310,66.6510,86.4729,121.4826,238.9335,299.9431,-318.1154,-87.4374,-332.6158,-40.2946,157.6970,-130.8813,79.2596,343.0720,256.1472,62.8006
-2828.1250,-33.1053,15.2664,-7.7761,10.1580,50.1557,40.4646,226.1802,114.2032,231.8467,-2.6439,-250.5935,-94.3862,-300.0959,-116.7403,151.4318,-356.7065,389.8701,19.4472,109.7284,92.4832
-2820.3125,-244.8159,-90.7157,-124.9518,-60.8804,-66.8733,83.4165,144.0857,33.1283,260.9690,135.9785,-331.8736,-29.1424,-305.3859,-39.6260,142.3770,-216.3514,141.6940,333.0307,318.5159,231.3825
-2812.5000,-179.9332,-63.1133,-47.5317,2.6782,-26.3007,78.1260,149.5908,147.6633,192.6866,288.2354,-289.5471,-98.3046,-444.1058,-22.4439,73.9268,-100.3920,-4.9214,255.2420,276.9170,-21.1425
-2804.6875,67.5372,-24.9469,-52.5482,-30.2091,-68.1782,56.2972,106.6596,178.7569,259.9477,209.0250,-294.6543,-138.9244,-374.2900,-117.1915,68.0257,-287.9236,314.0670,79.9685,173.8482,156.8876
-2796.8750,-186.5103,-139.2921,-95.0662,-73.6030,-1.5673,78.3554,27.2153,136.3477,254.7025,313.3369,-299.2648,-71.0362,-340.0014,-39.3702,99.6239,-145.9542,-152.4683,422.2393,305.3046,77.4234
-2789.0625,2.3955,14.3232,103.3927,8.9688,125.0028,-1.3520,152.7246,40.8908,233.3983,-3.4127,-172.9165,-92.1964,-248.7910,-117.6699,151.1727,-313.0604,176.9637,47.4500,37.7028,55.8853
-2781.2500,-154.7781,-72.1560,2.7521,-77.5600,24.4593,33.8910,126.1343,-22.6672,205.9971,80.7308,-235.6630,-82.4584,-162.6948,-66.2886,160.6229,-191.2931,54.3231,274.5609,194.9989,249.2664
-2773.4375,-194.8929,-112.5947,6.1517,-49.0395,101.9613,43.0373,93.5842,54.8292,136.6389,193.9541,-194.3533,-114.6747,-229.5861,-19.9038,92.1181,-39.4701,-162.3071,302.7638,225.3614,32.6761
-2765.6250,0.3772,-23.6706,55.9217,-29.1622,41.8199,1.0532,142.4008,31.6792,260.6269,-13.4899,-180.6888,-138.5501,-104.1522,-129.7006,140.9653,-282.3438,208.4661,5.2890,103.0571,192.4328
-2757.8125,-171.5814,-160.9596,-82.5036,-96.4929,11.4688,6.6998,77.0103,-34.6717,305.4140,140.8831,-172.2283,-56.6236,-93.9456,-58.5212,185.6218,-126.4268,-209.9738,357.6654,282.5732,90.0018
-2750.0000,66.5064,41.8064,28.1465,0.2369,87.1789,-52.7504,151.6680,3.0355,196.2286,-42.6867,-59.7017,-55.6478,-16.7244,-87.5426,114.3197,-161.4724,-8.3620,-2.9043,-7.8663,-129.4043
-2742.1875,69.4850,8.4279,-52.3370,2.8162,-30.2708,-4.2885,34.1721,32.5954,152.8839,23.5835,-65.3187,-25.8245,52.3196,-51.3325,69.8650,-92.7063,-74.8570,-2.6338,-5.4612,84.0596
-2734.3750,-86.9320,-77.3669,-63.2256,-12.0119,-4.1246,-6.5453,-12.7331,58.7562,68.1359,197.4848,34.6645,-36.4017,43.9133,-11.1244,23.0172,44.6613,-407.7899,87.2874,49.5726,-36.8891
-2726.5625,147.0219,50.2074,27.2601,44.5196,-23.6188,-47.7314,40.7313,2.2697,48.7403,-116.2851,88.9952,-18.6392,283.8261,-98.6557,-33.4714,-193.6649,35.6729,-278.4619,-104.0535,90.5054
-2718.7500,40.4587,-54.7256,-82.7588,-60.4473,-97.6244,-48.6597,-106.3055,-107.7237,10.8494,28.4609,125.8172,53.6266,249.2085,-1.5383,-34.4523,62.4897,-316.3668,35.3317,34.8361,89.4187
-2710.9375,211.4454,7.8906,-7.2235,2.1404,14.9251,-105.5347,-30.7883,-105.1574,14.4989,-189.2219,240.1966,-16.5571,181.0867,-60.5852,42.1139,-5.8167,-182.8675,-183.3039,-111.7168,-128.1442
-2703.1250,136.4202,3.4685,-130.7230,-37.3160,-71.5822,-75.3864,-8.3139,-118.6357,37.0958,-238.9646,189.5284,-29.7986,278.8779,-89.4286,64.6344,-92.2242,-80.3718,-83.9926,-80.3255,78.2589
-2695.3125,-144.5718,-101.9209,-196.1744,-72.7304,-63.0448,-42.6113,-71.7958,-37.0607,-27.2617,26.3733,199.9063,16.0115,290.6745,-0.0063,0.2073,101.4148,-467.8604,161.4302,59.1478,-133.2932
-2687.5000,114.4009,50.6584,-111.6441,9.8218,-15.5438,-76.6115,-24.3193,10.4668,-52.6785,-184.3554,322.2446,26.7685,414.3781,-90.4645,-99.2720,-144.0400,-69.3569,-250.2062,-175.4385,-85.9091
-2679.6875,-66.0315,-24.1593,-193.5152,-65.0249,-98.4553,-29.4011,-180.2486,-35.4060,-134.4996,-46.4800,313.1783,128.1274,480.6420,-16.3150,-108.1447,-41.9228,-319.2338,95.7925,-3.4132,15.0976
-2671.8750,11.4800,52.9683,-68.4286,47.0827,-9.4081,-47.0875,-128.2244,-19.3235,-230.3810,-67.6255,404.0587,107.4360,424.7972,-26.7438,-129.0628,-61.8628,-244.1824,-39.2268,-103.4265,-189.9677
-2664.0625,150.0308,86.1108,-43.3230,45.1996,-94.3643,-49.5699,-103.1893,-68.2362,-204.2617,-188.7885,392.9385,96.7399,525.9111,-88.2835,-67.9769,-218.8578,35.9265,-113.2534,-139.4459,18.9797
-2656.2500,59.5184,-5.8083,-94.2676,24.2642,-109.3776,-20.7558,-192.2123,-46.2017,-256.1991,53.0274,415.7634,118.9968,365.9207,-6.1745,-81.9406,-12.9158,-337.0427,181.7410,14.5155,-143.1216
-2648.4375,339.8660,169.1348,88.6633,93.1928,-73.5300,-52.3679,-119.3798,26.6977,-330.2950,-132.3020,489.4434,44.0975,366.7231,-95.6757,-120.0516,-197.1582,118.8630,-207.4155,-198.6818,-144.3924
-2640.6250,138.3562,3.2307,54.7462,-2.7314,-143.5450,4.8912,-189.3916,-7.2497,-327.2339,54.5309,382.2658,84.3455,297.6243,-8.6142,-117.0022,-46.2857,-12.0539,81.6017,22.2828,5.5139
-2632.8125,71.3843,5.8676,105.3823,34.8910,-20.0060,3.8321,-139.8543,80.3652,-277.6302,104.9470,360.6393,61.1421,130.0089,25.8481,-140.3987,42.1218,-44.4464,13.2186,-10.1804,-238.0438
-2625.0000,152.5014,121.5714,144.0897,115.5746,-55.4143,23.1564,-64.2537,45.0372,-164.9812,-114.6053,252.0659,62.9854,133.3895,2.7580,-101.7505,-66.4725,317.2671,-189.1199,-106.6045,-52.5396
-2617.1875,-28.3429,10.3136,31.8462,40.3060,-56.7839,42.0426,-102.6156,6.7597,-204.2895,104.9178,177.5348,135.8811,-51.2377,133.0336,-66.0525,226.9746,-74.9898,51.6620,100.0447,-127.9718
-2609.3750,229.6643,126.9155,193.4719,120.9026,67.7088,-7.9558,21.8759,21.3411,-263.7547,-65.7021,118.8540,76.6215,-146.0732,57.8396,-52.5041,58.2405,287.6187,-360.6911,-29.4556,-187.5746
-2601.5625,98.2773,66.1165,120.7117,60.0966,-42.2028,40.2137,-88.0226,-14.4777,-224.6126,9.2796,-26.2441,77.9553,-215.3541,71.9798,-51.3451,60.0576,261.8695,-106.4210,119.6562,-2.5528
-2593.7500,-101.1809,42.2587,180.9048,107.2412,90.8401,36.2519,-64.9716,-28.3418,-239.5196,31.2415,-76.3973,63.2412,-301.7533,113.2784,-28.2279,156.8115,62.0380,-25.1364,131.7447,-237.5934
-2585.9375,100.9416,138.9759,234.6749,96.9518,71.4416,-19.8679,62.6446,-84.6512,-147.8793,-207.2667,-20.9942,8.0793,-172.6681,-4.9906,-10.5527,-81.9408,439.8136,-281.3105,-89.6379,-36.0810
-2578.1250,-94.1962,-21.5577,66.1933,7.4172,13.7813,25.0700,-68.9984,-106.2109,-132.4969,64.0003,-78.8480,60.6724,-265.8927,108.8330,-32.1202,191.0342,-36.6668,120.3271,101.7451,-20.8008
-2570.3125,114.2648,45.5139,215.3265,74.4935,51.7292,-3.1990,42.9656,5.8414,-94.5256,-8.1105,-76.0966,-12.1366,-373.5815,47.5154,5.9084,82.5829,170.4527,-200.4071,-77.2686,-129.9408
-2562.5000,109.8366,39.6954,198.5692,-1.3257,-37.2274,4.6168,26.0394,-45.9993,-36.4508,-24.1193,-164.2532,9.1471,-315.2168,36.2110,26.0437,31.1807,235.7141,-136.0268,-12.1819,111.0447
-2554.6875,-51.3721,-15.8853,223.0612,13.1061,59.0705,0.0757,13.3589,-59.5854,-50.1289,73.1564,-104.1707,32.6827,-363.6750,105.1113,13.4369,202.0252,-65.8108,-17.3258,2.1812,-85.7237
-2546.8750,196.0357,161.1509,328.1826,85.1493,90.9766,-57.5667,82.2930,-137.5598,-19.2067,-225.9804,-70.4845,-9.1883,-257.5963,-14.7567,45.4378,-59.5806,357.3127,-368.0283,-206.8705,56.1074
-2539.0625,-33.5091,2.2311,120.3546,-3.7612,-6.0766,1.5552,-14.7258,-161.4819,-5.2318,-29.0467,-130.7627,40.9860,-354.5327,78.4153,57.4943,135.8378,-12.5140,33.3784,-14.8469,142.0176
-2531.2500,51.7443,86.1066,180.3383,80.1329,52.6800,-18.2630,44.0641,-103.5946,-57.4624,-81.2848,-108.2479,26.9550,-440.7433,58.3474,7.3524,86.0346,106.4490,-198.3760,-142.0040,-19.2898
-2523.4375,52.3103,85.2956,132.6394,45.3316,-31.2557,6.8108,34.1644,-112.3997,-67.3887,-127.2278,-191.4467,54.2245,-376.7073,33.4188,34.5138,-33.5240,316.7679,-198.8249,-106.8604,190.7260
-2515.6250,-118.3578,-13.7294,111.7416,-19.6742,20.6083,3.9334,-24.9407,-98.3977,-125.5227,107.6706,-211.8562,32.2977,-470.9451,69.2811,12.4817,91.7082,-64.1402,87.6046,109.1193,-14.4586
-2507.8125,118.9884,47.2655,174.8732,41.3382,46.4889,-6.5184,74.9729,1.6125,-63.6597,-50.4389,-222.2677,-52.6359,-444.2524,-46.9514,-35.5425,-176.1105,349.9919,-202.9643,-40.9085,11.3461
-2500.0000,-64.3113,-101.3910,14.3566,-36.2986,-39.2919,65.0874,-47.7606,24.9724,-2.4343,157.8124,-308.3439,8.7807,-493.2722,33.0633,-47.2057,-41.6154,95.4928,173.8602,127.4330,108.5284
-2492.1875,-40.9169,-8.3473,123.5449,56.7706,67.6313,43.9542,-14.7914,23.0435,-78.5122,81.7940,-199.7277,5.8972,-568.6709,45.9406,-50.1618,-7.4372,153.6733,56.4339,9.4956,-114.6044
-2484.3750,27.4531,59.6632,148.7039,53.8013,18.5089,35.4106,10.1426,-24.9315,-52.6352,-40.2827,-210.1690,-41.0399,-432.1866,-28.7909,-25.1643,-165.3604,433.8590,-17.0397,-61.5024,94.2331
-2476.5625,-172.6643,-71.7846,90.4077,-41.6168,70.9305,49.8336,-10.3809,-9.3518,-112.2057,159.2303,-231.0864,-26.4181,-453.2226,49.6054,-9.6082,33.2589,-14.4347,309.1145,123.0765,-37.3693
-2468.7500,137.1671,62.7308,195.0875,56.9304,101.3159,9.6132,93.0621,-15.8049,-118.8271,-105.3014,-200.0646,-32.8521,-385.3823,-37.2348,-16.0968,-193.2135,366.2506,-49.7668,-59.4014,-44.0342
-2460.9375,-30.1037,2.1516,11.6831,-3.6187,-44.4027,63.5330,-15.5885,-14.3627,-117.5438,79.0658,-236.1523,5.6170,-384.7027,26.1766,21.3291,-45.8380,198.8719,169.2957,54.0280,140.2327
-2453.1250,-57.0419,43.9164,28.6386,38.1859,9.2423,62.7864,-35.8847,75.4305,-173.9154,206.8150,-144.8940,58.4335,-514.7436,61.3979,2.1100,7.8725,101.8158,106.7707,26.8293,-63.1631
-2445.3125,71.9959,137.6541,79.5673,61.9507,-50.1551,76.6709,51.7832,126.1840,-122.3323,37.5013,-92.6921,37.1952,-426.8955,-46.7928,16.8436,-308.5229,547.7667,-80.8094,-54.4317,171.4075
-2437.5000,-154.0916,-17.7178,-43.6114,10.6116,-101.6635,109.3779,-35.6538,111.8369,-63.8358,280.1178,-70.6040,94.8603,-441.2151,4.9267,37.4883,-213.0346,179.5936,289.5840,175.2366,119.9031
-2429.6875,88.6679,83.7697,31.0776,78.1375,-27.3117,46.8929,75.7723,113.3490,10.5148,61.5936,4.3299,60.3693,-402.7625,-48.2303,2.9926,-284.7296,423.2798,-65.1428,-74.2451,11.2373
-2421.8750,-51.7127,49.1110,-50.3733,7.5194,-108.1147,61.6954,31.0576,-4.2835,39.7238,52.9289,-39.9019,88.7261,-337.5252,-5.2167,32.3525,-183.6232,316.8606,145.0084,32.1288,186.4530
-2414.0625,-156.3643,14.1937,34.9322,43.6522,13.8395,40.3914,42.0873,-29.1558,-22.3275,102.0515,9.6006,27.8350,-398.6104,-5.3035,43.4689,-133.7794,108.1643,251.9847,103.2795,-58.5875
-2406.2500,50.7534,151.0511,136.0166,75.5545,2.5544,23.4294,105.8839,-3.2690,3.3603,-91.0859,-0.1518,16.6916,-299.0106,-90.5416,33.3371,-365.2377,456.2721,1.7082,-41.8343,78.1303
-2398.4375,-159.6964,-25.6495,-12.4552,3.9045,1.7100,84.5623,-5.8761,-3.9232,2.4945,128.2628,-36.4712,53.0031,-337.0299,36.1481,-40.3396,-72.2594,-2.1823,387.9495,168.5251,77.3259
-2390.6250,45.5926,39.4092,97.8365,34.0160,111.6307,16.5754,67.1158,33.1866,2.3760,-19.6204,-1.0454,-57.9333,-301.3748,-31.2684,-4.2678,-109.5544,134.1105,29.9782,22.6380,-33.7423
-2382.8125,10.9359,-65.4680,-22.8016,-70.8139,-9.3999,3.0855,57.1702,-14.6486,137.3119,6.5399,-47.5793,-67.8226,-239.7265,-57.3397,167.8591,-121.8505,239.5073,-3.9234,92.7979,212.2714
-2375.0000,-112.3021,-154.9053,-70.9858,-90.1945,16.0213,-4.0234,82.6709,-26.0331,163.7014,142.1896,-22.6817,-43.2576,-360.7004,33.1047,194.4441,124.2982,-25.6794,81.7019,180.4398,17.7393
-2367.1875,97.2862,20.4754,34.6517,-18.7623,11.2585,-31.5910,150.9899,-29.6070,231.8934,-82.3692,11.0117,-9.8975,-329.9400,-12.4335,115.8399,-27.8016,361.9764,-304.8714,-30.1359,123.0102
-2359.3750,-234.7815,-30.7971,-167.3629,-70.9816,-155.1658,40.0166,-15.3389,-12.8284,249.4457,191.4439,-81.9616,43.8148,-423.8870,105.3735,95.5960,245.4231,-41.0190,64.9627,127.6509,176.6647
-2351.5625,-198.6618,40.1354,-121.1692,35.0137,-109.3794,42.8857,-5.4622,70.1597,186.1917,165.4860,-72.7370,16.7326,-487.7072,107.5818,-3.4460,255.8300,30.1700,-108.9633,23.6438,-33.4902
-2343.7500,-144.3858,24.2384,-145.8031,-16.8299,-171.4371,59.8129,-31.4236,80.3020,196.0922,64.6669,-171.3735,-9.2034,-331.4279,55.7858,-29.3338,118.3330,189.5679,-90.7291,41.7818,160.5367
-2335.9375,-272.2994,-69.8226,-196.5883,-38.8281,-149.6393,93.3107,-120.5351,103.2944,107.8508,234.7288,-148.1754,49.7106,-419.3681,142.5881,-81.3597,287.6789,-254.2156,274.4420,125.8046,-37.5738
-2328.1250,91.1206,154.4312,-38.0526,78.4830,-101.5327,37.4516,-34.3320,78.5820,9.9128,-46.9256,-26.6896,24.9236,-335.0661,10.7975,-106.0749,-32.7213,109.3499,-65.0785,-108.8790,-25.3651
-2320.3125,-61.6223,0.5215,-129.6676,-4.3599,-156.5771,48.3704,-126.2857,-13.2720,26.8341,118.3090,28.6276,5.9835,-280.9849,27.2026,-49.9353,58.7194,-148.2582,239.3268,90.3115,102.7068
-2312.5000,1.7362,-6.2800,-17.1599,23.9073,-7.5026,9.4958,-50.1263,25.9869,-43.1504,121.6485,142.0381,-27.8634,-315.8651,13.7376,-47.6941,60.2328,-190.7464,126.8480,12.6036,-115.1305
-2304.6875,113.2915,69.1261,15.5566,29.3801,-121.2348,-11.7885,-17.7601,-14.5514,25.0806,6.2020,174.6278,-68.5079,-211.5967,-66.4289,20.7617,-91.0946,96.9880,-43.3976,-86.8996,101.2630
-2296.8750,-102.2933,-40.5751,-93.8321,25.7511,-121.0565,48.9571,-127.4928,22.8222,-10.7826,228.6941,138.1023,4.7479,-248.4921,59.5639,-14.8739,165.4741,-328.4106,270.3265,14.5236,-8.4493
-2289.0625,173.1424,128.7401,10.7905,89.1328,-17.8702,4.7610,-61.2121,53.2129,-54.6425,-35.8125,205.5590,-2.0024,-182.4418,-3.7911,-58.5075,11.0024,16.2326,-123.9407,-238.0657,-15.1508
-2281.2500,49.1079,40.5955,-91.0422,36.0678,-156.1420,43.4489,-125.3840,-48.8341,-45.9421,46.2583,103.5434,43.7981,-102.8991,31.7173,-49.5861,56.0635,-107.5878,174.4054,-81.0881,176.7195
-2273.4375,-13.0314,48.3643,-33.9587,114.9142,-63.4969,54.5901,-143.6448,-28.9781,-137.3403,29.2315,160.4190,62.5017,-157.5143,68.7193,-66.7575,111.0061,-203.5032,219.6748,-108.2005,-60.5172
-2265.6250,92.5729,189.8913,31.8831,150.5168,-70.1037,45.8228,-76.1361,-35.3726,-106.9713,-161.0385,153.0324,54.9510,-55.4322,-10.2264,-73.1595,-116.3416,183.3679,8.7152,-247.5653,116.0323
-2257.8125,-114.1106,17.1524,-71.5250,83.8624,-101.9589,86.1248,-181.8777,-31.0103,-64.8466,138.4744,121.3830,97.1531,-199.6519,86.1836,-67.8041,107.0704,-270.0468,365.5723,-67.1516,84.3364
-2250.0000,140.8144,132.0254,13.6918,127.8182,-17.1948,32.6570,-60.0020,54.9570,-54.1254,3.5726,170.3307,35.9449,-151.3165,-6.0231,-92.8469,-63.9589,-49.8180,-11.9680,-234.1437,23.2514
-2242.1875,58.0302,14.1963,-156.7982,10.0734,-151.1349,9.7625,-119.8247,-5.7707,-4.0924,90.9982,73.5598,-23.9623,-30.7289,-83.2557,-42.5805,-162.7056,-132.3009,80.8457,-106.8195,256.4922
-2234.3750,-98.1542,-107.0332,-162.6834,-42.0667,-48.4560,-26.0281,-126.0381,-12.8898,-48.4671,120.0506,66.3816,-68.2725,-1.5913,-103.9014,-86.7090,-170.8619,-359.1940,171.2924,53.1120,29.3203
-2226.5625,27.0644,-15.8531,-71.1511,-55.8067,-29.3723,-62.8316,-34.8412,-67.5953,-29.4326,-191.4960,47.5939,-87.1846,50.9062,-178.5500,-105.4311,-374.6563,83.3500,-53.8548,-66.5688,120.5792
-2218.7500,-180.8494,-154.7878,-177.7184,-123.6488,-99.3851,-4.1290,-141.7428,-100.3965,9.5098,31.8836,-21.3086,-10.1964,-93.7477,-50.1364,-101.2444,-114.5435,-335.2418,406.9564,146.6802,87.7485
-2210.9375,17.3523,43.3887,-36.1619,39.6216,77.7141,20.1299,-0.5234,3.8996,4.5570,-83.6485,8.8864,-16.1109,-101.3394,-46.9239,-33.9441,-157.3605,-101.7031,219.8630,29.0147,-64.9791
-2203.1250,-55.1069,40.9178,-47.2614,3.2424,29.1609,19.2692,24.0495,-44.4518,101.9646,-57.8179,-76.5850,9.3273,31.3801,-72.2821,27.7169,-244.8471,3.1889,217.1655,61.7020,143.6750
-2195.3125,-227.5903,-60.5526,-71.3561,-29.1277,115.6167,32.2770,0.6213,5.2066,78.3630,139.0362,-101.0693,21.7675,5.0577,17.6486,4.3768,-12.3338,-344.9370,398.5109,136.4045,-63.6782
-2187.5000,32.7481,58.7902,13.3658,20.3057,125.8782,-3.4120,121.0079,52.6710,162.5683,-71.3166,-16.7661,-41.9975,124.5035,-98.7052,-22.1603,-259.0582,55.7797,60.6524,-61.1020,20.7924
-2179.6875,-120.8283,-129.7792,-74.8139,-62.1682,73.2387,38.8563,31.4950,36.2386,219.8856,97.4669,-105.3782,-20.6668,143.0007,-40.2096,35.4183,-129.6798,-237.4347,400.9416,137.5161,78.3760
-2171.8750,-18.6968,-62.6351,41.7285,4.0653,190.3108,1.0709,112.6950,80.5143,226.9120,30.9452,-62.2890,-50.6279,74.1596,-63.4821,42.7056,-161.6280,-134.9359,187.9301,29.8294,-135.3419
-2164.0625,-7.8432,-16.7375,43.0113,15.0497,118.1282,23.3211,76.6496,44.5433,264.7124,-40.8094,-134.4645,-48.8354,147.0346,-82.4101,43.7551,-233.8369,122.3116,128.6978,4.9034,86.7227
-2156.2500,-216.6624,-85.5001,-57.3625,-18.6100,127.2983,62.5370,11.9620,53.9370,163.8671,115.8213,-162.3012,-3.6936,117.2117,34.9854,-19.8495,31.3324,-263.1276,447.8598,147.3392,-87.8693
-2148.4375,54.9519,82.1464,118.6757,43.1368,228.8778,-0.6949,114.6853,45.7404,118.4216,-187.1636,-97.7493,-12.1606,254.7688,-55.9196,-65.0549,-198.1237,185.8702,18.4106,-106.8387,-96.0416
-2140.6250,-25.7693,-34.5230,-8.5967,-2.4275,102.1568,30.5966,24.1094,-7.7570,137.6929,-19.4208,-113.5231,7.0649,198.9936,2.7256,-8.5446,-32.8725,-104.4643,254.7128,23.7078,34.5028
-2132.8125,-74.1633,-47.8342,60.4887,20.3637,206.7997,20.1424,55.8990,98.1057,96.3188,49.6757,-82.9577,1.6357,80.5370,28.0250,60.3232,33.7172,-189.4426,101.3737,-25.3954,-154.6097
-2125.0000,-71.5655,24.8620,14.5713,-12.8406,124.4425,8.0277,120.7015,88.9719,160.9662,-32.2229,-128.4055,-42.7891,254.0517,-49.6574,88.1997,-122.7142,130.5877,-70.9511,-56.5030,94.3105
-2117.1875,-295.1953,-128.6505,-66.5524,-61.2489,115.8932,38.9220,39.3054,80.6457,152.4241,180.7062,-136.0658,-15.4090,280.3322,23.4485,79.8927,51.6691,-303.6189,304.5623,141.2093,-23.9711
-2109.3750,39.0455,-4.3142,66.1897,28.1850,175.2092,-13.3902,171.7838,66.1729,174.7421,-128.5295,-78.8811,-30.1974,299.4487,-56.9813,65.4518,-148.1206,31.0575,-63.0956,-51.2302,-75.3895
-2101.5625,-73.6383,-81.8948,-21.9770,-48.2935,85.6275,16.1164,119.3655,-22.1978,232.1727,-68.6352,-130.6182,-8.8903,208.6440,0.9493,87.1138,-16.7954,-81.1861,176.3935,82.4494,93.3151
-2093.7500,-166.0865,-33.2140,-33.8911,-0.5023,111.3094,20.8203,108.1969,39.6954,146.8392,66.5157,-106.1190,15.6703,47.0659,69.8359,76.0214,153.7923,-243.1865,157.1552,61.3781,-138.7418
-2085.9375,-63.0778,68.9271,-10.3517,30.7425,60.4373,18.6530,131.4869,63.0418,169.9580,-92.8874,-119.1858,1.6778,178.9291,-4.6067,62.3831,-44.1902,140.2880,-126.6346,-48.2524,68.6755
-2078.1250,-293.8904,-89.7504,-137.6225,-22.8233,4.7667,48.7592,38.9799,7.5892,188.2850,108.9338,-138.0663,19.8843,194.9641,68.7892,117.9547,156.0365,-264.0823,241.8179,144.3341,50.2918
-2070.3125,38.6017,30.8761,31.4157,28.9155,101.4094,-22.7631,135.7917,30.4417,100.9246,-51.9515,-42.6448,-30.6218,178.2845,-30.9086,103.8407,-43.4612,32.8618,-92.4348,-49.7948,-73.7852
-2062.5000,93.4649,-18.1054,-65.1620,-19.9531,3.4443,24.3847,37.0045,42.7013,75.9787,-2.4105,-29.8460,-17.7266,150.9978,-16.5111,42.1309,-31.5652,-15.8140,69.7609,40.4931,122.5655
-2054.6875,-108.7247,-80.1262,-83.7890,-11.8605,95.4307,41.8625,-16.8297,98.9237,20.9839,127.0892,-12.0985,-36.8744,93.6417,54.3946,24.3657,169.2848,-323.5637,184.9287,85.7289,-79.1466
-2046.8750,12.4644,40.2190,35.9383,-31.4127,104.7647,-16.2539,102.6889,71.4936,30.3483,-120.0681,32.9941,-63.6727,247.6375,-50.8135,33.9569,-79.5373,149.0658,-184.5676,-73.7037,77.5168
-2039.0625,-170.8758,-107.9524,-82.8401,-109.4735,20.6018,21.5216,-17.2916,24.5700,20.2232,90.3073,23.5801,-0.9738,199.1194,30.5419,61.0557,92.1592,-174.8450,194.4848,93.3751,104.6877
-2031.2500,71.0437,-5.8700,68.6470,-7.2841,136.7061,-20.0271,60.9887,29.9012,-10.6463,-88.0788,64.4234,-70.0291,127.8492,-17.1846,29.4071,23.1009,-2.4857,-53.2328,-50.3119,-73.8893
-2023.4375,68.5061,-43.2439,20.6764,-44.5506,14.3505,5.2642,12.8142,-17.2130,-21.9489,-61.9039,-20.1991,-81.5428,224.1284,-22.1640,-17.6855,10.5917,136.4266,15.6280,17.5544,135.1161
-2015.6250,-176.9842,-112.5737,69.7617,-78.7693,100.0565,16.7116,-48.3167,30.7293,-84.2095,134.3416,-45.7771,-33.0050,197.4457,46.4976,-79.7354,131.1460,-179.6375,229.5666,159.4779,-109.8364
-2007.8125,110.8480,68.4117,221.1580,32.3200,178.0678,-33.5825,28.8665,-1.0280,-80.1688,-228.1329,-5.0624,-66.1641,309.0736,-72.7814,-38.4836,-160.0261,284.6335,-186.2128,-45.3106,-68.4686
-2000.0000,-17.9988,-94.2597,84.8850,-60.2399,113.4276,-3.7197,-34.6086,-65.4380,-106.7761,-35.2309,-33.0080,-56.9613,243.0453,11.5359,-28.8793,69.1732,-19.7807,109.4132,179.2649,15.2586
-1992.1875,76.4957,-35.5644,154.9717,-0.4370,184.1534,-32.0015,-0.7206,5.5092,-110.0330,-37.9889,37.4003,-60.4140,163.3683,15.2151,-68.9244,101.7161,5.1652,-111.6140,27.1833,-171.6762
-1984.3750,145.5212,-1.3237,106.6096,-2.0925,61.4369,-24.4284,-13.2738,-6.9951,-12.7167,-85.1923,-11.6613,-71.3225,222.2514,-39.1602,-7.4039,-22.1976,214.6646,-181.0831,-78.3470,73.9648
-1976.5625,-113.8098,-119.4518,-9.1109,-49.1058,92.3765,2.6202,-18.1737,-11.8446,-17.7442,55.2686,-55.0863,-41.5769,177.7794,40.1308,60.7729,154.5622,-184.2262,159.1244,84.7930,-78.7589
-1968.7500,84.1400,42.6772,124.4212,7.1308,152.5756,-57.5933,152.1983,-25.4362,-31.5125,-179.0302,4.7291,-55.5931,234.5610,-53.9206,84.2053,-81.4392,189.1593,-205.4475,-69.8299,-92.2249
-1960.9375,-100.1880,-71.4618,-1.3250,-105.8935,26.5190,-17.4902,63.3228,-41.2735,-10.5097,-9.5504,-83.7301,-34.8592,217.0903,13.4847,106.4007,86.3337,-99.7450,103.7749,97.3214,40.0704
-1953.1250,-102.9360,-37.9969,7.5399,-38.3140,108.0839,-25.6715,72.0624,41.4939,-1.9005,-0.4800,-3.5898,-63.5319,113.2310,30.5263,78.1984,166.7092,-172.0489,-36.4110,26.0636,-172.0455
-1945.3125,57.6628,52.8201,-19.2382,-18.3862,7.9979,-41.6723,119.1555,14.6125,45.0652,-136.0651,5.8929,-52.8612,230.7467,-38.4761,51.3486,-8.5693,129.0069,-261.2469,-129.8515,59.2159
-1937.5000,-99.7069,-139.3302,-104.9818,-104.4151,-41.0386,-5.6200,-3.7086,75.7909,-3.9233,182.4336,-6.5771,-29.1382,179.3163,55.0351,39.5518,236.2339,-307.9454,40.0063,30.3009,-26.4873
-1929.6875,105.3175,-5.1192,1.6310,-40.0977,-8.7148,-52.0591,101.7920,145.3317,27.4370,30.2683,25.3034,-34.0759,172.2484,2.4428,71.1070,119.3801,1.4749,-421.4301,-187.2128,-67.8413
-1921.8750,-73.5667,-77.8196,-120.6748,-112.6887,-167.2982,-24.9070,52.3901,58.9674,125.9213,55.2137,-23.7288,-8.9103,157.2960,43.0980,169.7699,216.6409,-106.0276,-247.7416,-12.6142,140.9212
-1914.0625,-148.2174,-117.2715,-40.7256,-117.0240,-51.6153,-41.1637,96.2476,102.8563,58.6568,136.4087,18.4886,-3.4988,124.6034,65.1695,102.6832,258.1635,-285.2926,-214.8017,-16.7613,-73.0807
-1906.2500,88.3810,-21.4670,14.4731,-91.1109,-68.6826,-75.0442,152.3594,84.9971,40.6461,-28.1483,72.9509,-94.8387,288.1902,-61.1635,84.8418,17.9315,91.7208,-433.6289,-166.6689,93.1901
-1898.4375,-119.0306,-157.6765,-125.3416,-122.2051,-136.7475,-14.4159,10.4587,54.1422,46.6380,161.3183,41.4109,-17.1811,180.7915,64.2261,128.0019,280.7332,-326.3172,-42.4283,12.4366,62.4589
-1890.6250,77.5440,4.0768,-24.1993,-30.3482,-72.8549,-69.8290,112.5198,9.2352,37.5875,-104.2906,105.8323,11.4292,170.3674,22.3605,156.1188,160.4817,-58.3965,-370.3192,-141.5340,-56.3194
-1882.8125,4.4494,-33.8214,-74.7243,-68.1435,-159.6250,-45.9493,61.9264,-78.3329,96.9088,-116.5416,55.5989,34.4030,264.3185,15.0214,141.5952,107.5957,-26.1462,-231.8505,-38.1510,187.2770
-1875.0000,-134.2566,-103.3141,-28.8495,-102.5304,-40.9908,-45.0674,71.7415,-69.4991,-3.3655,2.6088,63.7585,5.7765,197.6860,71.0899,78.4712,264.1311,-341.5166,-53.9842,68.6315,13.2572
-1867.1875,173.7592,29.9023,31.7309,-74.2201,-53.6501,-84.9461,94.2674,-81.9727,-15.9255,-193.5646,122.6100,-44.1518,254.7809,-41.1908,28.0526,28.3597,143.8397,-340.4470,-148.8903,146.9536
-1859.3750,-23.3941,-131.0488,-100.8529,-130.0709,-113.4647,-30.5494,-74.3614,-104.5965,-38.6256,77.1342,99.3034,6.7721,156.7430,60.6815,78.4851,261.4665,-229.0018,60.9760,6.4547,161.4967
-1851.5625,41.1803,-31.2927,49.2718,-30.2155,36.4339,-50.6594,1.7156,-28.5172,-110.6319,-29.4883,175.7038,8.3975,120.4264,21.4817,8.6105,116.2741,-94.1257,-187.9328,-140.5174,-19.2723
-1843.7500,59.7135,-13.5873,21.3330,-47.4118,-28.7259,-13.1308,-26.2616,-56.4952,-64.6815,-130.1655,74.0474,16.9761,237.0917,0.6462,-19.3124,14.0384,65.6911,-98.8882,-121.5392,209.9286
-1835.9375,-123.8725,-90.9886,-49.7122,-54.7084,48.0169,-4.2631,-23.3436,-90.5694,-98.8326,-16.9324,2.2842,19.4574,164.6820,59.9706,20.6624,162.7438,-292.6255,177.0611,82.3445,-6.9900
-1828.1250,89.6531,87.7229,64.3436,19.0995,123.8578,-53.5278,126.6845,-123.5400,-58.8703,-270.6166,4.6179,-14.9665,128.4093,-29.0818,23.7340,-56.4480,167.1807,-169.9362,-55.6909,-3.7979
-1820.3125,-83.6482,-50.3879,-81.4326,-48.9088,14.8875,4.3784,17.9095,-121.3050,-57.6887,-12.0661,-103.8607,22.8067,91.3496,55.7295,-11.9839,127.5961,-110.8586,185.2945,158.4965,34.5950
-1812.5000,-57.7849,-23.3445,-7.0619,13.2361,126.0806,-8.0182,19.2982,26.0909,-129.3517,63.6207,-31.1763,-13.2790,89.4635,30.0619,-47.5515,90.7897,-155.7486,1.6555,79.8242,-184.8829
-1804.6875,7.8360,42.4532,-22.9539,8.1266,0.0200,-13.7567,40.4369,10.2265,-35.2536,-61.9553,-46.7460,-29.6097,182.3731,-41.8720,47.6292,-72.2612,86.1146,-142.2358,4.8958,57.4047
-1796.8750,-164.4054,-94.6039,-48.7045,-57.8316,-25.8868,2.2266,-22.2820,-15.4911,-61.0060,132.6288,-0.1617,54.2146,43.4567,68.7349,57.9543,157.8706,-261.9110,144.0445,115.1240,-79.1808
-1789.0625,142.1495,106.1015,123.3032,71.9640,71.9620,-32.4787,38.7584,-27.4599,-110.0189,-137.0601,97.1862,5.7803,-6.6721,-14.1369,-26.9745,-39.2517,184.8400,-251.9753,-141.9138,-54.0151
-1781.2500,78.1373,7.2428,12.7374,9.1944,-37.7502,16.9803,-107.7584,-63.9814,-72.5743,-25.2846,22.9735,40.8016,26.6868,25.8424,-63.4508,32.1061,16.0005,37.4775,6.5183,129.6080
-1773.4375,118.1231,46.3808,26.1679,84.4278,11.5544,-6.8329,-94.2702,-50.5008,-96.1329,-11.5171,35.7672,54.8179,39.0851,38.7409,-86.9316,82.4832,-84.8501,-62.0883,-59.0519,-76.7877
-1765.6250,198.9656,163.3712,29.4411,95.5047,-57.2935,-22.7518,-52.9309,-83.1719,-54.8297,-154.9002,38.4021,57.6835,151.3813,-19.3872,-45.5635,-61.2857,278.1656,-260.8328,-187.7807,110.6819
-1757.8125,-24.6535,9.8949,-51.7499,47.1245,-103.5851,11.6342,-135.0397,-92.2980,-63.9715,58.2745,67.5795,86.1032,31.2502,94.3720,-54.6454,223.5314,-156.3079,43.9910,10.0502,-7.3171
-1750.0000,189.4046,154.0871,102.7233,121.4005,-22.2117,-22.8808,-54.4878,-10.7816,-93.4612,-81.9460,147.4126,93.1708,-1.1869,21.0474,-84.0724,7.9896,162.8940,-302.5813,-231.4943,-73.6683
-1742.1875,42.1825,77.0161,13.9227,9.4157,-148.0918,25.5330,-179.1903,10.4740,-108.1791,86.5887,93.9866,113.9948,18.1710,53.2888,-98.7441,65.2205,85.8176,-61.3864,-97.2761,131.7439
-1734.3750,11.6078,47.5940,-7.2300,85.0818,-95.3156,55.2418,-201.2372,100.3827,-203.2573,176.7698,73.2124,93.4701,-40.7841,102.4981,-156.7698,191.1387,-119.6248,-20.5678,-57.4160,-109.2166
-1726.5625,301.9638,161.0782,32.5174,128.6417,-92.6461,8.0082,-123.3838,66.1890,-89.4400,-77.1585,38.3384,21.8414,107.2041,-27.2029,-115.9011,-65.0387,275.8647,-326.8941,-188.6752,40.7366
-1718.7500,63.0546,-6.7083,-68.9970,30.9442,-120.2259,25.2002,-150.7919,1.7502,-43.8736,152.6841,-26.7892,30.9623,4.9744,44.4362,-34.2922,127.5694,-103.9422,68.5529,29.8318,13.4259
-1710.9375,148.8203,114.1741,101.1491,81.9066,11.8556,-18.6254,-19.5435,60.9539,-57.6633,28.1311,68.7440,15.7358,-84.5624,-13.5234,-48.0366,-35.1807,122.9274,-231.3869,-130.0286,-111.2499
-1703.1250,155.4268,85.9058,61.1337,17.7169,-63.2158,-3.1167,-57.4529,-15.0066,-59.5886,-10.5781,28.1165,49.3671,-16.1970,-2.0041,-49.9333,-38.0721,164.6320,-117.4749,-88.0285,106.9370
-1695.3125,83.9762,13.5851,33.0606,52.4767,-19.3366,22.2700,-123.4125,-7.0162,-162.5654,108.6716,36.4437,94.9487,-8.8561,74.9259,-152.8786,117.0219,-188.7412,93.3758,15.9266,-104.9522
-1687.5000,200.5615,166.2680,39.9845,133.2312,-49.4638,18.0491,-43.3642,-0.0243,-118.5316,-141.0926,5.7728,64.5238,106.5270,-8.6844,-144.8259,-98.8828,209.9046,-175.8198,-113.1332,12.1674
-1679.6875,-132.9668,7.8347,-126.2225,10.8713,-141.6947,72.2191,-135.4284,16.8641,-100.5846,96.0627,-51.0011,80.9988,11.8477,75.3231,-54.8726,102.1513,-87.6022,194.9104,116.7235,66.1790
-1671.8750,80.1627,46.0634,67.2312,84.1681,-58.2684,16.7109,-51.8329,27.4058,-53.9985,-4.1595,31.8794,17.1236,-126.1330,14.0988,-81.2812,0.8348,124.5618,-82.7405,-21.7803,-107.1799
-1664.0625,165.8253,60.8409,73.2266,29.0121,-125.2926,-10.4505,-44.6894,-38.5069,25.1493,-32.8363,1.2948,-13.2021,-83.5189,-47.0554,-1.1404,-102.9248,281.2755,-135.8456,-39.7285,120.0210
-1656.2500,-65.7871,-29.6745,23.9278,8.5614,-64.6075,15.2690,-57.8378,-14.7178,-60.0080,138.1649,-48.5827,-25.8297,-61.1650,44.2318,-50.3018,141.0207,-127.2981,125.7082,80.0108,-76.1047
-1648.4375,250.5672,111.7518,96.5666,79.0505,-28.9772,-34.3590,50.9612,-15.9875,-61.2117,-120.8932,-50.5134,-27.5115,83.1879,-57.8149,-88.5105,-119.0777,260.0901,-259.8002,-96.2945,-40.2671
-1640.6250,92.8617,24.1158,-71.8554,27.4792,-160.3888,10.4516,-80.2910,-74.3029,-46.4606,42.0100,-72.4956,97.7580,60.5257,26.6686,-108.7731,5.8047,32.3880,40.6465,63.3659,48.4883
-1632.8125,134.1266,135.4473,17.6839,138.8625,-71.8435,6.0205,-64.5802,-21.6768,-139.7598,21.8230,90.4814,112.9741,-109.1369,42.1638,-130.0869,21.6280,38.6777,-93.0068,-71.0375,-155.8124
-1625.0000,204.8720,171.2637,6.7119,139.7327,-154.8022,22.6030,-73.3830,-31.5587,-112.5552,-134.8418,78.9526,65.6951,-47.2572,-12.7831,-65.9092,-99.0187,320.4323,-196.1467,-139.9242,91.3850
-1617.1875,-9.1677,-7.7187,-100.0576,30.8057,-152.5475,34.2244,-107.9820,-28.2312,-73.1563,88.6825,44.6283,68.6155,-155.1408,77.2891,-26.5419,160.5472,-175.6173,152.8867,67.3770,-52.2486
-1609.3750,234.9135,95.4057,9.2604,63.9801,-79.2024,-24.3718,38.5155,44.1867,-0.6552,-95.7153,80.4014,-42.3602,-119.8718,-47.3102,-27.0768,-61.7857,208.4501,-235.0044,-110.2352,-89.7703
-1601.5625,27.4765,-41.9724,-138.9421,-38.3425,-154.3595,4.8769,-0.4988,42.1022,108.3434,123.4027,-33.3286,-45.8248,-87.0701,-13.1845,43.8853,45.4166,-34.0265,14.6186,69.6594,55.1842
-1593.7500,-59.9825,-58.3831,-146.1871,-18.7033,-51.5641,-7.6323,67.4487,108.9659,138.2903,153.4370,-3.0953,-52.3391,-167.2773,10.1917,37.7913,111.5621,-155.5101,-35.8635,53.4828,-171.9228
-1585.9375,64.1458,-5.2054,-99.8406,-36.4740,-79.1745,-27.0303,148.9883,44.4158,220.8386,-93.9284,4.7354,-80.2533,-122.8364,-71.6264,46.2943,-100.6688,178.5868,-191.7374,0.9188,57.5774
-1578.1250,-153.3229,-151.6280,-216.0966,-78.8469,-85.3772,12.8410,33.9255,2.2654,215.7786,120.0932,-38.0229,-49.7732,-165.9609,18.3877,41.1884,113.5216,-249.9276,188.7748,205.7525,15.4477
-1570.3125,-9.4616,-7.7419,-60.0595,-3.9205,34.7157,-35.9668,117.1636,48.4102,188.0132,19.3892,-28.4824,-76.9914,-83.7363,-45.0672,13.3769,-24.9948,34.8854,-158.4442,-1.1181,-85.3702
-1562.5000,-122.1667,-84.4175,-148.5989,-116.5540,-53.7426,-14.8348,27.8404,33.0033,209.7035,115.1634,-117.4973,-55.7505,9.9635,-34.2917,72.0166,-4.0299,-42.8998,45.8055,132.4770,83.2422
-1554.6875,-147.4401,-110.6790,-127.7340,-106.7752,78.2015,-25.9321,49.9246,54.9981,120.7911,136.3109,-61.0984,-72.1125,-42.9002,8.4181,57.0494,127.3270,-313.2588,127.4068,142.4542,-152.7657
-1546.8750,27.5333,-5.7036,-63.6290,-37.7579,69.3836,-34.2476,114.2519,9.2380,112.1307,-165.2902,3.5575,-81.2223,21.5270,-70.5025,85.3301,-103.0461,106.6202,-117.7434,-34.3115,22.4843
-1539.0625,-219.0432,-146.2841,-173.0748,-73.2947,-4.9757,13.8255,4.0233,-65.0720,75.9117,17.5534,-34.3284,-7.8784,20.4386,25.9156,85.0483,80.0593,-245.0699,268.5432,177.3789,22.1543
-1531.2500,12.4568,14.1985,38.5351,18.2222,97.7146,-52.1493,69.8491,-72.3411,-6.2557,-137.5944,30.8426,-16.4860,84.4443,-28.7783,2.8139,-38.7973,21.3341,-97.1663,-13.8925,-133.1182
-1523.4375,34.5910,1.3168,14.7768,-29.6196,0.0498,-33.1013,-26.6833,-94.9699,-28.7648,-86.0761,43.6544,33.5583,171.1276,-23.4587,-55.7698,-61.9740,114.3424,-73.2029,-25.4939,101.2464
-1515.6250,-160.1947,-52.5014,-31.9245,-13.4073,26.4472,-4.1916,-111.1565,-32.5525,-76.2293,123.4597,69.5208,22.6487,86.8941,49.5310,-67.3052,146.8997,-221.5763,119.7642,25.9391,-93.3615
-1507.8125,51.6730,53.3247,37.0141,57.4473,22.4856,-6.7391,-41.9844,36.5051,-81.0400,-65.3501,65.0282,-55.6088,118.3529,-37.8499,-35.1904,-41.5630,166.1554,-195.6316,-147.9717,12.6906
-1500.0000,-177.3661,-104.7503,-130.9548,-66.6010,-72.3710,50.5365,-135.7184,51.6671,-28.7522,134.9541,-67.3590,-3.7615,59.9408,58.3275,-19.9847,157.1093,-169.0445,208.0565,44.2240,64.8088
-1492.1875,-66.0179,-29.4582,-5.5674,10.7087,54.1256,10.4128,-47.0912,68.1737,-12.1141,3.5590,-15.3772,12.4349,1.9247,32.4714,-76.4399,63.1103,-57.8665,-30.9511,-20.2458,-139.7200
-1484.3750,80.7114,11.2177,-45.7968,-19.5923,-23.9862,-12.3223,-50.0838,-9.9329,20.9200,-72.4198,16.9923,8.0343,71.3384,-38.6159,-7.5024,-88.5023,158.6433,-94.4939,20.7017,77.1461
-1476.5625,-50.1558,-118.6971,-101.6303,-79.4857,31.3023,-10.9796,-68.6834,-27.6359,-70.6680,91.9837,34.7549,-10.9658,15.1710,37.2350,10.8135,149.2304,-252.4512,162.3751,172.0291,-88.6228
-1468.7500,112.6381,8.0443,-7.8266,-22.7248,88.2241,-44.0049,61.3545,29.3013,-50.6142,-108.9817,54.1631,-101.3055,108.6863,-76.3786,-5.2242,-88.4152,155.1229,-202.1014,-17.0016,-31.7354
-1460.9375,-153.5282,-117.1645,-106.9833,-112.9085,-11.7985,15.1401,-73.5560,39.2928,-3.5085,123.1211,-45.3766,-53.5859,82.2745,4.0840,4.7866,69.0210,-146.2739,130.4809,174.0289,89.1757
-1453.1250,-106.7612,-105.4524,-48.2291,-66.1768,86.0857,-15.4216,-14.5598,136.1823,20.4926,183.0892,13.9950,-103.9674,-5.1941,-11.0935,-8.3103,91.3592,-205.7111,-33.0956,80.9435,-145.0148
-1445.3125,72.7447,-66.9949,-53.7331,-96.7016,5.7153,-23.8576,16.1740,130.8162,51.2394,66.8159,7.1127,-109.5876,62.1302,-59.6096,-14.6609,-25.5159,79.5951,-203.9241,13.6261,69.5473
-1437.5000,-87.5434,-157.3250,-143.0260,-118.0193,-8.4441,6.9026,-71.8892,78.6484,36.1817,235.7313,-44.5580,-15.0007,-27.3112,36.3012,-28.8152,143.8409,-326.8659,163.3992,205.5102,-55.7230
-1429.6875,204.3455,65.4989,16.8316,33.8077,40.5426,-41.8906,51.1972,17.6140,12.2775,-156.2290,40.9296,33.7365,22.4394,-50.0739,20.1773,-138.6394,105.8729,-247.1834,-29.4592,-79.8362
-1421.8750,45.9383,12.0080,-45.6208,-18.6704,-58.7697,-24.2818,-12.0272,-118.7278,96.0818,-108.4789,-22.8733,80.1791,31.9170,4.9065,66.8638,-19.3792,-51.7017,-17.0660,58.2861,113.7280
-1414.0625,-106.5373,-35.5699,-13.1664,-31.2409,47.8204,-35.4076,58.6464,-48.1718,56.7762,35.1364,47.2304,40.5206,-44.6701,21.8588,27.4376,51.7834,-241.3286,39.8903,81.9069,-109.8216
-1406.2500,27.7170,-7.4026,46.0179,-38.0678,70.1510,-47.9954,118.0563,-26.8723,79.2181,-88.4945,32.0792,-48.3735,51.5273,-75.1391,49.7527,-146.2751,138.7798,-141.4043,-30.7161,59.3805
-1398.4375,-99.4334,-168.6248,-82.1998,-129.2897,52.0862,-32.0948,27.0587,-43.9768,-11.7520,150.4611,14.5369,-65.6626,-3.6471,-3.7869,105.6535,92.2933,-303.5215,224.8674,160.2486,-31.8560
-1390.6250,79.5950,-25.6902,72.7287,-56.3599,170.1625,-59.6842,144.2093,37.0513,-41.5781,-62.4674,21.1477,-94.7985,41.3733,-54.8488,39.6960,-47.9909,15.3658,-123.7625,-48.6522,-134.9363
-1382.8125,-66.9443,-66.3227,-16.9127,-95.9875,44.6830,-14.7038,55.7958,-15.4772,17.0426,-4.9268,-67.7968,-37.4857,135.8756,-34.8033,24.1869,-63.7899,8.6699,82.0639,86.9129,70.4117
-1375.0000,-33.4620,-103.9438,-7.5439,-64.6053,90.2119,-26.9182,65.3899,-43.0096,-10.3452,41.5736,-22.7287,-28.1793,-38.5773,-3.4329,33.6672,19.4056,-239.9899,220.8358,190.4628,-178.2632
-1367.1875,296.8676,50.2835,37.6623,19.6166,99.5768,-69.4726,147.8228,-107.7068,72.1130,-280.0843,-13.8051,-19.0169,6.8645,-110.7914,78.9914,-265.5419,196.1940,-117.5387,62.8681,-59.0830
-1359.3750,26.9370,-77.7405,-60.3915,-73.4106,37.6990,-41.5468,85.9965,-168.6552,84.3228,-47.9908,-76.1238,-7.1001,-53.9211,-10.9725,91.0499,2.2846,-212.8961,246.8292,287.0174,-47.1922
-1351.5625,92.5326,-47.2555,125.0536,-78.9339,187.3141,-97.0165,161.6660,-57.1073,86.0314,-119.4255,-0.9379,-116.6856,-15.1683,-89.4970,56.5978,-106.3986,-7.4480,-74.3484,141.6453,-192.8006
-1343.7500,16.2103,-89.6829,70.5841,-119.3673,96.0200,-53.3203,107.4137,-74.4579,105.8248,-136.7405,-19.6571,-97.1562,76.7084,-79.9886,75.2328,-123.9478,161.0580,24.5926,99.3860,46.6742
-1335.9375,-148.3996,-113.3925,17.8244,-39.0877,80.4333,7.2164,17.8599,-17.1099,16.3078,30.6114,1.3349,-39.9187,-11.6792,14.4748,-14.4477,44.1953,-143.7068,248.1861,145.8065,-153.1783
-1328.1250,97.0889,96.9947,159.1508,65.2874,73.9343,-18.2675,48.3966,-22.6750,46.8955,-231.9470,-4.5736,-45.5772,19.0676,-68.6280,-57.0285,-183.5578,347.6368,-140.1219,-101.6659,-48.9234
-1320.3125,-130.3715,-26.5795,63.5222,-22.2891,-58.5068,28.6623,-119.0218,-45.1910,62.5231,2.5506,-64.4281,5.8075,-2.1167,19.5745,-78.5706,15.7586,49.0047,194.6211,57.9248,39.3471
-1312.5000,-83.1538,57.5120,159.5463,61.7877,1.7056,16.2782,-60.7877,51.9420,-25.2060,-11.3346,-4.6250,-8.1607,-52.6137,12.2040,-56.4744,1.7057,62.0686,-3.0316,-69.8572,-158.7318
-1304.6875,28.1452,62.6988,81.6522,66.9662,-75.9914,27.1753,-28.4762,10.1684,7.1492,-88.1000,-82.7236,60.9858,54.0086,-4.9974,-60.2872,-113.2177,278.1955,-102.5575,-98.5265,57.2804
-1296.8750,-114.9930,-45.5451,13.3238,29.7091,-34.1298,44.7077,-95.6149,15.9486,-59.9590,100.6646,-114.2635,66.6883,-13.8014,77.8222,-54.5604,112.3982,-111.1070,176.4243,39.3348,-121.1865
-1289.0625,62.7719,97.1061,160.8954,66.3460,2.6249,-7.4919,14.1420,52.6134,-23.1688,-120.6944,-40.8947,-7.7112,23.3169,-31.5396,-54.9324,-108.1002,277.5240,-207.7077,-170.8987,-84.7360
-1281.2500,-128.0695,11.1507,-9.1368,-20.6175,-92.2156,27.4972,-80.7133,-6.3333,-8.9882,4.3500,-27.1173,81.2991,38.8475,38.2546,-3.9187,16.8179,50.5271,92.5778,-10.7185,40.0817
-1273.4375,-22.8173,117.2773,40.8900,86.4855,30.9920,-13.8449,-30.5180,-29.2364,-31.7735,-55.5932,22.7120,94.3704,15.4448,25.6967,-63.8718,-7.2310,15.6323,-12.1339,-44.5206,-241.0589
-1265.6250,242.4649,206.4453,88.9483,140.6362,6.2355,-30.7619,17.7079,-129.0926,16.4860,-264.4704,-39.4227,142.4979,101.1037,-34.2450,-52.7809,-216.2051,351.7616,-167.7684,-166.2532,-46.1465
-1257.8125,44.5460,78.4159,32.8134,82.5925,23.2904,-16.3541,-75.2643,-185.1463,-3.4616,-100.5569,-59.7462,159.4220,45.5753,53.6491,1.1024,21.6283,-58.3046,160.3686,-13.1885,-139.4680
-1250.0000,254.9932,218.7456,181.0283,152.8996,97.6878,-64.5032,36.1122,-146.8618,-39.0617,-247.3207,15.2923,86.7015,83.4215,-40.1869,-34.6673,-161.1996,293.0123,-192.1732,-224.7849,-175.4294
-1242.1875,76.3883,110.0199,95.1834,44.1579,12.0299,-17.8702,-50.5762,-121.6335,-14.7317,-75.1254,2.2945,74.9382,71.2280,-15.2569,-47.4959,-101.0519,149.2421,52.2473,-86.4200,32.5362
-1234.3750,-10.1333,93.3638,122.4043,62.4777,113.4265,-28.6282,-22.2080,-94.3629,-60.3692,-10.9184,30.3624,29.2267,-9.8920,8.3892,-56.2733,1.1231,-7.4270,70.6590,-68.0280,-160.4570
-1226.5625,174.0763,172.4437,122.3628,71.5329,39.5653,-43.1797,13.9003,-131.3548,12.7401,-267.9541,29.1836,65.2698,99.7521,-50.4037,-20.3007,-182.9363,388.6452,-201.1635,-163.8720,59.3095
-1218.7500,-42.0169,27.2295,-28.9721,31.2972,-74.5851,26.8073,-99.2981,-98.6479,-27.4620,21.7052,-11.2890,135.0208,-12.9027,71.5215,-23.6478,69.7152,-74.5897,179.7086,41.9768,18.7426
-1210.9375,185.7145,148.8338,67.4913,152.8719,-14.9445,10.4534,-3.7074,-3.1467,-77.8721,-102.8678,48.0443,84.5753,-63.7341,-9.5133,-74.2188,-127.8460,188.0213,-120.6490,-117.3876,-106.0151
-1203.1250,102.4779,100.4791,6.9919,69.4947,-110.2548,30.9932,-62.0890,-61.6086,-27.2437,-51.3800,-48.5661,98.1914,-49.5080,2.0720,-59.7476,-113.3309,209.6454,42.0683,9.3208,91.2557
-1195.3125,-93.0793,45.7872,34.1598,84.7761,-47.9050,57.9933,-109.8085,0.5736,-110.9699,84.7177,-59.5134,88.4527,-131.6142,86.5767,-107.6233,95.8132,-21.0511,163.3895,60.6601,-139.8453
-1187.5000,78.7514,147.4887,96.7159,115.4543,-21.1592,23.8741,-10.1377,-9.8561,-85.2990,-219.7838,40.9387,41.1189,5.6944,-15.4677,-82.1019,-135.6418,397.6327,-156.8690,-119.5941,-3.5352
-1179.6875,-62.8286,5.7927,-16.1244,44.7421,-60.8057,60.3698,-121.8766,-85.6822,-87.0466,-75.6807,0.9903,75.3937,-33.3944,50.9391,-83.9951,9.5229,9.9024,264.4680,125.7482,30.3397
-1171.8750,50.8684,118.3651,110.2996,122.2867,102.7971,7.3831,-34.3682,-70.2632,-71.5554,-171.3546,16.2907,53.9225,-54.2126,5.2759,-105.6533,-86.0739,157.4828,-9.9919,-7.6838,-138.5321
-1164.0625,-20.5594,82.8259,25.6117,51.7233,-18.7080,19.7531,-43.9811,-43.9485,64.8290,-107.1043,-67.5133,6.3559,9.8742,-33.8955,-6.4180,-131.7430,227.9382,24.4717,26.7967,71.4846
-1156.2500,-165.8648,-62.5995,-80.9650,11.2698,21.8985,27.9701,-40.4919,32.4695,68.3029,189.2237,-64.2058,-27.1137,-95.9307,15.8955,33.9110,54.6770,-199.4728,230.9916,128.3523,-109.4214
-1148.4375,107.1228,69.2745,-21.2512,38.1121,45.7997,-12.2110,92.2900,92.1705,55.0765,-8.1717,32.3999,-77.2722,-35.4139,-91.0960,20.5402,-179.6108,249.4385,-164.1904,-91.7905,-13.0086
-1140.6250,-144.4157,-42.3530,-105.0381,-38.5398,-38.7956,44.8432,-28.4301,44.3632,43.3354,164.9341,-52.4909,22.0773,-82.3979,16.1978,8.6629,-7.3745,-38.1770,181.1359,113.5745,85.8776
-1132.8125,-189.1278,54.8338,76.9783,93.6153,70.4013,35.3188,6.6513,43.3553,5.3874,15.8221,-17.5785,58.2232,-119.5798,17.0135,7.5754,-81.3488,59.0630,-3.7836,-1.2775,-99.4353
-1125.0000,-70.6603,102.2065,6.1726,69.9639,-36.2159,30.9584,9.9128,9.5525,81.6342,-91.0636,-14.4763,60.5751,-6.5657,-19.4620,10.6757,-152.1007,246.4742,-96.4732,-58.9046,123.4468
-1117.1875,-61.5271,5.2404,-160.9736,43.9738,-57.1731,42.2282,-84.1796,26.4011,61.5263,145.6849,2.2854,40.5795,-98.9057,42.5197,-46.5815,84.7891,-200.4460,193.4537,55.0982,-44.0483
-1109.3750,192.6593,119.3305,-43.0712,87.0328,24.9109,-19.9950,70.7749,34.2863,69.4683,-67.5353,10.0958,-24.3592,-53.1842,-73.9466,-38.7880,-165.2819,228.7118,-185.5814,-147.8555,-36.4774
-1101.5625,-151.0764,-14.4871,-78.0754,-10.8081,-46.8993,36.3557,-1.1825,-1.7311,107.4896,43.3598,-61.9921,12.8081,-15.3720,-4.3818,35.0941,-53.2220,24.9354,173.5057,0.3000,111.1702
-1093.7500,-252.2451,24.2614,81.4838,63.9100,75.8430,38.1174,-24.5896,47.8031,-62.9510,56.7822,60.4721,26.5200,-38.0074,43.9711,-61.4847,33.3767,-41.2424,71.0968,-101.0169,-96.6277
-1085.9375,68.4093,64.8400,150.8799,33.4697,-1.5733,16.3992,-65.1611,43.1782,-103.5374,-93.9324,92.7777,22.0852,32.2021,-20.8859,-102.2119,-117.1653,281.4124,-168.4327,-200.4569,119.4413
-1078.1250,43.2619,-101.3763,17.4831,-62.7688,-24.7779,20.8979,-161.5269,20.7449,-89.9266,139.5398,70.2872,36.8506,-100.3930,53.0875,-52.7403,116.4913,-166.7220,156.2291,19.2988,22.6818
-1070.3125,176.2791,66.5676,158.2359,0.1460,79.1640,-39.8406,15.2556,14.4538,-23.1642,-123.8623,26.9395,-43.2296,-31.8352,-44.6298,14.8803,-73.7102,177.3314,-202.9771,-129.8054,-20.9207
-1062.5000,-48.4307,-17.2007,25.2775,-13.6434,-16.5926,0.9140,-7.6742,-82.5366,63.8929,-36.9369,-70.1104,7.9915,54.9992,-4.1441,64.8012,-22.5803,57.6406,29.1470,-37.5974,175.7579
-1054.6875,-107.3813,-40.2070,-25.9209,-1.6702,42.4078,-5.2570,15.1549,-22.7706,13.6965,95.7174,-10.4107,29.9581,-67.4113,47.6839,14.4665,110.2791,-141.2609,40.9797,-25.6584,-58.8184
-1046.8750,197.9976,53.1308,27.2210,21.6479,-13.2543,-26.1388,68.3193,-5.6603,29.8425,-70.2609,5.6307,-25.7148,-13.4638,-62.4878,30.4685,-129.4971,199.1750,-180.8224,-142.3581,104.9733
-1039.0625,-18.4180,-127.3303,-85.4260,-87.8285,-53.7079,8.3439,-9.3253,-10.3541,26.1790,145.9604,-35.1189,6.8166,-16.3263,27.7697,26.6630,86.9427,-227.1987,199.5573,98.1345,63.9384
-1031.2500,69.9929,31.0201,121.7318,34.5001,80.6368,-25.6242,51.8304,-22.2617,-22.6848,-88.0515,62.9341,-4.8541,8.6100,-25.1309,-22.3406,-72.8304,71.2690,-99.2960,-59.5919,-59.2786
-1023.4375,-28.4768,37.5046,9.0284,6.9710,-31.8740,16.0223,-23.8753,-62.0296,-25.4029,-126.8961,23.1279,28.6270,79.6829,-10.2284,11.8115,-75.4201,148.8446,13.0370,-18.1478,157.6450
-1015.6250,-130.3808,-28.4530,-15.1186,10.0007,54.1733,5.6517,-11.0212,-49.2478,-86.5694,68.7899,-0.1235,41.6501,-15.7019,60.4595,24.5098,121.5373,-164.0038,86.8766,20.8237,-49.8960
-1007.8125,197.8532,88.7313,64.8688,57.1695,24.3606,-21.4429,68.9711,-42.3230,-42.5827,-181.3763,5.7694,11.8281,65.0681,-42.4709,30.3558,-128.3452,270.2887,-217.1260,-108.0486,66.7308
-1000.0000,29.1690,-44.9882,-38.0489,-6.5607,-41.3437,16.9277,-33.9457,-108.2983,-71.5057,8.5658,-24.2327,56.1098,35.9259,30.4832,0.2911,24.8970,-109.3496,210.9728,110.1784,73.4320
-992.1875,83.9904,44.8014,100.5363,83.2120,60.4529,-3.2456,-6.3594,-7.7813,-117.9300,-36.0216,41.2668,10.8917,-8.7014,1.7158,-8.2760,-20.3739,14.5494,-51.4655,-47.1153,-119.3529
-984.3750,-20.7216,44.0721,15.5998,12.4779,-60.2548,3.3978,19.7131,-17.7772,-17.8531,-10.0933,-6.7375,0.1838,17.1688,-22.4791,53.6570,-67.1166,155.8978,-86.3685,-10.8908,126.3592
-976.5625,-167.8663,-68.0906,-58.7858,-64.6956,-24.4058,12.4538,-17.6633,54.7752,-56.2332,209.3616,29.8234,0.0238,-92.4068,27.7084,54.1361,78.6839,-202.1928,117.2423,121.8559,-21.3971
-968.7500,172.4415,63.1952,36.2707,-4.4230,-3.1203,-5.3162,77.3991,75.7632,-70.1749,-62.7419,87.8404,-15.6816,-69.5182,-43.0255,-34.9356,-119.0654,209.1664,-208.6949,-62.9482,73.3196
-960.9375,34.0362,-76.2326,-77.3797,-72.8588,-115.5315,57.1943,-73.2524,36.0498,-110.8344,79.4747,47.1726,18.9146,-72.3340,52.7480,-75.7145,96.5067,-105.2165,177.6840,77.5534,179.3145
-953.1250,25.0451,-14.2501,-2.6212,24.1132,-4.5431,39.0889,-72.5055,72.7351,-147.0957,44.0651,84.9161,-17.0949,-70.7349,41.5704,-112.1001,98.4581,-79.1627,29.4326,-0.5710,-40.2846
-945.3125,55.7718,-53.5318,20.8672,-50.1735,-54.8182,16.7377,-12.0274,23.1636,-50.6063,-43.5792,-38.5808,-67.3464,62.6193,-34.4477,-51.7394,-61.8118,198.5975,-45.0302,31.0641,165.8707
-937.5000,-162.9927,-167.3089,-56.1399,-93.9542,-20.5820,34.7327,-52.0431,20.0905,-16.6266,137.2661,-41.5591,-33.0965,-11.5246,42.3939,-17.8812,119.4289,-231.1452,262.9755,198.1793,16.5051
-929.6875,113.3084,38.9641,86.8933,7.3096,48.6899,-10.4999,53.9832,15.0634,-21.6007,-160.8432,64.5211,-0.7936,-52.6153,-30.2118,14.0226,-106.2793,186.1765,-128.9817,-88.6608,11.2129
-921.8750,0.4325,-3.9255,-38.2327,-0.5763,-76.1865,38.4612,-71.1591,-36.1132,-72.7396,-29.0795,48.4486,57.3665,-28.8755,23.2356,35.7729,-10.1009,2.3012,142.9340,-26.6317,142.7485
-914.0625,-19.7785,10.8491,-11.6947,49.1962,-12.4070,23.5636,-44.6427,26.3568,-157.2348,70.3035,150.0354,48.1721,-38.4820,38.5815,-47.8261,53.7106,-123.8818,88.4536,-80.9770,-88.0682
-906.2500,73.8827,69.5135,-32.2763,37.8604,-69.7318,8.2159,7.7568,41.7094,-103.8387,-23.4074,128.5252,-9.1135,124.8163,-48.6292,-31.5302,-113.5542,146.8044,-98.0964,-162.4075,111.0262
-898.4375,-218.4615,-82.8247,-151.8602,-9.4688,-43.0475,51.5162,-74.8468,33.0620,-112.4530,186.8818,83.0276,18.5996,43.1017,69.7594,-5.2373,171.1988,-322.5256,241.3433,0.1508,28.0951
-890.6250,-60.6948,40.9394,15.6491,44.2988,15.7262,8.6099,19.6460,90.5103,-92.9699,-49.7404,177.6268,-33.5891,64.4854,-7.5107,16.1563,9.0467,12.2659,-127.1326,-227.1964,-24.7152
-882.8125,-82.9103,-52.2688,-91.8070,-48.8929,-91.4537,41.0058,-51.8231,57.0111,-53.4441,26.7178,105.2760,-67.7227,67.9010,7.9984,18.5961,83.9853,-115.9481,95.4755,-74.4759,197.5099
-875.0000,-93.9578,-133.3142,-94.0957,-59.9273,-19.4736,18.6664,-16.1366,91.6586,-91.7734,172.3041,105.0851,-105.7110,-5.5304,30.0467,-19.8155,195.0667,-336.9847,119.1884,20.3701,-24.1234
-867.1875,32.7293,-41.6227,-41.6457,-73.2227,32.2499,-5.0850,35.2891,106.0441,-39.3507,3.6452,45.6452,-89.9473,119.7900,-37.3891,-41.4716,-11.0828,69.7036,-176.3267,-64.0245,137.0112
-859.3750,-277.3401,-210.6854,-142.9458,-172.2667,4.2319,43.6754,-65.0386,115.6746,-103.6805,269.2406,18.4677,-43.9361,56.3462,70.1494,-32.8802,219.0444,-310.3932,216.4059,187.8230,72.3747
-851.5625,-125.6983,-59.0425,22.4509,-55.6064,134.9080,-6.7253,63.3355,134.9978,-122.3074,67.5110,74.9959,-98.2223,39.6046,-6.1153,-13.5859,54.8726,-52.7637,-124.1936,23.3439,-92.5388
-843.7500,-69.4882,-108.8109,-74.5645,-105.3554,0.1811,-0.5703,38.2948,72.9046,0.6559,42.3981,13.1287,-84.8995,89.4525,-19.8210,34.3142,30.3437,2.4076,-68.1643,114.4770,103.1462
-835.9375,-104.1155,-144.4190,-139.4188,-104.9492,9.6127,-0.5648,11.4128,119.9531,-26.2400,199.4136,23.4242,-75.4332,-10.5523,31.3441,44.3665,187.9653,-313.2594,36.9739,219.7386,-108.0274
-828.1250,158.1478,-22.1425,-54.3907,-53.6560,21.9327,-36.9666,97.4231,94.8960,21.7694,-9.6624,35.6119,-100.0667,2.3428,-42.7309,19.3204,16.4986,89.9515,-297.9765,25.9091,13.7242
-820.3125,-170.2031,-139.4789,-214.9714,-99.9658,-65.3425,29.2999,-28.1733,80.2381,44.1735,233.6752,-124.7954,-4.2954,-11.3846,85.0566,41.6731,260.4641,-309.4836,76.4798,188.4834,35.8556
-812.5000,-153.1400,-52.4074,-78.1523,-13.8692,34.7764,15.4268,72.6286,179.9725,33.9815,149.3925,-135.7966,-51.1262,-57.7176,51.8101,31.4260,176.8244,-151.4887,-153.6989,30.4348,-158.5969
-804.6875,-140.4665,-39.7063,-38.7007,-36.1366,-35.4582,14.5624,75.0658,72.3515,73.4379,4.7888,-132.1471,-11.3067,19.5841,3.4684,107.8315,-4.1252,72.0980,-105.1901,7.0521,64.6033
-796.8750,-269.6824,-133.9051,-55.1366,-60.3017,58.4222,-7.2314,58.6108,18.8243,19.9921,172.2667,-75.3897,-27.3918,3.9779,48.6152,91.3355,164.0260,-304.2163,116.3952,123.7539,-136.1134
-789.0625,13.7473,44.5350,54.0687,-21.8252,94.9462,-56.0180,131.8041,54.9315,56.2002,-85.6172,-38.9877,-63.8330,78.0272,-51.4534,53.4939,-56.1615,121.1101,-302.3630,-84.8945,-63.1561
-781.2500,-185.7936,-84.9915,-124.6887,-116.3056,-46.4740,-26.1427,25.0347,-13.9227,171.4510,65.5684,-70.5368,-22.2226,83.1092,6.6144,94.7037,95.7513,-219.5804,23.9486,102.5123,87.8293
-773.4375,-171.4679,-34.6587,-63.5906,-30.9350,13.9606,-46.3486,87.1211,10.0685,195.5442,16.5803,-10.2336,-70.7690,-1.9655,-14.5771,119.7643,84.5210,-239.4026,-65.9287,11.7419,-108.3267
-765.6250,-31.6750,-35.8438,-75.0081,-32.0762,-70.1134,-39.8700,111.6924,-1.4465,257.1283,-30.8824,-57.4337,-81.8125,23.4477,-72.0158,107.3318,-73.1841,73.2282,-173.2681,-24.5051,100.0318
-757.8125,-184.0744,-154.2328,-118.6249,-80.4148,-39.3795,-3.0839,-3.9347,29.8445,141.5083,183.4577,-100.8242,-51.0599,-17.3541,9.6630,101.6998,104.9178,-289.3517,166.1708,139.0337,-52.8249
-750.0000,47.3299,43.1742,51.5412,47.0376,21.1408,-28.4056,92.2338,51.9316,17.6941,-51.4049,-40.4151,-64.5018,6.6426,-57.2931,50.8703,-92.1674,118.8675,-234.6006,-86.6377,-66.8524
-742.1875,-67.3950,-71.5410,-112.4114,-31.6185,-106.4383,37.0409,-34.7072,70.9094,-36.2236,151.6552,-94.1000,-8.0437,-10.4793,26.6788,32.9459,74.6902,-102.0733,36.5554,44.6034,99.0091
-734.3750,-120.0048,-19.1458,-84.2567,19.8276,-4.9179,38.0498,-80.5394,136.9807,-82.0417,179.7948,-29.6761,20.5093,-91.5051,62.7016,-47.8666,140.6355,-225.8899,18.7719,-8.0801,-130.0258
-726.5625,-24.0935,77.7841,6.4278,45.8148,-58.8597,39.3542,-25.8321,117.5914,-63.3102,-22.4972,-11.7009,1.6227,0.0074,-6.3897,-66.1286,-60.8461,186.8042,-165.4222,-122.2006,71.5048
-718.7500,-261.2357,-55.3335,-55.9337,-16.2428,-84.8393,63.7738,-124.1765,55.1504,-53.6430,209.1608,-73.7656,50.6856,-61.5445,93.3565,-56.4540,171.6429,-226.5883,193.3384,96.6192,8.9633
-710.9375,48.9281,79.8492,52.0009,48.9954,23.4778,4.6717,-17.2261,89.0038,-55.6784,-13.8921,-1.5279,12.0443,-62.7916,3.4331,-21.4771,-13.5742,83.3211,-162.6084,-155.2723,-67.2536
-703.1250,51.4626,13.4043,-64.6848,-18.3801,-129.8055,25.8370,-60.8853,45.2506,11.6794,52.4818,-44.8884,41.7978,5.3500,15.3036,8.9134,16.6448,-19.4369,14.8870,-116.7437,145.9225
-695.3125,-5.2249,25.7056,-79.6086,64.9933,-71.3220,30.1812,-75.7794,67.2388,-77.2139,185.5804,50.5162,101.2940,-82.7565,68.9635,-42.9386,113.6055,-252.4296,28.0950,-139.4837,-52.1529
-687.5000,116.7264,183.6400,40.1030,116.9991,-61.1945,18.7446,-29.0269,39.8613,-67.4499,-62.6645,59.5750,73.4415,37.7856,-20.9354,-70.1247,-133.7640,221.1922,-236.0267,-262.5645,140.4483
-679.6875,-192.8352,15.0667,-63.6926,19.5037,-54.5614,59.1896,-96.7741,-27.0242,-24.1861,89.6052,30.1495,80.0899,-28.1969,59.6151,-26.8025,56.4019,-158.7312,227.3517,-10.1490,146.5332
-671.8750,100.1095,95.9934,66.0071,100.5037,75.5681,10.1570,-4.0142,-45.4191,-79.4121,-146.6389,50.2268,64.2303,-45.6781,8.9224,-44.9692,-69.9289,97.8632,-42.8059,-138.2439,-17.8565
-664.0625,215.0589,69.9367,30.7300,40.5343,-33.2584,16.9630,-76.2157,-80.7683,-40.5769,-145.7991,-21.6534,29.4215,-6.1262,-21.5754,-43.0774,-104.1548,177.4397,37.1251,-59.2655,166.8068
-656.2500,82.2178,-26.9138,85.6523,12.7666,59.1196,2.2369,-94.2097,-61.9150,-95.5425,20.2274,-2.3337,11.8127,-60.3878,30.9316,-60.9856,62.8308,-131.7867,151.2268,53.8904,-71.3389
-648.4375,260.6133,115.4762,229.8026,85.2387,56.7310,-31.2246,13.0362,-64.8231,-25.2497,-203.4919,31.2299,8.4554,10.5965,-63.3979,-27.6376,-195.9124,292.2106,-198.4064,-154.6967,35.7929
-640.6250,-29.7093,-33.8520,69.2390,-28.9972,7.6532,2.7147,-109.4232,-114.4343,-0.6630,40.1056,-17.9039,32.4002,-1.1379,15.5238,-2.9904,11.6818,-104.5532,213.2814,81.0256,96.2065
-632.8125,144.3842,34.2207,115.0766,39.1597,89.9741,-14.1505,-64.4729,-32.6567,-28.6711,-23.9157,-9.6278,4.7352,-28.4762,-3.9780,-67.9328,-15.3296,-35.9037,71.3395,-59.8639,-115.9636
-625.0000,206.7924,61.6151,60.2424,66.6523,-36.3669,26.4496,-81.1813,-13.5397,-9.3232,-114.5541,-62.0027,24.4187,27.5211,-31.8101,-84.5136,-140.9529,167.0276,28.7927,-102.3777,87.2217
-617.1875,-25.2925,5.5080,8.9081,45.6427,-15.1946,36.2679,-134.3848,-28.9194,12.5253,53.3037,-77.8608,83.5951,-59.9976,59.7425,-63.5885,64.9409,-205.5602,218.7180,86.5909,-75.1083
-609.3750,150.7730,146.5392,115.7070,116.7670,19.1166,-15.4200,47.5621,-32.1588,83.5351,-168.6816,-43.5687,7.9175,-25.3679,-62.9135,44.4955,-192.9992,250.9796,-167.2073,-122.2882,-4.2584
-601.5625,-86.9288,-20.2054,-27.2621,-14.8704,-87.3228,29.4159,-22.2498,-65.1550,159.7934,17.6081,-113.0197,47.4884,-20.5063,19.6491,83.8375,-5.6434,-58.3041,227.1436,95.0968,108.8278
-593.7500,-118.8149,16.8573,22.5686,58.2912,37.0399,18.3937,27.7480,-15.3594,100.8491,31.6715,-61.6612,25.8527,-116.8370,26.2726,-12.0137,9.5108,-55.7732,125.2611,64.2623,-134.2776
-585.9375,86.7161,117.3466,6.8290,87.8900,-14.1577,19.7825,49.1816,-30.1304,85.3557,-129.7953,-75.8515,10.6711,-20.7303,-49.4609,-26.4048,-187.8449,255.1510,-20.1269,-12.1048,71.0786
-578.1250,-48.1498,-52.5630,-54.3039,-11.9071,35.2574,19.3118,-48.7798,-55.3026,-12.5407,102.3343,-64.4255,-12.9065,-45.0437,17.8471,-14.1934,45.4316,-127.3499,301.0795,170.1146,-63.9847
-570.3125,157.3950,46.9286,160.9520,17.6926,140.0601,-33.8952,55.6582,12.9183,-18.0300,-124.1333,40.4075,-55.0819,-12.9674,-76.2523,-19.5696,-178.8693,253.5389,-126.3188,-82.2826,-69.6189
-562.5000,3.1208,-72.4011,62.3866,-66.5150,43.0594,-4.8380,-3.7144,-47.6628,31.6812,-36.3623,-18.5514,-41.0580,37.2963,-27.4392,30.2640,-53.9270,62.5467,70.5113,79.5334,126.9425
-554.6875,-13.9371,-88.5279,93.0207,-47.5243,110.2646,-35.9698,25.1232,-55.0484,24.5909,-6.4092,47.7031,-10.8448,-42.2320,10.3860,60.3052,50.2095,-94.2358,54.4979,28.5276,-100.2874
-546.8750,182.7284,72.0624,68.3780,8.1902,49.1996,-28.4178,74.6950,-78.7027,37.2539,-250.6878,60.7106,-33.8834,7.9831,-54.7836,36.0975,-118.8776,277.6722,-99.7402,-125.7147,96.2537
-539.0625,-93.1537,-63.9087,-34.8254,-22.6503,20.5883,16.3825,-64.2864,-107.9097,8.3596,13.4868,-4.8168,9.5228,15.6270,32.7257,7.3417,73.5162,-141.0156,291.4775,89.4906,30.2280
-531.2500,108.7270,32.8690,145.7119,39.2537,127.7164,-42.9263,78.4840,-76.3797,5.2209,-137.6031,-7.5855,-30.3248,86.0165,-50.1323,4.3469,-113.3426,201.0482,-69.5681,-95.5607,-84.0208
-523.4375,115.6249,-29.3278,144.2783,-58.8067,52.8920,-44.7661,40.2913,-113.8124,40.1267,-63.6143,-44.3070,-67.1183,85.4363,-67.5002,39.4134,-112.1037,172.0846,43.4776,17.4603,98.7765
-515.6250,57.1841,-53.8667,166.4920,-47.2175,113.7216,-43.9658,-10.2424,-54.6011,-10.3201,69.0132,51.6370,-8.2665,-37.5028,-14.7196,26.1325,-15.2069,-98.2332,126.1435,65.1118,-135.7772
-507.8125,215.1776,104.0252,214.1314,4.8056,50.9874,-59.3332,37.6651,-44.9521,74.6860,-176.8957,100.0327,3.0358,10.0084,-77.1358,74.3096,-185.8351,269.8527,-207.7120,-92.7735,22.1466
-500.0000,-18.0347,-58.2999,43.5586,-16.3817,-44.9407,3.5439,-22.6239,-103.5070,88.4919,57.0096,40.2421,54.1353,-12.6951,81.9520,51.2955,196.3657,-139.3236,122.2449,96.1456,35.8520
-492.1875,185.1203,38.7202,152.3344,45.7753,63.4784,-44.6910,49.4436,-69.7205,12.6623,-128.7448,112.8106,15.5774,22.9475,50.2045,-23.3531,159.9099,62.8553,-237.4753,-52.5983,-113.0692
-484.3750,154.4920,7.9606,35.3294,-18.8335,-13.8647,-50.5670,43.7502,-111.6908,81.0911,-133.2105,-2.3715,-24.7320,91.8187,12.2766,44.2619,118.7496,101.2016,-232.8937,-12.0632,102.2653
-476.5625,-111.6818,-81.3488,-49.2242,-38.9967,11.2538,-39.4575,32.5161,-87.2133,106.9717,38.7628,-13.0958,-36.5960,-28.8610,72.9125,33.3299,293.0430,-235.0067,-40.8805,108.9103,-92.9591
-468.7500,90.8452,85.0312,46.9027,22.5284,34.0595,-77.1700,128.9786,-101.0545,166.5605,-231.5641,46.8830,-13.7620,-5.8353,-5.3692,20.0996,60.0504,176.4586,-401.1443,-110.4087,3.5414
-460.9375,-123.9821,-58.9585,-70.3278,-51.3023,-9.4780,-36.1858,11.0842,-145.2523,159.7964,-18.2254,2.5229,52.7243,-48.1848,94.6544,86.5255,274.7452,-145.4952,-88.7334,59.9281,69.6705
-453.1250,-67.1900,-38.3441,33.0380,-30.5373,95.5834,-73.2907,79.7985,-40.8568,117.6372,-23.3019,34.7698,-25.1949,-90.9438,64.6938,81.5614,271.0424,-89.8384,-347.7550,-23.1531,-119.5830
-445.3125,-10.2370,-16.5549,7.5776,-79.5912,-2.1633,-60.7504,90.6989,-29.2673,165.6798,-48.1385,-25.7831,-49.9150,-41.5116,48.3856,55.8081,246.5809,105.9478,-432.5307,-37.0111,112.3737
-437.5000,-179.3757,-81.8695,-125.9858,-37.7463,11.9973,6.0308,-4.4950,-15.7760,33.6206,112.9256,-48.4242,38.2602,-101.1766,214.3478,34.9617,595.0256,-310.3890,-179.4245,110.0198,-56.7824
-429.6875,144.3918,66.6988,-7.6603,39.9842,57.0530,-63.3663,113.2126,-45.3989,-32.5253,-209.1172,-3.1616,-27.6696,18.0684,92.4778,6.0256,346.3725,118.1561,-628.4087,-93.0438,-49.0094
-421.8750,-52.9050,-95.8055,-109.3995,-87.3479,-43.9381,-66.2855,47.8680,-147.0816,-23.7194,-90.1859,-66.9414,-18.6503,26.2424,92.0400,51.0502,356.7100,-151.4238,-298.4055,60.8576,69.6965
-414.0625,-110.2809,-82.4049,-49.2377,-38.7836,16.9743,-79.4482,73.4334,-85.8660,-36.0110,-29.3685,-5.8129,-66.7354,-131.6923,74.7472,39.9780,345.9459,-280.0957,-284.5335,4.6421,-162.6909
-406.2500,-27.8950,-0.2287,-82.3059,-26.4340,-89.3258,-54.9936,75.7889,-46.8601,3.5110,-98.7267,-38.8883,-63.0173,-90.8320,-7.6484,42.7166,93.0220,11.9667,-341.8184,-51.7492,60.7395
-398.4375,-207.5176,-75.0590,-229.3761,-30.0885,-161.6179,2.3741,-33.8449,-9.8628,5.0399,121.9174,-37.9586,47.6969,-162.9758,99.2247,7.4709,279.1156,-449.9997,5.8875,83.8537,-48.8462
-390.6250,67.5784,130.8056,-124.7566,68.9470,-130.2222,-51.5493,35.2273,-14.1787,1.2790,-139.7445,31.6756,43.1109,-57.4206,3.7432,3.9360,55.9064,-105.2677,-350.7105,-132.8441,-89.7060
-382.8125,-22.6408,3.3461,-191.4619,-21.3246,-196.1299,-24.1164,4.9872,-81.7987,43.2214,-58.6729,2.0114,13.2254,-13.1885,13.2057,46.1091,100.4417,-197.9192,-55.5613,-11.8212,100.1222
-375.0000,-25.4933,-68.7593,-111.8165,-59.2472,-41.6810,-70.2969,12.1101,-75.0708,14.5192,-14.2659,120.7045,-15.3190,-42.6080,23.5526,17.6383,184.3266,-342.2197,-57.0938,-49.4617,-112.6979
-367.1875,154.0263,39.5132,-7.7991,-19.7896,-83.8469,-71.6591,42.6252,-80.9505,45.2247,-203.4324,77.7997,-57.4584,61.3731,-64.3907,12.5797,-40.3639,116.8287,-264.1915,-221.6827,101.9053
-359.3750,-11.4057,-125.1716,-68.7383,-115.2871,-107.9524,-28.6787,-127.8042,-68.7823,-51.0142,102.4556,53.9601,-44.5487,1.3872,15.1757,-47.4150,157.0139,-260.1201,133.7622,0.1434,77.5408
-351.5625,193.9361,8.8897,75.0556,-16.0399,0.6806,-58.9171,-56.4767,-34.8759,-126.4922,-82.9193,126.8793,-46.8964,37.1474,-47.4965,-86.6446,-26.8543,12.6823,-153.5477,-145.2907,-34.0435
-343.7500,127.3956,13.0711,-40.0278,-46.6632,-113.5470,-4.8428,-134.0069,-76.8230,-130.8162,-50.0984,85.9503,22.9073,70.0392,-4.6449,-89.7199,7.4742,-19.4459,62.3452,-70.5484,181.5218
-335.9375,-46.5329,-21.1412,-65.5081,-10.6855,-28.1702,3.7186,-122.9299,-65.1700,-119.5330,72.3095,98.6302,35.3079,-28.4686,36.4804,-78.1877,94.3941,-265.9732,239.8159,35.7750,-63.3177
-328.1250,35.4271,96.5295,51.8929,36.1774,16.0967,-29.6278,-4.9559,-57.6311,-37.3450,-102.3747,70.2087,-30.3932,52.9254,-72.6841,3.2572,-152.7741,166.3658,-63.7809,-161.9805,54.7665
-320.3125,-119.8714,-94.0639,-73.9620,-49.2182,-34.8760,21.8300,-92.2300,-73.3474,-52.4127,65.7036,-18.4516,27.6549,38.0565,17.5907,-11.5459,16.8357,-201.5975,343.3887,69.0301,39.5788
-312.5000,95.1061,13.5947,47.4341,24.6329,87.3956,-25.1065,-8.2530,-25.8194,-114.2252,-31.9754,31.1484,-33.0521,-22.5643,-41.0908,-35.0978,-79.3088,-24.2989,65.7818,-67.7214,-132.3390
-304.6875,72.8114,-8.0241,-58.4448,3.2197,-17.5917,19.7921,-3.5431,-57.5463,-35.2816,-63.8721,-73.5021,7.9905,-17.4477,-26.6182,6.1064,-109.6645,93.6807,150.9729,16.2986,92.4984
-296.8750,-192.2648,-97.4409,-71.1213,-15.9899,43.6317,25.8855,-14.6229,-33.0776,-10.1355,145.4207,-84.9377,-2.7709,-103.1357,34.9320,-4.4834,64.1754,-244.1382,343.3411,103.5064,-102.4745
-289.0625,28.9581,52.4289,45.4905,29.0854,51.1440,5.8461,65.5973,46.6765,-40.6855,-68.9799,-41.0762,-70.2311,14.4808,-61.7136,-34.7620,-146.6801,151.3217,1.0339,-97.9729,-22.1213
-281.2500,-198.5369,-140.4207,-85.6056,-92.5495,-42.0357,42.1439,-64.8866,25.7277,-23.9357,168.9412,-59.9101,-52.3941,31.3783,-0.1736,-17.7296,17.7953,-218.9783,407.0600,131.8697,31.5110
-273.4375,-10.7659,-94.0095,10.5468,-81.9332,92.0369,-8.5900,31.8935,122.0168,-73.9258,119.0864,0.5128,-102.3113,-55.4750,-40.9488,6.5620,-30.4930,-174.0098,173.3142,73.9509,-202.5941
-265.6250,99.5328,-54.0719,5.2276,-76.7813,13.6535,-0.2952,64.2133,80.8433,32.6355,-32.1948,-40.5124,-69.6796,-22.7840,-79.2720,39.4082,-179.2075,110.4489,74.1769,44.6106,13.8586
-257.8125,-191.2001,-169.1859,-71.1389,-85.6795,48.2340,32.7905,24.4895,77.6239,30.1414,223.4790,-78.5771,-72.1020,-98.1477,-6.3221,37.2019,4.0289,-287.1575,416.9808,211.2074,-135.7572
-250.0000,30.9744,-17.4048,49.3762,-39.6847,96.6994,-12.7270,72.6620,125.2947,4.5593,51.0517,6.2590,-134.6265,23.3857,-98.5664,-24.0895,-166.8285,144.1290,41.6912,-23.2895,-124.4471
-242.1875,-54.3264,-173.0927,-84.5743,-125.1501,-0.2860,29.0549,-60.6201,101.5126,-18.4660,212.1991,-16.3556,-119.5928,74.4457,-52.0344,26.1785,-40.1007,-119.0994,343.9846,102.7852,36.3988
-234.3750,7.7945,-111.3748,-49.1197,-98.2193,111.1329,-20.3943,-24.4862,101.1291,-54.0870,175.7340,95.4382,-83.1687,37.9111,-41.8999,26.8494,-1.9913,-234.9083,195.6467,24.2469,-147.3487
-226.5625,84.0447,-0.5325,-17.5350,-57.1553,32.6924,-34.3033,7.7881,20.8956,50.4477,-11.5459,127.3801,-13.5989,106.5216,-89.9443,58.6747,-188.7103,86.3804,-43.4963,-74.1192,105.0693
-218.7500,-123.9473,-102.9442,-86.2042,-89.3440,1.0084,0.5295,-24.1811,-10.5832,56.7310,176.9325,60.0823,27.7172,1.8662,11.5833,102.2588,38.3344,-334.6073,276.1062,104.2597,37.2148
-210.9375,134.7254,49.2934,2.7629,-6.8857,91.9592,-48.4344,102.4999,-31.4174,73.6797,-63.9448,77.4383,7.6853,-18.1379,-57.6554,118.5067,-125.9797,27.0656,-62.6496,-23.7165,-19.9682
-203.1250,-15.1340,-30.9907,-88.7850,-86.9370,-35.5911,-14.3934,48.6798,-85.7545,129.1344,30.7055,-12.7073,64.1574,39.3463,-27.1596,101.2666,-104.7618,-89.8345,210.1352,107.8365,146.3376
-195.3125,-50.9722,-32.2653,-42.3273,-17.9887,47.8623,-4.7219,21.8786,-39.0933,29.5961,77.3341,34.1541,74.6230,-24.1650,14.8322,39.0278,-19.5622,-268.7162,244.8882,108.3792,-100.3551
-187.5000,125.5834,108.8423,-14.4934,52.3429,4.6975,-3.2393,51.4706,-47.0440,22.4699,-149.6192,64.4120,67.4876,41.7219,-65.3651,69.2029,-244.9411,81.7674,35.0782,-30.6564,76.3741
-179.6875,-189.3123,-66.5090,-158.1145,-16.7795,-64.9128,49.3456,-55.3833,-45.4453,-11.1067,147.9948,-5.7651,70.9002,8.1410,47.1277,72.9371,53.2457,-340.2352,388.8194,215.8621,42.6319
-171.8750,-21.1380,31.1912,-51.6856,46.1431,5.5166,12.6563,51.8137,62.2036,24.3748,71.6534,-6.8807,32.3617,-30.3878,5.1141,34.7233,-20.5285,-104.1688,-4.4076,-1.5846,-70.0348
-164.0625,-57.2355,-4.3840,-136.5260,-25.1975,-151.3141,34.8749,5.7462,50.6026,86.6065,172.0951,-53.2426,58.5759,-77.1682,20.4925,61.2651,8.4744,-71.4190,66.1628,67.7397,140.0506
-156.2500,-164.9139,-42.5507,-166.9581,7.8638,-70.7354,49.7647,-23.9082,95.3984,95.2425,217.9158,28.8104,66.1853,-178.5501,57.4341,69.2164,91.8612,-357.2568,205.1066,137.4480,-72.4657
-148.4375,39.8058,91.6738,-69.0049,72.3135,-44.7704,12.8601,73.8385,8.5759,120.2904,-124.8649,53.2593,54.1978,-7.5371,-30.0979,57.5771,-138.3452,91.2936,-81.5192,-43.4289,62.4434
-140.6250,-152.8305,-66.4644,-162.4066,-16.5912,-101.1442,46.8163,-54.7655,-47.5974,137.9827,76.0239,-1.6369,71.8613,-25.8891,47.5818,75.5832,64.1176,-244.5471,323.5307,149.3586,79.9789
-132.8125,121.3024,-4.8436,-16.0617,11.2564,10.2325,-24.3357,55.3886,-11.0202,28.4320,40.6485,110.2152,0.2652,-99.4816,-14.4702,40.3435,-6.6922,-113.6160,35.3112,36.8909,-102.7190
-125.0000,166.1541,-29.4990,-88.9908,-49.1641,-99.6530,-4.4823,19.2877,-10.6937,65.6407,6.0577,73.8104,1.4237,12.6761,-40.9501,41.8680,-76.7301,-35.9958,80.8940,82.2067,118.3324
-117.1875,-77.9860,-134.1489,-153.9138,-46.5822,-15.5290,18.6612,-80.7963,-0.3653,3.8496,237.4610,85.4165,11.5779,-14.1748,34.5981,16.4012,119.2247,-421.3708,330.4567,191.5131,-54.6334
-109.3750,95.4212,38.7425,-50.2934,20.5377,15.1378,-20.5710,23.6697,29.5102,-2.3849,47.4187,117.5742,5.2803,90.5182,-52.0270,10.4916,-105.2759,29.8027,-93.4095,-22.6173,12.9745
-101.5625,-104.8784,-127.0826,-153.3784,-75.0472,-49.8900,22.3983,-41.5673,-37.3124,5.6802,165.6971,51.0344,49.2819,60.4946,28.9578,18.8821,51.5379,-207.7733,269.0554,164.5719,93.8646
-93.7500,-25.2529,-47.9955,-25.5595,4.2694,78.9849,-2.4969,-22.8941,-19.2353,-48.3496,37.8587,108.3941,32.1803,7.3791,20.2154,2.1778,35.2203,-200.4140,139.3984,33.6464,-107.3310
-85.9375,74.7517,-17.5272,-78.3613,-0.0251,-9.7506,2.9657,-38.8280,-71.7677,46.0276,-87.5594,56.1481,53.4776,100.6625,-20.8604,23.8809,-88.6762,38.3020,65.1881,-5.8476,133.8821
-78.1250,-138.1264,-127.9543,-186.0576,-75.2109,-7.3748,11.7017,-73.6472,-70.2030,12.5101,173.1101,23.0102,56.8726,31.0394,80.1876,26.6894,209.5187,-353.8826,308.0622,166.7502,-9.8247
-70.3125,70.3004,10.9185,-42.4555,-6.1078,28.2935,-30.1817,35.8374,-35.3480,-25.6937,-11.9243,59.1767,-18.4303,29.7181,-11.3583,25.8077,25.9975,99.2465,-78.7578,-80.3502,-11.2043
-62.5000,-82.8515,-142.7735,-135.4110,-89.5618,-63.5902,31.7624,-56.2348,-18.0394,-6.4559,153.5234,-32.2010,0.7241,11.8270,43.2980,8.3753,119.9496,-92.2231,224.9141,118.0191,116.8517
-54.6875,-46.6762,-107.1504,-51.0590,-18.7081,58.8271,17.9167,-44.0025,30.5761,-104.9192,130.2518,53.7299,12.1773,-86.7572,56.9549,-15.7624,134.1772,-163.3588,121.8541,85.6713,-127.7878
-46.8750,108.4921,11.4576,-10.7277,30.1380,27.2289,5.6140,-2.7824,-38.8143,-25.3775,-122.0015,22.6524,53.6320,28.6639,-5.0385,-9.8952,-78.5827,165.4762,-109.1646,-4.6537,97.5873
-39.0625,-149.7883,-106.3836,-93.8444,-52.4614,-54.8129,23.6499,-85.0064,-85.6461,-35.2821,127.3040,-22.8692,82.6331,-17.3762,87.8231,17.5252,171.2022,-271.1475,266.3640,193.5726,15.4908
-31.2500,120.5409,22.3810,44.6397,6.5337,10.7391,-25.0855,17.3782,-19.8779,-42.5725,-27.7985,44.2097,38.2294,-24.8207,11.7894,-26.4406,17.5649,31.8624,-96.5200,-27.6063,-65.9819
-23.4375,74.8600,-56.8719,-82.8786,-73.4813,-79.7071,-11.7812,-73.2437,-74.1095,14.1356,65.1299,-8.7069,20.8291,-4.2809,16.4477,30.5953,76.9440,-51.1726,105.6337,68.2341,100.5342
-15.6250,-38.2838,-66.6095,-7.8809,-11.9849,-3.6451,6.8678,-70.3542,1.1583,-55.6550,179.5375,-6.1165,23.9270,-75.2345,60.2545,-38.8759,154.7948,-236.6781,169.2575,96.5560,-153.4539
-7.8125,13.1019,54.1980,73.6451,39.0526,5.9567,17.8029,12.0784,46.9766,-9.8975,-31.4900,-32.9840,-3.4181,7.3730,-19.7889,-29.7919,-90.8011,163.3430,-59.5303,-28.5519,3.1275
-4000.0000,-86.7159,-37.1384,12.6490,-7.5771,-30.4071,36.0533,-41.2025,32.7090,-22.6763,71.1533,-26.6689,11.7443,-48.1188,20.9497,-22.7231,6.4273,-49.0125,124.8896,82.2068,8.1641
-3992.1875,157.6561,103.0682,92.6078,97.1522,85.9850,-16.8414,37.8787,39.0135,19.7205,-106.0201,15.5258,-19.2717,-79.1106,-24.6987,-53.3720,-60.8297,196.0193,-225.1375,-128.7237,-133.1284
-3984.3750,181.8492,22.0896,-37.6319,16.6908,-43.8316,-5.6234,-18.2404,20.1123,110.9211,-50.4165,-76.4842,-38.4843,10.7036,-37.2969,-0.2209,-43.3109,185.8900,-127.3743,-66.8671,68.3983
-3976.5625,-38.3245,-21.2514,-72.2318,-26.1242,31.0007,-7.6169,19.2783,59.8590,112.7679,99.8641,-75.8488,0.9526,-60.8418,30.5383,1.5764,105.8839,-138.6259,44.0754,-2.3419,-150.4367
-3968.7500,143.6208,126.5197,41.2833,52.1708,69.9415,-52.3157,131.9065,25.7131,151.7168,-153.7770,-0.1082,-32.5131,51.7208,-88.6210,4.4679,-184.8436,254.9981,-298.4149,-169.7411,-37.1778
-3960.9375,-27.5499,-43.8175,-64.3171,-47.6450,37.7688,-27.8000,62.4256,-42.5363,192.5686,-0.5122,-69.4730,-28.0728,-18.8111,-7.1068,82.2662,39.3382,-91.4913,27.0297,84.7702,3.9995
-3953.1250,55.5238,41.0936,69.3298,2.7963,169.8566,-79.8901,194.1949,-19.5305,251.6710,-124.9866,-47.5880,-79.3792,-34.1058,-58.9456,104.3188,-49.2270,28.2474,-203.2677,-40.4668,-157.6004
-3945.3125,44.1136,29.5208,-26.5255,-43.2528,74.4363,-72.4941,208.4729,-77.0228,303.2786,-143.9810,-106.2062,-63.1856,91.1110,-91.9474,155.8728,-143.3196,122.5267,-141.0848,-14.2145,78.3162
-3937.5000,-92.6221,-70.3666,-120.6946,-37.6082,89.7160,-36.5222,150.4407,-61.8171,170.5797,18.7472,-18.1274,-11.2883,-4.9762,2.3688,134.1243,55.3104,-258.5323,148.8394,97.7627,-127.0741
-3929.6875,212.5199,94.6084,-22.9955,57.8960,76.8626,-51.9650,174.2728,0.2416,121.7298,-176.7014,5.8036,-23.5514,55.7882,-72.5378,47.2211,-141.2240,151.2958,-211.4223,-122.4327,-102.6276
-3921.8750,1.4667,-9.6199,-97.5039,-45.8062,-35.2000,-1.1969,24.8975,0.0924,82.6838,43.6471,-142.4735,12.9877,54.3633,-0.8019,46.1219,5.0437,-94.0692,144.1299,92.1699,-30.3583
-3914.0625,-25.5925,34.1521,-4.0145,-1.5039,130.7458,-27.8017,79.5167,55.9448,28.6282,64.0020,-124.7490,-41.4654,-38.0645,-7.3812,28.0172,24.3270,-85.4610,-19.3046,67.7663,-232.1106
-3906.2500,44.1719,34.7391,-14.7136,-36.3900,83.4901,-31.1223,141.9402,46.5966,127.3726,-55.8700,-135.2209,-89.1206,61.3188,-66.7224,53.7127,-96.6148,196.9946,-157.9715,-0.8593,14.9521
-3898.4375,-116.4352,-90.0394,-64.7750,-89.6377,105.8789,-15.4255,54.0060,32.8934,113.7705,78.9345,-114.0472,-65.1245,9.3511,13.1260,76.0583,110.1106,-243.9308,143.0481,122.1864,-109.3319
-3890.6250,166.8773,88.0924,85.0755,18.0213,145.1824,-69.0273,202.9810,-0.9023,79.0654,-212.3760,-0.9690,-62.2298,85.2837,-81.5710,41.3049,-145.2770,179.0683,-239.0632,-154.8878,-106.7349
-3882.8125,90.7011,-22.2738,-0.5809,-55.8180,58.9782,-52.9901,80.4542,-121.2019,66.8656,-148.1976,-13.3970,-0.8363,182.7251,-33.9702,66.0535,-46.1730,33.5876,5.3221,-52.4651,65.3864
-3875.0000,47.5608,5.4047,112.8039,8.3948,171.8300,-57.0220,8.9704,-82.4530,-41.2880,-108.9510,62.2247,2.6160,148.2083,-1.6038,-5.1475,30.0019,-43.8746,-34.2277,-127.9879,-152.4582
-3867.1875,181.9014,105.5579,134.6479,38.0746,83.1328,-49.9870,-7.0521,-96.2612,-19.9851,-269.2922,46.3068,-12.4821,206.1478,-62.1165,-20.8955,-131.4039,337.1636,-212.3654,-202.0901,53.1571
-3859.3750,-12.9257,-53.4442,47.3275,-14.3977,105.2784,-17.7000,-58.2370,-110.2272,-107.8376,-24.7717,32.2334,11.2806,154.9431,25.9537,-34.7946,74.0513,-67.9760,123.3894,-7.3321,-34.3679
-3851.5625,230.6595,120.9669,159.4211,54.5426,216.8374,-74.4458,52.9827,-107.7921,-106.3022,-279.8654,69.5677,12.4402,156.1421,-57.0252,-33.3010,-145.0923,247.2936,-227.4804,-148.1900,-106.5128
-3843.7500,144.3625,69.4783,24.6124,3.5786,81.4941,-39.9186,-8.6933,-168.2605,-20.6598,-229.8743,8.0016,24.6957,167.4520,-37.0924,14.2963,-95.1509,125.6965,5.7331,-21.9553,89.4684
-3835.9375,26.1997,23.1318,23.9413,28.7595,153.3038,-28.2499,-11.2249,-95.5810,-95.8704,-83.7121,42.5828,24.1102,91.9052,20.1972,-23.9551,49.9580,-96.7842,67.1235,-30.5564,-132.4152
-3828.1250,150.0191,147.7568,110.2296,82.9074,129.0691,-38.8933,75.2022,-82.9473,-47.1314,-289.6306,18.1180,0.4748,177.3122,-56.5309,-11.2560,-157.0055,308.7327,-226.5846,-221.2386,27.6506
-3820.3125,-101.6699,-33.1264,-40.9966,8.5495,51.3237,12.5016,-3.8779,-86.8180,-51.8936,0.9615,-59.8554,70.3423,135.2260,48.5714,20.9427,58.5424,-117.2583,157.2283,-13.4116,23.2306
-3812.5000,111.4495,75.7952,5.5854,81.9987,134.3907,-34.7514,78.8499,-39.8858,-41.8573,-135.6474,21.9782,43.0047,70.9388,-19.7454,29.9410,-79.1098,95.5520,-154.1738,-149.8001,-114.4141
-3804.6875,108.9374,110.0813,-113.4816,81.8001,-23.1912,1.7828,30.9366,-84.6118,20.5439,-143.9386,-23.8423,70.0163,60.0169,-13.6686,19.2934,-88.4390,129.7573,-47.2501,-112.8556,96.3133
-3796.8750,-43.0902,98.8554,-115.0590,106.0988,11.7326,11.4150,-43.4829,-49.8501,19.4448,39.2808,-26.1667,106.5308,-51.4047,62.0890,-18.8460,93.7553,-198.5712,85.2032,-53.3960,-125.4675
-3789.0625,73.8116,216.5399,3.2729,154.3027,19.5703,-4.6592,37.0153,-4.1849,64.2461,-172.6199,-19.5827,40.9413,29.0822,-30.9704,25.9160,-119.1688,236.0412,-250.4955,-214.0655,-7.3562
-3781.2500,-86.2871,-13.7808,-127.4073,30.4958,-75.5994,28.0110,-58.4936,-25.5220,42.0499,64.4841,-41.0075,56.3532,6.5760,43.5497,40.6814,79.9138,-98.3467,83.8189,14.2680,44.7726
-3773.4375,151.6684,49.9481,-17.0311,93.7439,-1.7080,-14.8875,-21.9489,13.1954,-67.1027,-7.3617,69.6193,20.8117,7.1180,-2.9672,-32.5045,7.0563,34.3086,-131.8215,-132.3556,-138.0747
-3765.6250,199.7519,98.7963,-12.5451,73.1019,-69.7097,10.3801,-53.2932,-18.9951,-99.1505,-111.1395,36.3397,62.3698,84.7773,-16.9477,-63.5923,-97.7307,223.1218,-115.3996,-151.9042,87.1939
-3757.8125,-46.3284,-6.5133,-76.2193,38.3072,-24.8589,40.2355,-119.7922,27.6558,-128.3553,118.9426,8.9069,71.7888,-16.7120,74.9548,-92.8284,131.3485,-198.2473,133.9030,26.4004,-87.6914
-3750.0000,107.0234,148.6003,46.5215,87.9298,60.4120,-16.4585,3.1216,40.7037,-79.1697,-88.6063,57.8844,11.6050,32.2099,-38.6651,-80.6686,-114.1929,237.8233,-270.4368,-169.9317,-38.1903
-3742.1875,21.4804,-7.1823,-82.6449,38.6499,-69.2230,34.0475,-90.8622,-16.1622,-61.8766,38.9300,72.9580,64.5230,-25.7518,26.7753,-27.4001,12.3616,-56.9931,68.3197,-7.1650,88.4330
-3734.3750,167.4321,69.5353,-31.3124,115.8752,18.6500,6.8732,-76.3448,0.4679,-158.0818,-18.0312,162.5376,80.9454,-84.2180,31.2489,-48.6285,28.4336,-87.3300,-64.4313,-104.8992,-116.4656
-3726.5625,292.9134,125.7660,-18.4733,102.6071,-78.9766,12.4545,-64.3184,-23.4022,-108.7731,-151.5129,99.6197,55.8639,36.8271,-24.1371,-73.3532,-106.0155,179.8888,-145.7373,-152.1628,116.1488
-3718.7500,-43.0138,1.5861,-69.0517,48.9295,-57.0116,54.4195,-151.6993,-36.6736,-122.8630,55.6263,12.3033,79.3819,-13.5293,83.6593,-88.4753,137.1521,-225.3230,224.5851,76.1873,-7.6322
-3710.9375,51.8943,132.2207,70.1833,145.0633,44.7684,29.5813,-51.2678,28.8579,-132.1592,-98.4559,40.7924,34.6950,14.9169,-4.3490,-96.7985,-91.8944,186.2927,-134.3361,-107.6871,-52.6321
-3703.1250,-85.6240,-5.5887,-42.0368,7.7428,-30.9091,55.4108,-90.2848,26.9310,-96.8992,46.9946,0.8303,32.5578,10.9283,33.2618,-61.5679,15.5996,13.4814,117.2770,37.9776,91.9426
-3695.3125,19.0471,-40.2042,43.9389,9.6242,91.6185,9.2966,-79.1027,40.2007,-159.4358,60.6599,86.0756,-28.3786,-50.8634,20.5406,-87.1363,65.3120,-126.1596,85.0955,39.8451,-153.2996
-3687.5000,239.7955,40.2511,82.9754,19.5620,56.2047,-15.1794,-41.8487,5.5163,-83.9194,-156.6611,87.3819,-63.2690,61.4146,-75.5500,-85.6465,-152.9540,235.3057,-114.0937,-55.2673,32.5179
-3679.6875,-76.1134,-98.9539,-58.6516,-48.1563,-11.8594,27.6586,-146.2471,12.1685,-116.0473,143.3690,19.0324,-56.8068,-6.9464,22.1525,-80.8033,109.1427,-149.8978,243.0854,124.9798,-35.3021
-3671.8750,-27.0977,56.7514,71.6264,37.0321,43.9912,1.2604,-17.7327,105.7146,-133.2776,16.2799,74.5921,-73.4466,11.5954,-12.4811,-98.0535,18.1363,180.8113,-162.8712,-140.8952,-126.2413
-3664.0625,-93.4671,-9.9355,-79.4991,-29.1789,-107.5637,43.7146,-95.6099,100.8535,-63.8956,85.7708,-4.2472,-5.4894,42.7547,33.4746,-65.6936,86.7182,115.1567,-51.2593,-30.1951,89.4461
-3656.2500,-29.7019,-85.4838,-75.4844,-34.2513,-66.9610,35.7301,-92.3387,142.1444,-97.3574,201.4318,-0.9344,-0.3837,-99.9322,73.0356,-62.1796,201.4708,-172.3826,51.5185,1.6557,-126.7309
-3648.4375,258.1059,-9.0154,-1.4585,-27.3145,-67.3450,-20.8715,17.9559,106.4348,-23.8150,-54.9437,36.3863,-73.2859,-26.6060,-56.1888,11.3399,-55.8006,257.1235,-255.7605,-165.5320,21.0907
-3640.6250,-55.1913,-144.6559,-106.5452,-92.4867,-98.8355,16.0687,-14.8494,38.6168,-19.3649,134.5864,3.6028,-31.2889,-59.3707,31.8470,89.7687,132.8382,-90.4840,137.8706,15.1831,25.8301
-3632.8125,63.1648,9.3604,24.0163,26.9940,31.3398,-23.4417,79.0061,22.4508,-35.2578,-64.2365,60.4718,-46.6398,-2.4852,-18.0244,35.8560,6.1328,134.5532,-127.8746,-181.4668,-100.8027
-3625.0000,-5.6052,-23.7609,-20.5783,-40.6745,-50.6424,-16.0442,68.7265,-58.8631,64.7101,-109.2281,-21.8105,-55.1427,61.2700,-37.0821,99.8019,-38.7404,206.4814,-52.8135,-72.2949,147.4350
-3617.1875,-106.8847,-89.3957,-79.6851,-105.8493,-36.1227,-28.2749,46.9443,-6.6811,80.1753,90.2983,-7.5888,-77.1461,-33.4726,0.9480,115.2543,122.9131,-175.1233,129.7556,75.3825,-57.8362
-3609.3750,214.2269,21.3377,-4.4251,-30.6675,-72.2375,-55.1510,85.5347,31.8447,81.9934,-54.8676,30.0006,-75.8098,4.1426,-83.3691,43.0614,-96.1054,216.6689,-250.3900,-95.6235,17.2394
-3601.5625,-47.3653,-134.6297,-168.8811,-115.1909,-126.0543,6.6940,-43.5732,50.6585,100.1205,222.2607,-61.1132,-20.1703,-14.9323,14.6400,24.1792,106.1758,-185.2331,122.7618,136.6735,72.6411
-3593.7500,-8.8004,-24.4407,-82.1896,-39.5586,-3.7130,-36.0975,79.4728,64.6201,113.3893,89.5435,-12.0708,-42.3758,-74.8528,-16.3340,74.4443,45.6203,-74.9983,-115.9467,2.1050,-97.8296
-3585.9375,34.1970,-16.8348,-48.0952,-66.5175,-42.9700,-40.8472,111.9320,-48.0230,183.0629,-133.8070,-15.6242,-45.1863,31.6481,-54.9100,144.1160,-67.5592,143.6898,-141.3074,-23.0945,156.1178
-3578.1250,-180.7654,-125.1897,-79.9646,-104.4380,35.8236,-30.7828,80.4419,-42.6257,114.7904,55.9050,25.8754,-76.9454,0.2040,3.7129,149.8512,121.3288,-245.6059,139.3943,115.7637,-21.8834
-3570.3125,127.0053,8.1728,58.8783,-41.6495,99.3323,-80.7633,144.6709,-14.5315,69.2206,-135.7145,90.0926,-86.0118,100.4716,-89.8538,103.2873,-108.0977,132.8332,-253.2600,-137.7162,5.8078
-3562.5000,-24.8147,-108.0640,-67.8815,-121.4687,-26.7667,-27.3346,17.3001,-30.0480,88.0541,31.0541,35.7083,-27.6739,83.1512,-19.6844,86.1284,21.8732,-123.3019,53.4717,63.1971,135.9269
-3554.6875,2.9686,-44.7025,-28.0403,-22.6870,11.7459,-33.4180,56.5336,9.0288,17.4831,35.4264,111.9265,-24.7355,12.4236,-3.3673,52.5710,61.4610,-130.8504,-56.2016,-12.2910,-81.3765
-3546.8750,151.8346,68.7295,-28.1418,-12.8470,-61.6814,-41.0583,54.8392,-26.8530,16.9715,-74.1919,110.1995,11.2477,47.7641,-61.9855,51.0711,-122.9285,124.7080,-185.8861,-107.7603,138.3807
-3539.0625,-119.7130,-61.2498,-122.6651,-38.4158,-83.5083,11.4594,-40.2542,-12.1412,-4.9285,161.8013,89.0635,26.8316,-47.2907,38.2862,30.1809,113.3031,-286.1676,142.0475,114.3779,43.7428
-3531.2500,109.8135,98.8364,44.8689,52.0722,-26.2709,-15.5054,54.7173,9.6238,-20.7765,-110.1729,145.9862,11.4641,-26.2888,-32.0289,14.3408,-86.4191,119.0250,-188.0168,-111.4662,28.1383
-3523.4375,94.2080,49.7744,-50.7484,2.4071,-158.1895,12.0857,-78.4588,-85.7703,-42.7691,-21.3110,86.7551,62.9406,-11.4153,11.6503,-7.6422,1.7002,35.1021,44.7403,16.5271,189.4092
-3515.6250,56.1504,46.2550,31.1796,70.2868,-39.5482,1.1713,-70.0818,-76.6192,-145.2216,24.1104,132.0743,34.9652,-39.9892,34.9559,-36.0716,83.3886,-109.2900,80.0505,-55.9253,-58.7906
-3507.8125,161.3784,152.0086,97.3722,70.4234,-83.6431,-13.3849,31.5675,-46.2193,-115.4226,-129.2515,86.6515,-8.7702,24.7050,-43.5190,-43.2434,-107.7044,278.6237,-199.4525,-160.1597,117.2616
-3500.0000,-46.2042,-20.0537,-5.2499,-30.2500,-112.5381,15.2738,-70.5825,-39.6305,-107.4087,135.5977,20.4226,35.6936,-41.3889,52.4661,-37.2060,120.4230,-103.2902,122.2499,55.8133,51.5253
-3492.1875,200.0769,121.7386,147.9825,75.9262,-34.5637,-30.3124,8.1378,3.8087,-103.5376,-115.7152,62.0570,40.9986,1.3713,-13.8073,-31.3093,-58.5981,177.6534,-297.2422,-154.3837,-53.3808
-3484.3750,106.9304,99.0905,41.7608,54.6457,-140.0401,-0.5213,-61.5760,-102.2102,-25.1020,-110.4987,30.2385,81.8517,5.7046,13.5400,10.1421,-17.0883,120.1895,-106.2278,-104.0493,171.2892
-3476.5625,-21.9292,40.7352,-8.1730,102.6636,-118.2137,28.0140,-75.9937,-41.9297,-76.3678,97.0320,15.7204,69.0065,-119.6629,77.1076,-4.1022,152.7413,-149.0085,47.1005,-21.4096,-62.7539
-3468.7500,104.6464,132.8024,45.3041,89.0914,-63.9729,-13.3670,51.0119,-25.2539,13.7688,-105.0776,-5.3896,12.5588,-29.6158,-17.5641,12.0655,-51.0486,260.2375,-280.2352,-139.4086,64.6012
-3460.9375,-61.0743,-67.4396,-54.5382,-75.7955,-54.0365,-15.4732,-13.2778,-50.8936,22.6242,87.5118,4.1937,21.8053,-19.8533,31.3196,57.9462,104.8740,-150.8267,12.1297,83.2961,110.6746
-3453.1250,145.6178,34.7184,93.0273,-44.2839,20.3152,-76.9509,61.8490,-13.1333,-12.1130,-57.4993,115.1936,-12.5539,18.3055,-31.8169,23.2324,-3.7984,21.5045,-305.1396,-95.6191,2.1277
-3445.3125,78.8915,3.4413,13.1445,-74.2203,-96.7855,-32.2420,17.5366,-19.8289,91.7051,-26.9942,34.7620,-19.3673,48.0314,-41.7297,53.0755,-46.9452,130.4328,-194.9122,-55.0080,252.1586
-3437.5000,-140.1530,-74.1484,-24.0561,-81.4637,-60.1892,-1.9294,-56.0733,-19.8308,54.2285,121.2312,34.0373,-19.4852,-98.5414,45.8603,52.6295,172.6337,-192.9823,80.0236,78.3115,68.8900
-3429.6875,44.5810,40.0239,56.5010,-0.9580,-15.8274,-25.0857,60.0915,-11.0823,97.5136,-128.8127,77.0799,-47.8628,-55.3485,-47.7840,58.9392,-77.0515,238.3854,-260.3614,-86.6524,149.3707
-3421.8750,-133.9825,-138.1143,-94.2544,-108.7682,-94.7747,7.7113,18.9569,-53.6383,92.5134,50.8460,-1.1807,-53.5438,-24.4412,14.0098,90.9614,100.9715,-150.5440,124.9456,122.0838,217.5768
-3414.0625,-62.0401,-100.7522,-9.5088,-72.0800,26.7902,-15.9481,103.3325,32.3071,31.0107,-10.9899,10.0653,-78.7300,-13.0367,0.6055,66.4825,76.5086,-112.9895,-47.2628,20.3126,9.2599
-3406.2500,-59.1140,-62.4193,-15.8082,-103.4339,-16.6900,-12.8766,60.6724,26.1966,61.4674,-16.9092,-33.7396,-83.9676,54.3382,-44.5128,59.9606,-41.0325,100.5749,-112.5830,-11.5398,222.9088
-3398.4375,-161.6520,-129.5448,-77.5746,-99.2408,-42.6222,26.0565,-39.4377,37.6235,-38.5193,178.7320,14.0018,-36.6514,-81.7345,58.7811,-3.0032,190.9996,-281.3430,172.6596,133.1681,51.1093
-3390.6250,158.2406,14.7512,37.0701,9.3611,-1.1396,-6.3496,75.8727,42.4505,-70.1057,-109.2497,55.1521,-31.9380,-41.4039,-26.9438,-35.5619,-61.5825,144.1699,-207.7549,-72.7541,55.6967
-3382.8125,-67.1060,-69.2047,-93.5387,-39.2947,-130.9108,45.8167,-55.0610,-13.9792,-53.9374,53.5079,-1.9532,22.5233,-24.3115,38.8870,-18.3644,64.5836,-115.5489,129.5630,124.0684,182.0569
-3375.0000,-80.6066,23.6799,-22.2948,53.8919,-23.8221,33.4800,-58.1405,56.4407,-93.9160,88.1269,31.7995,19.8269,-64.3669,23.8648,-21.3086,25.6196,-197.4441,48.7173,42.7398,-40.7546
-3367.1875,72.1335,105.7777,18.1585,66.2752,-94.5244,17.2990,-17.9937,24.0514,-53.6768,-55.0824,70.7514,23.3177,12.7945,-57.0786,-18.0378,-192.1719,129.9126,-147.9899,-49.4152,182.6459
-3359.3750,-124.5844,-20.5881,-36.8602,10.1929,-111.6798,50.0520,-109.2902,5.2061,-70.8702,184.2721,89.2481,41.3607,-78.4896,49.8226,-72.2022,83.6048,-312.2151,217.8577,105.9900,91.6041
-3351.5625,100.0625,99.4092,91.4704,60.4680,-21.4709,0.3422,-19.2162,23.7152,-90.7054,-55.0418,107.1072,-14.2459,11.5789,-32.2500,-92.0151,-82.2670,89.0178,-117.0021,-124.2767,35.8950
-3343.7500,3.6725,3.3607,-15.2536,-0.3121,-91.3168,38.0757,-125.1833,-45.8332,-87.5823,-13.4206,36.9172,27.0902,87.6155,24.4584,-88.8688,31.8010,-6.7720,138.0623,-79.6058,186.1611
-3335.9375,65.6269,30.6513,61.3700,62.2488,22.1961,13.5043,-122.7972,-42.0365,-158.1064,-9.4381,76.0801,66.7712,18.0032,48.9249,-85.3612,71.2382,-120.2440,97.4776,-122.5783,-67.2418
-3328.1250,290.6750,150.0115,143.0566,111.8663,-7.2323,-22.6680,-41.3345,-107.1949,-75.5739,-221.4450,46.2999,74.4930,62.4531,-30.3742,-40.7961,-141.3019,316.3876,-204.1223,-247.5340,87.4092
-3320.3125,13.5663,14.2099,40.5768,46.3200,-35.8120,21.3372,-143.0210,-135.5186,-69.1833,6.4028,-19.6296,119.0647,33.7629,72.9676,-70.3722,87.0246,-66.1456,188.1351,3.3663,21.9235
-3312.5000,149.3212,115.2667,152.9573,147.6265,77.4718,-19.3386,5.1546,-96.9883,-29.9466,-174.9064,56.2988,48.4822,35.9281,-14.0948,-67.0935,-94.7978,176.1764,-96.7963,-140.9051,-122.7344
-3304.6875,16.5578,53.7775,43.7919,51.3776,4.2091,-1.5046,-31.2065,-95.0185,81.7491,-62.7866,-53.3174,12.3427,73.5658,-28.0634,-30.3590,-93.1872,114.9861,53.6831,8.2551,62.0794
-3296.8750,-160.4613,-53.9728,17.3742,14.8658,87.7051,12.4104,-20.8185,24.6926,91.1976,168.0986,-81.1805,-14.0483,-64.0422,26.8103,-56.8672,63.1927,-167.4870,193.9179,78.1729,-185.3723
-3289.0625,51.9054,89.6462,51.3204,51.7140,11.5681,7.1278,49.9462,95.7492,125.9992,-54.7124,-120.6822,-16.0943,6.7124,-39.7745,-59.0176,-124.1003,257.4389,-120.5616,-130.5915,-77.4817
-3281.2500,-197.0276,-54.0402,-98.0424,-20.7450,-63.8711,54.4739,-62.5853,56.4901,123.5121,127.1695,-160.4878,17.5588,-31.8201,52.6637,-24.4562,94.3153,-96.9477,265.6556,114.3467,-79.8751
-3273.4375,-5.1516,32.0772,36.4012,30.5941,107.5070,-18.4360,71.6981,81.0264,110.8243,4.8440,-62.4820,-30.9929,-44.5480,-17.8268,-37.0910,-28.4609,59.4582,-69.3581,-44.9290,-239.4918
-3265.6250,79.9591,-23.5984,41.0523,-24.8690,75.0918,-23.6143,76.2018,11.7517,151.3449,-101.3071,-95.2712,-100.3561,69.9456,-67.5357,3.4831,-98.0585,216.1116,-89.2293,-30.0264,22.1159
-3257.8125,-56.6871,-124.0364,53.9423,-55.0962,160.9298,-36.1045,14.9527,-49.2839,91.1201,21.8132,-46.8050,-51.4690,45.6915,1.3021,-20.6836,61.6192,-131.0237,127.1582,46.1336,-149.0285
-3250.0000,112.9914,44.8412,155.1388,43.9829,152.0733,-49.0115,79.0264,-21.0122,81.2027,-171.7886,-19.0270,-60.2905,72.7462,-66.2931,-66.5464,-132.4177,320.1708,-229.2135,-171.4336,-84.8805
-3242.1875,-155.2819,-83.2385,-19.6293,-48.9008,14.2588,26.6639,-58.8446,25.3035,17.3485,95.6586,-84.2086,-14.0649,8.8611,27.9479,-20.3496,61.5982,-18.5853,134.4605,88.0547,-1.6611
-3234.3750,-14.1558,-10.9201,63.9955,-11.3882,133.8555,-13.6953,61.6934,72.0209,-47.1044,-4.4871,-37.9882,-41.4382,-18.6213,6.4143,-10.7472,34.0287,-16.9629,-74.4822,19.9432,-176.0668
-3226.5625,26.2018,-5.3831,21.8212,-40.6736,92.6520,-10.8367,93.4523,-7.0674,58.6562,-155.4640,-78.5655,-45.6180,87.1067,-47.2032,21.0688,-117.3607,199.9067,-66.2841,26.0084,76.7414
-3218.7500,-193.7078,-84.1108,-90.6206,-49.2216,90.1952,3.7023,53.9597,-45.4104,56.1733,62.3290,-82.3936,61.9506,-25.4157,63.0168,18.6416,100.0274,-229.5156,170.6794,158.8450,-72.7011
-3210.9375,44.7536,119.5200,-25.6974,83.5833,118.1098,-14.7465,81.8364,19.5974,121.0408,-166.5487,-17.8669,52.8579,-34.5832,-13.5088,10.5650,-93.2440,184.4411,-258.0571,-129.9902,-44.8124
-3203.1250,-138.5278,5.3956,-114.5249,-28.3685,-43.7238,15.3212,-7.0297,-32.1558,142.1661,37.8064,-107.0896,111.0070,-13.4808,62.3017,30.7500,74.7247,0.6670,-18.5586,38.4230,123.3461
-3195.3125,-94.1168,14.9700,14.3454,15.3769,85.1547,-10.6639,48.8097,-13.2141,87.9935,-15.1263,-88.6095,130.8581,-30.6833,68.5100,13.6412,57.4091,-24.4397,-150.3597,48.5349,-77.8202
-3187.5000,86.1297,90.3604,84.0262,20.9255,80.8381,-47.7473,118.4709,-127.4727,120.6317,-202.2844,-129.3219,89.5005,74.9293,-30.9015,83.3394,-166.1287,333.3009,-284.4284,-14.5855,138.8205
-3179.6875,-161.9856,-52.6122,-23.6589,-51.8902,84.1657,-19.8325,47.7814,-124.0881,122.9315,20.2217,-163.3875,92.7928,4.1922,38.1031,122.6953,19.0087,-125.3421,100.1644,193.9574,31.1193
-3171.8750,39.5235,79.0203,81.2680,9.8939,189.1112,-65.8139,152.7109,-57.1101,80.8396,-95.6884,-96.8440,-23.3220,35.0596,-47.2351,43.6554,-97.2589,216.6211,-259.6872,9.0874,-48.0009
-3164.0625,-80.9510,-40.3468,-14.8115,-75.3304,92.0563,-23.3601,92.6489,-79.1375,94.7572,-43.6132,-156.2981,-9.4428,122.9404,-5.1062,57.6245,-9.5383,96.6083,-27.5652,135.2149,112.9041
-3156.2500,-153.7876,-79.0770,30.7482,-42.9154,211.6543,-19.6310,102.2407,-70.5169,30.3297,-35.8687,-148.0963,36.0838,58.4644,38.9230,30.2523,35.8549,-81.7964,75.2157,204.0029,-135.5591
-3148.4375,-4.5961,70.2125,106.3151,36.5069,177.2575,-40.8573,140.8464,-104.8918,32.9019,-253.1485,-144.8863,1.6064,134.0033,-65.1402,69.8794,-218.7693,313.8455,-197.0616,71.7601,13.9772
-3140.6250,-160.4688,-85.5553,-16.1820,-48.1296,127.8023,-10.9201,54.3985,-118.3218,20.4293,28.5383,-194.7353,26.0811,11.5012,39.5399,93.4613,61.5721,-122.5881,175.6187,198.4798,-35.5270
-3132.8125,31.0213,36.0280,115.6830,2.5837,223.7109,-74.1286,150.3188,-59.4001,5.3109,-60.4285,-100.2211,-26.1008,33.3454,-23.3711,42.3969,-26.7334,69.3260,-196.3865,3.5375,-160.7079
-3125.0000,-34.2599,-29.1828,36.7474,-61.5092,70.8202,-38.9727,71.4482,-63.2816,36.4032,7.7806,-105.5066,4.9095,101.4039,-27.8997,73.5388,-67.8564,75.4758,-84.2257,79.7770,91.3336
-3117.1875,-115.7076,-110.5532,-3.3496,-73.7556,104.7813,-19.4403,31.4260,5.6767,-3.6507,115.8512,-72.9408,-34.2293,24.3118,26.9989,33.5418,111.8966,-217.5710,44.8027,208.8773,-95.7864
-3109.3750,146.1701,-24.6023,45.8586,-57.6965,80.0526,-52.8088,116.7261,17.9375,82.6040,-128.8042,-25.0649,-60.0737,73.5318,-74.7438,8.8487,-133.0697,221.7179,-253.9275,15.2453,26.3867
-3101.5625,-113.1606,-143.8597,-44.1488,-141.8468,-9.8865,-20.6852,-9.1724,1.9879,103.6656,148.3477,-77.3918,-39.1211,57.5584,12.8430,29.9660,107.7779,-179.2056,83.1507,176.4217,47.3789
-3093.7500,-89.2350,-48.8719,63.1032,-46.7528,60.4387,-43.0535,98.1861,72.2912,99.9746,71.7516,-8.4582,-41.9235,16.8357,-13.1907,63.3338,29.8841,-83.8923,-173.5422,-9.1546,-103.4046
-3085.9375,-113.0787,-72.6722,-9.4349,-70.4590,-49.0332,-17.6486,60.7515,35.7901,173.4923,35.3302,-44.3214,-41.5306,90.3329,-25.4131,99.8980,-5.8323,67.6619,-161.0797,-32.5536,154.0288
-3078.1250,-183.4911,-144.0334,-113.5403,-106.7271,-5.0560,-15.1308,-4.2381,43.7345,107.4649,227.3803,-0.7353,-34.6884,-11.7230,36.0886,70.9202,184.9293,-283.3830,83.8507,37.5109,-22.0938
-3070.3125,171.5695,1.0711,-0.1848,-32.5377,-2.6211,-53.8146,72.2452,46.1295,109.8934,-65.1437,75.3088,-69.4034,64.6724,-72.2428,37.4013,-70.8727,178.0513,-262.8241,-132.9973,17.2244
-3062.5000,-27.4159,-91.8810,-99.8931,-89.4095,-102.2419,-12.2073,-28.3196,-17.5383,83.2837,129.2839,47.2979,-22.1696,37.0253,-10.3634,46.8433,49.2756,-90.5650,101.4554,54.4514,100.5128
-3054.6875,-26.8494,-21.2881,19.9501,16.2668,17.7007,3.3327,18.6747,66.3426,20.2202,66.2670,57.8471,-12.3905,-62.0765,5.9607,-16.1655,22.9897,-89.6603,-3.7196,-14.5485,-109.6750
-3046.8750,-32.9480,42.6178,4.1078,10.2405,-34.0536,14.2593,39.9795,50.5196,41.4655,-22.4819,-31.2918,-27.3187,32.1417,-26.6987,42.1260,-65.0178,150.5851,-79.6515,-90.2700,95.4508
-3039.0625,-260.0670,-78.4923,-78.7535,-40.7989,-6.8151,43.3187,-42.7200,77.6903,-41.2831,224.7965,-41.4295,-0.2493,-50.6385,72.9261,69.4227,182.0006,-252.2135,220.4348,34.0286,-61.4202
-3031.2500,62.0831,103.6600,74.6427,70.4161,35.6846,-14.7943,73.8450,47.1155,-71.7800,-99.6906,74.6917,-30.9322,28.8284,-35.1857,38.9699,-69.7400,141.2552,-194.2708,-204.4334,-55.0577
-3023.4375,24.9390,-4.4847,-8.2692,-1.6737,-83.1240,8.6780,-44.8875,-34.7661,-7.5639,37.5105,-8.4941,32.0862,19.0078,4.0546,29.2292,-5.7862,-35.5681,48.7132,-30.1969,119.0267
-3015.6250,35.9360,5.5128,12.9630,8.3854,11.2266,-17.0510,-24.4696,22.4936,-23.1942,133.8674,49.4771,17.2547,-68.6639,13.0479,-22.3592,52.3416,-167.2817,23.8524,-20.8004,-116.7610
-3007.8125,183.4616,49.0253,12.7079,-19.0557,-25.9182,-19.6599,49.4633,59.2552,13.6778,-50.2976,85.9582,-56.0893,-32.8301,-73.4818,14.5578,-131.0539,192.5500,-143.5617,-81.9227,66.9591
-3000.0000,-84.0791,-113.5272,-115.6120,-75.5623,-43.1209,22.0607,-41.6590,41.9608,-3.4982,189.5034,67.3912,-37.4844,-160.0489,36.2938,34.4255,144.5191,-214.6974,222.0023,106.9224,-24.3634
-2992.1875,28.4038,33.9269,42.0813,1.9374,3.6887,-20.4917,79.2257,88.6688,-29.6798,-20.7132,114.8347,-63.8836,-113.2701,-33.9133,44.2906,-28.9113,109.0547,-193.4572,-61.2484,-87.7087
-2984.3750,-95.4445,-19.9599,-132.5811,-50.9150,-96.8584,30.9615,13.7676,60.0142,51.7991,60.7026,-24.0762,-18.6286,-66.8275,2.3423,52.8071,15.2972,-15.5264,68.7162,60.2208,104.6161
-2976.5625,-94.7620,-54.3067,-157.7061,-16.2205,-48.8500,34.9099,26.8556,109.9056,-9.1726,110.6868,-12.4370,-43.8220,-91.8438,25.9775,28.8759,102.0846,-294.6010,175.4592,132.2588,-140.5304
-2968.7500,110.8960,11.3165,-60.8670,-21.5710,-24.8826,-13.3005,160.9085,96.7503,88.8124,-122.4038,48.1558,-93.0756,42.1036,-94.0314,52.8963,-168.2001,51.3163,-109.9054,-13.7707,30.2703
-2960.9375,-147.9065,-142.5262,-146.4901,-139.3837,-38.3672,0.5143,37.5075,46.1374,75.3507,120.0705,34.2952,-70.7813,28.6039,-7.9938,112.4688,75.0786,-384.2399,262.3019,184.7667,16.6306
-2953.1250,-12.5492,-7.2106,2.0436,-39.0418,75.3114,-28.3435,114.2594,85.6783,4.0261,12.6940,73.5923,-104.3388,-5.7553,-52.4574,42.1928,-33.4830,-141.6608,11.6428,-30.5565,-127.8885
-2945.3125,48.8743,-51.8337,-53.3766,-82.6459,-53.9655,0.8475,21.0688,66.2662,-15.2413,30.3481,16.9405,-85.8473,85.9461,-53.5253,22.9690,-52.0116,-79.9989,108.0053,-4.8452,73.6602
