Time,Fp1,Fp2,F3,F4,C3,C4,P3,P4,O1,O2,F7,F8,T7,T8,P7,P8,Fz,Cz,Pz,ref
-4000.0000,247.5351,57.0494,213.3456,-131.7409,208.4521,-113.8766,220.1858,-149.9487,142.3775,-241.4112,72.3136,-141.1129,127.4043,-271.8586,113.4643,-243.2457,186.6859,-154.2669,141.9460,-177.5331
-3992.1875,-77.9552,17.5589,-64.8084,29.5865,-32.6382,9.6141,-57.9817,45.8860,-26.2051,25.9432,-59.6414,19.3605,-41.0257,-41.7320,-18.5698,-49.0378,176.2410,5.5552,130.5377,18.0232
-3984.3750,-8.6304,14.6260,10.8301,21.7178,6.0703,-66.0999,17.6400,-30.4768,11.9951,-15.9220,87.2258,16.6544,70.3498,-9.7992,55.1913,-127.0402,102.5984,-71.8305,20.9197,-95.6278
-3976.5625,-107.1898,5.4450,-66.4384,57.9556,-71.1218,72.2947,-22.6409,33.2685,-30.7172,121.3225,-138.8188,119.0627,-82.1913,89.2499,-134.9750,46.0607,-102.9773,103.8898,-44.6097,115.8392
-3968.7500,-255.0167,9.3280,-186.9866,149.9515,-154.5912,95.4497,-216.2124,55.7743,-151.7025,141.3331,-3.1123,215.2528,-18.9866,110.0721,-183.4057,66.9214,63.1975,125.3755,-55.4034,101.0724
-3960.9375,-96.0214,17.9720,-56.7369,126.7454,-61.2561,110.4015,-85.9854,108.0847,-170.8979,229.1508,-21.5996,120.2494,-73.9847,49.7047,-202.0417,78.5789,-131.8535,30.6552,-75.4078,42.1005
-3953.1250,-282.3372,24.8492,-261.8132,287.2539,-230.2408,194.0736,-329.0839,154.1080,-230.4196,237.6803,-120.4043,277.9840,-135.3058,205.0682,-299.0143,234.9535,-144.2258,190.6532,-228.7290,271.8631
-3945.3125,-153.6380,74.8397,-198.9058,303.7716,-166.2393,69.7462,-303.2097,-6.8757,-168.9647,0.2022,52.8153,263.7368,1.3723,151.4516,-127.9897,71.3260,-17.5889,100.6530,-245.0772,146.6289
-3937.5000,-230.8770,55.2182,-212.9599,325.3470,-180.1932,125.4827,-242.2889,121.2050,-219.4784,201.8000,-146.9321,282.5478,-123.9267,204.9035,-325.9396,124.7566,-237.9362,263.7105,-218.3825,238.4577
-3929.6875,-416.1446,6.1681,-371.0521,379.9435,-301.1787,183.2430,-401.4094,177.3102,-270.0250,255.4110,-49.6798,340.3924,-100.2401,260.3886,-266.9167,216.2056,-144.2866,281.7896,-302.7080,221.3096
-3921.8750,-204.7907,-34.3928,-183.5435,233.1503,-114.5649,109.6090,-213.9402,66.0139,-157.9844,179.6094,-10.8075,155.8442,13.0445,184.4895,-118.3048,176.2554,-322.0486,99.4604,-235.4547,109.7586
-3914.0625,-349.7945,-93.9292,-309.4111,154.0269,-166.3253,127.6432,-265.8510,157.3866,-211.3220,378.4853,-137.3115,209.9737,-78.0541,272.2773,-209.0767,301.9810,-398.1896,229.8049,-206.5709,309.8909
-3906.2500,-185.5507,-74.0345,-245.0597,65.1695,-100.8645,-32.0654,-274.5461,34.0253,-185.4339,290.6207,109.4471,161.3736,97.0873,184.3380,-109.6090,249.9642,-236.0774,106.4045,-291.4504,186.2802
-3898.4375,-105.7916,-39.5745,-168.2162,103.8137,-24.9135,2.7337,-234.7489,-4.8155,-220.0583,323.2823,-37.3050,196.2826,24.7069,253.9229,-181.6591,247.4600,-439.5032,144.4984,-390.8393,294.1811
-3890.6250,-314.9119,-61.2835,-355.2661,239.6296,-248.8538,105.7028,-532.8486,60.5193,-298.5646,387.1253,-41.9178,299.3786,93.4586,354.7032,-186.5885,311.1353,-334.7866,245.7642,-463.1052,359.2639
-3882.8125,-170.3737,-27.2901,-236.6786,238.1092,-167.1549,37.3271,-377.3145,64.5071,-181.4409,353.6240,-71.8636,194.1349,26.8539,247.1609,-143.8774,202.4685,-367.4332,206.6789,-355.7422,215.9945
-3875.0000,-353.8960,26.1990,-367.1628,363.5607,-296.5259,159.9255,-396.8557,223.4631,-276.3921,437.0899,-313.8824,390.8663,-287.8313,295.6042,-349.2460,323.7709,-413.1650,402.5695,-297.4501,411.7075
-3867.1875,-318.1335,47.8780,-325.3795,324.3355,-292.6277,123.8342,-393.1369,185.7314,-421.0747,361.8634,-90.5800,427.9286,-211.2266,255.3777,-236.3352,248.3833,-273.5911,327.7724,-334.8858,300.7356
-3859.3750,-220.6577,59.0729,-189.9018,239.8263,-193.0414,181.4537,-257.7353,242.7124,-544.0809,418.3651,-176.5796,449.6988,-296.9397,274.8791,-249.7445,267.7069,-494.3491,277.6727,-345.6386,321.4716
-3851.5625,-425.8125,26.9568,-451.0682,310.7430,-417.0939,285.4969,-481.9817,310.1193,-548.7214,446.3006,-181.1920,589.9011,-338.2816,449.8294,-291.7849,405.4627,-456.7225,416.9987,-414.0143,460.6440
-3843.7500,-311.1665,-18.1659,-363.4514,242.4702,-366.3658,220.3416,-320.4487,355.3336,-389.5725,527.0444,-168.9893,342.9209,-362.8287,347.6074,-243.0243,338.0253,-484.3089,385.1243,-302.6099,322.6191
-3835.9375,-466.9762,-23.8598,-502.3085,327.7644,-468.1103,445.7542,-386.3858,543.1107,-529.8907,640.3597,-419.2596,420.5210,-575.8571,496.9766,-457.7426,525.1658,-572.3860,538.8166,-390.6808,547.1794
-3828.1250,-454.8080,45.7426,-566.2015,405.0829,-494.8898,416.1772,-560.3745,438.8967,-668.2379,277.6777,-226.5180,538.1555,-456.9018,538.3920,-302.4742,529.3273,-316.4638,509.5294,-522.7812,552.7677
-3820.3125,-355.8340,5.5848,-391.3038,321.2142,-356.8852,403.4073,-421.5763,461.5000,-567.8018,336.8223,-347.9798,378.5974,-467.1703,450.6353,-276.4224,478.3070,-536.7692,427.0438,-357.0937,539.1651
-3812.5000,-634.9040,-67.9079,-617.4520,354.3733,-545.9221,468.6661,-537.8243,599.1386,-501.3997,620.0242,-501.4663,481.0724,-547.4722,586.9330,-430.4082,577.3275,-571.1028,598.5820,-427.4258,676.6016
-3804.6875,-465.8326,-48.7978,-583.4759,340.6956,-474.8339,388.0783,-503.9520,518.9375,-468.8685,573.3929,-358.7835,436.7166,-440.6294,651.4183,-361.2489,494.5097,-580.2963,444.2719,-543.6274,522.1942
-3796.8750,-521.9223,-97.6108,-724.6705,313.8833,-542.9160,501.3606,-535.2508,593.6095,-464.5069,720.6381,-538.2689,403.2309,-546.9599,725.7932,-505.2625,605.5676,-744.6889,558.8270,-427.0003,670.6674
-3789.0625,-622.5489,-156.0989,-827.4124,243.5919,-608.5409,431.1567,-601.1006,560.8065,-237.6750,686.4116,-347.2517,334.2825,-466.8084,617.7173,-388.7933,533.1569,-460.5926,555.9026,-319.8969,563.6732
-3781.2500,-329.6293,-97.5927,-549.6182,72.8539,-367.6292,263.5113,-249.4186,393.5731,-35.3050,516.7547,-217.6762,202.8925,-410.1190,375.2286,-259.7852,254.3151,-345.9786,279.5278,-101.2588,322.2370
-3773.4375,-215.4986,-71.7891,-423.6140,-134.6129,-206.5074,-54.8586,-51.5305,72.6151,-21.7106,158.3850,89.1245,67.7933,-140.2134,127.0526,46.4406,5.7639,223.8518,1.4313,361.6060,149.0955
-3765.6250,431.5608,-92.3225,167.3020,-585.1075,386.5304,-571.2701,503.2651,-479.3808,384.8108,-469.0181,716.8871,-557.3279,487.6376,-353.1269,637.6096,-511.8171,727.6252,-554.7004,653.3946,-477.0835
-3757.8125,750.5062,-111.0351,574.0993,-693.6863,719.4459,-572.7610,762.9459,-664.4521,642.2093,-655.4840,643.5312,-888.5289,525.3613,-429.3667,600.6534,-552.4691,586.2552,-593.9166,371.0613,-516.3380
-3750.0000,594.8546,-79.9299,401.2978,-467.7864,473.7661,-379.7762,406.0238,-546.0480,506.0289,-538.4692,507.6231,-732.2429,389.5086,-312.1035,353.1230,-398.6327,534.3264,-368.6576,107.1504,-361.1047
-3742.1875,867.8421,42.1537,317.1334,-412.2224,315.7198,-284.1375,358.7273,-340.9859,346.4865,-334.7833,274.3759,-636.2919,119.2964,-291.1505,46.2398,-305.1290,206.0204,-312.7496,94.8693,-376.2132
-3734.3750,1006.4882,278.1687,-27.3680,-207.9364,-65.6641,-115.7768,50.0933,-174.1938,-110.3844,-315.3457,-34.1966,-137.6077,-189.2534,-15.4390,-299.9780,-102.8815,26.3761,-144.1125,-121.7314,-172.5794
-3726.5625,1557.2581,581.8503,-35.7538,-14.4802,-183.9366,-201.2563,-178.4328,-259.2377,-414.1302,-548.7418,103.3936,72.2550,-235.6608,8.4772,-384.0538,-153.4596,81.8751,-163.3165,-348.2149,-331.7771
-3718.7500,2008.3707,805.3499,-12.8050,79.3351,-233.8749,-107.3768,-228.6285,-202.9182,-611.5392,-383.7600,-131.6731,239.4803,-433.7373,63.7866,-618.7953,-134.6596,-173.3162,-105.1616,-428.3625,-238.6026
-3710.9375,1924.0795,902.6036,-254.2486,236.8247,-512.2104,16.1773,-507.2286,-79.9198,-744.3271,-262.0882,-190.0970,510.3871,-492.1870,185.8050,-788.9100,-50.1694,-12.8752,15.6749,-514.8847,-152.7365
-3703.1250,1792.8674,827.9415,-129.6098,276.4352,-461.4644,63.8420,-456.7546,-32.8101,-622.0338,-143.2939,-140.4068,448.4037,-479.5465,194.9654,-775.9263,-41.5598,-111.3515,-121.3860,-439.3274,-289.7654
-3695.3125,1804.4636,809.9814,-312.1533,352.9154,-642.9018,209.3878,-638.4632,112.1814,-694.9158,110.3975,-360.8905,410.2963,-699.0915,376.0347,-924.1240,175.9397,-313.0226,-9.5702,-430.9380,-107.9038
-3687.5000,1327.1145,598.1649,-297.6347,398.5165,-592.2782,184.0550,-661.1218,86.2948,-644.7209,-100.7926,-126.2612,201.3168,-501.5472,349.2536,-616.2313,148.5739,-89.6003,-0.6373,-419.4727,-133.9187
-3679.6875,928.7488,354.6785,-128.1299,312.1274,-386.6697,203.7327,-382.7947,31.4271,-476.5363,-119.9519,-141.6415,-72.6499,-444.0200,331.5153,-522.3507,92.2361,-172.2249,-86.6945,-327.0235,-114.9172
-3671.8750,273.4765,152.4023,-195.5281,284.9178,-378.9615,207.5899,-522.3708,34.7398,-361.2314,-43.9146,-99.8892,41.5690,-292.3679,406.9895,-517.3439,167.0959,14.2766,-79.5720,-317.4504,-1.7221
-3664.0625,200.7343,121.6117,97.5968,207.2775,-160.7318,130.0024,-341.4284,-43.3878,-181.3912,-196.3087,119.4291,111.3567,-110.1723,328.0597,-263.7844,87.5255,-25.6872,-191.8952,-252.3448,-79.9696
-3656.2500,-144.2947,67.8945,53.4422,210.4090,-130.7830,193.1904,-274.7656,57.2610,-262.8217,-97.9175,-73.5199,321.9143,-191.2590,389.9391,-308.5013,222.7457,-195.9436,91.5573,-282.5075,203.5689
-3648.4375,-469.6273,3.7534,-69.0042,196.3147,-178.1278,105.1494,-249.4026,78.6854,-311.5235,-3.7415,62.2900,455.2444,-57.6092,337.6193,-211.4797,206.7521,-31.4602,180.7879,-189.9469,188.8847
-3640.6250,-582.3350,-82.6760,-2.8109,112.8791,-39.8348,168.7676,-37.4044,177.7779,-174.5842,94.1234,-94.2526,372.2234,-66.3185,325.9929,-220.8110,231.4375,-182.3708,132.6776,-24.7561,140.8625
-3632.8125,-939.7546,-155.6047,-236.3167,243.8187,-163.2388,299.7605,-234.1053,308.2498,-152.3186,223.3894,-181.4669,466.5860,-116.7020,492.7873,-272.8178,360.5254,-118.9628,227.9428,1.7632,271.2374
-3625.0000,-783.8546,-164.5538,-104.5020,219.1206,-67.3244,209.1086,-139.4899,217.0778,-94.7150,205.0215,23.6855,339.3203,14.2678,437.9833,-68.4649,267.9891,-106.2153,61.5560,-91.3901,69.9781
-3617.1875,-826.8827,-195.0585,-49.6109,171.5410,-49.3356,225.5710,-83.7981,233.0215,-113.0205,218.7834,-68.0820,356.1778,-41.6878,490.3290,-87.0267,319.5923,-256.4122,120.2845,-172.4630,232.8563
-3609.3750,-863.5220,-227.1399,-125.3187,96.4389,-88.9440,109.4954,-197.7093,152.4357,-45.8987,102.0303,147.5976,350.5255,137.7868,372.1835,90.8486,274.6827,-85.1650,77.4873,-72.1038,226.2232
-3601.5625,-664.3860,-303.0177,48.7567,-130.8510,86.2285,-11.7753,13.1626,141.6716,166.0137,272.1133,176.0790,82.6754,166.0468,212.8826,154.5206,188.6001,-238.1497,-79.5011,160.0415,104.3991
-3593.7500,-895.5652,-328.4785,-127.4619,-85.3667,-53.8953,103.7353,-126.2592,181.6940,207.6550,348.9976,34.2809,234.6037,135.0266,327.3989,48.9197,264.3248,-190.4186,106.2929,101.9204,255.3682
-3585.9375,-773.8924,-274.8549,-31.8121,-72.9665,42.8430,13.1584,-30.8203,55.6341,230.1846,36.8031,241.3965,182.4493,267.9044,199.8677,255.2285,62.9812,-1.7963,46.0000,114.6830,55.2502
-3578.1250,-782.3057,-254.8067,27.7728,-15.6031,65.5137,107.5486,102.5579,149.5467,30.6574,203.5958,42.4496,130.2546,105.7120,183.3397,129.4710,118.6198,-82.2719,102.6714,208.3807,112.1074
-3570.3125,-908.4895,-247.5666,-69.3847,135.0842,-31.5608,192.2587,-68.8137,122.7883,-67.5920,175.7328,128.8008,141.3878,117.7989,193.1718,140.9930,127.6055,141.5450,148.6715,79.3601,122.3004
-3562.5000,-686.0003,-224.8290,165.1480,106.4913,166.0483,129.6742,128.4935,-13.2591,128.8496,-70.4000,141.8595,-30.7731,167.5785,56.7418,227.2159,-9.6835,45.0399,49.3740,88.0250,23.1956
-3554.6875,-875.3660,-276.7551,28.8483,126.1199,66.8221,212.3147,28.9689,106.9121,102.4757,83.7131,-66.9052,-20.7093,-6.4717,138.5728,89.6208,146.2723,-5.2998,172.2993,212.8705,252.3315
-3546.8750,-832.0846,-325.9408,-31.7793,23.4688,42.2647,112.6603,5.1049,225.7938,150.7903,202.5525,18.0455,-156.9287,79.1754,37.1491,247.7316,116.9574,107.0622,104.9350,289.3994,115.1850
-3539.0625,-747.2827,-343.9036,16.1325,-35.6221,17.2397,158.5660,125.7807,308.2448,234.6496,430.9695,-191.4601,-220.5922,-57.6434,46.3177,184.3887,161.2231,-127.0629,115.1287,336.4676,160.6071
-3531.2500,-889.6487,-341.8199,-174.0993,-5.7820,-135.9322,149.3907,-28.6942,335.6205,226.3903,457.3231,-125.0705,-81.3253,-64.5802,74.4492,175.9288,224.4365,45.6999,144.2473,261.4128,224.9686
-3523.4375,-613.6438,-288.3042,9.0614,-85.5269,10.2731,0.6155,119.2043,223.4016,299.5251,344.0981,-16.2615,-156.6511,7.8815,-39.9716,322.8799,111.0787,37.8538,-42.2398,252.7346,38.7350
-3515.6250,-688.8873,-295.2518,-42.0031,-93.4544,-40.7465,59.6526,67.8779,207.0004,357.4520,289.7110,-176.6746,-62.1571,-43.8798,18.4639,270.6171,166.5664,-74.2316,91.0918,245.8472,206.3421
-3507.8125,-607.7889,-279.3048,-63.7010,-157.9703,10.6005,-38.9033,81.9148,109.0119,334.7707,116.7451,20.3240,-85.2410,154.7585,-79.6497,430.7586,30.4828,110.0834,24.8403,253.3495,71.3732
-3500.0000,-452.1243,-271.3560,63.1899,-216.8842,101.5366,-24.8538,245.5450,159.6381,276.6921,314.4140,-110.0821,-180.7239,96.9879,-139.1261,335.5044,44.0303,-88.0397,0.1965,300.4513,12.0189
-3492.1875,-634.0383,-270.0357,-94.4620,-49.2779,-56.0701,110.7189,50.6333,183.7931,191.1004,263.6359,-84.0099,-81.6804,48.7001,-42.0357,287.7379,178.1309,10.3103,97.0788,152.0350,73.2051
-3484.3750,-417.2445,-243.1658,100.6147,-48.9203,102.0480,46.0430,208.4511,8.7091,349.2592,-96.3686,110.8271,-255.8785,170.1705,-144.1468,444.7426,2.0131,48.3879,-43.2890,119.3546,-101.8518
-3476.5625,-461.2509,-272.8678,45.9184,-59.3092,47.3930,100.6309,190.5048,62.8948,330.6674,66.9172,-91.1082,-274.8134,40.8740,-52.9506,315.9856,91.1896,-101.3302,49.6104,213.9208,62.3765
-3468.7500,-488.8213,-275.5682,-17.3142,-92.1823,21.2019,-1.2691,127.0157,107.5942,265.5656,110.7257,66.4632,-266.2256,124.0709,-119.1994,361.7312,61.9048,79.4527,18.0287,253.9713,-39.8657
-3460.9375,-246.5688,-240.7291,128.3029,-169.1943,129.8527,-41.3188,272.3702,104.1498,337.3130,143.4105,26.8843,-342.7923,85.1123,-159.5628,285.3304,19.4973,-100.9357,-59.7035,283.8706,-117.2516
-3453.1250,-419.6908,-209.7533,-61.4149,-64.4759,-59.8354,61.3542,82.3834,132.4299,293.7484,60.8445,-16.0147,-128.6373,4.8326,-20.1686,167.6141,84.8397,-30.6403,79.2905,213.4518,22.0990
-3445.3125,-180.7105,-154.4965,48.9974,-108.5870,50.6026,-50.8204,155.5245,20.8642,219.3363,-88.5584,168.2539,-204.3237,151.7088,-94.5839,278.0624,-28.6425,67.8058,-106.5640,205.1669,-163.3961
-3437.5000,-140.1708,-129.5074,83.0002,-72.0937,84.6270,-18.3915,189.2617,15.9115,68.5300,89.6802,18.1034,-170.3999,38.1658,-26.3616,126.1048,76.5023,-105.1809,-105.8108,172.4841,-21.2622
-3429.6875,-217.5034,-161.5164,-35.8352,-81.3910,-34.1833,-137.7576,-2.8375,6.1736,132.9201,79.1502,157.1510,-143.2491,139.8176,1.1070,265.3513,101.8833,63.0313,-80.8407,92.9984,-30.8938
-3421.8750,-15.3781,-182.9277,103.8321,-199.1898,105.5014,-220.6291,173.5646,-77.0563,345.8246,31.1374,149.7063,-298.6009,204.9744,-44.8888,330.1118,17.7824,-88.2747,-164.3721,117.0113,-114.0166
-3414.0625,-197.6855,-152.6995,-24.8755,-103.3218,-60.1930,-129.8347,7.5901,-23.6219,215.3775,83.8094,56.8908,-60.2840,112.7699,81.8221,236.5241,144.3788,-61.9519,-69.2324,1.6627,86.5566
-3406.2500,-80.0002,-101.7494,68.4437,-93.3914,-2.8686,-184.9929,27.6332,-116.1303,161.9807,-45.4446,261.1366,-78.9053,206.6253,-9.3793,330.0052,15.0581,90.4222,-165.0334,-21.6402,-78.8081
-3398.4375,-27.3594,-73.0712,118.7456,-78.4551,46.4380,-136.1411,76.6732,-68.6149,173.5902,75.3457,53.3642,-67.5253,34.4652,-35.5425,194.4802,24.7751,-104.2450,-80.8201,29.0589,5.8441
-3390.6250,-9.6889,-23.0374,-48.8894,42.5982,-121.1964,-158.1725,-165.2206,-53.9806,79.2982,52.2641,143.6804,-15.0259,87.3935,16.4467,173.0564,38.6445,53.1804,-31.4884,-61.1541,20.6317
-3382.8125,247.0010,-2.0165,76.5200,14.6943,5.2055,-218.1569,-2.0706,-150.2892,94.0669,-7.7480,196.0587,-184.4848,176.3799,-79.4823,261.7037,-21.4070,-43.3597,-165.1087,-87.3190,-112.5267
-3375.0000,22.7789,-37.8215,-20.9440,33.9529,-93.2704,-132.9667,-100.7947,-101.4250,68.9784,112.4370,24.5646,-60.7785,77.4906,41.7938,126.4805,98.7362,-57.7818,-39.5498,-103.3371,82.4964
-3367.1875,17.2999,-46.5591,52.3714,-8.9715,-56.9751,-244.9653,-64.7476,-141.7473,141.6895,-37.5559,207.8818,-100.2628,187.4018,-33.0929,236.0706,-14.2968,110.5992,-85.1824,-75.5638,-66.6742
-3359.3750,47.8862,-56.0835,154.7851,-86.7945,83.4141,-179.8618,111.4016,-113.9535,170.5152,26.5874,16.2819,-108.6546,142.4090,-78.8561,153.7733,-61.2039,-105.9612,-57.7112,-10.6919,-38.7282
-3351.5625,-179.4648,-92.6749,-12.6926,-69.4522,-11.0885,-91.5926,-55.3367,-24.9839,39.4853,187.9266,-4.1908,-18.8790,158.5609,-63.4213,133.6220,-9.9137,53.6200,-6.0569,77.3328,13.4096
-3343.7500,43.7535,-92.5180,190.4306,-200.5130,156.0016,-147.7356,147.5262,-44.4163,168.0729,131.8760,88.9635,-184.5102,177.3271,-192.3633,262.0779,-140.0120,28.8091,-172.8098,87.9727,-152.8660
-3335.9375,-49.5173,-85.4295,118.1028,-155.0255,119.6403,-37.3253,110.9461,-117.2928,205.2261,19.4011,-20.3427,-72.5941,104.6355,-80.7248,189.0808,-103.5295,-30.4821,-57.0033,-7.8379,67.4221
-3328.1250,32.7597,-54.3540,170.3561,-180.9276,134.8636,-169.3107,52.9364,-250.5704,257.9846,-260.4863,215.9608,-96.0567,230.5614,-140.4517,313.7011,-200.4190,191.8278,-119.5861,37.9305,-28.6712
-3320.3125,143.5081,-45.5385,251.1119,-212.3302,215.5931,-200.8027,243.4261,-208.3484,227.2545,-145.8510,111.7600,-199.0243,162.9870,-207.6558,209.8252,-159.7918,55.6142,-116.6688,148.2090,-60.2492
-3312.5000,-109.9199,-43.8016,53.7310,-79.8224,18.2015,-104.3871,82.7955,-112.2007,66.4196,-86.2630,62.4345,-66.0750,76.3002,-110.9196,122.8329,-64.2258,223.2888,14.1821,139.3873,36.1065
-3304.6875,75.2170,-15.5830,217.9467,-74.7122,146.4148,-163.3778,209.7592,-171.4490,120.1939,-183.0675,153.7287,-234.5343,166.2305,-243.5656,212.4570,-234.0352,266.5595,-120.3704,217.1509,-168.9414
-3296.8750,-32.4910,-58.7057,172.3553,-78.3991,136.8295,-63.1563,237.9174,-71.4824,110.1777,-9.6578,-75.7927,-242.7916,47.3508,-177.9799,19.2742,-169.6093,87.9978,51.2892,249.1161,-31.7630
-3289.0625,-72.0222,-62.6950,133.9855,-48.8251,98.4745,-65.6752,125.2874,-74.2535,108.4150,-86.9713,105.9413,-244.7921,155.7246,-254.1081,90.3477,-174.9007,258.6924,9.2192,208.3306,-108.3184
-3281.2500,147.4641,-34.9715,254.6694,-148.2098,219.1823,-130.1459,282.7207,-101.9659,191.7186,-42.2041,42.7192,-272.7589,92.1488,-282.1704,100.4897,-166.1212,55.4130,-90.8031,215.6020,-172.8313
-3273.4375,-36.0685,-35.8368,54.3750,-121.5384,55.9251,-74.5542,119.1897,-9.6132,102.0721,50.6503,-46.4794,-69.6588,-35.3887,-115.1419,9.6879,-37.2490,82.1645,5.2448,170.9164,-6.2643
-3265.6250,181.8611,-12.5712,142.5708,-188.3604,144.1680,-134.4675,243.1435,-70.7707,151.9360,-121.0149,151.8401,-203.0513,89.5913,-212.5828,134.4297,-171.8595,158.4202,-131.2121,141.7137,-177.1966
-3257.8125,176.4632,-9.6519,166.4699,-124.4817,205.1166,-37.6891,230.7996,-10.2339,102.5118,-24.9683,-81.1559,-251.7396,3.2753,-224.3009,10.8859,-112.7483,12.3417,-68.9687,171.2150,-43.4082
-3250.0000,49.5498,-26.1525,70.8901,-42.0503,145.5889,-61.3669,60.9719,-71.1391,116.6485,-86.3232,43.3925,-237.8558,127.5043,-210.4412,61.9014,-137.0479,235.8039,-57.1537,112.2619,-67.0430
-3242.1875,233.4143,7.5745,231.1087,-71.8334,269.8625,-122.2636,220.9496,-132.2409,129.6078,-74.8298,56.7464,-299.1778,67.5281,-235.7785,74.7375,-161.5324,137.0478,-157.5452,84.1180,-201.8828
-3234.3750,44.4258,16.4290,25.5106,54.5963,27.3226,2.0478,52.1139,-45.1276,34.7590,49.8769,-74.7211,-137.2824,-65.2648,-73.8830,-58.2209,-0.7790,158.4752,-31.7192,35.1704,-40.4932
-3226.5625,203.7005,38.2622,52.2059,2.3392,54.0758,-119.3504,78.5635,-93.7210,134.2161,-73.1683,136.1306,-185.0793,35.2667,-120.6692,116.1555,-122.7054,248.2208,-190.5898,18.5167,-198.7994
-3218.7500,249.0469,43.4497,93.0106,-59.8307,94.9380,-116.6547,193.1341,-90.2136,212.7946,-33.0889,-80.9293,-144.7925,-71.1003,-80.3538,9.6361,-83.5122,11.0406,-113.3570,61.9834,-84.9943
-3210.9375,119.8786,59.0579,-80.6600,-14.4528,-5.6750,-71.4040,18.2331,-82.1365,37.9253,-171.4082,-34.4476,-24.9452,12.0880,-34.4733,55.6627,-1.7388,233.4113,-32.5556,3.0101,-39.6168
-3203.1250,349.6363,103.3288,90.6300,-33.1357,129.6648,-121.2098,153.2930,-95.1086,25.0285,-259.7686,-9.0005,-148.1644,36.2443,-120.6359,79.6553,-89.0042,145.7284,-121.8163,55.9966,-163.2979
-3195.3125,143.2904,77.7191,-60.1331,41.1266,-21.0560,57.9410,38.3043,46.8791,-51.9098,-45.1457,-196.6288,-42.4336,-114.6608,22.1742,-108.4042,15.7158,79.9766,56.8894,23.9462,15.9947
-3187.5000,166.0106,72.4788,-29.8123,-8.5118,9.3036,13.1847,31.4040,1.9708,-21.7371,-126.4071,17.8538,-48.6009,25.5405,-57.9076,-4.3481,-102.4507,207.3405,-28.2947,10.9989,-138.6147
-3179.6875,234.2702,66.1626,76.0694,-46.6051,115.2170,44.9745,175.0735,-3.3800,11.0040,-58.1035,-97.1220,-90.2325,-51.7099,-99.4407,-45.7383,-108.0543,-5.7633,-31.9341,8.6048,-106.6769
-3171.8750,63.8255,62.1489,-68.7156,62.6573,-66.5397,82.1210,-44.9226,-2.3787,-24.8948,-58.4367,-57.7575,21.4934,-50.6090,49.3918,-80.7800,-34.2815,139.4954,41.7863,-57.4318,-32.3623
-3164.0625,330.4630,101.2298,106.6139,12.0089,108.8111,-0.6496,94.1930,-122.2831,40.3279,-288.6688,80.7204,-97.7008,51.6088,-33.6768,20.2999,-117.4061,89.8653,-115.4076,-72.3512,-188.9563
-3156.2500,199.2051,102.4187,-2.9032,20.5003,36.3123,36.7320,58.4677,-49.0281,4.7149,-140.7153,-64.6771,87.2502,-94.0335,41.4178,-125.4717,-7.3514,-76.6277,33.5574,-98.1089,-4.3821
-3148.4375,153.2470,101.6961,-46.0792,7.3444,-6.8562,-8.5432,-21.9189,-93.4304,34.4689,-113.3969,75.2916,153.5487,45.6942,-76.1304,15.1311,-125.9346,52.2483,-15.1239,-74.5176,-122.4528
-3140.6250,218.2245,105.3481,58.7154,-33.8764,97.9391,-14.8892,156.6706,-62.8883,66.2039,-46.1198,-39.7870,110.7691,4.3902,-118.7402,-27.2974,-169.5659,-93.9382,-56.8579,-9.9532,-128.5784
-3132.8125,-22.4996,76.8370,-89.1522,76.2442,-86.9307,57.1109,-28.3961,-28.9808,-44.6977,-49.4711,-77.5347,182.3359,-70.5590,27.0120,-65.3749,-24.8211,52.2232,87.7771,-75.0196,16.6694
-3125.0000,167.0563,67.2357,79.2904,17.6566,44.4990,-33.5982,102.8493,-81.7865,49.7208,-213.5375,54.0403,-53.8140,-49.1850,-61.9415,65.8743,-114.7712,101.7026,-6.2978,-61.7769,-146.7959
-3117.1875,67.0849,39.4489,77.2416,22.5597,42.4346,74.1971,100.6096,24.9079,10.6536,-105.0827,-131.9029,-56.4755,-198.3091,-28.3884,-83.3749,-45.1994,-33.3416,139.1313,-21.0255,34.2506
-3109.3750,-53.1333,14.2567,26.9805,7.2587,29.1474,59.7830,13.1600,10.4083,-39.5930,-193.8126,1.9572,2.6573,-64.6133,-42.0394,-23.8090,-59.8080,92.4299,158.3700,-1.4632,-16.8934
-3101.5625,83.5869,-0.1575,173.6867,-104.1105,175.8206,20.2997,196.6879,7.8549,-2.8595,-123.5873,-108.2314,-72.2915,-65.9456,-42.7594,-24.2681,-98.4610,-122.8575,117.5507,30.0762,-92.0956
-3093.7500,-131.6873,-7.4280,-57.5732,-3.4378,-18.4750,155.8681,2.2644,107.3648,-124.0632,11.7140,-191.3904,100.8067,-113.2313,93.5794,-145.6779,36.9660,-92.0970,217.7986,-9.3149,43.7764
-3085.9375,54.5141,4.4651,35.6693,-64.2839,74.7248,101.9289,95.3500,15.3672,-29.7440,-116.4917,11.9677,-27.6079,17.0055,-34.5874,-14.5589,-91.1021,-10.8186,85.5424,0.8073,-157.8604
-3078.1250,-43.7050,-29.6275,75.5203,-22.5503,114.5346,176.5997,134.0632,126.9678,-64.7997,-5.0830,-170.0938,-99.4412,-90.1524,-32.1546,-159.8323,20.4402,-108.9677,196.8849,43.5534,-45.8884
-3070.3125,-218.7207,-41.8679,-32.3945,82.4230,43.5755,178.5294,-9.9858,128.8271,-98.5932,-40.4118,-56.9071,-23.0253,22.9553,7.5332,-46.8494,21.2527,103.1418,126.4936,-25.4423,-80.6516
-3062.5000,72.6561,23.1593,130.1125,21.7791,205.0316,81.8396,152.3866,-4.9182,-9.9602,-137.3335,-78.3117,-82.2316,37.4815,-52.3958,4.5575,-75.5359,7.6465,-111.5102,18.9716,-177.0287
-3054.6875,-46.6103,37.5238,-77.9830,76.5294,33.8784,93.5442,-18.8396,6.7462,-69.9178,-52.8341,-175.3361,76.9697,-59.5985,108.0793,-129.6402,47.1037,28.5431,13.9035,4.7920,19.0173
-3046.8750,36.6968,48.8324,53.5216,88.8746,92.3223,-70.1622,2.5342,-119.9966,-48.2636,-142.7425,66.2572,-13.2310,145.9448,-18.8554,2.7831,-79.6537,183.0627,-80.0788,-16.7839,-144.3423
-3039.0625,19.7428,33.7900,142.7955,70.9570,181.5285,-56.1224,127.6887,-142.9936,-32.8367,-128.8904,-28.4135,2.2961,88.2455,-3.0553,-56.0349,-102.6552,-44.6857,7.6887,-33.5950,-55.9506
-3031.2500,-138.1520,45.2551,49.1595,123.1325,87.8216,-40.9847,-76.0664,-199.8852,-126.2970,-222.9379,25.0113,164.9259,177.6554,86.8457,-38.7467,-87.5379,149.6803,24.5696,-85.2999,-3.4406
-3023.4375,76.2050,50.8811,169.7937,19.5369,244.3778,-142.6199,117.4565,-229.5384,-42.4843,-215.7485,35.6959,26.7835,188.3389,-15.0278,43.8197,-152.1730,47.3009,-114.3072,23.2673,-141.6949
-3015.6250,-61.5178,35.1427,16.3742,56.8782,90.8807,-75.3052,37.9416,-162.2304,-85.7111,-2.5843,-117.6953,130.5911,70.9639,52.0420,-72.6715,-12.8382,-19.1416,27.7888,-43.1922,72.0206
-3007.8125,48.0807,51.8391,25.2985,60.5638,100.7237,-177.6475,-27.2251,-264.5757,-39.5764,-214.0716,112.2737,101.7499,264.9589,24.4553,121.2076,-78.1485,90.7865,-38.7645,-180.2968,-29.9166
-3000.0000,134.7843,58.4418,113.3430,40.3315,151.6872,-164.9052,60.7405,-251.8292,11.6841,-201.4732,-20.6594,78.9933,169.0653,74.9450,98.2025,-28.3550,-105.2063,-95.2253,-129.2861,20.2426
-2992.1875,-83.1025,44.7588,-80.1800,138.5369,-78.9128,-64.7158,-204.8490,-151.6241,-107.5940,-64.4035,-67.1592,215.6956,122.6263,248.8768,15.6482,71.9082,30.2504,-66.2156,-99.8116,83.8723
-2984.3750,96.7036,81.3466,80.0035,106.4214,7.1859,-128.8401,-83.7233,-250.7098,-21.1486,-91.6157,56.0483,154.0801,134.9042,150.4811,64.8149,-27.1277,34.4096,-239.5161,-60.6131,-88.8158
-2976.5625,39.8907,89.9247,-25.4135,118.6939,-97.3201,-49.5581,-150.1857,-173.3855,-89.2870,59.5868,-121.3713,231.8590,30.5723,192.4848,-77.6245,13.2646,-58.0529,-122.3989,-11.0071,99.9097
-2968.7500,62.1025,104.9069,-33.7882,140.0122,-106.7882,-97.2266,-232.6048,-293.0156,-60.3666,-97.1686,126.2676,222.6865,169.3081,72.5305,23.9960,-70.2837,141.5541,-135.2210,-129.3511,16.6878
-2960.9375,278.6224,137.9547,119.1560,109.6064,10.0620,-92.6077,-80.6881,-362.3472,-17.1226,-128.6213,58.2028,117.7888,101.3574,40.8435,-6.0706,-65.5352,6.4460,-201.7483,-193.3701,21.7559
-2953.1250,110.3564,150.9906,-62.6671,256.4449,-172.8522,-18.7332,-299.5260,-252.4157,-162.6224,-92.8033,-13.6326,191.1414,-8.3430,151.3987,-114.8874,45.4816,119.5838,-55.0011,-185.1214,169.0937
-2945.3125,316.8288,192.2969,50.2604,216.0175,-96.0128,-91.1237,-149.5961,-249.7380,-122.3518,-200.2354,100.2950,47.2273,32.7248,7.6751,-37.9249,-99.7581,185.4836,-96.5041,-84.1041,-11.8351
-2937.5000,177.8405,162.3935,9.7378,217.1278,-98.6209,15.0317,-79.0876,-144.5031,-124.5120,-58.0914,-123.2501,78.8533,-153.6636,40.4824,-188.4191,-29.4363,47.9119,80.5538,-46.5218,130.7915
-2929.6875,24.6806,131.3412,-35.9473,203.0866,-145.3892,-32.9596,-125.7359,-154.4154,-97.8156,-69.0947,51.0547,143.3264,-53.1893,-6.8803,-88.0593,-77.2537,246.2127,67.4723,-94.0898,47.2729
-2921.8750,157.3427,136.1215,144.1961,123.8305,-3.3421,-75.1646,54.4385,-124.5379,-28.2988,-38.3209,9.1697,64.5756,-56.8962,-85.4730,-91.8778,-120.2777,133.3082,-82.8195,-65.8495,-31.4580
-2914.0625,3.7803,158.0249,-59.8674,251.3678,-206.5078,14.4359,-148.5921,-33.8518,-119.9782,50.2760,-82.9369,190.6194,-149.8085,5.7188,-184.8987,6.5141,227.1990,44.7091,-77.7928,131.6329
-2906.2500,185.9645,173.9163,64.8234,186.6393,-118.9217,-83.2278,-97.8632,-132.4191,-105.8970,-120.3819,151.7234,93.3995,-25.9535,-92.3679,-60.1534,-90.9485,268.8593,-91.0085,-35.9755,-38.5398
-2898.4375,149.5999,134.4380,95.9791,149.3484,-50.8732,20.5590,-29.6559,-64.5329,-111.3564,57.4083,-38.1852,87.6188,-140.6518,-24.0227,-211.9585,-23.9513,21.9445,-57.2687,-35.7052,65.7422
-2890.6250,13.7082,101.6905,-81.3769,152.5535,-154.3436,62.8507,-205.9665,13.8611,-141.3144,62.7085,78.4032,166.3430,-97.8417,54.8084,-169.2679,55.5638,167.5422,-89.0169,-65.9241,34.5371
-2882.8125,215.7845,75.8964,25.2369,1.6817,-11.8475,20.0752,-27.2981,45.2024,-71.3052,56.9578,111.9511,14.9917,-65.0646,13.5560,-99.6158,50.0199,18.0870,-238.8222,30.8283,-80.7355
-2875.0000,6.5960,22.4704,-164.4041,4.5480,-164.6098,123.0583,-142.8674,148.3051,-112.5422,85.9779,-5.7779,117.3870,-143.5457,153.0382,-142.2232,190.2350,-49.6359,-61.8510,-1.6555,132.7578
-2867.1875,87.4038,15.7437,-111.0499,-57.5951,-111.3774,-7.9613,-89.4325,54.4039,14.2357,-82.0081,159.5051,60.7707,19.9920,96.4926,21.1826,59.4511,31.6593,-156.8765,9.8621,2.2398
-2859.3750,137.5291,10.6390,-62.3761,-113.4531,-25.8375,2.3105,-3.6686,138.8002,27.3335,39.3125,-49.9218,34.4327,-78.1734,107.2204,-113.1086,106.9653,-163.7628,-143.6081,60.6975,87.0197
-2851.5625,5.1334,21.2184,-164.2168,-70.8167,-164.8170,45.0825,-179.4135,144.7068,-75.0716,45.1487,31.1424,188.5970,-33.8414,150.4303,-104.9040,149.9900,-14.6709,-100.8180,-35.9554,130.3138
-2843.7500,206.7022,33.2660,52.9042,-187.2458,15.1598,-32.2077,0.8123,66.5689,-40.5156,41.9416,65.1701,74.6815,0.4559,-37.4527,-34.7396,35.9585,-129.6247,-147.0810,61.3618,-20.4639
-2835.9375,-11.6934,-27.9568,-34.9301,-159.6289,-35.8206,61.5699,-85.9043,161.4973,-90.9043,172.8018,-132.7828,94.8082,-86.2100,57.6972,-196.5323,129.9927,-205.5429,55.7292,89.7344,147.8203
-2828.1250,18.0019,-49.0614,39.3278,-166.9109,2.2889,-48.5517,-85.5194,87.5168,-53.1826,25.7305,125.3742,-14.9637,98.2391,-53.0724,-48.2117,-16.8754,-70.3373,14.6491,49.2054,1.1985
-2820.3125,118.4646,-44.8355,181.3549,-172.4641,106.1653,-91.9263,55.6477,44.2849,-21.6971,55.4121,46.2717,-94.0114,55.4414,-95.1273,-91.1393,13.0040,-250.3991,9.3174,45.4502,31.3167
-2812.5000,-67.1453,-63.7492,-18.6887,-114.0771,-20.0281,-71.3426,-142.2428,64.0204,-73.2646,112.0809,30.1049,35.8876,114.5919,-1.2490,-105.1242,143.8492,-120.5097,66.9526,-35.3421,125.3974
-2804.6875,125.9663,-56.1071,81.9781,-203.0045,80.4780,-157.0734,30.5862,-20.5495,26.8839,-9.5710,130.6552,-49.5281,177.4599,-50.7028,104.6145,58.3833,-172.9166,-91.7182,-16.4306,-32.8403
-2796.8750,37.9345,-78.9298,-53.5010,-221.0857,16.8265,-73.9553,4.2745,98.7308,0.8919,146.6273,-115.9686,-2.0993,4.1695,33.6744,4.2011,215.7771,-294.4892,31.4725,37.3410,160.7861
-2789.0625,-37.7516,-133.1435,-163.6456,-261.8207,-56.4985,-39.4917,-68.6976,171.3654,39.2511,145.1917,30.7648,-40.3256,78.2400,31.3789,115.1434,214.5229,-157.6947,-9.9792,33.4719,49.7615
-2781.2500,57.6844,-123.6122,-62.6743,-238.4744,82.2797,25.0680,70.4586,162.1086,104.7232,172.8686,-88.4097,-122.4802,-2.5825,22.1456,33.1915,242.3668,-308.8169,-56.3312,23.7192,3.8205
-2773.4375,-175.8033,-118.3705,-202.6218,-87.0299,-94.8661,102.7483,-143.2911,166.9731,74.2886,177.6627,-118.5034,29.4610,-33.3132,136.9984,-33.6700,320.3291,-155.8431,60.4487,-103.9268,155.9948
-2765.6250,-17.1300,-96.4561,-66.4126,-105.4506,41.1353,-55.4250,-5.8755,8.9925,139.0073,56.5959,54.5676,-92.4690,104.1197,15.9665,140.6308,162.4351,-66.7073,-97.6182,-49.4118,-1.7018
-2757.8125,-80.8965,-100.1285,-28.6495,-99.3302,41.6807,-18.0385,31.1145,44.5760,66.2836,166.0963,-164.8383,-92.8690,-5.9063,52.4631,-6.5323,162.1014,-165.0410,48.8780,63.6624,145.1550
-2750.0000,-156.5247,-95.8070,-67.7521,-70.0610,3.3539,-22.4957,-80.7603,79.3122,-8.2906,126.7527,-20.0901,-58.1236,67.2238,12.0882,29.4595,85.9282,5.7929,113.5374,23.8879,69.1654
-2742.1875,-6.8217,-87.3094,94.4627,-98.5060,165.3335,-8.6635,118.6907,19.3457,43.4481,102.7135,-42.0355,-155.1038,44.6621,-48.0290,6.7664,62.0405,-161.0840,51.4852,-1.5732,-27.5418
-2734.3750,-195.9789,-71.4385,-37.1850,-6.8047,32.4433,41.3255,-49.7084,32.5396,-14.6690,116.8458,-136.8503,6.0651,-49.7598,39.9902,-86.7917,150.3168,-67.8154,177.6043,-14.8832,133.9199
-2726.5625,-52.2245,-60.1172,83.0704,-76.2039,116.4406,-96.7898,33.7882,-68.3711,70.1157,15.8690,56.2510,-95.8782,70.7314,-98.1192,69.5665,-24.5122,40.3738,74.6213,-10.2974,-3.7303
-2718.7500,-112.4458,-84.0888,52.3368,-66.6132,85.4328,-53.9049,77.3076,9.7178,76.9058,167.8950,-120.6664,-90.8370,3.2124,-93.2489,-35.0784,53.6617,-124.4562,154.6448,0.2995,111.6236
-2710.9375,-213.2299,-73.0392,-52.9639,-27.5787,-21.1550,-87.5661,-64.7321,-58.7324,45.1424,60.3812,-7.1416,22.6572,82.1475,-52.9490,43.7266,20.2916,56.1736,193.1394,-64.6432,115.4387
-2703.1250,-50.1358,-71.7235,86.6001,-112.7192,119.1125,-169.3916,186.1046,-141.3287,149.2453,-21.2872,-13.7579,-96.0293,74.9452,-98.8379,110.4020,-24.2371,-26.3558,74.4788,-5.7187,-2.9151
-2695.3125,-281.0971,-100.4345,-123.8967,-62.9200,-54.6903,57.7477,47.8997,50.0390,48.2966,171.0075,-187.4448,23.2326,-98.3199,56.2059,-99.9857,94.1930,-44.9524,229.7925,81.1651,152.6992
-2687.5000,-226.1999,-112.2085,-95.5509,-116.2819,-26.6607,122.7368,40.5451,115.2590,41.1994,88.1456,-12.2634,-23.6651,40.2786,10.0749,1.4866,12.4662,43.3083,142.9646,29.9025,-39.8458
-2679.6875,-161.4328,-129.4391,-30.3476,-192.8085,38.2158,186.5833,143.0673,105.3427,33.9531,115.1504,-131.2489,-33.7420,-4.2791,73.7693,-43.1972,76.5937,-171.6037,135.9912,25.5043,24.4536
-2671.8750,-276.8803,-125.7660,-152.3665,-168.5284,-121.1404,209.2514,-53.6288,55.2463,-52.5030,64.9777,-34.4459,99.9769,19.9582,133.2529,-19.0933,172.5353,-6.7067,160.8398,-19.0961,84.5646
-2664.0625,-76.2989,-114.1456,-9.3726,-250.2530,21.4971,94.9223,128.6875,14.1508,56.0387,60.7970,36.3692,-14.3275,17.2021,54.7030,15.0256,58.4679,-120.7977,9.6798,113.3034,-66.3435
-2656.2500,-218.0608,-111.5854,-127.7336,-182.3251,-61.2357,158.2638,8.6599,187.7198,-26.7823,234.2835,-156.1906,85.0082,-137.9231,154.7877,-177.2278,159.0589,-192.2498,183.1903,112.3593,107.4123
-2648.4375,-154.1213,-83.5269,-127.4043,-188.6954,-23.2982,84.3105,10.3218,188.9990,-23.9095,87.4672,27.9591,49.0414,-26.3453,44.5489,-65.7772,-24.6461,-21.9846,177.4125,73.1161,-39.1380
-2640.6250,-66.3524,-67.9400,0.7361,-139.2768,66.4380,137.1601,175.8095,131.0825,29.7700,66.4499,-102.0997,-46.1533,-82.9667,-13.9151,-122.5209,-45.5571,-180.9417,193.4370,54.6820,-22.8967
-2632.8125,-234.1462,-50.4623,-142.6961,7.5913,-77.4112,175.4765,-42.2688,133.6296,-40.1084,31.8986,-61.7232,66.1026,-79.1444,24.0594,-81.8234,-7.0031,2.5500,199.9426,-7.3054,89.8149
-2625.0000,-5.8658,-26.8971,-7.0730,-45.5026,58.7778,-19.1700,95.7148,48.2261,24.0597,-15.5970,74.7206,-55.6128,57.7382,-134.9493,54.9399,-91.4101,-48.9027,41.4954,47.7676,-68.4407
-2617.1875,-90.9694,-18.3167,-66.8509,-25.9975,-3.4515,27.7917,34.3116,170.4354,-0.1742,105.5305,-96.2513,65.2598,-75.7985,-159.3734,-115.7183,66.7891,-203.7808,166.6594,-2.5577,126.9154
-2609.3750,-94.4186,1.2565,-103.9957,3.1639,-77.0654,-46.5881,-75.4638,132.2997,1.2271,31.3080,87.4379,101.7861,71.3179,-308.1586,31.2747,29.6443,-31.9902,127.4842,-75.2472,52.9253
-2601.5625,17.3668,18.0773,-22.9258,8.5140,4.5137,-2.7620,79.9775,176.3659,46.8259,38.2862,21.3316,34.4901,-31.3656,-375.7729,39.4698,36.6911,-201.0141,62.5089,-32.7289,23.1245
-2593.7500,-238.7083,-6.5627,-221.7242,138.0210,-194.7939,127.2339,-118.4437,306.6058,-41.4459,131.4368,-67.6416,127.3430,-82.9169,-246.2480,-49.2045,129.9047,-104.8923,227.7165,-41.0611,153.4922
-2585.9375,-106.9165,0.6293,-149.6724,92.3876,-86.2702,52.0840,-8.0211,268.7033,31.1260,93.4282,5.2527,16.0252,-9.6098,-357.8996,59.9821,18.9614,-77.9081,148.7790,55.4497,-31.3070
-2578.1250,-201.0529,-1.8098,-181.5669,136.8038,-118.7154,165.9962,32.4645,308.8663,-1.2588,206.4797,-174.8243,54.7404,-152.2679,-282.5075,-118.7899,21.0768,-172.9018,227.9013,102.0076,118.9501
-2570.3125,-223.3003,31.6546,-201.5878,148.1252,-139.3023,107.8299,-61.1676,213.9462,-57.7616,38.4426,-12.0064,144.3592,-63.0329,-230.2161,-66.6619,-36.8940,51.0146,205.9380,45.4632,61.1145
-2562.5000,-60.7680,26.3848,-27.8500,63.1870,-3.1460,23.4206,113.9679,203.7822,43.4833,64.1559,-58.4391,22.7053,-109.0466,-315.1932,-38.7794,-10.1198,-103.3315,85.7241,138.6693,-22.9862
-2554.6875,-293.6950,-37.9361,-167.5803,39.8066,-143.4732,102.5847,-25.3559,320.1863,-21.7356,217.4436,-161.3490,101.6027,-174.5283,-199.6259,-141.3651,180.2197,-53.1384,204.0913,117.4203,130.4835
-2546.8750,-114.3529,-9.8891,-45.0669,-62.3200,-58.5764,4.0036,97.5646,220.8438,64.2855,-28.0208,34.0068,39.7327,-14.7544,-299.8323,54.3083,-29.1981,55.3191,66.7168,122.4182,-41.8069
-2539.0625,-64.4901,-15.3192,-36.0511,-119.9481,23.8068,11.9326,143.9995,230.0133,111.8011,54.0370,-139.1556,47.3462,-114.4976,-217.5610,-46.5275,-21.1187,-140.7484,115.8557,136.9254,77.4052
-2531.2500,-140.8386,-24.1423,-188.2632,-57.7683,-93.0536,4.6808,-45.7850,186.0043,69.0965,83.9147,-72.5236,76.7602,-48.4532,-152.4905,21.4245,8.7710,28.9899,143.8173,96.2359,70.4291
-2523.4375,75.3472,10.0850,-29.9657,-54.0899,27.5677,-58.0681,150.9440,123.4962,154.8855,57.2880,-61.3788,-60.3456,-72.9072,-252.9407,69.8866,-53.8415,-71.7793,7.2769,137.0355,-66.0638
-2515.6250,-43.9110,38.0134,-127.1323,70.1469,-143.2951,-9.2444,16.2130,135.5503,57.2136,106.2262,-158.7064,61.0943,-205.8294,-94.8455,-63.1110,31.1130,-50.0197,133.3047,52.3752,130.0155
-2507.8125,168.6900,88.7684,-82.4624,71.2346,-99.3375,-148.5666,-10.6856,33.4677,-6.6186,-32.9855,106.8332,-41.6269,-50.8998,-197.9148,54.7521,-71.0839,127.6016,-5.8108,20.5654,-9.0592
-2500.0000,208.5674,61.5237,-5.5382,4.5686,-23.1460,-109.6282,102.6813,108.6549,-3.2051,80.0671,-74.3925,-112.1184,-120.7358,-159.7455,-52.1411,4.9705,-44.5502,-1.6710,61.0082,30.1144
-2492.1875,-3.4707,36.6121,-116.5461,73.0177,-134.8987,-2.5605,-117.8727,142.9648,-77.7132,40.2369,-2.5348,-6.4998,-121.4888,-53.4724,-53.9497,76.1406,131.4005,32.5961,-9.4620,64.4047
-2484.3750,196.3655,64.5727,61.2990,24.3277,5.1775,-44.6400,23.4257,64.1247,-45.3809,-38.7449,103.1797,-86.0518,-53.3854,-97.3675,52.1041,-76.8423,85.2025,-156.2826,-20.0931,-88.4725
-2476.5625,113.6497,79.3171,-70.4160,81.0956,-127.3224,41.7555,-70.8293,77.7565,-103.6141,47.7513,-29.6853,36.8401,-148.8542,-10.8119,-79.4125,9.6359,1.4298,-28.6810,-32.2781,109.1161
-2468.7500,148.7269,106.8485,-67.3490,113.6753,-125.0562,-65.0352,-104.3032,-28.7973,-63.0706,-95.9511,158.2589,40.5264,39.4777,-118.4585,34.8704,-133.0820,142.4687,-29.2568,-31.6680,2.5017
-2460.9375,227.8268,84.9363,52.7275,51.2524,-5.8002,-56.8072,89.2430,-20.3437,20.4652,-13.6557,20.1975,-62.8079,-62.1969,-147.1098,7.1530,-160.7994,-60.5178,-20.8283,12.9370,10.8767
-2453.1250,-54.6904,33.0483,-61.8206,84.2439,-84.1806,-25.1519,-60.8291,11.5258,-56.6258,55.0615,-21.4846,42.2656,-65.4892,-43.3447,-34.1795,-56.0958,79.8905,83.0250,11.9273,79.6693
-2445.3125,151.2609,45.0803,161.0799,6.6957,64.8685,-59.0420,52.5460,-59.1580,-17.2779,-89.7683,92.2938,-103.2221,10.6744,-116.1388,42.9467,-164.9518,74.7572,-63.6702,43.3624,-102.1052
-2437.5000,30.2693,37.3309,101.0237,60.2121,2.9458,63.1409,28.9744,63.2229,-112.8969,-41.5428,-78.8996,-54.6643,-122.1350,5.1226,-126.8973,-78.7494,-12.3398,60.6932,62.8419,57.1830
-2429.6875,-2.2236,22.4656,34.4490,26.2506,-26.5180,69.8392,-36.1292,33.1147,-106.0369,-144.8197,75.4119,-48.5989,-4.4560,-25.1133,-9.2419,-109.0422,167.0860,27.5687,65.8037,-46.0239
-2421.8750,113.6176,-21.3488,158.1824,-70.4006,96.2998,45.8444,161.0729,46.3088,-18.8833,-21.7845,-21.9761,-184.2496,-28.4856,-50.0580,3.7160,-59.0348,-69.2072,-33.2602,112.0500,-106.9419
-2414.0625,-139.5006,-57.1679,-3.0577,-44.9859,-29.8780,140.9221,-36.7010,104.5705,-69.7022,37.3284,-73.3295,-15.8468,-42.4821,44.0584,-47.2892,36.0461,-6.4610,98.9801,69.3312,25.2136
-2406.2500,59.9968,-46.0167,104.2992,-161.9627,76.5191,-9.3997,108.1076,-8.5646,76.0692,-76.9607,71.9418,-92.8585,66.1291,-71.2352,134.3167,-114.2752,-17.1034,-53.1833,129.2042,-162.0408
-2398.4375,44.2547,-31.8069,44.4051,-144.1778,15.6473,40.0383,158.6698,41.0591,88.5786,82.5192,-136.0569,-45.1327,-105.5276,-59.7785,0.6665,-65.8390,-173.0227,71.4210,149.8176,-2.5340
-2390.6250,21.4035,-2.8744,-52.6142,-98.4664,-45.3671,16.3897,26.1032,-19.4052,65.9634,-51.0978,24.8430,41.4996,-17.2913,-47.4136,124.9133,-52.4920,48.9674,12.9497,-13.6870,-26.1163
-2382.8125,195.1812,3.5531,95.9711,-136.1452,65.2060,16.3493,174.1454,-92.2665,141.9339,-50.1170,-11.6598,-106.2856,-16.4592,-84.4563,126.7719,-88.5506,-23.4573,-94.9178,55.3987,-99.1122
-2375.0000,-134.8024,-57.3150,-37.2206,-11.5511,-141.0105,140.5901,-31.5777,69.1403,46.1318,147.1383,-142.9428,-55.8113,-147.4054,75.7710,-6.1433,72.6580,68.3540,31.4918,111.7220,62.1628
-2367.1875,79.0683,5.4079,47.4250,-10.0938,-132.4020,3.6955,16.5365,79.4022,20.1674,84.2474,87.6388,-120.4936,-100.5078,-26.1474,78.7936,-28.2865,176.0284,-142.2424,44.8836,-111.7233
-2359.3750,368.8478,114.2470,50.9743,67.2748,-166.9053,43.7205,-16.4418,81.5740,-12.9125,86.2769,-19.8988,-118.2892,-243.7274,-24.1599,-102.3780,11.6784,-26.4234,-100.0692,-88.0655,1.2919
-2351.5625,375.6613,134.9042,-90.4565,143.7146,-271.3998,85.8204,-229.4044,14.8108,-79.9685,-17.6297,60.6071,-113.0271,-162.9092,17.8974,-95.5030,17.7122,120.1799,12.1742,-149.9847,7.3715
-2343.7500,533.3941,117.6056,45.0179,88.0636,-102.0074,73.8261,-58.4624,-35.0450,-55.1386,6.3624,48.0223,-273.8798,-102.1949,-33.1516,-33.7193,-32.3582,-3.3237,-42.6855,-134.0109,-152.6651
-2335.9375,246.6187,81.2437,-77.0326,152.9360,-187.1460,209.3578,-142.0346,27.6230,-138.8298,141.8891,-111.0950,-103.2308,-186.0073,101.3103,-154.4609,66.0878,-43.3468,128.9801,-172.5416,-17.1823
-2328.1250,265.5267,93.1556,-13.4196,99.4692,-88.6381,87.5387,-78.9557,-20.0697,-111.8770,-89.9574,99.4629,-77.9486,-13.1576,16.4031,-17.5315,-54.8382,80.2994,6.2857,-119.4440,-175.0761
-2320.3125,304.7988,79.6778,60.5472,67.3712,21.2074,88.0904,69.4679,-20.4058,-37.5936,-52.4475,-10.6558,-115.3268,-48.9826,14.8494,-90.2637,-54.4029,-126.7182,8.9534,-80.0113,-101.6095
-2312.5000,39.1614,12.2180,-72.3975,46.3995,-112.8747,101.7471,-137.0372,-5.6432,-60.2338,34.1486,4.3409,8.4004,38.2907,64.4115,-38.8844,-3.8681,-5.6140,95.7326,-63.4985,-51.0441
-2304.6875,165.1057,-24.6549,65.2212,-75.0241,60.5916,-18.0470,39.0270,-52.3302,41.6733,25.2946,67.8857,-113.3413,140.1062,-19.4732,99.0581,-87.7930,-126.9808,-25.9401,-8.4437,-207.9431
-2296.8750,-11.0238,-24.3647,-18.2367,-41.4765,12.9785,81.1338,-7.9800,-26.0530,-5.4891,51.4085,-89.6422,59.8778,56.8550,78.6139,-58.0726,12.2444,-197.4038,78.3652,-8.4504,2.1306
-2289.0625,73.4552,-2.4549,-0.0925,-64.3188,29.9540,-11.0780,-62.3909,-192.1712,-23.0659,-114.8811,150.4515,39.6907,185.2042,59.2980,108.4021,-80.1352,26.7890,21.2646,-99.8620,-90.2174
-2281.2500,138.5369,-24.7516,68.6513,-105.5480,133.5161,20.3338,116.7986,-160.6651,7.9367,26.4651,-2.8826,-76.9086,70.1240,15.5929,66.4565,-85.8921,-154.4521,15.7713,0.3197,-95.9588
-2273.4375,-163.6006,-68.4980,-105.8317,-22.9519,-4.1608,140.5699,-57.2496,-40.3490,-92.2848,36.6167,7.5795,42.3041,79.8304,97.7115,3.3102,-2.8251,-34.8742,135.0862,-20.7194,-12.8891
-2265.6250,20.9864,-48.4813,95.3904,-49.6447,158.8601,83.5162,71.4122,-170.3294,-0.8137,-204.5359,208.7386,-89.8005,208.2325,3.5366,93.8647,-97.0675,9.3928,-31.9014,-47.0607,-180.1339
-2257.8125,-56.5063,-43.5164,44.5332,12.6404,105.7992,142.4501,19.9992,-112.3292,-52.4226,-72.7121,-27.1859,-31.9369,46.5493,97.3423,-30.6607,35.6580,-103.4029,101.1006,-53.4674,-11.4044
-2250.0000,-71.6093,-36.3929,-41.9383,31.3586,18.1187,92.8013,-66.0352,-87.9302,-64.6507,-122.5050,107.3052,-45.6710,107.2733,46.5594,67.2299,-15.2222,92.2158,50.5104,1.4970,-98.2899
-2242.1875,92.2324,-55.1033,94.5426,-87.9493,116.3822,45.1247,107.8833,-25.5698,35.0573,-23.3248,22.7133,-168.4589,59.9208,-2.2565,94.0647,-26.1491,-96.2473,-103.1242,95.4027,-146.2236
-2234.3750,-153.5122,-84.6758,-97.5600,-18.7764,-75.9411,110.9190,-83.7815,77.2542,-45.8037,116.3235,-58.4398,-29.7859,53.0024,136.4018,13.3386,113.3912,8.7516,1.7145,24.7447,-6.6951
-2226.5625,-25.7825,-81.1217,8.7997,-32.1423,28.2030,33.1521,23.0196,-37.4861,-13.2228,1.4004,120.8679,-145.6714,158.5289,93.5110,119.0778,35.3714,66.1995,-117.0051,12.5173,-195.7319
-2218.7500,-66.7599,-68.6477,32.4454,30.8169,51.6316,130.7056,47.0984,-12.9291,-25.3686,-11.2131,-75.5437,-123.2449,35.3438,116.9495,33.1064,58.6769,-80.0770,17.5882,6.5540,-61.4408
-2210.9375,-137.8916,-36.6768,-39.0714,100.6477,-22.1071,95.1112,-61.0094,-48.5272,-97.6856,-120.9732,146.9189,-48.9778,111.0286,80.2575,34.9986,-14.1640,165.5126,17.0289,-63.5846,-97.3089
-2203.1250,72.4845,-11.7674,147.9162,99.0058,90.6588,61.0241,53.3786,-82.6175,-94.5073,-44.2132,149.8568,-194.2295,114.2001,9.0793,39.3824,-84.5000,58.5794,-125.0276,-29.2283,-204.6811
-2195.3125,-120.8725,-31.2127,-24.8272,185.7063,-46.3012,146.2585,-119.9734,2.6066,-192.0425,76.8502,50.0806,-111.1658,15.6495,129.2300,-59.9545,36.4799,111.9529,-1.7517,-46.5955,-46.7349
-2187.5000,-3.6207,-22.5152,67.0453,126.0294,7.3529,18.0877,-26.7225,-89.5778,-63.9985,-51.4981,216.9179,-166.5124,144.7044,35.9757,143.3229,-91.9551,192.9356,-131.8820,-35.3807,-212.2124
-2179.6875,63.7163,13.3966,95.0075,122.4782,34.1116,45.0393,74.6161,-135.6545,1.1100,-60.7301,22.8307,-103.7455,24.8424,62.8448,60.6884,-27.2766,13.9890,-98.8939,-73.0889,-74.5742
-2171.8750,-11.8709,41.2619,12.0558,186.0405,-50.0431,-0.9058,-117.9722,-217.6272,-45.6932,-253.8535,160.8538,-3.8757,53.0867,125.8341,125.1653,-37.4962,219.1529,-34.7991,-148.7063,-10.8469
-2164.0625,186.9938,63.1398,188.5604,138.0524,52.2642,-81.3850,58.9134,-226.1330,20.9544,-225.4861,153.3031,-159.5751,8.7616,7.2917,155.0815,-81.2661,171.7300,-152.2582,-55.8711,-128.6871
-2156.2500,-73.3244,14.7941,18.8843,228.9465,-82.5985,43.0146,-73.3798,-64.7747,-74.5806,83.7378,-53.4162,-73.3914,-122.7432,130.6463,-14.1774,79.8419,122.1603,-61.8354,-35.2251,32.3413
-2148.4375,17.2190,19.7864,47.0726,178.7122,-55.5929,-75.7283,-44.8340,-146.5890,-46.2879,0.7663,158.7444,-119.3566,14.6133,84.8582,125.4372,-40.2123,248.4590,-182.5782,-14.7529,-123.7979
-2140.6250,93.5528,17.7188,123.0678,148.3016,19.2210,-36.6559,67.5086,-107.5953,-7.2169,3.5961,14.6769,-155.5199,-19.2533,48.8782,90.8446,-37.4594,7.5332,-176.5055,-8.4807,-48.1198
-2132.8125,-62.9440,6.5668,-45.7474,167.1236,-113.7728,-58.3781,-98.9847,-55.3914,-64.9772,18.6330,66.8107,-30.4597,-3.9329,100.1241,107.4546,14.5066,131.8252,-121.2274,-25.0407,40.7624
-2125.0000,106.9712,-22.4706,101.8458,19.3694,32.6494,-131.6960,46.9196,-54.7783,44.6270,-54.9198,176.3291,-178.9954,69.7775,25.7997,180.4546,-59.1225,55.4897,-268.5523,38.7663,-106.9597
-2117.1875,-45.9629,-28.5359,4.6010,40.8597,-65.7536,-43.7754,-48.0244,-4.9370,21.3885,31.7645,-29.9905,-19.3036,-62.3451,185.7240,47.6215,64.4915,-28.6786,-141.6342,25.7276,90.5599
-2109.3750,-17.5829,-0.5064,-70.3277,68.7614,-104.8304,-119.4635,-123.6745,-79.7069,20.4764,-80.1728,115.0133,15.7697,81.8533,184.0506,157.1089,-10.5177,141.4586,-148.3289,-15.0374,-21.5526
-2101.5625,89.1842,21.2501,42.1380,35.1840,-30.5019,-80.6374,62.0665,-40.9689,21.9532,-4.5934,-30.6083,-20.6441,10.4200,110.8951,84.9794,-9.0190,-33.0249,-146.5164,-13.3961,-20.1584
-2093.7500,-104.8239,21.4755,-130.1706,121.9534,-166.9160,4.5095,-109.9467,7.1067,-39.3305,6.3284,-18.9468,100.3008,-50.7479,158.0880,23.1339,75.8060,123.8049,-58.3785,-67.4407,101.5568
-2085.9375,53.5301,30.7504,41.8915,70.0705,-32.9384,-116.0141,-10.5817,-113.4833,58.7345,-77.4217,117.0875,14.5786,47.4509,73.6346,160.6695,-45.0376,107.0003,-215.9182,-49.1305,-56.4134
-2078.1250,-66.2039,20.1471,-17.0835,90.1638,-92.9797,-63.5889,-32.2736,-25.1460,-0.2476,120.7602,-88.9211,101.8059,-121.3911,160.1547,-8.8258,79.0701,-13.8442,-90.5073,-27.8969,104.5777
-2070.3125,-27.5261,49.3018,-47.5913,93.7149,-160.5305,-129.7219,-98.5218,-91.3767,-30.7529,-19.6172,64.5511,144.4537,-4.7542,204.1266,72.1674,12.6147,165.7891,-156.6572,-130.2184,38.0042
-2062.5000,186.5953,63.8267,103.4100,-9.2441,-10.5443,-199.3444,51.7569,-160.1031,47.2710,-52.4660,31.4990,37.5726,-0.6199,133.6157,76.6789,-20.3309,27.8946,-224.3140,-58.0267,4.9350
-2054.6875,-16.6768,29.8789,-3.9190,33.5013,-156.8478,-124.2534,-129.2805,-85.1140,-23.9997,23.3978,-2.8664,111.3978,-34.7893,207.8412,5.8960,54.4443,105.7051,-75.2557,-84.1405,153.5773
-2046.8750,98.3474,39.0660,125.0704,43.5410,-28.8024,-177.8736,-36.9969,-175.8418,-4.9702,-67.4578,163.0798,-16.4983,57.3520,117.3710,135.4444,-72.4917,186.8030,-204.9147,-74.9665,-47.5009
-2039.0625,24.8292,18.3423,115.4999,41.0405,-39.2854,-40.0411,-9.2708,-74.1264,-50.5148,70.1312,-30.5483,9.0683,-98.0745,180.3773,-20.5705,-8.9708,7.3314,-103.1110,-41.3686,89.8956
-2031.2500,-71.1698,8.3737,51.4742,49.1139,-104.2028,6.3367,-146.0213,-64.8748,-77.5248,-66.7534,126.3964,55.2183,-15.9411,152.9534,25.9715,1.0961,191.4374,-93.7604,-68.2512,62.8365
-2023.4375,114.3349,14.5294,214.8970,-45.3463,58.3467,-50.8364,53.6747,-86.1757,10.8962,-88.1692,67.7635,-40.1519,0.6139,58.0034,42.9394,-56.3828,-8.0418,-153.9705,-22.7032,-31.7817
-2015.6250,-75.1485,4.0650,8.2786,45.2324,-111.1177,74.0031,-115.6839,2.5349,-84.7262,36.4283,-63.8979,83.5335,-57.8645,146.0955,-52.1216,68.1642,12.4697,-26.1470,-72.1855,129.6248
-2007.8125,95.3163,53.9176,47.5521,40.7422,-72.6655,-32.2623,-76.1452,-104.8606,-45.4737,-107.0979,122.3411,49.1229,54.5415,75.1008,97.7215,-75.3993,113.8686,-137.4154,-41.7939,-51.0845
-2000.0000,114.3198,57.9608,63.3481,59.8304,-58.6532,57.0359,-24.0779,-52.6893,-66.6997,-91.0400,-9.9159,27.2628,-76.5411,126.6847,-33.9238,-23.3967,-44.2087,-48.1179,-23.8735,37.7677
-1992.1875,-19.2388,29.1385,-40.4323,102.4037,-162.1901,101.7943,-162.6087,-8.0623,-95.4957,-83.5244,108.2824,33.8585,-33.1805,96.7478,-26.1301,-15.9388,104.1888,65.6118,-85.5248,45.0550
-1984.3750,124.4342,-24.6862,153.0079,-0.7985,29.5102,36.7553,29.0519,-35.2405,-14.0996,-37.8233,116.6707,-179.3541,49.3626,-4.9671,56.8574,-80.2825,-69.2328,-2.4790,-84.0080,-93.4716
-1976.5625,-68.7650,-54.8633,-21.4237,53.1828,-108.6318,120.8685,-107.1767,47.7262,-77.5842,119.0364,-56.8083,-59.3857,-13.9695,151.5094,-79.0271,76.5414,-121.5103,86.6016,-101.3749,100.1767
-1968.7500,41.0385,-36.1068,-12.8410,-12.8291,-100.7363,19.9695,-98.4044,-90.3225,-33.0897,-56.1245,134.7272,-51.4075,178.7017,123.9980,113.0909,-24.6425,23.2165,-85.3227,-131.7643,-1.1950
-1960.9375,177.6218,16.0582,51.5468,-17.0271,-37.0000,10.8874,3.1636,-134.5691,31.1901,-100.4965,-20.9782,-24.6093,96.1480,78.3202,67.9787,2.9873,-156.2857,-88.4301,-136.3655,100.2502
-1953.1250,11.1604,50.7860,-127.0892,62.8078,-179.2468,-20.1766,-176.3139,-129.8163,-37.5548,-95.8705,-16.6921,163.2263,64.5824,118.6814,36.8569,8.6323,28.2284,-8.5313,-127.9886,214.6983
-1945.3125,193.8426,51.0069,-2.5618,0.8193,-55.2964,-114.0862,-14.6381,-113.9158,13.8324,-81.0907,34.7305,-5.7788,79.1498,24.2265,88.8707,-86.5743,-35.1229,-71.4932,-84.4894,46.2826
-1937.5000,0.2280,17.1793,-138.3075,52.6255,-191.5842,43.7755,-113.2455,43.7415,-49.0696,76.4371,-212.1277,77.0162,-57.5593,144.5684,-47.3940,106.9882,-122.7287,86.3205,-68.2785,203.6474
-1929.6875,-23.2495,-1.6096,-156.9083,30.6041,-247.6835,24.7754,-168.7224,24.5465,-30.8422,-51.8885,-46.8179,58.9715,70.8807,126.0704,118.5000,52.6990,28.8266,64.2695,-55.9367,75.1488
-1921.8750,71.5069,-10.9330,-22.2568,-16.1480,-113.4938,51.0324,40.0350,50.6139,30.6259,-26.9334,-131.2907,-26.8130,22.5424,114.8552,33.6172,4.6845,-192.4080,53.4653,-33.3632,63.9133
-1914.0625,-153.9795,-33.2656,-150.8352,39.9253,-242.4844,105.0944,-125.4518,141.4806,-62.1125,63.8120,-114.9663,63.2387,-33.0179,169.4828,-95.4707,95.4893,-31.8431,179.4752,-48.0239,154.4934
-1906.2500,40.7387,12.0519,25.7959,61.2011,-102.2229,26.3390,-21.7280,62.5474,-31.6533,21.7522,-10.4443,-52.4993,33.6040,16.3227,-27.3554,-19.5087,-12.0973,58.6760,-28.4893,-71.7410
-1898.4375,-27.2862,15.4441,-15.3000,98.8048,-143.6413,133.8947,-25.7300,58.9352,-71.9293,129.0313,-198.6457,16.0905,-116.5136,86.4995,-140.9701,49.8151,-115.0672,132.2009,-60.6710,71.3505
-1890.6250,-69.8322,22.0969,-18.9017,127.9361,-148.5251,56.9395,-103.2640,-18.1934,-77.7148,51.8007,-19.3264,12.2097,-11.1227,9.1953,-35.0747,-27.3689,123.4803,90.2200,-69.3910,-6.0727
-1882.8125,113.2678,45.6308,138.1650,64.7393,-28.6992,29.6278,89.8558,-7.6985,-30.8587,-11.8000,-46.3698,-88.9903,-38.0993,-91.4274,-24.5413,-90.8974,-10.3547,26.8775,-27.4933,-69.8401
-1875.0000,-68.4750,59.2192,-22.5874,199.7651,-187.6428,91.5140,-105.8618,52.9822,-116.8287,11.7801,-59.2134,45.0575,-86.8849,6.1937,-146.8192,6.7919,89.0128,126.7396,-104.4185,64.6149
-1867.1875,127.1280,98.7828,155.0289,186.1424,-122.1712,-25.2610,-76.2331,-62.9948,-87.4523,-104.3097,154.2958,-35.5400,15.6852,-36.8156,-6.7396,-72.1789,215.7075,-63.0541,-190.0005,-125.5934
-1859.3750,138.1261,115.5330,160.0788,197.9824,-80.2108,-19.5556,-35.1699,-58.4988,-82.6450,-62.9237,-24.7850,6.3367,-89.3243,5.6634,-110.2539,6.3206,50.8198,-16.3690,-143.1375,26.6734
-1851.5625,62.4775,114.0084,81.5145,158.2460,-122.8168,-61.4416,-112.7320,-99.5858,-88.4703,-177.1258,116.5387,73.6317,15.0578,0.5742,-43.3834,-72.7695,256.3553,14.7150,-112.8939,21.3282
-1843.7500,217.1618,94.9171,210.3166,31.8791,43.9846,-114.9730,89.0539,-117.3179,4.0488,-158.9744,99.1938,-53.7126,33.7699,-127.1374,13.8217,-126.4957,95.2084,-40.8632,5.6841,-69.6717
-1835.9375,-48.7508,34.8035,34.5367,82.9877,-95.7350,3.9514,-48.7492,1.3989,-60.9897,33.6164,-75.7182,64.4327,-31.0825,28.6375,-87.5373,29.2434,38.5118,80.0213,-49.3074,85.8063
-1828.1250,35.8896,-6.5366,58.3090,-41.3603,-71.8445,-81.6043,10.9970,-47.3518,-1.4744,-52.2538,93.9294,14.1401,139.6275,15.9672,119.6662,-19.4876,19.3632,-44.5562,-69.7556,-74.1770
-1820.3125,42.4567,-41.7747,60.0197,-138.7477,-32.9611,-43.2157,122.6825,-9.1495,35.9732,22.8621,-88.5118,15.8269,67.2664,91.2757,10.7986,55.7513,-219.8715,-3.1746,5.7276,37.8144
-1812.5000,-75.7657,-39.8657,-65.0399,-115.8585,-121.7929,-20.5845,-39.4209,-23.6998,-16.3517,-64.7721,5.3037,110.8034,88.1605,149.8537,32.1743,77.2470,-21.8354,55.4565,-40.5671,96.0563
-1804.6875,153.3147,2.4206,144.2130,-132.6527,51.7317,-104.6592,132.7735,-107.9660,9.6265,-113.1158,31.4085,-46.9092,114.3463,29.7529,58.8409,-5.9562,-38.5174,-65.6341,46.4199,-61.4070
-1796.8750,-65.6015,-0.5472,18.4939,36.6319,-73.6674,28.3214,-29.0148,-12.1865,-78.3651,56.5927,-129.4583,48.4665,-11.4377,125.7345,-101.4552,126.9072,-12.1510,67.3420,-32.5669,71.2094
-1789.0625,-26.2209,30.8805,32.0844,113.2250,-59.7087,-30.4233,-15.5121,-108.1264,-29.0601,-113.4078,66.9846,25.1503,113.0900,67.0216,21.5632,30.0603,169.5236,-32.3963,-97.2749,-98.8866
-1781.2500,77.1322,60.4035,137.6684,41.8306,46.2963,-72.1635,162.9888,-113.0636,39.2528,-7.3955,-85.6054,19.8537,-2.4096,-10.6716,-56.4396,-47.7744,27.1591,-69.1189,6.0116,-29.9645
-1773.4375,-117.7176,47.7369,-34.9222,23.3058,-52.8205,-96.0523,26.3004,-100.1433,12.4090,3.4615,-73.3502,178.4390,7.9377,0.5096,-43.6046,-35.7461,183.6615,-16.9794,56.1360,91.8111
-1765.6250,-26.0193,23.3993,177.0587,-94.6547,123.6796,-214.3868,239.1686,-145.6737,151.0969,-115.1332,27.4501,59.5831,109.8240,-80.7511,57.7633,-190.1743,170.6999,-135.3127,112.8049,-26.8794
-1757.8125,-317.7639,-41.3929,118.6238,-31.9874,65.8172,-124.1121,180.6061,-128.5919,129.3448,-61.1167,-140.1721,149.3717,53.2853,46.6241,37.6924,-63.9848,125.3349,-38.0366,69.0529,210.0539
-1750.0000,-365.3668,-44.1715,72.3461,-9.1638,-16.8386,-206.7063,60.1780,-174.3758,119.7414,-106.9709,-3.6247,176.3199,189.9058,0.1534,174.7746,-72.6593,289.1362,-50.6223,89.4464,127.1179
-1742.1875,-293.7263,-57.7971,76.3255,-41.0835,24.8160,-166.0581,211.0073,-59.9062,160.3902,43.4307,-146.8540,107.5274,82.7583,-32.0488,68.0823,-32.0752,44.1534,-12.9617,162.0866,94.4394
-1734.3750,-466.5778,-69.7770,-109.1720,34.5651,-159.9490,-56.8634,62.3525,11.1058,120.5731,42.3734,-223.5319,215.3262,7.1632,77.3295,29.9315,149.0759,118.7354,62.2495,96.2491,239.3229
-1726.5625,-264.0798,-89.6029,-2.3058,-113.4437,-89.2928,-132.3400,170.0619,-27.5499,191.1114,-33.3451,-77.8563,66.4907,114.9223,2.0585,175.1357,111.5607,110.6571,-50.2103,121.7607,90.5432
-1718.7500,-361.5679,-96.6964,-71.4083,-68.3955,-157.5484,56.2257,99.8030,86.8522,84.6998,154.0044,-259.1597,143.7507,-101.2929,153.8627,-77.6417,226.1081,-56.3922,133.3918,129.3182,204.8411
-1710.9375,-410.5103,-77.3942,-116.9683,23.2146,-239.2077,120.3250,-19.9279,114.7922,37.8309,108.8793,-120.8915,171.5859,-73.9512,145.2262,-13.8662,144.2024,105.1188,120.5315,80.4056,85.6778
-1703.1250,-253.7449,-87.5906,10.1760,-29.4670,-111.1094,102.1233,145.0386,169.4280,129.6515,200.4601,-249.9438,43.1354,-92.9179,17.3022,40.5930,89.0051,-159.7032,67.3559,96.1776,67.2188
-1695.3125,-595.2184,-149.4624,-243.9057,54.6746,-327.1883,214.7167,-73.2394,319.8634,21.2503,386.8470,-432.2010,155.5261,-128.1002,131.2134,-66.1679,238.6315,-112.7133,290.9802,143.7315,290.5796
-1687.5000,-399.8278,-113.5274,-101.1222,-30.3248,-219.3565,66.1307,70.3256,207.1319,127.7073,238.0502,-141.5947,42.7839,15.5741,18.9850,-70.0770,53.0956,82.1178,134.4328,302.1119,-6.2257
-1679.6875,-290.8637,-115.0344,15.2472,-96.7093,-65.8861,71.1435,258.4698,175.9965,206.7474,242.8633,-209.4157,-24.3209,-53.1705,-11.6169,-173.4212,58.1793,-90.4788,139.4998,306.0836,-37.4072
-1671.8750,-309.9276,-63.7292,-42.3976,-43.0890,-48.3735,88.1390,90.5856,81.8722,185.7704,-108.3061,-84.2332,139.6034,110.0852,5.7909,-84.7781,39.2664,31.9392,156.5602,110.0523,-20.6002
-1664.0625,-109.5430,-24.6255,95.4203,-87.0180,163.6540,6.5821,192.1654,0.1967,213.2383,-117.0010,-93.6203,56.9914,100.7757,-76.3420,-129.7054,-80.1974,-83.2297,77.0531,206.4649,-29.3509
-1656.2500,-364.5313,-47.3320,-142.1228,-23.2899,111.3722,62.6677,100.3624,167.1612,84.3545,160.9386,-294.3499,187.0647,-25.8839,17.1940,-366.9846,13.9867,-91.7411,315.1888,196.5069,137.5547
-1648.4375,-232.5539,-40.3803,-68.6976,-30.6227,297.1101,-9.3179,137.5138,131.0603,84.4329,14.8189,-74.1279,78.0983,120.4084,-91.3188,-293.3175,-21.8872,-29.3267,202.2535,47.4916,-45.5966
-1640.6250,-196.6063,-33.3286,-36.2921,-28.9532,440.8828,97.6916,169.6396,200.9601,80.5013,-62.2940,-187.9185,75.1737,5.6844,-57.8071,-443.6728,48.2585,-238.9232,239.3250,48.4604,61.2765
-1632.8125,-432.2570,-85.3696,-208.4839,54.1187,380.1046,182.0791,-112.8493,249.2441,16.9668,-15.0286,-103.2876,122.6736,16.3664,28.1076,-469.6207,96.7990,-87.1070,355.7709,22.8187,72.5380
-1625.0000,-286.4627,-116.9505,-83.2237,-45.3610,616.8282,160.9055,85.1121,264.9729,68.8789,74.6917,-126.2283,-45.3528,-5.5195,-66.5104,-381.1389,38.7912,-223.8650,256.6634,63.6246,-132.7396
-1617.1875,-487.4500,-143.1542,-262.7279,2.4206,585.8363,276.9768,15.2956,342.9491,-37.9708,226.6539,-341.9143,106.8969,-147.1545,86.1329,-413.4210,191.0336,-317.3575,373.8082,-32.3263,19.2421
-1609.3750,-398.6756,-95.8847,-273.4629,57.9494,686.6584,228.7804,-69.7647,184.6600,-49.0638,-152.6473,-133.8427,169.8982,-13.0319,149.5166,-93.9562,107.0133,-194.1086,252.6845,-224.5281,-102.0412
-1601.5625,-220.3312,-38.6686,-163.6087,62.0846,836.1172,156.1781,3.7512,74.9720,-49.5643,-224.3338,-243.1931,207.5364,-12.3280,151.5178,-56.9171,70.6078,-436.2735,186.1664,-221.1320,-27.7041
-1593.7500,-404.9424,-59.4247,-362.7085,90.2619,674.6652,104.6032,-268.6918,97.3219,-64.0115,54.0158,-258.4699,414.2520,-100.5700,210.5768,-70.8273,203.2465,-445.3785,318.6826,-300.6935,104.6713
-1585.9375,-184.7959,-44.6221,-307.0496,-38.8212,769.0146,-60.2316,-177.3771,79.4226,26.2883,331.1181,-168.0103,359.7381,-193.0797,46.3902,20.9948,112.6377,-539.7623,188.9382,-255.5031,-60.1986
-1578.1250,-264.6737,14.3761,-397.4085,94.0966,716.3953,32.9274,-268.0891,173.5239,-174.4143,277.2153,-331.5522,527.2523,-393.5873,177.2113,-32.1965,243.0313,-620.1406,286.1949,-335.3132,106.9479
-1570.3125,-196.1857,114.8554,-396.3967,234.3482,720.1950,-38.5895,-377.4427,64.9602,-246.7577,-382.3544,-109.7299,604.1205,-208.7350,180.3699,188.9641,208.7576,-375.1759,249.7783,-442.7713,35.4293
-1562.5000,-55.5182,100.5050,-248.1886,130.8020,870.2344,-72.9065,-155.6084,29.5958,-171.9117,-306.7152,-181.7291,458.2149,-244.6968,35.7375,117.2945,173.6961,-550.0251,216.5683,-301.0303,37.1292
-1554.6875,-263.5582,63.9573,-433.6855,135.5582,686.6116,0.0630,-341.4949,175.5250,-284.7738,22.2157,-220.4042,567.6256,-246.3506,34.4040,-31.0753,245.9295,-476.5536,325.6397,-263.9958,146.1188
-1546.8750,-93.1366,60.5629,-282.7147,61.7549,765.4903,-33.5355,-227.9215,142.8974,-207.1668,-47.3930,-33.6328,425.4940,-133.5659,-33.4818,8.9885,140.6030,-445.6597,146.1420,-233.5067,-33.4447
-1539.0625,-210.6406,22.7984,-264.6623,50.0482,711.4949,57.9578,-210.2704,197.3651,-263.4575,118.1031,-235.7621,444.4953,-298.6859,58.7434,-119.8613,269.3843,-563.6602,238.7429,-175.9241,95.1064
-1531.2500,-146.0734,76.1314,-374.5442,82.3778,566.6047,22.4689,-320.5648,198.8618,-300.6889,118.6220,-89.8194,482.5547,-298.7421,24.0048,-83.6524,197.2027,-356.6075,270.3638,-216.2884,-14.3101
-1523.4375,127.8913,143.8179,-231.0294,77.1062,640.1495,20.3713,-140.4660,233.7574,-266.5218,117.5451,-128.4967,371.0338,-374.4143,-87.3249,-159.0655,122.4315,-469.1714,158.3826,-259.2511,-126.3090
-1515.6250,-19.0004,163.8318,-353.3755,177.9814,481.8707,118.4069,-300.2393,220.7974,-316.2060,104.6064,-178.0088,468.6857,-424.9293,-26.5004,-281.3348,182.8083,-298.5660,188.5403,-264.0628,44.8398
-1507.8125,171.2273,187.9148,-184.6059,123.9375,580.7473,-6.4749,-205.8959,133.9313,-257.7839,-20.2367,-9.4214,308.4438,-328.3448,-112.5926,-186.5109,22.2747,-143.8788,-7.2215,-180.7663,-115.9183
-1500.0000,91.5790,151.6936,-124.7043,81.0407,605.7906,54.7884,-145.4234,194.2216,-271.2156,188.0896,-205.6946,296.3820,-489.6210,-51.5275,-308.5579,119.8966,-223.0389,20.1714,-154.3164,-18.5092
-1492.1875,-37.8525,125.9591,-184.5901,164.3343,437.0758,31.2341,-279.7529,96.6977,-258.4402,201.5953,-9.7479,310.5177,-365.6812,-37.2726,-185.3994,59.7036,-0.9838,-3.2637,-248.6615,-41.9189
-1484.3750,162.3246,113.5038,30.1296,84.2198,580.9989,-121.7293,-66.4794,17.7723,-118.0640,158.6933,57.7889,84.2630,-263.1551,-189.4083,-118.6655,-91.8806,-82.3445,-84.1060,-119.4062,-157.7157
-1476.5625,2.4490,65.2739,-70.2106,67.0497,445.8928,-110.7559,-165.2795,138.7872,-144.7368,243.7294,-79.7067,95.9790,-288.6729,-104.5933,-217.9865,-7.5143,-65.7415,38.9936,-32.2041,0.4383
-1468.7500,133.8538,86.9642,39.7162,59.1075,447.0870,-148.5540,-94.8147,-8.9579,-110.1431,-14.9890,177.0572,-14.0470,-142.9305,-177.5481,-73.0626,-117.9178,137.0944,-110.6849,-41.7411,-184.1727
-1460.9375,187.0441,69.9406,129.4270,43.9606,503.0970,-57.5564,-4.5677,-28.9038,-129.7544,76.1048,46.6134,-70.2333,-200.3878,-122.6985,-166.3613,-63.5163,-56.2759,-126.5663,-59.4750,-129.9666
-1453.1250,46.7513,34.2857,18.6399,81.3016,284.6357,-95.0840,-152.8241,7.6327,-93.8560,112.6819,119.6956,-68.9053,-90.3262,-159.3583,-130.1529,-26.6272,120.8673,-89.9761,-58.7079,-93.2797
-1445.3125,233.1780,6.8028,184.5602,-11.6678,377.9030,-223.9239,48.6256,-47.1357,33.7536,56.9631,174.4705,-307.8701,37.4249,-324.3230,-1.2591,-119.0419,61.6966,-218.7009,93.7629,-221.8877
-1437.5000,97.7480,-24.2978,33.6175,-5.4882,193.3309,-152.6235,-27.7967,60.2397,-5.4844,202.3816,23.4143,-271.6641,-75.6695,-214.1447,-115.2233,26.6919,66.6984,-108.2848,168.3868,-40.3383
-1429.6875,145.9490,-42.4157,54.3017,-96.7324,142.4040,-169.7511,-8.6008,-29.8016,50.8970,38.3807,227.9744,-324.8640,54.8460,-231.3883,52.4175,-63.9944,256.2969,-200.2926,181.6217,-167.2039
-1421.8750,221.1893,-89.3780,131.0287,-195.9338,222.5407,-18.8367,178.6335,-61.7897,127.3254,79.4379,84.5709,-429.9887,21.4033,-189.5768,19.0869,-95.6233,15.9372,-263.2500,291.9129,-125.9992
-1414.0625,39.9498,-140.8466,-24.7456,-198.6538,31.1953,119.5563,-14.6377,2.7041,81.2649,106.9781,111.6950,-363.5949,85.4780,-87.2744,-26.7355,-30.7706,117.0884,-161.7330,251.7076,-24.3074
-1406.2500,222.1389,-138.9569,173.8946,-261.9992,159.2782,-12.6644,109.5054,-56.4086,169.6156,84.9165,236.2158,-495.7989,173.9475,-181.5858,97.8231,-162.5246,87.6184,-330.8224,222.9180,-193.2132
-1398.4375,56.0582,-138.4539,139.2710,-214.6032,53.1134,-10.1383,38.3809,20.2364,97.7152,198.6097,91.4980,-344.2369,29.1728,-68.1510,-46.8802,-12.5255,27.9100,-215.1509,162.8827,-6.3605
-1390.6250,41.3020,-100.7666,127.9728,-158.9282,7.2848,-58.3269,-47.4256,-64.8264,49.1297,39.5883,301.0998,-281.3826,163.7164,-78.4438,51.7243,-97.2467,259.5012,-229.2072,77.1582,-91.2302
-1382.8125,164.0495,-101.6373,295.1643,-174.7703,103.9665,-38.0118,155.2659,-118.3826,106.0507,60.0708,210.1858,-408.0102,146.7469,-131.2345,34.8089,-150.4623,101.5783,-281.7681,94.9460,-107.5844
-1375.0000,-5.5879,-109.6376,183.9504,-132.0265,-41.7459,-2.1117,-29.4549,-81.3432,68.5794,-13.8541,209.8923,-296.0316,146.3929,-20.4388,-2.5059,-76.0836,248.2820,-204.7529,30.3458,39.6499
-1367.1875,221.3049,-78.0912,355.2507,-220.8047,59.0653,-161.7265,141.3470,-204.8046,128.6274,-210.2750,344.1037,-418.5629,281.5393,-142.1649,168.6721,-199.2149,299.4681,-329.2542,116.2618,-119.6235
-1359.3750,138.3396,-72.6308,298.6926,-230.4390,5.0224,-106.1940,158.2802,-112.1198,72.8265,-45.5528,140.4750,-325.9229,113.8453,-86.7432,1.9864,-106.1981,182.8181,-164.6056,210.3276,45.2653
-1351.5625,57.4039,-55.4397,217.1552,-170.0945,-111.9933,-115.6818,39.2240,-157.4491,27.0403,-126.8590,278.8737,-223.2879,216.1749,-21.3422,103.3083,-151.2050,383.1786,-209.9868,129.4121,0.1290
-1343.7500,285.9222,-12.6365,384.0714,-222.3181,58.4493,-204.7218,242.6272,-247.3244,120.7098,-326.6989,299.7095,-275.1944,235.9457,-110.5021,161.0554,-203.7643,188.9812,-332.9259,145.9730,-52.5492
-1335.9375,75.9979,-35.9078,193.5334,-220.0076,-91.5556,-174.2261,88.5742,-179.6581,76.9349,-184.9962,182.1213,-96.5438,192.2892,-41.1319,80.3511,-99.7882,190.3586,-190.3239,147.0909,125.3145
-1328.1250,173.1634,-47.9485,231.0706,-296.6758,-126.4799,-247.7037,125.6026,-106.9591,151.2337,-75.2642,293.6000,-169.8535,266.7005,-151.7448,191.7017,-172.7823,217.7759,-338.6901,245.2685,-57.7814
-1320.3125,147.2775,-58.3494,199.5461,-286.4091,-191.4587,-132.2369,129.5718,-28.3064,155.4849,3.4146,78.0282,-125.2031,88.0740,1.5876,48.9938,16.1741,17.1475,-223.1031,184.4051,58.0876
-1312.5000,54.6656,-44.7429,102.2880,-201.9127,-323.1732,-82.5408,-42.1979,-87.4187,95.0050,-129.6785,200.7376,-39.3081,173.7225,89.1498,61.5477,29.3662,205.7837,-175.2936,55.8004,71.1834
-1304.6875,267.6199,-36.0337,255.5862,-304.8876,-167.3353,-150.3015,185.5957,-118.9751,175.0841,-160.2112,206.9838,-177.8599,216.9210,-50.7415,104.6379,-73.8935,65.9543,-278.9479,162.7721,-32.1656
-1296.8750,56.8207,-64.0652,65.1239,-232.6288,-318.2594,-45.8246,30.6281,-13.2810,94.4208,-18.4968,53.5003,-72.1490,137.3919,53.6038,24.9787,31.0856,32.3948,-101.3602,199.0149,145.7312
-1289.0625,67.5090,-79.5728,47.1367,-255.9551,-296.7157,-137.9169,86.1389,-69.1553,150.2354,-74.3426,219.4879,-126.9950,229.3402,-36.6298,227.7784,-97.5079,149.2794,-160.3530,244.7213,-18.9412
-1281.2500,78.6459,-76.3968,20.5935,-243.8469,-283.7331,-127.5628,243.0897,-22.5866,196.5084,119.2666,45.9270,-115.3758,91.7503,-26.4156,90.0179,-50.6473,-51.3866,-113.9061,255.8821,27.8514
-1273.4375,-20.4317,-48.5088,-120.1894,-131.0089,-387.0044,-49.4809,63.7894,-17.2854,127.5444,88.6043,88.1534,-36.0104,133.9468,-20.4729,58.0214,-8.0555,166.7186,-71.7426,121.8044,70.3749
-1265.6250,282.2777,14.0246,126.7887,-145.4396,-246.5269,-133.6546,164.2508,-137.2395,191.3408,-178.3130,225.1253,-154.9030,234.8999,-102.7935,195.7624,-127.7202,117.5598,-227.8421,72.4974,-49.3471
-1257.8125,134.7447,-3.5947,36.5045,-80.1326,-370.3215,-38.0842,0.4506,-78.4531,101.8933,-9.4900,61.8658,-95.0390,108.6214,-43.3747,105.2526,-31.6424,75.1703,-93.1902,100.9535,155.6846
-1250.0000,180.0496,12.8310,54.0482,-104.0597,-351.3036,-131.7335,-20.5206,-134.8823,81.2690,-103.8826,262.4302,-114.3907,199.1710,-100.1845,195.5514,-124.7899,261.5784,-117.7661,75.2271,25.4945
-1242.1875,259.5574,37.3133,171.7855,-94.8008,-230.1053,-87.1822,133.7108,-127.1071,52.8570,-169.0636,123.1842,-104.5350,96.9264,-54.8034,130.0362,-79.7393,25.1900,-109.1419,-21.2871,70.5176
-1234.3750,63.7416,35.7997,36.1764,-7.9090,-401.2758,-3.0015,-148.4065,-79.6951,-45.8906,-120.6197,134.6229,53.9677,107.3635,31.2009,31.1864,41.9419,146.4856,-57.8856,-40.1344,192.1747
-1226.5625,285.4131,46.0315,202.0428,-137.5889,-232.9987,-131.3844,15.9535,-133.8472,8.8291,-175.7326,263.5141,-74.0920,200.2661,-61.3729,85.7816,-86.9476,121.2241,-188.1899,40.4885,27.2801
-1218.7500,191.1363,38.3921,132.9550,-125.2243,-298.7011,-16.7216,20.3538,-55.9583,-59.3945,-23.8011,47.4666,6.9095,57.2360,19.0876,-56.5806,-44.7989,-42.9634,-1.4425,51.1685,179.4423
-1210.9375,192.2052,47.6466,65.1942,-89.5817,-328.1035,-12.7780,-48.9243,-123.7857,-18.2993,-128.5790,200.7465,12.1948,173.5352,-13.1866,21.3618,-75.3776,133.1646,-36.4277,-53.8304,74.8767
-1203.1250,384.3892,78.5431,230.5348,-107.8545,-233.4289,-67.7288,115.9019,-179.5085,73.8971,-110.2455,145.1240,-78.4198,81.9389,-31.3751,2.3876,-130.8549,-26.6073,-160.3163,-1.7128,56.4195
-1195.3125,205.3417,89.4732,73.6272,-39.3934,-388.0322,-39.9386,-76.5208,-114.4956,-45.1431,-9.1813,99.2887,60.7119,0.1253,35.1648,-79.8217,-66.6001,111.4002,-22.4699,-3.8326,194.6979
-1187.5000,354.3825,92.7860,165.7877,-66.9089,-293.5910,-133.1104,14.1357,-98.4385,-28.1077,7.9260,264.5099,-105.1296,90.3797,-131.2704,-25.9810,-158.3126,155.4509,-120.5912,73.1258,-7.9838
-1179.6875,224.0263,77.3007,97.5327,14.1658,-323.5904,55.3188,-18.6161,17.2218,-59.4610,123.6273,12.3425,-60.3664,-86.7462,-51.1067,-130.5465,-42.4260,24.1228,29.8794,12.6923,107.9447
-1171.8750,135.8178,126.5416,8.3946,138.3153,-373.5071,76.8312,-107.2474,-107.0330,-38.6942,-222.5913,144.3112,71.4867,7.2607,6.1260,-36.9936,-94.4623,253.9119,48.4161,-109.6259,55.9498
-1164.0625,293.4307,123.0955,177.0563,49.2432,-165.6520,60.1488,96.9326,-160.4849,18.8836,-238.0007,92.0677,-53.8572,-7.9275,-82.8508,-52.6549,-147.6964,94.4962,-41.2551,11.8787,-33.2355
-1156.2500,64.5576,64.3875,-31.7892,66.6495,-298.3330,146.9646,-74.3902,-37.4371,-78.0268,68.0806,-5.6522,33.2981,-68.5864,3.6555,-149.8098,-24.4468,111.6090,45.5624,29.9023,90.0701
-1148.4375,247.8292,109.2865,57.4944,39.1275,-243.9275,13.8725,13.4198,-133.2962,10.1832,-174.7503,193.7448,12.5300,56.8736,-53.7696,48.1386,-157.1242,153.8179,-87.5379,-33.9471,-78.5401
-1140.6250,281.4051,153.7797,87.0751,108.8928,-249.2605,6.0839,5.5240,-176.8511,39.6979,-218.2745,2.4464,80.0610,-61.3472,12.0892,3.3672,-89.5058,12.3421,-54.3329,-35.4799,61.1604
-1132.8125,206.2155,160.1691,-66.1219,173.8377,-399.4158,-36.5187,-183.1563,-182.2232,-2.5695,-112.6213,107.3890,148.7765,7.6763,44.1178,34.8089,-94.7170,183.0891,-59.9521,-40.7998,56.0344
-1125.0000,374.0587,148.8619,79.7002,95.7648,-289.5940,-75.1295,-2.8160,-148.6072,69.1743,-41.9739,69.3310,0.4851,42.7183,-67.8747,69.2417,-134.9411,33.8316,-139.5777,21.8995,-93.0859
-1117.1875,101.6668,94.9342,-100.7306,175.4173,-431.0683,111.9987,-145.7272,1.7558,-38.3236,71.4147,-74.9496,78.9410,-64.4546,45.8625,-38.5641,15.5690,8.3502,81.5411,-3.6315,57.5425
-1109.3750,156.5244,89.5310,-35.9391,124.2319,-364.3568,66.3152,-82.4025,-6.6856,-46.6029,-84.0030,100.9875,-2.4308,38.6027,-36.2335,63.8401,-65.7419,132.0630,29.8374,15.0695,-134.6511
-1101.5625,196.0400,82.5912,3.4958,128.6769,-323.0435,142.2951,67.5712,69.5358,-7.2238,28.2362,-116.4288,-72.1517,-68.6771,3.3121,-81.1210,9.6010,-39.5731,68.7906,19.4333,-95.1842
-1093.7500,24.2870,61.0087,-140.3655,203.7996,-428.0652,181.9680,-150.7453,35.4496,-40.1218,31.1581,-39.1076,5.8148,-28.2178,43.5327,-41.3634,86.6311,141.5117,108.4188,-46.4962,-55.0389
-1085.9375,252.7166,84.5886,30.9350,150.0478,-255.9691,57.7889,20.1140,-50.4938,57.1531,19.2286,58.3626,-117.0851,32.4117,-116.1135,92.5436,-73.1937,51.7393,-87.8186,4.7471,-214.7415
-1078.1250,85.5549,70.5959,-78.3736,193.6779,-325.5268,95.0064,-52.6335,-13.0343,-15.1626,166.6959,-87.7506,-4.5881,-76.5282,-4.3743,-54.1435,38.3713,25.3953,26.3420,-56.5884,-30.0401
-1070.3125,119.0375,103.8392,-38.0605,262.8770,-320.5087,24.8170,-159.7489,-119.9794,-11.8573,22.7563,99.7602,-0.5214,38.1702,-38.0653,96.7825,-32.4858,235.6521,-80.9188,-163.3041,-136.7617
-1062.5000,268.6290,138.3529,79.3478,235.1626,-238.4385,-6.2591,-6.7586,-187.8169,31.5537,-8.0782,-40.6354,-29.3578,-65.0155,5.3375,65.7957,-25.2371,68.0085,-108.0763,-119.9020,-93.3748
-1054.6875,62.5509,119.0205,-67.9329,240.7263,-384.1047,-6.0406,-153.4583,-149.3656,-4.7212,29.3659,-76.6985,118.0913,-27.8653,43.0190,66.1234,11.2908,178.6931,2.0505,-80.1829,17.2940
-1046.8750,240.1071,80.6165,88.4052,65.8652,-190.2009,-181.2190,39.4718,-178.3097,151.6219,-72.5838,43.8398,-55.8858,91.9056,-94.7243,259.0466,-89.5900,108.9695,-138.2334,27.1611,-157.4433
-1039.0625,97.2695,49.9669,5.3362,28.5925,-233.7534,-81.7888,64.9903,-114.6476,141.5684,-8.9301,-114.0077,45.7352,-27.6935,-31.8830,137.5666,-26.8784,-33.1346,0.0888,60.1168,16.4260
-1031.2500,83.2295,32.6305,-42.9531,-21.9557,-244.5804,-130.6321,16.2886,-164.2579,166.2900,-131.5518,95.9260,71.0788,108.5049,-43.3281,235.8626,-112.4412,57.5241,-15.8611,45.8312,-68.9767
-1023.4375,173.2064,-10.0996,52.7619,-108.5187,-111.4539,-108.4811,222.6027,-104.8769,189.0264,-36.1694,-29.1459,-89.5875,57.7180,-57.7880,184.1516,-90.0072,-134.8158,-67.8072,134.5687,-120.3648
-1015.6250,-66.0010,-43.2375,-129.7229,3.7064,-253.5784,40.4650,3.7212,7.3038,117.5776,113.0054,-100.3926,-13.4678,23.7654,54.5259,75.2492,22.2087,-22.3226,44.0426,71.1242,-7.9652
-1007.8125,106.7759,-2.4516,22.7624,-0.1411,-138.7813,7.3610,80.8257,-62.5614,122.1016,-29.8690,51.3127,-118.4275,101.7897,-52.2355,227.2982,-84.6466,115.1137,-136.1647,32.6516,-187.6274
-1000.0000,63.7536,17.5335,7.4396,61.2001,-150.8450,139.4716,103.1261,-3.2233,33.8277,65.4526,-146.7773,-96.1904,-58.9561,7.1925,27.5475,-25.3008,35.7724,-39.1601,60.3823,-55.0790
-992.1875,-29.4823,33.9277,-50.1139,109.2646,-244.1962,118.3286,-28.7954,11.8458,13.3260,-29.4982,-20.0851,-6.2294,-5.9060,-14.6587,80.5709,-10.2262,225.1986,-27.4272,37.8800,-112.8042
-984.3750,139.3462,19.0562,92.3893,30.3604,-64.5485,75.2468,187.3481,-30.0353,118.8871,-108.3874,-61.3509,-157.2303,27.2119,-56.4665,148.6363,-89.0925,40.6668,-106.6465,100.4487,-191.4689
-976.5625,-90.8639,-27.9013,-83.1644,46.3820,-202.0076,157.1133,11.4396,15.0396,90.4055,-26.3283,-162.6418,-38.2869,-0.6848,25.6637,82.6615,29.9831,57.1117,85.0802,45.9859,0.8097
-968.7500,26.4140,-33.7500,9.7536,-49.1807,-109.0496,-45.5699,103.0195,-77.4354,109.3940,-44.8193,40.5239,-128.9214,128.8976,-102.7779,249.1363,-98.5053,138.9970,-45.7455,127.9957,-164.4783
-960.9375,65.4376,-27.6696,44.4136,-46.0061,-73.4044,-47.4778,211.3501,-42.1509,145.1383,100.4411,-71.5641,-130.8092,-18.7551,-68.4704,62.3505,-64.2444,-69.3527,-42.8057,130.7655,-56.0042
-953.1250,-7.1603,5.1276,-69.5638,21.4983,-185.4515,-52.0358,-12.9476,-83.5285,67.2476,23.0354,71.7261,13.6241,50.9858,1.1723,94.9367,-31.6594,139.6732,-45.5300,-12.0936,-23.2051
-945.3125,204.8609,19.6115,119.0688,-84.4182,-32.9403,-83.9804,138.3815,-152.3008,108.9688,-46.7656,150.6069,-91.3625,94.3405,-104.5866,136.1113,-137.4792,34.2901,-151.6502,58.6701,-128.8022
-937.5000,-10.8613,-1.0423,-4.0514,-20.1030,-155.2374,12.3261,14.9594,-18.8262,-14.0529,87.6798,27.7544,5.8919,-29.0147,-45.1054,-24.4610,-4.0581,29.1837,53.4868,53.6943,41.8498
-929.6875,33.9612,12.9643,50.3550,59.6814,-101.0637,-44.8746,-41.9268,-38.8633,3.4463,-79.3873,229.4204,-86.3798,100.1644,-138.1545,103.4798,-97.1548,179.5757,-8.8926,-6.7660,-125.0156
-921.8750,123.5869,10.7011,141.5591,42.2536,-46.1520,-27.2604,85.9902,14.9061,20.7492,-62.6528,62.8874,-142.8560,7.1645,-47.4079,46.2129,-43.4472,-48.2267,-25.4619,-23.4221,-71.0650
-914.0625,-94.4112,-20.0058,-52.8783,70.1544,-201.9374,71.6991,-71.7320,78.0240,-62.5832,-36.5821,52.7317,-5.0025,-1.4419,88.6648,72.3186,56.6028,85.3390,2.3127,-29.7188,-7.7836
-906.2500,71.9588,-29.9369,90.0412,-46.6122,-21.4217,31.0226,107.9205,37.5051,7.4510,-114.1457,85.9167,-118.8247,69.3204,48.0669,141.7723,-21.9979,5.2391,-114.5574,-4.6456,-159.1491
-898.4375,-129.4232,-53.8849,-18.8027,-3.1362,-92.7213,141.6133,35.8193,111.2405,-28.2649,33.5363,-132.6359,-7.4002,-39.6344,121.7130,-4.5235,89.6422,-56.5868,69.8387,-30.3186,25.7413
-890.6250,-57.5161,-37.5414,-13.3772,-2.4238,-87.8071,73.4541,3.9976,43.2175,-22.7135,-71.5492,57.0794,-74.7503,77.6952,16.5825,111.4449,-15.4936,120.8393,34.4763,-29.7261,-79.1370
-882.8125,27.4859,-35.9459,75.1397,-58.6165,38.1469,50.4144,165.2774,57.3090,28.9388,52.4901,-75.1192,-134.0099,-16.8646,-79.4514,51.4961,-75.5127,-75.6389,48.2330,90.9788,-64.8995
-875.0000,-187.8542,-68.5577,-118.6900,-30.1689,-118.3089,113.0332,8.2170,157.0541,-54.7540,152.1696,-85.6433,-33.6364,-63.7368,20.1424,-32.7887,-12.8878,24.5604,147.6398,156.3448,34.9733
-867.1875,30.5264,-44.2976,43.2002,-94.0434,-30.1034,17.3626,169.8909,61.5087,-2.7328,19.5454,77.5312,-128.5820,26.1106,-75.5835,92.6225,-71.5706,-3.5519,13.7496,92.4274,-134.4550
-859.3750,-18.2040,-56.4584,-17.0227,-72.0335,-89.0617,104.6087,109.4583,74.8748,11.1888,69.8235,-92.3899,-76.6291,-69.1130,-26.4115,31.9318,51.6490,-157.7474,69.7802,44.4174,63.0294
-851.5625,-33.9604,-76.5197,-69.2818,-125.1014,-104.1030,14.8102,-15.9960,95.1952,33.0796,-19.9536,112.6539,-92.7550,26.6532,-79.3183,163.2082,-1.1939,1.0104,16.7546,97.3779,10.4419
-843.7500,113.1213,-79.8121,48.3075,-226.3338,12.6502,-15.1128,175.4162,176.3821,113.8357,24.1340,10.5244,-195.0357,-38.7216,-109.3758,133.3251,-31.1793,-169.3950,-48.3986,174.2026,-19.2819
-835.9375,-129.9410,-88.1282,-175.2583,-153.7233,-136.8055,127.8213,23.6802,282.4172,36.4497,93.0601,-102.7318,-14.4747,-114.2140,-2.5984,18.3062,74.6747,-95.9271,94.3060,106.8837,123.8393
-828.1250,3.9781,-67.6867,-63.8597,-127.1839,-63.3498,17.7058,98.9307,173.4053,75.0293,-16.0589,7.9579,-124.9905,34.2681,-112.8930,167.2400,2.4692,-32.5231,15.9659,65.5323,-59.0934
-820.3125,-106.7154,-102.2279,-77.0774,-134.2531,-38.5593,115.0070,121.5795,269.8088,62.0129,153.2313,-224.9601,-100.1132,-86.8329,-52.7931,5.5651,61.6782,-214.7098,184.0551,93.5918,74.3897
-812.5000,-258.7927,-132.2568,-159.6790,-110.7415,-85.2047,103.9116,1.8511,295.8182,-21.3902,70.1137,-88.2614,-73.6640,13.6995,-27.1119,32.5066,51.4770,-51.2838,277.7410,117.2618,27.4522
-804.6875,-128.8668,-161.9382,16.7209,-228.2463,91.0999,134.8404,253.1389,252.8465,46.2093,-46.9874,-93.5800,-190.2301,45.2351,-33.4286,62.4382,7.2903,-237.8691,195.4377,141.9407,-89.4736
-796.8750,-366.7432,-195.6589,-127.6902,-186.5572,19.5426,245.9816,143.6188,291.0820,-62.9935,64.1046,-238.6822,-41.6001,-25.9961,150.4487,-47.4250,155.3061,-229.2300,308.3450,79.8234,58.8005
-789.0625,-264.3848,-165.5435,-50.8879,-191.6841,97.1447,139.3331,185.3269,147.5226,-20.9819,-5.6085,-86.5787,-73.7956,127.9949,81.5068,67.9181,12.5113,-92.4031,199.4535,111.9144,-120.7315
-781.2500,-267.2939,-137.3045,-22.3581,-160.0650,161.4327,204.4521,286.7851,175.7297,-29.2186,-51.5539,-241.7362,-46.2402,9.7490,145.3145,-88.9950,40.4789,-166.8235,159.3403,143.7599,-19.4930
-773.4375,-343.5867,-79.8851,-105.2209,-63.8635,42.2793,195.1727,56.8577,166.5332,-74.8396,-169.9018,-140.2753,92.8959,2.1377,172.7021,-61.2885,31.0389,107.3671,151.8275,66.2108,8.3304
-765.6250,-82.2237,-37.5513,64.5739,-84.0201,137.7317,106.5573,189.5987,77.9998,21.1938,-149.5860,-81.1808,3.6674,25.1838,83.7359,-2.9430,-21.7460,-17.8099,-10.0177,12.3185,-117.1832
-757.8125,-229.7212,-70.5694,-63.4942,-57.0281,-26.7258,161.1097,24.4803,133.6253,-33.6271,15.8702,-171.9266,96.5894,-27.5982,174.9158,-93.4474,144.6165,-60.8111,52.3081,-31.4220,85.4618
-750.0000,-134.6912,-73.2847,4.9547,-104.5500,3.2838,9.1676,-54.1060,53.7555,35.0620,-100.1762,116.8319,17.9802,152.1397,58.5798,46.5548,64.4723,105.6813,-99.8646,-5.6517,-30.4045
-742.1875,-84.1323,-85.9818,89.9417,-125.5206,87.7865,-54.1929,67.8532,28.4588,84.2900,-15.6566,-18.8764,-44.0841,91.4341,32.8003,21.0891,75.8978,-91.2754,-50.4554,9.6682,54.3019
-734.3750,-214.9726,-62.2312,-51.4656,-11.9041,-54.1495,-84.9426,-110.5822,32.7685,15.1210,-83.5495,23.0352,70.4337,134.3637,73.6143,25.2387,116.9224,57.3837,62.5573,-51.4084,132.5948
-726.5625,19.5880,-27.3145,89.5360,-60.9029,87.2765,-164.2735,67.4066,-45.5036,47.3581,-199.0237,55.3272,-44.6702,204.7002,-42.1779,167.7760,1.3504,-23.5819,-19.0068,-28.0629,-19.7062
-718.7500,-121.8220,-18.2673,-66.4295,8.1420,-33.3030,-26.5379,20.4400,18.2944,1.6407,-62.4432,-173.3297,92.2793,49.1022,94.0795,-25.6359,100.8376,-95.4912,119.5082,-28.6700,154.0545
-710.9375,-111.2004,-19.8104,-87.3827,-18.8361,-16.9038,-47.7985,1.5047,-38.9120,55.9367,-119.8781,27.0236,73.2113,104.5326,74.3160,26.9668,7.3139,90.5877,59.0280,-18.2789,23.8026
-703.1250,-51.9556,-44.1808,49.3030,-66.1739,118.1018,-22.3774,174.2236,-50.4561,80.8881,-21.6507,-95.0012,-12.2117,57.6218,62.2099,-21.7891,32.4575,-96.6968,12.2350,5.7732,12.2237
-695.3125,-220.8458,-67.6843,-134.1141,-25.6291,-29.0308,50.9567,-46.1451,-13.0866,7.7454,14.4825,-93.1188,98.2535,58.6390,172.0004,-21.6256,142.5040,13.9372,87.3566,-58.2574,122.5380
-687.5000,-48.5418,-52.5236,16.6810,-101.9011,85.0065,-54.4959,105.7171,-45.4961,49.8116,-91.1672,57.9504,-7.0931,138.8596,27.9839,92.7370,35.7575,10.7524,-57.3137,7.9212,-56.9430
-679.6875,-134.4101,-49.9395,-116.6914,-47.3257,23.8357,30.9206,81.4193,76.9642,25.7269,142.0370,-186.1341,41.4162,5.9351,39.8205,-115.0572,121.8745,-110.5731,66.8923,97.9504,102.4485
-671.8750,-145.5049,-12.2131,-162.3044,43.9845,-23.6155,-14.9090,-75.1118,68.1826,-19.5978,94.9837,-11.4575,69.6467,71.7797,-6.6089,-15.0889,38.7399,122.8513,18.8513,15.7355,19.5817
-664.0625,60.1407,27.8717,53.8222,38.0423,119.6345,-54.9573,69.1079,-45.8288,14.8255,18.7119,-51.0590,-7.3857,70.3657,-47.2807,-18.3857,-1.6226,-21.9922,-56.4051,-94.7333,-20.5122
-656.2500,-118.0262,41.7232,-29.8630,139.2958,-2.9644,-28.7871,-125.4806,-93.6246,-69.5583,-66.3567,-61.4553,164.7759,24.1643,87.2466,-66.4753,96.2244,44.3810,115.5603,-202.0051,151.5927
-648.4375,52.6255,52.8975,82.2614,27.3437,109.2143,-173.7998,-12.2403,-164.6060,-30.1394,-138.6269,124.9400,93.7148,137.7616,16.5681,45.2288,-48.1236,74.5355,4.3391,-137.4777,-29.5008
-640.6250,5.6537,34.2700,63.7668,13.7970,125.7392,-81.3810,42.3880,-72.1662,-48.3310,26.5118,-40.2785,112.0574,46.7554,33.2982,-156.6823,5.9479,-112.9034,62.5538,-113.5554,98.8294
-632.8125,-69.8106,65.6497,-17.2240,76.7393,44.7346,-88.4538,-110.4722,-79.2126,-55.0177,-89.8441,137.0119,214.8727,115.2642,25.5180,-164.0777,-73.4799,91.1583,55.2810,-155.1328,91.6451
-625.0000,116.7545,75.0260,146.8282,16.7269,169.7447,-146.4478,51.7292,-101.1746,-1.6530,-75.1241,116.3191,84.7318,96.8149,-69.2097,-148.4416,-95.8362,-37.7609,-74.9117,-73.6507,-2.4716
-617.1875,-102.0997,53.4504,-16.5324,76.3119,-31.6885,-15.8259,-111.4824,29.4772,-91.6924,91.1895,-46.7658,214.1949,-29.0179,59.6682,-313.2022,107.4202,-11.0685,56.5204,-81.5795,164.0205
-609.3750,-7.2852,35.8112,-20.2304,29.5316,0.5113,-19.5474,-41.0203,26.7838,-21.0722,15.1611,96.7895,100.2876,79.8016,20.1885,-205.3073,31.3306,47.2532,-59.3852,-21.8569,-22.8376
-601.5625,-24.3542,-6.5619,-5.8057,-59.1023,50.8134,105.9068,47.5833,115.2721,-6.3130,103.3171,-107.5354,78.5365,-14.2399,70.8704,-301.2733,82.4140,-180.2881,28.9021,67.0174,65.4808
-593.7500,-206.4796,-48.1587,-161.4319,-32.7990,-31.9582,133.3245,-71.8529,105.7223,-51.6000,56.4184,-7.8947,142.7219,87.6872,97.4942,-201.2777,72.4471,-47.8762,126.1509,-11.1591,92.7404
-585.9375,-27.8686,-38.1715,30.6944,-101.7534,122.0009,31.5171,84.4742,4.9385,30.8624,102.2845,2.4721,41.6517,135.3583,-4.1243,-119.5441,-28.7503,-115.7442,-46.8190,-7.5932,-45.2314
-578.1250,-222.0907,-43.4273,-107.0005,19.4991,-16.8777,113.9346,-53.0129,13.3671,3.5121,220.3500,-171.9622,159.7876,36.2339,113.4647,-257.6149,52.2680,-133.4019,110.4534,-60.8392,147.0115
-570.3125,-123.1532,3.5557,-74.5323,45.8888,51.3875,-36.4850,-57.3262,-136.0458,37.3179,-3.4390,7.7516,156.0524,180.2587,36.1921,-78.5289,-61.5634,34.0694,31.8913,-137.9300,33.3996
-562.5000,35.1038,43.4796,14.2671,62.6246,101.9663,-56.5266,31.7025,-231.0770,89.4677,-24.8554,-123.2142,134.6732,123.6199,13.2772,-99.1060,-9.0209,-158.1258,14.7184,-189.6721,122.1677
-554.6875,-101.6026,52.5631,-131.8935,170.3988,-82.4317,-57.5084,-188.2183,-195.0411,-20.3342,11.7901,-50.1203,207.3357,125.0407,49.4134,-136.6260,63.5850,20.7338,87.6084,-187.3666,194.9821
-546.8750,102.2305,72.6702,52.4955,162.7109,63.7049,-165.9165,-77.5751,-230.4313,-19.5817,49.0079,24.4889,24.5347,200.9991,-60.8928,-63.5982,-46.2352,13.1064,-59.9242,-88.5071,12.3610
-539.0625,-17.1272,94.9394,-6.2933,251.8687,3.6574,-41.4509,-172.0916,-105.9478,-77.9831,62.0785,-108.0636,148.5938,33.8018,26.6626,-232.7231,41.8185,-71.6711,101.4359,-136.8049,173.6120
-531.2500,-32.5335,109.0361,-18.1221,305.9633,-8.4466,-125.0243,-219.6381,-189.5029,-88.4280,-94.9024,102.3329,138.5890,171.5585,-58.8403,-96.8899,-43.1736,123.4841,86.7607,-187.1547,52.8075
-523.4375,51.7782,69.4262,70.7809,247.8101,152.1736,-110.8141,-21.4429,-137.2776,-74.1405,66.8917,-30.5502,-31.6648,114.0442,-153.5788,-119.3304,-65.3849,-109.6311,134.8773,-103.7600,30.7817
-515.6250,-213.7871,-15.1413,-101.1778,225.8035,-21.0778,10.5631,-193.1070,20.1233,-134.7140,187.8481,-91.2748,17.2203,89.6843,-33.1654,-181.6144,56.5646,-24.5899,256.1685,-88.2159,115.9029
-507.8125,-58.7147,-40.0096,-4.4866,64.4365,111.3119,-1.3850,14.9000,8.2037,-73.6368,139.4865,-30.3764,-106.2592,152.9620,-46.1034,-84.2576,-28.8170,-44.9331,95.1314,-3.0187,-80.3208
-500.0000,-141.0840,-43.2683,-23.2231,50.6712,91.2740,127.2951,33.4890,100.9058,-91.9710,193.7333,-232.8896,-15.1261,-11.1658,81.5764,-250.3062,99.4244,-162.6841,223.7351,-15.2363,48.0800
-492.1875,-171.6968,-36.9840,-16.2009,52.6431,96.9848,134.7319,-33.1578,-39.6380,-48.5500,-20.2904,-5.6439,28.7443,143.4587,49.9988,-134.5895,-4.5827,51.3068,157.1080,-116.7114,-18.7739
-484.3750,48.2592,5.1102,179.4088,26.2172,254.2781,72.8008,125.7923,-101.5517,-36.5369,-119.6932,-30.8336,-70.7838,156.6565,-48.9681,-86.2900,-103.9582,-115.1291,61.1222,-35.5941,-43.9989
-476.5625,-151.9147,-15.7178,34.9009,70.6916,108.4500,113.7851,-90.3699,12.4520,-142.6329,30.8162,-100.1212,42.5888,51.7446,26.9748,-156.0894,46.5852,-34.6535,142.0646,-25.5831,106.6806
-468.7500,14.4557,-6.2001,107.9509,-10.2888,180.1737,-33.6588,-18.9652,12.0218,-70.1783,29.8864,45.1224,-68.5047,162.3671,-47.5315,-84.3430,-64.3075,62.3446,27.5800,-34.0262,-78.0865
-460.9375,-4.8143,7.8289,118.3753,5.1437,153.2705,51.3244,29.8232,61.0134,-95.3405,151.3770,-90.2589,-21.1851,27.3668,-74.6235,-220.2068,-16.7727,-63.2637,79.5397,-53.0821,43.5750
-453.1250,-73.5910,49.5220,11.2998,146.0711,43.8676,17.8175,-150.8798,64.5217,-129.0059,7.3711,59.8681,55.6153,142.8646,-72.2257,-144.5590,-87.7311,149.6220,81.0149,-121.6428,9.7286
-445.3125,131.4563,86.6347,156.0718,137.8432,151.3096,16.1876,-5.7265,25.9097,-130.8268,-31.7602,57.8160,-56.7400,105.1805,-147.9707,-147.0754,-125.8114,37.3247,4.3698,-57.3557,-102.2427
-437.5000,-110.9811,81.0446,-68.6286,245.1665,-1.7144,123.1227,-119.0448,169.8658,-280.1038,148.6633,-92.6844,86.4568,-79.9637,-5.1508,-297.0366,17.6785,74.5806,148.3034,-19.5255,41.3492
-429.6875,4.2285,99.2303,25.3285,219.1284,53.9189,33.7177,-62.6971,116.4887,-261.7304,21.7486,74.4500,-4.7105,50.5300,-96.6786,-205.3439,-73.1700,225.4545,53.9068,-44.0465,-159.4083
-421.8750,76.5977,130.5740,134.4566,290.2940,87.7319,32.5442,-27.1625,79.3464,-225.1735,20.0557,-1.2439,-5.6701,-22.8060,-97.9902,-279.4682,-36.7851,51.5146,56.7556,-111.3765,-86.9356
-414.0625,12.9055,149.3409,28.5302,331.4056,-18.5036,38.3337,-240.6783,48.1668,-255.6666,-84.6950,78.0201,109.3102,57.8055,-56.3533,-201.6271,-31.4424,198.5216,63.5700,-174.7659,-44.5163
-406.2500,187.9852,103.7315,181.3961,188.3151,96.0639,-29.0514,-52.3904,-19.1839,-104.3630,-79.6177,83.0537,-69.9149,101.1837,-125.9133,-49.9971,-63.2716,56.2938,-77.7799,-70.3521,-186.2763
-398.4375,-91.2318,-0.9985,-8.0149,83.9840,15.3626,113.3388,-94.3715,160.2445,-72.3242,173.2261,-178.1730,35.6207,-13.7104,16.2921,-165.6200,78.6736,-82.1854,66.6558,3.7966,-7.2690
-390.6250,-49.7013,-37.5307,4.3245,-51.6032,63.4248,53.4890,-7.5872,100.4367,-22.5344,75.8251,-19.6601,-26.1020,148.1265,-82.7522,30.5123,-18.6178,30.0610,-32.1459,10.6904,-141.5137
-382.8125,55.5427,-64.3713,111.3894,-158.4427,169.2224,50.4125,136.9334,60.4102,47.9965,109.1967,-96.4286,-103.0616,108.6803,-86.0290,-10.6214,-21.1246,-181.9673,-101.1555,45.3253,-70.9732
-375.0000,-53.5797,-55.4002,-44.9056,-92.6332,-25.3287,79.9891,-128.9029,53.0445,3.1754,100.2170,5.4594,35.6257,101.8764,15.3459,-19.0909,81.0331,-45.3429,-69.4979,-28.4011,31.2165
-367.1875,156.9836,-18.3753,34.4951,-129.1255,15.8280,-24.7218,-13.0293,-14.6005,46.0500,32.9649,85.0171,-31.9920,145.7389,-53.5680,133.1325,12.9111,-81.0544,-210.1134,6.5672,-109.8771
-359.3750,61.1529,-9.6814,-111.4824,-83.9587,-94.3805,50.2406,-84.5313,23.4281,-26.4417,107.3781,-97.7827,78.0503,1.2241,57.1865,23.0021,124.4664,-176.1112,-23.0448,17.1728,111.7031
-351.5625,63.9679,11.0133,-179.7991,-49.1524,-126.9183,-54.1432,-80.3703,-43.8813,15.7196,-71.5589,54.0676,83.7297,117.3392,-11.4099,138.5297,19.6801,-34.5368,15.6877,-15.5746,43.9301
-343.7500,94.6907,-17.1969,-75.1812,-89.3961,-23.5065,-57.5489,63.7314,26.7919,85.8194,72.4823,-61.1655,5.3631,40.3655,-90.0402,96.9895,15.8803,-249.0397,12.4091,51.6165,40.1399
-335.9375,-149.4125,-39.5442,-298.3759,16.5577,-210.8916,50.2524,-159.9776,171.6804,-26.8857,215.7346,-100.1980,112.1991,2.5781,-19.4674,19.6615,123.2962,-107.3425,84.3479,17.9975,147.5540
-328.1250,51.6244,2.1523,-153.4210,6.6567,-140.1104,-59.7847,-50.5276,134.7352,8.5548,142.1489,44.8935,1.1849,75.9078,-131.7328,129.4810,12.8827,-46.5276,-63.5485,9.5266,-36.8690
-320.3125,-43.2278,-21.8376,-222.3476,14.9165,-174.1932,-18.6489,-46.9535,175.9635,11.1295,292.7212,-171.8790,40.3436,-66.6500,-18.8288,-15.5598,126.6472,-177.5610,51.7386,54.1971,113.8862
-312.5000,-141.2334,-48.5989,-247.4167,-12.9795,-200.4043,-42.6564,-71.5208,152.0535,-12.4466,195.1398,-12.7964,53.3400,19.6196,-6.0825,34.2622,102.2664,5.2444,60.8924,62.7109,16.4844
-304.6875,60.1756,-44.5643,3.9521,-127.4185,13.8415,-9.1878,145.3547,74.6283,56.4153,43.0396,-91.2970,-62.2138,16.2890,-11.8745,28.5128,61.3674,-179.5320,18.5399,54.6693,-61.4432
-296.8750,-172.3030,-59.3900,-98.5469,-80.7069,-90.7607,145.4467,-68.6367,82.3775,-46.5868,13.1066,-157.6440,128.3803,-48.9131,141.4973,-2.0829,178.6365,-95.1560,103.3628,-37.2304,92.7820
-289.0625,-32.3371,-45.9549,18.4120,-116.5535,25.1113,43.5490,12.8344,-18.4044,-2.1391,-88.3647,33.4458,25.4056,70.3072,76.3237,116.7739,40.3759,8.6341,-71.3481,-1.6898,-82.5414
-281.2500,-43.2634,-39.7882,38.4967,-128.2431,7.1303,101.8254,70.4317,38.9813,-18.5540,42.3247,-129.3324,45.5998,-55.3554,95.3190,-11.2255,61.2961,-107.4353,-10.8781,58.9877,48.3164
-273.4375,-162.7920,-41.0900,-123.0151,-73.5376,-81.4257,88.4989,-91.5672,62.7694,-32.5697,65.4098,2.3030,105.1862,4.3644,44.7105,48.1888,47.6165,123.8882,11.9991,10.0549,34.5708
-265.6250,40.5094,-18.9747,58.3141,-80.9791,61.8855,50.0380,17.2826,61.4284,39.2554,26.3704,-0.2415,-44.3742,-34.1118,-32.0368,82.4352,8.8132,11.0298,-99.2478,37.9622,-77.2982
-257.8125,-142.1715,-25.6987,-103.3316,16.6352,-63.7557,182.6376,-106.8466,158.1532,-84.8832,85.3904,-124.7391,50.1255,-304.5656,100.2760,-7.2596,178.0853,3.2289,70.5794,-4.0913,91.8969
-250.0000,9.0994,11.9591,-48.0244,-8.8055,-9.4206,93.1945,-15.0154,141.8367,-66.0694,-5.6375,40.6998,-40.4332,-358.0968,-28.4578,123.0090,88.3179,120.3452,12.3659,7.7983,-71.9548
-242.1875,49.5281,11.3201,-11.5462,30.9526,26.1128,130.9722,95.9975,216.7465,-66.0660,105.5507,-69.6839,-149.7786,-577.4688,-64.9665,12.4704,89.7826,-51.3560,124.3872,48.8773,39.4299
-234.3750,-110.9073,2.3695,-143.9237,115.8581,-107.1855,109.9007,-145.8465,194.8241,-50.9156,156.8891,18.0909,-61.9801,-562.7089,-51.3236,63.0938,104.4096,140.0884,176.5722,-5.8987,90.9618
-226.5625,120.6908,30.8788,28.7390,29.8119,64.5809,-46.1008,27.3602,75.9768,49.2782,74.2971,81.8857,-110.1300,-534.9445,-97.6137,199.7564,58.1141,19.5426,-12.1675,-54.6322,-28.4361
-218.7500,22.7491,23.9330,-46.1245,1.2740,-48.1502,-9.5881,-46.9609,39.6450,11.9599,109.2229,-29.8272,72.2319,-646.7119,83.6156,123.9185,204.3444,-113.5037,32.6198,-46.8784,190.6847
-210.9375,60.7066,-13.2847,-2.0806,-135.3765,32.0507,-110.1710,-75.3690,11.2230,93.5436,-64.9431,161.3507,43.4808,-489.6091,55.7434,279.9942,103.4831,-75.6750,1.3162,-8.2249,89.7030
-203.1250,36.1238,-72.3906,83.4351,-265.5235,153.7606,48.7689,83.7119,135.3289,105.6171,57.4137,-11.0037,-17.7606,-588.0522,67.3845,107.5561,116.1486,-310.3736,85.5517,109.9292,102.2528
-195.3125,-265.7291,-133.2787,-49.3088,-216.9198,19.2324,211.4682,-48.4693,298.1996,-26.5669,109.5262,-32.5990,32.7447,-609.7694,191.7798,10.8801,204.5741,-120.3186,206.5506,89.8200,117.5479
-187.5000,-130.6427,-144.0410,137.8965,-259.3597,206.6754,180.1314,103.2996,267.0393,14.1929,-33.3892,81.7316,-109.8059,-493.5833,122.1344,125.1483,136.9757,-161.3488,26.5140,119.6494,-98.1953
-179.6875,-208.6407,-152.1997,12.0297,-231.8341,153.0681,276.7595,50.9895,326.8451,-1.1139,62.6531,-116.9951,-51.3919,-582.4845,180.4611,-0.6377,232.3505,-274.4251,126.4504,147.4082,71.0320
-171.8750,-152.0283,-149.3281,-71.2272,-280.7118,143.0931,157.9836,5.2860,208.2521,63.1796,-93.7154,92.8880,-61.3892,-406.8147,97.3800,174.1888,113.3260,-112.9086,114.9905,99.7650,-11.1464
-164.0625,48.2577,-143.8248,63.2048,-326.8741,276.8334,73.9250,214.2682,87.3778,162.1603,-105.3655,7.4446,-182.6801,-381.4985,48.0089,234.6957,66.0236,-333.7028,71.2598,54.8161,14.4025
-156.2500,-170.6737,-153.0480,-134.5717,-230.2240,114.3878,96.6703,-20.9692,147.3124,36.9307,64.7857,-43.1877,-50.1702,-359.4104,107.4385,147.0165,162.5298,-201.6846,170.3398,46.6515,147.7499
-148.4375,26.3409,-121.5447,-29.3931,-244.6242,182.9201,-16.6294,47.7525,70.2109,106.6504,23.9050,98.1121,-165.7191,-252.4102,28.8207,215.2878,85.0001,-109.7497,-51.6218,69.4342,-39.9489
-140.6250,18.5157,-94.8685,-45.0445,-181.8201,92.6527,42.2869,32.6481,56.3303,91.5612,83.2378,-63.3984,-107.0504,-378.2486,87.4241,126.7590,144.6950,-222.6249,47.6433,27.4003,129.5788
-132.8125,3.6983,-60.7876,-95.6902,-126.0313,3.4176,-42.8043,-90.4473,-65.5492,114.4751,-76.4389,68.1009,-47.3909,-245.1096,73.0260,259.2502,57.3914,7.4855,69.9076,-91.6327,116.1019
-125.0000,163.2619,-62.4054,-0.9447,-177.8476,99.6000,-56.4830,114.8478,-115.0076,210.7778,-90.6898,16.9724,-172.3280,-258.6195,-14.9574,281.1316,7.5131,-184.0341,56.5949,-2.2662,66.0522
-117.1875,-118.7994,-100.5890,-154.8174,-75.2532,-55.8093,48.2484,-75.4838,-11.0553,92.4675,49.4559,-100.7464,-69.8638,-302.7529,87.4756,126.4246,185.0575,-115.1494,197.6980,-2.5178,206.4040
-109.3750,-37.9538,-100.5773,-24.7788,-64.7536,0.7114,32.8875,-54.9090,10.8053,77.0543,34.5079,66.4271,-195.5154,-207.0231,-1.1845,220.6198,96.5147,0.6086,34.7065,9.1183,7.6516
-101.5625,-71.8309,-90.4332,7.5308,-29.9385,32.5331,103.8438,-22.0644,81.9799,-0.0789,104.8795,-83.1158,-162.8535,-284.0396,105.4721,33.1083,131.3017,-103.3416,72.0379,-24.9584,115.2201
-93.7500,-163.0401,-64.0150,-12.5095,20.5232,-60.9691,85.4448,-187.5712,26.8113,-55.5649,-25.0979,80.0034,-71.5505,-193.4355,85.7732,87.2530,75.7384,156.3536,90.0187,-44.3870,96.4219
-85.9375,56.5934,-34.0667,187.2990,-6.1639,101.4072,29.9082,48.7768,8.5056,-2.2052,-81.2141,95.9529,-239.3995,-177.0308,-9.0629,66.2379,-16.9614,60.8726,-4.1403,36.0256,-33.5095
-78.1250,-131.8925,-30.5530,19.0013,86.0559,-30.3010,120.2708,-80.9987,26.0952,-58.9546,-27.4399,-35.1872,-76.3405,-234.7497,81.0122,-28.8612,110.2468,82.3091,125.6052,-45.6757,130.4702
-70.3125,37.1786,12.2904,19.2675,44.8215,6.5800,-24.8252,-44.2163,-82.7655,-22.1546,-137.1096,149.2259,-113.7423,-49.9455,-28.3664,119.5984,-72.0022,216.2794,15.9003,-16.8262,-15.0079
-62.5000,95.2179,15.9693,2.5170,-3.3935,25.4731,-75.9105,86.5471,-59.6155,71.6332,-5.7656,-15.3806,-92.1279,-103.1872,-45.7294,29.0479,-50.2356,-6.7571,40.2144,42.0144,79.5367
-54.6875,-28.7425,22.3177,-128.2314,48.3907,-105.6069,-59.0135,-80.6896,-79.4715,50.4278,-98.4361,74.0281,32.4787,-50.4404,6.8992,44.5293,3.5301,150.2164,94.5153,-45.1516,133.0761
-46.8750,179.2930,37.0922,21.0202,9.1693,7.3411,-92.1211,69.0786,-111.3249,91.2227,-168.0966,114.4186,-110.9173,63.2693,-99.4636,122.0092,-65.6849,77.1660,-47.1766,-48.3184,-9.3656
-39.0625,-26.6966,26.0897,-91.7462,83.9577,-106.7049,17.7749,-43.1781,-39.1788,-20.9964,-22.7618,-72.1806,33.7004,-49.0529,44.1946,-28.5110,79.1161,45.1368,31.1421,-43.4925,172.2007
-31.2500,12.2416,53.5714,-81.5902,123.6418,-96.8088,-80.4396,-142.5192,-63.1439,-10.3084,-157.5419,85.1363,45.2064,108.4950,19.7481,92.8857,-18.1891,190.9962,-68.6584,-73.7771,37.6492
-23.4375,108.4016,52.8407,18.7966,78.5894,-33.6550,-52.3877,-5.6330,-70.8431,16.6144,-94.0518,-35.3301,-2.0257,25.2447,9.5706,9.5387,9.7843,-28.9206,-40.1887,-46.8337,65.3845
-15.6250,-130.5567,33.9827,-160.9325,120.4485,-139.5982,-9.4360,-184.8736,8.3645,-51.5749,-15.6583,-66.8916,149.6490,29.8690,87.3033,-59.8915,51.6656,118.0756,74.1834,-73.9955,144.0279
-7.8125,52.6311,42.2568,39.4912,57.4567,23.6260,-65.3363,16.0466,-84.2653,1.3844,-34.0744,22.6820,19.4562,83.5940,-5.8089,-6.1749,-76.2932,55.2040,-92.2941,4.0084,-58.1761
-4000.0000,-40.0089,14.9873,22.5882,40.8933,3.5900,7.5647,7.5215,-2.0561,-18.3159,39.1823,-65.1410,45.8451,-144.8220,69.3155,-57.3489,23.0965,-14.0445,-22.6072,6.1957,33.4276
-3992.1875,-53.7891,2.0825,-23.5829,28.2103,-5.8170,-1.5199,-75.7560,-11.3524,-29.1981,-117.6945,107.2366,35.7106,26.5464,59.7180,78.2434,-23.0687,149.2902,-35.2261,-112.1662,-49.7073
-3984.3750,123.5556,28.0279,125.3668,-4.3739,105.8969,0.5017,73.0907,-83.5487,9.0190,-152.4775,70.7136,-35.3530,26.0253,-47.7993,78.9360,-58.1446,-25.2835,-69.7532,-145.4257,-47.7651
-3976.5625,-25.8083,34.6571,-37.3916,92.3556,-20.0971,94.8393,-125.7788,-98.4276,-80.4819,-129.9568,53.4728,58.8793,6.8063,9.9847,-11.0843,-0.9139,105.4450,61.0371,-189.3867,83.4871
-3968.7500,121.9939,39.4672,91.0079,66.2323,108.0630,2.3238,1.5051,-118.1657,-63.8310,-186.3019,180.4000,-106.7617,133.7639,-118.0992,78.0604,-129.5454,148.3399,-71.0282,-111.1967,-119.1350
-3960.9375,19.8085,23.2143,15.4142,142.1171,69.2300,74.8155,-0.1972,-46.8991,-29.1833,-40.6368,-42.6945,-72.4159,-18.2793,-46.1911,-34.8038,-21.1791,-23.7900,2.9190,-72.0059,26.2401
-3953.1250,27.1140,57.8273,-86.6992,149.5145,3.8812,9.8151,-101.4160,-111.1270,-22.0457,-177.4805,110.7136,-26.5668,62.1939,-110.7864,45.8357,-122.3143,194.6007,45.3760,-65.3210,-1.8866
-3945.3125,264.9456,80.2102,56.7013,72.4075,110.0468,-30.6902,77.8827,-115.8582,10.5966,-108.8342,68.6278,-178.2469,18.1875,-223.9021,40.9942,-163.9558,80.4844,2.3186,-37.1289,-79.5356
-3937.5000,43.3168,73.6208,-105.3702,203.8576,-89.2557,63.3714,-121.2758,-22.0247,-116.2192,22.3820,-21.9262,-47.3803,-37.2722,-92.4624,-86.3064,-33.0396,140.9114,167.8307,-117.3868,51.3767
-3929.6875,165.8981,66.6964,-6.2445,151.5093,9.6393,-20.3655,-58.2375,-67.9920,-16.8350,-134.2171,149.7408,-167.3249,134.4927,-175.8369,85.6078,-152.9388,228.5566,8.5386,-100.4498,-142.5307
-3921.8750,158.4018,37.4977,17.7902,74.0561,33.4437,40.8071,1.7172,-8.0599,5.4497,-73.9198,-48.7013,-143.3919,82.1682,-115.3216,-2.5780,-55.9417,-25.9200,72.1508,-1.6131,-8.5420
-3914.0625,19.9453,2.5065,-127.1427,41.6633,-75.7192,43.0471,-106.3002,-6.0704,-30.2304,-34.5719,24.9058,-68.4118,155.9091,-75.7587,35.2869,-16.8904,116.6658,143.8291,0.2699,-6.4990
-3906.2500,200.9623,-3.3943,32.3855,-57.2835,121.5832,18.7331,127.1508,-30.6335,-17.4539,15.2126,-0.0239,-203.0101,129.1263,-135.7660,46.6205,-77.4023,-53.3002,44.9482,76.6037,-141.0310
-3898.4375,-39.3758,-23.0135,-114.4453,20.4237,10.5311,166.0798,-20.7499,116.4657,-128.0329,125.6640,-148.3256,-55.9682,-19.9996,-25.1288,-100.4047,69.7489,-82.6283,191.7348,47.5852,6.0963
-3890.6250,42.1839,-14.4066,-22.3842,-2.9620,103.3754,111.3263,-1.7631,25.4702,-73.7123,-111.9940,89.2905,-110.0431,180.8064,-115.6083,63.4819,-59.2092,68.9646,61.4238,-47.5321,-158.8934
-3882.8125,103.7610,-13.8249,38.6931,-45.3470,164.2325,173.5772,96.2430,13.4769,-13.3912,-87.6567,-35.1012,-123.1456,92.6269,-128.1037,-23.6299,-34.1717,-115.4574,53.1202,-19.6472,-60.8954
-3875.0000,-34.5785,-13.1510,-108.1536,-6.6207,-20.8260,172.9426,-87.6637,49.5923,-86.9862,-51.2142,36.5982,-13.1461,126.5614,-91.5010,11.3588,-35.0285,63.2351,90.9348,-17.6681,12.2086
-3867.1875,179.0094,-16.0075,47.9115,-108.9911,99.0241,-1.7958,68.3407,21.6016,30.3191,-41.8887,118.2133,-151.2745,207.4273,-192.0228,130.2651,-135.9981,-40.1620,-47.3626,20.2121,-125.8155
-3859.3750,86.2057,-24.6388,-93.4290,-95.7548,-7.5306,3.0754,-37.0532,100.2106,-37.7807,74.0371,-24.5883,-36.8096,99.9002,-111.9516,59.7641,15.6450,-167.9672,70.9499,-2.3104,62.7694
-3851.5625,276.0028,43.2781,-110.1826,-79.9125,-59.5014,-122.4515,-89.8611,11.4193,-18.2855,-51.4485,178.2247,-51.7549,192.0044,-165.2914,153.8798,-73.1184,-13.1513,14.8718,-57.2364,-63.0559
-3843.7500,451.0767,68.0974,-1.6753,-115.8288,11.7894,-160.7298,55.6030,8.8784,15.4714,56.3091,64.2882,-128.4751,114.3839,-166.3992,40.2556,-75.6454,-190.1047,-20.9574,-58.9079,-28.6483
-3835.9375,224.4840,31.9883,-130.8419,-59.3841,-117.5892,-142.6364,-147.5998,62.6993,-40.4330,111.4135,79.6989,-37.8430,129.1277,-111.1518,18.9805,15.1873,-63.7077,69.5819,-72.2388,62.1195
-3828.1250,337.1603,-17.2775,67.2522,-192.6949,6.2860,-274.2943,13.4458,77.7705,82.9130,52.7570,204.3840,-206.9856,253.1603,-243.6725,143.9740,-42.7435,-129.0505,-29.6450,-31.3156,-106.8872
-3820.3125,121.7421,-85.2231,-18.7538,-195.1134,-41.9420,-213.0456,-34.6019,175.7581,70.1561,225.0133,-29.0439,-144.2446,165.1055,-107.2991,56.8639,92.2321,-273.5146,142.0393,-0.4867,65.0091
-3812.5000,39.8675,-127.3679,-63.2262,-240.9835,-50.6356,-257.2410,-43.1130,131.2995,134.9422,143.8123,144.0918,-152.9589,302.6291,-116.3825,195.3230,10.7558,-109.4105,95.2803,-11.1104,-16.5496
-3804.6875,127.5662,-153.0939,66.8633,-362.3087,79.2373,-273.8912,160.9444,151.3884,228.2879,127.1512,52.7851,-243.1506,283.7329,-168.9410,177.3493,30.8170,-266.7672,8.0635,111.8175,-33.5778
-3796.8750,-109.1977,-168.9168,-74.5164,-318.0767,-62.3580,-121.9771,17.5394,229.0321,121.1780,132.0492,-16.9871,-128.7924,249.4061,-53.9473,32.9199,108.4349,-82.5723,122.4161,121.2908,80.9557
-3789.0625,99.3550,-94.6336,79.4091,-249.5415,17.3488,-151.7667,99.4347,126.9661,165.3676,-80.7734,135.5656,-233.1563,291.4199,-119.6777,113.8132,-31.6622,55.9465,-55.9380,119.0593,-132.2326
-3781.2500,-2.6290,-59.3111,4.7934,-68.5639,-20.4848,-5.1034,97.7914,162.3514,53.0102,28.8557,-87.4420,-160.0928,104.9013,-46.9750,-35.8404,77.6864,-47.1012,53.1665,122.2881,-22.9699
-3773.4375,-105.2791,-39.8704,-98.4862,5.7672,-123.9777,38.9135,-41.5172,170.0961,-51.0048,35.8372,28.9066,-79.6856,146.7631,-75.9309,7.8642,48.3814,168.2148,56.6410,126.8628,-89.3593
-3765.6250,26.3915,-39.9053,42.5486,-37.6054,16.8451,106.2230,172.4950,126.1320,15.2931,30.0990,-16.4293,-197.0066,138.9651,-155.6099,-0.1062,-68.6378,17.8263,12.4100,187.7300,-169.4728
-3757.8125,-197.2923,-43.4891,-124.7761,90.6801,-113.6985,234.1898,-31.8540,179.8156,-42.7621,10.0055,-74.1232,-33.6756,79.8377,-28.6434,-58.4214,-15.0065,40.0877,175.8428,69.2403,-5.9223
-3750.0000,-57.2139,-8.8793,-43.3530,91.7144,4.5066,131.8937,13.5433,78.2386,1.9372,-165.3515,79.9594,-99.6119,197.5044,-129.9513,97.0381,-116.6367,145.1236,35.0116,69.5030,-181.6391
-3742.1875,-84.3715,-47.5730,-2.1727,66.4882,44.4698,136.3475,90.7114,118.4177,5.3927,59.0448,-138.2144,-132.8219,88.9440,-89.5244,-47.7492,-2.5232,-93.1123,77.9331,113.5277,-67.6098
-3734.3750,-170.2025,-60.7298,-131.6666,49.6124,-84.2363,81.1663,-74.7886,99.9605,-13.8114,114.7904,-11.0406,-40.6823,142.7647,-33.7475,-30.1795,51.9453,66.0134,96.2295,60.8996,-49.2268
-3726.5625,80.3871,-47.4040,26.2512,-84.8747,73.4704,-18.6183,83.1254,-37.1053,106.3960,-22.0794,34.5513,-104.1688,188.0296,-60.5925,126.8178,-48.1993,-104.4643,-4.0826,31.6684,-149.4700
-3718.7500,-107.0772,-63.0190,-67.8887,-60.4142,15.1204,71.5550,-12.0124,15.7854,10.5490,-78.9951,-96.9193,21.2878,91.2661,66.5136,30.7623,78.6162,-116.0050,160.5668,-15.6142,50.2496
-3710.9375,-65.1352,-81.6402,-16.6358,-122.5495,67.1605,13.1211,40.2329,-5.9245,25.0986,-100.5257,63.0408,-37.8652,215.9445,-28.9978,119.1314,56.8152,-39.1261,62.6121,26.5047,-118.6444
-3703.1250,-50.1259,-133.5834,33.6794,-177.6418,80.2600,137.7334,127.5422,81.4185,74.7065,96.9901,-71.9488,-134.9894,80.6958,21.5193,-15.4359,144.0552,-235.2107,76.7108,41.6792,-68.4981
-3695.3125,-191.8328,-141.1832,-116.7249,-142.4264,-71.3589,170.6563,-23.8703,114.0675,33.6102,56.8057,-40.6388,-65.8161,111.7775,91.3295,-20.6981,176.6010,-25.9791,111.1278,41.1441,0.9572
-3687.5000,-12.3698,-143.2936,4.0293,-243.0650,50.1778,108.7135,170.8809,51.8498,80.6688,30.7562,42.8454,-202.5133,158.0602,-7.7315,63.2231,114.2803,-56.5890,-25.3173,115.7526,-135.4621
-3679.6875,-212.0545,-169.4432,-102.3740,-195.8569,-57.4380,184.6235,100.4840,128.4840,82.5781,143.5724,-175.8314,-89.3656,49.2130,106.0511,-45.0035,263.8120,-116.3619,91.0913,126.2132,50.9786
-3671.8750,-156.3427,-122.8128,-112.3940,-174.2505,-66.6655,65.9268,18.4716,45.5070,109.8944,-11.2360,34.9144,-24.8204,148.8118,97.2223,129.1980,144.7366,80.2875,-28.0948,77.0662,-68.1838
-3664.0625,80.6451,-50.6524,-49.1492,-182.4107,-3.6270,55.4736,154.7293,71.7689,98.4687,15.1890,-88.0817,-73.0460,-10.3040,49.6210,44.6708,59.8971,-104.8276,-37.0292,103.1732,-42.1060
-3656.2500,94.9628,56.8235,-257.5770,-27.2206,-213.2560,104.3804,-90.6805,120.3941,-73.6171,62.9759,-76.7338,85.0786,-74.0404,24.3680,-91.5108,71.4181,50.4096,82.4051,47.6362,42.3328
-3648.4375,376.5462,145.9186,-101.7497,9.2148,-130.6286,3.5322,28.1661,19.2637,-29.4466,-75.0173,40.8939,-16.5690,8.5267,-112.6552,-47.4151,-66.8268,119.9132,-58.9262,12.3433,-169.0013
-3640.6250,215.3330,150.1026,-165.7160,165.8481,-157.8010,49.8917,-36.7915,65.3365,-58.0762,45.1836,-134.2780,64.9705,-94.6819,-30.4898,-185.1062,16.1290,29.6026,61.9440,-43.7530,-13.1260
-3632.8125,77.3544,112.4265,-123.4484,204.7328,-152.7385,-16.4946,-103.5262,-1.3446,-51.4592,-95.3708,53.8247,34.7598,58.4037,-60.0848,4.4706,-87.6677,243.5647,-4.9268,-39.6100,-80.0019
-3625.0000,150.0916,80.3958,27.5330,102.3099,-1.9608,-49.1856,84.4534,38.6691,24.8653,-54.2314,-53.3566,-71.7711,24.2330,-129.9990,6.7605,-120.7795,34.2146,-3.1015,103.2351,-113.1955
-3617.1875,-120.2405,33.7522,-113.5518,148.8423,-142.2442,67.0887,-93.6291,154.6397,-43.8713,24.8602,-85.5901,43.6521,-7.9586,-13.9580,-134.0012,-4.9401,114.8116,147.6904,43.0233,2.5752
-3609.3750,43.5321,41.8275,67.4625,67.4637,37.5768,27.4511,50.3878,4.7058,-10.5035,-198.9690,94.3092,-33.8354,135.0025,-53.8349,8.3704,-118.0153,138.5193,-3.4248,-39.0893,-184.5742
-3601.5625,34.8595,51.0064,89.0291,59.6241,22.9557,197.3621,35.9689,-9.6798,-25.5778,-140.2388,-69.2439,24.2119,-28.4574,5.8236,-117.7063,-22.5401,24.7580,23.0179,-11.6489,-52.1712
-3593.7500,-46.8276,50.9914,5.5779,84.7913,-60.6777,224.2708,-84.4714,16.9280,-72.6604,-186.5311,67.2234,51.2672,-1.8734,-4.5213,-90.7663,-69.0690,224.0217,46.4678,11.7790,-98.7623
-3585.9375,157.6128,76.4115,187.2427,9.0519,83.8065,222.2677,170.2001,-22.3799,-2.6331,-262.7548,63.8141,-62.6014,-42.1428,-116.7941,-93.6994,-182.5151,77.3897,-29.9886,76.3032,-175.2718
-3578.1250,-28.9137,67.4274,-15.0589,69.3631,-82.6703,314.3208,4.9129,33.3680,-94.5589,-132.9231,-66.5542,65.5743,-98.3363,-62.0190,-148.5840,-90.8987,136.8011,100.6248,65.8814,-9.7160
-3570.3125,49.7564,63.0416,39.8354,77.8673,-27.9489,185.5651,22.8177,-22.6888,-41.2828,-188.9002,97.3045,-27.0580,28.7206,-81.0639,-22.2460,-183.0958,215.4351,3.4389,73.6591,-212.9785
-3562.5000,22.6867,62.6303,79.9895,122.6125,-23.9699,226.0564,99.9897,-18.4910,-37.7489,-111.6226,-46.5887,12.5462,-41.9437,-3.8732,-129.6450,-143.0469,12.2958,11.4986,46.6852,-98.9958
-3554.6875,-89.7525,77.7943,-3.2243,152.0062,-71.3609,180.2015,-94.2146,-65.6392,-121.5731,-267.7023,89.1813,149.8100,58.0821,59.9683,-66.3816,-152.3447,216.8203,5.2148,-29.6479,-35.3525
-3546.8750,139.8310,101.7654,166.5781,65.3856,62.2624,19.3302,76.5891,-152.8034,-25.3828,-280.8134,148.9797,62.0524,80.1628,-63.2089,-7.0871,-239.6591,59.3493,-82.0829,23.0193,-122.7264
-3539.0625,-29.2981,91.8280,18.6702,143.0556,-84.8190,92.7620,-70.3107,-78.6602,-99.8930,-61.6128,-36.9319,207.5973,-68.4281,45.9150,-80.4919,-56.6666,-4.8377,29.9366,-74.0117,60.2143
-3531.2500,29.8118,96.3133,14.0015,132.9719,-90.6553,-58.5654,-75.9721,-194.2718,-32.1540,-103.1664,141.4350,165.3910,37.2781,-31.7255,60.3724,-98.4329,160.2484,-50.7966,-121.7886,-91.6077
-3523.4375,68.8355,70.7081,88.2439,101.7795,20.4216,-20.9959,72.2842,-119.9896,4.4982,-28.8370,-43.2903,55.0748,-36.0856,-31.4818,-49.8453,-98.3095,-47.7806,-47.6379,-11.6661,-17.5361
-3515.6250,-134.4134,25.7017,-89.7797,75.3369,-84.7734,20.3242,-69.7342,-5.9600,-64.0975,12.2291,-39.2575,132.5185,-32.6654,9.5159,-45.2989,-20.4270,100.9486,30.2825,-4.8007,60.3028
-3507.8125,108.8991,29.8947,96.7565,-67.5739,101.5895,-85.8223,79.8019,-112.3884,47.8651,-94.1621,73.3592,25.4942,44.3564,-59.9568,67.8254,-127.0061,-7.7670,-113.2574,27.6196,-83.3272
-3500.0000,-26.3012,6.4025,-16.2124,-60.9975,-11.5468,21.5305,3.8393,-40.3086,8.3331,12.9678,-113.5283,132.9644,-70.0928,84.0665,-44.5488,16.9234,-108.0051,32.7131,-2.4645,97.5558
-3492.1875,-18.5672,-17.7034,-1.2422,-123.4791,3.2620,0.8229,-55.1894,-100.2882,22.7506,-118.9679,83.5673,110.3855,55.4622,99.0302,79.0497,-41.2019,40.7260,-64.3622,-28.6053,-34.6113
-3484.3750,124.7844,-18.8269,112.3447,-154.3803,79.6897,41.7007,132.3969,-96.6770,62.7797,-78.3073,-23.7230,-33.6073,-15.3401,65.5734,9.2711,-37.7395,-131.9572,-95.8523,44.8581,-31.1860
-3476.5625,-98.7317,-19.6128,-51.9397,-61.1306,-83.7519,134.7299,-67.8900,33.0830,-65.0444,-22.4995,-41.8601,95.5641,-69.9609,122.2739,-81.3494,54.8807,30.5122,-3.1756,31.4628,61.4099
-3468.7500,110.5152,16.2259,138.5307,-62.1401,68.5636,30.4900,84.5759,-70.4322,-23.1070,-162.9767,73.7903,-46.5197,47.2220,17.7080,33.8143,-48.7653,64.7500,-145.7608,-5.1899,-116.2591
-3460.9375,-41.6429,-14.7840,45.6016,-2.5581,49.4819,48.8498,28.6445,-16.3463,-42.5661,2.1534,-128.9609,7.9911,-45.9690,109.7372,-58.4233,79.1913,-52.4298,-15.7424,-16.2382,48.6838
-3453.1250,-103.3224,-31.8741,-15.8435,7.5210,24.8865,-49.2961,-32.8130,-149.7604,5.4732,-59.2219,65.8083,20.0116,113.3837,84.2645,63.8597,-19.3504,131.9079,-42.2183,-42.7986,-12.8699
-3445.3125,87.3144,-33.2732,111.0277,-83.1130,151.6098,-142.1579,168.0435,-169.8889,94.8319,31.6833,7.8997,-111.6837,130.0777,-45.9276,116.4688,-113.6045,-64.4616,-62.4102,7.9409,-33.1342
-3437.5000,-87.2775,-16.3160,-77.3174,24.0467,-0.8807,-110.2144,-20.3147,-65.2101,-20.0111,136.4024,-34.2156,29.4309,50.5953,-14.3177,36.8746,-8.0454,41.9646,9.2148,-25.5163,108.4243
-3429.6875,140.4231,45.0846,56.6338,41.4921,96.9314,-268.9839,3.6248,-151.2345,40.4532,-96.5866,135.9981,-56.1581,185.4605,-100.4196,172.6050,-94.1991,129.7083,-183.8699,-44.6706,-50.7318
-3421.8750,103.9210,41.6863,49.3894,111.7276,52.5544,-201.9588,-39.6221,-121.4621,-4.2709,6.2165,-18.9935,-63.9504,31.1536,2.2711,54.1449,45.4464,22.2336,-115.1521,-45.0207,88.9172
-3414.0625,-52.9053,29.0530,-38.1730,202.6618,-35.1381,-142.2383,-201.1896,-61.9998,-91.2941,29.7129,76.7296,-5.0289,90.5908,25.6632,77.3985,68.7920,182.4781,-60.7274,-131.6806,38.2764
-3406.2500,139.5317,24.6594,130.5254,113.8340,133.4331,-158.2863,3.5013,-78.2998,-35.0568,-22.5497,96.7270,-131.8686,75.3197,-26.7144,97.9294,16.3701,-12.0331,-115.0638,-185.0886,-51.1296
-3398.4375,-22.3030,23.5312,-46.0378,163.7498,-43.2548,-40.5790,-173.0681,-70.8460,-102.0700,56.9532,-6.5278,58.0509,7.8211,126.6584,-4.7934,132.7086,-32.8092,-29.6332,-206.7535,139.2351
-3390.6250,86.2560,37.2284,38.7932,97.0565,41.4545,-103.4838,-125.2498,-133.0016,-54.6777,-78.1613,150.6524,32.3708,130.7739,101.4188,115.9094,-2.5634,40.8337,-165.8070,-167.0246,-33.0082
-3382.8125,71.2706,17.4011,55.0885,47.7935,57.6269,-48.9465,-34.9701,-78.7205,-73.8214,49.1769,-53.7131,49.1378,0.2048,118.6171,59.0686,87.6044,-185.0903,-41.5384,-112.8361,57.2026
-3375.0000,-114.4412,-14.4341,-65.3361,73.8308,-62.9137,-23.1165,-156.4170,-17.1402,-85.6697,37.8111,7.2344,111.2267,62.9680,107.1203,84.5346,113.0706,-19.7007,19.0387,-157.3513,82.7304
-3367.1875,118.5679,-16.4616,109.9471,-8.4401,75.2564,-104.6089,19.8488,-61.8795,16.1935,-42.8855,72.9150,-80.9886,92.4715,-10.6864,187.7272,32.2241,-137.6091,-63.6988,-135.1748,-35.0553
-3359.3750,-74.0801,-61.7689,-63.4273,10.6396,-61.2282,-19.7547,-80.5462,22.7228,-10.5935,40.7642,-64.0564,2.1617,28.3414,108.8667,86.2689,188.7384,-190.1790,94.9226,-116.6590,158.5307
-3351.5625,-80.8861,-76.1041,-26.9549,-31.4341,-24.8630,-93.0688,-44.1091,-51.8405,25.4659,4.2452,82.8598,-34.8291,140.1086,36.2574,234.6794,79.0907,-20.8741,19.3910,-88.2933,11.9620
-3343.7500,16.9655,-48.5319,36.1881,-37.8757,75.1760,-102.7472,55.9954,-24.7574,51.1878,141.3776,-38.5670,-46.1795,56.5576,-11.7178,150.7432,68.0776,-167.9383,-57.4968,-95.2734,75.0391
-3335.9375,-107.7131,-19.3057,-98.1846,48.1789,-59.2977,-90.9222,-151.4272,-49.1717,-9.5950,116.0138,10.5154,112.9902,68.5403,37.8094,125.3083,79.5670,-12.4964,-77.8732,-114.7611,160.6337
-3328.1250,101.9691,2.1466,54.8062,-22.4310,56.5875,-231.7652,-36.4976,-153.2470,68.9811,48.9747,124.9823,8.5093,148.9121,-67.3246,242.2536,-61.6087,-48.7016,-218.9135,-45.9060,19.5632
-3320.3125,-13.3073,10.2560,-74.1536,38.9970,-72.4789,-177.5554,-128.5186,-99.2702,12.6057,138.9889,-4.5077,135.0872,19.3424,24.6014,112.2452,67.2792,-128.8775,-87.9007,-54.9980,220.5598
-3312.5000,29.0478,21.4774,-61.4773,47.0642,-133.9062,-237.7024,-188.9113,-196.6469,24.8771,78.6548,191.6824,111.3303,106.4599,0.1783,198.9003,5.8136,54.6143,-150.2370,-117.4505,123.2066
-3304.6875,139.9198,1.8870,89.7143,-52.3852,-17.8112,-232.3658,-36.7924,-118.5367,65.6668,120.8172,85.3894,5.0679,1.1124,5.2431,130.0709,10.8390,-150.4117,-145.0934,-77.4082,128.3479
-3296.8750,-43.4822,-28.1408,-68.3609,-59.0862,-140.9799,-134.2776,-196.9485,-20.6752,-19.7919,-1.2793,73.8463,102.5802,-9.4675,103.0679,117.9937,108.6235,-52.6831,-12.1901,-84.6210,226.2637
-3289.0625,157.6340,-24.2381,77.0693,-138.2990,4.3560,-171.7081,-50.6111,-131.3331,52.2500,-185.9050,218.8409,-45.4028,99.4916,-8.6094,227.4328,33.8969,-62.4378,-126.8058,-59.3414,41.6681
-3281.2500,-23.4369,-76.7667,29.2978,-107.7180,-6.5067,-73.3452,-62.4761,-33.1980,41.0889,95.2795,-13.3650,-19.5762,-21.7374,89.5197,32.6652,168.9715,-173.4111,-61.6244,-29.2680,176.8851
-3273.4375,-138.0236,-102.5041,-49.9858,-81.6387,-85.8824,-115.4916,-141.8692,-2.5727,33.4222,126.9602,126.9529,-27.2308,119.5653,10.1492,136.4032,89.5447,28.1387,-70.9413,-3.7035,97.6084
-3265.6250,-15.0456,-95.2075,116.3008,-133.0255,43.3114,-132.1079,61.2993,-19.4101,127.3164,110.1766,109.8422,-116.3459,67.4544,-78.6851,156.7052,-37.3479,-128.7678,-87.7173,49.4173,80.8735
-3257.8125,-274.2540,-105.0800,-50.5813,-39.5662,-86.6568,-41.8711,-105.6942,33.6092,33.0595,199.2518,52.5751,46.4092,11.2094,10.3400,62.8553,15.6206,-35.8293,75.3708,37.3920,244.0113
-3250.0000,-115.8705,-74.8223,49.1332,-22.5232,-24.0252,-125.0505,-42.0918,-49.7763,59.4092,116.9207,188.9365,-38.2304,148.5952,-73.0366,162.6302,-67.8188,15.7250,-47.9544,-16.0345,50.7371
-3242.1875,-126.0844,-50.7481,33.2508,72.9064,-39.9836,-68.8320,-59.0795,-66.7681,43.1681,172.9896,25.6978,18.5379,21.3942,20.9876,36.8048,62.1479,-134.3427,12.1138,-96.0663,180.8725
-3234.3750,-229.1728,-45.3117,-109.4995,111.4788,-181.8030,-100.4672,-200.9398,-61.6138,11.0808,141.1954,139.6264,96.4745,64.3693,25.1653,114.1351,66.2694,78.7535,50.3427,-92.9548,149.1739
-3226.5625,-57.2493,-17.7321,1.7634,109.0245,-34.6058,-172.1290,-16.7874,-96.4708,85.0129,179.3924,104.5766,-12.5935,66.3782,-83.6726,116.4865,-5.6194,-30.1560,11.5554,-95.8321,40.4645
-3218.7500,-225.1526,37.3497,-144.7907,292.7602,-181.2187,-135.5978,-126.4413,-97.1231,11.1495,105.8045,-6.2824,170.5619,30.5934,-47.2942,43.0319,68.7013,48.1236,90.9759,-159.5072,223.9798
-3210.9375,-65.9615,68.4422,-45.2539,276.5850,-80.7295,-292.9847,-100.0086,-217.6895,73.3874,-87.6949,239.9886,86.8339,204.9419,-130.8182,142.6947,-88.8831,171.5208,-102.5152,-106.0847,66.5893
-3203.1250,-59.7635,4.9660,68.2974,143.3960,-3.2302,-252.3817,-22.5697,-140.2579,76.6345,98.8104,59.2664,16.1073,62.3076,-53.3479,36.3557,-11.4685,-67.1043,-25.0211,-63.6560,144.2048
-3195.3125,-255.0476,-69.8750,-24.6241,88.7559,-98.1965,-162.2258,-190.6161,-88.2732,20.4303,114.8757,149.1061,68.9529,79.2411,35.6798,52.5693,76.5043,19.8295,27.0322,-47.6843,160.3894
-3187.5000,-45.9684,-76.2984,163.8229,-87.5522,91.2051,-156.7412,34.6973,-82.9596,98.5930,47.2729,117.3259,-72.8533,48.5561,4.0483,58.1536,8.8110,-87.8875,-80.5839,91.6317,18.9109
-3179.6875,-258.2483,-104.3993,9.9166,-88.2222,10.2567,55.3886,-83.3394,128.9955,-19.5915,149.3226,-73.8119,66.0096,-67.4740,143.0786,-96.6216,110.7760,-123.9676,24.4555,124.5946,158.1055
-3171.8750,-193.3363,-70.2709,49.2055,-93.6991,12.5068,58.7045,-117.1936,95.1407,-54.5789,5.5541,75.2798,69.0899,45.7218,109.3116,16.8112,40.9364,81.1776,-52.3098,84.7483,-22.5017
-3164.0625,-136.0099,-54.2742,106.9126,-71.7908,34.1705,153.4061,14.3618,116.6754,-33.1540,64.1822,-87.2190,53.5680,-78.6656,130.9393,-72.3489,62.4957,-108.2969,-30.6839,106.3033,-0.7111
-3156.2500,-323.4722,-71.5986,-89.1491,-46.6372,-88.9276,213.3530,-71.8566,176.4633,-82.4768,87.0746,-99.4643,150.3231,-91.7928,117.8331,-84.2659,85.3176,21.4838,100.2007,96.1050,59.3483
-3148.4375,-101.5175,-48.5007,2.1993,-105.1030,113.3877,122.6813,167.3342,122.6368,8.6084,-4.6556,-8.2815,-14.5163,-34.4972,-46.8784,7.2348,-79.4772,-2.3264,-29.5396,142.3036,-105.2066
-3140.6250,-185.0988,-33.2539,-93.0055,-47.1235,16.1489,173.4627,69.9667,136.2518,-13.8581,46.0629,-177.6533,73.1136,-128.7584,39.8727,-124.8301,7.1827,-15.7000,98.1673,93.9451,92.7072
-3132.8125,-156.1378,6.1871,-131.6779,51.4018,-21.5546,61.7830,-41.8773,24.4133,-15.7754,8.3236,4.5482,71.3143,-19.4494,-34.8239,20.6595,-67.6052,224.5008,21.4215,17.1299,-18.8247
-3125.0000,-30.7652,50.6132,-35.9326,107.3119,38.1589,47.4851,127.6955,9.9644,6.7189,103.9811,-120.8342,19.9171,-106.7238,-86.1252,-67.4460,-82.0018,69.0853,7.0583,37.7194,-32.9634
-3117.1875,-194.0215,85.4035,-174.8050,225.6185,-100.7348,91.5796,-47.3508,16.9119,-95.3880,1.0463,-74.8169,174.9481,-133.5911,-5.0087,-132.1558,-36.9926,258.0724,125.1039,-54.2934,85.3212
-3109.3750,96.1296,130.7593,25.7281,165.3130,25.7762,-37.9447,41.9997,-112.7595,-5.0841,-165.5076,125.6348,45.3925,-6.0325,-171.4971,-4.4427,-130.5966,267.4684,-76.4690,-10.9097,-81.0057
-3101.5625,35.6805,75.6164,-42.3387,106.3988,-6.3098,39.9223,9.7534,-34.0319,-1.3788,23.3527,-53.5193,50.2487,-146.0734,-55.5803,-109.3354,21.2041,67.2392,4.3614,34.8777,71.0815
-3093.7500,-52.0447,22.5437,-56.6703,19.2296,-19.6539,26.5310,-40.7666,-48.5509,-51.9297,-27.0375,79.0980,72.8826,-12.3487,4.0922,-13.4804,7.7561,155.7760,22.9489,18.4038,-16.0747
-3085.9375,22.1980,-62.4439,171.9716,-188.0064,207.9784,33.0736,187.6783,-4.1400,28.4862,-19.5059,12.6865,-103.5330,-41.6514,-25.2874,-5.6624,-21.7564,-86.7483,-8.5335,127.8715,-82.2902
-3078.1250,-292.5306,-144.1395,56.6561,-220.2005,130.6521,139.6654,72.1569,138.3160,-13.0468,86.0784,-137.6815,2.1248,-44.9020,80.4000,-82.8054,83.7975,-50.2287,134.0415,129.3856,60.5695
-3070.3125,-170.9572,-156.6444,193.6397,-273.1129,230.6278,55.5360,171.9260,91.0624,87.7239,-71.0396,35.2815,-154.9066,93.1674,-3.6156,53.3665,-37.3564,37.6046,-25.0974,181.2085,-133.2815
-3062.5000,-212.4237,-154.4173,180.5837,-245.0897,290.5664,79.3464,232.6542,150.7560,37.4554,25.8012,-160.8103,-131.9821,-28.8143,57.3186,-70.5250,60.4389,-110.6357,38.7072,244.9905,0.8252
-3054.6875,-304.1114,-139.1495,49.3123,-196.2717,196.2962,20.9521,100.1582,166.2487,15.9798,41.4448,-36.0861,-42.2304,24.0117,36.0623,-54.6287,39.0351,78.9434,52.3145,223.5724,-20.2550
-3046.8750,-18.1340,-82.3160,169.7072,-225.8169,280.6988,-41.8120,295.3235,66.3792,173.1668,-95.2699,-25.6878,-141.8325,36.4989,-63.5536,29.9287,-60.7330,-20.8312,-47.4487,158.8072,-119.6990
-3039.0625,-147.1117,-80.4482,-10.8592,-143.3165,100.1426,-2.5265,114.5304,69.5590,103.4044,-18.9355,-131.2469,-28.3576,-32.9770,49.8978,-3.4766,15.5575,-9.5657,104.8412,100.0852,67.9315
-3031.2500,-55.5354,-71.5095,19.1161,-157.2763,130.1345,-82.7040,144.2742,25.2716,170.1956,-99.0684,44.7740,-108.3106,109.1132,-67.0959,100.6734,-101.6096,118.2715,-14.3365,86.9117,-85.8916
-3023.4375,-19.9403,-75.6602,53.1054,-155.2541,126.1352,-49.8953,214.0273,95.9816,202.9969,7.8036,-141.1991,-148.2619,-3.7973,-71.0895,-13.1801,-31.7816,-91.9110,22.4746,157.7398,21.2884
-3015.6250,-112.7695,-46.0678,-119.3217,-71.6342,-10.2783,-74.4883,40.3553,69.2934,176.3894,-18.7188,-21.5623,-27.5878,44.8947,-95.4670,34.5590,-57.3385,96.5137,69.8942,100.1521,69.0872
-3007.8125,119.2758,10.6004,91.1173,-87.1807,128.1689,-194.2465,215.5330,-50.5645,240.6402,-138.4072,79.9556,-110.0561,110.4523,-214.9960,99.1578,-213.0556,46.7888,-49.8643,85.4099,-50.2745
