Time,Fp1,Fp2,F3,F4,C3,C4,P3,P4,O1,O2,F7,F8,T7,T8,P7,P8,Fz,Cz,Pz,ref
-4000.0000,25.2064,-9.5165,1.2519,-4.6399,-36.8798,-68.6690,52.9420,39.6410,235.5182,59.0677,-56.1774,-34.4638,-64.9496,-39.1510,-37.6332,26.6991,-81.4491,-72.0967,77.7436,-73.6290
-3992.1875,-162.4697,-21.8897,-92.9006,-16.7744,-130.6662,-54.0071,-187.4659,56.0507,182.2405,1.9676,-40.2074,18.7047,-12.1267,50.0272,51.7313,43.0694,43.9103,19.4806,100.9965,11.1040
-3984.3750,120.0141,47.8867,-82.9090,-51.7755,-85.3040,-45.2038,-102.7255,30.5950,124.1348,-22.9924,78.9364,-8.9874,33.8661,23.3518,98.2714,17.5824,-27.5786,-155.7968,68.4046,-172.1529
-3976.5625,-2.6981,-109.5428,-0.0994,37.0269,-77.1268,73.3955,-203.1787,186.9398,137.8537,169.8727,-96.1342,-0.8817,-105.3514,67.4692,-40.4087,173.9038,-186.3045,-210.2918,16.6124,-217.2744
-3968.7500,-27.5208,-99.0816,-169.4100,-93.2782,-173.0608,85.8916,-261.7523,128.1696,47.4804,-34.3754,100.7050,12.1266,17.3412,155.4960,157.8303,79.1225,67.8929,-60.8700,-6.2766,-78.8901
-3960.9375,117.6312,-97.6741,-16.7683,14.3643,-21.0331,201.3422,-108.3583,98.3415,95.0782,46.3240,-4.5039,-18.9246,-14.0140,87.4703,-20.9813,48.2838,-140.9748,-234.5199,-37.2108,-240.5070
-3953.1250,-96.4940,-65.5351,-64.3800,82.7620,-105.2570,225.5458,-265.2256,50.2649,14.4437,-37.2157,-52.9779,79.7786,-25.6224,148.1942,-32.0529,37.2090,29.9006,-28.4114,-73.3903,-32.0085
-3945.3125,107.9284,103.1531,-60.4515,39.6877,8.0731,155.2848,-76.5494,-128.2744,-49.6312,-216.2166,97.1269,83.0185,50.3410,115.4654,81.4558,-104.3237,126.3447,-107.7445,-150.0197,-116.6492
-3937.5000,14.5502,80.0316,127.7032,192.8077,47.6242,121.2181,-35.6632,-85.6139,-40.4856,-26.9889,-82.5765,123.4420,-92.4993,44.9197,-134.8504,-26.6479,-38.0415,-130.8851,-171.4512,-125.0169
-3929.6875,-9.5430,160.2044,-43.8505,62.2148,-86.5384,22.4422,-168.4978,-146.6654,-96.0367,-159.4676,75.0277,98.1651,27.9686,56.6727,60.1634,-86.6753,216.8982,53.2973,-124.5808,44.3335
-3921.8750,195.1042,188.0863,100.2965,55.3155,20.0025,18.3664,-23.6136,-76.0395,-19.8733,-51.2633,35.3451,-15.4265,-11.8611,-56.8782,-16.1164,-52.0126,-38.4651,-60.8340,-166.0092,-66.0764
-3914.0625,-74.3156,92.8997,29.3980,31.3765,-88.5107,56.2490,-167.7875,36.5329,-13.7509,23.9046,-37.4012,22.9370,-47.7499,18.5252,-14.4594,23.6096,-27.8866,90.9844,-152.4848,85.9861
-3906.2500,76.2070,102.6541,-98.5688,-100.6262,-70.0815,1.0789,-111.0195,20.0400,-24.6828,-63.9948,128.8281,-31.7480,81.3300,37.8912,115.1737,-28.8243,49.6665,27.7664,-72.0130,12.0546
-3898.4375,8.7860,-1.5550,46.5373,42.4246,37.4160,33.9706,-39.1879,92.5919,14.4432,118.1678,-56.8990,1.6177,-31.5420,-38.7007,-107.1572,42.7961,-159.7547,-40.4219,-32.4990,-38.3583
-3890.6250,-42.5626,53.3258,-80.2659,-43.4289,-52.9963,-94.0342,-202.2786,1.2376,-35.3375,-45.5744,33.4782,20.0907,59.6913,15.8217,57.6202,-11.4805,102.9448,152.5068,23.1105,142.9933
-3882.8125,199.2589,152.3534,31.0809,-120.1488,57.7489,-166.8837,20.7943,4.0201,9.0325,31.8257,72.0230,-88.2926,61.0892,-129.5051,59.5611,-8.6146,-115.2034,4.5726,18.8641,-6.6759
-3875.0000,-44.7358,82.5566,57.6346,-82.6659,11.7008,-214.5244,-171.9395,105.0121,40.6042,206.4521,-11.2502,-61.4751,14.6780,-102.6319,-23.3124,129.4701,-185.1665,74.8344,20.8204,62.7156
-3867.1875,13.9582,107.4517,-55.1335,-234.5053,7.3428,-255.4692,-210.9854,65.6924,42.8627,57.7645,168.1961,-65.9580,156.9875,-33.0521,230.5411,53.2528,-126.3980,27.8123,82.4876,-0.7881
-3859.3750,-17.7836,-67.1083,54.6650,-196.7996,152.5517,-109.8680,-137.4667,212.9147,120.6752,315.6355,19.1965,-66.8954,44.8483,-106.9314,44.9442,200.5870,-443.1038,-181.6735,121.7038,-197.8157
-3851.5625,-213.5147,-157.6319,-82.4882,-218.0539,15.8054,-65.2197,-347.9214,186.1794,61.5328,178.5658,101.2518,-20.7824,126.7694,12.2389,164.4055,173.9771,-218.7474,6.9134,136.9713,-14.7317
-3843.7500,89.8612,-66.0556,-49.5507,-126.2354,121.1701,3.5223,-130.2684,35.5176,63.4845,29.5827,97.4404,-62.5796,159.8172,-29.4943,123.9994,60.4544,-198.2838,-78.3968,20.3417,-95.1199
-3835.9375,-57.3296,-74.0457,-29.1521,77.0339,66.0044,94.7208,-146.1646,18.2990,50.8828,13.0673,-103.9334,30.0712,31.3118,26.2195,-39.9703,43.3924,-136.3864,53.7449,-56.8367,52.4298
-3828.1250,-23.0465,-4.5497,-168.2706,41.7834,2.3347,140.4214,-62.5727,-155.4351,-44.2367,-233.9699,51.2105,38.2234,113.3259,108.4456,115.5807,-93.1751,178.0496,158.4137,-90.5080,153.6033
-3820.3125,25.7550,-97.5603,30.1257,160.0162,163.1853,190.6212,172.5391,-103.6765,11.1330,-71.5015,-119.1381,14.8625,15.8490,11.1614,-91.3738,-42.2477,-22.0158,-6.4236,-146.6800,8.7700
-3812.5000,-142.6666,-161.7816,-43.6693,96.0388,14.8425,152.6180,-10.5625,-103.1275,-56.7164,-107.2262,-45.6893,51.3016,15.1829,84.6723,-18.5286,-41.5160,193.7320,209.5627,-139.0574,219.9599
-3804.6875,112.3253,-12.5990,-23.0654,34.4352,71.9080,98.0061,120.7394,-193.2061,-69.1892,-232.5696,84.1898,-2.8650,107.9413,30.5882,75.7492,-131.4022,165.9044,111.9578,-164.0410,114.2573
-3796.8750,2.2630,-53.4841,73.5018,99.7853,93.9391,82.3616,69.9980,-60.3324,-77.7225,-61.9479,-113.9903,18.9155,-17.3536,-21.5498,-122.0380,-34.3261,55.0151,106.2939,-61.0880,122.6385
-3789.0625,28.6247,7.0682,-78.4974,-15.4214,-21.5942,39.1824,29.6868,-138.0210,-114.8328,-212.8994,26.2948,13.1562,50.8187,46.7830,18.6420,-148.8024,325.6138,166.1094,71.3018,174.1172
-3781.2500,196.3084,-1.0739,63.8112,10.6646,83.1904,70.3162,209.6957,-32.4248,-4.6709,-69.5576,-89.1072,-66.2991,-65.7018,-69.5814,-96.3752,-116.9917,69.5140,-19.7862,99.9739,-1.0701
-3773.4375,-120.5773,-37.7717,-57.4212,-24.7966,-38.5753,-15.0857,16.1407,31.6188,-10.0916,-78.7565,-99.0688,-40.2954,-39.7718,-43.4879,-33.9543,-15.7239,172.8688,189.7750,206.0921,204.9374
-3765.6250,32.5950,44.5800,-107.6107,-153.2374,21.7082,-139.4351,113.6290,-18.3024,-18.4974,-127.9315,106.0525,-91.2366,93.2355,-94.3328,136.5468,-65.4154,113.3025,130.3947,219.2497,130.6575
-3757.8125,-105.6295,-23.4805,-2.1860,-46.0871,125.6120,-182.1643,34.7278,123.3749,17.6730,125.5071,-10.2302,-97.5747,50.8411,-136.5758,-16.3627,76.5013,-166.6839,26.6035,222.9991,31.7921
-3750.0000,-149.0323,2.2987,-157.9308,-160.1017,79.3571,-229.0371,-120.3466,40.8905,-60.3423,-29.2122,127.3461,-70.0539,188.3082,-35.9536,195.5955,31.2697,34.2137,86.6942,251.6030,76.0741
-3742.1875,11.0351,-14.4706,-23.2277,-142.6848,214.5605,-169.4550,16.0464,66.8344,6.0645,69.5079,78.3914,-82.0877,138.2426,-48.8835,110.0118,20.4837,-195.4298,-177.7658,270.6612,-183.7733
-3734.3750,-221.7153,-108.0502,-57.3183,-59.0732,104.9693,-57.6674,-165.3735,104.9806,-24.3617,109.4492,5.6292,28.0865,65.3720,-10.6109,36.6174,95.9094,-112.8763,-95.0125,249.9189,-96.4459
-3726.5625,26.1844,34.0206,-120.7711,-93.8439,79.0228,-11.2268,-154.1517,-31.2393,-82.1833,-62.9763,199.5455,1.9083,150.1785,36.3195,158.8981,-76.0253,27.3685,-59.5811,76.8217,-74.0026
-3718.7500,67.7395,39.7363,101.4504,89.0228,116.7534,135.8761,-41.2636,8.1876,-112.3895,-22.7442,17.1107,40.3791,3.6402,0.8973,-61.1800,-74.3119,-106.7492,-54.4995,-161.6370,-49.7776
-3710.9375,-52.4941,94.6942,11.9184,74.1270,-10.2623,155.2372,-130.1524,-154.1431,-270.3901,-295.2670,146.9361,97.1065,97.3727,130.7338,107.0061,-162.3508,263.4124,211.8628,-349.8531,210.2124
-3703.1250,132.5833,137.9610,139.6905,151.5124,117.0406,171.8983,108.2621,-211.1936,-249.1376,-314.4991,164.0905,40.1324,113.4370,37.8707,87.5134,-219.0968,199.8829,77.5282,-516.7869,82.6666
-3695.3125,-105.8095,39.7633,175.0284,265.4386,78.9207,169.1178,34.2145,-174.6941,-282.3758,-203.1635,14.7932,111.7110,38.0605,35.5587,-61.4387,-145.2764,205.8925,225.7488,-472.1826,243.2795
-3687.5000,-54.9612,53.8090,54.6026,173.5792,68.0562,157.5854,60.4020,-296.9629,-289.4128,-396.5975,187.7770,99.5440,173.9641,61.5106,110.8935,-267.2114,361.1897,274.2400,-351.3333,284.4860
-3679.6875,-8.0468,-41.0989,174.2431,219.7510,187.2658,203.1157,218.6547,-213.1890,-164.4357,-202.9793,-24.1822,72.4229,-1.0720,-3.4898,-99.7257,-183.0992,89.5292,143.7749,-233.4439,169.7524
-3671.8750,-238.0558,-59.9127,-35.0238,130.0087,14.5680,139.7625,45.9869,-164.3232,-149.4046,-226.2713,23.9610,46.4168,46.9974,44.6227,58.7607,-170.8864,279.9994,370.4419,-145.4639,387.3095
-3664.0625,23.5952,24.9294,-9.6496,39.8944,75.5229,54.0747,218.9823,-175.8284,-82.7761,-200.9408,84.7827,-76.9331,70.7408,-78.6031,82.9209,-182.0443,189.1510,278.7729,-128.8472,291.0262
-3656.2500,-186.9188,-46.3826,52.5880,144.6311,64.3411,78.2592,134.8318,-77.4866,-90.3454,-27.7465,-73.5574,-52.4200,-14.6704,-89.9682,-75.0855,-46.3391,47.1442,312.9501,-92.3896,334.7882
-3648.4375,-182.3565,-6.6032,-157.0968,43.4417,-34.7512,14.5621,36.7578,-176.0519,-147.8765,-162.4663,158.2252,-40.7901,144.0405,30.7927,157.0299,-107.5331,226.2762,317.2487,-15.8315,318.3759
-3640.6250,-80.8706,-116.9294,-14.8773,144.1320,107.0805,82.7833,142.5984,-69.7245,-111.5595,54.7148,41.9147,-10.2550,27.6657,-11.5436,4.0431,-1.8226,-95.6945,29.4378,-19.3815,39.2158
-3632.8125,-292.9585,-118.8138,-97.2086,106.2636,-50.6383,71.4680,-160.1286,-79.9517,-153.8472,82.3452,68.0519,89.7460,53.7421,125.5835,67.5029,99.3449,5.8052,167.1052,-55.4855,160.8597
-3625.0000,-32.7888,34.5678,-73.3026,49.6193,47.8961,22.4045,-61.6001,-164.9530,-161.9414,35.2013,203.4716,40.9976,152.0967,76.9661,166.2397,51.7457,-86.4081,5.0417,-145.3459,-14.4996
-3617.1875,-113.2160,23.3465,15.0233,108.3666,98.8469,72.7523,-118.6686,-76.5535,-106.6841,197.4773,-3.7133,17.6515,18.8501,53.7403,-39.6374,176.5509,-238.2332,-42.6106,-118.8138,-52.3318
-3609.3750,-58.7662,113.0338,-107.7665,-13.0138,11.6862,22.0070,-241.8618,-162.2577,-152.5968,1.6451,130.0196,4.2148,152.5211,77.4327,167.4015,54.2556,26.8852,47.6849,-98.3974,25.0422
-3601.5625,217.6562,142.6849,73.4079,51.5328,82.4939,55.2215,-23.0885,-166.0200,-114.6243,36.7654,53.7114,-72.2747,3.1545,-35.9270,18.3937,14.9090,-86.0350,-100.0609,-102.0496,-107.9063
-3593.7500,14.2519,43.5267,146.7934,164.2660,-64.4870,90.6503,-133.1250,-201.5823,-184.5215,-35.9035,-19.3990,0.4452,-33.9990,35.9234,-92.4261,-21.2311,167.2627,153.4196,-163.5147,159.1740
-3585.9375,229.1490,116.6694,199.4707,131.2654,-86.1488,106.3900,67.1362,-369.8675,-276.1897,-313.3124,141.8231,-21.5291,54.1879,52.0921,-3.9193,-189.0915,380.9105,120.2212,-194.6909,128.7826
-3578.1250,221.9024,109.6643,370.0287,299.1040,-26.9178,201.9946,164.2608,-346.3139,-248.0647,-214.8729,-56.0991,38.3488,-107.7577,38.1019,-200.5709,-129.1071,196.4036,6.8651,-306.0387,29.7798
-3570.3125,164.3333,191.3700,200.2787,275.6214,-159.9748,141.3062,31.0598,-443.0756,-341.3096,-310.7509,67.6957,124.9407,-19.9743,124.8219,-40.5040,-187.4323,418.6302,124.2429,-327.7041,131.6584
-3562.5000,383.7840,234.0961,251.5355,283.1112,0.9876,81.6243,193.8636,-391.8531,-250.6223,-185.6396,45.5188,65.5344,-43.1661,-8.4520,-136.4152,-172.7676,179.8656,-80.3735,-284.3936,-71.4703
-3554.6875,124.2698,149.8730,187.8489,268.6440,-60.9966,54.0105,-16.2978,-270.5812,-198.9504,-63.4698,-90.6115,75.1954,-105.3068,1.3376,-162.2863,-51.0403,165.1546,46.0789,-155.0520,56.4047
-3546.8750,242.2565,161.1634,25.6484,33.6487,-77.4903,-35.0904,80.0283,-285.8222,-174.8540,-114.8319,76.7888,-14.6348,25.0757,-14.3524,42.3667,-139.8248,246.9927,22.0589,-2.2209,19.5195
-3539.0625,184.5127,67.7100,141.7142,44.8932,1.2868,-30.9209,122.6219,-132.8191,-55.5732,149.0621,-64.5660,-46.2066,-115.2888,-117.7918,-134.7461,13.6398,-23.9186,-71.7136,11.8489,-65.9258
-3531.2500,-33.6030,58.9089,-53.5788,-33.2270,-121.2867,-80.0866,-109.1495,-109.1774,-100.7189,63.5983,68.7335,14.8857,18.0092,-20.5672,71.7923,1.7514,107.8609,131.1976,-29.4324,119.7388
-3523.4375,68.5985,21.4199,-11.5769,-72.0748,-42.5453,-38.9414,43.3909,-67.2510,-55.6380,107.4150,111.3564,-53.7191,23.6314,-53.0323,77.6474,44.1481,-35.0352,-12.5777,-31.4169,-22.9603
-3515.6250,-210.7592,-117.6221,-21.1097,-0.4824,-52.3419,-12.3264,-75.6211,106.1269,-25.1808,245.6902,-45.5732,-26.8581,-60.2984,-26.0436,-42.0610,145.0042,-69.4761,23.1098,42.0373,24.7997
-3507.8125,-115.6742,-129.1963,-133.2092,-152.4665,-91.7010,-89.2464,-78.2023,30.9437,-25.3568,96.3878,171.9781,-67.5360,120.2494,7.4133,175.7082,33.2991,94.5768,12.2843,101.9281,-0.3304
-3500.0000,-67.4640,-186.6532,23.8046,-70.3635,66.0573,-78.0482,44.3273,115.8565,99.4975,293.1875,-1.3676,-92.1035,-16.0994,-91.0239,2.5693,81.6896,-174.2759,-151.4426,115.9076,-150.8393
-3492.1875,-230.2271,-210.0539,-78.1362,-93.2274,-109.1426,-107.7801,-130.1154,122.8212,109.3253,154.0333,44.3333,-11.6049,-7.3972,26.6080,84.4737,53.1389,82.9564,36.9119,58.9365,31.3155
-3484.3750,129.2823,7.8143,12.1679,-87.8721,-20.0860,-93.2502,69.7075,-43.9820,92.3213,-48.8991,133.3071,-32.8443,8.5783,-31.4949,100.6397,-114.1768,54.4820,-98.4733,-37.7953,-105.9902
-3476.5625,5.3431,-45.7581,129.0510,34.0294,-49.4544,-49.1514,42.0838,-36.2383,66.7839,-3.2757,-43.1742,11.4816,-57.8931,-24.0453,-74.6687,-68.9430,71.5649,-46.2974,-90.0022,-39.9861
-3468.7500,-32.0048,-83.7163,23.5297,-38.4904,-81.2198,-45.4403,46.0415,-141.9118,-1.2521,-219.0803,144.9713,-22.5797,93.2668,16.0198,149.6459,-174.1243,314.3007,56.5200,-90.6337,58.0672
-3460.9375,-5.1799,-198.5082,163.1718,56.1163,94.1973,19.4355,186.1598,-77.4383,67.7801,-115.7338,26.2805,-30.4913,48.5987,-28.7667,31.1165,-108.1645,58.1812,-94.5103,-134.1276,-80.7688
-3453.1250,-241.4882,-188.3986,20.7135,99.6065,-12.4669,23.2314,7.1514,-73.0507,37.6356,-184.4847,-6.5147,82.5101,51.8502,48.3623,35.4827,-67.2930,242.9668,55.3834,-123.7306,66.7170
-3445.3125,-40.6409,-59.1202,-15.6111,88.2173,61.0376,-13.8063,191.2854,-183.5295,76.5596,-256.1103,66.8664,9.6746,89.2830,11.6608,72.0213,-177.2829,231.9316,-25.5547,-63.1947,-16.3345
-3437.5000,-163.1889,-147.2277,66.6803,140.4238,70.1701,30.7777,165.0248,-99.4077,162.0110,-26.1322,-144.1599,18.4537,-47.6828,-51.4354,-101.8630,-55.6714,72.4941,-8.8906,-10.0750,10.5548
-3429.6875,-242.6445,-156.2178,-121.9369,-46.2861,-9.6098,-49.5259,85.8409,-106.1980,121.4723,-141.0754,32.9278,12.3500,92.4668,51.5879,112.3627,-98.9677,239.2128,51.9114,122.1346,56.5184
-3421.8750,-50.8078,-211.9356,-65.2950,-66.7648,121.8656,-28.5645,216.9248,24.2557,181.1031,63.2162,-19.7180,-40.4955,2.8760,-38.1363,-14.1570,-4.0275,-61.8022,-179.0313,209.5774,-170.6305
-3414.0625,-310.9369,-331.5940,-163.5950,-116.2037,-13.6092,-17.5355,9.0482,145.7645,193.6980,111.5645,-118.3183,7.7277,-59.6645,10.2026,-39.6352,116.9713,29.2463,-17.8990,372.0544,-7.1156
-3406.2500,-178.5147,-269.6758,-272.3602,-231.1190,-12.5343,-53.9426,120.7110,73.8130,234.7489,4.4386,29.6578,-65.4877,51.3723,11.1084,145.4628,9.5093,54.8825,-61.1897,435.0714,-61.1930
-3398.4375,-236.7403,-328.3906,-157.7636,-114.6907,27.9176,-12.9819,87.7328,188.2172,313.0750,228.6771,-150.0247,-61.3417,-54.2407,-58.6381,-34.1095,123.4022,-179.1373,-120.1287,377.4328,-112.2121
-3390.6250,-256.0423,-278.1448,-290.2280,-135.3289,-103.6808,-72.0570,-79.3173,92.5699,183.2648,97.8455,48.2496,-9.2262,70.1157,-6.4135,90.2708,102.2385,45.8394,34.9220,287.7360,26.9319
-3382.8125,92.8887,-174.6764,-66.4864,-139.7905,9.9384,-141.9199,34.8515,96.1078,188.5738,176.1877,51.7481,-80.9083,0.6935,-113.9811,20.8596,106.2583,-131.9594,-178.8210,216.2235,-186.7809
-3375.0000,-90.7772,-184.7933,-12.3299,-149.8611,-83.0323,-163.3658,-94.5872,149.0474,170.2030,266.9353,-41.3597,-27.1758,-92.3263,-97.1442,-35.1698,196.6857,-107.3496,-47.1514,172.0909,-53.9179
-3367.1875,-2.2834,-96.7349,-93.0356,-202.8140,-90.8544,-170.6564,-28.8909,32.1274,127.8905,112.7996,133.7148,-35.2823,9.8335,4.8590,139.9790,43.2513,51.4548,-30.3017,51.0905,-47.9313
-3359.3750,-45.2663,-103.1527,42.7755,-1.2781,-28.1488,0.5678,71.3192,94.7077,155.0043,213.1671,-96.7112,27.1165,-110.4985,-6.6390,-90.3770,106.3110,-132.2502,-142.9573,-60.4295,-143.0406
-3351.5625,-223.5747,-107.8576,-145.7215,28.9428,-143.7409,105.5051,-79.7972,51.9907,76.7267,-11.7716,-28.4361,95.2382,-42.1167,135.5833,-22.0322,64.0704,144.7791,63.1219,-99.2585,60.9423
-3343.7500,7.9925,-51.6820,-39.3722,13.9904,-1.4717,138.3102,99.9416,48.1125,74.2127,-15.8811,2.7104,-19.7817,-10.8623,57.6651,-26.8275,23.6652,-10.3121,-55.9411,-148.2513,-54.5043
-3335.9375,-118.2910,-143.3370,37.1482,61.1906,-33.0364,178.2842,-42.1749,125.3895,-67.2285,62.1630,-103.0058,20.3621,-79.4579,60.8999,-133.5013,138.4117,-31.2506,62.1562,-133.1048,72.7583
-3328.1250,20.3281,-40.0655,-64.4409,23.2676,-62.6962,149.1622,-34.4078,-14.4504,-388.8578,-149.9277,125.2044,28.4199,74.8780,143.0497,57.7433,-36.9587,176.7576,131.1856,-64.0692,135.5873
-3320.3125,59.7310,-72.0231,85.7433,166.0801,124.4316,187.7993,153.1216,62.4520,-531.8156,37.7211,-55.8229,68.2278,-32.0185,71.9428,-123.2655,2.4129,-101.4851,-42.0392,9.6989,-17.0604
-3312.5000,-166.3322,-87.4192,-82.5187,79.4340,29.1160,165.9953,-52.8178,113.9046,-663.3094,-20.0865,-41.2998,119.6012,56.6483,160.3981,-34.7242,55.3342,58.8487,118.3167,136.0013,137.5314
-3304.6875,37.5800,-23.8382,-80.8317,-35.2843,178.7518,131.1527,61.1921,153.2949,-659.9399,20.0248,72.2036,48.9352,132.2891,88.8185,41.7896,58.1846,-89.8329,-65.3573,94.2312,-55.2062
-3296.8750,-123.7038,-80.4401,-4.3275,12.7985,181.1996,170.1362,-81.9957,266.4993,-656.8427,243.9425,-71.5063,51.0824,24.7213,92.0452,-101.9140,244.8401,-250.7242,-51.2257,38.2391,-38.3834
-3289.0625,-84.1477,-40.1630,-104.9941,-124.2887,44.4864,68.9846,-146.3537,165.5497,-719.9771,33.6867,157.6478,24.1016,145.0226,138.1443,164.2464,144.3360,-0.7230,58.7842,79.0866,57.1859
-3281.2500,113.4388,15.1428,101.3460,-70.3847,139.7938,53.8447,59.3072,187.5925,-660.1888,166.4190,32.8086,9.1355,20.3317,13.2471,-34.6019,129.8227,-226.7135,-97.2120,64.9233,-87.1540
-3273.4375,-112.0445,35.4071,4.6429,-85.5335,6.0521,29.6738,-147.0899,199.5897,-721.5311,142.0934,-28.0938,57.1419,-3.4095,98.3150,-21.5210,142.2655,-65.7218,134.7632,156.7013,143.8854
-3265.6250,93.5914,135.8003,-26.9614,-198.6089,47.4149,-2.3898,-31.3835,131.6760,-714.8574,37.8362,124.1331,26.2591,111.9717,67.4978,93.6776,74.7873,-36.5887,22.8502,116.5647,20.7990
-3257.8125,12.3483,55.3168,136.5570,-245.6015,137.8941,13.6619,-50.5730,257.8714,-662.1586,238.6828,-42.5453,42.4913,17.4523,-26.2156,-110.0408,201.4117,-187.3687,-22.9648,106.5155,-14.9100
-3250.0000,-41.3083,71.4553,8.6615,-477.0272,46.9687,-76.6769,-104.1912,203.6667,-715.9396,75.1081,86.3922,99.3446,147.5499,66.6884,92.8610,111.6289,109.4885,133.8574,88.0597,128.0033
-3242.1875,225.8647,92.4257,183.5713,-527.6799,220.8576,-50.2025,106.0044,230.2583,-614.9918,176.3238,3.1420,14.9996,27.4602,-16.6058,-27.4363,101.6355,-80.8411,-91.5144,73.3925,-89.2956
-3234.3750,3.8253,10.2157,125.2868,-540.5269,126.5495,2.0891,-24.0128,245.6622,-599.3218,118.3457,-54.3271,104.4721,7.1640,71.9097,-84.9559,117.4469,82.6447,71.9368,62.5125,77.2302
-3226.5625,184.9577,120.1911,69.1413,-679.2427,143.3893,18.5391,103.1096,79.2045,-545.5875,-84.5199,109.3802,48.1109,171.0409,89.5955,78.6896,-49.6110,193.3225,41.5617,32.7671,35.1746
-3218.7500,137.5676,37.6461,197.4629,-552.5033,198.7009,146.4597,120.6923,170.2015,-417.4679,117.0626,-94.4744,29.2129,5.3682,33.7330,-160.2378,78.7819,-66.5662,-6.3685,20.4501,0.7345
-3210.9375,2.8651,43.8281,-17.5295,-618.0641,-16.2850,152.0932,-57.0535,175.8999,-447.7273,-23.6761,59.3786,71.0360,84.4115,112.5876,65.5353,48.8680,186.2739,175.4304,-8.1799,168.0080
-3203.1250,208.6435,109.4974,94.9303,-555.1833,96.1978,154.1864,129.6575,141.0388,-409.6140,16.0147,24.6976,73.3156,50.9253,77.8985,-6.2367,51.3863,-30.4199,-6.3188,-49.3739,-12.1303
-3195.3125,-46.2798,30.4891,75.7018,-423.9874,-34.0107,133.5984,-37.3420,157.4857,-356.2750,143.0058,-104.7010,200.9106,-43.2664,131.5131,-98.7294,141.2078,31.1910,55.2519,-22.2856,51.3959
-3187.5000,72.4031,78.1119,-47.9357,-483.2010,-46.6276,83.6201,24.2463,70.5279,-332.4189,-16.4387,65.5240,188.1198,55.1584,192.7419,71.3945,18.6118,149.4445,32.4547,-8.6098,17.5304
-3179.6875,94.9618,30.6128,44.2917,-357.5575,82.6209,102.5057,153.6964,162.4317,-240.7742,149.9743,-137.4117,169.1822,-110.5733,100.8197,-131.6452,110.8644,-75.4683,-86.4895,12.9003,-85.6058
-3171.8750,-144.9008,1.7315,-135.8974,-423.3089,-61.5388,68.0049,-27.2806,238.9551,-238.6017,42.9792,-60.7510,135.8627,3.2996,140.5155,-18.0912,113.7193,142.2401,166.1961,55.0071,162.0803
-3164.0625,24.3052,-40.0678,-60.0480,-502.0163,88.3598,70.5652,159.7975,241.5266,-126.4448,119.0120,-21.0271,-8.3988,42.2399,32.2730,21.5197,79.6088,-40.9775,52.9384,83.1567,50.2309
-3156.2500,-197.6367,-86.9978,25.6673,-409.8507,101.1168,45.9902,-12.2727,289.9622,-77.4982,241.9040,-82.4790,40.2091,-18.9838,7.8844,-77.0554,165.3521,-122.3453,76.5391,37.1400,76.5096
-3148.4375,-60.0260,156.6529,-81.0770,-449.1293,-6.5897,-61.0261,-44.8091,72.9403,-150.0743,-12.6897,141.6335,80.3844,132.3533,48.0668,146.9315,-15.3681,119.8853,108.7209,-36.3495,88.5508
-3140.6250,141.5277,217.2375,89.0998,-285.4944,127.6210,-75.1267,51.5692,21.8225,-90.8144,84.6076,-19.3555,66.4688,44.5889,-75.8495,-51.2009,44.8052,-136.9924,-42.2080,-81.9667,-54.8892
-3132.8125,-81.6834,170.0959,-40.4758,-264.5973,33.0751,-131.9617,-114.8309,0.9667,-111.3753,27.1538,-3.1003,119.8197,61.0725,13.4928,37.9085,61.2339,97.3950,86.1406,-93.3484,69.1595
-3125.0000,104.8304,145.6924,-20.3644,-256.0029,92.2271,-148.0842,53.4650,22.8086,-54.3045,-24.6313,91.8732,30.8765,120.2742,-1.4514,96.7343,9.3456,37.5074,-79.7953,-118.0460,-96.7866
-3117.1875,-62.0020,12.9592,88.4146,-108.7334,90.0383,-3.5368,-57.5897,167.3176,-19.6394,158.2371,-130.5244,65.5961,-28.8877,-3.7404,-88.8207,118.1095,-95.7418,-142.0761,-75.1043,-142.5323
-3109.3750,-21.4456,54.6610,-9.4234,-140.0525,-44.7646,82.4268,-156.2681,106.2247,-155.6438,-50.5256,64.4881,77.7369,56.3600,82.3916,69.0326,-16.7397,121.4453,4.0740,-104.7770,-3.0346
-3101.5625,141.3471,77.6045,200.9450,21.8437,55.6456,145.6031,-19.7385,132.3346,-94.5082,49.9042,-19.2966,68.0912,-27.1900,-1.2704,-124.9247,-27.3975,-138.1768,-149.5829,-188.2758,-145.1189
-3093.7500,-103.2254,8.2144,119.9646,90.4145,-98.2943,174.4444,-210.5838,88.1116,-139.7785,4.9830,-27.4459,97.1154,-71.0936,101.7297,-59.2481,75.6003,1.8530,61.4332,-187.1463,63.7449
-3085.9375,57.7203,29.3553,43.4678,74.4885,-102.7326,171.7908,-29.9366,47.3845,-107.6130,-108.4680,79.9269,20.6497,-0.4797,98.2478,47.9415,-37.9177,58.4104,11.9648,-166.5350,13.1344
-3078.1250,-41.6256,-69.7791,113.6859,219.2904,-31.4610,168.8583,4.4155,118.3735,-38.7980,72.7865,-143.0242,53.8984,-150.1790,22.4688,-175.1981,69.2725,-77.3517,-17.8017,-91.2439,-0.0373
-3070.3125,-138.0370,-59.9329,-57.1639,122.0587,-129.2548,70.8873,-56.3106,-16.6845,-27.0993,-98.0282,15.9757,67.1213,-26.9242,71.6603,56.6121,-27.5922,178.8666,132.4156,-11.0132,137.7531
-3062.5000,10.9872,-51.6534,65.3847,92.2401,67.3596,-27.6714,102.3747,32.6616,129.9508,97.5427,-45.6264,-68.2542,-15.2647,-100.7462,-42.1806,-16.0727,-95.5117,-35.9713,66.6138,-26.6666
-3054.6875,-278.1461,-165.5079,7.7885,47.2943,46.8238,-84.3646,-64.1022,85.8769,145.8034,150.9683,-101.3970,-51.7671,1.2289,-83.2977,-62.1503,74.3000,-34.0355,165.4999,128.0890,175.8820
-3046.8750,-126.9652,-84.0358,-80.5204,-48.3502,69.5850,-135.7529,31.7136,-2.6101,128.8961,-47.3389,103.1539,-138.9743,171.0429,-98.5429,180.1928,-51.0499,47.7781,177.2862,68.8624,175.9517
-3039.0625,-111.9594,-103.7418,74.9876,69.8254,151.1613,-91.3297,76.3405,78.7188,209.7485,145.1551,-35.5061,-131.3769,-4.3514,-162.9910,-32.6871,31.3996,-218.6274,85.8571,-21.5773,94.1375
-3031.2500,-191.9711,-42.4312,-84.5168,23.0137,-8.2730,-175.9013,-119.0625,30.0542,121.5486,-14.3594,98.8323,-69.7620,93.2551,-65.4209,101.4348,-18.1454,86.9871,181.4518,37.9762,177.5268
-3023.4375,56.3981,-4.7357,36.3261,93.5616,148.6496,-241.1158,110.8875,2.7444,203.6537,-4.5418,72.5291,-132.7931,103.2183,-165.4923,37.9109,-82.3523,-52.0473,-63.6093,39.8657,-60.7905
-3015.6250,-163.1351,-48.9202,87.2799,188.2353,89.6769,-189.2175,-57.0767,16.5532,179.8255,9.3834,-59.6951,-44.7146,44.2664,-113.4649,-57.5380,-30.4455,-25.9995,-2.5653,64.8417,7.5306
-3007.8125,26.4921,37.0745,0.3668,96.0654,76.8426,-239.1726,-33.9140,-106.4889,128.0996,-223.5651,147.2516,-57.4771,178.4797,-90.2817,185.1801,-191.4025,94.2265,-23.3532,79.9599,-26.5797
-3000.0000,107.5018,47.4401,226.8175,175.2674,192.3736,-196.7698,7.6068,-65.1704,167.6930,-35.1639,4.5384,-89.8889,74.0385,-194.7507,6.2267,-112.0154,-212.2180,-188.8032,54.4204,-183.3069
-2992.1875,-32.8544,47.4690,71.9116,103.1423,2.5452,-166.7065,-219.2466,-108.1999,84.9027,-115.1253,107.4637,-21.6358,103.2453,-91.5537,108.9160,-118.9815,-0.9928,21.4219,53.5198,14.6710
-2984.3750,135.5158,76.2269,73.6987,128.7353,3.4189,-18.9369,-34.3935,-107.5313,84.7762,-114.4191,109.1044,-57.6797,31.1653,-53.6527,73.3174,-118.2663,-116.0539,-56.6528,10.3021,-60.4040
-2976.5625,-169.4661,-18.3459,3.1480,314.0138,-67.0520,130.4926,-104.8955,4.8047,122.2768,34.9515,-181.6246,54.9368,-149.2831,58.8983,-107.6582,31.1033,-139.4872,58.9208,-13.2846,68.7416
-2968.7500,-147.7583,4.7921,-147.7256,265.0061,-181.8371,163.6243,-71.7220,-71.1573,117.4410,-189.0020,-2.6423,52.2672,-42.0188,130.1608,35.0821,-81.8339,128.8118,117.2140,7.8279,121.3745
-2960.9375,24.7248,-68.3039,32.1582,365.7690,-37.8599,159.5148,71.2187,-39.3559,184.3352,-82.2067,-116.9149,48.3453,-120.0124,52.1724,-153.4432,-13.0244,-86.1567,-168.7620,38.6847,-153.2036
-2953.1250,-128.8642,-46.4403,-63.0125,314.5086,-169.9442,101.3641,-96.9121,-61.5910,87.1574,-140.4624,-29.2545,100.3861,-104.0640,67.1444,-65.0383,-35.2645,110.8342,-6.7688,95.4914,3.3141
-2945.3125,128.1145,70.9962,-41.6447,183.8136,-75.4815,12.7651,107.5058,-113.2770,106.4989,-230.1949,102.9749,48.9828,-9.5537,15.6701,66.9328,-159.9724,16.3907,-101.2223,35.8361,-100.7693
-2937.5000,-6.4992,77.8453,26.1390,258.5628,-43.6101,6.5758,28.3228,-45.5482,136.2192,-15.5268,-85.4156,42.9853,-124.6586,-27.4083,-85.7181,-55.2782,-153.6732,-25.2860,5.5667,-19.2058
-2929.6875,41.9241,161.7508,-104.0368,199.3791,-136.7056,-49.5599,-101.8328,-174.7679,40.9604,-144.8332,77.2532,24.0451,2.2885,-9.4276,113.6915,-148.5418,104.3458,92.7250,18.3425,85.0287
-2921.8750,235.6755,179.9700,27.0952,286.5098,-5.4970,-65.3903,66.3260,-117.6804,132.9916,-13.8462,-48.7785,-28.6016,-87.4646,-136.1513,-49.6014,-91.5147,-124.3463,-99.9760,0.4108,-98.5002
-2914.0625,-50.8430,139.9455,-61.0273,279.4291,-131.5430,-80.4626,-132.7866,-58.8323,114.7601,-66.1089,-101.0771,-7.4867,-102.4769,-40.1229,-28.1594,-32.7362,45.7156,105.0877,64.2186,108.0554
-2906.2500,146.2059,197.4955,-138.6102,193.9197,-98.0376,-120.9821,10.6472,-136.4447,183.0543,-180.8612,79.1907,-83.8157,41.0735,-80.5362,77.8472,-147.4308,67.3465,20.7053,85.5667,14.3067
-2898.4375,92.4183,108.2010,15.9689,278.5935,-53.3703,-76.3425,18.2379,-55.8915,262.4946,-26.4538,-96.4112,-39.9937,-97.2422,-108.8040,-135.0175,-29.9686,-162.8985,-34.5460,66.0550,-30.5113
-2890.6250,49.9113,136.2082,-100.1707,199.5912,-132.4216,-119.4009,-133.8985,-135.0258,180.2216,-215.7548,80.2913,-8.8667,42.7422,-5.7604,114.4246,-145.2023,75.1720,63.5181,22.8385,53.2451
-2882.8125,225.6768,136.4791,51.9354,232.8647,-18.2196,-41.2044,17.2138,-92.8981,183.1941,-100.8110,48.2508,-3.4937,-26.0166,-37.4680,9.1188,-104.1904,-136.5247,-219.1812,-14.1424,-224.2643
-2875.0000,-77.2280,45.1038,-17.6049,315.5283,-86.6680,-0.6493,-125.3444,20.5957,111.5065,12.4900,-94.4592,111.2370,-131.4380,40.1734,-96.8540,46.1831,-51.8905,-99.5231,-34.7816,-97.4142
-2867.1875,77.8178,166.6918,-138.2142,223.1595,-134.1780,26.8498,-25.9687,-62.9632,135.7569,-144.2937,4.7964,64.9219,-31.8983,103.7756,39.1421,-74.5080,66.7178,-85.8975,-57.4726,-93.9704
-2859.3750,176.3735,229.7910,-40.3135,320.3300,-36.1782,87.8522,34.9204,34.9894,231.5075,26.4331,-264.4647,52.1091,-190.8762,17.8718,-230.3870,23.3004,-152.1960,-163.7894,-100.6700,-160.3710
-2851.5625,213.3589,444.3470,-221.9771,215.9791,-181.7429,89.3069,-147.7632,-36.5975,157.6971,-156.3957,-190.2821,53.7550,-153.4075,130.4260,-157.4692,-85.4426,131.3549,13.7879,-63.4274,4.4796
-2843.7500,732.8666,788.4184,-186.1434,241.1520,-144.8029,90.2600,37.0580,-72.6854,155.3893,-192.7413,-226.5862,-19.1060,-225.4346,20.4729,-267.0385,-158.6982,-53.6002,-135.1394,-107.7004,-149.1648
-2835.9375,832.7542,1134.8848,-165.9077,303.7709,-270.4649,73.6238,-126.7347,-52.3540,100.4869,-172.6713,-389.5150,1.4383,-352.0759,-32.0795,-357.2287,-138.5460,-95.1814,-71.6578,-150.5822,-90.8400
-2828.1250,1197.3719,1570.1036,-288.9448,210.1649,-358.3963,-86.2531,-176.7967,-213.2663,11.3284,-369.8756,-146.6849,-11.2601,-218.9637,-81.8628,-187.6563,-261.6527,-12.9861,-59.4014,-208.7221,-108.1979
-2820.3125,1420.9498,1724.2821,-95.0227,291.5580,-237.3690,-113.1616,-92.8955,-203.2168,56.1165,-176.1333,-283.9218,-36.9997,-355.9164,-182.6914,-398.1584,-214.8128,-281.8617,-223.2101,-337.9299,-269.6706
-2812.5000,1247.9564,1762.9187,-208.6598,222.4493,-386.9088,-152.6045,-279.5728,-242.7047,14.3464,-288.9507,-213.7250,-3.2760,-284.4329,-75.0565,-291.2225,-218.5174,-69.2766,-9.5558,-370.6996,-67.0725
-2804.6875,1382.4863,1476.0704,-95.8040,180.8713,-274.9527,-113.5451,-57.7455,-277.6931,87.0715,-287.2910,-138.0150,-75.0562,-246.4460,-108.9175,-216.7808,-289.7374,-110.1809,-86.4070,-412.9811,-135.6594
-2796.8750,1003.7137,1589.9180,-26.2326,223.0481,-278.3011,-117.7724,-172.2218,-207.9632,118.5043,-181.9234,-288.6312,-41.1334,-322.7793,-150.0829,-330.6608,-184.2498,-173.4108,26.4371,-404.5769,-15.1205
-2789.0625,891.9249,1373.7701,-138.6825,110.2591,-281.6716,-156.0000,-136.7230,-283.2285,76.9407,-366.5729,-71.2370,-80.2021,-141.1122,-115.2353,-76.5258,-296.7679,101.3754,161.3038,-377.1858,118.4658
-2781.2500,887.2539,1122.7230,74.9712,209.6097,-103.9359,-126.1262,39.8796,-216.3835,104.4916,-191.1062,-151.7418,-123.1764,-185.3544,-232.2962,-231.2967,-230.1861,-149.7661,15.2532,-347.7105,-7.2499
-2773.4375,495.9518,803.0721,-10.9814,240.4077,-151.8113,-137.8533,-155.1430,-190.1221,17.4529,-202.2324,-126.8592,-98.7506,-123.2078,-132.9603,-168.6791,-204.1941,127.4940,222.6145,-210.8397,210.5665
-2765.6250,542.5630,639.3315,83.9582,216.1314,-20.7918,-153.6869,48.7345,-242.9654,36.3244,-255.4839,-32.0636,-150.4266,-28.1549,-148.7213,-75.1435,-294.3167,138.6631,56.8696,-131.0770,53.4970
-2757.8125,244.2733,446.6832,166.0055,304.0011,-12.6698,-71.4194,20.7124,-124.6941,116.3193,-100.6216,-170.1820,-68.0087,-166.0191,-139.3912,-213.5246,-138.3305,-19.0985,5.2119,-78.2208,15.1802
-2750.0000,66.2144,305.2767,-16.7164,196.1489,-85.3182,-32.9084,-52.0859,-233.1695,41.5780,-245.5256,49.9632,-29.3389,17.3735,-27.8080,43.3634,-175.1001,224.4111,143.8177,-116.1170,141.1510
-2742.1875,141.3758,99.0638,100.7703,269.5280,69.2406,84.8044,138.3288,-152.4448,120.0603,-129.2413,-16.6885,-22.4825,-49.0342,-21.0328,-96.5440,-130.6828,-17.8922,-63.3901,-182.8161,-53.8123
-2734.3750,-197.6445,-169.3095,-8.8938,351.8037,-39.3567,196.3710,-43.4182,-76.8525,83.4123,-164.1046,-87.5123,90.2280,-82.6057,128.5940,-94.6177,-55.4105,134.6490,89.2650,-135.6751,107.3648
-2726.5625,-127.7636,-274.7756,-34.6722,245.0152,-29.0620,207.8355,150.7290,-139.3677,91.6755,-265.0903,69.5790,100.8404,0.7305,139.1243,62.2256,-118.2506,205.1034,-16.1820,-101.6476,-0.4832
-2718.7500,-326.4246,-366.7928,116.0108,327.7277,48.6928,248.7543,154.3311,-62.4227,167.4194,-40.6107,-110.8970,104.8992,-69.5042,70.0910,-118.5041,-4.6388,5.9721,-75.2004,-90.1765,-46.6402
-2710.9375,-405.8628,-410.5746,-41.0777,246.7287,-72.3216,164.9252,-2.8490,-109.2232,81.4319,-233.8867,62.8772,95.2102,68.5116,133.3194,91.0226,-51.7728,277.0981,126.0457,-30.4553,144.5800
-2703.1250,-200.2482,-449.3135,70.8759,241.8117,113.7165,166.1505,145.0299,-33.9671,154.5204,-86.1195,-10.2919,23.5637,69.5763,61.5960,-18.3917,-13.8618,26.2597,-89.6728,-35.6907,-67.0174
-2695.3125,-474.9090,-548.3199,64.5833,247.6935,33.4991,87.1338,-7.3557,71.0570,183.3859,54.4103,-51.7278,54.6668,26.3741,55.6167,-60.0742,90.8097,66.1509,56.3566,-65.1846,79.6279
-2687.5000,-354.8230,-498.5791,14.0270,120.3563,20.0129,-0.1382,14.9887,-52.1721,168.0204,-69.3296,190.6070,4.5100,160.9268,79.3913,182.0124,3.2208,150.8058,35.1422,-86.9321,41.2232
-2679.6875,-417.5259,-560.6573,198.6836,198.2606,131.7339,37.7948,52.5394,58.8100,166.8894,115.1451,44.1266,42.5459,13.6638,6.3569,-1.7173,77.8362,-87.3747,-96.8929,-45.4876,-75.3353
-2671.8750,-582.7184,-584.2112,60.8767,103.7472,-6.0140,10.2802,-84.3835,31.3544,27.3377,-58.8375,127.1900,52.1330,96.9479,126.8801,118.1070,50.0073,169.0056,89.6327,141.5085,109.0881
-2664.0625,-351.8047,-599.6785,89.1604,17.3602,132.3386,1.8598,126.8049,59.9994,53.9243,4.2650,155.3668,-29.1867,125.3332,7.4991,109.0400,41.2687,-23.5160,-67.7591,229.6043,-46.6118
-2656.2500,-598.4055,-774.6663,76.9501,51.5234,157.1838,-8.0549,5.4855,196.1601,77.0500,176.8838,-2.9779,-3.0097,40.1961,33.6136,-12.5417,177.0357,-58.5605,3.3367,299.1979,33.6787
-2648.4375,-483.4691,-765.1193,-14.7277,-114.7257,175.5596,-64.4297,-14.3037,140.8668,56.7544,11.0458,161.2485,-59.2905,205.6176,51.2733,188.4505,84.3468,125.9578,45.9872,308.3348,64.8941
-2640.6250,-421.9708,-808.0356,156.1570,-18.3810,273.4961,-40.2583,119.4599,239.1338,190.0453,218.7735,1.0221,-108.0380,82.5811,-71.5311,-46.0108,182.2088,-129.0144,-103.8274,263.0063,-72.0805
-2632.8125,-622.0153,-796.4688,-20.4732,-42.4916,131.9159,-69.5835,-94.3014,171.9143,230.8617,151.0094,43.2809,-64.2799,125.0326,9.1693,107.0241,188.5830,91.5109,118.8772,203.1671,136.7828
-2625.0000,-417.3130,-696.1622,-18.3666,-83.8151,208.0783,-104.1573,91.6874,64.4448,342.4638,153.9783,120.3001,-98.7799,165.2354,-24.3776,182.8189,117.6983,-55.2165,-28.6677,161.0707,-21.4294
-2617.1875,-661.3303,-799.5834,45.0429,-11.7924,161.5378,-2.4255,8.9775,165.2870,404.4152,290.2621,-36.4045,-33.9877,44.7171,3.3670,25.8933,218.1285,-123.6668,9.0825,126.2733,26.3045
-2609.3750,-630.8300,-768.4766,-101.0181,-87.1858,52.5288,34.8538,8.7991,56.6790,293.9509,71.0795,147.4480,3.3539,155.7504,113.6680,210.5322,108.1081,116.4534,73.3991,121.0240,81.0282
-2601.5625,-459.4758,-737.5319,78.7739,14.3150,196.3747,104.9810,152.4877,89.9247,289.3839,177.7507,34.1463,-36.4626,78.6243,0.8143,23.0167,104.9299,-134.6006,-72.4556,115.6150,-50.8269
-2593.7500,-658.3516,-688.8037,-24.6405,62.6710,54.0006,147.9154,-99.0471,132.9799,182.6555,146.2278,38.6350,6.5263,84.2831,79.7615,64.2953,110.5455,-15.8603,116.4979,127.9928,134.9029
-2585.9375,-416.7772,-552.6346,-93.6207,22.5138,97.0589,153.2943,15.8630,102.4773,187.4153,41.1404,118.5900,-25.0387,127.3909,86.1583,143.0479,79.6040,-22.6640,-30.1009,86.8117,-20.5140
-2578.1250,-464.3150,-599.5875,31.3047,116.3071,75.0165,168.5807,-6.3266,227.8917,164.1196,239.9753,-86.5755,64.2861,-77.6198,101.4443,-62.3162,241.5801,-174.6035,-111.8181,74.5242,-92.6797
-2570.3125,-346.8404,-516.5157,-64.7406,23.1827,-94.0026,73.9136,-101.4879,132.3622,66.9045,70.8563,110.3164,79.6632,46.4172,152.7899,135.3811,145.6133,82.5203,5.5305,-20.7146,6.6848
-2562.5000,-107.7565,-416.8634,113.8172,16.6930,47.5828,67.8436,2.9647,90.4353,134.3326,175.3382,104.8127,0.6272,4.0488,37.7259,92.6830,140.2428,-205.7768,-176.5394,-98.3593,-178.3676
-2554.6875,-375.2012,-438.7472,42.8715,65.7441,-97.3415,34.2751,-216.1026,93.0193,134.3018,176.3338,106.7950,77.0868,6.1682,77.1609,130.4789,178.3889,-122.5881,-23.1065,-84.5030,-29.8645
-2546.8750,-250.4557,-313.4519,-38.8870,15.0174,-69.0770,-10.1008,-76.9834,-24.1987,89.5036,22.5188,246.9972,32.7364,108.4937,105.8015,270.4989,61.7310,-34.1907,-75.4739,-67.4449,-89.0195
-2539.0625,-318.3725,-379.8269,66.7083,124.6822,37.5388,-14.1183,-7.5113,44.9549,120.1006,201.0826,21.5353,64.7345,-5.8513,-8.2136,8.8551,129.4394,-135.4927,-71.5092,-64.0482,-66.4735
-2531.2500,-384.6848,-340.5686,-75.0698,-11.9618,5.7789,-119.4813,-76.4248,-22.2238,50.3859,22.3028,135.7210,-2.6113,145.4491,-2.5689,196.8671,24.8105,183.8506,143.1254,-26.0161,142.5459
-2523.4375,-83.4479,-283.7693,98.6928,-61.0140,216.5611,-164.2910,97.2093,-68.8438,114.2623,50.0860,163.4610,-122.4139,173.2896,-158.3773,187.4298,-21.2607,-43.2784,-48.6952,-42.4480,-48.3830
-2515.6250,-253.3945,-313.1468,57.3026,-54.1670,173.1842,-170.2409,-91.3215,-36.5987,107.0329,81.7468,85.0269,-90.3631,166.9613,-127.3325,143.8228,47.5365,-71.5793,63.3333,33.9570,62.3569
-2507.8125,-134.3610,-263.5490,-67.1056,-180.2910,197.7908,-219.1924,-31.8593,-122.3578,56.8405,-42.6107,255.6078,-103.3122,265.6376,-103.2799,315.2390,-76.6748,46.1380,76.3673,116.3552,65.9124
-2500.0000,-164.1820,-328.8256,42.6463,-69.2246,307.5550,-108.9873,114.7665,-11.9631,-55.1520,141.1952,33.3272,-103.1185,117.4462,-103.0848,93.7942,-2.7324,-160.0237,-23.4682,155.8938,-12.1354
-2492.1875,-292.0932,-351.1833,-92.6688,-126.1670,171.2419,-97.8251,16.3136,-36.6105,-375.1520,5.9534,154.9894,-54.9741,202.1949,-17.9313,215.3084,-64.8280,168.7666,199.6612,203.3781,212.1905
-2484.3750,-53.2067,-285.7598,56.8066,-132.2790,284.7243,-20.8643,238.6664,-33.4548,-519.3137,-28.4906,158.4674,-126.0372,205.7452,-51.9816,181.6352,-99.1238,56.3456,17.5774,196.6557,40.2785
-2476.5625,-233.2520,-361.2664,113.3822,-30.2461,120.3045,73.2011,111.1116,96.8178,-573.3231,101.1967,-4.9756,-31.0058,42.3756,6.0624,54.0456,32.6980,15.9910,117.5876,155.0269,148.4144
-2468.7500,-187.5794,-244.0459,-50.3100,-89.4450,-43.3859,130.0142,94.2889,7.8388,-664.5443,-62.3721,161.3467,25.7672,97.7609,135.8594,257.2258,-58.7307,202.4052,199.3646,95.1459,215.1320
-2460.9375,-138.3015,-229.2522,74.6075,66.9883,-66.4730,218.4257,182.0879,95.4621,-614.1113,135.6730,-45.7384,77.1283,-108.2679,113.2443,13.9994,66.4403,-30.6061,107.7211,73.8590,134.6908
-2453.1250,-339.1623,-254.5923,-65.5851,78.3574,-205.6768,224.7343,40.7693,102.9908,-608.7323,105.6236,-38.9316,120.3883,-101.4076,193.5319,19.6692,109.5220,190.2876,222.9876,118.4708,247.5102
-2445.3125,-60.9761,-221.9067,-21.7332,-28.2047,-51.8390,160.0870,233.5033,75.5636,-490.2604,113.6191,42.9412,55.6903,-20.4917,92.8649,65.4096,81.6459,82.2319,-60.7018,115.1305,-43.3544
-2437.5000,-157.1127,-282.5505,122.8299,-19.0279,-17.2968,158.1422,119.9376,182.8467,-383.0329,221.3373,-69.5041,52.6850,-95.8927,52.8864,-84.1633,188.4821,-49.1581,-121.7025,88.4829,-99.3692
-2429.6875,-118.8826,-243.8233,-17.2218,-120.4347,-84.3722,55.5893,16.7497,117.5255,-412.3603,45.4486,157.4650,24.0698,58.1141,134.3052,179.6865,85.7203,127.8667,-84.2837,90.2328,-80.0888
-2421.8750,25.7945,-238.6746,97.1791,-43.3682,31.0098,96.4836,94.0265,196.6552,-298.1833,234.0202,14.8886,-8.1158,-48.4312,29.1610,36.9954,201.4080,-183.6872,-289.4358,59.4384,-281.4910
-2414.0625,-204.1707,-257.1602,-4.0289,-60.8738,-71.2162,32.7789,-154.3128,205.1973,-290.5515,242.0061,23.7052,38.0978,-2.5862,74.4115,80.7060,282.5030,-61.8535,-132.1883,75.0407,-133.5820
-2406.2500,-2.9773,-196.5054,-5.0993,-175.2188,111.6966,-78.7860,-45.5020,94.8708,-181.7185,168.1257,169.6964,-73.5467,180.4193,-36.1929,154.5919,172.7324,-107.8644,-176.8001,64.7846,-187.6602
-2398.4375,-96.7282,-219.8208,69.8867,-126.4890,260.6630,-112.3044,-80.6337,133.5981,-32.7811,316.3133,-49.2732,-107.1502,71.4574,-106.7610,9.5177,248.0185,-271.8568,-166.3823,75.5708,-169.0340
-2390.6250,-126.1532,-142.8105,-141.7904,-224.3972,121.9597,-176.4808,-145.4353,-3.3295,12.5448,104.8490,106.1154,-61.4168,190.8472,-23.9817,237.8103,72.6571,-19.4786,-18.6016,116.7101,-37.5895
-2382.8125,64.0900,-128.1767,-49.8082,-137.6433,177.9086,-157.0125,57.4349,16.3905,105.5693,198.0433,52.1654,-115.0557,99.8840,-114.5677,109.7571,92.9391,-216.4654,-180.1903,95.4967,-192.1565
-2375.0000,-201.2475,-217.1319,-77.3739,-120.4149,76.2989,-75.0915,-118.2609,98.5702,113.0890,205.7045,-13.3462,-34.2470,34.3605,-33.7034,45.1508,173.6921,-95.0222,-58.3349,76.7293,-65.7839
-2367.1875,-29.8078,-150.3180,-71.1540,-228.3771,82.4795,-68.3727,-1.1700,33.5424,84.4483,66.1465,177.9763,-100.6419,151.6529,-26.0359,162.3791,71.2379,-28.7718,-132.6846,36.7593,-147.0172
-2359.3750,-25.5264,-145.6968,72.9309,-117.4633,116.5219,39.1995,31.7751,141.3669,154.7070,174.4602,-81.8574,-65.1921,-34.2136,-64.5289,-60.5483,142.6438,-165.7058,-198.2126,-29.3643,-196.7339
-2351.5625,-75.3898,-90.2179,-162.0998,-130.6350,-118.5501,24.6638,-55.3981,53.0934,176.9111,-24.3160,12.2108,-6.8434,-49.1847,66.8796,70.4384,16.9523,170.2748,32.1723,-10.5828,24.4678
-2343.7500,113.9915,-41.5181,-65.8802,-45.5488,-59.3711,48.3741,223.6956,40.0645,273.4184,-1.8432,-74.4610,-57.2610,-100.9023,-19.4719,-53.3067,-32.4942,42.4929,-59.1997,-32.5479,-55.5323
-2335.9375,-189.2633,-97.4553,-61.2593,74.9505,-164.7938,52.4850,43.1881,81.4422,314.3793,39.0525,-143.7452,-15.2824,-169.2348,-14.4328,-122.6597,44.4783,91.0902,94.8279,15.8863,105.3025
-2328.1250,-69.2200,-13.1180,-110.3457,-49.2563,-177.9230,4.8838,32.0017,-2.8901,303.6851,-81.7530,65.2920,-64.0164,1.7401,-26.1002,86.3055,-39.2544,140.9902,75.1485,29.6246,69.6850
-2320.3125,-2.7105,18.6770,66.0832,20.0530,-38.5512,-2.2225,97.3202,64.2819,333.5459,130.9703,-90.1881,-35.2555,-115.8010,-71.2784,-142.2384,26.5264,-178.6279,-69.0445,-8.1278,-67.7645
-2312.5000,-71.4839,20.1911,-119.7554,-12.8872,-150.4463,-4.5903,-87.6159,-11.8093,221.1975,-18.5641,-18.9032,36.2557,-44.5871,37.2956,1.9831,-12.9432,68.5310,108.5217,-8.1126,99.1579
-2304.6875,193.1425,74.0774,-92.1770,7.5821,-48.9392,61.4381,86.8624,-19.4989,249.3045,-62.6759,-27.2268,-8.8485,-52.9841,29.2561,-43.3956,-94.0057,-53.9354,-83.5409,10.3124,-89.3245
-2296.8750,-32.4737,-10.2769,-117.8083,100.8467,-74.6487,109.2552,-12.8713,65.6249,261.2550,21.0313,-198.7507,75.8438,-115.5916,40.0110,-178.9626,26.7507,-103.6025,7.2104,30.5420,9.4748
-2289.0625,-18.9991,73.4319,-205.3508,-59.8098,-52.2612,-13.8371,-63.4994,15.8483,211.3547,-102.1558,43.8502,-10.3847,53.9158,26.8585,64.5993,-59.3914,85.8371,92.0571,8.8725,80.2354
-2281.2500,14.4032,72.0370,48.0688,-59.5113,128.0778,-53.9734,42.8286,87.0440,282.4643,152.6433,-69.6164,-124.6762,-22.6385,-123.3556,-122.8981,11.4369,-196.8090,19.8398,-27.8483,19.1252
-2273.4375,-87.9307,109.9006,-28.2366,-124.9234,-22.2918,-129.8105,-143.5587,47.5357,205.9153,75.7334,-35.7686,-89.6716,10.1197,-125.2609,20.9309,-28.4366,50.8694,233.9347,-25.2621,225.9655
-2265.6250,333.5830,286.5769,-19.6807,-123.4822,-13.7956,-120.7974,48.9326,-89.1331,252.2621,-98.3189,46.9375,-191.8234,-17.2733,-153.3215,30.6184,-129.4606,15.3785,93.8483,-25.8294,81.3333
-2257.8125,210.9574,199.1161,25.7771,36.8682,-77.4042,-36.8824,-15.6797,-41.9068,262.5368,20.5422,-127.4616,-108.0678,-154.7732,-106.4819,-143.7949,-45.5756,-71.2089,76.6564,-7.4960,74.1686
-2250.0000,181.2363,204.5323,-145.8663,-25.8857,-176.1171,-63.0766,-78.3911,-104.8007,163.7277,-150.7174,67.0659,-60.4200,-33.3599,15.2506,50.7222,-108.7965,145.1280,188.3610,-37.2632,172.7186
-2242.1875,282.0572,165.4738,72.0675,76.9175,-32.2712,45.2787,66.4654,-69.1481,199.5002,-42.4083,-44.8677,-25.2325,-109.4092,-60.4845,-135.2135,-73.4607,-106.0135,-26.4000,-112.4820,-28.9837
-2234.3750,64.9539,159.4928,-14.9160,108.8025,-156.3454,68.7314,-130.5969,-44.4015,112.4015,-92.0020,-57.6873,71.0504,-122.3535,72.8878,-111.0234,-49.0242,63.9664,108.9508,-152.6001,103.6685
-2226.5625,300.1996,217.8366,-15.5489,29.0371,-120.0643,106.5412,15.7171,-81.3126,113.6834,-166.2384,51.8597,34.6772,-49.9442,73.6044,-38.4780,-123.2427,53.2858,-43.3727,-200.3702,-54.9254
-2218.7500,192.7111,76.4445,49.1246,134.5921,-92.4911,170.6673,-30.6832,94.0854,142.2923,82.8414,-177.3139,62.6113,-205.2528,64.6321,-230.6493,51.8508,-123.1018,-113.3987,-165.8385,-112.4469
-2210.9375,133.3650,87.1820,-157.0661,7.2831,-224.7774,111.9427,-126.9298,71.6215,47.0761,-49.9447,-53.3173,76.6934,-81.4000,115.8077,-32.6425,30.0814,133.6837,2.7305,-49.1506,-7.5112
-2203.1250,314.6708,127.5476,-0.5889,49.6253,-105.4065,48.8602,30.4977,82.8082,131.5503,33.9466,-79.6800,50.4092,-144.9114,15.6090,-95.9988,39.9694,-142.9004,-168.5019,-44.8081,-176.1465
-2195.3125,-8.6066,85.3469,-18.6701,44.4114,-197.6005,-5.7910,-171.6384,100.4345,149.5153,125.2852,-98.5937,67.5750,-126.9705,-2.1404,-77.8903,94.3039,-79.0113,2.7352,-15.0125,-6.8533
-2187.5000,109.7739,169.7881,-107.0951,-116.1702,-139.1370,-93.8043,-76.1002,-59.3047,174.1732,2.2659,145.1598,-18.6179,42.6292,-53.2529,165.8816,-28.7203,-65.4744,-19.3947,32.4333,-45.2838
-2179.6875,4.1265,97.1924,-5.5041,-8.7669,-0.6677,-64.8316,-47.5668,-30.0306,239.8789,177.2748,-47.0908,-26.8172,-75.7794,-98.3766,-27.3464,72.2716,-277.9609,-55.5376,65.8872,-68.3136
-2171.8750,-187.7873,48.3179,-168.1762,-92.6479,-90.4601,-81.1249,-138.2975,-83.0075,187.3721,-21.9560,45.4332,-6.2752,17.5749,-3.7522,103.2000,20.0272,23.3094,141.0791,157.0994,126.4518
-2164.0625,42.9974,67.1257,-31.1422,-140.8351,47.4472,-126.7193,72.6728,-55.2628,216.6128,42.5538,37.6425,-126.0301,8.6108,-123.4298,-15.5643,-25.4962,-62.7654,20.3868,177.0044,15.3402
-2156.2500,-119.8062,45.3853,47.3196,-126.5719,51.7759,-195.8537,-32.9411,-50.0591,185.3340,119.5263,-68.7101,-121.3169,13.0808,-192.6366,-84.8789,16.4467,-13.3906,174.1692,154.3487,174.9681
-2148.4375,64.6887,158.9395,30.0764,-256.0132,70.4088,-321.6847,23.7625,-212.5724,133.3938,-43.2147,135.2493,-174.3075,142.8634,-171.5566,156.1225,-147.3203,136.2878,184.2391,128.9892,170.9927
-2140.6250,78.8078,67.1030,150.5003,-99.8127,154.7063,-200.8669,108.1289,-90.4305,219.1523,115.7221,-38.1489,-200.6603,6.2886,-233.8444,-54.2379,-26.4329,-61.3974,21.9439,37.2846,24.0780
-2132.8125,-111.4431,18.8853,-13.4326,-41.9925,-45.3516,-107.4099,-55.8582,-107.6584,165.5997,-84.7035,18.1284,-107.3689,62.3822,-67.4785,39.0884,-41.9005,205.5925,219.2997,-46.7780,217.1421
-2125.0000,153.7673,143.0884,54.1065,14.2551,58.0562,-39.5123,157.6298,-150.4467,124.5408,-127.6746,49.8638,-76.6355,19.9307,-73.6805,-3.1233,-158.9178,120.0114,28.0784,-169.3969,28.7836
-2117.1875,23.9040,154.2101,129.5982,168.4337,-13.5898,35.3292,49.0544,-73.3000,54.4670,-14.6958,-131.4469,-0.9487,-87.5702,-33.9354,-184.3739,-81.9853,60.3905,4.7994,-157.0517,15.8562
-2109.3750,154.1211,213.3563,53.1465,18.6214,-90.1777,-2.7934,9.5544,-113.1380,-20.5105,-236.6945,86.3231,32.7681,56.0030,35.8408,33.4602,-159.0386,225.8465,-5.4619,-203.6400,-10.8534
-2101.5625,236.8494,155.9538,177.2334,68.2802,32.7628,120.5699,133.5926,-25.5025,31.0700,-77.2015,-47.4096,45.9577,-77.9218,13.0830,-137.2087,-71.6157,-77.1860,-202.2607,-224.7013,-198.3585
-2093.7500,20.9231,115.8622,-18.3267,65.2387,-123.9534,110.2595,-61.0048,-35.5571,-14.9622,-123.3917,-57.7688,109.4839,-87.4796,112.6627,-37.4967,-44.8645,129.1896,3.3026,-124.3904,2.0282
-2085.9375,264.9625,182.6944,-47.9109,29.1116,-117.7034,80.8861,129.3848,-138.6794,30.9916,-190.6350,22.8372,42.9425,-45.0825,46.1716,-29.8236,-74.1703,91.5127,-104.1962,-22.1277,-109.0813
-2078.1250,145.9307,134.4502,1.4634,123.9123,-141.5008,56.4509,31.7244,-14.8532,44.9242,43.0811,-147.6094,92.3422,-214.7323,21.6185,-200.1996,48.4832,-61.2134,-81.7358,35.0830,-79.5726
-2070.3125,197.1056,185.3926,-122.9698,-35.1388,-266.0957,6.1915,-18.7247,-65.8445,-40.9117,-81.0135,22.1679,41.9292,-83.1641,45.2568,-30.3402,-38.6738,200.2813,74.9276,51.5042,65.7697
-2062.5000,295.7685,177.8028,95.1154,-4.7246,-86.1743,39.4142,161.3554,4.6721,-6.2026,26.4181,-91.5671,1.0057,-160.1026,-31.6267,-180.9859,-41.3161,-52.7513,-36.9362,9.4613,-31.6566
-2054.6875,-22.0067,141.7805,49.7832,31.2417,-130.6565,31.2179,-66.9787,33.7832,-49.8583,18.4587,-98.6924,29.6783,-93.4293,-3.9141,-114.0107,-49.3531,87.8363,138.8054,9.0650,145.1962
-2046.8750,130.4362,258.9454,73.6589,9.3635,-34.9290,-55.7917,-7.0901,-52.9056,-98.2777,-31.2864,71.3899,-20.4626,76.4499,-54.0188,19.1715,-99.1949,29.6119,45.7159,-84.0997,39.7076
-2039.0625,-13.0314,150.1946,208.6412,79.5551,136.8994,-66.7049,-92.1071,46.5077,-71.5747,178.0844,-51.4451,-32.5030,27.4182,-101.0233,-138.5523,73.0759,-218.5237,-27.2783,-120.1430,-26.4714
-2031.2500,-49.7415,113.2038,62.3695,-95.5464,100.4758,-175.8748,-201.3786,-26.3462,-106.1114,32.1865,133.4997,-31.7961,175.1534,-28.2769,118.5030,37.0824,-8.8876,42.4754,-87.4423,26.0728
-2023.4375,149.5615,100.2143,200.1180,-107.6678,239.0665,-149.0468,-26.6346,2.7992,-2.6298,97.3093,88.4404,-114.0866,129.8835,-110.5404,36.5539,28.0910,-231.2802,-145.7933,-98.7640,-156.2692
-2015.6250,-30.1734,62.2158,111.8597,-73.8170,76.6448,-89.2173,-187.9136,25.9432,20.8535,46.4329,1.3884,-17.3673,41.6240,-50.7946,22.6189,51.1127,-94.6562,27.9566,-102.0965,18.6146
-2007.8125,108.7528,129.8521,11.2589,-110.3588,12.8832,-42.7371,-31.5199,-75.2765,-4.0011,-164.7975,157.9999,-7.9964,125.0199,-4.3981,179.3394,-123.2188,43.6276,25.3428,-139.7662,10.9883
-2000.0000,5.4091,97.2072,119.4195,69.8224,46.8779,64.4975,38.6350,-4.7364,31.9173,16.7491,-65.6595,62.1261,-61.8479,28.7454,-44.2076,21.2080,-198.3486,-146.5327,-135.6560,-147.3732
-1992.1875,-176.2793,19.1988,-108.7776,-4.3975,-144.4823,130.3668,-152.5563,24.4363,-48.4996,-63.0815,36.3525,164.9001,2.9516,204.5355,95.9239,50.2701,5.3658,-82.7526,-36.8736,-95.3577
-1984.3750,85.8524,-34.0197,-84.1445,-21.8588,-9.0172,193.0318,19.0864,50.4063,-21.0917,-1.1057,-10.8420,153.4632,-7.4513,157.1021,10.8523,113.1238,-188.1346,-311.1899,-19.2841,-322.3757
-1976.5625,-102.0480,-117.2407,-107.5139,72.6372,-106.5515,205.6862,-114.2774,100.3677,-5.6733,48.8706,-144.0369,240.0254,-140.8468,206.6627,-85.2085,199.9752,-164.6173,-183.5968,38.3125,-188.3116
-1968.7500,4.2644,23.7400,-242.6877,4.2864,-168.8751,106.5284,-29.4110,-34.4853,6.9568,-123.9701,49.9888,177.7772,-20.0288,181.4117,109.9509,64.0066,12.1179,-146.8031,75.1199,-163.1219
-1960.9375,67.7179,-19.1485,-70.6941,104.0605,-106.0434,95.5258,32.6225,64.8148,107.7581,123.3511,-106.8589,129.6825,-178.0798,22.3051,-84.7558,127.1934,-275.0008,-187.8623,104.0845,-191.8742
-1953.1250,-120.7355,39.0567,-234.6077,21.8958,-308.1229,41.6114,-167.2479,121.1970,18.6627,105.7519,-50.5890,148.6980,-158.0164,115.3033,8.6582,146.4685,-41.9814,115.1954,56.1537,100.7221
-1945.3125,122.5799,140.9982,-115.7555,-14.5594,-225.4328,13.4469,24.6704,131.3188,-6.6724,188.9046,-78.5637,47.4618,-187.2003,14.0444,-19.1843,156.4932,-114.2187,42.9859,-16.0228,31.6704
-1937.5000,-103.0863,19.9734,-28.8536,41.9877,-211.6852,26.3312,-35.3696,217.4947,-64.9450,350.1115,-211.4992,60.2845,-209.3247,26.8430,-188.9768,242.5777,-128.4001,134.8324,-30.1369,136.1624
-1929.6875,-63.7904,-11.0958,-125.0165,-93.5866,-124.9756,4.1534,-21.4480,85.6057,-122.2592,33.2576,-14.4567,38.0555,24.5230,115.5882,9.2158,73.6030,157.3771,174.6189,-25.2823,170.4099
-1921.8750,17.7551,-34.9183,146.0835,-9.9550,183.0044,18.2215,139.7322,62.9750,-33.3036,84.6887,-73.1781,-21.9248,38.6123,-54.4352,-123.3446,50.8884,-76.6251,-59.3633,-118.1681,-48.6654
-1914.0625,-173.9682,18.0063,48.9228,-25.6292,195.7274,-42.9760,-68.3564,2.0869,-55.5953,-13.1344,-24.1327,27.8434,161.4660,-42.7080,-0.1356,-10.0782,48.1559,100.4257,-169.2839,101.9377
-1906.2500,33.0746,154.6728,91.5358,-98.6082,275.2200,-109.4247,12.3321,-65.0598,-47.1201,-43.2131,129.6703,-39.6442,242.0794,-73.2386,153.8304,-77.3060,-61.3187,-8.0566,-278.6355,-20.7673
-1898.4375,-94.1021,98.1290,131.9633,21.1737,204.5078,-69.0641,-94.1771,11.5874,-5.8416,107.5093,-14.7395,36.6805,97.4859,-32.9629,9.5903,73.2732,-221.9833,5.2629,-334.1830,-5.6323
-1890.6250,-70.4582,156.3929,-22.8089,-59.2925,13.5995,-77.9088,-174.8710,-31.9935,-47.7711,-120.0014,162.6771,29.8111,163.7096,70.1165,187.1681,-7.3704,48.1870,100.3827,-308.9273,78.3869
-1882.8125,124.8472,140.3062,110.1011,30.8711,109.3626,-18.0998,30.1052,-8.9357,12.9538,13.1407,1.7292,15.5991,38.5791,-18.1646,-10.6197,15.6333,-144.0036,-91.8630,-290.0270,-100.3604
-1875.0000,-75.6102,79.4666,3.2553,77.2467,2.3746,-14.0399,-75.6707,-41.6460,-18.0823,16.5091,-67.9633,54.6452,5.7105,21.8138,-43.1452,18.8737,43.0942,60.1600,-172.8662,57.1060
-1867.1875,92.4653,107.1295,-66.0700,0.0742,42.9044,-47.4838,75.0930,-111.8750,-12.6152,-89.6391,45.8487,-14.8167,83.3455,25.2820,70.8330,-87.4001,71.7098,17.6629,-75.1896,11.0939
-1859.3750,6.8955,-13.8499,56.9698,91.2232,55.7929,1.4132,88.2141,-24.7625,2.2067,70.5712,-87.0057,35.0776,-86.6789,-34.9114,-98.8521,35.6719,-82.3247,-31.4850,-54.1538,-24.7036
-1851.5625,-62.3582,57.4867,-122.6963,22.6143,-161.0231,4.5916,-56.3633,-58.3754,-66.6769,-108.9350,99.4681,38.2725,25.6203,41.1934,123.7938,-34.9697,128.9672,145.6781,-52.8159,137.7031
-1843.7500,172.8511,116.2718,-18.8878,82.4166,-94.3665,35.2208,85.5300,-27.5445,2.8953,-4.9767,19.3814,31.9182,-90.6375,-1.2648,7.8824,-40.1519,-128.3120,-40.7305,-28.0178,-45.2369
-1835.9375,-54.2577,63.7538,-82.3844,101.8671,-268.0133,81.5478,-87.8901,55.9771,15.1576,41.6772,-117.0036,78.2730,-227.1859,80.9841,-91.3242,79.3723,-1.8661,83.5740,96.4960,84.7794
-1828.1250,149.0062,126.5984,-152.5265,-10.3877,-300.2919,49.2132,100.0632,-50.1697,-16.2342,-138.3288,-3.0235,82.9702,-150.3654,122.5691,-14.1665,-25.7642,200.9365,6.2161,125.3831,2.9382
-1820.3125,148.8987,91.0726,100.9953,130.9632,-156.9041,82.5229,169.6724,-17.6563,-54.9637,5.3412,-152.4113,115.3157,-263.8972,44.7923,-274.3700,6.7595,61.3775,-63.4892,20.9468,-47.6861
-1812.5000,51.0803,97.8486,35.8008,103.5582,-223.2151,53.1272,30.5800,-118.8481,-228.3930,-169.7015,1.5180,122.9636,-109.1154,89.3195,-83.2457,-95.4301,351.1465,155.1147,-77.1713,165.0101
-1804.6875,246.6369,116.9753,138.9771,53.4574,-10.1567,46.0752,170.8620,-89.6963,-234.4660,-67.3852,31.7975,5.9630,-42.9830,-28.8118,-52.7761,-139.2725,89.2522,0.0436,-56.9300,11.1291
-1796.8750,-88.5658,-8.6441,109.4021,68.5639,70.1492,89.2645,-43.6116,100.7005,-188.2943,50.1793,-107.6755,12.2190,0.4013,14.3073,-118.0523,14.1370,-70.3733,51.2298,-5.4308,65.9654
-1789.0625,-58.0924,23.3928,-68.5120,-39.7416,150.1150,96.0920,-73.4209,-3.2727,-180.4778,-89.6229,45.5301,19.1171,154.4538,95.0700,72.3492,-52.8199,-2.3350,48.0611,27.7286,47.2717
-1781.2500,-37.8600,7.1769,61.3495,85.6643,316.8441,151.6687,19.5295,52.5067,-85.9177,39.3342,-119.5248,37.7681,26.2504,39.5721,-166.5108,2.9753,-228.5541,-107.3652,12.6419,-94.2171
-1773.4375,-135.3289,15.2706,-43.4928,94.3256,100.8686,119.5349,-158.2206,-15.4330,-152.0670,-65.4362,-77.2658,79.7239,32.3619,118.3804,-87.0542,-27.9454,96.5684,76.5206,56.8672,85.1725
-1765.6250,232.1378,65.2777,20.5881,74.8534,54.8121,110.2949,52.9601,-24.4912,-123.3106,-111.3225,-12.1083,33.5772,-13.6229,35.0727,-58.7040,-110.9775,42.5949,-47.7076,37.9929,-39.5287
-1757.8125,46.5896,-14.7111,73.6761,135.3493,-39.2377,126.0480,-3.8524,65.4317,-141.5571,52.7708,-142.9605,86.4390,-144.6046,51.7638,-152.3532,15.9824,-36.3511,13.0811,29.1240,27.3659
-1750.0000,22.0131,65.2685,-92.2851,39.7556,-132.3214,106.7422,-60.6912,8.2679,-233.8633,-77.2162,21.1634,67.2456,-17.6086,105.4016,85.9727,-41.1452,114.6831,93.8252,75.2026,94.5687
-1742.1875,3.0537,46.8512,-1.6136,127.7367,32.2164,124.0331,68.0874,99.6963,-140.5747,160.4023,-145.1196,47.6523,-147.0181,-25.3778,-117.1213,50.3260,-148.6861,-64.8443,162.8813,-50.0855
-1734.3750,-286.5127,-34.1530,-127.5383,118.0732,-58.8455,106.7111,-95.7341,119.5031,-154.9014,70.3897,-160.9887,104.4649,-90.0158,68.2471,-96.7949,33.1824,88.3831,136.9040,224.9691,153.8893
-1726.5625,-15.4002,-8.4950,-89.7939,38.0182,17.7694,71.0299,127.1244,10.9422,-115.5710,-74.9890,-12.2015,-4.0819,-14.3559,33.5147,-20.8059,-75.3339,115.1028,22.2823,215.7178,37.3407
-1718.7500,-33.0077,-61.5439,30.2430,91.2401,26.6926,80.6557,99.2902,56.6755,-67.9414,81.9320,-149.1307,4.6780,-115.3955,-31.9166,-194.5273,44.4470,-6.8676,-30.0311,164.7831,-9.2827
-1710.9375,9.6455,-19.3481,-106.4862,-78.3203,-73.1231,-19.4658,0.7160,-6.3592,-129.0760,-128.9251,81.2035,-21.3103,41.8374,15.9103,73.0166,-18.5415,211.4455,82.9039,137.1194,84.8393
-1703.1250,175.8670,5.3888,33.3596,-52.3625,103.6366,-27.0438,176.7162,22.1600,-23.6572,10.7732,0.0725,-102.7516,-2.3816,-102.7325,29.0936,-25.9733,-78.7065,-137.6347,93.0298,-131.4883
-1695.3125,-119.8692,-79.8328,-64.7469,-67.4034,40.4482,-52.5932,-31.2448,69.7215,-84.2055,58.5149,-60.9932,-17.1421,9.4624,-17.3296,40.2340,21.6436,47.2212,23.8904,149.0179,29.2930
-1687.5000,66.3781,-0.0933,-116.8846,-163.5377,63.2214,-31.2116,63.7660,-17.7761,-97.8114,-28.7980,70.9046,-69.5909,105.2678,-32.9901,137.3355,-66.8039,129.1032,-70.6534,159.9763,-72.7601
-1679.6875,-1.8342,-32.8060,62.5381,-19.1407,132.5479,-0.2759,59.3285,50.2704,-26.8688,113.4412,-116.6697,-73.4754,-10.3853,-111.0947,-124.0295,1.2988,-43.4590,-137.6496,198.4990,-122.6887
-1671.8750,-37.9479,0.5952,-46.9533,-126.6788,96.9799,-108.2448,-50.0012,-94.6017,-60.8297,-105.2574,67.8709,-73.2546,175.0783,-74.0907,60.7257,-106.5187,203.1145,1.4566,234.1362,3.6663
-1664.0625,217.7030,-25.2493,154.3263,-153.5000,370.1878,-167.4632,114.4468,-153.7259,-6.0174,-90.1970,121.1502,-204.2853,228.2864,-241.3502,40.2211,-128.5863,1.4161,-199.7095,208.5206,-193.0178
-1656.2500,-3.6420,-142.0816,168.5959,-129.3678,348.3865,-225.6886,-17.1161,-137.8679,-26.2021,-38.1664,61.4490,-189.3174,242.5121,-227.6036,54.7374,-76.6658,60.7583,-69.8568,197.9058,-60.5073
-1648.4375,166.5944,-113.3530,137.4388,-240.7067,280.1560,-257.3643,23.9010,-243.4747,-56.8360,-216.5898,288.2965,-220.8019,359.2845,-186.3172,281.7958,-218.2083,197.6447,-39.4703,123.8360,-43.3504
-1640.6250,132.3671,-182.0716,279.8367,-134.5130,312.4702,-152.4887,93.4642,-101.5448,50.0661,-38.4772,99.6822,-225.7258,169.6052,-227.4740,130.3975,-113.2084,-80.8923,-143.5134,55.3288,-134.9954
-1632.8125,-37.4856,-141.4243,61.5813,-235.0024,131.1445,-149.2693,-49.5997,-135.2855,55.3036,-145.0479,176.4330,-149.2968,246.2932,-115.2817,280.3654,-146.8852,135.9483,-32.2069,96.1852,-38.1563
-1625.0000,174.3651,-107.0710,106.0414,-234.8045,249.5434,-179.3411,178.0504,-202.3242,101.2328,-137.9062,183.8595,-142.1618,217.6742,-181.3944,215.0060,-176.8582,31.4728,-242.2107,132.7446,-245.8031
-1617.1875,-89.4976,-265.4130,150.7843,-182.3382,182.2423,-136.1129,148.9859,-159.0737,110.4404,-94.4881,7.5988,-61.7218,115.3740,-138.1938,38.9682,-59.5365,155.3314,-188.8964,186.6125,-176.4014
-1609.3750,13.6711,-231.7461,120.5418,-360.8947,152.9650,-202.8835,228.9501,-262.8327,80.6383,-272.0769,234.3440,-92.2835,231.0815,-95.0019,228.9292,-200.2227,365.1830,-225.6048,185.4774,-222.9725
-1601.5625,132.6754,-254.2286,315.1565,-453.6126,237.5427,-192.8018,313.7585,-178.7426,129.6688,-113.8145,134.9224,-81.9883,131.6320,-157.9561,92.7281,-116.0582,62.8914,-388.4492,200.2029,-383.2193
-1593.7500,-77.4045,-289.7909,163.6579,-701.4474,122.0203,-235.8226,88.4751,-184.7737,126.5766,-193.6826,239.4174,-13.7911,200.0975,-90.9995,308.4481,-123.0134,239.5253,-176.3864,270.8354,-187.7393
-1585.9375,120.4784,-233.3932,195.1264,-891.3292,190.4666,-240.8844,267.1531,-226.8564,196.4222,-161.5927,308.8478,-129.6460,231.5041,-169.1015,341.0960,-164.0152,192.0874,-260.3875,294.4254,-276.4488
-1578.1250,-81.5597,-294.8855,230.6797,-777.1251,152.0034,-206.8492,192.9146,-118.8492,196.3389,19.5772,87.3857,-94.3881,84.0280,-172.0932,155.8558,-56.9219,166.7789,-181.2622,303.1219,-183.8287
-1570.3125,40.4325,-208.3570,108.2423,-901.9379,67.5591,-254.8194,143.6952,-240.8506,113.2352,-213.2559,295.9281,-69.1356,218.5583,-73.0925,327.6204,-178.8360,395.4622,-93.1511,285.8243,-111.6186
-1562.5000,210.7125,-179.5275,252.1135,-802.4532,210.4214,-185.4906,287.7674,-208.5413,220.4064,-105.7767,144.7515,-73.5730,141.3755,-150.7913,140.6662,-108.4381,73.4427,-274.7336,210.8340,-286.7149
-1554.6875,4.3542,-175.3266,103.3237,-764.6473,172.6362,-187.8242,66.1925,-210.8983,183.8943,-181.9780,180.9446,-1.6541,213.5641,-80.1317,177.0853,-111.7093,184.8092,-129.9576,215.1987,-147.9476
-1546.8750,208.4166,-75.7133,108.9587,-806.4485,288.2815,-218.7569,182.0406,-315.8622,153.7651,-249.7732,296.5194,-69.3353,330.1481,-111.0775,255.8786,-215.5824,178.5573,-240.7969,209.9698,-264.3245
-1539.0625,96.9136,-118.6439,203.0335,-637.8187,309.3724,-162.2378,131.3230,-258.3784,140.0610,-119.1314,97.5457,-48.5622,203.1890,-164.5664,94.1270,-122.0107,67.7862,-177.1631,169.1981,-186.7480
-1531.2500,65.9936,-79.0028,102.6619,-704.6633,172.0343,-189.1644,67.1765,-322.3520,40.8799,-329.9614,290.1333,-39.2479,286.7930,-117.5073,286.9325,-222.9030,318.5661,3.0182,174.9760,-13.5379
-1523.4375,216.9168,-68.5031,229.1543,-624.6610,261.5544,-174.2331,229.8767,-233.4720,130.5242,-130.9329,159.5502,-134.0773,156.2395,-212.6007,192.5671,-170.9368,13.1908,-91.9437,150.6044,-100.5432
-1515.6250,-77.9065,-153.7348,59.8877,-569.4293,129.3173,-161.0510,23.8161,-73.3568,109.3864,-80.6800,100.2357,-83.6497,133.9560,-126.4301,170.4698,-83.7343,71.0961,70.3614,242.4822,63.1862
-1507.8125,7.6507,-104.5996,-60.0096,-624.8465,156.4518,-169.5121,125.1270,-118.9045,138.5753,-163.0736,201.2601,-128.8636,235.0129,-98.9091,272.7069,-166.1859,156.3349,14.9946,293.7068,2.2045
-1500.0000,-64.4548,-176.0961,79.4350,-416.9097,185.9265,-140.6199,191.7703,-17.1066,205.0789,48.8673,-63.3729,-63.7073,43.4178,-143.0219,-28.7139,-64.2873,15.9492,-22.0052,257.2794,-15.1356
-1492.1875,-128.8321,-135.8737,-20.4296,-376.2856,11.1057,-169.0213,91.1335,-118.6178,142.2533,-162.5120,55.6973,-17.8512,89.5312,-24.4270,127.5715,-128.7009,338.2777,159.6978,158.5573,159.2229
-1484.3750,185.0807,-68.3627,170.0163,-274.3586,128.6016,-127.1073,281.8013,-113.8099,149.7107,-120.5714,25.0405,-48.6943,21.9304,-92.5310,-12.8710,-123.7982,125.8860,-53.2972,16.1429,-47.7598
-1476.5625,-47.7730,-90.5933,136.6937,-192.1985,22.3386,-85.9374,64.7097,-35.7502,81.3865,-5.3981,-43.3528,-7.2806,-46.4097,-88.3663,-45.0472,-8.6546,139.7763,99.9793,-4.0173,106.5908
-1468.7500,96.9013,17.6959,4.8835,-259.5384,-35.4096,-71.2570,81.1360,-95.1916,24.5386,-175.7253,118.7484,-66.3672,78.7498,-36.7052,154.2622,-105.0151,250.1465,139.7480,-35.6775,133.8478
-1460.9375,40.6101,-37.9473,164.1198,-70.8254,12.8904,13.4801,129.5946,26.4117,73.7083,-17.0033,-91.1143,-55.3889,-94.0459,-62.9861,-92.3896,-20.3219,18.5773,83.5900,-20.2865,97.1374
-1453.1250,-154.5094,46.5883,-4.5071,-21.9725,-154.6552,65.3574,-38.7854,-32.8527,-21.0026,-185.1567,-1.8075,33.7411,-41.6752,62.8898,34.1227,-79.4919,245.1758,274.5945,-40.7520,280.9930
-1445.3125,99.5705,195.3344,52.0743,56.0907,-61.9828,84.4316,92.0440,-49.9126,-36.5269,-130.0936,18.6743,53.0754,-58.1130,44.9636,-19.1876,-96.4489,42.9549,107.7897,-172.0168,108.9843
-1437.5000,-132.4130,104.0432,58.5813,211.0955,-93.3677,126.4555,-86.1923,65.9730,-30.1359,-14.0967,-122.8894,132.3664,-125.5920,87.0034,-123.5334,19.5442,-47.2857,227.9574,-261.3255,234.0108
-1429.6875,-46.1173,155.0245,-100.6554,155.3535,-104.4835,77.7333,-97.1602,-19.8879,-113.5190,-172.8500,85.7933,120.9101,10.1835,186.2900,49.3573,-66.2242,109.7114,278.3594,-316.3878,270.1456
-1421.8750,-52.2855,149.5686,40.6630,324.1751,-37.0463,181.5685,7.4007,83.8045,-82.3850,3.9537,-140.9901,151.0176,-143.4989,142.1350,-178.2198,74.5692,-175.7454,203.3236,-390.9059,209.3754
-1414.0625,-280.6901,200.8885,-129.2791,375.7450,-205.8645,195.1616,-198.2943,60.2388,-213.5381,-55.5161,-127.0049,275.8773,-129.4163,266.7461,-127.0304,88.1014,17.5638,432.0478,-372.6861,431.9537
-1406.2500,-24.6321,280.6726,-142.7567,384.7901,-146.2207,218.2227,-28.5357,46.1372,-191.2729,-70.5220,-140.5916,188.1916,-105.8978,215.8104,-103.4227,0.0943,-42.7026,300.2134,-293.0290,302.4974
-1398.4375,-175.7873,200.2710,-88.4511,478.6548,-165.7960,272.1020,-83.9968,172.8304,-173.2551,94.2478,-306.3769,205.3262,-272.5816,195.7016,-306.0117,90.8868,-87.1393,290.2042,-197.5847,308.3117
-1390.6250,-118.2098,222.5968,-205.4435,359.2419,-208.6679,228.6954,-89.7439,93.2186,-288.5701,-96.2910,-92.4618,162.1647,-94.5687,189.2995,-128.9064,-62.6289,182.1178,347.8812,-103.4518,360.6319
-1382.8125,40.4035,204.9794,-38.3811,411.9079,-77.4913,248.3524,77.5451,185.6672,-230.8650,33.2383,-183.5237,109.0684,-185.5251,98.9581,-292.7844,-7.0797,-80.5837,119.6149,-120.2679,142.8816
-1375.0000,-199.4830,140.8794,-148.8398,383.0821,-188.8226,210.5131,-143.6749,184.6085,-303.7006,69.2448,-184.0765,181.4769,-185.9648,208.1326,-220.1478,102.9627,33.2421,267.8661,-77.5802,282.5151
-1367.1875,20.4904,254.6386,-165.4367,320.1331,-131.2869,193.5416,-50.0290,167.4069,-320.7096,15.1162,-90.7992,127.7349,-128.5669,228.1562,-125.6837,48.8627,-28.1155,135.9653,-104.0551,141.6063
-1359.3750,-74.2608,230.7096,-53.7515,400.4999,-92.4679,231.8859,-121.1124,279.5101,-243.4604,200.2848,-272.2247,129.3056,-273.8723,155.5001,-306.9212,234.0723,-263.1597,111.3985,-127.2368,123.9944
-1351.5625,-42.4875,297.3010,-202.5771,289.3816,-205.1432,118.7338,-270.6834,203.1144,-318.7424,86.9507,-54.1423,127.3731,-128.6740,153.3483,-89.6574,157.7794,-55.7087,213.3331,-95.9279,207.4223
-1343.7500,196.7669,290.3989,-57.8992,317.7989,-60.3181,116.0964,-125.7629,236.2346,-248.5531,194.1402,-130.5878,50.9480,-168.9926,76.7042,-238.9281,155.0070,-307.7726,30.7781,-66.1280,31.5910
-1335.9375,-18.7861,214.7117,-109.0510,347.4353,-148.3064,138.6643,-285.6529,185.5536,-224.2025,180.5091,-216.8243,110.7324,-182.1030,173.2813,-251.9889,177.4299,-170.6072,202.4487,-70.1330,203.1821
-1328.1250,167.4267,294.7905,-159.4424,320.8579,-124.5263,123.9890,-152.7759,97.6307,-238.1283,-18.3637,-48.3280,60.2659,-49.4698,158.6080,-82.3198,52.6077,-89.7176,141.8553,-130.3959,136.0655
-1320.3125,88.2226,286.4821,-28.2403,452.9076,-67.1485,144.9085,-131.3255,191.3116,-143.4896,223.3638,-211.2382,81.4094,-212.2326,105.5414,-282.0564,146.3900,-343.2195,63.8786,-209.0626,66.5685
-1312.5000,-66.0489,203.0998,-227.1375,368.8691,-191.8659,93.7231,-291.9751,138.8852,-193.9908,97.9764,-78.2244,139.4474,-79.0803,164.3740,-75.8837,131.0617,-74.8235,191.7983,-115.8357,183.1308
-1304.6875,119.6273,176.6808,-137.0757,341.8183,-64.6244,109.4953,-55.6862,191.4217,-104.5777,186.5639,-99.2864,45.4421,-136.9936,107.1604,-170.7861,147.7009,-275.5105,-45.3293,-70.6701,-47.0524
-1296.8750,-137.9644,96.0354,-158.2902,365.5404,-159.6516,124.0294,-186.6703,242.7100,-52.4581,274.8917,-230.5934,97.1936,-194.1530,158.7165,-301.9287,199.0887,-215.4299,84.3319,24.2328,89.1065
-1289.0625,-16.6401,146.3034,-243.6020,275.2029,-170.7686,75.4811,-125.7452,157.9063,-99.4653,116.1278,-22.0166,85.8460,-59.4189,147.1824,-93.1912,76.3852,-94.4756,64.8847,5.0202,58.7336
-1281.2500,14.4571,107.3748,-69.1236,446.7148,-70.0999,102.7535,-61.0503,220.9141,-72.7117,216.1758,-179.6608,76.3103,-179.8996,63.4654,-248.6779,140.5014,-307.7172,-78.7438,-33.3961,-69.8406
-1273.4375,-147.6317,14.2615,-133.8602,353.0557,-208.6390,73.8382,-199.5562,154.7211,-137.1988,77.0042,-61.4923,84.5816,-133.5731,107.5645,-94.3591,110.4137,-14.1476,109.4285,14.9805,115.3720
-1265.6250,81.9241,-1.1946,-33.9408,231.0905,-144.5232,64.5903,11.5922,145.1984,-36.0636,104.4999,-33.6982,-35.4889,-106.6152,25.3233,-66.4220,64.9931,-133.9622,-46.7526,34.9952,-40.9102
-1257.8125,-136.1908,-78.2866,-50.6935,328.5049,-162.0763,82.7057,-115.9369,164.0267,20.3738,195.3359,-161.5480,19.8024,-161.3032,6.4570,-158.1283,119.9242,-105.4101,51.4456,27.3509,63.2586
-1250.0000,1.0740,22.9916,-120.0950,255.3100,-120.2717,51.1843,-74.1053,-14.7938,-48.8751,-93.4681,26.9500,25.4475,-8.6453,48.9421,30.5020,-58.7927,67.4660,48.9812,25.0388,51.8469
-1242.1875,103.4174,-50.6203,22.6031,286.2645,22.6234,82.7789,67.8006,52.5018,56.9305,84.8450,-125.4785,-15.7934,-124.9082,-29.4568,-121.7897,45.6110,-180.5683,-165.3651,21.8133,-153.1642
-1234.3750,-100.4842,-148.4569,-122.9736,222.0016,-122.7425,47.1306,-113.5551,90.5470,58.4392,85.8972,-49.1461,-14.2829,-85.4123,44.9089,-9.3201,120.7612,-31.8371,-50.9466,64.3285,-48.2068
-1226.5625,95.6678,-128.2307,-130.4968,171.8394,-56.0565,40.5486,-46.8559,120.6591,124.9681,116.0253,53.2099,-94.7198,17.1127,1.3254,57.1619,113.9829,-188.0904,-207.4794,14.8864,-215.1783
-1218.7500,-107.4495,-191.2387,-61.2947,249.4667,-23.6395,72.7202,-161.4341,188.5256,121.2079,257.8976,-97.6882,-62.4014,-60.6111,-39.4931,-57.6061,255.9597,-355.5811,-164.2234,23.1863,-165.0326
-1210.9375,-109.3860,-157.0716,-205.9441,107.2791,-95.0724,-34.9505,-232.8591,79.5394,85.5663,1.9148,86.5707,-59.9391,87.8198,34.8420,164.7757,147.0808,-109.9409,-23.8213,91.6262,-37.8844
-1203.1250,-17.9401,-135.5017,-72.1898,163.5459,37.8921,-48.2121,-24.9067,102.9717,145.2832,172.3560,-35.7887,-73.0661,-34.3664,-50.4178,-31.4683,170.6251,-298.9237,-213.0117,114.4561,-215.0951
-1195.3125,-206.5056,-148.9228,-168.4550,114.8476,-57.1616,-71.4680,-157.9730,117.4036,86.9510,185.7870,-59.1280,-22.1860,-20.5426,0.3432,-17.6954,184.1698,-135.8944,-51.1852,101.2779,-56.2530
-1187.5000,9.8240,-71.4507,-152.8104,15.1062,31.6919,-128.8121,-31.1327,21.7534,138.4875,91.1456,103.4165,-116.4004,68.1702,-93.9961,144.9579,89.6370,-164.0064,-114.4686,36.9830,-128.9779
-1179.6875,-168.9519,-181.0488,-92.2291,117.3585,56.4829,-68.1942,-81.3748,120.0675,199.9353,298.4667,-93.0936,-92.6517,-17.1665,-107.3622,-14.4390,187.0732,-379.1605,-47.7774,34.6300,-52.8865
-1171.8750,-339.4884,-210.4165,-264.4093,17.9011,-78.4719,-20.3127,-180.3627,93.6401,137.5999,125.0446,28.6548,-44.6499,67.7527,51.5385,142.4116,123.7687,-90.0726,169.1658,40.5183,157.4185
-1164.0625,-217.5130,-159.2629,-130.0363,139.0510,55.1232,114.1473,27.1910,117.7906,86.7847,149.2027,-94.0810,15.9084,-19.7997,75.0054,-53.2176,112.0389,-249.4559,9.6663,-49.0504,12.7279
-1156.2500,-391.3606,-120.9079,-170.4934,247.4402,-58.1041,220.8215,-159.0779,150.1511,-25.8743,108.5501,-208.6108,122.6744,-95.1452,181.6938,-129.6366,181.5162,-105.6241,118.3927,-80.4190,126.4042
-1148.4375,-141.1394,-11.4893,-189.8980,181.9348,-40.2756,201.5611,-31.2912,57.5771,-119.5178,-57.0303,-44.1068,67.4917,-4.4561,199.4313,-39.0288,52.0560,39.2217,53.1549,-111.7477,56.6705
-1140.6250,-125.0818,-66.1732,6.5259,339.3323,-27.6192,288.1575,18.3078,143.8683,-106.3577,66.2498,-251.7692,81.1714,-137.9286,139.0329,-209.5907,138.4660,-155.0919,-0.2162,-165.2358,19.3416
-1132.8125,-238.3840,-38.2522,-146.4669,296.3741,-179.3728,245.3653,-134.4955,100.7638,-149.6394,-50.8700,-111.8244,148.4520,-71.8010,243.2491,-32.5522,95.4776,48.1868,203.0093,-208.1386,208.5110
-1125.0000,-24.5247,-35.1418,-62.3074,299.6266,-58.9867,220.7377,-13.1673,111.8292,-102.8051,144.1912,-63.7611,85.8910,-97.5503,144.6216,-58.4022,106.6642,-159.4279,30.3790,-275.9081,32.0408
-1117.1875,-268.0153,-68.3388,-69.5298,372.5679,-101.9801,176.7674,-166.2224,178.5498,-109.3616,247.8960,-143.0478,79.9887,-139.6527,100.6661,-137.5973,210.5071,-86.3808,138.4227,-237.0443,146.4411
-1109.3750,-88.2652,42.7133,-91.5523,236.7553,-87.7792,81.0087,-79.0718,46.4801,-132.7468,41.8144,17.8543,58.2878,-15.5694,115.9096,60.3896,77.5609,59.8220,73.6528,-233.0085,70.4110
-1101.5625,-35.2211,-9.9024,33.7059,290.2949,0.6968,59.5616,9.3422,97.7287,-44.8716,203.0515,-77.9622,-1.1039,-111.2038,20.4640,-72.3446,165.9380,-168.6915,-48.7914,-214.6945,-44.5829
-1093.7500,-154.8965,-58.2333,-93.8035,171.1246,-126.5891,-30.6343,-154.0059,43.2277,-62.7921,75.5355,88.4774,19.7493,19.4186,40.2764,131.1747,112.5627,99.0460,78.0278,-158.1492,70.1383
-1085.9375,105.4453,-79.5351,41.6972,80.0153,9.1212,-41.8247,54.6384,-41.2488,-0.7415,-9.9513,150.8852,-102.3981,81.0139,-43.9143,192.6558,-9.7942,42.7421,-48.1599,-108.6130,-51.6827
-1078.1250,-122.8219,-131.4014,88.5765,133.3479,19.2037,-31.6180,27.6471,41.6794,8.6643,36.9637,-23.3083,-55.1429,17.0085,-33.6971,55.5411,37.2588,60.8475,76.0820,-126.6829,86.1314
-1070.3125,-33.8050,-6.9761,6.7083,82.9713,11.5359,-76.1637,56.9096,-113.1369,-73.7120,-154.8528,152.7470,-25.6462,157.2489,-5.2373,231.6654,-80.4311,257.1703,60.5651,-177.5209,59.1074
-1062.5000,122.9531,45.2234,170.5837,169.4053,175.6051,-59.9515,183.8858,-97.1829,15.6252,8.1061,20.5273,-46.3977,25.2226,-136.0206,26.5126,-64.3494,-8.7808,-135.1833,-161.6254,-126.3853
-1054.6875,-48.7693,-21.0546,20.9344,139.3798,63.1540,-61.2348,-38.6539,-135.7233,-23.5807,-30.4433,55.8181,-11.6466,97.6959,-27.2889,98.8685,-29.7644,136.7720,10.5814,-86.2439,10.0870
-1046.8750,67.9152,-8.9152,4.6928,45.8117,157.1033,-41.1009,129.2070,-151.8449,-3.4120,-82.5566,149.4819,-63.4918,154.5470,-43.1566,192.5920,-81.7588,77.6792,-118.2682,-75.4812,-121.2528
-1039.0625,-79.0729,-85.4091,95.7806,110.6427,175.3707,14.3908,72.3864,-60.6105,13.0648,44.6805,20.4951,-45.9771,61.7405,-98.6598,26.6673,9.6084,-34.0547,-124.7384,-82.3805,-116.5296
-1031.2500,-7.8332,-13.6801,25.0606,6.7212,67.8340,-55.9017,-34.2342,-168.1729,-58.2949,-135.8806,243.7040,-116.2636,176.1308,-57.9561,212.9369,-97.8195,178.3894,-52.0175,-45.0890,-56.7092
-1023.4375,197.9931,-88.3438,202.9374,2.4608,208.8860,-25.5782,105.7265,-138.1081,7.9142,5.1884,126.4789,-158.9431,95.0994,-138.6490,58.7713,-67.6223,-73.5934,-232.6880,-50.2075,-229.3258
-1015.6250,-69.7746,-215.5885,132.1865,-88.3607,101.3134,-20.8523,-36.9330,-96.6406,11.4911,-64.3448,92.6609,-117.2251,135.4761,-59.9287,99.0158,-26.0168,115.8307,-112.9385,34.0577,-108.1736
-1007.8125,101.5746,-218.7184,99.5421,-232.0254,179.8425,-91.0176,150.5053,-165.0559,88.1510,-206.7422,244.9258,-149.4068,213.9364,-93.1161,177.3384,-132.2922,183.3092,-257.1029,99.3914,-256.1849
-1000.0000,76.6494,-278.0842,212.6367,-149.8851,182.0940,-50.4265,152.6550,-89.7099,162.5267,-57.3783,62.9294,-146.8290,69.1364,-125.5365,33.4030,-92.8004,53.5395,-352.4950,144.4546,-340.1481
-992.1875,75.7502,-278.4195,102.7247,-184.7031,72.3298,-158.8295,43.8011,-198.3636,125.8696,-130.0144,283.9413,-182.2533,217.3380,-160.9556,253.4716,-164.3066,262.7545,-281.8892,144.4996,-284.1650
-984.3750,310.4391,-254.1439,278.4147,-160.8589,248.1507,-204.6220,145.5327,-170.3969,153.7849,7.9855,275.5274,-301.0714,208.1149,-279.7732,208.1104,-173.1865,-30.4688,-398.6827,62.1330,-399.6648
-976.5625,27.6721,-256.3018,191.6292,-126.4309,162.4983,-179.8633,-14.2163,-109.8760,67.2071,69.5323,152.6720,-203.3344,159.4477,-219.0249,159.3156,-75.5102,38.8655,-188.9054,25.3106,-188.3900
-968.7500,129.7771,-187.5991,122.7049,-163.1072,166.6976,-174.2481,62.8907,-177.4834,70.4470,-109.0446,266.6537,-234.7524,236.6189,-176.4329,236.3464,-179.9679,105.0073,-156.2969,21.3343,-159.8458
-960.9375,75.8615,-276.8952,205.7731,-110.7367,212.8757,-127.6265,147.9615,-131.0651,190.6481,11.3976,56.6189,-261.1675,100.7789,-239.8355,26.3614,-59.4015,-17.8547,-174.6682,73.3522,-163.6292
-953.1250,-92.5270,-303.6685,67.3276,-171.8321,111.5454,-156.5133,44.5246,-196.1431,160.3165,-164.6549,138.0922,-216.0902,181.4447,-158.7397,144.8855,-88.3292,269.7708,9.4607,115.8638,16.1058
-945.3125,86.9325,-228.5835,151.7407,-132.0287,232.0631,-180.5521,275.9212,-221.3454,243.8212,-152.8145,111.3878,-241.1680,155.9419,-182.8048,81.2328,-186.3786,133.2014,-162.5630,83.2162,-151.2468
-937.5000,-51.1741,-190.0401,145.5781,13.2538,116.0023,-114.1469,122.7363,-191.0871,236.7518,-122.5155,32.1371,-136.7931,75.8907,-152.4078,2.0429,-266.9612,171.0889,-54.1176,17.0097,-38.5789
-929.6875,98.5423,-75.6904,52.2202,-11.6296,23.7430,-167.9453,140.3615,-320.0193,216.4697,-287.3929,196.6776,-118.6245,130.6323,-134.2194,203.6418,-357.7280,320.7440,-44.8885,-9.4073,-43.1187
-921.8750,132.4855,-75.0935,159.1132,93.7794,93.7158,-97.4938,210.2082,-212.6842,248.4142,-105.9890,9.4515,-158.2046,17.6129,-210.7826,16.4760,-214.2251,74.6302,-185.3907,-10.5788,-172.6905
-914.0625,-69.5134,-102.4301,17.0372,33.2657,-85.2727,-129.9942,68.0909,-207.2984,142.3890,-175.5356,87.2888,-79.7464,58.6588,-95.2989,94.3756,-172.6728,292.5625,-0.8314,32.2924,4.7445
-906.2500,176.2284,-66.0141,100.7156,-0.4522,34.4932,-155.7355,261.7174,-233.1387,151.1027,-201.2937,133.8471,-142.5425,68.4353,-158.0726,103.9984,-234.3439,187.1979,-140.5318,31.9154,-132.9102
-898.4375,62.5986,-178.9473,120.0200,28.5155,16.8806,-136.8277,133.9666,-178.3109,132.4391,-108.3920,5.0480,-123.6832,13.8603,-139.1869,12.2704,-105.3482,144.4938,-78.5606,94.1884,-66.3325
-890.6250,131.3509,-144.5170,51.6768,-112.1383,-13.3802,-202.5687,65.5726,-244.1200,27.1063,-248.1193,194.5908,-153.4853,130.6291,-57.9588,201.8831,-171.9902,318.1110,-43.2536,162.8022,-42.8718
-882.8125,176.5939,-97.5888,137.8374,-64.2541,71.8426,-116.8079,151.6479,-84.4034,37.2599,-16.3094,59.6110,-103.7863,-5.1184,-82.2376,29.9766,-49.1037,-57.8009,-173.4393,102.9069,-169.6561
-875.0000,-87.6016,-10.0929,-32.4676,-11.8002,-98.4092,-66.5003,-128.7499,38.8689,-23.0569,-0.9471,36.1973,20.4553,9.6908,41.0409,43.6432,38.3416,-7.1720,53.9263,14.5543,46.9867
-867.1875,76.1640,153.3595,-68.8120,48.6483,-97.7206,-29.2360,-92.2062,77.1111,-60.4325,73.4053,73.7138,20.6496,-27.5711,42.2635,7.2360,76.7637,-124.6462,43.2207,-68.8588,29.4055
-859.3750,-70.5474,149.3663,-44.6286,185.6805,-109.5170,70.5778,-177.1463,175.9209,-73.2800,282.3263,-158.2303,119.4017,-148.2907,104.0463,-224.6238,212.7565,-235.5658,73.0865,-143.7262,66.2508
-851.5625,-84.8359,170.7862,-163.0444,137.1391,-191.9213,62.7865,-186.6818,95.1398,-156.7407,54.6652,-20.7736,185.5451,-47.6141,207.2189,-50.0822,95.1575,30.8981,164.3415,-159.2071,151.4559
-843.7500,49.3682,199.7107,-18.9504,203.1369,-47.8406,133.4937,-5.7389,91.8800,-123.7089,125.5388,-134.8423,183.1842,-160.4522,167.8814,-200.0614,92.0870,-152.1699,18.0958,-201.2018,16.6467
-835.9375,-155.5692,171.5016,-130.0211,281.9973,-230.9335,207.0323,-225.9763,129.4706,-161.8273,89.2647,-208.0450,256.6674,-197.4287,278.3858,-164.1696,166.8739,-40.3853,200.7110,-195.3549,197.0778
-828.1250,4.4623,261.2537,-172.1304,266.8366,-201.0740,202.5119,-122.2680,124.0257,-241.9730,10.9767,-67.3177,252.0891,-129.4678,273.8226,-95.3428,124.6325,-57.7046,114.2529,-212.5670,105.4307
-820.3125,-116.8757,246.6579,-121.6079,394.3480,-150.5883,253.6253,-145.9476,249.2424,-193.4639,246.3640,-274.9481,266.1618,-263.8609,250.9037,-302.8639,250.0597,-284.3808,99.4639,-228.1318,100.0932
-812.5000,-235.2888,304.9782,-244.1934,276.7689,-273.1969,241.6199,-268.7279,201.3569,-280.0583,124.6595,-139.6684,254.1174,-164.3401,312.8687,-167.4729,202.3878,-16.1715,298.5641,-205.7951,290.8001
-804.6875,-1.5009,328.4942,-104.5634,301.4146,-170.6001,234.7994,-19.3205,193.6923,-215.4515,191.1942,-221.2133,210.2599,-246.6284,232.0097,-285.9042,157.9403,-169.8003,144.8550,-219.2548,146.5194
-796.8750,-183.4121,287.3165,-157.6480,367.3607,-259.7124,219.2594,-145.6362,215.3298,-231.5569,176.0299,-309.4434,268.6894,-297.5980,290.4420,-375.0103,216.7942,-36.1230,280.4548,-190.4144,287.0132
-789.0625,-24.5960,341.8487,-165.0191,282.0214,-268.1217,175.4084,-80.2506,134.6776,-276.9686,59.5910,-170.9813,261.8067,-195.8712,282.5543,-236.4172,99.3582,52.2128,263.7415,-171.8805,263.2830
-781.2500,-55.5529,346.6343,-18.1456,393.9574,-158.3086,211.8030,-43.6487,208.2891,-205.1471,206.4235,-356.2846,261.1728,-306.9054,208.9151,-419.5786,174.1895,-190.2078,198.3066,-203.0973,209.5332
-773.4375,-183.9431,359.9828,-118.7379,302.4548,-257.9599,149.7359,-217.4979,146.4501,-232.7899,70.8170,-235.0330,236.0806,-185.3840,220.8169,-263.1736,148.5740,32.9174,422.4261,-190.7620,423.9162
-765.6250,-25.1808,378.4832,-56.1656,287.1234,-121.4649,138.8167,-45.1993,135.7784,-171.2811,97.4011,-209.6618,114.1326,-159.7307,135.8465,-237.6454,101.1334,-160.8438,264.6892,-103.2772,269.4014
-757.8125,-237.0768,343.3386,-104.2550,324.1429,-133.6423,164.2298,-167.5717,235.4587,-110.4347,160.3378,-293.9319,176.5287,-208.7176,125.2229,-284.7502,128.0446,-197.2397,300.3214,-103.4389,307.8483
-750.0000,32.4084,542.5512,-184.9833,207.5216,-177.4689,84.9855,-137.5805,45.4981,-81.2379,-65.3540,-80.8592,171.2603,-67.3605,118.9295,-108.5076,-61.6888,-69.3160,253.2838,-152.2514,240.3638
-742.1875,268.4292,639.3119,-89.1607,235.4678,-81.7745,71.2879,-42.0634,69.1089,-23.5001,31.5344,-206.2580,156.5435,-192.4734,31.1821,-270.7201,-38.8469,-290.8547,102.7979,-196.5116,92.2010
-734.3750,221.8170,698.4292,-179.9948,154.7627,-208.7548,16.9281,-206.2048,15.0750,-115.4242,-58.2204,-150.2897,103.1699,-136.2251,50.7755,-177.5641,-54.6496,-22.0432,267.6574,-139.4212,251.0662
-726.5625,572.4149,733.7422,-60.6053,85.2700,-127.5292,-11.2415,21.8486,-12.7355,-108.1477,-48.7306,-68.1437,-35.0194,-127.7894,-50.4568,-206.2287,-156.2207,-94.0751,125.6979,-140.1327,112.3281
-718.7500,453.7500,650.8072,-11.4739,144.5184,-152.5680,38.3197,-113.3811,74.2106,-134.1244,37.5215,-203.2477,14.5358,-188.5936,-0.9473,-303.1255,4.9689,-212.3526,113.5017,-154.0891,102.6144
-710.9375,414.9702,647.7341,-120.4876,72.6138,-187.7543,40.7046,-222.7534,3.0065,-207.2439,-217.3550,91.4997,52.9210,-3.5404,74.3853,-45.1611,-102.9874,-76.8092,110.1386,-157.1902,85.0496
-703.1250,507.0293,529.5060,46.3503,166.5675,-21.0991,97.9204,-166.2992,23.6675,-188.5012,-85.3448,1.0715,73.1514,-56.6485,20.5484,-172.3540,-45.0705,-336.4385,-113.3709,-171.4332,-130.0710
-695.3125,255.2955,419.4795,-77.6242,162.7046,-107.2551,47.3062,-326.6589,47.5251,-202.5556,-61.1240,-13.1346,133.5660,-70.5358,80.8960,-111.3181,-57.9491,-131.8689,57.3220,-105.4650,40.9892
-687.5000,375.3239,434.1981,-52.8209,108.5867,-46.6438,36.4241,-155.2700,0.1497,-141.8507,-145.1105,49.3942,48.7122,-8.6701,32.9598,-13.5402,-142.0525,-188.5997,36.7359,-57.7440,21.3321
-679.6875,205.1900,370.7625,-20.1746,116.3016,-14.1959,69.3697,-159.0702,70.6330,-73.2930,-1.2278,-102.2231,81.7010,-121.9473,-8.1377,-163.8931,1.7107,-324.4815,78.0048,-52.1655,69.5982
-671.8750,169.8953,406.1330,-163.7252,-58.2059,-121.9437,-0.9057,-193.0609,0.9191,-144.9255,-143.5278,83.9619,84.4724,27.5847,68.5431,22.5678,-67.7230,-114.5827,149.0525,18.2138,126.6595
-664.0625,299.8949,360.7943,10.0332,-31.4117,-20.3968,-9.8972,-56.7598,28.5209,-119.2413,31.5063,0.4200,75.5357,-55.5990,-13.4964,-97.6861,-1.8369,-301.4030,-108.6027,77.8980,-123.1481
-656.2500,30.1446,197.7013,-57.9727,-17.3881,-126.6206,30.3403,-199.2245,70.3720,-152.2937,73.7894,-67.8600,153.8324,-124.5175,100.6965,-166.6584,113.3030,-148.9534,-23.9980,194.8431,-32.7571
-648.4375,168.5589,231.7569,-51.8044,-124.2259,-157.6883,37.7057,-120.5285,41.3874,-147.1666,8.2596,10.9979,87.2578,-81.2904,108.0054,-49.4880,47.6076,-82.3933,-97.2676,262.9455,-109.6036
-640.6250,71.5024,134.3549,20.9158,-113.5326,-120.2220,74.5914,-83.3093,152.9595,-110.4737,193.3056,-135.5975,87.2240,-191.5088,33.8419,-196.7543,159.4810,-250.2833,-88.9726,270.6039,-90.9775
-632.8125,-68.6229,100.8593,-122.4564,-286.9673,-191.8578,40.3487,-192.1876,119.4282,-145.8621,87.2637,12.7209,53.0669,-42.8169,73.5537,-11.0974,126.2515,30.7192,123.2067,236.1685,110.6471
-625.0000,83.7073,41.8018,3.6359,-308.9554,-28.0504,57.5452,44.3816,174.3575,-56.7742,179.7057,-43.5403,-2.6456,-61.6887,-19.3071,-67.0069,144.4909,-170.8607,-41.1790,141.1944,-47.0085
-617.1875,-196.4592,-96.7592,-40.7929,-271.4653,-36.7659,48.2213,-74.5679,202.7845,-66.1716,208.6416,-126.2934,61.1390,-70.0477,44.3231,-112.3868,173.2323,-64.9227,99.9368,176.7334,101.1008
-609.3750,-88.5580,-93.2783,-103.1575,-372.9420,10.5811,-12.0697,46.5451,68.2705,-92.4877,74.6566,68.9964,36.9546,51.6448,56.9782,83.2785,76.0372,42.0274,33.0736,179.3320,24.8302
-601.5625,-103.4942,-142.6206,59.6832,-280.2443,100.1240,39.8127,134.8309,121.9753,-150.5843,238.9105,-63.5259,52.9653,-43.4545,-1.1894,-84.8465,166.0616,-148.8298,-85.5811,129.1409,-80.8950
-593.7500,-181.2605,-184.8087,-25.3242,-321.4404,-22.1792,27.8103,-23.7329,73.8293,-383.5065,44.3221,72.1168,78.1014,55.6162,60.7618,124.2080,156.2357,123.4613,80.9092,121.1086,80.7471
-585.9375,39.0834,-139.9032,100.7932,-345.5583,103.6255,7.8841,175.8038,54.7937,-479.2918,62.8719,87.8359,-15.6836,71.7798,-33.2262,140.3536,136.5249,-43.1807,-84.5190,166.1906,-79.1972
-578.1250,-115.2767,-188.6998,75.1945,-323.4171,41.7129,56.2198,39.6194,103.0579,-542.7535,147.7302,-11.1360,32.8117,10.2576,15.0671,77.8307,185.1185,-23.5063,7.3684,186.5921,15.8322
-570.3125,-36.3572,-109.2529,-54.1375,-348.0608,22.0617,36.7758,92.7004,-25.4273,-671.9274,-16.1365,190.1405,50.5307,137.9932,69.5692,206.5675,57.9674,160.3907,16.4843,195.2598,17.1431
-562.5000,14.6938,-92.6697,108.6880,-154.5792,74.5553,162.4505,144.9107,102.2444,-730.9221,148.1741,-15.4470,66.3871,-30.1221,85.1940,-35.5407,147.9816,-106.5704,-107.2411,176.0947,-90.0543
-554.6875,-169.2874,-100.1297,-13.5355,-161.1934,-48.0048,151.0407,-50.9288,127.8506,-816.9393,101.4279,45.9371,128.1740,31.7360,146.7421,63.3344,137.9348,60.4283,58.9832,201.8886,70.3317
-546.8750,36.9438,-34.3997,28.4706,-199.6303,29.6484,81.8090,100.4373,133.6618,-776.7151,144.9151,87.5057,22.1428,36.7883,40.4568,105.4020,107.0977,-51.4084,-50.6126,267.8835,-39.7658
-539.0625,-184.7382,-114.5834,42.5682,-104.0095,43.3888,95.6553,2.8827,221.5744,-652.3674,307.5127,-118.8252,73.1974,-58.0451,17.2538,-27.4099,196.3664,-133.1240,-25.0982,291.9915,-6.2791
-531.2500,-178.0303,-36.4225,-53.9739,-166.0773,-16.5107,71.8285,-20.3045,88.8373,-639.6382,28.4697,77.1939,86.5832,101.4775,67.3741,133.1404,63.9862,83.4958,51.7400,263.4606,60.1317
-523.4375,-20.6296,-54.5809,111.2017,-78.4690,148.2842,52.6814,107.1947,107.8189,-512.1771,84.1585,-15.1145,31.6607,45.6906,-24.8294,4.3798,82.3255,-112.1930,-107.7273,174.6393,-91.1047
-515.6250,-207.0124,-99.5427,-15.4247,-52.7143,-15.7344,36.7016,-93.1123,129.9989,-491.4876,107.0476,-32.2041,88.9216,30.1248,69.1427,-12.1452,177.8602,17.3335,163.0011,128.0294,172.1848
-507.8125,-75.6702,32.1892,-118.3253,9.7058,-82.0419,117.3934,-50.7126,210.8856,-449.0563,188.6760,-62.6049,168.8627,-72.7419,185.7752,-41.9688,223.1064,-98.4783,225.4006,-21.8748,224.3680
-500.0000,-280.6978,178.5569,-153.5814,297.7359,-190.7119,302.7098,-195.6876,398.4203,-409.9409,413.9658,-391.3562,355.4486,-328.9485,335.0407,-334.1141,411.0130,-305.6370,336.4550,-227.1151,339.9974
-492.1875,-355.2536,280.3643,-299.3866,365.1682,-300.9297,339.4528,-270.2036,289.4052,-411.3343,194.7153,-244.6474,392.4659,-217.6961,334.7335,-185.7862,302.3705,-64.3565,472.9349,-301.8869,469.7117
-484.3750,-241.4745,253.4967,-141.8306,409.9164,-106.7967,313.5281,-75.3772,300.7576,-253.3334,280.8495,-233.6111,255.8206,-206.0975,161.7437,-285.1176,241.1002,-232.7467,269.7560,-329.2897,277.3469
-476.5625,-442.6424,122.6753,-141.2276,384.6494,-143.6192,239.6097,-223.5111,301.1473,-180.2520,283.0346,-234.5072,256.2098,-169.4246,197.7802,-211.3602,278.8718,-119.0706,314.6360,-353.6162,319.0393
-468.7500,-213.2365,106.3948,-115.0477,263.8763,-117.8670,154.2001,-88.0788,181.0885,-81.5746,126.8076,-61.8600,208.1208,-70.1973,149.3186,-38.0460,158.1995,-66.8770,157.0370,-336.3673,152.2111
-460.9375,-182.6045,-2.6632,16.3849,331.2965,-59.8718,175.0024,-103.4198,203.2840,87.3980,222.8518,-187.9668,192.2602,-195.7053,60.0774,-126.4605,181.7935,-247.4278,-57.3000,-234.8387,-53.8011
-453.1250,-126.9051,-87.6872,-79.1306,140.6986,-118.8149,5.8157,-125.6997,-1.4791,249.4698,-90.0496,47.9951,60.4235,40.8586,-36.1484,183.2112,-59.5666,88.0743,-106.5930,-39.2446,-112.9538
-445.3125,210.9842,-277.5326,197.5720,-13.7362,193.4545,-196.1980,260.2244,-238.0388,524.7914,-253.7115,176.1337,-214.2350,169.6180,-348.2119,239.0772,-333.7151,107.7561,-473.6933,157.5715,-464.0092
-437.5000,100.2183,-529.0375,286.6216,-123.8803,209.0658,-402.9058,238.4854,-406.2585,650.5008,-348.0245,228.6362,-310.5630,259.7523,-443.9533,291.3286,-390.5197,346.8173,-408.4316,292.7571,-393.4557
-429.6875,273.8283,-565.2045,329.0521,-300.7289,288.0488,-507.2937,353.1176,-583.1284,656.6082,-559.9674,454.4897,-414.5659,412.2486,-475.3856,517.9371,-493.9737,485.2044,-409.8501,256.2996,-403.7789
-421.8750,294.0156,-649.7949,492.0955,-209.0295,413.6363,-492.1094,405.3302,-493.3885,745.3549,-396.2879,321.9348,-472.9799,354.3515,-534.2410,350.1627,-403.8219,223.1939,-530.6656,171.4491,-515.5048
-414.0625,182.3184,-692.2971,333.2438,-322.2969,291.3319,-542.8539,245.6541,-541.5634,769.2449,-480.5181,419.4980,-449.3173,415.5835,-511.0241,522.5241,-414.5802,461.2980,-361.3922,164.7107,-359.0197
-406.2500,368.1684,-681.2719,387.9652,-381.0549,381.5965,-598.0743,446.5345,-522.1845,898.7390,-423.1706,437.5936,-541.1175,397.3627,-603.2900,504.4357,-431.7769,294.9235,-526.5935,244.5390,-523.2314
-398.4375,95.2604,-814.0136,386.9239,-337.6248,344.0982,-564.0795,334.6475,-450.5650,969.5252,-312.5699,288.9516,-506.6816,323.4117,-606.3280,392.6313,-358.7210,301.8251,-413.5413,359.6402,-399.4571
-390.6250,190.4879,-718.6691,310.9975,-453.1573,266.7111,-604.0148,367.8862,-524.8503,931.4622,-459.8542,432.4107,-546.1667,430.5650,-572.2991,537.9382,-469.5625,501.8115,-388.4158,383.8599,-383.0481
-382.8125,312.7010,-666.3552,437.0789,-330.7476,356.3208,-551.9721,456.1205,-471.1288,947.4506,-332.1195,226.8527,-567.6650,299.7124,-594.2950,370.2494,-379.3971,269.8041,-513.2884,330.1079,-498.8441
-375.0000,178.5808,-519.3983,366.8065,-288.7555,249.5697,-550.3093,239.0158,-504.7700,803.1333,-400.7431,302.9585,-491.5299,339.5270,-518.6659,410.2458,-411.5984,416.4732,-330.5114,231.0282,-324.5547
-367.1875,382.8154,-350.1065,369.9101,-225.4561,324.1803,-511.3162,313.2749,-538.0563,769.2168,-395.9880,379.3959,-452.0630,379.6884,-516.7242,450.5839,-481.4445,232.4707,-442.3997,49.3136,-447.2709
-359.3750,95.0799,-391.7825,353.0593,-91.1671,270.8343,-382.3067,149.5680,-370.2983,715.3870,-190.1770,178.8893,-359.5555,253.9168,-424.7534,286.9995,-239.2386,49.5427,-344.2262,-28.3313,-344.8222
-351.5625,-4.7359,-420.5737,146.1282,-226.0439,136.4137,-369.4343,88.7808,-355.6455,656.5031,-248.4478,301.2931,-346.1760,304.0669,-300.9184,411.3354,-224.1343,264.5013,-197.1791,83.9427,-206.7166
-343.7500,88.3342,-502.4920,212.1180,-202.0794,201.9081,-341.6971,262.8801,-179.0852,758.5699,39.2156,108.5819,-428.9151,148.1206,-384.2173,182.5737,-121.1111,5.3473,-350.2393,282.1393,-344.4312
-335.9375,-54.3846,-576.2264,130.3063,-205.9969,83.6074,-388.8012,107.1754,-150.3356,712.8818,-40.9286,100.0957,-364.4792,176.4063,-357.3484,211.0546,-91.9029,176.4209,-212.0891,420.5539,-205.1758
-328.1250,152.4656,-510.4230,137.0787,-315.4196,162.8854,-419.3919,224.0442,-179.0424,720.8008,-105.5029,217.1501,-431.5212,258.2473,-387.9763,329.0895,-194.1477,137.0255,-322.4034,451.5266,-321.5836
-320.3125,-41.1123,-528.0341,183.4582,-228.3037,245.7577,-374.4182,158.4988,-58.1554,693.3660,126.5273,41.8113,-385.9789,156.7018,-417.0270,191.7522,-72.7991,-92.7468,-269.1013,399.1160,-261.2032
-312.5000,-126.0709,-402.0572,-12.5503,-313.6616,121.2493,-425.8748,33.5713,-107.6771,606.5788,4.1629,211.0880,-362.8625,253.7825,-321.5106,363.0436,-121.8597,102.0814,-73.2205,349.3179,-82.2950
-304.6875,52.7085,-328.3658,103.2149,-205.3259,200.5064,-347.5995,186.3889,-64.4383,650.5891,84.5771,70.0959,-358.0060,113.6126,-353.2686,222.0831,-78.1564,-106.3555,-210.6008,211.2845,-212.6619
-296.8750,-97.5197,-302.6908,47.9713,-109.0646,71.7660,-331.3515,-16.7956,-46.2139,594.6382,68.9751,-22.8779,-267.1609,58.4715,-263.0368,131.1616,-22.4604,23.2416,-44.9841,167.2666,-46.7521
-289.0625,126.8208,-253.4926,0.3042,-201.3084,96.6060,-305.5758,118.5954,-129.4493,511.2962,-87.0652,112.6943,-277.7840,157.8901,-238.2916,193.7986,-105.2173,141.3680,-66.8562,110.8220,-73.7178
-281.2500,87.7841,-293.6759,101.2837,-171.9623,161.0966,-206.1749,145.6208,8.9603,539.6562,15.5452,-117.0787,-251.7625,37.9738,-211.9119,-34.8931,-3.3261,-5.8435,-106.0772,107.0531,-99.0740
-273.4375,-20.4804,-261.1172,-45.9867,-314.9360,49.3451,-209.0528,33.4074,-64.8932,428.8216,-130.1021,27.9142,-180.0084,148.8216,-103.8096,111.2011,-76.6952,237.7012,102.4358,105.0536,97.5364
-265.6250,166.6989,-145.1264,46.2120,-340.5094,142.0441,-155.5052,198.6476,-46.2869,411.4919,-37.2572,9.3384,-198.8177,94.1067,-198.2919,93.7422,-94.5980,71.6709,-62.6115,45.5211,-66.2156
-257.8125,-47.7824,-113.8040,31.7413,-274.8054,53.0708,-133.6356,-0.7739,14.6674,361.5517,61.9404,-77.8790,-140.2861,6.7525,-139.4314,6.6652,3.8500,101.0209,72.7098,6.3659,69.4281
-250.0000,16.9540,-48.3082,0.4899,-385.9631,21.3067,-130.5857,4.0319,-54.1764,330.8625,-42.6439,73.1007,-99.5750,122.5974,-62.3967,159.7927,-101.4977,165.5634,33.2082,2.4330,17.4814
-242.1875,16.5660,-49.9476,105.1429,-317.2765,52.4449,-27.6544,70.7347,50.8822,362.1212,137.6821,-118.0332,-32.9718,-30.6540,-70.4829,-67.1783,41.0593,-82.9767,-107.3877,-33.5717,-115.0265
-234.3750,-85.1614,-11.9518,-41.5496,-351.0154,-58.7486,-30.1025,-112.8957,14.5778,252.0738,-7.3509,-45.4993,39.2586,5.7719,38.0529,6.5334,6.2480,130.1562,69.6593,5.0957,55.0679
-226.5625,103.2057,36.1173,17.8827,-337.7084,37.1884,-8.4743,55.5879,1.3732,239.1791,16.7466,-59.8814,24.5754,29.3027,-14.3449,-6.6564,-44.4574,2.3669,-57.2092,-16.1235,-69.5359
-218.7500,-119.4010,-44.7825,-3.6407,-245.4231,15.1759,79.1735,-40.8944,90.2112,181.3757,106.8861,-191.1938,75.9297,-64.0918,36.2941,-136.7583,45.8820,-11.3454,70.9873,-27.2789,69.0716
-210.9375,-66.8398,6.4535,-85.9947,-334.0541,-31.6648,67.9477,-14.2096,44.1977,99.7732,-84.8191,-55.3462,65.4163,35.6786,99.0571,37.3098,-36.6318,182.0794,124.3126,-44.2811,116.2322
-203.1250,33.9502,71.9163,17.9164,-199.4881,35.7507,96.9524,89.7154,112.4364,131.4673,95.7422,-209.2578,58.1468,-117.2981,17.0486,-152.3677,32.1123,-70.2416,13.8875,-83.0280,14.7024
-195.3125,-137.1044,110.5214,-129.0278,-232.8422,-112.6745,20.0798,-133.2047,148.8108,57.3565,132.4415,-137.0027,93.0090,-45.0958,87.1758,-42.8613,67.9902,37.6111,192.6127,-113.6118,178.6435
-187.5000,34.4943,106.7487,-87.2957,-307.5989,-33.4164,24.8354,-54.4532,118.8335,64.9493,177.8142,-58.1144,61.5084,-1.2446,54.9249,38.2875,112.5221,-107.9009,13.9649,-82.5308,-8.2677
-179.6875,-139.6358,37.2499,-59.2675,-272.1212,-6.8552,86.8669,-174.4104,219.1478,55.8805,390.4799,-251.9147,124.2961,-120.0706,80.9593,-154.2359,287.3508,-247.0779,14.6324,-45.1378,-1.9043
-171.8750,-137.0461,146.4368,-197.5257,-376.0038,-109.5655,18.5734,-240.6430,154.1481,-8.4442,215.8445,-97.9977,130.7671,-2.1721,123.6664,0.9662,222.8633,-34.5604,122.9828,-6.0434,94.1364
-164.0625,-36.0823,175.9974,-54.3698,-347.5326,34.1376,50.6637,-98.4888,188.5545,62.6792,324.6313,-212.6899,89.6262,-78.8718,7.7512,-149.4250,220.7831,-285.6559,47.7374,24.4621,29.7953
-156.2500,-320.1228,137.5425,-173.2342,-316.1332,-85.1643,112.7319,-255.3352,252.9521,17.8509,317.4059,-258.3634,152.4709,-86.5498,106.8271,-119.7745,212.6954,-114.7282,220.4955,21.9923,205.0747
-148.4375,-178.1578,103.0677,-161.0852,-386.7870,-36.4491,123.7850,-134.1603,192.3551,-4.9158,258.2012,-100.0503,127.3043,-1.2346,117.8818,2.8697,152.6143,-114.8222,116.2273,-10.4540,95.0851
-140.6250,-299.3181,16.4721,-113.0409,-264.5907,11.1539,169.7214,-160.0933,314.6496,7.2608,417.8878,-272.8371,174.0398,-100.0169,126.8330,-131.5755,311.4333,-306.9796,64.8721,-96.9899,50.7613
-132.8125,-343.9980,76.3211,-230.5374,-381.0004,-107.7912,123.0866,-315.5470,233.3687,-73.0755,265.0136,-61.1562,202.2148,2.6555,190.2145,80.4494,267.6817,-106.6613,195.9586,-106.0689,164.8762
-125.0000,-118.5367,161.2981,-100.8594,-332.3022,-14.5843,140.5852,-149.8410,253.2437,-88.2213,360.3056,-115.3384,146.5295,-87.5290,97.7231,-45.3826,251.0827,-304.1914,70.1926,-124.9896,46.6406
-117.1875,-314.8829,140.4588,-129.9899,-284.4695,-154.1843,145.2630,-289.9381,260.3077,-79.1364,405.7849,-219.2999,189.0333,-153.4909,139.4239,-110.9769,295.6731,-184.4889,224.6403,-73.6972,204.5576
-109.3750,-118.6248,231.2008,-172.5041,-371.0892,-160.1510,64.5297,-186.4099,181.9735,-47.4044,218.8757,-78.6629,146.1241,-48.8447,132.7036,-5.9673,217.8620,-95.2116,174.6661,-53.7985,146.0183
-101.5625,-133.3110,181.0201,-119.9204,-281.6571,-71.0028,78.8837,-97.7974,235.7351,7.4636,310.0715,-245.9295,161.3118,-178.0854,73.0799,-171.8490,309.1547,-249.8193,124.8028,-31.7872,108.4326
-93.7500,-253.4833,200.3307,-280.8375,-298.7804,-160.3348,61.7234,-187.6720,109.9819,-43.1280,149.7496,-115.6792,144.9863,-46.8043,129.9432,-3.2095,146.9290,14.0908,356.4312,-11.2649,334.4668
-85.9375,-24.3089,252.9661,-144.3829,-248.5916,-60.2974,48.9029,-14.1839,63.5797,-15.3224,177.7908,-53.0930,59.0056,-57.1789,6.1402,-50.2341,101.0543,-108.6555,198.3993,-63.3878,180.5390
-78.1250,-215.9385,271.7873,-61.7339,-160.2590,-124.0678,20.2695,-152.5026,73.3628,-41.2901,189.0059,-118.2860,104.2204,-119.3326,14.5412,-76.0266,148.3648,-91.1645,322.5827,-148.3108,307.8902
-70.3125,-29.5441,387.6009,-78.0679,-187.9708,-104.8191,-72.3726,-133.7973,-89.8613,-56.2204,-9.7707,122.5258,50.4230,10.5148,31.9232,128.1888,-14.3281,24.3111,297.7436,-243.2314,269.0972
-62.5000,57.3151,367.8963,9.0974,-32.2185,-18.0691,-24.5207,-47.6087,-39.5789,-3.6200,151.9662,-49.1749,25.1313,-123.1390,-30.1993,-78.0942,36.4852,-170.7062,173.4156,-260.6428,157.0351
-54.6875,-99.7802,246.2318,-155.6968,20.5350,-110.2609,28.3713,-177.3601,-58.2564,-94.9406,61.7344,-30.8078,78.8833,-67.7256,96.7276,-22.2998,18.3303,59.3492,298.1422,-204.9908,282.9818
-46.8750,86.4135,184.8482,-63.1736,27.5646,18.8669,8.5657,25.2056,-38.6323,-36.9216,45.8220,-13.1617,22.9332,-48.0225,39.9427,-39.2248,1.4765,-38.3083,96.1563,-195.0289,87.4205
-39.0625,-103.0667,30.7977,-13.3126,117.9007,-4.6651,19.1035,-72.8903,48.3338,-95.5317,171.2419,-111.1535,71.3371,-107.9587,13.5144,-171.7867,125.9680,-51.5752,118.5433,-135.7056,121.1776
-31.2500,-36.6223,60.6424,-83.5387,76.0992,-112.2815,-15.4626,-107.0575,15.1899,-164.2042,-7.4467,75.7645,37.6280,6.0095,51.9719,-21.4419,19.3487,154.0545,148.8128,-70.4820,146.0134
-23.4375,30.9457,22.6151,62.3926,212.4196,-40.7417,90.1131,0.9219,50.2004,-90.6952,102.0202,-111.1779,34.0710,-105.8768,47.5769,-206.9496,54.8829,-60.1642,6.2424,-72.1040,16.9442
-15.6250,-182.1358,-15.0716,-54.3431,243.0384,-120.8507,118.0308,-153.7414,44.5487,-168.8146,-85.1821,-80.7471,99.8614,-75.3959,149.5364,-139.0730,49.7540,147.9953,145.0289,-2.3749,158.0311
-7.8125,23.3798,48.8257,-12.4656,199.2335,-5.3475,121.5556,35.2134,-23.4925,-162.3023,-115.7658,34.2676,67.2493,-33.3297,116.0894,-58.6093,-54.7694,35.7391,-2.5987,-43.0448,6.4405
-4000.0000,-32.8036,-1.3607,41.0417,18.6464,44.1137,65.5415,20.7432,3.9944,-57.0373,-5.0136,10.1253,53.1275,-56.6871,74.2088,-92.5004,-19.8057,-12.7523,-7.1673,-42.1236,-2.0738
-3992.1875,35.1605,68.0911,-30.2766,-122.3863,-64.8947,-76.3536,-88.6027,-66.4359,-93.7457,-113.0700,157.7980,19.3337,53.7960,77.8031,126.2372,-55.0574,196.6898,97.9488,-45.6243,86.0882
-3984.3750,209.1063,68.5552,116.4023,-86.3869,45.0796,-74.2054,58.0485,8.1649,-22.4684,33.8961,46.4438,-52.4413,-21.7491,-30.5847,-24.0590,-18.2898,-51.8938,-42.9286,-83.1441,-46.7891
-3976.5625,-6.4409,31.5782,31.6198,-16.7899,-77.4339,-45.4655,-101.7850,-1.6425,-34.6711,-13.5622,-2.3960,-24.6411,1.2232,33.5975,-73.8469,8.0583,120.0627,130.7772,-53.1354,129.7986
-3968.7500,152.2046,52.8301,26.0215,-65.9697,27.2185,-49.4964,2.5586,-117.2320,-43.7032,-128.8187,137.9634,-65.6241,140.3904,29.9989,63.5551,-108.3906,104.2229,80.7103,-105.9533,72.6487
-3960.9375,-64.6572,-21.3862,87.9330,107.3954,124.3505,15.0110,-10.6105,-17.2901,-22.2503,6.4558,-22.2181,-40.0847,16.0166,19.9171,-97.5890,-9.3151,-77.1618,113.1517,-146.3051,120.2625
-3953.1250,-194.7530,-6.7682,-43.3822,51.5961,-7.7666,70.3582,-143.0246,-73.5224,-118.0246,-87.4674,103.3770,15.2867,140.4198,75.6693,99.0470,-66.4205,145.2559,196.4295,-136.8805,193.7006
-3945.3125,-56.5907,-6.8620,106.5510,123.0794,68.3424,259.9964,5.8036,-70.4816,-44.5694,62.8630,31.2052,-17.0738,30.0529,-67.3124,-49.0955,-27.2627,-68.0989,-14.0468,-175.2319,-6.4680
-3937.5000,-306.7994,-9.2714,-14.8694,191.2632,-127.9285,361.3263,-226.7512,30.2376,-94.4903,124.8602,-127.3631,120.2464,-92.7018,70.3764,-99.6378,108.5636,-1.8186,264.1518,-249.9589,269.4717
-3929.6875,-312.3127,200.0692,-149.6101,260.1799,-263.5380,488.3883,-289.6319,154.6680,-268.7413,138.5453,-79.2400,245.2882,-119.7674,269.7843,-90.4952,196.0878,-111.8254,473.0800,-466.0098,464.6802
-3921.8750,-495.9680,371.3026,-228.4943,572.9907,-380.3209,853.3351,-443.6652,480.9702,-387.1487,501.0947,-418.3104,425.1967,-458.0208,450.0521,-429.5483,484.4748,-540.0131,573.8580,-650.2297,571.7925
-3914.0625,-666.8471,519.3721,-476.6068,616.6422,-665.3541,939.1149,-691.9350,602.0896,-563.7728,585.4387,-409.6088,509.9331,-488.4997,572.1409,-350.8269,494.6744,-360.3892,827.4774,-646.6669,815.4513
-3906.2500,-506.3132,542.8844,-370.3273,674.7192,-597.0136,938.3177,-476.8055,636.6226,-571.0123,655.1892,-488.5186,508.0784,-531.5912,570.6388,-467.7178,454.2833,-480.3837,708.4962,-627.7252,706.4241
-3898.4375,-713.7471,514.4752,-263.0024,822.8903,-636.6494,975.6058,-591.6533,672.2415,-612.2200,543.0189,-638.4207,691.2968,-609.6680,717.2026,-620.6014,525.9743,-371.3633,750.5690,-764.7521,758.9524
-3890.6250,-473.1365,688.1562,-256.6532,821.1303,-632.2747,947.9692,-512.4837,495.9283,-719.4051,180.8907,-450.2820,736.5822,-496.7043,799.8411,-471.4397,347.7220,-199.2821,641.7184,-841.7461,642.3500
-3882.8125,-411.6115,681.7740,-119.3985,886.3034,-497.0195,977.2644,-450.4190,523.5441,-658.7005,355.6854,-609.2787,727.7763,-582.8684,681.3809,-667.4204,411.3921,-419.3375,459.7720,-744.8633,471.3423
-3875.0000,-584.0601,653.4758,-228.1106,787.5544,-532.7602,834.6301,-523.3387,453.2353,-621.9589,247.5418,-535.2566,658.0368,-473.0092,610.9827,-486.3768,340.1312,-169.3326,640.9075,-602.9436,650.6373
-3867.1875,-368.7852,695.9175,-139.1316,655.5264,-370.8270,669.7101,-251.5612,359.6396,-462.5209,227.0902,-447.5494,492.0014,-386.4601,482.2805,-436.6418,246.5698,-269.6258,507.7505,-528.3377,515.8201
-3859.3750,-495.9120,606.9867,-96.5559,708.1406,-366.3217,641.4172,-394.1995,440.6693,-422.4880,417.2627,-553.2861,499.5786,-456.3423,453.1823,-508.3480,362.6282,-396.3461,524.2037,-515.1448,533.2691
-3851.5625,-447.2495,517.8989,-187.2121,548.5836,-421.0570,553.9441,-449.0700,388.5068,-405.6760,290.2227,-314.2292,447.9776,-292.4291,438.9089,-234.2612,346.4893,-242.2509,469.4831,-468.1740,462.5707
-3843.7500,-276.1633,411.2468,-121.4685,548.4619,-282.4089,549.8981,-310.5405,455.7594,-305.4678,430.5855,-359.8009,368.7874,-376.1344,286.0373,-318.8025,412.7652,-492.7799,186.1475,-367.8199,185.7370
-3835.9375,-446.8917,349.8276,-271.5368,486.5764,-397.6039,476.0739,-497.8452,417.2379,-347.0743,355.1621,-253.2087,367.8139,-270.6658,359.3696,-177.1679,410.2666,-346.1162,299.0309,-292.2767,287.4728
-3828.1250,-235.5494,388.4988,-297.5714,385.7518,-277.7809,416.3116,-380.1150,355.7788,-303.6375,328.7859,-171.5720,269.8946,-189.1572,334.7580,-97.4833,310.8234,-416.4006,231.9654,-257.6919,213.5983
-3820.3125,-395.6483,301.7435,-217.0524,440.5150,-234.4274,390.1219,-373.8486,437.8936,-261.6519,446.9799,-348.4285,279.5365,-295.1234,308.7021,-240.2861,355.9471,-434.1639,179.4483,-172.5739,176.5550
-3812.5000,-256.0068,268.7676,-286.8111,232.0572,-232.3664,213.7029,-333.8652,296.7615,-259.9361,193.9047,-162.5394,211.9504,-109.3440,241.4162,-55.3408,212.8216,-84.1616,180.7158,-33.7295,171.7306
-3804.6875,27.6650,203.8369,-62.5711,202.6371,-46.3176,183.2983,-74.8803,227.6340,-185.2289,161.8277,-197.6708,106.3648,-108.5773,100.1247,-165.4129,143.6989,-187.1781,-96.0182,2.0936,-91.6252
-3796.8750,-159.2276,91.3890,-81.8888,160.6956,-66.8520,130.3579,-169.4727,135.9730,-170.0857,68.2112,-145.3904,126.2378,-20.3787,119.2818,-79.0577,87.0453,-21.7451,-33.2751,26.3606,-29.8553
-3789.0625,55.1454,27.2224,-33.9706,27.0124,16.8358,33.6736,-48.8209,38.5632,-125.6967,6.8171,49.1386,-7.6380,98.0733,-14.3086,113.5503,-48.3617,16.9599,-168.2674,98.8720,-169.4022
-3781.2500,15.2337,-80.2298,60.6507,96.0653,37.2097,22.7069,-65.4650,135.8706,-68.6015,176.1347,-77.6666,-57.8082,7.2002,-64.2039,-51.1749,47.9444,-128.6581,-240.5693,128.0776,-232.2950
-3773.4375,-16.8851,-73.8584,-118.9529,-38.0588,-142.6619,-43.4528,-135.3362,30.9849,-140.7081,-38.7495,109.3123,-51.1674,120.1168,16.7012,169.9010,-20.9422,191.5420,-94.0451,165.0778,-99.1925
-3765.6250,226.6807,-71.7958,68.0890,-106.5145,-31.9119,-110.9675,123.4524,-1.2477,-31.1563,-35.9806,72.9273,-119.8804,119.6715,-161.7586,131.6191,-17.1747,13.3847,-269.8753,162.7201,-270.1487
-3757.8125,20.6450,-170.3073,98.5290,-203.5341,-75.7916,-186.0792,6.6189,-5.0685,-2.2047,-39.7959,66.9038,-122.1849,147.6056,-164.8212,123.7169,15.0061,122.6212,-193.2956,270.7520,-191.8616
-3750.0000,237.4247,-158.9895,116.7505,-368.7397,-22.8976,-275.3910,95.5668,-132.0954,49.5387,-168.8397,266.6876,-175.6868,237.3498,-181.0808,247.6253,-113.0133,235.6789,-288.9058,311.5752,-296.8950
-3742.1875,298.2274,-165.6620,248.9840,-268.9253,70.9936,-286.6973,153.5154,-72.1108,105.2898,1.1331,65.4480,-188.1917,109.0852,-304.3550,46.5141,-17.0185,14.7106,-331.5367,301.3945,-328.3284
-3734.3750,231.3737,-157.9736,142.5470,-401.7470,1.2034,-389.6520,44.7864,-176.7724,107.3935,-104.5498,178.5449,-256.3450,221.1720,-334.2819,229.7591,-85.6624,301.1060,-149.7997,339.5635,-155.6128
-3726.5625,381.0548,-216.7642,232.6028,-460.0594,161.8963,-443.1128,280.5636,-194.9368,231.0065,-124.7446,193.1388,-385.0036,234.7634,-389.7219,242.5136,-142.8130,204.0016,-314.5712,382.2373,-313.9155
-3718.7500,33.5792,-384.6867,154.5018,-416.4896,120.4153,-370.7235,202.1824,-124.2400,335.4802,-54.0751,41.5454,-275.8069,155.1833,-280.3265,199.0979,-72.0939,208.7388,-201.4893,384.7690,-195.1266
-3710.9375,-16.2390,-394.9322,3.0290,-461.2620,77.5535,-334.6976,233.4439,-199.9022,365.6079,-315.7805,218.6042,-240.9595,332.2637,-208.2852,375.3481,-222.7366,335.1582,-142.7445,440.9551,-142.6927
-3703.1250,104.2309,-271.9091,53.8191,-301.7665,199.9389,-243.4293,282.9683,-147.3213,414.0022,-227.2384,46.8927,-224.8704,232.5862,-266.0069,164.8422,-208.1265,68.8051,-266.7638,383.3855,-259.3096
-3695.3125,66.5979,-128.9811,-59.5107,-300.3557,84.1965,-244.2729,56.3654,-112.8395,260.2998,-266.7945,115.0627,-189.8776,263.8108,-230.8337,231.2405,-211.6052,207.3658,-160.8621,345.7212,-163.2854
-3687.5000,395.7909,-8.2392,35.9484,-354.1426,106.2440,-290.3407,225.5679,-124.5647,317.4068,-206.5596,137.0395,-311.1004,247.8513,-351.8852,214.4530,-224.2839,78.7441,-322.1632,356.8699,-327.8603
-3679.6875,325.6469,-73.8380,100.0686,-349.2562,-14.0613,-296.7746,141.4337,-58.6418,343.1807,-67.6703,16.6336,-281.6796,89.5306,-322.3139,92.2948,-122.3068,45.7729,-248.8252,355.6835,-251.7355
-3671.8750,386.6717,-45.2771,-13.6740,-460.2178,-129.2428,-333.0778,100.4507,-170.5930,300.1095,-217.6754,231.3795,-283.1176,229.3754,-249.5955,305.3082,-198.1955,176.0029,-185.3250,345.6612,-206.0401
-3664.0625,433.5909,-134.8592,145.4471,-339.3267,27.4267,-245.5451,184.3466,-120.7089,272.9049,-94.8418,93.9652,-269.7203,128.0704,-236.0510,129.1744,-149.2400,-57.9216,-346.9906,321.4991,-353.6115
-3656.2500,197.6598,-227.2867,40.7064,-289.2779,-78.7780,-199.8853,41.3845,-113.6746,202.8650,-199.8577,98.6849,-225.1840,168.9178,-191.3849,169.1955,-106.1249,129.3176,-158.4907,330.5087,-161.6532
-3648.4375,371.6682,-189.7978,85.8462,-358.3468,0.9058,-298.3620,195.3352,-176.7568,281.7525,-189.9931,179.3204,-324.7714,210.6841,-290.8524,284.1500,-170.1201,91.4733,-228.1001,327.4509,-235.6369
-3640.6250,239.2523,-178.7509,86.5310,-274.8550,37.1359,-331.3092,157.8445,-64.2888,353.2213,-42.5649,31.4789,-321.8195,98.9959,-361.7945,134.6494,-95.5621,-4.8369,-182.1845,299.9660,-182.1281
-3632.8125,250.4951,-164.0430,-44.1576,-330.7144,-58.0054,-421.6277,98.9910,-156.1942,257.3459,-171.5155,229.2928,-303.2246,222.9785,-269.0959,294.8268,-152.3625,216.5402,-63.6035,239.1449,-77.7603
-3625.0000,315.1344,-201.9713,100.5211,-227.2149,85.2116,-346.6217,206.5083,-156.7691,289.8329,-62.1327,152.4609,-229.3056,145.3268,-268.0874,142.3655,-78.8206,-34.7276,-277.6907,196.6780,-285.7446
-3617.1875,64.0363,-273.6535,52.4603,-193.4556,-0.3268,-318.3929,10.2667,-130.1108,239.5871,-73.5093,139.8687,-128.1479,168.9345,-204.8546,128.1554,-17.0294,65.2738,-175.5304,225.4758,-183.6972
-3609.3750,201.7837,-237.5313,60.1917,-332.9040,78.9231,-306.3965,127.8330,-156.6860,245.1560,-138.1226,256.0910,-228.2057,247.3689,-230.8401,316.7832,-81.4585,63.1127,-315.5822,222.0955,-329.5098
-3601.5625,124.6235,-276.3636,119.9874,-230.2932,101.2266,-244.3701,112.4688,14.7799,265.8008,105.3099,57.3425,-277.2278,84.8525,-279.8043,153.4602,53.1671,-120.0088,-356.6160,213.7845,-358.5951
-3593.7500,-11.7346,-269.4022,-93.4295,-292.8896,-4.6849,-271.5737,-29.0990,23.0233,233.2641,2.5216,171.3927,-268.4617,198.1553,-196.9912,265.9679,23.5922,94.7120,-173.8461,252.2973,-185.5149
-3585.9375,155.8532,-203.5387,-58.9352,-191.5998,138.3171,-269.9167,151.2660,59.1391,302.6548,110.6198,131.3544,-268.8238,120.3824,-344.3171,150.4001,-15.1032,-123.6514,-321.1969,242.7263,-325.9931
-3578.1250,-31.2539,-211.3862,-118.1320,-164.0035,78.6272,-288.9920,-18.0570,38.5308,315.3709,127.0126,35.6026,-177.9064,133.9247,-364.3746,126.1359,37.4965,-64.7026,-189.2439,265.4758,-196.2519
-3570.3125,172.0686,-180.8296,-116.9352,-274.0225,77.3387,-321.7099,54.0362,-31.7192,314.5091,-55.2439,218.2763,-211.6149,242.9021,-397.0690,271.3148,-107.5294,32.6945,-194.8898,221.6523,-209.1087
-3562.5000,134.6435,-285.0776,61.4781,-166.8475,180.2637,-251.2649,85.3657,37.2102,306.8849,86.6913,64.1372,-252.1551,125.0881,-438.6143,78.7062,34.6407,-144.7077,-195.3653,148.0568,-194.1771
-3554.6875,15.1250,-261.4377,-26.2216,-142.7819,93.0733,-261.9619,-3.4016,-48.9854,181.1845,-110.4895,158.8985,-189.8118,218.1923,-339.2836,172.0278,-89.2972,156.8302,3.0634,98.3995,3.6461
-3546.8750,256.6566,-262.8089,88.0896,-107.7361,204.8962,-254.7022,256.8630,-153.2186,256.5092,-179.7058,161.6810,-220.4932,183.3276,-369.9773,173.3850,-157.2590,82.3929,-175.5392,20.7763,-170.2948
-3539.0625,36.5632,-303.8502,33.7641,-43.3430,149.0776,-196.1321,127.5009,-59.1273,236.2155,-123.5797,31.8026,-125.8486,90.8240,-275.3681,79.1038,-64.8743,73.3238,-111.8094,46.5388,-102.0463
-3531.2500,90.8070,-211.6050,-118.2767,-125.6793,105.5514,-235.3127,157.4532,-99.7807,229.2520,-239.1830,171.2469,-165.9350,192.6533,-242.4975,217.1759,-106.2077,233.6077,-125.7825,99.6423,-126.1057
-3523.4375,138.6056,-230.8765,39.1967,-74.5263,188.5479,-184.0360,241.9465,23.0374,275.8253,-43.2951,-37.8063,-189.5592,55.0036,-302.1764,5.7660,-20.0543,-35.6009,-217.2910,146.2825,-204.1366
-3515.6250,-48.4801,-204.0728,-49.2306,-118.2879,61.6453,-270.7037,5.5509,45.9259,221.5289,-58.3321,55.2441,-167.1027,110.4797,-242.7825,133.4828,-71.8107,128.3293,-15.7089,169.0579,-11.9131
-3507.8125,180.4416,-183.3298,15.3019,-167.1262,124.7046,-313.4726,142.1431,37.7241,248.2116,-29.4579,154.2707,-209.7298,99.9427,-286.4799,196.1993,-116.6450,6.2460,-172.2089,150.8200,-173.3192
-3500.0000,-15.6976,-201.7033,21.7578,-44.0673,56.6867,-268.3854,73.6600,45.3936,251.8331,123.3131,-24.8130,-129.4823,-42.6821,-279.3261,52.8293,73.4127,-83.9340,-120.8465,163.5155,-117.3466
-3492.1875,32.7457,-78.5407,-141.2462,-61.4880,-70.7798,-317.8040,19.7300,-42.4313,161.0298,-39.4076,141.6795,-105.7062,12.2882,-182.6517,181.0632,21.9970,105.4880,0.0574,141.7993,-9.8981
-3484.3750,165.7484,-13.8967,-2.7356,37.5750,-43.7154,-212.7715,158.3438,61.1987,151.7646,136.3416,-50.3151,-111.4634,-143.2097,-188.5262,-13.1698,88.0655,-113.5777,-182.5777,62.6188,-182.1116
-3476.5625,36.3194,-71.7308,-69.6737,16.1698,-186.0905,-167.2418,-93.4772,104.3416,46.0818,143.6195,-46.7524,-67.7031,-139.1234,-70.8953,-9.8172,131.6729,71.9448,5.3300,37.0281,1.5588
-3468.7500,225.2929,-55.2295,-42.2662,-71.9160,-87.1020,-174.4293,6.0893,58.7867,-2.2196,60.2157,89.1942,-75.6357,-3.6420,-77.9655,161.9435,85.6012,-19.1327,-84.4349,-56.1680,-98.7394
-3460.9375,-1.7409,-102.7928,-28.8893,54.9398,-2.1448,-84.7167,-90.3556,147.1481,45.4684,183.7607,-44.9174,-23.6471,-65.1994,-63.1341,24.6708,246.4648,-245.2490,-64.2834,-108.3750,-73.6822
-3453.1250,-145.4939,-104.1272,-247.2634,-14.9843,-37.9349,-117.8185,-199.5319,149.7075,46.4370,38.5174,65.2469,-56.4396,117.5305,-23.0919,281.6987,175.5497,-109.0570,109.1119,-42.2785,89.3851
-3445.3125,-138.3332,-200.6460,-162.7569,28.9019,120.1600,-67.1357,-42.8038,236.0677,167.2985,161.0972,-34.7155,-117.4294,54.1528,-48.2592,180.6207,187.4590,-312.9903,11.3119,-37.2750,3.6757
-3437.5000,-381.9563,-160.0118,-239.0359,104.9623,4.4821,5.6864,-155.8489,233.5838,125.4019,83.8595,-112.4709,-8.2496,12.0093,60.7272,64.7786,147.5559,-133.6943,225.6849,-36.0127,225.2722
-3429.6875,-25.1360,162.9938,-257.9129,42.3741,21.2317,-48.1661,-28.4556,68.4380,67.9468,-81.0284,-22.7805,-26.7137,28.3271,80.0616,80.4073,56.0115,-23.9378,161.4309,-137.2934,148.7698
-3421.8750,36.1248,332.3512,-124.3683,176.1625,43.4290,-23.6797,-6.6040,92.6518,52.9409,52.4635,-258.6904,-1.8192,-133.9203,30.7425,-193.5352,115.8515,-138.7680,117.5382,-147.1233,116.4336
-3414.0625,94.6976,462.9634,-206.5317,132.2124,-77.0586,-66.9544,-89.4312,-25.8787,6.2740,-213.7798,-122.2758,27.3377,-33.8195,133.6819,-94.1202,-76.0277,165.7611,247.9443,-160.6004,238.9380
-3406.2500,410.9372,606.1469,-88.0753,239.8173,4.0938,17.3015,176.4033,-90.8655,13.2549,-316.4548,-188.2273,37.0454,-138.0690,106.1562,-198.0537,-141.3418,59.9269,36.9107,-266.4322,36.6484
-3398.4375,350.7661,687.8480,-123.0411,357.9502,-143.1707,57.0402,-6.1775,-125.3526,-97.1704,-350.6007,-261.6179,114.2677,-210.7377,109.1296,-272.4048,-28.1304,140.6778,153.3951,-257.6779,152.8246
-3390.6250,560.4990,793.3766,-113.1469,252.8946,-134.5653,-41.4422,76.1207,-225.0591,-88.7158,-561.9555,-32.1147,51.3055,-55.5006,82.9143,-80.8367,-240.1049,244.3434,116.6967,-261.0260,106.5941
-3382.8125,585.0896,784.6667,92.5810,350.6103,-40.1159,-18.1931,134.2791,-166.0098,5.5798,-429.5241,-158.7941,74.0957,-182.4267,-4.5680,-208.4300,-217.3012,-12.1740,1.7421,-342.5190,0.9371
-3375.0000,432.6980,774.9170,4.3148,305.2852,-166.6419,-32.0186,-28.5411,-254.0100,-47.0880,-555.1190,-64.4449,133.8483,-88.3042,54.8965,-41.9655,-305.5168,257.3628,130.7676,-319.9521,122.8336
-3367.1875,621.3668,789.1285,62.0671,284.9130,-37.1263,-82.9190,212.6961,-307.0719,45.2930,-497.7639,-82.0500,45.5516,-106.1205,-34.6922,-96.4300,-321.7750,199.9420,-67.2552,-273.3297,-70.3825
-3359.3750,402.8210,643.0396,80.5987,350.2652,-92.8111,-63.1348,193.7242,-287.4438,99.4759,-369.6911,-248.8950,64.9689,-199.1455,-14.5824,-227.1052,-265.3088,298.2958,-3.5612,-245.9082,5.8408
-3351.5625,518.5239,619.1196,98.3321,255.7706,-113.2698,-44.2255,247.9854,-416.6856,-31.1017,-572.4714,-11.4952,9.5410,-35.9097,3.6747,-101.5103,-431.6814,518.9171,6.3193,-237.2353,14.4187
-3343.7500,674.9897,494.8594,295.7945,272.9425,47.0221,7.3079,335.0074,-366.2829,-91.9282,-486.5672,-183.3731,24.7633,-97.9360,-19.4372,-274.1719,-345.3820,287.2649,-119.1483,-222.8073,-98.3939
-3335.9375,472.8740,434.9504,190.6692,248.4684,12.7443,13.1666,118.4658,-398.5341,-199.3131,-629.2837,-106.8262,66.3409,-20.5141,58.7988,-161.3834,-340.7052,402.0690,101.7573,-144.9130,118.8689
-3328.1250,610.0665,432.2440,230.8152,141.1849,163.7605,-55.8067,232.2390,-431.5968,-123.3972,-662.7977,7.0168,-2.8835,129.2195,-46.7704,-48.2700,-446.8240,258.1749,-8.1302,-78.7101,3.9397
-3320.3125,321.2017,284.3887,249.8923,169.7590,253.7269,-36.9534,102.9640,-266.8084,-32.5328,-461.4228,-160.2231,-20.2550,71.8973,-65.5096,-179.2181,-282.0642,109.2025,19.8415,-16.5489,40.8751
-3312.5000,191.0746,191.1933,118.6770,6.9736,195.4323,-56.4827,45.4169,-287.3821,-16.9323,-519.3952,-34.7109,-40.9751,197.3427,24.3956,-18.3895,-302.6426,296.9914,101.4968,64.3697,113.4324
-3304.6875,160.7719,20.7101,233.2393,47.8880,309.9474,21.6589,196.6874,-137.2681,96.4623,-258.6494,-179.4190,-71.9980,90.5910,28.9912,-199.7564,-189.5095,55.5540,-35.1488,-37.9008,-12.2196
-3296.8750,-187.6033,-78.9253,118.7173,87.6603,156.4034,17.6286,7.8946,-104.3134,90.8009,-227.0358,-148.2048,33.8413,84.7845,135.4344,-132.1724,-83.4964,164.0603,179.0778,-140.2086,194.7576
-3289.0625,-7.5225,-75.2113,93.6122,57.7696,167.3056,-43.0851,93.5589,-94.0256,101.5877,-180.0738,-26.5361,9.0234,95.4480,73.2177,-48.1094,-72.1263,98.0239,112.6676,-208.0511,119.2253
-3281.2500,-114.1896,-40.3528,80.7345,163.0372,43.4614,-17.6724,7.4833,40.4127,87.6253,138.0739,-260.6488,70.3580,-102.6509,24.1395,-245.8072,135.4222,-43.7887,146.4050,-208.6317,155.8949
-3273.4375,-95.5272,48.7570,-82.8348,77.5512,-121.0480,-108.0412,-120.2552,-49.9143,-2.9978,46.4764,-58.4149,53.9526,-9.3883,80.3150,-81.1343,44.2292,185.7709,199.4155,-85.8503,193.5495
-3265.6250,159.8591,93.4705,74.2788,86.6566,-1.8434,-60.8449,36.7297,-77.6600,-30.9193,92.4958,-123.4868,27.1425,-111.4167,53.0681,-183.7470,-20.3585,-16.9849,-3.9814,-43.3569,-2.1369
-3257.8125,-34.8733,39.9782,-28.7281,138.5624,-178.7435,56.1243,-140.3965,-72.6089,-98.9428,24.3479,-153.6831,145.1350,-178.5473,133.6100,-214.4564,22.8819,104.1425,117.4347,42.0471,121.5906
-3250.0000,139.8491,72.8343,-58.3212,32.8005,-173.1982,99.4157,13.9197,-139.2274,-92.5269,-78.4568,-37.4192,78.4753,-136.2031,66.5019,-135.6781,-79.5198,173.7302,44.2147,145.9093,48.7998
-3242.1875,34.1741,-65.8215,-27.3261,139.5479,-142.0442,203.1918,118.8486,-35.3534,-61.5090,61.2633,-301.5785,145.3142,-326.2639,97.8829,-326.3032,60.6025,32.8850,9.4914,180.3813,31.4850
-3234.3750,-140.8319,-136.8860,-209.6738,104.8932,-288.2004,241.5371,9.4631,-145.8910,-134.8013,-86.3997,-191.0452,220.7589,-215.6141,317.8606,-179.2124,60.3406,314.7554,148.3982,144.5710,158.8675
-3226.5625,-0.4619,-206.6933,-91.6917,175.4722,-134.9939,286.0888,164.4513,-213.1988,-128.7470,67.1997,-185.1619,191.4428,-209.6004,289.0686,-173.7485,67.3357,103.9667,-28.4509,39.1261,-17.7232
-3218.7500,-219.5080,-251.0061,-37.1284,201.5521,-154.1847,229.1137,-1.9668,-197.0105,-221.0992,156.3318,-167.7043,245.6322,-154.9909,231.7656,-193.6835,119.8580,129.7603,137.2115,-41.7081,147.5783
-3210.9375,-84.5116,-151.3661,-33.5542,126.5688,-151.3311,86.0529,2.6618,-340.8926,-255.4132,49.4148,92.8157,138.7722,-5.3094,161.4085,66.4626,13.3331,230.6169,130.8441,-47.4765,126.8225
-3203.1250,-105.0562,-242.3865,88.4601,176.9388,-67.0034,133.3164,13.7623,-257.4355,-171.2678,242.8737,-81.2345,113.2527,-105.1772,135.3798,-33.9391,170.1700,-71.1063,38.8153,-32.7772,39.9996
-3195.3125,-358.7856,-356.6706,-106.7161,97.0515,-152.8359,158.3083,-180.3001,-270.2429,-146.2786,157.0932,17.5492,175.4933,29.8138,233.1067,137.5272,158.7730,60.0324,169.5631,98.7947,160.4226
-3187.5000,-226.5018,-365.0534,-30.9188,19.0535,106.3395,122.1739,41.6580,-307.1701,-35.2936,193.2144,54.3391,102.6308,104.8200,86.7267,138.0138,11.2785,-87.8353,19.2121,195.3784,16.4959
-3179.6875,-411.1369,-340.4450,-12.0367,44.0607,197.6308,66.0171,-49.2831,-253.1017,18.7868,284.3715,-74.7960,83.7688,122.9255,-6.6683,7.5972,28.8057,-62.6234,148.8670,185.0713,154.0236
-3171.8750,-350.6331,-244.7869,-12.0405,-69.8981,235.0711,-81.1290,-49.0790,-365.0045,19.0066,135.5787,182.2274,-27.0446,270.2060,-44.0219,228.3646,-82.6088,139.7565,209.5943,105.9245,203.1507
-3164.0625,-276.2086,-241.3347,173.8455,-32.0638,309.4327,-81.5038,100.0457,-292.1184,93.1295,245.6037,72.1425,-63.0645,159.3904,-117.5931,118.0450,-9.2089,-67.9926,70.1086,2.6824,71.9309
-3156.2500,-382.6060,-243.7936,54.9072,-105.1341,115.9938,-89.8017,-91.6467,-265.1418,10.4449,124.7519,136.2431,38.0180,150.7802,19.9273,218.9319,18.3187,106.4613,207.7460,1.6431,198.9344
-3148.4375,-61.2891,-134.6532,30.6540,-100.6245,92.2676,-79.5363,31.3720,-328.5883,22.4499,62.5058,222.0619,12.6927,125.8998,31.0290,303.5459,-7.5559,-29.3828,-0.0126,6.3095,-19.8386
-3140.6250,-163.4295,-132.0811,22.9433,-27.6694,9.1157,-14.8381,-50.0565,-228.5847,14.0013,198.7459,65.4057,76.8170,-29.4283,20.5739,147.7094,130.0442,-96.7115,-34.3308,43.5283,-48.5678
-3132.8125,-69.2939,-110.3290,-56.5067,-215.5310,-106.7397,-132.9610,-55.1992,-346.3932,7.8361,-28.8089,317.0630,-2.8519,111.5644,14.3269,398.2099,11.8528,174.2679,-47.4269,243.0554,-72.6919
-3125.0000,78.2440,-281.2887,209.4291,-281.1015,122.8265,-126.8063,248.0726,-413.9073,126.0713,13.9626,251.1161,-106.2277,82.9639,-89.6329,259.1223,-128.0244,38.6148,-255.2216,424.9908,-257.8597
-3117.1875,-66.7654,-426.8644,163.8410,-320.2735,75.8968,-173.2713,202.8291,-463.0169,152.7928,-70.8332,241.6475,-80.2006,109.8681,-137.1953,285.5364,-248.4736,316.4504,-49.5855,561.4415,-42.0177
-3109.3750,171.2220,-402.5485,168.2274,-365.5654,152.9700,-245.8645,353.5918,-498.2379,156.5023,-142.7204,391.1908,-225.2757,223.7906,-245.8535,361.9776,-358.0230,414.2968,-96.0438,552.9070,-88.0532
-3101.5625,121.4618,-453.0925,256.8589,-275.7062,205.3085,-233.3221,406.6229,-302.3111,170.4623,17.5756,221.9620,-248.2054,90.9554,-306.3752,192.6617,-234.4021,258.3648,-183.3665,537.6284,-160.5640
-3093.7500,82.1340,-424.2893,107.9074,-422.5112,56.0920,-199.4599,295.0902,-270.0520,94.8558,-96.7804,403.1914,-250.7789,163.5881,-163.5452,373.8261,-237.4193,429.8978,-119.3130,497.8004,-111.9482
-3085.9375,180.7634,-467.6357,213.8893,-395.4773,124.8482,-132.7724,401.5287,-92.9592,127.1947,79.7318,288.3718,-257.5068,48.1853,-206.8738,258.9598,-60.5813,106.3573,-305.4099,489.9178,-292.8040
-3078.1250,-165.5947,-535.0458,96.8952,-356.4848,7.6603,-105.1480,101.0057,81.0821,156.5773,255.2271,206.5826,-228.2782,40.8299,-142.2537,214.1458,151.2264,40.8435,-162.5336,495.0919,-156.4124
