Time,Fp1,Fp2,F3,F4,C3,C4,P3,P4,O1,O2,F7,F8,T7,T8,P7,P8,Fz,Cz,Pz,ref
-4000.0000,-67.0093,-17.6953,2.3074,-44.5260,-3.6542,-20.5067,-109.3296,-5.2863,-85.2036,196.2352,19.7360,99.1662,-12.0591,29.2083,-42.4183,16.0804,-35.1192,12.6763,12.1982,110.2882
-3992.1875,224.4875,29.6033,213.5453,1.1847,-160.5545,-141.5257,136.0146,59.1698,198.6001,-544.2164,157.3812,19.2281,125.9140,-38.5684,-16.0713,-66.2801,46.8371,-80.7859,59.8596,-227.5781
-3984.3750,-73.1141,-162.2314,2.6869,-85.2025,143.4844,52.3728,180.2600,31.5181,60.2733,572.3459,-310.1196,-6.8121,-158.2500,-7.9227,-6.8336,-55.7392,-145.3239,-96.3519,114.4193,4.4733
-3976.5625,-60.9074,307.7663,-126.3918,-37.7812,-205.7075,-75.9389,-22.7282,197.6811,75.7624,-399.3613,112.2029,13.9563,116.3951,-25.4280,-99.8134,-38.3974,114.3415,22.8957,162.7797,-85.6700
-3968.7500,114.7415,132.1853,26.9451,-37.9549,-15.4945,3.1483,275.7096,167.2406,80.6769,-58.6882,-101.0851,-14.8855,-61.5728,-19.7979,-58.3940,-67.6577,-132.6081,-153.4769,163.5328,-224.4426
-3960.9375,-109.4862,-56.2484,-294.6004,-85.9835,-79.1276,12.3908,62.2763,213.9489,-20.2921,358.2180,-164.2467,69.4337,-125.4089,29.8863,24.1854,16.2440,-110.4141,-59.6999,186.4372,80.9696
-3953.1250,295.5251,173.5506,-114.9350,-32.8072,-303.5910,-175.1918,167.0265,210.8680,231.9333,-596.7989,52.8385,31.9566,53.9882,-26.2920,19.9644,12.3469,14.0052,-146.7253,205.5482,-214.4411
-3945.3125,107.0897,-83.1221,-171.7206,-80.0822,41.5269,-12.2111,254.3457,79.3280,134.7148,561.8148,-372.5728,12.0282,-261.0977,0.2984,-1.7072,28.0003,-174.0552,-192.2094,124.2056,-13.2911
-3937.5000,83.1379,245.7267,-270.0323,3.1476,-238.8796,-110.7383,-64.8602,129.3042,73.0091,-194.1487,7.5333,100.6081,-64.6715,15.6801,-136.8846,41.1640,154.4052,-4.1778,102.3689,1.3755
-3929.6875,315.8874,232.2439,56.3286,94.0365,-59.6426,-41.6248,111.6043,14.9373,30.9732,-159.5394,-68.7023,24.8248,-180.5921,-7.9313,-179.4152,-36.0209,70.5106,-87.5100,18.1844,-221.3399
-3921.8750,-86.2805,75.8438,-193.2356,79.0215,21.7100,112.6015,-102.8344,-13.3279,-146.9864,440.2732,-281.8696,70.1341,-282.4379,70.3875,-135.8459,45.8978,90.7010,39.2567,40.1038,82.0769
-3914.0625,245.4318,339.3315,-16.9506,164.8627,-206.1209,-5.3430,-2.4365,89.2752,100.9129,-667.1741,41.8641,-8.7211,-33.4033,-11.7248,-144.4330,-71.3363,212.7663,19.8748,20.8792,-180.6776
-3906.2500,358.7647,207.4097,-51.0542,102.2965,88.6770,106.3189,144.5840,-55.5303,28.4022,368.0537,-359.8362,-114.9796,-288.7879,-63.7692,-143.4142,-104.9771,-95.6023,-75.9272,-40.7495,-29.8344
-3898.4375,270.4294,400.8526,-220.8348,119.0782,-190.1919,11.3262,-209.0762,-2.9824,-67.7635,-202.3823,22.8342,-24.8720,-126.8100,-26.6103,-240.0462,-16.2664,167.3909,116.6318,-22.0348,60.3801
-3890.6250,452.7953,337.9626,131.0553,231.5179,-96.4225,30.9725,-44.0651,-92.7919,-123.2475,-472.2601,154.1771,-113.1243,-70.1601,-39.3821,-256.0276,-32.9148,139.0336,18.8284,-85.6782,-247.7915
-3882.8125,54.4993,10.3947,-3.7262,220.3002,135.7246,189.9853,-180.7010,-153.2627,-295.3954,388.3175,-16.1734,-61.0331,-168.1841,21.1614,-281.6538,-19.2066,23.0061,78.3727,-94.9734,60.4126
-3875.0000,240.1228,267.7597,90.3896,229.9954,-173.2631,27.8832,-197.4609,-58.8220,-18.6417,-763.3297,409.4254,-112.0454,183.7258,-49.5790,-298.3824,-71.5962,243.9119,159.8311,-84.3727,-173.4972
-3867.1875,239.7190,57.0621,127.4714,194.6414,120.7258,174.7386,94.7549,-169.4405,127.0628,122.0129,-68.0507,-110.1203,-74.4312,-54.0556,-225.1562,-145.0383,-73.2594,19.2232,-154.8274,-171.4723
-3859.3750,-2.3120,166.7651,-131.0811,198.6906,-63.8932,135.9979,-165.6531,-95.6565,234.1649,-170.2246,77.8714,0.2112,-39.1931,2.2755,-301.5285,-72.0712,177.9770,200.0266,-148.8821,-24.0240
-3851.5625,377.7578,301.5558,207.4352,261.8042,16.5171,106.2908,-50.9969,-125.8176,-16.6547,-821.5303,269.8680,-27.4179,41.1123,-0.1258,-295.8540,-101.0577,276.2750,52.8690,-120.8909,-345.5661
-3843.7500,155.3293,44.8348,143.4391,180.4159,357.4573,263.0979,-188.8258,-224.4895,-742.9806,184.7693,-50.6852,21.4455,-132.1154,76.4587,-174.6747,-53.5443,160.0416,78.2025,-59.4053,-2.5911
-3835.9375,270.1180,301.3510,122.6283,190.2342,42.5594,59.0863,-395.4728,-24.9436,-765.0836,-824.8339,370.9951,39.4988,177.8838,74.0779,-123.3003,36.1707,345.0331,193.7460,-14.7177,-131.4246
-3828.1250,285.9966,-0.0901,178.8847,100.1052,281.7282,151.1258,-11.0361,30.6474,-490.1237,-141.3821,-15.2870,-50.4196,-61.0739,73.8485,-105.8717,55.9341,-25.9454,-1.6839,1.0179,-184.2359
-3820.3125,-107.4870,-5.8816,-206.2333,-12.3751,79.5533,95.8215,-139.9684,160.8882,-177.5427,64.7602,-30.9306,-28.6899,-78.3875,75.0043,-12.7877,149.3508,-32.2761,62.5454,30.4009,57.6298
-3812.5000,176.8302,68.1248,-78.5884,-45.0881,-122.8973,-69.7514,132.8564,252.8772,352.8169,-649.4880,96.2176,-156.2215,49.0771,-28.6214,40.0469,93.5075,-29.8408,-3.4774,34.5270,-253.7912
-3804.6875,-120.2509,-368.2780,-325.3534,-130.2040,108.2850,87.2925,325.3049,189.4529,656.7787,503.9591,-407.0775,-180.1647,-270.8878,3.2618,49.4867,141.2623,-325.8397,-18.9150,19.2482,-20.6062
-3796.8750,-56.8818,-128.2114,-327.6910,-101.8665,-188.1126,-63.2286,173.1879,260.4911,469.2159,-451.2281,68.1105,-108.6592,56.6171,18.2475,9.3733,176.4757,54.6277,81.1069,14.4242,-94.9744
-3789.0625,215.0799,-136.5965,69.5403,-40.9739,173.0476,40.7996,202.6631,108.0790,-420.7877,-123.9019,-11.1577,-149.6257,12.6760,19.4617,149.8219,97.2391,9.6290,-103.3397,40.1487,-172.8284
-3781.2500,-220.0785,-220.0906,-179.3545,-54.1835,143.1249,85.7401,-195.9758,151.5679,-598.9197,364.3934,-112.5507,-102.6983,20.6284,65.3928,229.1799,177.9075,66.5141,59.1208,132.7680,167.2450
-3773.4375,-91.6961,-21.0437,-102.7481,38.1175,-220.3306,-94.8378,99.8876,267.5698,212.4909,-546.9561,1.6020,-208.2882,135.1102,-18.9700,233.0447,146.0697,124.9101,12.0829,156.8837,-194.2162
-3765.6250,-325.5468,-218.2752,-205.3941,15.1693,42.9896,21.3473,362.5389,126.3114,438.6717,601.5240,-505.5387,-236.1463,-226.6790,-33.7018,312.6668,115.9835,-178.9801,-114.2245,64.7391,-38.9314
-3757.8125,-306.9969,-24.0919,-262.6676,-1.3678,-233.3126,-108.0717,119.5689,180.4601,344.2560,-113.6581,-47.2589,-180.6087,9.9523,-55.0030,291.6909,97.3011,84.5477,-26.1156,83.9943,16.7592
-3750.0000,30.8058,-177.6861,26.2800,-14.6937,-92.4117,-114.2965,370.8345,139.8103,375.0581,-5.7131,-162.7753,-221.8934,-68.2051,-88.1129,248.9197,18.8091,-69.7326,-179.8199,106.4455,-170.3929
-3742.1875,-287.2679,-283.1317,-248.6483,-86.8744,-35.3349,-20.3584,204.2546,49.3035,319.0123,678.4592,-326.1779,-53.0356,-196.2327,-21.1517,193.2989,39.4685,-105.8802,-74.3743,35.0446,181.6270
-3734.3750,-51.0136,57.7649,-99.2704,43.2610,-326.9886,-129.1371,204.9732,15.1023,578.2857,-529.2195,117.7742,-85.8965,100.0752,-91.4854,121.9880,-68.5814,129.3017,20.3776,-10.0633,-108.0842
-3726.5625,-210.4319,-311.0524,-48.5796,59.7122,15.6913,67.4008,400.0243,-81.8105,552.8540,479.4535,-309.0137,-217.4819,-180.3408,-91.9927,170.9899,-91.3382,-135.2431,-33.5872,6.1172,-19.5092
-3718.7500,-325.3022,-179.2966,-138.3737,84.7221,-146.0960,15.4854,89.6068,13.8295,241.9857,-84.3502,6.7457,-84.5197,60.7954,-46.5734,154.5460,-106.5375,170.7684,98.0111,33.8435,113.6281
-3710.9375,130.2359,65.8334,239.2013,119.0957,-26.5473,-12.0880,133.5751,-124.1742,-153.4799,-438.9133,126.8678,-36.2300,144.2913,-62.9407,237.4489,-170.3912,134.1261,-43.0561,-73.0837,-131.9312
-3703.1250,-130.0847,-87.9151,63.9071,34.6174,165.1849,107.5008,-79.2850,-225.0367,-329.7958,490.7539,-120.8976,11.1948,-31.0837,-15.4073,245.5068,-86.0912,15.6068,14.0251,-156.8649,172.6751
-3695.3125,27.8160,-0.4287,128.8075,86.3492,-135.9128,-49.7269,-88.9557,-86.6865,102.0904,-617.5173,311.5911,-33.1932,254.7853,-54.2738,89.7764,-95.5888,207.3089,101.3091,-174.4424,-54.5435
-3687.5000,-6.9469,-209.6480,201.0226,52.3799,156.3178,134.3523,165.7141,-196.0428,63.2831,82.5267,-19.6393,-32.3059,32.9484,-9.6783,88.3584,-94.7878,-107.7270,-3.1302,-242.7271,-16.4871
-3679.6875,-240.8663,-57.0105,-49.9447,-41.7423,-21.6077,66.2806,-124.7755,-80.5519,68.3323,-129.5793,132.9840,48.4258,147.9709,16.2124,92.7990,-15.1306,9.0837,114.2849,-161.1711,137.4364
-3671.8750,24.1264,-2.4921,167.9607,10.9988,-97.7008,-46.9608,91.6072,-9.2135,174.2585,-606.9635,205.4972,-99.0134,256.8773,-47.1730,127.0955,-17.6320,97.7463,-7.4589,-141.7767,-193.8343
-3664.0625,-250.2365,-276.3349,88.5040,53.3911,190.8935,167.4630,-62.3447,-87.2470,-309.1688,456.3869,-130.3813,-65.8199,-5.5864,33.9777,157.0600,14.5197,34.0221,1.4408,-133.7415,96.5547
-3656.2500,-114.0330,71.4094,237.5789,84.3421,-64.9932,-14.5737,-244.7490,-11.7203,-235.0132,-751.8362,350.3195,10.9112,253.5276,21.7577,85.5825,-19.7782,345.8626,66.9027,-103.1584,-46.5225
-3648.4375,-15.4840,-146.5508,380.9667,6.6012,189.4397,54.6947,79.1994,-125.8987,-56.5314,-202.7831,15.2954,7.9143,27.9349,21.3392,80.4177,-59.7792,91.9764,-80.3535,-74.2775,-122.3354
-3640.6250,-223.7020,-142.2688,152.5725,-25.8808,108.1290,48.2246,-148.6128,-57.8262,-100.8060,-132.4545,9.5101,39.1569,57.5877,67.2751,0.5063,43.4766,200.3361,97.6526,-71.1523,93.1184
-3632.8125,190.7757,96.6959,381.8458,71.3072,-30.5495,-54.6087,4.2407,-13.0964,16.6087,-894.6351,202.4089,-60.9744,213.9199,-21.0474,7.2550,-57.6196,262.3599,20.3061,-79.3864,-264.8245
-3625.0000,-16.8940,-110.5073,300.9630,40.3442,293.6620,122.4293,31.9791,-129.5292,-175.1186,241.1070,-208.8904,-30.2765,-87.9233,17.4503,35.8715,-64.8645,54.1971,-46.2068,-108.7788,-12.9185
-3617.1875,13.7936,60.6784,260.4100,34.7430,-4.8045,-29.1943,-192.9420,-60.6074,-70.4780,-679.9050,192.1913,41.7637,202.6061,7.0230,31.8463,-67.7603,295.4046,89.6453,-79.8280,-51.6696
-3609.3750,166.6849,-101.9748,426.0371,-23.6911,197.8970,26.3353,118.3277,-151.5473,-15.6618,-363.8223,-9.5775,-12.0778,74.2924,-5.9429,86.9751,-84.5192,96.7468,-108.3694,-66.7399,-178.3137
-3601.5625,-117.6416,-104.8438,113.4362,-132.3197,179.4210,45.6764,-84.6038,-131.6987,-107.0506,24.1146,-63.5698,80.8685,19.7665,30.0417,140.9164,-28.4716,92.8765,-6.5795,-34.8577,135.8615
-3593.7500,178.2674,86.5171,253.0431,-82.7299,-84.8859,-146.7975,15.6838,7.3585,141.8070,-899.9075,260.6811,1.9952,269.4759,-50.8747,134.0710,-72.2283,177.2178,-61.5903,15.2202,-163.8052
-3585.9375,3.6390,-297.6870,136.1019,-116.6832,202.2901,-6.8074,155.4662,-72.1473,23.1323,308.5798,-149.6585,33.5421,4.6180,-4.4490,126.6912,-42.5375,-103.0285,-130.1713,-18.2643,14.9684
-3578.1250,-79.4876,-241.3652,9.6355,-60.1292,-107.0511,-132.3265,-82.2683,21.8495,42.9601,-366.5008,238.5234,92.5787,246.2819,16.3413,72.8311,15.6585,163.2362,-4.2423,73.7505,37.2442
-3570.3125,112.8477,-328.6204,258.5937,-44.1670,68.0131,-67.4554,201.4419,14.2444,144.2170,-335.2742,84.1145,-25.0156,127.3669,-6.5737,64.3829,-28.7523,74.8794,-126.9321,56.1583,-190.1292
-3562.5000,-169.3317,-225.3920,22.0244,-115.7065,198.6045,26.9314,37.6688,-0.8720,-56.0254,348.5214,-151.8256,-76.1266,-35.0633,-11.7101,47.4451,-6.6561,36.9945,-23.1207,54.0566,126.0127
-3554.6875,144.0673,159.4207,142.0064,-13.6798,-85.2874,-148.1496,-27.5479,45.5671,137.3194,-705.2878,225.8360,-175.7035,158.1050,-83.9121,-16.9345,2.9871,280.6714,9.2448,52.4947,-156.3294
-3546.8750,46.1299,-184.1267,108.6468,-6.0018,249.5030,40.4283,158.9385,-60.3582,66.3552,330.5832,-209.8866,-169.6624,-132.0907,-34.1617,-49.6407,8.2767,5.9543,-52.7616,24.5725,-77.0406
-3539.0625,-87.7641,-71.6063,-144.6954,35.7298,-4.6697,-30.9529,-59.5244,90.7652,69.4725,-178.5333,-23.5534,-55.5826,55.7782,24.1963,-83.2833,85.6219,187.2861,94.2849,66.6963,1.3037
-3531.2500,247.6084,-16.8575,106.1851,53.6752,27.3499,-36.1499,191.2458,122.0885,136.7996,-366.5639,-27.9933,-133.3284,49.8712,-41.5411,-52.7028,-29.8413,64.8121,-98.4892,85.0152,-260.1994
-3523.4375,-52.1215,-210.2274,-150.0514,-70.4787,174.3035,1.5674,78.9252,85.2990,25.9963,628.3883,-284.5659,-94.1933,-169.1480,-31.9835,56.7998,7.5975,-94.7920,-116.3674,172.2273,109.2147
-3515.6250,91.0216,73.2931,-175.4455,-68.7710,-254.9271,-244.8844,126.4576,244.3600,625.0839,-423.9536,94.7540,-119.2219,61.7190,-117.8432,68.1689,-17.1138,11.4677,-115.3887,209.2825,-98.5447
-3507.8125,7.2832,-115.0948,-188.7282,-152.9599,-48.0303,-185.2249,517.1550,158.5092,832.3243,483.8106,-284.8614,-168.1842,-208.3287,-130.0243,91.6542,6.2666,-318.2112,-268.3259,161.4265,-110.2323
-3500.0000,-67.6238,126.3738,-314.1932,-157.2986,-172.2843,-199.7010,169.7047,143.5073,264.4316,286.4189,-5.6366,-70.3159,-2.5268,-101.5087,112.9970,28.5029,-78.0414,-97.3989,50.4173,96.9436
-3492.1875,450.7881,328.1385,16.6107,-62.3702,-135.2998,-235.9387,133.5275,-2.2445,-139.1847,-297.8635,253.8645,-105.2237,219.5491,-150.7062,150.5985,-43.0228,-18.6204,-178.2237,-64.3500,-157.6817
-3484.3750,183.0023,95.6788,-167.7953,-83.6391,120.5298,-16.3511,-15.8246,-186.2137,-398.0117,731.7363,-113.8802,5.6518,-38.5996,-50.9504,186.0146,31.2528,-181.4316,-128.2536,-120.3326,173.4977
-3476.5625,252.9248,341.9343,-162.5114,-15.1877,-239.9650,-195.0691,-158.4826,-106.4733,-98.1149,-364.0901,296.1184,48.2067,223.9849,-66.9529,81.1375,36.2298,98.4798,10.4329,-121.6201,33.3587
-3468.7500,281.3290,160.6339,17.2463,48.7280,13.0145,-52.3322,130.3643,-220.2862,44.2704,185.5018,-75.4571,-27.8259,-36.9834,-73.2867,40.7235,-40.3472,-50.1902,-101.4459,-162.4612,-42.3698
-3460.9375,4.3989,129.0247,-174.3313,88.3408,-67.2980,14.1124,-135.0730,-228.3952,-73.6259,289.8165,-8.3500,76.8261,-44.2517,-8.9933,-3.9700,-10.2133,93.8206,43.3759,-194.6004,208.6158
-3453.1250,340.7455,255.6886,44.3532,177.2066,-180.3824,-98.2112,-27.2238,-229.2415,217.7746,-555.7736,211.0490,1.6983,64.7698,-62.5496,-42.3882,-47.8290,183.0790,-7.5565,-175.4888,-122.1954
-3445.3125,63.1830,-91.5789,-107.8695,75.1694,108.6734,42.5817,112.7699,-307.9978,248.2911,579.8185,-234.4917,-38.3595,-234.1269,-31.6963,24.3194,19.6559,-59.6075,-73.4063,-170.2857,94.0928
-3437.5000,-13.4241,113.1242,-148.1683,34.0870,-188.3496,-106.6891,-75.2874,-90.8021,244.7900,-340.7305,165.9404,-5.4773,92.9553,-29.4407,20.9957,54.0958,178.6630,25.7029,-72.1329,18.3237
-3429.6875,117.9157,33.7262,104.4557,-12.0865,64.5391,-2.0636,140.6149,-94.7133,-17.7799,-13.4373,-21.7334,-81.7222,14.9416,-31.2037,16.5856,13.4278,-8.1884,-90.3079,-47.0795,-131.5894
-3421.8750,-138.0720,24.0085,-141.2460,-57.5618,112.1495,47.2715,-179.7675,-82.9298,-336.6598,367.6094,-82.7309,41.7234,-46.3820,60.6009,-8.1093,135.4690,15.6426,40.3842,-22.3286,175.2136
-3414.0625,214.8214,236.1799,-16.0863,12.8255,-129.4165,-85.5623,-92.2860,42.7167,-64.6664,-681.6509,190.1661,-17.0037,116.1875,14.7449,6.0676,115.3606,121.3317,4.9214,13.2700,-139.1767
-3406.2500,17.1726,-102.2236,-119.4746,-44.3364,171.5049,105.0637,60.6884,-24.1950,-59.2058,429.6005,-316.5297,-46.3054,-207.8103,47.4508,49.7181,121.7044,-147.5775,-17.1117,27.3121,15.8721
-3398.4375,-35.8919,56.9805,-249.2936,8.1016,-140.9957,11.2828,-179.7382,177.4992,-42.1097,-323.6147,31.3958,8.9823,29.8118,64.3371,-7.0129,139.6569,80.1161,106.4638,79.9546,34.5246
-3390.6250,230.3840,6.4963,0.2101,27.8475,-1.1924,41.7980,106.1881,134.4875,62.3291,-292.6166,-85.3732,-106.4524,-13.2544,21.0750,-13.4258,96.8981,-112.9050,-50.6771,63.8877,-191.5704
-3382.8125,-143.6089,-86.2591,-222.5618,-30.6556,106.3902,112.0767,-80.1198,169.2136,-87.4764,441.1986,-233.4358,-34.1502,-125.5886,64.0227,-15.0693,131.8991,-207.1976,31.9349,40.5620,138.1010
-3375.0000,137.2730,300.8654,-102.4802,3.7068,-213.2080,-60.8099,-70.5674,216.7994,143.6031,-612.2993,218.3874,-60.0162,142.9655,-31.8776,-5.8406,32.7546,-67.6247,31.3995,40.0850,-107.4132
-3367.1875,74.4206,97.2163,-63.1395,-24.6704,119.4765,88.5707,114.2858,35.6234,34.9499,383.4928,-182.5759,-129.6646,-76.2447,-59.9301,33.6616,-38.1416,-307.8431,-66.9030,-23.1556,6.3040
-3359.3750,-104.0552,234.9677,-181.4313,7.3612,-71.4476,6.3543,-187.4672,63.8522,-46.2850,-101.3385,139.8681,-63.9286,136.9549,-41.8712,-47.4269,-8.6304,-30.6598,141.2131,-60.9965,109.4311
-3351.5625,195.5602,218.7823,143.3457,130.4538,-3.3298,38.1764,-10.1210,-13.8664,21.5844,-436.2312,209.3820,-105.1763,206.2308,-63.3010,-90.4513,-87.0762,-84.4338,18.3666,-148.7924,-188.4427
-3343.7500,6.4991,28.9262,-33.5423,45.8918,187.1736,154.3649,-150.3942,-153.2513,-192.1837,453.3136,-77.7996,12.9084,28.8332,-0.6369,-46.1033,-42.1706,-204.8913,73.8646,-198.2437,150.0453
-3335.9375,320.6014,485.2468,9.7132,78.4971,-137.2020,-59.3135,-217.5165,-73.4736,71.2158,-641.1304,297.2137,20.1271,256.6213,-83.0277,-76.5851,-109.1160,-68.1767,107.5218,-165.5465,-62.3422
-3328.1250,293.4367,282.2473,16.6916,15.8138,165.1528,57.7196,156.1066,-140.0048,262.3071,213.1395,-173.0962,-45.9878,-66.8959,-90.7125,-106.3454,-138.3647,-377.7903,-26.1399,-158.1530,-54.0573
-3320.3125,-6.1087,298.8952,-195.7058,-38.2161,26.1628,65.4124,-56.6278,-56.8854,86.0529,38.0607,19.2377,0.5309,88.2449,-37.4029,-134.4478,-54.9571,-221.7559,130.8627,-71.1094,138.8943
-3312.5000,371.3241,360.5205,137.8666,22.7152,29.1039,-41.9592,18.6298,-54.8117,-58.1814,-509.2032,280.5536,-107.0249,239.3662,-114.2052,-58.5857,-125.6133,-232.7772,15.8076,-46.1226,-151.2535
-3304.6875,25.5857,14.9741,-52.7288,-41.5117,242.9310,135.5368,11.7884,-59.8983,-137.5374,588.4744,-130.3372,-75.7585,-23.6896,-41.3402,-26.8426,-57.4170,-472.9915,21.5908,-3.2930,137.4541
-3296.8750,30.8504,161.4528,-43.3384,33.2706,-113.2718,-37.9845,-89.0563,61.0243,-16.8807,-392.9572,284.8041,-28.5078,244.2891,-44.7675,-17.0762,-47.2143,-188.1868,96.3872,35.5361,2.1480
-3289.0625,137.4551,56.2305,107.3775,-1.6382,220.8504,75.7969,172.4429,-45.7622,-86.9147,199.8919,-78.7679,-97.9837,26.5647,-53.2410,23.0065,-79.7197,-400.1036,-43.5365,0.6575,-66.8942
-3281.2500,-105.9194,129.0552,-158.8816,-34.4975,65.0356,66.6425,-58.0072,-17.5081,-58.8942,300.8270,-123.3078,-32.4168,-18.1175,-20.6521,51.1471,-14.1682,-328.9822,133.6014,38.8195,182.1317
-3273.4375,180.5925,205.7520,7.7248,40.5032,-97.9530,-23.6766,108.4224,76.6043,292.0217,-522.5357,81.0408,-159.0201,112.0792,-76.6844,35.1436,-30.7732,-255.0009,68.5892,77.8326,-164.0381
-3265.6250,-179.9590,-259.6402,-122.7214,-4.5488,212.0473,175.9753,197.8442,18.6528,124.8987,597.1375,-269.7108,-141.6927,-201.7990,4.6673,51.1080,22.5777,-441.1125,23.5185,103.7923,73.7398
-3257.8125,-150.2765,-125.7756,-162.9457,24.6518,-121.7273,62.8732,10.5215,162.9668,84.0660,-361.0320,130.8054,1.8677,52.5926,58.3520,48.3386,57.1907,-166.9632,122.7133,168.0080,-2.2399
-3250.0000,81.2802,-245.0769,11.6924,-25.2990,91.3515,91.6228,296.1178,118.1366,150.1447,-38.4005,-133.8403,-5.7565,-102.1602,59.5411,77.4445,49.6521,-357.9937,-67.2595,118.0801,-156.4146
-3242.1875,-257.9915,-126.2060,-319.4992,-48.0590,16.6538,89.5865,110.9260,117.5054,296.4001,403.5045,-281.3090,103.8009,-175.7184,82.1834,38.7723,85.3202,-382.8390,14.9683,94.3550,137.6327
-3234.3750,160.6140,291.5392,-163.8247,-16.9597,-231.2139,-84.6174,231.5949,90.7306,343.5196,-615.8845,170.1224,78.1895,90.6135,-15.3573,12.9636,-14.1672,-247.8150,-59.9526,90.4873,-182.5068
-3226.5625,54.1610,-25.8069,-100.1948,-158.9103,162.9073,52.1427,257.2681,-30.1064,-218.3887,477.7509,-133.5463,67.5063,-103.1296,31.2955,112.1229,49.2983,-459.8789,-129.9350,89.5642,28.2947
-3218.7500,-111.1746,91.0026,-204.4384,-183.7085,-123.8388,-87.9504,-30.9148,87.2199,-138.1347,-176.5141,166.9447,147.9654,161.2926,54.9243,156.4479,129.9267,-275.7797,-15.7541,134.7960,109.2514
-3210.9375,58.2190,-21.4723,17.0423,-156.8015,-47.8814,-123.3490,302.6440,53.2497,157.8522,-101.1511,59.1393,77.0912,90.4237,0.5168,195.4978,59.2501,-423.9896,-163.8902,57.7285,-108.1358
-3203.1250,-136.8251,-250.3721,-201.9053,-175.3003,-9.3039,-11.1324,118.8263,55.8770,13.4656,673.9054,-159.1158,115.7971,-54.8739,45.7289,160.1621,98.1776,-480.6305,-41.4280,38.2699,225.0968
-3195.3125,123.4409,44.0437,-29.5636,-92.4938,-277.4659,-169.6366,71.3349,154.8277,186.4314,-402.8778,307.9672,31.7897,228.1600,-29.3899,39.1355,50.4119,-256.9611,-63.6596,51.1171,-42.4022
-3187.5000,-3.2441,-116.5228,89.8370,-147.6389,99.4520,-50.0768,227.9429,16.8252,-25.5433,636.4392,-85.9358,-32.1847,-55.7713,-35.9428,49.1791,23.6954,-455.2713,-189.8569,30.0135,78.1326
-3179.6875,-206.2642,31.6073,-93.0863,-70.0786,-156.9405,-85.8122,-65.7599,55.5216,-60.8222,195.4443,133.8664,42.5382,92.0116,-13.9294,50.9375,25.6839,-202.8702,-7.3365,73.6090,226.3808
-3171.8750,108.3540,-5.6477,136.6156,-2.9098,-110.7414,-150.9560,165.1754,27.8238,133.5277,-161.0489,71.2761,51.8382,28.4069,-28.3063,60.3087,-37.7314,-205.8648,-116.2280,69.8111,-56.8169
-3164.0625,-144.0049,-151.8889,-104.6510,-78.6995,53.5407,-24.0361,107.1893,-64.8234,76.9315,701.6106,-279.3164,142.1717,-212.1796,36.6428,40.7490,15.9097,-319.8405,-51.0763,64.0678,254.0503
-3156.2500,54.1827,116.4376,-36.3748,-22.9348,-244.6602,-174.5793,66.7625,41.0960,329.9199,-441.3010,157.6777,65.0393,78.8137,-43.7543,-0.2496,-61.8967,-53.2464,40.6394,120.8816,30.4478
-3148.4375,-88.4250,-236.0620,72.1152,-59.9684,84.3650,43.0887,358.5888,-71.7857,328.1325,402.0151,-211.1557,-47.9191,-180.0045,-36.1937,34.9680,-99.5069,-231.4832,-67.4555,118.8964,29.0192
-3140.6250,-333.8339,-165.3304,-156.1791,-23.7540,-33.3659,36.0169,56.6700,-41.4083,99.6136,210.6048,-71.7532,92.3607,-113.5744,41.5841,28.4460,-32.8607,-21.4704,108.7190,119.1704,205.8559
-3132.8125,112.3265,104.9551,103.0963,35.0203,-31.5616,0.4893,132.3366,-75.4637,-117.3216,-447.3753,78.2277,95.1632,-1.5693,32.4239,-43.5124,-66.6663,106.1007,-8.5619,108.0007,-121.8043
-3125.0000,-171.5915,-108.8534,-23.6835,30.7329,283.2308,167.9318,5.9791,-164.5769,-501.3258,602.7027,-268.8844,188.9063,-200.6336,112.7977,-95.5013,-45.5176,-39.4058,93.1027,68.7810,156.4952
-3117.1875,-131.7302,143.1539,-48.6780,142.2490,-71.2070,70.1654,-164.5821,-4.8723,-192.4974,-523.5217,185.8358,128.4464,106.1306,66.0166,-82.6806,-69.5665,175.9059,239.5825,39.3663,-13.4168
-3109.3750,-58.3083,-100.3078,105.8932,144.3136,156.9171,187.9553,210.4684,-107.6195,34.9330,-2.1942,-137.9161,-11.4900,-106.5656,23.6880,-38.2935,-135.0673,-69.2597,66.5965,6.5014,-115.8139
-3101.5625,-344.3300,-140.1950,-131.9634,103.9707,103.6483,207.3542,9.1251,-49.7616,-18.0481,202.7900,-117.0877,9.1660,-122.6738,68.3712,-127.2911,-39.9555,29.1716,201.2184,36.2421,125.4113
-3093.7500,14.0297,-27.7117,110.5493,180.9826,-57.2942,46.0899,106.1460,45.4561,115.3286,-657.0044,163.1302,-41.8427,83.5992,28.0480,-214.9271,-54.4960,175.9742,138.1892,43.3362,-219.0525
-3085.9375,-195.6696,-237.3062,65.0141,110.9419,264.7536,184.7914,97.1481,0.6123,-223.3628,474.2538,-175.7538,-13.9136,-181.2032,69.9894,-149.5959,-26.0909,-35.2996,33.0976,9.3802,-6.5607
-3078.1250,-217.5804,126.9211,42.2554,123.7036,-13.4265,-20.7166,-182.0597,126.5784,-208.2405,-428.7570,280.1855,-35.1908,127.8133,15.5158,-134.4539,-9.8806,221.2469,115.8213,56.2297,-64.2650
-3070.3125,45.2743,73.8956,288.2654,106.2154,159.1416,4.5229,64.5374,41.2999,-182.3162,-110.0526,121.8667,-83.7439,6.5787,-20.1994,-145.5560,-57.9236,26.5283,-77.7178,-31.1677,-222.2585
-3062.5000,-116.7312,-17.9747,28.4480,83.9185,120.9237,38.9798,-229.6531,3.2272,-367.1825,367.9386,46.7087,98.9008,-67.4768,59.5100,-182.4444,14.2457,108.9978,4.9517,-88.3589,107.9710
-3054.6875,285.2679,244.1565,205.6346,169.6299,-107.3261,-115.5722,-237.8308,-2.8229,-43.0234,-632.1991,334.5860,55.5370,145.4942,-27.9427,-152.3226,-65.5832,263.4952,-14.3715,-178.5342,-192.8334
-3046.8750,107.3052,31.2966,157.8809,61.3946,177.5090,21.9457,-26.9176,-159.8300,94.1887,424.7990,-189.5392,45.2046,-194.5154,-23.1412,-52.1437,-75.3633,-20.9745,-122.6573,-215.6556,-18.5933
-3039.0625,-14.7330,261.3950,-9.9513,10.1141,-99.7281,-108.5888,-193.0593,-69.8738,111.3659,-220.2854,120.2915,98.8165,42.4257,-20.9300,-35.0110,-21.1856,242.5275,-33.9780,-161.8218,35.6041
-3031.2500,214.2493,173.5034,274.2390,26.8362,37.0240,-83.1294,-20.1556,-152.9115,-82.4146,-231.4368,110.1289,14.4076,69.3714,-37.1894,29.1292,-31.0157,188.0277,-122.3079,-179.9845,-158.2451
-3023.4375,-36.5266,-42.1343,104.7096,-13.1507,163.1047,79.6559,-297.9372,-246.6502,-395.9030,520.8130,-56.7773,67.2945,-24.4050,26.0389,45.5771,23.4664,146.8152,48.6715,-254.8441,189.2255
-3015.6250,187.1419,146.6771,203.6333,70.3230,-68.3948,-41.1144,-308.2669,-220.9210,-222.9311,-592.6072,372.8078,55.6233,258.2999,-11.9051,-2.5184,-24.5975,369.0861,97.1154,-241.2455,-78.8808
-3007.8125,-39.4373,-219.8030,146.3180,54.5393,278.8875,158.8794,-71.8021,-350.4393,-168.1993,416.7889,-124.9050,72.6902,-93.2721,62.5297,52.1541,29.0846,106.0822,-23.7054,-256.8882,11.7474
-3000.0000,-211.6065,-111.8277,-113.5774,56.1968,18.6024,82.3232,-256.8884,-242.4958,12.0052,-63.3697,18.8282,180.2049,14.6072,111.6033,-23.7160,100.2219,318.5438,118.9378,-219.0732,119.8390
-2992.1875,158.1904,47.1148,138.5043,109.8070,52.2527,77.7086,-3.9881,-284.5950,82.1772,-435.6617,52.5337,28.6516,84.4564,19.7036,-27.6257,-13.6981,264.9681,31.5234,-272.3034,-178.1648
-2984.3750,-120.1461,-125.0823,-19.5175,42.3152,260.8387,250.0126,-162.1788,-331.8026,-368.7960,509.0692,-178.9005,89.9918,-109.8175,98.5548,-37.6220,48.2819,161.2861,140.0076,-303.6340,141.7516
-2976.5625,0.6168,101.8364,79.5584,163.9360,-79.5080,93.4059,-281.2831,-230.8940,-84.6678,-640.2116,288.8048,80.4314,138.0333,70.8768,-121.5192,39.3593,387.7431,226.6129,-251.8537,-88.2487
-2968.7500,-31.6663,-177.3234,193.5987,131.5049,219.1135,207.7625,53.6114,-299.0338,140.4433,62.4939,-111.5735,10.8100,-115.1872,55.1716,-116.4670,-29.6151,142.1268,88.1526,-284.1160,-120.3228
-2960.9375,-198.7004,-28.1957,82.9061,139.3620,109.0292,133.4238,-203.1890,-261.8572,-115.1252,-47.4640,72.3372,84.4848,-5.1145,66.8239,-189.1090,-29.2846,360.8147,202.0004,-206.0692,63.9253
-2953.1250,193.5396,119.2079,396.4846,180.4655,92.1694,6.3168,-109.7114,-205.4181,-279.4119,-615.2751,350.5256,-5.6094,199.2322,-17.3578,-169.4919,-118.7151,364.7697,67.0923,-165.7627,-246.6165
-2945.3125,-145.7539,-149.9354,248.5527,87.0593,385.8372,115.7331,-145.7111,-242.4829,-426.2070,523.5314,-55.8445,-7.2117,-58.9522,25.4863,-131.3548,-45.6379,165.2065,43.6838,-116.9524,47.3554
-2937.5000,-49.2189,122.7664,206.4551,113.5023,-22.6768,-72.0053,-223.8707,-62.6795,-99.1390,-509.8933,308.6646,-47.9614,158.7347,-29.1309,-136.3653,-48.7048,401.5328,105.1449,-56.2829,-66.8296
-2929.6875,114.2773,-100.6064,344.3305,65.8933,225.7734,-7.7873,97.9673,-71.9239,-107.0968,106.6359,5.1025,-130.7737,-71.6420,-52.8659,-107.4237,-93.8275,176.8000,-48.4550,-33.6554,-149.0948
-2921.8750,-174.4260,-178.1550,102.0289,22.1202,131.0806,7.2959,-179.3512,17.6962,-200.2191,306.0903,-15.6343,-77.7361,-54.1861,-3.3383,-53.6301,-4.0902,237.9225,48.8055,63.8330,124.5145
-2914.0625,108.0320,-0.5408,228.8857,24.4989,-73.4939,-123.4829,21.4965,108.4889,146.8248,-522.4160,184.8166,-135.5599,108.4414,-71.5169,-37.6808,-61.2005,238.2207,-18.7797,101.4835,-189.7631
-2906.2500,-94.3918,-203.8181,39.8928,-107.9766,143.1153,19.9151,127.5255,31.4305,-4.0050,687.3377,-223.6302,-102.2411,-151.8106,-42.9187,-4.5726,-28.1627,-37.3479,-152.2162,144.2863,64.1144
-2898.4375,-36.3505,101.4048,-81.6220,-118.9513,-197.8064,-174.1860,-102.9641,167.8955,22.6809,-206.4593,169.4419,-41.4206,130.4554,-63.0766,22.0335,-1.6220,197.6162,-23.1307,168.5999,53.4947
-2890.6250,131.0029,-13.0920,62.1844,-128.6233,-53.4284,-103.9819,188.8894,92.6688,204.6978,85.0239,-90.1974,-117.3171,-54.9834,-90.0956,130.9453,-39.7862,11.8826,-136.7580,125.2227,-95.8610
-2882.8125,-301.5952,-164.5275,-220.9377,-104.2075,-41.9342,-18.6601,-19.1561,140.5547,105.7999,574.7012,-225.7748,-69.1103,-190.3462,-17.4792,178.9590,46.1572,34.2479,-7.2759,148.9544,209.9105
-2875.0000,-83.2907,-51.0514,-52.1487,8.1092,-276.5771,-107.4507,39.7036,274.3623,386.8103,-431.8434,16.5884,-120.9989,-21.7815,-32.8985,128.8793,31.0049,217.5442,0.1102,157.5971,-98.4481
-2867.1875,-245.5926,-389.2100,-155.9513,-14.1825,-13.7912,83.1744,267.9960,170.5609,468.2140,641.1075,-527.6923,-150.4973,-307.8430,13.0280,99.2065,75.2538,-52.7743,-92.1163,135.6378,55.5911
-2859.3750,-335.7711,-162.2104,-287.6291,1.6768,-253.8826,24.9472,-10.5786,186.9212,226.7735,-114.8139,-106.8151,-25.8382,-35.7524,48.2654,151.6799,91.6512,244.0931,99.8300,116.8354,71.7915
-2851.5625,-37.2817,-179.5522,34.3667,55.1946,-79.3343,54.3701,92.5323,142.9377,-74.9781,-197.1447,-79.2814,-70.5421,-43.0112,49.7952,218.7938,84.6874,120.6247,-58.5805,99.6862,-156.3991
-2843.7500,-380.4428,-417.5358,-192.2496,-5.8923,25.6336,158.2150,-132.9542,174.3548,-226.3546,533.0428,-305.3852,34.1590,-157.9021,133.1753,176.3039,152.1304,56.5576,55.4149,143.9414,168.8340
-2835.9375,-182.6565,-184.5589,-46.9101,50.9776,-304.4807,-62.9962,-95.5054,285.7406,105.2194,-569.9391,135.5037,33.8107,99.1855,78.8116,103.7623,116.5250,254.4912,43.3742,166.1549,-125.0067
-2828.1250,-430.4199,-537.1675,20.9027,-21.7084,93.8823,79.2571,193.4298,170.5732,-9.7632,417.5965,-273.1903,27.9068,-164.2971,130.3728,208.6741,148.3606,-30.1389,-64.2305,164.8212,-56.4084
-2820.3125,-536.1713,-255.7331,-95.2604,-22.3552,-95.7186,-1.4312,-142.6019,237.4691,-162.7056,-29.8064,87.1650,58.0529,50.2704,108.0234,165.6403,142.2500,180.3075,41.2370,129.5463,84.2614
-2812.5000,208.0475,136.6583,179.5451,53.9509,-115.3899,-130.1750,-13.6569,146.3298,-70.6715,-452.3436,142.4871,-33.8611,68.7976,-23.2922,38.5503,14.0829,114.7260,-129.3430,-4.7674,-191.1614
-2804.6875,224.2808,83.0655,-73.6112,0.2981,-0.9845,-51.8427,-155.6506,77.2362,-175.6075,508.2909,-220.1897,43.2773,-183.6619,14.8304,-66.4919,91.9673,-45.8096,-146.8710,-57.0281,107.4855
-2796.8750,443.3611,371.3433,-22.9213,42.5002,-315.7601,-256.6648,-286.8179,130.0078,-86.6984,-579.3271,198.0206,95.2768,88.7543,-8.4501,-51.6941,107.6995,242.5558,-104.5294,-85.4335,-61.0320
-2789.0625,417.7930,64.9293,132.1434,18.0507,-13.1616,-102.1169,-57.5966,-7.8700,-150.4358,238.4464,-160.4507,30.6152,-159.5031,-2.1243,31.4561,79.7766,5.2716,-234.8435,-110.4868,-15.2209
-2781.2500,82.5149,-23.1637,-117.4680,-35.0526,-152.2165,-130.2033,-306.0379,73.6135,-68.8364,171.6152,-42.5849,110.3155,-78.4195,49.0439,2.9536,161.2055,127.3617,-76.7820,-22.1832,212.9650
-2773.4375,298.7062,52.2176,84.3953,-30.7009,-279.8438,-258.8428,6.9850,93.5586,429.2307,-432.8720,86.7577,19.4513,51.1290,-44.2231,21.8987,71.0747,95.9356,-213.2656,-17.4216,-98.4399
-2765.6250,-105.9805,-177.2779,-95.5992,-189.2087,-55.2912,-143.3062,85.1740,25.6516,323.4248,710.9116,-276.8025,24.7326,-201.2100,-19.9670,136.9968,112.0936,-133.3468,-230.6012,0.4945,200.3169
-2757.8125,-8.5806,62.3331,-134.5013,-160.6114,-388.6740,-292.6740,-98.5564,169.8657,174.7185,-320.2810,161.7663,58.1212,127.5677,-19.8463,209.1903,148.2123,139.5201,-131.8208,99.5180,88.1703
-2750.0000,19.6792,-191.2432,44.4720,-167.1617,-62.1987,-186.1832,154.5994,92.9290,97.8826,300.3899,-135.8385,17.3537,-97.8209,-10.0554,243.2303,107.1785,-78.7608,-244.2035,92.3995,10.8484
-2742.1875,-342.3106,-236.0499,-199.7824,-177.9175,-120.9252,-98.8822,-14.4505,108.7964,76.8448,461.9423,-158.6695,105.3970,-119.4329,53.9282,147.0639,122.9471,15.7791,-42.7736,119.0882,282.3531
-2734.3750,-37.4744,-37.0371,22.7783,-48.8627,-227.8847,-133.7907,99.3051,148.4753,79.6204,-453.8219,138.3393,-2.7602,103.7786,-4.3374,76.6867,15.5022,144.1636,-19.5412,177.5851,-45.3775
-2726.5625,-276.9141,-206.3072,-52.9059,-77.0663,135.9361,84.0739,170.8289,35.9014,-178.8783,646.2734,-305.9494,-42.1663,-192.2971,18.5408,74.0615,-23.1972,-95.7057,22.4393,184.8394,172.6467
-2718.7500,-319.9935,102.8282,-131.2105,20.1305,-198.8693,6.3401,-53.2668,142.7451,-35.9771,-313.2868,57.1815,-47.1618,60.0378,4.3343,33.8318,-27.4922,212.8710,190.8416,212.5057,95.0733
-2710.9375,-129.3600,12.6591,78.2054,71.0246,-25.9757,106.3137,231.3739,96.2972,101.6414,-140.1704,-173.9926,-131.4636,-60.9299,-24.6311,61.2957,-111.0921,51.1536,30.9328,157.8770,-135.8381
-2703.1250,-479.1604,-125.9470,-189.7911,2.5055,73.5345,169.9082,0.5980,85.4548,-92.1952,401.6493,-294.5931,4.8457,-144.3178,78.0006,87.3582,25.9122,88.0508,138.6320,125.8499,147.8802
-2695.3125,-64.2848,78.1123,0.8801,66.6386,-175.3362,-5.8583,9.4578,168.2787,99.6153,-620.0005,80.4990,-24.1924,83.9695,20.8148,60.0606,-2.4381,221.6502,96.9933,119.4781,-174.7771
-2687.5000,-127.1725,-265.6177,1.8111,4.0170,157.0737,142.6446,195.5950,96.3445,64.6879,447.6967,-358.2018,-59.9898,-244.5303,45.8873,-11.9942,-0.5438,-87.5065,34.5988,128.3583,-26.1872
-2679.6875,-286.9530,-75.2035,-167.1332,19.5411,-122.3864,47.3052,27.8624,259.5749,301.9064,-234.4794,-49.7378,-44.6274,-45.8752,42.2215,-142.9069,15.5023,138.5293,191.3820,179.3941,-10.4349
-2671.8750,-86.3599,-14.4378,54.2992,45.4176,-10.5074,49.3209,360.5035,225.1555,414.4917,-307.3668,-121.9108,-153.9112,-80.8594,-16.9123,-104.4723,-56.1138,-12.0651,5.5091,169.7769,-266.3728
-2664.0625,-357.7997,-179.6977,-170.2809,-50.7159,96.3955,155.3608,136.1405,221.7277,6.0463,534.8624,-236.1217,-120.1839,-194.8724,36.5092,1.9510,50.2686,-108.6519,51.6396,180.1550,60.7143
-2656.2500,-107.9240,35.3690,-45.5520,-45.5444,-182.4378,-49.3118,79.0514,311.6126,59.8950,-477.7228,221.0132,-179.1506,151.4423,-40.2327,55.6648,29.9476,72.1173,56.0808,220.8390,-180.9179
-2648.4375,-69.1911,-241.7409,26.0495,-112.5199,147.6062,96.8855,262.8377,164.3380,-162.4266,513.6031,-186.0357,-181.2754,-107.4219,-12.4353,54.2319,28.4665,-171.2610,-45.6340,154.3694,-71.7102
-2640.6250,-156.4941,-13.8612,-182.3689,-59.4869,-61.3610,-1.9050,-55.4056,250.0649,-221.7693,83.9357,-63.0798,-58.3850,14.7161,28.1660,-7.2094,77.9829,57.4018,113.6798,172.8932,87.5185
-2632.8125,152.9289,84.7328,42.9441,-30.7394,-92.6463,-68.9939,209.0608,220.4937,151.6104,-241.1216,-94.4020,-126.8015,-15.4311,-40.3018,37.0377,11.1821,-20.1992,-68.3051,167.1118,-200.5930
-2625.0000,-200.9784,-128.0004,-232.0500,-173.2971,72.7966,22.6417,264.2326,128.6164,207.6695,734.6403,-443.0723,-70.5133,-216.9141,-18.9959,128.9764,30.0828,-198.0987,-105.5940,165.0275,149.0173
-2617.1875,-36.1353,107.0422,-163.2988,-219.1015,-224.0492,-199.9805,188.1226,199.5080,314.4637,-371.9473,31.0508,-75.4642,72.3780,-58.6967,162.6591,63.7298,36.8102,-81.1175,225.6979,-1.6329
-2609.3750,-100.2779,-236.9350,-46.5223,-246.9003,40.1226,-46.5888,380.0373,133.3937,249.2530,444.4987,-328.8534,-105.4169,-140.3490,-22.1862,170.3382,71.3675,-202.2759,-143.6498,198.3637,5.6968
-2601.5625,-413.9046,-269.3749,-310.2157,-209.1516,-77.1594,-15.6319,79.4731,200.8281,242.5729,326.5381,-189.2142,-0.8084,-36.5359,48.2822,126.5530,137.5585,-58.7780,36.3884,201.5739,219.6008
-2593.7500,-3.2472,-104.5540,-50.6322,-149.1427,-147.2148,-49.4290,268.1607,168.5149,394.1505,-403.2850,-39.2843,-70.9461,77.5486,-15.1630,132.0073,31.9877,-33.9873,-45.3205,156.0326,-107.2867
-2585.9375,-198.5632,-335.7265,-229.9923,-240.0913,150.8175,101.8534,271.9060,26.2442,103.7526,666.0601,-402.3506,5.9725,-212.3510,47.3264,172.5033,72.4608,-195.1469,-28.9793,136.5333,153.8907
-2578.1250,-151.9481,-113.9250,-212.4098,-157.0852,-161.2307,-26.9143,70.5675,117.9331,270.3004,-344.7303,56.5700,23.8569,62.7210,25.1718,116.9386,54.8755,61.6992,122.3387,112.9835,25.0156
-2570.3125,-122.3541,-294.1606,7.1545,-127.1216,95.6835,84.2798,402.2029,8.5615,307.7973,170.4240,-127.5720,-86.3160,-121.2660,-2.6850,44.3169,-17.7802,-153.4904,-22.4007,74.3703,-84.9393
-2562.5000,-316.6869,-207.3057,-244.2028,-145.0583,63.7070,126.5980,113.9082,52.2798,-53.6568,396.7517,-121.6302,-6.3759,-115.1689,43.4383,50.7888,25.6637,-65.5514,99.9775,125.8504,178.2349
-2554.6875,100.4677,105.0167,-49.0858,-79.5334,-107.8493,-44.6414,201.0515,65.4523,179.3374,-509.5963,110.7996,-68.9812,80.4043,-31.4676,26.7037,0.5446,-0.1072,26.8129,122.7849,-177.1743
-2546.8750,-133.0984,-164.4094,-84.6644,-172.7110,188.9296,104.4497,313.5167,-6.0841,-2.3672,595.4572,-290.5186,-103.2867,-136.7591,-12.5394,28.9104,2.7194,-234.3700,-32.0551,135.0204,45.7208
-2539.0625,-119.4427,61.4289,-141.0083,-87.6337,-89.0724,-25.2063,0.2026,121.6434,-94.8210,-269.2929,129.4423,-50.3230,136.3371,-20.4009,9.3469,-16.8587,61.6691,89.3491,221.5027,25.8701
-2531.2500,60.7067,-75.2631,91.1319,-83.0929,71.3787,-12.4107,307.3504,98.8100,65.1711,-0.6256,-42.1377,-110.9106,1.8803,-52.1555,-14.7844,-77.0025,-144.8259,-81.8069,226.4246,-145.5665
-2523.4375,-328.0691,-252.8674,-216.6421,-154.4524,18.9427,46.5079,183.5726,158.0670,234.2177,537.2353,-202.6454,-51.3820,-122.4969,-6.5560,-27.8240,-17.0489,-146.2007,22.1459,259.4368,134.1250
-2515.6250,18.5743,23.9531,-23.9931,-89.3976,-228.1251,-127.1836,267.1785,205.7314,392.6473,-518.6337,211.2992,-116.4466,144.5581,-88.4971,-55.4778,-81.7034,24.8817,-16.4928,220.8531,-186.8115
-2507.8125,79.9266,-160.5567,32.3741,-97.6467,160.5405,4.8447,251.5015,6.0785,-65.2373,531.2828,-137.0941,-95.8096,-92.7176,-68.9367,-34.4315,-97.6677,-159.3419,-95.4454,142.9622,-19.0462
-2500.0000,35.7066,111.3848,-53.8320,-71.4481,-73.3676,-81.6757,-126.7578,67.8783,-186.6738,-142.3766,181.9762,2.2958,152.4617,-47.0748,-82.9380,-72.1829,113.9281,107.0729,133.5193,42.1876
-2492.1875,233.9155,28.7303,166.3904,-47.8452,36.1175,-44.7977,203.4017,31.0776,180.3048,-254.7000,70.4620,-72.1985,115.0517,-86.2228,-84.0497,-146.3093,-39.3776,-80.0188,51.4725,-216.2168
-2484.3750,-146.7623,-175.7910,-99.2455,-112.1020,138.7787,57.2577,84.7006,-13.5836,135.4038,547.2349,-157.9433,-7.5327,-40.2422,-17.7268,-91.0265,-43.2877,-137.5234,-3.9511,-12.4310,106.5582
-2476.5625,204.7280,104.8794,58.2768,-6.1974,-144.4448,-78.5474,-13.8798,34.9146,36.6432,-654.8039,293.8468,41.2902,228.6427,-25.7695,-79.8754,-69.1249,143.5415,32.2822,-12.1817,-139.5366
-2468.7500,205.9906,-174.7211,128.5766,-39.5386,220.1125,103.4174,57.3101,-114.8520,-296.3854,260.9645,-113.6456,37.8581,-31.7517,29.3214,-8.9815,-35.2212,-65.6463,-0.7453,-44.1911,-31.8941
-2460.9375,-127.9783,-16.5259,-79.3464,-22.0778,12.4623,117.1945,-221.7382,-26.8181,-135.6323,-166.4561,46.6646,161.2403,91.6555,95.2189,-68.2987,14.4806,93.0055,193.0514,-60.4043,91.5709
-2453.1250,305.6904,347.2895,132.3628,60.9944,-69.6026,34.5689,25.8223,-109.1872,75.7346,-542.3741,221.6017,42.2183,119.6810,-32.2340,-152.0262,-104.2339,0.2909,29.4480,-155.0235,-248.4030
-2445.3125,285.0441,326.7797,-50.2303,5.7660,116.0647,147.6715,-190.9204,-178.8754,-399.2276,452.5310,3.1957,81.9036,-62.6257,1.9944,-185.0644,-28.2614,-160.7209,10.5470,-208.9503,48.3463
-2437.5000,642.2613,579.1454,74.0280,81.3967,-238.4517,-22.3788,-433.8475,-91.7058,-458.3575,-636.8229,494.6978,95.4500,282.9475,-40.4393,-209.2629,-50.4519,91.1776,86.5116,-239.0325,-122.0661
-2429.6875,702.2529,321.2566,173.0724,70.7858,45.8100,78.3330,-188.0055,-175.8066,-431.7559,124.5939,79.9379,47.7455,51.2618,-36.7133,-182.7186,-60.9101,-165.1663,-64.7888,-283.3826,-132.7485
-2421.8750,353.6694,360.8231,-16.4514,75.6280,-105.4775,73.5102,-448.7570,-142.4706,-363.7308,45.5013,221.6201,116.5091,83.0209,8.4615,-222.7354,7.0793,-19.0288,81.3808,-279.2992,83.0495
-2414.0625,677.9284,439.2219,262.8529,188.2852,-194.9874,-51.5206,-243.7101,-157.3331,-121.8743,-593.9067,464.1329,27.0752,214.5981,-85.9090,-238.9716,-118.1496,23.9443,-16.6474,-342.4246,-226.3920
-2406.2500,349.8310,146.2575,126.8126,107.5875,74.1848,71.1254,-230.0066,-217.5674,-292.3901,521.4486,71.2529,39.2898,5.7893,-39.9974,-225.5654,-67.7352,-127.4358,-27.0289,-351.9142,79.8312
-2398.4375,362.6399,440.2264,107.6758,155.7976,-238.7667,-95.3347,-396.4533,-162.9026,-164.0421,-454.3861,493.3254,93.4206,280.9048,-67.8606,-208.2685,-88.4293,132.1450,56.5065,-338.5130,-13.0441
-2390.6250,500.1299,226.8365,257.2271,152.6601,19.9502,-19.1363,-100.2351,-344.6051,-89.0617,320.4187,201.0498,22.2054,62.6710,-116.0900,-207.3235,-159.4866,-81.6170,-121.3194,-411.4733,-121.2956
-2382.8125,254.4836,227.3330,23.6624,83.4239,8.5819,6.9824,-368.1448,-392.4214,-320.2145,787.1876,189.6569,83.9060,50.3227,-114.0439,-217.4882,-169.6451,25.5414,20.7756,-410.5464,161.3850
-2375.0000,568.8297,506.8155,293.0707,152.1586,-90.8601,-91.9521,-356.1210,-343.2903,-382.4080,-121.2280,495.2589,22.5567,246.9566,-163.5706,-243.7165,-232.8707,129.6967,18.8351,-342.6894,-158.0181
-2367.1875,205.9250,143.0220,160.2472,70.6468,218.4896,107.8943,-194.3415,-328.4363,-477.8661,923.2070,-5.4302,36.9527,-69.6823,-88.7976,-191.2051,-216.3604,-127.4022,7.6340,-212.1016,77.3368
-2359.3750,53.6149,272.8459,-32.9826,94.7372,-121.5788,-11.6613,-240.0047,-115.9881,-229.7365,-5.8212,243.5192,64.9653,141.3012,-54.9130,-273.1059,-152.2544,109.1483,174.0467,-47.9235,31.3061
-2351.5625,202.9976,70.3186,95.4717,68.4868,44.0100,44.4326,145.9912,-134.9022,46.0402,196.7572,41.1207,-27.3652,49.9319,-76.6834,-256.3632,-171.5086,-128.6317,7.1004,-39.1056,-171.1050
-2343.7500,-228.4567,-44.0307,-185.8875,23.4398,55.8202,130.7477,-97.8401,-121.6304,-88.0222,687.6272,-56.1084,95.5253,-47.2610,23.0022,-205.4322,-47.5589,-101.1951,138.3647,-83.0969,135.7142
-2335.9375,-15.5904,133.9559,51.0755,96.7135,-111.0972,38.3541,-117.3979,-31.0561,-107.7919,-435.3394,365.0186,75.7226,262.8781,-0.5250,-189.2115,-104.3196,147.5936,141.9422,-80.8027,-178.1930
-2328.1250,-77.8446,-245.1740,126.9381,105.8846,295.9393,223.8941,-42.0704,-138.6146,-362.7073,632.7508,-74.9988,40.8260,-66.1205,46.4141,-223.0975,-103.1870,-19.7340,115.4165,-107.6318,-29.1652
-2320.3125,-80.0802,-0.2698,-23.1916,175.0739,35.9256,148.4173,-300.7881,-31.1745,-181.6253,-32.2994,143.0518,111.9518,41.9213,55.8480,-336.0009,-105.0606,226.0018,254.9080,-108.4743,4.8556
-2312.5000,232.1409,135.0100,168.1303,205.6674,117.3406,156.3446,-0.0724,-96.3617,82.8637,-207.9298,40.4793,9.4742,-60.6528,3.6041,-292.5090,-134.5506,81.1311,74.7730,-183.9299,-281.7521
-2304.6875,-111.9111,38.0473,-95.8214,143.0089,184.5131,225.0318,-151.6525,-137.8167,-216.9270,595.2574,-185.3528,113.7568,-213.4830,73.9962,-150.2851,-30.2936,20.0340,83.4067,-174.6512,43.4331
-2296.8750,161.4960,275.5364,52.6733,170.7670,-71.9407,6.1060,-261.8426,-63.8891,-253.3200,-543.3304,256.2840,152.4425,118.1317,46.8139,-112.6784,-28.6539,259.3900,75.4409,-112.9880,-176.0305
-2289.0625,92.2834,-4.6051,86.5789,136.9255,256.0671,150.6163,-43.6327,-176.5919,-182.3624,261.6299,-188.7272,149.5300,-179.8866,83.0162,-79.6740,-31.6288,-20.8695,6.8736,-146.9456,-69.0743
-2281.2500,-166.3297,123.9008,-116.9266,159.6962,51.6339,93.7210,-246.8715,-48.6892,-54.8178,-419.9269,-25.0845,239.2365,-52.2708,155.5627,-99.0863,57.9871,179.5222,170.9310,-88.3053,94.4839
-2273.4375,210.4647,219.7663,142.9654,220.8235,18.5679,24.1784,-23.7238,-9.4502,131.0911,-1079.1615,51.9007,132.2849,-12.3093,123.2221,-97.1571,61.9324,135.2538,56.3136,-63.3190,-196.6519
-2265.6250,-65.6756,-22.2875,-51.0759,155.0435,191.6196,161.7501,-32.4975,-18.1174,-98.9203,-22.1921,-251.0446,85.4448,-242.2670,140.5694,-69.1326,87.9766,-0.9098,60.8010,-22.2362,124.3573
-2257.8125,103.9980,254.4587,-12.3362,185.0305,-99.6126,-18.9544,-141.5324,130.9654,-23.1724,-976.6489,228.8289,-21.6430,53.5662,50.3282,-104.3679,53.7489,241.7276,92.0418,41.5837,-56.9247
-2250.0000,177.5716,82.0792,139.3233,83.9150,198.1108,58.2654,83.3371,24.9093,-130.5614,-164.0728,-98.4409,-17.8289,-126.7365,30.5920,-26.7050,-15.5852,-70.7488,-79.8302,10.2860,-53.2976
-2242.1875,-119.8401,135.7667,-71.9811,31.8592,59.8600,31.5374,-200.7957,34.9004,-193.9126,-191.5172,94.3746,175.0616,-5.9658,78.5910,-17.0000,-5.8668,53.8784,44.3691,-40.9671,176.3939
-2234.3750,238.8481,213.5142,169.8116,74.8635,-28.3313,-57.1438,4.1530,-54.0666,84.8158,-942.9719,300.2359,122.9960,198.8659,6.2156,3.7575,-95.1240,62.5571,-53.4041,-104.1791,-132.9090
-2226.5625,-8.6922,-138.9516,8.3724,-30.3495,252.3089,113.9934,27.8896,-177.2513,-75.6661,183.5132,-117.1586,109.7463,-34.5390,49.4089,63.3162,-34.5887,-112.9754,-53.3756,-104.6012,147.6387
-2218.7500,41.6696,86.5040,28.7935,54.2996,-59.2551,-13.0483,-209.5446,-83.5809,-92.2739,-863.3298,343.3564,129.3539,278.9382,47.2496,46.7141,-16.2115,219.3964,102.5117,-125.1876,57.0055
-2210.9375,118.3596,-118.7561,223.5411,25.2591,209.5280,72.2318,22.3440,-182.6438,-119.5872,-336.7682,97.1196,67.2576,105.6712,38.1374,94.4097,-41.5495,-19.9576,-31.3277,-154.4938,-42.3310
-2203.1250,-280.2611,-200.3004,-58.0237,13.9228,148.0002,121.2102,-223.1374,-171.0207,-180.2911,5.4707,72.6279,189.8768,45.1300,116.5535,106.7953,44.8205,74.4452,97.5559,-131.1108,227.0678
-2195.3125,59.3983,69.3917,164.6783,107.8038,-33.3213,-22.6194,-110.4412,-132.2144,42.1194,-948.1888,296.3787,155.6935,193.8277,71.1217,72.3886,9.3767,205.0692,15.6270,-143.5443,-101.3735
-2187.5000,-72.4361,-133.4056,89.9100,45.2354,259.9392,124.1294,-1.2153,-242.8765,-68.9115,225.8723,-183.3803,155.0558,-137.9609,89.5692,107.5301,8.4833,-67.7860,-44.7403,-169.4461,117.7783
-2179.6875,-58.6650,127.4403,-4.2660,61.2837,-90.2567,-42.5389,-204.4017,-78.9296,93.7675,-565.6320,127.5215,135.0221,98.8844,50.4434,50.2434,24.1793,195.0044,75.5013,-119.7685,97.5042
-2171.8750,165.0583,-35.8090,202.4982,39.2358,78.4858,-20.2962,74.3520,-131.1296,153.3652,-323.1870,2.2929,9.8938,10.6038,6.7590,72.8422,9.7434,32.6792,-122.3944,-107.2165,-100.8859
-2164.0625,-106.6855,-131.4801,13.7969,-22.2576,145.7764,49.4941,-151.4140,-135.8126,-183.5469,258.8209,-112.3672,78.3465,-68.1155,52.7824,103.9830,41.8552,41.9439,-7.7213,-98.1280,224.3144
-2156.2500,215.4351,225.6843,178.9537,90.0794,-92.1419,-115.9256,-133.3870,-153.7166,19.3173,-862.5314,273.8299,60.6037,172.0039,-22.3531,85.9049,-50.2500,226.0516,-1.2480,-128.2525,-50.7331
-2148.4375,66.5458,41.8216,127.1223,10.4246,224.0042,53.6829,35.6222,-278.6604,-32.9027,262.2699,-145.0159,45.8770,-136.9110,-13.0460,107.8242,-64.3601,-63.8535,-114.7857,-136.3972,81.2532
-2140.6250,-94.8214,126.5259,-43.1934,-9.7127,-56.3819,-79.2266,-170.9362,-155.1091,126.3172,-313.5764,161.7151,132.6663,21.7211,19.8217,46.2333,21.0250,127.8039,5.1972,-52.0524,130.7348
-2132.8125,143.0558,13.4387,180.7348,-17.6432,19.4670,-75.9262,161.7205,-153.3804,129.7520,-420.2024,91.6238,25.6382,25.5398,-0.6082,123.8378,23.5955,15.6314,-142.6397,-25.5251,-123.6100
-2125.0000,-215.2566,-169.8152,-25.5300,-93.7273,180.1643,49.2359,-44.7984,-138.8114,-224.9007,475.0900,-151.6378,76.4711,-70.8066,56.2206,173.2740,75.0185,-95.6948,-43.6015,-32.1755,220.9325
-2117.1875,4.5547,121.0261,30.2966,-49.7476,-131.1138,-115.5725,-99.2554,-9.2028,88.5343,-645.7468,272.2184,23.3526,169.9352,-20.5128,193.7377,20.4705,54.0608,0.4812,-23.7972,-16.5272
-2109.3750,-9.5103,-245.0559,50.2475,-99.6671,108.7812,14.7508,177.3784,-99.5337,180.9744,365.6556,-148.8603,-31.6617,-69.2483,-13.9531,212.2847,39.0069,-240.1026,-154.3512,-74.3344,39.1402
-2101.5625,-174.3163,-199.8443,-165.5501,-53.3246,-107.1003,-16.6861,-111.8111,-22.6178,110.6065,39.1943,38.3816,46.5904,81.8633,25.6544,179.0663,79.7868,-16.9611,33.0954,-28.6258,190.0663
-2093.7500,152.5721,-82.9695,80.3441,-7.3136,-81.3108,-64.4668,133.6743,1.9303,172.9017,-377.6369,64.2562,-38.5169,144.6174,-31.0337,167.4993,-5.7966,-41.1794,-61.8278,-18.2759,-115.3977
-2085.9375,-273.4788,-192.9992,-122.6968,-116.2096,156.6006,63.8710,77.2353,-53.4385,80.2801,632.7369,-285.8050,17.4825,-94.5512,13.1123,111.0346,12.7233,-149.3072,-30.6410,12.1664,196.2840
-2078.1250,-181.3280,109.1590,-18.5660,-24.9380,-143.3793,-89.6671,-40.0597,13.3556,146.8335,-513.9211,223.3470,-26.3783,193.4759,-54.6070,141.7174,-68.6167,188.7514,60.6932,-2.2386,6.0753
-2070.3125,-97.8725,-122.4284,144.8846,59.6224,166.9983,74.1062,159.9615,-81.5658,-21.3470,272.8739,-165.2552,-120.9390,-85.2338,-58.3775,194.7077,-125.6521,-6.9306,-65.7035,-59.3544,-14.8171
-2062.5000,-292.0281,-0.5701,-142.2844,75.5820,-10.2525,45.2626,-127.6752,-38.0918,-15.1504,315.0128,-195.4160,-3.0778,-114.5155,-6.8204,163.0892,-46.2838,114.8270,91.3122,-43.0851,211.7136
-2054.6875,84.2616,129.7130,81.9893,135.9496,-154.1001,-25.1937,96.1197,38.7668,355.4937,-415.5154,-81.1694,-72.8329,-74.3915,-43.9623,56.8669,-79.5265,140.9734,-24.2877,-19.4258,-115.4013
-2046.8750,-178.2587,-238.8046,-57.5157,48.5657,147.3347,92.6199,176.1637,-27.1381,215.4018,656.3541,-441.7174,-65.3369,-325.0525,3.7847,26.8811,-35.5204,-49.6474,-4.6331,-0.5162,148.7790
-2039.0625,-153.0839,-2.6182,-64.3597,73.8504,-151.6204,-59.9422,-51.1619,113.6100,98.9669,-342.3061,67.4485,-35.1772,36.9836,-3.9135,57.5367,-5.8802,221.4246,54.6773,93.0412,32.5820
-2031.2500,11.7784,-153.7792,115.4713,-6.2114,100.1218,9.1608,201.1845,70.9712,19.1417,129.7850,-121.7844,-113.3706,-78.3616,-22.1151,88.8560,-10.6028,-68.8887,-131.3937,83.2429,-82.9664
-2023.4375,-227.8797,-182.4222,-148.2197,-104.7726,20.3535,3.7516,-26.0203,64.8306,-61.2040,453.3774,-91.5010,-9.0561,-48.1919,11.3469,81.6693,56.1772,-26.6742,-53.9468,53.9403,204.0145
-2015.6250,181.7703,16.2116,109.3878,-47.0632,-164.1669,-180.4152,47.0408,63.9201,48.7082,-428.8940,277.0691,-45.4979,209.2515,-69.1999,44.7277,-17.8081,67.8005,-101.2641,4.8709,-89.7974
-2007.8125,-53.2079,-183.7733,35.3844,-106.9605,167.7599,-31.1562,46.4861,-119.6228,-135.0032,710.3749,-127.0032,-44.5205,-46.9446,-42.9919,118.1844,18.6058,-202.3606,-126.1821,-19.8164,130.8353
-2000.0000,-76.5005,73.9408,-96.9683,-95.2062,-149.7129,-128.2794,-123.4458,3.4872,23.9774,-122.8705,143.6447,4.1145,149.5587,-40.9436,94.2858,30.6654,20.1562,25.5614,25.1338,107.1012
-1992.1875,174.6045,-61.0159,65.0497,-89.0957,12.1966,-76.0417,221.9999,-18.0720,113.3124,1.3220,-98.3988,-89.9233,17.3968,-54.4881,109.7407,9.0681,-148.0191,-108.3698,66.4190,-98.2991
-1984.3750,-164.3762,-225.0080,-193.0044,-77.0310,48.0530,34.1483,-36.6616,17.3151,-108.4370,588.5059,-209.4838,-17.0074,-93.8078,25.1105,35.1408,81.4249,-100.2256,44.6629,76.6415,194.2921
-1976.5625,91.6821,-3.9592,14.9896,39.0460,-148.1042,-88.6818,-49.3137,114.6879,98.8195,-564.4452,109.4903,-66.0907,115.0229,-0.4241,21.5450,68.7601,121.5870,54.6810,51.8564,-112.1593
-1968.7500,-61.2439,-260.8922,-2.9673,-43.8360,201.8457,113.5575,115.0879,22.0787,6.1064,482.8138,-349.5410,-85.1186,-197.1375,39.6653,77.0009,87.1444,-135.5862,-63.2610,39.1117,16.4791
-1960.9375,-163.7122,21.6607,-150.4796,-6.2610,-92.8024,2.2192,-143.0955,93.9258,3.8505,-143.6108,-57.0629,24.3083,-51.8045,52.1053,37.9083,84.9813,148.7295,115.2639,39.8123,88.5643
-1953.1250,170.1802,39.5102,173.3475,81.6225,46.8814,33.1827,70.0466,13.0553,70.8734,-298.6994,-64.3076,-92.9770,-59.1834,-12.6226,-42.8759,-32.8842,96.3187,-7.9483,-13.2005,-176.0741
-1945.3125,-170.6286,-195.3249,-50.5505,56.8036,225.8711,139.4449,-118.5654,-64.5275,-153.8466,579.5920,-288.2666,-21.9499,-246.2731,54.5371,-46.3658,36.5570,72.2037,72.1510,-2.9258,150.6386
-1937.5000,-2.9315,7.3402,63.0357,155.4557,-100.7200,-3.8656,-115.7368,48.3372,105.9083,-557.8276,120.2775,-19.4818,14.1246,26.2197,-43.4205,2.4382,277.5612,100.7018,22.7920,-103.2418
-1929.6875,-51.4646,-216.2301,119.4291,141.9021,176.5469,126.6516,123.9105,-43.0264,87.4506,380.7017,-264.4370,-110.2112,-222.7211,11.8616,-24.6782,-14.8784,17.6811,-53.9609,-26.7045,-47.2994
-1921.8750,-199.3146,-48.0634,-79.4865,134.0530,-23.5138,36.8535,-222.7855,14.3127,-75.3039,105.8250,-59.3984,-15.2304,-91.8332,33.8306,31.7573,41.5033,221.5358,78.0949,34.4993,120.3541
-1914.0625,222.3837,91.6281,192.1441,134.7073,-9.0508,-58.4475,11.0544,28.1328,11.4580,-394.5784,28.1326,-111.7579,32.5545,-39.6741,9.6911,-17.6307,117.8650,-62.3756,34.1880,-196.5264
-1906.2500,-80.3006,-141.0387,-29.6020,41.0085,211.0830,88.9072,-26.4842,-45.4185,-173.1630,633.7817,-265.7050,-73.6236,-188.4186,19.7167,-27.7258,54.8861,-45.1776,-14.1889,10.5203,97.2910
-1898.4375,29.6056,110.8692,21.2290,117.8781,-143.2784,-81.2176,-161.4858,39.5818,-13.2049,-456.4763,225.0774,-23.9278,192.2088,-8.4934,-88.5937,30.9459,172.3556,61.5438,-19.5998,-73.3787
-1890.6250,1.0120,-58.7681,139.5770,54.2365,122.9170,0.1765,141.0482,-62.9368,177.2381,211.8971,-97.6962,-126.7306,-20.6926,-46.8793,-7.9528,1.4931,-136.6635,-107.2495,-49.2220,-102.5374
-1882.8125,-214.7435,40.4798,-132.2363,12.4367,-40.0632,-87.5973,-58.6141,-41.6021,271.5153,232.0657,-39.5767,-31.6799,37.2836,-34.7728,-23.4618,58.8960,-36.8080,-42.1827,-20.9925,102.1791
-1875.0000,262.7022,237.8911,123.1539,68.7866,-151.8846,-237.2386,48.9008,-8.1371,158.9651,-468.6662,216.7124,-70.4949,183.4178,-105.3567,48.1789,-16.5646,20.1891,-197.9919,-0.6138,-193.9911
-1867.1875,88.7029,-7.1291,-0.8797,-0.2714,128.9256,-102.2673,-74.9954,-95.0915,-333.0045,694.3372,-90.4414,-45.7029,-13.8788,-71.7207,107.4196,6.5806,-153.2339,-196.1939,-0.6353,123.4868
-1859.3750,158.4325,309.6009,-34.1947,35.3889,-235.6056,-282.6177,-256.2053,-56.3329,-146.2619,-296.1400,316.1667,29.7848,246.5673,-93.7681,110.3457,8.4208,93.0822,-90.6812,-1.9557,52.6324
-1851.5625,188.0815,163.2010,112.4247,-6.0384,-16.1816,-174.0470,145.5027,-132.6953,145.3284,142.3891,-15.3673,-81.8429,23.8910,-129.8923,108.1693,-66.8434,-158.7351,-202.2888,-43.3800,-59.3267
-1843.7500,-127.8901,162.2132,-157.5763,-76.0634,-66.3611,-40.0791,-52.4523,-108.6512,94.2824,459.3129,-101.4822,-58.0634,-62.3697,-74.9347,21.3905,-6.7004,-52.1335,-27.4788,-9.4065,221.1477
-1835.9375,385.6864,535.7360,62.9545,14.4199,-214.0535,-150.6348,-52.8783,-73.1014,130.8229,-497.3582,154.9128,-94.7979,84.8759,-147.0930,-52.8882,-118.0666,74.9560,-7.1931,-24.9251,-109.9270
-1828.1250,268.5577,243.5565,4.8134,-31.7644,169.6380,86.1667,-37.9292,-204.2073,-185.2470,657.4924,-269.4134,-42.1769,-229.5760,-72.9702,-73.8124,-102.0766,-111.6464,-18.5740,-107.0854,89.3885
-1820.3125,213.8937,328.8744,-51.8745,89.5017,-106.2698,29.3775,-315.5449,-77.8395,-168.8369,-172.3527,150.7725,-26.1095,6.4657,-52.0987,-168.2834,-85.6393,221.2293,172.4964,-91.7873,69.1385
-1812.5000,383.4494,217.3854,209.6578,152.9592,80.0598,69.7879,-19.9155,-76.2841,-20.2292,-96.9174,-66.8858,-169.8593,-100.3131,-80.3232,-203.5335,-121.0023,39.2531,60.7334,-65.2857,-148.9250
-1804.6875,-66.5799,83.3442,-89.3993,54.8475,110.8366,137.6464,-98.8726,-8.2767,-62.2133,485.0126,-218.0859,-101.1469,-178.6288,-10.0541,-171.3257,-15.8975,-22.2833,102.4364,11.6671,139.5047
-1796.8750,66.9448,252.8346,63.0747,13.2361,-140.9038,-41.0228,15.6814,142.2385,162.3125,-613.6813,191.2617,-169.9445,119.5964,-60.8228,-93.6162,-12.2965,75.6780,95.6264,74.1263,-149.6100
-1789.0625,-132.9565,-88.1127,31.1430,-81.7921,195.0062,110.9249,203.8490,73.3366,92.4120,530.4009,-170.8455,-238.1463,-132.6089,-59.8408,-16.3071,-8.0895,-228.8094,-34.6020,49.1794,1.9101
-1781.2500,-188.0450,67.7817,-177.9951,-102.0167,-124.3305,-24.3572,-43.2238,120.2448,176.3125,25.1617,59.9081,-116.5336,62.0321,-47.4609,-6.2061,38.9199,-38.4740,85.9825,98.0357,86.2298
-1773.4375,149.5677,18.3284,75.5481,-81.5865,-54.9915,-64.9934,283.3940,79.7783,246.8871,-162.4025,20.2865,-157.2761,22.3030,-82.2216,-46.4483,-38.4304,-122.5270,-69.8127,153.5333,-174.8247
-1765.6250,-211.4136,-201.6822,-131.4946,-160.7108,104.7986,21.8192,185.4394,53.7519,-72.0810,695.5655,-186.9041,-33.5562,-148.9935,11.7757,-70.2348,46.6740,-166.1373,-8.1522,177.4783,131.6187
-1757.8125,-12.0519,138.6388,15.7945,-101.5234,-189.1426,-162.0985,74.7921,201.0299,-72.7287,-444.3059,254.2618,-34.5448,182.0484,-22.2348,-34.7173,47.0701,34.5728,-20.2065,201.7266,-125.6767
-1750.0000,-28.9665,-125.3352,68.8480,-154.5951,121.7176,-72.2515,236.9081,143.0379,-131.6656,489.7446,-134.8761,-54.7896,-59.1926,-11.3080,17.5529,62.2221,-299.0158,-178.5241,182.7267,-73.1929
-1742.1875,-263.6042,-77.9846,-184.8144,-212.3649,-132.1628,-142.1279,-17.7155,218.3583,-18.2824,197.0098,89.3413,58.2714,53.9000,27.5274,20.1190,138.6811,-146.2796,-61.5254,228.0290,113.6016
-1734.3750,37.8444,12.4185,69.6137,-193.0824,-134.9774,-181.9632,236.7635,178.7137,162.1980,-284.6840,160.5929,56.3639,88.0323,-15.0622,17.7418,25.1807,-161.5198,-182.5038,177.3770,-183.5907
-1726.5625,-216.7303,-207.1799,-136.9875,-237.8091,98.2276,-57.7961,138.2182,80.0466,-9.3558,684.7486,-230.1910,142.4684,-155.8616,65.1055,29.3709,110.6785,-240.7684,-121.4838,131.7249,123.2688
-1718.7500,-51.8440,62.6712,-66.1611,-143.1197,-234.2068,-207.2622,-11.9406,187.7756,97.4787,-532.5862,134.4850,176.9687,135.6830,70.3552,63.4018,144.5739,30.4220,-62.0663,155.4795,-63.5055
-1710.9375,28.9253,-172.6359,56.5793,-96.5331,34.3174,-48.8138,219.8315,88.3951,35.1990,177.1222,-185.0049,78.3586,-72.9096,64.2790,112.3406,119.3763,-238.5416,-192.7661,60.1409,-88.3695
-1703.1250,-254.5941,-174.1836,-213.9666,-64.2057,-89.4461,-25.6310,-88.6760,146.7911,-15.3084,272.5439,-87.7133,137.5079,-49.7384,109.0691,24.0340,177.9445,-100.7491,16.2975,90.5644,154.5391
-1695.3125,79.7409,-51.9213,3.3168,-11.0832,-203.4205,-139.6639,127.6602,179.9984,274.0297,-466.2827,129.3784,24.4393,130.2347,22.6505,-16.4639,100.3088,-48.1905,-72.8727,72.8050,-179.7915
-1687.5000,-222.6296,-248.3386,-104.0890,-103.6365,92.9842,8.6543,165.3538,33.5572,164.7149,675.4030,-272.2363,62.7197,-161.4817,53.4303,21.3904,102.0365,-244.3182,-94.6953,50.4144,79.2790
-1679.6875,-141.0951,9.1824,-125.5900,13.7121,-220.7581,-157.1636,-76.0554,160.0462,107.3297,-338.1680,185.1096,115.8966,111.7451,39.7520,38.1407,80.6676,83.4787,22.3812,60.9412,-14.7791
-1671.8750,129.9407,-177.8548,126.4276,73.5510,30.0441,-53.4647,102.0742,80.0263,-193.5887,95.8696,-5.0935,-0.4387,-4.5518,19.7496,68.4015,37.8091,-67.2665,-129.0652,49.9822,-131.3360
-1664.0625,-198.3553,-189.1908,-82.8801,61.0841,40.5311,30.9227,-219.1429,88.7159,-366.8374,399.6070,-30.5774,46.9397,6.8725,69.7067,-31.6360,83.6599,27.6980,35.2067,71.7345,172.8417
-1656.2500,38.3781,82.4691,141.8340,121.6175,-175.9680,-112.6998,-69.3314,129.4012,77.9394,-589.6256,303.9159,14.3097,231.2803,-24.2885,-65.6667,-59.4941,87.6302,-11.5449,26.4865,-153.9981
-1648.4375,-187.7307,-107.6800,6.7123,0.3389,129.7314,45.8798,162.6785,30.2915,124.9383,561.4108,-198.4207,-48.1123,-88.1279,-27.5403,56.4986,-48.4363,-208.2524,-96.0910,-25.5547,41.3954
-1640.6250,-176.5059,148.5041,-92.0902,47.3612,-189.2930,-126.2684,-120.0043,114.4876,25.2524,-200.3566,142.5832,-0.2412,179.7913,-34.9043,103.9648,-1.0811,84.1742,54.6554,-15.2906,52.0612
-1632.8125,185.8149,158.7691,185.2050,92.4698,13.8188,-107.3073,45.4304,22.7768,-102.3392,-107.9079,52.6405,-54.2787,89.7816,-78.6025,86.5343,-91.6222,-11.3456,-111.5127,-75.9204,-149.1559
-1625.0000,-102.5292,152.3913,-19.1671,49.9259,102.2435,18.9826,-196.8053,-72.5663,-271.5661,494.8407,-78.9170,71.0376,-41.8556,-4.2832,-8.5459,-39.8050,-17.5092,22.6774,-153.1861,159.9870
-1617.1875,235.7984,385.6515,163.1371,107.0292,-155.6671,-130.0855,-162.3591,-1.2559,-53.1386,-645.7579,324.1766,70.9933,177.1608,-50.3523,-120.9745,-115.3395,179.9531,43.4921,-132.7949,-135.2435
-1609.3750,105.2413,44.0490,169.5716,47.2681,181.5873,59.9969,-9.7727,-142.7982,-157.5903,424.8932,-111.6051,76.1087,-111.6877,5.4960,-116.2467,-73.7168,-125.4588,-16.5427,-158.2466,-19.2847
-1601.5625,-42.9325,141.8404,-62.6325,39.8553,-86.8434,11.3994,-204.8376,-7.9770,14.3339,-211.2102,98.9961,102.5683,24.8455,45.0398,-126.1658,25.2558,78.4823,150.7709,-96.3396,43.0017
-1593.7500,194.8352,27.5621,89.1148,-4.6174,-83.2912,15.7550,202.0756,31.7869,385.2204,-428.2486,28.5009,-41.0408,28.3002,-11.7861,-50.1299,-7.8194,-106.6720,1.0176,-35.4775,-247.7510
-1585.9375,-60.2768,-192.5597,-157.0091,-119.9417,111.3857,136.2488,65.1173,4.7139,-45.7417,500.8428,-143.8206,-30.5027,-70.0805,20.7418,-3.9422,38.2622,-150.6727,25.4282,-11.4479,93.6653
-1578.1250,214.9412,82.5998,30.1985,-55.9707,-105.6323,-43.9658,-78.5125,44.9495,-116.4107,-635.7980,374.1686,-27.6797,263.8445,-34.1094,-37.4455,-32.3538,124.6125,55.1237,52.8965,-123.6467
-1570.3125,156.5091,-256.8909,114.7860,-78.6103,235.7727,76.2291,188.2540,-92.4032,-106.6759,293.0829,-56.4945,-53.4574,-19.8606,-6.7396,-26.5412,-21.5531,-144.7332,-38.7791,-6.3461,-76.5220
-1562.5000,-123.5677,-150.0042,-75.2869,-77.8923,44.4827,31.7509,-112.6229,9.6159,-187.5233,27.2132,83.2197,49.1125,82.8026,60.4457,-34.2923,80.5973,67.2766,102.6693,28.7741,99.9331
-1554.6875,187.2165,54.7135,188.4971,-49.3294,52.0698,-34.8712,40.3900,16.4819,-71.5212,-443.7224,163.7472,-91.4794,126.2857,-28.0821,45.8070,13.5958,62.1003,-45.0504,22.7526,-187.7673
-1546.8750,-131.5738,-123.1138,-48.2963,-121.3272,218.0953,94.9518,21.8273,-37.1888,-15.0917,641.7990,-257.2688,-107.6173,-183.7758,-16.0014,27.3574,32.0584,-150.6272,-47.3105,90.2025,126.0082
-1539.0625,8.9495,87.3756,-114.7710,-87.0308,-177.5870,-117.9456,29.5937,153.4501,286.6618,-490.4456,155.0328,-63.4627,80.4755,-21.5603,-37.7832,76.8238,24.9344,22.7106,124.9676,-49.9485
-1531.2500,49.0382,-153.5735,2.3315,-117.1512,86.3551,-0.2346,256.9751,85.6889,182.0059,177.0390,-133.1203,-56.7028,-96.7057,0.1222,4.6940,46.2012,-180.9444,-113.6717,94.3449,-80.2740
-1523.4375,-229.2669,-114.9135,-188.9833,-78.6737,-32.1465,28.0554,-83.0501,39.5527,-47.0188,241.0299,-30.6371,80.6604,5.7405,56.8063,-3.2248,73.1884,-2.2189,64.5537,60.3381,167.9908
-1515.6250,194.5416,96.8231,83.8164,-8.1124,-127.5251,-67.5590,42.0657,54.5229,41.0690,-514.8162,94.9170,23.1121,94.2681,7.9116,-26.0387,15.2823,104.5632,-40.1456,96.4405,-147.6568
-1507.8125,-3.7408,-170.4943,-60.4632,-99.6162,169.0371,43.7755,80.1173,18.4569,-103.9048,626.3412,-344.5780,24.5094,-234.2506,39.1366,12.1014,53.3400,-127.7206,-96.8887,109.5073,111.6785
-1500.0000,31.7954,74.9953,-94.9226,-65.3200,-158.6222,-99.1113,-65.0145,131.2117,44.9365,-363.7760,62.7576,27.6939,25.0527,16.4141,-21.9514,56.1993,117.7911,43.1560,143.3888,40.7841
-1492.1875,146.7524,-91.1017,68.0551,-55.5878,77.1956,-10.5400,208.3184,73.4163,97.2104,55.6936,-142.5091,-66.6668,-106.2281,-12.6896,-6.5449,-2.4761,-119.2916,-53.3638,117.7287,-90.6336
-1484.3750,-262.3838,-184.2701,-224.0843,-77.9599,5.8742,63.9008,25.5313,110.5442,97.3941,423.9904,-213.8433,-28.1189,-140.5852,28.4137,-41.2371,35.7598,-70.4716,134.0231,164.9832,167.8518
-1476.5625,3.6970,-59.2552,-5.0057,11.8560,-143.2392,-11.4649,133.9869,219.8802,243.8112,-569.4760,115.0011,-140.3892,78.2468,-17.7578,-43.7237,-2.8042,54.5102,83.5867,184.4523,-164.4783
-1468.7500,-180.0782,-383.0774,-22.7605,-101.1425,206.8426,154.3662,152.6452,91.4314,-105.5399,589.3433,-232.9769,-84.4629,-122.7367,34.4693,12.0022,15.8429,-164.3372,40.3584,140.1371,38.4291
-1460.9375,-283.4321,-135.4863,-130.1082,-65.7486,-85.7131,45.5727,-103.2722,202.4036,42.5580,-255.5320,135.4749,26.8504,134.6968,49.6478,-23.8617,16.8951,48.2151,181.5151,141.2407,39.7101
-1453.1250,-85.8996,-219.0307,50.4403,-78.4746,21.6640,79.6830,260.7389,125.2707,370.5318,-112.3719,-14.2281,-86.9327,21.9940,-4.0781,10.1778,-23.1426,-175.3708,28.5524,93.2620,-184.0880
-1445.3125,-400.5339,-356.7086,-182.1841,-146.3587,81.8624,139.6245,100.5712,112.0106,99.3404,537.5990,-137.0538,-24.8542,-100.8403,58.6422,33.0674,73.6840,-173.0962,99.4543,95.1514,133.9775
-1437.5000,3.4523,-58.7919,30.8098,-94.6467,-145.3381,-14.8422,20.0359,141.3564,18.7638,-572.8352,297.7112,-33.1810,185.9228,9.5065,26.5710,30.1081,54.7523,81.9383,76.6522,-130.3796
-1429.6875,21.9913,-216.2965,79.3712,-111.3507,234.0734,107.3021,104.1014,-31.6956,-300.2178,504.4372,-131.9602,-21.9055,-60.7400,6.4538,74.6883,-32.8586,-173.8297,-41.9745,23.7671,27.9025
-1421.8750,19.6428,96.3112,-113.9696,-79.9554,-32.4538,-12.4742,-198.7209,-3.6306,-311.0546,-56.2936,151.4970,42.4641,113.7208,-5.0794,63.9032,-4.7206,34.6953,95.2204,20.0001,165.2648
-1414.0625,275.1869,176.7708,92.5851,-70.6694,-47.0565,-64.3347,117.3970,-19.6664,42.0155,-291.0128,137.7991,-82.2670,100.0447,-81.2722,13.0210,-56.6767,-96.9218,-35.6968,-5.8571,-106.4640
-1406.2500,-181.6565,-139.1234,-141.2433,-140.7396,85.9677,69.4464,30.1499,-33.0307,-8.2584,613.8999,-170.2389,14.6541,-96.9729,15.8519,36.7943,40.0300,-201.8831,35.0532,-5.0405,210.4764
-1398.4375,-18.8924,-11.4176,-72.4515,-49.2155,-211.4089,-46.1817,-48.4554,109.2215,97.0958,-529.6213,230.3240,47.1533,155.6127,25.1197,32.1759,35.3368,65.7320,91.3913,86.3966,-14.0152
-1390.6250,-10.4803,-283.0489,46.0144,-5.0083,125.9333,108.9011,142.6509,-30.8132,-5.8756,359.6787,-203.4504,-19.6455,-130.1285,36.0238,2.2587,5.3597,-99.9837,-40.5714,60.5574,30.2277
-1382.8125,-128.2587,-85.8673,-195.7221,53.0025,-78.9595,50.7641,-99.4543,21.9808,9.9475,116.6828,-78.3767,33.3544,-115.0385,54.3745,-55.8647,57.1912,96.1163,86.2744,46.5362,192.2547
-1375.0000,191.2660,127.5804,43.8515,90.3107,-170.5284,-42.0642,139.7689,3.0775,285.0780,-451.9291,50.9571,-59.3537,-60.6782,-34.3154,-74.6855,-34.6754,64.4741,-16.5919,14.8234,-156.4211
-1367.1875,-231.7930,-188.5220,-116.1624,19.0593,110.3332,165.5499,89.4348,-83.3548,87.6877,563.9252,-293.2652,1.3948,-256.8754,68.9779,-87.0586,61.9167,-76.7263,52.9987,-21.4234,124.3762
-1359.3750,-150.6853,-73.4615,-61.0160,135.9542,-164.6737,73.2922,-75.7094,8.3847,69.4889,-520.1341,166.6729,20.2856,55.0826,85.0233,-106.2791,80.6606,215.2139,169.7189,-10.4986,-40.7104
-1351.5625,4.7891,-339.0305,67.5122,80.2327,147.7387,165.4430,162.5579,-47.4667,50.6801,159.3390,-220.0413,0.5754,-184.5938,80.1576,-15.0902,24.8171,-51.4830,7.8322,3.8384,-96.3659
-1343.7500,-236.1224,-157.9709,-193.3611,14.1053,-4.2905,123.1687,-25.5890,-15.6927,156.4739,155.3204,-187.1100,69.4615,-151.6377,84.7340,-19.3027,56.5756,58.4346,118.5565,8.7906,119.5716
-1335.9375,53.7241,131.8172,87.5349,57.7204,-127.5473,0.6488,146.0440,-28.1684,217.0071,-591.8826,93.5489,-15.9156,56.0520,-3.4954,5.2468,-28.9160,138.0665,21.0141,-17.4978,-223.7496
-1328.1250,-123.3783,-116.3212,73.4963,56.4225,226.2872,133.2258,57.7611,-189.5282,-311.3583,607.0676,-214.7028,5.8216,-141.1704,20.6973,63.9008,-44.2880,29.7913,-16.4203,-89.6673,56.0630
-1320.3125,13.9889,161.9989,72.9164,193.5747,-68.4553,-14.7687,-236.0446,-117.4215,-385.2179,-422.6176,226.5126,79.0006,115.0728,14.2860,-9.9904,-81.2093,343.9642,156.5826,-57.3705,-17.7055
-1312.5000,190.5835,21.5354,227.5681,193.9571,122.0830,65.5004,64.4225,-184.0642,-158.8495,-48.9181,-25.0781,49.4290,-62.4650,10.8019,-77.6189,-110.8724,62.3508,-20.1744,-57.8164,-158.1974
-1304.6875,-149.5283,32.3918,-67.5001,98.6364,83.8848,63.0546,-46.8354,-111.3884,-49.1964,318.0204,-62.3333,84.1631,-99.6810,16.2454,-77.9445,-75.2210,38.0511,26.3826,-44.9461,134.6163
-1296.8750,223.0676,405.9229,151.1356,85.0082,-137.6067,-158.6859,61.6441,-77.0054,169.1919,-639.3165,267.0852,-27.4119,155.7864,-125.0024,-43.5590,-187.8628,129.4163,-58.3730,-24.3717,-160.8872
-1289.0625,46.3626,88.1791,67.4807,13.1194,145.6486,14.3344,123.8738,-196.8674,11.3554,490.1687,-221.7819,-38.2289,-111.0224,-79.5032,93.5777,-123.7383,-117.4803,-93.3647,-61.0391,49.3941
-1281.2500,-10.7661,172.0045,-65.6160,26.7842,-133.5818,-81.1093,-118.3328,-109.1647,62.0918,-266.9041,122.9376,49.5029,122.7413,-46.8860,70.2636,-74.0649,177.1826,60.1957,-47.1494,63.1964
-1273.4375,238.5354,69.2421,166.7343,29.8902,24.6762,-70.0853,186.9286,-172.0201,221.2513,-219.4058,-12.9376,-12.3123,23.9273,-78.5725,45.4032,-135.9346,3.2596,-78.8005,-44.8041,-145.5372
-1265.6250,-83.8897,-42.2056,-73.6374,-81.7047,114.2030,20.2297,-16.5342,-118.5638,16.7193,496.3387,-179.4868,41.1799,-106.5672,-18.4626,24.8429,-45.4931,-37.3506,-14.4805,-14.1494,165.0397
-1257.8125,167.8065,209.4457,18.1092,-41.2007,-161.1649,-146.3587,1.1419,9.9937,109.3048,-550.8264,243.0601,-14.2347,133.0316,-61.8844,43.3799,-27.9547,109.1222,-9.0707,26.6067,-110.3104
-1250.0000,11.9638,-52.4304,33.3349,-57.2026,184.9839,52.5650,163.3062,-85.9480,-169.6387,493.6063,-145.9200,-36.1444,-109.8913,-28.6541,94.4183,-49.9040,-152.9153,-60.1534,-24.1298,14.8744
-1242.1875,-170.2166,81.3563,-161.7767,-27.5459,-83.2451,4.1221,-141.8811,49.7788,-70.9085,3.5716,98.7871,25.5914,98.8584,-10.2797,46.1062,-24.2007,50.7161,109.4283,3.7904,113.6840
-1234.3750,90.2381,26.7524,49.7669,21.7565,-56.7930,-5.6517,142.6151,41.1512,176.4764,-188.7088,53.0972,-93.0302,90.2238,-63.4574,74.4442,-70.8442,-40.0372,-52.3532,19.3690,-152.8536
-1226.5625,-249.3836,-207.8974,-209.7619,-71.9951,124.5889,101.5159,30.0396,74.4913,-9.2003,691.9389,-243.6206,-21.6946,-96.4457,8.2960,70.7236,1.4721,-168.8304,-5.1720,30.9126,175.5761
-1218.7500,-77.5182,34.9107,-93.8182,-40.3041,-198.5853,-75.8763,-37.0551,192.2859,32.5910,-478.0058,204.1203,57.0852,204.3444,21.9962,114.4509,43.2351,3.8149,-8.5536,62.9138,-38.5751
-1210.9375,7.6655,-161.9511,-7.5496,-97.2795,106.6103,10.0901,159.2026,20.4257,-65.2897,417.5137,-150.8194,-3.7801,-4.5378,5.6949,163.5362,56.3553,-263.2179,-170.5848,-27.7261,10.6576
-1203.1250,-100.0421,47.3150,-238.1770,-64.1565,-123.1266,-73.8639,-108.4552,46.6856,-38.0712,186.0274,-14.6067,95.4570,58.7055,5.4444,115.7274,45.5764,-55.1305,2.4950,-30.2543,183.9751
-1195.3125,213.3013,254.5994,-6.7476,38.0110,-186.7930,-136.7618,122.9747,21.0025,303.2303,-390.3219,106.6065,-3.2695,106.9657,-74.8260,16.9655,-54.1490,-59.0324,-106.3939,-68.7216,-135.6580
-1187.5000,-127.9448,-16.6717,-118.9088,13.6193,31.9676,8.7874,46.8517,-54.2178,43.0205,710.7931,-189.7374,67.4584,-152.3275,6.5138,-21.3510,17.5815,-189.4787,-95.8143,-92.7286,156.1837
-1179.6875,-7.9126,209.3252,-59.8025,97.4809,-239.0373,-116.4240,-185.9900,41.8167,30.0830,-442.9130,273.1885,90.4251,163.6373,9.4205,-36.4107,40.5599,141.3246,-10.9950,-78.4822,-4.7583
-1171.8750,130.4410,-4.3597,160.6324,59.6836,53.3381,-44.2616,69.5215,-69.8028,-44.5330,181.8518,15.4140,52.7418,15.9212,-15.1286,-0.1105,-34.1031,-142.5496,-188.8222,-115.8804,-42.3187
-1164.0625,-93.5869,52.5859,-85.3458,-23.5087,-45.7329,-33.5135,-176.3902,-21.8027,-143.5303,266.1165,63.2794,64.6591,63.8291,-5.4558,47.7807,13.8352,-49.8000,-27.0360,-92.6711,225.7139
-1156.2500,233.6887,239.7951,87.9827,21.5967,-203.4879,-154.4561,-2.9596,41.4973,103.7947,-552.2678,273.4038,-20.1266,200.0106,-69.3760,-0.0216,-33.9213,-4.7787,-51.9587,-47.1513,-114.9682
-1148.4375,25.8290,31.9073,-28.7730,-44.3579,83.7049,22.5657,26.4139,-75.2363,-86.9338,580.3446,-138.5302,10.0475,-100.8632,-20.4720,-6.8587,-3.7102,-211.8057,-82.9109,-77.6610,135.3287
-1140.6250,125.8617,342.9200,-68.6069,19.5914,-175.2184,-89.5198,-268.2914,-5.0565,-125.7454,-414.2421,263.4718,118.1135,190.1863,-5.6449,-82.7833,-6.6035,99.0789,52.0410,-83.2595,59.4939
-1132.8125,267.2160,61.2475,158.8989,19.8849,88.2372,25.7674,31.3727,-71.5265,-83.2104,-39.3630,11.7776,13.5244,12.5538,-8.7177,-39.3583,-36.1447,-76.7214,-53.6590,-117.5000,-80.9734
-1125.0000,-177.4323,-100.3970,-97.6162,-1.8201,88.6570,100.0394,-150.9817,-33.9765,-192.6628,365.4302,-60.8803,123.9424,-23.0556,67.5004,-38.9407,1.3206,-28.5007,134.6573,-103.7331,213.5538
-1117.1875,129.3997,241.4132,127.3409,58.9298,-90.4626,-6.2343,-72.8547,7.0199,-4.6681,-658.3194,237.8980,-18.1976,164.7732,-23.7955,-35.0690,-67.7693,102.1533,125.4097,-78.5213,-112.4935
-1109.3750,-16.9461,95.0612,40.1226,-17.4714,227.2773,164.3571,24.0944,-79.1311,-200.8696,468.8433,-216.4882,-67.4776,-141.5642,-9.7125,25.6519,-44.9966,-149.3426,50.0294,-83.4561,58.3413
-1101.5625,-27.0042,260.9794,-44.8304,42.3939,-77.7604,42.1879,-207.7097,55.9794,-175.8035,-277.8660,102.4131,-6.5079,66.3723,1.8980,13.6117,-19.9753,121.4327,144.9038,-58.1394,83.3935
-1093.7500,179.6726,9.6185,178.9670,74.0061,34.9831,45.7861,90.2604,-14.1712,48.0344,-164.7188,-77.9820,-75.7913,-39.9783,-7.3332,17.3151,-16.2051,-59.0733,-35.4792,-27.0800,-96.7936
-1085.9375,-179.9582,-174.0190,-99.5576,30.3192,50.3883,61.0749,-5.0917,-35.6100,62.5864,586.0595,-283.6454,12.6301,-209.6074,34.7419,-4.2840,36.2719,-66.8582,26.8530,0.6828,211.7261
-1078.1250,174.4947,110.3946,24.9906,138.6841,-228.1538,-108.5934,9.6284,16.0029,225.1963,-538.1327,135.7439,-8.9075,62.8137,-39.3755,-62.8218,-59.2006,146.3954,-5.7828,38.4950,-66.7343
-1070.3125,30.1111,-104.0155,53.7126,64.2364,93.5117,29.9442,148.5404,-66.1854,33.0115,482.9666,-276.6971,-18.2331,-239.5907,-16.4952,1.8486,-68.4598,-103.1655,-80.2172,70.5029,35.0380
-1062.5000,-243.2011,43.6395,-161.5096,71.8433,-121.8146,-37.4885,-65.5013,49.6909,74.9095,-62.0060,-51.0399,60.4958,-86.9155,32.4257,6.5699,10.3367,115.3484,68.3977,149.5613,113.8352
-1054.6875,-20.0126,90.7599,11.7745,48.9418,-96.6089,-49.4103,253.9840,76.0581,285.2975,-294.3838,-62.9194,-23.2746,-61.7685,-2.4027,-3.2040,0.6349,-49.6703,-95.5009,162.1178,-190.8616
-1046.8750,-247.3975,-170.6618,-130.5151,-72.5127,92.0251,65.1103,74.8925,80.8823,-186.8735,667.6622,-278.3222,54.4142,-203.1600,70.9065,37.4696,78.3930,-135.2213,-75.9286,146.1304,144.9132
-1039.0625,91.3012,61.9796,12.2722,-49.9073,-169.3046,-123.3227,-76.1217,187.7591,-155.9687,-476.3074,158.3399,50.1389,85.5061,35.6944,-2.8090,74.1875,133.2748,-18.3133,169.1962,-43.2948
-1031.2500,48.4035,-226.9515,75.4885,-93.8556,151.8388,-22.2841,172.3155,67.0786,19.3712,433.2712,-218.5845,-69.6831,-217.4028,6.5474,-12.6345,64.4357,-155.7916,-132.2394,161.7120,-16.0221
-1023.4375,-273.3396,-197.6972,-194.1458,-133.6439,-7.9061,-35.1080,-24.1147,164.5565,41.8702,199.8768,-48.3093,-8.3509,-121.1278,50.5495,-25.3021,124.8341,14.3265,72.9954,191.3756,154.3815
-1015.6250,30.2320,-105.1636,27.5374,-112.1301,-81.3246,-71.6187,197.7749,129.3180,264.6498,-386.1566,99.2371,-7.7202,27.4255,13.7165,12.3440,53.5312,-35.2770,-45.4819,144.3323,-174.9204
-1007.8125,-206.7191,-272.1364,-123.3027,-208.1151,172.7418,71.3737,157.1313,14.5837,39.9235,713.3052,-234.7045,61.4222,-196.5177,61.0801,-28.5141,85.7358,-201.3616,-71.4351,82.7879,115.3006
-1000.0000,12.3572,52.9083,-72.1187,-164.0856,-143.2062,-133.6419,-85.4870,103.8498,55.2459,-374.3344,221.3707,76.5611,111.5509,23.6639,-50.3834,100.9290,87.5670,-27.3889,127.2398,-16.5172
-992.1875,143.8562,-132.6190,104.5029,-139.6021,143.3221,-31.1825,165.3518,-13.4437,-61.9822,205.5688,-81.1469,-40.8438,-116.9668,-3.0439,52.1916,56.5740,-133.0698,-142.8887,83.1344,-60.8641
-984.3750,-134.9993,-165.4661,-124.2318,-66.4566,60.4624,-3.0854,-101.1779,-22.0721,-180.5317,270.0029,-15.9655,60.4014,-51.8066,50.8649,43.4169,83.8686,9.9731,70.2765,15.6825,187.4226
-976.5625,166.7043,32.2140,132.6069,60.2384,-85.8284,-76.4245,9.8766,-22.1605,113.4800,-573.9828,204.7590,-49.8164,131.8913,-34.6641,7.1985,-25.2928,101.5465,21.9795,-34.2254,-142.7624
-968.7500,-69.9242,-169.4145,20.1238,-1.3640,205.5808,67.9467,81.6033,-96.5468,1.1575,563.7490,-237.8064,-50.3270,-163.7065,12.6816,4.6754,46.2519,-135.1668,-74.5940,-58.4371,112.7776
-960.9375,-17.4646,129.0317,-68.2781,16.1044,-139.9807,-93.6385,-190.6256,71.1250,-51.1152,-370.5891,186.7218,6.2064,114.7678,3.1634,26.1926,67.8433,163.1941,12.8908,-6.6036,60.3253
-953.1250,159.0786,-11.4445,122.4151,51.6837,49.5859,-51.0972,73.2535,3.8875,-7.2934,-32.7287,-63.6925,-60.1598,-25.6871,-14.8054,69.8064,37.5298,-47.3639,-127.5227,-40.6819,-80.0167
-945.3125,-126.5701,-86.0815,-115.1012,12.0721,32.9211,5.2311,-164.0879,-12.5451,-97.6588,390.8264,-117.2607,-3.7231,-80.3179,38.6472,16.2194,130.0138,17.9097,8.8747,-79.9631,196.4344
-937.5000,230.0157,59.4876,89.6134,87.6631,-167.5346,-121.2407,-106.1984,8.2128,71.1822,-653.4255,271.3647,-20.0976,161.2422,-5.2767,-0.1630,78.6890,163.3749,-21.5426,-75.0509,-149.9431
-929.6875,32.9101,-313.6073,95.6542,-4.3952,206.3636,68.6444,10.0203,-59.6786,-70.6367,491.7282,-163.6665,-14.1150,-125.8577,44.3599,5.8040,84.7234,-102.8052,-77.5967,-129.7907,40.0573
-921.8750,-121.7726,-46.2743,-30.8821,16.9633,-66.3730,-21.0832,-261.3625,35.8421,-12.0190,-294.8527,187.7499,81.2592,115.4754,54.1345,-9.8333,69.1512,163.4393,119.7518,-108.1357,61.4233
-914.0625,170.5424,105.0393,212.5838,63.3208,65.9200,1.2061,17.2744,-52.6502,83.5869,-310.3498,63.1280,-44.3689,63.7820,-34.2400,12.5353,-56.4216,33.6649,-9.9111,-203.4860,-174.2042
-906.2500,-70.2426,40.2762,-53.0686,33.5830,167.0822,139.3870,-211.2253,-134.2345,-291.9050,415.9747,-92.5638,20.9141,-54.9891,25.2578,39.8113,8.9104,38.8219,100.3458,-232.9404,148.0723
-898.4375,291.0461,226.5586,116.3606,113.9055,-104.7054,-22.3832,-262.6465,-74.7772,-196.3030,-737.6989,260.8048,6.2380,224.2921,-21.0367,63.1364,-42.7151,295.0285,110.6443,-152.3589,-123.6366
-890.6250,95.5946,-214.8866,92.0745,59.5296,238.8213,175.1678,8.2208,-136.0252,-72.4197,267.9972,-203.5392,-54.1323,-94.1440,16.4317,75.7638,-29.0412,-40.4623,21.2550,-101.4860,-37.0161
-882.8125,-171.4779,-60.9476,-116.8519,73.5225,-45.3368,112.0562,-201.5761,22.0800,48.8388,-199.0998,63.5211,66.8500,26.7964,67.5149,-24.2593,17.9791,183.4314,175.2262,-87.2738,46.9223
-875.0000,236.5025,137.0236,139.2838,165.5656,-8.4193,37.0114,-18.2926,-51.7825,122.1628,-457.0827,136.5997,-7.1242,25.7620,-8.4916,-98.2307,-55.9523,64.3540,21.2389,-136.0304,-248.0958
-867.1875,-15.6810,24.8657,-64.7484,124.4678,118.3275,163.8181,-185.1945,-107.7971,-191.6739,478.7274,-140.4402,82.7567,-140.4040,52.7595,-81.3497,-3.0310,-11.8409,51.1240,-175.9474,62.7451
-859.3750,150.2315,261.7829,82.3088,220.4372,-176.8741,-20.3284,-260.0364,1.2275,-229.4721,-698.4979,336.6002,82.6800,189.4975,35.3913,-118.4176,-3.0702,260.0252,76.0522,-80.8282,-158.4028
-851.5625,211.9129,-28.5221,180.1529,141.2097,142.7463,78.3460,-14.0903,-120.9575,-240.4802,171.1581,-42.5889,33.4087,-79.8246,27.1400,-20.6830,-15.3069,-65.3154,-108.2114,-88.9158,-96.7266
-843.7500,-26.6561,-21.0502,-116.2514,76.7433,-80.9286,1.7592,-236.3958,-49.3764,-132.6833,-15.5776,64.0235,140.8837,-9.3666,62.2127,49.7991,55.2037,81.1252,38.2874,-46.2561,120.6719
-835.9375,214.5859,9.2007,77.1615,73.0847,-144.7829,-99.0159,31.1346,-3.0070,134.9326,-556.4736,185.4174,77.1466,110.8707,13.6917,97.0861,29.5069,42.3491,-106.4312,-15.8072,-200.1461
-828.1250,-167.5359,-161.8815,-78.7904,-62.9156,101.9969,74.8575,20.2761,-48.9891,-21.8335,536.2592,-228.5112,104.0657,-192.2325,79.5549,50.0230,92.4630,-128.7483,-66.4760,-11.7115,120.7024
-820.3125,-34.5106,217.1662,-80.6057,0.2018,-229.1384,-110.1774,-163.4739,96.1281,14.5122,-568.0256,174.7002,103.0760,99.7865,48.1982,-60.9397,91.5033,180.2774,31.5749,86.4785,-27.3940
-812.5000,132.3850,-2.9071,98.4714,-8.7808,58.6517,-5.2957,125.6820,17.1347,-28.2245,50.6819,-162.2194,-13.0209,-163.3169,36.9372,-30.0037,86.4412,-109.8134,-117.4742,78.5556,-106.5755
-804.6875,-214.1115,-67.3419,-200.8495,-38.1483,-20.0013,26.1692,-137.5741,84.7513,-69.3194,227.8576,-166.4789,54.4806,-131.7865,88.5242,-34.4753,153.9703,1.7314,63.0840,119.2230,144.8201
-796.8750,90.1851,95.9657,21.6110,20.2440,-165.8870,-82.6151,48.9442,124.1027,190.3257,-615.2073,56.0119,-53.2831,54.4872,11.3997,-33.1907,82.2388,59.0233,16.3755,142.6286,-184.0589
-789.0625,-109.2057,-173.4050,-87.5909,-39.0106,128.5810,101.9615,122.7815,13.8069,43.3059,635.0804,-385.1476,-52.6866,-238.8852,27.9517,-33.5472,45.8643,-175.3110,-7.9620,153.3804,73.4359
-781.2500,-41.8852,34.9368,-160.0634,-5.5472,-201.2757,-7.7718,-97.6635,162.2123,8.0434,-320.0742,130.4342,-15.3968,55.4685,6.9291,-32.2005,10.1761,138.0858,95.4060,186.8237,0.5870
-773.4375,123.8572,-46.2869,92.9114,19.3705,51.3499,24.9648,193.3615,48.0524,-32.7558,-31.7019,-20.5666,-92.6610,-22.7570,-36.5304,0.5987,-68.0657,-48.0794,-90.7807,105.7057,-150.8066
-765.6250,-185.3965,-38.4723,-171.1133,-8.6981,43.9399,90.6923,-107.6453,4.8951,-148.5507,438.5509,-136.5041,11.0768,-65.9505,18.5979,-5.6050,-0.3123,-5.2028,57.0520,42.5775,172.7880
-757.8125,143.7469,220.6995,4.2429,74.5954,-185.1097,-64.2280,-5.2803,106.0781,284.0047,-561.8771,111.9132,-34.8456,109.2102,-53.9203,-88.4545,-83.2223,78.0231,35.2222,55.7839,-166.3033
-750.0000,3.5166,44.5245,-40.7689,-31.4602,100.4943,111.5163,170.7072,-12.0935,203.1925,606.3717,-336.0245,-116.1119,-228.9848,-50.8597,-59.6524,-54.4753,-203.0901,-35.9440,20.6316,9.2746
-742.1875,-18.6184,304.4422,-100.7047,-17.4441,-143.8858,-23.7012,-184.2626,73.7849,-5.5435,-154.4877,117.1499,-31.3328,2.9003,-47.0222,-47.8015,-42.6900,126.8779,83.9437,34.5147,57.8564
-734.3750,189.6560,159.7407,161.7734,-56.0200,8.1609,-17.5001,79.1792,6.0513,-35.8848,-149.8855,86.7010,-62.1630,9.1648,-61.1372,32.4477,-73.5092,-52.7658,-60.7746,30.7806,-157.1659
-726.5625,-246.8729,-29.7261,-88.5520,-104.3824,124.3742,98.8938,-61.2162,-23.4695,-212.0253,554.7928,-126.4953,19.2104,-130.3389,24.4797,38.8970,7.8724,-101.1710,100.7285,17.2383,180.0089
-718.7500,63.4854,245.6694,28.0094,29.1259,-126.5676,-4.8643,-91.7394,55.8581,14.7173,-615.7694,247.1813,-48.5765,169.0173,-36.6056,8.1977,-59.9019,103.2784,200.0690,-60.4703,-108.0104
-710.9375,-39.8779,-68.6519,99.8550,-2.0597,239.7948,214.6887,90.0300,-93.5259,13.7750,447.0215,-194.8519,-160.0611,-53.3380,-48.1903,6.8015,-99.3767,-174.9668,62.7123,-127.9024,0.2892
-703.1250,-190.4910,27.7780,-64.5724,-47.5232,36.8182,121.9209,-184.5238,-37.2179,32.5514,-49.6408,116.8904,-68.8516,149.0493,-23.0828,-10.8998,-43.1604,60.5313,158.0591,-102.6645,165.2489
-695.3125,113.7237,-55.9928,154.8333,-25.1758,71.6709,46.9663,33.7210,-39.1384,142.1107,-346.4486,79.4291,-70.8495,111.2236,-24.3430,23.2079,-45.1582,12.8209,39.1907,-80.6601,-94.0016
-687.5000,-344.8154,-338.4792,-80.5116,-60.5621,239.7491,178.2559,-90.8306,-54.8128,-93.0995,629.9274,-265.7375,61.4077,-124.3328,104.8437,8.5643,86.0887,-57.5978,108.5922,-46.4228,221.0037
-679.6875,-252.0471,-70.6905,25.4361,66.3200,-58.9308,27.7865,-205.1123,87.7555,-24.0357,-551.5428,208.3792,56.8971,165.3808,90.3731,4.1660,81.5653,210.2470,201.2319,-60.9471,-3.7892
-671.8750,-264.9892,-258.6073,120.6721,18.5079,257.6997,159.6270,36.9021,-37.3913,-38.6598,314.3595,-136.2245,-32.3163,-70.6283,59.2826,63.0666,30.3405,-84.6176,47.1732,-109.1881,17.7350
-664.0625,-495.3622,-206.9208,-126.5364,35.2586,45.8301,130.9977,-211.5475,46.0175,-65.6973,211.6531,-17.2076,87.0189,12.9576,109.0189,-1.4784,75.6581,108.1024,168.6693,-56.8930,209.7771
-656.2500,-57.2223,-50.7468,125.7846,51.5159,-70.5193,-21.1238,40.5239,76.9095,149.7560,-455.5294,125.3107,7.8412,118.0423,36.4529,-44.5109,33.4683,89.3136,8.6525,-7.1146,-126.7007
-648.4375,-218.5020,-246.9728,-56.3006,-39.6161,150.7150,90.3535,42.1574,5.4029,5.7919,646.8591,-240.5354,10.2690,-137.2518,55.8680,-78.9474,70.8740,-141.8427,-11.7437,-27.7452,168.4348
-640.6250,-2.7820,-31.2246,-45.3940,0.2225,-205.1152,-81.2270,-129.2492,15.8453,16.8199,-481.9342,286.6172,57.6302,204.4307,34.1529,-68.4479,83.2111,178.9744,63.8106,-23.4438,32.4689
-632.8125,88.8729,-184.5368,128.4610,-12.9779,114.0236,18.1648,116.2994,-142.7755,-67.1878,93.2945,-18.3016,-27.0683,46.0391,8.2069,-5.0013,34.4903,-45.2664,-55.6830,-72.2161,-52.5410
-625.0000,-231.8507,-84.2047,-144.0733,-17.5607,24.7197,75.1404,-119.5812,-84.7896,-155.5925,258.9899,3.4523,66.8278,31.2898,57.4605,-94.9570,55.3622,56.1397,114.4316,-42.4020,188.0205
-617.1875,159.9669,236.6285,97.9282,57.3679,-138.0708,-50.3792,49.0533,-26.3223,50.5002,-638.7914,246.7145,15.2085,163.0380,-9.5856,-220.4095,-33.2831,95.0417,49.0299,31.8887,-194.9527
-609.3750,-70.8907,-64.1832,-5.7333,2.6541,161.4837,103.4571,165.0079,-57.5140,-54.0654,505.7964,-187.6551,-16.0554,-160.8566,17.2507,-213.5108,-27.5864,-134.6843,-6.0088,47.5096,31.4370
-601.5625,1.4455,149.1957,-74.2097,75.1111,-128.8387,-39.5726,-13.8926,57.4406,-11.4455,-446.6271,185.1834,-11.1707,100.4343,-14.6521,-172.4638,-59.7501,183.7711,137.1027,83.2589,-38.0749
-593.7500,196.9286,62.7107,174.4743,59.7289,119.0108,24.5650,270.3622,-62.4750,16.3278,-163.8501,29.1479,-131.1312,-19.1444,-73.1493,-109.2618,-142.7680,-7.6319,-19.6386,32.1344,-195.4355
-585.9375,-165.2306,-17.3904,-107.4928,13.7211,130.1700,109.0425,60.9372,-87.0338,-44.5263,324.1410,-105.4760,-45.7489,-80.3423,-7.4438,-96.7165,-57.4364,16.3651,73.9885,55.3460,109.5353
-578.1250,81.3567,159.2183,55.2773,50.4325,-112.9654,-59.7792,150.2359,38.1022,264.3375,-692.2149,167.6069,-68.6937,155.1589,-62.6514,-82.4707,-117.4138,123.0658,40.3027,127.2458,-206.8363
-570.3125,-149.5782,-142.6653,-12.4633,-76.3472,224.3992,92.9061,340.0069,-67.2567,234.6835,488.9579,-302.8042,-63.1397,-168.8491,-36.4782,-2.7256,-111.8899,-178.7176,-51.8729,104.6348,-17.6937
-562.5000,-191.5212,96.4539,-166.2218,-47.1522,-115.3253,-62.4790,147.7193,72.3432,411.0083,-219.0884,19.8064,2.3588,6.1298,-40.3990,-48.0352,-83.4305,61.4842,82.9014,97.9564,10.3509
-554.6875,121.2963,92.3151,60.7826,-15.2029,-35.2764,-55.1032,486.2006,5.6792,750.0964,-251.3247,-119.8537,-138.4018,-97.1617,-129.4345,-3.5912,-186.2311,-118.5824,-97.5910,58.0128,-240.8635
-546.8750,-123.6280,-81.5362,-136.9684,-83.9871,95.9844,39.5108,249.9012,-82.7284,146.4491,540.5826,-243.2096,-41.9130,-148.1722,-50.7843,54.0994,-90.7871,-46.3570,-24.8196,23.3048,111.1638
-539.0625,252.6057,259.7368,119.4254,10.3432,-89.6581,-108.7830,-82.2785,-12.0410,-442.0802,-565.4961,233.5653,-8.3444,217.9364,-44.5502,126.8905,-56.2602,259.9749,33.0379,11.6769,-111.7560
-531.2500,70.6195,-98.2027,145.6108,5.4769,230.5085,100.7355,-19.6764,-59.5614,-488.8209,525.2751,-216.8549,-128.9793,-87.1578,-16.4481,189.4870,6.0625,-62.8906,-7.2966,5.8328,-12.8601
-523.4375,-242.1362,-58.9046,-111.9807,8.8303,-29.1661,62.4354,-130.8918,86.1264,-48.3380,80.0720,-32.9961,-93.4215,21.9957,2.5919,114.2817,40.5773,117.4890,101.5746,8.1742,95.1937
-515.6250,224.1233,125.3822,129.4527,-17.8048,-45.8140,-63.8503,183.9081,-3.2064,230.1398,-342.0976,24.8581,-73.8691,44.1370,-79.9864,98.0841,-85.9176,20.8569,-136.5678,-54.5071,-178.7694
-507.8125,-69.3241,-26.9973,-81.8204,-134.1246,108.8098,-17.8419,44.9725,-105.2367,54.9238,582.9568,-259.9458,80.9888,-130.3994,-9.2698,106.1859,-3.1189,-96.4420,-148.3903,-31.9068,159.5693
-500.0000,5.5741,188.9496,-30.7586,-24.1252,-244.2842,-187.5443,-14.6452,-17.9694,253.0554,-617.7996,196.5908,95.1317,177.3854,-20.4217,83.5862,9.9685,189.5738,-74.9261,6.9753,-47.8455
-492.1875,55.9554,-112.6248,94.8008,-44.6249,100.1362,-100.7330,221.2291,-150.2029,84.6775,240.0122,-154.3845,72.7687,-65.3421,-15.0408,172.4902,-12.4423,-41.9141,-234.9637,-48.6563,-33.7505
-484.3750,-172.9302,-24.4630,-114.9192,-26.4035,-37.7876,-127.2434,-101.2204,-104.7259,-88.9826,99.3555,2.4131,155.0994,18.6761,36.9447,144.0938,68.8403,151.3440,-42.2909,-32.6042,158.0113
-476.5625,174.0684,181.5565,188.2436,3.6824,-66.8428,-192.8938,18.1961,-95.4145,-42.7974,-554.4395,196.0570,17.2630,174.5404,-30.4080,116.5555,41.9560,147.4471,-117.7822,-73.7277,-164.4013
-468.7500,-73.2908,-100.7454,63.0476,-32.5686,211.7329,13.1014,-69.7783,-183.4553,-239.9501,530.3772,-147.6126,38.0800,-59.9324,20.8985,138.6610,62.7138,-29.7731,-49.6095,-181.2206,113.8435
-460.9375,52.5550,130.1384,92.0381,23.3505,-128.5695,-142.7707,-225.5865,-83.3497,46.0965,-582.7990,321.9221,30.0336,261.7680,-29.9408,55.9131,17.6084,237.1831,75.7009,-162.5794,-42.8173
-453.1250,266.1449,-8.2420,283.7873,61.0268,134.8997,-26.8796,111.3553,-187.5093,52.8721,-65.1557,35.1909,-74.2652,85.2062,-69.1609,-48.0849,-86.7489,27.8879,-98.2452,-161.2054,-147.7222
-445.3125,-20.7464,90.9326,82.0488,89.2202,79.8321,-7.5067,-200.2376,-204.1609,-183.8498,98.8326,129.0329,16.9336,104.1830,-47.0595,-64.5830,-104.6157,163.1378,70.3232,-168.3423,90.8478
-437.5000,285.2971,293.0186,308.2473,186.3203,-63.3242,-77.2349,-86.9056,-163.9218,-69.6519,-708.2921,355.7837,-51.9840,220.0569,-99.1112,-24.1755,-174.5942,259.2780,-9.2302,-109.6003,-236.7173
-429.6875,110.2737,-22.9416,150.3840,46.3770,219.4551,95.9875,49.3450,-211.7362,-115.4985,491.5291,-168.4897,-63.9508,-121.1125,-65.3084,1.1851,-148.6212,-56.6157,-44.8257,-39.9253,8.6807
-421.8750,146.3126,119.1260,-30.4438,82.4564,-182.8024,-49.8082,-59.4037,-26.5456,143.6768,-464.8030,202.3022,-24.9317,137.7565,-77.3635,-33.4464,-147.6576,191.5154,61.5733,30.7307,-26.9733
-414.0625,289.9590,-89.2219,199.3312,50.1374,7.5602,-41.9924,206.4546,-55.7627,152.4572,-129.4611,64.6687,-90.3162,36.2084,-89.7176,11.5207,-140.0927,-17.7758,-112.4395,-3.0274,-167.0261
-406.2500,-108.9862,-136.1290,-47.4971,2.2205,16.2783,5.2014,-41.3135,-45.5702,-20.3328,429.1513,-34.4954,-44.2989,-26.8973,-45.8025,20.8841,-57.1293,41.3667,-20.0412,-16.3950,135.3043
-398.4375,77.4563,120.3171,161.0686,48.6629,-180.6465,-155.2564,56.2935,51.9673,188.2380,-688.9363,285.7214,-93.9523,218.3629,-94.9455,8.6028,-106.8315,191.8591,-10.3119,27.5703,-172.0579
-390.6250,-166.2735,-228.3842,155.4740,14.9598,180.2819,22.1385,196.7215,-65.6532,-1.3682,441.8576,-86.1961,-64.7565,-81.5183,-41.5878,2.1845,-113.6873,-51.7886,-78.7228,28.3680,4.4457
-382.8125,-127.7581,20.1694,-25.8925,53.4765,-76.6332,-86.2840,-95.6638,8.9333,-35.7478,-258.3066,209.1519,83.6304,140.8394,-19.5830,-34.0290,-112.3548,197.7960,65.0616,30.3487,41.1029
-375.0000,257.7717,19.7138,167.7548,88.0008,5.4713,-78.6952,206.9697,-55.4945,84.8967,-326.4096,110.4735,-17.9940,77.1715,-78.1072,-24.2439,-178.0322,21.3639,-113.1629,62.3049,-208.2461
-367.1875,-100.9485,-127.9602,-73.8539,11.2937,129.2874,9.6312,73.3218,-40.1672,-83.6892,458.1432,-130.4076,32.1317,-54.7215,-15.6657,-45.7104,-89.9659,-56.2760,-14.6205,52.9978,99.1488
-359.3750,94.1736,172.1843,31.3779,65.4066,-134.0999,-106.2469,31.4929,26.9616,58.5446,-763.5809,306.5352,27.0385,234.1948,-37.7574,-52.3744,-96.1131,138.8908,2.7107,71.4796,-164.7046
-351.5625,-30.6803,-58.6268,44.6450,10.5729,171.5704,51.9391,190.7014,-71.8586,-2.1722,163.7949,-85.4836,37.9913,-84.8533,14.6461,-2.9826,-48.2088,-126.8916,-87.9061,15.0025,-80.4950
-343.7500,-85.3421,27.7486,-127.9176,25.9048,-76.6562,-11.7459,-129.9449,11.4916,-27.7089,-269.8414,184.7171,122.0861,73.2882,38.9489,6.5532,-2.1647,64.5150,68.6265,-6.3360,38.8237
-335.9375,383.5154,74.6120,118.0458,72.7443,-89.3611,-59.9259,40.9218,36.3299,145.2484,-578.9311,211.4156,-37.3319,135.9214,-48.9482,-4.4067,-50.6280,-28.5920,-61.3599,-31.1928,-268.3725
-328.1250,24.1634,-107.6952,-49.1961,-4.6081,71.7050,64.6832,-90.4525,13.9718,50.0070,424.7252,-103.0340,-23.9477,-68.6190,-11.4847,-27.5662,-0.2950,-105.8714,-34.5353,-40.2673,39.2356
-320.3125,72.4639,185.6295,82.2007,42.6467,-202.6443,-98.1246,-144.2040,72.2116,109.3994,-733.1204,397.1536,-2.9787,246.4642,-44.1055,-43.1161,-53.3754,187.4533,47.8699,-29.7559,-161.6042
-312.5000,48.6039,21.7955,204.4368,19.7476,138.8653,22.9254,124.8911,-63.7071,84.6303,82.9659,6.1830,-65.1621,-35.6127,-60.8495,5.1871,-115.6100,-81.3861,-81.8789,-54.4048,-151.5785
-304.6875,-195.7735,57.4529,-23.8641,20.3155,-55.2236,-23.6012,-105.5855,-1.1640,2.3313,-3.6472,107.7358,-2.9008,27.8051,-29.7879,68.9363,-52.4021,94.2604,57.8314,-55.6149,57.8669
-296.8750,303.2759,100.4946,216.2612,63.2872,-110.8930,-114.7211,-13.6394,18.7737,-51.5575,-538.8320,239.6822,-57.2584,158.6189,-62.1480,162.0914,-33.7991,102.2854,-111.0804,-85.4374,-218.3116
-289.0625,333.9563,-8.8014,50.0130,-46.0926,88.0614,-25.1995,-144.0701,-75.6278,-364.7934,576.6117,-146.6963,-3.9608,-117.9052,-25.2645,177.9068,54.4610,-112.0257,-150.3324,-125.6165,127.1718
-281.2500,470.2884,372.5412,-24.6012,18.1377,-280.4143,-174.0942,-366.8853,32.5812,-181.3961,-531.4734,257.5725,-7.0777,138.2014,-62.4429,103.3242,53.3087,128.2736,18.0038,-98.2085,14.2048
-273.4375,373.6184,134.8758,98.7826,-7.6351,-48.8668,-51.9789,-23.7051,8.7808,-21.0169,-7.4743,-22.1782,-68.2018,-69.7085,-37.7197,78.7429,65.1551,-109.4411,-114.6663,-126.8149,-84.7508
-265.6250,-61.0812,17.1972,-183.8797,-20.4494,-76.4097,-4.9324,-234.6042,55.9427,-82.6763,219.3409,27.0847,52.6268,-57.6328,37.0247,16.1113,110.9486,-16.1711,47.6265,-105.4773,181.2224
-257.8125,219.3998,227.6638,50.6384,48.8939,-211.7926,-102.7315,-74.3208,68.2514,114.8405,-689.6985,299.4985,27.5887,139.5896,-2.4715,-44.3744,50.8816,53.2341,-23.9481,-108.0072,-137.6868
-250.0000,11.4014,-16.3214,-29.3130,16.7936,110.3619,72.0243,-9.5161,-49.8884,-76.0930,437.8315,-74.5246,18.1042,-125.6407,22.9950,-52.3060,41.3664,-190.7932,-21.9614,-142.9977,72.9728
-242.1875,27.0497,246.3305,-82.6322,103.3093,-238.9175,-55.6406,-247.1113,41.5826,16.6013,-465.1787,314.1049,74.2092,151.7625,8.1528,-70.6319,23.4395,71.8026,98.6165,-127.3961,17.1872
-234.3750,256.6509,123.9181,128.0018,85.7728,-30.2204,6.6573,72.2539,-6.0020,81.2370,-259.1552,121.6539,-10.7473,31.0856,-30.2009,-44.9997,-61.5389,-121.6689,-60.8671,-112.8514,-178.6441
-226.5625,-38.6307,39.6356,-83.2686,1.3485,13.5380,87.0415,-140.3164,2.5275,-130.0390,259.8676,58.3578,33.4009,-33.4589,22.6555,-73.2743,19.5820,-99.0028,30.7635,-93.2134,121.6140
-218.7500,236.2742,209.5043,106.6475,30.0838,-202.5470,-90.4200,-61.7191,44.2082,96.8332,-730.9907,397.2259,1.6830,193.1502,-30.3364,-104.3955,-12.1568,69.8073,-12.4666,-31.4380,-168.0125
-210.9375,64.6923,-102.0862,66.0939,-34.6320,86.9193,88.6789,117.4134,-34.5610,-16.7245,363.7464,-46.3633,-3.4866,-140.6967,-4.7767,-71.9724,-54.3410,-170.8343,-78.1341,6.8761,9.9296
-203.1250,-30.9076,117.3104,-72.4893,9.6140,-201.7042,-15.2916,-96.4942,119.6326,-8.2732,-367.7162,256.0493,2.2856,13.4365,-8.0066,-101.6036,-47.5809,118.4962,105.1442,119.1315,51.7758
-195.3125,226.4984,58.6846,170.9376,124.8606,-143.2994,6.7517,145.6136,141.8260,88.1650,-424.1002,206.4378,-158.9556,-0.4488,-63.5085,-116.2330,-99.8241,-11.1957,-26.5925,128.3784,-221.3822
-187.5000,-116.7858,-73.6150,-90.3445,62.4155,-3.6279,111.0784,-43.0241,173.3312,-63.1205,412.7443,-16.8205,-127.8902,-151.0018,-6.3819,-121.5603,4.2378,-72.5580,50.9787,63.9217,65.7602
-179.6875,204.2257,212.3457,37.6579,138.2314,-281.7109,-56.3638,-100.3939,264.0878,174.8561,-713.2183,333.1976,-148.5825,86.7125,-68.9738,-104.6265,-52.4593,143.3212,55.7776,31.7034,-212.8879
-171.8750,136.0952,-135.8226,108.5425,69.9410,45.1120,50.1009,116.1334,112.7448,135.7355,308.7970,-108.8945,-116.3760,-172.6808,-41.2197,-34.7831,-56.2473,-100.9106,-119.5292,-3.6207,-107.6116
-164.0625,-49.8607,29.1998,-93.4114,58.8086,-195.9649,-42.3139,-161.1939,202.5696,153.8041,-83.1813,93.2242,-26.0298,-44.8834,-18.7254,18.2142,-3.8893,99.0294,9.3116,18.2066,54.7835
-156.2500,153.4508,161.4725,58.8956,51.9162,-229.7717,-149.4771,136.7551,207.6354,417.1265,-450.8424,62.5639,-132.4398,-3.8537,-79.8485,96.4730,0.7147,-13.8140,-104.6213,44.2753,-236.5789
-148.4375,-199.7943,-85.7840,-177.3704,-55.5302,-27.1569,52.8013,82.1199,153.1554,142.8886,484.9185,-245.6082,-76.3892,-166.3557,11.8631,116.1869,92.7705,-156.1866,-1.0957,4.7848,75.5224
-140.6250,-5.4811,142.4819,-113.1005,-2.4638,-295.0539,-67.4315,-75.0096,253.1729,97.1602,-631.9001,260.7493,-50.8502,191.6570,-0.9372,69.3990,82.3136,72.9482,84.9220,20.7799,-119.9156
-132.8125,44.1282,-123.9620,13.4570,-59.0911,49.3672,57.6504,161.1462,121.4792,113.7131,151.6794,-53.6227,-147.0081,-13.0552,-6.5470,10.9044,97.1549,-193.6266,-76.7629,-36.9371,-143.0315
-125.0000,-148.6319,-105.7625,-234.3785,-111.1068,-126.6553,-7.6877,-88.1199,166.3979,122.8782,81.7221,68.6564,-28.5629,105.8654,33.5552,-16.9966,177.5946,-105.5693,44.1624,-22.0567,47.4287
-117.1875,228.4729,95.2776,-9.3392,-86.2692,-197.8019,-115.1655,98.4879,170.1665,311.8890,-653.3467,220.7733,-25.2844,221.6212,-12.8487,23.9531,107.8784,-115.6825,-72.0785,-33.3363,-281.2775
-109.3750,-83.4491,-75.6705,-127.3240,-151.4329,49.0363,59.3571,89.0593,86.9447,82.8967,399.5904,-153.0939,37.9949,-43.6131,38.8464,50.9088,98.1697,-251.7875,-67.3065,-66.6262,2.0369
-101.5625,45.6256,193.3605,-98.3348,-58.6378,-218.1997,-98.1833,-177.4107,150.6805,-72.1082,-606.6253,317.0212,101.2078,241.1258,43.5655,41.8187,124.4015,88.0610,-10.5945,-44.9727,-82.7375
-93.7500,128.0872,-40.2384,137.0407,-46.4486,14.9881,-9.3080,19.5291,91.8061,-202.7098,-81.3322,76.5001,4.8179,72.2347,50.7873,56.1265,139.0331,-144.7130,-105.4847,-34.9253,-143.0908
-85.9375,-303.8417,-155.2041,-140.9878,-55.6539,-81.2639,41.1540,-222.9498,142.5431,-40.7025,149.4522,93.6295,55.0274,51.9737,92.3835,34.0306,189.2630,-49.8536,94.2382,-46.2792,90.1447
-78.1250,-21.7888,20.7800,95.9614,50.0965,-251.5457,-54.4302,12.5463,195.2276,380.2455,-757.7912,294.6938,-39.8276,177.6550,20.2574,12.8861,93.4352,55.9374,23.8952,-83.6908,-263.6944
-70.3125,14.2892,-48.1908,47.9346,14.8942,67.2161,81.0362,37.0641,-74.0284,112.2269,403.0583,-155.1911,-15.6346,-126.6132,-3.1911,37.7936,7.6699,-84.2226,-81.3885,-155.0495,-19.4567
-62.5000,212.9003,326.3659,72.4298,143.1955,-204.5527,-80.0138,-306.9092,-87.7686,-193.2714,-533.7009,273.4723,44.0474,117.6478,-19.5029,24.2016,-6.6038,325.1229,44.8178,-169.9058,-34.7555
-54.6875,327.0501,158.4475,309.4674,186.0357,29.2577,-29.5013,-36.3183,-146.9649,-142.2293,-302.7872,106.6536,-52.7258,22.4312,-48.0471,76.1577,-66.3301,85.9867,-54.4356,-165.2165,-205.4879
-46.8750,-104.2032,44.1576,-7.9084,107.4696,3.6342,56.5914,-170.1531,-97.5452,-90.5791,256.6472,12.4743,-2.8902,-73.1604,-9.6467,124.7105,-16.4526,42.4754,41.9215,-175.9188,99.3792
-39.0625,238.3286,280.6206,142.4935,132.6485,-289.2315,-88.5711,-95.2069,14.6235,206.8273,-774.1813,347.0395,-75.3121,149.9978,-78.5296,91.0243,-52.8300,138.6958,-4.9967,-117.8757,-194.0318
-31.2500,17.3299,-9.4267,87.3711,51.3200,58.4097,38.7756,106.2152,-77.7058,188.7043,342.5662,-109.9140,-95.2233,-162.3605,-50.7736,34.8440,-35.6975,-117.5934,-85.4085,-95.3317,-30.9094
-23.4375,-111.6827,176.4987,-49.7915,27.9492,-192.0350,-99.9459,-106.4177,39.9357,197.5434,-351.8571,193.1283,21.8104,66.2637,-20.2173,5.6112,8.3865,138.0836,28.1289,-51.8360,12.1340
-15.6250,227.0998,93.1987,167.8461,14.3637,-87.6509,-67.8523,145.7736,-0.6309,84.1888,-507.3727,117.9249,-56.3623,63.6605,-27.0194,39.1782,4.2746,20.5214,-90.5491,39.4583,-214.0135
-7.8125,-88.7928,-81.7302,-66.1952,-54.8806,80.0527,27.5779,21.2950,-14.8337,-75.7845,245.4176,-150.9061,38.8267,-59.5792,33.6469,-11.9065,25.5193,-48.6797,14.1360,72.1038,100.2008
-4000.0000,8.8685,37.8528,-55.4836,-62.4606,-94.6754,-82.0313,81.0608,53.2597,133.0140,-313.4189,49.9462,53.5551,51.2895,10.7729,-40.6395,11.3798,28.5981,27.9089,96.9033,-43.6475
-3992.1875,16.3604,-201.1372,23.2831,-20.8608,241.4532,143.2681,270.9909,-88.0367,-80.8846,642.6155,-273.8843,-14.2841,-200.6380,12.4721,-36.2602,-56.4531,-210.3605,-70.1187,-0.6296,-2.1796
-3984.3750,-130.8848,-31.8255,-100.6680,77.0405,78.8756,165.8693,-145.8202,-28.0393,-385.4820,256.9664,43.5914,10.1884,-29.2612,40.5839,-86.5837,-32.9814,29.9977,134.1699,29.1306,130.6163
-3976.5625,114.7006,38.2961,204.2175,145.7522,90.0921,102.2690,86.1663,-89.2482,-152.2786,-177.9777,129.9006,-50.5433,19.9353,-23.8614,-40.1096,-131.7128,-5.8265,-6.7392,-41.3155,-152.8216
-3968.7500,-230.2434,-235.1178,11.6020,79.9667,263.8507,240.1992,41.6354,-169.9705,-194.6092,800.6992,-208.3299,15.2292,-207.3943,30.8855,-11.1408,-102.9464,-103.1671,35.8609,-69.2723,169.2658
-3960.9375,-34.1498,32.5331,78.0360,136.2407,-37.3676,49.1723,-110.8821,-102.6364,-89.8696,-313.6638,190.5391,47.0521,81.3582,-0.2636,17.8776,-110.1353,199.5693,92.5303,-82.1801,-21.6054
-3953.1250,29.3494,-149.4429,217.8972,93.9202,285.8456,189.5619,104.0297,-218.9150,-130.6937,446.4085,-220.2199,4.2637,-182.4994,13.9679,10.2958,-116.9413,-18.3163,-54.4113,-122.6930,-29.0966
-3945.3125,-188.1916,-85.4360,16.7402,155.6011,120.0727,133.9696,-206.0859,-162.1976,-182.5350,349.5275,-124.9829,135.4802,-161.3587,83.0547,-44.2961,-22.7475,185.8049,79.6688,-164.2083,173.4401
-3937.5000,228.5964,85.9005,282.9211,290.5898,55.6004,32.6781,-49.9119,-152.1862,11.9000,-307.1593,68.5983,-1.0088,-77.8869,-3.1016,-72.5925,-88.2642,217.2500,-29.9416,-238.4271,-148.7592
-3929.6875,99.1138,-9.0405,170.8635,230.3277,272.9338,177.1692,-123.9902,-263.4505,-244.9394,826.0211,-262.1195,-39.7493,-335.6958,-13.0116,-38.1425,-89.0369,18.4268,-53.8016,-295.9085,142.8061
-3921.8750,207.2693,346.6907,177.4547,232.7281,-52.0975,-0.6889,-336.4568,-146.0681,-200.1233,-238.2242,259.8517,-67.8388,3.1674,-77.9894,-69.0548,-119.1627,268.2929,55.0094,-221.7470,39.0201
-3914.0625,251.1590,109.1116,373.7868,169.8428,254.6024,122.1725,-30.2203,-207.0019,-184.6423,283.2393,-57.4823,-164.2405,-130.2716,-94.6484,-57.2688,-180.6006,-4.1410,-76.4868,-177.8913,-59.0918
-3906.2500,-139.9775,34.5101,62.1058,128.9640,199.3306,140.0583,-304.0348,-112.9400,-310.2162,554.7924,-35.8368,-69.6426,-109.7242,-27.7007,-38.4834,-87.0345,61.4277,96.0347,-146.0384,216.8296
-3898.4375,171.7122,241.7343,292.2463,194.8958,23.8402,38.7409,-221.0622,-30.0709,-115.9607,-358.9619,231.6379,-133.2500,120.6437,-86.0672,-66.8949,-151.6762,163.8179,21.3558,-150.3919,-105.4782
-3890.6250,-45.5031,-79.9733,164.4937,117.9188,300.4945,168.5408,-125.9745,-119.1291,-166.5864,795.5032,-225.8394,-148.7582,-114.9255,-54.8574,-47.1983,-94.2253,-121.7162,-54.2437,-154.6566,134.3284
-3882.8125,-9.7813,97.2810,18.6819,82.9008,-28.9188,22.2921,-306.9800,29.7623,-16.2553,-90.1193,107.6577,-109.3103,107.4640,-61.7258,-9.5630,-55.8240,124.7301,53.1264,-82.9795,99.0996
-3875.0000,142.1183,3.6937,223.0602,58.0538,137.8339,79.2016,-29.8337,-23.2059,42.2116,108.3889,-54.6874,-161.7272,-17.9973,-70.9276,83.2177,-72.2854,-74.6685,-76.3598,-106.1640,-102.0086
-3867.1875,-266.2245,-88.1114,-33.7706,35.0135,210.4241,151.9402,-248.9229,-21.3861,-248.5698,691.8178,-126.2587,-86.3424,-89.6813,10.2299,46.7994,38.0537,-25.2769,78.9592,-126.5562,191.7176
-3859.3750,66.1996,139.8605,142.1624,155.7342,-18.2611,34.4186,-256.2829,8.1865,-70.5767,-385.0994,235.9549,-93.2108,161.4153,-26.0300,1.1357,-5.8651,132.8850,60.0335,-145.2056,-109.8265
-3851.5625,-45.5119,-147.3306,91.9633,79.3061,298.9447,203.7721,-157.7783,-151.4190,-192.7479,698.9442,-181.0245,-69.2443,-109.6655,10.9635,60.3311,17.0584,-154.1302,-50.0621,-184.0260,59.4827
-3843.7500,-148.5784,-39.8524,-56.5969,80.5397,1.7936,90.7837,-416.6845,-79.3848,-155.3126,66.6447,111.6672,40.3787,73.9170,50.7836,57.1768,88.6305,129.5246,92.5125,-147.2145,130.4672
-3835.9375,195.7405,-46.0163,203.2308,72.1424,78.0034,94.1519,-119.2411,-150.0126,32.4776,-81.3453,42.7168,-28.6594,4.8575,3.9243,60.3678,18.5382,17.5343,-54.5618,-189.0680,-124.2285
-3828.1250,-1.7843,-173.0114,-18.7502,48.9557,185.4553,164.7541,-304.6134,-187.4565,-223.5468,720.0043,-215.0808,43.4949,-143.0295,46.0620,58.7578,53.6427,-4.2750,-6.4289,-174.7378,204.3077
-3820.3125,319.8020,149.1213,107.3812,124.8869,-130.0104,-39.5387,-396.9188,-60.8028,-132.4646,-407.6355,206.2612,24.7431,132.2083,-9.8964,73.2455,32.8386,178.0445,-0.1780,-133.3242,-37.0685
-3812.5000,124.6996,-9.4553,119.8409,35.1255,250.8685,83.4933,-162.9144,-193.8667,-227.0990,593.1108,-147.1346,-34.7265,-112.2833,-23.3965,123.0353,9.3261,-121.3589,-123.6422,-185.6232,48.8471
-3804.6875,-189.3790,168.0232,-105.6577,1.4215,24.8097,4.5948,-425.9097,-88.8804,-83.7448,215.9508,68.5222,70.8534,30.2746,0.1162,115.8720,40.8652,21.3051,89.9577,-183.8775,189.8420
-3796.8750,98.1321,246.0559,99.4339,7.2816,-29.6925,-12.7477,-110.3718,-68.3456,269.1497,-172.7130,54.7490,-17.0310,89.3998,-67.4489,137.2579,-49.0534,-111.4680,-42.8941,-176.5952,-120.6436
-3789.0625,-195.4891,21.9459,-112.5771,-41.9494,162.7507,142.8427,-137.9431,-94.9320,58.9458,823.6758,-340.1747,-7.0226,-157.6128,-12.3434,144.5469,-2.0761,-228.3670,14.1543,-153.4354,181.7983
-3781.2500,-29.1672,224.8023,-3.6314,18.7862,-132.8748,-5.6130,-248.5988,14.4317,-50.2967,-321.0579,174.8916,28.9299,173.3465,-10.4794,69.7874,-4.1549,79.7135,112.1678,-127.3406,-3.8152
-3773.4375,101.5248,-66.0040,132.6959,-27.1217,223.8907,130.3062,-38.8944,-106.8762,-170.2151,434.6273,-92.7166,-53.7877,-20.3596,-16.1928,58.3851,-14.8882,-176.8740,-73.4861,-171.9137,-15.0901
-3765.6250,-128.5092,-84.5134,-81.6918,-11.7243,81.9745,135.5466,-362.9453,-25.8978,-271.8908,362.7035,24.9622,-9.2022,59.2266,31.4319,27.2867,64.6821,-18.1548,83.1705,-119.1984,210.9745
-3757.8125,242.6446,76.1394,211.1021,77.8365,6.2032,23.9391,-180.8634,-64.7751,-198.4161,-378.1451,245.8244,-84.4677,206.9824,-46.6145,24.3388,-47.6092,71.7288,33.9771,-134.3477,-121.8369
-3750.0000,-78.1204,-103.1528,47.0048,36.5023,283.5819,227.4651,-196.6776,-153.5769,-285.8636,704.2540,-137.2611,-26.6375,-102.1963,4.9019,-28.5077,-62.8036,-107.3150,64.8788,-173.4125,118.4768
-3742.1875,-88.1461,133.3312,7.6565,167.9392,-51.2995,113.7534,-346.7905,-46.6360,-141.5935,-369.6395,301.4386,44.9399,152.3964,22.5297,-143.6084,-67.2453,235.4274,196.5486,-147.7419,-32.4476
-3734.3750,81.5078,-47.5425,226.9968,197.0467,241.5025,222.7088,-91.2506,-121.0627,-214.6857,65.1532,-30.2260,8.1578,-32.3730,36.0134,-109.0543,-105.0487,18.8075,15.8526,-152.4400,-144.7399
-3726.5625,-171.7785,-55.3420,-50.5803,153.2612,183.4249,237.7915,-331.6399,-141.4047,-269.6837,334.1640,-85.8182,135.4759,-88.0644,100.6827,-93.3925,-15.7533,117.2796,114.2675,-124.0556,128.1068
-3718.7500,160.6112,137.5376,164.5162,169.1395,-43.0187,48.5228,-153.3905,-73.0941,19.9882,-557.2516,167.2681,57.4272,90.9171,35.8853,-136.0822,-20.8107,204.4189,25.3275,-37.0322,-208.4208
-3710.9375,-114.9068,-206.5134,86.7268,69.1239,247.6932,192.3857,-46.0382,-76.7059,-166.2879,647.5882,-239.5965,18.4670,-205.0307,67.3478,-103.6630,12.2314,-34.3734,-37.5290,5.0766,8.1682
-3703.1250,-56.2493,133.6399,37.1257,57.3203,-24.3994,-5.5453,-279.5352,20.8891,-250.3988,-215.3645,225.7588,42.7050,75.2324,5.5960,-45.0369,-38.5250,236.0526,56.8331,-5.6234,30.9799
-3695.3125,401.4685,203.8306,300.6053,21.5800,201.5728,-0.4125,-53.9653,-120.4743,-281.4324,-68.2590,85.1571,-25.0286,-28.4590,-71.3937,33.6507,-143.2413,25.5149,-118.7681,-111.2879,-111.1821
-3687.5000,89.0985,102.9403,34.0207,-9.2109,228.5308,27.7013,-246.4613,-165.9019,-288.5411,543.9437,-107.5352,40.1833,-110.2266,-38.3970,61.2978,-79.0040,-39.0938,-6.4213,-140.0237,209.6464
-3679.6875,249.3700,228.6827,140.0599,79.6093,-69.9223,-124.5893,-103.3925,-96.7364,149.9128,-493.3231,257.4126,-37.0137,107.6334,-90.8067,55.5546,-83.1749,120.9220,-23.4757,-156.1724,-88.9351
-3671.8750,56.5883,-104.6589,115.0679,-8.6169,235.6242,34.0954,55.6330,-194.6402,-57.6947,617.4996,-133.7437,-24.2826,-100.5963,-54.1993,140.7742,-71.3972,-176.1438,-143.5965,-136.3838,69.4456
-3664.0625,-110.5890,80.6432,-63.2923,-70.1836,-53.1899,-70.5584,-195.7175,-41.8882,-123.6381,30.0106,165.7476,92.0900,125.8209,-9.9253,144.6473,7.0314,8.4515,4.9479,-56.9555,147.5026
-3656.2500,112.4122,23.0966,143.5356,-128.5797,42.1609,-85.0486,121.0899,17.0030,84.5542,-62.3454,79.3964,-31.4172,113.3951,-65.3812,130.6805,-43.4062,-153.7961,-157.3687,-10.3948,-87.3159
-3648.4375,-204.6718,-188.5331,-128.6868,-200.0131,136.5117,10.4487,-4.1827,2.8223,-39.3838,765.4115,-155.0435,-44.9769,-48.1122,-25.4673,114.6745,52.1059,-259.1093,-51.7321,26.0940,227.8567
-3640.6250,3.4990,56.1058,-45.6501,-97.1765,-219.9090,-90.8034,-68.2410,122.8910,118.9347,-478.6408,222.7994,-71.2910,219.6511,-46.6500,86.9199,23.8662,55.8484,52.1608,93.8181,-56.7279
-3632.8125,-80.7888,-134.7378,47.9580,-76.7839,167.2611,113.5187,173.2744,-3.5051,-7.1888,419.9694,-306.8518,-87.0742,-127.0607,4.7204,69.7219,8.1718,-169.6780,-32.4188,80.0750,-36.7646
-3625.0000,-242.7224,20.7973,-163.0488,-28.9849,-9.1599,122.2602,-111.8451,78.4947,-106.9520,57.0539,-187.1096,32.5378,-80.3754,92.2471,-105.0666,89.8835,91.2025,157.4125,128.7263,81.6345
-3617.1875,120.1290,33.0826,47.7317,88.5809,-17.8284,112.7532,135.7797,143.2424,32.0240,-397.1438,-85.5990,-86.1148,-88.9296,41.0918,-153.0974,6.3379,33.8353,64.9817,176.1104,-259.2406
-3609.3750,-224.0950,-240.7281,-177.5433,25.0973,196.5021,290.2249,129.3496,99.9150,-120.0762,622.7828,-421.1898,-91.8245,-313.5739,84.6341,-121.1699,37.7430,-99.6109,107.4944,184.4262,28.8684
-3601.5625,-126.3297,-1.5328,-103.8226,122.6289,-97.1866,106.6994,19.8891,211.5916,29.8302,-483.3427,21.2504,-53.5433,-19.1986,58.2363,-122.2363,1.1466,210.9618,172.0192,177.7385,-155.0212
-3593.7500,-37.6227,-159.4202,98.8777,141.1171,216.1125,237.1488,186.4102,47.2057,-23.3149,230.5685,-290.3868,-107.3376,-219.8893,45.5218,-140.3431,-53.5056,-16.5425,49.4674,89.9928,-172.9720
-3585.9375,-264.0660,-34.4265,-110.5385,124.5034,78.3383,172.5163,-134.1937,56.7164,-122.6072,236.4957,-168.1435,-23.2415,-171.6916,72.5257,-130.5395,29.7451,143.8509,139.8174,75.1385,57.0175
-3578.1250,101.7737,86.8300,175.3259,139.1504,-3.1893,17.1288,77.4440,11.4787,91.3386,-472.3730,44.3661,-66.9158,3.7765,-7.3711,-103.4665,-51.7582,159.5012,-20.5939,55.5202,-245.7636
-3570.3125,-199.0075,-178.5738,30.5891,49.1947,219.7290,130.1702,80.4847,-95.3734,-52.3317,703.3334,-281.7866,9.8003,-212.3939,35.3609,-27.9783,-12.8542,-70.4852,-74.6193,1.2858,50.8843
-3562.5000,37.3442,129.1678,-12.0062,74.3973,-154.2218,-96.6356,-73.3628,8.9385,16.1252,-261.8232,153.2343,4.6619,75.5983,-28.6290,-34.3353,-18.7876,167.7009,22.5173,-7.8033,-29.3066
-3554.6875,301.3048,41.4858,121.0336,22.2155,51.4593,-73.8225,206.4112,-43.1533,40.1720,197.6738,-81.1624,-82.9034,-84.8267,-72.8648,23.9139,-34.1264,-130.5350,-205.7679,-25.3042,-117.9124
-3546.8750,0.7054,-48.7288,-133.4502,-33.4638,-19.3361,-108.4835,-48.3320,-39.7452,42.7046,490.8145,-115.1011,-5.9804,-44.7814,-41.4081,26.6688,42.0407,-79.2804,-83.5510,-8.3111,178.0246
-3539.0625,257.9249,174.8692,112.8840,13.6714,-178.3471,-230.3457,50.7198,22.4672,218.0427,-479.3028,242.7841,-90.2735,202.0767,-117.2137,14.2373,-42.9977,38.7917,-106.5384,-32.5301,-127.2572
-3531.2500,64.0927,-88.6204,46.1825,-40.2385,123.6417,-74.2289,94.7285,-116.3895,5.2854,664.6927,-116.4348,-9.6366,-83.1492,-64.8391,57.7773,-35.0878,-224.2194,-193.5977,-49.8170,100.4307
-3523.4375,71.5377,129.1868,-90.2313,-67.8391,-234.0770,-212.8094,-80.0050,2.0553,273.8033,-173.9941,223.6589,74.2929,145.9344,-71.4687,-7.3716,-26.8667,-5.9146,-80.3518,-6.8132,72.4435
-3515.6250,252.8523,29.8312,108.2343,-97.5752,-109.9351,-198.5343,266.1350,-19.6604,363.1887,-52.7989,55.5953,-20.9550,51.8614,-87.1830,7.3440,-11.8041,-174.7761,-250.2798,0.0254,-133.7121
-3507.8125,-45.5378,-92.2135,-107.9664,-148.9658,4.5839,-83.8876,-24.3809,-52.0353,-257.0921,535.9120,-50.1636,57.1360,-16.8906,23.5818,48.4292,138.6165,-85.3155,-89.8669,19.1989,200.5272
-3500.0000,229.5808,77.2555,81.3423,-15.8420,-174.4179,-151.7474,-129.4147,27.0956,-359.8778,-562.9370,287.6128,100.7190,209.8818,43.9910,16.0297,108.5369,154.6621,-25.9555,11.8579,-87.7434
-3492.1875,-4.8950,-226.9134,52.0713,-39.3110,201.0280,112.8199,24.9644,-76.3955,-314.3003,470.7624,-219.2579,71.6897,-112.9725,115.3676,-50.9551,151.8527,-147.9991,-12.6680,-46.1082,29.3983
-3484.3750,-221.2912,-125.9833,-138.1198,26.3230,-63.4299,106.4937,-165.5988,27.2059,-64.6453,-200.3910,67.9737,101.7623,64.2764,146.2821,-167.8341,181.2744,127.4449,193.7288,-85.9887,58.6751
-3476.5625,47.3354,-209.0595,119.7158,154.9692,47.1161,144.1699,128.8546,27.8043,48.0229,-423.5592,-3.7840,-81.1855,28.5369,78.9356,-94.6988,71.6911,81.8773,112.1069,-96.8890,-235.0709
-3468.7500,-272.1876,-423.2805,-81.5579,150.5183,212.6037,309.7749,-109.7986,46.2837,-446.4583,511.3513,-241.6784,-26.2389,-135.3306,169.6310,-39.6462,163.0140,7.1852,214.3753,-65.9108,77.1258
-3460.9375,-99.7100,-179.4778,0.1823,184.0833,-108.9295,171.3733,-212.4856,202.7637,-326.9620,-548.7845,171.4683,-16.2979,130.8243,140.1437,-31.5837,135.3354,217.5183,282.6470,3.0477,-171.6773
-3453.1250,-203.0296,-492.5046,38.1420,80.8584,222.7800,319.1938,83.0539,129.4227,-104.2670,368.3935,-232.2350,-125.1798,-124.8467,115.8050,-31.3094,99.8533,-95.9846,145.0939,6.1848,-134.2785
-3445.3125,-414.0371,-388.2034,-151.5737,44.9824,-5.1583,239.3766,-72.0814,196.4326,72.7600,27.9996,19.3867,-95.7130,15.8159,96.7205,-75.6712,91.7359,79.8633,250.8956,40.6615,5.5096
-3437.5000,-20.8181,-275.7043,126.9277,52.3176,-20.9065,113.7600,206.9936,143.6477,205.9926,-394.2215,78.2186,-184.0663,74.6858,3.3989,19.1813,2.8218,17.9058,82.8772,83.3332,-304.5249
-3429.6875,-278.1373,-462.7609,-84.0859,-65.8493,210.8847,197.6660,180.5749,117.3558,69.6796,644.2427,-314.5021,-99.9252,-207.9846,52.8218,102.5510,50.4221,-168.5889,36.3401,106.5055,-0.0206
-3421.8750,-101.8299,-145.1679,-39.4638,-29.3614,-149.6999,-52.7856,113.7869,235.7318,152.0226,-416.6700,170.4448,-91.1343,94.0099,-8.5562,73.5855,20.6806,113.5768,38.4526,143.3363,-139.8573
-3414.0625,93.1315,-196.9532,127.8225,-45.2247,163.3876,3.4184,280.6982,70.7548,-121.9601,298.1585,-104.0039,-108.7146,-70.3750,-34.0933,92.2948,-34.4120,-112.6477,-152.8175,92.8086,-121.0485
-3406.2500,-18.7945,-26.6100,-75.7728,-51.9439,33.6246,-52.2137,-70.2557,49.9297,-324.8179,239.2564,-12.3287,54.8465,-15.6272,2.4420,71.1719,-16.3471,21.2662,-17.9377,85.4257,152.9573
-3398.4375,230.0168,116.4457,89.3530,-48.9509,-132.4523,-182.1527,167.4939,31.8138,208.9984,-442.9868,115.0741,37.0826,111.8412,-62.5852,52.7621,-73.5871,-9.1168,-120.3693,54.7380,-160.3529
-3390.6250,-156.0457,-198.3863,-143.3703,-152.8125,75.6678,-9.9149,302.4006,-17.1629,270.9184,719.0987,-263.4276,61.4507,-156.5785,-6.9794,39.5265,-11.6748,-289.3897,-153.6682,55.1897,121.5207
-3382.8125,-53.5817,80.3389,-141.5617,-155.1181,-252.6839,-192.1345,45.8347,167.4202,52.3855,-274.2716,252.6288,63.3596,175.5646,-25.6200,40.8581,25.7946,-10.0972,-50.4123,159.1886,48.9636
-3375.0000,142.6908,-75.1557,68.0709,-170.6191,-6.2201,-92.5507,256.1082,83.8013,-67.3229,154.2162,21.4543,16.0474,55.4894,-36.6929,140.9990,-20.9329,-234.0315,-205.3902,144.9796,-71.8056
-3367.1875,-130.0685,-100.6694,-194.3216,-196.1304,-11.7429,-96.9624,67.3729,5.1745,75.9602,514.8420,-92.7459,85.7352,-22.6068,-37.1160,171.1466,-26.6556,-154.9927,-125.3798,48.7558,253.4729
-3359.3750,274.8484,128.4948,20.9463,-142.9817,-237.6448,-249.7424,134.2878,-0.7976,364.8982,-411.9495,158.7417,-30.9371,155.9661,-130.2639,165.9558,-69.7341,-30.2955,-175.7291,32.1767,-9.6156
-3351.5625,-53.9981,-236.1399,-75.5304,-190.5835,105.7466,-89.2495,183.4758,-61.5270,120.0354,738.6723,-268.5729,-17.3744,-124.2392,-50.1878,215.0333,17.4425,-253.3877,-153.8525,19.8394,223.5664
-3343.7500,-226.8600,-56.7813,-181.0243,-151.1774,-182.8763,-157.7601,-31.3703,53.7526,237.1303,-139.6846,140.1271,61.1862,137.5667,-14.5053,183.1182,58.6329,-3.4661,-8.9765,24.4956,191.7778
-3335.9375,-45.0438,-86.7764,18.1576,-111.1149,-57.8441,-106.6281,277.4584,-4.3234,363.8878,-16.3711,-27.5268,-70.6161,80.0231,-66.7073,198.8649,0.4724,-171.9231,-177.4788,29.7864,-13.3774
-3328.1250,-358.4745,-223.0022,-212.8855,-142.2696,6.0084,-42.6807,46.0891,-14.6050,59.4307,632.9021,-184.4236,-6.6272,-39.7552,4.8697,187.4309,100.1265,-133.6139,-33.1921,68.8720,306.3126
-3320.3125,-56.8529,-97.1700,-30.8774,-51.3761,-216.1200,-153.6958,44.7677,93.1809,132.0363,-435.8403,144.7603,-45.6053,179.5358,-9.7809,186.0619,97.8412,98.7571,-11.8616,55.0074,11.0433
-3312.5000,-180.6823,-291.8315,-18.3153,-104.9347,125.3385,39.8560,202.0285,-5.4937,33.1767,640.1043,-247.5615,-144.0435,-139.6632,-1.9972,123.2528,109.1118,-200.3585,-66.0097,35.6852,132.3367
-3304.6875,-262.7353,14.2997,-179.9825,-45.6853,-145.4182,-46.7890,-68.9382,126.6351,130.0960,36.8993,68.9132,-194.6817,66.9344,-51.1110,36.2515,94.1941,35.3290,63.6459,26.1548,191.4641
-3296.8750,72.7386,67.9334,34.8678,-26.9260,-114.6786,-51.9380,219.6188,48.2681,199.5186,-154.8257,26.8933,-235.8383,25.0373,-81.1726,66.7703,52.7776,-51.4970,-92.2225,9.1145,-70.9318
-3289.0625,-202.3689,-101.0124,-192.8553,-54.7173,62.5360,51.3794,101.6320,-32.6506,-100.6428,646.0625,-273.7357,-96.5536,-128.4493,0.3155,59.7529,82.8217,-114.9044,-14.6531,51.5227,252.1625
-3281.2500,62.1270,163.6620,-87.9840,34.0954,-273.6839,-137.7225,96.2434,109.0518,114.7960,-463.5045,125.2647,-65.6784,86.6776,-45.9679,17.3406,3.4679,80.3023,4.5161,141.5418,-10.1465
-3273.4375,-46.9772,-121.2986,-55.6992,-39.6919,15.5228,4.5903,386.2996,68.1559,147.6351,486.4384,-282.3831,-106.4204,-173.8286,-46.9840,122.3444,-38.4917,-273.1328,-137.9407,173.9538,21.9444
-3265.6250,-329.2708,18.5720,-284.5980,-110.6280,-214.4252,-78.2445,155.1884,168.1193,138.3124,181.3098,-35.1988,-42.3143,0.5048,-17.6309,112.2101,62.4117,-133.7175,-34.5464,207.2098,195.9238
-3257.8125,-1.2293,170.7614,-37.1778,-98.2519,-224.0915,-161.7938,366.3940,158.3874,350.3123,-343.5589,102.2978,-125.9266,64.1460,-81.3896,66.3861,15.6156,-157.0057,-162.8768,149.7525,-107.8218
-3250.0000,-271.6998,-64.5737,-260.2681,-157.3782,-42.2244,-15.8295,327.1061,82.1381,238.7585,756.2423,-267.7539,-91.0478,-157.7460,-41.6291,64.0776,50.3250,-320.8228,-115.7282,124.7787,183.9708
-3242.1875,-65.1692,178.1208,-181.3701,-91.4978,-331.3873,-194.8837,147.7929,197.8978,280.1926,-343.0013,141.2306,-50.1749,177.3858,-68.8928,31.7794,18.0393,-7.6264,-49.5802,121.7974,4.7739
-3234.3750,52.8860,49.3129,16.0447,-79.1139,12.9634,-108.4364,309.0219,28.1486,148.1473,331.3227,-174.3244,-72.8257,-29.0074,-83.0008,81.9851,-41.7439,-205.9678,-211.9620,29.3018,-17.9311
-3226.5625,-189.3749,88.1878,-211.8696,-74.0346,-103.9870,-77.2864,7.9360,58.0993,68.7734,322.4460,-71.2027,31.2243,-35.7208,-30.9448,38.8952,-11.8121,-60.6180,-31.6482,33.4990,232.1073
-3218.7500,169.6616,237.3295,67.4860,-31.6991,-192.7097,-166.9091,103.0995,116.3065,164.6195,-427.2429,171.2072,-20.4795,96.8372,-78.1374,60.0737,-63.6318,-18.0082,-130.1037,5.9389,-76.6242
-3210.9375,-73.2117,29.5378,-88.0662,-133.2672,91.7023,-28.4206,56.3733,-3.3922,8.5226,738.3368,-206.3347,6.9120,-169.5426,-51.3206,87.3733,-36.3426,-225.3468,-161.4809,9.4654,207.7736
-3203.1250,50.1025,293.9769,-138.4449,-79.6348,-251.7196,-151.7431,-66.1803,56.1239,215.6146,-304.9116,111.3466,29.5044,74.2953,-55.9177,0.8798,-12.8429,74.5227,-1.6568,-6.8133,121.3902
-3195.3125,269.2962,161.2613,133.0368,-1.1512,56.7147,-27.2213,168.1567,-113.5085,10.5674,39.7202,-95.1429,-66.0694,-58.0316,-79.0199,-21.7631,-109.4885,-21.7899,-99.0104,-104.2428,-11.1573
-3187.5000,10.3560,218.4220,-2.6177,56.2177,105.0516,58.2108,-225.6116,-138.2349,-492.5957,307.3792,-82.7724,19.2608,-119.4886,10.3689,-83.4977,-24.2135,140.7718,100.5298,-116.7774,257.2393
-3179.6875,237.3962,374.5588,212.6801,177.5412,-47.6943,-20.4286,-157.4239,-69.9976,-202.7939,-617.0913,205.5701,-96.4629,59.0166,-33.7145,-126.2705,-28.9870,227.2923,45.0074,-100.3661,-78.4322
-3171.8750,-26.0160,-28.7874,39.5243,91.4115,184.1366,137.4934,37.3455,-95.2217,-80.4595,533.1263,-260.5907,-84.6497,-259.9642,28.9330,-114.4758,54.7927,-69.6806,-39.9888,-116.4090,116.4648
-3164.0625,56.1047,193.4284,-93.1090,102.8322,-170.5067,2.9570,-169.3581,-9.8842,-30.6128,-300.1042,82.8184,37.7157,-26.3851,42.8385,-175.1221,68.1329,187.9086,76.5708,-68.9060,92.9376
-3156.2500,355.1597,211.5560,119.1777,120.1637,4.7498,-4.6872,79.8586,-90.6497,109.1242,-236.4377,-35.8742,29.9730,-107.9103,-11.3720,-146.8588,-50.6230,-5.6202,-116.9942,-122.5117,-135.7098
-3148.4375,-80.8272,56.6672,-128.5716,71.4881,51.0158,77.6781,-57.9213,-118.4158,-102.1384,361.3673,-135.6169,75.2363,-171.4727,47.0009,-63.5917,32.6348,-53.1848,11.4395,-100.1287,167.6830
-3140.6250,135.0052,238.6094,72.4744,147.6224,-224.9624,-50.1732,-76.8974,-27.3623,-46.5921,-724.1067,323.4729,20.2953,213.7826,1.7434,-9.5284,13.6995,128.0575,15.6707,-129.9516,-108.1418
-3132.8125,4.1018,1.7789,75.7744,87.0107,109.3352,63.2403,73.4008,-133.0576,-43.8365,381.7912,-114.2317,-13.3991,-76.7477,-9.5276,30.7852,-19.9782,-143.4934,-113.8675,-155.5360,42.2857
-3125.0000,-66.0200,282.7674,-111.1538,122.1997,-187.5889,-86.5439,-150.5322,-62.9412,137.6810,-173.4754,175.8651,56.7101,66.5164,-32.0811,-45.1021,-22.8454,66.7572,25.4052,-155.3242,112.5412
-3117.1875,326.7408,394.6319,164.7877,164.2493,-132.6763,-141.4902,88.4126,-81.9691,194.0617,-374.9267,157.8111,2.6591,49.6298,-93.2336,-64.1360,-113.8664,-32.1493,-143.4957,-184.2712,-162.3824
-3109.3750,90.8807,229.8728,-22.8993,69.6924,83.6565,1.9732,-135.2314,-158.6007,-361.1687,502.1675,-29.8994,72.0044,-64.8975,-36.0353,6.2357,-81.4773,-54.6907,-61.0073,-172.8217,201.1290
-3101.5625,310.5849,378.6941,103.9508,112.6958,-155.5066,-164.0349,-228.3339,-68.6624,-305.8487,-583.2686,354.9766,88.8962,247.1422,-70.7023,23.1586,-137.5319,164.3329,17.0373,-94.8238,-1.8174
-3093.7500,173.8564,-3.9418,70.3595,12.2544,139.9023,-15.4814,104.1463,-138.1793,-83.0033,374.9284,-156.6360,55.3254,-81.2910,-48.5014,99.6345,-134.0320,-148.1315,-84.3890,-55.2864,37.7800
-3085.9375,-145.6870,-77.3689,-159.0629,-60.9881,-52.4988,13.2713,-51.2002,-0.4905,55.0009,70.3840,17.9471,45.9683,-16.5327,-8.2696,53.3159,-70.3246,25.5965,159.3873,47.4451,175.6129
-3078.1250,154.5705,-94.0192,132.2772,-6.4798,18.8291,47.7508,167.2198,33.9549,90.7608,-555.4725,125.3005,-66.6468,91.9914,-31.4038,-22.2349,-145.8667,79.0655,142.8887,31.9190,-156.8302
-3070.3125,-58.0493,-235.5415,7.7413,-42.8365,298.3291,253.3843,41.8146,-90.4543,-217.3345,421.9755,-256.2490,28.8804,-179.3724,61.6291,-72.6215,-86.2465,-27.3624,106.5181,29.5384,122.9090
-3062.5000,132.2852,60.9223,32.1286,-28.2453,-7.2697,20.9437,-79.6515,-28.8956,-8.4741,-655.6866,99.1833,91.3533,28.2293,52.9207,-122.0607,-24.6605,233.1702,157.0999,45.1123,-72.3976
-3054.6875,37.2090,-211.0628,120.0799,-53.1049,263.6928,145.0508,228.4662,-88.7900,78.9329,56.2463,-254.8659,31.3666,-178.6399,69.6078,-70.9508,-11.5263,-37.7723,-8.7940,56.2275,-132.1677
-3046.8750,-295.8798,-226.0509,-128.0007,-33.9699,125.6518,118.1597,-20.4322,-6.6831,-57.6904,139.2598,-134.9344,114.3827,-94.5294,106.8390,-24.8375,34.6185,87.2744,116.3116,75.3406,98.0995
-3039.0625,126.9270,-85.1557,69.7811,37.0195,-6.5764,23.0950,105.5275,9.2884,30.5424,-654.9630,99.8800,55.2376,103.4471,48.1748,-9.8621,-23.3825,158.1738,11.2548,75.3000,-217.8106
