Time,Fp1,Fp2,F3,F4,C3,C4,P3,P4,O1,O2,F7,F8,T7,T8,P7,P8,Fz,Cz,Pz,ref
-4000.0000,135.9667,19.5450,165.3431,56.5965,72.7795,-1.6826,40.5418,-20.3654,7.1108,-107.7111,-154.0102,-17.2909,31.5021,-20.6838,-2.1849,-77.9844,137.1574,-71.2348,52.6450,-41.1239
-3992.1875,81.5375,-0.8683,103.1082,6.3301,118.9162,5.2920,13.2149,-1.6192,-21.8067,-64.3980,-296.0606,28.8134,4.1736,-12.9617,116.7944,76.8527,-22.5889,-58.3042,-38.6120,77.3939
-3984.3750,102.8956,-52.4776,-20.3491,22.4580,30.8459,33.3682,-39.3271,30.2202,-37.9314,-8.2727,-131.3302,49.7394,99.6498,7.5675,63.5694,22.4940,33.4735,-5.5701,51.9340,60.7223
-3976.5625,169.3256,-22.0345,-23.7420,-106.0737,-11.1789,-55.4719,66.1915,6.2506,-43.9908,19.8949,-140.5457,-30.2788,167.1875,-71.8584,94.3968,163.1734,-181.4151,-46.7988,-59.4691,54.0913
-3968.7500,-16.5938,36.0625,-112.4896,-36.7455,8.4462,21.0836,-24.6401,47.3370,-134.3956,36.7063,-199.1324,-11.6406,149.3756,-53.6347,148.8890,216.5194,-120.6649,44.6227,-70.2345,182.1212
-3960.9375,109.3981,19.0712,-15.3422,-28.8596,-43.0361,-20.1543,-3.5792,0.8862,-39.8990,20.4204,3.1771,-27.0830,208.4725,-68.5065,97.2698,52.7481,-31.0040,-9.0549,-18.1011,93.0514
-3953.1250,74.3574,-51.9591,-18.2439,-82.7363,-9.5772,-26.5215,29.4385,-8.4431,-7.4478,13.0910,-151.5863,4.4353,93.5115,-74.4322,202.6077,156.9402,-171.4173,22.2143,-124.0276,160.9311
-3945.3125,-1.0449,-60.3343,-95.5177,31.5955,-15.4727,37.1482,-12.9017,-0.3486,-50.3449,5.4235,-13.7132,72.6156,125.1933,-7.7069,85.5958,3.7853,33.8218,48.1469,-26.3054,117.4733
-3937.5000,44.5645,-51.6913,67.2075,-35.7549,-1.3738,-22.4257,109.7605,-12.3106,-2.2452,-21.2481,-5.8301,11.8071,100.8742,-32.9815,24.5676,13.6172,-61.9392,-15.9194,-17.5864,19.0076
-3929.6875,-121.0234,-77.2347,-37.2749,6.8000,76.5248,64.5128,40.2112,49.5093,-34.3701,17.8865,-151.1570,51.8117,-4.6597,43.5463,-7.6676,126.2654,-51.9170,61.8259,-43.0867,132.3557
-3921.8750,33.7858,-136.3655,-17.3705,29.4225,-16.1857,29.8624,58.0417,12.8045,91.8947,-4.5768,44.9218,32.2328,86.2058,23.4874,-65.5183,-77.6976,103.5203,-33.0217,73.8105,38.1052
-3914.0625,82.9546,-123.1387,-5.1121,-89.2263,31.4431,-35.6702,105.2195,7.4553,64.5134,4.3114,-57.6590,-68.9805,59.4115,-76.2207,127.9794,76.6967,-94.7129,-21.5168,-19.9499,84.2013
-3906.2500,-86.9865,-50.0085,-146.9709,-24.6712,-3.0328,29.5091,-2.7262,62.7661,-42.9807,41.1041,13.6540,-66.2754,98.5056,-75.0213,92.3744,77.0051,-19.0455,84.8979,54.1777,122.2124
-3898.4375,-15.4599,-86.4187,-68.3789,-103.2130,-72.0715,-42.6782,110.7653,40.3652,32.9699,78.3479,50.4392,-100.1138,139.0531,-145.3642,59.2047,42.7587,-123.9180,82.7606,53.7566,14.6650
-3890.6250,-166.3397,-204.2169,-194.1926,-112.3339,20.4897,7.0712,92.8652,62.6054,50.5207,94.1909,-44.1970,-45.3398,47.1898,-54.1094,113.6412,170.1288,-170.2156,102.2277,-30.0793,105.7267
-3882.8125,-12.1297,-86.9059,-175.9234,-25.0366,-71.8597,25.3189,37.0549,23.1511,31.1688,36.1388,115.2784,45.5634,65.4205,72.2562,-16.8302,38.5900,-50.4049,43.8002,18.1889,11.8910
-3875.0000,19.2524,13.5674,-70.5030,-59.2777,-42.0666,-9.4648,66.3993,20.1769,22.9720,63.2417,-43.0952,74.6262,-53.2094,26.7631,11.8360,140.1998,-194.4556,0.5206,-58.4005,40.1998
-3867.1875,-199.5813,-67.1546,-191.2987,6.8322,-18.4744,75.5271,-20.4680,87.4629,8.5598,158.1530,-58.6831,134.5018,-65.0592,86.0797,-1.7034,87.6232,-98.7147,59.0612,36.7985,99.3219
-3859.3750,-124.4709,-99.9185,-109.1566,-66.8596,-46.9444,-7.8494,96.6034,58.1134,126.0906,163.0204,54.7052,31.3408,-21.9591,-17.6429,-32.3173,56.9842,-130.0181,25.5650,39.9430,-4.6153
-3851.5625,-121.2640,-132.5712,-182.9249,-92.2800,-13.3202,-0.3294,56.7736,64.5931,85.7209,158.0007,-61.8075,-8.7158,-24.7646,-57.2792,37.1740,199.4626,-161.2578,60.1744,-62.8329,101.5526
-3843.7500,-12.8723,-27.0198,-142.5237,1.3533,-83.5059,-6.3826,-50.8769,-8.0315,50.5470,84.1946,119.9035,30.4437,50.6320,-56.7098,1.8629,-20.8602,16.6989,23.9937,-28.4142,65.9298
-3835.9375,52.2867,107.2925,-37.3803,-37.7699,-89.9593,-59.4879,-57.7787,-61.6222,43.1271,38.1453,72.3785,60.3699,6.7769,-64.3840,68.2959,43.5664,-129.6173,-19.4383,-140.2588,58.0513
-3828.1250,-162.9765,101.2178,-117.6641,45.8049,-61.8261,31.5006,-141.1005,-15.6531,-76.7075,99.7120,95.4342,123.9173,-2.4950,34.5569,21.3317,68.6206,-29.3553,42.7455,-146.5263,120.7912
-3820.3125,-83.8445,72.5595,-31.5635,25.3811,-124.3098,8.3420,-93.0420,-18.3490,6.8438,72.6803,176.9188,97.8832,45.6363,45.9140,-78.2564,5.0649,-20.6826,12.3341,-70.4022,20.9311
-3812.5000,-68.6652,86.9592,-127.4147,-46.3859,-74.7540,-10.5088,-43.9390,16.9067,-18.5544,119.6953,-35.5290,73.9084,-16.1885,20.3170,43.2077,199.5756,-180.9875,-10.0233,-126.2487,69.1239
-3804.6875,-84.3099,103.5651,-215.0982,9.0018,-128.0116,6.1669,-61.6559,29.5078,38.2375,210.9286,91.2239,93.1561,4.1779,39.9288,-11.1362,71.2969,-57.1004,4.8367,-39.8995,14.5288
-3796.8750,-21.0020,96.1357,-147.8510,-74.9705,-135.3306,-70.8457,42.5747,-22.4081,140.9756,202.1250,43.9424,86.3668,-39.5087,-4.5020,55.4523,135.9617,-205.2816,-40.3492,-153.6032,-30.1211
-3789.0625,-125.8132,93.6110,-227.7310,-25.9151,-105.7568,0.9727,-76.3006,-3.9035,57.6065,191.2278,-41.4336,114.4949,-84.3137,58.9713,81.9391,162.5402,-170.5843,26.3817,-190.4235,107.1441
-3781.2500,41.8107,84.5457,-123.1872,-17.7202,-149.7464,-12.2799,-83.7456,-27.6328,12.6861,107.7853,130.6685,106.0962,-19.6739,87.9048,-0.1392,79.5574,-108.4278,-53.4226,-129.7981,61.8570
-3773.4375,-24.9219,51.1378,-158.9988,-84.1519,-114.0937,-4.9092,-85.5430,41.0539,11.4086,178.0074,-56.5718,68.3572,-93.3993,48.4886,108.4307,297.2425,-244.6553,-18.5712,-162.5439,133.2196
-3765.6250,-109.3207,70.0897,-247.4963,-15.4144,-168.1091,41.5271,-176.0148,60.0662,29.4677,232.6002,68.5598,87.9751,-73.7849,104.4282,17.3465,168.2973,-120.5543,32.6457,-74.9588,114.9529
-3757.8125,-4.2587,68.5023,-170.5663,-65.4661,-239.7025,-29.4806,-101.0516,4.9095,67.9849,194.6585,103.1863,89.0480,0.2829,31.8181,17.7028,131.8053,-191.0239,-5.6889,-110.9307,42.1360
-3750.0000,-197.6783,48.4636,-230.1152,9.6242,-189.7602,55.2032,-199.5469,23.5720,-29.9449,168.2930,-34.6433,174.6860,-23.1092,79.7568,29.6175,178.8962,-138.9805,113.5430,-166.3677,126.8869
-3742.1875,-188.7848,91.7799,-178.3474,53.8780,-175.4826,38.9806,-185.7050,-21.8998,-17.5293,107.2927,159.9068,152.6926,-10.1536,93.0558,-68.1287,-29.6683,-24.5883,120.1448,-89.4519,-7.0098
-3734.3750,-175.3470,102.6497,-95.0453,-36.3205,-20.6667,-17.1156,-67.3112,-25.4207,-9.5652,39.8491,18.0253,51.2514,-110.6515,-46.0896,-23.3327,88.3265,-188.6785,129.3081,-148.9993,37.6373
-3726.5625,-158.1988,13.2693,-114.0334,24.0783,-6.1096,38.3517,-126.1896,-15.8063,-67.8688,52.1737,102.9008,65.5808,-59.4151,41.5279,-118.7914,27.0880,-31.0405,109.2482,-132.8136,88.0469
-3718.7500,40.2385,70.1917,-13.7502,-18.5951,-53.2762,-8.7631,-64.7858,-40.8502,-116.8778,39.8174,162.1158,54.2314,-34.8826,67.4591,-166.9733,-21.8560,-114.1137,58.5004,-112.3375,2.7504
-3710.9375,-126.6975,146.7776,-155.8400,-6.4848,-49.8029,34.3196,-24.7438,17.7691,-114.2399,40.1292,-23.0152,57.5436,-141.7212,69.0329,-18.4990,89.8740,-176.5788,98.4071,-70.2327,78.1233
-3703.1250,-140.3028,133.7278,-165.6177,27.3702,-134.0041,27.6533,0.6220,25.4847,20.7503,64.8069,147.2411,46.2266,-116.2183,57.9664,-67.6789,-33.0474,-48.6943,47.6694,55.2169,-7.1367
-3695.3125,-88.7423,42.8439,-113.2655,-89.6724,-119.0772,-23.6685,52.1336,57.7867,71.8921,114.6418,47.6848,-48.9288,-137.5750,-75.9458,-16.7175,91.1862,-208.6847,96.0855,34.8092,6.7502
-3687.5000,-220.6597,-56.4836,-141.3986,5.3109,-76.6139,63.5765,-52.8157,99.4085,-33.4214,155.0431,87.6907,-5.5219,-131.4024,-33.2986,-84.2101,-15.0043,-25.1489,207.0680,110.9347,12.2002
-3679.6875,-1.6477,-13.8548,21.3915,-3.5990,-62.2208,-25.3399,72.1676,9.1459,17.2112,131.4122,209.6957,-28.1477,-155.2878,-56.6868,-218.7748,-186.2485,17.3318,106.0137,82.0087,-158.4085
-3671.8750,-88.9581,-138.5247,-1.1431,-39.7552,24.8623,-10.7251,47.8435,8.2084,29.5388,142.5021,35.4225,21.9343,-214.4944,-6.3734,-95.6397,-100.7704,-70.5312,85.6757,-7.2345,-72.3158
-3664.0625,-76.8484,-126.7469,-60.2720,43.2649,-35.6220,36.8855,-50.0530,-27.8095,4.3079,42.0672,154.6299,71.4781,-93.2642,115.3959,-121.0658,-235.8348,82.0458,95.8122,37.9708,-97.7674
-3656.2500,-1.3362,17.4425,-55.0222,-53.2917,-67.7278,-46.0675,-9.5487,-65.0915,8.4804,-27.9495,82.2847,2.4218,-88.6359,45.5555,-7.1109,-123.4994,-125.0106,62.3541,-29.4335,-130.8290
-3648.4375,-193.8062,34.6888,-185.7658,19.0747,-53.7957,36.4342,-69.0108,-1.2202,-51.3034,94.1117,-16.9953,16.4244,-111.9690,95.7685,-30.0998,-111.0890,-36.0629,148.9692,-11.8131,-43.8255
-3640.6250,-169.1167,-12.8619,-120.3525,-5.1183,-99.6864,-4.1065,-5.2887,-25.3483,12.1115,83.3945,80.9764,-29.3634,-11.0970,49.1937,-76.9007,-231.4833,-12.9356,134.8042,46.0008,-127.6215
-3632.8125,-275.3549,-120.3153,-89.8693,-69.7866,3.5058,1.8824,24.5273,23.4446,4.6272,37.8011,-38.9361,-73.0442,-55.1455,-69.2827,62.4039,-19.7494,-119.7528,201.7503,7.8919,-25.3072
-3625.0000,-280.2896,-91.4175,-95.0858,18.6811,-2.9692,40.0689,-19.3358,0.9792,-2.5176,-7.4218,135.5334,-42.3484,12.1358,-2.3910,-92.9512,-137.6406,50.7691,194.0656,36.1219,-32.6247
-3617.1875,-55.1727,-42.4649,32.7301,-37.5195,-23.4137,-11.4313,-3.1572,-11.5357,-60.6096,7.4118,111.1107,-62.5903,-45.5402,12.5587,-114.2681,-49.4823,-40.6807,100.4283,-21.6048,-90.8956
-3609.3750,-89.9284,27.6408,-80.3402,41.9627,9.2850,72.1981,-153.8357,29.8650,-211.5552,75.4109,30.8472,43.3192,-159.0801,118.6635,-154.4222,18.8578,-5.0191,168.9514,-58.1972,-21.9956
-3601.5625,32.5394,148.0030,-94.1998,49.8941,-116.7838,33.2520,-208.2896,-1.0820,-155.2611,94.6687,196.8911,65.4921,-139.3752,176.0321,-245.3473,-71.5500,10.8912,76.7428,-8.5438,-148.8390
-3593.7500,-64.2042,-19.8280,-89.2750,-45.8953,-113.0652,38.4580,-93.9525,66.2852,-78.1801,96.7365,-23.2174,32.4753,-207.8821,106.2001,-132.4807,114.8567,-157.4365,118.3455,-1.1159,-71.8828
-3585.9375,-195.7920,-117.4515,-154.1928,23.5860,-105.1551,81.8131,-86.4397,69.9006,-33.9201,103.0219,92.9071,40.6764,-128.2008,113.5749,-88.4184,-25.5216,27.4133,160.1719,76.4947,-64.7073
-3578.1250,-81.1950,-2.8752,-66.9404,-55.9991,-56.0674,-48.8520,110.2579,-32.9716,51.5398,3.5266,139.2942,-19.9114,-42.3180,-21.8418,-3.1703,-87.7068,-104.5519,96.2108,14.2992,-163.3423
-3570.3125,-231.8644,55.4494,-192.9659,-55.4497,36.7535,-28.4476,90.6924,-35.0245,-4.2557,-16.2010,7.4617,-0.7441,13.2911,-40.5060,87.8311,2.8879,-184.8057,154.0114,-69.1717,-35.2202
-3562.5000,-45.0151,66.3333,-180.4809,-22.4192,12.1041,-44.6895,66.6486,-65.3668,7.4936,-41.3529,165.2260,11.9782,99.4386,-27.6097,26.3671,-95.9639,-69.5182,92.3775,-24.0993,-96.5409
-3554.6875,60.3140,29.7227,-73.5233,-95.7236,117.9351,-95.1605,135.1042,-66.9938,2.7501,-10.9862,47.5383,-28.7985,21.0751,-70.2142,58.4039,8.6960,-174.7726,-51.7519,-96.5403,-28.3616
-3546.8750,1.4938,111.0073,-64.7160,53.7283,51.6469,2.8285,-41.5555,-51.3009,-64.0930,-5.6921,162.7804,52.3414,-9.4028,47.0928,-45.6539,-94.7162,46.8357,-41.9646,-51.0971,51.7376
-3539.0625,139.2504,141.8909,44.6537,16.9963,-24.0668,-49.4590,-81.6288,-93.4839,43.6698,-82.7771,305.6738,50.0954,-11.2855,45.0127,-122.1277,-99.5299,7.0256,-118.5636,-57.0504,-24.5650
-3531.2500,-27.5747,44.2262,-24.5655,-18.3511,-56.3457,10.7110,-187.2593,-33.8104,-63.1123,-42.3845,196.0402,54.3000,-80.7400,84.3784,-45.1416,124.1346,-89.3835,-5.6997,-153.5731,88.5947
-3523.4375,-90.3951,51.6031,-51.7799,61.0373,-157.5995,63.9164,-288.8640,-4.0652,-201.8490,38.0801,313.5211,137.5645,-36.1485,129.8034,-147.1087,21.8560,23.2434,70.2324,-78.0519,23.8148
-3515.6250,-116.1762,60.0262,-77.9639,-36.7831,-111.8184,20.7911,-132.4218,36.0197,-155.5303,83.6108,100.1113,73.8785,-63.5129,66.2779,-66.0348,103.6402,-179.1185,77.2190,-35.4928,-3.9183
-3507.8125,-256.8446,58.6060,-227.0461,30.3908,-78.9033,78.0210,-99.8451,60.6458,-87.0724,78.3184,19.8754,71.3445,-66.7415,98.9082,-33.8089,-11.3942,-75.3693,144.3750,68.2006,28.5175
-3500.0000,20.9634,195.6913,-115.6691,29.8131,-78.5086,-28.2470,46.2122,-64.0169,22.8781,-32.4514,92.1982,35.3153,-29.4770,25.0401,-107.1009,-194.9288,-43.1345,34.0489,28.3959,-81.5437
-3492.1875,60.9402,163.9742,-115.1252,0.8330,-43.9264,-30.6024,7.4654,-58.2855,-15.9708,-35.9986,51.7570,71.4828,-104.0347,-13.6306,-36.1910,22.7638,-108.7436,0.9373,-108.2248,26.6020
-3484.3750,51.9274,84.3075,-88.5771,88.1832,-90.3112,32.5566,-112.2516,-43.4198,-63.7701,-10.4742,297.4165,97.7148,-42.5538,86.7566,-156.2377,-25.4869,126.6824,-10.1143,-84.8048,15.8112
-3476.5625,64.5621,26.2984,35.5994,6.9859,-78.0623,2.5070,-173.3261,-45.8793,-50.9148,-35.2928,234.7861,74.6003,-66.4333,98.7984,-143.6401,133.9161,-1.2674,-34.5136,-178.7439,-8.3344
-3468.7500,-97.3546,73.7733,-28.7664,88.7578,-32.3270,68.5453,-276.9133,-38.6748,-116.5638,-27.5868,129.6793,119.9871,-94.8284,143.3510,-63.5301,103.8522,81.2452,12.6072,-201.1922,109.0365
-3460.9375,-14.4644,157.0869,24.6816,105.7110,-89.7569,32.6913,-186.6646,-81.7812,-100.3569,-86.0117,218.4797,137.2309,-5.3826,122.7627,-84.5821,-64.3572,94.6015,-11.4081,-118.7907,15.2570
-3453.1250,-88.7601,81.2386,-56.0524,20.9836,-25.3516,15.1429,-84.5603,-32.1462,-72.2859,-58.5558,61.1643,93.3235,-50.1035,41.0140,53.2237,111.3074,-52.2430,16.4369,-126.5462,43.3270
-3445.3125,-110.9675,24.5248,-76.6957,78.8217,-45.8148,52.4435,-106.3153,-11.9902,-57.0542,-80.9111,186.0296,109.5607,39.3209,93.4202,-41.8125,16.1383,102.0307,-5.5428,-8.1469,-14.4420
-3437.5000,41.1975,35.1995,85.0272,-20.6498,-31.8942,-25.9281,17.3305,-30.5298,-43.4132,-104.8448,161.3586,50.1899,16.1471,33.2255,-65.4534,65.3681,-62.3225,-66.1144,-33.3448,-74.8212
-3429.6875,-47.0192,87.5084,-49.6386,18.9691,-57.3330,37.7214,-81.3811,12.0482,-69.1331,-21.1040,60.3772,99.4556,-82.3914,81.6822,-54.4425,113.2806,-80.0677,18.9827,-52.9082,46.4613
-3421.8750,58.9764,123.0597,-45.0908,31.4606,-127.5367,7.2770,-78.8716,-13.6533,44.3880,19.9053,247.7111,66.9783,-79.6843,85.4002,-161.1967,-104.5571,-10.5698,18.3500,51.7794,-60.0041
-3414.0625,18.7400,46.4049,-15.7653,-36.9553,-24.9487,-29.5461,-13.5611,-16.8804,36.7104,47.7314,90.8972,23.2986,-124.1867,-33.0842,-60.1562,-39.5813,-122.3064,81.5245,-24.7483,-31.6732
-3406.2500,-54.3946,8.8924,-92.3292,11.9769,8.7793,-13.5485,-54.1167,-36.8550,33.1823,43.7302,122.2760,20.7715,-17.5504,0.5810,-26.9646,-153.4401,16.0828,42.8660,6.8615,-35.1785
-3398.4375,9.5069,36.4232,51.1237,-54.3755,40.5342,-97.2145,51.3678,-71.4041,101.7217,0.8035,153.7614,-20.7089,14.1312,-77.6986,4.2726,-85.2509,-61.5044,-70.7393,-36.4784,-113.6374
-3390.6250,-160.2765,42.2974,-22.1180,-51.5416,40.6237,-47.4836,51.1966,-31.2935,27.6213,0.2553,78.6221,17.1527,-22.8535,-41.6309,113.8790,97.3211,-125.8009,-31.9834,-102.4781,-3.7306
-3382.8125,16.3971,42.6607,19.0881,-41.3264,-66.8096,-61.7209,17.5123,-42.0501,67.0275,-70.7605,301.0432,-15.4823,53.6577,-1.0583,79.9856,26.3987,-20.6160,-137.7169,3.0275,-74.3158
-3375.0000,43.9000,-0.1338,44.1197,-125.6354,-115.4075,-64.5745,78.6812,16.2102,128.2949,-46.9052,104.3710,-101.2757,-31.9845,-50.6424,140.9471,198.3400,-169.6220,-76.5975,-5.6227,-13.0543
-3367.1875,-131.3510,-104.6402,-103.5930,2.2299,-80.7204,64.9179,39.1373,84.1523,89.8616,-12.7216,-9.9719,-28.7711,-34.3420,58.0814,65.2171,121.6138,41.6387,28.8432,99.0144,21.5224
-3359.3750,41.6175,-73.9111,78.9106,-19.3550,-7.8032,1.7432,111.8335,28.2375,88.6839,-50.2653,25.9973,-65.0242,-34.4541,21.0539,-46.2712,47.1414,38.1327,-45.4545,59.9093,-52.6527
-3351.5625,-42.4409,16.8063,57.3836,9.3269,80.1047,35.9136,-56.4651,26.3044,-43.4925,-35.7911,-107.9952,-13.2904,-92.5756,35.0199,-31.7530,135.6950,-12.4201,8.2587,-60.2067,72.1811
-3343.7500,15.9117,40.9683,86.2604,80.5484,34.4493,45.2694,-139.3323,41.2436,-53.2300,28.1421,29.5226,15.8906,7.7513,-10.5442,-114.7902,-21.2993,151.4708,31.4394,67.1347,-10.5309
-3335.9375,96.6470,16.5234,173.5139,-9.0375,121.1803,-37.5481,20.2013,19.8330,-2.5595,40.4876,-31.4993,-43.5320,-52.5196,-107.7085,-102.4294,-7.8884,21.7248,-28.9786,41.8640,-70.8510
-3328.1250,-32.7705,62.9655,72.6259,64.4520,129.8024,14.4748,-45.3789,22.9644,-104.9880,49.7573,-23.5916,2.9458,-43.8989,-61.9764,-94.1541,-73.5447,102.8439,16.5173,52.4796,-25.2516
-3320.3125,112.8343,102.4470,115.7581,6.5225,62.4583,-42.8177,34.0772,-7.9833,-98.3614,18.0933,92.4340,-63.5266,35.7756,-55.1944,-124.8413,-141.1494,36.0108,-50.9276,91.1457,-92.6020
-3312.5000,27.5676,-18.9375,-14.9789,-82.8793,79.2542,-20.8574,13.6838,78.8805,-82.5774,34.5895,-75.3434,-83.8705,-21.4091,-76.2642,75.6309,169.4153,-118.7125,-32.2152,74.9500,-2.8003
-3304.6875,-7.6481,-88.2480,-87.6559,-15.9942,42.1385,24.8364,-23.6302,95.2950,28.3005,71.2055,-39.9644,-9.1152,15.5031,-2.2188,38.2068,95.0932,21.6483,-67.3861,144.8520,-2.8908
-3296.8750,30.6663,-86.0242,-49.8069,-67.6219,6.5614,-14.9092,51.6087,62.4184,102.7421,72.3910,-148.9714,-6.8152,16.9707,-0.6352,112.3367,170.3226,-82.4717,-101.0100,41.3015,-1.4390
-3289.0625,-80.7134,-21.4613,-134.6464,28.6364,-5.6721,54.1318,-71.7981,45.0976,52.5443,21.9503,-161.6027,127.8221,-32.2249,59.2905,135.8332,193.9310,-18.2858,-72.2705,-35.8996,132.3786
-3281.2500,134.8689,89.1002,-17.5248,86.2322,-71.9202,18.4890,-101.2127,-30.9904,23.3567,-80.4673,64.8255,172.4417,47.5779,30.2231,-4.6851,53.5326,91.8920,-138.5155,-32.0873,66.1960
-3273.4375,129.4843,14.6937,11.6302,-2.9346,28.8736,8.7918,-110.5747,31.8226,-57.7759,-52.8255,-17.6541,54.0990,3.4199,-50.7968,59.8458,228.2069,-18.9115,-108.7079,-37.2351,131.0614
-3265.6250,-24.2931,-35.0814,-2.5970,62.2693,51.3129,61.4057,-124.2999,63.4500,-71.2698,5.4825,78.5572,4.4085,61.9086,-28.1666,-62.9671,30.5450,141.9185,15.7631,88.2608,80.5895
-3257.8125,27.4119,-19.3615,128.6517,-7.7957,109.2323,-1.5637,6.4733,25.3690,-124.2635,-9.6860,63.3324,-46.7879,46.9059,-44.0324,-80.2814,15.3772,18.2206,-2.2650,34.2569,-8.3894
-3250.0000,-46.3778,12.8906,46.4129,55.1331,137.6913,69.6316,-149.2028,44.1250,-316.7014,-54.2794,53.6838,-17.4469,-71.5516,20.6454,-51.0257,79.7898,84.0284,28.2675,-5.1976,93.1917
-3242.1875,147.3341,-39.3293,107.6874,65.8195,87.6867,26.6624,-161.3316,-9.3180,-181.5634,-105.3054,262.6424,-29.5722,62.5527,8.8710,-138.2149,-117.2479,208.3793,-23.6437,82.9123,-29.6786
-3234.3750,135.8730,-85.7297,130.7945,-36.7035,147.5300,-14.2849,-66.5935,-16.4195,-158.5535,-118.4648,64.4916,-79.8730,11.5109,-5.0643,-5.5415,53.5826,20.5434,-36.7071,-35.1287,-6.7048
-3226.5625,-16.8357,-61.3490,41.6658,46.7411,95.1682,50.2714,-155.0649,-10.0712,-247.7405,-60.8036,159.1659,15.6204,69.2581,89.8129,-58.0587,0.2355,113.4868,-13.9567,-47.3764,51.0827
-3218.7500,119.9908,3.5731,76.0716,-19.1496,55.3399,-25.7205,-48.9994,-33.8999,-177.3820,-100.5876,229.4691,-23.3423,139.5684,-23.7548,-62.0357,-2.5702,2.9742,-53.6548,-17.0741,11.4106
-3210.9375,-23.1573,36.5259,-4.4877,-16.0293,120.5648,-3.8488,-18.8812,18.6857,-111.9742,-71.3094,73.8583,-29.2733,57.9227,-104.2872,40.0508,136.6998,-34.5268,-20.2973,-18.7320,113.7981
-3203.1250,-14.6956,46.1043,44.5721,65.6939,60.4309,21.2678,-44.1188,-5.2101,-62.9103,-59.3628,160.9437,-16.5661,108.9280,-18.1699,-93.2114,-34.3747,149.6205,-13.2817,24.2676,16.8442
-3195.3125,113.0544,-3.0397,139.9240,-17.3756,81.5910,-25.9731,-23.0513,-43.1732,-113.5375,-74.1068,72.3813,-31.5761,19.2376,-33.7544,-36.1736,23.8508,-4.9536,-26.9673,-94.4264,38.1861
-3187.5000,47.1102,-32.8524,66.5949,113.2256,45.0993,78.0208,-131.6404,-38.1347,-222.8099,-146.4843,147.1971,80.7500,-15.1023,78.0051,-107.7704,-121.5511,175.7944,12.7072,-19.7745,112.8926
-3179.6875,173.9832,-11.8377,131.0826,81.4551,-0.5507,38.8630,-68.3807,-43.6569,-158.2185,-154.9869,211.9109,72.9129,-25.5824,69.6133,-153.5198,-204.0986,126.3723,-0.7544,70.7384,-6.5583
-3171.8750,-52.2760,-61.9456,0.4410,-6.0840,15.6909,47.8014,-15.2107,45.6449,-104.7059,44.4386,-65.4635,15.9501,-118.1646,49.1119,-28.3449,-41.7153,-65.2029,87.6867,54.1480,46.8982
-3164.0625,-131.7355,-107.2222,-151.3910,-26.4329,-27.2214,40.3866,15.8084,92.8218,35.6669,148.7309,-34.9418,-100.1769,-14.8864,6.4624,2.6891,-157.4742,-4.9361,148.9806,220.4235,-32.7838
-3156.2500,-136.4575,-179.7748,-118.4805,-194.9781,43.6060,-62.6570,233.5939,76.4643,180.8050,146.7829,-146.6154,-284.5751,20.1538,-106.4495,147.4798,-86.4822,-219.9413,145.0237,181.4546,-71.7226
-3148.4375,-322.8046,-225.9522,-242.1994,-127.1096,102.8320,-10.2250,182.7737,69.9684,129.3437,132.2528,-160.8654,-187.5783,79.5837,-46.9618,243.6899,-64.0654,-124.5739,133.4746,134.8743,-12.2481
-3140.6250,-93.4235,-137.3867,-72.1858,-134.4390,52.7991,-125.3435,242.6938,-62.4545,263.6328,8.4745,46.7040,-127.8406,139.7729,-133.7206,229.6460,-150.9131,-107.4583,-58.3250,48.0505,-99.0259
-3132.8125,-83.5185,-92.2980,-32.6322,-150.9648,129.3140,-124.4974,245.1767,-61.8277,266.4905,-61.7421,-60.1473,-86.5792,105.5206,-166.9391,306.1664,35.8080,-202.8211,-119.5765,-48.2176,50.7464
-3125.0000,-120.0044,-57.5905,-70.4620,-92.9528,53.4764,-91.8121,206.3101,-48.4961,302.0124,-27.2822,85.6788,-124.6835,213.9225,-131.5025,230.3426,-111.8069,-63.5512,-85.1695,56.1736,49.1758
-3117.1875,-29.2472,-177.6568,-11.0543,-222.2406,3.8838,-151.7376,303.7035,-9.3704,399.7958,71.4431,-0.1861,-210.5525,164.5878,-180.8293,290.7721,-15.1722,-219.0553,-134.5149,76.8171,-0.1562
-3109.3750,-147.4291,-226.6353,-140.5706,-151.2053,-15.6140,-46.6098,210.1947,84.9969,342.6861,161.2871,-93.9359,-156.3408,34.3547,-128.0624,270.3236,111.5883,-127.4901,-78.7516,97.5522,126.6231
-3101.5625,-6.7543,-189.7375,-62.2102,-81.1695,-120.2243,-31.8609,178.5804,56.9765,348.4956,94.0536,60.2598,-113.2446,40.0314,-49.3940,128.7784,-29.7563,12.9703,-112.0835,169.2010,22.3021
-3093.7500,-88.3003,-166.0679,-39.0573,-93.7624,-61.0397,1.2145,164.7759,97.9779,225.1239,117.6343,-136.7115,-126.3722,-82.4862,-25.9323,189.0477,140.7127,-67.8038,-19.6152,87.6484,45.7767
-3085.9375,-247.4305,-184.9792,-57.4801,-26.4531,-5.4052,41.9011,110.4243,121.8260,171.1982,173.6755,-43.1963,-143.0656,-64.5430,-6.0268,61.7783,50.6419,87.8616,32.3079,138.5493,-8.2873
-3078.1250,-124.9654,-237.3072,75.6877,-147.1182,53.8296,-65.8674,243.6839,77.2502,193.8844,123.3232,17.9668,-267.1823,-3.9809,-130.5314,84.1088,36.1656,-34.8841,-20.1722,122.0608,-95.7591
-3070.3125,-210.2246,-252.3574,16.1400,-132.9910,141.3698,-47.2224,258.2561,63.3199,171.8793,64.2779,-114.5533,-252.0139,9.8819,-188.7412,171.7558,51.0116,-51.3643,34.6495,70.8661,29.0816
-3062.5000,-26.2160,-137.1234,-8.1268,-72.6944,80.2078,-82.1298,234.1210,-30.1402,258.1749,3.5387,46.2815,-202.5609,96.0570,-139.6492,110.7073,-156.8476,63.4539,-62.2240,79.9757,-31.7732
-3054.6875,3.5311,-3.1572,19.3589,-99.0799,71.7956,-123.7256,224.7503,-86.3704,287.2226,-78.4468,-72.1167,-137.3831,13.9926,-184.8188,249.4231,18.0509,-81.9924,-101.3488,-100.1589,33.1205
-3046.8750,-120.3722,83.1780,-75.7739,39.8594,11.7888,-32.4355,54.7759,-74.2929,154.6735,-27.0201,16.8907,23.1823,28.3283,-59.5876,189.5502,-4.6301,72.9602,-86.0624,-119.8897,84.4254
-3039.0625,-10.5938,89.1805,4.7903,13.4115,-53.5208,-45.8638,100.5091,-54.1104,162.8426,-55.8897,62.6526,-4.5734,37.3754,-52.6559,124.3728,4.3776,43.6219,-115.0776,-44.9033,19.4139
-3031.2500,-125.4843,-61.4898,-46.2957,11.5544,5.5270,27.7407,84.6098,18.7159,111.3743,-69.4042,-62.2183,17.9981,-13.2295,6.6087,146.5622,136.7491,32.6050,-90.7456,-18.5692,114.7532
-3023.4375,-0.2049,-74.9800,-22.2016,72.5053,-43.2222,39.4333,36.9120,2.7600,137.1097,-80.7111,75.1378,43.7496,48.3782,69.0746,24.9519,-21.6864,193.7891,-140.2026,71.9804,30.2962
-3015.6250,43.0734,-33.4871,60.8843,-40.6253,3.0236,-27.0518,83.2310,9.8449,183.8559,-35.0071,-98.4844,-57.5194,-16.0017,4.5338,71.3492,97.8820,-10.0526,-131.6645,9.5374,2.8308
-3007.8125,-102.2789,-71.6191,-55.6544,26.1773,-3.3289,67.8453,-34.0500,65.9652,30.9998,-3.8902,-29.6871,-26.4026,-57.9822,109.3923,65.1603,128.8762,91.4872,-31.7207,40.4936,33.7749
-3000.0000,47.4023,-98.7196,67.8518,-17.3285,-25.6380,-12.5900,53.7184,8.4437,9.1984,-25.7150,95.2213,-48.2543,-43.8984,13.3039,6.0152,-3.0817,65.0764,-92.7339,49.5053,-62.2376
-2992.1875,6.9124,-102.9938,19.2091,-40.0466,-1.0938,7.5454,5.3499,37.8014,-2.7351,-0.6802,-62.0087,-22.2806,-90.9522,-34.9533,67.7428,95.8293,-44.5198,-26.9021,9.3635,73.6067
-2984.3750,96.7401,21.0581,-33.1060,38.5344,-89.1971,22.7488,-46.6680,-2.3699,18.6907,-16.2830,144.1252,-1.9630,-33.6404,22.1355,-58.1654,-102.9113,79.2321,-7.7148,64.5825,57.8147
-2976.5625,175.9732,-4.5027,13.9772,-34.7414,-78.9044,-18.5776,74.7274,-13.0694,67.5266,-77.4885,45.6921,-27.2656,-58.9041,-3.3829,26.3336,-19.2567,-52.6288,-33.1330,39.2012,32.4181
-2968.7500,42.2851,-101.9808,-91.8468,3.7831,-1.5060,44.5244,5.2223,34.5997,34.4545,-35.5915,-22.6224,-58.4870,-54.0650,1.1972,66.9492,21.5139,59.5969,44.5491,45.9145,110.1379
-2960.9375,209.9838,-76.0721,50.7200,-22.0390,31.2877,-37.7885,38.1140,-48.0465,31.7869,-77.2873,122.5016,-99.3182,89.1858,-39.8193,-10.0405,-92.3256,86.2244,-34.3646,3.0410,-3.7480
-2953.1250,100.2240,-43.6372,41.8319,-59.4208,96.6309,-41.9106,-6.4281,-43.6192,-48.3185,-46.4224,-31.8139,-69.6203,43.9868,-83.2935,92.5333,84.4017,-57.6252,-1.7279,-140.2803,98.9106
-2945.3125,24.8328,21.1691,0.3261,20.6682,17.3799,5.6314,-121.5670,-26.4498,-127.0214,-15.1486,148.2826,-37.5294,76.1978,-15.3656,13.5115,5.5363,76.9231,-6.6845,-75.1931,93.9773
-2937.5000,178.0354,104.5606,91.4260,-69.0574,-38.2658,-76.7897,-104.0956,-53.3427,-73.1186,2.7215,167.0091,-129.8535,95.0260,-34.8397,-4.9108,24.2619,-50.9275,-64.0504,-97.4988,1.6324
-2929.6875,-21.4858,45.2383,-10.1720,-43.1865,-64.6020,-0.4950,-130.3177,23.2500,-97.9145,86.8912,31.0334,-119.9044,31.1518,11.9761,41.9817,71.3093,-39.4873,53.8933,-50.5042,48.5948
-2921.8750,44.4235,41.3412,28.6796,-1.3327,-99.4818,-8.3477,-92.0908,12.5018,-59.2510,89.5145,145.5441,-81.5315,33.7409,14.2404,-102.6761,-36.2062,61.4168,49.2856,15.9553,-95.9964
-2914.0625,75.7825,2.8734,58.9890,-35.0663,4.0911,-15.6222,-25.3954,0.6280,-139.1286,9.5909,-44.4831,-51.7309,-83.2106,-29.0586,-35.8651,103.7347,-48.2519,46.1189,-93.1388,-29.1414
-2906.2500,38.4678,35.7409,54.6348,83.5093,37.0142,47.0855,-102.3535,2.2600,-178.6536,-67.9706,26.8488,-18.5893,-49.8014,3.9881,-112.6918,-46.9670,160.4236,44.3025,11.1190,4.0766
-2898.4375,161.6558,18.0940,150.7879,38.0715,59.4309,-2.0109,-5.8023,-14.7531,-82.6599,-81.0389,51.7249,-31.9634,-62.8770,-9.4682,-127.0207,-60.1838,108.6013,-8.0214,28.8859,-83.2144
-2890.6250,38.7769,0.3701,54.8923,19.4529,74.8081,30.2075,-28.2871,27.0245,-103.7121,-29.1516,-79.4510,-17.4055,-83.9978,5.0158,-75.3815,28.5700,20.7075,45.6031,12.6027,5.4559
-2882.8125,116.6269,-25.6238,29.7323,7.0144,12.9337,5.3848,-16.0199,16.5248,-92.0186,-16.5017,81.1431,-42.1044,38.6471,17.2552,-99.9904,-69.9291,63.5753,-16.0214,91.0832,-56.1205
-2875.0000,119.8261,-23.2826,28.9294,-116.4952,12.4132,-38.7661,20.6163,36.7003,-90.9666,57.5005,-101.9035,-114.4773,38.6513,-20.1636,-26.2459,113.9278,-179.2198,-13.3011,-11.0790,17.6464
-2867.1875,-9.4028,22.6422,-147.2841,-65.5725,-52.4980,17.0798,-81.1386,58.5437,-119.3092,139.1022,-19.3483,-70.2692,83.2580,61.0145,-17.8894,85.3879,-133.4220,33.0305,0.3605,99.0232
-2859.3750,100.3584,28.5431,-136.4958,-126.6946,-116.4032,-52.1400,2.1157,17.1770,1.3658,149.7072,66.2278,-61.0715,130.8752,35.1902,-44.5361,22.8323,-233.6163,4.3658,6.8158,-0.6127
-2851.5625,-94.5877,-61.2739,-197.4038,-93.5284,-102.9968,14.4247,-21.3194,54.9957,-21.6600,126.6088,-103.9057,-10.5940,33.7963,10.6611,42.1344,146.6007,-217.5303,126.0029,-46.4372,86.0514
-2843.7500,-108.7922,-75.3527,-133.5673,40.7838,-148.8343,76.0190,-67.0075,65.0844,-66.9542,118.2552,73.7375,54.6195,-10.5192,75.8833,-113.4412,-45.8856,49.3145,148.3903,80.0643,-32.5322
-2835.9375,-3.2381,-75.6948,88.0320,-25.9208,-73.9175,5.7093,9.0690,9.6288,-101.4883,10.6517,3.1512,19.5635,-119.0654,4.8436,-74.2611,66.3674,-56.1021,77.5183,-59.6819,-67.3732
-2828.1250,-65.0637,-66.4092,20.2720,20.5373,-68.3450,60.9655,-131.1967,37.2047,-130.3652,53.7107,-25.7916,25.1511,-110.9610,84.4508,-31.4167,73.2798,23.1219,87.3038,-50.7816,12.4491
-2820.3125,16.1038,-20.1339,109.5162,-37.2813,-88.7695,-19.7418,-79.4572,20.2004,31.7661,106.7719,28.2949,-69.2775,-21.8394,26.0527,-51.5763,15.1758,-1.6365,-6.9142,-3.8700,-81.7374
-2812.5000,-113.7318,-45.8726,-31.2244,-98.1779,-45.1838,-16.2356,-35.6942,71.0035,76.9044,150.8302,-220.6220,-98.7349,22.2866,-3.3636,139.2861,207.0889,-131.4109,3.8566,-28.9623,-0.9220
-2804.6875,-179.1838,-76.2275,-133.5679,-18.4688,-110.1911,14.4857,-26.5380,66.5721,122.4424,160.2975,-100.1307,-16.8006,104.8133,5.6262,111.5518,31.4085,13.2260,44.0318,82.3493,-65.6962
-2796.8750,-189.3199,-119.2962,-64.5993,-97.5156,-77.9000,-56.7048,115.9258,39.5391,191.2905,192.0652,-141.3289,-58.5867,100.6511,-73.0824,143.1156,27.0257,-100.8379,36.4988,39.9669,-144.1800
-2789.0625,-347.2736,-207.1863,-123.4317,-45.2399,10.5957,10.4713,94.5914,75.7110,97.3390,208.0353,-160.3462,-43.1870,42.6901,-57.5909,85.8951,5.8622,-13.7144,124.1753,56.7783,-91.4521
-2781.2500,-114.1950,-150.0479,16.7858,-14.8824,4.1465,-39.9343,161.3091,-7.0936,90.4343,91.0540,-19.2902,-50.7426,36.7923,-65.0446,-31.2789,-184.2666,79.4727,41.9076,80.6515,-208.6811
-2773.4375,-62.9689,-28.7691,29.1691,-42.8000,16.8563,-53.4239,138.2021,-15.4664,67.6873,31.2210,-151.0848,-1.1690,-59.9468,-88.3668,55.7087,-24.2376,-80.2099,22.7808,-8.3247,-121.7634
-2765.6250,-81.7078,57.5485,8.5923,56.4284,-3.3736,-5.5818,7.1483,-23.9158,-25.0087,48.4451,-22.8335,52.4432,30.3657,1.3592,-37.2449,-117.1576,77.1587,4.7117,8.7514,-104.7821
-2757.8125,4.1594,38.4541,100.6207,-17.9896,-22.0056,-61.0610,99.7005,-26.3042,29.9031,30.2717,-39.9680,-3.3484,12.2867,-53.3091,17.3939,-25.4889,-12.8692,-83.7622,-9.5684,-123.2074
-2750.0000,-182.2867,28.0503,9.3518,8.3977,-1.9302,2.5460,8.9563,11.6316,87.5005,50.7904,-129.4109,-20.4379,-4.0945,2.7222,74.7456,31.8931,11.7979,-24.5313,-20.1895,7.0780
-2742.1875,-71.4733,-2.1007,19.3411,13.8252,-64.5965,-1.1212,19.4627,11.4372,172.3418,61.5558,-6.5922,-9.2853,7.7765,50.0045,11.3378,-104.4956,51.7331,-18.0525,92.4456,-92.3904
-2734.3750,-119.0460,-119.6519,4.9466,-92.0158,-42.6543,1.4380,115.5849,77.2765,157.7881,83.9215,-240.1819,-24.5558,-43.7547,35.8801,107.5275,101.7219,-169.7432,6.0243,80.6793,-33.2627
-2726.5625,-230.7455,-196.3216,-149.5557,-52.5374,-50.7969,42.3262,71.6141,103.1098,113.1306,150.1904,-136.8818,41.0537,22.6179,27.6559,63.6254,20.8524,-107.3161,70.0099,144.8146,-4.2243
-2718.7500,-83.2893,-154.8606,-64.8964,-119.1869,-37.7857,-47.5991,193.8078,30.3489,126.6303,89.5925,-49.4116,-57.1950,109.1638,-33.4101,38.8732,-76.8813,-170.7326,42.1421,118.1078,-102.0486
-2710.9375,-185.5443,-46.1173,-101.9287,-86.7913,36.5413,-26.1565,121.3205,25.0187,17.4298,90.2897,-120.6560,-20.1469,74.0094,-33.1788,76.4406,-39.3019,-201.8675,81.5723,51.6912,-27.5696
-2703.1250,-109.4615,30.9687,-54.6111,-22.2563,9.2253,-49.1041,95.1774,-27.0220,27.5775,101.3385,38.4641,63.2510,158.2188,-22.6011,-22.6390,-176.3876,-89.6308,-16.6507,58.6281,-90.7386
-2695.3125,-7.3076,28.0974,-26.2207,-135.0378,38.9661,-114.0714,124.0975,-45.8103,94.7727,57.4345,-78.3636,-18.3086,150.4835,-103.9813,116.3296,0.5802,-268.3526,-89.8351,-49.3860,12.1404
-2687.5000,-98.2173,-28.8213,-126.8871,-20.7396,-24.3392,19.1807,-49.0379,8.7093,66.9044,30.4863,-31.2619,-7.9164,197.6846,15.5976,16.2550,46.5147,-44.1268,29.9362,-34.4606,131.9879
-2679.6875,8.7351,-26.8758,64.2978,-6.0946,-54.8058,11.3471,-42.3326,-5.2053,38.8919,-35.6094,51.6962,-1.6754,168.7335,23.0364,-121.9780,-18.7189,-7.0391,33.5589,3.3181,29.6812
-2671.8750,-83.5034,-84.1376,1.2956,-20.9801,-6.4687,46.1626,-65.8140,45.1453,-22.3110,13.0930,-118.5595,9.3414,-2.4246,34.2577,35.6031,103.8601,-63.1612,81.9796,-18.1071,78.1816
-2664.0625,-10.5527,-81.2192,8.5005,42.3064,-35.9223,72.4298,-60.0958,58.2855,21.6774,-16.0087,-73.6161,16.5475,-32.3806,78.6790,6.3846,-36.3659,79.9385,50.6114,126.6764,11.8911
-2656.2500,7.9549,-63.7526,101.2701,-13.1485,21.1754,22.6770,71.1870,23.1513,5.2146,-69.5687,-126.1242,-0.7030,-48.7854,24.6541,-10.2880,20.9568,-43.4127,33.7924,40.0101,-4.8560
-2648.4375,-207.9984,-102.7444,-15.4076,56.0581,51.8315,88.8902,-8.9819,56.8757,-37.7083,-38.5840,-57.1006,66.5976,-17.6479,55.1944,-16.4040,14.8430,57.7893,99.5266,70.8828,25.9591
-2640.6250,-84.4421,-85.2421,83.4280,0.7584,76.9911,-5.9187,90.3460,-9.5283,24.8651,-49.1058,6.4420,54.3948,118.9998,43.2375,8.9697,-106.7816,5.5152,-57.2487,90.2573,-95.7301
-2632.8125,-64.4749,-65.3482,62.6814,-27.4758,129.5582,-13.0019,33.0864,-17.6494,4.8386,-69.2300,-159.6311,70.5936,99.0382,22.6764,135.7566,57.0105,-79.3708,-105.6331,-29.9771,30.9845
-2625.0000,43.2269,6.2982,27.6785,49.5500,58.8820,2.6222,-74.4273,-43.6792,7.5572,-102.6039,101.0325,72.5471,174.8195,24.8757,28.2938,-51.4470,98.5027,-103.2584,7.5398,33.4598
-2617.1875,209.9431,32.9516,130.6894,-36.8340,52.2133,-74.9173,29.0710,-89.0257,75.2754,-182.9842,132.7025,28.4915,131.6058,-55.9250,58.8203,-20.9189,-51.6213,-112.8857,-35.9422,-10.0766
-2609.3750,4.3588,-30.6915,58.4091,12.7753,90.2546,21.7432,-41.7240,-20.2621,-32.3239,-144.6686,62.0540,66.1296,60.0836,18.9693,60.0540,54.3167,-10.0432,-34.8079,-27.7349,102.0973
-2601.5625,111.9281,-30.1729,102.2924,18.1468,-12.5472,-4.4616,-35.3695,-26.8731,11.2132,-64.2143,181.5607,36.9126,105.7147,27.0173,-42.5781,-85.3166,62.7173,-68.5748,44.6188,-0.5833
-2593.7500,51.2598,-89.8984,110.9519,-53.9558,32.4086,-2.3831,9.7390,27.6213,19.4953,-19.0205,-30.2002,-29.5622,40.0840,-2.1878,2.5400,70.8051,-68.7720,-23.5928,18.7123,44.4825
-2585.9375,-63.4770,-64.6835,30.5667,49.3950,26.3281,39.5000,-33.2123,4.1491,-23.2839,-24.8816,74.9808,37.9194,108.3890,28.5718,-77.3936,-83.1199,98.7027,39.3483,46.7514,1.5083
-2578.1250,29.7026,-112.5728,95.1005,-54.8440,17.1556,-34.4801,68.7477,-8.2082,5.8274,4.1506,31.0710,-7.6939,99.6005,-16.7630,-11.4390,-54.1591,-53.9106,-7.8189,34.6909,-80.5733
-2570.3125,-60.4558,-95.8095,-77.7067,-34.1872,65.6424,18.9261,43.3627,37.0285,-20.4275,14.8197,-213.2134,2.3422,37.4543,-6.4482,110.1786,67.4702,-73.8891,43.6658,15.2607,41.0128
-2562.5000,115.1391,-27.2910,-71.7716,16.6771,-2.1280,-4.6489,49.7117,-4.8974,-12.9421,-51.7600,14.2573,8.1349,192.0604,-0.3693,5.5421,-110.1605,66.8991,7.9083,121.5813,-99.6422
-2554.6875,105.2042,-2.3183,65.6275,-16.4481,99.5502,-44.5363,114.5164,-54.1483,-59.0067,-134.8902,-67.8302,-1.6208,146.1013,-45.8351,33.3500,-9.3328,-13.8737,-1.4043,-28.6532,-108.8513
-2546.8750,5.6622,-30.9393,33.4224,121.5283,141.6360,39.8191,9.7121,-75.0799,-90.6898,-165.6156,-24.5406,114.0308,77.5157,69.1135,-71.4429,-114.0880,203.7631,5.6872,-56.4946,-66.6440
-2539.0625,207.9339,30.2527,174.0392,74.5314,98.5245,-21.1422,2.7013,-113.2432,-59.5888,-208.5527,44.5598,33.4854,71.7293,25.8645,-151.4456,-157.0576,160.2265,-37.4223,-64.5375,-109.6404
-2531.2500,67.3086,30.5548,94.7739,16.2792,128.5267,-20.9839,-40.2008,-66.1114,-65.3886,-140.4017,-34.2643,-46.9686,66.0338,-54.2940,-47.3391,-15.9227,54.7874,-2.4288,-98.4966,31.4710
-2523.4375,41.8319,5.0131,70.6606,69.5858,32.6886,7.8410,-25.9608,-53.5132,-15.0439,-91.1096,17.0478,40.7343,116.4818,-3.2971,-70.0898,-112.6495,135.5213,8.7283,-18.3044,-28.2644
-2515.6250,41.9835,40.0777,106.1648,-14.8112,68.4562,-40.1402,46.8945,-52.8615,-16.1128,-91.2264,-130.0385,2.0289,42.5192,-41.6981,76.7524,34.2237,-41.1482,-61.5163,-88.5191,7.5920
-2507.8125,-19.5841,48.4385,1.9666,58.7833,37.5290,47.0522,-55.9547,6.6924,-81.8879,-84.0370,-48.8471,-28.3733,85.8412,38.2103,8.8985,40.4123,109.4832,-16.4544,-8.4363,87.7591
-2500.0000,156.6565,13.6010,80.5723,-2.4432,-30.5984,-16.0208,21.9939,-26.9366,33.1369,-80.0466,31.1437,-23.9614,127.9575,43.9309,-59.1727,9.3878,38.9284,-86.5919,-7.5511,-17.2800
-2492.1875,0.9636,-106.1802,-11.7607,-51.5217,-12.6687,16.6335,2.9974,34.9502,51.1801,11.9907,-168.8398,-6.4891,36.1019,24.7061,69.8039,174.4270,-79.5881,5.3218,-55.6277,74.7399
-2484.3750,-18.2321,-90.4516,-28.5991,56.3480,-29.2329,55.9530,-50.5107,45.3912,34.7019,-4.4721,-38.3256,13.4894,93.7345,7.9928,-20.7266,-26.0443,146.4199,22.7435,100.7977,21.2720
-2476.5625,74.8963,-32.4008,107.8859,-9.1438,34.5028,-44.5845,86.2863,-4.6574,61.5346,-51.6449,-47.5120,-71.2319,83.6526,-149.4188,6.0331,-73.2283,63.7348,-60.5412,88.5145,-25.9054
-2468.7500,7.7760,5.4220,73.1268,90.3247,145.9940,25.7036,51.8247,4.5093,-47.8968,-86.0759,-44.9782,-33.1926,85.2960,-75.0687,-66.4535,-107.6460,207.7985,-22.0680,91.9603,12.6790
-2460.9375,196.4698,89.0615,240.1761,75.3628,130.2854,-49.8097,72.1528,-112.0715,-26.5478,-176.7127,123.3668,-13.3478,105.7360,-17.9121,-156.1574,-234.2798,185.6809,-112.7892,0.2053,-113.9416
-2453.1250,153.5337,81.0630,189.5893,24.8240,152.9325,-30.6636,-52.1586,-83.2388,-112.8517,-114.9995,-35.9561,9.8390,-18.4875,5.5834,-59.5037,46.4455,37.9044,-85.1638,-182.2136,19.7883
-2445.3125,174.8969,67.3741,64.2937,75.2333,64.8819,19.3295,-213.1783,-56.5012,-201.8653,-92.9897,207.9994,31.3382,114.5718,64.3918,-146.5457,31.4727,164.4426,-63.2295,-125.3382,41.8309
-2437.5000,259.8932,11.3146,116.6135,-40.0336,7.4268,-55.4181,-122.5977,-85.6782,-111.2798,-150.3935,261.5500,-26.5484,167.2188,6.8108,-57.9976,85.0876,3.5919,-117.7083,-145.8680,21.4644
-2429.6875,111.5135,72.8826,-41.4623,64.3485,31.5756,25.6873,-135.4198,-74.1275,-160.1099,-162.2024,176.6692,108.1725,118.4381,67.8413,-31.8510,72.3181,65.3392,-55.5841,-152.8130,119.7050
-2421.8750,272.4658,234.7903,59.7632,151.4755,-11.9789,0.0461,-106.9482,-131.7175,-167.6553,-206.7160,281.0925,100.2019,110.9416,60.1765,-150.4290,-191.1699,227.4140,-70.1568,-62.4584,-34.7623
-2414.0625,188.9052,186.1706,192.4601,101.0559,46.9297,-15.4683,-85.0202,-87.0189,-182.7688,-184.7908,119.9514,-25.3243,-14.1237,-102.0443,-128.5611,-97.2101,178.9415,22.7209,-75.6644,-12.7905
-2406.2500,46.1893,149.4149,156.0102,188.6988,46.6984,40.5060,-157.2585,-86.9821,-219.0536,-184.0180,231.6393,12.0143,-13.3654,-27.3967,-200.8583,-205.4016,353.3384,56.4616,-41.0294,-48.9633
-2398.4375,231.6950,193.8856,243.7805,133.8979,61.6714,-31.9799,-69.3077,-119.0199,-169.1544,-171.0577,173.5270,62.5584,-72.4203,-50.5404,-224.9769,-192.4081,221.9558,-39.5945,-67.2065,-144.9483
-2390.6250,109.1664,142.3270,147.5175,113.8313,112.6024,7.1131,-92.4062,-61.5952,-153.3250,-119.1636,41.3375,40.0543,-94.5423,-35.7330,-136.1397,-104.4523,170.5189,-19.7001,-48.4595,-19.9723
-2382.8125,156.7496,83.8815,163.3587,132.2520,128.6409,6.0216,-39.4127,-75.0189,-102.4125,-177.1789,168.2512,54.6710,67.4213,-19.8094,-158.2092,-198.4082,253.2031,-42.7060,34.3755,-77.8859
-2375.0000,143.5911,104.6811,109.4662,33.2230,148.9373,-46.1735,90.8387,-129.6000,-82.2587,-192.9453,-30.5931,74.5439,14.6170,0.3692,9.9692,-68.1021,-6.8636,-56.4657,-153.5511,-20.5423
-2367.1875,64.0444,131.1089,-12.7783,157.3413,63.8848,50.6224,-67.2700,-131.7561,-203.4583,-205.0535,105.1904,247.0744,39.4457,135.2120,-2.1878,-115.1245,124.7243,5.4340,-162.8339,41.4752
-2359.3750,152.1409,113.1819,81.6358,82.1402,11.4746,-3.6586,-46.7285,-133.6458,-144.9965,-183.5121,164.6241,120.2697,60.9221,82.7144,-91.6963,-131.5113,71.9803,-11.0235,-144.4633,-10.8531
-2351.5625,-39.3711,97.6634,22.4527,63.5617,-10.5335,66.9460,-104.7808,-12.9453,-167.1325,-21.5650,-113.5749,60.8704,-108.2214,60.6130,-112.7964,66.5207,-14.3732,148.9252,-160.7017,114.2323
-2343.7500,15.8953,258.9447,-24.9373,166.8050,-130.7376,100.8110,-189.0441,-10.2096,-251.4875,77.1865,23.0227,123.2789,-118.5827,123.3254,-344.1052,-90.6492,112.0953,205.6932,-104.1322,30.1263
-2335.9375,42.8188,320.8746,4.3425,65.2642,-138.2876,46.2678,-159.6491,-30.5323,-296.2034,69.5810,-94.7331,115.3415,-200.3119,115.6978,-277.7766,48.8287,-140.7794,198.1114,-217.9202,22.6631
-2328.1250,-155.5084,263.5640,-205.6158,128.1670,-166.0803,130.8233,-260.5080,55.3263,-324.1926,189.7101,-156.7545,198.1654,-153.3139,162.8338,-268.7152,95.0542,-57.8756,210.2907,-134.9622,105.9502
-2320.3125,-18.7208,189.3790,-58.4464,55.5926,-163.7649,32.6467,-112.2740,-0.5898,-138.0889,116.9287,-7.6945,126.0980,-43.2413,90.0766,-193.5735,-13.6408,-62.8461,66.5672,-68.9111,-2.6693
-2312.5000,-76.6756,130.4582,-85.0074,-13.7193,-118.1919,16.7999,-65.7976,3.1209,-55.7386,52.3904,-107.4034,61.2892,-32.9527,62.5719,-2.1793,142.9043,-155.5483,43.0981,-126.6132,79.9657
-2304.6875,-27.4235,145.7442,-104.3606,50.8302,-137.4154,24.4541,-85.1289,-24.5159,-3.1997,70.0492,-53.9157,115.6965,56.5213,80.2847,-57.5976,-24.3522,-35.0367,23.8258,-75.1228,60.7937
-2296.8750,85.4883,152.6901,-60.0570,-58.4596,-164.9787,-48.0222,33.1887,-17.4938,79.9654,116.3540,-189.8094,87.7689,-8.3742,15.6645,61.6242,96.0578,-237.8764,-38.7971,-102.9940,33.2752
-2289.0625,-68.6506,104.5997,-223.8043,-28.5275,-146.5894,9.6259,15.4515,47.7727,135.0648,208.6132,-243.7649,68.7996,-62.3429,-2.0002,116.7904,114.4270,-180.7522,53.5339,-46.9114,125.7142
-2281.2500,5.9732,179.2723,-177.7918,-16.0226,-136.4484,-32.1854,98.4626,-1.3174,143.9133,143.6219,-87.9792,41.5835,-53.5785,-29.9141,15.7003,-23.4495,-140.8762,23.6177,-8.0833,24.9061
-2273.4375,1.0594,209.4110,-186.3361,-43.8348,-71.8526,-14.9085,51.9214,18.8518,-47.7973,172.0680,-131.7720,31.8277,-172.3774,-37.3741,7.0721,115.1277,-251.5485,89.1575,-116.8169,126.5616
-2265.6250,-49.1448,228.2707,-239.1776,57.4855,-87.5658,46.1969,-72.9280,17.3139,-100.8150,156.2108,-36.8688,52.7881,-151.4805,55.8717,-81.8578,-10.6129,-55.5108,109.3970,-62.8540,110.9168
-2257.8125,26.8541,200.3563,-118.8121,-11.8460,-114.0796,1.5409,-27.5772,13.1593,-18.6502,129.5633,-99.7880,62.9656,-215.4098,29.3278,-36.5882,35.8563,-190.2809,80.8407,-56.7076,47.4729
-2250.0000,-75.8018,132.8057,-194.0979,32.6498,-79.2448,73.3818,-174.8845,54.7220,-93.1496,127.2670,-137.3803,97.5135,-291.0163,64.1471,0.0148,144.6847,-116.6831,118.6416,-88.2136,156.3864
-2242.1875,91.1188,123.8101,-87.8215,56.1046,-118.8590,62.8710,-215.6435,52.9310,-96.0952,87.5131,80.5725,20.6223,-221.0932,98.5321,-77.8460,68.0560,50.4768,40.9873,7.8266,42.8448
-2234.3750,35.2567,139.0324,-37.3468,-6.3060,-32.2671,32.2137,-54.2103,52.0279,-45.8541,26.9498,-125.2895,-3.0562,-281.9967,38.1306,45.4964,191.6410,-110.1642,20.5293,-45.9422,93.5070
-2226.5625,-47.6432,126.2396,-85.9176,107.9714,-44.7317,99.1913,-66.8360,73.3691,-22.6892,14.3335,-28.2097,132.2269,-294.9624,99.6835,32.7756,69.1732,53.1608,8.0239,81.2400,81.1218
-2218.7500,180.6105,143.6047,45.6723,64.7559,-23.0351,12.6573,64.6895,38.7568,72.6175,-0.1332,-41.9892,79.6586,-346.7917,-25.6220,-18.7982,17.8554,34.6433,-80.3304,97.5723,-7.1082
-2210.9375,56.4657,89.5755,21.8629,92.3785,64.2665,93.0482,40.8102,98.7299,-24.4897,12.9858,-211.1763,56.6986,-481.0406,24.6774,-5.7694,105.1349,51.7422,41.9291,79.4990,80.2684
-2203.1250,34.6922,67.9223,42.4218,147.2341,47.9179,109.0521,25.2745,75.3808,-41.2623,-2.5609,-6.0191,40.1029,-423.9531,82.3335,-168.4012,-58.2435,206.2133,91.5391,128.7648,-46.0115
-2195.3125,42.8945,76.2417,87.9495,-0.3235,93.5308,-2.6710,106.6787,53.1431,3.8923,42.8310,-70.9323,-61.5321,-415.9361,-93.0456,-50.0932,60.3279,-31.3613,65.0966,30.9630,-37.3362
-2187.5000,-51.3894,18.0828,-49.0205,23.1511,103.6429,21.9412,6.5723,63.6316,13.5315,89.7181,86.6526,-51.6575,-332.4444,-82.9110,-3.2882,-2.6015,50.5711,77.1544,77.6577,9.8435
-2179.6875,169.0304,26.6352,38.7051,-40.9611,44.4513,-57.9242,94.1677,-1.4964,100.8720,66.3138,138.9255,-37.0725,-282.2723,-68.0657,10.2153,-61.8190,-45.7963,-19.0832,51.0500,-86.2828
-2171.8750,19.8375,53.5899,-50.1715,-25.0467,29.6616,14.3242,5.1710,47.1550,11.6123,125.3159,-132.4268,20.9213,-371.7216,27.1845,106.1195,143.3736,-123.7610,43.0821,-63.1653,45.9944
-2164.0625,45.1621,114.0593,-20.5457,92.7223,-14.6328,55.5503,-76.3397,4.9158,-70.1579,43.8066,43.7084,50.4330,-268.6832,129.9370,-49.4818,-10.9377,111.7927,-1.2560,-37.8795,1.7766
-2156.2500,96.3609,95.4033,144.9395,1.8893,3.9249,-23.0606,-21.0041,-50.4517,-15.0971,-85.8573,98.6842,-5.1961,-251.8231,38.5369,42.7643,80.6036,-11.7895,-55.7448,-126.7501,-16.5873
-2148.4375,-45.9440,59.2625,29.9360,67.3457,-1.0211,61.0407,-98.1774,23.7609,-56.5410,-17.0274,-15.8471,63.6820,-256.4851,70.6476,37.5025,113.6344,57.1478,13.2749,-58.1215,52.5507
-2140.6250,70.8193,106.1903,45.9932,50.5934,16.0867,22.3459,-9.3057,8.2825,-40.9437,-0.1575,1.6601,42.6167,-204.1117,86.8187,-56.7135,-17.2919,33.1360,-44.6581,23.5455,-41.2557
-2132.8125,-11.1631,59.3796,-6.7039,49.6308,73.4448,50.0474,47.8036,12.1168,-57.1157,-53.0355,-87.6051,63.8124,-294.4980,71.2468,0.3171,40.0408,-13.6245,13.6641,-23.5370,53.2016
-2125.0000,-45.4019,59.3200,-39.6576,179.1992,76.5510,98.7958,-22.3356,-17.1914,-17.5351,-123.1552,26.8705,140.7707,-255.1458,111.4296,-69.9071,-139.8731,233.3819,49.7389,47.1361,-16.5947
-2117.1875,6.1046,41.0239,128.1452,80.9140,134.4111,25.9222,71.2784,-35.3143,-34.2040,-103.5224,-62.9149,87.4818,-309.0642,58.3609,-12.3843,-46.0318,75.1460,-3.4324,-41.4521,-69.6466
-2109.3750,-24.9815,46.1495,15.3597,52.6358,95.6760,46.9122,-40.7145,-5.6607,-109.4865,-31.5055,-28.2983,11.6080,-311.6020,56.7036,21.5292,62.1966,44.3299,35.7980,-107.6458,75.7008
-2101.5625,202.5607,61.8919,35.1927,-22.6926,-32.4470,-40.6981,-59.1039,-37.2399,18.8169,-12.9054,212.9079,-79.6556,-182.5561,2.6524,4.0402,8.0150,25.1254,-88.3821,-57.2422,21.6465
-2093.7500,34.9121,-33.5500,2.8272,-96.9910,-26.7598,-27.6806,-16.6948,45.8841,95.9126,101.4923,-39.1092,-74.1106,-178.7388,-65.5943,155.3515,232.6525,-141.2832,-43.7627,-83.0454,136.4044
-2085.9375,-172.3810,-65.6299,-65.2017,3.2752,-22.7347,45.5142,-12.9437,82.6059,100.3596,106.2538,38.2206,-33.2101,-101.5796,-24.4859,123.0105,90.6488,36.6579,29.2067,59.5102,104.5139
-2078.1250,-76.6093,-110.6536,40.8120,-95.1878,10.3305,-19.3337,129.8593,50.5394,132.8609,29.0740,-1.4234,-147.2559,-33.3715,-28.3202,118.7272,86.7063,-77.3603,21.2210,51.1197,-9.3268
-2070.3125,-293.7398,-187.5731,-80.0834,-61.1874,73.4804,60.5511,45.7592,89.1513,11.4495,55.0052,-157.9773,-84.1806,-80.0737,34.9585,144.5505,149.8611,-84.2711,154.3356,7.8284,53.9344
-2062.5000,-231.9649,-230.5739,-84.0844,-19.9435,-3.4731,63.2314,5.5642,58.2423,7.9452,87.8360,-14.6332,-14.1959,-11.8894,105.1308,-5.7194,-0.0978,12.7215,146.3432,34.4440,-59.9062
-2054.6875,-279.6957,-173.0603,-29.5875,-94.0442,51.0732,8.8823,22.8704,56.4339,24.9637,106.1699,-216.8223,-33.7065,-104.2222,-24.2004,122.5251,128.4518,-174.7862,63.8469,-48.4442,68.7624
-2046.8750,-282.2189,-104.3372,-108.8978,24.9958,-28.1896,59.1299,-93.6463,50.2516,91.1814,98.7143,-112.8146,33.9981,-75.3690,7.6794,151.9568,12.2055,33.9190,-8.4432,20.8632,172.6356
-2039.0625,49.6797,-19.2057,-15.8043,0.6351,-81.0543,-3.4016,-0.7705,7.0064,148.7872,8.6534,-19.4182,17.1137,-55.1258,-10.0342,135.7832,-41.6409,14.0254,-98.3316,70.5662,82.9053
-2031.2500,-25.5668,-23.2072,-59.8600,13.2000,-53.0660,39.3967,27.9571,45.0697,139.2327,1.4346,-173.1934,9.0910,-138.0525,19.1098,163.4597,96.3637,8.9881,-68.3778,29.1168,148.0340
-2023.4375,-27.9591,-25.3423,-19.0685,92.2309,-86.2361,68.3029,-4.4670,47.5815,143.5223,5.0626,14.8834,50.9260,-98.1409,97.1032,20.9868,-45.7764,183.8108,-70.5781,132.5193,6.0182
-2015.6250,-38.8561,-70.9668,45.2224,-10.6782,-20.9085,20.7510,59.6018,57.5747,134.3085,33.1935,-67.5507,5.2709,-180.7379,51.5982,85.0207,55.5946,-2.8727,-45.2692,86.4188,-39.4939
-2007.8125,-115.0058,-146.8142,-69.7305,46.0284,-25.8304,84.5987,-18.5833,120.7636,91.8211,101.0606,-72.2312,0.3742,-186.5908,46.8507,42.7910,14.7137,133.2116,54.8007,187.0598,-44.2617
-2000.0000,120.8093,-87.6970,36.2871,-48.8475,-67.7833,-52.3232,123.1881,56.5104,160.2709,95.8745,70.0256,-115.5727,-83.5109,-104.9514,-72.4992,-101.2241,51.2518,-26.1880,210.6492,-196.0859
-1992.1875,31.0332,-71.1899,-61.2888,-126.2336,-18.3235,-69.9888,99.3601,59.9352,136.1288,182.1017,-100.3445,-139.1191,-71.0468,-128.3574,50.6135,22.2401,-143.2932,60.2163,85.6463,-109.5041
-1984.3750,-127.6285,-88.5799,-150.7602,-109.7190,-70.7641,-60.0644,83.6312,39.4068,156.0977,203.4217,68.3955,-154.5589,96.5125,-70.6650,-2.1719,-140.2026,-90.7256,112.7115,137.7532,-161.8291
-1976.5625,-158.6267,-154.3069,-111.5735,-207.8404,-67.5515,-107.8210,158.5513,42.1615,194.7202,242.3843,-113.2239,-189.3355,23.7015,-141.3174,110.6903,9.0086,-262.5030,81.8510,36.5090,-122.5078
-1968.7500,-360.2766,-179.6682,-254.0449,-78.0337,-63.9980,27.0529,15.8121,111.7745,124.6883,246.7007,-145.5188,-37.7455,-46.7797,-26.5960,76.8961,123.5618,-112.9223,125.3416,44.6137,-7.8368
-1960.9375,-101.4307,-167.5309,-89.0182,-80.2234,-81.9512,-31.0657,70.5665,41.1209,179.1469,117.5230,56.6788,-19.6485,7.2331,-8.3720,21.6058,-5.3830,-63.8353,-36.6645,93.2271,-99.6716
-1953.1250,-68.2961,-168.0951,-96.6937,-136.3643,20.4001,-26.8056,135.6296,73.5408,170.9153,72.6397,-207.8231,-100.2488,-1.4518,-15.8650,197.6309,170.9819,-170.4492,-73.3786,56.1421,39.7991
-1945.3125,-67.6032,-131.1180,-131.8168,-4.1992,21.2953,50.1397,26.2445,67.8722,98.2525,-37.6985,-23.7696,-63.3035,72.4247,59.1829,51.2186,61.8920,76.4975,-37.5503,126.6135,40.8222
-1937.5000,79.9519,-90.2885,60.9245,-52.3908,68.0383,-26.4069,72.7120,-18.0641,-2.5640,-137.1908,60.1323,-52.5046,81.1482,-3.9198,24.6579,71.6476,-21.6984,-65.8717,-7.0694,-22.3020
-1929.6875,-78.5932,-38.5286,-1.4329,31.4204,153.6774,42.7758,-25.9351,-13.5771,-175.4929,-162.7769,-2.0725,32.2039,91.7638,6.8866,34.9899,83.3012,29.0149,20.7052,-60.8577,99.4750
-1921.8750,42.2750,-56.3431,60.6104,63.7960,104.7119,12.9516,-38.1853,-68.8413,-152.0267,-174.9612,207.1075,57.3252,225.7677,32.0974,-50.2935,-112.6478,152.1292,2.6724,-10.2406,-59.3514
-1914.0625,155.1455,-84.1694,141.6461,-1.4628,111.7418,-26.2512,-31.4461,-91.1443,-181.5611,-204.1400,104.2646,27.4549,121.7524,3.3237,29.4310,41.4156,53.2370,-25.3626,-144.6176,-52.1699
-1906.2500,129.9663,-4.0597,114.6301,90.3398,84.7154,18.6274,-168.7648,-79.4330,-208.1434,-158.3688,151.3743,1.5450,130.6749,49.5136,-70.8953,-58.5718,239.3118,-15.4481,-100.0294,-42.0397
-1898.4375,212.4793,43.7387,203.3200,5.7113,63.3905,-73.6686,-43.3761,-128.7231,-121.0274,-180.9020,203.1831,-56.6624,145.2973,-8.5986,-19.5263,-79.8641,111.0924,-108.8270,-122.7333,-100.2150
-1890.6250,25.2805,-2.1642,76.3074,7.7242,46.3629,-19.6702,-61.6841,-86.6895,-101.6098,-123.1360,76.2825,36.4316,126.2275,48.5783,74.1530,50.1459,30.1704,-84.8965,-169.1335,29.9035
-1882.8125,90.6391,-7.5180,73.8319,68.6037,-29.1089,10.5442,-63.4299,-77.4745,-30.6311,-126.8077,147.9163,108.0740,197.7132,120.2951,-38.6100,-99.2990,130.7893,-90.4172,-33.9753,-45.4409
-1875.0000,77.3018,15.4349,58.6512,-23.8524,-8.2746,-42.2395,-5.8594,-72.3129,26.6472,-69.1713,-52.1730,56.0109,106.4933,31.3016,91.9426,32.5632,-58.3006,-102.6388,-117.5115,12.5132
-1867.1875,-59.0242,-50.5911,-12.5313,42.4345,-78.4351,14.3577,-112.2812,-63.2819,-8.0633,-65.5389,134.7374,95.9411,182.2715,71.2930,95.4987,-38.5875,87.6221,-62.8728,-78.0313,52.4692
-1859.3750,133.9636,-68.3199,156.5911,-42.3338,-57.2914,-74.8943,-18.3920,-112.3114,49.5404,-118.6108,266.9470,43.1675,239.3593,19.5760,42.3616,-53.4402,-1.1509,-151.8200,-97.2465,-36.2738
-1851.5625,79.2439,17.2423,57.0154,-50.8552,-45.8539,-39.7563,-44.2135,-63.7891,-49.5556,-69.3860,57.4531,17.6989,212.7510,30.1671,90.5290,105.0139,-89.6147,-100.4678,-151.1700,85.2891
-1843.7500,154.4372,93.7008,27.3522,29.2372,-75.5197,-14.2165,-110.1467,-52.3568,-115.7598,-63.2613,174.8740,25.1377,256.0418,0.6611,-50.4116,-35.6379,55.8363,-60.2215,-41.1920,55.7451
-1835.9375,161.4310,100.9500,71.4955,-44.4144,-32.3870,-53.0800,-31.2853,-44.8526,-109.1622,-56.3314,72.0807,-41.6184,151.1226,-65.0441,-6.5471,82.5211,-77.9142,-53.1793,-103.4030,62.9996
-1828.1250,92.0107,136.8118,-4.7703,59.6748,-33.6597,-5.3281,-106.8255,-59.2386,-112.9626,-58.8004,105.8574,66.2302,147.8013,-30.1453,-45.0732,6.2713,62.9443,-87.5266,-103.9995,133.8523
-1820.3125,374.7010,243.7850,148.0621,71.3317,-28.8389,-66.3335,-65.2565,-143.3448,-71.6541,-200.1768,222.7192,73.1832,152.5817,-25.1549,-77.4909,-97.8957,99.8967,-191.7755,-103.4821,29.7947
-1812.5000,193.5890,133.9482,102.0902,45.2427,-0.8153,2.2331,-73.4730,-63.0283,-117.1309,-172.3515,-7.2203,63.3334,105.5657,39.0206,60.3055,76.1331,25.0478,-125.8283,-107.7567,130.9357
-1804.6875,97.1649,72.7884,114.8125,147.6032,10.9096,59.0437,-97.9804,-50.8544,-68.8943,-197.8144,78.5333,113.1794,117.2598,88.8950,-38.1970,-22.1321,245.9034,-117.1829,-29.3175,69.7700
-1796.8750,71.5395,12.4233,164.3323,32.1954,24.4431,-18.0567,61.3129,-25.6626,54.1553,-111.4700,-55.9323,88.8201,55.7566,-45.4325,49.1129,65.4156,44.5517,-141.7470,-19.0831,9.4043
-1789.0625,-193.8308,-77.6830,-42.9019,16.0251,1.2186,40.3336,74.8487,77.4150,140.4478,49.1231,-225.1412,29.7198,105.5132,-31.5093,135.6808,79.2055,25.4493,-22.0641,101.3958,60.2955
-1781.2500,-133.4399,-122.0326,-9.3873,-24.4202,-2.2572,-21.7190,181.1338,50.7075,210.4976,45.4713,-81.5940,-46.6345,211.0291,-70.8409,96.0016,-71.2635,51.0905,-66.6357,196.6290,-90.0658
-1773.4375,-109.9681,-202.2912,-22.7829,-114.1162,57.3605,-24.5073,204.5210,86.4269,85.6578,67.9235,-168.9570,-170.8864,159.6500,-85.0785,118.4319,98.3765,-65.1646,-7.1090,115.9733,-30.3231
-1765.6250,-141.8611,-199.9156,-17.5179,11.2048,62.6307,53.8839,24.5617,91.2398,-19.5239,36.0233,-16.6791,-92.4848,199.9274,-5.6671,-23.4887,-43.3383,149.2533,66.0559,188.9836,-61.9328
-1757.8125,-119.4009,-177.2068,119.1110,-19.4455,126.2566,-7.8970,124.9593,33.5377,-30.3559,-10.5340,9.9391,-101.7267,189.5611,-52.9113,-71.0493,-53.6936,101.0292,18.5547,105.3485,-145.1919
-1750.0000,-247.9793,-166.5533,90.6928,29.7367,171.8233,23.3141,59.3027,29.2536,-59.2257,-2.1516,-55.4820,-57.0157,160.1516,-81.2033,-62.6571,-45.0969,147.7635,63.9950,45.6720,-63.5000
-1742.1875,-49.1387,-141.4944,119.6780,19.3128,90.7812,-22.9682,52.0541,-9.3084,80.3253,26.6284,10.5083,-64.9091,188.1425,-52.1083,-106.8655,-200.1096,172.8987,-17.1692,105.4082,-144.4184
-1734.3750,-53.0925,-111.2400,36.8482,-106.5870,80.9314,-62.4918,79.0226,25.7211,144.0909,90.6188,-218.3237,-110.6141,104.3353,-97.8178,67.1425,-24.9272,-113.7788,-21.1295,65.3620,-43.1387
-1726.5625,-130.0529,-116.9912,-117.9974,-45.2024,0.0772,-19.0333,34.9924,63.7346,172.8783,193.6188,-117.1712,-44.3161,132.5413,-68.5289,59.1588,-106.7537,-13.4557,-27.0942,165.3328,-13.8655
-1718.7500,2.5744,-89.1426,-12.2493,-126.5105,-5.1760,-109.6281,140.5732,27.5233,241.2704,188.2301,-47.4278,-85.4134,163.3630,-146.6474,91.7736,-110.9835,-126.5411,-105.4581,156.9036,-92.0010
-1710.9375,-178.1548,-95.6499,-96.8483,-110.0735,-15.7691,-38.5299,91.8051,85.1242,193.3108,251.4967,-242.0424,-59.8623,77.8406,-84.1258,154.0501,62.4348,-166.9724,-6.1803,80.1264,7.5140
-1703.1250,-135.1696,-121.4575,-83.7376,-77.4588,-76.6688,-27.6078,67.7329,107.5972,205.0562,263.4556,-119.9348,-83.6182,90.0351,-107.9154,56.0374,-35.4497,-52.7085,2.7916,195.0500,-53.2756
-1695.3125,-59.8880,-116.9759,-44.3360,-167.4633,-37.2781,-72.7944,180.9612,103.2233,171.1072,229.7150,-226.5199,-154.0729,54.5472,-177.4080,95.3394,76.9709,-224.1597,7.0619,129.2785,-13.7694
-1687.5000,-98.4131,-48.3162,-156.7430,-31.5574,-39.6927,38.5278,67.3977,117.4085,21.3679,116.1829,-119.9009,-120.3337,88.2777,3.2892,19.8489,-35.4070,-15.4074,74.5276,231.7268,-16.0670
-1679.6875,65.6162,9.8866,-54.6011,-75.2916,-47.5512,-52.0371,133.3999,13.0881,50.1957,35.1937,-16.7397,-90.0510,153.5734,-4.4707,-25.0925,-116.2415,-98.1091,-8.4652,148.7304,-133.8149
-1671.8750,-106.8645,13.5898,-129.9646,-65.7226,-12.9116,-15.3376,57.8982,44.1992,10.5363,69.6891,-202.0982,-19.2600,113.3761,-43.7228,82.4802,65.4281,-163.3073,31.0408,47.2354,10.9479
-1664.0625,-39.9285,44.6905,-95.9280,54.3355,-51.8760,16.5308,-18.2059,19.4775,8.2876,30.5702,-21.0475,51.9411,184.5801,-45.5693,-66.5430,-47.5121,77.9061,26.9390,78.1535,-27.8965
-1656.2500,82.6936,26.4803,32.8032,-46.2914,-33.1345,-46.7875,36.3861,-26.4122,25.7479,-61.8454,-39.3120,-76.1529,128.4880,-63.7233,-10.8559,8.2513,-45.1735,8.5397,-10.2237,-46.0381
-1648.4375,-56.9738,-78.0238,-40.7525,19.1651,-33.6959,47.6593,-111.3152,1.1175,-85.0837,-62.5627,34.1382,-2.5472,127.1144,82.8182,-11.4829,7.6787,61.4629,79.8336,-8.8905,-9.4936
-1640.6250,78.2142,-82.6775,32.5484,-25.2115,-34.4046,-55.3923,-38.1582,-71.7149,-12.0672,-62.4341,180.4319,33.8982,199.5999,-27.8050,-12.2488,-103.0394,21.9341,-31.0236,-14.7060,-120.1035
-1632.8125,-17.3002,-37.0385,-35.8557,-76.0567,8.1892,-47.8128,41.2953,-8.5532,30.2515,-21.0059,-34.9657,2.6410,93.3983,-96.1351,103.2846,49.5312,-144.2841,14.4181,-4.2021,-4.4180
-1625.0000,-54.3509,102.0368,-109.8018,17.9681,-28.7671,4.2024,4.2162,17.9158,66.0355,15.8771,75.0853,-71.1827,92.6652,-22.0284,-80.7273,-135.4542,29.9403,82.3019,134.7682,-41.3013
-1617.1875,104.0778,84.5938,21.7389,-21.8416,-8.2177,-34.4480,61.6444,-14.0195,50.3326,-73.7298,22.6101,-86.5134,2.4375,-37.4253,-133.2175,-39.9285,-22.3473,29.6880,47.2461,-93.6821
-1609.3750,15.3594,66.0019,-0.8743,67.9777,43.1697,33.1540,-35.0723,-11.8664,-120.5020,-97.4906,-37.0085,38.0162,-20.9217,-23.9706,-119.8578,-26.5750,65.2263,81.9162,-6.4175,-6.2245
-1601.5625,163.6597,179.4088,48.5134,70.7564,-54.4464,-16.6162,-22.7834,-71.8149,-181.3255,-47.2587,123.3608,87.5484,64.7271,25.4747,-180.4785,-198.2047,38.7824,19.1267,0.9135,-103.7665
-1593.7500,52.3572,174.2074,-33.7133,0.0399,-63.6698,-17.0249,5.8958,-10.8248,-189.7338,17.3736,-69.8698,78.4834,17.7919,-19.6853,-41.6910,-22.4370,-143.2489,48.7348,-4.3421,-38.9041
-1585.9375,-94.2347,132.6962,-112.2317,49.0960,-105.1972,4.4443,0.2954,6.5434,-11.4124,11.7092,35.5990,37.1127,123.5836,-24.1591,-46.2003,-137.9804,26.4122,42.0352,130.1140,-80.3576
-1578.1250,-2.3440,13.6839,-12.2570,-81.7218,-42.2204,-89.0062,174.2002,-7.5101,125.4038,1.5484,-11.4555,-83.7594,148.8758,-108.1385,16.8056,-75.0077,-92.4402,-42.1632,116.0682,-164.3034
-1570.3125,-146.0487,11.0704,-92.8851,-17.4555,-11.8510,6.1393,93.4989,30.2070,81.6269,30.7872,-202.0902,-16.2289,30.5884,31.2768,46.2035,28.3424,-58.8735,26.0355,43.4420,-60.8571
-1562.5000,20.5162,106.6982,12.7460,68.6888,-91.2271,-4.0543,-21.9392,-61.9288,-33.8815,-84.7322,123.5141,52.5389,135.5598,99.9252,-106.1371,-160.0567,106.9328,-18.5224,34.0740,-176.1724
-1554.6875,87.4203,103.6632,116.7231,-6.5561,12.7499,-51.6419,7.9651,-75.4223,-114.0383,-127.8997,43.4601,8.6582,54.8892,-17.0712,-39.1215,-20.1103,-36.9001,-22.7304,-74.9405,-109.1391
-1546.8750,4.8935,56.1690,64.2584,90.6682,-1.7310,21.8410,-43.5800,-39.1043,-129.6429,-106.5226,64.9718,30.3255,38.7925,5.4840,-90.5610,-71.6334,162.8201,0.6039,-16.3984,-50.5723
-1539.0625,188.6697,28.9685,222.0883,69.4342,8.0933,-13.2691,3.1813,-71.2988,-118.9437,-169.8493,148.7737,4.2888,49.0059,15.3233,-153.6809,-171.8434,169.8201,-62.7666,26.4454,-113.7008
-1531.2500,59.2368,40.5678,155.7080,65.2355,52.7143,13.4772,-63.2561,-46.6332,-148.4303,-161.3772,9.3843,12.0512,19.0443,-14.0426,-73.0016,-54.2647,111.6355,-15.3396,-31.8921,3.9625
-1523.4375,37.9156,18.2652,63.4355,70.3852,33.4381,26.0671,-81.5787,-12.6813,-93.7967,-70.8004,64.0866,29.8993,73.2017,3.6732,-165.2097,-109.5761,125.5312,68.1794,51.8682,-88.2879
-1515.6250,16.7858,-1.8446,3.3561,-93.4471,10.3654,-39.4203,5.2952,28.3731,29.0384,51.9740,-216.0182,-67.0540,11.5757,-56.4166,-4.2081,87.3157,-176.3687,46.8959,-4.1754,-38.3316
-1507.8125,-175.4150,16.9462,-164.8094,-16.8236,25.1900,35.7796,-16.9333,88.5746,44.7762,67.6241,-164.1940,-52.1037,63.8748,-4.6106,10.6850,66.0847,-52.3493,30.4995,119.6882,50.5130
-1500.0000,-12.8024,-31.4627,-28.1591,-66.7664,-21.1821,-35.7172,120.6380,43.9296,108.3076,21.0600,-27.5734,-98.3436,126.9785,-88.0065,1.3794,-17.3397,-64.5372,-18.1069,142.3397,-32.8403
-1492.1875,24.0658,-65.6184,-104.2624,-62.2662,11.6872,-4.0549,43.4396,45.0579,31.0821,53.7428,-177.6915,8.6834,-24.6558,-54.1469,108.3133,126.4727,-133.4537,17.5339,2.2505,74.0543
-1484.3750,88.5591,69.8265,-72.7529,48.7519,-28.8507,9.4946,-71.1502,-32.9811,-46.5298,-60.9763,111.7916,79.2974,8.3192,15.3000,-6.1583,-98.1230,37.2184,-23.2274,32.7711,33.5363
-1476.5625,106.9338,18.1582,21.6385,-31.7955,-8.4843,-31.7223,23.1567,-11.9998,47.7524,-77.7862,22.1527,-11.1973,28.2037,-38.3503,51.2760,-4.8154,-50.2124,-75.0718,51.2053,16.9209
-1468.7500,-18.4365,-72.2682,-110.7240,-20.2405,5.1232,35.2258,-0.2837,66.3832,98.2923,46.6572,-74.2248,2.5514,4.3575,49.2466,27.9567,45.7168,-34.3844,-24.6633,101.9037,67.5334
-1460.9375,175.0034,-89.9015,-51.2823,-74.9282,-7.4623,-57.5736,60.0827,5.4859,121.6363,69.8924,133.1826,26.1019,64.3157,-37.3665,-21.5505,-40.9413,-86.7723,-77.4618,84.3948,-56.0604
-1453.1250,56.5402,2.5750,-105.7465,-101.6675,-25.9436,-53.1615,5.5414,20.5921,103.0777,125.2129,-69.3005,8.7592,9.3949,-55.8804,107.0398,124.4845,-205.0449,-21.1584,-35.0126,36.4447
-1445.3125,-100.8535,-13.8961,-158.1468,-42.2107,-115.3738,-11.2999,-84.9375,46.3883,197.5827,219.5694,25.2765,29.4586,29.5532,1.6441,54.6860,-2.0588,-81.2785,-1.8142,54.6311,19.9800
-1437.5000,-51.4050,-70.5234,-68.7050,-152.7082,-135.9442,-78.5394,-30.5610,24.8084,287.9442,235.7784,5.6878,-26.9985,8.5764,-17.9954,108.2004,51.2571,-242.6779,-23.6196,-1.8796,-36.6301
-1429.6875,-130.3405,-150.5553,-155.6651,-121.7018,-111.9219,-34.7813,-45.5811,42.4382,162.9255,221.5800,27.7204,-4.8562,31.2275,-33.0430,130.3115,74.1491,-181.4697,1.1624,-11.7788,59.3509
-1421.8750,63.3482,-96.9870,-96.0227,-123.4264,-89.3066,-87.6425,16.0062,0.3395,187.5189,171.9708,162.3436,-54.1140,128.4916,-82.4979,44.0389,-49.3551,-127.6789,-49.4638,42.9191,-27.0690
-1414.0625,64.7817,-94.6645,-98.6436,-176.0558,-19.9484,-94.3369,85.3311,-5.5220,182.8660,131.1118,10.7110,-21.6106,50.5143,-85.1951,114.5163,93.8863,-302.1259,-49.3371,-61.6290,79.2636
-1406.2500,-11.7178,-31.2916,-143.2074,-92.3022,-26.5501,-53.5925,-32.2941,-39.1930,102.2713,86.3037,224.1431,7.9393,79.6002,-19.8415,70.0369,-23.8297,-166.5222,-20.1687,-66.1198,108.6264
-1398.4375,102.6714,11.9684,13.1323,-98.6740,-17.2462,-79.1211,50.9847,-46.6909,38.5732,22.3964,87.4591,-54.6179,89.5919,-82.5984,117.4661,-14.6300,-158.0316,-47.0924,-58.7099,81.8890
-1390.6250,-154.3837,-69.2359,-38.9801,-4.6743,40.6079,40.7115,-38.1844,33.6382,-13.5725,43.0418,-148.6615,3.3665,-0.8432,-25.8055,137.4327,116.0952,-28.9765,46.5355,-69.7299,175.6881
-1382.8125,-111.9171,-165.9490,50.4184,50.8493,19.9674,49.6843,-22.8348,18.2865,74.8010,-14.8242,86.7093,-18.1673,15.2346,26.4692,6.9075,-51.6832,190.5612,19.6595,43.7528,7.9754
-1375.0000,-78.8029,-168.0118,158.4594,-26.1475,90.9829,-18.0134,85.1605,-8.3703,109.8283,-54.0433,-25.2735,-57.0494,-98.0244,-86.6114,78.0407,20.1815,47.7512,-17.5657,-28.1219,5.9129
-1367.1875,-156.8674,-142.2579,74.3067,58.0014,116.7913,55.6501,37.9578,20.0262,62.6656,-65.4673,-36.4422,-68.1349,-72.4641,-23.9026,-6.0270,-101.1736,179.7415,78.0044,67.8008,31.6340
-1359.3750,34.6143,-90.9515,95.7025,-7.0451,65.1538,-8.4921,133.3104,2.2435,84.0543,-43.3465,-88.0743,-82.6741,-50.3465,-38.6547,-20.5309,-116.9678,55.2640,24.1276,85.2641,-57.0926
-1351.5625,-59.9487,-115.6979,-43.9593,-10.1009,73.4606,43.3291,67.6080,56.2490,-18.6078,0.7130,-152.7370,-38.2537,-153.2584,5.5460,23.9112,75.1695,-3.2428,70.1981,25.6839,24.1272
-1343.7500,-24.2866,-80.2385,-3.4077,21.7436,2.9673,37.5283,-2.8822,27.0044,-52.0502,3.9628,180.7941,-34.6375,-113.9527,81.9317,-120.4454,4.4979,102.4387,-0.5438,25.2999,-46.4628
-1335.9375,-38.5302,-95.6741,88.2322,-105.3786,21.5754,-46.0462,52.7180,13.4614,40.6130,22.3083,52.4132,-89.9199,-95.5354,-46.5762,9.3046,132.9345,-123.7780,-51.1808,-59.9857,9.0508
-1328.1250,-162.9091,-114.2569,-46.2715,-15.4556,32.0301,27.6116,-9.8273,42.9724,51.1304,69.4946,-46.1000,31.6440,-47.2505,-34.2328,56.8984,70.2049,-36.1341,0.0239,-8.4181,130.3936
-1320.3125,64.4129,-28.1501,8.9316,-36.2831,-21.8069,-41.9456,46.3321,-48.9247,71.3483,-21.6241,46.0663,14.9050,82.7410,-52.1990,40.2054,-20.8094,-55.8044,-54.0748,-62.1576,76.4317
-1312.5000,34.0375,11.2627,7.4310,-26.9600,13.6541,-8.4123,-29.2222,-49.1205,-78.1363,-60.4432,7.5444,13.4678,7.0475,-17.8661,110.8034,87.4618,-86.1619,-49.8720,-163.5960,220.7661
-1304.6875,73.8371,86.8392,-19.9072,58.6325,-50.7441,31.8426,-130.6200,-52.1251,-105.4651,-51.1235,163.1807,95.1832,14.5154,63.6130,-25.4531,-50.1270,24.6177,-8.5283,-86.8868,156.2361
-1296.8750,151.7300,59.5166,-11.1591,-34.0039,-77.0464,-12.6697,-46.9225,-33.8660,-58.6915,-5.7063,62.9030,69.0021,-84.9198,37.1932,20.3980,69.3908,-143.5067,-3.0773,-115.0752,92.8118
-1289.0625,7.5959,-13.8555,-127.4585,35.4010,-47.4064,76.1805,-90.2715,19.2447,-101.9577,24.6507,-16.4072,172.7671,-91.3885,103.7248,-21.8121,98.8345,-76.6671,63.3195,-83.3009,159.3205
-1281.2500,98.1808,40.4700,-28.0521,75.3618,-22.0588,46.6715,-64.9100,-38.6293,-112.5141,-60.3024,82.9647,199.2280,-29.1492,129.9461,-106.3147,-22.0186,13.8570,-22.5839,-63.8364,38.5237
-1273.4375,17.1610,100.1915,31.7462,80.3432,37.6938,79.2854,-77.1521,5.7766,-162.6750,-109.8642,-114.2640,112.0979,-152.5007,79.5666,-46.4161,148.5211,2.7933,72.9182,-108.9724,98.1305
-1265.6250,-27.4764,55.2743,60.9068,132.4891,66.7982,101.1329,-159.0433,7.1482,-133.4823,-118.0915,60.8728,30.3159,-124.4847,108.5294,-127.1735,-7.5990,205.0768,62.7573,-13.7666,53.0762
-1257.8125,103.3906,44.8629,162.5648,30.4432,58.4053,3.6636,-58.4406,-45.9362,-106.7929,-127.8257,15.4986,-14.9708,-133.9585,25.9893,-26.4168,20.7873,53.8484,-17.9034,-94.0711,7.5312
-1250.0000,6.8159,89.0110,55.7711,73.0009,24.5504,42.0688,-164.2969,-22.5404,-138.5444,-50.0081,-53.3045,62.2886,-128.8598,29.0014,13.8814,60.7042,62.1800,-10.0139,-119.8177,121.5230
-1242.1875,156.7067,131.6113,142.4295,94.3414,-72.8588,0.4506,-150.6973,-95.6230,-15.8415,-147.7390,216.3357,75.9940,-80.3051,42.4575,-83.3637,-109.9176,140.9381,-72.6742,-77.1290,23.9553
-1234.3750,113.1463,52.7696,166.6295,21.4302,-11.7213,-4.5050,-90.5601,-54.0227,-28.5987,-124.9253,55.5242,62.2502,-129.1895,-7.5373,13.9409,60.0073,-7.7497,-80.7791,-119.8961,120.9410
-1226.5625,25.8106,36.1359,37.0413,123.8083,-66.3862,80.5676,-146.2228,0.4654,-120.1535,-32.9237,110.9272,154.7042,-73.8627,83.6643,-39.5616,5.1186,151.7702,-62.6895,-30.4656,139.1115
-1218.7500,126.2784,66.3113,109.2573,65.2858,-69.2455,32.1030,-39.0892,7.6010,-85.9098,-37.1299,72.1140,78.9601,-77.7400,44.6625,-79.2634,39.0361,76.0838,-102.7933,-2.2475,63.0829
-1210.9375,-37.0922,76.6431,6.6251,77.0788,-23.9558,71.4142,-29.8119,16.8935,-77.5166,-65.2002,-29.5293,49.3730,-142.4586,51.8126,-33.8247,46.0803,51.5710,12.2529,-24.8731,144.1909
-1203.1250,-30.3375,14.0769,20.1127,124.1863,-11.5604,80.3657,-17.4265,13.4402,45.9791,-53.1851,56.9192,99.8803,-130.0737,66.0524,-131.2888,-123.7761,165.1511,54.3946,86.5954,10.3849
-1195.3125,-6.2826,2.8171,45.9005,44.5651,51.1405,54.4657,8.2473,14.3286,-2.2386,-101.8770,-138.3409,52.6858,-177.3857,54.5931,-32.4520,84.6706,13.0394,77.8398,-29.6415,-1.1158
-1187.5000,3.8545,47.6239,-18.2540,108.0139,60.8886,89.1661,-93.0290,-2.9241,-212.4046,-164.5221,18.4675,62.5353,-131.6298,100.1848,-59.5762,21.1510,127.9734,87.3229,-19.8279,8.4192
-1179.6875,168.7045,72.1395,84.2859,34.9786,52.3401,-15.6721,-26.6035,-76.0415,-147.8667,-174.4720,120.9573,17.0770,-29.1620,18.4680,-66.9862,-97.6514,46.5769,5.5045,-31.3328,-73.3385
-1171.8750,-35.8952,8.2125,-24.6459,38.8631,54.3324,26.0929,-25.6389,-41.6789,-108.7763,-62.8660,-24.9950,93.1716,-101.1260,20.3072,8.1476,-22.9186,-17.2607,82.2446,-95.2781,38.4524
-1164.0625,-25.1768,52.5920,-9.2691,104.0252,31.6227,15.3109,-47.3626,-64.0799,-57.3843,-47.9699,174.3558,70.5647,-12.7845,-1.5635,-87.4254,-191.8891,169.1907,56.2847,-14.9299,-57.4701
-1156.2500,15.2443,57.6744,105.8000,-10.4722,73.6137,-76.3545,104.6050,-74.1483,-15.3108,-80.3846,68.4009,-71.3333,-43.7464,-144.7293,64.7016,-40.1560,33.3422,-43.9643,-79.8922,-52.6877
-1148.4375,-74.9095,38.1673,44.2855,66.7262,85.9986,12.1214,-31.0351,-13.3568,-40.8434,4.5912,80.8721,-22.8295,-106.3069,-59.4934,40.2065,7.9548,153.9045,6.1866,-65.4575,32.4815
-1140.6250,135.7047,36.4213,121.5331,22.6031,15.1388,-32.2249,-26.9293,-27.6759,36.3679,7.3115,121.0802,-92.5857,-65.1205,-18.5099,-29.5377,-25.1677,153.1987,-65.9156,-31.2902,-74.5973
-1132.8125,22.8307,-41.8121,72.2747,-21.4779,2.7740,6.2089,-77.3417,14.5090,24.0704,31.5241,-112.2078,-104.8389,-115.4283,4.9806,68.2128,145.2085,40.0018,31.4843,-109.6242,22.8276
-1125.0000,-93.0659,-123.0785,26.9737,44.0265,-4.6517,53.2066,-121.8048,17.7695,-20.2687,22.6811,63.4555,-39.1453,-48.7749,70.4181,-13.0826,-9.4645,169.7424,90.8264,-15.0157,-58.8077
-1117.1875,-68.4266,-97.7930,129.2094,-73.0269,22.4717,-52.3092,53.2721,1.7875,43.9412,13.3966,17.6533,-121.9026,-21.5663,-85.5949,51.1822,54.4311,-16.9800,8.7288,-25.8656,-104.8852
-1109.3750,-165.5319,-91.2621,-16.3049,-48.3512,61.8421,-8.1399,18.5983,36.6578,46.4015,88.3646,-53.8857,-119.4169,-56.0933,-84.3568,89.6856,56.5585,-9.4390,85.8848,-18.4621,7.2737
-1101.5625,-67.8247,-97.9320,-20.0157,-32.0397,-15.9870,-19.2762,13.7353,8.4668,115.6696,121.1274,52.3610,-50.1386,-23.8259,-14.3294,-24.0033,-58.5049,17.8817,42.8442,8.7336,-70.7733
-1093.7500,-158.9661,-85.4414,-47.5847,1.9556,-6.6660,35.9577,-12.9908,37.2702,-21.9204,57.0390,-48.2415,70.2936,-87.4030,-5.1475,59.4499,61.5713,-39.6418,90.9646,-12.9249,12.3275
-1085.9375,-36.7776,37.3586,-26.8427,95.4017,13.9509,41.3976,-66.4105,-2.5323,-75.2187,39.2456,45.4644,90.0253,-103.6750,15.3274,-67.8050,-140.0585,119.1281,72.3804,38.7115,-41.2893
-1078.1250,120.4590,124.2200,65.9495,12.1887,32.6225,-25.8695,26.2154,-3.4505,-19.4780,58.4986,-44.7939,-37.1964,-157.8954,-39.1538,-122.0052,-83.6239,-6.0603,53.8473,19.3799,-95.8494
-1070.3125,-112.8395,31.5520,-71.8056,-3.6858,115.7396,29.4549,36.2780,71.4234,-46.2879,104.1972,-145.5790,-137.9691,-148.6577,-30.1846,-75.7675,36.2395,7.2201,136.7637,32.4937,-12.9693
-1062.5000,-39.3169,-71.3000,-25.7434,-20.6262,88.6553,7.1984,118.1421,16.9883,36.7046,-34.3127,47.4233,-128.9513,45.3754,52.5844,-102.7268,-102.0876,45.2891,103.4753,105.3947,-151.2957
-1054.6875,-130.3507,-162.6987,-12.2392,-106.3315,175.0174,-29.0949,242.4403,1.5506,50.1435,-58.3675,-86.1353,-78.4761,21.8515,28.8087,57.7646,21.0467,-152.1902,81.6421,13.7427,-138.1651
-1046.8750,-233.6148,-160.3510,-82.9802,-18.9599,177.1194,-16.6291,133.4931,-22.7714,52.3414,-19.6732,63.0618,-3.2580,134.0833,-6.2184,60.0004,-124.0717,26.0785,48.5570,50.8417,-136.2956
-1039.0625,-24.1781,-163.3035,62.9747,-90.9416,175.9219,-90.1939,206.2457,-38.4863,51.2357,-21.2806,97.9402,-4.3519,170.0078,-81.5478,21.9449,-89.4740,-82.9701,-60.8154,47.6340,-174.7227
-1031.2500,-149.4438,-77.9478,-75.7725,-48.0521,148.0188,-14.7525,104.2923,8.8209,-50.5795,60.4166,-76.8711,77.8594,31.2346,1.4299,67.1732,66.4069,-137.7056,-9.8778,-42.2682,-18.8636
-1023.4375,-33.6416,108.4715,-136.4583,25.8454,-22.8302,-8.3296,-29.5959,-24.6217,35.6558,110.1670,9.3604,128.1158,7.5077,87.4437,-29.5393,-104.6645,-57.4206,-0.9006,1.8720,-79.9698
-1015.6250,48.9572,84.6980,-89.3635,-95.1097,-49.8787,-86.5129,53.3120,-12.1488,156.6916,119.7249,-90.6192,-45.8323,-55.4152,-86.7447,90.5613,16.0739,-185.3454,-24.1212,-21.1978,-33.2677
-1007.8125,-62.6265,-62.2623,-98.4611,-40.6516,-23.1352,-8.2085,7.0194,46.0005,109.5313,109.0789,-63.7832,-91.9859,-28.5196,-96.1357,81.4439,-31.3975,-17.4704,74.4557,77.5290,30.2268
-1000.0000,-6.3608,-41.3659,-36.7088,-66.5692,-71.5415,-32.1338,105.5732,32.2286,135.2139,60.2875,-38.1049,-104.2945,-3.7707,-71.6827,32.1784,-43.0006,-66.7669,58.8886,98.0850,-55.4242
-992.1875,-123.6900,-90.0645,-91.5654,-45.0900,-53.5568,35.8110,50.5103,53.0372,80.2959,41.9038,-166.0241,-49.2060,-58.6204,57.1745,88.3137,85.7940,-80.6569,80.7260,14.0447,36.3243
-984.3750,-47.7900,-119.5526,-46.2091,4.5697,-81.3784,25.5592,-14.3467,22.3058,88.5799,13.7193,62.2463,-39.9295,60.7262,65.2268,-13.3513,-16.2065,100.6356,-19.2407,54.1959,-28.7327
-976.5625,34.8029,-176.3362,39.8375,-78.0732,-69.5058,-26.5310,70.4834,26.1400,137.5550,25.2389,-35.7932,9.0432,-0.2421,3.9787,108.6803,142.5102,-63.3734,-113.4881,-3.9601,-17.0790
-968.7500,-134.2006,-135.7158,-103.7132,-5.5748,-66.2418,54.3374,-0.2829,71.2937,139.9299,64.1642,-105.4186,85.4089,-34.8090,80.1310,112.0981,144.6145,-21.9809,-37.3276,37.2915,58.9592
-960.9375,-23.1600,-60.0472,-56.2096,-40.6713,-54.9237,-16.5577,85.0098,20.9401,188.3525,38.1469,14.9748,22.8188,50.6654,54.3311,12.5770,8.7855,-51.5648,-67.1148,77.5841,-76.9548
-953.1250,-55.9818,-22.2257,-57.5664,-47.2049,-19.4583,-18.8336,120.4393,23.7272,76.9158,37.2926,-96.4885,-14.6226,13.2933,-20.3124,85.2025,81.1087,-84.9908,-29.7481,9.0265,-4.7159
-945.3125,-52.3771,86.0079,-14.5152,72.3675,-13.6004,0.8494,89.2742,-29.3205,8.8886,-31.1608,19.4518,-45.6743,92.3274,-14.5660,-55.7721,-97.1700,163.9706,7.0131,10.8633,-73.0905
-937.5000,29.6704,131.6963,145.9817,29.6138,-0.2855,-51.8873,103.5564,-59.6318,23.3050,-91.1672,-76.1743,-105.2793,32.8052,-74.3727,-42.2858,-46.9778,104.3658,-17.7691,-48.8619,-133.0057
-929.6875,-181.2219,26.4456,106.5281,86.8035,70.0708,41.1579,-10.1179,-18.3847,-16.2313,-95.1220,-79.7322,-34.8342,-43.6618,31.8712,-44.7540,-12.7454,174.8162,52.4969,-48.5386,-62.8772
-921.8750,-63.8489,-32.5537,196.3331,91.4977,86.6739,8.1310,79.4607,-56.7298,-37.5147,-115.8193,83.9443,17.8466,82.1122,48.3593,-138.9633,-144.2397,221.4898,-41.9905,-1.9722,-157.4955
-914.0625,7.8170,-31.2441,190.4315,5.9603,116.5737,-19.2213,109.3271,-80.1100,-117.5027,-195.2123,-70.0791,11.8247,76.1850,5.1494,2.1211,33.5701,10.4702,-41.1697,-143.1082,-16.8064
-906.2500,-5.7554,-10.1829,26.2979,68.8671,-10.7857,40.5251,-55.0550,-66.1650,-132.7393,-138.8483,60.6682,68.5440,170.0121,98.6856,-15.0564,-57.8751,102.1929,15.3989,-86.4958,39.6185
-898.4375,139.6055,-6.1758,69.1134,-22.1969,-78.1923,-14.8144,-11.4888,-57.8031,-54.0279,-97.5188,66.3363,74.2045,102.7707,104.1681,-45.2716,22.6564,-71.1591,-52.0755,-83.9477,-27.9928
-890.6250,19.9688,14.8314,-60.0857,31.4732,-60.6139,77.5362,-104.9302,27.4875,-147.3127,-8.1714,-62.9921,127.8577,-64.4682,193.6521,-28.4884,185.1856,-48.5129,-31.5456,-97.3869,98.3956
-882.8125,97.2435,91.7439,58.6183,111.7094,-89.1444,72.6610,-169.4612,-13.0692,-211.6952,-72.9113,128.5694,136.3900,18.1975,166.0208,-92.7926,47.6345,132.0000,-61.1131,-56.9260,33.6786
-875.0000,71.0974,135.2519,138.9074,47.2178,-10.0749,4.3274,-89.3919,-60.9068,-131.4818,-139.0367,-12.2819,32.5219,24.4611,24.9905,23.5132,90.6969,34.1069,-53.0728,-153.8671,76.5651
-867.1875,1.3660,136.1614,65.6047,135.2806,27.3869,59.3835,-162.9187,-54.2510,-93.8685,-175.7586,-47.7306,70.0529,62.1225,25.3650,-12.7902,-19.8463,175.6140,53.3671,-82.4069,76.8360
-859.3750,210.3866,133.8247,141.0542,37.0553,29.6040,-20.5650,-14.6970,-82.9460,-130.5108,-210.7243,63.5593,-38.6851,63.5255,-9.5198,-47.3390,-17.6195,66.8512,14.5593,-87.2074,-32.1374
-851.5625,-33.8941,30.1848,29.1995,4.8313,27.5124,31.0369,-53.7830,9.8562,-94.4532,-102.9780,-48.4415,-40.7290,25.6334,25.2953,24.7992,127.3020,-2.2046,51.4622,-50.3023,39.5849
-843.7500,-16.1201,-23.4058,-22.5947,34.7306,-24.5311,39.8388,-68.8079,11.7172,0.6613,-45.1699,46.5928,54.2699,83.7835,83.1478,-101.0027,2.2834,49.7616,32.4137,36.6428,-49.6516
-835.9375,75.5329,-38.0930,-3.4978,-23.6066,-5.6726,32.6039,-12.9406,36.9544,-200.3361,-26.4491,-81.4878,110.1576,-7.1739,65.8953,-81.8945,131.1790,-139.3770,18.2759,-12.5134,6.0226
-828.1250,-15.9003,-23.8686,-139.4918,65.6530,4.0785,108.0791,-112.1705,73.8613,-300.4348,20.1760,2.3459,120.9324,2.7752,112.5402,-106.8966,30.9686,13.3841,67.0317,71.2346,89.5869
-820.3125,145.5649,101.2525,-3.5849,38.0029,-43.2741,10.9881,-50.4939,-11.5133,-91.6311,-27.2827,102.0589,72.5938,-7.3852,64.0821,-154.9857,-90.3091,-1.9915,-19.3108,54.8656,-31.9433
-812.5000,86.6164,218.9655,-33.0931,47.6718,-36.0389,35.4431,-115.2305,-17.4073,-119.2293,-57.1214,-73.6340,117.8524,-109.9478,109.2355,-73.4740,65.0301,-95.7716,26.9589,-74.9021,49.1314
-804.6875,149.1205,280.1220,-38.1484,87.4718,-78.3711,27.6036,-194.5119,-42.7948,-198.3647,-62.4909,141.1156,111.5449,-5.0640,102.8256,-188.5007,-88.1652,-0.1301,52.6780,-13.2200,-30.3481
-796.8750,264.1498,290.8170,10.3280,-47.7568,-67.1571,-91.1064,-74.2438,-65.1700,-114.9512,-14.2847,78.3903,-24.2271,5.3644,-70.0459,-67.9640,-2.7848,-166.9500,-8.0402,-73.9777,-56.2644
-789.0625,179.4782,275.8093,-155.8909,6.1699,-86.6511,-25.1068,-129.6606,-35.3681,-97.2271,2.2315,-15.0255,29.2859,-13.8977,-16.6255,22.8667,13.8785,-110.4681,47.5421,-54.4156,34.1053
-781.2500,414.8486,440.8491,-90.0474,34.4061,-168.0916,-86.8289,-101.0086,-113.2856,5.5578,-78.1875,51.5756,95.8336,15.8728,12.8328,-20.2389,-103.3934,-87.9640,-104.8246,-30.8088,-83.4772
-773.4375,558.2036,582.8904,-127.2104,20.2415,-167.5321,-86.7746,-101.3641,-102.4841,-30.6650,-78.5825,-132.8362,95.3741,-94.3655,49.2912,16.6510,43.3426,-191.4576,-104.1823,-100.1986,-47.0574
-765.6250,772.1672,831.5201,-193.7578,128.4971,-235.3812,-99.3491,-131.1158,-137.1339,-61.2806,-72.3581,21.3535,102.4869,-88.0020,19.3370,-160.8568,-133.3062,-15.3726,-101.9433,-27.9862,-151.0475
-757.8125,1029.4565,912.4774,-65.9671,57.7068,-144.8819,-202.7144,-40.5179,-187.4159,-117.5433,-128.7602,0.8745,-28.0632,-107.2911,-111.2729,-143.9968,-153.5634,-74.9698,-126.3494,-52.4315,-281.6710
-750.0000,879.8466,903.5338,-114.0915,142.7934,-82.2952,-115.5454,-162.8193,-156.1949,-201.7019,-103.0452,-83.4952,33.4857,-192.4703,-11.7725,-228.0337,-164.7165,20.5229,-30.6620,-61.7731,-256.1965
-742.1875,985.5427,1009.8877,3.0871,183.7283,-76.4147,-153.0589,-229.8099,-232.8713,-232.5540,-170.0105,33.4153,3.3160,-149.3531,-5.9871,-368.7572,-305.5439,126.2818,-30.6746,-97.8157,-397.4179
-734.3750,1032.5106,1055.5299,84.5554,117.2951,-32.2422,-204.6943,-185.5063,-289.9297,-298.1084,-272.6567,-106.3761,-62.5737,-140.9331,-71.9064,-250.1725,-187.0582,-4.6610,-55.3737,-262.5524,-316.3288
-726.5625,1037.4814,1025.1699,48.0329,192.1550,5.9186,-168.7155,-221.1965,-335.3564,-334.6613,-309.2873,40.8381,47.5238,-103.5143,2.1651,-249.5909,-296.5670,105.3855,-86.0716,-294.2879,-242.2526
-718.7500,1009.8370,821.2077,127.9075,95.9122,48.4712,-193.9313,-105.4883,-306.5318,-291.8159,-266.4902,83.4304,17.0043,-97.7158,-29.3727,-206.6006,-179.6508,6.8070,-149.3639,-321.6283,-199.7699
-710.9375,543.6830,459.7343,35.2867,33.8945,28.5153,-95.1818,-160.2893,-176.1214,-199.4689,-138.1696,-9.4650,-3.0330,-80.4150,24.5795,-5.1213,21.7670,-39.2608,-89.1515,-295.4448,1.2072
-703.1250,378.4265,259.1488,45.5774,33.4614,-72.5382,-92.1966,-114.1689,-169.2260,30.7949,-91.9251,110.5164,43.7958,76.7802,34.4094,42.2665,-114.8946,41.5406,-184.0424,-180.3562,11.0785
-695.3125,199.2986,185.7051,1.0067,-60.5745,-79.4430,-108.8197,-11.8959,-100.4959,170.2068,10.4900,-80.3671,-1.2282,69.1202,-83.6132,181.8210,60.6113,-137.5197,-151.7784,-183.1150,113.1059
-687.5000,-100.6715,26.4026,-131.4091,-11.5050,-66.2023,5.6828,-71.4618,13.9765,109.7754,98.0616,6.9197,-24.1124,82.6250,-33.4920,158.5352,38.2626,-17.4384,4.6221,-27.7172,163.2709
-679.6875,-126.3604,-140.6279,-8.5215,-76.6904,-52.6560,-23.9880,52.2864,6.8028,124.6576,75.9471,93.4829,-83.7201,97.4278,-21.0860,99.5811,15.2468,-44.0881,-22.6800,-19.0201,66.7455
-671.8750,-281.5155,-226.1263,-27.0884,-34.5925,37.4339,61.9548,32.5868,48.8195,-4.9008,19.4082,-73.4008,-30.7939,39.7862,32.8621,116.1775,142.7829,-24.1791,67.5722,-68.7555,156.7717
-664.0625,-212.6139,-192.5805,48.4151,54.4709,2.5694,66.6392,-39.0466,20.4434,33.5987,21.9320,38.7626,-29.8436,80.1867,34.8461,-64.1693,-110.6189,183.7528,65.8765,34.5562,48.8400
-656.2500,-170.1912,-185.4893,165.4513,-42.6664,9.2474,-19.1184,41.8601,-7.7845,114.6338,29.0392,-28.5492,-132.3533,13.1229,-104.6214,53.0340,-67.4421,50.2168,37.7492,-29.5828,55.4705
-648.4375,-383.2771,-222.9052,87.9888,27.8947,41.4133,59.1909,-71.7317,26.9116,36.1660,61.6792,3.6401,-63.3739,45.5555,-0.5956,48.7256,-34.7647,152.1720,70.1274,-32.2090,87.5931
-640.6250,-257.1837,-308.1364,186.7268,-1.5084,66.7738,39.6011,-11.1151,20.6187,24.8988,50.5437,29.0142,-40.2183,107.1764,61.6186,-36.3681,-46.8522,136.2956,-15.2895,-11.6338,1.9187
-632.8125,-391.7178,-407.9825,114.8583,-42.5175,104.5300,77.3929,26.8960,107.5672,26.0292,125.8302,-116.2070,-37.6781,-37.7979,25.2296,75.9345,139.4650,36.8217,25.7031,-5.6483,113.6479
-625.0000,-436.4016,-452.9883,69.8556,0.5532,96.1268,101.3217,18.7660,135.4726,92.0106,153.9841,58.4176,-47.3044,27.0813,16.6821,-41.9093,20.6481,167.1725,51.5387,125.1889,68.2183
-617.1875,-361.8098,-449.7173,110.1462,-96.9823,136.0152,31.6799,168.9346,96.1566,168.2980,47.4725,-84.6839,-117.6467,67.2575,-53.5729,71.5670,61.1633,-6.2002,18.6802,93.3299,71.1003
-609.3750,-523.3845,-434.6151,-24.7140,-45.8970,109.7394,82.6244,69.9659,106.1216,180.4627,95.8359,-146.9405,-33.1569,115.2943,-4.9880,82.9037,0.5318,9.2693,68.6677,107.3406,155.8224
-601.5625,-424.9711,-407.5309,7.4296,-63.7590,-4.5420,23.7084,140.0180,76.8982,250.6399,203.2291,-42.2167,-1.6886,148.3269,-10.4237,80.2593,-113.0685,-1.3013,-10.3442,134.3540,41.5471
-593.7500,-508.5333,-421.4102,-46.3910,-106.3828,14.2221,46.3708,159.1231,148.7313,195.8657,258.7036,-243.4459,-19.1906,56.4143,-64.8176,172.6698,125.3942,-119.8272,46.6997,85.4255,133.3294
-585.9375,-510.8525,-459.0494,-120.9553,-69.3955,-23.7749,87.9880,84.5017,175.5364,231.3566,258.4570,-97.4308,-21.4657,92.7579,6.0237,61.3363,51.1136,-18.1305,79.9923,188.7593,95.3512
-578.1250,-359.2077,-482.7053,-105.5323,-189.9098,-45.7750,7.8211,173.8925,156.5707,283.8553,238.2435,-83.4481,-43.7524,71.0924,-15.1499,114.0209,140.8593,-218.4710,20.2957,165.0923,0.3858
-570.3125,-477.5754,-426.3806,-233.1160,-135.3519,-26.7915,73.6947,119.2745,199.2027,156.3564,257.0655,-137.4533,10.9436,53.4318,39.6713,96.7026,233.6102,-196.8141,41.6037,151.4406,92.4159
-562.5000,-369.6035,-388.7231,-154.3458,-108.2253,-22.4640,49.5794,124.0165,185.0668,161.2131,226.2680,50.8717,-21.0447,132.1210,7.8245,-8.2541,92.7425,-90.8440,-26.7345,259.1353,23.7982
-554.6875,-406.7746,-390.1861,-85.6907,-124.2910,45.7541,47.6005,156.6535,172.6254,119.9678,148.4015,-63.9112,-26.1473,16.7144,-70.1209,97.7049,161.7984,-162.9915,41.8388,186.7386,92.0905
-546.8750,-501.3019,-380.0126,-73.3842,7.3833,57.6058,113.8739,57.9522,166.2989,58.3911,124.2133,-17.0360,58.3825,65.9704,-23.4337,36.3229,26.5134,57.4895,88.0514,233.0043,67.0244
-539.0625,-260.0467,-351.0563,143.7191,-75.8190,128.2523,11.9448,129.0617,76.6382,56.6245,48.8565,17.6081,-55.3063,100.0192,-62.9647,-39.2315,-11.9362,-19.2652,12.0612,121.0755,-9.2277
-531.2500,-203.7124,-329.0209,49.9166,-103.8339,144.9868,26.9607,35.2721,82.7296,-36.0384,28.6249,-2.6503,-111.9048,43.1659,-45.3895,51.3118,115.7198,-68.9145,33.1761,37.2678,117.6199
-523.4375,-141.3383,-266.9495,10.1775,-63.9038,30.7634,14.8762,-4.4473,61.7332,33.3564,63.4685,177.1155,-80.4749,113.3530,-13.7780,48.9109,2.4507,27.4578,25.3419,99.5162,3.5130
-515.6250,-274.8578,-260.7497,53.5781,-150.1748,36.6892,-35.7861,111.9837,48.3911,112.9009,106.4950,-0.9832,-74.9172,46.6841,-45.0307,165.6691,156.3560,-178.0294,-3.3300,-35.0714,9.5669
-507.8125,-397.3823,-277.5737,-40.0129,-16.3528,14.6096,68.1693,-54.5660,86.3871,-17.5362,86.5458,13.9375,50.6139,99.0241,6.6938,108.4281,136.2578,15.4716,14.9936,19.3643,98.6075
-500.0000,-162.9802,-219.4752,97.3419,-11.9075,-31.5224,26.2478,8.8526,75.4431,-27.0057,41.5857,114.7805,4.0714,53.3029,-76.6551,26.1642,91.1440,72.8781,-32.7262,77.7587,15.6033
-492.1875,-254.9545,-205.7460,72.3283,-34.0992,-20.0135,45.4111,20.9253,107.0049,-14.8221,54.3197,-56.7411,-57.8358,-45.7703,-64.3570,112.5514,176.6886,14.9280,16.2116,56.8239,64.2516
-484.3750,-168.5350,-155.6345,52.7262,-17.2776,-40.1110,23.7282,1.4162,50.4137,39.7750,72.4770,70.1405,-78.3708,8.5569,-11.6752,56.3500,-26.3521,65.3510,-3.4560,72.2933,44.2932
-476.5625,-135.2993,-192.6998,46.9716,-117.6397,-44.3673,-10.8656,32.7578,61.2959,34.2297,104.5129,-82.1387,-84.0740,39.7286,-53.1579,125.0193,116.4888,-148.3929,-5.2657,-0.3839,112.1953
-468.7500,-367.3762,-320.0821,-124.0783,-53.2773,-33.9364,87.9725,-28.1962,141.3313,47.3953,190.2850,-144.7172,-37.0999,51.6100,-5.9520,136.3934,165.0415,-29.4514,79.6201,50.6557,196.7879
-460.9375,-308.7714,-331.7868,14.5745,-75.8361,-41.8127,33.2182,37.5676,102.2415,76.2661,147.7949,30.3834,-118.4543,81.1875,-51.0632,56.4855,122.3308,27.1448,32.2040,37.4001,79.0884
-453.1250,-367.7938,-285.1120,61.6088,-59.2103,40.6983,58.7742,11.7320,105.3584,13.5480,84.7331,-32.1150,-109.4232,-18.8291,-40.7819,103.9822,207.0275,3.1386,79.1951,-19.4340,125.7949
-445.3125,-243.5346,-231.1602,120.9544,23.0831,99.5069,68.3769,-3.7812,57.7276,-37.8527,-3.0060,98.6743,-88.1045,2.4549,15.7864,15.7861,-27.9698,161.4165,27.4838,69.0511,73.7864
-437.5000,-110.9713,-204.8829,184.6474,-63.6462,125.6722,6.7465,97.0681,40.4011,-10.9075,-47.3666,13.7801,-99.4465,-43.9243,-67.3028,42.9525,109.4060,-23.9726,-15.8629,-10.1068,100.1342
-429.6875,-310.0117,-228.2183,-26.2568,-45.3187,61.2303,88.4899,-39.6764,136.7118,-37.5608,72.6912,-49.6956,-54.4095,3.0968,-21.9981,54.5138,230.1755,-46.9632,102.1871,39.1503,182.8704
-421.8750,-213.2027,-237.7234,-66.3046,-110.9909,-16.3686,35.3962,30.4393,136.0383,69.6452,107.6288,19.6624,-131.5470,145.9606,10.1389,50.9393,117.8273,-93.1416,58.0808,169.2549,32.4605
-414.0625,-271.0257,-295.8469,-90.9641,-180.1860,-5.5776,11.4671,152.9509,147.6978,7.2576,157.0049,-115.5834,-121.2925,84.2181,-52.3371,173.7759,202.8964,-255.9267,71.3769,112.7730,80.4630
-406.2500,-250.9482,-311.0858,-180.7113,-135.0348,-21.8996,3.1757,173.3823,121.1724,64.7926,178.3082,50.0794,-102.1647,141.3817,-68.9330,157.5205,3.8757,-131.8297,-14.4395,203.2084,100.3591
-398.4375,-156.1996,-216.6436,-118.7587,-212.7272,-69.5197,-73.6485,272.5288,100.3572,275.0375,204.3380,-107.5808,-151.3641,130.2391,-117.8495,256.9914,29.5874,-285.0613,-95.5535,192.3537,88.9674
-390.6250,-297.8682,-147.6309,-344.2123,-159.8202,-148.5519,14.3433,120.2842,180.0311,306.8902,310.9956,-223.6274,-83.9810,15.7073,-50.1654,290.0590,172.9019,-285.6914,9.9427,193.1204,194.1624
-382.8125,-147.9088,-173.9988,-329.0080,-148.5495,-243.9318,-9.4355,99.7128,154.1237,359.3956,291.3335,-62.0426,-69.9743,66.8235,-36.8479,194.7839,41.8948,-207.7116,-16.9022,272.5423,61.9968
-375.0000,-94.6063,-191.9989,-277.4140,-227.5357,-192.9122,-41.8366,188.5423,168.5930,338.3046,270.1102,-268.0750,-129.5849,-27.6612,-132.1417,247.9208,168.3091,-366.3474,-33.3366,220.3718,150.2411
-367.1875,-225.1673,-216.8715,-341.6655,-107.4308,-221.7518,49.7403,87.5296,214.0166,200.3744,281.0665,-111.9485,-85.0635,-18.9862,-123.3016,183.2148,104.8746,-145.8500,48.3769,301.3683,195.6287
-359.3750,-89.1997,-151.2169,-192.3716,-150.4831,-220.0438,-34.2252,163.0811,141.1514,240.0033,284.6010,-1.2988,-84.0152,-17.7643,-158.9326,113.0838,34.0204,-221.8381,43.6415,227.9167,50.5815
-351.5625,-240.1022,-91.4305,-166.9345,-87.4641,-121.1985,15.1239,115.7867,86.5779,44.7928,164.3109,-49.4971,-23.8305,-29.3828,-61.4216,102.1058,97.3206,-197.6734,139.0545,41.6326,75.6891
-343.7500,-121.8182,-9.4590,-40.2854,-16.8785,4.8416,3.6202,95.7113,10.7459,-85.2037,35.2418,40.4985,-44.4635,25.2003,-8.7228,-27.6583,-105.1599,-46.3396,80.6579,54.5506,-18.0029
-335.9375,1.5201,-26.4165,16.4526,-123.8744,96.9806,-71.2017,152.7317,35.3223,8.9020,93.3011,-197.4274,-172.0025,-29.1265,-136.9209,103.6991,25.4863,-167.9134,-4.6291,39.5789,1.4208
-328.1250,-86.2030,-45.4484,-76.8491,-53.7142,113.0589,-23.0268,96.7155,72.6763,62.9695,147.3289,-108.3914,-156.6068,-12.5035,-121.1792,84.0026,-30.9162,-12.5330,12.0258,126.5830,17.7851
-320.3125,37.2199,-26.3510,59.0085,-53.1816,102.2874,-67.7465,159.8616,23.2548,163.1943,64.5317,-10.2292,-133.0772,-23.7469,-133.3063,0.4706,-114.1377,4.9758,-39.1739,146.7439,-103.6955
-312.5000,-112.2248,-37.1190,8.0120,-36.9737,123.6603,5.5259,108.1606,57.6243,111.5742,51.9074,-281.9037,-75.4113,-183.8314,-38.2885,60.0857,19.7888,-76.3632,56.7808,67.0778,-8.0306
-304.6875,-177.4689,-66.7065,-19.7696,50.6023,58.2278,66.3301,7.6850,75.6032,11.1705,61.5092,-90.3805,-30.5785,-102.7074,42.9049,-78.0869,-81.0833,104.4666,97.9318,143.6228,-73.1780
-296.8750,-81.7607,-75.3174,82.4315,-63.5365,86.7921,-39.9918,110.2142,49.9012,39.7700,19.1507,-24.8842,-76.7641,-73.5880,-112.9156,25.7549,96.0715,-45.7239,-50.8992,65.1747,-81.3161
-289.0625,-61.4260,-125.3000,-10.7165,-32.8766,66.9909,-4.9968,-19.6032,57.9110,58.0293,37.4723,28.2847,-61.3074,-19.8167,-97.0973,80.2365,114.8707,43.7321,-31.0758,51.3924,9.1810
-281.2500,153.9391,-17.2581,109.1896,-21.8037,-71.7649,-56.8299,-46.3489,-21.9125,67.3548,11.8805,257.4791,-52.8207,25.9979,-51.2485,-20.2081,-22.2558,82.1978,-96.2055,20.6643,-92.2723
-273.4375,31.4693,70.9584,124.2756,-32.2949,-94.3300,-28.8575,-67.8893,16.8486,9.8994,65.5233,51.8598,-39.1506,-68.9874,-37.2045,-4.4421,140.8289,-41.1398,-43.1317,-65.8381,-3.5191
-265.6250,7.8973,188.0486,65.2689,85.4065,-118.0083,10.7913,-90.5095,10.0512,-12.6298,81.0924,101.1426,46.3954,-55.0728,12.7270,-135.7696,-28.1756,110.4037,-66.1665,17.5764,-26.8790
-257.8125,126.9938,166.8203,80.9564,-34.3894,-101.9853,-57.9088,0.5812,-29.3221,41.5462,25.3859,7.0992,24.6242,-112.4713,27.3448,-9.3806,26.5520,-123.3786,-121.4987,-37.3035,-47.5224
-250.0000,-36.0397,72.4745,-57.4639,19.8197,-58.0669,49.8253,-101.4192,24.2320,-24.3671,-2.3949,-24.0372,104.7418,-140.9578,143.8548,34.9070,108.1744,-77.2630,-38.9275,-25.2583,69.7329
-242.1875,63.3116,-38.4994,15.5196,47.8969,-58.7493,50.5434,-64.9959,-2.3496,-60.8703,-74.7586,197.2177,103.2481,-31.0444,143.7492,-110.3879,-37.7818,57.2210,-7.9568,41.1926,-40.6133
-234.3750,41.6368,-96.4978,102.4946,-56.9593,28.5670,-18.5994,23.4234,-9.1382,-83.3753,-59.0983,62.4637,41.7470,-17.1317,9.6394,-22.6816,88.2745,-106.2931,-28.9759,-50.3438,-26.9539
-226.5625,38.5646,-28.9105,-7.9158,9.1972,26.4816,3.4258,-50.5464,-0.8253,-83.2752,53.1770,98.3198,76.8229,18.3836,44.1133,-96.3787,-59.0729,-4.2101,3.6027,18.7348,-64.7088
-218.7500,200.5186,62.7087,55.7249,-86.1227,16.4507,-87.0500,50.5429,-18.4434,-19.1254,44.5232,88.2153,-8.0714,-28.0579,-40.3801,-68.0077,5.6552,-159.0986,-44.7678,5.8592,-148.4062
-210.9375,126.7573,164.6071,-27.3319,-78.8858,43.7144,-67.4714,4.9349,20.7626,-64.6746,37.1833,41.4289,-92.6725,-111.1893,-124.5738,-3.3445,108.6786,-163.6778,-11.8367,4.3021,-10.8103
-203.1250,183.5443,150.0446,-1.8302,-32.9357,-5.4677,-66.3601,-6.1033,10.3469,-112.6632,64.4124,212.1700,-68.7395,24.2217,-137.2311,-88.1257,-12.7316,-37.7326,-25.3597,61.3004,-59.6691
-195.3125,79.3450,80.5163,-1.2954,-104.9818,-5.6051,-66.2603,31.9069,20.0384,-110.6012,66.7159,28.9448,-106.7623,25.6772,-100.8420,-12.8459,135.9183,-177.7377,12.1769,-41.6400,-22.4690
-187.5000,55.6362,56.4617,-24.2488,10.3100,7.7536,-0.1285,-64.5719,7.8942,-169.0224,45.5324,152.2396,-57.2933,2.6358,-13.9630,-108.0658,-32.9404,43.7570,59.2083,6.9343,-45.7823
-179.6875,330.1547,119.6325,158.0519,-5.7117,5.3627,-74.5294,8.2143,-53.8453,-97.1803,-27.3841,149.7701,-60.5857,-73.1598,-53.8394,-183.0161,-106.5263,36.4776,-52.5145,0.7558,-157.8431
-171.8750,223.8079,223.9366,79.4990,61.6873,0.1147,-0.0361,-69.8502,-17.8631,-174.1832,-31.1345,-113.5404,6.2688,-187.7942,-22.5674,-76.8164,37.0326,34.3537,52.9121,-69.2576,-52.7551
-164.0625,305.5045,270.2712,97.0054,145.0135,-94.0853,17.3014,-125.8490,-55.4547,-195.1301,-85.8184,50.1940,59.1522,-134.3783,29.7429,-169.5584,-166.3435,186.2572,65.3925,13.7873,-146.6251
-156.2500,283.9579,142.3796,186.2969,19.3246,-42.4879,-55.5294,-72.0450,-73.8142,-104.2758,-104.6718,28.7149,-0.1740,-155.1631,-66.1551,-78.4930,-37.9020,22.9493,44.6839,-76.3599,-167.6847
-148.4375,1.6676,0.7351,72.8446,62.0052,27.3547,32.9214,-111.9829,3.9510,-107.1615,4.7365,-85.4910,-5.2578,-121.6932,3.1826,-44.1884,-3.2229,126.8925,115.2182,-40.2490,-97.5055
-140.6250,67.3747,66.0828,109.3923,11.7951,63.1943,-37.4391,-38.9114,-47.2585,-34.0474,5.1614,-123.7070,-44.3548,-49.2250,1.5082,-7.8700,-39.5277,50.8061,40.7516,-79.1390,-172.3205
-132.8125,37.5224,106.8733,0.3862,-39.0212,63.4811,-55.7053,-36.3999,-72.3460,-141.4914,9.0406,-160.4596,-8.0068,-47.3009,-34.7088,141.8923,73.6136,-119.8148,81.7375,-212.5728,-60.6799
-125.0000,118.2859,151.2597,-21.9966,-18.0417,40.3692,-66.4541,-95.2831,-94.8074,-127.3396,25.5157,74.4049,-32.0597,77.2174,14.6663,10.2487,-95.6416,-40.8391,58.3107,-131.4124,-120.4454
-117.1875,83.9313,116.5379,52.5183,-96.4967,4.1564,-97.2831,16.7289,-56.0033,-88.2905,28.9035,1.1537,-69.2112,41.6239,-59.0607,12.5119,54.0235,-180.9711,23.7886,-129.3551,-119.2958
-109.3750,-147.2870,60.9619,27.1858,33.3953,15.0865,28.9723,-81.1050,20.8688,-112.0739,78.4504,-134.9386,14.7940,-57.8149,25.3579,-49.0748,66.8247,9.0546,40.4103,-77.1327,1.9964
-101.5625,-12.9625,-16.0763,172.4042,66.9507,11.5654,13.2543,-46.3641,-0.5694,-78.2923,41.5615,8.5031,47.3351,-59.7086,21.3128,-124.0945,-44.8056,142.6037,-70.4256,-11.3619,-74.1589
-93.7500,49.6495,-94.8283,235.9096,30.3281,38.3372,5.5393,-56.3281,-15.0636,-51.2061,-40.0125,-1.7575,35.1718,-107.3021,-26.4325,-59.8077,56.8683,99.4546,-42.9565,-88.2764,-11.0064
-85.9375,151.0653,-28.7924,199.2197,69.7617,-0.0960,-29.4818,-55.4797,-65.9068,59.6864,-75.7783,180.7894,-3.2009,-70.0935,-64.3795,-96.7205,-125.6561,235.0978,-80.6921,-20.3792,-85.0636
-78.1250,260.6511,10.4307,206.7282,-62.8104,-29.3205,-116.0552,173.5744,-52.9364,178.7672,-28.3387,41.5303,-143.3769,-98.6888,-131.1340,22.5722,-79.9622,26.9362,-111.2193,19.7166,-150.9134
-70.3125,22.1788,17.5910,-7.8028,-46.5786,-60.5940,-52.7379,143.5805,9.2204,222.7943,53.0519,-137.7537,-65.6018,-93.3266,-52.9377,139.7972,37.6649,-36.2472,-66.7961,29.7713,-71.8248
-62.5000,77.6567,72.6929,-17.3661,-42.6367,-143.9087,-87.5293,171.5457,-20.5907,213.7710,82.3888,36.9028,-39.8868,44.9814,-26.7982,20.9736,-43.7481,-16.4927,-116.4226,51.7699,-191.7902
-54.6875,35.3133,29.9835,45.2609,-109.7747,-82.0225,-95.3356,198.7041,25.8729,166.9432,146.9326,-196.2465,-125.9700,-76.5152,-112.4537,121.3468,130.0401,-129.5274,-86.8411,-24.0266,-92.5482
-46.8750,-9.8679,-15.5830,-1.9517,-28.1963,-93.9847,-25.8877,77.0218,26.0658,82.2726,101.6254,-60.2237,-101.9079,-13.8544,-50.9688,74.8634,46.9606,35.5915,8.8797,2.3386,-67.1677
-39.0625,122.1399,-24.9539,104.0358,-118.8322,-98.7399,-104.2050,110.5455,-36.8044,41.8026,61.5219,81.9881,-108.6449,55.0036,-57.2839,33.5901,43.0915,-115.1017,-34.2008,-75.1049,-145.5817
-31.2500,-35.8660,-77.3319,8.0206,-116.1458,-48.4984,-52.2525,-21.9391,32.1852,-89.6621,152.4261,22.2132,-95.3754,68.8636,-80.5939,49.3119,169.2103,-132.7764,20.7180,-90.5385,-21.0007
-23.4375,55.7270,-56.1230,33.6187,-70.0289,-23.6557,-68.3120,4.1914,7.1254,-27.5099,141.9455,120.0294,-108.5100,204.3182,-130.3248,-108.3595,-25.0598,-6.8722,7.2294,2.6197,-69.8203
-15.6250,29.3481,-12.8755,76.2576,-75.0340,55.2390,-63.6991,84.3679,-30.1717,52.6901,3.5257,-96.1125,-67.5977,99.8142,-89.0059,-27.9775,55.7274,-104.9077,-19.2007,-92.1611,9.4216
-7.8125,45.5834,72.9671,-17.4940,85.1354,34.7314,33.4080,-44.8452,-55.2618,-39.5054,-124.2964,31.3680,94.9077,6.9126,73.9162,-46.0086,-71.9062,86.6657,-2.0353,-40.3293,26.2472
-4000.0000,130.5139,104.5253,42.9123,62.3846,27.2125,-8.7204,-13.1461,-73.2279,-35.8865,-115.5554,85.0143,59.6404,16.0786,43.3625,-75.9887,-120.0445,74.8660,-41.2043,-22.7846,-41.7540
-3992.1875,-121.2884,-6.7122,-3.3559,44.9826,17.6631,51.5994,-24.2547,18.9214,-10.3207,-54.2436,-108.4985,49.6478,-67.6180,33.1410,22.8911,87.1488,33.1405,56.3091,-31.2162,20.5625
-3984.3750,-187.5537,-108.3946,3.9160,55.7448,-49.3358,45.7523,-17.8211,40.1594,143.7879,23.6112,-26.4480,-15.7769,-23.7599,4.4782,-44.6853,18.8829,177.9849,57.3801,40.8993,-83.5686
-3976.5625,-20.2999,-11.5730,67.7012,-31.2366,-22.8383,-15.2642,45.1162,69.0547,58.3970,120.9554,-182.8922,-135.6997,-181.3970,-115.6800,-19.7639,190.1123,27.3151,81.9471,-40.5034,-95.2086
-3968.7500,4.1819,118.4950,-93.2783,11.6931,-73.0952,35.6261,-79.7089,124.3757,-103.7441,252.5503,-196.1097,-149.3677,-232.7879,-56.5806,-109.5794,210.6099,50.8920,173.7681,-18.6702,-73.5809
-3960.9375,205.7675,178.6555,-61.1522,-100.7078,-152.2592,-72.8611,-85.4374,32.2193,-35.7802,245.2439,-16.2030,-190.9375,-164.0696,-24.3839,-152.3030,93.1930,-135.4084,161.6861,-65.7320,-226.8569
-3953.1250,32.0114,215.4558,-214.3652,-127.8249,-194.7754,-49.6991,-165.5141,47.0043,-79.1636,347.5916,-204.6482,-121.8699,-243.7022,-29.5431,-49.3640,232.4404,-310.0754,267.2524,-207.1521,-86.4813
-3945.3125,-37.1598,180.8554,-287.9880,-23.0796,-195.6987,8.5961,-204.0015,51.3372,-80.9571,344.5389,-94.4851,-86.1927,-170.7331,6.9024,-162.8321,45.2863,-99.1307,300.4276,-102.9772,-88.4970
-3937.5000,27.2430,68.8139,-111.0478,-97.1383,-92.0758,-46.5755,-63.9308,43.0587,-51.1956,225.0319,-136.7527,-238.9645,-177.2047,-110.1100,-96.7537,72.6649,-106.6404,256.1384,-77.2586,-132.9697
-3929.6875,-176.1524,-64.0220,-68.9142,-14.2613,23.7430,54.3942,-58.6596,83.0796,-158.2370,154.7324,-203.8324,-196.5318,-172.4828,-30.9268,-93.4630,112.2616,42.0384,332.0466,-71.3562,-92.2261
-3921.8750,-152.7275,-147.0603,109.0170,-8.7117,53.3544,25.2159,6.4050,39.7170,-129.4808,35.2337,-26.0929,-129.3019,-68.9551,36.0523,-175.3744,29.6544,99.5313,176.7520,-15.6443,-247.6844
-3914.0625,-271.7460,-231.5612,125.5049,-55.2488,143.5171,19.4945,60.0335,50.1381,-76.1561,-23.7124,-118.8105,-112.5355,-52.8857,16.5668,-50.7129,190.6144,14.5523,89.9988,-67.3860,-158.5894
-3906.2500,-199.5420,-194.8291,124.2295,47.1052,178.9310,58.4458,-16.0856,46.7483,-78.5709,-64.4022,28.7178,-39.5219,-17.5638,52.3310,-89.7863,3.8264,191.8307,18.5016,73.1303,-124.2294
-3898.4375,1.0227,-135.7554,259.3130,-5.4065,166.6950,-4.2128,82.1623,32.0327,-54.6219,-115.7437,-19.3897,-88.1700,-29.8744,-33.5636,-30.5062,25.3783,110.4572,-64.6561,94.9993,-137.5283
-3890.6250,-161.6692,-157.9353,82.1441,58.8188,99.2096,93.2922,14.1666,116.4761,-86.9280,-38.3324,-122.7718,28.9283,-97.4401,9.2868,-25.4562,66.7098,121.8179,15.9384,175.6004,-22.0620
-3882.8125,42.0837,-130.6747,77.4216,56.9243,20.1700,33.9965,44.6106,63.5381,17.2136,-8.4765,57.3128,-12.5129,-66.5427,-32.4112,-105.9525,-197.5143,184.6480,-29.0204,271.6543,-102.1429
-3875.0000,49.1976,-160.0687,77.0592,-83.8102,56.4779,-34.2209,154.4235,63.3859,53.7163,25.7257,-89.2537,-85.6035,-140.2919,-178.7676,39.9150,-53.3801,-91.1952,10.3619,170.0481,7.1273
-3867.1875,-261.7662,-155.5150,-141.3722,-13.0751,-52.2683,68.7226,8.1767,125.7841,54.1669,135.8965,-123.8813,-46.7414,-65.0930,-67.1728,76.7412,-53.2770,-17.0986,187.7104,207.3846,44.3626
-3859.3750,-212.5365,-105.7718,-123.6027,-103.6362,-70.8221,-10.4971,136.1364,85.4917,107.8202,151.2791,-178.2961,-101.6876,-10.6798,-85.3839,92.7694,-38.9733,-179.8053,165.2563,148.9287,-49.2091
-3851.5625,-357.2635,-75.0042,-206.7794,-112.7671,-45.3186,6.1947,124.1597,97.1627,22.5250,211.7196,-297.6766,-75.6011,15.7852,-59.5598,153.8726,95.4041,-254.4805,157.8463,36.5122,49.2848
-3843.7500,-310.8967,-100.1510,-194.8661,-85.2282,-69.7179,15.1761,62.2750,59.8407,34.3330,148.2620,-63.9445,-25.4154,101.3615,63.3622,91.0793,31.8762,-175.0398,95.5426,44.2012,-13.1116
-3835.9375,-278.8192,-207.5949,-164.2408,-204.7548,-113.4208,-24.6915,92.0930,59.0239,62.8433,176.5057,-107.5124,-69.5393,57.6368,56.9773,192.9930,243.0542,-352.9142,55.9366,-100.4202,52.1896
-3828.1250,-414.6672,-203.9500,-237.5259,-71.5291,-150.0267,99.2543,-91.9932,143.2106,-84.5592,247.8595,-32.9957,4.4276,20.0037,130.6898,81.0225,314.3547,-138.6916,128.4374,-63.9429,124.6085
-3820.3125,-248.8074,-108.6275,-98.1086,-76.4833,-120.9305,46.6054,-63.3707,112.4264,-56.2499,201.9173,-37.7662,-0.9176,14.0790,87.0929,-0.2422,269.3485,-149.7565,80.6342,-41.7476,6.7237
-3812.5000,-346.0045,-171.3774,-204.7428,-93.5564,-80.8780,68.0298,-96.7736,136.3052,19.0292,202.9335,-217.6169,-35.3211,-57.9026,53.4327,148.4648,306.3250,-177.8997,155.7739,-36.6095,81.8008
-3804.6875,-224.0348,-225.9464,-111.1901,-61.2326,-23.6269,22.9355,-40.9865,93.3831,76.5088,147.1624,-12.2752,-50.5255,73.3204,-36.0217,57.3826,30.5153,-20.8303,65.1255,118.7370,-8.9098
-3796.8750,-105.6599,-214.1369,10.7753,-125.4555,24.0258,-49.7859,79.2128,44.9588,49.3917,82.7954,-37.5306,-76.3476,46.9508,-99.0908,176.7140,113.1189,-115.3686,-66.1277,23.4828,0.7756
-3789.0625,-118.3968,-121.4439,-45.3647,-29.0521,4.5812,1.3677,-49.6824,34.0586,-6.8251,25.3338,18.0978,-21.2752,65.4819,-80.2741,229.9723,54.6490,12.9795,-44.4835,43.1226,91.3814
-3781.2500,130.5613,-49.0529,71.1943,-74.8620,-26.1640,-104.9654,29.1249,-49.9714,144.6589,-45.4252,135.4496,-88.5038,181.7300,-111.7631,234.9313,-88.1321,14.0362,-221.1420,78.4678,-14.3107
-3773.4375,88.6105,-56.5640,19.8599,-70.7396,-40.8097,-48.2662,50.0424,-2.0005,129.2475,-24.0737,-98.1147,-29.6415,56.0836,-52.1624,329.0106,115.2107,-63.8396,-194.7031,-1.0999,117.1071
-3765.6250,-2.7121,-78.4363,-2.8430,60.7776,-99.8116,46.1089,-10.3970,-7.7210,105.4811,-86.0632,25.9646,95.8714,70.0946,109.0880,230.7548,-55.7778,124.9339,-148.6069,80.9831,93.1910
-3757.8125,36.0655,-179.2308,75.5564,-47.9123,-96.7222,-10.7464,104.2772,-10.1744,145.8342,-83.9422,-42.8577,63.4705,74.2147,39.4276,270.6155,18.3464,-48.2040,-147.4215,47.1788,59.3732
-3750.0000,-193.7358,-199.6009,-61.6080,-6.3504,-50.1879,47.1958,39.4074,26.8512,80.6449,-40.3486,-105.2672,109.5130,45.7781,12.2097,277.9626,63.9608,-31.9176,-63.7808,25.8198,178.0309
-3742.1875,-35.4598,-6.8828,-5.6861,-1.0538,-30.5663,-16.4202,-14.3678,-34.9054,26.5597,-21.6435,136.4284,56.6608,103.4464,-40.8999,76.4154,-28.3226,-15.5245,-83.0318,-28.4368,123.7952
-3734.3750,34.6167,133.6284,-10.9531,-57.4146,-37.1444,-35.7348,-94.3316,-26.9061,-90.7316,42.8711,56.9109,14.5998,23.9096,-84.2189,69.6796,146.2173,-192.3491,-15.4877,-172.8968,226.3640
-3726.5625,-77.7691,-16.3262,-92.6765,0.8648,-82.1699,34.6992,-176.7511,23.1718,-63.4852,69.9474,159.9281,42.0819,124.9194,-17.9917,-13.4925,63.3255,-24.6208,44.6115,-42.8040,180.5012
-3718.7500,-10.2019,-123.3463,15.5573,-111.2957,-46.2490,-40.4442,4.7870,6.0360,44.7197,29.9758,11.9045,-31.4994,123.8930,-92.8244,93.2891,95.3803,-167.9386,-30.3408,-46.7537,141.5851
-3710.9375,-223.8565,-126.5845,-141.4130,-90.8722,-21.5310,32.6112,-42.8667,89.6173,-3.2662,126.8186,-144.3484,-5.2936,2.6616,-66.8667,190.9023,193.2715,-207.4848,34.5107,-16.9164,276.4861
-3703.1250,-237.8267,-72.1305,-150.6913,-26.5519,-67.1199,49.4421,-16.8241,124.1177,58.4530,188.3760,-6.8963,21.6144,29.1405,-40.2149,70.2316,70.8683,-81.3266,52.0542,141.6297,119.0962
-3695.3125,-217.6857,-17.5835,-129.8612,-86.0500,-11.6110,3.9046,113.3313,112.7888,78.2782,170.0376,-241.3462,5.6178,-96.2770,-92.4759,163.6824,200.5875,-238.0894,34.6832,53.2784,101.8129
-3687.5000,-216.7265,-17.2030,-240.1948,14.1581,-48.2569,43.1453,38.3275,75.1426,76.9448,167.5585,-167.9666,42.4716,-60.8477,-20.8870,125.0022,50.1883,-28.0065,33.1755,51.7815,100.4028
-3679.6875,12.4221,-33.6470,-35.3259,-29.8147,-63.7067,-52.1471,96.5305,-34.2872,208.8150,3.2936,1.6162,-8.4851,-39.2092,-72.1053,108.5261,-40.0092,-9.7210,-91.1265,-1.5036,11.1899
-3671.8750,-38.6940,-50.3626,14.2906,21.8281,-13.4000,7.1048,35.4972,-36.1501,73.4336,-131.2000,-21.0842,41.2964,-61.8282,-21.5935,157.8304,45.5750,43.2833,-108.6766,-55.0415,133.7424
-3664.0625,48.2173,-35.0423,106.9434,63.7090,-33.0516,8.9691,16.5085,-23.7287,17.0971,-115.6216,181.2513,60.1242,65.6032,-4.0319,27.1886,-11.7774,164.3473,-200.1635,28.4826,77.3531
-3656.2500,30.0767,-53.7805,122.5547,-79.6972,19.2489,-65.0060,105.4867,-8.1832,142.7234,7.9164,50.5212,1.8814,6.9839,-61.5332,115.5110,148.8402,-99.6603,-220.7031,-61.0397,91.9095
-3648.4375,-132.0965,-145.5462,-13.8427,-44.3825,-6.4500,3.2103,41.4725,63.5984,152.3454,163.4665,24.7659,12.6320,17.3699,-14.0375,124.8658,157.4882,-17.6790,-139.2384,-14.5700,138.4869
-3640.6250,26.6162,-162.4283,44.6642,-126.4504,-22.2508,-86.8885,136.3592,23.9877,283.8602,182.9223,47.9326,-75.7232,112.6740,-66.6474,109.1309,141.0409,-70.7936,-228.8765,-35.1928,48.9673
-3632.8125,-84.0348,-98.6837,-78.1745,-133.6336,2.5966,-68.2847,159.9049,37.2553,270.0213,168.0340,-147.2634,-50.4379,62.6388,-115.6206,205.0721,273.2797,-181.2907,-166.8667,-112.1687,182.1125
-3625.0000,-131.4148,-111.6588,-128.7359,-74.2012,-48.2616,-38.7866,108.7438,5.2193,291.4787,152.4594,22.8277,9.1457,122.9105,-55.2914,153.3238,73.8433,-89.4908,-110.5400,-56.8325,167.5726
-3617.1875,-110.1424,-125.9908,-108.6447,-178.5394,-28.4770,-76.0202,165.2477,-7.8207,237.5920,170.5549,-66.4539,-43.6239,68.8336,-72.3230,209.2424,128.0727,-315.0608,-21.5706,-142.8509,186.6845
-3609.3750,-278.9565,-120.3773,-217.6225,-98.7596,-64.7442,1.9726,18.6986,-9.4980,127.6511,206.6225,-64.8230,30.5625,70.6938,1.5899,208.1370,91.2848,-238.6985,88.3589,-208.9213,296.7729
-3601.5625,-64.0867,-46.0842,-135.8969,-111.4233,-130.3098,-57.7089,-10.1502,-59.7609,207.4091,175.4002,89.5163,38.4392,114.2598,10.1972,104.7379,-12.8053,-235.6219,-15.0103,-172.2728,193.5643
-3593.7500,-23.2766,29.1299,-135.2109,-130.3283,-129.9209,-47.1342,-10.0266,-45.2633,171.1222,102.1407,-91.2147,40.2394,42.7764,10.7320,178.3171,170.0860,-336.6227,-11.4288,-238.6671,267.3112
-3585.9375,-59.4095,28.4112,-135.4379,-15.1176,-130.4274,24.1018,-83.8040,-19.5337,96.9327,63.0059,56.1299,112.1320,78.3937,83.3596,68.0128,95.1127,-126.5207,-14.7387,-136.9461,229.1753
-3578.1250,73.8982,-15.8746,5.7932,-53.3001,-99.4854,-30.7971,19.8809,-45.2233,126.2035,19.3362,86.9166,70.4609,-0.5293,4.4280,60.1651,86.6036,-134.9801,-59.6076,-145.7586,149.4887
-3570.3125,17.3859,-1.9770,-16.7874,4.0805,-49.3450,3.6229,-40.2298,-27.4558,29.6686,30.8813,100.8677,46.9836,-23.2623,-18.3055,0.5506,62.3318,-15.2616,-12.2626,-133.3726,162.0205
-3562.5000,237.9524,6.9958,70.7201,10.7153,-36.1104,-45.0871,-64.2364,-77.3340,-31.7683,-31.4666,299.9174,-11.3921,64.1138,-41.9365,-132.9539,-71.8378,97.5637,-75.8081,-91.8700,28.6510
-3554.6875,209.1581,-23.4143,73.8887,-53.1750,3.7799,-50.5240,-24.5698,-38.7158,7.4460,6.8499,46.5996,-45.1323,-43.8594,-74.9350,-21.7835,113.6717,-37.9844,-36.7052,-157.7197,67.9296
-3546.8750,-10.6693,-31.8427,-7.9520,35.3509,-41.3213,20.0804,-105.9045,12.6104,109.6484,71.1877,76.2669,-15.8802,-51.8290,-9.9403,-67.5933,67.1976,128.4627,23.4070,-63.5717,22.2283
-3539.0625,88.4908,-39.2830,135.2169,-52.2641,27.5742,-66.7714,-0.2410,-34.2245,140.8459,28.5387,34.9420,-93.6402,-18.7801,-87.9567,-35.3955,60.7237,15.9073,-20.4761,-107.4200,-56.4727
-3531.2500,-35.4230,-22.7887,73.3329,-27.0514,76.4192,-8.1042,-26.6265,-18.5776,-32.0168,0.8598,-26.4613,-45.4592,-7.7751,-40.0390,11.7782,71.2457,-37.7339,65.5920,-126.3294,64.7988
-3523.4375,62.0961,3.1509,30.8839,-2.8550,33.7096,-22.6137,5.4304,-43.7737,-1.4326,31.6469,116.5757,23.1700,134.6854,-7.6720,-104.5884,-119.7678,-11.9209,89.1145,-31.7781,-51.4616
-3515.6250,72.3624,-56.1608,3.1886,-101.7833,115.7445,-57.5692,86.2486,-47.8741,-68.0905,38.1996,-21.6672,-4.4686,105.8931,-36.5717,-60.1764,-2.0018,-212.3839,98.3796,-128.4741,-6.9582
-3507.8125,-40.0556,-29.1546,-117.1781,31.8939,68.1184,43.7113,-71.5897,-17.7318,-189.4122,25.1237,78.4152,131.2425,131.4495,25.8795,-218.3880,-14.8463,-44.5060,160.0085,-100.8113,54.9225
-3500.0000,88.3631,168.6718,18.3066,42.2343,20.3385,-21.6807,-9.5732,-82.0258,-163.8864,-24.0964,104.3616,120.8033,120.8663,15.1857,-303.7427,-100.8365,-57.7737,39.4851,-117.2760,-30.3506
-3492.1875,-2.4324,219.2825,27.5952,78.6003,29.3652,28.2330,-109.7338,-49.9159,-191.5572,-15.4965,-67.9301,131.1511,-16.9276,61.2803,-257.2730,18.0072,-43.2672,17.7549,-172.9373,89.1862
-3484.3750,131.9861,106.1246,96.1270,126.5673,-50.3585,52.7860,-226.6440,-44.2217,-87.9778,-59.6257,73.0137,124.7441,-22.4702,92.6218,-263.5437,-61.8839,160.5011,-25.7202,-76.3259,45.9835
-3476.5625,187.4955,20.0418,152.7728,10.2711,-66.9732,10.1148,-169.4371,-20.0090,40.7069,-77.6404,-53.9597,35.4184,-147.9140,39.0501,-24.7001,104.3453,4.3529,-8.0967,-93.6089,28.8807
-3468.7500,-91.5286,-48.5602,7.9025,66.1379,-65.0898,88.3609,-130.7355,57.9748,41.8821,32.8682,-87.4771,74.5864,-182.8625,77.9700,13.6742,68.1191,76.6822,99.0462,13.6115,30.3020
-3460.9375,99.9319,1.3295,102.5242,-4.7107,-43.7076,-14.2726,35.4649,-6.7605,-11.4441,14.8930,43.5082,21.2451,-52.2994,24.3785,-76.4397,-59.6165,-14.4889,6.6971,26.3501,-96.7756
-3453.1250,137.2746,144.1016,-9.9535,-17.9136,27.5783,-28.5514,106.5846,-15.2804,-88.8671,-25.1610,-105.6377,-17.2204,-54.8433,-51.3313,31.3704,-63.4219,-118.7929,77.2576,26.9897,-25.9436
-3445.3125,105.7299,252.9979,-39.2970,67.8001,35.0091,-39.1510,150.8491,-82.5528,-81.1418,-129.0331,87.3376,-46.5454,100.7621,-79.8948,-71.6584,-313.0520,61.0530,114.9846,99.7943,-128.9492
-3437.5000,174.5313,180.2185,106.7179,-4.4637,106.7859,-75.9384,223.4748,-78.2436,-120.0596,-168.5374,12.6581,-120.5446,135.7296,-118.1222,-184.3215,-169.3098,-11.7660,76.0561,25.9606,-167.6112
-3429.6875,43.4454,48.5675,77.8745,65.1779,150.7151,10.0989,46.2527,2.1734,-113.8411,-51.8634,-89.9007,-113.3998,-4.1537,-74.2070,-103.8085,-126.3771,172.5426,119.2872,69.2738,-124.1039
-3421.8750,78.7851,-92.6568,230.4754,18.0720,120.0917,-37.3639,14.4736,-33.1383,37.8041,-47.7278,25.9869,-144.8043,1.4223,-31.8308,-24.8444,-231.9862,207.3181,46.9762,103.0470,-266.1403
-3414.0625,-80.9839,-146.9885,241.9905,-22.7610,204.3701,3.3150,62.6032,25.0018,-135.6585,-111.6878,-146.2599,-170.3111,-24.1072,-58.5580,22.0285,-1.6634,82.9704,97.5627,47.7195,-145.2663
-3406.2500,14.2627,-17.2654,119.5428,80.0215,118.6963,35.5873,-23.2319,35.9946,-185.0865,-87.5859,-10.4835,-107.7584,38.4073,-33.2268,-100.0439,-87.2667,247.6686,50.2123,140.4459,-157.3202
-3398.4375,294.9618,50.9088,158.5479,-21.5278,83.4706,-93.2875,51.3875,-4.5193,72.9311,-51.0299,-82.2570,-179.7611,-70.6224,-142.4522,47.3379,-13.4116,140.8047,-128.6903,103.6324,-229.9217
-3390.6250,125.6361,-12.9352,121.5460,17.3592,83.2448,-44.8292,-21.9906,-15.9021,108.9425,-89.4561,-82.0670,-106.7751,-70.6603,-105.6859,193.7448,21.4769,181.9201,-123.5813,37.8283,-83.4994
-3382.8125,222.4845,13.3980,186.7327,54.7400,38.2145,-43.2000,-31.1710,-64.3795,26.1468,-172.6613,167.3125,-41.5930,68.5087,-3.7204,75.3567,-97.4330,243.2506,-204.2545,63.2434,-128.8774
-3375.0000,179.8758,40.2660,137.4776,-15.9063,61.7377,-38.2154,-43.7880,-15.8685,-24.0981,-149.2950,45.2125,-16.8798,55.2229,-16.2247,98.5387,109.2319,24.1056,-176.3741,19.2093,-31.7097
-3367.1875,40.3715,-28.7393,101.3593,84.8132,62.4125,48.5842,-80.2631,34.0063,-24.2057,-185.7513,119.2307,-16.0260,130.0764,21.4187,-11.1112,-37.9226,236.1102,-107.3263,195.3359,-31.3752
-3359.3750,210.5924,-141.0155,247.0003,-37.1345,60.8419,-52.2528,102.0184,29.1088,120.4303,-153.4388,80.9893,-165.4362,127.6796,-91.1946,59.9862,-77.3171,158.8665,-185.5163,258.2330,-144.2946
-3351.5625,21.8278,-154.2580,81.6893,-67.1891,79.3264,-7.8733,83.3563,127.0920,138.1102,-25.0492,-157.2465,-218.8139,36.3249,-109.7641,189.1541,87.3797,75.6457,-93.6466,280.1792,-52.1562
-3343.7500,8.7350,-132.8203,34.0607,-22.0638,31.5043,7.0503,109.3854,117.9116,162.4842,-0.9400,-21.7880,-157.4896,62.6738,-47.6239,30.0268,-35.2132,132.1311,-73.0671,334.8428,-137.3178
-3335.9375,34.9033,-177.1388,21.6940,-102.4000,55.9318,-34.8286,206.6808,111.6084,223.1122,22.4214,-144.0945,-132.9262,-22.7252,-96.2485,128.1637,25.4559,-52.1551,-118.2445,290.7646,-76.2356
-3328.1250,47.5360,-269.9731,-43.1875,-19.1238,64.8633,20.6803,104.4775,109.8956,268.2289,30.2970,-24.9389,-87.8654,-14.6259,-88.3756,62.8227,-113.3511,135.0534,-71.9089,337.1997,5.3639
-3320.3125,229.1434,-264.8311,149.9316,-71.7009,109.7949,-52.9555,187.2795,48.7694,202.3421,-72.8130,131.2058,-152.8069,30.4797,-153.4933,33.4844,-106.1577,106.2707,-137.5647,271.6548,-60.0467
-3312.5000,38.5338,-244.9043,127.8594,-51.3653,160.5385,15.1684,53.8944,87.5800,-5.7480,-95.1089,-1.8916,-99.9583,8.3758,-100.8246,121.9676,128.8707,55.2569,-82.4220,148.9010,64.3556
-3304.6875,1.6957,-107.1738,130.5753,64.1704,90.0814,37.3820,-53.7101,34.2440,-3.0583,-94.5877,148.8028,-24.3048,85.0729,11.6415,14.2516,-90.2905,229.0451,-86.4627,181.9487,-43.4186
-3296.8750,13.4586,-24.8361,180.9028,-16.5400,103.2199,-23.5760,69.2814,-33.1963,9.2191,-156.4609,15.0933,-11.0496,61.3711,23.7054,63.1359,-3.8412,-5.5802,-74.9056,16.5972,-67.5888
-3289.0625,-177.6996,29.5985,12.3183,73.4785,45.4572,75.2560,-62.6319,-17.0339,-122.4166,-140.2411,-43.5517,78.3067,77.7542,149.8785,42.1391,10.7446,48.8847,48.7639,-35.6461,21.3599
-3281.2500,13.8767,150.7746,-3.5142,31.4183,-44.5617,3.7649,-4.7938,-61.3165,-104.3012,-122.2841,50.5555,61.4096,97.8978,133.8022,-48.1022,-79.9191,-40.8935,-6.8096,-20.1224,-68.9472
-3273.4375,-10.3661,161.1352,-107.1450,-1.1995,-39.3797,-9.0083,0.2609,-19.8186,-25.9888,-116.1173,-89.1667,30.6891,30.2400,-8.0932,104.8808,72.6593,-99.5093,-32.1763,-10.3927,46.9506
-3265.6250,83.9020,114.0294,-47.2534,51.4375,-51.6566,-27.3926,-12.1432,-46.2405,108.8649,-166.3771,154.6378,18.5127,55.1404,-93.4362,92.4242,-123.1874,98.4189,-113.9762,117.9029,34.4130
-3257.8125,236.1809,89.9160,74.6394,-62.0733,-3.9368,-79.0899,72.4573,-16.6559,154.7191,-156.6314,55.4208,-44.6676,-7.9530,-155.7787,138.9678,-4.0195,-100.6723,-139.7802,128.2115,44.8759
-3250.0000,-25.7290,72.6327,-130.6308,-7.3569,-24.3690,38.8373,-22.0941,95.7352,95.4101,3.9788,-75.9861,8.0076,-28.2162,-30.2611,117.3742,84.0338,-82.9273,-15.7139,181.3782,133.2100
-3242.1875,31.2745,25.2823,-136.9489,-20.9314,-68.8497,14.8777,80.2942,60.7718,88.0412,-3.4470,64.5598,1.6385,38.4657,72.2167,37.7152,-69.9708,-61.2139,-65.6821,238.5051,-20.5085
-3234.3750,-28.1372,-69.4710,-128.6584,-61.7480,-24.7262,32.1577,161.2902,63.2096,-51.7308,-34.2523,-111.3276,45.8586,8.7337,80.2883,118.6625,84.6381,-189.9233,-20.0468,108.2338,60.3729
-3226.5625,-115.6356,-18.2725,-147.4364,102.0693,-6.6564,113.5115,69.2243,20.6126,-254.5561,-163.0832,52.7017,137.0294,100.9450,171.3077,25.5695,-81.7861,72.3131,31.5537,123.9259,41.2193
-3218.7500,4.6530,138.7226,19.5813,57.2443,14.2086,20.5839,125.9646,-38.4585,-235.5699,-181.0909,-0.4801,83.9886,46.9640,81.1200,45.2768,-62.3984,-17.6640,-24.0438,33.4366,-49.1476
-3210.9375,-170.7785,138.0071,-59.1025,93.7744,45.3791,75.8556,10.0138,14.6423,-278.3159,-112.7803,-115.4051,116.2389,-31.7179,76.2321,114.2984,116.3266,16.6340,9.6681,-37.7601,55.7977
-3203.1250,-25.9778,106.5263,21.4568,87.8803,52.8000,31.1425,17.3053,-23.3965,-272.8339,-108.2106,110.9103,85.7449,49.8516,46.6047,10.5713,-24.7049,91.1967,-57.3584,1.3101,-11.0039
-3195.3125,34.0180,97.2353,43.2229,-43.8969,74.4195,-16.1094,75.7982,30.1047,-288.1410,-13.4260,-49.5973,-38.5568,-38.3871,-77.8256,106.0585,217.4778,-129.0582,-32.1831,-78.4054,84.3839
-3187.5000,-47.3197,120.6393,-118.3271,24.3790,22.7338,62.0075,-49.0185,91.5963,-340.7520,81.0811,8.5609,-16.1619,-15.9340,-19.5505,17.2563,165.3824,-35.6220,60.7135,13.5835,142.4763
-3179.6875,111.4349,68.1459,-59.7775,-65.1561,6.1432,-12.5986,44.2589,57.7535,-247.2739,101.7117,-8.1911,-32.6735,40.6193,-36.1729,37.5416,149.3859,-158.0878,-27.2798,-4.3164,89.6544
-3171.8750,-88.5374,-27.0456,-164.9345,-20.7752,12.8572,82.5021,-23.1600,115.4821,-243.5050,105.6673,-149.6905,10.1102,10.4586,43.5010,116.1308,227.7283,-112.2862,54.0361,6.0791,205.1426
-3164.0625,-117.6427,13.6632,-152.2117,90.8102,-48.5378,131.1337,-11.7008,113.0479,-304.8471,44.5500,8.7035,21.8029,59.1897,92.0893,-54.3937,55.9806,104.4211,129.2736,117.3896,70.5312
-3156.2500,-85.4905,81.6183,-44.2404,30.1770,-13.6924,89.5973,61.0171,88.0623,-306.9348,5.7057,-175.6707,20.7353,-52.8381,90.9222,-56.6675,164.4881,-74.6499,125.7674,8.9607,32.1579
-3148.4375,-188.1132,83.8170,-151.0403,142.2376,-11.5993,186.0668,-84.0183,111.4208,-379.7837,44.1340,-136.8406,132.9109,-122.6290,240.0035,-163.6756,129.2617,68.5123,198.5332,10.7821,34.0493
-3140.6250,-9.2512,87.5153,4.6526,77.1008,-38.0101,79.6066,-37.5545,34.9242,-297.1488,16.0837,-17.5108,69.5785,-76.9112,175.5819,-192.1927,-8.4775,36.1782,95.8116,13.1199,-103.5654
-3132.8125,-188.7079,12.9099,-3.9541,58.4195,26.2793,88.6791,-47.3837,74.8714,-270.8143,43.7629,-173.5157,23.9308,-122.5077,56.8542,-16.9998,129.5129,32.5107,125.7994,-25.8365,-2.4823
-3125.0000,-160.6004,-64.1085,66.0217,133.1635,22.1665,93.4375,-50.6239,28.6832,-201.8705,2.0733,-30.9380,56.8806,-52.5095,52.7292,-94.2111,-94.8850,236.4483,119.4014,36.8289,-79.8042
-3117.1875,-28.6887,-73.3370,167.8064,16.5641,123.8547,-0.5241,49.9479,-11.0762,-176.1212,-43.7970,-114.5665,-25.3763,-98.7094,-66.6011,-66.6236,-30.4801,51.1751,74.7945,-42.6995,-89.3436
-3109.3750,-154.6468,45.5799,-6.2687,83.0329,96.6942,68.6655,-50.3336,35.0717,-239.2351,2.5061,-140.0853,-15.4816,-124.7764,-19.7745,-93.8757,16.1012,100.0391,158.3485,-29.0816,-5.7231
-3101.5625,-47.9136,48.2069,37.3580,28.2350,30.2316,11.6784,-6.9260,51.4270,-49.6618,45.5098,-60.9052,-44.8806,-81.1409,-49.2365,-86.4404,59.3777,67.6158,54.6093,43.2431,-109.4119
-3093.7500,-102.3910,-43.3615,-64.2083,-30.0588,38.5718,51.4216,-35.7165,113.2628,-43.3039,90.3189,-235.9516,-0.4800,-145.7097,-4.8897,31.7946,288.4813,-93.0266,68.6705,-13.6389,45.6986
-3085.9375,-223.9475,-23.9824,-152.8376,60.2461,-14.1396,123.4977,-123.5753,112.1968,-169.0155,110.0903,-105.0671,57.8816,-15.3370,126.4234,-58.0254,124.5421,31.2917,157.7008,41.4330,29.7656
-3078.1250,-170.4391,29.4509,-96.4066,-18.7731,-29.7990,64.3323,-30.3831,87.4388,-185.6733,167.9163,-158.1281,42.2890,-30.9152,110.7798,-110.8048,108.6437,-161.3451,175.7768,-11.4384,-23.1307
-3070.3125,-210.6425,60.1838,-176.6835,20.2044,-38.1589,100.8886,-110.8965,77.8711,-268.0335,159.0598,-166.9137,70.9935,-75.1971,139.4305,-117.2770,137.0721,-131.7070,241.1617,-87.0161,42.2843
-3062.5000,37.7894,133.5748,-59.3287,24.9143,-29.8797,4.0080,-141.7798,-35.7218,-224.7519,92.8720,59.9473,78.3504,6.1768,73.7465,-184.1104,-38.8564,-58.4172,103.2137,-119.9382,-60.6537
-3054.6875,-40.5372,125.2260,-35.7290,-40.7439,-6.3636,-26.9327,-116.4118,-20.3349,-128.2303,115.9627,-98.9780,28.9541,-116.2033,-12.6897,23.3045,131.4866,-171.9111,59.5234,-197.6105,36.6572
-3046.8750,-161.3472,74.4280,-123.6030,57.5333,-59.3061,45.8346,-132.5115,12.7497,0.8286,99.6331,-6.3768,87.1054,-96.0405,82.4309,7.2643,5.3942,23.1382,43.4070,-38.7247,20.5254
-3039.0625,45.1418,69.9295,-17.1781,-13.6509,-24.9541,-19.1609,47.6903,-8.7600,70.1900,23.6213,-46.4718,47.5462,-135.5735,42.8498,-32.4894,2.5924,-87.5172,-67.4058,-7.5249,-19.3267
-3031.2500,-41.3348,17.4844,-186.7132,0.6718,-47.5506,50.1447,-49.0575,68.1324,45.5997,72.6764,-179.5603,23.0333,-195.0725,18.3200,16.8192,125.8608,-69.1494,55.8424,9.7240,103.8729
-3023.4375,-50.8382,-95.9572,-117.2621,33.0626,-52.1458,55.8564,20.1874,93.3729,78.0004,68.7449,-37.6608,-16.4712,-89.5759,-21.1925,-59.8869,-24.8778,98.2358,48.1051,177.9865,-9.9372
-3015.6250,-130.4058,-210.4474,16.1499,-94.8898,8.2082,-16.7653,153.3883,85.2012,174.3556,92.7782,-197.8369,-102.0315,-101.1440,-143.7517,111.3514,72.3472,-86.4474,2.3223,97.1952,50.1901
-3007.8125,-255.3014,-265.2430,-78.7508,-8.4128,-13.7430,66.8399,20.2716,111.7522,151.3999,143.5300,-110.3425,-50.8860,-14.0231,-55.6080,51.2910,-23.7148,68.5667,89.2556,148.1043,101.0280
-3000.0000,-85.9836,-130.8358,29.5491,-45.3665,-52.5018,-30.6113,56.3500,6.1456,148.6467,104.4902,-2.6448,-53.5407,94.2998,-95.2635,-23.5819,-99.5937,-7.2138,47.3944,36.2251,-10.9494
-2992.1875,-227.6276,-27.3681,21.8949,-13.8555,-22.2112,10.9195,-97.5188,-0.6004,-7.0576,60.5240,-82.9208,-23.1463,13.6588,-63.8768,42.6013,40.5984,-43.9763,115.5885,-106.6108,92.1229
-2984.3750,-168.4039,33.0085,52.1191,62.5442,-67.0268,31.7036,-178.5102,-44.8821,22.1315,-20.5165,128.6975,43.1574,43.9136,38.4276,-75.3308,-77.3099,85.1683,104.7008,-82.5371,11.0891
-2976.5625,-35.5286,-8.9669,44.9958,-18.5876,-37.1982,19.7419,-112.8464,11.9290,-23.0233,9.1159,-26.0503,-0.9023,-37.1889,31.3847,-82.6238,63.4356,-63.0595,97.4664,-54.8113,3.6880
-2968.7500,-77.7382,-52.0011,-110.1992,77.8142,-46.4220,116.2605,-195.2435,67.6726,-179.2375,109.7288,-107.8840,63.9779,-82.3533,96.2980,-163.9709,-19.8425,70.6479,231.2081,8.8709,31.2423
-2960.9375,66.5867,57.5214,8.1514,12.1987,-0.1043,-9.8606,-76.0958,19.2606,-60.8934,155.9204,-26.1741,-0.5965,-72.9777,-5.2343,-192.7858,-120.5813,2.9063,58.5119,47.1174,-106.6734
-2953.1250,-116.5478,-19.4006,-2.9549,-52.5261,62.7563,-21.8121,-14.3941,70.5126,73.0111,218.6927,-147.9500,-11.6318,-157.0724,-90.2269,-20.0477,88.2515,-109.3196,16.3723,4.9157,-8.0422
-2945.3125,-153.7507,-56.3689,-38.1395,10.5715,-9.4462,8.9029,-12.7556,78.0493,220.8669,256.4362,-37.7937,-9.7144,-83.2239,-14.2659,-92.3664,-56.9734,64.4094,14.2061,108.6787,-80.4623
-2937.5000,-89.6487,-28.0290,29.9795,-80.6364,-15.3489,-54.5384,92.1942,49.9233,252.0338,251.4869,-191.3420,-51.5008,-125.0731,-20.0082,-24.3946,11.0871,-117.5747,-27.6625,31.7458,-122.6017
