Time,Fp1,Fp2,F3,F4,C3,C4,P3,P4,O1,O2,F7,F8,T7,T8,P7,P8,Fz,Cz,Pz,ref
-4000.0000,-98.5043,-154.5470,-23.0188,78.8518,26.8352,65.3537,7.6530,56.6335,-41.8343,-30.1290,37.8963,21.2956,27.5733,45.5538,-182.6251,-36.1209,30.0947,60.0745,94.9366,16.7303
-3992.1875,-48.5733,-104.4738,-2.6182,62.0825,11.2848,50.2615,-118.7573,56.7282,-22.3985,210.6745,-125.6127,41.5253,-170.9149,471.7535,-91.7480,-125.3663,-93.6032,-62.0362,78.5123,-35.9883
-3984.3750,-103.2997,-196.0496,-24.8764,-60.3403,64.0821,-80.4782,-28.8074,98.4129,140.3892,225.8352,-72.7868,21.1032,-265.0394,120.3248,68.4738,36.7446,-40.9649,-43.8044,167.4352,16.6383
-3976.5625,-115.1839,-137.7935,-31.2834,37.0784,57.7367,-85.3789,113.0046,70.2963,-13.9726,108.8394,-41.1045,51.5313,-125.3175,78.7580,-88.4525,177.7022,-49.4579,-52.7276,54.2112,-62.8761
-3968.7500,-142.3186,79.2208,-60.9394,48.2554,-6.8593,-187.5296,158.5704,11.7000,67.4040,264.5827,-178.6661,96.7211,-42.8578,308.9640,-193.6302,148.4138,-145.2091,-252.8960,-40.2835,-17.6436
-3960.9375,-114.7206,140.9918,-138.8510,-25.8195,-122.7056,-300.9220,153.8864,-10.0041,355.5157,332.0850,-220.4870,128.6656,-47.6330,157.9275,-128.0657,253.8799,-80.2174,-187.3160,-79.0298,-22.6520
-3953.1250,-72.9331,75.9544,-165.5688,89.2945,-184.3490,-216.1186,276.4055,-2.1458,366.8235,343.7760,-282.1021,66.8103,1.8024,-12.9065,-46.3007,338.5499,-212.0115,-213.5275,-174.5681,-84.4636
-3945.3125,-162.6442,-154.5791,-113.7847,37.9082,-95.4932,-199.8035,365.4357,62.0012,307.6395,357.9715,-193.2231,-28.5484,-57.2750,-143.2343,38.9620,352.7240,-123.3211,-229.2458,-84.6174,4.2178
-3937.5000,-169.7123,-161.4820,-118.3509,34.1581,-97.9795,-128.8414,399.1237,51.9690,267.1071,244.8223,-123.6993,-105.2554,-59.6988,-35.9173,67.8745,423.5495,-196.9720,-163.3153,-159.0113,-35.4374
-3929.6875,-256.6834,-73.2853,-207.8207,21.4969,-113.3690,-69.7818,420.9157,87.0095,213.6692,302.7635,-211.0645,-192.8564,72.9809,96.5139,49.8920,480.4767,-316.5219,-210.2790,-171.3081,-13.9980
-3921.8750,-240.2558,-198.6871,-152.8894,-64.7750,-94.3536,-161.3282,440.1164,59.3578,194.6344,210.1108,-46.0376,-174.0701,18.0646,43.3597,138.3123,388.8062,-192.6772,-156.8513,-80.2033,4.8441
-3914.0625,-129.1293,-123.4019,-68.2571,-55.3660,-117.6297,-147.1814,417.0249,55.0019,207.2982,223.1483,3.6845,-162.5855,-153.1446,19.9190,111.4398,400.8374,-254.1237,-147.7178,-106.3943,-92.6116
-3906.2500,-116.5566,-182.6562,-23.1805,-110.5116,-34.4583,-137.5790,390.3879,89.0331,178.4119,305.6422,-60.1553,-225.6477,-32.9039,-115.0616,81.0185,336.3252,-240.1330,-133.1320,-55.1420,27.3741
-3898.4375,-115.3435,-146.2630,-90.4594,-106.0263,-63.6317,-166.3324,287.4091,67.9808,148.1834,238.7965,-52.3493,-218.0683,158.9829,-71.3941,47.2573,306.4695,-166.5008,-92.8969,-15.2312,-38.9795
-3890.6250,-89.6863,-15.4181,-98.2973,-41.1074,-107.3613,-172.6458,280.8846,36.2731,140.4054,268.3957,-133.0939,-189.0315,115.3228,106.7324,36.9613,262.0745,-207.4204,-205.2058,-55.8702,-45.8916
-3882.8125,-37.6218,-35.1620,-45.7351,-56.7968,-126.6846,-228.5643,260.7654,-0.1964,119.0331,209.3987,-79.4494,-135.5979,-15.9328,124.2494,87.0750,167.0798,-48.9512,-185.1259,-35.1079,43.5966
-3875.0000,52.6456,54.2900,-18.9665,37.6960,-172.7994,-127.2898,214.8492,-16.3228,-1.1314,163.5919,-14.6025,-71.9652,-133.9863,78.9579,37.4012,195.2794,-60.2619,-90.8407,-152.1423,-38.7130
-3867.1875,51.0198,52.8530,13.9088,4.2812,-65.8175,-92.9109,176.0356,5.8694,31.8047,233.8830,-54.6570,-147.2296,-26.9535,-69.2115,-4.1666,118.5851,-95.4784,-125.4581,-115.0932,32.0680
-3859.3750,-9.2063,-44.1797,-44.8178,-52.7494,-49.4284,-76.1327,81.6314,0.2782,47.1362,138.5744,-38.3221,-133.0960,-10.5243,168.0318,43.6750,133.2954,-83.2976,-6.6862,-100.6464,-25.7425
-3851.5625,-46.4875,57.7371,-43.5974,-51.8520,25.9047,-0.4027,158.1848,-4.2641,48.4119,177.2029,-73.0376,-131.0079,-155.1467,281.2243,79.4875,134.9632,-222.1599,-110.9547,-170.2505,-60.6073
-3843.7500,-64.4135,40.0175,-65.0239,-102.6136,115.5876,-20.3111,174.0897,12.9057,100.0416,119.1900,16.5828,-187.5750,-65.4113,-142.2404,165.6620,113.9785,-98.6819,-56.8876,-79.5184,28.8793
-3835.9375,34.8624,138.4940,-29.2472,0.8076,6.4737,16.9726,64.1919,-28.5427,62.8714,45.3776,90.4043,-114.9397,-28.4801,-288.5016,163.0495,113.1912,-101.9874,-23.6166,-151.5895,-44.4290
-3828.1250,24.0503,55.8874,-5.5643,28.1207,-79.7420,6.1546,16.1897,-42.2572,49.6002,106.4527,152.1293,-126.3991,-76.6626,31.1623,110.3455,27.3075,-110.3968,-102.4437,-158.7773,17.1509
-3820.3125,20.2413,-18.7110,29.1256,-78.5883,-116.9514,-68.6683,-58.8050,-68.4782,-26.6635,-6.4649,224.8469,-54.8643,-113.8430,288.8167,142.6593,25.4282,-5.8124,2.7172,-123.9701,15.7350
-3812.5000,96.9336,232.1974,38.3210,-69.8260,-107.6602,-21.0024,-48.2982,-73.9733,-54.4174,77.1112,14.0627,-44.8256,-104.5238,188.9545,186.5018,72.0550,-138.7217,-58.6137,-218.6663,-11.1825
-3804.6875,17.0292,257.5296,-11.0880,-74.6693,-80.9752,-141.9345,-23.3928,-62.3897,7.2322,101.0978,-70.3337,-56.3853,-5.8155,-78.5039,281.7596,22.0934,-40.2495,-65.5503,-84.9801,87.2957
-3796.8750,106.3215,205.0644,-23.3018,-18.3294,-165.0891,-153.6729,-33.2895,-120.7197,32.0812,-56.7208,-82.5351,-30.7477,57.0929,-15.7557,304.2372,11.3314,16.4380,26.7110,-133.0857,2.9809
-3789.0625,84.5295,183.5138,-7.6114,33.8972,-148.2932,-99.5169,-53.2759,-82.5750,10.8308,32.3443,-101.8367,-51.2040,-0.1061,-35.1084,280.6403,-9.5342,-1.9740,-26.1297,-115.3019,19.5546
-3781.2500,57.6479,50.8871,36.9839,-25.9925,-30.5908,-90.4622,-44.3556,-79.8409,-17.5146,-31.6833,-20.2577,-42.7574,-63.4045,-97.5777,322.9587,-73.4951,113.5046,19.9173,-68.6277,65.0325
-3773.4375,59.7646,51.2690,7.5792,-19.9039,-58.8949,-44.4139,-35.4495,-89.2725,26.1440,-25.7164,-85.6761,-34.3091,-128.6998,204.9459,328.2997,-30.4527,-22.0053,-45.0235,-132.9540,-0.4903
-3765.6250,32.9936,22.7699,-96.7223,-115.7278,-88.1030,-75.2615,-29.4397,-76.9748,67.9174,53.3515,-115.0008,-28.7640,-48.9129,359.5686,293.7670,-60.3080,-48.4238,-70.8761,-87.1897,79.0732
-3757.8125,32.8319,163.8832,-129.4174,-110.9868,-47.7005,-69.5216,-132.8155,-119.8742,35.2972,-14.9765,-37.7289,50.3769,28.4665,107.7847,332.8606,-56.5619,-10.2434,38.8520,-151.8279,47.2454
-3750.0000,-15.6629,219.6667,-69.4595,-17.6243,50.3395,-8.1363,-145.5423,-80.1407,21.3182,118.3303,-122.8141,74.1758,52.5115,-234.3325,316.6238,-69.1604,-56.4144,-7.7679,-162.8339,71.0609
-3742.1875,-21.6431,106.9718,-2.9984,-54.7716,191.8744,-50.2438,-150.7744,-71.9324,51.8422,3.1450,-91.4106,68.4749,-24.9472,-238.9649,271.9113,-112.2534,115.9023,24.0998,-60.3579,102.3813
-3734.3750,30.0318,123.9390,-14.8828,-106.2891,182.0668,-22.7088,-125.3572,-80.0229,4.0242,-46.4045,-66.3555,94.4253,-109.7747,8.0418,257.8827,-87.7017,29.8839,44.6210,-74.2416,-18.6422
-3726.5625,24.6198,81.8304,14.1385,-213.9228,212.1639,-103.2686,-58.0438,-82.0139,33.1077,-16.0599,-72.4097,-22.7258,104.2758,38.9455,247.7783,-130.2426,-9.2377,-28.9506,-6.2427,48.2257
-3718.7500,85.6188,71.1403,44.5660,-150.1798,132.6617,-145.4309,-63.3305,-139.3887,-10.4033,-169.3056,141.9309,8.5180,98.7270,-39.7775,202.0947,-136.3801,160.0383,34.8674,-47.8493,5.5007
-3710.9375,152.1849,138.0249,115.5448,24.0955,94.7013,-35.0545,-101.0765,-122.6334,-49.3674,-171.0080,140.8189,44.3248,-50.2723,-111.9443,124.9896,-101.9690,87.8713,-0.7622,-118.9212,4.3162
-3703.1250,96.1180,11.2915,91.8816,-29.2945,72.0887,-21.3335,-122.4719,-76.3634,-34.9705,-194.3531,44.0450,20.4856,37.0605,-23.7609,172.2582,-125.2070,175.0416,-19.0591,4.3442,91.4821
-3695.3125,190.4106,68.9144,48.5757,-108.3726,-7.1691,-26.2762,-128.5176,-90.2300,-6.2131,-237.3494,38.6163,51.9922,68.7399,43.7481,163.9121,-131.0910,95.5750,7.9945,31.9646,12.0056
-3687.5000,199.1183,182.9602,56.6717,-167.0731,1.9642,-16.8193,-82.1659,-48.9692,1.9533,-118.9488,84.5805,23.9002,3.8095,-202.3465,133.0042,-196.5651,71.4967,-16.5502,113.9653,57.9192
-3679.6875,141.4400,124.6318,74.3679,-117.1979,-53.3020,2.2354,-137.2150,-42.1736,-54.2693,-174.9414,139.1322,5.4041,-51.5248,-146.8474,148.7333,-215.4390,227.0126,104.4905,130.5518,2.4326
-3671.8750,176.8775,159.4235,77.1735,26.7543,-122.4700,117.3854,-133.1674,-15.8064,-123.3908,-133.8492,-40.2120,10.0169,-83.7657,78.7309,76.5938,-174.2073,88.6387,37.6361,63.2213,-29.9605
-3664.0625,103.8922,84.8043,35.5386,-9.7521,-125.0865,76.0918,-172.5737,3.5327,-164.9652,-139.2031,-8.0217,79.1806,-50.4756,74.8330,69.0283,-179.4203,157.8027,107.3213,133.4234,39.1932
-3656.2500,107.8155,195.1019,45.8084,67.6136,-114.8028,125.6883,-198.0855,9.4418,-227.6362,-238.6661,77.0634,127.2443,-76.2944,-169.1736,78.4016,-95.7331,129.8760,255.9029,106.5254,-59.7457
-3648.4375,103.4583,189.1199,77.7830,100.6506,29.1734,158.9825,-164.8949,18.0522,-269.5993,-206.4379,36.8436,49.0118,30.5856,-246.4891,71.5147,-136.3378,91.6432,183.1802,105.3157,-26.9964
-3640.6250,77.6157,57.6608,88.2643,77.1646,150.6552,59.7800,-226.2006,-47.6214,-259.0528,-416.6977,84.1087,97.2733,225.9620,-87.3322,43.1582,-198.4444,278.9063,194.9437,152.5962,-15.7458
-3632.8125,159.3443,208.7810,143.3089,161.2039,168.6873,79.1138,-244.9617,-102.9055,-240.9558,-435.4239,28.9227,116.0967,133.8753,78.3721,-14.6151,-254.0043,186.7325,138.2495,61.4076,-107.9454
-3625.0000,130.3047,215.1640,149.5625,100.4364,249.9071,49.6371,-200.5334,-59.5818,-271.6590,-391.9518,35.9271,49.1394,30.9627,13.2689,-10.1593,-247.3608,230.7489,147.7388,141.3877,-63.9497
-3617.1875,191.9258,240.2201,144.4712,93.2941,209.7759,156.7993,-204.4619,-39.7495,-422.7046,-469.8277,106.5758,45.8360,100.6895,-246.2082,19.9917,-179.0675,189.4207,316.8732,100.0126,-141.2933
-3609.3750,152.2174,269.9522,140.0345,90.7752,205.2928,299.6113,-208.7408,26.4436,-465.0895,-364.0679,27.8680,78.1858,133.0582,-360.0490,-23.1741,-147.1218,45.7499,244.6622,98.2694,-108.9963
-3601.5625,113.2313,160.4153,171.3029,-51.0652,237.5083,222.1279,-211.3192,17.5375,-433.7626,-406.6023,133.8425,110.2278,18.1194,-180.2112,-30.6095,-187.4728,219.7694,208.1382,168.2090,-39.9965
-3593.7500,264.2659,239.9009,223.5788,-39.9365,143.7243,165.6354,-195.9070,-63.0599,-344.4295,-427.1404,149.8130,53.2757,-38.8406,56.5948,-16.0041,-172.8223,160.7997,114.6217,40.1408,-133.9917
-3585.9375,259.8736,165.9796,217.4110,-112.2721,139.4856,124.6982,-235.9521,-56.6482,-276.5454,-322.1258,34.3282,-62.1217,176.7266,88.9247,13.1909,-177.6140,124.3703,78.6497,38.6013,-65.4488
-3578.1250,232.5522,102.1347,155.3039,-172.5815,77.3043,172.8012,-260.9460,-34.3238,-265.6057,-312.0656,45.8849,22.5286,151.3367,138.2900,22.4691,-93.3626,98.9974,123.7123,14.1067,-90.8516
-3570.3125,196.7567,206.8136,79.7059,-171.4213,76.6164,209.4003,-188.4488,-8.6966,-193.1625,-165.5235,44.9464,95.6820,76.4335,-8.8463,-54.7138,-57.6128,-40.8644,19.2788,-18.8961,-54.7679
-3562.5000,133.8378,213.3783,85.9747,-231.4302,119.7758,68.8490,-144.1068,-39.8948,-77.8580,-160.1264,88.8398,138.6848,193.3591,-258.1579,-50.0113,-88.0029,74.1093,-5.3192,26.9360,25.1599
-3554.6875,214.2370,258.2588,101.5546,-150.1669,63.2382,-24.4122,-128.4683,-131.3383,-62.2440,-144.4379,68.0321,118.9889,173.5765,-131.2094,38.0328,-72.0926,86.4003,-28.6185,-136.9377,-68.6124
-3546.8750,267.8669,241.3788,154.3480,-164.7153,80.8976,-43.4777,-74.6355,-121.0181,-82.4262,-54.5561,48.4217,25.4962,42.9762,-4.0877,15.3168,-91.9799,70.8878,-147.7253,-149.6345,21.8054
-3539.0625,281.6675,183.6857,134.3008,-184.1318,61.7116,-62.3937,-93.6548,-143.9742,-138.4470,-147.5156,138.9468,79.1527,60.5037,-58.8516,30.7907,-75.7189,157.5186,-26.7000,-168.1927,2.3825
-3531.2500,269.1336,241.6708,159.9081,-124.9291,14.1634,37.3348,-67.0429,-130.4380,-77.8033,-85.8367,55.1178,105.4690,159.6770,-251.9718,-19.0422,-86.8031,5.8060,-73.0224,-214.1179,-8.3975
-3523.4375,124.6765,131.7494,117.5744,-231.6957,45.6533,-40.8838,-71.3919,-148.9393,-46.0906,-91.0995,49.3275,100.8339,227.8929,72.9325,47.2108,-164.8398,74.1353,-144.3108,-145.0136,59.8617
-3515.6250,141.2969,112.8996,66.3073,-248.4387,-40.8078,-53.0655,-84.6908,-146.7180,-23.3168,-141.3159,36.5912,14.2471,141.1430,428.8524,105.5535,-68.8293,22.5289,-90.5616,-160.8688,-26.8286
-3507.8125,120.0037,55.1414,78.1047,-198.1494,7.7779,-4.1970,38.0543,-59.6927,-12.4957,-20.4920,-26.1008,-48.2781,42.4133,109.8125,41.9839,-20.7622,-33.0341,-108.7662,-108.7082,58.5216
-3500.0000,45.8280,-52.4794,76.0076,-234.7781,43.4628,-5.2257,36.8920,-48.9739,22.4252,-58.5635,46.2960,-12.7007,77.7677,-148.1585,75.5584,-22.5899,106.4953,-5.8792,-75.4645,56.9763
-3492.1875,103.7720,74.0210,67.0148,-141.3335,-0.7582,60.8394,-44.1792,-87.8629,14.4561,-31.5512,1.7963,52.9782,217.2204,-155.0623,29.2878,-30.3175,-9.8620,-50.8909,-190.1317,-24.4732
-3484.3750,80.5491,14.3596,76.8326,-233.1061,82.8131,-39.2954,-34.4531,-109.7752,60.2957,-21.7371,11.0830,26.4568,300.4701,-108.1855,36.8551,-93.2386,2.5626,-73.1214,-142.0226,58.8712
-3476.5625,91.2961,25.6770,91.6077,-255.9587,98.3271,-133.4910,-54.7830,-171.6032,76.0830,-115.9705,100.3186,78.8899,58.6519,201.6144,51.4152,-79.2025,15.9390,10.5915,-198.9711,1.1761
-3468.7500,39.7782,43.7342,38.0912,-166.1304,82.5308,-112.9926,-34.4219,-107.7670,95.5729,12.4921,10.2502,63.0362,41.5009,75.0880,32.7151,14.5418,-69.9866,-39.9982,-178.2381,21.1730
-3460.9375,-19.4644,19.0828,-23.1661,-188.0694,21.9788,-99.2535,-57.8153,-49.2400,108.3315,62.2132,-13.5868,76.4350,201.5911,-278.2261,81.3016,64.5336,14.3334,44.6454,-94.2651,34.4203
-3453.1250,-24.1344,155.0089,-60.8629,-51.4818,-89.0202,48.0239,-57.6659,-38.3416,180.6526,97.4707,-87.8757,75.3835,127.2318,-278.0272,42.4799,63.0700,-130.7816,5.8347,-167.7473,-39.7845
-3445.3125,-86.1741,21.5700,-91.9485,-147.3100,-119.4313,16.9052,-51.9232,-4.8455,295.5987,176.3269,-81.5697,-30.0716,95.4500,56.7424,8.3003,31.2132,-155.3075,-88.3918,-85.6456,75.5974
-3437.5000,-62.8928,-60.5433,-101.7259,-262.8666,-201.5497,-27.9160,-60.8864,-21.3788,286.8788,166.4907,-17.9676,-1.2334,86.9470,343.7756,-1.5358,59.6528,-129.5316,-64.3321,-96.2508,30.2824
-3429.6875,-63.7250,-26.7693,-136.6360,-192.5936,-198.8242,12.1116,15.9882,61.6290,361.9900,389.4980,-89.5101,1.4650,-94.7381,125.6506,36.5109,134.9475,-269.8993,-133.4212,-60.0310,-4.1937
-3421.8750,-134.1250,-97.5440,-102.1301,-226.9300,-164.6988,-64.4596,87.2564,88.4256,432.4879,422.9130,-90.6641,-1.4320,-97.0414,-134.1077,68.9925,95.6460,-128.8767,-96.1247,47.5592,66.7330
-3414.0625,-94.2559,-22.0415,-129.3640,-116.0350,-226.3255,-14.7892,-11.2375,52.7878,443.2400,360.5683,-117.5660,10.9199,-13.0874,-85.6712,5.7685,69.5924,-122.5894,-54.5721,-15.6136,-32.0854
-3406.2500,-51.3570,-15.4973,-48.5914,-72.1473,-144.9658,-7.1114,-3.7475,82.1866,413.9845,367.2178,-73.4731,-92.7174,-6.1413,-224.2591,-25.4148,-33.4513,-113.3141,-116.0212,99.1851,12.0818
-3398.4375,-47.0319,-152.5189,-3.4054,-172.8774,-27.2053,-35.0348,-31.8669,39.8584,311.1400,154.2765,45.0099,-120.9528,39.1690,-70.4686,91.8376,-25.0978,-37.6397,-40.0869,105.3701,-53.3431
-3390.6250,-38.8767,-109.7100,-29.4052,-128.8324,20.3529,-60.1740,15.8052,4.9534,248.1111,165.1221,-90.7043,-72.3853,86.2634,162.0970,64.9341,22.0499,-204.1510,-100.3541,9.3418,-78.9746
-3382.8125,-17.3378,-52.5058,-10.0488,-105.4472,41.2549,-149.9679,-0.1777,11.2073,231.4436,147.3197,-71.0851,-52.4652,69.7037,-74.0243,10.4164,-31.4468,-4.3207,-42.2843,103.6425,14.7369
-3375.0000,83.9194,47.4355,27.0208,30.6282,4.8533,-75.0709,-35.4702,-0.6942,158.4753,37.2070,-32.7641,22.1605,-77.1764,-183.4955,-63.3587,-30.2427,97.2270,24.4871,65.6329,-94.8516
-3367.1875,78.7089,7.9206,56.6033,62.2010,-1.0561,28.3319,31.7231,28.5018,151.0131,67.5836,-76.9491,-57.7007,-120.5812,-116.5018,-71.5958,-74.5342,-11.7275,-48.2483,62.0973,-27.9524
-3359.3750,-20.4300,-92.5151,-9.7515,-72.1926,-30.9197,-0.2132,1.9598,47.8073,47.6148,0.0149,-70.0979,-13.5184,-3.9453,110.5182,8.2507,-30.7793,-4.6337,29.0488,140.6010,-21.0000
-3351.5625,-22.6391,45.9641,-120.1923,-37.7124,-103.8902,74.1335,-33.9126,60.0262,84.1279,73.3408,-106.3397,23.5584,-3.4209,74.4157,8.0395,42.8773,-181.6332,28.2443,68.9951,-57.1547
-3343.7500,-51.0677,-17.7615,-114.8722,-30.4925,-62.1207,79.2345,-29.0396,91.9118,89.3952,41.4236,-27.8429,-7.6118,-72.1611,-103.9781,11.6135,11.2941,-67.9014,107.1740,148.1155,21.4341
-3335.9375,0.3213,-71.6510,-56.7474,-13.4877,-2.5520,139.1298,-43.3733,72.5596,-36.5355,-157.6925,-5.5440,14.0265,22.8703,-119.6236,32.0276,32.5112,-15.3604,194.8972,131.0331,-67.1703
-3328.1250,22.8890,-49.3548,-33.4594,9.6600,57.1630,163.1741,17.4330,92.0388,-87.3021,-134.6642,-93.0959,-35.1798,82.0204,-169.1430,18.6285,19.8793,-97.6713,113.7680,155.0795,-43.6365
-3320.3125,-37.1230,-75.6350,-22.7635,-49.8107,105.2726,26.6123,-8.3642,30.9738,-149.6519,-197.2237,-8.2615,-60.9980,92.5803,171.7084,-8.3280,-6.3490,19.4112,125.0169,131.5150,-32.7005
-3312.5000,-3.4102,99.8054,-56.3588,90.3975,72.0740,67.7374,-41.4677,-17.3395,-220.2917,-195.0968,-78.7280,52.8886,-14.1521,432.2199,-116.5410,-3.8727,-50.7970,89.9633,-9.3630,-103.0650
-3304.6875,-36.1149,66.8422,-58.3944,93.1543,71.4141,103.4160,-43.0344,24.5469,-221.3746,-159.4208,-80.6522,88.3385,-89.3527,173.2501,-118.1678,-4.8447,23.5284,93.4504,30.2812,6.1093
-3296.8750,8.8031,40.5158,-9.8198,102.4933,46.3512,115.6872,-68.0097,5.4111,-172.8459,-222.1374,5.0246,137.3909,-114.9823,-108.1503,-34.1542,6.7818,68.4535,139.5221,5.5102,-19.1078
-3289.0625,9.7471,111.2182,-8.2386,174.8183,-25.7181,80.9514,-28.9972,-7.0693,-99.3130,-110.8614,-104.2891,102.4499,-40.6288,2.4271,-33.1041,8.4150,-34.6219,-34.4069,-27.2837,-17.3311
-3281.2500,-21.8395,80.4039,-42.1961,143.5882,-59.3510,-62.3369,11.4497,-49.3771,-131.3257,-144.1226,-100.1617,105.9584,36.1781,116.4132,6.4286,11.5055,110.7417,-29.8968,-22.6495,22.8977
-3273.4375,22.5946,159.6094,8.8555,223.3481,-117.9879,-10.6334,25.8831,-49.3535,-191.3397,-167.3883,-86.0335,121.4683,-23.0089,93.3524,-53.0006,62.5938,86.1224,-19.3843,-82.0240,-72.8732
-3265.6250,7.0155,2.8075,-11.1283,137.0606,-100.6812,7.0252,116.2581,11.8919,-65.4000,-41.7068,-141.9525,-9.0612,-7.2729,-0.7883,-37.4482,79.6315,35.4486,-69.9370,-27.4749,17.2921
-3257.8125,7.9621,-67.4511,-9.5980,33.2585,-134.8734,9.1769,82.1324,-4.7706,-26.9530,-76.5245,-68.3806,-44.0881,-43.0602,74.5409,37.6344,81.1719,72.2672,37.9917,-60.4402,18.9666
-3250.0000,-41.3246,25.0666,-59.3161,125.1980,-147.3271,107.0707,105.7434,19.5796,-39.7460,-16.6002,-81.0647,-19.3558,-165.0983,61.5892,24.5038,104.4681,-10.1585,-9.3272,-107.6679,6.3839
-3242.1875,-89.6445,-25.4391,-3.0825,76.0842,-18.8457,90.9188,126.2955,36.6024,-56.5747,-69.7175,-60.8004,-72.6793,-72.1938,-102.4468,43.3600,50.7168,116.3572,11.2921,-15.9571,62.7484
-3234.3750,-52.8424,-22.8319,6.2657,114.0545,-8.2624,100.8573,61.9440,6.4045,-84.2915,-98.7327,-88.4319,-62.9073,-64.2107,53.5770,52.3500,60.0616,84.9881,86.0051,-82.1482,-74.7847
-3226.5625,-44.9036,19.9177,13.7217,122.1203,35.4082,107.8986,68.6743,45.9666,-114.9034,-18.6526,-81.9661,-93.0315,-204.1360,132.6730,-14.5338,66.5112,22.7121,-11.1843,-38.2670,-31.2301
-3218.7500,-35.3438,-40.7026,24.7877,60.7781,46.6724,9.5336,44.0005,12.0725,-102.9080,-117.9668,77.0920,-43.5572,-303.4591,144.3284,-2.7816,41.5640,139.0323,69.2084,7.2043,-56.0736
-3210.9375,36.2888,-4.2559,65.9163,133.4730,50.9867,51.2033,85.3753,10.3292,-98.8567,-77.2421,44.2068,-39.0240,-262.7464,-72.9964,0.0624,82.6651,35.4117,1.6465,-60.2856,-88.8743
-3203.1250,23.4932,-53.2211,84.6024,119.7233,106.8422,-39.5741,104.2939,10.9327,-80.2509,-58.9601,26.8619,-19.9371,-207.5025,-273.7941,19.4811,65.3210,164.3274,-46.3818,-2.2522,3.8745
-3195.3125,95.5135,18.6308,127.0933,191.7666,75.4907,-70.5626,72.9962,-16.5734,-111.8391,-90.8730,68.3245,58.9472,-386.4600,-158.8287,-12.2785,69.7756,166.0532,-8.6101,-35.4250,-64.5679
-3187.5000,107.3674,101.3141,136.3976,204.6145,85.9286,-60.7617,119.4865,11.6499,-28.6247,66.0046,4.5997,32.6373,-524.6255,-150.1029,-40.2126,43.0293,73.5817,-171.0380,-22.8153,18.7760
-3179.6875,39.9946,68.7789,64.4652,101.2109,13.1139,-95.2096,84.7228,35.7138,83.3499,176.6459,5.6220,34.0754,-487.0446,-222.6784,34.6281,44.0325,111.8486,-62.7373,15.5354,56.8717
-3171.8750,81.8838,145.5140,36.7886,179.0454,-123.4566,24.5865,20.1979,44.3553,165.5852,369.5361,-22.0998,6.7696,-515.2280,-288.0313,80.7474,53.2892,-56.6274,-124.1889,-115.8687,29.2158
-3164.0625,-43.5521,54.9325,-25.2334,87.5320,-186.3880,-0.9628,31.3147,82.5682,213.4683,453.0822,-47.1783,-17.8890,-431.7842,-130.7428,53.5435,27.2022,-4.4700,-178.9979,-30.6398,150.1995
-3156.2500,-20.5212,7.8146,-35.7983,40.4596,-195.8737,-83.0665,20.8720,57.5384,202.8017,370.0792,15.1932,118.8943,-515.8832,-68.0366,43.8185,53.5668,18.1424,-85.3647,-6.9635,103.6371
-3148.4375,6.6880,70.8719,-43.2088,68.5368,-167.2240,-54.0192,50.5711,86.3993,232.2942,472.2206,7.7162,111.8284,-449.8304,-260.2149,-0.7308,46.0880,-129.1006,-162.5811,20.8427,96.2144
-3140.6250,-8.7342,-85.6909,-59.2637,-52.0342,-110.2375,-106.6195,-2.3825,103.0916,215.1472,381.7236,27.5845,21.1107,-209.4357,-278.0721,56.0884,28.9673,-38.0088,-72.4637,146.9844,116.1406
-3132.8125,9.7082,-68.3889,-74.4592,-70.7637,-87.4024,-47.3826,57.5117,100.9648,238.8531,330.0690,-59.6859,-28.7588,-224.2064,-71.1075,42.7875,89.6974,-161.0521,-89.5011,94.9731,28.9159
-3125.0000,-65.7216,-72.9515,-118.5422,-146.3840,13.5228,-128.0479,159.4989,145.0467,303.6686,394.5178,-103.8571,-109.5193,-269.9005,-154.0792,33.6110,117.5351,-166.0079,-94.4484,195.0391,93.7778
-3117.1875,-15.3831,-126.7458,-62.8736,-95.2538,34.1891,-143.9680,106.2304,111.1362,287.2486,267.7289,-11.2858,-89.5315,-360.8398,-356.3438,127.2093,101.1238,-9.2171,28.3427,176.8457,40.3967
-3109.3750,35.7764,-42.7193,-8.3996,60.6769,14.6427,-54.0970,122.7446,93.2859,230.6275,247.7330,-67.9064,-72.7416,-417.9734,-302.8235,71.6318,81.5173,-63.6266,-62.0671,87.4387,20.8072
-3101.5625,-49.5947,-162.2128,-26.4682,-59.9392,33.5357,-70.7827,178.7054,109.7765,212.4652,119.1980,-48.0740,-52.5054,-325.6718,-137.8811,90.5223,63.3681,-7.5992,-75.0402,213.4706,76.6653
-3093.7500,-43.8004,-122.5375,-52.3797,-54.4050,-66.4202,-23.3214,152.8128,97.3035,223.4576,55.8202,-1.0925,-42.1190,-205.2272,-127.8433,137.5798,110.3722,-142.4160,-34.8653,184.6458,-23.3212
-3085.9375,-108.3921,-116.2338,-86.6886,-85.2599,-99.7870,15.7445,118.5126,128.9863,225.0501,204.0492,-36.5199,-112.1293,-93.1816,-164.2216,139.2572,75.9831,-206.6468,-99.0967,189.3984,52.2818
-3078.1250,-65.8163,-178.7705,-39.8417,-41.9678,-126.0075,26.9565,55.3624,90.4719,124.7961,67.4349,48.2010,-65.9985,-193.9811,-80.4656,77.1031,49.7386,-22.7302,49.8046,128.2976,26.0432
-3070.3125,43.3829,-105.6921,40.6139,31.9202,-120.6399,107.7601,25.8000,95.9586,58.1407,37.4070,18.5432,-58.2618,-187.1874,-76.1450,-26.4258,56.0958,-89.2028,18.3171,96.7885,-40.6030
-3062.5000,3.2069,-215.9789,69.6801,-44.5789,-18.6787,63.1729,90.8270,92.8421,87.0894,-9.0133,83.4813,-66.9255,-122.8104,-158.2534,-35.3442,11.0564,11.9074,-22.5794,161.8583,24.3447
-3054.6875,-0.4168,-149.7068,71.2945,-12.5218,19.8339,65.1328,92.3933,71.4295,88.5917,-43.8800,47.9652,-64.0437,-11.8839,-377.8290,40.3048,86.5662,8.5729,45.0728,89.4758,-84.1521
-3046.8750,-8.6804,-52.0682,59.2586,83.8932,118.6881,90.4416,117.3008,103.0240,40.4455,90.6010,-37.1953,-112.8150,-98.6022,-464.0692,-7.6779,111.4349,-70.4167,2.0713,45.4313,-22.3111
-3039.0625,-45.8313,-160.3182,21.3325,46.4118,116.6364,-21.1559,115.3098,43.0346,1.4107,-21.8020,34.7485,-77.4947,-247.2081,46.7480,-9.5402,72.4072,33.6805,0.1541,43.4780,-24.3681
-3031.2500,-56.8649,-65.4558,-24.4900,71.0321,-2.3273,-66.6619,69.4028,-22.1513,-7.5186,5.8893,-11.1977,23.9302,-73.7149,330.6404,-55.2851,100.4848,-118.1159,-80.6586,-72.3864,-70.3292
-3023.4375,-114.0718,-52.7573,-51.5029,83.4718,-29.5045,-93.3703,80.2860,-6.4022,2.3443,89.3929,-38.3468,35.1544,83.5725,8.3069,-8.2186,110.3623,-34.1221,-102.6831,-59.4707,13.5042
-3015.6250,-19.5714,6.6507,-23.8111,177.6196,-38.9765,-65.3898,69.8663,-20.7465,-44.0904,5.6004,62.2081,62.0688,-111.4308,-148.3642,19.5615,137.9389,25.5835,-8.0123,-105.8565,-32.9573
-3007.8125,51.4493,42.5775,10.3886,283.2820,-41.9475,6.0866,67.9396,5.9105,-47.0349,113.2877,-13.7257,-13.5194,-149.9247,-299.5421,16.8501,99.0139,-44.2075,-7.8400,-139.7597,38.0665
-3000.0000,-6.8201,-50.7729,-13.7075,190.6569,-65.2208,-17.7328,-30.2976,-7.2556,2.7107,14.6747,73.0409,-0.4100,-64.7240,-214.0097,103.8428,37.7875,39.6907,76.0238,-56.9758,50.7874
-2992.1875,49.7757,40.7366,11.0527,175.8857,-150.6518,44.2927,-5.6970,-53.3926,27.3063,-35.0865,23.6759,61.5451,-78.6877,-45.6526,127.6952,62.4160,-115.5547,26.7390,-176.3445,1.3579
-2984.3750,-57.2089,37.6674,-32.7800,31.5306,-158.6933,36.7258,23.2967,-17.0672,19.3104,30.5669,-56.2890,53.9047,97.7433,-15.9269,83.9458,54.4465,-82.4154,-11.1585,-108.3302,104.3213
-2976.5625,-35.9840,25.8093,-5.4125,19.3750,-130.5482,-8.6521,-22.5196,-36.7628,-63.4761,-52.5679,6.9434,8.4580,235.3977,-28.0233,75.4104,45.6721,45.9211,82.1328,-86.1160,21.4939
-2968.7500,52.5617,43.2737,52.2561,71.5232,-0.1231,49.2603,-1.0445,-24.6838,-41.9596,-31.4089,28.4782,-80.6901,219.3540,-117.8359,23.1973,-6.7984,-41.4409,-5.2714,-68.6085,-31.0421
-2960.9375,7.5182,-72.8457,76.3271,26.0845,132.7028,-0.4240,21.8352,-11.7602,-56.0429,-81.8311,51.4090,-20.4500,57.6985,-132.2860,46.3920,-57.8594,88.5814,19.7156,27.2940,28.8185
-2953.1250,36.4714,27.0215,36.3971,54.6491,130.5267,-2.1158,19.7128,-35.5347,-21.1251,-48.2492,48.3523,50.7828,-129.9483,10.2512,7.5986,-22.9139,12.6037,-21.2976,-48.7997,-47.3196
-2945.3125,0.3342,61.8036,31.3614,54.1235,88.2326,-116.9158,13.4879,-47.7496,46.6930,93.2401,6.1961,8.9192,85.3251,-33.2968,-35.2880,-29.0587,-58.4937,-127.4232,-50.0166,57.4315
-2937.5000,29.5048,54.9059,24.6287,11.9103,44.2216,-197.4229,-66.4420,-107.1513,-34.1914,12.0422,73.3377,39.3564,334.9052,-77.5706,-4.8672,-35.9041,75.7098,-29.2588,-90.9429,50.4963
-2929.6875,74.7897,136.1202,75.0030,127.8089,94.2976,-146.8330,-90.2842,-142.8452,-129.9783,-11.0620,123.5927,53.8907,238.5809,44.2386,-27.3355,-58.6539,-18.9715,-88.9903,-186.7759,-9.3442
-2921.8750,15.3840,76.6411,120.6790,103.0224,139.6753,-137.9434,-80.8360,-130.3707,-121.4535,-75.8503,132.1487,61.7171,171.5592,13.3462,-19.5021,-86.1013,97.6245,-76.4331,-140.3233,72.1091
-2914.0625,72.0270,168.2006,109.4038,194.2874,-18.8943,-76.0110,-165.3386,-147.7997,-168.8698,-88.5872,120.7681,124.5823,160.6068,-35.5117,7.3868,-61.4957,83.2705,14.1711,-224.8231,-12.3855
-2906.2500,78.0791,209.1702,75.5272,199.9685,-17.0684,37.3225,-126.4451,-93.6748,-166.8924,24.0700,49.7902,90.8481,15.0593,-69.9759,-27.3186,-94.4825,-16.6907,-15.8200,-218.9363,63.5073
-2898.4375,-26.1581,104.8550,40.3581,95.3679,-15.5379,76.3542,-198.8545,-79.5919,-128.2165,-83.5622,125.5118,92.8039,127.2103,-33.7758,11.6781,-56.7725,56.0460,91.8805,-182.3497,65.1040
-2890.6250,-27.8400,102.0920,-32.2582,92.3273,-88.4530,150.9257,-160.7209,-50.7998,-91.9811,-47.6499,52.7980,57.3027,347.9211,-72.0499,50.2298,17.4837,-87.6517,19.1290,-185.2106,-7.7576
-2882.8125,10.6897,-34.4625,5.3234,-9.4967,-14.1801,78.6939,-50.3876,-18.8419,-17.5333,-46.5245,16.2786,-16.0067,384.8451,-218.1133,87.9849,-19.0571,-13.1717,-47.4403,-40.8844,66.5715
-2875.0000,72.4623,-77.7700,38.1521,-88.0722,-17.6696,37.7002,-17.8084,-52.9019,-57.8271,-125.1402,49.0107,-19.0669,270.0284,143.0847,46.9965,14.6585,-21.4493,14.2379,-85.3057,-47.8436
-2867.1875,10.7450,-70.5632,-28.5223,-45.1390,25.3245,81.2065,-11.7374,-4.2415,-51.6243,-45.2626,-17.7479,-49.6241,202.7174,294.7719,-19.4859,20.8804,-189.2352,-48.5760,-42.2326,-4.7682
-2859.3750,-95.1598,-105.5360,-103.3901,-81.3942,60.1161,6.5068,23.1356,10.6806,-89.6308,-119.5780,17.2932,22.6120,200.2184,108.2352,15.8275,18.9031,-14.2306,92.3985,63.6342,30.1112
-2851.5625,-31.4049,63.1440,-70.6078,88.0133,55.5528,39.4411,19.6467,-48.9318,-166.9915,-161.2465,13.9972,55.4926,122.3833,65.3427,12.7917,15.5741,-20.5622,85.0314,-84.8541,-47.3614
-2843.7500,19.9035,9.3929,17.7187,139.0001,70.5328,17.9304,-40.2982,-71.5227,-225.7965,-220.3546,65.2426,-3.0801,173.1068,152.0008,-46.6917,-117.2010,135.6384,31.2095,-33.8106,3.7083
-2835.9375,88.9591,7.3895,92.7938,136.7493,71.2531,-16.8323,-112.4944,-94.9757,-260.8531,-329.7013,140.2419,35.0863,137.5974,152.3919,-44.4227,-79.2252,204.5909,64.1305,-35.0116,-68.4635
-2828.1250,83.4295,143.7941,86.2751,96.9107,28.3640,13.7995,-8.2954,-59.7305,-157.5265,-152.6598,-50.3393,102.6460,93.4904,-39.8059,-13.7590,-48.8522,-11.0510,-81.5484,-39.8180,-38.2420
-2820.3125,-51.4364,43.8629,-21.5846,-3.2668,-43.8742,-20.9216,-6.4483,-35.1587,-117.5608,-112.9582,-48.2639,68.8475,280.0307,-111.3507,62.5476,-9.8296,64.9429,-5.5891,0.0153,37.6295
-2812.5000,-14.1053,116.1215,-53.2490,103.7578,-148.9091,21.5485,-75.4089,-72.0134,-150.3924,-110.0560,-42.9835,37.2467,357.7936,-35.7010,67.0524,32.3984,-3.8641,31.5788,-138.9482,-31.2970
-2804.6875,-39.6234,125.5386,-7.7750,112.9534,-103.8013,-6.8273,-30.2258,-48.1270,-32.0700,9.0019,-34.5589,8.7908,255.7350,-65.8973,2.7062,3.7794,6.4598,-133.1050,-93.7726,13.9143
-2796.8750,70.1044,94.2058,69.9476,11.4047,9.5638,-112.9662,47.2113,-136.1864,45.5049,-133.6782,43.1202,86.5742,147.9381,-63.8517,43.6113,-102.5923,80.0289,-165.5484,-90.3435,17.3812
-2789.0625,114.0367,174.0667,4.8703,-50.9335,-18.8655,-139.9162,18.8431,-142.8232,-19.7274,-16.1637,-58.9827,95.5489,193.3436,238.4002,15.7113,-57.7607,-87.1946,-226.7814,-151.7205,26.0405
-2781.2500,52.9235,111.8820,-25.2566,-147.2997,-48.3465,-169.9116,-83.5803,-75.7577,-85.0169,27.3149,21.8630,28.4649,162.6976,353.5977,-14.2440,-13.9720,-8.4863,-113.0722,-38.1495,69.6461
-2773.4375,47.4567,107.3404,12.2660,-82.0127,-86.1797,-170.2648,-48.3515,-74.0043,-12.6526,27.4456,58.3686,29.0252,162.7153,168.4294,23.4486,23.4657,-84.1203,-83.7134,-42.9229,-41.0947
-2765.6250,-26.5039,-1.6876,-31.7123,-86.2090,-56.5192,-139.1301,18.3753,-0.0345,164.2071,94.0699,-21.6283,-51.9127,192.2581,49.7802,-20.3658,53.4016,-121.2589,-120.8600,58.7934,25.6521
-2757.8125,-71.9105,-118.1539,-79.1407,-131.8404,-30.3101,-113.4527,7.6475,3.7282,153.6134,9.2544,78.9231,-25.3095,107.3658,184.6907,-30.6444,42.8790,-27.8538,-27.4636,83.0590,14.9571
-2750.0000,-14.0171,-25.3274,-88.2726,-39.1569,-76.8054,-12.4823,34.2119,15.5647,107.3167,109.7379,105.7891,-34.4108,97.7812,62.8968,-76.6251,-3.3401,-111.1402,-39.7556,34.6238,-68.4446
-2742.1875,-43.5177,-124.8948,-11.8057,-103.8489,36.2896,-46.9045,37.3787,42.4713,73.6155,111.8308,108.2564,-104.9220,210.7991,-155.2945,-37.0098,-74.9531,-34.8454,-34.4558,145.7757,7.7495
-2734.3750,-59.0222,-70.4770,-24.3389,-49.5368,22.3840,13.6662,-12.4584,29.3321,-13.0931,-11.0697,132.7379,-81.4461,49.8285,12.5225,-49.4014,-50.5669,19.4584,90.8413,94.9313,-79.0478
-2726.5625,-53.7679,4.6994,-21.1196,25.5345,62.2228,90.9786,-46.5545,59.4713,-84.0525,64.7773,25.9822,-115.2265,16.6221,125.0973,-120.0515,-47.4327,-81.4919,24.8912,63.8313,-39.1068
-2718.7500,-69.8109,-81.4139,-74.2006,-25.6836,9.7650,1.9877,-99.9505,14.7956,-100.3000,-24.6653,82.9211,-57.3161,257.1390,144.3665,-99.0132,-63.6033,43.2442,114.6232,82.4312,-55.4649
-2710.9375,-6.0088,-17.6821,-76.4358,3.9586,-30.8429,35.8316,-65.5042,7.4491,7.3186,8.7447,43.7200,-23.5570,217.5178,66.4843,-64.1248,-29.9251,-103.1685,38.2131,41.8809,-131.9758
-2703.1250,-69.1519,-80.8916,-74.6224,-24.3288,45.5983,1.7289,9.9953,59.8491,119.9754,84.2102,-27.4299,-57.7543,71.9496,-80.3417,-62.1916,-64.1912,-61.5497,9.8491,154.3650,-19.4404
-2695.3125,-55.6957,-102.5093,-58.2131,-12.0089,23.6397,-18.7771,-47.9044,35.4212,62.1901,-9.7294,25.0263,-4.3606,51.0011,7.4637,-119.6665,-47.8545,56.6711,93.0830,131.4537,-77.2919
-2687.5000,26.9132,-19.9740,-8.6609,35.4720,-0.1786,-43.1389,-35.6559,-8.9620,37.5444,75.4731,37.6319,-65.8170,100.2239,129.4528,-143.9984,-35.3676,-70.9596,-35.5313,2.6864,-65.0023
-2679.6875,-12.6288,-60.5822,-17.2622,-75.1863,27.8468,-160.6608,-7.5594,-53.1539,29.7650,30.5523,67.0747,-37.4353,165.3177,156.2992,-78.4917,-44.0269,64.2435,-5.3085,-2.2369,0.1361
-2671.8750,27.8232,86.8001,-7.8644,1.1611,35.8687,-116.1981,1.5341,-66.7799,1.9856,-34.3701,75.5305,44.9409,100.4197,16.1600,-105.9901,-34.6877,-0.5447,34.9189,-32.1558,-64.7241
-2664.0625,-4.2150,53.6922,-8.9702,4.0375,108.3846,-43.2380,37.1259,13.3966,-36.2926,1.2071,38.4927,-66.1870,63.0234,-132.4744,-32.9961,-35.8448,2.1510,37.6445,75.4083,7.9108
-2656.2500,-17.9101,-101.0724,-20.7320,-9.7235,23.2423,19.0674,-48.9363,14.2952,-11.2141,-121.8530,99.8050,-114.9755,86.9994,1.2284,29.3452,-47.6546,93.1975,129.7169,96.3300,-41.0921
-2648.4375,11.8476,-70.3915,11.9495,-15.0273,-17.4549,88.8172,-15.5529,30.4048,95.3050,-51.4663,22.5744,-155.3209,46.4358,69.4112,25.1217,-14.0138,-87.3026,18.2534,55.7043,-81.6526
-2640.6250,-89.4918,-241.8000,-21.4677,-151.4202,-15.2491,18.4696,-13.2658,56.2803,318.7150,-49.1753,-10.7607,-224.7773,232.7826,-2.4869,28.7796,-11.4763,-12.9212,92.6859,165.9782,-42.3165
-2632.8125,-117.7880,-200.1690,-82.8364,-179.7620,-39.9809,-5.8320,-37.9315,8.7094,515.1746,-36.8441,-108.0376,-213.1974,356.1986,118.6706,78.4890,1.1013,-112.4846,99.1734,101.3070,-176.9250
-2625.0000,-135.0381,-147.4839,-103.1603,-127.0386,49.3309,9.9205,14.4464,55.2628,273.6800,89.5386,-92.2641,-160.5731,224.6801,59.9000,20.2463,53.7343,-130.0154,46.7119,83.6754,-124.4932
-2617.1875,-64.2512,-76.7579,5.5538,-56.2593,84.6911,8.7167,12.8731,62.0249,-169.7635,13.9896,90.5531,-50.9112,2.2324,20.1993,-53.9549,52.4242,10.4920,82.2960,84.0930,-89.0004
-2609.3750,-42.3761,50.0530,27.3621,71.6270,69.1484,67.6050,34.4008,66.6503,-367.1076,72.5380,2.4736,-29.1556,-12.1042,77.6252,-106.0627,74.2152,-108.8922,-2.0114,-0.3848,-67.4097
-2601.5625,-149.8443,13.5248,-89.1852,-0.8259,62.2610,24.1356,27.5841,59.0117,-263.7942,65.7377,-150.9601,-36.7596,238.2168,32.7132,-75.5303,-6.3460,30.3638,31.3176,67.7887,35.8253
-2593.7500,-83.5622,79.7438,-162.9837,100.4681,-10.8661,24.3976,-8.4763,-6.2875,-190.7301,-44.3142,-151.6359,74.3734,275.3035,-5.4512,-75.2496,-5.1631,96.3725,61.3951,-7.2777,-74.1829
-2585.9375,37.4696,94.7167,-75.0369,116.5300,39.7476,39.4023,5.2044,-14.5014,-139.9269,6.3934,-100.5616,-21.7449,105.1558,81.1478,-134.2243,-28.2242,76.1183,-27.7642,-62.6031,-23.4497
-2578.1250,3.8916,-8.9083,-1.6980,82.0115,38.7574,-35.1951,-69.7191,-63.4751,-139.7299,-68.4803,9.9019,-59.4711,68.4248,300.1659,-97.8111,-65.8901,183.2570,43.4689,-96.5321,12.6915
-2570.3125,59.7566,81.9069,21.0866,173.9507,-49.7909,24.6474,-120.2007,-61.8100,-191.0775,-45.9050,32.8235,-36.7554,17.1446,247.6726,-75.9523,-6.1112,27.8599,99.1550,-181.0076,-1.7211
-2562.5000,34.9732,57.0820,-9.7813,149.2524,-42.9957,66.8428,-114.3271,-28.5055,-185.0603,-38.9674,2.0929,-29.7039,96.2122,-5.4570,-31.7466,-72.9820,72.7954,145.1807,-100.1433,114.2104
-2554.6875,30.9287,52.9932,-46.9043,109.2998,-44.4516,103.7814,-150.6969,-39.6989,-222.2920,-149.2699,2.1075,43.0847,244.0523,-42.8173,-32.8039,-37.0974,103.4766,245.9554,-105.5222,3.9029
-2546.8750,-12.0221,44.9954,19.0658,31.4514,21.1898,169.8153,-49.9652,10.8689,-193.4361,-11.4797,-5.7768,-76.0257,199.0054,21.9602,-77.7799,-8.1050,-80.7450,131.8380,-113.7999,-4.3105
-2539.0625,-65.6218,-148.6575,34.3867,-162.0432,110.1938,75.1941,2.1256,42.0133,-68.2271,-33.3357,83.6893,-169.8009,-6.6869,183.0828,-25.4094,7.2292,42.3772,149.0641,8.2812,47.8315
-2531.2500,-11.9254,-61.0209,-54.9933,-109.2394,20.5133,132.8584,-13.4799,35.0218,-47.7245,-11.8974,-5.5380,-112.2884,-59.0688,276.5108,-3.7361,28.8614,-81.1895,131.5968,-44.3303,-4.7225
-2523.4375,-65.0334,-44.1765,-77.1854,-57.2267,-3.9708,72.7203,-0.8890,41.7218,-34.0241,74.7588,-101.5858,-61.5843,138.7676,68.1793,-26.8713,41.6994,-63.5824,42.3250,-27.7527,81.9201
-2515.6250,-27.2098,-40.3918,-34.4433,-88.2656,-70.5120,6.5185,-30.3475,-6.5218,-64.3559,-65.6088,-21.6967,18.0579,145.5764,73.8241,16.9317,49.4899,44.9716,81.9958,-24.2167,15.5215
-2507.8125,6.4686,-6.7585,37.1503,-55.4517,0.7918,41.1547,78.0467,12.3537,-29.8372,42.8633,13.0583,-21.4519,-149.7678,144.3473,14.5787,10.1229,-63.6227,-96.4785,-26.8285,12.9641
-2500.0000,-30.5467,-77.8174,106.0505,-126.3265,32.3996,-109.9121,72.7450,-11.6532,1.9795,37.6375,82.1186,-25.6741,-80.8106,138.1735,9.5132,-30.9503,40.0791,-132.6612,41.8600,81.7072
-2492.1875,69.6819,126.3617,102.2022,44.0513,-81.7323,-150.7452,-42.3080,-83.6980,-74.9574,-3.3419,78.4366,80.3395,61.4079,60.2585,-103.3125,-35.7778,35.0520,-102.5889,-69.1951,40.7067
-2484.3750,89.8124,181.4476,83.2526,134.3465,-62.9720,-132.6779,-133.4651,-74.7640,-130.0085,14.5723,22.6436,98.2519,153.5384,-33.7073,-159.2471,-89.7085,89.9207,-47.6146,-48.3692,95.5985
-2476.5625,130.0399,116.6358,128.3999,104.7542,17.8863,-123.5120,-124.5283,-108.8522,-84.9719,-159.4142,215.9453,107.2613,-59.2214,-25.5410,-113.0928,-117.5445,200.8918,27.4531,-44.4451,30.6001
-2468.7500,146.5178,133.0686,184.8021,156.4203,-0.0034,4.8949,-70.3474,-72.8464,-66.6899,-68.1593,124.5110,52.5218,-222.7256,102.8848,-95.6953,-100.1359,40.1226,-63.2213,-99.2730,-24.1499
-2460.9375,80.8958,31.4067,111.1010,19.9941,-0.9913,4.1961,-106.2574,-20.3811,-29.5052,-30.9942,13.9706,14.6714,-75.3248,138.2272,-57.4010,-98.8253,80.2331,-57.0029,10.7930,86.0018
-2453.1250,104.8089,91.2854,29.9387,10.1067,-45.4199,34.0376,-78.6161,-33.9262,-0.7717,-112.2770,-30.0263,44.3601,26.6456,93.1437,-29.5562,-70.9671,33.8919,36.7731,0.4252,4.7131
-2445.3125,93.4176,79.8652,53.4654,-37.0818,14.8498,57.5774,-18.2693,8.4865,22.6608,-88.8611,-6.3337,-6.2543,-23.6680,5.7966,-43.0181,-47.4071,-13.7553,-10.7475,58.7584,28.1109
-2437.5000,57.2770,-62.3098,54.2395,-73.0204,88.3723,21.3663,-17.6661,6.1535,-13.6529,-161.1884,104.6026,-42.6324,-96.7231,78.7252,-5.2436,-46.6023,90.8394,58.9682,92.3479,-8.2348
-2429.6875,113.9790,-5.6478,40.8606,-16.1139,75.7473,81.9962,6.7893,18.1834,-63.1248,-27.6709,19.3939,-18.1670,-181.9202,102.5409,-17.6256,-21.9495,-63.7099,9.5417,7.7931,-57.7319
-2421.8750,64.9285,-19.7251,-16.2777,-134.9465,55.3761,24.8765,59.4905,61.1054,-10.3538,62.1080,-73.5745,-38.4566,-90.8625,7.6261,-1.7701,-6.0474,-77.0314,-4.6368,99.4879,69.0208
-2414.0625,44.6146,-4.0637,-69.6678,-155.0328,-35.2371,8.4990,42.9451,60.2066,47.1679,8.6445,-54.7912,17.9950,-35.0504,-9.5275,-55.1696,51.5999,-27.5990,80.9330,113.9440,-21.4651
-2406.2500,40.2987,26.5942,-39.0624,-89.1193,-4.8532,2.1111,73.4002,41.9245,77.6913,76.1819,-61.0014,11.4466,-114.2451,20.3545,-61.5729,8.2471,-103.1657,-64.4950,74.3969,9.0421
-2398.4375,-5.6645,-54.3968,-16.1074,-97.8519,-19.1137,-47.9293,22.2141,-2.2985,63.5629,-11.9220,-36.8744,71.2407,-90.0929,115.6069,-1.6373,-41.7631,26.6193,-39.5810,64.1974,68.9083
-2390.6250,22.0693,43.3077,-22.4503,-0.8862,-98.6784,55.7186,-58.2726,9.3234,20.1232,-18.3422,-116.0545,101.7299,-24.2190,108.5898,-45.0106,24.9171,-86.8769,23.0417,-15.2914,25.4780
-2382.8125,-18.3447,1.8742,-31.9393,-7.0600,-35.3912,44.2222,-30.9120,58.6787,-26.4722,81.0766,-90.4056,90.0662,-70.4833,23.4670,-91.5446,14.4436,-92.5361,16.5096,49.0596,124.8915
-2375.0000,-11.6745,-25.4651,-57.3360,-69.1379,-23.9908,20.8195,-19.4544,34.5423,-51.9656,-16.3926,69.3370,66.5033,-167.6440,146.4570,-5.9819,27.0659,-15.0966,60.0805,57.5159,27.4179
-2367.1875,13.5434,-0.2579,-29.1870,-43.6676,40.9609,48.9644,81.5537,30.9483,50.0923,48.6881,-87.3657,20.4911,-104.2599,63.0171,22.1274,-18.7627,-131.1058,-56.7891,46.5187,-18.5126
-2359.3750,-71.9903,-85.7997,-45.7921,-93.9415,97.1680,32.3569,-8.1837,50.8826,70.4058,32.0304,-66.8213,3.7142,-9.6237,-27.1528,42.4797,-72.3420,30.1220,34.5753,136.7688,1.8119
-2351.5625,-15.8316,-29.6537,-19.6961,32.4807,86.0743,94.4370,-56.2230,43.2407,95.4187,20.0664,-40.5707,-7.3720,-131.2687,-75.6168,-42.4697,-46.2247,15.0610,90.6438,51.7323,-83.1533
-2343.7500,-22.3275,-36.1522,6.7472,26.2553,112.3255,83.8698,7.0895,111.3326,121.7807,120.4572,-13.9799,-92.1098,-250.5611,-196.7102,-53.0707,-19.7570,-26.6619,13.0617,151.0403,-19.7699
-2335.9375,-45.4324,-130.2607,-14.4175,-66.5798,53.9859,25.6888,-14.1937,97.4177,137.5444,62.2555,-35.0004,-76.4543,-125.4563,-71.3455,-0.2785,32.1018,20.0173,95.8748,162.7568,-77.9777
-2328.1250,-24.5435,-38.3802,-63.5865,-45.4185,4.6476,50.4973,9.5389,90.9242,161.3059,124.0223,-158.0018,-88.8016,-27.3362,26.0198,-13.4968,56.9667,-99.2833,10.7078,113.4734,-127.1885
-2320.3125,-12.7492,-132.5838,-18.8512,-68.3382,49.2034,-51.7728,54.1684,43.1735,169.9543,57.6973,-76.1107,-81.2548,-92.3085,33.3251,32.1598,-8.2885,87.2997,-47.5684,125.0724,-45.5056
-2312.5000,59.9355,11.0908,21.7830,75.6233,16.6675,-47.1466,21.6818,-57.8678,63.5191,-47.7175,2.6750,33.1768,-233.3828,147.5484,35.7325,-3.6656,19.7918,-9.9356,-83.4098,-77.8997
-2304.6875,-32.4312,129.6952,-4.6352,123.5392,-9.9196,36.4445,-41.8643,-21.8610,-73.9781,35.8033,-61.5925,80.5458,-113.5144,120.7346,-27.7415,5.9154,-37.7591,-32.3242,-105.9370,5.6472
-2296.8750,-64.6112,97.4895,-36.8502,91.6620,-5.2904,4.2403,-74.2025,-20.2814,-106.3086,-70.4728,17.3345,84.1005,-35.4441,51.1587,-23.0340,10.6870,105.8844,41.4775,-32.2494,-26.5977
-2289.0625,9.0009,171.0871,5.7409,165.5676,-35.8422,120.8168,-30.7493,-23.0738,-25.8421,-26.9624,-12.9219,53.4630,-176.5890,20.4075,-53.5378,16.2444,-31.6416,-25.9096,-135.7409,-94.0432
-2281.2500,-5.0739,17.0157,22.6294,116.7803,16.9084,100.6960,-14.9979,9.6880,-10.0604,25.8487,-33.9019,70.1245,-158.4432,-111.0096,-73.7540,-3.9059,60.1131,-40.0022,-78.9466,32.7977
-2273.4375,13.5902,34.6826,7.2622,99.7369,-35.5799,84.3097,-30.5013,-29.7859,-62.5246,-63.5737,97.8415,127.5355,-137.5371,-52.6534,-53.2275,-19.3171,77.6298,13.6480,-96.3884,-19.5933
-2265.6250,40.7231,61.8067,34.3482,92.1484,-8.6290,38.3630,-3.5663,-21.1735,-35.5450,0.4486,52.0360,7.4128,-110.1850,11.1698,-63.2573,-29.2840,34.6054,-65.2404,-69.3888,7.4542
-2257.8125,62.7639,-57.1392,56.3294,9.4722,50.2259,-13.6786,18.2683,-27.5364,-50.6607,-87.6157,37.1043,-7.8170,-51.9339,68.9013,-41.4011,-44.3494,126.4637,-8.2467,-12.4978,29.4052
-2250.0000,52.8443,38.9540,13.3517,69.8319,7.1344,53.3147,12.1597,-10.3699,-56.7222,-20.6406,-42.7768,22.9959,-57.6271,99.7097,-84.4941,-13.3679,11.3883,17.7972,-56.5391,-50.5831
-2242.1875,-18.0741,3.0591,-29.6370,-0.8039,38.0326,11.3062,43.0671,52.6157,11.2183,84.3254,-47.6638,-56.1854,-98.3370,20.5653,-52.5924,17.6239,-59.7037,16.8305,48.4116,54.4135
-2234.3750,-60.9974,-3.8526,-107.6220,-42.4527,-40.0569,-66.7046,38.9940,41.1192,7.1641,43.3049,-15.5614,12.6309,-67.0723,52.4326,16.3075,86.6094,-67.8001,79.8580,75.3703,-23.5665
-2226.5625,17.3204,73.4688,-100.3562,0.1347,4.1052,-96.4706,46.1676,42.4964,51.3581,86.5254,-82.2033,-17.2999,-22.5510,-87.4339,23.4602,57.8473,-164.6363,-17.8484,117.5793,-16.2995
-2218.7500,43.2212,-5.5974,-37.4941,-44.6700,66.8677,-142.6232,34.9448,21.4627,113.1534,2.3633,-19.2717,-28.6441,3.5869,-207.6813,49.1995,-27.3096,36.1039,43.0342,179.3804,9.5675
-2210.9375,100.9002,51.1218,26.1584,13.3099,19.4364,-79.9951,24.5276,-5.4914,103.7594,-7.0031,8.4548,-1.1914,-116.4649,-35.1000,2.7390,0.3209,-12.3320,29.7088,60.0021,-73.7479
-2203.1250,83.4868,34.7486,4.7105,-2.8077,71.8971,-65.4695,77.0167,18.1077,45.2578,7.5116,-50.9227,-23.8254,-136.6445,53.4416,-19.8164,14.8516,-29.8739,-57.7177,78.5143,14.8244
-2195.3125,14.0734,-34.6212,-29.7319,-72.9343,0.3634,-25.9520,115.5219,35.4125,-26.2531,-100.9636,-11.3101,15.5374,-134.8271,18.9836,56.6241,54.3767,41.5852,48.8432,114.0350,-19.5865
-2187.5000,35.5595,21.8972,-8.2762,-15.1668,-15.2757,105.4541,99.9165,39.6611,-4.8617,-5.5478,-99.7993,-37.1910,-40.0970,-69.5777,40.9570,1.8004,-43.0293,-70.6753,30.4678,1.9042
-2179.6875,21.0917,-96.5195,11.2364,-29.3364,4.1266,51.9194,46.3628,33.4519,-22.4168,13.9368,-43.2628,-17.8675,-56.3311,-50.0459,23.3140,-51.7304,119.3853,-14.1563,51.9408,58.4395
-2171.8750,93.9037,-24.6525,55.0452,43.7757,-25.1517,58.6715,-19.8843,-26.7480,-51.6713,-89.2706,37.5620,26.7477,-159.2787,177.8095,-43.0310,-44.9646,86.1144,23.6632,-51.2681,-44.7062
-2164.0625,74.2704,-45.2229,105.4009,-10.5631,25.1283,35.9764,30.4250,-7.5500,-1.3749,-1.9349,13.9217,-34.0833,-108.6861,81.2114,-29.8234,-31.6404,31.3849,-66.9601,-36.9321,5.6863
-2156.2500,33.7778,-85.6452,136.8992,-121.7595,19.5657,-43.5660,24.8947,-19.4364,67.0916,-44.4255,45.4042,-2.7836,-77.9460,-71.2166,75.5365,-0.1698,95.7898,33.5444,-6.4431,0.2401
-2148.4375,4.5174,26.1501,70.6396,-9.7259,-46.7552,1.1283,-4.3803,-7.5827,73.8160,73.3181,-20.8487,4.7734,-142.9596,-26.3439,46.1482,80.5509,-74.5381,4.3091,-106.6949,-28.9532
-2140.6250,-92.1868,-71.4906,1.9321,-2.1391,-42.5292,-31.6080,-37.0933,36.0520,42.0732,41.6177,-16.5545,-28.1136,-100.4364,52.1076,50.2909,48.8356,74.6579,11.6172,42.5807,49.3930
-2132.8125,-14.9539,-63.1860,15.1749,41.3788,43.6694,-55.3952,49.1537,-29.4328,18.2849,-93.1171,33.6928,21.9382,-125.9745,64.4848,99.3864,-11.9410,81.8110,19.8679,14.8243,-48.2881
-2125.0000,4.2827,26.1150,32.4169,60.8900,97.8661,-38.1848,103.3983,-9.9881,35.5078,-1.8762,-96.0696,38.9896,-71.5174,-65.0980,43.4954,5.2782,-4.0312,-66.8725,-0.9390,6.0213
-2117.1875,-95.8845,-38.9653,1.2500,31.9949,30.6531,-69.3768,-37.7602,11.2202,41.3339,-33.0216,-17.2615,44.6325,8.5416,-96.0142,49.2022,11.0960,106.7059,79.9702,74.8949,11.9363
-2109.3750,-69.3094,-12.2994,-3.1645,93.8390,-10.8049,0.1668,-5.1684,21.3414,147.8970,-0.4228,-20.6909,3.0398,-105.6598,-63.2031,81.6602,6.6625,27.2238,0.5790,66.4902,-102.3899
-2101.5625,-78.0282,-55.9121,21.1384,-55.5991,86.4419,-86.5768,129.1315,29.1013,171.1431,60.8699,2.5766,-46.8457,-118.1761,-75.7191,104.8119,-6.0688,19.4418,-147.1120,127.7702,-5.0266
-2093.7500,-19.3944,-32.1829,10.8002,-137.6876,-33.9578,-96.9703,118.7917,-29.1886,49.7364,-60.4870,-7.8292,16.6094,91.6533,135.1362,57.3095,20.5358,7.0213,-90.4676,45.4104,-52.2941
-2085.9375,8.9019,-3.7940,0.1048,-39.1352,-81.7236,3.2783,72.0965,-7.0723,39.9919,39.7867,-55.5861,5.7284,118.1124,50.6882,47.4530,46.7911,-105.7394,-167.1632,-32.3055,11.0802
-2078.1250,-58.3992,-70.9830,-1.1928,-36.1797,-9.1009,-34.0722,70.8042,-45.3938,75.6488,-70.5197,17.0416,4.2429,6.9590,13.6871,119.9890,-27.5521,36.8704,-94.4775,-29.6377,83.8584
-2070.3125,-54.5658,-32.0370,7.6573,4.9146,36.6713,47.7120,42.6646,-32.9281,47.4530,-99.6758,-11.1889,-24.1011,-130.0265,58.8481,91.6788,17.2484,7.6531,16.3619,-94.8061,18.8057
-2062.5000,-76.4191,-52.7694,16.8053,-17.6777,45.7436,56.8089,51.8204,18.6495,56.5429,19.4569,-1.1271,-87.1299,-46.7398,-113.7018,26.6687,26.3466,-15.2611,-40.4848,-45.6803,102.0414
-2054.6875,-45.1191,-22.3404,-19.8871,14.8645,-28.0111,-16.9359,-21.8827,-42.2379,-17.2124,-17.2450,35.0654,21.9829,25.6721,32.8979,26.8049,-10.4192,51.9713,25.8110,-85.3909,28.4384
-2046.8750,-23.5630,70.3449,1.6723,71.6439,-43.5089,-32.4420,-0.3413,-42.8368,41.2788,78.2829,-17.4878,43.3489,-62.6757,127.7730,-25.8134,-25.9456,-67.5171,-92.6299,-97.8469,50.0730
-2039.0625,-75.0899,-87.0375,17.1409,-85.6636,8.8996,-127.0362,15.1051,8.6796,92.6656,92.7171,-1.1531,-14.3861,-10.1306,-4.4623,26.4514,-9.5795,55.8787,-40.1803,59.5788,138.5942
-2031.2500,-80.3804,-92.1868,-23.1377,-90.7241,-67.4265,-92.3785,11.8006,-1.1955,127.3075,90.4012,-5.5792,-18.8746,-14.3448,67.5509,96.9779,60.0269,-55.4555,23.5233,-16.7390,62.3808
-2023.4375,-100.6098,-76.2936,-79.3677,-110.7319,-51.7073,-76.6652,27.5367,-0.6593,178.9963,179.1193,-61.9663,-75.3050,38.4655,119.6775,149.5623,38.6925,-109.7435,-64.7203,-36.0202,78.2049
-2015.6250,-107.7391,-119.2888,-50.5000,-117.6516,-58.8743,-83.8546,21.3856,-31.3881,135.7887,62.9476,40.7309,-9.6359,69.3722,40.9081,142.2339,69.4586,-12.9463,32.1203,-79.1964,35.1389
-2007.8125,-14.2236,10.3647,-23.9818,12.0578,-32.3790,15.5942,10.8846,1.8649,52.2293,125.4114,-43.9039,-20.3146,-15.0644,-80.2399,58.5689,95.8702,-127.4748,-14.3733,-123.7157,24.7195
-2000.0000,-100.5509,-76.8130,-44.3039,-39.0724,-16.7277,-41.7934,-10.4572,24.4612,29.8233,67.0356,-27.4080,-40.8511,0.6259,-28.2384,110.0493,73.4329,-38.8723,4.2744,-1.0992,113.4443
-1992.1875,-88.0938,-133.2170,-64.8258,-97.4223,-73.2682,-25.3888,44.0005,26.2372,48.2267,11.4723,-11.1215,-24.5891,92.1031,27.6029,164.3232,127.7797,-97.4486,17.7093,12.3322,20.9925
-1984.3750,-125.9922,-171.9647,-68.6968,-99.1277,-4.1771,43.6589,113.1043,78.7825,80.2977,153.5564,-88.1858,-101.6545,160.2060,-87.8896,123.2450,86.7766,-135.3655,-56.1970,44.4126,53.1796
-1976.5625,-107.4990,-153.2979,-14.1708,-116.4342,14.3074,-47.8809,94.6235,-5.6531,24.7749,25.0730,-33.8740,-11.3243,142.6847,42.0144,104.5727,31.1812,-11.9092,-71.7199,-8.1145,71.7750
-1968.7500,7.5687,172.9328,-2.0540,34.8341,-83.6132,-108.8264,32.7478,-96.4619,-37.1561,37.1762,-58.9616,147.6028,6.7756,127.5516,42.5153,43.1951,-105.8338,-167.6321,-173.0257,46.9838
-1960.9375,-81.3777,118.1536,-26.9416,16.1068,-72.5419,-171.7567,7.8747,-72.9980,-25.0824,84.2830,-48.0589,158.5399,18.8644,65.1153,126.4625,18.2117,-55.7762,-151.5520,-86.9503,168.1876
-1953.1250,-81.8520,83.8584,-60.3293,-20.1329,-68.9551,-132.1985,46.5121,-94.5376,13.5116,-22.0948,-44.6733,161.9754,57.4318,106.1893,92.9188,19.7240,13.7946,-45.9890,-122.3536,97.9139
-1945.3125,-70.0853,94.8012,-87.4729,-7.1197,-59.1200,-48.3954,93.4085,-57.9319,60.3625,60.7641,-145.0369,60.6696,104.2299,79.5170,29.6324,30.4882,-79.3635,-105.1591,-145.5072,144.8797
-1937.5000,-74.9729,20.1054,-95.2679,-82.7375,-30.9324,-93.2195,49.6603,-36.9119,53.5670,53.9836,-117.0765,89.7075,23.3826,-37.8285,58.6846,22.6047,20.8024,30.0164,-80.3176,210.1974
-1929.6875,-63.7363,137.5419,-115.9217,-1.2150,-50.5802,-3.8895,28.0566,-16.9412,-4.0938,106.3445,-100.9718,105.9131,-70.3138,-94.0121,73.8833,74.8627,-72.8622,41.3570,-138.9616,116.6788
-1921.8750,-74.1961,91.3009,-93.2720,-11.3842,45.0636,-54.2549,87.7514,-13.2152,-17.4654,91.9936,-114.5644,55.4408,-10.7394,-33.8553,24.3755,-11.5795,-13.2303,-39.0068,-44.3161,176.4474
-1914.0625,-42.4611,18.2666,-90.4133,-83.3573,9.9199,-52.4295,53.6540,-25.1551,-52.6385,-52.1518,-3.9644,57.1653,-9.9690,151.4888,25.0667,-46.8318,89.6154,63.8242,22.5400,68.4280
-1906.2500,-7.1232,54.8208,-15.9441,-48.7338,12.3787,-14.0078,56.1509,19.8208,-14.2150,23.2868,-110.7621,22.4886,-80.6125,117.4290,-9.6220,28.5155,-50.9207,-6.7272,23.9997,33.9989
-1898.4375,-57.2303,-100.0691,4.0797,-97.5575,69.3879,-67.0144,76.1936,34.4659,5.7651,-30.7150,-55.0286,5.3587,-24.7337,-46.0648,10.2382,11.4182,110.0651,49.2613,114.0003,54.1199
-1890.6250,11.3988,-32.2295,42.8534,5.3455,70.1543,-66.2700,76.9852,-2.6666,-29.5030,-65.9818,-17.5415,6.9827,-60.0984,-80.8133,11.8425,13.0640,72.8210,47.0045,41.7789,-17.9908
-1882.8125,-19.3690,7.2210,42.2264,44.8568,144.5154,-28.9252,114.3751,40.0765,6.8105,44.3358,-90.4590,-29.7787,-132.8531,-189.9438,11.0444,-23.6940,7.1766,-52.6424,82.1533,92.4853
-1875.0000,-100.6431,-39.8196,-4.8966,-37.1328,60.3796,-40.0715,-6.7321,14.3587,70.6215,-39.8344,-64.8995,32.9521,-34.1244,-16.5480,37.7483,2.0411,66.0262,40.1965,70.0327,45.4760
-1867.1875,-76.8253,56.2356,-10.9324,-11.0397,-19.6581,27.8864,-49.7456,10.7916,174.5173,64.0831,-109.2253,-10.2027,33.6793,-22.0350,-5.4388,-41.1123,-14.0061,-39.8430,25.0193,-34.4393
-1859.3750,-49.5425,-57.2399,53.4899,-54.4871,7.7496,-55.6724,14.6900,3.6260,201.8645,55.4670,-8.1037,-56.8953,23.9096,-105.1352,-15.1888,-87.8067,118.3899,-83.4399,87.4453,-6.9169
-1851.5625,59.1781,16.7228,96.3718,-15.4942,13.6161,-11.7810,20.5763,-52.7370,97.6729,-11.7042,-1.5292,22.8685,-117.4085,49.1954,-45.4961,-44.0711,51.2539,-44.5985,-84.6640,-73.9282
-1843.7500,-14.1911,48.5960,53.1571,16.3891,44.3732,55.0086,14.3494,-10.2196,17.3866,54.9938,-46.0574,16.5361,-123.8191,6.5022,-15.9050,-14.4421,-21.9790,-48.8580,-88.8846,-7.0603
-1835.9375,-68.2980,-75.2650,-1.8107,-36.4775,26.3800,37.0476,-3.6204,-26.9259,36.3684,-74.0377,46.6430,-1.5454,4.9976,-47.9231,112.9391,-32.5648,100.0173,39.1081,-35.8604,-24.9353
-1828.1250,4.5394,-37.1853,2.1725,0.5879,-6.6596,77.0246,36.3673,-34.3376,39.3112,-33.1253,-23.7039,-34.6640,118.7344,29.5961,79.7524,8.2649,-73.0197,-63.9703,-104.8840,-57.8490
-1820.3125,-50.1719,-90.6356,-24.3966,-87.8851,-33.2641,14.4676,47.8052,11.9654,-59.3077,14.2473,23.3910,-24.3224,92.9122,41.5562,91.0125,55.5596,-57.6164,-48.6007,-18.4743,63.6760
-1812.5000,36.7595,-40.4508,-41.3089,-72.7127,-87.2129,-2.4378,30.9025,8.9197,-113.2829,-2.7188,43.1296,69.6654,-72.2329,61.1238,73.9129,111.5016,-76.5483,3.4119,-37.4031,9.8642
-1804.6875,28.7549,22.7905,-51.1600,-45.4992,-96.1095,-49.2950,58.0479,23.8024,-13.2298,98.3384,-77.0681,59.7190,-8.3387,-21.2393,26.8618,65.4874,-118.4160,-75.5108,25.7029,37.0889
-1796.8750,-4.9953,-45.6990,-48.7494,-78.0243,-20.7376,-118.8996,60.4459,9.2070,26.0713,-10.3535,-39.0244,25.0237,140.7761,-92.3174,29.0481,-6.2860,23.9521,-38.2082,133.0450,39.5699
-1789.0625,32.1025,-43.3592,-41.4800,-40.7162,-87.5002,-39.6695,66.6895,33.0730,180.2139,-3.2090,-32.1189,-41.8154,73.7439,-84.5570,35.0921,36.7824,-79.7909,-107.0456,135.2502,-64.0880
-1781.2500,-18.8829,-130.0986,-61.3040,-127.4911,-107.3614,-22.5222,83.8301,73.4617,418.2419,86.8196,-15.3231,-134.7354,17.6010,-140.9411,53.0418,-19.2442,-61.6317,-156.9728,224.3391,-9.8641
-1773.4375,75.7782,-105.1848,4.5252,-138.6120,-114.5591,6.2853,39.6300,58.5667,152.9132,42.4982,87.1100,-69.0089,-137.9176,73.3116,-28.3602,9.3731,-1.8151,-63.2528,143.0859,-90.9771
-1765.6250,126.5921,50.8774,55.5072,-51.5950,-63.6091,57.2411,53.5693,52.1696,-54.2721,130.2875,27.7036,-55.1211,-160.2698,50.7671,-88.6145,24.1223,-91.8232,-118.3792,17.9784,-39.9469
-1757.8125,54.7250,-20.7421,51.7936,-53.2810,-31.3598,16.5007,12.8077,39.6959,-95.1703,52.3667,96.5938,-95.9238,55.7008,-172.4544,-56.5729,-17.8293,48.4470,21.7693,52.1607,29.3744
-1750.0000,83.2026,42.9745,12.4314,45.3629,-106.7569,125.1106,-62.5967,29.6399,-243.7311,12.7938,93.8317,-24.3548,127.0144,-101.3495,-58.1693,53.5764,-63.9194,85.2740,-60.2973,-82.9436
-1742.1875,76.9320,37.9604,39.3093,40.2624,-43.9188,150.9836,-73.7588,64.0738,-218.0382,112.4729,46.3065,-35.5131,-68.4551,-0.9832,-105.5185,6.2481,-70.0491,9.0385,-31.5218,16.9727
-1734.3750,107.2644,-1.4298,72.7853,-34.2351,-9.4879,38.4579,-76.3173,2.2695,-147.7302,-0.2227,116.3644,-38.0684,-71.3541,69.9870,-72.2864,-70.4918,66.4164,74.3841,-0.1394,-22.5001
-1726.5625,171.6100,98.1957,31.2670,29.2620,-14.0679,32.9294,-43.8877,-9.6046,-116.4191,31.0679,1.4486,-42.6208,33.7295,28.9456,-114.0572,-38.2392,-10.0906,32.7394,-41.7587,-63.9853
-1718.7500,89.8241,122.6955,55.6018,88.6198,10.1959,-15.7277,-56.6115,-6.9178,-201.2618,-54.7851,61.3753,-18.3230,-15.3376,-130.2645,-89.9802,-51.1276,155.2254,127.9333,17.4489,-39.6321
-1710.9375,140.4352,208.5835,76.3389,210.3670,-7.1313,78.0052,-109.9317,-33.3661,-219.7012,-145.2362,44.7018,75.3705,-105.9823,-146.1027,-106.4867,-31.6194,134.9524,142.5202,-72.9328,-129.8640
-1703.1250,91.3098,158.7368,95.3316,195.3661,11.7993,133.9809,-91.0069,6.0621,-163.8923,-89.4564,-46.7144,-15.6797,-50.3747,-52.6701,-161.7431,-85.8655,120.9378,57.3512,-17.0747,-73.8671
-1695.3125,119.3558,-23.9479,127.4866,83.5177,6.8871,92.1104,-95.9263,12.3958,-131.9323,-131.5192,58.0181,-94.5787,-19.6384,52.9294,-129.8659,-90.9746,184.0633,121.3118,46.9233,-115.7151
-1687.5000,154.7035,82.6520,128.9487,118.9550,-27.7311,167.5384,-57.5532,33.6773,-166.6844,-56.2992,-13.9400,-92.1501,-17.6126,-18.1783,-164.6789,-15.7825,9.5069,51.5878,-23.7751,-150.2594
-1679.6875,69.6928,103.9173,73.0463,105.0483,26.2811,148.6366,-39.5355,84.5428,-221.7849,-38.4095,39.7207,-38.0651,-147.9217,-184.6343,-147.8340,-34.9252,100.5677,71.5158,103.1589,-59.1672
-1671.8750,90.5577,124.0781,99.0308,160.0315,52.1945,173.6374,-51.6180,59.2761,-160.9706,-86.6066,65.2832,-13.0957,-305.3289,-85.1871,-159.0831,-47.1741,85.5353,127.3342,53.0040,-144.1601
-1664.0625,32.8233,31.6410,73.4217,103.4188,63.5056,149.0409,-3.3046,91.9985,-75.7610,34.5785,-33.7289,-148.7110,-74.3608,-36.3333,-110.9419,-35.0179,27.9126,-0.4396,101.2407,-95.7614
-1656.2500,19.3949,-86.4926,58.1127,19.1116,48.1120,59.7640,18.3101,54.8166,-54.2473,-90.9337,-12.4488,-127.0175,130.9038,-87.2175,-52.4972,-13.5587,120.5788,56.0849,122.7780,-74.0658
-1648.4375,80.6125,45.0062,52.4584,115.4391,5.3722,127.1380,-24.4233,13.7799,-61.0787,-96.8001,-56.5099,-22.6798,87.8275,-56.4809,-59.3907,-20.4496,-30.0963,47.2627,7.9781,-153.7149
-1640.6250,49.9834,84.6593,51.9554,49.9158,41.7829,90.6632,-24.0081,11.0496,-23.7626,-23.5243,-19.4192,-22.1896,-60.0928,-18.5688,-22.1337,-57.1903,-24.6281,-18.4103,12.3218,-43.2276
-1632.8125,52.1992,52.1657,19.2984,17.2411,46.0465,58.0424,-56.7419,-28.9879,-56.6041,-93.3958,94.5143,18.1516,-93.1620,96.2205,-18.0351,-16.0821,-22.3133,53.7615,-55.4840,-75.8898
-1625.0000,-6.0352,64.2153,30.1922,64.1084,-17.1321,67.9803,-120.9317,-12.7103,-83.9059,27.2668,31.0116,-7.9475,63.3097,32.5454,-45.3860,30.5762,-116.4367,30.5011,-114.7385,-29.0045
-1617.1875,-47.7664,-47.2312,22.5906,58.4787,12.1929,24.4382,-163.6274,-10.9417,-163.7067,-17.5709,60.0106,-15.5409,240.2728,-84.6443,-16.2404,-14.2656,53.9257,129.7397,-50.4957,0.3742
-1609.3750,61.0476,61.8642,66.5345,166.3903,19.0741,105.4453,-157.7764,-51.4349,-194.9537,-46.8603,103.5606,65.4198,99.7919,-40.2842,-45.5379,-43.5626,20.8418,62.5266,-153.6990,-102.6893
-1601.5625,69.2133,176.3265,106.8314,104.6608,96.3035,72.8053,-80.5866,-51.5908,-189.8663,-43.8169,33.4692,69.7500,-7.3406,1.4329,-79.4864,-40.5109,-40.8859,-35.3316,-143.5603,11.5850
-1593.7500,-7.3711,135.0460,29.3789,98.1916,54.7865,31.4198,-122.1449,-62.8884,-158.5353,-122.5237,-8.3770,138.3392,97.7812,33.3892,-47.1921,-8.2091,23.6334,64.0484,-116.1703,-29.8933
-1585.9375,-78.7002,99.0056,-44.8176,133.9623,-18.4792,104.2787,-122.4575,-19.5037,-85.9552,-48.9906,-8.9687,64.1810,134.1667,33.5939,-10.6456,-8.6592,-46.5879,28.6830,-81.5276,-30.1229
-1578.1250,-97.8742,-60.8797,6.1305,43.8877,69.3916,45.2940,-71.6240,11.7065,-35.2256,-35.3059,41.5909,5.1835,37.6934,-25.0372,3.0498,-68.9534,109.3281,44.4651,40.2533,20.7890
-1570.3125,24.4979,61.7842,-8.3718,60.3586,16.8116,103.8628,-160.2356,-32.9908,-49.9454,-87.0721,25.7070,26.7399,58.7709,33.8619,-48.7049,-46.6981,55.7981,96.7892,-83.4111,-67.7375
-1562.5000,-0.5306,72.0432,-0.2743,35.4281,25.8272,75.0354,-115.2498,-17.3830,-42.0644,-42.2507,-39.5737,-1.0958,177.4651,-30.6503,-3.8516,-38.8432,30.8752,0.7234,-38.4822,-22.6715
-1554.6875,-5.4599,-37.5921,32.9225,-39.3964,95.9421,-37.6772,-44.1634,-71.0998,-45.0869,-156.3228,30.2329,69.1678,137.2717,2.9333,103.1013,-78.8853,132.0405,30.7489,-8.4600,-62.5058
-1546.8750,-17.2465,55.9179,20.2654,53.9208,82.2068,22.7600,-20.9333,-82.5420,-58.9622,-96.2532,-56.8026,92.5855,49.2264,100.6865,52.2047,-55.7813,14.3671,-51.0686,-126.2828,-39.1898
-1539.0625,-81.5813,-44.1178,-16.9433,23.6889,82.9161,-50.3393,-93.2573,-62.5896,-58.3917,-58.7395,16.6183,56.4556,123.6280,64.9074,-21.2429,-91.2250,125.1306,23.5689,-50.6637,71.5634
-1531.2500,25.8268,-5.4122,28.5938,97.1989,53.3792,-116.6814,-123.8299,-125.4837,-88.0702,-161.4763,134.7896,101.0716,130.8016,-0.1376,-49.9362,-121.9188,163.6442,96.9522,-83.2930,-30.9293
-1523.4375,35.8342,39.8836,73.7303,107.3071,98.4416,-71.4209,-78.8094,-83.9604,-43.1596,-43.6335,105.5725,73.2946,175.5929,-174.5871,-79.0256,-149.0094,67.7678,-34.0475,-38.3255,14.1660
-1515.6250,-57.6506,-18.3183,49.3745,14.9256,111.0122,-94.6532,-102.2873,-58.4793,6.2371,-68.3060,154.8603,122.0213,113.8836,-125.5326,-66.6218,-136.5996,150.3874,14.4411,45.1362,26.7542
-1507.8125,-22.4893,52.1205,15.6716,49.1852,77.2474,-18.2446,-100.1105,-34.4798,-64.7266,-28.3520,83.8061,88.4047,-30.1689,98.1751,-63.5717,-98.5405,9.6747,13.5861,9.2600,-44.0078
-1500.0000,-63.2642,-58.3826,7.0250,-26.4963,105.5393,-26.7798,-107.8870,4.9149,-109.6470,-37.3599,75.8098,6.8443,107.8240,89.9126,-35.4675,-106.4281,75.0062,8.7867,109.4230,21.2644
-1492.1875,8.7588,-56.0825,-24.8208,-24.3737,36.6324,15.4968,-103.8645,-19.9469,-68.7678,-106.5620,79.6124,12.0728,186.6302,58.4401,-30.5610,-65.5180,41.1351,79.7773,40.3818,-47.6616
-1484.3750,-8.5704,-3.1408,-44.0163,-6.6050,-18.6275,69.4235,-49.1972,16.0169,-14.2434,-15.1278,24.0713,-7.0446,167.0842,76.6344,-86.9986,-10.9567,-82.0710,-7.5740,22.9862,-29.9400
-1476.5625,-59.3475,-88.6347,-23.6607,-92.2746,38.6568,-20.0915,8.0235,11.8885,-31.1686,-106.1371,117.0838,-23.5993,76.0683,97.3769,-29.8909,-27.8432,79.2628,12.6153,113.1260,-9.6736
-1468.7500,18.7741,24.7672,25.5959,-14.0435,13.8392,-7.7099,20.1359,-17.2713,17.8022,-93.2439,93.0113,62.7539,-95.0402,36.9942,-17.8803,21.1646,-18.4912,-15.2936,15.1701,-107.5013
-1460.9375,9.4540,-19.2829,-25.5938,-23.2557,-0.4387,-21.7672,42.7855,1.7975,113.3148,2.1896,4.4992,48.6680,0.4121,-87.8330,4.6827,6.7200,-27.6954,-60.6518,40.7525,-11.7892
-1453.1250,28.8793,-34.5801,-39.0402,-38.7248,-50.9680,-72.0706,-44.8110,-35.3137,62.5779,-85.6166,63.7333,71.3321,96.6303,46.1076,26.9873,29.0278,-8.1669,-5.2726,25.0860,-62.3247
-1445.3125,35.9496,42.7610,-31.8433,-31.5615,-80.8446,-101.7311,-0.7611,-16.5265,106.4956,-4.7736,70.6294,41.6465,-6.4893,53.6890,-2.0505,72.9884,-106.9834,-68.2336,32.0779,-55.2115
-1437.5000,10.9296,18.0116,-25.7454,-57.4868,-0.8225,-94.4878,42.1811,25.1990,112.3140,37.9798,40.4296,48.8605,-37.7120,-195.8502,-33.1886,79.8515,-26.9066,-24.2929,76.9557,24.7924
-1429.6875,-25.0407,87.3048,-59.5959,12.6359,-34.7392,-18.1975,44.1745,16.8245,78.1800,76.7868,-67.7190,88.1249,2.1095,-83.3437,-30.2799,118.7604,-132.7665,-24.3061,-29.1142,-46.1466
-1421.8750,-22.7037,-15.1061,-61.1439,-54.9396,-0.3518,-20.6094,116.4697,36.3279,76.3447,111.8752,-105.5575,12.6981,73.2265,25.4636,-33.0694,42.9736,-129.3207,-127.0122,44.1148,62.2031
-1414.0625,38.4791,-59.6641,-32.8483,-133.6712,-45.1111,-65.1707,71.6200,2.1308,31.3689,-44.1747,69.4515,79.1174,28.2118,-55.8909,32.9995,35.0404,1.9545,39.1164,69.1996,17.4022
-1406.2500,114.5508,87.6665,12.3376,-58.5120,-36.9703,54.1610,42.6716,6.8014,39.2988,0.6757,3.3703,86.4368,-111.8962,-84.3486,-33.0187,43.0072,-132.8642,10.1490,-29.8129,-11.4951
-1398.4375,-16.6228,-8.2455,-54.7309,-48.5964,42.9104,60.2490,11.4647,45.1443,44.9746,6.2783,-63.9612,56.5078,-104.2531,-4.0506,-27.2842,11.7295,-52.9447,54.9364,49.9174,68.3474
-1390.6250,-68.8956,-24.2687,-105.9009,-29.7857,29.6880,83.2379,-1.8438,44.5470,31.5493,-44.2181,-41.3823,43.4789,-45.7136,93.1674,-3.6557,71.3446,-70.1258,72.6173,32.5549,-18.9021
-1382.8125,-92.3673,-83.5065,-59.2712,-54.1868,39.2562,57.0253,81.6436,63.2679,113.9281,76.0690,-31.9877,-20.7447,74.6433,-80.8087,42.7800,81.7581,-163.4998,-21.8967,43.9967,27.6385
-1375.0000,-68.0350,-127.9374,-69.8390,-99.7855,-8.3742,9.6251,-3.0700,34.4117,140.1102,-8.8342,31.2059,42.8279,63.8239,-91.0415,69.0180,106.9767,-69.0859,73.3902,33.2384,16.9761
-1367.1875,47.9986,57.3169,-20.7038,16.3115,-70.2909,21.9302,-28.0801,7.4811,41.9925,75.9577,-30.8890,55.0896,1.6944,-115.6064,43.9631,81.8933,-128.9573,13.3861,-62.8080,-7.9848
-1359.3750,-16.5118,-6.9851,-18.1178,21.8555,43.2462,-48.3118,11.3575,21.5687,44.3231,79.1890,-28.5244,-16.2003,78.0068,-257.6893,46.3555,48.2601,17.6110,18.8349,13.5940,68.4923
-1351.5625,47.3675,22.1016,17.8633,85.7878,115.1853,-50.1569,10.1951,-60.3673,-67.9418,-144.1724,43.2362,-17.0936,149.7484,-113.3582,8.1475,10.0250,81.5717,82.6742,-62.5992,-43.6288
-1343.7500,13.9394,93.8793,19.5387,123.4075,153.8259,25.6903,-25.2681,-63.8760,-176.5068,-178.8464,8.7116,-15.2798,77.2024,183.6861,-64.3576,-25.5047,13.2384,49.2142,-97.0889,-42.0604
-1335.9375,37.8171,47.9614,43.5146,76.3353,140.7700,12.8397,-75.4219,-32.5787,-188.7772,-191.2110,142.4845,-28.1686,-83.0441,134.0188,-77.5691,-1.7267,107.1948,108.0462,-37.2871,-18.1962
-1328.1250,103.8385,114.1779,76.6355,142.4127,100.8741,120.1320,-78.4293,-19.2321,-119.9001,-85.4214,102.4193,42.0847,-160.1306,20.4813,-190.6301,-4.8002,-2.6840,33.0341,-113.3226,-58.1796
-1320.3125,78.6707,89.1889,45.5587,47.3033,32.7801,52.2243,-108.6405,-14.9133,-41.2219,-6.8393,34.1691,11.1373,29.5729,-10.2615,-147.8834,-73.0714,7.2321,-27.1731,-32.5649,57.6236
-1312.5000,163.9499,174.6449,26.9266,-8.3570,-96.8658,-3.2296,-128.3975,-47.5956,-23.0846,-99.7989,15.3687,29.6427,10.7208,8.4449,-20.6826,-55.8904,57.5831,58.0607,-17.3590,1.8828
-1304.6875,158.2190,204.0926,21.2859,20.9747,-28.5241,65.3091,-24.1574,35.3918,-28.9491,42.2390,-64.4274,-49.8447,-142.1207,-179.8414,-26.4730,12.2975,-54.0584,17.3045,11.8458,-3.8550
-1296.8750,21.6418,-38.3044,-13.2098,-45.5411,10.9551,31.0017,15.2300,88.0195,-26.6613,44.4323,11.9306,-83.1910,-102.7863,-139.9785,12.8874,51.6421,-14.5651,56.6965,121.1915,35.5484
-1289.0625,14.6105,-9.1691,-90.1539,-51.5124,-103.0137,-8.7573,48.1673,24.2412,-29.8263,77.1724,-28.1547,-12.9974,40.1261,150.4174,9.8054,121.5345,-161.5154,-20.3564,-25.9036,-41.4926
-1281.2500,-5.5183,75.8553,-80.2001,-35.5861,-203.0763,-35.6063,57.0052,21.9515,-57.0972,159.7983,-92.3292,32.0977,48.9241,48.7160,17.6315,93.3290,-110.5600,-75.4973,-45.0973,114.3531
-1273.4375,38.2482,85.7727,-33.3485,-27.7581,-266.2325,-25.5492,-6.2486,-3.8181,-83.4582,59.3339,-9.6044,43.0864,-50.3956,22.9173,65.3579,30.0260,74.2795,3.2521,-37.3853,88.0975
-1265.6250,39.0084,50.6738,-32.5050,7.0551,-191.3922,12.4998,-41.4998,-4.0727,27.1925,170.8733,-44.8787,8.0703,-85.6965,135.1039,30.0905,31.7269,-100.8727,-66.9914,-106.6619,52.8463
-1257.8125,-56.6772,-150.8771,-60.1192,-88.5817,-110.0049,-15.9049,2.7982,6.0730,108.3939,141.9711,36.4024,-56.4003,31.5680,106.8420,37.3762,38.9826,-56.4890,-56.6855,-62.3918,97.1346
-1250.0000,-48.3709,-140.4460,-83.7350,-44.2308,-96.5989,35.6807,18.1052,-9.6842,49.6021,46.0721,14.6908,-5.8813,9.8418,158.5835,52.6632,90.2374,-83.1055,22.6117,-124.1112,1.4301
-1242.1875,-23.1176,-80.0779,-23.4003,16.0670,0.7586,59.2013,41.3585,29.1299,35.7621,106.1134,-36.0573,-55.4126,-76.9112,-74.7231,38.9081,40.4476,-57.7632,-23.1369,-63.8795,61.6660
-1234.3750,-44.0560,-135.9078,-5.2651,-3.8271,91.9178,3.5146,22.4200,12.9434,126.7204,12.9687,55.9925,-75.1485,-59.8684,-203.2354,56.9533,-15.5441,132.3694,-8.0959,21.1503,5.7004
-1226.5625,-2.1473,-130.8969,-32.2755,37.1262,27.9365,13.6668,68.3280,-7.1549,246.5275,95.6731,-45.0944,-102.0352,-12.9911,-9.8954,65.8490,-5.6914,-36.6347,-143.1961,-42.9675,-58.4088
-1218.7500,-133.0459,-226.6815,-64.0933,-94.7129,-39.8507,-54.9771,74.4253,22.5115,325.5298,137.5807,-76.9719,-59.7190,-7.9098,179.6581,107.9456,36.3675,-63.4488,-133.0883,36.1019,20.6731
-1210.9375,-97.6046,-155.1219,-95.5679,-128.1970,-145.2855,-12.2705,41.8704,17.6983,293.8895,31.8501,-34.4975,19.9423,-39.4588,148.5218,150.4015,77.7753,-96.9140,-26.6360,37.5286,-47.8839
-1203.1250,-35.9606,-23.3740,-33.8390,-135.4892,-119.5228,-24.3726,103.5162,16.1186,208.4521,57.3151,-83.8109,7.8014,-14.7935,-10.4316,101.0695,66.3850,-139.1637,-105.9761,29.1536,13.7536
-1195.3125,2.3402,-55.9835,-31.4559,-133.1309,-117.1114,-130.8212,32.8099,-29.7602,173.6724,-14.5578,-7.4729,10.2973,24.5291,-7.7166,103.3890,31.6477,38.2160,2.3200,31.4205,16.0369
-1187.5000,-15.0703,67.6777,-83.7800,24.5060,-133.3972,-36.9779,17.4058,-43.5565,231.2047,42.8783,-133.8297,32.0839,9.1665,50.3015,125.0141,52.2136,-85.1057,-15.0818,-91.9937,-36.3722
-1179.6875,-88.7910,-6.9669,-91.4171,19.8344,-177.9821,-9.4372,44.7098,20.5586,222.4472,108.0256,-141.4872,-14.4292,73.5049,-67.9910,152.3510,43.4962,-18.7458,-54.7768,9.2900,64.9130
-1171.8750,8.1758,21.0765,-25.3657,12.8596,-220.8647,-15.1980,38.7234,-19.4565,69.3976,-46.1104,-1.4477,-20.2526,-6.4466,73.4153,109.3933,0.4777,79.3051,-27.7741,2.2772,21.9057
-1164.0625,96.0878,109.0433,66.6329,-5.1643,-165.7901,2.9826,56.6780,-26.3396,-23.7083,8.6906,16.5662,-39.1395,-134.4376,127.7904,54.3882,-18.5911,-8.6730,-113.8049,-50.7815,39.8453
-1156.2500,28.0080,-28.9922,30.6390,-107.1812,-90.7055,-31.8387,20.6348,-0.7004,14.1865,-27.5064,17.5841,-1.0293,-24.4424,93.1712,55.3811,19.3392,29.3388,-6.8426,22.1594,77.7771
-1148.4375,0.6179,13.6517,-67.6554,-29.5130,-116.9074,54.0298,-3.6988,-9.2459,62.7900,-14.9970,-80.6947,11.7775,135.2503,142.2424,67.0798,31.9685,-103.9441,0.8169,-40.1813,-20.5832
-1140.6250,-68.3263,-20.2687,-68.5085,-97.3993,-7.6616,-21.6547,68.4155,4.1539,98.8366,56.9570,-81.5206,-26.9698,133.4094,67.7652,103.2418,-6.9458,-100.7802,-68.0551,31.9272,51.5024
-1132.8125,-54.2892,-111.1998,-51.3736,-119.2786,83.5748,-77.3342,49.5244,-22.0424,42.8811,-36.0663,46.6490,-45.7325,41.5849,122.2861,83.4061,11.1547,18.3741,52.0773,11.0393,-4.4114
-1125.0000,-36.6141,-94.5034,-32.5858,-31.5052,102.4671,15.6325,31.2893,45.7956,-12.4113,55.5560,-8.5171,-63.8534,-87.5896,67.4238,65.2300,65.9040,-105.8061,-1.1329,27.8121,-22.6749
-1117.1875,-92.1404,-184.0150,-18.9987,-120.9257,116.1654,-7.6045,81.8681,67.0708,38.1097,32.9822,42.1115,-50.1747,-73.9564,-101.6517,79.8640,43.4524,15.8034,14.4459,113.3773,27.8585
-1109.3750,-52.5246,-74.3912,-9.2695,-82.2072,89.0204,-71.6984,90.5963,-15.9488,9.7799,-68.4325,-22.1107,32.6461,45.8310,54.4412,51.6510,15.1509,19.5688,-16.8273,47.0975,-73.4448
-1101.5625,-30.8598,18.2785,9.5103,-60.4424,107.9252,-88.7528,73.3708,-19.7899,-7.5114,-12.7948,-77.2714,15.5175,65.6694,110.5953,-39.5000,-76.0997,7.3859,-65.0453,69.8618,19.2967
-1093.7500,-43.6998,-66.5556,-2.2090,-38.1769,96.3304,-101.3172,24.6501,-12.7037,-19.2938,-61.6384,22.0599,40.8778,17.0203,26.2337,-14.1427,-50.8449,134.6912,62.2281,91.1286,-29.4586
-1085.9375,0.4943,-21.3662,9.1184,76.1247,33.7935,21.1504,71.9803,4.7793,-45.0135,-13.4322,-3.5590,15.2808,-82.5744,0.9336,-2.7230,-2.5308,3.0531,1.5542,-4.5443,-55.1528
-1078.1250,-44.5190,-171.3832,31.2337,-3.7711,57.0480,6.4142,58.1140,37.4537,-95.9215,8.5846,92.6243,-36.5174,-96.3780,23.4547,-17.4998,-17.4049,134.2051,-8.3189,56.5764,40.9475
-1070.3125,31.7585,-96.1235,78.6463,-32.3767,30.6073,-19.0360,-4.4429,-7.9109,-85.5121,-54.0745,177.1072,-25.0268,-85.8617,34.2564,-42.9675,-42.9771,140.6495,33.0964,27.0079,-58.6404
-1062.5000,53.1240,-3.7895,100.1545,-45.8943,89.2660,2.5980,17.1077,-7.1250,46.0132,4.3699,87.7033,-40.4415,9.7604,-90.8553,-95.3197,-95.4450,56.2026,-121.3797,48.5482,-37.1295
-1054.6875,3.4292,-53.5147,85.6141,-60.4606,111.8837,-85.8164,-34.3819,-35.5064,215.4988,-10.2144,147.2450,19.0786,-4.6906,-178.0205,-35.7161,-109.9565,112.6908,-29.9135,69.0423,-51.6637
-1046.8750,49.5152,27.5348,98.8698,20.7658,125.3092,1.5577,14.9291,-45.0000,118.7821,2.0101,123.5923,31.3862,-102.3352,-201.3790,-22.3079,-59.6667,-17.0073,-53.6376,-59.6537,-75.3865
-1039.0625,43.6950,-49.3282,86.2212,-20.9089,148.8303,25.0271,39.3367,-4.9952,-260.8371,-83.6606,147.0482,18.7883,-41.8628,6.3763,-35.7914,-36.2683,47.3883,-60.2570,3.7444,58.9825
-1031.2500,73.9598,-18.1085,48.6668,-24.4892,74.4576,24.5904,38.8549,-48.8040,-335.3402,-194.2081,109.5994,91.2754,31.7132,227.2205,-36.1601,-36.7666,77.8699,-28.7835,-34.7490,-15.5384
-1023.4375,69.7018,47.5825,44.6030,-28.5785,34.5911,-16.3523,34.8766,-36.5009,-156.3309,21.7490,-41.3501,51.2597,100.7850,186.5502,-77.0176,-3.7609,-31.1368,-138.7947,-74.7227,-19.5564
-1015.6250,21.3835,-36.7926,66.4862,-77.7104,19.6756,-104.3414,19.8501,-47.0896,-134.3604,-30.3250,54.6478,73.1815,49.8007,208.8255,-54.9231,-18.7989,95.7907,-81.8574,-16.7399,2.3733
-1007.8125,122.5458,64.2960,62.8644,93.6453,-19.7367,-70.8441,17.3277,-98.5914,-100.8765,-69.8777,88.1451,106.5852,-63.6761,132.6140,-57.3165,15.6675,-13.7764,-86.4225,-162.2477,-37.1855
-1000.0000,67.7458,9.4170,37.2887,110.0466,-81.1026,-58.3134,-9.1433,-49.1010,-16.3277,14.6306,62.6962,81.0410,20.9013,-112.5339,-9.6583,-10.8102,36.7048,-104.9361,-74.7106,84.3032
-992.1875,106.0308,-22.3674,7.8103,78.5450,-111.3553,-52.6983,-38.4999,-37.7303,-82.6706,-51.7329,106.3407,88.5921,-8.4240,41.4022,-75.8971,-3.1810,111.2750,39.6426,-37.0691,17.9023
-984.3750,147.3960,88.9227,52.4245,84.1399,-67.4996,29.0005,6.2451,-15.4161,-147.9133,-43.9883,41.0929,59.2375,-37.6453,85.4292,-177.0256,-32.4494,-23.0371,10.3351,-30.3167,-11.3888
-976.5625,97.2542,3.7080,71.5384,-0.7553,62.8600,48.1978,-11.5046,-29.1458,-127.6675,-170.7278,97.3477,4.3801,18.6132,-5.0380,-84.6445,-122.2121,68.1416,66.5217,25.9308,44.8218
-968.7500,77.9471,55.3155,55.5048,51.1980,11.0766,143.2384,-63.3962,-35.3399,-144.5798,-186.6021,81.4616,26.3613,39.7082,53.3300,-26.4086,-65.1199,-55.8207,82.5598,-62.9579,-44.0976
-960.9375,-27.0771,-14.8063,-22.2306,16.4412,6.5881,139.5680,-66.9877,12.8473,-110.1537,-44.1728,3.8724,-15.3733,110.1163,87.0025,-30.8563,4.2731,-125.4824,48.9056,-62.5378,62.2837
-953.1250,-116.3783,-140.2097,-42.2313,-3.5774,-13.1496,119.6385,-50.8233,27.4947,-93.9183,-99.9679,21.0124,1.6205,90.2964,177.4271,-13.5359,21.4227,-5.4103,133.9997,-12.3607,42.4177
-945.3125,-29.3518,-17.3009,-57.8881,14.7363,45.4690,103.0433,7.6947,10.4294,0.7001,-116.4014,-31.4900,-14.0481,37.8262,125.1937,-28.8498,5.9267,-57.9767,11.4550,6.1824,-10.0938
-937.5000,-2.0346,-25.1129,-31.2364,-96.6465,145.3930,-17.2566,71.5193,-3.9263,27.6201,-161.5158,32.3216,-60.4259,64.6276,-67.7370,35.1436,-41.2541,5.7412,4.2088,105.0253,53.6909
-929.6875,20.3041,32.0928,-40.5307,-4.9941,62.3794,-26.5161,-11.5962,-12.5825,-55.4047,-98.5500,23.1807,3.2246,91.4733,-114.6158,62.1974,23.6217,-77.4987,133.0118,21.9334,-29.4553
-921.8750,-46.9918,70.6714,-76.4382,104.0526,26.7652,10.6133,-48.3071,8.6907,-91.0216,49.8294,-86.5682,3.2753,128.7346,-112.1059,26.6681,-13.0932,-107.3372,66.2265,-9.7455,44.8007
-914.0625,-85.2565,-2.7152,-78.3070,101.1490,-47.7940,-27.2091,-121.9540,-5.8134,-18.5748,12.2861,-14.2816,2.3697,18.0471,70.4289,63.1956,-50.7473,64.8625,98.4860,23.6363,7.1108
-906.2500,-40.0002,112.4120,-64.6318,146.7817,-107.7890,59.5025,-72.0396,-10.9546,142.4413,99.3100,-37.4503,-57.9983,-116.0880,10.5175,113.2817,-36.8507,-65.3721,3.2921,-71.4158,-53.0194
-898.4375,-114.5149,0.7647,-73.7067,36.6631,-115.5300,50.4502,-7.8698,49.1250,169.7209,163.6033,-83.3688,-103.1273,-14.9847,0.8807,67.6242,27.3102,-70.3619,-1.6539,-6.2191,48.0968
-890.6250,-142.6536,-61.5095,-99.3812,9.9448,-140.8658,62.7844,4.7099,63.5829,71.4187,65.3286,-71.8908,-18.8739,-2.5003,160.6453,-30.6220,112.8744,-61.9554,77.7922,3.3855,-13.3667
-882.8125,-97.9628,-86.9609,-54.2161,-15.9193,-22.3535,70.9522,87.1352,86.2707,116.9782,74.9101,-63.5656,-83.7682,-68.1645,-87.7494,14.9977,48.2929,-86.6800,18.1033,83.8485,32.0296
-875.0000,-101.7921,-161.9205,-23.5558,-89.2673,119.6546,-9.3795,118.0614,81.2984,75.0396,-4.9848,4.2464,-126.1628,-73.3109,-239.6634,120.1232,42.2174,50.0819,83.9154,149.8063,62.9295
-867.1875,-108.7535,-63.0184,-99.9894,-60.7252,79.5775,24.1732,77.8958,83.2960,72.0142,139.0396,-182.0362,-129.6737,-3.5560,-60.6894,116.1580,112.0472,-166.2436,43.6322,39.6774,22.7444
-859.3750,-245.8364,-130.2476,-209.5240,-127.2929,5.4082,-48.3773,77.6353,139.3521,255.9031,359.9769,-292.4131,-167.3001,107.0736,-22.7957,80.1067,149.7835,-162.6714,-23.7386,113.4547,96.4599
-851.5625,-162.5010,-118.0570,-154.6163,-148.4115,-49.2987,-104.4803,95.8344,83.7866,274.2612,232.4014,-127.3531,-112.4949,-21.8519,32.5448,98.5124,93.9767,-114.6609,25.3393,126.6894,4.6422
-843.7500,-65.9974,-19.7003,-52.5192,-86.3376,-18.8079,-75.3966,126.2287,78.1099,267.8317,226.0368,-61.1016,-155.4954,-102.5510,-156.9245,56.1301,51.3822,-121.4390,-52.3611,120.1324,-1.9652
-835.9375,-85.7190,-109.5669,-1.6323,-104.4604,69.4850,-170.5065,104.4302,69.5337,246.2155,166.4960,26.9378,-215.7054,-87.4627,-289.5957,33.5601,28.5998,105.5718,-1.2550,171.3763,49.2306
-828.1250,-30.4306,-20.4360,24.3023,20.4448,-15.1545,-109.5718,55.7005,-8.7377,124.6739,82.0328,-57.9774,-153.8864,-62.3445,-44.2114,23.0637,17.8760,90.6333,19.9008,-18.3101,-35.5088
-820.3125,-22.1744,23.6579,30.2362,100.3368,-45.7905,-65.6488,-11.0131,-16.4882,21.1550,52.5912,-87.8921,-110.0787,-56.2412,36.1800,-7.4151,-12.8340,135.6892,-40.9462,-43.9906,44.7569
-812.5000,19.4468,-5.8731,111.5626,141.6283,-37.0295,-94.3362,-76.3213,-60.6911,-6.9517,-49.4082,67.5674,-29.8816,-84.7209,-102.0323,1.5128,-41.1331,248.1339,36.6021,-72.2634,16.4404
-804.6875,56.6351,66.1621,114.4807,180.5107,-33.6610,-91.4466,0.9712,-66.1617,33.5569,28.2066,33.6311,-64.0881,-117.5892,-171.6611,42.0506,-0.8260,75.1960,-31.2368,-137.9223,19.7407
-796.8750,-45.9516,-1.5745,41.6541,42.6539,40.9635,-127.3160,1.5240,-16.3852,34.3291,29.0918,-3.0495,-99.0501,-7.2292,-171.0463,116.8463,-0.2607,79.5044,43.1770,5.6654,94.2908
-789.0625,-49.2734,29.9494,-27.8665,5.0945,8.8983,-87.8976,42.3803,-14.1764,38.4160,-2.6899,-72.4317,-59.7247,70.4141,-57.1296,120.9509,40.6100,41.1182,75.8843,3.5626,-48.8390
-781.2500,-3.4773,5.5912,-18.2420,-18.3137,18.9826,-41.3405,89.3867,18.2528,85.6683,44.7008,-99.6729,-123.2533,80.2067,-47.0566,58.2189,14.6367,-17.1125,-53.2497,50.6120,-1.8095
-773.4375,-35.3111,-97.3859,-12.2200,-85.3219,25.4652,-72.3884,95.7997,18.8946,19.3427,-22.4760,-19.5322,-118.3873,86.4007,69.4057,63.8948,21.0717,57.0466,22.0126,90.0663,-32.3643
-765.6250,-19.5353,24.2467,-67.5489,2.3103,43.6052,-16.8012,40.8666,46.0579,-35.3095,70.0083,-74.7393,-99.8832,68.2471,15.5125,10.2341,39.1629,-137.1274,3.9339,72.1880,-50.2520
-757.8125,-106.1893,-62.5538,-51.2740,-48.4486,98.3534,-37.6166,58.5345,89.0855,-18.3488,124.1089,-21.3436,-118.7860,48.6772,-113.7737,27.1837,19.8610,-81.6992,-11.5394,162.9086,40.4592
-750.0000,-84.8269,-76.3410,-60.9458,-61.1591,51.1671,-84.3886,48.2608,55.0787,9.6745,115.2910,79.0930,-56.6536,-71.8552,-14.0113,54.2009,46.6119,-59.2255,11.0322,115.6862,-42.7576
-742.1875,-20.5002,-48.1667,-32.6231,-31.8802,80.9837,-56.1683,113.9903,55.1124,1.7134,181.4921,-2.4772,-65.5294,-152.3859,-59.2552,10.2306,2.3763,-29.7430,-64.3768,75.4765,23.0350
-734.3750,-8.3054,-71.1195,17.5951,-53.7039,20.7079,-115.0509,91.6318,31.3794,-94.3271,11.6287,-26.1575,-52.5201,6.9739,-8.6124,-12.8341,-57.9451,159.6269,20.1155,159.1765,36.7340
-726.5625,50.6490,58.6814,84.6120,42.2589,15.2465,-12.1524,48.0880,-14.2960,-137.5439,-104.4076,-179.0372,-21.7224,74.1199,169.8281,-55.0824,-63.4647,44.8099,-24.5946,44.6932,-42.7495
-718.7500,-60.3802,18.5005,38.6780,2.2691,116.8344,-22.2105,2.5975,16.4372,-107.6866,-2.3779,-187.8774,42.1183,65.3138,50.3245,-27.2641,-71.9242,41.0446,5.7503,76.2616,58.8197
-710.9375,-42.6985,0.0359,25.4948,-13.9673,103.1773,1.4763,-10.1380,2.2504,-85.0575,-14.5612,-91.9924,101.7034,-21.7391,0.5546,-2.6930,-48.6261,59.0225,94.8450,24.5875,-27.8376
-703.1250,-19.0585,23.5319,13.3069,45.7904,128.5196,26.1526,15.1220,11.1730,-22.4196,84.2754,-67.0989,16.2853,-33.8060,-48.2096,-14.1131,-23.3140,-56.9861,-56.0435,-20.0769,-2.4767
-695.3125,-51.8488,-79.4003,50.7192,14.1504,93.4623,-46.5765,-21.0023,25.1814,-21.1643,12.7408,44.3843,-20.5389,114.7101,-229.3677,24.0764,-22.3873,53.5897,-16.3372,89.8576,72.4955
-687.5000,-56.6350,-13.3259,49.1771,46.5440,18.4626,24.7308,-22.0657,26.0322,-21.8418,49.2844,5.9063,14.6802,112.2817,-267.4742,60.3365,13.5956,-55.7811,-19.5820,16.8596,34.5400
-679.6875,-102.7609,-95.5884,-2.6690,-35.3645,78.1667,-62.2676,0.5702,26.8182,1.1978,109.5446,-44.8829,-0.3994,61.5585,48.1284,46.3092,-36.7153,-31.4458,-64.1139,76.5596,94.2915
-671.8750,-71.1252,-135.0789,1.2857,-72.4661,45.6833,-133.4664,5.0141,-24.7267,6.0557,40.6383,32.1216,40.3117,-8.3854,236.5141,87.0877,-33.2226,37.6864,4.1504,40.0669,-12.1373
-664.0625,-33.6828,-61.7673,43.0944,2.2773,15.0615,-17.8244,47.3113,-18.9425,48.7812,120.6029,73.9803,8.8667,-39.4970,21.7360,56.7290,-26.8733,-63.3170,-61.7214,-60.5621,-42.6971
-656.2500,-97.0834,-195.2841,47.0973,-59.7796,55.6414,-14.9779,14.8095,-3.2464,53.7261,88.8018,115.0216,-61.3863,74.5910,-83.8462,98.5768,-59.3079,14.8620,16.6178,-16.9839,71.9482
-648.4375,-95.5835,-158.9045,17.0449,14.0957,-47.8189,65.8119,-51.7332,18.2252,24.6523,95.9891,10.9957,-92.7083,80.6363,32.5061,69.3855,21.2160,-15.9998,90.9080,-83.4255,5.5609
-640.6250,-154.1162,-183.5759,-10.0056,25.9637,-37.2700,38.5870,-4.2638,80.3992,-1.3870,181.1949,-16.0323,-155.0419,91.6615,5.8581,6.2120,68.7481,-4.8533,68.2057,-0.8568,53.1790
-632.8125,-145.5383,-209.1324,43.0965,1.9828,53.4347,-18.4901,13.3644,68.2287,-20.2531,51.5890,148.0724,-103.2321,-2.1789,-160.6360,24.1989,48.4387,148.4304,150.6507,81.8621,-40.0354
-625.0000,-71.7612,-135.4853,88.4434,42.2420,136.3989,62.6653,58.2431,57.4634,62.1424,61.2558,82.4214,-169.1754,-141.7618,-189.8803,32.4498,20.3878,47.9809,85.3582,16.8497,-104.9785
-617.1875,-142.8759,-241.7108,47.9379,7.6543,206.5140,21.9677,18.2752,75.8576,59.7062,95.0943,-32.0865,-208.9763,-35.2042,-82.9643,29.8634,17.4981,83.6741,86.2224,53.9893,2.2293
-609.3750,-11.3862,-76.3272,7.0837,69.7164,56.2908,17.9171,-95.0359,23.6989,-53.0543,93.6194,-35.9674,-103.1390,71.9939,-12.4082,-10.0647,51.2691,41.0182,148.7363,-59.2115,-110.8930
-601.5625,117.5568,88.5143,32.7262,130.2772,82.5711,6.3668,-105.8450,2.1913,-26.2976,120.6648,-46.3526,-114.7946,23.6816,-206.3625,-19.4814,3.5500,-4.1306,33.7639,-67.9074,-84.5037
-593.7500,165.1034,64.9791,48.0162,38.4948,61.5017,-88.5325,-90.0015,5.9623,26.1308,26.3966,78.9047,-136.8040,-70.9941,-191.6762,-4.2401,19.4914,80.3637,48.4411,52.0485,-105.4522
-585.9375,220.6067,121.3943,0.3105,60.7041,14.4432,-63.4430,9.8473,-0.1022,16.5798,17.1482,31.1612,-110.8220,-82.6763,-90.9967,-50.9843,83.4384,-73.1270,-34.8789,5.0169,-152.3777
-578.1250,206.2731,0.9740,-18.1907,-21.8811,69.5877,-82.1530,64.8976,36.3812,36.2418,73.1157,12.6087,-93.6367,-101.1615,-146.1122,-68.5219,28.5911,-49.4076,-45.9930,98.1820,-23.0999
-570.3125,178.4492,-27.9351,-7.1338,-48.9137,8.2968,-107.3085,3.5028,-10.4767,11.4744,12.6645,60.5934,-8.9134,-52.1071,-23.6846,-18.5070,40.2954,-6.1346,-2.5580,36.9020,-84.2493
-562.5000,98.4218,68.9583,19.7722,48.8973,-38.1425,-7.6144,-6.0384,9.1502,2.5724,114.0855,-60.5742,-56.3416,10.7855,-34.3958,-65.6332,30.8617,-83.9987,-80.2568,-39.5245,-20.5351
-554.6875,11.8967,17.3706,-34.7784,35.2614,-55.0320,-62.3688,-23.0240,-10.9223,-13.7658,25.0920,32.7920,-0.2230,30.2184,-14.5481,-81.2024,-23.0043,113.6689,-58.4061,17.6002,36.7409
-546.8750,111.1706,81.5876,1.5145,65.4677,-55.0603,-26.2829,-23.1545,-70.3138,-50.2330,-85.0241,30.9958,71.7386,-81.4930,206.1276,-44.9074,-60.0146,4.1946,-97.6981,-56.4049,-37.1099
-539.0625,77.0010,12.3670,1.4102,-36.7258,-17.4878,-63.6012,14.3136,-45.9252,-121.0739,-82.5155,31.7966,72.2987,-44.6092,243.3905,-7.0009,-59.4177,8.3253,-93.3748,18.1957,37.6444
-531.2500,63.9436,-1.7357,-8.5401,-47.7635,-26.7516,-73.7761,-32.0684,-43.6459,-94.7374,-127.8195,57.7336,172.0009,-17.5827,122.8035,-15.9435,-31.6665,101.6015,1.0931,41.9499,-8.4333
-523.4375,36.4885,112.7665,39.1578,67.8414,-52.3576,10.6832,-20.7949,-10.0710,-8.7334,-5.4579,-4.6794,145.3553,-6.9229,-87.1276,-150.2256,-57.2512,7.5400,-58.7702,18.3704,3.1510
-515.6250,-27.7605,47.4919,43.1044,40.6965,-10.7095,-58.6035,-88.2622,14.9388,-39.4579,0.1774,36.1420,148.9545,-40.0180,-191.8143,-145.2472,-51.5719,120.7146,-15.3835,97.0457,81.9938
-507.8125,31.7375,72.9707,38.8471,102.3426,-51.2523,-27.0923,-93.9190,-4.9360,-43.3599,-2.3512,31.7457,181.3460,-118.3090,-86.7285,-148.4535,-19.0851,7.6962,-22.1946,19.5389,4.6616
-500.0000,-33.8577,-28.6373,4.5354,-32.0565,-46.8444,-60.6299,-88.6278,22.9506,71.7023,113.0862,-75.7075,73.6913,-113.6619,174.3144,-70.7031,-15.6416,-56.3629,-121.0401,61.9875,82.2883
-492.1875,-99.8938,-94.6799,-60.1784,-164.8450,-146.8300,-124.5600,-43.7330,-6.2788,119.3767,50.1529,-67.5732,155.6307,-69.4246,367.9699,11.6441,68.4067,-48.8254,-78.2899,35.0397,55.5296
-484.3750,-95.8222,49.3771,-89.7342,-89.4964,-175.6526,-45.3456,75.3180,18.0183,17.2197,132.3818,-97.2911,199.7172,-25.0367,191.7672,-53.8478,186.6046,-218.1163,-141.3803,-64.7409,26.9380
-476.5625,-102.8855,-62.6938,-97.3816,-163.2494,-73.5699,-53.2282,140.2751,41.6622,82.9853,125.5386,3.8814,116.7051,2.2404,-147.5472,12.5675,104.7139,-116.5196,-110.5653,37.3694,129.2520
-468.7500,-65.9023,-131.7039,-89.9293,-124.9077,-101.3904,-9.0085,76.3259,-11.5959,166.8724,-11.1664,-23.8606,87.7861,-25.3860,45.2339,132.0850,77.9375,-112.8200,-71.6448,-28.4108,28.6901
-460.9375,-104.7158,-99.5114,-129.2275,-195.3186,-103.9608,-13.5406,35.6237,-13.6707,165.0265,60.3927,-137.3481,10.1138,7.2258,446.2752,166.8655,37.4169,-217.8577,-176.4588,-27.9329,99.3861
-453.1250,-151.3136,-146.0995,-138.2713,-239.4771,-112.2684,-94.8190,27.1888,-15.0129,83.4487,16.2285,-0.6029,147.6897,-74.9266,363.5665,194.9023,103.1534,-85.6533,-79.0320,-1.2066,91.3451
-445.3125,-96.7088,13.5221,-78.0631,-113.3924,-123.3159,2.1458,90.0027,-21.9690,-37.8716,43.3338,24.3837,209.5190,-50.8226,95.1007,111.1924,128.1479,-134.1869,-93.3404,-118.2230,43.5794
-437.5000,-48.5974,62.6613,-28.3061,-61.7424,-74.8180,13.6707,64.3547,-39.8589,-97.6259,-15.9944,-37.0911,183.9028,70.8270,-113.8170,123.0365,30.7011,-12.1660,-111.0770,-101.6896,166.3667
-429.6875,42.1137,188.4112,-38.8965,-4.4342,-156.6520,3.8477,-17.6400,-87.5568,4.3009,-59.6375,-47.9235,320.9294,-11.9010,-159.1102,78.5418,58.9087,9.5099,-53.1635,-183.4914,84.8220
-421.8750,80.2283,261.5716,1.9657,36.3131,-152.0256,-28.5345,-12.1777,-104.9998,46.6967,19.1809,-79.3095,251.4068,-117.1867,139.0525,-25.4960,63.5708,-124.3486,-186.7857,-247.8291,126.7336
-414.0625,4.5565,114.9531,-37.9202,-71.6901,-192.1517,-143.6610,20.5365,-98.0885,-28.6434,-19.7176,-47.4619,173.1342,60.7842,355.4660,7.7144,59.4977,-20.9686,-119.1595,-143.9114,159.9004
-406.2500,143.0413,253.4947,-35.6054,-1.4978,-188.0773,-102.5941,24.4553,-109.8491,-133.7630,-87.3918,-45.4197,176.0649,101.9645,139.0717,11.1332,27.6267,-56.3817,-48.3386,-142.7814,91.2869
-398.4375,248.5358,325.0534,76.7602,-33.2531,-74.9486,-64.4758,-82.5753,-87.7074,-130.8163,-84.0079,66.6631,104.0524,-43.8189,-79.2575,-58.3859,-79.1885,52.2614,-43.4555,-68.6011,130.7271
-390.6250,383.7845,424.3738,153.9316,68.7882,-72.0071,-62.5472,-188.7969,-141.4670,-199.0448,-262.7997,180.5338,143.8291,-187.8147,-39.8053,-164.1002,-113.1932,225.7011,58.2271,-106.6113,-12.0126
-382.8125,495.3393,571.0002,202.4525,183.1736,-58.7091,59.7357,-177.6695,-140.9201,-221.9125,-211.2316,44.7520,81.9544,-65.4558,-175.0160,-261.4543,-173.8399,129.5073,-37.7217,-167.2652,-72.3923
-375.0000,464.6079,435.3590,172.7238,121.3260,-14.6617,65.7814,-205.7928,-127.1514,-141.0191,-239.8953,13.7105,50.8369,-22.3569,-240.4656,-144.0596,-238.7320,208.0542,41.0802,-88.1805,-28.0194
-367.1875,580.9863,445.8350,153.1514,133.6289,-69.4515,119.9766,-261.7648,-130.9082,-158.9628,-256.3896,31.8116,68.8712,-226.1118,-2.7757,-88.5182,-184.4753,115.7667,55.0316,-143.9328,-119.4766
-359.3750,524.9764,460.9263,134.2368,116.5840,-14.5884,101.8233,-207.0877,-92.1632,-176.2457,-200.2244,12.5608,12.5629,-208.2264,-21.4440,-180.3283,-165.5604,99.1386,38.6485,-90.0282,-100.2739
-351.5625,511.0271,446.0892,126.4213,105.6403,15.3799,92.7745,-214.3092,-108.1289,-256.4080,-279.9286,77.3916,4.3492,-69.2480,-176.0067,-113.0337,-135.5427,158.6039,133.3613,-101.0144,-180.9553
-343.7500,505.8287,512.0065,161.4050,208.4831,51.1499,164.5190,-178.7291,-78.7512,-256.7459,-169.8218,2.0238,-35.0613,-145.4644,-288.7594,-150.9269,-100.7220,15.8850,131.8851,-172.1915,-181.8247
-335.9375,362.3007,333.6017,157.0930,139.0319,121.6225,123.9736,-218.4464,-36.5968,-220.3662,-134.9915,71.3470,-39.7675,-185.9862,-253.8206,-190.1223,-140.1934,157.8604,168.1131,-64.6772,-73.9925
-328.1250,306.8329,349.2717,180.8855,157.6874,72.2053,72.5309,-232.0690,-65.4264,-85.8734,-109.0386,93.7614,56.6269,-199.4210,-268.7903,-203.2204,-152.5650,176.9457,187.4457,-81.0599,-160.0399
-320.3125,202.7319,315.3156,145.0805,161.7436,111.1850,74.4855,-156.2987,-47.5711,-8.9694,5.3154,-15.4233,21.4319,-124.4660,-229.3506,-163.9114,-113.5269,76.4386,52.1919,-110.0418,-83.6805
-312.5000,44.3419,87.0774,93.0221,42.5523,58.9167,21.2045,-134.7762,-43.6716,-60.2951,-119.5513,5.1294,-32.0200,6.2379,159.8228,-67.8479,-54.7279,132.6721,108.6956,-53.2641,-61.5629
-304.6875,-114.9464,-38.0740,40.1149,61.4957,43.8126,116.0847,-76.0972,-4.2219,-37.4503,-22.2543,-11.1719,-48.3355,-9.8967,254.1348,-8.6258,3.2246,-23.9308,58.3649,-103.3154,-76.2829
-296.8750,-311.5608,-200.5478,15.9127,-26.8580,130.4110,90.6765,10.2843,94.3527,13.1068,65.7523,-35.7809,-109.9487,-34.3354,9.1510,115.2894,53.8844,29.1646,75.7381,55.3279,47.6941
-289.0625,-429.3099,-317.1454,-62.3836,34.6932,89.9126,160.1692,79.5614,131.2965,47.5732,63.6841,-40.4967,-40.6586,-75.8807,-142.9394,148.1098,123.4485,56.1564,174.0056,47.8782,-29.4122
-281.2500,-498.8942,-351.5711,-62.4745,108.4438,127.6166,269.8585,117.0333,187.6526,123.2477,139.8205,-115.0081,-115.1540,-39.2333,-251.8292,39.1382,124.2158,-45.6383,107.4848,52.6342,45.6858
-273.4375,-583.3611,-469.8650,-110.4123,63.3535,153.4710,221.7080,69.6594,160.1205,76.0858,56.1205,-90.3787,-53.4987,22.5705,30.4410,28.3147,77.1380,50.7100,168.1051,78.5363,71.9358
-265.6250,-544.8619,-361.1970,-101.3454,105.2557,54.3307,194.5539,6.2872,105.0466,50.9423,68.4274,-117.7568,-6.8411,68.3820,371.7148,2.4904,87.0586,-47.9282,104.7298,-19.5524,9.2042
-257.8125,-611.4431,-392.5988,-96.3285,42.1100,96.1334,124.3612,47.8581,139.0197,56.7622,148.6976,-113.1893,-3.2239,109.1352,228.9298,7.6220,92.9421,30.3808,113.3182,59.3018,88.4247
-250.0000,-610.3585,-426.3169,-88.6095,46.6731,104.6430,95.8744,57.1318,144.7686,104.2974,158.6940,-31.9388,5.0974,7.5865,-20.1768,127.4537,138.5328,35.3826,189.6010,64.8517,24.3646
-242.1875,-614.0574,-394.8123,-55.6456,46.4836,139.4051,128.6397,53.6545,165.5667,286.0898,267.9430,-109.4323,-36.3232,-33.7064,-170.0316,125.5392,172.3688,-140.3472,84.1464,29.6542,95.5656
-234.3750,-653.2301,-573.7640,-57.1312,-58.1495,136.7141,14.9671,50.7241,149.7845,321.4409,156.7575,-39.3867,-75.1874,110.5434,-136.3212,160.1724,133.7598,35.4595,120.2409,136.9998,167.3217
-226.5625,-560.8881,-517.1950,-30.0681,36.7578,92.5757,-30.1491,80.3426,102.2047,131.3563,114.1350,-48.8000,-84.4971,175.3456,112.9408,116.3549,89.7035,-9.1763,110.8906,92.9055,123.6423
-218.7500,-597.2700,-517.3513,-30.7021,38.9624,91.7320,6.0374,79.2562,137.2137,58.5781,151.8094,-123.9101,-159.4981,136.4543,258.5121,151.8370,52.9538,-5.5017,113.8555,131.1091,233.2578
-210.9375,-677.1196,-526.9730,-143.7784,-37.2730,16.4497,112.7818,39.7313,195.3635,-15.6470,114.0509,-17.4775,-52.9508,97.1016,182.6130,187.8653,160.7539,-11.2800,285.3651,161.8662,158.4347
-203.1250,-666.6971,-481.3242,-126.5514,-24.2097,-3.5220,312.8260,20.5095,267.1116,38.4266,280.5889,-0.7444,-0.0937,40.0411,-130.9872,132.1970,177.8609,-172.7466,158.1877,140.9299,102.9259
-195.3125,-750.3520,-635.7319,-102.3783,-103.1903,-13.5447,263.8361,9.2294,271.5521,175.4566,197.0848,59.9240,-85.2765,63.9313,3.3694,120.4784,92.9249,-76.2738,114.9691,272.9387,165.3698
-187.5000,-661.1417,-616.2656,-74.3069,-116.2737,-58.6662,255.7485,1.8472,213.7574,243.4065,44.4941,15.4880,-167.5623,129.7360,363.6081,40.6613,86.8861,-123.8908,102.6505,226.8671,48.7260
-179.6875,-603.8958,-593.7691,-122.1781,-124.3088,-32.7392,206.7112,63.5141,216.2599,453.4232,218.9521,-71.8969,-179.7919,43.5911,240.8997,102.8893,74.8959,-202.4470,-11.6138,217.8471,111.1301
-171.8750,-586.2156,-575.8259,-137.5907,-173.8867,-46.3589,118.1331,48.6312,150.7585,550.8956,205.8787,-50.8448,-49.5639,-9.1174,152.6455,235.5517,97.3591,-180.5630,10.5666,135.2725,133.9907
-164.0625,-582.5635,-465.9018,-165.0010,-130.4670,-109.9736,126.5583,58.7425,153.7517,488.3753,327.8053,-78.7884,-40.3267,74.1625,88.3817,209.2156,180.8194,-277.6578,-16.2384,37.7060,107.8591
-156.2500,-626.4247,-615.4865,-99.9059,-171.5364,-44.0845,7.4976,124.3507,167.1219,445.3723,358.2307,-14.2399,-84.5847,174.9457,-29.3848,128.3759,173.7758,-142.2516,14.4585,103.6310,174.2187
-148.4375,-529.4135,-553.1898,-63.9063,-141.7059,-44.2888,-28.6539,124.8590,105.7869,263.2813,250.5612,59.2040,-11.9467,138.6470,6.7455,93.4355,211.6276,-111.9408,116.0534,-5.5414,65.4878
-140.6250,-532.0182,-414.5123,-28.5031,-34.4767,65.9085,-30.3930,124.7626,101.4562,263.5858,325.2836,-15.9420,-50.9013,100.7422,-30.7169,19.8972,174.8851,-179.2231,-21.9403,-36.3201,139.1574
-132.8125,-539.6855,-492.8890,2.8525,-38.2924,98.0484,-71.1674,82.6141,88.8845,260.8419,248.9695,51.8556,-55.8960,131.7729,-146.2230,52.3057,96.1008,27.4321,45.0152,29.8404,171.7800
-125.0000,-425.5216,-448.4266,19.0598,44.7395,78.0458,16.9073,62.3130,83.3722,240.9373,193.5061,-6.4996,-41.0274,73.6619,-239.8813,68.5602,113.1623,4.9508,58.8308,-27.1491,115.2662
-117.1875,-419.6661,-513.2648,24.9718,-16.5177,121.7455,22.6878,142.7082,128.1521,175.7129,201.7339,-37.1584,-107.4428,-103.7418,-86.8350,40.5094,82.9299,85.1699,68.3542,53.5523,196.4490
-109.3750,-378.7832,-507.0644,2.9295,-42.7223,100.4960,0.5227,121.1560,62.4374,192.5714,71.0166,13.2204,-57.8088,-54.0778,184.2376,54.5136,-12.2556,165.4349,43.9201,64.3122,101.6924
-101.5625,-254.0671,-417.0383,65.7344,-89.0844,127.0909,-84.7900,183.4503,7.8471,146.3058,26.1396,1.4541,-32.3199,229.4400,136.1618,44.3700,-58.5929,84.5617,-142.6558,88.9351,91.7820
-93.7500,-250.6037,-483.2612,36.2925,-150.6946,98.4323,-77.3407,154.4967,27.2873,44.7980,-36.9800,-28.5705,121.9297,309.6867,-40.1415,89.9688,-14.1762,198.4258,-29.4942,132.3037,100.6158
-85.9375,-177.9524,-305.2966,10.0573,-40.1134,36.9812,7.3049,92.7488,58.7208,58.5085,12.1027,-91.3957,169.3784,63.1280,-65.2534,28.7635,35.4323,63.5039,12.8628,103.8834,2.6624
-78.1250,-134.7585,-226.7861,21.3718,-98.9798,85.0729,-55.4945,103.5497,60.1639,107.7686,61.7228,-118.6665,106.3850,-110.8579,129.1732,-33.8915,-64.4050,76.1345,-80.2201,188.0090,51.2492
-70.3125,8.4754,-47.2251,34.7355,-91.7864,25.2103,-152.2242,44.3984,-39.1989,86.0731,-32.5982,5.1048,119.4485,-170.7915,253.6417,-92.5048,-86.1853,153.8027,-37.2580,90.1801,-81.1094
-62.5000,210.7469,225.3726,67.1560,44.4520,-15.6027,-83.8957,3.2913,-44.9114,46.4260,39.1240,-37.0621,77.5694,-138.6837,-155.8361,-170.0686,-52.9204,79.5308,-76.2399,-19.5958,-84.4135
-54.6875,286.8225,195.7661,111.3765,88.4862,29.3809,-149.7546,10.9831,-48.5690,19.5889,-25.3489,6.5646,48.4945,-21.7681,-515.4978,-87.8401,-81.8556,265.0435,-66.4303,60.4207,-38.9205
-46.8750,408.8395,283.1000,175.5473,144.4596,94.3152,-159.6659,39.6280,-138.9119,11.7042,-142.8673,33.1431,-34.6334,5.1096,-231.2087,-95.6652,-163.8445,215.5101,-185.6709,-22.6051,-157.4687
-39.0625,509.8098,279.3900,208.6686,38.3868,129.1961,-199.6255,73.2184,-163.6720,-63.2361,-107.4472,29.6815,-38.7947,-35.0659,170.0198,-172.5400,-239.8798,109.9299,-289.9513,-22.6886,-86.0739
-31.2500,520.2760,255.2002,149.2892,-53.1722,-3.4239,-185.0731,-22.6933,-162.3999,-120.6800,-162.5286,79.7092,196.5593,-94.7416,74.7368,-82.9239,-151.4167,89.8449,-134.7375,-42.2807,-70.1760
-23.4375,411.2887,321.5514,4.4619,17.8171,-147.4919,-35.9712,-57.0616,-86.4553,-79.5709,24.9253,-139.7047,161.4698,18.1355,-70.9891,-6.7599,-38.4137,-120.6703,-28.9657,-111.3175,-103.7263
-15.6250,230.5116,212.1035,-72.1570,-52.9901,-76.3673,-2.6597,-59.2342,-44.9287,-44.2571,-13.4298,-105.9235,-26.4185,161.2295,-36.4980,64.5963,-77.2112,-14.9938,-27.9955,-5.1699,-32.0881
-7.8125,259.2852,241.2081,-0.2262,14.7488,-39.6975,-3.7935,-23.8581,-64.7009,-117.4013,-122.2376,39.4061,9.2475,12.8931,-1.4681,-45.5026,-40.4601,-17.7643,-30.4808,-42.4692,-68.8933
-4000.0000,306.5818,293.4251,38.4071,19.9430,-29.2760,-18.0190,-28.5092,-50.9329,-160.1597,-71.8932,47.4620,31.0347,-25.9336,-81.2015,-109.8627,-46.8586,-12.9762,-63.5441,-25.7752,-25.9515
-3992.1875,193.4285,39.5418,27.7049,-25.6124,-40.8240,-103.1238,-150.1990,-60.2546,-26.9798,-9.6545,36.9273,-15.5746,72.9493,-19.1611,24.5640,-95.4963,115.7807,100.6993,-2.2961,-37.4669
-3984.3750,51.8982,4.2938,26.6423,40.4892,-6.7226,-31.5606,-116.2510,-62.0648,150.8414,24.2376,-73.9621,-17.5325,34.4793,162.5450,-15.3511,-24.4833,-29.8064,60.6154,-113.1725,-113.3337
-3976.5625,-147.3093,-53.6074,-43.0798,-21.0510,70.7299,-64.6282,34.0363,-34.7511,226.0021,-9.5074,-107.5210,-13.1377,38.3614,91.6264,-50.9141,-21.1103,48.9415,67.8873,-35.7066,0.1458
-3968.7500,-217.8516,-88.8384,-80.1072,46.1028,105.8917,-28.9874,-3.9710,-51.1567,74.8417,-121.5429,-70.3835,96.9560,36.9697,273.3950,-52.7621,13.9694,79.3935,133.8661,-74.5328,-74.6662
-3960.9375,-321.0676,-121.7382,-82.7916,115.6090,65.4001,79.0143,-81.6278,-20.4145,32.0248,22.7762,-146.8975,57.3971,144.9454,343.5108,-20.2422,11.4050,8.1938,96.2074,-147.0142,-41.1364
-3953.1250,-432.1618,-268.5038,-94.3295,70.2681,17.0585,67.1688,-94.1383,24.6209,91.3595,120.2690,-47.2831,82.9772,96.0884,146.7931,40.4344,71.9921,103.1351,156.7004,-122.3428,-16.4496
-3945.3125,-446.0452,-211.0427,-72.6306,159.1698,-36.0306,161.5742,0.5924,46.0578,35.9294,30.0186,10.5768,104.8098,-140.5029,93.3406,59.3702,129.8409,15.3410,173.4657,-140.4169,-69.5150
-3937.5000,-506.7616,-376.3987,-36.7332,130.2826,73.0910,161.1888,35.5303,84.1460,-3.3184,28.9795,47.6287,-6.1586,-66.8817,55.0962,94.5124,54.9023,91.7359,108.4312,-29.3011,76.6101
-3929.6875,-540.8137,-480.0853,-72.1393,93.0902,-37.0783,88.4987,-110.8341,70.1356,141.1379,66.6575,12.3781,-41.4343,264.4578,128.5618,130.3709,55.6627,123.8291,176.0995,3.5147,3.4431
-3921.8750,-544.7458,-378.6402,-116.4030,122.0564,-8.1041,154.9615,-83.0664,92.3466,240.7568,205.4990,-141.7333,-48.5597,220.9502,157.2031,48.3886,47.5799,-59.9263,131.9384,-40.5279,-4.5814
-3914.0625,-636.8157,-505.3135,-106.7778,26.9319,73.7680,163.3391,-38.3924,168.6725,210.2744,139.2663,-95.9668,-39.7961,45.3538,164.7360,55.3163,92.4086,56.2165,212.6844,110.3370,40.2949
-3906.2500,-586.8764,-489.9808,-128.1080,37.8534,51.6981,178.7798,14.3363,141.2904,112.8393,81.0804,-117.1553,13.0118,60.8284,364.3084,69.3104,144.2932,-38.5755,152.4968,50.2653,-54.7759
-3898.4375,-583.2231,-450.9187,-130.6909,-31.4695,48.3773,101.9866,46.8148,130.1225,106.1552,150.6480,-119.6078,10.5707,21.0614,470.6580,65.0664,139.9288,-108.6336,81.0633,49.9373,14.8976
-3890.6250,-591.6146,-388.8899,-142.2852,-42.7984,73.0628,90.1931,-39.7070,131.9740,54.4760,65.2377,-21.0678,72.1180,-101.6980,274.0461,88.8379,164.5686,-16.6934,244.6302,72.6104,2.5802
-3882.8125,-523.3442,-319.1917,-147.1864,92.5738,103.4438,196.1040,-8.5362,178.1443,46.4993,95.5429,-171.8386,-42.6421,41.2587,10.1587,8.3301,195.9214,-92.0549,203.9196,66.9735,-3.0427
-3875.0000,-629.1204,-530.5176,-153.0985,54.9585,133.8243,189.0347,-16.3647,208.2172,74.5181,51.8793,-178.6358,-158.4058,255.2513,39.2453,36.8397,115.2915,80.5709,164.2175,203.3270,63.3369
-3867.1875,-551.5509,-558.4869,-145.6177,58.7371,31.6121,161.3697,-7.7924,155.9674,116.9409,59.6237,-97.0444,-150.7695,153.6724,341.7132,80.7670,86.0672,13.6064,132.9318,137.0938,-38.8692
-3859.3750,-582.8709,-378.3347,-146.9920,-10.3279,-9.4482,83.8612,24.9256,175.8930,257.5205,277.5286,-172.3203,-79.9808,3.2393,190.3726,76.8531,118.9971,-91.2155,61.8028,136.0106,31.0720
-3851.5625,-606.9891,-330.9660,-214.1259,-72.1484,-75.2609,54.6007,30.8927,181.1228,298.3689,356.7202,-165.3647,1.0436,-62.9452,49.3041,119.2131,162.1845,-83.7952,139.9304,109.1847,74.2716
-3843.7500,-591.3042,-349.7910,-236.4209,-24.1299,-98.2235,142.1907,7.7117,173.9422,347.0782,481.7786,-224.5669,-21.0900,-85.2667,173.0872,168.4543,176.2402,-211.5199,46.9317,-19.7854,51.3171
-3835.9375,-592.1687,-491.1476,-208.2211,-97.6023,-71.6839,59.2945,-0.9651,152.9740,335.2814,471.3557,-159.2951,-65.7335,88.9303,89.3935,195.1980,129.8123,-110.7598,7.4476,11.7415,151.8643
-3828.1250,-536.6950,-471.1483,-186.6350,-80.6734,-123.7387,44.8038,-18.2497,106.0782,279.8902,382.3510,-100.6424,-44.9802,147.5650,148.0989,215.3594,187.7888,-129.5892,58.3781,-77.3198,62.8243
-3820.3125,-524.5175,-422.4273,-178.3100,-68.9841,-116.0466,16.0752,26.2149,92.8863,359.2504,427.0939,-129.2445,-108.4774,8.9710,302.5563,222.2915,122.5268,-189.6676,-36.9246,-68.6357,107.5271
-3812.5000,-504.8341,-437.1943,-161.4326,-157.7468,-62.7902,-40.0892,42.2384,80.8001,373.1647,296.3979,-75.2996,-54.4388,-46.0809,208.5868,237.7812,138.8201,-33.2072,48.3270,-16.3964,123.7900
-3804.6875,-421.4004,-283.2196,-145.7648,-42.7238,-85.7275,11.5522,20.0630,80.2259,237.8908,310.5161,-133.5541,-40.6113,78.6818,-35.5557,252.0897,189.9225,-128.9445,58.3971,-78.3522,27.8552
-3796.8750,-456.4671,-352.7362,-115.5610,-45.1513,-19.1164,-32.2390,49.4424,105.2881,229.1833,377.2142,-103.2820,-119.2415,182.0243,-152.1642,243.9788,109.5955,-62.1484,-15.9796,23.2428,94.4685
-3789.0625,-424.4406,-390.1542,-82.2154,-85.4310,51.6527,-70.8769,83.9827,68.0447,223.6406,228.0703,4.1302,-121.7280,106.5367,-45.6220,278.0430,70.4176,37.8050,48.8062,52.9982,18.2433
-3781.2500,-378.2087,-308.3619,-38.6220,-41.4617,57.6745,-27.2591,126.7673,70.2621,228.3467,197.1752,-62.2192,-150.9608,3.3059,108.2163,172.3693,76.4951,-94.9861,-14.1399,25.0010,61.2630
-3773.4375,-423.6304,-353.2148,-88.6326,-124.0947,42.1091,-78.2257,73.9561,79.7711,173.4580,145.7079,-76.1822,-91.8070,25.4838,239.4641,193.1100,60.9879,31.6046,42.3236,117.4038,82.6913
-3765.6250,-329.8694,-294.8728,-101.4062,-68.4894,-43.1987,-15.9361,98.4018,58.4305,122.8314,133.5054,-124.8984,-30.4146,87.9265,153.9585,218.1257,85.7487,-53.5487,63.0635,32.0664,-2.6268
-3757.8125,-346.3651,-309.7650,-86.3926,-51.0818,-29.7063,71.1563,74.6551,113.2022,96.0255,220.1141,-147.8373,-89.2297,102.1919,19.3039,192.9589,25.3202,-35.9150,43.6037,83.5237,83.8471
-3750.0000,-358.0205,-321.8051,-100.4874,-30.7850,-80.3011,58.1401,23.8172,108.0157,7.1382,96.6344,-51.8981,-103.1437,15.3887,116.5825,252.7186,11.7875,88.6146,134.0495,137.8850,33.2336
-3742.1875,-289.2798,-216.4414,-31.1412,36.9603,-48.4455,54.5800,56.4218,117.6337,0.7234,165.6155,-91.5201,-106.5996,-24.9456,1.3046,210.9658,81.7154,-56.4039,-11.0282,98.6952,29.0703
-3734.3750,-296.9786,-329.5098,-44.2004,-43.6888,11.0183,-69.3665,115.6306,125.6705,21.9200,188.2225,4.4464,-82.4711,-37.6770,-232.3921,232.8353,67.2577,73.1682,13.5057,193.1042,88.5109
-3726.5625,-150.7251,-251.6299,1.7382,-38.3481,-16.5064,-23.3081,123.8509,55.6297,-9.8764,86.8353,14.4086,-111.3511,-102.4025,-41.0893,277.7226,2.8136,42.7487,18.0541,91.5303,-13.0451
-3718.7500,-122.1096,-223.3853,63.0699,-82.6118,44.3717,-72.8419,74.4782,12.8607,-60.2581,74.8525,-35.2463,-158.8332,33.2803,203.6467,228.0267,-83.2218,32.7175,-95.9917,82.3499,47.7934
-3710.9375,-122.3487,-187.9890,62.5961,-84.6892,80.4540,-182.1706,-0.6858,-34.0735,-137.4116,74.0907,75.2753,-50.1315,106.1803,92.6061,189.5529,-85.0547,170.8804,6.1627,44.3801,9.8475
-3703.1250,-58.9353,-53.9455,90.8134,46.9264,71.2331,-80.7977,-9.1483,-30.7924,-147.8435,65.0307,66.4852,-20.7381,61.8094,-136.7303,106.8058,-56.1732,90.7481,31.0354,-35.8829,-35.3979
-3695.3125,-49.5664,-148.9373,132.0250,20.5415,149.0125,-76.4124,-5.5979,-26.7388,-182.2654,-41.0166,71.6753,-89.3576,30.4516,-59.0632,111.0771,-88.2739,168.6051,73.9108,5.8604,42.3529
-3687.5000,2.8560,-166.8744,152.3362,35.2463,131.9087,-18.9292,-59.9371,-50.1714,-128.5679,-131.9545,127.9621,-106.8851,-59.8082,69.7042,166.4718,-69.2791,148.5752,123.8977,-49.2882,-48.7875
-3679.6875,-38.4150,-102.4963,139.9932,97.3048,119.1603,42.9134,-72.9273,-3.2099,-69.5044,3.4707,42.5880,-118.0592,2.2834,-125.1743,153.2478,-81.9233,68.8893,44.2492,-24.0979,12.4193
-3671.8750,-61.3954,-158.8232,77.9939,38.7080,93.7651,17.1092,-98.5629,-19.6276,-172.0648,-95.7318,126.5390,-70.8896,123.7550,-42.6974,163.4031,-107.2051,149.5422,89.9563,22.4484,22.9907
-3664.0625,5.5028,-21.2748,74.9305,68.0477,17.3232,88.2502,8.7642,-20.4193,-213.6485,-135.9739,87.4308,1.2235,-98.7935,138.7619,86.5416,-73.5164,73.1443,13.6294,-19.0496,-53.4850
-3656.2500,58.8873,-73.2291,123.4070,13.9349,64.4305,25.9477,55.6544,-25.6510,-167.6549,-123.6401,61.8517,48.8762,-159.7852,38.8119,60.2520,-135.2534,159.2698,-41.1462,30.9973,67.5965
-3648.4375,86.4945,-43.9573,117.1740,41.1022,21.8495,-16.0514,-61.1413,-57.0774,-176.3365,-165.9839,129.5562,116.8152,-92.4626,-3.8200,54.2888,-141.6768,220.6920,55.3919,22.3628,-11.9947
-3640.6250,47.7267,22.9462,111.6238,105.9518,15.9725,51.6564,-104.2267,-21.3249,-147.2928,-25.6131,86.9521,74.4558,-23.4218,-83.7338,-25.9364,-111.3829,73.8023,14.6497,-18.5612,-17.8817
-3632.8125,-1.0675,-60.1590,58.1122,-14.1568,35.1553,-38.5730,-48.2493,-33.1412,-130.1673,-80.1643,106.3723,58.1386,33.6811,9.4146,29.9131,-92.0273,162.9455,-1.0315,35.5740,1.2955
-3625.0000,56.2574,32.8611,45.7889,-29.0709,22.5437,-49.5940,-23.0672,-53.8189,-108.8097,-91.5075,20.9777,46.0247,58.9992,70.7709,53.9909,-29.4566,77.2930,-51.4875,-15.0782,-84.3172
-3617.1875,64.0593,-28.6244,85.0048,-22.4323,61.4851,-121.0401,14.6748,-51.1009,-70.8763,-53.2881,60.1157,11.4576,98.8872,-110.3260,18.6439,-65.3159,84.1734,-80.3787,26.8182,27.6236
-3609.3750,37.6927,-19.2836,95.1143,56.0909,35.3451,-110.5803,-11.6650,-44.7330,-136.0242,-152.1602,181.1482,95.7759,-74.3051,-64.5223,-44.7774,-17.2666,161.9559,32.6380,33.6327,-35.5164
-3601.5625,68.5635,83.2813,126.5163,121.9005,29.5114,-4.8156,55.3090,-17.5031,-143.8498,-84.7288,138.4744,17.3861,-116.1902,-70.3800,-124.8703,-22.9017,50.0350,-43.0280,-7.2437,-41.3571
-3593.7500,36.1155,-19.4600,88.6582,-17.5487,101.4351,-42.2911,55.0481,-11.0354,-73.8860,-85.5122,137.5226,-57.2604,31.6665,-107.4557,-52.1952,-60.7743,120.8435,-6.9403,63.6370,-5.4397
-3585.9375,9.3013,-45.5592,64.4885,-10.3122,77.0685,43.9335,-7.5108,-2.4714,-27.1918,-109.5854,150.2602,-8.1959,-65.7716,14.1756,-76.7924,-47.9360,57.3557,70.8678,35.2270,-103.8121
-3578.1250,-40.9620,-60.1028,42.9137,8.5304,128.3066,95.7685,44.5351,55.3884,22.1244,-58.0577,17.5903,-29.5250,-196.5905,66.4086,-99.7710,-33.4843,5.4515,18.2836,88.4101,-15.5830
-3570.3125,-50.3874,-68.8156,-4.7653,-1.7378,7.4499,85.5070,69.4982,35.2926,9.3674,-177.6094,-30.1901,34.0336,13.5062,-55.4524,-36.8226,29.8776,99.4470,77.6007,77.5099,-26.4362
-3562.5000,4.0859,56.3592,-21.4983,16.9209,-83.4553,106.1949,89.4253,-7.3209,27.5917,-122.2024,-84.0229,-19.4661,144.5525,-35.3341,20.1067,49.1997,-58.6046,-44.1169,-44.4315,-43.3369
-3554.6875,-36.2449,-18.2631,-32.9848,-59.1786,-130.1010,-14.8522,41.6205,-16.5639,-21.9019,-58.5288,15.3653,43.2762,60.8522,174.0445,8.3094,38.7860,5.5711,-50.5799,-16.1209,56.0191
-3546.8750,51.7655,70.4474,-13.0804,-6.8914,-147.3351,-31.4939,-12.7715,-63.9853,-41.9650,-76.4568,35.1419,136.4125,-66.4433,230.8310,-46.0630,21.7806,22.1560,36.3746,-105.3910,1.7914
-3539.0625,36.0776,90.4622,42.1723,46.7421,-20.2158,24.2234,5.1951,-20.7040,11.3563,-58.0290,-20.7354,44.8965,26.6112,-118.0211,-101.0646,3.1331,40.0804,19.6917,-52.3076,19.9106
-3531.2500,46.9839,67.0736,90.0724,-12.9860,65.5635,-37.4058,-20.1768,-40.4200,-15.6387,-154.9279,138.0248,20.0233,39.3254,-290.2368,-90.3892,-21.8581,190.6514,99.6596,-6.5600,-5.3054
-3523.4375,118.5356,174.3211,132.6711,57.9747,70.0500,-32.3304,-51.8479,-78.9228,-48.9103,-114.1298,69.4814,-12.1484,-28.2539,-65.7656,-84.9860,-17.1343,48.9307,29.3546,-112.1011,-110.8169
-3515.6250,87.5381,74.0172,95.7661,26.4327,107.0452,-104.7451,-52.0086,-104.7248,-50.6489,-113.8180,33.4170,-10.8361,82.6702,155.2365,-48.0651,-89.8980,87.6975,-36.4518,-74.1371,-36.8303
-3507.8125,130.8851,83.0439,69.2617,104.2696,80.4571,-93.7694,-78.7434,-139.5245,-78.9464,-249.0969,42.7355,72.8522,168.0091,128.6736,-37.7231,-79.2530,94.8632,76.1404,-101.7598,-100.4339
-3500.0000,114.4887,137.3244,48.0592,122.3970,23.1787,69.5011,-63.1585,-23.4217,-64.9130,-160.0695,-14.6580,51.8408,73.6555,-149.5845,-96.0631,-26.2908,6.3211,58.0387,-14.0875,-47.7386
-3492.1875,28.7933,-17.6867,31.6049,-33.7269,42.6604,126.5281,-6.8117,54.3136,-10.1025,-176.2709,-32.3132,-1.4242,-52.9409,-94.1194,-76.6315,-6.5654,95.5182,112.6899,110.3345,-28.2747
-3484.3750,55.9983,45.1991,-9.9018,-42.9108,38.0894,159.5026,25.4925,51.2357,-16.3076,-144.5254,-184.0114,-5.7433,-19.5856,49.3065,-44.2178,26.1183,-19.3242,104.3000,66.7122,-142.8510
-3476.5625,-3.2391,21.6385,-38.8152,-31.5020,45.1151,131.0855,32.4074,53.6557,27.1175,-63.1684,-249.1218,2.5332,99.3626,20.3851,-36.1765,-2.5865,-43.5941,44.5066,76.6874,-61.8255
-3468.7500,29.3645,19.9149,-3.8346,-34.2177,-28.9506,93.5736,-5.7663,20.8442,60.4813,-63.8959,-141.3361,37.7058,99.2152,-17.6331,-37.2113,-4.3834,-11.9718,41.6218,38.5763,-99.8785
-3460.9375,92.9208,120.1431,23.1407,-5.9399,-40.0148,120.0711,-15.9359,23.2249,84.8768,36.3690,-187.5453,27.8793,53.0760,-102.6637,-85.2258,22.8359,-125.3500,-35.2437,-38.5325,-36.9286
-3453.1250,44.1364,36.0257,2.8206,-89.9664,-23.3760,27.2799,0.6121,21.5693,63.9983,53.3393,-171.0627,44.7399,107.6504,-120.9935,-31.5185,2.7613,-0.0415,-15.4103,16.0593,53.7337
-3445.3125,78.6555,106.1955,-31.1515,-20.6615,-57.3754,30.8314,-33.4790,-33.1207,65.4967,-17.3542,-168.2291,47.9466,221.5889,-8.9487,-28.4309,43.0395,-71.3729,-15.2162,-89.9864,-17.2445
-3437.5000,61.1388,89.3238,18.8776,30.6385,29.6321,-29.6062,-56.5601,-47.3581,77.0171,-4.0512,-118.4068,-12.8436,162.5286,-67.8879,-15.3219,-17.6727,-19.7177,-68.0169,-72.0320,69.7780
-3429.6875,119.7743,43.6022,83.1056,55.1356,56.8556,-111.8353,-103.4299,-88.1147,28.7649,-86.5394,54.6058,51.5552,-31.3299,-78.6335,11.9977,-27.1784,109.1373,25.3895,-84.8679,23.0181
-3421.8750,198.3138,156.7784,126.2807,132.5734,64.0392,-68.1121,-96.3406,-90.4399,-75.5083,30.9171,-49.4273,95.9029,50.7570,-144.4183,-90.7132,-19.7259,-25.0530,-38.2428,-182.7435,30.2082
-3414.0625,80.4183,145.5130,37.0594,85.6007,47.8393,-45.7921,-148.6280,-39.2400,-129.1423,51.9819,-137.8688,116.8403,293.4293,-307.5942,-32.8023,1.3370,-2.6583,19.7164,-90.0135,88.0044
-3406.2500,119.0324,150.7430,-27.6074,89.1575,-53.7974,0.0673,-176.3492,-53.8718,-12.1824,24.5975,-129.7598,88.3258,229.6406,-79.2185,-24.3196,10.9528,-69.7086,24.2288,-121.7230,-13.6310
-3398.4375,55.2086,86.5316,-60.6789,25.3101,-49.8382,4.5297,-63.4637,-12.2485,137.4161,65.8117,-199.0557,-54.5881,87.4659,182.7761,-20.2209,15.1773,-134.1747,-109.6545,-45.8355,27.3386
-3390.6250,24.6411,-84.4308,-54.4546,-76.2555,-80.5752,-25.7087,-20.2594,8.3795,142.3497,-38.6601,-84.0634,-11.2048,20.6131,152.0589,-13.7984,58.7145,10.6518,34.7560,29.3684,-3.3747
-3382.8125,98.2855,24.8071,-10.9830,-37.5813,-111.0573,91.3070,59.2149,17.3507,110.5580,5.1098,-77.8275,-4.5687,-8.9942,11.5999,-44.1014,64.5076,-128.2672,-32.5709,-38.1679,-70.8314
-3375.0000,-3.2523,-75.1377,-11.6625,-102.0621,-109.6871,55.1821,22.5488,51.6199,109.6499,41.7376,-77.7579,-42.0863,175.2252,-61.9724,-7.5445,28.1539,-53.3524,-63.0488,72.1493,39.5699
-3367.1875,39.6657,-31.6350,-37.8456,-96.0608,-100.8095,29.5601,-3.6062,21.1367,118.2729,-21.1332,-68.1874,5.8942,112.9298,-52.0376,3.5311,39.3123,-46.9334,14.9809,43.9829,-23.5117
-3359.3750,40.5018,4.7812,-39.0810,-60.1198,-64.9813,-8.1040,105.2085,52.3959,263.8817,161.9401,-141.6646,-69.1681,2.5812,-199.1684,-34.4241,111.4295,-115.5745,-90.0353,9.7684,12.3592
-3351.5625,13.0012,-57.1443,-68.6177,-121.4915,-21.4522,-110.0598,148.7398,46.4442,232.2349,168.7155,-62.4539,-25.5380,9.9338,-265.5912,9.3362,119.2522,-38.5243,-46.3574,53.2608,55.9489
-3343.7500,7.4161,42.8220,-72.2036,-57.9353,-23.9702,-77.0748,72.2319,-43.7406,117.5689,129.4328,-66.2952,9.0329,118.2350,24.9771,44.0714,79.0280,-149.5126,-52.7198,-129.2849,-20.5024
-3335.9375,-6.5958,-5.6517,-17.1853,-69.7914,68.1255,-130.4922,17.3414,-89.8025,135.5328,37.7526,-83.5426,27.1939,211.1298,154.1470,25.4266,-12.5861,-93.9123,-135.4846,-107.2195,71.6469
-3328.1250,13.8051,15.2707,6.2868,-51.2171,54.6957,-107.4668,40.9218,-97.3425,156.9835,-49.4724,-25.3388,87.7981,14.4668,139.7400,49.2467,11.2550,-74.8547,-45.7986,-121.6785,21.2614
-3320.3125,28.2742,100.2548,-16.1396,34.4527,32.3763,-19.3399,55.6126,-44.0778,133.5683,39.3892,-48.0281,65.5127,-43.0993,-101.5739,27.1786,26.2019,-165.7004,-66.0007,-107.0371,35.9729
-3312.5000,41.4741,8.9634,33.1894,-22.1311,81.8133,-6.4540,31.0633,-21.5728,34.9289,-56.9977,38.0321,3.9761,117.0808,-310.1375,39.8598,1.9006,-45.8061,18.5410,-23.6488,85.4465
-3304.6875,70.9454,38.9331,30.8208,42.5708,5.5571,65.7298,28.8207,-4.8799,-79.3842,-97.0946,35.4006,-35.2687,78.5494,-56.3849,0.8557,73.9012,-158.6025,48.3951,-64.9523,9.2290
-3296.8750,-53.2617,-49.7823,-30.1956,-46.3810,-18.3467,78.2765,77.9416,62.0638,5.6859,25.1632,-61.8841,-95.1720,91.3358,140.7256,-22.7883,86.2646,-249.0587,-6.3966,21.1015,95.3619
-3289.0625,-97.4546,-93.4980,-108.1575,-124.2986,-60.1885,37.8765,74.1282,53.9745,74.8451,-15.5263,-31.1236,-27.0356,198.1686,62.8765,46.6330,82.6810,-186.4608,56.8606,84.2225,17.5589
-3281.2500,32.5816,72.0007,-45.8687,-65.9793,3.2198,27.7294,99.5760,5.8142,99.2889,11.0167,-5.1178,-0.6443,4.2626,-58.7137,36.3229,35.3498,-267.6131,-59.6270,3.5952,7.0040
-3273.4375,73.1461,-27.9833,-7.0278,-165.1210,42.1794,-78.8635,102.5940,6.2837,101.3185,-22.8875,70.4310,-34.7080,-65.1044,-18.7477,75.5783,37.5759,-192.2323,-52.5726,79.5208,83.0101
-3265.6250,107.0778,7.3884,-3.7859,-129.8786,-65.4576,-77.0615,69.0269,-31.5624,102.7864,-20.3945,36.3914,4.6296,47.9000,57.6114,42.2474,78.2115,-263.4397,-19.1131,-27.1331,12.4295
-3257.8125,61.5924,32.3316,-17.9422,-105.0370,-41.4944,-52.6564,54.0752,5.0843,124.8928,75.6921,-51.0433,-9.4303,107.4835,-66.4207,-8.4812,63.4494,-274.0535,-63.0560,-1.1851,108.4474
-3250.0000,25.6811,-3.1629,-53.4959,-105.6099,-4.9192,-87.6516,18.7394,-22.4881,88.6305,-68.6236,22.1163,28.1050,35.6655,-28.8398,29.3960,28.2858,-63.0688,41.5919,33.3767,73.0756
-3242.1875,102.6431,109.2040,-44.1521,-29.2951,42.5629,-4.7564,102.3178,-23.8280,97.3017,-96.0511,-78.8195,38.5422,-99.2596,-19.3589,40.1888,76.0307,-198.1756,-56.8528,-30.1532,9.6050
-3234.3750,22.8362,29.8013,-91.5578,-37.7358,67.3045,-16.6106,128.1671,4.9069,85.2626,-107.2184,-89.5088,63.2302,-73.9550,5.3549,-8.7581,27.0326,-102.0507,-30.0596,67.5708,71.3919
-3226.5625,43.2032,15.5606,-104.7601,-16.9936,19.2584,46.7231,116.2243,3.7440,36.4583,-155.1883,-28.9948,125.1142,-158.4724,141.2773,-56.4924,16.2367,-82.7149,25.9390,52.5127,-13.6068
-3218.7500,54.5061,27.2437,-58.0124,-41.3077,29.1592,94.0178,163.2356,31.8232,45.6389,-72.2149,-92.5267,61.9525,-111.0545,115.1664,-82.2724,-10.6035,-141.4368,-68.1114,64.4034,33.3432
-3210.9375,44.5885,-18.3022,-32.4613,-120.8351,-19.1360,46.1193,116.0618,32.6061,33.6534,-119.4331,-31.2625,50.5909,-47.8364,103.8402,-56.2488,-21.6425,-46.3623,-7.3794,125.1042,59.1069
-3203.1250,105.5584,114.0160,-39.0067,11.5202,-98.5314,77.1117,35.8065,33.1131,63.5975,20.2331,-1.0827,81.1293,-127.7304,-13.5822,-63.3149,9.2231,-160.3806,-85.7473,46.7142,15.7763
-3195.3125,26.4186,70.2194,-50.6428,-31.2255,-74.0337,-8.9918,59.4633,51.5720,123.4725,80.7970,21.9953,-5.4307,-29.7548,-136.0995,-1.4733,32.9947,-133.5123,-163.2176,109.2238,113.3488
-3187.5000,17.1095,-8.7625,-58.4272,-75.1323,-44.6811,-88.2491,52.9783,22.9179,116.2283,37.2006,14.9338,-49.1385,36.0595,-32.7811,102.2255,63.6144,-142.7803,-136.8322,100.6020,69.7863
-3179.6875,-39.4558,-30.0211,-83.4539,-133.2956,3.4200,-76.7547,138.2530,58.1844,126.7661,159.3414,-46.3689,-74.0923,12.6100,-57.7104,76.6868,111.9798,-236.2949,-158.7020,77.7385,117.9669
-3171.8750,-81.7284,-106.9996,-54.1757,-210.1708,32.8284,-156.9575,93.8419,46.0899,155.6406,188.7858,54.6268,-7.7488,-104.5566,-138.3365,69.4493,104.6414,-66.5188,-59.2865,72.1774,147.4570
-3164.0625,32.9847,6.9945,-3.8933,-94.0624,-26.7569,-105.1743,35.4401,-10.2653,132.5352,203.2173,106.6359,5.5951,-199.7338,-14.9642,48.2195,46.3097,-91.7341,-83.8609,-58.3749,51.9556
-3156.2500,27.5928,-32.1255,24.2987,-99.0544,38.5652,-150.4881,62.9449,-42.1325,123.3427,157.5370,59.5526,-76.1590,-62.0203,123.3156,75.8865,1.8823,-62.0545,-194.5391,-62.0325,153.3522
-3148.4375,-25.7071,-120.1702,7.6036,-151.9542,-13.9985,-202.7082,84.5624,-46.2894,180.2732,104.9474,43.5836,-54.8161,-3.2332,144.6976,134.6603,58.5497,24.7348,-106.1292,-43.5850,100.8650
-3140.6250,-30.3583,-53.5792,-32.4337,-86.2059,-53.9110,-96.2820,117.8376,-2.9704,212.8750,174.9894,-33.7176,-58.8077,-6.8243,-42.2735,131.0892,128.8646,-119.8138,-110.0682,-83.4880,97.0272
-3132.8125,-47.9628,-176.9435,-52.4129,-138.4086,-0.7645,-79.8017,134.1779,37.2493,228.5593,117.0783,19.0260,-42.7531,-100.3782,-100.2133,110.5651,35.2304,37.6819,-91.9707,74.6587,150.2503
-3125.0000,37.3258,-162.4351,3.5075,-87.7242,-18.7140,13.5738,81.4204,13.2777,175.1710,-9.9488,75.6790,13.2046,-264.0345,29.7421,94.9440,18.4882,17.0936,-41.9694,19.7191,60.3831
-3117.1875,-4.5356,-168.0861,-4.7155,-94.1888,10.1779,41.8092,72.5178,30.3748,92.6549,18.8651,66.1873,-30.9852,-88.8634,21.5534,49.1670,-25.4014,-22.6445,-82.1154,49.6302,125.3594
-3109.3750,-47.8550,-211.2042,-46.3802,-137.1112,-31.3721,-35.4096,69.1791,-4.3308,51.7197,-58.7748,135.2563,-36.6249,53.8205,163.9144,82.9386,6.2551,39.1736,15.2782,43.1016,47.8958
-3101.5625,2.6237,-56.5373,7.7615,-52.2359,-14.1238,-17.8307,122.6443,-11.6066,31.6094,31.3716,115.1423,-56.4546,-74.7198,71.0690,26.5105,23.7093,-87.1965,-39.5262,-47.6265,28.2323
-3093.7500,-24.1908,-152.1688,50.6136,-112.6585,65.8226,-46.5504,92.8131,53.5903,37.2234,37.2160,194.7300,-85.5859,-105.5688,-216.0791,32.7819,29.8609,-7.8764,5.3495,103.3382,108.2767
-3085.9375,-47.1529,-209.9758,-4.6798,-65.2455,10.6183,-29.4291,110.8364,59.6692,55.7088,-55.1096,139.1828,-68.8634,-123.5789,-88.3671,51.9081,85.8535,-30.6847,89.0715,116.1661,16.1843
-3078.1250,-75.9557,-203.6327,-34.8154,-93.6792,54.5627,-95.1557,155.0175,63.4106,98.3647,25.6940,35.7928,-133.9835,-79.4705,65.5009,22.1799,55.9938,-59.3442,-10.0540,158.1409,23.2387
-3070.3125,-68.4625,-231.9990,13.3567,-121.8164,101.8169,-157.5844,129.5054,11.1660,35.3440,-111.2005,156.7099,-124.8004,-70.0863,39.6550,69.7468,-6.5684,124.2993,103.1122,166.4202,-39.3948
-3062.5000,32.9795,-59.4291,85.4854,-19.0120,138.0259,-48.0744,54.9490,-6.4887,-38.7086,-112.1633,118.6025,-125.6650,-70.7699,1.7631,32.2648,-7.1848,14.9131,30.2295,57.6557,-77.0793
-3054.6875,-2.5676,-95.8646,43.6248,-55.2084,132.2397,-53.5640,50.4020,5.0163,-7.7319,-80.1331,76.5057,-93.5312,-74.4712,-4.1324,27.7797,-49.8052,49.5217,30.3255,92.8938,28.2313
-3046.8750,-49.8638,-72.0694,-0.9794,-31.1662,50.7116,13.1884,6.1172,-0.0307,-15.4771,-125.8640,67.6652,8.8582,-155.9372,98.2100,56.5481,-20.1845,37.3940,124.6652,46.3918,-53.1944
-3039.0625,-103.5024,-19.6254,-19.9318,21.5247,32.8251,104.5894,60.4859,45.2180,-34.5567,-33.9570,-24.5196,26.9066,-174.7725,116.2126,1.9652,-38.9160,-50.0821,36.6542,64.5370,-34.9728
-3031.2500,-49.3870,-36.4324,-2.1301,-65.0364,50.6821,86.7415,42.6100,29.5145,-53.8691,-125.2982,30.0499,81.7045,-82.8865,-13.0418,-16.8712,-93.8935,74.1888,56.3808,119.4359,20.0099
-3023.4375,73.5853,50.5941,19.5283,57.2383,-0.6111,145.7354,-8.4121,18.0943,-31.3045,-104.8041,88.4955,29.3508,-171.1730,-64.4622,-67.8587,-72.0263,20.3277,72.9581,31.1940,-68.1516
-3015.6250,54.7717,-2.1815,36.3964,74.7126,52.2906,87.9278,-29.2317,37.2668,-52.5181,-52.1180,141.1476,-101.8018,-192.2790,-11.6689,-88.6527,-92.9615,107.6581,20.7275,84.1492,-15.1161
-3007.8125,49.1616,-8.7694,70.4735,69.3755,49.3980,49.3140,-30.8499,28.6535,-128.5150,-165.2366,139.0131,-29.7499,-194.2015,22.3259,-90.2542,-57.7079,172.2019,120.6889,114.3120,-90.8691
-3000.0000,19.5641,32.6429,40.5614,76.0429,56.5006,130.6994,12.5305,68.9704,-47.5018,-84.3699,34.9056,-59.6882,-224.1583,-6.6917,-119.8623,-50.4564,37.7566,56.6541,121.4720,-83.6283
-2992.1875,-11.3218,-104.2378,43.3578,-60.5864,59.3115,23.7815,-20.3814,58.9440,-7.7660,-81.8006,37.4996,-56.9344,-184.4286,68.9641,-79.7757,-47.5094,148.0134,96.3068,161.3273,-43.6810
-2984.3750,20.3995,33.4770,8.7612,76.3791,24.7255,-48.5529,-55.6950,-13.4925,-6.4133,-43.6456,39.7054,-18.5784,-220.0980,144.2185,-41.0961,-8.9684,108.8935,58.5567,17.7874,-152.1285
-2976.5625,48.8339,61.9005,108.8699,141.0559,124.8290,-95.1903,8.6909,-39.2593,-16.3462,-16.7987,28.6253,-28.5145,-193.0952,-86.8108,-87.7261,-55.7277,208.4726,-17.5024,-23.0577,-51.8846
-2968.7500,99.7768,77.8175,199.4855,156.2321,105.4388,-151.3330,-10.4180,-102.4483,-35.7633,-147.4583,157.0571,25.0478,-175.6264,-179.3412,-69.8641,-111.9974,329.5683,32.9321,-42.3910,-71.1321
-2960.9375,196.5859,173.5854,229.9661,147.2575,98.9013,-46.6272,-17.6763,-76.8844,-43.3153,-80.2935,149.3626,-18.5342,-219.3420,-187.0307,-113.1567,-81.4278,179.5338,-45.7795,-85.8668,-114.5369
-2953.1250,98.0645,76.0118,199.1101,48.9351,68.0188,-3.2666,-47.2776,-21.6846,-36.2002,-37.4825,156.3291,-48.4694,-176.4392,-107.0883,-106.8095,-75.2124,187.1464,-37.8564,-7.6935,-71.2888
-2945.3125,80.1487,23.0253,111.8562,32.2008,-19.2664,93.6874,-97.2800,-10.3301,-13.4718,-15.0826,68.9107,-62.8039,-80.9409,136.4474,-82.8686,-88.3975,99.3751,-20.3334,-24.9098,-158.4338
-2937.5000,72.1958,-21.0020,99.5502,-46.5776,41.3835,154.5885,0.6740,27.7984,47.2265,-27.7361,-17.5583,-112.1842,-94.5084,123.9457,-58.9886,-101.6329,20.5508,-98.8686,37.8185,-60.6379
-2929.6875,-0.7467,-93.0219,61.2460,-83.3598,40.0302,116.4826,-37.3661,55.8666,45.9525,-66.3848,16.9718,-76.5640,-205.0955,85.4297,-60.1119,-28.8768,159.7318,111.5776,71.5496,-61.8318
-2921.8750,13.7271,26.3566,42.3454,71.2559,21.0716,170.7641,-93.0099,67.0225,-46.9038,24.3543,-2.0774,-95.5373,-188.3075,29.2972,-115.8404,25.2771,33.3311,125.4291,-19.3189,-117.6251
