Time,Fp1,Fp2,F3,F4,C3,C4,P3,P4,O1,O2,F7,F8,T7,T8,P7,P8,Fz,Cz,Pz,ref
-4000.0000,-109.0238,-67.2244,20.8361,-92.6272,79.7480,-59.2299,49.2351,-20.9683,71.5954,-21.9529,69.6344,-81.2920,100.5713,-90.8157,106.3393,-43.4966,123.2440,-5.5961,121.2544,-28.3304
-3992.1875,54.2051,61.9948,224.0742,68.9630,246.8666,30.9326,288.9935,-77.0058,164.6986,-151.9622,-21.0445,-30.5512,-63.0699,-258.4716,16.2227,-136.9848,41.9467,-193.7814,-29.9722,99.6323
-3984.3750,-57.0564,48.6890,70.8201,62.0301,131.4900,-87.4200,99.2544,-194.5549,-61.6971,-195.4762,47.7900,14.5305,-68.2056,-83.6483,11.6152,-70.9795,250.1442,-24.4759,178.3092,129.1192
-3976.5625,217.1382,90.7910,259.0139,-15.4870,246.5662,-158.3550,324.9771,-228.6678,201.3754,-229.5547,164.1168,-82.9345,-25.8645,-266.3899,128.4957,-178.5364,142.8080,-381.7489,141.0700,-51.9716
-3968.7500,250.8754,72.6117,245.7375,-88.5287,125.1689,-173.8023,276.2436,-206.2900,299.9704,-170.1551,78.9634,-100.3444,-110.0196,-245.6681,-30.1090,-45.6164,38.9563,-277.5666,72.3138,228.4496
-3960.9375,204.0598,15.9602,96.9039,-206.1427,50.2148,-250.8217,237.9436,-209.4773,225.0047,-246.3181,262.2816,-131.0019,-1.7073,-139.5039,43.7564,-49.2521,135.5741,-252.9255,275.0177,41.3315
-3953.1250,401.2786,58.5996,228.0995,-255.7718,182.2899,-195.8538,443.6704,-116.6867,173.0557,-153.5006,136.6301,-139.0518,-53.3769,-196.3847,65.6465,-140.9157,-120.8007,-442.3280,124.7269,134.1904
-3945.3125,100.2181,-84.2465,-124.9851,-311.7114,-132.9309,-184.1925,127.1029,-30.2045,114.8177,80.0072,-32.3203,-123.7955,-74.3535,36.4037,118.2358,92.1065,-100.4718,-74.0440,143.1340,220.7754
-3937.5000,127.4666,-49.1401,-118.7726,-144.3697,-126.8554,-143.2526,133.8332,-24.4419,305.8948,157.7940,-23.9421,-93.1985,-67.0213,2.4775,200.1511,58.4152,-141.8223,-223.4785,-37.1258,-68.3588
-3929.6875,38.4642,25.0843,-71.8189,117.6483,-187.0512,13.3713,35.3093,-14.9939,133.6917,204.2645,-195.8421,51.7980,-237.9875,47.2113,-7.2221,105.3959,-190.4949,-65.2703,-297.6954,125.2161
-3921.8750,-200.4334,-15.6480,-234.7756,193.7387,-277.1588,67.0742,-201.1245,2.5302,-139.4125,222.8212,-137.6256,111.6721,-253.8456,174.0467,-22.4819,196.4786,-5.0538,188.0356,-76.1421,-113.0848
-3914.0625,-79.3459,48.0652,7.2365,277.7554,-71.3031,196.7045,4.4264,169.9747,-43.5388,243.3005,-188.4291,108.4718,-304.7399,-28.1944,-109.7650,105.4921,-197.6564,27.2408,-198.6238,-203.4593
-3906.2500,-298.2313,-19.6864,-150.7363,267.7660,-191.4342,219.3241,-263.9957,304.4008,-200.6530,340.7598,-235.2337,165.6704,-352.6401,177.5385,-156.0492,202.4868,-133.2621,300.4161,-169.1145,-105.8027
-3898.4375,-229.5122,-56.2128,-98.1164,161.3665,-101.9708,159.5225,-173.8210,318.4017,-184.1699,317.7881,-108.4120,94.1407,-224.9262,152.8621,45.2774,143.0713,-165.2388,88.1941,-130.9823,-422.5562
-3890.6250,-109.2493,-52.9669,-55.9559,104.4628,-94.9767,199.2209,-57.1170,358.8863,-67.1770,321.2904,-212.0665,62.0243,-254.7125,81.6397,16.1077,146.1239,-393.7221,-2.5679,-288.3706,-160.8141
-3882.8125,-212.3818,-130.8744,-345.1857,-0.8509,-309.3834,128.5158,-234.8390,362.9581,-134.5944,288.3894,-131.1054,38.2953,-137.8997,231.0024,96.5371,296.7674,-282.6004,176.2794,-107.1570,-193.4491
-3875.0000,39.4654,-36.2602,-150.4467,38.7634,-150.8281,136.7430,-3.6011,297.9724,-50.0442,260.4210,-83.1545,40.1073,-163.1215,127.2861,34.9430,231.3455,-414.5288,-64.9593,-238.9818,-258.1638
-3867.1875,-126.9481,-4.2585,-184.9819,189.0615,-258.5620,173.6600,-184.6350,261.6902,-230.7854,298.1418,-189.5036,140.6643,-270.6404,200.2446,-180.9491,268.6115,-260.7827,226.4675,-261.1201,-36.1547
-3859.3750,-121.3080,26.6513,-164.4899,263.3909,-200.2642,190.6075,-200.6314,206.4482,-246.4973,242.8962,-57.7857,145.6178,-249.0930,143.2536,-159.7684,212.9294,-146.9705,195.9442,-147.1880,-312.0960
-3851.5625,19.5824,85.5517,-25.7681,296.9150,-97.7405,253.7456,-98.3921,233.3946,-216.9936,232.8245,-175.8450,159.3671,-330.3350,58.4271,-166.3749,129.4166,-319.9709,54.5669,-285.0679,-100.8471
-3843.7500,-187.7625,-38.9189,-277.2948,159.1814,-311.4767,147.6279,-275.4185,201.0787,-246.7332,200.5028,-168.1447,129.8932,-211.8256,245.3341,-47.2357,243.6456,-206.2260,234.9424,-101.2019,-95.8158
-3835.9375,-3.2393,-36.6933,-149.9640,25.2829,-146.3595,124.3450,36.4066,179.5988,-45.6221,179.0218,-113.5594,24.3552,-157.4472,74.0695,7.7777,147.7147,-300.6294,-37.8555,-124.4687,-227.9614
-3828.1250,-71.3726,-73.7541,-231.2939,-43.3238,-226.9230,149.3600,-45.4393,205.4173,-16.2102,315.8205,-230.6660,40.1861,-311.7689,173.0768,-146.9117,247.0633,-329.7586,139.6037,-154.4609,56.2133
-3820.3125,-139.5509,-140.8712,-365.6788,-148.9972,-287.5421,87.3098,-68.3586,180.1711,71.1388,253.5511,-105.8088,-2.1441,-261.1308,255.0281,-21.6446,295.3555,-219.9212,141.0130,-8.4934,-152.6463
-3812.5000,57.1153,-44.7532,-129.2303,-93.8810,-160.3366,137.0405,169.5562,120.7020,125.3167,157.0630,-162.1310,34.1394,-279.6917,193.7424,-113.5566,198.4175,-336.2914,-83.8309,-264.7333,9.2863
-3804.6875,-164.0456,-79.6792,-287.6238,-0.6245,-317.9819,49.9083,-100.3781,-38.6342,3.6518,107.7122,-136.3085,87.2576,-181.1116,325.5992,-87.3236,257.6250,-133.5196,150.4667,-132.8311,69.4061
-3796.8750,-26.2837,-3.9022,-57.1186,99.5226,-160.7337,19.6579,94.5828,-141.0966,161.8809,78.2274,-51.5583,43.2289,-133.6191,74.3557,-112.1822,81.7226,-97.8340,-99.3514,-203.0112,-179.5921
-3789.0625,-7.2134,67.0840,-9.3296,221.9238,-112.2187,101.6597,-78.1763,-95.3199,26.3612,87.9706,-112.5501,98.7933,-230.8839,9.3357,-282.7985,-19.9547,-75.9278,25.0372,-285.9707,50.6772
-3781.2500,-36.7359,58.9458,-101.1534,226.7193,-166.3260,44.0526,-316.5638,-43.1573,-175.7733,-6.8850,91.8697,83.3695,-101.7484,22.7169,-153.0117,-4.2292,73.3821,170.8387,-101.5339,-189.6315
-3773.4375,244.4814,164.6621,119.7456,260.2047,18.2836,151.1419,-132.2289,102.6880,-138.2026,-46.0615,93.0131,74.4501,-137.9044,-164.2220,-224.5174,-115.8230,-135.6203,-41.6990,-239.3985,-154.2558
-3765.6250,120.7764,92.8767,-52.2865,133.7335,-79.0515,86.2822,-302.8371,111.5744,-308.5887,-72.2085,106.2065,68.4249,-88.0215,-9.1186,-211.9937,3.6259,-45.5866,149.8066,-44.2310,3.2092
-3757.8125,302.9346,51.6683,75.5255,-107.8939,86.4553,-45.7390,-64.6097,54.2887,-144.1338,-130.5318,235.2709,-72.3660,77.7177,-105.1621,-8.6197,-129.0716,-106.6912,-159.8363,35.7942,-201.4839
-3750.0000,498.9997,93.3235,121.2225,-158.6699,132.8330,-74.9111,-18.4983,-11.1590,-60.8125,-86.0212,135.1887,-99.8751,51.3072,-173.3883,-71.3938,-194.9404,-258.9723,-210.6799,-151.3612,100.6828
-3742.1875,409.2776,56.0840,-37.8893,-180.2513,-26.6082,-163.8925,-250.2083,-136.4156,-146.3035,-174.3119,271.3045,-96.5311,149.0959,-43.4125,-8.9677,-173.6077,-65.0543,-90.3183,-28.3145,-23.9179
-3734.3750,576.8438,158.6494,213.2569,-85.5843,115.2061,-99.6386,0.3425,-218.4368,-41.5359,-256.3673,229.6924,-68.6091,71.1426,-163.1976,-13.2747,-293.0484,-106.8917,-311.7422,-140.0202,-68.2841
-3726.5625,348.0509,145.0761,151.0267,1.6880,17.6256,-53.7794,-207.5001,-171.8646,-285.1718,-246.8334,168.6749,0.0959,46.7779,-82.3968,-146.0004,-136.9008,89.8489,22.4123,-118.1561,125.9888
-3718.7500,354.1739,165.4502,244.6876,74.8564,111.9295,-75.0349,-187.4647,-154.4155,-265.9245,-265.4150,337.5811,-15.9379,141.3194,-176.6872,-88.8275,-192.8538,168.4976,-44.5311,-111.3846,-149.8347
-3710.9375,417.0041,201.5759,377.0360,135.6640,170.9026,-18.6466,-128.7513,-61.3235,-206.0170,-210.3655,212.1570,-1.9051,89.5130,-269.3565,-176.0026,-211.1802,-12.2289,-51.8735,-290.9858,53.9958
-3703.1250,177.2018,49.9946,93.7332,-35.1796,-1.7865,-46.9101,-263.7144,-89.8844,-158.7807,-163.9809,151.0865,-29.1367,175.0507,-41.6730,-16.8416,-55.1602,67.3887,93.1501,-1.2437,-9.7880
-3695.3125,346.8380,62.7357,163.8454,-148.6217,106.9361,-16.7776,137.7155,-58.0584,59.8385,-169.2254,39.4434,-79.3998,135.9946,-121.5924,55.7130,-134.7618,-112.5901,-194.4443,-5.0991,-51.1891
-3687.5000,199.5689,18.9744,-1.9578,-193.0050,-22.2752,-2.5866,45.2081,-80.1950,-69.4940,-155.4372,-52.1575,-24.4867,79.9754,74.5205,-35.7085,-46.3268,-46.5427,-27.0112,-8.9332,258.4933
-3679.6875,141.8103,4.2086,-51.2807,-147.8910,-34.0097,-90.9018,106.1777,-204.8438,-7.3404,-243.1659,83.7483,-57.0145,216.4618,22.1401,137.3739,-97.3852,109.0090,-192.0672,75.7395,24.6866
-3671.8750,264.1577,84.0828,180.4708,-26.7278,87.3192,-83.1665,264.2266,-269.4564,113.8704,-234.8669,21.7166,-74.7334,192.0058,-228.2119,149.5121,-273.4153,22.5868,-387.1237,-79.5632,217.9277
-3664.0625,95.4787,45.1431,77.1721,-21.6062,-14.4172,-189.4814,-21.7894,-339.1299,49.0097,-266.6256,177.6298,-81.6920,236.4863,-188.6048,194.5767,-306.4948,278.1017,-170.2236,176.0624,260.1620
-3656.2500,396.9177,135.8479,399.9737,-75.3734,271.9395,-236.6986,227.2841,-496.7124,261.2396,-461.2984,391.6575,-150.3101,266.0693,-384.8943,187.7452,-464.4837,299.7171,-504.2361,161.7832,103.4831
-3648.4375,466.2071,168.2842,461.6077,-148.3327,260.1095,-252.1086,252.1747,-584.4993,213.2723,-512.1879,307.4848,-129.1969,181.4439,-327.4059,-5.3013,-442.6924,337.0984,-365.4875,94.2680,384.6347
-3640.6250,488.4142,118.6630,349.1320,-304.4020,258.1584,-441.6333,212.9406,-663.4042,174.1893,-554.1886,453.2195,-199.4515,326.7146,-261.0027,212.5373,-484.9959,466.3827,-380.8285,293.6541,159.7107
-3632.8125,681.4272,161.0978,511.4341,-324.7139,384.9698,-429.4073,339.4769,-502.5782,263.8702,-467.4668,322.7183,-236.7156,342.7259,-395.8620,266.1132,-545.5643,239.4028,-575.4551,136.7703,247.5291
-3625.0000,339.8156,20.4008,153.0991,-316.6612,101.1250,-421.8177,19.3528,-311.4161,126.8806,-166.4100,186.5497,-213.0275,390.0625,-206.3629,314.0031,-317.7807,216.7575,-214.7265,220.2154,292.7415
-3617.1875,336.2198,-0.8756,126.7581,-287.6020,148.2704,-305.2322,176.2150,-156.2711,173.8629,-121.3787,197.3909,-219.8553,437.4095,-237.8497,435.8995,-310.0015,73.1174,-362.0046,147.6672,6.9487
-3609.3750,219.7781,0.5907,142.5452,-160.4345,54.5324,-144.5430,118.2090,-33.0312,152.9469,-35.2652,-4.6748,-135.4976,306.8546,-189.2568,268.8899,-187.1423,-75.4537,-233.2249,-36.8106,242.2813
-3601.5625,72.4510,-28.2480,-1.5813,-134.1676,-53.1268,-144.7598,-62.7222,-32.6988,83.1106,1.9359,108.3611,-90.6434,273.4066,-42.5552,162.9673,-113.1819,95.0750,-65.3334,133.8092,59.7527
-3593.7500,233.6744,78.9578,242.8063,-10.3977,117.7245,-51.4813,107.8645,-11.8842,32.7855,-14.3856,95.9143,-35.2918,150.4582,-134.3625,76.5356,-240.7386,-22.9049,-222.9744,-90.0817,44.7216
-3585.9375,27.9861,32.2768,60.2625,63.4325,-62.3745,-15.1478,-256.5032,24.9716,-184.4928,22.3332,25.5080,27.1400,116.5408,10.8809,43.1183,-57.2529,19.1447,97.4389,-45.9531,155.7857
-3578.1250,62.4122,21.2376,36.8140,59.3720,23.6105,-6.7124,-96.8069,-3.0882,11.3021,-78.8646,76.2113,-10.7751,203.7117,-54.7585,167.7841,-84.6624,-14.6947,-47.0292,-10.7161,-127.0507
-3570.3125,106.6409,46.3053,72.1471,66.0770,59.3619,63.4927,11.6627,67.5956,46.8407,-45.3272,-70.3405,5.8704,92.6104,-96.6551,57.1759,-51.3345,-144.8162,-74.7781,-69.7637,127.8715
-3562.5000,-27.1764,-7.7123,-135.5829,-35.2555,-0.9611,-0.3412,-85.9428,4.2262,-87.6867,-72.8440,-19.9654,20.0627,68.4461,95.4251,34.4913,31.9569,73.9983,70.4410,149.1220,28.7821
-3554.6875,190.8273,68.4739,94.4825,-30.7831,193.5158,5.6264,255.2585,-25.3449,69.5826,-138.5670,-45.7936,27.7945,6.0893,28.3151,8.6122,-108.9556,-93.4059,-240.5626,-53.2025,0.4859
-3546.8750,-0.5418,-0.1795,-113.8446,-13.6946,-15.4146,-22.7949,10.0632,-17.3082,45.4415,-57.6907,-143.0484,65.1977,-18.6788,181.8091,-15.6840,46.7335,-106.2446,-11.9778,3.0395,230.8347
-3539.0625,9.3979,-16.1148,-127.8938,-40.2998,-65.0700,-38.9142,33.1385,4.0236,68.5801,-109.5200,-9.0013,17.0012,115.8472,127.6294,119.3041,-6.2653,-24.7842,-109.0807,120.5781,-40.5042
-3531.2500,168.2433,78.2293,29.9382,44.9587,-16.8666,42.8223,155.0835,49.1963,6.5710,-64.5127,-143.0999,55.6573,-19.7913,25.2954,-51.8785,2.5706,-180.5089,-163.3698,-35.0677,153.0149
-3523.4375,-55.3430,17.1549,-199.6815,64.7777,-210.1333,-6.8784,-74.4504,-36.0874,-75.9228,-3.9624,-78.6617,103.7820,-29.8925,230.5333,-97.5418,135.9675,18.2991,67.9075,128.8206,105.1293
-3515.6250,149.7469,101.5270,21.3500,126.2549,-61.7557,-9.9240,146.6633,-74.7351,108.2211,-41.7882,-39.5648,89.6595,-27.3419,80.4361,-96.5676,23.0138,-56.2480,-116.1729,-51.6414,-42.1156
-3507.8125,44.8266,84.8217,10.3530,158.7016,-109.4211,12.9991,-49.2553,-16.4299,-50.6927,-20.6769,-87.5396,115.8292,-75.8657,102.2901,-143.6823,83.0075,-54.8770,57.6853,-85.1915,238.6280
-3500.0000,3.0041,3.7451,14.4343,-25.7359,-32.0107,-132.9702,-8.1108,-51.0329,-9.5337,-92.4666,64.5784,-7.3584,75.6970,29.2653,45.2825,11.1104,80.5983,-21.3267,156.3562,21.4948
-3492.1875,169.5277,45.0185,218.8380,-107.8561,172.7117,-78.6254,269.3409,-33.3417,83.9308,-221.9702,12.9943,-56.3030,59.5516,-138.4701,-6.4599,-82.5057,-32.6512,-173.0665,77.1766,187.6634
-3484.3750,-39.1772,-32.1347,-0.0061,-143.2067,28.1685,-117.5124,51.5180,-34.9062,13.1151,-223.7258,52.1375,-70.6915,135.1357,-68.4352,-4.4837,26.6322,145.8373,107.9625,256.7172,224.6300
-3476.5625,86.3869,-8.7263,140.3944,-125.2927,205.8676,-89.1454,228.9204,-43.2332,190.5271,-195.2479,157.5313,-132.8745,166.9648,-262.1245,99.7228,-92.9786,62.5807,-119.7477,173.5059,33.8411
-3468.7500,-12.2038,-6.9275,136.6234,-86.5514,164.3737,-22.9591,115.1358,-13.7615,76.7353,-54.9789,-29.2993,-51.8072,16.5683,-123.0114,-49.3073,-26.7922,70.0885,59.3246,40.0522,285.8806
-3460.9375,-124.7537,-31.6128,31.8741,-60.7416,96.8995,-56.7126,-27.6346,-120.2386,-29.0317,-52.6547,86.9009,-2.5691,59.2094,62.1843,-44.3147,13.4671,240.6421,156.4838,104.6300,32.9969
-3453.1250,120.5247,75.1195,287.9339,41.8927,243.2209,12.3477,154.4006,-87.9187,42.9943,-93.5330,49.8958,17.3338,-16.3593,-89.8107,-117.5391,-65.4741,-6.0291,-57.5767,-141.0243,66.9079
-3445.3125,-64.9251,5.0020,126.2436,-6.1965,44.7750,-5.3206,-152.3371,-68.3404,-190.7612,-148.1601,73.1103,37.3061,7.2992,75.4767,-94.5513,64.8456,126.5184,210.6249,-44.4710,162.1170
-3437.5000,41.7779,36.6101,214.6819,-8.1156,170.4562,6.1740,-28.9533,-20.6163,-177.3922,-172.6447,162.4694,9.2576,59.1027,-25.0461,-6.4378,-107.6668,93.2106,68.9933,28.2271,-118.5236
-3429.6875,34.5182,86.1161,161.1380,121.9914,154.1420,170.6906,-80.5512,72.1049,-156.0130,-8.1274,-73.1959,82.6646,-103.1179,-44.5661,-241.3597,-53.1792,-19.1415,164.3439,-14.1154,84.8561
-3421.8750,-143.5007,23.4022,-89.1830,117.3702,-22.9544,174.4743,-185.9369,38.0800,-113.4025,-5.3553,-65.6385,89.2768,-60.1108,68.2045,-199.0655,60.5805,155.7477,265.9819,195.7797,-93.4802
-3414.0625,137.3048,139.3423,132.3022,185.5653,125.7467,209.0750,146.4771,-1.1453,-3.0075,-116.7980,-64.2941,96.6243,-96.3118,-82.2035,-197.9868,-52.8609,-19.5781,-18.5848,-14.5402,-94.0259
-3406.2500,-25.2157,98.1799,-9.5590,196.4382,-15.9071,175.3562,-141.4696,-33.7114,-179.9926,-76.5917,-93.3355,138.3716,-125.8853,68.0621,-263.2959,62.3521,100.7122,274.5091,-69.2436,95.1245
-3398.4375,-5.0930,67.4033,62.2072,177.9743,20.0696,134.3008,-143.7914,-75.6277,-145.3644,-45.7422,51.2613,97.7387,-54.8183,61.0115,-81.9800,56.2335,85.6558,151.2829,-155.2975,-202.0661
-3390.6250,55.2171,81.6779,117.1468,235.6783,1.2079,222.4211,-161.9455,49.6025,-127.5841,116.2551,-77.0083,110.1180,-110.6229,2.1182,-172.5471,71.2564,-168.2842,139.1861,-410.2348,-1.0903
-3382.8125,-119.3255,-11.9525,-135.7829,163.5518,-214.5270,150.7100,-377.9866,88.9836,-160.6750,228.4089,1.8399,94.3960,-68.3033,149.4178,-168.9975,183.4488,-62.0918,278.2797,-198.0433,-70.9206
-3375.0000,62.6515,17.4766,-15.2214,132.9463,-93.7704,158.5177,-38.5421,132.8657,33.7165,272.0576,-60.8219,58.9441,-94.4944,46.2420,-83.9622,117.1493,-300.4159,-34.1249,-295.3681,-135.2618
-3367.1875,-176.6944,-79.6897,-276.0012,101.0279,-281.3741,151.0087,-152.4561,199.4055,-7.2615,302.3661,-246.8693,89.3878,-98.0639,221.7313,-50.3203,330.5067,-329.1284,180.1271,-254.0887,117.0883
-3359.3750,-185.2505,-92.0262,-383.0063,54.9401,-278.2101,115.3158,-75.6125,163.7395,-41.4692,192.4865,-170.1360,60.7860,52.1470,222.0578,63.0830,257.6848,-197.0381,135.2206,-86.0174,-137.7456
-3351.5625,-17.8763,3.5454,-179.1008,114.7840,-147.1427,206.5523,54.1363,143.9811,-57.7822,246.5016,-295.5213,97.2531,-110.7644,127.2844,-136.6433,164.7620,-309.0776,20.2086,-268.0798,65.3217
-3343.7500,-237.4501,-77.5230,-372.1621,67.7049,-266.0487,83.8653,-212.1023,95.2927,-103.0694,307.5662,-266.8869,105.0537,-156.6599,298.5930,-108.3610,262.9125,-106.0915,253.2849,-101.1165,55.4793
-3335.9375,-117.5646,-52.9557,-202.7837,45.0998,-96.5215,67.6467,68.0859,116.0549,66.0681,255.0800,-243.8031,61.1124,-171.1214,171.3873,98.3446,136.5207,-197.6642,19.8248,-121.7121,-105.9282
-3328.1250,-236.0494,-79.4467,-262.7920,65.1293,-193.3950,114.0594,-66.1253,236.4265,-31.2268,301.2022,-377.1546,93.3171,-194.0139,216.8071,-35.3956,256.7375,-245.6768,249.9667,-134.7510,126.2921
-3320.3125,-246.8569,-111.3487,-334.1409,16.8831,-192.6075,77.2010,-175.6778,236.5051,-30.8575,300.0501,-154.8452,23.0513,-46.2292,141.9812,2.5306,219.6917,-113.9954,272.8602,31.9040,-129.7706
-3312.5000,3.3482,5.6221,-78.4921,53.6679,-8.8243,184.3722,7.7745,232.5993,42.5186,222.9129,-154.5717,48.2787,-156.4677,27.1793,-180.5652,105.6492,-215.3470,133.7455,-140.4701,-20.8403
-3304.6875,-287.8533,-86.2081,-236.2562,40.0882,-130.4671,170.1791,-224.2016,218.3073,-152.5275,208.3895,-164.7484,95.4137,-131.1393,233.0117,-192.1046,238.2275,-85.1279,367.2645,60.7195,3.7352
-3296.8750,-200.1153,-85.7862,-97.0961,-14.5157,45.8207,160.9557,61.7427,208.9711,-50.6426,125.8102,-98.9882,34.3660,-64.8682,112.8319,-52.7154,154.7765,-136.9612,66.7537,78.8531,-224.7417
-3289.0625,-234.7990,-91.4139,-72.3724,-15.5377,33.6592,183.3074,49.2469,231.1962,-27.2103,72.7843,-146.7059,56.1580,-113.0730,133.2140,-174.8081,176.8781,-206.2817,169.7864,-26.5038,56.3605
-3281.2500,-326.3549,-111.4437,-159.5376,-5.3828,-16.3881,130.8249,-148.1410,178.5811,-150.6554,-16.0699,23.6962,60.1039,19.8563,190.7918,-151.7806,161.1541,-17.4611,322.0098,163.2769,-141.3561
-3273.4375,-35.2916,39.9668,107.8954,108.3973,177.1545,211.9616,82.0705,185.5678,-178.5131,-9.3139,-39.3175,79.1183,-117.6315,-24.0041,-251.1759,58.0351,-147.0629,48.8314,33.6319,-95.4774
-3265.6250,-162.7207,1.6141,-69.1793,83.7104,0.1734,105.6313,-94.2439,153.0665,-243.8893,67.9587,-68.8727,104.5597,-183.6500,126.7360,-281.1193,172.4348,-28.1943,235.1777,152.4500,57.9445
-3257.8125,20.2340,9.3321,-13.8803,-16.5517,56.5617,11.7201,70.8012,95.9671,-5.8903,-62.3578,96.9547,25.2127,-55.2866,68.9220,-79.6825,78.2589,-19.9229,-41.0365,124.6641,-181.2396
-3250.0000,75.3143,36.7167,29.5395,1.3242,26.0592,53.9451,113.9533,64.9788,37.1849,-57.5692,-41.1500,50.1820,-46.8559,73.2281,-108.1835,47.1856,-105.5834,-58.1533,-30.0649,119.6863
-3242.1875,-123.5801,-56.8401,-209.0228,-57.7168,-138.4214,-76.7460,-52.8906,42.0537,-18.7278,-5.7122,12.7526,39.4108,80.5972,234.6372,19.3172,98.1977,47.7908,56.8355,157.2376,26.6926
-3234.3750,62.2739,14.2487,-13.8519,-15.9761,56.8354,-67.6600,180.0044,51.8923,177.1068,39.9068,-48.6182,16.0416,18.7805,59.8272,-5.4606,-39.0193,-83.1090,-180.4082,-7.7264,1.4288
-3226.5625,-127.9656,-22.5135,-149.7995,37.7053,-116.0333,-21.6362,-30.2129,24.6598,3.8222,85.4567,-147.1411,70.9098,-7.1689,177.9468,-67.3835,79.6916,7.8457,48.2748,-57.8316,232.0975
-3218.7500,-103.9811,-7.4075,-112.5479,95.6642,-78.6940,-23.3365,7.7680,-86.3017,4.7484,10.2917,1.5519,64.2317,67.1099,139.3811,79.9053,41.6922,68.0361,-69.7409,-32.6967,-23.9872
-3210.9375,-1.7324,63.0496,96.9493,159.9160,-15.1155,74.2553,105.9977,-99.9871,29.9171,-2.6023,-82.5428,109.6052,-90.4062,89.1041,-114.6012,28.9562,-40.5711,-109.5028,-212.3622,148.1705
-3203.1250,-167.8515,5.5304,-71.9310,132.8596,-184.9247,12.5364,-136.1701,-125.0031,-139.2986,-26.8319,4.9712,126.4910,-40.3092,247.5320,-63.5029,113.9000,144.4523,72.4364,-27.4148,52.0094
-3195.3125,54.0838,91.3044,91.2285,177.8844,-21.6923,27.8940,136.6899,-73.9664,-87.5000,-123.0136,22.5191,107.8505,13.8263,78.0487,-10.3738,-19.0968,15.5252,-198.5523,-156.4323,-42.1190
-3187.5000,-42.2672,54.6172,-57.8982,148.6431,-133.7599,-13.0096,-12.7521,-41.2144,-53.0251,-17.4848,-163.2756,115.3663,-62.3763,146.2853,-85.5903,87.6203,24.2670,19.1807,-147.7877,212.4819
-3179.6875,-75.6976,25.1688,-154.1168,113.3801,-156.9133,-73.9328,1.7101,-29.4978,34.3831,68.0156,-75.1528,69.7066,-47.6526,121.5143,2.1120,99.3202,131.9557,18.9171,29.8043,-66.9588
-3171.8750,54.9305,85.9317,50.7057,137.1934,-26.0193,18.2268,168.2331,26.2861,91.8504,85.5752,-164.0140,74.0226,-210.9004,-7.1853,-87.1603,44.0783,-19.3366,-63.3001,-84.5764,63.6453
-3164.0625,-180.0596,10.7326,-119.1029,111.4366,-121.7614,29.8172,-75.8820,-35.5067,-79.3140,-13.4309,-77.5197,74.9092,-160.7796,76.5617,-75.0708,129.2697,203.7398,226.9270,101.4199,39.6878
-3156.2500,20.6299,76.8546,134.7501,134.4118,132.1648,26.1278,141.6695,-77.5826,-8.8052,-165.7045,104.6543,17.6440,-53.9779,-148.9436,-4.2990,-58.8120,157.4981,-101.1210,21.1069,-146.5889
-3148.4375,18.2785,79.2743,157.5520,95.3771,155.0276,11.4269,53.1676,-92.6843,-59.3585,-181.0037,-19.2664,25.4876,-104.2618,-127.4673,-91.6190,-37.9291,156.1631,36.7880,-51.3054,133.1024
-3140.6250,-51.6060,28.7195,56.8168,23.8705,54.3566,-91.7520,-9.8774,-158.2743,-13.4404,-172.7907,100.2786,6.4704,-21.0706,-10.4371,-8.4737,6.4869,297.3356,69.2515,124.7764,-77.6899
-3132.8125,163.1248,124.7211,276.6888,60.9964,200.2924,-57.3066,245.6829,-125.2580,95.0707,-139.9748,25.3991,34.5998,-206.3024,-86.7857,-156.7570,-33.4926,124.0946,-139.6776,-48.5688,31.1048
-3125.0000,-46.4498,61.2736,51.2442,59.8641,-23.0921,-62.1218,20.9057,-130.5238,-18.7483,-108.4326,-13.8322,78.2820,-209.8728,89.6099,-197.3961,71.2554,230.5311,140.1433,57.7498,137.6322
-3117.1875,78.3625,69.6013,157.1628,8.1665,117.8942,-106.5103,162.4860,-138.3802,84.8014,-117.4724,53.3065,23.3518,-106.0716,9.4526,-19.6689,-83.5699,180.3638,-122.5884,78.4658,-88.4637
-3109.3750,112.3082,72.1422,143.1797,6.6018,67.9753,-9.7556,111.1710,-79.1304,71.4439,-21.4009,-105.4994,31.2820,-155.2134,-5.5838,-69.8819,-60.2830,40.2543,-88.2190,-62.7629,192.5443
-3101.5625,-57.4469,-20.9974,-64.5532,-58.6381,-66.6930,-71.6787,-59.8910,-105.5835,9.3549,-11.0075,15.9485,5.1207,2.9079,114.7340,52.1713,-13.6581,185.4275,-14.4972,83.2929,57.8699
-3093.7500,117.9908,46.8352,116.8370,8.2987,77.7627,-38.4252,158.1891,-109.8890,117.4043,-51.4412,13.5240,12.9105,37.1503,0.2412,12.3414,-127.8638,-26.2750,-227.6186,-93.5258,92.3201
-3085.9375,-85.2896,-18.6002,-65.5444,14.5156,-104.5564,-38.8861,-135.4987,-73.9302,7.6861,-15.5926,15.3013,62.3387,1.5918,182.0351,-59.2933,18.2053,16.2354,94.5386,-16.1298,240.0460
-3078.1250,-10.3890,-12.1946,25.2357,-17.0400,23.2910,-60.1201,-82.0246,-94.7540,-11.8661,-110.5157,180.2531,-0.7424,92.2087,52.0806,67.2554,-76.4977,55.9508,-7.0517,58.4656,-36.0424
-3070.3125,89.9056,45.7438,192.4292,11.8448,80.5451,34.0859,-24.1481,-38.1585,-65.0314,-91.0205,54.5692,17.1027,-33.7975,-39.4600,-58.8183,-92.7945,-53.9599,-13.2323,-86.5708,205.2633
-3062.5000,-84.6563,-37.7771,12.7947,-60.0317,-98.0312,-72.4748,-203.1222,-72.3423,-60.0235,-51.3015,132.0471,3.1944,6.3708,110.2494,-17.7320,20.1393,121.3241,125.8440,123.5747,99.7870
-3054.6875,124.9031,15.4937,163.2985,-95.7243,51.5359,-70.8552,129.0424,-34.3586,125.1354,-50.4155,61.6576,-37.5529,-27.3240,-35.8601,-15.5193,-87.7531,-55.2478,-156.9150,87.8660,29.4323
-3046.8750,-48.5559,-38.1719,-64.2046,-96.3914,-102.9022,-42.2048,-25.7874,66.6476,7.2969,87.5002,-129.7797,-6.3734,-71.0460,66.0583,-59.3326,49.3714,-52.8558,125.3436,124.1308,242.1038
-3039.0625,-96.5294,-72.4323,-103.2032,-109.4988,-67.8223,-44.9891,-27.0957,64.2306,5.9884,121.0042,-57.7064,-60.3742,37.7825,-10.4142,85.4101,10.0864,40.0757,41.2065,217.9560,-15.6719
-3031.2500,-43.1312,-13.2840,54.1832,12.8099,16.6604,74.6611,20.0105,109.2486,88.0837,128.9430,-120.2725,-8.9894,-62.9917,-75.4549,-14.4517,-54.7774,-82.6372,-12.5252,-45.8417,177.9469
-3023.4375,-245.0431,-79.3160,-117.7174,-14.1058,-119.1337,85.0886,-263.1680,46.0488,-83.0775,102.6679,-72.1384,12.7439,-15.0328,81.3103,-3.6015,29.1545,136.3803,275.5455,67.0944,116.3456
-3015.6250,40.8519,35.1136,116.2040,24.8565,114.9050,135.3873,-29.5136,-15.2781,3.6034,5.2695,-22.1790,10.2014,-38.2306,-53.0284,10.0904,-106.0431,71.2463,-0.5080,-67.1251,-53.4364
-3007.8125,13.1777,60.0345,110.5751,66.3138,37.3849,129.1727,-181.4178,15.8721,-111.2846,36.3523,-99.8167,76.5201,-116.0076,52.1136,-141.7983,-37.7739,77.5373,144.9086,-95.9346,199.2433
-3000.0000,-46.6454,-15.1148,23.8047,-29.2836,22.7262,4.8879,-159.4720,-74.0608,-90.3096,20.3521,32.4153,9.1300,16.0954,72.2066,63.1841,-53.5712,124.7374,120.2866,20.1498,-35.1841
-2992.1875,82.6338,26.1368,77.1356,-5.7475,150.1684,57.7373,77.5788,-19.8804,0.7602,36.4654,-97.2782,-0.7279,-3.7246,-57.5802,7.2346,-110.2617,-97.9830,3.7661,-166.6905,129.4617
-2984.3750,-243.6598,-84.7453,-229.1101,-16.7308,-82.9668,82.0691,-228.9433,39.7700,-121.7298,60.0567,-146.5751,23.7752,56.8619,111.1326,-5.3131,23.5303,67.7236,273.7386,34.8997,190.5795
-2976.5625,-124.4230,-26.8191,-93.8422,31.8507,52.4229,69.9775,17.0679,26.9767,13.3267,-26.7838,-85.3461,33.7435,81.9727,62.4469,92.6785,-100.0970,46.9758,6.2887,13.0466,-40.7835
-2968.7500,-192.3796,3.0528,-64.7734,137.2540,8.6016,134.7182,-65.1074,54.9996,-68.8135,-35.7960,-203.3579,129.5070,-36.1434,163.5876,-99.5494,-34.9071,13.9905,146.6364,-161.0364,171.6591
-2960.9375,-310.4742,-23.7481,-102.8460,195.5789,-29.3579,97.3751,-249.4272,15.9427,-181.0810,-74.8679,-57.4904,148.8233,35.6255,235.6697,-63.8921,36.2158,141.8976,239.9370,-103.2264,-85.9889
-2953.1250,-83.3734,54.9736,134.2724,246.1286,96.8734,187.2494,-124.5585,104.1112,-128.1545,-22.7096,-41.4299,153.3608,-58.4182,103.9749,-159.0471,-58.4467,-124.0173,44.4460,-263.2378,-69.4615
-2945.3125,-250.5923,-28.2326,-117.9243,184.4136,-154.2143,191.8497,-413.0229,182.0145,-305.5438,92.1884,-109.7129,162.1935,-90.7962,256.0197,-189.5473,129.6147,-115.2541,333.6996,-79.5816,9.7889
-2937.5000,-104.0393,-13.4294,-99.3572,119.5253,-99.5271,210.2654,-210.7225,163.7350,-141.1507,35.9044,-17.2180,103.1315,-108.3986,163.9094,-135.2754,74.5014,-144.6761,93.7973,-38.1135,-265.1906
-2929.6875,-54.6231,51.1023,-94.9345,238.5285,-167.9882,251.5687,-133.5609,130.3218,-99.9139,40.4835,-159.9147,159.5967,-250.1835,130.6575,-277.1815,115.2428,-235.2699,106.7478,-164.8276,-39.3322
-2921.8750,-235.2946,-14.5845,-348.6056,233.5128,-238.5356,181.8480,-240.4916,132.8753,-169.7482,79.0416,-120.7021,149.9405,-138.0463,207.3991,-128.1604,154.9742,-63.9186,242.7002,6.4004,-219.5162
-2914.0625,-58.7248,26.4906,-128.0504,198.7657,20.1511,219.3997,53.8253,169.6962,-22.3249,115.8835,-230.2557,122.1987,-100.6780,96.4148,-53.8953,44.9731,-239.3380,-38.0875,-134.1339,-218.4852
-2906.2500,-260.9151,-62.9058,-238.2645,101.2892,-91.9315,218.2313,-203.6132,204.7962,-133.6667,151.0132,-267.6017,124.3762,-65.0896,242.7084,-92.4083,153.2469,-125.5438,286.4013,-90.4425,1.8150
-2898.4375,-198.7893,-46.8521,-88.1749,94.1773,59.3013,185.4267,-127.7416,134.2678,-93.6770,80.5269,-43.6241,77.4548,11.8389,135.3945,-14.5794,45.9035,-27.3967,138.2833,-62.3890,-251.5544
-2890.6250,-71.4622,20.1339,144.1127,150.2810,107.7324,233.8448,-116.6534,107.9663,-82.4765,128.2685,-142.4821,93.6586,-124.0440,36.2973,-114.5520,20.7710,-147.0853,123.3576,-252.1622,-18.7425
-2882.8125,-226.9738,-58.3053,-87.4365,65.6005,-86.6693,149.4845,-273.3988,96.8951,-93.1000,117.2412,-117.1836,75.7058,-97.7419,171.4428,-51.3335,156.8757,14.4172,285.6838,-20.7498,-102.7190
-2875.0000,-4.9588,-23.8425,38.5383,5.4932,39.4687,90.6902,71.3986,111.3959,142.8175,168.7901,-175.3517,-1.4883,-45.8973,3.1640,73.4223,24.5434,-150.5306,-91.4249,-80.7893,-197.1856
-2867.1875,-199.0483,-93.3164,-176.5916,21.3196,-138.5014,96.8248,-69.9086,153.8160,37.6397,321.2667,-316.6652,15.7059,-41.1814,81.8119,116.0443,140.1251,-168.6043,101.3848,-63.9675,66.2556
-2859.3750,-243.3244,-127.5145,-321.9080,49.0235,-174.6538,61.8246,-69.4104,154.0923,39.2809,358.6078,-169.1437,-31.3202,144.3747,9.3580,227.5052,140.5847,-141.8187,23.0930,68.7043,-152.4703
-2851.5625,-132.3811,-78.7463,-181.0174,87.9467,-69.5989,93.0434,72.2908,221.5791,143.1153,426.1556,-247.4319,-29.5518,28.1184,-105.8867,74.1526,98.2454,-313.8528,-78.0061,-138.4417,62.9752
-2843.7500,-352.3018,-143.1608,-335.9988,80.0419,-187.4158,48.4280,-229.8842,176.2347,62.0828,417.8842,-145.6049,-10.5642,19.9820,32.0515,28.9148,163.0810,-75.7497,194.0841,-41.4485,55.5856
-2835.9375,-142.4892,-48.6378,-34.2604,113.8945,4.5031,94.5694,-75.3200,111.6512,106.7988,205.3890,-28.0311,-5.8596,28.5891,-70.2321,37.4232,-12.3169,-76.9004,-18.0579,-147.6994,-156.0937
-2828.1250,-132.1674,8.0724,-35.0190,193.2606,-69.0788,167.2297,-185.2372,73.5871,-76.9769,94.4210,-100.9895,66.9232,-82.3280,-34.0027,-109.5855,23.8023,-67.5849,167.2978,-173.4780,64.7305
-2820.3125,-108.8393,-5.3541,-143.7717,112.6807,-105.6468,94.9496,-185.1364,37.5914,-113.7061,21.5293,9.0816,18.3630,28.7962,-32.6807,0.4500,25.0071,97.7830,121.7512,61.8021,-191.4001
-2812.5000,123.2910,64.4116,18.2692,98.9164,57.5830,148.4885,124.7741,89.4127,86.3721,73.4541,-123.0648,-24.3596,-29.2888,-236.5416,-20.7127,-69.9893,-92.0599,-103.9988,-93.1258,-64.7645
-2804.6875,-121.2388,-54.0961,-204.3534,-5.4700,-127.8584,35.4036,-62.9899,86.5967,9.7770,107.7528,-124.8970,-47.4593,40.9482,-93.0243,12.4538,74.3820,15.4390,144.6358,119.2759,43.2338
-2796.8750,42.5716,-68.9960,-63.6601,-158.4862,86.0239,-43.3229,188.5666,43.1337,114.5189,64.4116,14.6228,-151.1736,144.5293,-210.1273,189.9640,-41.8773,-67.7052,-113.3529,107.0298,-109.4574
-2789.0625,-4.3974,-103.6374,-16.7588,-240.2753,95.1061,-32.8273,124.3315,89.8800,86.4667,110.2944,-48.6707,-153.4798,80.2850,-162.0296,88.6444,5.0658,-114.6788,14.8550,24.9569,195.0375
-2781.2500,-148.7494,-160.1107,-121.2401,-277.3937,-7.1946,-99.6706,-15.2936,60.2943,131.0372,117.8521,104.6747,-169.8584,50.6708,-82.2459,95.9506,121.6891,93.0031,153.7619,232.5387,-17.8263
-2773.4375,127.4420,-4.2663,130.8294,-142.9493,134.0627,-30.9515,235.6403,17.2743,199.1479,74.9782,25.5659,-112.4087,-102.3991,-196.8983,52.8123,5.8631,-17.7770,-63.7843,50.6723,-23.1860
-2765.6250,-71.8364,-1.8457,-80.5628,10.0509,-113.1384,-21.6645,-85.8793,25.8299,-50.1944,121.6827,-76.0365,0.8875,-128.9331,-4.9775,25.2174,125.6052,134.9747,231.2350,98.3409,60.0149
-2757.8125,73.2465,71.7913,-60.5916,85.4555,-56.9610,-0.9782,6.9806,8.7973,43.8740,30.8049,-56.2493,27.4418,-110.0632,-21.6285,45.0222,34.7742,139.1344,59.6800,102.4243,-287.4184
-2750.0000,111.1920,118.7403,5.2383,193.7203,-26.9216,66.5662,-0.2889,112.6320,-0.1901,134.7924,-246.6272,80.7636,-263.3560,-64.4274,-146.3321,64.7907,-68.8784,97.9615,-105.6615,-73.0227
-2742.1875,-97.9408,15.3008,-170.0131,125.9476,-129.9601,39.0665,-249.6349,157.4321,-212.3225,179.7470,-166.0747,61.7378,-146.7045,53.7505,-138.7424,183.7835,38.0584,275.2263,36.2056,-211.6761
-2734.3750,102.7769,47.7440,76.5754,80.0319,80.8521,65.4189,33.8790,147.0866,-112.5990,95.5571,-66.6704,32.0095,-120.1992,-29.2140,-112.2917,99.6260,-183.1557,-50.6682,-185.0673,-221.5245
-2726.5625,-90.8986,-51.3923,-64.2350,-7.2686,-95.7432,73.3830,-106.0015,80.3555,-69.2816,212.9866,-60.6879,21.3969,-149.1098,88.4270,-178.2493,180.0701,-128.7836,143.0357,-130.7578,43.2392
-2718.7500,-130.6525,-102.7323,-57.1332,-81.6141,-52.4195,-29.7081,-25.9534,13.5802,84.9716,220.3921,130.2309,-47.1428,-107.0745,58.0532,11.7503,113.4842,-28.4398,-1.2815,39.5231,-207.0702
-2710.9375,-18.2476,3.4106,50.1237,66.1979,18.0660,4.3600,80.2779,46.9678,81.3996,216.9649,-57.7211,20.4763,-182.9007,-18.1755,-29.0960,0.0516,-127.9649,-65.4655,-95.0577,10.7429
-2703.1250,-149.7708,-9.1354,-158.5388,112.1125,-189.3692,-18.4695,-200.4092,23.4736,-126.0683,82.6640,-7.5993,62.4634,-60.6357,105.7152,-15.8513,49.7432,93.6094,121.4842,91.4574,-49.3348
-2695.3125,184.3969,112.3221,12.4938,164.7254,-19.1028,-31.6029,43.6038,9.6841,8.1706,-40.9321,52.2423,49.1010,-0.6610,-54.6848,-29.9008,-73.8585,-66.1122,-177.8664,-32.3201,-172.7548
-2687.5000,121.0841,67.4319,-137.9543,101.8414,-169.3225,-34.2293,-34.8747,42.4028,3.9090,28.9875,-98.4221,73.7376,-78.1992,89.4158,-106.4594,70.0340,-163.3536,-29.7200,-25.6249,81.3290
-2679.6875,60.8014,-36.3050,-301.3770,-63.9895,-222.5148,-122.8097,60.6569,-9.8230,62.6798,13.9738,68.9680,14.6337,89.3140,221.5832,97.0408,127.9910,-153.5302,-124.4896,125.1349,-154.5545
-2671.8750,196.3382,-20.0337,-131.9865,-139.0096,-125.8998,-63.5890,302.0093,11.7581,120.2661,35.7702,16.1580,8.9668,37.6274,206.5453,45.3527,76.7408,-369.9196,-305.4841,-56.3151,51.3273
-2664.0625,-50.7453,-161.6535,-355.2146,-314.6258,-274.9018,-137.9653,42.7587,9.7525,8.2596,107.9828,87.7201,-43.2807,72.3328,351.9229,80.0604,221.9163,-193.9135,10.9373,154.6302,86.6237
-2656.2500,129.0468,-119.7684,-84.5715,-345.3480,-78.0114,-124.4503,240.4103,-13.3434,169.1655,85.1075,248.1872,-154.8538,48.9511,35.2126,166.6886,89.0023,-191.0016,-195.7352,158.4957,-120.2185
-2648.4375,80.1386,-94.5059,-0.6174,-288.7672,-65.8046,-74.6328,141.3849,34.8821,180.3809,133.5522,111.9412,-144.4333,-86.1358,-62.2058,67.6115,63.3832,-133.8114,-32.1227,109.6507,112.2361
-2640.6250,-11.8029,-112.0043,-47.6906,-275.1923,-40.6196,-121.8256,20.3363,-48.8790,170.5787,13.0196,211.6942,-154.6467,49.7882,-36.5985,241.5369,-20.2187,125.3868,-19.4822,228.8247,-155.3164
-2632.8125,195.6210,15.7351,202.5961,-138.2738,172.9268,-91.6739,196.6631,-55.2872,200.1378,-67.1702,93.8107,-105.9045,79.0756,-153.6494,196.8369,-174.4834,15.9327,-232.5197,-21.6460,-88.5551
-2625.0000,-13.0500,1.2506,-18.2171,-28.4595,-47.6335,-91.6240,-98.1100,-55.7843,-57.3979,6.5404,19.8194,1.3572,78.2667,67.1990,86.0321,-63.8452,160.3723,51.3502,51.7808,-14.8786
-2617.1875,142.1234,90.5254,82.8034,92.2003,53.6410,-62.7357,39.9503,-101.4299,-30.0835,-112.8968,83.6930,30.9334,106.3184,-15.0937,114.0911,-146.3525,104.6861,-108.9156,32.0818,-281.3881
-2609.3750,148.2727,119.6637,113.7932,133.8202,11.8777,43.1093,33.9870,-33.1170,-34.8074,-81.3832,-69.4912,87.0634,-46.6843,17.5594,-112.9012,-40.9178,4.9308,2.7420,-103.6863,-28.9608
-2601.5625,13.1985,27.9226,-56.4422,34.2445,-122.1065,-16.2499,-99.1943,-18.9982,-20.7371,6.9357,91.1154,30.8078,-32.8853,68.0324,-99.0970,47.3329,116.9921,79.2260,149.3585,-198.7332
-2593.7500,316.0327,91.2559,222.2323,-50.4373,82.8234,5.2777,179.5490,-34.9863,110.2545,28.1509,111.6364,-54.4243,-159.1805,-167.6069,-78.3766,-42.5245,-74.0355,-180.4187,-5.6821,-177.6481
-2585.9375,116.1175,-7.1261,4.1721,-142.8730,-60.9889,9.0498,-38.4392,5.2807,40.4991,104.6238,-32.5999,-50.7330,-229.2342,-17.0049,-38.4002,107.8676,-62.8243,147.1823,110.5158,9.6958
-2578.1250,98.4827,-51.2176,-2.6038,-196.0195,-29.5211,40.1031,28.8558,72.8435,108.0383,99.3989,-2.5203,-102.6184,-125.9733,-59.0862,139.8933,102.5694,-79.2859,25.0939,199.0369,-253.6909
-2570.3125,117.1808,-4.7090,6.9400,-106.8628,-20.7380,123.4478,111.4844,192.7089,79.8992,145.4749,-250.1358,-37.7390,-154.4131,-49.8791,37.4888,111.5526,-200.4605,9.2747,6.8444,-23.8006
-2562.5000,-97.3251,-64.1179,-249.7330,-73.9113,-203.1723,52.5814,-71.1091,121.3822,-28.4471,111.3528,-175.9555,13.0026,-5.0473,173.1368,76.8884,187.3455,7.1738,112.2749,109.4603,-132.1040
-2554.6875,95.0283,50.1878,-44.5569,82.8818,-71.7505,37.5488,171.1563,31.9130,103.0687,58.0818,-155.9093,57.9181,15.1900,83.9872,60.1620,24.9817,-82.3348,-187.8919,-121.0565,-221.6015
-2546.8750,-75.6069,56.7867,-123.3662,229.6674,-222.3191,33.5140,-91.5540,27.4615,-158.4076,90.8178,-159.8706,150.3809,-25.5744,190.8245,-17.5679,93.6178,-6.8608,98.9287,-150.5800,-5.0932
-2539.0625,-99.9097,39.0249,-61.8479,205.7908,-125.5538,20.8159,-103.9350,14.3711,-208.5443,41.9113,47.5280,112.1365,72.0304,142.0258,43.0655,44.6119,109.9758,40.1193,-33.7266,-275.2548
-2531.2500,41.8057,98.7691,149.6896,206.9111,49.2297,86.1142,33.7203,42.2823,-106.6578,32.9985,-35.0604,111.6220,-84.3578,22.2122,-113.2848,-0.4035,-30.1987,-28.7282,-173.8775,-63.4452
-2523.4375,-109.2974,26.4688,-44.5820,127.2271,-70.7976,39.6063,-197.4241,-3.6074,-79.5690,60.2883,-9.4526,92.2758,-131.5445,123.6039,-123.4317,99.7925,135.8303,207.6371,27.1748,-73.4274
-2515.6250,120.1965,58.8343,126.7443,75.1352,63.7750,65.6787,85.0461,-52.9037,129.1287,12.1748,51.7742,24.6847,-144.1149,-35.4121,-24.9531,14.5826,-56.5214,-90.4186,-95.1505,-195.8526
-2507.8125,54.7150,16.1729,-28.9050,10.0357,-53.6376,94.7409,-33.4461,-23.1966,47.8538,41.0596,-66.0078,24.2020,-150.6814,30.5539,-69.4768,80.3649,-85.8861,91.4935,-124.4821,90.7284
-2500.0000,14.8194,-56.4112,-133.9778,-134.4855,-49.4681,-10.6250,-28.3451,-54.8924,16.1891,9.5441,85.8230,-62.0930,37.3701,36.1304,118.6187,11.7565,49.3677,52.0151,-24.1847,-125.0935
-2492.1875,165.8983,-10.3675,89.9169,-123.0745,101.6666,-6.0639,159.7444,-51.6357,93.4909,13.9718,-21.3727,-72.2313,41.3921,-70.3621,196.6975,-129.9224,-150.4312,-148.5559,-223.9294,26.0070
-2484.3750,-57.8730,-110.8994,-108.0328,-205.5238,-96.0496,-56.3624,-112.0210,-102.2164,4.9346,-1.4478,-0.4190,-64.4528,135.5684,136.2899,217.9317,0.5419,11.9257,86.0252,-60.5188,84.2755
-2476.5625,169.2498,-8.0991,62.9193,-156.0863,75.1410,-68.7867,132.1084,-151.8966,67.2855,-122.9771,134.4658,-65.4600,160.6686,13.8316,206.0869,-121.1053,-7.7916,-145.5023,-45.1795,-111.5920
-2468.7500,165.4536,66.2132,121.9603,-16.6061,23.4136,27.8257,44.3232,-128.5292,-56.2932,-136.4695,83.4025,4.3279,-1.1748,-35.6058,-28.7007,-60.7288,24.5329,-6.0159,-82.7954,131.5870
-2460.9375,68.9885,70.0509,-3.6619,62.2104,-27.9761,-24.2320,-154.1248,-143.8130,-108.5267,-114.6163,215.7010,20.7533,21.3441,-14.6940,-44.1215,-75.9967,245.2270,107.8336,136.9689,-140.8852
-2453.1250,293.8499,164.8613,268.0321,111.3096,169.9471,26.9876,80.7664,-92.7964,15.5637,-174.4742,155.3291,31.3184,-111.8149,-147.5171,-140.2197,-135.9807,48.2153,-160.0596,-24.9472,-127.0916
-2445.3125,35.6295,43.8212,28.6310,29.2893,-32.2320,-64.9122,-85.4295,-0.8723,-39.4255,-154.4247,26.8642,22.1961,-20.0629,18.5475,-85.4063,66.9263,106.0929,-31.0719,104.0291,1.6225
-2437.5000,86.9708,-25.1333,52.7720,-96.2084,30.1271,-149.2954,197.9163,-12.4042,243.1388,-129.8351,87.9822,-87.2572,152.2681,-66.8409,160.9900,-18.6202,-18.4607,-330.5425,49.5777,-194.1368
-2429.6875,112.6044,-12.3019,66.2009,-104.4653,42.7586,-135.4480,284.5459,1.3104,219.9591,-41.9996,-81.6365,-64.4047,91.8700,-52.0148,100.6614,-40.9448,-132.7711,-304.8094,-99.6348,113.3494
-2421.8750,-39.1236,-58.9278,-124.7312,-150.0843,-36.9752,-140.9775,56.8137,-42.3202,30.4248,-86.5099,21.4014,-47.5840,122.1401,87.4492,168.0050,-48.6164,101.5893,-70.4196,135.8228,-3.5021
-2414.0625,133.4596,22.9839,131.6552,-84.4230,145.6088,-70.2361,239.4106,-43.6559,65.2150,-87.7340,-17.2286,-55.9628,83.7423,-97.8133,202.6808,-196.0103,-6.7331,-248.7683,26.5969,-42.0894
-2406.2500,-108.8400,-36.7594,-19.8280,-44.6800,31.3185,-35.4170,-57.8634,-45.8973,-47.8742,-52.8727,-93.7493,-14.4799,43.4576,9.0049,89.4656,-52.3159,102.0418,69.9572,100.4599,101.4421
-2398.4375,-49.5961,-7.2346,93.2381,-20.4111,144.5769,-34.0827,54.4109,-154.6030,28.6031,-198.4848,91.3165,-16.4334,119.7514,-24.6276,18.8210,-124.0759,162.3993,-45.7733,125.9006,-190.4925
-2390.6250,57.5959,67.3117,231.2411,51.7349,245.7631,30.1301,118.6358,-126.4177,-17.9894,-243.2193,45.3056,31.3220,36.9565,-70.3983,-136.9052,-169.9623,58.6471,-77.6568,-83.7547,57.4589
-2382.8125,-135.5038,-48.3958,31.9416,-36.4418,82.6416,-58.9840,-153.4317,-141.5427,-106.8834,-185.2660,177.0021,-18.6064,205.8722,24.5264,31.0826,-112.1452,182.6080,80.1587,110.3017,5.1271
-2375.0000,94.5669,-9.7692,163.8003,-52.4949,214.6847,-110.9802,162.6768,-121.5373,62.3855,-200.1959,234.8783,-81.4253,337.9707,-138.4088,126.2567,-200.1992,-45.2564,-252.9063,-81.4683,-47.0889
-2367.1875,-4.0357,-23.4408,10.9986,-10.2580,63.0544,-115.6936,-26.8844,-89.2404,-53.0252,-95.8562,118.0652,-32.0645,258.3870,-33.0698,10.7322,-58.9867,-37.8158,-34.6966,-179.9461,241.0112
-2359.3750,62.8031,9.6155,-18.3491,21.4205,33.8762,-143.9835,-56.0173,-118.5076,-81.9898,-125.0833,273.7309,-55.9847,303.2777,-99.2929,128.6732,-125.3400,99.1149,-74.0311,-112.9432,-8.4463
-2351.5625,251.2827,132.7204,206.9439,138.6874,148.3252,-66.6946,22.4840,-77.1762,-39.3378,-156.7301,131.0274,-15.0358,160.7866,-240.9541,23.2313,-231.1238,7.6457,-201.8150,-275.3309,179.6745
-2343.7500,36.6724,73.5732,20.1473,135.8261,-36.3252,-141.5269,-310.1112,-41.9421,-151.7804,-122.4890,129.2359,8.0469,159.2066,-95.7262,-15.3011,-123.0107,214.0790,75.2905,-67.8034,140.7173
-2335.9375,245.7260,156.2894,248.0019,167.5822,153.6770,-172.7479,-83.0313,-73.0689,-108.5540,-189.6161,209.1280,-9.4859,202.3131,-235.8575,-9.1446,-263.2605,141.1757,-173.9910,-70.5920,-73.6198
-2328.1250,171.5471,112.4152,196.6177,128.0440,101.4381,-150.2519,-170.1776,-50.4472,-195.5640,-94.0021,120.7907,-0.6400,151.2003,-177.2461,-96.2204,-167.7676,32.0167,-36.5534,-73.6158,168.7929
-2320.3125,58.7743,5.8938,52.6403,-20.1209,31.6036,-294.3785,-167.9046,-47.4283,-119.1459,-91.0102,308.8649,-65.1778,302.5097,-64.2546,91.1204,-128.8831,130.2621,-79.7330,129.7708,-85.3911
-2312.5000,284.3085,60.9838,209.9780,-75.9978,189.0895,-247.2276,136.6845,-1.1201,1.5658,-153.7405,281.2634,-88.7691,239.1419,-163.9906,64.7822,-191.7222,-66.1689,-275.6222,-101.5394,34.7213
-2304.6875,70.7076,-18.1870,17.1932,-114.0218,33.4499,-293.2490,-127.8679,-7.9725,-188.8862,-125.6431,273.5406,-66.7141,304.6472,11.0995,93.3154,-89.7429,71.2737,36.3176,-68.9964,136.6807
-2296.8750,203.5210,30.3981,165.8352,-87.6628,219.2263,-254.8980,19.9832,-81.4370,-114.9259,-162.1578,348.2417,-113.8075,379.5706,-172.4275,168.2685,-199.3805,99.1355,-148.3648,-77.0400,-82.9632
-2289.0625,199.6570,73.1748,224.8010,-21.0280,168.3194,-159.2737,-29.8379,-21.6168,-91.6217,-102.3955,150.2757,-76.9301,217.8172,-222.6824,7.5387,-176.7386,95.3095,-45.7799,-149.7734,159.6865
-2281.2500,77.9784,29.3573,68.9489,-38.2626,48.5838,-205.5296,-150.4846,-68.6571,-27.1695,-148.5248,214.4969,-74.4157,209.2413,-122.8263,108.9766,-149.9743,254.6537,6.9119,114.6619,-33.5073
-2273.4375,329.0865,84.1685,327.8684,-103.7876,234.6129,-205.0793,182.6521,-66.9605,85.0360,-146.9403,216.5030,-118.5760,137.4525,-267.2496,74.1879,-258.4897,13.7626,-305.6837,-22.1218,41.0572
-2265.6250,152.2279,-1.5827,97.8063,-210.3636,41.6605,-251.6731,-10.1857,-150.2732,2.2799,-120.3727,169.5322,-93.2733,127.6890,-20.6985,65.4301,-85.0313,118.8748,-95.3168,154.1214,251.6305
-2257.8125,257.7514,3.7124,145.1069,-281.6228,88.0636,-314.9541,221.3462,-286.2507,196.8907,-220.4736,253.9446,-140.9400,176.3069,-47.8283,186.0593,-112.2504,154.3468,-342.6383,259.7216,4.5653
-2250.0000,280.1592,65.0522,155.2765,-190.0560,136.3244,-268.4240,378.7463,-313.4024,244.3666,-246.7445,45.2388,-81.2124,40.8008,-73.1368,50.5740,-138.6411,106.6804,-391.1537,141.1733,272.3600
-2242.1875,83.0401,39.2786,-44.0844,-142.0552,9.0354,-322.4784,251.6181,-404.1320,154.3268,-374.5893,101.0033,-34.6396,96.7668,54.9797,32.5466,-82.5957,365.4758,-132.2516,331.0877,144.6191
-2234.3750,253.1886,133.6812,209.8174,-43.8118,227.0016,-179.3123,433.7629,-406.6381,188.5537,-451.2103,135.0355,-36.8392,20.9985,-167.6691,-43.2174,-232.3205,289.5453,-280.1194,114.2695,68.1366
-2226.5625,45.6520,77.6120,167.0500,-6.2784,147.2868,-74.8737,97.2251,-376.8539,37.0797,-310.5599,93.3796,-1.1257,-57.4560,-100.0312,-157.6700,-165.7673,326.9363,38.2938,116.7663,245.9529
-2218.7500,72.4799,32.4616,210.6622,-85.4128,190.9397,-107.1133,104.0459,-296.7222,153.9378,-304.5930,284.0960,-82.3203,22.4639,-169.0689,-4.7505,-160.8909,319.6942,-75.9663,214.6310,-78.8782
-2210.9375,183.9266,57.7840,319.8964,-114.9800,226.2067,-71.7849,286.4871,-114.9930,188.3977,-233.0519,98.4430,-79.4430,-15.9835,-206.5355,-78.2007,-125.4370,80.0581,-175.6603,81.1177,102.8938
-2203.1250,-46.8036,-37.0715,-30.0623,-170.7906,-12.7193,-127.6916,84.7530,-60.4698,-50.3134,-215.7245,80.6133,-66.8243,77.3867,-6.2112,50.1714,38.8104,236.2173,49.4122,272.4228,47.4700
-2195.3125,159.9845,49.0396,119.4854,-106.1299,172.8564,-91.1300,343.5386,-22.4575,62.5154,-287.9037,119.3019,-72.3357,116.2731,-152.4040,89.0607,-107.4570,125.8858,-237.0378,162.2346,-98.4539
-2187.5000,23.7386,4.8620,2.0025,-67.5243,19.3898,-24.6407,116.2877,7.4991,92.3046,-112.1376,37.9565,-55.2076,72.1310,-122.6779,-27.0855,-40.7877,94.5148,12.4408,131.9927,151.5696
-2179.6875,-81.9361,-72.9791,-57.9097,-104.3718,-3.5107,-49.6181,57.5973,19.9974,70.6201,-25.8442,200.1817,-115.1064,197.5495,-146.4316,133.3342,8.4158,129.7091,10.4538,307.3019,-165.8496
-2171.8750,48.2106,-20.8174,182.9989,-81.4295,126.3937,43.1848,260.7180,149.2762,52.7438,-43.7807,109.2320,-100.4060,143.7835,-237.3906,42.5666,-46.5994,-92.2879,-176.7593,85.4166,-36.4684
-2164.0625,-188.5688,-112.8950,3.9808,-143.4563,21.3592,10.0129,-28.0981,153.5955,-88.0801,-39.6945,78.3516,-108.3687,186.0886,-122.3178,48.8714,31.4153,92.7678,41.0536,200.5923,41.9657
-2156.2500,-54.4275,-82.1830,187.8826,-151.6012,205.2364,-64.2788,229.9882,79.8103,168.9840,-39.7227,115.4068,-176.2563,149.3190,-307.3692,196.0834,-116.6927,51.7309,-247.2519,158.6836,-105.6959
-2148.4375,-129.4129,-99.5419,132.6532,-156.9229,149.9819,-83.7447,174.9332,60.8730,224.9157,15.0914,-86.6612,-140.0174,21.4081,-216.5997,104.1592,-24.9705,11.5499,-113.7272,117.6350,169.4920
-2140.6250,-206.3250,-120.1841,-9.5112,-165.2244,44.7879,-154.1845,69.9407,-45.0127,156.9072,-129.0636,28.3397,-113.7585,100.5555,-65.7972,147.2904,14.7900,180.4250,-51.1715,323.6389,-83.2661
-2132.8125,49.6898,5.9091,181.2354,-51.6475,161.5003,-38.7480,296.8559,-3.0047,162.7808,-159.3533,-38.7367,-60.6071,-3.3772,-170.0995,43.3462,-90.5652,-56.7939,-253.7344,86.5562,-4.1204
-2125.0000,-182.4358,-78.9157,-67.1555,-38.2401,-86.9371,-30.4870,-25.3543,4.8406,23.5228,30.1856,-65.9549,-34.4130,-31.4469,-16.5515,51.2657,63.9309,26.8373,73.5285,100.3230,113.8807
-2117.1875,-107.0037,-77.5213,22.0103,-70.3000,39.1734,20.3050,138.0034,-16.7821,77.8540,9.2554,23.3790,-64.5578,22.0403,-74.4538,105.7389,5.9653,-37.9724,-97.6765,140.6445,-127.5644
-2109.3750,-146.9955,-72.4955,76.7480,-76.8265,56.8513,110.6288,156.9248,38.1274,22.7275,-9.1397,-104.7114,-15.5298,-105.9042,-19.8413,-96.2229,59.5226,-113.2232,35.6476,29.5168,147.5403
-2101.5625,-326.5569,-133.1407,-103.0959,-82.9615,-49.0728,76.3393,-22.7596,-32.5646,-47.0306,-81.1375,-27.3763,4.6621,-65.4343,129.1443,-92.7695,210.4690,57.9235,241.3554,166.7749,-32.9508
-2093.7500,-91.6350,-48.3667,106.5120,-24.6448,123.4387,137.4822,259.9990,-7.8125,125.6555,-56.7034,-112.5662,-17.7296,-76.5047,-67.4195,-66.8675,123.8585,-129.4798,-52.5002,-55.5213,-44.9959
-2085.9375,-278.1518,-114.4708,-97.3171,-36.7877,-80.5031,115.1616,19.3195,44.4871,31.9053,105.2625,-242.1932,1.9536,-96.0198,57.5636,-49.4134,248.7868,-69.3304,181.1734,38.7350,154.5048
-2078.1250,-222.4676,-103.7404,-137.9327,-17.7419,-47.2400,37.0174,89.8484,39.9855,139.3613,138.4275,-135.6030,-12.5731,-26.3250,53.7302,131.2549,134.8978,-48.9773,24.0322,95.2019,-106.7895
-2070.3125,-143.3640,-44.3048,-30.1346,58.6862,-13.5643,142.2466,122.7817,108.8749,135.2202,206.9808,-285.5875,34.1101,-139.2091,12.2731,-18.6549,129.3881,-181.2202,-3.7381,-107.9318,146.3212
-2062.5000,-300.2333,-105.3702,-228.3305,41.0902,-174.8876,53.4424,-110.2771,20.7520,11.1087,228.5231,-151.5626,50.5512,-79.0761,180.7934,3.4689,224.8584,-23.4738,187.4636,50.9411,58.4415
-2054.6875,-69.4298,-74.4863,17.1256,-45.8824,-3.5602,40.2636,134.3334,81.2634,146.6614,215.6897,-53.8746,-39.4189,-54.2682,-16.0505,65.2608,100.9635,-178.0692,-110.7075,-70.5217,-27.7784
-2046.8750,-211.6982,-111.8135,-104.4915,-48.9719,-124.3148,63.9661,-133.1355,179.6493,-10.9056,239.7132,-101.2643,-4.9686,-101.5419,81.0051,-18.0476,161.9476,-144.7478,202.9893,-36.0695,180.9130
-2039.0625,-155.1008,-70.4003,-69.2287,-30.2211,-17.2060,60.4926,-209.7463,176.8633,-123.6349,126.5476,81.2211,18.1416,-29.9517,115.8956,-20.5031,48.7609,-19.5565,186.5233,90.2365,-115.5340
-2031.2500,-40.7856,7.0880,151.7632,48.2154,131.6151,169.6932,-96.6573,176.7626,-84.6582,126.0661,-64.5619,51.9900,-137.6409,4.4594,-202.2448,11.2612,-150.6580,123.7399,-75.7589,68.7141
-2023.4375,-250.3051,-83.5221,-139.0725,11.7896,-87.4038,133.0243,-315.4131,177.8148,-156.5273,125.7368,-63.1775,39.5127,-63.1660,115.1454,-89.8291,158.9009,-10.6126,369.0950,99.3955,33.1095
-2015.6250,-25.3613,-37.8412,-7.4456,-11.2027,45.0313,153.7962,-36.7236,162.3185,-24.9565,73.8547,-3.3277,-21.1958,33.7629,-47.7202,43.0380,32.9828,-136.1176,29.8995,-26.9904,-129.0418
-2007.8125,-108.8035,-36.3893,-107.2168,43.3902,-91.9324,162.1615,-172.4261,171.4250,-160.7865,155.5564,-102.8772,47.3940,-65.7070,71.0262,-93.4962,114.6703,-150.0297,224.2937,-110.7813,137.4076
-2000.0000,-241.0462,-63.5041,-196.8008,121.1704,-144.7100,144.7137,-261.9128,191.7278,-177.4131,175.4553,-8.2451,69.1400,-7.9715,127.9902,38.1687,98.5728,-36.7520,231.8758,-32.3837,-135.9411
-1992.1875,-64.4387,-4.8714,18.4491,155.8048,-3.6541,211.1050,-84.5481,258.8900,-73.1885,168.2150,-50.7686,43.1407,-50.3758,-63.2069,-4.3007,-19.6889,-246.6294,-15.7022,-242.1429,4.5632
-1984.3750,-196.5811,-89.8428,-161.0482,19.6940,-183.3500,65.7434,-299.9406,187.3035,-141.7097,207.2199,-10.0332,12.8198,-45.5173,86.8151,-36.4983,93.2848,-99.2589,199.9564,-94.6486,81.3318
-1976.5625,34.5247,-4.5829,16.7097,38.8226,-42.8032,58.6287,-85.0804,107.9516,73.0220,90.4505,95.9675,-7.7123,-87.3971,-30.8970,-42.4520,12.5133,-114.6377,-28.1409,-144.9018,-145.6400
-1968.7500,-21.9033,31.2819,55.9337,121.3940,-75.7985,169.9574,-155.7525,72.0268,-33.8057,91.1109,-84.5633,82.9812,-267.8353,43.8381,-258.9743,87.1889,-135.5633,125.2059,-200.7110,113.8394
-1960.9375,-162.2056,-11.8613,-80.7122,120.0509,-140.6796,104.3678,-255.3164,7.1788,-208.5367,-11.1562,-1.9658,96.9525,-111.1799,162.6548,-65.4013,95.9464,39.6201,158.6363,9.5761,-97.5730
-1953.1250,58.8126,60.5283,108.9706,127.9935,49.7485,108.0486,80.4267,49.5961,-92.9601,-43.1464,-69.0486,52.5333,-68.2123,-53.2267,14.4779,-47.0179,-126.8808,-150.6602,-121.8377,-18.6782
-1945.3125,-89.8377,-14.0805,-93.0293,46.2197,-115.5026,15.0091,-120.5193,66.2834,-184.0877,-25.8547,-49.8123,16.0845,61.0710,1.1673,33.6593,7.2854,4.9338,49.3212,10.0584,182.5317
-1937.5000,103.7316,31.4992,-28.8209,-7.3624,21.4470,-70.8539,89.7327,-17.8480,26.9913,-111.3766,124.6385,-49.3873,125.5768,-121.2862,97.0725,-115.2241,57.9562,-179.5148,63.1568,-11.0396
-1929.6875,185.6161,78.0582,82.6882,2.3405,58.6891,-71.4356,91.2940,-18.6938,101.3962,-74.6112,52.3958,-31.8790,16.3970,-158.4476,-85.1904,-152.4337,-0.7326,-65.0676,-65.4472,245.7000
-1921.8750,43.0989,45.1475,-24.2037,-3.3718,-47.4739,-105.4248,-198.5338,-87.9433,-41.5904,-108.2513,166.7655,-14.5809,-16.1745,-45.9781,-79.8585,-76.0481,242.1692,174.9775,176.5406,66.0494
-1914.0625,267.2436,139.3123,215.5599,43.5585,154.0035,20.2338,76.2754,-72.5421,13.0464,-130.2344,148.8050,-1.2599,-144.0957,-175.8419,-135.8782,-170.0160,78.7146,-59.3321,14.1772,-26.9494
-1906.2500,32.9042,64.4286,34.8339,52.9907,-26.0240,57.3959,-103.4197,-32.6467,-19.8428,-53.7202,-30.6509,54.4969,-176.5162,9.7973,-205.3990,-20.4898,89.7539,160.8476,26.2944,159.5542
-1898.4375,-31.4356,-7.2924,-58.8877,-13.5718,25.9300,-1.4503,22.8788,18.2345,69.2749,-3.2091,-14.1118,2.5624,-12.9264,24.4318,31.0928,-42.9659,59.7896,-11.9795,101.4021,-81.9330
-1890.6250,-30.8741,-5.6428,-32.7144,19.7665,15.7717,22.5988,122.0697,153.0040,94.3059,94.1981,-208.6720,9.2031,-23.4321,-24.0466,57.4956,-18.5487,-115.2726,-83.9070,-39.5829,163.4796
-1882.8125,-199.3580,-90.2535,-280.5847,-45.9467,-159.4333,-43.4058,-87.7895,161.7163,30.2735,139.5570,-125.2818,0.0928,22.0126,130.4212,103.8435,98.8126,30.6172,61.1127,107.3705,98.8464
-1875.0000,80.4097,-10.7146,-20.2015,-48.4203,-9.3801,-79.1769,172.5908,126.6659,181.4832,104.1739,-11.6320,-34.8798,-10.2945,-14.8503,107.4384,-46.5791,-145.2506,-258.6176,-35.4398,-8.5347
-1867.1875,10.2788,-39.7013,-67.7104,-85.8032,-131.2222,-55.8556,-22.9358,113.7112,-14.2036,126.8849,-58.8689,-12.3526,-21.4960,81.9859,23.1417,51.1154,-147.0263,-85.2543,-0.1679,236.1823
-1859.3750,19.4069,-57.1261,-83.9615,-149.9397,-110.8093,-110.2822,35.7692,24.0112,7.3400,-36.1701,109.1541,-44.8413,110.5585,102.0625,118.0917,33.0514,-32.5592,-149.6342,184.3440,-36.8478
-1851.5625,164.1429,21.6569,95.3952,-112.4758,32.2043,-42.1061,288.0588,90.9082,75.4598,-78.6327,-4.2056,-25.6413,-2.7857,-14.2584,-32.3580,-9.4204,-169.4999,-253.4215,12.4526,141.7203
-1843.7500,-84.2169,-58.3525,-128.3481,-117.1100,-118.8889,-86.0260,27.2484,48.6915,-38.5287,-11.1860,28.3327,-32.8570,-7.2364,52.3320,0.0805,57.0084,38.4516,22.6888,184.4465,173.1872
-1835.9375,132.5206,-1.8953,68.9979,-113.6292,78.0967,-74.8358,187.5268,24.5624,158.5633,-73.6281,114.9700,-109.7272,43.3996,-190.9526,160.6083,-150.4523,-27.5071,-254.0935,119.5192,2.7539
-1828.1250,120.0643,21.5780,79.1353,-93.3421,13.8671,-29.8520,50.5923,-3.7687,21.4535,-28.2522,15.4000,-70.3092,-19.1722,-146.4208,97.9389,-142.1035,29.3107,-94.0842,35.3617,269.1224
-1820.3125,89.7071,15.7128,21.3677,-125.9657,29.7265,-125.7730,-80.2510,-99.0046,-36.5539,-123.7643,141.9269,-70.1800,70.3564,-58.7749,150.3728,-163.6517,245.2097,-20.9816,216.2816,27.6013
-1812.5000,312.9001,124.5567,287.1474,-46.0475,185.1271,-82.1535,148.4529,-91.6966,81.9861,-153.7227,40.0067,-49.4251,-30.5626,-198.5698,48.3508,-230.6515,79.6522,-222.3252,15.7380,108.6310
-1804.6875,26.6448,20.7234,21.4800,-53.5695,-7.9287,-130.9826,-81.3022,-65.8378,0.0678,-54.1396,-4.3590,-40.9134,-2.9312,-61.8178,40.8741,-58.1001,214.6292,84.8879,45.7211,172.2137
-1796.8750,106.2772,37.9700,114.7053,-11.1864,47.9065,-149.8994,85.8273,-84.0684,93.0269,-35.6581,89.1776,-69.5260,53.5982,-154.1582,134.2946,-113.6408,153.4960,-153.9852,-51.4027,-65.2988
-1789.0625,128.1498,70.5080,125.1763,44.4484,-14.0143,-103.5537,-12.7981,-0.0578,-42.7643,11.0834,-46.0423,11.2045,-7.6295,-33.2369,35.9609,-66.9312,34.6167,-97.6055,-240.2849,202.4385
-1781.2500,-21.8398,12.3795,-60.2128,33.2381,-125.7926,-144.0498,-161.2730,-40.9075,-117.3964,-30.0003,62.8710,37.7584,101.2793,146.8492,70.7670,39.9392,164.8780,-4.0697,-75.0389,16.3317
-1773.4375,161.9576,67.3108,131.1837,73.8295,27.2131,-102.7444,139.0526,-71.9744,145.7691,12.7225,-3.4247,11.7220,34.9788,-31.2368,4.3787,-28.3706,-74.0696,-244.7307,-243.0107,23.0267
-1765.6250,-86.7538,-13.1785,-98.9180,67.9098,-166.2881,-113.9430,-91.1167,-45.5455,135.4293,73.9461,-86.2255,48.7502,-10.8232,141.1912,-41.4995,106.8253,28.4667,30.1061,-141.4995,159.2243
-1757.8125,-8.3255,-3.1497,-4.8729,5.1406,-72.6471,-131.9912,39.8493,-62.9706,157.2184,-53.6746,-27.8745,20.0434,83.5228,123.7800,89.7781,16.1779,71.1402,-103.8901,-63.8484,-114.4258
-1750.0000,70.1884,50.8775,65.2649,45.4761,-1.9096,-26.9260,72.8929,5.7090,43.0905,-57.1850,-177.4217,71.9283,43.9632,119.4807,14.1343,-25.3617,-62.0953,-97.7720,-161.1075,139.0186
-1742.1875,-132.7570,-37.3219,-105.0526,-54.6232,-64.6355,-91.2946,-25.5227,-21.0625,-128.4912,-121.1286,-91.4197,40.8088,129.9333,203.7497,62.0163,58.6547,155.2040,82.9057,56.1670,40.0133
-1734.3750,90.0373,13.4510,164.3740,-114.9601,168.3824,-42.9079,282.7943,-83.0884,67.6732,-146.3155,-42.6720,-14.0694,106.6450,31.7844,38.6359,-114.5792,26.2461,-223.6596,-38.8101,15.7581
-1726.5625,-61.4286,-49.2767,31.5569,-163.5369,72.1490,-67.7642,75.8555,-106.3754,44.5688,-96.7602,-138.1787,13.5960,47.0983,190.5858,16.0051,-28.0586,49.0383,44.5296,-15.0465,249.2533
-1718.7500,8.3847,-52.9268,7.0397,-200.8014,120.2116,-94.3032,87.2005,-133.3674,56.7353,-160.9057,-15.3922,-27.0844,132.8407,165.6950,175.6678,-54.2269,83.1245,-63.9516,54.0020,-32.9531
-1710.9375,153.5811,30.9487,148.9236,-91.6485,151.6717,9.5772,155.9193,-101.9623,52.2820,-92.6381,-129.2114,5.7986,55.9696,48.2100,61.7057,-96.9898,-87.3946,-131.0092,-152.5600,182.2283
-1703.1250,-46.5253,-13.2011,-22.4999,-47.7770,-20.1786,-53.8219,-89.6847,-201.8516,-47.4874,-9.6408,-81.3452,24.5133,66.7805,132.4393,-0.5815,-14.0541,131.7734,122.6506,-2.4362,156.1014
-1695.3125,144.3955,56.2548,147.1099,0.1591,149.0019,3.8457,116.7339,-179.6739,85.7882,-98.5715,-21.4408,-33.3192,53.6227,-140.2551,22.1749,-140.0544,41.9706,-74.6253,-93.2805,-4.9808
-1687.5000,75.2999,37.7635,64.6985,-0.8933,66.1705,28.5267,-75.8639,-44.4865,39.0541,-145.4915,-66.5454,-18.1479,-65.5390,-113.9310,-60.0641,-40.0406,6.1538,134.1130,-93.1436,204.9310
-1679.6875,81.4881,27.0973,47.5820,-32.6327,48.6242,-26.4735,-130.1778,-99.0040,-14.4047,-201.0953,174.6452,-29.8872,-8.4045,-58.2946,-3.0215,-94.7152,117.6278,103.1714,52.2680,-105.8544
-1671.8750,286.7188,128.7253,258.5164,30.6932,185.1234,34.5864,43.5407,-74.4852,-134.8238,-175.6337,90.8874,20.0176,-92.2331,-106.5930,-122.9682,-144.3252,-64.8586,-44.7122,-128.2973,-6.5968
-1664.0625,5.4384,24.2879,-37.0440,-6.4714,-36.8852,69.1616,-177.2581,-76.4795,-282.7489,6.3406,-20.3769,54.1388,-92.5908,112.6363,-123.4270,74.5727,75.1412,269.9172,45.6109,-7.8378
-1656.2500,65.3382,32.8678,36.5915,16.5847,72.2930,103.9588,42.1356,-4.2722,-27.4894,77.5346,-94.4764,35.4890,-93.7789,37.0963,-14.7036,-37.3107,-40.6882,10.7642,-0.3191,-229.8557
-1648.4375,-46.9598,16.9143,16.0383,78.5031,-21.7110,192.6139,-51.6593,47.7874,-47.4029,129.6069,-296.7382,76.2958,-186.1208,53.4414,-107.1252,14.6829,-118.6723,143.4962,-113.4017,43.9608
-1640.6250,-186.6494,-47.8735,-121.9103,43.0395,-49.1153,125.8900,-153.8493,18.4507,-38.7115,-9.6988,-141.4113,43.7800,-29.8811,97.3882,11.0396,59.2781,57.9143,142.8247,63.0735,-131.6297
-1632.8125,48.3284,35.8761,116.8140,64.2987,115.1489,105.8875,121.6107,35.8175,125.6534,-66.2747,-121.4046,8.7655,-48.9646,-105.9283,29.8747,-71.4019,-95.8092,-118.0934,-90.7742,-3.5008
-1625.0000,-189.1142,-60.8219,-136.8769,36.1756,-65.9985,-4.4964,-96.3478,35.7849,54.5999,44.7764,-118.8062,-0.9436,28.5406,5.3773,69.3073,2.5323,19.0588,65.5997,23.9680,145.1936
-1617.1875,-24.9221,-32.4270,-31.9214,-12.2807,2.4964,-83.2033,82.3443,-42.5891,123.1933,39.5088,23.4104,-53.1837,96.6650,-72.6486,175.3717,-112.8649,5.5410,-160.0503,10.3190,-43.4462
-1609.3750,34.3639,-0.3581,18.1428,11.4194,-57.8919,-34.7466,22.1418,-30.8102,135.9234,87.4129,-73.2306,-23.1079,36.9367,-60.4769,41.5806,-101.0840,-75.8289,-136.4980,-107.1876,226.0540
-1601.5625,-124.6630,-72.6133,-102.0876,-44.1589,-179.5745,-121.5560,-172.3629,-116.3241,88.3438,76.0318,62.8167,-48.1734,99.8976,38.4038,177.4760,-39.5974,150.4727,18.7585,84.9718,31.2326
-1593.7500,120.2640,49.3602,228.6626,23.2927,77.7241,-48.3325,85.0944,-117.8279,51.7227,2.6878,63.8314,-26.7643,26.8270,-109.6838,141.3336,-187.0828,43.7575,-228.9315,-92.8873,-5.5691
-1585.9375,-105.1421,-11.8378,58.0945,41.4620,-19.2870,-0.3899,-158.7737,-104.6241,-118.2192,51.0671,-32.4548,30.0952,4.4373,49.9537,8.8773,-27.8464,97.7354,70.1051,-38.0516,154.2918
-1578.1250,-102.1556,-32.0689,38.9373,44.0575,34.1061,-20.0095,-68.2452,-89.0131,45.2284,31.8651,58.6372,-6.6454,58.4157,-5.9997,62.7906,-11.1966,66.0810,1.5549,35.1428,-159.4431
-1570.3125,-17.3177,11.2858,8.6451,128.5688,-33.6342,58.2944,11.1377,64.5019,51.5392,184.5832,-117.3807,20.3840,-8.7181,-74.0084,-40.4107,67.3869,-165.6754,14.9554,-126.7671,30.7187
-1562.5000,-232.2894,-89.0536,-320.4474,86.2952,-252.1692,21.8185,-281.2785,137.2252,-131.9482,368.5218,-117.2054,52.5338,29.3316,184.1968,-76.4230,252.1775,-101.2575,254.5581,7.5066,-115.9496
-1554.6875,-58.9442,-9.8477,-204.2088,189.3868,-174.3710,136.7183,-92.3702,253.3158,-15.1022,410.8440,-147.7132,117.9694,-148.2959,189.7827,-180.1186,183.3421,-350.5119,40.5500,-240.8940,-294.2470
-1546.8750,-181.0408,-12.0269,-303.4070,277.0932,-346.9922,220.2339,-338.8936,300.0139,-152.6753,383.7935,-208.6299,209.7983,-246.3266,347.0006,-279.2118,267.1283,-331.1707,269.1735,-362.6974,-99.9687
-1539.0625,-88.9518,33.8365,-233.4026,263.0243,-240.4081,179.9825,-342.2132,185.9207,-302.0474,196.9718,-28.3740,203.6465,-102.1828,344.4286,-135.1289,153.1263,-134.6648,219.0054,-272.3420,-360.4866
-1531.2500,98.1814,124.0029,64.6695,273.0731,-53.7538,254.8568,-155.4831,187.9290,-335.3416,125.2869,-98.0384,196.7169,-209.9651,163.0016,-241.9701,81.2593,-230.0611,158.9942,-401.8945,-173.9011
-1523.4375,-118.8581,31.6193,-162.4080,229.9974,-207.2499,247.6126,-381.9089,180.7910,-304.8063,155.4676,-66.8523,159.7709,-178.9100,193.4444,-211.9723,185.2524,-60.6239,397.8386,-198.6191,-180.4989
-1515.6250,31.0723,48.3970,-72.4910,168.9482,-43.7559,262.4026,-72.3578,195.6592,-32.2968,60.6666,-50.6949,86.3812,-125.8775,24.9168,-122.0028,53.2660,-157.2138,89.7121,-189.3836,-312.0739
-1507.8125,-67.4950,-5.4724,-188.0613,139.4695,-196.7377,255.7611,-225.2958,262.0796,-148.2598,200.4415,-128.9980,91.4387,-167.2993,91.9798,-163.4932,156.8573,-255.2532,237.1738,-182.6068,-24.1194
-1500.0000,-179.6224,-76.4696,-368.1795,131.4668,-304.2712,148.5971,-332.7797,265.9648,-218.7712,314.7045,22.1195,67.8315,-90.2980,169.5109,-12.5546,196.9120,-227.8815,194.0849,-49.4201,-277.7192
-1492.1875,-4.8061,-1.0016,-190.3403,200.4851,-236.8429,215.4624,-154.3081,332.8631,-151.3066,346.0115,-56.8025,94.5764,-169.3299,90.0925,-91.6432,117.0089,-439.5200,-18.9390,-296.2450,-173.3064
-1484.3750,-225.5253,-63.7741,-351.0190,154.0313,-360.9280,125.8587,-352.3484,280.2719,-239.3533,256.8480,-35.2320,104.2996,-146.8785,222.1985,-107.2425,211.6262,-169.6734,216.5531,-132.5822,-78.4299
-1476.5625,17.4269,36.5422,-90.0030,150.3088,-100.3133,56.9953,-91.7037,173.3969,-125.7212,77.4116,80.0050,64.1108,-105.7581,43.0189,-65.1708,31.9615,-103.1563,1.7727,-171.2576,-257.8381
-1468.7500,66.2699,104.5109,-51.0760,233.5562,-97.7746,132.1081,-236.1570,175.4779,-233.1668,115.9501,-63.8214,140.3593,-212.6906,81.8239,-282.1539,70.2742,-123.6856,189.9955,-297.9841,1.6852
-1460.9375,47.3980,112.2390,-204.8409,250.1279,-178.9228,87.5516,-427.3077,93.8695,-351.3166,71.8136,2.6347,154.4110,-220.3457,147.9370,-290.8535,99.8992,32.0595,347.5202,-107.4407,-263.5096
-1453.1250,470.8257,251.9518,-20.2830,250.0794,-31.7461,197.3801,-170.1445,-17.3778,-241.1434,-38.9433,-70.5882,135.5515,-365.6846,-35.5648,-362.2427,-11.0860,-178.8544,65.4545,-318.5681,-263.3374
-1445.3125,568.9619,257.7754,-289.9895,172.8054,-301.8239,109.9790,-403.2466,-214.8707,-364.2347,-51.9317,-157.0666,137.1423,-452.2915,98.7113,-374.8975,122.6999,-151.0177,269.1669,-253.9487,-129.4516
-1437.5000,1078.2281,402.9995,-335.5404,117.7128,-347.7475,64.7655,-266.2014,-407.1997,-299.1854,-59.7423,-17.4305,118.9587,-460.7882,91.1511,-384.4362,77.6546,-205.0603,39.0537,-275.2125,-395.4082
-1429.6875,1479.5376,544.8342,-330.0264,96.7377,-379.5958,105.6796,-225.1000,-439.4168,-294.0634,18.5803,-122.7170,142.2949,-676.2117,58.7290,-598.8917,81.7452,-366.9944,17.0951,-401.3750,-170.2752
-1421.8750,1399.6796,521.1243,-479.6594,51.6368,-492.5841,65.4750,-375.1381,-443.7760,-444.0953,52.7778,-14.1767,145.4446,-641.8049,167.1637,-454.5112,115.6945,-130.0966,218.9850,-200.7128,-320.3143
-1414.0625,1443.2245,562.3867,-137.8681,130.0141,-225.1449,150.7543,-142.7525,-432.6710,-397.6910,-9.5358,-3.2270,116.6353,-593.9810,-78.9120,-370.7154,-56.8721,-192.7663,15.3686,-298.6247,-382.8807
-1406.2500,1014.9194,443.5844,-187.9104,194.6134,-311.5202,173.2554,-413.1931,-408.3593,-483.0966,-22.6227,-16.0873,154.3328,-569.9674,18.2472,-455.7279,2.7873,-58.2376,256.9857,-269.3372,-212.2791
-1398.4375,857.0435,388.2775,-83.4996,212.6952,-171.4350,167.2496,-310.1851,-416.5813,-307.0683,-102.2353,162.4705,112.8878,-429.5319,-61.1342,-389.3166,-3.0908,65.7099,98.0712,-110.6373,-476.2227
-1390.6250,799.5060,341.4558,66.2794,155.2059,-21.9737,168.6756,-50.8317,-377.3942,-120.6747,-63.4193,54.4117,67.9581,-426.7167,-169.0754,-349.5274,-74.5331,-97.9365,-29.3803,-168.5481,-216.7651
-1382.8125,313.6467,85.9858,-149.2334,-48.5583,-126.8037,26.8307,-118.7813,-299.5043,-152.5838,52.1106,23.0488,-4.6195,-164.2211,21.6971,-14.0557,77.7347,-20.8953,188.8717,119.2233,-174.6360
-1375.0000,176.6525,-50.9241,-70.8581,-186.3960,98.2551,68.9182,217.1500,-147.7001,36.3924,131.5656,-8.4463,-95.6184,62.1389,-46.5981,212.2787,45.9313,-263.9758,-53.9340,86.8714,-206.5857
-1367.1875,-253.8377,-220.7380,-201.9651,-228.6714,38.8480,46.5755,83.6075,-23.3364,123.8951,219.5983,-139.4096,-83.0644,150.0352,115.6872,116.1515,244.7094,-271.5049,148.8494,114.0845,101.9882
-1359.3750,-516.1969,-321.8669,-243.9198,-244.7685,71.5984,-31.5858,116.2261,9.1984,192.5512,215.8120,-34.2531,-102.8501,330.0522,185.1295,296.1507,203.6532,-111.9182,98.7859,238.4234,-160.2870
-1351.5625,-546.3266,-272.0632,-24.6146,-98.5444,180.6180,40.5802,225.1015,81.0543,154.4835,251.3637,-144.8269,-46.3547,292.3470,110.9089,258.4260,128.9359,-177.0352,-1.9147,32.0648,-14.2499
-1343.7500,-853.9435,-306.1492,-196.7741,51.2509,7.1900,51.3296,-59.4751,54.4719,-56.0365,152.4897,-97.8678,34.1595,339.1756,232.2500,232.2447,212.7860,77.3868,288.9528,146.2481,-40.6950
-1335.9375,-672.5945,-226.6381,39.0606,92.0817,206.7579,104.1246,176.9279,-4.0859,33.4269,20.6448,-8.9481,16.1517,354.9656,64.6112,174.0190,44.6622,47.7940,13.8564,80.4089,-246.1205
-1328.1250,-728.5988,-220.5412,5.5744,107.6353,136.0075,144.6466,142.9887,0.0659,73.5666,25.5251,-188.3401,84.1206,174.4332,179.7080,-42.5233,122.2688,-8.0849,134.5058,60.2796,15.1315
-1320.3125,-751.9592,-271.5598,-117.2444,-21.1345,85.9268,131.8485,166.7147,-124.1229,170.3553,-60.9202,-91.1027,61.8470,161.5199,314.4583,91.5628,182.5358,109.6594,111.8102,282.7702,-218.9776
-1312.5000,-527.9220,-223.8938,111.3573,-78.4340,168.2774,176.5342,468.8480,-152.8444,325.5659,-52.8801,-156.4478,29.5044,133.0294,212.6849,136.0658,117.2901,-88.1529,-191.3739,154.7051,-100.6170
-1304.6875,-724.4178,-324.5443,-62.5588,-133.2192,-7.8715,74.7454,219.4737,-143.0527,186.2716,67.6868,-36.3064,-13.5171,215.0268,259.4214,218.0662,200.5618,-3.4700,34.9604,240.1511,55.2168
-1296.8750,-604.1913,-315.1063,70.2646,-152.2350,89.7298,-11.2570,279.8527,-83.4903,246.7256,92.0334,207.5436,-79.6188,312.7420,135.9206,315.7897,113.6003,-58.0585,-159.9318,184.3343,-105.1764
-1289.0625,-625.3781,-276.0793,144.6986,-67.5806,90.9645,-9.5865,132.8526,63.7294,210.8107,204.0496,99.0157,-11.8838,203.0925,175.1034,97.1499,115.3228,-113.9765,-5.1204,22.1784,190.0744
-1281.2500,-724.5867,-273.9109,15.1453,-59.8941,34.2226,-102.8842,-34.1325,43.9579,153.9010,111.0785,188.4689,11.4364,183.4215,266.2894,39.4899,133.0496,174.0972,143.6935,274.9981,-13.6870
-1273.4375,-435.4000,-103.0152,282.0258,89.2745,227.9220,17.2983,233.2957,16.6557,200.4108,-25.4122,88.3362,38.1600,83.1777,18.9538,-24.7492,-40.7437,110.6170,-93.9845,106.2594,-40.9731
-1265.6250,-626.1069,-145.4934,76.0421,145.6059,57.7761,32.6586,-9.1488,-5.4756,104.0535,-10.7295,-6.6577,75.5844,25.0738,108.7898,-45.8468,121.6324,202.2898,138.5186,162.6809,120.8634
-1257.8125,-544.2332,-167.9202,62.6713,87.5631,81.2353,19.6582,123.0036,-18.9896,274.2909,50.5728,125.9177,3.4468,46.5333,22.2354,86.6163,71.6281,143.5384,-24.3602,173.6820,-113.6843
-1250.0000,-473.9162,-160.6134,87.7635,53.0492,69.1655,81.1856,220.6114,79.0103,225.0003,149.3942,3.9782,-1.4555,-38.5359,-24.7905,1.5483,96.1590,-66.7001,-23.6774,68.1966,168.2649
-1242.1875,-630.2154,-245.2363,-143.7460,-31.0295,-88.4938,-2.8554,-11.3670,105.4246,140.1092,212.6345,29.4159,-36.1774,59.7666,74.5847,99.8609,196.1016,94.4442,138.4030,300.1060,83.5883
-1234.3750,-452.7085,-231.9246,44.5655,-99.2328,62.6801,2.9885,287.4836,183.7144,328.0518,218.7544,-39.3465,-103.2735,138.8866,-67.1629,251.9920,90.9287,-114.5765,-175.6191,159.8627,14.7861
-1226.5625,-655.7518,-317.3620,-101.6600,-157.9172,-83.6515,4.3584,103.8204,293.5251,180.4812,256.3907,-185.6249,-100.0532,175.4966,45.6151,325.6103,239.2811,-70.0886,80.8917,134.1407,235.4574
-1218.7500,-710.0647,-328.2231,-145.1233,-141.8182,-18.2127,-39.4819,168.9116,324.1053,173.6500,249.7991,-83.1824,-122.2553,278.8293,2.1434,354.9486,159.3918,51.1285,-6.8334,221.1464,-29.1140
-1210.9375,-589.3370,-235.2110,9.4879,-19.5885,63.3128,41.8145,250.0546,331.8023,290.8825,258.3225,-258.6602,-49.8700,175.2324,-25.1965,178.3504,93.6387,-73.5401,-59.3879,-44.7383,162.4231
-1203.1250,-771.8237,-263.3105,-141.0904,46.4637,-87.3426,1.9405,-47.9986,217.3136,65.9150,145.6498,-152.3498,14.4979,245.4109,155.2685,211.5247,163.6956,131.5903,180.8675,54.1793,121.7315
-1195.3125,-424.8905,-146.0162,116.7846,41.9871,134.4563,4.5503,99.3873,146.2935,68.3862,-35.5572,-4.6315,-22.3957,283.9960,-25.7961,213.1143,-16.7757,56.1654,-103.3887,-20.4619,-23.4876
-1187.5000,-401.7532,-107.6404,93.8827,66.7805,74.4949,-17.5636,-34.0021,158.5352,-28.9145,15.4976,-101.6814,24.8553,149.8197,25.4135,5.9470,34.0291,45.0066,61.6454,-31.8251,246.5204
-1179.6875,-402.8262,-158.6955,-6.2145,-37.6013,85.3472,-116.8432,-24.5698,96.6007,17.5827,27.3718,93.0315,-40.4364,233.4206,37.4198,89.5613,8.6483,114.6210,27.4803,107.6084,0.3293
-1171.8750,-164.9043,-95.9922,199.6951,-78.9129,217.2307,-93.0486,254.8864,118.7421,149.1144,49.3358,4.7560,-67.5677,144.0471,-86.5022,38.2015,-5.6429,-102.7154,-188.5832,-74.8890,169.2109
-1164.0625,-429.2154,-231.9160,-41.6060,-200.4089,11.9239,-150.4326,49.1448,133.7064,164.4549,67.1282,20.2621,-94.4456,196.4619,77.3821,89.6338,156.8825,20.7467,76.1625,83.4250,257.8699
-1156.2500,-259.8105,-171.6433,69.8436,-205.1227,124.3729,-111.0303,234.1441,136.4436,276.5384,-4.3060,57.4807,-105.6937,234.5915,6.0260,201.7813,-23.8219,13.9415,-138.3084,77.4742,76.3069
-1148.4375,-212.7103,-88.7062,109.0156,-86.0615,53.5572,2.1448,88.8523,102.9444,94.3404,0.0194,-86.5625,-13.1567,90.4542,46.4501,93.6578,-19.7465,27.9068,16.0225,-50.6994,335.4817
-1140.6250,-164.2139,-58.8784,-49.3991,-36.5661,-68.8363,-46.2401,-107.0277,-20.1354,8.5401,-121.2443,120.7684,3.5862,150.6865,109.2673,116.9076,4.7333,181.2617,100.7548,32.5166,103.0467
-1132.8125,164.6362,87.6318,184.5611,84.3684,54.1506,42.8108,52.4582,-77.7914,95.1187,-106.0897,171.4591,18.6853,18.2852,-95.4955,-89.4843,-126.3554,-14.9735,-94.0585,-163.8530,117.0299
-1125.0000,-18.2368,63.9074,28.8066,149.6341,-137.5602,34.1877,-250.7560,-50.1331,-134.0098,-77.6268,235.4310,82.3585,-64.8318,43.0436,-245.5883,11.8699,118.0979,216.4414,-64.9000,181.2833
-1117.1875,46.6280,82.0923,184.8035,146.6762,54.4933,45.3485,-95.2125,-41.7024,-199.4030,-104.4023,355.1114,67.2099,-20.2180,-20.6692,-127.9660,-125.1484,79.8995,38.7031,0.7962,-103.6880
-1109.3750,-18.0128,44.5297,216.3144,84.2764,86.0856,115.0786,-63.1517,64.3021,-204.2630,-33.6116,92.3251,71.4436,-62.0603,13.1860,-131.8119,-91.5862,-19.7347,45.5639,-97.9225,148.8942
-1101.5625,-261.2581,-76.0074,7.2386,18.2830,-11.8923,17.2338,-198.6631,39.7249,-83.7066,-58.4148,139.9244,27.4469,59.4779,99.4264,-84.2778,30.3815,124.0181,156.8192,80.7707,-23.1291
-1093.7500,-24.1935,0.2294,222.5017,11.6544,203.4777,12.7627,51.1598,71.5187,94.1799,-99.8481,133.8465,-0.8065,16.3420,-51.9765,-127.4187,-121.2736,-23.8760,-95.5320,-67.1688,-65.7624
-1085.9375,-178.0065,-39.5661,53.8990,36.1869,34.9984,-6.5399,-152.8721,88.4708,-72.7887,-118.1329,75.9137,27.8360,32.3503,38.7794,-147.4122,6.2353,33.4055,104.2876,-9.9177,97.7352
-1078.1250,-61.6204,-11.8518,80.5060,14.9492,134.7341,-52.6143,-17.6831,4.6376,-11.5450,-239.2135,212.1475,-14.8560,131.5246,-44.2733,-13.2295,-114.0512,81.8797,-92.6871,108.5379,-170.5487
-1070.3125,105.1726,81.8885,206.5286,78.1886,150.9020,0.7834,70.9209,20.2749,-68.8718,-220.8270,116.7961,13.2362,36.1246,-136.8640,-70.6225,-206.8622,2.8314,-204.1534,-39.5128,102.6226
-1062.5000,-64.7350,36.1994,-40.1422,51.7593,-58.6071,-97.4951,-101.1649,-41.7615,-205.9131,-135.1454,90.7198,43.4998,46.0066,58.8356,12.2686,-121.3654,257.0819,-19.3168,177.7519,40.0705
-1054.6875,113.2912,91.0499,114.1282,56.3097,132.8337,-50.7888,235.6866,-32.8217,21.9697,-127.5078,-12.4506,6.4182,-20.1867,-116.5093,57.0671,-186.8957,119.2766,-260.4921,74.9708,-62.5003
-1046.8750,-64.1635,23.6233,29.9293,21.4162,11.8217,-60.5124,77.0731,29.6835,47.3935,-26.3137,-171.0750,6.8057,-67.8427,-52.2946,-28.6024,-48.8486,153.0371,-13.0884,40.7772,183.4611
-1039.0625,-64.3226,-12.4873,78.0446,-46.1603,97.1363,-120.9103,88.7855,-30.4898,95.1294,-123.8001,97.5716,-49.0946,53.7681,-75.7918,20.0044,-72.4919,225.0799,-81.3825,111.8880,-61.2656
-1031.2500,199.0161,78.5763,346.6841,-60.1706,291.9874,-70.7340,173.0188,-55.0928,68.3914,-110.7193,107.7386,-47.4028,-46.0973,-172.7216,-79.8595,-206.5576,67.6956,-166.0738,-150.4130,133.5764
-1023.4375,83.2457,35.9206,191.2320,-67.2526,136.7591,-114.6351,-202.8427,-99.7805,-123.4557,-80.7423,209.7982,-55.0644,-18.0741,-106.7666,-14.8375,-140.7245,235.2277,108.1400,-17.7888,125.2975
-1015.6250,332.3170,135.3070,386.6394,6.5542,258.3910,-102.6549,-8.8668,-125.5941,-2.4686,-105.9109,257.6672,-59.5703,-8.2379,-240.9759,68.9911,-275.0335,133.6149,-168.7660,-121.3037,-47.1001
-1007.8125,200.8102,100.3485,274.4714,19.8399,147.4672,-65.2094,-46.4685,-87.9413,32.9530,-67.6296,34.9692,-27.3236,-82.9651,-167.7342,-5.7465,-90.8737,110.4815,-49.1835,-179.3217,245.9370
-1000.0000,23.1168,-4.4736,62.1195,-51.0352,119.3638,-128.9350,-40.2447,-80.4699,114.1768,-59.5544,116.0412,-77.1940,34.0854,-120.7091,148.2907,-45.9159,178.1360,-13.8152,-5.5334,33.7773
-992.1875,72.3429,15.0820,220.6818,-31.9366,314.1942,-78.6914,154.9065,41.9722,161.3241,27.4740,17.0244,-88.3248,-27.9300,-255.7022,49.2474,-142.9813,-16.2526,-171.4564,-128.7659,155.5965
-984.3750,-196.7864,-95.3533,9.8784,-88.1737,140.6781,-140.7828,-92.2831,90.0774,-48.8892,148.1474,25.6503,-70.7086,54.7008,-60.0377,20.8433,-21.3818,67.0101,88.5533,24.6870,239.0483
-976.5625,-6.7654,-53.7501,146.2232,-140.2419,277.3141,-149.6994,116.6888,43.3594,12.0391,-8.0171,161.3944,-125.4499,153.4493,-180.2290,192.5498,-177.6116,48.4033,-174.2705,41.3086,44.6857
-968.7500,73.1755,-24.0941,180.4852,-164.3541,237.8825,-114.6498,76.5910,78.6099,9.9047,-82.2247,85.0797,-125.1786,150.1275,-218.4617,80.1903,-178.8640,-12.2338,-92.1047,-19.0616,336.2735
-960.9375,48.3813,-28.7743,55.0142,-185.2074,112.7289,-164.3311,-122.2266,27.1280,-41.9624,-132.1923,216.0019,-132.9522,208.0386,-157.4716,137.0716,-155.8674,211.3723,62.2977,169.8428,138.1112
-953.1250,313.0147,109.3007,257.9762,-59.6028,243.0192,-32.5469,79.3903,47.1183,13.6075,-184.7002,123.3466,-58.6005,115.3802,-211.0271,46.3793,-245.4017,20.4431,-161.8166,-56.7674,157.4348
-945.3125,103.1428,85.4650,34.4287,15.5181,55.8185,1.7445,-144.4926,45.6186,-101.3321,-186.7152,10.1870,28.4176,75.2214,-29.0908,-68.8098,-100.4370,164.0330,124.5729,17.1704,301.2395
-937.5000,188.9314,110.0815,136.5430,-1.6800,195.2861,-41.2900,31.2880,-72.2154,37.3665,-266.0938,111.6403,-21.6135,66.6949,-145.5148,-4.3711,-179.8219,250.2699,-104.3804,103.7662,36.7202
-929.6875,195.4356,118.7073,282.3717,8.9010,268.4863,-2.5593,140.7891,-70.2809,-0.2089,-228.7294,0.8218,-18.7694,-81.0842,-218.1696,-41.2052,-179.4378,119.2859,-92.5416,-61.8363,256.9569
-921.8750,3.6099,41.7166,126.8674,-39.8381,76.3556,-82.1620,-88.0367,-151.6840,-119.1371,-235.7285,100.6491,-14.5864,-16.2217,-41.1962,22.5861,-75.4105,349.9595,69.9266,99.2348,101.8321
-914.0625,303.4858,177.4956,299.0578,52.1481,211.9254,-57.0513,155.8305,-162.3776,14.6173,-247.0330,88.1541,24.8664,-102.6855,-125.5246,-63.9613,-233.6737,194.3439,-153.8784,-91.9665,16.4436
-906.2500,245.0607,172.3786,119.9409,66.8447,34.1979,-49.2332,-132.6106,-119.3673,-126.9358,-240.6490,-17.6337,67.6178,-135.4612,-9.1606,-132.8175,-116.2295,242.4500,106.0313,-77.4102,205.7394
-898.4375,305.8103,174.3425,86.9948,60.7076,74.6429,-80.2417,-129.8820,-78.1833,-87.3380,-234.1187,58.7018,11.1473,-22.1171,-114.6768,-19.5475,-148.6351,269.6933,29.0927,19.3231,-83.7947
-890.6250,378.4927,202.5067,193.9707,66.5237,145.0269,27.7166,12.7717,65.9760,-90.8148,-163.6407,-92.0330,22.3610,-136.8389,-189.2405,-170.3450,-113.0659,61.9054,0.1478,-115.9310,96.6394
-882.8125,170.2974,117.9931,-56.9513,36.4445,-32.4704,36.7902,-273.4461,147.2513,-268.1750,-82.0747,-85.6853,51.0224,-57.4701,1.2774,-165.0536,4.6033,136.2189,287.2839,63.9566,30.1594
-875.0000,296.5601,165.0556,83.5640,95.8379,109.4745,142.3295,-24.2120,141.9932,-129.0913,-124.0628,-56.9267,61.9048,-101.6746,-76.7569,-136.3376,-37.2654,-17.0204,30.8873,-53.6789,-122.8334
-867.1875,68.2144,106.6974,-51.5489,151.6511,-26.1966,229.2759,-122.5915,118.1471,-191.6298,-73.6599,-192.7761,123.1776,-200.4753,45.6137,-235.2240,123.2769,-32.8353,262.9084,-103.8599,72.5605
-859.3750,-15.9075,81.5164,-125.4473,176.6926,-62.6528,195.4407,-86.7458,45.5204,-191.9826,-73.0702,-120.4446,109.6589,-165.0836,48.1655,-125.9281,125.0148,95.5419,182.1144,25.1781,-220.8357
-851.5625,153.9553,156.5697,45.6303,208.7591,35.8787,257.6160,158.0712,70.9132,-21.3687,-47.4865,-317.1354,129.4281,-251.7027,-37.2742,-286.6612,113.7675,-85.0511,3.3613,-119.7302,-49.2100
-843.7500,-49.5646,52.8921,-241.6817,114.4519,-177.9757,155.4008,-20.4982,41.9168,-16.1577,-3.3174,-312.2293,122.9569,-209.7329,153.8705,-243.8077,269.1186,30.9685,226.1978,67.0056,30.9945
-835.9375,107.4311,76.1187,-144.4890,63.6790,-79.3294,109.7090,225.4332,68.4373,45.5450,-13.6571,-214.8543,75.4868,-149.2941,70.5061,-73.4919,147.9819,-57.5169,-36.4532,50.2724,-127.2691
-828.1250,23.8736,73.6388,-167.8759,88.3739,-139.2480,197.4783,52.7962,192.4206,-126.3223,73.4400,-350.0326,122.0338,-247.4162,120.5938,-171.7518,162.3146,-68.5218,130.3745,5.0521,142.9103
-820.3125,-117.7967,25.8800,-230.3982,90.9464,-129.2951,137.1142,-119.9607,204.2722,-153.3422,49.3756,-193.3773,100.2886,-164.7083,133.5009,-126.1809,138.4877,107.3154,202.0345,180.7066,-103.0572
-812.5000,82.5240,126.1040,50.0552,153.5325,115.6400,199.7620,87.2581,193.1415,-56.3808,1.3101,-316.7496,114.0343,-251.0126,-25.5883,-212.6255,-20.3225,-42.8359,18.7256,31.4021,-41.9951
-804.6875,-194.3889,37.5664,-167.7536,160.8726,-64.6694,204.1601,-166.7622,196.7704,-200.6688,41.9816,-352.3799,135.1055,-285.5590,89.0685,-211.3121,130.6142,68.7686,308.1579,214.8945,34.8002
-796.8750,-46.8244,51.5253,-112.1055,136.6736,-8.5239,189.0236,71.6898,217.8626,-72.5140,26.0860,-224.5866,52.5132,-231.6666,-110.8363,-156.5638,78.0058,-64.1908,72.0339,293.8569,-202.9169
-789.0625,17.0847,40.6149,-167.1421,97.8384,-99.0499,209.2412,53.4685,311.3109,18.9649,192.5312,-316.4488,45.4653,-286.4188,-90.3867,-211.4720,98.7564,-243.7701,69.2932,114.2300,73.7231
-781.2500,11.1405,-14.8959,-348.0596,-9.8692,-280.4557,103.5777,-165.6339,277.8605,-52.4633,197.0585,-168.2094,1.9068,-175.0888,23.1357,-64.3022,176.5882,-143.2464,172.6433,216.7332,-70.5420
-773.4375,286.9112,94.8945,-99.2862,57.1553,-140.1698,135.6316,11.9356,272.1223,-97.2343,264.2671,-212.2875,-11.3641,-146.0844,-165.6424,1.5259,24.1314,-288.0008,-77.2712,1.9860,-40.0782
-765.6250,47.6504,29.6912,-317.5706,103.1491,-358.9371,101.6421,-244.5522,348.3431,-243.0657,414.3997,-322.4087,-5.0392,-145.1305,-126.4817,38.2951,173.6289,-172.7846,180.7646,82.2485,145.3115
-757.8125,19.0781,-1.5501,-261.1917,77.8162,-265.0485,50.3108,-115.3642,332.2286,-114.2403,398.1703,-194.9013,-67.1093,-17.5362,-216.6953,166.6922,84.7788,-95.9346,13.4284,126.1801,-128.6281
-750.0000,44.7109,8.3549,-97.6466,70.6949,-100.9820,69.1793,11.0062,314.3238,-24.2322,380.1236,-288.1996,-55.0722,-73.7439,-234.6989,72.2711,103.1455,-208.8647,-26.6866,-91.6324,109.6444
-742.1875,-158.6564,-76.2118,-231.1422,12.5377,-196.9565,-24.9988,-157.6405,219.3784,25.7239,285.0057,-127.5495,-57.6171,11.9970,-72.7734,85.7975,192.4479,11.1519,124.1167,59.5415,13.8596
-734.3750,148.4451,6.6399,-16.2065,-29.1535,-18.4966,9.2797,167.1523,178.9031,203.1080,207.3350,-98.4776,-107.8181,-67.8251,-260.4038,78.7672,78.2086,-173.3796,-163.6160,-17.7930,-64.4368
-726.5625,72.9617,-19.6797,-176.8922,-66.4338,-178.6512,-2.0424,78.3398,128.8331,77.8827,231.0504,-223.0091,-76.3963,-155.2432,-125.6389,27.1392,249.3745,-141.4921,45.0558,-20.6612,142.6481
-718.7500,107.1758,-22.5570,-237.9137,-134.0364,-129.1429,-60.6992,165.2072,-3.5776,91.3023,61.3908,-137.9121,-84.2806,-34.0332,-38.2435,186.1297,191.1842,-0.9600,-22.6384,87.1442,-137.6042
-710.9375,196.2437,65.8604,-7.1061,-42.7691,29.1966,25.5049,286.8925,-28.1331,174.5395,-72.4363,-236.9782,-23.3785,-59.9904,-98.9901,11.9471,19.8530,-51.5463,-36.4474,-103.1362,58.0061
-703.1250,-52.9988,36.0430,-116.6395,63.1620,-44.8033,27.3644,-82.7510,-100.0350,26.4240,-72.6438,-165.3884,24.0780,-25.2920,-26.1073,-26.5863,21.1565,228.5238,245.3701,72.2875,21.2430
-695.3125,161.9316,133.5917,115.9726,140.2579,116.3440,79.3813,77.7595,-49.7772,75.4465,-95.7178,-80.6709,20.2446,-50.4507,-196.0766,-51.9946,-111.3837,127.7363,5.3411,43.8975,-149.3369
-687.5000,81.0733,80.7567,57.7538,62.5599,21.6730,134.5943,-53.5373,41.6822,16.6493,-40.6083,-175.7437,28.1160,-144.3964,-103.8402,-146.2040,16.2862,48.1653,139.5242,70.7679,88.2697
-679.6875,33.0195,4.7126,-89.7027,-52.3696,-52.2355,25.5690,18.9516,5.8937,88.5985,-41.7726,-68.0712,-15.8222,0.4065,6.1218,35.3287,54.6934,72.3293,24.4263,272.4095,-169.3631
-671.8750,179.2765,29.3568,57.1092,-113.9842,95.1288,64.8504,312.7170,7.4137,198.8274,-77.6501,-178.1115,-21.9028,-74.4962,-29.6102,-76.8508,56.4138,-166.1926,-213.3473,139.3945,-21.6675
-664.0625,-62.0251,-62.1992,-197.6808,-175.1765,-84.1091,-4.4677,130.8922,-61.6638,126.4497,-146.1583,-213.7463,-3.6757,-71.9941,159.0427,-110.6324,207.5223,-20.2969,40.2620,323.8226,55.4081
-656.2500,87.3694,-19.5786,-32.8133,-164.6852,118.3022,-20.1181,333.7175,-115.0873,218.6979,-201.0374,-85.7541,-80.1022,-17.8579,-78.6747,16.2053,44.2748,-10.7557,-159.4772,193.9219,-145.8342
-648.4375,66.2252,45.2713,43.4798,-5.7204,121.1383,22.6785,188.9612,-110.0617,73.3672,-158.4809,-120.3114,3.5123,-88.2644,-73.9398,-128.5145,48.4817,4.2617,-0.7492,34.5379,115.3658
-640.6250,-45.0607,-13.7324,-24.4147,-78.9342,89.7819,-43.7182,10.0332,-141.2319,3.8405,-154.1484,66.9301,0.5628,-11.8768,78.5686,-51.4472,55.4755,176.0697,65.7419,242.9924,-99.6402
-632.8125,164.4758,14.3102,156.4671,-148.3333,271.1965,29.6823,301.8901,-105.5914,258.0895,-82.0333,25.9625,-42.0509,-51.6953,-33.1113,-55.5973,-55.7218,-70.3201,-177.9517,68.2891,-64.8187
-625.0000,-6.8501,-52.4949,-65.5652,-175.6221,48.7066,29.1739,41.8523,-31.8548,71.4193,-44.8458,-13.8852,-48.8870,-18.3946,39.3063,-22.6397,91.1756,39.3951,38.4392,145.7345,81.0813
-617.1875,163.1245,-10.1163,-26.3393,-179.6416,90.4691,-74.0789,193.0772,-62.8611,184.9758,-114.4251,100.5099,-98.8347,132.1596,-65.0441,91.5485,-49.6829,35.3482,-210.9304,142.4428,-134.7446
-609.3750,183.0610,-3.9829,20.8012,-190.6871,100.1511,-61.3812,166.2171,-50.9162,267.4540,-29.0761,-74.1450,-81.8903,-5.3257,-53.4365,-10.3181,-74.5833,-83.7191,-151.3225,26.1558,133.3750
-601.5625,41.9052,-69.2934,-193.1922,-222.8544,-40.3077,-89.8286,-48.7726,-81.1115,51.7740,14.0984,77.0557,-112.1100,73.0434,-10.0118,141.6583,-67.6554,92.0564,-9.8929,203.7402,-6.6743
-593.7500,279.5279,8.4203,54.5509,-159.2475,134.9670,-60.5197,162.9632,-51.5421,189.8069,43.0117,103.9989,-164.5760,63.1614,-273.8408,205.3644,-183.9783,-92.4183,-332.6936,-14.8968,-14.9446
-585.9375,73.3383,-41.5299,-95.5655,-115.4837,-87.6256,-97.0665,-61.1674,-88.8203,257.9681,114.0556,27.1158,-103.7624,23.4481,-92.5232,53.2278,-39.1521,-14.7346,-113.3463,29.6677,202.9094
-578.1250,99.2600,-20.6467,-95.6197,-87.6583,-50.1672,-166.5586,86.7654,-233.0398,333.1719,43.1409,100.2791,-91.8149,96.7838,-54.1751,200.1362,-110.2859,80.9750,-260.9836,127.3007,-52.1709
-570.3125,152.0547,39.6825,60.1407,-30.9766,33.1052,-119.2171,205.5290,-186.4104,340.2051,-20.9382,-112.7083,-25.8479,-5.0170,-43.9592,96.8961,-135.5581,-40.4544,-275.7626,7.8446,177.6088
-562.5000,-24.8874,-28.4635,-122.9031,-99.0823,-113.4270,-189.6881,-50.4722,-110.5861,8.4372,-165.8544,-38.4879,-32.7198,141.3962,68.4441,206.8619,-59.6418,135.3150,-63.3829,255.6253,142.5712
-554.6875,192.1093,10.1887,105.9398,-161.2630,78.9226,-215.2574,214.4251,-99.8725,16.5396,-229.8934,78.6166,-100.5637,222.7074,-105.2507,251.7057,-159.8306,-35.0124,-372.0989,228.3321,78.4689
-546.8750,31.0361,-48.6603,-35.3374,-214.5244,-61.8454,-244.9324,110.2024,-93.2804,21.5210,-114.0621,-26.3545,-57.5821,80.9295,84.9535,72.4522,-5.1279,-18.4127,-143.9129,280.9890,305.2479
-539.0625,-1.7203,-71.1084,-129.3366,-208.5139,-82.3527,-261.3539,126.2500,-147.4468,294.7600,-23.0047,61.9314,-88.2233,59.3994,66.3820,87.4303,-24.1973,89.4220,-139.5091,356.9108,-7.7169
-531.2500,77.4940,6.8232,19.5893,-21.5444,-4.9443,-146.8320,201.2195,-70.6703,332.9194,126.9884,-119.8311,-56.4109,-12.1766,-113.2284,51.3502,-56.3061,-76.7804,-234.1340,86.8287,142.2834
-523.4375,-138.9343,-44.0071,-208.1815,10.7369,-159.2349,-152.0201,-25.4883,-76.6005,-6.6420,84.2411,-128.2787,-25.5469,16.5607,-9.5460,153.5785,84.8729,93.3213,43.5054,189.0836,172.5568
-515.6250,38.8415,-3.3899,-51.8054,-19.8122,-39.3887,-102.0588,240.9587,-174.3860,186.9312,-15.3869,-45.5864,-33.9192,26.4441,-35.7148,162.9366,-13.8084,-8.4303,-232.7144,124.5029,0.0127
-507.8125,-13.2032,-28.5354,-81.3138,-69.1983,-105.4221,-56.9608,136.5329,-130.0394,154.6385,66.1155,-186.7270,3.4659,-114.5069,83.2725,58.4516,68.6607,-96.0084,-37.7743,110.1279,264.6035
-500.0000,-92.5797,-91.2951,-191.2125,-144.9625,-140.8605,-53.2630,-9.2641,-90.0979,44.9427,67.1961,70.7438,-35.7864,-4.8520,121.8445,93.5635,70.7161,0.9936,25.7327,315.3721,45.7844
-492.1875,117.3231,-18.8981,58.1103,-144.4609,71.9153,15.6884,168.1598,-58.9038,183.4520,97.5055,62.4692,-54.0642,-121.9323,-30.3170,-24.0920,-43.9686,-139.7505,-149.4904,70.9012,150.2288
-484.3750,-88.4225,-73.3143,-121.2701,-136.6439,-71.0195,-52.0628,-123.1121,-90.4135,75.2378,66.0879,64.5250,-21.4725,-119.6878,120.8093,-95.4391,71.6311,41.8089,138.5615,147.7644,190.9419
-476.5625,100.9835,28.2599,50.4553,-50.7114,65.1398,-61.7114,12.7250,-137.8184,-9.8868,-92.2357,163.6783,-12.9842,-57.3399,1.0176,-34.6917,-85.6793,54.4494,-57.3043,128.7347,-76.2210
-468.7500,8.0063,54.0863,52.7514,71.8236,31.8696,18.2225,-56.8637,-95.6346,-44.4296,-87.9772,-17.5513,94.2618,-201.3688,114.8350,-215.3338,-6.3847,-1.2863,64.4400,-30.6419,148.2045
-460.9375,-147.9026,11.0187,-135.9355,92.3715,-120.3920,15.1501,-247.4206,-99.4588,60.0246,-166.7595,13.2326,137.5961,-171.3821,295.6349,-185.9769,62.8874,157.9675,260.1381,132.0071,-113.3857
-453.1250,181.8243,133.8676,134.9588,143.5370,150.9153,178.6667,-49.3970,-10.6884,-37.9445,-151.9602,63.6182,85.2527,-194.7879,-56.9602,-247.0253,-142.2406,-40.1739,63.4426,-63.7221,-135.3543
-445.3125,145.7991,102.7566,-19.9617,109.9170,-40.5972,209.3680,-387.1778,94.2680,-560.7256,-11.9794,128.2292,84.1603,-165.9666,9.6383,-217.8518,35.8193,-41.1098,310.9211,-61.2144,4.8439
-437.5000,442.8864,160.6716,-27.8226,57.3612,-84.0667,131.1168,-321.8922,88.2734,-496.4669,-54.9614,303.8941,73.6740,-64.0856,77.2707,-153.6277,-6.0931,-166.0161,81.4160,-79.6470,-295.8932
-429.6875,542.1923,200.4477,-8.5146,88.0127,-138.3728,190.0528,-265.4388,109.4672,-330.0440,2.2338,138.7810,124.5376,-191.9888,135.1240,-318.2047,-21.8026,-347.7055,41.1297,-293.8328,-91.4340
-421.8750,262.5113,112.2447,-184.2443,127.6286,-314.7258,89.9346,-515.0125,81.5961,-398.6784,83.3421,256.6446,137.1299,-147.9250,254.9143,-238.8316,-12.5819,-170.4544,220.7561,-114.0563,-230.0509
-414.0625,418.7673,189.3685,53.9210,216.1553,-112.2012,109.7177,-313.6966,27.6158,-307.4415,65.3273,274.4105,116.6007,-166.9531,52.6056,-148.5749,-176.4557,-225.3088,-79.7135,-272.3645,-284.7457
-406.2500,255.1579,135.0457,-91.8340,230.7867,-256.5990,40.5825,-532.2867,67.7182,-306.1209,141.3862,128.3062,103.5154,-165.8533,56.4021,-74.1993,-63.2358,-178.0528,180.9068,-221.5309,-61.3730
-398.4375,294.2581,132.9125,-114.9273,201.0823,-207.3488,-16.9009,-409.2052,46.4694,-184.1543,45.0739,251.8525,42.5390,31.9065,-39.1679,48.8276,-121.3829,-69.1673,79.1437,-111.0447,-304.3471
-390.6250,440.3260,240.5165,135.8945,244.3491,-29.1859,52.5594,-231.2024,5.1535,-338.2686,-144.3057,170.3538,130.4799,24.6306,-7.7656,-143.1980,-198.5738,-134.3196,-54.6514,-172.5774,-52.3686
-382.8125,177.1516,132.9273,6.4205,123.3278,-121.3295,-37.2910,-359.4744,-122.4840,-431.6829,-309.0063,188.5759,132.4498,117.0770,196.3282,-52.5103,-106.0783,95.2203,140.2069,128.6036,-69.7187
-375.0000,345.3130,128.4635,225.2340,12.6159,60.7965,-72.8493,-30.4417,-121.8325,-177.8020,-310.4132,223.0952,15.4664,151.8336,-25.2797,55.4824,-179.2782,-52.9574,-146.6466,89.0878,-217.7447
-367.1875,179.7542,69.4678,151.2658,-9.8433,-12.8623,-70.1776,-142.1741,-10.9427,-288.6917,-125.5882,148.8967,17.2691,113.8697,12.3765,-56.2504,-67.2315,-43.8760,75.7427,65.8548,3.4524
-359.3750,91.4587,43.4806,106.5200,9.9121,-20.3172,-77.3107,-186.6869,-16.8651,-335.3900,-97.5810,287.9154,15.6195,179.1165,43.2235,45.2105,-74.0079,79.3859,58.2923,226.8178,-261.1544
-351.5625,195.9803,118.7591,244.5520,115.4802,80.9947,27.3451,-11.4324,49.0017,-235.3183,-105.7860,93.7454,75.1894,60.1722,-1.1096,-38.5363,-80.9786,-98.5440,-83.3363,16.6076,-121.9521
-343.7500,-121.9488,17.8804,-88.9138,116.5526,-179.1981,-46.5091,-197.6668,48.3548,-275.7480,-33.5169,-55.8959,141.0560,57.7579,292.0476,-78.7620,139.5345,41.0222,163.5002,158.9185,-123.2863
-335.9375,43.6258,91.6761,-19.9283,214.0764,-71.9548,-47.9208,19.5548,83.1426,-59.7415,-0.8167,-23.0788,103.4512,89.8072,68.6522,-9.5445,-46.5083,-5.9789,-128.2283,79.6824,-310.1502
-328.1250,-21.7786,102.3551,-32.9734,290.6062,-120.7456,51.6510,-67.2454,108.9102,-73.7613,23.8675,-146.2381,96.3186,40.8813,-88.7196,-60.3147,-56.5464,-1.9634,18.0546,51.4785,45.9622
-320.3125,-144.9803,7.1733,-190.8574,135.3092,-206.3866,-29.6217,-114.8762,-11.1782,-85.6387,-133.3185,26.7675,101.9670,214.1254,195.0464,38.0766,43.5457,121.1805,71.4499,282.4180,-147.7924
-312.5000,74.4320,91.9057,34.8323,144.6186,-17.4617,51.6961,148.0672,32.3278,-81.9533,-127.9083,-42.6182,114.3734,71.9948,91.4287,-140.9229,50.2384,-82.0797,-60.5457,81.9710,-104.9326
-304.6875,-140.2118,2.2016,-121.5894,107.8275,-172.6523,7.8919,-118.0851,98.7233,-239.3706,11.3862,-15.0647,99.5133,-11.1959,157.7071,-187.9909,190.8154,-16.4438,253.3275,150.4368,-39.2096
-296.8750,-57.0035,17.5080,49.7962,86.8443,-39.0549,-39.1157,89.5700,13.9110,-105.9834,-74.5241,82.3003,93.1695,86.4182,183.7773,-54.2702,69.1835,-5.0325,-50.0179,94.6866,-308.6741
-289.0625,25.2180,88.4049,156.1548,136.8676,68.5036,32.8655,123.1868,-60.9207,-147.6221,-77.4463,-31.3067,100.5972,46.0495,33.8749,-241.5480,-42.4413,7.3902,-36.3460,38.9554,19.8430
-281.2500,-28.9588,64.0174,26.0781,154.4565,-24.3890,-92.6045,-79.6279,-151.2193,-130.7146,-96.8352,133.6552,-28.0413,174.2394,-240.4787,-78.2674,-23.5300,268.3426,49.8392,268.7644,-35.1211
-273.4375,188.5794,133.0364,213.6878,197.7572,88.3856,-87.3766,181.2326,-183.8243,91.8580,-165.5297,99.3202,-45.9370,141.1452,-383.1148,33.7174,-90.9140,62.9832,-189.2671,65.2711,5.6250
-265.6250,-111.7062,29.1691,-35.5706,180.2128,-123.7118,-40.0102,-67.7595,-100.2947,-12.4395,-120.0923,70.1647,88.0562,149.2354,68.4078,-69.1175,101.8476,42.7735,177.7488,83.9435,161.4837
-257.8125,-33.9427,31.0614,-53.8238,154.6743,-103.8160,18.3480,-11.7236,-42.7737,-29.7337,-100.6652,237.0193,103.8111,206.3520,162.9234,23.0586,86.5927,-21.4682,44.7238,163.5917,-148.6491
-250.0000,98.1805,112.2233,35.2420,218.4858,-87.6091,183.0312,77.6308,47.0797,-198.6952,-46.8993,69.2483,166.3075,74.8552,142.8077,-109.3977,103.6894,-170.3491,-32.9420,-18.3927,88.5670
-242.1875,-95.6390,50.9983,-165.6788,202.3009,-289.4007,93.6987,-50.9982,-78.0872,-218.6644,-65.1545,14.5188,173.0857,130.3849,273.6777,-16.8346,197.7619,56.7622,89.3534,176.6208,34.7526
-234.3750,84.5298,115.3966,-14.6451,242.0770,-175.2650,101.3105,248.3072,-145.3257,115.2965,-133.4776,-54.2398,128.9869,98.8709,59.5018,60.6663,20.7787,-46.1801,-187.3986,111.5746,-33.0976
-226.5625,-104.0209,63.5074,-187.3697,266.1032,-310.8953,78.1576,37.8500,-133.3443,14.4946,-11.5729,-189.7052,155.1511,72.6319,145.5867,-3.5724,144.0346,10.1391,46.0911,135.7905,199.2652
-218.7500,-110.1242,6.4593,-183.6734,156.5392,-233.1241,-62.6006,6.8129,-163.9801,19.0898,29.7155,-1.7566,81.7347,188.8121,152.0611,111.5978,76.6701,73.8357,-31.0502,201.3870,-88.9764
-210.9375,35.0219,58.3466,33.2403,162.2280,-90.1353,-26.1176,112.9966,-92.3782,49.9099,26.2466,-42.5467,87.5773,111.2699,75.8067,33.0317,-34.4373,-98.2063,-130.9238,-37.7562,55.0318
-203.1250,-121.2964,11.5997,-130.3455,149.4227,-178.6499,-39.1496,-232.3009,-70.2914,-150.7580,-62.7354,89.1916,86.3530,170.2533,136.0482,-20.0111,23.9369,95.2446,169.6683,123.5910,3.5029
-195.3125,148.7615,118.1890,158.4159,208.9755,35.1671,-6.8387,-92.2564,-74.8615,-121.0866,-178.3605,267.2858,66.6081,200.5973,-52.3563,10.3009,-164.3450,12.0261,-88.3988,8.2621,-185.6589
-187.5000,77.6808,117.9129,144.0045,245.3751,-16.1965,55.3021,-215.3897,-86.6053,-282.5802,-80.1413,180.2660,114.3715,113.8279,9.1076,-114.5062,-101.7807,9.6646,51.3790,-60.2063,58.9989
-179.6875,14.0017,70.5412,48.9629,183.1256,-74.2095,-0.2154,-200.1468,-181.0112,-342.7192,-65.5889,306.6166,96.4481,167.4337,99.9206,11.0485,-84.8815,120.6240,22.4617,87.6486,-182.0082
-171.8750,249.9243,118.0954,175.4969,138.4756,51.3419,-19.1471,35.6780,-125.8312,-181.2857,-49.4391,174.5823,64.8699,109.6590,6.3652,26.2022,-103.3686,-137.8169,-233.8422,-166.8990,-18.4090
-164.0625,49.9719,-24.5533,-77.8732,-24.0772,-127.0143,-121.9968,-179.3837,-120.5649,-141.7440,28.7970,179.6827,-3.8276,225.0157,122.9110,103.4787,13.2350,-56.1709,-47.0789,-84.3481,97.2503
-156.2500,204.7457,-27.3361,53.4601,-114.9277,40.3138,-209.1496,62.2672,-135.6054,99.4980,50.7346,311.4941,-118.2370,320.0880,-74.8464,198.4662,-148.4676,-114.8546,-279.6390,-174.1277,-101.3765
-148.4375,155.5678,0.9906,97.8129,-21.7383,11.6620,-162.2704,-40.0569,-51.6136,-4.2278,59.7174,172.3907,-57.9657,218.2458,-63.5331,58.5311,-101.1215,-164.4777,-83.1436,-397.8482,165.0264
-140.6250,-26.9089,-42.8511,-48.1583,8.0998,-61.3326,-121.7496,-223.7074,-12.9914,-225.2997,-12.6681,320.9663,-12.4926,294.0758,85.4217,95.2639,-26.1520,2.5281,85.9537,-261.9352,-53.9392
-132.8125,176.7259,51.6975,196.9587,72.0308,110.7540,14.8596,22.7237,-23.2839,-54.2854,-23.9626,236.6564,-4.5279,209.0247,-71.5077,47.1042,-145.0848,-112.3665,-167.8393,-443.9260,-27.7915
-125.0000,-63.8727,-44.9382,-27.1769,9.7029,-75.4152,15.2002,-163.0850,-60.8520,-95.5105,83.4813,123.1352,10.3316,169.7552,110.3061,43.7225,37.7193,32.4946,84.0962,-402.1623,117.0662
-117.1875,-8.8877,-52.4855,-33.7444,-41.0774,-10.0348,-26.9186,86.6714,-140.8822,6.8191,40.4733,154.1769,-7.8039,201.0492,142.6571,256.9050,-4.9459,15.8850,-109.4436,-345.8820,-146.5181
-109.3750,-23.0551,-72.6088,-24.4832,-88.0161,-0.8321,22.7943,207.2461,-55.0758,88.9685,124.3050,-93.8999,-15.4216,100.2253,116.8831,192.9626,43.2381,-139.8562,-122.1234,-392.7509,84.7352
-101.5625,-208.4305,-167.5827,-250.4485,-166.2088,-153.8702,-54.7554,91.5953,-97.5385,44.8673,81.8751,-25.1939,-58.9932,206.1811,186.8470,370.7933,149.1500,24.1348,42.9023,-119.8983,-67.2875
-93.7500,32.5505,-76.7752,-37.0743,-136.0502,60.4209,14.0329,342.2809,-65.6657,111.1128,-34.1964,42.8803,-78.1139,200.5018,-1.8311,252.9787,34.4136,-123.5354,-209.7230,-265.7222,-109.9428
-85.9375,-115.2629,-89.6849,-166.5077,-72.7016,-106.1055,33.9962,101.1636,-83.6164,15.5697,55.9278,60.1942,1.1430,71.0516,163.6973,48.3910,125.8736,-27.9983,63.8358,-307.3549,91.5638
-78.1250,-78.9921,-95.4181,-81.8730,-70.2990,-21.5850,-62.9977,77.1076,-144.5302,137.0945,32.1045,219.5730,-32.0010,157.6670,141.2727,207.8673,29.3668,7.5593,-112.5894,-233.9804,-189.8805
-70.3125,3.9170,-46.1112,102.3838,-20.2471,52.5519,-22.3606,151.6701,-104.8033,100.2489,-4.0701,110.6207,-11.3838,121.9597,69.5221,208.0155,-4.4796,-121.2258,-205.3472,-395.9662,32.3166
-62.5000,-235.9971,-143.5643,-75.1945,-84.0479,-89.1594,-50.5850,-62.5941,-97.9400,-79.4429,-34.1034,190.8524,-44.7023,165.4332,114.9103,251.3356,113.8068,57.1303,81.0017,-142.8256,-34.3719
-54.6875,-74.7586,-90.7769,135.3810,-62.7031,121.2663,14.3293,184.2921,-69.9395,57.0158,-6.9831,145.2448,-90.5748,120.0720,-114.5432,203.8086,-5.7620,-99.3733,-145.5027,-156.5640,-190.8913
-46.8750,-191.1265,-110.5061,-109.6569,-36.9788,-49.9186,65.6186,13.5728,54.4421,-5.1228,153.5272,-98.9272,-32.9616,60.1433,10.4211,106.7138,83.0658,-112.4652,88.3852,-60.9033,6.9559
-39.0625,-257.1652,-148.1659,-277.3749,-65.9684,-107.7923,47.2004,-6.8188,182.1188,46.0521,96.3266,-45.7807,-46.2023,150.5374,65.6816,268.9456,27.1769,-38.2861,23.5317,121.0184,-270.9045
-31.2500,-78.2669,-63.7873,-175.1584,-26.0228,31.2598,115.7120,132.7198,248.7278,74.1666,89.0836,-162.6671,-35.9644,70.9068,-51.0744,224.1453,-52.7567,-143.1533,-114.3652,-51.1242,-93.8082
-23.4375,-276.6553,-137.6048,-313.2307,-83.3874,-107.9852,14.9069,-116.0189,148.0075,-66.0097,134.5439,-79.8255,-58.3274,117.0123,32.8713,196.0741,30.9913,114.6776,142.4015,67.4087,-48.0442
-15.6250,-44.0890,-68.8263,-28.3483,-96.8096,141.7165,-63.9566,170.2004,31.2283,145.7744,52.9588,59.9639,-118.7606,110.0851,-157.2346,150.9673,-85.3129,63.4413,-188.8925,-15.1487,-239.3074
-7.8125,-78.4901,-74.2227,67.5652,-129.1997,89.4490,-38.7907,45.4539,17.4820,129.6265,39.4201,-27.1646,-78.3207,-50.7602,-58.2812,25.9437,-23.5698,28.2689,-12.1350,-83.6626,41.4589
-4000.0000,-26.0765,-71.7703,22.2423,-176.3488,65.0124,-98.2133,42.8949,-88.6125,97.4868,-10.8058,45.9178,-77.3677,56.8620,43.0280,185.2659,-26.1405,126.6120,-19.9310,-94.4329,-77.9295
-3992.1875,129.9429,49.8514,257.2921,-24.4554,228.0789,61.0361,278.1704,-39.1216,-34.5488,-107.3096,-13.4116,-20.8919,-38.2870,-126.9953,18.1666,-85.9171,-31.8704,-145.6664,-221.4366,-29.0802
-3984.3750,-138.9403,-10.3175,11.4399,56.5475,19.2434,34.4031,31.5304,7.4863,-95.5155,-59.7157,-37.6535,43.3683,-26.3413,32.0636,-151.8416,71.4096,52.7228,112.7103,-34.3585,16.8776
-3976.5625,-10.1436,-7.5338,49.2651,43.2576,132.0961,33.4755,180.5577,7.8108,127.1888,-96.4290,111.8259,-15.4165,123.3254,-77.1927,-37.1455,-74.5611,-60.9787,-215.2034,-10.5636,-241.4991
-3968.7500,-8.9840,-3.4627,74.4548,77.3331,84.3121,93.9103,94.9472,67.5051,-30.7491,2.2147,-10.3483,32.0684,111.3379,-16.1516,-46.1092,-88.1884,-233.3593,-142.7914,-220.4312,75.4619
-3960.9375,-133.0023,-65.8236,-87.5353,57.2669,-39.6496,4.1988,-139.8454,-57.9355,-154.8657,-13.2738,123.3222,14.4031,245.1987,79.7275,125.7769,-28.9500,-72.8907,-55.5021,-100.4428,-14.7245
-3953.1250,81.7840,19.7481,136.2728,59.0056,148.1920,5.2965,121.1655,-130.5631,32.8049,-46.9626,52.8118,8.2940,138.8623,-27.6161,132.4628,-173.9217,-137.6353,-297.4305,-238.6482,22.8509
-3945.3125,-175.8235,-61.8861,-28.3145,9.3547,-15.3687,-49.9894,-44.2332,-111.5786,-20.9387,7.9630,-74.1004,59.0499,122.1119,211.6076,43.7346,-9.2891,-6.8077,-28.7569,-76.2716,150.0416
-3937.5000,-174.1969,-59.5922,62.3231,9.9615,113.2917,-73.0262,120.5829,-97.3453,107.5467,-159.8568,17.2569,37.9225,176.6221,155.0578,137.2664,-103.3886,34.2784,-235.8089,31.3669,-129.5424
-3929.6875,-158.2453,3.2917,179.2777,128.8839,194.2605,5.2518,200.7133,-55.7976,40.3262,-263.3796,-123.0744,73.8855,110.4306,13.7719,-0.9123,-133.1972,-54.3684,-149.5922,-95.7080,95.1490
-3921.8750,-333.7146,-39.1178,4.8192,127.4136,93.8108,13.1380,-47.5958,-47.6306,-169.3273,-292.2972,-2.8055,111.5627,156.8457,170.0773,-62.5058,-15.4104,159.5750,131.2434,115.8249,-81.5518
-3914.0625,-78.2299,65.6563,243.3133,204.8929,260.3193,140.9718,118.0292,80.5033,-114.0361,-237.2661,16.4454,144.9881,66.2454,78.2619,-225.1408,-70.6969,-74.5356,-69.9866,-51.6701,-249.3399
-3906.2500,-209.4159,14.9021,25.1264,246.6786,6.1440,177.1153,-174.0345,153.9548,-221.4503,-51.9399,-17.9943,178.5285,-41.0586,189.6709,-257.4950,77.3090,-134.3703,186.0667,-114.8689,-65.8101
-3898.4375,-81.5610,22.7331,-48.0318,197.5158,-29.0022,139.3064,-173.0649,42.4537,-256.8445,-51.5814,167.6397,135.6655,70.6979,190.1186,-69.7972,-33.6280,-73.1445,33.1846,-91.9858,-325.2318
-3890.6250,123.3290,110.7442,79.8231,224.3580,63.8645,192.4987,-8.0699,22.9498,-164.2423,2.7589,2.2895,151.9813,-57.5357,97.5268,-122.0867,-163.5896,-217.9389,-148.7392,-241.1000,-51.6623
-3882.8125,-102.6344,-13.2877,-120.1859,32.3576,-26.1376,100.8463,-171.9536,-31.3952,-143.5132,-124.7498,24.0893,98.0685,37.3791,228.0529,-25.2335,-70.4024,16.4124,83.5100,95.9447,3.0882
-3875.0000,7.1986,-0.1697,110.6010,-35.8276,242.6547,72.9978,169.9436,-22.9365,50.9988,-299.4626,34.7149,14.7672,158.1062,16.3332,61.4141,-171.4219,-47.4300,-158.4402,99.8172,-99.3890
-3867.1875,-165.9471,-28.0513,101.4118,-0.9872,235.4531,99.1660,50.8456,77.5309,-176.4982,-160.1828,-83.6483,37.5706,76.8306,7.5520,18.0365,-106.4550,-8.2976,89.5902,99.6876,147.1425
-3859.3750,-240.9982,-71.5863,75.3032,-7.0437,209.3250,71.4351,-49.1831,160.0948,-276.9282,-40.8149,38.1106,-28.8420,161.6711,-93.1530,178.7479,-98.3830,95.9378,85.7373,236.6888,-139.2248
-3851.5625,-75.0604,-24.3083,281.1601,16.8599,306.1546,127.6592,82.7539,253.6089,-107.4065,127.4831,-50.1540,-67.5665,37.4779,-292.9671,55.3935,-114.3752,-122.9009,-64.1981,49.6488,-9.6633
-3843.7500,-260.0135,-100.1547,10.1105,3.8772,36.0653,39.9971,-223.2233,239.2363,-82.8053,223.8815,-25.3223,-51.7744,25.3746,-121.7167,9.1118,19.7427,-25.6687,171.9777,213.7102,49.0293
-3835.9375,-41.1721,-27.9729,66.8330,46.7052,93.7427,-15.8641,-20.4240,147.6714,84.5774,133.0866,105.3273,-44.9761,46.0830,-140.6920,104.6355,-72.3306,-119.6439,-136.0424,186.6034,-154.4979
-3828.1250,-33.8541,-12.1779,-48.9905,51.0037,-58.1360,13.7385,-26.1548,140.5734,6.4082,126.7535,-82.5735,11.8878,-68.7537,-35.2696,65.5918,-4.9594,-216.2119,-23.6400,192.9445,132.4301
-3820.3125,-127.3042,-77.3935,-320.5922,-44.4308,-182.8035,-39.4076,-40.6743,124.7377,-8.5291,111.6974,-60.2101,-19.1358,-9.3363,57.3766,126.7752,126.6750,-96.5406,60.0362,415.5557,-32.3787
-3812.5000,-11.8924,-33.2653,-167.3387,-35.9938,-63.6312,77.3041,260.6503,130.7668,147.3754,155.5016,-235.9723,9.6151,-148.0627,27.8292,-47.1971,133.1517,-295.0411,-106.4540,213.0231,46.6323
-3804.6875,-275.9750,-100.8522,-372.5813,-21.0263,-194.9791,89.5379,17.4564,70.3253,14.7355,168.8148,-256.2385,82.2361,-205.2995,261.7405,-177.6963,294.1310,-136.0742,227.5661,263.9873,132.1628
-3796.8750,-217.6180,-46.5407,-187.3927,106.4062,-81.9051,127.2292,130.6785,-1.6437,17.4974,134.5764,-106.0349,92.5460,-166.0732,153.0727,-98.7649,185.5679,-109.6543,5.0530,217.4422,-161.8783
-3789.0625,-142.7354,34.5403,-46.6824,248.3636,-124.3272,229.4415,50.4152,63.9078,-99.2489,200.8379,-186.3292,149.1634,-281.3513,71.8536,-213.3557,177.4945,-208.7704,79.0178,43.3962,86.5729
-3781.2500,-203.3176,19.1336,-175.4473,291.8936,-325.2314,172.2247,-262.3344,44.0298,-190.4767,144.6570,16.9203,150.2176,-189.0883,126.1720,-192.4235,231.9838,-57.3501,229.5595,157.9229,-81.4137
-3773.4375,103.3104,144.5967,37.9825,385.6413,-147.9524,201.2179,-121.8809,109.3652,-86.5204,100.6804,11.3873,162.0641,-231.6222,-29.3450,-269.3069,77.6789,-275.7598,-25.7175,-63.3244,-127.2257
-3765.6250,6.3513,116.2746,-144.1971,357.8024,-292.2988,201.6291,-377.0241,184.1259,-304.1797,249.1199,-132.7553,201.5704,-301.7568,119.4910,-337.8140,151.7838,-228.8198,229.3963,-55.1722,56.3960
-3757.8125,103.9244,106.5938,-176.8628,277.5297,-251.1444,130.5892,-300.6641,186.4546,-263.3159,216.1225,-91.3302,152.7664,-187.3144,121.8497,-111.7717,118.4413,-236.3373,81.0835,6.5585,-199.4320
-3750.0000,127.4717,128.8417,-125.5594,299.2396,-162.0421,180.5191,-211.3569,273.7530,-247.5119,230.0780,-258.9359,192.1487,-280.9088,135.0936,-241.7942,169.0217,-385.9409,68.6969,-147.7635,33.6885
-3742.1875,-196.9403,11.1930,-349.2157,254.0324,-311.9215,138.5128,-363.0435,269.1267,-324.6970,152.0961,-188.4899,231.0555,-174.4616,388.3513,-279.7920,311.6537,-217.5090,272.3845,54.9839,-46.1009
-3734.3750,-94.4517,52.8983,-126.9803,319.7501,-125.9284,176.4144,-66.8493,307.4160,-174.9965,118.0173,-111.1251,233.6037,-171.1172,279.4747,-347.9098,240.1892,-394.1891,-47.0268,-89.3344,-156.0095
-3726.5625,-247.9037,20.4559,-222.6880,340.5591,-257.9021,188.3928,-272.6093,393.7823,-307.2722,204.9946,-206.7234,269.8547,-228.7458,364.6055,-441.0260,325.7854,-333.8674,221.6180,-173.6041,76.1514
-3718.7500,-266.2292,4.9056,-228.2798,356.5533,-261.7765,146.5460,-388.2724,388.3273,-386.4539,237.1380,-26.1716,259.1347,-122.2268,396.8651,-260.0243,247.5522,-245.4102,203.4457,-156.6866,-224.5349
-3710.9375,-61.9323,92.6477,-20.2689,417.1775,-164.0692,242.3150,-327.3281,411.4960,-252.0507,296.8884,-149.0135,284.9320,-245.1038,308.6710,-344.4330,159.9070,-426.3920,125.8416,-375.1444,-92.6309
-3703.1250,-200.1855,44.5764,-235.8275,383.2700,-304.9533,246.5545,-542.9525,416.1353,-319.2116,302.0967,-142.4181,269.5077,-275.5338,348.8897,-336.4211,275.7203,-245.9566,340.6989,-128.1274,-126.2345
-3695.3125,44.6619,81.1871,-118.3142,310.4820,-149.7764,252.9024,-278.4922,495.8794,-275.2829,272.4088,-96.7050,163.0068,-192.8557,98.1709,-105.3241,134.6414,-386.4384,22.6542,-129.9654,-304.7458
-3687.5000,56.7311,62.6215,-192.5929,214.9275,-222.4222,214.4717,-315.8185,531.8372,-348.1707,345.9262,-243.7924,160.0002,-192.9954,169.6083,-214.0680,207.7605,-442.7646,104.7951,-118.5996,-13.0315
-3679.6875,5.3278,14.7190,-347.3557,125.9574,-267.5760,131.6133,-250.6387,375.3634,-282.5554,337.9997,-102.3257,148.4523,-125.5946,307.5844,-256.3064,272.4478,-317.5516,88.5238,40.3543,-206.7478
-3671.8750,97.9410,56.8394,-183.1099,148.0239,-102.7455,184.7733,60.5398,391.9037,-191.9522,281.0598,-194.8435,170.2969,-144.1958,249.5064,-273.5748,179.1221,-504.3660,-135.7663,-78.6696,-44.4790
-3664.0625,-213.1407,-77.3913,-402.5616,80.4198,-248.6457,146.2532,-159.0087,391.7638,-227.0788,280.4196,-193.0638,134.3185,-69.5094,322.6804,-196.5835,289.0966,-356.9158,115.2499,65.6177,64.1236
-3656.2500,-50.3300,-7.7835,-184.1415,136.7328,-103.6880,143.6382,-14.6836,315.5362,-82.3269,94.6874,-10.3669,59.2224,3.0845,24.7224,-159.7129,138.9838,-298.5876,-72.8248,53.8526,-160.3854
-3648.4375,16.7584,68.0855,-51.4596,237.3147,-43.4986,239.2909,-65.0871,264.5880,-205.3216,81.2146,-59.4210,39.6105,-120.0707,-247.0354,-353.6161,125.1151,-264.0669,100.3169,-55.6494,81.3729
-3640.6250,-10.4659,89.6164,-105.1091,279.6086,-96.6636,221.6449,-229.8237,173.3603,-259.6366,-9.5414,72.2307,13.9926,-98.5099,-339.1198,-369.8282,143.9559,-8.8626,249.1733,197.5922,-158.1319
-3632.8125,323.8819,221.1002,133.7906,295.4659,142.7011,311.5502,45.9954,190.6960,-130.3979,-102.7499,-18.5384,-24.9632,-189.3753,-616.7115,-421.4951,14.3326,-131.1344,20.5518,109.4111,-142.0918
-3625.0000,173.9916,157.2007,-66.5537,215.1064,16.7822,258.2205,-190.4387,173.7971,-182.4340,-119.2047,-107.5569,-51.8445,-204.4992,-561.5923,-398.4613,107.4672,37.3075,292.6823,240.9902,23.7467
-3617.1875,197.2368,111.6520,-30.7674,130.9223,163.9691,146.0459,-7.7549,99.0575,-0.3663,-156.5076,40.6002,-136.4015,-93.4642,-637.3444,-287.3058,32.7577,26.8999,69.9798,262.7702,-236.2601
-3609.3750,175.2578,108.4221,45.7998,177.5210,166.8924,221.6336,141.6894,64.0846,76.4478,-6.0666,-102.4865,-129.4991,-235.6820,-709.4017,-428.4249,108.7807,-134.7979,12.9997,65.3146,22.4917
-3601.5625,-0.2422,26.6600,-98.1594,106.6502,23.2632,112.7418,-39.4137,29.6367,-104.2681,-77.1041,48.9096,-178.1625,-85.3986,-670.9828,-240.0764,148.3252,78.9727,189.5600,241.3860,-13.2235
-3593.7500,244.7531,115.3117,266.3670,103.3126,314.0934,72.3754,214.9599,-47.2814,3.4869,-226.6228,157.8123,-218.9080,-13.6092,-860.0939,-131.2400,-148.6232,42.2101,-199.3772,62.9872,18.5451
-3585.9375,278.5522,136.7351,325.6900,31.8093,262.6934,-53.1587,17.1323,-208.3628,-46.9805,-388.3234,254.4969,-245.1199,9.9656,-876.4390,-142.6438,-274.7651,254.1969,-94.5144,202.4012,333.1511
-3578.1250,530.0829,169.2183,449.7259,-139.9274,423.9872,-260.9322,140.0208,-415.6750,113.2897,-558.2734,526.9382,-398.8405,208.2931,-1085.0420,93.6676,-482.1371,471.9244,-334.8783,383.6159,161.5237
-3570.3125,736.2841,204.8066,579.4158,-216.9845,553.9116,-316.0388,306.5820,-434.3197,353.2001,-576.5820,437.0383,-454.8290,229.2755,-1215.0348,152.5960,-573.8677,291.2614,-445.6264,307.5078,436.5577
-3562.5000,521.0224,53.6944,280.6315,-398.4655,366.3300,-467.5841,155.6685,-474.3904,349.6263,-506.3157,471.6799,-518.8804,410.8038,-1036.4983,334.0364,-430.0350,429.1156,-309.8064,513.9777,431.1953
-3554.6875,673.0035,61.7108,408.0813,-458.6750,493.9547,-524.8744,465.9894,-532.1935,440.2931,-415.7845,453.5835,-549.2740,465.5945,-1057.7461,463.7131,-523.9490,230.1969,-614.7418,419.7393,336.0839
-3546.8750,492.7062,-17.8456,245.2444,-500.1491,294.2527,-469.4430,303.0041,-439.2697,350.6526,-285.5404,291.1810,-514.0922,413.0683,-893.3412,376.0547,-358.1740,156.9289,-372.9864,379.2019,611.7142
-3539.0625,401.9430,-73.7191,125.9362,-557.0415,284.0430,-515.4513,292.5163,-447.7845,451.5203,-294.7408,430.3498,-529.8134,442.0946,-793.4017,367.9150,-293.8402,278.2057,-393.6537,464.2518,343.9256
-3531.2500,546.5057,34.3923,381.9487,-413.6118,394.1169,-406.1505,402.3407,-412.0007,414.6800,-257.6524,394.8387,-459.7032,259.4223,-869.1930,260.0431,-404.2139,142.7497,-495.0511,187.6335,452.4441
-3523.4375,321.8637,21.7880,222.7477,-287.3611,197.9402,-420.0282,21.9594,-425.4023,34.6331,-197.7549,420.1094,-366.0703,247.5482,-700.2095,212.9318,-344.7711,340.0488,-121.6425,277.8502,437.8214
-3515.6250,439.9570,92.8358,358.2677,-170.3568,333.4586,-358.1580,120.3186,-362.0392,133.3381,-282.0982,373.1389,-351.7727,237.4497,-823.4962,276.5701,-392.5734,248.0731,-284.4911,255.8799,167.9614
-3507.8125,284.0694,71.4620,258.7931,-116.3257,234.9485,-237.2751,95.6914,-203.6546,183.0292,-270.4367,56.1644,-266.9956,104.3492,-702.8105,107.1729,-234.3827,128.0476,-89.3610,274.9218,362.1491
-3500.0000,96.3626,-8.9013,41.4882,-163.0652,90.5743,-234.1841,24.2154,-164.0489,147.8673,-230.5670,96.3971,-265.1145,218.4461,-554.9321,221.9317,-194.9803,294.2123,5.0066,476.2049,69.5806
-3492.1875,329.4189,105.9638,245.9397,-72.0259,257.9184,-177.3296,228.4885,-106.6783,132.4506,-172.9450,8.3958,-222.5129,166.2879,-646.3395,97.4214,-284.8338,106.0985,-182.8943,251.2711,125.7573
-3484.3750,125.4713,14.3974,-8.6103,-101.9525,40.2227,-176.4504,-62.2507,-31.2853,-11.9824,-23.3055,-23.6206,-197.3675,170.1126,-461.7624,28.8686,-98.6740,112.9432,104.2105,293.3502,236.9797
-3476.5625,130.8978,-41.4251,44.2180,-167.4550,92.8669,-159.1628,100.3815,-51.4785,114.9716,30.7472,30.7734,-241.7414,262.3422,-446.7809,194.6839,-46.0976,14.1697,-101.2742,228.8763,-4.3957
-3468.7500,107.5951,-17.6787,46.3194,-86.6848,-16.2625,-48.6150,102.2874,-13.4102,80.1846,69.0534,-76.5858,-140.6112,116.8132,-300.5803,50.7155,28.7243,-113.4024,-53.5403,-5.3350,252.5026
-3460.9375,9.3658,0.2419,-159.5020,24.2130,-185.3498,-34.9609,-140.7324,-145.2342,-52.5238,-63.5250,123.1477,-46.9028,97.3717,-103.2861,-44.1979,79.6653,104.1114,128.3229,70.6010,82.5483
-3453.1250,320.2337,163.2100,-16.2341,194.2369,-78.3750,71.8039,39.3540,-147.9499,17.8515,-30.0064,121.9900,-7.8731,-51.9663,-291.9156,-154.0325,-70.2968,-41.2859,-52.7189,-145.3093,41.6958
-3445.3125,117.8553,124.7139,-234.2138,237.0474,-296.6830,73.3422,-252.8138,-35.8988,-126.0422,82.2639,-57.4355,33.2341,-84.5614,-181.8087,-150.1641,42.4848,108.0332,236.9911,-101.4537,189.6468
-3437.5000,161.7999,144.3334,-248.8712,245.2327,-237.6960,58.2395,-120.6734,-14.4758,-178.5995,-5.1090,-34.5089,38.7871,49.2027,-162.3551,-16.9685,-9.3730,153.6908,106.0675,-92.1994,-83.0362
-3429.6875,182.2552,187.9657,-199.0080,336.9442,-263.2313,143.6472,-34.0188,71.4785,-164.6490,44.0305,-203.0866,131.8999,-46.5378,-77.4331,-222.2899,39.2659,-34.2024,91.6099,-280.4358,148.7982
-3421.8750,-85.5632,51.8643,-439.4111,243.4270,-466.0717,124.8088,-236.6407,16.2158,-146.9852,135.9379,-110.9213,149.0207,-28.5316,195.2412,-202.8960,166.6727,48.6255,280.9268,-56.8953,55.4368
-3414.0625,73.0690,75.8499,-233.3638,190.3764,-334.4968,182.4139,41.1774,38.4181,-52.8953,84.3031,-51.2771,130.0622,-42.0659,141.3434,-143.0697,78.5255,-144.1115,17.6845,-144.8568,2.5306
-3406.2500,-84.4943,12.4781,-297.5012,137.1465,-436.1494,227.8262,-133.2036,48.4457,-153.0067,58.4906,-39.8401,136.3200,-103.8113,222.2195,-242.4776,197.1768,-89.0920,247.2334,-160.0071,231.4708
-3398.4375,-65.8428,9.8966,-263.4170,121.1884,-402.6154,151.4905,-100.3736,-65.2523,-82.8859,-18.0544,142.8418,97.2485,-69.2999,181.3468,-170.6512,158.0912,35.1728,196.0623,-70.8613,-66.3167
-3390.6250,72.6229,100.0836,-17.5157,223.0690,-303.3033,213.9632,0.2666,-38.1351,-18.9644,8.2053,23.3250,131.5720,-187.9790,58.2443,-288.0374,36.7825,-106.7905,123.6605,-282.9048,106.7088
-3382.8125,-103.1261,66.8788,-198.8254,221.7857,-486.2368,178.2389,-329.3266,-0.2079,-164.2621,-26.7199,26.5961,178.8251,-184.8615,241.9392,-284.6565,112.2764,139.0232,405.0771,-73.1334,70.5966
-3375.0000,127.6146,156.6613,51.3499,242.0171,-309.7124,208.0094,-116.4421,-6.7747,-135.0713,-106.1336,95.3896,157.2410,-154.2319,86.1405,-217.7930,-41.7311,89.3119,142.9878,-87.8202,-121.0038
-3367.1875,90.5175,138.6038,3.6867,204.4100,-358.0646,233.9468,-199.3879,19.8247,-291.7271,-6.3830,-24.6806,187.7685,-235.4688,183.4833,-298.8169,57.4168,17.6930,283.0284,-88.3407,88.5955
-3359.3750,55.6816,69.6521,-93.7136,98.1040,-419.1801,99.2031,-188.0543,-3.2656,-132.0965,44.6803,100.5409,125.2738,-148.4087,232.1523,-248.5723,106.8994,53.3552,247.3948,88.4934,-193.4651
-3351.5625,204.4452,103.8659,55.4952,70.4044,-270.7202,101.0817,70.9090,109.2462,-19.8482,157.3362,-5.6352,114.7203,-217.7445,158.4292,-280.7480,-1.0219,-184.4141,9.3224,-79.0386,-44.9174
-3343.7500,-89.3556,-17.1153,-182.8489,22.1695,-436.8507,45.4358,-240.6753,164.2086,-148.1599,212.4377,-59.3795,115.0934,-124.6427,322.1805,-150.5137,127.5134,-55.7633,278.7032,14.9000,83.1422
-3335.9375,-27.7880,-14.6395,-36.8149,13.3509,-290.6286,8.2003,-94.8761,128.5680,-2.0806,102.9349,52.2774,75.0449,22.8583,246.3586,-2.8960,-19.5442,-63.7176,23.4969,-63.7174,-101.3864
-3328.1250,-130.7203,-28.7324,-7.2663,51.0582,-335.9244,73.4844,-138.5606,120.4411,-82.5007,168.9329,-63.5791,112.1419,-56.1479,273.0314,-154.8043,9.8913,-95.2112,132.7764,-199.8255,147.6213
-3320.3125,-237.8889,-47.7749,-70.9364,84.5818,-437.4714,46.5740,-276.4814,20.1368,-220.1497,142.7370,94.3597,129.4549,-9.3445,354.5136,-70.9372,18.1408,114.0915,200.8881,-61.0934,-100.5256
-3312.5000,35.1442,94.6394,215.6055,216.3226,-261.8344,149.8606,-138.1967,50.0469,-154.5967,61.7504,51.5163,156.1546,-125.3361,161.1824,-150.8912,-62.4197,-34.4262,17.1816,-244.1315,-108.4706
-3304.6875,-142.4787,75.8247,-11.5002,284.4416,-489.8804,179.5031,-364.5699,44.3304,-306.6938,129.1326,-64.0007,249.9215,-202.9946,374.2064,-265.5417,151.3730,69.3748,296.8330,-103.8086,-5.0119
-3296.8750,17.3713,115.5846,20.8690,269.0713,-385.4785,138.6434,-112.4668,3.1216,-165.3065,89.0214,43.9888,228.6976,-170.1551,331.7601,-194.7038,73.6842,18.6692,35.0015,-48.9442,-267.0428
-3289.0625,91.7273,133.9043,49.7597,237.2193,-357.5934,203.2966,-47.8371,32.4200,-209.4113,154.4089,-109.5270,238.3797,-212.8221,320.8177,-238.3893,28.4904,-117.5721,39.6432,-184.5716,18.4477
-3281.2500,-112.1522,20.9100,-156.5678,139.1847,-490.9570,144.7534,-252.4321,-26.4721,-195.7363,96.6053,-20.2579,199.0134,-49.6970,444.6986,-75.3030,80.1137,66.9806,224.1207,-34.3661,-114.2187
-3273.4375,22.4568,59.7096,60.6067,132.6662,-239.8363,176.7145,36.4762,-29.8503,-15.5572,19.3072,-59.4878,179.1804,-53.0678,328.0783,-77.7361,2.2356,-79.9769,-28.9076,-145.6255,-155.3921
-3265.6250,-243.8448,-28.9011,-81.1098,112.2718,-344.6353,181.7904,-141.5131,49.8959,-156.2708,172.1292,-161.6456,202.5397,-118.3590,442.5680,-144.1090,118.4626,-29.8690,197.1670,-59.7864,70.5801
-3257.8125,-233.8880,-55.0555,-60.5551,86.1936,-252.1841,93.1701,-48.2418,34.9517,-62.6953,157.2641,-29.5041,148.5105,-60.3472,388.4013,24.7984,103.0032,-19.4623,-3.4298,-13.6130,-166.1326
-3250.0000,-57.8240,23.9835,40.1222,157.2393,-224.6413,82.6621,15.1453,99.1138,37.9820,184.5051,-110.2663,167.4621,-141.2393,303.3303,-56.2125,55.6313,-193.9851,-71.9488,-257.3349,81.2661
-3242.1875,-185.0407,-37.8271,-197.4645,100.0546,-428.3898,-9.0857,-259.7426,45.0413,-53.6178,204.5155,-91.3005,195.3493,-85.3916,541.0387,-37.5054,185.0255,-75.7762,187.3116,-67.2846,-10.5336
-3234.3750,86.9676,48.9061,-16.8104,91.1308,-211.9158,25.4199,31.6149,80.2317,55.0293,202.7770,-55.0867,168.7741,-159.2917,390.0332,-38.5596,72.6754,-225.3288,-68.1790,-145.9415,-160.0853
-3226.5625,-36.5316,-0.9574,-119.6446,37.7240,-315.9634,68.4414,-71.5075,160.9393,-47.8093,246.5480,-192.3975,166.9693,-186.7121,431.5468,-66.1470,189.8320,-206.4191,125.8174,-126.0866,103.9041
-3218.7500,-102.9810,-43.3254,-214.4063,7.4251,-263.9599,-25.4334,-19.5529,67.7674,4.4426,153.4357,-101.6150,104.7590,13.9652,373.2076,98.3395,169.1143,-61.4188,60.9441,19.9077,-136.9821
-3210.9375,-69.0880,-29.2048,-39.8033,5.4900,-90.6196,76.0489,154.7713,131.9658,32.0545,144.6897,-292.4857,120.7109,5.9861,325.2358,53.1652,86.7449,-238.0967,-46.6091,-156.7324,37.4821
-3203.1250,-420.8779,-181.8902,-296.8520,-63.0810,-275.9623,37.8868,-102.5672,168.5406,31.0096,255.3046,-329.0309,115.2754,43.3447,506.6466,53.3174,269.7377,-132.4407,200.2027,55.9894,73.3450
-3195.3125,-338.9004,-179.9870,-168.1105,-87.8369,-111.5338,57.5259,136.8773,188.9338,271.7542,238.7182,-233.7745,63.4251,64.5098,377.8910,37.2578,179.5309,-226.9803,-69.1723,33.5496,-90.9947
-3187.5000,-412.7226,-173.5061,-182.1457,-55.3638,-163.9080,79.3793,84.5340,248.5469,145.6895,224.3436,-358.3423,101.8858,-59.1444,398.3525,-49.6392,237.5259,-229.3527,34.6428,-3.6941,187.8949
-3179.6875,-410.0898,-218.0523,-240.7043,-158.3807,-223.8228,-53.2648,61.6636,116.6756,124.1155,166.4842,-158.4273,31.9179,66.6891,411.3669,186.9340,179.0457,-85.2319,1.9963,141.5909,-54.6869
-3171.8750,-139.5196,-115.6242,0.7002,-133.4383,-20.7951,-31.9475,267.7602,102.7713,219.5033,115.5755,-208.5593,20.1728,53.4689,248.3598,172.4442,16.5108,-236.1785,-183.7138,-79.1578,40.6715
-3164.0625,-280.4233,-139.5949,-150.3311,-97.9299,-172.2307,-35.0603,-67.5984,61.4345,67.4266,148.2258,-174.1613,43.3351,50.7875,315.9369,95.4691,122.5332,-60.6000,97.1345,63.6441,146.6285
-3156.2500,-81.6142,-76.2351,32.3750,-109.6722,-27.9399,-36.4303,77.7761,-11.1506,141.0970,74.6350,-64.0100,-3.8731,124.8644,166.3149,170.2437,-24.6830,-36.2715,-124.2603,89.2235,-74.6553
-3148.4375,-103.7096,-76.6206,72.2023,-96.3051,10.4425,4.3066,44.2755,29.3762,106.8908,152.1516,-168.7844,6.0197,20.0325,131.8246,64.1056,16.2032,-128.8763,-4.5745,-3.1001,149.1878
-3140.6250,-242.2527,-143.5673,-96.3983,-164.3202,-49.6164,-55.3529,-51.6533,7.5155,48.2783,57.2840,-5.9843,-17.4181,108.7961,218.9990,153.5441,66.7079,50.1172,103.7488,248.1995,-93.3342
-3132.8125,47.9406,-29.3027,207.7613,-154.5736,216.0725,-8.2593,215.1814,55.4050,58.4244,-78.8380,41.5627,-28.2178,83.3085,43.9540,127.7207,-107.0465,-81.1392,-168.1905,83.2732,-83.1151
-3125.0000,-104.7238,-89.6753,113.0847,-200.6602,82.9059,-66.0058,-25.8245,71.4432,-72.2710,-61.8039,22.2360,-30.2458,62.9489,132.0857,107.0191,-16.6455,11.7349,31.0204,107.4923,116.3016
-3117.1875,-34.7283,-96.6787,162.0821,-236.0439,167.4029,-165.0589,95.8512,-25.8210,123.7255,-86.0612,109.6036,-101.3371,151.2972,32.9751,231.0197,-78.5284,48.3135,-143.0486,109.4444,-128.5702
-3109.3750,-2.5361,-40.3906,185.2998,-97.2252,153.1027,-103.9040,155.7584,-0.8769,146.9486,47.8895,-11.8431,-33.4401,28.8412,18.0996,71.2068,-54.2153,-94.9402,-179.9496,-67.3934,115.7721
-3101.5625,-196.1861,-92.8146,-47.2959,-80.2025,-45.0196,-189.5439,-41.1441,-12.7280,-12.6234,74.0411,86.8928,0.5198,91.5735,189.4881,97.5620,43.3181,98.0024,13.3787,127.9951,-6.6440
-3093.7500,15.5528,-22.3595,142.5180,-42.7788,143.2639,-148.7831,221.3667,-43.1826,140.2130,6.5848,56.0337,-3.6503,97.7052,83.3142,177.3005,-61.7520,-75.6457,-300.8993,-45.1892,-74.6700
-3085.9375,-99.2077,-78.3750,-61.1443,-86.8354,-61.9431,-94.5080,54.3854,-25.1236,82.5524,96.6377,-72.3534,4.5597,43.3108,172.6768,157.5051,65.6722,-84.8131,-28.6795,-17.8839,162.8421
-3078.1250,-86.9091,-130.8597,-144.7251,-213.7808,-73.0665,-104.1376,118.4697,-33.9549,147.9837,88.7962,29.3429,-68.3901,145.0135,162.2041,296.8069,93.2066,-35.8628,-84.3294,174.5466,-103.5351
-3070.3125,-0.6615,-105.1533,-27.3201,-232.7662,5.7837,-22.8190,272.5273,47.1729,191.3797,96.8975,-71.0204,-79.2335,79.6628,58.7116,231.0523,26.6770,-195.9709,-104.0478,49.9249,88.0355
-3062.5000,-334.1917,-198.1054,-223.6552,-213.4893,-119.1218,-0.2477,-72.1798,71.5599,68.0178,157.2574,-83.1546,-41.4681,104.5392,228.5198,218.5067,87.4069,69.1731,197.5159,141.5523,37.8964
-3054.6875,-260.3992,-125.8206,9.3651,-68.8496,112.3256,49.6714,87.4554,122.2973,80.9973,97.9629,-69.9414,0.6633,118.7571,129.7285,232.2966,-83.5083,-32.3180,-44.5595,6.5552,-132.9080
