Time,Fp1,Fp2,F3,F4,C3,C4,P3,P4,O1,O2,F7,F8,T7,T8,P7,P8,Fz,Cz,Pz,ref
-4000.0000,51.1043,-76.9382,60.0057,-59.5813,46.2829,-15.4365,95.1178,-8.3472,23.5346,-7.4304,-7.5492,-62.5599,144.6613,-20.1060,94.2709,-25.3605,-34.0327,-74.2588,-63.1367,-10.1679
-3992.1875,-87.7462,-75.5919,-53.1004,102.4744,-104.9230,52.6357,-165.1239,-11.9500,-126.9360,25.9294,-11.9378,43.1261,-77.8958,-25.4842,-111.8043,80.1523,177.3676,207.8652,78.0805,132.0485
-3984.3750,64.9572,-100.6907,81.3352,29.3667,-7.5845,40.2651,7.1776,-98.9924,7.1375,-61.1605,121.2343,-43.6262,-15.9178,-112.3359,-0.6283,-44.7906,153.3264,-63.4535,122.8652,-138.2078
-3976.5625,141.9889,150.5478,39.0747,67.2807,-47.9315,-1.8053,39.8034,-66.7196,-34.4754,8.0700,-141.3246,59.9302,17.3643,-44.9031,2.2890,-50.4542,53.5436,-93.4961,-12.0709,113.8488
-3968.7500,24.0110,-41.2062,-78.2145,140.3660,-202.3044,27.1311,-150.6027,-75.4405,-189.1112,36.3197,70.1072,88.5217,-135.3748,-53.4757,-172.2096,87.8952,283.7702,101.4998,183.0045,-41.0790
-3960.9375,151.4529,120.4590,55.9036,22.9123,4.7329,13.4760,132.4066,-14.7577,17.6545,-51.0370,-55.0566,-72.4771,-35.7114,-67.6678,33.5762,-37.3754,58.3766,-158.1246,-7.5271,-54.6246
-3953.1250,-36.2938,141.9691,-149.1863,157.2092,-200.4351,63.6219,-71.8001,36.7409,-76.7902,1.4074,-150.4506,52.3502,-202.2498,-17.0755,-121.7514,88.1458,184.7690,143.0669,84.7220,143.6664
-3945.3125,15.7090,-18.7628,-82.5408,65.0824,-133.8650,57.5205,105.7161,-7.0012,62.4978,-6.3877,-12.0805,-65.0525,-245.0511,-98.7632,-39.4391,6.4145,164.9227,17.0317,239.7381,-157.3084
-3937.5000,94.3960,94.1947,-83.2366,15.8398,-61.6295,55.0678,215.9049,64.9202,97.4494,65.4776,-271.0805,-66.7924,-133.1965,9.1845,55.9074,-69.6965,-39.3167,-11.3771,70.3779,61.3742
-3929.6875,-80.4181,-48.3206,-188.4617,168.8541,-202.9244,133.1269,-72.4413,33.3480,-154.1276,-3.1380,-84.5959,47.0051,-273.8748,48.6300,-166.9175,43.7027,240.9504,303.7556,245.5227,-44.4193
-3921.8750,80.2824,75.6815,20.8174,51.2024,42.2797,120.6967,174.7260,21.2736,16.7925,-125.2549,-96.6078,-39.6800,-137.0648,-0.4432,21.9454,-116.4080,11.7066,-30.6209,122.1656,-166.7363
-3914.0625,-84.0577,156.6841,-124.9648,118.2733,-103.5710,84.2199,-80.1592,132.1699,-92.3486,-13.4078,-206.7050,70.6104,-171.3133,73.4265,-107.3289,-5.5783,23.3857,225.9651,96.7407,90.9313
-3906.2500,-145.9529,-12.8491,-68.3262,54.7063,-46.9946,104.2059,-132.6267,115.5274,-35.0612,5.9014,32.6573,-19.6252,-76.1427,-18.2748,-75.5363,12.7054,64.5286,162.0398,138.7890,-182.9572
-3898.4375,11.5301,143.0086,13.6715,-37.5939,107.9473,38.5431,-50.7193,160.2535,82.5929,-23.4394,-180.6481,-49.4988,154.3729,26.3526,80.9871,-89.6842,-167.0164,36.4371,-92.8265,8.5019
-3890.6250,-151.5900,-56.6972,-193.9599,57.5493,-63.7373,50.2825,-293.4450,172.4029,-162.3747,25.6321,-59.5778,36.0680,21.2601,146.3708,-129.3463,30.3310,53.8434,293.2722,128.9647,20.3902
-3882.8125,-73.4520,-51.1420,-33.3451,-81.4100,134.8228,-9.7200,15.0827,149.8087,34.8997,39.9564,-10.2483,-60.0995,110.3858,122.6126,61.8065,-103.4077,-117.0528,-53.6488,-6.9835,-149.4980
-3875.0000,-137.6404,94.1165,-150.0896,6.4985,54.0377,-53.0696,-137.7383,142.8806,-8.1824,105.9394,-164.3038,78.4052,68.1555,152.4919,-18.1433,-0.5099,-76.3340,91.0824,-108.3036,137.2937
-3867.1875,-101.2392,-11.0089,-138.2670,59.7010,-43.1738,-5.8083,-234.9970,44.5613,-70.6982,44.5392,66.2411,53.5442,8.4915,51.9627,-102.2931,47.0023,133.9973,126.4561,-3.0060,-108.3115
-3859.3750,112.2372,235.9569,5.6183,-24.7697,99.6799,-46.4907,-54.1911,4.2993,109.8395,4.2009,-85.1680,12.7473,116.8652,83.4622,50.8470,-104.4567,-112.6585,-119.1377,-249.6788,-1.8763
-3851.5625,-29.4325,163.8230,-146.6699,94.6988,-88.6414,-15.3138,-315.5726,-37.0985,-152.8020,71.7231,18.2485,79.8406,-33.9409,186.8051,-178.2124,35.9392,95.5328,159.1573,-75.5103,102.4448
-3843.7500,58.7114,3.5126,25.8345,-60.2871,46.8245,-26.3271,-31.1762,-85.6973,-17.6606,-11.9473,153.4803,-41.2404,67.0308,101.9263,-6.6635,-50.8703,-65.4728,-107.7355,9.4736,-92.4557
-3835.9375,2.9380,122.3142,-118.6079,-64.4793,-24.6543,-62.2892,-138.7224,63.7634,94.5274,63.4423,-103.2617,-3.2505,34.0401,176.0826,-12.6477,23.3521,-192.4615,46.4123,-12.5169,202.7137
-3828.1250,-144.2898,-96.3015,-263.5283,-18.7953,-132.6130,13.3156,-208.7663,65.7831,22.2188,212.3800,44.5574,-1.6699,-110.4369,139.7741,-118.4567,61.1299,-25.8817,179.1637,224.0547,-15.5585
-3820.3125,22.1564,68.7684,-128.7882,-123.3867,76.0907,37.5794,146.8455,90.4656,120.5633,162.9576,-114.9695,-123.4262,26.7219,126.0847,87.5670,-98.4601,-283.6753,-113.4452,71.2684,8.8000
-3812.5000,-176.3350,44.9466,-381.0217,17.5191,-139.1733,77.8955,-30.5176,94.2155,-22.0578,94.5949,-148.4763,-9.0950,-114.1065,239.4387,-67.7881,88.9988,-97.4315,212.0262,186.5201,160.2444
-3804.6875,-125.8665,-46.9026,-243.3219,-51.5743,-38.5022,106.1671,145.0391,48.9165,78.2504,12.1874,23.9832,-92.7845,-48.0198,119.7237,42.6074,4.4139,-120.2307,-20.5357,235.7363,-106.3801
-3796.8750,-106.1660,146.5083,-198.4210,-42.4465,-30.6206,39.6347,115.8098,92.8282,86.7669,92.9908,-189.3887,-48.2542,-1.7393,126.1883,58.6391,11.0147,-207.8714,-2.9183,42.1337,158.2092
-3789.0625,-200.7807,-54.3450,-253.8611,50.9368,-159.0663,93.8069,-121.7631,38.4552,-79.0463,147.5177,10.9281,6.0162,-165.7960,105.3410,-136.8954,138.3332,47.1997,182.4466,226.2503,-7.4826
-3781.2500,12.9175,52.1327,-28.9998,-45.5697,64.7912,61.2876,140.9780,42.3895,107.4414,42.3487,-59.4465,-63.4043,-87.5747,108.7663,43.7815,-43.0648,-129.4451,-134.8981,15.6734,-76.8984
-3773.4375,-160.1202,123.9155,-182.9034,98.4303,-89.1143,53.0258,-123.0492,71.5839,-82.8369,71.4364,-104.5903,149.4603,-203.1311,209.4404,-145.2156,59.7811,-22.8578,183.0286,51.3286,135.9688
-3765.6250,-165.9543,11.9209,-30.6197,80.6973,-9.8426,59.9778,-78.9200,4.9788,-77.9484,3.7330,84.4923,119.5546,-233.5213,104.2927,-137.9966,-9.1682,38.9418,105.1852,149.1994,-151.9791
-3757.8125,-58.7013,260.0364,34.7237,84.1170,55.4906,13.9815,23.2685,33.4309,23.9945,-39.9240,-182.3837,183.7163,-165.8731,131.1685,-42.3186,-92.0826,-101.2444,-0.6307,-61.9011,60.1225
-3750.0000,-103.1907,143.4552,-84.7129,246.3842,-135.9626,79.2392,-277.3436,-84.8535,-168.8486,-13.3363,-9.0153,286.1632,-283.0154,84.2822,-253.1748,7.2679,238.8319,234.8517,66.2562,14.4994
-3742.1875,105.6435,245.2141,138.1506,118.1445,84.8815,5.8003,-18.6689,-157.8371,-58.4132,-48.4510,-8.3295,176.9293,-171.8882,47.6715,-95.9643,-139.0862,57.2075,-122.3720,-79.2847,-94.8458
-3734.3750,-25.7464,287.7953,-51.2439,204.5345,-30.5313,1.1026,-207.2662,-52.0591,-174.2427,-16.7957,-198.9150,354.4792,-175.0384,151.7937,-191.3633,-34.6951,63.3083,95.1647,-73.0983,193.5906
-3726.5625,-118.5860,18.9551,-65.1139,121.4601,-44.4227,-13.0368,-219.3652,-28.7255,-113.5508,6.4240,7.0652,267.6069,-150.6803,62.4507,-172.8985,60.2628,108.9719,36.2920,78.6566,-40.4284
-3718.7500,-73.4430,132.1186,8.9701,7.3529,29.6447,-49.2193,-71.4979,81.5658,142.0960,80.5948,-177.0128,194.6993,-112.3923,62.0376,-21.6887,-50.8480,-165.4510,-96.6469,-89.6472,143.4957
-3710.9375,-259.8499,-53.2167,-186.5313,129.7943,-165.8646,12.0664,-340.2155,106.3217,-89.8345,178.2198,-116.6612,292.2751,-270.6990,122.0696,-241.2724,155.4990,69.5776,242.9156,73.5059,167.8969
-3703.1250,-161.3975,-61.6746,33.8092,-8.9217,54.4686,11.2165,-46.0950,106.9304,56.0697,141.6912,-82.4406,145.7184,-195.1890,82.9236,-66.2968,44.6968,-115.5439,-82.6590,-6.4748,-15.8788
-3695.3125,-206.5249,68.3355,-65.4611,39.9855,-44.8004,-14.2333,-144.5854,155.9624,30.3633,190.5676,-255.8497,193.5842,-183.3076,130.1626,-98.3361,91.2931,-129.2993,81.1749,-54.0729,288.7697
-3687.5000,-239.8082,-70.7655,-90.9187,65.1865,-143.2520,-3.8204,-241.2829,130.8607,40.4580,165.3075,-25.3948,168.3344,-243.6239,30.2377,-157.2388,101.7625,44.8098,150.9082,85.1910,43.2699
-3679.6875,-54.5100,148.7302,61.1838,-26.1311,8.8573,-33.8519,-51.4327,173.3183,267.1049,96.5962,-166.3862,137.6427,-163.4063,-3.1578,10.2099,-77.2283,-228.5568,-86.8253,-117.0164,122.3072
-3671.8750,-196.6522,75.8378,-166.1906,93.6348,-219.5096,-5.3298,-353.0841,202.3288,2.2745,163.4506,-64.8373,277.5375,-280.6688,61.9936,-226.2875,98.3460,-56.3770,190.0259,19.3159,224.9293
-3664.0625,-129.9330,-69.1702,24.2781,-28.1312,-66.0408,1.0460,-51.9217,99.1804,7.2673,133.1635,86.5919,137.3034,-126.1230,28.9773,-73.1603,29.7787,-132.3337,-61.2621,48.5082,-25.6212
-3656.2500,-137.2807,27.7965,-35.3510,-27.4256,-50.6694,-57.6809,0.1368,186.9319,95.1536,148.7784,-157.0972,187.9916,-73.7058,42.8447,1.4681,7.1022,-214.4143,-35.6552,2.5763,245.7452
-3648.4375,-257.0782,-232.6447,-115.4622,19.7707,-168.7838,-65.8526,-116.3131,217.2372,86.5489,66.9494,54.7732,181.2637,-153.7908,-2.7493,-68.2336,70.9906,49.0763,88.5562,266.2112,54.6715
-3640.6250,-90.4914,-101.6894,20.7854,-96.6340,4.4569,-111.6710,167.5811,244.8941,297.2903,57.4669,-65.9940,98.8982,-52.5527,-14.0181,128.8985,-48.7846,-172.0981,-202.8940,44.1876,44.9244
-3632.8125,-229.4874,-65.2639,-168.5903,68.1272,-184.9180,-45.0836,-58.1636,238.9625,107.4108,89.3869,-146.3810,239.9666,-204.9509,88.1068,-59.8065,16.8451,2.1213,112.0859,78.5450,185.6065
-3625.0000,-140.0797,-153.4037,9.4221,-4.1306,-79.9127,-14.0829,84.4486,161.4265,137.8907,83.6897,30.6592,125.4567,-172.9895,-29.3823,6.1109,-63.1084,-17.2379,-46.5026,59.3184,-113.3328
-3617.1875,-67.1788,58.9805,-1.1070,8.4992,-53.4491,12.3663,73.5031,187.3444,89.8157,109.4450,-200.8571,151.4112,-71.6024,32.5581,29.9815,-74.6209,-158.1787,-10.6596,-152.4849,133.1842
-3609.3750,-100.5183,-148.8374,-104.9171,117.0162,-157.2668,55.5666,-101.7559,47.0184,-87.5425,5.9674,24.3812,232.1479,-137.5178,-35.7571,-110.1092,3.6380,122.6392,200.9808,94.4716,29.4678
-3601.5625,92.8676,-27.9138,96.9754,-8.4686,117.6177,0.4746,173.6786,-44.6067,113.7884,-84.8177,5.3390,140.5882,65.2361,-239.3905,122.0118,-124.4016,-74.8554,-170.6787,-32.8723,-25.5760
-3593.7500,-41.8341,13.9750,-56.2492,90.7382,-71.6076,-42.7066,-52.0099,-13.3203,-3.0039,56.3004,-74.8228,281.9538,22.8588,-395.1268,-6.0226,51.4639,34.5320,79.5892,41.6663,225.3061
-3585.9375,7.8610,-77.7086,-30.0975,68.9515,-46.4571,-16.4721,10.6565,-60.6370,21.5700,45.8269,133.4439,271.7339,49.8357,-554.4836,20.0717,39.7441,81.3417,-48.7048,123.6275,-42.4314
-3578.1250,161.8911,145.9621,45.3620,26.6115,30.0007,-87.9369,159.6325,-57.6568,97.4496,48.6580,-85.9909,310.8203,162.0869,-480.5565,132.4347,-68.6798,-118.5769,-178.7195,-76.1246,180.1230
-3570.3125,-48.8705,-65.1100,-102.0033,125.5619,-118.3787,-88.1955,-60.2419,-130.4782,-51.5095,48.6958,95.7713,422.1339,16.4909,-408.4313,-44.8031,76.1181,122.7241,99.5107,165.3276,142.8944
-3562.5000,44.6485,-76.8825,74.8814,-29.2098,95.4870,-95.2042,265.1233,-210.0581,198.7597,41.9761,125.8094,305.7061,157.1069,-490.0756,190.4768,-77.8295,-101.7242,-229.0204,82.0412,-10.1128
-3554.6875,-43.1025,11.1238,-103.5485,84.5638,-9.9589,-89.5128,86.1672,-241.9344,92.7119,120.9610,-17.4719,420.9987,89.3896,-377.0228,76.4399,-37.0716,-16.4942,67.1546,61.4398,251.6064
-3546.8750,-66.4994,-117.4898,-81.6611,117.5382,12.9074,-30.4621,72.5063,-255.4565,3.9829,-40.6983,188.6177,371.6624,1.9630,-428.6287,18.2179,-52.9329,132.1011,76.7261,211.2139,-19.3320
-3539.0625,65.2311,119.0573,47.3376,51.2837,178.8836,-47.3130,238.9539,-124.8730,132.3631,-130.2583,-50.1895,317.4243,22.6094,-411.1573,139.3663,-180.7005,-124.2315,-108.6182,-10.9261,146.8152
-3531.2500,-76.8855,-23.1871,-142.5413,169.2861,-49.0112,-18.0158,-61.4945,-95.1308,-58.1360,-63.6538,15.1410,384.3569,-168.6367,-310.5390,-91.3696,-41.2970,115.5892,203.2283,159.0860,213.1362
-3523.4375,56.0176,3.5989,77.5725,43.7456,98.0892,-54.7164,159.0311,-167.3870,51.3441,-63.0612,124.5068,239.2944,-20.9247,-310.9343,58.3872,-151.8866,0.4228,-122.9157,44.1136,-6.5767
-3515.6250,19.2567,178.7610,24.9860,112.5595,45.4880,-70.1199,69.8416,-110.3430,-75.8855,-42.1777,-75.8351,333.5509,1.0604,-182.0360,4.2554,-169.1778,-39.4623,49.2394,-66.5868,271.0255
-3507.8125,-86.6013,1.8658,-2.7308,140.6035,17.7514,-61.6137,5.4915,-173.4099,-177.2587,-32.3912,189.7474,343.7345,-63.1038,-210.2424,-81.2107,-123.5381,132.5825,82.3376,106.6220,23.5242
-3500.0000,92.5761,216.0232,142.5609,14.9882,236.0217,-136.1062,224.1423,-174.4924,4.3674,-70.6057,76.3471,268.9169,44.7100,-214.4573,89.2126,-236.9021,-148.3879,-197.5927,-139.1832,94.9993
-3492.1875,4.0710,162.5444,6.1323,126.3698,26.5661,-125.2994,-168.9538,-164.2852,-133.7359,-59.5154,159.2431,317.4228,-90.2152,-205.3703,-133.3118,-42.9441,76.9495,97.8038,-54.6946,215.7990
-3484.3750,157.7289,70.2414,176.8470,-0.0150,123.2443,-102.3379,39.0665,-175.9447,-0.7166,-145.2840,367.3263,84.0841,-30.0313,-367.1443,-0.0653,-130.8194,15.4594,-102.6349,24.9630,-54.2832
-3476.5625,237.7224,256.3009,172.8655,11.5297,83.2280,-141.0813,73.3828,-68.3074,32.6091,-111.7516,141.7029,46.0444,-32.5701,-371.6269,31.4976,-171.3948,-47.7524,-23.7816,-38.1008,199.9393
-3468.7500,122.2168,70.8990,95.3514,78.9688,-104.3148,-35.3197,-113.8565,-72.1714,-81.5946,-77.7081,321.5912,-31.4793,-145.6559,-413.6189,-110.4063,-65.4442,185.5574,175.6176,194.3495,12.6649
-3460.9375,270.6354,254.4435,249.7463,-32.1109,86.0532,-27.6586,112.7938,-28.1384,34.0987,-34.7661,144.3979,-132.1084,-28.8666,-444.7329,48.2801,-205.5916,-92.2467,-66.0958,-12.3033,-16.7393
-3453.1250,144.7690,303.7548,34.8230,112.8045,-90.8909,15.7013,-136.8971,52.5989,-217.5302,9.8699,38.8920,-15.0168,-131.4056,-330.1493,-148.7976,-53.0216,59.6449,262.9167,35.7282,136.5806
-3445.3125,280.8645,265.0497,190.8345,36.9997,27.0939,24.0129,-56.6844,24.2738,-137.2359,-92.5512,267.3732,-153.9679,-87.0392,-396.6345,-84.4063,-156.4768,52.5127,80.9055,27.7277,-186.1774
-3437.5000,440.0467,494.4597,198.9096,21.7231,72.1405,32.3653,-11.4196,69.9869,-55.8893,-82.9241,17.9005,-180.8689,-78.6461,-317.0786,-35.0614,-184.8826,-108.5848,96.9205,-203.2465,6.1111
-3429.6875,316.8297,406.5134,75.5607,144.0500,-125.2467,129.3207,-317.6139,20.2926,-289.9816,-59.6865,188.0405,-120.1540,-238.7022,-257.9229,-280.0925,-15.6568,116.9447,359.5793,-48.6100,-153.9918
-3421.8750,566.2869,550.2501,265.8683,8.7786,65.0164,136.9241,-54.1753,64.2358,-64.4285,-89.8046,156.8580,-259.8024,-122.1349,-327.1292,-82.3447,-192.7653,-129.8693,6.8769,-190.3225,-294.4799
-3414.0625,495.8671,692.1443,33.2673,110.5367,-167.6274,88.6218,-285.6644,164.2742,-222.7787,-63.8202,34.7653,-123.3451,-205.4970,-192.2271,-251.6552,-20.7651,-62.5923,252.2804,-157.9497,-84.8490
-3406.2500,593.5014,614.1152,74.6941,86.8727,-126.2497,130.3646,-208.1454,59.3471,-293.1073,-168.7818,296.7525,-190.8234,-275.8599,-190.2764,-290.0212,20.3151,-3.2337,101.7572,-63.5049,-411.1906
-3398.4375,855.2695,946.2453,153.2292,52.6290,-47.7581,25.2016,-93.5218,-9.4887,-216.3293,-126.6594,79.8461,-185.2122,-197.1386,-150.2309,-209.4507,-86.5059,-167.7914,-61.6951,-331.9788,-222.4479
-3390.6250,789.1879,880.5771,-64.1128,159.3844,-265.1498,28.1897,-419.8060,-42.1841,-359.4336,-12.3845,193.0957,-143.4359,-376.3028,-111.0213,-442.3276,63.8522,79.8226,221.0398,-121.3023,-255.5410
-3382.8125,912.1788,933.9839,108.5933,18.5898,-18.4959,17.2302,-138.0652,-52.8458,-151.4946,-60.0553,145.4264,-301.6243,-241.4462,-123.7645,-230.8869,-57.7197,-116.5066,-79.1870,-246.5683,-450.6226
-3375.0000,821.7664,1020.0073,-39.1559,111.3735,-92.2997,17.8113,-211.7947,-51.9622,-299.0155,-133.1792,-2.6923,-190.2630,-241.0642,21.0518,-295.3582,52.2671,-70.3023,109.1374,-340.3115,-156.1389
-3367.1875,690.3740,712.0775,-20.9259,99.1213,-112.1345,72.3943,-267.5833,-107.0992,-282.5765,-114.3103,199.2286,-244.8948,-260.7257,-72.1334,-312.0902,70.2821,75.9325,151.5019,-159.0423,-395.6710
-3359.3750,702.7208,795.9092,19.0238,-16.5504,2.7438,39.6723,-116.6675,-29.5525,-22.4374,74.2489,-18.1363,-312.8427,-145.7054,-106.6303,-134.5017,-0.0001,-161.1492,-49.4562,-396.0859,-244.5338
-3351.5625,340.2208,574.9422,-181.8998,138.6707,-236.2459,133.0945,-390.6473,-9.8609,-224.1710,130.9631,-36.3491,-182.6307,-272.5688,58.0309,-330.2431,202.8935,106.9298,289.7656,-198.9800,-151.2354
-3343.7500,284.4330,413.6900,-13.1266,48.5035,-30.5375,192.2148,-111.9531,-24.4821,-56.2108,-141.6246,22.1797,-269.7365,-178.7607,78.3853,-133.3985,114.5056,12.7220,55.6857,-188.1538,-350.2801
-3335.9375,108.7743,344.5873,-103.2521,69.5205,-83.7227,213.4217,-92.1565,70.9914,-110.1363,-119.1023,-214.2000,-173.7570,-156.8689,207.8376,-121.0793,171.2253,-60.4039,159.6940,-190.2456,-35.2217
-3328.1250,-182.7885,-52.3998,-145.3062,53.6184,-125.8350,244.7271,-170.3102,66.5529,-226.9802,22.5276,0.5404,-215.6801,-199.9183,164.3972,-194.8446,276.0770,101.6050,251.8392,41.7860,-224.0747
-3320.3125,-144.8329,-13.8609,-0.8444,-109.0165,55.5663,205.5249,121.0420,137.5997,63.6909,130.6549,-150.2015,-327.1286,-55.4838,123.4544,51.3232,162.4393,-180.8910,-64.5457,-134.6876,-153.4614
-3312.5000,-385.4707,-112.8789,-224.0000,21.2024,-131.6522,165.7158,-139.2405,98.0405,-51.2441,238.1929,-153.5478,-182.1751,-168.6826,228.9267,-116.2401,306.2292,67.0188,255.4828,8.2332,-9.4304
-3304.6875,-281.2018,-218.9875,3.7381,-54.5672,60.0128,174.8027,88.3416,-3.6373,-43.2889,-10.3786,75.0516,-247.3287,-51.0110,199.2984,7.0832,167.9462,27.8543,-28.5823,39.0681,-258.5369
-3296.8750,-249.0951,-116.2459,-17.7106,-73.9258,112.4925,116.6733,103.7200,48.4776,-28.5194,-67.1637,-129.5497,-229.7019,74.4551,249.4776,76.4970,146.4671,-85.5276,-0.8776,-73.3151,51.1533
-3289.0625,-425.4904,-396.9832,-86.6828,-39.1201,42.4423,158.0326,-39.4497,17.0829,-172.2719,47.5510,94.3692,-261.5746,5.3871,142.1665,-37.6333,260.5247,122.6233,208.3571,203.8228,-91.6620
-3281.2500,-271.9649,-348.7964,109.2592,-189.1979,312.3000,133.2829,229.2937,65.5689,21.8841,59.1759,-4.7890,-358.5721,200.1958,78.7488,194.8476,51.4907,-149.3254,-97.5447,36.8718,-116.6199
-3273.4375,-449.3249,-384.4624,-87.7205,-74.0125,114.2453,119.6227,-77.8770,126.1502,-27.8630,-26.0896,-90.8642,-187.4770,150.0812,247.4511,61.7004,185.5796,-14.1793,214.6584,103.0189,90.5369
-3265.6250,-418.5335,-528.9787,-9.5708,-129.4579,230.3215,88.1105,37.0703,58.8659,49.5268,-205.2139,97.2448,-255.2466,192.0870,215.3172,137.2036,153.8543,48.1478,32.0225,235.3431,-198.1915
-3257.8125,-246.7694,-286.5067,45.5415,-131.6656,285.3622,33.5361,164.9770,77.5254,29.8952,-184.4029,-140.6949,-198.0880,247.0392,269.1457,193.1921,62.0858,-100.5935,-80.6991,51.5952,41.0155
-3250.0000,-331.8114,-405.8108,-117.1672,-8.5956,49.5796,56.1503,-106.9673,26.3760,-205.5522,-88.3863,27.5793,-101.7273,85.1628,253.1846,-45.1334,194.5482,163.8974,149.8081,245.0532,-10.5753
-3242.1875,-93.8807,-307.1501,97.0897,-113.0560,188.7530,48.7004,216.0284,56.1535,-67.0473,-205.4237,56.8425,-145.4486,151.2334,208.1702,125.4988,3.9781,-58.6518,-212.7587,57.4633,-91.2593
-3234.3750,-181.2304,-218.7491,-45.9541,1.3891,-27.3766,16.9307,-0.2908,61.6178,-136.8330,-164.7471,-12.2033,43.5153,80.9928,319.8670,-3.7048,81.1276,25.4914,14.3692,37.5579,169.7660
-3226.5625,-152.2850,-329.0518,31.2859,-9.2751,-24.2243,20.4561,2.6565,-44.6390,-171.3278,-123.7600,249.0806,-25.2325,48.0146,249.8755,-37.6066,85.6127,156.9698,-30.1881,62.9765,-119.9383
-3218.7500,-11.1143,-46.1251,130.7422,-30.2654,76.1463,-26.8341,102.8224,-17.7159,-70.5945,-205.5766,54.5757,2.1891,184.2317,201.0897,83.5760,-34.6929,-22.3666,-137.5856,-186.4164,53.5324
-3210.9375,-169.0974,-98.3304,-36.9701,130.4818,-91.6576,26.7135,-212.2006,-37.9596,-276.0133,-188.5276,143.9241,129.4483,53.2792,179.1753,-133.1827,91.8877,238.1704,193.8867,-32.9509,32.8587
-3203.1250,-47.5207,-116.9923,170.8703,9.1204,152.0894,13.8039,68.3248,-50.6722,-106.8699,-201.9302,167.8585,43.2229,149.8636,91.8113,53.3193,-67.9588,75.2767,-109.1096,-159.9197,-164.3122
-3195.3125,-99.4737,-27.1715,27.1613,81.6104,45.2931,-18.6694,-111.6992,27.0553,-213.2696,-86.8868,-48.7663,158.4292,116.8911,167.9111,-48.4761,9.6570,89.8304,117.3286,-180.4524,96.9714
-3187.5000,-184.5835,-216.5035,22.2846,101.5041,3.3234,49.7022,-191.9174,-15.3878,-256.8379,-92.0004,166.4852,117.4751,74.7401,87.8801,-108.8790,41.1593,248.2796,100.6378,12.8883,-165.9170
-3179.6875,-45.1700,-5.3205,158.9267,-23.2940,139.8670,-34.4422,55.3801,11.6495,-84.8721,-100.6275,9.2528,33.9921,174.0860,149.3545,62.3602,-79.8354,-37.7727,-149.5950,-203.2762,-29.3380
-3171.8750,-205.1563,-25.5166,-53.8454,123.3625,-108.0090,10.9992,-229.7621,-51.7232,-296.3003,-54.6507,54.6187,154.1007,72.0160,230.4482,-149.0557,113.7937,184.7960,143.7853,-51.8346,52.8528
-3164.0625,-84.1330,-79.7204,118.3899,34.7703,26.1131,36.4277,14.0773,-138.1196,-199.7119,-140.6719,153.0272,69.1790,132.9325,180.5401,-19.9460,-8.5672,91.3926,-123.8484,-74.3723,-180.0049
-3156.2500,-40.9888,35.2005,36.7395,64.3503,-18.6523,-8.0622,6.0251,-108.4294,-206.9955,-146.5884,-74.4735,98.3248,124.9509,281.7447,-20.7403,-14.8160,61.0771,-13.4110,-139.8293,106.2337
-3148.4375,-75.3079,-243.3391,-28.3808,54.7163,-120.8892,36.9836,-96.5178,-100.2060,-272.7422,-101.9494,117.6016,35.0077,-13.4970,252.5206,-131.5233,140.5289,200.3480,91.5952,104.2855,-105.9925
-3140.6250,127.6974,-110.5746,143.8167,-87.6025,50.1939,24.3095,148.2558,-38.7088,-29.1641,-113.0141,-41.9947,-88.0477,46.3577,275.6054,52.3231,54.1852,-93.0841,-166.1456,-119.3020,-81.9583
-3132.8125,-62.3004,-124.7901,-65.9983,39.3521,-121.7365,35.6160,-171.9835,9.7748,-165.5667,45.9304,-67.6009,-38.1178,-51.8027,322.7157,-129.8835,176.8647,134.4913,133.1172,-31.8850,76.0873
-3125.0000,-62.1128,-228.8349,54.3818,-74.0956,-1.4772,10.1139,-15.0274,-53.5637,-8.7616,57.0756,17.0250,-212.0193,-5.7782,259.0359,-13.0304,113.7709,97.3051,-44.4197,35.7675,-207.7104
-3117.1875,-103.5034,-23.4701,-4.8209,-44.1173,12.2019,23.9937,-1.6456,34.4821,4.4781,108.6204,-261.9537,-122.5581,44.6579,381.7686,21.3251,55.0786,-54.4873,15.4023,-115.1923,63.8777
-3109.3750,-258.8527,-249.0660,-90.9951,29.8906,-111.0956,47.9090,-234.2533,22.5621,-191.2318,133.2265,-54.8640,-62.0614,-78.8710,368.5721,-164.6105,227.4684,173.8056,209.2923,41.9231,-59.4905
-3101.5625,-1.9925,-166.4777,140.0465,-168.3983,119.8217,-51.9922,68.3490,-4.1831,37.2970,107.0267,-44.5459,-234.4007,77.8001,266.5872,62.2915,90.0730,-99.6955,-204.6551,-126.7536,-86.7057
-3093.7500,-83.0424,-177.7776,-31.8140,-115.9632,-52.1563,-76.8085,-213.9522,81.1596,12.9513,119.9264,-106.1414,-222.6557,16.5692,350.7271,-56.4708,212.7974,-9.0979,62.4890,-70.3335,145.1879
-3085.9375,-119.4587,-352.4559,11.9665,-209.5569,28.5020,-68.9858,-133.6213,89.1327,167.2551,91.4761,85.9465,-360.2839,22.9800,321.5313,19.8179,185.1994,-12.8120,-80.7156,30.7697,-104.3020
-3078.1250,-104.1588,-161.4274,13.4609,-254.7617,65.8811,-104.4867,15.4389,90.7940,277.3016,166.7371,-96.2641,-359.2557,134.1019,284.0453,144.0997,112.3010,-210.8395,-173.2675,-97.4343,153.8896
-3070.3125,-222.2776,-349.8242,-112.4669,-146.9492,-96.1627,-83.4047,-184.9268,2.0457,76.9669,188.6199,108.1289,-263.6458,44.8112,231.1837,-24.0150,208.0392,52.7599,20.7913,95.9839,137.6807
-3062.5000,-47.4037,-244.2580,107.6177,-283.5296,86.8057,-157.3404,70.7250,-34.7235,223.6717,78.4975,144.5563,-301.0778,190.5280,156.3311,153.6613,97.7943,-196.6268,-334.1895,-82.5772,63.4249
-3054.6875,-123.4815,-143.6486,-99.2421,-205.0948,-119.1628,-217.2512,-172.5619,15.5448,127.4555,278.4281,-23.9745,-139.4821,95.3113,279.5499,-5.7830,260.6086,-169.9616,-131.1428,-127.0939,371.2268
-3046.8750,-158.1792,-317.6762,-126.7125,-213.3768,-147.7460,-207.7763,-127.4766,-48.8041,172.6413,250.7610,204.9282,-166.5100,102.4879,214.1896,12.0601,268.8502,-32.8523,-239.6841,44.8225,122.4010
-3039.0625,23.1884,-100.6638,-21.1090,-257.0425,-5.2553,-213.2708,87.6852,-54.1168,276.9254,136.1299,16.8902,-134.5279,207.7273,207.8918,162.5795,118.1407,-276.6973,-377.2236,-163.2115,300.5967
-3031.2500,-132.8699,-221.0702,-151.9287,-112.8584,-172.1801,-159.1774,-189.5728,-73.8438,110.8234,118.1151,108.4486,-43.9634,4.5638,224.2256,-50.6697,246.0602,-12.9199,-79.1478,64.3662,317.3983
-3023.4375,54.9079,-243.6714,50.1060,-235.2829,-7.2464,-177.2457,85.0276,-127.7423,349.6057,-47.0365,163.8849,-171.5895,58.2565,131.4185,137.2843,117.8391,-145.2719,-351.2458,36.8230,115.0022
-3015.6250,22.8326,-100.1275,-35.7021,-142.3154,-57.1470,-191.1809,-1.2025,-30.5056,226.5836,-133.0338,4.4546,-37.1000,46.1126,191.7847,78.5170,106.7757,-145.4781,-176.2240,1.4231,395.7615
-3007.8125,9.0273,-253.3314,-77.2288,-110.6184,-61.7696,-195.8279,-80.1536,-108.9860,72.8744,-99.7253,219.3473,-42.3320,40.2570,74.4721,-5.3352,138.0442,47.6600,-121.8843,195.3617,132.8007
-3000.0000,142.1799,-84.6183,56.2217,-216.1120,144.5821,-282.5413,162.8785,-85.5304,317.1667,-1.4737,24.2042,-91.6599,136.3626,25.1221,191.0671,-20.7418,-172.2536,-378.6451,-25.7381,192.7534
-2992.1875,-124.8337,-175.0836,-155.4805,-27.6079,-66.2261,-200.4242,-122.2437,-150.2340,143.3388,117.6411,32.9063,64.8439,-0.6850,69.6470,-8.2263,99.3411,119.7061,-14.5594,91.0266,274.5671
-2984.3750,-8.3182,-164.0592,48.3754,-57.4208,63.5167,-143.7740,81.1875,-240.4091,162.0864,-8.7012,163.1986,-26.1330,91.8256,14.7346,97.0440,-28.0086,127.2510,-253.9418,27.3719,-0.1131
-2976.5625,96.6932,117.4507,34.7525,26.2904,12.7818,-158.6469,30.1436,-218.0963,1.3732,-58.5572,-34.0218,70.3606,77.8621,74.3440,26.0206,-2.8518,88.2934,-151.8579,-116.7937,242.7030
-2968.7500,133.2716,-55.4911,6.7190,100.8149,-161.3670,-75.9327,-107.3265,-245.2005,-98.7327,-194.7933,196.3665,79.4353,-96.5035,8.5779,-120.1092,79.9332,298.9800,-12.1611,93.6695,31.1070
-2960.9375,290.9416,67.6245,206.8074,-0.9295,0.6070,-61.1338,201.3371,-229.2164,100.3094,-288.9119,65.8682,-14.4348,28.2542,-50.0817,97.6926,-86.1801,66.7665,-278.4146,-33.7566,9.5690
-2953.1250,106.4858,-11.3874,4.7904,119.8030,-127.5153,-41.4538,-0.0996,-174.3319,-64.7156,-122.1206,-24.7403,114.5733,-100.0719,-30.8153,-59.9374,6.6191,230.4587,60.2283,59.7229,137.9437
-2945.3125,125.1935,-132.2678,108.9766,21.8802,13.5627,-11.5850,103.6643,-181.2657,39.4855,-54.1308,152.8837,-1.2434,-33.1965,-148.3266,28.9150,-72.3614,177.3883,-133.9379,76.4440,-162.5184
-2937.5000,162.5921,81.5097,60.8870,20.8039,38.3701,-23.0369,91.1738,-81.5161,101.4420,9.5590,-77.7976,24.6008,28.4019,-86.1216,70.7486,-82.6441,36.0098,-134.4399,-100.1310,82.7114
-2929.6875,31.7960,-83.9262,-35.3757,108.4810,-94.9865,-9.6490,-116.4796,-140.9220,-31.7239,-85.8985,119.3762,74.2785,-31.1466,-111.0397,-65.8679,41.9465,289.5206,47.9308,153.1772,-51.2095
-2921.8750,214.7867,28.3788,155.1819,-19.8690,133.4751,-39.4737,221.6946,-135.5438,159.9549,-225.5641,90.3753,-66.2823,160.1290,-214.1453,183.8960,-134.6661,81.8481,-263.9391,15.3072,-118.3725
-2914.0625,90.4572,44.3582,-23.5558,90.7973,-82.3569,-34.6154,-30.4191,-93.4738,53.3627,-72.5192,-14.9441,49.8414,17.1210,-136.5235,12.3148,-17.5798,200.8865,29.8816,29.1352,106.1766
-2906.2500,150.9355,-105.8869,86.5494,61.4442,-83.3443,-35.9124,42.3025,-204.5659,54.6456,-35.6217,206.6100,11.7918,-20.0360,-174.0322,7.0454,-53.6298,294.8209,-123.4401,86.8575,-188.4586
-2898.4375,271.4014,120.8190,163.6833,18.6321,-6.3011,-105.2251,119.0689,-199.6571,94.9897,42.2713,-47.8390,51.7045,130.8325,-170.5363,99.4817,-122.6933,95.7511,-250.8086,-146.4148,34.8886
-2890.6250,62.0781,-17.2866,-18.9394,120.9110,-151.0165,-69.3040,-173.9282,-235.5093,-87.4018,80.4281,64.9656,126.8524,57.9530,-132.7673,-84.0219,-11.4907,306.9757,29.0902,98.5913,-1.5048
-2882.8125,209.7835,-10.4168,140.5152,-38.8141,117.3358,-93.3500,131.1531,-188.3313,145.2970,-16.3716,40.8496,-7.9847,180.1440,-195.9380,144.7453,-182.2394,64.2770,-248.9988,32.6769,-173.8899
-2875.0000,118.8737,108.8064,-42.6163,58.4294,44.1038,-93.0154,57.6574,-76.7633,109.4418,-14.7731,-178.8865,65.5527,32.7614,-121.6777,68.3254,-106.5887,110.9790,-26.7144,79.1623,83.1396
-2867.1875,9.6099,-140.3567,-72.0566,41.1082,-21.4351,-49.9952,101.8509,-143.5083,191.3179,-43.4758,50.1004,-1.2266,-32.9170,-188.6894,76.1915,-61.2192,246.4220,-31.7234,320.3958,-204.1460
-2859.3750,102.6693,22.7668,53.8786,-37.2584,141.4073,-71.6478,338.4412,-127.9049,317.6176,-27.8309,-118.5601,-95.6961,92.7855,-209.3358,250.5429,-191.5135,56.2105,-222.4323,93.9896,-79.1011
-2851.5625,-50.8212,-130.6743,-74.7007,87.3895,-61.2547,-16.8126,62.5352,-182.8041,115.4434,-43.6664,-25.7354,-40.6875,0.9986,-191.4565,64.2846,-26.2925,322.5284,77.3689,254.1130,-24.5371
-2843.7500,73.9515,-215.9050,100.0312,-72.1085,113.3927,-63.6870,346.9628,-193.4146,327.6091,-90.2037,2.4152,-198.4177,65.5208,-239.2651,249.9886,-144.7666,164.1754,-221.5493,271.5810,-218.7097
-2835.9375,-20.3023,-100.1854,-87.2239,-16.4714,-1.9366,-67.5763,268.4305,-160.0227,323.8284,54.2590,-221.4493,-55.1805,60.0659,-133.0519,215.4647,-74.2497,101.8184,-38.4974,139.0535,70.1304
-2828.1250,-133.7169,-213.6580,-124.5837,33.6555,-38.3798,-32.5749,121.7820,-197.7378,213.9715,17.6347,35.6032,-56.0624,-13.4837,-207.9157,104.5254,-36.8142,268.4063,92.4739,270.4684,-151.1340
-2820.3125,13.0879,4.0344,97.3359,-56.4258,184.4586,-31.3334,306.4283,-159.2108,363.4264,-89.7399,-36.0826,-164.7453,98.2441,-242.5155,269.2234,-181.1470,26.2500,-115.3390,-6.8481,-77.1731
-2812.5000,-144.7592,-48.9501,-74.3456,71.1326,12.7022,17.3030,-49.5182,-110.2791,119.3202,69.2933,-23.3915,-79.0552,-36.6076,-119.6932,25.4805,-57.0749,218.5168,217.2615,79.2640,8.2072
-2804.6875,-94.6092,-139.0003,63.0325,-51.1077,150.0118,42.9838,198.6113,-121.3047,256.3095,97.3753,40.3755,-201.3546,27.6103,-241.8160,170.7644,-103.9538,91.8757,-51.1035,93.4778,-260.3979
-2796.8750,-110.0354,20.3320,-42.1100,-29.6295,117.8034,48.0901,166.2406,-6.8912,299.8103,139.8939,-247.4166,-85.2352,69.3178,-199.4684,194.9522,-97.3999,-68.3158,69.9385,4.1473,1.4548
-2789.0625,-264.8184,-134.7269,-159.5575,48.7055,0.2926,112.8882,11.5623,-14.7918,109.0335,170.0950,-71.4985,-94.4228,-12.2697,-171.3925,47.4476,41.8673,163.2445,229.7012,234.5600,-190.9873
-2781.2500,-77.9367,16.8254,36.7313,-113.1038,196.5127,14.3727,391.6411,-3.0081,232.0161,108.9839,-131.8721,-193.9459,109.8656,-122.6098,252.0770,-92.1820,-143.4797,-77.8809,68.7022,-216.7563
-2773.4375,-175.3092,25.1069,-113.1764,-10.0741,-26.4573,-25.3575,168.5444,68.5780,9.8369,181.6933,-169.4748,-48.6863,-39.1820,-15.0068,46.6305,53.5653,-31.3840,174.3377,180.6597,-35.6952
-2765.6250,-116.5998,-127.5725,-2.9333,-119.4080,83.7262,-26.9395,278.6042,104.3102,120.8385,181.5665,-23.9013,-124.3082,-39.0653,-89.2406,114.2451,17.4710,-115.0933,-16.2900,272.8187,-331.5063
-2757.8125,-78.0712,85.5240,-11.8119,-129.3947,110.7907,-73.6800,305.5641,241.8929,295.7483,172.2838,-289.4945,-97.1108,24.9313,-25.6075,209.4837,-65.7965,-252.9548,-85.0992,98.8362,-84.4656
-2750.0000,-192.0091,-63.8746,-166.0986,-20.6842,-79.5543,-44.8224,-32.8860,234.0828,179.2752,129.6087,-112.4911,-31.3259,-92.4708,3.6521,11.5190,38.5491,17.8251,114.7191,299.4948,-165.8083
-2742.1875,7.9561,29.5671,9.5918,-167.6081,132.0726,-91.0198,216.6549,225.2229,318.8079,84.8872,-121.5176,-188.6262,46.0977,-116.1233,192.1706,-116.1658,-205.4348,-179.5454,182.1318,-249.2262
-2734.3750,-63.0298,99.0283,-187.6116,-60.8741,-66.1844,-69.1233,18.3195,247.4695,158.4824,182.2749,-170.4650,-54.8433,-5.2033,-92.7703,51.0653,-18.7861,-137.5914,98.2846,179.8756,-6.5120
-2726.5625,-78.4323,-22.9791,-155.1606,-60.7821,-31.7922,-35.5725,125.6370,133.3598,156.8232,106.3041,83.2613,-97.4287,-7.8451,-133.7486,74.4150,-58.7524,-13.0499,-24.2140,269.3214,-305.1554
-2718.7500,128.0243,218.8275,-57.7809,-62.2499,64.5348,-50.1235,295.9166,45.1566,217.1193,56.2210,-114.1230,-38.1464,51.4424,-36.8193,167.6647,-144.8460,-158.6112,-171.8450,-18.3131,-135.9010
-2710.9375,21.5549,146.6891,-168.2631,79.5749,-118.9938,-14.5236,1.3523,-27.8875,-2.4090,57.3044,-3.3742,34.2753,-95.1081,-0.7156,-55.6572,3.2115,121.0074,142.7047,121.2365,-173.4686
-2703.1250,131.0216,149.4341,63.2742,-37.0384,148.4955,32.0782,232.8256,-54.9332,157.1035,-5.6073,44.3969,-103.3318,25.3610,-63.5989,127.1116,-169.7417,-52.3495,-136.7638,-52.1777,-348.0576
-2695.3125,50.8401,209.4968,-33.7726,49.5235,88.4069,81.0710,25.7409,-42.5686,61.0642,7.8738,-162.4607,-17.5558,2.2537,58.9422,32.9973,-82.3142,-27.3021,98.1559,-133.1758,-78.2166
-2687.5000,-50.4169,1.4386,17.1776,55.2390,66.3136,95.0676,-33.3402,-28.1924,76.0417,23.3399,-1.3040,-40.7915,-56.8531,-36.4958,0.2385,-67.8828,116.7900,135.1086,10.8788,-322.3712
-2679.6875,87.2288,209.2337,116.1058,-25.7716,201.2045,45.0149,101.5790,106.1498,139.0162,11.7518,-233.1985,-91.1040,41.0213,-12.9752,111.9372,-152.5255,-133.1721,-11.0184,-204.1012,-151.5786
-2671.8750,-71.5464,155.5884,-129.3209,154.0639,-43.2577,93.6115,-252.8502,192.1525,-177.3426,98.8303,-219.4624,68.2363,-129.4372,73.2248,-170.9022,7.4821,129.5406,321.5312,-11.4127,-66.0972
-2664.0625,28.5134,113.7214,22.1686,38.1990,71.2024,97.1097,8.6432,196.0485,-25.7721,66.8036,-105.8015,-2.5373,-88.9729,4.3365,-32.8617,-61.6282,-16.8147,-37.0221,-16.7841,-283.7324
-2656.2500,-1.1275,328.1267,-96.9659,91.0481,-48.9554,85.9586,-111.4734,258.3018,-70.8096,94.1034,-298.8104,133.0315,-61.1303,140.8232,-84.8118,3.5868,-116.8215,36.7615,-152.8063,36.0151
-2648.4375,-78.0529,180.2134,-170.3040,140.9455,-195.3228,123.6216,-293.7993,186.3523,-215.0399,22.1958,-40.0071,170.4026,-134.4857,178.1395,-233.6117,151.6128,52.0226,134.3780,-18.9843,-147.4180
-2640.6250,84.0727,377.2945,-4.5103,23.0928,-29.5642,66.3924,-18.9722,129.4930,-13.1327,-31.6154,-168.0988,76.8577,-42.7158,196.5704,-46.7215,22.7070,-207.0199,-161.9280,-208.0450,-56.7575
-2632.8125,-4.8656,287.2851,-177.7134,119.4067,-276.8047,2.1741,-303.1365,65.6419,-148.2100,88.5713,-85.2108,232.3155,-178.9300,279.0218,-250.1569,179.7863,-16.0376,99.7930,-121.0843,98.9463
-2625.0000,148.5755,193.5991,-6.4553,-20.3987,-141.5907,-47.5823,-167.8422,16.2496,-11.8112,77.1900,124.1497,109.2152,-80.6868,193.9318,-137.5069,95.3006,-108.5637,-170.0211,-108.6248,-170.9096
-2617.1875,160.8077,345.6775,-43.3249,-55.6238,-141.4953,-122.4841,-94.6514,52.7238,62.4855,186.6472,-133.6607,142.9571,-7.5636,229.7032,-63.7368,95.6328,-272.2459,-194.0018,-202.3066,121.1097
-2609.3750,-44.2038,138.4902,-141.3496,13.3870,-276.5579,-111.5233,-155.6110,-46.9393,0.6358,235.9536,24.3729,154.5571,-142.5882,241.3510,-160.8387,216.8131,-20.0364,-50.0856,84.9070,-14.9949
-2601.5625,99.2714,210.7343,47.2085,-80.0039,-89.0326,-107.9994,217.0282,-43.0438,228.3688,93.7923,-44.0348,121.6840,8.9650,135.5547,97.9948,38.5130,-227.2633,-327.6292,-122.3013,-47.5585
-2593.7500,-13.0239,238.1787,-79.9172,96.0993,-215.1906,-51.1674,-130.0087,-58.8331,-43.5800,114.9224,-96.1627,287.1064,-7.1636,155.0817,-96.6678,133.4996,-23.1798,50.1450,-199.1958,155.2265
-2585.9375,20.3500,24.2374,41.7150,23.8019,-56.5976,-4.5727,-82.2839,-158.8689,-68.7661,52.8012,135.4736,150.2745,40.4598,93.3739,-64.4945,71.2302,10.6990,-57.3027,-130.2919,-128.2358
-2578.1250,45.5706,153.0994,58.2721,-68.7248,69.9287,-61.0709,81.3963,-31.9916,95.9917,107.5713,-142.0055,55.3290,131.0130,146.5823,89.5699,-22.1719,-209.5269,-138.8718,-209.4713,71.2223
-2570.3125,-167.3954,-96.2496,-122.2769,-27.8777,-38.6547,-61.6575,-63.0264,4.7990,-10.3469,145.2401,-30.5889,92.3014,22.4726,111.7102,-29.8325,163.3201,-35.8162,69.5026,70.2887,-1.3790
-2562.5000,-13.5808,-13.8684,79.0497,-190.6361,164.6377,-154.3845,213.4370,23.4504,156.1988,90.7424,-11.3023,-0.8876,151.8080,19.6930,159.9277,-2.3666,-302.2424,-269.2814,-21.0705,-94.1345
-2554.6875,-25.3399,42.9269,-53.1119,-89.7828,-41.5503,-176.5995,-29.5778,110.6183,62.2674,142.7366,-106.5406,122.4221,56.6704,106.1972,12.4586,49.4227,-208.1631,-35.5508,39.0785,139.6626
-2546.8750,-10.0400,-118.2565,50.8802,-116.4548,-47.5886,-184.6406,0.5591,66.9490,130.4760,135.8604,107.3922,40.8885,12.6860,-10.1393,23.3469,6.3569,-85.8895,-90.6305,195.4277,-161.3758
-2539.0625,59.5605,18.8159,116.2618,-180.4752,127.7585,-230.3215,140.1062,168.6436,270.0746,164.3017,-84.3300,-5.3022,115.0703,-19.1199,167.5452,-148.4026,-261.2729,-232.3741,19.1369,12.9557
-2531.2500,-108.2670,-150.5616,-58.7136,-57.7454,-11.2480,-148.3374,-181.6988,177.0025,59.3306,27.3872,70.5847,38.1702,50.1074,26.5666,-17.7138,7.4748,-6.9713,126.5798,169.5218,20.9891
-2523.4375,30.1425,-188.7567,168.6378,-196.6132,254.0638,-180.0310,82.8235,146.6553,251.8914,-223.2427,187.8206,-103.0640,168.4608,-39.4387,183.7574,-97.3700,-147.3418,-227.1544,99.2398,-156.6800
-2515.6250,-44.3064,-124.8347,42.2148,-159.4930,126.6004,-233.5064,66.5790,165.5201,162.6619,-55.6860,-48.7705,26.9099,151.0368,53.7701,134.9329,-3.0507,-185.5097,-160.6747,60.1576,119.9020
-2507.8125,-149.0984,-337.2831,-18.4597,-172.9158,65.8805,-186.2050,116.0707,31.1514,67.1710,176.6067,184.3963,0.6508,90.3573,28.7389,75.5207,83.0097,-78.8818,-196.3866,167.8719,-125.7410
-2500.0000,-27.6017,-146.4845,67.2481,-251.9138,188.5453,-173.5346,348.9589,5.1522,264.0627,189.2259,11.9084,-61.2647,250.0443,41.0667,271.9784,-51.6132,-306.9041,-425.7612,-95.0489,-4.0210
-2492.1875,-266.9868,-282.5900,-112.8429,-63.0252,-64.5901,-23.6485,23.0659,-27.6312,122.1505,157.0364,16.6001,87.0331,69.9312,117.6183,62.2119,98.9492,-52.6994,3.1024,19.2612,108.9593
-2484.3750,-213.7509,-406.1295,27.7808,-117.7024,38.9874,41.9676,200.9008,-34.7043,264.9422,76.5239,46.0120,43.0277,137.5269,1.8724,199.6181,-18.8089,-102.7646,-118.3063,-31.6839,-118.3556
-2476.5625,-207.1735,-226.3524,-13.1693,-72.1539,34.9930,37.0030,49.1750,70.6445,151.1519,108.3877,-142.1985,73.4234,168.5427,33.5364,141.1131,-23.2034,-165.4314,63.6929,-129.2274,169.7777
-2468.7500,-243.9898,-405.9927,-43.4221,-48.8783,4.6979,79.7646,-126.8603,113.7025,48.0416,5.9371,85.2940,-31.4573,29.2568,2.9161,9.1109,20.0988,10.6498,168.4473,151.9612,-7.3493
-2460.9375,-90.3657,-253.2380,117.8598,-214.1829,128.9350,-18.9484,143.6468,273.2640,283.4464,-18.0379,-121.7041,-129.8386,116.4902,15.7942,206.7035,-113.1390,-325.7610,-134.2970,61.6638,42.0352
-2453.1250,-311.3663,-371.1193,-118.4041,-105.5342,-70.3760,-35.1804,-129.3884,367.2955,122.2963,149.4205,-101.2770,36.2466,-8.8224,74.1406,16.6752,54.0451,-157.7075,172.4585,194.8326,208.9333
-2445.3125,-234.8034,-507.4768,48.9918,-199.2764,59.9662,-52.7289,38.2428,312.9912,143.7913,95.5058,138.8157,-92.0147,120.5083,-16.8587,122.3550,-37.1355,-149.9644,-66.0969,238.6997,-65.5070
-2437.5000,-167.6062,-336.2206,37.1139,-157.7723,85.0356,-101.5536,63.6222,263.4062,170.0003,120.2722,-56.4136,4.4252,181.5560,44.8548,162.5554,-123.6493,-185.5281,-67.9473,62.2687,178.7969
-2429.6875,-268.6025,-474.1698,-23.8720,-24.3581,-123.0059,-53.4451,-144.1123,202.7414,37.0758,59.9241,139.2513,51.7912,11.4977,-52.5103,-13.1596,-0.2682,137.8505,148.1728,244.7695,44.0508
-2421.8750,-61.7598,-340.3282,158.0740,-109.9322,95.8850,-19.4091,112.0866,163.9906,220.0522,-15.5575,63.8351,-59.9418,120.3570,-164.9801,177.7171,-149.0262,-40.8588,-135.7994,31.1936,5.2174
-2414.0625,-182.3304,-322.9175,-11.3154,29.6657,-37.5629,30.3032,-95.0531,139.9177,-23.3200,33.5906,-69.9566,60.9903,23.8740,-78.7834,6.3861,-27.1673,88.0865,236.9207,90.2722,238.1001
-2406.2500,-215.4345,-533.0719,41.8482,-4.2013,52.5386,156.6005,106.3524,82.4114,-5.1617,14.2679,56.8191,-70.5153,-34.0675,-172.0278,66.6136,-83.7761,127.6214,170.2398,235.9398,-39.4469
-2398.4375,-187.6356,-402.3538,62.9937,-17.5078,73.6220,175.8777,199.7548,139.8699,126.9585,33.8642,-216.4707,-51.0717,60.9532,-115.3195,182.9008,-137.4739,-16.8963,128.5091,-14.4462,200.9942
-2390.6250,-350.8705,-531.6805,-65.8155,104.4472,-91.2570,231.2380,-110.8025,47.3954,-110.9053,52.4888,-14.7159,39.4472,-30.9856,-60.5524,-38.2594,63.8686,244.6734,354.8994,72.2497,145.5458
-2382.8125,-147.1756,-401.1135,154.4022,-19.1396,127.8788,192.6364,108.6732,8.9388,0.2268,14.0882,-15.9465,-36.0342,115.0778,-97.7915,116.3871,-47.8209,28.2600,-38.6918,-144.0282,34.1087
-2375.0000,-227.2991,-272.3661,22.8800,49.4461,-3.7181,134.3148,-132.5815,60.7606,-57.3976,-45.0894,-147.9521,87.7527,94.4032,27.2310,12.9907,39.7063,22.0962,201.0022,-116.0665,342.9903
-2367.1875,-299.9539,-488.1728,69.9128,29.3493,44.2314,144.5846,-157.3074,-1.8554,-8.5086,-107.7572,156.6127,60.1113,68.2655,-35.1860,10.0274,-23.2275,128.5271,164.3056,60.4757,96.4554
-2359.3750,-164.8565,-284.2560,171.7851,-6.9144,182.0116,98.6844,53.8025,-11.6560,57.1767,-80.6549,0.9785,86.2765,169.9372,-44.7967,140.1569,-180.4036,-49.2461,20.4095,-117.1862,233.7539
-2351.5625,-308.0864,-394.6644,25.4054,169.1501,-74.4729,134.5700,-202.3479,-48.6896,-236.4306,-80.8235,148.0813,231.2236,-13.6504,-44.6345,-110.2733,-33.8395,267.7587,336.3264,94.9182,233.8727
-2343.7500,-137.8276,-366.6184,215.5922,60.3999,78.6033,140.0450,98.0708,-42.1691,-117.5143,-148.4723,189.7512,89.7328,-7.6915,-148.9195,28.9492,-174.7514,124.3380,16.8282,92.5998,19.5569
-2335.9375,-190.0695,-210.0838,116.3490,120.3448,-20.7438,77.1025,-0.9376,77.9175,-107.0634,-139.5935,-20.0538,172.8089,-71.1704,-65.6437,-15.8890,-166.1466,111.4605,212.9138,44.8191,286.8538
-2328.1250,-244.6363,-372.8982,109.8629,141.3559,-27.3279,106.9457,-43.1876,69.7726,-111.8971,-219.9889,192.9033,90.6513,-150.8896,-145.6008,-57.7596,-135.8068,305.3489,230.7926,237.8023,22.9276
-2320.3125,-70.5719,-236.0898,219.0921,1.8923,154.8095,67.5260,212.2826,104.3547,70.9416,-111.7082,8.5546,-21.7927,-41.9105,-146.8518,124.1542,-248.7925,25.9364,-48.5867,64.4857,94.7564
-2312.5000,-257.4374,-390.2183,22.4700,113.6774,-40.9067,91.3043,-57.1059,55.1087,-89.1037,-15.3185,31.3683,110.9303,-165.7925,-49.9480,-66.3638,-42.6472,229.7041,258.2545,197.3352,191.7815
-2304.6875,-163.7508,-438.8187,170.4832,27.0914,106.9949,128.7258,128.1216,-18.5208,-12.5748,-161.3754,178.7854,-0.7384,-54.0646,-86.4486,58.7313,-152.9373,151.0781,3.7210,154.7871,-27.5558
-2296.8750,-151.8721,-254.2320,173.7568,75.5172,109.1430,94.4356,20.5933,21.1145,-46.8403,-234.2081,-2.5572,37.8769,21.9092,-84.6862,55.2715,-151.9988,131.7147,88.4881,-5.5100,268.4199
-2289.0625,-253.5042,-428.1698,116.5920,110.7261,51.8463,73.7319,-182.3939,1.3126,-139.5962,-217.5230,233.6613,16.0668,2.4340,-214.3589,-48.4786,-98.5298,350.9248,236.8495,178.7501,64.9760
-2281.2500,-27.1926,-310.1547,281.4570,-45.7081,253.5727,17.0677,91.6234,18.5297,62.6127,-200.8757,140.8782,-77.7234,165.9656,-197.0257,164.2602,-303.0928,52.1355,-61.7593,-49.0093,82.5881
-2273.4375,-138.8476,-318.1031,88.4234,103.3597,24.3944,81.5429,-174.2832,-29.1386,-131.1271,-102.1592,94.2048,57.6215,-27.4205,-60.5912,-62.7108,-130.5651,226.4753,251.7946,20.3361,256.3561
-2265.6250,-102.1945,-424.7647,215.7549,60.0468,77.5743,134.4061,26.1760,-159.4522,-76.5500,-196.1175,220.8816,-0.6685,-11.4608,-80.7991,18.3114,-151.7093,232.1692,79.7189,24.0326,-20.4870
-2257.8125,-113.7414,-227.6285,195.9441,59.4290,94.5976,115.1584,80.4932,-69.9030,-96.1605,-144.2587,-19.6061,15.9189,43.3367,9.8590,57.8745,-173.0246,84.7259,108.5452,-122.4298,253.5861
-2250.0000,-264.6498,-380.8578,10.8406,153.1146,-54.6865,185.6614,-141.4983,-71.6489,-208.1180,-110.7333,160.6187,12.2341,-106.1862,-29.7789,-106.0726,-65.6572,324.0154,382.1295,116.8182,141.3949
-2242.1875,-100.6992,-289.2263,189.6602,5.5252,160.9454,144.1043,184.4279,-3.4820,44.7803,-190.3444,81.7376,-104.5296,-0.8219,-71.5121,124.0122,-219.4212,70.2054,21.6478,4.9581,63.1513
-2234.3750,-233.7587,-248.5917,8.5305,135.1039,-20.3869,109.6462,-33.6084,107.7564,-63.3230,-152.9412,-63.0944,43.7908,-109.4424,3.8102,-18.1005,-108.1421,223.4649,280.2809,87.1512,286.0142
-2226.5625,-261.5105,-454.6528,69.7736,70.2755,3.6386,133.5864,101.7056,58.3577,-38.1152,-202.2368,108.4336,-44.5206,-48.7185,-82.5240,49.2001,-84.5355,270.0844,114.3090,202.6944,-19.7403
-2218.7500,-142.9009,-267.3440,78.4248,8.3836,123.0689,104.9764,219.4092,103.3843,6.4385,-196.1722,-141.6540,-73.4087,69.4047,-37.4521,153.5435,-151.5538,42.1043,26.7920,10.6323,208.9658
-2210.9375,-348.4972,-440.2426,-131.0735,113.8410,-49.6614,152.2666,-25.0557,77.2867,-203.2244,-112.2817,-56.8836,9.5777,-66.6420,46.4842,-48.4774,41.2576,262.9885,317.1904,195.4350,183.5599
-2203.1250,-215.5922,-380.6354,90.9920,-27.0152,172.1763,154.1481,233.0388,40.7631,-54.3683,-74.8628,-19.5643,-99.8705,7.8543,9.9794,110.0637,-105.4021,12.4056,32.1663,15.7818,38.7479
-2195.3125,-287.3506,-243.6721,-28.5471,104.5169,15.4021,182.4760,3.5205,68.6681,-211.1698,-50.0800,-176.8524,36.1175,-75.2708,110.8887,-42.3703,-6.6697,87.2366,280.6119,-50.4726,323.3963
-2187.5000,-269.2497,-368.8502,5.8250,118.9537,-23.4728,215.7507,-72.1037,-44.5098,-250.1180,-53.4369,39.7680,31.0309,-78.5021,70.6932,-94.8092,-10.0557,213.9763,268.0011,111.1659,63.9747
-2179.6875,-69.0251,-134.8858,140.3544,44.9192,110.8097,166.2152,136.4122,-57.5163,-152.9715,-31.6675,-119.4792,-18.8797,18.4107,95.6589,38.6277,-135.3165,-2.1350,51.5777,-105.0775,198.7604
-2171.8750,-225.2469,-188.3515,-18.5160,232.0652,-86.3113,264.3244,-170.4853,-70.9240,-460.3032,-119.3404,50.8878,114.8447,-105.0895,119.2409,-201.3646,-38.9893,268.3779,426.8105,25.2688,223.1888
-2164.0625,-112.6992,-219.0339,186.4361,122.6539,119.3824,286.2702,34.4221,-49.5254,-291.8758,-283.2630,145.0653,-12.6110,-10.7955,-7.3723,-34.6480,-165.8732,138.6810,191.8661,-34.6034,-11.5404
-2156.2500,-111.5427,-43.0922,70.0390,189.1535,39.7157,242.8967,-45.0450,17.5347,-298.8535,-254.5562,-82.1066,90.6201,-126.8715,96.6748,-101.8556,-137.1201,110.6411,338.6377,-132.8387,276.4435
-2148.4375,-136.6637,-212.4299,20.4097,204.8029,-10.1981,231.3180,-166.7849,-68.6375,-348.1468,-268.1296,125.4898,113.6213,-213.2077,83.4651,-202.9220,-40.6386,265.3582,352.2074,20.6701,44.2077
-2140.6250,45.3408,-31.6206,138.9408,53.4535,181.0489,128.9263,133.6174,-61.6381,-120.3443,-225.5867,-123.7754,46.7936,-22.4002,54.4148,33.7639,-145.0273,-39.7847,11.9695,-143.6984,126.1755
-2132.8125,-219.7479,-87.8851,-138.5930,172.2212,14.2315,109.5394,-107.0556,-8.6689,-251.6563,-64.1250,-182.0925,171.9427,-117.6661,107.3297,-125.1507,53.5281,158.0353,314.7474,53.8898,253.1372
-2125.0000,-219.0718,-195.3643,-11.3193,61.1261,140.2180,126.0031,204.0791,-29.8844,-88.2186,-85.8984,-56.6080,3.9070,-64.1409,13.0441,48.8320,-78.1416,91.6524,73.3607,128.2645,-23.0696
-2117.1875,-207.2827,-79.6941,-40.9011,88.5727,110.3457,132.6622,210.3469,-22.9323,-82.6943,-81.5503,-196.9803,83.0508,-58.4798,165.9105,55.9751,-111.6712,4.4163,126.1813,-30.2288,240.9341
-2109.3750,-296.4221,-276.9402,-47.3846,146.5317,-7.4393,199.4669,-16.3064,-103.8699,-238.1300,-54.1378,88.7642,111.3133,-102.7363,121.8759,-93.0050,-46.1060,200.2942,253.1510,131.3730,51.0677
-2101.5625,-70.7743,-123.3748,157.9364,6.2766,198.5767,149.1118,262.8401,-117.9950,-31.8120,-142.9581,37.3050,22.4012,65.8033,33.6465,123.2471,-172.7542,-61.0407,-114.0533,-59.2572,1.0484
-2093.7500,-127.0077,-40.6651,-14.5982,142.1730,-47.2705,122.9481,-19.8972,-70.9566,-206.4202,-245.6518,11.0056,105.6703,-33.5290,81.5739,-62.5302,-16.2519,133.7812,186.9566,29.2533,196.2274
-2085.9375,-33.2649,-89.9594,99.8795,106.3538,29.8871,91.8206,57.3684,-139.9021,-239.0868,-316.3811,198.7150,35.9581,-30.8804,11.5032,-54.3959,-51.7570,198.5892,-30.0046,57.7523,-55.5660
-2078.1250,78.3036,159.6148,136.2074,72.9806,65.8838,-55.4131,56.4712,-104.9857,-204.9620,-172.2996,13.2645,107.1303,4.5992,10.2959,-36.6639,-90.4189,33.2418,-89.0679,-142.9287,201.5446
-2070.3125,-54.2415,-9.9027,7.4381,125.2102,-101.2357,-36.7047,-220.5520,-124.1787,-299.0089,-83.3504,176.7374,123.2282,-89.0493,26.9973,-201.6700,71.8120,221.8155,134.8210,46.2721,109.5806
-2062.5000,117.0682,54.4611,158.5375,-21.6186,87.4984,-32.0997,152.2720,-119.5262,-74.2697,-117.5974,108.0579,17.2031,25.1405,-5.4412,32.3527,-108.1355,-58.7682,-180.4123,-24.7131,5.5041
-2054.6875,-19.7856,90.6891,-62.5237,104.6836,-60.9313,78.3995,39.9141,-48.0267,-150.7687,-121.0269,-77.7718,89.0644,-86.8330,103.9821,-57.9295,-38.2238,20.5110,144.2631,54.1284,225.3240
-2046.8750,-71.9497,-103.3722,-24.8784,76.0452,-23.6615,153.6411,151.2492,-84.8320,-113.6308,-195.7854,106.1201,15.6374,-87.1136,-5.8917,-8.1036,-39.6265,79.4813,99.6687,218.6549,-66.1348
-2039.0625,-20.8231,85.8979,-11.9365,-1.9100,61.9018,92.2231,273.8676,74.6750,-29.2582,-186.2782,-175.6951,-9.4609,-38.1073,6.5395,87.7097,-65.7412,-181.2583,14.4255,63.4503,130.7559
-2031.2500,-217.9128,-6.0140,-249.2027,115.8068,-137.7418,150.6480,-36.7547,167.9973,-305.1629,-94.0096,-45.7024,82.2730,-165.3337,25.7789,-153.7164,135.9401,14.8087,316.0462,187.0345,115.4718
-2023.4375,-60.9029,-26.7981,-36.3594,-40.5126,74.7292,144.2108,175.7148,197.4299,-93.0229,-140.6838,-17.6107,-72.8777,9.5290,-18.8746,51.3791,16.7134,-175.0410,-13.2107,-3.3119,-37.6813
-2015.6250,-114.8584,92.4959,-174.4798,26.7757,-64.7617,116.8568,-73.8005,168.9190,-160.9146,-25.3387,-120.4733,45.0565,53.4277,99.5372,-47.6575,133.5410,-153.8347,148.6418,-87.6349,265.2654
-2007.8125,-151.9167,-52.2789,-123.6976,34.8123,-87.3598,94.4407,-170.4384,34.3078,-221.9631,22.8619,149.5727,20.9153,-7.7900,75.8540,-136.3817,181.2595,24.2768,82.4347,19.9184,23.1277
-2000.0000,14.3353,183.3062,12.3814,-20.9100,48.3371,11.3531,39.1915,-12.9900,-87.7585,9.3326,-45.0926,10.1092,55.2705,64.4746,-0.8901,59.2645,-155.3289,-131.4440,-195.2745,160.3343
-1992.1875,-133.5719,103.7787,-177.7031,113.0658,-179.1470,6.1558,-261.3749,-18.4390,-279.7875,38.6408,22.1012,113.1856,-98.8464,95.9582,-218.8445,161.1313,88.9206,218.5849,-21.6413,229.4203
-1984.3750,41.4820,66.2526,21.1717,4.2805,-17.6769,-15.0548,-62.9990,-41.9427,-118.9418,-23.1312,109.2508,17.2371,-12.0248,-0.6025,-71.6286,-10.0539,-12.9004,-58.4195,-88.0964,-11.5223
-1976.5625,49.0329,248.2790,-87.4549,80.7326,-52.7173,-12.7330,-172.1566,33.0567,-119.6700,-24.4401,-110.1003,127.8219,-10.7214,74.3473,-100.6669,-9.7399,-34.2298,61.1156,-253.0850,248.0832
-1968.7500,-69.8620,92.8832,-85.5380,165.3924,-125.2191,63.1663,-318.7988,-39.3953,-304.9067,-209.2168,111.1163,127.9781,-47.8826,74.8535,-218.4435,99.1351,202.9881,195.2230,-85.5408,30.2585
-1960.9375,181.9595,308.2466,106.0701,44.1154,65.9655,-1.2133,-126.7507,-30.1473,-150.4918,-203.3158,8.0259,62.8613,69.6397,9.0797,-65.8546,-40.2836,-67.1202,-144.9641,-321.3336,77.1739
-1953.1250,112.6849,272.5535,-77.4382,120.1952,-117.9748,-36.6726,-458.8390,4.9964,-264.2436,-59.5397,7.8482,171.6795,-77.9694,83.2225,-272.9854,104.2127,44.6779,142.7900,-210.2453,225.0211
-1945.3125,192.0181,174.5197,58.6546,6.6936,17.6776,-9.5019,-249.3503,-6.2541,-166.4438,-146.1855,143.2783,14.1159,-16.9915,34.9810,-148.8320,54.3086,-47.9492,-17.8356,-197.6004,-41.5173
-1937.5000,145.1061,303.3003,4.4803,28.0543,37.0630,48.4535,-194.1442,87.2596,-185.9671,-130.0972,-94.5511,69.3296,38.7178,126.5141,-103.5178,35.1559,-193.8453,82.3403,-345.2502,199.7360
-1929.6875,-48.1007,72.8278,-110.0116,96.7542,-78.8574,154.1462,-346.2715,44.4713,-303.8670,-63.3434,119.3326,27.2625,-41.8912,48.7755,-219.5485,101.7053,39.9593,282.2577,-112.2281,12.6993
-1921.8750,119.6679,98.3734,71.4502,-64.8312,103.1690,117.8127,19.5360,6.6374,-50.8668,-31.6705,44.1595,-84.8445,66.4268,11.0021,15.4641,-11.8007,-210.3076,-71.8565,-222.2953,-60.3601
-1914.0625,32.8902,151.4309,-56.6590,79.0448,-136.3784,136.9544,-183.2500,-11.7362,-218.4822,21.4365,-47.5602,5.5266,-25.8406,101.6848,-143.3816,114.1560,-9.1297,199.5248,-162.9353,106.0553
-1906.2500,154.5426,130.9622,48.6292,25.3625,-67.5350,97.5198,-5.6532,-90.7042,-224.7515,-60.0798,130.1269,-72.6866,-32.7132,23.7616,-103.1096,71.5143,9.4230,-60.6844,-39.2139,-154.1252
-1898.4375,268.9240,385.2781,14.6059,8.2527,-65.0015,63.7992,69.6064,-50.9638,-188.3896,-22.9193,-124.4951,-33.1733,6.1053,99.5512,-58.0700,34.5818,-186.3419,-150.1658,-165.8380,107.4312
-1890.6250,135.4707,180.8045,-190.2787,71.8875,-307.3387,118.2500,-172.0281,-0.0725,-285.9448,25.3699,0.0516,18.5131,-199.9417,115.4929,-251.8718,232.8177,-33.9643,144.5289,91.6641,51.1474
-1882.8125,222.9002,266.2555,20.6870,-89.7998,-97.8271,72.5640,185.1742,63.6657,-4.6850,13.5004,-46.5519,-138.9392,-101.1381,-4.7169,-1.8946,73.9040,-293.7620,-149.9301,-29.0293,-67.2697
-1875.0000,76.3456,330.7759,-137.3667,-28.6906,-182.3437,26.8972,26.3364,162.3964,-91.4862,145.6147,-242.1559,-76.3573,-149.3493,57.0831,-90.6691,171.0021,-258.5594,97.6465,5.2542,180.3361
-1867.1875,90.9215,133.4772,-105.3260,-54.2745,-113.7705,23.3481,57.5842,195.2145,-99.2406,28.8050,10.3539,-154.6505,-192.4720,15.9804,-94.4913,129.2079,-135.2739,48.3259,163.6049,-115.9639
-1859.3750,257.2347,368.9703,-8.6028,-77.7309,-17.5038,-25.4809,190.5102,218.7312,-4.3393,-59.3199,-149.4492,-94.2152,-94.9139,39.5751,17.2162,3.1183,-315.3151,-95.2845,-88.3868,56.4635
-1851.5625,108.4221,290.3848,-195.0544,85.8730,-240.4123,46.5595,-106.7621,142.0812,-230.6498,-29.6161,-7.3838,49.0992,-210.5275,73.0218,-206.4988,181.9039,-37.5044,182.9858,12.4510,54.7487
-1843.7500,267.2582,307.4850,-16.9031,-41.8708,-62.7257,43.2234,180.5493,26.0186,-55.4087,-37.3435,61.2781,-66.9800,-69.5459,68.0753,-17.7728,28.2892,-191.1165,-215.1390,-106.1532,-132.3623
-1835.9375,253.2247,432.7635,-112.6710,51.4710,-195.9618,22.0109,10.9267,-32.9402,-154.1288,11.0155,-71.9737,57.0597,-93.4748,155.2331,-120.7177,113.7878,-129.6389,-82.1255,-151.6823,140.6458
-1828.1250,198.5673,201.4665,-80.1093,71.3086,-237.8560,56.1658,-31.3617,-148.5504,-234.5478,-70.2852,180.1291,16.4668,-136.0647,114.7400,-179.6005,144.6373,66.1719,-60.7415,42.1190,-119.0059
-1820.3125,354.9898,323.3197,47.4864,-44.8377,-74.6996,1.3846,205.3776,-131.1111,-0.9555,-56.5437,13.2605,-77.0467,-9.6141,94.3045,24.9794,13.5358,-158.9964,-249.2968,-148.0876,-26.5909
-1812.5000,182.5814,220.4015,-168.7966,61.9172,-217.4128,43.7685,-48.7793,-89.5355,-109.2786,55.3283,16.5545,0.6253,-116.0351,62.0290,-126.2942,125.6058,22.9801,76.3312,-2.1775,52.9772
-1804.6875,232.0236,198.3747,6.7193,-60.6536,-5.3179,37.9522,125.8495,-62.1726,26.1546,44.9786,81.6579,-117.8823,-15.6534,-93.4436,18.5949,6.4754,-134.2702,-150.2556,-20.5109,-173.6597
-1796.8750,194.7067,371.6373,-76.5867,4.7106,-16.0429,28.3331,4.6441,37.3838,-23.2634,-5.1810,-149.0381,18.8327,45.9232,-65.7028,-1.4646,30.5674,-201.3365,-5.6329,-158.6763,111.9228
-1789.0625,128.6316,235.1791,-133.7067,70.7608,-109.5874,47.9181,-163.3874,-17.8779,-120.5191,-64.1452,88.4861,36.7626,-47.3123,-196.7677,-125.1869,120.8748,16.7873,145.1898,23.3364,-89.3067
-1781.2500,295.4525,401.6725,81.0105,-16.8778,104.7081,-29.6460,124.4305,-61.3066,54.0406,-73.2651,-65.1567,-6.4373,55.2926,-237.9791,66.3260,-33.9537,-163.2683,-174.1475,-191.8380,-56.6748
-1773.4375,124.1478,370.1073,-63.4513,133.4418,-114.1723,9.6386,-168.9334,-58.8993,-167.5948,35.4632,-63.9438,106.2395,-90.2701,-200.3338,-153.3940,113.0891,55.5178,152.3751,-80.1781,93.8127
-1765.6250,173.8454,244.5780,78.0239,46.1227,-10.1044,6.8680,-65.3468,-101.5515,-66.2994,-8.8655,77.2256,-46.1297,-23.8834,-279.7423,-63.2138,106.0855,75.2272,-38.1766,-62.5941,-166.7599
-1757.8125,214.9923,355.5533,75.8764,27.9238,24.3485,-29.5112,-66.3919,-65.8157,39.3537,23.1977,-144.2118,-11.0740,9.9014,-169.7453,-11.2868,29.5035,-54.6870,-60.3249,-193.6584,91.0851
-1750.0000,76.9872,182.4208,-58.4845,124.7343,-147.4077,-52.0864,-201.6784,-128.3019,-98.2321,70.0517,14.1691,112.7965,-162.5249,-157.9528,-177.2998,151.7336,197.1936,87.3249,22.0443,-41.2825
-1742.1875,218.5855,323.9469,96.7023,14.8630,81.3805,-79.1135,98.5633,-120.2491,90.7180,-71.5450,-51.9090,10.2235,-8.3960,-186.6147,43.1322,-26.4853,-9.4097,-256.4851,-150.7497,-105.0987
-1734.3750,48.8070,401.1545,-86.5427,167.0533,-139.2585,-39.5265,-195.6420,-119.5985,-95.7777,-37.5478,-124.3829,157.2736,-45.6757,-38.6685,-131.2590,82.9220,141.5726,35.3320,-140.9666,117.6866
-1726.5625,87.1301,227.5035,-31.7445,87.9925,-84.8528,17.1180,-178.8108,-174.9140,-44.2576,15.4813,41.2036,30.3870,-27.9070,-56.6771,-112.5433,100.3886,147.5842,-131.8146,-66.1658,-155.5022
-1718.7500,358.5142,463.9674,-12.9655,44.0376,-65.4645,-35.2436,-123.0009,-118.2429,-28.7703,-5.4880,-87.2158,49.5202,26.8442,36.3158,-74.2032,7.8678,-68.4278,-170.9645,-319.3998,86.3135
-1710.9375,372.2466,512.8298,-138.9109,196.3261,-266.7985,22.6898,-435.9246,-209.2829,-305.0153,-62.1407,152.6690,142.9598,-102.1225,19.6013,-324.4898,99.6627,157.8524,163.1931,-198.3412,34.4043
-1703.1250,567.4500,708.2164,112.5333,93.2494,-51.7363,20.0124,-147.4474,-251.9316,-203.8804,-142.4156,147.9491,28.8044,3.3157,-95.7104,-157.9035,-53.1314,-65.5052,-93.2767,-316.9191,-152.1242
-1695.3125,423.7633,810.7661,-43.9995,190.6117,-133.6441,12.3755,-340.9505,-186.5404,-325.7336,-81.6590,28.2735,166.7176,-44.2071,-30.9670,-272.4392,10.1464,-29.8292,155.3109,-318.4650,61.3909
-1687.5000,367.6147,579.8802,-11.0955,126.9074,-66.1080,46.1647,-348.0275,-191.7146,-298.1514,-88.4439,281.0750,52.0820,-49.2881,-108.7974,-266.8074,3.8793,23.2742,105.3190,-126.5922,-235.6797
-1679.6875,474.3100,686.8864,59.5414,8.8466,78.1611,-27.3248,-93.3892,-121.1465,-82.8431,16.5425,57.6232,-23.7908,57.3858,-147.8899,-67.5351,-109.6321,-218.9082,-29.9449,-299.0202,-89.0062
-1671.8750,269.1309,481.0729,-152.7923,116.0433,-97.5444,19.2133,-342.7579,-112.5481,-188.5106,96.5812,103.2412,22.3984,-81.9007,-101.9410,-229.9467,7.9276,35.9557,297.8353,-80.4312,-78.3090
-1664.0625,280.5446,387.8997,55.3628,-23.2779,110.2431,8.2338,-62.6389,-125.4751,16.3231,81.1063,126.3578,-136.9061,14.3094,-151.4952,-30.1277,-80.0006,-89.7075,-2.9267,-137.3871,-273.1410
-1656.2500,183.4671,467.2810,-57.0684,35.0568,-2.5511,8.6913,-175.1218,-53.9760,11.5617,187.0746,-59.0589,-27.7414,-62.0471,-42.5970,-95.8041,-8.4489,-113.9125,115.7752,-197.9017,21.4485
-1648.4375,93.8281,237.1318,-64.1471,57.5698,-83.9879,40.4844,-295.2480,-98.1393,-35.8499,103.3873,227.8750,1.7647,-107.0422,-86.3623,-173.4706,56.4553,45.1847,171.7724,-75.1080,-204.6495
-1640.6250,297.7423,406.6027,111.2289,-63.7955,127.0428,-40.2434,-120.9183,-33.8090,135.2271,-18.7674,72.2854,-80.2161,67.4501,-58.6274,11.6767,-101.1078,-205.2353,-111.7228,-256.8435,-101.2448
-1632.8125,130.3681,309.8216,-65.7638,52.3975,-86.2938,-68.3364,-370.9595,11.1482,-44.0562,-14.2591,116.3680,38.4569,-36.4199,-13.2509,-167.4600,52.9990,16.9851,182.4052,-70.9425,-18.2474
-1625.0000,181.5281,255.6290,112.6796,-49.2820,54.8155,-72.0064,-48.5545,-32.4591,57.1188,87.6950,183.8774,-77.4117,-43.8314,-129.4169,-38.3892,-64.4383,-70.3878,-150.0639,16.3549,-279.8108
-1617.1875,177.0884,428.8897,-49.5689,-34.4822,3.2351,-85.3477,10.1540,63.2603,38.6184,181.0067,-125.2523,-16.9159,-58.9114,3.7693,-31.4390,-42.4859,-212.4034,-79.1772,-22.0038,1.9513
-1609.3750,55.2344,166.7625,-202.3176,10.1483,-113.8353,-15.2127,-107.6226,57.4550,-80.3798,99.8368,53.1274,-21.9343,-139.4835,71.4328,-142.0122,97.9701,-14.9547,50.1487,209.1075,-185.8365
-1601.5625,135.8450,283.1586,-43.6957,-113.4201,81.4714,-38.7009,160.9716,143.0380,185.0129,-37.9039,-82.1124,-83.5423,18.3433,120.4946,96.2719,-38.1530,-285.1338,-253.1351,-26.4173,-172.2232
-1593.7500,-48.1940,275.9369,-203.8008,35.9276,-79.9381,-50.9111,-149.1639,202.9001,20.7087,18.6638,-96.0270,87.1462,-69.5320,143.8449,-84.5583,57.0512,-80.0183,59.8625,1.3558,-0.3658
-1585.9375,45.8450,194.8353,-19.9098,-63.2166,31.6671,-84.1526,-74.2864,130.7483,19.4318,-18.7669,126.0408,-58.1733,78.6141,35.1908,-11.0189,21.2589,-88.9515,-124.1960,-9.9121,-254.5345
-1578.1250,112.7789,368.6805,4.7877,-107.1425,55.0974,-167.5736,-51.6080,154.4237,76.9947,113.6772,-107.0443,-32.6366,138.6080,59.3848,36.6447,7.3540,-266.0321,-123.3992,-188.3302,-7.8774
-1570.3125,-46.4576,139.3731,-117.7706,-19.3824,-67.7093,-105.2726,-212.1711,104.8287,-48.6788,208.8801,28.6279,29.6312,-58.6355,84.3098,-131.7496,142.2081,-37.3922,73.0892,4.9845,-128.5316
-1562.5000,87.6239,239.4337,63.8921,-163.0007,151.7239,-141.7545,116.5019,66.4748,166.9094,168.3426,-10.4771,-81.8431,49.3802,46.4846,83.5743,29.3288,-288.5365,-247.2031,-142.4720,-201.9399
-1554.6875,-49.2881,244.5200,-87.5262,-78.5365,-36.9129,-143.3150,-109.8987,62.0477,86.4471,309.7786,-124.6115,-11.3704,7.3378,153.6064,-36.2933,171.4290,-175.7322,7.4293,-102.9700,16.5474
-1546.8750,-51.2116,32.6170,-38.0472,-136.3160,12.3589,-93.0160,12.6215,38.5021,132.9182,283.1279,73.1447,-145.0118,20.2160,56.6218,23.3118,184.4326,-106.0752,-96.1109,2.3986,-263.0999
-1539.0625,52.9743,207.8704,-11.5605,-138.8291,112.6461,-101.7014,148.1504,101.9870,119.4349,234.5448,-158.0515,-117.5953,83.1413,83.6870,99.7833,99.5195,-246.3707,-165.6079,-176.1856,-50.7146
-1531.2500,-92.7619,63.2179,-160.0787,26.4241,-74.0636,-27.4202,-148.3127,63.4428,-143.0218,156.9662,-49.2250,-8.1927,-66.9221,155.7343,-134.5027,244.6145,66.3127,114.8315,-3.7832,-87.3957
-1523.4375,51.1335,102.2380,33.9337,-67.6286,83.7729,-52.6340,118.7722,36.4320,85.0933,17.9559,-38.8715,-70.2381,16.5772,93.3299,57.2622,71.2723,-70.4898,-196.2182,-106.8657,-222.5391
-1515.6250,-16.0630,212.1874,-85.2381,45.9905,-72.5627,-59.0278,-148.3286,101.2472,37.0591,43.8148,-192.6515,68.5722,-29.0752,158.7583,-58.7514,98.8088,4.5688,20.5666,-104.0891,65.1121
-1507.8125,13.5803,66.9895,-3.6571,37.0428,-64.1297,-49.7162,-215.6582,35.7977,78.8180,50.4376,72.3133,4.1161,-58.9576,19.9170,-82.6021,-3.9093,140.3351,-16.9726,31.4088,-219.5371
-1500.0000,155.3841,244.9971,138.9865,-60.2671,78.3820,-89.3479,-36.9218,68.4356,218.6889,80.1891,-152.6326,-73.2353,47.2634,16.1696,67.4246,-82.4990,-103.8071,-189.4274,-215.0028,-75.1044
-1492.1875,-20.3434,106.4910,-43.9804,43.3289,-105.7085,-87.6166,-330.7917,68.4487,-41.0153,115.3612,-42.1549,38.8054,-27.1047,90.7996,-145.0023,138.3272,109.4355,95.4612,-73.0186,-36.3454
-1484.3750,169.8560,121.9613,126.8907,-97.9811,102.0551,-136.0825,-87.8074,-18.7108,53.1632,63.3992,93.1521,-83.3028,70.4025,41.2704,-8.5784,52.0022,-52.5044,-239.8570,-165.2200,-231.7583
-1476.5625,105.9577,305.3635,10.5750,-43.2505,-14.3555,-175.7403,-132.0047,12.9513,82.1934,130.3096,-133.6747,22.4456,-9.2359,146.5761,-45.9729,82.5512,-115.5810,-89.3447,-193.5569,58.6310
-1468.7500,-56.4473,39.2616,-37.3367,1.4320,-99.3538,-112.0434,-106.7733,-35.0134,-5.3327,116.6252,39.9006,-24.4181,-94.4525,99.2638,-94.3026,144.5019,110.7009,31.4885,65.4887,-171.6422
-1460.9375,132.4712,158.5138,120.9708,-98.9809,95.8797,-136.1387,198.6870,-23.7433,150.4055,90.2122,-132.2838,-123.0211,63.5876,74.1948,122.1207,-27.2763,-87.7802,-235.4577,-134.2302,-121.6823
-1453.1250,41.9169,104.2860,-89.2831,22.0146,-151.4434,-123.8312,-123.4077,-13.0542,-25.3752,172.2670,-83.9897,-1.1918,-36.9153,122.5490,-86.3345,93.4157,104.1880,62.9907,20.5104,0.6517
-1445.3125,131.4017,19.1222,53.4046,-82.2524,-8.8082,-127.6224,18.4691,-91.4356,151.8487,92.2929,59.2317,-78.4275,-4.4428,81.8406,22.2286,51.0535,18.0658,-162.6810,4.1789,-260.0992
-1437.5000,43.8321,214.9381,22.9510,-49.8165,34.6982,-118.5502,24.2116,-47.9360,192.9837,61.2457,-191.6489,40.2457,1.9262,163.0283,50.1147,58.6192,-140.1435,-107.4595,-119.2395,6.0040
-1429.6875,-91.8565,45.6423,-75.7011,35.5885,-100.9811,-68.7232,-112.2176,-73.6671,-19.0416,34.0217,5.2761,89.7076,-59.8849,137.9921,-89.5014,143.9853,76.4220,40.4826,96.1322,-128.1664
-1421.8750,90.2811,229.2005,41.3760,-111.1447,89.0774,-135.1955,188.0937,-30.6706,168.7054,112.5758,-99.0700,-50.0764,56.0669,70.6938,109.3822,-33.8828,-198.2776,-267.8621,-74.7596,-120.6102
-1414.0625,-50.2613,125.0722,-186.3130,-44.7085,-139.6212,-140.4631,-41.3609,35.5541,121.7310,287.3975,-179.1476,53.3781,-61.7288,137.6338,-31.9243,142.5194,-92.7213,-20.9996,29.6101,57.1185
-1406.2500,-69.9700,-69.2045,-85.2542,-153.4699,-37.5557,-148.0326,132.9563,-10.4833,258.5689,203.9926,33.5024,-63.4390,3.2495,56.3133,88.7997,133.6736,-111.4574,-250.4607,114.7082,-207.4517
-1398.4375,-27.5258,45.6880,-53.1337,-177.4241,68.5880,-224.5444,238.3479,22.5615,288.5341,197.7258,-154.7521,6.8358,146.3273,89.0842,194.7632,55.9514,-245.0813,-311.8380,-55.0750,47.0348
-1390.6250,-148.3030,-109.6515,-176.3060,-67.6463,-90.5489,-198.4007,-32.5327,9.2795,53.2532,184.1644,54.7104,68.7811,60.1303,114.5254,-3.4957,153.9236,19.9780,-44.5913,138.8469,-37.8625
-1382.8125,75.7935,9.9039,25.3101,-174.0825,110.1152,-218.5092,204.3843,26.7828,252.8127,15.4332,34.9479,-23.4835,150.7480,57.7565,176.1580,-13.2938,-178.1905,-347.5878,9.5520,-129.9853
-1375.0000,-81.0092,66.5617,-222.0486,-66.8563,-64.1874,-169.6187,-6.6677,36.3154,113.4576,134.7914,-101.7455,97.2853,86.4203,179.0211,35.4008,107.5657,-122.2964,-44.5751,-6.6687,101.8709
-1367.1875,-113.3264,-105.2949,-208.0071,-116.5820,-13.0736,-117.3860,43.7135,-22.7713,162.5673,221.5790,60.9506,2.4310,101.5301,83.6665,68.3096,48.8221,-86.0426,-113.2494,134.4896,-176.9269
-1359.3750,-31.1445,119.3722,-169.5497,-155.6449,99.4719,-113.7536,191.5206,-21.4234,309.1505,221.8617,-193.9100,-30.9739,176.1003,122.7539,197.9227,-23.4478,-285.3368,-240.5010,-65.8952,46.6937
-1351.5625,-193.9411,-41.9568,-375.1456,-28.2381,-144.0279,-63.2223,-51.7076,-44.1566,137.7462,235.1311,-68.8048,57.5426,6.6381,137.7669,-4.1456,138.2430,-26.6927,89.1228,156.6786,25.1817
-1343.7500,15.1812,-42.3522,-150.8991,-157.9128,45.3226,-56.8933,209.9285,-39.0524,325.2586,128.2749,-25.8731,-83.1053,49.0430,69.6240,161.5933,-40.2102,-205.2300,-229.4655,118.0876,-152.5058
-1335.9375,3.5065,17.4498,-212.5279,-75.5345,-91.1983,-80.4584,109.6958,8.1787,297.9468,211.5867,-160.7718,39.3869,-50.3953,117.6178,83.7553,8.5122,-147.6048,-99.9335,103.6763,116.8967
-1328.1250,-40.4239,-201.0251,-174.4955,-67.6837,-126.0463,-78.4355,74.1507,-63.9538,224.3556,101.5646,134.9774,41.4969,-48.1523,46.2383,43.2437,46.8803,18.6295,-108.8468,234.9099,-138.1131
-1320.3125,84.9987,31.8601,-14.1949,-111.5245,35.3929,-137.1720,234.8921,-49.7971,273.1157,-69.1153,-70.9882,56.9006,112.3981,61.1456,181.2836,-12.4300,-173.8464,-264.4917,-29.5419,-12.8478
-1312.5000,-50.9252,-67.6250,-159.3027,28.0259,-146.5612,-97.3604,-94.7524,-85.0630,16.5466,78.8390,-68.3341,170.8778,4.5673,100.6278,-51.0853,136.8646,76.2728,21.3956,79.6301,26.9379
-1304.6875,57.8110,-63.4343,1.1831,-106.2587,14.1045,-84.0110,138.2267,-71.7459,138.6425,201.4366,-18.1054,37.4375,128.3721,-33.3021,101.8438,40.7578,-97.0387,-293.1890,10.3890,-216.7081
-1296.8750,11.9440,104.1489,-97.0107,-82.3582,-9.8952,-106.3668,39.5331,49.8998,112.1225,250.4230,-188.5142,124.3400,177.5311,17.1050,84.7987,53.0254,-213.9837,-162.4526,-107.4786,53.9439
-1289.0625,-120.9412,-98.3064,-118.2914,-25.2558,-67.9794,-54.8781,-55.2288,-7.5797,16.5759,191.3210,47.9853,178.1117,83.6211,32.3908,-15.9793,142.1898,-32.0536,-85.9091,108.5547,-150.5717
-1281.2500,16.4330,-29.4979,58.6092,-150.8883,145.1240,-98.2460,267.2094,-52.8774,191.2749,145.4413,-69.3352,97.0779,186.9216,-11.1305,194.3360,24.5687,-282.9252,-265.2022,-37.2024,-83.9097
-1273.4375,-169.5362,-144.0630,-215.8922,-16.2976,-56.1725,-42.0662,28.2604,3.3957,98.6246,127.1845,-86.0329,227.6233,95.8332,44.9222,57.9522,154.5544,-83.1887,111.0477,91.6712,46.2723
-1265.6250,-46.7822,-194.9138,-77.7402,-76.1626,46.1981,-12.2911,166.9952,-42.6932,162.6961,7.6175,90.8972,146.7951,198.4189,-36.3918,156.2611,37.1825,-101.8353,-119.1286,106.1808,-218.9352
-1257.8125,22.2612,86.5182,-92.3644,1.6980,31.7980,-26.3162,151.9569,-19.5508,74.0557,66.3449,-143.9209,281.2132,221.2523,23.5355,132.7467,-50.9157,-175.2160,-51.0790,-108.0318,25.0605
-1250.0000,-106.0748,-76.4588,-219.4253,118.4758,-95.0257,68.1550,-122.4918,-36.8805,-53.9645,48.6358,23.8205,339.1500,94.6687,6.9851,-45.3667,6.5286,81.9352,171.4329,112.3181,-175.4707
-1242.1875,60.1395,21.1205,-9.0030,10.2789,115.6543,58.0734,161.5653,63.2841,155.5742,-34.5473,-58.9629,256.5717,195.6069,-149.0807,166.2065,-186.5189,-140.4286,-121.5956,-39.8236,-221.5241
-1234.3750,-16.0033,17.3142,-135.9932,164.6250,-48.0697,42.5462,-112.7718,46.0310,-82.2317,57.8914,-74.1211,387.5699,69.1470,-128.5662,-41.9991,-92.9550,98.8240,188.9329,22.6743,-17.0538
-1226.5625,88.3304,-89.0414,56.4319,117.0670,34.6258,14.3624,5.3364,-55.8352,-74.5586,-44.2438,156.1073,323.9407,115.1129,-229.6749,9.4558,-156.9990,165.4500,-26.2243,88.5617,-302.2320
-1218.7500,261.8522,85.7865,114.9867,75.2571,93.4475,-36.7212,63.5769,-71.5728,-16.7002,-96.1887,-79.5136,346.4560,211.2337,-133.6461,83.4634,-207.8717,-14.7523,-135.2581,-127.3776,-59.2942
-1210.9375,77.4857,-97.3163,-40.3921,152.3374,-61.6681,-44.8070,-202.1093,-117.2882,-99.7274,-142.0538,96.9368,448.9934,92.4379,-68.5941,-81.6763,-68.6992,187.0868,66.6791,108.7447,-104.3850
-1203.1250,164.7318,-43.8131,126.7795,-13.8966,141.7782,-135.3991,74.7654,-60.4622,213.8472,-196.3360,80.9110,323.0679,223.2166,-122.0038,159.0259,-232.9787,-44.5416,-270.8882,-17.5910,-194.9467
-1195.3125,45.1681,13.8506,-86.9141,76.4212,3.3628,-126.8903,-65.2185,-16.5030,73.6195,-42.4401,-94.9490,368.2818,158.1495,-77.2801,47.5601,-114.0920,44.9973,-40.3404,35.2650,70.5775
-1187.5000,62.2193,-143.8940,-59.0457,41.2621,-6.4757,-100.8884,72.3934,-63.0030,64.0241,-88.9628,117.7292,249.0193,75.6596,-160.0269,54.0833,-86.6705,130.0557,-96.3285,225.6723,-196.4041
-1179.6875,186.7049,87.7935,-13.7966,-24.3781,114.0730,-127.5321,265.3922,18.8836,182.8672,-117.0509,-56.1977,185.1525,121.5802,-150.3871,179.7816,-186.8347,-98.4712,-253.9392,31.4964,-3.0150
-1171.8750,0.1969,-62.5598,-138.5781,75.7306,-121.4103,-105.2755,-80.6330,3.7026,20.7217,-21.1747,76.8467,245.1998,-2.5314,-127.8266,-36.2999,-17.0545,134.9568,49.3273,194.3036,19.2448
-1164.0625,110.7459,-127.8821,55.6441,-75.8189,73.1162,-95.0723,149.3748,-22.4883,214.6487,-48.2651,161.8617,-0.7737,82.3817,-190.2761,142.5576,-190.2769,-3.6341,-159.4728,125.1163,-154.5204
-1156.2500,31.9733,-99.5601,-39.5064,-23.4404,15.2755,-43.2685,17.0311,64.9535,193.2708,3.3352,-80.4680,-22.1068,97.9499,-174.0897,118.2318,-137.8329,21.4494,76.3465,149.6278,81.3089
-1148.4375,-45.3900,-421.8670,-36.2877,-50.7438,55.8094,-3.1684,58.0930,31.7273,233.3290,-29.7020,144.5486,-165.1201,101.8990,-318.5838,153.7878,-133.0512,223.8619,31.4289,386.4998,-209.5678
-1140.6250,142.8328,-268.6011,152.4680,-174.8709,243.8854,-146.5690,319.6971,-37.9601,421.9832,-173.1628,40.1062,-233.5917,291.4078,-313.5320,370.6704,-275.7139,21.8374,-275.9613,183.9406,-94.9124
-1132.8125,49.8476,-325.5905,11.9870,-5.7187,104.7215,-139.2675,32.0733,-141.9215,244.4429,-350.8490,121.4414,-78.3466,151.6784,-232.7518,170.9060,-120.6270,313.5794,15.3349,335.1610,-14.5804
-1125.0000,172.9674,-341.5042,259.5708,-102.7378,277.6268,-186.9696,352.5345,-263.8434,418.0324,-471.4594,184.8053,-199.0717,179.0236,-353.9410,341.6235,-241.5044,258.3470,-322.3856,349.4279,-246.2227
-1117.1875,126.1051,-176.4262,194.1368,-57.2332,249.5184,-251.7074,359.9751,-217.7774,389.6683,-280.0344,-100.8274,-152.8076,151.3717,-344.1517,332.4701,-232.3677,244.1473,-230.1229,229.7331,56.0935
-1109.3750,-39.4103,-376.0432,101.0221,-28.4626,157.7405,-199.1867,193.7588,-238.4294,296.6865,-151.2884,138.8410,-245.2798,96.0511,-400.0895,221.5267,-103.9465,464.2361,-117.6356,448.3477,-147.3525
-1101.5625,158.3033,-212.4401,267.0996,-125.3263,324.1580,-217.5108,433.7504,-219.8951,462.9511,-206.3139,-25.3090,-335.5650,188.9457,-417.8348,394.1651,-268.3218,236.5344,-344.9760,256.1740,-128.6096
-1093.7500,28.5466,-235.3574,85.6825,5.4108,106.0799,-177.3743,105.2594,-144.8846,244.7557,-130.8102,-58.9342,-258.3741,8.3484,-342.1020,153.0453,-81.1889,421.3481,-20.8568,370.5403,20.5656
-1085.9375,94.6347,-380.4585,237.0863,-137.0132,183.8290,-174.4845,255.6239,-141.0819,396.4301,-89.4739,129.2185,-402.4109,13.5781,-375.5869,242.8780,-114.2679,308.9343,-275.0052,362.7070,-233.4910
-1078.1250,131.3833,-237.9208,186.1268,-169.2803,206.2131,-188.9828,241.6320,-82.6367,418.7971,6.5449,-67.9811,-377.8019,110.4576,-278.4236,281.2305,-90.6815,132.1955,-275.5185,149.5581,46.0715
-1070.3125,29.4196,-443.1434,117.4435,-77.9338,65.8753,-111.2755,26.9312,-150.9517,204.4875,-61.1691,159.0709,-371.9777,6.6066,-273.0268,106.1655,26.1434,379.7010,-29.8563,361.6812,-59.1800
-1062.5000,182.1865,-325.6577,277.4628,-191.4345,262.2410,-98.9131,369.9391,-102.5623,364.9338,-159.1477,61.7927,-505.4696,93.4695,-369.9394,312.6108,-145.3288,142.8954,-302.5255,265.5169,-120.7377
-1054.6875,12.2595,-282.9037,50.7780,-97.0049,71.9041,-68.2896,180.2499,-35.8707,248.7292,18.2059,-91.1683,-438.6880,14.6397,-302.5754,184.8509,-40.4935,216.4073,16.0774,303.7048,92.9501
-1046.8750,-34.1797,-435.6998,121.5617,-164.0415,107.0438,-36.2596,288.0622,-75.7285,283.0522,89.0361,128.3053,-550.4843,12.2884,-343.7779,220.6541,-43.2256,237.3420,-138.9457,360.3496,-167.9437
-1039.0625,79.4949,-250.4054,154.4280,-207.0384,177.2627,-113.1733,430.9706,-6.4899,390.5120,48.9992,-133.1299,-554.1859,46.0370,-272.8862,321.0909,-119.8412,67.3976,-238.8810,225.1345,48.2462
-1031.2500,-58.0979,-422.4281,8.0123,-112.9268,-5.8045,-77.4299,211.6216,67.4413,207.7349,-60.3129,16.1527,-516.2164,-135.4995,-234.3192,131.0904,29.2319,279.1533,75.8180,435.6494,12.0741
-1023.4375,80.3925,-354.3913,155.6492,-249.9471,179.1883,-77.6749,432.3492,177.4153,319.0584,-60.5509,17.4640,-626.2141,-23.9679,-308.7036,282.3530,-80.6486,27.9468,-211.4767,290.2206,-99.0546
-1015.6250,3.4397,-218.8401,-14.1661,-154.5656,9.7243,-100.4008,189.6333,227.9202,150.9767,138.7880,-150.6548,-463.6760,-45.8850,-183.5513,131.1443,45.0276,53.3196,25.7551,175.3858,172.3173
-1007.8125,-9.2262,-372.0483,19.3033,-172.2905,79.5437,-105.9169,149.2251,112.6617,110.2287,134.3931,102.4702,-466.9239,-11.5229,-225.1685,109.0474,4.9348,143.9177,-26.8361,265.8020,-90.0998
-1000.0000,120.3659,-101.0186,142.0153,-199.3708,240.6083,-130.2176,272.0600,124.6490,197.7642,-36.7232,-68.1717,-417.9330,75.0955,-137.5385,217.8151,-92.9030,-81.2154,-182.1765,-30.5099,105.7270
-992.1875,-62.1213,-213.1292,-18.3509,-35.7654,6.5929,-33.6504,-72.1721,37.5266,-34.7470,-48.9176,67.1016,-283.0750,-83.3786,-5.0322,-36.8122,152.1501,190.5651,87.3390,100.1137,165.3924
-984.3750,99.5156,-192.1430,156.3998,-98.6545,108.7000,-8.0195,176.7353,-119.4911,29.9045,-20.9797,132.4424,-329.1391,-18.7352,-14.4386,75.0051,-3.7145,103.4310,-176.0909,-22.1559,-28.8494
-976.5625,124.5504,-25.7977,57.5426,13.9012,-25.8035,39.9859,4.0342,-108.1052,-105.0186,27.3880,-38.8087,-206.8113,-41.6919,34.5449,-32.3977,7.8322,125.7274,20.8760,-104.9848,239.2738
-968.7500,94.0584,-196.0139,34.1634,59.8782,-123.8240,87.4176,-166.1667,-96.2646,-127.4317,-69.7830,194.3760,-194.0674,-139.1752,-26.0379,-134.8583,21.8101,304.4568,91.2319,72.6476,-6.1933
-960.9375,177.3126,27.5073,114.5262,-18.9624,30.8979,56.5747,24.3884,-16.6705,64.9356,-99.1789,18.2831,-186.5778,-20.9103,-56.8689,34.7815,-118.4552,32.9493,-145.6663,-128.9509,73.0950
-953.1250,-58.9731,-32.5610,-65.6468,123.4564,-185.9234,95.1609,-228.5940,22.3685,-152.2110,-22.1128,-15.3383,-36.6588,-163.1948,56.7398,-170.3020,32.7271,214.9120,210.8565,18.9305,148.7809
-945.3125,-2.2272,-115.6319,113.2008,20.2397,30.2761,126.7181,-12.5496,17.4173,-82.3080,-100.0284,91.0176,-188.7578,-57.4572,-21.6589,-27.2669,-82.1055,128.8511,17.3334,2.8015,-114.5393
-937.5000,-6.9876,-15.2361,129.5394,12.4114,45.9624,103.7479,-34.0242,68.9652,-138.8871,-84.4060,-75.1256,-172.3697,-41.2282,67.4479,-35.6688,-29.4215,15.3153,78.3100,-144.7857,157.6247
-929.6875,-104.4287,-253.5696,69.2023,56.4479,-87.0316,116.0459,-167.1417,7.8150,-234.0965,3.5369,85.0303,-159.7149,-173.6904,80.8475,-167.0295,95.5501,232.0609,223.5182,35.9544,-13.9507
-921.8750,62.3329,-121.7080,167.0633,-79.2705,85.1641,65.5143,114.9557,31.8757,-24.0637,27.7087,-36.6448,-243.8613,-37.9509,105.4490,34.6111,-27.2740,-25.9940,-107.0895,-82.0938,-27.3130
-914.0625,-80.7531,-123.7384,-29.9161,47.1722,-147.4969,51.1148,-153.7940,55.0741,-183.8597,126.0469,-49.1475,-36.8631,-122.0646,165.1908,-147.1440,107.0595,110.1273,168.4351,19.0350,142.4381
-906.2500,-58.0630,-207.0218,75.8847,-69.0955,-42.3900,8.4427,-48.7585,49.0202,-39.8570,85.1529,167.0808,-115.1339,-16.4110,86.6827,-38.3232,29.1211,23.9830,-60.3377,37.9027,-121.0676
-898.4375,-71.1865,26.8560,47.8757,-81.7168,2.9018,-20.0415,-77.5323,94.1665,6.3646,130.4863,-44.5003,-106.2096,103.4344,168.3813,14.1778,1.3981,-131.9306,-76.8989,-152.0016,143.6234
-890.6250,-242.9074,-145.9028,-56.7079,21.7339,-138.3785,56.8557,-290.8607,98.7063,-243.9686,63.2354,182.3210,-27.9127,-0.3051,137.4683,-173.5321,155.0675,79.5481,132.8918,59.5055,37.6778
-882.8125,-19.1795,7.7740,176.1591,-105.9295,58.7978,-5.8163,52.2772,110.7040,-8.8247,-108.5436,158.5620,-89.1710,49.4145,76.0156,35.4902,-53.8107,-192.5338,-174.8838,-107.5361,-24.7967
-875.0000,-65.4597,102.4043,-30.9691,10.3306,-112.0385,-31.5023,-192.5803,121.6946,-69.6625,-22.3048,59.8151,33.5620,-46.8727,124.5625,-104.1909,32.3253,-64.5951,90.3343,-120.5420,206.7009
-867.1875,32.4759,24.2201,81.1329,-17.8518,-73.6544,4.9851,-153.1848,-61.1113,-139.2462,-19.8311,284.2436,-38.5228,-7.9495,90.3036,-114.8872,35.6427,-5.4813,7.6944,-60.3470,-86.6104
-859.3750,173.5437,270.1566,178.3724,-19.4534,24.8573,-8.3910,-55.6484,-74.7593,-150.6695,4.8388,50.8014,22.5445,91.1145,114.2016,-44.8842,-87.8806,-183.2007,-66.7771,-308.9782,120.2399
-851.5625,-12.6346,154.8030,20.3872,123.5481,-168.8618,51.9727,-396.3414,-49.6542,-343.3039,31.2605,150.1254,158.3358,-67.0669,101.8401,-275.6994,48.3343,49.8353,270.4761,-111.8395,70.8053
-843.7500,103.8927,200.1375,183.1200,-7.5065,30.1307,29.0165,-160.3211,2.1705,-106.2000,-26.6227,129.1159,63.8180,-13.5395,81.1823,-103.6675,-45.7614,-153.4385,-75.5841,-208.9967,-98.9078
-835.9375,25.0509,227.0676,48.5054,54.4561,-103.2347,-32.3049,-183.6567,13.6538,-201.4399,60.1624,-40.2346,149.9454,-109.3770,203.1749,-179.0261,40.8059,-94.0373,52.0135,-149.4614,170.0129
-828.1250,-24.0732,-33.3226,43.6212,22.4584,-108.8685,33.0452,-116.2396,-29.1533,-206.9389,18.6700,174.1048,70.7463,-114.4941,123.8616,-161.3410,72.0560,-5.9622,69.2508,44.7759,-94.3802
-820.3125,119.4885,179.9652,147.4337,-45.7910,32.1912,-11.9231,61.8767,36.7468,-64.7284,-24.0948,-15.8688,27.2415,-9.9173,117.2636,-11.3499,-43.9824,-216.1811,-107.8130,-166.2677,44.9500
-812.5000,-73.2602,57.8986,-22.0383,95.2574,-100.0443,0.7987,-216.2733,-22.6570,-267.7824,27.8556,35.8673,188.4237,-104.6431,168.3656,-204.1690,154.6786,46.3069,151.7912,-79.5879,94.9502
-804.6875,59.3343,49.1656,160.8543,-4.8639,82.0774,-2.1435,2.9623,-135.7078,-121.4536,-9.8149,144.9188,112.9575,4.9958,56.8248,-49.9658,6.6842,-70.8735,-107.2772,-160.5751,-128.6790
-796.8750,44.5512,210.0311,56.3911,66.1691,-22.1598,38.5661,-101.1635,-93.1172,-151.4786,33.1852,-68.3684,192.1426,-25.7249,135.9373,-100.6548,-24.6466,-123.3689,83.3256,-212.8904,133.3394
-789.0625,-83.3711,-23.2767,4.8139,92.7784,-109.5224,96.1197,-116.3939,-109.6777,-164.6169,19.0353,100.1810,140.1517,-149.5832,83.8989,-156.4616,70.8544,62.9672,162.7363,43.6421,-103.8055
-781.2500,-12.9150,116.7942,109.6300,-22.2365,31.5048,51.0683,172.7744,-78.8231,15.6609,50.3089,-89.9061,60.5662,-44.0563,114.2760,34.9469,-8.2351,-186.2985,-88.4367,-134.4186,-37.5161
-773.4375,-213.1303,56.1611,-108.1919,131.7554,-185.1174,89.3662,-118.6936,-40.6039,-237.6967,127.9474,-122.6340,210.3130,-150.1873,227.0028,-181.7767,179.0343,32.7882,269.7325,-21.1000,74.1040
-765.6250,-102.1502,-44.2931,52.2033,24.0114,12.4855,64.8539,43.0760,-64.1684,-148.8244,31.8094,73.8058,113.2480,-26.1024,92.9469,-52.1640,45.4909,-34.9607,24.0721,16.4096,-171.0539
-757.8125,-21.6080,105.8030,49.1901,13.0736,8.6681,21.9340,3.4342,41.8813,-40.3566,65.2963,-149.1582,145.7883,7.5688,162.5102,-10.2503,-31.4365,-168.0925,100.0355,-116.4486,81.4010
-750.0000,-135.3698,-78.4382,-64.0950,62.8528,-103.4326,54.7058,-182.4704,38.6440,-115.1495,100.4945,31.5795,143.0099,-104.0526,159.7723,-142.1512,40.3237,32.4601,228.6546,84.3958,-106.4587
-742.1875,92.4541,78.9074,99.2245,-48.4668,96.0596,32.0622,128.2188,17.0234,123.6679,43.3113,-99.1086,11.8400,-14.0712,101.6527,71.1631,-91.3092,-164.3939,-111.1230,-112.1666,-128.6779
-734.3750,-36.6935,54.2538,-84.3982,78.3536,-123.3981,30.4656,-92.0368,16.4578,-58.4674,81.1921,-134.7308,121.7129,-123.0533,101.5861,-98.8838,56.1143,19.8144,212.1506,37.3552,54.1397
-726.5625,-40.4435,-90.0212,33.4022,-0.8799,-79.4365,72.2629,100.1549,22.3133,59.8322,88.4871,18.0125,-18.0281,-115.6296,-38.0766,2.9253,-10.0820,13.3920,27.7984,137.2749,-234.6234
-718.7500,-30.6851,94.2052,-7.2610,-24.5317,-9.9463,29.6151,169.8876,127.7345,167.6790,85.3520,-205.7074,13.7849,-8.6754,-6.1752,109.1630,-87.7149,-154.4611,-1.9637,-101.2260,17.1896
-710.9375,-151.0893,-61.7663,-95.0509,87.3223,-134.5905,86.8249,-138.4903,76.0122,8.3892,-38.9114,-0.5771,72.4316,-132.8735,15.5739,-87.0604,45.4947,108.5323,189.0983,57.1257,-72.1644
-703.1250,40.6424,24.4007,144.3131,-42.1465,67.9116,30.1857,101.2975,56.4588,175.2510,-57.0029,18.6574,-19.7717,-39.9235,-2.5091,75.2713,-120.1370,-89.3401,-185.6855,-104.3858,-165.3257
-695.3125,-55.9625,103.2124,-7.6247,79.5700,-155.8996,23.2544,-87.2236,51.6189,-11.1886,12.6178,-95.4056,122.7201,-116.2892,139.1209,-83.8309,22.9501,22.5013,29.2470,-63.1739,86.2162
-687.5000,-8.4755,-25.8977,15.5616,59.2302,-134.5827,44.4230,9.3951,-74.1042,-24.4931,-0.6467,72.6018,70.2949,-131.5409,87.8632,-73.0132,8.1240,102.4039,-32.7518,88.1199,-187.1232
-679.6875,132.4198,149.4062,78.1861,-8.5610,39.1687,-4.9544,147.4447,-85.3649,77.6431,63.5607,-157.9594,59.3336,6.6511,114.0794,61.9352,-75.2346,-111.2339,-108.2641,-125.1323,-14.9705
-671.8750,-104.8039,-53.4392,-97.2708,87.3562,-62.1690,37.5800,-101.5827,-77.7247,-133.3198,145.6815,-39.6131,141.2628,-95.2564,195.1999,-122.4613,117.3086,107.0235,178.1063,57.5238,-44.9254
-664.0625,1.4031,-87.8495,56.7307,-58.9484,165.9442,6.5672,199.8564,-71.6198,22.1690,116.2751,40.1460,0.6504,-13.7119,91.7927,60.4845,-23.6984,-70.2960,-107.0708,21.6124,-223.3809
-656.2500,-86.3339,34.7939,-122.1718,44.9752,23.1384,45.6652,94.3805,5.5957,-45.2612,84.9712,-101.9905,78.1500,-46.0856,132.4998,-0.5545,18.4099,-20.4930,117.8864,-33.1785,37.2782
-648.4375,-70.7275,-162.2278,-24.6964,50.0549,-26.2969,104.1180,8.2946,-8.8192,-130.3252,-37.9787,142.2052,-9.0138,-58.1031,9.5612,-55.8751,41.8498,133.6310,129.1670,120.3682,-197.6996
-640.6250,81.4921,59.3744,88.4201,-23.2990,86.9020,68.2248,195.8505,30.4382,-15.7490,-71.2494,-75.9801,-43.5148,55.5104,48.2917,86.6586,-65.0446,-104.5945,-74.8693,-116.4294,-48.9802
-632.8125,-116.9669,2.2766,-123.1072,113.8776,-124.5498,75.6941,-125.2213,39.0563,-151.8218,-24.1490,-66.8119,112.3317,-44.5412,168.3876,-107.3351,91.4147,117.5238,215.4426,0.1403,-3.9168
-625.0000,-40.6433,6.9672,111.1776,-7.8199,109.8038,49.9748,72.5387,14.4916,9.9114,-84.2369,56.1156,-22.0175,42.2020,70.3130,47.4611,-79.3272,-19.5897,-64.4535,-66.5095,-213.0061
-617.1875,-49.0219,103.9657,12.8011,37.6852,85.4856,23.6214,-62.3699,63.2903,-50.0310,3.0365,-114.6131,99.9955,55.2705,119.6027,-5.9135,-30.6931,-64.3307,64.0403,-216.7859,92.2794
-609.3750,-86.6677,-75.3139,-56.7995,98.7550,-22.0595,62.0217,-205.4905,-82.1405,-229.2085,7.0626,71.3969,139.7470,-50.8981,158.6447,-163.8515,83.6774,140.6503,127.2601,-46.3209,-89.6757
-601.5625,120.9532,95.6892,117.8916,7.0413,116.6887,14.7277,117.6774,-128.2420,-16.0980,-111.5883,-85.3228,92.8081,50.2237,187.0060,46.4296,-72.6449,-77.0793,-162.1923,-261.5580,-26.2734
-593.7500,-114.4545,70.6436,-62.4104,166.1225,-137.5664,51.4475,-210.1510,-125.3373,-157.9926,1.7680,-82.0337,241.8712,-92.6683,225.3754,-161.6657,77.0403,143.1963,196.3626,-182.7821,122.1291
-585.9375,-63.5269,16.9368,110.6616,71.6871,36.5426,40.5223,-72.5968,-173.0665,-93.5335,-7.5166,91.5696,121.2889,-29.2026,105.1168,-71.7174,-5.9304,86.7859,-1.7504,-203.6841,-146.0766
-578.1250,10.3527,195.1935,99.7187,80.8557,24.6272,26.6145,-82.0681,-74.7867,-30.1098,-54.7802,-140.8357,183.7234,-38.7565,130.8808,-49.1356,19.1208,-52.6088,32.1863,-377.5775,135.7564
-570.3125,-78.5851,0.6197,10.9985,161.9092,-101.0711,82.9237,-281.3076,-91.3021,-191.4841,-142.8355,63.9570,204.3473,-128.1074,114.8554,-196.9370,114.3661,173.1686,256.3078,-117.2831,8.7972
-562.5000,95.4982,139.0919,156.3251,41.2825,118.2759,79.2944,-25.5030,-20.7457,-44.8212,-180.8235,-49.2357,91.0359,53.5767,75.9078,7.0052,-71.3348,-78.0208,-30.4907,-259.9549,-31.0479
-554.6875,-51.8131,130.1691,-45.6964,150.3283,-83.7418,95.3325,-301.0524,70.4729,-244.5239,-15.1501,-140.7696,219.3834,-74.1101,167.6245,-194.3521,19.6276,19.4515,274.3831,-163.9607,169.7654
-546.8750,-41.3852,-35.0101,12.0566,49.3103,-25.9937,116.1305,-242.8182,55.4611,-112.4662,44.2762,63.4198,93.4783,-89.0413,79.1018,-148.2520,42.3263,-8.3623,105.9898,-50.2410,-103.6354
-539.0625,-10.9043,134.8803,29.8882,32.4711,-7.1716,95.0437,-112.5033,145.5702,17.6634,-10.1896,-175.3125,147.6913,-69.8890,170.7025,-50.3659,-13.8527,-191.0627,60.7406,-232.4075,134.1127
-531.2500,-133.4490,-23.2671,-95.2658,130.9506,-207.3354,149.9697,-349.1568,128.6933,-180.2035,11.3537,-10.0462,203.8969,-159.7368,153.3125,-229.9882,116.9649,35.2152,287.4798,-40.5730,79.8651
-523.4375,94.5209,29.1258,71.1279,-26.6275,-2.9480,95.4586,-71.2454,149.3955,-48.5303,32.4589,-63.2708,76.6605,7.9568,100.4969,-38.3782,-45.6598,-194.9840,-86.2145,-165.2117,-10.7703
-515.6250,-26.7140,118.3220,-142.6414,59.2231,-106.7277,63.8193,-211.4991,153.9662,-151.0316,38.4231,-204.6466,192.2872,-22.5186,253.5490,-129.1285,70.5859,-143.3246,139.9794,-182.9843,251.4655
-507.8125,-102.1162,-28.6476,-137.5432,2.0268,-65.6396,66.0368,-132.8640,85.4052,-71.6657,45.2578,20.7916,123.7578,-91.1400,185.4690,-114.1875,149.6789,-114.8581,26.9996,-12.9277,-1.4155
-500.0000,20.7857,93.7152,-56.1161,-98.9844,52.7736,-37.3805,96.1057,92.2092,47.0166,127.4705,-155.4481,93.6004,-8.4302,192.7730,32.2835,10.1428,-346.0426,-99.5890,-172.5221,189.1145
-492.1875,-107.7468,-35.3609,-193.0765,10.1769,-120.2079,7.8246,-186.3101,138.6233,-161.7165,101.2906,-36.0818,140.0408,-108.1171,165.6866,-156.5705,130.2112,-124.6393,224.4236,12.4859,198.2507
-484.3750,28.0388,-6.0888,-7.6821,-117.9166,101.1625,-29.6009,36.6426,177.4139,-11.1111,30.4725,1.5944,-5.1619,40.5460,57.9725,25.4353,-14.3726,-271.9174,-65.1979,-63.1803,15.7985
-476.5625,-62.8292,79.5452,-151.9007,-48.5763,-6.0906,8.4027,-107.0308,288.6208,-44.1466,144.0601,-253.3213,34.0518,6.5801,133.6823,-36.3303,62.4625,-259.7789,122.6336,-49.4376,274.7749
-468.7500,-204.3540,-168.4834,-177.7411,-3.6920,-69.9794,126.7767,-134.3233,262.1895,-106.8357,191.9908,-60.8993,-30.3879,-94.0347,33.7575,-99.1927,71.6348,-52.3272,188.8007,158.6256,-9.8742
-460.9375,-72.6640,-2.2686,-46.3465,-81.8570,99.3650,110.4178,109.6068,320.0276,63.6903,141.1840,-222.2590,-81.5499,1.5860,-18.8863,81.4820,-89.9206,-273.6346,-34.7389,-63.0778,84.7938
-453.1250,-262.6105,-51.6837,-250.5505,59.3150,-140.8909,124.4772,-204.0584,336.2824,-102.4022,157.7867,-133.2223,43.6899,-127.4025,-1.1253,-126.3052,72.9357,-43.5491,300.1339,97.6266,173.8722
-445.3125,-149.6831,-44.1950,-85.8559,-19.7636,-13.2380,104.4489,-2.7947,280.4628,63.4031,103.2962,-6.3340,-12.1628,-36.4951,-131.4384,16.8852,-19.3065,-108.6008,22.9118,69.2046,-66.0906
-437.5000,-118.8149,126.2609,-103.1853,8.8038,-31.6104,47.4454,-56.5556,334.6617,45.1680,159.8246,-209.4582,79.0046,-17.6139,-111.7211,4.2633,0.4731,-184.6416,85.7468,-42.2068,208.9904
-429.6875,-185.1261,-80.4578,-129.6490,54.4258,-131.1107,56.3144,-155.4319,270.7226,-90.2178,171.2231,20.2522,89.0240,-153.8806,-212.1379,-127.1328,120.0947,28.1301,157.4187,171.2125,34.9398
-421.8750,-22.7326,116.5633,74.6223,-42.1349,36.1271,1.9564,159.4379,218.5578,79.1304,82.3877,-105.3250,35.8120,-59.4058,-190.7763,62.3216,-5.5213,-197.3718,-175.1176,-54.6310,55.7048
-414.0625,-116.0361,127.8934,-103.7633,109.8675,-179.2926,5.9838,-92.3379,148.7560,-98.1949,124.8959,-101.5505,186.9537,-164.5930,-76.0437,-125.0328,109.2255,23.4766,114.7212,-7.1137,206.8320
-406.2500,-12.9609,19.6273,49.2612,43.6912,-99.2988,47.4291,62.3193,45.3731,-17.1303,22.8033,50.5890,83.5052,-84.3785,-142.8921,-23.4347,6.3640,18.6880,-101.0443,22.7733,-43.5915
-398.4375,37.4609,105.7405,16.6660,19.6492,-94.9287,49.2939,102.3409,47.4062,24.2903,100.1229,-166.8819,86.4796,-6.7840,-101.3164,34.3145,46.9303,-107.6884,-88.3573,-137.9428,216.4353
-390.6250,-128.2381,-166.2633,-115.0100,51.2524,-226.6469,136.0673,-28.7218,-47.6515,-179.4012,227.3512,67.5491,27.3582,-64.2855,-85.8315,-101.8804,172.3979,75.8093,129.2150,116.2222,84.3787
-382.8125,-16.6171,-88.9096,77.6555,-74.7759,1.9770,144.2034,312.5575,-1.3389,-22.7671,163.9453,2.2929,-110.3936,54.5551,-149.9645,117.2982,-1.7755,-165.3667,-112.8381,-18.2906,19.7423
-375.0000,-131.2369,-28.7885,-88.8851,43.9120,-90.6120,159.1665,36.6276,124.7733,-151.3625,144.3461,-128.1511,-20.3309,-74.8170,-96.2784,-42.2703,51.8626,-70.7331,261.9377,76.0023,219.9248
-367.1875,-100.3214,-173.1197,-7.8559,-16.5971,26.3662,165.6942,81.2839,132.4423,-33.3996,6.2947,61.9234,-160.7157,-67.6333,-199.0241,20.2796,23.0384,-6.5879,150.2519,176.8215,-66.3015
-359.3750,-13.3580,17.6396,34.2454,-41.9851,142.4180,96.3433,161.0210,174.2246,46.6200,-60.6443,-152.9223,-117.9719,48.6247,-155.6451,125.2546,-80.6642,-167.3404,93.7212,-19.2501,159.6279
-351.5625,-149.9241,-84.1251,-143.1445,104.0133,-71.0192,137.5161,-125.7125,143.5262,-128.8743,-127.0882,-2.2745,-2.7284,-54.6289,-112.7585,-70.0736,35.1298,115.3868,376.6935,159.1760,92.0649
-343.7500,28.4784,-10.8853,48.4543,-16.4890,120.5421,71.7121,103.5669,115.8579,63.6167,-154.5301,6.3278,-67.4700,63.1171,-177.8497,104.2339,-140.0723,-58.9225,24.6932,20.5796,-46.4330
-335.9375,-71.1716,64.3191,-103.9672,61.9779,-69.9147,62.9375,-49.1732,145.2103,-14.9275,23.0363,-185.0660,36.8021,20.8498,-109.9200,7.0869,-35.2524,-20.2305,238.7356,24.9946,204.0939
-328.1250,-103.9910,-108.6282,-52.5250,67.3429,-54.5013,78.0341,2.9709,87.4286,-109.6227,-70.5437,49.3663,13.9258,-0.5578,-169.1242,-18.4856,16.4154,122.2681,169.6114,204.2300,-74.4971
-320.3125,-4.6136,94.6688,115.1397,-2.0803,113.1412,23.4036,208.3464,106.9144,21.8939,-157.8608,-113.9768,-2.6778,93.2691,-147.0491,134.2927,-108.6400,-97.9898,-86.2132,-51.2888,93.2264
-312.5000,-158.9714,-57.7628,-84.8907,99.6423,-86.9161,42.0934,-100.9642,53.7073,-103.3104,-27.8717,-58.0131,91.0196,-32.6104,-52.6631,-65.1481,57.6130,134.0371,110.2700,111.4984,150.2614
-304.6875,15.0990,-60.7370,66.5218,-60.1838,-8.5194,-26.7542,199.1926,-51.0274,85.9335,15.5925,19.3612,-13.8202,8.9581,-47.8085,81.6598,26.3130,-45.5280,-315.7906,37.7066,-28.1920
-296.8750,32.0087,62.1575,-39.1929,-3.0667,-115.2463,-97.6745,93.2311,-84.8487,17.0401,56.9613,-125.3694,100.2595,-23.5914,103.9713,4.3004,139.9360,-30.1816,-195.8950,-51.1716,269.2879
-289.0625,-36.0579,-111.9026,-65.8453,21.7489,-177.9072,-52.5206,-43.6436,-183.6095,-8.8125,-4.6300,140.9344,110.3905,-50.0810,114.8114,-68.0005,188.6020,110.1860,-90.9595,89.9772,59.8405
-281.2500,75.8336,71.0396,45.4806,-76.2745,43.4143,-51.3493,179.4613,-146.3551,103.3037,-3.2073,-4.7912,37.5507,134.4176,78.6742,120.2026,42.2815,-165.4534,-261.9867,-149.8865,171.4589
-273.4375,-153.3033,-18.0397,-199.1952,60.7966,-91.2694,-4.1637,-101.4378,-134.0967,-140.5989,48.2182,5.4932,123.7176,73.9053,129.5450,-63.6775,201.9710,60.9057,104.9956,-27.7458,294.0894
-265.6250,-21.8030,-62.4524,-53.2166,-27.2273,17.7060,-6.3190,82.3308,-135.1702,6.1401,-25.7089,114.3901,-25.4485,36.0467,55.0910,30.9547,92.3114,13.8736,-117.3727,-2.9905,73.4268
-257.8125,-11.0535,125.4245,-89.9649,-20.0740,-18.0406,-80.1501,83.3627,-24.9264,44.1320,49.6647,-107.4194,48.7094,-36.5281,129.9578,19.3614,55.9715,-115.8484,-71.3835,-97.9343,331.1086
-250.0000,-129.4775,-28.8617,-168.8576,0.1221,-134.9149,-87.1130,-31.7322,-31.8178,-35.0288,43.8866,105.6164,78.7200,-79.2475,86.6814,-70.6239,160.4760,9.2421,53.4471,98.9551,141.6590
-242.1875,29.8532,95.6472,-2.9694,-150.4797,104.0005,-180.2517,207.9561,-12.8883,131.5908,26.9208,13.4195,-11.4490,122.8296,69.2293,137.6428,31.7924,-253.8850,-244.8749,-93.3788,161.0727
-234.3750,-136.3100,71.6724,-185.5357,-41.0218,-77.5370,-179.8171,-120.8115,-10.4007,-49.2635,104.5043,14.7858,99.9398,52.4486,146.3349,-55.0071,181.6701,-104.4571,79.3820,-13.1595,347.0443
-226.5625,-89.2408,-58.0375,-51.8388,-124.3334,56.1981,-193.1186,13.6981,-23.6565,85.1225,55.3357,183.3754,-60.4148,112.3353,22.7041,57.2217,95.7841,-59.8106,-156.1225,32.2730,77.3070
-218.7500,-60.9621,111.4871,4.0773,-108.3027,75.1583,-213.1456,70.4220,69.3428,176.7093,1.4211,-92.7932,-4.4911,131.4578,79.3510,125.0112,4.1720,-172.9020,-200.3266,-80.0414,316.8667
-210.9375,-186.3492,-13.6515,-121.6483,-8.5674,-123.5251,-191.7987,-91.4855,15.6934,15.6361,22.8452,73.3958,88.7877,-31.0681,100.3558,-54.3090,135.9065,51.3378,-45.1875,109.9813,191.7845
-203.1250,15.3813,116.3745,53.7639,-126.2373,88.9319,-200.2823,195.7555,-27.7979,229.6946,54.4339,28.6956,8.2362,71.5572,20.5289,139.4458,-18.1978,-170.3000,-443.8738,-76.8718,111.9172
-195.3125,-96.3862,181.9194,-110.2926,17.3752,-75.0734,-182.1920,-77.4656,-80.7306,29.2745,38.5836,-25.4499,176.2395,18.7192,115.2633,-34.5747,113.2675,-37.3831,-134.9760,-47.1572,352.6148
-187.5000,-55.5680,11.0667,19.2617,2.0693,-19.4574,-90.4906,-21.0537,-208.0444,-24.5403,-88.6684,175.9778,47.8391,37.4905,98.6073,-23.6795,59.3201,72.0905,-200.4885,62.1380,41.9452
-179.6875,76.8539,144.8562,113.4384,-67.2701,111.7878,-69.1203,147.9795,-113.6855,70.2580,-102.2685,-97.9630,-40.8878,168.8944,83.6147,129.9435,-28.9550,-146.7830,-245.2904,-85.9129,210.9773
-171.8750,-111.0020,-42.6232,-80.6335,32.0146,-45.2048,-8.9795,-119.2177,-51.5607,-49.2012,-39.1228,-0.1507,-14.8668,48.0485,36.3753,-31.3529,69.5166,84.0737,127.6620,146.7825,163.7620
-164.0625,-36.9309,-38.1340,78.2323,-74.8883,187.7551,40.1258,151.5409,-2.4643,184.2801,-62.0182,-25.4255,-149.8807,134.1550,-97.8977,179.9955,-138.0594,-88.1527,-79.4195,10.3993,-6.4450
-156.2500,-153.6046,21.6365,-54.6241,33.6619,90.9962,52.5547,19.5761,47.9392,51.0193,-83.6149,-159.3927,-25.5741,38.5465,-45.8570,73.3299,-86.3162,-30.0675,223.8367,-36.6716,228.6684
-148.4375,-179.1382,-179.4379,4.6836,30.9286,113.4008,75.1469,-31.2104,-2.5030,-36.0971,-134.0735,81.7799,-77.1153,60.0976,-96.6519,36.1321,-100.4299,119.1367,198.2265,113.3844,-42.0469
-140.6250,-45.7546,-45.5658,100.9139,-89.6349,246.7318,-13.2931,139.9361,58.0103,23.7055,-73.5813,-116.1137,-126.6838,230.5868,-35.4700,172.6289,-149.5761,-135.7040,-21.3920,-70.6149,92.2406
-132.8125,-193.5443,-156.8677,-91.0057,32.8538,16.9128,14.1353,-88.0534,49.3713,-167.6530,29.7654,-53.1420,-25.4069,111.9185,-6.4311,-16.0918,25.1296,102.3012,251.8417,98.2432,121.3763
-125.0000,-52.6040,-157.4109,101.8219,-72.3482,173.8528,-13.6715,252.7260,-51.5039,-11.2674,-33.1328,-8.4540,-126.3720,159.0093,-69.6192,156.5499,-74.4198,-4.9772,-66.1729,62.8254,-88.6891
-117.1875,-107.4575,-0.7273,-4.1318,-32.2031,104.0195,-47.2034,256.7261,-47.1171,29.3340,45.2184,-225.5080,-48.0730,88.3387,45.4556,141.7469,-32.6989,-60.9967,18.1133,6.6738,173.5190
-109.3750,-193.7689,-226.4959,-84.5289,-27.2124,24.7586,-17.1731,215.3083,-89.1735,-12.5067,78.1063,-13.0200,-91.2265,10.2329,40.0847,75.2938,34.5603,98.5010,37.9321,238.0541,-51.7123
-101.5625,51.7390,-51.4070,58.9007,-160.4431,205.3362,-95.2764,433.7304,-56.3685,168.4767,37.8469,-128.7043,-131.5048,189.9699,0.5799,267.1699,-79.3260,-184.1624,-280.3621,-44.7234,18.9595
-93.7500,-49.9325,-11.4855,-127.8278,-12.1622,18.7598,-97.5099,63.0035,-58.7110,-17.7157,36.4317,-94.5222,13.0720,76.5533,71.9207,38.9648,65.6491,28.0293,-31.7875,-6.6427,164.4789
-85.9375,55.7861,-45.1516,67.8495,-97.9472,141.6012,-50.3254,186.6917,-156.6409,105.4919,-23.5910,63.0366,-121.9557,126.5549,11.6671,133.8890,-31.9856,-42.4136,-242.8121,-41.1900,-79.5633
-78.1250,24.0156,63.7115,22.0521,-51.1331,93.9683,12.4272,103.8991,-129.0159,58.2156,4.9481,-131.8537,-20.4143,190.0905,112.9729,122.1519,-40.0486,-145.2923,-99.2346,-213.1741,205.9745
-70.3125,-76.3105,-141.9893,-77.2841,60.4475,-40.1914,135.6407,-102.4116,-189.9357,-112.6047,-18.0699,62.7079,28.5698,56.0805,90.7191,-49.9810,46.3292,103.2558,115.7778,1.2860,35.9617
-62.5000,87.5361,-12.4777,97.5656,-39.1930,171.8431,126.0630,220.4765,-199.6447,62.7561,-25.8972,-57.5532,-54.2249,83.2693,81.6728,127.0313,-110.0924,-120.0031,-141.9766,-151.0661,-8.8003
-54.6875,-88.7684,-12.0970,-94.6948,91.6955,15.7757,152.4055,64.2592,-170.4550,-128.9977,76.1737,-177.9056,10.8858,-34.6468,147.5219,-20.1039,-7.6022,53.6544,208.1882,-11.4957,167.3334
-46.8750,-102.2458,-165.8771,14.9001,19.8808,89.5796,189.6064,249.9253,-170.4015,-55.8853,-106.9039,-32.4375,-99.1560,38.3017,75.2275,95.4488,-44.2700,40.1324,89.1830,116.9078,-125.6568
-39.0625,-79.9649,-36.8834,-9.7393,-19.2176,139.1610,164.6215,337.3613,-47.5396,68.0037,-92.1778,-314.1723,-85.3789,88.0401,88.7495,193.7970,-67.1202,-149.5713,75.0197,-1.8797,109.1923
-31.2500,-175.4391,-201.6559,-141.1198,60.3382,-29.9985,142.9015,59.0678,-31.4312,-63.8568,33.7866,-80.6479,-34.3596,-80.9651,31.5181,-10.9312,22.2740,105.9663,261.0950,183.5795,15.2878
-23.4375,85.7725,-44.7097,63.1886,-65.4854,138.5355,52.8914,227.4752,26.3811,67.9678,-54.5537,-61.4527,-86.6219,87.7316,-57.0019,144.4388,-177.6303,-125.8059,-40.1098,-11.2845,-72.8673
-15.6250,45.5035,89.7693,-26.9677,38.9280,-25.3949,-2.5475,-82.5940,82.7390,-58.6919,-33.3608,-115.6861,42.6797,33.9686,1.0346,-20.2711,-82.9722,-28.0066,163.2638,-53.5828,168.5292
-7.8125,46.1371,-12.8360,23.7910,23.3443,-11.4058,12.9217,-66.7366,-12.0013,-7.4514,-54.2822,80.9738,-15.1180,-24.8779,-57.0317,-32.5237,-31.4262,78.6624,24.5171,18.9936,-109.1590
-4000.0000,15.8838,70.0928,14.8517,-42.6880,17.8111,-0.3770,58.3460,3.0669,77.4188,55.7359,-93.0009,-49.4464,4.7870,3.7387,42.7339,9.6071,-100.7765,-47.9467,-38.1959,5.0364
-3992.1875,-178.0179,-123.1646,-152.1141,51.9996,-149.0814,53.4262,-143.9164,-16.5583,-160.7693,184.3393,32.2943,4.4540,-125.3452,94.5578,-153.3197,174.5118,123.4200,178.9346,151.9193,-14.4121
-3984.3750,-62.2037,-146.7463,15.6361,-102.1178,91.7390,-0.0582,170.5203,-71.4995,42.7358,131.6328,87.3177,-123.9523,42.2265,41.0733,73.8761,47.1081,-42.6761,-198.4878,56.7334,-179.1956
-3976.5625,-129.5227,-2.4691,-104.7490,-27.3229,7.4287,-47.6856,12.8079,-82.5848,-3.9027,157.7755,-71.8322,-24.5053,30.6583,140.4412,1.7698,146.5362,-5.9398,-56.0631,-11.6291,103.8884
-3968.7500,-173.5561,-187.9143,-139.8471,-28.4328,-63.5936,27.9942,-20.6395,-154.3636,-38.2581,197.2170,149.3374,-97.7468,33.3766,69.1072,-30.2702,186.2726,123.1226,-31.3124,154.3249,-151.7370
-3960.9375,-46.8222,-25.6158,-50.1743,-122.5796,100.1635,-29.5782,217.6923,-65.3905,163.1524,140.4019,-57.7355,-119.2512,122.8651,48.5163,154.2921,54.7386,-138.0843,-221.8501,33.0143,-25.6308
-3953.1250,-196.0475,-138.2711,-208.4643,51.2756,-132.0374,-5.1051,-51.9421,-4.3597,-68.4008,55.6465,2.2312,14.3063,-73.5901,109.9772,-74.0053,153.2584,166.7652,84.6901,269.7533,35.5512
-3945.3125,-52.3222,-135.0115,-10.8004,-52.0768,28.7166,-27.6775,184.3698,45.6234,19.9869,-40.1517,52.1785,-119.1995,-22.0916,13.3759,55.2180,19.7293,62.5818,-194.8181,272.4522,-208.3474
-3937.5000,-46.2260,47.6084,-89.7748,-1.7671,-49.1589,-69.8991,143.0431,187.9590,15.7346,29.3993,-174.5320,-15.3569,-64.2275,45.1275,29.4533,-20.4684,-3.2731,-82.9950,172.4682,44.1160
-3929.6875,-114.3395,-159.9925,-149.9616,37.8157,-146.2535,-19.3131,47.4764,164.0896,-80.7437,43.7404,20.5768,34.2990,-197.5718,21.6854,-89.3247,65.1490,137.7092,57.6607,349.2946,-200.6168
-3921.8750,-9.7846,-20.9627,-5.4761,-98.1615,35.3251,-60.0775,301.5767,196.8612,101.4442,40.7210,-57.6526,-44.4050,-17.2516,17.8876,118.5164,-48.5957,-146.6662,-192.0652,100.7652,-167.7229
-3914.0625,-173.7335,-79.4377,-148.5015,33.4268,-107.5985,-18.3443,-60.8355,164.1416,-113.8659,46.2080,-18.3990,70.4025,-86.4343,95.6014,-87.0637,103.1524,38.4620,205.7258,145.7303,-16.2999
-3906.2500,-85.6917,-130.9534,30.4703,-24.4416,71.4799,12.3947,44.7437,10.4207,-82.1890,-32.3216,195.8810,-46.7813,55.3765,16.3117,8.8557,-13.1025,54.6223,11.5285,92.7180,-279.9014
-3898.4375,-29.4813,31.6824,39.6098,17.5805,80.7274,22.2907,91.4965,18.8499,-181.3548,-58.7134,-17.6956,35.1834,138.3554,63.1697,31.7921,-40.2368,-32.0765,66.4627,-62.1676,-13.3487
-3890.6250,-118.4378,-162.8514,-47.4166,114.2262,-43.1938,118.0529,-104.9384,-68.8687,-378.6974,-72.2586,187.5883,94.0136,14.1728,85.8767,-147.1677,92.4854,194.1081,223.2853,128.8085,-137.9365
-3882.8125,110.9697,67.9388,119.9294,25.4937,124.2546,65.1734,135.9886,-159.2348,-211.6864,-162.4656,133.2485,76.1824,107.3514,141.9206,7.0523,-71.4637,-35.3547,-111.5568,-100.8703,-155.2036
-3875.0000,69.6913,237.0278,-43.4280,199.5965,-111.9957,11.5995,-172.7950,-175.2931,-409.3868,-176.3843,115.1976,279.6640,-19.1614,236.2753,-217.6379,58.8779,167.4849,126.9122,-107.2695,48.8554
-3867.1875,148.3606,140.0306,125.1614,148.4141,-17.3019,-4.0144,-115.6547,-266.4074,-315.1676,-266.3640,281.1333,152.1058,2.2694,109.5804,-159.0491,6.1687,244.3135,-6.6475,-30.7031,-225.1549
-3859.3750,182.1059,245.0784,185.8307,91.3130,43.4648,-17.5779,-90.4463,-169.4718,-105.8887,-168.3074,9.1231,101.5903,62.7650,59.9335,-44.2228,-79.5172,65.1784,-10.1813,-208.1095,18.8828
-3851.5625,21.9437,15.2096,22.5860,169.0807,-119.6858,39.9614,-399.1836,-149.4252,-231.5326,-37.1546,139.2201,84.1938,-26.6490,43.3909,-216.9992,50.8994,326.1741,287.4236,-18.4131,-70.9590
-3843.7500,196.3888,83.9087,209.9604,36.5333,140.7798,43.1060,-66.3184,-147.7761,-118.5898,-107.4113,103.9542,-61.6083,122.5411,-27.5604,-10.0828,-94.0985,110.7793,-68.3799,-127.1172,-179.2282
-3835.9375,102.9459,131.7095,63.4336,138.6549,-5.6553,6.3506,-210.3560,-110.0136,-300.5540,-105.5712,28.7821,85.6984,12.8420,83.5938,-155.1576,17.9874,191.4805,153.9240,-79.7430,78.6285
-3828.1250,101.4379,-45.5763,148.8442,118.0467,-30.1524,18.5537,-199.4734,-209.2941,-215.5906,-130.7959,260.5895,59.9649,-85.9112,58.6925,-173.9607,28.0267,294.1716,46.2108,58.6028,-204.5766
-3820.3125,235.0470,123.2181,243.3762,29.6543,27.4761,-71.1438,-30.4679,-152.4679,-9.5159,-71.9406,59.5107,43.3287,-27.5463,42.8884,-33.5923,-60.8628,73.9578,-138.4293,-125.9674,-36.6906
-3812.5000,47.3445,5.6934,82.5939,126.7121,-133.2010,-85.1380,-226.7862,-129.9347,-131.7694,-121.3907,117.1338,138.4132,-115.4828,28.7967,-166.7059,71.9490,271.4703,129.6603,107.1586,-14.0786
-3804.6875,116.4454,-30.0694,200.6237,-37.6013,94.9306,-115.3263,110.6895,-86.6028,58.7668,-152.0631,159.5971,-2.7018,39.3897,-38.5029,63.5887,-68.4583,57.8100,-188.4565,70.0960,-191.6956
-3796.8750,20.1128,49.7110,12.2153,-5.4693,-19.3715,-117.9667,70.7203,19.2939,54.8540,-7.2046,-65.3997,65.7376,-2.1711,-5.2530,34.5089,38.6608,-5.3079,-39.0278,77.5636,98.2588
-3789.0625,-33.3365,-144.6489,-70.3108,2.3772,-100.7908,-54.6962,99.6187,47.0997,9.8122,-90.4489,144.5301,19.0907,-47.8446,-88.1061,8.8871,101.6804,115.5195,10.3343,304.9525,-131.8868
-3781.2500,102.9804,62.7036,30.9304,-68.5147,36.5580,-26.6681,348.2972,110.6658,148.5306,-134.9649,-13.7703,-27.8150,53.2389,-134.2116,176.4739,-18.5762,-136.9022,-240.5756,123.0834,-31.3010
-3773.4375,-38.2596,-7.5143,-120.3830,73.5738,-151.6474,3.8189,48.4021,30.6979,-76.3210,6.9479,15.3812,75.7452,-98.2272,-139.8568,-50.7766,122.6074,107.1455,73.9974,226.6552,72.7639
-3765.6250,89.0511,-128.2287,58.8634,-12.2013,-9.2924,73.8638,229.0365,-157.7159,66.3562,-34.6081,157.1266,-40.1412,-30.1361,-218.9618,76.2259,44.3258,56.7744,-116.8716,176.7874,-152.6467
-3757.8125,121.2820,9.9442,-66.9772,50.9686,-25.0123,93.8043,139.5801,-211.2180,14.9383,-50.2685,-80.2310,52.8715,26.8769,-124.1699,57.8433,28.9204,16.2951,54.1461,31.7973,124.8552
-3750.0000,16.6444,-128.7699,-132.6872,143.5596,-52.5971,176.9004,-108.7691,-275.5591,-123.3573,-150.7848,147.5846,98.0475,-36.9662,-152.2285,-86.7504,73.6667,227.0082,230.3584,171.9707,-50.4851
-3742.1875,120.6135,80.0819,48.2268,49.4981,165.4390,136.5952,73.4899,-242.2838,20.9550,-190.7218,-3.9716,57.8147,143.8008,-191.7023,92.1441,-76.0157,-21.6694,-53.8509,-75.2611,-17.2438
-3734.3750,-41.9176,22.4221,-91.3639,133.7207,-12.0329,105.7869,-213.7758,-236.4852,-118.2460,-37.1740,-35.0280,136.0983,39.0684,-112.6737,-87.1439,76.7908,130.1707,239.4592,40.9951,135.5320
-3726.5625,28.9014,-153.9365,31.3932,14.1269,147.8357,82.3360,19.2783,-262.3294,40.8807,-61.2928,86.3071,0.7441,52.6817,-174.3056,45.0498,14.9347,93.4052,-7.8604,110.6159,-146.3586
-3718.7500,83.5441,-27.5020,2.9719,-28.0340,157.5263,16.6850,65.1412,-179.3575,160.8045,22.3718,-126.5544,9.1945,98.1104,-164.1438,119.3891,-50.1572,-63.5585,-22.3913,-10.9956,119.5582
-3710.9375,-43.8756,-225.1421,-87.5118,35.0451,30.1469,36.9885,-208.0987,-124.4221,33.6412,3.9780,111.5542,27.6162,44.4781,-219.0336,-28.5032,41.7004,159.4720,200.0807,141.3451,-8.5589
-3703.1250,67.4123,-114.1239,103.7230,-126.0597,257.4823,-29.9958,19.3624,-43.7728,151.1713,-61.7360,80.3907,-114.2678,198.5501,-212.2328,146.9382,-97.7697,-118.7770,-112.7586,-30.6177,-39.0021
-3695.3125,-132.9997,-69.8182,-116.7500,-3.9318,37.1177,6.3255,-237.8862,28.1923,-32.0083,47.8342,5.5255,32.1671,122.9275,-140.1213,-25.3883,47.0447,-38.7129,213.7126,14.7011,216.8879
-3687.5000,-93.7711,-205.9105,-63.5806,-34.2436,90.3916,22.3063,-74.5218,-29.1878,-15.5747,-45.9771,205.3553,11.2749,66.9566,-160.3561,6.2394,26.5015,-0.9534,111.8618,87.6795,-60.5810
-3679.6875,41.1715,33.6800,-5.6908,-27.6955,148.3898,42.9859,93.5489,-44.8464,43.5614,-60.1194,-32.0995,31.0838,87.7077,-65.8983,89.7084,-62.3719,-148.4989,-0.3118,-130.6609,143.6540
-3671.8750,-92.5033,-100.3671,-142.4182,116.2070,-62.2290,90.0733,-153.0233,-109.0816,-130.9337,23.1392,122.8546,113.3106,-49.1526,-56.0348,-105.9660,56.1528,172.3864,250.9612,16.4085,79.3177
-3664.0625,71.4753,-42.8144,109.5153,35.9290,79.8129,121.8156,62.0511,-114.6454,48.2102,-92.9661,153.4999,-2.8130,55.6341,-136.5262,65.5312,-169.6891,53.9443,-43.1223,-102.8636,-73.3926
-3656.2500,3.4101,64.6813,-9.5974,167.3852,-39.1877,148.5056,-166.9354,-50.2330,-144.7066,-139.1346,-3.9093,133.0256,-26.6159,-35.0601,-89.1160,-143.6047,124.4516,238.7519,-102.2113,173.8779
-3648.4375,-36.2233,-151.4188,-2.2762,144.5667,-31.7584,193.6508,-195.5141,-80.3476,-173.2037,-130.8786,186.1693,67.3378,-55.4224,-101.1445,-121.2458,-136.0712,225.4514,198.1085,67.9121,-112.4013
-3640.6250,93.3613,47.6527,52.2631,45.3362,96.8927,100.9923,5.1260,47.7564,-8.4896,-113.4414,-54.5340,46.8460,34.9910,-120.0380,33.3956,-192.3665,-34.3551,-25.3629,-119.7775,51.5150
-3632.8125,-72.6626,-12.9048,-159.8167,161.1778,-115.0753,71.7318,-316.8634,92.2854,-146.4009,-31.6057,25.1711,164.7752,-103.2010,-112.5271,-174.8103,-38.2697,185.2650,265.6041,98.9345,95.8641
-3625.0000,56.0622,-24.7674,56.8642,11.5615,64.7169,-5.7702,-63.1185,88.5809,33.4185,0.9498,131.6720,49.4512,2.3581,-190.2822,-1.7868,-152.4474,31.6733,-63.6623,-18.5906,-92.0593
-3617.1875,11.0947,105.6572,-2.1407,88.8154,5.8271,-27.9680,-159.0739,64.2086,-99.4702,51.7708,-2.5277,135.4313,-19.7704,-66.7502,-79.6083,-103.3580,55.3883,135.3789,-135.8342,178.3412
-3609.3750,22.9068,-60.1665,56.6405,131.1646,-8.2809,30.6450,-283.2776,-170.3399,-223.5954,0.3709,276.1056,121.2338,-71.1110,-118.4246,-185.3932,-81.4757,241.9527,217.2666,15.7427,-56.4508
-3601.5625,224.4827,69.7312,226.1909,-4.8520,160.3797,16.0092,-40.7194,-112.1120,-17.9702,-87.3019,113.5165,-5.2121,24.3156,-132.3650,4.7974,-206.8795,-50.7301,-40.1182,-135.9381,38.4938
-3593.7500,19.9971,-99.4344,6.6739,65.6192,-58.0194,17.3232,-296.2434,-0.8929,-163.4155,-49.0335,112.8766,68.3153,-84.3074,-21.3574,-164.7643,-23.3476,94.5552,246.4770,80.3275,149.4203
-3585.9375,28.5999,-231.5535,101.2499,-69.3879,72.6819,0.7475,18.3030,20.4591,-32.7824,7.3132,206.3810,-58.0503,9.1687,-1.2648,4.6695,-77.7313,-2.0223,-95.8084,52.7090,-87.5725
-3578.1250,28.3636,-92.5422,14.9911,-69.0805,59.5521,-48.6808,42.0076,79.9937,-9.0027,67.7714,-27.9598,1.7403,69.8122,94.9775,44.0657,-16.9971,-108.4452,-26.9494,-159.7838,192.6031
-3570.3125,-48.3919,-239.0771,-57.7798,10.3536,-49.1059,-47.6004,-176.8383,9.0492,-79.7694,31.7060,193.2270,76.0561,-39.0542,96.7267,-99.7640,56.2316,129.6917,106.4629,-60.7643,10.2934
-3562.5000,151.6155,-40.9019,152.2305,-55.9819,124.0051,-58.7682,69.0663,-39.1311,129.2104,-15.6289,71.2001,-9.8793,23.8355,48.2102,73.8588,-101.8215,-22.4026,-186.3928,-320.0017,-1.2859
-3554.6875,13.0776,-4.2910,-0.3125,111.5214,-102.4342,-27.4840,-157.6093,-81.8272,-97.3822,-21.5328,27.6251,129.6541,-92.8299,114.1480,-116.6596,37.5556,188.9671,130.2274,-248.8042,175.6240
-3546.8750,37.7266,-156.5309,112.3366,54.1162,10.3178,11.0051,-8.1162,-116.3011,-58.8097,-130.2606,175.2936,21.4016,-17.3016,43.2815,-22.7342,-71.8804,213.5815,-20.9256,-155.3838,-116.2778
-3539.0625,97.2316,-26.9369,89.8513,-2.4326,98.9385,-10.6543,43.2466,-64.8942,30.6089,-42.1661,-30.1866,-0.9940,108.0981,57.2608,75.0246,-130.5062,25.0472,-67.2452,-307.1337,118.6784
-3531.2500,-24.9368,-220.0269,-32.3076,43.5522,-23.1076,-59.9590,-152.0872,-40.1029,-91.6538,18.2501,139.6953,59.9902,-14.1586,82.5934,-80.5858,2.2125,218.9090,125.8245,-78.5202,-3.9920
-3523.4375,104.5511,-162.5121,179.1931,-117.6999,225.5051,-142.6143,132.2275,24.3679,155.7316,-100.7101,130.2610,-23.3743,124.2347,-0.4379,149.3071,-117.4451,-40.5623,-203.4643,-233.2500,-87.0331
-3515.6250,36.3423,-91.7114,58.9898,-20.5653,68.4091,-150.9682,-134.1727,88.1707,36.4059,-73.3866,46.1240,39.5804,76.9261,26.8387,13.2014,-17.8228,65.2803,78.5650,-232.7020,160.2616
-3507.8125,53.9642,-250.1081,128.6307,-50.1095,101.1406,-46.4610,-103.7631,9.8382,-6.1142,-116.2393,260.8744,-76.6017,72.4517,-16.0288,5.2248,-24.3572,119.0316,-8.5111,-110.2852,-102.5985
-3500.0000,127.6444,-72.4817,121.3444,-110.1203,130.9477,-52.8990,72.7124,39.5757,60.4076,-50.0746,-4.3132,-83.7306,176.0477,86.1496,118.2854,-68.8775,-125.1621,-111.5503,-248.8387,110.5922
-3492.1875,-65.2968,-196.4929,-78.5551,-21.1528,-105.8559,-33.9254,-163.4556,22.7401,-29.7032,79.4716,87.9136,7.5659,48.0438,105.7345,-51.6558,95.9960,68.0750,81.8532,-20.9900,93.2136
-3484.3750,60.6117,-176.7036,94.4031,-148.8546,67.2007,-81.1005,119.2153,-60.2210,217.0203,31.8390,114.0373,-76.2839,148.8952,59.1579,148.5471,11.6997,-88.8151,-284.8993,-142.2822,-27.3332
-3476.5625,61.4240,-72.0297,-27.7370,-28.8238,-90.8382,-92.3801,-76.2266,-72.2398,94.6380,93.0874,-44.9406,95.7760,-10.3421,192.4836,-17.4521,72.2738,-17.8007,-109.7466,-142.6944,254.0544
-3468.7500,60.4140,-214.2041,19.3105,1.2903,-153.6987,-9.4514,-66.5188,-172.0303,-6.5799,-43.4898,184.3198,31.0544,-110.3863,166.0050,-84.7113,81.0391,120.4627,-41.3512,30.1105,6.6468
-3460.9375,166.4644,-4.3549,123.4345,-71.1921,-12.4883,-14.4720,110.2467,-66.7424,98.2437,-87.0504,-5.3432,-48.6179,30.6397,122.5682,75.3051,-72.1814,-125.2200,-110.9232,-181.0512,147.2862
-3453.1250,-41.6482,-143.6789,-58.6070,70.8649,-232.4486,23.3627,-255.1715,7.4248,-84.1213,-12.7781,31.8480,25.5833,-78.4864,86.9898,-133.9165,37.4366,157.9835,277.3958,-3.3658,184.8125
-3445.3125,10.8816,-197.4037,80.0062,-37.7109,17.2401,50.8496,-43.9575,36.2643,91.1449,-58.8799,58.7287,-94.5607,-12.9678,-31.9528,26.2262,-82.3139,33.8791,-21.6218,-23.0087,-44.0316
-3437.5000,-107.5910,-71.1400,-91.3761,35.4380,-81.0532,26.3306,-68.7379,158.1416,139.4116,-11.0064,-224.3942,27.2997,-74.4356,90.1016,15.5027,-72.0946,20.7735,105.3608,-71.6691,224.1497
-3429.6875,-190.1456,-224.9703,-167.8343,74.0180,-157.4043,22.7643,-182.6158,155.9998,24.5912,20.7978,-7.5429,23.1312,-187.9620,86.1042,-110.2147,33.0727,218.6693,163.3422,125.6371,0.2924
-3421.8750,-4.9429,-6.0808,23.4780,-39.5689,34.0216,-43.0534,45.2629,127.6348,180.5105,29.3165,-108.9140,-79.2821,-33.7200,56.8469,71.2519,-106.0428,-18.6796,-73.9454,-111.3173,45.1728
-3414.0625,-134.3953,-66.8570,-117.8658,105.7753,-180.2102,0.4777,-243.5400,96.6548,-35.2493,34.1581,-104.9343,35.6798,-101.1248,97.9496,-114.8410,8.1709,202.3441,287.1447,3.0666,160.4417
-3406.2500,-59.2575,-134.0832,10.3892,33.7908,-51.8522,91.6129,-78.7733,42.2995,-17.4335,14.5697,22.6898,-20.7474,-45.9329,79.6442,-43.4931,-49.0308,102.0079,10.8543,-27.9287,-115.7038
-3398.4375,66.4360,131.2331,-52.7881,39.9357,-78.9320,63.2974,-32.4525,51.5257,-8.0651,23.5008,-115.1311,98.3781,0.8284,124.8842,-21.2276,-76.7140,-88.7821,-38.8995,-184.3967,150.7204
-3390.6250,19.4954,-23.0898,-132.5855,118.9926,-194.6412,94.3903,-222.7768,10.1805,-161.3317,-93.1783,172.4650,128.9265,-116.0170,118.5320,-180.1359,62.0038,144.8658,159.7941,-22.4493,-2.4307
-3382.8125,169.6990,125.7010,98.7786,5.7668,-0.1868,68.6303,8.0587,58.0146,-77.4519,-193.7285,109.2404,29.6253,78.2930,92.3191,1.5725,-111.1499,-93.3294,-113.3795,-224.3446,-28.4452
-3375.0000,-22.4067,143.1866,-73.1713,135.0874,-172.0403,116.5653,-238.4210,69.5872,-286.8889,-109.5936,46.7078,150.0455,17.3024,213.8089,-167.0921,-28.6152,31.1824,187.1673,-171.5505,166.2829
-3367.1875,-9.8781,-55.7221,-11.4819,48.4742,-73.2602,106.1526,-103.2857,-14.1677,-187.7011,-85.8319,218.8626,65.1330,41.9450,165.9394,-90.1157,-78.4342,44.3893,-11.6030,-54.0897,-102.3432
-3359.3750,18.9526,41.6470,-28.4777,-28.5661,-17.1632,50.0404,-10.8399,78.4098,-23.2126,6.2130,-19.6856,45.5166,96.8963,146.3705,22.1588,-133.9816,-174.1005,-18.0822,-168.3464,136.3440
-3351.5625,-143.1488,-121.9095,-193.3910,48.6980,-144.9933,70.0392,-249.3432,98.1181,-151.6633,97.3440,144.8770,65.0184,-31.0605,54.9052,-143.5856,-6.4272,50.5533,241.5888,55.5014,45.1630
-3343.7500,41.1122,-45.1335,77.0652,-123.8937,88.5324,-26.6103,20.4877,150.1897,82.2181,36.7864,121.8411,-106.1212,93.3380,-5.2239,74.2428,-177.5535,-187.4178,-31.3995,-77.3037,-51.6847
-3335.9375,-103.3091,-15.0392,-48.1753,-30.0116,-36.6446,-78.9631,-216.4018,244.5889,29.3693,131.4929,-40.8946,26.0624,5.0410,88.9557,-47.7684,-84.3993,-86.0852,174.9264,-11.8291,189.8003
-3328.1250,-105.4436,-158.6788,-0.1277,-50.3904,11.4640,-67.0069,-168.0311,184.3116,40.7749,68.4639,154.7047,-36.4340,-56.9627,26.4330,-55.9237,-74.9486,17.5904,32.5913,126.9648,-92.4202
-3320.3125,58.9355,39.1715,52.4395,-99.5093,64.0978,-124.5532,30.8552,274.5620,128.6858,-27.0924,-87.1877,-57.4295,31.5427,78.4005,75.8885,-170.0392,-169.2352,-84.2676,-26.7546,106.8575
-3312.5000,-184.2595,-100.5380,-200.5605,29.0895,-151.8380,-47.6538,-185.8529,315.2955,-13.9809,84.7840,-47.6244,18.0512,-73.5104,81.8219,-83.6598,-20.6842,78.4243,198.3659,219.9769,73.6165
-3304.6875,-101.6657,-125.4878,-67.7502,-119.7440,17.0343,-61.9545,202.2261,338.8546,154.1449,106.4358,-62.2238,-106.6685,21.2439,-6.9678,127.1906,-111.5443,-120.0904,-176.2083,196.5188,-124.8472
-3296.8750,-216.7309,-65.0952,-199.5833,-50.7820,-77.7353,-46.9132,179.6579,501.7964,58.6176,120.4212,-268.4831,-18.0272,-36.6403,117.5932,78.8634,-61.0730,-129.2571,-44.4382,186.3938,147.0704
-3289.0625,-257.1774,-318.0926,-230.7859,-50.2427,-108.8845,31.7829,148.7016,582.4105,-10.2925,52.0340,-6.0625,-86.7120,-104.8929,86.8102,25.5126,-56.9491,5.2685,-14.9756,355.9428,-104.3565
-3281.2500,-84.2173,-146.7101,-91.5675,-142.3480,31.3808,-12.1222,324.1632,723.4439,165.1972,6.0221,-196.2261,-131.0024,-1.7394,79.4232,188.0565,-212.4477,-242.8037,-193.1367,105.8875,-1.3922
-3273.4375,-216.7248,-140.7912,-232.8131,18.6103,-184.8246,28.5172,-38.8418,691.0538,22.2099,10.5434,-155.8400,-17.7214,-144.0377,82.5899,-31.6039,-62.3990,9.6999,95.2821,217.3869,76.1558
-3265.6250,-97.8992,-128.5600,-61.7040,-66.4014,-85.6817,17.5046,168.4903,608.0313,193.5569,-39.6101,-58.0661,-139.0889,-118.9883,-2.9054,91.9909,-150.0068,-46.4127,-171.9444,195.2608,-155.9676
-3257.8125,-85.8189,56.9203,-96.3350,-4.5520,-121.2819,-18.2670,95.0842,609.2888,120.1666,-2.5331,-240.0502,-64.1963,-117.6785,33.8458,51.9214,-186.3892,-68.2870,-19.9361,65.3715,102.1812
-3250.0000,-99.9164,-133.7778,-102.1436,60.5012,-164.0588,12.8115,-94.5086,495.4155,-32.4056,-83.6160,10.8319,-33.4305,-160.5343,-44.5470,-75.2150,-120.9130,163.7293,107.9673,192.3571,-86.8082
-3242.1875,111.7905,76.3062,80.8626,-49.7027,55.9801,-61.3098,87.7164,421.3567,112.8137,-84.9277,-100.4662,-71.8685,23.4136,-83.1452,94.4083,-232.6626,-81.4449,-173.3450,-54.8517,-51.0132
-3234.3750,5.9849,38.8938,-71.6400,42.9517,-133.4887,-66.9277,-175.5756,378.8347,-40.4954,90.2312,-143.2725,31.2120,-93.1393,19.7622,-93.1235,-56.9226,58.8917,107.8693,14.4355,89.3158
-3226.5625,-0.8419,-74.5563,42.8535,-94.0907,18.0356,-99.5411,48.1129,385.3387,110.1763,131.3582,-29.0476,-110.6993,-88.6958,-85.3349,29.4070,-91.1876,-53.7365,-109.9023,77.7477,-163.3746
-3218.7500,-70.8132,63.8482,-6.7963,-71.9431,5.4254,-112.3085,34.6702,483.7170,132.7133,116.3223,-261.9852,-49.7574,-64.3874,-24.5836,54.2276,-68.6273,-158.5278,-4.8468,-64.1094,117.7955
-3210.9375,-229.9117,-130.8593,-94.5661,17.5310,-118.3076,-53.1796,-125.9149,398.0120,-64.8842,28.1781,-93.0162,9.1114,-115.1948,-39.9293,-81.6062,99.8441,68.6241,188.1493,126.9413,-6.1159
-3203.1250,-51.7601,-60.3266,94.9280,-123.5029,107.2206,-10.8055,208.7573,367.5719,86.7642,-4.7480,-160.7724,-133.7709,0.2543,-35.0384,122.0326,-44.4506,-207.9670,-160.6257,24.2472,-37.7949
-3195.3125,-232.4652,-101.6296,-139.4352,-27.0723,-91.1075,11.7158,46.5661,353.3096,-39.4546,199.4617,-249.3947,-0.4909,-88.1421,60.0067,-13.5604,122.4026,-108.4085,114.7615,122.6907,167.7146
-3187.5000,-188.0937,-268.8565,-42.7099,-98.9749,6.6422,35.3379,179.4420,305.1631,20.3976,222.7655,-41.8874,-87.0986,-100.4496,47.1561,36.8239,35.3621,-98.7194,-85.7264,202.2567,-138.6843
-3179.6875,-112.7163,-55.0766,26.0341,-102.6596,112.4076,29.9520,321.3310,338.0382,51.2631,69.0552,-229.3827,-55.6992,-31.7500,78.3011,133.8310,-43.7035,-269.0451,-116.2346,-5.1995,76.9228
-3171.8750,-288.9114,-198.8491,-117.7960,51.6083,-32.4039,106.0197,28.6214,305.3842,-92.4505,-112.2186,-44.4270,20.1810,-138.6168,80.8998,-38.9956,66.6952,46.1056,199.7507,204.8026,6.0090
-3164.0625,-154.5167,-171.0364,30.9883,-90.5508,190.3881,71.6907,287.5133,308.3389,128.4263,-149.9212,-42.8438,-125.3394,46.1153,-28.9137,188.3914,-117.3146,-134.1272,-86.6749,93.4184,-139.3266
-3156.2500,-225.1213,-102.2081,-90.2276,-2.7476,68.1805,59.3543,53.4042,298.3135,-30.7055,22.3563,-164.2792,-26.8482,33.8547,-3.7189,56.6715,-56.3315,-63.3632,158.9026,56.0178,106.3710
-3148.4375,-180.7469,-200.3997,-31.4608,-18.3381,127.9485,46.0203,2.2618,212.2942,-82.8703,-67.3835,79.3072,-41.3470,57.5803,-91.5211,25.2687,-72.3370,16.4423,98.5170,170.6420,-164.9350
-3140.6250,-5.1647,9.6108,71.5260,-91.1901,230.9333,-36.1164,140.3434,205.4830,18.1657,-112.9451,-76.9012,-49.6487,196.5141,-136.1290,153.5992,-155.1624,-194.5566,-77.6925,-6.5431,10.9540
-3132.8125,-133.2541,-120.0216,-64.1494,34.5789,22.2408,-23.9034,-104.2600,108.0390,-116.4757,6.8400,9.2358,36.4183,61.7851,-198.3825,-27.2439,38.3681,98.8157,181.4908,145.6237,23.2250
-3125.0000,-10.2539,-104.5680,148.2847,-60.1939,197.6464,-69.5844,179.2233,27.6985,19.9619,-39.2945,74.5091,-46.4090,163.1535,-317.5443,143.9689,-82.0076,12.3089,-117.2240,57.8999,-169.4278
-3117.1875,-77.6528,107.5133,64.3303,48.2966,113.6598,-78.6692,21.3112,54.9700,-64.0117,-87.8544,-119.6300,53.3747,153.1323,-255.1010,70.6061,-19.7988,49.3965,96.6589,-46.2481,114.5396
-3109.3750,-132.4255,-53.7621,19.0046,56.2979,68.3061,-15.1058,-61.9904,-26.1028,-74.3672,-24.7790,91.9012,7.8257,70.7508,-375.0079,0.6297,42.0704,172.1740,113.2241,145.2792,-114.8439
-3101.5625,-3.1914,107.9685,112.6979,-69.9683,198.9675,-68.5468,214.7321,-4.1734,202.2856,-43.7244,-72.5536,-45.7280,164.3795,-317.9212,209.9372,-87.0711,-121.0566,-145.2450,-44.2007,-21.2431
-3093.7500,-141.1164,38.5700,-71.7745,91.7901,-23.5404,-33.1417,-44.7207,-5.3844,-94.2295,-119.8318,35.8282,99.5946,14.8494,-173.9751,-28.0005,56.6473,128.5751,139.1593,99.1644,87.2389
-3085.9375,50.0518,18.2658,137.8537,9.4997,150.0405,-6.6401,90.9137,-123.5015,-105.6616,-168.8579,173.3399,-20.9747,116.4110,-221.9417,44.9102,-28.5310,74.3322,-161.3297,43.6492,-143.2018
-3078.1250,110.3813,218.1472,79.6377,51.0831,54.7771,-26.9946,-4.2858,-143.4591,-126.9356,-43.7468,-31.0139,30.6073,94.1349,-132.7583,-9.4184,22.4229,30.2224,-99.6854,-106.7306,129.5206
-3070.3125,82.3388,83.6781,23.0503,131.5233,-111.8614,25.3028,-172.8690,-234.7655,-221.5856,-102.9939,205.2896,84.8563,1.4903,-153.9204,-144.5171,111.0406,249.8009,12.6472,39.5656,-74.1014
-3062.5000,275.8053,275.7107,188.9828,26.5654,90.0079,-29.8997,101.0711,-179.5733,-58.7281,-232.7540,76.1025,28.6011,92.3409,-136.5951,37.8896,-93.8520,-14.1225,-250.5479,-154.6329,-56.2472
-3054.6875,146.3650,249.8742,-26.9920,200.7772,-88.0340,47.9901,-224.9038,-173.2755,-237.7819,-303.4147,43.9936,217.4611,-12.7212,-57.1628,-156.8337,19.3653,173.0578,182.3722,-108.7388,95.7374
-3046.8750,178.2612,103.3836,92.3673,120.4856,104.2577,58.2252,-106.5443,-273.6277,-193.5053,-258.7340,164.2580,116.6815,70.5566,-159.3861,-71.8790,-46.0538,170.6109,3.6580,-43.4713,-188.9490
-3039.0625,192.2143,292.9709,59.7876,126.3993,108.6179,-12.4983,-66.1110,-229.9193,-153.1629,-182.0152,-88.4432,156.9464,110.9017,-81.5647,-29.4787,-79.4357,80.1890,-17.0306,-169.1666,72.4202
-3031.2500,114.0951,143.5115,-15.8697,204.1647,-78.0957,-14.2652,-253.7578,-305.2510,-339.9007,-149.3496,128.8010,192.1793,-38.8171,-85.7947,-218.4932,62.1510,319.7364,152.2772,33.1095,-40.2434
