Time,Fp1,Fp2,F3,F4,C3,C4,P3,P4,O1,O2,F7,F8,T7,T8,P7,P8,Fz,Cz,Pz,ref
-4000.0000,-113.0658,-38.1212,-45.8465,-21.4080,59.5677,37.5684,57.0446,21.7902,-11.8878,-132.8683,32.3356,-19.2916,50.8628,-0.0070,-22.7521,-16.2223,-11.9514,-65.8316,118.6098,-71.6233
-3992.1875,-76.9604,-70.9082,-49.0870,-19.1005,58.9883,73.1444,59.5940,94.3974,22.9259,-99.9191,-42.6049,-94.6989,87.3215,-75.0445,-98.3737,-54.1551,-43.7239,48.0441,123.1548,35.7639
-3984.3750,-81.7597,-110.6069,-50.2452,-57.7052,22.4986,-0.1817,77.8602,58.1119,-14.1458,-176.8970,30.5520,-21.9975,86.8738,-1.9707,-25.8884,-17.9650,57.6079,-31.5821,191.8105,-39.7445
-3976.5625,-20.5653,56.6958,54.5898,39.6912,92.0017,69.5053,5.0620,90.8448,-55.2028,-110.8861,-10.3019,-27.2917,46.4150,-42.8858,-67.4082,-58.7519,-92.0762,-109.2294,10.4634,-119.2796
-3968.7500,29.7822,38.1480,64.5727,-14.7744,29.6515,-28.6524,24.3210,28.7463,-8.0911,-176.7435,0.9792,20.5612,21.1027,-68.6549,-19.7793,-84.3811,-4.6247,43.9461,29.2645,37.3399
-3960.9375,82.4778,56.9442,51.8949,75.1038,-54.3610,-39.4556,-61.1041,19.0156,-18.6307,-117.2889,63.6097,119.7756,-62.8645,30.9402,5.2057,52.3623,14.1757,-88.3067,-90.5698,-85.7059
-3953.1250,211.3353,151.9019,144.3668,169.1431,-107.2299,-18.0866,-173.0430,3.4667,-35.0196,10.2960,10.3683,103.1427,-41.6922,-22.3093,-48.6706,72.2691,-67.8949,37.7672,-309.2635,43.3857
-3945.3125,147.4031,125.0504,150.0241,107.3693,-172.9123,-120.5178,-166.2405,-99.8687,-102.1991,-58.9335,127.3171,146.7173,-34.3184,21.6475,104.6544,153.3940,81.2337,72.4728,-299.7506,85.6813
-3937.5000,136.6285,220.3551,179.8224,167.7442,-142.4489,-15.7899,-217.5281,-31.0391,-108.2214,4.9751,84.4116,139.4514,-40.8071,51.7662,61.1326,110.6967,-69.5030,-8.1256,-413.0962,4.1018
-3929.6875,120.7658,205.5662,156.5224,117.0182,-163.0912,-74.1540,-169.2820,-89.2918,-57.3297,-57.2325,-11.6113,117.0862,-25.3983,29.7839,75.5050,51.9108,91.6455,155.5507,-354.5582,164.4274
-3921.8750,152.5997,167.4682,159.9126,185.9869,-159.0475,-68.8184,-171.6175,-120.8352,-125.7323,-92.7602,30.0631,158.4329,-130.2925,108.5119,42.5906,93.8513,229.5006,16.7356,-285.3195,20.4463
-3914.0625,410.2440,251.1823,209.1036,268.7679,-108.2114,-54.6689,-205.9395,-143.5508,-112.3304,-45.4965,-29.4781,61.5791,-153.3991,-61.9506,-91.5309,34.6136,172.1350,33.3498,-340.3041,32.2540
-3906.2500,373.8963,144.8945,134.2837,198.5398,-107.3874,-127.5175,-135.8107,-215.2585,-74.9282,-85.2608,7.9762,98.7322,-152.5108,-61.4001,-54.6521,35.3974,276.7759,29.6563,-198.2900,31.0736
-3898.4375,364.6049,277.6564,131.5102,295.3621,-71.5225,-17.3073,-158.5036,-105.8975,-76.4689,-53.9914,-30.5249,96.9456,-226.5868,-25.7793,-93.7199,-2.7441,127.4526,-116.7855,-239.2331,-119.0762
-3890.6250,372.4777,321.5722,60.8826,234.3350,-67.5179,-12.9354,-146.1039,-64.3610,-109.8419,-89.5692,-63.9060,63.3107,-149.5205,-59.0047,-127.6430,-35.7196,31.2581,31.4674,-193.0489,29.9309
-3882.8125,267.1008,217.2312,-8.0102,165.0484,-97.7848,-5.8128,-126.2931,-20.0641,-139.4580,-49.4161,-20.5436,106.4437,-141.7115,58.5440,-47.8052,82.0833,32.8188,-79.6336,-119.1188,-75.3077
-3875.0000,205.5868,226.7569,0.9456,139.6256,-50.2181,116.1735,-114.5335,138.1066,17.7765,141.5742,-157.3478,-30.5611,-131.0701,-41.0428,-111.1202,55.7625,-169.7899,-66.7247,-177.3609,-66.7056
-3867.1875,122.5313,38.7338,-125.6521,-13.3524,-102.2202,63.6138,3.4401,123.7371,75.4671,84.9962,-99.7172,-47.1097,-72.9795,-57.1752,-16.9903,40.9081,-75.9506,24.1741,59.8455,26.3627
-3859.3750,51.6247,39.8596,-117.1078,58.8195,-55.0845,185.2069,-2.7054,208.5340,-24.6835,91.5575,-89.9414,-37.4912,-99.7527,-10.1384,-7.7049,-22.7692,-144.9725,-143.7433,63.1941,-149.4346
-3851.5625,90.7390,-61.0054,-118.5693,62.9983,19.0447,185.8124,28.6455,246.3495,-24.8232,89.1145,-163.1878,-110.8650,-25.5377,-120.0997,-44.4273,-95.4328,-176.0143,-26.4645,69.5220,-40.2296
-3843.7500,25.4183,-125.3245,-183.4926,-1.2830,-7.2891,122.9623,61.4815,257.7190,-14.4085,132.1961,-115.8899,-63.6757,-88.7758,-36.5000,38.4093,-11.5278,-169.5019,-98.8872,148.4027,-105.4706
-3835.9375,30.8138,22.0642,-177.7222,40.1377,-36.9267,204.8275,-4.9911,338.8092,65.7081,283.9701,-219.9077,-93.7793,-118.3312,-29.1835,-29.0552,33.1014,-409.3106,-98.9205,15.9677,-100.0290
-3828.1250,16.1732,-61.5956,-236.0043,-78.4959,-131.6262,74.6497,20.9965,208.8661,228.7797,295.6749,-165.9961,-40.9300,-101.9429,24.0874,23.4289,49.7003,-317.1746,48.0634,39.4714,61.3800
-3820.3125,-19.0093,-25.8062,-193.8439,-41.6822,-160.8931,7.9275,-30.5500,143.3879,309.2971,372.8135,-86.6370,2.3864,-94.1244,104.8351,29.3677,203.7832,-351.5847,-69.8301,-62.5852,-43.7680
-3812.5000,-2.0221,-6.8451,-145.5257,-58.7062,-184.0201,-15.6279,-35.9105,120.0782,432.9713,419.1019,-147.1504,-59.1420,-82.1723,43.7358,-32.5585,180.0303,-333.8556,88.9495,-112.5214,114.2348
-3804.6875,-93.4207,-133.2863,-203.6093,-44.1303,-203.5676,-70.5884,-1.2301,64.3723,413.2535,321.9725,-94.0735,30.9400,-64.6320,98.2448,58.1248,234.8963,-143.5130,67.3382,-59.8636,92.8478
-3796.8750,-33.5537,-72.4675,-101.4425,86.7077,-136.8839,-2.2865,-48.2802,95.9339,406.7956,350.0939,-137.7620,-11.7151,-69.8629,19.0183,15.0582,193.0375,-187.9315,-6.2166,-208.9759,11.6963
-3789.0625,44.9338,-97.0415,-97.6793,61.1518,-168.6195,-71.3804,-20.8717,27.1161,373.9547,239.8240,-132.8745,-7.7696,7.4914,-13.6140,54.5832,86.8031,-73.7564,144.5262,-161.5082,161.1611
-3781.2500,15.8278,-56.2151,-86.5261,137.9989,-155.9775,-20.0731,-17.9865,42.7083,240.5204,102.9493,-120.5984,116.5934,-88.7718,74.1726,104.5165,100.9981,-32.1760,15.1253,-117.6493,26.0243
-3773.4375,22.0872,-14.0256,-82.0233,110.2083,-149.9947,58.5947,-44.9022,121.6696,245.4440,140.4300,-188.9938,46.3098,-84.6975,41.3140,-2.2061,69.5623,-131.2683,96.0864,-144.4629,102.2377
-3765.6250,-48.4964,-118.6890,-155.3808,-135.4432,-147.8735,24.4051,34.9039,87.7819,173.5309,30.0529,-113.2517,85.1814,-82.4802,117.6120,73.2289,146.2971,-25.2046,91.9180,69.8679,102.6190
-3757.8125,25.0825,-44.1997,-109.5873,-200.9427,-100.6067,110.3688,-10.5943,174.0557,74.7724,36.8141,-66.3690,23.2152,-70.1287,129.0811,9.8207,121.2094,-162.0017,-44.8043,41.3297,-34.8596
-3750.0000,14.1314,-125.2581,-126.3366,-316.9864,-43.8999,57.7916,50.0587,157.7930,21.4704,-18.9840,-47.0551,-67.2983,60.6667,39.0042,29.8596,68.5816,-101.3597,87.7537,138.2142,94.1316
-3742.1875,-27.3617,-200.8763,-126.6365,-356.5864,-41.7574,97.6615,70.8000,197.9814,-50.3834,-93.3371,-8.2950,-28.3479,25.9017,152.3963,105.3648,145.4326,-107.2609,-58.8535,205.5387,-52.4228
-3734.3750,35.4611,-136.1817,-98.6281,-293.8809,-12.3247,164.8407,19.2334,265.4865,-20.9271,-31.3744,-89.2575,-73.0946,18.4190,71.0966,-12.8323,101.6050,-184.8843,-25.5073,95.1346,-24.6798
-3726.5625,-36.3596,-242.1450,-138.2683,-329.8292,-13.5590,53.3639,88.3664,191.3508,-59.1065,-36.0640,-54.8845,-74.4839,53.2806,70.1517,57.3185,100.1414,24.8512,9.3714,237.0752,8.4349
-3718.7500,-68.7173,-134.6633,-54.4600,-186.3172,34.6403,102.3432,37.4763,241.6826,-83.8326,8.6877,-80.0714,-99.4075,-7.4244,82.6698,-4.0704,113.1457,-6.9657,-157.1978,136.4599,-165.0128
-3710.9375,16.8942,-82.2309,-7.7016,-204.8423,45.7783,41.2839,50.7675,216.9829,-35.5966,-20.6019,-143.3325,-125.3795,2.8087,20.1406,-30.5173,15.1112,9.1485,1.2678,119.7718,-8.5020
-3703.1250,19.4634,-79.8521,33.9949,-272.4194,-21.1491,-24.8260,21.6236,114.2434,-29.4068,-54.9442,-26.6527,28.6073,-27.0204,137.5753,48.9893,96.0527,47.2196,-81.1788,89.0288,-77.0366
-3695.3125,92.8076,65.2941,109.4446,-197.2348,-18.3348,-21.1720,-75.0525,155.2747,-26.4681,55.4687,-97.2444,31.3521,-24.1163,103.7769,-21.7635,99.7614,-89.9759,-45.8198,-115.9927,-38.8328
-3687.5000,9.4234,-17.3030,90.1466,-244.7958,-73.2878,-112.2631,-17.2203,64.5635,-7.2745,-1.8640,-5.6051,13.3536,32.0232,86.2364,69.7269,82.7316,108.0806,81.1118,-20.7821,88.6394
-3679.6875,34.1023,79.1629,121.9010,-113.2956,-76.2121,-78.2993,-75.7687,61.9134,-11.0340,-10.1495,-8.9272,46.4271,-8.8057,156.7693,102.2719,116.7747,99.1922,-36.5259,-169.5444,-26.8471
-3671.8750,121.8157,131.6595,130.6637,-95.7775,-139.1522,-104.3252,-103.6826,0.2796,73.2008,-2.4394,-72.2745,19.5168,75.3444,57.3080,74.8036,90.8262,116.2967,152.5722,-254.3423,165.6791
-3664.0625,83.9986,94.6106,90.8766,-97.8029,-177.6629,-176.9113,-121.9654,-73.9084,-2.1137,29.7120,-1.1825,128.0759,36.9265,129.3091,146.7904,201.3389,218.8662,142.1115,-254.7045,162.6752
-3656.2500,68.9969,256.3734,114.8943,28.9855,-189.3894,-41.6913,-202.7245,-10.2889,-13.6270,123.6753,-86.3080,153.4474,-11.7126,81.1273,23.5792,153.6744,99.2286,97.3235,-373.2926,112.4651
-3648.4375,99.2163,181.3388,71.1140,-10.0286,-157.9314,-83.2729,-128.8945,-125.4658,-18.9351,42.8519,-19.2506,148.0199,-17.1650,3.1477,54.5703,112.2212,270.7894,130.0724,-234.7051,142.4805
-3640.6250,128.7027,71.5560,187.5861,20.2043,-41.2461,-111.6096,-68.0051,-190.3891,26.0082,9.2850,98.0520,81.8516,-9.3881,-25.5643,134.8219,121.0449,265.6094,-120.3699,-202.8816,-109.2510
-3632.8125,223.6167,26.1894,245.4678,-60.1516,91.8270,-88.5448,-44.8183,-202.9024,85.3631,28.1356,82.7291,-42.9128,49.7748,-149.8713,10.4712,34.2824,184.8161,-20.5345,-211.6953,-14.5726
-3625.0000,142.7429,-53.9800,159.5466,-176.3076,80.0794,-98.2917,9.9767,-176.2188,36.9248,-132.8079,144.5955,56.5414,38.1269,-13.9664,35.3290,60.7321,174.2314,1.2967,-44.3208,9.3267
-3617.1875,125.0823,-0.9364,141.8325,-87.2443,63.5205,70.1631,-39.4489,-7.3294,-52.3248,-115.5394,17.6493,40.2122,-51.3422,44.1557,-18.6146,82.4031,-19.1622,-7.9689,-94.7726,-8.5782
-3609.3750,47.4910,-75.8384,17.1733,-127.1234,13.0020,57.6747,7.8948,-19.3870,-28.5191,-132.2106,3.7304,63.9315,8.2273,-5.6766,4.4800,70.1349,9.4917,160.3010,5.8094,160.5917
-3601.5625,1.9122,-122.7392,-61.4911,-138.0020,10.4677,18.1828,45.3259,-21.4407,41.2969,-101.8734,36.7978,60.6621,-31.2292,65.5069,73.5794,177.8859,-0.8413,0.9219,67.3830,8.7647
-3593.7500,69.1597,-54.8211,3.6501,-106.0620,39.7245,12.5017,27.1518,10.3158,108.9300,-75.7048,-8.3649,-93.8049,-1.9127,-14.5063,29.4673,98.4431,-73.3916,106.5360,-39.2752,110.7399
-3585.9375,120.3724,-72.9638,17.7385,-194.1647,-19.0823,-119.2312,53.5936,-120.9767,48.5211,-211.5824,115.4068,-42.3129,48.3413,36.4363,116.3039,76.9586,82.0204,185.6937,49.0069,196.6860
-3578.1250,192.1435,69.4441,96.3798,-122.7015,-13.3507,-112.4025,-29.6743,-113.7089,19.6606,-97.9037,122.7227,-35.2601,19.1309,43.9481,123.6949,122.0455,-57.0228,74.2045,-122.1848,92.1740
-3570.3125,181.2364,25.1627,114.3259,-201.9236,-30.3291,-201.2608,-22.3851,-129.1300,40.1070,-44.9131,104.3150,-51.9069,75.2073,-9.2349,141.3761,142.4470,-66.7760,235.3019,-131.1130,256.9825
-3562.5000,118.9400,-37.5154,89.8694,-263.5379,-16.7324,-223.5253,-4.1817,-149.9476,53.1411,-70.3095,191.5036,35.0663,88.8714,79.1991,228.6671,194.4629,-22.9169,130.3520,-121.4556,159.4006
-3554.6875,190.6616,104.8248,161.4265,-156.1297,55.8552,-186.7802,-66.1634,-186.7540,89.1589,-74.6842,152.6737,71.0443,124.5194,41.6387,153.9490,10.4853,-127.0675,202.8210,-328.8275,230.8172
-3546.8750,167.7029,118.4666,61.2907,-107.4188,-7.2686,-211.7359,-65.9054,-321.2639,64.4724,-214.7513,199.1304,155.3242,171.4567,53.3771,200.5305,23.8068,61.0966,282.1943,-314.9083,313.5529
-3539.0625,135.6618,157.0188,108.0651,-34.7965,3.4949,-89.7902,-96.0863,-271.8716,75.6803,-131.9035,174.4726,94.5202,73.2705,102.0360,139.0102,73.0450,63.1660,115.1883,-345.1112,140.1794
-3531.2500,197.6983,43.6380,130.9056,-77.1022,29.2977,-136.7914,-50.5089,-282.4257,173.9455,-73.9886,123.8366,-27.2281,61.1163,16.7477,16.5279,24.3314,125.2826,219.5730,-246.2988,236.8717
-3523.4375,193.7511,-29.7447,95.7542,-80.3974,-6.9182,-133.8017,-27.3041,-278.9887,66.2097,-75.0761,199.1954,11.0329,-47.0522,93.4732,54.0525,28.6230,192.4185,112.8261,-107.4952,127.5797
-3515.6250,231.6195,8.6778,99.4117,98.1254,-2.3405,18.9906,-54.7972,-126.7415,34.2729,-36.3421,93.3381,-20.9005,-43.4385,-47.9909,-51.6310,-113.2731,54.3478,95.0667,-138.9157,94.0843
-3507.8125,158.8548,-62.5506,20.4245,62.0026,29.5771,-58.8722,24.8583,-165.1462,-42.3112,-117.2399,161.8148,48.5138,-10.4846,-124.1027,-18.9690,-225.8149,157.6328,167.6823,35.9983,161.9631
-3500.0000,110.7106,64.8310,15.0440,119.4921,25.0785,11.8645,8.9219,-94.9516,-84.3071,-124.5253,156.8851,44.5422,-14.9504,-91.5954,12.2976,-229.7442,73.5241,-21.5812,24.4898,-27.5598
-3492.1875,126.9390,11.5860,-10.9744,66.3532,37.9189,25.9599,41.2020,-44.4035,2.0398,-41.4312,21.2846,-53.0719,33.9189,-187.7336,-13.0958,-214.3180,-50.2449,100.9708,43.2920,94.2824
-3484.3750,-42.6163,-123.4526,-111.7872,2.4225,-26.0582,-0.7505,89.0051,-32.6627,12.5762,0.8745,30.8803,-5.4698,43.9749,-104.6584,106.7174,-56.6897,-44.8005,28.7470,156.2745,29.3450
-3476.5625,-85.3528,10.3287,-81.7905,66.3215,41.7509,106.3521,46.4368,73.8776,-66.1023,67.0036,-122.7392,-47.0596,1.8095,-71.7703,28.3292,-60.2487,-191.5585,-6.8044,79.0212,-13.7956
-3468.7500,-55.7217,-29.5357,-129.4365,-79.4155,67.8982,22.8036,119.3201,27.7685,-75.4331,-19.4916,-133.0263,-58.3055,63.9863,-118.5335,53.2872,-106.4555,-126.9623,127.1929,216.0961,121.4396
-3460.9375,-41.5828,20.0984,-145.5800,-29.6441,16.5325,46.7571,70.2358,89.1547,-90.2714,-0.4775,-111.8160,-35.0355,-23.3495,-21.7759,75.7520,-9.1502,-183.8563,-39.6772,161.6618,-40.8238
-3453.1250,-27.2650,69.9058,-170.5611,20.2844,28.3141,21.8641,42.9145,64.6954,-78.9655,118.7060,-173.4716,-59.6095,24.4505,-82.8610,13.3522,-32.6969,-239.6102,42.5187,106.3525,43.0741
-3445.3125,-127.9309,-64.2910,-163.5394,-8.7776,36.0834,-116.0351,112.4218,0.2227,-33.6677,12.8955,-94.1332,-14.1679,32.2422,-0.9412,130.9510,12.7478,-59.3417,10.5999,184.0355,12.9969
-3437.5000,-76.5317,-13.4279,-70.4566,78.2413,56.8950,-56.8749,82.9404,60.7978,24.6602,68.1532,-183.7498,-66.6643,-56.9351,22.0378,78.5951,-0.7587,-78.0201,-72.8245,95.7452,-77.0358
-3429.6875,-8.7119,-50.1531,-79.9618,76.6823,10.1037,-102.3084,84.2794,-21.2331,89.3760,19.8302,-192.9902,-38.7600,-30.7230,-23.5894,31.6309,-82.8705,60.6992,101.6230,94.8298,96.3536
-3421.8750,-31.9783,-37.9770,-26.5690,159.0314,-44.8004,-45.8498,28.2078,-74.3687,33.9810,-1.5796,-102.3330,54.0582,-85.6275,69.6980,49.5717,-26.0790,107.3320,-29.7504,36.8088,-33.3526
-3414.0625,8.2760,72.7149,11.3370,234.9031,-6.2133,31.1198,-38.7999,-70.9982,37.0782,71.5392,-173.1937,56.3779,-84.0446,-0.5083,-21.9986,-21.7968,6.4595,45.8369,-131.7402,41.4452
-3406.2500,-109.6042,-44.7398,-2.8919,153.6312,-56.7835,-17.0714,-2.5447,-119.7900,24.0188,92.5231,-77.2088,80.5464,-96.6149,24.1352,1.2791,40.3269,169.4566,68.5066,-3.4500,64.1180
-3398.4375,-131.1157,-65.8340,55.2456,272.7231,-35.0133,116.0853,-67.8355,-22.2396,9.2959,258.8810,-92.8730,67.0687,-148.8485,10.1411,-50.0939,63.8078,77.8084,-88.7007,-128.8317,-98.8642
-3390.6250,-75.2039,-43.5170,71.7992,260.2294,-17.8451,97.6429,-39.4040,-40.2904,26.9742,162.6668,-113.1595,-26.0139,-95.6955,-82.4569,-71.0801,-28.3206,133.5621,43.7461,-106.8382,27.5754
-3382.8125,-55.8851,11.1918,96.7606,279.1455,7.7168,51.5891,-27.4487,-49.9549,-20.9551,38.8724,-51.0495,74.3129,-143.1525,-18.6444,-8.6646,-38.0519,152.7429,-80.1465,-86.4553,-94.5716
-3375.0000,12.7968,115.2667,130.0870,278.4425,41.6259,86.8922,-67.9210,22.7272,13.4608,144.4588,-128.6050,34.9946,-146.2778,-57.4800,-121.9099,-75.4335,-24.7261,-47.1170,-157.7529,-61.3677
-3367.1875,-65.8522,37.0034,43.0683,130.4046,29.1724,-35.1618,-27.3160,-24.9549,-35.4727,129.7241,-68.5241,59.3284,-85.7617,5.3337,-97.5068,-13.1686,37.4653,42.4586,-24.4208,35.5159
-3359.3750,-139.0892,34.1523,8.4564,162.7825,32.1043,43.1745,-54.2137,53.7542,-105.0079,203.4244,-102.0470,64.0737,-118.8638,82.5638,-94.6996,138.5059,-106.9397,-103.9907,-26.7121,-109.2000
-3351.5625,-136.5547,-67.9309,-30.3935,95.9282,30.7808,5.2602,46.8772,53.2128,41.2063,162.9114,-140.8338,-47.4340,-10.2250,-64.4581,-97.1566,27.9213,-69.6000,8.6146,117.7142,-1.1447
-3343.7500,-163.4137,-165.4217,-53.6386,33.6846,45.0451,-52.0624,120.5761,33.2556,93.0086,102.0202,-54.0179,-32.3367,-32.9902,-11.8702,-9.0041,-29.0687,79.3570,-125.2043,232.7345,-134.4716
-3335.9375,-102.5597,-68.1987,12.8250,131.1622,38.0089,15.3261,42.8425,137.9977,85.4987,239.8551,-134.5066,-75.5387,-77.0669,-54.5764,-126.1574,-34.3646,-34.9918,-164.6917,118.4298,-179.1000
-3328.1250,-113.9338,-151.2213,30.0439,84.3976,-17.2807,-1.5395,43.1458,121.4774,-42.2694,35.4552,-80.2530,-19.9974,-21.3926,1.4617,-108.5700,-50.9246,128.4205,-30.7354,177.8630,-50.9485
-3320.3125,-170.7929,-65.7354,88.7700,134.1414,4.9244,22.0848,4.9339,181.4425,-130.5478,-18.4238,-21.4969,3.0502,-73.2264,99.0074,-86.4784,9.0067,107.3445,-191.5089,122.7852,-213.2961
-3312.5000,-138.0273,-33.6235,154.1130,167.5035,-3.2653,16.3124,-19.4408,175.9981,-27.2349,119.3319,-66.1515,-40.3097,-80.4661,-17.8532,-167.7964,3.5227,68.8605,-88.1594,50.2691,-111.0293
-3304.6875,-227.7517,-123.0148,135.9617,148.3693,-57.9653,-73.9763,-3.6756,123.0322,-44.4306,99.6111,25.6955,52.8344,-62.2033,75.7914,-75.6041,60.5305,224.8949,-148.6217,101.2450,-166.2402
-3296.8750,-189.4647,-48.3967,177.8182,258.2586,-15.6685,5.7406,-86.3014,167.0587,-75.6404,138.9166,-6.4607,58.9849,-19.9504,82.4436,-107.4105,30.5325,86.9306,-180.9344,-105.8041,-198.4534
-3289.0625,-178.4588,-74.0691,140.3860,232.8685,-89.6758,-28.8418,-110.1801,131.7685,-147.1615,63.9437,-6.9245,96.8366,53.9959,83.7944,-33.5243,-3.7884,167.6719,37.1224,-165.1737,22.0612
-3281.2500,-150.7406,-10.0309,64.6589,297.1957,-127.9926,44.2666,-153.3593,95.1589,-223.0000,22.6866,64.3144,169.3952,-22.3699,193.8610,-34.9357,32.5843,125.1346,-80.7173,-171.8556,-90.7176
-3273.4375,-51.4527,19.5758,53.4988,292.0984,-102.7607,107.9353,-160.1079,122.0955,-159.2981,47.0112,-20.9051,85.4950,-33.1932,110.4743,-119.8139,-50.5071,13.1433,21.1717,-212.0139,8.0641
-3265.6250,-76.3496,-4.0148,-9.8534,197.8070,-127.7350,46.3934,-108.6838,24.8108,-184.8115,19.1544,63.6775,134.3922,-59.2175,122.8861,-72.8911,-37.8071,93.9770,26.2197,-60.3770,18.6704
-3257.8125,-35.2295,177.4107,-36.1865,274.5345,-80.7119,95.8478,-159.7661,73.5116,-211.3486,138.3199,-36.7375,145.2935,-122.2502,134.3036,-172.9676,-62.1125,-41.1807,-74.5947,-124.7610,-81.7262
-3250.0000,-42.8876,135.0460,-88.3004,162.4750,-59.4911,44.4986,-64.3856,22.3978,-189.6939,83.7076,-125.9655,167.3951,-100.0833,46.9148,-150.8511,-112.2395,-14.1285,94.8557,44.0355,86.1012
-3242.1875,-35.6856,36.5333,-150.5564,134.2775,-9.4338,58.9919,-4.2548,37.1152,-212.2016,-52.0322,-77.3400,181.3546,-162.0739,98.3852,-101.8834,-98.5305,27.7945,-36.6684,157.6806,-48.2125
-3234.3750,3.6802,41.1910,-111.6464,174.2606,65.7759,136.6393,0.1925,77.9751,-136.5712,22.4086,-148.5723,37.4644,-122.9252,-44.9966,-171.7799,-167.6936,-74.1338,9.3963,91.4490,-9.3711
-3226.5625,-66.3451,-63.5501,-112.1298,69.8588,101.5791,26.8815,40.9642,-68.5858,-173.3546,-17.5333,-40.2056,74.1725,-13.1806,-7.7828,-64.0806,-166.2731,67.5582,37.5189,127.8087,26.0970
-3218.7500,-80.7675,28.3192,-49.0077,162.0738,128.9829,91.7214,-34.2214,-76.5571,-220.5528,-28.8431,-14.2366,138.4819,-23.8446,57.0333,-73.7785,-102.2588,-18.1463,-86.1551,-27.2422,-94.8400
-3210.9375,-1.7255,107.6457,-48.4224,100.7488,165.8492,-16.9913,-2.9810,-147.0892,-182.3083,-65.6668,-13.8266,67.2265,-23.0591,-51.7103,-72.0430,-135.8127,-9.4003,95.7411,-17.8598,89.6908
-3203.1250,-5.2775,103.3635,-50.4323,61.8325,128.1163,-90.3151,16.7939,-220.2408,-145.6793,-33.0743,58.9935,66.3707,-60.8742,22.9548,36.0946,-25.9780,21.7676,9.9584,13.9197,14.6311
-3195.3125,-1.2643,142.6508,-11.8730,66.4920,129.9411,-50.0818,-51.7360,-142.8555,-70.5172,188.0869,-13.6384,33.0634,-59.1444,-10.8265,-72.2245,14.3859,-114.5163,45.9513,-122.7806,53.1218
-3187.5000,-72.5852,36.5970,-53.6569,-39.1872,87.4154,-127.2119,20.9635,-183.8498,-38.7189,106.9124,17.3812,101.4036,-26.7544,-14.9668,-3.8930,10.3777,23.8635,148.9052,18.1585,157.2932
-3179.6875,-82.7489,97.6976,-58.2876,22.2978,48.0403,-56.2047,-18.7289,-113.7200,-42.7841,138.9218,13.5611,135.8993,-68.2148,20.0497,-8.4065,8.5095,-20.5939,-1.7061,-27.7634,6.6149
-3171.8750,-4.6478,106.0603,-56.6499,-4.9529,11.9197,-16.9493,-1.6263,-73.3549,-3.6051,138.2189,-59.0102,-9.3617,-29.4254,-87.6893,-6.6845,-25.1349,-48.8028,149.9598,-19.4569,154.2019
-3164.0625,-67.1412,8.8221,-81.6072,-66.8023,-49.8020,-40.3055,26.6143,-23.6144,-65.0338,112.9326,25.8315,-33.2237,-18.2298,-38.0242,78.4445,61.5998,64.4109,52.1634,94.2450,56.2062
-3156.2500,0.9353,6.1511,29.0026,36.9174,-11.9739,71.8889,-14.2583,88.6634,-64.9273,185.2211,-47.7665,-105.5401,-54.4887,-35.8084,-31.8765,-10.1321,-79.8252,-10.4619,21.4700,-17.2410
-3148.4375,7.2300,-93.3152,30.8265,-26.1529,-9.9447,76.2730,28.9552,19.1216,-61.6347,1.7316,-9.1645,-101.6641,21.4612,-32.4068,-30.0001,-79.6878,67.1520,69.7867,97.8853,58.5382
-3140.6250,7.9258,-57.3828,41.0638,45.1845,0.4851,161.0458,16.8280,67.9629,-87.9566,-26.3371,37.8450,-54.3892,-42.1921,16.3988,-19.7153,-68.8529,32.5445,-139.0521,98.7004,-152.2840
-3132.8125,13.0811,-50.9931,79.7691,51.9918,76.3744,164.2696,63.6807,71.2419,24.1654,48.0892,-70.7024,-161.6764,-39.3898,-127.3565,-127.9906,-175.5922,-32.6227,-54.9582,139.9445,-76.6455
-3125.0000,-90.9154,-119.7611,47.3304,-87.3459,154.1114,96.3285,165.4749,3.3424,66.1272,14.3988,6.6008,-193.1185,-72.7315,-121.2658,-86.4106,-169.4987,39.0801,-125.7568,317.0403,-146.1350
-3117.1875,-9.9610,-3.5617,59.8483,-5.7147,240.8009,185.3382,114.8666,91.3765,79.0178,62.6964,-54.1403,-252.6115,-96.1280,-144.2247,-183.8863,-191.4680,-127.2661,-183.4658,187.0691,-206.6792
-3109.3750,15.7577,-47.5959,6.1315,-119.3197,223.2444,95.0922,151.1054,2.1374,61.6463,7.7679,-35.1281,-231.3618,-39.7698,-196.4477,-128.6201,-206.7224,-30.8516,-22.2072,247.8297,-40.4496
-3101.5625,-12.5167,-40.6322,18.4238,-112.9146,236.6897,108.8380,130.7380,-21.1314,1.2484,-18.1591,13.9010,-182.1029,-64.4090,-109.6645,-79.3449,-119.9953,-24.4150,-160.8559,219.5876,-175.2184
-3093.7500,37.8170,9.9420,28.3380,-60.8907,209.7463,158.1885,64.7973,27.1906,48.4373,27.5398,-49.4706,-207.2527,-16.4477,-134.2893,-142.4864,-181.6972,-79.3770,-39.4894,58.9259,-54.3843
-3085.9375,9.6528,17.0134,-3.2401,-88.3614,104.3040,53.0293,54.0772,-77.0108,17.1140,-42.2378,64.6663,-91.9065,-11.9803,-54.4214,-27.1279,-138.9274,67.1827,-8.6018,65.7614,-13.0308
-3078.1250,81.3429,193.9489,111.0432,-16.9670,71.7170,58.7140,-71.3222,-34.3783,-52.3673,70.8692,31.6661,-49.7106,-44.6645,-12.7032,-59.9230,-60.3282,-37.4019,-83.8297,-144.5717,-82.8352
-3070.3125,118.0447,160.9026,104.3405,-14.5539,-8.8697,16.3914,-89.6043,-75.7708,-94.8499,26.0138,61.6700,-91.5242,21.6646,-54.0018,-65.7229,-64.7589,70.0191,94.7405,-141.9306,94.3822
-3062.5000,57.7072,65.8127,120.5938,67.8196,-28.5139,70.9995,-121.4639,-59.2426,-225.3954,-68.8814,151.6517,34.6142,-35.0426,73.6518,-13.5620,-48.2542,185.4137,-30.8393,-166.3511,-36.4406
-3054.6875,81.0854,125.4415,217.5703,196.9158,31.5441,169.3052,-164.7342,-35.0267,-202.2557,-10.0415,63.3403,-14.5516,-49.0495,25.0013,-137.7077,-134.0701,138.5034,3.0172,-284.1041,-13.5595
-3046.8750,14.2729,57.8679,181.3506,165.8207,-41.5995,61.3929,-109.8373,-106.0385,-127.3269,-47.3701,64.8322,61.0743,-48.2480,27.1428,-64.0481,-59.1029,281.4116,36.3280,-176.0623,24.1486
-3039.0625,4.6085,118.4457,177.2867,226.8884,-81.5884,95.6261,-157.4433,-35.9183,-132.2605,58.4807,23.4836,57.8439,-52.2934,24.4396,-31.2347,48.9996,201.4775,-119.0170,-255.8789,-126.9992
-3031.2500,19.6948,98.7776,148.9800,207.7173,-73.8170,68.6105,-138.6459,-26.0605,-122.4507,66.1167,-5.1191,-6.6570,30.4165,-76.5260,-59.6813,-52.1687,216.2852,40.3453,-240.9547,28.6219
-3023.4375,32.8789,148.1995,93.7703,222.6398,-128.9412,50.6858,-138.7491,-43.1251,-178.5536,8.8699,86.3914,48.9383,-24.7668,-19.3952,-41.0206,-69.2563,229.2077,-55.1347,-157.9194,-63.6444
-3015.6250,146.1244,261.6863,100.6187,265.6195,-159.0030,132.8098,-177.3267,37.8456,-135.6190,88.7058,-17.0425,-16.4279,-54.8967,-48.2220,-145.3181,-61.3169,-9.8279,-49.0114,-184.8457,-56.8637
-3007.8125,58.7789,103.5743,-32.1325,72.9923,-216.6521,1.3244,-59.8624,17.1899,-10.2967,65.9627,-3.0704,-1.4098,-3.6111,-32.6645,-57.2117,-9.0085,43.5477,29.8848,43.6254,31.3410
-3000.0000,6.3313,86.3639,-43.9779,-13.7270,-155.3941,27.7316,-10.8615,43.4134,51.9076,90.1383,-15.1826,-12.4944,-15.4196,30.7943,4.8044,54.1784,-115.1651,-135.8233,95.9907,-127.5597
-2992.1875,57.6866,67.9675,-107.0090,-171.6259,-72.3281,-35.0564,32.9832,54.4288,134.8986,62.1410,-42.4973,-75.7925,68.5790,-31.9643,-22.3921,28.1368,-204.0797,15.4672,112.1373,29.3544
-2984.3750,0.5933,-59.8847,-129.4891,-263.9743,-57.7092,-93.3181,64.8765,32.9654,39.4252,38.7195,45.7536,-23.5402,119.1335,57.8235,65.9670,80.6310,-155.4212,-11.4286,195.8363,6.8355
-2976.5625,63.4076,39.1743,-101.0529,-165.4127,-28.1795,11.3117,-4.8652,99.3847,31.8374,103.2314,0.9164,-104.3874,74.5901,51.5074,-15.7759,74.0072,-268.8632,-15.1488,47.4146,-0.7897
-2968.7500,21.5853,-2.4067,-113.2492,-240.5002,-77.2876,-73.7200,20.6372,50.1261,54.5866,52.1123,60.4387,-78.8947,135.4119,2.5266,43.8265,24.7049,-134.9423,116.3882,75.3284,132.9608
-2960.9375,-3.8801,42.3732,-60.0876,-126.2324,-61.0468,-56.4150,-23.5119,32.1881,-38.3367,31.3562,114.3421,11.9514,78.5937,56.9026,60.7844,78.7339,-126.6537,-49.5090,14.5825,-33.9382
-2953.1250,7.8205,19.3194,-16.7551,-77.7970,19.3522,-11.9644,-27.4236,2.3796,4.8770,74.7760,47.4053,-18.0668,122.9369,-8.5828,-42.1163,12.8883,-184.2183,73.6397,-43.0401,83.3225
-2945.3125,-91.2801,-113.5465,-82.2121,-176.1649,-10.0431,-76.3325,45.8685,-62.2636,12.2789,44.4191,127.6915,-9.8948,129.4971,74.1175,75.1953,58.2191,-38.5586,39.6283,102.5384,53.8016
-2937.5000,-78.0749,-66.1101,-28.3537,-92.2254,80.8684,15.5933,47.0816,-44.6288,139.9704,97.3863,71.2981,-65.4352,110.3718,55.1121,18.8128,-34.1646,-131.6007,-49.3871,9.4032,-39.4269
-2929.6875,-22.0107,-149.8184,-12.6358,-175.4332,60.6349,-40.6392,103.3401,-100.1641,192.5078,2.2294,87.7618,-84.1364,127.1132,-37.0629,34.2806,-89.7301,-39.7915,79.5381,101.1040,87.2197
-2921.8750,2.0516,-161.5209,-16.9226,-186.6418,-17.5959,-7.8862,81.9608,-105.7218,188.0310,-3.9117,119.2420,-52.8391,84.8615,31.7592,65.7660,15.6819,-15.9697,-77.7434,124.8061,-65.1304
-2914.0625,45.5138,-82.8119,24.1957,-107.4421,23.5900,71.2699,64.5046,-26.8876,191.9464,0.3805,-60.8783,-121.1567,89.0150,-73.0348,-40.3555,-89.5300,-43.7556,13.7519,61.8971,12.9211
-2906.2500,-45.5831,-136.6655,-35.2372,-91.7933,1.2330,12.8655,110.6349,-120.6290,132.3141,-132.8500,-9.5397,-70.0374,103.6335,16.6064,10.9795,-110.3177,146.9252,30.3570,181.4405,27.4413
-2898.4375,-40.6258,-27.4644,12.3822,19.9180,85.9330,61.5004,52.1037,-73.3381,32.7187,-50.0070,0.8658,-94.8661,78.3055,-8.7058,-51.6287,-100.0695,46.6567,-102.0476,81.0245,-108.9970
-2890.6250,27.3367,-30.2576,3.0078,-53.3686,149.6441,-20.8717,60.3170,-118.0686,-13.8778,-133.1369,28.2766,-103.7042,141.9927,-54.0372,-25.2376,-144.8508,113.3858,33.8288,42.5965,28.5830
-2882.8125,83.9463,-43.4109,-6.7147,-31.0189,104.0085,-28.6163,41.1203,-128.1782,-96.8328,-217.5975,129.3623,-38.9017,96.3492,48.2776,38.8186,-80.9919,134.7807,-90.3096,62.8248,-91.1803
-2875.0000,131.0126,38.8965,4.0255,16.7877,113.8373,19.0888,24.7190,-80.8522,23.6533,-97.5820,27.9104,-65.6635,69.1665,-50.9702,-61.6763,-143.7011,5.6139,-42.0048,4.4821,-44.4958
-2867.1875,-5.9674,-97.8457,-33.2838,-84.4633,40.6183,-54.2684,81.0587,-115.5945,97.0803,-134.6025,65.4246,8.5176,142.9523,-13.2811,11.7853,-105.4862,79.4080,26.2034,113.0843,29.1634
-2859.3750,-52.3521,-37.9812,34.0154,-24.1084,34.0059,13.9584,24.6672,-11.7544,53.0949,-104.9934,58.5595,39.3000,100.3456,55.0067,41.8502,-38.6848,-37.1915,-90.3628,-3.7231,-87.5834
-2851.5625,21.3187,-34.0572,29.3751,-19.6949,-7.5516,47.2253,-9.9610,20.1206,48.1576,-109.2906,16.7478,-1.8795,168.8022,14.3298,-0.0410,-78.8523,1.2570,91.7648,-70.5020,91.7351
-2843.7500,23.5359,-32.5900,34.2824,-16.7318,-112.5632,-20.9808,-28.2053,-48.4824,15.7635,-143.0108,131.5076,77.4932,173.8250,94.1984,114.6340,-38.4818,143.2742,14.4476,-69.7314,22.6178
-2835.9375,141.2055,86.3412,119.6441,66.6903,-100.1220,-7.7412,-86.1684,1.3520,27.8123,-58.2545,106.7309,16.3101,186.3098,33.5081,53.7673,-97.6773,15.7327,27.6263,-197.5273,34.9446
-2828.1250,69.3295,-20.2876,38.4612,-74.4453,-108.2231,-124.0628,-18.0003,-115.3867,56.3133,-66.0365,135.4147,45.5604,251.2692,63.2481,155.3600,-32.4529,48.6495,155.2564,-93.8727,173.7434
-2820.3125,35.2461,14.8765,6.0840,-73.7856,-102.5158,-118.5987,-53.4759,-73.3474,23.6098,85.0015,139.9214,50.6065,146.0387,142.7805,159.7633,82.5616,-56.6226,43.6278,-129.4216,68.3379
-2812.5000,110.6193,21.5011,-32.8350,-31.6747,-105.3515,-157.6851,-50.9090,-75.8699,21.3583,154.5274,64.8839,-24.9147,180.2665,30.7458,156.6101,7.0074,-85.4604,226.5794,-159.5358,249.3958
-2804.6875,82.1842,-6.6822,-61.5616,-59.3811,-133.9882,-222.5912,-2.1080,-178.2116,-44.6905,16.2797,219.0602,20.7545,188.7067,2.9057,275.6739,15.6425,25.9046,194.8147,-47.4427,220.6710
-2796.8750,141.0961,121.4890,38.0645,0.2612,-34.2692,-121.1527,-31.6558,-78.2152,-55.3871,-68.5809,171.5989,-63.2369,178.5004,-80.5908,154.0964,-31.3793,-91.3912,159.0043,-130.0126,173.2892
-2789.0625,110.3649,91.0061,37.0524,-101.7532,-35.1892,-159.3759,28.2106,-115.8870,-93.7375,-218.0725,169.5016,-26.8913,176.6568,-80.7581,152.8676,-106.0758,17.6693,273.2523,13.7570,282.2788
-2781.2500,84.3806,66.2703,55.8009,-56.0194,19.6505,-138.8661,30.8926,-95.8316,-148.3579,-124.8078,152.1788,28.2016,86.5746,-24.1779,135.3980,-49.0361,26.5026,74.8344,57.2789,81.0155
-2773.4375,121.9025,103.0442,91.0653,-16.7711,55.0054,-102.8601,30.0884,-60.2934,-39.4853,-17.0203,4.3663,-82.2181,85.0090,-171.1185,59.4236,-87.5202,-41.1621,153.0036,-10.7210,153.2543
-2765.6250,60.8697,8.2524,28.7838,-77.0804,-6.1784,-127.4234,69.8724,-122.3299,-65.1654,-78.7680,89.0220,-33.1925,22.9102,-122.6221,144.9101,-38.5738,144.6443,126.3199,103.7336,127.9569
-2757.8125,119.4871,102.1103,95.1589,52.2612,23.3016,-61.3460,3.0095,-56.7345,-110.1954,-50.8405,81.3444,-4.5192,-57.5350,-92.4823,27.0526,-82.9901,62.1048,15.0366,21.8257,10.2984
-2750.0000,152.6612,29.5247,125.0924,-19.8511,15.3393,-103.7262,14.6971,-136.6053,-80.6731,-94.3401,74.2236,-11.3077,-27.4134,-61.8132,-17.2590,-126.8825,165.1144,118.4307,53.4582,113.2076
-2742.1875,141.3809,53.4840,119.5729,4.5786,46.9275,-109.5751,-20.2157,-141.9451,-87.6013,-101.2664,142.6755,93.4542,-69.7321,43.4015,13.9994,-59.2387,153.6803,-41.1977,-28.3579,-39.3305
-2734.3750,200.4479,147.7978,139.4066,29.3631,30.8762,-87.0786,-58.7487,-47.9395,-67.1772,-44.8090,52.4870,40.5574,-12.6891,-46.0516,-40.3889,-74.2595,0.5786,53.1368,-110.8424,54.4826
-2726.5625,99.2152,-23.1960,31.9378,-70.1671,-39.4701,-193.9079,21.3981,-81.2554,-28.0521,-42.6354,92.0140,43.3503,27.0720,-5.8242,109.9362,1.4077,111.1879,85.5285,33.3798,94.0145
-2718.7500,109.5295,-12.6361,48.0257,-25.1508,13.7400,-141.1959,-0.1639,7.9633,24.6224,47.1063,71.1122,-13.3151,7.3909,10.9470,51.8230,17.6191,-19.6526,-44.4859,-26.8554,-36.9141
-2710.9375,115.2469,-40.6811,47.5216,-88.7433,49.3619,-177.0873,45.2209,-28.4280,59.7019,-27.7289,70.6133,-49.5991,80.1228,-61.9022,51.1111,-55.7854,-14.1016,103.4706,13.3009,109.5753
-2703.1250,126.2526,-30.4424,-8.6853,-113.0596,30.2922,-196.6968,42.6578,-86.5436,3.0875,-10.2442,161.4334,-33.5893,60.1722,-8.4595,104.7208,-2.8966,31.7592,-33.9411,58.7599,-20.6283
-2695.3125,124.5539,38.1057,26.4127,-43.0781,101.5352,-125.0125,27.6063,-51.3673,0.7762,97.5724,85.5612,-145.2892,95.5315,-119.7363,-7.3665,-78.7175,-76.0927,-27.6770,21.5072,-22.5361
-2687.5000,2.7551,-117.4620,-30.5920,-128.2091,82.6910,-143.4460,134.8686,-106.3103,17.3686,4.3053,66.5965,-164.1024,149.8123,-138.1363,83.4570,-60.6554,48.9661,29.8294,216.1622,31.4750
-2679.6875,-44.6522,-94.6358,-36.1959,-104.9431,150.2556,-75.4895,139.0930,-38.8645,48.3573,-1.5415,24.0507,-170.5092,108.4992,-70.1442,114.6955,6.7979,-103.5733,-124.3339,168.2167,-121.1259
-2671.8750,-29.8583,-149.6020,-27.5893,-159.4739,159.0308,-30.3413,139.8412,-31.2277,93.5521,6.8454,-41.2939,-197.7311,116.3976,-133.9777,49.1354,-21.5592,-88.9198,35.8060,147.4509,34.4821
-2664.0625,-42.1231,-196.6281,-74.0287,-172.0689,112.7603,-39.2654,123.9793,-77.6597,9.6973,-76.7943,22.3292,-98.0088,107.2585,3.1301,112.5438,43.0291,3.6967,-52.8545,169.6386,-48.9495
-2656.2500,20.6591,-28.6049,-7.4076,-72.6154,179.5504,63.8522,48.8339,-11.0458,-35.1043,-84.3618,-57.9851,-68.2393,100.1767,-40.7181,31.0118,-75.3380,-144.6443,-54.7731,-14.1442,-56.3376
-2648.4375,-9.4082,-58.4362,-44.6350,-101.0248,142.4957,-44.8935,104.4311,-120.2908,1.2464,-120.7702,-21.1343,-31.3276,101.2624,-75.4313,68.6343,-110.5729,1.1680,54.2476,96.2208,54.4475
-2640.6250,-5.4835,15.7343,-32.8608,-62.4483,118.4385,3.3438,66.8217,-35.5480,12.5922,-36.1619,27.7432,-19.4157,2.3578,-64.1477,43.2734,-99.8056,-30.0135,-117.9135,64.5831,-117.7710
-2632.8125,4.8012,26.2596,-29.7324,-52.5258,84.7352,43.9243,41.7167,40.5359,52.2938,40.8316,-80.0233,-125.1661,5.8154,-96.5299,-64.7377,-95.6943,-55.8582,38.3897,38.2807,32.3672
-2625.0000,-93.6107,-106.9320,-130.3032,-148.3215,-16.6676,16.7872,80.3572,49.9000,97.2983,86.1372,-70.4718,-43.6164,-21.4144,22.3765,91.5634,22.7080,-12.3858,0.1400,115.2831,4.8166
-2617.1875,-98.9759,-41.0713,-170.8176,-84.0664,-57.0107,86.6958,29.9062,156.3121,204.3541,266.5147,-183.8622,-47.0185,-61.5878,19.3235,50.9247,92.1496,-192.8716,-45.2200,4.3265,-35.6945
-2609.3750,-149.1926,-127.0640,-266.1831,-168.6738,-78.1977,27.7467,83.6130,133.8652,291.5656,281.0679,-206.0984,-32.2834,-46.6009,33.3959,65.4351,106.7275,-139.2064,75.3808,93.5200,88.9654
-2601.5625,-225.3215,-96.9673,-227.4518,-103.1895,-113.2808,30.8879,32.9736,136.5076,293.8731,283.7372,-130.2173,43.5524,-117.5101,110.5608,31.0615,219.4055,-109.4286,-107.6441,51.8181,-92.2792
-2593.7500,-103.1992,-9.6178,-140.4601,-51.4502,-63.1040,45.2795,-27.9805,112.3996,306.4330,222.6782,-153.0825,20.6298,-104.1634,50.9590,-66.0592,159.3206,-162.4119,-17.9526,-107.6525,-5.2723
-2585.9375,-90.0832,-67.2880,-127.4703,-107.7247,-86.9223,-52.3486,-30.6346,-21.7245,208.9987,88.6324,7.0629,143.7019,-90.8040,137.3434,-16.1660,172.2302,-45.3766,-11.4316,-60.1160,7.7508
-2578.1250,-10.2195,47.7872,-76.7269,-27.2552,1.0161,-37.2291,-74.7173,-44.1011,185.3223,176.3629,20.9662,121.5168,-112.6963,78.4661,-38.5111,112.8905,-141.5982,-108.9187,-191.8367,-88.4892
-2570.3125,-0.3501,22.8692,-72.9770,-51.7989,41.9639,-143.1207,-30.2363,-150.4845,188.6608,143.1150,-12.1275,88.3160,-35.5760,-27.4357,-35.8493,79.5352,-25.8266,43.7617,-146.5678,62.2876
-2562.5000,-76.6908,16.7384,-38.4286,12.4355,39.7169,-145.2312,-41.7808,-153.0785,38.7990,67.6727,96.6043,85.9186,-36.6395,80.4532,72.6348,113.9801,2.7523,-67.2843,-154.4915,-50.1346
-2554.6875,1.2640,94.9042,2.4206,55.9685,44.7814,-103.0427,-63.0270,-75.3725,6.2433,35.5614,64.6408,16.8159,4.6073,-25.3722,3.4205,44.7241,-95.3821,17.5422,-182.1278,27.7389
-2546.8750,-34.7908,-45.9460,-36.7358,-14.5124,5.8548,-141.8730,19.8489,-113.6761,3.7033,-77.5330,99.6830,14.7093,39.8660,-26.2145,75.2168,5.4654,80.4949,56.4123,-7.7631,62.6288
-2539.0625,-21.9500,37.1039,-15.9873,139.8979,-10.1679,-47.8155,-35.3427,15.9178,24.0706,17.3000,46.6374,35.5061,-12.9766,-42.1590,21.9267,-9.8889,-12.7298,-101.9149,-100.5069,-100.5930
-2531.2500,-9.1052,15.1511,-8.2303,117.3037,-39.1911,-3.7665,-50.5427,60.5091,-5.5430,61.1642,-19.4083,43.2943,-41.8095,-71.1214,-44.3579,-40.2503,35.0406,22.4318,-89.2659,17.2000
-2523.4375,-76.8647,17.5834,-36.0728,156.0931,-102.8193,79.6580,-68.8006,143.4824,-106.7455,-2.5566,-10.0313,126.4856,-68.2334,48.3057,1.7781,5.7849,73.2317,-112.5699,-51.6182,-120.6001
-2515.6250,-74.0717,161.5762,1.6465,194.4341,-64.8915,191.6233,-140.1125,254.0071,-143.3908,35.2949,-119.0940,90.2219,-67.1067,49.2722,-107.5350,-29.6370,-65.0445,-69.3745,-190.4332,-82.8555
-2507.8125,-134.8258,65.0112,-31.1889,63.2006,-97.5126,85.0207,-82.4921,146.9711,-138.5715,-34.3901,-78.6972,130.3989,-26.5191,90.6695,-30.3904,10.3909,84.1308,39.3742,-76.7882,31.3602
-2500.0000,-138.2346,97.7808,-27.6777,131.3000,-56.7853,88.7594,-107.4707,77.2876,-99.3980,6.2935,-37.9402,170.9256,-95.5772,131.4223,-26.8753,87.7784,10.6501,-110.7356,-150.7902,-112.0827
-2492.1875,-62.0968,69.0968,9.3840,137.9329,-20.5020,52.0474,-106.0703,3.1611,-63.6618,-30.4467,-37.6385,133.9947,-59.0774,20.7116,-99.8049,13.7104,17.7029,39.5117,-179.2492,35.0350
-2484.3750,-17.5244,42.8400,-15.1161,111.9914,-44.7675,64.7686,-87.0682,-21.5200,-161.4636,-165.7191,48.1262,183.5175,-83.1206,106.4448,-14.2644,26.0984,61.2109,-23.7171,-101.2471,-26.3870
-2476.5625,99.9468,161.4820,34.2875,160.9393,-32.1276,150.3891,-148.0676,27.7066,-222.3565,-153.0619,-12.2037,121.9366,-33.2646,46.0724,-38.8190,1.3930,-67.4026,-9.9557,-229.3564,-13.9181
-2468.7500,86.4717,41.1661,-23.2554,5.9201,-51.4407,20.0508,-67.8656,-29.0207,-133.1869,-135.3372,40.5209,64.3982,19.6514,25.7326,87.6846,17.7286,-10.9643,107.2706,-138.4187,112.6225
-2460.9375,40.9375,66.7946,10.1507,31.8360,-55.8035,53.6496,-102.8185,3.1942,-138.0627,-28.6573,74.2151,60.8134,-19.4769,59.3368,84.1616,87.0207,-55.5686,-45.4176,-183.5316,-37.8928
-2453.1250,92.4007,118.4200,57.5623,12.7468,-44.1561,27.2419,-110.2063,13.4156,-88.9236,19.0532,48.9077,-37.7807,-8.5977,-39.0822,-51.3587,61.3142,-110.1848,79.8245,-168.6572,83.5960
-2445.3125,43.6652,-36.1686,8.7712,-70.5655,-56.7067,-21.3882,-45.6337,-35.5720,-101.9658,-29.4217,147.4135,23.4237,-19.9155,21.2833,9.9345,86.4130,17.0133,29.3052,-7.9765,34.9001
-2437.5000,74.0349,-39.6490,44.0859,-38.7792,16.8415,88.0719,-46.9798,73.5404,-103.9036,43.2265,36.0217,-51.2607,-57.1373,-53.2579,-27.6617,84.6183,-128.6969,-37.4651,-47.2082,-39.7026
-2429.6875,-15.5982,-164.1329,-18.5951,-93.0056,27.3945,62.5206,26.6604,47.6514,-55.8350,17.8919,10.6339,-112.9510,27.6500,-114.8152,19.7508,21.8209,-42.4081,87.5635,37.5550,81.7169
-2421.8750,-70.8396,-79.2296,-31.8768,-7.8541,13.3471,85.3530,7.9812,70.1564,-70.3570,3.9695,-3.3395,-54.2364,-22.1586,-18.9739,42.5827,44.4356,-27.7151,-74.1311,16.7261,-79.4656
-2414.0625,2.9745,64.7248,2.8935,66.3388,-24.6446,84.2294,-35.6820,105.7161,1.1871,40.1273,-150.2654,-56.4793,-23.9146,-93.0967,-32.5367,6.0998,-59.9910,36.8048,-86.0570,29.4027
-2406.2500,-115.2169,-54.3422,-85.3428,17.5120,-75.6348,-40.9161,40.6586,-20.7275,59.7507,25.2949,-92.1872,2.2851,-1.6653,-35.2342,100.3569,64.7591,102.7435,50.3368,41.1782,51.2862
-2398.4375,-134.8663,-36.8719,47.9670,70.2319,-15.0712,19.4846,22.5052,39.3824,82.8753,86.0328,-142.5601,-47.3939,-50.8736,-48.8255,86.8127,87.9744,49.0291,-66.6399,-48.0310,-72.2930
-2390.6250,-77.7706,-84.6542,102.0284,21.6977,38.2438,-73.3701,69.6881,-17.7560,135.7626,-7.4579,-161.1906,-67.3300,-34.3306,-104.6883,30.0166,-6.0604,176.0685,66.6614,7.5110,54.8937
-2382.8125,-41.2843,-84.0433,146.4876,23.5551,45.9525,-66.8381,33.2201,-83.5002,70.0549,-36.5465,-43.4097,13.1386,-62.3904,-61.1530,37.6338,2.3049,248.5226,-75.6391,-26.5275,-84.5193
-2375.0000,67.7608,-9.8747,183.5058,27.9578,120.2161,7.2422,-13.0874,-46.6843,69.9021,1.9317,-117.0793,-22.8416,-61.9036,-97.0850,-35.1975,-34.7834,110.5112,-0.6261,-163.0226,-10.3899
-2367.1875,19.0099,-23.5183,91.7231,-90.4681,65.6819,-83.4930,0.7066,-63.6686,14.9674,-89.3758,-24.5445,32.3729,-42.2152,-40.8328,57.1815,57.3259,167.7016,82.3419,-107.3104,81.9565
-2359.3750,-27.0513,35.5303,82.6375,-67.2109,57.8480,-19.5380,-50.1411,0.0532,-30.2474,49.0480,-32.3036,61.2880,-50.8315,60.1132,85.2727,122.1506,-19.4132,-6.9551,-189.8939,-0.0094
-2351.5625,-55.7638,6.9224,8.9032,-94.6116,20.3645,-57.2343,-18.9757,-0.8641,41.9165,121.8458,-69.7181,23.5429,22.9015,-14.6041,83.7107,84.3217,-13.1927,173.6881,-148.1324,182.3860
-2343.7500,-33.8844,-40.1023,-38.2328,-107.4309,-62.5218,-103.3425,-35.6334,-47.1848,31.6984,113.2411,30.4742,86.4077,-23.7695,85.2783,148.7656,185.1020,79.6433,81.9035,-126.7604,99.3861
-2335.9375,72.5499,30.4264,-1.8101,34.3021,-99.8581,-29.9019,-100.1950,-10.9484,68.0396,113.2133,-41.7780,48.8278,-22.8960,12.6978,37.3705,184.4404,-59.9754,122.3003,-231.8551,135.9277
-2328.1250,-6.6164,-83.6509,-88.9814,-44.5721,-113.7942,-118.0809,-23.6612,-99.3231,126.7909,62.5975,17.3796,72.6580,-37.6236,34.5090,97.3877,206.1764,71.8325,214.8011,-100.5539,231.8772
-2320.3125,-102.5308,-74.4782,-70.8937,-0.1898,-94.4808,-62.0109,-28.0794,-80.4479,183.7937,156.2426,-0.2117,54.7478,-91.1074,53.5613,43.6621,226.1588,10.8941,15.8631,-92.0080,31.0723
-2312.5000,-113.8925,-85.7731,-13.2587,-81.2685,-36.6221,-78.4036,25.4124,-60.0189,277.3591,176.4438,-52.2562,-34.6104,-70.0323,-72.8454,26.4933,98.6952,-35.4861,114.8262,-68.9020,124.8316
-2304.6875,-176.0656,-147.8775,-37.4248,-107.1574,-61.5633,-101.6038,80.5259,-48.3848,180.1307,6.8640,33.9049,14.2311,-57.7512,-24.0556,77.5364,112.4410,42.3347,21.8150,114.4111,27.7834
-2296.8750,-111.9979,-47.7245,33.6638,27.1956,-26.2487,42.4483,39.8249,96.5144,104.1642,4.5509,-78.6961,-24.6834,-96.2241,-63.0287,-35.1683,36.4363,-68.6097,-38.9811,72.9797,-48.0128
-2289.0625,-67.2462,-143.8782,-33.5583,-68.7809,-57.2325,-25.8126,79.4387,66.1252,109.9096,48.9389,-72.5978,-18.8995,-15.9977,-92.3067,-29.1634,5.1356,11.1534,37.3150,188.2762,31.8970
-2281.2500,-54.0911,-95.6412,-47.3813,-55.3713,3.1905,-2.6768,70.0527,52.1495,96.0687,108.7373,-12.1023,4.2925,-66.3739,-70.1875,-5.7548,65.2369,-46.6974,-166.0038,165.9834,-165.8048
-2273.4375,-4.2770,-45.7654,37.4492,-40.3237,51.2635,9.0987,54.7575,62.8264,144.8959,121.2000,-73.9593,-57.8722,-17.1023,-169.4355,-67.6957,-34.0090,-101.8918,-76.3020,74.3457,-80.8443
-2265.6250,-103.0145,-145.4612,8.7270,-68.8410,22.7874,-56.6844,97.8744,-3.0422,116.1809,93.1206,7.6479,-13.5882,27.6181,-162.2415,50.8224,10.2067,45.3673,-107.5629,150.1713,-109.4395
-2257.8125,-74.3109,-45.7142,79.4632,66.0801,57.7660,13.9852,23.9431,104.5549,75.9311,164.5058,-31.3007,-89.8559,-11.2095,-164.6096,-25.2047,7.8761,-66.9382,-176.9714,3.4420,-185.5871
-2250.0000,-72.7353,-80.0863,37.1031,-3.1216,51.6440,-28.4511,39.9743,26.0587,-2.4050,48.7962,36.6509,-95.2149,20.8672,-133.0794,-30.3172,2.4476,74.6634,-34.5798,73.6223,-43.8232
-2242.1875,-92.6631,-98.9566,61.2534,13.1747,76.0206,-4.3902,43.2296,50.0684,-15.2401,36.5942,98.1096,-71.0660,-28.5606,-36.0479,-5.9204,26.5280,20.7633,-195.4861,89.2962,-203.5642
-2234.3750,-39.4387,-80.6806,76.5576,30.6101,91.5429,46.8112,12.2186,138.2276,73.0885,199.5584,-70.2893,-129.7618,-13.8383,-94.8753,-64.3671,-32.2355,-101.9941,-105.4027,-33.8841,-115.1399
-2226.5625,-122.6181,-163.8250,-12.5366,-51.3715,2.6627,-5.3983,25.9367,84.9846,57.0365,148.1323,-12.0864,-34.8502,8.4743,36.8945,29.7982,25.6088,25.8682,-55.8414,23.5477,-57.1140
-2218.7500,-89.0386,-25.2163,25.1265,87.3927,-33.4644,69.1411,-52.5985,159.4991,-15.2521,149.4637,-48.1339,2.8091,-63.4673,74.4018,-5.2884,63.2050,-81.5203,-125.6450,-84.2747,-129.3385
-2210.9375,-101.5447,-37.7098,41.6943,40.0471,-89.6949,48.5575,-35.6160,102.9071,-35.6418,92.6880,-68.2731,-17.6253,26.4880,16.8059,-62.4682,5.7043,-23.9930,41.7601,8.8117,34.3531
-2203.1250,-206.5944,-71.7489,11.7248,40.1487,-82.4826,18.4132,-21.9505,109.7671,-28.5742,101.3786,13.0385,63.4011,-3.1173,97.6651,-18.1949,49.6688,-58.0192,-103.1153,44.3419,-105.5120
-2195.3125,-108.5371,-9.6868,1.8560,103.3441,-18.1817,82.3580,-45.2339,136.7368,-1.3802,165.1889,-69.5611,53.5303,-11.6296,14.6177,-100.8228,-33.2480,-171.9519,-73.1223,-35.0292,-78.2647
-2187.5000,-68.3865,-75.5297,-67.9182,2.6201,-14.7987,-24.6062,24.5138,29.8102,-34.0665,22.1042,7.9448,93.7716,64.9486,17.6732,-23.3390,-67.0565,-60.7751,-38.2137,110.7184,-37.9116
-2179.6875,-22.5794,-28.7145,-86.0336,13.5436,77.2345,68.0810,11.9994,84.5401,-89.0958,41.6692,-9.8990,75.6661,11.1736,73.3729,-41.2063,-48.2156,-190.9404,-203.0852,85.1150,-202.9153
-2171.8750,-2.2575,-43.4089,-71.6401,-36.0419,91.7718,81.2624,31.5386,98.7728,-111.6221,-53.2743,-69.2425,17.0600,61.8953,13.5595,-63.5712,-70.8870,-170.5860,-35.4265,106.0223,-41.4106
-2164.0625,-39.7850,-80.9622,-107.0982,-73.4785,56.4641,82.6008,8.8694,100.1712,-221.0058,-125.0714,42.5613,91.6047,-10.2431,161.8958,-25.7867,40.5958,-67.0764,-110.5289,138.0983,-113.7693
-2156.2500,29.4879,93.2792,1.2417,29.8799,91.9607,190.7536,-68.1262,135.3924,-222.5858,-53.0577,-32.8535,52.9458,-47.5963,86.0204,-174.2074,-34.1293,-103.7726,-103.2778,-5.0107,-115.3306
-2148.4375,42.2125,35.9629,12.0230,8.6740,28.9087,90.3527,-21.3608,35.0759,-210.7111,-152.5861,15.1756,62.7462,-37.5055,59.5921,-90.1750,-61.4035,84.9805,-19.2649,78.3429,-31.4396
-2140.6250,65.9394,94.6543,43.8118,102.4540,-13.1451,158.9489,-57.6708,66.7724,-179.8232,-83.0947,10.2028,94.5528,-115.4318,91.1618,-95.1467,-29.6684,38.7221,-172.0753,31.7021,-183.5570
-2132.8125,131.9698,125.6399,31.9015,133.5179,-60.8999,147.8351,-78.2419,128.7748,-80.6177,53.7011,-74.4749,10.6624,-127.0632,-67.9696,-178.8223,-3.6352,33.7689,-33.2652,-8.6240,-47.3630
-2125.0000,60.6977,89.3098,-40.2983,132.2708,-133.9539,111.4097,-60.4601,92.4772,-79.6969,55.1987,-36.4443,84.4769,-163.0014,6.5961,-104.7923,70.1093,138.5298,-74.4055,60.7655,-83.4792
-2117.1875,73.8851,172.4330,-26.0371,215.4708,-81.5609,163.4224,-79.0381,144.6332,-64.3033,144.1666,-94.9629,25.7387,-147.4889,-52.4029,-163.3184,48.3109,-24.2632,-93.7507,2.5918,-105.1440
-2109.3750,4.2277,102.7095,-104.6238,75.8215,-51.0222,46.5649,7.2445,27.9301,3.2498,102.2879,-64.3321,-16.8375,-78.8307,-94.2594,-94.6865,42.6683,82.1120,41.9400,108.5729,36.3531
-2101.5625,-14.3287,85.0926,-81.1043,57.2983,46.6083,32.8066,27.9699,14.3296,-10.0876,16.5235,-3.6056,6.6983,-92.0846,1.9883,-33.9549,103.1276,28.5900,-85.1827,90.6358,-87.0573
-2093.7500,34.4145,62.7734,-1.2734,71.0846,90.5359,76.3412,17.1587,21.0288,-3.1034,-49.9372,-33.5897,-59.4603,-12.0459,-64.4657,-63.9263,-1.1138,-28.6269,75.1319,-3.0058,66.8490
-2085.9375,-33.3866,-74.0994,2.0105,-31.6855,93.8981,5.3143,63.4902,-84.8229,-72.6525,-81.9421,80.8802,-20.1565,28.4273,10.5356,86.5636,76.1083,80.6095,71.7080,70.8078,70.2059
-2078.1250,-26.2305,1.9904,85.2448,-25.5072,140.2038,52.2347,34.0852,-39.7168,-26.2418,75.0253,17.2977,-83.9010,1.8439,-16.5221,60.0005,86.2874,-89.2139,6.5449,-28.4368,6.5181
-2070.3125,-111.1728,-118.0276,99.3767,-109.4358,117.3963,-43.9498,102.6954,-61.7055,61.0797,52.8887,31.6137,-105.7385,89.1550,-75.6833,37.3430,27.3628,36.8727,171.7380,96.2380,167.7446
-2062.5000,-133.9603,-210.9004,83.6605,-62.2143,101.7257,-23.9732,160.7556,-4.5348,46.5619,-35.1098,89.0826,-48.4150,74.6031,-55.6899,131.8374,10.5886,50.1081,12.8740,215.0706,5.1124
-2054.6875,-101.9401,-248.9818,79.7409,4.7997,133.8481,44.8052,158.8502,64.4472,114.8607,34.6932,11.3411,-125.2861,106.8479,-132.9092,54.1317,-67.3912,-93.8658,50.6916,176.7216,37.2929
-2046.8750,-178.9324,-327.0740,-38.1874,-72.1992,126.9619,0.5766,209.9360,57.4356,108.1668,-8.5002,78.5953,-132.1452,136.0846,-103.1265,84.4359,-1.3627,5.1677,41.2565,309.4003,30.4692
-2039.0625,-94.3805,-207.6125,-15.5750,-22.6430,186.6282,96.9135,148.5000,152.9948,58.0218,14.8628,27.3788,-147.4585,122.8542,-44.7927,-3.7161,-15.7846,-121.2572,-118.3164,218.6486,-130.8133
-2031.2500,-44.5271,-192.8618,-5.6726,-43.8003,159.5920,105.5578,141.1090,125.8664,67.1823,25.5117,0.4566,-173.4725,131.9175,-73.1657,-67.5678,-79.9156,-72.3757,4.3454,232.2313,-10.7901
-2023.4375,-77.3633,-119.8170,3.5336,-5.6734,95.8593,115.5040,97.6043,135.0485,3.6501,-38.5403,46.8305,-55.1813,105.2729,46.7644,-21.1247,-33.7422,1.8022,-136.7239,200.1273,-148.4821
-2015.6250,90.7061,118.1210,65.6533,92.3365,84.0360,177.3542,-2.1757,197.1429,-80.9730,-122.6838,-37.9012,7.0012,56.5225,-1.4157,-142.7968,-118.6704,-42.1247,-68.4971,50.9392,-86.2759
-2007.8125,112.2181,104.4929,46.2311,78.7816,27.6702,46.6490,21.5835,67.6975,-100.1428,-251.3867,15.8212,98.6388,37.2182,14.8654,-88.0208,-174.1484,120.4068,56.2832,107.2183,41.3728
-2000.0000,94.9852,157.1186,70.0688,131.4817,14.5519,70.2015,-10.4131,54.5139,-113.0540,-190.8557,2.7879,122.5290,-11.8380,75.3980,-63.9951,-114.3824,68.1870,-70.5377,54.7513,-81.7422
-1992.1875,129.5700,121.5350,61.7126,24.9776,6.2351,24.5391,-4.7852,9.1302,-83.1611,-123.5370,-5.4473,40.2183,15.9079,-6.2754,-35.1661,-158.8148,67.7780,101.2592,18.0928,93.9561
-1984.3750,122.7462,79.5491,56.9585,-85.9275,-71.4921,-53.5305,9.8948,-32.6423,-88.6604,-127.6160,100.9117,35.5220,-25.7559,61.6643,70.2660,-53.6421,165.9686,50.7734,82.0421,52.2561
-1976.5625,215.2686,170.9341,115.5456,-64.4819,-49.8827,-68.2451,-29.3795,-11.0454,6.1985,-33.3346,11.6003,-16.8132,-4.0828,8.9641,55.0360,-68.1179,47.4986,67.8178,-72.6604,73.9196
-1968.7500,162.1839,82.7259,54.5284,-153.6317,-109.8938,-203.5693,21.8424,-107.0482,56.4661,-55.6697,61.6883,70.2669,46.9858,22.6668,141.2137,-92.1918,134.4441,182.0272,16.0505,196.9892
-1960.9375,114.5129,140.9226,83.9256,-59.3671,-80.5142,-210.4923,-24.6452,-114.6517,-60.8621,-26.5920,91.1792,136.7421,1.4455,87.7564,134.7867,-26.8648,52.8075,63.4947,-32.8454,79.4451
-1953.1250,127.4055,118.6707,90.8902,-81.5491,-37.5837,-167.8762,5.5289,-144.7146,-16.6303,-17.9565,25.2219,33.7729,46.4530,-51.6220,31.8956,-55.9960,30.7346,224.7727,15.8094,233.4554
-1945.3125,73.3582,64.4703,0.9190,-171.6813,-54.6090,-222.2162,71.6925,-161.7321,75.6466,-34.2938,44.3211,52.8641,-44.5027,4.0599,87.0566,-0.0770,152.7291,166.7509,137.5260,179.5054
-1937.5000,150.9197,176.8816,9.5638,-94.2070,-8.0348,-138.9485,49.1434,-115.1412,233.5164,159.9510,-91.9788,-10.4401,-144.8616,-59.6616,-12.1938,-63.5713,-16.6788,103.7984,37.8494,116.1550
-1929.6875,120.4819,6.2818,-62.7913,-124.7451,-7.4615,-175.6816,120.0071,-151.5462,307.3861,87.1927,-91.2822,-9.7369,-107.2204,-96.3870,-11.4488,-100.0645,93.9250,218.1501,148.1979,226.8070
-1921.8750,26.1883,-54.1711,-80.9950,-78.1305,10.2624,-83.2522,114.3242,-95.7845,290.4105,32.6015,-0.4454,8.1211,-88.4467,-5.9609,43.4351,-9.4015,34.6729,52.1622,123.7071,61.5900
-1914.0625,59.5983,-19.9249,-86.5001,-44.8109,41.6837,20.8827,71.8865,-28.3094,358.1478,27.6970,-78.9215,-70.3194,-57.9822,-47.8402,-34.9954,22.9486,-71.8726,159.2495,-17.0643,166.0814
-1906.2500,-10.9343,-56.6332,-160.9559,-81.4402,-69.8510,-54.9304,63.8272,-29.7860,245.9484,26.8255,29.6559,38.2921,-22.4799,24.3335,72.6258,57.3365,31.6533,150.7439,50.2375,164.6126
-1898.4375,-15.0032,46.1178,-85.9518,20.3919,-31.9427,19.7076,-0.6180,45.1958,102.2036,103.4130,-5.3337,3.3507,-21.5449,-12.0488,1.6858,22.1724,-76.3690,50.7486,-22.9997,56.5823
-1890.6250,0.0816,-8.9892,-73.7950,-69.6356,-18.8946,-4.5065,60.6865,-15.6596,76.6058,41.1403,6.8180,-57.4393,27.5275,-110.2823,13.8890,-75.8320,43.7763,141.6406,97.9396,141.7024
-1882.8125,-6.7294,18.0000,-36.5267,-77.5723,-18.7482,-4.6256,34.6801,-15.4016,41.1094,42.9539,8.0738,16.8732,-45.3116,0.5916,15.1901,-1.7376,72.0251,-43.7471,91.0017,-41.0952
-1875.0000,81.0684,105.5942,53.3493,11.0909,-3.0033,10.8546,-2.6569,0.4619,131.2145,60.3571,-123.0780,-4.2118,-66.5467,-57.9423,-79.9113,-96.0522,19.8637,14.4905,-32.3344,11.7162
-1867.1875,60.5626,13.8919,65.9241,-10.5475,-63.5692,-85.9635,57.4603,-95.9746,144.0153,-109.5634,-37.5309,8.4153,-53.0829,-8.7661,6.6989,-119.6657,174.4128,64.1450,87.0368,61.2312
-1859.3750,34.7056,-11.1510,82.1581,34.4650,-10.4811,-71.1266,44.2670,-6.7545,161.4724,-56.8435,-57.3437,-11.3082,-73.9675,8.0615,-50.0458,-67.6255,79.6066,-64.0528,62.0534,-69.6090
-1851.5625,21.5038,-94.5389,62.0418,-49.8945,5.2591,-127.6519,85.4828,-27.8912,214.5874,-40.4773,-77.5066,-104.3842,-21.2058,-49.4534,-70.1398,-86.9256,100.4586,63.5221,117.7291,57.2130
-1843.7500,43.8599,-72.3768,54.4825,-61.7088,-38.4606,-136.6280,54.8880,-34.4776,134.2594,-83.5657,-11.1198,-38.9134,-64.9021,52.6001,-3.6838,-21.6594,123.8637,-59.9945,105.9592,-60.4225
-1835.9375,83.6841,72.2313,94.3825,12.9255,-35.7297,-60.1524,-34.9541,5.3848,100.3828,30.7936,-82.2886,-35.9935,-62.1577,19.1052,-74.7904,-18.9436,-12.2786,-21.0098,-65.3645,-20.5978
-1828.1250,65.8174,54.1373,71.5902,-41.1397,-94.7040,-119.3886,-34.8036,-54.4676,40.8057,-29.5709,4.8547,51.2389,-48.1162,68.9220,12.4039,-41.9382,74.9017,60.4812,-49.3793,66.5313
-1820.3125,71.1690,164.2656,83.0078,105.0012,-121.4809,1.5779,-120.2648,-43.1170,-57.5734,19.2472,-19.7950,62.6748,-110.8866,116.9454,23.7902,42.2520,9.2806,-75.1339,-185.1944,-69.1439
-1812.5000,66.1881,124.0431,72.0760,99.7900,-131.6198,-10.8048,-109.0682,-18.1230,-32.2909,82.6956,-67.7816,-58.2379,-48.0010,31.6084,12.8245,31.0828,4.3142,64.0609,-189.3532,66.8439
-1804.6875,-28.3915,29.2150,14.5481,39.9867,-153.3711,5.2174,-63.8153,-38.7283,-52.6094,-11.4685,21.6407,31.2545,-32.7211,157.6838,102.2605,120.3116,50.7621,-35.5232,-73.1074,-27.7786
-1796.8750,74.7910,168.1459,48.7848,-32.0595,-82.3665,39.9969,-93.0158,33.4115,-54.1838,-12.8928,-17.1906,29.5003,-34.6900,155.5054,-9.5687,81.2756,-92.0369,-38.5155,-111.1112,-29.6471
-1789.0625,60.2359,46.3285,-9.7222,-82.8629,-103.1177,-18.9700,-38.4363,-61.1998,-74.5107,-144.0931,34.2321,117.9995,16.5804,133.5806,4.8484,-13.5219,69.4278,88.9850,14.1498,95.7420
-1781.2500,35.9486,57.7758,10.0261,68.5816,-84.6262,73.3266,-76.3322,-42.5563,-202.5959,-162.0478,90.9040,174.7503,-36.9110,152.9083,-11.4973,-31.0744,45.1322,-68.1464,-9.3304,-68.6280
-1773.4375,64.1681,85.7230,35.2752,131.5205,-23.6387,134.1244,-80.1832,-55.4094,-251.1824,-172.5119,-31.9257,124.9983,-12.8957,29.7298,-61.3528,-80.1291,-32.6699,38.5206,-52.2981,29.5112
-1765.6250,28.6811,14.9566,-72.1802,60.7443,-57.3526,63.2222,-32.4314,-51.9564,-284.4677,-242.6870,44.5415,202.5453,-46.5822,105.8556,16.0999,-40.8716,37.8227,-37.1570,89.0629,-41.0610
-1757.8125,60.2385,81.2462,-36.5895,127.0152,-58.0095,172.3745,-79.0087,57.5647,-284.6971,-170.8148,-29.9549,164.1343,-47.2199,105.0248,-58.4117,-115.5746,-71.6462,-106.1491,14.4922,-115.5899
-1750.0000,42.8891,28.6222,14.1039,39.3820,-45.5685,75.6265,-24.8114,-2.8133,-271.8225,-229.8662,20.6453,103.8181,39.2439,44.2936,-45.8274,-175.1975,51.9979,20.1015,102.0535,7.9808
-1742.1875,59.2970,44.7564,75.5502,20.5056,-58.3713,62.6322,-58.0701,-15.4364,-320.2054,-206.1951,117.9885,92.2579,26.4557,105.3200,-21.4854,-78.0783,33.3862,-144.9832,83.3665,-151.7144
-1734.3750,116.9117,66.1022,131.2057,6.8284,-1.9730,80.8327,-52.9028,40.1361,-227.3859,-150.3452,-9.4765,0.8984,8.8721,13.5450,-112.9527,-133.7646,-15.0244,-45.7240,34.8844,-59.1998
-1726.5625,23.8201,-97.2649,107.1614,-50.5480,10.7211,-16.6694,-0.4256,-19.9937,-214.2694,-173.2026,39.3605,49.8534,21.5804,62.0823,-63.1188,-121.1502,173.8787,-32.6717,118.7197,-46.3925
-1718.7500,-10.3717,-26.7386,149.0201,89.9869,52.3062,61.7441,-40.7562,21.7848,-173.2531,-94.1647,-28.9052,55.7066,-47.8205,30.5272,-131.4003,-78.6361,103.6836,-132.8843,13.4601,-151.6936
-1710.9375,15.8862,0.2277,95.3309,80.9792,-1.6644,7.6069,-28.9570,-31.9871,-79.7885,-37.6944,-82.7243,39.0106,-27.7736,-23.5789,-111.2327,-59.6735,129.9583,28.4228,4.6589,15.4615
-1703.1250,-25.1004,28.9506,58.4008,75.7308,-75.8955,-66.7739,-55.6843,-32.0142,-6.5684,72.5114,-45.7937,112.0686,-101.9871,86.0711,-38.3090,87.0372,89.9934,-97.1424,-36.3894,-95.6472
-1695.3125,25.1361,113.8982,69.6858,89.6912,-64.9268,-55.9578,-106.3203,53.1554,78.8551,194.8974,-108.6609,50.3209,-91.0009,23.9144,-137.1960,61.9213,-35.7615,-13.1570,-162.2503,-10.5481
-1687.5000,-63.2125,-44.7452,12.3812,37.0555,-121.5669,-112.7456,-45.9316,-5.2789,58.6582,173.6664,-19.1150,65.9782,-38.6192,76.1691,-11.6865,77.2091,51.8962,35.5535,-39.7175,41.9542
-1679.6875,-87.8492,0.3246,-8.2120,82.1285,-69.5147,12.1791,-71.4585,84.9873,38.1492,190.1268,-2.8701,45.3373,-58.5407,92.1326,-31.4911,93.2090,-78.7624,-93.4393,-99.4941,-88.8431
-1671.8750,-26.5265,-43.6523,-60.8553,2.1459,-49.5162,-4.9489,-36.7453,68.1887,58.5902,100.5174,-19.6760,-44.3479,34.4887,1.0471,-84.3481,39.1521,-52.4606,76.4118,-38.3144,78.3256
-1664.0625,-28.9476,-46.3640,-96.2543,-71.5838,-48.2730,-76.8314,-4.6019,33.6310,60.2945,65.1634,55.7697,-5.7830,36.7557,40.2111,-9.9553,41.3365,-19.9124,-39.5482,29.1254,-30.2684
-1656.2500,60.8932,113.1690,-39.4046,-52.0663,45.2153,-20.4640,-61.9132,53.3147,80.2547,159.0496,2.4598,-96.9714,56.2768,-51.3825,-64.3195,-13.2408,-175.1085,-21.2590,-162.1729,-10.5973
-1648.4375,14.1362,-3.8976,-91.1569,-168.1499,-8.8978,-146.6935,-3.5769,-36.6036,101.6005,143.3058,59.5556,-74.7562,150.1973,-30.5613,66.7202,6.5770,-80.8973,63.2680,-68.0578,83.4610
-1640.6250,-17.4058,-0.7512,-119.7025,-96.0291,1.1924,-64.7112,-29.6722,9.6810,74.1446,152.7488,68.8426,-29.3521,122.3146,15.4526,112.9454,52.5834,-149.4994,-75.6883,-135.7427,-54.2768
-1632.8125,23.6036,4.9411,-118.6976,-53.3672,-0.1742,-28.1850,-34.6680,-27.4919,74.2383,115.7222,31.6842,-29.3998,121.9765,-21.9815,75.7197,-56.8622,-177.5339,75.2494,-163.8507,92.5367
-1625.0000,4.2672,20.2897,-174.0340,-40.0501,-55.8851,-84.0027,-36.0325,-83.0143,18.9856,23.3381,87.1771,25.1972,66.2799,106.2368,130.1319,-3.6595,-57.9240,15.7217,-114.2977,36.9752
-1617.1875,58.1331,108.8353,-117.1578,49.4628,-35.3943,46.3742,-87.4134,10.6639,39.9367,81.1427,33.8638,-65.0149,49.7908,52.6462,3.7401,-20.2657,-179.1069,7.1588,-200.5397,20.6239
-1609.3750,68.5439,48.9315,-147.7261,-45.4711,-65.3582,-20.7031,-40.8770,-56.1143,9.4269,13.4792,76.1109,-94.6696,91.8523,21.6170,45.9033,22.6816,-26.7254,122.6428,-84.2233,136.8106
-1601.5625,100.2124,115.2839,-72.0334,-14.1426,-64.0715,-19.5214,-79.3376,-54.6360,-98.8346,-20.9468,115.6006,-56.0812,58.1663,60.8392,85.3076,97.8726,-31.1001,-22.8722,-123.6690,-7.7553
-1593.7500,177.4817,122.2208,3.2661,-42.2197,-61.1917,-17.7425,-75.9658,-51.5668,-58.4978,-54.8009,6.7026,-52.8958,96.0865,-11.3372,50.3187,25.6611,-24.8584,93.4787,-151.5040,104.2878
-1585.9375,145.5569,54.9662,-28.6249,-74.4825,-167.5158,-50.1557,-43.4943,-83.6963,-54.3678,-86.8645,48.6153,24.0854,63.8043,66.2980,92.1237,30.2499,84.1823,59.2979,-8.5530,72.1119
-1578.1250,149.9860,164.0755,15.8443,68.6099,-124.4969,29.7819,-92.0440,-4.4816,-47.8901,-44.5791,-18.1255,31.4131,-3.1215,36.2803,-11.7300,-36.8177,-17.4295,0.6675,-110.2603,5.2987
-1570.3125,111.9657,89.7378,-29.1369,65.2503,-169.9372,20.2637,-66.2597,-49.7256,-55.8750,-126.7671,-26.3072,22.3036,-11.5013,-9.1699,-20.0297,-45.3327,84.5211,143.5332,-41.4071,143.0299
-1562.5000,19.4573,102.9145,-82.6145,78.4039,-149.8825,41.2596,-45.2939,7.5414,-72.3607,-69.4660,-5.9987,43.6878,-65.3925,10.8781,37.1561,48.6474,27.9584,-21.4306,5.9457,-19.7438
-1554.6875,40.6546,88.7847,-63.3952,29.2500,-21.1317,59.9508,-28.9853,63.5043,-16.1463,23.5210,-96.9911,-84.2373,-46.5820,-80.3785,-90.9602,30.3162,-56.8938,40.6982,-7.9823,36.1938
-1546.8750,-17.5523,-75.7501,-122.5725,-30.2954,-7.7858,-0.7441,25.0197,40.0697,-39.3409,-73.9032,-10.3815,-71.5576,-33.1709,5.9787,-41.4794,80.5842,60.8543,17.0330,108.6914,12.7108
-1539.0625,15.4952,27.9688,-45.4963,74.4153,68.8134,112.8207,-23.9811,79.8877,-72.2942,-144.0959,-43.5276,-67.6306,-66.5052,45.5802,-74.7626,46.0865,-46.1497,-85.0410,-33.3858,-94.5154
-1531.2500,55.5461,31.6868,-85.4208,42.1275,64.4116,34.3833,10.4235,-34.3079,-75.2604,-257.3264,-47.6640,-70.7031,39.1612,-31.8126,-42.0368,4.5806,-7.1384,91.5014,5.5535,85.2532
-1523.4375,17.0081,-6.1809,-157.9377,39.2526,65.4135,-37.6441,23.4783,-107.1044,-74.8347,-182.1628,27.5984,3.6142,41.2250,43.1972,33.0794,79.4716,25.2591,-28.2673,37.8799,-23.5901
-1515.6250,53.3244,29.7979,-85.6012,40.2231,101.2689,-1.8269,-4.5980,-71.0636,-1.5635,-74.1667,-10.2866,-34.2252,40.1443,5.0554,-78.9560,5.2092,-79.4879,9.9429,-30.9371,12.4317
-1507.8125,1.6356,-57.2213,-140.2620,-80.8017,82.1274,-58.0119,57.7885,-126.0324,52.6987,-166.1846,80.8381,-17.0526,94.0605,58.9271,12.0066,-15.0531,45.7686,58.4896,58.2465,66.4369
-1500.0000,90.6564,30.4724,-80.2175,-29.1184,68.6918,2.5075,-1.6704,-66.3118,39.6623,-179.5137,141.6560,-29.1810,43.6767,82.4954,35.6583,9.3724,-42.2863,-67.1995,-64.8803,-56.8483
-1492.1875,163.1727,-2.3310,-46.6820,-60.9443,64.7515,-38.4828,24.7301,-69.1082,36.1209,-219.3640,100.9839,-68.8054,113.7981,-31.4344,31.8201,-31.6976,-4.8257,80.1936,-27.4982,86.3734
-1484.3750,77.2409,-88.5716,-20.5941,-113.2118,53.3606,-86.9214,85.5453,-44.3525,26.1239,-267.6586,126.8597,-43.8840,65.4629,31.1873,131.5302,66.7868,50.1695,-40.5245,98.4269,-34.8637
-1476.5625,73.4614,-92.6638,48.6452,-46.3352,123.1183,-17.2168,75.2859,25.5428,95.2746,-88.8136,12.8829,-121.8214,98.2858,-47.0441,53.3878,26.4172,-129.6815,-39.5086,23.5029,-38.9296
-1468.7500,-34.0165,-234.4546,5.1827,-119.1576,79.1677,-97.2104,146.8672,-55.2676,125.7083,-22.6898,-31.7804,-127.4514,128.4099,-53.9585,120.5555,55.3561,-26.2257,62.2293,161.8753,64.2956
-1460.9375,-111.4315,-138.1861,-32.2242,-56.9137,77.2590,-26.1446,91.1609,-20.0262,50.1825,86.4746,-32.3996,-93.0322,52.5891,-18.8219,81.7675,127.3418,-103.7277,-87.7313,119.2798,-84.4227
-1453.1250,-60.2036,-51.2779,16.0196,-41.0269,88.9914,-15.4361,74.8864,-46.1494,62.3002,61.2713,-58.3604,-116.9610,64.4222,-117.0311,19.6388,-9.0226,-87.5626,39.3012,65.3487,37.5143
-1445.3125,-75.4769,-137.8633,3.7708,-56.6267,75.2261,-28.2161,101.8931,-132.7687,-61.0852,-172.4386,39.1790,16.6036,50.7509,-20.7332,117.0032,15.1123,37.0916,-47.2829,154.9115,-49.0670
-1437.5000,-77.7459,-104.4476,115.5224,10.7741,149.4599,83.0044,65.7923,-21.3911,-59.4695,-172.1581,-33.2847,-19.8413,15.0839,-56.4429,-29.6383,-57.7640,-35.2556,-105.7248,82.4776,-121.6347
-1429.6875,-133.3193,-194.3356,89.9743,-44.1292,124.3972,56.9218,107.2372,-46.3241,-48.1640,-196.1943,-21.0396,-7.5879,27.1136,-82.4484,-17.5738,-120.9355,85.1021,-16.9875,167.7604,-36.5159
-1421.8750,-164.3890,-121.7227,101.9307,-5.5283,135.8461,68.3521,71.2184,2.2483,0.6395,-112.7349,27.6955,41.1491,-35.3554,-33.9606,-43.0219,-109.6131,53.9433,-192.8314,101.5421,-208.9019
-1414.0625,-123.4156,-11.0767,139.9262,70.1164,99.3489,68.8335,28.7208,-34.1394,111.4951,-2.2487,-9.5137,3.9275,38.2308,-144.4256,-79.4167,-183.2503,23.8445,-85.1217,-34.6049,-98.2310
-1406.2500,-89.6957,-12.6756,101.6735,68.5122,-13.3892,-42.9288,13.1255,-109.7784,110.0997,-151.0187,173.0261,76.4560,110.5619,-72.1345,28.9390,-111.1381,163.4832,-98.4898,-36.0032,-99.8291
-1398.4375,-6.7192,104.9871,227.6700,186.1508,-34.8748,8.5548,-94.2461,-21.1747,88.9624,-62.5395,151.8085,92.2171,52.1508,-57.6051,-29.4607,-95.7785,35.3586,-155.8047,-235.1502,-158.1635
-1390.6250,16.0047,22.3947,170.4069,173.5272,-92.6160,-86.2201,-62.1442,-78.8290,104.5669,-9.3271,94.3523,71.7291,68.4930,-78.3189,23.9028,-43.6604,127.9877,4.7351,-175.5363,5.2494
-1382.8125,-62.4647,-21.3893,131.9483,200.7086,-93.5488,-51.1819,-54.1983,-43.6815,103.9580,25.6792,93.6980,70.0290,29.6369,30.7687,59.0589,28.2491,120.4003,-144.9536,-149.1355,-143.5418
-1375.0000,-114.5838,-37.8286,110.8405,218.2351,-42.1266,37.2044,-34.0618,44.8031,155.6940,114.0145,-38.6001,-62.3249,8.1331,-27.7918,-36.4380,42.4972,-36.8300,-48.2063,-131.3780,-54.9673
-1367.1875,-189.4054,-183.9649,-6.9641,71.0651,-50.4043,29.8952,58.2427,37.5814,147.7235,32.6396,-9.5935,-33.3763,-0.0777,0.9598,29.3686,71.0559,27.2365,-20.2950,73.6760,-26.1094
-1359.3750,-131.8295,-91.7054,-14.3630,59.2951,15.7246,95.9896,39.8482,103.7560,140.1534,98.6618,-54.1948,-77.0378,-44.8807,-6.8933,-52.4259,64.0166,-125.3001,-137.8468,62.1195,-143.8417
-1351.5625,-97.6667,-127.8570,-95.1630,-82.8780,81.4577,87.6770,103.2412,59.5169,133.1732,54.2668,-98.1835,-157.0969,21.9213,-88.1420,-22.6087,-17.4233,-91.2136,2.0308,132.1638,-3.9749
-1343.7500,-164.1463,-159.6411,-121.5997,-79.6795,91.5479,97.7299,122.0409,68.6248,69.5244,-10.7841,-51.8222,-111.8119,-5.9304,-5.0411,60.5501,-8.5181,-52.7851,-135.6685,170.5321,-141.7672
-1335.9375,-180.2221,-70.0228,-66.6362,44.9291,109.0327,225.1815,75.6860,196.1250,50.2638,6.5545,-181.0582,-168.1302,-24.3791,-97.5457,-68.8966,-64.2189,-138.9426,-66.0567,84.2933,-87.1429
-1328.1250,-206.9053,-167.0022,-135.2672,-17.0448,75.9101,82.0412,111.2532,127.0189,18.3894,11.2884,-138.8900,-90.0464,-57.4347,-56.6423,-27.9391,13.4841,10.3064,7.1801,197.4510,-9.1350
-1320.3125,-174.0848,-100.4678,-58.3974,15.4915,116.2875,86.4085,50.4014,167.4102,-14.9800,88.5176,-135.2299,-12.4726,-126.9938,-16.2472,-61.4895,53.6829,-62.9529,-138.5965,89.0981,-152.6244
-1312.5000,-83.2733,-44.9439,30.4677,-34.9822,167.6635,63.7661,38.3402,107.7897,-37.3537,28.7329,-156.5638,-34.8950,-76.5463,-75.8503,-120.0298,-6.1164,-6.2035,25.9554,39.7590,8.8871
-1304.6875,-52.6101,20.4345,28.1822,-39.5974,91.8965,23.9841,-15.4672,32.0197,-149.8850,-84.2029,23.9472,73.5254,-78.2533,69.4029,-85.7248,27.9411,94.3783,-58.1932,34.2648,-66.7651
-1296.8750,63.5028,137.2582,150.3392,76.2258,102.5796,71.6517,-102.6832,42.6968,-174.9616,-73.6927,-1.0964,11.3815,-67.5026,43.1015,-184.9698,2.4446,-0.5941,-43.6105,-130.7751,-55.9493
-1289.0625,19.9615,-13.5658,172.8394,-3.6054,88.6063,-16.3338,-41.3229,-81.2775,-188.6980,-87.8431,95.2182,-3.4136,-8.4047,-7.8421,-88.8522,-12.6931,165.7861,51.8345,-34.4614,40.2045
-1281.2500,45.4772,-23.3260,243.3943,21.6243,84.6883,16.7388,-65.3502,-85.1997,-193.3903,-91.9457,164.5752,-43.1641,24.7442,25.2565,-55.6951,57.2164,86.1974,-102.5199,-79.1153,-110.5882
-1273.4375,100.9378,-3.1416,257.8910,6.7956,61.7131,30.7533,-71.6040,-71.1783,-141.1511,-78.1091,105.8890,-65.9634,75.8467,-70.6920,-78.5802,-39.9124,36.5648,59.7863,-127.8118,50.5794
-1265.6250,56.4887,23.1510,139.4832,-37.9237,16.8425,-14.1248,-26.2748,-80.0556,-185.8222,-159.1672,134.3018,-0.6654,31.0491,-5.5300,60.6352,-47.9333,97.0189,9.4239,-32.4204,5.8340
-1257.8125,31.7832,104.1943,116.8231,8.1085,103.7327,109.7452,-29.7863,43.8131,-172.7476,-73.4792,1.4619,-60.6253,-28.9925,-65.6245,-36.4007,-71.2130,-32.7833,-41.6511,-57.2839,-54.1450
-1250.0000,-75.6308,-39.4713,36.4556,-29.5671,96.9211,102.9085,49.8890,-0.0307,-69.3781,-44.4959,-43.0586,-103.2827,0.2669,-108.4075,-7.1232,-114.1792,70.7136,64.7684,46.1570,49.1683
-1242.1875,-53.2895,-17.3820,-7.1588,63.5060,89.8647,95.8298,27.2903,29.8811,-113.2571,-50.7525,-12.8344,-1.2001,-79.7238,-42.4494,22.9010,-48.3908,21.9365,-92.6311,33.3327,-104.7696
-1234.3750,-19.7031,15.9453,-13.5316,60.8181,119.0520,124.9975,32.8700,23.0338,-46.8805,-21.7714,-93.3612,-7.8696,-50.4605,-123.2383,-20.8161,-129.3510,-50.5838,11.4523,-4.2333,-1.4426
-1226.5625,-62.6285,-97.2276,-57.4071,-87.3616,74.7359,7.6757,85.8516,-58.3128,-54.0039,-66.2848,10.6092,-15.0428,16.2973,-57.5219,81.9662,-26.8038,48.3848,-5.7778,129.7022,-8.6298
-1218.7500,-10.5144,-10.3499,0.7647,-35.4931,133.4776,102.4063,32.2371,-0.6124,-69.0737,-44.7423,-5.3811,-67.1775,0.1112,-72.7660,29.7941,-6.2106,-110.6028,-93.5051,4.6829,-97.7539
-1210.9375,13.5902,-21.4813,-54.0687,-116.6291,77.2216,83.1336,37.8492,17.0793,-87.1612,-137.2152,12.6392,-49.3139,54.9291,-90.9995,47.6350,-61.6079,-51.5812,70.4564,29.6672,67.1174
-1203.1250,-40.0957,29.6010,-31.7023,-65.5539,62.1765,31.0704,-3.6129,38.9710,-140.0612,-79.4864,71.8553,45.7373,3.9403,3.9633,32.6704,-2.8063,-35.3717,-57.5216,9.8375,-57.8186
-1195.3125,4.6682,109.1262,11.1026,13.9653,31.5855,37.4517,-77.4326,82.2982,-96.5112,109.6875,-32.4783,15.2309,9.4071,-27.6310,-71.8448,2.4415,-96.7045,22.0812,-121.5324,21.7082
-1187.5000,-33.9310,35.3003,-67.4466,10.1345,-84.3478,-78.5187,-64.0323,1.2688,-102.3154,140.5103,34.8420,119.3744,39.5178,39.4292,32.2969,69.3467,40.6039,79.3414,-54.2481,88.8667
-1179.6875,-14.0856,160.9236,-79.5509,99.7538,-133.8167,-17.0300,-117.3223,63.6935,-114.6710,165.7854,24.5995,144.9551,29.0789,64.9310,57.8790,94.7011,-80.6574,-46.2510,-140.5165,-32.5171
-1171.8750,24.8920,58.6837,-80.5191,33.5149,-135.1335,-19.3908,-45.6163,24.2598,-41.8824,52.2007,-14.4910,68.6880,136.7898,-10.4109,92.6203,-17.7850,-39.7600,102.3460,-64.6242,112.2485
-1164.0625,-44.8781,-10.2955,-76.2337,-0.4588,-130.1961,-51.4875,-29.4854,-6.9146,-37.8515,20.8665,64.6646,110.6634,104.7448,31.4941,134.6035,60.9755,30.3789,-4.9957,-29.4956,7.2501
-1156.2500,18.6498,88.0208,-48.6502,26.8677,-139.9557,48.7169,-77.6207,56.2036,25.4784,156.8163,-19.8810,26.9339,58.0118,-16.3094,13.8891,50.0276,-152.1762,59.5775,-106.0660,70.5635
-1148.4375,-55.2358,13.9359,-167.4681,-117.2100,-223.1113,-33.4727,-13.1832,46.9192,89.4039,184.3593,-27.8199,18.8079,48.8760,48.4986,114.7777,113.6914,-156.1335,150.3405,28.9642,171.4586
-1140.6250,-78.7740,60.2033,-185.9388,-104.9345,-241.9101,20.6962,-41.4848,101.9927,144.6818,312.2676,-47.4261,-0.9773,-43.9100,103.6593,133.0068,205.7080,-284.7580,15.4837,-29.6699,42.7075
-1132.8125,-7.4742,26.3067,-117.5758,-139.8150,-210.8655,15.7062,-52.1735,94.9031,138.8063,269.0357,-52.1786,-42.9080,-48.8441,24.6781,54.1015,125.5833,-249.5255,163.6996,-63.4478,183.8122
-1125.0000,-27.0268,5.5628,-60.0687,-124.5346,-190.6667,-38.1277,-43.1692,41.9649,-23.9197,105.9704,41.2179,13.3029,-64.6274,117.8461,74.3491,146.6201,-57.1600,80.1413,21.9069,94.0562
-1117.1875,39.6176,107.0211,46.6304,46.9413,-119.2694,32.2381,-106.4514,39.2221,-63.4445,103.0964,1.8146,-26.2963,-32.2007,41.2075,-39.1987,69.8545,-62.6010,51.1087,-121.5450,54.5221
-1109.3750,4.4521,-32.3249,43.5195,11.6132,-85.6714,-43.1977,-38.9238,-36.3267,-65.7854,25.4127,35.6252,8.3116,2.4266,37.7834,-4.5360,29.2966,114.1595,125.8532,-16.7917,125.1808
-1101.5625,17.7372,-20.2113,64.8587,59.7416,-28.6125,-23.1788,-57.9375,-53.4211,-45.6778,46.1872,56.8748,65.3600,-87.4893,95.8031,-20.4296,50.1871,127.3448,-37.8460,-73.6024,-37.7072
-1093.7500,93.5101,55.3920,102.6844,65.3567,-29.0520,13.3355,-77.4520,-53.0245,-9.0699,46.4610,-16.3767,28.9010,-49.8965,22.3185,-129.8082,-59.4140,97.0332,77.2582,-102.9062,72.9175
-1085.9375,62.9737,24.7026,35.2002,34.6797,-95.7859,-54.4435,-47.4986,-83.9215,-2.7695,52.4416,64.0704,109.1383,-80.6068,102.5296,-14.4798,-54.3070,136.4051,37.8652,-29.5151,42.2317
-1078.1250,52.6827,84.2605,26.9599,129.2503,-68.2684,11.0305,-91.7607,17.4300,25.7775,153.6755,18.7581,99.6104,-90.0626,56.9784,-59.9023,-62.9536,-49.9774,-6.8325,-144.8670,-3.1878
-1070.3125,70.0295,31.4582,-32.6394,41.4686,-91.0942,-122.8454,-29.1555,-42.5801,37.9681,92.5562,31.1029,75.7339,-38.8743,-3.9145,-9.6667,-48.9450,38.3003,113.0072,-21.5620,120.0330
-1062.5000,57.4813,88.7738,-3.1345,63.7975,-98.8076,-93.6076,-43.1509,-50.4884,32.2504,48.5398,98.5411,68.9529,-83.5901,62.2871,20.6553,17.1591,25.6603,-43.2807,-34.1738,-33.6501
-1054.6875,103.3260,64.4881,38.7613,38.5219,-56.1216,-14.9730,-35.2210,-9.0076,73.9232,53.9172,-6.6211,-35.4264,-76.9037,-6.1145,-47.6141,-15.3350,-68.5719,79.4343,-59.3807,82.0807
-1046.8750,9.7643,-63.1948,-21.7503,-124.1469,-43.8342,-74.7320,34.8679,-105.9243,123.1885,28.9060,42.8141,-23.2062,-28.6247,43.0901,74.7189,33.7821,12.7890,82.5802,23.0070,94.3962
-1039.0625,-13.3543,52.5711,-5.8137,-78.3631,8.9107,-23.0365,10.0857,-54.3863,138.9060,118.3466,-14.3130,-44.5420,-49.8935,-14.2625,17.4986,50.3470,-116.4112,-10.7139,-35.1614,0.1756
-1031.2500,7.6715,-66.5201,-61.7386,-126.4365,61.8034,-79.1959,97.6607,-110.7034,155.7698,60.9297,-70.2850,-100.7204,39.9843,-107.4551,33.4424,-6.9269,-23.4564,120.8794,91.8232,127.1051
-1023.4375,-52.7457,-93.0447,-82.1153,-82.9509,79.2539,-62.8006,110.8561,-94.4659,99.1781,41.0769,-16.7079,26.6486,-15.5933,-54.0978,87.9288,10.3504,-14.9713,-45.5873,136.3365,-39.4212
-1015.6250,-18.4138,12.1783,-10.7496,22.2823,113.4530,-28.6595,61.6767,-60.4868,133.3293,148.9787,-129.3795,-50.2362,-18.4163,-165.9997,12.1641,7.3737,-86.7265,-6.1532,-5.3956,-5.1816
-1007.8125,-77.1392,-46.6426,-0.4430,-36.5287,87.6070,-127.5703,101.0037,-122.5596,107.4222,158.8340,-82.0976,-40.1726,-8.2898,-118.9470,96.3585,54.3529,31.4600,37.8671,76.8240,41.9914
-1000.0000,-82.0190,-16.6084,72.7101,28.5116,123.6220,-92.6269,46.9405,-50.7785,106.3703,158.5524,-82.9758,-3.2740,-45.3121,-47.0609,95.3982,90.1782,-44.5198,-72.8375,-69.1092,-68.9770
-992.1875,-51.4109,-22.0913,59.3479,-11.9584,110.1360,-105.1912,53.8374,-27.5054,92.8194,33.7760,-58.3490,-16.8828,14.1667,-59.6724,44.9487,2.5187,-14.9907,101.6811,-39.5233,101.5550
-984.3750,-102.3052,33.9296,48.4811,-61.9253,25.1601,-153.2407,20.2987,-39.7218,7.7610,-14.4922,76.7702,45.0003,3.1456,38.2175,106.9970,101.3654,41.0162,8.4395,-18.4494,16.5751
-976.5625,18.3949,118.5435,63.2045,-12.2961,2.7931,-102.6920,-46.5900,-25.3480,22.2978,109.8353,17.4807,-14.5221,17.7352,15.7037,11.6499,115.8132,-85.3802,20.0473,-109.7724,31.2130
-968.7500,74.7887,-1.1425,45.6190,-95.9676,-50.8641,-156.4442,-23.0561,-115.2831,4.5268,18.8595,73.8988,41.6624,37.0246,34.8907,31.0158,98.9627,76.9193,74.6460,-18.3926,87.5345
-960.9375,68.1878,63.1867,83.0353,3.3711,-13.5043,-83.1899,-39.1580,-42.2198,-31.2523,18.8839,37.3119,78.8340,1.3170,72.0624,31.3670,62.1018,0.2074,-67.2711,-59.0209,-59.1415
-953.1250,78.8824,73.8101,49.7469,-21.9967,-10.8339,-42.6395,-31.4970,-38.8682,-27.7461,59.1945,-31.9670,8.3018,3.9138,-34.4681,-73.9759,-8.4643,9.8077,90.3713,-14.3371,91.4863
-945.3125,-11.3727,18.4940,-3.4905,-6.3054,-27.1050,-23.0292,-11.1830,-56.4647,-118.2021,5.5590,24.8022,65.8139,-49.4408,22.0471,-18.2687,49.0200,130.4451,2.7521,71.3875,1.1503
-937.5000,25.9754,90.7762,73.8587,136.9792,14.2340,91.1844,-67.6931,21.5381,-151.0614,9.5288,-44.8409,32.9137,-82.1878,-10.8486,-87.9564,-20.9056,27.6724,-19.8174,-66.2830,-31.5671
-929.6875,-7.4940,-47.7491,34.3896,103.4587,10.7742,14.6003,-6.7845,-55.2570,-153.7251,-67.2896,-47.2858,29.2120,-47.7360,-14.5409,-53.4325,-24.6231,205.0982,91.0015,41.2638,75.9054
-921.8750,-1.8193,-42.1165,48.0600,144.0946,24.4736,102.1801,-18.4244,-5.8886,-141.2315,-17.9387,-70.6017,5.6432,-145.1354,-1.0954,-39.7626,25.8095,140.6545,-77.6961,10.9560,-94.4742
-914.0625,77.3930,72.0562,89.2660,117.2722,65.7206,105.3121,-12.4627,-1.9685,-64.1886,-14.0417,-139.3731,-100.3772,-103.9821,-107.0969,-73.5393,-81.2004,78.7640,37.8536,-50.7872,19.7054
-906.2500,7.9004,2.5338,54.7625,12.7531,67.2703,34.7589,36.1582,-36.7381,-134.8492,-158.8361,9.1548,-25.0981,-28.5365,-68.7905,39.9848,-41.9059,150.1542,-2.1585,55.7654,-14.8318
-898.4375,-7.6378,21.9647,42.1964,103.1777,129.7775,133.1595,-7.6581,24.4417,-147.5474,-60.6673,-39.3828,-36.8728,-4.1403,-80.5490,-45.5514,-17.6642,28.4844,-85.0184,-29.7303,-100.4083
-890.6250,-71.0878,-76.5100,-29.2830,74.6984,168.3915,61.6595,45.9951,-10.2875,-72.1455,-96.3902,-74.8211,-35.5444,35.3522,-115.2001,-43.9793,-15.3148,140.9179,28.8933,12.8779,12.1060
-882.8125,-84.3872,-19.8171,0.3826,96.3773,161.1671,54.3174,13.1120,19.1364,-78.5969,-29.9463,-45.1173,30.9301,-46.0082,-12.7049,-14.2638,51.1889,127.4759,-130.5047,-36.3811,-142.2345
-875.0000,-19.8911,9.6701,62.8370,160.8406,113.7517,79.7693,-26.0465,44.3460,20.7462,69.2923,-129.6120,-16.8020,-19.5622,-60.4121,-61.7418,3.4940,85.8367,-29.8514,-147.8289,-42.7591
-867.1875,-32.7492,-74.1872,48.9316,111.9572,25.9970,-45.1293,10.5870,-80.7997,42.7390,18.1812,3.5459,42.1110,2.5377,-38.4704,34.4379,-11.5480,283.8354,-14.1861,-54.6263,-20.6476
-859.3750,16.6972,82.2586,142.3200,233.3708,45.5565,-25.7325,-50.5476,-24.6548,25.0389,37.3816,22.9984,24.3110,-51.0587,-19.2455,-56.0867,-65.2955,123.1232,-102.1146,-145.1261,-111.2231
-851.5625,69.7907,64.3429,79.3453,109.4312,19.7697,-87.6929,-2.0383,-86.8718,72.9891,-25.7674,34.1079,-38.8394,-4.0044,-81.3750,-81.9493,-55.3902,140.0684,51.9685,-22.9594,46.8457
-843.7500,51.2384,-24.2088,28.7151,55.8566,-29.6559,-64.2875,3.7762,-26.7279,22.2852,-38.5544,57.5585,-14.6481,-16.6032,88.8369,14.5302,41.8599,87.3408,-77.9906,29.5471,-76.7492
-835.9375,42.4342,1.9901,16.8255,12.0258,-5.3279,33.8721,-6.1941,70.1727,47.3236,22.4088,-65.2498,-64.7152,7.5563,75.7901,-34.2403,-7.1495,-63.6361,-14.3749,-14.1865,-15.5808
-828.1250,-77.6300,-153.0539,-110.3271,-107.0547,-23.2457,-21.2099,62.0876,52.8303,66.1049,4.1302,-9.3126,-9.0326,26.4631,131.5004,58.7471,48.5975,-7.8709,35.2764,111.8349,40.3203
-820.3125,-62.2504,-102.6408,-90.0361,-92.6813,-1.7027,74.1613,2.6708,147.9395,50.3429,99.3199,-23.9389,-23.9094,-25.1762,189.6468,6.1755,106.7913,-203.6674,-92.7464,21.3003,-85.3242
-812.5000,-3.2343,-113.5856,-71.1093,-138.6620,-56.5028,92.1783,-3.6878,128.6927,68.2338,80.1623,-42.9133,-79.1339,28.8306,134.4449,-12.7435,13.6358,-178.8075,74.0360,10.4315,79.6781
-804.6875,-63.9176,-104.2129,-94.8853,-163.3252,-78.9924,69.5137,4.7026,68.7508,9.4117,-52.6934,81.4022,-29.0568,44.1333,185.5400,112.6242,64.7761,-99.6609,-27.2989,20.8555,-16.0351
-796.8750,-64.1468,-69.3881,-58.2237,-94.5401,-5.0231,106.3003,-21.8022,142.2544,46.0367,56.8934,8.1598,-103.5336,79.8919,74.0764,39.4424,64.3567,-205.0669,-22.6848,-85.2632,-16.2846
-789.0625,-27.2318,-137.4137,-97.4258,-197.6019,-8.8965,-7.7556,27.2792,64.9059,115.8032,16.6291,78.0657,-105.8546,76.8011,33.7679,72.4247,98.0872,-62.3245,79.2498,-13.2308,90.6009
-781.2500,43.9381,3.8323,-56.3816,-92.4038,-39.5099,-1.5516,-46.0538,69.8113,47.8176,58.6235,47.2068,9.0633,8.9633,75.6974,77.6502,140.0621,-133.3528,-30.0244,-117.9625,-14.2609
-773.4375,39.8049,34.7839,-30.6498,-95.5080,-13.4222,-12.6542,-51.8278,57.4041,-0.4711,46.3138,35.0554,-39.3155,69.8314,27.3293,65.5793,90.7340,-136.6731,145.0309,-155.9870,157.5826
-765.6250,-18.1687,-23.0961,-51.7700,-188.4555,-35.1766,-70.5992,-19.9788,-0.8516,-22.6181,-11.8399,124.0521,11.4574,85.8426,116.1117,155.6528,179.5589,-89.8598,79.0181,-72.8671,99.5606
-757.8125,55.2138,50.3705,-48.5475,-151.0606,5.4296,-31.1915,-43.8315,40.2390,17.5831,103.3611,54.3959,-57.4307,90.2112,83.2280,49.0734,146.7275,-262.7055,46.1042,-105.3917,66.9029
-750.0000,22.0892,-88.6722,-124.8373,-220.1722,3.5489,-143.2786,56.4978,0.8247,87.2735,26.0614,51.2505,13.1767,123.0823,42.8461,82.0013,69.3960,-156.0550,153.8330,70.5979,173.7307
-742.1875,-33.1222,-141.7962,-174.2263,-132.3770,27.5827,-83.4474,81.8599,24.3222,75.8546,50.6661,1.9943,73.6731,37.8534,103.3520,106.8144,93.9540,-139.5289,-1.2549,122.4775,14.4532
-734.3750,-60.3805,-99.9659,-171.6877,-55.6359,29.5694,-42.6676,77.0463,25.7618,77.3802,89.2171,-105.3112,2.1201,39.5821,-4.1970,-0.4218,59.4549,-98.0543,122.2023,130.3200,127.1356
-726.5625,-128.8437,-98.3241,-205.3630,-19.0880,-39.6401,-76.0728,124.5938,-43.9942,6.6973,-54.4195,-28.8194,41.3644,6.1116,72.0534,39.1471,25.7608,43.1999,92.4418,307.9602,93.6014
-718.7500,-26.3592,39.2741,-131.1009,48.4114,-0.8908,-1.5237,72.5627,31.2048,-65.0317,-53.1008,-64.3946,43.5454,-28.4033,0.2427,-32.3357,-45.9894,-100.6104,-10.8457,234.5576,-14.9716
-710.9375,27.5158,-11.7287,-153.4506,-107.6879,13.2604,-59.5771,117.2759,7.7981,-13.3638,-74.3843,-48.5664,-15.8745,-13.5155,-58.1709,-17.4121,-104.3412,-81.0131,111.1483,289.5730,109.8441
-703.1250,-52.1520,-21.2731,-193.3483,-153.3230,10.8770,-64.1658,128.8324,40.8411,55.7567,67.7937,-16.3024,-19.8551,-54.1770,-26.1472,15.9505,1.7415,-126.9788,-47.1305,315.0360,-40.9035
-695.3125,-49.1125,-18.1164,-193.5528,-113.2588,11.2045,9.9441,114.8185,114.5753,203.5786,141.6585,-89.3418,-129.1434,-54.1345,-63.4408,-93.9911,-72.4885,-263.2319,30.7365,248.2113,33.0539
-687.5000,-108.9674,-112.8493,-221.6573,-175.0899,-16.3543,-17.8367,168.4559,50.4076,249.4897,-33.3827,-44.2816,-48.3325,-80.9967,19.3666,-11.8339,-26.6206,-113.3931,38.1697,327.4857,42.0883
-679.6875,-46.3219,-15.0697,-151.2645,-41.4179,-17.3946,53.8927,60.7230,84.7425,209.8987,75.0783,-8.7362,-13.0330,-120.3507,-19.3434,-87.1848,7.7305,-157.0712,-73.5272,145.2616,-70.3721
-671.8750,-1.5345,-40.1397,-109.7331,3.3913,-14.2711,-16.2302,47.4303,14.2213,213.4506,78.6904,-6.0372,-10.5842,-78.5514,-88.9028,-119.3755,-97.7748,64.4083,82.9292,85.2021,80.3097
-664.0625,24.7146,-13.7400,-39.7500,135.6610,-52.6864,-17.8883,16.8567,-61.8430,63.4432,-34.2412,65.1015,134.3071,-119.2971,-19.0216,-49.1242,-138.8391,195.3166,-63.6073,76.5824,-69.5725
-656.2500,122.9272,48.6168,24.1738,232.8782,-25.1437,9.4031,-32.1286,-34.9620,17.3767,-44.2322,-17.8119,124.1456,-55.0837,-66.1996,-95.9189,-184.9624,117.1742,-32.5339,-37.0843,-42.4876
-648.4375,73.4445,0.2828,6.3843,184.4062,-79.2972,-81.9981,-5.0379,-89.7857,-0.4026,-61.9248,38.5761,143.2886,1.4312,-47.0718,-2.4136,-164.7794,208.3295,18.8106,19.5504,13.8831
-640.6250,47.1222,149.1136,20.7404,298.0893,-100.2878,6.7586,-69.4594,-1.4634,-23.0248,26.5506,-20.8988,157.5713,-93.9016,4.1933,-24.7657,-77.4554,75.6194,-113.9391,-77.6802,-118.5905
-632.8125,28.7470,236.8921,-5.9679,209.7106,-125.3220,-19.5441,-73.5401,45.7909,-49.6920,36.9760,-83.4158,94.8032,-47.2764,-22.5951,-51.1578,-68.1813,56.8639,42.9317,-60.9523,38.8893
-625.0000,2.6713,175.9893,-28.3757,113.6445,-112.0427,-78.5337,-32.5836,22.3458,-109.0632,-59.3038,4.3627,182.3294,-32.3558,64.9117,73.7471,-16.6120,65.3928,-60.7858,19.0678,-57.3441
-617.1875,79.8488,218.3401,15.4614,155.8297,-67.5094,2.7300,-69.7536,66.1493,-65.1861,20.6594,-62.6189,78.0980,-25.1757,-1.3418,-29.1027,-83.8073,-32.8293,-48.8549,-78.6556,-50.3117
-609.3750,53.5258,51.1943,-54.2167,58.5159,-62.4707,-66.5015,10.3119,-2.5512,-60.8176,-84.8795,-21.0978,9.3681,16.5034,-34.0929,12.5517,-79.5008,150.4473,32.6200,70.1349,28.2065
-601.5625,2.0181,-0.1320,10.9020,112.0078,3.3815,36.0797,-2.4309,62.5521,-105.6492,-93.6165,-29.7889,0.4284,-29.0177,-6.0531,-33.0088,-51.4077,133.5013,-150.5821,53.7214,-164.4776
-593.7500,-6.0875,-43.0597,71.4075,68.8885,64.6407,60.0595,19.5199,49.0409,-82.0800,-105.9623,-79.0794,-49.1085,31.8697,-129.6213,-82.1637,-137.9233,125.9602,-45.6960,45.7275,-66.7590
-585.9375,-76.7881,-78.5746,74.3117,69.1794,68.3111,26.4496,31.0534,-22.0652,-153.1061,-176.8976,34.0194,26.7498,35.1584,-53.8012,-5.9206,-98.0475,195.7971,-119.7708,81.1300,-137.6608
-578.1250,-67.2312,72.1718,85.4578,148.7217,80.2397,111.0933,-23.1316,26.0728,-141.8843,-92.5834,-65.6414,37.8504,9.7070,-42.7497,-31.4327,-123.9335,-42.1170,-148.4655,-50.2152,-163.3014
-570.3125,-98.1742,-28.5744,9.0971,12.7653,77.6774,72.2376,41.2460,-13.3019,-108.1754,-131.7885,-67.7878,35.4518,44.7588,-45.2003,3.5587,-127.3228,32.4749,-6.0040,59.9564,-18.4570
-562.5000,-121.2027,-52.4024,-10.3595,-11.2792,97.0351,127.2936,25.0120,41.2255,-126.5682,-113.0903,-13.0436,15.9379,62.7132,9.2268,21.4375,-35.8278,8.9465,-138.0525,37.0256,-147.7245
-554.6875,-48.6789,-13.6854,22.7249,-43.7851,129.9573,86.8978,27.9377,73.2915,-94.4070,-80.8448,-53.7488,-99.0352,95.2300,-68.8085,-19.1327,-76.7965,-60.0275,6.7030,4.6598,-4.4401
-546.8750,-72.8976,-108.7074,-3.9472,-137.0325,31.1460,-12.2396,57.4576,10.6099,-83.9973,-70.3460,30.7950,-51.7614,105.9925,15.4040,65.5503,7.4810,-13.7643,6.8702,120.5376,6.0713
-539.0625,-78.2493,-43.8660,-6.7708,-38.4265,-7.8057,58.4823,7.1800,117.7738,-49.7419,36.9988,-45.8229,-54.6512,66.6133,48.4495,25.0757,77.5938,-161.6543,-70.3979,44.2653,-70.5584
-531.2500,-105.6550,-141.0712,-78.6478,-135.8736,-78.8034,23.1537,65.6925,118.8810,24.4570,1.2837,-44.4850,-53.5951,105.1902,12.4452,63.5569,41.6553,-118.5890,76.2157,157.9548,77.7529
-523.4375,-112.0584,-76.2596,-79.5217,-142.3064,-78.7909,23.8425,51.5363,118.9955,-11.3443,-34.4197,28.8419,-16.5483,68.7644,86.4319,101.0269,78.7098,-54.5423,-73.7091,152.6324,-68.9460
-515.6250,29.9400,29.9571,-8.9979,-106.3367,-44.3773,94.9277,12.0227,152.5000,-14.7434,-37.7291,-47.4322,-94.1048,66.7499,9.8041,24.8957,-34.8481,-125.0885,3.0762,47.7162,1.7662
-507.8125,13.5432,-92.2147,-100.8796,-157.7582,-62.3544,77.6178,55.6318,96.5989,-33.5439,-129.4326,7.8974,-76.0602,48.3355,100.7738,43.3639,-16.8143,-1.0437,20.9008,172.4012,20.0550
-500.0000,-24.7928,-59.3224,-97.7113,-90.1221,-21.2670,191.3640,28.5223,173.7434,-30.2868,-16.0829,-61.7375,-108.9787,-22.0156,104.7692,-27.1251,23.2471,-109.9664,-118.1178,134.1362,-123.6048
-492.1875,1.0211,-68.2884,-151.4080,-169.3432,-1.0224,174.2551,38.7823,193.0299,26.1166,40.4045,-152.2168,-125.7483,-2.2072,49.9139,-80.4516,-31.5443,-118.7416,47.9677,125.0395,42.8791
-484.3750,-78.9592,-78.0381,-158.9089,-214.3582,-5.5605,132.3632,36.9501,186.5226,19.7148,71.0976,-85.5036,-22.3241,-81.1942,117.2525,-49.5903,72.8563,-60.3430,-73.5645,150.1371,-73.4524
-476.5625,5.8654,-27.9836,-70.6161,-165.5790,82.7164,147.2704,20.1525,200.8073,71.1059,85.5782,-144.9922,-82.1084,-66.3673,57.3789,-145.9317,-22.9573,-81.1456,-52.4851,59.0425,-58.9744
-468.7500,47.8906,-160.7221,7.8753,-228.5990,88.2090,5.3851,91.1361,58.2809,75.6829,-56.7605,-29.2742,-77.6890,12.6665,25.7130,-67.0677,-55.5847,136.2463,-10.3741,172.1550,-17.3174
-460.9375,91.7308,-47.6464,96.1717,-114.8145,104.5197,-16.6901,9.6756,36.5538,54.0562,-42.3046,22.2377,-26.4827,-9.4903,2.8302,-88.4149,-4.4307,108.4211,-145.8351,5.0630,-149.8633
-453.1250,130.7771,62.6309,91.6643,-75.8346,101.0352,-93.5645,-18.8209,-41.9834,49.6242,-9.6633,-19.0465,-31.0755,23.5570,-75.8556,-128.5593,-9.0853,146.8073,31.5119,-61.8202,29.7865
-445.3125,51.4883,53.5759,47.8130,-14.1855,58.2079,-99.7703,-57.5784,-121.8631,-30.1684,-15.3728,48.3141,72.9810,-18.7471,65.1038,-62.0644,57.8998,242.8262,-53.7194,-106.0621,-49.9355
-437.5000,100.6590,138.9830,172.4072,69.9197,109.8308,-48.5187,-122.5493,-108.2963,-16.5130,-1.6290,26.1163,13.4797,-4.5938,78.4938,-158.1291,-1.6825,116.2951,-36.3012,-266.8494,-36.2011
-429.6875,122.7820,54.3526,151.9412,-48.0222,53.4096,-178.3156,-82.1810,-201.7852,-0.9117,-22.9341,115.8699,-8.0700,48.5071,57.8317,-31.2440,50.6853,171.7141,79.9836,-209.6745,90.4602
-421.8750,126.2198,129.0465,122.7735,-45.6491,26.2986,-132.7990,-149.9657,-156.9680,-66.0066,96.0581,160.9099,0.6708,20.9100,102.4524,13.9221,169.3339,34.4159,-31.8944,-311.2051,-11.5855
-414.0625,179.0643,147.1422,95.9959,8.1277,-35.4068,-84.8813,-162.5726,-109.7608,-17.7099,106.4275,97.3550,-25.1870,31.7220,2.4669,-48.5120,68.3705,15.5299,131.1689,-329.3232,145.7688
-406.2500,125.7252,23.0604,42.0160,23.7174,-125.2993,-64.1476,-119.1199,-163.7565,-35.6258,-21.4069,190.5972,29.7522,14.3311,58.2785,43.8530,51.2023,172.4249,79.1953,-206.6523,91.8993
-398.4375,139.6958,73.2978,59.3372,143.6063,-106.8797,25.8898,-120.1272,-74.4634,17.7566,33.0615,98.1321,9.9799,-4.7518,-35.6213,-12.4950,-5.6751,10.6130,29.5349,-227.6919,35.3401
-390.6250,78.1705,47.0485,-9.8417,46.9925,-138.9533,-79.5742,-36.4060,-106.6826,57.6286,36.0159,28.1739,49.7104,0.6683,-68.0222,64.6621,-38.0554,53.3108,140.3213,-78.2253,149.2706
-382.8125,-4.4394,104.7166,-92.1084,69.2912,-145.1159,23.8724,-37.8578,-78.0062,-22.6018,65.8683,-15.8925,116.3363,-117.0081,70.4645,94.7128,27.4463,-30.1073,-15.5767,-20.8707,-4.9052
-375.0000,52.3491,162.7812,-145.9776,55.9890,-125.8746,116.7146,-28.5330,14.0551,-40.4301,48.1114,-106.5545,61.3584,-97.2765,-21.6641,40.1697,-64.6614,-149.1175,82.5547,0.8955,87.3289
-367.1875,34.6397,39.3534,-164.3479,-101.8065,-106.1203,62.0619,36.5308,-41.3857,-22.7626,-7.1534,-15.7148,42.8780,-42.0394,-3.2987,96.1299,-47.2733,-27.6383,60.7221,124.1619,69.0430
-359.3750,78.0912,83.0770,-40.5688,-94.4516,18.8007,150.5640,4.8214,9.3176,-7.9417,80.7314,-37.7308,-53.4702,-64.6429,-25.8050,0.2319,-32.7510,-126.0221,-67.1413,26.5834,-64.0855
-351.5625,59.5823,-6.1652,6.2544,-183.0524,66.7827,88.1156,22.0368,-16.9406,38.9348,17.6680,-27.6888,-79.7799,56.8152,-16.2650,-26.6067,-60.1805,-75.3564,53.8233,7.0720,56.8220
-343.7500,32.5288,3.0534,20.5304,-105.1971,45.2303,103.1367,-5.1016,-38.7401,-19.7401,-77.9394,23.7968,7.3458,71.7317,71.7144,61.9955,-9.1651,-32.2628,-81.4804,-53.9943,-75.8411
-335.9375,145.9346,81.7256,62.2549,9.1075,88.1387,107.6109,-57.7431,-35.0933,-52.9670,-74.1107,-45.2670,-25.0856,113.1097,-34.8713,-6.9582,-41.7167,-95.7183,0.4018,-186.6040,1.9517
-328.1250,53.4441,-11.4892,-1.9184,-14.4721,62.1573,8.1956,4.4848,-98.3469,-43.1005,-100.1966,1.7695,58.5869,87.5911,11.6430,77.1818,-32.1742,21.9216,44.5614,-69.1091,48.8188
-320.3125,5.6117,81.9592,-9.4397,43.6146,91.8433,37.4439,-19.8200,-32.9514,22.4134,1.3603,-42.5556,49.9051,42.7331,76.7915,68.9575,-4.0033,-132.8034,-78.1439,-151.9702,-69.6667
-312.5000,-10.5731,102.0568,-34.3155,27.3535,68.1860,-22.6510,5.9893,-93.9132,108.5640,-95.4501,-30.2217,24.8741,129.5291,-22.4129,44.3818,-65.1911,-113.8704,80.1897,-132.1644,89.4885
-304.6875,-5.2950,71.6222,-25.7330,67.5561,4.9938,-13.2765,-29.1861,-123.4202,44.1564,-87.8156,88.5567,34.2792,101.7759,-13.1773,54.2440,-19.9365,-4.5008,-21.0962,-127.9176,-11.9262
-296.8750,60.8451,138.0399,78.6985,204.6032,36.6572,54.9537,-115.4164,-93.0817,0.6081,53.6584,9.1818,27.5227,59.8838,-130.1069,-99.0459,-63.8487,-115.2770,18.0267,-271.8154,18.5146
-289.0625,33.4407,75.9182,45.5815,177.1071,-30.2252,-13.3658,-78.1104,-198.2952,-67.4979,-125.4260,87.2638,105.2227,64.4431,-88.5801,-20.8779,-59.3176,32.3949,95.0127,-158.2681,96.3824
-281.2500,24.5988,138.3602,79.0265,238.1749,3.4527,20.8753,-76.3780,-165.9622,-109.0665,-202.9661,157.8938,101.4661,61.5682,-56.5175,-24.1687,-63.2520,-47.4001,-53.4142,-133.1834,-54.2008
-273.4375,52.7553,96.7980,102.4731,161.2389,64.1340,7.1124,-42.9783,-141.6392,-84.6544,-142.5340,107.5380,-23.2883,159.7098,-180.4564,-73.4521,-113.1891,-55.1813,84.7593,-104.0880,79.2158
-265.6250,0.4215,43.7615,86.4299,107.8104,50.3237,-7.1418,-32.1486,-157.8175,-137.7524,-48.6015,165.6821,35.4528,107.3532,-123.8997,-53.2385,-56.6317,-3.4781,-7.2532,-16.5043,-9.8860
-257.8125,54.5040,169.1385,106.7915,232.7815,71.9197,50.9990,-67.0323,-64.6066,-81.4510,8.7295,75.2166,18.5876,55.4004,-176.9604,-142.6337,-110.6930,-126.3725,-18.7955,-103.5179,-26.5770
-250.0000,61.1891,70.1187,72.7566,168.3535,38.1204,-20.2664,15.2956,-134.8076,31.4411,-26.3464,115.3596,-16.6738,58.0503,-211.4247,-66.4235,-181.1664,20.3405,56.1057,8.0830,49.3141
-242.1875,75.1374,84.3596,95.9827,218.1837,25.5907,-33.2689,13.0337,-112.7631,54.5928,106.8204,64.7414,6.2992,-29.0477,-189.6543,-43.9775,-122.4021,33.2889,-143.0229,22.9264,-148.5513
-234.3750,127.6919,137.1962,145.8040,234.6077,40.6647,-18.6746,-19.4849,-63.1311,30.3573,83.5720,-32.2726,18.8717,-51.5401,-249.2876,-140.9267,-184.0424,48.8450,-48.1312,-30.6230,-61.8119
-226.5625,87.3004,97.0949,106.6777,194.0956,1.7948,-94.0230,26.9109,-102.4470,-8.8281,-102.6271,75.7625,90.4965,-52.9818,-179.8680,-68.8300,-149.6306,219.4350,-125.4032,104.8643,-138.0381
-218.7500,83.0649,164.1470,178.7010,260.7386,39.0822,15.7831,-13.8111,-30.6173,-9.8622,-30.6836,0.9480,15.2594,-54.2602,-218.3176,-107.5862,-152.0847,73.1688,-195.6920,-4.4983,-213.1017
-210.9375,52.7755,63.1458,139.6689,195.3266,1.3252,-22.4579,34.2993,-69.8436,24.0418,-106.7990,-37.9021,-24.0293,-18.5808,-220.8181,-72.3850,-154.5868,182.8549,-49.0204,70.1014,-68.2275
-203.1250,-19.3065,61.3600,142.8398,193.1211,42.7815,18.5155,31.3502,-29.8640,-45.8578,-103.7037,-34.5607,-21.1232,-51.6974,-145.1309,-31.9957,-77.8941,144.7219,-192.5923,67.8875,-212.1651
-195.3125,9.4691,126.4324,94.8634,151.7653,106.0890,44.3414,30.8511,31.9521,-20.9114,-4.7713,-119.3665,-106.3687,-24.9565,-230.6024,-79.7529,-89.3643,32.4461,-93.9929,26.5254,-113.2453
-187.5000,-47.2990,33.9685,33.3438,58.8725,82.8514,-52.3727,79.0177,-29.7836,-44.5225,-29.3977,-32.7194,-94.1582,-11.7659,-144.6244,5.9393,-4.3897,114.6155,-88.9053,145.6064,-100.8953
-179.6875,19.3350,100.9070,69.2296,90.3850,120.0248,20.3179,8.2909,5.8774,-83.7272,43.3735,-71.6786,-132.5582,-50.1655,-110.2638,-31.9779,30.9711,4.1798,-165.5874,1.0877,-176.1391
-171.8750,61.9693,2.8350,68.1160,27.8937,120.2041,-89.9958,44.1303,-106.4695,-10.9302,5.1258,-72.6293,-133.9619,23.4397,-111.9058,4.1100,-7.6750,45.7561,11.4644,8.5857,6.6067
-164.0625,8.4597,55.6194,14.8600,9.2621,68.2457,-105.4496,40.2163,-84.9638,-26.2789,-11.2723,22.2617,-76.5282,-28.1017,19.2907,99.0364,49.5250,-8.8293,-87.5364,24.9305,-82.8127
-156.2500,73.3537,155.7966,4.0078,39.0190,58.6956,-5.5126,-5.7249,-60.0629,-1.2192,-22.2821,11.5565,-124.6988,34.7683,-66.1236,51.3594,1.1101,-155.0099,10.2702,-86.3120,16.1763
-148.4375,57.2021,34.9321,-51.8880,-46.2694,4.1020,-59.6208,34.7086,-115.2181,-21.2142,-114.3549,102.8074,-106.9096,89.5865,-12.5845,142.6315,-19.3593,2.7578,61.0300,3.3940,70.0952
-140.6250,126.9140,139.9314,25.0777,57.3024,45.3659,17.1228,-49.1905,-113.5244,-91.3589,-75.5741,105.9000,-68.2829,57.2576,26.7857,71.7422,-15.9934,-68.6314,-45.2259,-138.0642,-37.1316
-132.8125,196.0185,174.3195,14.4451,21.2854,37.0272,8.2660,-54.6451,-160.4415,-101.1053,-85.3994,95.3980,-78.2588,47.3335,-20.4490,25.2628,-100.2285,-35.6074,128.9773,-139.1201,136.0363
-125.0000,202.3777,145.9737,25.0742,-43.4727,10.9456,-18.3314,-39.4753,-186.1016,-126.6011,-111.9670,180.1420,-31.9967,-15.3416,63.5637,73.0299,-54.2085,4.6477,24.9811,-62.9412,36.4357
-117.1875,254.8425,162.7295,77.8067,-27.1433,27.9665,35.1645,-65.4839,-97.6666,-74.9852,-23.4390,85.9815,-125.6429,1.0933,4.6695,-22.1031,-39.0913,-119.9960,44.5551,-116.6615,51.9472
-109.3750,197.2572,-34.5649,-22.5076,-189.8670,2.9355,-27.3929,39.9612,-125.2831,7.5841,-49.9658,57.7854,-117.3360,48.4798,-23.2664,60.7174,42.9766,-73.6830,122.2068,71.5707,134.3933
-101.5625,56.8782,1.3504,-52.6049,-153.3797,48.1122,54.2600,43.5381,-7.7027,15.3553,29.7088,29.7826,-110.8394,20.0738,-16.0149,-4.2721,50.2361,-180.1787,-49.2554,106.9860,-41.9582
-93.7500,-29.8017,-49.0393,-38.0002,-135.1960,100.9929,106.6042,96.9334,6.5638,66.8248,8.0700,-65.5107,-168.6408,72.3717,-112.0675,-62.5553,-82.8004,-196.9640,50.9990,161.1074,46.3934
-85.9375,-138.0277,-122.9717,-72.9449,-172.5499,140.3260,71.4112,152.3282,7.2844,-5.2584,-101.1180,-27.3578,-94.9876,74.1142,-37.6678,85.6086,-44.3843,-131.3133,-59.0385,228.6674,-62.8228
-78.1250,-152.1534,-65.8043,24.2100,-81.7987,202.7639,133.3219,93.7727,68.1042,17.7622,-4.2140,-114.1135,-108.2350,98.9618,-88.1784,-1.1316,-21.8819,-251.5615,-104.8818,74.3275,-112.9267
-70.3125,-213.5834,-197.9380,-7.9346,-109.3433,207.8990,64.9329,160.1511,34.6162,22.4718,-36.6210,-110.1541,-67.7746,103.5147,-84.9830,40.8364,-54.6766,-104.1052,-23.3774,187.6905,-35.3447
-62.5000,-252.6520,-236.7037,-3.7203,-6.5291,176.3858,142.9061,125.9694,112.4827,-10.4708,-69.6805,-68.8481,10.0289,-1.5805,28.5539,8.1477,-14.1254,-108.3192,-198.5284,184.3925,-215.4183
-54.6875,-243.1158,-261.8763,-0.9039,36.8730,181.4711,147.4729,106.5278,188.9433,29.1814,6.8471,-175.9333,-24.5696,2.9348,-42.3092,-61.9351,-11.9810,-134.9259,-79.4078,122.7034,-101.8848
-46.8750,-325.4814,-308.9516,-49.9753,-45.6213,95.6646,61.1471,146.3550,102.5078,52.9233,-6.5357,-114.9112,35.9323,-9.4492,54.9305,72.0787,85.2593,-8.4354,-103.0953,215.1129,-115.2728
-39.0625,-233.8919,-111.0800,10.9135,46.8375,121.8180,86.7804,63.0050,163.0210,40.6073,18.0160,-126.9413,-13.6247,-21.8727,42.1058,23.0337,35.4326,-92.9905,-152.4966,26.4741,-164.7026
-31.2500,-143.4571,-161.3674,23.6578,-4.8528,61.8221,-10.7362,61.2794,138.3742,16.1322,-43.5989,-41.1132,-75.3261,65.5551,-19.8647,35.8480,10.4574,31.3177,6.4160,45.6960,-5.2949
-23.4375,-111.7627,-164.3887,61.6646,-7.2852,28.0836,28.0042,12.9744,138.9825,-20.0905,-42.9648,33.9571,-37.7801,30.2297,91.4070,36.8982,120.7298,-8.1330,-108.4144,7.1522,-114.6457
-15.6250,-17.7657,-69.1155,79.9800,15.5797,9.6409,47.0323,-51.6739,119.8805,-2.0107,48.9645,-58.6725,-19.9326,12.2086,34.9752,-55.7502,101.3000,-56.2696,17.8763,-109.0880,13.3142
-7.8125,-24.7254,-40.7889,-3.6426,-26.4950,-70.7529,-34.8870,-19.7993,36.8298,25.1172,38.9502,5.7515,43.9738,-32.7702,61.6013,8.6562,54.9257,41.6415,37.3805,-12.2874,40.3038
-4000.0000,-64.9631,-8.3023,6.3509,9.5650,-55.6783,25.8896,-24.9367,69.8879,41.0447,67.0800,-32.0646,24.1545,-39.7376,62.8534,-6.8670,35.2092,-28.6807,-20.2949,-34.2668,-19.6984
-3992.1875,-12.3054,-58.8063,-18.2758,-75.7213,-43.4486,1.8255,29.5396,9.6062,54.0165,6.5225,-19.2112,-36.0971,46.2331,-34.5141,41.3340,-97.9394,24.1562,139.4638,20.4358,139.2083
-3984.3750,70.1790,58.5113,-36.1078,-99.2064,-62.4361,-51.4523,0.0852,-42.8835,-73.2226,-83.2463,108.4534,20.4619,28.0118,22.9292,97.3382,-79.2859,106.8027,4.0715,31.9361,10.9089
-3976.5625,282.0385,271.2137,37.4144,-26.3163,-27.0848,22.6272,-65.1979,-42.0145,-73.1252,-191.6637,34.4658,-16.6282,64.1426,-86.2770,-13.3178,-151.2905,1.7846,43.0109,-108.2369,46.9474
-3968.7500,295.3650,179.3698,-60.6232,-82.9708,-15.2971,-74.8463,-7.3112,-137.7015,-60.5784,-252.6284,82.9275,32.7300,112.7309,-73.0357,72.4711,-138.8479,86.2229,84.1203,-23.9583,95.4488
-3960.9375,239.4483,195.2844,-38.9113,-31.8618,4.2290,-15.5675,-30.8889,-78.6354,-37.2882,-193.8386,31.1485,17.8425,97.0708,-13.0340,57.0107,-80.6446,-39.5929,-41.9224,-80.9423,-30.3159
-3953.1250,179.5488,136.2061,-70.1980,-125.7443,8.7455,-47.2811,-2.4000,-72.5609,4.0047,-113.0391,-1.6350,-50.0510,138.4176,-80.0322,24.5409,-74.4447,5.5789,110.5537,-34.9476,120.9283
-3945.3125,72.1056,29.5696,-31.0412,-127.1798,-27.3012,-80.5487,1.9283,-105.0444,8.7500,-109.7920,75.0429,-9.4849,68.2174,34.4306,65.5273,2.2096,74.2139,2.1318,-2.5022,13.6240
-3937.5000,92.9828,86.2498,27.4202,0.7027,29.9462,-58.5098,-44.2712,-82.2253,30.7896,-87.2400,22.0203,-24.6173,89.3197,-15.8081,12.8079,-12.8399,-45.8575,26.0915,-156.7720,34.6054
-3929.6875,47.3295,-28.6157,12.3300,-77.9592,-21.3565,-145.0246,9.8896,-167.9641,-20.7253,-173.2553,117.4487,34.6993,147.8875,7.3947,108.5302,-26.4576,84.5323,119.0303,-26.5898,130.0473
-3921.8750,72.4390,-2.7306,82.9860,-52.8617,47.0849,-111.7840,-25.2893,-96.9563,-96.4972,-102.5254,187.6340,31.7666,107.2071,5.3516,68.0034,-29.3228,74.6764,-27.5988,-72.6551,-20.7834
-3914.0625,144.9663,70.5669,116.0420,-50.3428,41.9245,-114.1342,-33.1273,-62.5406,-62.8644,-68.3808,72.2108,-44.7772,139.9282,-70.3073,-45.1380,-105.7971,41.2108,120.6250,-70.3318,121.7827
-3906.2500,101.3024,62.6605,72.8884,-58.0227,-2.4392,-119.6931,8.6874,-104.3312,-32.4330,-183.4472,102.5966,-14.5185,96.4526,34.8346,20.5234,-39.4750,68.5561,73.3888,25.8044,78.1477
-3898.4375,47.1090,79.2186,91.1877,-5.2403,13.6493,-28.7943,25.4119,-48.6658,96.4442,-55.0700,-27.5690,-105.8103,77.4272,17.4239,38.6270,-20.7095,-90.6632,55.1544,-28.6183,58.9434
-3890.6250,-7.4579,-115.6144,-7.9211,-129.8588,-12.6632,-127.2954,124.8141,-146.4024,254.9215,29.9047,-53.1393,-94.5100,124.0102,-43.4011,85.3232,-8.3579,-6.2881,168.8184,126.5632,179.3513
-3882.8125,-16.4616,-88.8911,-47.4977,-102.9272,-52.4357,-92.2483,85.7932,-110.5852,253.9470,140.4252,-19.1501,-22.6537,12.1420,29.3264,120.5721,63.5508,-119.3673,11.7938,83.3040,30.2969
-3875.0000,59.3557,-11.3465,-44.2810,-25.1882,-51.4144,-15.3917,34.1799,-68.9573,219.7744,106.7601,-90.3714,-20.0071,15.0760,-41.1522,-23.3883,-43.7411,-148.6693,132.5419,19.8321,142.0414
-3867.1875,-20.5638,-20.5573,-88.8299,-34.2076,-60.1502,-59.2889,60.5510,-112.0820,102.8446,-10.6653,10.6694,45.8938,6.2684,-11.3808,40.9101,-51.7774,16.2813,89.7336,114.6156,97.0456
-3859.3750,-38.2719,67.4426,-29.1843,53.9845,35.3059,38.0204,20.4000,-14.0032,53.1061,125.1131,-39.0868,-40.0021,-44.3398,-96.4074,-45.5915,-64.6051,-36.5792,-23.6338,25.5912,-26.7647
-3851.5625,-95.9608,-25.5540,-94.5411,-3.8153,40.7612,9.3234,77.5565,-5.9300,98.3657,132.8942,-104.8443,-104.9034,0.0619,-160.4451,-38.1017,-56.4369,44.5574,97.2040,107.5631,90.4368
-3843.7500,-157.2933,-84.2028,-113.5552,78.7372,22.5610,28.9688,66.1124,14.4858,43.9724,80.0229,-13.2388,-49.4494,-55.1854,-67.1260,53.7440,-36.9122,55.0578,-68.4635,81.8832,-75.0198
-3835.9375,-119.5500,-80.7773,-38.5147,117.3537,95.4138,104.6681,69.5757,16.9521,45.6265,8.2071,-49.5850,-84.9436,19.6184,-138.7658,-18.3694,-146.3463,22.5967,-21.6574,49.2298,-37.4304
-3828.1250,-204.6346,-166.1963,-16.3320,32.1189,116.4113,16.5087,116.4626,-32.4485,-41.5769,-115.4622,45.2239,10.7207,41.5800,-41.2584,39.6647,-86.6324,148.2928,-37.6245,174.7287,-52.6761
-3820.3125,-198.2459,16.8522,33.2989,110.3410,127.8561,103.8039,17.1134,91.5934,-139.3398,-27.6907,-15.5098,97.8460,-20.0106,9.7058,-94.8475,-73.4646,83.4321,-168.1562,74.6623,-187.4854
-3812.5000,-153.0217,-42.2810,1.7276,121.3743,133.1018,110.9031,38.1549,62.4268,-169.3050,-131.1295,-9.4401,67.7703,59.2039,-20.5436,-125.5719,-177.5052,164.3692,-46.1496,120.3775,-71.4817
-3804.6875,-186.3752,-110.0169,48.5522,193.8089,141.7431,121.3925,38.9388,73.6412,-231.8820,-230.1847,73.0504,115.1073,32.8252,27.6063,-115.8912,-167.1444,200.7203,-215.2320,156.4977,-246.0780
-3796.8750,-122.6538,-10.6922,114.4336,294.3084,206.4410,223.9405,-8.5434,140.9047,-239.4183,-200.1920,-8.4002,33.4868,24.4981,-52.2033,-234.1755,-210.7372,53.1087,-178.2180,43.6572,-217.6328
-3789.0625,-164.2963,-52.7612,30.9089,182.3995,121.7408,141.0797,39.1470,131.7497,-249.3615,-172.6070,-19.2394,61.4611,13.7828,-24.4326,-133.8608,-146.7389,81.1024,-122.7220,176.4240,-154.5741
-3781.2500,-139.6142,-27.5134,-10.3215,136.7890,116.3433,211.5144,26.9304,202.8837,-216.0149,-175.7334,13.2337,20.7385,46.3640,46.6300,-64.2428,-76.4415,-35.6066,-282.8665,130.4979,-306.2319
-3773.4375,-28.0572,-126.4100,-10.7045,38.0303,114.8099,137.8012,65.1374,166.8671,-141.8180,-138.0147,-24.4471,-90.1434,119.7983,10.5136,-65.7876,-150.3075,-30.4756,-139.1813,170.4291,-160.0340
-3765.6250,50.0100,-152.8124,1.4027,-23.2342,51.7799,39.5786,38.8128,106.3341,-93.1281,-14.8085,24.3840,-77.5267,57.7320,96.8873,-16.8335,-27.6790,48.1717,-214.1124,143.8905,-222.3372
-3757.8125,278.7503,6.4460,54.1603,65.1581,-7.5900,57.0144,-81.6822,123.4525,-39.7969,112.0451,-107.1358,-98.2628,-0.6867,40.8991,-111.2395,-11.4077,-75.5422,-167.1149,-85.9992,-170.0047
-3750.0000,343.0192,105.2051,2.4145,-10.9524,-96.4608,-31.0572,-84.5263,37.0561,-127.9625,-85.6119,-49.1565,-1.5055,21.3996,63.3907,-16.1477,-25.6436,23.2525,-6.1930,-58.3844,-1.1551
-3742.1875,360.8579,265.5099,-47.7883,43.4899,-111.7859,29.4138,-149.8540,24.1984,-177.5826,-97.7217,-25.6083,58.7990,8.0371,125.4272,-29.4965,34.6789,-29.3985,-100.7292,-146.2161,-88.7650
-3734.3750,365.4214,199.5257,-87.2902,47.6395,-114.4033,-9.4190,-163.7686,-50.9633,-105.4994,84.8731,-29.3643,19.7970,41.3793,50.1464,-105.1511,32.6982,-26.3631,39.7338,-177.3583,55.3311
-3726.5625,262.5008,62.0359,-118.3005,16.2876,-109.5219,-75.7652,-134.8054,-79.6425,-171.9220,54.9515,87.3933,63.3061,11.2206,168.3540,-26.2975,76.2127,117.1873,-28.3729,-104.9861,-12.0640
-3718.7500,414.9554,214.9186,6.0379,134.3044,-98.2882,48.2396,-212.9800,-27.9752,-231.0053,-3.6221,63.5022,77.1758,-12.5943,108.8987,-124.0979,-19.9286,-11.9209,-44.8472,-234.2733,-36.1203
-3710.9375,547.9879,207.3652,-9.0737,56.8741,-149.5005,-38.2113,-139.5831,-113.7721,-244.5363,-163.6505,123.1677,26.5921,46.1435,21.9698,-63.3550,-106.5285,85.5186,87.3122,-67.0170,96.3948
-3703.1250,458.3405,224.1135,-20.8885,72.7381,-126.4120,-49.3716,-116.1007,-88.2911,-256.7646,-138.3913,184.1519,15.3170,-1.8199,48.3402,-3.3028,-44.8249,29.2662,-110.9903,-17.4569,-99.7952
-3695.3125,413.8165,214.9708,4.4046,63.7074,-66.2151,-24.4383,-81.8771,11.2782,-194.8827,-113.0259,61.2391,-69.8579,59.3186,-73.2065,-89.1571,-131.0263,-49.8926,-39.8272,8.1810,-38.8789
-3687.5000,247.0149,12.5280,-21.6074,2.3731,-55.3189,24.1787,-16.8275,23.5181,-292.3000,-136.9678,73.0390,-57.3227,33.1607,12.9275,-4.3043,-81.5269,63.6671,-94.8364,156.5178,-101.2424
-3679.6875,176.6411,13.5022,-16.2213,109.4557,-15.0197,140.1979,-31.6728,177.1428,-288.3289,-57.5177,-69.7565,-89.3735,-35.6062,-17.5473,-73.0523,-39.6232,-42.3708,-189.5099,120.2409,-207.2129
-3671.8750,103.6993,-24.1145,-62.4341,71.9476,11.6893,94.6144,27.3031,169.1508,-222.9626,-65.6849,-116.1524,-98.0273,-44.9717,-99.6441,-82.4102,-85.3281,58.9977,-47.0518,187.3611,-69.7642
-3664.0625,54.9309,33.4194,-32.4956,129.5867,40.5550,51.1700,24.4584,126.2916,-229.4549,-71.7197,-86.3792,-104.5298,-89.1902,-31.6015,-52.6163,-17.8877,80.5369,-203.6156,173.6502,-224.1691
-3656.2500,103.2488,47.0168,13.5043,142.2896,122.4833,98.7742,13.7333,136.4704,-182.9041,-24.7086,-150.5503,-204.9871,-42.3640,-131.5337,-116.7918,-45.4081,-12.8735,-117.3036,79.9880,-141.5294
-3648.4375,16.5405,-109.4430,-79.5483,20.9431,101.3725,5.3205,71.2027,81.5767,-128.4125,-116.7738,-22.7604,-150.4978,11.4157,-76.5398,-26.0201,9.0081,76.6877,-72.3870,168.2916,-87.9282
-3640.6250,-3.3500,-24.1085,-60.7999,142.4066,119.0803,62.6737,-6.6046,101.4671,-109.1348,13.9451,-41.1599,-130.2086,-7.0135,-19.7590,-81.4517,29.2216,-50.9460,-167.4254,6.4057,-179.5469
-3632.8125,0.3354,-20.2218,-28.4968,110.4234,77.3606,-15.4165,-26.2602,-12.1013,-2.3137,83.2013,-46.0109,-98.3740,62.1092,-97.4617,-122.3447,-12.0336,22.9692,5.9294,-61.9333,-0.6048
-3625.0000,3.7898,-16.5789,53.5545,80.1827,47.4035,-79.7726,-38.6735,-112.9436,6.2478,56.1801,72.9070,21.2188,32.9767,22.5719,32.5171,33.4547,25.6527,-109.5882,-129.5059,-102.9085
-3617.1875,72.0748,121.8854,156.4127,112.7458,39.2641,-50.3324,-70.1507,-154.9976,109.6006,12.9549,28.6292,-22.3871,99.6355,-20.6114,25.1733,-10.2626,-82.8744,-10.5097,-272.2838,-0.4147
-3609.3750,69.2318,84.1904,73.1105,40.1506,-81.0209,-132.0559,-60.1969,-237.2236,137.8040,4.5699,55.2076,5.8600,126.1488,8.0361,125.6796,53.8699,54.4594,116.8337,-241.1989,136.9519
-3601.5625,23.5570,108.6431,27.9532,99.7041,-127.1496,-30.6382,-97.9793,-134.3128,166.1560,143.3340,-27.0449,-2.7384,43.8021,110.8229,117.3451,156.1577,-97.0567,31.6977,-288.9623,54.4619
-3593.7500,23.3086,38.5091,-53.8012,65.6611,-173.8678,-0.8214,-74.6425,-68.0152,194.9104,99.5050,-34.8974,-82.9400,72.8529,102.9837,72.4045,111.8351,-98.1865,211.1109,-219.3376,229.3889
-3585.9375,-48.8745,-103.5802,-89.5175,-42.3471,-210.5326,-35.9709,-25.2310,-103.6926,196.7140,63.7181,75.3160,-45.0828,36.9475,178.1800,145.5279,223.5681,4.7428,133.6796,-81.6521,156.3798
-3578.1250,-29.1909,-49.8122,-69.3855,11.4994,-154.3330,20.7312,-63.6302,-8.5349,180.3695,195.7833,-13.6175,-61.3717,19.8841,88.2104,18.5025,207.1554,-153.4893,121.9703,-134.1299,139.2179
-3570.3125,-89.4821,-39.0468,-136.2547,-47.6630,-149.1186,-8.5764,-21.5331,-74.4000,113.0273,128.8315,-7.5439,-17.6605,62.8246,60.2094,25.4787,139.7317,-38.7127,203.6637,-19.6085,219.0810
-3562.5000,-145.1538,10.3250,-113.5214,36.7788,-90.2894,51.7094,-28.5767,22.3075,27.2634,116.4540,-21.8481,42.6620,-25.6398,119.7956,11.0640,126.9002,-130.3175,12.7844,-7.4857,21.5417
-3554.6875,-83.2949,-31.7892,-126.2780,-6.2640,-29.9374,75.4960,-3.8791,46.4944,87.9931,141.5578,-107.6459,-42.5200,-0.6018,33.8489,-37.8614,77.5525,-174.4256,113.4485,-14.8687,118.5152
-3546.8750,-151.3183,-135.8176,-194.9418,-108.2118,-27.4720,7.3579,41.5745,52.7468,56.8260,73.7448,-30.3276,-1.5969,-33.4636,113.9746,39.3240,156.3020,-68.4087,41.2708,90.8706,49.6038
-3539.0625,-95.7146,-9.2431,-133.9972,17.4416,34.6110,106.8101,-7.5730,115.5798,45.2583,26.5340,-78.3969,-49.0729,-45.7410,65.6803,-45.8916,108.6563,-153.7971,-35.8426,-29.7907,-35.7119
-3531.2500,-154.2338,-67.8121,-90.1989,-42.0652,75.5567,76.1012,42.0707,-24.7622,14.5424,-76.8378,-35.6094,-78.7030,32.8296,35.1988,-40.2592,77.8486,-3.3296,83.8676,49.4088,79.8480
-3523.4375,-201.0918,-79.7329,-22.7464,17.0706,69.1663,34.0317,15.7052,-66.4791,-26.5284,-82.5817,31.8475,-10.6753,-8.9629,141.3497,27.0295,183.6869,-15.1916,-73.7755,2.2799,-72.9428
-3515.6250,-88.0266,-2.7436,15.6158,25.1113,107.6988,-0.1359,-19.4426,-63.3120,-61.6993,-43.4272,-2.7947,-45.7580,29.1321,33.3685,-7.7937,112.4145,-79.1539,38.5369,-95.9482,39.1708
-3507.8125,-114.2386,-30.0665,-51.3242,-73.1545,76.9425,-101.6215,16.3316,-128.4735,-90.1746,-35.5867,78.2750,35.8598,72.9177,41.0621,110.0900,119.8385,-2.3938,35.1643,-20.4601,46.0038
-3500.0000,-47.9280,72.1089,22.2387,29.0880,111.7028,-29.6086,-16.7951,-56.1511,-54.1569,-35.2594,40.8538,35.9869,72.1868,-32.7568,71.4704,45.7599,-77.1333,-34.2437,-130.4668,-28.6695
-3492.1875,59.5581,74.4320,15.9530,-38.5230,67.6281,-71.4452,14.1837,-133.6964,-21.9904,-149.7969,34.5862,-5.7362,138.6029,-74.4594,101.9955,-70.1809,30.2773,142.6670,-93.3149,148.8302
-3484.3750,159.1042,137.7983,14.7117,-81.0954,-7.3804,-73.2460,-17.8133,-134.2169,-60.7781,-150.2988,143.3843,29.6029,64.0589,-2.1300,137.5779,1.9244,57.7565,-13.9057,-67.0931,0.3844
-3476.5625,205.0205,183.5222,59.8264,-0.3110,-0.0188,-27.6996,-22.8896,-125.4051,21.7877,-104.4458,41.5324,-71.7116,108.8579,-102.4801,35.5020,-62.6245,-38.4180,36.9512,-91.5236,45.2892
-3468.7500,152.2983,25.5875,1.2957,-51.1821,-21.2885,-83.8197,44.4785,-182.2706,0.7055,-198.2592,131.0363,-54.6738,124.0021,-86.5079,87.7814,-45.8332,84.7755,90.3626,64.4076,97.5661
-3460.9375,84.6902,28.7546,8.8703,21.0555,-15.4463,-3.8441,21.4302,-102.0554,8.7180,-44.9884,100.6464,-85.5292,57.2301,-80.4435,58.1669,-2.9398,-18.9246,-10.3044,31.4428,-6.0614
-3453.1250,15.3130,-40.8708,-33.3483,-48.4995,-21.3871,-8.6715,55.8105,-70.6620,75.9304,23.4714,57.4560,-127.1885,50.6467,-158.2050,50.7483,-7.8585,15.5805,132.9016,65.6695,134.5353
-3445.3125,-42.1466,-63.6018,-52.6612,-36.1677,-4.4198,9.3809,75.4784,-52.4039,22.0414,-68.1930,77.1868,-34.9376,-5.0459,-67.0781,106.2436,10.1207,28.0116,5.4659,112.8082,6.0473
-3437.5000,-25.4289,58.8289,-36.8109,-19.6816,84.7210,62.5822,62.1186,0.9800,38.3006,-14.7088,-17.9233,-91.5386,10.3978,-159.8248,11.8832,-10.7527,-131.4077,24.2511,58.0858,21.7126
-3429.6875,-59.9429,-12.9987,-77.2073,-160.4538,115.6292,-51.4819,132.8623,-75.9206,-3.6904,-91.4900,13.7233,-58.3863,78.5867,-164.8517,80.2724,21.1150,-63.0528,87.9006,196.1272,90.1560
-3421.8750,-73.1918,-25.5766,-48.3516,-67.9759,181.8034,-22.3052,91.3982,-46.5920,-83.4409,-25.0461,43.6366,-65.9705,35.0116,-98.6444,72.9215,51.2301,-113.4370,-64.4008,112.4297,-64.1508
-3414.0625,-75.1635,-98.8886,-22.2393,-70.2470,170.2482,-67.8871,91.2026,-55.0336,-19.9425,38.6387,33.8016,-74.3063,97.6766,-144.2179,62.8155,41.5772,-116.5739,71.5634,72.9839,72.8120
-3406.2500,-116.3698,-138.4648,-61.3778,-111.7857,93.4605,-107.7432,86.7507,-94.7606,52.2973,37.0571,104.7339,-3.8896,95.0857,-0.0604,96.4744,149.6720,-16.9334,-14.6921,101.3120,-3.4628
-3398.4375,-44.0152,-32.5022,-21.9467,-75.7741,58.2522,-69.0537,19.8663,-18.9536,128.0828,150.0172,70.2223,-37.9317,60.0315,-34.3750,-11.3208,115.3150,-87.7382,-49.5785,-3.8008,-38.1942
-3390.6250,11.6892,-47.2119,-5.1582,-159.4267,1.4234,-161.0269,67.3216,-110.8167,182.2251,94.3144,125.0620,-56.6337,113.3212,-89.3740,42.2334,59.2979,38.8277,37.4441,86.4614,52.4482
-3382.8125,1.1445,-23.1887,26.3834,-136.3379,-4.6341,-167.2597,35.1405,-42.9466,214.1121,236.3481,119.6639,-24.5847,33.3461,-58.6347,36.5521,128.0315,-78.8408,-119.6239,38.4898,-100.1594
-3375.0000,-34.7872,-59.5590,-18.4668,-136.6416,-13.0734,-136.8934,39.7906,22.5115,280.5985,338.9808,-36.1369,-68.9419,61.9569,-102.3253,-45.5412,83.3588,-150.9070,23.7002,37.1139,38.8493
-3367.1875,-131.2164,-121.4405,-83.8192,-163.4513,-43.0045,-129.0422,81.5931,-6.5563,214.5856,200.0983,8.5762,12.2035,-4.9373,-22.5407,72.8744,91.1773,-38.4471,32.3958,114.2610,46.3759
-3359.3750,-50.8867,-41.5687,-36.4070,-83.5062,-32.1610,-8.4475,15.2010,42.1008,189.3247,248.9518,-125.9497,-12.8974,-31.0974,-11.0298,10.0424,102.7379,-133.2296,10.4859,-17.8336,20.6439
-3351.5625,-76.7390,-102.8992,-71.1833,-144.7690,-104.4881,-43.0663,35.8400,7.5219,190.8665,176.5839,-88.6719,26.8018,-29.4610,-8.7495,12.0133,67.0793,-21.1986,159.3963,59.8749,168.7390
-3343.7500,-61.7347,-122.3932,-86.1044,-129.1937,-118.9502,-20.8516,37.9351,29.7617,177.2504,200.0496,-29.5240,86.3639,-44.9848,13.3748,33.8462,126.2719,-42.3035,-4.7865,109.4479,7.6930
-3335.9375,31.0820,-136.0905,-66.2134,-142.8198,-63.5863,-1.8349,53.6803,47.7851,306.4335,218.3095,-46.5725,-5.2737,10.2803,-114.7229,-21.5289,71.2571,-125.6138,87.9738,59.8201,99.4589
-3328.1250,-20.6466,-225.3564,-86.8724,-232.0089,-84.7548,-21.3862,72.5633,-7.7741,212.0765,125.0053,78.8356,11.5459,61.9875,-61.3892,30.5564,124.6841,-4.4536,102.4943,146.6600,115.7016
-3320.3125,15.6249,-48.6186,-45.5219,-124.1957,-6.9002,20.0579,10.2623,33.6398,144.7199,94.6928,48.2519,54.3743,30.6768,-93.0681,-74.3496,94.1085,-109.2831,1.9534,41.4996,10.9418
-3312.5000,39.2102,-24.5821,-25.8641,-171.0851,47.2752,-34.2089,35.8800,-20.6719,126.6731,3.6695,65.9659,72.5014,121.6574,-221.4772,-54.9570,-34.1798,-50.8001,132.5681,28.6415,139.5082
-3304.6875,17.5024,-47.8565,-45.5003,-123.2869,29.1701,-89.7881,3.3942,-40.3140,72.3271,21.3302,121.3955,202.3294,103.3281,-129.2023,36.1447,57.2292,-74.5912,-5.2920,-30.5015,10.7839
-3296.8750,49.2590,19.3155,21.3280,-56.0398,95.5426,-95.9212,-39.4042,-9.5207,65.4325,125.4371,78.2754,195.5969,132.4355,-246.5041,-8.3058,13.0822,-147.9359,64.1597,-174.1900,77.5155
-3289.0625,126.5199,-45.0331,24.6601,-156.3143,98.4363,-202.5692,10.4607,-152.2523,-3.9598,-53.9665,192.6601,236.3623,135.0342,-243.3315,68.7464,-18.5700,67.2398,102.6859,-64.3536,117.7732
-3281.2500,278.7318,106.5595,152.9487,-75.6452,115.3073,-112.2754,-40.5951,-135.0562,-23.4165,-74.4356,173.0059,181.0819,4.5654,-263.2199,-24.2422,-39.2746,8.3797,-20.4049,-124.5520,-12.0253
-3273.4375,303.8026,95.9981,134.0978,-85.1274,59.0598,-130.1360,-14.6617,-154.0282,67.9739,-18.0704,80.1970,88.6439,-51.0631,-318.2883,-79.3828,-57.1472,67.3776,148.7077,-64.8913,153.0472
-3265.6250,226.9185,53.4689,57.3017,-58.5669,18.8843,-133.9603,-5.1265,-157.9815,65.4096,-22.6724,114.4548,196.2578,-128.6530,-212.3267,-47.4618,-24.9743,129.4500,32.3814,-4.1624,39.1809
-3257.8125,244.7343,105.6386,149.2170,64.6992,74.4332,-79.0844,-35.0301,-102.2518,47.5431,-3.5814,59.4159,178.5721,-221.5596,-303.6821,-174.8421,-115.1073,41.2268,27.4766,-57.7319,21.0167
-3250.0000,201.8028,27.0457,174.3923,-13.7903,62.2510,-89.9672,19.0624,-151.3021,-1.0733,-87.2644,84.6287,204.1390,-270.2265,-315.8096,-149.9674,-164.0093,173.2722,96.1201,74.9650,83.1301
-3242.1875,197.1165,91.6905,175.8258,85.9650,62.3399,-16.6104,-33.0051,-78.1261,-73.4450,-50.7154,48.1028,278.9605,-380.6553,-278.6989,-150.8315,-127.6629,132.5874,-47.6357,-2.0708,-63.5077
-3234.3750,235.1867,165.0773,135.0214,124.4622,58.2114,-20.5142,-34.2186,-118.2199,-76.0527,-53.4228,-64.6776,275.5208,-349.3422,-319.8611,-153.9460,-203.5757,134.6582,96.1627,-35.3534,79.6224
-3226.5625,196.5568,159.7458,95.5265,119.2448,-17.5989,-60.1390,-24.8965,-157.0436,-151.3646,-92.8548,5.8578,310.3824,-388.7357,-211.7371,-83.7480,-96.1967,270.0619,17.2040,64.6871,4.0716
-3218.7500,214.2283,282.7172,114.3488,242.3302,-36.0875,69.5264,-94.0511,-29.5818,-133.3809,-0.9962,-86.2991,219.5487,-407.8436,-230.3227,-174.2453,-78.5261,146.7713,4.6894,-59.9726,-14.1799
-3210.9375,163.0052,160.7770,89.2838,155.5039,-97.4552,8.2816,-59.6568,-54.0424,-121.2866,-62.0473,0.6430,194.8074,-322.8586,-218.8335,-89.6424,-28.7685,234.5984,159.9861,-5.5209,144.6944
-3203.1250,162.2811,194.3228,93.7306,189.1712,-130.3110,10.5213,-99.4791,-15.0227,-153.6944,-22.6053,40.0944,198.5688,-357.3857,-68.8509,-13.5286,47.4905,162.9483,46.0394,-78.5523,38.0700
-3195.3125,177.3117,208.6185,101.9452,132.5847,-85.3953,-16.4903,-88.9988,-5.2659,-71.3441,170.5863,-23.7084,97.0693,-276.1722,-207.1375,-77.6672,-16.5083,71.0479,163.7555,-99.8364,157.2107
-3187.5000,77.4329,37.9927,74.2633,68.0769,-40.3610,-81.4179,-0.0908,-107.4323,-61.8887,105.8630,20.5967,69.6672,-230.8670,-162.3382,3.3083,27.5858,182.2741,98.5184,45.0041,92.4750
-3179.6875,73.8002,68.6054,184.8463,133.8187,105.9453,-46.0998,9.5215,-72.3640,-63.1859,-41.6134,-15.8441,-3.4916,-195.3239,-162.2945,-33.4635,-46.0732,106.7574,-1.9605,-29.8967,-18.0142
-3171.8750,59.1719,-50.7962,201.4405,48.5541,233.2737,-101.7857,98.7036,-128.3106,-81.4856,-244.1122,0.7149,-22.6652,-68.7847,-219.2755,-17.2324,-175.7429,233.2563,96.8056,60.2162,72.5240
-3164.0625,-33.1644,-74.9091,223.3424,61.5747,291.9202,-44.1830,121.0593,-107.9751,-171.4954,-187.3369,59.5854,35.4580,-122.9527,-162.9608,4.3133,-192.1152,174.0776,-99.5077,141.6535,-126.6334
-3156.2500,-48.4066,-55.9233,203.3546,9.6943,345.6910,9.5226,132.1802,-17.5467,-117.4049,-96.4576,-33.4535,-94.3275,-70.0289,-218.5628,-52.0427,-210.3990,51.9943,-43.1662,125.1920,-72.6841
-3148.4375,-124.6601,-202.9583,122.3678,-102.2029,263.4808,1.2181,166.4588,10.8620,-125.3195,-213.5912,32.5119,-65.1193,-42.1067,-118.1787,86.6133,-145.6922,116.9348,-19.3317,188.7567,-43.7140
-3140.6250,-125.3710,-63.4525,122.9413,2.4447,263.8451,74.4634,41.9848,120.8072,-197.6876,-141.1933,32.0334,9.6338,-116.6414,-7.2521,12.8300,-109.4386,-25.5650,-58.1617,-24.1164,-80.2026
-3132.8125,-87.4853,8.6413,40.1248,-31.3082,181.8371,-6.6955,32.9966,2.3312,-132.4476,-38.2065,-11.8553,1.9775,-125.5793,-15.7484,4.6491,-80.6005,10.5456,143.3260,-22.3838,131.9307
-3125.0000,-209.2653,-44.9350,-8.3316,22.2766,132.1952,-20.5200,28.5863,-11.8233,-107.8533,-14.8844,-25.3810,25.6773,-175.1775,117.1026,28.8287,16.5803,99.0348,19.2537,-5.2811,9.4204
-3117.1875,-179.5514,-16.0102,94.7291,86.3630,124.0798,45.1546,-1.1432,16.5046,-42.7592,50.9339,-142.4102,17.8742,-184.2827,35.4426,-53.4937,-28.7511,58.0253,55.3103,-82.6780,38.4114
-3109.3750,-144.1397,-86.3948,129.4947,15.1367,85.6786,-30.4878,65.6013,-95.4926,-7.9661,-134.5673,1.2638,89.7676,-150.6913,69.4718,54.8892,-140.3913,268.7400,88.2620,21.6410,73.1303
-3101.5625,-9.6433,12.3061,201.3687,113.9998,46.3951,3.9607,-11.4429,-99.4075,-9.0780,-172.9806,37.0448,198.7572,-190.0107,140.6063,16.3850,-142.9249,226.5699,-27.7619,-90.9219,-39.0542
-3093.7500,75.3953,27.5356,133.8085,93.3994,-19.3137,-26.0464,-19.7043,-128.7818,34.3704,-129.8442,-29.6334,168.2846,-147.7832,72.2771,22.4318,-99.9173,240.9544,157.2334,-110.9268,151.3308
-3085.9375,11.2708,-37.4075,69.1015,63.6303,-84.1607,-54.2215,-5.9668,-158.3277,5.6704,-158.8706,51.5474,177.6640,-140.7091,190.7991,104.3484,17.9420,282.2144,85.3811,-36.0679,86.5801
-3078.1250,83.2984,67.7996,105.5564,100.0117,-47.8449,53.7521,-53.0344,-48.7320,-29.8806,-195.7465,14.8768,103.1811,-105.4947,153.4668,29.4206,-92.0530,107.6210,127.5899,-140.0591,122.9835
-3070.3125,75.3641,59.0360,56.0659,-13.5774,-62.4667,3.7632,-13.3342,-137.0976,-44.3744,-320.5792,75.2547,126.7319,-47.2236,175.1729,53.5527,-143.0021,204.0900,220.3553,-43.9806,219.4642
-3062.5000,43.8144,97.6598,66.9815,-45.7792,22.3294,51.1678,1.9976,-89.0759,40.5292,-199.0243,49.0444,101.6717,-109.5551,186.2859,64.1007,-131.5530,66.9717,44.6243,-76.4893,47.3432
-3054.6875,20.1080,-32.8623,71.7620,-140.1308,63.9982,56.4211,57.9392,-48.2193,156.2890,-83.6267,18.6776,-39.5524,-32.0336,44.2302,32.5003,-200.2701,-28.2934,163.3327,-31.1520,163.0869
-3046.8750,-87.7114,-176.5085,0.4510,-248.5992,66.5790,-16.4451,147.5553,-47.4837,157.9566,-45.3424,56.2132,-73.8780,4.3890,82.0694,107.8145,-125.0980,3.3717,51.6514,176.1121,54.7464
-3039.0625,-44.7442,-64.3714,-23.0469,-170.2698,115.9802,33.4900,134.2991,1.0440,208.4294,-33.2586,-4.4558,-135.4078,16.6024,-16.2988,9.9292,-150.1320,-164.1551,-43.8012,149.1884,-42.8005
-3031.2500,-94.5936,-115.0538,-80.3317,-221.7489,131.6052,-25.3855,185.5949,-57.2437,187.1071,-126.9869,11.0663,-155.7540,31.0187,-74.4820,25.2440,-207.9797,-4.4656,50.4504,238.4853,46.8728
-3023.4375,-203.2196,-118.5079,-39.3586,-119.9850,173.4989,52.9855,190.7066,-17.2933,119.0311,-123.4820,15.8438,-114.8601,-39.3164,2.5850,29.8197,-167.5804,-42.5010,-121.6483,270.0583,-132.2120
-3015.6250,-183.9552,-206.0700,-23.4713,-67.3178,189.3172,67.2633,207.6314,34.5557,170.8535,-109.0797,-79.4867,-136.0857,-61.7540,-56.4606,8.2969,-188.2974,-94.6384,-26.0310,252.5339,-43.3951
-3007.8125,-214.0567,-306.9995,-90.9270,-168.0182,158.7990,-36.8205,251.0833,-33.9570,177.3215,-103.0445,-36.1630,-19.6727,-56.5350,22.1367,87.4381,-147.3719,-19.1008,-66.3444,362.6821,-73.9144
-3000.0000,-191.9700,-109.7311,-27.1660,-110.5207,185.4920,26.2980,168.0225,-8.2707,203.9789,-39.8088,-46.6370,-30.0656,-68.1224,11.9368,40.7840,-120.2440,-208.3671,-155.2181,174.0352,-157.2453
-2992.1875,-173.1978,-92.7740,-15.7004,-163.3314,159.8993,-73.8851,189.7580,-107.8891,178.3409,-174.8723,1.5714,-91.7684,52.9919,-51.5712,51.8303,-109.4331,-84.9257,2.2944,226.1016,1.1428
-2984.3750,-172.2106,-162.5910,-7.9884,-126.9051,130.5663,-65.8276,142.0237,-101.2658,112.9614,-131.6967,83.0270,-84.2240,22.3580,66.1781,59.1463,7.6299,-13.2166,-139.2173,192.4450,-138.2201
-2976.5625,-80.9441,-176.1173,46.0306,-36.1812,111.5501,-12.4683,97.6669,-48.3390,129.8937,-4.2168,-84.2327,-140.3948,-34.9739,9.2272,-34.2341,-12.0092,-27.2167,-39.4198,107.0890,-47.2808
-2968.7500,-74.9467,-172.9158,-26.2040,-101.7300,2.2893,-85.3713,84.6511,-84.6687,94.5774,-112.9967,-9.7450,-65.8223,-35.5484,119.0316,77.1482,62.1050,82.5479,25.1117,110.5040,27.4308
-2960.9375,-59.6171,-52.3660,-6.0859,-15.9350,-88.6133,-29.9297,-9.1025,7.3490,76.6039,-21.4292,-63.9035,-46.8994,-90.7774,175.1991,95.8925,154.5719,-6.3325,-32.9985,-48.7268,-26.5132
-2953.1250,-23.5429,-87.0739,-13.2032,-86.3984,-132.7543,-74.7470,5.2761,-0.8932,105.3889,79.8864,-71.3156,-127.2456,-25.2485,92.1149,87.3873,108.7803,28.5432,141.8602,-13.2099,149.3143
-2945.3125,-107.3385,-100.6458,-23.1666,-65.7346,-104.7366,-48.4334,10.0535,-12.0050,23.3220,34.3436,29.4315,-99.4443,-73.5636,193.1965,152.0495,173.1432,15.5863,21.6487,7.4740,30.2991
-2937.5000,-30.9999,-27.0625,17.0285,-25.9246,-28.5519,28.0312,-23.4702,27.0305,-10.5998,73.9517,-40.6807,-206.5023,-34.7251,85.4338,81.8685,139.6505,-84.2249,67.5523,-92.6935,70.4339
