Time,Fp1,Fp2,F3,F4,C3,C4,P3,P4,O1,O2,F7,F8,T7,T8,P7,P8,Fz,Cz,Pz,ref
-4000.0000,622.5496,619.1470,54.5722,80.0010,-433.2358,-101.6115,-105.8346,-101.4789,-118.3649,-108.0398,33.4403,161.6439,-91.8804,-20.5670,-50.5118,-51.0834,42.1986,-82.7623,-147.2316,-132.2342
-3992.1875,679.0938,430.2921,109.7072,-12.9356,-349.3165,-200.6248,-16.9130,-269.0059,-65.1940,-238.1323,235.7630,59.5121,72.8507,-39.7246,77.0753,-180.8741,89.3536,-107.1486,-67.8559,-263.7460
-3984.3750,604.4529,567.2460,125.6456,-25.0837,-305.6013,-138.5667,-3.1767,-107.7285,-51.2182,-186.3956,67.8910,142.9137,13.3953,48.9225,19.4719,-55.8577,-170.7291,-156.7558,-118.6904,-103.4719
-3976.5625,287.4857,462.8962,-32.7397,-68.5392,-361.2151,-103.4831,-126.7677,-156.7270,9.4633,-161.9251,130.7045,104.2343,74.6497,74.2898,44.5777,-68.1184,65.8809,43.3470,-60.8295,-80.4840
-3968.7500,259.2608,223.2929,40.6108,-71.2597,-186.0917,-140.0016,55.3932,-121.9916,80.9065,-16.6881,131.2824,13.6027,109.6823,0.4137,80.4641,-68.6389,-183.7591,-31.8079,-67.2151,-156.7684
-3960.9375,-116.6726,23.9928,-113.7445,3.3174,-237.6702,66.8419,-101.1425,127.0674,35.6550,122.8861,-59.8558,19.7311,101.0130,66.8372,-0.3492,107.1511,-181.1379,145.3354,-32.3094,54.2570
-3953.1250,-293.0388,-116.7139,-154.5277,-76.5151,-139.6662,-33.9523,39.9036,-62.2713,103.0106,8.0759,83.6143,-67.3800,243.9627,26.8691,179.4507,29.5373,20.1007,63.1003,96.2003,-99.1171
-3945.3125,-287.4631,-215.4827,-17.3597,-79.4102,26.2986,-2.4918,174.9150,36.3404,128.3296,70.2412,-35.9593,-65.9616,158.8882,52.8496,132.2157,91.8795,-194.7480,-83.1915,89.6545,35.4424
-3937.5000,-574.0788,-361.4170,-146.3691,-92.4648,-37.9022,97.1611,5.7520,52.8401,107.5033,50.3003,18.2982,-76.5814,174.6765,143.7043,185.8364,35.1000,37.2267,147.3753,142.9576,123.8695
-3929.6875,-516.0252,-337.6674,-53.7024,-78.8384,83.5955,15.9262,97.2841,-2.9602,125.3937,142.0803,38.2639,-87.4791,193.1898,90.2678,205.1821,17.0179,-160.0971,89.6458,47.9699,-6.0199
-3921.8750,-718.6945,-363.6337,-136.7415,27.0832,-8.5990,211.8206,-24.8777,242.5617,2.5964,241.2034,-192.4872,2.0892,71.0079,226.1349,120.8399,226.2553,-231.1647,157.2124,9.2731,201.3967
-3914.0625,-812.0141,-491.2250,-166.4084,-4.6066,27.5986,167.9345,16.3412,28.4959,-28.7908,27.7404,-0.8386,-30.6045,188.2437,270.4221,164.9110,49.8980,87.1771,158.2029,149.9764,96.2252
-3906.2500,-680.8570,-571.3367,-3.5782,12.1921,218.3115,149.5425,214.0737,79.9284,22.3301,115.8081,-58.6770,-61.4557,129.0030,176.2154,33.4967,65.0361,-143.0086,102.6883,93.1772,109.5368
-3898.4375,-822.9500,-641.6737,-202.9740,37.7842,121.8237,241.6502,13.5937,173.2028,41.2560,136.7344,-72.7414,-85.3489,186.5633,160.8190,16.8777,85.0089,21.5760,265.9852,149.1738,201.6672
-3890.6250,-711.1500,-634.0852,-272.4409,-34.6879,190.2922,94.4237,161.0562,64.4279,154.1423,176.6320,40.1501,-166.1123,262.1029,53.3837,168.2242,50.9327,-50.8821,121.2441,144.1279,55.7412
-3882.8125,-766.5833,-653.7236,-423.1132,-27.3744,179.5853,212.0735,119.3275,280.4693,148.8354,319.3668,-182.1722,-135.1815,110.4643,123.7673,164.3858,194.6731,-149.5845,126.2971,147.8760,270.6210
-3875.0000,-885.8770,-702.2053,-516.6130,-49.8778,152.0835,194.6304,59.7820,149.7285,200.7367,151.3203,-19.2996,-154.9678,164.0454,141.3631,254.7677,26.6276,142.9182,207.5719,297.8308,174.7162
-3867.1875,-760.4592,-680.9808,-317.3672,-37.6461,269.3666,151.5403,258.0090,163.7324,178.4086,204.0426,-39.6668,-147.3906,68.4002,82.7016,159.9236,42.3268,-92.8435,146.5953,271.5419,77.5465
-3859.3750,-952.3521,-697.0506,-384.3859,8.3338,194.4187,280.3095,77.9829,316.5209,72.8484,246.5618,-105.3080,-124.8802,73.5102,89.7988,55.8271,121.8025,23.1105,366.3773,243.0012,155.1521
-3851.5625,-869.2650,-718.1164,-333.3827,-56.6554,310.5408,147.6266,199.9950,181.3656,122.3591,260.1570,-18.8941,-183.3568,123.6974,29.9529,179.7997,24.3343,27.1221,264.2233,280.5252,-54.1910
-3843.7500,-855.7717,-739.7787,-335.9275,17.7881,300.1534,242.4435,158.4792,398.6692,191.3397,440.2423,-241.0343,-149.2061,-27.6433,64.5585,140.2356,168.3283,-179.4583,196.5096,210.4985,87.9165
-3835.9375,-935.4049,-711.5518,-427.5484,-33.8363,200.7347,202.0960,28.9000,305.9500,282.2898,312.3091,-148.2377,-180.8219,100.9832,47.1295,269.6339,40.2873,47.9063,212.7661,261.4363,67.9972
-3828.1250,-750.9450,-667.2274,-242.0325,-103.3290,341.5041,51.0093,212.4864,196.3785,356.4188,423.5546,-110.2840,-222.9765,138.7940,-25.1561,308.2071,40.3815,-198.5880,0.1777,152.5391,30.2184
-3820.3125,-860.5458,-705.9523,-339.5287,-115.8345,237.3111,186.6504,4.0782,355.8405,294.5627,473.8491,-205.3574,-193.2587,41.6130,98.5676,247.7827,201.5005,-141.1223,125.5933,136.6375,225.4624
-3812.5000,-781.1772,-695.6856,-294.0004,-150.3092,274.1986,63.0964,83.7086,105.3611,301.7738,372.2135,-13.3752,-213.1698,122.5036,107.3446,293.4238,98.6768,-0.5898,55.0789,169.8015,47.7626
-3804.6875,-658.7119,-678.3337,-180.3158,-70.6460,344.2888,112.5180,158.5134,218.0407,267.1531,411.7637,-156.2449,-178.8860,14.5625,74.2710,150.2229,249.0148,-202.9383,-42.2913,105.1246,159.2082
-3796.8750,-753.4885,-666.2021,-250.8063,-102.1407,228.2606,119.4060,-23.8421,146.6101,231.3926,304.2031,-43.2825,-194.3674,90.4853,77.0693,188.8754,177.2256,80.5477,63.2098,176.3041,159.5304
-3789.0625,-582.3955,-635.1873,-75.3633,-114.7054,324.2322,14.1282,149.7661,101.1274,222.6088,369.6123,-13.3648,-229.4470,119.3957,-40.1832,218.5046,133.3825,-109.0215,-21.3299,124.4510,2.7954
-3781.2500,-734.7277,-575.5840,-139.2803,-28.6293,214.9088,176.2148,-25.9626,330.3260,120.4969,415.7171,-187.8281,-161.5516,53.9653,-30.7810,80.7856,215.2151,-163.9902,168.7860,102.2508,156.7334
-3773.4375,-773.1581,-473.0508,-218.2283,31.4279,203.6213,138.8457,-32.7028,214.5425,115.4015,264.8422,-44.2978,-127.6070,123.5615,-71.3604,114.0777,-9.9441,-35.9476,261.9281,159.0707,-33.3108
-3765.6250,-579.5027,-419.4444,-65.0223,40.6154,275.5493,133.8176,81.7348,329.9156,82.4808,381.1450,-148.6123,-107.3556,18.3382,-102.7950,9.5388,33.0472,-272.7814,93.2121,95.0567,43.7901
-3757.8125,-651.0871,-489.0691,-151.9804,-38.3650,254.3804,130.7859,-43.9795,241.1730,104.4321,293.3414,-88.0981,-154.1803,76.9768,-78.3807,105.8574,17.9167,-36.7816,153.3624,153.9005,137.7725
-3750.0000,-471.5071,-520.5172,-40.7021,-147.1146,395.5210,-38.5183,138.5667,57.6761,214.6523,294.7965,-13.3205,-223.2294,151.9004,-114.7255,217.4411,-53.9705,-182.5156,6.7743,147.0126,-9.9941
-3742.1875,-557.1492,-463.1943,-109.5682,-98.0219,319.5808,91.0633,-5.0188,245.0515,217.7330,372.1364,-191.7109,-144.1045,44.6853,0.7850,111.8698,97.0121,-275.4347,53.0372,85.9789,176.1098
-3734.3750,-570.8500,-440.9074,-201.4027,-154.8954,293.7413,8.1392,10.4399,42.4980,272.8773,207.5556,9.9368,-176.5779,136.5417,-17.6431,167.3531,-31.9486,19.7086,66.3797,133.0137,82.2875
-3726.5625,-378.9817,-389.0552,-12.5806,-76.1429,403.6334,-15.3548,125.5758,47.5933,240.7023,213.6590,-56.7608,-148.1425,106.0744,-83.4245,100.5037,-26.2631,-218.5185,-66.6315,32.7138,123.1096
-3718.7500,-500.7104,-404.7859,-116.2726,-27.9067,218.0919,101.3518,-126.7815,89.2247,135.0529,146.2944,-49.9826,-103.9847,111.1163,33.3122,70.1540,53.9517,3.7229,48.8649,77.9224,237.4676
-3710.9375,-386.2375,-430.3045,-32.6803,-97.3974,295.9132,-22.8085,28.1663,-47.8488,107.7274,194.2321,34.1077,-149.3374,121.4920,6.3607,117.1248,-9.5337,3.2787,-58.3267,145.4556,25.1369
-3703.1250,-397.2448,-369.3121,13.5131,-10.3030,299.4158,100.4868,36.7402,182.7005,43.0230,240.8112,-175.2200,-75.7983,-14.5172,17.0023,-55.3025,110.6008,-120.6056,-76.9166,54.5965,180.4225
-3695.3125,-418.7742,-354.8250,-13.7231,-38.6228,301.5785,35.7387,6.9057,-30.1116,14.9403,-6.9723,17.0343,-108.4657,104.0925,-46.7481,26.8713,-63.6447,237.1080,-36.8705,129.3571,114.3369
-3687.5000,-245.2008,-354.2408,202.2406,-45.7636,437.0286,-40.9863,147.3003,-72.7258,82.0893,61.4635,12.5032,-110.3885,24.9344,-52.3044,59.2598,-69.6916,-17.9905,-150.6248,48.3424,33.4513
-3679.6875,-356.0762,-360.1044,70.8565,-59.2719,299.2122,67.3863,-20.6430,53.3403,97.9103,115.5815,-80.4004,-74.8911,-31.5632,74.7924,2.2985,19.9347,73.5341,-24.7259,31.9954,158.2569
-3671.8750,-101.4589,-245.4599,119.0573,-92.2010,304.0673,-77.5272,61.0161,-119.9925,108.3515,16.3094,151.2983,-104.9717,14.5702,-23.5026,12.9505,-78.8453,109.6810,-95.2053,31.2742,-53.3215
-3664.0625,72.0253,-70.9520,141.2163,4.8094,246.9609,12.6330,-28.3450,85.6402,-17.2375,187.0233,-10.0668,-7.9019,-109.3316,-0.8519,-220.4468,54.3291,-146.2632,-35.7321,-119.4861,41.0584
-3656.2500,-40.3640,28.7122,-17.3962,27.0651,82.1723,44.0964,-187.4641,74.5625,-102.5596,140.0234,89.7932,27.1373,-83.9720,25.0563,-194.5971,5.7739,51.0331,126.0142,-65.9834,-45.2752
-3648.4375,95.6441,25.7660,123.4826,-19.2023,216.9696,-52.8843,-12.0585,30.9868,-36.3440,170.5372,83.1641,8.7580,-54.0812,19.4572,-164.2224,-0.2872,-172.1720,-62.7427,-44.9525,-164.1015
-3640.6250,-83.5008,-82.3379,30.3102,-28.5349,190.8037,79.2721,-106.6827,194.3928,-20.1491,188.0321,-83.5402,19.3955,-110.2221,109.8031,-182.8973,89.6215,-112.4613,-2.5413,14.0465,35.0635
-3632.8125,-91.7690,-124.5478,58.1141,-113.8867,249.7112,-32.5961,-7.3050,0.8114,7.0679,69.5386,92.7537,-41.9226,-9.3327,65.1478,-81.5640,-66.4729,83.2636,-19.3060,67.0785,-122.7484
-3625.0000,-54.3317,-156.0612,194.7225,-46.4537,306.5216,19.1468,90.9109,137.0396,-3.8838,169.8685,-28.1608,-15.8255,-129.6319,55.2877,-128.4298,34.2376,-201.2375,-129.2662,-9.0705,12.2446
-3617.1875,-201.9189,-197.5901,30.4198,-94.9314,210.5201,59.1520,-73.7665,83.3997,-21.7128,43.3243,65.9997,-28.2739,-36.8289,112.5412,-107.1999,-56.9245,65.3514,32.8898,80.9003,67.3770
-3609.3750,-27.6148,-198.2378,175.1136,-102.4364,350.6157,-49.6659,106.5824,-30.2443,-24.5040,4.7889,138.1731,-59.1020,-1.9980,36.7877,-72.9597,-95.0951,-49.0453,-81.9511,34.9044,-83.4827
-3601.5625,-83.2632,-146.8486,138.9642,-22.8080,271.9619,77.4788,-40.8898,118.2907,-60.1123,6.4451,-8.5311,13.8962,-73.0064,112.1829,-144.5809,15.9048,-40.3293,-38.6433,-27.9193,99.8415
-3593.7500,-40.8894,-138.4298,144.9469,-91.0483,271.5385,-39.6984,36.7919,-135.0015,18.4602,-206.7295,144.9081,-36.2536,42.1545,44.7356,-29.0545,-161.9390,171.5531,-38.1598,76.4423,-6.6523
-3585.9375,23.4848,-144.0335,238.0392,-68.2154,323.3281,-58.5107,128.6170,-78.1905,74.1640,-3.7814,17.4446,-45.5177,24.4345,-9.6275,-81.4155,-68.6842,-121.4814,-156.5733,26.9279,84.9631
-3578.1250,-208.3205,-198.8029,58.0751,-58.4440,175.1615,37.3437,-88.6001,-36.3925,77.8402,38.1451,22.9039,-38.6771,65.6665,68.9612,-76.8268,-26.4553,60.4214,60.9848,68.3805,161.5718
-3570.3125,-78.3508,-172.7876,126.0039,-74.7934,273.9930,-58.3512,50.1019,-80.6975,71.4459,32.9714,90.2659,-67.2644,96.8260,-9.5497,-9.3280,-107.3266,-60.7566,9.4588,50.7597,-66.9077
-3562.5000,-154.7816,-74.1855,67.6482,-17.4532,210.6376,61.6154,-45.4588,154.7197,49.7757,196.5182,-113.6865,8.7396,-70.3046,42.6261,-140.1405,55.5115,-179.2636,30.6290,-34.1389,94.3425
-3554.6875,-186.4876,-102.8612,-1.8676,-52.2754,173.2281,14.4281,-80.1657,48.0061,89.9846,53.9199,0.2016,-44.0166,43.4291,-26.3532,-63.1023,-87.7981,101.1002,64.6764,68.8441,-13.5184
-3546.8750,-12.8954,-104.2527,137.0291,-24.7157,270.3344,-30.7309,94.5658,39.6872,155.6260,120.7328,-81.5130,-45.5825,-38.4165,-70.9505,-107.6488,-21.7105,-154.1386,-48.8771,-10.7432,-22.9721
-3539.0625,-167.2751,-152.6085,37.0743,-44.0140,165.6965,82.6986,-78.5325,124.5561,92.4350,21.7262,-106.1068,-13.8786,-63.1185,87.5997,-95.0648,99.5479,37.7541,35.7390,-32.1592,96.7673
-3531.2500,-53.5776,-213.8795,122.3078,-145.1242,283.3624,-73.2823,77.5867,-85.3714,103.4623,-39.0770,51.5058,-97.1814,20.3963,25.3361,25.7156,37.0006,40.8695,-66.4217,4.6610,-77.2761
-3523.4375,-40.4287,-233.7183,158.1086,-136.6941,315.6962,13.2718,39.2949,98.2677,29.0635,71.6972,-94.3467,-74.2200,-51.5325,62.6098,-45.9644,184.0065,-197.4921,-58.0338,-57.9454,105.2530
-3515.6250,-163.3155,-250.5787,24.9956,-194.1692,214.2210,-11.2157,-57.8930,-35.9620,5.7918,-96.4142,65.8770,-107.1046,108.6438,76.9892,77.4520,88.1263,95.2573,22.4828,21.5722,80.9239
-3507.8125,-57.4164,-178.6618,170.7934,-163.7574,318.7578,-80.5119,122.8551,-74.2985,-32.5439,-61.6226,28.0012,-85.3620,143.7409,39.2513,76.7809,123.1372,-156.0824,-123.0986,-54.9792,4.5026
-3500.0000,-230.6338,-210.8632,13.5982,-94.3457,157.4029,73.2535,-71.3722,62.3961,-78.8558,-32.8100,-91.9058,-34.2403,96.8345,139.5109,67.0984,187.1657,-87.4389,50.3228,-57.5128,177.1238
-3492.1875,-193.1269,-208.3385,18.2482,-98.0966,230.9984,-40.0529,5.2627,-117.0603,-38.2908,-102.1554,60.0438,-79.5408,175.7846,34.6129,182.2646,8.0372,14.0925,11.6139,7.8458,-3.3786
-3484.3750,-171.7632,-184.9854,29.8740,-44.9147,276.6672,50.5493,52.9022,79.4349,-98.7421,21.4589,-111.0620,-28.0908,77.6934,46.6402,11.3706,93.8621,-249.4405,27.8475,-11.8150,118.0868
-3476.5625,-262.2277,-239.4562,-104.2044,-69.4405,173.7372,74.8830,-46.1493,17.2551,-123.8707,-74.6176,-25.8924,-43.3616,126.9071,95.9660,59.7705,32.0024,41.3328,143.4045,67.8490,91.8979
-3468.7500,-72.9046,-225.1465,57.6237,-59.0765,259.8227,-25.3943,115.7302,-40.0324,-35.0782,-58.8026,27.1862,-64.0869,106.0430,39.1771,76.0779,48.0211,-125.9749,-58.1327,5.4503,-40.3817
-3460.9375,-164.9866,-211.2534,-14.8358,-49.0155,219.7258,84.9341,5.3429,107.4045,-70.5593,-19.2685,-119.0556,-31.5616,-2.1249,76.0744,5.0670,159.7466,-81.6045,20.0310,12.7734,143.0809
-3453.1250,-142.7946,-222.0867,12.1000,-101.5710,243.1251,-22.2237,67.3631,-86.7481,-44.6086,-175.3339,55.1033,-99.0949,97.1196,-43.6409,104.4544,2.8644,148.1976,38.6153,100.5384,-15.0203
-3445.3125,-26.2994,-174.6438,125.4582,-23.7399,280.0478,5.2217,143.8299,27.4974,-41.2184,-60.9920,-87.3449,-70.4047,-9.2203,-111.9812,-37.7605,80.3818,-91.6132,-25.4032,0.7334,61.2951
-3437.5000,-125.4790,-132.8774,15.2697,13.5367,129.5280,49.7914,-40.2379,-9.7787,-76.3547,-133.1863,-50.3740,-43.6031,27.8810,-74.8780,-36.5359,43.3634,191.0328,46.0483,36.4059,97.1079
-3429.6875,56.1297,-91.3432,171.9881,16.7032,209.0233,-75.3644,114.6289,-148.1662,-31.5643,-196.5033,31.5081,-71.0674,73.8956,-175.8901,8.6004,-20.7726,52.6104,-92.5932,3.0189,-42.1674
-3421.8750,-34.7101,-75.2787,100.3797,98.5149,98.2954,99.7786,-29.8114,75.1120,-139.0974,-120.1668,-185.9792,13.1515,-32.4465,-63.2677,-98.6287,128.7506,-41.1806,58.4119,-57.6948,143.2426
-3414.0625,-103.8329,-73.4853,31.6161,61.1710,25.5156,27.4856,-64.3955,-67.7501,-98.7594,-187.9830,-35.6223,-25.7164,45.0680,-95.7935,52.9864,-13.8769,166.9071,91.2877,9.4707,-0.4597
-3406.2500,31.7987,-76.9520,130.7253,52.6747,159.7038,-18.3342,107.9126,-4.7718,-35.5465,-87.9526,-82.4083,-52.7608,-2.5573,-179.4904,-31.5463,86.3298,-89.1525,-93.9885,-36.4924,24.6990
-3398.4375,-110.6839,-113.5290,46.8436,12.1795,35.9991,66.0813,-48.7630,21.2327,-44.3153,-243.9133,-18.2250,-50.8883,24.8090,-116.1921,-77.0990,75.5483,186.7868,75.7469,27.5686,123.9087
-3390.6250,53.0670,-89.8799,151.3158,-71.9743,173.7499,-90.7998,126.9338,-169.4195,-14.7023,-286.5411,84.3109,-102.0230,128.5379,-195.5622,-10.3006,-77.8964,137.1171,25.8445,47.0270,-67.5131
-3382.8125,-20.8278,-57.8993,98.2664,25.3183,155.0721,32.9370,73.1273,35.3912,-66.6107,-80.7130,-114.7230,-40.4942,-33.2939,-174.5041,-62.0620,53.1077,-47.1156,123.3904,-66.0381,99.5419
-3375.0000,-111.5976,-42.7906,4.4640,2.8575,95.7490,-13.0052,-21.4140,-95.5324,-88.2456,-136.6499,85.4803,-54.3110,56.1238,-158.2075,-9.5765,-40.6407,175.9300,134.2101,14.1803,4.8883
-3367.1875,52.9947,-17.3470,138.1362,24.8427,226.9959,-65.4534,111.5331,-72.0253,-101.4032,-77.1528,72.1444,-55.5971,42.9983,-208.4842,-59.6440,20.0463,-84.5614,-55.5197,-71.1223,-9.3047
-3359.3750,-109.8994,-73.4026,30.4206,-0.5679,117.9455,38.6537,-68.9016,5.1109,-133.9465,-109.0506,38.3871,-40.8745,82.4544,-95.1743,-92.1397,59.3444,65.5422,94.3619,-96.8033,140.1463
-3351.5625,43.7105,-59.9672,86.3070,-59.3849,170.5985,-111.3372,58.2866,-196.1611,-78.8673,-273.3699,204.2333,-104.1249,249.5080,-186.2844,73.9571,-68.7763,76.2936,-0.1412,-87.8440,-25.7845
-3343.7500,73.3412,6.4567,107.3235,2.8962,152.4743,-12.4609,5.6297,-28.3262,-93.6612,-177.5919,41.1642,-22.1909,122.6553,-92.3223,-14.8614,62.1994,-141.8656,-7.5509,-165.7549,141.4030
-3335.9375,-46.1510,28.7588,-54.6618,-48.8203,25.4517,-12.4605,-83.0161,-117.4701,-145.4339,-228.8187,136.0707,-10.5753,144.7943,2.6376,42.3111,10.1779,121.9984,80.0620,-77.6326,88.6346
-3328.1250,133.5026,32.1962,98.6211,-82.2926,140.7919,-107.9672,68.6265,-112.3777,-102.9238,-75.8121,142.2346,-35.7900,114.1903,-28.1776,49.7406,17.3898,-122.8648,-130.0757,-113.2204,-15.8742
-3320.3125,-7.7458,-37.2866,13.1219,-84.5656,14.4476,9.2599,-91.4925,22.9351,-78.1852,-50.6003,56.5703,-24.0199,101.7692,70.1850,37.3570,150.8116,-90.5336,-63.0097,-116.5824,190.8607
-3312.5000,33.8898,-99.8890,60.6260,-219.8427,98.2032,-126.5690,-7.5922,-186.7547,6.5742,-221.4145,213.9059,-114.7942,297.3499,6.5374,121.9724,-21.7800,54.8445,-92.9217,-7.9074,54.6243
-3304.6875,76.9454,-57.1011,59.6665,-109.6146,133.5751,-34.2937,64.8525,-39.9458,-66.1443,-37.7383,66.7355,-34.6506,223.4263,44.3658,-208.9269,125.1167,-222.2807,-54.3365,-108.7092,163.9066
-3296.8750,-83.0124,-5.3233,-107.1899,-24.2787,-36.8559,45.4756,-175.5919,-24.0139,-123.7438,-57.9673,118.6450,13.4030,202.5873,95.2827,-229.7477,141.1143,2.7196,99.3632,-95.3743,142.3358
-3289.0625,128.2901,30.6881,8.3282,-25.5991,41.1767,-87.6253,12.3609,-165.7502,-44.9652,-88.8817,123.9213,-11.0170,61.1035,27.5162,106.7770,73.4289,-138.8890,-77.5878,-132.6415,0.1247
-3281.2500,54.1567,-6.7597,-78.4776,4.7343,-47.0267,40.3432,-74.9913,4.1773,16.4846,-65.1422,-73.1729,20.7033,-98.7515,87.3794,128.9289,132.3964,-143.8595,23.1128,-103.2308,169.5976
-3273.4375,-24.2453,-49.4622,-82.4421,-111.0784,-14.2983,-55.6000,-5.4874,-110.0355,86.8052,-140.5610,70.5743,-57.6763,81.2296,10.0833,162.9235,-17.7911,-12.9400,47.6942,27.0686,18.9465
-3265.6250,27.2708,-103.2663,1.6186,-96.8851,68.5405,-27.3131,78.0639,46.7524,97.1567,17.0103,-65.6881,-58.7545,91.2027,20.7615,26.9135,140.0070,-281.0153,-114.7289,-30.6028,102.3006
-3257.8125,-125.6585,-184.5318,-124.6587,-144.0352,-23.8747,46.3187,-49.7124,30.2122,44.1830,-72.7729,-10.3234,-54.3891,110.8079,149.0776,46.5277,121.4622,23.5722,12.5045,27.4013,194.3504
-3250.0000,15.1294,-183.1116,-6.1187,-179.3932,94.6100,-73.2756,179.3427,-109.5477,89.0352,-136.7832,71.8586,-93.7278,119.2192,48.1712,91.9365,-53.3056,22.0102,-23.4595,60.2453,-17.7839
-3242.1875,-42.2973,-99.9415,-36.6987,-28.8961,26.0521,74.8378,74.2876,117.5464,21.7559,16.0412,-106.1178,-13.3131,-57.5362,17.0968,-122.8131,62.7776,-71.7088,127.4191,-35.0452,97.9636
-3234.3750,-68.7218,-20.7754,-94.1736,14.7012,-69.3210,43.8892,-19.6568,22.7425,2.5927,-41.0637,20.0035,3.8506,-5.2065,-3.8895,-143.4572,-31.0440,111.7159,170.4112,42.7964,-70.1510
-3226.5625,65.4332,43.9417,8.0273,41.9454,-3.9361,28.2908,82.0993,88.5718,-4.8920,25.4638,-99.2221,43.2332,-50.2293,24.7440,-151.4521,70.7648,-178.1948,21.0403,-35.6726,-78.6042
-3218.7500,-96.5980,23.4551,-166.8579,20.0916,-70.5644,113.9526,-58.2216,132.3266,-34.4568,-76.1111,-127.5757,68.6976,-42.3710,142.2624,-69.5716,78.4809,45.7992,103.5800,-24.2085,38.8922
-3210.9375,38.5844,-17.8322,-20.4376,-56.4656,76.1920,-71.0031,126.7834,-124.6287,3.2970,-150.4208,55.3810,-26.4027,104.7792,-4.9350,39.6031,-68.5238,75.1446,-43.5644,40.6017,-108.2934
-3203.1250,85.8036,-39.1082,55.1147,-43.9114,114.1503,2.4935,90.9290,23.5203,6.1644,-36.6433,-89.5759,-13.5410,-2.9877,-3.0565,-141.1404,79.5691,-53.4182,-102.6121,15.5349,113.6416
-3195.3125,57.3269,-102.0797,-8.9301,-143.9465,49.5876,-39.0854,26.4858,-112.9169,52.4469,-174.4850,65.8520,-81.4470,41.6301,-31.7925,-58.4962,-57.9422,268.4579,43.7581,126.9008,49.0146
-3187.5000,181.7345,-49.1998,88.9981,-56.0327,110.0725,-65.7197,161.0392,-53.4246,76.7021,69.5929,-20.7573,-58.5700,-81.7979,-119.6117,-109.9020,-108.5270,-30.6921,60.0731,74.2561,-74.6554
-3179.6875,12.7201,-5.7640,-92.4071,21.5409,-34.7066,58.1585,-21.7289,131.7410,116.6196,146.3066,-128.7407,-11.4658,-115.6011,-79.7890,-143.6833,-33.4563,46.8086,137.0468,45.2849,37.3680
-3171.8750,116.4221,-42.6232,21.9915,-51.0850,79.3894,-120.2316,166.3180,-158.3022,194.3551,-107.2149,58.0854,-106.1042,71.3881,-223.1759,43.3318,-176.6012,185.1603,-6.1653,78.1496,-105.7863
-3164.0625,130.3244,-28.3192,65.6776,32.5425,122.8315,-11.7710,135.6642,-5.1018,128.3573,-26.4996,-118.8409,-29.3764,-32.3890,-144.3384,-59.4111,-95.5010,-48.2400,41.8558,-15.7159,47.3268
-3156.2500,-104.1013,-15.3512,-103.8809,78.9344,-82.9109,70.1388,-70.2352,-27.1399,33.1200,-49.0533,-69.0288,32.3199,-18.4383,16.2299,-46.4098,-82.6531,245.1442,193.6468,31.1911,-11.7675
-3148.4375,82.9676,-39.9112,99.1314,90.8823,44.9802,-16.5909,131.4509,-82.6552,14.4509,-67.0954,-14.6504,11.5410,-36.9401,-39.6823,-64.8479,-64.2887,116.1159,-42.0124,42.6802,-141.3079
-3140.6250,13.3788,-73.1480,54.5665,91.2470,-35.6488,93.1346,13.5663,56.2466,7.1858,-1.7471,-94.8920,26.1731,-81.0697,-12.2113,-218.9119,-72.5208,187.4836,98.7314,77.5893,34.5844
-3132.8125,18.6087,-68.5702,32.9064,61.5151,15.6866,-3.4952,65.5969,-76.9561,59.8333,-23.5304,28.7673,-29.1909,5.6937,-144.8513,-206.0847,-278.8633,297.8042,174.3867,188.4339,-171.6011
-3125.0000,61.3466,9.4705,110.8292,174.3370,93.6583,59.0053,143.2240,74.3833,27.0477,91.2091,-152.0211,45.2305,-174.0031,-141.9670,-274.7115,-91.6694,23.6797,75.5777,89.8568,-94.2254
-3117.1875,-77.9313,-23.5166,0.8105,141.2173,-16.2557,94.7020,-4.0884,36.7912,-8.6806,-56.0259,-41.7736,40.1259,-137.6727,-69.0433,-201.3045,-92.4283,307.6290,111.8345,161.3578,-57.7550
-3109.3750,85.4890,-71.8361,176.5569,92.8420,86.6534,-40.7960,208.3815,-118.0725,57.3548,-63.5524,97.2480,-12.2814,-72.5965,-114.3926,-174.1412,-137.4644,154.3721,-43.1529,112.6492,-176.5298
-3101.5625,33.7074,-86.3772,113.1809,112.3318,23.4928,75.6164,33.7344,37.9243,-6.7495,-17.2382,-4.8934,20.1204,-99.6970,-31.9136,-200.1514,-18.6493,102.9588,10.7100,61.8101,53.5702
-3093.7500,40.5469,-80.2904,50.5066,83.5308,-1.9152,-27.7395,8.7904,-171.3708,42.8572,-189.2478,153.6614,-47.1072,-53.1074,-167.7470,177.5319,-301.1472,286.2882,87.2930,138.7026,-45.6078
-3085.9375,95.6538,81.0298,36.1581,175.0357,-15.9483,8.5231,30.1924,33.6198,28.7754,89.0123,-45.4783,16.2339,-177.2264,-220.3068,88.5180,-169.3647,-116.0728,108.1629,17.9153,-60.4827
-3078.1250,-105.1960,160.3814,-174.0780,184.6576,-152.8291,125.1833,-144.2961,153.7257,-72.2087,98.3557,-36.5332,103.2469,-132.2711,-28.7789,-158.4059,23.5199,-0.3170,222.1494,27.2477,-51.2176
-3070.3125,64.8523,120.6154,11.6451,74.2387,33.2986,-52.9888,42.1864,-66.2372,-33.2373,-10.3899,148.3826,34.0070,52.6327,-65.3196,-158.3849,-49.6696,-75.5654,6.0945,22.5599,-196.9969
-3062.5000,37.7659,59.6845,9.2966,83.7340,-4.6010,57.7100,-34.3943,151.7043,-34.3568,60.7527,-1.8072,27.8995,-59.5800,-66.9864,-123.4763,95.0365,-205.9192,13.9233,-39.2126,58.1448
-3054.6875,-23.2839,32.7858,-123.9485,58.3351,-101.3547,32.7187,-94.8754,17.7489,-21.3734,-37.0334,121.1038,15.1259,25.2932,-19.5530,-38.4695,-77.1631,84.8687,58.8644,41.1401,-2.5787
-3046.8750,184.8877,65.0785,21.0804,91.1848,-28.7938,-4.3206,50.9287,15.0207,-60.1323,34.3952,45.2832,46.4096,-51.5883,14.1168,-77.2089,30.8674,-128.0779,-153.9546,-31.2363,-5.0476
-3039.0625,102.5148,53.8112,-69.3833,79.5486,-118.6823,64.6992,-113.7523,-3.1885,-113.3928,-129.6886,26.9456,65.7938,-105.9944,105.2807,15.5280,122.4049,107.4804,-96.2606,-8.0952,124.0222
-3031.2500,262.4382,107.8251,69.5042,29.2659,-16.1745,-83.4051,24.9365,-195.0615,-84.2959,-285.4602,202.9701,12.5103,-41.0575,-50.2204,116.6203,-106.7298,92.4383,-77.2030,-23.5679,-67.5489
-3023.4375,177.4343,233.8782,-24.4779,121.0929,-109.5040,68.9576,-104.2369,115.1697,-140.0932,97.8565,-74.9095,121.6101,-172.0363,38.3587,-161.1941,93.2279,-237.5110,83.9451,-142.9245,58.9915
-3015.6250,7.0759,310.5727,-231.7609,128.6307,-279.1002,117.2246,-276.7083,126.1130,-92.1935,145.8501,-28.0970,189.7222,-124.3309,196.6337,-223.3192,-43.1181,15.2734,195.8142,-30.5610,-39.7340
-3007.8125,302.0889,358.6165,-30.6295,141.5779,-114.2452,9.1802,-38.7507,33.4338,-35.8854,-19.7908,26.1353,182.7977,-144.2328,103.2864,-206.0386,-173.0867,-111.5136,-37.9192,-52.7720,-132.0641
-3000.0000,373.3722,429.9160,-69.1847,179.8429,-189.0494,58.1009,-186.4728,67.0663,-111.2739,-132.1470,23.6523,162.2124,-256.8656,-47.7720,-281.4680,45.2528,-3.0050,104.6419,-85.6717,-24.0650
-2992.1875,632.5633,654.1049,-6.7870,123.0614,-162.8752,-147.8546,-126.2397,-166.3610,-86.7041,-145.5903,195.1329,120.4442,-159.5505,-244.8893,-367.9440,-41.4750,81.5015,12.1633,-71.5915,-257.1010
-2984.3750,889.9916,946.4907,75.8891,170.5320,-153.3947,-110.7805,-153.7219,-10.5456,-150.8779,-63.8022,-18.1316,275.0385,-334.9959,-126.7740,-507.1750,-106.9595,-117.7441,-152.0752,-130.2446,-174.8815
-2976.5625,994.6202,1122.0695,5.8166,135.2598,-258.6323,-137.2259,-260.9502,-118.4596,-257.8067,-318.7816,94.8443,312.1150,-369.2127,-125.4093,-357.1638,-362.1918,305.2852,-118.0420,10.3705,-245.3791
-2968.7500,1437.5702,1281.9521,255.1068,121.3433,-44.4783,-310.5236,26.1938,-274.0492,-265.3756,-401.4478,197.1880,288.4976,-158.0810,-354.7179,-880.7907,-482.0950,220.7026,-308.6572,-3.6374,-400.5328
-2960.9375,1490.3950,1299.6917,230.3138,210.3415,-106.3840,-175.1824,-73.7355,-116.7251,-254.0461,-316.2264,60.4233,361.1631,-148.0652,-272.1410,-1349.5277,-360.0948,240.0108,-255.3800,-90.7355,-205.7654
-2953.1250,1399.9797,1210.1885,183.3195,122.1484,-152.4689,-306.9884,-83.8643,-347.6046,-152.9207,-475.2386,122.4717,288.7877,-417.2551,-209.7683,-220.4648,-446.3084,328.1631,-344.2902,-38.0117,-400.1793
-2945.3125,1426.6578,1271.7505,246.4471,9.0562,-88.4112,-329.8525,-20.8616,-285.3952,-163.6920,-377.1720,-72.3660,321.8412,-648.3539,-74.3106,99.6948,-347.4314,74.4105,-492.1105,-10.1706,-337.4899
-2937.5000,1090.6500,1110.6211,184.9278,-44.6793,-1.9892,-256.7592,28.4878,-311.8147,-188.1212,-474.7635,12.1343,284.7846,-307.1258,-101.4968,-513.8093,-409.1891,408.0228,-336.5663,147.0284,-215.4157
-2929.6875,1009.4171,749.2497,398.2144,51.3898,213.2565,-310.5319,278.6486,-392.4517,-47.7514,-483.5862,40.4574,100.9732,-242.1011,-476.8958,-521.4996,-454.1660,364.4741,-346.2130,138.0476,-259.5459
-2921.8750,500.4254,591.0888,188.7723,142.7213,114.7819,-41.8023,105.0854,-88.8292,36.8631,-253.1701,-315.9773,218.6193,-562.8448,-137.0571,-364.9332,-223.8925,174.1623,-150.6145,87.3187,-28.4117
-2914.0625,85.4944,492.9867,-18.5792,81.1628,19.4166,-26.8780,45.6140,-186.0998,124.5688,-239.6752,-266.3108,268.3537,-586.4979,205.8826,51.7336,-284.5250,288.9824,-141.8899,131.7106,-125.1584
-2906.2500,-46.9492,254.3490,96.5798,90.1103,135.5793,-21.5583,234.6736,-108.8812,239.7780,-89.6999,-373.1340,188.1810,-583.6545,135.3137,128.9025,-134.6696,17.3044,-308.6721,141.6230,-10.4125
-2898.4375,-491.8684,-190.7686,28.2899,69.6216,140.3054,122.4616,164.2891,-31.0899,280.5276,-13.1830,-333.4136,58.5615,-286.2810,101.2933,-198.3929,-58.2537,312.1814,-84.9036,225.0983,213.9131
-2890.6250,-561.8586,-365.9724,144.9516,70.0776,295.9977,61.4234,355.8647,-172.3708,287.2257,-80.7540,-179.7170,6.1496,-22.9485,69.2117,-375.7200,-162.9028,280.0500,-119.1807,226.5432,110.1884
-2882.8125,-769.7460,-469.1067,140.7336,215.6395,254.8165,230.8041,239.5656,6.4493,173.0221,-87.2429,-406.9171,55.5587,-360.5217,137.2272,133.0563,15.5487,180.0003,-80.3714,126.0926,325.5744
-2875.0000,-1034.3174,-663.9247,51.8529,163.5560,203.9849,217.8602,224.6006,-120.3695,267.1567,-176.4010,-238.7693,-19.8817,-229.7519,156.6083,300.1849,-74.6502,444.3253,7.8140,250.0101,273.3347
-2867.1875,-1014.8965,-820.7721,182.9793,79.4688,336.1715,190.4200,429.6589,-26.1988,288.2881,100.4277,-255.6068,-75.2607,11.0208,175.9798,-46.6787,-17.8595,183.6553,-113.0007,234.9445,294.0853
-2859.3750,-1242.8409,-1012.9954,50.7546,30.0407,169.0135,242.2163,187.3706,23.6466,413.0583,39.9174,-315.8064,-194.2817,-196.5723,116.0045,665.0966,142.6027,345.6227,-22.1596,256.5286,455.5108
-2851.5625,-1044.2670,-1061.6910,157.0703,-16.8336,276.4010,61.6975,366.6274,-274.9639,483.3746,-185.0736,-62.4368,-299.5197,-165.6111,-73.4208,918.4348,-46.4019,440.1812,-69.7526,314.6791,267.4876
-2843.7500,-925.3038,-943.0067,241.8068,103.6957,287.2094,219.8886,340.3094,-45.1764,274.0904,-29.6676,-163.6596,-137.0170,-119.2565,82.5466,229.1863,-75.0074,209.1208,50.0443,189.2343,387.8653
-2835.9375,-1099.8876,-870.8475,66.0337,176.7264,113.5111,260.5576,165.4823,-36.8700,244.2949,-21.7703,-45.3851,-90.3759,-75.4111,126.0242,346.4487,-288.1007,423.5722,192.3628,192.2993,285.7676
-2828.1250,-878.2296,-825.4660,231.5125,223.9999,243.0746,143.7656,367.9195,-56.3286,263.7463,-41.6419,-64.8352,-148.3069,-205.3037,-115.2521,694.9775,-307.9572,190.2878,-6.0695,134.6303,156.9104
-2820.3125,-933.9750,-740.5096,94.5931,239.8824,108.2408,298.9688,157.9628,99.8373,126.7869,-69.9079,-129.6942,-21.7674,-307.6064,151.0728,630.1002,-262.2032,206.5847,114.1024,115.5673,313.6706
-2812.5000,-812.9935,-655.8260,120.4111,256.5167,61.1444,202.4899,109.7438,-58.2473,189.5679,-118.4465,6.2166,-30.8005,-208.1475,101.1473,545.9885,-310.7056,329.6652,59.0446,167.2681,119.1841
-2804.6875,-735.3029,-648.4582,197.9421,406.8552,66.7602,248.8016,114.2421,127.3629,230.0460,68.7075,-137.1647,-76.4671,-241.9848,-190.0825,254.5919,23.4969,93.4251,-2.3235,105.6662,233.3918
-2796.8750,-878.7742,-686.2546,88.3105,370.0474,-42.7883,237.3076,3.5743,53.8399,340.3538,29.7035,-28.6979,-123.9675,-133.9810,-229.4447,327.0478,-88.4312,338.0395,101.1699,210.9140,232.4765
-2789.0625,-669.8432,-724.6694,203.0815,334.6337,74.0591,124.7437,192.3130,-16.3008,456.0526,70.0768,49.1989,-143.3653,-129.5655,-188.3994,625.9146,-304.9739,92.0784,-40.9411,139.5711,90.9495
-2781.2500,-733.6024,-787.7982,58.1606,449.5246,-33.7967,281.1673,-25.6398,167.8744,420.0406,180.7579,-96.6109,-88.2953,-202.8547,-41.0475,663.0795,-84.2013,31.3886,3.2429,8.5214,275.7358
-2773.4375,-656.9290,-712.4882,0.6717,350.8638,-89.2249,131.1928,-46.1647,-72.4943,364.4653,85.8799,140.0437,-153.8461,-40.6848,-99.2366,679.7022,41.0231,214.1724,-26.1045,14.9266,71.9829
-2765.6250,-452.8427,-578.7809,106.5887,345.6043,-20.2565,125.4865,58.7281,68.5292,322.2815,226.3951,23.1144,-108.4454,-120.1114,-106.0305,415.7381,181.6437,-70.6540,-137.0587,-60.2632,66.6183
-2757.8125,-624.2145,-609.5242,-34.9598,351.9038,-123.7556,240.1568,-82.8408,146.1249,252.6300,193.4569,26.7266,-60.3293,-80.0006,5.7437,235.3251,0.8250,181.0661,43.5564,87.0938,107.8253
-2750.0000,-421.1906,-617.8788,75.8849,380.6041,-11.8646,131.4905,138.9911,73.1058,291.3656,82.8943,175.7665,-125.6724,-6.4772,-214.0814,236.3302,-145.6043,105.2039,-68.4126,150.8582,-74.5838
-2742.1875,-444.5067,-536.5909,9.3852,358.9537,-112.3251,223.1056,-1.5133,263.7509,224.7400,272.9909,-38.5488,-85.6890,-147.2964,-134.2494,169.9865,228.6275,-92.0446,14.2606,59.2669,79.6614
-2734.3750,-433.9896,-314.4721,-154.2884,230.1505,-274.9638,168.2860,-165.1916,172.2546,97.9548,254.9303,53.9901,-20.3615,-129.2554,67.4501,225.5154,247.7150,25.5700,96.8082,35.5329,-84.2295
-2726.5625,-197.7587,-220.6563,-52.2653,221.0408,-210.9102,122.5628,-63.1575,236.4460,15.8619,318.5652,7.2509,4.1636,-139.5054,56.8540,142.7735,237.4952,-264.1248,-88.9488,-8.4978,-93.4401
-2718.7500,-238.3784,-366.6960,-62.1058,147.0852,-291.7293,159.6071,-182.9830,262.8159,4.9094,196.3643,70.6544,-92.1788,-76.6132,-28.5731,205.1784,226.4477,13.3121,-23.5496,93.6132,43.5162
-2710.9375,-88.2008,-391.9468,69.8419,53.9195,-122.7659,-14.6542,21.9878,25.9748,100.7497,69.9461,238.8843,-165.8684,91.1055,-118.1975,263.4062,63.1946,26.5686,-117.3428,140.5275,-155.7356
-2703.1250,-93.7483,-258.9492,20.0432,118.9939,-98.5589,108.6263,9.2164,233.3885,13.8292,165.7851,4.3677,-50.4841,40.0904,-22.5643,28.9039,159.2023,-188.9612,-52.8926,30.6804,15.2621
-2695.3125,-210.3138,-128.9550,-169.7791,40.0665,-141.3938,48.0514,-71.5901,114.8235,-30.1172,47.6331,106.8513,-87.5100,179.0852,-141.9028,58.4189,114.2259,48.5137,78.5859,91.8302,-28.7248
-2687.5000,9.1769,-85.9116,-46.5607,15.1811,-52.1951,-60.8903,89.6598,54.3023,-16.0326,133.5325,120.4077,-124.3631,81.1516,-239.1784,108.0046,237.2997,-186.9707,-86.8890,32.0313,-88.6824
-2679.6875,-53.3226,-183.8685,-44.3467,-46.7097,-86.0202,21.4149,-55.0983,92.8079,-123.9618,23.4480,121.9613,-133.4701,82.2226,-127.4388,72.5938,385.3993,-2.4843,-9.3753,5.2219,60.3795
-2671.8750,77.2739,-228.7392,101.9477,-124.5209,61.2233,-121.6785,91.2242,-166.5970,-125.7958,-198.5419,304.6404,-201.0246,264.4235,-204.5784,145.3113,236.6031,97.1168,-51.7505,33.5166,-87.4538
-2664.0625,41.1853,-159.3082,59.5420,-53.0455,56.7545,8.2833,48.8584,85.2996,-240.3302,14.7836,77.6183,-111.0854,146.9361,-136.4077,28.3501,267.1158,-183.0237,54.1708,-35.8924,54.0100
-2656.2500,-196.9771,-12.9228,-219.9523,-43.6214,-112.8117,50.5300,-157.5880,135.1761,-263.9295,101.0767,53.5378,-72.3629,123.4042,-125.2557,78.3499,242.6006,1.7746,274.0702,8.6462,-42.5590
-2648.4375,15.7152,94.3206,-100.6161,-76.3539,8.4436,-78.9073,35.8042,106.8986,-218.6931,109.2276,99.3343,-105.1442,131.7408,-264.2446,88.2234,250.9393,-170.5830,64.8278,-58.9692,-180.3031
-2640.6250,-31.0326,12.1237,-82.7349,-50.5349,-46.7769,32.5527,-57.2619,198.2021,-235.9292,89.9562,43.6726,-78.0332,111.6305,-172.6662,-5.3448,267.8593,-108.4298,125.1301,-68.0531,21.5077
-2632.8125,48.6123,126.3277,-64.4729,-110.3361,9.3660,-111.0930,-38.9470,-79.0966,-182.7786,-3.9197,208.4271,-74.5263,202.9449,-156.6684,49.5162,101.1854,42.1365,99.8392,-57.7361,-144.2793
-2625.0000,165.4761,207.7292,-55.0152,-97.9580,19.6988,-83.0475,8.5796,40.8028,-135.4292,189.4087,-2.6097,-14.5990,27.4851,-74.4507,-88.4043,294.7184,-261.1332,6.7364,-115.2189,-60.8757
-2617.1875,67.2186,74.0293,-267.6900,-157.6862,-82.1070,-39.0368,-95.0180,47.6308,-91.1975,84.6570,4.2379,-68.2529,144.9394,-31.2972,-44.4186,264.1813,-5.5245,85.5554,0.1950,-16.5516
-2609.3750,259.4658,54.8327,-168.8886,-281.9323,55.5574,-210.0729,78.8768,-37.0451,-65.4813,146.4086,102.6179,-167.6792,316.9257,-153.6331,55.0948,179.1416,-234.4160,-73.1185,18.1089,-174.7481
-2601.5625,145.5905,81.5048,-257.2353,-358.3356,-33.9555,-81.6172,-48.3872,204.1473,-154.9396,240.0409,-97.1475,-106.5354,336.7746,49.8913,38.4619,308.9796,-415.5029,26.0536,-59.1498,29.9067
-2593.7500,31.9601,37.4395,-369.3568,-540.5035,-71.2615,-165.0755,-86.4334,54.5971,-121.1678,89.9319,84.3418,-160.8175,481.8907,156.6964,220.1026,233.0847,-246.3338,54.4982,4.8336,-82.1872
-2585.9375,139.6010,74.6344,-259.2334,-572.4329,3.6633,-187.7796,61.7737,128.2903,-156.1533,200.0798,11.0945,-159.0485,408.2762,119.7681,110.0266,306.4432,-487.9422,-83.8107,-25.9411,-8.0520
-2578.1250,59.6426,99.2376,-345.7385,-579.9650,-81.0550,-124.9525,-97.6434,115.4154,-279.7498,75.6548,71.2331,-141.6924,468.0735,142.2648,60.3604,219.2363,-179.1852,49.2972,35.6658,89.4965
-2570.3125,290.7374,153.9058,-170.2193,-630.4669,57.2368,-290.3250,76.9684,-114.4158,-288.2995,-43.7077,246.4501,-176.9351,568.9563,59.8290,125.7739,63.0914,-193.3817,-71.5411,-13.6865,-65.9269
-2562.5000,250.7549,78.4870,-144.8062,-598.0807,45.3962,-179.1742,28.4708,19.6741,-299.9556,16.8669,86.5644,-146.6027,445.7563,157.3190,76.1019,270.8745,-266.7372,-74.4859,-86.1624,142.5430
-2554.6875,200.2126,62.5323,-228.9846,-682.2564,-1.0466,-226.5774,-55.6179,-136.7608,-200.1757,-104.0937,149.1337,-182.2470,545.0276,182.2933,139.8983,149.1246,35.3497,52.0468,-30.1934,58.4677
-2546.8750,285.8911,183.7932,-170.9799,-630.2509,57.6869,-252.0982,75.4964,-80.0032,-179.2036,136.1555,-50.0788,-117.0588,492.5310,202.4889,50.9233,170.5745,-263.3892,-2.2257,-119.0364,-30.4324
-2539.0625,83.7261,191.2208,-311.8435,-585.1033,-81.4660,-119.9536,-100.2607,73.9350,-173.0980,141.5916,-80.1512,-59.6020,462.2002,318.8629,20.1027,213.2085,-183.0154,147.6543,-143.7490,49.8264
-2531.2500,294.1103,155.2120,-157.1863,-619.4215,0.8874,-255.0628,-19.4965,-138.5800,-165.4577,39.5930,185.3481,-115.7954,580.4523,253.8128,65.8608,37.4047,-183.0925,113.1015,-142.9243,-125.3825
-2523.4375,362.8717,188.5764,-164.1840,-479.4045,-6.4324,-99.8028,-136.3867,110.2686,-319.4852,214.9777,104.2009,-25.9868,388.0773,318.1363,-88.0205,138.9725,-427.8755,218.8876,-318.7722,50.7457
-2515.6250,304.8232,271.1575,-331.0189,-395.2023,-171.5998,-44.1673,-303.1097,90.3418,-376.3351,157.5799,231.2483,35.8436,367.9249,371.7025,-72.6842,-28.2309,-238.4779,407.8921,-304.4323,-5.9170
-2507.8125,542.4429,332.4042,-189.2261,-367.3786,-66.1499,-112.0409,-162.1891,123.0507,-343.5382,225.8461,225.9667,35.7016,289.4608,292.9383,-113.6532,3.2293,-527.4555,224.5412,-347.4489,-83.9559
-2500.0000,405.9287,265.5180,-301.6067,-326.7216,-213.8871,21.4681,-347.4370,267.6412,-345.8985,260.0000,186.5244,52.0147,286.8578,363.0551,-224.7588,147.5801,-486.6378,335.0391,-341.6362,97.8629
-2492.1875,435.5658,223.8034,-261.8714,-366.9353,-211.5224,-82.5844,-307.5685,86.3796,-307.1187,188.3120,337.2532,8.0011,399.4363,365.3540,-112.6886,77.0915,-350.6698,259.7043,-311.6797,-83.1794
-2484.3750,430.8847,254.7617,-161.4889,-300.5197,-146.5280,-15.7320,-243.0483,223.7704,-316.6938,252.2950,142.6382,68.8205,205.6939,392.3248,-120.9532,177.2687,-565.0996,150.0041,-350.0902,54.4100
-2476.5625,307.8040,166.3375,-252.5398,-316.5199,-236.9807,28.0894,-371.9650,168.7871,-334.6809,49.9118,235.6175,42.8838,298.5771,410.9293,-64.6104,86.0774,-264.9539,274.9192,-224.9201,73.6120
-2468.7500,461.6891,107.8854,-159.6612,-337.5935,-107.5211,-94.9282,-167.9437,78.7469,-240.7279,32.4915,292.5702,-41.3343,428.4500,246.5005,-8.2849,31.8313,-461.8679,147.7962,-176.8087,-53.2641
-2460.9375,308.6885,60.5622,-214.6979,-313.5773,-161.9940,33.4190,-222.8372,280.8361,-222.6909,87.2210,126.6085,-22.4668,299.4330,264.1974,-62.8447,123.7163,-402.7455,171.7796,-81.6261,111.9555
-2453.1250,286.0299,37.6066,-193.4276,-370.2258,-104.1612,-104.6067,-129.4194,44.2928,-128.3165,34.3195,258.0048,-97.5771,357.7954,138.2775,67.9711,-76.0332,-177.2787,150.1302,1.8952,-50.4837
-2445.3125,255.4483,112.7249,-80.1171,-152.8452,-135.3011,15.1070,-123.9494,232.7959,-159.8979,296.4898,42.4612,26.4702,141.2396,179.4280,-110.1427,38.2814,-487.8065,191.5200,-166.5542,-8.8950
-2437.5000,64.8688,273.8682,-276.8445,-97.4774,-405.4912,139.6550,-394.5129,330.3297,-247.4974,319.7011,28.9072,162.2835,90.7033,422.6176,-196.2488,135.6328,-325.3753,318.9289,-146.0280,-22.2986
-2429.6875,282.3449,280.0868,-151.5510,-195.0842,-280.6729,-16.5023,-159.0511,198.9108,-159.0556,187.9898,80.4173,88.7660,143.2578,290.8823,-144.2766,40.0491,-388.9098,115.3955,2.5380,-190.6822
-2421.8750,166.2918,127.7775,-170.8222,-134.2584,-225.4312,114.2867,-141.1497,362.9689,-104.1693,167.7748,-122.6334,84.0243,50.2864,270.6211,-162.8428,56.9491,-399.0585,175.3046,27.5326,10.3760
-2414.0625,33.9305,30.1918,-229.4310,-125.7609,-246.5350,75.2038,-163.5816,194.7391,20.4122,73.2878,3.0208,41.0639,103.0436,250.0923,-73.6895,-74.4323,-73.5157,219.9328,142.2172,-120.8699
-2406.2500,120.4438,11.4792,-102.1998,-73.4390,-155.8105,43.3120,0.8384,249.3521,111.8396,237.6791,-89.4583,25.4849,46.6876,156.4306,-166.6547,17.0474,-337.1619,61.3993,54.7373,-103.2971
-2398.4375,-11.9393,19.8911,-207.8990,-65.0384,-261.0274,117.8697,-177.6753,290.0999,79.3626,242.2184,-121.8528,40.2193,51.4522,197.9048,-160.5089,57.6686,-116.7576,175.9734,28.3323,11.3821
-2390.6250,95.9850,57.6244,-50.3313,-96.3669,-175.9883,-41.2248,-19.9179,45.1449,128.1828,106.0718,-36.9309,6.1349,173.5581,135.7200,-2.0314,-3.3944,-79.0661,3.8549,-2.7869,-160.6622
-2382.8125,63.3399,24.7912,-55.3732,-23.3092,-142.5776,71.3035,-61.7700,187.6063,86.3887,138.3592,-224.6159,66.6687,22.0822,240.9686,-43.1422,175.9777,-181.0353,-63.8746,-70.5386,18.6811
-2375.0000,27.6440,23.9401,-125.5010,-22.3174,-140.2709,22.6180,-94.7156,-28.9610,53.5239,-41.3879,-37.3536,60.6948,99.5868,245.2019,35.7175,-4.6715,99.9270,7.3660,-34.3565,-51.0216
-2367.1875,160.9728,122.1175,90.3554,40.6464,2.0096,-39.7737,47.3345,-34.5415,11.6586,26.8850,-79.0739,60.3061,58.1343,56.4508,-42.3941,-9.3150,-118.1409,-69.3964,-111.1880,-92.7547
-2359.3750,-33.0333,138.9672,-7.1617,94.2406,-94.0939,83.7182,-121.9853,89.5569,-84.5611,40.8551,-102.1625,84.5524,35.3589,33.3764,-137.8512,77.7203,41.3897,124.4967,-93.3893,31.1659
-2351.5625,49.0576,185.9402,124.3833,70.9119,0.8667,-52.1073,8.7687,-109.2416,-63.6874,-121.0495,66.8548,45.7786,93.7197,-92.5699,-6.1832,-84.1340,88.0133,66.5064,-46.5030,-167.8355
-2343.7500,39.3716,246.1481,146.1177,202.7636,23.0072,56.7050,-43.2803,60.1704,-115.6239,-62.7055,-168.9340,138.4019,-30.6953,-33.2885,-57.3022,48.2373,-132.2256,22.7027,-160.4441,-35.6595
-2335.9375,-83.7226,227.9816,18.4108,220.1937,-105.2987,65.1875,-170.7707,-103.7911,-132.9740,-225.7197,-39.1327,144.9513,25.5143,22.6327,0.1956,-5.7574,202.1077,111.5131,-71.8036,-52.8788
-2328.1250,152.9941,254.6604,196.4765,176.4027,37.1553,-41.0886,44.5154,-144.9439,-138.5196,-194.8944,29.4604,125.4923,21.5465,-18.6237,-40.4799,-9.9320,-17.7968,-107.8729,-115.3808,-131.3187
-2320.3125,13.7798,184.4056,116.5650,177.6444,-79.3803,79.0897,-145.1722,-4.0307,-144.0143,-125.9717,-86.9050,140.2027,-21.3490,85.1958,-82.0870,130.9709,54.3104,-36.2022,-112.9295,46.2702
-2312.5000,87.0995,152.6938,128.1303,111.3654,-67.4509,-63.6683,-60.3832,-249.6047,-96.0149,-225.5244,72.2247,82.9202,102.2857,61.5454,76.8244,-40.6097,197.8836,-137.0499,-39.9916,-125.6577
-2304.6875,179.9606,210.5438,219.1764,169.5582,23.9403,-26.9746,30.8864,-120.6820,-113.5171,-132.5602,-57.1431,111.7194,-63.5533,-30.5790,-51.7539,-21.6704,-26.0660,-183.4092,-87.5710,2.8972
-2296.8750,68.3618,204.9432,101.7098,163.2250,-57.2000,1.5924,-86.3610,-199.2639,-120.5222,-249.0729,46.9935,105.7239,-32.8680,-37.1795,-56.8203,-138.2205,285.4600,-13.2743,-22.6690,32.9334
-2289.0625,214.8986,174.4878,260.3261,133.9804,102.7247,-113.0847,109.4670,-296.7356,-72.4379,-272.4474,133.2261,53.5067,53.9331,-134.6528,-43.7833,-162.6647,80.0507,-113.0270,-51.6971,-101.9499
-2281.2500,78.4605,144.0819,146.9186,138.7248,-11.3963,33.4341,-76.7329,-43.1933,-111.3674,-127.7837,-17.5494,96.9213,14.7539,9.9013,-118.7352,18.9203,-21.4008,-72.7750,-46.7587,79.1437
-2273.4375,68.7558,134.4231,69.1841,58.1480,-13.8539,-44.5201,-81.2561,-155.9483,-41.6026,-204.3928,90.3711,53.2055,86.3061,7.1870,-10.9799,-93.7611,144.8136,-81.8365,48.8579,-71.0813
-2265.6250,160.7234,156.4466,163.0765,115.1888,43.3021,-34.4276,12.8588,-61.0510,-21.1814,-73.3215,-36.0590,68.3795,-39.4570,-44.8539,-26.5525,1.2289,-115.3519,-165.2581,-33.8825,-13.6717
-2257.8125,18.9150,120.7003,47.1435,115.3988,-71.3726,56.4811,-138.8484,-64.9505,-24.5447,-223.0107,-4.2848,96.3854,-42.9886,61.3179,-28.9024,-40.5740,130.6464,10.5264,-34.4398,91.9239
-2250.0000,161.3783,157.2434,167.4370,116.8368,10.1701,-56.8580,16.6702,-202.5836,-52.6560,-213.4051,153.7291,93.8837,3.7509,34.7539,-18.9860,-177.1110,25.8532,-92.4243,-67.7735,-82.2506
-2242.1875,74.0560,175.0370,67.9031,169.4678,-87.1268,74.7162,-80.6430,67.9989,-113.5809,56.4485,-55.0713,128.4505,-166.2930,47.4187,-188.8623,56.5787,-96.7778,-39.1756,-119.9266,76.7541
-2234.3750,-49.6530,227.4724,15.9524,151.6758,-139.8529,43.3860,-133.3779,-56.8085,-127.9093,-31.0633,40.7192,139.4333,-70.7231,69.7138,-166.1260,-31.1068,130.1634,13.6634,-68.4967,-11.6599
-2226.5625,76.1575,283.4373,109.4988,136.3632,-46.1091,21.6029,-39.6280,-35.1076,-180.7383,27.9539,-48.9928,185.3810,-48.6293,165.5372,-143.8830,27.7189,-129.4280,-105.9977,-151.5813,9.4056
-2218.7500,-29.7595,212.6917,-5.7127,101.2785,-161.1424,94.5287,-190.6483,-3.1500,-222.3151,-85.7479,-52.4558,162.4083,-51.2601,197.6370,-74.3851,59.8116,79.1931,34.5925,-117.4432,114.6990
-2210.9375,98.4007,165.0332,99.1032,88.2229,-19.1516,-41.8177,23.3659,-191.1395,-153.8466,-200.3644,89.1231,91.2936,-18.8079,46.8057,32.1677,-91.0204,101.8320,-47.7687,-95.2848,-73.9750
-2203.1250,37.4855,140.3126,100.7935,203.0509,-53.2816,79.1686,-10.7423,-4.2261,-114.4742,-49.0499,-91.4059,135.9435,-162.4266,49.8930,-111.3671,59.0723,-64.6638,-37.2421,-155.2517,112.2412
-2195.3125,-81.4034,126.6280,-22.5436,153.8533,-102.4420,52.4823,-132.8712,-88.3127,-52.0928,-96.7153,6.0619,98.3208,-99.0312,39.0152,-47.8892,11.1793,166.8146,20.2698,-64.2276,63.4490
-2187.5000,67.2263,134.4789,135.6070,126.1406,17.8711,-52.2916,61.4864,-149.9041,-5.2105,-11.8735,18.0298,69.5464,-88.1113,-22.3364,-36.9076,23.7914,-72.2250,-147.7117,-126.7206,1.1435
-2179.6875,-67.4228,35.0640,24.4449,96.1083,-93.1348,50.4639,-86.4660,-38.7980,32.3524,-10.3184,-55.3037,59.3634,-123.4650,51.0324,-35.2163,60.1188,38.4126,-34.9845,-50.5280,147.5197
-2171.8750,6.6440,39.3739,35.9608,64.7621,-45.4573,-82.7871,35.2656,-209.9814,153.6017,-35.0257,66.0588,-4.3164,-0.1029,-82.8809,88.1743,-183.8296,111.7225,-66.5471,23.3520,-24.4244
-2164.0625,66.3737,99.3741,54.0980,89.0563,-26.1570,-28.9702,53.6283,-43.4964,136.4960,132.9546,-133.9476,37.2710,-126.0788,-62.1227,-0.7936,-53.1076,-110.3483,-112.4532,-93.1263,105.2575
-2156.2500,-40.2355,99.0703,-55.1375,52.9893,-98.2314,-31.7830,-91.3719,-114.3533,138.0449,24.6239,-23.3180,4.4911,-123.3843,-96.6918,36.8844,-87.7256,204.1985,-7.7127,-23.9761,69.5673
-2148.4375,135.0229,62.6580,133.4570,86.7530,15.5265,-111.0559,96.4637,-183.3461,143.4509,68.1605,19.1539,-16.8082,-154.8215,-164.4016,7.4217,-81.4895,61.5703,-149.1229,-24.9908,-72.2888
-2140.6250,-35.6014,-1.6137,21.1355,161.5968,-94.6375,65.7775,-51.6189,37.7659,68.9592,142.8283,-90.2789,47.1611,-226.1422,-16.9922,-64.9218,28.8530,67.0129,-37.4353,-54.9211,73.9384
-2132.8125,-74.0203,-4.6528,-12.0104,122.6280,-54.6196,-42.2354,25.4909,-140.9148,147.6650,37.7252,23.4744,-0.5363,-74.2483,-84.3575,86.9366,-112.5800,167.6301,-40.5471,11.3322,-105.6482
-2125.0000,-43.3360,61.4420,14.9254,187.7483,8.4860,4.8223,88.6876,-2.4951,174.4658,176.7442,-205.6768,50.7870,-192.2430,-93.5968,4.8857,26.1042,-153.6684,-80.5645,-64.3251,-5.1474
-2117.1875,-208.5230,72.6702,-160.0495,161.9502,-129.3167,81.0047,-86.0255,7.0241,147.3682,76.8875,-196.7300,83.8922,-145.1240,27.2846,14.9354,-1.0994,101.1135,71.5044,17.0988,40.4401
-2109.3750,-31.9272,39.6753,-5.2837,127.8777,-11.3879,-48.8522,106.9951,-92.7144,193.0268,50.8051,-77.0421,23.1558,-61.2377,-73.0633,99.7510,-100.5291,-4.3724,-102.6897,53.2512,-134.2347
-2101.5625,-79.9101,-8.8866,-27.1395,114.1950,-33.0778,23.2993,11.3987,70.9492,209.0909,178.1448,-207.9722,-11.2397,-153.9359,-128.9921,79.9733,63.4591,-18.4842,-45.4834,4.7887,28.4731
-2093.7500,-68.8270,37.6437,-46.9681,89.5509,-16.7414,-75.3957,27.8379,-132.3213,190.2006,-23.4380,-7.8647,-58.3017,-25.5830,-257.8545,135.2377,-102.4907,273.4308,-34.2214,50.3709,-101.7880
-2085.9375,85.8782,51.8183,110.7911,172.5013,68.1783,-48.8988,112.8617,-82.9821,90.9088,26.5923,-106.1592,-9.3686,-123.6238,-244.1102,1.0924,-15.8388,73.9296,-126.3553,-42.4605,-53.4696
-2078.1250,-88.0865,20.3297,35.8427,174.7356,-43.6099,42.8967,-35.8178,-46.3453,16.9194,26.9350,-142.1638,14.5735,-121.3511,-170.0600,-34.7480,-52.8857,321.7090,52.8110,-5.0052,19.1286
-2070.3125,19.9705,22.8771,193.8866,104.9614,114.5863,-122.0238,122.4879,-217.7042,102.9318,77.2996,-21.1869,-36.2110,-73.0628,-231.9935,51.4112,-186.9250,252.4581,-86.0231,-3.5598,-190.2938
-2062.5000,-11.8549,61.5558,151.0108,107.2708,108.8704,-20.8462,79.8897,-37.9565,134.0451,109.7958,-172.1298,32.8854,-185.6725,-88.8088,-26.3360,-6.8391,78.2845,-117.7590,-72.0249,-11.6343
-2054.6875,-37.9560,70.9722,88.8225,10.2635,46.8538,-86.8065,17.9870,-244.4997,146.8580,-133.9863,22.6138,17.3771,-62.5822,-1.9152,97.6085,-104.0452,332.7881,-107.8012,7.1990,-73.2855
-2046.8750,121.1221,90.5769,180.7773,27.3990,139.9803,-124.3464,148.2196,-188.8987,129.8287,-1.6121,-67.4892,1.5392,-115.3343,-90.8661,45.6987,-10.1043,68.4287,-195.6985,-80.4436,-90.7964
-2039.0625,-101.3741,-26.3916,-19.8777,50.9202,12.4936,31.3543,-53.1615,17.0963,114.2077,94.1832,-156.2007,-3.2540,-128.6718,-32.4043,-6.8084,85.2408,161.4496,39.8098,-57.6951,3.0757
-2031.2500,-71.9550,-101.4290,55.3515,9.3250,123.8953,-99.4144,95.3491,-164.0023,189.4957,23.9072,65.9690,-72.1240,-16.0984,-103.0258,70.5837,-21.5057,154.3454,-71.7829,6.9459,-179.1679
-2023.4375,-45.1654,-108.0774,145.9123,0.0720,178.6411,-41.2611,77.2069,-34.7482,171.1319,80.9938,-63.5257,-56.1889,-105.1681,-83.2999,16.3133,108.1059,3.5831,-149.0332,-2.0691,22.9275
-2015.6250,-85.6600,-43.9874,67.1672,-41.4806,100.0816,-61.5841,-38.2419,-183.7958,130.4622,-69.2119,43.6726,-35.7751,1.4600,-11.8700,87.7255,-41.5790,313.5165,-49.5878,61.6098,-18.2919
-2007.8125,113.4057,85.6772,205.9718,15.5152,165.0689,-125.7061,100.8511,-192.2979,86.3458,35.1445,-1.5918,9.4599,-41.3596,-55.8733,43.6748,-84.7172,17.9952,-132.5986,-22.1689,-136.9743
-2000.0000,-58.1638,160.7093,56.1274,123.8496,15.4080,32.3362,-122.6977,27.5415,10.5906,144.8505,-149.5188,93.6326,-114.8279,17.4816,-30.0168,24.4945,20.8200,-22.2769,-88.6011,7.6805
-1992.1875,-20.0037,94.4620,26.9804,55.8732,23.4492,-88.0915,-41.5502,-109.9319,130.5498,45.2508,42.2412,9.7592,4.4037,-46.4558,164.0002,-112.5943,92.3416,-160.2686,-16.3398,-130.9695
-1984.3750,22.7304,66.8016,61.3755,61.4462,21.0336,-36.9523,-6.8573,36.1413,166.0523,119.2120,-105.4635,0.7307,4.1828,-82.8422,126.5498,-3.1289,-148.5941,-188.7071,-45.5399,50.9240
-1976.5625,-114.5632,70.1372,-120.2875,27.9715,-123.4466,-3.3918,-151.2232,2.1638,131.5008,12.1396,-31.2224,-11.8149,118.9107,-79.2753,167.0223,-108.7105,63.4085,24.8096,62.1941,52.7526
-1968.7500,29.4689,109.8071,-37.6542,30.8000,-3.6329,-83.1626,42.6988,-58.5145,180.2530,25.3790,-19.6934,-4.4930,57.9373,-103.4056,142.7790,-133.9899,-110.2991,-42.3789,30.2203,-120.1329
-1960.9375,-102.1729,49.8144,-108.7308,73.9249,-38.5158,54.0308,-66.0820,92.0986,146.3094,66.9258,-162.8795,51.9947,-83.7383,47.7665,72.8194,54.0288,-136.7084,2.7347,3.5396,29.2644
-1953.1250,-76.0907,-29.4468,-113.1068,-42.2468,-5.7001,-72.6979,3.8370,-94.5830,253.0723,-44.8190,53.6136,-36.8988,23.2698,8.6386,144.5411,-95.2486,62.5764,-77.4547,98.5549,-121.6566
-1945.3125,15.9643,-42.7249,-22.5368,-56.4695,48.0635,-60.1021,94.7052,34.6810,307.7902,158.3921,-112.9535,-29.9421,-30.7828,28.4706,16.1883,34.4215,-234.1870,-195.7018,83.5193,-30.6431
-1937.5000,-124.3995,-112.4269,-174.4111,-94.1450,-103.6189,26.7849,-57.8758,104.4912,341.0558,156.1548,-79.9758,-30.0660,2.7036,134.8548,-22.6354,30.6397,-26.4043,-57.4058,188.0304,37.9063
-1929.6875,6.8106,-190.5570,-67.7328,-209.2725,40.2574,-117.6733,160.0871,-8.1442,375.8657,192.4719,-9.4492,-130.1803,38.7363,23.7830,85.0777,-43.5984,-141.0699,-135.5665,178.0858,-112.0077
-1921.8750,-138.8000,-194.5032,-118.8990,-180.2532,-11.7087,12.6209,35.2004,199.3678,324.8215,289.9328,-169.7790,-91.1019,-83.0951,84.8601,71.9209,127.3044,-218.5852,-36.5784,101.2838,57.2135
-1914.0625,-234.4352,-184.4660,-180.1126,-242.2787,-33.7199,-47.6134,12.2690,30.8276,339.7274,122.3367,-45.1731,-103.7447,43.0045,137.8896,161.6896,69.1517,-1.1484,7.3480,109.4254,-75.6254
-1906.2500,-93.9966,-147.3590,-34.2638,-207.2496,74.3261,-61.0009,158.3950,104.3136,301.6889,159.7727,-83.5213,-92.0988,6.1440,63.9725,51.4852,106.0448,-247.6454,-132.6887,73.6173,-40.4145
-1898.4375,-185.1267,-239.8435,-137.0006,-195.8221,7.7852,29.3607,-19.0699,150.1843,310.0488,58.5866,-74.4691,-111.0157,15.6808,73.4476,60.6654,78.3223,-25.7282,20.6732,121.2141,77.1898
-1890.6250,-51.6937,-209.7555,-28.1796,-239.8414,118.8008,-121.2469,129.0216,-32.4022,347.9574,24.9512,-1.8772,-163.7280,90.7491,-34.5279,209.3722,6.1458,-34.2601,-91.4084,148.3559,-106.6653
-1882.8125,-107.2478,-160.6342,-59.3533,-191.8527,123.8243,5.5889,98.1092,195.0119,243.8613,180.3156,-178.2990,-96.3380,-84.1936,9.4842,33.0515,160.9572,-197.7856,-8.4941,90.5009,46.4673
-1875.0000,-167.6839,-114.3866,-191.4271,-182.7496,101.9543,-11.7414,38.3027,100.5205,148.8698,86.7766,-16.6366,-102.8723,-32.0509,-47.4112,11.8080,66.8501,21.7902,108.5179,170.7553,-49.3101
-1867.1875,-0.0500,-87.0650,-52.4442,-157.5870,204.1399,-54.8339,177.5435,131.0796,104.9348,228.2813,-60.9295,-93.7035,-74.8787,-90.2583,-68.4142,60.7799,-234.5752,-6.4201,126.0572,-94.0448
-1859.3750,-181.2796,-91.6076,-213.3551,-94.3083,43.4265,106.2410,-20.1114,302.7297,92.1007,252.8810,-184.1214,-28.1676,-122.6260,44.9787,-79.5792,158.7948,-135.8256,162.7401,83.4513,39.3082
-1851.5625,-158.1173,-102.7596,-145.9001,-107.6648,75.0741,-15.0138,85.5819,114.7220,161.6108,176.8223,-78.9675,-75.1175,-16.0532,-32.4491,62.5716,45.1495,-45.7191,80.2470,105.1865,-149.9987
-1843.7500,-158.2165,-68.1862,-118.7357,-4.3129,65.4300,86.0692,75.9746,290.4026,116.8229,280.4465,-271.1173,1.4809,-132.8070,34.8153,-17.5925,185.1896,-223.9005,8.4471,-2.3826,-11.6108
-1835.9375,-245.6888,-83.9884,-208.9611,-22.3553,-25.6013,89.3206,-52.0251,163.6755,99.6287,117.6524,-105.6708,-7.4222,-148.9805,55.6679,1.8202,94.8149,109.5381,96.2404,120.6514,-29.6314
-1828.1250,-27.1834,-74.8272,-15.2169,-86.4400,96.3278,-46.2112,216.9382,65.8916,148.3754,130.7904,-56.2760,-67.3323,-137.2233,-78.5332,-58.8550,108.3836,-61.0576,-72.0213,126.6371,-128.7086
-1820.3125,-144.1607,-86.1605,-109.9553,-65.0193,0.7731,72.7677,48.4087,192.5937,90.6208,148.4176,-187.3859,-30.5942,-155.9854,11.7582,-78.0567,235.4575,-40.1366,56.2127,78.1183,33.7088
-1812.5000,-113.3315,-54.6808,-107.8786,-70.7877,40.0324,-22.3679,87.6837,12.0947,19.6697,5.8343,-1.7109,-43.1250,-4.9706,-21.1612,35.5076,18.3258,94.5926,16.2440,142.4043,-148.0735
-1804.6875,-19.1454,4.1612,-54.4470,-13.1937,93.6568,13.9059,141.3184,140.9448,1.0570,135.5901,-94.6999,-1.4177,-95.6290,-38.7454,-92.6159,74.5230,-165.3108,-67.3655,59.0575,-20.5044
-1796.8750,-124.9471,-28.9946,-169.0074,-85.5771,-58.7042,34.9262,-48.0341,137.7890,33.4346,95.3286,11.3034,-45.5118,-25.3132,-41.3426,-59.7721,-3.2991,78.7985,38.0292,162.7235,48.0652
-1789.0625,40.3584,-40.0432,-29.4564,-132.8490,45.0527,-99.7905,129.7257,21.7261,137.9091,127.1516,41.3985,-111.2984,79.0792,-156.8427,-29.8583,-8.0341,-108.9827,-78.4763,151.4984,-69.2648
-1781.2500,-65.9822,-74.7421,-76.5495,-99.7615,-2.8202,30.3484,7.8499,196.0071,90.7394,229.3056,-152.1632,-77.1783,-40.1935,-91.9995,-74.6083,129.5726,-112.3988,24.3619,113.6338,103.7534
-1773.4375,-51.8155,-165.9496,-94.1322,-123.1710,17.8316,-46.0280,65.4892,-3.2175,76.0791,-6.0601,51.7650,-127.1223,55.0103,-107.6669,93.1197,-32.3329,110.6980,2.6981,196.2885,-59.7251
-1765.6250,78.2090,-140.3126,38.1471,-99.7224,150.3556,-47.8622,197.9949,56.4028,61.2599,17.4079,-36.4615,-102.2622,-31.9667,-119.4945,5.6608,64.5996,-148.3258,-114.1170,113.8138,-1.3529
-1757.8125,-122.1040,-129.0235,-102.9090,-89.6060,8.5544,31.8706,-17.8267,62.6620,-4.9131,-10.5009,5.9629,-52.4448,12.6804,33.3071,12.8123,71.1600,36.3320,0.7148,88.0044,77.6688
-1750.0000,22.6970,-18.6348,17.1600,-52.3722,56.8769,-94.4580,104.4696,-108.9912,-30.9958,-35.3430,165.4835,-41.3389,97.4072,-26.8060,98.0220,-63.2036,-31.8858,-100.3499,-14.6938,-95.2070
-1742.1875,-14.8452,83.4063,1.8943,12.5374,4.8667,26.7166,-20.5762,61.0017,-117.4376,63.4433,-32.3642,54.1552,11.7447,69.7279,-26.1439,70.0589,-142.4316,-69.7565,-89.7295,110.5673
-1734.3750,-82.5279,52.3019,-64.5102,-19.6803,-61.2720,-16.3152,-87.7568,-77.1597,-73.0354,-74.9397,84.6195,12.9567,129.8953,42.0964,54.5133,-31.8414,140.8913,-32.3199,53.0902,7.1957
-1726.5625,37.1523,67.5471,96.4588,-7.5213,26.9613,-46.2664,73.4247,-25.9834,-59.2895,12.9834,-12.0413,14.3496,34.3665,-16.2052,32.4817,-16.4015,-94.4083,-124.5436,-4.7341,-15.8172
-1718.7500,-126.9987,44.9360,-45.3909,1.7997,-41.6335,53.8980,-67.2319,53.3218,-90.4049,-88.9852,-42.5396,30.5293,41.9684,27.6297,76.5639,-8.8299,56.4767,26.3718,4.6045,99.3285
-1710.9375,49.5601,81.0090,72.4826,1.8358,39.4931,-88.3348,12.8306,-193.6831,-82.8252,-190.2853,148.6551,4.0664,123.2460,-36.8539,121.3206,-111.5701,56.0927,-43.0091,-30.3440,-76.8172
-1703.1250,227.2725,259.2272,66.5201,73.0393,-40.2062,11.3291,-101.9354,20.4534,-197.1027,-84.4659,31.9876,95.5906,-27.3609,-4.2047,-67.8084,30.8217,-119.1153,-7.2275,-135.1238,64.1903
-1695.3125,302.1438,334.5953,-36.2752,40.4205,-105.7325,-35.9471,-168.5349,-117.2620,-226.2472,-221.5294,150.4643,87.1162,-19.8659,-32.4204,-58.8290,-106.6520,198.8518,66.7046,-61.7359,-38.6456
-1687.5000,521.7172,378.6521,121.6521,47.5200,16.4660,-108.0455,63.5839,-105.2861,-213.7038,-171.9177,88.6411,77.9767,-43.7103,-129.9463,-121.2017,-94.4403,-41.4463,-66.6650,-90.6319,-137.7728
-1679.6875,317.7031,316.0923,-25.9936,88.0344,-57.9102,44.3691,-120.8748,42.0773,-250.7693,-134.9397,-59.7779,129.4560,-79.1790,17.9018,-121.2077,-20.8514,34.6908,80.3598,-85.1116,8.5091
-1671.8750,279.8940,313.7076,14.5926,48.7648,-17.0605,-77.8432,-44.1180,-137.3711,-174.6318,-202.7994,92.0005,80.1178,34.5320,-50.0756,29.9536,-126.0769,100.0571,6.5877,-18.3777,-171.9944
-1664.0625,250.9891,250.2148,49.0951,53.4218,54.7069,-28.6868,28.5542,9.0717,-137.5997,-55.7940,-94.3278,64.9106,-74.8979,-87.1758,-8.0305,20.5822,-106.6398,-23.2744,-84.7262,-26.5835
-1656.2500,80.1551,184.7651,-57.3194,22.1517,-14.4372,8.5311,-78.6878,-60.4590,-170.5306,-197.7774,-16.5965,59.3320,1.6895,-9.2564,68.9981,-48.7428,178.7423,120.9078,-45.0073,-23.1339
-1648.4375,237.7722,202.7562,146.7354,73.3685,79.8853,-52.3780,52.5306,-112.5271,-186.0311,-176.3300,3.5693,67.8388,23.6718,-60.9005,16.4289,-100.6197,-17.4079,31.5450,-134.8324,-113.2088
-1640.6250,66.2896,207.6255,31.7152,146.4970,1.1300,96.6967,-135.3391,67.2799,-227.6347,-106.0397,-110.3479,127.3600,-53.4727,9.3307,-97.2446,-29.6326,56.4049,106.0801,-95.7288,65.6166
-1632.8125,107.5778,142.2206,117.4878,80.3900,87.1687,-31.0796,22.5864,-141.1739,-178.4939,-314.0356,121.4812,43.4552,69.1000,-125.7144,-50.2057,-274.9175,270.9780,39.3515,48.1418,-106.7931
-1625.0000,169.4469,134.3918,213.8739,105.9075,184.8256,-11.4649,157.1123,-43.0221,-191.7729,-142.4674,-2.0880,63.7601,-53.7477,-136.1734,-172.6419,-176.6159,-20.7993,-4.7558,2.6352,-46.5746
-1617.1875,-88.6237,158.5953,-18.6550,128.4962,-11.4316,85.2611,-76.2821,19.1525,-204.0204,-79.8915,-14.5839,103.3167,-101.5644,-38.6103,-148.0700,-151.2911,177.5092,229.1791,60.1948,-59.3102
-1609.3750,-12.6343,199.8302,67.8930,167.1718,75.3846,9.3409,84.3869,-3.6198,-117.2374,-30.2979,-38.0422,105.0696,-88.3862,-98.0108,-98.4911,-211.9214,40.8895,128.1646,28.8106,-266.9654
-1601.5625,-77.5996,135.0959,27.5090,206.9208,35.2694,124.7090,7.1183,177.6324,-84.4178,78.2880,-188.4328,130.2534,-164.1950,-26.3843,-247.8876,-67.5392,-25.6159,133.2204,-36.4972,-86.5642
-1593.7500,-36.9488,34.9440,36.7655,105.2998,44.7914,16.9258,16.4847,-34.5224,-38.0054,-22.5580,40.7743,41.4490,-8.4421,-53.1936,-202.7262,-205.5759,259.4831,101.8664,37.8096,-188.5568
-1585.9375,158.8864,54.9639,163.2371,123.9080,134.5287,-6.7136,107.0486,-16.4713,-58.4108,-5.2394,20.1769,57.5033,-65.5263,-35.8145,-186.4093,-114.4151,-3.1806,-20.2801,-119.6658,-135.3105
-1578.1250,24.6760,25.8959,52.6899,93.4758,25.2511,50.4172,-77.4042,-16.5027,-93.8724,-114.0295,57.5527,55.6762,-100.6783,38.4952,-39.1601,-76.3376,212.1531,55.5116,-115.1596,-25.1094
-1570.3125,135.4659,31.7890,137.1770,28.0650,146.0116,-106.4425,117.1749,-189.5326,-10.3457,-103.8566,140.9201,-3.8104,-16.8725,-60.2157,44.0512,-176.2713,146.5052,-115.6967,-40.6397,-161.8729
-1562.5000,82.1887,-20.4065,107.6319,8.6276,79.7434,11.1503,50.7157,38.3723,-2.8822,52.2158,-71.7447,4.9312,-83.1486,-15.0025,-95.8270,-20.2866,-14.1240,-62.9346,-24.1394,65.3327
-1554.6875,11.6245,-55.9331,-1.1659,-63.0811,8.2104,-3.6997,15.9938,-69.0356,-2.7299,-93.0449,76.2989,-19.3949,-43.7622,22.8753,-58.0540,-128.6237,265.9614,40.5236,115.0823,-6.7553
-1546.8750,146.5413,8.0100,140.5500,0.7447,113.1905,-25.3424,120.7750,-37.9246,-45.0961,-24.8423,-3.1707,14.0351,-85.9278,-18.7544,-137.8323,-61.4660,-22.4175,-36.4978,37.8200,-49.3082
-1539.0625,-45.0522,-7.5808,5.7874,54.0956,15.6953,99.6759,-49.9169,85.6626,-67.9774,-11.1966,-100.1185,48.5237,-109.6185,32.0924,-162.1314,-9.8448,135.7560,86.9921,56.0836,73.6356
-1531.2500,36.9510,-66.6024,61.6613,-5.9164,108.8358,-49.3379,116.0209,-116.1439,-13.2785,-101.9814,64.5241,-41.1134,55.2497,-96.4811,-70.8790,-138.6297,146.5347,-7.9283,136.9590,-91.7929
-1523.4375,42.5842,-95.0186,58.2051,33.7388,105.6487,84.5000,112.6178,101.6853,-52.9472,-32.1874,-122.1668,19.8320,-58.2554,12.5811,-222.0107,6.2201,-59.9656,31.8052,71.5138,88.4630
-1515.6250,-77.2726,-145.9795,-67.7019,-17.0874,16.0056,94.8236,-14.2427,12.9874,-32.1353,-157.9469,7.6612,7.9347,-0.2932,106.1155,-164.6783,-46.4585,206.0653,122.0366,125.5958,72.2290
-1507.8125,109.0011,-134.8279,128.5593,-42.7291,139.5293,-13.7507,183.0503,-47.5375,-20.1969,-71.5755,20.6274,-20.1051,-24.2368,45.7913,-152.2548,2.0075,-30.7289,-79.5610,29.8486,11.1825
-1500.0000,10.2140,-128.7706,16.7965,34.5971,-8.9726,102.9778,-39.6799,60.8639,-59.3171,-37.3088,-55.4294,2.6185,-101.2552,44.3851,-119.9092,74.3948,79.4912,67.7925,-34.9143,192.0928
-1492.1875,109.9412,-64.2587,54.5822,27.4452,29.0759,-42.7887,35.1351,-195.2397,-21.9429,-182.5861,129.0171,-32.5688,10.1893,-63.5615,63.8965,-144.7393,214.2200,25.6366,-6.1574,9.5331
-1484.3750,169.6876,-4.7394,111.4274,121.3691,49.1895,39.9138,55.0023,-27.2946,-111.5329,-51.8581,-33.4830,38.2324,-116.3497,-43.4755,-99.2843,-13.8450,-43.9477,13.5620,-88.3269,103.0609
-1476.5625,-6.8705,-40.5631,-0.9918,85.0198,-60.9597,71.2142,-55.3945,-65.6712,-113.4382,-127.4836,0.7346,34.3821,-45.2191,29.2844,-101.7869,-15.2693,236.6168,82.1794,-19.7750,101.2948
-1468.7500,171.1081,-108.8850,153.1724,51.2503,55.4642,-28.5196,133.7768,-132.4905,-70.8154,-157.6035,43.4988,-21.1659,-2.5826,-38.4151,-59.7789,-46.1413,61.7596,-91.6542,-17.6594,-2.8746
-1460.9375,108.5688,-101.7638,76.8595,58.9956,-20.5917,106.3609,-15.5364,48.1676,-111.7053,-161.2822,-69.2078,20.5141,-79.4616,32.3618,-137.3012,24.4478,68.4709,21.0299,-11.0078,214.4732
-1453.1250,161.6299,-155.0891,65.1894,-65.6289,3.9924,-11.9411,45.7895,-147.5767,-87.0080,-320.3922,174.6841,-62.7866,19.2211,-15.2921,-3.2684,-134.3817,261.7919,37.3174,111.2618,55.4432
-1445.3125,198.1588,-118.9602,174.0321,5.2781,114.0939,16.8718,118.6167,-37.8110,-88.8342,-175.0484,63.0722,-26.2275,-92.6370,-53.4643,-152.7753,-24.7250,-19.3314,3.1286,41.0623,90.9520
-1437.5000,-35.7226,-107.2820,38.5128,16.8093,-21.1699,98.5159,-89.9141,46.5320,-78.0701,-164.1563,37.0821,-5.7751,-45.9257,-5.0678,-142.7156,-50.4989,168.1899,155.5416,88.4939,102.0634
-1429.6875,154.4788,-56.5575,135.1314,-3.5304,74.6968,-37.8140,115.6810,-79.0090,-57.2278,-215.1930,96.1866,-35.3423,11.8476,-93.5798,-48.6312,-138.1609,41.8310,-5.9458,32.0433,-59.6873
-1421.8750,99.5574,-42.0040,104.6825,81.0461,-27.5073,95.4995,-23.8027,75.3224,-160.5006,-136.4059,-43.7761,20.1396,-91.4987,-50.2088,-79.6722,-21.9546,-13.5467,113.4725,-22.4687,130.4912
-1414.0625,74.7390,-33.4135,47.3868,90.7474,-49.5698,41.5133,-46.1449,-92.2642,-182.6794,-268.5661,154.3720,7.1428,32.2180,-70.7804,-65.6217,-153.6859,207.2018,157.9870,21.1441,-1.2031
-1406.2500,197.8340,-15.9245,175.0523,143.4358,79.3251,1.2519,82.4662,-38.8829,-165.9289,-140.8114,98.4627,0.6397,12.8335,-164.4200,-123.6554,-99.4760,-57.0539,-35.5176,-67.2667,16.0962
-1398.4375,33.0625,-41.3356,67.8989,118.2982,-26.5989,91.0037,-133.7416,1.6201,-200.0449,-174.9603,100.7318,31.3119,15.5797,-13.9313,-84.5765,-59.1477,129.8919,46.1352,-56.4952,166.5473
-1390.6250,184.0274,3.9486,158.5403,23.9382,63.2637,-58.3160,-8.1703,-202.1176,-183.4289,-270.3949,264.7505,7.0428,104.0364,2.2809,4.2105,-154.0672,69.5945,-84.4585,-81.9562,35.7841
-1382.8125,168.1995,21.4211,95.4469,77.8493,37.3950,74.4566,-70.3416,-8.6099,-248.5751,-150.6330,91.0401,72.9557,3.7212,85.7183,-171.7808,3.2363,-87.3931,3.2286,-134.1339,229.3006
-1375.0000,50.1591,-61.3643,-22.8065,29.5859,-7.6382,51.0641,-79.6731,-128.3050,-221.9322,-271.0994,191.1447,25.9724,67.1820,76.9254,-72.0136,-116.6850,181.4313,95.7178,-4.4881,146.6333
-1367.1875,169.7800,-82.5151,140.6558,43.0517,119.0434,7.5404,83.7032,-75.2846,-205.6087,-144.8952,133.9441,12.0739,46.3068,19.8282,-93.5879,-100.8970,-85.0058,-30.0867,-61.1150,89.7163
-1359.3750,16.0375,-97.0894,8.8082,65.1814,-12.5899,138.5877,-84.2347,49.3486,-265.6455,-131.1266,38.4363,50.9427,23.0669,107.3513,-154.5134,-49.4946,41.2779,131.7506,-75.0537,251.4662
-1351.5625,94.3395,-53.6825,27.0622,74.3837,42.8695,14.5023,6.9173,-152.9733,-210.6536,-224.3574,202.9869,22.2554,75.8440,14.8878,-64.4124,-178.0418,120.6205,69.6351,-31.9288,49.3069
-1343.7500,147.5366,33.6082,40.2745,162.5576,20.2859,71.1768,21.0158,-30.3392,-199.7333,-139.6651,32.4955,86.6199,-95.4543,27.3647,-127.3926,-19.6393,-107.0381,-18.4968,-118.8260,172.1377
-1335.9375,67.7020,-48.1703,-42.4796,116.7502,-100.2657,69.6551,-99.8487,-113.7124,-136.8207,-261.0048,131.0183,43.7619,3.2324,53.8381,-65.3936,-103.2733,164.3266,42.3652,-23.6943,161.9879
-1328.1250,254.3657,-72.4844,120.3388,58.5210,62.7536,-34.4493,62.8515,-171.5148,-85.3761,-209.8369,147.0871,-2.2250,18.4325,-4.1372,-88.8636,-88.3610,-35.7330,-88.2040,-47.9890,67.4433
-1320.3125,72.1276,-151.7412,32.3277,51.4588,11.9452,118.9403,-61.2743,32.8128,-138.7901,-152.5708,21.3428,20.7181,-72.2245,90.0060,-142.1965,6.6956,28.4124,80.4030,-54.1023,236.0706
-1312.5000,83.7536,-139.1785,54.2526,29.3216,71.0707,-12.4086,-3.4683,-201.9517,-43.3080,-279.4207,152.5007,-38.1417,21.9969,-34.9695,-11.6721,-119.3334,217.4468,57.9152,28.6945,37.6363
-1304.6875,113.7078,-111.2947,119.5800,94.6070,136.5961,17.9580,98.7278,-64.3032,-53.4401,-178.9048,33.0625,-13.1248,-24.4284,-81.5394,-95.7188,-17.9622,-34.0764,-53.1437,-46.0823,102.6489
-1296.8750,-15.2686,-101.3750,19.0384,105.0036,36.2502,64.2617,-37.9451,-91.5746,-81.4882,-281.3398,115.7533,5.2589,20.2218,-36.0361,-88.6425,-82.5158,223.5311,28.9003,0.2748,148.7718
-1289.0625,167.9887,-24.2586,141.7799,43.6796,159.1808,-60.6790,121.6529,-189.5747,-33.3113,-270.5497,201.7022,-14.4300,31.1273,-97.3071,-115.4602,-107.8218,21.4116,-104.7876,6.9008,51.1960
-1281.2500,56.5168,-31.9115,90.8425,37.6872,34.4257,81.1416,-40.4360,14.7154,-87.8472,-140.5111,38.9862,32.9388,-96.6655,33.6905,-244.0344,96.1507,15.6504,-5.1514,-68.1518,255.9443
-1273.4375,33.5530,-56.1107,73.4389,14.2192,17.1823,4.9451,-57.0107,-149.4945,-68.8942,-233.0027,204.7759,-13.9316,-41.0162,-20.8255,-115.0662,-31.3809,239.3851,40.9769,-21.6967,92.2106
-1265.6250,157.2198,-72.6857,203.6898,69.4097,74.5867,8.0367,72.0576,-57.0487,-87.3193,-140.8834,77.2272,-12.0761,-132.7446,-75.6685,-61.4691,24.7321,-22.1949,-44.2351,-141.5665,112.1626
-1257.8125,-21.9389,-114.1584,50.1395,100.7587,-41.8284,117.5317,-117.6867,8.5126,-132.6159,-150.6774,33.8806,11.3755,-142.3095,-10.4134,-70.7595,15.9612,150.4249,161.6912,-75.2571,178.2711
-1250.0000,43.7158,-118.8854,91.4368,97.9319,36.5860,23.1457,70.3937,-97.1180,-56.1340,-147.7111,74.3429,-3.4848,-102.0919,-43.4096,-68.3134,-54.0125,41.8616,53.4256,-8.1288,-0.7790
-1242.1875,-25.4967,-85.5021,47.8973,169.2713,-6.8430,144.1177,26.6224,114.3915,-101.5258,-46.6480,-44.0194,53.3203,-221.7437,-15.2627,-225.7437,85.1396,-27.4947,18.3364,-7.8282,175.3397
-1234.3750,-61.6942,-122.1371,15.3899,63.6295,-3.2540,32.4486,29.8764,-102.1089,-61.9331,-228.6294,143.6282,-31.2782,-72.4450,-85.1263,-77.1572,-21.7244,254.1455,17.2325,62.4867,69.4659
-1226.5625,116.5329,-120.3693,166.3447,67.4538,111.7865,-14.8184,180.5779,-99.1460,-22.9017,-227.1895,109.7240,-26.2475,-70.7409,-82.5502,-76.1191,16.8651,-23.7337,-154.4088,-4.7257,73.0840
-1218.7500,-65.0012,-163.4061,8.5740,62.5284,-9.9011,123.7435,-51.4410,-1.9533,-73.6188,-241.5341,24.1079,22.4936,-84.7675,88.2555,-90.9008,40.6786,111.6739,50.2049,61.3450,207.9604
-1210.9375,-3.5912,-173.5379,44.7862,-17.4261,63.3834,4.0122,95.5083,-112.7984,-39.4057,-206.9538,96.4382,-36.7686,-13.8736,11.9964,-56.7646,-34.5550,69.0295,5.7682,122.3749,23.8231
-1203.1250,-30.6674,-168.1685,10.5576,27.1928,29.2204,102.7891,60.0025,107.8954,-75.6544,49.1137,-86.6655,-1.8634,-124.4697,50.2730,-206.0556,185.7490,-133.0124,13.9032,25.9782,172.2642
-1195.3125,-208.0540,-136.1441,-96.9345,25.5308,-78.2094,108.9781,-46.7618,36.2832,-38.2252,-97.1451,24.9512,1.4571,-50.3578,51.2441,-131.7344,40.7303,182.6529,118.7374,95.3008,101.4186
-1187.5000,-210.1961,-104.8794,87.8842,24.1871,69.6645,21.9356,136.7704,-0.9985,33.4883,10.8878,25.8555,-7.6197,-87.9624,-22.4764,-60.1507,40.0262,-65.3680,-25.1146,57.9385,28.9230
-1179.6875,-545.7851,-125.0914,-10.6845,6.4436,-28.8482,150.8593,1.9206,156.2947,6.8159,56.4729,-73.6153,22.4774,-152.9844,61.3755,-15.9047,159.9197,-11.7417,132.6294,75.2102,187.0443
-1171.8750,-534.6901,-185.6743,8.4864,-87.5952,64.3712,26.6203,94.8037,-8.7136,60.8389,-0.2734,92.6155,-54.3423,-25.3228,4.9122,74.0189,31.5305,70.5842,74.0673,157.2020,22.9057
-1164.0625,-474.1534,-232.8246,31.1602,-25.1269,87.0900,111.9360,117.1796,197.7798,45.3527,166.4528,-68.6375,-39.0183,-114.1585,-9.0359,-52.6030,126.6384,-148.5440,64.0347,148.7197,119.3095
-1156.2500,-615.6448,-270.0456,-75.1318,-25.6488,-20.1645,135.6484,-27.4089,162.2563,44.8740,56.1531,42.1303,-71.7097,-3.9940,-45.0218,19.7744,53.7368,133.3465,204.9979,219.2588,84.7252
-1148.4375,-450.3835,-247.5365,65.3928,-0.3615,121.3976,33.3000,113.8206,82.5495,111.1823,84.6304,36.6975,-92.5876,23.9501,-125.2115,84.9539,84.6360,-87.9562,53.7753,139.6115,-31.0106
-1140.6250,-500.0649,-227.9879,-28.9722,23.0205,27.0702,152.8751,-54.8380,205.9230,14.5806,97.1609,-59.6065,-35.9312,-73.0112,-2.2794,23.2580,244.5962,-64.1151,110.6672,91.0894,167.3689
-1132.8125,-419.2652,-255.9948,26.1923,-38.0835,45.2646,44.4569,0.0269,2.8043,30.4622,-34.8307,141.5915,-70.5843,15.5078,14.1481,38.0490,78.0650,158.2184,16.0562,137.0743,2.2758
-1125.0000,-274.0221,-252.5559,139.8622,3.3257,84.9565,65.0418,76.3832,115.1932,30.8272,111.6482,-3.7053,-49.1502,-56.4812,16.0630,-71.6958,190.0534,-116.9047,-84.0320,37.5847,78.7241
-1117.1875,-397.2563,-236.6179,10.1142,-11.7183,-43.7812,110.9550,-126.6765,131.1128,10.7424,89.6411,49.5764,-52.8212,-4.9193,32.5048,-94.8974,168.5656,113.5450,39.4327,56.6761,132.7291
-1109.3750,-234.2828,-146.4944,114.6383,10.5065,23.7454,-1.5973,51.5261,14.3081,38.9102,80.8706,117.0961,-61.1643,-14.1306,-85.8042,-67.8527,88.3122,31.2411,-78.8420,80.0334,-19.9688
-1101.5625,-282.2147,-55.2905,22.3165,103.8896,-31.5775,145.2308,-41.1226,177.6388,-18.7703,95.2128,-49.2088,44.3471,-182.1888,4.0308,-162.6315,140.1921,20.1322,50.0520,33.5649,144.5088
-1093.7500,-295.9125,-71.8876,18.2743,127.5292,0.3675,81.1701,-9.4971,-11.7883,-26.1957,-96.2130,128.7483,16.2333,-116.0060,-76.9019,-98.1419,-12.6605,219.2610,143.1840,91.3466,-43.7435
-1085.9375,-181.3154,-64.1873,139.5846,138.5224,121.6574,62.2112,148.4639,72.1428,-17.2769,21.7021,-7.9478,24.8865,-107.4850,-103.4671,-199.3023,33.8505,-86.2388,12.6847,32.4872,-32.6027
-1078.1250,-325.8993,-174.6976,-15.2346,135.3739,3.8138,149.4893,-42.7019,99.9046,9.4978,-24.5726,-52.7592,8.5871,-80.1023,-38.1960,-99.6047,24.1708,88.1449,185.0333,100.5025,70.3950
-1070.3125,-185.6181,-142.3822,33.8760,102.1444,89.8924,7.3319,116.0573,-73.4232,56.1852,-53.9642,68.3314,-25.3523,-71.8244,-103.0507,54.9891,-112.6116,55.4278,81.2800,137.4347,-138.6673
-1062.5000,-186.6949,-145.4259,-9.3123,172.6206,46.6687,125.3586,72.5129,138.9430,84.5810,83.3197,-86.8616,27.0225,-227.8476,-38.2082,-101.7054,26.3065,-50.5478,80.2526,67.0856,1.9932
-1054.6875,-211.1505,-206.8526,-27.8382,114.7588,64.1074,43.0212,89.6377,-28.0426,136.6284,-86.7504,77.5999,-52.6104,-66.2289,-132.7103,-13.7526,-105.1246,209.1075,92.8744,115.3892,-90.6891
-1046.8750,17.2453,-190.4238,103.5328,63.8102,195.4315,-43.7848,220.6472,-45.1025,155.5667,-31.9234,23.9550,-86.1901,-10.7286,-186.3062,40.0991,-85.6389,-52.3289,-29.5881,28.6011,-106.4297
-1039.0625,-162.7409,-197.4050,-16.4308,95.5077,2.4060,104.9504,-46.6862,91.4665,33.1658,28.5280,-60.0045,-32.5781,-23.5728,-50.2650,64.6314,-23.5135,85.9162,177.5983,26.4872,31.4819
-1031.2500,-118.9474,-191.6443,4.4349,71.0159,60.1873,4.5167,84.7944,-37.1511,-22.4281,8.7775,70.8356,-52.5378,68.3690,-68.4136,117.9673,-114.5835,96.9442,82.5763,72.1789,-168.7822
-1023.4375,-43.1095,-186.8311,78.3963,78.6286,60.0609,55.4246,84.3627,145.3384,-24.9207,116.1043,-41.2155,-43.6275,-8.5775,-70.4540,4.4056,30.4336,-70.8954,-86.3227,9.9886,15.0790
-1015.6250,-103.4471,-320.1992,14.2153,-50.9009,-4.2107,3.3135,-17.1992,-29.3255,56.4515,11.2801,115.5931,-128.4344,146.3277,-25.6579,121.7064,-34.7143,187.1020,-40.3749,91.6622,61.7927
-1007.8125,11.4197,-312.3532,138.2765,-108.1715,120.7529,-91.2914,180.4773,-89.7115,178.0779,95.7173,17.6421,-157.4266,120.4662,-86.6049,168.2592,-59.5960,-81.6549,-134.1676,103.5934,38.7898
-1000.0000,-241.6913,-287.5037,-94.6011,-44.3995,-76.2329,89.0010,-16.7883,114.9266,161.7709,188.1708,-143.2256,-77.1833,30.6703,44.4902,113.8849,35.5697,-51.3269,71.0832,132.5919,208.8389
-992.1875,-226.0592,-237.9573,-139.6933,-26.8786,-85.4512,2.5187,-25.2794,-4.6898,152.2215,177.3554,31.6681,-102.8792,56.6303,-39.6662,177.2669,-48.5112,36.7360,87.0657,151.3452,-19.3354
-984.3750,-165.8309,-179.8080,-41.1430,70.2951,-59.0334,70.5182,-0.1386,203.3477,65.3232,346.1802,-126.7847,-50.0622,-67.7564,-52.1579,89.3104,123.0577,-181.5290,-27.2752,37.7647,43.1702
-976.5625,-269.3788,-214.4346,-73.3401,-31.2850,-129.3614,39.1263,-69.7362,94.6265,65.6831,198.2490,-51.9734,-97.7379,5.1135,-50.4088,198.6271,49.8756,104.4525,-23.3681,112.4435,82.9193
-968.7500,-128.8661,-287.0063,41.5647,-133.7603,59.4025,-71.4182,154.7654,-11.9647,179.1445,126.4206,-48.0716,-145.1895,82.0789,-48.5606,201.0524,-20.1880,-69.4793,-197.3542,185.2292,14.7999
-960.9375,-369.7963,-355.0179,-106.9283,-91.6390,-16.2374,105.3082,42.8629,168.0321,137.2089,194.1656,-270.5400,-83.3201,40.6684,95.8803,85.1073,123.3288,-95.7773,-49.7269,227.6284,233.2850
-953.1250,-364.4463,-386.7453,-165.0966,-155.2138,-1.5699,8.9605,94.2716,35.3290,114.5771,96.2165,-36.7022,-157.4179,162.5514,-2.3815,170.4736,-46.8502,87.1988,-43.8043,305.3222,65.0781
-945.3125,-148.0965,-278.4493,23.7763,-112.7286,41.1292,-14.0907,136.7117,113.6855,7.0019,245.3065,-66.8181,-144.4121,92.4731,-107.5782,25.8964,67.0308,-150.7505,-141.8117,172.0708,107.9496
-937.5000,-244.2141,-235.6332,-37.7907,-135.6889,-57.6165,37.5155,-36.2854,85.5674,-57.0041,178.9332,-94.3565,-113.0661,62.9500,-25.2439,69.8890,75.4492,106.8687,10.7233,184.3836,155.3607
-929.6875,-92.0992,-225.5880,93.9041,-122.3843,74.8867,-69.5353,131.9702,-77.2840,-0.7532,86.8234,-36.6582,-124.5620,46.6696,-79.6676,200.1313,-50.8733,51.7190,-82.4917,198.9450,-5.9561
-921.8750,-136.9248,-238.4705,5.6867,-24.9811,-14.5234,68.0445,42.3085,125.9577,17.6123,177.8003,-236.8464,-83.8931,-45.4946,-59.9838,106.5053,114.8976,-61.3072,15.4104,119.6147,161.8289
-914.0625,-162.3707,-194.9780,-48.1230,-83.1822,-68.5306,-43.6940,-10.9386,-38.3984,109.4022,121.1894,-33.6356,-137.0975,81.7437,-114.8985,198.3050,61.0787,127.0318,-8.2992,132.6824,-0.9875
-906.2500,-3.0191,-177.6618,84.8969,-62.5336,-45.7088,-61.1758,48.6433,57.1203,167.0548,287.4410,-122.5880,-123.0981,28.8307,-94.9503,143.9693,155.1272,-202.7805,-129.1439,13.6094,-14.9293
-898.4375,-155.3411,-157.0067,-111.7382,-36.5443,-205.5427,72.1804,-186.4228,187.9755,150.0711,233.0368,-136.1687,-75.8932,11.2905,-0.6580,126.0111,139.5047,-36.2384,72.3636,74.8973,81.4642
-890.6250,-20.0351,-128.7173,-69.7176,-73.9023,-90.7290,-58.1503,2.1664,8.4977,190.7399,125.2968,-22.1015,-95.4691,88.3999,-32.7135,202.7193,-40.4540,-38.0819,-36.4904,72.8323,-96.4768
-882.8125,-20.9651,-96.6565,-37.9069,-2.4725,-94.1293,36.6023,-39.4624,186.8144,147.2202,264.3338,-173.2093,-42.5562,7.3253,-2.9659,48.2606,100.3858,-141.0982,-70.5371,3.5790,46.3973
-875.0000,-93.6505,-100.3603,-105.8360,-1.8043,-163.2733,5.1729,-144.8272,43.3654,113.9640,191.6236,-22.0605,-58.5388,83.5148,1.0250,124.0796,29.4719,106.1219,34.6519,4.5800,-58.4821
-867.1875,95.2158,-20.4727,59.8134,12.4604,-34.8349,-53.8788,-16.6057,60.5393,56.3218,280.5284,-42.3363,-32.9885,62.3030,-20.3715,28.5191,46.1772,-161.0636,-126.5539,-85.8179,-113.7391
-859.3750,-68.8507,-9.4992,-78.4422,27.8029,-136.3051,83.7262,-154.2775,177.7876,-48.1892,211.5195,-143.5005,37.6599,31.2230,133.3315,-2.8994,125.9724,-75.1296,-7.6696,-71.0966,42.0885
-851.5625,33.9140,-14.6932,-70.8368,-79.0208,-92.9177,-91.9903,-38.0881,-73.1112,31.1712,104.3725,9.1749,-44.2300,146.0068,65.8851,222.5570,58.6356,-40.3724,-113.9538,-1.5268,-134.2255
-843.7500,109.7292,-10.8008,-69.1536,-70.7552,-90.4518,-25.5820,-35.8204,111.0872,67.6440,214.3251,-136.0465,-22.5447,-1.0892,102.5538,148.1448,243.3958,-276.4923,-176.1175,-62.8531,15.5704
-835.9375,45.1850,27.7435,-167.8164,-97.8518,-190.3311,-33.7343,-171.8905,-27.0788,75.7832,35.9314,20.3886,-14.5980,42.4773,147.8719,191.4220,140.7910,13.0252,-63.6419,16.4689,-11.0021
-828.1250,267.9144,72.5884,33.8080,-118.6523,-24.9219,-143.0962,29.3274,-119.9249,129.2351,-22.1466,38.1098,-21.8855,59.3444,91.4968,134.0156,84.4939,-149.1802,-259.8576,-4.9137,-102.2555
-820.3125,187.5713,61.3779,-54.6373,-90.5184,-114.5813,-27.8056,-133.5197,9.1652,111.6552,31.7276,-52.1968,6.4776,40.1948,147.0763,4.5891,176.1366,-84.4220,-162.1113,-45.3442,102.4259
-812.5000,250.9189,86.8764,-15.3826,-131.6914,-112.5433,-131.9441,-57.6619,-173.0381,112.7946,-115.6675,134.1881,-40.3323,150.7484,37.3614,114.8864,-79.5111,121.9950,-97.6778,18.9097,-78.1963
-804.6875,299.6785,168.8323,72.3019,-44.4213,-61.0812,-77.9317,-6.3847,-11.7814,51.3921,79.3991,-35.9818,20.4423,-20.2481,14.1215,53.6580,7.2968,-177.1270,-82.7809,-105.3942,-26.3574
-796.8750,131.7828,140.1460,-100.6688,1.1869,-123.2761,7.2062,-178.7610,34.8047,23.3560,-23.1794,11.2164,39.6253,-11.8672,59.2374,98.8164,-57.5552,79.0843,33.4635,-59.3611,-15.1891
-789.0625,296.7189,163.3165,44.1967,-7.3585,20.3599,-113.2600,37.6932,-116.7338,56.1788,-103.8910,81.2512,19.2090,19.3716,-18.7757,92.8424,-135.5365,-33.8889,-115.4402,-101.4902,-128.1576
-781.2500,221.3380,191.1854,-76.2618,60.7634,-99.3141,28.6618,-83.1633,55.4084,-30.2760,-6.9181,-40.9912,90.0777,-67.6526,79.9147,-30.3808,-0.8306,-105.1403,22.3514,-173.9054,45.5648
-773.4375,178.0072,216.0954,-110.6623,19.9197,-134.9236,-54.4017,-117.9519,-90.4090,-29.6522,-44.8847,71.8173,55.9011,43.3926,43.6378,42.4873,-74.0855,64.6294,51.1793,-109.2773,-135.6670
-765.6250,274.9346,206.3149,-7.7894,49.3763,-31.2606,-44.2822,-15.4764,48.0881,-1.7183,91.4761,-47.0803,56.3208,-3.2532,-2.3168,-40.3175,27.9689,-222.3062,-60.6720,-150.3697,-105.5876
-757.8125,96.7557,202.4620,-121.0285,-21.2839,-108.7180,-6.7249,-129.1141,43.4685,30.1297,48.7531,-13.0575,46.5571,-8.9746,29.6394,-46.1872,-13.0794,24.6468,79.3696,-79.5699,-34.6366
-750.0000,225.5729,189.6322,26.7241,-64.9555,38.8121,-163.7621,91.2390,-142.1327,64.9848,8.0544,132.9507,-13.9012,62.3132,-82.3936,61.9672,-126.1151,-18.4470,-69.5943,-51.7876,-218.6796
-742.1875,153.4639,185.9193,-17.4517,-64.5433,-5.5823,-59.5059,-26.3372,70.3607,92.9509,144.4534,-21.9330,11.6295,-21.2779,-17.3081,-21.7346,48.9382,-158.4259,-34.4424,-121.9021,-41.6333
-734.3750,115.0522,145.9215,-85.9320,-135.4428,-74.2809,-98.7931,-95.2070,-73.4497,132.6411,-37.4323,128.8848,-3.4161,91.8457,95.4818,91.2971,-21.3144,53.2586,0.3962,-86.3203,-146.9084
-726.5625,292.7132,216.0379,65.6549,-61.2502,3.0960,-94.6343,18.9939,-33.1339,61.4472,-36.1875,59.7916,61.3520,-15.9279,135.3871,19.4469,91.5379,-188.9743,-136.6483,-222.6423,-142.0756
-718.7500,170.1127,267.9273,-31.0241,-5.3265,-165.7963,38.0349,-187.0638,53.9169,-72.9714,-209.1796,36.4659,117.2007,-3.9199,185.0403,31.3860,141.1196,-27.4603,24.0628,-201.2146,19.4774
-710.9375,284.6515,275.9881,63.4371,-64.2644,-72.5548,-119.8707,-20.9815,-184.8593,-17.2155,-339.9857,203.2677,50.8789,124.2458,56.8523,123.5023,-24.1317,21.1601,-35.0852,-153.6487,-143.8237
-703.1250,305.8128,224.7114,80.5080,-41.5704,-56.6942,-42.9004,-4.2778,-21.9851,-1.7842,-215.1319,35.7215,52.1291,102.0820,35.3434,-9.6876,28.2652,-130.5609,-11.5768,-165.4333,20.5174
-695.3125,152.0317,175.5077,-36.3786,-50.8437,-62.7898,-40.4692,-47.5204,-103.0740,-10.2718,-298.2117,102.2247,30.9792,166.9867,26.8959,56.2182,-90.2994,140.7367,118.9597,-105.1786,-59.1175
-687.5000,243.9796,231.0752,103.4525,-27.3763,76.8383,-101.8535,127.9587,-111.3921,-55.9908,-162.5063,57.4572,58.7590,120.6516,18.2207,8.8961,-63.0996,-116.2355,-33.7493,-186.1882,-139.9951
-679.6875,34.9174,195.6645,-47.7376,-22.9346,-37.5525,26.3224,-59.5714,31.2719,-134.6836,-94.7886,-20.2886,88.4609,78.3461,123.5483,3.6155,43.0833,-41.1998,76.5448,-180.1956,41.0990
-671.8750,55.3076,144.7351,-14.4834,-105.0567,-4.4966,-110.0609,10.3467,-157.5971,8.0963,-175.5850,122.3985,5.7205,183.5011,45.3293,218.8151,-110.2811,-17.7647,64.2779,-86.7725,-146.3701
-664.0625,15.0130,139.1840,-20.9179,-71.8362,-11.1227,-22.8158,3.5766,54.8880,73.2474,-1.0156,-105.5750,45.1402,64.0232,110.4739,173.4053,65.7016,-299.9721,61.3824,-159.0053,-42.4964
-656.2500,-120.8257,142.1228,-160.9140,-101.1780,-78.3036,-10.0581,-137.7392,23.8079,115.8697,-70.9839,-62.0898,41.5078,142.0166,153.0671,215.4864,-2.8839,-46.7532,67.9274,-45.7994,-35.2077
-648.4375,98.8197,184.5987,-34.4320,-159.0252,48.9968,-140.6012,63.4198,-70.7466,205.0074,-93.4219,-9.1251,0.0055,157.5138,58.1723,193.0871,-23.9550,-176.0654,-131.0188,-34.1124,-128.4176
-640.6250,-40.9519,148.7039,-75.3805,-120.2911,6.8701,-22.4679,-52.8471,34.2850,161.7675,-64.2496,-124.5506,27.8196,113.6455,87.8967,76.3380,43.5680,-66.7705,-23.3621,4.1680,50.9414
-632.8125,-21.8181,131.7465,-44.4381,-99.6689,75.6344,-102.1001,52.7817,-155.7756,155.4487,-146.1446,16.9090,14.9370,143.6908,45.5313,143.5259,-184.0011,131.3751,-0.8253,27.3297,-137.8205
-625.0000,76.1947,193.7305,95.3658,0.8437,104.2641,-49.4778,118.2730,-17.9265,73.0450,-46.1165,-138.7445,87.0760,-13.3559,73.0855,59.6488,-46.6721,-154.5742,-111.3797,-118.6180,-71.6868
-617.1875,-41.1828,181.3572,-64.2405,-8.0569,-18.5119,6.6594,-78.6331,-67.5044,22.2655,-134.4827,-77.7861,111.9070,46.2186,206.2340,46.4159,13.2329,83.0700,-15.3402,-91.9787,-9.9912
-609.3750,78.8366,195.4256,33.5388,-96.5620,42.0945,-146.4523,92.8437,-191.6707,118.8985,-76.4195,-17.4433,44.5804,142.2028,118.7923,142.6079,-0.4550,-74.9205,-173.9015,-73.9624,-132.8994
-601.5625,-48.6567,137.0338,-69.2147,-79.5860,-60.8232,-30.6590,-48.2071,-2.3472,161.0491,74.1513,-157.5915,40.1784,72.7175,123.8657,147.3378,78.3420,-163.4009,-52.9558,-92.4506,94.6662
-593.7500,-88.6876,60.1391,-103.5294,-119.1730,-58.2970,-84.7303,-44.8100,-146.5735,163.6697,-34.7902,-8.2976,-20.8399,148.6997,53.3876,223.5540,-140.4118,79.5250,85.4196,-24.5023,-48.3498
-585.9375,21.3650,134.3854,15.2196,28.3269,23.3024,-54.7319,36.6526,-28.6856,97.4124,192.3890,-146.9249,39.8500,8.7940,-12.9782,45.9050,-60.0569,-194.4556,20.9044,-87.4645,-76.2686
-578.1250,-156.4740,132.7756,-132.9447,29.9084,-89.0062,31.3335,-184.7931,79.2736,95.2805,224.6619,-185.4346,45.8654,-31.9766,20.7644,43.4095,10.3676,18.6589,92.4820,-15.3355,-4.1258
-570.3125,-23.2001,88.3072,-20.0279,-45.4211,-49.2279,-107.2418,0.8482,-28.6540,207.2687,225.0665,-35.8592,-27.9036,43.3596,-50.3858,155.0468,-98.1045,-57.1685,-52.8475,14.8734,-184.8956
-562.5000,-36.3386,110.4814,-38.5454,-56.1619,-67.8779,-12.9297,-54.9394,173.0160,224.8807,351.0875,-201.6790,15.0553,-86.6894,40.0636,98.3169,29.0111,-207.3864,-28.5656,-66.3237,-19.0900
-554.6875,-69.9645,75.2126,-140.5756,-88.4119,-96.0343,-69.4783,-83.2302,-3.8175,232.0147,209.6430,-47.0035,-30.5336,66.7788,11.0194,143.1145,-74.3830,77.8555,45.2000,-27.0397,-120.8184
-546.8750,111.3984,114.9992,16.3583,-45.6734,60.7758,-141.3719,73.4372,-31.6314,241.1591,254.2331,-74.3476,-37.4153,38.2607,-90.9994,77.9356,8.2323,-195.9229,-123.0268,-123.7734,-147.5501
-539.0625,-12.1790,96.8898,-116.6831,-60.9098,-73.3790,-30.5228,-133.8611,54.5847,217.3666,191.8798,-97.6276,-4.1693,-23.1755,32.0409,16.8563,56.8749,-34.6519,-32.2061,-68.4665,13.7248
-531.2500,62.5601,65.1343,7.5631,-89.8536,14.7528,-142.9761,27.1340,-188.8904,267.8844,-17.1458,63.3771,-29.3344,63.6983,9.3916,104.1042,-151.1843,77.8767,-62.0924,-26.8852,-155.7189
-523.4375,88.8881,21.0313,68.3672,-25.2070,39.4536,-45.1834,50.6889,-54.7593,144.0140,5.4423,-96.0243,4.0975,-23.8122,32.3579,89.9847,-17.6521,-68.9876,-32.3622,-67.7133,-20.5805
-515.6250,-31.5643,-64.8071,-52.6425,-38.3699,-8.6524,-37.0975,-70.5604,-103.4400,95.3559,-44.7469,39.7771,-51.4817,73.8975,-16.4744,152.0984,-66.9310,165.3183,95.5551,25.6342,-68.2821
-507.8125,79.0318,10.4590,33.3708,-30.4919,77.2682,-111.5258,88.2077,-92.0531,107.7511,149.1391,-21.3892,-46.1807,48.6608,-78.2336,53.2820,-18.1419,-108.3516,-37.4752,-0.9925,-165.9404
-500.0000,-123.9713,53.1749,-110.2437,14.7710,-66.4316,34.2275,-91.6461,95.7161,74.5638,298.4303,-165.1394,36.9904,-22.1461,72.4137,-91.0922,95.0254,-97.6162,77.8985,-61.2235,-14.2377
-492.1875,-77.9554,99.9476,-88.8727,-41.9745,-8.1421,-81.7174,3.4953,-67.5074,132.3915,96.7557,40.0938,-3.7010,72.0629,-16.9267,3.5617,-105.8118,57.0682,21.2603,-11.4787,-176.5566
-484.3750,2.9007,144.6317,29.3024,5.1143,35.9672,-50.4946,47.4467,50.1261,102.0835,176.9492,-61.8325,25.3516,-31.8586,-47.4015,11.1004,-25.8081,-176.4002,-71.5136,-68.9007,-58.0365
-476.5625,-247.7159,105.8806,-121.0366,3.6834,-77.4301,11.5098,-66.1065,9.2360,25.2975,97.6574,7.7479,34.6679,37.7432,22.6165,44.1779,6.6756,103.6130,67.2000,0.1632,-24.0577
-468.7500,-254.6186,97.8887,26.3017,33.9448,69.8503,-46.8068,117.0118,-64.9352,-48.7831,132.0992,81.0114,41.1914,36.0448,-14.6500,-31.0299,5.8656,-6.7019,-43.3864,-5.0972,-134.3864
-460.9375,-345.0638,112.3994,-1.9389,85.6379,41.5561,89.5375,-21.4468,127.3288,-151.4033,175.9987,-20.2558,93.5971,-29.1755,30.5427,-169.7489,86.4821,-24.5508,44.4810,-57.9170,58.6978
-453.1250,-281.5804,106.8692,-35.2874,47.2224,7.1585,-11.5230,-55.0075,-90.5083,-112.1077,29.8310,129.3709,54.6624,82.5146,32.6307,16.4608,-22.0074,148.4559,41.2321,-60.8631,-85.3494
-445.3125,-101.7036,110.8032,40.7215,87.1994,47.1306,4.8257,20.7910,21.0651,-109.4048,141.0881,-51.6198,72.3556,10.6114,34.1374,-17.9093,89.9044,-127.1438,-94.5984,-125.4305,-9.0050
-437.5000,-238.5090,78.1035,-140.9933,22.4668,-61.6126,66.5330,-124.1208,59.9212,-145.3917,104.6537,-13.3016,55.1153,-24.9669,71.9577,20.0513,90.0896,89.5407,51.8648,20.2894,66.5953
-429.6875,-70.4522,106.3106,-28.8821,-18.4240,51.4749,-61.0422,24.7952,-48.3513,-68.5154,32.1120,136.8409,10.1757,13.3063,-35.3509,59.8842,-54.8671,-20.9726,-23.8231,15.8366,-113.9677
-421.8750,-95.9975,151.9784,-60.4134,-5.9342,19.9362,31.7771,-43.9182,103.7707,-63.2180,35.9865,-41.6109,53.8221,-54.9952,6.7462,28.1587,22.5574,-113.0816,58.8989,-42.2244,38.8371
-414.0625,-126.3596,157.8621,-119.8125,-34.3048,-39.4579,-32.4046,-66.4864,-66.9612,-12.7529,-98.9680,83.0865,36.1566,104.8675,19.9926,115.6136,-111.8740,69.9167,101.7521,35.8425,-94.2430
-406.2500,4.4323,146.9584,-19.1037,-7.5281,60.2643,-37.6114,107.0583,-3.5254,-60.1374,36.2432,-74.0832,47.4959,20.8896,9.4025,31.2355,61.8488,-218.9438,-12.2296,-41.9590,-67.1783
-398.4375,-115.5563,133.3139,-149.2157,-19.5616,-32.8296,83.3913,-96.2129,123.0913,-189.3164,14.6717,-94.0413,74.8278,-36.8623,99.0042,-24.9089,150.7425,-54.6023,81.9923,16.4285,97.0403
-390.6250,45.7246,118.9818,-46.0964,-67.3446,70.3164,-60.2680,5.7521,-67.0205,-160.2383,-29.6037,120.2257,16.9438,-7.3633,18.8537,41.2084,-4.1138,-33.0536,-36.5363,39.0393,-56.5119
-382.8125,46.2059,84.9115,-13.8119,-29.9389,29.6362,39.9005,-35.1169,112.0615,-163.9505,75.3270,-68.3018,41.7847,-48.6450,51.9193,-35.4445,101.2098,-205.2928,37.1447,-28.1591,87.1105
-375.0000,-60.7213,48.4674,-119.9811,-134.9949,-3.4969,-21.6542,-68.4349,-31.3284,-124.1039,-33.1825,45.7259,-13.5417,137.6381,54.5353,114.4816,-42.9369,40.9923,107.3515,78.1717,17.2458
-367.1875,73.1166,77.8449,-13.4332,-140.3056,140.0921,-97.7645,111.9612,-34.9493,-90.5085,35.0851,5.4763,-40.2786,96.6726,-59.0850,111.1724,-11.3326,-173.9872,-37.6790,38.2272,-22.8769
-359.3750,-119.7795,96.5370,-144.6695,-83.3739,7.9095,40.6461,-56.4108,90.6660,-148.6549,49.6161,-52.5134,21.9766,1.9795,29.5488,-19.8589,76.4977,-13.7161,88.5495,58.5153,103.2020
-351.5625,0.1481,111.0861,-46.1217,-68.6464,33.5195,-66.1629,5.0093,-104.9031,-123.9914,-37.0181,157.2820,14.8073,63.0880,17.9809,-31.0762,-82.8668,73.3072,-1.4317,75.5784,-91.9417
-343.7500,75.5246,117.1359,28.8374,-26.4831,35.5573,-3.5927,43.8448,42.9784,-158.8682,37.8055,-24.4714,53.6163,-46.3365,55.8735,-66.8181,28.2126,-130.2030,-64.9530,-23.9180,20.3503
-335.9375,6.4897,83.7918,-115.6615,-59.7890,-72.8546,-6.1483,-101.7660,-64.6134,-119.1828,-144.8139,51.3373,29.2766,-7.1910,95.3140,157.0178,-43.1802,117.8218,9.0652,50.1241,23.1502
-328.1250,133.3718,105.4188,-16.2811,-71.1951,27.6175,-80.0613,71.4948,-112.2908,-129.6062,-83.5046,4.0223,19.1986,18.8538,47.6666,146.7526,-18.6694,-105.2753,-109.0009,38.0402,-24.1618
-320.3125,-69.5295,115.3126,-159.7276,-24.4089,-116.7252,68.3577,-72.0677,74.2165,-162.8300,28.0148,-102.0804,72.2599,-15.8896,124.2281,2.7102,94.0190,-93.1613,43.1371,15.1411,162.6805
-312.5000,-63.0444,87.6199,-144.8283,-52.2760,-101.7177,-32.2498,-57.2846,-93.9226,-110.6973,-30.0869,60.1558,19.4313,109.7165,66.1441,92.0317,-38.9423,55.2664,16.6040,57.5624,-5.1534
-304.6875,-7.5524,107.9863,-88.9607,3.8499,-9.7374,-4.4145,34.4588,-2.0553,-92.5675,97.8272,-104.6122,49.9135,17.3403,48.0672,37.3730,52.0881,-203.3012,-31.9204,-26.0309,87.0048
-296.8750,-152.8740,69.5724,-238.9583,1.1151,-121.6180,67.6056,-114.6554,31.9462,-58.2823,19.9037,-107.2181,48.9958,14.1399,81.1290,34.8883,12.2378,39.2704,141.7021,77.5105,84.2715
-289.0625,12.7245,95.1294,-131.0779,-7.7135,-13.6161,-36.1425,67.1041,-80.1325,-22.1071,17.9085,-34.9498,48.8225,12.8387,80.0992,-2.6881,-26.7076,-39.2921,-7.7653,68.9239,-100.5716
-281.2500,29.0865,112.5004,-119.4790,45.2036,-75.8838,79.6214,-70.4147,77.5251,-85.1867,27.6581,-133.9166,105.8476,-86.6965,164.8214,-101.4859,93.0724,-57.0862,10.5314,15.0713,57.3003
-273.4375,75.4370,53.8904,-101.9358,-47.9308,-20.1991,-37.8078,-50.9857,-86.8745,-66.3194,-138.6260,106.0604,2.3112,78.7246,36.4865,64.6844,-110.2078,167.0353,-12.2350,99.1400,-70.9101
-265.6250,194.3976,103.9502,22.1749,-67.4584,66.0570,-69.0597,35.0020,-0.6621,-52.8558,20.7017,8.6275,-2.2106,18.7517,-24.2330,5.4570,-60.8909,-134.2434,-102.3913,8.7924,-20.5295
-257.8125,-14.3026,108.3710,-160.4300,-28.6941,-79.3946,41.4034,-146.7149,73.8286,-51.0873,21.3348,-26.4910,47.1956,-17.8991,87.3446,-30.4562,-23.3026,46.7741,43.7438,12.7355,54.1086
-250.0000,126.8317,73.6512,-7.2489,-27.1281,37.9434,-72.7557,43.3528,-138.8626,-6.5215,-119.1994,92.1750,24.3446,26.2458,58.7200,14.4334,-90.9187,47.5570,-95.3237,14.4605,-85.4634
-242.1875,134.5257,12.5371,30.4466,-18.0202,38.8073,22.9117,6.9376,8.9885,-42.4032,-119.1730,-17.6071,25.9198,-46.0467,59.6562,-57.1040,-16.9991,21.9047,-50.8245,-11.2779,99.4868
-234.3750,17.7042,-33.0578,-11.4168,-62.4676,-2.8839,-14.1681,1.9740,-106.7149,-10.8380,-198.6717,88.0577,-19.3191,22.1183,17.0443,11.8183,-133.6369,258.6680,80.1105,49.4116,-16.1489
-226.5625,108.1436,58.6525,122.9391,-6.6642,94.6512,-55.8253,99.2277,-46.1490,13.9706,-64.9032,-35.0371,-7.1680,-27.4665,-105.3038,-74.0150,-111.0275,-1.3283,-38.6905,0.3315,-65.5385
-218.7500,-78.2358,49.5657,-38.5704,55.2807,-29.6757,73.4997,-62.3819,50.5431,-0.0629,-116.9875,-121.9652,57.8339,-41.8750,27.4957,-50.6704,-88.2946,130.8323,58.6518,62.3908,31.1828
-210.9375,26.1665,14.2812,42.6656,-15.0284,51.7384,-48.2765,18.7484,-89.0045,81.6600,-146.2987,69.8380,1.2547,2.4685,-0.9468,31.4349,-192.8118,130.7099,-11.2659,62.1752,-145.3583
-203.1250,189.2270,143.7009,60.5189,78.3070,-3.2193,14.4012,-36.5022,77.0949,27.0333,18.0381,15.2942,53.5753,-89.5265,-55.7332,-206.7937,-100.6883,-56.7452,12.4808,-90.4020,-16.2670
-195.3125,266.9323,328.7768,-2.0285,87.2334,-102.5708,-38.0381,-210.1477,-59.2234,-34.9968,-118.0150,211.3617,68.8615,-40.9098,-117.9323,-158.4142,-200.9851,198.3800,91.8120,-117.3909,-78.6116
-187.5000,543.2607,465.5089,143.9998,117.7592,-30.3361,-140.9413,-101.2200,-133.9214,-35.4393,-120.4478,211.0167,93.6997,-78.6978,-156.5218,-48.4433,-203.6795,-51.9134,-88.2457,-261.7981,-153.3577
-179.6875,433.5150,498.1919,-12.0914,151.1724,-185.2107,-16.9932,-293.4065,4.2624,-117.9825,-129.9795,128.5905,137.4052,-124.5673,-91.2174,-19.5583,-176.4982,86.7034,50.6066,-263.3097,-15.2395
-171.8750,546.7045,471.8301,78.7106,124.4863,-132.1858,-124.5474,-166.6946,-161.6399,-136.6297,-222.5823,331.0453,94.6868,-33.5294,-147.0141,-0.7703,-306.4167,201.1767,-10.6481,-219.9500,-218.2400
-164.0625,546.9470,402.5699,147.5265,124.8558,-62.1335,-66.3424,-133.9757,-18.4817,-177.2383,-44.1254,179.5438,95.4451,-111.4373,-114.7461,-151.9216,-54.2959,-44.2898,-9.8329,-324.5562,-112.2003
-156.2500,339.6778,338.8126,42.7873,95.6722,-167.6306,-20.3866,-275.8032,-12.8866,-135.3972,-76.2094,185.5051,77.8188,-68.8880,-72.0371,-145.6173,-49.7474,172.6839,102.4210,-247.7224,-106.7476
-148.4375,420.1815,349.8525,131.7831,107.2387,-78.3910,-73.5943,-113.8988,2.4779,-118.8056,12.4820,165.1959,62.8395,-90.5996,-166.5744,-202.5719,-108.4347,8.3863,8.4314,-202.1602,-201.5450
-140.6250,274.2516,276.4864,7.3089,208.3487,-128.6160,92.2574,-200.4637,173.3789,-206.6694,71.7200,4.4456,104.7112,-214.7468,-143.5598,-288.9607,-50.5868,4.6590,146.0027,-135.0537,5.1751
-132.8125,201.3589,239.1726,10.8331,135.4664,-87.8335,1.0624,-124.0219,-6.7193,-165.5443,-35.0279,155.6835,56.2995,-99.8970,-175.5452,-174.3511,-194.7392,142.8992,179.5650,-32.9726,-138.1303
-125.0000,195.6748,201.1076,39.5292,166.7892,-21.8703,24.0543,-22.4119,132.3951,-62.2379,104.4306,1.1177,54.6827,-107.8538,-183.3188,-144.5436,-55.6995,-142.6471,70.3417,-107.7044,-72.2414
-117.1875,14.2280,91.2931,-116.5825,91.3088,-104.7101,57.6578,-177.6016,124.6914,40.2655,58.0877,-6.2283,11.0774,-42.5940,-117.9000,-41.5308,-65.4824,64.0007,136.3095,28.7541,-7.1880
-109.3750,121.2057,23.9335,2.6954,24.2315,14.8401,-51.2588,14.5903,23.4091,49.1622,66.1787,75.8038,-50.7384,-33.9404,-182.0805,-32.1357,-93.8560,-3.9808,-1.3183,101.5904,-145.7343
-101.5625,6.6957,16.1157,-88.5525,120.6525,-39.1310,115.3081,-39.7435,226.6207,-40.4481,122.7759,-87.6552,19.4648,-123.7742,-125.7607,-195.2317,-1.7474,-12.4406,130.5681,92.9222,21.1967
-93.7500,-63.5176,-16.4102,-80.5467,87.3235,-67.8442,48.9212,-32.8160,51.0822,-32.8103,-17.3657,68.1311,-14.9570,30.6405,-154.2082,-113.0795,-215.3967,200.3249,203.6943,164.4937,-118.6466
-85.9375,8.0794,-14.1054,-6.7645,158.7917,43.2306,75.7882,78.8873,162.3620,5.6212,130.3036,-114.2996,34.1590,-115.1506,-116.8506,-111.1379,-179.2389,-79.1075,99.6329,130.8631,-117.6872
-78.1250,-167.0941,-11.5700,-156.7910,161.4549,-70.4957,170.8261,-72.2069,232.8242,2.2523,53.1703,-190.5094,61.2292,-154.7299,-45.3045,-76.9853,-145.9020,133.6670,207.7700,132.4277,-10.5646
-70.3125,2.1647,18.4086,-10.4202,155.5232,77.1786,22.9580,74.0954,12.7013,39.2693,-131.5408,-6.3317,21.1210,-44.9191,-156.3569,-39.4438,-221.1608,92.8072,61.3048,91.3650,-158.0455
-62.5000,-4.9640,13.0246,46.5242,184.1923,60.4375,94.3076,-16.0293,106.1734,-50.1249,-37.6537,-59.5438,52.1863,-97.4958,-98.8049,-91.3032,-90.8274,-19.4320,55.4509,-21.1037,46.0620
-54.6875,-106.7007,-85.9694,-19.1753,119.2125,-4.9522,48.9955,-81.7990,-32.0123,-42.1756,-103.3987,96.5972,-14.8761,58.2787,-89.9094,65.1792,-120.1508,232.6589,95.9327,54.7650,-19.5061
-46.8750,-6.7315,-55.2308,49.8045,113.9349,138.3441,10.4796,98.1136,0.5285,-45.5372,-34.4263,-17.5819,-9.9286,17.7465,-130.3091,25.3529,-51.7689,-53.5538,21.1233,14.3260,-60.3687
-39.0625,-176.9563,-47.6756,-96.4230,155.4525,27.4436,168.9410,-86.1708,147.8471,-155.0968,-71.6585,-89.9485,66.9138,-92.9682,17.0854,-47.6581,20.3927,58.0484,169.1116,20.6868,86.5413
-31.2500,-86.8145,-61.7440,-33.2970,70.3262,91.8949,34.6347,50.8932,-45.4692,-127.3136,-154.5198,85.0226,20.6118,8.6674,7.8306,-19.3252,-63.0862,113.9639,48.4436,40.3789,-70.2000
-23.4375,-17.8713,-60.9839,30.6053,70.0020,83.1286,85.1581,41.7245,94.0137,-135.7423,-53.5802,-34.1995,36.1150,-36.8933,36.3834,-64.1915,37.2290,-62.2982,-21.4090,-29.1364,104.8575
-15.6250,-160.9823,-166.2853,-44.5833,-37.4235,-28.7343,61.9153,-70.5324,-18.6181,-64.2776,-128.7385,38.4941,-33.7360,108.4504,71.8179,44.8360,34.4322,182.3289,83.6240,38.2374,102.7885
-7.8125,-9.6656,-120.1560,41.6177,-27.4417,20.7944,0.4707,52.5951,-4.8304,22.5686,31.5163,-21.4281,-39.6014,11.1828,11.6568,-14.7587,84.0426,-18.6536,-46.9340,12.9944,42.1277
-4000.0000,-4.2216,71.8681,-87.9547,-3.3657,-97.8285,17.4342,-87.5411,57.2039,-16.4224,164.1225,-91.2584,20.6655,-31.1431,39.0136,20.9582,112.1854,-32.4514,-12.7285,-27.5377,63.2713
-3992.1875,72.5388,115.9642,0.4185,-67.7727,-47.6464,-117.0048,0.8340,-146.2055,0.4791,-0.9817,106.9330,-12.3287,20.2668,-17.4370,185.3539,-126.3601,114.7342,-77.2573,48.8047,-140.0945
-3984.3750,130.1113,103.8672,93.6094,24.6248,45.3463,-56.2354,94.0290,-13.8262,-51.8122,96.7226,-21.0772,25.0933,4.4851,-32.0962,22.5493,-31.1040,-110.2936,-90.9985,-70.0681,-81.6796
-3976.5625,-29.1300,51.9729,-2.0021,6.2269,-13.4626,-16.2871,-74.5839,-33.2403,-34.9016,-30.3633,67.1019,16.9504,93.8990,21.4497,3.9393,-85.6442,151.8840,-39.5299,17.2509,-64.0548
-3968.7500,203.7856,75.2259,133.5500,-78.0287,158.8888,-157.2783,133.9611,-153.5371,-8.8274,-111.3096,165.4480,-32.8821,120.4780,-61.8614,30.5005,-131.0586,-2.7693,-227.9175,2.7215,-147.3014
-3960.9375,181.8646,124.6322,63.2683,-65.1316,52.4032,-43.6932,-8.3335,-0.6842,-40.5914,-103.0962,59.9325,11.2095,51.2048,-19.0238,-73.7963,-88.3225,9.7051,-110.1621,15.3280,42.6055
-3953.1250,197.7810,176.8874,50.8297,-84.3823,39.7613,-132.7904,-21.7869,-194.9936,22.4946,-221.0477,193.2751,4.6457,150.7986,-29.3383,-11.2321,-281.7482,201.0554,-59.5416,65.7848,-151.6385
-3945.3125,248.9109,265.3450,141.6095,36.5662,55.3307,-73.9385,-5.0200,-29.1182,40.7817,-52.7983,25.8278,93.9561,-16.4005,26.5462,-102.4516,-150.9851,-99.4049,-113.7314,-93.5690,-169.7055
-3937.5000,31.6773,154.4536,-16.9637,30.1704,-29.4563,12.8228,-90.6160,-1.5796,67.7214,-96.8738,-22.9924,94.2148,-62.9524,128.1044,-2.0268,-85.5664,103.7734,-15.2636,4.7157,-105.1134
-3929.6875,164.6379,77.7669,126.6583,-13.0341,76.9563,-119.7041,126.9888,-149.8611,175.8811,-95.7586,46.3975,18.9405,-66.2860,15.8609,106.6093,-233.9683,61.1704,-163.5952,32.2041,-217.3418
-3921.8750,39.6135,25.0830,59.3006,38.7625,46.3781,11.1170,59.6159,42.8538,110.0507,62.3594,-93.2201,53.0422,-94.6231,60.6089,-31.7537,-187.3743,-64.4558,-42.9350,-23.3201,-24.5701
-3914.0625,-22.9247,-2.1048,-1.5662,45.0575,22.2911,-35.7619,34.7316,-126.9340,13.7156,-105.0197,101.6641,19.0495,102.5414,1.8647,-17.6111,-319.2838,188.4404,34.2404,53.6550,-157.2976
-3906.2500,88.5012,-29.3415,150.5350,51.2993,137.1689,-58.1080,187.8172,-82.7907,-16.6592,-58.4432,33.5119,12.3442,71.6609,-27.9339,-47.5135,-201.2515,-86.7220,-99.6464,24.5742,-150.1060
-3898.4375,-115.1260,-125.6258,3.5887,-12.5032,63.9957,51.5654,40.8533,-6.6858,22.9298,-89.9045,-38.7116,32.5831,36.7315,159.2162,-44.4809,-124.2626,25.0508,47.4172,136.4351,-36.9532
-3890.6250,-6.6112,-121.7634,50.7913,-114.1658,147.9720,-65.6401,161.0403,-105.4545,144.6825,-112.2321,80.2364,-4.9218,84.9684,171.5148,4.7250,-221.1449,-8.0047,-55.3623,174.4477,-208.6630
-3882.8125,2.0679,-76.7579,50.1627,-70.6811,110.1135,20.1370,124.3978,79.9261,145.5953,38.5965,-66.6669,33.5557,-25.6397,172.9731,-140.9072,-108.8910,-174.9367,-47.0071,77.5973,-23.2316
-3875.0000,-35.2173,-77.7092,-25.4193,-73.1441,34.2943,-26.8472,48.7881,-103.6396,145.5608,-105.5269,3.4834,5.4303,47.8079,136.4997,42.5071,-217.5972,103.2007,-13.5863,144.7885,-59.7471
-3867.1875,138.9573,-78.2117,83.4761,-110.1600,142.9412,-107.7069,194.6498,-139.7831,108.9863,-29.2114,-34.8891,-21.2562,10.7265,100.4473,154.3672,-179.8719,-110.2049,-156.7272,107.4309,-95.8371
-3859.3750,-41.1174,-115.9714,-37.8694,-149.4269,56.3476,-5.5309,71.2684,-3.1734,61.1839,-0.1341,-83.5263,-39.4994,-37.6222,90.1467,106.9891,-79.3879,25.1225,48.8759,102.8154,40.8334
-3851.5625,29.2978,-115.2423,41.2844,-150.2093,137.2497,-134.0633,152.3879,-178.0902,106.9054,-62.5794,106.3469,-108.2452,117.5402,-84.6389,116.1474,-216.4370,59.9780,13.9880,137.7072,-134.0076
-3843.7500,29.6850,-77.5609,110.4143,-79.0395,168.1244,-58.4702,146.4814,2.9346,102.5765,83.9202,-8.8198,-52.0770,76.6866,-51.4915,2.2019,-145.5434,-150.2372,-20.9524,32.5406,-26.9148
-3835.9375,-83.1327,-119.0751,-7.6548,-87.0612,50.7927,-24.3814,-7.6382,-39.2281,97.0370,-29.7770,93.8138,-55.6183,106.6418,16.4517,70.0417,-186.8557,87.3518,111.9220,59.1643,-69.0137
-3828.1250,27.4049,-112.2435,111.6357,-46.7363,132.8169,-105.9358,148.5994,-102.0703,106.8761,19.8633,64.8144,-79.0393,79.9252,-83.2591,117.3345,-101.8628,-118.6986,-23.8729,-6.8613,-168.7888
-3820.3125,-124.1572,-122.5138,-21.1624,11.4881,35.7451,46.0914,-21.2501,97.9941,49.6339,38.4073,-67.2972,-38.1754,21.0919,-30.0725,97.5277,26.0561,-95.8724,70.2304,-18.9985,31.3385
-3812.5000,-82.9302,-79.9866,-46.1637,-16.4919,48.4742,-49.3783,27.6988,-72.1537,100.1916,-18.2647,54.4068,-52.7357,145.1005,-52.0608,148.4434,-143.2411,15.7823,41.1580,57.6675,-101.7431
-3804.6875,-24.1338,-19.9152,46.4144,42.0744,29.7791,-4.3982,46.2285,59.2333,47.3117,152.6054,-110.3295,-3.3962,17.6915,-31.5037,58.8820,25.9888,-207.0282,-41.3801,-60.1199,-7.2981
-3796.8750,-166.2474,-90.7610,-31.9017,3.7376,-84.8137,13.6706,-105.1459,18.7237,80.5513,77.5813,-4.9723,-60.7846,50.3519,-71.8758,92.4703,60.3491,71.2616,62.1851,7.1823,26.2535
-3789.0625,54.4847,-79.7686,167.6416,-55.7616,113.4574,-142.2454,93.3407,-147.9640,134.6682,-49.6109,156.2558,-129.7025,66.8388,-237.4203,109.9976,-68.4609,45.4151,-104.4016,52.3374,-103.3696
-3781.2500,7.8205,-90.1765,145.8062,1.3502,91.3504,-15.0979,71.4503,-21.0493,114.4003,-67.2112,-11.9186,-71.0654,-63.0715,-183.3488,-56.9024,-14.7153,67.1460,-11.3892,74.0850,60.6093
-3773.4375,7.5423,-89.1954,116.3743,-33.1297,61.6512,-72.8548,41.9650,-158.7387,86.5372,-165.4385,141.3294,-82.3131,17.4575,-137.8718,25.5355,-114.6218,279.3076,24.0493,74.2375,-114.0127
-3765.6250,73.1240,-21.3851,220.8264,67.2434,55.8332,-36.1138,110.3578,-15.6064,82.5280,-19.8292,25.4495,-14.6332,-97.1559,-104.5830,-51.1703,-7.6578,-7.6816,-85.6710,-70.7718,-117.8135
-3757.8125,-151.9161,-70.1906,90.6901,88.0251,-38.5799,48.8123,-57.8515,2.9289,99.9192,-35.8257,3.9498,9.4365,-80.3881,-12.8976,-33.4461,-25.2566,152.7229,40.0202,-16.3987,-26.2117
-3750.0000,-22.4555,-115.5043,193.0564,6.3054,138.5144,-110.0815,156.4550,-187.0579,130.8241,-113.3539,143.9635,-85.9036,60.8820,-165.7057,34.8069,-103.3976,106.6482,-76.7794,7.4799,-142.1364
-3742.1875,-76.3281,-97.1755,127.0952,57.2428,108.2824,-8.3323,89.4400,-67.3930,29.3934,-65.2330,-32.3740,-47.6110,31.8088,-155.8725,-66.3389,53.1119,-18.7954,9.0661,-11.9960,50.5744
-3734.3750,-195.1205,-74.7575,7.2457,79.2957,62.1556,-15.7127,6.5231,-185.6298,-14.9344,-181.0249,104.4072,-41.7396,96.8386,-164.9400,35.5774,-101.2933,213.8912,172.0301,79.6206,-67.6175
-3726.5625,-108.4925,-20.9402,99.8320,131.7602,154.4464,-18.0923,136.0244,-91.4992,-31.8588,-47.4535,49.6235,5.8727,-29.7359,-143.6391,-17.0545,-43.3245,-86.0218,83.3825,-44.3745,-120.4389
-3718.7500,-242.7565,-50.0252,-11.4677,136.3389,42.8445,98.5041,-12.3665,56.7346,-67.6793,-43.7954,-25.0624,36.4701,-67.2256,-32.2657,-15.5603,32.7381,59.1531,157.8403,-75.2789,-9.1540
-3710.9375,-151.9342,-62.0268,54.3329,123.0292,108.3519,4.7866,53.3526,-96.9536,-0.3824,-122.0649,113.3749,17.3154,-0.5940,-38.7987,-21.9732,-47.1385,45.4614,74.4122,-19.0771,-162.7881
-3703.1250,-134.5571,-44.4920,100.7114,174.2815,80.4386,105.7252,25.6554,96.8978,-26.5182,2.2026,-60.6258,70.0095,-64.4023,9.2234,-230.8551,74.5224,-113.6986,55.5184,-73.3375,-4.8912
-3695.3125,-186.5932,-95.3774,10.6987,52.1434,64.1278,61.1408,-27.4466,-27.6576,-4.0483,-194.9590,105.9857,15.2687,31.4071,30.8505,-136.1447,-49.2293,184.7651,108.2359,49.9947,-56.3901
-3687.5000,-27.0655,-75.7329,179.2665,0.5585,195.3874,-27.8585,178.0261,-41.6908,-19.0207,-132.6024,53.1815,-18.2931,15.7868,-55.9964,-38.8748,-26.4767,-78.2075,-13.4954,32.8777,-107.3637
-3679.6875,-170.8493,-112.4042,18.5497,-3.3107,71.3562,95.2295,17.2083,93.9868,-30.2857,-68.5394,-32.9347,18.3578,-68.1445,79.8519,-85.9070,73.9764,-46.4951,88.4792,63.4551,65.3612
-3671.8750,-132.5544,-142.9861,-9.0643,-71.0770,116.4215,-34.8697,136.4953,-117.2409,53.5556,-166.3944,121.0630,-49.8629,50.0276,15.8019,33.1613,10.5097,25.3416,20.5693,137.1364,-71.8359
-3664.0625,-73.8462,-153.1741,45.7566,-81.4355,171.9156,-1.7440,155.2232,12.9192,36.8039,-70.8831,-6.5279,-55.4911,32.6077,-0.8611,-56.3888,178.4277,-196.4373,-25.9537,54.2116,58.3498
-3656.2500,-203.8040,-212.0328,-53.0612,-141.4426,71.7688,18.0520,18.2989,-11.5719,49.4083,-129.0530,76.2419,-95.1156,118.5454,11.8315,29.4035,81.6915,59.1451,159.8905,99.6316,33.8987
-3648.4375,-56.2607,-167.4062,70.6408,-98.9607,159.1396,-59.5411,142.8967,-32.5947,101.5348,-38.7698,89.5429,-100.5930,96.0028,-82.9852,44.7274,-13.5873,-144.7510,62.2325,71.5563,-98.0812
-3640.6250,-167.8709,-137.9492,-18.7850,-34.6254,31.3805,81.0470,-20.6273,135.2378,85.5277,-15.6550,-74.3115,-23.6304,42.3087,48.0486,-43.0958,118.9701,-150.8207,90.4217,-4.6719,106.7893
-3632.8125,-125.1547,-94.1674,-43.8593,-62.9531,6.9749,-27.3409,65.1988,-108.5870,62.8781,-146.2144,122.2008,-39.3709,129.9852,26.4395,44.4285,-13.1413,66.4904,27.9789,106.4604,-25.9985
-3625.0000,-6.5267,-44.5051,40.9985,-14.3952,54.4996,4.9376,148.9635,14.4725,2.1429,-20.8951,-14.3627,-3.2224,31.5821,1.7096,-17.1503,36.6277,-166.3063,5.4307,49.4911,23.0852
-3617.1875,-217.5615,-79.5148,-107.7805,20.5147,-57.6142,102.9710,-36.9137,86.8900,-36.2355,-20.2476,-16.5789,12.0563,-7.4660,37.3284,18.6138,-1.2610,43.2486,181.2398,118.8643,58.5256
-3609.3750,-84.0047,-85.9424,1.0518,-20.9837,49.8857,-15.0259,108.8272,12.8789,75.0025,18.9604,17.8354,-35.1235,-6.8953,-35.4598,55.9882,-36.5786,-68.5757,-1.3466,146.8386,-88.4561
-3601.5625,-98.4930,-99.4359,-61.1412,33.4694,-11.6410,101.9242,9.5418,172.8179,50.1967,70.1031,-117.7950,2.6950,-68.3736,12.7043,-40.6987,49.0536,-119.4747,53.0052,94.7515,107.5111
-3593.7500,-40.3965,-110.3469,-69.7263,-13.4922,-57.5613,24.9379,1.8595,-17.6560,44.9916,-118.1906,94.2017,-30.2008,34.7633,7.4694,63.2167,-139.7314,114.2557,76.9738,153.2667,-8.9202
-3585.9375,116.4683,-92.5256,94.4748,-32.7186,70.2958,-15.5831,128.9587,0.5928,62.5421,-60.7704,36.9772,-18.7190,-21.3295,25.9750,7.8896,-84.8017,-150.2637,-12.3092,28.5270,-27.6257
-3578.1250,-31.5340,-134.5703,-28.1564,-74.7859,-16.6883,42.8778,5.2132,25.0039,51.2328,-106.2243,23.8972,-26.6876,2.7295,87.6374,32.6973,-22.7219,16.3615,85.5767,54.9233,70.8263
-3570.3125,72.9476,-100.1374,49.7171,-111.3571,97.8390,-103.7850,120.9834,-153.1048,131.4278,-99.2197,138.3415,-75.2422,82.3084,-16.2061,113.0075,-126.1702,-19.4800,-21.0280,53.8255,-70.2424
-3562.5000,18.3357,-47.8193,-15.4812,-25.0321,-4.7027,22.8375,17.6888,38.6824,139.5345,20.6662,-75.3054,-3.2270,-19.2082,64.8365,11.2084,103.2687,-144.4397,-4.7414,-71.3844,121.5798
-3554.6875,-35.9922,-67.2236,-70.3673,-79.4148,-59.9368,-34.4322,-37.3096,-123.2310,86.9404,-103.1906,53.3640,-36.6788,146.5832,86.1806,178.7151,13.9945,80.9272,44.8587,-57.2912,31.7044
-3546.8750,146.3379,-57.9988,85.4315,-38.1606,21.5057,-81.1923,118.3766,-114.5224,96.0106,-55.4413,-12.2851,-39.3750,119.0361,22.1639,188.8850,24.3452,-158.0495,-88.9015,-155.5428,4.4501
-3539.0625,-31.7446,-25.1933,-34.1538,-5.3069,-98.4328,16.1114,-74.3218,-49.2028,87.6871,-61.1050,-94.3452,-6.1281,73.0849,49.7523,180.6368,52.2944,15.5595,48.9517,-123.1948,142.8018
-3531.2500,42.3508,13.7946,13.4644,-37.2668,-14.1604,-97.1085,47.1987,-183.6998,100.5771,-121.6058,62.8138,-41.1282,122.3447,-47.4585,193.5855,-81.5858,53.4047,-16.9794,-85.6297,-28.6639
-3523.4375,84.3054,22.6128,49.9651,6.6149,-13.0018,-6.8333,10.6097,0.6426,28.3322,28.7193,-10.1599,-9.6217,-22.5444,-44.8360,11.3826,67.3682,-149.9140,24.9273,-148.2179,119.7008
-3515.6250,9.0977,-17.7417,8.3251,-34.6573,-54.9879,5.2464,-67.1314,-40.1598,-48.0592,-82.1412,167.7338,-33.5752,45.4175,-49.3644,-28.9678,-81.8394,159.6303,124.6988,-48.9582,78.9196
-3507.8125,234.5028,-2.5124,212.3104,-21.3419,109.6474,-87.7166,134.7530,-94.3875,-27.8469,-98.4454,149.2650,-48.2797,66.0006,-139.3010,-45.7192,-171.4776,-1.2167,-71.9307,-71.0936,-11.2881
-3500.0000,181.6097,17.4043,113.0155,33.6681,12.0028,20.3084,0.3578,-6.9030,-50.9327,-120.0636,14.4935,8.1527,5.2801,-52.5394,-68.7888,-122.4168,51.6187,18.1424,-122.5354,148.2075
-3492.1875,209.2451,44.8501,39.2789,24.2220,9.9205,-75.4540,35.5173,-190.8792,-51.4667,-155.1770,196.2965,-17.0745,77.1216,-90.2332,-32.3074,-194.8338,149.0415,43.7863,-97.4188,-35.7588
-3484.3750,197.4939,68.8726,24.1795,118.3744,-5.5280,17.8997,20.3147,14.7284,-101.3895,16.2737,33.7221,33.8021,-47.4268,-67.3342,-155.2268,11.3312,-107.9484,68.0153,-248.7146,23.8534
-3476.5625,18.1257,66.2750,-53.5117,114.9249,-82.5639,60.4301,-129.4831,11.7412,-176.9149,-58.9020,103.5528,42.0516,23.4251,-33.0246,-120.7571,-65.1082,133.4668,169.6547,-217.6158,20.8773
-3468.7500,174.5478,47.4607,152.6102,95.2618,48.2219,-43.2388,74.5411,-76.4703,-155.6301,-108.3144,198.2095,5.2235,45.0945,-120.9222,-99.4772,-152.7776,42.6981,9.0971,-203.7111,-104.3205
-3460.9375,102.5130,48.1791,104.3011,129.1530,0.5857,76.5354,-45.8609,59.8773,-164.7910,-79.1920,39.4130,50.0341,-37.6898,-56.2785,-255.6507,-14.9053,41.4541,78.0882,-240.2619,106.0358
-3453.1250,76.7480,21.1683,9.2949,102.3397,-21.7428,-5.5452,-31.9590,-144.4818,-112.6523,-208.8204,163.9359,8.6575,86.8331,-78.3324,-93.5203,-109.7536,226.5470,87.4030,-126.5003,-25.3080
-3445.3125,148.8397,58.9818,46.1732,104.3722,14.8150,-2.6699,78.8368,-71.0079,-110.6592,-60.6488,16.3333,49.4886,-22.7815,-3.5480,-18.5466,-34.7748,-53.5100,19.5623,-229.8869,12.1762
-3437.5000,-21.3848,29.4726,-61.2314,74.1104,-55.9164,45.4742,-65.6604,-66.8219,-105.9682,-164.7985,18.4296,41.5148,17.2985,36.9422,59.1065,-31.1019,162.1324,129.4375,-190.5796,52.3713
-3429.6875,129.3809,75.9472,104.3773,48.8421,109.3673,-89.4898,99.8533,-195.6581,-87.2713,-181.9846,110.5562,2.6472,36.3931,-90.5726,4.7663,-47.4688,102.8031,-35.6831,-181.2641,-112.4529
-3421.8750,98.2521,81.5026,101.1148,89.6678,68.7778,51.2026,-14.4986,59.6072,-162.4608,-71.0876,-39.2103,57.2718,-75.4171,-19.9884,-180.4865,97.2474,1.5547,-30.7177,-175.8469,68.8194
-3414.0625,102.9458,51.8743,36.7040,23.3336,4.0458,-6.0256,-41.9931,-78.2796,-152.7944,-207.3803,151.8920,17.3991,43.6335,-9.5545,-133.8863,-40.2028,217.1892,9.1173,-102.5661,-32.0576
-3406.2500,266.8896,145.4639,206.5714,46.2448,63.5901,-59.1445,90.8004,-91.9380,-164.8686,-145.4593,174.2705,40.4514,-44.0514,-59.8906,-146.0215,-16.4199,-41.9283,-108.7981,-185.0305,-8.7151
-3398.4375,124.6153,144.8331,88.2500,79.9629,-91.0520,41.8482,-136.5964,-23.7762,-171.1466,-224.7523,129.4427,56.0176,-49.9422,-28.4205,-79.3744,50.1688,168.7451,-2.9024,-150.7042,131.4347
-3390.6250,184.7734,100.6290,158.3876,35.1234,-22.2290,-93.4011,6.4719,-211.1809,-101.9770,-299.6462,199.0913,-9.1503,56.6357,-106.4959,100.7222,-25.8196,158.9010,-153.5486,-56.9214,-18.9795
-3382.8125,135.5351,17.0003,99.1594,21.8861,-43.7692,5.0782,-14.8229,-11.9881,-11.2076,-99.9694,-6.6470,1.8038,-38.1764,-15.9875,7.3971,99.7749,-31.3562,-97.6063,-105.5405,143.2026
-3375.0000,1.5220,-10.4089,-72.8147,-8.0978,-143.0486,18.3147,-150.8687,-38.5424,-0.1957,-86.0825,150.8748,-9.7745,9.2723,31.7753,18.3089,-35.3885,150.6621,84.6054,-29.9059,44.6440
-3367.1875,107.2545,94.9109,6.9842,62.6587,-63.5520,-22.6359,1.8652,42.6251,7.5701,105.5067,46.1757,24.2517,-19.5181,-33.7150,-47.0075,9.1745,-165.5606,-20.4335,-99.5191,-95.1900
-3359.3750,-48.2744,78.9600,-88.4490,47.1705,-159.2843,99.2129,-129.6301,204.5561,-13.9157,84.8205,-85.7802,65.7248,-78.5640,91.5369,-68.5841,98.4864,-76.0461,34.2810,-46.3868,29.7345
-3351.5625,51.6299,5.4333,-13.4269,-62.8680,-47.5582,-47.6119,55.3328,-14.0771,63.0459,-95.4691,98.7485,-17.5063,-3.1433,20.2342,7.2820,-82.7804,60.9597,-110.5490,90.2082,-114.8984
-3343.7500,96.5956,14.9332,26.6798,-18.8545,28.2442,24.7413,58.3798,136.3284,-6.9425,19.2601,-9.6586,6.2750,-108.6725,-13.0202,-134.8104,-6.0118,-105.0001,-66.3361,-7.1462,35.5064
-3335.9375,-36.2704,-11.3852,-74.0133,-10.6380,-35.7499,42.3660,-79.3737,73.9466,-69.7425,-42.8373,74.1332,-15.0942,-26.0050,-39.0635,-87.7109,-32.0452,113.2515,83.1007,36.7015,9.1189
-3328.1250,96.0574,-18.5179,70.5103,-18.2263,71.4761,-43.2725,102.0966,33.7481,-71.3415,-6.7830,70.1523,-38.1606,7.8839,-77.9213,-16.4103,39.0899,-70.2815,-100.2607,-7.2447,-104.0939
-3320.3125,-35.4542,-44.5057,-38.7916,-9.6568,-38.1236,90.8597,-80.2627,181.7068,-105.7931,31.3930,-38.6784,9.4449,-63.0785,70.3609,-50.9816,187.3635,-26.6776,-21.4803,0.9519,80.8493
-3312.5000,47.2713,-32.2568,-19.8434,-31.8421,-56.4734,-10.8643,-25.3723,-19.0970,-86.9946,-95.2177,125.7597,-34.9378,-7.7816,-20.1059,4.6937,23.8748,197.2066,-43.4333,48.4055,-46.9635
-3304.6875,112.0486,33.0251,82.1785,68.0174,8.2541,46.2555,2.5991,119.1407,-130.1379,82.1973,6.2590,19.5964,-125.4247,-65.5327,-186.5802,89.4247,-54.8735,-14.3457,-28.0879,18.2567
-3296.8750,-117.2510,15.2227,-46.8424,49.8224,-84.0573,110.4824,-125.4723,138.3471,-147.3353,65.5300,-12.2969,40.6146,-107.1082,27.9959,-93.9114,71.9128,103.0015,179.7054,24.3769,0.4445
-3289.0625,-44.6616,-16.7131,38.0504,-18.4875,37.5529,-13.7943,69.3815,76.4328,-26.6304,114.7105,-1.9243,-17.6962,-22.8713,-34.5785,-9.3274,9.2689,-35.1952,6.6602,61.7588,-172.4857
-3281.2500,-97.0766,-32.6716,-26.0374,-0.7984,10.1865,90.4921,-31.7374,233.5232,-52.9211,125.8717,-138.5524,7.5271,-85.6391,12.8424,-107.7534,129.6299,-17.4160,-11.3896,44.1389,21.5879
-3273.4375,-36.5763,27.3004,5.8202,-10.1611,41.7735,6.3314,0.0893,7.5603,-56.2697,-172.0555,75.7800,-5.4435,-16.4464,-64.7797,-39.2396,-95.0656,255.3476,14.5315,104.4817,-93.3849
-3265.6250,160.2253,13.5523,175.0076,10.7731,136.6908,-28.0436,95.2541,-7.1173,-71.3226,-113.7286,59.4379,-4.6723,-68.9392,-80.1023,-91.4362,-36.4908,-5.5885,-69.2574,19.1291,-72.0771
-3257.8125,53.0646,11.8278,60.2546,9.7514,21.6724,28.4797,-93.5208,-11.7288,-75.3384,-152.3827,55.1477,19.1234,-36.3756,26.6324,-21.5977,-3.8649,133.5227,35.0096,17.8286,-2.7041
-3250.0000,173.6390,62.8286,120.2565,25.4637,82.4169,-98.0032,4.4632,-134.6099,-13.6028,-128.3298,115.6353,-20.0570,24.9592,-95.8880,114.0022,-53.5079,9.4125,-54.9662,-72.7069,-162.5975
-3242.1875,82.3626,112.9612,53.4300,74.3310,-22.6620,15.4387,-99.3764,55.6649,-79.7177,62.8558,-62.7284,23.4046,-78.5599,-89.2691,46.7423,63.9979,-116.5683,65.1992,-128.0968,27.6604
-3234.3750,-22.4441,78.5688,-50.9021,39.7001,-90.2419,-1.8569,-130.7210,-48.5503,-73.3375,-3.4912,52.4178,0.8417,1.4286,-83.1412,16.9765,-40.0128,129.9748,171.8784,12.0279,-76.5685
-3226.5625,99.8029,95.2057,79.8385,57.0987,3.2481,-32.3083,74.0157,8.2656,-15.8985,91.1777,-1.3588,18.7328,-88.5154,-98.9677,-35.7316,-56.0035,-134.4260,48.5956,-6.7817,-129.7670
-3218.7500,-71.1635,31.6202,-64.6097,97.2932,-104.4460,79.1377,-107.4355,121.8937,25.3375,94.6287,-72.3394,35.3421,-85.6613,-21.9867,4.3371,-53.1853,46.9656,160.1171,-0.7927,-53.1498
-3210.9375,53.2539,120.4129,37.3471,80.8764,-1.7264,-52.3438,-4.4771,-33.0947,17.9684,14.4369,66.1011,11.7246,-19.3797,-140.6073,33.7998,-207.9907,65.7915,73.0473,17.6110,-245.1418
-3203.1250,94.7248,198.2354,73.3788,158.4991,-2.9308,53.8050,-42.4349,149.9666,-56.3512,51.2727,-82.4061,97.0453,-94.0428,-67.1750,-114.6927,-61.7572,-103.3531,10.0146,-80.9306,-62.0882
-3195.3125,8.2655,111.1378,-52.5008,71.2113,-93.0337,46.1688,-132.2991,23.1466,-71.5802,-111.8138,85.1839,72.2360,37.3944,64.3717,-56.0872,-77.4236,127.6150,64.1025,7.6326,-77.9202
-3187.5000,128.2977,55.5196,76.1318,15.4156,35.3808,-27.3921,70.3579,4.8113,-52.3181,-55.4412,66.3026,34.9518,19.3525,46.4143,-36.9752,-22.6125,-68.9088,-96.3122,-13.2888,-133.2717
-3179.6875,-3.5837,29.9760,-31.1187,25.7179,-72.0864,77.3557,-73.8709,118.5929,-84.9643,-50.9885,-4.4880,49.0916,-13.5872,87.5577,-69.7750,55.3047,11.6519,19.3728,-3.1108,17.4933
-3171.8750,96.7085,95.6091,8.8267,-15.7946,4.6514,-58.4704,3.1013,-62.4328,-45.4200,-121.3758,144.9416,19.3810,63.6862,16.9091,43.6239,-125.5883,76.4471,-56.7293,26.2799,-163.5414
-3164.0625,139.9599,139.1716,48.7439,-6.3698,-29.6337,-0.0405,-30.9418,124.4832,-41.9287,66.1657,-36.6673,51.9353,-44.0823,57.2057,-27.0373,61.4577,-195.8190,-117.8962,-71.3678,-13.6345
-3156.2500,-33.2576,71.2651,-132.7905,-39.4065,-137.3610,57.3909,-175.4351,89.9645,-39.8943,-41.7673,38.2774,53.7370,31.7037,169.0635,11.8298,26.0469,18.4771,26.4992,37.5475,24.8379
-3148.4375,66.3689,31.1950,-23.4578,-44.6071,-28.2236,-25.2055,43.9401,15.2761,70.9944,-78.8901,37.0945,9.9937,31.3633,58.7708,48.5519,-47.5481,-92.3592,-49.2563,67.3279,-85.8596
-3140.6250,-90.7603,-55.6341,-83.8634,8.4397,-52.8271,119.3351,-17.4257,174.8555,47.1283,-64.7726,-170.8485,38.5349,-64.7279,108.7342,-11.4800,75.1102,-38.9725,39.2374,120.3511,73.7030
-3132.8125,-81.2180,-80.7874,-65.5853,-50.8279,-33.7337,16.1261,38.9051,10.1333,103.9569,-82.9876,-5.0790,-5.3156,-9.1046,91.4114,44.1956,-52.5359,78.1384,15.4407,166.0930,-91.0283
-3125.0000,-2.6256,33.0843,-23.2395,27.9391,8.4328,40.3128,81.3168,126.4590,73.8336,107.8186,-110.2438,60.0171,-113.4171,97.1289,-23.0832,26.8597,-229.7072,-46.3199,-1.1013,-11.7191
-3117.1875,-114.4524,-7.4698,-142.2940,20.2970,-110.7994,100.7227,-110.6703,117.4079,-9.6979,24.2098,-46.8144,60.8658,-85.1293,161.4575,4.2195,16.8564,9.0543,53.5266,62.3138,52.2093
-3109.3750,26.0151,-43.7397,10.9588,-14.0630,79.2771,-21.5772,116.6511,-22.3625,35.0623,-78.1367,-3.0604,7.4655,31.4784,59.0979,12.8233,-48.8685,-59.8596,-86.3248,63.0448,-87.5774
-3101.5625,-100.5641,-64.0701,-54.8194,34.5250,48.3200,113.8674,48.9351,130.8293,5.7605,-33.5387,-180.3622,62.3333,-33.9631,139.7007,-127.6332,67.3587,-115.8461,32.7583,5.7204,102.5904
-3093.7500,-139.2225,-66.4634,-90.6554,32.0549,14.3142,53.4340,15.1626,-51.0275,8.3932,-178.0264,4.2918,37.5026,41.5548,105.2628,-15.1415,-77.4767,127.1475,65.8063,73.3602,-5.2785
-3085.9375,14.0236,-52.9691,34.4251,45.4728,101.2337,19.5482,102.3151,-0.0013,-14.0807,-53.6558,-56.1315,26.4695,-18.0089,46.7200,-37.7505,10.5689,-104.9582,-61.2605,-18.0855,8.7401
-3078.1250,-177.2919,-105.0419,-94.0430,28.3313,8.6061,118.4126,-63.0797,91.4900,-68.1183,-34.8446,-74.1086,39.0305,-0.1188,138.6348,-54.9247,28.0738,90.3776,99.1285,35.9244,63.2282
-3070.3125,-94.5726,-93.0778,38.5377,6.2267,142.0324,-12.3601,107.5790,-32.9792,-45.1106,-49.0141,20.9851,-8.2046,60.8422,14.6011,3.9567,-95.3953,68.7847,-28.4230,48.9977,-134.2435
-3062.5000,-120.6551,-47.9244,38.3259,86.3223,142.6714,73.9510,70.4541,114.7619,-43.9101,61.0072,-162.7264,40.2026,-47.9938,14.7780,-67.9742,51.3365,-61.6370,-88.7817,-47.7325,86.4880
-3054.6875,-144.9185,-71.9383,-23.0520,26.2576,43.1491,14.2525,-27.8323,-93.6327,40.1291,-146.1459,-4.5933,-0.3763,73.0348,26.8273,16.9362,-46.0728,229.8072,-112.2785,69.4031,98.0885
-3046.8750,-71.8847,-174.6705,125.8764,-40.5298,155.9421,-62.5470,195.2004,-164.7442,153.4642,-144.0231,-39.1392,-55.4632,75.3857,-5.8242,56.1532,-7.1924,22.5547,-284.4874,107.8605,136.9769
-3039.0625,-373.0627,-298.6190,-9.3924,-94.5307,93.5429,50.2080,96.0407,-81.0293,165.5882,-133.1040,-175.8984,-66.4362,50.5361,78.3277,141.1580,39.4939,180.0885,-91.8918,194.1231,294.6848
-3031.2500,-368.4090,-294.7329,40.1812,-125.6945,143.9989,-55.2944,219.7282,-213.4751,179.5561,-155.3673,-88.7927,-120.7451,138.5571,-53.6653,192.0178,-92.9932,219.5037,-51.4375,234.2526,88.2407
-3023.4375,-324.4505,-250.5609,47.0713,-10.5696,148.7724,40.4009,188.7406,12.3773,147.8271,-3.3420,-267.3864,-73.1589,34.8884,-84.3600,51.1722,95.8210,-15.8002,-111.7030,173.6893,204.0960
-3015.6250,-392.2179,-283.1039,-95.7560,-78.1577,43.8373,33.3082,47.0404,-56.4553,153.3868,-35.0302,-152.6864,-95.9428,76.5272,-5.7357,128.6222,63.9418,198.2078,-38.6572,246.4425,172.2712
-3007.8125,-205.7351,-237.4117,29.6699,-103.5082,96.1603,-41.7555,172.6097,-41.0521,170.1908,90.4970,-137.7099,-103.0243,55.4331,-26.8559,108.3278,79.2824,-37.5215,-168.3606,186.4591,77.6837
-3000.0000,-288.5590,-178.0264,-98.1947,-44.1522,4.1897,95.2892,-29.1146,124.0664,78.6797,146.7120,-194.0433,-27.3101,1.0354,65.7317,-19.2861,98.3223,-12.5682,-38.3671,175.1776,242.8128
-2992.1875,-177.0006,-137.2548,-47.6726,-109.4115,54.6144,-31.1170,58.5523,-81.4143,92.5620,49.3044,-32.9669,-63.1916,52.0502,5.7357,-5.5070,-35.2449,98.8161,-66.9731,252.3169,73.3443
