Time,Fp1,Fp2,F3,F4,C3,C4,P3,P4,O1,O2,F7,F8,T7,T8,P7,P8,Fz,Cz,Pz,ref
-4000.0000,-5.9919,-15.3228,-44.8486,-4.1819,-21.2378,-34.7492,-3.6081,42.2824,-18.4129,6.2143,-16.2943,12.4400,12.2351,43.7512,33.0587,50.2704,-18.6856,-65.2550,4.0989,6.5316
-3992.1875,-12.3323,14.1686,-50.1449,-9.7570,-34.3484,-2.8704,-63.1489,-72.6527,-97.2800,1.7162,-26.9961,81.2194,7.7807,113.1009,-7.8646,83.6725,44.5916,32.1118,-72.4698,-34.8189
-3984.3750,7.6872,139.0167,3.9217,80.0169,-52.9993,88.3629,-90.7319,19.7593,-42.8030,56.5658,-19.1629,26.3528,-85.3333,58.8025,-136.4336,29.4349,-5.7846,14.8094,-88.6964,20.1759
-3976.5625,74.5912,100.7310,-2.1624,76.6343,3.6852,8.4333,-55.9366,-58.9838,-48.4803,-22.7465,15.7108,58.3302,-53.6092,-19.6584,-104.1504,-157.9604,201.7030,151.3552,-92.0713,52.0294
-3968.7500,180.6327,136.5642,149.8569,147.3438,17.3113,86.5982,-109.9058,-126.6442,-117.0541,-90.9638,118.8717,63.4051,25.2142,22.9709,-60.7577,-190.2641,166.2923,79.9981,-197.3529,-53.0322
-3960.9375,45.7124,141.4541,40.9241,187.0977,-14.9167,88.8137,-109.2100,-87.2470,-150.5683,-88.1222,22.1787,102.5213,-45.9150,63.6458,-95.3110,-39.5167,100.9134,84.6800,-155.5739,22.9583
-3953.1250,70.4053,130.9836,31.6331,141.4904,-16.2657,42.6739,-124.0529,-132.2022,-196.4248,-133.6354,25.6440,131.2960,-17.3912,128.9793,-29.2050,-10.1131,161.1978,108.0175,-201.1434,-22.4012
-3945.3125,68.1358,163.5664,100.3953,138.9354,-18.3956,111.5900,-124.7427,-25.1026,-201.2277,8.9115,43.6409,54.1248,-58.8266,88.3666,-107.0440,-13.6383,17.5220,33.3915,-134.6662,10.2807
-3937.5000,-18.0365,78.2476,6.2435,88.4781,4.5926,54.6026,-91.8530,30.1035,-146.9250,63.5589,6.8069,35.0516,-41.1733,70.8475,-234.7840,-69.0560,141.9502,157.8661,-45.0780,65.0752
-3929.6875,52.7055,147.8294,84.9963,157.9132,-43.1169,96.5149,-137.5677,-36.8039,-105.7285,32.0985,16.9595,77.8836,-108.6203,77.2247,-192.6141,-25.5708,71.2921,120.2478,-151.5988,-76.2376
-3921.8750,13.3098,178.2708,38.6054,188.1998,-34.7609,87.2783,-105.3538,28.1416,-78.6911,-50.5110,5.0835,69.5601,-81.2242,69.4489,-163.5830,3.7642,-39.5266,80.4737,-120.2735,25.3047
-3914.0625,20.9175,150.7093,8.2121,160.4828,0.9402,94.0379,-113.0983,-74.9193,-143.6564,-79.1247,26.6991,150.2492,0.1714,40.6684,-119.5536,-134.9065,38.6726,226.7077,-182.9455,32.8510
-3906.2500,17.5440,218.1564,3.8296,227.7704,-18.8779,162.7990,-123.7068,-40.9892,-147.6111,27.2667,26.2597,73.9407,-3.4438,37.8840,-122.5327,-137.5778,-36.1353,186.9323,-186.6256,29.3869
-3898.4375,-110.0254,125.4048,-59.7582,169.8515,29.4048,98.3533,-17.2406,-30.2576,-101.7557,-72.5456,-40.7182,9.4297,-30.2746,47.8906,-74.7095,-53.4511,82.8607,198.9627,-33.4949,112.7309
-3890.6250,-26.5887,32.6530,29.6563,76.9209,20.4547,78.9080,-39.4778,-86.5406,-121.8904,-92.3736,1.3942,64.9156,-13.1061,102.8871,-19.8691,74.6729,59.8706,105.0018,-56.3656,20.0629
-3882.8125,-21.6909,2.3595,-5.4759,11.4370,-4.6658,79.9221,-39.1244,63.6318,-119.5642,19.2644,-11.2492,-7.1586,-47.4991,106.3199,-90.5799,151.2487,-74.6877,38.4825,19.2244,95.8414
-3875.0000,-2.4899,21.3628,-22.3168,-74.7578,10.2353,26.2298,-49.0100,11.1054,-98.9310,-32.7894,5.8166,51.0679,9.4036,91.0380,-141.9889,63.1177,13.0652,127.2661,3.1217,79.9236
-3867.1875,-17.1733,111.4678,-1.0485,-55.8623,-36.1143,85.6370,-74.6547,34.6741,-78.1966,63.2630,-14.9376,37.4008,-41.5959,113.8544,-156.2862,50.0932,-108.0880,39.1392,-11.8910,29.0957
-3859.3750,-172.2598,61.1668,-94.1876,-35.3768,-0.7377,28.6427,33.7303,88.8523,12.1498,79.9209,-105.6200,17.3275,-96.9989,58.2638,-64.9768,-42.3221,-17.6473,93.6057,78.7048,119.8797
-3851.5625,-28.5406,29.6536,24.4726,2.9004,11.5464,37.4419,-19.7053,-48.1846,-14.6929,16.3673,-5.0000,64.0543,-14.5947,-4.5355,-17.8581,-142.9413,126.6114,60.8826,-58.9001,-17.5409
-3843.7500,120.5406,143.5032,104.4889,81.5329,-6.2647,43.5992,-81.0708,-77.8762,-82.1831,-86.8371,69.1599,-1.8739,-7.8499,3.0087,-47.3890,-24.2081,-5.7926,-37.4921,-121.1568,26.3823
-3835.9375,113.1265,135.8582,19.9999,37.6601,7.9699,-39.7510,-61.7430,-159.0692,-91.1672,-206.5505,52.4673,62.7002,56.3813,31.0380,17.5722,4.0193,91.3169,23.6434,-127.9038,53.8108
-3828.1250,104.2831,161.7661,86.0731,-6.6707,-7.5137,-11.5449,-84.6444,-202.7308,-62.5968,-139.7170,66.3104,55.8287,85.1549,61.6080,47.0852,70.8006,-59.0237,-56.6704,-172.1085,9.7771
-3820.3125,71.8394,94.0817,8.5476,-38.6045,13.9511,-51.9358,-27.7896,-95.9878,7.3784,-107.4785,35.4654,-57.6498,44.3212,-14.4355,-28.9920,67.9857,14.0222,-19.5858,-64.9084,153.1547
-3812.5000,192.5975,73.5925,99.2188,-25.3538,33.5135,-70.1324,-50.2207,-187.0530,-11.4461,-125.0476,96.3239,-2.9248,26.6945,-33.2901,-83.8566,-59.6342,168.2827,62.7150,-86.5083,61.7348
-3804.6875,220.5122,101.2607,128.0459,73.0436,0.7112,-6.1713,-46.1379,-156.9749,17.8888,-95.4610,90.1093,-10.0525,-54.7886,-40.0005,-90.5646,-102.1079,55.6833,-49.8387,-58.9572,54.4613
-3796.8750,156.2764,36.7716,57.7138,8.2845,56.6586,-111.3600,36.0239,-225.0458,59.0874,-201.0227,76.2590,-5.3331,60.5678,-106.8751,99.5800,-132.7396,131.9391,-9.5277,-52.5432,96.0456
-3789.0625,158.1032,38.3309,61.4372,-26.4327,38.0903,-71.4953,13.4285,-221.0742,26.3451,-160.5291,92.2108,-0.5675,137.9707,-66.7150,214.7801,-55.3304,-43.7512,-46.1641,-122.0752,26.6677
-3781.2500,8.6887,64.6422,-99.0883,-104.4120,10.1533,-47.8779,60.1337,-49.3454,86.3614,-63.2810,-2.8552,-49.0604,125.1156,-40.8214,164.7311,79.8303,-156.6991,-55.0514,10.1542,124.0420
-3773.4375,-13.9274,5.7487,-119.8111,-163.6023,19.7349,-69.4675,80.4710,-106.8274,139.1802,-48.2347,-7.0084,-33.7450,178.0618,-25.1394,182.4882,23.7861,-40.8310,-10.1236,22.1815,30.2124
-3765.6250,27.3154,-23.2854,-40.6696,-121.9432,1.0415,-26.1992,80.6201,-25.4707,183.8551,-3.3325,17.2882,-99.5832,111.8513,-53.6195,80.1012,32.6020,-105.1198,-145.3530,98.0523,1.2204
-3757.8125,-58.8484,-108.7217,-59.9343,-103.6851,42.5543,-118.3316,106.9595,-7.5112,127.1424,14.1702,-14.6833,-80.8263,93.2329,-71.5176,98.3107,14.0109,20.1990,-55.9713,117.5348,55.8380
-3750.0000,56.0973,-65.0592,26.9129,-96.3300,11.9887,-68.3585,44.3529,-65.4659,105.5334,65.7606,42.7491,-102.9685,107.7129,-56.3315,114.6227,29.5035,-42.3695,-85.4692,20.1119,-76.4557
-3742.1875,-5.0520,-91.4910,-41.3289,-87.0710,-13.8090,-63.4768,62.0278,51.4794,184.8306,145.2529,-9.7786,-133.2146,40.0825,-87.2627,46.8363,-0.1026,-104.0479,-111.0694,64.5941,3.1496
-3734.3750,-18.4549,-174.1833,-16.8223,-136.0743,27.2259,-75.8492,65.6554,-70.8380,135.8908,59.4882,-4.1346,-71.7081,64.2021,-61.4590,109.8076,-10.9583,58.0422,14.0961,15.8340,-45.4973
-3726.5625,70.2095,-86.8227,113.7516,-119.0334,9.5943,-18.1683,16.3288,-49.1152,83.0098,43.7698,46.3379,-124.1573,11.3677,-39.6210,57.8325,84.2275,-29.8186,-74.6885,-1.8729,-98.1087
-3718.7500,54.0273,-103.3161,91.4778,-99.8513,24.5824,-40.3341,29.9024,-33.2443,135.2915,-13.8025,40.9482,-108.4626,-9.3286,-97.6533,-72.9971,27.5468,59.4779,-57.3146,52.5889,-8.5653
-3710.9375,104.0573,-89.6082,108.4086,-86.4765,1.1877,-23.2940,21.5896,-89.1927,188.7767,3.8199,45.0682,-90.5636,-28.8267,-79.4997,-18.6213,-27.9444,37.9871,-79.7230,-3.7510,-64.8343
-3703.1250,29.6864,-92.2937,24.9458,-55.4996,-11.5113,-33.6463,86.4457,12.4606,179.8708,105.0541,-30.9724,-99.0667,-111.7326,-51.7589,83.3575,37.1707,-106.9189,-119.5412,97.5130,36.4934
-3695.3125,-26.5934,-184.8880,-34.4188,-147.4357,39.9055,-91.9071,140.0273,28.2149,121.0811,46.3920,-48.0460,-47.4687,-60.5429,-72.9359,173.4308,16.3796,12.2894,33.7489,146.8918,14.9250
-3687.5000,-8.6636,-132.2875,24.4350,-130.1812,1.9910,4.0362,91.4240,51.1594,70.5008,142.9344,-34.6647,-97.6728,-74.1529,-11.9261,196.7070,76.7870,-110.3067,-54.7597,94.4669,-72.4583
-3679.6875,-76.2820,-128.2353,-50.2593,-92.4825,13.9452,-34.5676,136.8784,87.5546,143.3748,104.9185,-65.9672,-134.4379,-75.3135,-49.4888,86.4422,-33.3586,-37.4572,-53.8059,202.4955,0.6157
-3671.8750,12.6530,-111.6373,9.6048,-110.2419,-16.8790,-47.6199,98.7777,1.4794,240.7977,92.4387,-32.3322,-73.6502,-87.9222,-61.5179,-36.2606,-81.9665,14.9615,-72.2764,185.0717,-122.7662
-3664.0625,5.8920,-82.7353,0.7784,-81.6969,-75.1994,-56.3539,86.6338,104.7001,306.5319,194.2654,-80.7002,-81.5665,-207.2436,-32.2627,-43.6587,20.7175,-168.3291,-150.4460,177.9466,-93.8534
-3656.2500,-49.1742,-139.1387,-95.3488,-173.4533,-41.8265,-79.3878,137.4933,82.6179,283.9788,135.7921,-115.5091,-66.7818,-155.8683,-17.3301,82.6376,36.0947,-47.9013,-30.8980,192.5291,-79.2327
-3648.4375,-8.1291,-63.4386,-14.3582,-133.1050,-46.1506,1.6895,105.9511,54.6203,218.5221,107.4179,-75.7386,-94.8929,-147.3935,-9.3093,91.0308,45.5639,-78.3677,-97.2374,163.1990,-144.5246
-3640.6250,-61.8351,-117.4825,-40.1095,-117.5071,-14.0333,-23.9779,120.0442,102.8704,156.3247,45.2946,-93.1366,-83.7639,-172.6748,2.9393,29.6726,57.2727,-26.5871,-47.3191,214.1308,-22.5619
-3632.8125,2.4592,-159.5414,31.1420,-88.9261,24.7550,-26.6494,98.9483,-45.8949,117.1508,-30.8332,-31.3418,-48.6385,-100.9562,-35.8358,102.3189,-17.0345,72.2108,86.6164,102.0764,-134.6077
-3625.0000,24.3159,-67.0495,51.9632,2.1959,-28.6038,68.2380,30.4141,49.8909,102.5362,101.6011,-22.3408,-62.9697,-153.6940,-50.0798,-22.4869,-141.7915,-82.4528,1.0940,53.5756,-113.1150
-3617.1875,4.4726,-16.2658,-9.9174,-53.3885,-12.8081,-30.5756,49.4815,25.9758,114.2249,3.3300,-43.8056,-14.0017,-142.1360,-75.0373,-82.9893,-201.2503,73.1933,15.8849,104.3884,-27.3165
-3609.3750,189.2894,133.1621,111.8660,-79.3265,-17.5311,-92.7322,25.8278,-109.3097,89.5667,-95.3006,42.0009,-38.3768,-92.9248,-62.3621,40.1730,-116.0650,11.4979,-117.6580,42.8451,-88.8856
-3601.5625,162.2045,139.6869,39.7581,-107.1687,-11.6137,-90.7794,55.0562,-33.4899,55.0294,-128.8226,6.5733,-73.6621,-127.6231,-60.6098,79.4294,-39.7833,-52.1082,-76.0965,84.4099,23.6455
-3593.7500,104.7128,46.8003,18.2501,-131.4198,8.0039,-39.2260,45.7423,-91.0776,33.1084,-114.7409,0.9173,-20.3470,-75.7204,-44.2777,59.2821,-22.9181,65.8999,41.0874,61.5819,-34.2242
-3585.9375,66.2209,42.9194,14.7534,-64.6731,-42.0056,31.3396,26.9296,-18.6731,68.1994,-5.6519,-15.4366,-22.0358,-77.8203,-8.9623,58.1427,48.9380,-113.1008,-104.7256,58.7490,-73.1068
-3578.1250,-23.3344,-47.0150,-44.7962,-119.9803,9.4758,-65.1431,92.9451,-4.3174,82.2460,-65.6158,-40.6958,-7.7772,-26.9679,5.2799,72.9544,-46.2564,42.8563,-54.5687,144.8778,-22.0356
-3570.3125,88.4097,-5.6585,75.9734,-78.9857,-11.0687,-18.3170,28.8076,-30.6809,56.5928,-18.2878,21.4288,-34.2185,-53.8099,15.8015,11.0698,-35.1681,14.1343,-84.0897,80.3018,-121.6811
-3562.5000,8.8143,-14.6504,-12.5840,-89.3317,-34.5180,41.1711,19.0045,102.6011,41.5972,114.6933,-30.7775,-85.0180,-105.0082,1.9519,-113.1734,61.5562,-101.9425,-23.9532,141.3707,-25.6784
-3554.6875,-48.7301,-72.5963,-34.0862,-112.6311,0.9541,18.7034,57.6211,44.9186,57.6564,19.7131,-53.0020,-31.7625,-89.1536,-18.8673,-23.3623,-31.6824,52.0498,93.2539,118.4860,-83.6223
-3546.8750,10.2836,-14.9857,64.9826,15.6158,-22.9585,81.7956,16.8003,34.7674,47.2666,46.2796,-7.9239,-5.9557,-99.7534,6.8439,4.0032,-152.3683,-101.4114,-25.9839,36.1470,-131.0279
-3539.0625,-49.0550,-3.7255,-3.2968,26.5059,-5.2082,13.5400,32.8579,41.2672,16.5393,15.5006,-42.5364,0.4944,-94.7076,-23.8184,11.0151,-145.4093,14.7746,-15.5618,46.4730,-14.7761
-3531.2500,72.1118,46.0273,89.9344,40.8824,0.0771,-4.2125,-28.0102,-85.7430,-73.6707,-37.7809,31.4856,20.4429,-38.1572,-3.9953,31.5281,-50.9740,65.4729,-1.6258,-43.6967,-105.0312
-3523.4375,81.2824,55.7747,95.1742,15.2511,18.1107,-34.9559,16.5686,-5.7493,6.1349,4.9528,45.4959,-83.6239,-31.6077,-71.1887,2.0441,-44.5451,-30.8441,-27.6886,36.1399,-25.2873
-3515.6250,74.8386,-21.0979,14.8114,-97.9876,48.7369,-79.2974,64.0187,-49.3592,109.3524,-38.9095,40.2072,-90.2942,34.3454,-115.0020,-4.0367,-160.7186,138.2539,104.6690,64.3873,-32.1402
-3507.8125,123.5048,26.1258,68.5646,-15.1276,-7.8739,11.4736,9.5135,-67.8811,90.6732,15.3315,36.3690,1.1352,-58.6025,-96.7321,-23.0112,-142.7989,45.4502,47.1418,7.7287,-124.9102
-3500.0000,-12.4821,30.6979,31.6733,94.0792,2.5776,12.6007,18.1233,-30.0523,17.3520,-20.0809,-30.9059,75.9114,-131.2041,-59.1316,-20.6480,-177.5353,84.9967,84.9781,11.4347,-50.3268
-3492.1875,43.6898,51.4152,129.9466,79.4261,10.3397,36.8773,-41.0398,-115.0950,-67.8179,-32.3573,20.5746,101.8434,-105.6499,-70.4030,-32.1384,-152.1421,139.7166,104.9859,-73.7092,-135.6043
-3484.3750,34.3732,41.6375,117.7412,34.2771,-2.9810,60.6675,-25.3865,56.3549,-42.4761,102.8663,30.2380,-57.7356,-81.5951,-157.1977,-80.1300,56.7408,-45.0712,-10.5081,22.6421,-74.3902
-3476.5625,-4.6997,-103.8992,36.7839,-111.6244,35.9124,17.7103,23.5914,87.0517,-11.8688,23.3404,26.0638,-64.0714,21.7109,-162.7691,-11.8688,124.8557,55.3993,54.2731,53.2542,-43.9187
-3468.7500,78.4784,-91.1953,89.0872,-99.2783,6.2417,106.0101,-9.7458,28.9882,3.0008,1.0730,53.8286,-12.1596,0.2689,-111.1050,3.6458,104.2147,-2.8798,-4.6745,-4.8880,-102.2123
-3460.9375,5.9949,-59.1520,42.7412,-32.5781,44.7392,59.6729,18.0486,57.2860,-42.7691,-7.8333,39.4957,16.0899,28.1772,-193.1109,-4.4961,21.9238,30.1755,27.7333,28.3290,35.8464
-3453.1250,41.2105,-23.4129,45.1030,2.8144,50.3423,26.0324,-18.1736,-49.7289,-149.8411,-41.0489,58.4777,93.0461,67.7971,-189.4333,36.0704,-47.6794,135.9440,96.8495,-41.7566,-34.3932
-3445.3125,57.9411,62.8345,97.9858,123.6969,37.8802,114.8939,-17.5196,3.7449,-133.4063,-24.7529,70.3368,-0.4975,10.9186,-210.2746,17.1427,6.2063,-23.7953,42.4602,-25.3437,-18.1334
-3437.5000,-10.0344,-6.6310,24.1670,54.8704,78.5241,41.0541,40.1645,-33.4841,-96.6525,-62.1524,39.8824,-0.7438,47.3388,-247.8377,17.5058,-30.6261,117.7771,148.3961,46.3871,18.4343
-3429.6875,32.0875,0.9863,109.4626,26.1496,64.1240,52.3291,24.5625,-57.6307,-10.7906,-12.4659,75.1591,11.1077,58.8663,-235.3179,-7.0281,-128.3723,55.4685,85.4570,18.2133,-79.9124
-3421.8750,19.9532,-12.6522,54.5227,-22.8113,46.2782,34.3727,37.5182,34.9741,45.8212,5.9676,45.4413,-6.2970,4.1433,-254.0612,-133.8172,-72.3749,6.9035,71.2750,110.7926,12.4915
-3414.0625,47.7199,-19.4083,49.4854,5.1192,51.5543,29.3155,0.4155,-79.5354,-31.6598,-108.7024,56.1889,63.2033,36.3236,-257.9214,-63.7081,-38.4919,140.2537,169.0142,-1.7181,-65.2080
-3406.2500,60.3920,61.7297,99.3634,121.9454,41.0110,116.1664,-1.2464,-66.1501,-55.2324,-95.4627,65.2139,39.5987,12.4051,-244.8933,60.2969,-24.7064,10.4977,109.6570,-60.3291,-89.0249
-3398.4375,-44.3460,-78.5388,-14.1562,86.3708,76.8072,75.6239,70.7765,4.8402,-21.2022,-61.6225,21.1608,0.5914,46.0862,-248.2738,57.8878,-64.3239,46.3460,214.9137,45.6663,-18.2377
-3390.6250,-66.9807,-136.7117,2.4410,27.8938,60.0840,130.1911,52.5753,21.9152,32.9257,29.3172,32.1645,-19.3118,100.8741,-231.5674,39.5791,-9.8645,-11.6918,191.2940,23.7552,-111.3626
-3382.8125,-166.8112,-61.0807,-69.1483,-1.7808,15.7127,131.5683,59.8977,171.7950,71.8630,105.0684,-43.0170,-53.4258,28.4577,-192.0811,-30.9328,66.3835,-111.9408,90.4764,99.6495,-35.6878
-3375.0000,-113.9965,27.1805,-87.0798,-19.8116,13.3417,39.5924,24.3735,80.3162,-18.5378,14.4640,-36.7640,76.1053,47.6934,-137.9702,-10.7957,13.2685,11.4809,143.3316,46.2015,-53.3606
-3367.1875,1.8275,107.4392,-38.9919,24.1654,-32.6781,87.6243,-28.3284,91.8207,-43.9353,98.8575,12.9488,50.6351,58.9386,-89.8732,-35.6601,61.1440,-155.0999,11.1939,20.7450,-79.0471
-3359.3750,-112.2567,-44.2071,-128.8039,-21.7561,21.6738,70.7645,62.8607,148.4322,12.7706,119.3609,-40.5587,-2.7399,42.2899,-105.6934,-15.4259,-28.8899,-94.5859,141.1678,116.3961,51.3725
-3351.5625,-126.1906,-127.7183,-66.4641,0.4643,40.2355,134.0570,49.7379,139.1834,-33.3643,109.0184,-24.8082,-11.9679,31.8077,-80.3823,12.9588,-37.7849,-36.9149,198.3157,68.1946,-32.0652
-3343.7500,-190.2702,-86.3798,-65.2649,75.5342,7.3526,172.2132,7.5301,214.7854,-68.6366,147.5374,-54.7237,-10.3532,-2.8239,-42.2360,15.1896,112.1663,-172.4054,97.3153,3.8403,43.3472
-3335.9375,-206.9513,-33.6472,-121.6592,57.0014,25.7409,77.7690,3.0875,83.7783,-51.5070,53.4539,-58.1957,42.6635,86.9429,-61.7028,31.8138,128.5113,-49.4763,149.7328,-49.1115,96.1652
-3328.1250,-123.5696,-21.8674,-106.9809,34.5230,-6.9264,92.3823,-2.2891,61.8046,36.6751,105.4144,-31.0404,57.7329,101.7624,-48.1241,10.4896,106.8930,-176.4891,57.2101,-36.0228,74.0159
-3320.3125,-190.5940,-89.4946,-181.6927,-68.3512,39.9007,17.6060,109.5745,97.4326,109.4660,-5.0285,-81.4464,20.3957,63.1798,-48.9543,10.7578,32.8560,-68.9054,129.3004,142.6819,146.4677
-3312.5000,-93.3190,-131.8381,-74.0964,-41.9302,53.0767,53.1345,58.6964,-13.6509,35.5559,-44.1845,-9.9858,56.3622,98.9129,-51.4986,47.3206,-78.8975,63.9988,156.7167,29.6858,-1.7889
-3304.6875,-78.0386,-48.1845,51.5181,113.4993,38.8522,67.6777,12.6490,38.2602,-23.3570,44.6681,14.6059,-39.6809,3.6487,-74.0544,-85.1239,-63.6496,8.8888,30.1314,44.6873,12.9483
-3296.8750,-92.2626,-29.0436,31.6281,62.4241,62.5897,-26.2789,12.3826,18.6707,-78.7684,-11.9776,7.6185,14.7670,20.8960,-92.1281,-66.0713,-80.9071,98.2842,84.0603,29.1987,67.1921
-3289.0625,-4.4841,95.0911,14.7454,80.3474,-11.5116,30.7685,-66.6828,2.0733,-95.1743,45.3823,16.7817,72.2140,41.1593,-0.2112,27.9865,48.8225,-94.3269,-3.9973,-127.2992,50.4232
-3281.2500,-104.6594,98.2785,-134.0915,49.3241,-23.1327,64.8742,-53.3600,73.5376,-133.5246,43.7984,-55.9934,105.7143,38.4736,70.7507,27.0843,156.5935,-124.8971,35.9987,-88.7405,194.7114
-3273.4375,-53.4369,-26.1409,-78.5230,-5.3014,8.6883,46.3824,-74.8379,-53.6149,-114.4753,-47.3966,0.7092,125.6241,131.1911,126.1067,45.5738,139.7541,-4.0416,85.4178,-177.7812,140.3976
-3265.6250,0.5486,-43.8090,11.8208,11.8289,3.1562,100.6476,-79.6970,0.9702,-59.6718,7.1633,45.5759,33.2747,111.6586,106.1999,-8.1905,120.6589,-126.4395,-37.4117,-160.0748,157.8245
-3257.8125,-87.1195,-96.1428,-45.4781,-41.6943,48.2756,7.2670,-6.6747,16.9055,-6.5056,23.0793,3.0759,13.2633,90.4814,49.6241,-65.6117,-9.1064,-3.4817,85.1265,-37.0122,210.6088
-3250.0000,-54.2270,-28.9354,31.7918,-9.6605,36.4119,10.4444,-12.0666,-52.6241,-2.7961,26.5397,12.6305,16.8015,58.8634,52.5917,12.5104,-41.3380,30.0384,48.2391,-74.4129,67.9315
-3242.1875,-137.8286,-7.2194,-22.4250,10.8870,47.9590,-6.8641,59.9272,39.3450,16.4046,9.4928,-34.5794,-0.1662,40.7492,34.0472,106.1237,-21.0798,-19.9450,-2.1436,16.6829,123.7563
-3234.3750,-116.3311,-58.4125,-34.5357,-39.4660,34.8410,-56.0734,14.7027,-8.6019,42.7122,34.5351,-15.8763,24.9645,102.7473,-14.4081,21.8366,40.2572,71.1908,53.5935,-33.1170,38.6801
-3226.5625,-23.3754,-0.1631,28.8196,18.6286,-31.6417,-29.8237,-67.5693,54.8948,32.4788,171.0302,7.3832,-59.4579,19.2024,-25.4178,-99.0106,140.0366,-82.2323,-29.2167,-80.4684,-8.9565
-3218.7500,-179.1824,-16.6808,-27.5820,37.9724,20.3702,-49.3183,-12.6510,72.6518,13.4972,41.7827,-43.3594,-41.6367,36.9153,-8.1845,-43.6134,11.0711,43.5872,60.2383,-60.5625,45.6666
-3210.9375,-253.0880,49.6985,81.9170,103.2184,56.0312,24.0928,-30.4873,-75.7002,-60.5908,-69.5650,-30.3222,68.0936,72.5398,27.9501,66.6777,-63.0048,110.3129,55.6073,-169.7690,-28.8199
-3203.1250,-353.0872,89.9874,82.3252,178.3717,64.3000,23.4145,-11.3146,-2.1525,-23.7766,-68.0042,-61.0154,31.7186,36.0656,26.9758,-42.1400,-25.1977,79.9276,-10.1269,-93.0754,81.5929
-3195.3125,-328.4873,7.8639,71.3385,132.1213,90.7800,-24.6693,-16.0127,-85.0168,-34.3567,-78.8547,-40.6791,94.9380,99.2042,89.5891,-16.3552,-108.8156,210.1608,84.7612,-139.7783,70.6088
-3187.5000,-237.9792,97.6373,130.2748,186.7804,42.8377,35.1559,-61.6991,-26.9905,-48.0403,16.1942,-3.8805,81.0546,84.2546,111.0929,7.3231,-86.5406,18.2960,-37.4488,-190.5908,19.5111
-3179.6875,-352.4794,52.4020,5.2158,141.4473,61.6912,-16.0131,2.6688,32.0392,-60.7266,2.2469,-74.3946,66.1693,70.3060,96.5965,-6.0123,-63.2715,43.4310,23.3481,-58.3964,115.4202
-3171.8750,-297.7252,36.4027,31.4140,19.3628,41.6513,-27.9313,-37.5703,-52.6943,-73.1595,27.5407,-47.9066,91.5387,132.6154,121.3495,19.8953,35.2329,62.8363,7.4149,-110.9543,-6.4306
-3164.0625,-286.9631,46.4039,2.6225,64.2880,5.9982,17.1659,-27.0500,66.5776,-27.5936,72.8403,-67.3998,26.8966,67.9279,129.1014,-45.2052,153.7337,-32.7717,-88.5212,-30.5188,38.7159
-3156.2500,-230.8067,-4.2005,-50.7698,84.6128,9.4019,-36.3401,-5.8134,13.2443,-43.6286,-17.4574,-83.5346,84.6512,14.6560,149.2418,-23.9093,64.6275,129.0301,-33.0409,-9.6816,59.2722
-3148.4375,-30.5426,161.2920,51.9557,144.0361,-50.4340,-7.7385,-92.9313,-32.0026,-88.5691,-25.6569,-13.4235,149.5100,-30.5044,177.4824,-68.5176,19.6142,13.9367,-183.4607,-89.7516,13.9182
-3140.6250,-61.3814,93.6784,-59.4167,76.3659,-2.1028,-45.2373,-2.9392,39.6484,-51.6117,-25.9664,-31.3033,74.2690,4.2425,101.6273,-68.2420,18.4976,16.7410,-38.9766,54.0940,122.4696
-3132.8125,-94.3656,-10.0985,-53.9325,8.5449,13.8554,-39.8818,-6.2893,-26.8596,-45.8020,16.5649,-21.9190,81.8790,84.8438,71.6202,11.8718,25.2053,54.4194,32.3799,-13.2093,18.8617
-3125.0000,-84.9932,68.4744,-11.0783,51.0864,-11.3423,-34.1626,-11.3028,15.9830,34.3619,22.4543,-18.5394,13.8262,54.7975,76.9596,18.3335,31.2428,-112.5673,-99.9155,-41.1673,61.5962
-3117.1875,-31.4805,15.1884,-67.0757,-2.2221,9.5767,-90.2935,19.0215,-77.0256,50.6774,-70.5043,-27.9709,29.9161,33.9168,55.4436,34.9445,-24.5805,80.5981,-13.0459,-22.9816,114.4905
-3109.3750,117.9915,24.8481,56.8842,42.4202,-13.2827,-40.4732,-27.0100,-136.0997,28.9382,-57.5172,42.8628,44.9578,12.0072,69.8741,50.5064,-48.4551,19.7122,-109.2184,-83.8629,18.3267
-3101.5625,71.6120,-57.3462,2.9970,30.2172,11.7616,-92.4984,31.4386,-79.0202,86.3473,-72.3772,27.2236,-7.8568,32.2571,52.4550,34.2070,-63.1774,7.9641,-120.2403,10.4073,112.3200
-3093.7500,171.9808,-133.8056,37.8587,-81.2347,22.9349,-131.7729,-5.0122,-155.2023,47.5048,-111.4998,76.8043,26.0843,67.2742,49.7910,-4.3496,-66.1744,107.9831,-21.4934,-30.5749,36.0630
-3085.9375,204.9573,-32.6592,71.3374,-50.0761,-11.5570,-26.4365,-54.9282,-49.7896,-29.7368,-43.0207,94.8477,-14.3821,26.8920,82.7274,-116.3150,40.4143,-71.4047,-60.1444,2.0353,32.3967
-3078.1250,92.0277,-74.4132,-12.0824,-57.8167,35.8656,-36.0006,16.8009,-22.2780,-38.8775,-87.4398,39.3520,-23.7597,17.6064,72.7607,-52.1929,-5.8994,62.3165,108.3150,64.7496,59.8407
-3070.3125,137.6050,-65.6767,78.0139,-13.0547,5.5062,53.9377,-13.7491,-42.2798,-21.5223,-72.3581,63.5407,29.3661,-3.1718,125.2985,37.4195,-62.7200,1.5525,12.2827,-31.0410,-71.2252
-3062.5000,117.3876,-51.7435,16.3162,1.9158,-23.5526,29.0838,-0.9936,42.9260,27.0342,12.9262,24.9375,4.6893,-64.7409,99.0430,-60.7761,-51.3457,-54.0206,-43.5580,54.3692,13.9085
-3054.6875,154.3175,-51.6754,-18.2300,-68.9629,-14.7616,-42.6246,-10.6253,-65.7263,29.7337,15.3510,48.9208,7.1633,47.8565,27.9402,16.1695,-48.8229,17.5763,-7.2394,-15.0705,-20.8087
-3046.8750,172.8546,-33.0048,1.8399,-86.2346,-45.1037,-22.7229,-30.5718,-8.7877,49.0289,145.3806,62.1551,-83.7706,68.0656,10.4397,36.7093,81.2899,-175.2339,-95.3204,-31.9224,-37.9353
-3039.0625,-4.5169,-104.2359,-76.9915,-87.4037,-18.7571,-64.7207,17.3122,23.2596,118.4256,104.5174,-21.8324,-51.6144,27.3807,42.0400,-41.6585,77.4791,-35.9448,9.7091,37.3311,31.0501
-3031.2500,102.8212,-69.7726,38.8798,-51.8669,-34.2001,-22.0138,-39.4021,-45.0033,87.5202,72.3422,31.1007,27.2441,-4.5900,83.3460,-35.3335,-64.6430,0.0507,-25.5478,-67.7252,-74.2712
-3023.4375,132.7591,-40.7058,31.3549,-21.7151,-26.8822,-30.6934,-9.7981,20.3365,43.2061,64.7718,44.7626,-54.2901,-11.9608,38.2632,-43.4264,-36.1597,-75.3683,-101.2045,32.8062,-8.9903
-3015.6250,151.2841,-94.0404,13.4239,-110.9568,15.5279,-85.7726,30.4836,-34.7264,25.4851,9.7926,57.6966,-109.2224,43.2780,19.7864,50.0725,-17.0840,47.8225,-13.2478,49.9349,-27.1011
-3007.8125,183.8155,-26.3716,48.5078,-8.1951,-27.6469,23.1497,-36.4168,37.1978,-49.2455,44.8100,74.2171,-110.1591,5.5356,54.3137,-24.4234,54.9818,-24.9909,-86.2957,12.0542,-65.2174
-3000.0000,108.2949,-32.7531,1.5394,21.5198,-18.5681,-23.9818,-36.3739,64.0732,-96.0293,-2.2314,31.6737,-10.1595,-41.2468,80.7939,-143.9773,44.9941,75.1410,-57.3916,77.1321,34.6289
-2992.1875,142.4292,-34.4934,78.2222,18.8831,-25.6749,-57.4636,-78.7544,-43.4157,-130.1668,1.3681,62.2697,66.4918,-1.3657,119.9393,-67.8892,11.6570,73.9354,-93.8255,-30.1472,-72.8816
-2984.3750,144.2709,37.4719,76.6170,20.9552,-31.3161,-59.2348,-61.4209,28.7997,-57.6048,-0.3191,60.5356,-8.1599,-1.7873,80.7914,4.8862,84.0121,-100.5843,-127.5707,-63.7307,-0.6960
-2976.5625,117.5559,-26.1211,48.4619,-42.5206,22.0814,-88.5574,-20.4741,-74.5344,-12.5938,-102.5587,58.7853,-0.3649,43.2494,52.0928,13.0983,17.7898,118.3622,21.1491,-55.8604,6.9514
-2968.7500,208.6943,-5.8694,183.1686,47.8548,22.1650,-26.0233,-41.7085,-160.0295,-23.7333,-114.9504,122.8152,-11.7229,31.1527,76.2559,2.1591,-30.5982,69.1592,-64.2781,-70.1446,-78.5626
-2960.9375,115.1274,5.6796,81.1734,94.5376,11.2688,-55.1847,-13.2735,-78.2140,-52.5715,-106.0421,49.8583,-3.7977,-33.6413,47.7248,-26.4910,14.3119,80.2443,-53.4037,11.8769,3.2296
-2953.1250,137.8595,-8.4730,71.4733,45.5176,-7.7756,-65.0522,-53.7571,-125.1101,-62.1114,-79.8408,65.0856,59.4312,29.8803,-0.5026,1.1490,40.5135,67.6479,-31.2198,-71.8064,-80.6824
-2945.3125,133.8999,21.6826,28.0862,75.8118,-41.7497,-34.6116,-55.8640,16.2889,-31.3580,60.6601,46.3623,-57.0414,-12.2957,-6.4237,-41.9184,71.0132,-113.6574,-35.7427,-41.1997,-50.3001
-2937.5000,59.4753,-53.6190,-87.7514,36.6619,-5.2910,-77.6226,6.6497,10.2348,-0.0556,18.7047,14.1292,-62.9634,55.0827,-49.7860,26.5550,-81.9404,23.5958,65.2910,-10.0392,-19.3597
-2929.6875,42.4566,-35.5215,-28.1783,89.9169,-10.8313,18.7683,-11.3848,-40.4263,-14.3583,4.1506,41.5715,-39.4890,115.8729,9.2644,86.4228,-132.5016,-63.7510,-22.2736,-62.4944,-107.0268
-2921.8750,-38.7601,-82.6173,-80.7994,42.9765,7.5449,2.9638,52.6655,16.7240,7.1289,-48.5996,-11.9317,-56.2311,62.4697,30.1228,71.0800,-75.2673,-39.3092,-33.0445,66.8452,-12.8833
-2914.0625,15.7708,-134.9716,-20.6690,-44.2136,4.1916,-11.0942,8.0001,-70.3877,30.3553,-61.6076,12.1260,-32.2283,49.8347,52.7354,-15.5159,-51.2954,119.9003,19.9500,14.9330,-99.9868
-2906.2500,100.0082,-16.6250,103.1770,38.3061,-27.3396,75.5584,-67.5745,-20.8051,6.2695,-11.9251,54.8630,-93.5207,-47.0917,65.0665,-150.4280,-38.6217,-8.2040,-37.3607,-42.2904,-87.3967
-2898.4375,45.3292,-1.1778,42.1097,53.9349,25.3419,14.3123,-14.8874,-9.1178,-54.7223,-110.1418,31.8289,-81.7094,-34.9145,3.5151,-100.2616,-99.8435,183.7919,48.4338,8.5895,-1.6947
-2890.6250,113.0006,-5.3776,117.3939,50.9215,37.2707,52.4208,-15.7551,-118.0842,-89.3709,-183.0046,76.9688,-42.5451,3.6191,41.3270,11.2479,-98.7344,145.1440,45.5857,-30.1902,-110.6510
-2882.8125,-4.7771,-53.0234,64.2374,72.4665,38.4039,73.0840,13.7480,-60.4921,-68.4723,-161.3092,24.5111,-21.8470,-11.2948,61.6909,-3.6992,-41.0906,98.0379,32.2767,27.5827,-53.0536
-2875.0000,-38.1138,-87.2283,69.5342,74.4567,55.6244,78.1881,-16.0706,-129.4553,-100.1323,-230.1771,31.1278,56.2982,30.2454,66.5166,-35.2050,-110.0023,240.4052,139.4346,-41.1866,-122.0046
-2867.1875,68.8072,18.8171,182.0986,109.7050,28.5822,80.5513,-78.8256,-127.1748,-171.5523,-154.7979,82.4650,-15.3067,-3.9614,68.6110,-33.4706,-70.6628,135.0182,34.8387,-110.7182,-156.7207
-2859.3750,34.4639,-51.3901,143.4032,75.7159,62.6499,3.6693,-11.6774,-93.1392,-100.2132,-120.6642,55.1078,-54.1622,-42.4122,28.4622,-72.0043,-147.5839,242.3774,105.9969,-4.4928,-85.6791
-2851.5625,49.8175,-72.8994,162.4064,89.4324,28.3233,60.4933,-46.1561,-147.4130,-7.1714,-100.8366,66.0139,1.6789,-23.1482,11.0216,-125.8511,-127.8146,186.4443,84.8634,-60.5788,-176.9443
-2843.7500,60.5208,113.9499,94.7647,135.5113,-17.2254,65.6719,-45.3576,-31.3316,-0.7820,-58.6545,31.4334,-29.1463,-90.5285,-57.0621,-156.3506,-122.7020,20.8495,-9.9313,-14.3230,-60.8557
-2835.9375,207.8691,154.4534,26.7730,35.2404,-2.0288,-38.5115,-29.8263,-99.6078,-68.7541,-126.8348,70.5255,-23.3276,-10.2464,-51.4900,-3.1922,-225.9512,97.9183,65.9303,-43.4226,-55.1067
-2828.1250,314.9269,189.6688,31.4937,36.6735,-55.8847,39.0091,-74.9710,-58.1948,-101.0328,-48.3191,111.5795,-55.8063,30.7408,-11.1994,37.6517,-112.5073,-112.3181,-38.5131,-77.8351,-124.6659
-2820.3125,165.2706,109.1880,-93.4909,-8.5832,-46.2843,24.8319,-14.5620,37.5289,-42.0164,-26.5052,29.5030,-107.9844,17.0230,-25.5921,23.7714,20.2355,-122.2608,22.3447,18.0645,-28.9157
-2812.5000,178.1589,122.2551,-74.9285,-66.2855,-72.1982,5.2051,-47.4495,-19.2114,12.5360,-45.1488,30.5149,-16.6017,34.8681,28.5805,4.4307,0.5219,-73.6397,-0.2335,-39.4944,-121.6194
-2804.6875,182.2410,160.5386,-38.1622,-62.7763,-99.6437,5.7899,-55.4985,54.2529,13.2732,28.4110,19.6201,-53.0283,-38.0788,64.9718,-31.7172,38.0131,-245.8350,-137.6206,-0.8621,-48.1238
-2796.8750,118.6137,26.1210,-107.0994,-126.9698,-62.2452,-26.3289,-16.5186,60.0265,18.3037,33.2631,-1.9479,-11.1638,4.2788,69.6708,-26.5680,5.8021,-133.7235,-24.7047,41.0734,-6.3166
-2789.0625,142.6464,48.3533,-80.3770,-68.5115,-98.6992,73.2041,-50.8510,85.4416,7.9748,95.7630,1.4043,-21.6529,-42.7039,96.0328,-73.7698,32.2367,-214.9658,-72.1387,28.6445,-53.8657
-2781.2500,56.4210,32.3441,-174.9101,-83.2930,-64.0544,51.4932,20.0878,173.6143,-14.6049,37.0110,-50.3003,-43.3989,-63.9344,74.1585,-21.2417,9.4134,-160.4646,-17.8255,118.9706,71.3448
-2773.4375,25.8313,35.9799,-131.7930,-81.4130,-42.8724,21.4327,-7.3740,70.4272,-81.5336,43.9014,-42.4295,-0.4884,-20.5109,79.9460,58.9182,16.2266,-87.2886,56.1549,16.9460,4.2016
-2765.6250,11.7361,92.1276,-110.1622,-60.0233,-88.1116,79.8824,-67.6492,164.7401,-95.9629,175.2938,-51.9170,-16.0846,-72.5895,101.2512,-66.4302,147.5440,-240.6345,7.6171,3.4113,25.5526
-2757.8125,4.8347,13.4758,-118.3464,-32.4393,-47.0205,33.5212,-37.1430,155.2593,-68.1944,129.8906,-48.2094,-25.4973,-80.4566,92.7607,-111.5771,28.0640,-37.7878,105.2752,31.0773,53.1234
-2750.0000,105.9312,78.8217,-8.5363,33.1395,-62.9857,70.1584,-74.9507,81.7791,-105.4300,129.4940,0.0296,-24.9132,-117.3102,92.2842,-112.7163,-8.4229,-76.9483,64.9374,-9.2625,-57.3072
-2742.1875,-49.6933,63.4729,-102.4287,18.0280,-69.8598,50.1056,-29.0380,171.6108,-52.3660,182.4034,-79.9376,-82.0324,-135.8667,35.1254,-131.5753,118.3948,-126.8195,14.8962,80.7032,32.5683
-2734.3750,-74.1276,-31.6778,-89.1191,-41.8811,-38.1416,-9.7522,6.8125,111.6322,35.8945,196.4965,-66.1104,-68.9505,-49.2177,-24.8230,-45.2533,94.3983,-11.4644,25.0669,55.8712,-27.3572
-2726.5625,-52.0540,-45.3119,-102.2880,-20.2807,-64.1672,13.8928,38.9464,172.1431,169.6476,256.0809,-61.6848,-155.3791,-25.0673,-38.2648,52.5650,80.8878,-165.6086,-94.2731,42.5265,-40.7917
-2718.7500,-95.3922,-56.3416,-150.8569,-66.0720,-35.2015,-36.8617,65.8649,121.2569,155.9911,132.2619,-91.4362,-95.2165,-38.3180,-15.0985,1.9736,67.9804,-35.1498,1.9897,102.7789,19.3862
-2710.9375,2.2117,41.5804,-45.4740,-2.9042,-76.5903,32.3401,-63.6002,80.3096,41.2730,91.3835,-40.9822,10.9003,-78.6068,54.0391,-112.6756,63.0283,-41.7407,-5.7939,-45.0354,-58.4915
-2703.1250,-20.6420,124.0621,-74.5396,44.8195,-89.9379,40.0940,-64.7437,160.9209,-24.8991,172.0613,-70.5445,17.5638,-143.3415,61.7443,-140.7788,33.6236,-98.7961,-64.0458,1.7062,59.1871
-2695.3125,-54.5529,54.4894,-108.6572,10.4846,-44.7878,-31.2110,-25.1413,53.4758,-22.1246,64.6804,-67.3533,57.1743,-31.1181,100.4095,8.0686,36.1592,42.1144,7.6566,-32.5993,24.8224
-2687.5000,-31.6123,111.7787,-82.9125,33.0073,-80.1789,-4.6609,-46.5413,78.8766,41.4952,90.1545,-52.3762,9.6266,-4.0419,126.9373,34.7498,98.5454,-76.1298,-110.7961,-80.0649,-22.6986
-2679.6875,-22.9387,118.8306,-116.4296,39.2917,-65.1817,-39.3602,-45.7611,81.0424,5.8637,18.3835,-50.7187,47.8242,-2.2254,55.2308,0.1563,63.6858,-33.6321,-103.4961,-71.7751,89.5429
-2671.8750,175.2212,247.3842,17.5502,27.0767,-61.5159,-51.5540,-105.5770,-77.2912,-115.2759,-65.8855,25.3035,146.5253,-49.9067,43.0370,24.0584,14.3159,24.3723,-115.6897,-154.9874,77.2785
-2664.0625,123.1657,229.7381,-2.6674,11.6645,-43.6507,-72.9401,-53.9713,-25.8141,-63.6174,-51.3463,2.7784,87.0168,-70.7837,57.6581,-33.2378,66.7416,-26.8442,-132.0968,-31.3917,165.8141
-2656.2500,-21.6064,-20.6158,-79.5988,-64.4532,22.1826,-76.0351,34.6971,-103.0348,6.3501,-128.5076,-28.6231,83.8054,35.6463,54.5888,36.7630,26.4622,109.2474,2.8002,33.5115,125.6567
-2648.4375,-6.1798,-6.7621,48.6688,-49.3685,9.1210,-21.9296,-9.1576,-84.0556,24.5246,-36.4636,17.8591,28.7889,55.2771,36.7307,54.9589,44.3909,-51.4709,-122.1087,-56.3953,70.6882
-2640.6250,-17.3710,16.5018,-5.6709,-60.8754,24.5624,-39.4223,6.1750,-29.6631,-29.9038,-91.0168,-7.3906,11.1608,1.3017,55.2812,0.5317,26.7337,7.2033,-63.6216,2.1014,199.1295
-2632.8125,58.8226,-12.8288,41.3933,-53.9821,24.6737,-64.5133,-2.7825,-128.8809,-18.9433,-154.1868,14.5763,94.9363,-24.2685,66.2475,11.4890,-35.5291,119.2948,-22.7207,-27.0102,99.9688
-2625.0000,58.8093,21.6478,41.2706,-54.2764,-0.9785,-28.7895,25.2456,-55.2957,53.8077,-80.5567,2.2023,20.5133,-60.0441,29.0310,11.2360,-0.0038,-21.8280,-128.0227,42.6713,99.6074
-2617.1875,-35.3255,-72.9717,-20.9622,-79.6614,45.0342,-90.1625,67.3316,-80.8077,65.4531,-69.0343,-16.6159,31.9876,24.0823,3.7236,58.8843,-61.5945,93.9574,21.5875,53.2538,74.1570
-2609.3750,12.2387,-61.8775,70.5132,-32.3385,31.1922,0.1671,12.7068,-101.6289,46.7884,-52.8165,41.2148,13.1587,78.9098,-14.8714,113.2295,-45.4901,-33.5543,-35.1062,-75.4714,-18.5988
-2601.5625,-67.3045,-35.8757,-53.1141,-7.1142,31.6317,-50.6041,55.9639,-41.5397,32.0179,-65.7068,-17.8403,-1.7847,65.6347,-65.5580,99.4684,-22.4785,-43.1689,-9.9100,20.7156,77.5562
-2593.7500,-53.1104,-22.1288,1.0089,-28.1472,45.7873,-70.6348,39.0368,-133.7100,12.9909,-85.8560,1.9541,53.0261,84.1176,-48.4832,80.4543,-42.7219,76.9806,5.0433,0.6529,21.4597
-2585.9375,-7.5752,22.9858,46.4903,17.1773,5.5737,-25.3051,7.7209,-16.5316,58.3118,32.3520,16.1332,-12.8124,18.9433,-40.0389,-21.2278,-33.6120,-53.5353,-125.6608,9.9293,66.7080
-2578.1250,-70.0135,-3.8421,-21.9857,-45.4363,35.8018,-93.9230,39.3485,-11.2971,61.6766,0.6054,-11.4127,28.3998,59.8150,-34.5372,20.1255,-66.4567,24.0029,-48.3105,17.2608,144.0242
-2570.3125,-0.0624,-5.2647,18.9455,-45.6472,-4.2639,-89.1392,7.8624,-44.6727,104.4346,78.2493,18.0420,33.0081,103.0931,6.3748,97.8829,48.0971,-81.0494,-153.5575,-53.0157,38.7343
-2562.5000,-78.7778,-84.3332,-65.7719,-89.5034,-13.6514,-101.0019,71.2360,53.3128,165.5531,102.2472,-57.1637,-52.0515,16.7180,-6.3594,84.9810,218.9974,-89.7661,-162.4645,79.0707,99.7979
-2554.6875,-54.7102,-129.6019,-74.6961,-100.5630,-0.0930,-109.0731,64.8333,-27.9023,194.4824,58.0490,-44.2007,12.6824,47.1425,-13.2941,114.8732,27.6862,40.3284,-33.5634,-2.0413,18.6608
-2546.8750,44.3530,3.1420,29.3866,33.3795,-3.9590,-6.1392,6.1586,1.8880,77.4091,87.8531,28.9415,5.4157,40.5650,-20.2162,107.7621,-125.6151,-72.5975,-75.6745,-80.1646,11.5210
-2539.0625,8.2430,1.7412,-11.6906,32.1775,36.5203,-46.3550,23.0516,-38.4636,-0.8293,-26.4995,15.3169,38.0013,36.8339,-60.2691,29.4964,-130.0573,103.3318,29.0669,-10.4344,81.2508
-2531.2500,105.2750,28.4886,132.3857,59.1240,24.8849,-13.4191,-23.0479,-116.6744,-40.9235,-140.7071,60.4141,70.7371,-39.7455,-27.1589,-47.6260,-24.3501,130.4244,-14.0350,-18.5575,-32.8751
-2523.4375,90.8451,48.7917,113.0192,44.6264,38.2051,3.0727,-8.7490,-26.3253,-96.4659,-123.3580,56.0210,-22.9963,-58.7849,-47.4938,-66.2164,28.9183,45.0582,5.4014,36.8812,57.5471
-2515.6250,36.6946,-75.6043,20.9511,-9.5700,58.9344,-15.1388,-0.4972,-80.6789,-114.7032,-104.7228,48.6884,32.5691,70.4678,-28.5254,24.4855,-26.5343,132.0121,93.1512,-17.3726,39.2699
-2507.8125,45.2369,2.7177,30.6000,68.9406,-6.9969,31.3573,-45.6251,1.6598,-70.2481,50.6090,32.5161,4.8442,6.4190,-18.8432,-40.1177,19.6909,-36.3375,-4.4053,-44.9350,11.6845
-2500.0000,-15.0922,11.1976,-72.6077,7.6092,-20.6746,-35.9931,2.2040,44.1563,-26.6467,56.0874,-42.1929,10.2635,-59.4853,23.9945,-69.5835,62.0707,-26.5399,4.1900,70.6596,91.2641
-2492.1875,10.4158,2.5218,-40.9620,-71.8741,-18.1446,-3.4955,-0.2125,3.4973,-31.1969,52.4106,-14.8435,6.5293,9.4644,20.6858,35.8019,94.3074,-34.8823,-4.3575,26.1018,-23.3085
-2484.3750,-26.8344,-34.8941,-82.0620,-38.1049,-14.9527,28.2546,23.3103,109.0950,0.5062,83.9910,-16.5324,-35.9735,41.6648,15.6270,30.4356,52.7981,-141.9938,-41.6695,59.7961,45.3712
-2476.5625,-66.1098,-109.3094,-87.1720,-78.3464,54.2846,-14.0028,82.0866,29.7012,-4.7895,-32.4313,-5.0435,-41.4777,110.8637,-26.4267,99.0655,-62.7132,28.8997,59.0210,89.4984,40.0628
-2468.7500,12.0564,-102.2609,-1.8310,-70.1318,26.9111,35.1929,60.9591,4.7536,7.3575,16.6005,19.7577,-66.5224,49.5097,-14.0150,74.1407,-14.7698,-32.7643,-37.8450,97.6425,-21.8002
-2460.9375,-64.1518,-142.5496,-48.8489,-110.2585,30.1409,24.0399,76.8079,104.4695,33.1570,42.2926,-30.7257,-75.9210,-34.2108,-24.9437,-83.1559,47.8269,-3.7837,25.9386,197.4495,77.9960
-2453.1250,-29.3770,-176.8401,-6.8668,-145.3873,29.5415,29.8892,67.1781,36.1847,38.9602,83.9768,-16.6502,1.6818,-28.9354,18.1341,-42.4540,16.4126,67.2070,61.7337,163.2591,-27.2131
-2445.3125,-22.2157,-100.7181,0.5186,-68.1076,-0.1378,73.1521,65.5924,116.3105,82.1668,91.0641,-21.1817,-102.3303,-58.2610,25.6135,1.6497,60.3979,-66.4223,-36.0788,135.4671,-20.0244
-2437.5000,-42.3845,-120.8997,-58.4064,-88.1318,25.4543,15.1149,81.1436,58.1450,61.0751,-4.1511,-36.6561,-50.6514,-42.8859,-33.2036,-20.5539,1.0851,89.6564,83.8147,150.3872,-5.1241
-2429.6875,85.1331,-28.3759,116.3766,4.5417,20.3485,4.7807,17.1171,-25.3283,13.6762,-13.6662,45.6968,-23.2631,-51.8151,-79.3112,6.9377,-8.5270,41.4343,0.4089,31.0066,-88.5327
-2421.8750,-18.8205,-27.2931,39.7044,6.7697,43.3384,-34.9979,63.0223,7.7626,10.8268,-54.6283,-4.2172,-27.3281,-55.2078,-82.8607,2.9737,-12.5855,43.7532,37.5496,103.1788,18.6178
-2414.0625,-31.7934,-111.2143,29.0303,-42.0028,41.5735,-7.7798,42.2797,-76.1525,36.9759,-64.5999,2.6020,35.6105,9.4001,-18.4071,-6.9853,-22.6413,101.0916,94.7005,54.3486,-65.2311
-2406.2500,-34.3715,-42.7183,-9.2313,-9.3621,-22.2231,62.8498,-0.2178,31.3332,71.5269,6.8333,-8.4696,-40.0635,7.4000,-20.5517,-46.5514,47.7049,-113.1811,-13.7581,16.9152,-67.6844
-2398.4375,-34.4671,-6.7169,-121.9974,-8.2201,-13.9017,23.9776,19.7501,29.3295,69.5817,-70.2262,-29.6938,-6.2482,41.8899,-60.2006,24.3618,-28.4604,-76.9436,92.2953,-17.0036,3.3758
-2390.6250,35.4750,27.3407,-45.7043,-9.0259,-30.0203,63.1557,-5.6495,-41.6267,71.6930,-30.2338,2.2011,-3.3836,44.4256,-19.7982,100.3182,-25.5772,-112.6556,21.4009,-87.8789,-67.5219
-2382.8125,-28.4546,-36.4435,-116.2661,-37.6811,-28.7136,28.4892,54.3516,70.5736,146.9582,7.9078,-41.1892,-39.3683,10.1044,-18.2395,28.4229,-24.5405,-140.2339,-42.3543,59.3987,44.7395
-2375.0000,-68.4629,-111.2800,-83.8862,-112.3930,29.0350,-11.2367,79.7118,-43.2805,107.1703,-32.0123,-32.7217,31.6025,44.7383,-20.7281,25.4808,-136.5534,-3.8522,93.8526,89.6336,4.9568
-2367.1875,-31.1752,-37.8059,31.8000,-3.8019,38.7038,66.3423,51.5530,-1.8325,1.6825,-27.6219,16.0298,-1.1337,12.6687,-52.9193,-7.1550,-169.2629,-36.1842,26.3517,92.1670,-27.5326
-2359.3750,-80.7121,-17.1265,15.6739,16.9863,70.4870,14.1234,87.8775,-18.1657,-14.6046,-117.0276,-16.3763,-54.6798,-40.2112,-105.9125,-23.5950,-112.7680,124.6792,117.0594,148.9118,-6.8084
-2351.5625,17.2831,46.1034,87.0974,9.3209,18.6378,48.4645,23.1645,-93.9490,19.6519,-119.8908,8.7543,-20.6739,-78.5440,-70.3423,-62.4966,-5.7183,48.0986,75.3255,71.2066,-119.5396
-2343.7500,-55.8413,78.2428,6.4215,42.5609,-8.4138,77.7172,30.6719,46.1766,85.8108,-16.8486,-34.2476,-64.7685,-85.9899,-77.8615,-70.5125,24.2337,-95.5969,37.4830,68.4102,-16.3675
-2335.9375,-234.8849,-30.5187,-34.1569,73.8957,63.1409,38.0623,69.9497,-31.6002,82.0692,-57.7120,-64.7649,5.2449,21.6553,-44.2812,-0.4305,-53.7153,76.8233,209.7436,29.7237,-20.0875
-2328.1250,-207.4333,-2.7783,107.7776,102.7245,46.6310,105.9038,6.2503,-36.8678,3.8422,-63.0774,-30.4452,35.7510,-20.2011,-12.2059,-5.8428,14.8385,34.7327,61.4810,-47.4534,-62.3113
-2320.3125,52.9459,116.9037,118.6517,81.4942,47.3788,6.6879,-6.2030,-63.1800,-59.4315,-161.4944,37.6421,-26.7961,-82.1168,-111.1739,-32.3031,-84.6587,154.5928,76.1755,-33.6632,22.4227
-2312.5000,335.5491,259.8384,163.7783,48.5123,15.4095,-22.2693,-47.0922,-202.2360,-50.4548,-191.6547,137.5747,-55.0997,-36.7873,-176.8852,12.4853,-187.8908,156.6929,78.1197,-101.6239,-116.6000
-2304.6875,150.5813,286.2304,154.3457,38.9795,26.0607,4.2288,4.7864,-101.8241,11.9723,-91.3541,90.5686,-139.9632,-10.0243,-187.1513,2.7110,-197.6500,-27.7695,-1.4925,-5.1236,-90.1602
-2296.8750,-265.5382,151.4724,86.7662,-24.7109,82.8505,-25.4289,60.2243,-95.5669,55.2542,-122.2157,-37.4316,-59.9784,69.5921,-69.5720,44.7866,-155.5703,84.6353,75.7538,1.2341,-83.8648
-2289.0625,-444.3708,148.0179,123.4939,42.9020,45.7070,48.2230,27.9851,-22.0105,55.8450,-11.7695,-99.8147,-23.6870,33.5006,4.3027,45.1586,28.7988,-24.6686,-33.7026,-37.1041,-157.2713
-2281.2500,-527.8814,100.9166,-4.4452,65.8673,38.5763,30.2224,66.5997,69.8944,73.7981,7.0181,-170.8610,-42.0393,-21.2459,-13.4663,-10.1120,83.5144,-0.6207,-9.8008,56.9152,-28.3228
-2273.4375,-448.8601,75.3747,44.1642,39.3767,58.5348,41.7730,23.7909,-27.6521,-23.7018,-54.6450,-120.0032,6.1644,27.5565,-1.6874,38.1902,95.7761,113.9705,69.6508,-39.5199,-89.8347
-2265.6250,-389.4626,135.2360,104.1680,99.2889,65.2523,64.7329,-3.4844,32.2197,-147.8006,-31.8927,-80.4134,-44.2526,14.7538,22.4817,97.8848,81.4341,-2.0436,23.5001,-85.5393,-29.9339
-2257.8125,-412.5387,76.6399,78.7253,111.7469,98.8212,39.2410,-9.9216,5.6414,-210.3510,-58.5897,-70.9747,76.8760,62.4894,33.1950,35.1070,18.6471,150.5207,105.9120,-72.9926,17.5190
-2250.0000,-289.1689,130.4902,175.7486,200.6549,38.8935,62.2027,-94.4131,-44.4820,-151.4404,2.1531,-24.0550,99.4477,12.6603,56.3693,-89.2300,5.3357,63.5306,18.7578,-159.9941,-69.5903
-2242.1875,-306.5088,113.6381,117.0731,184.8531,44.8790,4.4568,-40.1743,7.6999,-98.2258,-19.8097,-72.3228,78.3325,-81.8791,35.8471,-109.2602,-16.6689,82.8298,72.8960,-70.6927,19.6081
-2234.3750,-300.7009,84.9523,128.5493,120.2061,76.9355,14.8653,-0.5679,-91.9741,-50.8760,-156.6157,-61.2515,51.3891,-34.2663,9.4750,10.8557,-42.5390,194.2799,149.1953,-99.2563,-80.0468
-2226.5625,-249.5605,136.6391,147.3719,136.9279,39.2695,107.6385,9.4908,-0.2858,3.8230,8.9333,-52.3867,-40.2111,-89.3145,-44.5523,-44.6914,-24.0644,0.0761,60.8472,-12.4637,-98.3447
-2218.7500,-269.1381,81.6324,50.4941,81.9525,35.6740,47.7060,30.8817,50.6982,18.8241,96.7674,-80.5344,-26.5107,-75.0746,-104.2863,-67.9406,-84.2957,86.1969,75.8155,38.6379,-47.3406
-2210.9375,-173.3712,73.9761,119.9791,39.3344,-2.6476,43.1311,-36.7925,46.0338,-23.8248,164.9537,-35.6873,41.5340,-42.4990,-35.6750,0.1637,-16.1811,7.6645,-37.8671,-74.9038,-125.9941
-2203.1250,-252.3159,-5.3792,30.7655,-4.9792,-6.1144,27.8635,5.3869,177.6785,34.8264,223.4380,-76.9751,-11.1231,-21.6338,-13.7692,21.5635,79.2248,-71.5710,-117.2461,-13.1344,5.6636
-2195.3125,-244.9615,-138.4336,3.8530,-32.0000,36.4263,-36.1041,30.7359,76.6132,80.7701,122.2095,-47.1842,-1.4699,98.5364,-3.5609,68.2555,51.9456,77.4939,-38.3182,-40.0689,-21.3824
-2187.5000,-177.5735,-35.4279,38.9824,70.0208,-2.7612,35.9801,-18.1556,75.6089,42.7740,121.0391,-25.3094,-39.7696,60.7405,31.7015,29.9957,86.7409,-65.4218,-76.3497,-77.9402,-59.3688
-2179.6875,-179.6684,-0.8788,-38.3607,69.5734,-9.7495,-41.3944,-9.2913,108.1708,39.3510,43.4357,-65.4264,-7.5170,-16.5122,-8.4963,-84.7065,46.0694,39.2203,-6.8207,-8.2396,10.2057
-2171.8750,-28.5293,9.9225,51.5497,45.3742,-42.8696,11.4903,-80.4650,-22.0144,18.1845,22.0942,-9.4403,44.9790,-36.5151,7.5440,-106.1443,98.6341,15.1071,-31.0372,-102.2918,-83.9794
-2164.0625,-75.8486,68.2834,33.0082,68.7339,-37.5010,29.9292,-56.5861,69.3640,-0.4345,77.3017,-30.6483,-10.9787,-54.9806,-10.8750,-51.0454,152.7568,-137.4583,-78.7031,-79.7859,44.3940
-2156.2500,-102.0310,7.7951,-31.3856,-26.7639,11.6586,-34.4784,-38.4460,40.8897,-63.9025,11.6538,-20.7176,34.2285,63.6981,-2.1387,30.2009,125.0334,-21.8697,36.7876,-104.1266,89.9139
-2148.4375,-80.7274,65.8094,-8.2800,-4.7633,-15.5371,25.6192,-48.8133,27.9224,-40.8675,72.5103,-17.9015,20.9297,50.8732,59.0971,53.9581,111.8234,-139.8007,-46.2387,-116.9615,76.9360
-2140.6250,-125.5917,-14.3280,-131.3336,-13.9221,-8.4265,12.5558,15.2387,86.8072,19.0195,94.2125,-75.3267,7.4816,0.8974,45.1812,40.5601,60.4757,-113.8686,49.5970,-20.9340,172.8170
-2132.8125,-44.1068,-38.1081,-115.0282,-37.7240,-22.2365,27.8529,14.0893,67.0388,34.2495,148.2706,-44.3591,-14.6013,16.2503,24.6237,55.4977,2.4814,-102.5826,25.7888,-9.5610,79.0363
-2125.0000,0.0209,-27.2189,-144.0678,-97.8645,-40.4032,35.8067,29.8237,185.9325,42.1301,192.9845,-43.0821,-79.0302,-10.7720,-3.2908,27.0717,47.1288,-197.6458,-33.3737,70.4693,123.9130
-2117.1875,-50.8510,-77.3369,-158.0993,-147.0016,-13.9552,-50.2447,16.6134,134.8187,-7.9890,178.6887,-49.6812,15.5484,47.1997,18.7833,48.6435,32.7484,-71.6833,56.4738,21.4952,109.7930
-2109.3750,-2.4233,7.8521,-65.8193,-97.8324,-57.9846,5.0095,-47.1676,81.0048,-25.8083,234.6943,-25.9322,-1.5737,30.4647,39.1530,68.5160,162.6820,-162.4362,-69.3879,-69.1840,18.9756
-2101.5625,-97.4136,-16.3520,-168.9553,-52.0639,-48.2277,-25.1388,-3.9764,159.7980,16.9756,239.3008,-82.2798,-32.0967,0.3268,8.1142,1.0086,131.2255,-116.5933,-22.6328,11.7395,134.7719
-2093.7500,-38.7022,-27.8485,-102.3901,-27.6030,-16.8054,3.4197,-32.0260,79.2845,-27.5393,122.5986,-28.1603,-3.9151,28.8875,0.7681,-7.7922,13.4731,-22.0464,106.8286,-68.6338,54.2604
-2085.9375,-21.6010,25.0651,-48.4258,61.2642,-31.8845,58.3792,-40.9058,134.1777,-45.6593,140.2892,-18.4215,-23.3308,-26.1587,-18.1797,-26.2040,68.1264,-144.1040,18.6844,-50.5978,72.1584
-2078.1250,-84.9070,-71.4201,-113.8637,-2.2751,-0.0076,-8.0620,9.7769,67.6604,-2.1861,73.5716,-50.5055,20.8666,17.3904,-10.5264,16.9836,112.3882,3.4432,97.1510,-7.9579,79.6603
-2070.3125,51.4898,-40.1947,-2.6014,-5.1115,-6.1413,-5.7974,-6.8408,32.8545,-0.0054,38.5673,21.3009,-14.2317,19.6259,-8.1737,18.8650,76.3492,-34.3322,23.3012,-10.6122,-29.1390
-2062.5000,55.6703,-71.1780,-38.5641,-36.1569,8.8977,-4.7368,53.6314,70.8657,37.9885,2.3785,0.4303,-50.5352,-52.3385,-44.0310,-53.4417,-32.8884,4.6835,28.2525,134.5495,45.8779
-2054.6875,144.0383,-51.9672,-51.3361,-52.0162,0.6739,19.5202,24.4050,-52.9251,-11.8197,-47.6063,24.1293,10.3640,-29.0871,-19.6905,-30.5171,-82.9203,93.8966,117.4149,82.9076,-40.9121
-2046.8750,108.6475,19.5023,-49.8565,19.3791,-55.1337,57.0343,-1.3940,22.5432,-10.3804,63.6665,-3.9974,11.5195,-64.5971,18.8972,-29.3500,29.3065,-80.6540,-57.1766,84.5194,-39.4516
-2039.0625,0.5514,-52.7242,-127.0764,-52.9292,-43.9546,-58.1531,43.3628,91.3117,58.3628,96.2262,-60.7046,42.9805,-68.8120,13.7734,-106.9031,23.8336,24.1175,-59.4582,189.4299,29.3121
-2031.2500,68.3184,-89.0896,-14.4346,-89.3846,-56.0483,-54.4847,-5.4126,56.9146,60.9599,135.6307,-2.1507,45.2971,-29.1896,53.4996,-105.6069,63.2225,-48.2617,-131.8988,117.1812,-78.0827
-2023.4375,64.1891,-58.3463,-60.6924,-93.7318,-34.6116,-63.7178,14.9506,121.6255,15.6608,53.1301,0.4804,-37.2802,-1.4832,8.3183,-41.2262,91.7081,-121.5441,-100.2324,113.0391,23.6335
-2015.6250,75.2635,-81.3953,-46.7500,-116.8830,18.7073,-86.7490,18.4327,-11.4677,-81.4465,-81.1680,22.5100,13.3560,49.4182,22.3331,46.3616,31.3940,30.3804,52.6474,55.0875,0.5485
-2007.8125,94.6802,-25.0941,-24.4586,-25.6811,-29.2999,46.5708,-5.7073,10.7956,-59.2091,-22.1109,6.3113,-1.6603,-39.3242,44.6933,68.3367,16.4406,-90.3645,-32.1358,5.4833,-14.1806
-2000.0000,25.3848,-57.5020,-99.8776,10.8074,-8.4733,6.1816,16.5062,44.3555,-24.6631,-24.7580,-27.5860,31.6192,-40.7544,4.3392,-8.3756,12.7884,52.2026,39.3880,42.2008,93.3978
-1992.1875,115.6436,-2.3602,-1.7399,101.8484,-24.5537,69.3432,-92.4511,-40.5395,-145.5522,-36.8531,38.5964,93.4543,-16.6470,67.5266,-57.5540,1.6941,73.3179,60.4589,-112.5314,8.5126
-1984.3750,87.8522,75.7337,2.3451,144.8406,-10.3984,73.4537,-59.6686,0.5276,-141.4862,-31.9906,29.9678,24.2434,-47.6001,34.6539,-88.7924,-30.4562,10.3731,32.4834,-34.3033,86.5812
-1976.5625,75.1635,-42.0681,-44.4779,27.9288,17.8811,-10.3303,22.0926,-82.3058,-5.3284,-79.0296,11.4405,14.1430,-22.4531,-12.1225,-62.9147,-113.5174,139.5273,91.6173,60.0258,39.7405
-1968.7500,177.2233,-9.1131,66.4434,-10.2343,-26.4791,27.6434,-23.5949,-8.3721,-4.4152,31.6939,59.1564,-22.2019,-58.5688,-11.1423,-100.2919,-40.8102,-3.5853,-87.5203,57.1158,-33.3495
-1960.9375,161.4257,-59.0147,-26.4939,-25.2545,-16.1505,-29.2474,15.2974,45.7061,-60.3457,-25.4504,24.5696,-5.3902,-76.5306,42.9838,-81.5111,13.0703,52.4699,-66.5096,148.3711,57.7158
-1953.1250,241.1887,-83.3747,27.1327,-14.7189,-7.3881,-11.5841,-7.0804,-84.6798,-117.7363,-119.0477,69.9042,84.9775,-23.9426,59.6553,43.8228,29.4999,98.0766,-20.9416,53.1714,-72.6874
-1945.3125,209.7973,-79.8857,30.6100,-10.3204,-35.1897,27.9467,5.3284,28.8110,-4.2772,-42.7649,44.1012,14.1998,-95.5300,26.1665,-27.0111,68.7575,-38.4771,-87.5167,92.8197,-33.2340
-1937.5000,132.1541,-154.6458,-51.1675,-52.1685,-18.8719,-16.7762,33.9096,21.0454,61.9372,-13.7271,7.8198,43.1828,-66.3670,18.4234,-72.0833,-12.2509,60.7365,12.6665,122.2172,-4.0295
-1929.6875,118.4828,-63.4433,-23.9876,-30.0696,-62.4703,46.4404,1.8881,10.2204,88.1040,49.2512,-3.7501,32.1157,-76.2564,44.6272,-8.1807,-22.2933,-58.1117,-71.2248,38.5607,-87.8809
-1921.8750,-18.8791,-59.9371,-133.5104,-25.6830,-36.6244,10.9399,43.9260,84.6949,52.5744,13.5174,-58.5011,33.3462,-38.8504,9.1216,-7.9827,51.9861,-18.6549,3.1874,113.2169,-13.4213
-1914.0625,-33.8755,-108.0759,-32.6836,31.0503,14.9413,38.7940,20.4000,-34.4863,-30.5987,-68.8601,-8.2368,60.9348,25.8961,-0.0367,19.5594,-31.3714,143.1434,94.9543,30.2187,-132.6217
-1906.2500,58.1838,-51.1552,100.1812,157.8348,8.5563,97.6990,-40.6257,-12.6078,-44.7193,-47.1814,57.0144,8.5856,-25.3088,-15.1435,-68.8349,-82.6971,59.9731,46.7653,-53.7296,-110.7667
-1898.4375,59.5001,-47.9816,62.2964,160.8637,34.1092,-13.1642,-48.6143,-86.4919,-82.5947,-158.2765,54.4124,81.5033,10.7434,-15.0018,-32.9570,-120.7824,203.0676,119.8248,-121.4277,-37.6594
-1890.6250,127.1435,55.5033,173.7207,158.1918,12.6897,24.2754,-102.6713,-196.0878,-155.1776,-195.0710,82.8431,119.7239,-24.9112,-14.5602,4.2176,-9.5489,130.4522,47.1691,-193.8321,-110.2525
-1882.8125,96.0924,95.2926,100.4346,127.8120,5.7974,-11.9907,-59.6542,-121.3767,-117.4531,-156.5655,42.4854,82.2393,-62.2729,-50.8228,-32.3037,27.9952,65.1380,16.8167,-82.9209,0.4651
-1875.0000,139.1537,68.1773,110.2453,30.5189,21.5619,-39.1592,-36.4530,-148.5747,-34.6137,-183.9604,68.0085,91.8609,-15.5302,-3.9780,-22.7092,-110.3623,143.9198,24.5696,-74.9106,-26.7342
-1867.1875,166.9635,61.8120,101.7988,-11.0291,-8.8913,-10.5725,-23.3914,-47.0088,30.9787,-46.5940,68.9363,-26.7652,-24.0366,24.6126,5.6399,-81.9673,-39.5744,-87.9405,-46.1435,1.8148
-1859.3750,23.1246,-79.2051,-13.3109,-48.2303,20.0920,-51.6407,38.2082,-15.0928,62.9101,-14.8841,2.6054,-32.0296,7.8021,19.5510,37.3452,-13.2217,65.2907,-19.1006,22.9784,70.7176
-1851.5625,110.7619,-62.7647,47.0379,-30.9754,-4.3143,8.7385,-7.5868,-64.7361,13.2911,9.2719,35.9766,-7.8336,-4.9188,42.9396,97.5056,10.9848,11.5912,-1.8234,-64.4578,-52.9347
-1843.7500,75.3063,-27.4214,8.2776,-30.8228,-5.7897,6.0129,9.3022,6.5363,10.5735,-30.6586,11.4878,-10.7446,-44.7438,41.2305,-15.4346,45.1039,-23.2204,-0.6454,42.0113,18.3287
-1835.9375,150.8108,-21.1190,53.4499,-95.7311,24.1625,-58.7641,-14.3398,-132.2414,-54.1973,-168.6298,59.3476,71.3065,1.3923,13.4657,-43.4143,-56.8185,158.9155,74.4933,12.4269,-46.4620
-1828.1250,250.9871,79.8543,161.2623,-29.9890,-2.6385,11.1041,-56.9464,-135.3654,-20.3096,-172.9411,120.3260,-5.9834,-1.8256,-26.6503,-46.7327,-60.0898,47.6841,-70.7369,-62.5038,-86.6106
-1820.3125,183.4815,48.1330,49.3716,-26.9507,29.1517,-26.7379,22.8318,-99.2022,51.8890,-172.9709,73.7769,-43.9618,-3.7525,-101.4686,-11.7489,-134.0841,86.7714,38.3386,11.8679,22.5392
-1812.5000,182.6462,13.0650,54.1379,-26.2499,10.2327,-20.9301,3.9855,-131.4073,93.7279,-95.3552,67.2699,-38.2764,1.9686,-59.6370,29.8896,-93.4295,51.5107,109.0642,-58.1245,-82.6719
-1804.6875,67.1223,-30.6908,-31.7960,34.7574,-22.7612,40.1746,15.3035,40.6973,117.8577,2.5724,14.9809,-125.2916,-11.0113,-72.5156,-19.1696,4.5329,-133.4612,29.0840,3.1850,-21.5776
-1796.8750,50.9638,-12.1033,-51.3835,-16.8974,-0.4379,-53.3778,4.9150,-15.8541,25.3441,-90.1493,23.5326,-33.9494,80.3543,-55.0427,72.1277,-15.1505,-44.0730,-22.5380,-48.1546,32.8529
-1789.0625,185.6729,124.3370,52.8888,-90.7053,-22.4800,-95.0738,-23.1759,-58.5520,18.6848,12.9733,74.4053,-3.7554,73.5676,-60.7203,139.2755,-21.9744,-153.8557,-202.3219,-86.6489,63.1250
-1781.2500,119.8401,59.2239,-56.4018,-156.0720,2.7067,-168.3321,58.6808,-20.8038,129.4684,50.5370,17.1838,-2.0976,38.2332,-96.9474,65.8863,-94.3379,-78.1825,-91.6518,58.3027,173.8508
-1773.4375,87.3815,-43.5304,-13.3421,-83.0856,42.6138,-87.2400,65.3007,-123.7157,137.5965,-88.5449,38.9379,3.9220,81.2569,-88.8222,109.8583,-123.3391,64.8324,15.3618,-9.4102,70.9124
-1765.6250,22.3905,-35.8258,28.1593,27.3616,45.6177,26.3021,51.5419,-45.1733,68.1723,-121.1692,36.4745,-27.6089,48.7266,-47.2530,77.2791,-81.8748,-33.7148,-47.1886,-2.6729,112.4282
-1757.8125,24.0178,-139.5119,-41.7434,-39.5838,58.6342,-43.5598,88.6134,-117.0378,70.3425,-156.2048,12.4437,47.4755,50.7966,-45.0933,79.3143,-116.8338,72.3523,23.8696,69.6535,114.5485
-1750.0000,68.6271,-130.2254,10.3138,-66.5734,6.0466,-28.4732,42.5825,-101.9531,86.4551,-67.2801,22.7215,27.5200,30.8156,7.0131,59.3009,9.1440,-22.6440,-72.1341,44.9245,-16.3822
-1742.1875,-33.4902,-125.6862,-62.3911,-62.3198,-11.9292,-28.1486,25.5101,9.3819,50.8192,-66.0976,-32.8686,27.8183,-5.9228,81.3601,-50.4710,83.3950,-19.3871,-67.8905,84.4523,57.9451
-1734.3750,-9.1326,-101.6933,3.3598,-73.6218,12.1016,1.6204,-8.1243,-71.8498,-30.3708,-74.4702,2.2667,93.5806,23.7878,110.1542,-21.7754,-34.8779,75.3277,26.8016,3.4194,-23.2944
-1726.5625,22.9985,2.0663,35.8561,-41.1587,-17.5926,34.1428,-3.0875,34.6726,2.1829,31.9075,-1.1703,16.1046,-54.7588,69.7008,-26.3186,-39.4041,-68.2199,-81.7633,36.1276,9.2120
-1718.7500,-28.7474,-119.0656,16.4429,-90.5852,34.7838,-58.2400,62.5089,15.2867,56.8291,-24.6227,-24.5136,-3.2531,-72.1977,-23.6586,-8.7592,-57.8501,92.3413,7.7787,90.9258,63.8171
-1710.9375,50.7417,-74.9955,104.2401,-11.8117,19.2774,-44.4274,7.4133,-80.9147,34.6799,-46.9567,35.1086,11.5853,-22.4280,-8.8384,6.0151,-44.0882,31.0929,-52.5023,-5.0858,-32.3863
-1703.1250,-34.8557,-54.0266,10.9316,7.8470,15.0844,-27.7361,34.1774,46.7830,14.4386,43.6013,-5.7490,-8.6808,-5.7502,-29.1393,22.7118,-27.4108,-54.2612,-67.8876,50.8074,58.3168
-1695.3125,-38.5270,-126.1432,-64.4885,-65.5933,22.7525,-66.1524,37.1307,8.3742,50.0878,79.0611,1.0257,-10.0263,103.8382,-67.5361,58.3178,-28.8158,-22.7241,34.6308,12.5838,19.9050
-1687.5000,-6.4740,-59.5288,-68.2189,-68.3194,-29.3697,3.1404,11.5974,77.6755,119.4284,184.2398,-8.3383,-51.6535,62.1192,-71.2233,53.6149,40.4904,-165.5126,-74.1598,-25.9552,52.1911
-1679.6875,-29.3038,-47.8090,-96.8636,-91.9421,-20.6117,-61.4690,13.7657,48.0758,89.8681,155.5221,-47.0979,-6.1703,-2.5035,-62.8159,25.0107,84.8885,-13.1935,-26.8370,-13.3876,133.5790
-1671.8750,81.9931,-4.9891,26.5953,-50.4663,-33.0655,-48.9740,-32.2107,-48.4225,67.4017,94.9149,3.8127,44.4227,-27.0309,23.6965,75.5161,62.3818,28.2165,-56.4176,-112.7268,0.0482
-1664.0625,15.0042,-2.4594,27.7514,-12.2867,-11.8822,-10.7853,37.6576,26.7894,105.6264,60.0154,-26.9387,8.7188,-97.8614,61.9077,39.7282,-10.4170,-39.6808,-53.3072,31.6326,38.2192
-1656.2500,-0.5542,-87.5153,14.3102,-62.6948,32.4434,-24.1934,36.7644,-23.6061,55.2402,-64.4707,1.0336,68.4275,-2.2856,48.5195,26.3488,-60.8024,120.8044,72.1914,16.3656,-12.2220
-1648.4375,39.7506,-45.7094,94.7025,13.7460,-3.9327,56.2398,-18.6647,-16.1437,-11.2916,16.8991,28.8125,2.9911,-31.8611,54.9820,-3.1759,56.6795,-48.8805,-62.4672,-13.0473,-41.8022
-1640.6250,-12.3221,-96.3049,-37.3235,-38.2278,6.9510,-1.7333,25.3060,35.9094,-33.2209,31.8614,-5.5515,-55.8266,20.1759,-2.9524,11.9219,109.7654,-30.9657,-44.5168,76.1301,47.2111
-1632.8125,0.4807,-85.0448,-56.5023,-60.3440,-12.9337,-20.8515,1.1225,16.8107,-15.2981,85.6817,9.8866,-37.7914,111.0636,14.9657,102.8762,89.7088,-124.2165,-31.7266,-16.8494,-45.9363
-1625.0000,-46.4512,9.4601,-182.4344,-37.2099,-72.1799,-0.7307,-0.0873,183.9599,4.8724,142.7481,-56.3582,19.4964,58.2019,72.1250,50.0793,110.8942,-240.2033,-112.6816,42.4288,48.1632
-1617.1875,-77.1979,14.1227,-215.2060,-67.9202,-57.1800,-33.4685,-0.6702,78.2476,-27.8072,36.9669,-91.4153,133.9396,25.4931,113.4280,17.4412,115.2245,-26.0435,-4.4956,46.8437,52.3923
-1609.3750,35.4247,92.1563,-58.6388,-25.2723,-66.9202,-22.8593,-24.3066,14.8948,-17.1432,83.5476,-38.2985,70.7395,-37.8724,86.0765,28.1600,161.9128,-89.5531,-102.9694,18.6084,-11.0278
-1601.5625,-11.6334,10.4997,-73.7863,-71.3236,-26.7426,-38.9607,37.3153,71.8321,76.8108,141.4251,-50.5158,-19.1421,-52.9329,-3.9715,11.1933,71.9094,-64.7565,-44.1349,77.6613,82.8451
-1593.7500,76.1928,-6.2935,20.9169,-19.5166,-5.9300,-17.2073,-25.9712,-16.3861,-11.3952,89.1534,16.4991,3.8372,-32.1380,18.8379,-2.9087,20.7760,21.8703,78.5319,-46.4588,-5.4427
-1585.9375,118.2905,141.1642,62.8567,92.5399,-16.6269,61.7907,-66.6980,25.6490,-115.3560,21.1342,44.0344,-27.9252,-63.0866,-13.1014,-34.7601,25.9022,-42.2631,15.4479,-74.3351,36.5292
-1578.1250,94.7722,117.9777,37.1471,68.9473,33.8391,-0.8645,-3.7640,-72.9796,-67.9734,-77.5305,41.5615,-16.3271,-15.6802,-38.6873,13.7375,-72.6175,109.9519,96.7146,-27.8813,47.8397
-1570.3125,157.3768,109.9047,105.5334,25.4632,5.0533,31.5803,-27.0127,-78.5071,0.5020,-46.0947,73.1091,-20.6231,-20.1772,-6.1666,-27.6471,-41.0373,-3.7495,18.0706,-35.3330,-30.7464
-1562.5000,22.3967,11.2338,-39.6923,-3.6236,-0.2865,32.4173,11.2861,70.3549,1.3738,28.7299,-2.2934,-55.5014,-18.2620,-5.2431,-25.6103,107.9391,-103.0417,59.8306,40.6095,81.0668
-1554.6875,21.0082,45.1227,-112.3673,-5.1589,-48.0375,33.8013,-61.5516,34.7612,-71.2072,30.1216,-21.9748,56.1768,19.2046,70.2303,-25.0207,108.4858,-70.8043,92.1265,-66.9113,8.4185
-1546.8750,67.1525,197.5129,-101.5592,40.8029,-97.5217,81.6725,-81.6461,82.6794,-60.2853,114.0284,-26.4363,30.3522,-43.8293,44.2016,-50.9340,46.5469,-200.0808,-38.0818,-55.9321,19.2722
-1539.0625,43.1820,137.7572,-128.9062,-19.3891,-26.9166,-20.6111,0.4085,17.4359,-14.5224,12.7883,-26.3582,2.3901,1.9940,-20.9752,32.0229,-90.5394,-49.5111,78.5622,-10.1227,64.9585
-1531.2500,106.7335,166.5185,15.2427,43.9281,-24.0820,14.6055,-50.3726,-21.3026,-53.2635,11.0530,46.4006,0.9300,37.3141,-59.6566,30.4856,-57.1101,-56.4620,0.6916,-87.8203,-47.8597
-1523.4375,11.0001,140.9787,-15.9198,88.9441,-27.3843,20.5110,-35.9819,58.6489,-83.3085,54.0114,-5.0375,7.1801,-30.6608,-16.6381,-37.3456,-13.9765,-82.6997,-25.4707,-7.8247,32.0216
-1515.6250,38.5533,63.7020,-19.8244,46.2197,-15.3306,-20.3328,-27.4853,-19.1593,-51.1075,-23.7748,-4.4886,76.6904,-34.3808,16.6340,-40.9169,-54.5885,85.3026,72.6061,-14.6054,-45.8629
-1507.8125,98.5249,123.8352,5.6631,105.9128,-67.9640,78.2198,-73.4898,79.4378,-62.5106,37.8406,9.5756,-7.3933,-82.7038,41.3056,-52.0825,8.1961,-66.3043,-43.9199,-60.9930,-57.3404
-1500.0000,28.3197,123.7754,-73.0518,70.4061,-30.0573,-0.4369,-34.3156,74.8189,-67.1241,70.2555,-12.6969,-12.6617,-14.2165,-37.2212,-20.4329,39.7755,2.8916,26.3597,-26.6017,47.9717
-1492.1875,85.0325,146.6292,27.1337,21.8023,-33.4684,26.8075,-72.6315,-8.8976,-114.8415,59.5844,31.2658,50.9723,13.1797,-9.8479,7.1227,66.2717,24.9631,-57.4710,-75.3253,-35.8242
-1484.3750,42.2482,137.9736,-22.1970,48.6976,-27.2882,-22.4557,-28.1811,15.8873,-125.0598,-25.5813,5.1833,77.1080,1.0840,52.0248,-77.8090,128.2799,-19.4605,-101.7902,92.4466,25.8790
-1476.5625,70.2912,61.1334,-25.7212,6.4056,-6.2384,-25.9193,-5.1336,-24.5384,-93.4878,-102.9423,4.5519,110.0601,-39.2121,47.7079,-118.9328,-21.9044,184.9083,31.6710,120.9903,-51.6348
-1468.7500,116.5113,107.4620,97.8987,87.2763,-15.8179,60.7621,-0.1358,25.1897,-42.7722,-16.1530,39.5491,13.1697,-99.3635,24.5465,-67.9071,-118.9321,18.4158,-63.7294,95.6780,-111.9933
-1460.9375,9.0036,70.0401,16.7589,49.3982,11.9246,16.6888,27.4250,55.1603,-13.8208,13.8908,5.2998,-30.4552,-33.2583,-19.3632,-1.6243,-125.7030,16.1834,4.1303,57.6053,-9.1118
-1453.1250,83.1133,73.2315,22.2198,17.1317,-1.0742,-13.7829,-27.9604,-49.2621,-44.2770,-16.4505,53.0730,12.5263,83.4523,-49.6683,78.2645,-45.8605,-16.4767,6.5768,-79.8829,-76.6413
-1445.3125,53.3300,79.5295,-12.2375,22.9666,-17.4799,-12.1639,-28.3198,26.4187,-42.6366,22.3121,38.1219,-21.3857,86.2683,-47.8727,44.2593,67.0919,-151.0375,-58.8702,-40.2782,-1.0659
-1437.5000,22.8242,-21.9065,-82.4441,-7.9410,16.4144,-45.2933,-4.2804,-43.6593,-38.7582,-84.6684,35.5608,56.9658,163.3353,-6.8228,48.5133,-76.6967,-7.3544,50.9301,-36.4473,2.7443
-1429.6875,82.6799,73.0227,19.6907,50.5196,-9.8064,19.9276,-31.4195,-51.3820,-9.5316,-55.2893,56.3509,11.6716,81.7517,-14.4203,40.1286,-121.1275,-89.3390,4.0666,-82.2759,-79.0927
-1421.8750,10.9538,107.3481,-23.7829,14.3833,-8.1543,-23.4664,2.2706,-21.7183,20.0972,-25.5118,-15.1500,-68.2105,-35.4246,-58.6188,-2.8374,-54.1619,-21.9118,37.6038,-14.7219,24.4657
-1414.0625,62.6610,54.0848,71.1476,-4.3455,4.7312,-38.4629,-16.4591,-110.6598,5.1208,-3.3239,17.1267,-8.6840,-50.1970,-36.4139,-17.4034,-31.7838,100.8940,53.5203,-32.7884,-64.5838
-1406.2500,100.6841,56.1273,72.3638,32.2279,-25.2396,-0.1721,-12.9906,1.6987,42.4363,34.1684,31.0280,-6.8556,-48.6646,2.0880,-15.6721,6.9080,-4.0006,-85.2559,3.4411,-63.3244
-1398.4375,61.7795,-51.7752,31.6319,-6.1432,4.9629,-77.8318,1.1256,-38.9037,2.7906,-42.2921,28.7068,26.0330,21.9270,-1.3549,-18.8740,76.6561,168.1535,-53.9790,34.6976,-67.0288
-1390.6250,117.9908,3.4286,129.9991,14.6005,-6.8357,-16.3869,-43.2766,-87.3964,-9.7615,19.3534,78.4163,-21.9713,46.6093,-13.6877,6.0223,65.5117,82.3932,-104.6086,-50.9528,-152.6342
-1382.8125,25.5192,16.9365,63.6595,-8.3468,19.1302,-45.6471,22.6817,30.4031,34.9782,100.2918,31.6039,-87.6588,17.5921,-42.7164,14.2225,-74.3387,58.9462,-56.9313,31.6843,-34.9423
-1375.0000,105.7849,-8.8421,39.0237,0.4135,13.1765,-33.2056,1.7812,-31.1022,46.4045,1.9413,63.2126,-37.6427,66.2816,-30.0460,26.1369,-98.4807,103.1777,21.4326,-30.0002,-96.5620
-1367.1875,94.8070,50.1311,25.1214,94.9278,-59.0356,62.9788,-85.7574,28.1483,-3.4220,62.3511,30.0930,59.1220,-20.2732,29.3726,-60.1937,35.1500,-49.8512,-25.4517,-112.9378,-73.4248
-1359.3750,-36.5067,60.7566,-79.1344,104.0967,-44.5933,32.8116,-66.3699,35.0407,-34.5999,-4.5815,-36.4492,102.5523,-14.1752,36.4484,-53.8681,42.4354,29.7713,54.3201,-103.2504,6.3515
-1351.5625,17.2445,113.4429,15.6577,86.3330,-20.8761,16.6980,-71.6945,-55.0121,-87.7321,-20.4513,26.5082,87.0449,79.9691,20.5786,77.5029,26.7765,-23.5755,-33.8691,-156.5289,-46.8241
-1343.7500,-5.1917,126.9268,-50.7580,64.3665,-0.1003,-49.6292,-10.4341,-11.2734,-79.0627,-85.5178,7.7356,-15.6559,87.9193,-9.4924,85.6868,70.9178,-81.1208,-57.2520,-39.0176,70.8007
-1335.9375,34.6456,60.6659,-81.9225,-2.3447,-4.4675,-80.7033,-26.9730,-114.2882,-74.1447,-152.3222,12.8570,28.8891,131.1262,71.6864,93.1378,151.3180,26.5674,16.6107,-71.2774,3.6616
-1328.1250,102.0440,127.9596,-9.5489,29.5029,-63.5549,-8.2256,-60.0818,-42.7421,-38.6796,-7.5698,16.1862,27.9823,19.8804,69.4137,55.1351,150.2794,-118.2001,-127.9736,-74.9899,-34.9195
-1320.3125,34.4062,60.1995,-49.2286,-3.6911,-5.9280,-47.7994,1.1091,-9.2541,-5.2784,-10.8600,-1.9534,25.0397,16.5861,-6.9023,15.0789,-35.8089,23.9952,-20.6053,-2.7631,72.4389
-1312.5000,65.0845,20.7498,23.3912,-43.5698,18.7057,-12.0715,21.7070,-83.4555,31.4119,-10.8322,44.9650,25.4022,89.5884,30.0872,88.3258,-110.5826,18.4618,-25.9531,-8.2512,-38.9062
-1304.6875,15.1659,4.7012,-33.6063,-25.0492,7.7422,5.0486,66.2861,44.7519,85.4972,6.6041,4.8891,-103.8284,33.9932,10.4768,69.9775,-55.9436,-103.6715,-42.8921,80.6482,15.1551
-1296.8750,5.8690,-3.7458,-115.9962,-104.9245,4.3377,-77.2292,65.3481,-37.4495,113.1794,-38.3532,-12.6365,-38.4542,99.0058,-34.5280,62.2357,-63.7018,61.7889,17.7678,70.1251,-30.1945
-1289.0625,89.4809,78.7112,-26.4881,-21.8854,-30.2406,-24.6068,21.8030,-58.7459,91.7566,-22.4059,16.3059,-22.1812,40.9126,-55.6252,77.3940,-10.5551,-31.8541,-75.6743,11.4971,-88.6373
-1281.2500,-49.0966,11.9672,-65.1782,-19.0405,0.5596,-63.1883,78.4626,-60.2568,127.1245,-60.6658,-47.9911,13.9093,3.6245,-56.9193,77.3597,25.3958,40.3172,-38.3153,83.6522,-16.2852
-1273.4375,14.6433,4.5326,3.4410,-26.8821,-9.9481,-67.4657,29.0745,-101.4665,122.7832,-27.6136,-5.2908,9.3053,35.6297,-23.9064,109.6207,20.6703,31.7695,-46.6661,-29.9094,-94.6380
-1265.6250,41.2935,65.9974,25.9511,-36.8201,-16.4896,-45.8535,7.8346,31.2299,71.3376,31.3479,15.1978,-114.3965,21.5290,-38.9973,95.7777,43.8572,-83.8733,-127.1063,-40.5787,0.9172
-1257.8125,27.4600,-19.0323,8.9642,-86.2437,53.1229,-98.7395,47.0480,-59.5788,17.3840,-22.1774,39.7065,-129.5920,115.9341,-91.5877,152.4384,-9.4549,76.9771,-1.0440,-20.7747,20.9614
-1250.0000,100.8276,-14.8563,125.1686,-47.4489,31.4468,-19.4237,-30.6579,-90.1773,-50.3777,-89.4937,100.1413,-50.5858,121.5406,-11.9780,85.3098,70.4375,-60.9929,-68.7855,-88.7780,-46.7860
-1242.1875,-40.7576,-16.6431,-29.5922,-14.6034,-2.4868,-27.0666,-33.4078,-23.7299,-57.0924,-58.7576,1.5281,16.4808,78.2070,54.6832,-30.7533,174.3857,-63.9027,-36.4689,-20.7379,56.5147
-1234.3750,-20.8816,3.0178,-42.8983,4.6999,-22.3384,-3.2523,-55.4707,-36.8323,-71.3561,1.4465,-3.9881,76.9999,65.3215,77.8035,-7.3710,51.7971,-10.3859,17.2910,-73.2657,-30.7439
-1226.5625,5.2417,28.9280,19.0360,30.2629,-16.6981,21.8089,-19.9546,62.3282,-46.3718,99.9157,14.6934,-44.2316,16.6813,-6.8275,18.2501,-33.5348,-91.6177,-98.6960,-12.5515,-5.7409
-1218.7500,-58.8188,-70.3585,24.7744,-69.3667,54.0923,-83.3309,49.7538,31.2841,-77.5951,-3.8099,-11.0515,-37.6620,-14.1583,-0.6579,24.6731,-27.0662,124.9531,48.1214,97.9446,0.0563
-1210.9375,36.3267,-81.4437,165.7111,-45.7871,27.9886,-15.2699,-15.6058,-11.5509,-119.6203,-9.3209,40.4841,-5.8976,-55.8034,67.7140,19.2995,41.6162,77.7068,1.1309,15.6363,-152.9386
-1203.1250,-73.2372,-121.2430,46.9349,20.0984,17.9215,13.0925,39.7660,53.9155,18.6567,56.4675,-21.3791,23.1773,-64.1462,22.3884,-61.7747,-2.3991,36.7699,30.4552,115.6238,-87.6291
-1195.3125,-75.0465,-158.2881,10.9121,18.7470,10.0794,51.2148,17.1745,-18.8697,93.6710,21.0097,-9.6100,25.0088,10.2635,-13.1801,-97.0955,-38.6500,104.5702,98.5260,42.3389,-160.5759
-1187.5000,-47.3072,-94.7850,37.4367,80.9537,-8.5206,77.8829,13.4098,44.9029,120.2205,85.1071,4.2928,-94.6135,0.2194,-59.1939,-32.8619,-47.3471,-10.0746,-15.8466,-2.4009,-133.9617
-1179.6875,-63.0698,-75.8061,16.4681,29.6650,53.4123,-53.9473,63.9821,-12.8344,61.2647,-9.2924,4.4754,-115.7305,53.6804,-117.6979,129.8734,-105.5387,114.7972,38.2954,-18.6561,-44.8580
-1171.8750,62.6006,13.6138,112.9564,12.8463,15.7932,-31.3142,-12.5197,-100.1121,47.7615,-23.2276,56.3772,-54.3966,39.5806,-56.7497,80.0408,-118.2637,62.1102,-14.1157,-106.4684,-132.3028
-1164.0625,-34.3424,22.4245,42.8441,56.4368,-2.3318,-26.2868,14.1497,15.0084,51.6572,-17.7638,-15.2827,-12.6579,-66.1259,-15.4029,-62.3980,-76.5952,-1.1551,-6.1106,41.1131,-54.3378
-1156.2500,-45.3728,-23.8623,-4.3551,44.9412,8.0234,-36.3552,-17.5709,-105.9783,-31.5577,-64.3951,-15.6388,124.9871,-1.9335,10.8483,-71.9376,-86.0350,127.4805,122.7935,-6.4251,-101.4801
-1148.4375,-61.1586,101.0928,15.6939,99.7106,-24.2383,56.8314,-69.1718,-48.7062,-122.5326,-7.7674,-8.5813,71.8731,17.5042,68.3468,-51.2278,7.7828,-30.6389,35.9559,-58.7162,-118.3597
-1140.6250,-103.3999,58.5864,-33.7107,22.0386,10.4466,7.5710,-12.1949,49.1113,-134.9614,-56.5905,-34.3751,23.3132,5.4965,19.3945,10.0328,33.1520,31.8104,62.6889,3.5300,-20.6936
-1132.8125,37.7095,23.4362,42.2427,-13.2680,6.9838,9.6674,-54.6193,-21.7185,-170.0444,-53.0572,36.2728,26.0990,44.8311,21.7950,86.6395,35.8799,-4.4014,62.7663,-102.8865,-91.6782
-1125.0000,13.3595,68.8246,-25.2559,31.9780,-12.5925,53.3067,-40.6458,58.0023,-126.5800,-46.9736,10.7836,-3.5645,14.7171,28.7459,-17.2026,6.1598,-66.0532,36.4055,-23.7594,-12.1037
-1117.1875,-69.9893,-13.7947,-36.7436,89.2341,23.1403,40.9522,-16.5217,-27.2826,-65.1167,-94.8772,-15.7767,95.7736,3.6015,17.7025,-102.0543,-78.5530,167.2908,199.0461,-2.6492,-60.5379
-1109.3750,-64.1937,60.7253,80.9154,129.6483,-25.0680,122.7548,-60.3456,-20.4030,-21.4996,-49.6252,-10.0135,67.2561,-62.3727,61.8118,-93.7688,2.8880,-40.2206,27.8365,-69.3850,-126.8104
-1101.5625,-62.8064,25.8285,-74.8264,23.6687,-26.8437,3.1553,-12.9992,45.0704,6.7157,15.2194,-40.0217,-50.6610,2.2544,-20.4776,8.1252,68.9196,-110.1133,-8.7600,-35.5259,48.5200
-1093.7500,-20.5791,-36.2216,-138.7155,-73.4557,-26.4864,-24.5848,11.0369,54.3985,15.7750,98.9250,-30.3659,-41.7290,85.7277,-10.9126,164.8689,41.8180,-174.1743,34.4915,-63.8258,20.7029
-1085.9375,-151.7240,-26.6409,-169.9642,-29.9288,-48.2752,55.3257,21.3602,170.3883,58.4854,178.2866,-92.8574,-34.1491,17.8502,32.3060,61.2571,122.3741,-271.5775,6.4060,13.5229,63.5530
-1078.1250,-175.4649,-86.6715,-157.8005,-53.9923,0.3050,-6.3568,41.8190,72.7725,70.5875,44.0484,-86.5254,14.8342,30.3695,7.9343,-35.9586,24.3205,-16.5715,122.7348,59.2572,38.7995
-1070.3125,-26.3667,27.1440,37.2142,-10.1918,7.9413,6.8218,2.1489,-24.9830,45.5280,-16.3357,4.0919,-45.3368,6.7245,-52.5775,13.6605,-72.8770,-8.7231,24.9218,-39.1605,-59.0914
-1062.5000,-63.9351,23.2965,28.5832,20.9640,24.8372,-2.6470,4.0341,2.6091,-0.1975,-25.3707,-16.1857,-89.1522,-38.5783,-96.7343,4.6130,-7.7199,22.4965,56.4809,-44.2308,42.3755
-1054.6875,-59.6141,-6.6653,36.8602,62.0319,13.2240,42.7947,-67.9274,-99.8894,-66.0232,-90.4875,8.5163,-8.0777,43.0147,-15.9899,13.4642,75.3416,26.6077,95.9398,-179.4109,-23.2572
-1046.8750,-50.5694,37.0966,42.8795,70.8503,-2.0183,48.9845,-41.5584,-19.6295,-60.0884,-9.8453,11.1357,-1.2686,49.3562,27.5012,57.0705,82.1562,-106.5244,-71.8403,-102.8285,19.8754
-1039.0625,-34.9890,-53.6168,17.4554,-54.7793,50.3711,-49.2708,20.0001,-79.8240,-47.5980,-69.6573,17.9685,11.0855,98.2485,2.5455,143.2223,20.5264,47.9058,-23.0536,-54.7037,68.5529
-1031.2500,64.8273,10.9099,125.2887,-26.1487,26.2926,-15.2629,-50.4105,-119.7531,-50.8593,0.7962,77.9938,-27.3194,96.3727,0.8399,67.6007,56.1483,6.5781,-64.0136,-131.3272,-7.5082
-1023.4375,-6.1773,79.6125,7.3233,42.6861,-24.3563,-22.0520,-59.4981,19.5192,-20.9283,67.4507,-5.3489,-32.5244,-20.3123,30.3358,-85.8316,122.9656,-65.5298,-30.7499,-62.7473,95.6436
-1015.6250,-43.7521,42.7456,-28.1843,5.9765,-26.1365,15.6187,-56.0335,21.2453,-57.5444,106.5662,-29.3314,41.7110,-20.5541,32.2937,-47.8182,51.2381,1.8156,37.9745,-66.7194,23.2419
-1007.8125,-92.4176,-7.2043,-6.7515,-8.7760,-20.0798,74.2467,1.0377,115.9421,-36.1984,201.6436,-30.6206,-10.1200,1.1525,54.2073,47.1341,36.4671,-189.8868,-83.3381,23.2668,7.8000
-1000.0000,-149.0983,-133.1723,-141.3116,-99.5211,-4.6207,-25.1166,81.4098,128.6373,86.1416,213.7220,-78.3141,2.0490,49.8543,29.1240,96.0837,11.6915,-105.5749,-34.6368,106.2401,56.3578
-992.1875,-58.3351,-112.6850,-152.4084,-113.8030,-73.9352,-34.0232,40.0666,118.7945,186.9241,278.2607,-73.9099,-6.3385,40.9877,20.4956,123.4669,113.3708,-191.8181,-83.4873,20.6574,-63.6210
-984.3750,-119.8960,-68.5211,-220.8135,-70.3815,-114.5159,-30.2289,14.7728,233.6534,190.4048,319.4916,-125.3705,-75.0274,-29.1882,-12.4262,-19.4609,265.7487,-254.3345,-111.6117,62.7856,14.1154
-976.5625,-155.1789,-70.0824,-182.9072,-105.6543,-78.3735,-29.1260,-28.2555,123.8105,117.1916,174.0298,-109.5137,-0.4222,8.9342,25.9550,-91.0927,230.4284,-80.5469,28.5708,-8.7903,-21.8520
-968.7500,-106.5937,-56.7640,-59.0999,-21.0235,-80.7256,95.8864,-70.4785,138.8819,57.8778,189.4758,-66.1353,52.0660,-50.0484,77.2401,-112.8354,135.0144,-206.8604,6.6624,-66.4606,-43.8990
-960.9375,-193.6831,-74.1235,-154.9365,30.9613,-38.7069,110.2521,-12.2454,152.2992,34.9072,130.2649,-106.4852,65.9035,-35.6852,54.8843,-25.2381,1.9461,-119.7976,129.1290,-50.7849,43.4142
-953.1250,-84.6878,-0.3980,-75.6602,71.0523,-42.3540,116.7315,-50.3564,49.8231,-31.9634,100.1532,-54.6664,73.8307,-29.2388,62.6363,18.4439,-27.0167,-82.6354,97.6938,-118.0065,-23.1596
-945.3125,-33.0737,14.9506,-99.7371,50.7915,-35.3575,91.8585,-5.6574,135.0028,-57.1805,38.6900,-47.8689,-24.5996,-53.1564,37.0457,29.7597,58.6675,-101.7976,6.9291,1.4400,61.9368
-937.5000,-31.0779,-87.3301,-96.3941,-51.0690,7.5975,-14.6016,10.6152,28.5798,-89.9945,-30.3722,-29.8897,53.3616,23.3193,41.8658,71.4663,26.7477,40.4538,80.5764,4.2814,29.4337
-929.6875,9.7388,23.2106,-15.2000,-10.0747,-57.3250,66.7979,-85.3271,0.0202,-82.9545,52.4172,-21.4160,98.1568,-42.3654,123.5397,-30.9860,72.6782,-96.4444,15.0872,-98.0193,-36.2026
-921.8750,-83.4274,35.7688,-82.9535,71.9671,-36.1566,72.2501,-65.2693,41.5017,-113.8671,21.2431,-64.1450,140.9981,-73.0018,92.2683,-98.3888,41.6555,-48.2653,61.6770,-50.2647,116.2175
-914.0625,-52.9659,28.9512,-13.0424,67.6672,-0.3910,70.3673,-69.5532,-70.3636,-153.1276,-54.2790,-19.4305,139.4737,-3.0013,90.6523,8.8426,39.2837,50.5696,91.9240,-126.8538,40.2909
-906.2500,-74.1911,8.4546,1.2219,82.7187,3.0637,84.8417,-4.5001,17.1280,-30.0398,-3.4609,-21.6351,6.2873,-24.6641,31.3881,-12.5958,17.2471,-76.2199,0.5477,-9.0780,54.7370
-898.4375,-99.2380,-50.8638,-61.2971,21.9757,10.7865,-14.4748,36.3385,-8.1873,92.2447,45.5526,-49.9547,-18.7024,-14.1268,-66.6685,-1.8445,-79.6103,39.2062,81.3883,0.8921,29.3884
-890.6250,-1.2681,10.8418,7.2426,16.2843,-40.5094,17.2673,-34.0453,23.5593,85.5797,77.6183,-11.3145,13.3385,-19.5519,-35.6680,29.9417,24.5992,-144.3160,-30.7187,-113.0703,-12.8898
-882.8125,-79.5898,2.2519,-83.4705,43.3289,-24.8056,0.7566,-27.8160,79.0561,-41.3193,24.4279,-61.1410,70.1172,-36.2356,58.0899,50.4668,117.5711,-83.0605,-4.0547,-87.2651,153.5948
-875.0000,-12.1392,-71.5699,-47.3709,4.1735,-9.1162,-0.9418,-51.1527,-30.6399,-78.4064,-12.9539,-22.5770,106.6791,-0.1282,94.6586,48.7878,118.3392,53.9929,62.4151,-126.6572,79.8843
-867.1875,19.1190,-74.5771,24.5722,36.8646,-27.7680,35.2145,-46.7822,41.5253,-44.6353,59.5222,-7.5371,-40.9262,-74.1723,57.0807,-61.0456,227.9417,-20.0896,-46.2436,-25.1877,42.0481
-859.3750,-27.9037,-121.8697,12.2762,25.3061,18.2211,-13.8726,17.6800,-7.5663,16.8957,-62.2582,-35.3557,-16.7859,-123.4742,8.2620,-73.1397,32.2839,179.6042,82.8629,33.0373,29.9649
-851.5625,52.1961,-7.0332,174.1489,70.9018,22.2800,37.2004,-37.8471,-103.4995,-42.4170,-84.8957,36.3895,108.4839,-110.6494,59.5985,-60.1063,-172.2231,153.4567,22.1276,-63.5700,-65.9537
-843.7500,-0.3885,10.1103,113.3797,124.8372,29.1283,50.6269,-24.6076,-53.0889,-66.3798,-107.2050,7.4350,85.0916,-133.4776,36.2914,-119.7289,-122.3902,135.6951,40.7703,-11.8118,57.4934
-835.9375,29.8991,-99.8823,146.5306,85.6766,68.2249,10.9688,-14.8706,-128.7803,-70.4422,-146.6206,44.9872,82.5832,-63.4087,-3.1126,-49.4614,-51.6674,236.8510,106.3300,-52.1525,17.8449
-828.1250,104.1495,-60.9099,186.6874,89.5213,52.9298,14.3156,-12.9026,-89.4650,-30.4989,-70.0419,90.5158,-60.9407,-24.3571,-72.5085,-10.2181,-11.9538,64.0266,-31.0916,-49.4746,21.2216
-820.3125,20.9689,-110.3700,94.4579,-29.0411,71.1674,-76.7325,31.0057,-33.5587,-11.9533,-87.8733,42.3033,-41.8765,-4.7188,-90.2957,9.6127,-28.6420,120.8327,-8.8911,6.8142,113.2042
-812.5000,97.6569,-32.9595,105.1386,13.2967,15.0870,-66.8679,-48.6505,-96.7419,-75.5013,-40.7996,57.4955,78.0715,3.8023,-7.1704,18.3233,17.5754,57.5404,-71.7829,-91.9849,50.1005
-804.6875,23.0009,32.1124,22.5201,79.3290,-29.1713,-74.3000,-47.6682,4.7792,-46.3444,60.9611,-20.0348,69.7050,-113.9801,22.6618,-135.2767,47.4808,16.9749,-75.9461,7.9310,115.7166
-796.8750,21.4669,-38.6998,26.0664,44.5105,-2.4756,-71.5726,-15.9457,-29.5585,-8.0338,-9.1391,-18.2169,110.4719,-110.6137,25.6537,-95.7233,-58.4777,122.5768,30.0526,8.0028,45.4856
-789.0625,52.1927,24.7526,59.9185,110.9901,-17.8200,35.4626,-17.5399,41.4125,25.5830,25.0478,16.1523,-3.4873,-77.9580,-14.0503,-26.8876,-62.1403,-58.5077,-45.6338,-32.6046,5.5790
-781.2500,-70.4689,-62.1926,-35.5700,59.1055,21.0129,13.1515,38.1788,93.0264,39.8522,3.8748,-23.5373,-60.8038,-25.6595,-34.0962,-47.4199,-46.1653,30.0932,8.3590,55.4585,94.3352
-773.4375,-35.7153,-62.7255,43.4080,25.6664,16.5892,19.3049,-1.1461,-11.9026,-28.4190,9.1522,1.1150,54.3054,-21.9228,7.3232,-43.5132,-41.7421,31.1494,9.8080,19.9883,-10.4468
-765.6250,-74.2624,-30.5587,-0.8717,56.9607,-15.4112,49.2176,-8.9883,91.9281,-35.9277,39.1703,-45.7178,47.1428,-101.4453,37.5065,-48.8728,-10.5764,-43.0172,-28.9651,16.2993,56.5434
-757.8125,-90.3859,-117.9827,-16.6826,41.6974,24.6505,-3.4074,8.2831,2.2057,-51.9784,-49.3679,-42.9299,105.4113,-44.5276,22.1494,44.2049,10.0309,152.2885,61.7270,-35.9282,40.9859
-750.0000,23.7543,-5.1391,105.8183,156.7313,0.3928,82.2728,-38.0843,-22.2076,-39.7238,-0.6165,21.8265,6.9535,-70.3269,-1.9050,19.5703,22.9303,55.9111,-34.2677,-97.8307,-20.2493
-742.1875,23.0070,-4.1946,64.4842,157.9035,28.7607,41.1036,-6.3334,46.5178,-8.3146,68.2657,16.3177,-70.3662,-110.9859,-78.7995,-131.9234,-91.0370,161.7293,71.9183,7.4409,85.6793
-734.3750,69.3216,4.8040,154.2728,169.1666,24.0670,21.0465,-46.2335,-10.6566,45.2033,85.2439,56.2960,-55.6099,-95.5585,-99.5799,-152.3377,-110.9060,173.6670,83.2125,-87.1633,-8.2862
-726.5625,27.3907,33.5566,108.8643,164.2204,-8.7399,48.7932,-47.1502,16.9760,72.5299,76.0050,21.7709,-27.0746,-104.3412,-70.5546,-124.9730,-82.9852,27.4320,-27.6665,-92.9389,56.5694
-718.7500,-78.6716,-37.8269,32.3741,93.1674,47.5712,-62.5485,1.0810,-57.5039,32.7576,-35.3509,-3.5600,43.3436,2.7699,-72.6193,-53.7136,-85.1746,132.1237,78.3805,-58.8083,91.3266
-710.9375,46.5819,16.1041,94.2415,114.4617,22.6740,-38.5284,-20.1167,-70.6226,21.3489,62.6336,51.8147,-4.9169,27.2176,-120.3233,43.8833,-60.0129,12.1752,-6.2175,-109.3086,6.4516
-703.1250,-23.1569,18.0336,-18.8421,80.7837,25.0352,-40.4588,20.2710,73.3031,17.0109,95.6536,-4.4951,-81.1456,-12.2909,-159.9633,40.5208,-25.8087,-21.6953,65.2611,-37.7364,113.6434
-695.3125,-27.7791,-22.9330,-19.7626,42.2422,19.2219,31.7739,-32.3065,36.3792,-57.1659,21.8184,7.7259,-45.2404,22.3465,-50.4372,-33.7027,9.5284,45.5922,132.8996,-76.9967,39.9964
-687.5000,-51.9501,21.5496,-9.1791,89.1896,-20.4991,116.5103,-53.3973,83.9615,-46.8365,69.4682,-12.8583,-34.8610,-40.5217,33.5959,-133.4348,20.3429,-84.5869,39.0620,-31.7250,50.8744
-679.6875,-70.9518,-31.8156,-29.3756,36.3213,7.2838,21.4510,-19.5490,25.7271,-66.3039,12.2916,-36.2703,53.7006,-61.1987,13.8408,-117.9785,1.3427,74.4744,56.4478,20.7712,103.9547
-671.8750,39.4268,-27.8141,90.8435,-28.1630,2.3860,-4.1968,-33.7985,-37.1012,-20.3605,-14.4967,32.1172,64.6321,-15.4964,24.4932,-71.1421,47.7392,44.9431,-77.7651,-8.3039,4.4485
-664.0625,5.5137,-27.1105,50.8093,-25.9135,5.6345,-7.0947,17.1534,69.8186,49.3516,19.4490,-13.2702,-11.7125,-129.0488,21.9036,-147.5671,-28.1336,11.1922,-39.1929,98.4039,111.7097
-656.2500,-17.1652,-84.1646,69.0857,-45.3754,45.8602,-26.6752,22.5355,14.0383,30.3811,-0.3118,3.2991,-31.7735,-74.3039,2.6359,-93.7014,-83.7081,131.7547,80.6970,42.4357,56.2749
-648.4375,44.4883,-22.8789,134.7691,16.5521,6.6834,77.1541,-46.2852,80.6696,-51.1796,29.3129,44.8905,-112.4550,-82.1727,-4.2135,-138.4522,92.1157,-16.2565,-66.9941,-0.0999,49.2674
-640.6250,44.7237,-59.0411,56.0653,-17.9341,40.2704,-0.4129,-3.6163,38.8867,-55.1358,-85.4910,33.4699,-81.5513,-51.4531,-7.4503,-143.6135,123.5276,89.3781,4.9423,68.9805,154.8695
-632.8125,96.9650,-77.2345,117.3803,-33.4286,37.5242,22.0297,-13.8339,-47.9004,-33.0853,-61.3098,64.1905,14.3201,-28.7504,15.3122,-83.7906,36.9219,74.0274,-12.1105,18.0866,68.4834
-625.0000,-22.5132,-56.1731,27.0033,-11.6460,30.9544,42.7708,52.0100,9.6009,61.2767,-3.8590,-3.9356,-0.5364,-44.7523,37.3790,-63.6788,-14.4162,-42.9851,-22.8329,110.5236,126.4171
-617.1875,-127.1711,-91.3025,-77.4986,-115.0318,46.3768,-25.6300,93.2283,13.9385,66.4985,36.4210,-51.9255,39.4349,32.0934,5.3099,50.2779,-119.9232,28.8766,84.3108,111.8279,58.1993
-609.3750,-135.0254,-29.6251,-46.1442,-16.5811,19.8079,80.8240,87.7672,83.1321,97.5925,141.5380,-50.7898,-111.7732,-10.2241,-71.8981,45.0688,-124.5947,-83.3968,8.3148,105.0198,16.8498
-601.5625,-248.9238,-108.0000,-56.7845,-23.1537,77.8613,31.2814,128.8215,107.3149,85.7114,55.6328,-73.6511,-161.0005,-21.5482,-120.0962,-114.1570,-63.2781,86.3690,71.3422,239.2442,115.5058
-593.7500,-133.7072,-205.2647,68.7395,-48.5947,72.8063,48.8973,73.9669,13.6456,101.9986,-75.1398,-3.3973,-145.1150,-6.7349,-30.1329,-134.2362,26.1814,132.2959,47.5293,143.6453,-14.6817
-585.9375,-88.2908,-195.3310,79.5150,-70.8126,40.4819,21.7662,67.3767,60.2265,111.5416,-28.6894,-6.1365,-99.0065,-34.6738,17.0908,-52.0624,72.8785,-32.4907,-81.0060,119.3337,32.4014
-578.1250,-95.8592,-167.3914,35.3583,-76.9967,66.7828,-22.3034,48.7524,-21.1536,-5.8588,-71.2075,-2.3426,39.1295,31.4399,47.3794,-22.8463,-7.3861,103.7979,19.5210,79.0910,62.5361
-570.3125,-42.5146,-79.5446,95.1618,12.7577,39.2674,75.5809,2.3838,2.4211,-56.3018,-49.7827,31.3523,25.1936,17.4914,71.6337,-73.7025,52.2877,54.0522,-64.9920,63.8300,12.6423
-562.5000,-75.9614,-78.4991,58.2250,-18.2584,63.9268,0.7104,45.4611,75.2301,-56.4879,-86.1470,-2.6782,-48.5077,-56.2082,34.1566,-148.3120,51.1951,162.6043,8.7722,171.8388,86.0109
-554.6875,21.8583,-87.1933,167.6097,-25.9878,94.2637,0.1511,48.7089,0.3275,-58.3627,-125.2425,61.1078,-51.9356,-59.6161,-3.0014,-149.6280,-96.6058,227.4746,73.8524,166.1714,-25.3155
-546.8750,19.8328,-19.7324,202.1984,44.4676,77.2478,107.7968,49.6702,71.6189,-61.0200,-55.1671,58.0337,-91.1959,-134.8340,-4.9536,-189.7597,-209.2285,86.5805,4.1619,200.7454,9.5764
-539.0625,-19.6692,-92.7585,124.3576,6.4576,106.6137,30.9984,72.3363,-6.5600,-65.1205,-168.5703,41.2603,-22.9258,-66.5102,-8.3451,-157.3519,-176.3259,191.2718,108.0467,198.8923,43.0142
-531.2500,87.3935,-58.2160,168.1308,-25.9699,53.7180,37.8109,30.0991,-74.1352,-21.6126,-162.3853,69.9682,-17.0820,-61.6050,-1.1245,-115.3570,-60.8352,53.5746,-28.4601,131.6716,-23.9356
-523.4375,36.3153,-37.8296,36.8112,-109.5288,56.1890,-55.4803,112.2290,15.1825,104.8126,-110.3232,17.1321,-74.3595,-44.8012,-56.9944,-62.4654,-117.4630,4.8195,-41.0464,223.3846,103.0280
-515.6250,-15.2462,-55.9417,-10.9394,-159.5587,89.8440,-68.2097,150.2797,-69.9606,129.8016,-121.7262,17.8623,-87.1157,89.5553,-104.2967,144.9808,-238.5515,61.6303,49.9263,138.6700,18.5431
-507.8125,-0.6065,29.1506,42.5613,-108.3571,58.5816,-14.6913,97.2531,-16.8478,109.0562,-69.9008,36.8369,-144.6527,68.1587,-124.3374,50.6722,-112.4104,-97.2793,-38.8323,119.2452,35.3270
-500.0000,-55.0940,-61.9075,-53.0254,-197.2795,71.3881,-36.2715,132.0632,33.1472,160.2262,-93.2050,-8.3699,-132.3090,43.6591,-110.4628,-45.7489,-99.3900,25.7538,49.3299,206.7478,123.0056
-492.1875,26.7392,-86.6529,37.7553,-183.8637,68.5717,-19.4918,119.5388,-22.5130,140.7663,-76.1766,42.7202,-151.6453,61.4925,-91.2258,7.1651,-118.0317,5.1514,-42.1544,185.6329,31.0377
-484.3750,-24.5612,-102.5480,-16.5561,-162.5723,70.8858,-71.8157,150.6748,-3.2804,160.2175,-93.2789,7.5588,-170.1053,43.2229,-71.0817,-46.0292,-61.7871,26.4878,-53.7146,277.4490,87.9790
-476.5625,-10.4878,-125.0776,4.5558,-147.9023,69.7107,-89.7355,119.3956,-129.6628,107.0758,-147.0081,1.1894,-41.1890,26.3546,-14.5228,9.1724,-79.1523,149.2477,32.1302,187.6850,-1.6821
-468.7500,4.7966,30.6025,59.9259,-61.0024,19.5467,3.5955,64.3636,-37.8021,52.1961,-56.5177,-4.9414,-23.0454,-66.2691,5.3018,-9.3826,-97.2767,-8.7174,-55.7576,135.1997,-19.0761
-460.9375,-63.1533,-38.9608,-14.8911,-92.3190,48.2949,-34.2721,94.3457,33.8370,88.1293,-57.2567,-33.5320,-25.1200,-67.0934,-31.0573,-84.1395,-245.6211,136.1532,19.1753,173.5359,90.3322
-453.1250,-13.6271,-60.0607,80.8032,-76.1536,45.7598,-12.6287,54.8805,-55.0279,109.5814,-37.5191,19.4532,-41.7295,-10.4270,-9.9053,-64.4030,-187.4794,118.5364,-33.3870,85.4072,2.2484
-445.3125,-72.2347,-49.3110,17.3973,-27.1167,53.7725,-3.0893,115.0650,65.0033,155.9490,8.0876,-19.7858,-142.4618,-37.8617,-71.8421,18.2274,-104.4667,26.8546,-19.0222,134.2177,86.0803
-437.5000,-77.6603,-89.3994,17.2119,-64.9080,103.8027,-40.3453,138.5177,-9.7836,82.5256,-66.1313,-11.4945,-107.0156,-3.0959,-108.5623,91.0612,-105.2658,202.3932,120.5512,132.2492,49.1058
-429.6875,1.8803,24.4731,105.0288,15.2746,70.9527,11.3970,49.3444,-32.5721,-13.8795,-90.3632,46.4963,-131.5967,10.6647,-58.2685,-6.1074,-56.0677,107.9470,27.1242,73.3186,-9.8548
-421.8750,-73.8078,-17.8996,22.6493,-23.7756,63.7165,1.9346,47.4672,-41.5766,-23.4692,-98.8224,-12.6522,-67.4000,-35.7710,-28.1594,-88.4771,-27.0906,105.3386,94.5196,105.2153,91.9876
-414.0625,-11.7155,-25.5012,58.0859,-31.0427,27.3225,37.2801,11.3846,-81.7845,-25.2500,-66.5002,-4.3753,1.5680,-76.4130,42.7619,-92.0540,-67.3333,65.5392,54.7193,64.9365,16.6339
-406.2500,-33.3632,-47.8446,-39.1802,-85.0333,6.5594,49.9261,58.8251,78.3004,24.2824,56.1000,-33.2236,-133.1842,-62.7566,19.9961,-42.3333,18.7127,-92.9317,-32.7609,151.9870,103.5958
-398.4375,-131.4362,-146.6227,-139.8337,-181.4445,64.6339,-13.8276,112.2933,49.9705,33.4242,27.2781,-37.1915,-125.3563,128.5061,-6.1529,111.9932,-8.6450,-12.7827,81.3702,126.6509,113.1535
-390.6250,-129.6427,-76.5399,-96.5770,-108.9779,9.5217,66.3163,57.6930,56.5424,40.4847,107.3355,-49.9935,-83.6582,60.6656,36.6084,81.2157,-4.1125,-148.7191,15.4035,60.2489,46.6237
-382.8125,-227.6189,-68.2512,-163.0621,-98.2928,13.6688,35.7063,67.5150,135.3450,45.8083,74.6054,-110.2690,-78.7334,-6.9218,7.6285,-23.3130,39.6430,-66.3637,62.7164,107.1250,163.3466
-375.0000,-134.8567,-83.2406,-96.7807,-145.8741,17.6735,28.8582,37.3594,-19.1210,2.8880,-43.4039,-79.8847,-14.0848,-15.7591,37.4119,41.9157,105.1343,63.7538,122.7901,25.7683,46.8149
-367.1875,-64.0738,23.7887,-19.4531,-37.4257,-23.0626,107.0592,-31.0360,58.4551,-29.9695,-3.3930,-55.7944,-48.4090,-121.5506,79.2539,-100.8063,108.6567,-72.0484,92.9316,-4.5031,51.3466
-359.3750,-85.5620,70.5304,-78.3626,-22.2509,-6.5972,83.0103,-40.4145,33.7628,-53.0591,-27.6490,-68.5414,0.0031,-109.5945,55.8632,-162.7851,-25.0884,84.9294,213.8295,-24.9965,101.6193
-351.5625,-63.8723,57.4411,-12.0659,1.1021,-3.9472,77.1629,-26.9158,-9.7273,-22.9256,1.2834,-27.3423,-7.4122,-7.4431,50.6835,50.4273,3.3584,-29.8869,64.9208,-104.2568,22.0959
-343.7500,-186.0547,-31.5370,-104.6139,-84.4286,36.2320,-16.5497,98.5934,42.9183,104.3683,53.3339,-80.5014,-101.6977,44.8687,-4.3362,139.7884,92.9424,-78.5190,50.1801,57.6647,112.7251
-335.9375,-205.1993,-122.4936,-118.0967,-136.9369,25.2755,-29.2093,95.8809,-43.4018,202.7210,3.4092,-102.6877,-79.9581,32.2319,-17.2894,89.2089,153.5626,45.9050,139.4907,40.6586,-9.6064
-328.1250,-176.2720,-57.3870,-44.4827,-71.3786,15.5457,43.2231,69.0123,28.3750,165.1989,37.5604,-68.6602,-119.1461,-6.3059,-54.1373,-22.2640,78.2698,-60.5524,102.9075,74.7944,-46.8286
-320.3125,-220.0098,-102.9688,-127.5122,-79.4983,50.5086,71.0033,90.7716,55.4851,9.0386,-45.9643,-85.8045,-55.9975,20.5115,-25.6197,41.6184,-41.6835,3.3672,237.6853,103.2972,-18.7090
-312.5000,-192.9635,-111.7674,-89.7300,-49.8292,12.1584,144.5906,50.9762,55.3915,8.6761,-10.7090,-73.6140,-21.0681,19.1284,48.7145,40.3002,31.1582,-35.9069,163.2644,63.6151,-128.7850
-304.6875,-266.3443,-115.9980,-131.3530,-16.5796,11.1108,103.7717,65.4540,86.8775,40.9255,-52.8904,-95.3083,-26.5551,50.3515,45.6601,-38.4115,99.5784,-0.5465,57.4695,133.5579,-59.2542
-296.8750,-222.2391,-177.7508,-40.4598,-5.8519,60.0312,47.4564,39.0552,-81.1546,-52.3072,-184.5903,-34.3732,25.4366,103.0793,26.1113,-95.6222,5.4796,189.3269,141.1788,111.0153,-152.2343
-289.0625,-119.5070,-74.8779,107.0838,99.5014,19.8193,157.7867,-40.6371,29.4646,-88.8723,-1.6549,7.5428,-12.9505,-44.5455,-9.7780,-170.1927,-141.9840,49.8639,72.5395,7.1564,-151.5524
-281.2500,-212.6856,-98.9311,7.7329,112.9311,66.3203,131.2101,30.8210,38.1591,-78.3378,7.3482,-44.9741,-4.2489,-35.0594,1.4473,-50.6519,-242.3646,171.5331,194.0130,22.4167,-30.7768
-273.4375,-118.5193,-111.6514,77.7462,68.6922,61.7919,90.9854,22.7260,-112.8080,-82.4488,-72.3257,-0.5054,-10.2188,33.7772,35.0342,128.2478,-100.3993,199.5593,80.8311,-55.9535,-144.6567
-265.6250,-125.8143,-119.8553,69.3119,26.9782,46.7920,8.3009,39.8817,-48.2366,-17.0012,-81.4799,-10.8706,-93.6555,24.1686,28.1789,45.6951,148.1046,90.1646,-28.7870,46.2574,-78.9808
-257.8125,-134.6067,-199.5824,28.3941,-50.2588,45.5156,-32.8832,46.8960,-90.1856,52.9613,-87.1536,-30.4608,-63.6097,19.0602,60.8377,-33.3528,143.0884,190.2820,72.0915,75.9820,-119.8159
-250.0000,-39.7590,-105.6764,59.1203,11.1258,-1.7302,34.5764,1.4460,-24.4845,46.5933,14.8083,5.4869,-34.9340,11.5996,129.1576,-3.7484,-49.2810,8.0482,-6.3856,-1.6135,-162.9922
-242.1875,-131.3314,-128.1973,-2.5628,-43.9248,49.1425,-64.3738,47.4630,-13.1984,-15.1626,-85.6549,-22.8825,11.3307,58.7491,141.0890,43.4708,-75.0567,60.4383,46.7461,50.4203,-40.5750
-234.3750,-13.7135,-117.5384,88.9626,-65.7973,44.3377,-46.1160,-4.3835,-180.7172,-70.7042,-179.9290,22.9745,27.7716,39.0999,160.2299,60.8919,-20.6401,147.0282,27.0735,-39.3192,-95.9698
-226.5625,7.9384,-60.8592,112.5305,-6.6408,43.8147,-22.8163,37.6746,-121.1872,-10.1783,-158.1716,24.5789,-60.7571,-11.4903,184.4301,83.3653,-72.1966,32.6900,-52.5386,22.0180,-35.3118
-218.7500,-30.6143,-135.4018,39.9102,-114.7021,63.6035,-95.7169,94.2097,-194.8779,101.1532,-195.6402,-2.2670,-61.4969,61.7289,259.4432,193.6489,-108.9679,139.1722,18.6548,22.1620,-70.8704
-210.9375,-23.9787,-129.7581,90.4926,-141.5741,45.6865,-45.4190,53.3354,-181.3783,41.6856,-145.9274,38.5635,-87.0523,148.1490,274.6602,207.1381,-22.5352,-27.1410,-76.9508,-2.4770,-167.2316
-203.1250,-110.4023,-182.1792,-1.9706,-190.5124,67.7571,-102.1786,113.7690,-91.9520,21.1706,-168.3002,-11.2862,-145.6593,127.5259,218.8328,186.5814,-43.1662,-3.4725,-89.5932,125.8485,-39.6514
-195.3125,18.0337,-230.7502,26.4314,-236.6171,59.9307,-147.0887,108.1792,-211.6914,124.5114,-250.8469,24.2234,-118.4295,118.7558,211.8642,176.8788,-88.9645,58.0465,-62.3921,82.0334,-84.2344
-187.5000,13.5555,-201.2366,22.9298,-168.6438,9.6070,-77.9100,71.1078,-69.3377,119.9663,-73.3161,-7.4005,-162.1155,3.0935,282.0014,98.2775,16.3250,-117.3178,-98.0923,81.3439,-14.7106
-179.6875,-150.6728,-155.4894,-147.3151,-156.4402,10.6605,-65.4859,72.0033,-20.7538,22.6803,-25.5508,-91.1351,-40.5638,51.6922,295.3965,146.9460,27.8514,-66.4181,58.4574,61.9086,35.0490
-171.8750,-16.0623,13.0958,-108.7126,-162.3992,-57.1751,-62.2101,24.2287,-56.3173,25.2593,49.0598,-58.8998,-3.1828,53.1428,298.6520,185.4755,29.2294,-139.6777,-85.1511,24.3416,-109.3416
-164.0625,10.3353,3.4599,-118.3192,-239.5842,-43.8912,-109.1469,91.3312,6.9073,163.6428,0.4519,-61.9031,-125.0051,5.4009,216.7190,101.8137,-17.6012,-109.1163,-125.9452,159.5966,-44.9354
-156.2500,23.4888,-160.4318,-98.1622,-259.0381,-3.2453,-126.3351,74.2352,-121.1338,109.7766,-128.4246,-23.5888,-71.0844,98.4166,236.5506,156.9067,0.3174,49.1996,-38.0020,71.6074,-98.7982
-148.4375,68.6915,-80.2779,-11.9541,-178.4601,-15.5287,-39.4794,37.2490,-72.1333,48.9635,-44.2772,15.5424,-96.1249,73.4893,214.4341,133.0542,12.2733,-76.4228,-130.0179,50.6885,-85.6078
-140.6250,-11.0935,-162.1265,-56.7357,-220.9063,30.7482,-122.6357,93.4965,-82.1626,77.1554,-54.1574,-21.0267,-70.1661,63.5710,169.3251,123.2160,-70.7891,92.9814,4.9726,114.7754,-57.4322
-132.8125,35.4237,-151.6833,73.7855,-209.0643,30.8032,-65.4879,34.7033,-136.8972,24.6640,-146.7446,38.6874,-51.9264,82.9511,190.5201,105.6774,-88.5569,38.6827,-15.7341,24.1792,-183.9707
-125.0000,-31.8217,-150.0092,40.5465,-169.9814,36.8398,-62.0915,50.8564,-97.3885,-9.5700,-219.1090,1.4140,-88.4485,48.5901,194.9712,144.3914,23.9188,-24.3486,-8.1749,31.8479,-107.2709
-117.1875,-36.8079,-190.0821,5.5693,-207.6582,49.9889,-98.4436,45.6249,-207.6450,-7.5593,-219.2429,14.4195,-51.7289,159.4912,196.6811,182.3730,61.6451,80.8672,61.6189,-4.2385,-179.3416
-109.3750,2.7625,-152.5969,50.1378,-132.8088,-2.1959,-53.2605,12.7650,-164.3516,74.0067,-102.8273,32.0492,-119.4675,129.9462,168.9450,78.9100,67.9178,-52.3774,-107.0526,3.2418,-207.8605
-101.5625,-11.6066,-133.0642,-5.2482,-110.9366,31.9596,-73.0455,46.4641,-111.0273,91.6360,-198.3731,11.7768,-67.1596,72.4634,77.2590,21.5106,-136.7702,78.4426,-11.6716,27.7801,-43.3430
-93.7500,139.6285,17.0785,121.9729,-28.4721,39.2879,-56.2293,-29.3413,-206.1061,-39.1294,-220.3295,100.9417,20.7340,88.5891,57.1769,37.7213,-266.8606,128.8549,2.2971,-98.0810,-100.2353
-85.9375,186.0142,62.3705,95.3379,19.1306,5.9126,-46.2710,-26.0423,-160.0469,-27.7414,-138.1590,75.2531,-44.2259,-12.1241,-4.7568,11.0945,-74.8199,73.4300,-53.5791,-47.7820,-15.9736
-78.1250,127.5666,-102.1867,76.8597,-73.1312,50.4511,-102.1691,33.7323,-216.8597,-10.1948,-158.8515,48.0092,-29.0409,4.3254,-22.5448,101.6398,89.3580,230.1570,67.6886,2.6696,-71.5800
-70.3125,133.7728,-62.0940,91.0236,5.2446,-0.5566,22.5733,-4.1226,-130.0238,5.0148,-72.9057,47.6809,-16.2172,-18.5690,29.3176,114.8427,66.1936,100.5256,7.5904,-57.2143,-167.5381
-62.5000,55.6332,34.6414,-28.1673,69.2541,-23.8949,11.9558,-15.3823,-30.5589,-5.1250,-84.3328,-1.7265,45.2607,-29.7961,20.8371,-6.2934,-92.3249,132.5602,4.1474,-25.4463,-66.8603
-54.6875,240.5070,77.3941,96.6424,43.2562,-7.0490,-83.6585,-45.4072,-238.1013,-27.2667,-219.7652,103.3926,56.7375,57.9879,-111.6310,81.5796,-115.8456,214.5782,-125.3118,-118.6794,-126.1988
-46.8750,275.9814,77.7479,134.0413,-60.1619,24.0074,-193.6810,22.4464,-202.0429,47.1974,-221.6058,141.2243,-91.1901,131.3759,-256.4987,191.0620,30.2283,44.2024,-260.1716,-43.2986,-51.9383
-39.0625,197.9743,-2.3938,-20.0519,-103.0934,35.3004,-237.2119,41.1219,-173.5069,40.1670,-193.9659,93.9449,-27.6176,196.2716,-225.8626,220.0537,58.7970,75.3346,-54.5374,-47.4206,-22.1983
-31.2500,202.1276,141.6299,-9.9894,44.1220,-56.6462,-43.5954,-94.9221,-53.8256,-58.7144,-38.1891,75.4553,55.1034,96.3154,-105.0713,83.2029,105.5127,-56.3882,-45.7717,-180.3860,-85.3155
-23.4375,86.5386,165.9054,-96.6790,139.5773,-60.8909,15.2569,-77.7003,42.0899,-73.3505,19.8181,2.5199,75.0779,7.6235,-117.0288,-5.3860,126.4683,-61.8484,17.2472,-115.0958,47.8025
-15.6250,106.1635,149.3894,-69.1684,91.2253,-51.3124,6.3093,-90.7467,-41.7995,-81.7811,8.0205,17.4321,137.2472,34.1480,-88.7868,21.2394,42.6170,31.8724,76.4525,-162.6060,-34.8995
-7.8125,104.6889,181.7798,-32.7737,89.7596,-69.0271,5.2535,-77.9103,66.2133,-45.3073,116.1220,17.8249,98.3115,-3.4151,-87.6537,-16.2291,41.6661,-105.5146,-62.4479,-90.2055,1.3010
-4000.0000,118.7125,65.5720,-0.8022,-65.3340,-4.8556,-67.3477,14.7492,11.4767,22.3257,-7.8537,33.2427,27.8524,10.0549,-139.3707,37.8520,-27.6333,45.4772,-84.4111,23.8466,35.1813
-3992.1875,215.0182,91.4288,100.9048,-41.9192,-1.7086,-40.8992,-32.4799,-69.7858,-59.5345,-16.2549,105.9430,20.7537,75.2568,-76.2116,103.6503,37.8648,-0.0527,-131.2003,-58.1011,-46.0076
-3984.3750,126.3762,107.3556,37.6478,7.5600,8.6020,-29.3924,-1.1081,-20.9799,-46.3530,-3.5861,61.1342,-40.2936,50.4955,-102.9982,79.4928,86.4457,-20.5572,-82.9365,-7.0112,39.8628
-3976.5625,115.5828,26.1494,65.2240,-41.1064,44.7051,-40.0339,14.7107,-140.3203,16.6594,-49.0620,82.0686,-12.4729,114.5832,-77.9251,70.1761,3.8869,142.7864,9.2112,-21.0908,-42.4107
-3968.7500,145.1477,20.3202,167.1485,20.5961,38.9543,25.6955,-8.5412,-73.2995,45.9982,-20.1673,118.8058,-56.2923,70.0080,-87.4878,-9.8042,33.7039,-4.5413,-35.2757,-28.8482,-49.3401
-3960.9375,121.2987,-74.8960,63.6526,28.9155,60.6134,-4.9612,27.8585,-102.6635,15.9213,-122.6553,78.1264,-47.5016,41.0201,-81.4391,-2.1867,41.1274,144.7291,113.8621,14.9860,-4.6596
-3953.1250,144.4040,18.8583,127.1033,49.2026,19.5852,58.3441,-18.6879,-75.0803,6.7802,-58.1904,83.8143,-19.7452,-6.0175,-57.4306,25.3878,-41.4990,-10.0518,98.9719,-70.2563,-124.0414
-3945.3125,79.0644,164.1922,-22.9058,51.0598,-38.8030,56.2127,-19.6691,71.0627,41.1719,50.8323,19.9498,-94.4376,-7.5154,-60.8567,-12.4954,-79.5432,-147.3084,-5.3661,-31.9661,-14.8690
-3937.5000,122.3696,66.1842,-52.2889,-48.4336,-12.2888,-47.2694,-12.5195,-30.1374,12.1937,-14.4859,37.7491,-49.4701,73.6355,-18.6229,69.2646,-34.9000,0.0790,70.9721,-61.0385,-43.0414
-3929.6875,179.5829,17.0986,44.2237,5.9836,-12.9239,48.1637,-38.4101,-44.4263,-38.8966,-27.8717,86.9663,-99.6001,59.6814,2.5215,18.9177,98.6577,-86.6626,19.2255,-42.2351,-93.3240
-3921.8750,54.0317,-73.7223,-57.0380,17.6619,10.1477,94.8537,-0.7970,3.5567,-65.7419,-53.9833,26.6909,-88.4747,32.9676,9.9226,-44.1833,72.4750,-38.1720,136.7451,40.8130,-9.3445
-3914.0625,43.2198,-48.7812,-28.5638,5.0990,-5.1657,123.2991,-22.3926,-40.7094,-73.8437,-24.3380,19.8177,-58.5879,25.0041,74.0912,-14.5324,29.0581,-14.9331,159.0400,-6.4115,-126.6241
-3906.2500,-3.6995,-25.9170,-10.1996,60.4607,-36.8479,141.6583,-43.2853,15.9370,-55.0557,32.2221,-15.8460,-75.7972,-66.0704,128.1781,-104.9835,121.5764,-99.8252,73.2391,14.2492,-70.0088
-3898.4375,-90.6311,-42.0414,-28.8537,76.8361,-29.1151,123.0227,-88.1158,-1.4087,-110.2823,14.7845,-44.9802,18.0042,-47.1491,182.2794,-85.4494,178.1177,23.2846,195.4684,-110.0977,-87.3881
-3890.6250,-74.1135,80.3001,-13.0662,161.6806,-68.7370,248.8523,-132.8408,89.6975,-167.0717,141.8204,-36.4970,35.2683,-67.7837,196.8479,-68.4745,158.1378,-207.1822,174.1648,-165.0232,-107.3296
-3882.8125,-187.2614,37.0120,-139.9522,150.8882,-43.2835,195.0438,-79.8624,184.1713,-183.5275,163.2223,-90.4317,18.8877,-48.0781,177.7883,-85.1589,105.5448,-182.3284,234.2301,-70.6113,24.0863
-3875.0000,-155.4690,32.6856,-106.9039,144.0547,-50.5134,192.1935,-122.3588,108.5969,-186.0496,160.5937,-69.1700,54.4699,-13.4205,173.6936,-49.8913,139.8999,-118.5252,262.2788,-182.2702,-51.5563
-3867.1875,-142.2831,46.7782,-133.4556,261.6455,-91.4424,238.7632,-110.8964,193.4437,-139.1804,245.3929,-98.8813,-8.5467,-113.3804,145.0184,-76.2335,187.6602,-211.3519,167.7358,-135.5460,-3.8036
-3859.3750,-184.3714,-31.3735,-182.2787,215.9945,-47.7270,153.0848,-45.6799,146.0512,-113.5723,198.9514,-127.6226,18.1967,-123.6028,133.1145,-86.8345,67.2197,-10.4382,263.9680,-39.0864,22.7109
-3851.5625,-115.1621,37.7954,-34.8069,212.6632,-65.5811,191.7213,-99.5837,74.9587,-149.6860,200.8161,-83.0232,21.2550,-160.5289,169.5336,-121.1437,143.0946,-84.2412,189.5228,-79.3561,-85.4771
-3843.7500,-183.8638,40.0839,-75.2485,176.4520,-73.1840,150.4717,-100.1712,145.9804,-152.7148,197.8013,-117.3691,-18.5845,-162.3562,201.0636,-160.3587,325.0560,-117.9649,153.1964,-44.5292,-14.5497
-3835.9375,-180.1773,-27.2272,-72.3032,106.6458,-71.8476,191.6245,-133.6325,114.4047,-149.3467,166.2032,-95.9472,23.9819,-85.7879,240.0012,-119.1831,366.4151,-118.2873,224.2964,-148.3095,-83.2181
-3828.1250,-201.3024,-12.3295,-99.1610,119.0536,-97.5922,273.9895,-116.7259,234.0332,-102.7759,286.8271,-121.2383,-3.2517,-149.0378,248.1564,-145.8195,265.9928,-316.4327,165.6098,-101.9025,0.3078
-3820.3125,-274.5581,-86.5310,-295.1413,42.3722,-91.6506,225.2549,-41.4809,261.5695,-40.3137,240.3579,-193.7305,61.4182,-123.3986,272.2373,-118.5529,145.4963,-216.6936,229.8556,-2.6118,100.7355
-3812.5000,-267.7805,-44.6784,-248.0811,82.7556,-137.2540,272.5796,-119.1071,199.1449,-31.8243,287.9342,-190.2265,109.1466,-113.7033,317.3997,-72.2278,267.0964,-280.9198,200.1771,-173.3018,1.1927
-3804.6875,-410.3195,-11.1139,-331.3259,183.8551,-145.7444,299.6140,-111.1419,264.4289,-39.6459,316.2175,-265.6867,100.5717,-159.3057,307.2827,-79.2138,332.4200,-320.4675,230.2069,-178.3066,103.3486
-3796.8750,-372.8302,-9.4961,-255.5299,183.0164,-103.1420,265.7036,-117.5936,157.7588,-110.4327,246.5570,-221.2231,142.0585,-118.8596,309.2403,-40.1616,262.7852,-179.9576,300.3205,-213.2766,33.5487
-3789.0625,-255.1021,38.3891,-169.4840,122.4546,-129.9681,242.0607,-147.7565,172.3428,-97.9921,224.1646,-164.7501,82.8034,-107.1803,320.4775,-62.8826,424.4036,-310.2196,169.7034,-204.0193,-26.0223
-3781.2500,-246.4020,-22.7166,-241.4556,93.9193,-95.2038,206.4373,-100.6389,137.9440,-58.5680,116.7842,-164.4352,122.5508,-66.5196,284.7351,-59.6294,317.0341,-197.5042,211.1199,-161.7741,87.4106
-3773.4375,-163.6248,60.2808,-193.3338,174.5020,-87.3054,217.9287,-132.2192,40.6422,-158.0575,92.5069,-110.2853,172.4109,-19.7594,295.1242,-11.2878,145.7871,-187.6943,185.6690,-223.4495,62.9346
-3765.6250,-239.9134,89.2348,-244.2602,131.0492,-77.0834,168.3773,-75.9882,139.3024,-170.6065,191.1978,-159.1705,124.2184,-68.0534,280.4798,-58.9963,207.5086,-265.9578,178.1713,-55.1801,161.4074
-3757.8125,-301.1226,-41.7093,-232.1004,32.7072,-37.8336,106.9248,-38.0219,79.0625,-122.0652,131.0023,-165.7880,137.1341,-20.2517,254.9516,-10.6013,184.3322,-118.1226,255.8101,-48.8233,63.9784
-3750.0000,-231.5439,-6.8355,-122.1399,65.1926,-60.5793,180.2891,-68.5438,116.6205,-85.7351,95.6147,-112.7781,27.8602,-19.6598,254.2503,27.5759,221.9790,-261.5090,111.2725,-122.6957,-8.6618
-3742.1875,-198.9467,-43.9054,-168.1451,25.7519,-40.1566,97.7189,-46.8082,109.2366,-94.3630,51.2876,-115.2877,-16.3581,-28.0288,170.6212,18.7838,251.7016,-159.8560,142.8083,-91.5251,93.7549
-3734.3750,-56.6188,28.7711,-92.4051,60.0797,-76.1992,100.9056,-126.4950,39.5940,-128.2538,91.7116,-55.7821,61.1815,-25.6365,171.7634,-14.2553,182.1712,-125.4500,72.1309,-197.6239,23.9119
-3726.5625,-35.1155,156.6609,-149.4666,80.6364,-104.9878,80.3097,-101.7787,131.1644,-111.9504,146.3508,-83.7027,79.9241,-81.0568,188.1262,-33.1084,125.8440,-210.8714,-12.3216,-107.5355,115.2617
-3718.7500,-45.6997,75.4977,-162.5923,33.1640,-63.4186,30.6719,-56.1793,-28.3116,-50.7001,24.9417,-90.3679,141.6221,-56.5336,174.4582,-9.0271,78.4795,-11.3412,79.2147,-85.4992,103.5606
-3710.9375,39.3986,56.0405,-37.0091,45.4073,-77.1833,48.7454,-69.8279,-46.0926,39.2507,80.2370,-37.4960,50.0285,-77.3133,153.5129,-27.2505,96.8266,-104.1291,-13.5374,-108.7847,11.5422
-3703.1250,-46.2244,5.8927,-58.1292,28.9704,-24.9209,-9.8709,-28.5429,6.4314,17.4856,22.8430,-50.8553,-7.2618,-60.8012,93.8932,-48.1878,39.4914,-15.6423,40.0257,-55.7840,100.8363
-3695.3125,52.7179,0.3415,47.3392,56.1521,24.8458,23.1221,-44.5511,-106.4445,-96.7078,-126.9414,45.4597,27.0619,45.3101,88.9104,22.4680,36.7806,115.4443,67.2289,-99.2018,-12.2695
-3687.5000,112.1709,94.3355,68.3503,147.9058,-14.4646,44.6859,-81.9358,-46.7590,-185.3522,-141.1511,47.1914,-23.0660,-44.0372,109.5108,-29.3373,133.6478,-3.9453,-17.0044,-78.0695,10.1671
-3679.6875,88.4339,72.1708,-33.7999,87.5244,-2.0095,-20.8993,-70.2924,-74.2166,-250.1475,-166.5102,14.5134,59.6576,-35.5395,80.9826,-57.3003,69.3611,112.5116,99.6484,-33.0863,56.4609
-3671.8750,81.4258,99.7698,34.8029,78.9164,-19.9380,12.2879,-88.2401,-76.9312,-181.2148,12.8830,25.7769,20.1463,-39.2870,75.2356,-60.5347,-44.1862,32.7052,90.0881,-79.3804,-57.5092
-3664.0625,-110.3151,15.6787,-23.2994,62.6355,9.4303,28.7929,1.9226,14.6659,-18.9931,-5.4109,-40.2106,-72.0661,-22.7494,54.8195,-6.4953,-99.4105,16.1746,73.8538,-26.3831,-3.1786
-3656.2500,55.1045,74.7719,76.7917,49.5722,22.6992,-54.4940,-68.6537,-178.5434,-102.5760,-161.5101,56.8331,-7.0740,77.9829,43.6247,57.7389,-71.4138,143.8551,60.8617,-179.1924,-85.6608
-3648.4375,293.9930,280.3654,104.3942,111.0392,-55.8736,-26.2592,-146.9021,-149.2455,-184.6692,-169.0933,99.2145,-51.5835,-40.7958,33.9531,-24.5378,69.0975,29.0114,-17.6090,-188.5176,-93.6620
-3640.6250,260.1877,211.3073,28.3334,110.8859,-22.5086,-65.6624,-98.2144,-150.5811,-186.4205,-207.3093,85.7584,-15.7388,-6.2375,-5.3394,-25.4894,-79.0485,169.5040,52.3093,-120.4942,-58.3071
-3632.8125,335.7497,217.6520,109.6652,115.1520,-37.4603,-20.6481,-107.9313,-177.5141,-142.7857,-124.1062,127.7660,-5.4807,1.7174,38.8030,19.9473,-179.7930,102.3842,-14.3363,-153.0931,-159.5677
-3625.0000,270.6283,188.3631,69.3425,12.7980,-26.8817,-60.2636,-59.5200,-69.0765,-72.8198,-88.5319,97.9795,-80.8683,-0.9980,-1.6671,-19.2948,-34.1608,0.5864,-80.6113,-44.3576,-14.4797
-3617.1875,215.7677,134.3705,48.3145,-77.2306,-22.0223,-80.5679,-87.2563,-125.3388,-93.5777,-70.6531,74.0208,10.0551,15.5729,50.2035,-39.2631,-17.2071,50.0934,40.4513,-100.3345,-34.0944
-3609.3750,187.6281,178.1306,54.0433,-0.4770,-71.9959,0.9006,-81.8472,-6.8478,-12.5899,47.9912,48.2305,-18.2647,-51.1162,56.8606,-68.5005,-45.4940,-120.6748,-94.7214,-60.5776,-62.9696
-3601.5625,74.5387,100.9799,-32.1428,-9.6038,-21.0618,-121.5226,0.8564,-54.2446,48.5026,-36.2519,6.8461,-28.4883,10.2858,7.6480,-43.6484,-18.6826,11.6454,-32.7704,36.2877,-0.7348
-3593.7500,115.5015,72.9165,14.7639,30.3803,-40.5041,-73.8376,-37.1289,-189.5450,21.6964,-98.3906,21.9598,56.3916,20.7906,91.5694,41.3010,30.2341,15.0640,-27.6824,-65.7543,-136.4172
-3585.9375,23.5741,52.0019,-13.1775,43.5371,-39.1844,-27.9823,-4.4499,-31.6869,31.0389,-14.3746,-9.6964,-6.5782,-6.5627,62.6795,13.3752,40.3179,-113.3936,-85.4289,16.3444,-52.9588
-3578.1250,-79.9953,-121.5192,-48.7223,-61.8808,12.3401,-99.7237,52.5254,-29.4375,31.7748,26.0325,-27.8954,-3.1378,68.4824,64.2191,52.8260,-30.2025,27.5552,-13.7467,85.8367,-87.1031
-3570.3125,-51.6885,-92.1366,18.6420,-69.3698,-8.8105,-31.5500,30.0204,3.7030,63.3971,58.3421,2.0394,-80.7907,63.4145,58.6925,11.1653,-33.8040,-156.6118,-57.1401,77.2079,-165.3656
-3562.5000,-100.6792,-140.0053,-75.2555,-119.0733,14.1216,-87.6094,101.1388,58.6057,116.7540,40.4016,-41.4802,-98.6891,43.0817,0.9475,28.2332,-125.6468,-102.0451,-0.7454,167.3259,-73.8711
-3554.6875,-76.9093,-150.0784,-47.3471,-95.9512,-25.3765,-58.8500,67.0390,15.2950,181.8973,181.2548,-42.8320,-68.7773,35.5473,30.0322,57.0891,-132.7148,-44.6675,-48.5117,83.2348,-191.5873
-3546.8750,-146.4287,-148.4022,-50.6781,-96.0530,-32.7510,-61.3253,129.7550,159.7405,288.7854,325.8671,-85.4517,-144.1167,-42.2497,-48.1032,17.6795,-61.0311,-150.5650,-153.5187,222.8855,-120.5599
-3539.0625,-196.6470,-267.3863,-68.6660,-180.7918,21.2246,-152.4456,180.5830,70.5356,381.0124,199.8318,-94.5939,-123.1058,14.2999,-64.8612,74.6019,-76.9751,44.8868,-62.1427,206.8878,-100.1795
-3531.2500,-74.6507,-179.1321,59.6052,-94.2573,-2.9580,-96.2992,84.3230,53.5724,289.4745,72.0409,-13.7465,-103.8371,33.1000,26.6698,92.7562,-19.6511,-80.4161,-151.4959,46.1265,-154.5656
-3523.4375,-75.2977,-143.4868,12.2769,-95.2964,29.9105,-105.7415,92.4330,45.0150,168.3283,-46.3497,-7.2699,-75.1736,60.2919,16.6309,47.2869,9.0662,-47.3278,-152.4258,113.7737,20.4498
-3515.6250,-24.2800,-126.1537,29.6550,-115.6152,49.5259,-125.4746,71.0865,-83.8506,74.8798,-64.0426,25.1967,-19.8059,114.1733,33.3159,64.4997,-9.5459,37.4757,-67.6204,92.1201,-34.8470
-3507.8125,-57.4471,-52.9714,27.9022,-44.0562,30.4630,-15.3402,74.2048,27.1335,110.2838,-26.8796,4.9962,-55.5876,39.8949,32.8788,-9.4629,-45.3062,-102.8880,-65.9558,127.3129,1.6905
-3500.0000,-181.6182,-140.7595,-32.8050,-62.4270,98.6945,-38.1473,121.2739,5.1665,50.7320,-85.6779,-25.3703,-40.3196,90.6634,9.5304,41.6096,-139.9968,88.8033,91.7893,142.5595,53.2769
-3492.1875,-137.6297,-164.3581,90.7028,-18.5711,77.2585,13.2657,72.9332,-53.6102,27.3702,-70.2802,7.6659,-25.8407,66.6365,59.4165,91.8748,-125.4955,61.6881,-39.2474,44.9837,-42.9537
-3484.3750,-139.8645,-167.1431,81.0116,-21.8828,74.6374,-105.5156,104.8456,-25.5876,127.8001,-115.0742,-13.3186,-70.5574,20.3923,-23.8695,82.9106,-60.2094,21.3539,-113.4760,75.2025,58.6193
-3476.5625,-91.2247,-151.0351,97.2207,-42.2825,74.0252,-161.4006,47.8910,-153.6791,107.1203,-133.9770,23.1930,-14.3751,111.0527,-6.2332,99.8309,-41.0171,105.9287,-63.7802,-52.6820,3.0830
-3468.7500,-96.1616,-13.4902,127.8978,58.7926,52.1768,-94.8180,16.3365,-85.3251,64.8873,-101.4370,35.7133,-55.7456,105.1622,24.8851,57.1918,-45.3591,-5.0610,-137.6275,-59.1249,-2.0184
-3460.9375,-184.6449,-65.4595,68.0761,39.3914,93.3122,-152.7276,79.7607,-70.4660,78.1568,-122.4067,-13.0912,-3.6173,82.7729,1.5372,108.0453,-140.2070,115.4562,-16.9511,-9.0619,49.3865
-3453.1250,-117.2665,-67.5429,142.1694,36.9034,68.0263,-115.7314,42.3998,-104.7234,78.3276,26.5192,22.3121,-1.5806,83.2868,-33.8869,109.7973,-101.1632,40.8780,-54.3508,-48.0993,-59.3277
-3445.3125,-182.3353,-60.0386,67.8722,42.0380,36.5987,-78.1279,51.4513,43.6198,115.1094,101.0501,-30.0443,-36.9571,9.3944,-71.6934,-37.8736,-26.5344,-25.1155,-119.1473,61.4767,51.5487
-3437.5000,-160.0997,-72.2138,52.9288,28.5355,44.6011,-92.1733,16.9587,-6.6927,26.2504,14.9217,-19.8496,60.0163,31.8552,-12.1351,-52.2156,-113.5812,136.2502,-62.5751,10.4110,37.7671
-3429.6875,-59.3492,-3.8550,121.5468,96.6024,40.5852,-59.6488,29.2685,27.5385,-15.0569,49.3370,19.6919,-15.4650,-9.1428,21.0067,17.9823,-116.0776,-8.8478,-135.4469,41.8957,34.5194
-3421.8750,-190.5059,-134.3733,17.3144,34.8352,91.8098,-87.9665,120.5415,-2.0795,27.7832,-17.1087,-36.1261,-44.8015,34.0039,27.3315,61.3198,-71.4242,105.2024,-21.1518,154.5507,78.4244
-3414.0625,-144.2597,-120.4670,108.5435,12.5286,77.0520,-33.8268,51.9379,-56.2625,9.0709,-34.1200,7.7722,11.3140,51.6068,45.1348,5.1048,-88.3256,116.7148,-8.3881,59.6603,-50.2414
-3406.2500,-153.8486,-24.3779,91.9925,36.4444,42.6363,23.5245,35.2926,38.7513,28.5646,24.0607,-21.3480,-3.3759,-38.5950,29.1668,-84.9356,-67.0237,-1.5778,-54.4279,82.9797,44.2839
-3398.4375,-219.2288,-52.0593,22.6968,7.6259,56.5090,-80.8699,50.3329,-28.9916,33.3113,-6.5163,-61.8848,40.1908,3.4452,-2.5261,31.2452,-23.4881,109.3947,21.8009,16.5602,50.0587
-3390.6250,-183.0882,-15.1961,60.9660,43.3811,22.6443,-42.7012,28.8653,-26.1901,107.6011,-40.5306,-46.0022,42.3117,5.0285,-0.6468,68.9602,16.5744,-32.0930,-82.4129,-54.3155,15.3688
-3382.8125,-204.2478,-69.5943,31.9811,-12.0929,78.6841,-142.7769,90.3110,-15.6321,153.6461,-102.7856,-37.0777,-20.8249,50.3556,-28.0032,41.4096,-82.6171,17.1607,-31.8690,29.5688,135.4338
-3375.0000,-107.1490,-75.7147,101.3096,-53.2527,93.0188,-73.5532,54.4310,-128.7934,147.9985,-106.7572,34.0574,-23.6555,118.9860,-33.0362,37.1494,-159.5189,44.7331,30.9863,-49.2502,57.7864
-3367.1875,-141.5851,-3.3511,60.1585,18.1116,70.1614,-2.8198,46.2574,-21.4596,107.8575,-35.2391,8.5704,-61.9933,79.1070,-35.5475,-3.6292,-87.9246,-61.1988,-1.6674,-13.5547,128.6290
-3359.3750,-183.4109,-43.3703,15.6685,-23.8630,102.9779,-82.4446,73.5087,-100.4908,63.3792,-114.0955,-11.1749,5.3097,108.8823,-78.4010,26.2373,-167.6945,142.5399,61.3431,12.8080,122.1175
-3351.5625,-55.5588,-53.7127,154.9050,-35.1244,90.8357,-54.3625,50.5522,-144.8415,55.6061,-122.2656,58.5820,-0.6894,100.3656,-50.5363,54.7953,-138.7715,58.9801,-55.9453,-0.1275,4.2821
-3343.7500,-101.5988,-132.9234,101.3037,-10.2212,83.4640,-69.1232,63.4504,-50.0380,37.9970,-99.2911,9.6892,-16.5519,9.9963,-30.4990,1.4760,-43.7091,46.5660,-30.0856,57.1092,98.5965
-3335.9375,-108.5789,-138.0584,97.8169,19.7941,59.2577,1.2174,-20.1982,-89.1475,-38.5073,-28.2321,8.4054,55.6898,7.7264,41.6586,-74.7529,-44.5791,76.2721,104.8839,-54.5405,23.0013
-3328.1250,-88.7471,-10.3588,117.2007,75.6766,24.8665,58.4189,-51.7330,5.5893,-56.1584,-7.3254,10.4064,40.7718,-46.6997,24.6839,-164.1352,-23.6067,-10.1867,19.6915,-35.3283,43.2445
-3320.3125,-112.6668,-69.3888,88.8824,16.8657,83.7782,-43.0765,17.8284,-94.3773,25.4941,-144.1286,17.9508,13.1479,35.1761,-76.9694,-119.2243,-51.3380,140.6629,65.8058,9.1972,88.7918
-3312.5000,-4.4643,-28.2939,207.7297,-13.7767,75.3974,-34.4127,-13.6190,-159.2068,34.2951,-135.7938,77.6181,22.6780,43.2141,-68.4455,-75.1715,-77.9249,108.6686,1.0732,-58.1349,-12.5316
-3304.6875,-69.2918,-20.2123,135.5929,63.5999,77.2594,-31.7441,24.5351,-46.0378,-0.9013,-94.4711,26.2833,27.2003,-27.7510,-65.9026,-73.1420,-146.5215,79.6742,42.3323,17.5527,64.1436
-3296.8750,-67.2036,-52.2103,105.4255,66.9329,74.0124,-24.1293,16.5214,-111.9368,5.8581,-87.2198,35.0300,71.6754,52.2379,-58.3921,6.8212,-213.1826,151.6549,80.5422,-50.7981,-39.2374
-3289.0625,-50.9414,-34.0195,86.4856,119.4869,25.7882,30.6970,33.8083,-18.6537,59.8201,5.2178,17.1706,17.3458,-3.5804,-39.6565,-12.0315,-157.6546,-43.1648,-42.0519,35.0556,-57.4320
-3281.2500,-108.5717,-89.6993,22.6974,28.2130,48.7783,-69.3219,58.9982,-8.2223,69.9436,-57.2114,-24.4303,29.1620,-30.2551,-29.7567,-112.7411,-110.0101,110.1744,42.5081,118.0768,26.5263
-3273.4375,-12.9286,7.8966,163.2239,55.2504,30.3780,-1.0352,-29.8797,-87.5070,-10.6274,-62.3528,28.4161,97.2793,-73.6230,0.4577,-156.1520,-78.0868,100.8231,33.3680,2.4054,-53.2307
-3265.6250,-63.2154,100.5750,69.8679,147.4056,15.6230,16.3560,-16.0043,4.3066,-68.0860,-44.3998,-21.3839,78.4845,-129.8888,-55.2069,-174.4804,-60.0665,50.5590,55.3038,57.8523,38.1115
-3257.8125,-55.9891,74.7785,42.0720,120.1170,43.1805,-9.7066,-10.2460,-132.3434,-57.9818,-106.9145,1.5401,90.2391,-9.6024,-81.3088,-92.2723,-85.5152,197.8654,132.7979,-6.1396,-24.9970
-3250.0000,20.9131,83.6761,87.9992,128.5498,9.7441,109.9476,-49.6223,-48.3057,-86.1748,-22.7340,38.8768,-10.3097,-37.6240,-34.6937,-157.3800,-38.2776,28.8710,70.9890,0.5697,-52.4205
-3242.1875,-70.3282,-5.5445,-11.1681,38.9023,20.6207,85.5086,-0.0760,37.6329,-75.4670,-10.6724,-30.8508,3.0399,-100.7517,13.8439,-218.6092,-63.1445,78.7823,157.0784,120.2050,33.0583
-3234.3750,-29.5018,-33.6951,74.7783,11.3589,12.8880,98.1727,-1.6629,-23.3429,-26.6499,2.4704,-12.1287,16.4956,-124.7735,26.5079,-170.7439,-85.9234,84.8064,129.2573,90.9477,-101.3795
-3226.5625,-77.2589,-9.4207,95.1937,70.2780,15.4262,82.2947,10.6996,35.1297,-5.3761,-11.9392,-20.3867,1.3971,-141.3418,10.6449,-187.4284,-101.2632,1.2689,46.8613,113.1496,-43.3750
-3218.7500,-64.5425,-64.6650,36.1189,14.7045,50.8523,23.9112,28.9053,-58.9084,-27.6006,-106.8684,-2.0327,54.7925,-16.4040,-10.7084,-61.6216,-159.1234,155.2485,131.9604,54.8636,-64.8682
-3210.9375,-23.0857,-21.1657,82.8172,56.8962,19.5683,71.2891,-25.0528,-49.2138,-19.0756,-60.0618,36.8264,28.9374,30.2881,-0.2932,-90.0751,-38.2524,20.9779,68.7973,-9.6740,-128.6227
-3203.1250,-146.8151,-36.8314,-12.6290,41.9626,30.4836,49.5300,21.8544,4.3307,32.3123,-80.4182,-29.4033,7.9293,7.8165,-21.0084,-148.7029,-21.5334,38.5594,122.4806,78.6579,-39.5213
-3195.3125,-82.2256,-76.1693,60.2854,37.3966,31.9980,50.1235,12.0708,-105.7930,32.0533,-116.4440,-8.1072,46.2812,-29.3055,15.6432,-112.9954,-95.4686,103.5123,153.5102,38.3488,-150.0819
-3187.5000,-65.3601,-57.2266,38.5249,56.1430,11.8872,103.0257,21.5884,20.3791,10.1079,-100.1753,-29.1472,25.9224,-124.1331,-5.3902,-133.9958,-78.1210,14.7598,136.8153,90.3590,-97.3519
-3179.6875,-124.8329,-114.6147,12.4770,68.5937,67.6990,77.6242,42.6642,-40.7535,-89.1243,-162.2166,-23.7835,75.2557,-40.2591,-30.7216,-86.3045,-103.1110,201.7278,218.8170,101.0924,-85.9204
-3171.8750,100.8777,113.1796,179.6605,120.2616,27.8300,97.4333,-36.9116,-130.7036,-70.1596,-141.0768,80.3546,22.7918,-57.1842,-46.8328,-141.4218,-155.9244,110.9111,94.0092,10.0214,-176.3037
-3164.0625,153.5145,167.9170,84.8085,104.9069,7.1944,3.1978,-6.2785,-40.7072,-18.2492,-88.0075,54.6810,-34.7207,-115.1636,-103.9758,-199.5990,-213.7931,95.0520,114.1256,98.9143,-86.7336
-3156.2500,193.5874,140.0806,94.4193,41.0050,-1.2526,14.4115,-50.7125,-104.2777,-44.8952,-114.5108,73.8477,-22.7837,-68.6873,-93.6567,-116.3294,-165.2112,135.6671,190.6777,-36.7311,-186.7198
-3148.4375,185.7007,204.2771,84.1037,105.1583,-33.2001,77.6851,-78.6122,-3.8006,-92.4789,-86.9684,76.4449,-32.8060,-43.1637,-67.2728,-54.0291,-28.5870,-48.6815,42.2528,-80.3081,-123.6629
-3140.6250,95.5801,116.2463,-15.4113,52.1134,23.1939,15.7572,-8.5616,-28.5253,-82.2418,-112.6336,40.3262,-20.0296,5.1537,-55.0742,-42.9475,-90.1857,72.7832,164.6156,5.9421,-1.7967
-3132.8125,119.5382,107.3001,88.1914,9.1779,16.2757,45.9331,-26.0049,-34.1659,-88.8935,-44.2165,60.0588,10.8473,-39.4256,-24.7596,-86.7631,-58.6938,27.3581,121.0548,30.2980,-81.8468
-3125.0000,-12.8195,12.0394,20.5042,-16.0479,28.9386,15.8129,28.0805,118.8934,-46.8298,-1.1053,-7.4682,-92.5910,-107.3049,-54.7369,-155.8751,-15.5112,1.6290,165.1626,145.3751,-2.2011
-3117.1875,-9.3460,-52.4010,27.6767,-45.4221,37.3040,-12.4657,1.7273,53.7909,-75.9006,-29.1619,12.7873,-10.1832,-26.3149,-45.8607,-74.1370,-7.5114,40.7717,206.1064,43.3160,-67.7098
-3109.3750,14.9594,79.9900,15.7245,52.0619,8.9613,86.1128,-14.3651,116.5264,-162.1095,-3.3783,17.7388,-56.9331,-37.4707,-20.1237,-13.5559,-17.6671,-145.2362,125.8666,33.1168,-42.3806
-3101.5625,-45.8147,21.3074,-124.2663,-6.4977,42.8547,18.6383,49.8375,123.2056,-155.3545,-34.6608,-15.2292,-50.7353,41.3178,-51.4246,28.9624,-48.8804,-29.2849,172.5521,113.8909,73.9041
-3093.7500,15.7542,-21.0420,-19.8878,-48.7020,34.5555,51.5182,17.2079,8.2208,-88.2471,-1.6092,34.1239,-17.1859,72.4549,-18.3637,-13.1815,-52.7705,-36.9641,94.5724,70.0267,-4.4751
-3085.9375,-19.7352,-55.4563,-60.5430,-117.9461,-7.6452,11.3537,55.5934,152.1926,55.8178,142.3891,-38.9606,-92.7032,-78.4620,-21.3518,-91.3784,18.2792,-106.7018,24.5099,175.1295,66.0948
-3078.1250,-12.6965,-151.3503,-85.6435,-178.6416,-4.9186,-50.2633,68.0650,90.7017,66.4403,154.9150,-53.5062,-43.6759,-66.8137,-8.7858,-6.0160,30.8730,6.1353,68.9823,148.7994,4.2138
-3070.3125,8.7853,-56.8100,-59.2705,-118.8751,-45.0978,-23.4214,35.9161,154.6439,92.5123,181.8719,-36.8941,-53.2002,-40.7038,17.2456,18.7983,130.9029,-147.5721,-49.1268,100.9279,-43.2335
-3062.5000,-17.0461,-81.5848,-162.1823,-108.3966,-29.8927,-53.8792,73.1976,161.2841,98.2988,78.5131,-68.7279,-46.0348,-34.9020,-12.0202,25.2950,137.6068,3.4299,-3.5642,144.7842,37.0216
-3054.6875,54.4219,-113.0816,-45.7739,-104.6170,-22.7276,-9.0396,32.2196,58.2039,68.4011,48.4358,-16.0781,-1.5708,-28.8034,-4.9787,68.0832,108.5896,39.7529,-0.7301,40.9536,-66.4352
-3046.8750,41.6388,-88.8370,11.4021,-80.0814,9.8771,11.5526,50.2695,152.8704,52.2671,70.0954,8.8773,-90.3684,-44.9602,-57.1788,50.6226,19.3147,-77.1773,-12.1921,64.8881,27.8556
-3039.0625,-22.1015,-115.5656,-18.3623,-106.4939,50.2350,-17.8109,43.0715,50.5718,59.1850,-33.2198,9.4449,-45.1164,35.9428,-49.3249,21.2176,-46.9295,0.9692,171.3752,1.8913,35.2017
-3031.2500,25.4628,4.9937,-37.8091,-20.6012,-33.3588,73.1280,-26.6825,31.5584,38.4051,57.7520,1.4232,-26.5640,15.1565,5.8409,0.1153,44.1231,-161.5875,45.2132,-54.8054,-21.1655
-3023.4375,-46.9927,4.5339,-155.2545,-20.7111,-38.9589,29.0686,17.9664,97.5532,30.6424,87.7183,-67.2398,-33.0236,-29.6270,-37.9898,-7.9881,111.1802,-127.1551,10.0145,48.5238,118.4729
-3015.6250,-12.7120,-65.2041,-79.9427,-55.0762,-11.3466,-4.2484,4.0104,27.2815,-3.3545,54.4163,-30.0536,7.2650,10.3524,1.9310,67.6680,150.9712,-22.9488,43.5373,-22.3806,47.8502
-3007.8125,-50.8228,-65.3492,-46.0057,-54.8334,-1.1953,-6.9629,32.2020,61.5999,30.2634,51.6986,-33.9080,-31.8573,6.9323,36.4517,100.9135,185.3413,-129.1454,-26.3848,11.3302,81.8190
-3000.0000,-86.8388,-169.4084,-81.9599,-158.4863,62.5718,-42.5836,81.2848,25.0074,29.9916,-21.9357,-16.4038,-66.8877,116.6118,37.0749,137.2597,75.7779,46.7807,77.7661,47.1601,81.8982
-2992.1875,12.4594,-139.1813,27.4069,-127.8359,25.4983,31.0939,37.1268,25.6972,29.0191,88.7145,23.5951,-66.6174,42.5998,37.0052,62.9119,2.4934,-28.9854,3.1856,41.2938,-28.7345
-2984.3750,-8.1431,-87.8692,2.8849,-111.0874,19.1301,-67.1287,61.2207,74.4828,78.1553,64.4435,-17.3401,-90.2603,-56.3135,-60.9638,-36.3392,51.3135,21.3473,-17.3318,126.5482,56.7347
-2976.5625,46.8128,-66.0287,27.9286,-88.7908,10.2974,-41.8083,-2.8536,-47.2043,28.8474,-20.3058,9.3100,9.6425,-30.6730,2.6148,-48.0384,39.6737,112.2590,73.6751,6.3625,-28.2548
-2968.7500,39.0323,-0.9479,21.2462,46.7575,-23.0321,97.7669,-31.2677,-17.6484,-15.2003,9.1943,-12.5108,2.7835,-112.7819,105.4489,-93.4847,69.2671,0.4166,67.8840,0.4407,0.9937
-2960.9375,-80.2052,-119.3410,-67.8859,-0.1459,36.9708,46.8890,64.0020,-32.5373,6.3159,-115.7674,-55.9933,25.4625,-54.3365,90.8303,1.6226,55.3980,163.1351,159.6099,92.0944,22.7959
-2953.1250,8.0615,-64.2548,105.4933,20.4437,51.4758,35.5078,42.2512,-116.9445,-5.6542,-127.2487,20.8429,-22.3590,-29.3791,6.7204,99.2412,44.0280,111.3637,72.7976,5.2576,-98.9177
-2945.3125,-39.4218,-3.9257,52.1353,80.2858,50.3511,20.3786,41.6513,14.8972,-21.3626,-32.4980,5.6811,-73.9409,-45.1729,-82.1334,-26.8957,-45.0986,64.8394,97.1955,64.6860,-4.3799
-2937.5000,51.7531,-16.9647,77.4398,-2.2241,70.6891,8.8934,32.5794,-70.6318,-33.4133,-118.1228,58.3797,25.1283,15.6895,-56.3389,-40.3763,-203.6088,156.9880,154.2253,50.7756,-53.1943
-2929.6875,114.1942,47.2428,106.0141,-42.4831,42.1531,37.6635,42.3478,-41.9238,30.7931,-126.5082,76.1619,-18.5594,6.8041,-27.2891,-12.6007,-174.8756,-60.6247,6.4566,79.1218,-24.7688
-2921.8750,-55.4183,-119.6197,-110.4647,-138.7975,66.1713,-32.6221,143.5575,-38.2626,107.9612,-120.9529,-13.6324,-51.3112,120.8718,-23.2951,138.1289,-97.1862,16.7174,47.5980,156.4406,52.6169
-2914.0625,-78.8716,-142.3551,-53.7836,-124.9706,42.9515,-11.7657,103.1235,-91.4736,91.2927,-65.2628,-9.7994,-29.9175,140.1060,-3.1553,157.0223,32.6344,-5.7741,-9.1387,99.9179,-74.8585
-2906.2500,-104.8638,-129.6475,-11.6347,-78.6910,39.0497,-43.4593,65.4908,-12.2406,60.0803,-60.1294,-15.1187,-61.0855,71.7961,-33.5698,51.3690,75.8869,-30.8210,-68.4713,74.8577,41.1134
-2898.4375,-49.6562,-144.7621,8.7230,-92.2172,97.6890,-58.9619,73.5399,-137.8188,6.0767,-148.8192,28.9979,-3.0550,128.6948,-85.7819,144.9221,-123.6796,95.3482,91.3675,-10.9909,61.2856
-2890.6250,-20.6224,-79.0882,78.9009,-24.9503,83.1381,48.3340,61.3436,-104.6118,2.8815,-115.7283,50.4271,-5.2335,88.4025,-52.1881,141.2899,-163.4495,-50.6861,50.9511,-15.0327,21.2464
-2882.8125,-122.2737,-107.1270,-64.6195,-19.3959,59.3348,14.9180,98.5251,-28.1108,80.0078,-75.3550,-41.0473,-1.1276,18.4127,-48.2988,33.9664,-122.9171,25.5819,125.7815,95.2454,61.5169
-2875.0000,-53.9594,-144.2355,14.8124,-53.9042,40.8264,20.4445,57.8487,-95.6762,85.0946,-70.0407,1.5070,4.9213,60.3882,-5.4594,75.6069,-8.4426,59.8093,53.5308,23.4785,-80.2674
