Time,Fp1,Fp2,F3,F4,C3,C4,P3,P4,O1,O2,F7,F8,T7,T8,P7,P8,Fz,Cz,Pz,ref
-4000.0000,-70.5966,1.0473,-16.2853,41.2243,-7.3141,57.9706,32.8536,10.4901,-190.8116,-6.3385,-33.9953,-54.2756,-109.0368,14.1321,-116.6176,12.1539,16.2414,155.4270,-22.0940,183.2692
-3992.1875,20.8167,18.5329,-57.7397,-41.3270,-11.5775,19.0318,-81.6359,-250.0788,-124.0700,-157.4252,-21.6264,-22.6956,-4.1801,9.3683,23.4878,-65.8866,250.1504,76.9316,35.6278,-0.3945
-3984.3750,194.7184,7.5606,120.3018,-76.3934,94.6571,-19.3806,99.3730,-69.1446,-20.8315,-51.0233,56.9928,-175.6368,-157.8275,-30.9053,-164.8944,188.5870,3.5416,-61.0569,34.8431,73.4510
-3976.5625,-20.8434,-7.0897,-106.1113,-79.9165,-96.5686,49.7745,-128.0661,-0.6078,-31.0574,51.9123,-75.7137,-36.0411,-92.9521,110.3646,-99.7446,72.6438,210.4587,79.5228,66.5993,144.8968
-3968.7500,40.3247,-58.9679,5.2074,-121.7036,-20.0569,127.6982,21.2171,-70.3251,77.4513,53.5718,13.1671,-108.6949,16.6794,75.3794,47.1783,-70.5496,62.1428,-135.1264,93.0967,-68.8876
-3960.9375,-45.1995,-43.8335,-55.1632,-100.1996,-81.2401,178.9415,35.8127,238.2853,15.2551,30.5260,-45.7401,-60.0728,-118.4074,89.6870,-87.6119,-18.4106,-56.9177,-4.4763,79.8795,132.6481
-3953.1250,-66.0591,-4.9455,-141.8622,-49.0080,-167.7499,241.9108,-159.9187,42.6422,-1.2532,-165.8175,-61.0325,-2.7477,12.1876,1.6945,80.2929,-177.5472,239.7109,49.9099,60.3556,-23.0705
-3945.3125,165.8246,29.0826,29.1839,9.9085,-69.5166,232.6445,-23.9000,179.7528,21.0053,-177.4162,40.1051,-161.6956,-110.4612,-81.5594,-80.0291,32.0752,53.0660,-98.9612,12.5811,-30.0331
-3937.5000,57.7934,63.5610,-53.6741,44.9017,-263.1936,225.4883,-290.7689,246.0177,-65.6255,-186.9000,-33.2808,-61.5617,-122.0295,-17.7244,-127.2652,23.8382,261.4737,79.2725,10.8971,149.1522
-3929.6875,213.9765,47.3788,82.6852,-8.8739,-162.6481,144.5974,-226.4200,-20.4498,-4.9997,-271.1239,76.2826,-147.1777,-25.3449,-100.6406,6.7687,-59.1409,208.1292,-5.2129,62.4547,-40.3867
-3921.8750,177.1514,26.7454,75.0405,-41.6675,-60.0974,66.7266,-12.0553,195.1088,-15.3602,-204.3439,64.2033,-192.8221,-143.6665,-144.5719,-111.1826,44.9050,-2.2649,104.2991,64.0087,141.0851
-3914.0625,65.1389,8.9571,-71.7867,-81.6370,-60.7121,67.7318,-85.8534,-22.4230,55.1350,-204.7032,0.9004,-120.6265,-35.1448,-144.6543,69.7189,-173.1756,203.1598,138.6872,163.4128,35.4495
-3906.2500,162.2520,-17.6735,70.5148,-88.4886,118.8190,-43.0884,204.4887,-25.7966,157.7983,-171.9178,85.3682,-199.2948,-42.4563,-184.5884,27.8007,-66.0911,-84.2884,-75.7745,191.9721,-37.0377
-3898.4375,-13.3490,-12.2273,-119.8924,-87.0632,2.6548,-46.5835,126.1454,81.1852,111.7666,-104.8209,-30.2561,-60.6790,-50.4874,-154.2230,-16.8277,-70.6596,-13.4981,70.0725,157.8204,144.8039
-3890.6250,56.3127,-7.8693,-72.0326,-85.3587,87.7752,-69.7590,102.0768,-198.5141,157.0321,-239.4252,30.7215,-49.7525,106.7846,-177.5514,177.8642,-204.9248,93.5883,-64.7555,123.9640,-95.0318
-3882.8125,143.8233,46.4244,88.6785,5.1732,174.7608,-52.0742,152.8707,0.6426,58.1684,-262.1928,74.6130,-72.9959,-64.0862,-90.0436,-31.5694,-5.3259,-28.5105,-76.7447,36.9510,33.9795
-3875.0000,23.9143,77.7603,-34.0265,26.2885,52.3318,48.2214,-151.7411,-155.5554,-66.0874,-347.3533,-11.5759,60.3541,-5.3669,8.0553,66.5965,-89.0966,344.9655,18.8861,24.5306,-9.3734
-3867.1875,238.9374,57.1067,161.2053,-2.6653,174.8414,62.4797,7.5748,-214.8103,-21.3774,-445.5727,115.8118,-76.3488,4.3195,-15.9017,76.7428,72.0886,138.3937,-252.5315,-41.9462,-139.7818
-3859.3750,104.0676,61.1409,48.5445,5.4711,63.4485,99.8430,-29.9998,42.0669,-62.5494,-410.6888,29.5865,-5.9606,-71.9061,55.2324,-37.0135,144.4079,145.8742,-170.8656,-33.3352,83.9269
-3851.5625,90.9217,33.9830,11.6093,-40.6646,61.7744,139.9668,-140.8552,-140.2837,44.0426,-373.0527,39.8294,-7.8126,72.6214,56.1217,107.9923,-74.5099,310.1041,-179.4387,60.0203,-168.5883
-3843.7500,104.5386,38.6754,63.4294,9.9209,150.8487,194.8447,96.0377,208.1123,20.4096,-210.6739,52.1290,-103.9285,-98.0912,-75.2547,-62.2210,53.3488,79.0548,-124.2849,75.1209,-148.3616
-3835.9375,-10.2041,71.1879,-56.1055,38.1335,-42.4434,298.3804,-205.4284,275.2052,-102.5658,-219.6319,-17.4473,-4.3992,-72.1614,-83.9846,-35.7868,-175.1038,317.6178,83.5268,67.8580,-115.4511
-3828.1250,305.1336,81.0126,168.4410,38.4195,-1.6580,269.0243,-127.8254,208.3913,-63.4232,-252.4946,145.2182,-184.7608,-70.1098,-152.6202,-32.2101,-169.4549,106.2803,-89.5547,31.6926,-216.4415
-3820.3125,145.3259,13.6170,99.8436,-13.4701,-142.0171,240.5227,-120.3524,473.4556,-60.3991,-25.4996,54.6183,-216.2886,-212.2076,-109.4262,-211.7700,22.0767,-86.2658,144.1984,86.3686,88.4243
-3812.5000,2.9864,-93.8145,-43.2877,-118.8823,-174.8954,173.5271,-152.4033,260.0497,14.1444,-21.9943,19.7701,-213.3023,10.2022,-104.7272,85.1904,-81.8721,-87.3268,183.4636,155.5387,-12.1874
-3804.6875,64.0419,-160.7838,53.9767,-125.9247,-3.3710,89.9383,91.9470,397.0398,72.1147,39.9080,91.5469,-337.9182,-4.9656,-153.6324,34.5858,127.5886,-518.0096,38.1029,42.1068,90.5776
-3796.8750,-142.5091,-180.3776,-94.3671,-119.5886,-115.4484,55.7551,-165.2944,360.4788,-4.4959,112.2224,-12.9081,-194.1362,66.2621,-44.1424,69.3853,91.4850,-371.3392,155.1309,-56.9296,277.7595
-3789.0625,-34.3242,-193.8142,27.0191,-114.5331,7.2109,-39.6702,-114.8127,80.6690,41.6713,124.2829,73.1980,-218.6020,186.2631,-67.9115,189.9743,69.1316,-436.9147,-12.0904,-123.2145,111.6832
-3781.2500,-90.8253,-164.1401,34.7143,-64.2000,14.1811,-29.7910,-71.0184,311.1761,-63.8239,169.6445,31.5894,-139.7829,45.5739,13.6075,12.8813,225.1100,-563.2368,41.9627,-213.2045,307.8903
-3773.4375,-203.2508,-166.4967,-39.5122,-68.7843,-96.7604,83.1914,-254.1463,129.8185,-140.2001,-14.8892,-3.0857,-30.8473,189.9875,122.2300,194.9031,42.2119,-322.4746,76.1236,-219.1021,202.2099
-3765.6250,-22.9722,-145.5313,186.9592,-28.6917,-17.0025,128.8758,-99.5855,249.1444,-98.8410,-44.7262,92.0874,-136.2141,47.1316,92.5403,52.6711,198.0134,-564.0297,-56.0481,-284.3057,177.2015
-3757.8125,-226.4366,-114.5366,5.6866,15.6293,-197.9912,245.8029,-279.7711,438.7527,-172.1999,32.6986,-61.7398,12.6672,-60.4701,171.0879,-54.2990,203.0983,-379.3802,168.0085,-345.2678,332.4516
-3750.0000,-130.0665,-128.9742,118.2425,-26.2267,-85.1467,286.5749,-240.1389,223.2109,-171.6767,-38.0273,17.4218,-59.5841,12.8053,99.4874,56.6194,134.0345,-316.8717,58.9055,-387.3824,119.5462
-3742.1875,-113.0783,-108.1702,165.4081,27.4968,-73.6959,300.9398,-190.8970,494.2708,-236.5055,120.8494,9.6678,-85.2407,-160.3029,75.4728,-115.8347,258.5940,-510.8067,186.3606,-439.9047,283.2138
-3734.3750,-251.6046,-89.0176,-8.9455,67.6993,-247.7602,313.7985,-475.1669,358.8641,-266.8067,203.2460,-81.6714,68.6191,-41.9081,120.9615,1.2253,48.6818,-260.2671,335.3091,-364.9350,187.3931
-3726.5625,-61.9262,-98.9044,160.8953,47.0730,-151.6307,228.8509,-230.2593,347.6369,-98.8671,263.8325,22.1209,-56.3104,-58.2772,34.6429,-49.4640,147.9678,-456.5345,108.4304,-349.7704,31.7410
-3718.7500,-130.1289,-96.5670,8.8509,-19.4769,-340.3989,189.9962,-308.2471,493.5347,-68.7848,332.5250,-75.3206,-24.1431,-137.5436,67.4137,-91.0400,182.3868,-347.7550,291.6248,-276.5168,216.1834
-3710.9375,-114.2929,-150.8483,-0.1686,-108.0022,-238.1399,112.1856,-205.2170,193.4930,67.3811,215.2750,-11.1497,-107.9033,73.2607,-50.7664,156.4690,-8.1410,-259.9249,207.8653,-82.2113,-7.3332
-3703.1250,-112.0371,-191.0251,1.2197,-138.1565,-16.4672,-30.2346,127.2248,380.8388,176.9946,290.4225,10.2532,-217.2617,-0.5079,-121.5576,46.4152,142.7430,-537.7306,180.4709,26.4923,72.5061
-3695.3125,-351.0834,-229.1451,-209.7019,-200.6335,-44.0950,-91.9568,26.3637,282.9183,221.3338,189.2796,-102.9111,-99.9090,117.4327,-39.6512,202.0766,7.3467,-284.8730,262.7689,104.8929,50.0428
-3687.5000,-222.5821,-228.9515,-29.0828,-176.5880,173.8231,-166.1320,246.0304,136.5303,254.2654,77.6890,5.3739,-175.9905,150.9567,-41.2010,236.3388,43.4886,-400.4623,9.5921,94.8467,-130.9134
-3679.6875,-306.2086,-175.6537,-125.5988,-152.7082,115.6070,-147.4686,114.5637,338.0085,193.0936,202.9542,-94.5942,-15.2206,17.3417,48.0815,66.4675,97.5068,-343.2529,36.2250,81.6431,72.9513
-3671.8750,-303.0353,-181.7630,-147.3286,-183.0488,57.1698,-93.0124,-17.1354,61.2957,353.7595,256.0229,-117.8314,35.3763,104.5517,64.1633,191.4264,-31.6712,-128.2477,-129.3553,123.2269,-127.3977
-3664.0625,-186.5296,-161.8548,-65.7456,-136.1123,29.0415,-8.2732,139.4630,292.8507,470.7701,411.3822,-103.1288,-30.7195,-72.8981,-1.4685,-21.2619,199.4529,-362.9597,-289.6899,99.0991,-40.4983
-3656.2500,-400.3024,-156.4167,-253.4520,-136.4959,-196.3886,63.1443,-121.2408,291.1230,426.5152,444.4479,-238.1353,110.8972,-41.6334,67.5986,9.7651,160.2981,-49.0046,-111.3517,132.6543,33.0911
-3648.4375,-216.7633,-122.4962,-122.8651,-92.5995,-102.5346,50.8522,10.3154,130.6700,446.6001,318.7977,-147.1270,57.8363,-22.0290,15.9658,68.1437,183.4341,-109.7298,-274.7344,107.4999,-198.0608
-3640.6250,-290.5317,-81.6340,-170.6004,-24.0662,-113.0125,116.1904,0.5309,380.8587,287.3782,271.7955,-195.4103,119.4320,-143.7584,79.9703,-90.8037,286.2361,-146.8411,-97.5199,34.9847,-19.6032
-3632.8125,-323.2433,-58.1500,-233.2930,14.5005,-137.4544,167.5603,-171.2307,64.1057,223.2371,136.8517,-195.6753,241.1109,50.5776,92.0267,104.3217,116.0942,66.0954,-90.2798,-32.4877,-187.1119
-3625.0000,-123.9217,-32.7862,-24.9721,74.0500,-2.8938,121.9076,0.9963,127.3177,246.1431,87.9088,-48.3073,117.8051,36.9534,-66.9303,18.4941,215.9426,-191.9744,-203.0925,-42.9651,-157.6805
-3617.1875,-302.2745,-50.9861,-182.3407,36.8881,-159.0383,40.5352,-118.4762,119.8558,234.3890,42.2745,-123.6787,179.8155,135.6389,-113.5925,154.9831,135.1155,17.2147,-25.6389,25.8507,21.0282
-3609.3750,-187.8173,-96.0065,-87.9185,-22.4944,-66.4007,-47.0554,85.8115,-150.8252,363.4740,-10.5643,-25.0101,52.6570,266.1643,-166.4537,322.3183,-26.9200,-43.7831,-151.4073,71.4686,-174.5083
-3601.5625,-199.0112,-106.4389,-181.1695,-67.6007,-11.4414,-135.3725,252.4139,126.7740,343.9064,191.8925,-72.3933,32.7999,135.0192,-148.0325,155.9891,141.3588,-228.5151,-16.9357,27.3815,32.1973
-3593.7500,-333.6317,-132.4154,-316.8729,-130.1745,-35.9403,-194.1585,117.5468,-79.0702,353.9263,203.8994,-142.2650,117.5228,256.4473,-135.0627,315.2350,45.1905,23.2937,64.0641,68.8340,-61.5711
-3585.9375,-159.8205,-145.7633,-131.1647,-132.3697,185.9658,-263.5634,340.0616,-111.5540,390.4000,169.2918,-13.1790,-29.3339,257.3197,-243.6969,279.9345,195.3982,-190.4951,-109.5817,32.6830,-129.0102
-3578.1250,-333.4699,-139.0260,-281.9354,-129.0797,107.3822,-228.4867,152.0863,33.4688,200.4216,239.1858,-130.1447,76.3276,177.7112,-100.8377,201.1541,193.1207,-81.8232,108.2245,36.0157,55.0101
-3570.3125,-295.5543,-162.7926,-268.1611,-195.2504,160.3361,-174.8832,168.6245,-168.9800,215.0219,144.6274,-91.5999,90.5816,302.6876,-47.4233,363.9672,64.3765,-42.5765,-24.4534,109.8896,-182.4652
-3562.5000,-268.7799,-152.6742,-245.5538,-203.6337,146.1030,-149.5134,301.9669,187.3348,236.4726,240.8646,-115.3903,75.6501,103.5019,11.7714,128.6225,272.4358,-262.5514,-29.4025,137.5519,-45.2092
-3554.6875,-421.0274,-155.1115,-436.9906,-214.0782,-10.1871,-45.2256,73.2391,70.6075,262.9190,233.0655,-227.6031,176.6941,167.2881,40.9108,230.2496,156.4586,43.4115,33.5641,197.1535,-86.0316
-3546.8750,-175.8916,-145.2591,-211.0726,-214.1941,106.8641,0.3814,263.8315,6.1886,378.7633,202.6089,-88.6364,35.1168,136.4759,-63.6028,199.2856,164.8152,-134.2683,-209.1653,162.1057,-222.5744
-3539.0625,-244.1462,-96.7480,-292.5745,-176.7753,-10.5267,32.5075,146.9874,185.3126,296.2104,269.7029,-171.1113,138.1037,18.2357,-33.5763,81.8928,196.7328,-61.4438,-98.4044,93.5957,-4.6150
-3531.2500,-152.1244,-57.2759,-257.8282,-118.1262,-86.6882,32.8501,34.3588,-109.3347,329.9473,121.0497,-139.0091,172.3814,125.2857,1.7043,226.7929,85.8895,101.6402,-177.4295,82.3298,-223.4447
-3523.4375,-8.6968,24.8871,-149.7064,24.8551,-52.4899,32.5035,143.0796,38.3132,253.0966,118.7364,-97.8132,169.0264,-25.2664,36.3229,4.0970,270.3876,-72.9398,-242.1732,-21.5907,-111.0007
-3515.6250,-156.3286,58.2084,-267.6698,53.7214,-244.3892,64.0207,-158.3038,-40.1444,171.1890,111.3285,-198.1572,308.6049,3.1066,139.8413,70.3242,117.7878,272.3615,-104.0623,7.3752,-77.6916
-3507.8125,42.0250,56.9938,-87.6768,41.5198,-100.3412,25.4531,22.2375,-189.7028,239.2733,71.8586,-59.8117,193.1698,72.4769,26.3159,139.5580,79.1146,153.6251,-289.0468,-4.7146,-261.5050
-3500.0000,0.6376,66.0697,-102.4501,36.5008,-42.0734,-59.9511,44.9913,-17.0757,187.6096,94.5909,-76.3243,177.9477,-16.9254,-25.0237,52.0163,177.6625,113.0495,-115.8965,25.3859,-51.1818
-3492.1875,12.1265,37.0070,-155.3754,-58.6858,16.0323,-147.5364,-7.4362,-362.6074,243.8392,-31.8223,-33.1765,198.6146,224.5565,-77.5092,294.3594,-56.9435,264.3295,-65.9253,72.3336,-247.0551
-3484.3750,172.0746,47.0182,12.1250,-38.4914,257.5569,-234.7538,308.5317,-265.7920,263.5232,-47.8549,77.4131,71.7094,134.4882,-129.6061,167.1565,2.8259,-32.9896,-148.6231,57.6804,-222.6191
-3476.5625,-33.7746,17.2896,-169.2004,-103.1551,186.2404,-230.8566,126.6502,-297.8289,228.3974,-7.7405,-35.5406,183.9839,172.5901,-53.5594,207.1199,-66.2516,147.8237,70.7848,97.1683,-143.0814
-3468.7500,216.6651,-0.9940,-6.2697,-169.5801,312.1685,-249.7370,252.9814,-501.6610,279.5586,-65.3863,97.6163,14.5472,223.9868,-75.2602,259.3814,-122.1110,80.9183,-168.5949,101.9044,-381.3692
-3460.9375,372.2266,57.9309,74.7514,-189.9605,209.1667,-239.6013,187.3659,-196.4759,176.8161,-56.9909,111.8226,22.1823,10.4647,-29.9182,9.7232,35.0756,-79.9627,-114.9907,46.6793,-185.6902
-3453.1250,340.7818,69.1436,46.7309,-221.3914,34.1029,-155.5517,-61.3325,-370.3564,74.0644,-158.6481,93.8560,140.8156,128.9231,89.3772,129.0363,-64.8092,134.1154,-73.4732,15.3970,-284.1114
-3445.3125,435.2092,84.1088,183.5423,-162.0360,96.8497,-89.7436,75.7503,-231.5011,63.1642,-95.5288,138.6781,93.2811,8.2342,42.4594,9.2041,111.0668,-88.9917,-222.2216,-66.0915,-290.8240
-3437.5000,264.3043,132.1251,33.9902,-86.0845,-52.7966,-53.3854,-146.5661,-121.0645,-14.0927,-97.8060,27.1027,201.3757,-31.8325,77.1367,-30.0081,36.5533,197.4814,-73.4347,-24.9992,-105.9941
-3429.6875,349.6990,131.8513,131.7016,-36.8875,8.7942,-100.8210,-85.6750,-389.4254,119.9351,-182.8385,111.4750,114.7646,102.3955,-44.9379,142.0757,-120.7359,282.2401,-232.4456,-10.6662,-298.9849
-3421.8750,305.6270,148.9686,149.9117,58.7545,-47.1473,-154.8555,-30.3269,-111.3897,174.4620,-17.4273,62.8384,132.6241,-63.8860,9.4195,-97.3531,46.4130,95.4359,-273.0860,-55.8942,-93.6139
-3414.0625,199.9093,163.1465,5.4385,59.6924,-228.7959,-187.6377,-248.6968,-255.0750,176.3321,21.2834,-30.1339,281.8263,12.1599,49.0767,16.5382,-59.1485,306.9384,-236.4763,-19.8326,-124.9908
-3406.2500,397.4052,180.7564,178.1423,79.7730,-129.2918,-270.3122,-38.9403,-263.6848,165.3970,11.1220,69.4658,197.2117,-36.5839,1.8817,-31.3602,78.4035,80.6131,-423.7857,-69.6242,-206.3112
-3398.4375,325.5769,212.4648,94.4846,113.4511,-250.1741,-241.4307,-196.5815,-125.7090,7.1054,0.5563,27.1246,260.2219,-46.7030,65.2839,-114.6420,70.5522,183.8630,-246.5608,-105.8224,6.9001
-3390.6250,407.9426,213.8734,188.9858,89.2701,-118.9154,-293.4354,-212.1084,-432.6208,26.9995,-161.8671,127.3185,207.4310,121.3685,-61.1583,91.2623,-127.1798,335.2948,-304.2253,-59.8690,-189.8110
-3382.8125,482.4380,222.5140,298.5803,128.1324,63.4189,-328.4351,-28.5795,-248.5417,-11.0063,-89.2534,188.1492,132.7114,9.5338,-135.5651,-19.7410,-15.8828,56.7742,-297.9113,-56.8698,-77.5773
-3375.0000,242.7449,155.4871,86.9540,64.7448,-0.4938,-280.7299,-166.3132,-310.7289,-39.2276,-42.8867,94.9755,215.7793,165.4741,-89.2279,137.0215,-152.8491,204.0043,-112.8903,-14.1370,-102.6527
-3367.1875,360.0178,57.6652,217.2516,-30.7415,202.4947,-298.1725,109.8227,-365.0937,90.4910,49.3612,205.8406,13.7906,221.3722,-143.9948,193.7398,-94.9701,-102.8229,-347.0270,66.4869,-264.9247
-3359.3750,209.3793,-11.3416,85.6032,-147.2229,143.4985,-280.6686,88.9695,-53.4958,142.2471,212.5961,108.1080,28.8284,125.3036,-17.7714,62.4811,-4.1024,-219.6664,-213.2374,56.0978,-26.2764
-3351.5625,180.2934,-70.3322,64.4742,-247.1985,121.9863,-227.7076,30.5761,-294.4365,156.5282,117.3211,122.5590,7.4160,287.7713,33.9537,262.7523,-134.7662,-73.9735,-241.9840,61.2030,-229.1933
-3343.7500,311.5510,-26.5288,198.6393,-186.9256,219.7281,-202.5430,164.4205,-85.1968,70.0997,141.2711,179.9040,-41.7151,128.5419,21.9237,66.3191,38.7807,-295.0159,-250.5587,-19.4441,-165.9640
-3335.9375,148.8354,34.2151,26.7940,-104.6990,46.4193,-79.4839,-118.7866,-109.0318,-29.3397,79.1680,56.5852,116.1420,102.2831,106.8417,40.8453,-132.7247,32.8891,-25.2421,-7.1503,-115.8474
-3328.1250,316.4826,103.1498,211.2674,-8.1790,157.4034,-78.1713,-7.7247,-327.6409,8.5606,-30.6447,153.7199,117.3428,103.3773,34.0591,42.7205,-203.9664,24.1299,-172.6803,-51.5612,-333.5235
-3320.3125,283.1260,178.2205,239.6976,132.2379,112.3068,-85.0108,-52.7483,-114.3955,-111.5970,-2.5683,116.2136,182.4668,-52.5960,25.1712,-149.4800,-63.3150,23.2505,-100.3041,-157.0814,-119.3863
-3312.5000,276.4773,195.0340,201.7968,125.3041,-0.1548,-123.2481,-239.1532,-373.5333,-150.0781,-150.8409,121.6222,254.2920,129.1136,59.9483,70.9939,-211.0360,298.0442,-141.3320,-128.9628,-229.6582
-3304.6875,434.6638,196.0552,363.6841,141.1176,88.1410,-180.7842,-40.8247,-247.0026,-98.7650,-136.3787,206.0169,121.9061,33.6245,1.4744,-24.7359,-48.0463,66.6127,-299.6890,-184.0966,-176.2830
-3296.8750,265.5788,200.6396,180.2618,146.5863,-96.8959,-179.7212,-261.8452,-172.8475,-172.7636,-26.2684,71.2870,232.1995,-3.1884,111.6478,-23.8027,-83.4173,247.8196,-116.4566,-177.5940,-27.3241
-3289.0625,368.8492,195.3770,297.1570,177.3558,-16.6351,-209.4058,-181.5999,-422.4577,-56.4330,-93.8721,147.6252,164.8413,76.3513,44.1220,57.4775,-149.5306,243.3663,-258.9711,-252.7913,-240.1514
-3281.2500,357.8116,225.5309,312.7047,270.7301,-38.7449,-229.5456,-166.7457,-186.5255,-41.4618,-41.8973,132.0036,143.1046,-55.4677,22.1823,-147.6109,-22.0674,125.5085,-164.9585,-265.3959,-39.4804
-3273.4375,236.6302,182.7532,153.0776,217.9181,-89.0571,-206.9339,-254.1145,-381.8212,-17.6632,-129.1300,87.9142,167.2117,115.5380,46.0393,97.1112,-254.8368,318.4809,-110.1770,-142.2034,-125.0773
-3265.6250,337.8291,87.4586,297.7909,71.4185,164.9436,-246.0709,146.7976,-311.9035,126.4695,-132.0898,213.4569,-20.3416,148.8948,-30.8111,95.1740,-146.3668,-39.2028,-325.1581,-41.7119,-163.4852
-3257.8125,113.7687,11.8505,90.2088,-84.4151,104.6130,-231.6130,49.3656,-114.3709,65.2795,-46.4059,88.2220,29.7809,125.9196,55.9791,71.8938,-22.2640,16.7664,-127.5519,49.4207,34.6783
-3250.0000,63.3312,-89.7741,47.1968,-171.6927,207.8206,-164.6519,79.4434,-304.3463,95.6704,-126.1859,116.0539,-50.4973,302.5355,85.3220,250.1934,-27.6513,-35.6619,-143.4358,102.0910,-191.6900
-3242.1875,-5.8993,-109.9788,41.3452,-172.8633,274.1450,-97.6480,219.6214,20.7095,15.2047,-133.8901,99.0951,-56.6519,186.2935,152.7614,96.6237,114.0336,-283.9813,-72.2960,100.8420,-50.0623
-3234.3750,-166.3507,-90.7500,-87.7686,-158.3205,181.1708,-43.0011,52.4803,-107.5685,-40.5414,-189.9070,25.9483,71.9364,277.7744,169.9056,262.7650,-198.6053,11.4220,83.4959,115.2758,-104.7955
-3226.5625,35.7268,-59.4593,129.6029,-99.3182,324.6490,-82.9564,231.7596,-185.4839,29.1859,-193.4972,159.4786,-41.9854,273.7636,18.4980,223.4024,-164.8484,-104.6760,-102.3215,104.1566,-255.1809
-3218.7500,-36.6055,16.9138,43.5325,1.1982,200.6450,-96.4604,107.5476,22.0630,-21.5607,-97.5960,60.9573,55.6204,113.2715,78.5882,26.5463,-140.6042,30.7198,-0.7127,98.5308,-47.1498
-3210.9375,25.8791,22.6583,43.2343,-8.5210,162.3802,-97.2602,33.0431,-235.6905,51.4671,-171.9546,81.4788,55.0299,223.5621,40.4448,173.4602,-250.6509,196.9075,-114.4054,88.6484,-231.4413
-3203.1250,129.8079,53.9038,144.3384,58.1221,188.4806,-180.7605,169.8834,-25.1730,77.8828,-108.9934,109.3318,8.8261,66.2496,-6.3443,-19.2420,-2.3942,-53.5370,-188.8315,49.1105,-93.4873
-3195.3125,-30.0403,71.1984,-26.3675,71.9333,17.7381,-131.1698,-76.1316,-48.5424,-19.5303,-96.8978,-5.0131,131.8202,79.1097,80.0202,31.2114,-136.0114,206.1843,1.8441,62.7152,-43.4453
-3187.5000,159.5803,60.7465,141.3569,47.1596,147.4007,-111.2282,54.2268,-176.5934,0.4748,-150.4239,123.1936,5.2562,136.4169,25.7790,89.1024,-151.2783,112.3553,-197.1281,38.7235,-207.1020
-3179.6875,87.2893,87.7112,128.1399,78.3989,59.0884,-125.3385,1.6020,66.3094,-50.4901,-18.9593,58.1736,64.7072,-25.2473,84.5252,-108.9957,-55.5631,72.5259,-60.1684,-1.2663,36.1517
-3171.8750,36.1519,61.1908,81.0409,60.7551,47.8733,-99.3940,-82.9492,-238.7269,12.6615,-103.4011,60.9581,91.2991,149.2192,74.3769,102.0231,-248.7865,230.8440,-77.1358,51.8453,-121.5695
-3164.0625,93.1478,35.9925,137.0395,80.1757,176.7350,-81.4497,192.5490,-72.7927,30.8927,-85.8202,97.7154,-0.0317,56.7800,92.2715,-25.8702,-46.0117,-101.7576,-163.1198,35.0055,-66.3556
-3156.2500,-173.1728,5.0103,-109.3156,57.2194,39.2107,2.0472,-19.3546,10.7112,-69.2602,-76.6527,-43.4473,121.2708,104.9560,212.7613,21.8298,-108.6596,86.2534,61.4419,117.7543,17.3967
-3148.4375,-90.6231,-35.2522,-13.8410,31.0815,207.4799,59.2922,111.4967,-190.0584,-11.5989,-129.7032,44.2984,32.4170,199.9769,196.0613,117.3601,-197.5619,-9.8793,-69.2438,127.3013,-219.1319
-3140.6250,-133.3792,-21.4598,-32.7107,20.5614,187.3649,113.0808,201.9560,47.7130,-31.3097,-113.1649,1.5548,50.1902,33.6260,176.9592,-48.4922,-106.8850,-126.4125,60.5962,115.4343,-18.1459
-3132.8125,-107.5281,-2.2192,-38.0066,-26.3933,106.7917,142.3625,9.9382,-180.0053,-74.4554,-267.0764,32.1069,80.5629,173.8482,95.4162,93.2137,-333.6829,142.6383,118.9468,138.1115,-135.6637
-3125.0000,116.8066,27.5429,160.1399,19.0653,155.6254,154.9912,169.3046,-94.4102,-135.1716,-255.6116,146.3472,-52.6351,77.5198,-38.7295,-3.6459,-173.1296,-92.8718,24.6301,78.1921,-159.8816
-3117.1875,-41.2753,65.5968,22.8318,69.0421,-56.0272,164.0704,-79.8183,61.6559,-235.3675,-172.6553,25.8739,67.6911,13.7086,43.6295,-103.0074,-200.0945,134.1212,180.7588,92.7695,-3.6647
-3109.3750,98.9937,95.8902,140.8403,101.3321,-12.3865,96.4111,-36.6737,-153.0385,-155.2487,-203.4125,92.3641,38.3635,58.2324,13.3038,-22.0453,-303.8096,200.4675,-33.8458,88.6536,-218.2248
-3101.5625,111.0497,109.9599,178.6045,145.3390,-50.0249,22.4064,36.1815,140.9112,-155.4116,16.5058,65.2545,1.7547,-125.5168,-23.3211,-241.3715,-82.8513,33.5264,-24.8203,27.2407,1.8201
-3093.7500,6.2148,115.5025,32.4485,142.4166,-197.6181,-15.5913,-185.9317,-8.1115,-155.5248,15.4709,-23.0178,76.2355,-52.2031,12.1105,-93.6544,-192.8636,347.6660,42.2224,58.8842,-36.1427
-3085.9375,157.8478,109.6054,157.7265,150.9102,-110.8035,-77.2265,47.3379,-31.8094,-31.2226,27.8067,54.8562,-19.8472,-74.4452,-48.0538,-116.5047,-105.5301,144.2539,-125.3861,-4.0700,-133.8077
-3078.1250,30.8561,139.4320,51.3535,196.7326,-254.6619,-37.6106,-60.0786,117.7606,-101.6020,104.4324,-31.4784,57.3939,-144.3709,-7.9181,-222.0545,-138.9239,261.1395,61.2485,6.2718,52.7567
-3070.3125,94.1567,140.2254,89.2459,185.8288,-182.2765,-1.7873,-98.2718,-177.4764,-64.7195,-81.6998,30.1387,57.9299,2.9903,-45.5225,-37.3369,-323.1202,356.3300,-19.8988,30.8619,-169.4929
-3062.5000,189.8317,148.6366,181.4891,207.2454,-91.5686,14.2916,28.8373,59.5160,-120.5127,-27.5498,71.5555,2.7883,-125.3103,8.1732,-203.2972,-122.0481,96.8388,-103.8180,-18.2531,-42.5349
-3054.6875,2.2147,102.4053,-16.5846,123.3364,-143.2100,71.9704,-134.4151,-29.8713,-135.6462,-80.7503,-33.0037,135.3361,-29.9488,103.5284,-33.6154,-173.3438,223.0191,-13.1214,2.2730,-21.9739
-3046.8750,101.5076,33.8516,127.2177,42.2984,71.9971,29.4515,153.1575,-146.4899,-66.9108,-123.1263,81.3304,-15.2254,39.3030,24.7415,35.9485,-104.8439,2.1081,-164.6192,-9.3485,-138.6456
-3039.0625,-47.6215,31.0101,33.5728,66.7860,12.7259,80.3776,131.2441,51.3491,-124.6573,-35.0121,4.9362,0.7300,-54.9286,39.4471,-94.9910,-89.8596,25.7010,70.3325,-20.4780,96.1164
-3031.2500,-94.9594,8.5444,-44.3032,86.0442,7.1890,110.0164,14.0464,-176.0978,-93.6499,-42.1518,-7.8160,-3.5272,87.6114,33.9124,84.8249,-279.1578,187.0904,124.0168,-1.8517,-131.4231
-3023.4375,41.8722,9.7180,93.9603,113.4235,143.7615,98.7169,186.9472,-4.5089,-67.5296,19.7915,60.1199,-160.6648,-69.7177,-87.5178,-72.2404,-106.3978,-67.3920,80.7513,-10.1229,-69.9534
-3015.6250,-110.5362,14.0554,-71.0435,98.5313,-22.9589,78.0736,-54.4472,12.7649,-85.7031,0.4236,-19.4256,-68.0742,22.6579,-107.2418,-15.6212,-198.9621,199.8421,276.1554,10.3010,20.1708
-3007.8125,93.2616,17.2152,111.1333,51.8079,47.4644,0.5397,89.2808,-175.8850,21.2778,-3.8181,92.0031,-144.2951,57.2211,-183.8105,55.1734,-239.4325,117.2847,87.6702,-2.1211,-168.6235
-3000.0000,29.7329,61.2515,68.9634,125.7112,2.5048,-45.4340,43.6165,73.0192,-59.1376,135.5284,22.8411,-76.8977,-96.5941,-154.7737,-134.4303,-136.3202,86.3304,160.7244,-69.9499,80.1189
-2992.1875,-36.9140,56.9807,1.6539,126.4928,-102.6147,-77.5965,-135.2243,-181.2558,-52.7074,29.7214,4.3685,3.3912,94.4584,-149.8728,55.8175,-204.3814,333.2672,90.6148,-34.9301,-26.3268
-2984.3750,137.5427,66.5560,144.4266,156.3468,1.3324,-122.7473,77.9854,-78.5519,-59.2129,21.9456,81.1349,-112.2524,-22.4029,-192.9237,-22.8607,9.5643,46.2889,-21.4857,-76.8564,2.1941
-2976.5625,-80.0049,72.1600,-53.8155,181.1788,-125.7539,-101.9857,-86.8387,14.0818,-111.7587,41.1167,-52.8139,20.0707,-37.3057,-99.0223,-38.6042,-80.5434,212.2669,143.3328,-51.8308,131.6214
-2968.7500,34.6286,34.1232,73.1024,116.1793,-36.6904,-89.1121,1.4603,-193.1895,-23.1423,-17.5813,36.0454,-37.4257,52.9755,-83.9540,51.8242,-139.5399,112.4548,-63.7267,-47.6471,-75.8597
-2960.9375,49.4206,16.1242,75.1688,57.3026,0.4970,-89.1789,37.8760,63.5896,-58.4095,55.8064,13.4952,-34.8109,-92.6246,27.2169,-130.6407,118.5378,-122.2454,-87.7355,-72.3587,180.6912
-2953.1250,-88.8570,-42.8982,-69.8538,-84.6405,-73.4249,-90.3797,-146.8203,-120.7471,-21.7741,18.0978,-57.0881,76.7399,55.6840,137.2964,54.7832,45.4807,51.9913,-54.8521,-4.1655,142.1088
-2945.3125,46.3577,-67.8868,34.6004,-94.1042,29.1108,-63.1617,101.9231,-57.7009,82.3187,82.8218,21.0108,-77.2380,12.4713,55.8285,11.6780,147.8253,-168.2709,-206.5518,20.4819,95.8994
-2937.5000,-171.5785,-29.2806,-165.1081,0.2667,-135.5384,64.8216,-100.5239,143.1329,-9.7893,100.3479,-124.5069,53.6009,-78.9404,111.1708,-115.6457,128.9608,-2.7294,63.5176,43.9204,259.4454
-2929.6875,-81.3501,-14.9531,-97.6598,52.8160,-106.0485,128.9302,-108.8526,-48.9199,-15.7550,56.0127,-54.3259,10.6267,25.8228,30.6830,25.1901,-25.7917,50.0184,7.7231,60.5160,-6.9040
-2921.8750,-30.6267,-16.1318,-51.7281,64.8358,-63.0882,134.4617,7.2805,250.4303,-9.2630,208.1169,-70.2446,-54.8839,-186.9391,73.6424,-187.5147,164.8805,-184.7691,-17.6644,0.5722,108.1297
-2914.0625,-203.8344,-44.6268,-196.7334,28.9317,-209.0808,170.0211,-213.5434,138.8239,29.2790,171.2771,-169.7021,21.6805,-111.6496,147.6689,-75.1872,91.5902,96.5131,120.9915,-1.3162,70.1873
-2906.2500,-10.7687,-40.1231,-27.4754,41.2994,-42.8251,151.8069,-11.1307,83.4128,123.0795,116.6676,-50.9124,-104.4795,-127.0809,19.9603,-90.5880,147.5083,-101.9061,-8.1310,-23.9456,-59.5672
-2898.4375,-155.4602,-6.3068,-153.9799,139.8957,-169.3537,169.7681,-139.4976,322.1852,32.0826,172.2531,-144.2475,-46.4319,-217.3086,3.4533,-216.8038,166.6228,-38.1299,264.9111,-68.3739,141.8432
-2890.6250,-90.5477,8.9186,-114.8863,165.1213,-170.3014,131.3063,-177.2901,25.5310,69.6768,97.4419,-90.9928,-45.7496,-68.9174,-70.4361,-32.4155,-54.6884,93.2899,182.5492,-43.2000,-81.1714
-2882.8125,15.8985,24.1969,26.7351,197.8711,-67.7336,84.3107,-2.5689,200.3244,98.7851,52.1271,-13.4791,-125.5564,-148.9959,-114.8229,-148.5117,84.4716,-120.7743,72.6459,-47.5179,19.2556
-2875.0000,-81.9962,24.1921,-117.9761,96.2913,-213.5060,83.9303,-186.1855,88.7614,26.5477,-21.5346,-81.2622,24.3028,-36.4196,-4.5509,-36.9674,11.2675,129.8230,145.3782,-44.1806,91.3208
-2867.1875,54.8683,-16.5173,30.0674,18.4842,-105.5262,7.2739,-41.0660,-61.1033,100.0647,-23.4580,-1.4522,-12.0604,0.9384,68.4761,37.3443,119.7732,-88.7828,-109.1504,-52.0892,-58.9086
-2859.3750,-80.1377,-48.6145,-48.7583,-49.1925,-112.4326,-37.3036,-49.8291,150.1163,55.6784,114.7271,-79.8662,55.6841,-78.5993,208.6085,-116.2577,259.3781,-155.2977,-37.6032,-51.8970,151.9269
-2851.5625,-117.5537,-78.2820,-153.9896,-126.2423,-72.7533,-36.2979,-121.0138,-180.0712,96.8837,7.5208,-89.5680,98.0543,110.4738,248.3574,109.7371,41.5636,48.8260,-46.4566,11.9115,-67.6521
-2843.7500,132.8514,-16.3322,31.5971,-90.4803,147.7327,-2.5140,98.6131,-71.5050,-50.0943,-67.8977,29.8648,25.2285,-36.6292,174.9173,-73.4499,187.5284,-232.2231,-83.5430,-130.4632,-70.4846
-2835.9375,138.6175,77.0949,-38.4514,17.6579,-35.4305,70.5970,-232.3962,-35.5820,-306.7232,-104.9564,-22.6117,101.7653,-107.3841,175.8440,-145.3102,77.8523,17.0741,163.7107,-198.4859,-34.9745
-2828.1250,559.1721,171.0444,191.2901,82.6168,8.1944,39.4935,-189.6342,-251.8897,-335.5573,-245.2089,163.0379,-36.8667,-99.3185,35.5954,-136.3593,-100.0523,-23.7824,50.7654,-275.6966,-324.6974
-2820.3125,895.8470,326.0802,314.1595,168.6968,-91.0610,11.4811,-216.7497,-22.1108,-472.2848,-273.3615,231.7582,-61.3986,-345.1477,-101.5471,-382.3162,-89.8610,-113.5489,99.8890,-366.7986,-206.3550
-2812.5000,1106.5038,396.8289,357.0217,129.7957,-235.3273,-23.5388,-470.8727,-278.3278,-468.0167,-343.5132,287.5531,-55.9071,-265.9716,-170.6712,-267.2845,-307.6797,199.7132,94.0180,-336.8856,-389.0101
-2804.6875,1165.2634,360.9557,713.9930,150.0136,-137.4831,-112.4702,-264.8965,-183.4911,-370.6429,-321.5764,422.1756,-214.3020,-314.6731,-294.6821,-353.1350,-211.4247,9.1035,-133.7759,-352.8643,-441.6047
-2796.8750,1239.6708,436.7926,709.6263,149.9131,-328.9818,-194.7656,-493.2550,-117.9989,-449.6209,-291.9691,412.7312,-146.0376,-356.7329,-301.0291,-395.3560,-329.5135,185.1395,40.0711,-389.1939,-303.5561
-2789.0625,972.5525,317.3198,878.7494,196.3372,-197.9878,-176.5764,-474.1351,-321.0291,-356.0993,-272.8542,438.2582,-235.2509,-225.2769,-317.8604,-263.0693,-383.1208,231.7196,48.4183,-380.0124,-507.0260
-2781.2500,1059.7910,357.3201,851.2400,210.1308,-227.6211,-98.0604,-394.6369,15.2646,-422.2095,-119.3862,416.1733,-263.1208,-437.4486,-384.3425,-512.4257,-229.3808,34.6471,95.0779,-367.4710,-355.1757
-2773.4375,1001.7020,377.6952,605.4274,148.6437,-328.5563,-52.8682,-532.4305,-87.7371,-374.6144,-184.2078,338.4764,-140.2722,-315.9151,-374.1073,-354.0922,-404.9441,289.2900,137.4383,-219.2188,-384.6120
-2765.6250,906.7454,310.4867,762.7601,155.3242,-63.3314,-83.5485,-194.0728,-118.6287,-292.8553,-287.8831,396.6787,-204.2628,-306.2029,-402.7116,-308.5873,-360.3862,50.1149,-69.0620,-177.7997,-415.9289
-2757.8125,1043.9816,403.6581,492.2992,114.2270,-150.8879,-100.0422,-283.4853,-25.3119,-416.8894,-376.3455,331.8658,-33.0542,-319.2966,-196.1090,-357.8991,-338.6091,79.1278,27.6218,-185.1692,-249.0510
-2750.0000,802.7262,313.5282,431.3636,80.7030,7.0982,-90.9892,-199.3628,-273.4496,-369.3808,-477.2469,307.3391,15.7271,-85.8299,-74.9363,-125.6573,-365.2952,221.7237,-113.1208,-78.9755,-461.6253
-2742.1875,817.2563,285.5248,441.2304,91.0016,87.9009,-86.1337,-46.4233,-47.8011,-361.0708,-323.3316,291.0140,-48.6990,-224.5524,-67.9541,-264.6145,-138.1850,-48.8819,-210.0687,-104.9691,-383.4303
-2734.3750,791.7552,333.5069,228.0892,97.3234,-17.3002,-119.2795,-188.4747,-118.1274,-354.7681,-281.3999,214.3622,69.8888,-143.2848,-61.9556,-146.5953,-280.0666,204.5184,-171.0051,-64.9523,-380.2187
-2726.5625,678.2247,227.8310,369.9371,51.6612,196.4969,-202.4350,60.4619,-201.4867,-141.4589,-290.4757,263.0216,-46.5077,-75.9941,-142.9422,-79.5588,-214.9718,87.9617,-394.9468,-40.9166,-464.0216
-2718.7500,874.4776,332.7327,231.5878,33.8180,19.1068,-270.7963,-43.7711,-13.0362,-207.3399,-210.7443,207.5225,35.8945,-251.9088,-99.1146,-255.7370,-135.0619,70.1916,-204.0970,-131.0694,-239.0226
-2710.9375,664.4697,309.7263,200.0036,101.7963,-14.5031,-195.3520,-188.2171,-268.7757,-166.4238,-281.1942,162.3005,114.1208,-100.0188,-58.4548,-67.1195,-279.3526,349.2544,-173.4258,-99.4075,-385.2097
-2703.1250,732.5377,329.7513,338.5181,201.8942,121.9980,-171.8008,-52.5449,-134.4310,-177.3989,-293.5367,212.7498,-4.5562,-256.0130,-178.6894,-260.3946,-107.5543,168.4223,-181.6708,-176.6360,-288.3199
-2695.3125,810.3199,397.5769,119.7765,171.7668,-24.7475,-173.5037,-274.1078,-173.3044,-250.6265,-331.1052,167.4211,33.5166,-218.2648,-179.1608,-258.9395,-254.9813,455.3272,67.8353,-137.1064,-180.6553
-2687.5000,652.3524,281.4370,252.3119,186.9549,105.8024,-154.9056,-107.3786,-338.8946,-192.5566,-348.3607,231.6586,-91.0999,-48.1937,-268.3190,-53.1654,-235.1174,364.5619,-60.3541,-88.2587,-309.6950
-2679.6875,668.8070,269.2089,109.2988,129.6107,-3.1805,-118.8648,-70.1618,-45.0251,-227.0249,-237.1461,169.7404,-88.2730,-155.6705,-230.0154,-160.9507,-86.7861,166.2222,-14.1082,-146.9474,-53.2853
-2671.8750,427.5474,170.7400,3.6031,61.6361,-146.8256,-43.4751,-214.5979,-228.7770,-113.1488,-197.5587,96.4762,-9.0861,32.2024,-116.3403,63.6102,-158.0998,274.2466,-14.4865,-40.2699,-89.4994
-2664.0625,391.3993,108.1760,70.0508,22.8220,-45.3091,-17.9349,70.1295,-18.3952,-11.1122,-96.8133,115.8913,-89.7550,-48.7557,-124.5090,-53.6628,52.7270,-45.5666,-90.7228,24.5805,9.4217
-2656.2500,-39.6928,20.8264,-206.4143,-23.8747,-103.6829,32.7048,-26.0192,104.1320,-32.9704,27.0627,-66.1462,36.6681,4.3725,-35.5652,35.1398,29.6825,82.6981,141.1449,152.5467,205.4707
-2648.4375,-175.2561,-86.6161,-194.3191,-90.9575,89.5277,39.9545,203.4155,-71.7346,51.7747,-0.4357,-42.0126,-24.2963,163.1154,-61.9995,230.5510,39.2307,15.5892,1.6406,224.1373,29.1275
-2640.6250,-351.1097,-146.3224,-280.4793,-128.2770,185.5078,23.9617,372.6385,243.1563,74.2856,21.8385,-100.9759,0.4822,113.6075,34.3228,143.7054,245.5420,-197.7930,-3.1186,220.4914,269.5320
-2632.8125,-574.5815,-184.6684,-440.2213,-143.1264,134.9283,45.4214,210.3177,43.5277,61.2491,-29.4039,-179.8354,97.7209,285.5470,94.1118,315.2978,83.3158,68.2767,84.5940,275.3015,216.4229
-2625.0000,-479.9554,-210.6788,-264.8292,-86.8139,271.4987,31.0321,420.1469,67.0276,124.3709,-4.4800,-92.3916,-58.8910,239.6582,47.0648,269.0565,219.2387,-155.4841,-35.5432,260.2674,129.4642
-2617.1875,-722.1738,-195.6977,-452.2412,-49.2843,82.2770,61.8490,266.1966,243.7621,119.7020,99.6691,-265.4694,84.6887,124.9568,152.2286,153.9937,250.3969,21.9311,173.5259,295.4375,268.7387
-2609.3750,-656.0730,-206.5425,-374.2984,-55.3467,121.4351,62.0800,268.6390,23.9082,270.4378,-7.7643,-204.2872,52.6783,239.6609,118.8179,268.3394,104.9640,85.7688,25.0233,289.0294,48.4396
-2601.5625,-600.8198,-190.5343,-289.1677,-1.2038,130.8032,70.5213,351.3163,252.2624,243.3896,111.0233,-194.5701,-8.1432,66.5732,128.6241,57.8891,297.7553,-106.2184,40.7106,199.8339,239.3439
-2593.7500,-759.4906,-198.2149,-421.9201,13.0985,-2.6930,118.1266,69.1548,115.8216,183.4873,122.9934,-276.3045,79.1884,154.6273,141.6082,182.5728,162.7325,153.9307,193.5653,178.7950,286.4446
-2585.9375,-597.6749,-227.3770,-288.1537,-4.0387,129.3494,100.2922,237.5427,25.9282,243.1423,108.5303,-174.4334,-42.9241,178.2494,91.1655,169.8246,295.2612,-73.3610,34.9749,125.3139,196.1077
-2578.1250,-715.1135,-244.6271,-385.5974,-52.3666,-5.8017,74.2637,101.7673,255.8707,217.6072,228.8990,-264.1784,6.7518,81.6646,140.5293,71.8625,342.6216,-86.8893,194.1856,145.6403,425.6061
-2570.3125,-612.9448,-280.8230,-344.3948,-197.9821,33.7261,0.9455,102.6865,-0.4617,294.7786,195.0000,-196.2744,-25.8572,231.7804,142.6147,258.6019,160.6990,-21.7030,82.1314,244.6819,241.8449
-2562.5000,-565.8335,-325.3310,-265.2143,-293.5853,111.2658,-33.3677,327.6295,258.2068,372.9622,309.1241,-174.6239,-93.4731,91.9060,111.7118,154.3524,348.7962,-363.5249,19.0724,288.7389,354.0884
-2554.6875,-835.0473,-380.3218,-512.3104,-352.4213,9.5635,47.0786,152.3427,301.6698,345.8969,354.0295,-310.0374,27.6539,174.7719,229.5706,236.8331,245.6715,-212.6077,167.7830,368.5595,397.1302
-2546.8750,-756.5882,-413.5831,-385.6902,-346.5017,170.6171,59.2868,385.8048,167.8834,434.5843,331.6953,-226.9121,-66.4714,227.4068,245.1926,290.0846,187.2926,-346.9221,-74.7360,373.1516,188.9382
-2539.0625,-843.8885,-372.4648,-449.7816,-259.2774,142.9952,29.8066,393.6082,358.4324,369.5820,412.6905,-285.4571,-19.3158,128.3365,217.1268,153.6253,231.2439,-329.9747,81.0469,319.0572,379.0703
-2531.2500,-890.6847,-381.5276,-490.3225,-237.4501,135.9614,57.9445,277.0121,55.6238,401.1764,296.3174,-277.9066,-23.5507,306.8667,101.6827,368.7650,151.8164,-62.4269,64.4610,374.5830,186.8488
-2523.4375,-838.0997,-358.7861,-363.4402,-150.1720,225.3889,71.5474,475.8906,217.2699,454.2411,348.4112,-239.7212,-80.3498,176.8589,7.6988,201.3695,313.8573,-257.4418,8.3289,319.5779,200.0860
-2515.6250,-1028.2915,-315.1732,-530.2869,-59.5860,58.1223,159.4604,197.0999,305.2702,323.6133,363.8438,-364.2904,85.1427,157.1341,134.0272,181.2524,182.2426,-26.1922,236.5242,267.8845,287.6775
-2507.8125,-821.7263,-277.4479,-344.3355,-32.1465,167.6892,194.2506,234.1526,120.1340,287.8443,180.1514,-229.2553,49.4850,233.2702,99.2263,256.9995,109.4850,-68.0734,16.6006,225.0603,102.1484
-2500.0000,-823.2239,-267.3577,-284.4035,-33.7094,153.2695,141.0636,254.2441,360.0302,199.0906,164.4869,-229.4601,36.8058,109.4042,158.4409,132.7442,276.7612,-176.9931,48.6736,186.2577,378.6440
-2492.1875,-928.7216,-315.6747,-392.4237,-105.1682,6.9304,104.0022,72.4422,103.0814,311.4434,164.9646,-289.1211,76.2303,258.6303,158.7809,354.5812,167.1702,68.1851,44.8771,219.5728,304.2947
-2484.3750,-794.1044,-326.6307,-252.2854,-76.4215,72.7874,20.1637,319.8588,165.3421,378.0108,303.6698,-221.3232,-40.1495,178.0681,79.3351,237.6340,379.7973,-220.4376,-105.7093,211.1114,294.1549
-2476.5625,-998.5146,-333.4535,-437.1246,-69.6083,-113.2990,16.3973,134.3586,345.7122,302.6302,412.4554,-347.6999,32.5111,141.5389,114.9557,163.7129,377.5150,-74.0484,109.7765,286.7130,474.1127
-2468.7500,-934.9224,-386.0511,-397.9145,-183.6899,-2.3016,52.7541,207.9534,161.2044,415.3563,376.3646,-294.1443,-38.7262,217.1162,78.6894,275.9029,268.3355,-117.5423,29.3961,418.4351,252.2077
-2460.9375,-1030.0879,-433.3577,-431.4203,-209.4673,74.0188,126.4233,393.8904,493.0154,454.4010,525.6016,-336.3979,-71.6927,73.9964,155.7127,95.3970,380.4748,-389.7682,107.3122,426.4773,399.6252
-2453.1250,-1199.3464,-445.9370,-642.9700,-238.2434,9.3385,243.1047,180.8461,389.8806,353.4487,497.8819,-430.9840,86.3380,193.8672,237.7481,214.8754,204.6444,-208.0105,251.2638,396.5339,333.1082
-2445.3125,-916.8464,-385.6896,-379.7130,-167.1696,159.5089,246.6540,295.6603,356.5970,248.3623,428.0376,-279.3014,19.2126,126.6068,169.6423,147.2281,246.6687,-453.3980,75.0853,255.4611,225.4617
-2437.5000,-987.4251,-335.3113,-424.4827,-97.0906,40.6930,236.2224,102.5154,529.3669,20.2894,418.2319,-336.5489,85.0666,46.3315,234.5466,29.5676,346.7377,-314.8313,247.9181,184.4041,397.8608
-2429.6875,-847.1595,-335.8456,-303.3627,-63.0658,122.8075,206.7663,74.3207,206.1312,140.1784,354.4167,-240.9995,-51.1294,167.0083,134.4202,186.8652,208.7766,-139.3143,102.7330,146.3221,148.2578
-2421.8750,-716.3165,-314.5978,-136.6193,-37.3982,178.5828,150.9774,203.8145,371.5702,196.7400,411.2799,-170.8587,-140.7000,41.3441,44.9501,23.8243,375.4963,-326.1792,56.1945,65.9059,276.3287
-2414.0625,-831.9641,-277.5099,-258.3163,-12.1382,56.9474,137.8039,-29.0706,210.6711,147.9070,324.7812,-248.1147,-3.6780,104.2713,107.0960,123.3734,178.8647,-19.4727,219.2826,54.1056,299.0688
-2406.2500,-690.1038,-265.1859,-102.4612,22.7124,174.9017,106.2507,125.6465,33.3845,156.6877,259.9096,-151.1350,-31.0595,149.8135,114.8618,168.5441,186.8439,-160.1667,42.0000,17.9310,121.4401
-2398.4375,-761.1253,-212.3203,-185.4399,93.7596,91.0676,94.9282,78.6074,242.3521,37.6889,323.2717,-226.1807,69.7385,30.5421,214.8385,12.9003,213.0635,-160.7108,181.9425,-17.0221,330.0533
-2390.6250,-714.1135,-225.7967,-201.3358,33.9553,36.3661,112.7966,-49.2822,3.5225,57.8471,195.8274,-196.5730,90.6866,198.4127,235.9854,216.4017,86.4525,-9.1085,120.0889,-7.8013,127.8722
-2382.8125,-526.0283,-179.0639,-44.1130,48.2948,82.8216,47.8464,106.0096,158.8585,67.1753,131.5624,-112.1168,65.7628,98.4381,209.2841,80.0649,243.0158,-243.3752,-9.6054,-65.4106,208.8595
-2375.0000,-652.5344,-158.5564,-143.4314,27.1312,-90.2219,19.4255,-140.1728,95.7626,43.0057,32.8441,-197.4444,187.3220,111.9462,257.0899,129.2107,143.1327,16.8236,144.2318,-16.5002,291.4095
-2367.1875,-396.5975,-149.3357,-14.2601,0.5133,37.2786,-1.4112,24.1939,-35.7570,171.3969,-23.2964,-70.1277,22.4261,131.0107,129.4565,147.9204,50.8189,-80.4224,-25.3463,61.9829,87.5421
-2359.3750,-440.6850,-130.5282,-106.0654,-6.0529,56.8492,53.8240,80.6553,239.8183,153.8592,142.6439,-144.1405,43.5506,-68.8811,112.8790,-89.3222,107.5968,-193.6660,106.1299,89.5305,288.7602
-2351.5625,-529.8748,-162.9205,-263.9200,-59.6275,7.4090,114.0813,-5.8733,43.4429,217.3278,168.6148,-201.1325,106.6721,67.2247,101.3188,83.4366,-51.5989,-36.9155,155.6377,139.0976,92.0449
-2343.7500,-383.9476,-218.7690,-109.6103,-89.0179,125.1802,119.5557,221.8224,159.2764,262.0200,322.8109,-121.4678,-105.0264,-35.4541,34.9663,17.4191,175.4262,-348.9814,18.3554,108.8887,60.5524
-2335.9375,-524.3047,-223.8484,-261.5354,-87.6118,-27.2408,111.8514,-3.6420,262.9816,256.5290,464.8517,-224.7307,-35.9489,-38.3522,67.4177,-22.8173,170.3037,-172.2958,158.8960,39.4941,200.9176
-2328.1250,-398.7193,-206.9691,-156.4622,-68.1607,40.3794,142.2212,25.9556,-0.2083,252.0998,349.9861,-148.6933,-77.8316,30.8024,25.9369,82.0036,91.2473,-117.5800,37.5193,24.1704,-26.6106
-2320.3125,-296.3628,-99.2512,-57.5751,35.1286,28.8561,92.4645,88.4338,207.4710,131.5359,190.9935,-118.2399,-49.8792,-126.1753,15.3114,-111.3071,191.0486,-120.0366,33.0041,-14.2882,144.7319
-2312.5000,-261.3378,-9.5859,-88.9717,71.1600,-3.9082,59.4801,-127.3046,-119.0385,-10.2677,-61.2154,-104.8820,102.8026,26.5742,20.4434,78.1139,-25.3433,266.2126,67.2585,-49.9778,37.8825
-2304.6875,33.7436,63.1187,150.7243,157.3316,126.4661,40.6676,39.1085,-137.3763,-62.9114,-114.2491,37.0686,13.6284,-62.5264,4.7399,-85.3104,68.4511,69.6180,-95.3006,-140.4956,-53.7713
-2296.8750,-86.0442,122.4176,19.5959,213.6942,-41.9457,91.0790,-166.2402,23.5211,-194.3322,-98.0408,-73.6950,176.6265,-156.4297,56.2407,-178.5402,83.4913,196.1823,101.3409,-153.7979,106.8103
-2289.0625,62.4142,96.8718,109.7629,152.3923,-25.0162,33.8655,-112.2272,-217.1678,-65.3908,-154.4167,16.6256,84.9672,-26.9963,1.1159,-13.4284,-45.0838,204.0614,-102.6311,-110.7251,-97.1907
-2281.2500,127.3826,93.1713,205.4826,112.6734,-39.4886,-54.7159,56.4081,24.7632,-6.8302,-22.1589,43.9285,34.8913,-150.9503,-48.4057,-210.6910,123.9437,-11.4749,-178.9769,-151.0259,107.4355
-2273.4375,-8.2336,92.5232,28.6635,119.4453,-217.4470,-86.7648,-194.4147,-78.7428,0.2456,58.6402,-58.1036,152.2907,-69.4188,-5.4320,-93.4631,-16.4872,204.4410,1.2048,-179.8069,112.6085
-2265.6250,110.8985,57.7372,123.6368,135.0657,-86.5606,-66.9270,11.6153,-95.3628,60.1790,81.3074,18.9052,-8.4646,-84.0359,-93.6015,-34.3788,5.9501,-26.7847,-124.7206,-164.7252,-13.3255
-2257.8125,-49.8805,9.1638,-52.2584,80.8401,-151.5178,14.0969,-54.1864,206.1983,32.2734,163.1491,-64.6094,0.9086,-110.5104,-47.6191,-98.1504,14.5625,-80.8869,31.5120,-113.4823,176.9132
-2250.0000,-92.2425,-75.9245,-122.6935,-29.8895,-112.9820,88.6472,-88.4795,24.3231,109.8609,93.5247,-51.8807,-32.2301,76.4978,-7.1256,88.5544,-56.2874,-53.5086,-46.7140,-14.7248,-41.2892
-2242.1875,-42.4220,-95.4507,-73.9130,-49.3853,9.8058,173.4824,107.4830,293.7158,49.7081,180.1694,-38.7775,-91.1418,-92.2409,42.6215,-117.4748,177.1201,-388.8781,-32.6643,-69.6997,43.7788
-2234.3750,-216.0593,-70.3824,-256.5505,-44.2926,-60.7925,210.9407,-73.9177,221.7650,-93.8274,145.4443,-147.1432,94.5161,-52.3961,155.9682,-40.9153,-4.8303,-174.6926,146.0004,-66.0559,81.4865
-2226.5625,-54.5864,-76.7561,-115.0370,-57.0079,154.7961,168.6298,105.8910,33.0662,-25.1614,-5.0511,-25.7861,-18.6377,16.6436,78.5217,64.8405,-81.5667,-258.3110,-8.0972,-78.1860,-107.5554
-2218.7500,-75.5754,-35.9173,-143.9581,-7.1385,86.9889,137.9394,112.3379,222.9937,-89.8734,39.0838,-56.3601,-10.2172,-84.7126,48.6678,-73.7903,-1.6842,-244.3583,146.4019,-97.6934,82.0231
-2210.9375,-86.7326,-21.4078,-147.0194,18.6191,48.0757,135.1637,-37.2837,-73.1085,-91.6702,-71.8422,-45.3177,25.0872,60.8133,47.7157,71.4621,-149.8657,26.4542,135.8266,-108.2827,-104.4381
-2203.1250,130.2267,61.2179,43.0711,133.5626,91.3559,66.6173,117.2979,6.0119,-84.2485,-64.5343,38.2202,-4.4178,-78.4561,18.9644,-105.0717,-31.8515,-175.5303,-32.5178,-170.6447,-61.6715
-2195.3125,22.7786,96.8311,-74.2064,133.1476,-135.6992,58.7485,-109.4383,-1.1740,-126.1646,-70.5411,-57.1856,136.7003,-83.0927,122.8657,-146.9712,-111.1547,68.0883,71.8091,-170.3462,77.7784
-2187.5000,274.8454,105.4300,87.0710,70.3283,-84.1710,-0.4891,-57.5738,-242.7164,-73.4884,-164.9251,60.2761,43.4145,-30.1390,28.3806,-20.2716,-58.8265,40.2982,-133.2341,-163.4400,-91.1162
-2179.6875,304.5671,122.7780,145.0304,67.1952,-171.9330,-15.0042,-71.9945,-0.5595,-197.0940,-67.6030,64.1439,29.8080,-153.4807,51.5999,-217.8622,110.2237,-68.8138,-31.5839,-236.8210,150.7119
-2171.8750,229.4250,123.5251,71.1572,29.2496,-319.4812,-17.3041,-292.1771,-257.1564,-232.4776,-140.0559,30.2161,140.3850,-5.6411,52.0272,3.7334,-71.4734,173.2356,70.2802,-203.9805,76.7935
-2164.0625,375.7894,100.4192,226.8288,2.8864,-200.4198,-45.9816,-27.7455,-176.1429,-150.2476,-93.8884,126.9086,3.5606,-69.1935,-84.9419,-60.0544,46.4308,-135.1026,-28.2175,-230.5125,84.4964
-2156.2500,165.6646,94.8040,0.0358,6.0667,-317.7785,-52.0782,-179.7297,-71.5455,-192.4574,-26.1622,-13.3678,145.2619,-74.2073,19.6311,-65.2945,41.8980,-27.9156,148.8435,-228.4780,261.7593
-2148.4375,202.2251,61.5631,49.9609,-61.0033,-229.3865,-39.3809,-91.9671,-278.1434,-175.9251,-84.6722,40.1877,123.6980,51.5076,34.9553,60.1873,-53.8709,9.0333,-24.2966,-189.6816,18.8102
-2140.6250,214.0464,71.4300,58.1698,-45.7795,-184.6864,-31.3444,63.1071,23.5693,-241.0900,-0.8817,34.5251,96.4066,-85.4838,44.5677,-114.0288,101.6495,-187.7041,-45.1084,-174.5568,173.1627
-2132.8125,144.1277,52.6645,-47.3369,-113.2608,-252.6785,9.0265,-113.4848,-117.3578,-233.9534,-67.7686,5.1428,101.3870,30.7942,13.4675,39.0291,-74.5033,94.8285,61.4085,-102.1110,104.8467
-2125.0000,328.1489,40.1003,115.1228,-103.7545,-90.6817,25.4322,85.9259,-102.2487,-143.8151,-88.6451,122.5826,-64.6528,11.0693,-43.6375,-17.9075,52.3471,-106.6270,-70.0419,-92.6439,-26.4419
-2117.1875,136.1965,64.2267,-18.3791,-47.2129,-148.6206,37.9085,-45.5740,95.9359,-238.6088,-72.4525,3.5222,61.3117,-83.6073,45.2921,-111.7915,103.2671,-16.0635,126.5539,-106.1125,134.3357
-2109.3750,206.0975,42.3985,29.9884,-43.7853,-100.6657,50.2928,-70.1593,-185.9319,-188.4936,-133.3271,70.4106,0.1608,76.5982,-14.8747,84.2107,-66.8870,56.3853,-46.9276,-102.6698,-73.9368
-2101.5625,288.9560,53.1479,147.3226,-28.3768,-18.7051,-16.3072,48.2737,6.2041,-179.3738,-50.1895,123.6389,-64.0131,-23.1834,-79.0423,-52.7699,88.9606,-140.1667,-103.4034,-123.2069,80.8008
-2093.7500,147.4888,54.2654,0.3541,-62.2915,-129.0290,-52.1972,-171.5536,-102.9190,-177.5438,-85.3383,45.4346,47.4765,86.7261,-4.5206,57.9407,-56.4612,176.9434,-31.1855,-86.0206,117.2731
-2085.9375,311.6695,45.8887,142.0500,-37.5284,-22.6672,-94.3722,9.3170,-180.3202,-34.0068,-88.7696,135.9662,-66.3421,85.3475,-82.2891,55.3632,13.8168,-9.2489,-253.2471,-96.1137,-33.5195
-2078.1250,153.8755,49.2474,5.7890,-15.7311,-121.2385,-119.4747,-15.7300,51.3379,-94.4017,70.8544,10.8287,18.8616,-48.9813,3.9899,-79.1646,135.1671,-24.4199,-127.2803,-109.1485,197.7527
-2070.3125,166.8344,29.8517,-8.6945,-70.1477,-135.0053,-133.7519,-138.9615,-219.1493,-34.9992,-52.7021,35.8732,41.8412,121.4577,-9.9304,128.0830,-24.6384,130.1785,-183.4893,-94.3852,36.8888
-2062.5000,300.0898,23.1364,164.1434,-75.2292,-71.4208,-144.6497,-1.8507,-44.2824,30.7469,-22.9088,104.0459,-75.8375,-33.7421,-54.4999,-27.3009,150.8996,-155.8706,-224.3219,-133.2637,137.3996
-2054.6875,133.9604,29.2569,-47.3712,-98.6627,-246.1601,-135.8744,-213.0614,1.2701,4.1458,23.5545,-21.8800,43.1155,-23.3029,-8.4291,18.9496,51.1090,65.6829,-36.4990,-50.4901,219.5858
-2046.8750,248.7330,-1.5901,48.0343,-156.1486,-76.9632,-150.1162,-5.3415,-159.1897,101.4884,-26.0182,65.7573,-42.9891,37.0666,-58.4041,80.1336,38.2841,-63.8087,-130.6876,-2.7685,-14.2348
-2039.0625,143.3915,-15.5881,-32.6548,-154.7426,-45.8726,-83.4225,61.2814,128.2593,-13.2726,42.3057,14.8771,-48.2178,-77.6767,-26.4879,-71.7882,105.3652,-203.4041,46.0340,33.8568,162.8547
-2031.2500,21.9778,-49.5848,-110.3996,-201.3859,-50.8382,-14.7477,-52.1430,-59.2913,19.9004,39.5980,-26.8320,-16.5169,28.5011,-30.6309,108.2062,-117.5829,29.9301,68.7425,128.4367,-25.0616
-2023.4375,119.8863,-46.7321,31.1833,-136.6893,129.5335,-18.6949,201.7623,84.5158,90.4196,73.2548,43.8912,-128.4813,-84.9718,-143.4362,-42.4474,26.8086,-257.3720,-42.1621,123.3783,-65.6145
-2015.6250,-6.9612,-27.2375,-104.9734,-119.7520,-42.8294,28.6283,-7.0441,169.6079,66.1851,86.1759,-43.0969,-6.2412,-71.2183,-94.0074,-65.8683,-34.5292,-101.4648,114.1942,69.5782,56.0955
-2007.8125,158.1092,-28.5971,4.7968,-127.8835,68.7536,-7.0778,69.1024,-122.2999,105.8808,-21.9511,67.4788,-79.0650,77.4729,-166.6249,119.6471,-105.9085,-75.6164,-105.4620,26.7408,-163.2088
-2000.0000,204.6702,-10.0510,84.0607,-113.5432,74.8560,-75.2752,148.7705,68.2909,39.0758,22.4041,92.4908,-108.4181,-25.3289,-121.7428,-56.3208,11.2004,-202.2741,-56.6090,-64.5746,26.9791
-1992.1875,145.8761,8.0718,-8.0266,-99.5716,-53.3721,-18.8058,-125.8741,-133.4194,22.9239,-141.5785,57.6329,-53.1544,104.4950,-66.2187,109.3392,-152.0294,162.6810,62.8971,-84.2312,-64.1566
-1984.3750,359.6567,55.9301,219.4668,-24.0187,138.9883,-48.7122,67.0714,-161.5240,31.3783,-168.9535,175.3052,-154.3079,3.9219,-131.1029,8.6039,-69.6759,-9.7483,-107.9756,-114.2724,-129.6744
-1976.5625,219.7938,102.4158,104.3196,14.8767,23.7069,-53.2558,-83.6001,-18.2661,-80.7954,-96.9680,58.3306,-10.1436,-109.3138,-59.6569,-104.7921,-71.9663,134.1439,0.4889,-108.9523,50.1635
-1968.7500,315.4032,115.6275,178.6511,43.2582,62.9131,-88.2838,-81.7674,-273.4623,-42.4725,-94.4702,124.2635,-45.4968,2.9252,-131.7126,7.2880,-217.7486,231.5423,-147.5182,-82.1061,-168.4637
-1960.9375,321.7521,135.6528,217.7225,122.3728,28.8750,-85.5366,32.8251,61.0882,-75.4012,-17.2246,109.6579,-78.1188,-176.0930,-127.0179,-171.8763,-29.7947,-6.2981,-103.7657,-72.4988,-18.3512
-1953.1250,167.0523,130.8716,60.7517,111.4377,-128.1984,-57.8134,-232.6178,-20.3678,-120.3888,-62.0118,25.9409,22.1878,-75.1947,-63.3760,-71.1308,-147.8810,262.7844,60.9484,23.0565,-64.2752
-1945.3125,365.2802,104.1874,239.7166,66.4497,88.6734,-99.1109,20.8609,-97.8586,-86.4434,-101.8559,158.1048,-165.5536,-77.3526,-176.7912,-73.4446,-41.0202,75.8432,-125.3651,48.5670,-215.2364
-1937.5000,303.5207,139.9849,130.7070,77.4541,18.5522,-59.3838,-49.6509,89.6570,-154.5004,-97.7158,97.2198,-87.3204,-146.5249,-135.2216,-179.7682,-37.1520,120.8865,61.3094,25.0926,-28.2053
-1929.6875,306.1023,118.1938,147.0403,47.8004,71.7659,-6.2770,-105.8173,-150.4274,-64.2205,-226.2173,130.5126,-107.7531,-19.3761,-119.3006,-15.7779,-276.9252,267.2683,31.3616,66.9785,-268.7924
-1921.8750,366.1309,122.8747,245.8150,75.5847,171.4158,56.3064,104.4583,59.9379,-37.4914,-199.2719,170.8128,-155.7541,-139.7856,-128.9347,-173.3380,-139.2742,12.1151,-11.1164,-10.6685,-205.9360
-1914.0625,180.4811,169.6397,88.9093,138.6616,52.3832,84.1965,-123.9319,15.6295,-192.4483,-207.0267,54.8226,19.5107,-110.9153,-27.3016,-107.6221,-293.3188,356.2404,86.7034,-17.0056,-177.7716
-1906.2500,392.2282,189.9071,283.3993,177.1378,173.7427,22.4990,35.0669,-156.2748,-143.0094,-231.3880,185.8775,-78.8406,-61.6558,-162.2955,-58.5171,-244.9851,252.7927,-156.0394,-48.9379,-350.1861
-1898.4375,296.6979,190.9993,210.6046,224.3113,102.8168,-12.4795,-36.2233,104.5000,-139.8758,-80.0617,114.0776,-76.5202,-168.6964,-159.6172,-201.7124,-94.9631,229.0408,-39.0770,-71.1717,-126.9123
-1890.6250,238.1214,150.4136,122.7642,169.4305,14.8398,-26.4930,-196.5569,-92.7383,-115.8135,-129.7869,95.5837,-53.2665,2.1815,-135.9862,5.0103,-217.9764,383.2220,-24.1393,14.5443,-287.6621
-1882.8125,409.6378,146.5467,264.0134,167.6362,82.9604,-31.3922,56.2030,49.1195,-46.6621,-97.4190,177.9007,-168.9220,-112.8421,-177.2569,-147.1651,-75.9035,28.5186,-132.0863,-21.6275,-219.3179
-1875.0000,253.7771,135.6026,94.8820,119.4309,-121.2996,-51.6833,-147.4029,66.5942,-102.9045,-42.4607,75.6668,-42.0160,-59.2811,-86.9433,-92.7564,-131.2235,191.3885,-3.4388,1.8146,-55.3748
-1867.1875,358.5125,92.1970,177.3441,85.8083,-37.9523,-116.3552,-26.4143,-217.3109,55.4393,-105.9093,155.2943,-142.5247,61.8721,-150.0417,64.2359,-157.9606,121.8743,-178.1703,38.8671,-229.8140
-1859.3750,305.4729,96.4500,150.0227,71.3622,-27.3795,-141.8209,58.7906,-22.0258,29.9832,-20.1709,118.1532,-93.8647,-36.7759,-100.9572,-70.5665,-72.5206,0.5629,-122.7065,-9.8658,1.9237
-1851.5625,189.2583,64.1489,35.5113,27.7100,-66.9926,-145.4770,-54.1851,-244.9002,-8.6850,-95.6344,58.4561,-24.4277,70.3474,5.9103,109.3973,-221.2731,167.0270,-60.4347,17.1987,-111.5196
-1843.7500,280.7096,6.7674,170.6503,-19.2940,105.0318,-157.4651,191.4588,-109.1306,53.2734,-32.4614,130.7191,-182.3468,-13.8876,-79.5765,-11.9984,60.5974,-162.8264,-178.4977,5.9212,-123.3167
-1835.9375,49.6539,-33.7482,-38.7291,-69.8434,-30.4913,-107.9867,20.5673,88.1004,29.6685,54.1463,-5.5869,-96.8387,-36.6976,6.3770,-34.9709,110.9120,-74.2390,51.8732,61.0853,36.3267
-1828.1250,117.4611,-53.9602,7.7435,-141.5357,127.8152,-60.6341,105.5018,-121.7878,114.8887,-81.3997,64.3234,-123.4868,84.3102,-55.8210,122.8688,-24.9212,-39.7784,-89.8943,132.0999,-210.1582
-1820.3125,109.0007,-28.8878,29.9351,-112.5370,187.8171,-37.5693,239.1198,160.0072,65.8033,-57.2618,55.7939,-136.4524,-75.9907,-69.3321,-74.5943,108.9354,-186.5952,10.0258,126.8170,-39.9608
-1812.5000,-42.2154,-34.0888,-123.6481,-121.3366,109.0202,67.7051,13.9460,45.0331,-12.1021,-97.9354,-26.8970,-69.2297,-7.1261,0.3492,31.1021,-79.0052,119.7769,177.1398,188.7281,-118.5449
-1804.6875,101.7187,-33.0088,35.9128,-79.9854,268.3581,117.1455,174.8901,58.2033,1.1251,-121.4755,63.6022,-166.8456,-68.1237,-23.8200,-30.0582,8.1821,-121.6679,78.4259,160.7925,-252.9695
-1796.8750,-31.1736,19.1381,-111.3576,0.5126,122.8654,155.7438,-6.9863,244.5132,-33.4920,-81.8749,-40.3847,-18.3426,-137.9757,52.1374,-174.0752,-63.4950,-41.9708,263.8605,171.0167,-67.2585
-1789.0625,90.6981,33.9053,-45.8792,-50.2499,189.1293,148.1027,-51.1040,-19.4112,33.6373,-235.5276,43.1835,-26.1098,0.9010,-29.1760,1.6339,-291.4382,82.4797,177.0733,191.0076,-258.7858
-1781.2500,159.2564,44.8875,57.2649,-15.3814,219.0578,68.1226,90.4291,158.2868,27.4132,-130.5645,57.0425,-69.2580,-151.5660,-34.8557,-151.0033,-38.7706,-129.4019,106.9480,86.6637,-117.6906
-1773.4375,40.4099,64.4778,-66.0179,9.0224,59.5537,55.7022,-179.4612,73.5563,-57.2696,-105.0602,-26.1814,29.1158,-90.5050,-10.0068,-53.1153,-124.5430,175.2291,201.3808,76.8699,-93.0469
-1765.6250,225.7299,60.0470,134.8455,20.5618,188.1972,0.4528,23.7779,-55.0188,-1.8229,-86.4233,99.8828,-100.3687,-71.3082,-139.0141,-35.0944,-69.1796,10.0327,1.9939,53.2333,-222.2554
-1757.8125,130.9077,80.3552,25.5411,32.8899,79.6659,-34.9873,-11.1606,131.1875,0.4113,-10.0153,8.1363,-24.0845,-178.3177,-99.2467,-178.2789,6.9618,22.6365,85.4024,32.3952,37.3068
-1750.0000,107.0142,41.0208,9.1551,11.1215,64.0454,-13.5135,-99.2031,-177.6924,22.5225,-134.7233,36.9064,-40.9142,26.5443,-78.5841,62.4012,-155.0100,175.1512,-7.2721,81.4471,-125.2167
-1742.1875,189.2562,30.7119,92.8840,25.4519,148.5238,-1.9302,58.8306,91.5012,34.7298,-86.3636,77.9241,-139.6496,-108.4949,-67.8339,-108.8192,4.0774,-128.1942,-62.8463,95.5983,-40.6574
-1734.3750,-40.1579,13.1187,-109.0569,-25.9154,19.3154,88.9531,-141.8183,147.0060,-20.7603,-66.7143,-51.8612,-12.1031,-90.2678,24.1951,-90.7688,-86.5348,101.7518,131.8637,187.0513,14.1951
-1726.5625,61.1043,-29.1447,8.6516,-63.6335,212.7314,98.4978,50.1610,10.1709,63.3865,-94.4260,39.3801,-150.9048,-45.4125,-77.1162,-9.0974,-78.5162,-6.6225,24.2343,220.1561,-234.3017
-1718.7500,-22.7758,-23.3683,-13.8109,-40.5517,190.9430,113.8510,65.9393,283.1122,5.3295,32.6252,-7.8695,-134.9260,-175.7694,-97.6353,-176.6417,11.2803,-90.1737,188.3930,139.0554,-35.0276
-1710.9375,-71.0970,-5.2971,-91.7379,-15.9546,149.6523,109.7111,-84.7889,-14.4337,1.7397,-44.8625,-19.0629,-66.4565,3.3325,-101.6641,39.2693,-285.4275,215.7989,213.0510,128.4415,-186.2419
-1703.1250,85.4799,13.7950,109.2064,37.5006,241.1987,54.4361,154.2920,77.8375,-17.0322,-62.5504,93.4170,-160.1295,-51.7246,-157.8512,-52.9822,-158.3282,-49.3173,89.5692,76.6676,-168.6210
-1695.3125,-108.1214,42.4761,-26.0499,91.7254,33.5063,103.9149,-89.8711,164.8448,-149.0818,-49.5187,-18.4339,-36.0712,-74.0557,-106.3117,-75.5153,-217.4902,181.3187,320.8175,96.6375,-8.2649
-1687.5000,77.8103,55.5711,69.2010,68.4566,18.2977,125.9016,-67.5591,-33.6344,-127.6549,-173.9978,89.5031,-88.5039,57.0855,-122.2793,55.4240,-342.1670,192.4774,156.5772,145.1022,-207.3960
-1679.6875,95.3407,81.3377,116.0231,87.7297,-44.3560,63.4397,55.3029,199.4006,-114.6806,-87.9516,66.4304,-76.4026,-114.2219,-109.7176,-153.0850,-109.3229,35.2019,175.8793,129.1189,-12.0054
-1671.8750,-24.2824,31.6550,-40.3266,4.7996,-164.1978,91.7786,-101.0210,-29.7469,-87.9213,-60.1195,-7.6575,-13.5251,23.2478,-83.3810,21.1755,-191.6772,233.7099,233.9896,152.9342,-94.8053
-1664.0625,162.1751,-2.1197,157.3782,-53.0956,-38.9902,69.1713,170.6835,21.1369,-36.1240,-45.2603,104.0313,-146.6177,-36.2325,-106.0166,-38.5140,5.9801,-106.6972,-0.8244,130.8113,-117.5618
-1656.2500,-18.1626,-19.6449,-4.7441,-91.8541,-237.6269,90.7200,9.5342,191.1383,-123.1821,86.7205,-29.7773,-14.5775,-86.5643,63.4861,-89.0548,64.7511,-39.9358,65.5051,91.8439,124.8000
-1648.4375,55.0522,-36.2224,7.6636,-156.1100,-223.7508,104.7775,-13.1046,-89.3434,-36.7543,65.1913,3.2206,-2.0548,36.5671,77.4724,70.8597,-31.9838,34.3154,-104.6603,134.3675,-45.3356
-1640.6250,57.6526,-67.3414,40.4305,-152.0154,-117.5335,101.1954,130.5766,165.5005,-2.0000,171.9846,12.4920,-78.1776,-75.9591,73.8023,-78.8870,148.5925,-243.0396,-99.4585,68.2405,134.8640
-1632.8125,-160.8764,-111.1883,-149.9569,-195.1192,-197.4962,131.4172,-58.9284,48.1252,-45.4560,165.5403,-81.5679,24.4788,64.3009,102.9082,97.1448,32.9509,-38.5942,33.5243,132.9059,127.8389
-1625.0000,-32.0636,-145.9353,-8.0304,-204.9237,18.8329,90.9459,157.8484,9.0644,24.3577,89.3772,33.1720,-126.5665,96.8350,-10.6910,130.4469,102.5947,-260.8285,-82.1779,122.8720,-22.8729
-1617.1875,-249.6464,-130.2832,-130.5291,-139.1852,-67.2855,115.0300,71.1638,253.5164,-24.2978,149.7326,-82.9438,-66.0679,-26.0845,-22.7500,-29.7006,89.7533,-160.4802,194.6599,154.3817,147.9350
-1609.3750,-238.5133,-102.2994,-109.3347,-93.7882,-7.7486,138.7646,21.1284,-53.3736,-1.3235,26.7212,-44.9639,-44.9300,106.6105,-74.1737,102.7551,-180.4352,61.5182,171.1416,201.5205,-86.6072
-1601.5625,-131.6876,-68.6826,38.5206,-19.7227,102.4117,102.1561,206.6907,131.3658,-37.7317,101.3339,5.7206,-154.1300,-75.0651,-145.9513,-79.1596,-34.0070,-111.7753,140.2954,171.2907,-12.5045
-1593.7500,-195.6350,-38.9955,-139.4261,-47.4880,-75.2716,144.6984,-45.5964,101.2213,-31.0006,107.0616,-83.9807,-38.1929,-32.6054,-103.5998,-36.9426,-100.4635,177.0957,322.5775,108.1931,29.7185
-1585.9375,59.9758,-41.9847,62.1575,-71.7412,16.5343,90.7358,84.6034,-27.4168,98.2102,15.2717,59.8608,-167.7545,22.3189,-122.7629,17.7354,-45.4409,46.4929,157.3605,-21.4184,-135.5437
-1578.1250,52.7968,3.7378,44.9171,-41.8414,-35.5166,36.9181,30.9284,178.0470,9.5627,36.6068,19.2977,-110.1723,-103.6111,-64.7945,-108.4405,48.6956,40.0869,258.2850,-130.8884,105.3204
-1570.3125,39.6872,-3.1085,2.7156,-54.9401,-79.5577,31.0965,-121.7389,-122.4895,-34.0958,-43.0782,41.6513,-80.6100,110.4327,-71.8390,105.3462,-140.1562,274.6704,245.1922,-108.3690,-47.8185
-1562.5000,134.2088,-6.9898,174.1163,-30.4417,18.9859,55.8805,87.1646,50.5678,-46.1783,18.8114,96.0675,-166.4417,-48.9394,-83.2786,-54.2826,67.5669,-18.1127,93.7178,-118.2576,-23.3502
-1554.6875,11.3403,17.2925,5.1011,-9.4004,-149.9075,108.2173,-190.3788,102.1387,-66.7217,70.2154,-25.5116,-4.7392,-70.7609,77.8146,-76.3602,9.8164,141.6612,148.7814,-132.6052,101.6376
-1546.8750,147.8673,21.5556,119.4607,-14.0043,-72.4474,112.9050,-113.5748,-113.9281,48.0610,-72.0481,67.9612,-1.6917,43.7396,119.2510,37.8772,-97.5937,67.7892,-100.7947,-136.6117,-78.0136
-1539.0625,83.8353,63.9286,117.2340,29.7887,-73.5905,37.0022,-40.3956,68.3679,10.2251,-72.9433,28.3610,106.7559,-67.3594,154.0818,-110.4842,12.3491,-29.6348,-21.9646,-162.2242,140.7126
-1531.2500,-12.3783,59.6827,22.7994,38.3343,-94.9664,53.8445,-171.4510,-171.5989,-47.8660,-130.1147,-5.8196,158.9363,57.2741,96.6431,50.8799,-118.9645,189.6856,56.5934,-83.0987,9.1757
-1523.4375,77.5892,10.1815,194.5209,24.0366,75.7931,40.8348,109.6192,-74.4176,13.1753,-70.1549,94.6556,-38.7240,8.0357,-26.6501,-35.6308,51.8532,-70.8121,-62.6796,-25.8314,-40.2017
-1515.6250,-153.5848,-6.9335,-14.9328,38.5398,-22.6389,90.6265,-25.5155,85.5225,-46.9930,15.5667,-36.0573,10.4058,-15.4014,21.8406,-59.3392,26.4405,119.5161,198.8309,24.2290,45.1880
-1507.8125,-97.8533,-32.8059,57.4916,24.8991,160.7791,89.2652,84.1980,-136.6710,24.6672,-95.8766,36.4074,-65.6204,92.9775,-52.8273,121.7619,-121.1217,140.6997,79.1909,46.1226,-250.5627
-1500.0000,-34.7283,17.6446,115.2826,88.6107,218.5326,110.2515,179.2220,105.4519,-28.3388,-74.9955,51.8993,-81.2899,-70.2992,-105.1566,-113.7913,9.6250,-6.7099,71.9077,-29.6436,-45.9761
-1492.1875,-92.6263,31.5685,19.0216,102.2291,84.1994,87.1285,-137.8419,-64.5498,-87.4485,-97.2385,11.0671,4.9254,53.3039,-18.6077,8.5329,-159.7410,252.7824,121.4985,-15.5301,-32.5047
-1484.3750,85.5150,24.0964,169.7719,103.8545,161.8474,16.9987,49.0701,-97.5466,-10.5780,-57.4989,93.4352,-65.8522,19.8821,-52.0659,11.8299,-10.1168,-26.6935,-87.8991,-119.4294,-66.0146
-1476.5625,-82.0918,23.0023,20.7451,78.6854,12.6965,-57.9376,-98.8376,48.6155,-48.5188,88.4164,-39.0916,79.5665,-55.3368,19.6692,-63.6725,98.6790,18.0644,26.8872,-145.1394,188.6484
-1468.7500,9.1953,-0.7140,51.5893,29.3755,6.4028,-101.0278,-140.8850,-251.3647,55.3818,8.1756,24.7889,35.8305,122.2651,-23.7455,113.6438,-18.6698,108.6655,-128.4850,-88.0139,-0.8318
-1460.9375,106.9048,-1.6026,110.8326,22.4651,65.5028,-113.7204,64.4408,-6.9703,78.6759,68.3116,60.9827,-51.4928,-1.7371,0.2455,-47.6458,151.3461,-144.2870,-170.4495,-94.4944,132.0854
-1453.1250,-91.3736,-27.0267,-95.9402,-35.4963,-67.4264,-26.4652,-141.2672,-67.6586,55.9181,81.3674,-63.5842,72.1203,48.2032,122.1694,39.0092,18.2970,78.7079,-16.4828,-11.0390,144.9313
-1445.3125,57.5277,-46.3777,68.4434,-62.3066,59.7882,-10.0543,59.1604,-88.1904,72.2897,-12.4445,37.1803,-59.1141,27.2750,103.2386,17.7901,108.3912,-88.1326,-219.3459,33.5541,-22.0546
-1437.5000,-44.3285,-22.4083,-8.9585,-57.9171,-54.7949,22.5627,-18.2295,202.4306,-78.1505,93.9001,-49.0262,9.8550,-123.4477,134.5039,-170.2209,250.6450,-83.7342,-75.0126,107.3409,157.1323
-1429.6875,-49.8809,-29.8949,-40.0774,-99.2729,-49.1143,102.4317,-86.3556,-11.6987,-73.3519,-47.5247,-31.9908,52.0663,29.0582,141.0078,18.9875,72.1438,86.9024,-115.4389,138.3613,-94.4303
-1421.8750,24.1924,-22.6884,72.4075,-24.0252,137.1553,67.9049,137.0841,174.7585,-33.9772,-8.3700,24.7411,-20.1120,-78.8469,106.1108,-89.2159,148.2172,-224.8183,-216.2502,106.9752,-55.3858
-1414.0625,-199.0799,-30.4937,-127.4801,-2.1780,9.0382,87.9716,-27.8740,120.7839,-50.0054,47.3581,-88.1576,109.3020,13.8422,162.8025,-32.8222,-16.1217,8.0696,-89.4838,95.1746,37.2364
-1406.2500,-105.5191,-72.2019,15.4439,-13.5253,152.7114,84.8322,79.9628,-66.3754,55.7526,6.8877,8.2748,31.5168,120.3029,122.2913,72.3386,16.3433,-109.2316,-346.9114,49.1582,-150.3202
-1398.4375,-154.9796,-46.9325,-9.6769,7.0794,90.3233,21.6386,53.7273,128.3744,30.4571,128.3439,-54.4102,115.6885,-15.2854,169.7179,-100.5461,174.7220,-193.5348,-255.3827,-34.9165,81.0580
-1390.6250,-168.7325,-23.8828,-92.1127,-5.6529,8.5888,-22.9135,-101.8496,-173.2320,95.8039,9.4386,-82.6273,217.4977,122.7538,197.7782,111.1888,-18.2584,73.8189,-269.2162,-13.3570,-37.9174
-1382.8125,-0.9093,-14.6200,82.9998,21.1772,145.3801,-142.9137,109.0849,-110.2918,158.6849,36.0711,13.5444,96.8743,38.3238,77.3910,-10.5456,155.2899,-179.2343,-347.4864,-92.2597,-11.3313
-1375.0000,-164.1350,-23.9084,-57.9652,-2.0917,-68.9239,-100.0219,-141.0862,6.5122,91.4638,114.5783,-95.3690,175.1509,7.7921,118.8965,-41.3777,160.7230,-26.3704,-124.8837,-44.2750,141.1297
-1367.1875,-44.6217,-38.6472,4.7898,-22.6589,-43.5287,-74.4359,-79.5526,-152.9751,116.9316,66.7709,-31.5428,90.1299,69.9339,108.0971,57.4602,75.8629,-47.8042,-216.5888,-29.6058,-90.6851
-1359.3750,1.2102,15.5704,7.8412,23.0746,-39.8493,-107.5514,33.2554,144.8044,82.6893,69.2422,-46.1754,92.4275,-110.6189,110.6052,-160.3958,152.2717,-176.8922,-134.9914,-88.6494,95.7941
-1351.5625,25.9400,50.4689,-2.2296,-23.3369,-160.3038,-116.8174,-159.0683,-121.5826,36.2920,-49.4486,-33.7787,193.5675,25.6576,100.9602,12.5821,-77.4719,92.8604,-146.5664,-63.8589,49.1149
-1343.7500,227.4291,58.7726,209.4398,2.0098,-60.0170,-126.3282,-22.6642,-131.2143,-9.3730,-59.4024,93.9243,109.4678,15.6699,91.0682,-33.7071,58.5268,-162.6097,-367.3732,-144.3306,39.2072
-1335.9375,54.8544,80.4304,20.0226,41.2519,-212.8269,-132.9371,-211.3619,9.0135,-126.1354,7.5163,-35.2306,249.2636,-27.4121,159.0684,-78.0856,126.4034,-53.1583,-153.2895,-175.9089,253.1753
-1328.1250,106.1651,49.1968,47.4704,21.3470,-111.7773,-141.6959,-147.1974,-256.8960,-61.0541,-75.7159,24.5694,166.9038,109.3255,74.9136,95.3571,5.1262,-1.8650,-207.3501,-159.6546,23.0074
-1320.3125,100.7345,34.8391,109.1603,52.6919,-13.4900,-153.2030,61.1886,-48.5801,-36.7273,-14.7090,40.2683,81.8091,-12.6843,27.0089,-99.9502,251.0662,-218.2736,-177.1505,-165.1595,158.0896
-1312.5000,-24.1973,6.8359,-57.6724,-4.5130,-71.7407,-174.2657,-142.9640,-179.8374,16.0502,-109.2650,-32.5760,132.1535,112.7476,114.5404,62.1863,155.4562,76.7674,-128.5198,-115.2306,136.6120
-1304.6875,130.7834,-7.4946,147.3870,-24.8084,96.8977,-226.4328,61.7685,-268.1860,110.7139,-161.9253,82.0151,6.4074,97.0606,62.9667,82.2060,176.7430,-83.2641,-288.9687,-99.4157,11.0605
-1296.8750,38.0359,60.5399,4.7010,57.1549,-47.2190,-223.3531,-8.2579,-45.3245,77.6274,-48.3529,-15.0376,120.9143,-9.3703,66.6279,-61.5121,107.2440,-1.0046,-67.1665,-88.3617,197.7367
-1289.0625,78.5751,82.2188,22.2842,98.3851,-30.0791,-205.0264,-65.0198,-321.2059,94.7834,-141.5357,10.1470,100.6631,80.4242,9.5246,101.9938,-97.0052,216.5023,-97.1191,-83.0782,-42.3274
-1281.2500,202.2709,123.3114,148.0095,185.7680,59.1988,-226.5556,61.3374,-85.9561,36.0754,-53.5837,55.0276,41.5817,-87.6355,24.5772,-103.3517,64.8773,-11.8021,-114.9070,-205.6605,9.7691
-1273.4375,19.4090,138.2168,-7.8420,213.5426,-96.1070,-161.7013,-204.8881,-94.3390,-82.2255,-99.2411,-43.6418,179.8902,-23.2941,126.0216,-39.2895,-53.8452,262.2910,18.6757,-177.8584,37.2550
-1265.6250,147.4558,119.4353,99.2007,166.2132,45.4828,-129.9564,-62.2168,-210.8128,-50.6283,-142.0010,55.4956,101.1070,43.9279,10.3723,27.6527,-59.6579,144.2934,-134.8363,-120.1709,-151.3242
-1257.8125,48.1143,119.1628,22.8391,171.4839,-31.3329,-59.6147,-100.9613,44.2713,-89.4338,-34.1832,-25.8792,134.9346,-105.2359,81.3163,-158.7874,47.1032,79.9348,46.2540,-114.8898,29.6919
-1250.0000,14.2567,111.2578,-41.0574,137.2097,-95.6843,-13.8292,-204.2358,-168.1930,-44.7950,-173.9171,-46.1682,180.2079,13.0343,126.7007,32.2060,-128.6835,292.0103,11.7794,-79.1713,-145.8303
-1242.1875,184.3432,125.3230,133.9771,166.8852,5.8958,13.9057,8.4153,-29.7112,-54.2174,-181.7003,49.8564,60.4483,-106.7518,44.0470,-123.8528,46.4688,5.0704,-99.7316,-120.5131,-81.3806
-1234.3750,9.8082,138.6321,-53.6266,202.9013,-219.1617,45.9864,-216.5725,1.0862,-168.2811,-114.1438,-69.3445,202.0364,-75.1861,111.7434,-92.5520,3.9647,182.4867,77.0791,-153.5128,60.4067
-1226.5625,138.8283,117.2592,51.3128,190.4655,-114.6699,-32.3813,-75.0087,-223.5440,-63.7994,-120.0331,35.2834,123.1782,65.9065,32.9962,48.2761,-74.9704,100.4518,-111.5509,-131.9776,-128.2233
-1218.7500,57.1982,90.3522,65.5842,144.3768,-62.8397,-127.3963,48.8848,-24.8511,-48.9711,-68.5709,14.7263,99.6822,-29.6497,11.6024,-47.5362,-23.5739,-16.1982,-51.8186,-142.1041,106.4957
-1210.9375,0.1882,98.2577,-27.5330,120.8993,-83.3948,-146.8136,-80.6037,-265.5544,-32.5353,-162.5037,-0.7505,189.7742,133.3752,-46.2043,115.2374,-227.5731,207.7372,29.5070,-165.6431,12.8173
-1203.1250,156.4724,108.4877,136.6294,170.7299,6.3381,-130.9251,83.1913,-175.9498,-88.8070,-73.1385,86.0941,96.1739,38.6895,-102.7193,-16.6986,-65.2864,-93.9930,-25.8396,-220.8932,-7.5346
-1195.3125,-36.9217,107.8108,-34.9051,188.8673,-165.6286,-82.7343,-125.7134,-18.0746,-188.7735,11.5107,-31.6146,179.8703,13.3056,-55.9495,-42.3199,-90.7166,64.5945,132.1073,-132.8551,150.4024
-1187.5000,87.4943,60.6192,31.3653,65.8121,-137.8000,-90.7457,-23.8111,-246.3714,-49.9436,-108.0297,39.6171,62.3661,114.6955,-64.3840,132.8339,-136.3254,118.9708,-26.1437,-45.0352,-77.8258
-1179.6875,138.5392,71.5414,75.2593,81.4021,-165.3446,-119.1129,93.7183,17.9638,-78.4474,-25.9124,44.9967,33.5234,-24.2553,-19.1607,-80.3435,90.6990,-110.9634,24.2609,-99.5616,113.6081
-1171.8750,0.0378,71.5483,-101.3966,48.4298,-307.4197,-77.0396,-194.2671,-86.2607,-146.4734,14.6589,-58.9541,185.1263,53.2453,95.5127,33.9360,-49.8159,137.5354,167.0913,-61.6423,45.5006
-1164.0625,182.2458,53.2438,91.6653,19.1994,-150.7494,6.7852,-0.5065,-40.7179,-99.7457,-12.0044,57.7881,47.4974,-10.5112,31.9510,-30.0357,32.4373,-138.2024,-3.3141,-57.9760,-54.8138
-1156.2500,32.1715,56.7061,-39.5440,-26.2912,-282.3186,94.3613,-94.9922,157.5457,-158.2528,-33.9138,-31.4904,135.6243,-68.4979,84.1539,-125.2315,47.4391,-42.1723,162.0278,2.4386,180.6222
-1148.4375,94.9277,48.1149,-1.9166,-68.9291,-208.0226,132.7895,-130.6002,-134.3182,-119.9096,-179.9642,13.0674,136.6039,41.3509,84.2140,58.4106,-98.6862,56.6829,49.2232,-5.3109,-2.0594
-1140.6250,139.1295,71.8555,75.1142,10.8793,-167.2869,136.6755,-16.7786,51.2538,-153.1255,-29.5649,11.1223,102.0530,-138.3512,86.7373,-121.4878,50.6287,-144.9839,56.8953,-101.6195,111.7280
-1132.8125,-18.9256,71.0743,-51.1140,27.4357,-258.7809,119.3186,-255.1814,-38.4344,-170.5818,-10.4161,-80.4279,195.2477,-83.3049,106.0113,-29.6312,-40.2934,119.0880,145.3020,-84.1849,94.2647
-1125.0000,160.3972,28.1075,103.9802,-4.6647,-66.9388,18.3083,-26.2344,-176.7542,-15.6965,-39.9160,64.0623,19.8043,35.0717,-32.3628,51.5625,4.1412,-53.4880,-133.9386,-82.4115,-43.8129
-1117.1875,26.9593,22.2807,64.3170,-32.5188,-106.8431,-95.4616,6.9563,-34.8617,17.4473,-7.1782,10.1768,89.6161,-5.2852,0.5204,-25.9664,36.8111,-45.7868,-55.9305,-74.3995,209.3581
-1109.3750,21.2753,2.0554,28.4186,-73.6190,-32.9867,-204.4872,-29.0858,-327.2098,129.3378,-115.6790,35.7879,90.1672,179.0894,-34.8471,194.2394,-182.7486,123.6435,-98.1729,-11.6629,27.2972
-1101.5625,134.5979,4.4939,108.4918,-66.7226,120.8423,-234.5104,197.8393,-174.5558,172.2215,-73.1640,75.7646,-13.2728,37.4574,-102.2112,52.4421,42.6893,-113.8955,-195.3893,-3.9399,70.2551
-1093.7500,-55.9480,13.4560,-93.2688,-46.6749,28.8313,-179.3827,-3.0726,-155.7622,80.2703,-55.4844,-41.6910,113.4212,55.9712,-47.4462,106.8021,-48.7225,81.7172,69.5384,16.9250,125.3611
-1085.9375,30.4264,-27.3237,-29.1361,-30.7271,166.7046,-79.3564,96.9105,-239.0424,70.2159,8.1112,26.7813,-42.9879,81.3551,-94.7929,134.0399,-59.2284,-41.7807,51.3853,31.6699,-104.5943
-1078.1250,-13.9067,14.8463,-47.7182,-4.4839,109.8705,-25.0311,114.1818,33.9540,-21.5375,60.9966,-21.6322,11.9116,-84.9514,-76.8390,-69.4049,31.5454,-85.9462,181.5471,21.7093,96.7583
-1070.3125,-16.9438,36.6251,-83.9920,-44.9451,74.3488,-61.4027,-69.2272,-258.7410,15.0105,-120.8157,-18.9524,85.1002,62.0282,-76.5841,114.4406,-188.3617,227.1650,143.0095,88.0364,-12.5728
-1062.5000,118.9735,47.9638,19.6545,-49.4555,177.7560,-67.8157,145.2924,-154.4757,82.4880,-164.6701,36.9331,4.2526,-54.0543,-82.3693,-3.7679,-48.3213,12.2414,67.4503,83.3031,18.0717
-1054.6875,-139.3878,50.4714,-219.9493,-27.2184,-25.0666,23.5283,-57.4215,-64.4780,26.7247,-110.7753,-134.4477,168.1474,-74.3734,80.5924,-23.2046,-68.5345,245.0721,264.6260,104.3218,145.4597
-1046.8750,-27.0356,37.0586,-128.8654,-20.2928,65.8158,115.5642,33.5851,-229.7508,80.6591,-167.1652,-45.7436,75.7351,15.9864,-11.7485,67.0421,-197.0274,217.5756,96.5040,76.0296,-93.4193
-1039.0625,-1.9498,47.5549,-74.0617,39.3677,82.4354,95.3478,87.3330,42.7154,25.3467,-76.7956,-36.9995,20.0861,-113.8926,-31.3250,-99.9375,3.2171,31.8499,86.1388,30.4884,107.4591
-1031.2500,-93.5317,28.8754,-165.9009,17.3768,27.4221,113.4819,-77.5399,-158.4606,-30.6061,-95.0636,-63.5517,73.7835,49.5690,-50.5499,101.4361,-126.1672,257.4453,99.1034,79.2859,15.6942
-1023.4375,48.3429,13.5588,-15.3203,18.8294,178.8468,44.0645,184.0254,-119.1651,46.8865,-55.8710,30.5421,-33.0559,16.4575,-84.3138,31.2415,-13.0975,-22.4985,-75.4619,79.5216,-53.5890
-1015.6250,-135.3447,10.1155,-178.2911,44.7331,50.7347,27.0940,56.0432,84.5542,-43.1657,1.7690,-83.2733,24.5542,-37.1978,-26.6302,14.5120,-29.5872,74.0289,126.4247,105.2070,113.5693
-1007.8125,-52.3680,-16.5367,-81.6176,-12.7115,149.2895,14.7666,80.7326,-149.0518,17.4215,-85.9356,6.3198,-63.1945,95.7718,-114.3069,184.4126,-190.4126,158.1948,-2.0317,188.5250,-119.5999
-1000.0000,-2.5490,-20.0229,-36.1180,1.6924,230.6852,-13.7125,199.2487,190.1758,24.8493,32.2090,15.9865,-165.0855,-79.4052,-142.1308,-28.8205,0.5968,-72.7563,-22.6229,202.6803,36.0893
-992.1875,-190.4467,-41.8609,-231.3566,-11.6547,72.3389,49.0544,-69.9680,141.6472,13.5306,94.6009,-88.0856,-66.7407,17.6570,-80.7121,69.1909,-157.1339,161.5276,176.0188,295.0667,-11.9729
-984.3750,-65.4930,-55.2025,-93.7639,-27.1509,246.8242,76.6721,178.6483,95.9942,115.0540,121.8563,-8.2404,-150.5408,-28.4529,-164.4386,22.0358,-131.0079,-65.3332,54.5330,279.2906,-168.1472
-976.5625,-185.2840,-35.2775,-191.9297,27.6005,147.5517,51.5430,117.5048,254.5658,89.8258,243.3701,-91.2226,-64.0949,-90.3127,-151.9232,-75.8560,-118.6456,-44.9238,180.3055,192.7601,27.9225
-968.7500,-132.6649,-46.8069,-130.6965,9.7469,136.6870,2.8134,-5.2138,-88.4335,114.9996,194.3002,-39.1248,-77.2611,80.2041,-165.0119,94.6383,-240.8580,148.8547,91.4768,104.6193,-130.5827
-960.9375,8.5805,-22.0381,47.1506,45.5306,203.4605,-3.2628,62.7036,89.2234,145.8169,224.8886,28.9379,-156.7627,-72.6295,-207.4433,-95.2084,-28.4262,-61.6962,56.3190,-1.8740,10.5907
-953.1250,-176.6622,-42.8953,-149.5002,-0.1963,5.7565,57.1596,-133.8545,38.3709,132.1348,174.9773,-100.8555,-59.7819,-49.9566,-110.3836,0.4611,-77.4890,175.2306,222.6475,58.1249,71.2688
-945.3125,-29.5256,-86.3141,-24.7768,-63.5294,94.4508,71.9841,63.9953,-57.0489,220.8365,152.4887,-7.7471,-156.4002,0.0985,-96.9181,50.5223,9.8723,-28.4530,17.4004,29.5206,-97.6106
-937.5000,-117.4583,-97.9235,-91.1297,-81.9252,-44.9032,115.7599,34.7946,280.4673,116.4905,232.9488,-77.6917,-112.0651,-102.8841,21.4986,-89.4408,200.1722,-116.1705,69.1102,-59.1278,130.4591
-929.6875,-87.1876,-89.6899,-127.2858,-86.1294,-155.0407,115.7329,-111.1681,60.2083,117.3499,158.6192,-74.6770,-39.5425,42.3179,94.1162,93.7864,52.6954,20.2801,-4.9871,-134.5776,20.7431
-921.8750,45.3030,-92.9487,42.7772,-95.0889,-94.9394,65.9603,95.1096,194.2197,140.4516,219.5528,9.7415,-125.7605,-44.2389,7.9913,-29.7317,186.4639,-269.0001,-118.8085,-213.7752,118.3058
-914.0625,-172.5067,-79.4996,-191.4664,-68.3505,-293.1213,52.8928,-101.8901,215.9179,127.2542,278.1852,-154.4171,42.7123,-59.0919,66.5632,-7.5363,171.9369,-64.5843,85.0624,-221.2782,251.5636
-906.2500,-38.0897,-64.8521,-114.4808,-39.3544,-179.0547,-17.9145,-25.6317,-1.0952,167.2965,245.0829,-86.4291,8.4343,16.2827,32.3870,104.8923,174.6884,-70.9309,-97.7955,-227.5445,35.1098
-898.4375,-61.5396,-32.2288,-75.3696,41.7940,-102.8435,-51.5658,14.7613,185.0264,96.4781,284.1304,-84.2009,-24.6912,-91.1847,-1.6338,-76.5152,250.5797,-94.0977,-51.4874,-252.6681,221.8131
-890.6250,-83.8729,-28.5964,-93.1485,19.0405,-46.5188,-68.1231,-149.7187,-51.7439,41.7596,119.2849,-54.4150,-5.7343,73.4321,-18.5651,125.1713,12.5915,164.8129,-4.0855,-204.7023,94.6308
-882.8125,65.1739,-49.4998,101.4436,-8.3218,184.1918,-94.2790,82.1853,31.9128,52.4285,130.8536,61.0637,-142.3726,10.4364,-45.0958,25.2548,97.0191,-106.8692,-135.2485,-232.3391,32.8890
-875.0000,-110.9311,-50.4989,-53.1230,-43.8515,66.7585,-64.5791,-72.0528,171.4128,-64.0496,159.2754,-42.3489,-3.1714,3.2938,21.2285,18.2050,89.3016,-2.7106,4.4316,-199.1220,172.9955
-867.1875,-20.9420,-86.5446,14.3997,-95.2915,171.4291,-70.7794,-4.1700,-54.9418,39.5648,43.8211,27.6456,-83.8754,106.2250,-22.3332,158.2346,46.7022,-17.4874,-117.7768,-178.8124,-52.7596
-859.3750,3.1314,-70.6347,65.9943,-71.6488,223.1934,-128.8782,120.8007,180.8003,18.2687,131.4726,25.5226,-104.4795,-62.7376,-43.7833,-47.6162,245.1954,-240.1513,-22.8696,-227.3984,146.6017
-851.5625,-117.1850,-80.5968,-93.8078,-86.4237,62.5785,-31.3834,-111.5907,20.1473,5.5812,81.7338,-54.8613,-44.5073,33.8940,16.3549,85.1367,84.3124,61.7526,102.6235,-206.3804,97.5715
-843.7500,65.5176,-110.7410,64.4067,-150.1593,185.0053,17.1609,84.0724,32.5784,52.9414,57.0753,53.2791,-180.4878,7.5595,27.5484,59.9328,169.4967,-176.2969,-101.8003,-165.3091,-0.3717
-835.9375,-104.1881,-105.0065,-84.7982,-145.3028,-0.9631,87.3139,-28.6582,250.5990,13.9043,164.0292,-71.7203,-72.8736,-68.1702,134.3372,-16.6569,240.2732,-64.7432,10.3825,-160.6349,181.2731
-828.1250,-117.3907,-105.4140,-124.5045,-122.9467,-39.4129,123.9739,-29.8614,28.1618,49.3483,126.4934,-81.6505,-38.7706,39.5760,133.6277,128.2308,165.5710,63.2761,-72.9244,-103.4651,-76.5571
-820.3125,-54.4648,-46.1910,-27.0878,9.5481,21.2836,147.7958,105.0675,273.8832,-37.0722,114.1034,-50.6252,-51.5127,-120.5279,157.0781,-104.7184,300.0064,-154.5328,-46.0557,-146.1452,21.7807
-812.5000,-167.0741,-13.6864,-144.2133,37.4840,-132.5472,177.0709,-122.5258,155.0513,-81.0428,32.1623,-119.6160,50.1799,-56.1868,148.9761,-4.2097,70.9022,154.0838,87.2502,-118.3838,14.5662
-804.6875,103.0538,3.9881,70.3956,61.1738,82.3633,99.0951,92.6312,3.0047,-13.2838,-10.0147,52.9224,-139.3778,-25.1127,-76.3707,27.0371,-8.4305,2.4458,-134.6754,-95.8864,-136.8585
-796.8750,34.9362,32.7629,24.7473,62.6078,73.0191,15.8647,83.5268,178.6894,-95.7878,91.5527,9.8385,-74.1903,-108.2828,-84.9742,-128.9475,19.9850,5.5769,8.1509,-128.6396,112.4673
-789.0625,-6.2187,20.3081,-10.9393,55.9863,74.6350,-18.4249,-24.5969,-151.6484,-58.3408,20.0830,17.5752,-37.0778,75.4749,-121.6350,92.0045,-198.6211,210.6288,1.9221,-101.4393,-69.2341
-781.2500,79.3425,21.4455,112.0865,106.0989,198.9885,-41.9614,173.0251,9.7841,-45.1429,70.3802,65.4682,-133.2167,-59.0198,-143.5371,-42.2873,-39.4718,-55.5537,-88.5280,-121.4738,-18.1587
-773.4375,-98.2423,1.9132,-77.0421,68.0458,8.2081,-11.6436,-17.4747,77.0655,-50.0820,137.5378,-53.2333,-30.5214,-28.6660,-76.5947,24.2818,-118.4732,118.0888,14.8637,-54.6504,49.7635
-765.6250,56.2057,-37.7207,53.8581,11.0309,104.4724,-62.2695,153.0860,-47.5520,44.0045,85.7610,57.8441,-156.7707,65.7149,-129.5905,119.8825,-97.4003,-8.2477,-217.6692,-75.7727,-111.2231
-757.8125,34.9383,-37.1410,57.0331,-44.6948,-1.9654,-132.5863,155.9405,176.1302,-25.6270,125.2869,37.0161,-115.7199,-4.6011,-89.2757,12.7984,88.9649,-98.2749,-166.8874,-96.5859,150.0911
-750.0000,2.6824,-50.2691,-9.7860,-112.4314,-104.3869,-160.8988,-20.1731,-73.1533,-18.2660,59.8303,22.1599,-35.6933,149.0658,-8.9664,202.7013,-85.6395,80.6549,-94.1129,-24.3974,48.4170
-742.1875,69.9116,-63.7428,59.8722,-116.6797,0.6827,-91.7049,197.2040,70.0989,50.5810,55.8884,60.1064,-113.1734,33.2173,-13.1569,51.0968,19.2647,-203.9111,-62.8100,6.2957,45.2753
-734.3750,-193.3009,-72.4952,-183.9165,-98.3933,-168.6851,68.0430,-8.8568,193.8964,-9.0233,142.4974,-107.4128,9.8760,-27.0794,74.1931,-8.9443,-77.2743,-44.9379,237.0377,59.5433,169.6750
-726.5625,-72.6669,-83.4951,-85.8586,-120.2586,-107.1937,131.6419,89.9527,-37.4135,53.2059,94.9771,-32.1129,-76.2366,34.4453,-10.6078,88.8398,-125.9406,-30.1415,111.7516,73.6409,-61.0409
-718.7500,-95.4001,-80.8044,-81.1716,-107.4833,-102.0537,172.9003,131.4025,223.9277,-52.9307,210.1203,-54.1091,-108.7066,-109.3805,-42.7547,-90.7153,99.0359,-157.6816,194.1385,85.3956,127.8972
-710.9375,-265.8166,-96.2298,-255.1777,-102.4137,-165.5921,256.4644,-78.8152,87.5931,-79.7801,145.5802,-149.4809,-26.8996,-27.9189,-34.6055,28.0205,-1.6677,93.0397,304.8184,125.4465,28.1391
-703.1250,-128.6057,-105.7542,-109.5504,-35.6991,18.5095,219.6832,142.6060,124.9400,-7.0089,109.7020,-54.7952,-172.4355,-64.8207,-70.7918,-8.6000,109.2975,-155.5900,127.1753,87.1407,-43.9356
-695.3125,-258.3351,-91.6715,-181.8657,-60.9418,-91.3375,183.9488,34.0776,199.3256,-79.2020,73.8620,-118.4411,-62.9343,-64.6630,4.0746,-8.1502,73.3157,-4.1692,207.5773,96.8837,178.0301
-687.5000,-207.7493,-142.3898,-120.8661,-150.8866,7.1242,98.5104,58.8644,-106.9502,17.8816,-11.6753,-50.7502,-112.1503,105.7685,-8.7568,199.5762,-12.3404,46.5236,82.2830,147.9235,-16.6722
-679.6875,-175.5721,-147.0893,-57.2839,-120.2362,70.1770,51.6740,232.2334,178.3797,44.5435,88.3766,-39.7114,-195.7548,-51.2011,-54.9804,4.9043,198.5884,-202.1626,79.6118,108.5686,121.2395
-671.8750,-271.0728,-163.8781,-192.3862,-181.2937,-27.4505,-8.8591,24.9321,44.0168,93.4885,27.7188,-90.2528,-110.0778,107.1174,30.0934,200.5308,-10.1732,53.4206,89.2344,187.5232,61.4469
-664.0625,-25.4786,-183.9319,33.6007,-252.2611,127.0181,-75.2930,289.7332,13.7996,210.5160,34.1780,73.9137,-251.3074,149.5164,-36.7277,170.2402,33.1824,-192.9139,-157.0217,152.5816,-78.2116
-656.2500,-199.4361,-191.3712,-121.9718,-251.7968,7.9415,-46.2694,170.9832,263.0286,163.9877,136.1084,-61.0302,-150.1013,29.3697,100.9032,49.4136,171.9863,-190.8100,-48.8193,188.0964,134.5714
-648.4375,-213.2373,-219.1709,-165.3891,-301.1937,-34.9784,-16.0902,128.4112,0.4597,231.6050,56.2191,-64.8132,-121.7725,169.3443,131.6843,226.7103,91.9716,-64.6084,-134.4626,243.7672,-54.4750
-640.6250,-152.5086,-219.9646,-70.2790,-276.0567,22.6415,4.6429,297.3764,242.4603,251.7581,114.8885,-30.0495,-173.8953,41.8658,116.0180,26.5673,297.5055,-354.8476,-212.5311,199.0000,78.0471
-632.8125,-356.7054,-227.6799,-289.1014,-269.8825,-156.6674,44.4226,7.4182,245.5117,217.9546,228.6088,-168.3911,-23.9964,80.4345,192.3970,102.4765,190.0963,-172.0618,-29.5628,240.2864,155.6109
-625.0000,-190.9053,-243.3596,-181.9294,-279.7087,-87.9750,78.2102,150.4585,169.6059,288.1167,225.3375,-69.0592,-175.0990,112.9768,78.7828,172.3605,149.7090,-287.2885,-145.5657,265.5708,6.2043
-617.1875,-321.3985,-232.8306,-255.0624,-234.8374,-159.5777,115.7086,79.1854,428.3922,213.9515,299.7543,-139.6284,-138.5075,3.2192,42.8747,25.9572,261.0121,-312.8043,76.1462,275.5620,228.4839
-609.3750,-360.2633,-217.4130,-288.5711,-204.3735,-118.5588,119.8117,-28.4572,101.8069,217.3641,82.7645,-129.5721,-98.3396,152.0401,-28.4371,212.1331,80.9382,-70.7547,178.4458,271.1588,49.3706
-601.5625,-217.2259,-167.8499,-103.1837,-97.0179,29.3493,121.8140,157.7823,214.1408,181.6487,84.6741,-45.2499,-171.2660,5.7496,-98.8387,29.1941,155.7701,-314.7926,144.6651,202.6567,52.1777
-593.7500,-365.3560,-129.0808,-261.9708,-70.8629,-53.9328,111.6089,-35.1674,203.2604,59.7142,110.3766,-147.9942,-35.4046,-5.7511,-36.4443,-18.9469,34.4090,-76.0370,348.6743,264.9519,115.7717
-585.9375,-170.9159,-141.9880,-84.1933,-123.1527,123.3339,69.9471,106.4398,-22.0332,128.2992,31.6376,-19.4598,-153.0011,61.2654,-79.5030,85.4333,-44.3868,-127.7466,157.2478,282.7897,-146.0548
-578.1250,-169.1645,-119.8948,-91.1129,-121.1469,116.8907,26.5777,173.3296,229.9622,121.1677,99.1903,-40.7496,-122.3027,-57.4131,-86.2658,-69.8742,97.1007,-266.1333,229.1256,248.9364,32.4157
-570.3125,-235.5275,-90.2491,-155.1547,-83.2980,54.3079,37.0555,37.0917,56.8328,56.8782,-37.4028,-49.3786,-39.7851,99.7411,-76.1893,87.6506,-150.5347,18.2948,233.8403,287.9357,-103.2620
-562.5000,-34.8898,-51.4340,19.7977,-24.4538,155.7055,-8.4612,249.8377,121.7404,47.5578,-46.9801,43.7084,-123.2666,15.8749,-85.1030,4.1544,-12.1544,-167.2806,-22.4233,241.9393,-147.9144
-554.6875,-116.5314,11.5597,-146.5368,-0.9208,-48.1867,-28.2738,46.2858,250.3449,-47.0797,-29.8623,-70.5502,39.9400,-42.2936,4.6878,-53.6374,4.9248,31.8300,106.0020,229.6481,17.1182
-546.8750,-22.3026,-11.8278,-77.0104,-48.5462,-13.2218,6.7645,44.6020,27.8472,61.1088,-68.8836,-9.2399,-0.0179,64.3595,-34.6698,90.3952,-108.1229,54.7499,-80.7167,252.2110,-204.9750
-539.0625,-46.6268,-4.0829,-38.0425,-3.7391,-10.8086,45.2604,120.3540,324.8076,25.7219,44.5431,-33.6281,1.4664,-118.5357,41.4271,-165.1143,42.2741,-179.8710,0.0370,192.2335,-17.6186
-531.2500,-223.8690,-4.5112,-184.0002,29.1129,-193.3189,121.8074,-171.8183,179.8348,-46.6353,46.0189,-133.4010,149.9753,-7.3936,153.5646,-17.5804,-103.2633,99.5205,69.8338,190.3088,-88.2229
-523.4375,-8.6664,16.5945,8.4881,67.4166,-37.3821,129.8106,21.4554,152.3531,-2.5731,17.9528,-20.1609,46.9337,-73.8201,51.1639,-83.6212,15.6508,-143.6468,-137.8941,158.8364,-189.3557
-515.6250,-118.1448,56.0847,-115.7160,98.0158,-124.1338,116.1151,-101.9683,286.1615,-17.2232,4.1743,-118.7121,179.1832,-160.9467,110.0624,-170.3527,75.8542,-77.5144,-0.3293,189.6745,18.7893
-507.8125,-94.2426,37.8290,-118.5481,50.9642,-15.5180,40.7694,-67.0181,-45.6378,54.4548,-71.2491,-83.0217,176.7609,-17.7519,71.3127,10.2307,-110.5661,16.9309,-11.4220,247.8619,-202.7048
-500.0000,-49.1327,43.5900,-39.1816,60.1109,101.2872,47.6262,87.1046,181.7691,59.2983,8.5199,-62.6978,108.5431,-197.3634,40.7793,-168.9909,6.2081,-220.4029,103.6986,292.2549,-121.9969
-492.1875,-242.9769,35.6259,-202.7757,76.2529,48.1066,141.4828,-149.7563,129.1798,-31.8797,-81.7212,-137.6567,164.3007,-104.9872,61.2367,-113.2241,-157.0103,78.2403,402.8032,309.6504,-174.3050
-484.3750,-6.0510,63.9032,15.3910,136.1477,265.6684,176.0871,32.1236,17.3767,-35.3355,-231.2095,26.9639,-23.1990,-108.8871,-89.5555,-116.7326,-233.4620,-37.3819,322.6783,298.7944,-359.8354
-476.5625,-64.9519,124.6687,-18.2767,217.1869,196.3772,216.8396,-74.8630,205.7060,-179.6607,-153.5601,-33.0513,53.4450,-253.6352,-86.1965,-298.0851,-192.7733,9.1550,510.7073,239.0895,-171.2302
-468.7500,-16.4204,133.5958,40.4837,228.6292,181.4948,201.9865,-162.4314,-66.5359,-195.6131,-242.5074,26.6583,37.4793,-86.0082,-137.4321,-93.0664,-354.6595,232.0508,453.1268,215.7796,-369.2163
-460.9375,193.7671,147.5207,181.8947,261.7169,287.2470,159.7803,90.6287,76.8844,-201.9515,-210.8067,128.5956,-115.8278,-165.7416,-180.0093,-209.4042,-175.9025,-16.3934,275.2112,108.1215,-299.5375
-453.1250,109.8507,183.2607,52.1880,246.6450,83.8568,104.4214,-112.4483,22.1473,-258.4564,-266.2620,41.9547,47.6929,-112.6274,-14.7435,-118.8951,-268.2945,250.9917,332.1257,58.3173,-207.0249
-445.3125,336.2032,182.4402,187.7449,225.8198,182.7132,55.3095,59.7261,-137.2971,-234.7434,-351.4657,159.8455,-75.5384,-52.2925,-27.2189,-58.1697,-243.4122,160.6082,66.3091,37.7652,-402.2399
-437.5000,317.4235,189.3051,193.1587,170.8400,114.4123,25.0528,102.7365,127.1011,-267.2079,-308.8331,136.5778,-70.9213,-158.1091,-21.8350,-200.5929,-90.6903,141.0844,46.3484,53.0676,-174.6210
-429.6875,327.6357,147.5496,172.5578,39.8111,58.0744,-32.2522,-27.2817,-186.5269,-250.7493,-366.2519,179.0952,-18.3740,114.0007,31.4936,72.9090,-293.9969,326.4664,-48.6702,63.3183,-304.0561
-421.8750,496.7581,144.9264,345.8621,66.6771,193.6264,-42.6552,183.5789,-123.2349,-189.4324,-303.7758,266.2564,-103.9224,27.9988,19.7332,-49.7021,-84.4050,1.7576,-301.7664,-50.5279,-240.5758
-414.0625,278.8249,136.4211,141.1018,93.4387,27.0899,-26.1582,-93.6601,-32.0556,-283.2356,-175.4220,95.4357,22.4127,-67.1006,109.8665,-108.4124,6.0801,99.9399,-97.9771,-128.4706,34.7797
-406.2500,308.1179,94.3000,214.5639,51.4039,100.7556,-63.4625,-56.6888,-287.6366,-212.8716,-249.8610,167.0756,20.9384,114.9704,73.2044,75.0419,-67.2121,58.2956,-244.9835,-170.2131,-111.6488
-398.4375,235.8754,93.0864,201.4794,82.8179,124.8654,-111.3187,3.7151,-78.7753,-189.0909,-114.8591,132.4278,80.9195,27.4965,60.0000,-50.0509,66.9330,-155.8788,-176.5376,-208.4998,97.3610
-390.6250,104.4288,77.8782,65.1892,90.9828,61.7440,-101.4290,-205.1120,-288.1581,-142.5837,-215.1183,71.0312,126.6317,146.7600,33.5439,106.5877,-69.1556,98.6632,-62.3638,-165.0437,72.1108
-382.8125,257.2989,83.4167,262.2114,101.4522,184.9051,-125.2413,28.3354,-274.2142,-94.8129,-275.0786,169.4635,-8.3533,48.3061,-64.6036,8.5062,54.0626,-101.4911,-154.8825,-153.2911,49.1837
-375.0000,74.2589,120.4912,132.3145,161.9703,57.1132,-106.0140,-173.1778,-145.2408,-225.0060,-294.0028,63.8565,118.7065,-8.0966,-8.7011,-84.5230,36.3292,66.4092,116.6273,-163.4909,252.2859
-367.1875,187.7107,143.5822,225.8988,204.9423,111.7721,-125.3476,-264.2329,-456.7881,-243.7788,-348.4833,142.6913,100.2073,118.9286,-64.3446,42.8650,-92.9254,178.7252,54.5816,-190.2494,14.8557
-359.3750,269.4813,169.0001,340.7915,250.2066,153.7122,-119.3845,-148.0188,-156.0417,-350.2849,-159.6743,149.7420,30.0147,-134.7447,-58.6727,-209.4449,96.1099,-56.6383,30.8443,-250.7060,167.7271
-351.5625,171.8444,155.1778,201.2722,151.0187,14.2205,-73.8803,-360.2369,-183.7457,-380.2641,-152.3237,75.7857,148.3543,-54.8799,58.5476,-129.2163,-5.2933,160.5222,73.6366,-208.6060,140.1328
-343.7500,379.3695,119.1944,313.9152,39.9814,126.8668,-110.2263,-102.3178,-181.2608,-270.1230,-223.8188,178.6122,1.8472,-54.8909,59.9292,-92.8710,69.4659,-55.1794,-142.4021,-144.3508,-4.2914
-335.9375,274.0194,100.1824,195.6741,-29.9574,44.6122,-80.4694,-109.3118,67.3115,-279.9004,-122.2262,95.1827,28.4389,-137.8008,125.4099,-175.4208,98.3175,-19.7768,-71.3507,-143.9855,172.3610
-328.1250,354.6553,94.1384,213.4175,-57.9474,-9.6794,-62.7730,-164.3320,-243.1378,-189.7513,-213.6739,143.8047,8.9710,25.2161,69.8387,24.9481,-66.8589,128.5284,-168.3669,-136.6681,-29.0305
-320.3125,456.8486,131.6425,314.7118,42.6051,17.5581,-72.5282,47.1718,-68.0279,-126.0781,-186.5768,186.7395,-37.9397,-96.2156,23.8285,-132.1360,71.5105,-121.6067,-241.8204,-210.7976,73.1310
-312.5000,252.7366,144.5857,98.6933,47.8045,-161.5431,-67.6377,-168.6641,-136.2771,-197.7680,-218.8454,60.5783,112.7815,-19.9946,101.4648,-56.5718,-34.4654,198.8847,-94.6411,-135.2780,114.9198
-304.6875,424.4445,143.0404,248.4926,41.8020,-12.8494,-64.9487,17.2935,-279.6938,-160.6868,-290.3223,175.1413,3.3038,18.0057,29.9131,18.7669,-68.6216,88.1578,-241.6524,-140.9618,-65.4726
-296.8750,307.9819,161.0464,190.1133,99.5927,-69.3533,-85.4653,-38.9671,-42.3409,-218.8265,-165.0156,109.3412,54.6274,-78.1838,45.1653,-113.0891,-51.9933,76.2481,-75.8748,-187.8472,134.9149
-289.0625,240.7653,156.9151,164.9763,101.5863,-59.6422,-75.7903,-176.0063,-325.7744,-210.7857,-264.5124,116.9681,138.1386,114.8076,18.6152,79.2306,-225.1484,289.5023,-108.9214,-186.5435,-37.4972
-281.2500,355.7579,148.1850,318.0463,72.7864,20.2443,-106.9165,14.1209,-134.9957,-205.5724,-184.8133,172.4397,68.8682,-28.0089,-11.7183,-63.2627,37.8894,-20.0313,-205.7555,-179.0434,6.3018
-273.4375,128.8366,120.9046,111.2037,20.0375,-186.8134,-56.0028,-228.7014,-10.1829,-267.3255,-61.0732,21.9216,191.6384,-53.7759,111.9983,-123.7083,50.9810,138.4729,22.4332,-125.4919,131.1262
-265.6250,242.4949,85.1721,200.9354,-9.1561,-134.3287,-40.5506,-139.9750,-177.7915,-180.5614,-82.7781,95.6611,59.9601,-2.0138,54.2680,-36.6343,-6.3483,74.5046,-75.8325,-84.3961,-72.4792
-257.8125,223.7764,101.9325,209.2828,6.2498,-88.2564,-104.5110,-56.6780,89.1806,-173.2229,35.1053,79.7101,29.8866,-141.6461,-11.8564,-212.9566,75.9115,-15.8438,10.4981,-68.6936,120.5034
-250.0000,162.4567,115.1997,148.0229,13.0018,-150.8237,-94.1304,-192.0145,-191.4903,-127.5406,-63.6692,73.4317,77.1447,14.0617,-110.6366,-18.9487,-205.4588,272.1147,124.1601,-26.6424,22.8275
-242.1875,314.0441,119.8842,269.6687,56.6527,-66.5060,-45.8495,2.5245,-143.2413,-80.9856,-15.5501,153.4325,-22.6861,-49.3423,-208.4975,-120.0586,-47.9308,-0.0222,62.7389,-87.6898,-1.9359
-234.3750,91.0202,114.4387,65.6982,79.6518,-269.8334,43.7785,-200.5868,-14.6683,-176.1027,36.8944,-16.8804,102.8338,-144.3911,-45.0036,-177.8159,41.9349,128.1871,262.6462,-100.3872,162.6213
-226.5625,142.0313,64.8462,128.7632,22.6602,-209.1543,69.4012,-102.6896,-210.0737,-79.2436,25.3354,31.9383,53.3527,-48.4639,-57.5072,-44.6072,-6.1830,71.3741,65.5425,-87.0961,-68.8104
-218.7500,144.6528,42.4459,158.4393,23.2722,-177.8852,25.6175,74.7727,41.1064,-14.8125,92.3644,31.4279,-28.5146,-165.9298,-64.4012,-161.7944,171.2876,-138.8075,32.0403,-86.2039,109.3446
-210.9375,35.5689,25.8535,47.4092,-17.8570,-216.3479,60.0789,-110.5021,-142.4653,-18.1457,-20.3711,3.2122,41.8569,12.8434,-30.0496,-18.7491,-13.9827,137.2378,61.7646,-56.0670,34.7262
-203.1250,230.3519,23.3926,218.2462,-37.1289,27.0272,-26.6102,134.0516,-156.1577,3.3347,-34.2584,125.1067,-82.9085,-1.5508,-43.8359,-33.8818,46.6031,-57.8653,-131.6532,-75.0871,-88.0298
-195.3125,118.3180,50.9918,91.2617,-10.2454,-63.4525,-44.1541,5.7377,85.2781,-89.0512,58.9867,28.3767,9.4739,-94.7887,12.5281,-125.8613,66.3331,4.1887,1.0625,-116.9551,116.3336
-187.5000,247.5735,80.1721,161.5648,11.8966,-67.6817,-47.4553,-107.3232,-175.0143,-131.2016,18.4812,106.3499,5.1023,47.2082,-27.8637,16.3793,-120.6683,131.4697,-116.9893,-96.5796,-107.0473
-179.6875,372.1460,133.0667,322.1790,99.3477,-17.6328,-108.4631,52.8810,59.9768,-194.0766,31.2605,162.0168,-56.9489,-125.4895,-51.9408,-157.0777,39.6037,-61.9198,-169.7399,-184.9064,16.8666
-171.8750,250.1689,155.0458,156.2402,116.2083,-183.1735,-91.0840,-223.5056,-32.6554,-251.5666,11.4224,74.0255,69.3949,-35.7880,2.3788,-104.1426,-53.7263,236.0759,-82.1262,-167.8428,35.1573
-164.0625,441.5104,141.6447,360.6214,93.3806,-17.4349,-181.4179,-56.6105,-121.9682,-160.7825,-6.1096,186.1921,-58.9541,-54.8020,-51.9894,-85.9341,40.2610,73.3630,-349.2091,-189.4906,-91.2326
-156.2500,364.7780,186.4601,266.9247,85.4541,-110.8066,-200.8621,-149.8385,115.5860,-256.1096,83.2474,93.0160,103.6030,-186.9015,74.5495,-253.8145,130.1372,64.5606,-251.4144,-232.2419,183.2529
-148.4375,311.6362,175.4085,216.8184,65.0832,-161.6242,-178.7755,-311.5021,-154.3013,-235.8942,32.1504,52.4593,198.7083,-93.4604,170.6368,-87.1655,5.5860,221.2713,-340.0991,-217.4538,59.2898
-140.6250,368.4034,133.1138,307.6194,49.6126,-108.5627,-199.8020,-74.2923,45.7059,-147.7956,121.9477,99.9591,66.7294,-188.1145,113.6326,-218.6190,169.9282,-111.0968,-355.8854,-197.7670,150.2339
-132.8125,132.2082,71.2345,94.4594,-46.8616,-248.4902,-118.8406,-214.0729,18.6892,-142.7081,165.7327,-13.7413,146.7407,-108.7627,157.6261,-139.0663,66.2805,37.5225,-100.7034,-84.0858,195.1514
-125.0000,224.3235,-12.0730,199.6161,-134.0253,-71.1293,-51.5865,-36.5587,-98.0047,-41.3417,85.8258,99.1548,-44.9407,-7.1266,77.9342,-37.2407,23.9590,-118.5751,-187.2244,-30.1114,-30.6181
-117.1875,120.6544,-46.2880,80.9849,-168.9874,-79.5761,-24.1322,28.1305,225.4773,-51.7881,187.0997,38.9515,-54.4108,-91.2750,31.4486,-120.2072,199.8130,-294.4541,-10.5507,5.0692,181.7902
-109.3750,-7.7799,-111.6704,-47.4103,-229.7467,-62.8109,29.5150,-64.9618,23.1625,36.9615,130.5631,4.1757,-74.6843,71.7699,-23.8338,79.0082,69.8780,-110.1686,69.3003,85.4457,16.3887
-101.5625,111.5380,-134.0418,77.9459,-218.7516,98.6858,-29.0906,243.6642,148.6049,123.4431,217.7669,85.2732,-209.1867,10.5630,-83.3469,-19.0358,195.6893,-413.1188,-58.0908,26.5693,-5.2566
-93.7500,-114.3628,-121.9659,-92.9142,-166.0021,-1.0611,-18.9512,34.0338,160.7709,58.6629,302.7052,-56.1617,-51.9395,-16.8821,37.8914,-46.3217,133.2446,-220.3233,100.2461,-26.5603,153.8135
-85.9375,16.8594,-101.1321,14.3492,-142.1446,70.2882,-94.7230,68.5023,-61.9377,163.9696,188.7493,23.8540,-55.5826,88.7521,-1.7668,96.4604,56.9187,-197.4466,-121.3208,-72.6007,-32.0066
-78.1250,-54.1571,-80.7466,3.3752,-74.5326,57.3735,-143.7547,129.6940,221.0676,186.0148,286.5311,-33.4317,-32.4570,-72.8479,-13.6705,-64.9957,228.3279,-305.7904,-124.1455,-74.8983,176.9069
-70.3125,-144.9801,-77.8418,-123.4067,-98.7593,-70.3832,-161.6549,-34.9534,57.2093,240.2064,232.4537,-92.4562,59.8136,55.7020,78.5718,63.6904,27.8982,-12.0111,-111.8544,6.9387,49.9572
-62.5000,41.6545,-65.2389,38.2694,-54.5261,54.2843,-185.1149,199.8185,71.8073,325.8303,171.8223,7.9725,-74.4423,-5.3007,56.2805,2.8125,115.9193,-214.7724,-243.1158,-19.7834,-45.5239
-54.6875,-82.5342,-0.4712,-62.8821,29.8608,-48.9013,-139.4353,60.7287,190.5181,147.6022,69.3209,-79.1500,43.4591,-73.1371,137.1469,-64.9029,124.0824,10.6230,-88.2583,-76.3528,110.1162
-46.8750,41.4992,14.1191,39.1939,10.4512,16.1120,-76.5640,14.8445,-111.5486,136.5671,-87.9787,12.5235,32.5626,63.2106,128.2192,71.5544,-32.5221,132.1843,-248.2172,-59.7271,-119.0355
-39.0625,113.2325,37.7858,141.9678,79.7423,44.8100,-84.9959,116.6249,138.0656,89.2273,14.4171,40.2499,-12.6145,-93.7323,157.0028,-159.2827,143.5610,-115.5279,-317.4769,-96.4021,57.5030
-31.2500,-65.9982,26.9190,-46.2255,39.0341,-144.4759,-16.4418,-108.5792,97.6612,44.8952,45.8054,-85.0758,165.2052,-27.6691,261.7863,-19.1212,65.6513,89.7342,-252.7749,-102.0855,53.0168
-23.4375,56.4165,0.8159,50.2392,18.9849,-13.1161,-32.2490,96.8540,45.9177,101.2053,66.8508,-3.1700,74.6905,-6.9655,173.2267,1.6733,160.4053,-141.3558,-343.4196,-122.1304,-71.8064
-15.6250,-140.8563,-4.3927,-93.9835,64.2403,-84.4558,42.2414,23.5641,268.4394,26.8093,104.1811,-97.8830,111.4850,-81.9390,137.9711,-110.2130,198.4354,-131.1301,-51.7802,-76.8798,150.6419
-7.8125,-162.4530,-51.1919,-108.5227,6.1610,9.8608,27.3700,8.9305,-39.3752,120.0565,15.1529,-54.0887,22.9334,85.7279,-24.6322,94.5297,-35.8751,21.7239,31.4889,41.0119,-47.2590
-4000.0000,-79.1356,-55.0843,-15.3243,-7.4928,85.9992,-5.5314,102.6043,35.7661,140.2282,24.4388,-3.4140,-58.1881,16.3370,-71.4666,17.9864,23.4471,-126.2444,45.7634,46.7442,-16.6492
-3992.1875,-308.9619,-80.5106,-254.0681,-59.9463,-78.0327,86.0973,-97.9773,18.9535,124.4653,43.5506,-139.8441,70.6924,72.4125,-16.9365,74.1023,-67.4129,101.4020,312.1386,102.3014,1.9572
-3984.3750,-161.0072,-94.2036,-125.0331,-49.6093,52.7263,105.5261,33.2319,-72.0854,183.5115,-9.5356,-46.9240,-58.6157,92.3117,-72.6049,94.0434,-10.4892,2.8732,181.3119,41.6689,-199.6481
-3976.5625,-213.7935,-43.4823,-153.7332,37.9735,-48.2457,113.2022,5.7257,194.1311,9.8294,108.6355,-112.4778,-14.6999,-83.5412,-29.0359,-118.7620,107.6927,-15.4343,269.7086,-9.7090,28.9977
-3968.7500,-196.6998,-12.6318,-165.5506,56.4517,-131.3354,103.7782,-149.9021,-73.7402,2.0512,-11.2800,-110.7596,85.1314,54.5024,33.4392,56.3307,-49.2302,211.1781,149.0229,-25.1829,-128.4295
-3960.9375,80.2951,49.2646,49.5314,89.8284,-24.5303,-11.7449,68.3683,-4.7375,36.1853,-52.3001,22.2259,5.8679,-24.5411,-46.1783,-58.6580,56.7390,-4.3045,-98.7798,-96.7501,-59.9747
-3953.1250,30.4352,86.8408,-45.2384,75.3614,-191.5784,-70.1183,-172.2032,-62.5578,-56.5283,-74.1609,-36.6852,129.7587,27.5537,40.3571,-7.5144,-2.1199,261.3467,-77.4344,-145.1714,101.6531
-3945.3125,243.8110,90.3627,185.2235,79.1451,-69.3928,-134.2435,-123.5457,-308.1528,-79.9835,-173.7715,111.7245,29.9146,112.9125,14.1447,77.8989,9.2493,193.2822,-317.8320,-210.3419,-34.4662
-3937.5000,222.3569,124.6770,151.8562,95.0835,-137.0466,-165.2276,-116.7245,-8.6072,-145.2808,-20.2274,47.5152,107.2092,-65.5799,92.0655,-136.5372,161.7775,67.3511,-301.0986,-263.3690,227.5637
-3929.6875,111.0906,104.6602,41.6743,55.2234,-281.5181,-91.0142,-334.7260,-191.8526,-106.3952,-20.4761,-28.4165,180.7148,8.1216,127.1924,10.2185,15.5216,306.6377,-269.1467,-161.2065,117.8270
-3921.8750,223.2756,71.4971,162.9436,28.8094,-159.5420,-80.3492,-102.2932,-70.6856,-55.0660,28.7094,48.1405,43.6783,-53.7098,63.7798,-51.5527,174.7049,31.3913,-366.7505,-117.5917,55.5275
-3914.0625,15.7119,60.2916,-22.5338,33.6484,-270.3126,-45.4342,-211.5896,111.7495,-164.4881,-8.8538,-55.1687,113.8980,-54.3070,133.6264,-89.0877,173.1525,140.3709,-150.1068,-41.7253,200.4944
-3906.2500,78.5721,17.3135,55.4101,-8.0611,-79.6511,-3.0631,-94.4596,-176.3754,-120.4635,-187.9709,44.9855,9.5926,98.5594,64.9355,100.8431,32.0359,131.8273,-190.9953,23.5943,-51.0851
-3898.4375,55.3886,22.1148,64.3096,5.1796,3.9726,-31.7401,99.6421,91.4387,-145.4822,-104.1468,37.3069,-19.7771,-39.6188,36.1912,-74.2647,114.8697,-66.7811,-70.9506,38.8694,68.2726
-3890.6250,-90.8607,27.9296,-119.8568,1.3665,-31.4554,79.5327,-81.3023,-54.7756,-215.5470,-177.3682,-47.4559,90.8063,35.1444,72.3996,37.5710,-104.3444,172.5646,172.0491,71.0959,-41.3881
-3882.8125,49.2383,10.4905,71.3192,36.8909,197.4654,123.1520,111.0916,-47.6798,-206.2460,-169.2501,77.1121,-87.2525,6.2844,-69.0424,8.7859,-60.2254,-39.7138,103.3800,36.6759,-181.7090
-3875.0000,-70.2466,41.4144,-26.0910,58.8128,102.7901,174.1611,-20.1017,150.8197,-262.5441,-81.7220,-11.4111,0.0944,-90.1822,-19.0830,-124.6073,-82.6792,86.3809,231.0868,24.6429,16.3844
-3867.1875,75.8020,43.1142,26.0277,-39.7141,82.6411,115.7181,-113.7795,-164.1387,-171.3038,-175.6417,57.3444,15.0168,72.9060,-4.5561,75.5566,-250.5870,232.0586,28.3490,68.1541,-151.9539
-3859.3750,174.9679,75.3926,123.2577,-8.1398,71.6005,67.3659,-13.3486,80.9724,-143.9590,-77.4696,77.6677,2.0353,-85.8957,19.0705,-120.1671,-41.3973,14.8404,-10.3171,-5.2372,19.7964
-3851.5625,-63.7719,43.8678,-126.4190,-0.4615,-104.3544,147.1095,-261.8199,52.2042,-171.5290,3.8104,-67.3277,119.1627,-4.6141,98.8058,-38.8049,-71.0901,232.7255,104.1240,39.4675,63.6747
-3843.7500,60.7862,12.3027,11.1946,-14.4836,-0.0230,103.1574,-48.0165,7.6994,-65.8100,-3.6242,11.0541,-0.3921,-12.0172,89.8433,-9.1210,-4.4992,40.9513,-120.1358,61.4745,-91.1566
-3835.9375,-9.9375,58.4832,-70.4773,56.1990,-153.9818,93.9023,-127.5037,219.8967,-72.3985,98.6384,-79.4991,100.7524,-129.7280,153.5838,-163.7462,97.8063,74.8637,-82.7140,-7.8301,120.7220
-3828.1250,-12.6797,65.8349,-102.1706,54.8824,-220.9670,63.6512,-194.0294,-103.9048,10.9960,-5.0950,-87.9132,180.9226,23.5639,196.3501,63.6300,-41.8937,282.8077,-225.2775,-8.1396,-56.3747
-3820.3125,77.4404,69.2461,25.9951,76.4102,-91.1066,8.2489,83.2893,25.1164,31.2448,-22.9836,-24.2729,123.9408,-68.2847,175.9761,-28.1239,86.2497,-14.3910,-343.0127,-56.5996,35.3631
-3812.5000,-131.8832,64.7230,-158.2889,43.4831,-199.7099,7.3905,-62.8413,-12.2905,-76.9656,-59.3092,-104.6042,233.5137,42.4015,175.1648,45.6558,-96.0417,232.9500,-93.1930,88.4867,108.6771
-3804.6875,15.0841,46.0119,-65.2914,17.8500,4.9693,27.8339,180.3013,-175.4218,-16.8855,-149.3407,8.6620,69.3997,99.4037,9.6634,139.7543,-224.0526,134.6211,-190.0658,203.8826,-128.7136
-3796.8750,-21.5776,48.7999,-73.9277,17.5607,-1.9886,19.6289,210.8131,110.7953,-96.4545,-10.0251,-26.1381,60.6250,-55.2480,0.5059,-51.8023,-120.7024,-8.3721,-49.6110,169.6268,47.2442
-3789.0625,-83.2528,4.6449,-131.5854,-7.7289,-93.9675,36.4227,45.2980,-91.9804,-77.0455,-29.7035,-34.8262,39.8722,110.0895,-19.6290,149.6329,-250.3440,176.6676,-3.1431,145.3712,-82.7712
-3781.2500,65.4308,-36.2933,23.1108,-33.6690,24.3993,43.5707,164.1228,25.5558,6.6999,88.9561,56.6372,-100.5223,43.7870,-50.4010,10.4348,-58.6452,-167.9205,-98.3424,85.4576,-38.4551
-3773.4375,-94.8734,-48.0250,-116.1879,-87.5994,-149.2369,15.7242,-82.0543,71.1093,-19.5759,171.6162,-61.9174,18.0926,15.4644,30.8416,19.2153,-48.9279,-12.5130,94.4513,66.5311,153.8824
-3765.6250,73.1640,-67.8497,-4.1525,-198.1798,-72.5441,-18.7688,-41.9208,-147.0108,22.4745,174.6169,27.0885,-53.9150,92.5042,32.4549,133.3613,-120.8790,15.2900,-16.3998,26.9496,-27.4265
-3757.8125,73.5772,-22.2747,60.2490,-162.4100,-116.4943,-63.9151,-12.4335,102.2039,-21.1337,275.9508,3.1806,-25.5713,-99.1043,23.4207,-132.1343,54.5214,-55.5589,90.0745,-41.2904,184.6073
-3750.0000,-2.8651,13.6134,-51.2060,-132.4881,-227.3148,7.0894,-232.8201,-118.4193,-56.6165,164.4296,-43.8050,81.9436,9.4310,19.5549,13.5089,-165.9306,253.7649,191.7130,24.6122,109.8187
-3742.1875,193.7539,21.4588,159.3859,-109.5126,-51.0946,36.1479,-19.1738,-91.0316,10.9361,82.9444,79.6934,-74.4861,-71.9710,-99.2503,-30.7747,-64.3513,29.1705,40.3876,49.5585,28.0642
-3734.3750,-18.2614,20.7342,-69.6607,-109.1871,-167.5314,100.5514,-136.1770,158.7235,-141.1739,111.8209,-60.8448,64.4383,-116.0391,39.3115,-111.7253,38.6005,98.9102,216.3943,49.8370,203.6771
-3726.5625,10.7609,-2.3151,-65.6750,-114.8137,-162.9512,143.0053,-130.1791,-56.4831,-60.2535,43.7570,-41.1924,68.4419,-0.0567,78.9503,40.3814,-29.4048,126.7376,1.4567,81.1560,-11.6450
-3718.7500,98.6109,10.9720,21.1274,-94.6441,-147.5775,82.2553,31.6150,178.0900,-81.5346,131.4943,-15.2887,8.2472,-133.2705,128.3926,-128.7050,131.3938,-65.6392,-118.7067,-3.7327,148.8238
-3710.9375,3.4139,28.7636,-77.1271,-84.5271,-281.2771,94.4502,-174.6534,5.6268,-103.8764,107.1856,-64.9332,130.0113,-11.5430,139.7951,-6.8513,-39.8507,188.9495,-37.9152,-27.6708,124.2752
-3703.1250,169.0775,12.8382,66.4630,-57.5709,-62.1373,19.4876,44.9086,-106.0296,-30.3781,31.7088,56.2315,-19.3604,24.0578,27.0559,65.8827,-4.2684,-32.5703,-151.2842,-34.7592,-24.4323
-3695.3125,5.9647,35.2203,-73.7319,-7.4128,-53.7919,-10.2780,15.6827,47.5176,-93.7012,38.4260,-24.7199,96.4674,-5.1521,32.5295,-36.1913,2.5303,-18.9026,39.5376,-54.6616,166.0672
-3687.5000,4.7352,35.0139,-100.0507,26.6472,-5.5683,-0.1393,-7.6784,-270.0396,-81.1547,-95.9595,-2.0530,108.2215,153.5380,5.9236,195.6379,-206.7787,120.7048,5.2761,-18.6674,-79.5190
-3679.6875,112.1246,64.6409,47.2452,100.3038,106.2642,-36.4002,178.5596,-87.0286,-78.0240,-95.7560,66.6179,34.5749,43.8321,-68.0695,49.0778,-21.4956,-89.0753,-96.4147,-85.0781,-5.5227
-3671.8750,-25.4231,70.7454,-62.4066,105.0118,-38.8690,-71.6120,-77.1701,-120.9464,-147.8689,-166.4992,8.9246,108.9918,156.1591,-30.9930,124.5419,-93.1485,230.2046,-21.0582,-79.4546,69.5513
-3664.0625,225.8858,98.2475,170.7848,111.5679,85.8265,-169.9722,10.9106,-292.0450,-132.8956,-227.4068,139.5609,-25.7176,133.3481,-92.0445,138.8746,-42.9704,200.3825,-189.8575,-142.9893,-64.5339
-3656.2500,186.5828,161.0507,155.3518,178.4773,-1.1250,-219.9838,-111.6548,-85.7925,-217.5961,-130.9698,65.7640,68.9287,-64.1271,4.2621,-95.4578,52.5669,195.9080,-15.3338,-179.1923,178.7264
-3648.4375,159.1323,165.4826,98.7599,153.2485,-93.2627,-165.1428,-313.4171,-361.6886,-125.4788,-185.6849,28.0893,160.4579,27.2332,20.4460,69.0479,-113.0524,415.3268,-5.9493,-168.5595,12.8549
-3640.6250,301.1122,138.2231,209.5856,154.4217,-55.0105,-91.9080,-91.8009,-140.2275,-11.9723,-76.0108,85.4989,13.3960,-119.0031,20.0411,-113.0325,72.7166,28.1761,-74.1934,-166.5400,50.3655
-3632.8125,4.4590,84.1172,-31.2295,69.9482,-257.4197,-1.3304,-256.8496,22.5981,-30.1397,88.0128,-90.4811,139.6960,-138.9064,109.0003,-132.7810,51.8538,189.3808,87.8994,-109.1832,177.2533
-3625.0000,96.7592,-1.0705,73.8936,-46.5787,-186.9076,31.1918,-112.9852,-91.6640,152.6126,84.9683,-9.8026,-11.0283,-68.8441,31.9375,11.4427,12.9222,35.5830,-134.0553,-14.8847,-9.9069
-3617.1875,83.2431,-21.5428,50.1866,-94.9588,-247.2471,-30.1410,-61.9686,215.2132,129.4961,208.0713,-35.7270,-35.6036,-165.6312,80.0339,-159.1841,246.1453,-120.0763,-110.8797,-27.4526,223.0772
-3609.3750,-17.0281,-62.1690,-49.2847,-159.0905,-345.3648,-19.2244,-232.7305,-30.6501,142.5991,182.4417,-76.2626,11.0938,-8.1790,90.3978,35.4310,110.6196,95.5377,-68.4386,14.2223,124.3328
-3601.5625,140.0703,-76.2462,118.5957,-175.8791,-102.1374,-70.9582,46.8406,27.8076,167.0368,205.1448,35.4466,-112.8589,-59.3642,1.1218,-15.5847,206.4178,-202.4653,-225.6560,-1.7547,72.9135
-3593.7500,-39.7090,-66.5008,-40.4095,-144.5650,-148.8100,-81.5877,-73.4891,126.3835,83.5479,193.9469,-47.9863,-14.7072,-32.4709,63.9605,-25.5234,85.3293,-66.3735,-52.7756,-3.6463,245.6043
-3585.9375,17.6104,-69.6394,-6.3286,-86.1496,-3.4033,-85.1060,-37.7677,-131.9502,84.1150,118.8385,17.7482,-54.4252,112.5223,-13.0754,156.6405,-63.6743,-45.1332,-168.7840,-50.4506,23.3959
-3578.1250,-24.1922,-40.9558,-17.3764,14.1088,58.8558,-132.7709,98.8009,76.5521,-35.4935,217.5734,-9.8299,-28.2901,-8.6307,11.7562,-37.3395,109.1757,-227.0430,-68.9728,-124.4152,159.0222
-3570.3125,-153.7454,-0.4313,-148.1845,61.6186,3.3433,-79.1833,-139.4036,-125.6788,-53.8902,51.5622,-85.9726,134.1127,82.4536,64.8625,89.9162,-93.7136,100.3240,49.0957,-147.1393,65.9208
-3562.5000,78.1614,47.4632,100.4559,119.5750,217.2600,-161.1339,36.8117,-243.4883,-22.8594,-66.0055,53.0346,52.9845,37.9914,-16.5593,45.6356,-27.1683,-53.8182,-139.3939,-194.4203,-51.7542
-3554.6875,14.2445,92.6861,62.2647,126.6944,144.3177,-233.9263,-108.8258,-97.1335,-130.7091,-65.4260,12.0701,163.0177,0.6556,55.1875,-27.5204,-63.4576,57.1873,-25.7514,-185.5757,131.7241
-3546.8750,54.2858,67.3186,79.0144,61.7732,198.2887,-254.7687,-128.5675,-337.8419,-39.6518,-196.9155,64.2588,142.0391,165.2647,34.9100,173.2745,-231.8169,167.1998,-125.1585,-74.7986,-108.8374
-3539.0625,137.8727,64.9292,199.2918,41.3506,209.7592,-207.1171,103.1727,-34.0852,-27.1173,-148.9265,92.3962,42.5693,-44.6260,8.1443,-36.4282,0.3127,-100.2633,-179.0985,-59.5353,12.0814
-3531.2500,-22.2251,37.5096,-5.1294,-47.7712,6.5142,-117.1713,-135.8049,-17.0165,-82.3169,-131.6356,-16.8668,132.4167,9.7683,97.6987,-18.8479,-56.2450,126.5890,13.2605,29.0124,29.3233
-3523.4375,127.9891,13.3623,122.7449,-37.5955,135.5516,11.0708,-6.5180,-35.6882,-25.2456,-77.0606,61.4184,3.5829,-45.5237,79.5713,-36.9441,-37.5236,-110.2059,-82.0886,-31.1481,-136.1490
-3515.6250,-13.3086,-1.4217,3.0951,-1.9688,17.0398,148.7541,-123.7789,250.0915,-105.7545,98.9631,-35.8141,31.1976,-163.3762,106.9031,-154.6028,64.6570,-180.5611,129.9929,-64.8744,75.8325
-3507.8125,-68.9068,-37.5828,-81.8660,-56.6429,-30.8086,211.1377,-172.3789,-19.4262,-42.5966,13.6945,-36.5110,56.5350,45.4696,94.9531,54.4388,-93.4793,8.8157,110.7939,-13.9075,-119.4695
-3500.0000,5.9701,-55.4589,-5.3639,-50.8723,84.7886,214.9730,127.4602,132.4794,-0.0015,17.8656,10.1397,-49.6767,-60.2232,61.4611,-51.0567,94.8146,-302.3407,82.0271,27.5059,-78.3467
-3492.1875,-226.4389,-79.3332,-249.1578,-71.3993,-48.9205,227.5120,-6.0056,145.1070,14.2594,67.7359,-123.6777,35.8219,-10.2377,73.6864,-0.8762,-2.1825,-78.7918,307.9685,113.6080,-28.5087
-3484.3750,-56.6458,-100.7083,-98.7631,-76.7251,103.5530,159.2632,219.6853,1.9068,94.6784,-1.2096,2.6447,-143.4534,67.9533,-68.8628,151.5190,-70.9974,-154.9942,57.1176,143.9016,-244.4866
-3476.5625,-61.6170,-48.3498,-77.1405,-9.8456,126.2406,70.2153,206.5757,208.8983,-28.7369,22.0367,-6.5966,-84.5256,-19.6693,-47.1978,-9.9019,61.3931,-193.9995,18.4486,70.3721,-1.2807
-3468.7500,-59.7838,-11.1617,-108.7242,-8.1628,95.7077,-71.0273,28.2271,-117.2983,-22.4022,-82.9209,-0.7257,31.2327,169.4946,-5.7028,179.4611,-153.4264,123.8307,-49.4069,2.6243,-69.2638
-3460.9375,119.2831,14.4694,113.9143,65.7194,208.3755,-215.0669,179.0526,-115.3357,-17.9008,-43.7082,99.8315,-39.7965,98.8656,-39.9918,109.0362,-3.0701,-120.1037,-186.0863,-202.9383,-30.0738
-3453.1250,-89.7659,53.3552,-36.5764,174.4582,21.8882,-255.2594,-154.2844,-80.5080,-129.5851,26.3532,-21.2298,141.0346,133.0645,29.5789,106.4362,-42.8518,128.8172,-6.9249,-270.6775,113.9796
-3445.3125,14.8457,51.0957,84.5837,174.8522,144.0220,-245.8014,-70.0275,-327.0541,-81.6559,-108.9410,70.6123,78.5410,217.9174,-33.1836,191.4911,-142.0027,127.4477,-147.1091,-200.7836,-132.3240
-3437.5000,45.1030,62.5230,108.3744,134.8570,169.7604,-145.7522,29.8263,-9.0140,-128.1492,-120.6461,50.5584,29.6475,-14.6386,28.6652,-40.8584,30.4403,-18.3200,-80.7245,-132.3164,39.9519
-3429.6875,-27.1778,50.7746,-34.3838,28.3181,63.9195,-32.2568,-149.9032,-115.5053,-123.2336,-226.8918,-23.4037,107.2246,26.2396,142.9839,37.2270,-75.6636,226.3889,-10.8848,6.5804,-66.3032
-3421.8750,219.4142,56.2129,152.7185,-41.3757,141.9127,45.0865,39.1860,-38.1722,-81.4916,-223.2915,83.2170,0.6543,-80.0192,109.1704,-68.8282,76.0599,-20.0220,-221.2086,8.3214,-135.7343
-3414.0625,73.5382,81.4319,-8.6601,-10.5691,-91.5975,67.9283,-157.2285,131.6824,-129.2847,-125.1868,-39.6369,133.5909,-128.8033,205.8748,-154.4083,135.2959,116.0576,-84.0442,3.5472,71.3358
-3406.2500,137.4099,48.9815,67.6987,-16.0057,-88.3894,70.5295,-154.9362,-122.7190,20.6285,-197.3481,29.9813,63.3102,20.1594,134.3541,68.7586,-8.7374,144.9319,-195.1091,-1.4896,-109.8479
-3398.4375,117.8197,11.7692,40.5842,1.0642,-41.6774,43.6331,76.8445,107.3550,69.0102,-40.0326,21.5746,-37.4680,-80.3805,34.3394,-68.5733,185.7258,-155.6863,-72.6828,-20.0395,47.4414
-3390.6250,-129.7117,-26.9849,-178.4744,0.1873,-149.9244,44.7915,-142.3454,35.4917,-2.6032,35.3234,-94.3717,37.8200,32.1176,71.3866,44.1289,40.2377,88.7600,173.8111,50.4480,11.7945
-3382.8125,-2.8723,-42.5434,-3.1819,21.6571,64.1727,0.3079,71.7851,-9.0563,28.1030,28.0070,6.6568,-116.5351,-12.0202,-46.1982,0.1988,106.0660,-101.4025,54.6517,72.2775,-142.5288
-3375.0000,-108.8964,-18.0463,-86.7615,56.2279,-19.6245,-10.0759,-11.9787,238.5074,-55.1216,54.7874,-47.5798,-53.7875,-59.0750,-56.6652,-82.6526,96.9988,-67.4752,230.5712,37.1886,68.2402
-3367.1875,-91.3156,-40.8136,-58.7460,5.4020,47.1471,-54.8500,-19.1933,-100.3226,-24.7946,-99.8296,22.8395,-97.4125,154.4624,-137.5049,167.0835,-131.4776,127.0953,215.1013,126.6795,-123.3892
-3359.3750,14.9093,-44.1967,49.8952,-28.8190,192.5181,-130.0226,237.1757,44.4222,48.0989,-27.8562,77.1660,-173.4303,42.5955,-212.7336,55.4184,13.6322,-118.7151,146.1996,93.7484,-51.4489
-3351.5625,-123.0870,-16.0268,-95.6983,-25.2856,84.6242,-164.4503,55.2795,-27.0601,14.7061,-26.1335,-21.8996,-23.6900,81.4557,-138.2044,94.4755,-131.5014,166.2352,220.0449,61.5444,-12.7417
-3343.7500,132.8389,20.6251,141.6143,20.1494,175.6060,-147.9810,146.2356,-194.6714,-4.8205,-193.5246,132.1782,-154.0279,98.2262,-194.7575,111.4457,-113.7652,105.1376,19.7807,37.2258,-143.1503
-3335.9375,68.2093,84.0124,99.3559,95.9932,59.9865,-79.1149,30.5865,94.1192,-155.9813,-124.5220,51.9978,-48.9602,-89.6201,-88.8974,-113.2063,-9.6208,110.4360,130.8959,7.2852,108.8286
-3328.1250,-4.7640,56.3687,-5.2561,23.4988,-43.0131,36.4039,-146.4583,-83.4321,-186.5397,-81.8699,-16.7129,67.7843,-10.8318,100.6352,2.7788,-112.8319,249.4237,59.6692,76.9749,-68.5339
-3320.3125,91.7008,11.7447,56.5512,-19.5927,-17.6237,98.3215,99.8781,162.3899,-49.7264,53.1663,6.8765,-17.0679,-132.6395,88.5823,-154.8338,170.3437,-147.1622,-160.1808,33.0510,-6.5269
-3312.5000,-113.9656,-52.1782,-165.7783,-119.8286,-240.4016,132.0891,-85.9488,232.0873,-14.0936,87.0572,-116.9927,52.9457,-60.6190,159.4030,-46.6239,204.3804,-0.9028,-13.1863,37.9551,174.3394
-3304.6875,-2.0737,-124.1884,-78.5660,-218.5114,-151.6603,110.4128,39.7363,-9.6840,74.0567,29.4897,-24.5568,-115.4727,63.9550,137.7912,115.1412,219.9339,-30.0491,-147.6275,80.4032,5.7398
-3296.8750,-89.9965,-139.9339,-105.1717,-201.0476,-214.7517,119.8904,85.5813,256.6933,12.3307,149.0576,-61.1664,-140.7534,-35.3237,184.3249,-57.9487,302.6285,-153.0560,12.0746,97.9928,199.2678
-3289.0625,-232.8175,-161.6373,-247.6813,-202.4796,-246.7500,198.4745,-56.4990,4.1873,53.6576,80.7250,-116.5078,-63.9170,115.4860,151.9716,167.0435,87.4167,55.0630,185.9076,131.6632,56.9029
-3281.2500,-123.9107,-145.5641,-130.4734,-128.2035,-55.0449,169.7672,246.0897,85.3465,98.6475,51.0711,-37.1098,-165.3694,50.0017,13.3294,101.7391,168.8810,-186.0922,84.4389,101.0070,-8.7996
-3273.4375,-255.9182,-95.5688,-274.1911,-83.8648,-125.2947,135.1219,27.7120,161.5782,27.6419,53.4681,-134.5513,-15.7694,15.5376,51.7506,30.4482,97.4131,-3.2083,270.0230,110.3747,140.5479
-3265.6250,-117.5171,-95.1155,-155.5121,-121.1258,-6.1695,70.8882,74.6827,-123.7988,111.9977,-10.7421,-47.1079,-79.7449,99.4661,-12.3999,150.5506,-40.6722,65.1224,127.0202,143.1340,-107.7170
-3257.8125,-25.8734,-49.5898,-29.6078,-64.1891,47.1596,49.8639,163.8538,186.0172,91.5288,115.2381,-12.2249,-136.5256,-105.4150,-70.3400,-90.1560,12.4381,-123.3404,149.1908,95.0820,55.1876
-3250.0000,-68.6098,-2.0664,-72.0960,-35.6483,-68.9328,44.4430,-99.4038,-3.5408,12.6174,36.8184,-45.2909,-32.6909,-37.7160,-112.6610,14.7103,-175.8547,184.8208,247.9675,52.6109,12.7018
-3242.1875,237.1305,53.0014,213.8749,22.3467,33.4126,-1.5230,-33.2422,-48.6751,-31.8807,-9.1691,112.5960,-114.3936,-82.5582,-157.5191,-103.9643,-1.7220,-3.5332,-9.8185,-99.4220,-69.3656
-3234.3750,157.3593,90.7844,157.3236,48.7965,-132.7931,-20.0422,-273.6269,114.6643,-160.9621,118.2986,27.2184,13.3542,-174.9730,-28.9192,-233.2192,88.8704,92.5498,86.8300,-178.0268,168.0157
-3226.5625,176.3917,78.4906,149.5635,33.0570,-141.2324,-28.7589,-318.2596,-151.1933,-96.2820,0.5698,47.7713,5.9272,-36.5929,-0.5017,-20.6832,-102.7564,252.4693,-33.7090,-124.8478,-23.8021
-3218.7500,201.9135,113.5256,244.2800,94.7737,-81.2239,-44.0223,-149.4549,54.3837,-110.1740,21.2800,56.9476,26.9486,-198.7634,20.3640,-218.7059,66.0557,31.8484,-76.8158,-133.2320,107.7964
-3210.9375,29.9532,105.8111,64.5102,99.0013,-187.7303,33.2165,-329.1674,-15.5092,-215.6045,-47.5142,-34.2063,105.4787,-120.4551,98.7420,-104.2542,-39.6287,282.7335,67.5790,-58.1359,111.9066
-3203.1250,199.8104,68.3742,176.5438,22.0282,-2.4541,35.2548,-70.1153,-123.6285,-141.2679,-9.5231,67.4378,-3.1779,-82.3314,26.9293,-102.9920,72.4566,65.4539,-150.2285,-65.2447,-70.2052
-3195.3125,39.3014,37.8645,74.2056,-32.3471,-66.5664,79.8903,-61.4497,141.8587,-169.3582,72.0668,-21.6646,41.7570,-184.6178,108.7194,-204.1447,117.1404,9.7517,41.5565,-48.7671,121.2705
-3187.5000,-21.7594,16.8104,-15.6920,-58.2696,-47.2388,136.9781,-115.3616,-59.2001,-112.0396,-54.8930,-26.4118,63.1573,-17.4552,128.9707,-0.8497,-119.7379,195.5221,51.8188,65.1447,-115.8076
-3179.6875,40.6583,16.8899,84.8806,3.2580,127.5511,163.5208,132.1754,151.1671,-122.2970,-64.4190,29.7568,-56.9979,-137.8367,82.6741,-158.1000,16.8207,-60.2489,7.5232,56.4920,-89.4754
-3171.8750,-134.8036,32.0517,-101.4327,39.8929,15.4435,199.1742,-128.1945,149.6623,-196.4905,-66.8519,-77.7578,50.9424,-103.1377,80.4884,-123.2790,-21.5167,187.0765,220.3415,91.9211,-18.0391
-3164.0625,22.6464,39.3087,35.1527,56.4229,152.2273,188.7425,-27.7015,-44.9640,-170.8190,-77.4029,25.8088,4.7937,-39.5309,-2.7787,-59.5597,-68.9884,62.3490,97.0769,38.2458,-212.7292
-3156.2500,-30.0564,39.5308,6.5740,73.7539,122.8289,159.1205,-57.3964,183.2135,-199.3722,76.8303,-39.9741,12.4347,-215.1406,41.7554,-235.0628,85.3347,-61.5848,219.5949,-14.6459,15.3565
-3148.4375,-38.4000,18.3347,-68.6559,-3.5613,85.7570,157.8600,-205.7776,-76.2414,-127.6174,76.4152,-52.5268,48.4397,-70.4152,40.6578,-53.2409,-98.9955,141.8607,177.4779,47.7990,-133.2034
-3140.6250,142.0347,14.7896,119.8774,0.8781,237.4225,52.3563,56.5697,39.0357,-13.1357,153.7392,56.0340,-57.8002,-138.9363,-65.6845,-121.6639,15.4085,-205.9250,6.0936,-19.0109,-129.0523
-3132.8125,-55.4556,19.4550,-19.5198,14.3802,61.1243,22.9042,-156.0361,156.3982,-5.6279,198.1167,-52.1506,61.0096,-131.4321,-20.9655,-150.0720,-51.1312,-15.6714,195.7537,-40.7898,25.1511
-3125.0000,82.6633,13.2567,97.6753,-23.5129,178.3967,-6.9423,-40.0834,-94.6501,111.4566,57.0865,53.7249,-5.5619,-14.3255,-124.6314,3.1235,-191.1033,-18.7741,17.0223,-7.9768,-189.0588
-3117.1875,78.1217,32.6188,120.1989,6.9033,163.9722,-21.4856,56.1721,148.6002,60.8199,79.3541,27.8894,-19.8406,-174.9225,-101.9967,-194.3951,52.2246,-129.5877,-22.4366,-12.8856,17.0044
-3109.3750,1.0346,56.1912,6.1707,-0.2188,12.9667,-24.5751,-169.1453,-75.6687,-16.4022,-33.9179,-42.1050,124.3472,-69.0877,42.1008,-51.4889,-24.9964,180.0616,-29.4375,14.6398,-60.4699
-3101.5625,208.3646,100.3964,189.5484,66.0620,86.3418,-63.2565,13.9106,-77.5570,-18.2395,-35.7983,50.6475,49.9398,-143.8397,41.6032,-163.1767,84.1645,35.1291,-245.0470,-95.4444,-135.5740
-3093.7500,72.7184,144.9584,74.9451,141.3484,-65.2852,-30.9397,-137.0189,65.5841,-132.0974,-3.6734,-48.9658,155.5192,-221.6116,111.1040,-203.8915,42.3366,180.1768,-97.6618,-89.5387,80.3212
-3085.9375,126.6676,107.7699,103.9319,90.2353,-37.3273,-39.0226,-109.3777,-200.6777,-31.3885,-121.9523,10.6569,111.7106,-46.7735,103.2171,7.9962,-75.9124,234.8543,-255.6577,-37.0408,-112.1894
-3078.1250,68.8437,47.6013,109.1432,67.3206,5.8504,-32.9093,116.4771,26.2455,11.4991,-43.0427,6.6866,44.0940,-113.7293,108.5299,-95.9177,150.0286,-70.2738,-207.4621,-60.3518,40.4667
-3070.3125,-143.1236,6.5739,-146.7936,31.2608,-67.1206,5.0624,-29.8304,-46.9525,12.2009,-42.2862,-88.1237,155.3352,70.1527,109.7045,87.9944,3.8182,104.4445,-32.3928,-25.8266,3.9790
-3062.5000,13.3247,-20.7655,-15.3290,11.5927,138.3061,26.4462,212.2386,-62.7758,107.2830,-94.1484,33.8294,-7.0200,92.4458,-52.7132,146.3176,-12.0205,-126.4171,-157.9195,-11.9090,-122.1410
-3054.6875,-122.5418,-35.9602,-92.1893,15.5750,60.3930,21.4890,133.9699,117.0762,64.9967,-26.3590,-21.3742,-11.7446,50.3698,-56.4845,68.2597,-53.2018,-85.6483,93.1979,-42.3512,93.3766
-3046.8750,-122.5083,-55.4125,-82.1536,16.4632,72.3611,33.4468,-39.4346,-166.1593,39.5789,-124.6737,19.8811,0.4436,246.1846,-45.3504,227.0842,-152.5050,54.0581,128.2450,-42.8971,-153.2124
-3039.0625,30.8561,-17.1481,75.2044,99.6631,155.6373,5.7113,117.4599,26.8898,-24.5549,-115.7007,82.4119,-100.0790,71.3013,-71.9232,52.2063,77.4696,-179.9221,71.5794,-136.1518,-70.5430
-3031.2500,-31.2640,28.7480,-28.9297,71.3781,50.4076,-24.5160,-98.1526,-40.5281,-93.2143,-147.2230,10.8299,16.8998,76.8983,-29.0022,94.7923,-64.0533,144.5956,184.4230,-128.9192,-28.3675
