Time,Fp1,Fp2,F3,F4,C3,C4,P3,P4,O1,O2,F7,F8,T7,T8,P7,P8,Fz,Cz,Pz,ref
-4000.0000,114.6342,174.0281,75.9757,136.6208,-84.0060,-46.0237,-216.6223,-201.0940,55.1322,-61.9863,74.1411,59.4015,-50.6656,17.3883,2.0137,-152.6813,184.3436,12.4383,-135.7763,2.1064
-3992.1875,254.5435,34.1646,225.0207,65.8111,134.3829,-46.2158,0.4790,-166.8162,-54.5115,-136.3499,76.0394,24.0326,-88.3874,-55.5332,2.8914,-45.2560,8.2096,80.2800,-282.4593,80.2261
-3984.3750,45.7242,37.5848,108.3137,103.2653,52.0116,18.8469,-158.1721,-31.2851,-428.9105,1.5320,-40.8356,126.9130,-131.8562,83.7933,-114.9853,164.4235,46.3093,185.3887,-213.9171,189.4095
-3976.5625,46.0483,-31.8248,152.7377,33.8736,56.7792,-86.9478,-155.6834,-65.6164,-238.1505,79.5705,113.4497,-13.0662,-54.1533,-19.7253,1.2980,95.2492,82.5772,-27.3703,62.7935,-25.8774
-3968.7500,5.5449,-70.0605,108.3235,-76.3718,119.7135,-22.5918,51.9816,179.1952,47.7456,106.7428,-78.1165,-94.9054,-99.2780,-138.1044,-44.2621,121.2336,-238.0282,142.0176,-17.3708,150.8245
-3960.9375,-223.5132,-121.8089,-131.6624,-129.1539,25.0861,30.2251,-43.9165,229.4643,65.0366,232.3743,-60.2519,-114.2873,27.0525,-48.0112,9.6209,98.6873,-114.1792,86.8666,205.9044,90.3109
-3953.1250,-81.2065,-190.1875,-14.2942,-162.5792,212.8120,-2.6246,177.5384,194.0681,107.6832,126.3492,-54.0346,-218.3246,105.7495,-189.5657,88.8654,64.4832,-217.9639,86.0450,132.5364,97.5437
-3945.3125,-196.8936,-127.5398,-141.9239,-101.9916,156.5439,15.5308,156.0071,282.6788,-20.6586,180.3118,-253.8363,-88.3576,86.4457,-134.1237,-2.9074,154.2814,-225.7636,215.2355,83.1416,228.5308
-3937.5000,-163.7885,-164.0685,-101.7617,-103.5898,194.0644,-94.5258,191.2580,134.0764,-18.2295,182.0759,-67.8242,-158.5846,198.9629,-94.8717,109.1196,43.8808,-86.7367,-70.7822,252.5594,-61.2447
-3929.6875,-96.7057,-235.6366,-107.6279,-177.2406,296.5545,8.3548,364.4800,271.4146,49.1505,136.7714,-220.8532,-164.8763,228.4503,-137.6799,66.1036,108.4310,-370.7759,29.1403,103.9172,42.9055
-3921.8750,-307.8210,-305.3754,-329.7079,-212.0902,179.8369,150.0300,282.5007,373.5635,8.3269,242.2712,-261.0974,-168.3797,186.7423,5.3163,98.8784,138.7938,-229.0204,-79.1236,345.0703,-63.0491
-3914.0625,-173.1653,-416.3342,-185.0345,-324.1920,249.8681,183.4291,424.2736,404.4492,117.2481,201.5203,-188.5815,-280.1469,220.7991,-32.9425,170.4235,96.9066,-340.5013,-228.6675,368.9889,-209.3678
-3906.2500,-227.6955,-397.4554,-286.5623,-307.4920,144.7061,336.6251,389.8690,554.1459,49.9404,243.5608,-364.2872,-199.1011,116.6590,46.5855,28.7655,211.8392,-428.2096,-38.3996,204.6837,-17.5293
-3898.4375,-174.3852,-308.6900,-266.2695,-288.9341,53.3696,245.6715,296.2946,350.6921,34.4567,152.4618,-159.1542,-178.1931,210.3752,30.9766,159.9576,82.6378,-163.0522,-233.2854,323.2457,-222.0004
-3890.6250,22.3513,-251.5077,-62.5756,-232.9847,180.4398,226.1075,385.1404,291.6354,-20.5988,-14.2419,-176.6207,-195.9040,228.5018,-61.2462,31.5617,98.8377,-282.5180,-73.7794,57.2102,-56.1869
-3882.8125,-178.5136,-168.9069,-166.5032,-116.6420,110.9029,192.9497,92.4013,257.0054,-161.2436,26.4632,-170.7133,-116.2253,197.0246,91.9375,-73.4481,175.4524,-59.6132,5.1436,133.5766,19.4148
-3875.0000,-66.4822,-231.4009,67.4623,-75.4085,231.2628,56.6830,136.5741,81.2757,-148.9856,-36.9269,-10.8977,-140.6656,244.4666,30.0234,-24.5451,110.9625,-17.7994,-97.0550,134.8779,-80.9288
-3867.1875,-80.7426,-174.1857,7.1329,-53.4760,279.3440,68.1161,145.4843,163.2597,-173.0320,-25.6347,-218.3970,-90.4208,146.6169,79.7926,-85.9441,195.1887,-172.3132,62.4596,10.8682,79.3548
-3859.3750,-72.0242,-127.9424,-93.2258,-79.5328,212.4168,-108.4459,40.3953,58.2519,-165.1010,18.6527,-97.9181,-81.1748,190.7807,88.5692,32.6559,164.4326,48.1864,-142.0186,225.8716,-137.3970
-3851.5625,61.6092,-133.7791,8.3177,-122.6945,312.4100,-193.1208,211.2327,82.1348,-63.2685,-29.1792,-106.5414,-127.0501,180.8706,-31.7614,97.1795,189.5841,-169.4235,-81.6154,37.7814,-78.7297
-3843.7500,-151.6531,-99.4957,-184.0495,-18.7608,152.5118,-130.6937,49.1970,178.1358,-183.3547,32.0843,-189.0833,10.1715,133.0668,69.0037,12.7911,249.8546,-64.9578,54.9036,66.7807,57.9788
-3835.9375,-100.0660,-186.3509,-14.5733,-36.9754,173.4616,-183.4252,68.0165,85.9873,-124.6171,-19.7943,54.2412,-76.7677,229.1354,17.6188,145.2605,122.9759,-12.6344,-141.7418,148.6495,-138.9195
-3828.1250,-105.1081,-188.8349,46.2647,-6.8468,121.7785,-87.8120,125.2149,216.1970,-100.5450,1.6691,-32.0918,-16.3686,141.5642,4.5752,22.0833,180.4629,-227.9954,26.9671,-106.1492,32.7012
-3820.3125,-222.7717,-96.8954,-78.5226,15.6809,-42.5161,-104.7976,-42.1934,160.8221,-80.0943,132.5383,62.9615,5.4321,162.4053,98.9442,79.2957,125.3802,-29.9555,-164.9207,50.4642,-171.2797
-3812.5000,-57.5284,-69.0450,61.5965,-28.8930,-15.9011,-76.9001,130.3169,111.3415,22.2594,85.2953,55.9256,-112.8840,154.1640,17.2078,108.4186,152.2022,-179.0116,-175.9274,-69.0061,-182.1790
-3804.6875,-187.2840,13.8179,-119.2851,16.5329,-161.2793,71.0009,54.8553,256.8838,-48.3946,160.0487,-89.1342,-0.2089,44.9212,93.4663,-37.4708,225.0456,-168.0961,-61.9137,-98.4906,-66.3654
-3796.8750,-74.6893,-12.9621,-33.8330,-45.6957,-189.3194,7.2487,26.7462,117.7813,-36.7139,133.1568,108.1556,-61.1926,93.0392,68.0739,85.0013,124.2536,-18.8224,-233.5629,44.4094,-243.1386
-3789.0625,19.9266,13.2748,59.6212,-56.9454,-98.3444,135.4965,115.6824,170.6918,-55.0177,3.2576,17.4364,-42.1977,38.1710,13.6564,-43.5157,140.4759,-240.5944,-0.2182,-181.6931,-1.7970
-3781.2500,-110.8319,-9.8118,-78.3131,-11.5562,-127.7286,142.4054,-63.7092,101.2806,-192.6809,47.0192,62.3368,40.4394,82.9574,58.8930,-72.3847,110.3771,16.2626,7.7850,-1.1292,6.5405
-3773.4375,26.2060,-48.0918,-3.4589,-50.3756,91.6942,68.1028,189.7305,24.6760,-45.5408,-101.4152,64.0381,-33.1466,155.5684,-52.0774,-35.4317,34.0848,-92.0879,-33.4374,-9.7413,-28.2676
-3765.6250,-149.0064,-45.6197,-192.8675,-49.4540,45.8815,169.5500,178.9675,160.8514,20.3479,-72.1001,-199.5380,34.0046,74.9376,14.6941,-151.7306,98.5681,-90.7336,141.1023,22.3882,152.9958
-3757.8125,-168.7866,-98.6913,-136.8526,0.9026,26.5168,40.4380,84.6664,65.4948,-70.3240,-55.3251,3.3299,16.5988,93.7713,-3.0786,-23.5714,41.5220,171.0636,-56.9160,208.0029,-44.4327
-3750.0000,-8.8551,-42.0683,63.8637,55.9324,151.8786,92.0180,134.1144,114.8581,-347.2975,-149.8624,-53.1034,32.8674,35.3282,-60.1679,-117.6989,55.1940,-19.4799,171.7582,-22.6645,196.5354
-3742.1875,-101.4472,8.0542,-72.9526,104.4525,48.7457,137.1114,-6.9055,84.7633,-411.7947,-68.8908,-43.0719,43.6229,8.3982,-13.7534,-144.3271,26.3976,134.4448,181.9500,126.1784,205.4202
-3734.3750,110.9460,46.1848,80.2094,34.9604,163.6222,-5.8049,142.1077,-60.3236,-149.2964,-138.9181,36.9627,-61.6390,87.4928,-82.3429,-65.9364,-44.3980,66.3653,-29.8751,53.0569,-15.7583
-3726.5625,103.6393,145.6272,25.6650,62.7641,69.8206,-26.4109,83.4668,26.9217,-167.5060,-158.6596,-92.7344,30.3851,-6.1072,-64.6442,-157.2578,82.1268,-11.4553,101.6286,-64.7757,111.5475
-3718.7500,41.3037,85.0701,0.0919,36.5684,-30.9807,-127.0125,-56.1607,-38.8099,-192.7416,-112.3944,103.5570,41.4043,5.3032,20.0594,-36.5901,53.6699,208.7284,-68.8555,150.4236,-66.9633
-3710.9375,193.3207,27.8577,158.8821,12.7142,51.5920,-7.2712,135.6067,5.8202,-218.6424,-139.7883,41.2058,-20.2477,-57.9187,-41.9020,-62.5642,99.5732,-25.7611,-23.9967,-19.0143,-13.0814
-3703.1250,-0.5789,-24.2424,-14.2390,63.9511,-123.7357,111.5774,-5.4969,11.5850,-282.4595,-21.0768,-22.0703,63.1891,-85.0437,114.2394,-89.4547,143.6052,96.8183,-45.0146,98.6503,-37.0244
-3695.3125,83.1665,-114.6954,115.2728,7.8226,-107.4150,92.0668,83.0700,-83.9895,-118.6289,-78.7153,107.3081,-28.7410,-30.5042,59.0362,75.3180,86.2992,75.0468,-209.3989,108.0065,-205.0668
-3687.5000,50.5800,-4.5123,36.4301,45.3218,-187.4211,195.2178,111.3441,54.1139,-160.1535,-84.7183,-118.6855,112.9586,-109.3072,90.4696,-4.2609,188.6678,-98.1229,1.8820,-139.9844,4.6267
-3679.6875,-57.6356,100.0608,-38.0478,78.2073,-264.0298,118.7859,-40.9534,-97.3491,-235.3096,-88.3114,63.7036,111.0503,-1.6979,162.3062,67.5559,111.4623,111.0935,-108.4311,63.4633,-114.9504
-3671.8750,103.0382,16.5231,132.3719,-42.0322,-22.7194,30.2539,236.6995,-114.8909,-102.5600,-177.0079,87.9967,-12.9836,57.8333,-35.9756,54.2859,59.1695,-79.8186,-54.8559,8.8362,-51.8446
-3664.0625,-92.2585,-70.9671,-41.1833,-61.2411,58.6500,1.7932,243.4472,-71.3365,-56.7616,-94.6529,24.3020,-2.9810,67.4217,10.7826,-46.9390,29.9599,7.2664,-6.2060,126.2652,2.8557
-3656.2500,-17.2302,-135.1113,42.5791,-127.1163,177.3717,-174.3184,322.5755,-176.4036,-83.6288,-124.9338,254.9508,-30.6490,186.3758,-17.1067,110.1973,-109.8888,12.6922,-214.2149,268.0953,-209.3893
-3648.4375,61.2437,-19.8190,5.7851,-154.5667,175.5766,-139.9773,393.2237,-32.9843,-157.0391,-52.7704,70.0307,6.1072,111.7908,-54.5680,72.7905,71.7304,-295.4870,-67.7607,25.3820,-69.0488
-3640.6250,-13.3700,-55.5946,-111.1004,-123.0807,19.7457,-220.6752,235.8577,-115.5739,-127.5039,48.3490,174.0338,35.8029,105.1586,-25.0818,102.3289,135.3295,-52.7375,-144.3381,122.6490,-156.7105
-3632.8125,164.8180,-122.5943,75.8152,-85.8133,94.7457,-292.5885,346.3403,-226.3482,94.8119,-23.7369,250.8415,-34.7313,70.3489,-95.8098,104.6825,62.7433,-157.2030,-109.1311,-55.2461,-122.1514
-3625.0000,39.3479,104.7474,-61.9329,-0.2203,-81.8760,-249.1431,167.2269,-184.7289,-6.5415,-16.4733,111.9691,120.0627,-31.1033,58.7985,2.3786,179.5422,-140.3727,45.4460,-148.7842,23.1950
-3617.1875,151.3439,147.5758,21.7947,5.8558,-183.9947,-314.1986,63.6387,-251.5794,-71.4125,28.2950,269.5955,93.3437,14.9571,32.9099,122.5844,113.8583,5.9481,-197.4816,-6.7767,-226.4292
-3609.3750,218.4399,182.4874,86.6193,4.0124,-230.9925,-251.1452,126.2091,-79.2932,-6.1878,18.1624,77.3065,121.7016,-103.8801,23.1068,2.8939,213.2896,-206.6768,-61.3011,-188.6551,-86.0003
-3601.5625,91.4062,197.2960,-50.6987,17.0608,-444.1009,-280.1710,-51.2927,-110.0621,39.9325,62.9481,85.8786,203.9514,-168.8273,142.2081,85.0911,183.6511,17.5753,-154.1927,-2.6143,-187.4450
-3593.7500,261.1603,227.8851,92.7568,-60.1032,-375.4070,-285.3977,89.0463,-191.0116,181.8611,-89.4701,119.2475,126.9783,-135.9686,65.1069,192.1043,67.8286,-94.3777,-197.2973,-14.7285,-230.3316
-3585.9375,113.3498,258.8974,-31.3520,-29.8317,-465.2478,-7.1548,-1.1068,-24.4632,130.2180,-68.4452,-77.9635,185.4446,-261.6651,160.4465,-5.4349,198.4846,-169.9286,4.0745,-59.3782,-20.8221
-3578.1250,35.7927,76.1762,1.8081,-38.2765,-432.7860,25.4074,-44.9257,-103.5711,163.8403,-37.1126,102.1141,109.1952,-154.0568,157.0950,64.3262,119.4601,-2.1881,-181.2429,139.3340,-202.0723
-3570.3125,121.2648,93.4628,163.0119,-162.7057,-236.2426,74.0413,113.3729,16.4132,251.5261,-97.7284,6.2280,48.9622,-140.3883,23.7730,4.1431,168.5031,-267.4468,-97.5023,-94.8662,-112.0955
-3562.5000,-4.9073,144.1163,61.5806,-114.7628,-302.2839,45.1117,-136.8775,-13.1414,75.6086,-53.9284,-21.2970,168.1091,-95.3233,142.8483,13.3489,175.9735,-77.3479,-85.3345,-14.6321,-106.3011
-3554.6875,172.4944,43.3316,181.7385,-77.2479,-148.7043,-57.2066,-57.4747,-155.0643,84.2737,-193.5383,60.7871,139.8174,-13.6335,77.5103,132.1759,35.0572,-5.6691,-119.5761,-15.7440,-136.1023
-3546.8750,52.5457,65.1796,13.5430,13.8853,-60.4382,67.1405,-7.3531,-32.2934,63.5786,-215.5165,-216.5010,155.1362,-35.2773,93.8007,-36.3534,86.8153,-90.4048,215.8609,-138.1955,212.3185
-3539.0625,-143.1772,83.2578,-149.4419,65.2464,-3.9094,87.7447,-25.9521,-50.2333,11.1145,-160.2174,-159.5548,102.6875,59.3363,114.3416,-14.6402,-5.1611,67.0919,124.5573,119.6461,127.6287
-3531.2500,-92.9511,64.2436,-60.4907,9.5252,193.6084,137.3011,207.4584,71.8035,24.6033,-219.9613,-218.6638,6.1656,36.9173,17.8161,-36.9624,7.8264,-200.5039,173.2038,25.4644,189.1766
-3523.4375,-252.2662,81.6938,-271.0735,-9.7199,91.6534,146.3751,104.4245,189.3939,-39.4132,-101.1989,-317.3058,53.1318,9.9994,64.7811,-64.7862,89.3507,-113.6489,258.3780,107.7956,271.9594
-3515.6250,-87.4779,38.2560,-168.5323,-90.8364,156.8690,27.5980,168.5813,69.1618,26.7197,-111.2755,-178.7993,-27.7753,39.2481,19.8908,75.5584,44.0427,-123.6567,104.6924,164.3269,111.1443
-3507.8125,-62.7493,98.7326,-188.0476,-32.0239,98.0711,78.7782,182.7567,192.9190,-30.2059,-95.4104,-308.3674,24.2439,-54.5522,-1.0624,-55.1477,168.7139,-309.7677,303.9774,-26.1817,311.7896
-3500.0000,-174.7115,94.5248,-267.2598,33.1239,-18.3682,72.3261,-8.6856,111.0724,-36.8070,-30.1895,-130.6117,18.6037,-60.9995,30.3356,-24.5099,87.7672,-34.5423,190.6364,176.7024,195.6337
-3492.1875,-13.0338,47.9252,-58.8231,-51.0989,115.8776,96.5302,197.5735,133.8983,98.2390,-80.3330,-143.2056,-67.4122,-72.7872,-129.6317,-36.2135,37.4781,-224.6859,210.9456,54.2740,224.4389
-3484.3750,-196.9870,75.6915,-185.0024,-24.9404,-49.4516,226.1646,69.2612,262.1823,118.6750,122.9252,-305.4333,-47.0457,-162.1803,-36.2056,-125.5312,93.6168,-197.4762,270.6906,77.2671,284.1073
-3476.5625,-59.0764,110.3022,-35.3094,-26.9056,-10.8677,153.7222,32.8615,152.4094,120.9969,14.0927,-82.7639,-155.8007,-86.6721,-69.8788,-12.9400,-16.3249,-59.3773,21.3377,142.2327,32.7292
-3468.7500,97.2305,303.2628,10.7753,24.4978,71.1493,199.6956,76.9404,196.0875,-17.2799,-87.3420,-182.7167,-145.1891,-76.7668,-170.1745,-112.9478,29.1567,-218.9337,176.3978,-160.3693,189.2651
-3460.9375,1.0075,385.6938,-90.6803,104.3765,-31.3247,133.2001,-172.4259,92.3316,-155.0717,28.7473,-65.2007,-64.0966,4.6303,-88.9707,-104.4712,-37.8317,36.9688,78.9527,-49.4276,80.8986
-3453.1250,154.4772,293.7833,71.5568,10.9276,130.9243,0.4188,-13.0315,31.3173,6.8350,6.5398,-11.9748,-86.3407,93.7401,-184.0844,-53.2770,-97.1113,-91.4503,-50.8493,-109.7335,-51.9989
-3445.3125,-42.4079,168.4823,-141.5655,-9.8964,62.8520,43.3116,-7.9244,110.0000,13.3764,158.9713,-152.1220,30.0377,63.4983,-66.5684,-156.4372,18.2806,-112.2643,68.0220,-97.3713,64.5130
-3437.5000,-37.1602,34.2845,-130.5593,-74.6008,110.9425,-56.6374,2.3674,8.8598,25.0477,206.5566,5.8804,5.5416,112.4115,-18.9120,-34.4409,-81.1685,69.0666,-103.9304,80.1916,-109.6159
-3429.6875,35.6518,73.5937,-94.0026,-36.7878,219.6179,-21.0294,148.2813,43.3027,61.2665,167.6863,-141.5804,41.5618,38.8779,-93.7242,-144.8895,-46.0565,-105.1039,73.6883,-131.6763,74.8117
-3421.8750,-122.3600,199.0762,-188.2823,16.2141,86.4990,-43.1890,-96.5659,20.0000,-71.3386,218.0199,-52.8720,92.7691,16.5330,-5.3342,-129.1548,-69.7205,123.8917,19.5462,24.6739,15.4461
-3414.0625,29.0759,105.9873,47.9313,-43.2899,175.9041,-137.8363,29.1360,-75.7768,-18.4654,122.8483,111.3431,-38.5374,106.6986,-99.4509,-76.9072,-90.8774,100.3812,-76.0882,-1.4266,-77.7181
-3406.2500,-27.9211,85.4383,16.7396,40.7871,106.9460,-59.8585,-3.4969,75.0963,-13.9938,200.2682,-30.8648,-34.2647,1.4555,-93.9811,-254.0654,-13.4151,8.4145,112.9169,-96.9131,119.2557
-3398.4375,109.5476,189.3300,17.0145,37.3331,33.5007,-133.3718,-114.5887,-73.4893,23.9751,236.2018,117.4187,-107.5138,2.7099,-94.0103,-180.7228,-50.4310,145.9313,-102.5689,74.1543,-108.1999
-3390.6250,344.7712,249.9465,112.0883,-8.3517,53.8967,-76.0786,-20.8114,-17.2365,117.7349,145.9273,-8.4930,-158.9872,-87.2256,-182.2568,-158.5627,-30.6202,-76.7895,-9.2522,-115.9421,-15.0981
-3382.8125,173.6249,255.1694,-74.2212,30.5939,-133.0445,-7.1148,-209.3357,13.7227,41.1065,251.3123,-47.7900,-52.8210,-126.5225,-75.8605,-125.7600,-35.1303,68.1019,-6.2534,-8.3599,-17.7122
-3375.0000,225.2137,132.0914,20.2412,-58.6841,-76.1675,-59.3326,-79.0108,-39.4760,135.2797,198.5120,119.7100,-105.8831,-32.0184,-128.6661,5.8676,-88.8258,-20.2183,-131.4444,41.0918,-145.6823
-3367.1875,126.9480,72.1100,-89.1056,-119.7931,-75.0573,124.6950,-42.4063,143.5900,135.6617,270.9182,-62.6166,-68.7819,-104.3181,-91.2858,-103.3036,57.7040,-258.4058,52.6045,-57.2240,41.4422
-3359.3750,-78.2118,-26.7708,-190.2981,-149.7421,-104.7386,58.9673,-108.5547,150.9233,108.2395,426.5530,19.2324,-96.5034,-58.4198,-46.6937,15.7285,29.4694,-77.4248,-84.1183,226.7325,-95.0863
-3351.5625,-33.2877,-120.6112,-105.3545,-279.5894,91.7739,71.4237,161.5212,235.4592,267.9871,401.3399,-41.7687,-232.1089,-9.3618,-179.9626,65.9261,4.4012,-347.3444,-38.6747,164.8964,-41.0907
-3343.7500,-244.5338,-49.6331,-331.5411,-280.5662,48.2224,100.8297,80.5593,374.9624,260.6227,467.0280,-157.9058,-201.8296,-15.4068,-150.3432,22.0150,-3.7397,-278.4143,65.7235,267.9885,65.8304
-3335.9375,-95.7853,-5.6875,-241.7019,-271.5142,136.7552,6.3107,131.6957,242.5500,313.2828,334.7654,4.0085,-297.5250,110.6047,-244.6794,112.1665,-135.8250,-164.4387,-136.8091,345.1894,-136.8532
-3328.1250,-70.9747,55.2661,-259.7679,-176.3837,118.4415,60.9203,150.0106,370.2865,258.0237,351.5934,-196.9958,-242.1456,-18.2861,-226.9337,-16.5779,-81.7941,-279.4085,62.7920,157.5152,69.6107
-3320.3125,-186.8881,-24.5226,-306.5229,-81.9156,-38.5027,-59.0863,28.7121,285.4267,211.0925,451.7865,-60.6754,-142.4288,9.1674,-162.8356,11.0286,-129.3846,-9.0459,-53.2212,321.2436,-50.6396
-3312.5000,-18.4805,-66.0656,18.0629,-124.1271,103.9409,-137.7296,170.8215,205.9573,242.5068,335.3313,45.0034,-149.3913,4.9749,-241.3941,6.9964,-171.6135,-157.3605,-60.8809,136.3758,-54.6939
-3304.6875,-38.6749,55.7610,-10.9198,-37.9224,-36.1332,-129.8877,-42.5594,176.0035,103.3608,378.3343,-56.8997,-30.9231,-133.7811,-123.5030,-131.5999,-90.3596,-1.2786,94.9500,44.9816,97.2138
-3296.8750,81.8707,36.3133,83.8646,13.0561,-88.3932,-220.2249,-95.1032,-24.1109,161.0055,288.1497,110.9938,-47.6689,-113.7424,-140.8111,-37.3864,-181.2952,225.5988,-65.4113,129.4520,-67.2834
-3289.0625,104.6058,25.9840,138.8377,36.2100,-34.4180,-128.3430,-4.3814,66.0155,214.8582,121.1645,-54.9296,-30.2343,-168.5155,-158.9357,-54.9728,-90.0189,2.6363,98.4476,-94.8524,102.6221
-3281.2500,-149.4546,-52.1760,-56.9760,63.6031,-229.1871,-67.1746,-126.3739,52.4458,202.9473,218.4458,42.3740,-5.5520,-180.0610,-23.8098,6.6766,-29.4674,135.9015,19.5867,107.1316,17.2534
-3273.4375,-19.0078,-26.8798,80.7632,-17.4798,-201.3767,-76.4381,11.2348,80.4570,267.5692,135.2826,144.2407,-125.3439,-115.0553,-106.1402,107.8855,-39.3522,-51.3057,-96.7277,59.7221,-101.2718
-3265.6250,-19.9671,78.9801,-2.8630,-50.9482,-321.8823,-12.0094,-72.4394,179.1804,110.8322,124.7833,-12.2716,-99.5016,-162.4100,-42.8299,24.7349,97.4468,-85.9243,45.6356,23.9874,39.1627
-3257.8125,2.1623,-4.1016,60.6182,-64.3061,-257.2270,-131.3958,-117.9280,22.1002,100.2556,113.4602,162.3570,-145.5284,-23.6215,-89.3671,199.7440,-22.5859,111.5900,-143.8498,150.4711,-153.6454
-3250.0000,20.0749,-55.4875,114.9008,-45.9075,-19.7369,-40.9577,82.4504,75.8632,117.4944,56.9407,32.7852,-165.7889,-43.0393,-145.1202,106.5636,-5.8035,-115.1421,14.4771,-78.2135,17.4442
-3242.1875,-240.9418,-104.8732,-85.7485,9.5686,-36.1304,14.6180,-44.0305,94.7781,64.8230,185.5421,-20.7085,-73.9697,13.6258,21.2203,54.4755,13.1068,46.1893,-70.0513,46.2317,-68.2375
-3234.3750,-139.7482,-144.1091,62.8381,-64.7346,185.7645,-93.5276,103.7808,-14.0226,139.3975,76.3935,91.0554,-108.9302,125.5411,-15.2015,92.6510,-96.7221,5.7537,-214.3215,41.9870,-211.2498
-3226.5625,-137.1601,-69.9897,22.8753,-25.6209,255.1580,-23.1841,100.1097,54.6787,25.4126,35.6895,-59.7509,-77.4674,48.8934,54.8176,-93.7267,-63.0762,-60.2897,-0.0929,-95.7854,10.4989
-3218.7500,-103.7383,-142.0726,60.7875,42.3643,258.4742,-57.9116,-81.6242,-89.6750,-45.7004,-37.0993,89.3352,-112.1183,87.1411,93.7441,-18.2028,-134.5123,254.5585,-140.9400,77.3989,-128.6698
-3210.9375,32.6172,-215.3074,166.6510,75.2692,327.7894,12.3312,62.6586,-58.0507,59.1426,-224.9510,11.3672,-116.8414,46.3371,15.5925,14.2794,-102.9971,75.3283,-39.8184,-136.4234,-21.0591
-3203.1250,-135.2882,-66.8298,-13.7118,152.9590,146.9330,14.4166,-8.2088,-91.5691,-11.2213,-112.9935,-58.8293,-4.7756,50.3101,55.2349,-18.4550,-173.6625,258.8665,4.1481,-94.4174,18.9572
-3195.3125,50.9485,49.7437,149.1154,164.8299,201.3021,-78.2736,82.1581,-221.8566,-141.3911,-243.8257,105.1856,-26.5351,140.4725,-1.9238,109.0259,-378.1155,305.5994,-158.6776,-84.1576,-143.3067
-3187.5000,51.5073,84.5518,140.2950,165.0257,119.0659,-85.5816,110.9398,-119.7526,-297.2249,-290.3094,-13.4609,39.0344,58.9737,64.2590,27.8562,-129.1948,95.6335,51.8772,-224.5343,64.7630
-3179.6875,-59.4915,-26.2458,100.9420,124.6964,-29.6649,-161.3617,-37.7537,-233.1078,-226.5770,-220.2638,130.3810,35.1022,91.9591,133.9525,98.1855,87.2455,230.1600,-128.0409,15.6389,-129.5672
-3171.8750,45.8279,-130.8071,177.9432,20.6922,84.9880,-84.7699,149.9557,-156.0829,-38.5726,-327.8678,60.5788,0.4933,96.2917,63.9854,102.8691,91.0414,-14.9817,-56.5968,-88.7954,-53.4709
-3164.0625,-155.6477,-157.2133,-74.8198,100.9188,15.9213,141.1214,7.9562,-41.7546,-145.3385,-324.2251,-81.9978,151.1281,64.8522,178.2739,-39.2163,-14.8836,100.0883,165.1371,-7.9621,178.7726
-3156.2500,-98.2753,-310.8211,30.2933,19.0235,121.7749,136.9412,3.8873,-121.4949,-113.2189,-403.6681,96.3342,-1.3448,206.3037,136.4665,103.6041,-94.8970,158.0546,47.7709,154.8299,64.0221
-3148.4375,-113.4405,-291.0436,45.9094,3.5947,212.1634,264.2964,94.3824,42.3103,-207.5875,-387.6052,-69.8410,-58.3373,112.2414,153.1471,9.9296,31.6005,-67.5311,244.9332,-36.8571,270.6352
-3140.6250,-296.1669,-332.8786,-34.0040,32.6466,132.0614,258.1933,-59.5920,72.6666,-288.4654,-395.0226,32.4674,6.1609,105.6591,256.3336,39.7503,-85.3817,172.3636,168.6271,204.0011,199.0517
-3132.8125,-132.5185,-380.4204,140.4884,-13.9330,345.3880,212.5086,153.8714,27.4466,-112.9485,-515.0430,61.1948,-2.9610,97.4801,63.9149,-5.0144,-203.9587,90.6420,123.7177,122.3034,164.4223
-3125.0000,-236.8630,-274.0082,-47.9787,58.5179,303.8005,207.9113,75.4368,95.3181,-118.4068,-411.0132,-91.0438,63.9548,-17.6618,57.5408,-118.7423,-62.4619,126.9289,230.9037,88.6700,269.7090
-3117.1875,-135.5213,-172.9624,27.2823,90.7089,306.9896,27.0885,115.7751,-86.0320,-80.1377,-409.2186,21.4701,-44.3844,57.9440,23.9182,30.2809,-171.2039,264.9712,17.8576,190.8431,50.4995
-3109.3750,-3.2612,-76.0852,87.4976,118.8278,368.1815,15.2510,214.1274,11.6023,-129.9152,-459.4836,-101.0680,-20.7948,8.4883,-25.7693,18.2537,-146.9858,10.9234,151.7886,-63.0126,185.0426
-3101.5625,-175.1625,-107.4199,-21.4106,157.8211,149.2976,-19.6411,-4.5855,-22.8155,-202.8101,-348.8321,10.2675,88.6846,9.9159,84.4507,93.1129,-146.8436,191.7506,86.6617,82.0747,108.7875
-3093.7500,18.7465,-230.0170,149.5284,72.6311,175.3008,-67.6636,94.5949,-72.3620,5.1407,-398.3204,71.4667,2.9900,-2.8105,-0.4819,155.8368,-121.8493,34.4176,37.3818,102.0692,56.5704
-3085.9375,-147.9816,-257.3170,-31.1373,11.8178,31.7381,119.7502,98.2308,151.5368,45.4805,-285.3971,-145.9496,42.6810,-109.1591,39.9766,11.9492,-8.4361,-60.5561,258.5383,111.4747,283.1969
-3078.1250,-192.3619,-302.3316,-71.4231,3.3885,-8.4141,80.5882,96.2825,111.8684,40.2092,-290.0506,-3.9620,-0.2342,-3.1267,-2.1541,192.4614,-122.6081,106.8740,76.1044,280.3307,100.0001
-3070.3125,-62.6161,-244.3162,23.4555,29.0883,14.6121,140.5956,192.5334,134.3776,-9.9005,-415.5582,-16.8169,21.9901,56.0359,-89.1439,141.1263,-63.6200,-114.5690,171.8322,23.3634,194.9772
-3062.5000,-188.8694,-195.3522,-38.6329,8.8253,-118.3079,115.6946,-14.1456,108.9820,-34.9766,-293.9979,31.3579,106.2733,31.2193,-4.0701,80.8233,-15.5533,6.0156,152.6438,109.4647,165.3401
-3054.6875,-28.0148,-351.3396,137.4244,-110.3079,57.9339,72.9664,89.3454,28.7548,103.0856,-302.2721,169.6982,-13.2984,22.5440,-48.8390,146.6801,-61.3224,-78.2571,70.5979,96.7598,83.2957
-3046.8750,-145.3459,-364.5874,7.3292,-156.6278,149.0461,274.1315,106.7341,193.4196,-62.9970,-322.6951,-33.1252,40.9691,-32.2930,42.2392,17.3862,66.7855,-229.7333,306.4331,-19.0833,327.7744
-3039.0625,-248.9968,-364.1993,-133.0457,-189.2271,157.9157,283.0857,78.8960,127.8755,-93.3558,-205.3438,10.7990,-63.0122,11.6039,85.0842,97.8371,36.6626,-51.4647,205.0415,194.8751,225.3595
-3031.2500,-182.0315,-403.2805,-59.7615,-261.1998,268.4696,319.7167,300.7535,238.0025,51.9284,-133.3333,-136.6173,-138.3574,-25.8575,-25.4311,97.9441,73.2010,-334.5672,240.3139,88.5111,266.3567
-3023.4375,-393.9604,-405.3230,-250.3343,-261.0303,79.1943,389.5429,185.7773,343.3179,84.3504,44.8350,-215.8984,-34.5553,-142.1942,79.2118,57.1746,177.9189,-264.5403,170.7802,229.3018,191.9827
-3015.6250,-227.2862,-485.8290,-141.2500,-339.2246,115.5918,242.0430,259.4571,232.2922,228.4089,-32.3478,2.4934,-147.1107,-69.8883,-33.4882,202.0578,102.2919,-131.8489,-82.0960,327.7883,-64.9136
-3007.8125,-154.8949,-485.6963,-108.4017,-301.6911,112.7832,275.3267,292.9368,302.0421,114.2059,-72.7876,-147.3744,-114.9170,-110.8458,0.5560,15.6840,172.4296,-234.4531,132.8133,191.0353,157.3015
-3000.0000,-283.1700,-474.2739,-166.1825,-182.7764,56.3980,219.0465,163.8335,172.2278,-16.6290,-56.8159,-20.8485,-100.3085,-58.4172,89.0209,32.6941,114.9889,59.3375,77.1502,310.7212,101.6531
-2992.1875,-90.6342,-388.1217,36.8953,-94.0364,151.9041,241.6357,296.6188,120.2776,3.3761,-219.9916,-37.4567,-116.8592,-74.1384,-36.6634,52.5640,25.3994,-98.0325,167.3434,48.2894,198.1359
-2984.3750,-209.8512,-262.7849,-92.7265,34.9911,-13.2613,295.5621,93.7409,136.6674,-200.3338,-130.8614,-130.7806,45.8967,-131.5793,53.9562,-39.2848,79.1335,-4.1348,297.8763,2.1638,324.3413
-2976.5625,-123.6652,-249.1031,-33.9020,16.4510,9.0389,98.9592,80.3170,12.5222,-141.6131,-109.2683,37.3643,-6.8951,-35.5793,2.0333,92.3161,-9.6635,81.2242,68.8526,159.5327,86.5875
-2968.7500,-71.6375,-197.6749,-57.2069,-35.2633,-11.7758,77.2271,205.7780,137.2496,-18.0419,-58.8233,-94.6365,-30.8446,-21.7455,-57.0428,33.7593,42.4055,-180.6064,159.6908,3.7553,172.9868
-2960.9375,-148.5589,-171.2463,-176.4192,-76.8909,-165.4884,34.6255,53.3440,58.1051,-26.3912,5.7495,-28.5421,-2.6873,43.1590,82.0040,63.2890,71.6006,-10.3476,15.6471,174.0987,14.7317
-2953.1250,-5.8132,-241.2260,-20.9170,-178.8380,27.5141,79.7405,172.6279,-6.3332,54.9569,-59.9668,52.2734,-141.8280,123.7478,-20.2431,144.5268,41.5088,-183.3941,-14.7004,73.1667,-15.1232
-2945.3125,-156.7603,-181.9592,-110.0695,-151.4464,50.8765,176.2522,49.2899,89.6142,-34.3480,34.6773,-72.5753,-84.6045,36.6586,37.8659,-15.9056,101.7873,-192.1248,155.3355,31.5831,159.4830
-2937.5000,-65.6655,-163.6953,-79.1348,-129.9666,119.3402,98.8982,-64.9446,9.6771,-77.5678,101.4357,141.6890,-91.2704,29.6567,-4.9112,15.7610,-87.8257,6.2580,1.4736,194.1404,5.3766
-2929.6875,64.3542,-141.5805,54.7723,-69.5602,218.7890,162.5241,-38.1880,72.7002,-89.8452,126.1424,-16.0876,-66.9947,-55.4006,-89.7439,-142.6204,-26.4729,-144.4445,204.5701,-95.3499,215.6914
-2921.8750,-59.2252,-197.1118,-35.8826,55.2742,128.6913,145.6372,-238.9722,19.2061,-181.6877,254.3210,38.5678,-12.2611,-74.0245,-34.1086,-160.5693,-43.6384,119.2804,225.1440,-40.3726,235.2884
-2914.0625,139.1643,-280.7541,177.4664,43.0894,271.6083,-43.2361,-96.7440,-169.2790,-114.5335,174.5061,179.2444,-93.5264,-7.6571,-113.4621,-55.5085,-50.7952,109.0040,110.7103,-155.3574,116.9275
-2906.2500,144.0219,-208.9966,137.3210,49.3914,159.0521,-6.5794,-170.9838,-61.2352,-191.8889,208.1915,30.4167,-23.2810,-119.8124,-43.3186,-131.9679,57.5620,44.1952,223.8188,-253.8474,227.4332
-2898.4375,145.4702,-243.6819,146.8142,19.3361,22.1590,-106.2452,-233.5752,-161.5305,-109.6174,216.5448,149.2448,-125.3678,-74.3346,38.4860,-11.7921,29.5814,259.0469,-15.4049,-2.6512,-18.2592
-2890.6250,218.7879,-313.5641,185.2306,-12.8389,62.2085,-28.9928,-46.2313,-47.9207,2.5457,181.7995,4.9896,-124.5567,-145.9667,5.1855,-9.7245,68.5081,-18.2178,94.2759,-172.5430,95.9051
-2882.8125,21.1029,-303.4880,-62.3164,37.0237,-146.6750,18.3449,-218.8279,-1.2275,-99.2635,301.1272,-59.2356,31.3168,-137.5759,160.9553,0.3630,115.5214,101.5432,111.0398,-87.3744,102.9470
-2875.0000,141.7304,-254.1709,-1.5177,89.2127,-157.1946,-102.9471,-120.0612,-86.1733,-148.7243,250.8212,37.9015,53.5428,-39.8456,38.0934,133.8025,28.8955,83.6596,-9.8549,-32.8165,-20.4631
-2867.1875,122.9869,-135.2994,-102.0612,177.0252,-256.0471,-127.5576,-70.6082,72.5524,-212.5323,298.1704,-208.3182,101.4339,-103.4795,-24.1193,72.8782,114.9424,-39.6160,149.9217,-84.6140,143.8129
-2859.3750,-22.6637,-178.3523,-211.4660,103.9841,-326.7644,-160.9989,-104.0128,74.4377,-101.2108,446.6942,-170.3791,28.4985,8.0266,-23.1631,183.0898,42.1582,98.2691,-62.1418,229.7549,-71.5661
-2851.5625,-29.9817,-328.1373,-213.4940,-77.7121,-144.1175,20.9156,151.9425,256.6648,152.4547,554.5685,-283.0623,-122.0867,41.8757,-98.8542,144.6516,2.7303,-259.4978,-30.8518,190.4760,-31.7043
-2843.7500,-350.5841,-405.2550,-440.7646,-115.6586,-147.7153,238.6157,74.6521,436.6631,109.8441,658.2003,-288.0072,-91.9025,-0.5560,43.2187,29.9315,71.0814,-261.5269,4.2216,294.9415,9.0834
-2835.9375,-284.2201,-481.4575,-251.0267,-152.6125,5.6884,172.3362,82.3542,332.6638,78.2160,516.8443,48.0646,-123.7048,78.0020,11.3068,35.2033,4.4393,-193.5383,-171.7133,329.4374,-164.9965
-2828.1250,-219.8705,-419.7424,-113.2722,-121.5887,71.1118,238.0915,37.0825,361.6848,104.5893,470.4964,-33.8667,-23.5013,-41.4545,38.4023,-193.5376,105.8112,-338.5948,2.3612,9.9258,9.3084
-2820.3125,-264.4324,-361.9614,-119.3909,-59.4294,-43.3200,124.0343,-187.0459,171.8747,135.1059,501.3290,106.3480,42.8772,-84.7724,143.6779,-126.1464,63.3621,4.4830,-109.4055,38.5778,-115.5714
-2812.5000,-15.9733,-291.2247,142.5602,-20.2506,147.3156,58.0368,-69.1049,-4.8906,66.6771,249.2191,148.6362,85.3122,-116.0357,39.0067,-82.6959,32.9763,-26.3984,-67.1415,-270.7009,-70.2973
-2804.6875,-61.5387,-93.5587,88.5179,181.9046,20.9699,42.0619,-269.1470,-94.6444,-245.7600,193.1108,57.9150,286.7598,-208.3114,131.3371,-211.2616,124.6177,141.6919,101.1463,-383.9879,96.3484
-2796.8750,107.7736,-138.0627,234.3771,212.9414,22.5329,-103.0005,-304.3057,-314.5046,-172.3109,45.9101,241.1100,249.1232,-134.6970,94.5869,-99.9375,15.1769,311.6926,-111.6710,-246.3492,-120.4129
-2789.0625,190.6256,-163.0889,318.8069,226.5094,-1.3307,-89.4979,-180.9017,-264.8110,-51.3182,-15.7374,69.8595,223.0484,-234.5467,70.3944,-163.0744,100.3114,150.2163,45.0703,-406.1734,41.3465
-2781.2500,39.5819,-178.0300,234.3727,288.2208,-195.0491,-98.8311,-263.3553,-274.9527,-137.1937,46.7954,95.7515,248.1594,-283.2722,132.3752,-100.0805,126.6290,386.8863,-103.0335,-167.8455,-104.5614
-2773.4375,203.5237,-192.0404,374.9532,207.9190,-125.7596,-214.1688,-84.8121,-317.1021,-34.0702,-107.6553,161.6729,167.2814,-254.0060,16.3656,40.9112,83.9544,306.5606,-181.1590,-176.5016,-182.0137
-2765.6250,82.0979,-70.4529,132.1899,229.2575,-294.8145,-124.8364,-105.6166,-191.5880,-20.3144,-93.4446,-6.7627,254.0712,-313.1110,67.0222,-18.4743,172.9633,256.8558,-52.6161,-189.5258,-57.6407
-2757.8125,119.5357,-71.0164,142.3235,233.4887,-354.9890,-221.5933,-91.5484,-363.1781,-9.6621,-118.3123,187.7131,228.7858,-192.3267,78.6057,67.0228,1.8931,438.0685,-221.1837,-6.6340,-230.9048
-2750.0000,296.4210,-2.1894,290.9398,235.1626,-278.6991,-144.8944,-16.0235,-324.3229,-82.5630,-191.7352,151.6545,228.9725,-192.1065,6.6355,-42.0395,3.2901,193.7155,-40.3014,-284.3104,-47.2440
-2742.1875,177.6263,86.9503,166.9150,259.1878,-364.0692,-81.8215,-247.1707,-299.1044,-280.1642,-56.7910,175.9415,289.5426,-204.5587,105.0302,-128.7819,-8.9309,288.7050,-14.0546,-82.6445,-23.3665
-2734.3750,235.2713,-34.5051,276.3511,142.6498,-142.9989,-46.2973,-99.8821,-226.4490,-135.3221,-60.3742,248.7067,102.5830,-96.5661,28.8875,-56.0799,-47.6993,66.1486,-129.3808,-22.5147,-133.1468
-2726.5625,39.3611,-129.5643,66.2512,54.5450,-56.4743,151.6920,-13.1322,7.6650,-88.0099,61.5106,3.9105,40.0930,-122.1409,41.2069,-117.9539,112.0073,-163.9984,65.7520,-73.9630,69.0589
-2718.7500,-118.2846,-289.3718,-16.5630,3.7331,45.3249,107.9980,-22.1044,-74.9223,-97.4059,89.7237,140.4248,-6.0702,50.5774,31.8601,-17.5442,30.0374,32.1643,-51.8269,158.8954,-45.8691
-2710.9375,-19.3830,-298.6770,90.2000,-35.5449,226.6818,178.8571,159.4841,-4.9705,-66.2533,-62.5016,26.5063,-10.6691,82.8455,-81.9307,-57.5866,-47.3678,-182.1446,121.1260,-19.7072,139.2048
-2703.1250,-202.7203,-205.2118,-66.2459,-6.0354,181.8326,207.5365,4.8696,59.7994,-150.2954,-34.8969,16.3688,52.5571,34.9011,-17.9093,-104.8520,-55.9482,-48.6827,151.8895,116.4781,171.5012
-2695.3125,-49.7826,-265.4860,141.6100,-62.2474,281.2795,124.5152,67.5502,-24.1373,-53.0250,-83.9709,188.5458,-69.8999,59.2550,-103.5725,-43.8223,-141.2201,-33.9150,62.9233,132.9858,84.4815
-2687.5000,-112.6021,-261.5527,107.7306,15.7742,175.9921,240.7551,73.4919,164.1856,-86.5296,-6.7879,-28.0308,-30.0810,-48.1528,-62.9732,-222.5658,-63.2132,-130.9304,285.2156,1.7262,316.3533
-2679.6875,-170.4460,-217.6508,15.8426,65.7913,48.6930,150.0052,-54.5989,109.5214,-107.0749,84.4215,100.3927,-49.2278,-30.5720,-44.3457,-131.3407,-118.1813,94.0660,90.5050,229.4746,115.4295
-2671.8750,21.6682,-203.8367,144.9261,-21.2553,69.3457,97.1981,187.2608,129.8033,-51.6538,66.5908,82.7809,-104.4142,-49.0497,-134.7681,-40.1791,-98.1870,-167.9926,41.7197,74.1785,63.1759
-2664.0625,-99.2812,-153.0860,-99.0327,-69.3630,-136.0605,112.3461,56.0638,181.0477,-75.2721,227.7292,-12.8960,-16.6229,-108.5995,-47.2315,-62.0992,62.7904,-147.1293,64.8877,166.8103,71.9934
-2656.2500,14.8040,-181.3020,-44.9439,-163.4308,-190.4367,-50.4660,111.8912,53.3286,162.1606,208.9462,115.4943,-109.7521,-19.1005,-138.6265,102.0234,45.8293,-64.2064,-166.9284,286.5069,-172.0909
-2648.4375,-15.5972,-181.0409,-116.3405,-158.0141,-187.3088,27.2281,188.2172,166.1125,310.0922,210.6700,-66.6120,-71.3577,-91.1122,-136.5134,-6.3754,121.3888,-234.8165,-18.2481,117.6787,-22.0579
-2640.6250,-163.0750,-226.8353,-194.7972,-92.6526,-301.2560,-13.1162,38.4623,124.8513,193.9520,241.3686,38.2295,-39.9711,-23.1899,-68.4201,25.1411,153.9290,41.5228,-162.6194,289.7926,-167.9118
-2632.8125,-27.8035,-163.8865,25.5172,-95.5507,-152.4635,-10.7186,113.4412,90.3219,120.5599,58.8270,112.8463,-112.8110,49.4789,-140.5580,61.4000,119.2308,-102.3891,-162.2735,148.6508,-162.7907
-2625.0000,-143.8338,-3.2475,-98.4591,-69.7535,-164.9902,123.3849,-8.8893,187.4925,-41.1383,44.9984,-47.8427,-16.9199,35.8322,-6.9772,-25.6687,105.2672,-111.6236,-29.2234,105.1735,-28.2134
-2617.1875,-68.8759,-71.6224,-44.4369,-62.9606,0.4600,33.4752,-27.2489,22.6402,-24.8336,-10.8124,116.4862,-37.0003,199.1907,10.6267,102.2551,-59.6843,1.1640,-230.2031,185.7010,-233.1988
-2609.3750,-33.5911,-109.6928,-7.0804,-25.8792,186.2182,109.8594,85.6936,61.0611,-25.2249,-120.3357,-66.8778,0.2449,198.8517,11.5314,28.4642,15.6689,-172.7627,-49.8986,-91.5042,-45.7024
-2601.5625,-208.5111,-146.9404,-150.9218,47.0024,116.7592,77.0549,-57.5950,-9.7273,-169.8600,-82.0580,-27.4476,39.3341,200.3068,124.2624,30.4417,91.8446,110.1113,-45.7920,52.0681,-42.1036
-2593.7500,-48.9763,-166.7440,98.7109,-2.6761,294.7466,-2.3019,83.5447,-89.0886,-68.0477,-162.3228,39.4601,-79.1071,155.2164,44.4568,59.8630,49.4757,61.4370,-94.2702,-30.9133,-84.3259
-2585.9375,-125.8921,-0.9998,50.9140,-7.8173,248.2837,62.9000,74.2316,-25.9000,-80.6684,-100.0227,-118.0934,-15.9786,-3.3344,71.2025,-97.1951,75.6815,-14.7217,114.8077,-103.3778,127.4020
-2578.1250,-122.9649,-37.3937,61.9601,-38.1215,260.6581,-34.0484,86.7373,-233.8700,3.5550,-124.8463,40.2107,-41.9729,80.9621,8.8147,96.5782,-22.2502,165.9751,-54.2855,42.0106,-48.3212
-2570.3125,-67.9643,-161.7226,119.0804,-51.3928,356.0851,-11.9475,255.2885,-175.8025,133.8228,-178.6165,-123.4236,-21.8975,63.3103,-6.5222,79.3911,35.8804,-94.3021,74.6455,-145.5712,84.2108
-2562.5000,-230.6216,-151.6789,-90.4571,-2.3229,184.8400,1.5091,122.1607,-162.3754,107.4344,-19.0150,-183.7166,100.5625,37.9944,79.5138,17.5231,85.3879,61.7545,20.9227,11.1732,24.5545
-2554.6875,-23.4223,-87.7681,135.8670,-38.4168,228.4224,-64.2027,165.8529,-266.1158,222.9061,-86.5455,4.8666,-4.1044,42.5265,-25.5848,96.4975,-18.2393,24.6695,-118.9930,-58.2320,-119.7440
-2546.8750,-12.9998,24.3634,104.4097,7.6791,88.1961,16.2809,98.7371,-149.6558,116.5714,-81.8667,-63.3560,38.4547,10.2519,-19.4770,-81.3560,98.3591,-69.2440,70.2845,-220.4747,68.1491
-2539.0625,-103.5333,-34.4207,128.9972,-10.1742,38.9870,-105.1951,-23.3729,-272.1496,103.2687,-21.1135,145.4767,25.1013,144.0245,4.7021,14.8236,50.0210,123.9079,-121.4143,8.3276,-131.0748
-2531.2500,64.2135,-9.9154,232.8708,-86.7786,182.0200,-109.4448,155.7557,-204.4186,243.2200,-100.1106,65.5750,-17.9815,137.0513,-110.8686,-28.7573,44.9408,-93.6987,-125.9037,-137.6460,-132.0672
-2523.4375,26.2794,124.9311,5.0502,-53.0779,65.3222,-76.3986,2.1537,-136.3927,-22.5313,3.2040,-15.0417,85.2804,128.3599,29.8808,-72.0792,112.1843,9.9846,-194.1026,-65.3554,-207.9845
-2515.6250,225.2176,74.6626,183.0885,-133.5312,96.4457,-118.5318,-39.6384,-215.5468,-212.4163,-39.6128,163.2182,42.4206,231.5189,60.4991,67.4340,33.2848,35.5356,-378.5011,-40.2198,-397.5892
-2507.8125,152.2420,68.4988,100.2059,-98.9484,16.6064,-51.6328,-9.3892,-76.6686,-149.2375,-84.3797,7.5362,107.6321,148.7336,126.1675,-15.0246,173.4505,-175.8923,-166.8764,-215.0827,-187.1000
-2500.0000,12.0218,136.1446,-77.9316,-97.6167,-87.5147,-118.0015,-113.4412,-144.0577,-35.3325,-43.3767,49.6093,112.6351,152.7016,242.6098,62.2457,142.3898,35.4394,-303.5317,-1.2137,-333.6076
-2492.1875,138.8416,224.8377,-13.0498,-144.2899,51.3561,-161.3956,99.4789,-115.4830,-81.4269,-88.3802,-32.2998,67.6613,180.6820,161.0614,90.5117,172.3417,-151.2268,-243.2256,-152.3711,-270.9240
-2484.3750,-58.4210,200.4951,-221.2631,-94.0654,-8.8882,-74.8953,-34.7243,6.9835,-180.6269,33.5224,-167.3252,189.6235,117.5531,246.4269,-45.3568,221.2227,-101.0182,-50.0192,-99.6754,-74.0027
-2476.5625,-21.2231,58.6580,-100.0216,-91.4016,40.2946,-170.9666,-59.5205,-91.1239,-22.3705,8.8889,65.1219,92.0638,165.8811,149.2561,2.2062,50.5592,77.6589,-150.4048,45.4702,-169.5777
-2468.7500,93.7666,205.6187,55.9982,-9.9979,49.2273,-161.3026,-13.5754,-8.4978,-15.3531,-92.9927,0.3183,100.2706,25.9586,47.8293,-136.4996,60.6588,-86.9395,37.9394,-187.6713,26.8878
-2460.9375,26.7642,417.6394,-10.9913,30.4052,-125.8738,-226.6485,-225.6729,-110.8753,-120.3503,-11.8518,117.5036,144.5144,32.0296,91.4244,-94.2342,31.7799,128.4685,-59.7387,-41.8257,-83.3697
-2453.1250,193.7407,299.6705,132.9855,-13.2631,-55.0372,-264.0722,-43.8456,-113.3234,60.5945,-14.7553,115.6608,68.7318,28.0585,-57.0178,-24.0258,29.8594,-55.1655,-102.5146,-83.0422,-123.7482
-2445.3125,78.2438,146.2734,-66.5262,-21.4528,-179.7219,-131.0056,-21.5408,55.7303,81.0423,-30.1504,-47.6918,126.4799,-25.4206,75.0514,-76.3523,89.4654,-97.3210,67.2060,-89.8116,50.5010
-2437.5000,104.6121,169.8100,-33.1892,-99.8044,-73.5908,-170.1080,11.5589,-95.3809,-71.6575,-180.6766,132.8140,86.1073,79.9532,70.9887,65.1508,-24.0689,34.3916,-78.2624,79.2621,-93.7476
-2429.6875,159.6296,292.0219,21.7779,-148.5604,-16.8746,-76.6338,141.2381,34.0892,-90.7464,-88.5955,3.9244,68.3561,-13.0695,-20.4758,-63.7662,32.0061,-260.3147,48.8332,-109.1047,37.3186
-2421.8750,26.3160,366.9603,-114.6135,-104.6655,-153.5505,-65.5255,-68.4765,7.2027,-82.1812,105.1588,13.6741,114.2961,-77.4534,63.7274,-92.0646,42.7483,-75.3697,-45.4452,41.1579,-65.2811
-2414.0625,201.7991,363.7210,38.7620,-140.0297,-72.5050,-94.7126,12.5284,-57.9616,34.1524,75.6729,95.1923,49.0097,-34.0806,-38.3153,-49.6185,14.2399,-146.6611,-149.0308,-62.8347,-172.2408
-2406.2500,77.0227,307.2679,-95.1467,-86.6919,-132.7817,65.7802,-84.7829,101.5644,8.1924,160.8917,-149.5954,98.4497,-96.0055,84.3366,-148.4945,138.4450,-233.2796,11.0628,-148.1770,-9.3217
-2398.4375,-12.8808,214.7610,-109.2053,-34.4985,-181.2544,18.0982,-207.2995,15.9188,68.0734,221.9765,57.4802,85.7733,35.9260,108.8520,-52.5385,52.5050,-77.0272,-216.0338,10.3170,-243.1155
-2390.6250,152.9158,166.9920,101.4184,-79.6484,-45.0913,9.0422,-70.1897,42.8950,130.6126,64.6971,48.2205,75.7660,61.5233,26.0122,-135.9492,44.2129,-261.1324,-153.5169,-208.5779,-174.5488
-2382.8125,87.0359,344.6153,31.3442,-72.4936,-186.6534,-58.7222,-212.8186,-62.8333,59.4453,68.7232,51.2408,190.0935,64.4183,140.4828,-171.0951,11.2343,-9.9399,-216.7128,-166.2067,-247.8204
-2375.0000,189.9881,410.1267,185.0814,-75.5405,-33.4274,-197.7091,-133.6888,-239.7877,175.0657,-108.4438,132.0817,87.2457,107.1283,36.7613,17.5449,-53.9454,23.0661,-287.1662,-168.0394,-319.0015
-2367.1875,42.6912,436.4422,100.5321,-10.8975,-43.5070,-97.0051,-105.8788,-103.0427,126.3761,-118.9059,-26.3937,76.1206,-15.4594,-10.2584,-67.1423,83.5911,-87.2709,25.0588,-277.2140,4.1968
-2359.3750,-8.4426,348.0168,53.1132,79.8917,-91.4714,-217.1700,-189.9679,-151.1499,40.8367,-19.1956,110.2740,103.1775,9.1039,16.8832,-79.7006,0.2917,179.5421,-128.6044,-45.2409,-146.1548
-2351.5625,167.7316,345.9225,201.9597,80.9191,-15.2007,-251.1234,-41.8286,-113.0281,78.5833,-91.2320,38.2047,105.4932,-63.0656,-54.7337,-116.0097,3.2367,4.5974,-56.0719,-218.0354,-68.2971
-2343.7500,-19.2583,366.7286,38.6077,105.7528,-177.1589,-155.3026,-240.9210,-91.1102,-12.8550,2.5401,-15.0812,199.6380,-116.4392,76.4497,-205.5527,134.9964,99.4405,5.2422,-122.0669,-12.3790
-2335.9375,108.0881,316.9449,180.5612,57.8923,-181.8573,-233.2231,-208.7605,-169.9268,55.0112,-75.3791,127.9553,122.1084,-86.5044,-1.0585,-65.8056,94.0554,157.6159,-110.2038,-63.8062,-129.6079
-2328.1250,193.2390,365.0438,155.2838,108.7943,-243.8479,-110.4340,-196.8990,-48.0186,65.6416,-64.5459,-81.2572,133.3594,-148.8169,-26.8153,-128.3280,106.8610,-38.4570,81.0533,-221.8343,64.5230
-2320.3125,15.1504,290.9639,-25.2884,72.4028,-314.1831,-105.9880,-267.3891,-82.4415,214.0110,48.9909,32.2442,63.3385,-37.4290,14.1305,-54.1643,37.3569,101.1841,-58.0431,23.8070,-81.3348
-2312.5000,121.9781,254.8552,91.0074,-31.1305,-125.7007,-26.7307,-5.0687,-76.0484,145.2358,-54.6289,37.6033,-3.8036,77.8150,-90.0663,-12.1627,80.7092,-143.3271,-56.3311,-149.7600,-74.5539
-2304.6875,-26.1426,350.8758,-105.6842,32.3475,-210.2554,145.4898,-127.8042,58.3136,-308.5650,79.7470,-121.0275,94.1007,27.0677,118.7540,-99.1897,216.0738,-113.8270,78.3381,-190.3712,62.6557
-2296.8750,16.1989,285.4190,-50.9484,40.2358,-156.4406,54.0647,-110.1850,-33.9597,-181.9798,61.5177,-67.2373,76.4388,80.7255,136.9785,-9.8378,88.8457,34.0798,-88.6443,-76.6167,-104.0819
-2289.0625,-17.2572,285.2301,-13.0469,112.2743,-81.5058,166.7555,1.5395,77.8973,1.7533,-11.5513,-213.2950,151.9566,-29.4610,102.3651,-194.3643,53.7709,-104.8702,55.4830,-284.7491,52.4096
-2281.2500,-176.7729,265.0508,-67.2426,200.2077,-172.7022,113.3141,-199.8821,-13.3669,-200.5856,45.2921,-46.4406,246.3904,63.2613,195.6540,-213.0045,0.5972,158.0783,3.4682,-127.0020,-2.2854
-2273.4375,4.2015,127.4322,166.0138,134.5821,24.5319,53.2979,-40.8921,-74.1945,-115.4384,-89.4062,76.8601,148.2860,147.4467,98.3789,-165.2043,-59.1223,22.4644,-61.1209,-190.8329,-61.7127
-2265.6250,-53.4388,174.2849,63.6242,112.3109,-41.9094,60.6160,-107.5925,43.3160,-72.9337,-8.7446,-26.4990,83.5443,80.9858,143.4489,-268.0727,-14.4942,0.2011,93.6209,-211.3395,92.6238
-2257.8125,74.2688,230.5501,130.5474,64.3416,-49.0623,-128.7872,-151.0311,-73.8906,-43.1385,21.2167,114.4452,3.1164,109.8464,99.8076,-93.6541,-93.5789,164.2397,-164.3621,-48.5665,-174.1873
-2250.0000,139.7725,364.6802,158.2308,60.1220,15.5288,-100.4600,-12.7451,27.6334,-237.5941,-24.0752,-41.8641,179.4527,26.4722,-19.0985,-140.5081,9.0856,-51.9789,-26.6151,-263.0728,-32.3122
-2242.1875,-13.0373,492.5840,-77.4399,119.5459,-219.2502,-41.5166,-284.8442,12.7895,-399.3748,108.2887,-93.5217,349.4578,-26.2349,113.6396,-156.7252,68.3962,148.4570,-37.2667,-97.9350,-54.3883
-2234.3750,179.7078,437.1090,-16.6076,30.4666,-159.5456,-90.1075,-189.4711,-37.5608,-46.6270,95.1691,-32.6898,226.9732,-40.4406,-9.1214,-61.4552,-16.7940,-10.6208,-90.4675,-80.3181,-114.6309
-2226.5625,114.1476,405.4099,-164.1345,-34.9653,-233.2194,19.9240,-152.4762,182.7356,135.7876,205.7112,-216.2190,190.1552,-188.9913,64.7674,-209.5447,20.6672,-217.0581,91.9321,-75.0682,70.5568
-2218.7500,34.2517,254.4307,-168.0584,-114.8062,-273.3287,-19.4794,-157.9012,142.6214,241.8120,275.8533,-73.1392,76.9502,-119.9244,98.2443,-105.0348,-129.2816,-50.8932,-93.1319,232.7690,-112.0749
-2210.9375,71.8621,151.0291,-54.5305,-112.2027,-87.0163,21.5346,66.0994,218.9494,280.3147,131.4443,-143.6128,7.2066,-154.3904,-44.8380,-140.0839,-87.7842,-224.2869,51.2007,96.0248,50.1771
-2203.1250,-159.9794,234.2614,-260.5057,6.9051,-183.2488,108.0142,-68.4412,231.7648,145.3334,108.5478,-276.5835,94.9842,-142.3405,41.5761,-165.6504,-36.7889,0.8279,135.9855,180.7550,139.3673
-2195.3125,-41.3719,246.0146,-165.0673,-15.5776,-14.1089,21.8646,28.3826,70.9651,241.7505,-51.9463,-217.1462,-28.8238,-9.8688,-7.6121,40.1716,-86.4022,13.3453,-26.8727,193.8578,-26.5410
-2187.5000,-20.9163,265.6947,-184.8218,-30.2520,38.8090,75.4908,117.9689,160.9559,146.9759,-72.6405,-309.9144,26.1837,-67.5848,-28.0055,-91.2348,-32.2193,-106.3324,136.0315,38.7353,142.3578
-2179.6875,-39.9026,212.0164,-163.0659,21.5774,-12.7912,24.5768,-7.9861,72.4179,-16.2713,23.1722,-68.1851,11.7018,27.2112,-4.9051,-34.1541,-155.5489,86.5051,11.3790,162.0904,15.0047
-2171.8750,149.5347,258.8340,36.0427,-1.2384,111.9485,2.9684,79.3752,50.2051,-75.1518,-34.6659,-53.1235,-9.4199,4.3658,-63.4611,-20.7358,-140.5299,-112.3095,60.0422,-72.2409,62.9088
-2164.0625,-57.4255,333.3260,-112.2984,38.4986,-36.7740,38.8785,-179.7533,85.5185,-188.4840,37.0419,-91.5168,101.0189,2.0881,82.5270,-134.7781,6.0342,32.4434,99.2189,-32.0350,93.8938
-2156.2500,14.5213,298.7716,45.2270,75.0855,10.3463,-98.3917,-207.0584,-88.3406,-68.9622,-62.4229,102.9477,38.3149,48.6835,56.3522,-51.9754,-92.5678,210.0616,-74.7899,40.0094,-81.5003
-2148.4375,35.3117,285.1287,135.5538,130.4738,26.2606,-43.8877,-154.5931,1.5942,-52.6240,-83.0943,-27.7988,56.4258,-82.9048,36.9724,-184.3843,-38.3822,89.4778,122.9664,-185.1673,125.5076
-2140.6250,55.3943,232.8532,83.1275,150.1165,-136.6009,-59.1635,-353.9189,-87.2352,-106.0158,-24.5042,67.7045,77.7923,-99.2273,58.8403,-91.5433,-52.9601,320.1560,0.9300,45.8954,-2.8945
-2132.8125,277.5757,279.7596,208.7586,19.8172,-48.4306,-44.4151,-156.2285,-110.0174,129.6623,-82.8567,82.2488,-15.7907,-84.4921,-146.2602,-3.6560,-73.4908,48.8741,-58.0919,-84.0206,-67.5061
-2125.0000,74.1909,428.2005,-46.2189,-8.0708,-192.8984,68.7065,-191.1838,2.5971,129.7639,29.2126,-99.8162,23.0331,-157.3499,-70.9691,-40.3803,39.3780,21.0002,20.2431,-40.5509,5.9206
-2117.1875,75.3574,394.2713,-38.6904,-7.4511,-186.9006,-34.7062,-148.6771,-101.2994,247.3962,73.7837,18.6242,-78.6373,-39.6971,-100.1872,149.3954,-62.2661,127.6342,-225.9726,65.3972,-246.2889
-2109.3750,115.3920,328.2697,-39.3506,-4.0139,-114.1388,-34.3440,33.5858,8.5945,319.8344,74.1459,-129.1322,-77.4932,-78.2393,-136.6212,110.9693,11.8854,-114.9288,-116.4331,-141.8922,-133.1521
-2101.5625,-3.6020,314.3021,-164.1037,-52.6662,-201.5164,-122.1262,-129.2944,-5.6325,304.1708,169.4064,-69.9704,-18.4352,-56.8650,-40.1679,167.4458,34.9242,11.4224,-200.0457,55.6922,-227.7696
-2093.7500,162.4616,199.4612,-20.8568,-203.3215,-23.9166,-200.9439,49.8031,-10.8751,372.5417,54.6741,36.1876,-132.3783,48.5312,-154.7265,271.9234,31.9472,-174.2441,-280.7016,81.2560,-307.4583
-2085.9375,2.1591,144.3526,-196.0183,-189.3768,-52.7558,-81.1983,57.4701,181.4735,233.5652,137.5552,-176.0591,-122.7128,56.5404,-72.6947,241.9898,151.5681,-265.3029,-125.8092,25.3947,-146.9684
-2078.1250,-66.9344,181.5291,-262.0156,-188.2709,-45.4721,-184.3511,64.2410,41.9478,277.7527,145.5764,-21.1417,-149.8815,174.7163,-64.5232,396.2029,-23.6716,-89.1896,-300.8185,202.6544,-327.5572
-2070.3125,12.6304,262.4164,-178.3917,-109.5429,74.3914,-100.9380,182.5692,124.0080,286.5337,8.1900,-195.6145,-139.4441,109.5121,-127.7711,256.0085,-13.3272,-256.4691,-46.2506,-70.5151,-60.2179
-2062.5000,-175.2657,249.9060,-302.2699,18.6960,-14.2489,-78.0550,-16.6293,110.5468,124.8321,68.3073,-172.5891,-42.5129,94.8439,-31.5272,130.3111,-26.5110,12.7694,45.7833,57.8006,37.1631
-2054.6875,-58.2062,191.4165,-26.2436,63.8372,115.0253,-169.3036,75.0681,-19.0410,69.0545,-23.6964,30.3293,-95.6897,150.1185,-122.4046,184.5143,-116.8247,22.9028,-49.3215,-3.0030,-51.3210
-2046.8750,-114.2552,311.9058,18.6219,111.8245,11.1583,-125.7328,7.5974,62.2145,3.1364,21.1250,-72.9125,-51.0173,10.2793,-41.4493,6.5693,-35.3029,-34.1179,139.3899,-165.9666,139.1392
-2039.0625,-55.1091,300.6575,11.6316,99.9552,-106.5520,-243.0484,-147.7468,-92.3768,69.3826,14.0959,104.9941,-56.2026,39.6164,62.6360,108.7782,-114.6482,200.0115,-49.7887,33.2221,-63.0166
-2031.2500,227.8276,198.2629,124.3811,30.8408,5.4875,-167.6382,36.6402,-91.2107,106.4013,-131.1759,32.6376,-90.6465,3.7224,-8.5450,71.7305,-75.2612,-11.1120,56.7505,-141.8465,48.4641
-2023.4375,69.3009,145.4738,-48.3722,46.2314,-130.9886,-45.7521,-62.5029,-43.5446,-103.0612,-45.9411,7.7830,-4.6000,15.3431,76.7570,8.1764,-26.3964,110.2800,71.7507,14.5926,66.2190
-2015.6250,92.8756,98.8475,93.9343,-37.3173,-63.4283,-88.8457,40.3842,-122.8343,38.5466,-87.6555,185.9739,-82.4962,119.0229,-38.9221,110.6759,-104.5066,97.7317,-82.2398,37.0619,-89.1675
-2007.8125,31.5928,145.4576,23.3375,-63.7377,-97.8020,61.1410,79.3309,26.9685,114.2694,-85.2754,-31.7490,-42.2840,84.8102,-72.5114,39.2820,9.4674,-139.7078,102.8392,-129.4079,96.2385
-2000.0000,-65.5266,189.3013,-113.1554,-56.0300,-198.1247,-1.8038,-21.6736,0.8561,51.0995,36.2027,52.6295,-66.9682,132.7048,11.9846,121.9991,-89.4712,42.9759,-32.0232,123.2017,-43.8271
-1992.1875,41.4717,157.3023,1.4106,-126.2495,-10.4252,-34.7325,238.3461,40.7763,202.0078,-33.2812,20.0532,-135.6134,135.6584,-131.4908,160.7714,-121.3597,-203.2765,38.1283,-52.1684,31.8248
-1984.3750,-160.1946,97.6949,-214.7209,-83.1524,-7.4479,5.6023,167.6420,117.9804,242.2454,8.5234,-86.2225,-56.9575,65.9302,-89.6751,89.8396,-42.9744,-124.1951,151.5452,-9.2406,148.4281
-1976.5625,17.9261,-5.0554,-23.0929,-82.2926,147.2688,-207.3459,210.6722,-58.0816,139.2544,-57.9334,106.2556,-158.5512,183.9777,-156.1225,206.6656,-107.8770,17.6510,-59.3299,97.4309,-60.2566
-1968.7500,110.0357,52.2521,28.4889,-132.4711,270.9273,-193.3749,297.6318,28.8037,42.2297,-80.4463,-27.3259,-180.1933,160.9990,-215.6431,108.4442,17.1529,-208.5465,64.7056,-93.9624,66.7647
-1960.9375,-37.5652,81.8981,-17.6739,-105.3854,150.8257,-276.1903,102.8232,-18.0731,-40.5309,-52.7097,111.3542,-114.5937,188.2920,-113.9429,171.4818,-27.5906,-5.4672,-49.0535,73.8926,-54.0417
-1953.1250,143.9829,89.7376,138.2760,-101.1823,194.8330,-267.9467,220.1038,-9.8705,3.8217,-80.8861,119.1338,-141.9037,122.7100,-179.1652,178.6282,-92.2547,-142.2836,-45.7425,-63.1730,-47.3671
-1945.3125,50.4196,243.5119,-77.9300,14.8863,-59.3070,-153.8774,39.2174,67.1625,45.0227,70.7712,-97.2367,-26.3694,-56.9924,-64.5515,33.6350,-14.0926,-61.2334,139.3938,-157.3964,130.7695
-1937.5000,129.0449,252.5161,-136.9823,92.1145,-193.2920,-250.6797,-22.5370,-102.6676,205.3856,11.5678,27.5528,-48.7006,-80.5091,-13.8034,156.7972,-72.7987,191.9780,-65.3572,-11.4795,-83.6235
-1929.6875,191.0600,210.9533,-77.6873,152.7010,-206.9241,-155.1519,72.0466,-7.1517,81.1042,-76.2912,-97.3081,48.3075,-205.6577,-27.7235,104.3133,-13.1639,41.5412,99.2139,-162.2269,91.7266
-1921.8750,-43.1343,119.2303,-176.6512,199.0434,-342.8161,-71.9104,-64.6329,40.1047,-165.4160,-27.4007,-48.4178,98.0557,-231.0288,131.0898,77.5969,-37.8062,263.8690,109.4951,130.7782,112.6880
-1914.0625,-23.3387,-36.4550,-37.6693,76.3432,-206.7706,29.2506,108.6307,67.3032,46.0457,-36.5709,-20.5828,-20.2550,-203.4328,11.8342,103.8502,-83.5244,105.1478,90.6992,182.7305,103.6714
-1906.2500,-217.3252,-87.8650,-171.5061,21.8628,-231.5471,262.5906,120.0813,264.7029,95.7368,86.4605,-228.5597,-6.3744,-300.6222,61.7642,-31.6829,-33.0638,15.6362,247.0813,198.8889,270.4189
-1898.4375,-231.7294,-170.6557,-71.8104,-30.0614,-205.7858,250.4576,145.0832,178.6519,11.0047,-34.9549,18.0140,-163.9596,-127.2455,13.2192,139.3535,-117.0733,139.6850,52.9750,392.6125,80.8415
-1890.6250,3.3987,-39.8637,96.3757,-112.4819,-38.5356,271.8025,311.5837,200.1089,-5.1964,-233.8668,-33.9225,-326.0560,-33.3557,-112.8498,48.8995,-95.5944,-154.7764,215.3390,168.8273,247.6120
-1882.8125,16.8092,81.2703,-76.1894,-100.6399,-101.0602,208.3650,100.3117,173.8094,-104.1195,-1.5322,-22.5993,-276.9097,-21.2019,-27.6885,-51.2857,-156.8885,-0.9713,190.9070,251.2878,210.5497
-1875.0000,255.4203,4.6301,-3.5815,-180.6338,80.5421,96.0393,171.1734,24.6359,4.1486,33.9387,85.8887,-277.6234,87.1174,-102.3991,55.7074,-232.0579,-81.0056,74.5846,170.8777,81.3473
-1867.1875,117.0197,9.0096,-121.0162,-179.6593,146.0798,125.6337,199.9622,127.3964,34.3810,63.3535,-67.6694,-172.3937,43.4102,-109.1779,10.6604,-90.2990,-221.0717,215.1914,-40.5986,219.5616
-1859.3750,-62.4998,7.3072,-160.5916,-149.8074,142.4631,-25.9574,84.5850,-23.0147,105.4753,134.6064,76.6353,-174.3234,150.5780,-76.1194,153.4757,-129.7176,-15.2573,-2.3931,94.7716,-8.6554
-1851.5625,114.0646,44.7241,-15.1038,-115.8776,285.9044,-102.5296,228.2541,-63.3932,102.6431,21.8860,0.9883,-176.2164,111.8254,-115.0423,113.3503,-59.1096,-192.3727,65.0434,-152.8293,60.2491
-1843.7500,1.1547,109.7036,-250.1184,-19.4233,159.8462,-82.6332,26.4089,-42.2894,-60.6698,42.6532,-88.1611,-43.6156,96.5980,-20.4856,22.7424,36.9670,9.0430,159.9584,-92.9370,151.5060
-1835.9375,184.7248,119.1837,-52.6754,21.5042,283.2451,-179.3154,3.0177,-249.7508,-9.5189,-127.1394,73.1361,-65.5767,146.8561,-80.5009,72.6084,-96.5433,155.9161,23.3013,-87.5990,15.4611
-1828.1250,175.9547,218.3683,4.4090,82.1011,303.2967,-49.3610,-235.7269,-119.5590,-25.7051,-143.2927,-89.9286,-7.9008,57.7871,-59.8773,-92.8632,-38.4184,40.4426,222.2796,-237.6151,217.2668
-1820.3125,122.0488,130.4528,-50.6704,96.5548,210.2043,4.4256,-623.6250,-138.5184,-81.0258,-88.6157,38.8548,11.6140,38.5934,31.5838,-38.4618,-56.4635,265.8393,95.0817,92.2319,85.3538
-1812.5000,382.7642,112.1705,77.8371,39.6126,300.7115,-15.1920,-386.9137,-84.8702,10.2816,-144.3420,-16.7782,-80.2892,-16.9893,-98.3701,-59.4433,-38.9272,67.8315,70.4738,33.6902,67.5729
-1804.6875,395.0274,302.4608,-98.1191,50.2278,160.7563,102.7398,-379.6539,106.3512,-54.8417,48.4891,-155.8825,-34.6583,-119.0122,-16.7820,-235.8583,43.1433,8.3835,-130.5974,79.7243,-136.2796
-1796.8750,626.7075,395.1837,41.3247,33.2566,151.2073,56.0590,-316.9810,60.9792,9.4561,39.7190,92.3868,-152.6561,-16.6225,-98.8145,-98.8458,-75.4068,132.3437,-817.2862,203.1720,-828.8084
-1789.0625,882.8481,512.3961,156.2163,41.7659,192.1006,96.8251,-239.8578,65.0655,-58.7774,-102.6009,24.0807,-184.2277,-48.7688,-204.4161,-168.3652,-70.5224,34.7603,-740.5292,-0.9440,-748.0119
-1781.2500,1021.9661,583.6053,155.0598,3.2526,79.9336,-15.4804,-427.7984,-120.9047,-170.0376,-103.9812,169.7187,-184.8725,-12.9427,-207.0899,-134.9000,-182.7181,313.1448,-640.8475,100.8915,-658.5530
-1773.4375,1458.7161,705.4607,360.5063,-54.6392,173.3654,-143.2174,-260.1351,-247.2876,-112.6576,-193.7704,190.9523,-272.9399,8.5107,-296.1958,-114.8060,-271.3387,150.1302,-593.5923,-97.6839,-618.8113
-1765.6250,1535.4305,995.2991,213.9001,91.4280,-11.2628,-34.0339,-409.5225,-174.7235,-259.3005,-193.6043,44.1295,-162.0701,-102.0641,-186.3700,-299.7383,-235.0164,154.0725,-381.4150,-305.3104,-412.9826
-1757.8125,1344.0116,876.0148,348.1419,284.3658,-25.0423,-121.0323,-460.0508,-372.3230,-382.0737,-279.5938,252.1509,-63.3661,-3.7590,-162.7193,-202.7917,-357.8578,417.8829,-470.4066,-218.0880,-493.8806
-1750.0000,1343.2560,878.4177,491.0291,352.9868,79.8318,-90.3998,-356.9305,-341.2735,-313.1762,-394.9495,173.8140,-31.0194,-81.7843,-204.4425,-282.1682,-362.0850,205.3518,-263.7543,-467.2295,-278.3365
-1742.1875,1333.4082,905.7537,365.8108,306.5364,-46.3909,-216.8872,-483.9310,-393.3452,-254.3671,-300.4226,232.3792,-8.7774,-96.8796,-109.2791,-298.6150,-340.4450,368.7541,-347.2155,-338.4712,-375.8496
-1734.3750,1223.1649,797.6997,546.2052,265.7176,96.0002,-368.7991,-342.3296,-471.8315,-257.9475,-414.3141,411.5535,-11.9454,9.6536,-187.5336,-156.4363,-271.2350,327.7812,-496.0870,-380.1255,-523.4940
-1726.5625,1358.1182,1004.8605,416.8040,328.1261,-34.4031,-388.5281,-398.5230,-380.1220,-534.3304,-359.0134,208.9283,116.0755,-82.5933,-170.5952,-250.0484,-179.8363,285.0287,-364.7689,-493.5818,-396.9425
-1718.7500,1069.0300,683.9744,336.3571,354.5041,-115.8435,-433.3277,-443.7525,-424.4702,-430.7545,-256.7821,312.2568,73.0276,-51.8672,-104.7217,-37.6854,-223.5065,487.2534,-445.5181,-222.0798,-474.0315
-1710.9375,884.8575,360.0038,433.8138,309.8054,-56.3708,-227.2399,-202.0716,-255.9226,-260.2628,-233.6632,188.4735,-50.1396,-65.2261,-154.9663,-51.4048,-163.3033,160.3945,-247.3729,-302.6833,-256.0948
-1703.1250,336.0382,95.4030,184.6130,181.4838,-231.5496,-36.8175,-268.0443,-64.0361,-215.4047,-4.1978,86.0404,-40.9758,-56.2198,37.1292,-44.7520,-7.7800,172.9167,-164.8891,-9.9312,-169.4073
-1695.3125,62.5404,-245.8832,234.7174,-22.5204,-73.4286,48.8995,-73.7032,-14.8552,55.7783,-28.4541,209.9086,-137.5375,67.1025,12.5051,78.2285,-31.9850,3.7454,-197.1222,136.1249,-193.6684
-1687.5000,-240.2562,-300.4692,128.5144,-46.8043,4.3802,273.3223,3.3443,173.0390,23.6661,-61.0170,-6.5306,-59.4145,72.1322,-20.4316,-29.0752,46.4967,-161.7206,128.3502,5.8891,147.1031
-1679.6875,-395.9536,-348.9735,79.4037,8.0278,64.2810,258.8441,-48.4968,49.0358,-135.3374,-110.4745,128.1342,-71.2107,170.2729,2.7194,67.7491,-76.9424,103.9330,110.9144,164.7757,136.8850
-1671.8750,-379.7612,-470.5993,206.1879,57.7786,301.0849,274.2646,187.5852,64.9501,-229.4176,-242.0272,70.6906,-91.1310,187.3196,-91.2464,83.5005,-97.4952,-21.5166,229.3851,2.5664,274.2727
-1664.0625,-700.6326,-578.2872,9.9104,192.4999,213.8392,333.6279,26.6305,124.8180,-351.5276,-143.6315,-52.8067,6.8793,175.3348,5.7225,70.2306,-0.1063,112.9998,361.7960,101.3123,412.1962
-1656.2500,-589.2955,-781.7775,94.8340,162.4321,297.8144,196.1932,72.9028,61.8949,-304.4167,-170.0516,141.8778,-54.9401,259.5651,15.8697,154.1865,-62.5319,152.7004,187.4144,211.2461,236.5628
-1648.4375,-691.5309,-740.8264,88.1696,92.8393,326.2292,262.2064,137.6249,238.4302,-309.8433,-139.0147,-49.0026,-25.3279,180.2634,82.4607,-0.3782,77.4776,-58.1206,362.4794,35.6547,415.1697
-1640.6250,-863.2701,-629.4045,-56.9952,95.7584,181.1634,189.7089,-8.1149,166.4688,-306.7397,-64.4874,27.6239,51.7529,183.4936,157.5250,74.6008,5.9596,191.5545,223.0250,248.5781,266.2294
-1632.8125,-563.9791,-573.9489,-0.1235,112.7428,237.1576,98.2615,120.2168,111.5787,-140.5770,-118.9054,-26.7211,71.8664,129.7885,66.6276,56.6492,-48.5173,102.2684,201.6353,87.5479,239.8422
-1625.0000,-594.3479,-497.1630,-185.9111,257.0957,12.5010,167.1455,-31.0942,182.0294,-179.0551,-10.9607,-139.7026,252.3091,-20.5444,136.0687,-93.9211,23.3280,175.3683,272.5770,54.8967,305.9110
-1617.1875,-594.7492,-529.4425,0.2685,255.4164,14.8197,58.9647,-29.4250,37.4320,-248.5670,-8.0809,84.2517,219.6803,57.0899,138.4328,-17.5182,-11.9007,244.4166,23.4766,194.1795,54.8543
-1609.3750,-719.4747,-477.0507,9.1299,164.4661,58.8402,175.4772,123.9477,191.5325,-240.3711,72.5032,-92.1087,264.7452,28.4332,108.4932,-120.3960,142.5545,-57.8032,70.0888,32.1729,103.8078
-1601.5625,-884.8613,-463.3480,-240.6535,34.8897,-116.7718,219.3257,-15.3019,198.9738,-47.7944,265.4343,-83.1066,273.1384,38.1468,189.8850,-38.8849,151.3286,57.3422,-132.9628,286.5257,-116.2915
-1593.7500,-626.1623,-554.5671,-77.3474,-130.5651,-65.2858,160.2801,145.5725,177.5329,187.8973,243.4626,4.9729,141.6174,53.9609,94.3701,48.7380,129.1991,-107.4214,-229.8924,190.9709,-220.5537
-1585.9375,-486.5282,-588.8638,-233.1006,-97.0520,-185.8697,223.1686,62.3959,241.0378,179.5508,381.4430,-113.9881,134.0295,-27.2582,85.7999,-33.6488,230.0019,-180.1998,-22.8858,82.3960,-20.8564
-1578.1250,-444.7811,-616.0903,-220.7365,-128.4250,-100.3465,198.1456,-1.6466,142.6424,229.3232,320.5067,44.1522,34.5131,58.6311,22.3014,87.1002,168.8872,-70.8839,-161.7665,261.9136,-161.3867
-1570.3125,-548.6101,-576.9000,-74.9419,-197.3205,80.6090,268.5788,179.7666,213.7104,228.5510,208.0288,-66.2737,-38.5683,20.9729,-14.7534,49.3255,241.2189,-351.1028,81.8224,84.8875,94.6322
-1562.5000,-748.4056,-598.7068,-176.0970,-222.1508,16.6132,240.0497,77.2521,222.8232,53.8537,290.6023,-57.6382,7.3783,67.3864,102.2247,57.6507,249.5823,-164.2538,90.4441,235.9317,103.5181
-1554.6875,-473.3217,-603.6474,-30.3598,-265.0692,198.5230,127.4199,259.6792,73.8535,201.0763,106.0808,-22.1229,-30.7901,141.7093,-118.9106,130.8981,101.8388,-173.5273,44.9870,261.8634,62.7372
-1546.8750,-619.7200,-466.0739,-152.0876,-166.4221,184.9816,224.3289,283.6640,208.4328,226.8502,131.1267,-217.0540,30.5736,19.5993,-131.4964,-29.2778,125.6280,-215.2213,247.0762,148.3735,274.2933
-1539.0625,-731.9196,-471.3613,-119.6002,-104.5644,144.6651,146.4343,168.8795,94.2183,260.8435,164.3585,-37.7823,-45.8929,16.7012,-99.8949,114.7800,85.6111,-12.7243,95.3688,280.0847,119.2487
-1531.2500,-557.5082,-576.0578,22.5162,-106.0394,285.9988,140.1965,345.7596,88.6702,219.5122,85.2522,-79.8825,-86.7251,12.4555,-141.6454,108.5045,153.2523,-225.5718,161.3374,31.4505,189.4058
-1523.4375,-663.7171,-575.4067,-168.9702,-107.0962,55.7469,93.3569,152.0609,78.5142,137.6085,296.5490,-124.5748,51.8178,-31.3700,-4.0104,99.6677,180.2543,-51.9872,192.6933,133.2366,207.2500
-1515.6250,-522.5852,-643.4438,-16.1063,-108.7809,97.8661,-12.1271,230.7528,-25.2767,292.0581,230.1871,-8.9369,-53.3066,48.1619,-73.0398,143.2036,76.5716,16.9428,83.4287,167.3530,99.3956
-1507.8125,-507.6362,-520.6722,-42.4044,-57.5873,106.8287,143.2290,202.3002,93.7776,191.3488,128.6855,-182.4462,30.4050,-51.4461,9.7815,-32.3812,195.7270,-109.2420,236.0177,-29.6638,256.4782
-1500.0000,-553.9387,-459.2017,-161.9297,-35.6353,23.5539,96.3101,81.6382,10.5735,146.4114,192.9328,-46.1951,94.8334,-23.2907,73.3346,31.8288,149.6325,89.3198,11.3454,167.0664,21.9539
-1492.1875,-465.1207,-509.6205,-32.3203,-123.5081,79.4234,114.5410,285.1526,66.5319,351.6309,176.3380,-62.8176,41.4106,-38.9907,-17.9636,89.2033,95.6856,-174.9657,60.8486,7.9352,72.1085
-1484.3750,-596.8752,-533.6483,-213.2665,-78.9132,-102.2612,189.2084,175.1337,178.9273,353.3204,288.1914,-169.9773,79.4265,-109.2216,56.1812,54.0670,133.1651,-130.7690,137.7948,85.2799,148.3301
-1476.5625,-386.5851,-497.6801,-63.1583,-151.2558,-99.8819,44.9268,142.2077,35.3741,395.0782,182.0957,53.8975,10.4685,41.6067,23.3605,205.0067,26.6971,-62.5396,-113.1863,153.6549,-115.0233
-1468.7500,-346.4878,-350.9164,-63.2226,-111.7283,-27.6697,78.5007,250.1364,69.6806,247.6769,106.8632,-57.3852,9.3446,41.2940,-15.5944,92.8300,98.0818,-234.4436,99.7027,-54.1058,102.4150
-1460.9375,-499.0054,-395.8250,-184.8709,17.2063,-40.0476,-7.5240,90.5006,-15.6151,126.6855,169.0205,3.7435,71.5970,141.4008,8.8472,119.0939,49.8425,34.0562,49.9964,142.5426,53.6119
-1453.1250,-348.6103,-455.8559,-60.5813,25.1018,194.5296,6.4215,324.8382,-37.9364,252.6492,-0.8711,17.8057,-24.2056,156.4564,-124.7613,133.3204,-9.4442,-133.5010,91.2793,9.1356,106.0152
-1445.3125,-480.8557,-445.5597,-204.9020,-1.5917,159.5056,117.7696,289.5936,74.1371,182.0271,75.6441,-199.7237,-22.6270,122.9237,-49.9680,24.9764,65.6582,-160.6242,271.9654,86.1606,292.9747
-1437.5000,-403.9604,-437.1739,-155.0651,-101.1259,246.6599,-17.7270,339.5500,-60.6301,233.5711,89.2995,-40.1192,-155.9261,211.5467,-73.0393,186.8024,-68.0973,-50.6098,29.8263,302.3253,46.5846
-1429.6875,-304.4134,-336.1398,-128.5503,-106.9382,309.5160,8.4833,512.2245,39.3135,223.8014,115.6625,-160.8255,-201.5319,128.8763,-158.4041,102.3496,-42.1631,-232.8722,161.4111,84.1929,183.7483
-1421.8750,-348.9767,-344.2685,-250.1203,-46.8319,149.2919,-79.4240,315.8269,26.1394,211.9359,249.9163,-99.6131,-177.2575,80.1219,-60.8752,126.8394,-55.3478,2.7813,42.8919,247.9644,57.1689
-1414.0625,-127.4641,-402.3591,-50.5902,-35.6131,165.1763,-211.2243,441.5582,-30.9242,413.1789,119.2736,-9.3198,-198.8940,24.4604,-155.2436,180.4373,-112.4270,-21.4769,-53.4879,187.8231,-38.4321
-1406.2500,-147.7940,-280.3229,-152.8741,48.8140,-48.7376,-130.8279,301.5085,86.2163,348.6351,200.8474,-184.8291,-44.3480,-115.0034,-38.4041,41.2674,4.6813,-42.5063,63.3428,59.9136,72.2119
-1398.4375,-99.5900,-161.8098,-136.6055,61.8037,-180.0835,-225.8756,170.0595,-45.0840,328.6511,253.9620,-22.7973,-27.2758,-60.9113,13.9754,168.6802,-15.6712,75.0066,-208.2533,176.5495,-216.5151
-1390.6250,2.0676,-128.8487,-109.8593,-83.6842,-225.9441,-126.4152,307.1284,55.1308,467.1597,170.5812,-142.2835,-74.7057,-32.3155,-33.1408,195.6122,84.4756,-245.9666,-109.3188,-4.3090,-124.5206
-1382.8125,-214.9921,-133.6552,-341.8031,-159.8583,-386.5102,-65.6720,220.5248,152.6351,307.9926,305.5069,-154.4517,-12.8558,-44.4116,101.0333,183.8834,107.9041,-111.6195,-83.0867,198.1489,-100.2962
-1375.0000,-94.3711,-187.8314,-209.0362,-180.3207,-290.3734,-119.2254,352.6533,64.8534,331.5350,291.1245,-58.9278,-101.3092,16.1894,-24.0967,279.8712,56.0312,-132.5870,-140.1207,177.2882,-154.7253
-1367.1875,-75.3874,-167.6733,-233.8811,-56.3678,-316.8442,0.6220,216.1879,148.4673,306.4683,265.1394,-194.9916,-89.3689,-81.8044,22.1858,70.2837,177.5503,-150.1209,86.2653,-52.1573,75.8826
-1359.3750,-83.6621,-172.8354,-127.9600,7.3420,-320.5413,-76.7829,-8.4858,-38.1723,268.1541,151.8909,22.6998,-129.7035,-10.0354,55.2084,141.4749,63.8046,159.0912,-28.5673,116.1363,-39.7724
-1351.5625,38.0648,-157.0094,35.9954,-11.8838,-121.1887,-61.1172,191.9124,-58.7425,248.8806,-15.2940,-71.5847,-113.9898,6.7762,-38.7055,121.7248,43.1136,-106.6574,125.7012,-45.5267,123.6034
-1343.7500,-160.2466,-143.2542,-212.0565,0.8920,-112.8323,-17.4498,89.3365,22.6876,37.6246,-7.4689,-135.8559,41.7069,16.5916,115.3788,20.0179,87.4121,10.6078,205.9719,70.8284,205.9269
-1335.9375,-100.3252,-223.3211,-104.8564,-45.0898,67.7833,-131.5211,197.0539,-91.6108,35.6375,-84.3897,7.1073,-35.3610,161.6507,75.7061,165.5820,-63.0360,70.0950,87.5240,129.4245,90.2112
-1328.1250,-176.1049,-262.1178,-79.3315,20.2735,129.7420,-70.2393,296.1367,44.4540,-11.9972,-131.9375,-151.5797,27.9100,115.0602,63.3993,44.5165,-1.1273,-76.0484,291.4425,-52.5985,306.9018
-1320.3125,-195.9028,-210.9983,-97.7965,36.6273,73.7211,-163.9574,92.2702,-48.4752,-102.6062,-113.4888,13.7415,45.1512,170.4739,81.0859,99.4826,15.7734,185.8007,58.3739,137.3860,65.7208
-1312.5000,142.5595,-152.6505,110.0285,-11.7137,208.0006,-251.3489,190.7342,-61.0836,-3.9178,-199.7363,38.3437,-41.3140,159.1753,-5.9186,87.7563,2.9815,-39.0568,7.6564,-53.3432,10.4818
-1304.6875,88.6358,-65.7282,46.5023,39.6034,32.9351,-242.0824,14.8641,-15.0473,-104.5889,-43.3327,-26.3912,4.8614,22.5227,149.7366,23.7072,85.8322,11.7653,21.6066,-73.4035,16.8835
-1296.8750,184.2898,-74.2785,187.5851,30.5266,-10.5118,-359.2055,-27.3610,-168.3946,-35.6558,-49.3295,151.4662,-1.3779,17.4601,142.9811,166.2756,42.2783,107.1709,-165.8004,-48.8793,-180.6303
-1289.0625,180.6984,-43.0910,139.4476,96.2614,-96.1766,-187.5275,34.2300,-32.9273,28.0718,-60.5127,-6.8851,98.1861,-103.8141,131.0408,44.6555,67.5264,-73.6039,3.6235,-264.5421,-6.9150
-1281.2500,26.4427,-20.6289,15.6661,154.3434,-256.4914,-129.5033,-126.7873,-84.1122,-21.8384,-37.3492,89.1270,157.0827,-79.7330,190.4490,105.4219,-20.8828,194.9732,-117.5921,-68.8484,-130.0820
-1273.4375,181.6973,30.3124,218.4277,98.9724,-91.2610,-111.9145,76.7857,-175.7305,-2.1918,-165.6358,145.6670,28.5192,13.8946,61.4165,198.7538,-38.7230,-1.9199,-174.2130,-230.6198,-185.0213
-1265.6250,103.1586,93.4331,91.4219,55.8437,-218.7884,-20.0760,-14.3660,-46.0974,-55.2920,-71.6681,-55.5253,48.1925,-2.2236,153.6481,108.3706,90.6797,-80.5465,-44.5761,-239.1090,-59.5591
-1257.8125,189.6534,4.5419,113.4723,36.7499,-233.2539,-146.1790,-65.4190,-134.4006,4.6689,-123.6567,113.3280,-3.1003,57.7049,175.9292,279.0570,2.1336,40.8495,-240.8620,-48.5525,-262.0230
-1250.0000,260.8982,5.3921,147.2970,73.4546,-126.9320,-112.4555,78.3406,-26.8759,3.4239,-235.8296,36.9684,30.4054,-17.5793,62.0243,166.5494,-38.6121,-133.9529,39.6939,-259.1826,31.0118
-1242.1875,67.5635,59.6180,17.5731,161.6052,-146.1458,-96.2795,-88.4148,-83.9047,-125.3621,-181.5489,54.0770,121.3440,-36.4076,78.5678,110.5165,-93.9192,94.7015,90.7177,-67.3515,86.8798
-1234.3750,141.0004,62.5816,210.6451,130.5546,119.4569,-162.2864,104.6635,-185.1151,-115.3563,-282.4620,172.9759,19.0838,10.5527,-60.0910,120.2871,-196.4232,63.1333,22.5969,-99.7458,30.2034
-1226.5625,-1.4985,97.5871,53.8102,164.6023,145.1574,-62.1949,58.8488,-11.2295,-234.2621,-182.2643,-57.0067,45.9142,-107.3864,39.3603,-72.8268,-22.8309,-44.3061,230.5947,-137.0214,245.2130
-1218.7500,-5.2544,-46.7232,-17.2516,91.3888,147.6316,-98.3516,60.8290,-45.5908,-158.4071,-144.3220,17.7712,-25.5307,-68.5836,114.5519,40.8235,-95.4931,127.9912,49.3711,104.4448,63.2729
-1210.9375,139.0995,-78.9525,21.8270,-10.6870,186.2585,-22.3389,284.9751,30.2149,-43.3974,-214.2174,-89.3071,14.1636,-64.6487,5.9138,7.6244,-55.9954,-150.5605,156.3408,-68.9441,170.7476
-1203.1250,-65.5717,69.7429,-121.0871,102.2206,-68.1027,-57.3170,104.1420,-2.9881,-149.3819,-101.1107,-49.3547,126.8447,-23.7149,82.2893,-24.5540,-53.5060,67.8995,162.3244,-27.3268,167.1302
-1195.3125,97.9956,127.6311,93.2572,196.3776,-38.2053,-212.0350,97.5885,-193.9331,-118.1294,-217.7626,164.8486,9.7756,44.4490,1.9221,79.5198,-170.7580,161.5936,113.6112,-111.4920,115.5577
-1187.5000,92.1373,157.0741,117.1982,332.1446,-87.7257,-78.1655,48.6336,-96.2891,-276.3049,-265.8187,5.6693,71.3146,-114.7990,26.1703,-115.7892,-73.4050,155.9235,352.5255,-258.0521,368.6180
-1179.6875,84.8865,150.0649,150.7598,395.5053,-164.6442,-81.7119,-101.6875,-173.0557,-351.8773,-269.2784,113.0964,67.4427,-79.4511,59.0112,-81.4735,-187.4582,429.8511,203.0669,-56.0225,222.3652
-1171.8750,251.9026,141.3045,254.5978,316.1587,-62.2773,57.0559,75.3158,-70.5028,-249.1482,-313.4162,31.7951,-14.1332,-86.8203,14.1634,-87.8464,-232.2032,104.0692,227.9578,-205.6957,251.3836
-1164.0625,-38.1634,97.4294,-18.6318,308.7469,-187.9653,223.7740,-49.7014,24.0053,-225.4741,-145.5924,-57.5397,80.2233,-64.2361,182.2709,-139.2341,-137.0078,60.2496,253.8112,-145.3847,268.5366
-1156.2500,-23.7995,-63.0588,112.5864,147.7658,-94.1894,133.9609,81.7792,-102.0087,-94.3558,-197.3153,110.5691,-8.9838,104.7931,91.8257,66.8316,-190.3567,75.8411,21.1574,-24.6267,32.2833
-1148.4375,21.5641,-18.5601,115.8243,52.8171,19.6183,173.2117,195.3211,-61.9465,-90.1833,-303.9554,-33.2673,-43.1517,108.8657,-15.5499,33.9528,-113.6511,-90.5168,205.5802,-156.7864,220.7254
-1140.6250,78.5094,4.4634,67.6655,5.4332,44.0414,124.0707,0.5073,-184.2677,-137.3814,-351.9840,65.5158,-54.7466,135.5378,45.6733,60.6969,-126.3538,108.7048,121.6163,40.6652,129.5043
-1132.8125,237.4141,-13.5613,198.4889,-46.9686,211.4662,106.9516,94.7199,-200.5589,-115.5916,-440.9917,49.2903,-108.3429,120.1917,-8.0908,81.4382,-69.0437,-50.0942,173.7059,-117.8985,182.3602
-1125.0000,52.2884,12.3650,-2.6985,14.6127,119.8956,88.8371,4.9418,-106.8490,-204.8189,-273.9881,-77.9059,58.0583,-7.1544,85.1564,29.1945,60.2587,12.1210,198.8100,-126.4461,203.3126
-1117.1875,151.2575,-28.6577,69.2209,9.2715,155.4472,-98.1703,-33.7056,-219.0317,-132.9419,-238.8863,141.0072,-17.4481,28.5936,45.5061,138.0520,-52.3403,146.4083,-19.9396,6.0804,-21.5190
-1109.3750,212.6387,67.7219,54.5735,36.3717,176.4432,-40.7096,-10.9002,-122.7538,-219.6309,-253.3137,15.3760,-32.5007,-58.2226,67.3270,14.3521,79.5166,-37.8489,147.7997,-177.9429,147.5423
-1101.5625,82.3628,148.3907,-45.7003,82.8019,-35.1912,-67.9026,-257.7213,-187.1332,-171.9767,-170.3885,62.1260,12.7830,-47.6938,186.5016,-11.9843,88.7154,219.2459,50.9059,-28.6154,39.3004
-1093.7500,265.3638,120.3134,187.3227,125.5131,87.4824,-130.7798,-172.2229,-248.1886,-123.0293,-341.1568,148.1696,25.3652,-71.8890,14.9840,37.9767,64.2335,156.6182,58.3601,-196.0078,52.0411
-1085.9375,173.6277,275.4839,191.6279,246.5048,-17.5503,-15.3596,-349.4119,-132.9426,-520.7804,-299.6139,43.5321,139.2433,-175.7956,19.7832,-102.7446,178.0524,171.3127,212.1254,-253.0716,214.7440
-1078.1250,259.4865,326.2015,211.5443,227.0738,-107.9720,-106.3406,-438.9565,-260.0940,-499.9173,-205.4818,246.5078,122.7114,-118.1124,1.1812,-8.8515,14.4735,292.5934,16.5181,-97.5574,7.6363
-1070.3125,378.2722,267.8398,259.3972,170.5842,-60.4650,-59.3700,-280.5474,-175.2979,-230.1267,-157.3961,73.4426,96.1456,-179.5019,-23.4536,-106.0113,61.8495,-10.1566,133.9028,-331.1002,122.8259
-1062.5000,201.8620,232.2473,38.0703,205.8820,-284.1645,11.3851,-429.3282,-177.7212,-231.5484,-12.5202,108.2205,130.3828,-144.1002,156.7196,-107.3601,96.0095,164.9131,62.0965,-226.8381,40.1345
-1054.6875,322.7025,176.8821,208.0000,151.4126,-186.6220,-40.5999,-257.8394,-264.8807,-169.7268,-26.3944,206.2520,43.8715,-47.4780,70.1529,27.5344,45.4289,40.2073,-62.4179,-281.3511,-86.2461
-1046.8750,91.4672,262.4295,34.8663,131.8737,-213.1453,79.3628,-209.4014,-70.0929,-47.9665,131.6999,-39.7355,54.3076,-71.9204,42.5574,-34.6134,91.8071,-154.5307,93.0287,-336.8956,71.2947
-1039.0625,-18.6135,223.0802,-37.1030,23.4576,-211.5105,7.4775,-170.7791,-106.1572,137.9442,207.9433,35.4476,-18.1159,3.7810,45.1143,78.3967,-16.6634,-18.1378,-123.3489,-61.3050,-147.8611
-1031.2500,29.2759,128.7020,11.9038,-34.9775,-16.8826,55.6056,25.8540,16.7915,-33.1641,146.1935,-63.3668,-6.5292,-20.5314,19.6892,18.4028,68.8752,-251.7514,29.3117,-153.7166,18.2811
-1023.4375,-96.0912,108.0396,-159.3375,16.3037,-77.4898,103.4759,-181.7468,175.4743,-350.5279,269.1870,-123.3869,78.8009,-43.0939,142.0188,-114.8203,117.1556,-59.6098,79.7272,0.6352,75.8173
-1015.6250,73.7855,-2.4098,-46.3209,-23.1965,-2.8299,-5.3899,-68.0677,178.4167,-126.6492,235.4220,-47.1483,-65.6192,-40.4196,-3.3945,-74.8015,45.6917,-30.2470,-66.5586,136.2126,-63.8803
-1007.8125,24.0804,88.5586,-66.8696,-37.2642,-23.7184,10.2037,-14.9484,341.8104,37.6639,289.1098,-250.4347,-49.5855,-170.3049,-61.3393,-204.3413,171.6754,-219.4117,59.6382,16.2560,64.1955
-1000.0000,-54.1725,114.9425,-182.9444,-44.9044,-140.1316,-107.7508,-131.3497,261.6515,105.4193,430.2310,-146.2369,-20.1127,-102.7451,-30.8344,-100.4280,92.0919,-52.1339,-159.6904,253.7392,-168.1082
-992.1875,130.0027,52.7516,-137.5766,-105.1128,-22.0853,-63.2349,-11.2921,343.9588,151.5891,364.8047,-174.5779,-49.1816,-129.7562,-96.8611,-128.0814,99.9599,-288.4202,-80.5181,120.6596,-86.5487
-984.3750,-79.4778,122.8845,-326.8531,-69.0005,-173.6854,40.6255,-162.8782,448.6062,1.0831,469.7279,-253.5238,92.0941,-208.4208,44.4707,-278.3734,204.1695,-217.3440,25.0145,156.9476,17.3514
-976.5625,-53.3511,149.5974,-218.5231,-77.3246,-175.6696,-34.9073,-163.8346,336.8600,36.1785,432.2476,-71.8542,53.9657,-172.5037,79.4041,-169.0689,127.9751,-153.7022,-158.8123,218.8172,-171.9599
-968.7500,-52.4462,114.0804,-224.4179,-40.8782,-255.8652,31.3618,-94.9857,403.9185,31.0703,425.5853,-186.3648,83.6441,-251.8050,110.1537,-246.9690,268.5836,-294.2505,17.1858,7.5015,4.6307
-960.9375,-156.9858,10.0749,-332.7510,-3.9148,-364.5049,-75.8311,-202.5612,259.5176,107.5172,465.4728,-73.2799,85.8620,-138.5655,185.4479,-133.3110,197.7427,-12.2532,-121.2557,183.7401,-142.5429
-953.1250,92.6607,48.2565,-102.8912,-35.7830,-170.9570,-105.8129,-8.9227,84.3345,191.1500,217.5640,-64.9829,58.2819,-56.1536,47.9489,-87.4679,59.1178,-78.0731,-118.4521,12.1700,-135.0270
-945.3125,26.1484,226.2735,-179.1866,39.1636,-211.5732,37.0487,-121.4346,80.9971,-178.3800,103.5139,-176.7862,201.5479,-57.9017,154.3083,-198.7688,91.3333,-3.0300,61.2059,-55.5212,49.6785
-937.5000,37.9002,97.5270,-49.2181,16.3209,-118.9263,57.1649,-137.6703,-45.0834,-156.6579,51.7066,27.6874,111.0602,36.5902,137.9144,-67.8220,-35.2110,79.2280,-101.8635,62.0221,-110.6282
-929.6875,-12.5685,-23.4332,45.5231,-33.7487,12.5081,188.0902,31.8897,49.6430,47.8397,72.7039,-134.0139,21.3856,-16.1228,11.3374,-156.0807,22.0473,-180.7138,129.8945,-93.6261,134.1608
-921.8750,-136.4319,-43.8253,-121.1315,-88.2503,29.5540,240.6089,-60.9391,65.9610,28.9248,200.2903,-117.0656,1.3051,1.7712,28.3659,-138.7258,-35.0994,-60.0527,110.2525,97.3330,114.3417
-914.0625,15.9023,-66.0264,8.4121,-180.5818,195.8053,296.3377,106.4404,49.4984,12.1868,110.0747,-59.9001,-89.5717,58.8468,-99.3909,-44.1945,-89.0382,-222.2158,52.8497,75.4765,62.4611
-906.2500,-141.1206,-48.5760,-162.4010,-196.2953,133.7037,418.7139,46.4614,245.6766,-11.9292,195.5095,-194.0325,-41.7993,-39.4349,-14.4881,-141.0146,-4.3360,-307.7064,212.1041,23.2898,223.0342
-898.4375,-170.4768,-113.4869,-150.5427,-260.3979,73.2773,319.7379,-13.8447,184.4999,112.5929,245.5719,2.5270,-102.3883,-25.0728,-1.9366,-17.1818,-27.9919,-161.5686,8.0343,205.7365,10.8703
-890.6250,-58.5548,-177.1135,-72.4088,-289.2307,151.1539,360.0676,139.1528,299.6300,80.3880,212.9354,-102.5967,-135.6644,-57.4200,-71.0664,-85.0613,48.6600,-365.1319,154.2986,34.4907,165.4796
-882.8125,-233.0327,-141.1593,-218.6719,-217.5031,3.6529,359.9872,-44.2348,373.3431,-66.2208,323.8918,-102.0757,-62.3430,-57.1721,2.4107,-47.3262,11.8962,-153.0902,121.1617,176.8620,131.8653
-875.0000,-76.6493,-91.3550,25.9122,-165.9583,101.0147,235.7679,91.2475,249.9141,-3.9940,201.6849,-2.6881,-148.1680,4.9037,-121.2575,51.2442,-75.0162,-171.2239,-38.0869,123.0595,-23.9136
-867.1875,-39.7810,-55.0580,-17.0147,-58.9406,-15.1304,303.0467,49.2175,317.9721,-9.2977,195.9787,-190.7524,-7.4860,-146.5273,-53.4064,-137.6854,-7.4319,-203.8395,105.1822,-16.2272,121.8772
-859.3750,12.5446,-109.3286,-31.4677,-41.5119,-103.8047,139.7690,-74.3400,155.4667,160.8602,254.7036,14.6822,-22.3622,-125.5146,4.8868,-77.1655,-96.4089,23.9790,-124.0750,140.9289,-121.0363
-851.5625,183.4535,-8.9959,145.6605,-117.5105,-36.8737,96.0928,103.7124,112.5629,301.6213,138.0246,45.7393,-103.6310,-57.9196,-112.2164,-83.0654,-103.7820,-191.6098,-128.6973,-110.3168,-130.8164
-843.7500,50.3751,104.3365,-0.2024,-73.5487,-144.9253,60.4062,-113.2333,77.6372,83.3581,213.3412,48.8551,8.0965,-18.3222,-0.3196,-79.9618,-28.1744,-42.1811,-154.3269,-67.5435,-167.7767
-835.9375,231.4670,72.8122,85.1034,-69.4733,-23.8068,-39.1274,-102.0135,-132.1392,95.2153,40.7939,172.1593,-54.0231,103.4187,-25.2783,79.2783,-54.4183,33.3705,-255.7780,-97.6418,-276.3224
-828.1250,187.6015,169.3301,33.4523,-41.3793,34.3566,55.3893,-42.7618,-72.8770,44.1097,-10.7088,-25.4340,3.9157,15.2011,-4.1717,-45.4400,77.3797,-150.0128,17.8281,-317.6731,0.6442
-820.3125,65.5636,151.6535,-16.3769,-94.5272,21.3361,4.6921,-164.6922,-159.8367,104.7962,13.5650,145.8313,-9.3546,76.7848,19.7324,-20.3497,-10.0328,79.3940,-103.7732,-88.9088,-124.5308
-812.5000,227.0788,31.5457,155.3310,-144.1619,228.8707,27.5501,43.9333,-173.2455,203.9976,-72.6195,97.6674,-133.0605,63.9086,-140.7970,4.2797,-22.8828,-110.6724,-12.8016,-208.6084,-21.8839
-804.6875,56.8398,1.6773,-28.7272,-102.5919,118.6648,100.6515,-65.1931,-62.4230,56.4298,37.4450,-47.1933,-58.5130,-8.7073,-31.0598,-67.8323,49.5101,1.5244,64.4117,-96.0320,60.2511
-796.8750,74.2164,-52.6073,31.8221,-261.4627,215.0883,12.3539,-3.6948,-113.0006,-29.5460,-11.9113,123.5806,-110.3658,52.2720,-6.7216,66.6450,-0.5002,125.2943,-93.7538,25.1307,-98.5221
-789.0625,59.1346,-31.3220,46.9068,-417.8156,231.0653,101.6037,86.3363,49.9607,-13.0099,-32.7299,-6.0472,-93.6559,-41.2019,8.1877,-63.3414,125.0333,-30.3703,173.6453,-235.1505,170.6867
-781.2500,-75.1753,77.7375,-56.2367,-483.4545,126.8166,106.5828,-125.8833,56.6422,-6.7451,47.1899,38.1408,-87.1974,-34.9235,88.8382,-56.5785,94.3036,185.7155,107.7858,-55.6790,97.4272
-773.4375,102.8723,80.1535,135.9668,-479.7719,208.9186,77.9090,-6.7551,27.6771,75.8661,19.4616,48.7091,-153.3796,-26.3088,-13.1557,-46.4867,64.9290,49.1335,77.3002,-192.8732,68.9369
-765.6250,-17.6751,62.9666,-34.4347,-426.7211,37.4266,126.6179,-103.2394,114.0851,88.8595,142.1092,-84.2589,-30.1548,-159.2865,72.2649,-142.9876,113.9412,103.9788,166.2091,-138.6452,156.9425
-757.8125,112.2029,-16.8171,35.5789,-471.3120,-1.6384,-98.2820,-69.3009,0.8822,234.2317,139.1217,61.2228,-71.5295,-125.8592,32.0813,1.9080,0.3448,270.2007,-53.4652,61.9694,-68.3989
-750.0000,173.4241,7.7614,96.9273,-410.5859,22.6507,-74.8370,102.9793,62.0218,258.9214,90.4721,-23.9027,-83.5418,-137.0878,-90.7371,-9.8573,24.0937,50.7766,78.2275,-157.0524,68.7031
-742.1875,56.0209,100.7087,8.6408,-318.5522,-174.6908,-90.0673,-93.3805,10.4795,134.9433,149.1480,74.3996,-25.2035,-113.9606,-31.2141,13.7314,-27.8283,284.7079,31.2587,-30.7126,16.1605
-734.3750,188.0896,92.1292,227.8067,-221.1106,-66.5638,-91.8512,15.7220,-101.6194,170.3883,-72.7484,185.1826,-100.4080,-5.3974,-143.2394,49.7535,-140.2992,242.0694,23.7682,-143.9368,17.3805
-726.5625,56.8539,100.2688,158.6516,-143.0007,-62.7374,58.0566,-15.4911,12.9626,64.5059,-104.9449,-30.2800,-22.9054,-74.1365,-102.5519,-92.5221,-99.0776,251.1470,243.9745,-205.4349,251.7855
-718.7500,-1.3612,42.4045,179.5054,-130.9276,69.1181,77.9621,-67.6905,-77.4612,-98.3899,-121.1590,140.3111,-39.4084,20.1253,-81.8727,-33.8005,-189.8610,405.1949,46.1902,18.0654,60.3602
-710.9375,109.2268,116.3492,221.1445,-198.0904,257.7718,229.6719,85.9000,74.9157,-240.5190,-153.5723,-37.2518,-71.0940,-11.8158,-113.3788,-101.3051,-111.8465,23.0367,192.2151,-118.6310,214.8359
-703.1250,-145.8553,212.6078,-47.9058,-205.9959,171.7415,290.6605,-35.2143,209.5597,-288.3641,-17.7030,-121.4429,-9.4717,-59.4417,-51.5765,-112.5068,-50.5553,49.1875,184.5082,118.9872,205.2330
-695.3125,16.4325,22.2428,18.4007,-292.5963,275.0814,171.0008,105.0278,165.5396,-1.8719,-62.5132,-16.2428,-164.4954,44.2824,-170.4238,64.6365,-168.9145,0.6578,30.1680,209.9344,48.9952
-687.5000,-40.3834,-0.2042,-48.4067,-208.3321,245.3288,177.2331,150.1520,282.3958,78.4947,-55.4351,-190.0791,-121.6123,-59.0826,-200.3605,-74.3225,-89.3833,-90.9556,219.7199,117.8034,245.9840
-679.6875,-102.4142,43.1148,-72.4450,-131.3554,111.3590,42.1935,54.0442,110.9795,55.5989,-42.6367,7.8968,-107.9818,-45.6884,-149.5582,13.4718,-150.1254,234.1688,17.0143,302.4159,36.8180
-671.8750,137.7070,141.6078,177.6537,-68.2582,177.5556,-76.7001,157.0797,66.7005,10.8239,-160.7003,2.0645,-79.1855,-126.1432,-231.5949,6.3953,-121.7227,87.4352,11.4689,49.1762,31.7658
-664.0625,75.7353,255.0152,30.6572,44.6993,-80.3251,-150.7192,-134.9895,66.2871,-62.0744,-50.8858,4.2116,67.5172,-234.6866,-84.7262,-66.7804,-49.4309,271.6205,-15.1992,91.8572,-9.4256
-656.2500,271.5984,274.2499,166.4818,63.4267,-128.3820,-346.9515,-147.2551,-130.3446,109.7895,-99.3043,216.2044,-17.9650,-172.4363,-133.0595,106.8303,-98.3417,292.5893,-241.0561,77.3165,-252.1294
-648.4375,278.2667,386.3088,165.0961,68.9313,-165.6421,-349.4052,-109.7522,-21.1996,71.4384,-172.9334,106.0547,127.3678,-210.3920,-96.5796,-39.7689,10.5329,87.3822,-92.1173,-162.4015,-107.3503
-640.6250,191.8671,404.2780,109.6332,121.2958,-293.9762,-441.9902,-274.3403,-150.1919,-128.9876,-154.6985,310.8799,219.5983,-117.4356,30.7806,-20.4643,28.2833,282.0701,-249.2977,-4.2110,-275.6095
-632.8125,378.3297,344.1250,304.0166,95.4765,-136.4485,-506.7291,-116.0847,-213.3481,-192.6001,-218.6339,323.6080,192.6890,-70.6274,4.9910,-46.3243,1.8870,116.5910,-238.6162,-169.1779,-261.8386
-625.0000,184.9626,325.1434,131.5481,111.7672,-235.7611,-497.3437,-214.6953,-167.3903,-145.1049,-98.4342,227.5600,275.9302,-96.6497,89.3573,-109.0201,84.6340,99.2752,-116.8064,-152.9684,-146.6279
-617.1875,134.5291,204.0854,123.9876,24.9168,-132.1460,-542.0667,-183.3893,-284.5477,104.2886,-68.3635,369.4534,122.0704,44.2266,7.6157,68.1808,3.2760,119.8305,-236.0984,7.1291,-271.2914
-609.3750,65.9934,134.9637,87.3049,-9.0581,-20.6335,-284.8980,-35.2051,-100.8241,141.5499,-68.4022,115.2930,49.1299,9.0033,-64.2138,-2.7283,39.8137,-158.7006,82.5085,-130.8619,64.0079
-601.5625,-160.9190,-21.5410,-73.7643,-26.4616,-0.4953,-45.1450,-123.4190,-7.5388,-93.6163,-10.8732,101.8031,-3.1947,66.3967,-7.4463,54.9686,-49.0643,-0.6303,135.6903,167.7540,134.8081
-593.7500,-65.0274,-207.2295,106.9621,-143.0906,255.4625,99.4126,132.1663,-9.4677,-97.0088,-124.5714,139.1580,-152.7018,138.5973,-156.8726,53.4424,-90.1447,-183.7779,197.6899,159.1578,215.8978
-585.9375,-251.1751,-183.9594,-92.3615,-190.7992,202.3825,228.9014,116.6815,119.5157,-39.4539,-67.3394,-20.4609,-59.2681,85.7675,-99.3351,-72.1332,2.7030,-230.9532,327.6145,182.5394,346.3585
-578.1250,-160.7392,-128.1299,-99.1076,-206.9935,196.8963,110.9178,111.7695,3.0232,101.6444,-37.5960,85.5353,-102.2925,80.5044,-69.2603,69.8388,-113.9164,-104.6000,67.0794,344.4586,76.6021
-570.3125,-29.8559,-68.8213,-39.4076,-183.7574,293.8729,132.3729,282.2914,61.9581,87.1322,-125.4262,-35.9654,-116.8441,30.7045,-119.7214,-16.7533,-55.0877,-325.7803,161.9882,156.8313,177.6384
-562.5000,-115.0980,-50.6361,-169.8393,-165.6929,125.7266,73.6500,151.6532,76.6913,-80.5722,-109.4430,56.4628,-64.5317,46.7823,-30.3393,-0.4835,-40.4239,-96.0893,40.7156,352.0590,52.7388
-554.6875,33.5360,-112.5620,26.5819,-193.7980,213.4540,-61.2355,313.8593,-20.7499,79.5397,-206.6425,183.7853,-124.3474,134.7153,-127.1098,87.6216,-100.9054,-157.5661,-160.7005,290.1099,-150.8379
-546.8750,-26.3664,1.9961,-118.5561,-150.4809,67.6311,-61.6924,278.4855,90.2217,80.0750,-95.4023,4.6246,-12.6957,62.1151,-52.4143,-20.8229,9.0475,-253.5749,-46.6953,157.6313,-45.1773
-539.0625,-54.3770,-25.5817,-141.8197,-109.3530,-29.3117,-196.3257,181.9696,-7.9874,-54.5479,-47.3355,203.3871,-0.1930,186.3772,-2.8772,102.5821,-52.1660,-34.7575,-248.8632,341.9997,-254.8171
-531.2500,27.3670,-50.3877,-22.3407,-100.4987,91.4978,-187.2171,340.1870,74.5404,-7.4536,-110.5282,143.9521,-26.9169,160.3895,-103.5842,3.7125,-5.6354,-234.1910,-133.2786,141.1229,-130.3732
-523.4375,-140.9239,97.7772,-162.9068,10.2818,-12.7281,-182.1819,126.3384,42.9782,-2.4218,4.2046,42.5356,89.3137,93.3726,12.6614,-99.1958,-1.1716,-16.6617,-125.7765,183.2184,-127.8834
-515.6250,100.5544,162.7209,-13.7223,3.7821,137.8220,-328.4093,166.2465,-138.8556,74.3545,-66.3494,121.9020,-18.6934,134.1111,-21.3448,13.6375,-71.9558,-21.4021,-236.5272,142.0568,-245.6740
-507.8125,84.8798,111.5323,1.2944,22.1111,190.2294,-204.8024,181.9885,-88.8684,-59.0357,-90.0743,-6.8245,33.1624,75.7178,-6.4945,-117.6828,15.0974,-107.2710,-5.4496,-14.2241,-5.6780
-500.0000,-1.3058,-45.1911,-11.2201,3.8626,177.1231,-182.7677,96.2008,-213.4666,-145.9868,-177.3837,166.9611,19.4676,173.7910,53.7909,-19.5431,-109.4259,193.2955,-126.9431,250.9464,-121.5710
-492.1875,67.7676,-188.6380,98.5022,-70.1620,361.2823,-74.4870,317.6586,-177.8287,-35.7233,-287.4598,60.0342,-53.9595,174.1261,16.3296,-20.1640,-110.6995,-19.9056,-59.1860,142.3652,-41.9644
-484.3750,-169.7944,-215.7110,-154.4316,-28.8640,182.8105,113.1190,175.4533,-26.8828,-69.1341,-101.2111,-78.4713,23.9728,68.8421,168.2208,-88.4225,-70.6395,58.2572,54.8820,220.1635,73.1204
-476.5625,-98.3421,-213.7561,-34.3562,-63.5889,193.3764,121.7079,149.2613,-54.9604,-22.5616,-54.9961,44.0702,-114.0856,42.5772,67.1101,69.3076,-98.5887,60.3971,-49.0558,292.9432,-31.4368
-468.7500,-189.2967,-130.1840,-61.6904,-16.7201,129.5535,312.8762,122.6407,100.5312,22.5640,26.7976,-125.7330,-104.5228,-95.0716,39.6213,-104.3726,20.0538,-136.8329,176.5934,130.3424,199.3875
-460.9375,-334.9135,-135.3054,-176.6940,46.4322,-21.9339,307.3134,-101.6839,58.2775,17.9678,95.8520,-17.1609,-35.6524,-98.3945,108.4246,-70.7499,-22.0259,139.2413,99.5146,300.0428,116.6762
-453.1250,-53.1647,-170.0512,-27.3450,114.9157,54.9483,308.0925,48.3292,22.3513,56.6877,-123.7757,25.8041,-33.4095,-132.3613,-36.4187,5.2024,-20.7551,-0.3443,29.7913,125.0878,50.5722
-445.3125,-49.1044,-95.4685,-179.6925,151.6810,-170.8569,300.1523,-67.3846,87.6797,-60.3211,-94.1307,-49.8605,108.1449,-210.0051,31.0418,-37.5414,45.7977,73.3970,103.3357,92.4605,115.9836
-437.5000,-20.7662,-139.6130,-147.7735,107.6843,-211.3827,146.4517,-71.8388,-27.7743,7.9007,10.7269,132.7729,29.9549,-140.3819,25.7423,142.9588,-33.4118,100.3764,-114.8825,261.0681,-113.7794
-429.6875,-32.0304,-11.3246,-55.4661,93.0869,-266.5069,163.1399,-15.9197,62.1383,61.4946,63.9694,44.8487,84.1890,-232.3501,6.8550,-22.1515,93.7694,-87.2232,13.2862,-33.9211,10.7783
-421.8750,-56.1130,141.1401,-82.9869,172.6223,-440.4579,60.9456,-299.8590,-75.8535,-38.7674,72.3259,204.1498,204.5840,-259.1490,90.1092,-48.1081,102.0784,205.3380,-80.4336,12.2515,-97.4186
-414.0625,217.5759,63.3709,243.2525,233.8926,-333.6395,-92.5073,-266.0568,-229.1147,-8.3046,-43.5956,388.2366,126.7440,-152.1900,-24.8871,-16.3300,23.1466,127.6321,-124.4074,-170.8388,-143.0591
-406.2500,93.7205,-26.9370,140.9364,281.5907,-287.3635,-84.5388,-293.8245,-221.9687,-36.4130,1.9204,253.8431,134.3650,-68.7532,57.5734,-116.0860,31.6544,142.3954,66.0193,-261.4445,50.1160
-398.4375,75.5984,-80.5241,131.3366,191.9622,-77.3582,-170.8923,-192.8791,-417.1555,-10.8245,-119.8972,395.1976,51.6883,178.4061,83.7240,20.8723,-127.1456,230.8319,-92.8863,-69.3582,-110.1521
-390.6250,141.3771,-50.1859,163.6112,44.2169,250.5534,-29.3558,96.9489,-313.4633,-125.3502,-345.8320,247.4803,-27.0703,285.4808,5.7845,16.7260,-60.0451,-124.8306,8.0951,-178.3599,4.1417
-382.8125,-95.8255,-147.8416,-86.1153,-56.5444,294.4958,49.1565,-6.2240,-160.8140,-229.8889,-192.7985,184.8228,-19.8211,330.5916,122.8368,24.5998,-16.9620,-83.4851,-19.9665,108.6609,-21.7339
-375.0000,-88.0717,-350.5276,-69.8874,-155.3647,459.4198,100.6114,157.5615,-73.2330,-31.5044,-141.8409,205.1448,-187.6086,383.6708,65.8287,115.4142,-75.9291,-216.2120,-118.0815,187.6160,-112.3531
-367.1875,-232.7354,-319.5849,-191.0674,-162.5872,374.9514,271.6387,146.9193,171.9131,-80.5430,-44.2946,15.1215,-124.7797,263.3753,90.4287,-43.1659,-14.3088,-325.3144,88.3686,147.1948,103.3252
-359.3750,-297.7202,-209.9692,-182.5755,-124.1699,312.1664,206.2839,46.9295,69.6697,-144.9287,0.8661,174.7971,-41.2970,273.7505,26.6703,40.9125,-153.0518,-109.7773,-48.5566,292.4121,-36.5593
-351.5625,-175.8959,-52.5317,-55.2948,-74.9516,365.1928,220.7143,174.7209,84.2001,-55.5482,-94.1949,85.2991,-61.9931,217.9366,-104.2751,57.7820,-174.9944,-304.4365,73.3103,-8.5676,86.8564
-343.7500,-203.3539,94.6173,-200.3030,69.9623,109.9415,182.8099,-80.7999,83.3803,-127.4942,16.4179,55.5683,13.0194,109.8484,-29.5165,23.3610,-137.2566,-87.3684,78.8334,33.1752,82.8494
-335.9375,87.1090,32.6779,-38.3932,111.7692,89.6188,-24.2068,-28.4180,-87.5709,-77.5515,-80.1078,257.7716,-82.0525,125.6776,-87.8660,185.8337,-86.6157,-43.4175,-123.7535,6.7963,-129.9301
-328.1250,75.0209,20.2074,-59.0419,132.0281,-4.2558,-46.7887,24.3786,0.8897,-62.1925,-66.2014,95.4702,7.3459,31.9787,-35.7498,55.7550,38.4714,-125.9883,39.0777,-146.1091,33.1998
-320.3125,-61.8363,24.9584,-89.4644,169.4778,-142.9128,-152.1936,-78.6250,-141.4915,-19.6548,-23.1244,253.4207,87.9489,77.5096,44.5627,99.8864,-66.2566,159.6345,-97.9275,-2.8144,-111.3507
-312.5000,76.3471,21.7847,130.1463,198.9737,-33.5184,-229.5446,31.4090,-181.8377,161.9269,-100.0151,255.4406,86.6257,77.1005,-67.0670,62.0585,-105.9343,15.2946,-101.8851,-217.4761,-113.9383
-304.6875,-72.7702,153.3191,40.4551,293.1719,-195.4194,-246.2158,-130.8737,-161.5266,-2.7979,-44.2279,244.2129,218.0176,-10.5836,-9.9899,-26.0561,-12.9315,181.6808,-42.1804,-226.4131,-56.9321
-296.8750,111.9368,162.6639,239.5723,335.1653,-106.4905,-417.0968,-152.3437,-332.4437,-135.7304,-66.6676,411.8077,160.2156,78.5518,-68.1226,99.6260,-72.1297,260.8479,-244.6885,-183.5634,-262.6564
-289.0625,159.7828,104.1710,244.8266,344.3069,-26.3993,-303.8470,-72.6839,-256.2447,-277.5337,-172.9781,236.5879,201.5795,47.8667,-27.0976,-4.5394,4.8232,97.1816,-23.0717,-347.5449,-31.3027
-281.2500,24.8965,3.9248,140.3573,312.6861,-93.0150,-263.3772,-250.7628,-325.8363,-310.1070,-169.0777,357.6755,207.1943,127.4727,126.1663,37.5640,9.0126,313.7591,-158.2492,-166.2625,-172.8729
-273.4375,203.9092,-28.4099,256.7976,172.9579,97.2991,-187.0150,-60.9433,-358.5424,-304.8123,-311.2938,404.6832,103.7246,135.0031,58.3261,81.5579,14.1031,105.2124,-156.5296,-234.0915,-167.3744
-265.6250,84.0225,26.3718,49.3346,119.3249,0.7298,7.4196,-121.0417,-201.1906,-441.4192,-227.4230,238.8360,152.3578,75.6685,180.5888,-52.3390,98.2827,54.7843,-31.7521,-179.8009,-40.6720
-257.8125,40.1668,-121.8255,46.8853,38.6896,-0.8105,3.8283,-85.1338,-278.8755,-296.0146,-230.5794,388.0142,77.9991,148.3580,178.8363,93.7707,-14.5394,116.3354,-181.0000,57.4626,-190.8486
-250.0000,-36.3352,-163.6458,35.7744,-41.5795,62.9991,101.5597,87.0979,-72.2443,-124.2965,-206.4063,199.5686,30.0160,101.4161,94.4480,46.2314,46.9892,-171.7441,-14.9202,-55.9255,-16.3174
-242.1875,-178.8615,-201.5006,-224.3693,-79.8889,-49.2247,95.2004,-25.7293,-41.7145,-239.6471,-64.3171,200.1226,99.9944,99.4556,164.0061,116.6604,78.4588,2.1383,-86.9309,222.6386,-93.7187
-234.3750,-4.1319,-237.0874,-184.2705,-154.9382,64.8124,23.0769,160.6832,-39.9556,-126.7520,-100.9855,206.9270,67.2523,103.7480,56.8210,194.3252,44.1838,-140.7399,-125.6951,186.4362,-133.4884
-226.5625,-119.0227,-36.2790,-349.7862,-96.5736,-25.7548,76.3359,106.4707,86.1714,-73.4678,-83.2531,47.1618,121.9398,13.4517,74.0510,67.4038,97.3034,-186.1847,38.8998,69.6610,29.2602
-218.7500,-122.4609,28.9752,-275.8307,-68.7543,-134.8524,-35.9636,32.7229,-100.2780,72.2643,-85.1149,271.8691,86.0843,51.6252,74.7236,213.9471,-14.1234,-49.1937,-177.0763,170.3305,-199.2912
-210.9375,16.4295,28.5958,-97.5298,-107.5699,-28.6064,-43.9160,138.3101,-70.3905,29.3232,-128.6494,272.9371,44.5912,48.1582,-4.2441,135.8332,15.8052,-262.8420,-73.7136,-41.6383,-92.3702
-203.1250,-113.4620,73.4237,-201.0136,-29.1782,-131.1548,-148.6861,-36.9131,-102.3422,-111.4326,-50.0052,321.2421,125.2993,55.9167,111.9907,70.9283,58.9166,-6.2737,-135.1889,38.6180,-158.9208
-195.3125,121.0182,96.6089,48.8594,-8.4316,45.6592,-341.1046,65.2184,-331.9559,-9.8566,-206.0361,465.9010,44.3700,160.0345,-41.4260,137.3628,13.3805,51.6249,-324.3143,-78.7874,-350.7712
-187.5000,141.4320,186.7469,25.6698,114.2705,23.4197,-367.5792,6.2773,-321.6427,-71.3407,-232.1223,336.5356,168.4030,101.1267,-64.8866,4.7562,62.7856,36.4942,-94.5197,-307.2145,-121.0716
-179.6875,78.9095,123.9346,39.5575,226.0220,2.2547,-430.0197,-90.5999,-494.3087,-132.7674,-183.1773,502.2458,182.4842,226.2905,-51.3051,91.2136,-145.7703,254.3942,-193.7076,-123.5959,-219.6603
-171.8750,112.3192,87.0771,186.3768,150.7299,186.0375,-321.5135,130.4678,-386.0293,-60.2592,-258.2806,396.9035,109.5300,228.4187,-124.7650,18.6202,-110.3626,-29.7691,-92.9533,-267.0259,-106.0259
-164.0625,-146.7689,107.7149,-50.3072,63.9428,96.3284,-157.5341,4.0529,-222.2895,-78.2583,-166.8978,238.0915,166.0817,175.0756,40.2752,-33.4512,-19.4613,61.5819,-72.7418,-105.9386,-85.2983
-156.2500,-2.3007,6.9171,-2.4328,-75.2838,146.1889,-75.0228,88.2208,-214.0228,5.2897,-230.9860,327.8273,31.1934,151.3034,51.8582,52.0259,-82.0079,30.4614,-210.9883,73.6656,-219.8564
-148.4375,-56.5595,-12.5741,-64.2695,-132.1917,121.3490,154.7787,136.6554,88.5139,-131.8800,-184.7826,49.8791,41.6265,53.8554,62.7574,-83.1903,37.7441,-164.3361,15.0466,18.5777,21.3942
-140.6250,-166.1694,-17.4312,-139.4352,-103.4374,84.1825,150.2063,24.7313,84.6569,-245.4005,-4.9633,-57.3963,3.7164,53.0860,134.3006,-11.7337,-1.8616,41.5246,-61.2684,259.1364,-50.4872
-132.8125,-80.5536,-107.0439,25.6367,-90.4174,177.2751,166.8779,191.0429,137.0322,-81.6850,48.0942,-217.4411,-87.9199,73.5732,42.1050,7.9627,14.7966,-154.3760,-47.2823,63.9337,-30.2152
-125.0000,-163.4647,-120.1651,-143.8011,-36.8838,8.8708,179.0349,57.8387,185.8850,-31.4689,170.6542,-382.9733,-35.0419,53.5810,130.4231,23.1706,64.9557,-132.7645,8.1741,84.2537,16.9210
-117.1875,3.1094,-127.7902,-74.7363,-81.8311,42.9851,-48.3063,92.1468,-4.7640,184.2526,201.7027,-234.0171,-112.6530,161.1015,52.2440,203.8793,-50.3716,-71.6805,-246.9009,146.0640,-253.6213
-109.3750,83.5375,-48.5248,-33.7906,-144.8567,46.9960,-121.7438,205.3296,32.4795,295.8621,276.6493,-410.1607,-35.3443,92.5361,-18.0233,96.4901,135.2125,-307.6773,-169.1011,-91.2040,-184.9372
-101.5625,-29.6424,83.1132,-117.4270,-84.4816,-108.5679,-280.8019,11.9208,-90.9049,173.8816,337.9854,-341.8882,28.3631,156.3980,8.1005,160.5244,196.1951,-35.2730,-248.9432,39.9502,-277.0395
-93.7500,144.6973,117.2667,103.4248,-18.6097,3.3747,-391.3596,86.0097,-165.7879,247.4089,152.8206,-225.1386,-7.4296,232.7646,-137.2754,236.0525,49.6931,-107.3946,-252.2949,-137.4049,-278.2128
-85.9375,63.1361,210.5225,47.3641,143.3728,-51.5893,-340.8287,-189.8196,-187.5930,189.0241,130.7584,-314.2830,120.8846,215.2542,-83.5441,107.6928,29.2944,-13.3920,-54.5867,-254.6340,-82.4359
-78.1250,163.7743,240.9773,195.5189,241.5784,-12.3359,-489.0923,-335.4428,-447.2106,152.8290,56.8775,-50.2375,121.4065,290.9595,-82.6199,182.5386,-81.9033,226.7950,-236.6873,-224.6773,-272.1283
-70.3125,285.2721,292.2951,356.5071,255.6570,39.7560,-440.4973,-248.2384,-398.9873,54.4807,-41.1494,-141.3663,135.7886,195.5172,-68.8344,51.2233,40.7453,66.8379,-116.9396,-455.8668,-145.9405
-62.5000,133.8532,211.6923,233.6112,277.8482,-46.0354,-418.8071,-370.9352,-414.6899,-105.7418,-55.0897,-112.3807,234.2670,185.1977,64.0524,76.0216,63.4884,336.9868,-164.1227,-290.9452,-190.9104
-54.6875,278.3620,144.0242,389.6258,207.9565,111.0841,-448.2188,-213.7343,-481.5034,-25.0782,-159.1472,-25.5146,169.6594,232.7874,-0.1646,121.7013,-38.8593,270.0159,-233.4135,-323.1531,-255.7994
-46.8750,171.6866,214.1901,235.4319,204.8895,68.9991,-274.8580,-294.7658,-381.5492,-32.6349,-57.4129,-174.8457,199.8740,117.1905,102.4269,-31.8138,25.5915,198.8808,-58.9408,-395.5533,-81.5516
-39.0625,144.7145,221.0330,211.9160,140.5063,8.5837,-263.8721,-318.1472,-406.9785,15.4521,-47.0576,-45.5280,103.7464,131.2539,115.6515,92.3242,-72.3187,311.3953,-264.8417,-107.3352,-287.7066
-31.2500,188.8157,124.9601,257.4462,6.2151,55.2022,-73.8492,-88.5057,-182.3751,59.5597,-77.6536,-143.1868,1.6874,68.3652,13.9324,27.5029,-28.1706,-32.0216,-82.7035,-133.0831,-90.6841
-23.4375,-28.9574,46.9907,-8.9112,-37.9528,-99.0872,61.2469,-170.7786,-9.7027,-25.2295,94.8506,-183.7380,29.7283,-12.4137,78.3202,-16.2035,-38.9245,101.6792,14.4870,139.2821,13.4905
-15.6250,36.8290,-62.4263,69.2876,-44.5555,-19.8331,63.8922,-19.5023,28.5227,89.5482,60.9074,-63.7701,-111.6717,-6.6431,-27.7409,61.6333,-109.1090,61.9024,-61.7833,205.1797,-53.2928
-7.8125,-44.5932,-39.0335,-22.7259,47.6581,-73.8043,153.3339,-1.4571,191.5370,69.1362,114.7759,-261.0143,-56.2619,-133.0650,-8.9885,-65.7283,55.5154,-21.0608,100.7219,16.8934,114.5198
-4000.0000,-51.1897,-60.9985,-58.5044,106.4056,-120.1624,129.2979,-121.1108,93.6687,71.9875,143.4223,-279.1549,-41.0651,-81.4607,39.9720,7.4541,60.2086,96.4522,7.8265,94.5670,15.4076
-3992.1875,139.9074,59.9060,140.4220,54.0827,39.5203,37.1241,38.6038,75.1054,88.9579,14.6585,-194.0046,-99.1432,-31.0805,-90.6401,-50.6089,77.1669,-132.1857,-11.3983,-134.0476,-5.5211
-3984.3750,-2.7599,162.0634,21.5814,53.0160,-7.5582,-80.7767,-45.4274,30.8184,-102.8218,44.1536,-171.6294,2.0287,-3.4644,47.9967,-95.4351,105.3860,7.4104,20.6470,-100.4175,19.4282
-3976.5625,135.1668,124.8181,172.3345,54.5489,105.9592,-329.0754,31.1374,-182.8707,-96.0151,-20.7482,49.3598,42.7922,73.7602,18.2347,20.3476,2.2028,113.6288,-189.7307,-99.1655,-198.2668
-3968.7500,126.9608,186.4206,156.9584,188.9314,89.3384,-341.5228,15.5685,-122.7049,-36.3644,-32.8057,-78.8047,137.3933,-52.1641,3.3081,-104.0227,25.8786,36.6714,11.7489,-316.0861,5.7746
-3960.9375,31.2936,126.5796,134.1112,307.8712,28.2500,-398.4229,-119.4601,-251.9839,-94.1659,-89.3032,113.5749,187.5445,-2.5401,18.9403,-89.8414,-68.8865,366.2719,-82.2246,-163.4529,-85.5104
-3953.1250,191.4862,144.5794,376.1246,293.6519,195.0255,-411.4955,47.3799,-301.4275,-217.0885,-248.9609,205.8201,99.5269,54.9448,-31.5918,-67.7846,-118.8038,175.7177,-63.3706,-317.9638,-59.4497
-3945.3125,149.0154,312.9225,215.4724,253.7751,34.1633,-275.2247,-113.4093,-202.5040,-338.6541,-184.2588,115.4024,158.8573,4.7805,103.2165,-153.3862,-57.3572,170.4884,0.8540,-322.1353,-3.9084
-3937.5000,367.1306,355.8547,303.4130,193.5013,9.9069,-294.3686,-173.6075,-295.9865,-248.6282,-277.9510,309.6048,99.7826,55.2260,45.6230,-27.3800,-187.3119,250.8776,-201.3345,-243.6850,-214.7525
-3929.6875,359.5087,348.0385,328.6213,153.4698,33.9239,-120.2765,-113.5314,-195.2205,-184.3480,-285.4064,183.0686,124.9427,5.9252,-1.7367,-148.1224,-124.0092,-0.5084,1.7264,-423.9988,-7.7380
-3921.8750,100.2215,264.5823,168.1627,142.7881,-90.7158,-56.8377,-201.1113,-206.0946,-232.7255,-186.5101,239.8799,184.4533,-8.0292,60.2526,-160.5172,-98.3414,199.4565,25.1411,-188.9582,17.7023
-3914.0625,193.9492,111.1188,270.7164,98.0957,84.6561,12.5841,10.3174,-173.9765,-165.1051,-300.6223,265.7234,103.9475,21.0275,-55.7764,-93.8965,-139.6759,-21.5806,84.5348,-233.9011,88.1349
-3906.2500,2.4814,95.4482,100.0661,85.1955,-50.1725,175.8102,-50.4418,25.9631,-222.6883,-136.9296,91.3647,117.2399,-113.1251,-5.0139,-152.4810,-51.1950,-104.8500,245.7407,-141.0576,255.2112
-3898.4375,19.3513,42.1260,86.7490,-36.3611,-101.6679,91.3770,-66.8590,-22.7427,-124.9189,0.1239,257.3770,-44.1167,-54.9341,-16.8996,18.2898,-136.3616,19.2403,-18.7187,124.1609,-16.6572
-3890.6250,99.0912,-19.3448,129.2994,-199.0795,-60.3068,99.7876,85.5972,96.4013,-6.2820,-26.9821,186.2538,-110.6341,-84.8917,-82.9497,24.9154,-17.6806,-249.8444,96.6666,-4.7879,96.8276
-3882.8125,-9.2822,-57.9146,-24.2686,-200.8996,-142.0558,59.1013,-32.0471,91.4587,-48.7487,-31.1882,212.0334,-81.2441,-55.9530,20.8956,55.4327,50.9119,-110.0365,57.9649,134.1602,52.1347
-3875.0000,138.7937,-119.0425,63.6211,-295.2814,54.6466,-34.1447,91.7696,35.9552,5.2455,-85.9616,297.3053,-139.4203,31.4511,-35.8263,145.4221,67.9492,-239.7737,-73.3095,110.5712,-83.7262
-3867.1875,-66.6257,-79.6657,-120.9763,-252.1662,52.8556,4.1158,125.1106,183.9565,42.7242,62.7515,72.0908,-31.1039,-6.6436,36.9353,33.9037,105.4936,-374.0378,108.9326,-23.5444,98.5502
-3859.3750,-151.8082,-94.0261,-168.3290,-228.7968,114.3109,-113.3787,77.6886,29.2052,71.4296,202.7208,168.1539,-5.5362,129.5181,28.9423,98.6317,-12.7202,-141.0382,-116.5768,105.5928,-132.9121
-3851.5625,-30.3731,-42.7906,-43.0618,-245.8408,311.3962,-96.2922,200.8988,10.0413,87.7482,147.2703,104.8483,-63.3805,106.2888,-65.4691,40.9700,40.6556,-368.4648,-29.4975,-122.6775,-42.7415
-3843.7500,-157.4031,4.9874,-182.2561,-229.3482,135.0422,-120.6567,25.6721,-16.5556,135.6138,195.3679,74.0974,-18.6754,114.6104,54.6620,14.8484,161.5892,-247.3602,-84.8493,-36.4016,-110.6562
-3835.9375,24.9660,-58.8426,12.9543,-255.4631,182.1002,-253.6453,71.8559,-148.7661,185.8686,26.8556,338.7958,-80.5818,162.3494,-6.8221,137.1408,100.9152,-202.8457,-252.8235,-62.7081,-282.8177
-3828.1250,51.0012,36.9828,68.8328,-227.9335,52.8302,-157.9954,16.7179,-53.3238,-13.2402,-24.0312,243.1656,48.1598,70.7423,51.3222,10.0755,158.8965,-280.7104,-86.1345,-210.3972,-113.3246
-3820.3125,133.8688,50.6744,86.5479,-211.5531,-113.5912,-174.5124,-76.5766,-217.0414,-30.5100,-41.0826,405.4150,101.7607,87.9889,106.3172,64.8593,31.7282,-19.7144,-318.5938,-19.2331,-352.2990
-3812.5000,339.7562,78.3680,192.2821,-250.1869,-45.9887,-139.0531,101.1550,-218.7800,77.2376,-151.1519,360.7010,60.3530,46.2449,29.2908,61.6554,66.5456,-198.7371,-289.0659,-233.0769,-322.7502
-3804.6875,133.2968,223.7191,8.6510,-137.1873,-193.7267,-62.9524,-9.4476,-178.8587,-30.3706,-37.5701,209.6440,134.5955,-63.8508,104.9125,-9.9092,105.0258,-86.1424,-177.8692,-155.2888,-208.7975
-3796.8750,177.3830,197.6131,61.5594,-91.6552,-214.9118,-118.3290,5.5132,-233.4003,24.5622,-55.4405,371.1808,3.3894,-11.3892,12.0831,118.0896,14.0580,-4.9901,-273.1408,-38.9359,-302.1064
-3789.0625,135.0776,120.0976,51.0820,-59.5357,-228.4801,19.8831,67.1050,-23.3383,14.0946,-63.7320,134.3452,-7.2175,-96.3299,2.8386,33.6877,77.7010,-185.2733,-33.8032,-114.0039,-47.8996
-3781.2500,-1.9560,87.8807,-90.1160,-20.1249,-369.7622,-7.6046,-74.0023,-13.9651,22.9186,19.2744,174.8342,-74.5092,-53.9769,45.8984,77.5854,49.6508,65.7414,-64.1667,137.2368,-78.0186
-3773.4375,89.9243,74.5678,84.6032,-65.8404,-196.1282,-50.2091,135.8175,-20.7095,163.6368,-23.8426,162.2830,-193.9097,-27.7114,-72.1621,143.3969,5.4827,-122.3522,-42.6560,-14.6123,-51.4108
-3765.6250,-87.6376,106.8098,-108.1302,-66.0286,-242.9277,-20.2618,89.2109,84.0969,155.9020,81.5696,40.3037,-55.7614,-35.8838,-5.6856,98.7485,72.8650,-191.9332,60.4170,-84.9305,45.0197
-3757.8125,-38.7141,16.5421,-123.3764,-154.7359,-112.2167,-143.8271,109.1105,-39.6104,142.6693,31.4735,204.8680,-36.1124,130.4620,-20.7134,267.6109,21.7372,-141.0074,-135.0197,37.2654,-159.6874
-3750.0000,-24.7908,-75.7359,-150.6126,-208.4634,42.5322,-20.4055,229.0552,46.6831,117.4343,-65.6476,27.4692,10.5330,103.8296,27.2388,168.4797,107.6101,-336.1202,55.5445,-122.5627,38.6907
-3742.1875,-151.7408,-61.8635,-319.7133,-123.0472,-16.5588,-2.8411,96.1674,-9.8663,-12.6745,-10.6342,39.2490,62.3396,155.3568,153.3387,111.4920,51.6396,-40.0967,34.2706,-1.2506,18.1249
-3734.3750,48.3175,-72.9887,-66.7983,-25.6469,199.3796,-78.3122,238.3044,-158.4370,-51.7927,-158.6494,143.0927,-14.8587,223.9085,40.4163,108.5125,-61.3445,-83.0739,23.9770,-149.9359,17.6807
-3726.5625,-32.3170,92.1986,-46.5737,72.0395,254.6415,-18.5025,146.7723,-99.7047,-175.6271,-172.3846,49.2643,4.2478,133.7635,24.7727,-91.1768,-39.0297,-56.7830,190.9997,-263.3463,195.2546
-3718.7500,-1.5072,157.8432,65.0902,70.1602,292.3571,-161.2713,74.6972,-279.5406,-136.0176,-204.6802,268.9367,-30.1839,208.0747,-82.4241,21.5919,-182.2752,151.9686,-24.5387,-90.3002,-23.6761
-3710.9375,82.7768,136.9454,151.2287,51.7184,377.5544,-146.6264,197.1187,-190.9485,-11.9446,-262.5555,168.1115,-18.1685,183.8467,-179.2008,-38.1845,-131.0852,-112.8563,60.3654,-249.8353,64.3562
-3703.1250,-44.4976,79.5169,-58.1819,31.7217,204.2095,-132.5536,61.0095,-102.9182,-71.4480,-100.9925,176.7735,67.3052,195.0749,-93.5390,-99.5264,-117.4452,77.7610,-30.2652,-22.9407,-29.9604
-3695.3125,146.2795,59.1350,183.4704,-21.2385,297.9353,-182.4649,153.9706,-116.8616,-85.9046,-224.3956,341.5510,-23.1815,215.3756,-181.8463,-40.8069,-167.7668,-10.5731,-226.8684,29.0120,-221.4609
-3687.5000,162.1125,214.8038,155.1818,-39.1768,157.7356,-99.3452,51.0214,41.2439,-259.2953,-212.7690,199.4140,21.3830,75.7296,-98.1230,-178.0450,-48.0315,-98.9027,-69.4139,-23.0102,-63.5846
-3679.6875,134.7855,187.3224,56.7279,-64.2874,21.3786,-158.4040,-48.0657,18.1968,-172.8330,-162.2952,319.1736,33.8056,50.9395,-49.5469,-55.4270,-107.4482,50.6151,-237.1214,232.8244,-239.4866
-3671.8750,220.9766,62.3392,72.7889,-186.9297,183.5447,-65.9847,225.3899,110.6421,-43.8802,-180.3445,222.4915,-24.2756,29.6627,-142.4845,-75.2997,-52.3757,-282.3972,-115.3387,75.1457,-112.3281
-3664.0625,-11.9953,-28.7975,-102.3076,-205.7372,80.5695,18.2829,85.7122,194.9498,-253.1021,-58.5629,190.6961,-15.4940,74.2461,-95.5731,-101.3356,68.5518,-161.5883,4.3122,231.2978,10.4525
-3656.2500,37.6750,-85.2968,-4.7506,-224.9158,214.2644,-28.8136,182.7011,110.8843,-154.6841,-104.1629,286.6227,-139.0576,135.5051,-182.0207,-3.7122,-52.8857,-110.1228,-50.4038,283.1082,-38.3724
-3648.4375,23.7042,5.5576,-96.8230,-95.7641,269.3466,66.4310,202.0854,169.1579,-133.9255,-82.4559,-28.0500,-120.2646,44.1296,-161.1418,-130.7400,-67.9876,-158.3475,288.2411,60.2339,309.3338
-3640.6250,-103.3845,-16.6734,-187.0067,-9.7292,252.3386,51.5618,110.3874,81.3232,-148.2890,-22.8620,26.2281,-136.5616,100.6691,-140.3639,-35.8699,-193.2014,103.3203,196.7816,251.2574,220.6768
-3632.8125,-45.8059,-170.2528,-49.5256,-56.0710,462.0167,118.3157,358.3834,74.1210,26.9931,-140.6486,13.2178,-220.2153,126.8842,-296.9576,28.6581,-237.7786,-118.3865,289.9544,99.9188,324.8611
-3625.0000,-197.3738,-145.9722,-103.2037,-29.5852,407.5688,213.9075,304.2576,132.7657,-208.8955,-154.6091,-42.9038,-164.0065,109.9590,-238.7079,-96.9760,-179.5009,-22.2745,420.9937,126.3962,465.7927
-3617.1875,-70.2430,-124.9901,72.8203,-76.4194,472.8336,98.1635,332.8447,-19.9164,-215.0979,-233.8899,167.7483,-245.0927,175.7553,-282.7689,6.1045,-295.5341,71.5455,231.7154,220.5752,274.7616
-3609.3750,-55.5974,-74.5050,83.3670,-59.7726,445.6280,109.8921,415.9728,102.8828,-128.7937,-330.7102,-8.0395,-161.6727,75.0624,-235.3551,-92.3070,-247.0777,-53.1696,352.9387,26.2159,399.0274
-3601.5625,-199.1651,-42.2005,-68.2933,45.6601,330.2255,71.3979,226.9162,27.4716,-351.7093,-259.7499,59.0227,-55.4335,107.1777,-54.1501,-95.9213,-212.8272,192.9150,173.9656,236.6377,214.1006
-3593.7500,9.9817,-115.1816,40.7657,-25.2267,327.5453,35.5606,298.5936,64.7297,-314.9302,-184.1218,128.8541,-93.4906,106.0159,-128.2621,-22.8236,-101.8952,-19.3135,31.6755,130.7460,61.7525
-3585.9375,-27.1671,-151.4513,-78.4758,-60.4364,97.5909,28.3987,179.0123,205.6792,-138.4650,-6.8114,80.4275,-66.8409,22.5613,-63.6802,-68.0381,38.7445,-124.8881,-3.8975,131.5187,11.1000
-3578.1250,29.8280,-200.5694,-13.5741,-177.5223,50.8021,-125.6483,169.6012,88.7556,75.1297,-13.3672,291.2220,-112.0283,87.2731,-70.9485,108.9059,-42.4760,-66.3138,-262.3396,295.4508,-261.7375
-3570.3125,22.5967,-137.9438,45.1018,-252.8922,72.7985,-64.9809,265.9911,186.5665,98.4768,-62.2129,126.8339,-53.4644,35.7591,-48.4944,58.6084,56.0427,-318.0314,-165.0363,113.1048,-164.9269
-3562.5000,-116.7479,-66.4132,-178.3299,-250.3850,-41.2977,-65.4347,77.3003,148.2720,59.7099,-26.1767,84.3976,90.0159,32.1607,95.8546,92.2066,53.4611,-104.8691,-233.8266,221.6416,-245.1557
-3554.6875,-0.7917,-90.5893,-90.4531,-271.6055,81.9259,-122.6167,201.9376,54.2495,186.2451,-118.8693,133.3412,67.8018,82.8868,0.4918,181.1207,-40.8434,-197.4127,-256.3370,129.4788,-269.3075
-3546.8750,-139.7332,-53.6632,-244.4708,-198.7562,38.2814,-54.7071,157.7188,122.3264,143.8674,-50.4948,-58.5730,134.6983,2.7263,32.2176,66.1278,65.9486,-229.9016,-8.7327,27.3844,-19.4366
-3539.0625,-252.2900,-167.3338,-244.1010,-169.5399,0.0631,-53.4080,84.9187,14.7923,219.8663,25.2561,122.9798,98.0071,75.9925,-4.6583,140.5293,-6.8772,-61.0014,-85.7349,197.7001,-97.0672
-3531.2500,-198.0845,-253.2604,-112.9607,-148.6166,94.6427,116.6250,178.9205,110.9955,279.6054,-62.2801,69.3522,45.0612,23.0379,-55.8028,51.6848,16.0313,-285.3978,109.0118,-28.2522,109.4402
-3523.4375,-203.6461,-153.9320,-230.5856,-81.4680,-23.5037,184.8991,-48.7999,142.4505,52.5837,6.4148,60.0202,111.3793,-20.6617,47.2986,-63.9223,-26.8117,-44.5726,174.0262,39.0273,175.0875
-3515.6250,76.1493,-50.2498,-3.8532,-11.9882,129.7313,120.4903,-42.1391,4.2254,-86.1074,-94.5755,175.1144,7.0571,22.0127,-92.2621,-94.1695,-165.3305,25.6099,173.3695,3.6520,182.7464
-3507.8125,-76.7817,-27.3051,-20.8513,118.7277,112.2523,216.3107,-96.1810,100.2319,-101.5717,-35.3588,10.5080,27.9992,-68.0542,-107.6002,-256.1762,-142.6133,16.0105,443.9839,-111.5182,466.0606
-3500.0000,-235.8723,-151.4937,1.9970,102.2874,98.6359,166.9484,-146.3607,15.0619,33.7982,-83.3158,141.8170,-23.1862,28.7414,-84.0998,-159.3384,-229.0644,245.2700,285.4436,118.1536,310.3343
-3492.1875,-85.4378,-177.1715,195.3710,43.3273,254.5500,141.0477,121.0010,-10.6405,-29.3338,-182.8139,112.7050,-86.8738,75.0595,-185.1244,-148.9928,-144.0357,9.0104,295.3923,-81.7001,325.7131
-3484.3750,-244.3487,-125.1796,-15.6062,60.9988,80.1287,79.7783,-16.9575,38.2976,-163.8568,13.3121,48.2952,-3.8902,85.0347,-63.5045,-174.0089,-22.3583,97.3755,277.0147,7.0569,295.8168
-3476.5625,-195.5535,-181.4809,42.1257,6.3533,100.4287,-81.8194,77.7929,-49.0985,41.2968,36.1031,140.6713,-56.1902,142.7269,-79.1874,-5.3190,-73.0030,78.4467,10.3253,128.5052,20.2904
-3468.7500,-208.7405,-159.7713,-52.1219,-75.3124,114.7612,-65.4338,165.5786,114.4897,94.4497,52.8549,-66.9018,-5.4777,46.4282,-62.8884,-26.6348,53.3375,-145.5203,137.6468,9.9116,145.4767
-3460.9375,-174.0972,-195.1936,-163.5344,-145.1450,2.9483,-137.2153,55.2332,78.9114,95.4358,128.4320,42.4249,-5.8915,45.9915,9.2690,46.8924,54.5236,-4.6462,-72.1789,258.1586,-75.4874
-3453.1250,58.3581,-103.8065,-30.1278,-192.2111,62.9622,-186.2342,188.7329,104.1041,156.2081,79.7757,27.6276,-91.4975,-4.6224,-75.7850,-2.7650,79.4972,-191.9934,-85.2218,140.1872,-88.8328
-3445.3125,-122.5425,-73.7560,-152.0764,-161.6493,-59.3559,-159.6182,30.9149,203.9436,108.6036,216.7468,-58.4759,6.5688,-88.5763,22.8065,-49.7854,179.1221,-125.7267,-55.5912,135.8324,-63.6246
-3437.5000,-22.7463,-114.0033,-40.3301,-164.4141,-57.9520,-230.3285,-5.1902,60.4568,185.6841,183.3878,125.1955,-29.6494,-50.8005,-48.9096,62.9046,109.4217,-24.7558,-200.2706,204.1807,-213.3895
-3429.6875,15.7679,-41.5535,-5.8630,-125.5103,-60.8044,-157.3587,65.4625,132.6539,184.4637,145.6857,10.6210,5.8426,-126.3042,-50.9425,-11.7079,181.3980,-232.1264,-22.2468,-73.7990,-35.0208
-3421.8750,-125.0944,-6.4531,-79.7650,-53.9809,-207.9870,-119.7400,-117.2089,60.4993,148.8721,184.6087,46.7413,78.0056,-163.1421,23.6806,62.3218,109.0152,16.1372,-56.5661,32.8653,-72.2580
-3414.0625,68.1413,10.7470,126.4450,-105.3806,-112.0265,-59.0373,-21.7429,-61.5799,209.3592,24.5995,105.0336,27.2708,-177.8526,-63.6053,122.4594,59.7119,-106.5158,-38.7982,-87.3735,-53.3838
-3406.2500,59.8789,2.4579,38.1619,-42.3020,-164.5317,74.1639,-108.7409,-1.1578,49.3159,-24.9354,15.8729,50.0445,-230.0524,31.5948,-1.9201,155.9021,-78.7078,128.4977,-166.1528,118.5892
-3398.4375,139.7607,-57.6740,130.0284,-66.0914,-145.8717,-16.5085,-90.5761,-164.6072,31.4077,-78.3376,217.9365,-6.0186,-100.0796,12.9433,127.8454,29.2129,38.2595,-1.0692,-48.7819,-14.2662
-3390.6250,136.1717,8.7066,161.4235,-103.4009,-5.6756,53.2892,88.1337,-131.5805,63.9942,-155.2824,100.5640,25.4330,-32.5903,-64.2274,49.1070,24.9992,-175.3031,136.8597,-260.9466,128.1051
-3382.8125,-44.7696,72.7662,42.4621,-3.0679,-122.8210,9.7147,-29.4929,-174.9163,20.1940,-87.6086,92.8896,54.5650,69.5532,1.2560,42.0027,-17.5698,64.7745,60.4506,-160.4847,49.3621
-3375.0000,171.9110,114.4350,240.1134,74.8414,-37.3469,-123.2977,20.5085,-307.6922,70.9798,-257.3701,177.8973,-5.6920,82.3239,-96.6681,129.5089,-77.5600,143.4483,-73.3818,-223.4294,-82.4877
-3367.1875,107.4105,225.9209,165.5762,187.5271,-74.0467,-121.5336,-52.6476,-269.6823,-37.4415,-256.3720,-7.2453,103.8686,-27.0911,-21.8044,-16.1947,33.2351,184.8816,73.5998,-321.6176,67.3244
-3359.3750,20.6581,245.1791,116.7825,207.9406,-49.9889,-279.0530,-102.0414,-352.9509,-49.1302,-155.6473,165.4322,92.2024,34.2634,2.8143,82.8468,-50.2372,346.0700,-151.6796,-126.0651,-163.9171
-3351.5625,164.1812,177.6965,155.2657,141.5761,62.3555,-239.3541,47.8557,-240.0039,64.4194,-79.7092,19.4315,57.7961,-1.1108,-68.3369,11.1469,26.5212,33.4820,-78.7188,-296.2927,-90.4517
-3343.7500,89.0947,138.6285,-73.8549,102.6000,-56.8865,-210.2704,-107.8332,-173.6676,-16.6496,95.6086,-28.1284,121.8157,-46.0788,32.9083,3.8326,91.6760,135.2766,-117.3402,-124.1490,-136.8502
-3335.9375,198.7655,36.3201,43.7858,1.3498,-13.3579,-311.4719,10.2484,-238.6158,102.0236,-5.3522,90.1400,56.5954,-39.2721,3.8955,122.2804,101.5537,68.8210,-219.2326,-50.2561,-241.4960
-3328.1250,47.9592,25.5296,-48.0585,-77.4275,-68.2978,-182.2011,29.8730,-72.0797,157.1852,52.1547,-75.0449,110.8887,-166.9489,96.3709,31.2167,230.9229,-116.1785,-18.6085,-164.9077,-40.9386
-3320.3125,-94.0067,-9.3924,-155.0647,-77.3740,-175.3753,-142.1074,-114.6482,-104.7126,124.1661,165.4956,-0.3218,151.0540,-163.7585,172.7085,106.9955,198.1344,58.6730,-124.1361,46.2833,-150.8761
-3312.5000,-34.8619,-21.2194,-53.9526,-87.2523,-111.3146,-3.9338,-14.0318,-3.2614,189.2386,157.9000,-119.4303,68.3287,-209.4447,90.1344,61.8812,153.4255,-91.4020,-29.5785,-33.4346,-43.6187
-3304.6875,-212.2791,11.4088,-205.4012,-17.7131,-225.7828,103.6995,-163.9298,104.6534,112.7394,227.7403,-160.0618,138.0689,-250.6785,123.0129,-50.8013,113.1600,81.9385,3.4510,141.2808,-2.4487
-3296.8750,-91.1020,-77.3550,-33.2489,-36.5964,-127.6265,56.9198,-64.2044,21.1472,212.8223,145.1550,85.9716,53.4167,-188.2912,2.4902,12.1171,-6.5355,169.8845,-224.9324,158.6047,-226.5656
-3289.0625,11.9958,-9.2025,-41.1764,-2.6014,-171.5263,160.0352,-35.5367,125.5279,132.7835,27.4289,-33.0462,119.6758,-231.9904,30.8550,-105.0834,96.6504,-7.3041,-51.4021,-87.2106,-52.9092
-3281.2500,-72.3596,47.5178,-91.5599,89.9273,-258.8665,73.6971,-195.3191,1.4388,-28.7419,14.2285,136.5348,141.5126,-136.1296,127.7739,-9.7481,-27.6275,226.0615,-135.3103,39.5198,-142.5502
-3273.4375,120.4062,99.3438,148.1775,107.5347,-202.0745,-15.5637,-64.9674,-87.5821,-7.1655,-37.9037,157.2754,88.4539,-43.1475,0.7774,48.6917,-42.8352,67.5152,-118.1269,-223.6626,-129.0985
-3265.6250,11.6224,201.6379,101.3621,175.5833,-358.8124,-23.3817,-183.1288,-95.1658,20.8551,63.3896,73.4972,152.8644,-88.7103,28.2231,-33.4339,22.3924,135.3938,-85.4712,-261.4330,-102.2049
-3257.8125,131.7350,180.8497,234.4484,155.5233,-263.6381,-221.3256,-161.3802,-255.8810,116.7510,50.5597,242.6846,64.1947,6.6477,-97.4305,135.3409,-28.5021,220.1878,-316.9269,-175.3080,-340.1246
-3250.0000,148.9742,163.1804,174.6637,138.5444,-101.3321,-169.1908,37.5050,-129.5238,58.7342,-8.2126,73.0295,42.6412,21.1188,-154.9946,3.2124,60.6816,-7.9464,-53.2788,-368.1244,-66.0685
-3242.1875,-73.1871,47.1359,-20.5293,128.1526,-40.4246,-216.4682,-9.9996,-176.5852,-61.6978,92.5938,99.0130,68.7088,84.1960,-19.9564,-7.3223,50.4522,192.5159,-64.0211,-132.3578,-74.3715
-3234.3750,31.8781,-58.6972,133.4908,57.9381,186.7015,-282.5747,144.7192,-242.4822,-17.9349,99.5735,142.2638,-35.0117,127.4932,-123.7286,73.3547,57.3927,52.1760,-63.5827,-202.3997,-70.9813
-3226.5625,-87.5912,-38.0618,38.9646,45.1579,166.2900,-192.2388,87.9127,-114.9280,-1.7405,189.9791,-62.0060,17.7390,-3.7616,-70.0474,-20.5398,111.7781,3.2502,133.3267,-250.0267,129.9979
-3218.7500,-64.1580,-119.4982,70.3290,33.2682,124.7776,-198.0264,83.0021,-157.4966,30.3346,112.2716,79.6828,-60.5821,64.8920,-75.4521,122.4584,-3.9540,133.2351,-18.8782,-50.7605,-19.4406
-3210.9375,9.2475,-116.9588,143.6664,2.3164,161.2422,-49.8903,194.0727,-46.1405,-5.6388,2.4871,-30.6309,-60.9393,-8.4993,-112.9104,49.4005,107.2436,-109.8550,160.8646,-257.5800,167.2726
-3203.1250,-142.6505,-23.6935,-19.3018,-9.9436,-75.5835,8.9340,-5.1470,-24.0996,-20.9314,134.3825,-8.2191,-2.5687,-97.1832,56.3343,34.0270,129.1311,19.7557,113.3120,-93.7168,108.9496
-3195.3125,32.9709,13.0802,134.2459,-148.7254,-31.8746,15.2254,38.1600,-90.5988,96.2710,30.7447,107.7544,-32.6915,-91.3424,62.0727,151.1632,62.4835,-120.1240,-60.7689,-91.3514,-74.3990
-3187.5000,-39.5378,45.7126,49.6548,-149.6825,-189.2781,189.3527,-80.6460,46.7458,-23.6863,94.9268,-12.3934,104.0450,-174.6397,162.6577,-5.8691,126.6770,-156.1881,113.0165,-198.1705,98.9068
-3179.6875,-114.9980,-28.5882,86.0986,-49.6031,-262.6207,153.5207,-227.4036,-99.8762,-23.6178,132.1379,171.5529,103.8531,-101.8707,199.3062,68.1423,16.9046,84.8047,-68.1537,-26.9364,-84.1151
-3171.8750,25.1277,-100.3144,196.1166,21.0021,-117.3785,190.2230,-44.5777,-62.9755,-24.0107,21.8637,98.1010,66.2179,-65.5306,87.4921,30.7022,53.6557,-91.6746,37.2168,-308.1783,30.6927
-3164.0625,-81.5471,-65.8117,7.3348,125.7949,-230.9222,223.1245,-194.5431,-65.8796,-137.2317,54.7767,56.8719,135.7998,-32.9825,156.8798,-10.5561,49.5985,119.0280,71.8078,-238.2460,64.2776
-3156.2500,73.4254,-16.6504,213.2098,140.2233,-172.8033,98.6628,-135.8514,-227.1550,-41.8121,-32.6773,190.3482,85.0360,100.2378,68.9186,122.8356,-74.8295,98.3867,-89.9623,-294.6578,-103.8600
-3148.4375,38.5131,159.6189,207.1978,105.7332,-177.5583,129.2985,-104.0281,-85.3374,-84.2955,-39.0572,36.9544,115.3820,57.5669,63.0532,6.3139,-7.1682,-111.1899,86.3815,-434.0014,73.1660
-3140.6250,6.2903,163.6073,139.8753,73.9289,-207.6149,26.6242,-206.5045,-151.8344,-187.0972,5.2567,154.3048,159.4534,174.6085,105.8992,86.4865,-73.8213,66.9357,-86.5792,-219.6505,-107.0107
-3132.8125,160.0550,106.5686,227.5280,87.0527,-9.6996,40.8750,-45.0077,-100.4109,-245.9508,-127.5038,96.6608,137.4848,189.6127,10.6841,64.6155,-95.5540,-96.0052,-2.6061,-346.3700,-11.1883
-3125.0000,-70.0637,87.6652,18.2780,209.2667,-71.6871,90.2200,-216.4003,22.1062,-381.7142,-41.1771,-38.8640,222.6411,90.7090,95.5767,-69.1769,-10.1973,97.1310,119.4887,-224.0237,120.6986
-3117.1875,49.1331,101.0888,39.3329,258.7741,22.6220,-72.1561,-195.4991,-103.1145,-286.1835,-93.5628,92.9603,134.1103,112.1125,5.7812,-11.6675,-98.5669,215.5878,-8.1332,-70.3761,-6.5982
-3109.3750,87.2598,210.4351,-33.6852,227.1742,133.8529,-34.6468,-9.6786,45.5491,-248.7596,-93.0813,-163.2841,97.4946,39.4214,-30.1231,-157.2695,-98.0485,-26.0797,242.1493,-170.8646,253.4749
-3101.5625,-48.1130,110.3117,-209.2120,162.0713,142.5812,-62.6486,-37.3716,16.6967,-203.8662,-47.1096,-117.0029,69.4088,121.2307,51.4905,-113.3876,-199.0350,119.7657,176.9325,150.1368,188.7141
-3093.7500,64.0410,-23.2919,-51.2226,63.4547,337.8269,-14.1794,195.4497,66.3141,-192.4784,-145.6572,-105.1759,-29.1691,132.5571,-47.3957,-101.0008,-224.5479,-49.8861,184.1942,121.6323,210.2834
-3085.9375,-82.8970,-29.9686,-138.3343,91.7318,213.9884,194.1748,72.1870,200.8309,-315.1976,-122.3099,-228.4411,68.1744,45.7870,49.6208,-223.7342,-127.1696,-20.6579,283.3669,115.9956,315.6074
-3078.1250,-56.0357,-73.8306,-66.6477,13.8017,248.9566,229.3060,70.7236,88.1275,-207.1278,-160.1751,-81.8649,-6.6691,80.8352,11.4473,-79.6690,-239.0119,76.3942,28.3195,319.1663,60.0995
-3070.3125,-48.6364,-65.1840,-98.4382,-154.6453,254.4561,380.9230,223.7915,240.9093,-54.5673,-118.5744,-223.7587,-75.0063,49.3952,15.7659,-111.1115,-123.3696,-232.0803,106.7754,150.8167,134.6281
-3062.5000,-166.1836,-6.4617,-222.1855,-166.0488,57.0067,367.5856,26.9105,190.7395,-67.9878,52.0710,-125.5876,-51.2746,110.0100,150.1436,-87.5261,-99.6872,-67.5065,-80.7096,280.5137,-69.8169
-3054.6875,103.5896,-17.4187,-10.6204,-213.1642,121.8691,249.5314,166.3410,108.8490,-3.1204,-103.0002,-23.0720,-97.2441,174.9371,103.8224,14.3603,-144.7307,-184.6286,-197.9133,127.5215,-192.9420
