Time,Fp1,Fp2,F3,F4,C3,C4,P3,P4,O1,O2,F7,F8,T7,T8,P7,P8,Fz,Cz,Pz,ref
-4000.0000,-11.3029,6.1708,-42.9021,-21.2510,-30.7588,-65.2435,-50.8554,-33.5912,50.1510,-0.8163,35.3429,-18.4860,81.6421,22.0845,101.4570,0.9943,7.3425,-88.7128,28.6975,-37.0391
-3992.1875,45.1794,-76.1275,45.0725,71.0208,94.4890,22.4299,221.1240,54.6021,-7.3814,-94.2334,-95.5963,13.0676,-11.4794,-35.9370,-28.2601,-56.4028,-145.7903,-31.4454,-124.1584,125.0055
-3984.3750,-197.6030,-73.6867,-209.2052,2.0487,-50.5134,60.8592,-34.1401,19.5539,69.8199,17.0978,-202.7953,18.9443,-7.8533,77.8000,12.7603,92.9610,-3.1762,179.5902,88.7269,126.8276
-3976.5625,-43.4495,-25.3065,-76.5400,-123.9889,120.4294,47.2359,246.5323,43.4480,388.9924,4.3840,-105.0436,-55.3693,17.7344,-45.5096,1.7518,-30.7230,-128.5959,-18.4235,-37.4050,-70.4201
-3968.7500,-160.1283,33.2265,-136.7068,-100.8787,59.5424,133.7542,222.3935,167.5012,35.3419,54.8229,-201.1475,26.8318,-114.5341,5.3163,-130.1155,56.7275,-104.8808,179.6977,-13.4150,163.4794
-3960.9375,-76.2757,12.3167,-187.3399,-123.2123,9.1871,156.8258,24.7821,43.1066,-123.7821,-31.1813,-140.7069,10.0019,-16.2510,66.7049,42.5699,80.7395,50.3996,122.3845,213.1270,-34.0579
-3953.1250,91.0958,-31.1083,-54.4604,9.9529,106.3466,179.3912,232.6771,103.2040,-25.4011,-44.6963,-188.7546,27.2503,-101.4451,-19.4117,-116.2251,-5.7583,-98.8193,42.5542,-76.8325,62.8848
-3945.3125,-120.7449,3.2578,-204.7792,113.9235,-117.6981,174.7625,-65.6132,62.1172,-102.2229,61.5978,-193.0214,94.6534,-140.8513,87.2746,-155.2394,100.5498,76.7497,180.5390,29.0010,131.6547
-3937.5000,243.2942,191.5250,72.7777,90.7877,50.1468,85.0374,-9.0222,-63.0755,-116.1383,-100.2054,-24.3985,71.6968,-118.3527,-74.1309,-95.3410,-61.2348,54.2430,-19.5649,-29.2321,-67.6894
-3929.6875,232.1582,357.5832,124.1577,150.4500,-8.1832,99.1168,-66.5948,-11.4620,-246.2393,-121.2172,-117.9779,175.5103,-284.0491,-57.7474,-297.6493,-45.2348,8.5207,109.1181,-72.6942,167.7607
-3921.8750,141.2526,301.8817,73.7747,94.3641,-95.2743,48.4533,-300.9246,-98.5857,-223.1047,-97.9616,-57.3150,145.4087,-223.5075,38.8970,-199.7202,14.0294,235.0508,123.0750,187.0938,-29.5190
-3914.0625,349.5017,228.3224,291.5488,161.4360,122.7977,44.9361,-10.1032,-64.5578,-224.8030,-174.5497,13.5100,120.1787,-187.8082,-73.3167,-274.6303,-135.5612,126.7128,-56.8250,-95.9547,-32.6745
-3906.2500,232.4962,252.5075,162.0838,184.2828,-6.3632,26.1807,-212.4993,-82.7623,-277.7580,-191.3930,-40.9339,147.4836,-203.3708,-17.7849,-252.8073,-43.4105,256.1045,71.0355,-37.2791,95.9407
-3898.4375,354.0709,233.2864,301.1998,94.7212,133.0669,-55.9692,-111.3122,-201.3678,-27.1267,-236.6330,99.2153,32.9077,-100.3291,-171.6454,-75.3736,-160.6484,237.1237,-125.4860,15.0150,-169.8456
-3890.6250,215.1211,129.5135,292.7910,167.5945,87.9667,9.3375,65.3560,-25.5153,-34.0467,-133.4185,18.8242,60.5418,-180.8360,-178.0702,-228.4978,-167.4429,28.5766,-19.5680,-88.2555,42.8063
-3882.8125,67.8419,53.4396,180.0677,90.1681,-60.4457,43.3586,-195.2799,-63.9436,-145.2769,-61.4922,54.1230,18.2076,-107.6617,-106.7868,-81.9389,-59.5252,198.7321,79.0814,152.1749,-69.8195
-3875.0000,284.4636,94.2581,410.2414,95.6322,169.0450,52.2820,71.9915,-18.4762,-208.5907,-125.6662,137.3264,26.0831,-96.5756,-170.5998,-144.4630,-197.7113,28.7986,-57.3730,-122.4853,-134.5736
-3867.1875,65.8882,156.8632,208.2315,122.9033,4.3507,71.0158,-92.8987,37.8102,-298.1000,-33.0405,10.3189,95.6415,-221.6897,-77.6170,-232.2054,-31.1012,91.6442,144.9742,-59.3756,68.4863
-3859.3750,82.9307,140.1070,162.8482,69.8191,-40.7109,62.4092,-138.1631,-44.2430,-158.9794,-40.7428,112.9531,41.2991,-119.1432,-84.9700,-55.2944,-75.8227,110.1507,20.9983,64.4043,-160.7982
-3851.5625,53.3954,109.7497,155.8764,180.1249,-10.3546,92.2048,39.0064,60.1106,-199.4560,-119.0459,-3.0057,95.7051,-124.1782,-89.9320,-169.9801,-45.1565,-60.9555,24.4078,-70.4338,90.2995
-3843.7500,-171.0016,-9.4595,-78.9442,131.5849,-171.8486,76.1577,-269.6618,7.6260,-176.7943,-25.1911,-54.8294,73.0142,-27.0784,79.2595,0.4568,124.6678,102.0856,115.9930,162.8663,111.5733
-3835.9375,48.1442,-35.1309,81.7818,34.5890,26.2065,-19.3323,38.2083,22.6832,-14.5723,-8.7828,34.9043,0.3360,26.5787,21.0077,54.4540,29.0457,-64.3102,-122.8631,-73.2721,-20.6239
-3828.1250,-140.7015,21.1827,-88.4684,55.5959,-143.7121,30.1844,51.1170,183.7552,-36.3481,151.6210,-134.3547,63.7864,-104.7650,71.7468,-113.5623,116.4155,-77.7295,38.2796,-121.4431,176.1885
-3820.3125,-102.0804,24.9841,-185.2347,-10.9028,-166.1365,44.2112,-43.4868,88.3373,53.3614,166.5386,-82.1151,14.2307,-52.6065,50.9951,12.9178,95.3031,32.3601,5.9542,163.8967,-66.4865
-3812.5000,9.8517,33.0879,-37.6842,101.8857,-55.2336,81.5421,251.2333,125.2234,55.3731,57.7602,-153.5635,73.0391,-124.1404,15.5347,-95.2965,22.4835,-171.2565,-23.0760,-109.4789,81.1179
-3804.6875,-184.2237,48.1942,-243.1345,46.6837,-223.3287,57.8907,6.9719,103.1389,107.3652,108.9916,-176.0253,75.7728,-180.6882,104.0790,-79.5428,147.6660,20.1167,132.9190,48.1223,131.7461
-3796.8750,67.4867,55.0857,-8.7904,-16.7224,-25.6265,-0.9511,205.4929,6.8519,123.1594,13.0203,-14.6860,3.2899,-91.4314,-27.5688,-25.9836,14.6537,-77.6900,-108.2740,-15.4544,-37.8416
-3789.0625,-39.9400,17.8168,-61.5665,15.7296,-78.0454,20.0671,152.9010,138.4244,-75.1940,35.8926,-138.4951,62.8179,-142.3273,67.6218,-149.5924,109.4736,-149.6626,99.3814,-87.2177,240.4207
-3781.2500,-95.3513,-1.4114,-183.3047,-143.7663,-126.4276,7.1501,-5.6534,17.0571,24.4896,23.8322,-77.2639,-12.2382,-5.1836,92.8630,60.8345,98.3534,-28.5743,255.1237,104.0702,44.7489
-3773.4375,-4.6514,-86.5547,-16.9286,-123.1656,114.2999,64.3438,308.9062,110.7957,119.2749,7.8736,-92.9232,-40.3614,-56.9310,-32.8034,-63.6380,-27.6727,-218.3887,239.9606,-120.5430,65.1538
-3765.6250,-215.8971,-192.6558,-168.4976,-160.5105,-0.9229,169.5964,46.5434,143.6077,-31.9098,150.9723,-206.5368,-38.3071,-132.6333,73.5859,-103.0897,115.3587,-44.1743,448.8574,54.8705,133.6377
-3757.8125,-3.4594,-261.0628,-8.3820,-158.1644,197.5376,145.5495,170.8609,84.1154,93.6036,17.7817,-45.4514,-95.1412,-44.6216,14.6841,-13.8370,-17.8990,-76.2466,204.4695,-11.9863,-110.1811
-3750.0000,-102.5536,-254.0245,-12.7994,-81.3719,193.4678,141.9588,314.6646,153.0817,17.5858,51.0378,-84.9234,-42.4553,-120.1560,11.2193,-199.1442,15.2826,-139.8914,279.5263,-146.4212,106.4450
-3742.1875,-191.0277,-202.3367,-134.5857,-135.9179,146.0358,93.0388,45.1146,-5.2863,-65.7991,39.9512,-22.7694,-61.0450,-57.0529,37.4140,-25.8284,41.1256,89.1207,331.2730,187.7915,-52.2539
-3734.3750,75.5522,-111.6096,144.6891,-80.4197,350.6714,77.1813,324.6177,-20.6050,-80.1369,-122.0867,-0.5592,-55.8213,-33.8899,-124.3524,-76.4598,-120.9861,-66.8095,139.0774,-72.9401,-67.9252
-3726.5625,-198.6089,-139.6458,-4.7597,-38.6647,165.5819,112.5824,139.4082,15.3406,-153.2402,-48.8726,-74.1050,-11.6939,-33.4790,-14.8804,-75.8703,-11.8569,46.4893,286.1413,-99.4557,114.6732
-3718.7500,-98.5447,-215.4379,76.0297,-113.6641,209.7338,45.2386,145.4329,-124.4604,110.8989,-115.3979,43.5978,-119.1948,122.1883,-81.1461,153.9671,-78.4667,77.0464,104.4795,1.2959,-136.4774
-3710.9375,-117.3610,-234.1326,118.9385,-28.5719,217.0119,14.9969,373.5921,29.8461,119.1501,2.1760,-22.5966,-71.4992,20.9625,-73.3225,-21.0973,-70.9883,-118.3185,83.9084,-193.8653,54.4578
-3703.1250,-167.5510,-178.1856,-41.5105,-78.8254,19.9390,-72.5816,65.4047,-20.1784,70.0397,136.4146,-35.1577,-63.9865,45.3817,61.1556,77.4626,63.1512,77.9566,68.0243,37.6155,4.0711
-3695.3125,151.9514,-34.5453,184.7400,-39.3802,172.5684,-177.4466,217.9201,-125.5033,76.6247,-41.6480,80.9875,-67.6995,126.5115,-79.6697,84.7270,-78.0097,-58.0583,-209.1430,-98.2030,-27.6341
-3687.5000,-32.5891,-7.9618,53.9658,23.0249,-30.8278,-197.3457,87.4337,-107.8648,21.1456,13.2328,-10.9240,-9.4039,-2.4151,-24.5579,-7.0830,13.7695,4.8567,27.6455,-71.1045,209.6253
-3679.6875,34.2002,-11.0288,63.5268,-51.2259,-57.8858,-188.8874,24.2824,-171.8717,216.0086,22.4713,72.4989,-67.9134,9.0086,-51.0868,78.4466,-14.0888,107.1335,-47.1853,102.3688,-74.7554
-3671.8750,165.8106,-20.3064,194.9096,45.3180,36.8733,-57.6237,229.9563,-3.0798,54.6809,44.5039,-16.2728,9.4635,-115.7577,-29.8278,-156.2248,-29.1560,-77.8034,-57.2252,-151.3509,56.6483
-3664.0625,-46.7968,-125.7931,9.0951,-27.3229,-75.5700,14.4570,-29.5523,32.5337,-93.8767,116.3379,-54.2545,-8.8721,-78.7374,80.2343,-83.1289,80.5871,97.0476,116.5722,92.7160,54.8828
-3656.2500,135.1329,-226.7446,169.8249,-91.4114,122.5374,28.1046,168.4790,46.6994,105.1120,20.7231,34.3191,-120.5748,10.8387,-89.1507,6.5184,-89.1171,-1.5365,-54.0560,-5.6609,-115.3486
-3648.4375,11.5273,-138.2591,30.0311,-73.0419,20.1239,72.2245,103.0053,164.3337,-33.4482,28.5486,-67.6625,-41.1219,-54.1400,-8.0935,-94.4130,-8.3793,-19.6946,103.7698,-92.6170,112.8744
-3640.6250,35.4388,-80.2362,-9.2292,-121.1250,18.2468,-4.0870,-119.9276,-21.4591,2.5348,-10.0584,77.8849,-74.2466,92.4225,27.5253,125.1878,26.9237,109.7029,-14.8160,70.9886,-110.3368
-3632.8125,130.7596,-89.8199,158.9250,-60.8157,223.7868,-19.9835,121.5610,0.1554,-12.0699,-25.2633,61.8349,-52.3358,41.3918,-24.4635,1.1824,-62.3770,-39.5067,-95.0058,-219.0141,20.8292
-3625.0000,-112.9215,-87.4146,-63.9090,-23.4962,36.3411,-22.8639,-174.9240,-39.2101,-123.7002,82.5348,22.7726,-20.4154,3.3457,46.5487,-0.8599,45.3310,103.2720,82.8333,28.9516,128.0237
-3617.1875,92.6379,-127.7664,49.5010,6.0731,115.1461,-55.4839,-60.1776,-145.3270,27.9028,-23.4124,137.9617,-80.4973,119.5512,-58.1783,115.3432,-59.7039,28.3188,-99.0519,25.1837,-88.5403
-3609.3750,-12.6320,-162.9707,1.0938,75.8037,29.1327,-29.9432,1.7583,26.7086,53.6509,38.7719,16.3025,-27.4660,35.9087,4.2322,-41.3197,38.3989,-77.5032,-28.7868,-150.4656,157.0450
-3601.5625,-128.8243,-173.0723,-111.2148,-73.3487,-81.7798,-69.2916,-183.2167,-10.1533,200.4664,112.0490,89.7335,-87.1149,110.3643,76.7460,106.0933,74.6130,89.7835,-39.3864,50.9881,-28.2430
-3593.7500,35.4932,-114.6758,97.9913,-50.0075,90.8251,-81.1358,173.3174,51.4725,153.7927,63.8314,115.6753,-73.7335,26.3271,-44.2513,-14.9938,-83.6800,-62.4298,-157.4816,-136.0562,-40.0536
-3585.9375,-154.8901,-92.9803,-106.4850,40.6356,-113.2539,7.3308,-104.8137,104.4196,-160.5752,152.9296,20.9073,20.1513,-103.4199,82.0424,-107.8136,42.3264,133.6312,73.7396,26.1609,85.4543
-3578.1250,-27.1412,-106.1380,0.1777,63.4243,-43.1917,41.9566,-107.8157,28.5209,-52.8005,78.1883,92.2898,-7.6819,-31.0126,43.4953,1.5054,3.4964,157.8512,-79.8640,49.5423,-137.8901
-3570.3125,-29.1699,-143.1028,23.0677,96.4199,-19.9075,101.7956,62.4187,161.8340,-64.8416,64.6416,5.8687,20.7175,-115.3973,30.1377,-156.9833,26.8566,-20.7536,-12.2688,-127.8993,105.9590
-3562.5000,-175.7731,-220.6233,-89.6039,-16.1265,-95.1792,62.1012,-159.8880,86.6200,-29.4647,173.5662,40.8624,-51.4082,-43.3361,65.2385,24.9540,61.6838,114.0823,85.8174,112.1016,-6.7138
-3554.6875,-26.5783,-211.3451,109.5227,-76.8753,140.3534,77.2223,185.6088,175.2124,96.7250,151.3034,56.6309,-108.7960,9.5314,-102.8610,-32.3068,-69.6846,-87.2833,-45.2807,-124.0970,-102.6064
-3546.8750,-287.8273,-191.5136,-62.7877,-23.0573,43.4471,162.9157,51.6929,262.3757,-74.5349,201.5904,-114.0772,-16.0030,-87.0614,20.5803,-128.0557,53.4965,2.8742,185.1951,-34.7856,57.0690
-3539.0625,-170.4590,-214.0376,-36.4639,-44.5773,143.1808,189.2846,40.4085,141.1969,62.8387,43.5376,-51.1518,-63.0104,13.9920,-26.3195,8.8327,-30.6585,86.6863,92.3619,85.1895,-211.6005
-3531.2500,-99.5765,-212.0640,66.3867,61.4064,246.4431,182.1712,254.6517,207.5223,130.7073,73.9872,-131.7157,-35.8130,-64.4508,-106.7336,-106.7956,-74.3187,-88.0205,57.0318,-195.3598,-34.7882
-3523.4375,-246.7597,-115.1397,-86.8155,-16.6492,19.6543,102.0308,-82.1458,164.8183,88.4945,178.4020,-137.3527,-40.4837,4.0378,-38.1836,35.4872,29.9864,80.2106,154.6949,79.0230,-78.0004
-3515.6250,75.5417,-37.7208,145.4782,-44.2005,179.3708,40.4130,113.5375,103.6186,100.7685,7.3273,22.5056,-54.2613,54.0340,-100.1280,48.2684,-105.1976,-53.0548,-85.1160,-54.0854,-176.7345
-3507.8125,-73.7012,22.1412,86.2420,15.7198,83.5631,17.2686,91.7064,118.8896,-103.5242,21.7024,-37.1861,33.2534,-40.5232,-11.6354,-82.5360,20.0608,-62.8905,46.5326,-97.7885,94.9911
-3500.0000,-2.4762,25.4963,61.4944,-51.8493,22.2455,-80.3567,-43.6442,-16.3349,-55.3381,71.5881,122.6177,-42.7591,120.4193,-35.6370,114.1464,-4.1697,10.7864,-92.2835,45.0111,-113.7701
-3492.1875,80.6650,37.7447,103.6757,66.4812,65.8505,-38.0803,109.9295,27.3389,-11.2444,41.3630,56.3346,6.7390,91.2714,-65.7504,11.7251,-71.5105,-187.6458,-149.2012,-152.2975,39.3447
-3484.3750,-147.1532,56.0441,-136.0817,49.8763,-211.4898,15.2606,-203.4250,7.0780,-31.1306,21.1820,-0.9071,31.0833,73.1645,25.1874,66.3165,56.2015,5.9589,78.9588,111.4281,92.5373
-3476.5625,59.2162,86.5457,13.3516,9.4723,-97.6385,55.8111,-89.5939,-25.9845,84.1750,-47.7907,114.0567,-8.7264,151.2593,-43.6708,144.0964,-49.8731,-103.2186,-101.6636,-33.6315,-88.0821
-3468.7500,-81.8454,121.5979,-70.6422,44.6323,-181.2135,117.9225,-100.1720,110.5101,-72.9684,50.7962,65.5698,73.7308,30.8987,55.0108,-48.6076,48.5936,-172.8710,38.2608,-138.1801,157.8490
-3460.9375,-102.8326,-4.2532,-120.5455,-45.1015,-229.7011,106.1509,-295.6614,99.1182,-85.0395,113.4874,165.1729,-8.9021,94.6353,80.7960,86.7687,74.1736,-17.4230,18.3223,123.3762,-38.1010
-3453.1250,-10.4502,-88.7640,82.9216,-59.4855,-26.8260,52.7374,91.2095,193.0650,82.2412,23.5159,148.1423,-47.6603,78.7368,-9.0739,34.4932,-15.9037,-241.6270,-136.2615,-101.7191,18.2775
-3445.3125,-249.9141,-81.1286,-134.4487,-86.7065,-170.7919,17.4900,-51.7476,159.1775,11.6544,99.6972,3.2586,-26.8231,82.9801,67.2050,37.3352,97.1732,-57.6995,82.3221,82.3027,130.8312
-3437.5000,-23.4890,-65.5963,-34.9240,-106.0289,3.1330,-28.8441,48.1716,76.1876,2.9554,90.7823,68.2813,-83.9352,148.1279,-51.6160,139.0652,-22.8401,-77.8605,-78.1692,98.2435,-99.7193
-3429.6875,-115.0902,-17.1089,-66.4227,47.6018,7.0302,48.7822,126.0718,117.1615,-138.8012,57.8144,-73.7309,33.5899,6.2270,-10.5056,-39.2815,-17.9123,-134.1075,76.2892,-62.8938,124.6765
-3421.8750,-194.1717,43.9284,-216.3868,38.7837,-142.5385,45.9772,-206.4892,-32.2925,5.9657,19.4249,-40.1967,47.5859,78.8661,97.1677,105.8916,52.5881,32.1835,102.3398,173.5112,-25.3534
-3414.0625,53.0964,46.3124,-30.9947,41.3170,8.2557,12.5351,89.2979,43.6004,156.0852,22.3893,-0.3020,14.5790,82.8625,-9.8130,-0.5900,-17.5634,-176.1798,-107.2468,-105.7305,-23.0573
-3406.2500,-168.8359,34.5004,-198.7870,-4.3300,-159.1315,27.9115,-41.0884,96.3114,-85.0102,111.1472,-94.6104,52.8291,26.6444,115.9882,-20.3096,145.0844,-81.7661,91.9861,23.7941,176.0589
-3398.4375,6.9635,35.4400,-78.8471,-39.2137,-112.7838,-34.9419,-30.7512,-39.2318,-74.3810,-61.3344,25.8256,-2.9436,149.1705,53.5418,210.7036,45.4989,-45.5876,-117.9919,201.0763,-34.0723
-3390.6250,93.1809,86.7801,2.5170,13.3113,-105.0133,-101.3836,86.0089,41.6241,-66.3503,-53.4178,-39.3289,32.3296,83.0977,25.4780,35.1030,17.3023,-134.0247,-135.5655,-63.2719,193.1826
-3382.8125,-64.4342,33.3262,-159.9260,-5.9499,-266.0473,-78.6101,-221.0281,-10.3061,-8.1419,41.7122,-18.2935,4.7225,107.2137,83.6234,131.6649,75.3171,58.7278,-13.9039,94.5691,104.6623
-3375.0000,146.0958,34.0156,66.7778,29.9360,-38.9246,1.3285,6.0796,-2.0880,73.2020,-24.0099,62.9013,-14.8868,78.4835,-56.0836,28.3741,-64.5139,-81.3670,-119.0739,-116.4225,-35.7297
-3367.1875,-85.9626,48.1034,-36.0947,79.2352,-105.3760,117.6819,-97.3755,77.5435,-103.0768,-16.3426,-39.5059,69.2288,-22.8548,24.5990,-110.5542,16.0470,-31.0835,107.1683,-30.0509,154.2911
-3359.3750,2.3029,-3.4570,-42.6327,-7.1029,-73.4909,76.3994,-176.5027,-73.4741,75.9712,-95.3170,28.4301,-21.6589,120.1474,-17.3602,105.8485,-26.0275,57.5648,55.7977,163.6777,-108.3298
-3351.5625,78.1893,2.5944,67.4524,34.1705,73.0113,111.7270,80.9865,36.1050,38.6190,-95.7029,-83.0289,19.7787,9.7474,-54.7307,-79.1640,-99.5107,-113.1913,96.0257,-77.0138,37.6266
-3343.7500,-171.5796,103.0073,-120.1115,-5.1802,-40.1416,146.4311,-215.1727,34.0471,-147.4094,49.2623,-48.1510,54.4463,-28.3275,17.2502,-80.8714,45.3636,58.3976,267.6312,94.6164,-2.0422
-3335.9375,89.0933,118.8680,87.7743,-24.0728,205.1447,133.6026,-7.9094,-15.5650,-86.9922,-74.3153,86.1815,21.5326,-2.9521,-69.3191,-93.1327,-78.3058,4.4474,72.6995,-65.2901,-162.2803
-3328.1250,-44.6678,20.2857,47.2337,88.5905,127.9897,130.3379,-12.0651,54.3885,-200.0325,-113.3390,9.0617,75.4695,-78.0303,0.6541,-205.8665,-8.4304,11.0155,185.3131,-91.6723,91.0361
-3320.3125,25.0470,-50.7850,19.1743,17.7569,63.3125,28.5873,-149.7482,-120.1424,-80.5994,-141.8508,128.4323,-8.2085,41.3840,10.1395,-13.1224,-36.0325,151.0860,114.4634,117.4502,-121.1312
-3312.5000,147.4816,71.8442,180.8315,34.6248,188.3441,-30.4529,159.2720,-68.9767,7.5308,-163.6737,69.5247,27.9182,20.5061,-48.6858,-108.6844,-94.9430,-77.1530,-43.6880,-146.7418,-33.6205
-3304.6875,-95.0380,182.5215,-39.4527,-31.4388,-68.5699,-66.4295,-96.6470,-67.7455,-28.3155,21.5495,-2.3302,69.5943,-14.3379,100.5355,-33.2374,91.1955,67.6468,66.2324,-0.9077,40.9644
-3296.8750,147.7359,178.5020,113.5591,-34.2014,11.8039,-170.1052,56.7045,-134.2234,236.1145,-8.9207,77.1284,1.5880,67.1198,-3.9399,47.5062,-13.3526,-6.2407,-183.5283,-75.7515,-174.1622
-3289.0625,148.0323,178.9960,102.1003,36.5429,-72.3018,-181.2747,118.5823,-35.2010,40.0386,-19.8980,-7.9009,65.5399,-16.9269,58.0743,-73.2746,85.5873,-74.6537,-146.7938,-214.1337,108.2092
-3281.2500,168.2492,199.4460,54.5768,-12.7522,-192.4731,-227.4816,-184.6075,-155.2183,-153.0986,7.0856,56.0075,35.4963,83.9625,85.0422,99.8694,112.4908,155.8800,-127.0666,86.4215,-12.4493
-3273.4375,365.2236,185.6483,296.8062,43.7091,-24.8893,-205.9205,19.9476,-133.4970,-131.4947,-82.1874,114.6749,27.7083,33.6047,-40.2538,-25.2408,-12.8595,36.1645,-210.5767,-103.2709,8.6176
-3265.6250,131.4580,128.1132,159.2962,57.4442,-161.0464,-159.0914,-153.2326,-122.5140,-120.6846,-34.2211,-22.4138,67.8839,-64.5239,80.6980,-87.1394,71.0364,189.6838,49.1816,-19.7344,91.9568
-3257.8125,303.9805,124.8869,242.0707,-16.5196,32.0792,-149.9513,2.8556,-187.2380,35.4055,-134.9533,24.8003,-1.3882,18.6386,-20.0440,32.2516,-66.7557,186.5213,-95.7310,-22.8820,-193.4082
-3250.0000,251.6288,142.7623,214.9689,37.6214,114.3224,-30.7001,196.0704,-67.8613,-102.3927,-88.5876,-112.8745,59.2255,-81.1081,-47.7067,-141.2788,-57.4585,-5.5595,29.4480,-179.9614,36.3154
-3242.1875,63.7508,96.1358,23.3581,-9.7216,34.0466,36.0718,-68.2287,-110.9705,-146.7115,-21.7102,-83.0669,28.8351,-13.3818,-16.8649,-38.3400,9.3529,122.8563,158.1664,124.4572,-81.4355
-3234.3750,226.8728,83.5112,198.7442,13.9399,209.7648,100.8587,180.4557,-83.0828,28.9666,-67.8306,-55.2514,5.3963,-21.6617,-136.0282,-84.4063,-145.8347,-65.7232,40.8983,-99.1185,-164.2090
-3226.5625,10.2000,113.0936,38.3463,78.8145,49.6962,124.8600,20.3660,-21.9796,-95.1659,-6.7533,-141.2438,77.2432,-106.7645,-39.0050,-133.3090,-11.8260,-0.1226,246.8405,-104.5278,6.2293
-3218.7500,177.5522,70.7250,40.9834,0.7478,89.6670,91.9253,-49.7026,-128.8266,18.7250,-76.6167,8.8099,-13.0972,44.1668,-71.9262,53.8252,-44.7596,62.5448,63.8608,-41.8694,-248.2823
-3210.9375,190.2289,-22.3436,117.9457,83.9905,129.9600,95.2980,137.5437,-51.3844,58.9146,-36.2008,-60.8271,8.1733,-24.6093,-68.5599,-89.7518,-41.4076,-101.4919,6.1760,-239.9289,-24.5118
-3203.1250,-43.2057,-80.5071,-127.1905,27.1475,-77.8490,-1.4229,-107.3152,-75.0386,71.9946,87.1130,-47.5746,-2.3089,26.4907,91.7048,34.5362,81.8523,52.3690,54.4167,53.8949,-11.8133
-3195.3125,169.9077,-42.1103,65.2207,-5.1484,114.8857,-140.5959,158.3546,-103.1553,117.6228,-15.0181,-2.7595,-56.0439,109.1348,-46.4826,116.3703,-20.3342,-85.2056,-152.7883,-83.7200,-114.5834
-3187.5000,-34.5146,33.7445,-49.8937,36.0221,-36.9167,-145.3139,116.4990,-70.8157,1.6839,17.2902,-80.4891,22.3226,31.2109,21.7660,0.6273,47.9207,-43.3477,-6.5497,-77.9132,137.1046
-3179.6875,-16.0074,-16.4479,-56.0661,-13.8498,-42.7933,-151.0752,0.5580,-187.5297,-4.3358,-24.4486,23.7269,-21.4266,137.2202,52.9756,178.8250,6.1422,81.4710,-56.3324,117.8586,-89.2430
-3171.8750,104.4832,69.3214,100.7333,72.2292,78.2858,-29.8892,232.5649,-102.3026,-67.4059,-160.2475,34.9033,37.5787,75.1729,-46.8819,5.9707,-92.6981,-114.7622,-76.1761,-147.4286,31.3415
-3164.0625,-58.4723,82.6675,-105.9091,50.8738,-92.0977,-16.1472,-48.8790,-88.5216,-89.9442,-73.4896,11.6224,52.1018,52.6386,40.8024,19.6273,31.0165,39.5489,78.5441,75.8063,44.5026
-3156.2500,149.5179,9.9784,83.3960,-22.5284,97.4492,-47.4525,140.5919,-119.8018,209.4621,-104.7817,17.3008,-51.3704,96.0407,-100.5593,62.2231,-110.3172,-34.1703,-134.7771,3.0148,-134.4016
-3148.4375,-5.8609,29.8944,20.3265,33.6810,71.6076,0.8528,188.6860,1.5187,110.4562,-92.4852,-117.4144,24.5413,-37.9826,-51.3359,-72.6066,-61.0646,-48.3087,26.4965,-81.1996,97.2951
-3140.6250,31.2941,32.3739,-5.2140,-34.5509,83.2928,12.7222,-20.7009,-170.6064,10.9648,-192.6269,40.4153,-16.6876,46.5142,-40.5620,48.0924,-50.2487,164.1180,-6.6479,165.1439,-112.4417
-3132.8125,165.2242,25.6172,206.0034,29.9720,257.7295,4.3535,264.6519,-142.9910,38.2172,-200.0319,68.0115,-15.7261,1.7438,-160.0515,-71.4660,-169.6950,-52.7045,-82.0403,-86.7581,-48.4527
-3125.0000,-128.2862,49.4230,-69.2171,54.0627,55.7100,-14.4495,25.5600,-122.8198,57.0021,1.1035,-59.8484,32.0413,-51.5138,-31.0003,-88.5124,32.4042,5.0080,82.1400,41.8714,80.1089
-3117.1875,37.8931,144.9326,-34.7447,-61.1449,128.3763,-88.5450,135.1384,-161.9625,202.4736,-0.0672,-25.0028,-15.3198,93.9101,-69.2510,93.1344,-41.7898,-180.5550,-102.9590,67.2257,-105.6380
-3109.3750,-30.9494,111.3933,-154.2934,-128.3966,117.0104,-61.6862,270.6920,12.8353,80.8983,27.6991,-71.1926,2.4200,48.2618,-5.5764,-27.2858,57.9462,-353.1825,5.8839,-36.4918,177.5576
-3101.5625,-174.5556,-31.8890,-336.6007,-201.3940,-28.1177,-59.5763,-21.5245,-23.1179,120.5585,102.7185,3.8563,-70.3708,160.8301,69.3517,121.5206,133.9364,-180.5500,2.0073,277.0435,69.0241
-3093.7500,11.8545,-125.1530,-140.9031,-154.3914,57.7554,-83.4718,211.2483,25.9098,205.2258,40.7316,52.9195,-87.5635,136.3779,44.2695,59.3253,71.9208,-273.9032,-195.8798,77.5862,80.4669
-3085.9375,-181.7237,-37.4038,-279.1883,-137.3752,-153.3659,-111.3611,0.0342,35.9383,104.8702,87.7385,-47.0141,3.3311,-0.1067,200.1735,-4.8980,190.8956,-117.2653,-2.7609,199.1014,272.9290
-3078.1250,-45.6140,29.0535,-124.7919,-105.6549,-108.8096,-176.5453,-66.5260,-67.3415,111.1870,58.4461,70.7513,-29.1284,81.0864,98.7820,112.5736,125.5791,-14.8969,-145.9195,231.3363,23.0907
-3070.3125,-25.2680,14.7222,-37.1711,55.2762,-58.0409,-52.5287,58.1258,21.5700,15.6958,108.3389,-25.2763,35.6649,-51.5431,39.5679,-93.7671,66.4363,-100.3310,-55.8898,-65.2351,183.4364
-3062.5000,-121.0747,-47.7426,-131.6992,30.0729,-152.4372,-0.6580,-183.3880,-37.6659,30.0232,51.0779,26.5452,13.5934,-35.3618,91.1960,-42.2893,119.1435,84.0989,24.0087,154.0464,51.6546
-3054.6875,63.4793,-36.8462,103.1318,5.2187,45.5093,51.5664,88.4210,-21.5727,44.7005,-80.8484,115.7398,-10.0769,17.1491,-3.8375,10.5421,-12.8033,-117.1009,-176.7484,-11.3092,-43.7969
-3046.8750,-204.3438,12.6509,-39.4173,-16.0252,-59.9408,56.3931,-17.1556,92.1213,-208.0150,106.8162,10.5412,68.1757,-51.7735,146.7160,-96.0465,174.8366,-102.7129,14.0889,36.9007,180.3656
-3039.0625,-104.2825,-28.9457,-71.0786,-127.3718,-17.5162,25.1202,-85.8617,24.7071,-55.8356,150.3860,89.2406,-20.3638,28.1722,116.1668,19.2595,107.3811,-3.4014,-27.1556,137.0341,-71.5667
-3031.2500,-3.3949,-137.7278,66.0886,-24.9169,82.7161,89.6418,198.2433,126.0784,7.1567,29.7358,5.7480,-9.6426,-54.1044,32.3972,-173.6373,23.7048,-147.2872,4.3776,-112.0335,65.2811
-3023.4375,-208.8104,-131.7990,-111.0406,-19.7460,-58.3617,132.8667,-124.9542,96.1521,-23.1591,36.7824,-24.0541,13.7941,-83.7256,113.3205,-93.8698,104.7207,33.5372,186.6287,137.5908,34.8534
-3015.6250,75.5354,11.8860,47.5771,-15.8249,64.3017,108.8419,32.5699,33.9561,99.2686,-25.4306,24.9091,-6.0324,0.3748,-23.0162,-46.3514,5.4795,-68.8558,-56.3645,0.9861,-137.8450
-3007.8125,-38.6817,143.9803,-81.3709,82.5064,-64.6183,89.2187,-59.4820,88.1574,-103.9274,65.7404,-66.7181,112.6664,-128.1674,68.0270,-211.4570,96.6209,-41.8501,112.0319,-8.2424,99.8612
-3000.0000,28.0420,175.0315,-113.3761,43.7918,-96.6093,21.5484,-238.6205,-52.6969,-136.2154,34.8701,48.6083,64.2159,-11.7980,37.0208,-59.6235,65.7196,130.1322,38.3986,199.4983,-115.4690
-2992.1875,135.6981,142.9863,31.5374,151.9817,84.3002,56.7707,53.1335,18.3336,-65.5886,-41.1088,9.8522,77.8608,-51.5533,-76.1062,-171.8863,-47.3000,-78.9800,-29.3550,-150.8522,-7.9222
-2984.3750,-123.9423,59.6562,-242.8362,138.8797,-153.0993,75.6912,-221.4101,0.0622,-46.2522,51.6016,-80.2113,91.5305,-67.6515,90.4556,-116.4742,119.3717,84.6063,133.5931,47.4848,84.3504
-2976.5625,74.2206,47.1408,-64.4188,126.5704,-11.7226,-2.6012,-117.1889,-77.4336,21.8801,-25.8899,61.5386,23.6337,37.0198,-24.1850,-12.2582,3.8433,107.0208,-89.6543,-1.3424,-104.5849
-2968.7500,-66.8744,46.3374,-38.2711,196.9617,-95.6340,-12.2027,-54.2560,21.7619,-99.3026,0.3095,14.0066,85.3259,-83.6471,1.8530,-169.3570,29.9954,71.1279,50.7812,-106.4841,141.1842
-2960.9375,-151.6804,-2.1629,-81.8338,113.6595,-139.2668,18.4997,-244.0560,-57.7497,-69.2062,-6.1910,81.7712,37.7913,-53.0589,32.1943,-29.1682,60.4529,233.5523,72.5386,160.6846,-48.7210
-2953.1250,63.8349,-32.3617,216.9130,153.6472,86.3986,59.5021,17.4345,57.0198,-174.7871,-75.4066,123.8487,46.9472,-85.1924,-37.1800,-135.6718,-44.8074,27.2931,-98.4134,-45.8335,-44.3465
-2945.3125,-118.0391,-38.9513,57.2677,147.2395,-109.3351,84.1105,-252.4584,118.3923,-371.7732,58.9652,111.5222,72.6286,-96.7723,60.0323,-147.5995,89.5206,126.6285,72.2398,53.2402,89.6490
-2937.5000,19.8380,29.2231,176.3601,39.5727,8.6616,56.4658,-171.6401,53.4970,-106.0274,31.0923,230.9602,-12.6742,21.3610,-78.0083,-29.7751,-49.4030,53.7436,-106.3468,15.0983,-159.6125
-2929.6875,-22.7457,22.9120,159.9832,68.4004,66.1742,114.3142,-4.3092,147.0960,-85.7751,14.7099,67.9174,38.0010,-67.0382,-57.5747,-192.4552,-28.8513,-93.6481,28.5433,-131.5641,44.6156
-2921.8750,-173.3318,-57.3858,7.6037,23.2323,-86.3308,109.1564,-265.9957,105.6903,-91.5420,83.3268,25.8680,1.5320,0.5156,10.8535,-14.1498,39.7000,36.9786,124.4459,173.7745,-71.1305
-2914.0625,51.5525,-44.2310,171.6779,37.5112,114.6146,89.4408,6.7493,85.7052,-1.8559,-10.6159,80.2802,-29.9015,16.4938,-120.2827,-35.3785,-90.3162,-124.9182,-38.2152,-59.4128,-128.4484
-2906.2500,-106.7973,7.6674,-40.4776,89.5466,-24.6845,98.4719,-167.7379,131.4683,-176.4154,35.1823,-57.5567,49.4707,-10.8182,-1.6904,-98.8749,28.4007,-38.0653,119.8659,-7.8638,64.0015
-2898.4375,38.2882,14.0154,-23.1864,60.0300,-7.5556,4.9487,-188.8122,0.6636,-87.5243,-21.5788,-3.9353,-0.9121,116.2827,-21.6469,100.0804,-28.4344,73.2737,-14.5859,103.1690,-177.0926
-2890.6250,29.6670,5.6226,-4.6102,121.7596,47.8395,23.6626,13.3765,129.0904,-32.3789,-40.1157,-131.0363,36.3497,23.5995,-40.3800,-28.7126,-10.0497,-41.1244,12.1830,-150.5485,25.0495
-2882.8125,-173.5968,12.5932,-142.6729,93.8432,-91.4272,-4.2804,-272.0957,27.8626,-97.9071,5.6935,-122.7841,54.5645,32.2115,79.2246,53.8182,72.6768,212.8411,195.3137,66.0883,-3.4308
-2875.0000,39.3084,15.7276,123.4164,167.0736,138.4432,4.9184,-79.4494,-73.2324,-52.2908,-95.3523,-3.3602,26.8308,3.9367,-96.0384,25.5069,-102.4605,144.9860,57.5879,-107.0974,-141.7808
-2867.1875,-203.7542,17.8772,6.5353,276.3096,21.3203,109.1049,-159.7839,29.6631,-58.6714,-64.4146,-155.9337,115.6605,-112.3866,-29.3189,-164.8192,-35.6154,183.1248,236.8494,-139.3018,71.8805
-2859.3750,-206.2214,-54.3690,-20.7586,169.1472,67.7656,117.8825,-225.5569,-34.8588,60.5359,-56.8702,-109.9044,49.8555,5.8453,16.0026,-9.5481,-27.1645,286.8950,128.7278,34.1234,-176.8425
-2851.5625,6.6512,-16.3080,122.2746,136.2825,210.5189,150.9522,100.9675,70.8992,-128.9481,-134.0370,-150.5516,72.2997,-72.6587,-25.4077,-87.9741,-68.4419,77.9818,60.8856,-140.1398,-34.2835
-2843.7500,-29.1736,194.0637,-137.3785,99.7222,-50.4375,148.3233,-305.2007,31.9541,-388.1367,-63.9176,-151.8969,129.7772,-74.9203,45.4673,-17.1223,2.5657,218.3775,236.3519,210.8974,-0.3981
-2835.9375,248.1066,260.5445,14.0669,131.2536,64.6974,115.7881,-229.2957,-37.9130,-238.2136,-95.7036,-38.1319,98.7964,1.8840,-61.5682,23.8428,-103.3340,73.9033,21.9140,66.0637,-180.4284
-2828.1250,26.2298,179.8272,-81.6544,226.5844,-32.3534,167.0423,-214.5709,49.0129,-260.4783,-44.7031,-96.5568,152.9876,-20.5499,25.1739,-109.3938,19.5393,-6.7736,152.2462,-119.9845,90.3449
-2820.3125,-13.6454,140.1110,-153.3824,116.9101,-66.4260,96.2804,-359.8738,-95.0732,-148.7554,-116.7019,53.0270,71.1127,127.9729,27.9154,113.3629,22.4111,94.5833,112.5846,120.9931,-90.8600
-2812.5000,172.2698,220.1470,38.6635,126.9743,88.2643,31.2515,-58.4278,-50.4337,-67.2793,-144.9701,25.3847,82.2823,98.2096,-74.6134,10.8746,-116.9922,-142.2888,16.6506,-45.2515,-46.3363
-2804.6875,-140.7514,188.2411,-182.2274,95.0867,-132.9971,66.2675,-242.9199,21.2515,-178.7530,36.7970,-85.2101,116.6728,59.4457,70.8959,8.4230,65.6374,-68.1098,231.7653,133.5513,62.2635
-2796.8750,-72.7723,81.3413,-101.1256,58.1875,20.7275,74.2697,-53.4434,28.9120,-25.2191,44.5559,-4.8007,53.0935,140.6535,41.4004,89.9884,-0.7393,-139.8947,53.8764,61.3870,-151.1386
-2789.0625,-177.7525,45.4464,-111.9928,93.2833,45.4686,62.2530,119.0555,127.5587,-36.6702,32.3061,-15.3762,75.7527,17.8247,28.8759,-105.4487,60.8572,-209.6807,123.9607,-184.7896,94.4607
-2781.2500,-148.7818,110.5149,-113.9139,17.3286,-65.8663,25.1749,-212.5192,-20.8506,-184.1910,-78.9909,131.0016,45.3594,52.8902,28.2996,40.0544,60.4042,30.5012,118.0024,126.0102,-16.9611
-2773.4375,133.2195,75.5927,144.1703,87.3582,117.7939,25.0831,6.8919,-58.2836,-258.7023,-151.3025,94.4001,51.0882,14.9289,-46.2921,2.5847,-88.0660,-110.2987,13.0216,-15.1598,-17.3988
-2765.6250,-112.1138,41.3218,-118.0807,124.0361,-107.8912,92.6289,-182.0281,45.9308,-264.5444,62.0266,-56.5526,115.2047,-101.4225,131.7484,-113.2407,127.0942,-37.4535,224.6749,20.3095,123.8420
-2757.8125,10.6951,59.2011,-123.2017,35.8577,-3.4521,124.3125,-78.8288,-32.7226,60.7681,57.5046,11.6476,16.6784,2.3402,-21.0590,-45.9014,11.4044,-20.4232,66.4836,37.9619,-175.7612
-2750.0000,16.0966,64.6399,-52.7436,76.2252,30.5488,158.5323,212.9354,38.1552,20.6306,-56.4810,-64.5810,46.9502,-74.3832,-97.3384,-195.0137,-65.7634,-120.8352,71.8166,-62.8334,5.1790
-2742.1875,-70.0975,13.4832,-138.8821,24.9944,-93.0603,109.1514,-57.9150,-48.5691,-103.1291,40.9324,-39.4108,22.8315,-51.7573,-0.2269,-98.7378,31.4652,110.1705,91.5596,202.7875,-81.4514
-2734.3750,149.6306,22.2300,94.8876,-1.3539,67.2301,85.6592,212.1179,37.5868,57.0374,54.2348,10.6751,-32.6787,-40.2644,-135.2308,-86.5487,-102.4279,-57.8922,-111.8067,-175.6573,-179.2010
-2726.5625,-104.8609,-57.2693,-35.5611,24.0454,-63.7108,101.9132,153.9342,90.4880,145.9645,-3.7321,-81.4818,5.5777,-97.0742,-9.5121,-105.6236,-13.6009,3.7980,55.5648,-289.3650,57.8105
-2718.7500,-43.8551,-206.2682,3.4871,-54.0572,-26.1671,29.6601,155.2273,-56.1264,221.3838,-186.2102,29.8653,-98.0165,49.5719,-45.3008,78.8035,-85.2802,102.0284,-93.5533,-16.5370,-161.6699
-2710.9375,201.6399,-31.8158,31.0158,-20.7182,0.8450,-54.1557,291.9805,7.6882,64.2710,-158.2507,-16.3122,-35.8532,-71.3578,-91.6641,-115.3069,-131.5366,-110.2831,-129.2581,-124.2514,12.2830
-2703.1250,151.3905,164.8874,-241.1965,-71.1378,-271.8997,-105.7365,-128.0118,-8.2468,-25.5912,118.9635,-31.2399,14.5556,-88.0841,76.2233,15.8240,72.4511,-55.3369,-4.7166,-69.7159,-3.4826
-2695.3125,256.9020,200.3316,-51.6540,-105.8258,-118.9011,-136.5941,98.7275,34.5452,164.3129,161.9169,49.6013,-31.0926,-46.0874,-29.1422,58.7312,-32.8211,-195.6054,-181.4458,-385.3876,-144.5092
-2687.5000,-29.5412,158.7711,-106.0756,-5.5164,-210.8856,-81.4751,5.4916,125.3223,108.2181,179.8519,-41.5424,39.3149,-213.1246,25.4740,-107.3656,57.8854,-164.8748,-10.2023,-427.0599,130.4765
-2679.6875,7.8692,56.0660,-58.6551,-3.3605,-237.0432,-108.5192,-203.9250,-48.0630,8.9577,43.6327,116.1657,-10.1271,-94.3504,35.9404,49.4017,32.4389,48.7333,-43.0962,-142.8502,-42.6650
-2671.8750,172.8631,-59.0763,145.3362,20.3306,1.3553,-88.0323,108.2149,-28.9201,-118.7393,-47.0584,99.4429,-38.7581,-75.0466,-55.0564,-5.2565,-22.4819,-66.0956,-124.4681,-364.0764,86.7297
-2664.0625,-200.4309,-152.5087,-26.9642,-1.2809,-170.5484,-40.8577,-138.9315,-18.0805,-71.7351,-0.0528,37.4184,-33.7515,-103.0865,63.6367,115.7702,97.2839,121.7779,97.8589,-175.6062,133.8561
-2656.2500,-29.7261,-297.9443,199.7240,-41.9080,-18.4660,-71.6956,13.8974,-86.2596,265.2937,-31.0425,191.4038,-173.5274,-24.1542,-113.6797,232.8130,-42.9559,82.6817,-152.8204,-216.0931,-117.0243
-2648.4375,-87.3283,-250.7335,166.0885,40.1137,-15.7170,-31.8966,52.4054,62.2038,82.9971,-28.3977,195.0399,-100.4861,-96.6074,-111.3722,50.5097,-40.5753,-10.7646,-69.8788,-273.9316,105.7494
-2640.6250,-78.2282,-65.8229,35.1434,-92.1767,-110.2829,-90.4115,-188.3966,-68.6446,-121.6068,-50.0612,285.3756,-75.6708,-8.3999,14.6361,213.9098,11.5025,174.5151,-61.2326,-19.0382,-61.7463
-2632.8125,214.0483,50.2321,230.3662,-10.3346,84.3100,-116.7940,115.9498,-95.3661,-74.0439,-149.5867,259.8881,-56.4097,-73.0613,-159.2198,114.4833,-162.2876,9.9651,-190.4558,-253.9714,-51.1074
-2625.0000,9.6853,-13.3662,46.9539,101.8611,-135.7407,-41.8348,-104.3264,-57.7320,-1.1129,-112.7648,39.7512,-9.2415,-183.4205,-85.7384,77.3852,-15.7441,122.7619,-9.3303,-176.5585,95.9060
-2617.1875,73.9699,-125.3193,121.1830,59.6945,-100.1502,-6.2342,-31.9753,-59.4614,183.4787,-114.2918,4.2645,-64.6298,-149.1614,-87.6078,150.9462,-53.5554,81.2413,-121.5502,-183.4485,-51.4331
-2609.3750,-71.2585,-165.8250,67.8950,18.9679,-116.0883,-23.2008,133.8566,106.2489,128.5458,-20.3840,-84.7619,-36.4436,-277.4727,-31.0483,-50.0268,3.0585,6.1645,-91.3571,-152.8908,188.6741
-2601.5625,-76.3925,-205.2276,-2.2947,-196.6665,-149.9353,-167.0763,26.7815,-74.9465,242.7003,-18.3792,65.3104,-156.9895,-128.7105,-29.3894,136.1055,-32.2284,213.2054,-167.0582,193.7777,7.9171
-2593.7500,251.2498,-229.8746,157.2726,-256.5709,80.9757,-266.2212,369.4469,-100.4156,474.5969,-6.6339,78.1595,-243.0388,-46.2109,-163.9915,148.0177,-130.7801,-92.9835,-403.0266,-112.7679,-17.1031
-2585.9375,-27.3790,-227.8286,-147.4407,-219.7781,-187.3961,-240.6802,100.8433,35.8163,168.1906,201.8031,-116.2870,-150.9936,-95.0411,44.0970,100.6265,115.3509,-125.4835,-120.3059,-39.6196,265.5994
-2578.1250,50.3786,-220.3950,-164.7626,-282.5968,-168.3899,-222.7503,-29.3843,16.4411,113.2039,146.6429,49.6578,-198.4243,-42.4932,24.5912,265.6581,95.8835,-47.5594,-183.1789,72.9692,26.7123
-2570.3125,80.1135,-191.0157,7.8894,-253.4836,-70.4152,-160.8874,179.3630,114.0033,212.2164,134.4220,39.5647,-149.9923,-202.0103,13.0163,32.6572,46.3468,-192.6866,-189.1355,-177.4837,161.7643
-2562.5000,-115.3526,-140.8395,-123.6543,-344.5831,-164.6448,-145.2375,-62.0800,55.3685,227.0318,150.0061,-17.7323,-141.3917,-187.7610,100.2457,121.4465,97.6065,-1.0068,-104.2866,117.8693,140.6480
-2554.6875,97.9422,-102.9228,30.5593,-271.9521,24.8743,-101.8512,127.2130,25.4674,234.6073,83.3331,-47.2650,-143.1432,-145.7713,-40.7783,92.0144,-43.3913,-139.5543,-172.6995,-55.9909,37.2701
-2546.8750,-200.6880,-85.9628,-141.1602,-79.2756,-110.5396,55.5777,-45.4087,145.6139,61.2492,240.7015,-219.7432,-22.5345,-247.7497,44.2312,-7.3680,77.6441,-86.0670,89.9181,-178.8095,194.9600
-2539.0625,-161.8808,-153.5559,-13.4480,-111.1576,-56.5214,35.4497,-101.6030,-20.7954,152.3499,111.5192,-16.7791,-98.6352,-121.2988,-13.3019,193.7111,-15.8712,128.8952,-47.0002,36.8580,-117.8822
-2531.2500,99.1071,-209.0066,290.4351,-97.8987,135.6648,-66.5380,201.3739,24.9294,161.6222,-64.5281,66.3472,-128.7057,-186.7127,-150.7036,-18.0391,-153.2631,3.0166,-137.7880,-55.3112,1.4095
-2523.4375,-55.8456,-153.4069,126.3803,-112.5826,-102.0930,-83.4822,-147.5902,-31.2852,-4.0698,-9.5337,48.5186,-81.0765,-170.1104,12.9490,37.2453,10.3911,199.1902,21.4744,106.5687,56.7808
-2515.6250,165.6114,-38.3945,219.7247,-67.8844,-47.4498,-102.0338,-56.1732,-85.1171,15.6419,9.8514,143.1030,-81.4284,-116.1151,-77.9985,93.9479,-117.5592,139.7851,-108.8729,-24.1145,-144.4584
-2507.8125,19.8033,62.3224,94.7897,31.5065,-135.0833,-43.9015,-71.0182,8.7483,-72.9206,104.9262,17.3870,23.0126,-279.4344,-57.2668,-141.6441,-95.8345,100.0629,25.4583,111.8941,61.0100
-2500.0000,51.4714,92.5341,-8.6630,-78.6084,-203.2275,-111.2769,-286.3745,-95.8837,7.0201,37.5147,62.1548,-31.9827,-312.2703,-52.0273,11.2701,-91.6025,306.8539,21.3032,424.4326,-189.9978
-2492.1875,237.8566,137.4257,146.5953,-139.0285,-121.6568,-30.9612,-58.0204,22.1737,14.6781,-29.2076,33.6276,-60.0236,-452.4040,-192.0928,-128.0880,-231.6798,282.3546,-75.1746,82.6902,-145.3183
-2484.3750,-10.2491,134.8159,-45.6414,-246.9420,-350.5845,33.8518,-287.1455,49.7388,-141.1680,72.5653,-11.4125,-41.8549,-574.0551,-54.6571,-209.9471,-57.2601,527.3459,97.8476,256.4373,-7.1030
-2476.5625,168.1394,101.7123,38.6049,-351.3708,-195.0241,-30.8473,-130.7907,-15.2017,15.4952,44.8432,36.0430,-120.7788,-456.2090,-118.7176,-91.2821,-158.3369,423.8608,-76.6332,399.7257,-181.3887
-2468.7500,28.4560,67.5010,-44.2224,-244.9102,-203.5436,70.3390,6.5035,158.7579,43.0845,145.0121,-192.6013,-25.2045,-614.4632,-18.8883,-209.7034,-58.5319,178.2666,99.7543,224.9080,30.2257
-2460.9375,-85.3935,164.1139,-228.2090,-288.6092,-314.2202,142.3601,-252.3515,157.5752,5.5338,181.0411,-265.4081,19.0967,-579.8785,126.8080,-64.2732,51.1359,276.5283,160.9982,357.9606,-154.2794
-2453.1250,206.2212,209.1632,2.2597,-210.8772,-49.4349,114.8124,51.2515,165.8272,-169.5415,5.5186,-183.7591,34.3030,-572.8305,-12.0436,-202.3607,-51.7523,75.2429,-76.3369,261.4962,-145.3468
-2445.3125,-65.5446,146.8157,-144.6586,-201.5626,-197.0336,75.8499,-170.5056,127.6839,-242.9989,151.5833,-219.5164,61.0886,-686.1909,96.6993,-202.8505,56.9500,119.5395,107.9159,516.6293,74.2162
-2437.5000,13.4308,51.2120,-51.8427,-228.5208,-67.8901,-16.3744,-115.5239,-38.7210,69.3067,133.3996,-127.5278,-22.8798,-521.8015,78.2022,-0.5705,1.4119,129.6062,-59.0730,421.5524,-127.4608
-2429.6875,89.0835,21.2401,86.6499,-117.8376,33.9344,-60.9524,96.1434,-46.4790,60.2874,14.8566,-96.8820,-6.6536,-495.7570,-3.6578,-81.6282,-117.4969,134.3123,-159.4294,145.1128,158.5069
-2421.8750,165.8697,-9.5952,56.2877,-219.0039,-34.0907,-240.3757,-82.0307,-263.0703,29.4235,-91.5342,18.8969,-102.7263,-381.5795,-73.3608,106.4568,-186.2489,457.1696,-154.6223,537.8297,163.6539
-2414.0625,497.5089,4.4113,294.7780,-240.3366,239.7421,-333.9597,228.6542,-356.8215,157.4306,-332.0842,109.5275,-155.8986,-366.5408,-240.2103,87.4112,-390.1552,401.8901,-316.9790,411.4343,107.6337
-2406.2500,294.5654,47.8132,184.6843,-127.2705,56.0011,-224.1515,81.7778,-247.1684,9.8376,-259.2371,0.5460,-59.3469,-479.1063,-168.6612,-59.2359,-244.6706,409.9940,-63.9496,349.4317,291.0331
-2398.4375,362.9079,45.5133,230.8708,-93.9064,64.5508,-216.0478,-57.8146,-312.2147,55.5435,-287.0817,156.8511,-82.6424,-324.3717,-159.8018,96.4263,-236.8760,444.4125,-206.6086,347.7615,42.7439
-2390.6250,453.5301,64.4610,352.3299,-5.3020,112.3769,-241.7013,173.8662,-265.0174,103.5183,-350.6982,95.4082,-31.1081,-278.3694,-149.7007,-2.6401,-299.8472,253.0764,-294.0471,16.3434,237.6931
-2382.8125,224.4963,46.7545,114.1418,-58.3475,-53.4440,-373.0120,-29.0912,-396.4608,84.8343,-296.9675,3.3086,-43.1375,-190.0138,-59.2420,88.6374,-173.4609,447.0868,-101.1332,350.2711,255.0309
-2375.0000,455.8062,65.3830,252.2973,-75.0648,157.0788,-381.9889,219.2924,-405.5611,259.5367,-305.8750,-41.4377,-106.8746,-126.2893,-252.4225,116.2924,-366.7174,325.4547,-222.8775,264.5819,62.7095
-2367.1875,272.6833,57.5518,162.0161,-48.2371,104.1740,-179.4187,164.2687,-239.1012,167.8114,-177.2388,-132.6419,-57.2007,-220.0049,-234.0640,-47.4974,-274.4345,247.3478,14.9144,186.4291,265.9491
-2359.3750,153.4382,-62.3834,157.6183,-168.5120,172.1616,-73.9457,50.1349,-244.7371,163.9627,-181.7112,10.0349,-117.6352,-79.8081,-165.7916,130.6307,-243.2372,270.1506,-0.3714,385.2010,41.1127
-2351.5625,197.2122,-159.3252,347.2294,-160.7921,361.1720,3.5217,385.0250,-93.3848,169.1320,-177.2048,-20.2893,-119.1720,-75.5825,-198.5288,-11.2122,-313.0529,31.9530,-62.6743,75.9803,119.2644
-2343.7500,-16.5765,-162.8213,121.2838,-164.6098,208.6362,-1.5540,159.3896,-25.5702,89.7659,-73.2383,-98.1960,-107.1497,-119.9038,-131.8093,56.3853,-171.4150,205.1841,73.4843,249.1998,150.8971
-2335.9375,267.4154,-126.5205,281.1150,-197.6355,367.8879,-64.8307,318.5354,-88.9553,102.2135,-136.4579,23.6866,-149.9256,36.5942,-194.2718,179.8031,-270.9622,67.2278,-135.5476,147.2514,-57.6787
-2328.1250,147.3175,-176.3184,253.8580,-107.7722,339.0515,-19.2145,326.5947,-43.4383,-72.4127,-163.7782,-39.5258,-80.6254,8.0217,-111.8302,42.1423,-152.6124,18.1580,25.2939,63.2089,208.6299
-2320.3125,34.7738,-219.5779,180.1629,-222.3598,265.7734,-58.0547,142.2256,-154.3529,110.5104,-127.5561,-4.1992,-149.6891,115.0146,-77.8337,225.0333,-117.7104,150.6226,16.6728,371.7134,24.5163
-2312.5000,224.0219,-136.0531,342.2561,-210.1528,427.2999,-153.1085,450.6397,-105.4755,346.2139,-114.5374,-26.0802,-162.6302,53.8440,-210.0159,128.7534,-250.9899,-12.1074,-146.1504,103.0511,2.2108
-2304.6875,68.5817,-10.2420,174.6586,-119.6491,221.1491,-138.8771,172.3937,-126.2957,104.2540,-62.2275,-45.6708,-63.0080,68.0019,-84.8975,144.7816,-125.9753,114.4395,-20.6920,124.6750,128.2117
-2296.8750,267.5606,-94.9847,280.4911,-98.6995,327.4496,-217.2046,167.6083,-241.6571,136.7859,-178.4512,96.1646,-129.9503,282.6220,-128.3224,324.2577,-205.4987,102.4339,-209.7656,112.7559,-60.3175
-2289.0625,171.5396,-119.7256,279.3297,-18.7556,251.7703,-183.5367,238.8371,-134.0216,97.3203,-106.6739,-51.0056,-68.6460,168.2746,-93.7364,137.7585,-134.0173,-27.5840,-95.8526,52.8453,195.1375
-2281.2500,0.9120,-46.0711,32.5692,-50.4156,115.5104,-173.4622,-8.5013,-234.9585,145.2405,-96.5040,-113.8061,-50.4824,214.3484,-10.7357,259.6596,-52.1236,187.7712,-22.5367,373.3245,59.0189
-2273.4375,259.5929,-70.0973,232.1210,-39.7371,313.5853,-159.0267,263.5042,-220.5288,270.5312,-192.9678,-98.2831,-80.3945,263.8107,-107.3583,200.9343,-183.8513,24.4748,-186.8609,104.1836,0.2571
-2265.6250,93.3288,-95.1094,86.7185,4.9821,167.7362,-121.5467,117.6065,-146.0295,124.8986,-45.3784,-133.7194,-25.6793,153.3606,5.0832,91.2690,-36.5247,34.2054,-2.1566,114.0868,185.5427
-2257.8125,159.1534,-102.0286,129.3972,104.7990,246.9835,-190.9624,49.8182,-179.4122,278.3669,-3.6800,18.9169,-47.9320,231.0322,-64.3584,207.7036,-69.0794,-146.9804,-114.3405,250.0908,-66.0413
-2250.0000,136.8196,-89.0940,207.9117,362.4560,362.0863,-113.5263,274.8789,-63.9449,208.7105,-73.1326,-122.6195,74.2908,123.5854,-96.9318,65.0126,-138.7717,-344.3260,-66.6779,16.9632,122.2169
-2242.1875,-26.9791,-78.6156,-0.0221,302.6698,226.7449,-101.5257,29.5201,-125.9072,74.6100,-61.0322,-146.6330,70.3568,170.7101,-12.9476,187.8647,-17.9044,-87.1493,48.5404,204.3786,98.0448
-2234.3750,235.9536,-26.3923,207.7649,178.6340,361.1367,-79.7595,236.8959,-104.1096,61.2509,-39.1815,-13.9232,4.1895,192.6164,-137.1814,138.4728,-68.2607,-245.2200,-110.4735,81.5635,-25.3645
-2226.5625,-20.9848,32.9366,40.6659,201.6872,192.6552,10.1045,105.3919,21.7912,-31.9887,49.7624,-70.1320,84.1039,22.6598,-47.3057,8.1911,56.4873,-221.2079,123.5895,105.8372,174.3160
-2218.7500,13.1547,30.3690,-21.3505,129.8388,167.2845,-16.9336,81.0044,-77.1848,126.8792,23.8233,14.7320,40.8936,143.8261,-0.3120,203.0001,31.3558,-117.1235,16.7608,211.2047,-107.8749
-2210.9375,64.2283,-25.2641,99.5660,214.9235,251.8680,29.9741,348.5685,42.7946,173.7207,-3.1549,-48.4724,67.9383,152.9906,-27.3564,66.7854,4.1929,-312.0952,-39.1207,-54.4553,12.8747
-2203.1250,-214.4916,-58.7196,-157.3077,180.2106,30.6787,66.0853,17.3808,78.9912,-10.2189,180.0546,-84.5003,81.0619,261.4001,118.8032,139.7732,187.2331,-203.8994,138.1884,159.0623,49.8339
-2195.3125,23.3648,3.4065,-83.6035,102.1005,141.0934,28.7967,238.7907,78.8017,27.4454,142.8711,25.0403,30.9079,444.4481,45.5907,214.3712,76.8967,-317.1029,-80.8854,11.1946,-133.5936
-2187.5000,-61.5259,57.7802,-109.6381,156.2300,77.7799,37.7575,248.4743,124.8752,-71.6226,188.9513,-74.1793,105.6047,305.7884,91.6358,3.2281,158.8173,-332.0809,79.2797,-73.4337,97.2098
-2179.6875,-102.2381,16.3689,-180.4846,114.5632,7.6695,40.9306,31.3860,-19.8214,41.4930,192.2428,38.7758,69.4346,382.3535,167.8937,154.2712,198.9543,-197.8891,72.6586,62.1182,-119.7661
-2171.8750,6.4698,-50.6037,4.0955,152.3495,192.0012,39.5670,288.7298,52.9399,78.0698,117.9887,149.1595,53.0973,380.4146,93.6160,80.7823,124.5632,-405.2487,-30.4988,-215.8524,-46.2982
-2164.0625,-280.1189,-90.8906,-189.6131,110.8399,71.0633,65.9015,57.8104,79.4054,-42.6382,217.4202,176.2292,58.7600,406.2261,193.0488,108.0031,296.8786,-304.9470,174.0321,-79.1366,53.8751
-2156.2500,-143.9412,8.6163,-74.5422,0.1277,259.9250,33.0345,172.6886,46.6873,-0.5466,221.6609,328.0689,12.1087,482.8816,123.3156,223.0298,228.0246,-344.8614,28.3746,-190.6265,-162.1308
-2148.4375,-184.3216,107.5592,-126.0291,98.8518,207.2490,126.6216,231.0237,251.4372,-161.9887,279.3620,238.3449,128.9120,356.0445,181.0490,-13.4749,248.6373,-420.3428,162.1564,-370.6654,43.2960
-2140.6250,-285.4722,41.7273,-224.2723,67.8457,109.8333,138.4770,-51.3668,152.4652,-113.2055,217.3258,287.8394,103.0155,404.5020,267.0509,110.2633,296.5154,-205.6027,166.2035,-119.4732,-128.0072
-2132.8125,-131.5518,18.9877,10.5547,149.9437,307.5122,152.4471,184.3279,166.6101,-62.3124,120.3948,339.4027,107.1263,381.1014,170.1800,14.1099,126.5172,-332.7593,38.3803,-422.1674,-150.2181
-2125.0000,-424.0329,6.8648,-153.0107,173.6481,105.8193,208.0387,-54.3395,185.3705,-152.8000,249.0593,284.5399,124.9594,288.3375,188.9071,-40.4490,218.1217,-203.3408,272.1480,-363.2883,-20.8424
-2117.1875,-280.8009,-60.5111,-65.8416,141.1224,120.8779,221.3992,-39.2615,161.9130,-101.5527,226.4861,409.3862,53.2839,375.3579,129.4069,47.7332,158.5074,-200.1874,99.6707,-324.6614,-263.6985
-2109.3750,-203.7735,-56.0945,-71.8833,181.4010,41.7390,215.5645,101.6204,303.2576,-253.5007,256.7025,403.0153,107.3555,332.2414,196.7339,-141.2657,225.7098,-370.2431,68.9756,-493.2272,-11.7710
-2101.5625,-323.6571,-35.5724,-267.8321,95.7979,-192.2932,127.8277,-205.3586,178.7205,-229.3361,317.0167,426.7193,78.8073,465.2693,293.1772,-7.1730,323.0295,-209.2320,89.3762,-156.7289,-61.7248
-2093.7500,-115.4718,-3.9388,-157.7085,57.2928,-81.2396,91.1957,15.7494,179.2967,-9.0760,243.4511,389.4890,32.4401,501.4409,182.7396,-6.9747,212.4814,-387.1299,-90.1033,-369.1129,-134.5731
-2085.9375,-361.0775,66.8945,-386.3853,161.9930,-273.9730,190.7726,-139.9205,243.0946,-127.6052,270.0824,196.4361,147.2641,380.8605,283.5173,-162.5714,312.1461,-281.8675,155.6070,-333.3139,76.7721
-2078.1250,-282.6616,38.7712,-331.0379,98.7533,-182.6721,209.4153,-232.5316,150.9744,-109.0834,214.7751,288.3935,69.2530,472.3735,191.3787,-34.1300,256.8922,-169.5834,92.3799,-220.4817,-161.8056
-2070.3125,-157.8174,-11.9092,-133.2728,153.9580,-21.9285,185.5133,2.3050,201.3216,-205.0941,190.9299,264.7778,66.7292,448.3929,93.7170,-203.2186,160.1132,-324.8598,41.6072,-480.1880,-0.9482
-2062.5000,-351.0774,5.3103,-297.6225,100.0755,-185.2709,130.5230,-271.9312,146.5965,-222.2053,245.9873,284.0211,75.9788,504.3558,222.9729,-111.4204,252.2575,-201.2774,129.7422,-251.0137,-18.1804
-2054.6875,-125.6713,54.2414,-166.3072,8.8989,-16.9233,42.2485,-66.4880,131.5912,-53.6403,194.7553,341.9271,17.2238,562.0623,134.9659,-14.9242,127.1370,-363.0064,-103.3964,-306.1372,-179.6986
-2046.8750,-308.1595,47.2758,-293.8956,36.8166,-107.4584,60.0823,-156.9301,223.6866,-106.9680,286.6068,212.9153,61.6391,506.9288,190.0731,-142.3141,219.1290,-404.6552,100.5573,-313.1707,59.8739
-2039.0625,-336.2774,53.6973,-351.0991,8.1378,-165.5839,76.3329,-251.9534,129.2029,-90.8923,228.8622,303.2704,25.3058,596.2405,169.5950,20.6826,198.5419,-256.9333,106.9385,-235.8204,-144.1314
-2031.2500,-224.0855,59.4417,-164.9734,83.8018,-16.3597,113.9523,81.3742,168.0920,-162.4495,119.4850,267.9525,50.3985,523.9530,60.4956,-87.9628,89.3321,-391.8718,7.6938,-474.1138,-31.8053
-2023.4375,-370.4528,123.6181,-358.3905,7.9179,-208.6504,68.0455,-183.8079,121.4624,-170.5352,146.5607,148.0508,68.9767,515.1641,161.8600,-60.1693,190.5848,-221.4105,141.8951,-162.9871,32.9684
-2015.6250,-124.1108,88.5327,-204.0915,-63.2187,-127.1892,1.8953,-66.2410,19.6086,-15.8746,44.3989,228.8550,-17.9554,596.1786,60.0056,59.3799,87.6214,-292.2205,-104.1320,-22.1049,-142.4932
-2007.8125,-247.9272,69.3028,-233.9569,58.4907,-230.8569,43.5940,-22.8059,135.6073,-229.3720,12.0881,160.4924,68.2086,455.1163,102.0130,-118.2040,166.5266,-345.1999,88.6811,-74.3726,120.8783
-2000.0000,-322.5719,-5.7152,-340.6399,53.4213,-301.3178,83.5013,-239.1553,64.8293,-189.6811,-21.0126,237.2943,35.7019,494.3010,142.2451,31.3987,169.6593,-140.0147,153.7097,61.5214,-59.5311
-1992.1875,-135.3438,-63.8230,-145.4453,101.2637,-105.8889,169.3161,66.3779,150.9543,-104.1115,-157.2082,211.9754,43.6934,433.4435,80.4086,-103.0862,71.7264,-302.9408,24.6485,-136.6848,-47.0461
-1984.3750,-399.5647,-118.3910,-354.6985,46.6661,-313.8915,216.6903,-141.5083,272.6493,-90.9925,-35.8511,38.1796,60.2973,334.1873,202.1353,-127.0267,193.3641,-181.3562,217.1266,55.6341,74.9923
-1976.5625,-258.4796,-117.6300,-268.6397,-58.5787,-228.5700,229.4348,-56.0467,247.7289,104.5054,-60.1191,87.6823,-12.5234,383.3198,141.2439,-41.6240,132.3870,-181.4425,6.9814,58.2960,-169.5974
-1968.7500,-227.7059,-158.1686,-210.9062,5.8786,-170.5576,248.8851,75.1215,341.5246,-58.2701,-76.6764,-3.1415,36.8783,220.2157,161.0699,-240.5038,189.1347,-220.8542,106.5286,-157.3503,71.4891
-1960.9375,-267.0388,-162.7866,-320.2750,-32.7493,-242.6396,212.2487,-216.7890,232.2439,-131.1821,-76.3424,33.9039,37.2987,221.0626,272.8206,-130.4937,226.8070,20.5992,172.9845,84.8627,-37.5097
-1953.1250,-20.6033,-127.5936,-61.8643,37.4240,-19.9192,177.4232,42.0797,160.7761,-91.3299,-294.2044,71.7237,44.0288,223.7614,164.3935,-127.6812,82.3089,-85.1444,-2.7389,-125.1201,-71.7043
-1945.3125,-183.7762,-44.0147,-131.0567,155.9996,-89.7751,144.0141,-173.6203,90.7190,-308.0616,-401.6606,1.9162,134.1676,189.9101,204.3704,-196.4764,159.2153,68.4827,150.9406,-5.7167,152.4875
-1937.5000,-41.2401,-7.6953,-45.5336,52.3432,-3.8890,46.3873,-198.5704,-116.5583,-111.0430,-389.3498,123.8117,43.0464,240.8421,108.1244,-36.5456,61.9066,140.8314,11.4080,102.4274,-91.5576
-1929.6875,0.5862,34.9164,65.2736,23.9880,71.2958,10.0845,23.7706,-5.5177,37.2949,-277.7413,49.9869,38.4903,131.1337,35.2010,-182.3048,25.9207,-28.5350,-16.8221,-171.1440,56.6744
-1921.8750,-118.7004,54.4209,-95.0123,-62.4655,-89.6024,-40.3025,-282.9556,-55.5485,61.5584,-218.2325,73.0335,21.3144,155.3794,132.1833,-122.1672,122.8525,131.9505,38.8470,60.1355,6.8134
-1914.0625,142.9309,34.8754,109.6235,-45.9751,42.4387,-55.7316,-40.7385,-34.6126,8.7738,-307.7581,55.9973,-4.7712,213.6242,43.1403,-27.0715,-3.2367,-27.6290,-156.5127,-63.6367,-82.0988
-1906.2500,-41.6409,26.1361,-56.9417,-18.6769,-86.7083,-38.3569,-59.7053,93.1317,-193.2135,-144.4802,-258.2599,57.6811,156.7251,133.9096,-83.1763,124.4871,-36.4354,45.9179,-36.6270,155.7715
-1898.4375,-11.0419,56.6071,-126.3331,-94.1562,-118.6645,-33.7684,-128.4735,62.1020,31.9751,-65.9965,-474.3477,20.6002,200.0607,139.9010,105.8937,130.4453,28.9460,6.5650,64.5608,-59.1383
-1890.6250,96.5431,129.0774,-55.7411,12.3797,-84.6327,34.8276,125.7385,168.0724,139.1644,-106.5052,-700.4521,83.5145,85.4435,61.9154,-81.0295,89.4277,-144.6729,44.2174,-213.2515,83.9338
-1882.8125,-163.7774,114.6482,-256.0453,69.0283,-247.4930,129.5356,-146.9221,152.1667,86.4587,-49.9020,-827.4763,133.9244,33.9735,156.0336,-23.8653,183.5228,-18.2282,240.9653,17.9887,105.1078
-1875.0000,22.1672,125.5200,-52.0812,44.9863,-43.0810,149.5593,20.6934,100.5884,145.0298,-65.9755,-697.2322,82.6258,55.8454,30.4821,-3.4025,94.9574,-114.4967,76.0350,-111.4781,-94.4093
-1867.1875,-78.0931,165.1926,-130.3240,84.7499,-120.8647,218.3961,16.1208,205.8266,-42.6058,38.7440,-886.2105,190.0028,-131.4286,172.7502,-190.1363,200.2087,-143.9896,291.8964,-175.1561,121.8561
-1859.3750,-171.6323,142.6112,-216.8389,62.2788,-133.8979,279.9999,-252.6860,156.8393,-55.5095,100.2149,-900.4725,175.8061,-70.9103,234.7993,-20.1397,262.2426,-26.7656,339.5238,12.8768,-111.1066
-1851.5625,-68.6643,105.5725,-75.8430,200.3657,44.6089,348.1644,0.0354,262.4083,-97.8526,57.2542,-869.2113,197.3643,-111.7829,119.4157,-171.5797,146.8532,-134.9982,231.7213,-304.5384,-42.5347
-1843.7500,-319.9073,64.3215,-232.0573,230.2664,-111.0730,374.1534,-266.4206,215.8088,-180.3800,120.1060,-881.1785,210.7621,-121.8148,182.8393,-107.2283,210.2724,70.5352,367.7180,-169.1910,57.8276
-1835.9375,-113.5472,24.7164,-5.6585,155.8282,42.8827,233.8241,-113.2390,112.8903,10.7354,-19.3833,-727.5391,116.4550,-39.1644,79.9392,46.7571,70.3772,65.7081,152.4024,-138.2042,-192.1501
-1828.1250,-153.4954,54.8163,51.4414,221.0843,26.5482,218.2069,18.6519,170.6863,-151.4537,-109.1724,-781.2162,189.4680,-128.7676,100.7526,-115.5514,55.2012,24.5687,217.7808,-177.5345,49.5460
-1820.3125,-219.7072,93.6656,-85.7115,154.1046,-110.0230,154.3516,-191.6902,71.2585,-104.9130,-62.1955,-699.1710,161.3816,-116.5871,148.3372,-32.1310,138.7940,275.1431,185.9130,71.8441,-86.9950
-1812.5000,9.6009,113.0552,82.6592,209.6763,58.9484,103.0536,125.5060,56.3900,27.1759,-4.6578,-678.5998,157.9047,-167.8168,60.4917,-158.1632,13.9662,118.2671,-40.3883,-189.2186,-101.9975
-1804.6875,-185.3419,93.1918,-55.2121,190.0059,-114.3072,111.5159,-49.5214,102.2876,-108.9762,4.6249,-744.3026,169.7584,-193.2506,106.3956,-147.4491,96.8896,203.1142,116.0574,-32.5645,54.7339
-1796.8750,48.2270,10.8895,89.4419,106.9035,-44.0192,36.5484,-14.0057,-83.2506,35.3974,-144.5381,-563.4926,73.3127,-48.1034,67.8659,33.8014,-14.6074,261.5030,-35.9206,61.6168,-167.9719
-1789.0625,126.0440,-17.1487,160.3343,150.0612,-8.4787,34.8478,131.7459,-10.5397,-2.9950,-145.4418,-566.4486,95.7491,-122.6634,67.6032,-77.7032,-15.8435,163.1368,-63.6457,-140.9607,51.5468
-1781.2500,64.6047,-42.4279,62.9742,53.9849,-142.1886,10.9113,-148.7380,-108.0516,10.3712,-134.5889,-480.6811,36.3907,-71.4540,80.1041,8.5187,33.6897,348.4853,-18.6230,149.1719,-9.1777
-1773.4375,327.8889,9.0428,266.3370,0.6614,24.8260,-42.2633,92.5016,-49.8001,67.4902,-187.9812,-315.1836,-18.9354,-50.4586,-82.6220,-44.5077,-91.9944,82.5806,-212.8359,-8.9465,-62.1552
-1765.6250,79.4340,7.7632,70.9502,-70.4132,-167.9077,-16.1760,-64.0002,86.7224,-52.1419,58.8814,-326.4435,10.4310,-132.1664,53.9053,-128.2822,81.5806,45.9006,-2.8108,26.1503,148.1029
-1757.8125,114.4951,-27.9673,82.0926,-140.9248,-84.1041,-42.5211,-126.9542,-12.1791,105.7334,70.3120,-207.1780,-57.5680,-47.3005,28.9911,29.4732,19.7312,80.7600,-73.2002,165.7724,-98.0709
-1750.0000,146.6315,4.4031,181.3217,-38.3255,52.7978,-15.7456,84.1734,89.0214,95.6968,-14.1671,-217.8212,-33.5230,-165.2966,-126.8118,-126.6646,-27.0128,-62.2777,-75.4786,-46.5025,75.8303
-1742.1875,9.9182,8.9303,-34.2993,1.4403,-125.1473,26.1980,-204.5316,-16.6098,-10.1775,64.5032,-251.3366,-19.5064,-196.1242,-85.4563,-84.6758,89.4034,151.8063,105.3911,133.3327,80.8808
-1734.3750,214.1696,2.4544,149.0501,-4.8024,57.8883,-10.8473,-20.2610,-89.2182,137.9419,27.2045,-143.8765,-84.0764,-158.9258,-232.0725,-11.6977,-57.1424,73.8902,-41.7142,-48.8482,-66.0682
-1726.5625,-61.0855,43.4662,34.9048,36.4593,-17.5651,-13.3749,-22.4768,-18.3165,60.5581,134.4131,-220.9253,2.3913,-233.1991,-124.1811,-161.2230,12.8211,44.4505,105.6774,-42.5469,151.4592
-1718.7500,-73.1137,-38.2679,-41.0003,-80.0117,16.2265,-15.6427,-98.4372,-93.1431,59.4019,95.8830,-114.7476,-77.3911,-161.2073,-126.0284,19.4747,12.0555,138.2434,94.3362,226.9769,-70.7480
-1710.9375,67.5422,-73.2950,137.7743,-44.7813,233.7020,-19.2160,229.2769,-23.2716,-18.0531,-18.9392,-118.8804,-67.8342,-199.4778,-202.1607,-130.1075,-101.9895,-3.2591,24.6890,-18.8015,35.7292
-1703.1250,-149.8405,-78.3678,-54.5013,-15.5909,77.1270,-28.8446,-1.0380,-68.4401,-99.5490,45.1890,-167.0768,-31.4114,-244.7695,-100.3399,-102.7431,-0.0720,201.1574,193.9715,151.3276,100.1567
-1695.3125,76.4421,7.2692,118.8931,1.3068,215.2253,-74.7585,137.3225,-150.8908,37.6264,-74.9700,-104.5887,-43.6126,-216.3404,-183.7924,-39.6885,-118.4261,217.2712,-0.0350,62.1422,-129.6993
-1687.5000,50.3268,87.5113,81.8857,151.8110,142.9128,36.9310,139.2739,-75.7389,-70.6029,-73.5275,-214.4951,71.9338,-397.2752,-144.6413,-258.0274,-80.1671,225.9712,80.5462,-103.4621,92.0272
-1679.6875,-4.4988,33.0462,33.1659,132.6274,20.8822,62.9320,-129.4677,-160.2686,27.4711,-11.7787,-155.1299,24.7016,-332.8904,-119.1785,-86.0790,-54.5987,381.9485,26.4430,123.2019,-102.9284
-1671.8750,165.6950,62.6250,209.4674,92.4959,87.8708,55.9973,158.8156,-55.7350,94.6093,18.0372,-163.7312,14.9139,-301.4264,-162.6593,-93.0745,-133.9607,129.9738,-190.5931,-23.0846,-72.8518
-1664.0625,-43.2065,135.1103,-15.3343,25.2641,-135.2313,52.9819,-100.9786,51.7207,-19.3527,124.7752,-240.4469,58.6933,-303.0488,-18.2409,-95.1860,47.5820,201.8692,-11.7299,120.4884,71.1080
-1656.2500,158.3747,91.1054,96.3594,-54.4533,-61.8335,17.4879,-64.2633,-20.2955,93.1645,16.0225,-21.6855,-34.4424,-154.1680,-90.3175,52.1732,-61.3610,157.2428,-195.3525,76.5177,-148.4153
-1648.4375,130.7340,28.8899,130.8291,24.6342,-26.6560,15.8103,45.2143,89.4919,-19.5359,-22.9219,11.8728,1.2880,-227.4703,-90.5824,-132.6662,-98.4870,94.4339,-152.1522,-55.6467,70.8465
-1640.6250,79.5103,13.0654,45.7157,-60.8648,-147.0588,-104.4537,-220.8864,-30.3121,-102.8406,40.5205,147.8299,-49.0507,-126.3558,-26.4581,39.8776,1.7776,254.0038,-132.5576,244.5519,-49.5050
-1632.8125,297.6029,90.5941,274.9299,-89.0073,45.8723,-169.3475,44.3413,-57.7509,-19.8311,-24.6775,265.1209,-57.5269,-78.8880,-90.9683,11.7543,-135.5871,48.9261,-335.5809,-29.9131,-77.4895
-1625.0000,20.1381,95.5752,87.5897,-82.7011,-102.7455,-170.7812,-103.9932,13.2576,13.6410,83.5818,150.8637,-24.2864,-115.9508,-20.0311,-26.9149,-27.5031,53.3009,-83.1530,-59.9350,103.9407
-1617.1875,93.7143,63.6068,65.2992,-115.3339,-52.3088,-119.1515,-126.2517,-117.6640,66.1752,24.8946,237.6435,-94.6319,10.0350,-114.0434,134.4391,-85.3635,91.6973,-115.6721,49.0401,-138.5719
-1609.3750,188.7137,124.0925,119.4287,16.4831,39.5521,-65.0660,38.9119,-26.1311,-209.8514,-68.3272,179.8619,14.2117,-81.5159,-95.5897,-31.7521,-138.7529,-24.4469,-89.7276,-65.5356,63.3579
-1601.5625,69.8322,146.6867,-77.3315,-67.5957,-118.4810,-75.8775,-228.8126,-110.4931,-257.7875,-42.4480,204.1902,5.5820,-53.9499,3.9535,68.1546,-40.0439,173.4899,38.2942,165.9590,15.3734
-1593.7500,304.0275,99.3836,99.9959,-113.5616,58.5571,-81.5824,58.5399,-115.7424,-7.6484,-49.4522,306.6099,-83.1323,-22.2876,-149.3910,61.1403,-156.2140,19.5252,-184.5643,-56.4667,-101.4867
-1585.9375,44.0238,15.8809,-33.8771,-54.7280,-111.6215,4.5075,-37.3345,7.8011,-66.7031,74.3444,133.8409,-31.4100,-153.8109,-60.9316,-35.0642,-31.5794,6.3793,49.3684,1.9036,132.4234
-1578.1250,31.6358,-31.0145,-111.1328,-102.2846,-151.2001,40.1974,-150.5876,-30.0459,40.8386,109.7399,203.6665,-85.5659,-80.7390,-62.8750,109.3120,-33.3467,64.8188,38.8918,129.8215,-90.0596
-1570.3125,65.3270,-31.8065,-7.3097,-68.7391,-9.7055,70.9874,138.2262,112.2087,72.4535,103.2461,122.5879,-69.1592,-158.5649,-141.7059,-44.2153,-74.9932,-113.6221,2.5315,-117.1569,14.5605
-1562.5000,-188.1620,-109.7995,-197.6718,-75.3961,-90.4024,101.5813,-89.1500,106.2611,-45.1267,207.5517,77.3178,-60.3151,-163.5820,-37.7477,23.0543,-6.8501,54.7301,136.9533,120.6453,7.9570
-1554.6875,21.6788,-180.4360,-7.6860,-75.6906,138.2378,72.5349,102.8239,4.6783,73.6229,31.2203,157.3822,-109.9153,-81.2665,-103.4371,103.6461,-145.3504,18.4265,-39.2520,14.7712,-168.2753
-1546.8750,-106.9336,-202.5107,-43.1596,-27.4399,140.4153,38.0439,105.3208,43.6405,111.9104,32.4404,47.0051,-69.8629,-150.3963,-63.5786,-41.2049,-69.2984,-5.3084,79.1018,-78.5514,91.0132
-1539.0625,-152.3230,-177.3775,-118.4085,-140.9794,102.8058,-72.2317,-41.9639,-66.1921,221.3885,105.8532,154.8287,-128.3819,-40.3354,-27.5390,105.1231,-33.0574,126.1423,-0.3466,88.2758,-93.5050
-1531.2500,-45.2857,-175.7968,62.7718,-69.0622,247.6171,-111.0380,250.1658,6.4304,183.3042,29.7325,189.1004,-111.4805,-39.8382,-102.0373,29.8850,-107.3542,-48.9399,-174.3208,-122.4512,-21.5677
-1523.4375,-270.7273,-223.7223,-66.5360,-81.6460,43.9356,-129.3397,-26.2076,-13.4487,15.7243,84.1139,130.8840,-80.3772,-21.8391,62.9541,120.1515,57.8425,41.4765,-11.8082,74.3026,105.8378
-1515.6250,9.6291,-189.8409,86.9571,-153.4216,126.0456,-231.8370,18.2236,-77.5143,134.9372,18.3053,210.4612,-159.4754,98.9414,-38.2613,275.1920,-43.1562,5.6834,-222.4885,38.8177,-69.9380
-1507.8125,6.6734,-16.2668,108.1343,-85.5035,37.8337,-245.6438,77.3227,-16.8882,82.8489,114.2163,120.7426,-74.4285,-60.5803,-51.7702,75.9435,16.5550,-68.3848,-189.4651,-175.9572,172.9682
-1500.0000,-78.2139,40.3576,28.3846,-133.5306,-115.3192,-288.3987,-184.5064,-97.2133,150.8052,145.1733,187.0827,-67.4404,7.9404,52.7571,143.7363,48.3019,93.5855,-202.4065,92.2768,19.9181
-1492.1875,167.4286,4.5413,211.1664,-98.9976,31.0489,-251.5977,108.1865,-59.9852,150.2724,70.6888,221.9792,-73.1518,-28.0045,-21.1556,70.0676,-62.3881,-118.8810,-342.7742,-84.9486,19.4316
-1484.3750,-37.9603,45.6745,-46.0932,-91.5185,-151.6392,-176.8493,-111.1836,15.1795,-69.3073,218.1581,146.8475,-25.9626,-98.9977,52.8708,33.3562,85.8642,-6.3902,-125.2080,27.7678,166.8656
-1476.5625,144.5497,88.7088,-28.4476,-119.1304,-97.4375,-122.2001,-129.6395,-38.7386,-13.9837,127.5430,274.6076,-54.6578,-42.1133,-1.2099,125.5252,-4.9877,-36.0153,-188.7375,104.3418,-71.7832
-1468.7500,172.6490,117.3454,27.7787,-20.1476,-112.6629,-26.9484,2.4663,55.9387,-66.0704,74.5335,182.9742,21.1499,-166.6389,-15.6845,-73.6998,-19.2307,-218.0105,-52.6587,-43.4738,133.1561
-1460.9375,12.0330,62.2308,-98.7127,-74.9158,-202.6257,-6.4435,-197.1607,-33.1382,-82.9163,58.7577,202.6142,-5.5999,-107.9246,42.0704,19.3203,75.7507,-28.7544,67.6531,217.9311,43.3270
-1453.1250,211.6036,-18.6923,113.9957,-84.4708,10.5950,-12.7299,126.3924,-76.0134,56.4155,-21.8129,304.4613,-77.2469,-77.0425,-111.9780,12.5149,-78.0647,-214.2709,-82.8156,30.5179,-37.2874
-1445.3125,10.6862,-42.1104,-29.7795,-108.5180,-59.6919,-45.5188,19.4233,-34.4099,23.2532,54.1187,158.8245,-40.1495,-145.6733,2.4592,-57.7838,-0.3958,-169.2612,139.2040,75.6006,149.5636
-1437.5000,91.8891,38.5878,-45.4316,-168.4570,-1.8723,-134.2079,4.5767,-159.7058,192.1800,40.1473,253.2921,-76.1814,-85.2346,-12.0193,73.9958,-14.6405,-89.1614,-25.6764,156.7355,-85.4785
-1429.6875,123.4778,70.6970,53.2999,-99.0008,98.3294,-106.4949,215.0972,-94.6104,71.4911,29.5875,241.1672,-30.8288,-130.4131,-58.1035,-46.8237,-60.4849,-232.6426,-28.1368,-92.7225,87.8738
-1421.8750,-70.5070,53.1979,-184.5493,-116.1464,-66.0554,-87.3796,-131.9683,-111.1201,-91.7937,86.4276,185.4666,-14.5597,-73.1979,72.1873,45.7579,70.0515,-5.7308,130.7814,100.1929,70.6013
-1414.0625,187.8502,66.0429,-18.0597,-68.9454,101.8961,-102.9087,72.3146,-127.2734,-71.7358,-3.3743,205.1177,-34.5832,-14.6630,-53.1701,66.6717,-129.0624,-98.4696,-31.9364,41.4416,-92.2992
-1406.2500,73.0124,126.6906,-72.7737,27.0386,8.6335,-83.6524,16.3759,-34.6411,-273.8742,14.6232,147.5938,45.6177,-104.3369,-34.7305,-98.5979,-72.3778,-38.3887,100.1348,66.5085,109.5791
-1398.4375,82.3922,136.5458,-54.2717,-32.7750,-8.4278,-64.2032,-147.3460,-161.8078,-181.8208,-75.1685,313.2799,-6.9461,-10.8362,-51.1062,67.3217,-52.5071,76.8838,4.3960,181.7395,-91.3331
-1390.6250,202.1103,45.7510,65.5620,17.7636,75.8316,-54.4114,84.2449,-77.6321,-24.4253,-102.5919,322.3229,-17.7020,-36.0156,-78.1320,3.5808,-115.2814,-120.4608,-85.9733,-155.6743,29.1103
-1382.8125,-45.8350,10.2518,-120.2825,-53.3962,-109.6061,-56.3223,-100.8615,-78.1745,10.2904,6.2693,245.6938,-35.1352,-36.9130,-5.8840,75.1462,-6.7848,19.5048,54.9353,54.1947,63.8257
-1375.0000,101.9676,52.5081,79.6333,-80.7953,16.6935,-111.4825,99.7808,-133.9662,211.7336,-123.1195,260.8236,-71.6516,55.9050,-97.8934,165.4449,-135.5407,-44.7779,-183.4039,25.7918,-139.6867
-1367.1875,-32.7313,59.2767,39.0419,32.2937,-23.5254,-77.1523,169.8849,-26.2756,208.6641,-88.9912,109.4803,12.1742,-55.7952,-63.4050,-57.7406,-136.7981,-38.5328,-36.2485,-73.0958,78.2823
-1359.3750,-33.7992,23.6455,-62.9231,-3.0190,-51.1371,-68.2297,-4.3852,-125.9890,218.1918,-116.2595,191.7584,-31.1813,-8.9201,-54.3363,61.6610,-127.4748,172.3062,-0.5145,100.5795,-133.1499
-1351.5625,204.4128,15.2999,184.4029,58.9665,159.5304,-41.0080,317.6196,-61.4035,61.0007,-200.2172,217.3503,-11.7239,-90.7822,-136.9649,-58.6464,-210.8522,57.4693,-114.4574,-155.4409,-106.2681
-1343.7500,-0.1530,-12.8584,39.9507,66.1402,15.4041,-0.5879,62.8258,-21.6319,-266.9747,-49.9804,182.1711,25.6827,-123.4598,-23.4149,-56.7405,-60.0508,204.8432,68.7794,-7.2702,6.7842
-1335.9375,187.1348,-71.1687,136.3600,79.1664,75.1237,-50.3147,85.8924,-71.0039,-60.1026,-62.8864,277.8496,-47.5235,-25.3295,-110.0238,76.9955,-146.4081,146.0630,-130.1287,38.7195,-227.2949
-1328.1250,95.8722,-21.0243,178.2126,129.6297,44.2670,-44.5996,202.3699,9.0575,92.2064,-94.3306,135.0027,8.8428,-92.7752,-104.1830,-64.8102,-139.3159,19.7692,-114.5826,-122.8126,-0.9395
-1320.3125,1.7482,26.2300,10.2028,36.1927,-123.4717,-137.7910,-38.0319,-120.7884,109.6078,-40.6808,187.2859,-10.9490,-37.1502,-13.2725,62.4748,-48.1541,171.5727,-66.9567,169.7258,-94.4980
-1312.5000,269.4148,47.2868,214.9830,21.5551,44.5678,-190.1791,167.3470,-98.8359,19.7966,-55.2192,281.3755,-33.6382,-51.7675,-101.5625,9.5456,-137.1933,-18.8112,-221.5104,-20.9384,-73.2406
-1304.6875,32.3079,-13.4553,30.9696,67.1082,-101.1906,-114.3713,-52.0889,-59.7040,-125.8071,18.4431,169.6917,25.9748,-123.2040,46.3317,-25.1699,11.9514,26.0239,0.1177,23.6008,148.1868
-1296.8750,97.6717,-88.7411,35.4201,-42.8820,-60.5010,-73.1221,-48.0630,-129.1240,136.0308,-49.4403,210.4729,-64.4231,28.7738,14.6597,125.5469,-56.4710,56.3074,-74.8098,88.5550,-67.9197
-1289.0625,61.4749,-88.5727,26.2988,-8.4286,3.6086,28.5672,200.3772,9.8832,127.3245,-93.8632,90.7221,-12.9720,-50.8278,6.4317,-30.2776,-63.4465,-120.9216,-5.2727,-53.0254,107.4193
-1281.2500,-68.3404,-42.0525,-176.4456,-101.6268,-125.9171,46.5982,-76.8120,-45.7770,-3.0165,33.0530,143.3456,-17.6310,-34.1116,97.5300,60.2465,26.8995,31.2047,112.5928,203.7277,14.0903
-1273.4375,158.7922,9.4116,28.7576,-154.8661,80.4890,32.5763,130.9322,14.5085,93.5593,18.9255,238.9299,-66.1019,26.5086,-26.4206,82.7061,-96.8046,-163.6953,-81.5765,-62.5706,-110.2666
-1265.6250,-10.9078,51.0277,-83.8772,-112.9611,-32.9664,29.6923,53.8010,85.9226,-55.7221,89.9529,87.7048,-1.3502,-47.7458,44.7629,5.3306,10.6241,-122.4138,66.3863,-126.7086,107.5011
-1257.8125,35.1707,-8.5965,-136.7356,-137.3041,25.3390,15.5526,-34.5604,-74.9206,1.7423,75.7260,108.2578,-61.1665,84.7084,30.6754,211.6844,-40.2198,-6.3798,-28.9146,23.8667,-127.9731
-1250.0000,34.3886,-150.0709,-33.4509,-67.5014,128.7682,46.5588,217.1917,29.3762,69.3426,68.6621,26.9789,-81.0743,79.2765,-49.2621,94.1890,-82.9154,-148.1626,-64.0521,-188.3873,12.7046
-1242.1875,-256.2138,-229.3993,-153.9834,-76.5570,-29.6425,72.7075,-51.8953,-18.1941,95.1065,58.7462,15.8887,-65.2668,105.9627,87.9239,156.8486,17.5108,53.2119,137.9401,47.4995,38.5081
-1234.3750,1.9818,-217.9269,86.2927,-98.8123,174.7404,19.6595,152.8123,-69.9634,151.6563,-104.3610,182.6170,-118.2903,163.4007,-39.1019,214.2860,-145.2730,30.3913,-95.2572,-46.8283,-124.8670
-1226.5625,-83.8081,-162.4520,95.5773,-44.0769,111.1133,29.6026,126.4912,13.2409,-57.8042,-57.4637,117.3829,-49.7474,26.8135,-28.1397,2.7361,-97.0747,13.5995,65.5390,-98.1320,105.7325
-1218.7500,-61.5133,-103.9261,19.9369,-55.2915,35.5469,28.5918,-95.7572,-24.5074,-97.2124,-22.5188,226.2224,-76.6875,63.2402,-66.1541,112.2265,-98.8514,142.8480,54.3623,65.5892,-116.6190
-1210.9375,82.9225,-30.2488,203.4290,18.6335,146.1025,-7.2770,162.1167,13.8913,-60.4799,-95.4109,151.2239,-24.6600,-9.2155,-103.0140,1.8691,-135.4760,-64.7291,-12.6535,-212.5229,-42.8100
-1203.1250,-121.9527,-59.9198,-16.4057,60.1942,-109.6827,-6.5138,-130.3581,-22.0847,-169.1012,53.3458,77.9162,18.4347,-44.0444,45.7550,2.1811,50.5258,81.3570,204.9585,-32.9830,68.6224
-1195.3125,90.2856,-57.4813,142.8731,62.8637,11.6241,6.3416,-81.7333,-81.9679,-83.6393,29.2039,200.7284,-50.4802,5.1785,-125.3947,51.5760,-83.3901,83.5497,66.6786,-31.3621,-139.8231
-1187.5000,-49.9850,-21.5447,170.6477,134.0338,-34.5868,108.6866,56.3502,19.6235,-128.6619,-16.4281,117.0697,27.1009,-149.1258,-133.0541,-140.5213,-90.8183,14.2819,208.9023,-136.2231,72.2121
-1179.6875,-167.4883,2.1220,56.2104,86.9549,-75.0226,140.7749,-131.7805,-57.0454,-23.9119,16.6843,112.1860,6.1458,-79.7156,-100.9848,1.1236,-22.5209,141.7667,231.8543,26.6293,-116.0104
-1171.8750,71.8430,-40.3655,270.6176,115.7199,102.3772,134.7097,119.9236,10.1285,80.6675,-26.3482,105.1653,-19.4980,-48.4989,-181.0680,-5.3860,-138.3793,-40.8659,14.6758,-227.6519,-122.3683
-1164.0625,-81.4886,-87.5417,102.3457,103.7723,-65.9147,78.9322,-84.0810,27.5783,-50.4556,64.9154,84.4758,-0.8973,-68.0153,-53.8743,-62.5815,-10.9677,122.8273,142.7802,-99.6124,41.5410
-1156.2500,131.4975,-121.4108,225.3920,35.1336,94.0952,18.4552,-34.7772,-69.6718,-37.2950,-32.5119,207.0956,-66.9645,-18.2825,-114.3945,-12.5004,-108.2733,159.8271,4.1859,41.7036,-203.2349
-1148.4375,87.0275,-94.7354,243.9785,62.0412,112.6375,73.5280,131.0378,23.6080,-55.5976,-87.3850,78.2935,-8.0187,-109.0315,-95.3676,-140.8581,-125.0313,10.4190,66.1486,-108.4107,-0.4699
-1140.6250,-81.4462,-87.1033,70.5488,-1.1004,12.1520,47.5401,-116.1844,-76.1851,-7.9429,-76.3260,14.4781,-24.1473,12.1387,-10.4196,15.7348,-40.8756,192.9701,109.0359,74.4090,-63.7708
-1132.8125,130.8860,-85.6568,257.9208,0.5593,199.4494,-22.6555,145.3668,-72.1945,105.4910,-72.4667,54.4791,-74.3891,52.0658,-154.6818,-17.8804,-147.9299,19.3458,-65.2606,-171.9604,-97.2538
-1125.0000,-32.8581,-3.3032,113.2044,48.1128,-18.3561,-18.9567,-35.2065,4.6702,-112.1783,40.2952,-17.5940,16.8559,-91.1287,-40.0559,-124.5745,2.8924,30.6458,88.3329,-53.4004,126.1327
-1117.1875,82.9074,42.5471,58.9985,-46.8280,-35.6499,-35.7607,-127.2512,-85.9652,-56.3367,-13.4304,75.8423,-40.4645,38.1389,-57.9432,115.2167,-13.8021,41.4374,-42.5752,95.6309,-74.9737
-1109.3750,54.1059,13.8547,93.2258,-4.3285,34.4871,-37.1214,91.1245,22.8373,87.9578,-14.6979,-38.2427,-28.4599,36.8265,-96.3857,38.4626,-52.0479,-162.2890,-105.0245,-143.8684,143.3652
-1101.5625,-190.7071,-20.8803,-199.5588,-3.8850,-184.4014,-36.5457,-164.5363,-12.4373,88.1979,58.9627,-110.3374,-10.5879,73.4425,50.0901,149.6714,94.6168,12.9439,35.4520,30.5836,143.6344
-1093.7500,40.5792,35.4868,-26.2330,17.6659,-48.2002,-46.8796,8.8856,-59.6198,42.4988,13.7243,-10.3151,-14.4235,102.1140,-32.3306,102.9738,-24.6231,-71.7080,-118.9565,-89.8608,24.0301
-1085.9375,-89.5728,46.4075,-98.3546,97.7607,-120.4514,65.3268,-100.1792,52.7239,-214.6507,88.0482,-120.7108,59.3117,-7.6895,5.7940,-43.1573,87.6784,-60.7824,68.1828,-79.7389,244.9514
-1078.1250,-50.5039,49.5380,-121.2573,-2.9410,-106.4880,79.7326,-232.0215,-5.7397,-15.5920,66.5619,-68.8854,-0.8831,44.6718,-15.9042,45.9022,29.1529,83.3357,71.5186,98.5615,3.0766
-1070.3125,65.6537,60.7722,72.9252,43.4585,87.5604,163.2350,108.2017,77.8712,30.5447,-33.8258,-96.9418,13.6478,-91.9005,-152.5005,-127.9386,-107.2750,-46.4115,47.9747,-171.9915,49.3065
-1062.5000,-128.9503,41.2194,-59.6688,94.0539,-45.1752,215.9301,-96.3747,56.6600,-100.1328,-55.0075,-154.7653,49.9970,-150.2988,-99.9224,-149.5764,-19.5288,181.0515,239.6120,18.6741,64.7058
-1054.6875,72.2002,32.4372,125.4927,85.4061,139.8378,217.3774,13.7929,-15.8024,9.9269,-90.4205,-6.8276,-10.9261,-39.9940,-210.6024,-76.4825,-128.0415,101.2709,-14.9857,-61.9318,-155.1275
-1046.8750,-43.1640,23.1415,105.1608,76.2536,82.3507,196.3282,66.4404,111.2117,-47.5019,36.6626,-102.3623,43.6557,-133.2075,-82.7893,-206.8669,-38.0657,22.0293,45.9197,-212.0185,81.5151
-1039.0625,-105.5620,-75.2193,46.8167,-21.9446,23.8454,65.2291,-101.9237,16.1607,41.0232,15.6656,-12.9231,-26.7682,-44.4998,4.9446,-8.3138,13.8226,205.7482,-52.2384,40.8471,-86.8967
-1031.2500,157.4397,-129.1779,282.8615,30.2599,186.7273,-29.4718,134.0820,-4.5117,-17.0772,-78.9365,38.9297,-38.8816,-29.4266,-52.9217,-103.3639,-43.8939,45.8981,-209.9778,-119.8455,-34.8998
-1023.4375,24.9818,-83.6257,101.4208,74.9532,-31.8776,-26.6833,-157.4084,-1.7105,-234.6772,-39.0413,-32.6861,23.7104,-62.8654,59.6953,-26.8951,68.8645,160.5607,8.7650,28.9746,114.5618
-1015.6250,177.5797,32.9936,196.0339,15.6959,25.5742,-78.8464,-99.8330,-90.8579,-178.2227,-165.0830,62.7528,11.4256,67.7041,44.3504,141.6085,-19.3399,137.2669,-155.4381,4.8238,-84.9146
-1007.8125,128.0696,123.5315,170.5341,71.3361,-0.0948,-67.1159,21.6033,-5.1243,-239.8609,-116.2165,-37.8854,87.7675,-30.8569,54.9044,-67.9807,-7.6538,16.9013,-63.7316,-185.3942,146.4888
-1000.0000,-42.3920,93.0858,-38.9389,6.9786,-135.7408,-56.3943,-223.9405,-68.4091,-82.5105,5.6431,-25.4963,32.7027,16.5572,67.4355,16.4188,77.0045,163.5317,-23.0472,64.3777,10.8807
-992.1875,205.5870,60.1120,112.0226,79.0758,15.0522,-52.2229,36.9434,-27.2538,68.2480,-64.0459,-95.6531,6.9440,-16.6143,-76.5748,-16.7422,-66.8872,24.6324,-195.8847,-110.3858,-22.2579
-984.3750,69.5801,65.1400,-76.0040,49.1648,-136.1494,-56.0589,-78.1828,-31.1313,-82.9806,-67.7374,-173.7902,45.2609,-93.8048,30.4045,-57.8823,40.2060,135.7586,-50.7291,34.8675,193.5728
-976.5625,165.6802,20.2557,-2.9088,-30.6314,-64.2353,-93.7917,-116.1898,-141.9121,-10.0945,-105.3290,9.1829,-34.7670,15.0693,-7.5392,88.0620,2.3792,195.9809,-131.4721,95.2049,-27.4861
-968.7500,111.6573,1.2671,43.0737,91.4646,-17.4354,-45.6244,114.6649,15.1926,72.6793,-57.0129,-54.9221,29.9946,-158.1750,-33.5741,-195.0815,-23.5436,36.1361,-43.2989,-100.5214,129.3463
-960.9375,-59.8866,-28.2568,-130.4668,61.0002,-118.1559,-0.0172,-132.0133,-12.2739,82.8882,25.7464,-118.5351,32.7666,-185.9826,48.8239,-185.7696,58.9538,217.7447,101.3082,185.2057,28.6054
-953.1250,145.6196,-34.7105,89.0423,55.5918,64.1766,-37.3657,123.3446,-12.7075,228.1204,-48.4473,-83.0765,-13.5548,-114.7681,-62.7370,-114.4138,-52.5086,36.4231,-151.0196,1.9957,-83.0777
-945.3125,-50.6023,15.0985,-17.1859,69.4396,-42.2322,3.5361,16.9289,28.0744,11.6009,-7.4043,-152.3412,47.1953,-110.3138,14.9374,-146.7855,61.2594,85.3743,5.9031,-53.9553,177.4558
-937.5000,59.7823,91.5203,-39.7998,-30.0880,8.9698,-55.9482,-116.8815,-105.5418,-158.3381,-29.7648,45.9952,-0.3763,13.7018,-7.7968,50.4246,39.6178,161.9187,-59.5622,126.6701,-28.3999
-929.6875,194.9382,50.7535,58.3761,34.1925,143.9553,-66.6232,129.0661,-6.3725,-280.5088,-41.3302,34.1469,30.3541,-34.5134,-19.7251,-70.5649,-9.2266,-54.6899,-64.1984,-89.8589,106.5386
-921.8750,-68.3710,-38.5043,-107.9094,15.9712,-96.5230,-49.8017,-148.4638,10.2653,-190.1552,48.5788,-96.1650,27.4256,-18.2449,106.8166,54.9520,117.3903,68.2192,92.6400,136.1177,122.9387
-914.0625,62.1165,-47.9535,36.6127,-63.4411,47.8049,-89.1825,32.8138,-28.3119,174.9960,10.2898,-24.6790,-57.8614,51.7974,-4.8472,127.2530,41.7968,-47.0657,-128.7099,55.8961,-62.8447
-906.2500,-72.7946,-40.7960,-3.2775,-92.2539,-28.2691,-91.9698,65.6631,77.6837,96.7283,117.5981,-100.5769,-5.8116,-61.5636,101.0830,-59.8199,111.7965,-75.7213,18.5463,-43.6852,153.9485
-898.4375,-90.2310,-94.1836,-12.6983,-180.6044,-75.8744,-102.3083,-128.0183,-4.8814,86.9005,108.3505,-1.0043,-68.0101,38.5042,128.4469,113.5490,139.2289,47.0668,1.2495,148.1665,-39.8152
-890.6250,29.1638,-115.7147,71.7201,-130.1094,45.3595,-54.8004,140.1239,42.3896,133.9129,82.9552,10.4353,-74.1463,48.3989,28.6688,13.7724,76.5144,-184.2667,-90.1839,-85.0990,44.2725
-882.8125,-202.6068,-101.4367,-175.0381,-116.8312,-164.5829,-6.5077,-142.9220,52.4312,107.7345,130.3387,-89.2937,-25.7132,22.0862,149.6752,23.8074,160.5757,-29.7922,135.1619,104.4628,128.1338
-875.0000,-18.8790,-127.6406,-45.3048,-108.0458,-35.0212,13.2891,-13.4686,-37.0265,201.0369,40.2308,4.4686,-79.8774,41.2427,22.1812,118.3223,-3.8642,-20.8267,39.0294,77.5165,-109.4819
-867.1875,-35.5763,-74.2273,2.0016,51.3425,-24.8697,60.6989,-3.4536,120.0940,-46.0713,13.7360,-59.1655,52.6135,-132.0106,106.2954,-128.5393,43.2993,-72.2343,127.5141,-80.8050,84.4793
-859.3750,-43.8053,93.6416,-71.2196,-27.8133,-61.2328,97.5630,-259.9583,8.6536,-120.7220,-23.3205,51.6641,67.4258,-59.8317,142.8363,-55.9558,79.8847,60.8010,119.4398,121.3216,-100.1258
-851.5625,190.0941,186.6602,62.7042,-5.8191,109.5588,47.5819,19.6706,32.3519,12.7648,-72.2349,38.6454,55.4608,-73.5236,-18.4688,-106.2273,-80.3768,-162.9939,0.5376,-103.3726,-113.5706
-843.7500,-127.9397,185.7308,-164.3043,29.2196,-45.5797,77.6479,-170.6557,99.0734,-68.6997,103.8844,-116.2992,110.7974,-117.1630,85.2682,-149.4232,59.3991,-93.7213,211.6800,35.9845,26.0019
-835.9375,-52.7761,49.0109,-115.0977,68.4753,42.4998,90.9247,-157.7662,38.9892,-17.9835,45.2045,-65.0383,55.8580,5.3869,62.1994,10.5655,36.3647,-53.2572,75.0319,74.5248,-181.2104
-828.1250,-46.1316,91.7993,-117.4035,217.2426,1.0817,160.6969,-51.4079,145.3757,-168.7791,41.0249,-178.2646,156.0507,-71.5620,94.6402,-102.9306,68.8352,-186.2772,152.9035,-164.3826,72.0607
-820.3125,-178.0107,206.0515,-325.2352,155.4768,-168.8512,137.9169,-331.5823,121.1928,-192.1198,128.2776,-203.0269,160.0184,-23.0612,144.5115,20.0324,155.7278,-1.8596,197.2167,90.1578,-25.2444
-812.5000,17.9910,191.2206,-117.1723,139.6275,-34.8893,89.0486,-50.8805,145.9002,-58.5884,79.4262,-177.8857,119.0558,37.3148,58.2850,43.8832,32.5221,-122.5177,-29.5414,-102.4002,-111.6432
-804.6875,-201.2933,6.1071,-244.3974,131.4726,-162.2148,33.8750,-142.5000,237.2728,-76.3716,208.2569,-269.0124,121.7297,-17.6043,223.7435,-47.5532,197.9969,-94.4370,103.3923,-41.2230,90.6235
-796.8750,-125.2670,-57.7025,-230.3002,32.6283,-110.2169,-60.0005,-164.7992,105.9294,48.1373,224.3764,-179.8244,38.9379,144.7617,239.4826,151.2954,176.7518,-89.0540,-101.3692,140.2568,-114.8027
-789.0625,4.4771,38.2475,-138.4744,-48.4680,-20.4848,-116.1169,109.6125,159.3189,101.4024,131.2567,-198.8883,45.0744,86.8665,181.9826,20.9089,120.2595,-273.8873,-146.3444,-11.4862,85.5074
-781.2500,-129.4022,44.5686,-316.2804,-182.2088,-160.3748,-146.8727,-104.6094,54.0464,107.0127,173.4636,-192.5922,13.2280,92.3233,261.8176,100.8724,236.0978,-91.3632,0.0225,241.1108,91.1316
-773.4375,84.3077,-58.4855,-87.4938,-180.3400,68.3341,-102.0120,123.7557,26.3751,225.1773,109.2641,-73.7002,-59.4859,137.3536,123.2511,109.4148,60.5345,-195.2279,-102.9810,-3.6647,-47.6358
-765.6250,-112.5431,-114.0717,-154.2691,-95.0259,1.4952,15.3102,92.5414,179.1384,157.7803,152.5187,-177.3561,2.2103,-40.1772,166.1400,-67.5839,140.4263,-179.6311,87.4881,-58.9440,142.0036
-757.8125,-117.8050,-119.0398,-148.4388,-171.0939,7.2766,-15.7415,61.9389,74.5079,236.9738,85.3755,-98.4193,-38.7816,37.8723,171.6331,10.9978,109.9181,-44.4560,12.5689,181.3524,-109.7705
-750.0000,18.4451,-88.4443,-10.0810,-104.6026,182.5926,-24.2262,309.8467,101.4208,116.6907,75.7981,-143.9374,3.6100,-45.5368,125.6905,-108.8682,26.9740,-187.7126,-61.7707,0.2297,-9.0020
-742.1875,-136.6866,-31.2380,-209.1092,-48.5156,19.5415,-3.1149,36.3630,85.9054,-9.9898,170.8031,-195.8400,52.6121,-98.3405,183.3371,-124.1185,120.6074,-26.3579,100.4758,196.7309,11.3339
-734.3750,127.0708,20.8842,0.7602,-66.5245,193.4032,-13.0965,135.7869,1.2805,53.2113,-23.2989,-95.8554,9.7097,0.7338,62.8800,-24.4851,-36.8667,-44.0945,-128.3494,108.1496,-183.4177
-726.5625,56.2147,56.4201,24.0191,3.8654,143.6737,-25.6671,122.5792,61.0342,-144.2061,-36.0046,-72.4611,69.8814,-48.8020,85.8190,-184.4412,23.0594,-44.3989,-56.7520,-33.9796,97.1964
-718.7500,-10.9717,-10.3761,-37.0448,-133.0810,7.6254,-124.5653,-86.9643,-37.5645,87.0147,85.9235,50.5955,-24.6931,34.2984,134.3960,-25.7570,71.6159,65.9382,-88.5112,180.5231,-75.5552
-710.9375,151.0127,-23.9581,94.0786,-111.8173,139.7688,-103.2539,191.6587,20.0213,181.4033,33.0418,71.8588,-61.2193,18.5884,-28.8090,-78.8757,-54.6133,-124.4999,-173.0434,-44.7477,-55.1007
-703.1250,-56.6885,14.7769,-55.4867,-71.2481,-10.7680,-31.6547,-32.4195,15.8733,-152.9123,-42.5643,-4.5669,3.9692,14.1848,41.2816,-8.6773,52.4419,20.3820,77.7137,99.3071,88.6180
-695.3125,134.5671,31.4910,42.9001,-56.7078,125.6523,-43.1068,65.4571,-143.3399,-92.2916,-238.2308,93.9433,-55.2124,149.7136,-117.6873,163.4521,-106.5617,72.2231,-47.5627,79.3083,-107.7042
-687.5000,29.4622,67.8817,-3.0814,120.4900,79.7173,58.0931,166.9411,-77.9349,-64.0357,-136.2589,-97.8926,43.8941,28.8898,-126.0048,-28.7539,-114.9134,-66.2493,94.8327,-94.9904,103.6006
-679.6875,-132.6266,117.2891,-201.0376,99.6968,-119.1869,80.3041,-143.5582,-131.5524,-43.7861,-4.3092,-75.7201,55.2212,50.0687,-31.3312,66.0326,-20.2851,123.2714,214.2290,128.7098,-59.1128
-671.8750,50.0981,123.5592,28.8409,140.7655,37.7567,127.3824,123.7685,-85.3287,38.2976,-105.5143,-29.7108,52.4385,59.0798,-132.8029,38.6558,-158.8012,-81.3319,45.5130,-41.7119,-123.9694
-664.0625,-117.5213,96.5013,-81.6263,113.4836,-108.6316,127.1169,-61.2628,-13.4751,0.0345,-69.0782,-104.0455,64.7441,20.7431,-59.6349,0.9430,-48.6845,-3.2688,158.4457,71.5426,58.7806
-656.2500,0.5141,75.1148,-22.4344,-14.1275,23.6526,2.5167,-75.6320,-137.9752,22.3870,-120.0079,66.2650,-22.5865,190.0447,-73.8221,170.8605,-62.9258,11.4415,-38.9547,190.4319,-139.8153
-648.4375,41.6221,81.8362,47.8418,27.3688,94.0347,-36.9623,141.0590,-67.3958,-91.2003,-159.8510,26.6764,9.5215,112.4527,-113.8968,19.8878,-103.0573,-86.7197,2.7782,20.4670,76.6755
-640.6250,-115.1108,101.7117,-147.7131,13.0144,-28.3964,-86.2813,-93.0779,-190.6795,42.3729,-99.5619,14.2381,-6.2884,99.0096,-90.8362,81.0628,-43.0562,144.2671,128.6641,250.6671,-9.7126
-632.8125,110.9775,152.4634,94.5721,133.5168,177.0261,-100.7305,112.6280,-244.1163,62.7773,-114.4230,72.6326,17.2145,83.3948,-179.9223,66.0683,-169.2007,-16.8835,-66.5637,-15.2644,-136.2467
-625.0000,-102.9317,220.2351,5.8587,236.0199,52.4715,-40.1716,-12.6810,-111.5797,-245.8296,-91.3045,-51.9598,145.2779,-5.2068,-46.0133,-57.9070,-35.3565,15.9910,107.2129,-54.1723,106.1765
-617.1875,-63.3810,190.4664,-16.3777,135.9855,-6.6039,-26.1518,-146.5218,-172.5978,-160.0072,-114.7499,36.9014,65.2178,118.6382,-69.6642,139.5542,-22.0745,92.3041,6.4485,126.3534,-100.9517
-609.3750,42.1342,85.7178,51.3659,135.9592,98.3147,-69.1214,104.6011,-32.6325,-129.2135,-120.1983,30.7575,66.2183,37.4799,-40.3060,-51.9791,-65.7821,-48.3540,-63.2818,-14.0750,38.9101
-601.5625,-80.1914,35.1394,-112.7241,85.0874,-102.5865,-85.9326,-171.1183,-50.5402,-185.2700,-29.5256,12.7637,61.8421,18.4852,89.1892,-33.3518,62.6414,147.1483,62.1354,215.6626,56.8864
-593.7500,128.1676,68.2793,36.8823,82.9143,84.2189,-83.0241,-21.1383,-121.7594,-35.6584,-136.1706,53.4499,38.9319,58.1847,18.3908,43.9624,-81.2348,75.3810,-151.7185,72.1032,-87.4269
-585.9375,-45.5796,105.3354,-7.6183,190.6238,-71.0729,19.7889,-67.2897,-57.1056,-119.1551,-143.9218,-64.9532,113.3597,-61.2021,10.4947,-74.8095,-16.2069,77.5455,28.3398,38.4856,160.1238
-578.1250,-9.2183,108.5081,-70.9961,122.4493,-170.2354,66.7133,-240.3228,-193.3599,-35.5536,-206.5880,18.7416,67.2762,22.5088,20.6887,82.5047,-6.0947,220.7941,-5.4967,251.9652,-50.2392
-570.3125,220.4564,127.0429,129.9554,105.6473,-43.0471,84.9984,-4.0356,-104.2814,54.3832,-189.9206,-37.2324,65.3689,-35.4298,-36.7552,-47.8270,-99.6302,-5.5794,-125.9491,23.8250,2.7446
-562.5000,-35.3507,154.0893,-66.5744,26.3523,-166.3261,70.7870,-238.2421,-44.7307,-70.1863,15.2235,-51.7054,76.7177,-85.8474,59.2902,-60.6462,69.3185,55.5559,40.0914,190.1991,98.1910
-554.6875,138.6295,117.9538,87.7035,-115.1258,25.2124,5.3918,-84.6537,-75.3840,9.0112,23.1562,67.6075,-31.9155,30.5252,-42.8704,56.3128,-32.9329,-15.5083,-137.0393,118.3792,-115.5491
-546.8750,92.6952,36.9419,65.0696,-55.5038,39.8567,21.1048,75.9990,12.0356,22.2878,-34.8227,-64.9783,-16.5972,-27.9996,-64.9292,-75.6150,17.9160,-95.4404,-41.0464,-33.2958,118.7817
-539.0625,3.7809,-86.0489,-93.5359,-73.8690,-44.4611,-27.1726,-120.3208,-74.5628,120.5677,-10.8352,-39.5660,-59.0430,68.4677,32.9957,132.4482,42.7431,97.6274,-23.0547,230.0233,-40.9078
-531.2500,124.8323,-70.0287,105.8519,-58.2170,118.2240,-48.4326,152.3284,13.8246,171.8275,4.1417,-24.1710,-67.3226,82.9198,-63.0727,37.5025,-16.4205,-132.2812,-147.0222,-0.6251,-26.5943
-523.4375,-170.9167,22.2034,-136.5564,-71.3619,-86.8697,4.5198,-16.8306,100.3930,-34.7186,165.2992,-82.5716,6.4366,23.5908,61.0530,14.7777,144.6049,-74.9767,49.2109,54.9518,133.8786
-515.6250,-98.2207,-44.0925,-85.5060,-139.0436,-35.4916,-18.0648,-4.5242,40.4126,161.1572,178.8916,41.4598,-96.0504,110.7079,-34.3804,175.4856,85.0737,-71.2247,-87.0877,93.9808,-110.1920
-507.8125,-112.4453,-56.2641,-35.3736,-81.6207,13.9815,-40.5358,228.8477,89.5103,210.1132,155.5771,-19.4265,-62.7774,48.9297,-57.7069,41.2999,60.6481,-260.3392,-65.2579,-60.8445,85.8134
-500.0000,-243.0991,-46.8643,-203.6691,-176.6349,-80.9682,-99.4463,-14.2132,-6.8587,224.6159,206.7869,-3.7717,-76.2803,99.7034,66.5049,166.6601,148.7521,-108.9025,-19.8822,195.8818,-10.6579
-492.1875,-58.3265,-107.0078,-7.5252,-201.1792,79.5266,-86.8899,218.1564,41.2117,309.5481,145.4312,45.3109,-119.0142,148.9236,5.1729,179.4569,50.3112,-273.9999,-184.0236,-40.9142,-72.6724
-484.3750,-287.8590,-264.4446,-145.6739,-79.0257,-57.2585,-2.6302,79.2128,122.9467,59.1814,263.7543,-19.9031,-75.9213,82.8620,86.5336,76.9773,132.5660,-150.3775,78.5383,-23.9754,118.9752
-476.5625,-149.9401,-266.4075,-62.3605,-116.4109,26.4309,7.0917,15.7419,22.1285,105.2434,163.5187,101.3214,-124.9445,129.2499,23.3340,160.9333,32.2636,-12.3158,77.5672,79.4024,-165.9249
-468.7500,-110.5466,-84.8512,85.4303,-40.2968,174.6139,155.3254,199.7389,131.7952,30.7842,89.7778,-8.9659,-33.4041,-17.8548,-87.3567,-59.6019,-41.5232,-111.7286,154.1267,-196.6722,-56.3387
-460.9375,-346.7813,-73.9269,-48.4094,-30.8273,77.1824,241.9164,-119.8959,143.7963,-67.3311,139.3577,-69.9037,-12.3862,-6.5951,-37.7010,26.2171,44.0280,75.2072,305.0287,24.6121,-118.4318
-453.1250,-129.2403,-172.1793,150.5441,11.4535,276.5632,257.3192,115.2606,83.5863,19.3324,-30.2757,18.9388,-46.8001,81.4601,-97.2406,40.8254,-125.6170,11.9549,65.7660,-74.2924,-288.7151
-445.3125,-267.1663,-167.8659,70.0510,121.2876,160.5163,251.2858,107.9455,112.8982,-61.4536,35.6222,-60.6742,25.8271,-35.9252,-30.2390,-112.9977,-21.7215,86.2827,176.0733,-176.6141,-75.4904
-437.5000,-172.0884,-70.5387,107.5810,77.1382,161.5076,179.2744,-3.3443,1.2098,-26.2577,35.4980,49.7038,-13.7533,-0.3196,-104.2493,-2.8366,-58.8385,183.6058,61.3950,-9.9563,-297.2758
-429.6875,-6.1408,-10.2991,238.0021,171.8999,218.4005,162.1795,237.2359,94.4080,-44.2003,-18.7341,68.9795,37.3817,-90.8128,-158.3497,-166.7767,-113.0462,-37.1401,-18.3482,-231.3611,-168.1686
-421.8750,-179.8258,29.2987,16.8000,176.0077,-38.3233,163.4366,-57.8243,55.9363,-155.7953,17.3651,32.6188,87.5757,-91.9383,-11.1126,-130.3519,-2.9169,143.4650,91.2489,18.5952,-95.7485
-414.0625,64.7726,99.2150,133.8948,139.4290,41.2564,96.0042,94.4187,23.7612,-40.1071,-87.2458,112.5417,41.8070,-12.7684,-116.5679,-13.6420,-145.4841,107.3708,-120.8313,-53.1457,-275.0180
-406.2500,-62.1001,114.7018,-9.4781,260.4013,-64.6178,137.1365,61.1804,137.1176,-147.8735,-47.3201,-67.9894,132.7455,-84.0409,-39.4651,-156.3657,-31.4936,52.8552,36.6597,-177.2948,-14.7691
-398.4375,-93.4604,189.7017,-109.3304,193.8857,-163.9618,111.7867,-224.5353,-1.0332,-139.1527,-73.9162,-21.0291,128.0904,-0.8143,44.1216,36.3997,14.9844,197.8390,40.6569,37.0462,-153.0325
-390.6250,133.7479,242.3113,50.4070,175.9861,-39.7107,52.0579,45.3212,-25.5955,-90.8640,-171.9229,28.5186,125.1562,-24.9887,-16.6848,-24.2463,-82.9270,39.4521,-117.7060,-157.9926,-67.6933
-382.8125,-4.9321,211.0359,-98.7386,109.1894,-188.3371,12.4386,-178.7188,-66.0802,-131.4836,-64.8551,-11.8264,111.4331,-65.0521,52.6005,-63.7800,23.2490,184.1816,62.0245,21.0833,74.7068
-375.0000,125.4335,131.8241,84.1755,28.4515,-78.8949,-24.1211,-106.7048,-142.5177,12.9312,-140.7472,171.8628,21.7468,5.9302,-22.0647,7.7181,-87.5255,174.9577,-52.1807,47.2150,-147.8353
-367.1875,46.4801,18.3256,175.7738,55.4114,13.2442,68.0263,57.9685,-15.2720,140.0400,-121.9437,43.2495,35.8311,-159.3748,-40.0213,-194.0732,-105.5914,-8.5397,80.3392,-100.9146,53.2973
-359.3750,-74.5649,-65.2660,20.2965,-99.7154,-30.6842,24.0894,-98.4356,-24.1338,278.0362,-58.2591,-2.4574,-36.6120,-132.7738,23.9085,-55.9684,-41.7709,118.8569,137.7592,235.8365,-103.6900
-351.5625,171.4574,6.2595,169.9072,-97.7295,229.4910,26.2700,197.2426,-23.8975,21.1029,-93.4798,36.9212,-21.4540,-57.0764,-47.0539,-127.7769,-113.8425,-20.6268,-36.6808,95.6864,-139.5719
-343.7500,-110.4636,40.8500,-23.4246,-28.7015,147.7390,54.5066,2.9612,39.3643,-246.7707,6.3369,-46.6489,70.9874,-67.3092,90.0260,-173.5174,23.1245,48.9570,208.9224,94.6053,33.5559
-335.9375,15.2170,64.0611,83.8593,-42.0681,217.6060,14.3490,-38.7024,-112.7787,-253.0613,-108.2589,133.3671,17.4958,75.0587,11.6985,42.3257,-55.3118,72.1313,56.1324,116.1232,-192.7096
-328.1250,99.5717,78.9904,123.8273,8.2650,258.1641,18.8923,111.2970,-1.2427,-397.6733,-142.1565,63.0804,64.3673,3.1379,14.0743,-101.1176,-15.0409,-87.9653,36.0691,-78.6249,66.7114
-320.3125,-92.0015,-40.0128,-112.1279,-77.3417,-14.1945,3.4904,-199.6362,-54.6813,-84.2488,-13.0328,9.8564,4.7849,23.2821,145.4839,65.4910,115.2640,71.9872,91.0485,150.6694,49.1577
-312.5000,96.2546,-26.1548,-20.2373,-63.0832,79.2989,-87.0532,39.2673,-74.2787,153.9935,5.9277,28.4719,-38.3348,78.2756,53.7466,120.9400,23.4223,-88.1985,-139.0874,-81.1738,-43.5317
-304.6875,-6.1978,189.0185,-101.0478,46.4724,-74.9026,-94.2895,-116.5472,-82.5971,-296.4583,-39.8257,-15.6082,114.1906,33.5908,154.3038,39.7095,124.8715,-48.0683,41.0784,-76.6821,204.0422
-296.8750,101.6487,264.5028,-17.5416,14.3357,9.2142,-156.2129,-253.0349,-256.6151,-470.6136,-176.2947,141.6028,72.5425,153.2100,55.1458,196.7668,61.6136,131.3481,-24.4509,102.0960,29.9167
-289.0625,117.5646,106.0936,69.0428,32.2951,132.4183,-106.0240,51.5463,-172.5366,-276.6842,-127.6562,42.9051,33.1353,54.9333,-42.9042,-11.0765,-36.5322,-26.1125,-6.8502,-55.9920,150.8842
-281.2500,-181.8568,19.3356,-204.7098,-21.1046,-66.7095,24.8267,-186.2034,-117.8117,-111.0927,36.6280,-47.1396,35.6579,-35.6857,85.6879,-65.2629,91.9606,96.0722,256.3955,206.5688,95.4678
-273.4375,93.7527,14.6334,19.5843,-60.4401,85.2140,102.7456,37.0958,-78.0259,38.5175,-106.0546,67.8486,-10.2206,-32.2558,-19.6636,-61.4164,-87.4896,22.3109,76.7166,26.1793,-121.8827
-265.6250,-17.3462,-23.7639,42.1728,-29.4698,35.4401,199.9758,21.6683,53.0373,-14.5978,-83.4642,-20.8592,10.4280,-120.5102,-33.7113,-149.2545,-27.6395,-16.1211,214.3509,-117.8704,83.0416
-257.8125,9.1139,-30.6043,44.3343,-142.9378,1.2431,165.7684,-87.1800,-56.3549,132.8249,-83.3450,17.9770,-59.2982,-46.2131,-33.2231,72.4509,-27.2530,81.9911,172.5392,50.6159,-137.4881
-250.0000,176.9931,-2.9839,215.9304,-113.9553,135.4921,117.0193,193.3930,-34.3096,118.6941,-133.7809,5.2617,-51.9064,-60.4680,-120.2796,-51.4035,-114.4066,-135.4189,60.2076,-133.4244,-41.5673
-242.1875,-47.0113,21.7455,14.6503,-90.8736,-26.1359,63.3747,-80.9345,-52.1878,-47.3245,-41.1484,24.6762,-26.6024,-113.6128,-63.2497,-67.1518,14.5229,99.2825,224.9635,66.6422,50.4199
-234.3750,167.5782,26.0794,213.9837,-87.1821,98.8487,5.3358,42.3426,-149.4725,113.2245,-64.9381,149.7100,-89.7745,-64.1580,-197.6244,-17.3196,-117.9515,104.5875,53.3324,0.3079,-193.9783
-226.5625,51.1537,52.4132,231.3158,8.4997,79.8385,60.2955,131.5907,-23.7776,18.7542,25.2628,56.7641,-27.0059,-156.6871,-216.9949,-183.4671,-100.4249,59.9209,150.7057,-184.9880,5.6006
-218.7500,34.7542,37.7555,111.6752,-6.8230,-76.1460,88.2509,-136.1344,-71.0901,-29.7182,14.4444,83.8280,-42.4864,-94.2068,-154.3794,-10.6202,-37.9115,221.2508,171.0664,45.7005,-152.8300
-210.9375,251.3828,45.1533,300.0693,69.9083,75.9061,57.2596,162.1709,-31.3560,9.8459,-92.3354,50.9251,-25.3537,-90.6749,-222.7048,-42.7249,-145.3419,17.6504,-33.4978,-159.5387,-113.1966
-203.1250,20.2698,97.8031,87.7279,51.8864,-133.7755,-6.4838,-50.2749,-24.3915,-166.3273,-46.8892,-14.7107,41.7672,-44.8696,-30.7993,-33.5593,46.4632,70.3124,125.1727,-71.5130,77.6573
-195.3125,124.9148,98.2111,97.1519,16.6178,-51.6981,-108.4787,-79.9440,-201.6801,-12.7561,-113.7118,141.4022,-31.1736,146.6830,-97.1544,158.3389,-54.9912,70.7211,-14.4047,-1.7494,-135.7204
-187.5000,53.6472,30.7283,87.6673,122.4353,-22.5319,-42.3762,93.4588,-63.8876,-24.0869,-49.4419,58.6096,12.0200,25.3437,-106.4012,1.3538,-64.3365,-67.7499,22.1360,-210.8448,73.9886
-179.6875,-133.5956,-16.7455,-140.7944,76.2505,-178.3420,21.7281,-173.1116,-76.0978,2.5845,12.8094,49.8163,-13.4704,90.0091,-43.6588,102.3626,35.3084,96.7660,151.6686,23.0524,-10.3185
-171.8750,50.7885,30.4391,56.3763,51.7238,-17.5114,36.5012,58.9507,-63.6545,50.8800,-85.2863,62.6553,-19.4329,102.3195,-104.2596,115.0061,-62.3852,-33.0590,-48.1204,-142.3969,-71.9544
-164.0625,-127.5243,28.9244,-66.1523,85.4903,-138.3722,62.5793,-100.7017,-2.9245,-109.5129,-24.0840,-22.2010,53.3120,16.9432,31.4333,29.9676,36.2197,1.4285,127.3890,-73.5356,134.6795
-156.2500,-30.2809,-48.0412,-25.1099,-27.1861,-60.6624,30.2172,-97.7825,-111.6408,39.6342,-58.3481,91.4833,-42.5375,93.1192,-2.3329,143.4714,2.3625,65.4476,15.4564,59.8557,-120.1265
-148.4375,-6.7623,-56.7057,105.2213,-2.5688,107.3356,50.1631,141.4030,16.9378,21.0627,-76.3292,37.4652,-18.8859,38.6045,-56.7938,-21.7104,-88.1846,-84.2088,40.8518,-160.4196,8.3651
-140.6250,-219.4234,-92.5657,-42.6262,-4.1500,34.1576,87.9103,-116.5931,-21.6947,-164.6987,-41.5219,0.2539,-20.3204,37.8960,-21.4637,51.9075,20.0565,160.9332,181.0342,84.0940,-30.3633
-132.8125,23.4408,-58.8650,182.0675,-6.1732,296.5275,55.2172,142.9571,-92.7638,-89.9292,-112.1592,40.5741,-29.5662,77.7261,-91.5835,18.0576,-161.1438,53.6264,-31.2141,-23.8469,-175.5213
-125.0000,-111.3027,20.2401,69.1604,36.1978,184.2986,17.9257,139.8923,-24.4463,-20.7590,-42.4067,-145.7047,46.2138,-72.0321,-21.3073,-131.3792,-52.9471,61.7367,81.9430,-16.3616,40.6950
-117.1875,25.1110,16.4987,38.4202,-37.2724,154.2384,-50.2124,-2.9925,-129.9741,57.5569,-74.5153,-67.8414,-27.9892,5.3583,-52.8863,57.3263,-48.6086,164.9842,-25.7526,191.2478,-175.9345
-109.3750,191.7480,44.0024,133.9153,24.5113,213.4150,8.9059,165.3479,-36.2633,-32.8859,-127.3778,-82.7439,2.3737,-9.9996,-105.2021,-31.7112,-137.0098,16.5158,-68.1760,-97.8718,-45.3100
-101.5625,-59.4375,76.6563,-92.4124,56.4504,-12.2342,40.1716,-173.1443,-81.4215,-225.1682,-62.1255,-89.4932,38.9370,-18.1950,-39.3862,-2.5884,0.7178,225.2069,210.5296,110.1588,19.4410
-93.7500,103.3745,65.3136,86.2651,79.3946,167.1112,72.4400,-32.6291,-124.5735,-121.4689,-215.8829,52.7472,4.1364,50.6047,-155.5715,29.5193,-188.5508,178.8995,23.2434,63.1783,-170.7827
-85.9375,25.1847,94.9666,31.9385,108.3254,76.4456,128.7052,21.8650,-33.7401,-177.7699,-196.6396,-75.0086,82.9554,-114.5793,-62.7442,-135.3550,-95.8170,137.6119,122.9578,21.2236,66.9748
-78.1250,6.4109,43.0180,-16.9591,-85.3506,-8.7983,44.3653,-174.2093,-84.4991,-155.6606,-138.0126,-14.3582,-0.3884,-17.3561,34.4749,72.1678,1.3019,296.7061,71.0533,249.6527,-93.8680
-70.3125,163.4674,-44.0817,218.9800,-67.1786,154.7912,22.8784,96.5484,-34.4037,-105.7174,-123.5392,0.1339,-22.0083,-77.2830,-25.4443,-60.4655,-94.7162,103.6628,-51.9860,20.9536,-43.8448
-62.5000,-85.0950,-79.8379,65.2873,1.3360,2.7409,18.7403,-130.3419,-5.9688,-186.4162,15.2657,-43.0127,14.2485,-156.8483,40.9713,-139.7313,8.6060,243.9764,158.3084,125.6058,58.5064
-54.6875,98.8457,-35.0879,196.1083,-24.6402,133.1891,-71.8991,-111.7226,-134.0285,-21.6145,-39.4321,87.3328,-46.8035,-63.9172,-49.1164,26.4855,-82.5741,253.7834,-77.8971,99.7315,-180.6176
-46.8750,94.7738,-2.3374,181.9162,43.3765,118.6161,-121.5402,18.8645,-76.0977,-38.8041,-91.1243,-2.3176,7.1787,-115.9781,-27.1995,-61.2801,-23.7443,110.6085,-115.0968,-8.1153,60.2490
-39.0625,-30.6229,16.0600,-18.5999,-45.9635,-43.2888,-137.5326,-254.8718,-168.5140,-57.3343,-109.1794,54.6908,-5.5307,12.6196,101.3532,141.6032,67.7227,269.0646,-131.6662,254.6711,4.7611
-31.2500,175.2591,47.7445,159.1712,-15.0089,61.0929,-180.2229,-42.3202,-139.6230,-65.5776,-153.9278,121.9963,-9.7504,42.5182,20.2116,97.7816,-12.4999,55.8216,-275.9176,38.7678,33.6000
-23.4375,-64.9032,54.3663,-63.0981,-9.1238,-160.5670,-144.9778,-228.8159,-69.7910,-141.8577,-10.7321,9.2674,37.7975,3.3897,129.0128,58.9348,95.2215,97.5297,-23.2303,115.8323,213.3685
-15.6250,8.3931,-11.5608,-46.9071,-73.7905,-142.7637,-127.2887,-212.8307,-92.5009,130.3040,-32.0980,98.9861,-62.0321,129.7081,34.2583,185.5216,37.3884,102.6733,-123.0907,155.3228,-65.3889
-7.8125,14.6748,-72.4960,-44.7293,-31.4569,-66.9677,-51.6022,43.1270,90.7780,92.4612,77.5281,-10.2903,-30.3539,20.0271,34.5057,3.1111,37.5620,-100.1551,-79.9320,-47.1714,80.8543
-4000.0000,-63.9742,-61.6840,-109.1919,-51.2708,-123.0798,-34.3620,-93.9610,64.3860,-24.0711,92.6973,42.8112,-26.0657,26.9046,60.4375,20.1383,57.9713,-8.0572,-4.1741,119.5570,42.7609
-3992.1875,95.8225,-7.7868,98.9114,-31.9776,121.8159,-8.8689,188.4473,55.5724,39.5589,-62.6936,107.3621,-28.6101,54.2126,-58.3391,11.4146,-97.9057,-128.2728,-124.1465,-103.8430,-76.4357
-3984.3750,-114.4708,64.0208,-18.0719,41.2210,40.6195,94.5226,107.7830,124.6700,-2.9124,-67.1880,-44.1909,58.1300,-60.5873,-27.2212,-141.4182,-29.8855,-90.6101,124.7679,-135.3784,102.2825
-3976.5625,-9.7393,27.8836,-47.0319,-30.5305,86.4447,105.9566,7.1405,26.8191,80.6631,-16.6152,3.3000,-11.9155,-13.3396,-51.0344,16.7997,-53.7934,14.1162,54.7470,7.1430,-142.9366
-3968.7500,161.4683,-10.8064,125.4669,35.1669,221.7272,132.8259,179.9632,91.4117,-76.2791,-61.5905,-42.7493,9.0634,-59.6361,-96.4015,-102.5201,-99.2600,-129.7173,16.1486,-205.9066,-4.7279
-3960.9375,-20.9300,15.9055,-28.6420,28.2830,65.4007,126.0983,-121.8036,13.4115,-155.8288,-29.1698,-85.4138,53.1929,-65.5440,45.6371,-72.4522,6.6782,74.8365,220.9606,35.4156,-10.0888
-3953.1250,169.2092,66.1667,139.7828,79.9501,271.6105,75.9146,83.9543,-72.0529,-22.8415,-151.1935,13.4742,22.0837,-3.8955,-112.7628,-47.8173,-115.8190,19.9580,-9.6738,-87.6955,-168.9058
-3945.3125,28.4705,-38.4754,90.3229,185.7230,183.9382,136.8210,34.8418,-9.4160,-180.7435,-160.1155,-107.5349,74.6757,-88.1521,-49.0667,-168.0923,-52.2209,56.1611,132.7741,-154.7379,114.3828
-3937.5000,39.4588,-28.3533,35.5922,126.2469,93.9941,48.4738,-165.5387,-96.0224,-86.8942,-100.2764,-48.8048,38.4006,-29.6695,10.3965,0.3748,-29.8565,174.1131,38.9972,69.9625,-83.5596
-3929.6875,182.5078,150.8303,219.9083,129.8147,168.1079,13.1787,92.1383,-18.5896,63.0358,-96.3978,-46.0257,79.1730,-101.1344,-59.0947,-144.0907,-99.4471,-33.8895,-97.7409,-241.2979,-43.4738
-3921.8750,16.7060,230.1487,42.3768,104.5405,-84.6227,19.0369,-123.0139,-10.9980,32.1248,-51.3717,-75.1126,116.0700,-166.4613,22.5677,-173.4269,19.1154,117.2451,17.6810,-54.4356,37.7874
-3914.0625,269.5925,132.1557,166.5339,112.9709,-33.6612,-37.4081,2.5060,-102.7119,85.8969,-179.6394,52.5053,37.6531,-76.0915,-70.0533,-10.0556,-109.6100,55.1039,-219.1796,-8.8639,-128.2597
-3906.2500,154.5599,88.2214,70.7702,209.4609,-55.6166,-21.8007,54.1082,-12.3764,-118.3004,-124.8732,-114.8207,112.3611,-132.6735,20.3622,-103.6407,16.6966,-57.9984,-121.0008,-85.2838,145.7359
-3898.4375,-20.0493,52.7362,-70.5518,104.4122,-197.1228,-51.7330,-160.8455,-77.5917,-39.0480,-42.6543,-70.7100,84.8531,-15.8190,177.2331,88.2097,136.4619,83.3540,-119.3442,92.7312,7.2012
-3890.6250,48.1881,-16.9059,110.9829,69.2075,-14.7643,-51.8129,132.0525,-1.9668,182.1005,-114.5875,4.2563,27.3114,21.8906,67.9468,51.9222,28.0696,-91.4410,-224.8420,-186.4107,8.4850
-3882.8125,-243.4217,-28.3952,-16.3167,59.1638,-181.2395,5.2640,-68.8657,55.8179,55.3957,17.6311,-47.6330,55.4577,-30.2597,126.8031,-0.2303,122.8196,-32.1037,45.8115,-89.4489,139.9298
-3875.0000,-4.0468,-35.8810,97.3736,17.1279,-67.7244,10.3448,-28.8070,26.6051,-49.3428,25.8518,31.4766,-4.8385,48.5884,23.6759,41.6227,19.5817,-37.7504,-29.5219,-58.4855,-110.6293
-3867.1875,50.2104,54.4782,106.9423,70.9525,53.6659,57.2709,128.1325,113.2320,-184.2237,38.9079,-102.5539,79.9228,-85.7120,36.3868,-129.6738,32.1777,-193.5581,59.9690,-247.6979,85.6487
-3859.3750,-94.8427,85.5377,-38.7950,-2.5107,-20.2532,59.8961,-127.2279,6.5594,-145.4008,42.6601,-100.8980,70.9206,-47.3268,113.8042,19.7143,109.4798,14.3395,199.1727,-38.2242,-21.3479
-3851.5625,38.0650,42.5576,212.4205,25.9759,268.7812,19.4631,161.3549,-69.1816,33.3882,-32.6454,6.7142,10.3407,-12.9861,-71.8329,16.0685,-76.2692,-98.8014,51.3154,-289.8011,-97.4190
-3843.7500,-181.0150,104.5896,49.6506,53.4672,177.8269,40.0256,34.9699,-46.9110,-53.8184,-8.9477,-116.6792,61.2118,-63.6595,-49.4718,-34.5927,19.9799,-33.9668,291.4445,-224.4151,72.5232
-3835.9375,-44.7641,100.9742,54.2124,14.3036,257.2053,47.9353,3.9188,-147.2930,26.3271,-146.8875,-108.7305,22.2413,17.0120,-76.7414,120.0941,-81.4020,67.2321,182.9334,-51.6703,-176.1772
-3828.1250,54.1246,-10.0446,148.3935,79.7400,314.2074,106.4363,208.4964,-51.0834,-25.9035,-195.2445,-122.1759,33.8008,-34.7116,-90.4213,-77.6078,-95.1981,-43.9797,106.9960,-230.3532,30.7081
-3820.3125,-88.5416,-48.6156,-0.9839,6.6347,126.6599,30.3857,-50.4627,-88.4220,-63.6843,-86.1543,-87.1858,33.2179,-35.9968,93.3530,-5.8723,52.4636,95.2528,140.5164,-20.6092,30.0747
-3812.5000,171.3847,0.4122,127.2260,-48.8684,256.7047,-96.0673,189.1676,-102.1715,141.1535,-99.4605,7.3969,-23.8767,22.3211,5.7302,52.4770,-36.2717,-65.9012,-126.3582,-180.2581,-94.9787
-3804.6875,-12.4194,62.6978,-2.2911,13.8890,53.0274,-40.2687,96.0921,-8.6706,49.2605,-6.5286,-155.7777,40.7748,-68.1232,25.3448,-37.9371,57.2301,-72.8236,9.0085,-149.7011,145.2172
-3796.8750,-42.6928,103.5463,-97.2650,-14.7990,-7.1017,-24.9097,-109.4458,-101.6186,64.8908,48.9573,-140.4127,23.7574,21.9711,43.5163,88.1940,75.2889,3.8163,-20.0452,68.3998,-58.0255
-3789.0625,67.9083,144.2464,121.6325,60.3595,102.6498,12.2990,110.8856,-25.7306,29.3798,-21.7180,-100.1919,61.5968,-14.0800,-27.4741,-56.8174,4.1859,-165.6968,-83.2571,-239.6675,54.5550
-3781.2500,-99.0938,116.3420,17.9361,68.9345,-75.1791,19.9149,-176.3555,-89.4383,-109.7227,-13.0015,-55.5888,88.0034,-41.7463,91.9264,-12.4491,86.4779,88.1738,64.9464,-53.3666,99.5544
-3773.4375,183.3948,117.9307,211.7335,36.0124,45.5029,-4.9710,-56.1051,-150.6624,11.6898,-72.7910,29.5106,26.8440,6.0904,-5.1721,73.4326,-47.7289,55.5625,-143.3406,-156.5670,-107.9635
-3765.6250,67.9582,73.5782,154.6099,133.1475,-10.7260,86.1914,-74.7585,-20.8418,-78.8401,-15.5447,-97.3356,79.8908,-84.0276,14.7643,-90.6377,9.0993,11.9791,59.4099,-338.7671,95.5624
-3757.8125,-29.9410,45.7915,61.0294,140.8393,-32.4018,140.9085,-241.8671,-74.4744,11.1704,-105.7490,30.3554,52.3188,-29.6097,-2.7468,36.8305,-8.5158,125.9563,138.7345,-224.4265,-106.3462
-3750.0000,104.4344,5.2596,201.7171,170.7837,182.1930,135.8777,119.2822,-41.8750,338.4458,-182.7225,26.3047,15.5088,-33.9389,-153.0201,-77.4420,-158.8965,-89.8097,-6.6969,-402.8462,-110.0348
-3742.1875,-103.0791,42.8296,14.5227,138.8467,68.9120,60.9523,-30.4340,-41.1751,152.8236,-108.6008,-47.6621,51.4482,-72.1858,-42.2031,-41.6373,-11.1864,54.5135,102.9703,-222.2124,0.3920
-3734.3750,132.1839,138.1970,194.1188,93.7122,174.4281,19.8320,1.6379,-153.6836,-290.9887,-183.6732,97.1586,39.1670,72.3649,-81.5771,138.9791,-50.6670,79.6508,-82.5542,-231.7749,-149.3897
-3726.5625,68.0166,178.1064,185.2894,170.1324,128.5252,50.2614,32.3008,-47.6442,-518.2191,-77.2145,17.5309,128.2365,-43.5305,-12.4133,-49.8520,17.3869,-19.6752,-4.5517,-363.8221,139.3645
-3718.7500,-36.2568,4.9191,9.3565,102.4609,-82.4707,-14.4067,-217.1234,-111.7087,-140.5499,80.1311,-9.2122,38.7588,2.4572,71.6521,33.2064,102.3467,123.9077,-1.6353,-43.9859,3.0378
-3710.9375,192.7403,-48.0069,139.6841,85.0334,9.8007,-66.8316,96.7140,-88.5445,211.3910,29.7154,13.3013,-18.8914,-12.3002,-15.0366,18.5261,-21.4547,-69.2535,-193.4807,-269.9049,-48.0679
-3703.1250,-15.8489,-44.5175,-12.5673,88.0148,-142.5038,-33.8534,-18.0071,-17.9765,-13.2560,63.6906,-26.7919,24.8172,-52.6660,54.6608,-58.7718,85.1306,5.9578,-13.9343,-159.4735,132.2381
-3695.3125,104.4926,-29.0768,50.1227,33.9479,-117.8641,-43.9211,-65.7898,-99.4655,13.0447,19.6146,148.0632,-25.4671,47.9147,10.3103,78.8908,3.6762,21.1326,-103.4236,-37.0935,-96.5050
-3687.5000,142.5156,78.0062,79.4961,107.5312,-49.5418,-48.3393,112.1116,-30.3166,45.0039,16.1710,32.5814,50.2538,-29.8471,6.5915,-71.7945,-0.1459,-116.0489,-64.2797,-314.0885,83.3823
-3679.6875,-34.2663,148.2858,-63.9172,37.3225,-194.9954,-46.5554,-141.7654,-98.9658,12.1507,21.9277,0.2844,62.5679,-26.4300,85.0719,41.7014,78.2360,94.9638,76.0810,-66.9082,14.4911
-3671.8750,166.7549,67.3812,112.4703,26.9075,19.3704,22.0217,146.1628,-101.8341,155.1226,-55.5207,-4.2172,1.0081,-30.2079,-64.6577,37.0161,-71.5913,-55.2177,-38.7594,-180.9297,-99.6263
-3664.0625,-78.9517,-37.2572,-6.8688,133.7623,-63.9794,123.8525,99.3881,0.5427,109.3610,-25.7373,-121.4823,49.4426,-148.7434,-35.1563,-154.4322,-6.1869,15.8348,138.6416,-107.7550,113.5059
-3656.2500,85.4257,57.2049,-9.1130,17.7321,7.7733,49.7897,24.7049,-181.9908,182.6952,-133.8620,-11.6583,-7.4392,-75.1879,-70.5528,29.2165,-77.6793,182.0106,-11.8301,-11.4873,-106.2601
-3648.4375,215.9275,82.7706,157.7779,43.8127,137.6645,-3.1697,303.1530,-122.4418,241.1533,-111.9059,-99.7250,12.8767,-163.5326,-121.8736,-132.0366,-129.0950,32.2837,-56.2119,-265.1455,26.0416
-3640.6250,-98.9743,11.9527,-61.7156,-26.4907,-8.8251,73.4778,10.2245,-119.2919,354.2037,39.6416,-206.2020,-8.9206,-160.2976,-44.6042,-93.7120,-14.9156,174.1516,192.0197,17.7603,-7.0435
-3632.8125,23.1324,-5.8514,147.8015,-7.7957,201.7032,100.1270,221.2908,-90.1659,345.2487,-114.8286,-105.6713,-39.8170,-23.0609,-162.3385,-28.3720,-169.7426,51.0378,-0.7493,-69.3317,-199.1518
-3625.0000,-111.2152,0.8511,105.8520,69.4087,159.7723,96.2731,252.9016,-19.5536,-63.1897,-80.8221,-107.6373,35.6768,-63.3274,-91.5935,-104.5408,-63.0931,22.4050,111.9623,-200.9661,55.2349
-3617.1875,-100.7735,11.3589,51.6916,-60.5753,142.6419,6.2258,126.3124,-107.1455,68.1751,-21.0138,-13.8214,-26.5094,68.1896,-33.0480,63.0794,-40.6420,104.5855,-52.5024,-48.8111,-143.5700
-3609.3750,91.2835,63.4720,138.1530,-78.9549,229.1449,-53.2129,397.3484,-18.1556,193.1567,-78.6253,-35.3985,-18.5972,45.3072,-53.9238,4.3023,-98.6112,-89.6281,-209.3766,-276.0661,-54.8075
-3601.5625,-111.2547,35.9948,-80.9610,-104.9223,-26.9277,-14.2367,103.8197,-15.7623,-135.4662,-38.8509,-68.5893,12.6188,84.8046,96.5887,116.9029,88.8092,59.5500,-25.8454,-20.9607,95.3670
-3593.7500,47.7557,-14.9249,18.4717,-121.3373,35.5579,-23.7041,167.8291,-96.8362,-145.5133,-45.5378,31.7666,-63.2290,222.8459,-21.3540,255.0611,-29.2205,9.2971,-146.7571,-0.3023,-59.9286
-3585.9375,-60.9412,-53.5916,5.1851,51.5029,-51.6643,37.0802,154.1413,38.3294,-120.2855,-19.9872,-52.6236,18.9447,63.1344,3.9313,-13.5397,-4.0248,-63.7208,26.5575,-177.4399,149.0082
-3578.1250,-114.7935,-73.3907,-82.2417,-1.7985,-175.0228,24.7181,-115.6879,-45.6600,-22.2392,-67.5933,45.8307,-5.0351,125.2605,103.0656,120.6989,58.0251,128.1145,8.7348,15.2556,-9.1895
-3570.3125,60.5307,-38.0195,101.5035,-36.9577,44.7984,-11.5015,141.6458,-6.5274,199.9568,-139.0754,47.4454,-29.9220,89.5479,-4.6662,49.1043,-49.7898,-81.8946,-130.9524,-123.8980,-7.2641
-3562.5000,-148.9277,-0.4371,-86.5248,-69.9007,-69.1540,-14.5208,27.2160,27.7925,196.3679,43.6279,-101.7484,-5.6163,-22.9802,29.7819,-63.3041,21.5805,25.2778,117.5659,19.1063,100.8731
-3554.6875,22.2515,-111.1976,-5.9031,-109.1854,158.5512,-42.8853,146.4265,-35.2537,169.4294,17.9790,17.6999,-101.9849,96.1424,-70.1246,91.9398,-78.3982,57.1219,8.7506,-18.2481,-183.3505
-3546.8750,-16.9397,-184.3420,56.3597,-41.8643,257.9050,20.3534,356.2839,102.2858,49.1046,8.9024,-103.2459,-60.0366,-24.1322,-79.4570,-65.2158,-87.8051,-86.4441,111.5236,-196.0469,-8.9986
-3539.0625,-133.2859,-195.6254,-97.5206,-86.6813,141.1311,51.4496,130.0077,24.6690,117.6325,78.6601,-107.3584,-83.7016,-29.5728,-46.9457,40.4641,-55.3668,79.8433,208.1663,75.9767,-123.7822
-3531.2500,135.3292,-173.9573,111.5598,-64.5425,349.3336,40.4955,375.6901,14.9764,106.1285,-4.6522,-44.5186,-103.7732,-3.0560,-166.4987,-6.8894,-137.9911,-73.9030,19.7548,-77.0493,-170.6478
-3523.4375,-11.9886,-109.2356,-16.2711,-70.3420,148.6326,61.5957,175.4742,74.3237,-19.3224,55.0620,-95.6292,-44.4052,-55.4968,-71.0235,-131.2107,-42.5857,-9.6145,190.3871,23.9328,35.5396
-3515.6250,30.5357,-102.6558,-33.2506,-98.2938,168.7909,44.5512,122.0995,21.5082,149.0730,-70.3807,-0.8891,-81.5123,38.9101,-85.6959,35.3169,-94.3300,68.5396,127.8866,137.7608,-237.4265
-3507.8125,28.9500,-139.2181,66.6570,6.6050,231.8442,146.3555,370.6091,124.5189,29.3388,-114.9911,-83.2855,-37.4536,-5.8265,-130.5463,-46.2977,-139.2505,-37.4634,56.2118,-109.5910,-61.5725
-3500.0000,-206.4814,-162.6252,-143.2720,-52.3371,58.0683,120.3191,123.2904,99.6778,-32.2493,7.5412,-145.5424,-48.7730,5.5733,-44.2562,75.2212,-16.0251,149.6776,173.6970,184.1784,-49.5530
-3492.1875,26.3901,-141.7249,31.1089,-30.9791,159.6101,75.5849,335.2786,92.1162,180.4784,1.3551,-79.4978,-84.2966,-2.7247,-161.6756,31.0511,-133.5112,31.1373,-50.5165,66.2513,-167.2603
-3484.3750,-94.2592,-121.3702,-32.0197,24.8368,-50.3496,123.3103,198.7736,177.9950,154.6678,50.5922,-177.0018,-7.8774,-137.5783,-39.6666,-103.6892,-11.5710,52.0365,76.7067,-18.2733,65.4745
-3476.5625,-40.4228,-173.5104,-39.6453,-25.8457,-130.7988,80.5462,8.7721,99.3612,186.3460,193.3188,-109.0111,-67.9298,-70.9407,-7.1551,37.0666,20.8694,141.4562,-8.5488,142.6999,-160.2901
-3468.7500,81.2926,-155.7892,45.6133,26.3254,-9.3560,54.6353,240.6475,222.5572,198.8945,242.8774,-170.1599,-48.4580,-95.4458,-67.8260,-61.3197,-39.8708,-123.2734,-61.9716,-86.4947,-37.2429
-3460.9375,-112.9404,-105.0043,-162.0667,-27.4328,-142.8363,31.7859,-3.3998,163.8027,102.5136,184.4680,-118.2748,-33.0847,-44.9165,20.5284,26.3252,85.4198,-0.9610,25.6741,142.3158,50.8628
-3453.1250,49.1849,-118.8563,13.6118,-180.8280,70.0497,-84.7087,210.8920,85.3636,206.4811,69.3760,58.9684,-129.2566,96.9638,-57.7794,167.3295,-30.9537,-118.2626,-198.3231,95.4828,-101.7069
-3445.3125,-123.6403,-115.6837,-66.6550,-107.2064,24.9903,-91.1991,240.2266,188.8968,89.4147,173.2427,-20.7728,-55.4693,15.8407,8.8843,13.3233,-0.3541,-185.5648,-19.3394,27.6123,112.7126
-3437.5000,-120.5144,-77.5368,-165.9648,-67.6260,0.8915,-153.7406,-4.4903,18.3584,-44.7182,151.0512,65.4309,-57.0388,102.6552,22.4951,174.2550,13.1905,-5.9030,-14.3844,279.6836,-57.9067
-3429.6875,74.6826,-23.3286,-4.2023,-49.0038,199.8803,-173.2370,231.8682,-1.1559,8.2405,93.8899,45.6953,-53.0672,82.5267,-70.8665,80.2479,-43.2396,-232.1868,-134.3937,52.7950,32.4846
-3421.8750,-122.7079,25.2860,-218.0086,-69.9727,-13.6963,-166.3263,-18.3277,7.7280,16.6028,139.1134,-19.6443,-10.7165,16.7864,48.1538,14.6218,111.7139,-78.0820,19.9925,172.2623,187.2835
-3414.0625,76.7487,14.7562,-109.9571,-116.0870,57.5885,-240.5657,53.3139,-66.5593,125.8110,29.1756,126.8663,-79.4606,125.8965,-24.9782,123.8578,2.5167,-89.1058,-200.7688,197.5870,-33.0791
-3406.2500,56.7981,-6.2130,-104.3148,-65.6495,26.4633,-199.2577,168.5407,13.6839,21.5819,108.7665,22.9288,-26.7222,21.5665,18.4120,-17.3500,44.8431,-249.5902,-115.9990,71.4299,193.0904
-3398.4375,-56.9571,20.0289,-292.4715,-109.0020,-124.4538,-165.7415,-128.0253,-62.8816,54.5532,107.5431,19.1808,-33.7983,91.4264,88.9889,126.6324,116.3656,-80.8736,-19.0104,310.4641,80.4764
-3390.6250,147.4056,85.3827,-76.5091,-79.2591,17.7551,-96.1260,124.5143,-29.3727,124.6388,-42.5959,90.5482,-36.3863,88.3943,-61.3490,49.7267,-34.0248,-192.0441,-127.9320,94.5982,40.9310
-3382.8125,-16.5568,96.3939,-181.8602,-31.8605,-197.3466,-16.8557,-90.2540,50.7778,-52.6211,37.9013,23.5676,23.7371,-15.9973,19.9462,-17.5459,46.2197,-74.5821,93.7854,141.3409,194.0407
-3375.0000,96.4731,68.4056,-89.2085,-59.4667,-141.4389,-33.5793,-107.0296,-38.0906,41.1128,59.3899,154.5862,-23.1184,3.6147,3.2415,39.1887,-6.5381,2.8965,-73.4853,220.0916,-78.8548
-3367.1875,126.7890,99.6860,7.7276,6.1791,-116.2363,-46.0500,64.4805,60.2728,29.1182,85.1012,68.8590,31.0679,-117.5148,-8.2436,-155.8184,-18.0745,-141.3920,-42.5242,40.0670,93.4720
-3359.3750,-5.9465,72.9308,-90.3776,-55.2165,-215.0647,-71.5585,-217.0418,36.5851,5.0769,61.7559,118.0677,13.3367,-69.7039,79.2077,-70.8851,69.3311,43.2663,37.4014,225.9628,32.7611
-3351.5625,209.4225,41.2664,173.6342,-50.5158,85.2265,-100.9656,10.5387,-29.0222,49.1479,-151.5026,236.3907,-24.6213,12.2181,-23.2536,-25.8371,-70.1703,-93.9572,-169.5743,18.9654,-32.8832
-3343.7500,9.6739,53.4631,28.5412,-73.9561,50.4152,-61.5167,-97.9810,11.2054,-130.9380,-73.9430,91.5708,8.6225,-22.0175,17.1076,-59.9509,7.1485,-81.3439,53.2855,100.7826,190.3208
-3335.9375,28.2640,1.0367,-13.2064,-196.0440,120.9632,-101.7186,-101.1544,-65.2390,49.3198,-40.0453,200.0975,-95.3688,48.0900,-59.1886,84.2782,-69.1883,-27.3599,38.5188,296.9563,-106.1260
-3328.1250,115.9764,18.7192,111.1744,-143.0292,281.6536,-50.8155,207.8051,59.3928,27.7044,-98.0687,141.7347,-57.8339,-10.6990,-118.4170,-85.3898,-128.4516,-220.2727,20.8392,-1.7845,-17.5104
-3320.3125,-87.4607,61.2460,-65.5759,-65.1464,105.2228,-6.0473,-42.3579,31.8763,-75.0749,-126.2536,76.2113,16.5924,-39.6519,1.1937,-40.2259,-8.8780,-36.3358,135.0230,182.2957,-9.0337
-3312.5000,111.1534,48.8218,111.7344,-6.2127,246.8587,-49.2221,135.5206,-47.6080,103.1889,-130.3999,107.7499,-21.6802,-8.5498,-114.1569,-9.0000,-124.2601,-84.3253,-88.7393,29.4360,-161.5352
-3304.6875,-31.6002,82.0164,24.6905,62.3302,123.1425,-61.7894,123.0375,13.4940,91.0615,-32.9690,-15.1064,31.4800,-93.8498,-88.9375,-131.1844,-27.0744,-120.7270,15.0847,-42.8641,83.5510
-3296.8750,5.4351,154.0270,-75.5497,-41.3165,22.2356,-125.5447,-87.6575,-122.6209,138.7238,-57.7563,32.8352,-7.1174,62.6447,-41.9285,99.4251,20.9064,-13.3065,-52.2665,205.6339,-89.5592
-3289.0625,176.8078,184.3433,61.5436,-10.6632,85.6639,-134.9971,122.9648,-58.4617,55.6897,-67.2748,61.0968,19.8783,53.4484,-51.6464,16.3467,-24.8381,-193.5737,-197.3367,-9.5725,11.5943
-3281.2500,-34.0538,148.4265,-127.5817,-45.2488,-139.1327,-102.6867,-175.6360,10.4468,-132.6086,112.9428,-16.8969,43.4490,10.9896,91.3720,10.9974,155.1517,-52.1010,13.3426,165.9414,117.5098
-3273.4375,157.5833,165.0324,7.7968,-64.3363,-39.4284,-76.8717,-75.7536,0.8311,-143.3985,29.6542,83.6077,6.7677,75.0337,7.8844,112.1615,34.6371,-71.1066,-180.4729,147.9683,-76.0941
-3265.6250,112.5564,155.9461,24.5101,31.8818,-59.3846,-22.7558,-58.5299,91.4992,-345.8563,-25.3598,-8.5813,90.3838,-17.6191,61.6641,-91.3720,51.3952,-79.8235,21.9872,-0.7391,161.5829
-3257.8125,25.2239,138.5595,-59.0712,49.8046,-143.6309,4.0665,-325.5984,-27.1434,-244.6195,-34.6859,18.9219,62.8425,9.4214,53.1395,9.7868,79.8506,149.1732,75.1628,192.2405,-31.0267
-3250.0000,251.7593,188.0311,143.2177,170.5723,22.0013,21.7330,-49.8099,28.0376,-79.5346,-16.1780,37.2904,81.2774,-45.6718,-74.5508,-119.1851,-84.8581,-11.9685,-119.8281,-144.9259,-85.8157
-3242.1875,-2.1426,181.0634,-17.9106,199.9022,-100.7873,8.9563,-172.4404,15.7588,-164.9008,45.8610,-11.7903,126.4751,-95.2210,23.2902,-130.6255,12.9661,122.4280,49.7319,-80.5761,48.9558
-3234.3750,85.4942,22.6508,83.5081,110.7851,0.9751,-73.2641,-144.5373,-102.9883,10.2887,-35.5540,127.6790,4.2922,79.7811,-21.3264,80.4919,-68.6618,140.3944,-144.1402,42.3400,-179.7362
-3226.5625,-11.0790,-4.0035,119.7125,120.4131,37.5308,-73.7322,39.1569,-28.9996,47.2377,-72.2498,17.9064,32.0779,6.5425,-21.2158,-29.6324,-68.5687,-26.8994,-64.2819,-89.0142,41.2968
-3218.7500,-136.6550,11.3520,-44.0786,30.0413,-89.8937,-90.1939,-234.1310,-82.0131,67.1691,-13.9569,38.1223,3.6870,26.2979,35.8837,64.2360,25.5188,129.8094,21.5918,172.6243,-48.6563
-3210.9375,128.3724,-5.6873,160.7475,49.2689,116.3066,-68.0481,7.1849,-96.4544,15.7031,-102.0816,134.9474,-17.5607,48.6642,-51.4340,12.7182,-61.8134,-27.8652,-170.9346,-55.1226,-100.0444
-3203.1250,-37.8288,38.0280,12.3583,93.2637,-67.7010,-32.1426,-139.7091,-23.1483,-204.0164,-101.4795,60.5259,51.9967,10.7703,20.9752,-24.0689,10.5790,51.2004,49.2809,23.8468,120.3152
-3195.3125,125.9114,203.7050,49.9267,-23.7925,-68.7516,-105.2810,-250.6714,-132.9097,-93.7969,-137.9350,172.0697,13.7624,121.8199,-14.6647,123.0901,-62.0767,111.2396,-31.5468,83.7736,-136.3809
-3187.5000,200.1374,241.8400,156.9885,50.5922,2.6826,-34.9702,-32.1584,-25.2415,-97.1107,-29.9543,96.0802,53.2820,-27.6740,-90.8838,-100.2956,-101.3062,-25.2735,-26.9514,-228.8604,8.3412
-3179.6875,55.0125,96.6331,-29.2849,117.6370,-147.2197,-0.0001,-327.9798,-63.9217,-244.7748,78.6651,57.7245,59.8573,-66.5284,18.5398,-102.0472,44.1046,216.8575,145.3046,83.1382,-30.2699
-3171.8750,227.8924,-11.5710,194.4449,149.6716,76.8875,75.9759,-140.8091,-60.6228,-168.4271,-101.7301,98.3725,29.6834,-63.3697,-52.0468,-98.7754,-99.4939,179.0037,1.5587,-24.8410,-173.9097
-3164.0625,19.4468,-10.1135,149.8553,151.3584,106.6816,179.6122,-146.9491,6.3214,-321.4290,-143.4930,18.6744,81.2471,-142.5510,-22.0048,-251.8526,-69.4623,216.7792,180.4437,-93.2054,40.0952
-3156.2500,75.8318,117.1987,183.1076,32.8980,140.3235,139.1052,-262.2544,-143.8924,-325.5919,-184.4116,125.8228,40.0432,-73.8797,-62.1142,-109.0747,-72.5772,344.4215,61.1972,69.2904,-184.0429
-3148.4375,187.3901,193.6716,294.5404,109.5929,289.1481,140.7435,-3.3904,-68.9871,-323.5925,-183.2086,17.1294,86.5650,-109.0474,-134.0979,-217.1334,-144.5650,139.2223,-37.9191,-171.0618,-72.0626
-3140.6250,-73.1425,109.0630,92.8904,131.1971,50.8914,123.2873,-239.6048,-86.1908,-266.7137,-126.1200,-72.6728,100.5577,-89.3252,-3.1954,-160.3114,-13.6616,301.9209,159.8750,26.4665,-15.1648
-3132.8125,114.2301,14.3695,260.1436,106.6960,218.5396,69.7302,-72.9428,-175.5172,11.0656,-215.1360,58.4292,-2.0394,5.3045,-130.3970,-29.5756,-140.8609,241.5394,-40.4277,-104.0906,-215.3862
-3125.0000,51.4336,22.4758,222.2343,149.9967,144.0188,104.9795,-37.4434,-140.0473,9.6601,-178.3686,-15.6611,47.5360,-107.2630,-94.8185,-214.0462,-105.2829,214.9445,38.0502,-164.8777,4.1802
-3117.1875,63.1693,104.1313,167.8761,55.8487,54.0501,87.7919,-275.4007,-231.0316,-154.2085,-196.0607,114.7933,23.1473,-13.2862,-74.6915,-47.9741,-85.1552,367.9153,15.1028,126.8886,-159.6931
-3109.3750,261.1229,55.9959,371.7388,77.8971,221.3069,108.8063,2.8511,-173.8351,-353.8781,-284.5734,172.4662,24.4095,-30.0992,-127.3882,-100.6894,-174.8500,178.1010,-103.6543,-62.1389,-102.4019
-3101.5625,30.6824,1.4652,162.2235,93.5561,12.1864,156.4319,-242.2713,-125.0365,-452.9554,-162.4933,74.7282,68.2280,-55.3198,31.5007,-125.8216,-52.9543,264.8784,88.1935,59.4101,19.4978
-3093.7500,129.4279,29.1341,164.9069,86.4100,51.2726,122.2689,-166.2148,-159.0508,-155.8289,-160.2161,114.1904,33.5484,21.6636,-2.4127,-12.7438,-86.8598,187.8804,-94.7437,52.1717,-198.4170
-3085.9375,35.8498,41.4483,55.2774,98.9155,-20.9459,122.7634,18.5324,-48.4280,-45.0368,-85.3110,5.3145,69.6901,-51.6988,35.2984,-121.0134,-12.1397,24.5229,-82.0535,-110.4412,60.2958
-3078.1250,-67.3869,-25.8788,-158.9991,-3.2247,-160.8033,55.6164,-158.3679,-151.4590,36.0907,-42.0575,49.7819,-8.3218,102.2822,78.3545,105.0550,67.9266,133.5195,-113.9999,138.2888,-6.6276
-3070.3125,134.7941,-35.7931,51.1373,-11.9754,-24.2515,8.8728,88.1290,-125.1063,25.6294,-161.4140,149.6606,-48.8473,165.6787,-42.2029,131.5449,-52.6197,-52.0795,-227.5622,-117.5728,19.8150
-3062.5000,-88.5527,57.7600,-82.2487,9.7292,-193.2301,59.5856,-153.8931,-74.3011,-106.3793,-74.3351,17.9881,29.1028,69.5206,46.6716,36.4709,108.2670,41.7544,5.3138,-60.0155,217.7117
-3054.6875,-7.1494,104.0920,-20.8876,-48.8144,-132.4699,10.0518,-203.1878,-160.7614,101.3500,-86.5158,116.0652,-27.8466,94.1127,-39.7090,134.1494,22.8997,52.3621,-88.0491,127.3054,-51.6520
-3046.8750,69.2560,74.4217,87.4562,-7.4027,-22.7320,8.4682,15.4916,-50.2941,63.0254,-49.7705,41.1002,-6.3567,-17.3405,-77.1633,-50.2191,21.4557,-116.0826,-81.4886,-77.4510,130.9013
-3039.0625,-59.6219,14.4975,-47.4954,-32.2729,-83.2983,20.5882,-302.1288,-112.1302,-107.6271,-38.3342,53.8269,-16.3517,30.8911,7.0779,71.0917,107.7081,70.1756,69.7840,143.4666,106.1678
-3031.2500,158.0756,22.1526,185.1147,-24.5997,111.6916,-3.7428,-70.2157,-137.4392,-132.7391,-136.3689,103.1179,-40.2017,79.6881,-91.1395,82.9700,-27.4971,6.9990,-99.3986,-61.0605,7.9542
-3023.4375,-73.6445,37.3752,44.3070,25.6271,-27.7458,3.4765,-172.7173,-20.2041,-162.2819,18.1389,-73.0369,28.4896,-59.9635,-9.8292,-93.6136,88.8261,56.3494,125.9513,-11.0781,198.2894
-3015.6250,-44.1273,30.8502,12.7423,-15.9003,-58.9462,-28.0542,-276.9922,-88.7247,63.4290,22.9089,7.0543,-18.1334,18.6281,-4.2642,59.0520,58.4089,121.9671,50.5631,159.1729,-53.1268
-3007.8125,107.5721,-28.5223,164.3607,29.7222,93.0339,12.5625,20.8875,-11.1107,-77.7285,-118.1922,48.3084,-9.8390,-13.6159,-72.5657,-46.1198,-10.8778,-43.2623,-8.6926,-41.4139,98.5801
-3000.0000,-52.5894,-83.7595,-40.8542,-25.5005,-38.8181,27.3454,-184.0714,-68.3473,-173.7712,-30.1650,26.7090,-24.9385,1.2919,14.2773,41.8508,77.9807,77.6587,147.2228,149.1408,113.4599
