Time,Fp1,Fp2,F3,F4,C3,C4,P3,P4,O1,O2,F7,F8,T7,T8,P7,P8,Fz,Cz,Pz,ref
-4000.0000,-109.0242,-44.8703,-42.9875,-59.1035,-22.0061,4.0778,56.4911,29.7699,39.9595,16.2626,-27.2977,-38.9132,72.5565,8.9030,54.1263,48.2990,-86.1420,3.1560,26.7311,30.4335
-3992.1875,6.3446,-33.6801,-28.5108,-49.0011,-80.0404,-52.5368,-72.9608,-63.3453,21.2750,-2.9880,2.9079,-24.3377,90.1912,26.4013,-3.4804,28.4560,64.6884,-19.5624,3.8220,-62.5381
-3984.3750,208.3149,-7.9020,111.5744,48.6830,23.5371,-96.5581,68.2021,-69.8649,88.2046,63.3631,99.1932,-69.1760,47.4345,-54.5066,43.7165,-87.7906,-14.8960,-132.6862,-72.4809,-68.9155
-3976.5625,66.3320,-43.0834,33.7005,47.4126,-52.8376,-98.5306,30.4310,-72.3297,87.1918,61.7714,22.1583,-34.9687,9.7256,-57.3732,33.2768,-52.9818,89.5576,-26.7520,-0.7292,2.7722
-3968.7500,122.3491,-91.2824,98.8213,-35.8667,11.7857,-107.5161,96.6561,-79.8095,153.1822,17.1751,69.8134,-117.7577,39.0336,-139.2411,79.5326,-23.1755,42.0209,-72.8178,59.0372,-78.5449
-3960.9375,-5.2916,-113.1420,-39.7019,13.2062,-52.2284,11.8459,106.2495,77.0600,126.5323,136.9308,-17.4098,-72.2016,-24.3044,-91.7651,70.6537,-14.0191,-51.1785,46.4584,73.1565,41.4899
-3953.1250,-15.2152,-122.2578,-120.4919,3.0287,-95.4949,42.9559,-45.4045,34.6789,47.6383,57.4310,-47.2571,-42.8882,-28.8883,11.4630,-4.0716,-19.1083,79.3792,73.4921,137.0366,-0.7157
-3945.3125,115.2603,-60.9808,-54.8760,-5.7577,5.6472,72.4591,58.3548,64.6886,41.1568,50.3246,16.7044,-87.1833,-35.0615,4.0844,18.6821,-62.8059,-69.6719,-4.0865,59.3219,-7.5282
-3937.5000,-44.0319,-78.4555,-151.0190,11.7026,-51.9591,124.2137,-71.6185,79.9549,-16.0696,28.4813,-68.2107,0.7714,-54.9894,55.9534,-33.2225,63.7459,53.5164,48.5852,43.8602,81.9258
-3929.6875,12.1638,-92.4413,-13.6720,-2.3458,12.9269,43.4606,-115.0917,-37.2854,-22.7852,-14.8658,14.2909,-8.7753,48.5878,12.3225,-28.9161,20.8035,109.2182,-104.2449,31.9103,-35.1206
-3921.8750,30.7684,31.9608,76.0832,51.9996,66.2156,23.1061,-23.1432,16.8738,-5.0915,39.1933,34.0468,8.0753,-6.4394,-7.9137,-8.2944,-35.7425,23.3106,-153.6854,-52.6368,56.2307
-3914.0625,162.8097,94.8006,34.2764,44.7888,-12.0558,-90.7931,-135.7437,-96.5110,-44.9437,-38.2924,54.2522,76.3843,27.9735,62.3092,-66.4591,-75.8316,120.8621,-89.6756,-92.7208,16.0440
-3906.2500,296.6093,53.3733,141.2312,3.3100,58.4202,-94.9527,-27.5862,-100.1516,-10.0348,-41.0272,134.2666,-1.5639,26.1452,-14.7204,-26.7961,-115.1720,8.1647,-94.9352,-132.0389,-23.4006
-3898.4375,-7.3044,-38.7669,39.4854,52.1287,-5.8069,-47.8077,-54.1138,-16.4834,0.1804,5.5538,3.3005,7.7842,-37.3909,30.5583,-18.3107,-31.2067,90.7545,59.1010,-47.0558,96.4693
-3890.6250,-29.7848,-60.4581,57.1823,-5.6009,49.4057,-102.2153,-70.2075,-142.3714,57.8405,-48.4261,7.7795,-11.4050,20.5273,51.2923,7.5414,-47.7852,174.8115,4.5869,4.3859,6.7925
-3882.8125,61.1930,31.2984,77.3369,17.1166,70.0805,-44.1764,63.1626,-47.8126,5.9558,10.0476,27.8251,9.8486,-67.1017,-37.5349,6.3937,-61.9240,21.3055,26.5138,-42.7190,65.5600
-3875.0000,101.8496,71.7457,-23.8287,56.5355,-31.5528,-36.4303,-146.7588,-75.5428,-93.2252,-89.7645,7.0859,127.8057,-58.0407,7.3410,-93.6403,20.6411,166.4977,139.1542,-35.1135,38.0401
-3867.1875,196.6024,62.2713,80.1006,83.0471,73.9093,-40.5770,-77.5840,-117.1777,-24.2992,-131.4781,79.3688,85.8587,-23.8789,-33.6800,-44.3824,-56.6902,51.7983,25.8958,-76.3915,-39.3911
-3859.3750,-57.1029,-13.6679,-5.4186,111.1088,24.9270,-15.1641,59.1621,-53.2497,38.1857,-68.6297,-46.5704,109.4561,-107.1800,27.8466,15.0138,-30.4696,45.6387,55.1917,-11.1187,96.7339
-3851.5625,26.4196,-70.3712,-23.7048,-15.5860,-29.8068,-69.4985,44.1568,-107.0734,59.9222,-85.5299,-22.1310,55.3025,-50.2321,48.6254,16.1059,-46.9927,128.7420,35.7539,75.4200,7.1116
-3843.7500,125.0859,-75.9412,6.1634,-20.1359,0.6218,35.3178,112.3131,-2.7473,54.8233,-18.2733,8.1803,11.2923,-127.1336,5.5503,12.0182,-52.3694,16.9875,-4.5384,107.1146,38.6280
-3835.9375,-39.9284,-136.1759,-57.6289,-10.3352,-24.6022,82.4933,-23.1687,7.9408,-6.9224,-79.6554,-46.3977,57.6340,-115.6963,52.8297,-24.9223,-40.3875,168.5843,78.5276,190.1664,86.5067
-3828.1250,84.9575,-114.5283,80.4822,-59.6437,77.0771,1.5645,8.2435,-35.4805,23.2367,-51.1439,49.2525,-24.1283,-49.3568,9.0078,-1.2520,-84.4992,84.0988,-4.5117,144.1298,-30.7239
-3820.3125,-2.4925,-61.2344,-15.7390,-6.3012,90.4162,52.2838,23.3171,89.7487,-33.9591,74.0253,-23.2768,-9.2418,-143.3747,22.8293,-27.8372,-67.9715,-3.7343,85.0924,58.7425,94.6920
-3812.5000,-8.6502,-101.6365,-17.6617,-45.6424,90.0494,15.3049,-122.3256,-20.7257,2.1354,0.4899,-5.0609,-12.0409,-33.1008,22.9514,-33.7874,-69.1512,131.7613,46.0012,55.6577,21.4078
-3804.6875,74.2021,-54.0387,105.4378,-68.9711,176.6882,-7.6801,40.0260,-6.2082,91.2272,14.9496,63.5831,-107.8374,-17.8318,-108.9337,44.0119,-54.3465,-30.7330,-81.1010,35.5780,36.1073
-3796.8750,-24.2094,-10.6890,-72.7090,-60.5389,72.0716,-36.9090,47.1338,1.0634,61.0624,-13.8335,-40.0764,8.1277,-45.8292,-29.0678,30.2018,-9.7916,47.5238,-1.4476,45.2511,116.5640
-3789.0625,196.4861,-0.2460,18.2475,-50.0079,127.5527,-129.0442,31.3308,-126.5735,7.9975,-105.5222,64.0758,25.1959,10.2712,25.8981,3.2784,-101.1338,57.8952,-94.6974,-10.9674,-10.8887
-3781.2500,91.9388,1.9400,-20.0320,92.2679,51.7960,-20.4291,30.2928,-17.4586,-28.3074,3.5480,-2.5765,96.0086,-99.8860,60.6132,-26.7591,-100.7278,25.0053,-55.2159,-42.4393,98.4094
-3773.4375,28.8734,-60.3798,-8.8238,65.0433,-9.4752,-45.3132,-138.2536,-77.8454,-52.1178,-56.8844,-18.3093,108.3318,-86.5469,73.8433,-80.5205,-51.8080,242.6273,-12.2299,38.5932,38.2201
-3765.6250,126.8628,-30.6548,170.4428,59.8654,61.3018,-48.1530,-30.7537,-44.1947,-17.8791,-23.2723,76.2140,-6.2945,-89.1565,-39.8755,-38.3253,-90.8387,131.3085,-52.2040,34.6803,-0.9288
-3757.8125,10.6495,-7.1352,45.5132,83.4953,9.8799,-25.1880,-43.4436,15.2618,-66.8430,36.1525,3.7644,51.8786,-100.9819,-52.7984,-51.4625,-30.0671,119.7877,43.6266,61.5714,95.7307
-3750.0000,109.6403,-12.4289,82.7796,-61.6785,47.6588,-61.0262,-40.9434,-93.0880,8.3859,-108.2260,62.3419,16.2511,11.3917,-52.5217,-10.6840,-65.0977,150.4865,-65.3241,58.6727,-12.4174
-3742.1875,70.1751,18.8186,73.6047,-30.3014,3.0052,-31.3049,63.1129,10.1184,38.1658,-41.0453,22.4470,44.1700,-67.6927,13.2975,6.2076,-70.5874,6.7263,-102.7197,21.3313,90.9736
-3734.3750,144.4849,58.8684,-27.7859,-24.1162,-135.8475,-59.7713,-110.0342,-53.8665,10.7370,-33.0568,-15.1183,162.9036,-94.9909,58.9196,-85.7403,-62.2761,151.7757,-95.3031,29.8002,63.1713
-3726.5625,366.5573,105.6636,133.5747,-14.1830,-119.9441,-81.4895,-20.4379,-75.1108,28.0581,-54.3247,105.4859,104.3921,-79.5441,-72.7118,-63.6114,-119.2242,57.5925,-189.1385,-62.9703,6.1036
-3718.7500,141.7207,126.5515,41.0443,77.8600,-175.9346,10.8980,-73.7331,17.7546,-99.5255,2.5119,13.8757,120.9852,-133.0146,-53.2393,-108.1835,-63.0747,44.5170,-24.8716,-37.6412,135.1393
-3710.9375,85.3723,36.9328,26.0202,-46.5859,-115.4298,34.7885,-158.5505,5.1071,-110.6172,-11.1615,25.8373,71.0880,-34.9941,-30.2618,-109.3043,-39.4187,23.9760,26.9023,50.1918,12.6714
-3703.1250,-21.5589,-34.2853,-48.5784,-117.6213,28.4816,107.0778,61.0320,114.8539,-2.3143,135.5618,-30.3548,31.5926,-71.5833,-31.8877,-5.8814,-3.3686,-222.1604,62.0638,86.4164,48.5912
-3695.3125,-207.3042,-78.3012,-203.9774,-161.4403,57.5849,99.5703,54.8070,70.8073,65.1796,54.4943,-121.7291,23.3075,-4.9860,34.6879,46.3277,63.8879,-161.0864,89.4294,149.8375,41.7187
-3687.5000,-85.8968,-96.1695,-109.2235,-250.1050,153.8371,48.2116,152.7154,56.9009,125.8173,41.5773,-40.8378,-64.8214,55.7588,-15.5898,103.0335,14.2885,-214.8422,-33.0598,134.4145,-45.0164
-3679.6875,42.8721,-2.6778,-235.1044,-121.4068,64.4423,70.2098,101.9805,152.3465,37.7945,137.0148,-75.2128,-7.5939,-68.1647,5.4757,16.2673,36.0293,-226.2523,26.8007,54.3367,50.5975
-3671.8750,217.9938,67.1650,-190.6332,-156.3506,-0.6126,4.5557,0.5806,51.1386,11.1128,71.7934,-11.4063,-36.0034,-21.7507,13.8980,-34.3829,8.1201,-50.2851,-41.9831,92.6134,-87.4415
-3664.0625,77.9360,-1.1917,-79.3370,-119.4912,112.1406,81.6943,188.9761,128.7183,51.2250,112.3658,-6.4059,-144.6123,-54.5465,-55.8771,55.0537,-23.9940,-154.5023,-73.9772,131.6855,-83.6962
-3656.2500,-235.6299,-139.0434,-186.5313,-81.1088,41.3904,121.3371,119.8661,131.7968,55.8262,115.4431,-130.7016,-105.7130,-50.8602,56.8536,63.3068,16.3945,-46.2029,70.5264,172.2535,-43.4437
-3648.4375,-17.5357,-201.2473,-61.0614,-107.0644,94.2830,100.6228,137.3811,111.5048,110.0701,132.1522,-9.9713,-200.1548,3.4733,-36.7630,85.2673,-40.5681,-107.2143,-24.3264,148.4740,-173.5533
-3640.6250,-25.6698,-136.6960,-145.8159,-8.2541,45.9296,164.6509,165.6549,211.9611,63.0636,196.6116,-56.3702,-137.8459,-79.4582,-46.6393,60.0205,23.2098,-183.4736,39.5603,108.4391,-72.9181
-3632.8125,-96.2176,-66.5373,-141.9741,27.1629,-22.8302,96.2802,24.5231,108.0126,32.6460,91.6684,-68.2960,-58.9154,0.1926,-41.9123,28.0316,29.5871,-8.1176,42.0641,76.0112,-140.6829
-3625.0000,-20.3049,44.0658,-24.6754,69.0311,57.8755,66.3595,106.8417,115.5080,40.6732,136.1751,-16.7069,-126.5376,-28.7106,-107.7411,44.1831,0.4046,-107.3096,-56.9743,-21.9619,-133.0189
-3617.1875,-33.3043,67.7629,-114.2834,127.0077,-68.3006,87.5528,-54.7373,137.1113,-10.2068,120.7954,-77.3641,-32.0564,-116.5274,-49.4774,-48.8821,59.3182,21.6001,3.1100,4.1653,-37.2507
-3609.3750,52.0360,47.8026,-18.5413,38.3371,-8.1173,38.0973,-29.9850,51.0593,14.2502,71.7586,-14.0635,-46.2191,-55.0012,-25.8647,-29.8090,47.5804,72.8895,-85.4348,22.6519,-160.1453
-3601.5625,-97.9727,73.4924,4.8665,28.3273,51.7333,61.3045,105.4216,148.6638,2.3439,132.3761,-59.7458,14.2667,-103.8404,-1.5996,8.9686,71.4833,-42.1706,-58.3192,-55.2134,-62.4030
-3593.7500,-15.3409,52.8331,-52.0830,42.9900,-3.7719,5.1749,-59.5453,18.9208,-15.9303,39.6476,-44.4613,30.4164,-48.0530,15.3301,-39.9399,53.0461,113.4461,-42.5428,-38.4268,-81.0125
-3585.9375,194.9661,86.8261,59.6350,42.3118,71.3766,-29.3092,17.1233,-15.1874,-12.5672,42.5517,66.6966,-40.7795,-8.6219,-55.0894,-15.0186,-53.7448,41.7413,-147.1267,-141.9874,-114.9915
-3578.1250,5.4287,144.9777,6.5186,135.8067,18.6764,-44.6385,-34.0599,-30.1441,-137.0659,-9.3992,-5.6054,89.1883,-23.0652,2.6396,-55.5403,4.6041,100.2028,17.4388,-186.4042,-19.8194
-3570.3125,150.8850,115.1335,92.4094,71.3239,67.9689,-104.9636,-93.2732,-127.1157,-124.5852,-69.3638,82.6010,65.1732,64.4776,-21.6180,-63.5666,17.9496,105.7021,-46.9825,-179.8213,-153.6588
-3562.5000,187.8540,81.7903,91.8278,38.3605,104.7662,5.2196,18.0063,-15.5863,-49.6178,5.1775,81.2592,27.6602,-7.4933,-20.3813,-23.4250,-17.2158,-32.2938,-77.9051,-175.7462,-79.0135
-3554.6875,120.8161,86.4549,24.2446,8.4193,36.5585,11.4096,-84.7273,-83.0502,-116.6699,-136.2736,41.3273,70.1631,-0.4841,58.8557,-69.9499,-10.3826,148.7293,-36.8189,-62.6693,-72.3660
-3546.8750,206.7930,67.1303,154.6792,-10.5152,131.3533,-4.4057,-26.4711,-98.5270,-94.7305,-188.7329,120.7313,16.6700,20.5167,43.0808,-40.8924,-62.5550,59.7815,-89.7398,-79.5880,-124.7363
-3539.0625,5.4297,43.4692,50.7755,71.2170,64.8021,76.4369,-54.5658,-17.3500,-122.1522,-106.5337,26.1925,96.8364,-7.8555,86.9532,-47.2731,-18.0816,35.4894,27.9919,-101.8652,-6.4574
-3531.2500,16.8164,19.5657,67.6233,83.7209,81.9947,-15.9690,-108.9418,-146.4334,-104.8461,-198.5940,53.3987,114.7716,84.5085,31.5899,-35.6942,-35.8613,82.9838,5.4882,-122.3965,-98.4359
-3523.4375,-35.6227,38.8141,159.6482,138.3910,137.3483,-33.2253,-15.1780,-90.3753,-85.4027,-106.5162,54.7892,132.8623,31.0143,-22.6225,-9.6301,-53.5038,-38.3631,-43.8675,-205.7881,-42.2816
-3515.6250,-142.7742,142.3724,119.9801,172.3814,61.9970,-72.1751,-126.1297,-128.0191,-158.6772,-143.1398,2.9927,241.2732,29.8032,-24.5311,-62.4912,-54.8446,135.6101,-8.9102,-205.8902,-6.8221
-3507.8125,144.7372,290.5903,242.9770,144.0343,111.2983,-169.4837,-75.4549,-225.0300,-146.3158,-168.1264,118.0124,216.3432,43.2331,-84.7933,-70.6772,-114.5374,108.2603,-141.2981,-232.3467,-103.7307
-3500.0000,181.0598,362.6200,167.7865,217.5016,73.4191,-132.9884,-75.9755,-151.2419,-145.1679,-167.3097,93.8096,215.2117,-30.5528,-86.2620,-87.2127,-78.4351,40.7134,-31.8794,-192.0096,6.1552
-3492.1875,139.7767,252.0518,129.9944,142.3810,34.9456,-171.0878,-149.1216,-225.0569,-109.6442,-204.1000,73.7350,140.4957,7.0469,-86.3280,-89.3285,-3.9362,176.5966,-1.0375,-89.2670,-67.5628
-3484.3750,94.2560,136.2317,229.9779,97.0145,98.2431,-107.4321,26.4721,-126.1296,-45.3873,-105.1477,102.1146,19.5257,-2.6142,-133.6455,-4.1471,-50.6950,61.2447,-44.4379,-97.7697,-40.5546
-3476.5625,11.2764,89.9607,105.5177,121.2182,-25.8995,-120.2094,-60.3910,-137.6402,-57.5936,-116.6414,28.9450,79.1093,-15.7477,-73.4065,-35.5698,10.0924,155.4548,85.7240,-71.7204,20.0031
-3468.7500,189.4570,127.8468,150.2187,89.5812,-16.8890,-148.8342,-50.1257,-203.0151,-48.6627,-145.9958,108.9399,49.8513,67.2547,-64.0180,-28.6953,-53.9772,123.8534,-50.9660,-101.5154,-81.3045
-3460.9375,-19.1949,95.8934,76.0918,93.1105,-54.7186,-38.3035,24.2863,-56.2398,-47.5956,-71.2044,13.1089,49.7587,-5.6156,46.5232,-8.6321,-16.9087,22.4141,24.4875,-26.1627,29.5294
-3453.1250,-142.1525,-97.3538,-12.3338,6.3628,-141.8551,57.9392,-99.6340,-32.7657,-61.8557,-48.7188,-54.9641,71.3920,-18.8102,142.7813,-53.3561,79.8659,146.7083,78.6558,135.8862,-20.9388
-3445.3125,-26.1937,-50.6990,75.1616,-16.4622,-54.0827,73.0786,-9.6751,55.5957,-9.2315,40.6572,-3.1109,-24.0678,-77.1174,46.9451,-30.8274,22.5390,17.9321,-13.2839,114.8308,-42.5284
-3437.5000,11.7165,58.9192,-34.3807,22.6892,-199.3567,111.1750,-116.7692,57.9084,-43.6786,41.9876,-66.9268,50.4357,-184.4963,86.0595,-117.6075,61.1633,92.1167,26.7293,154.7168,32.8326
-3429.6875,200.0913,70.9989,22.5336,0.3115,-216.1824,21.7152,-133.4413,-31.3447,-22.6988,-47.2488,23.0684,-3.5950,-90.4369,69.6267,-113.3912,45.2293,70.7898,-64.7956,170.0491,-93.3691
-3421.8750,29.1887,6.7908,25.1782,42.6589,-139.2979,61.9569,17.5779,82.0942,53.9617,66.2096,-14.0175,-37.9250,-86.6929,35.8854,-17.2682,48.9834,-132.8239,-21.6157,73.0667,20.1168
-3414.0625,-192.2745,-38.9549,-21.7208,-2.5185,-112.9697,15.6573,-27.9783,-1.0140,82.0518,57.1195,-62.1487,-84.7940,51.4810,26.5922,34.0338,77.1821,-38.9563,4.0337,29.5340,11.0548
-3406.2500,-90.8653,-41.8460,88.2526,-39.8322,34.2103,-57.7911,120.2981,-0.2847,118.9756,93.8697,20.8269,-157.8129,88.4929,-120.8563,103.1115,4.2221,-146.2074,-67.4627,-41.1459,-25.1777
-3398.4375,-201.0983,23.6251,-30.4141,-9.7746,-12.2509,-29.8777,112.9175,27.8005,74.2318,85.9667,-61.7911,-56.4711,43.8303,-54.9532,81.9828,32.6021,-150.0999,34.4099,-44.4808,76.9376
-3390.6250,-202.9230,-11.4838,13.3178,-79.2919,-4.3145,-58.5554,46.8993,-37.7231,81.8593,56.4531,-60.9782,-12.7103,51.5512,-10.6520,54.6140,77.3764,-44.5575,-0.2979,-42.4171,-62.5603
-3382.8125,-235.0691,-7.9243,88.7234,-5.1362,-1.7092,-18.5881,124.5222,75.3960,49.1133,133.5883,-68.9049,26.7058,-55.0924,29.2873,42.6114,80.7892,-146.3546,4.6506,-72.7145,-22.4275
-3375.0000,-58.7597,64.0990,18.5853,67.4993,-145.6524,-52.1624,-18.4200,5.9676,-21.2083,-9.8258,-41.1142,65.5829,-51.3103,-4.3219,-33.2552,84.6498,67.3186,43.0654,-32.5672,-18.8465
-3367.1875,255.8713,133.4258,168.7591,31.4504,-143.2885,-85.4342,-14.0873,-64.1725,-17.2503,-42.9572,110.6721,-41.2351,-10.2354,-111.6241,-43.2119,-21.1979,31.3240,-27.2176,-67.1209,-88.9891
-3359.3750,12.6045,101.8664,58.0504,71.5236,-215.8154,62.4060,-13.6623,46.7935,-53.2109,31.0154,8.4658,-41.9462,-47.0772,-37.8170,-38.7201,-20.9559,-34.5692,154.6004,-26.5877,21.9623
-3351.5625,-50.0196,-31.0386,33.9875,-25.7370,-202.6971,75.9063,-35.6169,23.4095,-2.5463,-28.3682,-6.3837,-27.9911,4.7200,12.6588,-14.3718,-43.0571,9.2162,128.0785,53.5944,-74.4444
-3343.7500,-98.0195,-42.3373,58.5458,-36.3871,-141.9696,138.0151,100.0164,85.6161,22.7034,69.8402,-35.9011,-3.4332,-80.8955,37.7326,12.9259,-17.5569,-142.3865,118.1534,9.3697,-49.2688
-3335.9375,-254.6164,-59.2141,-105.4945,53.3851,-230.8412,195.5359,-25.9665,106.2284,6.3260,54.4441,-142.5520,52.5389,-97.1356,95.2116,-21.9827,76.3366,18.4343,173.6443,30.5350,-28.6878
-3328.1250,-106.8398,-120.7205,-18.1652,62.5352,-107.3628,99.4061,62.3597,10.1720,57.2663,31.3728,-58.8482,-7.1181,-45.0357,73.0411,28.7025,17.5683,27.6526,42.4919,5.0380,-124.7755
-3320.3125,-164.7245,-107.8952,-82.5012,111.0242,-98.5734,108.5749,108.9712,93.4078,30.4775,78.5908,-91.6421,-34.4626,-72.6581,46.1586,41.6793,65.0836,6.1889,91.6423,20.8207,-4.5710
-3312.5000,-117.5930,-130.0460,-101.8308,54.5519,-80.7859,15.7411,17.5512,-35.3733,11.6578,-14.2073,-53.5771,-16.7842,55.6999,26.2782,37.8121,45.5927,125.7642,71.8129,35.5891,-60.3714
-3304.6875,-91.0304,-102.7767,0.2660,47.5030,21.4197,8.2933,82.5155,-6.7749,40.2156,14.3788,2.0126,-62.6935,84.4467,-18.2033,76.7275,1.4844,-57.2325,29.3776,-40.2536,-31.7957
-3296.8750,-270.3609,-69.3818,-116.5223,80.5903,-23.2677,37.9470,-69.4356,22.9186,-39.1568,7.0531,-86.5714,40.5173,78.2711,48.4220,15.5348,68.4663,-25.1038,133.0524,-42.0137,71.8798
-3289.0625,-147.3196,-88.6221,-57.9332,28.0527,73.3945,-12.0511,-84.0749,-27.0577,-17.2089,-42.9457,-18.1631,-9.9089,138.4392,35.3971,22.8527,91.7931,-41.5848,11.0759,-58.4308,-15.1097
-3281.2500,-280.5493,-114.1447,-88.6101,73.2282,41.7707,-7.3448,-4.0308,51.6639,-47.5885,72.7501,-74.9918,31.3609,107.2962,77.0745,37.1112,171.8134,-102.3598,20.7934,-82.1595,100.5923
-3273.4375,-169.7218,-72.6028,-80.2379,44.4632,-23.8045,-35.5761,-178.9686,-49.5625,-75.9454,-28.5173,-48.9709,39.6922,116.1883,122.8160,-37.0697,179.8888,79.9322,28.5810,-109.8422,72.3438
-3265.6250,169.3362,56.1466,92.3462,68.9004,2.8318,-117.6055,-151.7257,-95.6012,-86.1169,-38.5968,91.6503,-7.7675,69.2788,1.7614,-69.9882,97.1512,34.4378,-52.4256,-189.3326,62.2729
-3257.8125,55.1034,117.6159,7.6302,132.0704,-44.8242,-92.9252,-199.7867,-70.9366,-134.6107,-12.9808,19.5086,17.4892,-14.9515,-45.5934,-101.9449,49.1004,132.6575,152.2855,-160.1373,160.9030
-3250.0000,11.1313,39.3488,79.1653,88.5242,26.7673,-94.9913,-163.6348,-109.0366,-98.8829,-52.1335,44.5429,-57.9860,20.0529,-47.6927,-60.9972,-25.7004,195.1720,145.2654,-62.7022,12.7702
-3242.1875,-105.4107,-6.5001,66.1255,149.4052,50.7727,40.3466,-65.0960,25.2610,-74.7752,46.1036,-16.2879,-70.0657,-101.5610,-23.3976,-40.1305,-1.1083,80.0986,170.6500,-69.8802,74.0253
-3234.3750,-167.3020,-32.6810,-33.2595,123.9597,-84.5744,89.3497,-200.9329,0.2134,-100.0461,20.9831,-65.2046,14.5225,-53.5478,25.5645,-85.9226,85.1338,159.6942,181.7004,-25.4182,48.9333
-3226.5625,-89.5672,-94.2443,89.9720,-6.8707,1.6878,64.9522,-78.1955,50.7514,-14.7416,71.4319,-2.3830,-46.2792,-40.9418,2.1323,-31.8498,61.9681,-6.0811,50.3470,-14.3559,-11.5788
-3218.7500,-302.4606,-130.4369,-25.4281,-8.3333,-40.6887,96.9143,-45.1199,118.6423,-19.1057,139.2209,-112.5333,21.2773,-82.0063,107.0461,-19.5499,93.1506,-7.5005,155.3424,20.0482,93.2605
-3210.9375,-188.8889,-192.1697,-11.3788,-69.3279,47.3815,38.3286,-140.6249,22.9753,-43.0455,43.4390,-47.1342,-0.7073,5.3714,121.4183,-40.2887,107.7780,37.5620,130.8056,65.9019,-2.4556
-3203.1250,-171.3907,-173.9928,5.5931,-50.4087,137.3716,55.6490,-14.2410,40.2005,-25.1030,60.5400,-23.4247,-20.7949,22.6454,102.6834,13.4591,89.2850,-118.4663,79.1750,50.6473,51.7154
-3195.3125,-268.5457,-165.4450,-94.0867,-41.1109,146.7155,65.3288,-113.5267,12.7787,-88.8366,-4.0156,-61.0944,25.4829,69.2537,112.2983,-7.6036,62.1358,-5.1207,194.9157,95.7306,61.2423
-3187.5000,-106.2034,-211.4168,9.6924,-86.3400,214.5084,59.4513,-46.3906,7.7897,-22.1472,-9.1443,30.6613,-53.7748,100.2994,32.3619,32.4985,-16.5665,-50.2886,79.1070,121.2497,-54.7988
-3179.6875,-178.9708,-179.5045,-70.6554,-53.6855,134.1488,126.4269,-16.4181,147.6478,-28.6321,94.5682,-46.1953,-61.1690,-16.8301,26.2733,12.9057,50.5655,-52.5925,112.1484,154.5966,49.0066
-3171.8750,-101.1294,-135.9673,-19.3903,-114.3993,38.3808,68.0032,-74.8810,89.0930,22.4569,71.8615,-32.7945,-82.9443,-38.3792,-32.2084,-17.4163,65.2908,62.7446,16.8025,235.5334,-46.5897
-3164.0625,-27.3555,-97.5114,56.8092,-145.1952,-32.4748,70.4781,75.5380,165.4230,98.4292,185.0335,-20.3414,-117.8143,-109.0382,-66.7966,14.9316,68.9036,-73.9980,-84.6445,170.3575,-7.3010
-3156.2500,-97.7206,-96.1862,-56.1307,-108.1118,-181.4681,31.8126,-1.2113,126.6107,58.2191,146.0412,-85.6543,-46.8298,-110.8651,4.4579,-19.8106,66.3609,68.1259,22.7838,171.0229,63.8417
-3148.4375,-16.3681,-49.1501,35.6357,-60.3149,-163.7415,-23.1431,54.7094,-2.5092,76.6842,53.6991,-15.1213,-65.1410,-19.9901,-13.5836,22.5277,11.5129,80.9763,-34.0709,114.3859,-28.3309
-3140.6250,-64.3447,-26.4502,-53.9391,69.1518,-142.3417,71.5636,75.2761,92.0275,22.7814,110.9709,-70.1658,-7.7953,-108.4798,44.0396,0.0831,69.3044,-35.5239,60.7333,33.3846,66.1381
-3132.8125,42.3368,-59.0882,-120.8729,1.2902,-99.2940,41.9348,-27.5323,26.2114,-6.4910,7.8620,-40.4564,36.2167,-28.3319,88.3376,-28.7995,76.7450,72.6490,28.2020,72.0283,-36.7455
-3125.0000,86.1532,-50.6100,-35.6878,-24.4569,21.8643,90.4060,93.7433,110.4861,-32.6778,54.8269,7.3407,10.3345,-54.0911,62.7346,-3.4435,-21.7179,-58.0621,-67.2404,81.7635,-62.5458
-3117.1875,-154.8587,-45.9568,-70.3455,16.9689,-121.8283,167.0311,-50.8429,149.9130,-102.7363,20.9310,-83.2421,86.6160,-87.7188,139.2805,-60.3020,17.9696,88.3900,79.4642,88.6379,13.8147
-3109.3750,-15.8938,24.6690,156.9479,17.3688,-116.5777,99.6003,-155.5121,45.2711,-98.8681,-47.0357,21.1644,55.8668,-82.4089,108.7889,-106.2094,-49.3981,159.8248,10.1170,19.4560,-90.8811
-3101.5625,42.1039,83.3192,177.2595,76.7942,-22.3166,83.1693,-61.1889,66.6237,-78.0173,9.9905,39.5586,40.1233,-134.1132,19.2965,-78.2482,-65.7808,43.2676,34.7694,-61.7488,3.4189
-3093.7500,103.7595,74.6375,60.2164,68.8962,44.5900,-32.6077,-140.2421,-50.3747,-85.5409,-70.3442,46.8736,70.0397,-31.1811,13.4573,-80.2728,-34.5125,106.3880,62.0909,-33.3148,-39.6229
-3085.9375,174.2983,76.8153,138.0371,71.8585,232.3573,-65.5348,10.5321,-83.5398,-45.2309,-66.8475,112.3970,-0.1958,9.6032,-56.5403,-6.0104,-67.4049,-32.6193,-40.7309,-66.0395,-72.8295
-3078.1250,-54.9521,59.2061,-30.9329,90.0456,211.3381,-50.2513,25.4987,-31.4951,-30.7418,-15.1510,-14.7345,88.7693,-12.4264,-41.3396,19.4660,-52.1090,21.5769,83.6614,-82.5804,16.1678
-3070.3125,21.5600,30.3687,55.8465,62.0014,224.0620,-110.2089,1.1792,-128.7038,-54.5289,-112.7181,66.4210,65.4948,111.2826,-28.3807,29.9828,-112.0689,98.5536,-15.1807,-40.3788,-118.0942
-3062.5000,25.4109,69.8609,168.9485,103.2797,190.0942,-70.8647,41.1471,-52.6191,-90.0376,-73.9944,85.9359,67.5233,40.2808,-25.1247,10.3419,-109.7417,33.8422,-78.7292,-104.8993,-42.0685
-3054.6875,72.4378,82.5306,145.2044,116.7355,19.2781,-94.3722,-165.7542,-113.3944,-149.4247,-134.1292,81.9415,117.7169,53.4153,61.2830,-83.8655,-59.2729,188.3051,-30.1144,-126.2869,-28.8851
-3046.8750,265.7566,65.4714,276.7237,64.4547,39.7269,-72.6414,-146.4306,-128.9433,-130.5764,-151.0323,186.4459,65.1619,73.7998,8.9323,-81.5429,-111.5647,136.0392,-117.2505,-178.4372,-81.4649
-3039.0625,139.4981,150.8283,177.6502,115.5931,-59.4071,-24.5050,-170.7063,-7.0908,-155.3405,-101.5361,94.9483,113.0061,-25.4327,-16.0210,-110.0018,-98.4611,152.1670,40.0151,-196.2016,40.3597
-3031.2500,277.3004,254.2502,180.6172,113.7920,-56.4904,-95.3138,-204.9591,-152.1912,-190.0750,-173.9992,140.7035,78.9101,14.3787,-86.9162,-132.0324,-170.3091,291.3702,2.3460,-163.9235,-67.7656
-3023.4375,397.1830,374.7346,231.6495,235.0563,-5.5132,-81.0735,-82.1710,-137.2503,-139.7657,-159.4193,167.2841,92.8679,-82.7675,-181.7587,-106.8173,-229.1222,166.6316,-51.2788,-252.6088,-16.8503
-3015.6250,311.6254,324.7826,140.2276,256.8942,-131.9907,-97.2727,-171.8494,-153.7561,-157.9276,-214.2883,99.6668,186.3912,-98.3825,-89.0448,-145.3041,-172.3924,293.4630,-30.3360,-195.7568,39.6255
-3007.8125,392.1577,300.8983,193.8650,127.8024,-43.4249,-118.4244,-83.5075,-175.2258,-70.0659,-198.1232,139.1850,128.9744,-83.9565,-73.2759,-101.2573,-229.6214,199.3723,-124.3396,-114.8627,-54.8629
-3000.0000,211.5261,260.8383,111.3133,123.5335,-53.0524,20.2308,-19.3695,-37.8917,-115.4205,-97.1564,41.6219,156.3614,-202.7448,-8.7117,-111.4735,-165.0612,125.0746,-22.5485,-13.1889,46.4483
-2992.1875,218.0583,162.9488,49.9071,26.4298,-39.5308,33.0354,-153.1085,-61.4113,-104.6409,-195.0490,42.1207,132.9063,-153.3892,5.0055,-134.0111,-116.3576,238.9494,56.4062,100.6222,-51.0866
-2984.3750,198.5303,143.9798,105.4197,43.2337,51.9099,88.7321,-24.9577,29.9545,-49.9798,-105.0540,70.6348,40.3477,-136.1353,-50.3814,-62.3500,-170.7719,44.7352,38.2554,47.3168,-69.7322
-2976.5625,0.4175,86.4359,-29.6720,92.4568,63.7546,100.8364,-87.4207,42.7253,-111.9406,-56.6553,5.0152,89.1975,-50.4937,-38.3684,-52.7522,-157.7882,58.9253,193.5188,26.3920,-20.9685
-2968.7500,111.9313,23.5102,18.8367,30.2919,186.1967,39.5382,-38.3113,-19.9167,-64.3176,-81.6747,85.6425,-9.3473,71.7483,-62.7542,1.2320,-147.2051,-39.2583,60.3854,-1.9442,-119.6136
-2960.9375,25.0360,77.1552,-77.0867,49.6913,201.1963,54.7894,86.3427,31.9887,-14.1540,-31.1476,8.4150,-31.3421,12.5321,-48.5943,45.8131,-59.0895,-124.8926,44.7968,-52.7541,5.2931
-2953.1250,90.6674,143.3138,-116.5114,10.6127,161.6880,-21.4596,-27.5314,-81.6160,-17.5145,-108.1355,7.4172,-33.8175,46.8081,-13.9269,3.6114,-24.4837,12.0020,5.7180,-57.0799,-34.2901
-2945.3125,190.8404,138.9894,-9.4175,-27.9520,230.6957,-99.2199,152.0750,-48.7415,51.6095,-38.6409,64.5856,-111.7882,42.5852,-17.7666,68.3195,-65.3905,-97.5859,-138.8698,-95.9218,-38.3854
-2937.5000,14.0817,67.7382,-87.2688,-28.4427,151.7638,-66.9281,72.7260,-17.8167,7.7669,28.9040,-25.5442,-43.6986,-0.6039,50.4461,25.1604,39.7497,-62.1261,-68.4029,-59.7381,66.5788
-2929.6875,60.8508,80.0083,3.3715,-85.4229,133.3371,-123.1394,16.8473,-73.4003,98.4067,9.9406,16.8439,-62.0998,54.7053,-4.8361,37.5820,21.3818,-13.1527,-160.4299,-48.0662,-25.9642
-2921.8750,112.8462,132.4907,17.2209,2.8018,111.1297,-71.1479,67.1728,-22.7823,38.2395,23.1795,38.1455,-84.3092,-5.7885,-99.9226,28.6479,-1.7956,-30.9860,-72.2634,-30.2112,61.6884
-2914.0625,133.5471,117.6792,-69.2393,59.7364,97.6272,-47.4447,-128.8157,-72.4613,-85.2409,-99.8816,37.9293,-23.8146,18.4083,-77.3048,-49.4734,-51.2698,201.8899,89.6128,-9.6638,12.0532
-2906.2500,223.4413,103.0203,103.4614,115.8234,233.2813,-21.5976,-68.6697,-84.0011,-61.5783,-149.8098,116.0122,-35.1683,-30.2409,-88.5348,-34.9730,-136.6086,116.9288,4.6344,-23.9811,-73.4413
-2898.4375,51.9145,107.9330,32.7189,157.4744,125.4917,17.8049,-29.9813,-7.9900,-96.3763,-110.1932,8.7994,41.0294,-137.3514,-12.2129,-57.8644,-60.4081,122.5126,46.2095,17.2344,2.6248
-2890.6250,151.5080,67.9616,32.0660,47.2334,125.7993,-55.6964,5.7870,-81.8869,-24.0895,-148.4825,43.9038,-33.6691,-65.3626,-12.7904,-24.2633,-60.1158,118.2186,-64.1030,82.5416,-108.2077
-2882.8125,136.0327,51.9023,12.3223,-3.0963,142.0202,-2.3013,169.4555,8.1086,28.0950,-21.8727,27.8443,-53.4714,-86.4738,4.5254,35.4431,-80.9390,-73.1754,-79.5174,31.7301,-18.1456
-2875.0000,28.7119,-18.9882,-173.2833,-109.2579,66.3912,-4.7532,56.2655,5.2572,61.4145,-25.1145,-52.2906,-19.1174,-15.4439,38.9946,30.9506,27.3904,-2.4169,26.2302,66.0565,16.0794
-2867.1875,88.0897,-136.2145,-110.2353,-224.7674,130.4169,23.4364,156.7064,33.0399,161.3781,-34.7223,17.1203,-102.1108,85.2358,-6.8902,117.0803,18.3615,-153.9995,-54.3720,90.0169,-30.0555
-2859.3750,-141.5929,-188.5174,-206.2787,-206.3622,69.3483,109.5303,169.0455,118.7237,136.2335,50.5714,-71.1854,-52.2041,97.8048,42.1224,136.3839,67.2177,-170.6864,32.9206,107.8556,92.7169
-2851.5625,-103.2071,-183.7497,-197.2779,-201.8913,42.3174,81.6684,30.4110,54.4484,34.1290,22.9110,-34.7393,-43.2308,180.4188,88.1874,74.8924,40.1104,-96.2935,3.2624,146.7312,-8.4556
-2843.7500,-40.5815,-122.7623,-170.0641,-138.2062,105.4967,108.9997,129.9647,154.3637,23.2146,122.4467,-22.2264,-90.0527,97.2313,79.4463,76.9914,30.1891,-313.6903,-4.2089,68.7856,18.5648
-2835.9375,-175.1399,-114.9531,-275.0553,-131.6971,0.4723,151.1336,-12.6915,159.0867,-45.9154,127.7848,-99.4156,-11.0607,101.8287,157.5049,13.3020,109.0632,-236.2862,38.1312,110.6172,60.3996
-2828.1250,-12.8735,-94.3284,-138.2458,-178.3817,28.2503,68.0647,14.4258,112.5969,16.7419,116.9052,-10.4618,-94.2601,128.2327,74.3690,32.7428,62.7312,-214.0689,-80.7308,62.2350,-22.9720
-2820.3125,-15.5751,-60.6882,-107.4320,-110.0565,-51.9541,62.0038,43.5434,143.1130,8.3904,147.0314,-24.8413,-63.4669,47.6316,68.2267,17.8783,92.3850,-214.8683,-11.5952,24.8353,80.6613
-2812.5000,72.0454,-78.7428,-122.3405,-127.4282,-103.8593,11.2448,28.9437,17.9291,30.3320,21.4577,6.5400,-78.3726,106.3306,17.3868,30.6084,41.3374,-57.3581,-28.1421,112.7269,-7.3951
-2804.6875,21.5508,-93.9446,-27.3956,-106.9527,29.0994,33.3325,197.1994,75.5862,87.1276,78.7380,25.0473,-93.4401,90.8790,-34.6059,105.5309,-10.8741,-212.0013,-148.8457,97.4582,-22.6115
-2796.8750,-143.6911,-83.8888,-204.2126,-26.2220,-74.6854,76.6749,92.7115,82.5046,56.1708,48.2814,-91.2571,-13.2537,60.6657,45.6568,65.8944,69.1585,-131.4047,-68.2935,142.4307,57.4358
-2789.0625,51.2863,-62.6238,-105.8353,-75.2880,-86.2763,29.2135,7.4024,-2.3859,44.4073,-36.9774,10.6715,-60.8644,122.6553,-1.8798,35.4211,21.3886,-75.5906,-117.5411,127.5931,-27.3193
-2781.2500,16.2941,-28.3458,-36.4517,-39.3434,-126.8576,60.7523,1.0963,102.7268,-35.3542,67.7704,-2.3534,-65.4799,6.6407,29.5727,-16.1497,15.6124,-73.7850,-11.7993,21.7311,77.9274
-2773.4375,15.5716,-27.8047,-33.8279,-3.1381,-160.1952,27.5410,-141.9762,32.0849,-106.8750,-3.2320,2.4549,11.1611,46.8718,106.2834,-74.2642,19.0839,66.2808,24.1968,-48.8976,7.4377
-2765.6250,117.5994,38.4468,36.5000,28.7638,-54.8289,24.0204,-74.3544,28.1293,-75.6943,-7.5350,66.1720,7.5033,79.8051,66.6970,-39.6915,-21.7600,-77.9499,-85.1203,-121.8416,3.6368
-2757.8125,41.6385,68.7101,-84.1830,94.6711,-64.4540,13.5028,-157.7214,17.1845,-123.5143,-17.8214,-3.1148,69.8474,31.7299,92.1145,-83.1270,41.3815,-46.1976,16.5624,-126.7988,139.8490
-2750.0000,196.4884,47.7773,-30.0805,39.3721,-10.2818,-78.2152,-214.3073,-110.9647,-105.5342,-74.3051,69.7363,14.9976,86.4585,37.3284,-94.2865,59.3246,2.3664,-4.9520,-113.9617,47.8633
-2742.1875,140.0811,26.5582,-17.2708,53.7763,74.5942,-29.2348,-56.1893,-26.4112,-95.8543,-26.0781,43.9574,-46.1590,-12.1178,48.2297,-52.2945,69.9604,-87.3777,45.2208,-134.4460,132.5788
-2734.3750,23.3961,-54.9458,-100.7721,42.8924,-8.8441,-3.5468,-140.3854,-37.1535,-69.4807,-73.1382,-13.7757,-20.6096,12.9947,112.8310,-54.5493,60.2864,77.5825,105.1007,-40.2426,86.0084
-2726.5625,63.5919,-48.5985,19.5795,49.8568,75.5747,7.9815,-20.7386,-27.0545,-24.2603,-27.3474,32.5009,-46.2173,-13.0322,13.2849,-11.7828,-2.5526,13.3946,5.8205,-0.1996,-13.7185
-2718.7500,-136.5011,-4.5398,-83.3718,95.5219,45.7106,51.2062,21.6191,15.7499,-19.3365,15.1554,-63.4793,33.8736,-43.3617,19.4395,12.7753,-32.6928,22.8851,86.2291,79.5213,66.2697
-2710.9375,-8.8823,54.2307,-91.6367,48.8883,38.5496,-28.8755,-22.3454,-64.7587,10.2808,-65.6431,-18.6373,26.6760,23.0117,-23.6961,9.7710,-114.1328,47.0876,39.3349,137.9248,-51.0332
-2703.1250,121.8235,114.0591,-31.8417,74.3052,25.4536,-5.9172,73.7378,31.7705,31.9541,-6.3916,28.2991,-23.4714,-28.5616,-110.7949,22.7380,-126.5338,-103.6590,-41.5239,91.3644,8.7114
-2695.3125,76.6465,139.9974,-114.9583,65.8322,-95.5410,20.1445,-49.0828,20.4048,19.7282,-18.0254,-35.2492,39.4912,-76.0488,-84.8093,-38.0999,-64.8438,-7.2990,20.7275,116.8932,34.5711
-2687.5000,178.0028,101.4431,30.4238,26.8631,-60.0278,19.6966,23.5880,-17.4763,54.0022,-19.1527,48.9266,-35.0455,-41.0320,-123.3407,-2.9697,-103.6680,-45.4273,-53.5245,76.9089,-40.0785
-2679.6875,40.9846,139.4960,-44.5921,66.5054,-133.9071,91.8463,20.8696,54.2498,14.8802,52.3431,-37.5987,0.0143,-115.4232,-50.2901,-26.9821,-30.9108,-6.9661,19.8204,44.5045,68.8775
-2671.8750,77.0301,69.6124,-39.5726,32.2004,-201.7494,24.0427,-121.8116,-13.9748,19.8041,-16.0996,-17.3965,6.1312,-37.7654,-8.1931,-61.5577,47.8848,135.5557,-13.7778,80.1405,-36.1116
-2664.0625,115.1088,2.7401,73.4502,0.8959,-126.5907,27.2305,28.5127,61.7984,57.7346,59.4808,21.0314,-27.7618,-72.1020,31.8871,-18.4550,50.6671,-36.9363,-116.3857,12.7579,-33.1091
-2656.2500,-8.3090,-85.6246,-21.0482,-51.9047,-182.9402,5.9279,6.3458,41.0881,36.1750,1.5923,-43.4376,24.8419,-56.9456,84.4568,-19.0112,102.9548,51.0499,-28.4924,29.8605,19.4114
-2648.4375,180.3910,-71.8897,107.5365,-143.6166,-55.1932,-49.2797,60.2697,-51.5278,52.7231,-54.1864,73.6450,-67.4531,-1.6838,-44.8718,8.8930,10.3411,29.1326,-120.5053,42.0636,-72.9688
-2640.6250,126.4620,-20.8055,82.4654,-55.9827,-44.0884,-38.1387,71.5617,-3.7879,63.6329,-6.5888,39.0890,17.5989,-64.0743,-69.8488,13.5538,-87.9397,46.5429,-68.1856,-12.3972,49.0080
-2632.8125,132.9944,55.7332,90.8286,-13.9015,-71.5436,-102.5592,-30.6990,-105.6018,34.9953,-71.5235,37.6786,100.1076,-56.0192,-61.3685,-28.0176,-152.7780,193.4157,-26.4170,-6.4160,-15.5526
-2625.0000,218.0657,141.7704,144.7059,-33.3330,55.5053,-85.4923,132.5445,-88.9283,49.8711,-91.9407,90.1933,7.1062,-39.4619,-81.4057,29.3069,-137.1290,-2.2046,-82.1626,-62.9446,-35.6212
-2617.1875,59.4490,88.1125,10.8843,-51.4668,-4.1430,-35.1204,35.0950,-38.9417,-10.9444,-78.0289,10.3089,20.3968,-26.6194,5.8417,-5.2137,-14.1823,14.4664,41.3956,-11.1830,51.6240
-2609.3750,183.0430,0.6584,70.2519,-103.4080,55.4070,-85.5473,-16.1744,-126.7613,47.4375,-129.8989,82.7329,-67.1131,69.4273,29.2889,7.1102,8.9580,-1.6575,-151.8472,-28.2242,-35.9327
-2601.5625,104.1656,26.7153,92.1162,-75.8532,3.4708,-136.4733,78.0674,-67.0716,31.3285,-34.2342,56.2553,27.8762,53.9744,13.2159,23.3938,66.5880,-115.3174,-194.6135,-72.7868,96.0122
-2593.7500,64.2071,57.6806,49.8506,-80.4015,-73.5665,-251.5014,-1.7902,-183.4793,25.1259,-75.6406,34.5457,96.7693,122.4266,8.0271,8.5733,61.1201,19.9098,-199.4833,-42.4653,90.8751
-2585.9375,134.8875,23.2449,162.1732,-149.3660,38.0019,-248.9444,110.9602,-144.3010,63.5412,35.5706,93.8056,-11.7462,87.4911,-98.5828,47.0098,-10.7501,-83.2781,-198.7662,-8.5537,56.3357
-2578.1250,9.6703,-31.0915,-8.4238,-133.2427,-22.3239,-90.2869,84.8270,-22.0092,74.0709,83.9197,-10.2235,0.8333,-10.3554,-87.0946,36.8459,38.4774,-68.3881,27.0572,41.4453,141.9134
-2570.3125,128.7943,-125.0818,-27.6933,-155.7775,-4.3042,-35.2850,30.0307,-41.3716,91.9554,66.6439,29.2855,-91.2369,7.1500,-141.2491,28.0141,20.0504,14.8601,5.2452,88.7940,13.8442
-2562.5000,83.9364,-99.0750,-4.9566,-94.3157,-18.2718,60.7128,88.2468,54.2675,76.8506,88.3998,5.4350,-104.3169,-80.3447,-119.4180,26.5840,41.6089,-64.9008,-4.5805,8.1294,109.7719
-2554.6875,-10.0179,-17.1668,-140.3323,-10.9527,-153.3459,35.6069,-83.6317,-7.1876,13.6574,-45.9110,-71.9126,-19.4946,-68.9468,2.3064,-42.4475,90.0651,87.2375,77.4923,54.3564,121.6122
-2546.8750,141.7031,98.3889,-89.0580,34.0538,-101.7677,-22.8634,-33.8611,-67.0089,65.1272,-105.5522,-16.2563,-5.0230,-55.8937,16.6791,-24.4029,31.1546,-7.9675,18.1985,29.2293,26.0930
-2539.0625,-7.9616,90.5457,-174.1880,96.6613,-75.5838,2.2591,27.5277,-5.2237,15.2102,-43.5577,-87.7371,57.0437,-103.2436,4.6457,-9.9087,55.8306,19.4121,185.4920,19.6876,88.1829
-2531.2500,-8.0742,19.2531,-132.7881,60.8120,3.1398,-28.0720,-77.5461,-72.8896,-16.1514,-111.9806,-34.2893,-10.3410,11.9572,-25.8365,-15.6717,25.0507,89.3445,150.3410,88.6925,-53.1722
-2523.4375,-36.6085,-9.4850,-17.8378,102.4983,117.4157,13.1443,72.9423,4.9983,24.0517,-70.8189,-2.0714,-43.1840,-21.2900,-95.7743,47.7694,-45.1876,-80.1962,50.7237,24.2334,-11.9869
-2515.6250,-128.1924,-31.2702,-42.9548,82.1337,19.6339,-48.6864,11.3870,-20.1502,35.2098,-94.6622,-47.7206,42.9243,-9.5954,-82.7620,32.9177,3.5251,40.1959,30.0571,37.7096,37.1597
-2507.8125,78.0274,33.7475,138.7234,76.5569,53.6451,-160.7285,44.6315,-133.5074,68.1782,-97.6740,64.9137,3.8310,24.9076,-158.9566,37.7862,-35.9718,34.3858,-151.8160,-39.0212,-38.9010
-2500.0000,-2.8926,199.6138,85.2498,172.8248,-71.4942,-102.9255,64.7485,-75.0085,51.0138,-39.7888,-10.0092,60.5809,-64.7435,-101.3131,12.3634,-15.6330,-10.5996,-125.8534,-84.9126,91.8953
-2492.1875,75.3392,172.6243,95.9004,110.2367,-134.4962,-165.9741,-35.9934,-175.3580,61.0087,-138.7183,24.0598,34.4892,17.7505,-18.5207,-9.3275,30.8524,102.5654,-153.7446,-78.6499,28.8518
-2484.3750,130.1322,156.1776,151.0981,24.1802,-42.9384,-183.4823,129.8291,-119.1599,115.5746,-47.0616,63.2906,16.9400,36.8012,-72.1795,56.9438,12.8804,-87.7391,-239.1130,-129.8410,48.3527
-2476.5625,-32.3824,134.4235,49.9765,37.8088,-105.6716,-173.2934,65.3694,-110.2495,50.8570,-72.6614,-5.0530,100.0939,82.5458,10.8672,41.5380,58.6079,-40.3671,-155.7902,-187.3390,131.5701
-2468.7500,152.0683,141.6096,135.7881,10.3589,-20.4505,-235.1625,40.8533,-245.3973,99.0974,-97.2758,86.3329,76.1922,168.2487,-14.1277,51.0442,34.2762,-68.0483,-324.5283,-285.8806,33.7333
-2460.9375,132.7909,123.0421,72.8476,62.1329,-7.9646,-186.7866,87.6072,-124.2845,72.5950,-11.5933,42.4692,123.5298,68.1976,34.1157,38.4465,45.1882,-121.5099,-273.0246,-341.1699,155.1452
-2453.1250,133.3670,88.3141,-33.2642,27.7420,-114.6369,-109.5537,-55.7916,-120.3109,38.9423,-45.0171,-0.3684,90.7148,34.9884,111.2091,-26.7541,47.9522,53.8745,-166.6598,-235.6019,85.4134
-2445.3125,130.7119,85.3223,38.3741,-9.9168,-115.5577,35.4267,89.5669,-12.5857,110.0610,64.3520,8.4375,-21.3627,-40.4687,36.0469,26.0768,9.4548,-54.0014,-98.5550,-239.2897,47.4165
-2437.5000,-70.6525,-12.3816,-103.7018,33.7196,-221.1838,150.7135,19.2496,139.4578,77.5024,143.0810,-99.0925,-16.1478,-108.6386,40.1761,1.5025,50.2508,24.4032,83.8492,-161.6850,125.7286
-2429.6875,14.7290,-102.3419,-119.0467,-20.9080,-162.0700,98.7444,4.6829,51.2498,98.7122,91.6045,-53.4230,-31.1875,-14.0563,-10.9460,23.7073,35.7936,40.5551,65.0054,-146.3350,0.7832
-2421.8750,-92.1777,-102.6037,-160.6895,13.1517,-57.2455,131.4709,109.8417,155.7495,93.6424,160.8783,-92.4721,-36.5421,-55.7705,-16.3914,62.9048,30.0232,-101.6202,133.8462,-149.2989,69.5313
-2414.0625,-203.0476,-109.8153,-275.3023,7.2578,-25.3786,90.2482,31.0542,78.3046,87.6325,84.2464,-142.7953,-40.8489,12.5624,16.2025,66.8316,99.2984,-2.7488,233.7386,-86.2171,28.3396
-2406.2500,-143.3051,-155.4269,-138.3148,-38.0435,150.0971,80.6077,168.8677,68.4463,152.2375,112.2445,-63.1903,-159.5531,40.5087,-66.6094,142.8769,53.1547,-118.2768,153.2136,-97.5469,-17.2646
-2398.4375,-333.2577,-169.7380,-195.0350,-17.0444,130.8775,135.2605,221.9937,158.8938,131.1533,166.5878,-153.9736,-104.9550,-53.2471,-49.1196,150.5134,32.2993,-61.5261,278.9756,-76.5950,73.4413
-2390.6250,-86.5630,-170.3984,-116.1159,-51.3942,137.2937,67.5536,117.7554,54.9822,100.7267,137.6118,-53.5805,-62.7037,-10.3467,-79.9851,93.3976,-34.9052,42.8797,173.3786,-77.9996,-67.1998
-2382.8125,31.6503,-51.5589,5.3077,66.7414,111.2103,42.3322,165.0296,102.5687,73.8150,112.1775,-4.3457,-14.9538,-110.9404,-142.3641,68.1031,-134.6171,20.7603,115.2568,-136.9147,-19.3425
-2375.0000,0.0627,21.4763,-29.0926,140.0616,4.3146,-65.6932,-16.4847,-41.6362,3.1171,-31.0044,-26.1631,97.9975,-71.3411,-103.5423,-3.7031,-96.1337,234.8186,154.3319,-99.6294,-16.2689
-2367.1875,84.0404,105.0513,172.0439,188.9031,21.9630,-84.1775,-109.4462,-97.2951,-17.0101,-85.5926,69.7586,79.4915,-17.1843,-85.1743,-37.0970,-115.1018,212.4174,25.9408,-192.7917,-108.6534
-2359.3750,22.6146,113.2161,101.7706,268.3233,-84.7871,29.9368,-178.7858,16.6611,-87.5129,29.4784,9.0931,156.5777,-87.4357,28.7858,-104.0121,-38.4719,115.5886,35.1375,-254.3580,5.5692
-2351.5625,78.3223,27.5228,52.6326,112.8780,-133.3989,54.1983,-264.9736,40.7698,-99.8542,54.7418,17.0792,144.8126,-25.5390,126.8946,-140.0803,-13.6909,135.9137,-85.5072,-165.7721,-80.0567
-2343.7500,8.1854,-77.0286,87.6585,7.5709,-60.8479,163.6045,-47.0011,187.0242,-28.0289,202.1988,9.1118,-3.8145,-64.4931,125.1418,-53.2104,21.2268,-75.6177,-121.0115,-96.0446,-44.5495
-2335.9375,-232.3742,-176.9895,-19.7195,-23.1306,-130.6980,240.6107,-154.4243,262.8914,-62.5932,206.3083,-96.9827,-0.8404,-98.8542,201.9829,-85.2498,96.7405,35.4430,25.0884,14.2771,-4.4387
-2328.1250,-117.1974,-169.2156,104.6441,-119.0965,-6.7929,180.3658,-104.0869,203.5163,-12.3947,184.2036,-8.3110,-97.1240,-47.4580,142.5668,-48.1584,36.9990,-60.7593,-1.0630,-12.6434,-100.5838
-2320.3125,-49.8862,-137.3086,59.1394,-86.9363,-14.7423,172.2792,-39.5909,232.3046,-21.0313,214.2977,-8.0257,-106.2676,-93.9103,60.3034,-41.1508,65.4079,-133.8373,100.9401,-52.4076,1.4167
-2312.5000,43.7672,-185.0646,48.9599,-99.4413,-23.3413,52.5484,-159.7352,75.4537,-67.3021,132.7917,51.5453,-41.0626,43.9936,50.3936,-64.5704,18.1644,-6.5903,124.2763,5.1820,-81.2365
-2304.6875,60.9282,-168.3176,141.2681,-11.4647,105.5531,34.3010,-67.3685,57.1029,-50.0559,115.8361,100.1003,-59.3542,62.3932,-5.0189,-15.6029,-0.5843,-94.8635,71.0893,-48.7264,-99.3886
-2296.8750,-162.3024,-109.9739,15.1652,47.0835,90.0423,19.6385,-120.3776,41.3460,-65.1834,28.5244,0.5085,34.9514,83.3897,17.1633,-8.4231,21.2676,-1.5524,164.4840,-26.0309,-40.9385
-2289.0625,-82.0393,-65.1403,102.5559,21.1151,178.0227,-40.5423,-69.8656,-54.9083,-14.7801,-66.2391,73.4332,-24.2451,170.8877,-43.1660,42.1732,-75.3869,-62.7522,68.3651,-52.8306,-136.9892
-2281.2500,-163.9818,28.4838,46.7486,44.9343,196.7915,-21.9325,22.4607,0.6368,-33.5528,26.8418,19.3383,-5.6428,115.1802,-61.7057,58.2314,-95.2432,-144.1549,91.0256,-100.8277,-8.2403
-2273.4375,-195.8229,31.2060,-22.9598,12.8450,127.6482,-91.2283,-47.1027,-68.7145,6.7908,-40.9372,-15.3540,-0.9493,156.5712,-57.1517,56.3503,-54.0126,-1.4678,93.7767,-62.7186,-40.3917
-2265.6250,-29.8725,20.7173,78.1253,2.5420,156.2912,-99.7233,91.1466,-77.2562,34.9564,-10.8709,49.9194,-10.4621,110.7552,-102.8013,80.6337,-99.9847,-81.9917,13.3279,-108.8043,-85.7452
-2257.8125,-79.3901,6.7543,-15.2511,-12.2269,63.4766,-45.6694,34.9642,-23.2402,15.6886,7.7922,-25.3136,80.5667,17.4883,-11.9021,29.0232,-46.4036,9.0209,34.4304,-54.3294,5.4431
-2250.0000,73.4219,-52.8884,110.7130,-141.6632,42.0174,-140.2612,50.1483,-80.8647,67.7931,-11.1467,71.8659,22.9313,106.5763,-32.6598,47.9586,-67.4713,19.3649,-131.1173,26.5047,-89.0251
-2242.1875,17.0327,-74.7346,118.4645,-127.3205,14.3724,-94.0556,132.1460,1.3130,75.7165,109.7505,38.3147,-4.9139,41.4816,49.3765,57.4184,-22.7489,-106.5206,-151.8754,-30.8662,30.3005
-2234.3750,-73.5025,11.2825,60.0515,-76.1469,-80.4141,-115.0125,-73.9908,-57.6627,-19.4969,-21.4692,0.3692,120.0943,93.2527,101.2476,-21.0290,28.8119,48.4126,-136.7917,-16.3935,45.4718
-2226.5625,70.8569,84.1971,139.5273,-74.0895,36.6954,-146.0788,6.7832,-87.7315,-12.7942,-12.7458,87.5299,53.0016,135.9272,-2.9937,11.8446,-75.7320,-89.7719,-203.8133,-48.0205,-21.4624
-2218.7500,-67.7569,86.1416,-47.9613,-35.9977,-40.1482,-75.0999,39.6228,19.2537,-17.0168,96.0703,-29.8225,86.9504,58.6559,29.8153,11.7148,-42.2297,-122.9194,-60.7928,-12.5809,85.6523
-2210.9375,-42.0947,-29.6341,-91.1611,-82.6327,-82.6955,-7.8259,-39.2107,-22.4533,14.0924,56.2317,-29.0554,44.1832,89.6808,60.9248,0.5540,-11.4313,-63.7838,-36.4839,82.1828,-29.9345
-2203.1250,-60.5442,-83.5256,-76.4702,-65.3937,-30.3530,81.3485,122.8724,102.7564,66.1272,146.3385,-44.5716,-13.6990,-5.4007,39.9286,53.7705,3.2726,-186.7601,15.7143,28.8647,22.3744
-2195.3125,-213.4437,-130.8741,-238.2331,-113.6252,-45.4730,103.0751,71.5046,88.5268,51.7239,134.0375,-129.7243,-29.0328,16.0628,61.4906,55.7525,61.5297,-94.1974,177.4533,120.1021,44.2265
-2187.5000,-215.4476,-204.3338,-199.0959,-150.9705,68.2978,105.6998,148.0396,91.1962,164.2361,175.6659,-106.1180,-99.4610,55.4252,26.9612,127.8348,26.6864,-201.7377,141.0754,118.2378,-63.0284
-2179.6875,-448.8075,-262.1494,-302.3028,-138.6781,38.7188,185.9552,228.2447,208.5126,171.4194,257.9703,-220.3236,-92.2394,-11.5579,71.0809,158.9405,107.4946,-225.6367,223.3397,129.0127,54.3611
-2171.8750,-392.4703,-347.2634,-277.8228,-223.6900,63.8322,137.8990,143.1660,123.5259,196.3199,175.0068,-184.1109,-141.3179,50.1597,58.8965,150.7895,169.0044,-100.8442,173.2964,184.4844,-30.5549
-2164.0625,-207.2337,-302.4848,-120.4496,-213.8080,149.8403,112.7373,227.9978,135.4342,135.1316,225.9649,-76.7236,-166.4905,24.7805,-2.3897,144.0848,69.4028,-126.1538,113.1401,123.8628,-55.5746
-2156.2500,-232.5540,-189.2581,-149.6274,-65.4839,84.2834,121.0218,52.2877,106.7930,32.4100,162.3946,-99.3919,-47.2175,-3.1439,5.7627,59.1183,4.2488,92.9783,156.4260,96.7029,-47.1503
-2148.4375,-93.2265,-119.3820,40.8373,40.4758,127.3657,53.9574,-14.7636,39.8150,2.3442,97.5033,6.4947,-41.2972,2.5762,-62.4371,22.4703,-137.2559,127.7423,50.3631,95.2062,-188.0810
-2140.6250,-183.4198,-34.0213,51.7949,125.9177,65.9457,102.3983,33.6902,88.3503,-60.2157,148.1436,-42.3560,44.1279,-96.2089,-50.1153,-4.6392,-126.2688,72.9919,100.8050,75.2154,-102.5206
-2132.8125,-77.4829,-33.5282,54.9089,90.4930,32.6785,31.9961,-73.7032,18.0429,-56.6107,79.9652,-9.4141,47.6938,-56.8478,-47.6394,-43.1432,-87.1267,142.3784,65.3883,109.3860,-172.8177
-2125.0000,23.7794,-39.7039,157.3779,14.3969,135.7585,24.9414,67.2700,48.0946,47.3731,149.1650,44.5420,-33.4085,-64.1379,-54.8178,17.7710,-93.6270,-38.8915,-115.6920,33.9204,-142.7662
-2117.1875,-114.8707,-36.7894,5.9500,-18.6224,-15.0546,20.9742,-10.6385,44.2455,6.4792,110.4773,-49.3935,36.5765,-31.3238,88.1056,-13.8608,48.9743,-1.0699,-78.6881,35.5669,0.3816
-2109.3750,-38.9634,-32.3185,50.0614,-84.1135,-43.3213,-44.4536,-38.9778,-58.0531,14.1553,47.3635,-4.1007,7.1077,50.0459,96.5788,-16.3553,56.1252,3.2764,-179.1486,39.7694,-64.9229
-2101.5625,-37.7065,-31.5067,46.5082,-47.2809,-47.2386,-11.5392,68.0517,11.9982,11.2045,156.6175,-17.8227,-33.0113,-27.2291,56.4092,-1.2708,89.6252,-100.0454,-142.2739,41.3352,42.1195
-2093.7500,25.5336,-109.7122,-34.0491,-124.4684,-53.1612,-54.6300,-11.9091,-30.9480,-31.7286,115.8783,2.9860,-76.1361,40.4960,50.2495,-18.9149,82.1269,-3.3720,25.6031,102.9096,-0.8424
-2085.9375,-10.2465,-145.9311,4.3938,-161.6536,96.9071,21.2786,64.1365,45.1123,7.3449,194.1638,23.9557,-147.2621,42.2220,-20.9144,30.0942,10.6314,-180.7065,59.4832,137.4932,-71.8120
-2078.1250,-226.3342,-81.4620,-189.4646,-132.1459,86.6758,120.8921,53.8860,144.8770,-39.8774,259.1658,-105.7689,-47.6994,-5.3416,4.6195,19.1591,36.8325,-186.3476,159.0713,201.7838,27.9083
-2070.3125,-88.6513,-84.2077,-225.5241,-204.8522,125.2452,86.3112,18.4474,73.4503,-1.2875,189.9677,-69.9363,-45.3396,32.9061,-30.0362,18.8548,-35.1690,-120.1981,121.4645,268.8855,-80.5809
-2062.5000,-157.1996,-118.1628,-189.7900,-168.7740,160.6170,121.5306,127.8189,182.8306,-1.8798,227.5772,-90.0029,-47.1764,-42.0443,5.1290,46.5091,-37.3709,-152.2596,122.6467,234.8080,-8.2817
-2054.6875,-254.3031,-145.6690,-182.6079,-125.2607,94.4338,129.1923,-48.3422,79.6637,-30.9968,127.6420,-120.9355,-2.5637,-34.5509,49.7499,-7.3511,43.8807,65.1218,166.2601,242.1941,-0.5401
-2046.8750,-78.7978,-110.5696,2.1751,-92.1520,134.8366,95.4381,-8.8907,46.0911,-28.5052,95.3095,-14.0895,-36.3484,-31.4642,14.9762,-9.3240,8.7276,-5.8929,24.4585,136.1897,-71.2033
-2039.0625,-205.0371,-62.2142,-62.7786,-7.7973,33.4685,104.9301,-36.1838,128.7710,-55.7662,181.2243,-84.5334,9.1160,-60.1338,24.4550,-29.3842,91.8205,-27.6499,38.8923,79.4381,48.3793
-2031.2500,-170.5228,-62.1117,-96.9708,-43.7022,-0.1649,70.1704,-143.7272,58.2053,-52.2744,185.8900,-73.1498,12.3276,16.9422,-9.3152,-51.7882,56.6616,42.3416,-31.9215,114.4490,-22.2905
-2023.4375,-58.4670,49.5255,-18.6100,-2.0675,4.7512,111.9620,-27.7104,100.1889,-84.2192,230.0994,-29.1469,17.0812,-52.4253,-78.5311,-52.8888,-11.9461,-126.1262,-61.1877,50.0253,19.5863
-2015.6250,-32.4468,75.1390,-67.2474,-11.4558,-115.3191,64.7532,-111.6732,90.1702,-95.1445,148.2989,-51.1452,79.8333,-63.7758,-15.7360,-94.6145,13.4500,3.3916,-35.4540,75.6193,45.4584
-2007.8125,156.9483,88.1390,97.5158,-69.4529,-61.9771,-28.0609,-94.2289,-2.4482,-76.6597,94.8888,50.2468,22.9863,-45.7186,2.4693,-100.6894,-5.7472,16.2979,-163.3248,17.6186,-47.2718
-2000.0000,71.2953,142.0949,112.2315,55.4884,-119.6870,-13.9371,-78.8342,11.8803,-98.2180,148.4179,9.1175,38.0953,-103.7060,53.6362,-113.0759,45.0095,35.1441,-213.2533,-33.4329,77.9429
-1992.1875,156.5532,120.9629,165.8521,70.3170,-212.5002,-105.9192,-244.5372,-152.8918,-80.8674,-15.1718,58.6543,56.1048,-13.7935,71.7138,-147.5864,62.6649,260.8824,-304.2906,-18.5721,22.0510
-1984.3750,345.4845,169.5349,325.1657,117.8362,-199.6133,-203.2038,-85.5310,-139.9617,6.1914,-0.0831,153.4999,-5.1780,-38.1777,-26.4864,-92.8682,1.0185,132.3163,-432.6263,-76.9958,34.8518
-1976.5625,195.3403,231.0473,202.4352,73.2898,-284.7756,-214.5322,-59.5648,-152.0745,-5.7871,-9.0560,48.2672,130.4787,-85.6037,-1.7367,-101.0116,25.3213,123.6930,-301.0127,-15.4531,96.5962
-1968.7500,272.8927,166.2392,178.4028,-25.5758,-162.2410,-239.1581,26.1110,-176.4765,43.9464,4.6573,95.4713,31.8207,-0.3254,-62.2789,-37.5384,-35.6688,-11.2408,-259.7035,25.8134,-37.9659
-1960.9375,132.5914,96.5567,26.5110,-59.3144,-19.5677,-132.6280,132.9536,-69.7181,77.8533,150.5079,29.9747,-8.6903,-4.8926,-138.6474,36.3424,-40.5017,-151.0427,-82.2492,27.2498,68.6115
-1953.1250,10.2712,8.8675,-63.3836,-148.0657,39.1008,-148.0966,44.8231,-85.9544,61.7820,100.3347,-7.4310,-24.2097,53.5469,-153.9968,39.1488,-19.3285,-28.8564,75.2029,114.7009,16.1812
-1945.3125,-7.7093,-9.4770,-5.9221,-165.4711,170.1153,-55.2172,176.0472,9.1575,46.0717,159.4780,20.4232,-114.3821,36.3404,-134.9874,83.6569,-72.8057,-186.3149,127.9967,97.5144,-36.9020
-1937.5000,-127.1350,-23.2765,-169.9036,-75.3301,79.6646,38.2069,48.8221,65.8177,-7.0774,218.1437,-95.1946,-58.0074,-54.3193,-4.4143,7.6884,57.2673,-96.2181,184.3321,117.8941,19.5586
-1929.6875,79.7221,-28.7774,-97.5780,-115.9042,79.5100,-35.0668,11.9129,-44.2125,-6.9122,74.0909,-0.0820,-94.3353,19.3171,-4.5314,-4.2042,56.6480,4.1694,37.9626,148.5935,-90.6910
-1921.8750,95.9119,23.0630,-47.8993,-29.1471,56.7052,-21.9888,99.3650,6.1161,7.6246,52.3587,-4.9845,-44.3205,-77.6885,-27.2889,5.2421,-3.6100,-14.1099,-15.0582,94.6735,-3.5974
-1914.0625,-4.3557,27.4430,-78.6769,46.1396,-47.5440,-15.3532,-77.6197,-97.9948,-59.2692,-48.8493,-50.6468,35.2354,-71.1382,89.5154,-65.0364,2.6799,166.1461,59.4606,100.3247,-33.9583
-1906.2500,72.7629,-1.7711,77.9443,87.8146,-37.3941,30.6831,-31.1984,-50.7020,-49.7584,36.2999,30.3867,-28.8049,-61.1767,25.7369,-49.7853,-61.6350,30.7997,-4.6186,36.3835,-97.9228
-1898.4375,-36.5348,29.6179,-41.8267,153.0935,-119.6479,59.3097,-39.1702,51.1874,-94.6464,140.0045,-49.7774,36.7597,-107.6068,17.5727,-72.1889,-34.3422,27.0518,26.9050,67.0430,3.7063
-1890.6250,54.3535,85.2049,19.6085,67.5747,-131.7034,-25.8672,-13.9412,-33.7207,-32.3234,93.8761,-0.2731,-12.4725,-44.8263,-104.3864,-42.4773,-45.8394,117.5010,-93.3739,122.9013,-81.4726
-1882.8125,94.3400,160.8875,22.1513,73.1525,-128.6632,13.0531,99.4011,42.4705,8.1149,207.8130,-11.0105,-9.6120,-116.9379,-138.2391,-21.0945,-44.2331,-17.9513,-123.5692,57.8670,-5.5585
-1875.0000,39.4815,175.7220,-74.1453,122.8647,-223.4709,-8.8880,-69.0945,-16.1902,-50.2827,151.8540,-62.3453,78.3862,-101.8966,-12.9286,-87.7810,-29.4705,136.7441,-38.6242,37.9963,9.5016
-1867.1875,208.8742,133.8048,69.8147,116.8115,-154.0343,-48.5754,-34.3328,-55.5956,-16.4206,77.0965,55.2242,38.6294,-30.6027,-15.3435,-57.2682,-106.4518,24.6871,-115.4355,-38.6039,-67.1924
-1859.3750,28.7125,163.3340,21.2177,146.1909,-237.1480,-23.8078,-46.1082,-30.5484,-27.0934,103.7359,-23.2416,137.3116,-42.8506,9.7101,-57.7429,-44.9674,19.0721,-49.7942,-112.7322,68.5611
-1851.5625,85.2948,185.5935,47.3620,97.3014,-247.5136,-143.2866,-129.1227,-149.7464,1.0004,22.0759,5.1985,127.7390,21.6582,-36.4577,-70.4284,-17.7188,76.1937,-63.3943,-127.0863,-14.9392
-1843.7500,122.8029,222.7795,48.4553,64.3431,-99.9272,-141.8042,56.8194,-111.9822,39.0571,98.3143,27.8354,18.1078,22.1235,-108.6544,5.8925,-17.5097,-97.7440,-61.0357,-158.4663,22.5067
-1835.9375,-2.2127,167.4498,-84.9445,8.8657,-84.8391,-127.8110,-39.7282,-96.7140,-20.3741,78.0024,-34.6137,68.9754,36.0950,-93.3303,-21.5657,-3.7981,-12.1875,95.8240,-73.3338,73.4485
-1828.1250,39.2731,68.6296,37.1652,-126.1168,73.7459,-116.3154,10.2290,-121.9429,-7.3018,55.1214,44.2316,-65.6517,85.5754,-118.4863,14.8132,-27.5927,-76.1264,102.1843,3.3030,-61.1145
-1820.3125,-120.3389,-21.2736,-23.8144,-109.1888,123.2245,7.0757,97.0840,38.7202,43.6703,143.0700,-21.3650,-126.3610,24.9581,-68.7253,66.0724,-15.4808,-166.1599,152.4421,54.8410,25.2147
-1812.5000,-102.7664,-38.9623,-39.5785,-198.0494,107.9051,-8.3334,45.1411,-50.4167,101.8426,92.1580,-27.6812,-142.8635,45.5473,-83.7548,66.3256,-31.1658,-7.9868,64.8870,143.5841,-27.2633
-1804.6875,-19.4467,-26.9035,45.4283,-221.1577,157.3350,4.0050,168.9551,-0.8063,151.7739,105.9270,5.4527,-93.6190,-15.1092,-71.0271,93.7904,-93.1001,-102.0591,-63.9222,156.0908,-14.9970
-1796.8750,-157.8547,-60.5911,-66.3036,-184.0226,46.0202,76.5889,21.0198,35.0495,77.9620,105.8768,-97.3961,52.8779,-89.5097,75.9596,7.1595,16.2260,5.1178,8.5088,157.8445,57.5157
-1789.0625,-90.8465,-134.8588,8.3775,-153.4890,84.1081,4.5585,-13.5094,-36.7020,116.5582,72.1493,-53.3070,16.7714,-51.4989,114.3573,9.0451,53.9565,71.6919,-135.6684,154.9963,-51.5735
-1781.2500,-167.5955,-105.8769,-2.6803,-88.7122,73.4429,29.7734,122.2226,25.7912,105.4100,172.5943,-92.8620,42.9170,-99.2248,104.0293,38.4027,115.9435,-40.4810,-176.5980,113.4095,47.5874
-1773.4375,-124.0674,-97.5998,-66.4321,-81.6432,10.0809,-70.7138,23.2643,-74.4147,79.5699,73.2626,-95.4555,89.3635,-52.6392,114.0279,7.0842,89.2435,108.6445,-132.2240,122.1325,21.0511
-1765.6250,-6.9490,-86.7255,93.4277,-35.9802,60.3159,-94.5938,109.9055,-98.0222,93.3392,87.4613,-0.0195,-7.5913,-39.4480,17.6435,41.1068,29.1582,14.3737,-156.2523,28.4668,-2.8844
-1757.8125,-208.8685,-76.8937,23.2523,7.6297,-45.5148,-52.5255,40.4947,-19.6826,98.0631,165.5340,-86.3013,-4.5984,-71.3060,-14.7677,32.0422,32.0331,93.0668,-42.3414,72.7647,111.1301
-1750.0000,-99.8597,-144.1528,105.9934,-58.8616,-74.4595,-81.5612,50.9757,-84.4485,144.6849,139.4185,-18.6224,-105.6988,-26.2694,-79.2620,52.5248,4.8197,167.6757,-74.5398,147.9808,10.0464
-1742.1875,-132.6927,-142.2549,67.8912,-56.2065,-38.2668,-9.4457,159.5995,24.9351,180.4600,175.3686,-47.6704,-105.6447,-100.0787,-78.5804,89.0155,-34.2343,27.4411,32.4149,149.3664,82.1123
-1734.3750,-164.4808,-69.3166,-75.1526,-19.4992,-106.0270,32.7225,-18.7206,-6.6301,112.2934,144.2920,-100.8689,-28.5461,-95.8323,-109.8373,15.6183,-29.2311,136.2643,141.4282,188.8227,50.2259
-1726.5625,-7.4624,-17.5768,19.6118,-2.9973,25.0173,-56.3069,76.7687,-21.3986,97.9348,202.9213,-11.1217,-80.6489,-74.7727,-235.2829,39.2785,-81.4323,11.8923,123.2465,135.0918,-38.8628
-1718.7500,-72.0899,-11.4806,-51.2640,72.8469,-9.5826,-16.9826,116.6105,55.1766,64.9311,279.8097,-64.3224,-78.4018,-144.3530,-232.3662,32.0108,-42.2794,-18.1273,199.4208,140.7209,37.3971
-1710.9375,10.1109,-105.5391,-69.2844,13.5333,8.6726,-34.7973,62.2999,-0.3934,83.7812,188.4706,-23.0296,-133.3013,-53.0817,-177.5646,39.4299,-60.2648,64.6978,140.4549,188.2129,-91.4946
-1703.1250,-92.8586,-103.7551,-32.4525,15.0628,45.7875,38.2459,173.8486,110.8956,121.4933,299.8952,-40.0492,-170.3466,-52.9542,-102.8893,90.2202,-97.3842,-145.6311,71.3345,120.5720,-54.5372
-1695.3125,-288.0703,-194.2082,-200.8627,-39.6627,-48.3403,91.0292,79.1582,163.9297,100.9648,315.9760,-145.4553,-117.6361,-0.0688,60.5491,71.4092,28.2641,-95.2051,86.9501,171.6851,-38.8288
-1687.5000,-186.3094,-267.6867,-127.3071,-149.4355,-11.5182,128.7530,153.4130,127.9012,175.3842,315.9157,-89.6319,-190.9775,36.7784,24.9469,111.3035,102.8764,-203.8200,-21.4904,168.7444,-112.1691
-1679.6875,-288.2299,-194.8566,-241.4330,-146.9067,-52.3975,197.7699,186.9653,234.1700,135.1077,349.0580,-172.1560,-157.0257,-41.0563,58.6482,100.6274,97.7976,-201.1306,51.3615,136.1131,30.7946
-1671.8750,-199.2435,-141.1216,-181.6411,-93.4873,-101.3748,148.6793,-8.5778,111.3356,49.7383,189.0087,-115.9483,-60.1810,20.0190,46.2602,24.7144,48.6198,28.4593,35.1132,86.3945,-55.3339
-1664.0625,28.6953,16.5706,19.1098,63.8752,-47.4130,91.5452,44.8279,91.4541,-5.6715,169.8195,7.9093,-43.3873,-35.9474,-83.1691,2.1044,-44.6008,-25.0089,-18.1834,-37.3557,-38.5099
-1656.2500,36.5454,94.1674,-48.2209,212.1319,-114.5526,24.3114,-58.8699,-12.5386,-73.1741,101.4292,-24.7095,72.3108,-67.0035,-76.6809,-56.4337,-38.9165,122.4308,94.4152,-100.1981,4.2029
-1648.4375,182.3961,133.7729,73.4620,216.3943,6.3055,-148.9114,-10.5569,-148.5204,-61.6706,38.9515,61.0413,84.0089,-19.0659,-101.1764,-38.8973,-138.2203,161.8638,-41.9837,-130.0328,-132.0767
-1640.6250,93.6500,220.7819,86.5460,338.0573,20.5527,-171.7323,40.1502,-135.1082,-120.7661,14.7727,24.8224,171.1134,-78.7238,-50.2536,-44.7777,-162.1095,178.7223,-24.9776,-217.4505,-44.9573
-1632.8125,144.4294,202.2945,216.1544,353.2171,-33.6956,-226.0551,-123.6263,-261.2020,-174.3495,-112.0041,100.6401,189.7092,14.1264,-66.8245,-94.8516,-142.4958,335.0836,-114.4818,-202.3593,-99.3465
-1625.0000,257.0027,208.6164,406.5686,254.1829,45.8459,-219.5715,-79.6009,-218.4937,-204.1317,-70.0752,213.2457,49.1124,57.7776,-59.5812,-91.3761,-136.0744,165.2535,-248.1724,-230.4581,-92.9241
-1617.1875,162.3470,183.6985,266.7483,122.8948,-19.8591,-138.3372,-180.8340,-137.0470,-231.1573,-99.5086,143.9841,56.2635,65.1895,59.4200,-130.1788,-17.9011,105.1865,-133.1134,-182.7962,-11.7610
-1609.3750,280.8875,90.9840,250.1393,-75.1891,36.6428,-155.8987,-161.8490,-191.3928,-137.9767,-117.8320,200.8153,39.6163,195.8077,79.6282,-78.5824,-72.5183,13.3075,-154.8544,-169.9236,-139.3919
-1601.5625,197.4006,113.2641,121.5247,16.7258,55.1419,-100.4505,5.1324,-98.7375,-118.7921,-62.2555,130.6877,94.9766,141.4382,61.8605,-15.6794,-127.1164,-70.5590,-62.5860,-217.0351,-47.0184
-1593.7500,123.1848,73.7965,8.1819,117.8858,-20.1038,-102.7539,-144.6320,-174.8385,-157.3495,-139.5332,67.4285,165.5869,139.3344,97.3583,-65.5292,-55.4492,135.8219,37.9117,-221.8925,-86.4017
-1585.9375,231.5331,75.8961,122.3943,154.6025,57.1929,-98.5059,-65.8513,-133.3893,-115.3581,-136.3586,136.5514,22.7579,106.7839,28.4161,-35.4213,-52.2139,32.7545,4.9614,-254.2032,-119.2158
-1578.1250,56.3531,76.4596,45.0709,155.7652,-20.0626,8.1790,-106.6324,-26.5082,-154.9167,-104.8464,39.2641,92.3829,29.7029,172.9307,-73.7876,18.4789,-1.8422,76.4598,-252.0563,-12.5824
-1570.3125,119.9394,69.7851,80.5210,77.6832,14.4463,-31.3898,-144.6506,-101.8783,-156.7203,-291.6836,85.3833,90.7520,101.3734,208.1987,-75.7600,15.9228,61.3112,-36.2915,-153.1574,-125.1924
-1562.5000,140.3776,89.9765,133.8210,26.4678,67.7963,22.8954,-53.8335,-11.4078,-102.6805,-276.7780,97.5929,69.9807,43.8991,152.3274,-48.1902,69.2295,-95.6590,-122.1776,-133.4033,-34.9418
-1554.6875,93.2486,7.5814,10.5461,-20.3445,-18.4491,9.5786,-139.6217,-24.5483,-115.2380,-364.5815,63.7454,56.6055,104.8355,213.8524,-57.2127,92.9432,-1.2202,-27.6733,-38.2466,-11.2978
-1546.8750,149.8682,-77.0476,108.0328,-106.3971,116.0466,33.0195,-41.6520,-36.9329,-53.0409,-415.7266,156.3018,-66.0140,202.5191,128.1327,29.9708,-29.5843,-122.0271,-42.4148,-17.3388,-60.8890
-1539.0625,-75.0031,-56.1685,-22.9693,-49.9483,96.0332,86.9598,-25.1979,53.1764,-72.3438,-364.4750,52.8088,-13.1278,182.7073,108.9211,51.9478,-13.5995,-99.3082,84.3506,-30.9237,66.0187
-1531.2500,174.6472,52.2199,-51.4479,-46.9968,30.5193,-15.5994,-90.2359,-49.2158,-101.1382,-468.8179,100.1092,31.2571,191.3967,80.2139,-4.7446,30.8983,42.9081,16.6056,-62.0079,-36.5695
-1523.4375,350.6921,193.0235,56.4755,57.3634,-45.6010,-17.7566,-17.8837,-14.2119,-102.5380,-435.8613,147.2655,66.0540,78.4892,42.9197,-31.8280,-44.1854,-27.4612,-54.7255,-166.6895,-1.7404
-1515.6250,224.2565,242.3343,69.9204,141.2243,-179.2123,-42.4195,-151.0375,-74.7272,-124.4356,-498.5159,85.9420,152.3556,18.1000,93.1298,-91.8822,-31.7661,161.6796,-5.5583,-152.8697,47.5830
-1507.8125,320.6750,232.5012,284.2230,95.9461,-112.9630,-85.2247,-121.3384,-154.3909,-57.4871,-580.4177,188.2351,109.5132,48.5688,14.1989,-59.9725,-74.4882,152.6683,-85.5293,-162.2036,-32.2280
-1500.0000,209.5983,227.1752,274.0305,160.1757,-49.2060,-22.5288,-93.1583,-18.5671,-140.0452,-593.9304,173.1957,62.1785,1.5506,-68.2264,-55.6421,-48.7006,111.1817,85.0121,-132.0260,67.4623
-1492.1875,159.5919,141.9103,224.9131,74.4563,85.6169,40.2225,-177.9237,-29.6938,-151.5478,-938.4871,205.8977,13.8904,137.5879,-43.6080,-19.9626,-22.8527,166.7406,175.5938,-40.7944,-17.7991
-1484.3750,137.4901,84.5521,202.6990,51.6370,247.3379,127.8808,-16.7986,95.0883,-100.1512,-1147.2314,206.1055,-8.4916,115.5209,81.9127,59.6564,-45.0892,-31.7912,188.0834,-62.6529,-40.1448
-1476.5625,-5.7435,11.0531,15.3573,48.6596,169.9067,234.3804,-57.8294,127.7055,-66.8979,-1301.2281,99.9999,59.9747,111.3183,299.2770,65.9894,24.5282,0.5501,255.4149,5.3506,-7.6444
-1468.7500,101.6752,-22.7806,95.6854,-20.6548,213.1209,203.5344,-14.2036,97.9747,14.0092,-1407.6592,160.1368,30.0910,154.7623,270.2855,101.5262,67.8046,-33.4591,81.4020,43.0031,-111.4769
-1460.9375,79.9532,26.2468,65.8673,-8.1105,146.1728,210.5347,67.2552,178.0801,21.7697,-1367.3401,121.4673,74.0647,89.0638,241.1447,106.5621,147.9511,-90.5935,-11.7488,56.5074,42.5495
-1453.1250,104.7702,50.7858,-18.4344,16.9356,25.7401,126.0283,-53.7753,57.6764,12.0379,-1417.6104,75.4763,173.5352,78.8734,341.4930,41.3888,174.6030,39.7679,-92.4129,116.5137,32.0742
-1445.3125,182.8865,92.6297,62.5528,58.2882,69.6068,96.8305,64.5003,64.5788,56.6058,-1339.6653,112.3967,143.3139,48.9869,313.1409,78.0372,107.5715,-59.5669,-155.7675,18.8296,38.9165
-1437.5000,23.0106,73.4798,-72.4492,108.6411,-28.5361,107.6357,3.7608,112.4738,32.1717,-1294.8170,17.3834,155.0993,24.1101,324.7936,60.3630,193.5509,27.1222,-34.1224,35.1560,160.7555
-1429.6875,99.6426,-26.1565,-25.9261,8.5018,17.8141,81.9543,-23.4757,12.8759,80.2383,-1323.5494,90.4800,55.3867,144.7265,225.9414,98.0138,167.0363,68.3162,-28.9777,76.9810,61.1057
-1421.8750,-34.6185,-90.6804,-23.2985,48.4693,93.2451,157.3775,89.3665,162.3761,82.4004,-1177.2699,64.3202,-16.2134,110.4425,192.1899,150.4046,132.6343,-67.3635,46.2802,46.9109,136.5662
-1414.0625,-155.7412,-71.0896,-109.5406,32.5422,-30.2210,216.9000,-69.6983,184.9654,32.6609,-1157.9818,-8.3381,6.2825,97.2647,252.5292,82.7779,155.3396,58.0626,136.6275,102.9435,86.1243
-1406.2500,-27.8576,21.5169,27.2203,54.6255,-3.6879,207.4299,-6.7662,175.5595,23.9234,-1097.7678,63.2902,-40.2137,87.0776,206.8588,81.7182,109.0601,9.4924,17.9878,19.9725,2.7035
-1398.4375,-26.0102,94.0821,-13.0683,126.6622,-42.2007,167.9065,-8.8942,136.0901,-50.8609,-1029.6903,39.4860,30.2454,47.8515,205.1288,48.0420,106.7391,81.8909,90.3074,-13.0411,110.2317
-1390.6250,124.5965,103.4089,39.4078,65.4552,45.0548,35.1367,-68.2564,-33.6283,0.1104,-1055.9376,115.8722,-28.5452,136.3772,110.1296,54.1500,84.1713,126.0351,29.3743,-2.3022,14.5156
-1382.8125,89.7975,68.3504,35.4823,64.8617,151.9083,67.9655,112.9729,36.2495,70.6786,-915.6617,90.2904,-104.7245,59.5040,69.7249,116.8517,118.2176,-84.2031,-6.9470,-2.9578,84.4123
-1375.0000,-59.3738,22.8959,-121.8207,-16.1290,103.3723,93.3902,27.7981,61.7090,59.8484,-856.8680,-0.2548,-79.3030,85.2439,132.9108,100.3157,179.8707,10.1692,89.3178,57.9882,109.9034
-1367.1875,-20.7451,-42.7562,-41.3123,-47.3113,147.6358,64.6234,110.4201,32.9785,178.8206,-779.3416,28.9566,-109.0721,93.7821,141.8913,155.2173,114.3396,-55.6610,-12.6104,63.7302,44.2132
-1359.3750,-180.9645,-98.2577,-141.6475,2.6522,47.0438,147.0061,119.1722,115.3908,151.9360,-626.7394,-75.5419,-25.6866,-6.5172,188.0177,134.7492,123.9725,-5.3157,106.6198,77.6307,163.6750
-1351.5625,-52.4103,-109.9905,-111.2115,25.3722,-69.7850,104.1414,2.6769,35.5495,72.8019,-637.4521,-39.6569,3.4451,-14.0630,218.8695,49.5473,117.3572,122.7784,95.6007,137.2743,46.8883
-1343.7500,31.1997,-62.6574,-62.7200,72.1646,-57.5734,152.3299,126.2152,121.7551,85.7069,-482.1848,-15.5290,-21.3609,-74.5587,158.7539,64.2107,93.8055,-76.0552,1.6445,79.9581,59.1689
-1335.9375,-93.5071,-46.6569,-157.5587,51.6163,-116.7111,130.1547,29.3896,135.5908,100.2650,-435.3439,-83.4593,-7.5134,-59.3905,173.2650,49.5335,107.9044,9.7812,88.3305,96.2801,110.0964
-1328.1250,27.0992,-31.3329,-28.0802,-39.6129,12.4496,39.2793,86.8708,44.7238,84.1200,-419.2562,9.1192,-98.3571,-3.9265,120.0573,67.6873,17.3055,-10.0823,-2.6886,75.8889,19.3415
-1320.3125,-87.4288,28.8560,-114.7471,-13.9851,-1.5496,98.2492,109.1811,140.6922,32.8174,-254.3891,-61.2826,-74.3347,-53.6134,105.6872,53.0283,76.5696,-90.0633,93.1476,31.3520,115.4460
-1312.5000,-92.8228,24.1638,-153.2894,-55.2534,-77.4502,59.3191,-3.4095,64.7543,31.6191,-297.4853,-69.4674,-78.2110,16.7913,104.3967,27.7489,147.9392,45.0660,87.0708,61.9156,39.6526
-1304.6875,35.1345,45.8409,-22.4769,-69.1560,-56.0139,43.7466,92.3371,86.1681,90.7634,-206.2848,2.4293,-128.7205,1.5338,52.4387,59.6585,59.6646,-74.4325,2.3618,-22.1697,61.2270
-1296.8750,26.0638,1.4749,-71.6945,-7.1015,-179.6292,30.1235,-30.9869,35.5215,4.8500,-225.1927,-21.4813,3.7287,-10.7670,112.4084,-8.6360,45.3373,92.0394,63.6078,-30.3019,157.7454
-1289.0625,156.8486,-8.0354,69.9513,-19.1836,-75.3905,-85.6404,-73.4566,-116.2679,-1.2155,-271.2930,76.4624,-1.9654,56.7787,34.2027,-16.6963,3.8631,152.3585,-52.2885,-40.5860,42.1253
-1281.2500,67.8852,42.7175,82.8452,66.9976,-24.9093,-72.1453,13.2970,-66.8157,-23.0410,-152.1984,29.1479,47.6053,-39.4252,48.2249,-16.6091,53.6496,27.9506,-34.9161,-128.6186,128.7629
-1273.4375,67.2026,76.7403,-25.9937,30.4383,-25.1699,-107.4027,-131.6987,-102.1216,-58.6147,-118.9059,-1.9650,86.4253,-2.3750,86.4667,-72.7014,55.6812,61.8003,-3.2978,-94.4079,56.6467
-1265.6250,53.1768,27.4243,35.8167,-55.4557,109.2209,-85.0034,38.9536,-42.7762,2.4491,9.9965,25.5303,-37.0960,22.3188,37.3403,8.6820,43.3710,-93.6938,-88.0163,-109.5515,7.1974
-1257.8125,-155.8930,-75.9350,-77.4157,-89.3996,105.5635,21.3412,34.5426,26.5091,-0.5339,111.8082,-75.0351,-40.6582,-18.0319,70.1490,13.9322,150.0190,-92.2247,-16.7905,-36.7500,113.6960
-1250.0000,-7.2537,-209.5804,8.0694,-187.6398,117.6070,-39.6158,10.8440,-34.5049,49.1926,46.2965,15.2557,-65.5200,68.3136,83.6295,31.7841,88.3778,-50.0688,-79.8780,-30.2540,15.9070
-1242.1875,7.3372,-159.2622,56.4945,-172.9261,129.5854,8.3755,59.0807,13.4278,60.8629,89.7062,23.0208,-89.4235,5.6127,95.0346,33.3554,63.7009,-174.9425,-64.0025,-48.8099,101.0837
-1234.3750,-62.4433,-160.3324,-54.4649,-209.6069,54.1748,-29.0365,-15.0951,-24.0519,23.1328,120.6809,-26.0567,-90.7280,41.5212,94.0044,11.0311,62.6209,-36.2056,38.4726,19.2263,99.8593
-1226.5625,-26.9741,-194.1366,23.8334,-209.0161,132.0132,-62.1897,99.9670,-57.2781,102.6410,193.8819,20.3934,-159.7673,83.6699,25.1965,83.6961,-6.2043,-105.2072,5.2134,-14.4981,30.9031
-1218.7500,-240.9933,-162.4274,-94.3586,-142.9101,86.3491,-32.8477,127.5037,7.9821,56.6395,253.5448,-88.7696,-132.2974,37.3184,53.8582,81.6866,95.4772,-143.6778,106.4597,17.2792,132.4439
-1210.9375,-38.2419,-169.9492,-61.7742,-222.0333,83.4420,-110.7544,50.7941,-106.0115,91.3801,171.9363,-21.1107,-136.0739,71.7068,13.2370,53.8117,91.9018,-117.3954,97.4490,9.7988,18.7376
-1203.1250,78.7623,-90.1974,21.0601,-176.8847,91.7772,-65.4130,133.3156,-60.7619,100.3557,249.5603,23.5276,-163.5842,6.3319,-14.1591,56.6694,27.5816,-211.8367,37.7010,-50.4381,64.2925
-1195.3125,-3.9508,-32.1792,-29.8391,-119.4785,-68.6323,-115.8297,8.0776,-111.2750,86.5793,267.4098,-39.6012,-31.8424,-7.7974,8.6591,5.2564,-23.4898,20.9838,24.1982,-27.4311,87.0907
-1187.5000,115.3398,16.8492,99.2666,-72.0633,-15.0402,-171.2422,-10.1541,-166.7849,68.8088,280.2499,36.8493,-13.0941,11.0616,-47.5586,-11.3750,-78.5544,69.8063,-103.2972,-84.4324,-5.0942
-1179.6875,12.0313,89.2819,59.7752,70.7548,-91.0561,-138.2565,-13.0046,-59.9088,-7.5658,345.4703,-31.6400,94.0666,-101.6740,-49.4070,-55.9686,-44.2144,36.0613,3.6127,-152.0299,102.1240
-1171.8750,-6.7060,104.2743,79.8501,50.1320,-108.5122,-154.7241,-176.2986,-150.4864,-61.3887,214.2341,-11.1556,150.7767,-8.8639,6.2544,-103.3102,-24.3294,121.8674,-15.9273,-136.0865,11.8936
-1164.0625,45.2461,120.9750,133.6157,66.2239,17.7273,-66.4817,-86.9039,-62.3622,-80.5240,298.6961,37.0441,57.2032,-29.3605,-50.4082,-79.0750,-81.7364,-72.6195,-35.7502,-155.4426,28.3776
-1156.2500,3.5549,45.0326,-59.2669,23.6682,-28.6763,-38.8875,-170.1708,-34.8943,-89.3144,320.5051,-22.2192,46.9842,-2.5029,-22.7533,-91.8973,-17.7937,-8.7474,133.7742,-91.4497,92.2062
-1148.4375,86.1602,-48.5978,-3.8434,-69.5758,62.2237,-57.9870,-42.1446,-91.1162,2.1867,370.6306,22.4442,-81.9255,16.6439,-42.8269,-26.5019,-72.5430,-66.5829,74.6050,-44.1710,-36.6505
-1140.6250,-133.5737,-93.5666,-91.7755,-80.1623,84.7580,0.5623,90.5056,41.3028,24.3255,498.4062,-87.1461,-60.1757,-71.5625,15.7207,14.6862,-50.6346,-181.7432,135.1033,15.7542,59.1494
-1132.8125,-192.4855,-117.7266,-114.8850,-104.9474,-11.8986,-22.0919,-43.0413,-18.4817,2.2609,470.9943,-108.7322,-45.6264,-20.9707,30.0250,-24.3221,1.0674,-30.1036,146.3978,62.4697,-0.2541
-1125.0000,-142.1636,-102.6293,-23.7512,-54.4676,41.6942,-5.4900,47.6624,34.9901,56.4408,519.8539,-69.4867,-102.8141,-41.1409,-64.4507,15.9834,18.0262,-121.2115,54.9524,-27.5684,-20.3940
-1117.1875,-192.0842,-82.7760,-80.8712,-1.2317,-52.9607,9.8598,-46.8915,13.1982,-1.6281,493.4678,-111.9705,-50.2432,-61.5544,24.7848,-35.6440,70.7371,-31.5613,109.2507,-43.8507,69.2096
-1109.3750,49.6486,-86.2636,-5.3383,-75.3399,-50.9643,-61.1359,-44.7887,-94.9386,37.9531,454.7578,-22.9528,-47.0223,-22.3281,63.6264,-43.6411,-0.9011,-0.2679,-0.7995,-47.4812,-75.5249
-1101.5625,-75.7765,-71.8989,-66.9600,-61.5916,-3.1311,-13.2799,113.1485,26.7728,50.3731,570.9198,-87.8529,-35.9427,-85.2614,112.2862,4.3807,-62.6840,-160.1014,14.0170,-33.2597,9.5951
-1093.7500,-202.0414,-128.3784,-161.4163,-153.6904,-62.1490,1.7282,-18.7638,4.6330,65.9401,544.2574,-147.6318,16.2887,-33.0460,90.0571,-14.7954,26.6771,-41.7808,61.9781,51.1064,-12.1452
-1085.9375,-21.0707,-87.5969,-44.6263,-149.5236,-55.9246,7.9972,60.5715,46.7547,71.7469,582.8785,-65.7388,-51.2156,-63.5929,-14.9529,-10.5680,32.2869,-108.2082,-38.8032,-14.2848,-42.6219
-1078.1250,-35.0428,-31.7545,-99.7857,-58.2986,-221.6612,99.3120,-32.0680,101.9155,16.5941,632.5751,-111.1530,3.3449,-155.0864,2.0491,-81.6646,13.9460,-51.5691,52.4659,6.3702,48.9461
-1070.3125,36.3979,-100.4954,-20.5349,-92.6628,-179.9911,30.0254,-63.3066,32.4755,-14.1702,559.7100,-29.7939,-64.6890,-40.1896,44.4074,-74.0422,-53.9938,-15.5408,-17.8656,42.4093,-56.0775
-1062.5000,-74.8656,-71.9290,5.0044,-99.7183,-45.0320,19.0388,72.7343,95.3329,11.3518,580.1768,-53.7107,-76.4117,-51.9975,69.0390,-16.1139,8.3729,-197.1992,-94.8809,-34.2616,43.2126
-1054.6875,-176.2089,-33.4596,-66.5446,-95.8691,-43.1719,-17.0510,-109.3368,-14.9156,-59.2359,466.5785,-105.3765,35.7657,-13.9098,180.5327,-81.9639,83.6422,-53.9525,-90.9988,-65.0468,81.3971
-1046.8750,-34.0671,-30.4888,85.4075,-95.5056,72.1867,-85.6309,-104.9108,-119.6569,-18.3361,356.5309,-2.0361,41.4525,28.6631,74.4935,-60.5096,52.4193,-16.2025,-195.6059,-64.3439,13.0966
-1039.0625,-76.7909,-4.3668,35.5034,1.0145,57.6944,-25.0619,-118.3521,-59.2595,-30.2981,375.6722,-50.4145,138.3032,-94.6166,-49.4242,-82.2045,38.3466,80.7188,-63.0484,-36.4918,109.9421
-1031.2500,34.8377,2.1097,84.9577,41.8947,106.5623,-87.1443,-179.4377,-194.5118,-55.9187,309.2127,13.4082,150.5059,-46.5495,-185.0322,-96.4526,-22.3839,226.9850,-58.1416,-31.2982,-24.8628
-1023.4375,78.0526,10.1971,166.9960,155.3880,151.0239,-79.6250,-62.9380,-115.1608,-47.9530,386.4041,48.7980,121.3251,-112.8946,-325.0738,-63.2496,-125.5117,164.8600,-50.6208,-94.5062,-17.0580
-1015.6250,9.3784,81.3873,94.1415,190.9863,4.5906,-79.0117,-171.3449,-114.7179,-119.8935,345.7413,2.6525,196.2494,-112.1405,-325.0606,-116.2870,-160.5489,306.8353,54.9985,-58.6167,-16.1629
-1007.8125,132.7462,134.6413,192.3352,208.6469,-8.7885,-128.3396,-111.6937,-127.2182,-95.7952,402.1920,82.2274,109.2317,-51.3535,-449.0393,-87.2999,-210.5461,218.8499,2.6776,-110.6868,-139.2053
-1000.0000,-22.6450,155.1584,59.7652,262.5695,-104.9284,-3.4162,-23.8150,34.5234,-44.4618,522.9435,-20.1366,87.4764,-110.3219,-508.8093,-48.7535,-85.2955,62.1366,56.6238,-126.5059,-13.9967
-992.1875,-37.9786,104.7404,-26.7466,176.5562,-156.0153,-17.4387,-111.8903,-16.6828,-21.0872,430.8124,-44.1044,110.7744,-50.2511,-450.5717,-63.3875,-25.0023,82.4674,40.6171,-1.2827,-64.7428
-984.3750,-16.2383,55.4262,-5.1743,162.6609,-98.0186,3.6462,56.1224,40.2209,37.3742,484.8510,-33.8079,95.1909,-66.0954,-393.2573,0.2046,-114.6017,-72.0962,-78.2734,-14.9668,-43.3783
-976.5625,-81.6489,60.9617,-77.7517,167.6145,-206.1759,-69.4183,20.9780,4.9697,1.6728,445.8008,-96.5613,170.4572,-101.0925,-282.1269,-32.2495,-112.3432,108.1911,-39.3128,25.1987,31.8239
-968.7500,116.5325,12.0942,135.2670,83.1717,-179.7332,-151.8742,48.4385,-114.6703,66.5625,395.4260,29.7578,88.3239,-73.5001,-402.4338,-11.1300,-158.4809,236.0656,-122.7499,45.9577,-87.3668
-960.9375,63.2972,29.8223,222.8770,99.3391,-164.7069,-64.7302,98.4761,9.2884,81.0384,442.7242,20.7534,28.8094,-206.3192,-500.1747,-10.4439,-108.0233,217.5629,-35.5744,63.3165,0.0447
-953.1250,2.8200,39.3106,198.2475,74.2663,-189.9271,-14.8396,-109.7315,-52.0075,-16.7418,377.8441,12.2411,41.0524,-158.3996,-452.2107,-90.3323,-94.8319,332.8101,8.3451,143.4138,-60.8032
-945.3125,118.2706,119.7624,246.5577,83.1568,-69.2064,32.0084,-24.9889,31.6567,-5.5909,457.9947,70.2748,52.2636,-147.5500,-589.3342,-67.8355,-120.6962,61.0103,-158.7579,46.4568,-86.6921
-937.5000,141.8198,179.3152,44.9613,106.1518,-87.3833,50.9636,-44.1614,50.4157,-24.3514,473.3129,30.6627,107.5737,-91.6087,-682.3910,-62.4836,-28.4698,14.3234,-133.7495,-0.4014,42.5045
-929.6875,360.8128,151.3184,18.8148,7.6049,-41.1052,-49.6171,3.1196,-87.3620,60.3256,369.1650,111.8393,44.3357,28.7653,-821.0317,-8.3867,19.2037,-48.9273,-197.2836,7.1811,-20.8491
-921.8750,235.5371,132.0784,-79.5984,-47.1775,5.9079,-2.4462,124.1341,33.6076,107.7349,449.8370,22.9304,18.8681,-70.1172,-773.9451,31.0450,66.6311,-173.4169,-76.0607,-12.4958,100.5502
-914.0625,12.9630,85.5472,-202.2990,-59.2545,-42.3758,-14.5899,-35.1529,-15.7343,58.8294,397.2878,-73.7639,44.1083,-46.2997,-640.1935,-9.6141,91.7495,-10.2084,121.8458,81.5161,88.6392
-906.2500,50.3640,52.0285,-51.0033,-22.3222,72.3354,-9.7371,42.5615,-11.0722,63.9081,398.8261,-1.8088,-24.6329,-42.4947,-710.4694,27.8006,22.8660,-8.0092,52.7624,47.5174,19.7404
-898.4375,-42.1431,64.6093,-77.6161,59.7105,6.1447,-1.7917,50.3659,33.6818,72.0741,403.5494,-55.6881,20.7362,-106.5911,-703.6801,26.3309,68.0761,74.2975,99.7878,58.6215,101.9299
-890.6250,75.3461,42.1835,14.7788,71.7413,25.9648,-92.8410,-3.8154,-131.5554,91.2323,272.3761,13.4516,40.1053,-51.6995,-648.9357,18.7103,-22.7230,227.5869,6.8124,106.7151,-25.8836
-882.8125,91.5053,58.4475,65.8615,158.4741,76.4759,-115.1814,119.6942,-81.0839,106.0702,282.9995,34.6853,18.1819,-75.1203,-635.5238,63.7457,-82.8202,173.5850,-48.4486,52.5057,25.0108
-875.0000,-0.6345,72.4141,-31.3541,171.9072,-21.3194,-101.8217,-51.1059,-103.9165,45.5983,257.4084,-20.8878,31.9611,-61.8471,-550.4412,-0.2696,-69.2244,292.2781,70.9810,100.9916,38.5965
-867.1875,158.2604,125.4397,66.4685,118.4007,1.9234,-78.4059,9.1518,-80.6894,69.1644,240.9682,56.8373,-18.1935,-37.5471,-528.3352,11.6034,-81.5799,169.0117,-17.5272,47.5148,-84.7555
-859.3750,58.7923,167.1194,-4.0788,194.5463,-69.1991,-2.3416,12.0408,32.1824,-1.6393,314.2684,-12.2900,22.3145,-109.6045,-453.6011,-23.5156,-5.2827,104.4105,58.6335,-16.3106,-8.4647
-851.5625,-3.5327,210.9522,45.5186,166.8503,-130.1648,-63.1178,-48.9163,-65.7902,-25.3100,250.8175,-3.3303,34.9725,-23.5243,-441.7469,-31.4215,-29.8455,182.9435,66.9549,-8.9930,-106.0321
-843.7500,1.4535,215.1286,122.4389,206.5112,-127.7876,-60.5293,100.4708,-26.3977,14.3498,324.8144,14.7540,0.9937,-57.1087,-477.5624,17.8805,-100.0590,46.8239,0.6537,-39.3227,-66.2447
-835.9375,-67.8192,182.0381,-26.8934,242.9180,-239.6509,-26.1939,-49.3962,-29.2583,-25.2547,282.6537,-65.5308,109.7681,-96.9449,-407.6610,-51.0881,-65.5297,154.4552,37.1081,67.0969,5.2756
-828.1250,-40.1682,138.9008,41.7147,164.2875,-135.5614,-67.8989,18.6956,-71.1551,43.0733,238.5532,-24.3020,68.5045,-27.8510,-340.8445,0.0412,-70.0602,76.0206,-147.4762,94.4603,-73.2509
-820.3125,-187.2913,97.0151,-45.4418,121.9215,-39.2354,-45.3490,116.0183,25.1956,66.6290,259.7938,-104.8498,128.5018,-78.5202,-208.7975,36.2507,-10.3440,-37.1484,-153.7930,87.0736,60.4669
-812.5000,-108.5162,36.0316,-106.6966,-44.5403,9.9932,-69.8971,-19.7533,-73.5511,5.0748,196.0386,-78.8016,104.3995,6.6947,-51.8835,-16.7423,-34.7376,42.5727,-179.2101,201.5875,-0.9279
-804.6875,35.0699,38.8967,-28.1198,-183.1440,161.0591,-65.5855,94.3268,4.5701,-64.6516,234.2384,-1.3078,35.1590,-26.2605,-86.1403,-20.7086,-30.2838,-130.8585,-177.7509,273.9562,-33.4663
-796.8750,7.6383,-23.2370,-132.5459,-210.7480,92.1197,50.7242,-10.5989,82.6823,-205.3924,237.5324,-43.2070,41.9226,-95.2161,-8.4245,-108.3710,49.1637,-53.2897,5.7115,387.3251,8.9784
-789.0625,131.0863,-110.4682,-33.0708,-263.4433,118.0876,76.9292,-21.6099,72.6980,-143.2470,225.8336,29.7538,-42.4010,-69.2794,16.1617,-94.2762,1.5057,-34.8452,-10.9285,370.5772,-148.6738
-781.2500,-7.3361,-178.5505,-70.4634,-190.9799,80.2016,185.2726,124.5135,217.8567,-70.9768,369.3779,-47.5762,-79.5537,-181.1959,12.8855,-37.7318,-0.0035,-102.2455,61.5834,336.9745,-76.1765
-773.4375,-88.6087,-188.4742,-151.7016,-201.3665,-1.5274,177.7578,42.7945,173.1538,-42.5709,360.1689,-102.9505,-87.5481,-151.9666,77.7394,-47.3235,29.6278,-7.5105,156.2355,325.5083,-157.5420
-765.6250,-14.9123,-150.3906,-34.9489,-198.7427,114.7329,184.2527,196.0772,215.4650,0.8148,401.0708,-24.1833,-190.5319,-109.7586,-65.4199,30.1616,-37.7448,-145.7840,88.8992,223.0354,-224.8992
-757.8125,-170.5269,-93.6095,-127.5030,-107.4183,58.6782,238.4483,139.0496,233.4701,-55.1171,380.7711,-97.6125,-172.8063,-128.8573,-85.8962,11.8843,-20.4220,-54.3496,180.2654,209.2578,-133.5685
-750.0000,-79.5029,-38.1803,-27.4064,-52.4390,158.2661,117.3023,54.6811,75.1383,-66.4166,221.2355,-7.3974,-109.4213,6.6756,-61.7424,17.5091,-141.4617,71.7169,94.2810,123.1186,-254.5887
-742.1875,-54.1085,23.6509,-4.9358,78.9491,217.2315,102.5617,77.6994,97.2125,-117.3413,206.2029,8.3938,-49.6151,-7.4054,32.8046,10.3139,-192.1018,-7.8123,49.7152,-27.6241,-158.2093
-734.3750,-94.2180,88.9803,-11.9709,214.8388,99.6953,59.3197,-150.7862,-20.2176,-198.7823,50.7706,4.7430,17.6941,59.0125,60.8353,-66.3627,-125.2449,162.1445,44.6464,-67.8738,-128.3448
-726.5625,68.9724,146.6562,122.3238,202.0858,122.5046,-27.5609,-126.9088,-70.2814,-211.8888,-0.2026,104.5252,42.3575,118.7649,9.2058,-68.2639,-138.0363,44.4320,-109.0511,-150.7781,-141.1210
-718.7500,52.6761,166.8662,-11.8560,185.8741,24.8628,-14.8844,-114.4844,-20.7951,-235.4613,47.4828,37.6840,91.5747,58.0669,93.1206,-95.5874,-125.2726,-42.7367,-55.1823,-131.1309,18.6421
-710.9375,192.9588,131.6649,-45.4441,44.2582,-9.1718,-48.5922,-185.4384,-91.6882,-195.4455,12.8886,73.5186,58.3889,133.9538,131.6199,-109.9478,-85.9184,-7.3366,-125.7074,-97.8922,-52.0009
-703.1250,160.5578,99.8011,-45.7152,-22.0091,27.1378,-11.9439,-76.0304,18.7797,-122.0968,122.7552,42.8403,22.5640,60.1742,129.4572,-73.7416,-49.2176,-143.5929,-155.8587,-128.2984,21.7099
-695.3125,8.7383,89.5326,-94.3909,-33.6812,-59.9456,12.2968,-161.0127,5.8410,-172.1602,72.3142,-21.6292,47.3400,46.9914,188.8737,-105.6965,12.0699,20.7520,8.5991,-104.1030,46.0027
-687.5000,72.2376,82.6193,125.2765,-5.9835,86.3217,10.8896,-163.6332,-68.7448,-174.8920,34.3247,73.8351,-27.5238,45.1414,148.6223,-99.9335,-62.3004,83.4353,0.4298,-183.5715,-102.3514
-679.6875,-125.6812,61.3125,174.5278,184.3284,98.1772,60.0756,-223.6738,16.2598,-235.0510,83.0236,31.1285,22.2368,-16.1150,159.9648,-122.2481,-50.0793,132.7310,120.8744,-239.4520,-53.1155
-671.8750,-114.8508,2.7615,191.5280,195.3961,114.7856,41.0085,-353.9496,-39.9876,-292.4760,-47.4245,72.7668,3.7558,73.3719,175.0441,-148.0634,-70.1210,283.7549,167.0637,-193.5983,-183.1399
-664.0625,-34.5590,-57.2954,239.0025,204.9766,199.8768,125.4528,-233.7272,44.2773,-245.4261,36.7323,118.4555,-95.2066,47.3430,184.6259,-100.9775,-132.6610,82.2785,176.7663,-219.2461,-208.6603
-656.2500,-220.3009,-136.3609,6.4691,196.5559,149.9646,223.9030,-282.5076,105.5453,-257.3951,60.9876,-0.2156,-33.1596,72.3088,280.2134,-101.4011,-71.2088,73.7989,203.4687,-122.8940,-147.1978
-648.4375,-54.9294,-76.2767,35.0741,80.2889,178.1991,104.5209,-218.1212,59.9860,-193.2292,52.5025,36.8153,-40.9612,62.4001,232.9501,-97.9557,-42.6063,-41.5550,17.3293,-63.4022,-192.5830
-640.6250,-62.6863,-47.2998,-128.4435,2.9148,88.3160,126.0455,-86.8401,118.3345,-135.1850,148.0191,-54.7426,18.1475,-26.6202,289.5922,-76.9622,15.8937,-155.0107,45.1063,-35.0089,-24.0725
-632.8125,-85.9967,-69.8847,-187.5107,-20.0133,-8.1194,29.0267,-147.0987,58.1406,-85.7092,88.0936,-93.0996,68.7046,-13.2023,338.6823,-84.8784,-7.1631,-2.0375,22.3343,46.8277,-47.1247
-625.0000,39.5070,-14.6301,-20.7502,-0.0864,11.2820,12.8691,-16.5076,40.8128,-29.4087,71.1255,-28.1750,52.1264,-67.9529,282.6304,-54.6924,-24.3642,-52.2193,-168.5667,-38.4870,-27.3231
-617.1875,-54.2081,31.4090,-51.1967,81.6399,-129.5223,55.5145,-157.1209,47.2850,-96.3261,4.0439,-73.6979,96.3545,-97.9068,323.3832,-118.0543,18.2324,99.3957,-121.6591,-28.0010,89.2584
-609.3750,-19.5476,-2.1581,100.7509,81.7715,-161.9233,24.5722,-188.3214,-20.8295,-55.8679,-26.5354,-12.7873,64.9902,-57.4741,290.5395,-111.2394,-12.7797,170.3838,-190.3410,-27.1232,-15.7631
-601.5625,-111.0324,-23.8301,149.5746,130.8060,-149.4311,36.5358,-30.6305,64.9628,-44.5325,58.8760,-34.6943,41.5352,-119.1454,300.6056,-63.8037,-0.8910,78.2684,-141.1035,-49.3448,33.1138
-593.7500,-107.5396,-158.5068,84.3949,101.8437,-142.9330,8.4987,-95.9275,-0.2446,-36.2149,31.3779,-28.5074,14.0787,-37.8158,344.6684,-54.8672,7.9879,119.1313,4.1427,-43.5765,-32.0254
-585.9375,80.5594,-146.5335,136.8387,7.5464,93.2133,23.1266,29.4303,-22.7898,14.7273,-26.3772,105.7404,-117.7137,124.1457,247.3909,46.1502,-87.4849,-151.3690,-18.9328,-173.1708,-90.5109
-578.1250,-116.1133,-26.3146,-38.4813,22.4988,138.6085,-3.9952,39.0361,-13.0876,-13.1011,-52.8053,23.6391,-34.2451,206.3555,181.3636,85.9192,-78.7160,-241.6184,136.2546,-193.5131,29.2346
-570.3125,-112.2544,15.4386,-64.2584,-42.0031,185.5596,-103.5596,12.2203,-112.8231,33.6108,-77.5814,27.4276,-22.2317,290.1015,116.8907,107.9074,-104.4062,-201.3466,108.0011,-188.3111,-70.4778
-562.5000,-160.4885,3.1275,-119.1070,-19.5539,204.4442,-48.1655,178.3529,-20.5993,52.2521,15.6780,-6.5848,-40.2533,234.7850,59.3900,160.0088,-122.1386,-355.1228,129.7154,-130.1599,21.7607
-554.6875,-261.8858,-63.3406,-262.0991,-86.2578,97.1830,-43.9237,108.3392,-16.5305,92.7240,-16.1391,-98.4735,-35.4206,201.3185,135.7479,140.6059,-45.0280,-245.0584,205.2754,48.8334,25.8317
-546.8750,-192.7138,-134.2034,-186.5000,-157.3557,136.5222,-4.0835,220.9411,59.1488,240.7729,23.7312,-65.0870,-178.9758,166.4410,62.7160,204.9117,-42.3237,-351.4131,63.4439,118.4126,-45.4913
-539.0625,-354.0677,-187.5678,-248.4158,-175.9546,-0.6481,80.2528,232.0335,180.3213,251.2968,146.1735,-179.8101,-130.0172,29.0659,219.2007,172.6949,41.8761,-336.2679,80.1180,168.4935,75.6740
-531.2500,-215.3336,-258.8346,-208.2280,-282.4476,-107.7207,46.6927,125.2391,73.6018,253.9028,77.7969,-139.4881,-89.9496,68.7809,331.7987,121.6655,45.1670,-162.0456,-26.1136,167.6607,-31.0690
-523.4375,-80.0274,-227.5013,-68.4578,-251.3361,-40.2091,4.7381,266.0447,104.4883,284.0776,73.0938,-67.4551,-95.2674,26.0844,287.0171,158.6333,76.0591,-236.2251,-65.7300,22.4243,-0.2069
-515.6250,-172.7748,-179.2198,-203.7402,-132.2754,-102.7481,-21.2691,166.8002,42.3190,221.1827,12.4082,-137.4451,-9.6288,36.3378,296.1985,124.4340,123.8903,-48.4655,18.6064,-0.8673,47.5869
-507.8125,44.9436,-136.4373,-81.5386,-89.7053,-16.7933,-118.7653,180.0731,-92.3348,196.7661,-46.6945,-12.2381,4.5218,122.0778,233.8999,130.1694,-9.7870,-40.2323,-114.5404,-62.6686,-50.1164
-500.0000,-7.8355,-12.1177,-140.8168,34.4139,-113.3010,-67.7030,155.8957,-5.4334,135.8873,4.8196,-55.0238,18.2320,61.3638,135.1777,97.2796,3.0942,-91.4597,-25.1195,-114.9175,73.7270
-492.1875,67.8104,29.6318,-168.6549,4.9679,-178.3552,-59.1856,-18.8045,-33.0727,70.4503,-58.1396,-29.1484,28.3864,106.0962,105.9253,25.1202,12.4304,-16.2732,16.7582,-74.7176,9.0136
-484.3750,55.6142,18.5660,-71.3258,-41.2889,-81.2173,3.5446,79.7109,65.5014,58.1977,6.1760,-5.8875,17.7469,57.0216,166.9018,39.6059,-36.0205,-203.9033,5.8583,-121.3215,-2.4909
-476.5625,-124.1496,-20.0668,-150.5602,-45.1041,-123.6263,70.7256,-0.3200,96.5266,13.3828,38.0021,-107.9187,85.5553,-23.5987,268.3498,-12.2635,67.9755,-137.0906,73.4142,-88.4775,64.4396
-468.7500,-30.6517,-101.4075,24.4927,-91.6150,-59.7350,-10.7801,28.9692,14.8655,77.8489,-4.8010,-23.8652,-32.3300,5.0707,259.1210,16.5795,59.2658,-78.9980,-78.7149,-101.3412,-17.3282
-460.9375,-143.5911,-107.1556,47.1227,-27.5175,-36.2579,12.3206,88.8524,74.8072,100.8857,20.0501,-68.5887,-43.6001,-81.6648,281.5177,34.4065,83.1552,-85.2994,-119.2140,-107.6011,116.4950
-453.1250,-27.3424,-24.7121,-13.0434,-120.2164,-95.5681,-82.3725,-8.0470,-22.0445,114.1086,-0.8355,-58.7936,-29.6712,-33.2094,257.1248,-3.3438,134.2284,-3.4179,-141.5061,-59.6654,93.4977
-445.3125,175.3219,3.1728,53.2239,-232.4583,5.5715,-126.6030,168.5157,-29.4295,215.7628,30.7927,28.3390,-109.2829,-4.3177,174.2077,72.0224,89.7500,-186.0998,-253.3270,-33.2845,85.9519
-437.5000,9.2101,-55.7006,-88.2703,-257.4542,-62.0418,-120.5812,137.3265,14.4340,183.6494,1.7142,-69.0506,-66.6341,-35.1729,214.5724,60.9904,168.5173,-140.5340,-66.8911,-22.6579,201.6397
-429.6875,27.1157,-106.5241,-26.7177,-237.3921,-73.6076,-131.4993,90.2051,-70.6421,171.5730,-44.2573,-17.8836,-75.9249,63.0101,129.0160,69.8114,157.3350,-85.9414,-81.4122,-38.9921,80.3769
-421.8750,25.1497,-107.2022,-30.0309,-133.1765,-78.0422,-25.2697,122.2352,34.4297,92.6251,63.9633,0.1123,-117.0523,57.3384,123.6462,68.0967,116.3098,-193.1932,22.2241,-110.1840,149.2667
-414.0625,-67.2189,-129.2956,-124.7352,-120.3643,-172.8784,26.5553,-45.1240,14.0969,34.2650,-28.1747,-44.6818,9.4153,110.2675,211.9036,18.9281,95.8816,-40.8575,141.4609,-97.7868,91.7411
-406.2500,-31.7774,-92.5472,-8.5974,-118.6949,-93.8713,34.2399,35.3803,21.6276,76.7340,-55.4095,1.7451,17.7382,116.0384,217.0451,52.0280,29.3108,-144.6919,3.5626,-96.5506,-11.9279
-398.4375,-195.6535,-9.1038,-110.7749,-35.3299,-159.1704,78.6266,42.5828,102.8526,46.8863,-8.9046,-117.0021,62.7668,-24.4866,223.9143,17.9630,110.4402,-131.8357,51.3751,-47.6148,106.0909
-390.6250,-56.0442,27.8338,-106.4644,-69.4700,-189.9649,-25.4815,-24.6863,-1.4056,-21.4746,-36.8479,-81.6361,70.2961,-18.5160,228.3109,-44.2549,79.0613,-25.5150,18.6938,22.8163,1.6043
-382.8125,0.8724,86.1091,-48.8342,-46.2641,-206.4161,32.7697,143.4001,93.6954,-74.5020,60.6010,-76.2761,55.1841,-144.1993,175.0939,-46.2944,64.0364,-107.8493,-28.6119,-25.3956,59.4708
-375.0000,-36.8717,84.7207,-87.8578,-47.7175,-283.5088,29.3758,29.8493,53.1433,-115.1924,-14.5726,-98.3245,52.4224,-148.5328,170.2594,-89.4804,97.3534,29.1565,76.4414,42.7444,92.6704
-367.1875,116.7569,-7.2763,38.5118,-103.7676,-156.2004,10.3913,120.7194,-2.9958,-63.4989,-68.3124,23.5774,-75.9347,-59.4774,75.8626,-20.3939,41.0749,-27.4574,-15.0876,57.2763,36.2734
-359.3750,16.6005,-70.0436,-69.8872,-61.5725,-81.6447,48.6581,159.8371,35.1162,-98.5672,-26.7749,-25.1112,0.9625,-57.1674,113.7575,0.9176,79.0545,-90.8156,97.6467,28.0608,148.1180
-351.5625,59.0187,-62.2220,-21.6910,-53.7770,3.5213,-48.4645,25.5733,-98.1654,-160.0496,-121.5990,22.8812,13.4578,27.7412,125.2810,-38.8721,92.6324,57.4006,36.9882,0.4382,50.5561
-343.7500,40.6448,-9.1601,106.7281,-0.7261,130.9295,-66.3217,117.5675,-80.1820,-180.2987,-101.1403,62.1535,-4.7863,7.8956,68.0883,-13.0591,73.4635,-66.1464,-15.3969,-85.9325,68.2503
-335.9375,-61.9916,29.6377,33.8864,38.0611,59.0917,-63.4249,-27.6801,-114.4450,-215.8099,-170.9123,-4.7561,71.7223,-28.1961,179.6765,-73.8414,75.0406,42.0430,94.9829,-47.5523,106.6777
-328.1250,9.2917,68.3795,79.9799,41.7962,142.2116,-91.5632,-17.9507,-142.7358,-207.3871,-231.6945,45.2081,82.1832,17.6509,188.2495,-59.4712,-25.4326,10.1475,63.3316,-45.2281,-30.9423
-320.3125,-136.3655,100.2078,34.1480,108.6257,132.4280,47.4140,9.8716,-3.9232,-253.8873,-127.3581,-4.5064,74.7546,-28.4012,67.9701,-52.9245,2.2023,-64.6455,165.8029,-49.8021,70.5331
-312.5000,-136.3271,31.7214,2.0206,75.1593,63.3514,16.0973,-131.5992,-35.4048,-287.6994,-193.3028,6.3716,44.0155,49.2502,35.4256,-87.3601,44.5364,77.2516,168.9693,22.3129,1.6989
-304.6875,6.8834,-34.5664,7.0874,8.9025,68.4601,57.9881,21.1310,43.3206,-173.3297,-75.0334,32.0986,-23.5094,17.0914,77.1254,-35.2972,49.0789,-130.6479,67.3404,-9.3807,-29.9241
-296.8750,-90.3107,-25.2551,-133.2381,54.2484,-72.8478,102.4727,27.4598,87.6393,-130.3761,-102.1655,-70.0683,20.5734,-50.4677,193.4713,-35.1698,129.2238,-50.9437,148.3018,35.5214,50.0389
-289.0625,-7.8112,-46.2432,-5.8624,32.3025,-17.4631,46.6639,9.5079,-41.3358,-114.7329,-228.5809,4.6428,3.3610,3.6663,173.5571,-24.3361,74.0685,103.4370,21.9559,48.1101,-42.2953
-281.2500,-20.7286,-22.6378,51.0993,91.9573,-71.4930,31.4503,67.1519,16.2835,-130.4999,-168.3932,-18.8639,61.7610,-122.5983,194.2795,-47.7436,58.5212,91.4238,11.2137,1.2967,51.9735
-273.4375,-12.2020,-12.5895,26.5203,66.0513,-133.0642,7.6820,-30.7307,-44.6487,-120.8228,-152.7544,-41.6626,75.6078,-148.4037,168.4771,-92.2787,70.4125,205.8406,21.9247,80.9271,-9.3161
-265.6250,118.4349,-21.3992,129.0760,-12.7015,-29.4861,1.0765,72.5501,-14.4150,-18.0069,-120.9452,55.8174,-41.3890,-82.0669,50.8639,-17.4587,26.4565,20.3869,-56.1898,142.7003,-53.4464
-257.8125,-61.3972,-23.6728,-25.8310,-14.9146,-0.3562,68.0245,66.3813,52.3676,-63.6533,-87.5809,-35.5816,26.1613,-90.1698,79.8426,-14.7862,20.0597,-17.5245,48.2598,175.0254,49.9618
-250.0000,32.1144,36.3948,4.6082,-94.7867,67.1339,25.3268,-12.4095,-26.4848,-106.9531,-200.8552,39.8048,58.0555,51.0767,74.1986,-21.5287,-58.9851,6.8858,38.0599,129.6960,-66.2788
-242.1875,-11.0484,64.8072,31.3742,3.6858,92.9724,52.9791,87.1539,37.0117,-118.9140,-171.7898,29.4582,86.3086,3.6726,62.9512,4.0094,-69.6702,-106.3486,67.2250,16.7194,-3.1646
-234.3750,-139.6655,78.7579,-27.3035,87.7005,34.3690,32.1831,-80.7227,-20.9487,-177.3300,-227.1885,-16.9511,176.1067,54.8239,41.2944,-40.4047,-16.8053,82.9585,116.9448,-4.7144,-24.5130
-226.5625,-1.3575,42.6447,121.9560,122.6733,110.7163,-2.6491,32.3570,-54.9463,-102.8119,-184.6374,81.0450,68.8617,93.9194,-67.3599,22.2364,-87.9861,11.1975,-58.3650,-76.2078,-95.9039
-218.7500,-88.5184,63.0655,62.7594,142.1944,87.6128,-23.9309,47.9838,-3.3983,-89.7568,-93.5552,19.3191,48.1680,34.5734,-52.4211,21.3493,-36.6140,-4.0076,-3.1142,-92.1481,29.2456
-210.9375,-2.8377,44.3270,83.4172,89.5592,72.3689,-75.3560,-3.5129,-91.9906,-68.8541,-179.6259,58.3060,34.3164,92.0769,-31.6060,13.7373,-51.3901,46.6130,-55.0152,-40.2400,-59.7577
-203.1250,-35.2383,48.5351,47.0045,57.8735,146.0674,-37.8225,143.9453,-17.6253,3.9870,-102.7493,31.6364,-38.5798,54.5242,-67.8009,77.1019,22.7951,-125.8124,-50.9511,-37.3777,14.1960
-195.3125,-140.3328,-20.9676,-137.1082,-11.5163,72.0745,-37.9874,70.7132,-17.9595,2.1216,-100.5882,-62.7101,35.8147,54.2743,41.3410,54.1995,96.2772,-54.9448,92.4129,69.7886,50.4343
-187.5000,-28.1458,-82.1804,-87.9285,-142.6022,159.3825,-22.8358,121.7981,-2.9782,51.5460,-84.1329,-5.0326,-59.4889,67.3194,18.8272,78.8125,73.0599,-151.7905,67.0849,149.2525,-46.0193
-179.6875,-169.2246,-150.6545,-165.0033,-175.9357,154.4251,121.0695,154.6215,103.7520,83.7097,-10.9516,-79.4241,-61.0303,-10.8835,51.1101,95.2565,69.5962,-255.8749,209.5131,184.4659,60.2725
-171.8750,-152.1015,-165.9302,-178.8685,-227.0649,104.6664,108.1770,68.6632,53.6834,69.0733,-131.5860,-64.9045,-74.3766,49.1142,75.6301,82.9329,20.3347,-61.7752,265.1310,203.8666,-26.2416
-164.0625,-134.8436,-113.0530,-48.6007,-103.0312,125.0417,129.4369,163.8574,74.7699,51.5796,-108.0873,-31.8734,-15.5587,-4.7409,22.3415,96.0130,-32.7705,-114.5254,214.9044,81.4058,-42.5919
-156.2500,-324.1292,-19.7238,-100.8802,95.4489,35.8626,115.1374,39.5003,60.2922,-37.4749,-83.1687,-113.0610,117.7153,-19.1371,7.5358,40.9446,-10.4232,48.1775,238.1285,33.3863,-20.5017
-148.4375,-136.5767,-6.5504,66.6883,144.7867,56.5362,62.6931,60.0063,-29.3237,-18.6905,-134.4171,8.4471,65.8405,37.3172,-82.3801,55.3941,-137.2205,61.7076,77.2174,12.2043,-147.5560
-140.6250,-104.8921,-8.2357,21.3946,143.2750,85.3557,129.4009,89.6568,74.2076,-26.7658,-65.5409,-14.8195,96.1097,-44.0696,-53.1097,38.3435,-70.8574,-46.6079,75.4752,-60.8320,-44.4618
-132.8125,-46.4015,-18.1248,-24.0903,98.5577,39.9882,84.9046,-27.8698,29.5374,-37.0373,-107.8900,-14.0172,89.1627,-16.6457,-24.0172,-6.4104,-5.7020,48.8598,66.5302,-36.0712,-89.5750
-125.0000,24.3739,18.2866,87.7142,65.1353,114.9178,49.7190,120.9141,68.1769,-0.0166,-66.9622,44.4229,18.5187,-15.9230,-59.5916,47.4784,-77.2466,-56.3843,-36.0950,-70.0129,-88.3764
-117.1875,-137.4000,70.1377,-49.0326,81.1544,15.2999,61.9838,59.1405,80.2618,-26.5478,-89.6230,-73.1606,104.3208,-78.7423,62.3220,7.1700,7.6565,-5.1712,51.7383,-54.5030,33.2620
-109.3750,-29.6355,38.5308,32.7750,49.7212,-13.7600,33.8122,-5.0660,-21.0909,17.4708,-114.7526,-5.8165,40.6668,2.9865,34.8210,4.0141,53.1165,-2.4282,-48.8793,-50.4467,-68.5463
-101.5625,-78.9395,25.8659,87.5139,108.2315,-69.8737,52.5956,86.6748,70.5103,71.4356,16.0358,-22.0588,-14.0285,-53.3328,52.3159,36.4571,71.5370,-85.7291,-95.5407,-133.4332,59.5986
-93.7500,-26.8779,44.5431,105.6086,92.0857,-160.6248,-38.2730,-77.2209,-57.5452,14.7480,-73.8656,-8.8491,5.6241,-35.2954,35.1995,-38.4782,127.3113,143.3080,-145.8607,-115.0770,78.0822
-85.9375,152.9172,84.9706,184.4433,61.6954,-118.6215,-104.3862,-35.3618,-51.8426,19.8040,-65.0470,74.1797,-23.9648,-29.5093,-32.1257,-35.8645,59.8424,77.0840,-175.4241,-109.9812,47.3274
-78.1250,-10.0886,29.5914,48.4810,147.5032,-180.4204,-55.3048,-21.3083,-1.9502,-6.9447,-14.0659,-21.2792,26.6439,-90.5118,-20.2169,-33.7121,71.5816,127.0720,17.2042,-24.6878,132.7661
-70.3125,42.1050,-21.6019,74.7329,60.5055,-118.0106,-66.0256,-32.0306,-85.8534,18.5131,-131.9163,18.1350,53.4420,-28.3112,-30.0715,-11.4138,-11.4758,250.2457,36.0239,-7.2007,-24.5908
-62.5000,36.2788,9.1931,141.9741,91.5045,-50.6129,2.2649,36.2423,-17.7541,-25.0278,-98.8085,29.8176,85.2429,-109.1091,-34.8804,-17.1956,-54.5238,140.4303,102.8483,-47.7100,6.0628
-54.6875,-10.5429,-1.0185,21.2223,116.4940,-135.2096,66.5530,-156.4839,-27.6620,-110.5650,-143.7453,-34.2736,149.0405,-156.8959,102.3423,-115.5686,-27.5721,269.6158,234.6669,12.7781,-4.2904
-46.8750,85.3749,-44.4761,89.2222,38.2382,-30.0563,98.5946,-88.4496,4.1867,-43.3537,-145.9597,29.6732,71.5907,-124.9385,61.3405,-70.2941,-68.8648,155.5407,122.2440,39.0093,-82.8787
-39.0625,-115.6979,2.0603,-51.7818,50.9807,-22.9047,142.6299,-7.4225,86.0244,-37.1452,-100.2240,-82.7333,117.1413,-154.9770,105.3614,-35.1847,11.8503,96.4861,169.8300,16.2459,34.5303
-31.2500,5.0490,54.4003,-29.9679,-2.4726,-1.9411,54.4612,-95.5809,-39.3429,-53.1332,-149.7286,-28.8103,102.4827,-60.2169,91.1953,-59.8009,33.3558,183.2248,82.2156,-37.7246,-54.2609
-23.4375,95.3847,75.3423,61.4385,18.6838,53.6208,37.8898,-2.1431,16.8941,-35.5271,-91.6725,38.7693,49.4279,-41.8564,-0.3374,-23.8263,53.4574,27.5738,-1.7863,-88.0963,1.5571
-15.6250,-34.3688,53.1710,-39.2425,31.7381,-9.9108,11.2124,-100.8048,27.0203,-27.0143,-79.7599,-28.8195,24.2654,-32.5833,11.0551,-36.6083,63.4635,145.8215,48.1046,-39.5661,85.2617
-7.8125,92.0191,5.1386,24.2209,-16.0652,16.7151,-35.3087,-38.2924,-19.6903,71.6602,-50.7211,41.8244,-58.7616,29.8377,-72.3730,14.8731,-20.3714,26.1945,-69.8525,17.1180,1.1270
-4000.0000,-0.0365,-32.5793,-6.9289,-9.6797,16.2245,-12.7109,31.6516,36.5645,60.4619,63.9325,6.3869,-84.7336,21.5730,-40.9125,38.4541,-5.8821,-26.3563,-31.3434,10.6127,45.1322
-3992.1875,-2.6795,-36.5365,-44.7499,-48.5698,-20.2907,-86.6822,-41.5438,-73.5082,23.8588,-119.6447,17.3126,23.2669,132.2175,-6.1221,33.5948,-79.6349,144.6272,-36.6397,43.1815,-27.7416
-3984.3750,18.9847,20.8064,89.7405,43.8452,77.4906,-136.3589,92.5533,-123.2885,48.5567,-167.9211,56.3806,82.5694,119.1609,16.9676,77.9873,-129.0968,95.9165,-225.6441,-39.9453,-40.3261
-3976.5625,-39.3631,138.1562,-10.7709,91.2722,-58.7336,-126.0312,-6.3474,-111.0548,-12.7426,-119.1908,-38.1181,201.8728,20.0893,101.0508,-14.2880,-9.5584,143.2034,-213.6387,-28.0682,8.0997
-3968.7500,218.8383,185.0599,44.2633,-2.7455,-77.4160,-146.1594,-23.7145,-129.2794,-30.4921,-26.9185,38.3145,145.7288,2.5692,44.6828,-71.6109,9.5239,14.0645,-343.0763,-15.6370,-119.9325
-3960.9375,232.7945,162.7231,53.0604,-130.0096,-104.3432,-99.5376,95.6808,27.2512,-20.4902,57.1089,35.5552,79.3362,-62.2095,16.0616,-52.0041,54.3479,-148.3353,-295.7695,-1.4573,-0.2211
-3953.1250,219.0886,113.7403,39.1943,-143.9145,-154.9337,-150.5607,-28.5838,-59.8621,-33.1403,-29.5117,34.9650,101.2965,-39.6500,1.7965,-79.6229,3.5263,48.6243,-134.1016,20.0836,-13.1500
-3945.3125,286.4934,146.8583,222.4318,-5.7318,-83.4248,-151.4889,-28.7534,-59.8799,-32.6835,7.9668,104.7520,62.3499,-112.9857,-73.3731,-87.1835,-107.2014,80.6864,-67.3440,-88.2672,-49.9873
-3937.5000,169.4011,205.4845,134.1677,192.9454,-96.4217,-92.9159,-152.4104,-37.3882,-156.7216,-43.0457,39.0818,119.9034,-200.8337,-124.0367,-154.3439,-84.4249,245.2320,166.9142,-133.1255,9.6885
-3929.6875,183.5057,113.3124,227.0843,136.8108,32.7657,-74.1473,-205.8839,-126.7046,-172.5567,-131.8592,119.8889,28.6708,-70.4806,-142.4806,-135.0151,-28.4384,222.9808,145.3783,-84.7823,-116.4361
-3921.8750,38.0549,37.5869,143.4487,61.1164,133.4123,26.0728,-104.8989,11.4304,-144.9373,-30.2180,72.1962,-20.1067,-43.6748,-42.4679,-74.7775,-2.0054,-28.8453,139.2891,-54.9900,-15.1136
-3914.0625,-139.3817,-36.0854,-43.1556,-116.5277,58.1054,97.3549,-179.8725,9.6231,-146.2688,-105.5238,-16.4730,13.1781,65.1707,175.6119,-68.6076,-4.5195,3.3752,171.2687,83.8622,-16.7298
-3906.2500,-69.4635,-70.4043,-39.4086,-222.8248,98.1500,99.9851,-29.5075,13.1592,-31.2542,-26.4913,-11.0394,15.8231,68.3685,216.0450,-8.7758,-37.6912,-171.0430,-4.4010,85.0704,-86.0108
-3898.4375,-234.3410,-60.5054,-143.4574,-141.9104,-6.6012,142.8239,13.0600,93.9029,-24.0490,53.7436,-116.6180,93.6817,0.7479,220.6802,0.0191,41.3283,-126.2722,40.1337,60.4733,30.9112
-3890.6250,-54.2179,-20.5997,-98.5174,-137.9920,-33.3678,4.6636,-50.3935,-43.3577,23.1501,-46.0314,-68.0531,138.5546,11.1160,119.3253,-23.6916,87.3542,53.5168,-61.3234,29.8815,-69.1680
-3882.8125,105.5184,103.9109,-6.9676,-13.4828,-52.5285,-14.9053,78.7608,-25.0247,5.9604,9.7933,-19.3732,155.0287,-80.9216,63.5669,-24.7736,31.9809,-33.1001,-111.1892,-91.1072,-13.6583
-3875.0000,53.9885,157.1839,-97.6818,40.7747,-179.9457,-33.7220,-86.3318,-42.9377,-48.4769,-7.6259,-66.8143,209.2693,-62.2275,118.5698,-92.8950,87.3614,91.0309,-93.2949,-37.3427,5.6125
-3867.1875,134.6134,96.6220,61.7508,15.1831,-166.2201,-94.3985,-36.2952,-65.7126,2.2257,-29.9089,28.8129,74.6728,24.6207,57.7299,-44.5482,63.8874,65.3232,-260.2487,-61.4263,-53.9756
-3859.3750,23.5478,127.3690,13.4846,44.9009,-214.1934,-30.7728,-45.9599,-3.1838,-7.7818,33.1096,-38.0721,135.3863,-59.2460,45.1900,-63.8652,51.7093,24.9056,-194.8958,-65.2146,82.7391
-3851.5625,111.3205,179.9686,35.0555,27.4756,-265.3302,-83.2934,-133.7946,-53.8079,-57.9486,-17.0270,-6.2331,155.9695,-38.2730,30.5130,-111.6601,0.3822,147.3515,-178.6735,-84.1454,-4.6961
-3843.7500,160.7973,229.2717,123.3382,111.7471,-177.7632,-33.1122,-46.9322,-1.7372,-79.4155,35.5248,46.6909,133.2631,-59.6047,-65.4607,-88.2894,-22.2500,20.4971,-164.7529,-138.3716,10.5508
-3835.9375,32.3575,205.6910,59.7140,124.1282,-240.1036,14.1751,-144.9721,-27.5558,-139.7901,-62.8194,-12.4433,179.6760,-84.8565,17.6732,-127.6319,-10.7792,173.7400,-12.7174,-90.4992,58.9031
-3828.1250,143.3226,140.5227,144.4869,22.9148,-156.0592,25.8571,-170.6342,-88.9871,-128.7728,-124.7791,51.7138,152.5088,-74.7130,139.2151,-142.2211,-73.9091,107.4022,26.7255,-51.2212,-76.3547
-3820.3125,-24.4041,78.6699,76.5677,32.0102,-112.7117,104.8408,-90.9925,27.8794,-158.4569,-81.4402,-10.2145,120.6576,-104.2831,181.0562,-111.3233,5.2515,10.3536,140.4679,-42.6534,3.6840
-3812.5000,-100.5908,2.3719,-36.8170,-44.3387,-79.8227,101.3761,-202.8164,-10.7064,-160.6007,-119.5568,-35.3508,79.3805,2.6867,141.4582,-109.1022,75.9641,74.8628,204.7789,22.4694,-71.7235
-3804.6875,-6.2200,-44.3724,-11.6482,-56.1445,55.6188,89.4628,-31.0952,51.2508,-97.2010,16.8663,17.8525,-43.3416,28.2115,92.4131,-31.2388,28.2244,-148.0862,122.6391,11.1459,-82.5970
-3796.8750,-100.2694,-68.5109,-186.8945,-45.3511,-9.3399,98.1637,-22.7777,60.8215,-51.2034,26.8955,-75.3921,0.5503,-0.6694,100.9797,-12.6142,36.0872,-66.4562,204.1082,93.4207,0.1411
-3789.0625,-5.5269,-43.8387,-120.3580,-90.7650,58.4873,-18.3309,45.3180,-54.8120,54.5822,-88.2833,-11.1432,-5.7335,104.2457,20.3678,61.5639,-43.2456,-7.0242,51.3839,83.4987,-115.3227
-3781.2500,-35.6759,101.9423,-118.7177,-16.0844,59.4098,-55.7228,156.5167,-54.3442,55.4647,-50.3607,-46.6740,67.0937,31.2468,-53.1361,78.6169,-43.4761,-37.5072,21.7604,-16.3261,-3.6909
-3773.4375,6.8503,214.4249,-111.3935,61.3055,-79.9807,-120.4087,-18.6014,-155.1717,-7.9563,-114.7412,-49.8690,147.6474,39.9331,-44.9247,-7.2363,1.9991,180.7208,-7.1434,-80.4463,-31.3524
-3765.6250,170.7411,202.2572,25.2877,155.0424,-53.0230,-131.7464,8.6207,-165.6643,-54.0316,-86.7832,44.6851,99.5664,29.9659,-92.3557,-27.0631,-8.1818,97.3048,-125.7006,-127.2131,-77.6810
-3757.8125,57.0285,229.5014,-99.6324,181.1842,-103.6675,-71.6784,-42.7519,-68.7494,-104.7156,-27.4258,-44.7552,120.9085,-57.6210,-33.3796,-71.7139,50.0345,124.2805,-28.8497,-64.5798,55.3921
-3750.0000,126.1068,157.5512,-23.7633,74.1252,-64.5237,-106.8064,-39.3405,-139.0404,-63.6065,-96.2787,5.6697,50.0762,-18.4178,-30.5941,-55.8597,54.0539,193.0680,-101.1814,4.8626,-50.7429
-3742.1875,62.6869,164.1064,53.6142,81.5612,-23.8687,-29.4266,38.5741,-23.8339,-21.9970,-17.6385,-7.8365,15.7544,-123.7210,-63.3072,-35.6014,20.5647,94.3410,-93.0070,-23.1937,27.6097
-3734.3750,55.9913,228.4233,46.7249,144.7521,-139.4661,-36.2871,-113.7720,-66.8703,-64.6432,-96.2537,-19.9095,82.2106,-130.2945,-70.2556,-98.5250,-23.1738,298.3630,-100.0551,6.5037,21.7168
-3726.5625,245.8025,277.2436,284.3304,229.4436,-122.5658,-128.6452,-97.6366,-158.4190,-45.7990,-115.3823,107.7907,62.1879,-113.3689,-162.6966,-97.9825,-115.4153,311.8977,-262.5948,-120.2960,-33.6947
-3718.7500,138.9664,311.4279,239.2949,333.4925,-166.3189,-172.6444,-67.1516,-165.6157,-88.6200,-121.1639,70.6728,89.5354,-84.1110,-134.7814,-82.8099,-12.3110,274.7729,-193.7764,-190.7507,106.2429
-3710.9375,156.6210,189.1251,188.7558,175.0478,-70.5885,-260.1435,-117.1956,-288.3197,-28.9578,-170.4619,94.3527,38.4100,48.6355,-111.3536,-47.5429,9.2955,258.1667,-105.4359,-136.7080,19.6783
-3703.1250,44.5419,41.0813,69.4791,26.8557,104.3951,-122.3922,94.0084,-149.7849,36.9495,-68.5261,58.1198,-44.4493,76.6248,-47.6705,68.9685,-35.8611,-65.1893,97.1580,-108.4184,48.3461
-3695.3125,-251.5013,-113.9045,-165.7603,-128.2773,162.4263,8.4194,42.2546,-55.1897,22.8956,-9.5435,-81.0941,-60.2285,98.6430,84.0698,81.4622,22.0325,-80.4963,327.8228,51.9245,34.0672
-3687.5000,-213.5463,-250.8811,-193.0025,-265.4075,283.4530,129.2319,163.4835,-7.6055,107.8326,-34.5735,-44.9811,-197.9828,182.6501,93.8234,169.6434,31.9247,-253.7917,261.4917,126.2756,-102.2295
-3679.6875,-345.9336,-313.1927,-299.5881,-291.8827,213.1310,279.7007,203.3698,180.6309,111.4156,43.0428,-129.1517,-195.0640,112.2896,170.2303,175.1739,109.4632,-351.4533,338.8054,134.2723,12.1188
-3671.8750,-363.6736,-366.8388,-351.5401,-345.7097,161.4489,300.8146,40.8946,166.5079,97.6372,65.2979,-150.0656,-210.4638,133.5696,228.3025,119.6047,130.6561,-229.4546,355.7793,221.9222,-75.8837
-3664.0625,-358.6026,-361.6782,-236.6860,-270.7364,239.5674,342.7227,157.2147,245.1670,103.6580,145.3407,-117.3829,-243.0405,64.6469,123.1773,149.0594,61.6407,-329.6547,290.5544,192.3702,-70.1038
-3656.2500,-465.1425,-363.1106,-277.4377,-201.3474,162.0782,301.0399,42.9256,242.2304,63.0656,104.7782,-172.3071,-174.1864,24.1094,82.4620,101.9622,131.0242,-155.4565,359.7498,227.2129,0.0813
-3648.4375,-229.7252,-302.5826,-100.2449,-212.0001,230.5241,185.3053,74.5543,90.2291,59.4065,27.1411,-46.3924,-217.3508,55.5193,2.7072,97.7970,89.3573,-95.2881,207.9118,218.0036,-114.7976
-3640.6250,-240.4444,-208.1886,-116.1823,-82.7927,214.8260,169.4242,95.0295,148.0725,43.5819,85.3386,-68.5294,-159.6433,2.7666,23.8027,88.3569,36.5336,-141.2771,196.9236,136.6327,-19.8351
-3632.8125,-187.4813,-190.0801,-132.4211,-99.8766,125.8123,80.2485,7.1873,22.6122,29.4397,-38.7699,-59.4649,-66.2041,60.6953,44.6120,57.8022,21.4088,16.4471,144.6522,154.9635,-71.1717
-3625.0000,-66.7091,-69.1673,-41.8475,-84.1692,105.5968,59.8686,207.1335,2.9423,121.0931,-21.0904,-24.5257,-86.9426,4.4189,-48.7745,116.2184,-72.9229,-74.0293,-16.8162,135.0968,-90.7291
-3617.1875,-150.4457,-12.7499,-97.7814,7.0406,-61.1251,114.0033,78.5830,58.7816,65.2375,-2.9082,-95.7750,3.8406,-88.3747,-31.6540,38.2167,-55.7507,86.9756,39.2299,156.7330,1.2154
-3609.3750,-2.4341,66.4290,101.0158,85.9916,-119.1112,55.8912,19.7666,0.3607,45.1233,-96.9926,4.4917,-18.5962,-73.4239,-89.7682,1.3045,-76.8281,165.7371,-92.9560,95.1256,-130.1001
-3601.5625,-2.4042,100.6282,205.8187,155.9457,-88.0906,50.7758,87.9512,32.9309,39.9975,-28.0923,31.6148,-61.0056,-115.4808,-95.8776,13.1716,-82.9195,59.4843,-129.1337,24.5110,-24.4279
-3593.7500,-23.2285,44.9934,145.7568,134.0676,-73.9300,-83.1824,-7.7337,-63.3554,19.0011,-13.0589,33.2066,-120.2230,8.5953,-44.8217,5.3280,42.1395,73.3925,-115.1390,4.0420,-9.6041
-3585.9375,34.6558,-1.9349,96.4059,16.8940,97.9310,-131.4385,127.2563,-74.9573,117.6904,12.6559,72.7733,-242.7186,143.3651,-57.0596,112.7382,66.8975,-148.9829,-161.4352,-78.7263,-21.1033
-3578.1250,-221.1197,-46.5107,-103.5920,-27.9213,81.1457,-74.3277,147.5939,18.7975,101.7182,69.7131,-58.7116,-222.8395,126.4660,0.0658,136.6497,123.0037,-160.0177,72.6354,-18.1477,109.7430
-3570.3125,-166.3100,-167.4814,-79.0031,-115.1367,143.9516,-49.6045,63.5088,-27.8493,91.3260,23.3538,-14.4137,-271.3284,152.1551,-48.1847,116.4484,75.7113,-71.4407,92.3254,143.0380,-10.8241
-3562.5000,-217.7335,-183.6992,-59.6561,-129.6082,200.5125,43.8753,193.1722,102.2502,74.6772,116.7416,-31.6439,-288.0451,61.5845,-65.6746,139.0312,58.1643,-192.1263,182.7603,162.9712,9.3394
-3554.6875,-295.7227,-190.4525,-174.8745,-68.6164,120.5086,110.8156,76.2803,96.8075,32.4676,74.5763,-106.0116,-184.2782,18.4461,2.2959,83.0559,88.0705,-60.3663,279.6630,190.3601,-33.0434
-3546.8750,-176.6546,-177.1478,-46.0485,-88.5717,176.5455,130.8025,96.4232,80.3970,90.3027,21.4401,-28.4705,-239.4336,37.3573,-15.6753,102.8089,34.0236,-80.5414,118.6194,169.8091,-123.3944
-3539.0625,-153.6374,-153.8789,-103.2683,-32.5676,83.5372,146.7382,76.5265,133.9324,70.0812,112.2467,-69.4627,-185.6090,-56.7989,38.3020,57.1688,50.9182,-94.7748,139.5359,157.2063,4.2003
-3531.2500,-28.5365,-169.4924,-78.3957,-117.4506,-1.3862,61.7719,-8.2911,49.5555,59.9407,28.1338,-23.9791,-161.6432,6.1309,63.3890,21.7260,75.9113,31.1166,90.5730,177.7010,-80.1099
-3523.4375,-40.8618,-111.5433,-20.9461,-59.7755,56.2401,82.3530,122.4234,70.7114,44.3344,13.5467,-18.4135,-140.1062,-47.3961,48.0231,49.8066,60.4486,-87.4364,77.1570,94.7347,-21.8873
-3515.6250,-216.1729,-145.5727,-96.4922,46.9127,-57.1530,42.9396,-27.8836,31.8660,42.7085,10.9550,-95.3769,-33.5401,-13.9412,118.6623,20.4150,130.9841,18.0136,147.7542,60.7582,49.3414
-3507.8125,-31.5167,-136.6429,26.9124,20.5522,-43.6158,-16.5227,23.7337,-27.0427,131.0128,26.2969,-2.0209,-92.9950,37.4536,58.2641,56.3353,70.4716,-7.5767,-18.6831,-0.2648,-46.4969
-3500.0000,-99.5555,-62.4016,21.6199,93.4948,-83.7770,15.3221,55.6583,42.3527,90.6110,58.9359,-42.5221,-59.1306,-39.8716,91.1689,40.2238,66.2554,-39.8886,-16.8025,-66.9857,96.9534
-3492.1875,-74.0688,-106.6098,13.8531,83.9911,-202.3903,7.7320,-97.8785,-38.7015,46.7452,-21.8856,-48.1843,-31.6855,-48.6586,120.6381,-30.1544,58.5894,195.3542,-26.3389,-7.1429,52.9501
-3484.3750,69.3649,-69.8725,165.0353,121.4288,-161.0364,49.0952,-21.4694,40.1868,14.8231,-16.7678,14.1201,9.7244,-191.4921,51.0599,-62.7678,-11.1343,92.5469,-58.9116,-3.3447,20.8735
-3476.5625,5.4806,7.5640,59.9156,163.5653,-192.9693,54.1727,-88.3569,45.7825,-53.4019,-10.9534,-59.1035,161.8559,-259.6378,130.1873,-122.6315,-6.1547,134.4250,54.2334,3.1554,63.4960
-3468.7500,53.8437,-83.7539,153.0377,70.9437,-26.6532,0.5037,-70.0132,-44.3828,3.6135,-100.9110,21.8008,182.2635,-131.5330,112.5751,-64.9900,-59.9210,76.5648,-3.3612,-18.0847,-63.6468
-3460.9375,-160.1252,-121.4134,70.8227,32.9731,38.3175,65.4863,-5.0169,58.0927,-3.7326,-35.2310,-52.6814,320.3450,-101.7871,177.6211,-23.9502,-32.0387,-137.6576,63.6842,-91.6814,38.8506
-3453.1250,-140.5982,-102.5612,-53.9071,-17.4857,24.7650,51.9772,-201.5420,8.0656,-90.5989,-48.0645,-88.1866,417.9687,-80.5548,238.1900,-117.7668,28.3491,-48.3704,118.2449,-106.7815,-11.1470
-3445.3125,-17.4019,-14.0498,4.0200,-35.2961,81.8490,72.1170,-108.4325,28.6728,-68.8217,46.7331,-38.4708,328.2714,-96.6798,185.4224,-100.7238,-24.6171,-205.4257,30.4495,-124.2265,-63.5146
-3437.5000,-83.8572,25.8215,-141.6997,-31.7540,9.2694,146.6174,-106.9647,103.6376,-140.7005,48.8774,-107.2758,365.9527,-131.4772,260.0146,-122.3768,-24.2371,-167.1412,176.0135,-119.3227,11.4674
-3429.6875,94.0268,98.0435,-61.0785,-29.8606,54.0253,118.4774,-210.1626,1.9475,-206.2361,-52.6403,-17.7259,337.0076,-87.9326,230.9615,-177.2538,-52.5039,-95.4924,106.9464,-117.0569,-127.2137
-3421.8750,144.2210,183.5684,23.8478,20.3285,65.0885,129.6458,-197.0501,50.5550,-229.4719,-3.8634,13.6822,312.3766,-150.0970,169.2076,-197.7081,-41.4808,-185.5530,122.1853,-172.4877,-41.6132
-3414.0625,106.2131,110.9055,-16.4344,17.3271,-11.0583,52.6242,-274.1523,11.9659,-195.9254,-80.2900,-3.1816,346.5803,-117.4840,92.2665,-195.1751,-44.6542,21.1905,154.2400,-69.1277,-44.2137
-3406.2500,141.6857,76.7002,97.7479,17.7836,66.2303,20.0545,-86.8355,-21.1898,-80.9510,-38.2899,40.7943,277.2604,-113.4285,-14.2165,-101.0757,-114.3784,-83.5980,49.7366,-103.3208,-113.3853
-3398.4375,-66.5834,44.7518,-88.8021,56.5019,27.7572,55.7396,-52.2731,51.9066,-82.7380,33.9476,-88.2919,312.2115,-151.1351,58.5538,-85.2744,-5.8542,-116.1407,158.4857,-65.2747,-4.3094
-3390.6250,-65.7656,9.9148,-83.2561,21.3252,-4.6266,23.5226,-157.6295,20.0865,-113.4429,-33.7342,-55.3095,318.3002,-36.7447,63.4399,-100.3030,-37.2345,-45.5683,123.3565,5.8725,-109.1425
-3382.8125,-24.7819,16.2345,-7.5449,62.2989,-1.8445,62.4530,-7.8357,59.4035,-74.0044,42.7180,-37.0633,283.5560,-109.2037,29.4759,-60.5973,-72.4774,-145.8576,93.3865,-57.8378,-32.8469
-3375.0000,-6.8087,-0.4398,-28.8430,80.2800,-169.0549,5.3910,-138.0465,2.7216,-57.5815,-14.8391,-48.0712,299.8350,-92.6705,82.5101,-100.3259,-56.7189,12.8448,111.4517,-40.5559,20.4494
-3367.1875,121.8727,-12.4118,107.5622,32.9535,-107.5567,-41.9703,-76.5764,-44.2777,-30.4770,-24.7202,53.7932,216.8338,-30.4325,-38.7567,-65.3913,-104.2656,-34.7390,-40.7666,18.4291,-26.5758
-3359.3750,-14.5451,27.5218,70.8705,73.5305,-106.1499,-5.4199,-39.1982,66.6245,-30.4836,49.2938,-4.3944,216.7514,-103.3050,-74.1136,-53.1451,-139.9181,-64.4385,69.9203,59.3098,84.2886
-3351.5625,95.7194,68.1609,43.8624,77.8145,-61.0581,-69.1577,-104.1354,-33.7794,-93.8051,-88.0050,31.2180,227.4065,-58.4842,-102.7491,-84.9333,-130.8647,44.5721,74.3234,28.8898,-16.1537
-3343.7500,223.4030,125.2013,138.2657,170.4979,34.4350,-84.4949,-8.6793,-48.7969,-108.7332,-65.9276,91.1067,212.4839,-110.2654,-152.9782,-75.7489,-145.4166,-40.0107,26.1161,-55.1271,5.7824
-3335.9375,98.3461,141.5015,78.9268,185.4430,-25.8321,-69.5776,-140.9758,-34.5622,-166.4214,-14.6124,14.2351,263.8371,-169.8138,-65.9547,-148.9068,-94.7197,81.6644,42.1642,-3.9012,56.9703
-3328.1250,200.1522,138.6609,153.4465,76.2420,12.7330,-105.8133,-104.4474,-69.4943,-92.2728,24.5335,73.4208,192.0583,-96.5169,-65.0783,-115.4805,-132.1732,42.2157,-137.9332,-6.8178,-52.0087
-3320.3125,146.9811,155.8277,91.9848,59.0467,-48.7022,-56.0503,18.0888,16.5703,-43.1318,36.6737,18.2746,204.2909,-157.2305,-88.2014,-74.9729,-81.6334,-46.2416,-120.0356,-59.7362,71.0009
-3312.5000,151.4063,90.5973,61.1135,-7.5396,-79.5503,-122.6820,-85.7873,-86.7697,-36.4029,-66.5967,35.4284,174.1448,-42.3516,-118.7136,-73.5767,-3.4856,98.9105,-80.5180,-55.0533,40.6098
-3304.6875,238.9899,107.5201,152.3997,10.0187,11.7593,-141.1687,42.4876,-104.9742,-17.5268,-48.7339,100.5428,119.1632,-24.3166,-137.0790,-22.9642,-95.1976,10.2116,-132.8520,-108.2183,22.3503
-3296.8750,126.7056,171.5962,68.8309,73.7289,-70.7817,-77.4961,-77.0791,-77.0247,-99.5040,-93.7191,31.2698,220.3522,-70.1417,-73.2910,-86.7996,-67.7588,108.6467,-0.0231,-114.2349,86.2448
-3289.0625,271.5750,210.8244,115.4036,76.5866,-25.1846,-105.6717,-142.5104,-141.9368,-127.3381,-121.5676,108.9650,194.7114,12.1812,-101.3419,-106.8171,-96.1650,112.2411,-66.0395,-146.1001,-50.7218
-3281.2500,202.1683,212.7560,74.6960,113.1430,7.1056,-36.1484,-72.2352,-35.1511,-129.4774,-50.7239,76.3240,153.7797,-29.8001,-67.6961,-84.3117,-98.8725,-28.4684,-30.3652,-179.2736,56.0017
-3273.4375,141.2607,117.1955,-24.5143,53.2102,-91.1265,-61.1178,-207.4760,-95.8672,-154.1290,-75.3952,23.5856,203.3725,-18.2925,17.4623,-134.6590,-52.0730,122.3340,85.8263,-63.9509,31.2277
-3265.6250,158.1257,63.3904,70.0370,69.0243,3.3912,-2.3395,-76.9803,-37.8520,-134.0403,-54.3407,56.1509,151.7263,-71.0279,-34.6299,-93.6101,-104.5332,32.8960,66.7751,-81.8733,-57.8182
-3257.8125,16.2926,62.8916,-8.1073,174.1440,-38.7752,66.7410,-118.1741,31.4644,-173.6644,-58.9904,-11.8908,184.3907,-112.4706,-2.4263,-107.9338,-72.7027,101.7429,172.0360,-83.4968,11.4337
-3250.0000,183.2523,55.1937,61.5400,95.0604,30.8578,25.6221,-159.5814,-45.4309,-178.5024,-98.8493,79.8219,107.8753,-43.1065,-42.4169,-117.7507,-150.0675,128.3952,58.1109,-21.3159,-102.5253
-3242.1875,139.1207,80.3936,120.0995,119.8701,89.4071,48.4086,-64.0814,13.5710,-119.4374,-39.8199,73.8994,57.2651,-95.8413,-57.5084,-76.9369,-127.5415,12.9353,13.0819,-66.2368,-6.6018
-3234.3750,16.6661,134.2855,28.3533,138.3826,-39.3452,29.9059,-191.8841,-41.7245,-172.6795,-130.0929,1.3521,112.3686,-77.8852,-1.8879,-126.8031,-36.3041,172.1799,66.7655,-47.4538,12.0252
-3226.5625,173.5853,151.5179,159.9628,155.2389,18.2511,-22.2478,-98.3510,-93.6830,-152.5822,-73.0336,91.2954,60.8308,-56.5803,-90.9096,-101.2222,-88.7129,82.7928,-57.2008,-100.3145,-77.0217
-3218.7500,84.0272,167.2573,60.0837,135.6021,-44.6483,-11.8971,-51.3106,-9.1372,-139.9897,11.5214,33.9911,72.8027,-46.7862,-79.4335,-75.9945,-41.6315,27.8966,-6.6651,-118.6813,44.4211
-3210.9375,174.4148,116.9560,46.1531,49.9209,-21.6104,-62.5975,-138.3297,-96.6540,-118.4533,-147.9909,91.9587,22.7438,85.9612,-94.0075,-64.7533,-55.5999,116.9659,-92.1719,-65.0983,-6.1941
-3203.1250,250.2167,123.0530,84.6450,55.6380,16.8310,-59.9026,-26.9459,-92.7830,-78.5144,-109.1159,118.3353,25.0845,51.1170,-127.1892,-31.1646,-53.1753,-18.5638,-85.2896,-129.1191,69.5757
-3195.3125,129.5571,143.7019,-42.3182,75.9149,-36.1865,-75.6516,-116.0092,-109.3592,-94.0349,-88.6886,28.9812,119.9927,33.8152,-69.8137,-64.0118,2.8073,107.4505,4.1502,-108.5934,89.9034
-3187.5000,189.4977,97.9458,25.3149,29.7908,31.3889,-82.8045,-49.4795,-79.3464,-100.9628,-58.6763,79.4482,77.5077,64.1196,-39.8297,-43.7029,-39.6079,26.0816,-40.8021,-119.4630,-26.1825
-3179.6875,79.8998,94.6348,-57.5939,61.1087,21.4229,55.5002,-22.4869,22.1212,-145.4402,-30.2172,9.4909,69.4712,-19.1311,61.6012,-57.6972,-12.5708,-48.8460,24.6888,-122.8775,75.1760
-3171.8750,103.6039,48.6198,-29.2051,14.7232,13.7396,11.1138,-176.2070,-59.1130,-189.6270,-147.4677,57.9484,62.7489,82.9106,17.3454,-92.9910,16.7738,80.5450,14.4887,7.0107,-6.1657
-3164.0625,106.9802,17.2596,47.8574,-17.0141,89.7033,14.3695,-27.2829,18.2884,-114.1703,-35.0784,77.3297,-7.3149,49.6016,-53.2597,-30.8220,-17.2405,-21.4007,-88.0769,10.5462,-2.8780
-3156.2500,-47.4499,-31.8911,-115.8678,3.4662,-1.1398,33.8247,-45.1568,37.8909,-93.5239,-15.4917,-30.1857,49.8289,31.4843,3.3355,-24.6072,38.9477,69.8602,3.5610,67.2682,53.6124
-3148.4375,61.8831,-27.2926,-34.8362,-27.2957,43.7583,-30.9765,0.7004,-63.7730,24.8607,-80.1708,23.6020,-14.2682,76.1264,12.6789,22.9177,46.8829,37.8906,-98.0430,35.7431,-48.1617
-3140.6250,-18.8654,32.2066,-87.8924,31.8404,26.5724,25.1249,93.4714,29.4599,45.1467,13.0437,-30.2740,-30.4673,21.6682,31.9140,50.6886,66.7128,-113.1953,-71.7450,-44.8891,81.9513
-3132.8125,-16.3290,36.0024,-157.6601,-35.7294,-79.3129,-7.4678,-50.4555,-40.0067,12.7225,17.5478,-46.8846,-26.3579,99.5098,73.4596,1.4129,107.8486,-5.9792,-104.1263,-42.2209,49.3628
-3125.0000,50.7176,-3.7136,-52.9160,-74.8096,26.3142,-11.5542,56.1202,-6.9845,82.7960,50.5378,24.3651,-101.7601,130.8630,-41.4959,68.0732,66.4788,-150.2616,-144.0066,-81.0491,45.2536
-3117.1875,-202.2903,-9.4839,-174.2184,-46.9353,-59.1041,49.3227,6.6562,53.9957,-3.1828,74.4751,-94.3874,-3.2138,81.1621,20.5085,33.9735,127.0570,-87.5959,59.0684,-16.9347,143.0967
-3109.3750,-180.0967,-23.0565,-145.3181,-60.8616,6.6694,43.4005,-37.6214,11.1637,27.0315,31.5972,-72.8247,-10.4590,110.6644,50.7179,33.5046,82.8361,-66.7075,11.3431,39.3821,-10.8704
-3101.5625,-183.4392,9.8198,-76.9442,-28.3374,38.8984,75.9227,104.5624,80.7787,22.6945,101.1637,-69.1718,-14.2564,32.6177,46.3680,58.6415,79.0600,-138.3746,9.0539,2.1454,21.6002
-3093.7500,-86.0352,-32.5504,-82.8270,-35.0577,-4.1284,-3.8064,25.4971,1.1416,17.1033,21.4755,-37.4625,-56.2986,62.3191,40.7671,35.6987,72.0449,63.7153,1.5202,64.6561,-21.1752
-3085.9375,29.8929,-128.4155,77.7978,-95.2821,82.3459,-27.0460,184.9275,-22.0107,141.0069,-1.7264,54.6681,-188.8453,75.5370,-56.3403,124.6489,11.5280,3.3138,-129.5252,110.6660,-81.4671
-3078.1250,-84.5717,-101.6738,-9.9652,-34.9018,-5.5700,-4.6837,170.9667,37.4345,89.5102,57.6709,-23.1666,-127.7964,24.3570,3.1427,98.7367,71.6065,64.5038,-32.9811,66.2693,14.8450
-3070.3125,67.7083,14.8118,7.0173,11.2283,-25.7467,-24.5788,3.7442,-55.3780,33.7583,-35.1955,35.3583,-110.9883,77.9360,-16.6164,28.0411,14.4447,145.4601,-91.6843,42.6217,-115.0937
-3062.5000,141.0149,124.2936,45.0215,49.3489,-23.9194,13.5215,115.5286,55.8010,35.0046,38.9315,52.0566,-109.1883,4.5237,-88.3760,38.4257,-20.7198,7.4089,-124.4051,-25.0317,-77.0456
-3054.6875,62.7166,117.1732,-111.5747,41.8694,-107.7024,41.0262,-4.2824,10.3844,25.6467,-6.5387,-31.3491,-43.9918,-4.4941,-23.7234,-3.2605,42.5221,140.7633,-60.7232,37.7146,-49.5898
-3046.8750,221.9702,99.5923,-17.6052,23.9313,-86.9377,-11.9265,52.4579,-42.4968,83.8426,-22.4713,37.7325,-96.2572,15.0445,-3.5199,16.7492,63.3169,87.6837,-219.4971,-14.9826,-102.5992
-3039.0625,90.4719,39.2510,-14.3702,34.2427,-156.9135,-8.6288,55.4770,33.8728,87.3006,16.8535,-18.8293,-55.2856,-56.1641,36.9222,9.8108,139.3608,96.8412,-139.0300,-40.4376,47.6419
-3031.2500,-8.2202,-24.2893,-4.3388,-29.6500,-148.0988,-72.5346,28.2908,-66.9680,96.5557,-10.0372,-18.5975,-82.5117,63.4347,47.1611,39.6134,149.2118,138.8118,-132.7607,-33.0927,-16.3121
-3023.4375,-0.1920,-17.1328,75.4048,-57.8511,4.4260,-66.7517,180.8112,12.8769,102.5163,69.7569,37.8851,-148.0478,105.7489,-20.9113,112.1422,44.7587,-65.5196,-159.8012,-130.0446,26.4238
-3015.6250,-46.6308,7.5699,-11.3062,-68.5000,-45.4978,-78.4118,57.8913,-36.7201,91.0237,20.1042,18.8621,-123.0378,166.6125,-69.4345,95.3766,-5.1416,29.6967,-30.2794,-36.4471,50.7182
-3007.8125,19.0263,-66.6403,138.0852,-144.0555,103.6796,-76.9735,96.0693,-71.2290,129.6315,-14.4571,105.5006,-158.9368,204.5903,-141.8596,129.6225,-76.9438,-10.9650,-104.6505,29.2519,-94.8988
-3000.0000,-40.8609,-57.4110,69.9429,-99.1580,109.3183,2.9196,175.7134,45.7143,98.6884,65.4292,48.3327,-114.3972,100.0198,-98.8340,123.7282,-71.3032,-107.1816,-60.5732,74.3900,-15.0706
-2992.1875,100.3334,-56.0828,-36.1041,-98.1513,39.0474,-30.0768,31.4486,-24.2379,102.8350,-78.5883,50.2458,-110.7556,103.5493,-94.6942,66.5191,5.4441,33.7140,-59.3879,180.6268,-85.1411
-2984.3750,147.7976,-78.5084,12.1118,-121.8990,51.0310,-17.8254,190.4353,-11.9485,225.2317,7.6352,52.0149,-170.8797,41.3430,-82.3110,124.9302,17.4426,-94.1342,-152.9654,193.1101,-72.9809
-2976.5625,-106.4382,-120.6353,-110.3735,-128.3412,-35.6871,5.7366,177.7367,48.6494,249.9299,68.1630,-93.7396,-108.7189,-45.5629,15.3667,119.7967,78.7479,3.3076,-55.2463,220.8922,24.4846
-2968.7500,-0.1725,-121.2732,4.6383,-164.2949,-29.9084,-62.2079,182.5361,-19.2650,255.1324,36.1821,-11.0184,-177.0714,33.0456,-52.4510,132.7039,46.5587,38.2632,-160.0289,186.1745,-80.5574
-2960.9375,-67.7966,-82.8207,2.7721,-125.1626,-33.0117,-28.0611,254.4626,51.9178,253.4488,144.3022,-41.1354,-141.3441,-6.2332,-91.1782,151.5295,44.4608,-64.6918,-120.7305,48.5514,27.4948
-2953.1250,-92.4312,-107.3803,-22.0909,-81.0279,-167.1193,-89.9108,118.3862,-9.9013,191.7607,83.4165,-40.3299,-92.6252,78.4901,-79.9064,109.9323,56.3711,86.3662,-111.4274,58.9279,2.5579
-2945.3125,36.4971,-48.3969,77.6142,-93.3466,-142.6742,-100.2197,217.8561,-20.1811,217.6216,109.0664,32.9422,-139.3739,104.7801,-90.0946,142.0186,-28.1694,-31.0072,-192.5866,11.8558,-44.8420
