Time,Fp1,Fp2,F3,F4,C3,C4,P3,P4,O1,O2,F7,F8,T7,T8,P7,P8,Fz,Cz,Pz,ref
-4000.0000,-108.4466,-58.8737,-132.6260,-63.5503,-75.2443,-136.4227,-12.3512,21.8542,79.5437,133.2758,-46.5788,13.5994,-28.6939,38.4213,33.3292,84.1037,-63.3823,272.6938,-1.5152,61.2563
-3992.1875,78.6113,-52.3945,141.1452,-51.8239,126.3968,-81.7447,228.3997,-68.0211,210.5448,7.8459,229.7424,-39.2170,169.3506,-88.3743,237.5322,68.0625,-16.4582,-1046.6644,12.2899,-65.3250
-3984.3750,34.0344,-3.3031,16.2828,10.2676,-34.6020,12.2884,30.5115,-117.5653,-23.1190,32.7535,-78.5920,-16.6697,-39.1380,-27.8256,-33.9444,55.3550,-200.2083,498.3976,-205.5818,68.4320
-3976.5625,-20.9491,20.1823,-38.9937,131.9639,-89.0138,139.9311,-59.8093,-61.5138,-38.1910,-92.7602,124.6755,41.4952,71.7539,-7.6867,171.1796,76.2417,166.6774,-570.9145,22.1566,15.7847
-3968.7500,117.3939,85.8755,106.0623,200.9454,-54.0923,211.8717,88.2063,-23.1635,-109.9530,-52.9850,14.2718,42.9536,-24.4498,30.7370,-48.3730,41.4214,-116.1390,-427.0633,-49.7966,-19.5874
-3960.9375,-57.7652,91.2410,-117.3957,201.4121,-312.6803,282.3097,-279.2811,86.6921,-219.2374,-52.7149,-133.6506,115.9121,-180.8308,140.6600,-195.4536,79.0928,25.5278,422.4475,22.7405,53.5418
-3953.1250,38.0247,43.4846,140.1041,157.8226,-54.3065,282.7094,-20.8082,125.5049,-69.5657,-11.5103,161.4032,7.8303,44.3029,69.5302,27.4398,8.7073,194.1849,-1164.2360,227.2516,-164.4033
-3945.3125,96.5843,52.5424,198.3751,75.9820,40.8425,193.8566,2.4415,2.0599,-192.1373,13.4329,-35.7969,-78.4986,-59.0521,19.1364,-242.9344,-76.9426,-63.4331,271.8447,5.4974,-103.6144
-3937.5000,49.8853,37.1158,223.3791,29.8914,103.7245,218.7520,-80.5863,29.3607,-163.9683,-215.8939,174.7568,-51.0592,81.2616,46.4781,-68.5688,-122.8495,277.7269,-473.2459,171.4930,-113.0762
-3929.6875,240.0130,39.8003,386.2193,9.6019,341.4342,160.4519,231.2026,-26.5407,-71.9913,-270.4510,155.1478,-143.8110,123.4619,-9.3929,-87.3843,-103.9696,-24.2945,-734.7072,47.3005,-131.7601
-3921.8750,43.0577,22.5408,61.9655,-10.7813,55.0374,131.0529,-54.1229,-16.5564,-207.1459,-149.1277,-56.5741,-60.6620,-57.2268,74.6230,-224.3354,-20.1996,-44.4335,551.8839,-43.0164,25.4570
-3914.0625,17.0544,-34.7358,113.6680,-1.2126,144.5956,108.6128,147.4942,74.3822,30.6519,17.1132,180.6870,-42.5511,116.8936,91.5788,86.6854,-2.4942,106.4224,-1087.6837,143.6354,-104.3949
-3906.2500,25.1300,-41.4775,81.4589,-28.5917,76.2289,39.2209,190.1931,44.3599,1.4983,171.3946,-107.9949,-110.3856,-47.8594,61.5668,-128.2484,5.2465,-236.6892,156.7591,-58.6811,-24.2195
-3898.4375,-81.6954,-38.1097,-68.6632,-29.8691,-38.0569,34.9338,40.9675,79.4322,37.4254,-12.2398,36.4125,-38.0982,19.5638,22.6466,17.8955,4.0740,113.3180,-121.5942,82.0940,11.0544
-3890.6250,197.5614,19.0688,189.2987,4.9119,185.7312,110.7096,264.8138,9.5451,78.4138,-154.8598,186.9059,-107.7541,133.1217,-84.2477,58.1096,-65.0698,7.4157,-856.0811,11.9355,-58.6505
-3882.8125,51.2947,84.7222,-5.2699,106.1490,-45.0258,134.9450,-38.8877,-0.9135,-187.1755,-90.0588,-80.1650,-6.9537,-81.4563,-55.7127,-208.2603,-37.7856,2.9536,622.0023,-96.7965,79.0888
-3875.0000,38.2834,84.1279,23.4208,198.6504,-15.5308,238.4494,28.6368,67.8763,-81.5388,-93.0363,97.0393,25.1155,42.7846,-24.9401,43.6210,-5.2651,272.7954,-898.7327,172.7350,-72.9384
-3867.1875,76.5017,111.3109,63.3585,202.3565,-11.7963,241.1673,144.3893,72.8582,-149.7013,-13.8374,-191.5366,-5.6179,-119.5268,-19.9824,-208.3023,-35.5649,-40.1738,-46.3588,36.4630,-67.7962
-3859.3750,-56.6305,82.8507,-78.0549,139.7169,-151.4129,283.5436,-106.2327,154.4801,-213.2347,-78.0222,-147.4722,2.3092,-115.8678,24.6159,-163.6020,-27.2295,249.5172,107.7881,256.8250,-23.0096
-3851.5625,103.3682,16.1550,203.6604,54.1752,131.1028,308.0344,215.2532,181.1974,-76.6684,-50.1435,61.7312,-154.6631,66.9747,14.3028,-26.7758,-36.8074,128.3460,-994.1498,312.3015,-143.1501
-3843.7500,-30.9557,-19.5363,20.0460,-9.7152,-15.7116,271.1772,33.3955,183.5468,-182.4736,26.3738,-119.4322,-150.9826,-102.4688,53.6266,-317.3255,-33.7544,-110.1973,600.6468,109.4010,6.3502
-3835.9375,-108.9299,-55.6671,15.7805,-16.2488,53.8223,302.6856,66.8610,254.2451,-37.9411,-84.7843,133.7664,-80.9362,76.1293,50.2848,-26.5187,-35.3652,199.6485,-738.2281,243.8580,-69.8111
-3828.1250,34.5326,-21.9749,127.9650,21.6239,204.7901,194.6024,181.7533,148.3346,-70.0060,-43.5721,27.4003,-113.4896,42.1770,-18.6847,-133.3053,-30.5939,-149.1005,-203.8343,-33.2930,-65.5995
-3820.3125,-143.0426,-12.7383,-61.8964,55.4542,50.6952,113.4700,-81.4317,106.3647,-147.1457,-84.4284,-88.0309,-8.0814,-24.4410,12.2833,-101.1742,38.1129,26.1031,397.6539,-34.5199,39.5580
-3812.5000,-22.8978,-66.1018,104.9668,-35.0042,256.3196,24.0514,235.0911,92.0901,96.4175,13.3819,117.2661,-57.9610,132.0601,-38.0643,105.6796,61.4979,6.0613,-1025.3374,51.9748,-84.6149
-3804.6875,-75.4078,-62.0124,-29.8310,-53.1634,85.2694,-111.0668,137.9432,32.0969,0.2618,248.4524,-126.1379,-80.5463,-66.7820,-61.1378,-174.1886,39.1509,-221.6862,580.0044,-210.2471,39.4951
-3796.8750,-108.5031,-57.7619,-27.2189,-15.9177,52.6194,-34.7748,33.1642,37.4942,153.4769,70.8724,98.8782,-1.7202,81.0664,-56.8318,124.3342,8.1810,132.0149,-468.2255,-67.0654,7.9974
-3789.0625,122.2442,7.0336,142.2454,6.1460,111.8036,-13.6620,241.1990,-49.3233,178.4802,22.0636,48.7288,-14.0844,62.7104,-141.7479,74.6664,-4.0135,-161.4668,-407.8236,-220.0859,-4.7325
-3781.2500,-40.2421,-5.2452,-142.5327,-15.0155,-172.2689,32.2199,-43.0400,-2.4083,41.1960,106.9851,-88.6968,32.3126,-72.3224,-132.9309,-25.2873,42.5226,-113.2047,630.4666,-170.3861,115.2840
-3773.4375,16.3412,-70.0044,-4.2372,-100.1173,-33.2826,60.1715,170.7667,101.5506,219.9625,138.9175,198.9556,-9.2292,120.6111,-66.0809,225.8236,1.0931,14.1603,-997.3375,97.3815,-37.6723
-3765.6250,-44.0845,-66.1316,-69.9461,-88.2720,-135.3157,140.0834,68.5478,110.4477,45.6661,147.7821,-50.4431,-37.8277,-49.4440,-21.2999,-60.1341,9.5958,-255.5439,424.7947,-66.9145,44.3006
-3757.8125,-188.5528,-65.0490,-146.6992,-58.4690,-211.4003,283.9626,-80.7522,219.2852,8.2896,0.5618,95.1093,35.5349,19.7916,14.4184,49.8424,-27.9706,162.7302,-209.0590,140.7363,6.2169
-3750.0000,7.4158,-20.3443,136.9937,-2.2548,35.9571,310.2642,168.3677,137.5139,37.3108,-81.3081,123.1026,-9.7025,85.5474,-30.4830,41.2385,-109.1635,-27.5712,-710.7023,57.7909,-112.4997
-3742.1875,-129.0383,12.1068,-49.7446,36.5142,-112.1244,271.1263,-125.9702,63.2754,-146.1443,-117.6552,-62.3719,64.6054,-62.2463,5.1453,-142.8502,-72.8254,11.6657,598.3304,-44.6300,-2.6725
-3734.3750,-86.5744,-20.6861,75.4344,45.1899,86.6998,247.9094,36.5786,78.9375,17.2919,-174.1348,211.0765,43.8221,141.2861,20.6595,129.9748,-56.6083,231.8519,-1007.8461,105.8627,-133.9646
-3726.5625,-24.4142,16.6731,63.3144,71.5244,112.2090,162.3542,99.8008,-4.7674,-65.6405,-146.9950,17.1882,33.6875,22.5105,-26.2003,-100.5615,-102.7680,-128.3238,149.5706,-148.0130,-70.6278
-3718.7500,-79.5410,18.8614,-68.0983,52.5673,54.4093,103.5097,-104.3051,-61.7828,-10.9123,-203.1909,143.9884,88.2658,75.0066,-83.3777,26.5818,-122.2522,170.2290,-41.2134,-25.1965,-53.5938
-3710.9375,151.3211,1.7733,178.4785,2.5685,265.5907,55.6308,143.5579,-107.8578,89.7696,-138.4754,281.7706,-31.2080,189.7956,-92.6217,127.6984,-167.8060,14.7676,-897.2498,-40.4118,-173.6425
-3703.1250,28.6674,21.8591,7.5310,-14.9697,57.2313,-42.7846,-100.1320,-94.4992,-79.1244,-49.3393,37.9851,20.7631,-34.8301,-5.4311,-188.7648,-116.9321,-72.2613,637.2675,-162.2089,-49.2494
-3695.3125,57.5288,32.9748,116.0972,13.9986,129.3766,-44.6791,46.6551,-94.6458,68.4588,-159.7292,294.7203,57.2397,133.7009,-6.7602,68.2808,-153.5810,273.2618,-877.7824,43.5096,-160.3725
-3687.5000,184.8818,86.6683,211.1707,71.4347,152.0125,-134.1016,179.9204,-255.3585,92.4814,-172.7018,206.9306,44.1646,83.8739,-130.6738,-56.2258,-203.8100,-55.7572,-42.4990,-180.3320,-137.0765
-3679.6875,45.3524,106.4851,63.3601,107.9909,-31.2527,-61.4011,-113.7475,-253.9944,-53.4333,-208.6335,281.2278,156.1996,94.9244,-167.5138,18.3352,-202.9643,228.3483,174.0115,-72.0931,-99.6834
-3671.8750,240.0056,117.2312,273.7437,55.7136,215.6631,-35.5184,171.7411,-227.4949,47.7969,-290.4618,345.7093,110.3840,201.1757,-140.2251,157.0652,-247.9931,211.6547,-1069.5244,52.3095,-256.1692
-3664.0625,236.4994,173.0732,152.9597,16.2458,21.4056,-46.8229,-22.9645,-237.2108,-108.2021,-372.5020,3.9778,138.3628,-41.5410,-76.1545,-147.4366,-257.2469,32.7377,582.7989,-56.5222,-118.8686
-3656.2500,235.3120,193.2238,154.4851,16.0881,24.4482,65.1934,-93.4028,-87.6338,-30.9340,-479.2764,191.5605,215.6476,73.8943,-73.7937,76.3572,-254.2175,419.1607,-680.5876,189.9417,-189.2772
-3648.4375,374.3214,218.7019,301.2111,49.0922,171.6819,64.3793,18.3287,-123.9155,-66.5235,-404.9326,118.3172,143.0786,27.0560,-73.3020,-106.6935,-253.0643,136.7456,-361.9709,47.5490,-225.5621
-3640.6250,192.7505,195.8586,34.3429,43.5072,15.3082,127.9790,-248.5686,-94.8158,-147.7458,-412.2107,73.4569,171.9071,-44.1605,-8.4236,-188.3754,-261.5276,306.7338,374.1806,112.5299,-160.4478
-3632.8125,269.1571,144.6268,267.4551,13.8758,358.9091,102.5476,59.4873,-118.7718,12.9810,-472.5744,270.5848,112.6801,168.0663,-31.6108,45.9170,-284.0598,313.7162,-1092.8909,189.4755,-294.4101
-3625.0000,254.7582,177.6523,170.7610,-0.6035,263.6866,-30.7288,-36.2862,-214.5974,-192.1644,-345.8062,-82.1442,128.5905,-25.8927,-53.6660,-159.6573,-232.4632,53.8279,479.2051,-70.4530,-132.2356
-3617.1875,198.0799,144.5186,75.7730,-22.3753,205.1529,-53.2949,-167.3923,-161.7334,-101.6347,-294.3735,153.8246,181.2051,89.9697,-39.0415,77.4610,-179.1861,349.6798,-383.9637,84.3222,-153.3608
-3609.3750,367.7454,140.6390,218.1281,-27.8386,347.9527,-95.5446,85.8256,-202.5777,-68.8003,-260.6698,224.1205,104.1099,124.4098,-80.1427,-0.1063,-182.6342,-8.1530,-492.0047,8.4060,-194.2106
-3601.5625,175.8823,146.6871,-25.0484,-8.8472,31.2033,-119.3373,-82.5147,-150.9854,-163.5475,-208.5422,-18.1589,157.4529,-57.7240,-27.8094,-132.2533,-130.6507,46.4530,586.5400,27.9149,-68.6087
-3593.7500,217.6416,116.9743,97.3992,32.7536,155.0687,-106.5052,151.7428,-100.8003,108.2993,-230.8496,142.1926,134.3971,120.9954,-88.8931,213.2229,-153.0911,159.7079,-986.4597,176.0373,-202.4260
-3585.9375,269.3894,179.0425,71.8418,48.3151,55.9155,-133.7048,52.9727,-162.6828,-25.9201,-291.2245,-103.5050,147.2820,-74.4981,-114.0500,-106.3650,-104.6040,-105.1038,439.4650,-88.9128,-80.3110
-3578.1250,140.4504,165.9045,10.5824,96.1957,-78.9531,-48.5819,-191.5332,-113.2829,-86.8754,-352.3241,93.0822,197.4762,10.5957,-101.9263,53.3250,-91.8354,259.4163,-108.2336,99.4339,-67.8940
-3570.3125,292.4056,143.8949,285.2202,71.9398,123.0621,-31.5837,83.8248,-168.0477,-30.9821,-223.6024,185.5497,105.5133,110.3672,-156.9687,108.8811,-146.2398,59.8201,-691.2828,40.6407,-196.6526
-3562.5000,151.7423,152.9243,170.2369,36.0415,-102.5610,-0.2208,-214.4796,-136.4798,-291.7702,-191.5461,-39.6564,138.8894,-80.2962,-125.6797,-153.2538,-114.3158,60.5609,719.1385,-99.8240,-91.0662
-3554.6875,197.9503,136.1812,297.1223,82.0024,61.6829,89.0166,-159.9486,-119.0657,-163.7185,-320.6798,236.0043,120.1101,105.3230,-108.5574,85.4762,-133.5613,318.2027,-920.6902,86.5746,-220.6442
-3546.8750,220.1065,131.8312,353.9546,68.8732,155.8646,35.1718,-66.4918,-208.7657,-216.7715,-262.9480,35.5708,68.2100,6.5442,-124.5543,-150.8928,-185.9290,-82.2630,194.3034,-102.1457,-163.3391
-3539.0625,34.7771,69.4486,158.2894,24.2539,70.5361,58.8437,-188.5726,-109.9810,-191.3613,-237.7317,97.6222,56.8071,46.6331,-137.0674,-51.7851,-123.8079,190.7893,153.9093,29.6112,-101.5284
-3531.2500,188.2370,39.2687,321.4195,-33.6067,270.9901,75.2823,123.1058,-56.4571,-26.2065,-219.7834,188.4551,-35.8529,170.9812,-156.8578,112.0962,-142.9590,97.6305,-816.9351,42.1312,-194.9923
-3523.4375,63.3307,76.7007,147.1770,17.1436,60.0548,47.3314,-124.6166,-83.3501,-198.4784,-173.2509,-132.1339,-24.9267,-45.0076,-147.0621,-135.4436,-133.5303,79.0421,785.9115,-117.7776,-37.8596
-3515.6250,76.2400,61.6065,237.7422,64.7054,150.9149,100.1989,-69.5626,-29.4517,-70.9727,-265.9562,106.0826,-43.1950,131.8943,-167.4716,139.8271,-152.3173,374.2983,-676.4901,71.1223,-130.9295
-3507.8125,180.9980,60.4025,309.1584,28.0785,222.6094,-50.1260,75.3192,-104.7727,-35.6807,-156.8824,-5.8836,-81.6808,51.6029,-170.1047,-45.0981,-154.3227,-48.6455,28.7925,-141.1871,-96.2162
-3500.0000,-13.7752,22.6049,100.0353,-26.0909,13.7485,-111.9910,-169.3765,-56.6600,13.0275,-180.3639,-31.4224,4.2761,-7.1564,-84.3120,-33.6015,-68.8970,108.8712,505.6550,-123.0672,25.9528
-3492.1875,70.4858,-13.5462,264.9522,-12.2480,179.9115,-95.8242,105.9300,-0.5574,363.7355,-235.8744,98.0645,-49.7763,125.9995,-103.5334,169.9124,-86.4953,52.4364,-779.6703,-74.9370,-65.9004
-3484.3750,-3.2584,-12.3582,-1.1424,-16.4359,-49.9571,-103.6807,-49.8124,-46.5233,539.3653,-133.4605,-276.5171,-56.8937,-132.5889,-110.8194,-59.6542,-58.1684,-161.0598,802.0069,-288.8877,36.1887
-3476.5625,-68.6828,-27.1302,-102.9288,22.6929,-40.5334,-23.2093,-3.2914,-0.2029,549.2681,-124.7744,-47.7970,-10.7177,19.3172,-140.8186,207.0731,-48.5573,194.7926,-387.0204,-74.5311,-65.4246
-3468.7500,156.9872,41.3444,203.3850,37.8797,117.9745,-49.6680,155.3010,-25.8500,-283.7787,-39.0496,-36.0062,-71.5144,62.8290,-91.7846,72.8639,37.0888,-106.2981,-53.1522,-235.1251,19.9907
-3460.9375,-39.0297,48.1000,-10.9925,52.3697,-132.2208,-43.8173,-278.8264,17.7907,-645.5585,76.9662,-101.9445,45.9785,-32.0784,-12.4581,5.9270,153.0212,49.8977,843.1575,-221.4357,209.7134
-3453.1250,-54.9777,-82.4553,92.7034,0.9190,8.6574,-13.8957,-64.9002,11.4812,378.7101,108.9967,76.1843,-70.4856,91.7558,-56.0921,257.0628,37.9869,104.1878,-752.6494,-61.6729,-16.5293
-3445.3125,-25.5866,-52.5961,48.7360,-41.2204,-73.1313,-95.6593,-35.6565,-70.5418,334.2602,175.3141,-225.3994,-76.6709,-115.1570,-64.4423,-44.5227,30.2342,-217.2502,685.8529,-242.6325,12.5188
-3437.5000,-9.9358,-6.2537,101.0159,-26.0981,17.3243,-81.1502,-129.1954,-17.3200,-309.9695,117.8696,48.2543,13.3841,62.2283,-11.5541,119.1359,82.7215,113.5856,-142.3503,-17.3414,-8.1800
-3429.6875,232.6488,15.3626,285.2351,-65.0654,237.7125,-155.7266,128.1912,-91.2033,-200.2939,118.3100,47.8296,-59.6830,89.1443,-48.7772,82.7201,46.0954,-170.6675,-388.8371,-127.1429,-81.9988
-3421.8750,48.1096,-24.3219,-23.6851,-75.1793,2.9473,-206.4474,-106.5862,-141.2539,116.2014,140.5932,-148.7753,-72.9198,-65.1992,-64.1621,-4.8753,32.3054,-109.0819,799.6662,-206.1163,14.0429
-3414.0625,145.8942,-8.6204,157.7111,-47.9849,147.4844,-210.8528,73.9248,-109.0116,2.9849,101.1611,178.9342,-38.8589,134.6548,-30.2637,212.8490,102.7967,94.8530,-823.6514,-3.7727,-99.6212
-3406.2500,179.9744,55.6522,113.3963,-50.5323,103.2968,-255.0046,30.7098,-115.5298,-443.9889,130.9802,-49.1151,28.4263,-26.7212,35.8726,-88.1837,132.5278,-222.9872,548.2412,-216.1989,3.9556
-3398.4375,55.6123,66.8607,-54.3736,-69.5222,-27.3595,-202.5927,-172.9865,-63.5012,-316.4325,0.3508,-32.6445,155.2458,-28.8732,51.5539,39.3256,75.8060,109.7331,179.7748,10.9124,20.0919
-3390.6250,253.5761,73.2523,194.1910,-82.2041,184.3054,-140.8617,110.6340,-147.1780,-69.5625,-156.9821,68.1476,72.3429,73.8006,-32.4793,103.1639,-7.6283,-43.2244,-534.5825,-2.6660,-63.4871
-3382.8125,137.4642,136.1669,-8.3242,-58.9758,-54.1264,-121.2101,-163.8536,-200.9774,-159.8155,-173.4235,-132.1838,202.3190,-116.3164,-50.6246,-134.1288,-62.1803,-19.2950,934.0729,-119.3682,65.8400
-3375.0000,188.9597,166.2019,52.7718,26.8687,6.0476,-24.9271,-66.7657,-104.1847,-25.4841,-187.2848,186.0910,263.8881,48.8199,-64.1788,73.1855,-149.1427,279.2903,-630.7526,72.5452,-94.2386
-3367.1875,206.9482,187.4429,107.3662,115.1784,-86.2925,27.8287,23.7936,-86.9540,-264.7187,-22.7005,55.8132,208.8800,-73.7829,-47.2919,-203.0593,-168.6734,-54.6866,267.7857,-122.0986,-76.8812
-3359.3750,3.4911,164.2467,-71.4931,157.0451,-264.0910,106.1519,-227.1235,28.8250,-296.4361,-90.5631,98.0576,251.4043,-64.8838,-42.8610,-124.7841,-162.6619,233.8916,346.9849,-9.1998,-34.9656
-3351.5625,133.2548,124.0689,216.8734,75.1169,23.3399,99.6955,23.1753,-88.1939,28.0563,-244.2338,276.5197,171.1061,99.6634,-160.2360,16.7229,-206.4619,188.6992,-681.8110,84.9272,-151.8690
-3343.7500,120.5960,160.7955,123.8104,26.7435,-32.6624,5.7967,-142.9685,-180.6728,-210.9193,-225.3432,36.4898,152.3339,-79.4978,-143.0674,-296.2475,-187.7199,105.0258,890.0297,-69.4154,-24.2189
-3335.9375,183.9371,161.3396,192.7429,54.3812,110.3313,110.9082,-148.1287,-113.1546,-251.9131,-303.4485,289.4515,111.5521,110.3035,-148.9015,-43.2071,-229.9825,450.3910,-488.1651,134.2553,-102.5657
-3328.1250,297.5138,162.4479,308.9128,96.2256,189.5598,78.2295,-32.0547,-145.4428,-283.6978,-261.3607,110.6236,6.9409,49.6882,-144.5497,-148.9556,-224.0568,34.9412,118.7140,-105.8759,-60.7246
-3320.3125,32.3433,109.0893,26.3233,77.3314,-19.9776,89.8108,-276.7461,-95.4946,-271.2532,-213.0284,12.0176,92.5618,-27.8747,-94.9532,-135.4773,-138.8841,157.7351,664.9866,-53.7798,61.3824
-3312.5000,107.8901,43.7248,146.4521,46.1527,211.1934,98.1108,26.2682,-50.8464,-42.1004,-203.9992,206.1269,28.8700,149.3591,-87.6640,93.7336,-94.0202,92.2632,-700.2195,21.0314,-39.8201
-3304.6875,112.2631,82.7258,-39.5957,48.7879,23.1665,57.2158,-123.9060,-17.4078,-191.1642,-170.1431,-90.9973,25.9515,-76.3669,-17.5757,-202.2710,-96.3626,-184.4431,958.4238,-186.3844,103.7819
-3296.8750,55.7874,99.2565,-96.5043,132.5811,-33.7307,110.4844,-180.9637,72.1808,-101.0966,-190.1229,-1.9807,79.1690,-16.6384,-39.3403,-3.1244,-80.5555,145.0263,-152.7602,72.3540,46.5441
-3289.0625,212.0427,120.8583,103.3283,112.0833,130.0999,15.4725,128.6980,14.4681,-85.3217,-64.4048,-278.2405,-14.9450,-99.7267,-60.4167,-96.2621,-28.0538,-155.7959,-31.4065,-54.2016,25.9958
-3281.2500,77.3086,119.4224,-190.8323,82.5963,-90.0795,15.4771,-127.6587,14.7402,-269.5729,-63.6829,-536.5377,22.9219,-245.8621,49.5007,-132.4295,81.4402,-78.6270,997.0919,-12.7787,172.4617
-3273.4375,155.0293,86.2511,-68.5290,89.5767,31.1962,61.9560,103.4281,98.4587,-37.3766,-53.5180,-304.3761,-2.7724,-56.3914,-14.1260,171.8736,56.3772,-1.9547,-577.1087,99.1164,73.3692
-3265.6250,68.7784,82.2615,-166.1986,106.5690,-138.5139,38.4533,6.5339,74.1683,-97.1920,69.6618,-549.2393,-26.4921,-245.9800,-37.7481,-107.8431,69.3094,-264.3090,919.6877,-129.0010,196.2739
-3257.8125,-99.2756,28.1767,-230.6787,113.7643,-277.0390,82.1667,-168.1897,156.0830,-14.8323,79.0521,-355.9213,-17.0312,-171.0179,43.8411,47.6339,114.4435,129.5492,224.7443,88.0905,168.3901
-3250.0000,64.9879,-11.0433,55.1653,32.2617,-63.2289,37.2005,117.4160,111.3076,86.8379,108.7460,-290.2955,-171.3014,-123.1637,71.7309,-33.5599,143.8765,-91.2961,-171.0777,41.4942,86.7951
-3242.1875,-81.9533,-26.3994,-179.1987,-10.4380,-188.6185,23.0504,-117.1839,132.3305,-37.7081,130.2521,-451.9125,-149.7953,-244.8106,93.4258,-194.9788,202.1085,-98.3780,1089.0347,-1.3220,219.0161
-3234.3750,-86.5495,-103.3330,-68.2198,-49.7844,-4.6569,95.2640,65.5547,205.7080,146.1013,204.1189,-194.1670,-185.9537,-33.7356,92.4739,98.9753,165.6921,36.9242,-497.6159,169.2375,108.5858
-3226.5625,-100.9077,-119.6582,-88.0109,-65.9398,-24.4639,38.6744,82.5236,148.2736,16.1153,331.2039,-399.2214,-242.9472,-162.4677,71.7172,-140.8674,181.4687,-329.6039,719.8893,-22.0115,198.3532
-3218.7500,-228.5099,-143.9329,-296.0602,-88.3489,-121.5353,86.8322,-51.7799,197.5827,65.8586,234.0553,-312.5442,-194.2171,-124.5067,83.7111,-17.9715,193.9939,-34.3775,417.2484,165.4834,210.8934
-3210.9375,-83.3456,-170.2287,-103.3323,-84.9970,70.1648,57.7500,250.6842,205.6447,294.3636,205.6596,-193.0954,-295.7661,-15.5907,54.4496,63.7036,129.2696,-241.3855,-350.8247,169.7449,109.1806
-3203.1250,-261.2261,-160.0023,-369.6512,-51.6874,-158.1917,49.6231,22.1000,233.6515,174.8033,271.2286,-459.7418,-230.3873,-232.5469,119.1444,-201.6971,156.4954,-348.4801,1126.1747,61.9364,247.4381
-3195.3125,-276.7141,-182.1490,-307.5836,1.0291,-59.1589,109.9128,119.9024,258.0612,236.6395,369.2127,-176.9949,-205.6229,-44.3027,69.2460,80.3230,182.1259,-48.1453,-472.4884,220.5446,125.1045
-3187.5000,-96.0308,-138.7955,-231.3405,5.8986,-19.9557,111.3658,121.8884,149.6172,-17.3652,556.3712,-322.1003,-276.7378,-134.2324,34.4939,-100.5008,183.9123,-360.6837,446.9017,-56.6987,163.9152
-3179.6875,-225.6581,-125.0419,-407.4139,50.4730,-233.0738,118.5292,-201.4445,192.8710,-83.6824,453.2521,-278.5420,-196.1810,-161.7113,150.4435,-55.6443,227.4022,-67.5288,635.1242,23.7552,244.4449
-3171.8750,-107.1282,-162.5523,-169.3223,27.1987,-32.0273,134.8580,72.3858,136.2857,190.1667,286.2997,-77.8185,-253.5051,-3.2064,130.5468,107.3942,208.0476,-160.2007,-511.6898,35.3901,151.1180
-3164.0625,-194.7411,-148.2093,-305.3740,10.7723,-278.1243,73.0481,-135.9242,74.5540,54.8475,261.2301,-287.2726,-242.0144,-186.4200,142.5079,-137.7434,218.5489,-283.0588,1160.4269,-192.1336,309.6538
-3156.2500,-206.8225,-153.8347,-240.8915,31.8987,-287.6831,134.8046,-219.7081,100.3817,118.0735,251.7221,-3.1836,-178.9918,-40.5488,167.0329,109.6789,245.6080,91.6610,-222.9197,-30.0886,225.7504
-3148.4375,-86.4394,-158.5768,-76.9392,45.4816,-196.7638,78.0288,-128.0063,43.6665,208.7693,379.6813,-59.6541,-271.5439,-93.4907,147.0157,-56.4333,226.1187,-246.1895,143.0474,-192.5851,169.2896
-3140.6250,-239.1154,-167.1046,-239.0622,33.0168,-322.9111,99.2071,-402.3669,64.9071,9.3989,400.6259,-112.2213,-251.1684,-147.2527,203.9512,-108.6167,246.5875,-12.1150,766.1100,-135.1382,226.8009
-3132.8125,-51.5524,-141.2180,35.0620,43.7993,-10.7981,116.6469,-126.4587,44.4117,-82.7066,308.8489,125.4729,-270.5693,62.3179,221.1475,92.4828,227.3148,69.2351,-733.7440,-18.4077,97.5612
-3125.0000,-50.7824,-81.2512,-43.6058,43.7827,-90.4751,36.2939,-207.3239,-35.8851,-273.6088,228.3003,-138.6569,-240.8086,-120.3396,213.5549,-208.2315,220.2506,-141.2561,849.6422,-229.4953,237.5320
-3117.1875,-147.6799,-137.1577,-141.9453,-17.8732,-114.8216,11.3001,-194.8722,49.1729,-41.1667,240.0979,57.5572,-192.7148,9.1088,151.3222,61.4082,195.5477,113.6226,-160.5851,25.7775,175.8733
-3109.3750,-70.6600,-197.5910,-59.3649,-82.6277,39.7544,-53.7892,144.5036,20.1316,151.1926,433.8142,28.6800,-294.7460,26.2943,85.9953,32.9785,203.7479,-231.6027,-224.0714,-110.0404,111.1114
-3101.5625,-258.2471,-197.6148,-298.4027,-58.9822,-198.2927,-36.4809,-93.7298,39.4885,22.9357,378.9782,-99.8417,-239.4011,-82.3554,140.0835,-57.0776,185.3607,-137.4561,785.9902,-122.4727,239.7749
-3093.7500,-130.6509,-177.0141,-87.2483,-4.1310,12.8514,26.0397,116.2383,-7.9414,85.8890,185.3705,183.8457,-249.8725,147.2778,93.3867,226.0934,139.1855,58.9201,-775.8831,38.3237,119.6439
-3085.9375,-99.5965,-150.3076,-95.6330,-7.8245,-68.5403,-18.9857,34.6889,-53.9193,-32.6931,251.2371,-82.0389,-295.9261,-12.8665,48.1513,-2.2935,129.4650,-225.2914,628.6871,-141.4382,220.9682
-3078.1250,-237.5169,-187.2404,-202.9960,-41.4694,-175.9029,21.0470,-145.8239,23.1590,80.7742,328.1748,68.1007,-219.9499,52.5368,49.9817,184.3696,132.8035,127.5507,-71.6159,70.8610,187.3637
-3070.3125,-87.6324,-206.7471,-4.5469,-68.3108,-14.4533,-2.1064,162.4946,37.0460,169.0709,417.9320,156.0478,-315.1989,113.8418,27.6231,162.8662,74.9494,-108.8063,-589.2972,44.9843,55.5596
-3062.5000,-242.8006,-195.5873,-209.1640,-83.2024,-219.0735,13.6917,-42.2409,51.8874,74.3036,359.6695,-86.0950,-263.5165,-46.6801,42.2285,-4.7130,53.0563,-123.2534,768.1123,-5.9552,180.7321
-3054.6875,-214.4379,-209.9102,-64.2483,-90.5379,-74.1528,83.0602,101.5613,122.2947,218.0876,209.9758,130.3145,-230.3023,137.7112,75.3945,286.2781,49.7279,114.8788,-892.0212,232.6900,67.4657
-3046.8750,-159.4715,-162.4986,-83.7251,-72.2735,-93.6084,63.0393,118.9996,65.3126,51.4868,264.9183,-72.6948,-213.5238,-25.5463,92.1769,-26.1277,67.0087,-217.4254,288.3820,4.9420,121.8007
-3039.0625,-279.7396,-155.7712,-247.4392,-52.2096,-183.2843,82.8275,-117.7814,85.1437,-0.3196,175.6996,21.0560,-119.9628,-9.9872,148.7826,30.2562,87.1051,84.0591,133.7005,130.9967,141.9589
-3031.2500,-118.4122,-189.7290,-0.5496,-67.5415,100.6565,36.2236,166.0673,75.5872,172.4984,203.0955,193.4278,-204.8204,149.2264,137.9992,167.2752,40.8085,-104.8478,-829.5690,80.6782,21.7158
-3023.4375,-284.9388,-204.1896,-181.5188,-93.7219,-81.2514,-35.2309,-51.9238,40.1773,64.4558,278.6668,-98.0836,-166.5502,-17.4724,139.3803,23.4286,78.6686,-237.6516,763.4205,-86.5074,170.6445
-3015.6250,-289.0429,-204.3784,-182.0625,-28.4516,-8.7238,-1.2242,-16.4738,112.2260,246.8722,131.7062,156.8488,-94.8442,151.3909,138.2304,316.0550,114.9934,39.0178,-753.1863,48.7806,96.0373
-3007.8125,-143.6933,-139.4479,-107.1434,45.2681,66.2692,-34.7689,58.4667,3.7287,138.7703,134.2279,12.2245,-93.7185,68.5535,102.5451,134.1462,79.7823,-342.8857,26.5562,-192.4776,134.8817
-3000.0000,-260.2180,-134.1885,-268.0998,-0.8537,-93.6142,-87.1606,-175.4555,-47.6097,87.8084,193.9251,-3.2868,1.5436,23.0892,51.0255,156.3678,101.7362,-107.6529,366.5806,-133.5914,193.9019
-2992.1875,-12.0520,-120.0117,33.6515,-103.2696,135.2090,-151.8431,163.3389,-149.2366,280.5664,203.3461,187.9219,-27.5129,168.5753,-14.7837,313.3186,37.3961,-105.6958,-895.8742,-61.9724,55.6191
-2984.3750,-33.4418,-73.8866,-106.1439,-126.2330,-78.5232,-220.0706,-13.3961,-180.4099,102.7745,136.2639,-62.4499,14.8544,-41.2909,64.8675,25.7017,44.5155,-304.3347,771.1901,-224.9148,208.7985
-2976.5625,-125.7577,-92.4687,-163.8609,-114.0953,-136.1818,-94.1832,2.9490,-54.4693,192.0931,6.3074,135.2697,102.3099,76.2617,116.6433,261.1926,95.7509,-9.8507,-481.6550,103.2637,151.0925
-2968.7500,-69.3177,-113.8088,-102.8070,-93.2036,-75.0784,-106.5305,247.0747,-30.7606,216.1842,178.1269,12.7428,-19.5075,13.0793,67.1862,102.4453,120.7447,-339.6313,-142.8911,19.2125,102.1316
-2960.9375,-191.9466,-65.9408,-306.8208,-75.3602,-353.0476,-53.9162,-66.8655,57.9090,85.2014,195.9337,-81.8729,68.6144,-107.9207,45.7047,9.6169,99.7008,-75.4868,578.9651,107.1033,155.1430
-2953.1250,32.4085,1.9153,-27.8400,7.4884,-183.0119,40.7146,139.1986,117.6022,182.2300,145.7591,86.5238,53.7271,9.3556,31.2381,141.8161,12.6741,42.6812,-990.3442,226.0306,-42.8457
-2945.3125,35.1630,49.5697,-100.4529,10.7318,-330.5630,-33.2535,28.6905,116.7002,34.6669,257.0107,-207.7010,52.2120,-230.2776,68.1868,-225.5917,12.0611,-199.8049,596.7772,18.3508,30.5771
-2937.5000,-54.9178,33.4074,-119.8996,25.1690,-275.9292,-15.0138,10.3586,209.0135,89.3068,18.4793,-6.7408,105.8877,-75.4605,122.3615,13.2039,30.6645,130.9172,-372.8555,243.8892,-24.7781
-2929.6875,104.7399,32.8912,85.4079,8.3596,39.4816,-67.0131,252.8141,120.0918,148.7227,-69.2706,14.9816,17.2886,8.8020,33.3081,-1.2246,-20.9700,-131.6153,-493.9141,122.2055,-76.3891
-2921.8750,-69.2246,61.2577,-138.9082,78.9504,-110.7199,-72.6097,-46.3282,78.5769,-3.4671,-36.5898,-136.9347,85.0683,-114.3753,-8.3317,-152.2743,-26.1931,-25.7852,667.5751,86.9096,29.4243
-2914.0625,34.2418,44.1991,88.2060,77.9914,152.5286,-28.7490,144.9822,48.5271,114.8075,-101.4555,199.6116,54.2938,100.2788,-1.4993,38.1555,-55.9542,184.5205,-1021.6083,227.0959,-147.3027
-2906.2500,70.4037,69.5944,159.0321,78.7328,187.4930,-105.1888,106.0265,-101.8148,-72.2150,6.4090,-24.1560,14.2041,-41.9333,-40.9445,-257.7237,-95.0032,-131.5151,386.8808,-54.0187,-76.3239
-2898.4375,-49.1199,63.1511,33.1793,98.8308,98.7826,-46.2652,-92.6012,-116.7888,-12.8981,-7.3600,70.4112,108.4598,3.0062,-56.0187,-89.2638,-72.6920,205.8016,-120.1965,72.2258,-90.9757
-2890.6250,79.2490,73.8332,247.2362,156.8381,238.9938,-17.4244,157.6950,-124.8528,163.3427,-124.2174,135.9060,99.5996,90.0256,-64.1837,14.1233,-117.4708,-16.9694,-764.5593,-10.6071,-208.7319
-2882.8125,-36.6461,101.5151,45.0260,145.6023,0.9382,-34.8239,-43.2579,-105.1604,-148.6774,-213.2942,-28.8867,155.4782,-41.7078,28.4221,-150.7625,-134.4858,-28.0287,702.9516,-91.7032,-78.7191
-2875.0000,62.9804,89.6176,191.3455,103.9240,146.4166,0.3376,102.3332,-32.9029,-186.1342,-213.8094,299.8730,152.9052,171.0331,27.6077,105.9220,-134.9360,212.4872,-921.0748,112.7825,-190.1480
-2867.1875,113.2549,67.7263,241.3307,48.9003,86.5568,-60.8392,152.6038,-56.9833,-98.9230,-52.6553,92.2788,54.9663,34.5231,-70.5375,-100.7418,-121.7246,-160.3878,114.4799,-83.0792,-139.9221
-2859.3750,-118.7596,12.5989,-1.9655,-7.3794,-119.5842,-46.2546,-52.4011,31.7059,100.0325,0.2749,32.4109,105.7696,-20.1268,-18.9141,-12.6702,-69.7445,171.4800,94.9060,107.8160,-124.9185
-2851.5625,64.1115,58.6911,195.6420,70.2409,40.1899,3.2456,217.5188,44.3148,75.9130,51.1189,81.4665,80.4578,50.3811,-6.3719,74.3373,-93.8535,108.2621,-918.9598,114.6465,-259.0183
-2843.7500,15.9640,135.5165,26.2366,126.8611,-165.0295,18.7487,-60.5454,-14.0692,-238.2057,67.9904,-161.5093,169.1306,-155.8165,9.1957,-203.6788,-40.9490,23.9949,687.2710,-109.5323,-96.1037
-2835.9375,52.7297,89.1189,140.7537,92.4358,-50.3107,96.2132,-129.6662,-9.4836,-14.3730,-0.1760,136.4657,134.7589,28.0130,-23.2642,58.2709,-0.0803,306.6923,-753.5909,102.2672,-165.2277
-2828.1250,166.9897,49.7610,260.7805,-3.4874,142.9335,-4.8162,26.7553,-110.3840,31.9786,84.1788,34.9481,-4.1279,-7.1916,-51.2074,-116.2653,-27.7032,-71.1388,-41.0662,-99.4258,-155.8539
-2820.3125,-65.5811,17.5883,49.9779,-60.2109,43.3527,-30.6357,-146.6395,-137.0703,-30.4820,-14.2499,8.5954,116.1788,-31.3594,33.0738,-105.6188,-16.1143,119.2177,395.7958,-14.9213,-71.2556
-2812.5000,46.2821,11.1883,246.6245,-19.4812,313.2327,18.0018,160.4352,-125.2915,128.5345,-112.2157,203.7171,89.9305,154.2594,-28.1773,90.5156,-78.0665,89.0451,-970.0745,61.0636,-206.2089
-2804.6875,3.7362,22.8706,121.8695,-62.1521,189.7113,-106.7702,0.1363,-175.9105,-31.8342,-50.5432,-68.5796,75.2692,-21.6188,-41.8079,-143.7673,-91.4034,-129.5773,711.7166,-122.3659,-72.5497
-2796.8750,-37.6915,-34.0289,119.2350,-138.6742,223.3141,-109.3869,-3.0378,-68.3587,38.9412,21.3006,185.2740,71.7642,137.1677,-45.2651,112.1006,-57.5682,180.9631,-525.3285,153.3727,-148.7211
-2789.0625,85.2333,-63.8169,285.9655,-191.8392,391.2816,-126.6392,275.1570,-84.4422,60.0779,116.5090,58.4960,-93.3977,106.5849,-61.3512,-14.6634,-36.3749,-118.1551,-367.1771,65.4728,-201.5450
-2781.2500,-87.2198,-26.6286,27.3245,-117.3439,132.8811,-90.2285,16.9836,-11.8706,-88.1457,-29.6250,-53.6617,-20.9098,-7.3472,-25.7680,-125.8043,-36.5180,61.3565,586.7708,70.2110,-91.6963
-2773.4375,62.9025,-26.2563,190.2743,-73.2385,258.0822,-38.2003,180.4153,4.3182,111.2478,-124.1591,254.8022,-6.8207,171.1223,-9.5691,110.6826,-21.0471,105.4960,-1021.8353,114.5850,-223.2478
-2765.6250,109.8181,27.5752,49.0299,-27.3346,7.0924,-105.3632,76.6745,10.3152,-28.5584,105.1314,-106.9435,-1.9385,-99.6110,33.4561,-177.0465,22.2326,-269.6077,537.3659,-120.2469,-105.9933
-2757.8125,8.9490,19.9930,-90.9962,-22.1769,-169.6764,-25.2582,-26.8462,127.5831,14.8710,113.6776,9.5564,78.2042,-41.7707,40.7625,51.4708,66.7680,87.5453,-266.1282,131.1893,-135.4700
-2750.0000,192.1760,47.6358,141.0868,-14.9143,-10.3255,-13.0328,316.7550,65.9702,100.4265,-20.6733,57.1782,-58.5593,38.3684,-94.8135,63.1098,-31.5891,23.7990,-610.6977,138.7515,-233.8532
-2742.1875,153.7250,99.3804,59.5028,-53.2988,-202.6273,-58.4480,51.7095,-15.2807,-53.6725,-100.6641,-97.8817,-30.9776,-91.9925,-139.0253,-90.9297,-75.5887,161.3678,618.2169,100.6581,-130.8696
-2734.3750,247.2924,93.5011,235.9573,-64.6370,12.1237,-27.8024,192.7222,-21.4567,49.2984,-143.6099,189.1327,-1.3486,81.8846,-72.1679,86.1078,-119.5257,326.0118,-1011.9392,265.6501,-247.8373
-2726.5625,234.9066,94.3067,180.4718,-76.9276,66.9486,-83.1058,210.8220,-113.5717,-5.6709,-160.4948,-50.7992,-21.6821,-86.4221,-17.2439,-261.8071,-100.4068,-73.3339,312.9162,42.6922,-118.7551
-2718.7500,17.2820,29.9945,-48.2451,-83.4145,-14.4476,18.4006,18.6976,-11.8746,-49.8527,-203.5722,87.0547,42.7973,11.4782,48.5017,-49.9313,-71.4732,201.1198,-45.3342,247.5358,-89.8526
-2710.9375,113.6452,-24.3801,131.0547,-92.8941,202.1753,50.9142,236.5968,57.8316,19.9885,-96.6460,118.9426,-72.7162,120.2742,44.2699,92.9713,-38.5319,-18.4231,-757.7765,273.3957,-203.9561
-2703.1250,-43.5503,-27.0399,-150.1992,-108.9200,31.2346,-9.1243,28.9443,71.9951,-76.7298,-7.2647,-162.7445,-22.7733,-59.3124,95.5050,-76.7093,-24.1307,-106.5536,738.3580,151.6879,-79.5901
-2695.3125,-37.5681,-49.7659,-65.2706,-102.7339,153.4781,3.0521,225.4719,120.3673,192.7588,-178.6897,105.7879,-12.6140,147.5272,-40.0419,229.8286,-49.5227,146.5500,-873.3832,370.2037,-178.0149
-2687.5000,67.4655,-2.4023,4.7237,-102.4845,186.7885,-37.7050,296.0773,6.7879,153.3097,-181.0627,-81.6118,-17.4014,18.3901,-79.5271,-30.5829,-88.8643,-205.3167,146.8390,123.7640,-107.3948
-2679.6875,-72.3350,1.1070,-180.1046,-66.0239,1.2771,-2.2488,36.8562,78.4143,4.0495,-217.2383,-10.8238,53.0233,-2.4178,-7.7930,-32.8171,-54.0057,42.0052,253.3880,230.5197,-35.5565
-2671.8750,34.3030,-32.7727,8.5275,-65.1091,191.2265,-33.3242,411.1022,85.5132,121.2525,-173.9818,141.4466,-15.0956,125.2424,-1.5844,84.4276,-47.6924,-97.2041,-905.8050,302.7579,-139.2760
-2664.0625,-94.9158,-78.7475,-280.6879,-125.0359,-62.6789,-103.2313,268.4992,88.7766,88.5947,15.4284,-148.1510,-49.0617,-32.6963,2.7939,14.7923,-6.2212,-297.3107,793.2380,137.1380,12.1653
-2656.2500,-168.5255,-155.0383,-354.2820,-163.3047,-61.9555,-65.4665,342.5151,199.7151,309.5827,164.4944,-2.0897,-49.3595,137.8486,2.8452,456.8110,30.9148,-19.7414,-617.0938,381.1960,-60.7372
-2648.4375,-79.9975,-158.9823,-224.7124,-248.4242,-5.0534,-119.5340,546.7146,183.8205,292.7466,332.7229,-239.8655,-104.5119,-3.8411,60.0569,219.9911,88.2109,-351.0414,-105.4104,190.4234,-40.5039
-2640.6250,-225.5506,-134.1489,-346.2119,-218.5989,-272.2091,-56.6555,167.8611,209.8828,135.8574,212.8951,-214.7075,-42.7091,-103.1453,160.2303,62.1027,151.4567,-41.4076,522.3627,184.5966,59.6977
-2632.8125,-46.5088,-96.7060,-5.1062,-145.1714,-4.7486,-9.1687,252.6201,147.5521,256.5807,77.6413,126.0898,-32.2958,105.2339,98.0196,219.8395,89.3025,67.8509,-916.4283,189.3990,-76.5014
-2625.0000,-51.9184,-41.0470,-90.4419,-114.1884,-53.7228,-58.1246,93.9406,24.7772,60.8378,103.9401,-106.5666,-9.3264,-65.4352,49.3772,-84.8966,40.6964,-148.3793,696.3764,-27.2651,58.8592
-2617.1875,-155.0643,-86.9395,-157.5057,-146.8905,63.5895,23.2401,27.5313,105.3174,104.3804,111.5269,82.0793,33.9632,67.3148,56.0507,104.6653,48.3978,171.7131,-390.4993,188.3893,-7.4688
-2609.3750,-43.5171,-104.2666,34.1497,-140.8857,256.6277,-4.6817,294.8541,41.5688,151.6469,196.8048,17.4517,-105.0454,85.8773,-43.5675,40.9490,20.8027,-104.4981,-348.8313,89.7502,-71.1087
-2601.5625,-184.6842,-100.6351,-153.9120,-139.5779,67.9433,-9.2997,-4.5355,74.1217,110.2083,119.3789,-97.8936,-74.7378,4.2412,-85.8722,-0.4979,16.5127,36.5646,635.2809,19.3907,34.5686
-2593.7500,-68.5203,-88.2814,46.3746,-93.9109,306.6053,8.4513,197.4154,55.0368,201.1333,27.2820,140.1398,-57.0563,195.9273,-103.8102,238.4281,-2.4230,153.0131,-972.4028,136.4070,-94.4071
-2585.9375,-26.9556,-33.6074,-24.9162,-51.8264,198.6799,-62.3860,126.7805,21.3528,-53.5509,141.5794,-151.4239,-55.9649,-20.4840,-27.3391,-89.2689,1.0381,-191.1644,512.3162,-102.1909,19.0147
-2578.1250,-142.1164,-35.8443,-107.9161,9.5715,79.0349,2.0914,-29.5846,84.9797,-62.9580,97.1570,-15.6777,7.4512,57.8169,0.4434,121.3172,28.7980,185.9761,-165.6025,29.5177,9.7439
-2570.3125,-27.8254,-39.7574,87.5586,18.4302,201.8650,-21.9609,277.5221,61.0689,97.0985,0.1580,32.5655,-54.6747,115.4131,-23.3114,134.3689,5.0044,-16.4327,-544.2569,-66.3016,-51.0910
-2562.5000,-137.4439,5.0264,-142.8789,14.3877,-102.2206,-68.9065,9.7207,51.2644,-22.7570,-44.7438,-161.1079,44.3131,-75.7003,40.0478,-58.5124,-5.6839,14.2250,788.3288,-105.0333,86.1885
-2554.6875,8.2157,13.1512,15.9746,20.6461,19.9845,-56.5350,133.2102,63.7762,136.6970,-106.3540,144.5401,55.6221,96.0287,52.7235,173.9260,7.9318,196.2182,-894.8911,76.5687,-48.2344
-2546.8750,89.4308,40.9042,23.3978,32.4599,-46.2411,-85.5989,105.2722,35.8517,-39.2960,-23.4222,-105.2544,-10.5155,-52.7254,61.9625,-39.0917,16.0984,-144.2686,347.3858,-157.2856,33.8835
-2539.0625,-40.4392,65.6914,-151.2529,113.2288,-293.5298,34.2964,-179.7411,118.8929,-102.3532,-12.5586,-96.1081,71.3187,-76.1698,34.1632,80.8251,62.2141,217.1938,111.7196,-6.1858,79.9639
-2531.2500,122.7315,85.0240,97.1586,173.0530,-190.7416,137.2560,-3.6788,110.9970,-37.3390,17.3333,78.1307,26.2186,-1.3833,-9.5816,73.8203,55.3758,100.7131,-709.0869,-52.0137,-0.9197
-2523.4375,-41.1057,67.0309,-80.4330,149.8794,-368.9496,216.2177,-327.6143,117.1018,-214.3386,-11.7860,-99.6380,67.1305,-162.2137,69.6890,-177.2148,97.5326,-27.8043,850.2180,-214.8634,152.2055
-2515.6250,-89.6173,-7.4832,-53.6831,136.0631,-119.8096,318.5412,-262.2273,145.5702,-75.9928,-20.5772,110.9727,58.4182,45.0357,135.3225,144.1025,126.0399,205.0634,-711.1841,-52.3432,33.6797
-2507.8125,-41.2669,-3.8666,34.9508,116.1108,41.2053,296.7299,-136.9641,50.8902,-170.7945,69.4546,-94.5448,35.5663,-40.4894,150.8026,-60.7321,68.3931,-167.2323,77.1685,-281.9764,48.9904
-2500.0000,-194.6272,31.8434,-165.1261,173.4711,-47.5003,318.2309,-410.4319,71.5085,-334.3200,-18.2560,-37.7663,165.0457,-64.1358,208.5913,-113.2911,89.0429,135.7721,309.9515,-189.3262,106.6159
-2492.1875,-26.0365,59.9408,127.7611,238.7983,245.7560,280.6955,-152.9492,35.0797,-149.8876,-128.0472,145.0104,127.5007,90.5621,98.3395,-3.8728,15.6323,94.7568,-927.4888,-124.7131,-3.8201
-2484.3750,-74.3443,77.0180,-3.2378,190.2348,113.1158,186.2688,-285.3668,-59.2590,-245.3714,-185.7472,-134.1118,142.0689,-78.8300,40.1961,-208.3783,31.3178,-129.1948,712.2496,-278.0286,158.8470
-2476.5625,-105.1792,35.3360,3.2508,125.1888,158.9638,157.3631,-239.3155,-15.0844,-126.3638,-286.9874,131.2834,186.1670,101.3881,86.5649,93.6158,39.4995,156.3847,-549.5242,-26.8319,94.0175
-2468.7500,-39.2495,-6.5021,112.5250,51.8998,267.5865,83.2256,-21.4945,-16.1572,-127.5981,-66.5215,18.4591,74.0348,50.1215,121.6850,-54.6354,1.4165,-163.2947,-201.6714,-134.8802,55.9268
-2460.9375,-169.8279,0.6629,-62.7137,62.1127,17.6846,54.5921,-232.2028,66.2659,-192.3542,15.4205,-119.8717,81.4356,-68.3518,131.3149,-119.4195,9.8276,21.5123,439.8323,-53.4398,101.3535
-2453.1250,-20.4655,-12.2535,136.0077,36.2797,218.7346,-2.0765,77.0356,119.6495,43.8480,-78.7166,78.7869,22.8158,96.9110,73.9078,79.7709,-9.8106,31.2989,-922.8718,60.9781,-29.2804
-2445.3125,-33.3059,8.2278,41.5414,-10.7508,50.6001,-94.9361,-51.9081,62.8372,-86.1553,-97.0776,-87.7554,39.0118,-50.5232,17.3072,-159.2587,7.3460,-227.1533,753.2645,-195.8190,134.8846
-2437.5000,-110.3208,29.5603,-37.0934,53.0753,-27.6999,-63.9331,-168.0305,19.8829,-55.3260,-175.6212,162.5670,179.0856,60.4606,11.5627,53.5531,37.3431,153.2730,-203.7067,-25.7589,128.9062
-2429.6875,73.2796,109.1409,120.8994,167.5135,19.6306,20.6858,-46.5400,-113.4687,-43.8838,-89.5947,63.5269,190.7752,-7.9452,61.4194,-44.0250,-24.0705,-49.6918,-230.2414,-193.0896,67.5103
-2421.8750,-17.4260,171.3136,-87.4117,218.6609,-261.3480,70.0116,-401.3727,-64.1222,-214.7609,-39.8916,-180.8230,276.1837,-198.8813,110.9797,-177.9364,-9.7842,71.0229,839.0768,-212.7484,153.8229
-2414.0625,45.1092,124.1112,94.5361,212.0711,-42.0690,143.6072,-217.9700,45.4804,-69.3909,-149.9810,74.1151,201.8703,0.3122,73.7904,41.4198,25.7490,170.0270,-786.4828,26.8626,6.3756
-2406.2500,21.7607,99.0868,30.6112,119.5892,-31.6605,117.3051,-171.4489,-18.8163,-94.9294,-249.9957,-135.8334,136.6718,-116.8167,47.7032,-205.1425,-1.6306,-133.9011,633.0502,-170.4489,90.0205
-2398.4375,-59.1585,76.5638,-89.8796,73.5612,-78.8238,142.4582,-292.5146,7.3400,-33.0314,-334.5792,72.6650,198.9530,-15.7683,74.0746,-33.2668,-12.5665,205.6366,57.1199,-6.3151,79.1221
-2390.6250,133.7352,82.3070,153.4570,92.3443,127.8307,130.4207,-48.7625,-78.7038,-46.3230,-236.3927,170.0076,112.0533,57.5970,61.2433,-46.5711,-61.7081,-21.0136,-451.1797,-92.3755,-6.9923
-2382.8125,20.1305,136.8099,-7.7038,155.6412,-106.0306,153.8903,-355.5219,-91.2543,-243.1414,-175.7387,-101.1540,170.6783,-151.3083,47.9142,-280.4119,-37.3539,5.8106,912.1626,-203.9684,126.4062
-2375.0000,70.0668,140.3409,160.6887,206.5059,25.6509,175.9291,-223.7580,-70.2535,-111.4129,-337.5747,177.2734,192.8867,50.8083,-2.8661,-1.6924,-53.4613,232.2223,-656.0245,-12.9997,1.3527
-2367.1875,158.2205,158.9570,177.3123,154.5772,5.5487,46.1797,-132.7740,-125.0552,-167.4793,-283.2315,-27.0787,172.3056,-79.4900,14.5481,-204.7812,-36.3839,-136.1914,416.9385,-239.8347,55.4858
-2359.3750,-17.0904,103.9353,29.4709,86.1947,-141.0261,45.9881,-317.2665,-52.2941,-168.0100,-209.3628,83.1123,208.2970,-54.6576,51.5146,-131.3440,0.2395,145.9465,346.5670,-98.1151,92.1749
-2351.5625,136.9603,64.4497,270.0042,29.1616,98.7700,-6.8413,-3.3960,-32.1694,-1.1809,-152.1796,249.7016,80.6535,71.5613,-1.1704,-75.5374,-52.7941,18.4580,-590.6323,-49.0226,-34.8065
-2343.7500,59.3198,77.2893,110.8502,-11.5682,-59.1290,-91.3669,-198.2362,-79.7472,-123.0736,-237.7211,16.5846,68.3288,-70.4945,-49.5501,-233.4624,-63.5392,-22.7694,915.5846,-194.6552,100.5142
-2335.9375,96.7143,134.4987,228.7417,132.7607,21.0170,26.1704,-154.0589,-110.2684,-79.9365,-450.2511,281.5399,149.0861,125.9655,-151.8728,67.6757,-94.2405,332.0864,-525.1851,-52.2282,-2.1149
-2328.1250,169.9073,209.1466,304.4346,275.8962,60.9719,65.5109,-79.0891,-252.9852,-186.0180,-411.0028,137.2964,188.6655,10.9585,-112.3835,-186.4060,-163.1462,17.7182,215.8980,-294.0123,1.0575
-2320.3125,30.9492,221.6997,83.9789,314.8766,-122.2225,139.6964,-408.2885,-251.8484,-222.2528,-446.9461,63.9348,262.1207,-53.2891,-110.0404,-149.6423,-126.2106,267.2158,534.8219,-184.9399,75.0774
-2312.5000,197.1608,135.3523,299.6963,165.0043,129.7557,99.0332,-83.3320,-219.5671,-81.3312,-377.7745,242.7500,109.7465,141.0587,-152.5487,102.2692,-95.1388,151.8563,-671.1618,-89.7274,-39.7639
-2304.6875,83.1731,66.1580,64.2203,15.9391,-31.4646,48.1697,-133.5909,-123.4933,-241.6205,-244.8482,-29.6215,21.1951,-32.4971,-55.2725,-132.0232,-71.2791,-102.7042,937.7206,-166.7408,93.1968
-2296.8750,-22.9557,-11.5494,32.6089,-53.2534,10.1707,127.1639,-56.0032,-8.5845,-127.0663,-203.1203,122.8938,25.5249,98.8412,23.8388,129.5461,-30.5849,178.6031,-328.6147,79.0806,-11.9974
-2289.0625,57.4743,-22.8268,118.5574,-76.8739,170.3527,66.7109,178.1260,-32.1415,-3.9698,-116.8807,-11.0358,-34.5612,48.7891,0.4952,-4.3507,-54.3496,-162.5551,-73.3617,-49.5785,-35.6361
-2281.2500,-135.9020,-31.5582,-162.2997,-93.2731,-73.2921,6.4674,-102.5651,-19.5077,-27.6813,-103.4757,-71.7570,51.5861,-46.4550,-23.6504,-64.0524,-4.9201,-4.4925,789.1039,-32.0430,87.9262
-2273.4375,-2.3632,-36.3085,54.7640,-100.7602,105.9623,4.1319,40.6416,15.0190,115.5059,-180.1986,182.4402,47.6617,129.4590,-25.8994,152.1473,-7.6016,59.4788,-696.5881,102.3850,11.3769
-2265.6250,32.9322,-6.3708,-23.4036,-63.4869,-45.0516,-36.4403,-111.4368,-62.7059,-109.5834,-148.1943,-42.5997,-30.4867,-55.1883,-29.3966,-145.9265,24.4537,-220.7965,887.5353,-106.4500,153.5753
-2257.8125,-81.9097,-54.7017,-104.6957,-71.3478,-89.2120,-8.1469,-191.6824,39.4237,-6.8315,-229.3910,169.2446,-1.7606,78.3714,-1.0554,102.8477,16.3406,86.8055,-2.5544,95.5684,109.6125
-2250.0000,51.2672,-53.7077,111.0354,-79.1980,53.6363,-84.8362,98.0640,-0.4557,62.8984,-85.6443,129.1059,-42.0159,96.4074,-40.7238,99.6027,13.2152,-201.5996,-220.6201,-52.4262,32.6445
-2242.1875,-105.1075,-27.2722,-166.7858,-93.5897,-225.0664,-105.0606,-143.7648,15.1152,-31.9420,2.5137,-75.5685,83.2068,-93.4092,12.0571,-69.2055,28.5290,-146.5418,923.7903,-101.9710,158.1228
-2234.3750,44.9255,6.9919,-4.1880,-48.5752,-98.3529,-51.8681,55.8102,-4.9154,167.6113,-90.9489,161.1732,62.8478,71.8172,-81.7645,167.3904,-28.7734,108.9193,-649.4734,83.8852,27.9843
-2226.5625,133.5039,79.1990,10.9651,-29.0063,-156.0870,-35.1347,70.9256,-135.3999,-0.2977,-112.8847,-79.5407,42.0622,-88.2958,-138.0338,-110.4806,-85.5328,-118.0860,669.8881,-107.7239,117.3922
-2218.7500,14.2948,108.5747,-73.6747,64.7615,-241.6127,62.7955,-161.7670,-73.6903,-123.0018,-125.6724,53.9803,139.4904,-52.2826,-113.1108,-49.1438,-61.1050,256.1235,198.4063,54.8641,104.9945
-2210.9375,119.5090,67.5337,189.1112,63.9275,21.2844,106.1173,100.9431,-68.5958,-7.3056,-84.1092,133.9313,35.3351,40.2333,-107.8041,-44.4153,-93.2906,8.7253,-470.6784,54.8339,-36.0055
-2203.1250,-66.6705,46.6079,-9.4994,55.6968,-102.2217,93.0355,-132.7739,-81.9113,-94.0312,-133.9740,-64.5027,58.8009,-101.3085,-47.9054,-241.0978,-69.8848,-36.0646,890.8983,-59.6094,60.5969
-2195.3125,37.8579,-3.6636,68.6030,-14.8260,84.9822,134.6556,-55.7928,-40.5310,19.9463,-203.1683,197.7837,-11.0065,98.9055,-5.3128,55.9257,-28.7854,174.8553,-657.9011,116.6390,-45.1118
-2187.5000,101.9946,-0.6293,60.3068,-55.7335,149.7731,52.8733,8.7747,-122.5589,-63.4880,-29.7997,-68.3286,-56.1838,-33.4171,22.8735,-135.4674,-38.1001,-182.6366,355.9674,-100.5348,19.7800
-2179.6875,-99.5571,-36.2158,-152.6810,-46.3268,9.8539,97.3952,-240.3796,-42.2958,-55.6272,13.8279,-61.1296,24.9675,-32.2911,30.3485,-19.5551,5.8741,37.2026,363.1193,13.5862,63.9677
-2171.8750,41.0215,-55.6886,110.4548,-43.8098,201.0363,67.0253,22.5637,-34.9494,97.3216,20.5226,167.1851,-41.7636,123.7386,-73.0875,97.4517,12.9379,-66.8563,-655.6481,-19.2017,-39.7521
-2164.0625,-53.4444,-31.6033,-66.4546,-32.3353,-49.8530,-36.3828,-227.5643,-28.6581,-6.7988,137.1311,-83.5464,1.4765,-92.8762,-29.5771,-152.6119,55.9374,-195.9587,938.6041,-218.0481,77.4824
-2156.2500,-80.3927,-28.6751,-51.8465,11.6396,1.7569,-20.2781,-141.2007,23.1331,155.5783,114.2054,78.2578,53.2313,35.5990,-13.5728,118.8206,33.4206,163.4568,-531.7077,35.6123,-54.7925
-2148.4375,125.3756,15.2906,90.4815,-62.6791,107.0680,-135.4665,148.8492,-54.3815,113.6322,35.9481,-36.2309,-61.2975,-4.0153,-91.8766,-33.0635,-81.4141,-52.4365,24.7401,-74.0478,-59.3709
-2140.6250,33.9969,38.7238,-45.3354,-83.1444,-28.7726,-158.7939,-133.2788,-43.0470,-22.4817,-136.5120,49.1457,-12.9554,-3.3351,-116.3297,-59.0977,-106.3998,243.5379,532.0367,11.1485,25.8986
-2132.8125,203.1791,83.0621,212.4075,16.9366,154.9588,-85.5789,12.1547,-79.1628,13.9491,-101.4463,270.0842,23.9466,138.7869,-153.2430,88.4111,-143.8394,237.0547,-812.1457,39.8978,-121.2947
-2125.0000,115.4044,146.2582,43.1981,177.0637,-51.2531,-34.3259,-193.3732,-138.2251,-191.5828,22.6609,-83.9234,74.9040,-104.3510,-138.1133,-191.0481,-129.2366,9.6104,753.7958,-187.3143,3.5607
-2117.1875,57.4874,135.3235,21.8555,190.0365,-108.6050,18.7724,-214.0506,-85.4377,-29.2618,-35.4089,79.9417,128.7242,-20.1024,-122.1406,8.3553,-76.7911,339.0265,-359.4774,36.3194,-53.7428
-2109.3750,194.3405,102.3502,204.2765,81.7630,36.7961,-19.3834,40.0234,-86.9150,4.8056,109.2422,-32.4430,16.3072,-54.8811,-123.4278,-104.5043,-41.6021,-16.8293,-223.9463,-37.3254,-92.2966
-2101.5625,8.9588,86.8455,6.4476,72.2378,-124.0590,4.1976,-231.1676,-64.6507,-119.3819,94.6097,-120.0717,75.6591,-138.1554,-63.9762,-191.6167,-19.6743,79.0824,645.3625,-11.2240,3.9020
-2093.7500,101.2021,55.4247,184.2372,95.3136,126.6977,72.3681,-17.7552,-33.7993,21.0367,-59.4414,168.9196,33.6205,89.0160,-69.9448,58.8825,-63.1508,136.5957,-880.7784,81.4690,-149.3056
-2085.9375,95.9508,47.3998,100.5200,54.8922,79.9374,25.0297,-64.8605,-80.4551,-63.0600,3.0029,-98.5945,-49.8992,-77.8182,-79.4280,-208.1355,-36.1335,-150.3937,590.6799,-100.3625,-49.0060
-2078.1250,0.0046,16.1342,2.1078,30.7846,-17.5360,75.0018,-163.6871,42.1897,22.1399,14.7321,24.2170,-1.0963,-11.0143,-29.6218,-12.8511,-23.8257,141.9391,-173.6123,87.0957,-73.4143
-2070.3125,167.8304,30.5708,217.4639,24.4429,159.7374,32.7327,88.2289,-0.4281,16.0850,44.1798,55.7825,-43.5265,30.2036,-72.0775,-55.8351,-66.7826,-146.9829,-427.1332,-26.7155,-116.0821
-2062.5000,16.3180,64.9399,16.4772,13.7564,-78.3538,-20.8741,-149.2314,19.5913,-184.3319,26.2350,-145.0060,49.7098,-114.9464,-52.8955,-183.1757,-85.1001,-53.2258,792.0436,-37.8807,13.8984
-2054.6875,106.9210,34.0524,118.6129,0.1675,61.6599,-28.3724,62.4135,48.7057,27.3435,-19.6398,68.3245,6.0547,54.4741,-23.6178,102.5888,-56.3318,108.6492,-840.7377,195.0571,-141.0301
-2046.8750,149.5807,43.9311,86.7993,7.6352,-7.2893,-59.8228,66.0958,15.8627,-41.9446,21.5193,-185.3017,-62.5332,-98.7067,17.6992,-114.6204,-51.5141,-234.4351,432.6183,-43.9715,-62.9044
-2039.0625,8.3025,6.0241,-59.9656,-26.8427,-118.1955,-22.2116,-118.1896,90.0686,-79.1899,93.6963,-73.8594,-26.0599,-44.6365,18.0540,32.2296,-51.6523,81.5483,79.9964,167.0495,-62.7338
-2031.2500,115.2901,22.6825,205.5335,44.9297,110.1604,22.6491,183.7767,60.5274,1.8115,100.0958,80.8352,-54.3297,83.2176,-121.3494,76.3234,-118.5499,-23.2334,-728.3702,133.3134,-202.3220
-2023.4375,-6.9245,99.8025,72.8274,135.4918,-58.6828,74.3093,-96.4698,-34.2108,-168.4052,-143.7120,-124.6796,34.2109,-76.2374,-179.9531,-166.8040,-140.6564,30.7885,768.1203,11.3744,-77.1113
-2015.6250,11.5244,88.0450,208.7825,189.6940,76.1414,210.6083,1.9458,-46.3026,-32.9612,-266.8784,121.4665,22.4052,103.5834,-190.9176,78.7219,-152.1203,331.4684,-797.7941,206.0835,-199.2618
-2007.8125,101.9803,95.0224,229.7416,175.9023,170.9646,157.9006,95.3512,-62.4084,-122.5250,-63.0520,-78.3801,-29.3889,-14.7230,-169.9001,-157.7673,-168.5870,-70.8681,66.3695,-55.2373,-178.4112
-2000.0000,-13.5615,81.1379,32.6994,166.1186,10.7819,182.1848,-175.2581,-1.5217,-246.1015,-76.2409,-17.2055,31.8349,-31.1019,-71.8939,-134.2491,-108.0570,130.8107,267.5187,-29.5671,-117.5645
-1992.1875,131.0681,79.3662,224.8256,170.4857,239.7590,191.6034,53.2917,43.4969,-128.5323,-69.2899,139.1364,3.2112,98.4615,-63.7519,-15.5810,-137.3873,63.6258,-820.1921,-25.7623,-219.5747
-1984.3750,20.6489,68.2998,-6.1015,166.7982,8.6665,144.9622,-178.2167,-3.5470,-248.0194,29.6039,-91.5800,-6.4509,-97.3544,-0.6764,-245.9687,-73.7757,-80.6094,759.1348,-206.0318,-82.6286
-1976.5625,-18.1034,-17.6270,-4.3616,92.7681,83.2215,145.9621,-104.0699,71.0481,-64.8454,-6.8882,204.3654,-41.4468,97.2670,38.0301,48.3165,-36.5206,161.8206,-582.9497,1.3327,-192.0361
-1968.7500,103.1697,-40.7501,122.3807,4.7503,173.7557,15.9659,133.0642,14.6294,-85.6781,118.5971,73.3041,-135.4295,53.8914,54.7227,-46.4090,-20.2745,-208.7550,-109.9621,-158.3322,-175.4421
-1960.9375,-3.2531,-21.8068,-105.5814,-30.9620,-91.4299,-64.7256,-132.5205,43.5138,-130.2082,73.3697,-6.4400,-68.1023,-38.3374,46.7063,-53.8437,9.2641,0.9828,522.3399,-53.7000,-35.5533
-1953.1250,110.4883,-56.2174,18.6283,-57.5271,69.5413,-87.2670,138.0568,94.5470,104.4138,86.2771,190.9744,-127.6238,112.7710,-13.1731,142.8662,-15.0545,-26.1279,-806.2489,95.0824,-132.5274
-1945.3125,11.7766,-92.7786,-91.6127,-120.5477,-77.9491,-196.2615,101.1666,94.1263,-6.4259,121.7365,-103.0829,-199.5858,-57.7963,24.4930,-77.8900,22.1707,-299.6819,782.8010,-74.5980,15.0480
-1937.5000,-76.0187,-133.6130,-143.9455,-137.6730,-93.5267,-139.3498,122.1569,152.5996,124.6319,68.0776,139.7738,-142.6412,100.2833,45.0487,201.2625,6.2881,-1.3099,-290.3020,119.6214,-37.4869
-1929.6875,-11.7911,-151.1488,-0.2674,-142.8036,49.9036,-142.4408,375.1463,112.0664,157.6714,174.4041,99.6355,-182.6951,104.7563,4.5971,123.3921,1.4007,-322.9496,-226.3634,-27.1711,-78.0254
-1921.8750,-185.7173,-95.4500,-297.7528,-70.0904,-247.8204,-108.6852,75.9773,70.3839,4.5539,204.5818,-88.6529,-39.8989,-77.5570,-0.0086,-29.6284,33.3586,-180.7332,795.4593,8.8930,64.2820
-1914.0625,-62.2259,-95.4549,-126.8368,-50.9840,-77.1298,-47.5408,247.2267,58.0946,176.8488,192.1499,157.4658,-50.6992,83.8670,24.7738,179.7546,20.7079,-22.1185,-805.3611,168.3558,-58.0224
-1906.2500,-62.0770,-79.7498,-128.2810,-85.2299,-115.7974,-86.7657,171.1142,19.4485,63.7908,298.3518,-102.7777,-89.8425,-102.0537,23.1944,-153.2277,18.7066,-301.8619,637.5613,28.4539,13.3306
-1898.4375,-154.6647,-109.9548,-223.4866,-107.2223,-102.2206,-34.7571,74.2507,107.0450,150.9948,164.7876,23.2422,-74.7302,0.6399,37.8525,44.0545,32.9505,26.6647,-18.3026,216.8120,-9.0673
-1890.6250,7.7690,-129.5350,-51.6836,-120.2252,107.3555,-45.7638,357.3989,95.6391,286.2002,78.2166,48.2529,-196.6157,81.7918,25.4991,105.3333,20.1947,-197.8207,-454.1320,98.1556,-57.4652
-1882.8125,-146.7332,-131.2213,-293.8376,-133.1815,-135.0462,-66.7287,39.5744,73.2808,116.4457,165.6857,-119.6920,-143.4460,-78.0739,40.1880,-63.3493,108.4931,-176.2348,903.1411,-56.4614,104.1906
-1875.0000,-65.0609,-141.2223,-129.8297,-156.9806,29.6935,-86.5516,167.8972,91.0508,243.8431,219.3038,155.5264,-126.1133,116.2759,-51.9841,211.1221,88.9308,45.5143,-703.4899,130.0642,-25.0150
-1867.1875,-32.6205,-144.7625,-133.0671,-158.0180,-12.8323,-163.6360,198.9564,49.5463,164.9862,286.6649,-70.5144,-166.0252,-0.5438,-20.4206,58.3218,84.1126,-378.0016,454.7191,-83.6807,43.5303
-1859.3750,-169.7183,-132.7737,-317.8603,-154.6148,-195.9144,-164.2727,13.4620,85.4883,127.5843,137.4599,-33.1022,-20.4769,6.5273,89.5840,203.9822,119.7442,-94.0556,281.3519,59.0309,116.5204
-1851.5625,9.3499,-127.6922,-90.5012,-151.0739,-6.8483,-266.7685,314.1345,18.5778,170.3388,142.4137,120.4519,-86.7793,123.7875,22.7310,284.7929,125.5268,-230.9727,-524.8614,27.8928,49.6526
-1843.7500,-92.7835,-104.9083,-240.3548,-182.7412,-193.0028,-343.4654,89.5978,-20.5267,20.8813,285.1740,-102.2135,-51.2864,-50.5596,-53.3291,60.3968,122.1113,-263.0835,990.7994,-109.4437,193.5848
-1835.9375,-44.7502,-100.8656,-109.0551,-168.2629,-99.0000,-213.0127,146.2189,-1.4814,186.5710,194.0850,138.2829,-31.6474,95.1183,-34.2527,264.1606,68.8375,66.9728,-508.4619,44.3866,66.6530
-1828.1250,104.8457,-16.7907,8.7967,-88.2395,-54.4445,-130.0229,191.3938,-65.8947,84.7845,128.5510,-36.6788,-59.4596,-20.4174,-25.6363,14.4567,3.1127,-170.4370,273.9047,-193.2452,75.2681
-1820.3125,19.6376,23.6904,-155.1473,-32.0225,-255.6837,-36.8439,-120.2324,-83.1059,-6.8329,35.2018,-16.4238,-3.0750,-70.9545,-5.8237,-3.0468,21.5858,166.3684,505.4745,-67.6687,131.0823
-1812.5000,172.4964,-14.1842,82.9768,-56.7705,-54.8609,-19.6338,117.2015,-139.2697,157.6228,88.8992,185.8854,-94.6484,81.1065,-24.9690,161.4995,40.1064,107.2124,-678.9293,-21.0412,1.9413
-1804.6875,30.2985,-38.5860,-69.9827,-126.5777,-208.1043,-99.4908,-36.4167,-146.4949,3.1158,154.5507,-77.8876,-63.2741,-93.4027,40.8185,-66.0056,68.5615,-138.9953,937.6940,-127.4715,141.7433
-1796.8750,-49.2353,-60.7305,-76.2960,-135.7452,-103.6916,-68.7077,29.6353,-43.0784,143.2941,-37.1592,99.9907,3.7470,58.7902,72.2424,184.1565,62.6626,167.4622,-373.0955,143.7507,62.1804
-1789.0625,66.4561,-50.1446,45.6011,-124.7122,90.9226,-93.7397,224.8915,-68.4670,117.5721,-26.6649,1.0616,-58.0285,24.9611,46.8596,11.5046,36.9786,-208.8898,-11.6159,-22.8460,36.8286
-1781.2500,-92.9012,-57.1874,-197.5662,-108.7338,-79.5287,-42.8345,-55.9264,-17.9081,-16.2119,-14.2091,-94.9152,-7.8528,-48.3501,59.4188,-12.1937,86.2462,-87.2703,672.8442,28.5053,123.4363
-1773.4375,-16.8030,-107.8567,-39.2810,-103.3133,115.4639,-68.4904,212.7188,31.0921,179.5446,-40.2930,137.5543,-68.2394,148.9531,71.4064,256.5675,97.9523,-82.1967,-799.2840,140.2987,-11.5179
-1765.6250,-8.5044,-86.4533,-146.7996,-163.6915,-28.3632,-174.9447,103.5516,-39.7109,33.4843,-2.1685,-116.7979,-101.4219,-34.3362,73.5895,1.5088,99.8597,-283.9244,792.8751,-26.7247,137.7328
-1757.8125,-19.5946,-45.0106,-193.7101,-174.4646,-113.5983,-185.7935,17.9725,-14.9131,58.9613,-50.4423,55.4509,34.0112,49.0603,25.3723,210.0572,51.3769,91.9647,-98.4099,171.8572,126.5846
-1750.0000,180.4722,-34.0325,-20.4792,-185.0905,23.3117,-305.4947,266.5506,-24.9683,123.6105,48.4436,9.8271,-48.4135,42.9068,16.2971,163.7553,79.0382,-235.0163,-214.4984,19.5797,80.5837
-1742.1875,27.2859,-52.6755,-260.5087,-198.9826,-254.0425,-325.4582,-11.1155,29.7214,66.0606,137.0917,-230.0480,-30.1023,-115.4793,69.9501,106.1892,168.4457,-214.2292,897.1887,-63.9367,207.3276
-1734.3750,52.2697,-112.5434,-117.3708,-207.7365,-148.2365,-293.2825,166.3911,60.5577,318.6667,167.9081,22.2378,-71.6537,70.5613,27.7412,395.7794,163.0048,-82.2912,-661.0357,66.6982,92.2065
-1726.5625,66.8056,-77.5150,-105.6964,-192.9483,-209.8898,-244.5715,104.4400,-74.0554,219.7982,142.3046,-147.9619,-95.6604,-68.2703,4.0817,112.9107,101.1231,-278.8166,656.3825,-129.1330,177.6354
-1718.7500,-70.7102,-44.8761,-174.0775,-119.2176,-242.5898,-92.9207,-111.5563,-69.7095,186.8756,-1.3371,-33.2162,18.2663,-20.4188,7.3645,190.9991,105.1975,180.6282,130.7039,47.9998,145.0074
-1710.9375,132.2856,-3.2564,116.0500,-56.9994,11.2274,-22.7891,104.9624,-109.8751,146.4632,-5.4715,0.0158,-57.3209,24.7890,4.1346,113.5818,28.7845,-2.4372,-439.4608,5.6273,31.8747
-1703.1250,-20.7138,-0.2227,-83.8369,-68.7930,-152.9569,-2.6799,-132.5339,-53.0516,-53.9387,49.3988,-199.7691,-36.9026,-151.3813,22.8964,-160.8371,47.3767,-15.4973,849.4401,-41.7570,124.7455
-1695.3125,-13.8020,-51.4879,4.1772,-97.6949,44.7688,48.3186,27.8780,33.6652,143.5505,-9.8100,34.3519,-58.5866,56.4195,37.5580,147.6618,24.8744,202.3437,-761.8260,244.7612,-44.4919
-1687.5000,62.5181,-18.9604,45.5728,-126.2007,122.8779,-20.2972,105.6948,1.7954,73.4158,103.4145,-291.1557,-90.8764,-109.1529,42.6275,-106.4477,29.7821,-143.4393,299.3915,74.6612,-3.3255
-1679.6875,-115.3709,-14.6579,-141.2480,-92.9094,8.7571,-61.1140,-45.6890,34.7329,-3.8941,135.4591,-293.8710,16.6370,-108.8596,75.4837,0.2594,62.4939,171.5922,191.3914,213.3667,29.6387
-1671.8750,52.1959,-32.4043,74.3847,-101.1705,262.0840,-101.4966,281.3965,30.1092,175.2712,56.9752,-115.1434,-60.3996,40.5501,-3.2226,106.4183,20.6569,-13.9336,-767.1730,203.5171,-84.9562
-1664.0625,-83.6407,-16.2761,-146.3969,-60.8396,39.9990,-138.2853,132.0763,-44.9278,64.0289,-18.9046,-298.8213,-24.8349,-119.5248,-4.3397,-114.8422,56.4226,-112.8423,820.9344,-2.7279,61.0489
-1656.2500,-75.5955,1.6280,-98.3051,17.3354,51.7823,-90.2353,181.6384,4.8783,222.6394,-80.9228,-66.6485,61.5646,36.3771,-28.6186,190.7457,31.0325,175.0877,-649.1553,145.8724,-37.1122
-1648.4375,24.1953,35.9768,5.5173,82.2558,8.2875,-169.4461,283.9250,-39.5716,141.9801,131.8252,-293.7557,18.7143,-93.8124,0.8455,36.0597,24.3913,-181.2236,48.6586,-106.7841,-7.5160
-1640.6250,-106.3611,41.3358,-208.9975,91.8177,-242.5410,-164.0125,-42.1155,2.6237,36.9910,210.2374,-287.1916,98.5078,-154.9606,5.9460,41.0551,66.4041,38.1456,479.9571,-62.7676,71.7117
-1632.8125,53.6416,33.5714,75.0364,112.9127,-32.8173,-101.0445,132.4070,29.3585,174.5471,126.2198,32.9030,14.8392,41.1053,-77.4071,178.5798,55.9691,94.0315,-836.0676,-7.2269,-48.5079
-1625.0000,23.6806,102.4008,38.0922,152.0517,-180.0645,-64.0265,-53.0458,-80.8514,-10.8438,88.2578,-223.9337,52.2237,-150.0097,-113.7136,-115.8353,18.5824,-7.9994,751.9532,-213.6210,61.3213
-1617.1875,-50.7635,143.4167,75.6716,253.6856,-179.7919,46.4815,-125.9639,-80.5621,26.2894,-59.1851,-39.2542,164.0975,-46.9879,-40.5373,67.2538,-17.3115,481.4627,-448.6255,-7.5177,-48.3683
-1609.3750,104.3866,200.8561,240.8307,303.9104,-88.9357,101.5747,38.7014,-136.6824,-29.9971,-6.0093,-169.0102,144.5673,-136.7560,13.2405,-136.0885,-37.5984,214.5180,-258.4300,-133.8239,-104.4508
-1601.5625,-32.5520,188.7200,56.8924,272.0250,-272.1649,138.5604,-254.7151,-62.9005,-212.3724,-5.9264,-240.8515,182.9326,-217.4149,123.9155,-208.5006,0.0177,323.5021,519.5154,-60.2038,-30.6495
-1593.7500,34.1788,119.8849,207.6031,233.7804,24.2667,215.1818,4.5448,50.5224,-64.1014,-78.1738,-55.0743,111.9399,-9.5713,126.2269,50.7217,2.2836,284.0958,-961.8078,41.0458,-175.1987
-1585.9375,-100.8062,85.7212,60.5762,203.8360,-12.0276,252.0982,-68.9173,50.2496,-174.5360,-78.1035,-348.0151,113.2565,-173.0231,163.8306,-206.7466,1.8511,-61.9857,521.2175,-165.3969,-64.4426
-1578.1250,-228.9245,47.0143,-69.5837,181.7374,-33.4619,268.8562,-200.4963,103.8245,-84.1022,-99.1640,-111.0998,203.4137,-56.8016,179.2775,-7.3472,18.2673,267.7846,-345.0331,59.0178,-121.8539
-1570.3125,54.9087,41.4547,156.1870,43.5842,230.0312,126.5471,61.8638,-1.6584,-5.7327,-58.2607,4.7274,98.5174,36.7218,110.6701,-2.0279,-50.3580,-11.5082,-553.1597,-44.6324,-190.3070
-1562.5000,43.1441,54.9047,26.3523,-38.1762,61.9237,-3.3655,-178.3692,-58.7352,-172.9442,-41.9487,-52.0348,79.0200,-51.7131,90.4607,-133.2823,-70.5799,46.6387,630.9911,-127.8591,-26.3730
-1554.6875,137.0935,47.8774,238.2316,19.7570,237.5237,-12.5927,-40.8794,-31.1170,-35.4559,-161.9041,270.8830,34.2102,169.8256,7.9460,116.1512,-79.0983,211.4553,-894.1199,0.5977,-108.7437
-1546.8750,128.9278,91.3880,223.9827,47.5810,149.0007,-63.9262,-55.5127,-82.5995,-159.0863,-175.9342,-38.3227,57.3039,-20.7903,30.3304,-155.5227,-94.7050,-113.8054,469.7551,-218.0423,23.7928
-1539.0625,10.8308,90.7859,61.8040,69.4426,23.5493,-5.2181,-217.0628,-61.0347,-174.6486,-191.8985,20.5389,152.4336,10.7075,51.7541,11.8825,-73.2598,189.9959,69.5297,-91.6172,45.3613
-1531.2500,172.4853,87.5635,273.3607,55.0399,197.8350,22.2245,67.1356,-106.7221,-74.4622,-129.1002,122.1098,107.3036,85.3634,-31.0704,39.0090,-45.0623,-0.4837,-647.7723,-141.4549,-74.3108
-1523.4375,38.2703,83.8636,91.0514,61.7780,-21.7358,23.8080,-151.5070,-141.2475,-183.0939,-92.1483,-97.1647,72.3242,-85.6482,-67.7448,-179.6941,-44.7100,-29.7796,800.9828,-205.1095,37.1594
-1515.6250,81.3685,38.4233,215.0527,33.8028,103.0136,74.6819,-64.8067,-54.4772,-23.4138,-114.8620,173.8455,12.6294,105.2080,-90.1347,90.8992,-31.0572,225.1942,-773.9773,48.5311,-96.0823
-1507.8125,129.9035,25.9814,263.4713,-22.7285,151.1896,85.9953,-16.6765,-43.2504,-195.3078,5.9152,38.2741,-85.6163,3.0814,-79.0756,-192.0732,-18.9475,-78.3712,188.6370,-79.3754,-47.8675
-1500.0000,-54.9030,0.3798,105.5462,-31.6167,30.0394,148.9566,-284.8654,19.6333,-242.5324,-78.6317,101.3643,-22.2199,17.4683,-16.3706,-130.3684,6.8163,228.7269,249.7286,51.3960,-22.0229
-1492.1875,78.8907,9.5357,289.2068,-2.9157,286.4879,222.5029,8.5631,56.1146,-60.1589,-116.5543,138.0144,-22.2368,108.7193,-17.0709,-20.0883,-30.8178,81.3862,-846.4303,79.7542,-169.5728
-1484.3750,-2.1295,30.4587,51.0426,-14.0246,122.1249,168.2467,-156.8094,74.8025,-223.5901,12.7331,-173.1397,-2.0504,-96.4180,-71.5717,-257.5891,-11.2448,-105.7180,725.5748,-36.6664,-39.9202
-1476.5625,-93.3348,-48.7910,33.6881,-70.3406,214.5731,186.7801,-27.3444,167.2886,-95.1954,68.8419,66.5018,-20.0728,83.0504,-53.2809,17.7170,7.1311,190.9537,-666.6829,223.7111,-131.4770
-1468.7500,-8.2615,-76.3398,122.5975,-90.3662,303.2869,164.6035,171.4000,109.0774,-80.4867,119.2839,-29.5915,-151.7995,33.3207,-38.6941,-151.6966,21.8140,-146.0823,-89.4805,-8.6195,-116.7237
-1460.9375,-145.2398,-52.1023,-63.5417,-16.4501,116.9576,163.3773,-196.8883,106.8253,-155.8037,-140.2922,43.2832,-79.5857,20.5852,-40.1585,-153.1269,56.4528,102.8546,441.5068,30.0266,-8.0386
-1453.1250,53.4405,-39.8782,148.9723,-29.8858,329.2796,118.7959,-22.5194,62.2148,-17.4911,-185.1963,255.7775,-86.7332,195.6014,-84.9682,96.0658,11.7490,125.4153,-872.7473,52.3001,-126.7003
-1445.3125,27.1606,-15.0218,4.5206,-56.2732,110.6342,10.2634,-166.1273,-9.3419,-198.1444,37.9528,-36.6845,-84.8260,-41.6177,-46.7230,-195.6867,51.0993,-76.9371,720.0562,-149.3575,22.6915
-1437.5000,-84.9517,-39.3846,-36.7631,-26.5215,33.1628,42.8714,-207.5511,59.2502,-130.6298,69.2811,180.0076,-14.7806,66.9014,-14.3352,19.7221,82.6065,268.8508,-376.0954,54.1408,-18.7836
-1429.6875,47.4701,-24.5154,103.4740,-0.2337,173.2182,-0.9848,41.5618,15.3982,-26.5676,62.2031,99.2104,-95.1901,39.0909,-21.3941,-98.3472,38.6734,-20.8316,-243.5316,-94.8231,-62.6993
-1421.8750,-127.0638,-46.8207,-121.2448,-35.9037,-16.6687,-6.7935,-146.2578,10.6018,-69.4387,20.1913,-16.5177,-63.5506,-41.3878,9.6004,-139.3403,33.7960,84.5663,669.9346,-60.7133,42.4212
-1414.0625,-12.0860,-57.2681,39.5408,-25.0783,108.9549,44.8865,88.4502,25.2982,167.1822,-38.3056,183.2292,-84.4249,125.2307,-11.9068,132.1488,11.4231,165.4272,-832.0246,90.8790,-52.9579
-1406.2500,35.2232,0.4881,-63.3510,-46.9080,-68.0892,-22.0881,-16.5156,-5.6558,-11.8519,3.5612,-67.6919,-40.9447,-81.8101,-7.0628,-156.0076,17.4109,-138.3367,693.4202,-108.1710,100.0238
-1398.4375,-65.1543,-5.2611,-170.9279,-9.4442,-138.8124,91.2288,-196.1513,71.6898,-44.5721,-66.2428,81.7039,-1.1756,-6.8644,-39.9214,-6.8443,57.7057,216.2010,-6.9779,141.0894,103.2892
-1390.6250,54.8119,-40.2406,-41.1765,-29.6376,100.7984,110.8820,80.5565,91.3793,49.0466,27.3418,28.4182,-127.0655,23.3808,-20.4344,-23.3596,41.3554,-49.9363,-412.8514,120.6798,12.9136
-1382.8125,-180.0811,-79.3030,-329.2794,-53.6907,-76.4391,116.6810,-170.5792,134.2263,-55.1631,143.0930,-222.7045,-83.8125,-136.9134,58.2002,-164.6897,83.1579,-73.8886,864.2994,60.4495,128.6793
-1375.0000,-121.4151,-90.1926,-224.8215,-30.2037,99.8824,110.0218,43.8684,164.6225,121.1862,26.4259,100.7046,-54.0244,89.4935,15.3785,122.5262,40.5128,90.6771,-729.9835,225.7611,11.9901
-1367.1875,-55.7698,-60.3297,-235.3958,-34.7227,126.1737,25.3616,69.2942,43.0212,-36.4790,14.7780,-92.9124,-63.2324,-14.1509,3.5577,-71.2701,-8.1227,-266.7373,495.8336,-26.9169,111.3107
-1359.3750,-204.2110,-85.9260,-392.0570,-43.3465,6.3843,52.6031,-86.3490,33.3252,-9.2292,-66.9558,-28.6065,0.4505,29.5848,30.6367,101.8509,19.1423,41.7617,241.3815,106.3279,138.5130
-1351.5625,-51.5058,-105.2946,-190.5744,-65.8346,170.7370,-40.0147,225.1619,-22.2269,229.1552,-13.5024,24.8148,-91.7290,100.6144,11.8659,193.0935,37.5581,-85.6190,-518.7617,48.7134,45.8707
-1343.7500,-161.5704,-52.2535,-349.8556,-1.0877,-61.6679,-88.3845,28.9226,-33.5158,68.8044,-24.7778,-207.5060,-29.6634,-86.5127,0.3492,-39.3921,61.2323,-125.7099,918.2606,-97.6207,180.4719
-1335.9375,-121.2270,-46.6851,-191.7258,39.0569,22.3441,-77.3540,113.1155,-23.3978,190.8625,-51.6382,97.5674,-19.2124,94.5272,-63.7618,191.5223,-0.6912,195.5734,-589.3540,117.4437,44.4647
-1328.1250,-45.6642,-33.1409,-75.3835,45.4552,-8.4177,-107.0720,230.5302,-90.0175,123.1539,138.7715,-80.1363,-85.5128,-23.4250,-129.6153,-23.3271,-31.3534,-149.8942,261.4123,-87.2445,50.7198
-1320.3125,-155.6536,-27.7762,-192.5820,39.2987,-234.7068,-41.3380,-34.5791,-60.1825,152.9173,131.6590,-50.3703,-19.3721,-65.7810,-64.0267,6.3063,-1.5618,161.1082,361.4507,12.5394,80.4068
-1312.5000,40.9620,-0.0048,93.8201,60.7339,-96.3895,23.9778,178.9171,5.2409,293.2748,125.1807,88.9681,-62.6450,22.2066,-71.8426,72.5176,-45.1711,112.6785,-776.7806,104.8936,-74.3019
-1304.6875,5.4668,59.8195,14.1102,60.0599,-285.1786,55.1903,-47.7052,-0.4364,-7.4670,229.6046,-173.7868,4.9907,-203.5599,-4.7522,-264.3517,-51.8783,-29.8175,769.8495,-72.8380,29.8928
-1296.8750,1.8793,73.1468,52.3164,92.2772,-211.0384,130.2929,-82.3874,111.7791,30.7083,156.9466,47.3619,80.5127,-62.1851,-39.7584,-42.3087,-13.6787,284.5574,-604.6986,170.3262,-79.0198
-1289.0625,146.7631,54.0104,202.9878,24.9792,-60.4160,59.8816,105.4155,41.4905,34.3765,160.8138,-59.0130,-25.4679,-84.8521,-73.2616,-149.7770,-9.9654,-134.5812,-108.5842,-2.0167,-75.4131
-1281.2500,-32.5087,20.8364,-25.4883,-48.4756,-177.9281,52.3242,-195.9132,71.0545,-10.0867,79.5389,-103.5128,40.3974,-128.8036,-7.9172,-156.3540,19.6025,39.1546,522.2097,65.5177,27.0342
-1273.4375,18.8736,-35.8843,108.6826,-33.2883,102.2041,75.4113,84.4165,94.2612,160.0973,139.9583,103.6106,-47.0972,58.1927,15.0733,49.6963,5.8229,89.5043,-940.2470,221.6835,-133.8640
-1265.6250,-29.4666,-36.1471,-21.8728,-46.8055,8.6036,18.8004,28.0271,37.7800,30.5781,194.7057,-172.9735,-103.2867,-105.1103,-41.6248,-189.9491,-13.6468,-168.8196,665.6051,-2.8325,-6.4582
-1257.8125,-42.7941,-21.5004,-109.4095,-60.3363,32.0194,5.1867,-22.3244,60.3058,90.0779,-2.5321,33.4534,-5.4877,26.3437,-18.3165,52.4242,-27.1115,168.8437,-297.6685,194.6605,-20.0647
-1250.0000,83.7114,-2.2135,98.8753,-74.0230,202.2582,-81.5846,222.1599,10.6873,40.4181,58.1048,-16.3097,-17.8397,9.9026,4.8432,-70.3697,-39.7186,-127.6664,-346.9177,74.9939,-69.8036
-1242.1875,-81.0929,23.7435,-77.1518,-28.0156,-9.8056,-36.6509,-63.6457,56.7872,-134.5190,-6.5518,-82.3534,64.5082,-85.6952,13.7096,-208.4296,-68.6172,-9.4448,649.3802,51.0622,12.1491
-1234.3750,23.6590,27.6001,112.3800,41.5339,215.6908,41.8238,89.1254,24.4412,17.0903,-111.6396,254.1389,32.3917,138.4147,-91.8700,16.0457,-99.9638,200.2896,-899.7220,154.6721,-130.3474
-1226.5625,68.2909,86.0323,44.7850,85.9715,75.0735,48.1931,21.7756,-42.0013,-160.4159,-30.7980,-33.4794,39.1719,-58.4036,-85.5461,-233.5868,-93.4012,-71.0543,483.1387,-80.8043,-49.9322
-1218.7500,-21.9717,100.0040,-48.6928,136.5049,-55.4177,64.6618,-108.4476,-25.3433,-106.7864,-124.8304,56.0164,130.0419,-24.4596,3.8711,-71.0985,-76.7324,260.7011,-136.0596,109.8328,-70.4312
-1210.9375,138.5984,105.5912,194.6598,155.8871,77.9265,87.9748,99.1691,-39.8399,-10.3002,-137.9967,79.3245,79.7579,8.5667,-9.8584,-84.7839,-90.2092,-36.7208,-572.2413,24.3033,-121.0687
-1203.1250,-47.5437,74.1517,-7.6968,75.5695,-197.4221,106.5923,-212.9142,15.9691,-137.5205,-82.8640,-86.0481,98.7796,-141.8121,-28.2743,-250.1438,-35.3829,-11.8055,789.7624,-21.9005,44.5883
-1195.3125,0.6814,27.6669,122.3182,52.6024,-31.3983,162.5565,-46.6209,72.1219,27.5912,-136.3710,189.9331,44.1414,79.3359,-45.3421,62.8406,-52.2076,212.4225,-815.8865,202.2305,-83.4062
-1187.5000,10.4797,12.7754,92.9082,27.2216,49.2093,96.1139,34.2489,6.8769,-37.6913,-54.2679,-59.4931,-20.8987,-53.0724,-0.8074,-186.5803,-44.4251,-164.7449,320.1656,0.9660,-38.7864
-1179.6875,-148.9244,10.4814,-74.6879,43.6296,-44.3610,112.4683,-96.0473,59.4416,-95.1376,-111.3513,-6.0958,105.8471,-18.7968,15.5296,-60.1680,-27.8435,62.8941,125.8429,158.5301,-22.3834
-1171.8750,-14.0401,-13.4800,108.9998,38.3361,212.3572,75.1134,234.9681,59.3093,14.6954,-75.1126,103.5683,31.8919,109.8178,-22.8259,49.5207,-65.9613,-118.1989,-724.0335,117.3769,-133.6725
-1164.0625,-113.9257,1.4265,-77.0788,8.2974,-9.6943,74.0184,13.2214,58.4413,-169.2231,-75.6184,-191.5081,31.1963,-77.8187,13.0759,-135.5181,-66.8215,-147.0046,794.2585,-17.5001,12.2882
-1156.2500,-74.9947,-17.3202,4.6609,11.0595,109.0656,44.7251,132.2970,66.3798,21.6685,-103.2997,73.2173,39.2830,125.9847,-16.2266,203.2462,-94.8780,136.9668,-714.7012,161.4190,-89.9590
-1148.4375,29.9661,-23.6084,76.4261,-24.1380,106.8480,-141.5240,314.3944,-45.6292,93.5968,116.0928,-76.0286,-35.5827,14.4823,-17.4679,17.0443,-59.8731,-250.0112,94.5264,-84.6149,-55.1409
-1140.6250,-80.1271,-18.5267,-115.8493,-64.3861,-122.4056,-186.8106,10.4629,18.3210,-26.5043,180.4421,-49.2960,65.4979,-44.6106,9.2471,7.8216,41.0880,-44.0193,441.5199,-19.6744,45.6145
-1132.8125,133.2754,9.4502,110.3717,-27.1313,29.8383,-144.5975,128.0356,24.7639,16.8909,187.2965,141.9097,35.0736,81.9525,15.4676,162.0767,10.5505,-41.5632,-787.8627,-17.2579,-58.1205
-1125.0000,57.2561,57.0364,-12.8286,36.7238,-128.3345,-118.7830,-103.8170,-60.1871,-141.1122,138.7536,-127.2708,60.2610,-111.8495,3.2950,-107.0497,35.6157,-152.4786,825.3302,-233.2268,76.7516
-1117.1875,13.1960,52.5670,-18.0553,98.5159,-98.5291,-52.0225,-110.6883,-29.1914,-37.1457,24.1884,86.5111,91.3848,33.5162,-38.9258,143.7904,66.6361,190.5337,-414.6346,3.7591,-2.4360
-1109.3750,137.5609,50.5530,112.1470,46.7484,-4.2861,-68.8177,93.8768,-82.7426,-90.7462,155.0947,-3.2886,38.9513,-24.5937,18.3074,-19.9392,50.1100,-143.0118,-114.9877,-153.8043,-19.1578
-1101.5625,-4.4884,65.1216,-113.0397,45.5712,-266.4160,-1.0056,-240.9434,-14.6896,-278.7277,113.5881,-45.4489,144.1111,-105.1735,123.1420,-62.0332,8.1845,-2.9214,624.0864,-82.7378,85.7101
-1093.7500,144.7136,57.6121,47.0343,53.6388,-69.2770,87.0482,-80.4993,36.6062,-81.4594,54.3417,152.6299,84.5064,49.7746,100.2321,136.1040,-13.4903,75.3778,-810.5125,64.5575,-47.1665
-1085.9375,61.2866,52.1006,-44.5200,41.1009,-86.7546,69.5013,-97.6878,19.3138,-171.7954,74.5202,-158.8944,30.3098,-114.9563,45.7428,-138.3541,-31.7493,-182.9198,689.3156,-88.7424,45.3697
-1078.1250,-51.3458,-29.6991,-85.2696,-36.6376,-54.4118,64.7597,-65.0447,125.8354,-29.3105,-39.4828,56.3997,-10.0963,48.0051,41.0644,114.0097,1.8016,126.5647,-232.1946,150.7673,-32.3024
-1070.3125,96.8022,-66.9071,72.7585,-99.5795,176.7085,-34.1845,240.3868,100.1630,17.9684,8.3282,67.4661,-146.7122,104.5771,15.1857,88.1608,-24.8375,-183.1714,-364.7423,53.0653,-95.1595
-1062.5000,-87.7583,-65.8263,-161.9113,-107.2248,-21.8766,-49.8221,-31.8801,85.8059,-142.4418,31.4501,-94.1393,-51.0329,-15.0678,37.6079,-0.3454,34.8267,-119.5688,752.8602,-26.3073,37.2727
-1054.6875,-25.4060,-87.5769,54.3391,-80.9741,159.4473,-89.5695,149.7765,45.3437,37.0578,28.4852,196.1438,-16.4675,180.4165,70.9305,254.0320,31.3932,-23.0990,-838.6089,36.2042,-76.3950
-1046.8750,68.7256,-12.6408,73.3667,-91.9269,30.5486,-217.5191,95.2134,-9.3198,-90.6446,48.3174,-78.7728,1.9029,-33.0656,53.0609,-58.7991,50.7620,-315.8097,592.7863,-220.4810,52.7525
-1039.0625,30.3631,31.5411,-41.0802,-25.3827,-119.8316,-184.9612,-128.8247,-49.4785,-57.8312,-29.3517,63.8440,108.7605,16.3181,48.6936,121.8942,46.6348,68.9849,97.5132,-81.6472,85.3903
-1031.2500,213.1391,69.4763,153.6097,51.3063,37.9256,-137.2533,102.2697,-184.4858,27.1097,-16.8451,185.5865,82.7594,87.1102,-13.5017,132.7123,-15.3339,-66.1011,-493.4508,-216.6803,-13.8081
-1023.4375,55.1428,84.9666,-16.4621,105.2408,-169.0702,-123.2898,-177.3900,-244.2246,-105.6888,-39.0811,14.6031,134.0009,-63.8322,-0.4349,-73.1851,-74.0426,-116.9041,931.7158,-338.4311,110.2396
-1015.6250,110.9002,64.3032,120.2314,89.9169,-69.2963,-60.5785,-40.2691,-144.2142,-5.7152,-194.5565,262.3668,123.9769,122.9086,63.3823,210.6748,-84.9992,114.0128,-665.3900,-107.4369,-9.9663
-1007.8125,205.8849,98.6239,179.1507,113.8384,-119.2921,-1.6124,-54.9345,-120.9475,-129.4974,-134.7802,27.3696,73.2019,-39.0458,86.4572,-62.2203,-62.7005,-282.8098,378.8640,-258.1938,49.0926
-1000.0000,-24.1284,67.4750,-60.9040,130.7617,-323.2611,89.3625,-367.5814,5.3260,-186.2692,-45.0177,44.4083,163.4218,-72.7837,139.5401,-8.1005,28.5999,14.3843,359.9263,-65.9268,66.1396
-992.1875,15.0542,-26.4748,98.2442,64.8845,-54.0304,138.5351,-61.0327,54.7953,46.1430,115.9352,93.6370,28.8330,37.8950,78.8317,115.1807,78.1027,-121.2551,-690.6752,44.5211,-105.6015
-984.3750,-126.5845,-67.2357,-58.4260,-43.7884,-135.6058,-18.0850,-106.3018,9.4739,0.7647,107.0763,-134.9035,-16.5592,-73.9799,33.3262,-41.3047,32.8058,-228.6640,854.8555,-63.8039,32.8596
-976.5625,-25.0201,-65.0636,14.1117,-82.2692,9.0466,-56.5100,2.6725,-28.6422,109.6107,-77.5643,156.7592,-17.7673,121.2980,32.0194,215.4348,-5.2912,49.0900,-484.4932,145.0785,-5.4853
-968.7500,105.1630,-37.4769,111.2587,-91.1124,142.3205,-105.2881,100.2911,-78.0936,-50.8979,20.4644,33.0424,-67.3360,56.9237,55.3787,17.8161,-55.7249,-276.5215,172.9455,-76.3827,54.8386
-960.9375,-96.9655,-27.1665,-140.8897,-12.2634,1.2993,-26.3591,-187.3702,-34.8239,-190.6777,-9.8051,-33.9431,11.7832,8.0425,60.4526,22.9379,-12.4469,-21.4142,568.8995,37.8858,133.8529
-953.1250,-24.6956,-82.3812,51.3642,-11.0155,230.6656,-19.0366,114.3785,-27.1545,37.9463,-0.6714,120.4587,-90.7123,181.4855,-4.0644,252.4483,-3.7630,-19.9447,-694.6465,40.5387,-4.7211
-945.3125,-26.5002,-47.4782,-104.4568,-48.8229,0.9615,-100.7590,-3.9476,-108.5198,-7.4760,64.4073,-145.1752,-61.2533,-42.5113,-12.6111,-13.0759,23.8805,-233.5001,885.7370,-206.8408,133.6664
-937.5000,-76.9028,-43.0328,-117.8628,-29.2351,-49.3227,-41.0787,-89.8388,-84.4798,126.5151,-22.1023,24.6106,34.5917,54.0523,10.2565,230.8133,47.9313,138.3256,-290.5988,-11.8055,83.4475
-929.6875,54.6695,16.9040,95.7053,68.3433,54.3680,-48.3981,50.2522,-164.4289,46.5060,46.4008,-55.6208,-8.5761,-1.6582,-32.8640,40.6865,4.9910,-80.8647,-52.7816,-194.7749,40.2470
-921.8750,-66.1256,68.5124,1.9259,122.5627,-148.2798,-30.0578,-224.9958,-146.7153,-155.8168,-9.4555,-73.1631,82.8949,-78.6836,-51.3324,-87.7463,-14.2927,114.6272,740.5118,-175.0617,94.6895
-914.0625,66.0783,42.9215,222.1502,150.7711,71.0847,42.2779,-5.2238,-110.9991,-9.1291,-119.3048,256.2885,9.3478,132.5368,-51.7931,94.8082,-50.5722,143.0754,-814.1402,-6.3546,-52.8620
-906.2500,86.1568,52.6348,90.2489,64.8741,-96.6638,-16.4815,-63.5804,-131.3707,-103.5483,6.7581,-23.3563,-13.3044,-79.7406,-37.3406,-183.7289,1.0579,-153.5588,718.1293,-161.7294,72.4979
-898.4375,-16.8165,13.7365,-15.6835,-3.0771,-202.4308,25.7163,-130.9549,-53.7814,11.0056,86.7772,55.9782,28.9711,-23.8932,5.0661,41.7143,43.6464,201.7499,-87.8096,122.8578,40.7985
-890.6250,135.9813,-9.8397,148.1619,-26.2336,-39.4113,41.7151,105.4616,0.6165,64.3533,177.6038,-0.9104,-101.9668,-11.9187,21.2826,20.9430,60.0409,-68.1643,-391.7899,29.2343,-53.0816
-882.8125,-101.0430,-40.5536,-104.7990,-53.1960,-182.1854,8.9192,-109.9149,78.2277,-42.0694,181.6224,-217.5631,-60.7100,-128.1776,25.7095,-84.5954,64.6419,-59.8462,812.2792,38.8440,61.2349
-875.0000,-94.9671,-111.1179,-18.6471,-81.0715,51.1657,22.2131,160.8426,128.9407,192.6256,159.7404,52.8927,-84.3747,103.3886,-33.7492,222.9639,41.3457,17.5300,-799.5463,221.5464,-72.3483
-867.1875,-81.5722,-126.3519,-82.1773,-136.6080,62.8548,-77.1512,208.9357,67.0154,93.6753,245.2055,-155.3101,-145.6976,-28.0717,14.1583,-23.1153,16.4080,-318.7349,446.0440,-9.3874,12.4324
-859.3750,-229.1738,-147.3648,-198.6946,-144.1466,18.5616,-84.5211,-18.9330,133.1006,86.7552,238.6736,-16.4840,-81.0380,16.3100,44.0693,43.8427,46.4737,25.0102,86.4493,159.7051,5.2023
-851.5625,-34.7345,-114.0512,83.8291,-90.6385,228.2910,-57.8489,265.2454,86.2441,149.8826,191.1922,46.3801,-165.3411,97.4561,-76.9646,69.8277,35.5944,-96.2226,-631.9519,108.8397,-115.9599
-843.7500,-64.5646,-26.0992,-64.9128,-50.3831,6.7527,-59.4213,7.1650,12.1591,-34.2176,7.4508,-136.9735,-55.9056,-61.1875,-78.2378,-114.4044,35.4794,-90.6697,780.2913,-61.2421,30.6316
-835.9375,12.5570,-3.3475,20.3099,26.8113,92.1731,-47.0431,56.0680,-11.9663,88.6618,-53.3322,168.6274,-6.5478,133.1392,-65.5545,191.3302,-25.6797,197.7979,-690.5620,51.6259,-67.8277
-828.1250,88.0462,-5.4131,97.8952,32.3939,95.9621,-80.2579,97.3484,-154.6760,-17.0653,98.2950,25.6200,-76.8004,39.3124,-61.4470,12.4647,-21.4228,-148.3334,229.0918,-223.1029,-26.8699
-820.3125,-112.3241,-1.9496,-77.3624,113.1267,-42.0855,2.6900,-149.2022,-72.2137,-44.6192,-38.9234,34.8031,6.0810,29.9526,-15.1707,58.7823,-12.0093,143.7057,274.6991,-106.6555,19.2261
-812.5000,78.2441,22.3414,199.3226,92.8112,161.8116,58.5937,90.1974,-88.7937,85.7781,-202.1833,164.9194,-11.1072,146.6378,-68.9366,152.0300,-102.6383,52.6616,-730.6343,-56.2741,-71.7156
-804.6875,46.3405,73.1722,11.5390,26.0482,-98.7533,-17.9423,-132.8704,-164.8112,-63.2605,-167.9187,-58.3909,95.2514,-69.6585,-35.1431,-108.1446,-104.7048,-82.8019,856.5204,-156.3204,108.9020
-796.8750,0.0357,33.6462,40.3668,-21.1214,-107.6924,10.1272,-104.3102,-99.2244,75.3221,-175.0649,152.9249,160.1936,67.5861,30.2624,177.2998,-40.1636,187.3120,-491.8172,113.2356,27.1201
-789.0625,8.6000,-7.0984,86.0663,-82.3939,11.2465,-17.8949,125.1234,-89.7300,84.7946,-128.3037,-21.8688,96.0261,10.9502,39.5873,39.6357,-30.7117,-190.6778,43.8629,-18.3090,36.2573
-781.2500,-189.9993,-24.6267,-162.3817,-104.8170,-162.9475,-8.0550,-84.5730,-42.3662,-15.8540,-155.6933,-47.7830,141.6907,-34.9148,48.7815,11.8593,-56.4030,67.2067,583.1901,65.0351,119.2324
-773.4375,-18.3557,-20.4567,24.4208,-74.0027,97.1158,32.0339,101.9992,-39.7343,171.7596,-151.8277,138.5383,70.5743,110.5317,16.2396,163.3232,-90.8385,135.2984,-827.1578,168.6229,-24.5365
-765.6250,-54.3467,-10.9433,-90.4012,-72.8060,-18.4270,-10.4839,-49.0348,-79.6746,56.7878,-81.5745,-122.7176,28.8401,-72.1046,11.1060,-97.7895,-21.8586,-75.1908,755.8695,-76.3597,81.1063
-757.8125,-123.0434,-20.9955,-86.9094,-37.3204,24.3587,69.2955,-116.7248,-38.3063,99.1499,-186.0300,66.3642,71.3804,62.3108,-19.7190,127.4248,21.4287,277.6050,-332.9430,135.9718,13.0452
-750.0000,41.3880,-12.0648,87.7049,-47.6896,272.2700,-13.7803,131.7224,-46.7852,90.6630,-122.3275,20.5814,-11.9383,69.8035,-28.3762,8.7791,-24.1285,-49.4617,-274.4622,-49.5595,-32.8451
-742.1875,-147.6935,-33.6298,-150.1824,-95.5549,33.6789,-68.3508,-142.3282,-27.7429,36.6953,7.8816,-180.6670,43.2326,-72.0350,27.4834,-46.3272,-5.1736,78.0017,661.3400,-62.5573,59.7607
-734.3750,-22.8820,-49.7488,21.8341,-76.5213,170.9917,-79.0214,104.5412,-36.7887,210.6381,34.9951,65.9749,-3.7206,103.1923,-18.7458,201.4618,21.6917,168.3273,-831.9257,28.3405,-60.7272
-726.5625,-11.8064,-0.7055,-45.8838,-30.1958,-8.4183,-109.3882,73.6924,-103.5105,32.8995,41.3938,-148.0806,0.6177,-79.3631,-13.6593,-85.4341,64.8715,-101.0247,622.1321,-239.4393,92.0989
-718.7500,-105.1843,11.7015,-107.0437,51.6669,-105.2547,-24.2050,-96.5663,-90.6660,82.7490,-18.6685,47.4551,86.4818,5.2560,-37.0072,73.2583,40.6081,227.1687,-35.4336,-86.6442,104.4658
-710.9375,46.4668,-14.2634,91.8194,28.5684,20.9438,-7.9716,177.2187,-110.7585,210.6522,108.3315,65.0242,-44.6246,37.9382,-94.2853,53.9851,-15.5941,-42.6130,-410.8146,-74.8056,10.9009
-703.1250,-109.6569,-54.5094,-148.0783,-92.2808,-218.6066,-27.4721,10.2523,16.4203,154.8292,199.5707,-175.1223,-63.4971,-135.1375,-75.3008,-112.0027,38.4614,-56.1071,769.9098,16.3206,101.5849
-695.3125,-22.9778,-110.6030,-13.1699,-181.3291,-47.3428,-2.1703,220.1136,153.4070,327.8243,189.5969,107.5323,-150.5920,65.1608,-87.5056,133.8157,64.3227,136.1678,-832.5895,281.2458,-56.9300
-687.5000,33.8691,-111.8979,6.9035,-229.1777,-26.9054,-55.6607,205.1503,137.6075,202.0203,283.8122,-128.6175,-202.4922,-72.3976,-29.4902,-103.1575,49.3994,-263.3447,350.1776,92.3801,0.7730
-679.6875,-139.0414,-141.8996,-138.7660,-226.7787,-99.2025,-17.8901,-14.5335,213.0792,93.4979,249.2810,-90.4797,-128.1601,-18.3804,45.7949,83.1503,87.7370,20.3963,70.0034,236.7941,38.7163
-671.8750,-2.4218,-168.3186,44.0921,-229.8513,159.0408,-16.5798,244.3369,178.1204,131.5399,250.3165,21.1933,-201.3058,98.5456,46.6556,157.9907,125.6376,-192.3506,-671.5017,199.7577,-33.7749
-664.0625,-99.8757,-161.4387,-174.1178,-291.9953,-22.7712,-50.3214,-45.8414,181.1429,-48.4378,216.2920,-160.1553,-163.5249,-76.0317,160.4767,-96.1774,128.5052,-255.1145,848.8311,103.7115,115.6879
-656.2500,-11.1809,-154.8613,-113.1646,-272.9997,112.5849,11.0814,16.1742,207.3316,86.7574,95.4151,122.6668,-138.6211,98.5910,186.4623,149.8152,117.5288,10.2452,-715.7531,298.8185,-5.7027
-648.4375,82.6806,-98.4501,-15.0447,-213.7945,137.1134,-1.3091,114.3647,195.7334,2.1571,47.7248,-36.3168,-150.5207,11.1043,100.6673,-46.0040,69.7589,-316.1827,115.9552,43.1307,19.1231
-640.6250,-62.5117,-45.9705,-205.9606,-76.6302,-89.3923,65.2580,-185.4797,189.0919,-76.4566,-68.0357,-6.3088,-12.4807,-24.1168,94.8270,-15.8335,62.9466,-39.6339,357.4090,39.4164,85.8891
-632.8125,58.8911,-27.6165,36.7158,9.1345,116.6965,15.4190,95.2777,103.0556,93.5373,-45.2066,165.2961,-25.8613,110.4918,8.5935,118.9244,13.7401,-57.5145,-822.4383,22.2917,-37.7296
-625.0000,-4.2807,17.7747,-70.1781,52.3448,-63.7826,-54.9614,25.4707,-75.5108,-13.0117,-4.9427,-124.6221,-23.8056,-88.9137,-25.1722,-133.8384,-20.0037,-154.9087,768.1014,-179.3534,76.1082
-617.1875,24.9518,38.5053,37.3462,45.9498,-29.8371,-20.9333,24.1038,-78.6610,95.8622,-152.2863,92.8789,47.6207,53.8690,10.4798,120.8202,-58.3426,226.0808,-505.0855,-8.5844,0.3369
-609.3750,204.0541,71.1216,260.7359,49.4486,10.9884,-17.0029,101.6322,-109.8971,27.6415,-75.7281,24.2658,-23.0727,-10.2049,15.0475,-58.6288,-53.7708,-87.0357,-116.2520,-179.9133,4.4778
-601.5625,51.0365,103.2178,60.0221,107.8364,-262.2713,39.8338,-243.9129,-15.2072,-97.6348,-90.2796,-28.4108,70.1218,-114.2388,35.5308,-147.1311,-32.2921,112.7782,575.2776,-155.3038,98.5075
-593.7500,124.6151,83.0212,216.9049,146.8182,-105.9276,124.2695,-12.8389,33.0898,23.6987,-117.2292,203.5031,42.8928,53.9919,10.6265,46.9554,-21.2021,152.1606,-829.5352,-10.0992,-37.8542
-585.9375,36.8637,76.4645,48.4529,129.4939,-199.9002,139.4152,-106.0847,49.1091,-106.2544,9.4995,-110.8660,21.3477,-143.4903,26.4418,-230.2424,-5.4015,-109.7253,665.3372,-131.1624,51.4959
-578.1250,-80.0372,35.4278,-33.1318,119.0141,-170.9946,242.4149,-114.4441,115.9949,-40.3265,-33.9376,28.6490,49.6189,-15.0419,20.1169,20.4429,-48.7421,230.2342,-331.0981,104.6462,-29.3135
-570.3125,69.4301,49.3003,162.6538,127.9226,62.2961,181.8108,120.5865,56.3012,-25.9987,-56.9715,-31.4484,-11.7280,3.7876,-3.7827,-39.4815,-71.6664,-76.4316,-358.0055,-25.1481,-89.7056
-562.5000,-49.2774,60.8264,-76.7244,150.6723,-102.5583,127.0569,-153.5232,39.4893,-152.7820,-147.1599,-121.6581,6.7570,-96.8869,16.1888,-166.5114,-52.7244,17.7786,684.7596,-71.0552,39.7463
-554.6875,65.3620,51.3350,86.2438,159.7554,133.9448,106.6448,45.7528,19.0391,46.8186,-278.0039,187.4804,-15.4385,116.0250,-40.4771,69.8173,-35.4249,167.3015,-891.1133,115.3874,-91.4472
-546.8750,66.3248,67.9628,47.5218,127.1819,95.7690,32.5801,9.3625,-17.0434,-136.2222,-131.5092,-107.0271,-53.2933,-68.7760,-40.7783,-223.4896,-35.7619,-111.7968,517.3951,-57.8027,-18.2725
-539.0625,-89.9082,21.1495,-78.3916,75.4028,43.4051,53.3191,-152.1917,78.6938,-77.4328,-146.2163,-10.7016,4.6293,-9.8041,18.7294,-54.9608,23.7088,224.9120,-97.4787,174.8363,-33.3050
-531.2500,49.4822,2.8761,108.3240,75.2744,193.6704,19.7058,145.9072,83.0951,37.0156,-143.2734,66.2583,-66.8110,66.9171,21.8979,-14.7985,-10.1647,-56.7485,-591.5782,105.1240,-103.6735
-523.4375,-78.4993,32.9200,-105.3222,88.7936,-56.4218,-9.2467,-139.3391,55.1734,-27.8562,-133.7060,-145.0917,13.3831,-111.6158,30.7288,-188.9511,-1.3771,-42.7185,792.8258,-55.8982,51.6040
-515.6250,27.5251,57.7136,10.0411,125.3052,23.4998,70.7982,-22.5477,26.2616,90.2921,-237.1502,118.5692,55.5486,67.7450,1.5742,111.8988,6.4159,240.2914,-789.8100,87.0849,-52.1204
-507.8125,115.1196,111.0828,61.9637,178.4099,-34.9995,49.4483,-7.1726,-68.0325,-40.9547,-222.0023,-86.1823,33.3012,-73.7237,-19.9543,-128.6486,-15.1817,-93.0845,352.2218,-174.3113,36.7689
-500.0000,-5.3410,100.7946,-66.1580,163.4567,-198.5232,69.0613,-242.8095,-46.3588,-55.2195,-274.9238,7.0543,88.9793,-68.6216,37.4776,-71.2050,5.1762,209.5064,265.9959,-11.7194,93.5983
-492.1875,160.7363,67.1734,186.2556,83.0425,17.4967,28.2244,47.1059,-51.1221,51.0696,-168.2999,150.8352,10.1822,56.2101,-2.5272,34.7747,-34.9035,59.6132,-659.5643,-19.5870,-21.0060
-484.3750,21.5772,49.3656,-2.5589,50.4297,-169.6953,-11.7986,-212.1975,-52.0588,-134.8159,-134.8749,-71.5606,5.1775,-115.1269,68.2912,-187.4149,35.8386,-41.4533,854.5763,-120.6256,123.1925
-476.5625,-21.4866,-10.1359,-5.2722,7.9125,11.2261,-14.7174,-104.3594,19.1217,47.4337,-247.3393,146.1458,2.2483,75.6550,67.2268,103.5126,71.6931,196.5532,-561.2759,153.4441,10.4842
-468.7500,27.0175,-62.7868,45.5744,-49.0215,135.7273,-110.0423,95.0751,34.9242,26.3001,-85.2150,14.4400,-131.1041,26.0545,8.7809,-64.9611,87.1608,-245.8349,119.5734,-6.8718,25.3934
-460.9375,-180.5331,-151.8433,-174.6241,-150.0284,-46.8005,-108.4208,-86.5070,147.7010,-7.8417,25.8387,-20.2674,-130.5309,3.4990,47.2978,10.5588,162.5864,-136.2444,438.1677,104.8034,100.2413
-453.1250,-52.8415,-213.6150,1.4166,-232.7925,129.9268,-116.5529,238.1744,178.7403,207.2696,57.1409,157.2686,-211.7321,148.1205,115.0773,189.3216,156.2658,-253.4337,-770.9102,199.7223,-16.6528
-445.3125,-86.6281,-179.2198,-151.0250,-267.0009,-21.8122,-157.1292,86.3907,175.3477,55.9474,15.9704,-140.6231,-217.3899,-50.6331,148.4212,-71.3398,152.5007,-392.0305,811.5073,96.2163,126.0088
-437.5000,-113.4086,-190.9641,-137.4588,-256.2143,28.4650,-105.7060,64.6471,226.9706,145.6583,-43.2059,94.5046,-205.0725,115.1040,89.7730,200.0216,166.7425,4.3676,-411.2063,319.7247,66.6618
-429.6875,13.8878,-138.7554,-4.8243,-199.3358,125.8149,-155.1880,236.9925,142.7080,97.4740,91.7265,-28.2880,-218.6688,61.2962,4.2395,78.4700,119.0979,-253.1351,-74.6987,97.3405,54.4325
-421.8750,-196.1285,-101.6179,-226.4938,-56.7588,-132.1308,-82.9631,-166.9456,142.1681,-48.9818,164.3446,-64.3424,-73.5743,-51.7169,40.4209,-31.3400,155.1594,-39.9024,629.3139,-4.3074,126.8940
-414.0625,-64.4477,-62.5330,-7.4660,75.5152,51.6331,-9.0415,17.8381,107.3328,136.2728,54.6539,157.3000,-74.8028,88.4489,42.3107,116.5425,119.9284,93.0050,-892.9317,58.7419,-55.9407
-406.2500,-14.2973,30.3269,-31.9739,125.2842,-46.1222,40.3866,-78.8932,-25.9805,3.0474,-78.5476,-159.5513,-63.5444,-95.3058,-17.2813,-126.0573,60.2105,-32.5516,598.3097,-134.6799,30.7302
-398.4375,-47.3434,8.1894,-27.6733,57.8488,-41.0531,81.6221,-145.7882,-56.4785,46.6619,-182.9547,66.4279,-59.5129,47.7764,-11.0620,99.1689,-7.6970,393.6874,-279.8161,115.7163,-0.8115
-390.6250,119.8387,10.0279,149.8537,49.6594,63.2507,39.1103,68.5558,-97.7125,78.5226,-42.1146,60.6438,-140.2437,39.9177,-15.5825,21.6278,24.6506,105.1653,-429.5584,39.3547,-43.0859
-382.8125,-14.8458,16.6283,-106.4789,56.6140,-191.2888,78.7535,-257.9392,-19.7760,-100.4408,-39.1365,-81.9548,-101.8339,-118.0006,61.0558,-158.7280,101.1559,146.8354,700.6761,12.1850,69.7823
-375.0000,36.5230,2.9631,65.2414,73.6171,17.2327,104.4447,-11.3537,80.2194,72.6677,-197.1235,127.4936,-114.3943,72.2361,87.7570,87.9631,53.7192,305.5281,-903.0398,242.0595,-88.2988
-367.1875,14.8688,-2.4416,40.9210,17.6074,67.7295,44.1328,76.2110,22.2346,-22.2144,-73.1187,-116.0658,-138.9677,-66.2121,65.4855,-190.3384,-4.7028,-30.7617,341.2910,82.9541,-37.3647
-359.3750,-123.1337,-47.9014,-64.7478,-49.7665,72.8938,49.4675,-27.5339,64.9261,-15.4111,6.5542,1.0548,-97.9161,15.9060,34.8824,-37.9524,1.5350,289.5993,-114.9235,263.5277,-68.7934
-351.5625,12.5507,-57.4241,119.2568,-53.4507,331.7433,51.4899,232.4216,31.3349,61.0951,44.9321,76.8576,-135.1784,105.5751,0.9925,1.1192,3.4812,74.6355,-753.3101,191.7968,-177.5088
-343.7500,-96.1350,-14.9589,-74.1028,-21.4877,102.2327,6.1700,-32.9721,24.4110,-165.7224,-0.0693,-115.6605,-33.8001,-61.3364,66.7620,-189.1229,33.0861,2.3711,613.8247,84.7594,-38.5764
-335.9375,-21.8191,-24.2821,45.5464,-16.5280,222.7387,15.8497,51.6730,72.4961,-81.5106,-27.0769,189.8227,-25.4428,136.4408,41.5327,78.6433,6.6915,219.0924,-896.0978,267.7346,-138.6503
-328.1250,2.6215,-27.6572,105.3133,-27.4229,209.3704,-33.3195,150.4542,-12.2582,-130.1452,145.0571,-5.5531,-75.9465,23.0595,-6.5360,-117.4423,-4.5434,-107.0222,111.2078,-22.1253,-77.5635
-320.3125,-144.7861,-16.7560,-50.7572,37.8287,54.1764,-4.3318,-3.5802,-18.8425,-62.6015,-46.6768,24.2528,24.6870,57.8244,-13.4501,60.6568,-11.6286,170.0355,104.4613,-25.8014,-11.3412
-312.5000,50.4509,26.4823,156.8103,127.7341,226.6243,57.3079,243.0371,-102.7700,74.5882,-168.7642,123.6846,11.9609,176.9439,-60.7071,233.3850,-59.0613,84.7248,-827.5286,-144.8347,-96.4577
-304.6875,-49.3341,48.4586,-27.6471,169.6449,-30.9373,20.9632,23.6393,-99.6771,-69.2048,-20.8720,-94.8628,48.2317,-24.7629,-58.9552,-22.8668,-21.4897,-84.5396,724.3964,-346.8366,51.4237
-296.8750,-91.7668,-9.3234,44.2580,127.9057,4.8788,56.9786,60.6290,10.7769,77.3716,16.3677,198.9549,45.8327,137.1337,-58.8418,199.2418,16.4347,191.5310,-690.4290,-105.4854,-59.3600
-289.0625,-70.7199,-32.6283,140.6387,79.6655,66.1778,44.4980,197.0994,-0.2606,30.4376,188.0990,39.2582,-5.0723,47.5358,-33.2120,3.8393,4.8675,-137.8880,-108.6481,-221.6357,-71.6340
-281.2500,-223.8207,-29.8731,-58.1302,67.2783,-95.6580,140.8804,-110.5670,60.5654,-56.6206,173.6696,-84.5513,52.8685,-38.7220,27.2738,-9.6808,28.1516,133.5790,299.7822,-124.9043,-12.0740
-273.4375,-78.3202,-42.7399,136.6954,72.4894,137.1077,189.8581,159.3735,110.9986,67.9211,112.8388,113.2194,-9.6082,124.2182,3.3669,150.3785,4.0427,103.6218,-1034.1063,-13.5796,-146.9089
-265.6250,-176.9342,-58.5728,-43.6049,45.5976,30.7582,194.7378,18.1963,116.3489,-109.6274,153.8899,-139.0999,-43.1916,-53.8833,46.3737,-137.6451,46.8391,-133.3940,555.8659,-142.3261,-31.8404
-257.8125,-246.8871,-89.8024,-113.2344,47.3451,73.0899,236.2654,-12.2905,160.3661,-29.4968,85.5811,124.2560,-3.1504,101.5619,52.0398,89.0057,15.2868,185.2325,-570.6501,106.5866,-100.1376
-250.0000,-133.0101,-98.4521,43.9575,20.9378,231.2534,136.6381,183.0629,99.2467,19.4778,134.1169,99.4410,-67.2678,116.0471,-9.4380,27.4924,-9.4097,-121.3001,-423.1781,-23.6547,-125.5728
-242.1875,-252.1396,-70.4040,-197.8605,41.5314,-9.5792,80.0167,-92.5674,118.1430,-107.5236,77.6351,6.6583,-14.3906,5.1957,9.0926,-64.9783,8.8980,41.2044,474.1117,-0.8686,1.9835
-234.3750,-107.2155,-73.4452,-3.6284,13.1747,185.6367,92.4414,103.8703,168.0913,51.5271,-57.7891,202.9168,-41.4738,173.2699,21.6796,169.5872,21.2580,153.7319,-999.5081,113.9599,-96.4090
-226.5625,-54.8144,-26.6755,-27.9240,-4.6828,52.3308,32.3689,7.7858,109.5517,-78.9253,-44.7108,-40.3230,-66.0526,-27.1815,36.7756,-146.3467,36.1229,-74.2090,458.3891,-112.6871,27.7024
-218.7500,-107.8523,-8.2104,-119.6534,48.0087,-75.3993,52.8503,-116.7079,57.5750,-21.7992,12.9018,165.0089,25.9049,41.3818,21.4274,21.2936,20.5317,296.4053,-265.3343,12.2436,11.3455
-210.9375,116.6462,40.1052,82.1407,133.2509,16.4033,33.8854,85.3418,-69.8434,108.8734,-4.9477,184.8656,-30.5970,55.0357,-32.3543,4.4613,-33.5044,30.5542,-533.3653,-111.2843,-43.4491
-203.1250,5.3867,85.2370,-149.8235,127.7412,-214.5392,60.1801,-180.3549,-77.9979,-9.1860,-88.5603,-82.0002,68.1483,-120.6079,-4.8828,-115.0989,-6.2872,97.0055,654.7050,-148.5289,92.9975
-195.3125,74.6374,47.9557,-35.2768,92.7296,-97.9622,103.9763,47.4741,3.3531,182.2673,-82.6633,108.6331,36.3719,50.5967,3.0834,186.8312,1.4287,237.9344,-931.7314,98.7217,-47.0651
-187.5000,67.9155,13.7653,-81.7123,15.7662,-179.3549,21.8346,113.3276,32.7700,101.7746,93.2769,-155.6966,-47.3534,-109.2767,32.1125,-42.1918,30.1961,-153.0644,325.9422,-45.9644,17.9278
-179.6875,-58.3990,-21.6739,-249.7398,-38.7951,-274.3278,38.1022,-53.3893,124.5991,119.7054,72.5962,-29.6001,4.3122,-57.6666,86.5551,86.2139,47.3657,143.3476,-48.1677,182.7734,34.3038
-171.8750,56.7785,-40.2628,-52.2887,-28.8589,-37.8103,16.8572,257.3933,141.9340,211.1259,51.4192,60.9736,-55.5290,48.0267,66.5006,140.1027,28.0424,-90.7673,-742.6422,161.0041,-59.8085
-164.0625,-139.7621,-81.3463,-261.5570,-48.6320,-172.9971,-8.0950,86.4764,155.5830,76.8639,-10.4566,-109.1320,-82.0715,-74.2104,116.7500,-66.6779,40.0271,-179.5493,712.0783,72.5686,62.3763
-156.2500,-124.6457,-135.8683,-167.1648,-102.7614,-4.5124,-21.4056,221.2469,216.8907,285.2677,-60.6786,208.4123,-96.9738,143.4569,103.6516,214.1969,27.6606,47.2911,-857.5965,337.7779,-61.7967
-148.4375,-42.7468,-125.9262,-157.0040,-126.0884,43.7515,-120.9164,343.7968,120.0104,262.4596,24.8880,-37.2629,-161.0697,39.8218,80.3592,79.8577,-33.9074,-290.0542,66.6328,140.7902,-13.1583
-140.6250,-182.2839,-130.8944,-378.2830,-157.8581,-103.4180,-119.8671,86.9169,120.6866,226.2229,-13.0079,-36.3587,-52.6217,28.0519,117.6134,190.0954,40.0717,-6.8157,207.2222,215.3712,60.0131
-132.8125,-32.3634,-137.5943,-144.1171,-149.1768,95.8520,-142.3697,324.4838,101.8073,281.4259,3.5608,126.9780,-111.7329,160.4799,97.3177,317.7593,57.5013,-65.1518,-875.6185,228.3808,-34.3594
-125.0000,-63.7555,-101.8148,-292.2694,-178.7965,-88.1979,-252.1682,103.7337,29.6357,97.3356,112.8228,-92.9739,-78.1393,-31.2831,97.7276,60.1437,56.6331,-199.7406,709.1844,59.1149,111.9684
-117.1875,-64.5308,-123.4018,-179.8010,-179.8174,-10.6290,-247.3706,110.6164,35.0632,288.8628,81.6780,206.6850,-73.9522,155.8695,30.7387,324.1324,-10.6410,152.2650,-630.5013,237.4498,6.8845
-109.3750,110.3362,-54.3825,3.2958,-145.1881,62.5703,-209.9188,222.1236,-35.8603,217.0221,82.1806,60.9699,-75.1093,56.1045,32.4008,105.7444,-46.2674,-163.0726,-176.3978,-7.5710,7.4623
-101.5625,-37.1969,10.4344,-192.0005,-44.9517,-204.6145,-110.8546,-154.7549,-45.1726,-85.2008,34.2740,-59.1182,96.3368,-47.8521,95.6644,94.9845,18.7048,42.2181,449.1228,-9.9687,143.6216
-93.7500,60.4226,9.1894,-49.1461,17.4368,-61.6395,-40.6381,63.5279,-9.3345,-13.2747,-5.4826,122.9254,91.9191,107.1933,132.0846,315.3535,15.8303,35.6263,-863.1261,124.7677,30.9296
-85.9375,1.6727,12.2512,-149.6636,-75.5224,-198.0282,-102.7580,38.4364,-33.8427,-0.7042,41.3955,-49.3764,64.1609,-102.0942,69.1566,-114.6219,-8.3991,-126.2741,624.2739,35.1750,114.8896
-78.1250,6.1412,5.1702,-103.9592,-140.2789,-186.1869,-55.6749,13.5759,14.8455,159.0730,-20.5403,145.5464,110.6022,9.5326,45.4236,81.6089,-70.4401,197.0301,-463.2547,288.7950,16.0335
-70.3125,163.4598,6.8515,62.5768,-159.1830,-19.5063,-34.7444,182.5479,-36.6179,143.6739,0.3663,-16.7084,18.8998,-8.1319,30.5452,66.6591,-86.6330,-102.8230,-413.7798,131.2549,-36.9632
-62.5000,-27.3703,14.7539,-141.0409,-137.2370,-183.9684,-15.9682,-90.6225,21.7842,-17.8649,-17.8787,-180.0964,36.0523,-136.6572,13.5191,-96.4110,-101.9722,96.2010,483.3960,155.5886,55.8782
-54.6875,80.0175,18.8300,52.5462,-100.0968,83.7734,-5.0070,104.4303,34.3863,177.7989,-79.9127,88.7021,9.3957,43.3191,-47.3079,61.7097,-91.1150,275.3832,-1065.1810,301.1062,-117.0799
-46.8750,89.6377,67.8171,23.3509,-53.7109,17.7392,-69.8021,3.7103,-29.7573,3.7155,2.2995,-122.2544,53.0004,-123.2428,-37.8856,-221.9128,-82.0033,-29.1586,350.5439,-3.1195,-34.7791
-39.0625,-55.5218,26.3150,-90.6246,-22.1213,-21.0767,1.6020,-217.7847,43.2926,-143.1488,-0.2981,60.0082,121.8069,5.0253,34.7334,33.6920,-46.6973,249.5073,-324.6738,136.8616,-37.2913
-31.2500,106.4225,3.7431,79.4896,-71.4261,150.1875,-46.8982,28.8027,70.4326,-80.9368,24.2066,48.3441,35.7201,60.7911,60.4491,96.3619,-20.2933,-44.7435,-656.6273,54.9140,-85.6888
-23.4375,-36.6863,24.7576,-112.4513,-72.7751,-149.6053,-54.4400,-196.6689,64.5246,-121.7705,91.6457,-177.3381,100.5915,-120.3584,18.1122,-54.9938,10.0558,-10.0017,640.2520,-49.0646,54.8559
-15.6250,39.7290,38.2118,48.1273,5.3752,10.1151,-3.4767,-72.6255,44.1113,40.9001,68.5780,94.4771,112.9570,74.0315,-39.7306,217.1363,-48.1032,245.2127,-973.3604,100.4427,-78.1062
-7.8125,79.3323,74.1612,85.8831,44.7294,13.0100,-0.3082,-68.4179,-98.1038,-101.2523,-2.2848,-49.5296,77.5365,-43.3130,-72.3679,-73.5479,-45.0629,-30.3476,224.3249,-102.8486,-1.8597
-4000.0000,67.7326,98.9215,32.2458,36.6776,-38.9605,5.9350,-170.9432,-107.0602,-103.4818,-99.3112,-35.7571,133.9146,-51.4816,-45.5932,-43.4750,-59.0840,132.5599,106.2728,-32.1468,10.7900
-3992.1875,223.4250,114.0531,234.3959,51.1109,88.7391,23.5688,137.7940,-92.0036,22.1772,-83.1488,92.5256,116.8068,34.7171,-103.0199,10.7512,-78.3250,-27.9711,-722.1957,-19.1952,-81.6824
-3984.3750,114.6153,169.6977,41.0534,118.0536,-179.0595,13.7004,-131.9763,-65.4494,-172.6915,-57.4741,-137.7064,183.1943,-159.9799,-112.9582,-219.5371,-52.0634,-65.0397,788.9734,-128.7739,55.3456
-3976.5625,90.8478,123.9700,94.7552,129.0504,-90.8109,103.8825,-81.7243,-14.8407,-12.5194,-79.7494,98.1347,164.6400,23.0695,-98.8596,90.2475,-36.7505,227.9694,-676.8381,126.7066,-75.5773
-3968.7500,147.0348,70.1222,152.4304,45.0024,39.4068,-22.9907,81.4957,-33.2866,79.6039,12.9395,-66.0644,40.0377,-42.8915,-115.8177,-74.0040,-17.4876,-208.0986,118.2478,-64.8702,-55.5605
-3960.9375,-46.5584,-7.3831,-54.6695,-78.7914,-94.1503,-83.6172,-127.0559,-21.4768,201.9538,61.8876,-89.0327,92.6926,-65.4676,-65.5225,12.9833,32.0353,-47.9265,383.7380,-14.2085,31.7174
-3953.1250,45.7387,-57.4387,120.1405,-92.6787,114.2031,-130.3389,152.3028,4.2433,557.2084,196.7263,120.9420,48.2424,46.7670,-115.3348,75.9182,20.4651,-201.8396,-790.0233,-29.6256,-89.1203
-3945.3125,-33.9116,-53.1000,-79.9886,-66.5078,-49.3929,-145.0201,24.7202,-13.9821,318.5001,326.6306,-152.0429,-2.1664,-136.3871,-57.1072,-160.1099,77.9454,-349.7461,750.3705,-215.0177,42.0892
-3937.5000,-18.9317,-51.9673,-99.4840,-51.6828,39.6429,-56.0452,36.7585,75.4591,75.4373,195.1933,120.6320,-20.9191,56.0354,-43.2315,75.5263,93.0804,16.0164,-464.5806,113.2527,-15.0539
-3929.6875,81.0125,-57.3545,40.9993,-92.9024,177.6401,-101.1236,246.7749,65.8621,-190.6732,259.7137,2.2808,-99.7297,51.7347,-51.4129,-5.8668,121.1691,-339.2915,-12.6879,1.4764,13.7331
-3921.8750,-155.0525,-110.8726,-246.5339,-117.1183,-74.3882,-94.2040,-7.2287,143.2749,-77.8185,263.2470,-102.0917,-55.5439,-28.1399,-9.5919,35.7274,199.2666,-188.6256,596.3717,79.6838,92.5287
-3914.0625,-74.0307,-181.9351,-81.9674,-142.2267,88.6828,-77.1812,337.8731,159.8111,379.1459,205.8879,61.6660,-182.2612,111.2929,6.3292,237.4646,180.4708,-176.8453,-868.6062,194.0127,-73.5889
-3906.2500,-153.5605,-146.9897,-167.9467,-116.8769,-35.7960,-90.7163,285.4473,107.8062,437.5597,264.9989,-171.1301,-156.5358,-186.7305,65.6974,-363.3550,129.1326,-430.6703,635.9281,7.7661,-13.2575
-3898.4375,-231.0173,-159.8643,-205.8484,-123.4258,-38.2045,-55.1625,208.0990,105.9155,1207.0625,152.2236,84.1744,-81.7100,-196.6249,-10.8322,-475.0611,-20.0931,-85.3803,-424.3812,175.6325,-161.8224
-3890.6250,128.1314,-104.9278,25.8747,-151.3701,82.0049,-118.0114,436.3843,4.6366,1289.1833,88.0599,57.1116,-216.2993,-127.1120,-147.7702,-319.1407,-83.7128,-289.4976,-558.2325,39.1083,-261.8098
-3882.8125,183.0726,43.2388,-107.6080,-61.5009,-163.9975,-32.0623,114.4583,15.1626,-98.9194,25.7126,-40.1759,-91.0921,-70.9460,-136.9156,-85.4400,38.4744,-92.8473,588.8759,58.3585,-101.9920
-3875.0000,423.4005,166.6395,185.3110,73.7768,54.4001,113.2881,219.9290,122.1132,-874.6186,22.7741,324.9653,-53.4935,123.8399,-139.6686,-51.3049,72.0683,113.2253,-963.7245,226.0303,-214.7847
-3867.1875,451.0273,236.5146,208.5402,135.3488,113.1186,99.9331,166.7332,70.3742,-927.0159,118.1655,127.4094,-65.6190,-144.7242,-118.1241,-726.8654,-16.0337,-175.4538,435.9843,-65.0044,-118.2870
-3859.3750,256.9727,139.0452,43.0938,117.2646,19.1728,116.9219,-2.1214,50.0031,-507.0774,23.9289,144.2016,-45.4049,-2.9048,-64.2325,-195.0685,-35.7745,124.2131,-72.8656,56.3194,-137.4341
-3851.5625,236.2171,16.9709,136.9666,96.4783,148.5547,63.2145,272.3573,30.9530,-158.8269,116.0058,90.3295,-133.9149,159.7372,27.9509,266.0659,-53.2090,-142.8270,-655.5732,-2.0390,-265.3007
-3843.7500,65.9488,23.4613,-48.6701,102.1934,-37.5675,98.9980,10.3378,65.4152,-235.0921,2.6069,-58.0628,-59.9440,29.0133,24.6368,80.6858,-19.1268,-171.4155,688.3649,-137.9205,-119.6609
-3835.9375,94.7027,15.3931,130.7305,131.9557,176.3536,129.8385,149.3677,58.9525,-96.2948,-187.7360,267.6181,-62.9343,254.7896,-128.6200,295.3885,12.0233,69.0604,-758.7235,30.2702,-161.9754
-3828.1250,31.8119,-27.6482,98.4957,104.0613,179.6423,23.0247,186.7834,-12.1460,-167.1295,35.2937,86.6573,-130.6018,113.7639,-126.5262,4.4592,51.5342,-274.1591,340.5042,-140.1927,-84.9517
-3820.3125,-213.2556,-99.2134,-121.9165,70.0115,67.7573,23.0576,74.0362,96.6252,-133.1297,71.1973,196.5398,-128.4309,170.0511,-127.5807,115.3793,13.9072,79.4571,166.7022,71.1931,-85.0692
-3812.5000,-41.5816,-143.2359,98.4296,-5.2906,286.6350,-51.1540,475.0707,58.1716,47.6414,-41.1349,306.2020,-237.5291,389.1378,-202.8858,482.0930,-60.9563,-65.1766,-716.5200,64.3577,-196.4538
-3804.6875,-109.1203,-111.0196,-90.4328,-36.7919,60.3095,-202.5729,319.9213,-22.4693,-105.7939,-47.6423,6.6419,-167.8444,238.8120,-134.3887,439.5906,-67.0113,-167.0591,836.1833,-74.6933,-18.0336
-3796.8750,-159.0354,-142.7112,-138.6597,-16.6372,46.6252,-216.3356,451.4211,74.5586,99.4207,-24.4916,214.7461,-103.5219,356.0996,-75.2448,685.7631,-42.4055,30.7314,-619.4995,155.9293,-103.9639
-3789.0625,-132.4972,-157.0594,-149.4119,-25.0269,34.4147,-262.6451,585.4069,136.0487,123.0985,148.1297,19.3234,-149.7769,205.1961,-50.6531,416.4033,-17.3379,-399.0532,111.1782,-30.0001,-78.4595
-3781.2500,-323.9331,-198.5614,-391.1260,-77.3622,-208.7622,-248.9032,339.4267,222.6071,171.8030,160.8163,-3.0633,-96.9967,143.5470,-1.0036,431.0781,32.7936,-203.8069,483.0529,92.1068,9.1048
-3773.4375,-219.2758,-250.8407,-166.7332,-111.5906,-21.8241,-209.0525,598.5661,262.2878,358.6192,163.5950,184.6824,-164.1244,315.4624,2.7538,655.8914,36.0273,-274.4473,-782.1353,126.3361,-97.2443
-3765.6250,-299.1214,-257.6290,-293.8377,-156.3197,-151.3708,-226.7011,393.2291,242.4828,190.9319,254.8924,-90.0907,-179.7764,106.7092,56.0113,342.1965,127.7667,-493.6414,827.2574,-60.9523,67.9084
-3757.8125,-415.7542,-318.2266,-303.7175,-166.8041,-125.6716,-127.0994,306.1352,340.9539,251.4987,243.4703,155.3979,-152.1924,249.8175,118.5225,552.7656,152.7692,-187.5808,-343.0895,137.0281,20.3127
-3750.0000,-277.4448,-277.7249,-159.6291,-135.3441,53.0103,-130.5504,447.0360,263.3981,172.0408,165.0337,41.8607,-153.6917,233.2741,113.9849,475.3115,148.7360,-506.5988,-99.6186,-43.0293,16.6499
-3742.1875,-389.3104,-235.3317,-319.7112,-105.0384,-143.4628,-106.1536,64.7906,248.7087,-25.5717,-31.5238,-6.8444,-53.3625,163.4471,173.2992,425.6917,172.5638,-300.8053,740.8535,-84.2449,150.8481
-3734.3750,-230.4015,-241.1295,-76.0014,-87.9340,24.8760,-83.9504,121.3657,234.8522,178.6398,26.7335,273.2794,-103.2588,319.1677,158.4203,596.9151,158.2074,-176.2026,-717.0168,2.3685,26.8348
-3726.5625,-279.6004,-209.5058,-93.3933,-30.9394,-104.8658,-101.8496,-47.1155,177.9202,47.7633,153.9281,32.2848,-119.2902,97.1443,138.4436,209.0420,175.7701,-400.7586,712.0423,-188.1226,117.7169
-3718.7500,-334.1371,-153.7305,-113.1147,55.7451,-198.9229,23.9522,-216.8952,266.7165,-47.4164,-87.1554,195.9901,8.3579,165.8574,154.1808,336.8796,191.0476,-33.6178,-80.1461,1.1004,97.3057
-3710.9375,-104.4238,-91.0747,91.4362,108.6697,-69.6965,82.0031,-88.3784,249.7855,-102.3278,-68.9611,179.9783,-42.7710,143.7052,137.1724,209.9950,137.5843,-260.2480,-306.2405,-87.4148,44.1299
-3703.1250,-245.3829,-99.0112,-133.6724,73.9342,-332.1255,113.3941,-316.5039,243.2185,-256.8867,35.6185,-7.6982,-8.5825,-6.0728,167.5216,94.4445,169.4868,-223.5757,821.1631,-122.5975,149.3159
-3695.3125,-157.7194,-121.3381,36.8663,91.8407,-199.8946,136.4364,-74.9604,229.3309,-51.7698,21.8674,235.2985,-57.7740,168.2082,152.5243,338.5855,155.0551,-66.2316,-743.9039,33.8990,25.1439
-3687.5000,-132.9611,-72.3307,20.5187,81.8424,-290.5367,120.5767,-130.2691,175.5578,-106.5334,115.2483,-37.6079,-34.8993,-65.7086,172.6313,-44.1663,175.7318,-321.8285,548.1075,-188.5076,119.0607
-3679.6875,-221.9853,-52.1896,-70.6068,133.0991,-383.9386,173.9742,-300.3323,191.0585,-54.0528,20.9052,88.7297,20.2082,-42.7644,188.9866,8.3287,191.6725,81.8191,73.4535,-33.6612,99.2335
-3671.8750,-62.5660,-50.9194,175.7380,153.8036,-65.8516,126.8309,17.0986,106.0311,42.8975,10.0283,114.5555,-62.2621,73.2857,139.7919,108.3027,107.0750,-109.0919,-572.9299,-49.3426,-22.1595
-3664.0625,-181.4169,-61.0634,-29.1704,104.2453,-160.9980,68.4348,-189.7027,83.7676,-127.4094,60.9255,-89.8888,-81.0224,-51.1455,117.3592,-58.9829,85.2393,-122.3017,820.5656,-135.2840,103.2053
-3656.2500,-154.7016,-91.5050,76.5085,95.2790,54.4713,100.6463,-86.8916,115.1359,49.8985,-54.5587,199.2838,-85.2053,143.2227,111.5371,156.3623,80.0138,116.0969,-734.4238,65.4035,-11.8353
-3648.4375,0.2123,-30.7291,164.3972,76.5148,67.1757,41.0607,-38.8333,-19.2762,24.4287,-114.8172,28.6607,-106.2161,2.6211,87.9212,-123.0896,57.0016,-184.3528,266.7182,-165.7141,38.3140
-3640.6250,-87.4493,-2.7896,-4.3043,59.1967,-64.6839,18.9212,-283.3267,-5.2177,-34.5868,-136.5987,117.4732,-16.8041,-5.2921,64.7627,-108.1038,71.4615,184.6228,320.4290,-44.3738,89.9239
-3632.8125,73.9349,5.8429,208.0548,79.9085,181.5481,9.8244,-1.7167,-15.0843,26.4763,-148.3145,254.3759,-61.3849,135.2628,17.6585,28.9744,24.9786,101.6565,-746.9975,11.0572,-30.4362
-3625.0000,-44.6238,3.7852,39.4692,66.6571,11.8518,-12.2311,-171.0193,-36.8851,-216.4060,-58.9580,-59.6789,-79.9602,-33.9406,31.6074,-138.9109,2.5474,-18.3191,822.7197,-144.4766,95.2557
-3617.1875,-93.2042,-29.3552,32.8705,89.4003,41.1553,90.7132,-144.3220,28.3425,-80.2826,6.4140,115.2748,-50.5603,86.3546,23.5683,110.2220,32.1345,251.7174,-595.5982,88.0089,-23.0493
-3609.3750,-34.2864,-33.1945,130.7834,113.6313,100.9920,152.1513,23.9314,51.0964,-94.6243,177.3224,-7.2612,-135.6995,-11.9026,10.0355,-159.1294,-17.7585,-111.7887,-78.5260,-64.9959,-35.8650
-3601.5625,-141.3618,-3.5607,-94.2904,111.8957,-124.1320,183.6354,-239.7564,82.9290,-99.9051,97.3239,-12.7701,-28.8217,-99.4694,40.5654,-237.4362,-23.5789,98.7157,413.7312,3.0511,32.3846
-3593.7500,60.3334,23.0406,123.4300,102.9460,54.5690,179.9197,47.4037,41.6024,77.6489,-53.8465,204.5489,-31.1771,69.5936,-1.0954,-20.9019,-100.5844,125.0166,-896.3823,97.9403,-118.5773
-3585.9375,73.5099,66.0125,21.6556,116.4814,-194.2011,151.6957,-92.8765,12.7965,-135.2819,-8.4857,-81.6480,-58.0706,-117.1755,6.7449,-194.8778,-56.0834,-36.2420,631.0585,-100.6728,-0.0397
-3578.1250,58.4480,62.9247,44.6537,102.8116,-245.1665,211.2774,-255.3483,108.8176,-115.3947,-22.3027,125.9610,3.8079,-16.3512,29.3966,11.9536,4.2305,301.3091,-437.6990,95.5403,-50.7000
-3570.3125,220.2787,106.8920,288.5690,124.0341,-77.1935,196.7634,-161.8625,19.7642,-131.5788,-37.1914,37.4935,-46.4554,-85.0797,86.9584,-222.2941,-47.5406,40.7382,-238.7033,-25.3297,-65.4753
-3562.5000,-6.5153,88.5877,45.8585,108.6424,-98.8203,211.6418,-442.9655,-2.8678,-301.3612,-60.6441,-93.6014,42.6510,-158.6481,137.9344,-318.1601,-33.8969,166.5241,625.8325,-41.8000,59.1655
-3554.6875,9.1136,27.0004,179.5861,124.6838,254.0330,197.9730,-165.5774,19.9816,-170.6624,-37.6239,75.7751,-6.8247,71.6038,123.3653,-1.5420,-46.7861,218.7663,-870.3334,44.2180,-101.7483
-3546.8750,-19.4652,12.9843,72.1134,60.5084,219.7251,90.0953,-163.3281,-14.3490,-168.1351,112.2233,-178.0541,-39.5439,-104.0773,87.6055,-292.1285,-44.8656,-127.2553,579.3115,-126.9657,-25.8625
-3539.0625,-87.0798,-5.6917,4.6107,29.3140,187.4190,132.2141,-234.0741,63.3495,-18.5855,6.0910,10.1120,3.7020,-13.6721,91.8607,-140.7111,-39.9303,193.7168,-223.9895,122.8692,-57.9637
-3531.2500,95.1524,-12.9150,158.9663,-0.0474,377.0079,102.1790,101.0892,32.9269,22.8525,-60.1672,16.1466,-99.2408,43.8702,60.9729,-133.4088,-33.1263,-116.4760,-464.6148,21.5793,-88.2252
-3523.4375,-78.6842,-14.5410,-103.7492,-32.4730,113.5549,59.0882,-126.7711,26.4694,-130.7579,43.5620,-208.8954,-30.2707,-118.3049,91.0442,-248.1745,-3.3560,-77.7604,805.8424,-80.7733,89.4782
-3515.6250,-92.3496,-81.8619,-2.2841,-44.7083,215.3205,14.2012,46.5972,54.2364,115.8587,182.5192,2.2841,-75.1284,43.4932,45.3229,37.2900,25.6250,120.1667,-789.6188,80.1069,-29.6206
-3507.8125,-67.4753,-88.9411,-16.2655,-90.4038,163.6782,-37.1399,67.5753,3.5738,27.0604,278.0696,-194.9922,-160.4753,-117.5023,67.1628,-269.7006,48.1702,-171.4117,432.4280,-106.4634,29.8245
-3500.0000,-194.7326,-89.0792,-149.3823,-42.2162,28.9393,49.4151,-104.5408,52.8354,38.1743,106.5517,-72.3863,-73.9537,-56.5363,115.9142,-109.7968,60.6335,122.8998,129.4604,11.8739,42.1830
-3492.1875,-2.0976,-47.9963,19.4143,10.8593,161.1499,70.8724,245.2980,1.0119,95.2266,165.9486,-13.8493,-88.5649,18.8631,62.5680,-14.9613,9.0058,-34.8861,-625.7956,-41.8613,-46.5695
-3484.3750,-66.8718,11.3777,-201.1936,51.5245,-171.0196,32.9219,-14.2378,-37.2037,-90.1123,237.9727,-234.7342,-14.6155,-198.3442,97.8294,-235.5476,43.9880,-63.1152,823.6586,-177.0113,99.2878
-3476.5625,-25.0197,-5.0660,-43.1674,24.8294,-86.5262,45.6331,-4.1134,11.2580,67.2278,176.6745,-2.9561,-2.0510,-38.0438,72.7568,33.5293,92.6305,225.3257,-645.3194,5.5182,0.7940
-3468.7500,19.4270,-19.8329,38.4736,-36.2766,-5.3885,15.9566,75.6715,-55.6608,146.1971,146.9998,-215.5690,-66.9252,-132.6285,42.2965,-141.7889,63.8832,-115.6766,209.2148,-161.3453,44.8911
-3460.9375,-149.8060,-18.6830,-140.5665,-30.0459,-73.8949,-17.3729,-105.1789,-15.2101,112.5227,77.6830,-210.8537,10.5277,-131.7362,45.2028,-100.7754,30.4998,170.6516,356.2100,-15.8505,85.3530
-3453.1250,16.6473,-24.4224,75.0990,-3.1313,178.3462,-58.0030,182.7223,-19.0341,106.5881,147.0682,-32.4116,-66.3552,12.8045,40.8244,4.9759,26.8289,56.6801,-742.2836,45.3796,-29.4950
-3445.3125,-38.1053,-30.5142,-135.4422,-92.4367,3.4187,-121.8502,-29.5291,-10.0415,-68.5265,266.2888,-280.1982,-55.4785,-186.0285,122.2567,-242.4943,108.9733,-137.5539,787.1041,-79.5992,126.4658
-3437.5000,-98.2900,-105.7964,-121.4142,-152.1630,53.1107,-108.0997,-19.1649,39.5821,162.9744,243.1405,-10.3755,-42.0350,8.4064,135.3031,101.6440,122.7322,118.8155,-502.9417,106.0529,66.0350
-3429.6875,-3.7746,-84.2067,-22.6715,-127.2117,152.5567,-118.6522,152.9647,-8.0717,151.2097,269.7181,-129.8365,-87.9369,-45.3104,50.0591,-55.5063,112.2048,-207.1572,14.5878,-80.5799,55.2964
-3421.8750,-171.0892,-45.3475,-237.7544,-49.0875,-99.7876,-115.0135,-100.6885,32.4949,-28.3377,273.5238,-199.1180,26.3259,-131.7612,53.0268,-87.4707,152.8892,11.0310,551.4482,-3.0095,132.7757
-3414.0625,-31.2209,-49.4143,-47.6451,-48.7853,90.1041,-72.1692,198.8973,40.2924,123.3545,207.5482,-46.1708,-3.2438,25.1131,23.2094,139.7960,122.7881,12.4262,-853.6665,138.7989,-7.5514
-3406.2500,-45.7550,-59.8582,-141.9368,-132.8948,-77.3692,-129.7281,139.1290,17.7035,63.6658,222.2014,-324.6429,-60.2467,-160.4126,37.0056,-101.3580,101.2922,-283.6349,714.8534,-17.7958,117.7258
-3398.4375,-122.2150,-130.6459,-146.1587,-173.9099,-118.7366,-97.1804,133.4658,50.2380,242.0909,107.9739,-35.0245,-101.1765,8.7172,-5.0863,151.5881,96.9034,-8.5908,-310.5109,292.7268,76.1134
-3390.6250,-15.6229,-167.4276,3.6844,-241.8827,-43.0025,-130.5771,392.9103,53.8364,317.6015,147.8135,-32.3322,-208.0880,16.4518,34.8788,81.5945,63.5740,-286.5117,-271.9903,153.3148,42.5408
-3382.8125,-153.3556,-102.6850,-218.7908,-169.1680,-338.5580,-60.2743,21.0716,87.1421,166.8222,108.3795,-180.9650,-63.3293,-137.0727,67.5562,-30.7304,96.9555,-108.7633,715.3646,84.5945,149.6831
-3375.0000,18.9457,-68.0703,41.7754,-136.4186,-79.0319,16.0878,133.3206,54.5220,243.1243,39.0115,115.4717,-60.5518,59.7786,34.2902,156.0152,27.3956,99.0539,-870.3804,222.9648,5.8690
-3367.1875,38.8008,-44.8560,95.8992,-151.1373,-59.9117,-75.9978,39.1812,-38.5351,38.0048,166.2137,-86.5566,-115.2701,-96.0601,-22.4147,-192.7032,7.3908,-160.6256,523.4119,31.8898,96.6031
-3359.3750,-72.3227,-69.3657,16.0418,-156.8236,6.2674,-82.0310,-113.9009,-8.5257,-6.0479,87.4740,90.4538,-46.9645,12.1611,6.9494,-51.3782,38.4488,114.7435,-79.6901,201.8847,90.4011
-3351.5625,105.3999,-61.1022,206.0451,-154.6790,306.3478,-114.2042,109.9240,-76.6471,-1.2074,19.5989,132.3332,-114.8469,107.6493,12.1741,-10.1798,-29.6354,-94.0434,-499.1221,98.7555,22.0392
-3343.7500,24.6537,10.9990,5.5767,-130.0002,142.0045,-167.8309,-128.6732,-130.2089,-129.8020,-144.6982,-105.2667,-22.2145,-38.6410,-5.0380,-136.4602,-83.1594,1.6762,792.1160,17.1681,151.2432
-3335.9375,94.6840,18.5809,158.8858,-94.5384,333.4909,-124.6534,97.5570,-195.9505,96.4448,-357.1836,158.9461,-15.8095,179.0635,-73.4374,164.0723,-148.8742,283.2146,-788.9562,194.4122,11.2472
-3328.1250,124.5697,19.5579,189.0524,-98.2411,326.8792,-130.6306,200.6980,-275.8311,89.5704,-253.7897,-31.9989,-94.5906,34.6085,-79.9792,-135.5531,-155.7310,-38.4385,296.7649,13.5066,41.0963
-3320.3125,-38.3206,-10.6832,20.4306,-119.7066,195.5235,-43.3579,68.0963,-187.4386,102.9446,-238.1236,57.2833,-44.1407,59.8883,-66.2548,-47.9437,-140.3292,292.1449,29.8266,167.8602,19.2109
-3312.5000,112.9866,-16.5720,258.0149,-109.9876,359.4105,10.1207,267.7460,-171.8215,229.5615,-111.2456,110.7911,-100.5227,135.0288,-123.3160,42.8909,-198.7172,126.9232,-804.1025,142.4459,-111.4843
-3304.6875,-23.2664,14.6490,36.0383,-34.8384,64.7690,46.0344,7.8877,-171.7433,80.6505,-75.8768,-147.2778,-28.4879,-63.8102,-87.9183,-140.8593,-161.6469,27.0979,679.5200,-63.5314,34.2826
-3296.8750,13.8603,19.9841,79.4363,2.6917,108.5417,126.3496,124.4450,-92.2415,123.1663,-215.0856,116.0627,15.9191,120.2744,-82.1067,159.7987,-119.1634,275.6865,-795.5248,184.9156,-69.5449
-3289.0625,115.6906,28.9673,148.5452,-0.0998,104.0611,47.3600,265.7659,-97.0270,43.4182,-146.5710,-72.8939,-100.0150,14.3281,-50.5876,-28.8334,-123.9694,-44.0651,11.0375,6.0658,-37.6731
-3281.2500,7.6464,56.2444,-41.2272,-2.7579,-157.2657,79.5120,-71.7542,-28.6574,0.8333,-149.8792,-77.7245,5.1758,-50.0276,-19.9108,2.6592,-91.6109,270.3094,255.8745,109.3627,30.3717
-3273.4375,200.8471,98.4510,203.2439,49.8144,-60.3099,65.9191,99.0211,-5.0199,207.5402,-200.9204,92.7230,-7.4059,36.9238,-69.9668,100.4287,-67.9902,287.9331,-922.2248,126.9398,-93.3393
-3265.6250,170.7948,136.2587,129.4598,56.1188,-280.5789,-8.9214,-159.4111,-42.6217,-14.9792,-90.2097,-165.1045,-9.2701,-194.3634,1.7496,-230.0824,-68.6139,117.2523,701.4972,-43.7418,52.7105
-3257.8125,130.9208,80.7004,127.8505,16.6087,-170.6351,-9.5521,-197.6407,30.9941,20.7166,-54.2983,90.2655,-9.9512,-21.9382,37.6840,25.6059,-33.0332,394.7870,-568.5980,198.8037,-22.0293
-3250.0000,209.1071,53.5416,211.3079,-10.8712,58.4128,-111.1274,67.2393,-33.3274,102.4921,28.6815,-10.3023,-74.6148,-30.4854,9.6741,-75.6533,-60.4029,-19.6510,-243.7812,30.4213,-49.7290
-3242.1875,-10.4707,31.6948,-59.0148,-54.1198,-27.2745,-86.4553,-92.6145,-46.3871,52.5234,-93.0710,-59.6510,22.9469,-68.8116,-41.0770,-123.6917,-36.5160,113.1283,487.4164,93.2856,47.8386
-3234.3750,110.4421,30.0591,146.1496,-38.8865,289.5777,7.7238,149.0688,-97.9298,110.0931,-254.3201,182.5176,-29.0133,134.9541,-93.3133,43.7925,-88.1209,233.4203,-940.0510,249.6843,-78.0982
-3226.5625,94.8081,74.5561,87.7635,-19.2200,231.9153,23.3488,16.2471,-118.0170,-168.8640,-165.0927,-95.8850,-14.5564,-50.2101,-114.0886,-270.3009,-108.2673,-27.8903,557.9639,23.5236,47.4229
-3218.7500,-56.1537,13.3906,6.0436,7.1358,224.9590,162.6756,-102.8747,-16.3894,-105.1036,-100.1487,42.4049,14.5899,64.2467,-50.1508,-21.7048,-80.7076,244.5080,-330.2927,190.0738,2.6579
-3210.9375,-26.0598,-25.2134,77.3836,36.5232,297.0940,197.0436,116.1120,55.2994,39.7518,8.8582,-70.2388,-61.2383,32.4391,-15.1490,-60.0412,-45.0949,-77.0606,-440.6605,114.6920,-73.0656
-3203.1250,-205.3768,-72.8797,-185.7049,-72.5094,70.8349,153.9989,-38.2778,85.5918,33.2295,113.4857,-223.3161,-68.4862,-99.8640,14.4629,-175.8066,-14.8714,24.9298,576.7093,181.8997,-6.1700
-3195.3125,-43.0533,-96.2276,27.8456,-154.9111,322.2447,147.6052,286.0076,80.5468,210.4008,-2.2304,101.2751,-148.1049,142.6884,-102.2669,75.0974,-93.9892,188.5936,-983.4095,345.7886,-159.6227
-3187.5000,36.4772,-35.0191,68.6058,-146.1303,290.8896,78.4060,290.5423,-62.2963,66.8014,-70.7274,-115.9408,-143.5544,15.1439,-135.7873,-140.8170,-126.9012,-84.5880,362.6638,72.8688,-44.8724
-3179.6875,-100.3606,-40.9115,-2.0174,-106.7129,110.1794,117.8585,71.7248,-22.4846,32.8611,-104.5566,-2.5261,-31.3648,47.1333,-59.6410,8.8996,-50.1541,201.8836,-124.5417,183.6013,-5.4538
-3171.8750,58.1072,-42.4929,166.6674,-89.0000,206.8047,65.6233,277.2498,-37.3661,164.2478,27.9109,19.2065,-120.8946,57.8932,-38.1756,-6.0694,-28.0995,8.6602,-599.6265,131.6595,-57.7415
-3164.0625,-81.1215,-38.4954,-22.3625,-121.9933,-54.2659,23.6891,14.0820,31.0591,84.9381,60.6745,-205.7890,-88.1390,-110.3786,-43.4025,-157.7784,3.2588,9.7065,738.7188,63.0072,84.2881
-3156.2500,5.6437,-52.6598,110.5984,-140.9958,78.6760,46.7616,110.9262,91.4999,181.6564,-25.5608,110.2275,-66.3992,110.3934,-57.6202,159.5167,-9.3895,202.7830,-827.0339,255.3858,-39.6826
-3148.4375,66.3224,-30.1201,134.4749,-150.1097,104.5617,-39.2659,171.7298,79.8494,-15.6962,36.1169,-85.8621,-78.7891,-6.6022,-33.9315,-73.3026,-22.1399,-193.2795,254.0454,0.6662,21.2395
-3140.6250,-95.3711,-34.0584,-36.0293,-100.5874,7.1020,-62.6391,-72.8119,55.8573,-40.3972,12.4534,-0.3311,6.4536,2.3113,15.4251,-23.4981,27.7653,102.2960,197.8832,120.5992,70.8279
-3132.8125,41.1817,-53.9544,185.7136,-104.8290,266.9279,-98.7534,221.9400,-15.8720,108.1886,51.0411,111.4755,-66.0698,124.9271,-56.9574,87.5773,29.9225,-6.8752,-755.2098,81.8066,-38.3400
-3125.0000,-70.6138,-45.0387,-46.9037,-110.4328,145.4235,-147.2199,62.3700,-63.9542,-15.5657,113.2720,-194.0923,-40.9541,-54.6689,-68.6749,-107.7265,16.7281,-153.4475,786.4534,-99.3552,96.1596
-3117.1875,-102.7239,-90.0449,-76.8481,-141.3504,228.6207,-102.9824,181.5029,17.6742,214.3997,85.1896,34.0448,2.8575,116.7001,-98.6792,194.6776,26.2378,60.6979,-616.2258,115.2136,-5.6289
-3109.3750,-30.8735,-99.3652,-37.8349,-139.3361,268.7996,-136.7948,367.6420,-16.7411,252.3496,125.0858,-74.8671,-69.4076,43.8073,-96.7204,13.0317,-8.2988,-323.2414,18.9417,-93.2564,-3.4748
-3101.5625,-139.5862,-68.0131,-227.4019,-108.8916,41.4212,-70.1601,66.2335,13.3042,134.7614,82.4499,-117.3620,33.7638,-29.5760,-66.3015,5.8094,-15.3807,-116.7488,401.6891,-26.2787,63.1458
-3093.7500,-16.2928,-88.6825,-56.9704,-126.4551,215.0672,-45.5151,311.8634,2.3497,270.2137,70.8015,90.1656,21.9275,119.2100,-41.8792,178.6049,-26.4688,-169.2289,-810.7335,27.7193,-59.2387
-3085.9375,-121.7399,-72.2190,-281.2877,-89.7695,-10.0185,-50.6189,159.7759,34.6355,117.9275,214.4042,-208.0782,53.3252,-104.9594,26.8028,-82.3839,5.6893,-379.4949,702.1645,-147.0544,46.6356
-3078.1250,-159.6553,-39.6096,-282.0868,-23.5362,-45.5666,59.8381,49.2334,145.4747,118.2042,141.5668,-24.7799,126.2709,-10.3710,27.0499,100.1639,43.4066,73.8144,-461.3880,60.7348,-26.9295
-3070.3125,45.0919,10.5774,-104.2235,41.3348,61.5587,18.9579,155.3874,140.9646,3.1684,63.3866,-66.8266,10.8594,-22.0526,-15.0403,-14.6345,74.7728,-176.2366,-185.4243,-84.8200,-31.8519
-3062.5000,-63.7186,22.7268,-295.9316,36.6532,-129.8858,9.5375,-110.0164,168.9056,-79.4221,18.6523,-148.4521,37.9000,-114.8241,12.3369,-96.0174,103.5847,-5.8569,584.1369,-52.9470,69.6964
-3054.6875,60.8694,-1.9865,-84.2423,-12.6284,120.0828,-34.4695,138.9899,125.2543,169.4046,48.3087,137.3506,-6.6571,72.0617,-31.8731,79.0151,21.7950,120.9504,-872.0522,74.3425,-85.3585
-3046.8750,120.5606,74.5743,-99.4544,12.1841,32.1723,-123.3739,50.1341,-0.2964,7.3531,71.0793,-171.7673,13.8664,-130.3639,-47.9736,-192.8829,7.1123,-101.1837,594.8835,-182.2770,9.6879
-3039.0625,65.4779,89.0652,-154.4473,62.2322,15.5063,-31.0237,-41.4718,-17.5951,25.5747,-130.9117,-6.6429,68.6305,-8.5767,-28.8129,46.4597,-47.3159,301.9489,-233.8764,9.3651,-45.0010
-3031.2500,229.7679,135.3442,19.9289,120.6068,155.2336,-3.3316,207.3215,-99.5549,54.1838,-175.5700,20.8583,59.7310,19.5282,-74.2999,0.1613,-92.4022,78.4359,-457.4451,-107.6217,-127.3417
-3023.4375,44.1027,140.3379,-213.6564,147.0170,-41.9934,56.3986,-26.8290,-76.4760,-107.1547,-224.1765,-139.6257,118.8803,-109.9629,-51.7269,-159.1243,-106.4430,103.9417,695.1912,-116.5735,-30.6067
