Time,Fp1,Fp2,F3,F4,C3,C4,P3,P4,O1,O2,F7,F8,T7,T8,P7,P8,Fz,Cz,Pz,ref
-4000.0000,-202.1501,-134.7204,-42.8682,61.5838,75.6276,10.2132,40.6601,58.0113,8.2023,37.8511,-61.1960,64.6611,-12.4735,-7.4929,-26.6429,26.1126,-2.7217,35.1295,4.5152,38.4892
-3992.1875,-27.0099,-64.4383,41.0781,-285.4556,-95.4018,-50.5728,-20.8212,-113.0452,93.0461,-96.4845,78.1514,115.0306,255.2824,4.4394,130.8329,-182.2781,-160.4954,-66.1683,184.3733,-132.7060
-3984.3750,-55.7397,-55.0130,118.1893,43.6694,57.7228,-9.2009,131.8700,3.0600,-11.9645,19.3451,13.9359,11.5487,-32.8359,-63.4898,-11.5482,81.5084,63.5893,16.6889,-120.6415,20.2564
-3976.5625,-164.2227,48.6985,-26.4245,-58.8881,-85.8540,31.4777,-85.1565,-29.5243,-81.6891,-123.5194,-7.6885,199.3950,153.3392,86.9031,-9.6380,-171.3946,-54.9108,53.8579,91.6497,-12.4598
-3968.7500,19.8240,59.9526,176.5214,-149.9212,-63.8949,14.7084,83.3676,-45.5687,-62.8591,-102.8367,87.7577,73.8069,99.0841,-40.1438,10.8401,-114.7498,-12.7544,-1.4321,-0.5051,-138.6365
-3960.9375,-169.1236,-20.7530,47.5144,159.1375,67.1254,35.0017,66.9446,49.4562,-152.9954,-46.0812,-39.7068,95.2790,-64.1611,15.8641,-116.6502,15.9919,93.8246,95.3452,-79.6501,29.2673
-3953.1250,-100.4125,-20.7467,22.1884,-188.1161,-67.1830,-26.9972,-31.8115,-121.8200,5.5585,-143.6273,47.6572,71.4795,240.3102,64.5994,114.5632,-155.5747,-126.0598,-76.1771,169.9255,-142.1227
-3945.3125,-21.6667,-150.6901,137.9308,-33.3189,87.5467,-128.9399,233.4974,-78.0415,85.1662,-26.1115,49.3560,-104.2744,25.8154,-75.6244,83.8289,108.9295,15.1650,-97.6434,-28.4631,12.5414
-3937.5000,-181.1718,-131.8355,-63.5548,-151.6873,-2.9286,-146.0690,-4.3987,-92.4474,67.5539,-77.7921,-22.7075,64.8012,156.0996,90.9614,102.8804,-17.7579,-131.7169,-75.2809,203.9490,70.0284
-3929.6875,20.6484,1.3785,120.3093,-330.7319,-110.0744,-180.8337,72.0467,-127.5066,106.2911,-39.1306,83.7836,-5.7584,194.7557,19.9038,141.2917,-14.1097,-135.1862,-78.5671,128.7295,-74.1543
-3921.8750,-93.8137,31.3362,-1.0682,54.0122,-9.4478,-43.8335,24.2648,46.1966,-51.2373,60.2966,-41.4376,-15.5688,-36.8742,8.5874,-53.5639,159.3206,41.9235,94.9112,-84.7791,99.4284
-3914.0625,-45.2498,81.3457,-86.4062,-208.1998,-165.7800,-17.7758,-132.4830,-36.0612,-25.7316,-59.2419,23.3817,49.6967,246.5638,108.3354,82.6287,-71.2252,-152.3552,-26.5540,143.7779,-56.9356
-3906.2500,10.6212,-1.3463,46.5882,-40.1191,6.1862,-30.4190,77.0874,25.9729,-37.9230,76.5146,37.8602,-108.7473,86.3001,-14.6334,32.1231,211.5327,-5.9041,-34.7210,-181.3759,4.9952
-3898.4375,-159.1975,7.3261,-168.0825,41.3487,-22.4973,13.2970,-100.0027,32.3703,-141.7826,45.6337,-73.8096,83.1742,92.3594,138.7523,1.9483,107.6582,-54.0599,11.4895,-100.1982,122.3000
-3890.6250,55.3161,118.3738,28.5939,-193.8609,-153.8617,-8.6312,-85.7650,-98.8920,-54.2947,-11.8999,47.5538,25.4653,179.7844,116.5005,162.1316,13.1202,-97.9872,-119.9460,-91.6462,-9.0638
-3882.8125,-34.3831,-2.7749,-30.9110,144.7641,-66.4167,6.2519,-70.7015,27.6528,-77.0194,112.3767,-75.1186,4.5500,-100.0317,94.0320,29.0972,284.4092,62.6736,9.4326,-282.3225,189.3820
-3875.0000,-106.8137,-36.6168,-133.1253,-131.3001,-202.6797,15.4489,-207.3563,-72.5047,-30.4663,12.9347,-43.4474,88.9576,166.4557,176.8798,111.3554,37.9806,-141.9287,-22.8765,108.3158,53.1319
-3867.1875,16.3663,-17.8438,110.2908,-73.7727,-67.3506,40.2564,74.6017,-11.0803,-7.3275,1.0816,45.8099,-142.0312,42.5470,-19.6789,61.2179,136.1495,13.9908,-34.5960,-80.4540,41.4661
-3859.3750,-167.6744,12.7382,-82.5025,100.5987,-75.2235,104.8766,-80.6445,55.1593,-126.4165,-5.9652,-69.3563,-38.1990,-2.5947,46.5737,-21.1439,91.1455,39.8785,104.5035,-12.4542,180.6217
-3851.5625,-67.7800,114.2994,-2.3568,-180.1064,-175.1857,41.4579,-108.9705,-82.6536,-8.5662,2.9307,20.8852,-28.3937,189.2367,-19.2024,133.4525,-45.9263,-89.5596,-0.4498,126.5211,-30.2885
-3843.7500,-113.2884,36.4756,-50.5964,132.8059,-2.5506,66.6448,64.3183,17.1525,-19.1246,176.4405,-75.9962,-74.9986,-79.3648,-103.3902,12.6401,164.6326,68.6616,101.2079,-123.9306,106.4065
-3835.9375,-220.2269,73.2683,-191.2555,-38.6716,-141.3302,74.4410,-147.8172,-48.4338,-13.0955,73.5447,-104.6274,117.0210,110.6273,87.0415,91.4188,-49.2128,-100.8390,70.4809,90.2206,40.7144
-3828.1250,-45.3056,4.9268,34.9538,-103.3207,-97.2756,46.0960,6.8992,-2.1911,67.7777,192.4921,-35.2396,-20.1056,-29.5260,21.3225,99.0571,106.7901,-39.1780,5.6057,-46.7846,-24.1434
-3820.3125,-248.3023,-89.3021,-104.7353,123.1746,-51.1083,89.8688,-21.2811,79.1590,1.7273,163.5456,-164.2946,61.8691,-168.6161,101.7042,-41.2245,188.9200,23.5055,125.8578,-67.7306,131.1194
-3812.5000,-133.6100,-7.7963,-9.7308,-143.6428,-138.2713,77.3599,-71.7894,-79.8031,24.3566,4.2893,-34.2030,50.5639,75.0147,88.8022,91.1930,-44.2779,-87.9178,34.8172,121.0402,-64.9326
-3804.6875,-65.5594,27.0755,95.6474,176.9053,42.9102,74.2135,109.0648,27.5899,-52.6749,74.3907,-57.4202,-134.4005,-223.0280,-97.7628,-59.0500,172.8947,162.9226,144.1286,-191.8605,79.3599
-3796.8750,-162.8284,74.6572,-35.2939,87.1729,-50.2184,90.7789,-168.4003,7.6949,-111.0294,-55.8050,-60.2559,-44.6441,-23.3836,27.3896,-43.6080,-31.2287,58.3735,195.1570,66.9360,59.3653
-3789.0625,18.7213,13.0715,90.5776,-75.7853,-68.5762,72.1533,-3.0763,26.5893,-20.5871,72.7910,28.6701,-172.0820,-6.9358,-101.6512,82.6388,61.4370,21.0513,101.9793,8.5438,-68.8509
-3781.2500,-193.4786,-56.2396,-98.2954,139.5492,37.3178,104.7867,-7.4899,170.7387,-61.9091,142.6405,-138.6025,-64.2722,-195.2850,4.5492,5.1175,168.3807,60.8206,176.0659,-93.6259,111.1998
-3773.4375,-146.4816,28.6816,-72.9781,-228.9302,-118.6179,95.6292,-127.7303,14.0771,0.9578,-13.3342,-35.5964,37.7622,124.5724,104.9678,140.7971,-98.4986,-142.4281,54.3580,134.4240,-81.5561
-3765.6250,-70.5677,37.5317,81.2641,64.4901,0.3312,30.3799,64.9405,60.3151,7.7172,104.5969,-50.3387,-63.3070,-124.6875,2.2808,37.3770,204.5330,67.7174,30.5511,-206.6481,0.5763
-3757.8125,-177.1208,74.9561,-64.9564,105.4955,-107.1808,31.6933,-153.8617,25.1151,-26.9960,33.0803,-99.9539,87.1935,-13.4182,187.1579,37.4923,59.1260,11.7078,36.3040,-97.1830,76.2744
-3750.0000,75.5065,118.5610,96.9864,-128.3799,-163.5785,-98.8473,-101.5310,-67.9554,61.4363,13.7032,47.2718,-5.1528,112.0218,93.1905,163.7689,39.8478,-43.9312,-92.8083,-51.5463,-16.8982
-3742.1875,-38.7983,112.2325,-64.0005,150.8232,-66.9210,-74.3396,-77.1416,67.0331,10.9013,74.3872,-89.9504,-53.4598,-122.5270,80.2576,3.0786,210.6475,69.4795,45.1438,-125.8933,190.9918
-3734.3750,25.7925,181.8311,-93.0987,-199.0766,-241.3908,-65.9153,-214.8833,2.9138,55.2437,9.9579,-3.2522,-6.8516,142.8268,125.2429,47.2816,-74.6729,-127.3479,-22.9840,190.6798,16.7776
-3726.5625,116.2568,63.3119,76.6818,-68.1365,-33.0252,-3.6234,30.2331,65.6375,42.4262,182.3737,18.8597,-163.4088,-89.9853,-69.9296,-38.6712,171.8605,25.6744,-33.2598,-64.9059,42.3941
-3718.7500,-124.7773,2.3208,-138.0462,49.3402,-25.1581,40.1871,-110.1527,71.8667,12.0842,78.2815,-97.2448,-9.4616,-48.3318,82.4023,-33.1481,104.8984,-17.1532,13.9833,-20.0058,159.5229
-3710.9375,46.2164,34.3684,52.2405,-230.2149,-91.3168,-61.9991,-65.5567,-65.9261,92.7331,14.1576,54.4453,-36.5065,142.3415,54.7426,120.3815,-33.0944,-104.8208,-125.7859,84.9160,-15.3710
-3703.1250,-7.7615,-51.5604,-8.4405,108.2486,34.5311,-47.1811,23.0536,59.2794,32.3704,101.0337,-40.0284,-20.5660,-101.0225,-4.9308,-13.1002,164.9372,61.7227,3.4456,-175.1973,182.7400
-3695.3125,-57.1323,-61.8582,-125.5323,-109.6888,-155.0386,-51.7559,-166.7654,-54.9216,61.5876,-13.4987,-25.5345,157.9936,149.2104,136.0121,90.0137,-59.4464,-126.8766,-40.7156,96.3013,104.4515
-3687.5000,72.8454,-34.8178,16.7040,-43.3510,-120.3302,-55.0276,13.7209,-57.8373,95.1000,57.2639,13.1451,9.8447,34.7402,22.2481,123.4308,121.4658,-30.8380,-79.5859,-47.9112,65.4393
-3679.6875,-135.4160,41.0058,-164.3045,176.7766,-116.8783,-14.5389,-129.0493,56.0015,24.3422,60.7789,-118.3634,87.4443,-36.0183,98.2383,15.5778,124.1469,15.3718,34.3045,-41.4058,179.1920
-3671.8750,-0.2522,145.2611,-83.9083,-172.7290,-256.0651,-43.6442,-157.4463,-45.7758,140.9790,32.6761,-2.3945,-12.5433,191.6384,70.6477,169.1309,-13.8007,-130.8322,-70.4116,98.5246,4.3235
-3664.0625,-58.0023,-15.4068,-110.4367,89.8282,-61.2127,5.3070,0.2197,75.5013,77.6537,153.6295,-78.0171,-110.4984,-55.6891,-28.8998,32.7259,254.3243,18.3597,52.9247,-130.5237,162.5000
-3656.2500,-125.1470,60.5615,-245.3811,-75.9932,-120.7817,17.8696,-170.5433,16.3796,-20.0902,20.1745,-63.8649,51.1564,177.5656,131.1659,43.9138,-25.9586,-135.9913,27.8681,88.0375,66.2800
-3648.4375,82.6093,166.4199,54.5519,-71.9959,-40.5257,26.2785,20.5426,-11.9136,-13.9865,28.5458,39.8477,-50.3517,36.6845,-8.9275,-23.0391,19.5897,0.8973,-39.3546,-86.5307,-36.1172
-3640.6250,-59.2612,202.6579,-22.1540,284.3793,30.0809,97.0399,-55.0122,59.1473,-163.5479,-10.7346,-81.4706,132.4829,-186.8803,24.3180,-246.6573,16.5022,157.0961,70.7863,-152.7724,108.8455
-3632.8125,166.5923,221.6443,80.8322,-46.5705,-121.6501,92.5078,-97.9003,-129.1071,-97.4200,-200.3284,82.2428,239.0258,63.2760,19.2761,-143.5672,-280.9135,-1.1058,-119.3712,112.7100,-116.5089
-3625.0000,281.2928,92.4718,162.6485,215.2835,35.4071,65.7809,132.0200,-45.5662,-52.4998,-80.1251,62.9677,139.3442,-221.7938,-117.9816,-207.6731,-51.5201,177.8053,-104.7355,-155.0283,3.9299
-3617.1875,130.3125,121.6338,-64.2361,105.4489,-116.2442,97.3586,-165.7788,-49.7346,-58.2990,-120.6368,-3.4330,282.9684,-44.5825,24.0678,-139.4910,-201.8336,26.0533,-2.7915,50.5315,-0.3232
-3609.3750,269.3965,227.8371,54.9099,-66.4278,-106.9150,107.9332,-47.5848,-75.9315,23.8986,-74.1752,77.3622,73.5826,0.6420,-76.8793,-22.3046,-156.1734,2.9453,-69.8595,-17.9003,-137.6066
-3601.5625,48.4183,185.9727,-69.0246,211.6286,27.3219,95.4123,13.5177,21.7700,-63.0224,-13.8171,-68.1583,98.0825,-196.2749,-53.9307,-145.2413,-21.5890,108.6058,66.9806,-92.4742,34.0181
-3593.7500,123.5209,159.2122,23.0874,-129.2774,-63.4184,41.9455,-40.3680,-178.4999,-7.9079,-140.4324,43.2637,119.6445,42.8676,40.0827,-17.1275,-221.9812,-54.3902,-27.1336,127.0109,-166.3188
-3585.9375,227.4397,159.2498,168.9932,120.5619,83.5766,41.2215,179.5090,-68.0449,-46.0453,-30.3050,49.9951,-137.0657,-215.2568,-108.1732,-129.2585,72.3774,164.9172,46.4831,-152.7742,-92.9206
-3578.1250,116.9968,228.9245,-91.5044,87.0224,9.1596,77.1003,-42.0291,5.0030,-122.6008,-105.5862,-24.9447,-26.1768,-108.8068,37.1773,-131.8007,-75.6604,43.4252,46.7064,23.0279,-56.9113
-3570.3125,356.2638,189.2922,134.6599,-160.9116,-21.6469,10.6276,74.0632,-99.3224,-6.5090,-136.2341,143.0648,-92.6395,7.3063,-66.8123,-52.6808,-143.0762,-8.0207,-94.4345,90.5101,-234.2803
-3562.5000,210.1186,152.2371,86.3955,156.7251,115.0930,73.7120,100.7182,38.9150,-54.8798,-35.3244,13.9087,-64.5763,-261.0741,-114.2639,-173.0323,32.0815,151.1493,-24.0191,-121.4765,-23.0992
-3554.6875,249.6485,229.8752,27.7729,-114.9962,-89.5457,16.4668,-104.0046,-92.2022,-40.6229,-203.7822,100.6039,63.1411,84.1923,-25.0526,-12.7457,-283.1398,-37.5094,-84.9427,168.2100,-154.2821
-3546.8750,367.3956,139.7179,190.3395,43.4237,36.9411,-3.6193,132.4263,-75.1816,11.7781,-113.1035,139.9101,-177.0182,-84.4048,-192.7090,-34.3124,-46.2247,124.9539,-32.7241,-96.9597,-137.3441
-3539.0625,129.1882,44.6039,-23.0873,127.8753,45.4210,42.3055,-6.1450,-30.1557,-54.8440,-105.4326,18.1165,-57.1877,-78.0410,-37.3738,-63.9037,-74.3097,79.5782,86.5006,-14.1471,-18.4026
-3531.2500,238.2441,51.7312,102.6995,-179.5107,-11.9377,22.4286,47.4657,-122.9525,34.7339,-124.5856,127.2835,-113.1644,85.5417,-20.8324,62.7147,-204.2306,-34.6677,-9.0893,28.8941,-185.2932
-3523.4375,86.8064,-25.6584,49.9675,167.5700,156.1557,81.0015,141.5374,45.6989,-56.2516,-30.2918,0.9782,-162.7167,-188.4589,-36.8561,-101.2322,75.3104,139.4315,90.7732,-223.6348,20.2626
-3515.6250,27.1035,22.7034,-77.0642,-63.6479,-7.0720,65.2698,-57.7186,-42.9633,-72.5582,-156.3246,21.6408,5.4358,88.2421,94.8240,-8.4828,-161.4794,-59.8973,36.3415,106.5534,-105.4891
-3507.8125,212.5271,0.1702,159.9942,-12.8448,47.7340,-27.4282,143.0717,-25.6003,54.1848,-28.3217,99.7931,-196.3876,-42.9999,-72.4610,8.3219,-33.2383,61.9914,-19.0499,-91.2100,-161.2249
-3500.0000,53.4948,20.1698,27.5682,185.4920,63.0496,-11.6289,11.3607,27.2593,-42.5932,-12.8195,1.1398,-106.7315,-101.7751,-20.2514,-88.3928,-17.4829,116.6742,73.0672,-105.5045,1.5420
-3492.1875,179.3220,79.0127,96.9548,-141.4086,-87.8589,-14.0318,-28.5739,-86.1149,27.4284,-89.5518,106.2000,-34.2761,114.2723,13.7654,55.7052,-166.9630,-41.2622,-42.0340,59.0252,-184.9184
-3484.3750,76.1241,-57.2019,59.2761,182.5928,96.1346,59.4650,118.4134,98.3867,-47.6551,57.6066,-3.2295,-106.9465,-179.8053,-97.3355,-56.3045,127.4663,122.5323,34.7530,-146.5768,-37.4884
-3476.5625,-89.6302,-43.9615,-144.0137,22.0011,3.5116,115.3618,-47.2271,43.2762,-30.3542,-33.8514,-36.0629,-14.2118,56.5087,30.9734,-2.9171,-111.7216,-57.6768,14.9363,149.2276,-92.6557
-3468.7500,60.2980,-67.0692,93.3147,-70.0394,94.4512,132.8526,190.7226,-12.2519,59.5571,-90.7196,91.1887,-178.9048,73.4325,-99.1211,51.0857,-94.3285,-5.5278,-77.3025,20.6548,-185.2530
-3460.9375,-47.3222,-100.7459,14.0536,145.3355,199.7847,127.7409,111.0743,19.6331,-21.1359,-96.1864,-4.7855,-36.2262,-81.2801,-30.8229,-66.5266,-62.5196,75.4262,-38.1360,-48.5344,-6.4452
-3453.1250,180.0058,23.5190,114.6962,-221.4271,-30.0139,9.5313,-7.7019,-172.5946,80.0647,-177.7819,119.5623,30.3477,129.9269,71.3805,71.7666,-254.8522,-88.7589,-193.0724,147.2087,-161.7625
-3445.3125,293.1051,-1.4787,191.0814,37.5168,83.8786,-60.9689,142.2328,-59.1314,-29.0411,9.3133,74.9107,-76.4070,-198.1810,-36.7345,-37.2460,80.5121,106.0507,-145.3156,-158.3790,25.5987
-3437.5000,159.2464,78.5716,-57.5346,-21.5143,-90.2423,-50.4650,-178.8495,-48.6787,-93.1693,-54.6022,7.9799,81.8428,-7.3125,120.1577,7.7267,-21.1318,-32.9013,-98.5550,27.0246,71.9605
-3429.6875,311.5691,93.7716,110.9750,-145.4899,-106.3003,-101.8735,-46.8455,-100.1487,-36.1928,-32.4286,114.3774,-78.8267,50.6674,31.1531,65.8120,38.2998,-29.8708,-153.7226,-27.4484,-52.6124
-3421.8750,81.8054,42.8594,48.3464,192.4027,52.4916,-14.4392,-33.9835,23.2375,-171.3747,16.6014,-10.9008,-64.6799,-157.5396,42.9878,-106.2690,161.6093,136.1864,7.9603,-148.0928,143.6665
-3414.0625,139.9904,33.8917,47.6068,-166.8358,-94.8506,-15.1079,-146.2593,-87.4851,-100.6600,-131.4846,78.1815,9.3645,97.1641,116.7394,38.5540,-133.2029,-65.2999,-69.4602,159.1897,-40.1713
-3406.2500,202.7526,-77.5302,151.3969,-65.5930,82.2905,-21.2822,141.9717,-19.7181,2.5541,-27.0767,69.5718,-107.1232,-130.6383,-74.0210,31.8795,81.4805,34.6157,-144.3867,12.9605,-9.5317
-3398.4375,6.9565,-129.5087,-88.4098,-113.9193,63.8279,-40.0578,-24.4129,-38.5612,56.1491,-46.2859,-3.8906,-14.2194,32.9428,-19.3852,85.5892,-10.4397,-99.7022,-122.8990,208.1101,45.5131
-3390.6250,220.1906,-53.4824,71.7621,-354.3275,3.2867,-98.8868,63.1354,-134.4972,141.6934,-68.5756,121.8892,-109.3801,119.4989,-78.8050,171.2627,-106.4543,-147.3729,-152.4803,248.2227,-124.5272
-3382.8125,107.3054,11.3831,58.7655,64.0879,101.5550,-37.9208,87.5045,37.3533,-18.9715,-8.0738,0.9411,-119.7764,-188.1749,-91.4436,-26.2780,65.3357,92.8295,54.7305,-38.8999,47.2272
-3375.0000,91.7722,68.5882,52.0623,-88.2175,-51.9007,-6.6595,-65.8547,-115.5128,10.6596,-161.2953,47.2012,58.1232,24.4614,12.2309,40.4839,-234.5999,-21.7337,7.2334,194.3062,-105.7307
-3367.1875,233.9197,-31.5731,277.9905,94.0394,100.2227,-0.8040,159.3878,-72.7890,14.8983,-118.9214,99.5822,-82.4137,-192.3000,-92.5018,-29.1442,-44.9351,167.4184,13.3189,-81.8899,-100.1171
-3359.3750,125.7667,-32.0605,52.5618,235.9699,94.9842,32.7118,8.2680,-40.4046,-101.2236,-122.8932,-8.5249,24.6828,-233.4388,50.4170,-108.1344,-49.6109,156.2773,120.0616,-47.4542,6.1539
-3351.5625,254.1846,64.0000,160.6420,-159.6406,20.2071,-79.2699,6.6204,-151.5441,7.1567,-88.3873,119.3574,-86.7218,20.9462,11.8453,73.3874,-123.8234,-14.4320,-64.7162,83.5069,-179.1062
-3343.7500,102.1782,19.6050,105.2462,79.2562,222.9303,-131.7570,135.4879,-22.1884,-11.9643,41.6157,11.7253,-138.6588,-181.1950,-80.2441,-18.5980,115.4736,101.3448,-37.0064,-101.0577,24.1259
-3335.9375,54.3740,80.4102,-50.0080,-140.7058,66.7874,-104.1016,-93.5231,-66.6966,16.0587,-77.2549,6.2635,37.5472,29.8138,22.8244,82.5623,-113.1020,-79.7116,-45.1495,135.5458,-20.4971
-3328.1250,205.7566,58.3586,111.8698,-91.6098,44.7269,-51.3634,68.5664,-14.1283,-6.8139,84.9607,54.6833,-94.1832,-104.0590,-110.0205,59.8324,49.4013,29.3759,3.7939,-62.7390,-42.0542
-3320.3125,-62.6620,38.4836,-99.0960,171.6600,16.8201,68.5201,-105.1916,105.5952,-145.5454,131.3299,-107.4503,-9.7949,-204.8079,9.2767,-114.7629,133.0665,87.8614,195.8989,-46.8960,114.5412
-3312.5000,55.0381,87.7044,-74.0067,-94.0587,-178.0647,95.4476,-153.9212,21.3417,-48.2250,46.7245,-4.9702,-20.3702,39.5169,35.6261,19.7064,-61.2544,-62.1704,106.0333,142.0283,-116.8431
-3304.6875,99.6307,65.7643,-30.0807,236.0185,13.8469,67.1616,74.1673,102.8735,-78.0974,90.9187,-54.1836,-85.1858,-247.3799,-67.2447,-84.0199,130.2363,132.0753,83.9480,-92.2738,1.5593
-3296.8750,108.9274,112.5039,-163.5168,-32.2525,-83.6046,7.5173,-96.1127,7.0424,8.6783,-79.2511,-25.4506,40.6408,-14.6266,56.5392,2.9027,-113.6328,-70.7765,-43.4936,236.0797,-21.3842
-3289.0625,307.8561,-3.1723,86.6190,-252.0223,-17.5312,-109.5940,118.1499,-73.2680,184.0174,-48.8851,125.3655,-150.0107,50.7038,-97.1267,178.3933,-82.9780,-89.2364,-194.4087,154.9985,-101.8049
-3281.2500,103.2017,5.5312,-60.8831,72.5718,91.8928,-72.3629,79.7651,35.7679,71.7035,-13.1735,-25.7036,-75.3382,-134.6361,-24.4557,66.2236,26.0380,39.3509,-8.9829,-46.7582,118.1345
-3273.4375,110.5687,226.2256,-81.4329,-196.9219,-148.7650,-92.1954,-160.7032,-56.2711,88.3429,-32.5409,7.9390,52.2754,102.0029,66.1773,120.0192,-103.0371,-119.7606,-33.6230,102.4661,-47.9949
-3265.6250,105.5690,188.5073,58.6015,82.1194,-8.8761,-97.4868,-20.6078,47.2273,6.5412,143.6407,-10.1784,-99.6037,-125.8203,-87.6612,-35.6337,147.4365,95.1103,35.2716,-181.7720,55.4045
-3257.8125,3.5087,88.7150,-9.4727,18.0760,-40.0862,-90.8796,-160.6213,16.6252,-25.3664,2.7141,-12.1330,-56.6027,-11.7513,-8.6021,6.6072,-30.1988,30.5674,112.0701,-1.1065,61.7021
-3250.0000,270.0797,181.5070,315.0206,-99.4716,-10.7651,-61.7328,-58.0907,-63.4515,-33.7112,-4.6792,153.3013,-174.0764,-20.1016,-125.9962,35.4187,-73.3132,110.7684,28.3905,-119.8709,-92.4878
-3242.1875,193.3692,212.9733,190.1775,248.6342,86.2155,-0.9498,-70.8993,33.1252,-120.4033,18.5851,13.9703,-37.9362,-290.8241,-101.7468,-125.1213,97.2406,248.7137,60.3493,-265.0149,114.9744
-3234.3750,204.5632,191.3143,101.1688,-89.4541,-113.9771,-53.3290,-161.8878,-129.4622,-27.2364,-107.3141,68.6632,130.0430,22.3298,28.3714,78.2090,-139.3817,-3.4604,-65.8597,63.7184,-47.7247
-3226.5625,170.0441,16.8744,212.3899,54.6231,34.0224,-89.5294,96.3359,-54.8641,45.1509,40.9769,72.3208,-15.8207,-88.3130,-81.3269,40.7517,82.1963,104.4199,-63.8916,-145.3474,-10.2433
-3218.7500,24.9254,155.8077,21.9596,123.0686,-46.6278,-57.3893,-129.0932,-23.9266,-35.1136,-2.3958,-24.1634,89.6458,-58.6213,23.3200,-39.3661,3.1212,75.8945,40.4271,-112.0648,57.5961
-3210.9375,418.9871,375.8749,297.6456,-43.4338,-175.2021,-2.1605,-148.4343,-114.9205,-127.2695,-93.6948,151.1024,35.1912,-77.7957,-68.9356,-58.3683,-161.8894,132.0446,14.8208,-139.6531,-144.4964
-3203.1250,433.6739,393.5165,272.9061,361.6272,-53.2182,120.6036,-26.2089,44.6246,-299.8693,-82.4422,76.6022,11.2427,-396.4391,-166.6622,-303.8271,-39.3341,365.0015,172.7526,-333.7158,-22.0390
-3195.3125,371.7605,367.5362,217.5036,90.0153,-109.9091,138.7044,-155.6618,-85.4939,-247.1151,-211.8554,116.1319,176.6366,-159.7108,-76.0312,-213.9251,-315.4580,170.2720,77.0198,61.6003,-188.2374
-3187.5000,384.7360,242.3858,343.9261,141.1643,53.1787,118.5833,154.6951,-68.8300,-121.5410,-158.4691,145.9478,9.7916,-255.1723,-243.6123,-198.2084,-151.7956,247.9074,57.0599,-29.2777,-208.6613
-3179.6875,146.2648,322.7555,53.8467,291.8316,57.7733,160.9522,11.5553,9.3326,-191.4695,-191.5823,-5.0516,125.4195,-251.1537,-54.7010,-267.9997,-184.6270,214.8698,172.6007,14.3260,-93.5751
-3171.8750,304.4659,411.7562,155.3787,-5.9490,-98.0460,152.9055,-34.0062,-34.9390,-126.7861,-200.1157,107.0280,6.6266,-76.4942,-27.1875,-167.1689,-265.9002,96.3548,51.7204,138.5529,-285.9149
-3164.0625,273.2433,276.2731,152.4376,316.7636,45.6521,150.3350,36.9494,109.2747,-204.5828,-55.1497,40.0950,-31.7186,-300.3357,-103.1988,-280.8235,25.3390,265.9496,127.3234,-173.7444,-104.7615
-3156.2500,212.3592,288.0938,56.7841,81.7507,-88.3473,127.0480,-169.8124,12.7735,-265.0629,-151.8920,71.3974,166.2148,-30.8547,-15.9002,-231.1634,-218.1363,88.0915,103.2170,48.2784,-164.3106
-3148.4375,415.3051,351.6761,271.9009,110.4219,-19.6067,49.4928,9.1799,8.0023,-233.7619,-83.8975,150.2729,51.8557,-147.5903,-167.8585,-236.7238,-75.8775,197.0040,26.8300,-169.9309,-206.1407
-3140.6250,237.0573,387.0179,41.7621,356.8392,43.8986,40.6783,-74.0680,35.9857,-279.7010,-56.1530,-4.0239,153.2131,-266.5914,-104.0725,-282.5380,-47.8560,235.7710,96.1835,-136.3990,-31.2118
-3132.8125,371.7701,417.2847,44.5157,0.0941,-100.7130,-30.2546,-108.4342,-109.1504,-94.7310,-163.5328,99.2009,156.4628,-7.6503,-27.3737,-97.4297,-265.9730,27.7128,-84.5933,175.0703,-212.4016
-3125.0000,343.2561,319.2589,8.9896,254.0434,10.3754,-28.5087,76.9213,39.4030,-94.0467,-15.2122,35.0133,47.3754,-192.0158,-62.9957,-170.6089,-6.3808,156.5133,-5.6844,-98.7735,-63.9013
-3117.1875,132.4806,250.9426,-245.8521,44.7053,-172.8405,9.9305,-180.0369,40.6492,-20.6600,-14.1954,-38.4300,196.9733,66.3232,159.0839,-59.0879,-116.1031,-84.4537,-39.0788,78.0918,-62.6994
-3109.3750,281.6821,225.5521,-86.7754,-191.7809,-160.1723,-50.7489,-57.0896,53.7688,65.6523,108.7060,43.7097,25.4293,78.5901,98.0459,26.3566,44.0484,-134.1734,-170.5969,-54.1205,-123.6311
-3101.5625,159.3479,139.5857,-187.2796,4.1464,-40.0878,-77.0463,-119.7277,137.2821,0.3725,155.0087,-48.2511,35.2323,-59.7566,107.3867,-110.8012,200.6054,-54.9084,-79.7174,-104.9562,106.8433
-3093.7500,239.2690,185.8381,-59.5882,-336.7694,-170.8214,-134.1616,-213.1861,7.9659,17.3122,61.4898,68.0280,53.2211,141.1379,124.9377,-57.7378,-38.6744,-184.4257,-140.6599,185.4354,-59.4990
-3085.9375,257.2731,100.0958,32.1277,-71.7116,-42.5552,-79.2966,25.3727,135.6341,-38.7259,262.9670,8.8885,-75.8293,-208.9625,-41.5221,-223.6585,237.0539,15.2081,-14.6334,-6.1802,-4.8557
-3078.1250,-1.4327,53.6027,-163.9315,-48.4057,-129.0379,19.7994,-134.8236,197.5496,-14.5058,214.6920,-100.4259,96.3636,-149.8105,56.2779,-200.3236,41.0301,-78.2307,8.6289,262.4637,-16.9484
-3070.3125,145.7311,-45.0727,34.8087,-217.3721,-77.7403,-39.3410,100.7696,65.2415,146.5481,81.2091,58.1871,-72.6672,12.1890,-39.1213,-2.1496,-55.2207,-113.9052,-160.3448,304.9440,-186.2633
-3062.5000,-12.1945,-131.8862,-28.5970,153.5081,116.4238,8.3370,148.2268,111.7803,9.4722,18.5974,-9.5780,-24.8899,-88.9665,-65.6998,-66.1158,-7.6004,62.0136,34.5237,76.2464,8.2820
-3054.6875,11.2242,33.6151,-70.7142,-138.3450,-73.1217,40.2990,-41.0403,-76.4026,-33.2867,-207.7192,75.8758,118.1654,273.2124,77.0200,75.2362,-269.7087,-116.2515,23.6843,205.8685,-143.8811
-3046.8750,129.5666,-22.0307,126.0499,50.6256,86.1813,52.1072,154.5577,-64.7566,-132.1741,-159.1861,128.7299,-16.9816,101.2497,-58.4270,-23.5467,-73.9719,73.2270,36.6759,-97.6658,-95.2174
-3039.0625,-18.4540,-64.0880,3.4025,114.2123,73.0950,40.5197,-4.2446,-40.5084,-217.4550,-207.0529,77.0928,117.4460,161.8796,39.7328,-72.7298,-195.6279,48.9910,100.2609,0.3871,3.0541
-3031.2500,164.4327,13.7025,165.6012,-159.4177,-22.1568,-18.2398,47.7918,-98.4340,-93.8594,-230.0880,202.2127,22.7070,286.4073,-19.2342,15.9725,-255.4648,-30.7898,-33.3376,77.3319,-165.8544
-3023.4375,73.3749,64.4882,98.8121,207.9431,94.6117,-11.0206,90.8488,55.6484,-160.2440,-76.1210,60.7761,-44.0711,-38.0702,-86.2118,-161.3157,9.7151,161.0256,88.0471,-152.7389,25.2350
-3015.6250,58.1045,156.0391,14.7518,-53.9759,-99.8740,14.9293,-66.3600,-65.5280,-97.8641,-160.4269,64.5452,55.8915,134.2341,13.5680,-62.8344,-221.3865,-16.1412,37.1668,111.9711,-95.9332
-3007.8125,193.9626,80.6590,195.7643,47.1146,-30.3084,11.9036,150.4980,-32.6771,-28.4101,-53.6923,115.4528,-131.1384,-16.3815,-136.6243,-103.2816,-4.4565,107.2657,-2.6890,-34.2672,-136.0807
-3000.0000,-23.8843,-65.4708,-37.9756,181.4746,-43.4731,-0.8874,63.6138,65.4193,-41.6990,7.2932,-0.5105,-33.9506,7.2464,-39.5826,-116.4783,19.7351,58.0042,26.7023,64.7241,-1.9661
-2992.1875,91.3296,-89.5915,-19.7151,-231.2184,-135.6535,-129.7025,8.7134,-27.5088,197.0301,-11.7326,104.6727,-88.7880,281.9140,-21.5341,122.3481,-73.1012,-169.1707,-138.9371,285.7558,-167.8711
-2984.3750,-25.6451,-205.9638,-78.6926,2.8199,25.9279,-187.7912,133.5857,98.3120,174.5314,150.0080,-14.2949,-146.9196,39.3249,-6.7440,62.9325,199.8394,-57.3999,-45.8489,27.5196,30.9741
-2976.5625,-154.2454,-158.9837,-172.3548,-229.8170,-69.1438,-208.5455,-71.2113,3.4789,153.3979,55.1007,-14.0813,15.2943,275.1028,156.4156,115.8833,-41.8809,-230.8669,-68.4211,286.6533,-26.8220
-2968.7500,-30.9802,-175.1929,68.7810,-211.7118,61.5763,-188.5245,169.7980,23.4249,136.1014,75.9901,79.5046,-184.7208,184.7198,-7.6374,99.6685,52.1786,-102.3649,-50.2212,57.6040,-79.8418
-2960.9375,-144.1755,-182.8986,-93.5942,95.8992,118.8184,-57.0175,43.3205,117.8727,-27.6780,59.3913,-35.0036,-90.2656,20.8285,12.7843,-65.0396,72.7482,13.0625,117.4701,-21.9610,87.6528
-2953.1250,-9.0668,-47.3471,-17.7298,-192.2932,-25.7006,-18.2768,-26.9311,-26.4492,12.8109,-83.9711,82.1167,-50.5766,245.2344,16.4514,49.5296,-181.4670,-115.7302,5.3921,183.7565,-129.6177
-2945.3125,-54.3868,-57.2935,2.6540,79.0009,178.2873,1.9504,177.3382,103.7154,-4.1790,46.1750,18.2116,-177.4320,7.1401,-111.4029,-41.3864,59.8282,56.4873,65.8011,-74.0579,0.6033
-2937.5000,-249.5221,-40.0792,-237.8357,-80.5520,47.4289,55.3184,-27.2520,84.0212,11.9909,-11.5351,-44.9980,-15.1542,243.2074,52.9029,47.8549,-71.7349,-135.1466,82.3561,118.2724,16.9818
-2929.6875,-86.3428,-123.6001,-65.0776,-234.9108,35.8033,7.9184,109.4004,-0.4488,147.4386,50.9971,49.0811,-208.6519,269.5697,4.4676,184.3833,27.9267,-154.0643,-36.8681,33.8739,-67.4185
-2921.8750,-242.5303,-243.5335,-164.7290,31.3402,155.7964,-18.8950,81.6697,81.6875,83.5030,60.1422,-49.6095,-199.5778,131.5234,14.6306,83.5184,148.2146,-41.8957,122.4994,-86.9458,162.7882
-2914.0625,-229.1360,-229.9267,-71.8558,-272.9088,-7.6727,-36.1791,-44.5329,-117.6388,141.1463,-66.1727,77.7816,-105.9543,483.0773,-1.6419,251.2341,-124.9713,-195.1155,30.3821,136.8180,-0.4674
-2906.2500,-221.9684,-327.6137,79.7353,14.5044,179.5667,-31.7982,179.9824,-40.2803,107.5197,85.2115,57.0407,-248.6722,229.3475,-144.2335,144.6778,172.5473,13.9836,36.9350,-207.7278,76.9700
-2898.4375,-397.6703,-329.1966,-145.5941,14.0188,100.9152,0.6558,-44.4111,-44.8249,103.0042,79.6994,-53.4130,-70.3078,297.7227,107.2717,176.2266,94.1714,-106.0915,-34.4142,-33.1746,145.5281
-2890.6250,-222.5692,-293.0243,-68.1721,-267.7737,-5.0052,-105.1681,32.9396,-113.6424,291.2684,120.9327,2.1102,-139.2190,338.8910,148.5308,328.5609,172.5191,-228.8793,-210.0403,1.1582,39.8136
-2882.8125,-311.3251,-347.7565,-244.6488,-6.4623,75.1905,-99.9078,76.4118,38.6445,260.6505,237.2848,-159.4562,-60.0671,51.1440,190.8827,149.9996,398.9872,-143.9512,-124.5806,-159.4300,266.2078
-2875.0000,-192.2517,-192.6915,-336.3572,-275.3969,-163.8224,-80.8610,-125.3389,-15.2771,242.8530,109.4314,-105.6068,67.8776,253.2304,284.0608,206.2607,124.2357,-318.4917,-181.3370,134.8142,138.3976
-2867.1875,-94.3125,-270.8294,-125.2629,-107.5779,-26.0362,-54.0350,121.7226,47.5933,232.8838,173.3884,-66.8589,-124.4113,22.1349,90.0387,160.3483,261.2881,-118.6503,-84.3208,-84.1466,165.3715
-2859.3750,-355.4386,-321.0644,-220.2961,-18.8546,25.6621,-2.3168,-46.3223,63.3686,174.8244,151.2531,-152.9604,-35.8169,38.9348,105.9216,138.3401,166.2574,-114.6915,4.5856,4.7748,254.2657
-2851.5625,-223.7094,-329.4784,-1.5376,-310.3835,-13.8586,-76.8138,25.4150,-49.0778,283.5825,113.9107,16.2908,-221.4345,257.5729,-6.3939,284.1596,54.9976,-183.3209,-74.7340,100.5175,68.9418
-2843.7500,-363.0840,-365.0414,-45.9285,5.9507,124.4881,-85.4702,91.0242,126.3210,239.2057,252.4321,-97.2202,-304.2354,29.0461,-50.8793,202.8349,304.6027,-20.2452,64.7951,-145.9223,244.4706
-2835.9375,-346.8378,-279.0093,-209.7487,-296.1296,-75.5616,-139.5342,-146.7816,-0.6909,332.4451,161.5496,-74.0222,-101.4446,342.1442,115.2437,369.1211,102.7857,-276.7042,-96.0791,115.2580,153.5960
-2828.1250,-100.8799,-278.3318,-62.9046,-261.6114,-38.9566,-287.9697,73.0797,-38.0700,442.3714,234.3107,9.4561,-249.0413,267.9222,-30.9924,406.0888,249.6016,-204.6138,-237.3323,-24.9061,153.3421
-2820.3125,-217.8412,-255.6061,-269.0184,-100.0434,-24.2722,-273.3678,-58.0024,13.6045,346.3661,212.1281,-98.0326,-87.6125,208.7422,93.8250,274.1042,227.4789,-194.2428,-145.5431,-4.0385,315.1485
-2812.5000,-96.4041,-204.5140,-206.8015,-366.1856,-184.2505,-248.4391,-106.7547,-72.3900,334.7337,164.2872,-3.7127,-99.8379,380.9589,118.0086,372.5026,68.6751,-309.5132,-165.4307,116.2045,119.2848
-2804.6875,-162.9036,-271.4155,-137.5853,22.6643,-4.2186,-142.5341,36.5111,70.6117,221.1236,270.4646,-81.6704,-178.0943,47.1710,4.1772,147.9141,285.8946,-52.0546,12.6667,-197.5790,262.4199
-2796.8750,-281.3333,-250.2593,-222.3583,-132.4348,-126.1418,-43.5905,-195.1937,22.6604,173.5704,111.6957,-88.2064,-5.2998,218.4442,139.4084,174.3890,18.1568,-184.1152,-2.1888,103.6947,177.6122
-2789.0625,-141.2143,-250.5992,0.3728,-170.0774,-50.5769,-41.1605,27.6014,24.1956,250.5366,151.4278,-13.3904,-150.0337,111.2487,-4.8655,214.3901,93.9053,-109.1195,-73.5657,-3.5136,70.2778
-2781.2500,-389.7139,-253.5982,-194.5580,107.6476,49.3568,-16.3866,-20.2425,123.0946,164.8598,176.5263,-155.9386,-51.4461,27.3872,58.2049,91.7396,155.0248,-44.7424,27.4059,-76.3975,242.3051
-2773.4375,-257.1267,-226.5354,-195.4629,-289.6314,-63.6722,-54.5842,-59.0609,-25.9702,274.2510,65.6636,-22.8075,-89.8175,356.6249,56.3508,239.1679,-65.8277,-261.5342,-122.5937,159.7929,57.3665
-2765.6250,-183.1275,-364.1182,-90.0087,-41.5894,152.6538,-95.4548,157.4872,44.3118,270.0123,171.1657,-22.3283,-242.8761,131.2175,-95.1599,160.9618,223.6853,-70.7586,-50.2690,-189.6842,199.7721
-2757.8125,-313.8462,-284.4391,-303.3394,-68.3005,13.2256,-52.0878,-128.7306,-23.1606,204.0305,68.9156,-89.9302,-51.6840,285.0670,59.5948,205.0159,84.4471,-179.7445,-6.7056,-39.9149,243.4440
-2750.0000,-127.4004,-168.6373,-105.5739,-235.9559,-46.1219,-112.6360,-4.8524,-119.5600,255.1674,81.7564,7.9480,-112.3975,300.0432,-36.5534,293.2002,97.2813,-179.6689,-103.0690,-101.0354,147.1940
-2742.1875,-232.3637,-204.2742,-188.2612,43.9714,54.1006,-85.6405,22.5880,-18.4123,135.8581,73.1581,-101.2252,-48.5769,70.5461,-9.1692,100.9303,234.6773,-52.8852,1.1229,-172.6535,321.5080
-2734.3750,-133.6486,-176.2507,-187.3253,-246.4750,-91.0345,-83.9976,-85.3488,-164.6296,137.2054,-35.7951,9.7286,61.8974,365.7286,101.8782,212.3247,-56.3080,-231.5125,-78.0418,100.3919,102.4621
-2726.5625,-43.6228,-157.9673,11.8637,-18.7034,107.0909,-106.1233,149.9785,-75.6050,116.8272,89.5112,20.7815,-142.4099,87.1739,-65.8315,117.9899,178.9628,-14.2266,-95.9754,-128.3342,154.6514
-2718.7500,-196.2220,-100.3293,-225.6328,2.4178,17.5810,-49.9134,-50.3532,-56.2226,62.8040,37.1735,-79.8763,-13.3750,143.9704,63.8253,138.0145,52.5905,-98.0230,-39.5613,34.2802,211.2032
-2710.9375,-12.5112,-162.4267,-27.8923,-272.2764,-5.6917,-72.4794,37.5515,-151.6175,189.0623,14.0798,53.4523,-109.1013,233.0638,-32.2550,263.3249,29.4472,-165.1725,-138.9311,75.1663,41.9784
-2703.1250,-149.2554,-301.0245,-106.6592,9.5303,134.5515,-5.5658,103.9753,25.4930,145.8460,117.5011,-70.4737,-116.3565,-30.3567,-37.8440,110.1456,206.8315,-37.1048,-31.8132,-98.4787,219.2594
-2695.3125,-148.6242,-265.2657,-175.1153,-308.3423,-6.8713,-1.3114,-73.2831,-79.0533,152.0002,13.2712,-20.3226,-2.2593,232.5968,114.9392,190.3414,-8.4498,-250.6464,-138.3582,217.2491,77.8880
-2687.5000,-30.0358,-218.5970,-18.6692,-157.3492,114.6001,-27.1706,157.3676,-68.7070,163.0781,60.9551,-4.8346,-101.2913,22.4612,-58.3911,164.4614,186.1679,-91.8131,-128.0138,-54.1311,88.3976
-2679.6875,-214.2247,-157.7267,-180.0469,6.8682,98.2862,-5.8304,-40.7831,-48.1515,37.3565,9.8576,-96.1172,29.8606,43.5020,36.4738,75.7751,96.9974,-71.1423,1.5412,-29.3327,183.1201
-2671.8750,-20.9676,-107.4383,-9.0341,-224.5592,-23.6414,-19.0992,20.4477,-170.2147,100.0497,-76.8493,52.8934,-20.5925,215.9757,-12.2553,211.5160,-61.8091,-133.9273,-89.5176,55.8824,-12.7842
-2664.0625,-57.1575,-142.6240,17.4832,123.5204,149.9425,8.1256,120.1970,-70.7754,90.2516,-12.0482,-18.4585,-104.5638,-50.0704,-58.4917,54.7588,148.9008,76.9256,14.9093,-227.4502,160.8096
-2656.2500,-87.2154,-104.6778,-121.9370,-155.3098,-27.3850,-23.5628,-92.9812,-174.2481,134.5545,-79.1542,-20.2931,85.5794,176.9985,131.4003,173.1154,-64.2993,-148.1655,-54.5844,56.3144,57.5100
-2648.4375,21.3527,-207.1570,28.1941,-225.6337,49.8220,-56.7218,94.3823,-98.1905,212.4276,71.2907,14.7902,-58.7433,33.6400,-11.1518,178.0476,123.0447,-120.0451,-124.5606,-13.3786,-12.2560
-2640.6250,-205.5946,-190.1803,-144.2454,0.5149,135.4917,-44.4460,32.1920,60.3218,77.7560,83.1991,-112.7326,62.3699,-64.2880,36.7454,42.4290,97.8532,-71.1001,-37.0831,37.3506,109.4475
-2632.8125,-18.0983,-38.7806,-15.3024,-234.9751,-29.4581,-62.7783,-21.6224,-66.7850,98.4965,-43.5068,26.4913,44.8843,139.2099,20.0491,136.2317,-102.9709,-150.0528,-134.2150,188.5014,-91.4687
-2625.0000,34.4986,-92.3113,67.6992,165.5868,90.6603,-18.0693,98.6344,52.1532,-2.6986,1.8487,-15.5672,-20.5779,-181.2568,-80.6150,-37.9150,90.2635,110.6319,-13.3032,-77.3292,64.6555
-2617.1875,17.2667,-76.6676,-62.1870,39.2978,-76.0652,-0.2113,-104.9768,-40.7599,-57.7457,-126.6426,-14.2019,144.1141,-16.5699,83.8799,-18.9080,-148.3631,-21.4062,1.7604,218.9882,8.9312
-2609.3750,169.5458,-100.5460,174.3655,-92.5915,-23.3506,-21.9119,131.8589,-61.2321,32.6780,-110.6886,87.4758,-24.7543,-74.4104,-10.1702,-39.4285,-96.5589,14.1479,-59.7475,193.7633,-122.3726
-2601.5625,-51.7907,-77.0686,6.2431,139.8857,139.7290,-6.2613,75.0510,64.6616,-61.5419,-21.3685,-66.2554,64.7149,-240.9316,43.1327,-168.6022,-7.3798,79.9574,33.0910,109.8580,40.6840
-2593.7500,51.1061,59.6248,45.2834,-218.4812,-5.0159,-41.4172,-33.5861,-44.2523,15.4516,-91.8521,32.5827,103.3950,18.7772,82.6695,-19.5530,-189.0226,-102.2187,-113.8901,280.1762,-141.0765
-2585.9375,94.5599,-38.1596,119.8266,33.6354,180.7388,-3.0898,189.2872,31.3314,-19.0405,20.1772,17.2344,-43.4509,-200.0217,-63.2970,-90.9874,33.8487,80.4103,-37.3894,-65.0289,-29.3493
-2578.1250,-80.2086,-38.1710,-28.9092,31.5118,68.2498,67.9780,-33.1072,-7.3344,-56.7855,-92.0473,-19.5559,138.4536,-17.0799,45.4938,-91.6725,-187.5323,-1.0681,30.8656,109.5106,-30.8621
-2570.3125,110.9404,-24.2947,212.2077,-62.8006,51.5939,51.8830,134.3384,-134.1763,1.3364,-108.4331,119.5801,84.2019,39.7333,-117.8691,-33.4885,-242.0963,32.8694,-63.0481,50.9047,-194.5532
-2562.5000,12.5940,-89.9356,96.7776,292.3704,195.4021,83.2291,167.2473,-28.5715,-76.0949,-75.3611,7.4509,79.3864,-184.0408,-157.7976,-183.8633,-99.1894,187.2991,81.4893,-121.3013,-14.7882
-2554.6875,94.1903,-43.6289,76.2193,-51.5735,28.0925,63.4663,0.0224,-122.0818,-21.6265,-168.3975,83.1236,169.4805,53.0969,-67.8033,-56.3283,-338.4046,-13.7892,-15.0839,169.3892,-182.1328
-2546.8750,169.1069,-41.0371,221.9233,55.7115,173.0279,60.9421,219.0533,-50.3524,-59.8998,-59.1796,84.8501,-17.1952,-168.5221,-179.5619,-93.5326,-46.3636,128.9284,-14.4279,-75.6955,-110.2438
-2539.0625,-2.7986,102.7276,-1.2598,90.1652,97.1128,57.5656,-40.7824,-16.4629,-98.0299,-135.7990,-4.6498,127.2880,-60.0094,-34.1610,-132.5912,-159.1657,54.2260,21.3821,65.3499,-39.1932
-2531.2500,190.8958,189.0732,206.0867,-106.8756,10.7208,8.7342,19.9084,-140.0393,-72.5929,-183.8699,137.2013,114.3356,75.0744,-83.1951,-33.0762,-245.4445,21.0142,-69.2805,44.9583,-235.6185
-2523.4375,113.9784,40.7925,152.7688,376.4520,177.6884,101.2504,113.9621,-9.2565,-235.7989,-164.5751,42.9973,133.7230,-199.5158,-99.8818,-233.2093,-78.3556,252.0300,97.4023,-210.1271,-68.6911
-2515.6250,165.8797,56.3461,135.2124,107.5640,14.4415,83.5674,-50.2185,-136.6843,-178.1989,-291.4888,112.3406,226.9232,41.7115,-5.7446,-102.5299,-315.4886,78.4675,-30.1128,49.5944,-195.9694
-2507.8125,310.6470,58.7345,317.4685,142.4526,49.9875,8.6782,169.4052,-65.3267,-105.7853,-144.6112,146.8288,3.9019,-142.2557,-153.8141,-103.0420,-95.8283,187.3156,-100.8412,-125.9006,-160.4767
-2500.0000,117.9009,146.5969,105.1586,157.8166,21.9982,17.2391,-5.5223,17.4879,-168.9295,-99.2825,16.9438,85.3233,-169.8043,-34.4304,-166.1210,-87.7105,135.0112,-15.1104,-39.9732,-4.5298
-2492.1875,309.3048,195.5976,198.9411,-218.7582,-68.9074,-0.1031,-22.3704,-73.6174,-74.9742,-114.8684,151.8800,31.8534,34.7654,-50.9277,-35.0864,-177.5243,-15.2511,-109.2976,112.0654,-168.5138
-2484.3750,148.6662,33.5369,128.6261,144.5763,82.1036,40.4458,55.6979,114.1787,-143.1218,36.4559,10.9741,-1.7326,-254.7913,-46.5352,-176.1519,120.5789,151.5067,43.4115,-156.0448,19.3964
-2476.5625,61.5022,85.9664,0.7221,-16.6433,-44.4413,59.4409,-145.8211,-12.5769,-196.8219,-90.7703,11.7773,165.1476,-14.8934,121.3250,-119.7595,-116.8814,-7.2141,22.5682,69.2912,-71.2407
-2468.7500,206.4008,53.4415,262.8158,19.1040,69.9976,63.4223,152.6549,-46.3483,-191.5117,-49.9959,83.2354,-15.9812,-193.9855,-21.8185,-114.3421,-39.3498,129.1134,-12.2993,-106.3760,-140.9007
-2460.9375,6.8383,28.4427,116.3886,237.3844,181.9442,100.9024,117.6265,-7.6153,-261.7065,-84.7126,-34.3650,95.3898,-301.6142,17.5306,-258.4344,-37.3022,191.8813,101.3376,-133.5777,7.9558
-2453.1250,155.2190,104.3861,239.8393,-111.4679,47.7577,41.2799,57.4649,-140.9991,-137.9927,-180.5415,112.8476,71.6749,-30.3273,-5.2022,-97.6112,-207.3872,43.4898,-35.1352,81.1386,-199.3076
-2445.3125,147.7111,-9.5819,222.3522,158.7413,214.6180,59.7081,224.3616,-11.3312,-117.2293,-13.3106,46.6400,-56.0036,-267.0266,-132.8949,-113.7511,32.5909,194.1275,58.4392,-176.1260,-69.5344
-2437.5000,13.4279,29.6936,-31.9609,-50.8292,71.6672,63.3414,-65.5684,28.5424,-112.2822,-45.8856,5.8401,57.5436,-6.5434,55.6336,1.2917,-147.2451,-28.1309,61.2118,142.8050,-102.5628
-2429.6875,139.8126,14.6160,100.3354,-209.8323,56.2934,11.5644,66.0944,50.9985,-15.7284,50.1295,91.7701,-141.3022,52.5452,4.7718,97.9476,-14.5071,-62.4689,-63.4447,89.3381,-191.0239
-2421.8750,-67.9551,-19.6316,-94.5781,69.9899,119.7234,37.5848,-17.4348,187.2600,-99.3766,76.9495,-63.8573,-79.3486,-104.6082,68.7114,-21.6035,122.0510,15.9080,76.6935,18.6261,19.3244
-2414.0625,38.8231,86.6724,-52.0169,-214.7158,-58.3705,-30.8975,-158.4991,46.0034,-55.5272,-27.7495,22.9139,37.1199,122.7538,111.1797,132.3651,-91.9176,-142.1143,-66.6823,192.4160,-158.8414
-2406.2500,136.0198,6.3716,112.9005,124.9198,69.8847,-13.0361,79.7902,100.0862,-110.3229,63.9056,14.1367,-19.0773,-189.5499,-54.0084,4.6916,109.4719,107.7568,-43.7145,-137.4942,-30.6673
-2398.4375,13.3879,128.2526,-22.0640,102.7205,9.2933,-1.0227,-127.7935,39.3204,-205.9752,-70.2852,-35.1094,176.8796,-103.7117,69.9667,-92.8356,-97.9957,47.6777,5.4172,52.7150,18.6702
-2390.6250,218.4529,226.8267,194.6148,-83.8691,-31.6586,-42.3712,-21.7451,-74.8158,-135.9634,-109.8322,100.0636,25.4887,-33.2031,-44.4011,-21.6960,-101.8620,50.8427,-40.8095,42.5840,-132.3698
-2382.8125,79.4004,156.2767,37.1411,230.4266,105.2561,58.1341,5.1664,61.9084,-181.1109,-9.5199,-38.8579,-22.0575,-262.8863,-53.9354,-139.7285,72.1231,176.5100,132.8292,-100.7227,41.4397
-2375.0000,83.3270,158.7218,-29.4025,-52.3285,-70.8918,102.5953,-133.9998,-4.4244,-136.3207,-38.2742,3.3371,59.3659,-34.6215,28.4923,-21.8206,-177.9820,-14.2961,97.4194,180.9438,-134.8230
-2367.1875,124.3724,22.2689,81.1267,124.9654,77.0087,102.1079,86.8986,143.2889,-98.4857,73.0195,-6.0613,-125.1762,-254.3328,-81.0421,-56.8696,79.9567,125.5815,99.0453,-64.3616,-98.0667
-2359.3750,-108.8504,34.5614,-134.6604,133.9965,45.6066,107.3253,-54.5205,148.7129,-54.9692,6.0139,-115.4579,27.9965,-174.3796,36.1296,-50.2348,-24.4002,35.2674,143.3727,15.0079,-18.6074
-2351.5625,117.5376,117.4491,31.0993,-103.4595,-9.2741,15.0871,0.5864,-17.3281,74.0990,-49.4597,31.6107,-28.2645,-8.8606,-19.1417,78.9658,-116.2406,-31.2365,12.2325,24.9392,-184.6290
-2343.7500,53.8213,123.2209,-13.2872,250.9534,130.6997,44.6958,67.5567,49.4835,-4.9826,17.9202,-56.5364,-35.6837,-235.5278,-98.5731,-73.9851,60.7882,156.6812,119.9398,-183.3230,29.2019
-2335.9375,62.6321,235.5497,-78.2038,-27.1362,-43.8481,52.7985,-108.0092,-52.2207,-68.5676,-120.2113,2.2404,83.4209,30.3118,-15.4831,9.5669,-223.7018,-15.3885,89.1377,136.9124,-72.4678
-2328.1250,235.1486,230.5889,97.5343,34.4356,21.2582,44.5401,105.0765,12.7155,-38.4988,-16.6900,47.2634,-71.8321,-161.2310,-170.7498,-33.2368,-48.5270,104.2672,44.9678,-47.2382,-80.4890
-2320.3125,84.2982,149.2551,-107.1534,125.6043,37.9455,23.8788,-63.2670,66.2422,-94.8266,-0.5817,-60.0806,54.5385,-180.1832,-6.4001,-89.4387,-32.7681,56.5276,66.3952,44.2196,46.0886
-2312.5000,232.2508,119.6926,12.9173,-189.4925,-62.6371,-40.0325,-52.8635,-70.4916,26.6016,-62.7261,69.6908,64.6550,50.6038,41.7034,106.1136,-132.2609,-90.9226,-107.4430,116.4270,-127.6052
-2304.6875,138.2795,59.2046,10.0305,134.4934,82.8318,-5.8830,-18.4102,73.8324,-47.9349,119.1831,-60.7458,24.8281,-281.5944,39.8632,-42.3010,233.3088,92.2940,-30.2247,-227.3490,90.7552
-2296.8750,61.6448,192.0629,-147.5620,-53.2427,-148.4113,-17.4328,-322.6787,25.4422,-58.1777,71.3698,-92.7246,160.3207,-72.4846,250.3304,20.5956,75.1461,-85.5829,-111.7103,6.1713,79.3943
-2289.0625,215.9649,203.8716,45.7634,-114.0705,-211.7468,-44.0856,-165.0379,35.9417,63.4735,155.4453,-32.2573,-13.2901,-171.4935,114.6855,69.3842,195.8779,-22.7475,-138.2921,-90.4523,52.9197
-2281.2500,21.1583,183.5864,-206.0787,141.9812,-206.2375,-0.8776,-196.5773,151.2793,-40.0443,161.3539,-192.5900,138.9714,-312.6645,156.8922,-33.9905,201.4452,21.3276,49.9940,-43.2557,205.2881
-2273.4375,61.8029,258.7563,-194.5069,-173.5675,-341.3445,46.7378,-257.7234,89.9970,45.8266,63.6416,-102.2000,151.6361,-43.4359,170.4965,89.0329,-6.6098,-152.5482,-20.3251,168.3211,-39.9736
-2265.6250,15.4302,175.8981,-104.9747,126.8786,-68.4879,100.3140,-21.9113,179.6597,-10.3764,190.8691,-152.3581,20.2536,-320.2931,40.0435,-41.0200,230.2890,54.0494,34.3014,-164.1817,49.7149
-2257.8125,36.2388,159.2221,-198.2933,1.4645,-88.4940,80.0360,-150.9677,49.4562,-66.4382,24.2250,-90.4737,147.0399,-84.0014,130.7488,-22.9224,-83.6925,-57.5959,14.0625,26.4835,29.5386
-2250.0000,331.1926,100.6854,108.5078,-131.8559,-37.4013,-17.1495,45.0849,-47.6518,58.6027,-35.3181,109.7284,-60.0860,-32.6338,-75.4612,28.2676,-107.5737,2.1059,-83.0843,-35.7508,-67.5524
-2242.1875,167.0581,182.0921,-39.8173,156.7372,34.5795,-18.4382,-28.9761,61.1481,-14.4608,74.0367,-34.9193,-24.2964,-216.3896,-74.7631,-117.6533,2.4345,119.1471,99.6769,-169.0756,115.2579
-2234.3750,200.5065,355.0877,-73.5938,-167.1500,-182.9155,-52.1825,-210.5067,-45.5039,63.0338,40.9331,4.0221,52.0526,6.4136,1.4946,-4.0148,-179.0202,-73.1066,57.9819,105.1595,-102.4098
-2226.5625,261.1302,308.2579,91.7831,100.1390,-16.2555,-33.7784,66.1165,10.0037,45.6715,133.9862,-8.4300,-113.4464,-304.6627,-198.1039,-131.2437,24.6932,153.3795,113.4389,-121.4921,-46.9281
-2218.7500,130.6788,282.3747,-12.9431,140.3257,-10.7085,8.5251,-75.3824,-21.6015,-57.8088,-44.0799,-25.3347,2.9769,-188.8329,-82.7884,-160.5742,-189.7204,117.5288,153.7877,59.7465,-41.5535
-2210.9375,383.8289,322.0852,252.9000,0.0588,-1.6224,17.3727,80.6644,-196.6708,-84.7432,-144.6058,160.2567,-62.0442,-69.4674,-182.9262,-77.3498,-255.5817,134.3390,-21.3306,25.5016,-216.6374
-2203.1250,321.1949,294.0267,137.9259,355.0166,66.6587,48.4200,75.8857,-54.5449,-234.4915,-75.9283,43.9242,43.1571,-293.9299,-113.8544,-263.9387,-39.2274,275.2965,86.7552,-216.5660,-37.5086
-2195.3125,297.9893,445.4012,5.3519,44.3549,-212.6790,62.8647,-166.5050,-77.0378,-219.8371,-133.8696,66.3562,168.7748,15.0197,49.6279,-138.1243,-245.4985,35.4468,-11.7735,69.7733,-207.0002
-2187.5000,373.5118,449.5012,113.4932,150.4223,-140.3130,25.0174,15.8150,105.1692,-183.4960,11.8852,55.4376,-16.9109,-207.3650,-98.1956,-175.6306,10.9429,159.7250,23.3988,-141.2237,-171.7895
-2179.6875,172.9411,457.5354,-107.4652,189.4001,-178.0585,24.0707,-168.9888,179.2681,-182.2727,-24.4797,-57.3347,130.3227,-170.8574,48.8936,-210.2466,-62.7265,90.4066,98.4713,-66.3205,-61.6843
-2171.8750,339.0149,447.2014,31.2070,-71.0313,-222.2084,16.7235,-103.1902,-13.0458,-116.4563,-69.2575,61.6449,85.1483,-30.7540,5.5715,-71.2653,-107.8071,10.3672,48.1355,-80.8255,-217.0006
-2164.0625,219.7005,395.4963,2.4807,296.1742,6.2502,96.9808,-21.7915,67.2399,-217.0615,12.5525,-39.6680,19.5779,-280.0730,-23.1576,-208.7056,120.7133,218.1012,239.4083,-417.7582,-25.7106
-2156.2500,155.2636,541.6784,-101.3975,120.2103,-170.4557,178.0926,-235.5656,-35.6360,-282.8270,-53.8076,-7.2581,136.8694,21.4702,95.9756,-164.2906,-165.9458,69.7113,240.5239,-205.8289,-165.5871
-2148.4375,255.0496,499.0859,72.9346,214.4577,-106.9602,205.4053,-61.1310,28.6920,-255.3947,48.0312,42.0836,-19.6347,-98.8160,-60.7022,-209.6859,8.6044,186.1721,193.8408,-358.7193,-212.2642
-2140.6250,75.1848,388.8681,-163.3954,346.0742,-85.1282,226.0769,-187.3643,160.3666,-342.6224,106.2074,-72.3128,112.2503,-113.7619,71.9737,-296.7456,29.4870,153.0379,290.5093,-332.2491,-80.5916
-2132.8125,241.4531,482.7868,-96.5990,49.7902,-239.2061,218.8490,-230.4886,79.1141,-238.7533,62.4739,17.6964,105.2471,26.3820,102.7332,-192.7127,-87.5484,19.1030,169.2673,-172.6875,-271.8388
-2125.0000,214.8800,489.8824,-101.6273,404.6993,-97.1264,213.7735,-51.4634,148.0093,-241.7510,131.8784,-87.1087,26.3955,-308.3631,-11.3690,-306.5587,165.5690,224.3734,243.1899,-379.9996,-92.9268
-2117.1875,143.5577,558.2366,-254.4002,221.8521,-249.8125,208.9499,-241.2043,69.1401,-210.5047,-56.4835,-109.5242,205.7986,-129.8433,131.7738,-237.1538,-60.0840,59.6710,236.3721,-141.0387,-134.7793
-2109.3750,239.9961,582.3404,-81.4052,171.7678,-260.7446,197.8786,-68.1796,94.0306,-146.5058,42.9120,-55.9124,120.9376,-177.6000,47.6544,-174.0047,39.0280,100.6831,186.3038,-297.3397,-219.8876
-2101.5625,1.0662,554.1064,-269.7741,456.3415,-228.0276,228.4777,-219.5132,235.5833,-223.8710,110.9479,-203.6436,262.7458,-255.7187,153.1904,-251.2170,143.7767,151.1144,223.8913,-363.9772,-41.3415
-2093.7500,196.6457,572.3941,-211.6278,118.4019,-426.8170,103.5834,-309.3493,73.6270,-127.7412,60.4644,-52.7030,248.0714,59.6643,176.2179,-81.9313,-54.9934,-32.7864,26.9702,-105.1041,-203.3197
-2085.9375,253.4685,451.9415,-92.2084,344.7663,-233.3441,2.9570,-152.9187,193.9226,-154.3784,217.2259,-60.0169,110.6479,-187.7516,2.4819,-180.4257,212.4979,156.0207,113.3134,-370.0172,-47.0456
-2078.1250,82.7411,419.9475,-275.3255,274.5917,-344.4297,75.7882,-372.0580,156.6567,-226.5810,143.4148,-113.4284,220.6964,-40.7101,150.2029,-179.4715,28.4181,46.4403,253.1074,-125.4818,-47.3322
-2070.3125,162.2724,428.2025,-82.1673,137.6743,-334.2626,159.8655,-215.9402,129.6328,-179.5376,153.8425,-38.9490,47.9972,-67.4224,51.1690,-169.2574,75.5981,67.0711,222.1448,-156.7157,-184.3720
-2062.5000,17.1825,387.8713,-245.6171,444.1731,-167.6986,252.3361,-159.4329,223.0103,-269.1049,136.6561,-164.3678,66.7206,-267.7368,71.5461,-331.6517,131.1735,182.6934,353.5926,-236.5480,-17.9981
-2054.6875,104.9460,439.4138,-189.1985,104.4988,-258.3039,199.6527,-250.0787,59.2225,-211.8262,-99.6914,-30.8104,124.3116,46.8114,128.7675,-201.2018,-142.4216,6.8230,189.8799,21.4956,-181.7919
-2046.8750,180.7999,338.0643,26.3422,245.9611,-41.8093,158.0727,-33.6125,90.5385,-178.4558,-30.9353,-3.7984,-26.9956,-179.5696,-21.9294,-240.6772,110.1011,180.5479,154.2758,-259.3817,-76.4765
-2039.0625,38.3359,299.4214,-167.4039,203.1358,-52.6284,147.1939,-227.4588,79.5485,-224.3956,-41.4888,-70.5299,146.4123,-79.2508,115.0723,-213.4651,-10.6987,70.4863,182.3742,-92.5411,-13.4651
-2031.2500,271.6896,320.5876,4.6957,-61.8837,-101.6480,98.1175,-93.4889,-5.6537,-125.5403,-16.2546,65.3298,61.6059,19.8582,30.8505,-114.4599,-22.7043,2.0316,58.2691,-145.9071,-172.6675
-2023.4375,132.7215,286.4493,-45.4869,286.8323,-3.9578,121.7499,-69.8152,91.8536,-174.0031,81.6734,-59.2806,48.5066,-213.3551,55.3147,-235.7829,184.9951,165.5242,124.8750,-395.5869,34.8459
-2015.6250,114.4931,231.0500,-100.9091,-53.7264,-207.5306,103.1376,-235.3989,-1.9020,-82.7186,-10.6659,-11.3837,176.1757,61.2023,220.5301,-108.3491,-54.5731,-65.2183,30.2228,-103.4897,-94.8972
-2007.8125,182.5413,122.9193,36.9911,44.0390,-142.7929,93.8346,-23.6628,99.6487,-54.1401,127.2890,-8.0655,20.1556,-131.9573,139.0387,-116.6276,194.1801,45.1462,22.8745,-322.1013,-67.3313
-2000.0000,-53.1025,97.1331,-219.7564,225.1626,-178.7147,129.8862,-207.5877,172.5516,-89.2148,127.5758,-162.4693,130.5105,-167.7611,249.9085,-114.5658,156.2656,18.3660,62.8756,-177.3386,42.5896
-1992.1875,126.8359,99.9440,-65.8687,-92.1196,-246.0437,27.5326,-126.9024,33.0430,28.3208,-12.5458,17.2793,28.4690,97.0317,148.3602,40.0999,16.9548,-101.7860,-113.5304,68.0392,-133.8979
-1984.3750,29.7808,1.7802,-70.9244,156.6894,-67.3163,-14.7630,51.8416,137.5980,23.8949,56.3793,-48.7702,-13.5138,-92.1383,32.8488,-37.1987,195.7071,41.9967,-5.8721,-105.5369,44.6811
-1976.5625,-75.2052,70.6971,-254.8716,-94.4110,-251.4997,-15.9485,-170.3230,62.2494,60.5668,18.3914,-45.7315,95.6024,236.8235,142.4372,108.6129,-26.4561,-176.9724,-10.1136,171.0098,-30.6482
-1968.7500,26.0181,66.8462,-82.5407,-68.2337,-188.4171,-26.8743,2.7809,88.1660,123.4782,81.6591,-3.9663,-99.0407,116.0167,-14.7371,209.6612,109.6609,-81.6184,-90.0896,20.7860,-4.7206
-1960.9375,-151.2257,-6.4195,-205.6106,31.5584,-92.7200,-40.1924,-84.5255,73.6885,73.9695,31.5152,-96.1041,-1.0604,64.8250,46.6965,159.2936,95.3721,-72.8918,-25.4520,49.1736,164.8160
-1953.1250,82.8044,-19.4147,-31.3421,-371.3725,-102.7036,-124.2179,-57.5104,-119.5019,175.7603,-125.3517,96.8992,-47.7719,313.9571,74.4189,262.2302,-97.6260,-214.5881,-148.5272,172.8800,-28.3569
-1945.3125,52.3839,-121.8596,32.5488,-56.6706,145.9396,-132.6438,117.1222,-54.0864,130.1423,-60.6227,41.1520,-129.8685,46.6747,29.7291,105.7436,187.9938,-11.4139,-78.9844,-179.8154,146.0914
-1937.5000,-58.1301,-22.3746,-122.5997,-171.0240,62.5333,-142.1087,-149.3044,-173.7300,121.4734,-179.9592,12.1381,44.0034,258.3630,166.9843,171.2027,-4.4570,-150.8138,-123.4929,-48.5337,136.4880
-1929.6875,153.7233,13.4901,168.6806,-209.9545,97.5378,-254.1638,68.6897,-323.9728,230.2022,-145.8972,132.7243,-103.7312,219.4479,-17.3905,280.0524,65.5016,-62.7345,-303.5963,-193.8549,97.2895
-1921.8750,85.5551,-56.6319,10.0173,-1.8037,158.6040,-267.1629,19.7323,-300.1602,182.9711,-121.7899,32.6336,-42.3917,97.5843,44.2738,231.9389,164.5086,-10.4540,-236.6363,-268.1090,305.1581
-1914.0625,209.2855,-73.8388,-4.6605,-410.7112,-39.3850,-319.2039,-68.2667,-425.4056,277.6899,-172.7390,121.0926,15.9158,339.6900,138.8786,401.7716,-34.5411,-244.9689,-362.7263,61.6125,142.9733
-1906.2500,110.6027,-244.4274,67.3248,-196.9351,104.2911,-284.5861,148.4016,-207.9804,276.0475,7.9680,46.6858,-133.1196,43.4241,27.1248,252.2399,256.0844,-91.4364,-291.1572,-76.0243,250.4630
-1898.4375,-117.6869,-262.6101,-138.2318,-253.7180,9.4159,-122.5144,-19.4791,-156.1131,180.8506,-49.8972,-39.5916,-7.6799,130.6320,152.8337,194.1536,51.1456,-199.1731,-172.1347,182.8270,228.4072
-1890.6250,40.3251,-175.4963,102.5974,-312.1447,-45.0942,-66.0844,111.0190,-172.8906,239.0079,-66.4104,70.9031,-170.8954,115.1842,-10.1212,215.4062,-3.4216,-127.7741,-229.7657,159.0379,64.7032
-1882.8125,-17.7939,-199.4786,31.3842,12.4134,67.3599,9.3102,185.4760,-24.7028,131.1024,-28.9807,-23.7166,-169.1368,-140.3160,-81.1299,34.5807,72.9703,30.6775,-152.4393,27.2236,212.9693
-1875.0000,80.5828,-242.9407,27.7533,-314.4800,-119.6394,-31.7443,108.4861,-137.9709,238.7473,-142.0178,84.6485,-134.8183,149.7564,-11.6029,178.3055,-188.0959,-170.1579,-268.5665,331.9917,25.7767
-1867.1875,100.9519,-364.4010,187.2071,-123.2739,76.4300,-54.7419,305.5747,-52.1809,215.4332,-56.0041,97.1611,-269.4534,-57.1384,-144.0615,81.0594,7.9132,5.9578,-217.6251,170.8057,111.6509
-1859.3750,-92.5582,-311.7121,52.8765,-73.8624,51.7034,-116.5281,133.8621,-77.1857,117.3105,-190.8039,46.1097,-109.8651,64.1934,-94.3285,95.0085,-199.8979,-31.9336,-133.4686,360.8563,160.7314
-1851.5625,99.2191,-226.7334,294.9361,-309.1096,72.3517,-279.9553,191.5267,-203.8378,212.5418,-207.2624,216.8300,-235.9329,231.8956,-221.2646,189.3114,-290.3545,-59.2402,-192.9569,371.2657,-39.8342
-1843.7500,-26.8500,-353.5684,300.2486,52.9197,335.2847,-312.1106,269.4550,-126.2236,107.0054,-92.4817,136.4057,-304.7326,15.8553,-252.9529,47.8466,-64.5431,131.6999,-77.1763,100.9332,111.8791
-1835.9375,-15.1944,-377.6613,277.3825,-255.2671,275.0290,-334.4601,136.1888,-332.8168,195.2623,-298.9161,220.5807,-179.7112,324.6490,-164.8370,209.1864,-307.9373,-68.3107,-210.6008,354.4364,-21.6100
-1828.1250,130.9416,-408.2703,462.1114,-182.8786,459.3544,-334.2616,431.5091,-443.8517,233.0622,-261.7961,276.6403,-289.1537,177.9852,-311.2017,173.0576,-123.7517,57.7194,-278.4687,74.4937,15.4683
-1820.3125,-27.2081,-321.1436,212.6635,-63.6746,466.4856,-327.2599,253.6293,-437.0844,166.6568,-291.8854,154.8017,-98.7893,185.1426,-193.7727,180.7154,-190.7652,18.1471,-265.5208,158.3866,169.3659
-1812.5000,173.5212,-262.1276,242.2077,-464.5174,274.5690,-372.3046,246.7227,-481.3643,343.2031,-263.0260,255.3870,-216.4767,361.2715,-201.4240,357.3251,-271.8199,-173.1068,-420.6080,390.2535,14.2136
-1804.6875,72.0493,-399.2794,198.6605,-252.4099,378.5717,-379.4365,349.7333,-231.7168,373.6374,-123.2430,149.9021,-333.2569,96.2892,-244.1929,240.8069,-21.9448,-57.7513,-313.7700,250.0292,190.9862
-1796.8750,-66.8763,-432.8517,91.7653,-535.6577,234.2338,-339.9043,168.4053,-228.4094,377.7226,-267.8159,165.4708,-219.3751,356.9978,-167.3128,317.9431,-313.4229,-255.7890,-281.2715,565.4973,83.4122
-1789.0625,5.7956,-501.8152,351.5979,-396.1891,309.6323,-227.6549,354.8149,-190.3812,379.5078,-229.6876,251.8183,-327.7898,285.4200,-312.7541,283.7709,-238.1741,-90.0361,-282.0663,281.6674,11.5566
-1781.2500,-205.1005,-467.2990,195.9989,-82.1487,337.6035,-162.8484,271.7831,-162.8036,223.8409,-202.0296,95.1763,-116.6262,129.4193,-211.6534,164.1423,-210.3772,0.3326,-179.2989,208.4173,149.2754
-1773.4375,-46.5252,-414.3033,293.9968,-419.5612,141.1418,-249.4909,222.3354,-249.6936,321.7312,-177.8352,195.7777,-129.9053,300.9944,-150.0246,299.0670,-333.0410,-162.3882,-375.9792,434.7448,-47.4518
-1765.6250,-67.5523,-471.8948,262.5182,-161.4279,293.2089,-281.6092,374.4136,-61.0629,290.1130,9.8643,102.9575,-270.6818,11.0647,-218.9182,157.4713,37.8191,-16.6816,-295.1374,234.5824,104.3519
-1757.8125,-231.4859,-459.3816,16.2471,-363.1020,120.4739,-270.5114,91.6907,-15.2111,301.6935,-16.2384,17.9051,-112.2409,169.3722,-23.6116,206.0739,-60.1201,-227.4239,-250.0822,489.6771,78.3595
-1750.0000,-133.1250,-432.5545,157.4098,-443.3613,113.1639,-277.9968,232.4016,15.0700,331.6685,50.0798,84.1515,-229.4059,163.0907,-103.9243,236.0592,5.3726,-198.6498,-225.6131,374.1852,-2.2251
-1742.1875,-370.2879,-423.2133,47.1930,-48.9850,223.4819,-241.8673,157.7215,50.9714,184.2206,12.9983,-38.1152,-118.9557,52.4263,-104.6390,89.6172,78.4803,-33.9093,-7.5162,170.3137,180.8157
-1734.3750,-250.1437,-303.5532,179.4172,-248.2215,97.2136,-220.3292,68.4599,-221.7285,206.1666,-149.6968,104.9488,-62.0932,331.2001,-119.9547,220.5726,-231.0150,-108.6085,-102.0175,287.8778,-18.7437
-1726.5625,-129.5113,-324.4009,336.2745,81.1749,327.5872,-211.1825,335.8364,-212.8142,142.7110,-103.7860,128.3193,-198.6340,83.5819,-257.6946,83.1179,-73.8743,139.0302,-87.9114,-51.9499,64.3279
-1718.7500,-285.3015,-339.6518,134.8448,-6.7340,235.6791,-193.3317,133.9275,-231.2016,123.9604,-196.1811,61.4000,-33.4560,211.7099,-92.7405,101.3637,-203.0289,-1.0532,-70.1027,212.9775,82.1185
-1710.9375,-173.1933,-403.9956,292.4526,-248.6432,172.7949,-183.4792,217.0503,-185.5733,208.2161,-114.5691,146.4350,-170.2962,258.8628,-119.8139,185.6152,-84.1540,-64.8743,-138.2860,180.9242,-55.0740
-1703.1250,-355.5152,-551.7321,90.7688,94.1798,191.6328,-16.9113,162.8876,52.7805,116.1606,51.7524,-27.4498,-114.4300,20.7310,-64.2057,58.5549,118.4489,39.5092,29.2526,-3.4031,147.4718
-1695.3125,-339.2026,-465.8183,40.8617,-171.2610,-43.7726,77.4175,-35.5191,-35.1058,138.8584,-37.1788,14.5732,91.1954,263.4026,68.1412,153.2513,-116.1976,-145.7824,-62.4532,222.0696,-14.2214
-1687.5000,-279.9662,-406.9687,135.0292,26.3922,87.9001,98.8095,169.1671,59.0855,123.5998,56.9556,-8.9485,1.8823,27.1224,-57.4787,63.9794,88.2435,12.8846,-75.0783,-37.3915,43.1640
-1679.6875,-443.3181,-288.6765,-75.2514,72.6104,59.1288,106.7652,-41.5874,66.8444,58.8937,-44.3546,-117.5417,158.1465,35.4303,60.4548,0.2516,-12.7608,-36.0001,6.8706,115.7404,125.1216
-1671.8750,-282.1331,-232.8347,100.1559,-189.5238,14.0276,24.3754,22.3388,-14.7424,86.8461,-54.0106,33.3872,39.0517,211.4250,-21.9797,65.1819,-96.0932,-96.0086,-9.5310,204.5559,-67.2577
-1664.0625,-479.0790,-325.0962,33.5830,175.3717,167.9677,67.9995,103.2936,174.6889,-15.2069,99.3317,-98.4698,-27.0349,-38.5724,-51.4302,-111.9051,131.5985,84.3698,214.0810,-28.6068,86.4012
-1656.2500,-488.9765,-229.3150,-43.7942,-46.5963,16.0863,99.7749,-48.5586,59.2757,-21.0976,-16.1745,-70.6298,78.0268,177.6171,16.2437,-6.8302,-94.5482,-80.4445,132.8394,242.4104,-65.7837
-1648.4375,-273.7678,-190.4001,181.0988,61.7280,93.5013,65.8116,175.8690,62.1400,19.2492,96.5850,-19.1724,-65.6530,-39.9421,-127.8479,-3.5261,129.5961,77.5758,64.8744,-36.3104,-62.6712
-1640.6250,-422.9467,-233.8453,-55.2403,228.7818,76.6724,85.6159,48.0473,81.7649,-33.6531,79.0971,-135.6002,101.4314,-55.6940,-34.1914,-56.4675,149.4911,62.1219,126.6790,-10.2244,104.2021
-1632.8125,-308.1607,-226.3089,32.5571,-80.0217,-56.0196,26.5411,26.3689,-51.4806,53.5333,56.7347,-20.3131,78.6097,178.6570,15.5394,67.6756,16.5330,-76.8001,28.6144,103.9594,-28.7987
-1625.0000,-335.7310,-253.0754,32.1503,210.0120,53.1087,61.2934,97.4934,57.1021,-21.5007,127.1771,-87.2719,77.6154,-43.1709,-58.9260,-80.4061,235.3929,91.2473,71.3831,-169.0153,190.0327
-1617.1875,-319.9663,-167.5093,-59.7689,13.4757,-149.2970,41.5067,-176.9024,-34.8563,-40.0746,-37.9259,-52.0553,242.0704,195.4987,104.0385,10.9681,-40.2870,-61.1114,50.6000,91.5139,134.3152
-1609.3750,-190.3899,-108.1335,152.2857,37.9321,-83.6995,70.6872,-2.2972,-7.8345,-11.7023,62.9321,0.3659,87.4691,40.1217,-50.0686,-33.7195,61.0185,55.4327,39.7875,-60.9898,52.5896
-1601.5625,-475.3520,-147.2718,-38.0532,350.9734,18.5115,172.4837,-46.0812,130.7976,-129.7233,90.3811,-151.6726,152.4912,-77.6027,-22.5714,-152.7968,88.9198,141.1752,211.5862,-63.8307,154.4777
-1593.7500,-359.3432,-102.4188,19.7363,9.1359,-70.1458,193.3951,-61.7247,41.5545,-72.6430,37.9550,-36.4609,174.6159,164.7893,-1.9945,-21.7847,-73.0377,-30.1285,81.4956,87.4422,-81.5100
-1585.9375,-363.6032,-141.7956,47.4124,217.2253,104.1227,183.2192,75.5468,215.2417,-118.6640,211.4401,-106.4019,90.6600,-101.8890,-12.5169,-104.8818,210.9318,108.0079,112.3328,-232.3394,55.4437
-1578.1250,-496.1463,-168.4464,-200.0273,-20.8576,-34.7397,191.9031,-172.3045,223.7910,-109.8281,182.7835,-171.8537,246.5470,90.3399,215.7965,13.8818,72.7561,-125.9410,86.0358,-13.2229,64.2507
-1570.3125,-320.9326,-240.3166,-13.5374,-160.9900,-31.6516,120.5086,-23.2202,226.2799,1.8957,185.0513,-77.1890,101.3235,56.4646,107.9850,52.5179,185.5282,-118.8079,14.6715,-48.2081,-6.9997
-1562.5000,-486.1581,-264.5905,-118.3394,201.5769,46.1505,160.8347,-18.4371,265.4838,-103.6902,151.0152,-207.3564,178.8228,-159.6701,110.8741,-127.1481,262.9998,36.9297,167.0263,-106.4381,180.4714
-1554.6875,-364.2116,-176.7021,-54.8018,-62.5487,-110.7089,188.4740,-102.3041,109.0077,-112.9699,-5.7042,-86.2611,243.6185,87.5210,137.0414,-63.5116,32.8029,-89.5050,78.6899,122.6613,-12.7389
-1546.8750,-291.6505,-175.1600,91.5257,258.1579,35.2752,185.9244,80.6567,144.3648,-151.4421,102.3985,-93.2356,94.2272,-170.4569,-10.9921,-212.0792,288.4465,150.1958,117.1762,-155.4034,95.8979
-1539.0625,-454.2846,-126.7929,-115.1752,236.7867,-134.7733,199.3292,-162.4194,156.6791,-212.9488,41.4628,-171.3725,290.7959,-46.4225,109.9242,-199.6773,117.0503,40.1913,131.6161,69.5350,145.4974
-1531.2500,-241.3560,-54.8467,41.8482,64.1591,-272.0854,134.4496,-43.7559,128.7314,-129.7638,123.2540,-79.2873,190.0546,-37.6847,45.5208,-153.5913,90.4061,13.7704,28.7867,73.1646,7.8403
-1523.4375,-362.0232,-69.4613,-53.5738,438.0910,-146.8340,185.1400,8.4508,253.3565,-263.0446,210.6029,-214.0025,203.8885,-316.3581,22.6750,-323.9632,251.3176,193.2507,191.5300,-149.6133,205.7610
-1515.6250,-300.7098,26.8914,-17.8478,184.1219,-221.4521,183.9439,-176.2014,68.0981,-264.2208,99.0693,-105.8149,276.8177,-23.9036,93.8997,-214.2342,-43.6445,65.0230,148.3819,18.7370,57.7955
-1507.8125,-195.8079,-9.1392,166.6343,325.9493,-2.2727,109.5166,5.9269,66.6196,-191.6563,171.3008,-46.3891,54.5167,-133.6891,-91.1378,-178.7721,176.1749,224.1916,149.0175,-261.1431,93.6261
-1500.0000,-444.1472,-151.3798,-18.9669,290.6573,68.8227,106.0080,-142.0265,63.0515,-158.1864,167.4319,-129.3862,125.1273,-25.5228,52.7238,-145.4043,135.8867,119.2786,219.5662,-120.0577,164.3634
-1492.1875,-294.2744,-212.3956,111.8079,-120.2447,17.3133,89.8702,-85.5828,10.8693,8.6370,113.9382,11.2195,-0.9255,178.9933,34.9175,21.3019,82.9971,-45.5392,89.4887,-3.6136,-35.5170
-1484.3750,-363.4672,-282.4422,-1.3245,58.9649,196.9279,158.8590,20.9672,189.8137,-32.4458,182.5530,-100.5491,-41.8586,-82.3504,30.2189,-129.8975,299.2154,38.5659,163.5405,-140.0146,143.7329
-1476.5625,-384.2848,-197.1157,-125.9177,-310.3363,72.0672,143.3673,-139.9490,137.2812,-84.0269,19.6807,-64.3171,162.7054,196.8461,197.0054,-34.5985,26.9536,-212.3553,40.1064,158.1125,55.4902
-1468.7500,-284.6100,-273.2657,17.1532,-137.9351,105.9031,103.5516,76.8134,170.4403,-87.9804,89.4861,-49.1104,85.9268,9.6926,45.4261,-38.6752,207.3873,-69.0633,71.3627,-21.1117,51.9426
-1460.9375,-505.3744,-317.8279,-176.0585,207.1543,94.4584,202.4543,-43.7192,232.3103,-210.2368,113.9922,-184.8973,221.8674,-73.7142,106.5433,-161.0503,159.5161,13.2630,205.3320,8.4243,151.1051
-1453.1250,-354.4091,-201.6553,-41.3803,-25.8694,-27.0856,189.2218,16.6497,110.0569,-113.6539,27.3654,-68.9481,98.6501,60.7287,-16.5198,-64.5933,0.5288,-50.6849,148.1764,162.8227,-81.8566
-1445.3125,-321.3013,-97.3017,101.5936,327.4463,151.7001,184.3145,159.3297,178.1290,-190.7829,96.0429,-81.1023,-126.2413,-200.5029,-169.2828,-215.8512,142.8467,233.7489,290.3561,-115.4344,60.5137
-1437.5000,-365.8711,-36.6102,25.0400,145.2057,1.9542,180.8791,-27.5099,27.6696,-158.4579,-55.8167,-52.0461,16.3240,53.7565,-27.6028,-146.6506,-118.3796,86.0596,247.9977,87.7941,-16.6646
-1429.6875,-144.5393,-95.9939,226.5345,124.0654,19.3031,161.5186,137.7337,7.3010,-106.0877,-38.5983,36.3594,-77.0547,-38.9293,-84.8804,-130.4118,45.4911,146.4671,121.7171,-37.9281,-72.7497
-1421.8750,-324.5981,-205.7381,-39.2195,334.6614,46.4195,150.9213,90.7254,107.6963,-188.9648,-11.6328,-123.4162,133.3379,-157.8028,51.6042,-214.4117,109.1043,136.7328,156.1950,-2.8503,137.9347
-1414.0625,-218.1676,-133.9960,-65.3423,-118.1306,-124.8243,-22.0671,-7.6431,8.7127,-32.2477,-39.0436,-31.7757,181.3203,146.9421,98.6733,16.1795,-63.6405,-124.3726,-14.7078,283.8286,2.2456
-1406.2500,-193.5894,-110.0611,-42.1760,85.4096,44.2572,-146.7298,124.2862,103.0706,-10.2509,202.8785,-76.1358,55.6285,-51.0055,-137.9523,-35.9564,215.9456,26.0045,82.7289,-39.1679,170.8992
-1398.4375,-313.6304,-52.7338,-161.4935,6.4252,-38.1510,-120.8781,-105.2669,19.9513,-20.7429,192.3260,-97.0836,118.4396,122.5815,-112.0795,-9.5917,23.0469,-58.1750,178.6667,91.3884,161.0568
-1390.6250,-152.6579,-103.3895,127.3525,-5.3638,-43.3588,21.1399,37.3720,-58.9708,9.9161,223.9660,12.9167,-106.6062,45.3041,-229.0758,-16.0981,54.3455,56.2888,167.7776,-23.8909,9.4049
-1382.8125,-332.3807,-282.7031,13.6363,382.2918,61.8969,235.6264,32.4620,82.5833,-104.9683,254.0697,-120.8708,-75.1796,-179.4818,-124.6113,-168.1501,196.0927,201.4425,273.3589,-197.6608,151.2220
-1375.0000,-310.0191,-364.9249,-21.8589,-12.8449,-82.6158,200.3338,-76.2101,-25.6377,-31.6478,108.3972,-46.8988,35.4413,115.9485,132.0396,15.9966,-22.9284,-63.3427,125.1554,145.7856,-67.7474
-1367.1875,-304.4566,-464.9162,96.9864,138.4118,110.2613,172.4171,116.4830,166.5247,-23.9944,153.0961,-56.4201,-66.5695,-96.2620,66.0439,-50.5222,206.4250,68.7364,135.3377,-54.3996,-22.3254
-1359.3750,-458.0622,-371.0724,-94.2043,94.5942,66.1056,164.4696,-37.8580,195.6484,-69.3882,-39.2518,-107.3276,109.3852,44.5332,167.0029,-22.0789,-22.2815,-36.9822,162.4789,184.4152,-29.9503
-1351.5625,-218.4925,-237.0461,134.9203,-47.8813,74.2995,97.8389,117.1374,92.1123,-25.4928,-106.2715,65.2728,-30.3621,162.6310,-10.7505,21.6475,-125.6462,-15.0829,89.9471,147.5273,-243.2394
-1343.7500,-292.5612,-275.6178,128.5316,375.1469,252.0149,127.7284,184.6293,159.1000,-143.1089,-76.7829,-7.3231,-74.5812,-64.7353,-129.9898,-133.1284,51.4833,215.7432,230.9409,-96.8203,-66.0017
-1335.9375,-210.8793,-228.4288,152.0229,110.0251,91.6099,76.4892,23.9993,34.9547,-157.8778,-164.4309,75.7729,-51.9521,142.7654,-34.3905,-74.0595,-145.5232,69.6344,106.8030,236.6958,-189.9059
-1328.1250,-119.6801,-277.6901,288.1667,171.6110,190.8926,27.9332,233.0435,132.4965,-134.0261,6.5929,69.5921,-211.6586,-89.0941,-84.1437,-161.3724,173.1461,172.0843,63.3537,17.8626,-128.1207
-1320.3125,-371.9867,-283.4400,-13.0793,171.7862,147.7860,58.0028,42.6925,199.6524,-177.5761,36.2198,-99.4861,2.2497,-95.3096,127.7014,-168.0853,129.4022,53.5043,132.5154,158.6800,12.2650
-1312.5000,-228.8963,-209.7943,3.1877,-137.5005,54.2166,-0.4060,95.8804,104.3451,-16.6280,14.3768,-4.5966,-19.3502,104.9676,32.0296,-7.3103,-1.8011,-100.7307,35.2004,271.9927,-155.8220
-1304.6875,-325.5331,-199.8439,-62.1679,158.6245,246.0604,43.6026,213.4597,222.4627,-46.2824,130.9518,-109.1012,-49.5202,-144.3286,-182.2239,-110.1401,152.3998,59.3330,120.3041,76.7518,35.5173
-1296.8750,-279.9198,-153.6380,-115.1542,-106.9192,120.2745,63.9668,-22.5814,132.9471,-63.5741,4.8985,-26.2436,44.6588,133.7584,-199.1284,-17.6092,-121.0378,-98.6400,101.7609,339.8905,-53.7906
-1289.0625,-68.4802,-152.5891,114.8031,5.5311,166.4800,109.2966,170.3506,104.4233,-55.9249,85.8302,45.4274,-131.2073,-41.2128,-376.0816,-47.1471,34.5143,74.4427,143.2000,-5.0218,-82.1058
-1281.2500,-197.7928,-70.2796,-55.8905,269.3163,179.0395,194.9940,72.6262,116.2622,-153.9288,24.1180,-58.8036,-45.7009,-100.7943,-254.6694,-145.3322,10.4030,149.7195,266.0031,-92.5368,40.9347
-1273.4375,-40.2396,52.8897,-20.6084,-22.9182,-5.4121,193.6553,-2.1120,-31.9205,-82.9893,-51.6182,49.8267,-47.2524,154.5632,-148.3219,35.4163,-174.7329,-7.4907,149.7745,72.8973,-181.0576
-1265.6250,-175.3556,-82.5681,-50.8947,304.3266,148.6119,235.7913,151.5993,121.3815,-115.6189,64.1087,-62.7596,-78.3241,-96.6188,-144.5163,-70.4062,125.5814,142.4242,230.0284,-162.1909,-64.5725
-1257.8125,-318.0547,-188.5971,-225.6712,63.0565,10.1472,207.4495,-60.1730,93.2007,-33.7467,-38.6456,-71.1900,150.1125,206.7262,9.7919,47.2753,-49.6067,-110.9643,59.7851,125.2516,-129.5936
-1250.0000,-61.4022,-142.2591,13.9912,-60.7187,67.1731,42.5789,106.5307,38.5161,57.5646,-56.9171,61.8794,-15.0013,189.4960,-156.4443,139.3824,42.6934,-63.8782,-63.9791,3.1380,-147.1300
-1242.1875,-209.6946,-114.8399,-108.2139,183.6386,128.3521,-44.1230,19.3729,98.9983,-28.9757,-33.0351,-47.3722,45.0595,66.4538,-170.5111,14.6440,140.1206,34.6386,75.4252,-33.7726,97.4926
-1234.3750,-138.1102,-77.5474,-18.4475,-125.0413,-75.4885,-138.8592,-36.7998,-31.5443,58.4295,-91.1832,53.9415,24.0610,304.3644,-119.6496,176.8455,-64.4858,-112.2135,-22.1942,221.2642,-69.9255
-1226.5625,-158.5829,-132.2828,72.3579,143.3709,52.7536,-120.5152,164.0802,95.9947,37.8599,72.7337,-12.9052,-104.8703,-9.6697,-176.7368,45.0744,172.9567,76.8868,-0.7268,-2.6372,57.7336
-1218.7500,-304.0320,-170.9839,-144.7216,-65.1321,-53.8921,-82.0531,-52.9342,98.6417,39.3885,0.7575,-76.6260,43.3000,141.4349,81.2778,83.4154,28.4820,-125.6525,1.8494,282.5930,60.4843
-1210.9375,-99.1765,-211.3704,-29.3957,-275.1948,-85.0926,-114.1744,62.4821,103.7182,117.3142,79.2138,7.1383,-62.1331,146.9257,84.6893,161.1435,107.4420,-185.7693,-103.1507,213.2062,-44.3364
-1203.1250,-188.9110,-195.3147,-198.5968,-5.7634,4.2116,-25.7799,4.3813,228.3117,20.7357,129.1821,-127.2843,-11.0356,-59.0523,133.6283,27.3697,304.8925,-90.6766,-43.6436,27.3559,190.3545
-1195.3125,-78.1948,-13.8174,-180.2930,-274.8295,-197.9710,-8.8725,-161.1936,99.4265,-0.3417,36.6711,-49.3640,79.5628,143.4736,150.0731,117.0913,65.8570,-223.2098,-137.6288,215.0089,61.5499
-1187.5000,-52.5663,-22.3801,-75.0177,73.1466,-55.1315,59.0611,53.2315,130.5761,-42.4357,141.1824,-91.6085,-35.8092,-155.0183,-39.4624,0.7906,243.8363,23.2232,0.4113,-103.3360,129.7780
-1179.6875,-263.0439,-91.0473,-249.7936,153.0505,-45.3393,141.9637,-83.3933,102.6794,-71.5801,75.6470,-162.2328,81.7877,-72.5318,39.9649,-65.5582,68.7415,-17.6986,115.4033,81.3064,138.9502
-1171.8750,-83.9411,-157.1290,-6.9088,-117.3526,-22.8595,90.5399,85.6632,14.4682,95.9106,-13.2110,5.7001,-79.9766,59.5753,-48.9665,64.7188,-55.6805,-74.6793,-14.9216,128.5819,-96.2059
-1164.0625,-195.3786,-197.7134,24.5034,94.8012,230.1822,121.6991,154.2520,119.8323,89.9347,18.4909,-64.9851,-121.1651,-164.7567,-19.3233,-124.4647,86.4324,69.7604,57.3340,-45.5676,46.1993
-1156.2500,-137.1151,-69.6000,-47.3203,-261.3016,84.9872,49.6240,-27.3905,10.9619,126.7142,-91.0378,0.5981,25.3899,130.6696,128.0663,21.1092,-170.7025,-159.0359,-53.6550,196.0399,-99.6516
-1148.4375,63.7278,-42.8889,59.4912,-123.7160,156.4730,-26.7868,153.6262,44.7710,159.1399,52.1054,26.2681,-88.3932,-56.2708,-23.8862,-19.6839,83.8280,-28.7848,-54.9771,-50.7065,-65.8216
-1140.6250,-148.0272,-6.7647,-195.2631,94.2885,85.4031,11.2583,-28.9186,84.0352,49.0225,53.7039,-124.9951,97.2926,-89.7255,86.6339,-56.0100,48.7836,-29.2598,57.1466,27.0381,46.4528
-1132.8125,-82.3714,-11.2341,-35.5677,-113.2305,-48.1914,24.7598,-14.9862,23.7740,61.3550,29.7852,-13.0024,-0.5791,70.2513,24.6009,29.1042,-48.7857,-91.8725,-9.2638,207.2082,-160.8048
-1125.0000,-179.4787,-142.4420,-25.6051,254.5640,109.5177,107.5780,105.2247,217.8319,-41.0258,149.1780,-99.6475,-102.1247,-213.4617,-41.1052,-145.4925,181.9330,115.8337,111.6470,-22.3037,-3.7430
-1117.1875,-221.7052,-78.7851,-129.7319,-60.7614,-29.8727,40.3102,-108.6577,149.7980,-35.5026,7.4835,-52.1183,-22.7699,123.7319,184.0940,-31.1830,3.5403,-109.9080,43.4606,226.0981,-107.7918
-1109.3750,-25.6879,-92.8638,84.4309,-137.7358,0.0588,-40.6373,68.7648,180.0979,-7.6959,111.1154,38.9315,-214.1001,43.1882,102.6059,-39.5958,180.4651,-53.0541,-69.3971,78.7803,-114.5141
-1101.5625,-114.1171,-39.3580,-118.8282,26.8724,-54.4230,-23.9644,-60.2352,197.0081,-101.2936,53.3507,-70.4844,-49.8034,-12.7349,227.7466,-97.4068,196.9527,-45.0862,-44.6501,69.1041,86.3549
-1093.7500,104.2321,109.9122,-21.2763,-202.7081,-250.0816,-35.4803,-73.4054,0.7422,-79.0891,-69.5892,38.1913,47.2840,122.1215,176.6842,34.5711,-35.7526,-132.2089,-169.0958,191.2159,-72.9750
-1085.9375,99.0293,141.6460,83.7430,293.2371,-70.2264,32.5258,68.9101,33.0028,-194.3947,-2.0170,-21.6681,41.8889,-212.5283,-13.8541,-154.9666,106.0325,193.6569,9.9802,-226.1625,106.2104
-1078.1250,-24.9411,158.6122,-34.9911,247.4107,-152.1252,133.7942,-159.5291,-49.4815,-278.4424,-84.1808,-37.1803,216.7481,-37.9095,86.8687,-165.2403,-159.9561,108.6285,70.3063,-61.2808,60.6320
-1070.3125,156.7524,165.2571,129.9620,120.3222,-60.3028,78.7775,5.7407,-67.2353,-187.7950,-29.6206,68.8881,50.3068,-19.6281,-6.7053,-112.8320,-69.2242,121.0115,13.3512,-222.7259,-31.2195
-1062.5000,0.1643,113.6344,-69.3687,287.9669,71.2535,62.5278,-46.2674,63.7661,-279.3999,-9.3116,-48.4264,107.6482,-108.5743,122.5034,-165.6698,25.2218,138.4761,111.1579,-265.3953,136.6765
-1054.6875,175.8232,151.2428,-51.4376,-161.1337,-55.9265,-65.4633,-139.0080,-137.9706,-115.7537,-101.7353,91.4535,126.2371,240.7156,212.9640,33.7341,-141.0807,-114.4733,-90.7818,-9.8309,-65.1808
-1046.8750,204.7971,40.1979,18.8089,17.1512,89.2490,-141.0879,79.5877,-30.3339,-9.7751,5.2045,58.9245,-24.8028,17.3378,97.8007,-7.5310,149.9564,14.1341,-89.3521,-252.9205,42.3315
-1039.0625,48.6230,-9.9899,-209.1001,-94.7378,-64.7380,-112.8555,-185.9784,-38.8530,54.0540,-41.0058,-22.3749,114.0191,156.8286,272.5042,93.0644,30.8113,-155.5630,-95.0752,20.8581,70.6763
-1031.2500,195.2394,-37.3862,-42.2165,-256.7875,-117.9087,-129.8098,-54.7316,-53.5488,147.6785,53.6050,72.8956,-49.3599,178.0817,108.0085,186.4457,51.4744,-159.4433,-80.9792,1.4026,-55.1633
-1023.4375,12.0872,-148.5394,-122.1140,131.4019,24.1583,-25.4980,-23.2652,87.0158,28.5481,193.4705,-70.3660,-92.4673,-122.4033,25.7984,-5.9257,192.3518,33.5992,131.3731,-136.7755,122.2457
-1015.6250,51.0015,-109.6481,-64.9596,-139.3710,-101.7233,-5.1254,-150.7348,-38.3607,48.4773,67.4005,26.3930,-35.5273,119.1481,45.6457,123.7569,-118.7274,-97.4026,107.7686,86.0917,-77.3058
-1007.8125,153.2956,-6.3586,122.5614,77.2851,13.8065,35.6615,74.1816,38.6858,14.7962,107.7481,31.8644,-106.1709,-133.9303,-62.0838,15.8200,68.5931,106.4300,77.5801,-294.6526,-36.4380
-1000.0000,54.6969,142.0408,-86.8358,128.0087,-84.5842,9.5580,-134.8205,-24.1685,-85.7871,7.1969,-55.2631,125.3055,-48.8928,167.3099,23.9947,4.9737,28.6324,-12.5134,-243.2701,84.5095
-992.1875,371.0579,213.3952,72.7156,-145.2843,-218.0094,-87.5800,-157.8589,-157.0530,-1.4282,-16.3899,105.2161,63.7230,110.0577,179.6523,146.1019,-18.6919,-57.6360,-214.6443,-234.9713,-12.5845
-984.3750,289.7669,98.1216,22.5851,204.7833,-83.0969,-136.3526,-134.5764,-59.5872,-52.7303,80.3643,11.5488,14.5168,-122.6400,127.3790,21.5541,150.9535,119.7540,-75.4130,-412.3192,231.6756
-976.5625,293.6625,138.0101,3.6061,-30.0200,-248.0485,-117.9651,-300.1472,-187.9802,-35.8708,-84.7261,63.6023,105.4590,78.8084,144.2700,111.1661,-124.2685,-14.3691,-63.0368,-118.5270,103.0690
-968.7500,361.6037,135.9491,230.6468,116.2541,-55.9386,-110.5145,-35.6727,-180.3027,6.0340,-5.7474,113.6570,-71.5359,-96.7292,-70.7673,5.8139,-8.4402,171.1759,-23.5967,-323.7056,73.5293
-960.9375,148.8080,171.1627,14.9118,228.7382,22.4017,-32.8078,-140.9720,-139.3812,-100.8029,-1.5183,4.4542,41.7372,-92.9981,-30.5239,-64.2741,-77.4040,153.9070,89.0838,-245.6116,151.2181
-953.1250,310.9859,229.3462,54.1233,-128.8123,-47.2982,-29.1424,-101.3114,-172.4940,11.3137,-71.3211,116.3192,8.9539,94.6498,-28.3274,47.5817,-220.4150,-13.9088,-21.2847,-74.6047,-65.1427
-945.3125,222.1722,70.5557,-36.7074,142.6525,118.9875,62.5355,27.3121,30.4005,-8.5812,56.8783,-12.1037,-45.8005,-216.7122,-48.1002,-81.5642,53.5453,105.9325,38.3555,-260.6012,100.5042
-937.5000,118.4592,2.8391,-243.4879,-162.8562,-85.7036,77.2718,-177.0209,9.3363,42.5821,-1.8783,-34.3627,115.4965,54.9764,223.1926,41.3497,-115.4778,-172.8071,-56.9626,66.4544,5.1772
-929.6875,239.7155,-15.9135,-70.3404,-209.3766,-58.4398,-5.0288,-3.4057,36.2374,104.6857,98.3252,19.0522,-78.2497,-28.4294,139.4527,103.1943,57.4438,-125.8386,-138.3143,-49.5648,-41.1879
-921.8750,79.5000,-34.1250,-198.7187,-10.4235,34.2931,-23.8240,-95.3275,91.6338,10.2918,42.0193,-75.7010,-23.4697,-120.3296,155.2499,8.5433,74.8167,-59.1412,-8.1736,9.9448,123.9274
-914.0625,296.3386,77.6963,-30.0994,-278.4705,-89.9742,-74.6178,-110.2400,-105.9632,105.9008,-82.2732,88.1329,-37.6981,85.7330,67.0576,103.8893,-196.8130,-134.6938,-100.0403,164.4279,-73.9654
-906.2500,384.2953,132.6513,138.5762,134.5916,79.8473,-89.3012,95.9153,-83.4452,15.6029,-24.4631,64.9592,-125.8100,-259.1284,-132.9953,-60.6735,44.6365,171.8609,-3.7976,-194.9912,58.2502
-898.4375,357.8529,318.2003,8.7957,81.1654,-47.8103,-107.4294,-142.3979,-174.3872,-41.1372,-116.1061,35.9840,1.6392,-130.4348,31.5283,-43.6731,-120.4064,85.9014,-22.0214,-106.8511,39.9875
-890.6250,587.6957,373.0335,260.2488,-32.9760,-53.2150,-150.2975,-1.4588,-216.0690,-10.6334,-85.4896,152.7722,-151.6605,-172.5350,-48.6851,-13.4384,-17.2018,136.1224,-135.9867,-221.5007,-39.0175
-882.8125,413.7766,305.1077,41.8680,223.0692,-12.4505,-109.9576,-72.3588,-66.5586,-119.9255,26.3144,3.3433,-37.7300,-317.4311,-11.6638,-123.0018,94.1436,185.9306,-18.7543,-280.9339,147.1595
-875.0000,447.3739,304.6597,-18.0581,-122.4416,-218.2443,-96.1599,-204.7978,-162.6027,3.2367,4.5750,43.7877,122.6454,-83.9082,75.8151,35.8871,-113.0779,-48.4105,-154.0785,-27.9419,-22.2317
-867.1875,368.9517,227.1982,-23.0748,124.0153,-75.0964,-63.4000,9.6899,-20.6853,33.3467,145.7884,-26.9847,43.9827,-271.4693,-3.7274,-7.2859,102.6303,80.1635,-118.4465,-309.0076,83.3364
-859.3750,104.7909,244.9992,-255.9047,42.6181,-159.7841,-2.4432,-221.6495,-67.5840,56.6746,60.1969,-111.0993,178.5281,-62.8214,166.9554,52.7609,-56.5090,-64.0614,-23.6359,-107.8571,108.0752
-851.5625,291.0301,257.1972,-8.4018,-114.4042,-169.1236,-11.1279,-84.6394,-151.1221,156.3472,-23.0348,49.0939,-14.5760,37.1307,47.0020,79.1427,-67.3038,-46.6003,-75.4662,-125.3947,-84.8349
-843.7500,195.2618,161.3954,-33.9869,184.5158,27.4636,39.1513,1.2796,-27.7213,57.9636,-10.3361,-30.0507,-75.6966,-206.9682,22.0382,-130.5260,54.7976,121.0731,82.6559,-246.9747,38.1885
-835.9375,225.8738,193.9364,15.7315,-129.2704,-68.6669,52.7353,-95.5013,-161.0334,32.8881,-144.3468,58.0457,11.4840,26.2148,144.3858,-45.8886,-190.8332,-44.5325,-18.9365,2.7250,-169.5175
-828.1250,322.6279,220.6263,158.5210,10.0779,149.2909,12.4266,157.8008,-90.2405,-9.0955,-38.2611,81.6145,-139.2200,-161.5447,-7.1404,-88.1652,25.6140,112.6235,14.5749,-315.5026,-136.1196
-820.3125,111.7630,256.6884,-96.4011,17.6821,152.5106,16.4187,-96.6244,-50.1727,-43.7698,-34.8971,-21.2038,11.3891,-47.9948,105.6573,-49.1268,-45.7021,11.8208,57.3638,-201.4134,-22.4553
-812.5000,257.2231,334.0515,-4.0789,-251.4526,61.9709,-75.3364,-40.7979,-140.8474,47.8140,-16.2759,81.9711,-80.7599,118.7583,13.7120,152.1559,-64.7754,-99.1191,-105.6020,-83.1097,-150.5456
-804.6875,179.6358,221.3762,-88.9034,100.3025,198.2956,-49.1872,20.8773,-41.6251,-2.7003,82.2339,-30.9907,-90.9803,-150.5910,-109.2933,28.3386,144.0106,68.4721,-0.6715,-258.8994,95.2569
-796.8750,142.1391,254.7629,-189.7314,-174.9721,-49.4155,-39.0377,-188.4635,-141.4141,79.7955,-18.2602,-19.0853,28.7968,80.0491,9.7221,147.5373,-105.2366,-130.4590,-29.7608,63.3017,-4.9714
-789.0625,275.7980,249.3022,31.5089,-35.1171,-10.0371,0.2222,-3.7180,-66.0969,80.3814,93.3475,11.4995,-117.3144,-175.2613,-136.1352,-0.1800,79.6007,47.4914,5.2560,-77.4320,-40.0932
-781.2500,62.5309,282.9154,-113.2678,181.7018,-43.7016,76.4838,-148.0105,47.1982,-66.0314,58.9286,-107.7386,105.5969,-246.5684,13.0460,-181.8941,7.3792,81.0945,46.2542,34.8491,35.7556
-773.4375,261.7026,341.9374,73.3136,-106.1153,-187.0271,7.0985,-107.9430,-59.1699,10.9089,-11.1462,31.6197,146.8551,-96.5750,52.5822,-70.2687,-173.5073,-25.8652,-170.4071,205.4342,-181.0582
-765.6250,262.5872,237.6751,72.5122,148.7257,-75.7277,7.3718,75.7396,52.1003,9.4932,61.4090,-53.4509,109.7928,-390.9595,14.7991,-146.0013,82.2081,117.0615,-161.4149,-68.3371,2.7708
-757.8125,251.9214,333.8315,-77.9374,-102.1219,-224.1122,5.9952,-147.2401,-60.3037,5.4405,-87.6991,-44.1369,218.0825,-135.9992,233.3845,34.6312,-104.7750,-82.7813,-236.0977,104.2366,-36.0891
-750.0000,454.4732,361.1927,66.7397,-173.7988,-151.3561,-32.2217,-2.0765,-98.5533,76.5379,-15.6571,36.9456,32.5184,-173.9347,121.1408,105.4001,39.3801,-30.7223,-237.6258,-213.0703,-37.7972
-742.1875,212.4455,260.9797,-152.2689,-22.1711,-40.2921,6.9119,-110.6096,-22.4695,38.9957,57.7134,-67.6667,34.3185,-136.5090,194.2897,67.5355,39.8295,-19.8276,-50.8175,-343.0049,183.8138
-734.3750,214.0124,263.3215,-136.7816,-401.0509,-60.7509,-88.4539,-168.6426,-152.8909,201.9684,37.5859,34.2726,13.6064,172.3855,209.9508,229.1840,-349.2341,-213.0293,-78.5257,-88.4724,15.9021
-726.5625,85.5910,100.6722,-84.3850,-63.9714,176.7149,-33.8635,67.2413,9.6375,142.8887,163.3994,-26.5678,-79.1314,-104.7994,5.5992,23.7782,-260.3823,3.9952,117.7091,-173.0012,105.9385
-718.7500,-71.4816,120.3498,-200.7396,-75.6856,134.3861,34.9679,-85.6497,5.3887,63.0691,47.4389,-56.2417,61.3938,-0.7320,73.5236,-56.3618,-561.3337,-65.4715,178.1637,203.7224,-9.8115
-710.9375,150.2308,201.7974,80.5952,-94.6808,197.7452,60.4961,161.1519,31.8338,50.9503,73.1674,61.2348,-133.3817,-122.0106,-84.8355,-105.8106,-536.5941,45.7088,88.3097,150.1037,-204.8614
-703.1250,23.5750,216.8800,-13.5492,243.8440,250.6075,114.5756,103.4581,194.7998,-80.6168,126.4196,-59.3951,-42.5802,-326.7379,-69.6080,-238.7018,-411.3667,176.9713,144.9928,65.0485,-78.3838
-695.3125,176.1811,229.1828,12.4619,-125.4936,57.5915,68.8057,-16.0930,112.9013,-18.0325,5.8140,66.4465,58.3628,-42.3457,-42.2180,-65.4397,-643.0135,-27.0464,21.8083,330.1223,-271.7836
-687.5000,188.6011,136.2983,99.1885,32.9318,181.2993,45.7963,217.0777,199.7559,31.2945,91.9486,38.6077,-75.9309,-250.2424,-176.0471,-53.4367,-373.9357,105.2478,40.3743,66.9326,-148.4350
-679.6875,29.4168,259.7855,-139.7971,-14.3923,55.2599,-6.9157,-20.4808,109.8884,49.9365,38.3599,-37.8481,92.0834,-46.8367,-9.5432,1.8869,-465.6118,-33.3283,-6.7847,196.0524,-54.8283
-671.8750,324.1212,485.1336,31.0077,-276.8995,5.0061,-166.8282,39.7568,-86.1838,220.3918,-11.4310,93.8581,5.8924,50.3195,-96.2234,135.0064,-443.4931,-93.0761,-234.1544,179.9259,-141.4303
-664.0625,204.7478,331.4053,-98.3723,-3.5761,59.5622,-147.8897,19.7995,4.5713,199.7006,42.6001,-45.4881,60.5748,-188.6752,-42.0128,40.9855,-242.5781,2.5218,-135.6839,102.6568,96.7987
-656.2500,199.4813,220.7588,-130.7466,-284.2753,-189.9171,-104.9490,-121.1623,-61.6955,242.0222,-61.3882,4.8708,141.2507,37.3109,112.2049,119.9756,-421.6996,-190.0527,-205.2301,454.3658,-44.0054
-648.4375,240.2907,51.1888,27.8507,-97.9549,-69.4197,-19.0019,147.8523,60.0356,178.3380,59.6120,5.2764,5.9324,-208.7482,12.4419,18.9504,-155.8456,-25.3100,-159.7730,185.0553,-32.8112
-640.6250,14.4522,0.9485,-132.3169,-37.4323,28.2782,5.1911,24.0909,84.9844,90.9189,-27.1755,-75.3775,139.8749,-148.5431,109.9533,41.1964,-242.8145,-64.0429,-64.0893,211.0191,27.5898
-632.8125,226.4639,73.5177,29.2670,-346.1538,44.7158,-88.8652,113.0890,-119.3288,253.2581,-158.2268,108.1635,9.5597,123.3692,15.2169,240.1916,-375.0510,-160.6624,-162.6626,182.6962,-177.2780
-625.0000,157.9019,75.5092,-9.8343,46.4668,227.4751,-89.5696,185.3978,-120.3107,213.9419,-123.9560,30.0966,-28.3807,-62.3783,-133.1310,127.5375,-157.9842,49.2371,20.1011,-162.2782,5.1866
-617.1875,123.0032,218.1265,-71.3735,-123.4040,55.7485,-39.7295,-23.7626,-254.7726,152.1942,-295.1555,71.4750,95.2189,207.4185,-9.9095,175.4505,-404.4016,-77.8732,26.3791,19.2809,-129.8351
-609.3750,281.8432,165.4593,210.7217,74.3939,154.6504,23.7546,222.7110,-266.5961,29.0951,-270.7148,168.6019,-26.5266,48.8170,-169.0157,15.0067,-271.1807,135.4447,13.2986,-204.5436,-178.2014
-601.5625,119.5806,109.6742,76.5937,304.9453,206.2879,112.0321,88.9377,-177.6471,-141.1902,-292.5078,71.9251,61.5478,-47.9752,-117.2846,-118.6169,-294.2180,197.0925,66.9962,-114.5443,-53.7980
-593.7500,262.3593,146.9140,166.4120,-75.5550,111.8418,55.2605,105.1059,-234.7532,-15.5120,-314.3541,199.0654,-68.4356,152.1379,-174.5901,6.7139,-427.3055,31.0596,-101.3703,244.3739,-258.4631
-585.9375,106.3500,97.3826,36.3349,160.0936,240.5046,0.6478,270.3816,-31.7180,2.3110,-112.0656,54.2218,-160.2415,-87.6234,-229.7010,-86.8040,-153.2736,120.0388,-6.5931,129.4379,-92.9891
-578.1250,-62.6489,103.8150,-207.8390,-110.4035,34.0240,-21.0663,-10.4564,19.1865,52.0496,-134.9103,-13.6432,38.8539,146.5156,6.1104,36.6001,-288.3860,-139.7013,5.0484,422.4050,-152.6552
-570.3125,92.8421,83.7019,-1.6215,-161.4820,19.9304,-71.3785,122.1030,42.4827,148.1880,-39.3734,61.4384,-85.6536,95.0125,-81.6640,95.3990,-120.1115,-89.0137,-81.9223,195.7328,-203.9193
-562.5000,-48.7304,48.5156,-118.5833,88.2457,50.6330,-76.8446,5.4618,109.6035,30.1864,-9.0186,-39.1179,19.7113,15.3736,22.4544,14.0683,-17.0406,-10.7315,-7.0654,23.9243,10.6395
-554.6875,92.1030,84.7034,-71.2453,-292.7462,-122.4009,-138.0169,-93.8856,-61.9923,114.5037,-108.3677,73.4714,68.3686,284.0040,70.8822,209.0475,-154.6786,-208.5064,-178.9294,204.3866,-125.5234
-546.8750,101.0022,58.9582,-30.9462,-69.7392,29.5281,-131.1920,20.7296,16.4103,81.8317,6.2708,14.6685,-36.9627,30.6040,-33.6583,102.0249,179.6589,-46.7930,-129.7917,-98.1572,63.3108
-539.0625,-58.3997,75.8866,-267.0453,-154.1851,-95.9861,-109.7724,-179.0754,-35.6225,65.7834,-83.5214,-41.7955,132.2994,234.8100,134.4149,121.6290,-22.4572,-200.7617,-109.0823,133.9147,83.7049
-531.2500,70.6923,99.2691,-88.7405,-233.2140,-100.1070,-113.9563,-36.4756,-113.2733,135.1411,-13.9311,36.8109,18.9528,231.3659,20.8917,153.6270,45.8181,-173.9003,-186.9794,20.3470,-30.5045
-523.4375,-128.6325,40.2206,-188.9570,99.2299,20.2281,-102.6382,-26.4156,-28.4635,33.0027,68.1200,-107.9094,65.1300,19.4284,67.9046,15.1361,237.5366,-44.2439,-66.3973,-138.7077,125.7610
-515.6250,-15.8457,83.2403,-97.1596,-241.3461,-108.4692,-119.3223,-155.3564,-156.6818,52.8719,-58.8489,26.2272,86.2957,296.4702,161.9222,144.6561,-1.7662,-201.2066,-161.8400,82.2207,-75.0062
-507.8125,80.9133,4.2293,77.5140,-36.0108,67.7020,-126.1077,57.5756,-54.0000,6.6420,42.0628,50.9652,-105.6299,67.3808,43.8644,25.0689,245.8070,-6.7845,-131.3942,-237.9582,-9.8783
-500.0000,-34.3258,-4.8088,-151.9180,-77.8303,20.7131,-61.0039,-135.6209,-26.4473,-76.6696,-78.1584,-12.4355,-3.6448,167.2017,255.7292,15.4037,124.2282,-114.0618,-67.0854,-67.2105,54.1084
-492.1875,139.9803,63.6544,-34.8975,-322.1972,-7.8430,-89.4608,-55.3646,-91.4542,4.4832,-143.9470,92.6244,-68.2186,248.4249,154.0507,132.1912,57.1021,-180.3768,-136.3433,3.9561,-85.4612
-484.3750,57.2133,87.0383,-127.0533,91.2599,83.4083,-32.0725,-0.2962,37.3615,-87.5094,-87.9209,-26.9494,24.0776,-26.5044,26.2577,-71.1589,183.7807,16.0896,-3.7627,-144.0196,116.8031
-476.5625,149.2022,250.1489,-95.5417,-95.6628,-67.7283,-36.0386,-151.5838,-185.2072,-91.8354,-203.2754,60.1898,132.0129,189.2027,23.1192,-38.8424,-115.9191,-76.9576,-48.5588,91.6436,-34.3174
-468.7500,300.2094,224.2637,174.9055,58.3798,19.0658,-59.0561,45.0640,-135.8377,-79.2152,-80.6999,113.1373,-75.0978,-56.1696,-184.0543,-99.5795,79.3177,133.5721,-0.4085,-139.7679,-21.4886
-460.9375,4.9545,35.0912,-62.0036,118.0190,3.4596,-36.4251,-80.6758,-76.8458,-95.9372,-60.5063,-9.5888,-16.5474,1.1289,-88.5478,-79.6470,62.1529,59.7418,164.3676,24.4848,72.9506
-453.1250,84.1413,-62.6758,31.4468,-222.9882,-86.8157,-51.4459,-25.0641,-93.5160,71.6946,-39.9678,85.4944,-141.6632,168.7443,-66.6890,87.6356,7.3376,-99.2540,35.4782,177.0549,-127.2764
-445.3125,-65.1488,-105.9337,-56.6772,53.4439,46.3251,45.9823,108.9612,114.2409,21.7770,92.9854,-52.9055,-153.3173,-101.1991,-79.3542,-36.6308,248.9381,20.8928,65.0280,-3.9156,42.9352
-437.5000,-111.0817,-10.8778,-170.5371,-130.9196,-104.3224,80.6550,-115.7655,37.2126,18.1246,-56.8435,-47.8705,64.2661,115.1021,66.2362,33.3685,-13.2453,-147.1031,-13.1922,235.3639,-70.6424
-429.6875,64.9959,-9.8140,91.5414,48.6868,-26.0336,86.2885,109.4495,5.1314,22.4191,-16.7419,1.8375,-114.1965,-138.6931,-112.2094,-36.6924,136.5199,63.8438,-10.4577,-42.4405,-103.2730
-421.8750,-44.7026,-49.5290,-65.2476,327.4037,1.3504,152.0800,-47.2195,71.1675,-97.1267,-62.5316,-92.7535,-48.4924,-220.3248,-9.4708,-119.5852,163.3854,146.5189,128.4018,-114.0733,35.2100
-414.0625,130.3461,-86.5328,17.6281,-58.2373,-136.6380,89.5113,-111.2326,-30.1623,-14.0082,-126.6882,60.7674,-74.1480,82.6656,37.9177,110.1794,23.8995,-41.7455,-11.1191,27.9117,-139.6768
-406.2500,64.8639,-152.0811,-21.1207,124.5205,45.7388,52.3313,34.1209,79.8910,-52.4881,18.5295,-14.7406,-110.3837,-101.9532,0.7316,34.3505,277.7885,59.6795,66.7480,-209.7056,42.8312
-398.4375,-73.4763,-43.5196,-197.8060,-81.7192,-130.8853,23.1893,-142.4981,-24.0352,-45.9023,-86.2257,-54.9096,116.4301,123.4873,155.6080,77.5960,61.7022,-138.4144,1.6362,76.7298,12.3523
-390.6250,99.9492,24.7907,61.1993,-117.2382,-201.8326,-83.2494,6.5764,-94.2635,30.3836,-10.2807,44.2248,10.9390,89.5832,12.1926,80.5351,136.3260,-57.5097,-68.7732,-28.1674,-58.4287
-382.8125,-9.8088,-16.0847,-23.0710,231.9627,-213.0853,-91.9359,-40.6377,6.2355,-54.5779,89.3822,-66.2821,74.2149,-104.5580,2.5566,-78.7644,160.6550,90.4001,68.5564,-135.2901,114.5101
-375.0000,242.9709,61.5459,142.1267,-40.3967,-415.9186,-110.1736,-97.3968,-195.8336,0.9212,-40.5285,99.7188,19.9234,96.7295,-14.6306,50.3904,-80.5704,7.0524,-27.6816,49.0146,-88.1266
-367.1875,322.2477,69.6754,293.7542,251.7068,-300.3283,-65.9585,92.2649,-79.4628,-67.1345,74.9837,89.7523,-155.9083,-191.5538,-190.3460,-92.0080,181.6389,246.6980,18.5290,-255.2298,27.6848
-359.3750,193.9596,82.2085,48.7352,125.1087,-435.4295,-15.3983,-152.7406,-65.7711,-91.8295,13.8113,23.6869,3.6118,-32.4725,-30.7018,-43.0365,45.1607,79.7330,32.0685,-29.1027,76.8058
-351.5625,310.1423,-47.8039,176.1207,-109.0678,-492.1400,2.5616,-26.3432,-86.6882,35.8711,30.0246,118.3095,-88.4810,57.9701,-48.6630,84.3286,134.0928,-0.6695,-60.9961,-17.6111,-16.6776
-343.7500,80.3855,-172.7572,2.4907,119.7308,-409.8878,51.5202,-15.9822,71.3656,8.5740,76.1995,-35.7147,-39.5571,-115.5761,35.3961,-53.2984,251.9847,52.3090,28.9263,-68.1008,176.8180
-335.9375,98.3197,-14.0614,30.4870,-211.9038,-565.0618,-29.9273,-135.0156,-84.0062,74.8856,-42.0492,18.0245,63.9552,95.4723,103.0547,85.6812,21.4675,-127.2041,-93.5689,232.9899,-15.1157
-328.1250,168.3998,-14.2207,213.5666,70.5812,-455.1585,7.7338,85.0290,26.7190,37.2895,30.7935,24.6591,-46.4218,-161.4160,-80.1652,-25.2485,203.0526,102.8346,-56.9588,-46.8490,21.0517
-320.3125,33.5533,-8.3254,34.6466,219.0263,-524.3032,125.3970,-129.9583,69.4156,-67.3014,-38.3944,-36.1456,34.2052,-82.2925,37.6371,-57.1633,59.6072,96.1817,20.6269,31.3268,63.1829
-312.5000,197.1300,13.9555,215.0961,31.8343,-564.1068,160.4080,-60.5849,29.4529,-33.5418,-79.2512,78.9018,-40.8298,-13.8615,-1.2125,13.2632,54.5243,65.9775,-60.4496,20.8201,-124.3449
-304.6875,19.6563,-57.8211,96.4278,312.5262,-316.0456,153.3179,3.6578,168.3706,-115.8845,22.7626,-34.8297,-11.9450,-168.5251,28.8635,-106.4141,228.3170,172.0981,45.3701,-223.7739,51.0078
-296.8750,-6.2398,-85.0490,38.2732,-135.3053,-336.5220,59.7269,-164.6024,37.7731,-62.7181,-145.7407,56.8052,116.4285,214.3094,156.4416,93.4206,-14.3980,-97.6994,-15.3291,67.1260,-80.1738
-289.0625,50.5969,-204.5360,171.8013,-112.4074,-131.3245,10.8424,41.8229,60.8796,-2.8587,-49.5497,89.4431,-43.4942,89.8110,33.7251,79.9510,190.5988,-10.9351,42.6730,-120.2900,-57.6511
-281.2500,-158.0567,-166.5237,-51.2258,-3.1054,-58.7295,47.4066,-69.3316,60.4128,-40.5409,-51.9376,-41.3607,67.0405,51.7843,107.4709,4.9543,114.0079,-33.8437,117.1063,-44.2219,51.2873
-273.4375,59.2060,-90.6343,111.6152,-242.9536,-118.3013,27.8194,-17.6190,-144.2074,48.6309,-110.4847,107.9674,-62.5947,214.5791,15.0596,130.8066,-18.7195,-93.9963,18.3833,31.6793,-153.9388
-265.6250,-41.9502,-122.1621,108.9776,185.7403,62.6480,26.7917,90.6098,0.7225,-26.6557,34.4932,4.9812,-173.6657,-82.0778,-132.7754,-18.7965,234.0896,146.3459,164.2185,-206.8572,27.3739
-257.8125,-137.4473,-42.0471,-24.0408,-49.9993,-143.8337,79.3630,-153.5666,-21.7659,-49.3346,-25.9526,-3.3549,24.8549,151.8725,28.9893,31.2114,-11.5167,-46.8654,104.6359,85.2110,-32.7501
-250.0000,28.2431,-17.7461,113.0949,-95.5573,-118.1687,34.0875,20.4062,42.8937,14.1289,73.7363,26.9190,-57.4825,-5.0580,-52.1000,58.3571,124.0436,-4.6673,-9.7936,-64.6084,-42.7216
-242.1875,-107.9567,-83.3438,-72.7241,15.9009,-84.4924,69.8559,-55.6035,76.5654,-25.3550,33.4360,-99.2938,125.2438,-117.9124,130.8780,-18.4258,119.6197,-18.0808,30.8095,-57.3659,138.3312
-234.3750,51.1149,-100.7076,-8.3185,-316.4456,-240.6292,25.8051,-102.4049,-41.5825,77.3729,-48.6779,15.4741,118.1546,93.4191,197.0477,120.0027,-37.5851,-189.1759,-126.4094,173.0469,-54.4276
-226.5625,-0.4342,-187.6997,5.4148,54.5534,-79.4329,78.0965,96.1208,83.6075,55.4462,38.5406,-60.1745,23.4302,-185.9024,103.5892,-86.2161,232.5639,13.2335,-70.2812,-17.1899,70.1670
-218.7500,-124.4825,-101.2091,-121.3908,0.9582,-207.8204,62.8283,-140.9198,30.2185,37.9821,-52.8138,-107.9105,155.1528,-56.7516,235.5919,-28.9612,67.1536,-85.7403,-54.7197,210.0348,16.1823
-210.9375,92.4517,-61.7349,109.7577,41.3379,-197.2596,38.5127,51.9894,-32.2215,86.4576,-6.2248,-11.0827,-16.1810,-156.6857,26.5409,-18.7669,112.7203,40.9427,-48.2041,41.1754,-83.8460
-203.1250,-130.6742,-108.3201,-20.2067,312.5881,-106.8405,131.0979,-4.2301,133.2170,-43.1637,11.2370,-130.8503,76.3962,-284.7018,46.4067,-147.6582,129.1666,141.3080,117.1982,-38.7691,81.0036
-195.3125,-76.8396,-90.9839,7.7473,-126.2758,-154.5388,123.5879,-86.5391,13.5460,22.1255,-145.4047,2.1317,105.8534,73.1653,113.1697,63.3531,-139.4643,-82.8270,29.4843,191.1645,-112.2647
-187.5000,-73.2362,-157.8806,44.4302,53.6265,102.4912,160.8431,95.8885,123.6264,21.1548,-73.3121,-22.9208,-3.9295,-111.2385,40.6979,-10.8917,79.6659,49.1164,69.5196,-120.1548,-2.7744
-179.6875,-189.0322,-97.1888,-114.3326,-26.9676,90.0249,151.6496,-135.1491,39.2371,-100.2550,-158.6984,-71.6974,206.8412,23.9275,251.7809,14.4322,-43.6753,-72.8075,25.0862,11.1024,22.2378
-171.8750,58.8563,-61.8206,149.5619,-236.8870,96.1971,49.1063,17.4707,-63.4916,-56.0247,-152.4293,72.2390,68.2450,30.7083,113.5056,58.3927,-1.3376,-71.3315,-114.6895,12.9808,-118.0980
-164.0625,-52.9855,-174.1760,97.6921,109.4283,190.5826,71.8109,1.3030,68.0302,-143.5491,-58.9302,-27.9673,-18.0937,-204.2480,62.4961,-104.3896,202.2345,101.3791,19.7860,-61.8634,86.8008
-156.2500,-61.3776,-78.1184,60.2539,-145.8762,-31.6489,72.9127,-109.4519,-42.0596,-71.6675,-133.0436,38.5959,-18.0564,88.1928,26.8744,43.2305,-57.7816,-53.9807,46.6543,246.6812,-97.9279
-148.4375,-15.8586,-68.1455,144.7177,111.7546,88.0238,121.9170,121.6883,78.7449,-60.9057,60.7249,10.4672,-189.1108,-159.4868,-144.8468,-94.2648,135.1163,129.4762,93.4336,-22.9005,-87.7510
-140.6250,-225.2481,-66.0875,-150.7587,149.4061,122.7202,158.9699,-27.1379,114.5631,-98.0983,21.5143,-110.5162,-6.1073,-87.0903,40.4858,-94.6946,22.0441,21.6236,130.2463,85.5804,-15.5532
-132.8125,-67.8439,-85.2566,-18.4685,-187.1692,71.1671,109.7665,31.7999,27.1218,35.4571,-29.9449,10.3132,17.6295,83.0274,64.5593,37.6202,-30.2404,-116.7470,-64.1991,66.7762,-140.6041
-125.0000,-151.4694,-29.4496,-7.2502,152.1845,228.5417,12.4991,78.6631,38.6175,-64.0393,-20.4716,-86.2643,103.3230,-162.8986,3.5964,-62.1086,162.4247,78.4447,-5.6988,-191.0499,127.2926
-117.1875,-83.9963,143.4212,-44.9599,-62.4505,42.9498,-59.7270,-104.4194,-217.8479,-27.4714,-203.9641,-24.5328,252.0393,93.2407,78.6709,85.2276,-170.8549,-55.5090,-45.1633,17.1793,53.2154
-109.3750,64.1352,114.9540,109.9757,120.5947,123.0157,21.7040,85.1488,-174.6625,-20.2662,-124.8215,22.1554,39.4022,-82.9890,-95.6134,19.2019,-17.4628,122.7579,-2.9606,-184.9675,59.7997
-101.5625,-187.1069,-31.8910,-118.4795,256.2076,76.6531,161.7363,-106.7029,38.0956,-137.4603,-96.1103,-110.8063,143.3748,-128.5889,43.7069,-99.2068,-27.5000,96.4005,168.8300,-13.4955,124.9591
-93.7500,-114.7093,-30.1220,-31.3031,-93.5629,-20.1030,214.3651,-92.9287,89.4416,-87.0584,-46.8073,-15.3566,85.9253,32.3938,60.6036,-48.0189,-161.9162,-58.1986,100.2128,164.5473,-155.2872
-85.9375,-191.1005,-107.1409,31.0640,216.8705,226.3304,242.1925,79.0271,225.9779,-171.4626,51.6785,-75.9325,39.6828,-235.4232,-22.2945,-243.6323,46.8719,135.8041,164.7904,-52.1999,-56.3331
-78.1250,-209.0967,-54.7967,-55.2016,-82.3917,138.0915,193.3636,-117.6627,65.8541,-147.5046,-109.4918,-19.1457,174.7730,82.1212,150.1537,-145.8789,-225.9857,-77.0973,76.6928,212.4218,-180.0562
-70.3125,19.6134,-108.7517,186.2247,-135.9365,267.5561,105.2301,122.3539,-24.5471,-52.8524,-89.9543,105.4823,-24.4484,28.3362,-11.7007,-88.4379,-133.0984,0.2533,-11.6966,54.7284,-234.0655
-62.5000,-162.8712,-115.8913,60.4406,104.2809,325.7875,91.8933,70.1395,-2.1554,-141.3974,-105.6307,-4.4394,73.1386,-60.6224,48.2548,-214.1812,-76.4148,74.4222,86.7110,13.8679,-65.2907
-54.6875,-25.3727,-14.0674,175.6338,-181.5451,181.9700,23.5021,0.8939,-144.8174,-26.9944,-213.3560,118.5085,4.6521,164.3559,18.1378,-25.9754,-257.7543,-38.2913,-21.9347,150.9262,-245.5745
-46.8750,13.3798,-46.9751,244.0664,173.9018,323.4015,57.3571,142.8874,-2.2396,-104.3545,-107.8479,71.2096,-144.5761,-135.4202,-132.7318,-140.5277,31.1576,199.4390,51.6758,-160.7650,-66.6004
-39.0625,-41.4839,-32.5066,37.8764,47.6602,153.1737,73.5421,-173.7654,-24.3418,-163.3591,-168.0147,58.8531,-19.4668,100.1796,31.7371,-88.7158,-139.5871,40.1317,66.6178,65.9100,-52.3036
-31.2500,58.5142,-38.1873,147.5475,-63.7054,114.8141,-36.4353,8.4510,-25.5891,-90.5206,-22.3287,108.6237,-92.5356,99.6046,-41.9639,-16.0632,-32.4419,17.4238,26.4190,60.4079,-164.1454
-23.4375,-222.2316,-108.6147,-117.5354,183.1564,141.6844,-80.1675,-1.1059,113.3997,-62.4352,114.5911,-72.8759,46.6485,16.3056,24.5921,-99.1507,67.9475,28.9476,132.4712,-6.8202,47.2513
-15.6250,-139.7985,9.1046,-137.4402,-191.8380,-62.2976,-133.7533,-167.4918,-52.4662,66.8023,-15.3340,13.7666,66.9594,329.1567,81.2789,139.9188,-136.4863,-188.6972,-31.3353,251.0819,-82.2155
-7.8125,-8.9220,33.2766,-6.9077,8.6439,67.1704,-75.8831,36.5644,4.1231,13.4819,77.1867,2.4410,-58.2739,17.4406,-79.5826,13.4316,66.5552,10.2546,-6.6899,-39.5786,47.7833
-4000.0000,119.9248,146.0741,-60.3067,3.8289,-47.1052,-37.7868,-74.7621,-42.3299,-27.0485,2.0092,-9.8897,7.9666,-41.2542,6.0164,-13.3167,-1.7010,0.1179,-2.0005,-3.8789,38.2515
-3992.1875,335.3982,80.9070,241.0682,-135.7809,-38.2626,7.0990,79.5222,-145.5039,19.2998,-98.1998,149.8622,-129.3285,-32.0653,-94.1564,-3.7413,-28.8760,46.8755,-70.5444,-37.3770,-135.5197
-3984.3750,132.7929,-86.3496,129.3375,186.5272,143.4921,115.8789,151.7195,0.2354,-91.4541,-62.4858,43.2064,-128.7423,-180.0064,-58.4375,-150.2754,154.8865,165.0116,40.8143,-172.0088,11.6253
-3976.5625,128.3444,-55.4300,-18.2773,-173.0400,-3.6236,115.8092,4.0317,-72.8793,-55.0543,-171.6199,103.4418,-18.9955,187.2212,90.4522,-3.6553,-65.2153,-104.5500,-37.6842,136.5359,-171.0811
-3968.7500,142.3841,-147.0404,-10.4272,-127.1849,115.7041,87.1885,195.8039,82.4512,27.8056,21.7043,73.0490,-119.8169,48.8931,25.7802,5.4219,165.1439,-71.1249,-61.7458,-28.4779,-124.3520
-3960.9375,-108.7792,-150.8345,-243.8007,-99.5044,28.8408,37.3705,-2.6293,142.5879,15.4598,82.8325,-73.3545,88.1741,73.3431,197.9114,-6.7143,116.3135,-171.1821,-34.9972,104.2969,-25.8073
-3953.1250,66.3806,-11.3013,-21.8835,-313.5609,-41.7421,-33.1498,37.2231,-0.9973,129.4262,14.2438,58.3733,56.4686,187.1243,91.3443,107.4701,-26.2427,-203.0826,-178.9601,135.4017,-204.9912
-3945.3125,72.7145,30.3991,7.1830,40.5567,98.8410,-75.5216,66.2509,139.5731,12.5439,117.8195,1.9655,-61.1103,-76.9672,-25.0939,-46.2018,151.3756,30.2523,-35.7716,-106.3712,9.9772
-3937.5000,69.7992,133.8732,-70.0319,-175.5773,-51.8290,-189.1410,-156.9960,25.8877,46.4088,42.1402,52.5207,-25.9278,214.7034,10.2272,98.8779,-71.2741,-126.1309,-76.8284,133.6224,-65.3100
-3929.6875,159.4682,12.9254,92.3209,-91.1916,37.0503,-248.2131,77.3199,40.7450,135.8348,169.0195,105.7221,-267.2205,118.9309,-157.9173,114.5189,128.6251,-6.8507,-25.3514,-62.8386,-49.0744
-3921.8750,-88.2554,-129.4031,-139.7417,44.8191,61.5462,-222.6865,-7.7611,102.2121,87.8500,158.5168,-35.6102,-167.9179,70.7315,14.5316,29.7457,155.1482,-38.7433,74.7349,73.2727,87.7739
-3914.0625,-24.0477,-169.8029,-104.9111,-315.3170,-85.0797,-150.2683,-45.9657,102.5624,161.7703,85.9091,32.5733,-130.7079,218.4678,89.8934,140.8858,8.5487,-222.9327,-4.2969,311.3070,-131.5038
-3906.2500,-114.5056,-189.8860,-97.7648,-23.1445,68.6025,3.4364,107.1479,293.2142,58.9983,166.6185,-73.0361,-123.2189,-105.5157,23.5435,-35.6779,237.2796,-45.6376,77.9603,76.6007,-13.4822
-3898.4375,-188.5080,-51.4942,-211.1900,-170.5153,-81.2753,111.5861,-80.3157,216.3147,56.6655,54.7726,-73.1657,58.7348,112.9591,132.6599,-0.7943,-22.5471,-189.0529,0.6652,281.3422,-125.0025
-3890.6250,2.8353,-36.7745,21.7000,-194.6166,-30.8698,89.0209,154.5222,120.6960,107.6385,106.2186,36.6038,-74.0146,90.7515,0.0747,14.4036,102.9159,-112.0957,-128.3470,46.3773,-183.2448
-3882.8125,-169.5561,-66.7961,-207.1657,53.5688,33.8021,153.7042,70.6179,148.3294,25.8500,134.9157,-100.1009,28.4925,7.7706,28.7317,-31.1636,168.6472,-65.5643,-22.1005,-58.3738,29.7814
-3875.0000,-24.3765,-27.2463,-165.4942,-226.7271,-143.9939,85.9327,-70.7594,7.4882,106.6076,32.1410,11.6177,72.5802,272.3751,109.9507,159.8314,-44.1033,-216.8851,-127.3150,47.4465,-109.6586
-3867.1875,57.3315,-51.1787,-54.3038,96.4723,40.7193,49.6603,76.3835,81.1416,33.8691,107.8749,13.3210,-36.8480,52.4724,0.6543,14.3231,177.6641,14.7488,-49.0440,-331.2593,39.3964
-3859.3750,-61.3261,6.5537,-108.4938,-60.6777,-12.9187,-3.9579,-160.8410,27.4523,-56.2228,-18.7317,13.7656,95.3821,220.2173,132.0244,35.4625,-21.9149,-89.2487,4.8830,-100.3141,24.1128
-3851.5625,126.2435,18.5030,161.5178,-193.6762,111.6273,-63.3789,-0.8706,-69.0444,-5.0899,-4.1321,135.1868,-74.1980,161.1878,-36.4077,49.8234,-7.3057,-29.4961,-22.0115,-129.1538,-107.9978
-3843.7500,-64.3835,4.2491,60.3213,140.1504,268.9858,20.0029,44.9161,14.2845,-103.1577,7.2947,23.1550,-98.9911,-13.0767,-98.0485,-122.0236,78.1359,123.7939,135.9059,-216.2237,50.7046
-3835.9375,24.2898,58.3074,47.3999,-125.7448,109.6285,7.6904,-4.0208,-145.0892,-5.9278,-76.9838,94.4821,-38.4712,195.9803,-37.3800,-24.5647,-154.1460,-44.1105,10.1173,80.0404,-144.3087
-3828.1250,104.5904,32.9789,121.1028,125.9515,220.8848,8.9740,216.6676,-70.8631,-4.0906,35.3462,62.9144,-146.3828,-60.3699,-181.1273,-59.5053,105.1855,125.9753,-18.0785,-195.1075,-31.7397
-3820.3125,-33.0183,71.7643,-142.1120,90.7667,67.2551,39.3581,-46.5491,-38.5292,-10.1534,-43.2195,-37.8613,68.8128,44.3687,33.2288,8.6428,-10.3814,-8.7162,-19.1694,-54.1663,73.9386
-3812.5000,149.3474,149.5140,11.6397,-151.5148,-72.4308,-26.3201,33.1820,-105.2694,108.7479,-34.8474,49.6476,-33.0431,89.0879,-31.4666,164.7635,-1.0213,-65.7451,-121.3264,-52.2552,-27.4639
-3804.6875,14.1209,49.6649,-69.1899,130.6192,67.3059,3.3948,25.3399,34.3909,29.0573,32.9367,-63.6026,-2.5226,-137.8115,-37.7780,11.2810,138.7712,68.0167,21.9142,-189.9811,186.5386
-3796.8750,-4.9058,-38.9686,-86.8346,-243.0681,-60.7648,22.2998,-102.3247,-56.7592,48.5678,-130.0900,39.6306,17.2062,212.5220,93.1227,104.0077,-97.2573,-153.8230,-36.6510,138.5081,23.7316
-3789.0625,29.4059,-145.2851,127.8478,-72.4748,45.4636,17.4935,112.3299,-25.6168,44.3895,12.1827,61.7888,-169.7813,24.1603,-21.6972,27.0423,119.0145,19.2751,-5.9275,-110.7228,20.2015
-3781.2500,-108.9365,-72.2436,-24.1259,102.5153,3.0505,13.0467,-39.6639,6.8811,-33.4571,-64.1863,-28.6183,-27.4106,19.1234,121.8251,-50.5870,41.6459,32.8590,28.1637,-77.6400,90.0347
-3773.4375,188.0406,49.1185,179.2103,-97.2156,-160.0854,-3.0903,-20.3756,-157.3426,24.0008,-154.2707,119.8143,-6.7274,114.4156,106.6471,44.0967,-83.4563,-6.3404,-136.4550,-31.2509,-108.8579
-3765.6250,121.0909,-18.4639,132.6142,289.1204,14.8481,23.8241,116.9832,-18.5078,-21.4955,-87.2905,8.5569,21.9900,-188.2605,24.5024,-74.1769,129.5187,182.0369,-65.0294,-277.8497,67.3037
-3757.8125,-0.7241,72.1042,-68.8533,-11.4067,-112.0806,81.8899,-83.5304,-108.5184,37.1534,-140.1658,-3.8693,153.8765,126.2335,119.5368,93.7031,-70.3643,-69.3128,-154.4600,-15.2818,-21.3848
-3750.0000,116.4259,83.6195,46.6379,-40.0255,3.9313,49.9018,67.9171,-66.5758,79.7654,-24.0827,46.8045,-24.2963,58.7005,-21.4736,99.5511,119.7087,-9.3043,-182.9604,-218.7639,21.8518
-3742.1875,-73.5445,70.0227,-127.9841,48.2911,50.8579,22.8226,-106.7266,-20.7088,16.2683,-13.0861,-60.8239,60.4302,32.0449,63.4220,0.2833,129.7041,-14.4234,-59.5483,-201.3697,216.0031
-3734.3750,93.4845,61.4336,123.3889,-316.4210,7.7687,-92.2469,-112.3807,-209.8519,84.7699,-91.1072,113.0731,-18.8278,210.4213,-15.6759,105.0268,-58.3321,-99.5433,-107.1398,-3.9488,28.1268
-3726.5625,9.9805,-20.7097,247.2451,54.3326,242.1474,-114.8616,84.4470,-85.5366,-10.2771,-1.6626,59.0769,-149.6562,-105.7795,-146.3458,-99.7850,104.0990,167.9710,86.7150,-230.1103,153.6948
-3718.7500,-123.4961,-12.7988,145.1362,-47.8606,104.5804,-33.4277,-53.6882,-112.1691,-38.2753,-138.1663,46.1323,43.5774,51.0746,-63.9592,-90.5430,-252.4282,51.2038,125.6256,124.7842,17.3163
-3710.9375,36.8857,-64.0359,315.9053,-32.2464,201.8640,-10.1566,226.0369,-52.9646,-14.3974,-114.8187,130.8397,-43.3542,-36.1926,-186.7394,-66.4237,-229.1183,119.9708,71.3684,70.5373,-142.2399
-3703.1250,-93.8964,-18.4392,56.5328,255.2465,238.0285,25.9585,150.6335,56.0993,-88.6674,-78.6091,-2.6878,67.5519,-109.6288,-148.6838,-139.4630,-153.9331,159.4763,111.9703,6.1053,5.0679
-3695.3125,78.4137,154.2655,18.2582,-103.1841,16.2861,-47.8278,2.3141,-91.7537,59.1653,-188.3142,90.4844,104.5698,184.0714,-112.5184,81.6093,-300.6763,-55.1078,-70.3340,174.7967,-141.5443
-3687.5000,137.3411,177.5742,28.6169,196.9954,64.1564,-73.0114,123.6251,-80.0041,-3.4032,-65.4109,23.6367,5.1686,-61.6464,-136.7702,-17.7223,41.1982,119.6394,-51.0407,-156.9402,54.4270
-3679.6875,23.3987,135.0403,-168.8834,44.3510,-95.8222,-14.0345,-110.9180,-131.0903,-52.8310,-151.3615,-34.2638,175.9251,71.7753,70.1373,6.0843,-80.7829,-42.2707,7.4122,77.4709,78.5472
-3671.8750,174.5217,40.5696,100.6935,-229.2773,-120.7645,-38.0080,84.5934,-119.1347,70.7980,-138.2731,91.4521,-30.2715,85.2720,11.0935,130.9526,-30.7387,-71.7437,-91.1023,48.9478,-54.3220
-3664.0625,-24.9561,-88.5116,-9.3086,-9.4699,-10.2886,35.4232,47.5300,64.2372,-2.1770,10.2241,-54.1307,6.9258,-134.8557,84.4297,-15.7857,153.7281,4.6224,-11.2128,-83.2162,130.2127
-3656.2500,-15.9889,26.8615,39.1349,-286.2315,-181.3739,11.3026,-124.1033,-69.9464,47.2990,-49.8460,8.8540,167.5919,98.4978,172.2283,107.9399,-127.3894,-147.5791,-112.8761,97.0847,-39.8168
-3648.4375,13.9475,57.1866,172.5617,55.9476,-47.4987,35.1330,83.2387,-9.1790,-1.2715,49.0381,-6.6698,82.1906,-133.1998,-61.0395,22.6243,82.4495,96.1263,-16.6009,-262.6915,22.0882
-3640.6250,-146.9888,72.6516,-0.8680,243.3047,-73.4603,120.1284,-89.2683,1.7535,-99.7059,-49.9255,-75.4337,203.9470,-85.7659,24.8480,-76.5574,-125.5529,111.4326,100.8347,-110.3307,34.1569
-3632.8125,62.7255,106.7614,150.3654,132.2785,-68.7823,160.7773,60.8714,-67.6682,-58.4812,-117.2489,63.6326,25.3576,-7.6542,-116.6095,-34.0787,-231.9319,115.7100,25.9067,-46.2939,-181.1533
-3625.0000,-42.6224,36.7992,64.5678,480.2280,65.8760,222.3812,120.9909,103.8770,-143.3036,-18.6115,-51.5000,13.7044,-276.6212,-164.1333,-228.6571,-59.3355,275.8294,126.9367,-120.3372,-8.5099
-3617.1875,-34.6481,45.1830,-72.8908,97.5200,-107.1155,158.3335,-52.5476,40.7709,-59.7762,-80.6359,-23.7588,134.4154,-9.2160,-44.2960,-34.8764,-268.4133,3.0307,26.3213,235.9874,-144.5276
-3609.3750,94.3881,68.6080,17.7369,46.8469,-16.0445,29.3344,148.9914,95.7060,32.8128,48.3895,-4.6881,-66.8479,-137.7457,-135.4281,-16.0287,7.5537,41.4396,-24.2547,80.3539,-88.5216
-3601.5625,-107.5604,43.0611,-166.5827,17.2562,-16.9022,-44.6034,-0.4105,131.7064,32.4528,11.4652,-92.5671,5.9384,-64.2366,11.4866,-16.1362,7.5858,-46.2447,16.2263,226.7464,58.5475
-3593.7500,6.2823,-18.6966,-9.0928,-364.5792,-4.9745,-143.7425,47.9803,-40.5059,191.9079,24.3281,25.9994,-91.4651,95.1183,-48.7876,143.5849,-52.6068,-179.9639,-49.5108,300.9637,-112.6099
-3585.9375,-163.5325,-118.1216,58.7770,-46.0483,210.3201,-111.5286,152.7535,63.6468,149.7174,93.5518,-51.2033,-132.5311,-130.2000,-126.7234,-8.3456,162.5805,25.8343,94.1005,21.4986,66.5837
-3578.1250,-220.5285,-104.7001,-38.5118,-247.6656,39.4583,-99.4537,-55.6377,-107.3429,164.3732,-39.3836,-21.2072,64.2714,177.3429,34.2024,116.5718,-80.3988,-155.8025,32.5678,171.8914,-29.3716
-3570.3125,10.8392,-117.9243,127.5857,-159.9490,95.9384,-80.0235,110.3400,-124.9886,220.3851,54.0237,58.7631,-25.5905,86.2495,-93.5352,136.8472,49.9610,-50.2255,-90.6269,-127.3717,-46.0048
-3562.5000,-142.0652,-60.4000,-117.5527,105.5709,34.1916,-29.8335,-60.9127,-74.8664,86.1301,30.1815,-95.4479,134.2951,-11.1307,29.4640,75.8574,100.0794,-14.0079,-1.0553,-142.9185,114.1234
-3554.6875,-52.0811,-3.9700,-55.7746,-229.0219,-123.6684,-41.7313,-110.2707,-160.8550,149.7718,-15.7857,-1.5807,50.0920,198.4162,93.3674,249.7738,-56.9418,-170.0631,-89.5852,84.4569,-79.8774
-3546.8750,-70.8494,-93.3050,-49.7087,99.6621,-7.2594,0.6308,79.6564,29.4202,119.6613,101.5003,-87.1369,-88.8753,-124.8087,-10.5005,109.9322,244.2987,27.7392,28.1391,-148.9488,74.3594
-3539.0625,-123.4066,-39.4154,-289.4001,-27.3862,-209.5916,55.2502,-160.1727,9.9646,63.7956,46.0286,-132.2063,75.4249,39.2224,191.8959,90.3335,4.7826,-144.3004,43.1195,110.9028,18.8467
-3531.2500,43.6886,-83.8934,-115.4113,-39.8286,-182.2778,120.5101,50.6601,1.1578,55.6008,75.2016,-49.8558,-42.6354,-42.0684,73.9479,46.4037,107.9046,-74.9341,29.7313,27.4172,-99.0439
-3523.4375,-185.8881,-137.0486,-219.0570,255.1076,-65.5906,200.1186,19.8670,118.7235,-48.2458,119.7347,-181.2774,37.6515,-219.0389,81.3442,-93.1881,115.4078,41.0398,148.6989,-29.7481,55.4306
-3515.6250,-121.2832,-1.0127,-35.5001,-140.7714,-137.7123,126.9354,-53.7385,8.4791,-9.8926,-26.5550,-36.4524,76.1613,39.2169,45.9525,18.4296,-140.9216,-97.4783,34.8583,208.3134,-163.9122
-3507.8125,-99.7255,20.9520,199.0473,88.3138,134.1292,67.7180,144.6432,133.1894,-68.5861,62.1008,-29.8648,-56.3916,-239.5862,-123.5088,-114.0018,94.7082,142.6487,87.9663,-126.7081,-75.3194
-3500.0000,-198.4624,63.6425,55.3437,56.1798,100.7351,34.2671,-73.2254,99.6590,-101.5414,-6.4977,-55.5901,57.8127,-89.6404,27.7878,-109.6895,-84.9137,57.5282,126.8394,53.0148,-70.9706
-3492.1875,-15.1143,0.4164,212.7691,-44.8889,73.4386,7.9126,83.0197,36.2176,-17.3825,3.9904,81.6332,-115.8845,31.4423,-108.8201,11.7466,-74.4619,56.0717,59.8029,-13.1407,-207.5557
-3484.3750,-179.5950,-128.6402,63.4241,279.2761,182.3788,42.7619,117.5024,143.9960,-93.0211,39.6840,-33.8318,-80.3990,-117.2965,-145.2485,-100.6247,72.2059,172.5896,208.9807,-145.1322,12.0639
-3476.5625,-129.2063,-77.8066,6.9892,9.3256,16.2211,60.5112,-12.1237,-58.3248,-37.7609,-88.7442,30.7137,12.0039,157.8936,-53.7702,65.9160,-167.2567,-14.6042,80.0572,111.7949,-116.4310
-3468.7500,-23.5613,-147.7294,71.8543,147.6139,155.3277,15.5072,200.5267,-30.3982,-8.2438,51.0714,11.5823,-69.3602,-70.6638,-171.0579,21.7157,82.5356,91.9278,6.3720,-103.0495,-13.6936
-3460.9375,-225.4485,-172.1635,-145.7753,117.4385,46.9503,17.0053,-19.3219,-28.9571,-6.2415,53.3780,-99.0271,117.7914,5.2670,14.1591,24.0022,11.8342,-31.0673,11.2000,78.5874,62.5585
-3453.1250,-85.0970,-172.3603,-32.1371,-202.5144,-59.1912,-15.2478,22.0776,-24.2739,110.0200,132.9107,-18.3556,12.2018,84.4835,56.6318,139.5575,17.3552,-155.1800,-96.7318,145.4994,-115.9660
-3445.3125,-289.0698,-269.8864,-147.7719,83.2710,45.3895,52.2073,52.2115,227.1300,66.9803,311.1515,-179.3021,-29.7009,-178.6253,87.7885,23.8020,269.6001,-38.0392,12.0443,-26.9238,99.2152
-3437.5000,-345.6785,-256.0238,-242.0060,-187.5347,-122.6343,68.0748,-116.2584,169.9398,83.3284,217.7696,-144.4612,133.8224,94.6799,178.3564,77.4437,-7.7846,-240.2734,-47.7716,264.0658,-31.2088
-3429.6875,-141.8829,-261.7728,5.2081,-56.9459,-21.2539,58.3522,131.7000,233.1448,74.0843,208.7772,-85.9843,14.7342,-171.6116,-14.6865,31.4913,130.2249,-52.3288,-57.2017,43.4429,-40.2564
-3421.8750,-192.7790,-138.2000,-57.2212,99.0308,-83.5027,107.9940,-40.9818,208.7230,-60.8203,37.1367,-129.8199,174.0006,-195.5804,108.6224,-66.1240,32.6028,8.7447,28.7327,59.1525,46.0623
-3414.0625,49.6520,34.6988,166.7130,-153.6738,-117.4205,36.9959,-38.3202,27.6505,-57.3673,-70.1729,66.5228,67.6287,27.8266,1.2937,48.6318,-147.6983,-27.3026,-48.9932,122.2517,-171.2922
-3406.2500,11.9684,-2.5370,152.5806,192.5472,126.5817,22.9005,131.2819,123.4971,-144.0098,64.4183,-7.4520,-19.8585,-242.8907,-122.1492,-112.7178,59.9225,176.1379,86.1833,-94.7744,-0.7462
-3398.4375,-120.9080,-63.9447,15.3027,-13.3649,26.4369,-4.3363,-79.2698,60.2036,-96.8076,0.8389,-7.3425,64.5221,24.2467,35.2652,-28.2209,-150.6214,-22.8942,21.2178,228.0633,-100.3513
-3390.6250,-10.8896,-199.4735,164.9710,-12.3923,66.1976,-38.6733,143.1044,62.8070,16.3038,115.1488,47.2407,-116.2117,-46.7010,-35.4297,-24.8056,36.7188,27.8883,-47.8568,87.8055,-134.0857
-3382.8125,-249.7691,-227.8907,-97.1914,166.7730,61.1415,-6.8488,27.6473,204.5888,-25.4370,146.6097,-120.3437,-10.7983,-123.5186,71.0123,-66.2486,106.2203,19.7034,61.2377,55.6745,45.3435
-3375.0000,-124.9300,-101.5834,-71.5879,-167.3369,-97.1696,-54.2661,-21.0680,83.1187,37.5821,62.7986,-19.2778,15.3705,122.4524,97.2108,71.0815,-88.5670,-144.9749,-26.9183,214.3253,-112.5018
-3367.1875,-125.3583,-136.5636,-11.1958,110.3107,37.2945,-30.9339,114.0081,180.4150,-11.6357,160.7416,-61.6340,-33.7337,-109.8391,-25.8621,-51.8393,120.4180,48.1466,74.6787,-106.2979,59.3930
-3359.3750,-180.6897,-52.4151,-107.6567,-18.8745,-97.0763,-17.4469,-129.7654,46.8755,2.2878,27.8204,-45.0584,127.3254,123.0273,-11.7741,36.3864,-122.4540,-65.9865,86.4383,80.2330,36.4409
-3351.5625,39.5698,-41.6808,197.5237,-117.4870,-47.8458,-5.3576,64.0783,-52.0714,50.8195,39.4747,102.3742,-118.0242,98.5227,-183.0891,122.2297,-111.7473,18.7393,-12.2115,-18.6279,-61.9373
-3343.7500,-113.1096,-193.8793,98.8244,149.0475,73.5153,41.8362,38.0534,32.0995,-46.5537,51.2257,10.3924,-105.2804,-35.9128,-134.3126,-12.8345,11.0793,118.5760,77.2555,-69.4246,133.8033
-3335.9375,-16.5223,-132.8011,132.4338,-179.1236,-76.8353,-34.6657,-1.6827,-81.4349,22.3760,-24.7461,95.2869,-35.2121,180.9825,9.7709,94.4173,-211.8284,-68.5096,-109.9765,165.1011,-53.1679
-3328.1250,83.8080,-101.9963,266.8411,94.4687,20.5760,-11.4086,168.3669,15.7836,-26.9369,73.0252,68.0336,-48.4153,-125.3833,-76.4153,-28.5759,32.0264,142.0536,-82.4606,-159.6446,44.5997
-3320.3125,-17.1685,79.5224,48.0016,96.8457,-124.2489,27.6170,-122.8348,17.7763,-133.5100,-35.4668,-20.5328,175.1424,-51.0090,110.1539,-62.8280,-111.3697,55.8860,-10.1791,-52.6401,47.1313
-3312.5000,157.3827,113.5678,272.7384,-48.2649,-120.5335,-42.7967,-10.4762,-52.6840,-57.5162,5.5739,114.1372,32.2495,26.9441,3.2784,-21.5159,-108.2401,63.2856,-84.3599,-92.0574,-132.8156
-3304.6875,-64.8986,-3.2247,137.7047,289.8583,39.4105,7.0001,39.1195,71.0835,-80.3213,55.8200,-5.2949,-64.4565,-105.9405,-56.4077,-117.0170,89.1152,196.1452,77.6630,-246.2968,64.4474
-3296.8750,-40.7673,-83.6025,94.1232,-40.5762,-78.1977,-0.7428,-115.8444,-46.6905,-50.6752,-61.5096,100.3034,1.3056,253.6409,46.3767,21.9417,-176.1042,-22.2876,-6.8647,55.9469,-89.8451
-3289.0625,30.0526,-187.3232,199.2834,133.6818,99.9081,-5.7864,98.9256,21.2446,-56.3155,43.8472,100.8998,-150.2409,27.9236,-69.1525,-93.3889,40.3797,128.3603,26.3035,-123.1160,-21.4500
-3281.2500,-129.3888,-66.2775,-11.7563,181.7756,73.8329,3.9784,-74.4926,31.0058,-155.1640,-20.0049,9.6016,81.0206,74.9930,15.1214,-154.9310,-132.3279,72.2041,75.2961,66.6205,62.7614
-3273.4375,50.2931,44.9010,184.3773,-132.0061,11.9040,-58.1020,47.2436,-68.0834,-33.8548,-44.7308,134.5237,-54.5711,160.2459,-119.4510,-33.3109,-231.9153,0.1317,-28.5641,174.5353,-145.9070
-3265.6250,2.7453,-2.1635,161.3488,170.0505,172.8095,-44.3746,133.8183,92.6455,-93.7464,43.3455,56.5584,-113.3787,-83.7265,-178.2401,-164.9028,-33.6791,170.8357,97.3883,-52.7801,15.2289
-3257.8125,6.1428,0.7378,58.3293,-110.8861,-4.2834,-0.6413,-116.6167,-10.6170,-85.6366,-59.5972,106.9114,40.8307,218.3161,-61.0127,-11.4853,-282.4596,-39.1398,63.3441,194.9205,-124.6364
-3250.0000,83.1206,-61.7935,172.9564,34.7562,74.2321,3.6929,108.5722,30.7164,-44.9108,55.0517,118.6860,-101.3750,75.9728,-130.1930,-43.4476,-57.6384,77.4651,32.8941,-82.7863,-119.9193
-3242.1875,-129.4454,-63.8522,-21.9048,240.9424,99.2678,29.5360,-13.7225,56.5730,-128.6958,7.1923,-1.6301,34.9275,65.1050,6.1230,-90.9204,-69.3036,88.8679,62.9628,-88.0208,16.3233
-3234.3750,65.4098,27.5198,113.7022,-93.4434,-22.2584,-56.1673,11.4245,-102.1294,6.9766,-77.2499,137.7340,23.6950,274.7231,-5.1080,46.0761,-190.5566,-44.1940,-130.5213,35.2235,-141.9983
-3226.5625,96.4378,-11.9449,98.5472,217.4019,72.4349,1.3378,105.8106,-8.6208,-82.1464,53.5027,41.3534,-65.3532,-72.4761,-57.1626,-115.7266,88.4074,146.0072,-31.7991,-217.3568,62.8862
-3218.7500,22.6629,-14.1958,-14.3581,0.5182,-77.6131,36.1016,-118.5563,-47.8583,-122.0222,-22.5186,38.0508,115.8608,108.5847,51.0448,-82.2779,-134.3955,-20.2935,-1.8200,57.3335,-12.9723
-3210.9375,156.3830,13.0239,236.2802,25.1183,-11.1587,28.3717,58.5982,-18.5984,-91.3913,43.9412,114.2030,-37.4468,-8.8389,-103.2580,-51.3225,-30.7065,98.3471,-47.3449,-93.4664,-93.3532
-3203.1250,-83.5377,19.6044,50.3377,276.1628,60.7206,63.0632,-17.8224,90.0933,-166.3736,41.7972,-21.4709,70.6427,-83.9022,4.8367,-162.9883,-33.5986,151.9613,62.5534,-123.8882,51.6857
-3195.3125,-0.3025,34.3494,71.6015,-64.6145,-66.2113,9.9748,-71.0545,-37.0078,-36.1512,-48.1638,64.1613,91.9471,157.2589,63.1505,41.5581,-159.3234,-41.9282,-67.3464,96.9323,-148.0918
-3187.5000,-15.3008,-86.1491,82.7014,200.4155,129.6794,21.6902,124.5552,84.7132,-24.1170,37.6810,-7.3391,-6.9656,-124.7988,1.2556,-57.0917,109.7761,117.5682,-13.4482,-165.4604,10.9252
-3179.6875,-153.4125,-48.7376,-137.2522,24.4141,19.5345,21.3628,-59.8825,11.4060,-24.1329,-36.5343,-66.3051,140.0851,59.0929,148.3252,17.2001,-37.1770,-68.1325,-13.5871,44.1139,10.9021
-3171.8750,115.6583,10.8467,73.0248,-130.4154,8.5885,-62.7616,76.8975,-35.6989,39.0705,63.4247,60.4682,-90.6704,48.2073,27.5935,43.7143,63.0474,-43.2402,-97.5371,-40.0850,-72.9464
-3164.0625,-32.1690,4.5378,-19.5283,176.9540,62.8233,-44.7282,-16.1380,54.3728,-52.5789,154.5282,-79.9402,-109.2891,-190.5590,44.9997,-121.6330,227.4510,101.6016,67.6842,-190.1558,128.3735
-3156.2500,57.0533,58.2907,44.0213,-122.5890,-93.8432,-18.5881,-100.0907,-65.4531,-63.1242,33.7059,22.1916,-45.7912,18.8047,72.5241,-20.8618,-39.0674,-36.5727,15.0065,72.9091,-65.2121
-3148.4375,15.6051,-17.6445,217.9588,152.2166,152.8592,43.9013,183.3401,34.0737,-74.3032,96.2278,-8.8180,-165.9612,-285.4819,-48.6176,-141.7291,133.7777,191.2380,77.6765,-216.6913,-2.4527
-3140.6250,-156.3482,-49.0615,-3.5572,152.6033,115.1278,79.9532,-1.6788,-3.8335,-74.9335,-14.7199,-77.1468,53.4258,-138.2251,98.7992,-141.0487,-13.8235,76.7865,78.9153,-40.7432,33.8768
-3132.8125,26.3214,-40.8544,155.6004,-87.3860,91.0400,54.6642,83.9565,-102.0975,48.0895,-39.0448,64.0909,-81.5339,19.7144,36.8715,17.2992,-74.7976,6.7181,-91.2005,-0.1215,-101.1616
-3125.0000,-29.9539,-61.5986,10.8804,170.7656,166.0798,56.4873,85.7222,9.7656,-22.7928,35.7376,-41.7994,-78.4064,-161.2723,3.0327,-89.2671,111.3589,109.3211,25.8021,-163.4198,121.9162
-3117.1875,25.4685,65.3744,-36.0855,-126.3319,-28.1284,9.0701,-109.7691,-74.6120,40.0709,-48.7561,2.4474,-16.5136,48.5047,101.9578,46.9189,-119.7604,-70.5398,-60.4338,101.0644,0.7387
-3109.3750,150.0918,84.5307,126.1968,31.7611,23.8748,-13.1432,89.9731,14.2138,55.1443,76.9298,12.6870,-184.4384,-193.5220,-65.9401,-11.6906,79.3119,100.0637,-43.4679,-127.2542,52.7420
-3101.5625,-19.7837,55.2114,-18.9690,141.4449,-48.5482,24.2094,-129.7238,14.6092,-17.2452,4.1540,-71.1769,0.2006,-156.0254,81.7126,-45.7685,6.9379,74.3959,-3.9296,-19.0273,127.3119
-3093.7500,115.7081,16.2567,130.2817,-146.4999,-120.5755,-10.0304,-55.0145,-93.5961,57.7786,5.7538,58.3293,2.2413,28.8979,46.7692,102.5730,-65.0602,-36.3007,-115.9973,44.6415,-54.7411
-3085.9375,-36.5821,-65.4978,32.8054,191.8367,76.6734,2.9907,67.9852,29.4706,-1.9384,91.6061,-54.4501,-20.4905,-176.9610,-11.9366,-29.8398,132.2214,114.4937,11.1948,-144.4522,142.4673
-3078.1250,-113.9751,32.6640,-116.7315,-97.8698,-74.1269,-1.0257,-83.0735,-84.4967,31.2979,-59.6142,-30.0735,48.7456,149.1342,94.3243,112.6986,-91.5658,-102.1016,3.3481,127.4340,28.6313
-3070.3125,8.6653,51.8415,84.8211,-46.5392,54.1314,-19.9831,118.9366,-66.4092,49.5996,69.1929,17.3059,-152.9774,-16.7083,-72.3750,58.3001,73.6863,27.8820,-15.4568,-102.6223,9.8279
-3062.5000,-121.5960,-7.8787,-56.4603,138.9861,95.5678,20.2185,-23.8805,10.8485,-92.9527,72.1433,-82.9141,-38.5477,-122.4313,6.0771,-46.9625,77.1048,74.6999,133.9004,-93.5416,124.1999
-3054.6875,100.3077,3.5702,72.4739,-168.3200,-32.7987,2.6174,-41.5024,-116.7047,-1.2895,17.2756,51.9751,-56.9116,43.0730,24.7385,81.9957,-50.3066,-51.5881,-32.5505,20.7805,-77.2412
-3046.8750,70.7390,-26.4644,67.9930,151.9339,146.4092,-2.4365,100.4601,-11.6915,-42.0640,85.9634,-21.8907,-97.7499,-217.8952,-52.0637,-68.4981,165.8644,131.7037,40.5526,-186.3678,101.8743
-3039.0625,-44.0933,35.2638,-86.7003,-33.9949,28.4177,26.3180,-91.7902,-92.8623,-14.0420,-105.5546,-30.0616,77.2256,29.9444,85.9511,32.8132,-99.1671,-44.0107,-4.5218,84.2970,56.8039
-3031.2500,141.1838,116.0869,108.7806,-60.7968,76.5752,-35.7667,103.1256,-118.8764,35.1522,-131.9338,56.5105,-21.6637,-32.0442,-49.8840,81.2975,-15.0525,31.3181,-66.4451,-83.8668,-5.1349
-3023.4375,-40.4888,109.9528,-15.6257,178.5433,97.8631,-50.7401,14.1700,-22.7678,-16.5463,-147.2194,-53.9227,109.5400,-120.9607,-27.6301,-43.1252,43.1860,107.3096,66.7498,-160.9399,163.0473
-3015.6250,75.5724,86.5601,76.7160,-163.3914,-103.1058,-31.9624,-77.0406,-114.9199,75.5104,-275.7868,80.5879,55.5002,155.9006,28.3837,123.2156,-121.8581,-53.4427,-28.3055,58.7722,-38.0326
