Time,Fp1,Fp2,F3,F4,C3,C4,P3,P4,O1,O2,F7,F8,T7,T8,P7,P8,Fz,Cz,Pz,ref
-4000.0000,-151.6069,85.2775,-25.6612,86.3138,-26.0843,-3.4861,-62.5223,-23.1434,35.6646,16.1144,-59.7253,16.2600,5.6004,-36.6071,-4.3055,40.9595,70.3079,24.1866,-23.9449,0.7009
-3992.1875,395.6007,-31.2646,108.8696,-30.8699,-75.5399,21.0729,108.4184,0.9577,-11.8603,3.8050,136.2252,-70.2570,-80.5626,-122.0560,-163.6066,29.3474,-46.5008,-22.8126,-1.4320,-11.6398
-3984.3750,-226.7002,-159.3253,-24.1003,-87.5696,48.5045,71.1194,84.8622,87.5496,39.1207,53.9942,-84.7788,-19.2920,-66.2190,-0.0136,-2.3884,44.2388,73.2041,59.6878,80.6105,-34.4712
-3976.5625,78.5522,-130.8028,153.5324,11.3280,153.1713,101.7639,114.9239,43.7395,-76.2822,-136.2229,92.5120,10.2618,-35.2620,-7.3882,-156.5634,-71.2794,101.5243,-18.2096,-102.7403,-77.7018
-3968.7500,388.5172,-134.6543,184.8335,7.8656,74.4881,23.0491,72.6545,-34.4261,-154.0415,-140.7957,188.0000,-30.5529,-39.6605,23.8631,-198.1005,-75.1530,98.5030,-57.4657,-2.4224,-82.2771
-3960.9375,-160.8367,-117.7750,129.8818,60.1442,165.5760,41.0883,-19.8633,19.1548,-25.0406,-159.6227,21.8353,-13.6228,14.6951,39.8579,-68.8668,-93.2692,222.2563,30.0360,-56.3374,-101.0990
-3953.1250,518.4579,-103.3062,216.5486,40.0154,106.2719,54.7217,-6.7696,-40.6776,-120.4275,-218.8715,225.7082,-0.1114,-81.3433,16.4367,-203.0454,-152.7955,96.6172,8.1209,-112.6406,-87.3194
-3945.3125,-22.4319,-113.0599,-15.9821,-5.3369,56.7634,79.1408,-19.8686,56.2759,-57.9994,-10.3234,-29.5017,24.1845,-93.5764,75.8070,5.5902,-17.5177,17.7885,138.9993,16.8827,-62.7351
-3937.5000,-68.0205,-120.4886,-61.1545,-47.3431,122.6293,144.9127,44.3917,158.5829,-29.2160,54.5536,-27.5310,15.8243,-27.4483,30.5173,-38.4040,49.1082,-94.6673,131.2266,-96.2488,-70.7979
-3929.6875,314.7164,-122.6880,-28.0600,-154.1059,-28.2600,30.9306,113.9085,154.1286,-68.1884,87.6760,70.9453,-98.2984,-68.0776,62.4608,-42.1695,119.9865,-164.8755,23.6887,6.8919,-37.6029
-3921.8750,-279.9531,-187.2612,-58.3283,-183.2322,88.5003,0.5956,120.0716,160.3184,86.5114,94.4606,-92.7090,-91.7788,11.9484,67.0511,148.7370,90.5261,-53.4169,28.8049,82.7179,-67.7525
-3914.0625,282.2047,-184.0459,91.2236,-179.5673,54.0776,-70.9482,232.0563,88.2964,90.0160,97.0283,123.1290,-126.4724,-21.2299,-41.5713,-69.5592,-53.1447,-154.1439,-108.2919,85.3437,-65.1025
-3906.2500,-45.6473,-225.8989,7.7461,-255.9680,43.6149,-118.5545,222.0096,77.2092,154.4601,123.5295,10.0348,-100.2286,41.5417,-16.2554,67.0924,-25.8720,-125.9098,-46.4438,181.9315,-38.4985
-3898.4375,-176.9027,-145.1222,19.9226,-209.7180,167.8301,-31.5054,233.6225,52.7667,94.5492,-47.3338,10.1409,-50.3452,128.9847,-4.3064,80.4132,-12.9538,-78.0017,-34.9340,-17.8351,-62.2420
-3890.6250,422.6134,-209.6753,58.8166,-274.7803,22.7482,-66.7606,235.9510,-18.9905,-12.6573,-8.5058,172.7135,-85.7855,57.1283,33.3203,9.4247,-9.3462,-178.3978,-65.7365,56.1258,-23.2807
-3882.8125,-323.5180,-249.8674,-92.9079,-242.4638,91.0720,39.3787,119.6904,49.6518,93.5667,96.7280,-92.9011,-16.8391,89.6750,27.3472,224.8603,22.6647,-75.3772,105.8660,51.5247,-27.9158
-3875.0000,129.0633,-216.3756,54.0729,-138.4647,91.1220,38.2210,156.1497,47.9950,20.4869,22.6374,106.8081,-91.2052,89.9257,-84.9399,40.9939,-49.6281,-75.6433,33.1631,-55.3782,-64.8503
-3867.1875,68.7089,-238.9057,31.0528,-90.4888,68.1766,15.0564,21.6230,24.3290,-1.6108,-0.4645,70.5672,-77.5895,67.1861,1.7612,18.1275,-35.9235,44.0871,116.4528,26.7416,-87.7744
-3859.3750,-249.0066,-201.7615,72.7165,87.1747,219.9480,56.5892,-11.2006,28.3662,77.0163,-142.8654,3.9558,-37.2877,72.1568,4.1553,22.9925,-140.5210,152.5318,117.4462,-42.4192,-156.9953
-3851.5625,406.3493,-141.6409,244.4012,77.8317,170.7234,7.1064,49.9972,-57.6101,-81.3486,-192.2705,231.1186,-50.0010,-13.8832,-82.4702,-99.1589,-189.1303,37.9745,2.4236,-52.5617,-132.2144
-3843.7500,-206.5624,-153.7990,119.8363,66.2195,193.2551,29.3601,-2.0504,-35.8435,-93.9493,-132.9193,14.3258,9.0310,45.8262,11.6533,70.4492,-55.9874,97.1783,95.1482,-64.9218,-109.6790
-3835.9375,161.4749,-135.0232,211.2389,50.5468,138.7605,121.5637,52.8663,-55.1321,-111.6115,-224.6449,155.7420,-9.9935,27.4986,-7.2759,-57.9894,-109.9025,12.3517,43.8141,-116.3423,-91.1912
-3828.1250,225.4040,-139.4648,58.4695,-58.3490,-13.9352,115.5539,46.6038,-24.6352,-42.4948,-83.5914,98.0317,-15.2297,-14.0332,-14.4086,9.3662,-78.0276,-60.6789,75.2662,91.0476,-59.8945
-3820.3125,-265.5238,-64.7361,-46.1080,51.9342,64.5827,157.7413,51.5496,16.0621,73.8419,-78.3363,-61.3169,25.7256,64.6454,-47.3491,125.9538,-35.9521,15.4995,113.9219,-46.3342,-91.3938
-3812.5000,456.5018,-8.1348,48.2285,109.1024,-60.9950,104.8287,109.4182,-73.3414,-14.9143,-94.1847,152.1227,-26.4402,-23.7745,-101.4060,-36.5664,-13.9934,-102.4296,-40.5387,-59.7926,-69.9902
-3804.6875,-111.0794,-11.1665,-67.0426,71.6462,-66.1740,136.3102,-6.2997,-5.3433,17.7386,47.3735,-83.5120,4.7827,-65.7951,2.9389,105.3308,92.3621,-68.9610,26.3973,42.1898,-38.1816
-3796.8750,-7.8354,-9.3660,44.5486,38.0303,9.5192,174.6401,-5.1611,68.5032,-52.7530,12.7657,-2.2987,5.8489,-63.9539,3.1289,-2.9154,57.5607,-135.6265,28.1729,-96.9736,-36.5212
-3789.0625,178.3536,-102.7331,56.0215,-159.7526,-53.9385,147.8107,41.8377,42.1790,-78.4010,95.9960,47.6503,-58.2451,-90.2706,49.1607,-29.3325,68.5941,-192.4485,75.7842,56.7287,10.9947
-3781.2500,-403.3578,-84.9694,-35.3603,-210.4005,112.7705,130.1281,-13.0048,134.0018,52.0966,115.3703,-150.3506,-39.1968,-70.4274,67.3409,63.4323,125.7800,-67.1069,93.5518,74.5948,-6.3353
-3773.4375,339.2763,-6.9284,81.5761,-168.7527,46.7923,26.7463,67.4691,67.1178,-87.1226,49.0192,103.7089,-106.8598,-100.2783,-1.1837,-113.5020,96.2563,-129.4635,-75.3928,46.7598,0.6388
-3765.6250,-32.1152,-23.9682,-120.5313,-115.1744,-9.2394,-66.6974,47.9011,47.1766,5.6138,66.6194,-82.7196,-52.5806,-82.1858,52.2444,52.5140,188.6761,-73.8653,13.6034,134.9141,18.5701
-3757.8125,-13.9384,-38.4354,-25.0331,-23.0125,50.3484,-44.5450,105.9450,-5.1678,-8.0407,-22.1869,-20.5727,-30.7011,-22.4843,-0.7278,1.1417,174.6812,18.3441,-35.8026,-55.3185,4.1009
-3750.0000,433.1343,-118.1293,75.2870,-67.0740,-34.2633,-91.6040,131.8131,-89.7186,-91.9050,3.7972,120.5867,-42.0398,-105.9811,-12.9111,-155.4456,201.4716,-23.6646,-45.4214,42.2665,30.4356
-3742.1875,-312.1871,-157.1996,-37.7521,-69.5053,110.7873,-21.0126,129.3325,-19.6177,53.8861,111.4297,-118.4657,-7.7348,-71.8263,-53.4351,-11.3550,125.9127,79.9836,127.6196,73.5229,-8.5757
-3734.3750,308.6705,-97.1398,136.3835,-43.7925,101.0071,5.7324,193.0099,6.6267,-28.1802,28.1944,127.1796,-129.2864,-118.5246,-210.8079,-132.1260,42.4843,-69.2049,11.8008,28.9310,-18.4376
-3726.5625,39.6420,-151.0563,39.5869,-134.0497,4.2773,-18.4878,95.7575,18.9114,59.7887,151.0077,0.2576,-188.7976,-104.1796,-125.1319,29.1453,167.0981,-123.3409,62.0155,185.4137,31.7541
-3718.7500,-240.7628,-45.3398,-69.5559,-61.6792,6.2186,56.9361,23.1733,129.8461,135.4016,189.4598,-94.5171,-114.6585,-29.1703,-88.8049,104.0880,-14.6484,-154.8234,98.8727,116.5539,33.5974
-3710.9375,255.5335,-38.0392,-63.0825,-88.7341,-134.2414,24.9471,28.2042,98.3741,68.6051,231.4937,24.3030,-108.9258,-95.5652,-47.8755,36.6177,-45.8122,-215.7244,0.3081,159.3134,76.0467
-3703.1250,-373.8453,-33.4162,-205.2714,-83.4618,-92.3542,-43.7018,-40.4085,65.2484,147.1790,272.8779,-204.8011,-32.8458,-18.6117,-8.5821,188.5183,143.3706,-69.2732,41.0892,199.4638,80.8511
-3695.3125,226.4408,42.8474,-51.7960,-6.5517,-85.7971,-109.6998,2.6422,-2.2311,118.4035,168.9005,22.8949,-63.1227,-48.0066,-75.6440,-24.9300,41.1879,-132.1749,-94.4884,100.2633,51.3062
-3687.5000,235.4561,53.7446,-40.6569,-66.0115,-147.5938,-136.0586,13.3561,-29.0685,20.2505,179.5654,12.7940,-52.7603,-72.7542,-30.0493,23.2605,52.6427,-119.4448,-83.4210,146.7303,62.4193
-3679.6875,-106.9694,99.2248,9.0753,-18.8886,11.2312,-87.8178,25.6700,19.7009,-3.3085,44.8292,-33.3262,33.2024,13.1096,-18.8602,36.0698,-8.3083,-36.1091,-107.7486,17.8131,38.1353
-3671.8750,475.1977,15.1909,30.3305,2.7160,-113.4383,-140.0821,120.5103,-34.0313,18.6254,-8.4125,126.0707,-20.3469,-75.5316,-36.2161,-125.6345,-60.7781,-84.2877,-191.5869,144.4108,59.3532
-3664.0625,-182.9746,-9.2073,-140.7733,-21.0524,-65.4614,-91.7063,21.0183,13.8843,68.2242,40.0053,-108.3563,27.7453,9.4789,48.0551,69.3278,-11.6061,70.1750,-108.7793,156.6944,71.2220
-3656.2500,216.0249,41.5529,20.2787,30.3170,-14.3194,-41.1868,-1.3102,-9.0522,-136.0356,-165.4446,90.9251,78.9828,61.6444,61.4846,-26.5514,-105.3085,86.7931,-199.8376,-108.8737,86.2373
-3648.4375,374.7391,-44.0790,1.9466,-54.7343,-142.5833,-60.0830,-93.0269,-64.4040,-43.7257,-111.3100,102.0154,58.8109,6.4017,40.5255,28.1567,-50.4295,1.9999,-180.3166,86.1697,140.8551
-3640.6250,-207.4699,-132.6102,-51.2903,-107.7000,23.2649,-40.8842,-110.6446,-45.6523,85.6796,-55.0836,-51.6370,40.7366,99.2612,21.6775,158.9820,-31.4624,57.3126,-92.6953,140.3268,123.5744
-3632.8125,429.2100,-127.3436,61.2991,-171.8836,-8.0790,-74.8906,39.5520,-117.1086,-56.1318,-199.0773,185.3771,43.4564,102.9227,-11.3705,15.5894,-63.7194,-40.5882,-157.2921,6.2748,164.0948
-3625.0000,-157.5210,-185.5347,-36.5574,-158.5374,76.1244,-64.3624,51.2982,-143.0253,-44.4054,-151.5280,4.3032,90.7221,188.1334,35.1490,210.7609,-15.4377,9.0521,-74.3485,18.7979,212.1675
-3617.1875,7.9854,-194.4788,28.8442,-96.9465,103.5904,-36.5879,42.2978,-152.6942,21.5746,-123.7470,80.6341,9.2381,179.5933,-12.0672,128.1929,-97.9251,1.9513,-153.1644,10.5771,203.4886
-3609.3750,381.9464,-240.0810,16.6127,-213.0240,-54.6033,-159.4735,29.6673,-166.0219,82.8854,-26.6252,157.8431,-77.8976,130.3839,-25.9207,115.9512,-73.0846,-42.8154,-199.6459,175.7246,228.1630
-3601.5625,-173.0753,-160.6596,-9.5834,-204.0738,66.2579,-149.3120,40.0947,-83.2888,130.2458,-126.4433,-1.5821,-67.9770,178.2275,-16.7037,273.7778,-25.2014,72.4656,-155.0748,79.9433,201.8901
-3593.7500,452.2496,-61.9704,167.5301,-209.8411,-12.5751,-155.8438,69.8426,-126.2509,15.9030,-206.9689,231.0975,-111.7599,135.3717,-61.1755,83.8931,-68.0358,-0.9734,-302.2147,74.4692,195.9172
-3585.9375,77.1002,-84.8306,34.1423,-232.1431,-73.9092,-180.8836,-27.8880,-78.7108,138.0578,-120.9853,66.4204,-100.0450,148.0171,-13.1308,244.5171,-55.3752,47.0678,-254.8605,263.5327,208.4489
-3578.1250,88.0480,-36.5790,48.9029,-182.3154,51.9323,-165.7735,-12.4552,-101.0104,154.3714,-216.8537,104.3412,-85.1738,200.8214,-72.9188,186.3112,-113.5739,97.2531,-241.3587,136.7611,187.1310
-3570.3125,598.6281,-52.8063,141.2362,-233.9598,-1.6727,-258.1276,79.5423,-192.7675,28.2257,-161.1765,262.8951,-139.7564,109.1662,-128.1454,58.6416,-167.2421,47.9649,-222.3228,192.5554,206.3686
-3562.5000,-67.5829,-84.8132,109.8181,-230.3701,149.9822,-216.2394,47.7914,-151.2711,106.3350,-156.2465,59.0182,-136.0815,114.7578,-125.1071,211.2461,-161.6695,228.9312,-78.0312,125.6178,174.8603
-3554.6875,500.6805,-113.3999,302.8708,-187.3354,122.1077,-244.8976,92.5027,-217.3257,78.8748,-221.8877,277.5276,-200.9571,49.7993,-227.6079,35.2965,-153.6607,167.3473,-211.2994,98.1210,146.8053
-3546.8750,216.8554,-149.1777,155.7780,-328.4742,48.0718,-208.7147,55.0791,-181.5278,116.2440,-112.6694,131.1837,-201.9833,49.6897,-192.2402,183.1996,-79.8049,203.5862,-141.7278,274.4972,146.6103
-3539.0625,-78.5273,-91.4853,71.1661,-306.1295,148.5472,-73.0327,118.1626,-120.2190,143.1156,-197.9413,60.8664,-140.4981,150.0903,-168.3454,171.6288,-164.4518,228.3156,-83.6554,122.3809,98.9214
-3531.2500,545.5706,-99.4173,100.9668,-207.3996,-6.5848,-44.9582,147.6694,-165.5099,25.3670,-168.8212,247.3119,-185.6075,105.8827,-177.0256,-19.5578,-208.7161,186.4174,-127.2030,115.6690,91.6434
-3523.4375,-62.7573,-74.7832,57.3578,-5.0905,60.8766,-16.2862,-7.2189,-136.1870,19.2184,-176.0923,56.8411,-156.1059,135.2678,-112.0789,84.8755,-141.3849,391.1033,-66.1472,72.5806,47.9772
-3515.6250,522.2149,18.1214,267.0551,193.5024,50.6472,-101.3115,-54.7977,-221.5528,-101.6372,-334.0607,285.8247,-168.2955,87.9538,-196.8153,-36.3935,-188.7688,415.0770,-218.7946,-80.2065,0.6161
-3507.8125,533.7020,-4.5549,280.2145,171.5237,-47.1447,-197.8976,-78.9194,-246.4745,-88.0599,-285.5704,258.7803,-156.0317,28.0847,-185.0862,86.7789,-175.7121,394.4750,-206.0006,39.4849,13.7117
-3500.0000,30.8372,56.4519,199.0611,198.2335,91.7763,-169.7841,-13.3357,-218.6953,-58.7777,-257.3839,103.8251,-92.0534,92.9207,-158.6265,189.6761,-147.9621,352.5676,-178.5052,-74.1155,5.5086
-3492.1875,590.0135,88.4018,119.8701,89.8805,-96.3535,-176.7225,91.2169,-225.9667,9.4339,-227.2642,221.9492,-62.1233,50.7021,-165.1991,36.5115,-80.2860,69.5802,-287.0747,29.2250,73.2589
-3484.3750,-89.0491,44.0858,-110.5843,-24.7483,-106.7447,-150.9190,6.5202,-163.4753,183.3802,-18.3786,-63.3431,-36.4318,77.2261,-66.9939,173.1055,19.1333,97.3249,-155.8927,197.3369,99.7637
-3476.5625,174.7261,-8.3885,19.8129,30.4654,-49.2786,-57.2657,27.6775,-143.1205,-15.8356,-34.6384,62.7624,-52.8783,24.6041,-83.9181,10.5504,-33.6121,117.9081,-100.8630,6.2931,84.1150
-3468.7500,366.1849,-62.2749,110.8221,11.2639,-68.2296,-41.0210,-28.5469,-164.1606,-217.4724,-90.2978,150.9287,-72.7208,4.5654,-32.2180,-45.4207,-16.7768,171.0638,-50.2436,23.8569,101.0655
-3460.9375,-157.1533,-57.9267,118.0621,52.3012,48.0748,1.4803,-94.5188,-120.9336,-136.8650,-120.6988,11.0022,-30.2971,48.7751,-26.2355,71.8805,-9.6993,283.4598,25.6342,-74.3263,71.2647
-3453.1250,496.1844,-0.9816,177.9104,-32.0642,-39.0150,-12.4220,-35.8840,-99.0998,-112.6746,-98.5136,213.1384,-81.2558,-1.4239,-113.6383,-88.2380,-60.0443,25.4353,-58.9009,-17.9212,58.0632
-3445.3125,-154.0922,-17.6844,-130.8867,-188.0958,-17.7606,-28.9852,59.0917,31.0797,91.8487,69.0200,-69.4430,-23.8460,56.7181,-94.6602,115.9894,34.9425,-129.2597,65.9128,213.8476,42.2150
-3437.5000,-157.9948,13.0100,-133.2729,-226.7378,127.9134,5.8509,204.4720,101.6617,126.7613,-7.0491,-33.8809,-26.0259,128.2652,-97.2594,77.6185,-3.6863,-202.5699,27.1280,35.0094,3.7606
-3429.6875,221.6890,-27.8188,-103.1473,-231.9034,48.0809,-38.8200,234.3732,57.7513,47.1522,22.3921,61.4678,-107.7095,48.3066,-105.3383,34.7270,26.1665,-171.4132,-13.1616,65.6791,33.8048
-3421.8750,-375.2739,8.7342,-99.6436,-53.6838,125.6542,1.9150,90.6844,60.2580,14.9340,26.2493,-118.1087,-66.9798,52.7473,-64.9795,149.2582,30.4062,78.1333,93.9568,-37.2464,1.2445
-3414.0625,278.8147,30.2909,108.8678,109.5353,76.2321,25.6517,78.0087,10.7814,-144.3101,-23.8974,136.9262,-117.2369,-33.8217,-152.6025,-84.2235,-130.3760,66.6570,46.0601,-84.1876,-11.3214
-3406.2500,-229.6420,-126.7525,-16.2180,94.1316,25.1939,82.7814,26.7408,67.7133,-12.1580,70.3709,-52.6588,-96.0853,-12.0174,-94.8042,47.6920,-34.7651,87.5418,136.5587,148.2874,-26.4906
-3398.4375,-449.6846,-170.3426,-21.8637,86.1652,129.6079,186.3653,130.9257,135.1191,55.4514,-82.8998,-75.6808,-29.4673,92.2245,-101.5308,79.0655,-40.7117,81.8549,128.5060,-69.7879,-69.2177
-3390.6250,263.8760,-88.4266,61.0019,-8.3185,29.5060,159.4439,103.6188,70.0317,-154.4651,-183.6611,153.8419,-19.3382,64.9516,-92.7337,-58.0824,-68.1754,-46.3746,68.9317,-93.3619,-22.4474
-3382.8125,-222.4321,57.6436,-4.0093,-2.6683,73.5427,202.6687,-72.5407,77.1065,-110.2373,-66.2575,-38.2194,23.9575,35.8264,-48.7576,22.9378,-60.4930,30.5298,180.5167,-86.7771,-51.5289
-3375.0000,355.2949,108.7245,126.9780,84.9833,57.5818,148.8921,-15.6931,23.1926,-89.0203,-82.8633,154.4595,-66.7349,-53.3026,-102.7610,-177.0486,-150.8234,-21.5914,57.0951,-103.2116,-104.6177
-3367.1875,176.8435,106.5555,51.7132,118.3719,-17.6471,73.8564,-53.0891,21.0321,-53.0686,-48.7131,49.7757,-31.6694,-91.6941,-68.9823,-104.2964,-115.4208,119.0077,90.4168,-33.8871,-105.9607
-3359.3750,-58.8027,223.2437,65.2955,270.6006,106.9823,122.6726,-113.6375,33.7403,-150.2714,-182.6954,19.4759,18.2658,-5.2411,-56.3215,-54.6829,-176.1856,237.4404,66.5926,-197.7234,-129.4627
-3351.5625,617.1038,195.3968,108.3511,243.2696,2.0494,54.9323,-107.7241,-35.0909,-217.0569,-140.2302,214.6841,-50.3299,-72.3566,-87.1908,-195.6405,-133.5187,34.2838,-31.8005,-48.1335,-86.5172
-3343.7500,-168.3338,114.2114,-123.9631,92.5712,64.7456,79.8395,-119.1649,63.7385,-7.2061,31.9021,-86.0628,-25.2522,-9.8333,-62.3744,14.0614,38.8036,-9.2517,64.4563,83.1153,-60.9209
-3335.9375,173.0454,103.8429,-24.4891,11.6715,127.2364,104.5487,53.1862,88.3834,-92.5648,-53.1590,77.6547,-73.3539,15.4828,-111.7213,-107.4424,-9.0833,-159.0087,-16.4937,4.1391,-35.5272
-3328.1250,151.4097,46.3820,-86.1183,-44.3276,-7.3967,43.1539,-7.5701,99.9339,-43.0589,68.6919,27.2140,-61.5409,-9.3148,-63.1334,-21.0625,2.9143,-178.8971,67.4511,89.0533,13.7689
-3320.3125,-378.5337,79.6822,-86.0093,58.4274,139.7223,115.5123,-81.5927,136.2473,31.1838,-4.6992,-115.4423,-24.9517,27.6421,-26.7609,89.0891,2.6499,-75.0535,206.1584,-88.2942,-23.1913
-3312.5000,219.1479,80.5439,62.6684,130.7330,104.3852,116.4240,-6.0592,63.1199,-115.0447,-77.5517,90.5476,-60.7937,-81.8620,-25.8194,-166.2347,-33.0802,-107.6932,172.4027,-121.1191,-21.6083
-3304.6875,-428.3549,30.2106,-23.8620,116.8251,201.8339,139.1317,17.2686,85.8020,-91.4946,55.4079,-122.2234,-1.8164,-58.5737,32.9612,-69.7571,-10.0179,-49.5513,228.4528,6.8572,-35.2284
-3296.8750,-166.4127,11.3428,68.0519,98.3717,219.7326,157.2923,72.0429,103.9508,-109.5015,73.8251,-2.5214,16.6295,-39.8400,-58.7816,-124.8330,-65.5257,-172.9756,104.9578,-81.7355,-53.4068
-3289.0625,55.8128,-12.3243,-33.8291,4.1153,-29.1891,127.6516,81.0246,111.3083,-100.3275,155.4574,-11.9678,61.2862,-104.9196,58.6943,-79.7248,-57.8499,-336.2387,80.6602,71.8700,28.6058
-3281.2500,-571.4293,63.6077,-173.1301,45.4621,14.4899,207.6119,13.6114,228.2846,53.4448,124.7114,-227.8237,104.5715,-62.3990,138.8026,-108.9998,-51.5766,-222.9249,192.9733,79.0673,35.2070
-3273.4375,163.4925,59.6687,8.6787,6.9083,13.2608,131.6726,122.2983,115.3792,15.2954,-23.9368,49.6856,28.9774,-100.7869,-9.9611,-404.2017,-53.2219,-120.5494,48.3743,41.3326,-3.1005
-3265.6250,-261.7401,-154.4483,8.2734,-101.8645,123.8071,20.5297,159.7729,41.2881,88.9235,86.2319,-78.1532,-44.7924,-63.3878,-47.8814,-110.6081,93.9336,52.5870,9.5745,179.3909,-76.6095
-3257.8125,-197.0003,-194.5516,117.8559,-106.6392,233.3503,-54.6066,232.2408,3.2219,161.5312,84.4086,-9.8215,-45.5313,-27.9919,-122.7557,-38.0129,-17.9151,49.7009,-65.2165,105.4209,-151.1257
-3250.0000,149.7254,-163.7493,76.3442,-145.5163,80.7691,-96.8335,226.6117,-2.9323,120.0133,79.4922,53.6264,-14.3479,-69.7123,92.3033,-116.5450,-60.8807,-94.3276,-69.1106,137.3353,-119.7469
-3242.1875,-549.2495,-124.5860,-174.8378,-106.0368,87.5301,-17.6991,122.3251,113.2890,199.8327,84.9382,-244.9079,102.2134,-27.0860,429.7475,74.2816,19.4962,-124.0217,6.3660,72.5811,-150.0257
-3234.3750,41.5155,-96.7014,-107.3067,-147.8475,-67.0064,-24.8502,115.7411,69.2274,9.3186,42.0800,-75.7284,169.4941,-70.7684,717.9181,-80.2115,-24.4430,-305.0436,-71.4524,-4.5164,-156.6175
-3226.5625,-323.6768,-110.8103,-233.7823,-161.6708,-155.5567,-41.0026,-9.8411,54.1825,30.7936,173.2446,-266.9356,263.7938,-122.4677,923.1261,15.2902,33.6093,-283.1090,55.7305,88.3822,-135.2193
-3218.7500,-479.6204,15.3873,-247.9767,34.7931,-132.8059,55.1514,-134.1261,112.4698,-20.4231,232.7281,-323.9144,360.4200,-136.8729,797.6713,-35.8943,91.9608,-227.8964,76.2143,-136.4389,-149.5357
-3210.9375,102.4297,70.4964,-228.2628,125.1565,-297.1689,36.2010,-225.5097,94.6669,-331.7696,324.1158,-150.5823,378.9661,-155.3913,743.1509,-201.2073,184.2010,-346.8233,96.5815,-220.3837,-93.9624
-3203.1250,-605.9514,171.2190,-379.9697,226.1214,-264.9483,104.8559,-377.3100,199.4836,-409.5286,430.1249,-401.6415,521.1414,-86.3133,885.2701,-57.9085,216.0434,-316.1775,197.5633,-330.7399,-98.7980
-3195.3125,-68.7729,251.5175,-257.1280,236.6540,-326.1819,80.0669,-327.5612,211.8669,-397.7455,331.6951,-213.4200,533.8897,-147.6962,787.9688,-230.0744,117.4239,-481.0120,137.0924,-354.5837,-123.0960
-3187.5000,-188.7901,236.5747,-344.5406,115.9371,-377.6924,65.0275,-342.0666,234.0178,-155.2311,354.0390,-314.5201,556.4075,-236.3469,773.4509,-280.5044,139.5472,-459.1333,158.3734,-122.6892,-137.6519
-3179.6875,-486.3167,220.1927,-286.4095,170.7768,-208.6548,123.5477,-320.0323,255.7465,-169.1793,302.9434,-362.1870,615.5050,-213.4479,722.5229,-331.3773,125.2159,-299.7175,177.2233,-244.2810,-188.6717
-3171.8750,126.9378,200.5222,-159.5534,151.3161,-266.9265,101.7743,-304.2927,198.1958,-410.4593,392.5392,-161.4712,594.3172,-307.8606,627.3193,-425.5858,103.5728,-353.6327,122.7706,-157.2099,-173.0054
-3164.0625,-563.9730,177.7099,-292.8568,198.6946,-215.3616,78.8535,-362.7096,248.5157,-175.9019,443.0113,-404.9845,572.0056,-257.4349,642.0016,-190.9375,154.7878,-235.7287,205.1767,-74.3005,-195.4993
-3156.2500,-89.7432,266.0707,-162.0206,252.2269,-158.6528,61.0932,-270.9839,231.0065,-120.1993,204.6558,-199.5647,518.8740,-237.8674,550.8737,-319.1443,26.1453,-252.7060,117.7338,-267.2762,-212.8579
-3148.4375,-16.8940,233.0022,-234.6400,184.3182,-304.4265,25.8868,-305.7109,196.0612,-191.9699,316.8662,-198.9813,446.3156,-199.7647,516.3323,-243.8211,138.0390,-318.1672,120.8472,-52.7329,-174.6766
-3140.6250,-546.8624,230.2019,-346.0221,287.6845,-233.9551,95.9470,-381.2094,229.3964,-231.5131,351.3435,-370.4203,481.0352,-128.4185,551.0782,-99.2401,172.1894,-180.3928,223.2363,-159.9781,-177.2588
-3132.8125,153.0233,227.2208,-204.5856,354.8659,-274.6958,127.8168,-311.9143,151.5510,-382.2862,199.6263,-125.4829,476.5793,-207.2900,472.6500,-250.8936,57.1356,-183.8547,185.4223,-303.4549,-145.0543
-3125.0000,-455.5433,251.8009,-288.6081,344.5861,-213.9075,115.2340,-287.0801,176.2784,-247.5089,187.4834,-339.1464,501.6973,-219.6220,497.8122,-114.9940,44.6351,-87.7997,315.1582,-208.3884,-120.3102
-3117.1875,-302.2798,265.2591,-163.7960,358.1618,-124.2728,93.5162,-162.4016,117.8765,-195.8869,166.1935,-231.5764,407.6946,-204.1050,329.8627,-247.2434,22.9746,-73.9149,223.7459,-194.5109,-141.7288
-3109.3750,-36.4721,180.1953,-180.5390,202.1961,-251.2164,40.2546,-105.2764,100.9325,-101.8485,333.3668,-179.2927,280.1703,-257.1594,240.3922,-299.0703,79.7607,-194.6233,137.7808,107.7836,-121.7037
-3101.5625,-594.1714,149.7070,-247.7630,136.7945,-97.6256,46.5508,-62.6228,144.5633,124.7388,303.1165,-325.0741,214.2294,-140.6685,173.5136,-146.3385,122.1032,-153.8049,178.3830,112.5993,-152.1375
-3093.7500,209.2159,108.2927,-69.9318,60.4627,-141.9986,75.9068,41.0722,137.2667,-65.6465,148.9250,-2.2821,133.3659,-111.1381,129.7128,-263.5854,41.4883,-263.9732,67.0356,-68.5814,-122.5326
-3085.9375,-257.1301,29.1441,-156.8586,-19.6151,-118.1448,62.5213,-44.9971,161.2374,-152.8058,172.9945,-161.4651,157.7822,-50.3696,191.2034,54.4067,102.1268,-133.9142,162.9523,-78.5420,-61.6866
-3078.1250,-236.0186,86.5195,-58.2960,73.8274,-19.7858,86.6535,-131.5797,112.7306,-201.4841,124.5723,-105.8965,145.7296,-26.1077,106.2329,4.8929,52.2624,-75.3693,115.3844,-126.0506,-74.3563
-3070.3125,242.9239,108.6707,-0.9814,25.0268,-110.6977,-40.4607,-147.4170,58.9895,-180.4380,181.9170,35.0638,130.4510,-80.1169,16.0360,-157.8995,72.1386,-194.1129,-3.4356,72.1653,-17.2870
-3062.5000,-395.7855,138.2489,-82.2913,-15.3768,-44.2258,-11.1626,-117.8701,88.6727,-4.9933,100.6836,-170.6627,160.6012,-13.7385,46.2790,18.7230,138.4299,-94.4791,26.1586,-4.2434,12.1721
-3054.6875,259.5367,125.8533,88.4001,-27.7697,-94.7634,-62.8531,14.6673,1.3790,-19.5665,13.4512,70.9672,72.7788,-65.3658,-40.4475,-69.6794,13.7240,-176.8799,-92.2455,-51.7007,34.6199
-3046.8750,-25.1985,17.3687,-27.0117,-66.2631,-98.4268,-67.6403,-26.9055,-2.9963,49.7381,119.1423,-41.2936,69.8791,-33.1070,-7.2367,36.8001,-28.0716,-109.4194,-24.7444,121.7183,66.9593
-3039.0625,-222.5514,30.3507,-11.9902,17.7095,-11.6446,-15.9685,-12.0447,12.1105,101.4918,61.3049,-64.0559,11.4615,18.5979,-102.5370,88.7366,-87.4122,-61.5273,24.2208,64.5501,44.7346
-3031.2500,308.8177,-34.9868,66.6864,-12.6561,-80.2334,-48.6427,29.4641,-20.1173,68.8783,-44.8737,103.1754,-57.2830,-51.0639,-169.1618,19.2940,-83.1143,-57.0189,-42.1692,103.9970,49.1483
-3023.4375,-307.2032,-53.6475,47.9866,38.6397,10.8102,-67.6553,-63.3916,-1.6726,159.9089,-100.3788,-74.6397,-38.3514,3.9110,-115.1043,221.5064,-102.1590,170.1167,10.1150,120.0732,30.1999
-3015.6250,284.7287,11.6636,227.2399,33.8996,5.7964,-109.6958,5.6908,-80.2530,44.8787,-140.9233,177.7451,-79.4453,35.8257,-228.0662,69.6573,-179.2508,95.1747,-135.6504,45.0509,25.1840
-3007.8125,213.9621,11.2324,150.7468,-37.5905,-33.9975,-147.4751,-33.9887,-45.5660,-31.9235,3.8006,122.1991,-81.2685,32.9766,-229.7399,140.0390,-73.0774,23.4412,-66.1608,79.2452,59.4087
-3000.0000,-187.0734,-2.3815,101.0405,-15.2671,100.0041,-89.4370,-47.8855,14.9485,-8.9374,-46.6627,12.7980,-20.2573,92.9241,-168.5735,200.2233,-87.0977,80.4948,-44.8492,-5.8030,45.4225
-2992.1875,376.1069,-72.8155,209.4875,-15.7713,-48.8589,-90.2376,-84.6370,-96.3701,-10.8271,-83.9697,186.9530,-58.0763,17.0081,-132.2395,51.5265,-123.9757,44.6725,-149.3863,100.2535,80.5767
-2984.3750,-282.0832,-62.5701,72.5638,-5.6073,-3.0912,-80.3816,-111.7556,-86.0191,146.9183,-73.6063,-50.2083,-10.2229,63.7318,-85.2279,245.4786,-78.1927,160.4811,-69.2545,144.9359,90.3704
-2976.5625,179.5071,14.5098,152.4324,0.3803,2.4744,-110.7175,-33.0861,-115.8471,78.4542,-177.4326,117.6030,-40.5458,69.2587,-151.3956,141.2156,-36.6045,96.0725,-203.3209,9.3655,95.9474
-2968.7500,365.7038,-10.8502,13.8526,-164.0829,-135.4298,-212.5054,12.1306,-107.1107,49.5363,-21.6899,92.1916,-103.2981,4.3252,-141.9880,186.4812,119.5367,1.1726,-157.8380,195.3231,141.0590
-2960.9375,-193.3286,-77.3477,-90.9003,-195.6909,15.5145,-134.4310,53.1934,-65.4997,201.4717,-53.0754,-60.5201,-61.1697,119.2420,-135.6914,301.6129,50.5339,109.1065,-49.4884,163.0931,109.0041
-2953.1250,442.0474,-108.4714,20.7048,-192.9285,-18.2040,-94.9867,166.6023,-98.5222,167.7255,-160.1170,176.1078,-130.6688,84.4977,-206.0221,83.0680,-93.1207,5.3636,-116.7868,130.1602,111.2864
-2945.3125,-119.9774,-142.9638,-14.1135,-191.5527,18.6490,-93.9300,130.5918,-60.9288,204.5710,-48.5379,6.2830,-165.5421,122.3386,-203.7269,231.1159,-56.1614,76.2020,-45.4721,200.8116,112.1596
-2937.5000,109.4636,-122.9245,116.5493,-137.6560,112.9977,-74.3486,114.0620,-76.8112,151.9209,-100.4455,124.8301,-180.8933,105.6731,-254.9099,104.6533,-108.6949,59.5299,-131.6478,113.9179,95.5168
-2929.6875,411.9279,-137.9074,137.1693,-151.7997,59.2718,-126.8086,97.4738,-128.7325,98.1893,-79.3950,202.8650,-232.2778,51.9470,-233.1190,51.1097,-88.2760,9.7789,-145.8719,203.9323,115.8147
-2921.8750,-197.9656,-79.1750,51.4760,-58.2352,194.2397,-65.5576,85.5643,-102.9326,123.1448,-237.6339,27.4314,-132.9395,150.9208,-207.5943,223.2806,-100.1400,173.7132,-52.3770,15.6146,103.8024
-2914.0625,459.9322,-88.6671,225.5380,-67.9058,147.9509,-39.5463,222.3979,-186.3628,-34.1517,-358.1177,280.2909,-178.8339,103.6363,-252.3070,66.1763,-184.2570,93.3671,-96.1329,-28.9934,93.5250
-2906.2500,-26.0570,-186.0366,124.6869,-129.4720,155.7410,-30.4278,194.3259,-103.6763,47.6471,-164.4768,102.4493,-205.6144,112.4370,-168.8994,148.1633,-175.2644,170.0962,16.2263,117.4743,65.3375
-2898.4375,-22.4040,-216.6759,241.5148,-21.3187,272.2297,13.4137,200.9404,-97.2579,54.1301,-231.1223,172.4952,-234.6700,154.9388,-234.7682,80.8534,-279.5617,278.5119,-15.6995,-21.4082,-2.1639
-2890.6250,462.2712,-224.3353,269.2947,-29.2036,153.6398,-31.7879,229.4951,-141.8738,81.5470,-275.8092,308.6263,-315.7632,109.3800,-315.6765,36.4654,-250.9032,199.8460,-58.6754,40.6277,-10.7255
-2882.8125,-300.3522,-247.2280,98.8010,-52.3402,203.7923,17.7693,241.7840,-53.7188,315.7192,-224.7284,43.2222,-301.0892,196.5705,-300.8079,269.8358,-165.4711,210.9192,23.1149,16.3874,-34.5494
-2875.0000,243.1966,-195.9500,226.4611,-70.3134,220.0999,34.5010,332.2151,-73.3928,111.0163,-244.4954,247.1567,-283.2523,175.9147,-319.7746,102.3301,-184.8922,121.1214,-135.9358,-142.7621,-18.2350
-2867.1875,53.3769,-209.0577,208.7189,-84.6790,127.9869,-19.1568,204.2282,-90.4529,56.8977,-150.6439,162.5436,-262.8058,157.8531,-262.1263,195.4115,-92.7036,141.8971,-114.3799,16.6683,37.6729
-2859.3750,-172.1691,-223.7940,193.3049,-99.6731,186.2232,2.5457,225.5696,-68.1456,262.1444,-129.4241,95.0775,-312.9888,179.1398,-312.1099,253.8531,-71.1470,161.0188,-129.4641,0.4211,21.9168
-2851.5625,391.2630,-291.6029,192.7987,-237.7426,75.3459,-71.8467,408.8032,-103.9306,261.2709,-92.3074,259.8398,-386.2569,178.3159,-311.1778,142.1613,-34.6894,21.0173,-197.6547,-33.9730,58.0494
-2843.7500,-297.0818,-311.1399,23.5252,-257.5506,199.7074,-19.9783,386.2733,-52.4526,275.6290,-76.9267,41.6369,-296.2513,303.7415,-221.9710,304.7228,-19.9709,71.2564,-77.5813,-90.1470,72.4227
-2835.9375,184.8212,-250.4029,160.4947,-197.0986,189.3146,7.1609,338.9904,-61.7096,191.2412,-233.2955,224.0668,-267.9777,256.4159,-230.5036,146.5250,-138.9966,60.7280,-157.2530,-171.1130,62.0319
-2828.1250,121.0719,-207.3518,204.7508,-224.3504,86.1957,-59.3854,273.0062,-53.6547,125.1474,-188.3554,195.2438,-259.3935,226.3787,-184.7173,190.6113,-95.7113,67.4766,-113.6150,-94.8007,68.9322
-2820.3125,-261.7515,-133.2717,209.9860,-185.5839,238.0824,-16.9050,241.0016,-10.5803,166.0484,-182.4102,93.0833,-253.7948,268.3465,-214.9128,305.7060,-54.4183,140.2290,-110.9521,-303.5315,36.8204
-2812.5000,411.9369,-125.7140,250.6840,-179.3461,94.4084,-49.9606,244.4375,-79.0496,169.3856,-141.0195,278.1437,-321.7416,197.7608,-319.6615,162.2229,23.3198,4.4128,-174.8342,-333.8523,77.1455
-2804.6875,-240.6418,-145.3913,-27.8799,-163.3502,35.4726,-34.2581,112.6082,-62.7533,368.4653,58.1299,-53.8572,-230.9323,139.9281,-265.6469,361.4917,185.8281,90.3417,-87.9517,-143.4533,92.2100
-2796.8750,119.0665,-100.7464,18.8566,-49.0310,-28.1470,-60.2392,123.0723,-52.1454,378.8187,106.5765,36.6674,-255.8136,39.4031,-327.3235,225.0434,122.6457,98.5744,-184.7581,-170.8096,65.5605
-2789.0625,328.0456,3.1220,51.7986,-50.4984,-178.5835,-99.0145,118.7273,-18.3331,154.3508,140.2322,86.1502,-221.4928,-1.9358,-255.7987,183.7718,119.6701,59.9870,-151.3597,-244.9898,98.1025
-2781.2500,-100.5416,172.5173,44.2192,83.5436,-39.5211,2.7197,-0.1384,48.9947,-37.5952,22.4085,-13.3210,-117.6630,64.2273,-188.7698,176.0078,112.2091,192.8987,-53.4494,-464.6859,90.1323
-2773.4375,681.6713,323.6907,129.3971,58.3501,-138.7117,14.2147,10.7386,-49.9189,-99.7944,-75.6785,218.1070,-142.0775,-35.8558,-212.9944,-106.0279,49.5024,61.5469,-112.7983,-385.6790,63.9016
-2765.6250,152.8461,393.8329,-127.4776,57.1112,-138.9610,14.6603,-63.4479,-11.8807,82.9434,-1.8163,-41.3229,-68.5314,-35.9828,-101.2562,76.8861,49.7596,94.1375,25.8099,-282.7520,26.6163
-2757.8125,289.7945,531.8027,-92.5638,159.6864,-104.4002,87.9205,-26.8449,-11.0389,44.4710,-149.1569,28.6919,-30.1732,0.6991,-63.7114,-34.4013,-24.1784,54.5274,22.2271,-499.0630,-47.8786
-2750.0000,644.2744,606.2391,-90.2003,127.7178,-211.4106,90.6366,-61.7949,-7.7447,-100.5541,-35.0397,107.9769,-63.3774,-71.1755,-96.7273,-143.2597,51.3378,-84.6555,25.0955,-427.9358,-45.9293
-2742.1875,-90.3548,646.6339,-157.9141,132.7011,-59.4723,134.3206,-166.8052,109.5169,-94.6155,156.0390,-121.8470,-18.6292,-28.0944,-51.7893,-26.1538,131.8240,-79.8881,135.9297,-459.8729,-77.0391
-2734.3750,655.1980,760.1957,69.5238,139.8454,-53.3828,30.1704,-160.6619,42.9357,-234.5342,126.2571,157.1621,-84.7238,-95.8553,-154.7043,-276.9163,138.4665,-179.9831,1.9124,-559.6980,-71.0099
-2726.5625,451.3682,803.3666,-33.4484,41.5925,-120.7077,-35.3727,-299.9229,13.9605,-155.8565,171.0790,24.2480,-76.2085,-126.0200,-72.0121,-124.0896,292.7227,-173.4861,44.4972,-413.9341,-64.3839
-2718.7500,394.8843,817.9562,-53.0396,56.7598,-66.6280,-18.5017,-246.7964,32.3977,-64.7752,78.2997,29.8915,-57.2850,-71.7693,-89.9186,-180.8550,199.3878,-160.5787,-11.5101,-330.8075,-121.3656
-2710.9375,797.1856,729.2693,-37.9249,-33.3590,-162.8614,-2.9233,-195.9769,11.5364,-87.0078,20.2198,140.9738,-4.6720,-130.8208,36.8650,-274.9456,30.7515,-215.9888,-30.8231,-177.0048,-106.6532
-2703.1250,19.8489,727.0046,-189.4289,69.9383,-19.6971,141.0648,-199.7695,83.0783,-164.8479,-55.4507,-110.9927,141.3437,-60.4640,146.0478,-132.6238,64.5316,-43.9909,72.2788,-356.8302,-110.5476
-2695.3125,609.7375,754.9760,-49.7283,167.4475,-101.3232,133.2701,-208.3660,1.8228,-282.4991,84.0603,64.9982,134.5610,-179.9023,-8.5791,-251.1164,129.5126,-122.7994,-41.4160,-436.5018,-119.2487
-2687.5000,345.4282,632.7115,-216.2804,150.7039,-195.2161,115.2310,-263.2200,20.3191,-156.3994,323.3216,-113.4537,153.5217,-271.5929,47.5410,-123.8731,184.2561,-141.8706,47.6390,-244.4276,-102.2020
-2679.6875,-77.6851,526.7118,-181.6036,185.2189,-122.8509,150.4562,-264.8416,131.0720,-84.0393,248.8339,-207.5617,226.7336,-237.0228,121.9125,-88.3690,183.2672,-143.6808,46.9554,-247.1239,-103.9136
-2671.8750,488.3294,354.7778,-71.8686,82.7940,-233.4369,76.7356,-156.4133,130.8668,-158.6399,138.3868,25.8464,153.9824,-200.3972,122.3165,-235.8409,146.3322,-246.4497,-55.6837,-106.7918,-31.5814
-2664.0625,-276.7897,153.7508,-137.2497,57.2704,-117.1208,47.9178,-149.0856,138.5674,31.6714,35.8445,-168.9689,199.1237,-47.8593,204.6127,-9.4006,79.3116,-63.3167,-11.4150,-29.5665,11.6439
-2656.2500,160.6941,134.3487,60.9686,108.3584,-102.1905,-47.2937,-98.1541,7.8730,46.5833,14.8868,12.7120,141.8565,-105.7046,37.4919,-104.3633,21.8936,-48.5774,-101.5463,-50.7843,26.4587
-2648.4375,175.4992,81.2141,74.4409,89.7010,-199.0184,-179.2529,-157.9799,-86.5784,96.7269,66.1749,-4.8709,83.8341,-128.3018,-56.3887,-18.0940,219.7281,1.4080,-120.4313,69.2397,76.5213
-2640.6250,-297.5061,30.3483,93.1416,109.3068,-33.5870,-159.9466,-176.5728,-66.7741,152.1236,-60.2821,-100.8035,104.0573,-36.6412,35.9753,74.4325,164.8286,90.6567,-136.0499,15.5008,94.8300
-2632.8125,273.0096,-66.0592,172.2993,81.3655,-101.7059,-154.1738,-97.7114,-60.5250,45.9673,-164.3066,106.5684,73.7150,-67.5291,116.7688,-140.6092,23.3924,-7.6516,-163.2235,56.1862,136.5866
-2625.0000,-314.9254,-89.9184,-1.0113,56.9634,17.7192,-106.8365,-125.3094,23.2737,-90.6362,-80.7819,-90.8816,158.9119,15.1445,128.1081,15.9102,107.5251,70.5929,22.1605,29.4214,145.8932
-2617.1875,3.9227,-85.9741,38.4740,60.3711,57.9607,-64.6864,-84.1176,27.8740,-123.4339,-38.4636,30.9349,90.8958,18.6287,-11.7707,-52.7680,75.4638,2.6504,25.3504,-74.5589,112.9951
-2609.3750,40.8529,-188.0172,3.9652,-7.2176,-49.8061,-62.5374,-82.9340,67.4617,-12.2351,72.8535,7.3928,20.8637,-51.8860,27.3253,-88.4648,40.4023,-30.2986,62.5332,136.4597,114.0984
-2601.5625,-607.1664,-272.9362,-9.4597,13.2983,83.5399,34.7154,-132.6609,129.1450,121.0734,61.2665,-163.3501,82.9239,7.7137,89.5042,-29.0435,-8.5426,92.8698,152.8206,153.5610,27.3011
-2593.7500,50.2714,-317.4358,93.5222,3.2214,2.2908,64.3709,6.0132,86.2226,39.7759,-18.9411,63.9074,40.3711,-36.2727,47.0685,-219.2394,-52.0833,11.4333,108.4970,142.0340,-54.0971
-2585.9375,-492.9757,-367.6337,-142.2110,22.4412,-13.6672,160.3261,63.9901,146.5913,61.7818,40.1506,-173.3258,100.1098,-14.9472,106.9184,-15.1275,43.6813,65.2973,303.4742,123.8185,-106.1944
-2578.1250,-481.7053,-251.2684,-91.4041,139.2196,73.9330,284.8439,77.5213,197.5095,-108.6457,-56.2189,-135.3409,151.3866,-1.0581,158.2927,-148.4599,20.9984,74.7247,314.0031,-113.8557,-166.7468
-2570.3125,-138.5922,-258.1421,-99.8355,96.7471,-8.7257,277.1140,104.8097,190.1708,-191.3313,-26.8482,-58.7330,181.3908,-83.4189,188.3884,-304.0654,13.0657,30.8992,306.2665,52.2186,-175.5482
-2562.5000,-765.1691,-250.6550,-164.9320,138.6272,72.9768,360.7404,3.4285,273.1790,-72.6629,19.8588,-269.3808,191.7338,-74.4174,198.8282,-112.3045,58.4991,70.4517,453.8869,-14.3646,-240.9977
-2554.6875,-28.4518,-145.9014,55.2250,207.7695,35.9439,360.6295,-33.7077,237.4243,-183.7489,56.7887,-8.1506,119.3176,-185.1544,89.4912,-333.3051,-50.8143,-36.7404,381.7517,-158.7238,-278.1960
-2546.8750,-407.9955,-172.4415,-9.9367,216.6104,7.6038,333.2207,-62.1472,247.3577,-175.1383,140.4195,-163.2487,166.5810,-213.1864,173.8312,-250.6040,-5.4080,40.7631,425.3231,-47.3734,-306.6876
-2539.0625,-608.3444,-195.7235,3.1283,332.7054,130.5329,347.0783,23.6632,261.5388,-199.2657,116.3000,-194.8195,217.0764,-162.9484,224.3967,-275.6402,8.2593,84.5303,330.1571,-144.7743,-367.9306
-2531.2500,-128.5982,-136.9965,-48.7980,214.7943,-31.5321,259.9339,45.4910,210.7034,-177.3990,213.1581,-92.6443,166.5424,-177.7003,247.9303,-289.7004,67.9195,-139.6983,246.9789,16.8224,-346.1733
-2523.4375,-746.3331,-120.7189,-254.1768,159.4227,-17.0296,275.3410,-51.1249,336.4042,-88.9727,302.5468,-330.1499,219.5360,-88.8806,300.9926,-91.1922,193.1297,-125.3539,297.3528,29.9787,-331.8655
-2515.6250,-179.9951,-80.3857,-105.4904,164.1030,-51.4566,277.8054,-85.6859,303.1429,-234.4881,230.9523,-105.2366,222.5585,-86.9906,194.0656,-273.6320,195.3879,-157.9485,195.7618,-73.8319,-293.5084
-2507.8125,-327.2459,-156.7081,-152.4575,158.1244,-99.5360,194.6189,-169.8991,256.2114,-208.6524,257.7016,-197.1196,250.9056,-134.7493,294.4604,-137.7232,259.0097,-95.1851,189.5135,22.7221,-230.7938
-2500.0000,-629.0891,-106.5755,-138.9932,242.5977,-12.1474,171.8856,-156.6715,197.7211,-122.3532,161.8907,-271.4889,265.6886,-84.0485,309.2881,-50.3494,236.0915,-10.9480,168.7190,-141.2652,-217.6246
-2492.1875,15.7120,-93.8819,-56.9715,148.6213,-113.2034,71.6964,-74.8923,97.7625,-112.5069,171.6146,-60.6735,201.9941,-110.7891,172.6238,-188.4465,209.7240,-141.1563,74.4547,-25.6973,-171.8975
-2484.3750,-587.1528,-132.8310,-137.6186,73.9846,-47.9107,64.8475,-118.7684,128.1436,26.7031,201.6932,-239.7519,195.6261,-8.1626,240.2792,-12.1703,202.7277,-42.0052,104.5395,72.2427,-142.8114
-2476.5625,-117.1664,-83.9168,19.5878,51.2008,-0.7465,75.8453,-34.7924,65.3591,-73.2276,-7.4017,-31.4351,208.0869,2.3303,178.7563,-149.0372,140.5819,-99.9844,-23.5391,-57.9746,-95.8706
-2468.7500,-29.1533,-135.0392,-77.2474,-36.6374,-133.6334,-20.2101,-95.8596,6.4935,-60.2140,80.4299,-60.0805,185.4765,-20.2214,193.1553,-61.9693,191.3869,-84.0077,-41.6810,168.7672,-8.9701
-2460.9375,-508.9431,-192.9095,-137.8512,-24.2263,-49.2514,65.9929,-120.6807,55.8659,62.0601,92.4998,-212.1004,161.0947,-8.5018,168.7759,60.3689,166.4505,33.2442,41.4361,178.7695,2.1868
-2453.1250,107.7433,-242.3902,26.9496,-39.4206,-103.4620,48.5998,-29.0944,1.6214,6.7487,37.9457,34.9424,71.0790,-26.3689,78.7593,-104.9036,75.9107,-54.1050,-45.0606,196.1870,20.7503
-2445.3125,-479.1115,-196.4297,-0.8123,-64.1797,15.7794,21.6510,16.9443,11.8158,15.9043,10.8352,-126.7951,118.4885,57.2178,126.1650,88.2928,85.8270,26.0120,35.8917,98.0805,29.7730
-2437.5000,-202.6196,-94.1104,104.7827,1.4105,84.4000,17.0574,48.3394,-29.6554,-26.6002,-102.9477,12.4576,114.2229,89.1699,47.8806,-28.1570,7.0992,-50.4934,-4.8112,-49.6826,24.1513
-2429.6875,94.1187,-218.6416,45.5335,-52.8628,-48.8321,-41.3941,-11.1061,-86.0015,25.0456,-15.5966,38.8699,56.0724,-6.7178,100.7043,-13.4694,59.5258,-104.8445,-24.3817,175.7274,38.6882
-2421.8750,-465.9974,-285.9802,-25.5398,20.0584,101.1497,-0.6451,-45.3484,-10.1604,-9.0874,24.9434,-117.8642,60.0992,70.6176,141.7022,26.4534,136.1618,106.0287,48.2493,34.3591,4.4313
-2414.0625,237.1991,-215.0593,231.6468,55.2341,64.3949,-0.6506,27.6658,-83.0910,-266.9771,-49.2865,169.6995,23.3443,-3.7864,67.9114,-268.3816,26.0443,70.1606,-22.8879,-37.7561,3.4340
-2406.2500,-254.5251,-144.0948,156.8770,20.4408,63.6911,-37.6161,-47.2678,-82.9947,-156.7971,-12.4718,-17.7461,60.6063,-4.1310,178.1342,-122.1556,-11.0124,139.3470,48.0169,100.2197,2.4997
-2398.4375,-165.8858,-55.7360,212.5028,73.0334,118.4174,18.8296,-65.7896,-64.5085,-103.2069,-139.2801,25.6068,43.2442,-22.0526,87.7223,-104.5124,-28.6601,120.9503,-4.6777,10.5944,-16.0272
-2390.6250,264.9978,-115.2364,145.2947,11.7620,-58.6983,-10.5709,-95.1442,-91.8896,-59.4788,-94.9647,114.4858,-21.9992,-51.8198,-14.5817,-96.7358,52.8360,24.7108,-31.2357,159.1310,27.6084
-2382.8125,-389.0570,-170.6460,-25.8390,61.5882,28.2951,40.1292,-118.3999,-42.1871,64.3770,-45.5593,-108.8785,-8.1656,35.5221,-0.8158,136.1678,29.4343,142.5977,88.3118,64.8074,40.3540
-2375.0000,267.2802,-146.7043,144.3747,48.7653,50.6513,26.1759,12.7053,-92.1555,-133.3969,-169.8256,160.0115,-21.0131,21.2265,-50.7418,-97.5783,-130.6192,129.8499,5.1851,-55.1441,62.4559
-2367.1875,-61.5344,-158.9719,91.3872,-33.2743,34.8062,-24.9956,-39.3848,-107.3476,-75.3644,-111.3047,28.4511,-36.0949,5.7447,8.0990,32.4852,-108.8581,185.9116,26.8423,175.7366,83.3733
-2359.3750,-293.0855,-177.9478,180.6925,15.9741,161.2887,-8.8686,12.8239,-127.2583,86.9645,-241.4947,20.6632,-18.8976,59.5900,-48.7920,11.8761,-238.7922,236.3028,-28.2005,189.9222,62.6008
-2351.5625,239.9494,-207.4250,257.5221,-83.2821,91.2875,-40.2509,89.5473,-196.7028,89.7863,-201.2187,194.6258,-89.2330,25.9432,-118.2263,-94.2479,-235.2372,64.2055,-92.7580,228.6247,102.3387
-2343.7500,-352.1458,-237.0051,77.2402,-113.6442,169.2097,0.2638,19.1770,-119.2713,167.5347,-124.0782,-26.3470,-84.7023,104.2109,-113.7973,129.5472,-46.7827,139.0371,-17.4130,160.2701,105.9864
-2335.9375,279.0862,-202.2864,184.2611,-79.7027,128.4578,-1.9147,16.1157,-195.5577,16.5972,-163.6944,194.3487,-160.8996,100.7952,-191.1147,88.6449,-13.0344,66.1890,-159.7780,16.2282,138.9427
-2328.1250,201.4369,-209.4714,98.3711,-158.6674,43.8104,-86.9924,-32.8500,-207.7643,4.7559,-102.2469,138.7331,-209.0195,125.4937,-129.3617,223.8661,11.8207,58.4595,-134.0477,182.3166,200.0172
-2320.3125,-240.4509,-193.9065,41.2289,-107.8878,168.9263,-71.3184,55.9429,-154.2399,92.6774,-86.0849,31.7869,-193.4229,215.9570,-149.9025,239.8506,-82.5664,71.4916,-83.5712,125.1761,178.8573
-2312.5000,343.4979,-241.5612,133.8768,-122.3330,79.8399,-122.8547,149.5522,-132.9348,-32.5729,-65.1317,220.7920,-245.0716,126.2272,-238.6873,76.6487,-134.1423,22.3318,-133.3062,179.8869,199.5131
-2304.6875,-322.8062,-239.4407,25.3146,-121.0039,190.5782,-48.5904,76.9780,-94.8420,5.0087,-28.3919,-16.6262,-170.9550,127.3150,-164.7129,224.2793,-59.9115,127.9942,-26.2426,214.4382,199.9804
-2296.8750,117.8003,-150.4735,116.6190,-101.8402,173.1830,-65.4840,95.2736,-148.9314,60.4411,-155.8275,154.8315,-224.0155,147.2664,-181.9333,59.7576,-149.8362,75.5175,-149.3568,195.8658,182.3091
-2289.0625,237.2293,-171.7077,56.7197,-229.8898,39.5911,-162.5952,71.3763,-210.2511,145.6923,-106.4747,150.7123,-248.3087,160.0294,-132.3887,145.0439,-99.9606,53.8538,-171.6892,313.1450,194.4517
-2281.2500,-260.4311,-212.0552,49.7317,-166.0497,178.9333,-94.8166,64.3897,-105.6972,138.8467,-224.2525,31.4033,-181.7306,227.7111,-101.9828,285.2344,-106.1927,151.1246,-143.1366,129.3392,187.5043
-2273.4375,412.6796,-206.7183,124.4688,-126.5179,34.9886,-92.3463,30.1165,-140.4752,31.6871,-185.3665,223.4647,-178.4831,120.0981,-136.9134,31.1198,-66.7341,15.1173,-243.9041,202.2587,226.2735
-2265.6250,-170.5076,-227.6515,-82.0620,-147.2416,-61.1859,-78.1234,-103.4090,-126.5240,191.2977,12.2566,-39.8853,-128.5051,134.2474,-49.1270,190.7809,57.4723,63.8847,-159.9163,390.9723,239.8088
-2257.8125,35.0382,-126.8900,23.1056,-118.2704,7.3490,-119.2012,1.7720,-167.8887,186.6261,-65.4363,31.2354,-132.8652,57.0979,-53.6761,112.1418,-20.6187,92.3629,-236.2374,242.4096,198.0615
-2250.0000,352.7162,-90.0424,132.3634,-152.2199,7.9886,-192.1847,75.0591,-240.1739,41.0565,-139.0378,153.1937,-132.1641,21.0484,-53.1577,40.6253,-56.6005,92.9622,-235.4610,206.9891,198.4310
-2242.1875,-223.5605,-68.1667,80.6658,-26.1330,175.7027,-96.1196,59.4070,-219.4173,-48.4568,-191.5968,36.4746,-110.4512,189.0571,-105.6288,171.1744,-71.5304,218.6364,-74.6368,14.6546,182.8604
-2234.3750,380.1183,-133.4293,157.8773,-21.1608,106.3248,-91.1614,99.6763,-287.7819,-44.0571,-187.2569,244.6763,-215.8779,156.9684,-211.2443,29.6225,-139.5715,82.2158,-140.9269,124.2665,187.2023
-2226.5625,-153.2066,-279.6611,-104.8660,-97.1485,64.0257,-97.1582,93.0112,-221.1119,206.4108,-46.8739,-14.8061,-222.2845,150.9454,-107.8523,206.1447,-72.5686,145.8662,-41.1687,327.9693,180.6046
-2218.7500,-115.8997,-207.2996,-139.9886,-131.5443,213.3536,-21.5662,168.9715,-144.8673,134.4755,-191.9226,3.8811,-221.1266,153.5358,-142.9007,134.2659,-69.9777,182.1358,-40.8324,151.2969,145.6193
-2210.9375,397.4990,-185.8960,-233.0648,-216.9134,157.7303,-39.9321,186.9947,-163.5983,-67.3982,-210.9344,153.4914,-275.9473,209.1727,-161.9361,79.4510,-51.3343,62.4556,-55.4572,205.7287,200.7034
-2203.1250,-283.3319,-198.7084,-467.3641,-195.5064,217.9126,-16.5031,98.8340,-66.5442,138.5621,-114.1441,-115.0084,-289.9932,269.6204,-139.2092,322.4763,-27.8818,117.5819,35.7024,226.0036,186.6062
-2195.3125,288.5456,-188.8909,-347.0099,-115.4767,154.7426,-115.4369,183.3395,-129.8661,186.1719,-67.7014,52.8734,-316.4254,132.7286,-238.8692,112.1611,-90.7700,22.3612,-60.5069,233.9611,160.1818
-2187.5000,6.5891,-224.9047,-423.4702,-153.2742,115.7784,-191.1834,107.0462,-132.0021,294.0049,76.9445,-87.3341,-244.6931,94.0515,-168.3537,147.0676,-18.4367,54.3621,-27.5241,372.1742,157.9768
-2179.6875,-119.7027,-141.2878,-335.2699,-104.4328,240.4835,-139.2868,121.4097,-117.5117,161.5087,-92.7734,-60.3742,-194.3443,183.0284,-117.2260,124.6321,-40.4612,173.0323,-49.9086,103.0760,135.4355
-2171.8750,621.9043,-66.8390,-151.2114,-172.7582,131.0509,-212.5651,195.6435,-191.1968,-58.1343,-202.6492,192.9551,-194.1811,109.8570,-80.2836,16.0564,-76.6458,69.5653,-117.4628,33.8723,172.7596
-2164.0625,-53.4798,-110.3555,-307.0988,-216.0403,159.7033,-183.7996,149.9394,-125.8582,116.2829,-100.4871,-48.4569,-165.9961,175.7434,-89.3270,263.5515,-10.7796,96.1787,-20.9723,130.7442,164.1485
-2156.2500,314.2354,-128.8460,-253.9180,-200.2949,103.4241,-128.9953,240.3042,-72.4923,170.7596,-47.2910,86.4258,-258.7975,156.6789,-183.3605,134.0934,-103.8673,-28.1544,-110.4526,180.7138,144.6053
-2148.4375,103.8281,-198.4731,-401.8431,-270.6766,-5.9461,-129.3033,239.5832,0.7614,243.1566,97.8039,-47.2860,-259.7247,119.5230,-110.5195,243.5617,-67.0604,-98.5710,-76.0367,390.6371,143.9786
-2140.6250,-277.6305,-123.1765,-359.8165,-197.1211,108.6580,-87.6700,171.8380,41.9494,285.5081,29.8291,-120.9289,-218.7272,199.3295,-105.7608,248.9951,-61.3124,9.9785,-107.6743,253.5350,112.3148
-2132.8125,466.6188,-47.2554,-135.1328,-191.9383,3.9141,-119.3941,139.7623,-100.2380,216.5228,-1.5101,135.1705,-214.1190,93.7871,-138.3904,-2.9129,-129.9224,-89.8164,-172.6754,223.1381,117.3150
-2125.0000,-174.2290,13.5924,-255.5081,-165.8146,67.1369,-92.1764,92.6437,-73.4896,170.5195,24.0942,-83.5342,-187.5888,158.2065,-112.1122,244.1599,-28.5794,5.3578,-42.7333,176.7385,107.2747
-2117.1875,96.5127,39.9619,-156.3160,-36.1439,93.9215,-28.4100,119.0931,-84.2173,12.0626,-133.7699,51.2796,-198.5372,185.1862,-123.3189,196.7937,-38.7001,-4.9109,-88.2516,-10.0900,96.8006
-2109.3750,153.9446,-9.9944,-172.4270,-50.7839,-31.5874,-81.9424,65.2474,-101.2645,69.3082,-39.9457,21.8851,-178.8073,94.8668,-67.8495,144.1485,-18.1202,15.5337,-103.0669,185.8198,117.0492
-2101.5625,-320.4559,-27.7652,-190.3328,-33.2306,61.1261,-61.2732,48.6035,-81.1301,162.7605,-20.9319,-107.9440,-85.8940,152.7524,-48.2024,200.7172,-71.3468,103.2028,-50.6895,131.9611,63.5134
-2093.7500,407.0487,-38.7007,-55.3832,-80.8481,-24.3077,-109.7678,146.8194,-93.1677,78.0737,-33.0741,161.3817,-171.1581,141.4771,-134.7307,5.1346,-119.7336,-83.2832,-98.4805,120.0135,51.8433
-2085.9375,-198.6402,-47.8073,-212.5998,-90.6462,3.1162,-46.4250,26.8883,-30.3641,141.2685,29.6414,-85.5546,-145.5977,132.0611,-34.4284,216.4403,-20.2678,-23.9163,67.5654,145.9746,42.0402
-2078.1250,-110.3422,4.0183,-46.8594,31.4859,96.4936,46.8514,-27.0779,-48.6265,87.4217,-61.7039,-11.1221,-126.1161,78.5964,-17.1985,52.7075,-109.8415,98.4036,48.5336,-14.0885,-11.7922
-2070.3125,300.0573,-7.0790,51.9790,19.6971,11.9766,-38.7939,35.0692,-96.8135,-34.3221,0.0508,111.4506,-138.5528,-6.7734,-29.8807,-69.9077,-85.3103,121.8430,-34.4083,43.9910,-23.5015
-2062.5000,-151.8237,67.5523,19.5682,-12.3380,127.2331,-33.6929,75.9785,-56.2643,-66.3143,-32.4604,0.5474,-62.2508,108.6079,-25.8446,82.2396,-80.0331,161.0611,-30.6046,-58.1532,-55.4468
-2054.6875,599.4042,150.2032,104.2371,-71.3360,29.5527,-95.5591,87.9552,-81.6997,-128.2571,-130.9388,230.0951,-50.9309,48.0340,-14.7952,-89.5796,-140.6888,-2.6632,-158.7715,-46.2049,-43.3263
-2046.8750,145.7318,118.9684,-76.9464,-103.2090,-77.9661,-128.2860,18.0981,-79.0011,95.9794,-55.2615,-0.8182,-11.4859,14.6110,98.3789,60.7757,-64.1860,35.7647,-121.7880,167.9572,-40.0411
-2039.0625,73.6007,257.2499,-4.5760,-35.5548,31.0786,-56.4593,15.8133,-80.7538,131.7901,-94.0367,5.4336,-13.5121,13.7332,22.0890,22.6928,-102.1534,32.7356,-125.2589,-11.2943,-78.1928
-2031.2500,599.7686,324.7946,63.0912,-39.6333,-83.5741,-98.3324,11.8479,-122.2184,-94.0938,-99.5093,174.0203,-56.2586,-27.8455,53.0827,-129.0703,-106.8209,-110.9887,-93.4330,-14.1941,-46.0232
-2023.4375,-12.6188,380.8082,-62.7497,-19.2202,48.2891,-39.7105,-114.6036,-28.1880,-109.4545,-41.4798,-13.4627,1.4702,67.0770,-37.4521,3.6926,-47.9900,-20.1958,31.8957,-29.5475,-61.3376
-2015.6250,632.4476,462.1965,96.8155,-8.4165,24.5477,-26.7024,8.3654,-15.7749,-133.4012,-29.0451,236.0985,-60.4341,7.3834,-502.6198,-168.1393,-108.7620,-115.0017,7.6187,-53.4600,-85.2376
-2007.8125,495.9253,536.0025,-46.1702,-41.1825,-80.7368,-59.2498,49.7899,-11.9203,55.1127,121.8614,138.5713,-93.9126,11.1354,-757.3575,-52.4927,-67.0787,-147.3528,44.7943,125.1260,-117.6728
-2000.0000,459.7784,816.1766,-45.7442,27.4441,-5.6060,-58.4016,51.6366,-11.6688,20.0302,12.1688,132.0463,-93.0100,50.2872,-720.7130,-14.4356,-175.9967,-43.3059,-27.6339,-51.8609,-189.6963
-1992.1875,1293.1893,1084.8724,52.2361,14.5988,-127.9254,-144.0148,39.0555,-134.8732,-213.4872,-74.9647,369.1072,-143.5866,-36.0190,-660.5469,-173.8219,-225.3622,-90.7257,-145.5185,-99.2343,-202.1541
-1984.3750,814.3780,1275.3989,-43.9387,62.5835,-76.3779,-128.7915,-93.6559,-84.2271,-198.1340,-97.2363,188.9194,-129.3322,-20.4699,-610.5446,-48.3343,-209.8729,28.7141,-62.5581,-120.7188,-223.7522
-1976.5625,1391.5643,1428.8595,153.8459,74.5125,-61.8800,-115.6243,-79.4020,-143.6382,-294.8259,-230.5612,435.3286,-153.1391,-5.9900,-670.6099,-254.9008,-306.4448,-28.8947,-155.6673,-355.2298,-246.3876
-1968.7500,1487.3313,1523.8848,143.2253,64.0321,-145.7859,-198.8668,-199.5481,-228.4518,-341.9051,-241.2609,434.3445,-164.3680,-15.9256,-572.0880,-154.8481,-279.4124,-38.8951,-166.1774,-259.0846,-256.4104
-1960.9375,1090.8126,1654.6316,170.3559,194.2956,-79.9347,-171.3618,-281.9336,-237.5144,-239.2151,-361.2049,313.4967,-137.8612,-24.1244,-508.8287,-89.0387,-324.6299,126.8692,-176.9386,-339.1493,-301.6753
-1953.1250,1799.0555,1729.1006,284.2509,197.2974,-223.3333,-204.1118,-205.5492,-308.8354,-346.7778,-394.4063,501.8423,-135.6052,-204.5813,-469.8333,-343.4792,-394.1001,60.3804,-243.9568,-300.4342,-298.1775
-1945.3125,1200.9144,1622.2463,98.8493,160.9958,-224.0165,-169.1584,-242.4604,-199.4640,-273.6390,-248.9063,266.5269,-63.6524,-169.3426,-362.1390,-197.2004,-321.8609,129.5997,-140.2662,-230.9893,-298.9666
-1937.5000,1353.9316,1457.5088,147.6063,171.8344,-211.5488,-45.0542,-156.2164,-150.9521,-224.3398,-273.2409,351.8714,-88.5588,-155.9617,-351.3014,-330.7706,-345.4803,35.9556,-164.4341,-289.3605,-322.5920
-1929.6875,1304.7905,1126.5835,95.2059,16.5018,-263.2316,-61.1154,-61.1103,-130.6000,-166.1856,-142.7066,331.4503,-105.6285,-134.7360,-294.6202,-272.4715,-250.2473,-48.8422,-143.7535,-56.8342,-301.3510
-1921.8750,515.0154,899.0281,41.2099,-0.4443,-58.4997,-4.7799,-41.5921,-36.8605,1.3703,-122.7712,121.3166,-49.3064,-40.1115,-238.5443,-104.7533,-193.6118,4.7747,-89.6777,-36.8942,-317.6972
-1914.0625,1006.9645,756.1394,220.9349,-37.6952,-62.0757,-81.7544,-8.3652,-115.4322,-2.3715,-127.1372,309.7157,-91.2908,-117.8032,-243.7752,-255.3302,-233.2801,-101.9079,-162.9167,-3.2254,-284.3300
-1906.2500,326.2812,602.6755,170.1038,-15.5002,-2.1982,-96.2811,-95.6835,-93.5530,131.3579,-68.0421,79.3708,-32.8269,-132.0461,-222.5548,-48.4299,-173.4872,60.8596,-34.7165,54.9360,-261.5000
-1898.4375,272.1063,442.6938,332.7786,105.1798,161.1747,-6.3251,-79.4815,-115.1801,36.5971,-236.4388,148.2368,-54.8678,-115.7905,-244.8316,-106.0295,-157.1984,183.1084,-54.0411,-139.3638,-245.1531
-1890.6250,565.4791,172.2375,339.9905,46.3846,22.0934,-35.8323,-34.7167,-107.2585,-65.5999,-118.2641,243.0372,-84.3661,-106.9941,-201.5583,-97.0670,-39.3629,53.8924,-78.8177,-22.0715,-163.2355
-1882.8125,-267.6564,6.2993,127.7555,55.1369,104.5731,9.2020,-62.3887,-25.7833,53.7714,-0.5206,-42.0954,-3.3246,11.3429,-83.7452,132.4610,80.0198,99.2296,0.9617,-47.2021,-117.7546
-1875.0000,211.0871,-113.8281,218.3969,75.7258,11.8980,-9.9257,64.8061,-46.4613,-39.0046,-56.9070,120.3166,12.5423,-44.4872,5.9013,-34.1605,61.2538,-20.5951,-119.4172,-95.4416,-26.4107
-1867.1875,-319.1445,-327.8947,99.1372,36.3827,-68.6709,18.0427,20.1139,54.9697,63.3412,44.8155,-97.7150,76.5082,-88.2272,106.6510,142.3484,163.5888,-24.3213,-17.6855,42.4591,76.0455
-1859.3750,-598.1999,-502.7929,136.0849,38.2162,4.9705,92.2200,20.6427,128.6035,100.8973,81.7405,-141.5886,112.6706,-50.7727,105.5942,106.0651,164.1139,13.1436,19.2505,-25.4191,113.7106
-1851.5625,-261.1688,-694.6260,227.1362,-12.8768,-123.2901,37.4984,3.2955,36.3401,45.5631,172.7994,-17.1138,92.9224,-70.2363,85.6351,14.8846,218.7364,-72.3079,3.2868,170.8449,168.4874
-1843.7500,-1029.4187,-758.6909,84.9756,27.8226,-6.7415,79.5774,-27.2394,4.8878,199.0420,141.6853,-275.2624,170.9640,10.0932,200.4823,241.5224,298.1721,40.0418,79.1309,177.9351,175.0718
-1835.9375,-439.6875,-732.8281,184.7854,53.4659,-17.2485,105.6088,72.1850,-43.6131,114.4657,-15.4769,-57.3365,122.9437,-0.6449,188.2805,120.0983,214.5451,-74.6565,-0.0729,28.9944,201.6145
-1828.1250,-610.7006,-799.6989,40.9043,-47.5888,-124.4493,71.9356,1.9037,32.1847,82.1805,133.6796,-178.6292,161.2130,-34.0966,263.3850,196.9936,291.2100,-70.0382,74.0372,175.3795,241.4620
-1820.3125,-997.0448,-799.8965,42.7423,22.0684,-48.9459,109.9647,-32.6694,106.6881,83.6007,171.5353,-263.9348,198.1864,41.1404,264.1837,199.5949,293.5694,0.2832,108.8418,70.4737,207.0125
-1812.5000,-475.0349,-841.7719,144.9327,15.0609,-202.1092,67.3256,71.1216,99.5428,4.3982,164.7629,-111.0295,153.5137,-75.2855,293.3342,47.5505,250.2841,-76.0656,67.9793,99.9585,200.9223
-1804.6875,-1186.9149,-920.4759,-46.6982,41.2388,-136.0749,167.8797,27.1221,200.6068,69.4255,230.2360,-379.4658,218.0490,-47.5252,393.6986,259.7285,315.2111,20.7719,199.3182,92.6824,193.0405
-1796.8750,-729.4857,-886.9013,25.9797,144.7162,-63.7436,166.7306,26.4347,198.9720,32.7390,82.0235,-214.6349,289.8848,-84.4797,317.3732,75.2008,241.4343,19.8984,126.9508,-47.2824,192.4698
-1789.0625,-655.5004,-813.7631,64.2704,113.7937,-97.8163,96.1742,-118.6526,90.9349,-2.3540,47.4298,-203.7668,363.3212,-119.8456,391.6585,41.2822,206.2615,23.6391,165.1882,62.3741,231.5096
-1781.2500,-1160.9985,-792.1000,162.1351,134.4357,110.6685,120.1645,-129.1943,42.4461,24.0962,-0.5983,-280.4130,351.3053,-20.6770,379.5016,66.9144,195.6347,80.9505,222.9731,-18.4214,184.1056
-1773.4375,-597.9216,-969.9123,270.5657,27.6278,73.6790,82.7012,16.8094,40.5061,-50.9067,70.9475,-55.7929,201.8410,-21.9820,339.8988,-116.9108,157.5575,-25.1939,221.3019,50.3634,183.2607
-1765.6250,-1293.0825,-1101.8964,59.8378,0.6615,157.5332,166.0840,62.6652,122.4259,-3.0409,191.3745,-314.8700,211.2438,25.5536,459.1617,113.1361,168.3331,88.5006,335.4886,96.0299,157.2699
-1757.8125,-1047.6477,-1033.3112,134.7117,104.2751,231.9833,204.0609,138.1482,196.9625,-112.5541,118.4241,-210.8385,211.2551,-10.3257,386.0280,4.7799,95.7021,87.7642,228.2634,-44.6777,121.8851
-1750.0000,-774.1470,-1006.6562,162.6837,-9.0418,113.5210,158.1248,166.7505,187.6124,-10.9504,219.6010,-197.9609,164.3680,-203.1202,339.0063,-3.4641,161.1918,-60.8956,219.1343,123.7470,113.6098
-1742.1875,-1353.5424,-953.8664,73.8111,-27.2169,172.2187,216.3333,151.5055,319.4219,194.7960,278.9434,-423.9309,184.6401,-254.7728,323.1544,92.4530,219.8282,-42.4039,238.1622,143.3082,62.4932
-1734.3750,-611.6601,-880.8497,186.2095,-95.1424,65.1568,181.7866,191.5132,284.4798,87.7812,318.5671,-192.8856,150.1609,-326.1989,287.5657,-87.3961,185.7039,-214.6757,64.4401,183.1419,65.6349
-1726.5625,-1020.9884,-833.9749,-58.5059,-153.1650,3.9926,158.1348,131.4348,296.4481,173.6972,404.1458,-397.1367,161.5885,-276.7408,298.8907,108.6766,272.4841,-132.0506,181.6326,301.9151,78.6766
-1718.7500,-917.6534,-731.4378,-60.5088,-51.4845,77.5333,156.1818,167.0812,295.1306,210.3241,256.4409,-346.8767,122.7195,-240.5953,222.9179,71.4509,271.9644,-134.7330,143.5250,160.3931,41.4214
-1710.9375,-464.8913,-736.4775,-65.0500,-90.3699,-37.4883,78.6879,200.1813,216.2724,206.3870,252.2054,-231.0925,43.3108,-282.0141,254.4085,-6.3212,230.9052,-173.9778,103.8774,297.3313,37.6253
-1703.1250,-1110.9546,-680.2916,-76.3344,-105.0184,98.7497,103.4600,152.5334,277.6806,305.6959,351.2463,-425.1511,68.1618,-257.1904,278.1697,130.1664,183.0975,-81.9862,161.4928,250.5201,-9.9170
-1695.3125,-354.8985,-558.0403,161.4997,-122.5833,43.0738,47.3292,243.9991,258.2019,139.1124,258.4217,-151.0814,84.1153,-350.2899,184.0445,-36.2637,126.3837,-204.9194,2.2065,92.8304,7.6439
-1687.5000,-515.1230,-473.0205,-8.8678,-213.3539,-88.8132,23.9984,184.2653,234.5395,153.3467,345.4388,-290.0722,133.8830,-373.6056,233.7442,89.1219,288.4744,-224.0491,16.7286,250.9529,59.0031
-1679.6875,-566.3638,-348.0120,-98.2119,-159.1025,-68.7021,43.6698,94.5298,253.8840,210.5695,329.4652,-339.5838,152.6671,-353.9435,289.4599,72.4976,308.5524,-169.1626,-33.7427,96.0591,79.3581
-1671.8750,30.0961,-316.3189,-103.8376,-91.1332,-220.9056,3.0386,16.4797,174.9310,22.4838,361.2078,-180.2821,109.1632,-395.6046,319.8949,-41.4379,266.3283,-206.5721,-70.5080,95.8729,148.4115
-1664.0625,-720.7738,-257.8939,-188.7134,2.5936,-122.3540,27.1635,-141.8155,162.7431,47.1473,349.7290,-394.1618,170.4225,-260.5266,344.0965,204.3848,254.8566,-112.2387,57.4873,85.4436,137.2097
-1656.2500,-206.5750,-202.4447,16.4671,57.3592,-98.7757,49.3319,-81.0495,111.6156,-2.1452,152.3396,-163.8333,155.7405,-274.4182,218.3641,7.2451,205.4360,-160.8775,-61.4756,-66.9116,124.0629
-1648.4375,-253.0765,-214.6176,-31.9617,-24.4825,-147.8018,0.9015,-130.8884,60.9104,-51.0208,176.3895,-194.7475,141.4755,-250.9142,278.0521,67.5309,229.4203,-67.1244,-2.0283,62.1406,148.3164
-1640.6250,-487.5469,-132.8067,-55.3748,56.6778,-60.8464,13.4703,-153.7269,74.2174,35.1021,153.4574,-248.7088,117.2178,-200.4285,216.7549,81.8047,132.4034,49.6111,43.4201,5.1825,125.5716
-1632.8125,116.5177,-197.4148,25.8090,63.4412,-162.3011,-14.3609,-69.9686,9.1377,7.8278,199.1556,-40.6092,14.5725,-228.3605,78.0887,-18.3179,67.9932,-47.0520,15.4886,119.8359,98.4285
-1625.0000,-703.6780,-280.2409,-130.1898,122.0157,-61.9382,-25.3870,-7.4088,35.8725,145.3531,300.6776,-305.0264,77.7372,-128.5012,67.2322,192.3520,132.3833,10.0902,109.3668,180.2745,52.0763
-1617.1875,-264.2447,-87.4952,-1.5675,139.1876,-42.9890,-42.8193,12.7600,55.2107,92.4626,172.8352,-119.0394,59.5125,-109.0619,11.9898,-8.3781,41.3736,-77.1915,-14.1595,23.3128,35.3227
-1609.3750,-1.6258,32.5316,-96.6579,-21.3345,-174.7488,-100.9412,-81.7810,31.8767,32.8763,224.3409,-104.6682,72.6116,-132.3338,99.0860,6.2193,129.6650,-166.1958,-33.3629,110.6546,86.8720
-1601.5625,-425.7482,65.8119,-171.4916,-22.5928,-101.2795,-64.7988,-119.0743,104.8166,-4.4676,187.1172,-233.6053,144.9844,-59.3749,207.4592,80.0315,166.1918,-96.9798,35.6953,5.2305,86.6774
-1593.7500,229.3859,18.3777,-75.0301,-34.5481,-225.5308,-6.3461,-59.0741,53.0765,-90.5194,137.2260,-12.7849,129.6736,-111.1347,192.1638,-116.8682,78.0313,-214.4748,-11.9310,29.1119,109.7886
-1585.9375,-404.5522,16.9221,-222.5572,33.5035,-188.7753,66.1136,-96.0722,126.3532,-53.5672,137.3676,-220.7969,165.3763,-37.9047,190.8696,29.2359,77.8762,-74.9661,163.4508,29.9867,109.8941
-1578.1250,-171.2525,107.6448,-51.8513,125.7543,-53.8301,164.7678,-34.8586,114.8342,-212.4240,-21.2593,-61.8012,116.2840,-14.4938,105.7644,-90.4851,-7.0868,-53.2658,185.0327,-191.9358,62.1999
-1570.3125,91.3494,52.7477,-69.7460,1.4132,-71.4782,110.8257,21.7558,96.7366,-155.8617,72.5502,-9.6977,60.6024,-68.6926,123.0544,-71.7951,-24.6444,-176.1581,167.0309,-33.4553,44.9033
-1562.5000,-530.1453,-6.2642,-199.7208,-127.0226,54.7729,125.7886,38.2833,222.5573,79.5969,125.2777,-229.1706,74.8291,-17.0001,138.2489,127.7792,28.6924,-94.1645,144.9239,-19.0907,-12.4990
-1554.6875,227.9414,-22.7050,-69.0878,-142.8746,39.6114,37.3447,96.4231,132.9887,-45.3408,37.6305,41.8042,22.6644,-32.7199,122.0831,-71.0471,-23.3763,-178.5882,-46.5767,-33.1095,-27.3036
-1546.8750,-195.0676,-24.1664,-215.4504,-143.7310,2.4570,36.9064,-13.4286,132.4391,-8.2480,111.0052,-122.2666,57.5169,40.5485,157.9496,113.1374,50.5459,-145.0109,57.9294,72.8725,-27.1181
-1539.0625,-224.4358,86.9476,-172.1907,3.0075,83.8886,44.0648,31.3340,103.4956,73.4500,83.0001,-109.2663,27.9740,47.3962,91.4277,47.8999,-14.9346,-138.8482,-5.9663,-59.5431,-55.3365
-1531.2500,175.2057,29.1398,-158.8376,-19.1491,-49.5837,-15.6702,45.1894,79.6681,50.2437,171.1365,-7.6939,-32.4503,-12.6626,67.0429,-11.2269,-38.3042,-194.5796,-27.7466,60.1337,-41.4569
-1523.4375,-497.7229,-11.2289,-161.0189,11.1633,58.3888,18.0505,6.4940,151.3056,85.4587,132.7509,-170.7962,0.5932,94.7250,101.1365,134.0937,-40.2259,-23.8746,108.9301,-47.7745,-80.1307
-1515.6250,167.3472,-49.6080,132.8002,-26.5236,95.3330,17.7694,117.7938,149.9583,-61.3281,-87.5992,152.9469,-110.3490,94.0977,-10.7376,-123.5886,-114.1459,-26.1975,36.6139,-153.6813,-116.8046
-1507.8125,-79.9790,-122.2964,96.3125,-168.5016,94.9730,-19.8050,117.7893,149.3345,-25.3931,22.7708,55.0890,-111.5683,93.1680,-11.8748,23.4302,-4.3635,-26.8253,71.0128,-12.9094,-116.7857
-1500.0000,-261.3635,-58.0932,55.7454,-173.5775,164.4972,13.5276,113.6879,145.6226,82.4133,94.0646,-10.8291,-79.8643,125.1209,20.9132,57.3152,-44.6866,-32.5762,30.3124,-87.2589,-156.8705
-1492.1875,304.7211,-19.3595,60.7212,-134.1015,-14.4447,-18.5833,156.1237,77.4800,13.7600,99.9621,144.9046,-111.5838,93.6103,25.2877,-48.2454,-149.4464,-62.7854,35.1806,-116.0515,-151.4097
-1484.3750,-423.3816,-9.7817,-0.4387,52.2394,72.4684,68.1641,22.4098,163.2083,-47.0399,112.7255,-70.6577,-100.4247,141.9344,37.5425,112.0265,-63.3684,88.8523,221.9078,-209.0309,-175.1094
-1476.5625,11.7422,3.9876,235.6197,136.7775,87.5639,83.1090,38.9001,142.1502,-177.6400,19.7126,136.2867,-122.0480,83.4404,-57.9795,-128.5265,-84.0944,32.6657,130.8337,-228.8139,-195.6157
-1468.7500,-86.5864,-59.6010,208.3197,-31.0328,23.3036,-18.2945,11.0292,150.7674,-21.5789,102.3921,81.2220,-149.9997,91.5944,-12.8166,-9.4234,-38.1589,6.1200,68.4233,-7.9473,-186.4822
-1460.9375,-344.8786,33.8004,123.0353,-42.8333,122.0268,44.3085,37.1515,139.3988,77.4629,-17.9014,7.3236,-125.9325,190.7398,12.3704,89.6550,-122.2230,99.5551,22.0088,-89.1071,-197.3586
-1453.1250,478.7356,118.1436,136.6944,-28.6762,-11.3193,20.8689,88.2065,6.0031,-91.5559,-40.2177,223.5078,-111.8841,93.8240,-48.4484,-79.3132,-145.3358,-26.0700,-68.4363,-107.3351,-146.2901
-1445.3125,-129.7547,178.4396,-93.6881,33.4566,-21.7118,10.3900,-32.7987,32.5757,45.3604,61.4226,-31.5476,-49.8508,155.8546,14.7185,94.6631,-81.5058,36.2590,29.0872,-79.6622,-119.2815
-1437.5000,157.2881,218.2333,22.4432,144.1055,-15.6302,16.4157,-26.3128,38.6600,-22.2523,-5.4102,107.3909,-44.2893,161.3643,-53.5815,-82.8878,-149.1814,-28.9247,-35.8840,-213.5072,-112.7775
-1429.6875,253.6716,174.4763,13.0125,101.2218,-98.1034,6.8936,-71.3923,-7.7886,-104.4001,-49.7540,124.5624,-17.2480,152.3127,10.5990,-91.9878,-121.3999,33.3450,26.6159,-184.9013,-84.8347
-1421.8750,-202.7697,209.8732,-20.2523,208.5059,89.5614,84.5282,-104.3174,-4.0737,-137.3945,-118.9287,2.0735,22.9620,191.3972,50.9488,-50.9828,-154.4763,175.7430,99.2651,-322.1632,-117.7566
-1414.0625,512.3638,256.8605,66.0793,184.3899,27.8068,22.7656,-54.6385,-64.7378,-234.7897,-105.4775,218.6472,-2.2055,93.0720,-48.0666,-222.3840,-250.9492,82.7274,5.5287,-238.8396,-105.0856
-1406.2500,-30.8252,311.5924,-96.8383,65.0389,11.8026,43.7718,-107.2132,-43.6307,-103.4433,-46.2624,-27.1083,18.4000,76.4959,9.7029,18.9700,-120.6761,138.4671,62.5641,-146.8067,-83.6792
-1398.4375,223.2320,354.5190,-14.5405,73.9023,57.9825,52.9802,-97.5967,-34.3113,-130.9217,-182.8198,100.0328,27.2237,122.1065,-18.3055,-118.5067,-111.2118,77.3893,0.8054,-276.5858,-74.0846
-1390.6250,579.1498,252.3955,25.6961,-27.2729,-48.8911,-16.8506,-94.0497,-68.0178,-199.4547,-105.4001,202.4940,-5.9719,87.6669,21.6704,-187.0363,-33.7866,-23.7364,-28.9819,-165.4306,-33.5512
-1382.8125,-106.6715,200.5325,-62.7983,26.8164,45.4769,-32.4257,-146.2541,26.5409,-68.7515,-45.7247,-16.3537,51.1040,145.4686,79.9176,-19.3396,-12.1095,65.3744,25.4826,-180.0648,-48.7802
-1375.0000,536.3595,279.5178,57.5625,36.7575,-17.3228,-96.1509,-61.6159,-36.0375,-95.2101,-108.1772,198.3565,24.0573,81.1102,16.0496,-191.8109,-148.5788,5.3243,-105.1992,-168.8642,-38.1660
-1367.1875,117.5171,319.7104,-120.8784,41.9126,-48.9235,-90.6674,-92.7882,-30.3984,-15.4719,-27.4039,-3.8170,29.2390,48.9547,21.4128,-40.0876,-106.8515,45.4681,41.3349,-21.4895,-32.3616
-1359.3750,108.2732,309.4560,-17.7605,68.6233,17.0079,12.3735,-99.4070,-1.1973,13.8000,-70.0611,28.0131,21.9897,41.3397,14.3445,-46.8483,-113.5752,36.1329,-37.5779,-135.5884,-76.0146
-1351.5625,561.6014,164.8463,88.9952,-40.0043,-134.4181,9.0741,-103.3896,-41.3245,-63.2728,-36.0517,176.5347,-18.5843,0.3680,83.9619,-124.9560,-6.6441,-107.5490,-74.8169,-102.0518,-43.0268
-1343.7500,-124.8771,111.4392,33.9658,-21.4132,-41.6477,63.9837,-157.1745,14.7579,-44.1447,-52.8462,-27.4494,73.0628,54.5940,176.8031,5.1159,12.4724,16.9723,49.1452,-152.3414,-23.8523
-1335.9375,466.9733,176.3367,138.2483,78.4870,-48.5990,58.1924,-90.6649,-28.8532,-159.7264,-130.3251,187.7689,30.0242,11.1113,58.9610,-184.5318,-104.1132,11.7834,-25.5866,-226.3451,6.6138
-1328.1250,241.8018,232.2955,13.5760,135.4487,-99.4920,6.4564,-140.1083,-43.3900,-174.2654,-70.7410,68.0496,15.0605,-4.3150,45.1882,-89.1272,-45.6485,68.6446,66.7507,-98.3332,29.1164
-1320.3125,27.8382,335.4075,14.0746,239.5711,10.7528,-30.1256,-140.4060,-42.7658,-137.6785,-106.0002,42.9629,15.2623,105.4024,-28.4167,-125.6064,-45.0426,137.6402,-4.7625,-239.1993,-7.2422
-1312.5000,531.3154,205.0166,101.0712,111.2044,-49.5101,-163.1993,-53.2192,-102.6267,-50.5918,-54.7418,211.5161,-8.0120,81.6185,-51.4920,-221.5881,-67.9449,-26.8603,-98.7538,-86.5747,-30.1113
-1304.6875,-243.4860,99.3841,-43.1614,40.6167,62.9846,-161.5075,22.7055,-62.7272,99.2403,23.2556,-50.9117,67.4907,157.5912,61.2038,37.1618,-65.1176,43.3964,-26.9924,-84.2434,-64.2453
-1296.8750,283.8633,98.8652,104.7230,112.1439,63.5565,-86.7190,97.7186,-98.7211,-83.8512,-158.6394,161.8438,68.1091,120.6521,25.0208,-109.0139,-138.1870,8.7392,-96.1349,-222.8323,-63.2860
-1289.0625,248.6382,169.8566,-41.8984,114.1825,-83.3746,-86.4299,25.2126,-135.2008,-46.4468,-84.0203,62.0968,105.2549,46.2174,25.3667,-71.6803,-63.7456,45.5910,-58.7629,-9.9417,-25.8371
-1281.2500,-100.9335,242.4593,-146.9103,187.8326,-3.7158,29.4638,-42.6969,-92.0743,106.5461,-76.8113,-74.8359,111.0241,51.3801,-5.6668,-65.7760,-57.7127,155.0335,-54.7913,-75.4824,-56.7986
-1273.4375,565.3153,274.9181,-2.0800,151.3387,-118.2230,-9.7898,-8.7620,-168.0863,-80.6132,-114.7465,159.4727,70.6644,11.3965,-7.8243,-252.0222,-97.8290,82.3264,-126.9536,-112.1880,-22.9186
-1265.6250,-11.6216,191.2373,-53.3958,102.7081,-58.8803,-24.1834,-96.9828,-145.2334,-94.9248,-126.8349,-17.8584,93.1795,69.2708,87.8859,-9.4267,-1.1025,140.4735,-33.2577,-54.0770,-0.2009
-1257.8125,350.8030,201.8600,70.6032,115.3796,-8.2573,-47.2789,-45.9100,-132.0743,-6.9469,-185.6090,135.8249,70.0031,45.4376,-8.0869,-142.5632,-98.0798,45.9027,-127.2652,-76.6703,-23.1923
-1250.0000,441.4563,187.7938,19.8897,31.3640,-97.3345,-99.0728,13.4409,-145.5980,52.3395,-53.0744,109.2282,19.1506,-43.0873,-22.7356,-120.3969,-75.7536,-2.3598,-69.9617,52.0167,-0.8929
-1242.1875,-136.6898,242.8987,-104.6573,87.5169,-0.2676,-1.7134,-0.0628,-11.9725,1.7590,-28.4156,-80.0424,78.4694,16.5408,0.7756,12.8969,-52.2838,53.5197,-12.5139,-67.1858,-14.4508
-1234.3750,515.2139,296.0680,-11.1609,71.7202,-164.1677,-56.3044,19.4754,-29.2900,-52.7802,-44.7062,126.1110,24.8597,-38.7811,-90.6378,-150.7659,-69.7589,-68.5615,-99.0067,-11.3478,5.0381
-1226.5625,19.7180,223.8999,-159.0116,-70.4137,-129.4097,-94.2366,-18.3470,7.0542,93.3197,29.6498,-74.5179,23.9265,-3.4434,-17.3750,31.2122,77.4070,1.0166,-28.8393,93.1096,4.1677
-1218.7500,195.9551,189.3965,-47.1886,-68.8833,18.9886,18.4798,20.4718,46.0458,-51.9629,-41.3589,69.2304,-11.3407,70.5407,-52.4465,-114.1978,-31.7921,-32.7552,-27.0251,-115.8044,5.9395
-1210.9375,456.6382,98.4006,4.1263,-121.8393,-77.1188,-4.3017,-39.2263,23.5459,-109.7315,48.1237,156.6644,-71.0924,48.0330,-74.9994,-136.1035,-17.4952,-122.0159,-46.6890,41.7746,57.1993
-1203.1250,-305.6040,74.4695,-128.5014,-40.7321,9.8296,-27.0241,-133.8684,38.1034,123.5476,137.6344,-124.6711,-19.7792,61.5836,-60.4921,61.0177,70.8357,-5.2269,-34.3005,124.3630,34.4933
-1195.3125,397.2831,109.6541,19.9779,66.4881,-26.1319,-98.6454,-96.4202,-34.2362,14.8973,29.2295,115.9637,-18.3439,-11.7610,-58.8639,-157.7802,-1.7418,-75.3378,-172.8061,21.0297,35.8790
-1187.5000,98.4176,93.1602,-71.2375,51.0342,-43.7851,-114.9557,-112.6987,-51.2673,-75.4603,87.1060,-6.7856,75.4155,7.2020,35.0793,-29.2793,17.9705,-21.1314,-117.0004,75.9768,55.5512
-1179.6875,32.6826,97.7334,-63.3799,21.6433,0.5952,-35.2187,-32.9319,-43.2495,42.2232,22.0147,-19.5961,119.2313,14.2099,6.0777,-21.7583,-11.2751,-50.8777,-146.1536,11.9567,26.2623
-1171.8750,436.7556,10.1654,-117.6819,-134.8930,-164.1764,-16.6317,59.6827,-61.3769,60.7583,41.7723,46.7350,100.9099,-78.9186,61.9411,-76.3831,7.3352,-136.7697,-127.4449,135.7722,44.8152
-1164.0625,-316.0546,65.7090,-240.8835,-79.3157,-31.8399,117.0648,-27.6029,-0.4019,84.3929,29.6060,-195.0304,124.7030,-18.9348,121.9133,94.0750,-5.9659,24.4409,34.3623,52.6571,31.4580
-1156.2500,220.3866,110.4613,-44.8806,2.4682,-56.3219,129.9590,-14.6923,-61.2286,23.2160,-66.3814,37.1888,63.7106,-43.7459,-11.8984,-78.2911,-139.0783,-35.1523,10.3720,-6.2585,7.2952
-1148.4375,4.0687,35.5299,-85.5771,-36.4381,-97.4912,89.1588,-55.4893,-27.7458,19.3315,-33.0951,-37.9767,24.0399,-11.2396,21.6132,28.6461,-33.9057,30.5729,76.6910,25.1068,3.4191
-1140.6250,-174.8170,32.9680,-10.8895,67.0143,123.6936,126.7088,-17.9294,-26.9130,-164.2307,-104.5029,-19.4071,23.7239,61.6332,21.4807,-45.0993,-33.4072,169.6434,111.3530,-186.2198,-33.1171
-1132.8125,434.1735,44.3193,111.6975,79.3650,25.7829,65.1631,-5.4778,-88.1800,-298.9004,-55.0401,161.4819,-36.6756,-73.5727,-38.7342,-178.9417,-58.0088,75.6178,87.9269,-104.6649,-20.7591
-1125.0000,-259.6926,89.8281,-22.5645,54.8759,74.0360,40.7727,-103.8827,-38.2999,-29.4030,105.5436,-102.6218,-23.9154,-61.6133,-62.7963,-20.6408,-8.4671,156.7513,134.6488,47.0268,-45.2627
-1117.1875,150.5529,148.3880,114.2285,80.4327,100.3225,30.4227,-77.2320,-48.3765,-2.8420,-50.8374,78.4132,-34.1029,-35.5993,-146.8056,-142.3001,-55.8819,110.9261,-16.5886,-104.2291,-55.7235
-1109.3750,190.8837,119.1017,156.1670,16.1522,67.7680,-74.7775,-109.4394,-117.2928,-72.1312,-81.0868,104.2891,7.8749,5.5872,-67.6531,-63.7905,-14.1473,117.2706,-9.6689,-97.3641,-14.0394
-1101.5625,-135.1608,180.3782,111.6868,43.4313,207.7622,-45.4271,-117.0957,-160.6640,-116.8960,-123.8240,16.9698,73.4073,70.3361,-37.9537,2.2391,-58.8704,179.1674,17.7867,-173.9798,-21.8090
-1093.7500,557.3999,134.2606,173.8067,-1.6909,48.3514,-94.4840,-55.1624,-208.4366,-92.0629,-61.9773,221.7129,-85.4524,-15.3061,-159.6500,-120.1299,-106.9934,27.6746,-27.1571,-8.9924,3.0219
-1085.9375,-87.8561,17.3564,-19.8698,-82.6005,74.1510,-30.3407,-65.0318,-109.0112,81.9797,39.0246,-30.2567,-95.0971,11.2725,-133.1353,89.7026,-6.9320,87.4028,68.0986,121.1682,-6.9547
-1078.1250,128.7370,-12.7807,61.2146,-75.7518,118.6840,14.5480,52.8536,-100.8503,52.7657,-63.2776,88.4147,-49.9855,54.6101,-161.8685,-12.7370,-36.1370,22.8868,4.0922,22.0634,-36.1851
-1070.3125,202.3739,-114.8079,28.3788,-141.7953,11.3160,-19.4526,92.8321,-97.5851,56.6609,-22.5119,69.6139,27.2435,-15.9309,-84.4847,-47.0596,3.7497,-7.5120,-25.8010,168.0508,3.6772
-1062.5000,-401.3937,-120.2676,-86.8923,-40.2702,79.5049,13.1031,52.3694,-27.7700,125.0922,-26.2372,-116.2393,96.0316,89.0955,-51.5541,95.1426,-0.8376,128.6453,4.8499,57.5549,-0.9176
-1054.6875,309.9689,-77.6065,32.9424,3.3610,-22.2119,-15.2439,60.9951,-55.8606,23.6090,-16.8906,121.9499,-5.0729,24.2311,-116.5168,-80.5580,-102.3227,-4.0917,-92.3950,66.1331,7.5875
-1046.8750,-153.1853,-46.4135,-81.7209,69.5092,-26.4183,-19.0939,20.1100,-59.4532,-17.3766,90.9231,-56.6789,28.3261,55.8881,-82.9885,99.2430,-33.2980,96.6843,9.8598,27.1786,3.5852
-1039.0625,-18.5813,123.4523,24.2852,99.3036,78.0107,49.6896,51.8700,-64.4080,-96.7084,-60.6458,26.6688,59.3684,50.2033,-124.8179,20.6711,-111.6351,56.0998,4.7512,-189.1228,-1.7723
-1031.2500,365.7374,85.0878,58.0299,-7.1554,-72.8009,9.2225,48.3761,-67.6093,-63.2822,-26.5210,119.1987,20.1696,-26.7029,-90.8778,-57.1457,-78.2372,-51.7186,-32.5985,-15.6815,31.6160
-1023.4375,-261.6382,56.0091,-80.9546,-0.3560,9.6481,55.0054,-53.8668,-21.5683,56.3768,18.7860,-108.1334,65.2266,18.6667,-7.6913,98.2670,3.3969,60.7230,45.2889,-8.0255,3.2476
-1015.6250,358.7589,43.6642,54.7604,23.1461,-2.2097,6.4825,8.5859,-106.8450,-29.2753,-29.2427,131.0976,-19.0169,6.7492,-92.8109,-97.6304,-45.2769,-21.1271,-36.1274,-19.6835,-8.4250
-1007.8125,-85.1247,-47.8899,-38.7832,-32.5852,13.6953,-51.2851,60.7732,-53.3780,96.8273,61.4455,-20.0023,-39.4959,58.5946,-76.1792,65.2317,7.7951,-7.2081,13.2129,99.3800,-29.3593
-1000.0000,-180.4480,34.0496,13.1333,14.1416,139.0393,-72.6023,150.4059,-1.4687,112.3571,-33.4517,5.6743,-60.5235,146.8914,-134.1056,80.5143,-50.6841,40.1500,-10.0063,-135.1276,-87.8518
-992.1875,364.1628,50.9635,104.9820,-3.1819,45.3333,-128.9628,130.9798,-56.6029,-54.1669,-15.4439,167.3452,-42.5894,54.1621,-116.0645,-49.2479,-107.2155,-13.5346,-62.2712,-46.6953,-70.3990
-984.3750,-342.3470,82.7554,-44.3175,65.3511,116.4891,-57.4630,17.4070,14.1148,-19.8479,92.3601,-96.2148,-8.7942,51.3033,-44.1644,57.8262,-35.9259,89.6344,76.3102,-14.4374,-73.1042
-976.5625,193.5748,20.9251,75.7343,39.2364,88.9793,25.3808,101.1832,-11.8281,-47.1862,-7.5220,92.9664,-71.6467,-13.1968,-107.9257,-79.7634,10.7113,-6.8468,15.2370,-110.8351,-63.4637
-968.7500,43.4186,-128.9226,-44.2692,-109.9214,5.4287,89.1697,53.8986,15.1695,-20.5643,56.5064,7.4820,-81.5421,13.2751,-6.7477,56.6162,110.3053,-15.3583,77.1102,21.7023,-36.8795
-960.9375,-259.8427,-221.9454,-29.4514,-61.2732,129.6678,140.7491,-4.5853,65.9492,29.8710,71.2744,-60.7920,-103.6430,27.5573,-28.7734,107.7762,87.6822,67.9313,125.7570,-0.9676,-59.4978
-953.1250,368.6459,-224.1961,76.1150,-63.8723,14.6551,62.0694,-46.3254,-11.5312,-10.9409,139.7357,135.1292,-144.9839,-50.3914,-107.0377,-44.3091,9.8044,-41.0126,52.1463,101.1137,-27.3637
-945.3125,-256.7852,-112.3636,-25.2624,-55.4118,95.7063,34.4346,-112.0171,-2.9755,70.2852,185.1822,-87.7553,-99.2650,-5.2631,-98.2601,147.6571,90.9722,72.1064,95.5743,39.2137,-19.1806
-937.5000,131.5864,-39.7998,87.0643,-18.2512,97.4462,-0.5155,-73.0049,-0.7364,-0.8025,77.2763,80.5571,-96.8510,32.5786,-58.7936,2.3153,56.8369,-31.0781,-7.3150,-134.9964,-17.2888
-929.6875,110.5734,-131.5589,-7.9676,-74.4378,-35.1526,-59.8239,-21.3581,-22.8531,13.7691,164.9742,38.0397,-44.7812,47.0949,-6.6777,89.6422,34.3482,-87.5944,7.4423,55.4368,-2.7387
-921.8750,-358.1966,-107.1405,-53.8222,-14.4750,-7.5969,5.0022,42.4321,41.1630,151.4894,155.7606,-104.8585,-16.5669,74.7792,-52.4238,154.0968,-12.0087,-27.9568,31.3207,44.0147,-49.0331
-914.0625,352.9178,-98.8620,102.1697,-40.6735,-147.1976,-23.3402,125.0708,50.0128,49.0789,164.3510,131.3381,-81.5076,-26.6677,-117.3313,-58.5849,-77.5211,-125.4607,-100.9606,87.4606,-40.4708
-906.2500,-198.5677,-87.1604,4.5645,-28.4668,-98.3865,-11.2875,-46.8930,99.2522,61.0787,139.2815,-75.5511,-32.0514,-14.6854,42.1514,100.1498,8.3596,62.4497,-17.8501,64.2824,-28.5068
-898.4375,49.2496,-15.2371,80.1679,78.9359,-22.3810,63.9507,-81.6457,64.6713,-9.7323,-5.6502,33.6750,43.6032,-12.4835,8.8260,-7.9353,-26.5720,29.5654,-50.5644,-144.6946,-26.3350
-890.6250,239.2264,-36.1023,-54.0502,58.5313,-156.1685,40.3829,-105.1937,41.2824,-71.3292,117.5562,18.3707,20.4644,-74.0493,21.7045,4.2038,96.7002,-97.0982,33.9194,-25.4620,23.0422
-882.8125,-461.1190,-33.3421,-231.6595,96.7255,-42.3498,155.4117,-101.1377,119.4805,7.6755,232.2956,-215.5387,25.9192,5.0084,27.1659,118.9354,137.5602,-58.1606,177.9885,-21.6462,-8.9760
-875.0000,259.0444,-17.1071,-103.8186,43.3568,-61.0910,99.8825,64.3605,64.1148,-84.8643,139.4288,52.8507,-66.1833,-13.4685,-27.9366,-120.8786,8.8614,-112.7682,88.5073,-40.3747,-27.5357
-867.1875,-220.1047,-73.1558,-87.2707,-47.3005,27.8882,79.0556,117.5581,43.4418,-31.7031,82.1927,-54.0805,-86.5827,75.7771,24.6495,42.0112,-49.1508,7.3569,138.7239,43.5758,-48.3953
-859.3750,-187.0500,-75.0840,97.4000,-13.8536,138.9690,116.3200,154.8679,43.8429,4.5527,-103.0122,51.8192,-85.8905,149.1344,-84.6793,41.9829,-123.0829,5.5894,31.0238,-134.3783,-85.1534
-851.5625,203.3835,-177.5941,99.4559,-80.0093,29.4565,80.9767,119.5834,-27.3653,-29.7720,-27.8693,124.7552,-120.8018,40.9126,-82.6066,7.3772,-47.6218,-25.7659,-0.2772,-24.9243,-46.5123
-843.7500,-387.2781,-171.2240,-40.6323,-38.3168,109.8019,87.4844,16.1601,16.2682,49.7551,15.0607,-115.3248,-39.8696,10.5670,34.2951,123.6109,-4.3238,86.7308,76.2602,16.3673,-40.0240
-835.9375,312.9311,-104.0373,65.0789,-5.8360,67.9413,9.7866,11.5381,-25.3055,-27.9220,9.7404,121.8626,-81.1429,-29.9626,-80.0152,-102.3602,-46.2293,13.0273,-67.4127,13.4742,-7.7327
-828.1250,-34.7884,-64.7302,-79.1178,-72.2485,-39.8057,-97.8090,-59.9896,14.2176,48.5053,195.4584,-42.9940,-78.3139,9.6318,-77.2222,84.7882,103.9618,-17.5540,-27.9885,157.6674,31.6585
-820.3125,-216.8545,35.1527,-10.7554,-7.1070,64.9934,-139.8624,-65.9594,8.2736,79.4740,115.6623,-68.9760,-46.9391,40.7867,-45.8978,114.4732,60.6979,46.4126,-104.0307,11.3997,25.6018
-812.5000,310.9193,140.9018,99.4410,-7.1172,-47.3595,-178.0758,-30.0843,-138.8279,-32.6905,39.6772,92.4511,-10.7209,-34.1881,-9.7288,-69.9716,22.2848,-23.7566,-173.2230,10.9954,61.3958
-804.6875,-389.5758,143.3776,-45.6520,31.5770,29.0046,-101.5881,-99.4988,-99.2375,6.8504,78.3215,-138.9453,29.1941,42.5609,30.1265,79.2806,61.5609,84.7805,-30.7274,13.2674,63.8868
-796.8750,136.2192,37.0802,27.4616,30.4649,-9.4375,-66.9186,-64.7066,-100.4667,79.5855,3.1032,57.8097,-45.6944,41.5300,-7.8282,-69.2735,-13.9658,-57.4869,-101.0548,47.7393,62.5832
-789.0625,16.1391,-49.0413,-62.2921,-55.5012,-98.7210,-120.1065,-80.7694,-44.5547,172.4840,94.9795,-50.8841,-25.4298,-49.3278,49.3637,60.3470,5.6619,-37.5875,-47.2375,172.3607,82.4346
-781.2500,-213.0393,38.6526,29.7572,-3.6706,65.7857,-65.5011,-63.0321,-26.8582,7.1895,38.5974,-70.5838,-6.3771,-30.3731,-5.6626,41.7546,24.0835,85.1110,-30.6435,-22.2057,64.0924
-773.4375,496.5426,45.1059,110.5453,-67.1031,-74.9620,-132.1548,-20.5429,-92.4220,-59.3423,43.9160,155.9294,-72.5810,-60.6506,-71.9442,-135.0675,30.2586,-14.4252,-129.3099,54.9954,70.5084
-765.6250,-225.4670,-9.0079,-92.2604,-51.1365,-58.2929,-114.4121,-39.6418,-39.5946,68.5289,97.5644,-108.6672,-18.3863,31.5031,19.1550,138.5170,84.8234,72.4511,-43.5895,105.5752,51.3309
-757.8125,169.8219,104.1048,26.1409,63.0156,-50.4369,-143.4836,-31.5315,-67.5899,-70.3872,67.3477,45.0110,-46.9998,2.8697,-9.5641,-0.6941,18.5759,10.5119,-140.6919,-27.6271,59.3654
-750.0000,241.2259,70.3792,-11.3354,-41.6931,-160.4244,-217.4151,-67.2728,-104.4422,38.8828,176.2284,26.5194,-82.4676,-34.5851,-10.1395,35.2847,91.4860,-93.2669,-139.6524,184.3314,95.5585
-742.1875,-305.0291,50.9149,-30.5542,-95.1556,2.8406,-90.1029,-14.7499,-15.0592,56.4004,118.2951,-103.5667,-29.6977,57.2308,7.5093,126.5070,145.6460,-78.7966,-54.3859,-11.4711,76.0107
-734.3750,387.6954,4.4100,142.1705,-141.6815,-45.9477,-29.8568,83.7313,9.2572,-139.1279,31.2652,153.3005,-40.9846,-28.9809,-40.8967,-106.3130,58.7541,-159.3683,-100.1796,-92.3100,100.4240
-726.5625,-178.6869,-34.1702,-81.1985,-74.3089,-85.8151,2.2821,6.1223,42.4619,40.2493,99.0710,-111.4254,28.6264,-68.2693,28.5934,72.7759,54.7503,-58.0241,35.9134,79.7399,96.7422
-718.7500,26.5380,30.7733,-86.0508,24.5500,-91.1897,-2.0946,39.0226,38.1468,146.1239,56.3127,-53.6794,24.7268,-73.0468,-12.4328,-5.6493,13.2458,-64.1871,-109.5222,73.3046,55.5690
-710.9375,281.6816,3.6818,-77.9725,-37.6485,-230.6147,-141.5302,8.8663,7.7726,116.9803,98.4589,9.3619,-5.2308,-64.8527,31.4814,0.9108,130.7053,-125.3935,-172.0153,151.8371,99.3536
-703.1250,-258.8023,-10.0913,-128.5900,-51.5474,-97.7362,-118.6709,-76.9771,30.6857,-7.8584,156.8409,-130.1850,92.1035,68.6627,91.6743,170.7680,153.4597,0.6990,-80.2270,-38.3492,85.4465
-695.3125,363.3750,49.7543,117.3813,7.1392,-73.2692,-167.2239,-16.2183,-89.8135,-165.1028,-3.2208,136.3468,81.0262,20.7921,43.4582,-60.7613,30.8253,-45.6092,-127.8494,-119.9310,74.1523
-687.5000,-115.7174,98.3694,22.0929,56.5764,14.9567,-152.0342,-37.7096,-111.5696,-3.5855,-173.5938,-24.5855,59.6962,36.6944,58.9842,27.4819,8.9380,73.8548,-9.7317,34.2395,52.6150
-679.6875,-44.8112,168.9033,60.7216,196.9068,126.0760,-41.9594,-36.2851,-75.4479,34.8358,-542.1309,47.1541,97.2556,74.5077,-13.6055,-45.3866,-64.0710,108.2147,-9.7387,-107.6760,16.9886
-671.8750,488.4641,103.8490,101.7367,131.6232,-17.3990,35.5050,4.5480,-34.9321,-144.3145,-724.3193,207.0097,102.2125,5.7404,-9.8024,-77.8387,-23.6850,8.9855,-5.3476,-67.1696,57.7703
-664.0625,-211.4169,71.6104,-43.4416,134.1373,95.9359,147.7676,-29.8053,78.3711,-68.6510,-833.7686,-28.6320,140.9639,45.7892,66.7789,108.5074,52.4974,81.5600,137.8237,-64.8736,60.3575
-656.2500,261.9835,17.5848,48.5835,114.8352,39.4587,128.2178,62.0409,58.8551,-14.7839,-929.0735,144.8864,48.9027,27.0471,10.5472,-21.9353,32.8889,27.3357,48.1727,-49.3641,41.1591
-648.4375,-111.8439,-110.6217,-10.6040,-12.6766,53.7916,105.4625,76.6862,73.1235,109.9095,-879.6331,26.7422,-10.3640,78.1328,25.1096,139.4521,84.0851,74.9186,95.3098,138.9473,18.7708
-640.6250,-256.2676,-9.5148,96.5168,17.1001,160.4136,101.9886,72.6484,32.6748,143.9121,-958.9485,39.9785,59.6505,149.5363,-15.0510,136.1371,6.5732,140.7921,19.7186,28.5632,-21.3048
-632.8125,462.7948,111.0958,148.1247,-3.6367,-9.4622,6.0057,51.1181,-101.2811,121.4224,-946.8014,224.5696,74.1594,53.4554,-0.7248,-33.6474,-53.4292,-20.8274,-72.3767,148.6893,-6.8660
-625.0000,-149.2229,97.6216,24.6356,-17.4719,123.5764,-8.0777,37.4998,-41.3434,107.8377,-851.8098,19.5082,134.5597,114.2906,58.4813,99.4725,6.4633,70.4564,19.4131,98.7116,-20.5154
-617.1875,320.8433,73.1639,220.1436,-6.3259,171.6003,39.8208,121.8919,-30.4291,-101.7323,-953.8546,247.4833,145.9417,126.1358,33.6696,-110.4088,-19.6430,11.7305,-75.8173,-101.2380,-9.1509
-609.3750,86.8192,15.6674,83.5898,-30.2463,71.5893,12.6585,59.2473,-20.5735,-54.3267,-872.0018,111.9990,156.2621,99.9591,116.7969,10.7005,27.1975,23.9692,-29.1044,86.7635,38.1727
-601.5625,-341.3130,42.9844,38.8538,32.6231,136.3879,41.2839,14.4264,45.0687,158.8765,-845.4166,-35.9708,111.3660,92.5975,145.7006,76.6068,18.8263,86.0024,-1.6175,43.5544,30.3084
-593.7500,380.5621,61.3016,94.1024,-20.5231,7.1784,-15.0969,69.6043,-11.2965,67.0949,-756.8688,153.7300,19.4592,-35.7401,90.5907,-53.4647,-37.5351,34.0321,-55.1397,96.3703,48.4622
-585.9375,-137.6675,-34.4746,-42.7649,-81.7784,90.8680,-4.5808,43.6845,109.2342,78.2435,-637.4579,-23.3568,-6.5591,12.8417,100.3668,104.3853,10.0092,148.9607,94.2207,176.0995,22.5297
-578.1250,127.7917,-157.6431,51.9688,-28.4598,149.1389,89.5147,138.3766,93.3514,26.0162,-656.4851,116.0428,-21.9908,34.0212,47.7345,-21.1643,-79.8428,96.4748,76.1472,52.4582,-29.7874
-570.3125,82.7642,-237.2452,41.2399,-39.6046,137.9661,78.1492,164.6248,82.0147,-21.6468,-522.0050,100.6529,-32.8729,23.7692,36.6496,4.8652,-128.1353,49.5516,135.6139,147.3648,-40.5409
-562.5000,-481.1807,-169.8231,78.5336,64.2457,321.7965,151.7740,164.8841,118.6601,-58.3211,-561.5807,-17.4326,3.2343,98.5326,-0.4598,77.8904,-201.4323,188.6195,203.0533,4.2598,-77.2796
-554.6875,255.1457,-32.1504,185.0756,95.3363,169.8596,147.6306,197.3961,77.5370,-135.7223,-604.9309,200.6593,-36.4200,-15.4398,-114.3288,-109.8123,-241.4766,44.9311,128.7262,35.4333,-80.7505
-546.8750,-198.8074,-28.7222,-68.6281,63.1724,62.6771,150.2291,90.6670,117.1558,51.6630,-457.5678,-48.5560,39.6699,-11.6540,-37.4588,114.2551,-129.7696,83.0024,166.1341,144.3611,-77.4629
-539.0625,-62.0149,1.3646,-0.6633,127.6426,57.1365,144.4652,85.6079,74.4047,9.6919,-428.6019,19.6907,34.3998,20.7893,-42.9542,71.9615,-135.4115,77.7145,90.1661,-2.0531,-82.5094
-531.2500,171.4402,-46.8428,19.9824,7.7906,-70.6995,52.4018,32.2506,56.3508,-43.5684,-301.9766,74.3394,-19.1791,4.9603,-23.7517,18.4048,31.6570,28.1327,4.8919,125.2420,-25.8388
-523.4375,-392.1027,-49.0902,-19.4202,39.8790,0.4164,86.2864,-81.1378,53.2380,28.1258,-233.4508,-107.7515,15.1731,39.0984,46.3809,125.8089,101.6720,131.4932,36.5481,86.4830,-28.2033
-515.6250,355.5387,-5.1907,136.3113,13.0983,-65.3332,21.3056,38.6332,-11.7352,-74.0001,-264.7898,151.3609,-50.3412,-24.6104,18.6460,-49.6200,-37.1564,33.9867,-96.6593,59.9126,-19.4010
-507.8125,-51.0775,44.5064,3.8169,-7.8890,-14.2738,35.1227,16.2072,-34.9091,-22.2871,-107.3489,-30.2841,-36.0667,-46.4993,-4.3044,74.7769,13.8237,119.2862,-12.0756,109.1597,-4.7880
-500.0000,-141.0524,95.7630,56.8822,41.6642,112.3297,50.4771,69.3471,-18.5482,67.9732,-130.3990,-24.6604,-56.2563,-28.8332,-98.7153,18.7124,30.3516,99.1274,-67.9679,18.9566,-24.6095
-492.1875,303.7026,10.7759,77.6852,-8.0484,-51.3138,-39.4338,127.2384,-35.4508,52.9936,-38.7334,88.4535,-72.6972,-81.4037,-78.3775,-34.5740,13.6444,13.7259,-154.1164,109.5086,-3.6642
-484.3750,-333.0023,-28.7002,-37.0034,-13.2679,53.5508,-7.8539,122.6410,69.1315,11.5225,27.3900,-126.2157,-3.6490,-48.4593,27.4416,107.6427,45.4386,78.8254,-18.7841,34.5490,-8.2041
-476.5625,276.6996,-52.8309,122.6462,-109.1593,28.7497,40.0624,172.4117,81.0524,-49.5869,-37.1549,117.1997,-102.2661,-72.1625,-34.4003,-63.7765,-53.4123,-50.7433,-44.1139,9.9645,-32.3760
-468.7500,-26.3111,-145.6167,26.6149,-235.7156,6.3060,17.3230,150.5466,95.3316,112.6771,84.6295,6.2596,-161.5445,-19.4942,-93.8990,61.1952,-1.9003,-37.9585,37.8980,198.7436,-54.1838
-460.9375,-257.3890,-167.5565,78.4390,-154.4388,167.7018,68.4220,128.5474,109.4513,90.8121,22.2386,-4.5824,-146.9864,69.0272,-116.5605,113.0051,-61.5430,45.6588,50.7311,0.3879,-76.1259
-453.1250,369.1186,-103.8969,141.8452,-55.5898,46.6907,57.1056,118.1562,25.1660,-139.4205,-64.5568,190.6433,-156.8378,23.1553,-127.6305,-7.5657,-72.5785,2.8695,7.1543,-77.3379,-12.4522
-445.3125,-325.7166,-25.5806,-35.1046,90.8968,90.3387,63.4363,-21.5686,-5.4734,-95.9934,-60.7318,-76.7332,-3.0518,66.9522,-10.0655,146.5333,-28.9597,185.7200,119.2144,-105.4244,-5.1160
-437.5000,213.3604,55.5887,87.7897,137.2175,65.8224,38.6066,-8.4310,-104.2706,-119.7103,-125.0768,106.1108,9.5642,7.6018,-34.6616,-61.5095,-127.4786,126.4029,-11.8953,-129.6450,-28.9097
-429.6875,243.4721,14.8596,6.7620,-45.3707,-52.5894,-43.1262,-90.1931,-112.9718,-16.3025,47.6630,62.1740,1.2790,0.3610,30.8428,4.5821,-61.8857,14.1968,-53.9142,110.2457,0.4124
-421.8750,-141.3917,51.0814,-66.3071,-81.0220,21.9411,-42.9238,-88.9819,-38.7344,95.0642,119.3313,-73.1750,1.9309,39.0793,31.2784,115.6152,-24.3465,49.9254,-54.0144,-28.9064,1.6999
-414.0625,509.9946,138.5474,59.8480,-99.4501,-37.2931,-137.4889,-36.5047,-97.2497,-72.2976,94.2458,128.4306,-57.1792,-55.9391,8.9542,20.9292,-46.5406,-3.1183,-178.8760,-82.7817,54.2574
-406.2500,-25.0036,130.6637,-60.3653,-3.2408,-10.8732,-111.4025,-155.3738,-71.1142,-80.9813,117.7921,-67.2365,6.3522,-28.2914,35.2739,157.9195,53.9199,128.4761,-83.0923,-90.0036,81.4803
-398.4375,288.5039,197.2209,81.8666,97.4081,20.9794,-116.8741,-196.7867,-149.5370,-122.1964,36.7815,93.1680,1.3158,4.8010,-43.9640,-66.6431,48.8372,88.5067,-158.8721,-165.7552,77.1707
-390.6250,350.3396,117.1678,33.4812,-18.5506,-99.7628,-165.9466,-170.7907,-198.5607,-22.9899,169.1726,66.6568,-10.3313,-41.6937,-18.8100,-40.7745,111.1684,-27.0556,-169.2514,70.9013,103.2738
-382.8125,-306.5201,57.3660,-100.6437,-79.2698,-16.2492,-117.7729,-158.5271,-113.3380,172.4579,214.7985,-163.6713,75.2582,7.0713,103.5757,81.3410,122.7492,-17.3825,-90.3975,45.7946,78.6404
-375.0000,346.8833,41.7974,-9.5350,-165.7599,-70.5026,-99.3637,-65.0032,-168.8681,82.1672,156.6728,64.0814,57.0887,-9.9080,85.2133,-82.2767,30.5919,-102.4698,-177.3057,28.9662,98.2748
-367.1875,-98.0639,16.9191,-107.7424,-155.5633,-60.0497,-89.2570,-53.7690,-121.6966,93.6151,201.2436,-94.1750,30.6146,1.8224,58.5420,74.8341,41.1429,12.1469,-62.5296,110.8472,109.6195
-359.3750,147.2576,86.2321,-35.7456,-53.1822,-24.4165,-90.9631,18.6882,-122.3374,94.2792,124.0057,2.1354,-6.6745,-34.2522,-52.9254,1.1431,-33.1042,45.9425,-65.5785,-32.0613,73.1794
-351.5625,443.6645,-41.3167,-58.6248,-75.6657,-157.6365,-114.5269,32.2920,-146.8315,108.1102,280.9158,51.1884,-102.8159,-129.1658,-76.1993,-22.3678,-20.1866,-12.1135,-53.4864,157.1914,86.9051
-343.7500,-352.0615,-99.0267,-154.6483,-29.3091,-35.0015,-29.2435,9.7511,-24.4777,85.7856,328.6607,-172.0148,-54.1125,-5.2254,10.3977,138.9709,30.5847,70.6718,63.4407,29.2841,64.4976
-335.9375,231.0682,-44.9197,10.1685,-46.1229,-53.5305,-11.1162,66.0695,-6.2753,-77.6709,197.2695,81.8415,-107.5678,14.5648,-81.1650,-25.8326,-24.7741,-120.7160,-24.7856,-22.7460,83.9605
-328.1250,-186.9880,-41.9444,-96.1347,-184.0483,-87.1529,-82.0858,32.2986,32.8389,108.8112,343.7914,-84.0490,-142.1264,55.2678,-78.8394,125.2920,88.7804,-154.2111,12.8898,156.1371,87.3376
-320.3125,-188.7926,-8.7926,-98.2375,-151.7917,21.4129,-47.8628,31.7508,68.1468,181.5051,339.5207,-91.6572,-107.4950,18.1724,-117.3240,87.6145,13.5416,-122.5313,-26.2542,48.2305,49.9295
-312.5000,396.5928,-58.4104,-77.1210,-167.2989,-104.7793,-100.3967,53.4603,51.7103,56.4725,394.5205,60.8404,-159.6193,-69.6715,-132.5566,-1.7804,34.5713,-171.6080,-42.1486,69.6062,71.7861
-304.6875,-391.4317,-108.4419,-202.4132,-78.2176,-10.3691,-43.3273,38.7911,108.8822,152.0578,449.1295,-206.7170,-102.1506,-47.9118,-76.2038,130.4247,93.2063,-11.0965,82.5480,89.5790,57.2559
-296.8750,43.9848,-96.0910,-42.3182,4.2378,-33.5724,7.1339,90.5388,85.4547,94.0452,350.1603,-18.7182,-52.2927,-69.7489,-135.4613,-75.9667,-3.7456,-70.2153,-11.3639,-3.0326,35.1424
-289.0625,-221.3244,-81.4020,-64.8951,-16.9692,-93.4174,-16.0565,-5.3634,63.3847,72.4064,397.5552,-127.1960,-38.0929,-90.2152,-48.3761,-23.9714,120.6681,-55.9900,72.0717,81.7087,50.3901
-281.2500,-528.1224,-36.2560,-54.0125,26.2659,-8.8191,67.1946,-67.8037,109.7533,120.2223,368.3969,-200.1333,9.5418,-42.2338,-0.8550,24.4682,94.5324,-82.3350,79.9372,-50.1005,25.0994
-273.4375,200.0104,-13.1476,5.8046,-57.5620,-133.2791,-20.6219,-44.2953,22.0674,-40.0048,388.2050,28.1123,-41.8783,-55.3027,-15.3875,-99.1187,81.3575,-199.7334,-38.2535,44.0531,48.7725
-265.6250,-318.4551,-40.6100,-131.9833,-84.9850,-89.3406,-13.0409,-144.3891,-7.2197,6.1741,393.4146,-161.3763,3.0962,28.0271,66.4721,129.6972,125.5810,-15.7364,3.9452,17.5887,57.8542
-257.8125,122.6575,-21.5548,33.7239,38.0820,-69.9305,-30.9698,-160.9771,-99.0154,-47.1527,189.1388,25.0416,59.5576,11.8475,11.8241,3.0045,35.3071,36.7413,-85.3698,-175.3711,41.4485
-250.0000,42.4125,2.2085,20.1016,60.8416,-119.8268,-82.1944,-136.8611,-148.1013,-58.7673,246.5815,-16.5744,82.7166,-0.6234,34.8754,27.0363,95.7459,-10.0835,-132.9848,-46.6281,65.7497
-242.1875,-333.1674,82.5807,-6.9259,35.1875,-37.1360,-144.8211,-89.1285,-138.5878,25.2158,216.6376,-116.5544,128.4627,84.5071,117.5234,74.6548,68.7869,-0.3392,-194.0207,-71.2850,76.6588
-234.3750,426.6506,103.3620,11.4188,-51.0901,-128.0689,-237.0607,-32.9905,-194.6700,44.6203,233.1322,97.1085,73.6046,30.0357,62.5730,-89.3123,50.2348,-191.2215,-315.6614,-15.5156,132.9763
-226.5625,-190.3705,46.3636,-158.0477,-108.1722,-114.7936,-224.1003,-55.6504,-107.5509,170.2464,390.8363,-141.5844,49.9432,44.7629,38.8174,107.9275,100.8788,-107.9038,-162.1063,104.4470,147.4950
-218.7500,23.6873,14.3740,-43.5025,-105.2657,-74.5335,-147.1477,58.6993,-67.4380,138.8706,355.5514,-2.2023,-55.7330,87.4769,-66.9508,2.1510,31.5190,-175.6047,-160.5657,36.4177,116.0186
-210.9375,171.6347,-83.6619,-74.0278,-206.4215,-179.3203,-105.2457,101.9921,-26.3702,145.4649,321.2472,24.7342,-50.4668,57.1459,-25.7782,8.3496,0.1199,-205.3569,-86.0685,113.3484,122.4921
-203.1250,-414.4220,-74.7344,-98.6014,-127.6330,-20.1552,53.6008,42.2460,23.6398,159.0084,183.9083,-116.1278,-1.2631,144.7682,-12.6656,96.4867,-23.3312,-56.1728,28.3624,-17.7806,62.9141
-195.3125,293.6392,-34.6980,89.9100,-89.7544,-51.9046,21.5372,121.6059,-45.2546,55.6576,186.6926,130.5079,-69.9687,41.4850,-118.4520,-82.2653,-91.6737,-157.9066,-110.1159,-48.7977,32.4413
-187.5000,-204.9968,-78.3012,-65.2493,-98.5300,-60.2973,-24.1727,114.3234,20.2142,121.6721,322.8460,-83.6016,-115.3276,34.5521,-52.8854,131.3488,48.3367,-131.2954,-13.2473,49.5189,25.3215
-179.6875,-150.5139,45.1425,-9.3545,-46.2691,31.3411,67.1612,171.0997,37.7398,31.7295,192.0823,-26.2930,-133.6498,54.6587,-34.2795,40.9952,-43.6026,-114.6601,37.6588,-144.1109,8.2596
-171.8750,263.2940,36.9736,-57.0813,-55.6197,-89.6260,55.8908,124.2708,-9.3258,-51.7954,215.7657,64.7121,-179.5719,8.1642,-8.2709,-5.9395,-54.1247,-192.6267,62.9691,-47.3210,35.6031
-164.0625,-431.6425,9.0521,-158.5541,20.2817,-44.3384,137.8725,23.7043,71.8543,104.9414,221.7149,-164.0956,-99.2529,54.9208,-0.0185,113.3732,-8.3966,-81.3577,139.5178,-39.2929,8.2003
-156.2500,159.4983,-33.8291,-56.9883,11.2173,-127.0154,91.8989,89.1963,63.0806,97.7360,210.7429,32.4736,-70.8923,10.7166,-45.7142,-78.2591,-16.6104,-196.0601,24.1093,-83.2004,0.8585
-148.4375,-206.9794,-85.2654,-220.9944,-75.4044,-145.2330,73.3788,36.1317,81.7620,117.9963,374.2553,-151.3429,-15.0815,-6.0282,83.0391,15.5795,112.6383,-211.3181,78.1521,77.3420,20.9746
-140.6250,-344.9956,-12.3028,-182.5914,30.3634,-33.0641,111.2472,1.4761,82.8371,10.6568,263.1957,-160.0133,23.1182,33.6206,121.1841,17.8001,77.2880,-141.2002,78.5783,-131.7121,23.4981
-132.8125,199.9256,-31.3531,-58.2073,10.1129,-128.9093,52.1152,-19.1755,24.9171,-82.6721,239.1873,39.2623,-35.6937,13.2697,62.3395,-112.9557,56.9532,-195.0956,22.0098,-80.7490,40.0279
-125.0000,-456.2246,-20.4702,-191.8883,54.8089,-5.8073,26.9403,-42.8583,72.9632,3.9588,322.1686,-186.1822,-23.5670,63.8687,74.4397,47.2457,105.5796,-80.0548,102.3852,-69.8455,16.5095
-117.1875,93.6638,36.4017,-96.5905,76.4960,-56.7334,49.7626,-18.5368,59.0191,-45.4072,233.1922,9.4165,-37.4427,51.4532,23.5439,-113.5526,55.2143,-130.0333,-18.2470,-152.9318,4.0016
-109.3750,-36.9215,45.8835,-196.7146,48.7879,-159.0615,-14.8113,-45.6278,30.6798,1.8400,312.8461,-91.2595,8.2940,24.6336,69.2550,7.2713,101.4599,-121.4137,-10.2804,-2.4239,14.0988
-101.5625,-347.1981,49.6204,-228.5773,87.3265,-80.1542,-11.1439,-2.4708,109.5869,118.3371,278.7761,-187.4701,86.2760,31.0546,37.2064,49.3232,32.9613,-82.5692,-43.0767,-33.6695,-16.5467
-93.7500,312.5341,41.3914,-93.4085,6.8983,-201.2103,-95.4301,97.7309,98.5412,72.9002,229.8034,30.2390,2.3048,-52.4753,-46.7815,-107.5613,59.5268,-231.6872,-158.8122,63.1507,10.8658
-85.9375,-299.4775,-9.5488,-220.9531,-45.2233,-109.9594,-77.4109,7.2321,153.8017,92.7566,209.1604,-169.6292,56.6353,41.3102,81.5386,95.8567,115.3918,-109.5023,-35.2472,12.2537,30.5828
-78.1250,79.2068,-17.8527,-83.8489,-19.6984,-45.0701,-12.7470,73.3871,107.7038,11.2453,87.2021,16.3693,47.6105,70.7457,72.5134,-59.0841,-3.0932,-153.6820,-80.0341,-136.9949,22.9586
-70.3125,86.0978,-82.8721,-187.4668,-49.8713,-113.8750,-81.7785,115.8397,38.9152,55.0489,238.5816,-31.8497,52.8864,40.4830,77.7950,-15.7050,2.7316,-217.5561,-40.5025,80.0527,29.6368
-62.5000,-406.5829,-48.5040,-188.6692,17.3572,32.7211,-45.4064,116.7002,75.5309,166.2465,235.3946,-172.2631,52.5583,41.6091,3.4785,58.0540,2.9532,-115.0514,27.4171,8.4879,-6.2840
-54.6875,297.0600,-13.8039,-5.5318,-19.0796,-41.3459,-10.6829,153.9083,0.5025,19.7932,122.6161,80.9923,-21.4183,-31.9248,-70.4769,-125.8327,2.5307,-187.2086,-45.3084,-26.7121,-5.8488
-46.8750,-259.2596,-9.0102,-75.3042,-85.4161,35.6940,67.1502,85.2138,41.5880,-11.5573,124.9815,-98.0275,18.7108,10.6396,6.6676,27.3888,43.2182,-77.2736,64.0713,-56.8270,-0.3115
-39.0625,40.3238,8.6209,53.7645,-68.9048,91.5645,85.8321,105.3751,60.5228,-65.0662,31.2303,55.9832,0.6849,31.0448,-11.3372,-100.5545,-84.2340,-95.5100,-25.7037,-110.0876,-16.9181
-31.2500,291.2625,-92.3174,20.2483,-135.9451,-52.1141,14.9716,72.9772,26.9155,13.8941,180.9833,78.9451,-31.8950,-38.0968,29.1212,-96.0309,-6.2252,-163.2949,-93.0102,70.1174,-12.0759
-23.4375,-302.9967,-55.4707,-49.4595,-65.1789,61.0164,54.9154,4.3858,67.1164,91.6539,145.5719,-123.1077,44.3179,-33.4429,32.3776,18.2783,33.5715,49.7109,13.4836,-32.8957,-44.4386
-15.6250,395.5847,9.2071,164.6825,34.4289,54.9898,48.7090,-0.3465,-12.8290,-96.7417,-82.9426,159.7746,1.3770,-74.9482,-10.5183,-206.5621,-44.7791,43.5499,-64.1652,-108.0440,-48.9533
-7.8125,-38.4612,-3.6738,41.2657,55.4771,41.4245,34.9590,-49.6212,10.6898,-71.6672,12.0350,-8.8965,24.8890,-50.0064,13.0360,-34.9422,-21.6705,64.8321,62.6423,-15.7442,-61.0256
-4000.0000,-79.1126,-9.6870,19.4620,59.0150,43.3840,70.2564,5.7651,57.5950,-13.9875,62.3876,-12.7433,19.2539,-14.1681,-25.2402,-52.8328,-36.6739,-2.4519,33.6315,-28.5405,-84.6944
-3992.1875,308.4286,-44.1507,-54.5331,-43.3371,-140.2478,-1.8661,42.5700,22.2380,22.4815,100.5392,50.1588,19.5027,-50.7255,-25.7977,-53.9590,36.5203,-106.8616,-70.1606,148.7191,-49.3509
-3984.3750,-371.3853,51.0884,-176.8414,17.0027,-78.1793,-13.2854,-42.9368,47.5873,83.6543,126.4033,-202.7571,117.4640,-26.5863,72.3547,116.6312,97.4210,22.4319,-10.2405,66.6821,-26.3050
-3976.5625,263.6722,90.1827,-26.2951,57.1899,-149.2621,-82.8494,-3.5873,-59.2126,-24.3169,93.1243,13.8070,84.2787,-98.6018,37.3541,-65.9407,62.1653,-43.4374,-110.4783,35.4897,11.5883
-3968.7500,-52.3980,-48.8788,-136.9140,-80.7870,-148.5164,-118.5665,-3.3857,-58.1665,85.5759,205.7209,-116.8439,84.9422,-61.7723,111.2079,117.3447,172.7606,-112.4702,-72.8709,178.1676,47.3330
-3960.9375,-199.8344,-55.2379,-142.8477,-86.0629,-43.0684,-86.5747,-9.4892,-26.4159,190.1837,91.0244,-119.8777,42.3130,42.7609,67.7672,147.3502,166.0542,-83.7971,-78.5528,65.5411,39.7764
-3953.1250,353.2575,-64.1489,-79.3198,-129.8925,-163.1810,-96.1329,16.8630,-110.2197,105.2284,81.7754,61.4037,32.1284,31.7429,93.7732,25.7862,81.7911,-197.6912,-122.7936,91.3591,64.6719
-3945.3125,-381.0400,-58.4186,-256.1575,-123.0796,-83.6462,-52.0449,22.8557,7.6337,110.9260,126.1972,-190.5686,112.5963,110.3742,173.4381,214.8843,123.1873,-121.9337,-10.3780,61.8410,69.2203
-3937.5000,119.4695,-119.8805,-136.1857,-147.4579,-73.3049,-4.1518,142.6403,-18.7119,-26.5914,63.4217,9.3101,48.8643,83.8106,108.9059,76.7771,59.3793,-146.3728,-71.1696,0.0935,77.5697
-3929.6875,-30.8666,-268.2359,-182.1062,-224.7402,-82.8745,-50.1634,96.5185,-27.9625,110.9623,201.7506,-70.2552,-33.7699,36.3384,62.4826,175.7627,158.6769,-119.7177,-43.8702,238.4408,103.0266
-3921.8750,-377.4608,-227.7824,-102.2362,-148.2211,72.3584,-78.3742,30.1810,-56.4202,228.3280,173.8814,-145.7304,-25.5845,43.6717,-4.1333,219.5668,165.7746,-45.2550,-72.7707,172.5885,72.2858
-3914.0625,289.9251,-156.4228,7.5443,-146.7963,-38.5249,-224.6952,102.7475,-129.9884,189.5912,137.9106,62.7598,-100.4944,-32.1003,-78.8526,70.2478,127.7618,-149.9064,-176.7892,207.6264,106.4486
-3906.2500,-326.7104,-70.0631,-194.6945,-128.3833,-20.4235,-206.0219,46.3115,-111.5546,243.8608,156.9623,-185.4452,-8.4025,22.1274,11.4337,233.9418,180.7630,-27.5632,-88.8062,189.6781,122.6166
-3898.4375,91.3449,68.0056,-51.2358,-95.2739,14.3829,-207.6494,43.5784,-149.4176,56.8347,8.7183,6.8180,-10.6113,56.0565,8.4232,83.3351,67.4565,4.4832,-161.1242,45.4187,118.4837
-3890.6250,185.7796,23.3822,-25.4658,-137.8698,-69.5191,-180.9837,32.1502,-122.9911,-27.9163,-1.2276,29.4156,-21.5229,7.2735,70.7142,71.0104,55.4444,-5.1762,-99.1489,106.4540,142.6564
-3882.8125,-307.5934,23.0089,-96.4503,-103.2178,42.8395,-106.0676,33.9613,-48.3139,120.5846,-34.9223,-122.4291,17.8239,45.7437,35.2566,145.9524,56.6842,65.4310,-29.9119,34.7377,106.0811
-3875.0000,343.9951,-27.4559,-1.5271,-152.6640,-82.9023,-120.2588,92.6775,-62.7435,104.9919,24.2762,76.7608,-70.9361,-43.8940,-54.3190,-18.2192,40.8149,-56.0671,-114.7888,89.9237,89.4083
-3867.1875,-269.7189,-114.2106,-90.9183,-201.4106,-23.9591,-23.7601,40.0884,-77.4829,162.1071,84.1882,-132.9796,-11.9979,-22.8345,3.8045,149.3203,61.6533,69.1350,11.0289,178.8214,72.4439
-3859.3750,-142.6991,-126.1884,83.4393,-72.3951,113.7401,77.4794,66.2378,-86.4809,114.9585,-35.1545,-1.3163,-58.2987,3.9818,-43.3216,28.6151,-96.7565,92.0962,34.5925,-8.5551,24.2358
-3851.5625,137.3660,-126.2048,118.7600,-36.4334,75.3666,76.6583,101.3283,-87.5505,-143.2591,-71.5538,90.9111,-96.6511,-35.2579,-45.4946,-11.1553,-62.2197,92.0008,105.0934,-113.9810,57.9873
-3843.7500,-410.6718,-146.2632,61.0168,49.4740,164.9434,166.7799,-30.6366,39.3269,-275.5189,-54.9986,-70.6346,-7.0441,16.4582,6.2932,114.0518,26.2640,177.8598,156.5499,-205.4600,71.6949
-3835.9375,287.3403,-150.3112,130.2853,11.3795,14.5230,89.8963,-71.5926,-0.8040,-169.7913,-20.4524,130.0073,-47.4368,-61.8213,-34.9250,-147.7533,-15.2609,67.7071,11.9916,-34.9510,66.4073
-3828.1250,-131.8256,-146.5549,26.3470,-53.9312,-16.1132,22.8005,-102.7582,-31.1427,55.7397,59.9005,-57.9493,-4.0323,-93.3030,7.6632,-70.7502,-9.9742,142.3436,51.2271,180.3694,33.9299
-3820.3125,-35.3787,-14.1406,130.0558,8.4064,87.9039,17.3535,1.7125,-73.8318,-25.0716,-56.0980,18.5615,63.0306,-63.1291,-36.0882,-78.0889,-91.0294,133.6342,-26.8943,-4.6712,-10.8909
-3812.5000,489.9580,-15.9136,126.5776,-27.4609,-25.3028,-58.3062,-2.0226,-113.7365,-103.0944,-57.2982,149.4167,59.8907,-104.1647,-3.0328,-118.6498,-21.2915,25.7108,-99.2331,-6.9037,21.0995
-3804.6875,-210.4468,23.6129,-15.6167,83.9608,16.7839,-15.6772,-108.4695,-71.3439,-24.8033,-51.1911,-88.5412,102.0609,-25.9003,74.3391,69.1077,19.7527,136.0935,46.7305,-73.8263,24.3993
-3796.8750,400.2847,37.2538,108.2956,133.4746,-43.0248,-0.9525,-94.8131,-93.8545,-194.4259,-73.0045,138.6439,42.3372,-49.5360,14.8119,-102.0399,-41.1084,43.5749,-9.2112,-165.6726,36.8088
-3789.0625,118.2152,38.0486,34.3575,64.1200,-80.6977,-38.0894,-95.0105,-57.2216,-232.9117,37.3346,32.8823,42.7661,-14.0251,50.4362,42.9622,-5.8127,44.1946,61.9922,-94.3623,71.3826
-3781.2500,-88.2079,78.5490,42.1048,106.4589,1.3359,-29.5293,-88.5143,-48.8903,-115.6821,-26.6149,-9.5567,86.8911,30.1878,20.7632,49.6810,-72.8087,84.5149,32.8993,-160.3478,40.6650
-3773.4375,512.8600,46.4508,81.2645,39.1907,-142.2475,-62.5841,-48.6090,-82.1727,-77.0565,-59.1691,172.8755,17.4037,-4.2053,-50.5152,-95.2184,-70.4080,-17.7756,-69.8087,18.0707,42.3558
-3765.6250,-132.1016,71.3517,-38.5893,29.9167,-41.8353,2.3547,-131.7087,-17.4599,23.5704,-104.7273,-41.5340,-29.0833,59.4048,-23.7784,113.9041,29.9983,111.9431,26.4916,7.4873,31.0569
-3757.8125,369.4992,116.8139,118.1138,5.1988,5.1317,-24.1581,-49.2664,-44.2049,-114.2621,-167.7545,172.3111,-93.0152,68.5694,-51.4905,-61.4194,1.9461,51.2185,-104.6637,-159.5658,39.3156
-3750.0000,232.1193,50.2421,84.7668,-95.5806,-28.9773,-94.7376,-82.8814,-114.0113,-111.1415,21.1726,91.3504,-89.9994,33.6736,24.7410,51.2001,77.8512,-15.5707,-64.8852,-15.6505,77.5368
-3742.1875,-200.8507,40.1417,74.8559,-69.9205,72.3585,-66.8787,-20.0641,-50.3696,-49.5662,-24.4487,-10.9445,-25.5266,97.2267,51.4333,114.2916,-6.7845,10.0991,-3.6603,-95.2837,66.2186
-3734.3750,480.3756,-51.8307,125.0605,-125.1574,-24.2201,-88.9368,30.8497,-72.6472,-71.9108,-45.9857,201.6312,-84.9523,36.8736,-45.7728,-56.5309,-30.3239,-116.1416,-60.3591,22.1609,79.0137
-3726.5625,-156.4028,-124.7873,-61.7519,-127.3965,10.1811,-54.0103,-9.2456,36.0618,71.7461,-47.5213,-27.0471,-50.3666,107.5204,-11.9673,123.6620,40.1430,-50.3794,77.9391,54.6154,74.8247
-3718.7500,132.2614,-45.2768,22.8777,-47.1791,58.0328,-42.6402,75.1091,47.2123,-29.1399,-146.6241,105.0328,-76.3258,116.6222,-75.7067,-14.6976,-60.9440,28.8368,16.6852,-112.4915,47.0955
-3710.9375,300.9932,-51.7638,16.5146,-52.9701,-22.1345,-48.2808,104.4676,41.3501,-73.0422,-114.7370,113.3496,-82.2881,-0.2745,-8.4411,-59.0713,-104.0313,57.0462,10.4217,20.4051,39.3802
-3703.1250,-134.7865,5.3028,5.6949,-30.2184,77.2537,14.6152,20.3622,30.0266,26.6060,-124.2972,-8.8229,-18.6942,61.3896,17.3850,40.1351,-116.5556,114.8188,-2.2962,-28.1506,-9.7733
-3695.3125,600.8600,37.7346,187.2342,-67.1240,1.9823,-97.1561,53.6044,-44.9624,-87.3988,-125.5167,241.9871,-57.7599,-14.5968,-22.4438,-147.3169,-119.7283,-29.0674,-145.6873,-31.3624,-13.5647
-3687.5000,-17.4698,-16.8272,18.7615,-86.0420,-19.3162,-80.9430,-4.1651,-28.9571,1.6033,75.2638,-21.2490,-41.8294,-36.5854,65.7322,51.2406,6.1106,-13.9601,10.9228,88.4409,0.6623
-3679.6875,94.5380,95.9760,26.6283,26.3897,-10.2672,38.6137,-32.5949,16.3979,45.9643,11.3762,15.6575,-32.5475,-65.2206,1.2683,-51.8445,-133.6988,27.5034,52.8816,-81.4154,-28.7481
-3671.8750,423.7888,179.9380,40.6544,76.9572,-144.0933,53.3068,-18.8689,-42.1123,-87.5424,-120.3755,108.2216,-18.1250,-88.7095,14.9616,-112.7868,-156.3557,76.1053,66.9754,-103.1230,-15.9911
-3664.0625,-202.8561,223.0647,-23.1842,154.6665,12.2273,100.1426,-84.0034,3.5225,-78.8986,-220.9774,-66.3478,27.4479,-6.0413,22.8226,6.4396,-111.8612,223.8630,110.2249,-131.6756,-45.0715
-3656.2500,409.5518,131.2079,65.9834,64.3762,-44.4572,79.9689,4.8646,20.1464,-63.2522,-240.5936,155.4066,-29.9770,-27.3797,-71.3201,-163.3482,-206.3713,97.6134,18.4594,22.7636,-67.1411
-3648.4375,-6.0089,-1.6459,-35.8536,-32.9272,-36.1578,51.7788,-23.2713,102.7562,54.3976,-83.2123,6.7380,-94.4029,16.2760,9.5379,-8.1300,-162.8774,105.3612,97.6912,136.2180,-60.1952
-3640.6250,-14.3520,-9.2406,29.5579,-4.9838,103.4019,118.8328,41.8341,168.6125,-63.7115,-163.5921,51.7876,-101.5728,45.1907,-34.3502,-16.6448,-134.1267,97.3706,90.1766,-119.0967,-68.9881
-3632.8125,329.6559,-86.5692,20.2330,-46.7976,-15.8019,110.1186,69.1919,123.7031,-73.5879,-134.7381,133.1980,-110.5032,-0.6516,-43.9931,-26.9242,-107.1271,-51.3774,82.8967,-21.1699,-42.5164
-3625.0000,-454.9687,-61.4851,-173.7091,49.7776,47.3889,137.7901,21.9367,114.1818,136.9573,-69.4888,-171.3049,26.9598,24.9031,18.7711,146.2289,-80.7170,43.2825,178.0166,-31.8290,-53.6298
-3617.1875,224.8919,92.0626,-50.1980,97.8002,-12.9746,76.8982,34.1355,16.1037,-35.0437,-166.8091,64.2140,39.8670,0.9137,-5.0184,-63.1732,-142.8606,-14.6061,49.5723,-91.0452,-42.2809
-3609.3750,65.7030,109.5204,-144.7956,-25.2873,-144.4581,-17.1190,13.2340,32.9145,-57.1488,-2.2340,-46.3851,55.6680,-21.1775,47.0960,62.3273,-17.1004,-32.6005,32.0174,101.6576,8.9842
-3601.5625,-186.1837,138.3403,-115.0572,3.9710,-40.5858,-22.7938,6.6773,63.0708,10.1025,-44.3228,-95.1875,86.8153,46.0899,76.5630,128.2025,50.0164,-75.2296,-9.1808,-81.2940,1.6103
-3593.7500,421.5236,113.6692,5.2070,-55.2777,-140.2182,-86.9791,15.6242,-0.2924,-55.1582,-33.9370,115.6560,60.4516,17.8552,49.5213,-47.4392,21.6287,-204.3649,-103.8900,-70.7569,46.7485
-3585.9375,-310.6840,120.1059,-98.4317,-48.4425,-97.7569,-80.0806,-52.3385,6.4349,98.6868,10.5409,-132.0394,67.1867,60.7285,128.5889,106.0392,64.3468,-127.3928,-27.5042,75.8864,52.0009
-3578.1250,101.0793,111.5102,2.8837,-56.6597,-106.3450,-88.2456,-24.3504,-1.9022,89.4749,-34.0561,35.6729,58.8734,88.5591,83.6067,22.4795,18.0117,-242.4677,-176.1856,-4.5340,42.2167
-3570.3125,110.7149,51.7275,-98.0061,-115.0877,-208.1650,-114.6292,-52.5662,-30.4513,23.0626,86.1317,-36.1229,104.3484,22.1839,164.4311,103.7223,172.4798,-267.7519,-166.0779,39.8609,86.2523
-3562.5000,-266.9590,95.7062,-126.1681,-36.7668,-52.2372,-33.2635,-191.0490,-57.2520,31.4184,59.0567,-139.9019,149.5759,67.5595,173.0187,148.7402,180.7038,-154.2706,-86.2063,-91.9989,94.0528
-3554.6875,411.2414,107.5043,-6.5088,-24.6388,-152.5187,-58.1053,-180.7328,-120.2692,-31.4538,32.7574,77.1746,86.6024,-32.2673,72.4045,-62.4668,153.7227,-248.9916,-145.5387,-46.0814,139.6688
-3546.8750,-234.6606,94.2155,-129.9544,-107.6212,-165.9124,-71.0616,-194.5320,-23.3980,100.5624,94.3501,-148.8410,73.5251,25.8082,132.6971,143.2409,212.6568,-156.8063,-52.9701,79.7403,125.2013
-3539.0625,100.7953,114.2928,39.9528,-121.2607,-68.9526,-48.6824,-97.9851,-37.1927,49.9324,-28.7314,35.0221,60.7973,49.2479,82.3425,-18.6942,88.9406,-207.2649,-69.0693,-41.0952,74.0964
-3531.2500,240.3448,78.3826,1.8626,-192.9185,-106.0131,-49.3339,-27.4307,-1.0074,48.2981,-28.8220,46.2707,-13.9389,-26.3140,80.9864,16.3697,50.2198,-208.7396,-0.1864,63.0845,72.0114
-3523.4375,-347.5118,54.1374,-59.6036,-76.9347,89.5667,37.6522,21.7687,121.8221,-13.6682,-52.2692,-100.0872,-1.0117,59.7791,19.2931,138.1127,62.1586,-58.5631,81.3497,-138.0753,46.5954
-3515.6250,271.2455,5.4555,72.4796,-90.4109,-0.3186,-14.8217,42.5193,70.1904,-139.0832,-67.1866,118.2774,-89.5340,6.4221,3.1533,-61.6016,82.6518,-142.8444,-3.5811,-47.6907,66.7469
-3507.8125,-340.3762,-43.6198,-51.8445,-137.3036,-13.6219,-27.7201,-45.1353,57.1449,104.1044,68.4885,-131.6432,-29.4588,-7.3379,63.6219,108.2974,141.7585,-51.5249,89.0836,114.3118,52.5169
-3500.0000,-186.3629,40.9709,74.4840,-18.5424,38.7322,-11.9831,6.8531,-1.2625,44.9429,-63.2153,-36.1464,60.2700,7.5590,78.7474,-25.1418,46.5151,-2.5377,-2.6081,-118.0532,29.9499
-3492.1875,267.6473,73.4738,106.7310,14.1196,-76.0368,-89.3645,1.7349,-78.7852,-70.3291,-67.0405,77.6065,55.8869,-70.6565,73.7759,-102.6963,41.1642,29.3454,-76.4130,-52.5166,61.2999
-3484.3750,-336.3344,103.0304,-9.9854,113.8239,28.2354,-58.7075,-113.3488,-48.2588,-3.5432,-34.8188,-133.2820,87.5447,-40.8197,67.8680,73.8216,71.8819,163.2882,23.8325,-58.9146,54.7158
-3476.5625,330.7312,67.6020,136.3046,184.5173,-46.4926,-95.0654,-114.4280,-84.7402,-113.7603,-107.6152,98.9747,50.1897,-113.9802,29.9550,-110.6644,-3.3967,127.2266,-47.9358,-130.3188,53.1443
-3468.7500,-60.2700,-5.9219,96.4860,181.0931,-50.3358,-62.5452,-155.6057,-52.3366,-82.0758,-37.5214,-33.0556,46.7263,-118.2372,62.9452,-43.2382,66.2331,194.0649,19.1942,5.1867,48.4899
-3460.9375,-76.8179,13.0607,227.1618,200.1685,44.3325,-41.5283,-135.2865,-68.4410,-25.8866,-52.9464,32.9853,-6.2347,-62.9798,-27.5625,-96.2889,12.3625,177.4133,-33.1673,-46.8218,31.3475
-3453.1250,447.4290,9.7504,184.5520,90.9371,-71.3145,-155.8219,-141.2619,-145.8606,41.9924,53.3025,150.4888,-84.5048,-104.0229,-105.3756,-138.6548,43.1882,32.4465,-105.8415,124.8678,61.9216
-3445.3125,-279.0568,56.7534,-24.7718,103.0016,13.3300,-106.8308,-129.9565,-60.9849,127.1755,65.8433,-116.1522,-36.4772,-20.7560,-21.8795,92.3095,128.3246,78.7856,-25.2185,29.8580,72.8148
-3437.5000,404.1958,107.4780,64.6109,83.7704,-44.3287,-91.1539,-5.9574,-118.4241,-151.9517,-64.9422,131.6375,-20.7549,-5.7815,-6.6887,-76.0296,69.1572,-12.1681,-78.9042,-165.4613,87.4242
-3429.6875,228.4039,74.1189,-82.1169,14.4276,-155.1118,-91.5964,-42.0584,-118.9799,-79.1751,8.1558,-7.1950,15.8528,-78.9127,66.3949,-40.4619,178.9001,-11.2234,-8.6927,10.1384,122.9523
-3421.8750,-113.5424,153.6706,-70.9609,94.9864,-69.9894,-44.1480,-32.2646,-34.6458,-32.4805,-16.8720,-86.4183,64.3598,-32.1356,77.3815,5.0306,115.5520,-2.3559,0.4258,-121.3629,96.3935
-3414.0625,498.0465,167.6856,14.6626,37.9922,-203.4242,-103.2596,-19.0155,-56.8768,-166.3499,-2.4809,127.9919,41.3070,-18.9127,53.8119,-91.0421,54.6460,-164.0387,-91.0217,-37.4199,109.3005
-3406.2500,-250.2898,157.8038,-178.6298,-41.9110,-103.7687,-76.2838,-102.6673,-31.0176,42.8914,62.0035,-153.0869,105.3497,43.4109,117.3491,155.0062,80.8492,-68.6127,-31.3689,55.6410,98.3243
-3398.4375,201.1318,188.6864,-72.1682,-11.0653,-71.3603,-44.5617,-70.5692,-108.4135,0.8903,-51.7874,14.6667,64.1424,1.4939,38.6320,1.8069,38.8004,-109.4313,-69.9764,-53.5704,93.1117
-3390.6250,243.1395,126.0874,-141.2027,-3.7314,-140.4725,-38.3628,-139.9750,-103.3263,6.3813,-45.0962,-21.1477,69.4271,-65.9295,80.4182,7.1020,117.2573,-102.7552,-28.0939,21.7109,134.4203
-3382.8125,-203.5518,205.8518,-129.9038,40.9507,-19.2326,45.1777,-239.0473,-54.8949,-19.7829,-107.0737,-120.4858,155.0647,17.0053,54.5645,90.7717,54.0808,46.2904,15.1502,-109.6665,108.0950
-3375.0000,460.2308,238.0265,48.8027,37.0359,-96.6014,41.1071,-133.7198,-133.0760,-207.5549,-147.6846,133.6169,77.0944,-23.6621,-22.8936,-134.1758,12.3066,6.7306,-58.2115,-149.6480,103.1869
-3367.1875,-170.9487,205.2536,-93.4565,40.1519,-20.9366,45.0717,-93.3498,-92.2158,-94.2617,-70.2559,-86.4755,44.1661,15.7258,16.7052,-22.0520,52.5961,114.2228,48.4822,-43.5539,69.3456
-3359.3750,91.5540,257.1927,35.9824,126.9584,73.4342,-8.2757,-38.2773,-73.6651,-76.2580,-159.1462,45.5454,-9.0715,-1.1743,-36.9940,-185.2156,-38.4133,95.4229,-41.1307,-97.7611,15.2159
-3351.5625,297.3440,182.3375,67.6327,51.9494,67.9889,-87.4492,-6.9966,-114.9304,-154.0657,-127.8506,129.1423,-14.1210,30.1273,-42.4977,-154.1885,-44.2281,19.8178,-46.5601,2.2467,9.3028
-3343.7500,-268.5176,143.8865,64.6698,83.3385,248.9422,-15.2304,-9.3281,-43.8050,-193.4627,-93.1700,-5.2411,21.2280,100.8413,-44.5957,-47.7293,-46.6338,121.6284,55.4118,-108.3425,-30.1949
-3335.9375,411.5781,50.3490,187.6190,60.6318,150.7921,-40.1248,39.2417,-68.8022,-255.9661,-117.6216,211.9278,-77.5302,2.4581,-69.8014,-182.3709,-72.1323,62.3309,-37.7314,-97.0415,-18.7754
-3328.1250,-100.6175,-3.4979,19.2609,6.6109,92.3196,-24.3401,-56.4947,-53.1142,-20.7529,-27.3824,-26.5027,-61.5918,-19.2223,56.7006,15.7024,-19.9118,112.7327,-22.1824,93.9869,-3.6350
-3320.3125,-25.0977,71.4048,61.6475,46.3313,98.6038,-17.8163,-13.4774,-46.6813,95.2257,-57.4156,12.0879,-17.9085,-13.1399,-11.0455,-89.4534,-87.9433,117.8966,-88.8817,27.7651,-34.7295
-3312.5000,405.4191,10.2085,69.9423,-15.0662,-40.2264,-83.4085,31.4497,-38.3626,66.0908,25.4270,123.7268,-83.3322,-79.1580,-76.8914,-154.7209,-117.0825,54.9564,-115.6916,211.4455,-26.9068
-3304.6875,-194.7604,43.3798,-40.4335,-17.1223,69.2931,-46.6610,29.7235,71.3017,28.3138,98.6014,-67.7174,-46.4108,-5.8169,-40.3891,-8.6135,-80.8620,158.3786,-47.1419,138.4872,-64.7190
-3296.8750,470.0994,75.5732,102.2019,13.8251,27.8132,-50.9223,135.9989,29.9514,-49.4657,-52.2605,176.5262,-124.4969,-47.4691,-81.8991,-161.5148,-122.6421,12.8105,-86.6034,27.5155,-69.5190
-3289.0625,-5.4543,-12.6789,-64.6118,-73.6838,8.8661,-33.6487,115.8196,47.1414,77.3074,38.4194,-29.4912,-107.0475,-30.5752,9.1410,39.1376,-31.8678,29.7924,0.4789,115.1148,-52.7560
-3281.2500,-221.1555,16.9789,-33.5301,-44.2931,112.8311,33.5199,109.5378,78.2321,107.9931,-3.0180,-53.2728,-112.7062,36.2289,-33.9164,32.7117,-38.1946,58.6909,-5.5357,2.6039,-59.0855
-3273.4375,338.0315,14.4414,-38.6351,-83.1077,-39.4162,-7.5254,141.0677,37.1145,29.4668,65.3144,95.6518,-153.5747,-5.1662,-113.1809,-45.9211,-43.7200,-49.6210,-43.7628,68.8851,-27.6017
-3265.6250,-297.3221,12.3988,-261.2600,-85.4370,-5.1662,62.9176,64.0920,70.4946,173.4534,63.1338,-155.6872,-82.9434,64.9452,-78.9350,208.9756,27.2693,17.5730,58.5141,100.6863,-30.6029
-3257.8125,228.8377,11.8605,-152.3828,-86.2709,-43.4157,61.8556,136.6212,33.3677,134.9524,-47.5684,31.0772,-46.8172,27.5662,-80.1916,59.3700,-48.2469,-89.7280,-12.7169,28.9880,-32.0943
-3250.0000,-53.6517,-94.3729,-228.2027,-86.8198,-119.3797,23.0743,133.4524,67.5266,168.7448,61.0164,-95.6961,-12.3993,-12.5144,-9.1461,93.0666,-14.4564,-55.7310,56.3448,168.6060,1.7283
-3242.1875,-467.2522,-86.6481,-182.0853,-8.4229,36.6154,68.2314,142.2320,149.6297,214.5005,69.5307,-186.2899,-3.0356,-3.6346,-74.1486,64.7385,-5.7053,22.2326,98.3643,69.1792,-26.4889
-3234.3750,196.9751,-160.1703,-77.2050,-47.2811,-41.6471,-8.8742,247.7623,108.4715,136.0023,102.7695,32.8763,-117.9356,-82.0038,-151.4080,-86.8503,-47.2023,-88.0607,59.1257,170.4992,-30.9439
-3226.5625,-442.4318,-200.2981,-229.9435,-89.7450,61.4820,21.4147,204.6851,175.7054,202.9113,170.4014,-187.0289,-124.4381,-14.9687,-85.2600,126.9878,-17.2829,-23.9469,193.2935,198.2301,-37.9836
-3218.7500,-7.8947,-118.4711,-106.7320,-41.2614,112.5682,71.6521,217.5539,115.8775,105.7695,36.9610,-4.5680,-109.9896,-0.9757,-145.1587,-6.2166,-77.4047,-46.8761,100.4100,-1.1008,-61.0625
-3210.9375,80.9074,-134.4464,-161.3159,-93.5906,-16.1648,53.0772,162.6271,24.2346,123.8198,-17.2932,-9.0974,-91.3471,17.2140,-52.8533,47.7755,14.6831,-63.6128,82.7222,122.7759,-42.9263
-3203.1250,-442.7108,-94.7793,-193.2620,-19.2764,61.7588,132.1470,130.3499,65.2411,128.5381,-48.9119,-140.8065,-12.0577,132.0651,-10.8910,163.4477,-17.5666,44.3139,121.6940,-50.6909,-75.1302
-3195.3125,239.7833,-45.0631,-69.1509,-4.9190,2.7276,72.2616,217.1417,6.2934,-41.6832,-71.5029,92.5102,-34.7294,71.9656,-107.8877,-6.8389,-77.7696,-46.7147,29.7070,-72.1237,-61.2746
-3187.5000,-324.1806,-46.8052,-181.5020,27.9784,36.2420,69.9216,104.4876,3.8919,65.6605,0.4460,-123.6948,0.1382,69.4238,-73.3313,100.4472,29.5824,20.8168,98.2803,64.9740,-63.8553
-3179.6875,-102.9255,-1.2947,-22.6070,74.1382,122.0185,7.8359,42.0807,-21.2586,151.2659,-24.3835,-9.3149,-24.7467,44.1480,-135.5330,-35.0012,-68.8138,-4.3915,2.1069,4.2984,-89.1801
-3171.8750,100.9960,-78.1885,40.8888,-39.1105,75.3845,-111.6641,69.2794,-67.8188,141.4683,39.3707,47.5778,-108.0487,-1.5264,-108.1461,28.1433,-4.6038,-47.0074,-5.4731,102.2483,-61.8945
-3164.0625,-560.6096,-71.5348,46.9141,2.1842,265.3042,-31.6180,75.0245,-24.8284,36.2358,9.6770,-112.2526,-64.8081,77.3529,-65.2070,181.8640,1.1728,99.9362,70.5073,-33.2271,-56.0502
-3156.2500,257.5749,-26.1232,239.7033,-22.7742,162.9735,-23.8257,119.5313,-54.0953,-139.2476,-165.2959,196.1709,-93.8250,48.9815,-94.5278,-31.6744,-65.3036,-31.3688,-60.7669,-94.9618,-11.4482
-3148.4375,-125.5271,-59.0235,56.1938,-91.0403,90.3376,-23.3460,9.7374,-53.6743,-29.0366,-91.5790,26.2253,-56.1467,122.3121,16.8520,115.4923,8.9275,-29.9658,12.6648,13.0234,25.8644
-3140.6250,-114.8778,-117.1273,105.4838,-79.5012,139.5182,-10.0687,59.7446,-77.4596,20.9742,-115.0782,68.1533,-42.6675,172.4585,-6.9695,91.4700,-52.0358,-17.7420,-11.0959,-47.2034,1.9814
-3132.8125,227.1379,-196.9264,132.0896,-158.6634,-18.0071,-20.5009,122.0579,-50.9580,47.2738,-52.3001,148.1546,-89.8981,87.9059,-17.4995,44.7396,-62.7004,-99.2224,-57.5628,117.8659,-8.5929
-3125.0000,-562.5184,-212.3333,7.0794,-141.4315,113.8689,37.4649,180.7646,43.9454,214.9888,-30.1298,-116.1456,-30.7275,109.7612,-32.6197,176.4432,-40.9516,59.7030,31.3783,171.3492,-60.7597
-3117.1875,42.2450,-99.3406,163.4647,-62.8013,49.1346,9.8329,225.8728,-19.7530,151.1115,-131.5784,109.4473,-58.1633,82.0208,-134.3374,0.5460,-142.7929,32.0194,-137.2872,108.2356,-88.5190
-3109.3750,-168.7690,-29.1536,87.0404,7.0074,10.5772,-102.6095,113.1814,-59.2541,148.4408,-22.8274,2.7894,-60.4067,79.4794,-99.8462,108.8546,-108.4177,66.5257,-102.7565,142.3467,-54.0644
-3101.5625,-198.9511,9.9304,164.5056,80.7088,86.9270,-99.1548,6.3897,-18.8468,40.6802,-19.1886,23.7668,-93.7505,82.8520,-96.4465,75.0797,-68.1302,105.9432,-99.3192,-30.6405,-50.7008
-3093.7500,425.1925,-32.7355,228.2294,37.6521,-107.4857,-109.4610,-78.1407,-29.1963,-42.8364,80.6802,186.9749,-139.8529,-37.5272,-142.8042,-82.4562,-4.5962,-8.3936,-72.6401,65.6314,-24.0786
-3085.9375,-345.0702,-29.7610,82.5787,75.2394,-68.2510,40.8820,-222.0195,83.1031,33.3204,47.2007,-84.6099,-27.3077,1.7436,-30.5057,103.6800,70.5942,98.9246,70.7047,32.5754,-21.8001
-3078.1250,77.0116,6.5607,157.2805,147.1853,-104.6573,77.5783,-148.5427,47.7438,-40.1647,-62.9498,74.3104,10.5811,2.3799,-29.8706,-79.8313,-1.8632,64.5976,-69.5997,-37.1421,-21.1694
-3070.3125,-43.5126,-43.7693,67.3398,96.4727,-120.7226,-12.3864,-92.7090,30.7193,-20.3062,68.2297,-27.4208,30.8145,-88.6288,27.1139,-59.9891,18.0408,119.6115,-84.5553,158.4879,-1.1780
-3062.5000,-349.3025,-69.3029,77.1855,141.5575,37.0248,35.4442,-45.0818,41.4895,63.3597,5.1918,-85.2971,4.8488,-40.8224,0.9035,-49.3180,-45.2378,234.4407,-4.6989,-9.0903,-27.3777
-3054.6875,341.8735,-185.9380,247.9394,93.5384,-51.3358,21.1692,14.4493,-9.8506,-24.0764,-45.9608,170.4515,-83.2252,-92.1177,-87.4145,-136.7581,-59.6116,116.1617,-16.9538,-21.7668,-4.6662
-3046.8750,-306.3891,-235.9830,84.2699,78.1073,43.8951,5.4839,-1.4280,48.4099,70.1008,49.4989,-75.1882,-61.7078,-70.8078,-66.1294,104.4249,35.6305,171.4845,72.4014,67.1876,-20.3443
-3039.0625,21.9156,-153.4353,135.1915,90.2819,93.7364,19.3998,122.3011,61.2746,10.8985,-10.4561,59.4902,-84.5999,-56.8893,-126.2454,-28.7813,-61.5236,113.4156,14.3625,-26.2611,-43.4205
-3031.2500,86.5251,-123.6426,54.3685,-20.2962,12.8172,11.5656,114.2932,54.3769,2.9383,55.8190,42.2262,-92.2489,-64.7175,-60.1141,0.2525,-106.4331,36.5966,78.5748,72.5436,-14.2388
-3023.4375,-284.7828,-73.7011,-3.3104,29.2812,102.0619,100.8861,56.4376,106.6290,-17.8794,-75.7749,-54.2774,-38.7465,25.6122,-43.8311,89.4577,-90.1897,121.9502,163.9537,-124.5055,-34.9025
-3015.6250,534.9536,-62.7709,154.0260,39.8539,2.3141,74.2091,66.5933,6.8746,-190.7073,-174.3863,237.0264,-65.2529,-1.0569,-107.5606,-84.3532,-116.9459,26.2978,33.3283,-149.5498,-24.5646
-3007.8125,-73.6846,-107.2124,-2.9981,30.0586,29.2139,28.1785,-53.5996,33.7730,-54.8710,-75.3441,-18.8175,-1.1127,-11.0809,-6.6317,126.4983,-16.0388,86.2945,58.3575,16.0884,-34.5738
