Time,Fp1,Fp2,F3,F4,C3,C4,P3,P4,O1,O2,F7,F8,T7,T8,P7,P8,Fz,Cz,Pz,ref
-4000.0000,18.1681,-167.0233,66.5451,-95.9944,153.7199,-46.2008,239.8410,-16.5303,111.1069,-9.8293,125.9391,-110.1003,60.3517,-102.5823,54.2656,-111.5445,37.7817,-103.8893,110.2955,-104.7377
-3992.1875,28.1950,-158.6081,78.3743,-86.4276,-16.1722,-147.2596,181.9674,29.2446,198.3123,-110.8028,140.1342,-131.6415,36.2118,-130.2198,250.4103,-30.1239,16.5070,-60.0162,195.5337,-60.3206
-3984.3750,55.2674,-159.8984,11.4979,-121.5710,-9.7499,-256.0378,264.4256,32.2961,278.8543,-107.5276,221.6664,-200.2131,42.3708,-239.5819,367.8750,-102.4195,126.5586,-271.8666,342.0994,-95.6272
-3976.5625,-29.4174,-206.6537,41.2001,-272.1888,-161.7727,-376.2969,335.4481,22.8506,384.9541,104.2850,70.7873,-294.8994,256.1125,-287.4183,618.9085,-185.1889,14.1822,-354.2123,442.2229,-106.3993
-3968.7500,18.4545,-183.5255,-110.1841,-212.9178,-90.8987,-348.6812,333.3687,125.2745,454.9696,22.9666,289.8419,-276.1672,141.7598,-296.3615,614.8570,-159.0611,7.7203,-259.6645,473.2727,-152.2852
-3960.9375,14.6222,-239.4010,21.4457,-266.6533,-69.0091,-404.0894,358.3010,-3.3391,404.0042,151.6184,276.9329,-335.5979,347.4087,-316.3253,562.8048,-214.9458,63.2872,-526.1589,424.3481,-172.1952
-3953.1250,-51.8208,-328.1323,6.2511,-285.2513,-155.9861,-423.3786,383.3819,52.1636,501.2146,133.4142,190.1809,-324.7668,258.2320,-225.1509,584.9241,-87.6959,-20.9862,-474.5525,587.6024,-154.9743
-3945.3125,-39.2298,-414.0104,-39.0996,-333.9998,-54.1197,-436.8440,488.3209,76.4949,677.3080,84.0273,294.3071,-381.7784,101.8900,-276.1448,538.9029,-64.6025,39.6142,-630.1221,685.7460,-168.9257
-3937.5000,-45.1118,-412.0465,111.4184,-471.9147,-195.4095,-510.4904,421.1300,39.6374,609.2783,195.4835,226.2952,-447.1093,289.4143,-277.3124,653.7499,-102.6863,12.0855,-698.8986,553.7649,-96.0506
-3929.6875,48.6408,-292.2467,19.7975,-386.0018,-175.8643,-459.3174,259.7995,91.6030,519.1277,63.7679,432.1507,-377.8911,124.7930,-262.6404,562.4758,-51.9268,-3.5876,-401.8405,504.6699,-45.3442
-3921.8750,67.8614,-298.1525,129.4864,-390.8074,-65.0091,-463.8708,262.7890,-59.1584,446.3095,171.3227,434.3326,-401.2385,197.4667,-304.6941,525.5182,-128.8812,32.0542,-513.5193,435.9061,-50.3560
-3914.0625,9.5381,-355.4148,111.8475,-376.9754,-155.5250,-449.8062,210.4361,-44.3031,429.1660,186.5190,344.1579,-378.7176,178.8128,-218.1097,544.2350,-43.2017,14.3579,-394.5867,420.8165,-36.7303
-3906.2500,97.8418,-203.8222,19.0524,-294.2834,10.8008,-399.9083,194.9301,-29.6162,411.8952,-19.4747,438.8505,-305.0648,12.9986,-241.6872,341.8047,-66.6762,136.5324,-348.8169,367.6068,-60.2709
-3898.4375,93.4652,-102.4807,131.0158,-296.8494,-60.1292,-439.2881,126.1768,-142.2129,268.3921,126.2768,295.3034,-275.9399,161.9459,-207.5334,307.1343,-141.4159,138.4764,-422.3464,266.1640,-63.0848
-3890.6250,157.2319,44.7039,68.8337,-148.5832,-48.2320,-358.8445,-42.7337,-97.9774,170.7597,-50.1255,419.6063,-159.8871,25.7542,-127.5357,208.3343,10.6921,81.2629,-240.0447,104.6065,-20.0674
-3882.8125,261.4513,121.5917,190.3526,-35.6325,-35.6268,-315.7215,-139.9364,-200.0578,-38.1436,-151.8608,543.6348,-115.3384,73.2503,-121.8571,109.2397,-19.5039,233.7607,-374.0777,-128.2303,22.6338
-3875.0000,253.3197,180.0289,254.4435,-46.1521,-154.4899,-293.0779,-329.5929,-249.6171,-193.4827,-91.0377,426.1993,-77.9034,137.3123,-62.6331,63.7053,3.8453,227.8132,-174.6003,-132.4953,81.8713
-3867.1875,318.8318,248.7769,148.8241,22.6339,34.9300,-181.1484,-284.9601,-247.8784,-186.4979,-309.9215,544.0573,-24.6396,-41.3543,-99.1057,-41.5329,-32.4947,301.1605,-0.8326,-162.4295,45.3913
-3859.3750,273.5726,205.8889,256.5605,15.7743,33.6907,-187.8879,-283.9729,-437.8206,-260.1503,-205.4719,397.2610,-38.0019,140.3277,-69.2338,-43.4166,-39.4945,404.8750,-113.7671,-269.0084,38.2424
-3851.5625,257.4022,239.1559,148.4564,156.0597,73.5713,-117.4997,-388.8412,-402.6433,-256.6411,-353.8999,401.6032,57.9468,32.1728,1.7876,-78.1353,30.6507,337.7377,94.4235,-228.4143,72.2371
-3843.7500,286.3018,189.2326,139.1493,142.1445,102.2435,-94.3366,-357.9167,-452.6886,-227.3059,-329.5590,541.7621,27.4144,-14.2011,-12.4021,-123.0518,16.5917,364.4080,9.3975,-200.9908,58.0185
-3835.9375,271.3983,194.6651,223.2141,113.5704,-70.7577,-88.8536,-417.6496,-483.4155,-252.6094,-211.8536,481.2516,16.9695,106.7878,-7.2499,-112.6115,-14.1303,270.4366,86.6817,-222.2018,100.1395
-3828.1250,368.1687,286.8607,178.0250,206.7518,69.9605,45.3637,-458.6631,-458.4097,-259.1467,-555.4200,659.4781,101.1259,-48.4828,16.6549,-267.4095,-27.0890,297.2206,247.7127,-299.6428,87.0032
-3820.3125,377.2032,242.4283,358.1973,128.2932,177.0122,72.9165,-423.3400,-650.0901,-444.3266,-598.6532,584.0464,76.1481,131.5902,43.9021,-306.8544,-109.7026,434.3700,132.0505,-441.7260,78.2029
-3812.5000,378.9655,246.0631,367.4352,132.8859,224.0734,151.4989,-520.9892,-644.7557,-433.4498,-813.8363,595.6265,130.2591,103.7216,158.2010,-297.2350,-31.2656,408.5662,311.4120,-430.7480,82.4480
-3804.6875,436.6372,232.7669,363.7193,226.5460,368.1700,143.1239,-485.6165,-763.3936,-472.5090,-932.0109,741.2463,142.3996,62.8801,149.5533,-302.5715,-40.7687,576.8266,192.8171,-436.7058,-0.2639
-3796.8750,389.9644,146.4921,465.0192,211.2183,286.2398,55.7395,-418.2770,-850.0724,-444.5741,-797.1909,660.8339,97.0018,237.0461,134.9110,-199.9145,-127.2680,531.1009,106.1918,-374.6648,-50.9810
-3789.0625,388.0469,89.1427,339.2137,259.8102,345.1765,146.2496,-357.0861,-684.8655,-273.7479,-926.4766,721.2846,101.8000,1.0904,78.1896,-215.3702,-111.8442,514.2722,189.4882,-213.7239,-107.8074
-3781.2500,338.6785,6.5925,371.1490,178.1877,303.8366,99.5217,-175.1915,-656.9139,-240.1931,-751.0205,571.4450,31.8083,69.8464,-4.7588,-257.1053,-230.6451,578.1923,35.5427,-184.0535,-154.9111
-3773.4375,225.8176,-100.7121,304.2951,106.7968,200.6432,102.0087,-165.1562,-433.7690,-121.4638,-563.3508,359.7434,3.3400,-34.2048,-3.4852,-249.6427,-156.2339,476.2895,244.7865,-2.1997,-226.8323
-3765.6250,196.7009,-155.8291,184.5790,88.5828,413.5685,124.6550,11.9836,-263.4752,17.4123,-539.5508,352.1618,-13.1765,-154.1330,-54.0532,-332.0291,-206.6585,496.5246,224.1795,19.8057,-351.6077
-3757.8125,97.7166,-227.8737,226.9214,17.4189,382.5168,88.3403,130.1471,-226.1493,-12.6645,-317.6828,138.5786,-49.9316,71.9972,-53.5716,-290.3600,-280.0398,429.8055,151.5839,-10.1331,-388.3307
-3750.0000,154.7417,-52.6979,47.4563,157.4565,423.6176,198.2160,101.4746,-114.6169,-6.5297,-500.6073,256.1328,56.7673,-71.6842,-53.8813,-358.4901,-207.2033,364.2701,326.1921,-38.8557,-388.8500
-3742.1875,218.6205,166.0542,96.5341,202.0473,437.2475,206.6342,43.3309,-216.5296,-101.8331,-417.9877,234.2024,94.1538,15.1609,-119.6420,-419.0812,-271.8084,377.2787,157.3263,-165.0162,-380.8212
-3734.3750,135.4594,188.7104,84.5300,83.5261,204.7314,152.9330,-113.9294,-122.5572,-112.2275,-212.4432,76.1093,75.0162,38.9152,-63.5001,-246.7627,-178.5097,158.1680,319.3289,-100.2557,-287.8908
-3726.5625,93.2515,198.1351,-119.7390,58.7569,258.9309,201.9773,-57.4556,74.1691,-20.8459,-163.1555,94.7096,70.0895,-128.6128,-88.6024,-119.6987,-130.4462,67.7810,329.0830,-47.7153,-313.2056
-3718.7500,-27.0546,155.3872,-123.2160,-17.2129,71.8917,156.8142,-21.1993,140.6846,-59.6548,161.9577,-127.9621,32.4216,88.6412,-59.8941,24.1476,-137.5786,-39.8225,215.6064,-118.3607,-284.7144
-3710.9375,-78.5253,195.8699,-371.5034,59.0270,-29.0093,234.8509,-9.7872,329.3965,-12.2492,56.2919,-116.5118,113.0649,-12.9258,18.0280,70.1810,13.5076,-205.2492,466.3282,-35.7797,-244.0141
-3703.1250,-122.9450,100.8786,-430.2997,-36.2135,96.5676,245.3829,192.0928,377.6003,4.6761,105.1193,-63.6061,48.4747,75.9756,-8.5487,159.6945,-12.8962,-296.1841,229.5403,-53.6750,-233.8132
-3695.3125,-244.7570,-42.1405,-430.1227,-247.5032,-86.9497,129.8514,267.8871,446.7328,43.5527,321.9279,-172.8315,-46.8256,221.8274,59.8367,343.1502,55.6589,-504.1834,155.6776,56.3750,-165.6508
-3687.5000,-194.6752,-11.9084,-539.7597,-251.5674,-86.3150,88.5283,307.8181,590.0700,192.6230,208.9432,-22.9366,-55.8083,37.8409,18.4441,270.7908,88.4445,-504.0189,115.0338,164.6209,-170.2628
-3679.6875,-238.4605,-79.2756,-421.0560,-283.2567,-261.3777,18.5549,319.0433,557.7451,203.0259,435.3257,-160.7658,-88.7258,157.1787,59.4264,279.7588,18.6020,-424.5218,-129.2788,140.2094,-166.5000
-3671.8750,-239.3538,-122.9063,-465.6550,-222.2282,-306.8053,-30.7223,312.9102,656.1045,233.1211,386.4221,-93.9811,-60.6802,1.2042,120.1342,271.4178,153.4854,-465.3552,-69.8910,171.5000,-106.0078
-3664.0625,-203.5911,-177.9974,-446.7707,-240.6718,-250.7655,-89.4962,335.2350,633.9592,216.7137,365.9968,37.2274,-100.2740,-17.3121,98.3589,217.5535,130.8940,-409.7039,-194.9885,124.2898,-54.9942
-3656.2500,-235.1108,-175.2432,-332.0795,-308.2893,-465.9737,-163.4645,194.3095,560.5992,223.0918,477.3903,-66.8699,-124.9747,96.9567,134.4026,295.4693,131.1101,-508.2679,-193.2951,203.8673,17.8391
-3648.4375,-195.0431,-137.9259,-469.8991,-199.3704,-420.7367,-121.9204,131.8143,565.7436,380.9561,262.2784,52.4445,-103.5814,-78.3114,64.9722,304.8545,171.8522,-430.3542,-122.0667,318.9405,-14.8086
-3640.6250,-143.9574,-20.4098,-306.5693,-152.2723,-440.3790,-147.2096,113.4126,394.0305,177.9511,385.3147,-3.1682,-73.3736,47.5429,76.7058,210.3565,147.7624,-309.2997,-322.6862,20.1461,-3.2908
-3632.8125,-81.1947,48.3936,-269.9765,-47.9031,-514.8261,-151.2325,-67.8026,316.5594,32.1698,234.6221,71.3558,-5.5117,-26.3592,145.7184,100.0921,326.9434,-236.0218,-185.0386,-10.4220,65.4997
-3625.0000,85.6214,31.8479,-135.7926,-63.8843,-231.7157,-278.6282,-4.4930,5.6906,95.9665,-147.4859,391.3839,-74.9984,-38.7096,19.3587,15.3923,200.7519,-2.1590,-307.7486,85.5972,48.9080
-3617.1875,111.3738,-37.3925,126.6550,-166.5758,-264.4023,-388.7574,-70.9947,-286.9444,138.9859,-182.3314,396.5510,-176.2258,186.1677,-53.7343,129.9171,53.8227,3.9378,-413.2057,128.8375,85.5850
-3609.3750,174.3997,-22.3751,74.2977,-116.0332,-133.9473,-334.6641,-195.3582,-343.3745,125.1894,-311.9821,565.8081,-162.1748,60.2111,-73.5972,41.6166,70.1229,93.2000,-258.4349,115.2750,65.4867
-3601.5625,173.0730,-64.3072,255.9307,-157.4562,11.4752,-378.5552,-121.7736,-496.8066,50.3793,-243.6302,453.9631,-225.7939,204.2153,-190.4375,2.2850,-119.5512,161.4444,-512.6580,8.7040,58.4098
-3593.7500,9.2693,-104.2962,214.4640,-161.9559,-31.2635,-351.5349,-124.3510,-432.3412,120.4535,-325.3372,8.8843,-188.9695,235.1017,-163.3478,107.8356,-91.2962,90.5509,-377.9782,81.0192,159.2620
-3585.9375,-50.7336,-117.3761,126.8282,-69.5588,101.7981,-259.6440,-99.1566,-303.0151,71.3616,-306.1863,-189.4540,-135.3642,109.7849,-181.3809,57.2063,-36.1531,186.4761,-287.4213,-66.8187,250.9951
-3578.1250,-168.1038,-133.3502,223.2456,-84.0719,14.8551,-167.6819,-147.9885,-247.6431,-197.7058,45.0422,-607.8594,-84.2243,205.4946,-89.3366,6.5955,-17.9374,209.4335,-268.8203,-145.6301,305.8057
-3570.3125,-236.7280,-80.1653,62.7568,4.5542,36.9402,-75.5986,-160.7991,-82.1680,-26.6970,-83.6096,-769.2939,34.4527,-28.7286,1.8503,-80.9414,74.4159,56.4600,-6.0844,54.6439,323.7438
-3562.5000,-324.7212,-83.7212,61.4614,1.4237,35.1875,-44.2897,-13.4707,-86.4851,120.4905,22.9389,-991.6417,46.5528,6.2023,-3.7315,-119.3212,68.9993,-49.3422,-187.1275,92.0982,354.9062
-3554.6875,-478.4144,-69.6340,37.7683,14.9131,-173.0209,0.6359,-72.6020,-41.2035,98.2536,253.1294,-1383.5391,132.6896,17.7195,152.3243,-106.1318,188.2112,-207.5829,0.4387,111.1374,473.6995
-3546.8750,-440.7743,61.1132,-116.3484,217.0430,-106.6837,136.1806,-114.1966,21.6987,56.6085,169.9291,-1353.9680,267.2037,-284.2225,178.0159,-260.3764,251.0652,-178.2579,130.6393,72.7807,499.1263
-3539.0625,-434.6754,88.3199,-46.0709,209.6130,-221.9943,128.1443,-190.4481,-96.9937,17.3459,384.1535,-1358.1361,249.1760,-178.8024,170.1354,-264.2570,206.3455,-182.5539,86.2446,34.8041,490.9828
-3531.2500,-393.0863,86.6268,-154.7518,208.2716,-220.3249,163.1910,-223.7214,12.3909,95.1047,272.4626,-1172.4147,240.1241,-250.3616,131.3423,-299.1194,241.7115,-251.8423,258.9408,179.8584,488.9256
-3523.4375,-338.7834,5.8936,-84.5511,127.8712,-76.8001,119.1739,-115.1572,-68.2822,92.7402,229.6859,-991.9229,170.9728,-181.0755,124.4815,-266.1315,161.0121,-117.2720,70.5772,104.7943,407.7997
-3515.6250,-328.8242,25.9156,52.3486,113.2034,-124.6371,104.8766,-197.9537,-82.2406,-25.9502,179.6653,-1076.8846,188.7859,-45.1113,183.3518,-202.4805,110.0342,-60.0453,158.9355,-10.5901,356.4086
-3507.8125,-223.0739,141.8084,-1.9758,263.3840,4.2721,193.4122,-398.0225,6.6291,-115.8665,12.4597,-875.1946,278.1800,-247.3924,199.0579,-368.0631,161.8942,-11.0586,307.1582,-30.2029,260.8538
-3500.0000,-247.0910,158.7195,94.6378,245.5719,-45.9055,248.9365,-483.2130,26.4518,-200.8781,253.2205,-962.7033,290.0147,-150.7604,254.7515,-454.7363,145.7396,-61.1391,217.3605,-147.9129,207.2794
-3492.1875,-279.3418,263.4485,-50.0039,351.5672,-192.3940,394.2534,-516.7463,207.0390,-198.1869,214.7589,-1035.6302,412.5520,-297.4087,363.2513,-526.6947,289.3775,-199.5102,426.3466,-213.9032,241.4931
-3484.3750,-264.2611,428.6913,-132.2137,481.0624,-128.4744,454.0553,-451.9080,122.1064,-316.0671,203.7514,-1156.2395,513.2389,-417.6577,350.2419,-609.2470,276.5078,-102.4730,413.8172,-289.4641,265.1953
-3476.5625,-417.6045,532.2364,-93.1652,515.8237,-311.3587,452.1268,-521.8953,83.4390,-386.7280,534.0483,-1707.7524,608.1102,-343.6736,458.5150,-534.5831,274.9182,-136.2284,516.5501,-285.7970,263.1899
-3468.7500,-493.0848,641.2300,-339.7356,624.0238,-374.9082,606.6303,-547.5701,421.2074,-301.0042,652.7893,-1883.0294,732.2607,-628.3292,539.2290,-597.5571,429.7787,-236.6305,692.7377,-207.7334,159.6283
-3460.9375,-469.5613,584.1393,-320.4725,672.1341,-466.6541,586.0231,-489.4682,547.8538,-353.4551,816.4236,-1717.6112,696.1101,-462.1877,518.8289,-577.7325,335.5268,-256.2159,352.8002,-295.8476,101.9561
-3453.1250,-427.6887,473.4561,-361.8697,632.6393,-546.1246,539.8008,-494.0989,575.8781,-283.5941,662.4708,-1430.0127,618.1323,-431.7195,473.8255,-436.5958,363.6653,-328.5042,416.2451,-225.6445,166.6847
-3445.3125,-351.4462,435.4331,-399.6978,559.7852,-364.0510,499.2131,-310.1974,424.5497,-246.1532,364.1413,-1174.9630,551.2779,-469.7106,395.4642,-363.8982,360.4476,-258.2431,341.3486,-222.8497,199.0644
-3437.5000,-389.1538,343.0143,-273.9821,397.5084,-460.4730,363.2047,-293.8000,251.7908,-230.1924,413.4073,-1199.5348,451.7608,-235.1780,407.6853,-165.6922,371.8100,-313.4624,282.0302,-169.5342,247.0439
-3429.6875,-310.1382,321.9116,-403.0330,376.5289,-369.7004,341.4891,-275.2363,230.3113,-136.0110,172.9511,-852.0245,415.4194,-328.4438,386.2020,-110.2848,423.4616,-297.4646,330.0329,-79.9899,225.3215
-3421.8750,-229.5860,312.5762,-298.4030,332.3131,-193.2614,184.5227,-207.0425,111.5522,-252.1612,164.2093,-639.9614,335.2509,-189.0641,302.4545,-44.2363,303.8465,-233.7946,37.7797,-260.7771,215.3383
-3414.0625,-203.5425,354.5923,-292.4623,303.4420,-335.5793,113.8933,-310.6274,114.1013,-318.0565,131.8042,-562.7714,334.2188,-147.3972,342.0495,35.0829,343.5636,-295.8677,112.8635,-250.3083,291.7055
-3406.2500,-118.2158,381.5253,-407.6866,330.4820,-268.0868,69.1603,-278.4594,142.5259,-211.1421,-22.7519,-313.8845,315.2851,-263.9265,260.5382,-6.7880,298.1794,-232.1214,137.8626,-148.0252,282.9789
-3398.4375,-137.3585,298.9734,-305.4584,179.0204,-351.1805,-16.0928,-175.9238,57.4097,-144.8203,223.1745,-287.7147,205.2524,-52.0339,212.5151,20.7415,214.2768,-312.9460,-16.6535,-85.3266,234.7538
-3390.6250,-85.1543,342.2826,-404.4390,187.4112,-341.5285,-8.5038,-127.6627,139.1266,-58.7293,122.9339,-132.9240,231.4089,-300.3845,220.3383,-41.9787,295.2101,-373.0204,129.7038,-2.8552,242.3814
-3382.8125,-20.0548,403.7064,-336.3819,176.9011,-274.8484,-53.8141,-96.4134,56.9280,-63.6229,151.7495,-31.2311,207.2799,-306.7355,175.2543,-48.7062,250.2293,-311.0832,-127.8327,-78.3760,197.1089
-3375.0000,-87.4584,374.7828,-327.7218,149.0286,-487.6125,-48.4814,-160.6372,99.3448,-53.9672,305.2017,-173.1099,215.2427,-299.4901,253.8126,33.1277,292.8839,-373.5917,-88.7308,1.6605,202.4944
-3367.1875,-60.7484,317.5718,-457.4328,230.8580,-508.7663,38.5403,-143.2956,222.4540,38.3100,209.3324,-12.4954,239.7540,-504.6448,268.0624,-24.4274,307.2310,-324.4962,-41.9104,88.3291,179.5880
-3359.3750,-89.6124,289.3757,-373.2077,167.6771,-647.0053,46.5468,-96.0615,156.5482,-23.4916,365.4566,-152.1037,198.4975,-347.8885,239.2955,22.9243,204.5582,-245.4822,-107.1086,63.9216,150.6822
-3351.5625,-47.6207,329.7909,-470.4420,209.0904,-671.7471,92.1426,-83.3450,240.2325,26.2204,340.1713,-69.3497,225.0620,-483.6081,213.1198,-75.2131,215.4734,-202.9635,142.3131,144.0274,50.3858
-3343.7500,65.3783,328.8169,-352.1588,173.1090,-407.9626,96.3482,33.8438,171.5123,-1.5570,235.4575,116.7987,175.3013,-514.8259,106.5316,-179.8581,108.9811,-62.9278,68.3527,5.6466,-92.3037
-3335.9375,88.1172,315.2360,-144.5253,123.5160,-420.8760,118.9421,-50.6926,83.1664,-86.0226,185.1596,101.1123,144.9933,-306.7087,92.3364,-119.1974,58.8709,-111.5767,123.7752,-110.4119,-106.5841
-3328.1250,187.2607,400.1957,-200.4083,208.4634,-223.3336,206.0811,-218.8049,96.3753,-215.0042,-21.6006,370.7560,195.6030,-365.1418,105.6864,-141.0862,72.3146,-96.7683,205.7676,-232.9807,-93.3022
-3320.3125,204.5840,385.2503,-68.2519,194.5024,-201.7663,189.3054,-342.9165,-104.3238,-374.9611,73.7368,389.2824,156.8531,-124.5730,90.1256,-81.9761,-18.1553,-3.9316,83.8521,-348.5266,-72.9171
-3312.5000,197.6443,322.5501,-58.9008,236.7878,-304.0443,232.7706,-517.8787,-97.7789,-327.7573,-29.6612,393.8128,169.6654,-188.8345,132.8129,-73.7038,62.6122,39.0597,300.1921,-267.9094,-66.2730
-3304.6875,258.9467,310.1601,6.6654,224.3743,-168.0954,257.5359,-489.6420,-145.9301,-336.3335,-113.7818,490.4265,147.7678,-272.9017,84.7917,-157.2291,51.6761,133.2610,250.8469,-312.0704,-114.3218
-3296.8750,178.1824,219.7644,96.1736,97.9468,-190.2375,161.2934,-473.5094,-204.0963,-318.9934,85.1019,390.8089,69.4148,-38.0390,98.7616,-30.8402,65.7164,7.3732,123.4987,-294.3134,-100.3594
-3289.0625,247.6920,265.5625,-38.1948,108.7089,-68.2684,134.2478,-424.2902,-194.0567,-268.5283,-87.8287,619.1737,46.0192,-101.0601,-1.0771,-19.3357,111.9530,18.5940,202.3784,-245.4337,-90.1844
-3281.2500,313.4265,373.8568,76.8719,146.9640,-27.8629,99.6955,-419.6750,-302.5259,-372.6531,-47.2852,618.8422,38.4164,49.3358,-108.4362,-52.4226,4.6702,92.2503,62.7572,-380.1461,-87.5002
-3273.4375,280.7236,368.6007,37.3440,247.6553,-181.0996,167.5795,-497.7310,-271.5647,-375.4210,-125.2979,536.7396,120.1558,44.1203,-4.3579,-131.1417,35.8221,87.2723,302.5901,-346.4998,-93.3477
-3265.6250,338.1919,299.6551,6.0376,319.6511,7.8933,244.7660,-344.6063,-231.3062,-404.9655,-304.0475,683.7380,118.8357,-24.8980,-73.9919,-235.6532,-33.7371,230.5111,301.7544,-412.6254,-162.8797
-3257.8125,272.6089,212.2486,138.2210,231.1849,-46.6293,189.4959,-288.0269,-213.5128,-457.0409,-101.2464,552.0692,70.9467,178.5661,-55.0935,-105.7037,-125.7782,107.2243,212.4697,-392.2850,-180.8505
-3250.0000,290.0547,260.2769,-29.2167,244.1568,42.2195,241.6739,-309.1099,-51.2643,-365.7502,-159.0060,673.6356,105.5494,-63.5938,-40.7589,-126.3956,-37.3820,14.3059,398.6743,-306.5780,-239.3593
-3242.1875,288.0727,165.3512,24.3343,114.1750,204.0708,218.9016,-146.2440,-110.9695,-385.4986,-143.7478,720.0648,13.8387,24.2063,-100.3945,-112.1419,-132.9624,60.3737,161.9408,-362.9100,-298.8116
-3234.3750,203.5668,59.0518,22.4897,42.8318,127.4955,214.7675,-184.8234,-78.0437,-349.6820,-183.8374,638.9284,0.6826,94.5985,6.6110,-4.3263,-63.9124,-45.9780,228.8549,-326.6769,-265.6032
-3226.5625,216.4475,-0.3082,-110.4814,54.4415,250.8071,263.5789,-97.5543,-28.1637,-261.9924,-317.0102,794.5520,-20.6923,-2.1434,-54.4550,-27.6480,-87.9248,-69.4594,238.7505,-207.5712,-289.4302
-3218.7500,160.3320,-107.1241,-32.9606,-123.4203,141.6143,154.9306,-21.8361,-63.7457,-147.8420,-20.6447,754.5333,-139.6382,145.6040,-89.9980,47.4924,-160.4171,-177.4591,95.1970,-66.0086,-361.6935
-3210.9375,172.9046,-163.9947,-90.5569,-180.3517,119.2985,168.2249,67.7202,97.6247,53.1722,-42.3309,874.2627,-175.9879,-60.7667,-112.6087,25.4989,-71.9754,-269.5920,141.6231,19.4247,-383.9941
-3203.1250,209.8396,-275.6329,48.0060,-257.0281,294.1886,158.7690,205.4276,13.2477,-101.6418,-125.7927,1007.0658,-228.8349,40.0257,-85.9878,-20.3437,-82.3045,-205.5314,-147.6822,-194.9790,-320.0362
-3195.3125,205.4146,-352.0048,256.8097,-333.4179,169.3139,70.6015,118.3424,-37.8572,-223.2485,-138.9566,986.9772,-248.9994,173.0680,9.9182,2.0395,-22.3586,-318.2320,-120.6902,-200.1797,-186.7612
-3187.5000,265.5740,-420.5931,335.3468,-331.0103,136.1804,0.2263,159.9590,76.8294,-34.1396,-171.3621,1132.5117,-265.6602,-44.1653,13.6167,-67.8618,17.3776,-351.2073,-119.8746,15.3342,-219.6649
-3179.6875,291.5056,-467.3871,731.6266,-447.8200,-21.2045,-120.3637,260.2845,65.3011,31.6789,150.0189,1006.6713,-351.9782,55.3325,-33.9030,32.9470,-103.1068,-398.4433,-414.2635,6.5527,-266.7535
-3171.8750,276.6949,-397.6062,692.4534,-343.0581,-173.0614,-125.3644,220.1176,208.3701,66.0120,110.0016,886.2318,-276.0606,-59.6291,-1.8373,-8.7247,38.9999,-434.1567,-276.0308,42.2916,-197.2226
-3164.0625,228.0737,-351.7203,518.3636,-297.1568,-90.8064,-117.2135,229.0229,216.5993,113.4229,156.0981,778.7756,-232.9310,-87.5249,7.3564,-184.3364,11.2365,-353.7806,-371.6215,126.1057,-151.5288
-3156.2500,79.4394,-395.1358,433.9795,-376.5287,-177.8499,-239.3318,216.6096,240.5685,176.5036,401.9416,501.8858,-265.0078,120.2768,31.2727,-159.2840,-1.8140,-433.7143,-381.4586,189.5871,-90.0729
-3148.4375,115.4297,-339.3692,271.7184,-320.7227,-46.7529,-219.2597,164.3130,334.7495,198.7150,238.9566,627.0265,-259.8644,-43.7976,-59.6411,-103.1102,55.3155,-413.5264,-292.0641,176.1997,-69.4028
-3140.6250,112.9755,-286.2054,400.7789,-407.5382,-66.2999,-311.8036,182.3447,205.3248,181.2520,330.3443,491.4073,-316.0322,120.4628,-151.1916,25.3843,-74.1857,-395.9954,-416.2659,161.1308,-51.3244
-3132.8125,-1.9579,-176.1181,256.7303,-333.4296,-173.9506,-273.4180,147.2574,316.8406,221.6652,296.6619,118.5631,-206.7688,11.6292,-75.8181,136.7628,0.2242,-427.5768,-202.4989,166.9384,-12.2838
-3125.0000,-162.7688,-62.0800,156.6122,-148.3398,-19.6282,-192.0403,156.1046,325.3637,159.0187,231.9366,-541.4192,-44.5912,-90.2806,-31.4818,182.0585,8.5993,-208.2070,-159.6971,142.6818,-3.2376
-3117.1875,-383.7456,-54.4580,238.0989,-140.6303,-122.6835,-185.0285,163.5433,296.5291,203.9524,386.8607,-1276.9124,9.5914,63.4164,11.4746,409.9231,-20.4224,-201.2373,-117.2547,187.0008,4.4643
-3109.3750,-381.3208,-34.8938,113.5200,-85.9530,8.2187,-90.0264,184.9050,316.7049,226.8274,261.7632,-1262.5627,25.0223,-26.9486,-76.5892,430.7107,-36.4655,-182.3320,41.2144,243.2564,-10.8217
-3101.5625,-447.5214,-60.9682,233.2747,-181.9028,126.5030,-155.6395,340.5755,178.2748,311.0479,418.0229,-1554.9396,-60.8973,202.0208,-252.2905,438.8175,-248.1398,-139.0720,-196.9207,324.8485,-1.6968
-3093.7500,-671.3795,-28.7874,263.2781,-220.5999,81.0478,-126.9810,405.4481,207.1262,414.5064,410.5693,-2343.1621,-24.3989,377.2605,-297.7271,503.1641,-220.5543,-142.5559,-60.7499,322.6697,100.7382
-3085.9375,-546.6328,100.9411,209.8171,-125.7218,247.1767,-108.7376,461.8542,152.5684,250.4906,26.6610,-2147.8965,41.5576,358.0473,-316.6017,374.0503,-238.4039,21.5196,-71.9455,103.0149,230.7772
-3078.1250,-526.6097,54.5517,270.2709,-136.9292,86.2435,-196.5742,337.1667,-45.0705,165.3448,196.6716,-1984.7971,8.4781,490.7616,-257.5715,396.8291,-253.3535,-25.4885,-119.2085,164.2250,290.7674
-3070.3125,-541.2526,109.0982,72.6806,-12.1823,34.2833,-138.4393,248.4212,50.2688,261.1340,145.6448,-1933.8185,108.6630,217.4422,-161.5737,270.5586,-157.3402,-112.5445,110.5391,254.3602,239.7644
-3062.5000,-463.3220,160.3451,236.7747,110.2766,50.0655,-48.5747,81.3832,-43.6512,132.6025,88.3114,-1851.1925,162.3957,232.8149,-109.8615,102.9685,-178.6055,9.1083,-120.9631,-43.8388,256.5194
-3054.6875,-363.7969,221.3322,368.6141,171.4841,-77.3786,-27.9439,-302.8998,-96.7858,-29.2039,35.7737,-1654.9038,219.7620,106.9575,20.6168,12.1171,-48.1051,-1.4940,-60.6700,-87.3147,388.0886
-3046.8750,-278.9386,330.6117,298.7180,246.0152,72.5075,11.0220,-410.8789,-94.5579,11.2700,-108.4536,-1549.3740,296.1807,-259.6210,59.4109,-96.4593,27.7224,143.2003,-21.9795,-11.5165,428.0219
-3039.0625,-255.5840,242.3313,391.2520,123.0187,-21.1203,-45.5197,-357.4055,-150.8291,-6.8368,93.8021,-1429.4595,216.1483,-169.7498,76.6660,-153.6132,-28.9890,160.3574,-215.7754,7.6985,446.4614
-3031.2500,-276.9543,164.7458,272.4729,80.7427,-30.0384,-55.3128,-293.2441,-12.3428,131.7292,-25.2148,-1372.9252,192.2635,-216.1746,67.6497,-237.0786,-1.9798,116.2093,-118.7942,142.5797,474.6592
-3023.4375,-273.7611,67.8049,358.3132,-16.8550,164.7263,-117.4060,-134.4327,-111.1552,107.9207,-123.5961,-1368.7880,112.9594,-94.9654,5.3055,-225.9178,-64.2984,229.7352,-251.0954,82.0754,413.5590
-3015.6250,-277.7232,40.4950,440.7987,27.2128,64.1702,-107.8242,-198.9669,-138.2950,-28.2709,-113.3173,-1331.0548,154.1286,23.9204,124.6198,-218.1150,-54.9661,131.9361,-102.7028,-49.8148,387.1704
-3007.8125,-176.3402,181.1231,297.2083,168.2466,138.6010,77.7337,-307.5460,-26.4495,-62.5197,-295.0889,-1116.4036,252.6053,-159.2406,125.8897,-474.3746,56.3257,166.1003,107.7219,-118.7628,352.7873
-3000.0000,-133.2665,167.0433,357.9020,84.5787,89.3887,101.6155,-320.8040,-75.2747,-147.4800,-233.5483,-989.4758,212.3834,47.9208,149.4510,-488.3348,-30.0827,221.5815,93.5006,-201.4345,304.7496
-2992.1875,-95.6954,147.9413,231.5938,135.9025,144.2097,230.5223,-375.0482,17.9387,-200.4608,-396.9864,-757.5880,240.2799,-116.8798,169.0203,-359.2763,-10.4866,133.0571,426.3461,-289.1422,251.7664
-2984.3750,-23.3626,132.3673,110.8125,260.7909,317.6414,367.0095,-385.7360,43.7460,-320.9131,-370.8869,-408.1510,285.5417,-239.1317,193.1488,-444.6725,-59.3265,80.0953,550.8137,-374.3297,131.3852
-2976.5625,-98.6646,73.7188,125.9887,272.6310,222.0693,418.4601,-334.4662,58.5227,-304.4410,-170.8169,-511.7874,279.1078,-114.4030,208.2312,-357.1223,-44.2195,-47.8919,562.2689,-361.5975,74.0045
-2968.7500,-104.6334,59.6022,-33.2998,294.0261,355.0841,478.4815,-201.6517,155.8843,-207.4355,-442.1921,-460.8833,298.6598,-203.1109,193.8713,-298.0275,14.4577,-28.3099,654.3488,-303.3407,61.2245
-2960.9375,-151.5748,1.7669,15.6978,202.7144,403.4657,416.8241,-79.5165,93.5770,-232.1489,-282.2702,-530.6706,252.1004,-8.4994,204.8074,-287.6358,-84.5639,-50.3992,456.7698,-359.8121,110.7911
-2953.1250,-200.7754,46.6975,-161.5097,212.1887,189.6852,422.9762,-183.5616,211.1012,-224.0797,-128.5281,-532.6661,308.8563,-112.0426,321.5474,-355.4251,69.2159,-216.6792,713.0403,-278.5098,192.2123
-2945.3125,-159.4292,124.5896,-260.7483,326.6631,199.9610,506.1496,-210.5799,331.6689,-287.0146,66.2033,-419.6438,366.5007,-323.5807,330.2917,-493.2083,188.0092,-208.9370,686.3823,-374.2254,166.6808
-2937.5000,-242.1873,83.0372,-194.3910,355.7327,8.8942,534.9396,-291.9697,360.8600,-331.3722,352.5463,-620.0215,366.2263,-185.4894,358.6395,-392.3875,216.3999,-250.5566,574.3618,-344.3736,196.7916
-2929.6875,-249.0781,50.3485,-412.1511,393.7019,-25.2307,574.6476,-289.4462,474.9876,-143.8461,207.7946,-515.4918,347.5269,-293.4844,287.8924,-279.6631,292.7014,-213.2493,647.3096,-94.6407,200.8460
-2921.8750,-200.2474,55.7248,-330.8252,294.7729,54.8138,472.4764,-61.7893,372.2463,-61.2289,253.1267,-441.8267,263.4388,-103.3695,184.2371,-236.8425,189.0967,-136.8034,337.4098,-16.8348,173.0385
-2914.0625,-192.2798,37.4643,-274.1061,171.2256,-71.6908,343.7126,-5.6894,428.9273,68.7719,419.8607,-431.7444,200.5159,-47.8051,165.9763,-218.6049,244.8768,-190.9290,459.9535,142.3442,156.6712
-2906.2500,-122.7844,-14.1272,-322.7251,226.3696,62.5683,368.6708,17.1551,453.3529,129.4683,444.2642,-194.9203,168.2131,-171.5288,79.4130,-305.6608,231.3604,-101.3253,445.2623,197.2111,72.0432
-2898.4375,-125.4225,-97.9677,-188.5575,107.2867,-61.3100,281.4405,3.8595,403.6048,153.9625,615.4686,-143.2631,52.9477,71.5853,28.6405,-172.9072,144.6368,-114.8931,185.3925,184.8645,60.2550
-2890.6250,-37.3294,-152.8158,-250.3606,89.2302,24.9063,219.2676,52.6572,378.9403,276.5096,259.7317,154.4755,-13.3483,45.7852,-69.0798,-15.0804,82.9678,-28.3922,96.6306,307.5626,183.5561
-2882.8125,128.1751,-364.7472,35.7609,-191.8870,311.1452,-8.9455,264.4571,78.2624,453.0098,-41.0675,506.2273,-296.3419,256.9520,-372.8644,159.7051,-256.7591,287.0890,-324.1433,413.1982,360.8412
-2875.0000,146.0536,-537.2185,255.3789,-398.5323,310.9248,-231.6627,300.8017,-107.8967,489.0005,-153.3463,533.5228,-436.3356,365.6701,-412.1618,304.0146,-295.9923,363.1036,-249.3892,490.3163,507.6614
-2867.1875,193.3191,-490.5316,233.1607,-385.9861,360.9556,-180.1630,241.3795,-92.8200,467.1923,-249.4456,613.0812,-412.0634,195.6040,-398.2624,280.5363,-209.0221,409.3477,-200.3719,502.6196,486.7180
-2859.3750,151.1918,-461.7398,304.0733,-392.3047,213.2024,-256.5067,165.1477,-168.5754,355.5222,6.6011,491.8597,-422.8991,375.7224,-365.2184,386.2195,-248.9083,403.7848,-347.1814,462.0493,411.9581
-2851.5625,158.8030,-418.4440,243.5281,-206.0966,153.0495,-244.2993,141.4955,-117.7684,404.3940,-127.8114,497.2510,-340.7924,277.4410,-352.6272,361.4807,-200.2480,377.8011,-196.3893,473.0089,352.7877
-2843.7500,192.2807,-368.4919,226.6627,-155.2023,283.6705,-223.3798,271.5814,-207.2465,351.9612,-143.5578,509.4336,-310.5296,223.8796,-369.3549,270.4668,-253.8959,498.5614,-285.8468,418.6519,264.3516
-2835.9375,158.2848,-336.0954,261.3009,-227.8337,171.8507,-261.9605,233.2070,-208.2221,314.0089,-34.8117,427.1931,-323.1994,295.8777,-335.5943,377.9833,-219.0601,390.8707,-250.7807,382.7637,264.4489
-2828.1250,237.3453,-263.2017,120.4733,-153.9304,214.6445,-219.9842,201.4118,-92.6227,282.5954,-176.5549,681.6003,-285.1136,115.4595,-331.2877,345.0702,-141.6711,394.7725,-177.1045,280.4020,234.1287
-2820.3125,239.7506,-244.0579,251.9454,-168.7510,163.8181,-234.7016,149.9582,-180.7109,85.4626,-44.0271,659.4140,-293.9752,284.3716,-309.6897,403.4666,-193.9950,344.0320,-261.0992,91.3124,221.1318
-2812.5000,214.3433,-198.9638,118.4218,-88.5918,103.0373,-186.4205,16.5441,-130.7869,24.3114,-105.4973,664.3126,-206.4982,223.3270,-188.0959,377.8820,-108.3274,284.3252,31.9427,102.1925,198.1656
-2804.6875,254.0888,-98.8660,80.9222,-22.3881,289.3722,-112.0715,53.2129,-129.7896,-10.8040,-177.9470,657.3782,-143.1897,113.3497,-187.4598,230.3674,-108.6066,385.7139,-42.9147,98.0922,90.2754
-2796.8750,167.6681,-120.5212,208.7207,-182.9006,196.0701,-169.4194,107.2166,-75.4880,6.3559,21.8939,372.8438,-191.3056,239.7261,-172.5345,283.1831,-129.6008,295.4535,-167.4544,113.2553,71.7112
-2789.0625,177.1021,-146.4252,73.3066,-207.6252,246.6321,-156.9640,156.0526,83.6253,91.2957,-75.5019,488.2223,-202.9707,67.9421,-197.8155,257.8271,-80.7978,236.0380,-86.1472,230.1895,48.9726
-2781.2500,142.2275,-192.1741,64.0808,-253.1654,201.4786,-203.3126,258.1419,37.9388,82.4200,98.2617,508.9310,-247.0589,242.3915,-207.9136,247.6895,-164.8084,155.8836,-199.6191,151.2918,41.4516
-2773.4375,39.7916,-198.0274,-160.2011,-151.7962,14.3300,-96.7185,180.2368,71.2069,152.4802,56.9703,386.6986,-161.2251,237.8534,-102.0659,242.5224,-132.8814,81.7166,112.8802,252.3210,38.9022
-2765.6250,48.4464,-167.6248,-269.2134,-119.1541,273.5512,-23.8169,328.6836,35.8012,226.8374,-89.0507,343.8945,-120.6238,90.6390,-139.9268,57.6565,-206.6518,219.8864,216.7253,250.6376,-32.3271
-2757.8125,-13.9931,-153.8734,-69.8367,-210.1469,329.2382,-117.5123,530.5946,-57.2023,133.5836,1.3217,-13.3930,-130.6559,254.8797,-160.4080,74.2236,-227.0429,200.4971,232.9818,195.3267,-50.1378
-2750.0000,-48.2615,-165.8275,-225.1331,-151.8184,394.3286,-52.8554,704.9043,7.1608,198.6722,-190.9831,-29.2063,-74.4265,98.5137,-134.5485,27.1973,-91.0897,119.4796,434.6317,290.3452,-94.5776
-2742.1875,-98.7061,-216.9343,-274.5657,-131.6124,383.3900,-65.3054,840.1738,-41.5692,222.6562,-94.4205,-11.9731,-75.5437,159.0826,-73.8071,51.1084,-104.2470,70.4054,210.2044,171.2458,-142.1025
-2734.3750,-127.9032,-183.8536,-276.7523,-97.1967,198.7547,-67.5193,691.7475,-42.0495,73.8789,-96.6125,-56.3614,-5.8176,193.9652,107.1755,48.3128,39.8326,35.6108,316.0392,30.3720,-105.3624
-2726.5625,-50.2222,-77.1289,-345.2714,11.8883,389.8820,-26.0333,625.0703,37.1910,-30.1995,-237.1417,16.1086,61.4223,-21.4242,74.8482,-94.7436,44.6137,180.5445,356.6136,-35.8160,-134.9058
-2718.7500,-161.5138,-106.7660,-371.1140,-16.3675,401.7767,-124.8539,636.1517,12.1338,-19.5853,-43.9839,-273.5735,49.0727,173.9351,84.2047,-84.0627,-55.9178,258.2262,294.8945,41.6791,-195.7363
-2710.9375,-266.7167,-87.4654,-822.9849,75.3345,430.7223,-24.6784,590.2836,223.0968,81.0245,-53.8360,-326.1243,112.9589,16.3466,110.5523,-131.3444,43.5456,280.9441,564.2173,134.1567,-277.5558
-2703.1250,-266.3881,-14.9640,-960.6287,184.2605,479.0007,57.7451,527.7214,270.3239,-19.1221,66.5186,-248.2613,153.4163,26.0314,119.1317,-159.3398,52.2483,319.9608,462.8182,-73.1394,-413.1252
-2695.3125,-141.4145,143.1750,-681.5630,202.8466,281.0354,78.8554,328.9167,218.2418,-181.5863,13.5576,-159.5536,172.3381,121.4789,102.3977,-64.5820,35.6257,234.7197,483.1173,-229.7659,-426.9910
-2687.5000,39.5113,249.2075,-531.5673,275.3628,433.0809,118.9079,222.1174,112.1131,-288.1088,-278.5103,133.2770,201.2267,50.9063,67.5946,-135.8302,37.9491,343.4686,452.3987,-331.4674,-421.8989
-2679.6875,7.9263,111.0795,-343.6927,174.7432,477.0933,-23.1491,191.2796,-66.1260,-356.7450,-89.7057,96.1787,91.9988,277.2776,34.6753,-57.1468,6.1600,384.1710,247.5770,-326.2919,-414.9052
-2671.8750,46.6222,132.8344,-356.8850,163.0309,356.0945,-36.2613,143.4385,32.5819,-222.4371,-175.9514,225.1736,81.3741,190.6507,21.6983,39.5310,65.3168,268.8549,342.7274,-232.1739,-388.9566
-2664.0625,121.5259,172.0903,-277.5571,167.8428,326.7100,-67.8259,150.2005,-35.1531,-216.5785,-207.6908,373.8948,56.8982,196.5977,-10.7445,81.7907,70.0190,310.1336,138.4517,-296.5334,-381.4592
-2656.2500,19.3100,57.0554,-214.4787,89.3678,97.1259,-114.6556,177.7604,28.8439,-262.9937,39.2903,174.5319,35.1260,260.3521,88.5501,144.8435,96.4506,233.2136,96.9150,-269.1824,-316.2074
-2648.4375,26.7300,-24.5630,-406.9704,115.3123,128.0398,-123.0560,280.8127,168.2787,-123.9730,-6.3287,345.7984,25.4555,68.5894,79.2853,62.3884,160.3300,260.7823,195.8445,-136.3965,-322.4996
-2640.6250,27.4069,-157.7765,-287.0339,-51.3334,140.4602,-224.0288,366.3745,106.1448,-2.5064,151.4693,425.7027,-110.4115,227.3113,14.4523,72.4244,59.6484,271.8448,-39.7848,-126.1740,-310.3463
-2632.8125,29.3184,-166.2941,-297.3684,-58.2753,22.6599,-233.2619,210.7388,243.7657,134.7063,215.0163,485.5168,-130.2203,143.8338,3.3639,100.2564,195.7071,160.6792,25.3490,-27.2214,-244.4437
-2625.0000,71.1534,-159.2656,-360.1483,55.3579,34.5094,-260.8788,148.7541,291.0056,144.5103,260.1193,638.1194,-108.0653,43.9746,11.8624,-1.2740,241.3636,242.1485,-139.8797,-52.6898,-232.9478
-2617.1875,26.2679,-219.0029,-275.6447,33.2610,-171.2945,-322.2046,88.1218,266.5349,120.5995,419.5071,572.1985,-135.5753,167.4702,59.6463,47.5433,216.3009,185.9649,-300.8142,-73.8853,-182.1617
-2609.3750,89.8406,-227.0930,-394.4644,61.8313,-104.3562,-293.8500,81.2343,295.7621,221.3819,188.5655,781.1573,-149.5395,11.7056,-23.8790,2.1133,205.9360,216.5175,-200.0253,25.6039,-115.6895
-2601.5625,150.1664,-354.8733,-162.9456,-101.2806,55.9962,-356.1611,203.7528,123.3286,196.5034,125.9291,898.6748,-294.6146,244.3264,-161.0742,87.0708,31.9079,302.4633,-393.8970,-65.5910,-28.8822
-2593.7500,199.0537,-428.2972,-22.0247,-207.0445,53.7741,-399.0979,126.7127,82.2701,117.9999,9.6809,1037.7656,-360.5373,313.4035,-165.8834,229.4835,63.2689,267.8463,-252.3782,-135.4142,78.3225
-2585.9375,330.3701,-373.3519,36.2641,-220.4300,188.9878,-339.6407,41.1017,31.6019,30.8829,-151.2173,1315.4626,-356.8506,189.8941,-181.3013,104.3284,48.0279,291.6662,-228.4360,-183.8659,102.9201
-2578.1250,284.5488,-304.5414,109.4376,-255.9352,44.1371,-340.2958,-30.5719,-114.1907,-79.3661,-4.2406,1128.2457,-332.0892,301.3259,-108.8297,141.1071,9.6754,259.4308,-331.6034,-217.4600,141.4074
-2570.3125,251.7609,-259.1149,-98.7589,-173.8177,57.9573,-181.3060,-16.5642,-102.3477,6.0129,-287.6475,1099.8649,-243.2308,55.4475,-61.7070,189.5762,56.9726,202.8699,-106.1025,-169.4330,191.5323
-2562.5000,208.3554,-295.0670,-134.3291,-208.0733,136.4779,-142.6714,133.1430,-246.8735,-28.9730,-323.4490,1026.3367,-253.0856,132.2349,-60.9438,191.7318,21.9127,240.9933,-172.9529,-202.7856,195.2862
-2554.6875,189.1063,-320.0080,-48.8547,-266.3095,78.0726,-167.0004,184.9361,-233.3778,-15.9369,-274.2116,963.0342,-250.4174,183.1210,-12.1288,168.9884,33.8990,114.1844,-53.7675,-120.1263,210.0746
-2546.8750,298.5504,-286.3809,-45.8116,-265.9673,195.2942,-127.7306,226.3529,-192.2832,97.6750,-382.4224,1185.5315,-260.3098,-33.3753,-83.7180,24.8889,35.4950,152.9928,-50.9591,-47.9047,178.4513
-2539.0625,254.1164,-315.3295,72.6663,-293.2137,59.0069,-155.0224,237.2582,-329.7624,33.7051,-227.2230,1045.6846,-274.7256,86.6271,-38.8715,71.2841,7.5249,163.2831,-216.7184,-110.2780,189.2622
-2531.2500,213.6923,-214.7534,-79.3186,-190.9461,-15.7161,-50.7814,123.7372,-224.7141,28.2547,-306.5031,891.5767,-175.6479,-100.7742,-8.4785,66.2760,75.1033,127.1412,29.0780,-77.1336,259.6086
-2523.4375,190.1427,-153.0508,-122.1819,-197.5494,-18.2500,17.5962,48.3998,-118.5273,-13.0654,-91.6860,773.8347,-140.7449,-178.0072,22.0540,-84.5514,68.8306,158.1804,-44.9749,-82.8723,256.0816
-2515.6250,159.7908,-124.7274,-91.4005,-202.5417,-168.1164,11.6062,-102.2517,-49.7182,-55.7678,48.7712,693.9322,-129.9639,-72.5541,52.2380,-89.6988,99.1995,50.8956,57.6032,-86.9986,289.1800
-2507.8125,289.2730,-126.4179,-87.6416,-97.5592,-13.9617,-21.3875,-132.8669,-45.9161,-51.4895,-205.8220,1028.2283,-123.2402,-214.0947,17.4227,-84.8225,101.5666,158.6299,59.2004,-87.1573,221.2508
-2500.0000,298.9138,-195.8339,103.4042,-130.3148,-3.4750,-123.0873,-85.1302,-219.8316,-42.9378,-124.1522,999.0170,-200.8452,15.6864,-49.0973,-2.6219,-73.7701,269.6906,-250.9162,-48.0514,121.5904
-2492.1875,265.8364,-158.4789,37.2265,-92.3065,-66.1804,-115.9955,-76.5573,-137.9600,37.3919,-227.6866,859.7755,-158.1304,-48.6992,-41.8123,42.4233,-67.3048,275.5518,-70.2423,60.8277,57.7069
-2484.3750,268.7868,-100.5470,-42.3894,-31.7181,41.7360,-48.3151,-5.3490,-107.4972,32.3033,-307.6587,817.3389,-126.1071,-16.4711,-84.9322,1.1055,-147.2318,374.0272,-112.9745,-18.7163,-19.6079
-2476.5625,240.7297,-165.1904,79.4407,-129.7182,20.1174,-73.2085,8.3385,-131.6174,7.6376,-223.1958,718.5444,-187.1412,144.2537,-110.6109,124.2811,-209.7248,384.9758,-137.2907,25.1547,-79.5057
-2468.7500,319.3829,-249.7055,74.4069,-106.5971,239.6514,-40.9624,117.1856,-98.6044,76.1034,-485.6223,972.0927,-209.6071,-5.8512,-153.1422,84.6476,-178.0660,446.0903,-76.4494,84.1566,-229.2858
-2460.9375,336.3334,-329.5909,328.0012,-184.8548,349.8545,-82.0733,226.7129,-211.9628,-36.8006,-453.4236,968.4864,-283.0833,176.7082,-194.0298,155.6958,-255.7593,440.8722,-327.9817,-98.2263,-304.4540
-2453.1250,285.2373,-248.2498,303.8215,-172.8919,218.2951,-32.9393,204.5090,-125.0875,-98.4847,-477.9772,797.2949,-212.8017,227.5559,-108.6593,206.0386,-207.1983,315.8997,-207.2793,-155.3962,-253.4017
-2445.3125,295.6056,-170.1621,165.3514,-128.1898,341.4890,49.9509,290.0554,-152.4757,-89.4469,-579.8185,808.0509,-179.2214,164.1508,-174.5270,179.1590,-308.8715,328.6854,-194.8211,-179.8541,-205.6266
-2437.5000,235.1151,-227.3625,252.5737,-218.8029,248.3819,27.5259,306.3055,-321.2071,-148.7553,-456.9795,675.6897,-207.4989,290.4785,-124.6915,231.0079,-332.8459,275.1869,-142.6972,-200.6710,-153.1779
-2429.6875,254.3183,-215.9041,194.4247,-135.7749,340.9111,116.7376,251.2008,-305.3154,-95.4595,-662.5197,729.1535,-147.1134,87.4735,-109.1926,174.5441,-280.1573,221.3392,120.0803,-115.8812,-172.1086
-2421.8750,226.0920,-231.3899,256.3038,-113.7025,406.4965,105.9889,280.1617,-424.3981,-107.1497,-563.0472,682.8588,-186.7546,262.5222,-194.6461,165.1616,-328.4139,175.5540,-138.1205,-164.0831,-218.0284
-2414.0625,190.4775,-161.2278,220.8304,-148.0101,227.7084,32.8722,99.7782,-385.8595,-105.2266,-452.9306,649.3773,-178.4609,339.2540,-120.4395,241.4678,-217.0151,39.4155,-168.7077,-91.6764,-178.3303
-2406.2500,300.6903,-136.7574,63.6287,-157.0310,294.2029,24.0462,-17.3047,-322.0255,-78.0322,-426.5489,1119.3846,-226.1066,220.2798,-167.9247,233.0972,-190.3014,-1.4271,-246.0016,-64.9996,-149.3642
-2398.4375,324.4474,-289.9365,88.7616,-342.7245,103.0364,-61.4454,-99.0225,-331.8687,-126.5239,-107.8275,1477.9263,-373.9983,358.6805,-143.0579,371.1036,-202.2366,-149.9251,-358.9933,-75.0170,-122.0837
-2390.6250,335.9282,-286.7595,55.2129,-234.0901,73.1860,-57.5995,-166.3818,-181.3823,-85.6952,-215.7697,1485.0035,-308.6905,180.4461,-102.8308,339.4936,-124.8168,-178.0878,-176.6432,0.2857,-79.4864
-2382.8125,369.8969,-243.7693,176.4303,-225.6686,125.1357,-155.9567,-114.9253,-243.1152,-74.0953,-167.9548,1388.0972,-325.4627,193.9995,-164.8072,315.7018,-224.5981,10.5486,-445.5121,-25.6520,-103.1293
-2375.0000,335.5069,-236.4725,187.9355,-286.9750,-44.6459,-255.0263,-137.1567,-267.5809,-26.2343,-46.8410,1291.6454,-367.1003,280.8723,-190.4724,439.2334,-213.0778,-12.5226,-434.1100,124.6720,-126.5111
-2367.1875,279.5790,-263.7548,90.8139,-276.8892,82.9434,-240.6956,-9.9848,-178.6595,134.9959,-144.3579,1161.7460,-368.1294,223.1253,-250.7208,492.1805,-236.1348,-0.2062,-422.3105,240.3656,-184.5316
-2359.3750,218.1127,-430.1652,251.5258,-440.9653,27.3573,-337.5237,117.0407,-237.9144,149.0392,89.9633,1067.8530,-481.5765,423.2283,-274.1072,506.9940,-333.3319,-56.0444,-513.7070,216.8623,-205.7432
-2351.5625,173.8473,-468.9508,176.8259,-409.4517,65.3163,-301.7639,155.6486,-128.5914,257.6417,-59.1302,996.7093,-439.3790,239.9340,-239.8726,434.4235,-224.9103,-161.2992,-338.5236,355.9199,-205.3883
-2343.7500,134.6493,-508.6126,216.1994,-411.8283,219.3531,-334.9117,345.3448,-161.1864,334.3070,-57.1605,818.8445,-445.7175,171.7103,-273.5234,401.9601,-258.3728,-55.4648,-513.2573,424.0348,-310.9748
-2335.9375,87.7682,-515.5070,212.3264,-453.4711,35.1065,-375.3221,418.7798,-201.0702,404.6717,48.5568,744.8730,-460.8066,243.2507,-240.4102,511.2672,-262.0778,-128.8979,-518.2784,452.8517,-349.8507
-2328.1250,100.4633,-379.4653,24.3277,-351.2239,108.7329,-231.8165,491.0910,-130.0760,437.8866,-212.8378,708.9471,-359.8456,94.6820,-244.3732,472.4718,-228.8692,-93.4563,-342.4026,380.5182,-314.8690
-2320.3125,125.1638,-348.8349,163.8655,-390.4282,103.8646,-202.7520,412.9264,-284.5576,209.5939,-110.6972,704.7142,-376.6509,273.6570,-252.7573,430.2310,-273.0965,-93.4918,-378.9883,130.6733,-210.3801
-2312.5000,106.6676,-345.9647,163.5927,-315.4192,34.1357,-127.4878,195.9250,-282.8623,62.4457,-184.3755,672.8312,-287.1755,202.8192,-104.9133,359.1855,-126.0988,-156.3458,-55.3980,64.9700,-97.7316
-2304.6875,161.9875,-234.4544,170.9108,-202.8056,155.9564,-46.6340,133.4894,-347.5929,-40.1531,-251.4702,684.6809,-207.0511,101.5685,-97.4469,147.7466,-81.4782,-76.6189,-81.2316,0.8204,-88.5232
-2296.8750,103.8448,-156.4968,289.6143,-158.7922,-16.8660,-38.3890,-39.5771,-375.9476,-69.4014,-96.1750,440.0619,-149.8715,222.7012,-15.5559,157.7267,-73.4364,-170.5189,-175.6844,-24.9780,-41.9575
-2289.0625,127.0354,-7.3849,115.3969,-9.6728,-77.6329,8.9523,-100.5835,-291.2295,-22.6025,-197.8033,417.6829,-44.8326,-23.0711,-5.5419,59.8179,10.7168,-123.3462,-58.0563,54.2648,-30.3338
-2281.2500,99.6480,16.0796,178.4663,-20.2469,-121.1503,-0.4101,-33.3281,-374.2425,-32.5684,-60.1507,265.7326,-58.1055,43.4496,-52.2044,52.2225,-108.8220,-94.8956,-241.1444,8.7523,-38.4567
-2273.4375,48.9120,-27.0725,170.8713,-97.4697,-235.3611,-8.4165,-38.7498,-344.9312,-4.2322,-69.1533,188.2554,-62.9241,0.3098,13.5051,155.9794,-43.9968,-204.1248,-35.8983,71.5580,-8.2865
-2265.6250,80.0737,-3.8432,158.6082,-144.3406,-97.2639,16.9293,63.1643,-319.2842,57.4246,-155.8064,218.2435,-84.5749,-119.4960,-71.4170,147.0910,-54.8077,-213.0396,-44.3369,95.6776,18.1724
-2257.8125,11.3964,-4.8638,267.0285,-143.4993,-242.5246,-21.0250,63.7478,-356.9499,54.7335,-47.7695,-35.9514,-70.0459,28.3780,-36.6150,220.8992,-93.8992,-244.2791,-77.1127,61.4474,91.2744
-2250.0000,30.7292,90.6778,108.9356,57.8507,-250.3463,79.5239,-17.2103,-256.1333,43.4928,-242.2426,-41.5342,52.6648,-126.2784,-10.2892,101.2054,-30.4719,-181.0528,126.5879,86.6739,118.8260
-2242.1875,16.1674,110.1157,95.6802,78.0574,-222.3848,66.9227,-27.3506,-304.4880,-5.9398,-108.8555,-85.1590,36.5679,-64.1132,-59.0929,54.3736,-79.1711,-122.0157,-26.9000,0.7113,71.1766
-2234.3750,-77.7756,61.8978,47.7078,-4.4323,-342.1888,55.6131,-108.2217,-205.5610,-18.1038,26.8303,-201.3766,21.1848,0.3213,2.4277,118.8515,-16.5477,-307.7161,103.8761,94.0199,60.7791
-2226.5625,-18.0698,96.7733,-25.2261,-73.8702,-154.0093,94.3461,-32.0713,-94.6048,56.7553,-120.4372,-47.4362,-7.0219,-143.2255,-68.9914,48.3848,21.1306,-304.3862,71.6667,59.3615,63.3765
-2218.7500,-78.0590,78.9958,103.1349,-196.0031,-205.5925,40.3664,-46.6650,-111.3755,0.8816,118.6021,-244.1013,-35.1617,-12.4953,-13.0902,33.2199,40.1197,-354.7862,-14.2808,41.9731,83.2164
-2210.9375,-128.9259,155.3739,-71.4208,-84.0192,-230.1488,123.4851,-107.2061,118.9340,47.0736,201.7367,-338.5689,89.1637,-294.7018,106.9430,-102.8414,197.2345,-485.1292,171.8328,118.6466,57.1018
-2203.1250,-114.1780,245.7251,-84.0888,5.8830,-166.8917,148.4983,-7.9125,70.1159,-2.8767,187.7749,-382.0393,149.0784,-305.0350,130.9084,-150.0044,148.2754,-392.6161,-52.1997,-36.8250,8.8402
-2195.3125,-152.1405,234.0042,-61.9115,-5.3532,-288.8657,134.3522,17.1750,20.1195,-55.0315,62.6590,-464.5553,167.8993,-169.5429,190.7442,-88.3133,135.1803,-471.3021,-27.4179,-14.4918,69.3846
-2187.5000,-79.2388,253.2500,-149.8366,14.3214,-191.0168,83.0947,42.1099,42.9886,40.6687,-99.5583,-252.0733,161.5472,-329.1709,140.4949,-137.7176,121.0051,-449.1331,65.2259,75.7017,55.7829
-2179.6875,-92.6036,219.8101,-0.5134,-53.7458,-221.9846,-23.9280,84.2405,-27.9267,5.5741,160.4813,-353.2666,105.6006,-177.5702,106.5184,-132.8686,13.1000,-409.7605,-71.9261,42.1062,59.3850
-2171.8750,-109.5425,240.7271,-89.9087,2.4909,-308.7305,-1.6597,-74.3752,31.4338,26.7450,70.8236,-362.0908,146.3254,-227.7050,165.8789,-71.7108,146.5254,-386.1446,127.1816,62.7856,82.2433
-2164.0625,-35.6793,329.8087,-30.2307,91.8349,-246.4687,20.6948,-50.9397,-93.1194,-25.0193,19.2876,-296.7437,170.0275,-239.7700,115.3602,-83.4387,96.0801,-259.4842,-63.6520,-24.4604,32.1566
-2156.2500,-84.8077,357.1627,70.6239,84.3971,-400.1051,-23.7649,-92.3672,-210.4865,-71.6116,120.9767,-482.1222,174.5788,-100.6670,144.0656,21.0337,87.8518,-299.6812,-104.3169,-68.5325,61.2202
-2148.4375,-30.7069,386.5413,-7.5773,218.9369,-292.8822,44.7160,-168.9006,-214.9167,-40.3002,-178.3610,-370.4833,246.0942,-249.6534,175.7347,-55.5549,157.5876,-162.9820,32.9415,-74.6905,57.1813
-2140.6250,-18.2236,422.2498,103.4662,290.7443,-289.4972,83.4454,-275.2451,-397.1056,-185.7808,-141.4288,-436.5466,279.7863,-100.4304,214.6795,-125.9132,159.5917,-20.0944,-70.5768,-214.6406,59.3437
-2132.8125,-52.8405,480.4916,18.9497,419.0155,-334.7488,147.6334,-504.2115,-333.8546,-343.8582,-115.0350,-513.1181,406.2560,-217.8006,389.1061,-242.8404,333.0737,-29.8174,306.3340,-333.1838,12.9131
-2125.0000,-21.0018,745.8154,-96.5710,685.3062,-302.0829,362.8161,-691.2495,-192.6309,-607.9922,-120.6388,-585.6235,644.4947,-479.1978,568.5700,-503.7896,512.5854,-8.6004,538.2142,-631.7748,-212.5625
-2117.1875,-58.8442,957.1759,-16.1299,896.5750,-513.5464,590.9397,-977.4182,-74.4918,-896.2279,69.7186,-830.1091,828.3716,-434.6772,723.0171,-495.7966,557.0726,-182.4946,574.9911,-878.4630,-352.1334
-2109.3750,-23.2470,1074.1270,-151.1882,1048.3755,-498.6029,751.5533,-1109.1693,86.1089,-958.0155,-64.4355,-736.0260,923.7474,-566.6899,736.9972,-443.3089,608.0851,-239.9398,693.2180,-938.6974,-375.2421
-2101.5625,-52.4965,1031.6208,-86.7992,934.6595,-433.3143,706.6157,-1042.5574,77.1227,-1005.4072,146.8586,-812.4433,839.4185,-353.2946,655.4564,-340.3848,452.5732,-210.9785,439.8494,-948.5188,-346.9341
-2093.7500,-143.0508,955.5034,-167.1090,823.2698,-548.8358,662.9760,-1047.7338,291.4033,-902.5451,249.4587,-958.5201,789.1221,-321.6501,649.2561,-271.1799,520.3940,-285.7662,576.7491,-849.0735,-316.3640
-2085.9375,-97.8459,920.5079,-239.3658,717.9502,-399.4016,628.3777,-896.9331,477.7140,-791.6697,214.1251,-803.5054,710.9399,-392.0019,541.1399,-303.9477,486.2914,-249.5600,436.6568,-780.6025,-350.7915
-2078.1250,-178.5512,663.2686,-66.9172,459.3422,-481.3525,470.4692,-685.4971,466.7033,-694.1208,460.5022,-879.7510,515.1805,-144.6875,457.7518,-129.0220,401.9051,-329.7092,215.2167,-617.4496,-361.5687
-2070.3125,-236.0303,530.9031,-205.6724,326.5631,-435.5759,442.3560,-455.3250,622.4619,-429.8034,394.6736,-864.1591,439.4433,-281.6129,393.1935,-81.3209,411.3371,-461.1013,295.5304,-364.5269,-352.5967
-2062.5000,-303.3691,468.9736,-272.0687,158.1680,-426.5334,376.5923,-225.8789,630.5291,-313.1853,623.1870,-960.1832,363.9732,-272.2244,365.0155,-145.3060,310.1381,-487.1862,57.1600,-252.2974,-344.3169
-2054.6875,-378.6159,424.6813,-355.9089,79.3576,-619.0247,367.3753,-233.9669,694.1025,-140.0612,796.2402,-1073.6302,325.4931,-281.3295,355.4185,-152.7655,337.5085,-564.7712,84.3061,-16.5446,-317.5320
-2046.8750,-321.8780,324.6293,-421.5896,83.7282,-427.4514,302.2999,-113.9905,702.7891,87.1766,693.4563,-837.9019,249.8560,-381.3333,217.9899,-216.1007,273.0400,-489.2545,19.5568,197.3353,-382.6461
-2039.0625,-348.9906,176.4208,-174.5038,-100.1204,-435.2301,145.9617,-12.3554,582.1929,150.1323,941.4429,-913.4097,111.7827,-168.6331,172.3325,-150.7093,190.3313,-461.0297,-198.4852,152.9464,-355.0597
-2031.2500,-363.4710,290.2999,-283.4101,-57.9365,-469.0934,183.6199,-156.8018,694.5620,150.0629,942.4258,-941.9058,180.6452,-313.9808,211.6943,-147.3355,302.6342,-627.8492,-14.5533,123.5309,-206.5241
-2023.4375,-338.1761,383.8115,-338.7560,-35.1788,-488.4775,127.8265,-210.7707,638.4453,55.5026,1032.9613,-879.8455,214.1380,-330.8131,266.6269,-201.4239,321.5007,-604.1723,-203.0993,73.6386,-78.4866
-2015.6250,-386.4561,329.5037,-328.9922,-89.2949,-661.8380,28.1333,-273.7217,537.4068,64.0048,1079.6097,-899.6877,179.6632,-209.5818,314.6821,-115.4307,369.4903,-693.4651,-220.5709,122.8191,78.6053
-2007.8125,-359.5213,292.6848,-445.8326,-57.9721,-519.8972,-15.1431,-168.3622,530.7638,129.8755,778.6816,-789.1511,180.0313,-362.0017,272.1723,-156.0711,400.8998,-625.4269,-117.6598,153.3784,146.0495
-2000.0000,-370.8661,297.6515,-333.9794,-53.9091,-517.3499,-48.7054,-128.3802,422.8140,93.4131,854.4854,-926.9420,172.1090,-247.7724,239.3907,-152.0448,257.0343,-550.7570,-254.0761,85.6221,185.1399
-1992.1875,-293.8343,459.0893,-386.7315,37.5803,-570.4801,-27.8610,-254.0558,480.2625,75.3231,690.7111,-862.3516,260.3996,-336.1893,261.0337,-239.6443,278.5901,-529.7509,13.8737,104.2374,205.5816
-1984.3750,-188.4957,470.5563,-339.5256,47.0401,-374.7403,19.9334,-242.8465,417.6606,11.1461,553.9098,-659.8251,229.7216,-324.7097,162.6594,-337.3347,217.1177,-378.8649,-47.2548,5.7770,179.9339
-1976.5625,-229.3797,361.9490,-161.4650,-27.6254,-416.2412,51.5819,-283.8675,338.9128,-105.1970,621.9825,-768.4809,188.1656,-108.4374,195.1638,-267.2051,175.5094,-382.2059,20.4460,-139.8283,211.0936
-1968.7500,-168.0406,371.8222,-188.0084,157.1395,-332.4343,172.6405,-420.5716,349.5714,-170.1611,337.4932,-677.7746,276.7169,-280.8167,207.0984,-364.7004,187.3130,-267.2182,310.5246,-168.0443,184.6057
-1960.9375,-104.6312,413.7862,2.4444,233.9572,-287.7306,180.7204,-412.3671,172.2401,-274.1614,308.0526,-700.1098,272.1768,-198.2483,105.0624,-356.2300,49.1431,-155.2943,210.5660,-340.2927,155.0703
-1953.1250,-69.5536,467.2817,18.3391,250.2765,-345.6729,234.2623,-395.7939,188.3673,-259.7441,104.0901,-677.0365,312.1791,-218.2911,122.5112,-338.3457,66.4515,-209.9735,333.0304,-255.1120,170.9404
-1945.3125,-21.6682,441.1198,-9.5194,257.8914,-152.4676,207.0628,-276.0557,124.7577,-216.0994,-34.5975,-550.7654,287.2401,-282.1484,60.2410,-364.2514,40.0384,-96.4766,234.7228,-214.6965,143.0250
-1937.5000,-112.0022,336.4004,61.9659,151.8991,-229.0209,132.2228,-241.0678,48.5084,-183.1374,184.1063,-693.1879,210.6348,-136.7121,59.3593,-253.8437,39.0151,-166.6988,93.7519,-216.9517,177.4291
-1929.6875,-75.4995,376.2186,-46.0844,261.3995,-191.2237,133.8350,-349.7337,86.7012,-146.7605,75.2908,-574.1527,244.0058,-317.8736,24.9545,-251.0264,115.4621,-164.5289,168.1993,-110.7694,215.2385
-1921.8750,-27.0388,373.4709,58.2352,292.2792,-196.1659,129.7855,-427.1284,-26.7810,-189.0464,144.8344,-497.7696,212.9339,-211.7314,-15.0804,-253.8946,38.2612,-28.0654,-82.0553,-187.2360,210.3479
-1914.0625,-27.5062,393.7006,78.4568,311.0898,-360.2956,113.6176,-517.6971,-80.3905,-207.4317,128.2811,-507.4987,245.2439,-190.7306,80.8011,-194.8900,96.9746,-9.7632,41.5473,-170.8139,193.3206
-1906.2500,51.5475,407.3737,94.0328,359.2875,-198.1667,128.7956,-429.0057,-101.6660,-194.5013,-77.9006,-338.9027,263.6914,-285.4185,61.0473,-288.5685,77.0543,36.8417,18.4608,-196.0638,134.6141
-1898.4375,-39.9836,264.0295,198.5225,178.4275,-204.2271,50.8631,-323.5107,-218.0598,-201.7021,100.8446,-484.4409,171.9530,-69.2476,93.2167,-255.3793,36.0435,-3.6956,-126.7560,-168.4181,128.7726
-1890.6250,-33.0288,273.4551,58.7301,186.3057,-197.6721,-15.3797,-243.3918,-136.7631,-50.2091,-38.7097,-433.3010,188.8343,-282.4289,102.0972,-246.5189,117.7380,3.4175,-48.3102,47.9320,135.5896
-1882.8125,-5.7892,271.8422,92.8635,183.1000,-127.2967,-90.7330,-98.4411,-212.5754,20.1868,-40.3478,-428.3015,153.1912,-283.7471,28.8842,-246.7837,44.3332,140.3818,-263.0082,42.1917,96.2697
-1875.0000,-87.3226,178.2398,102.9697,158.8685,-265.0491,-43.1500,-88.6110,-92.4456,-8.4701,43.9927,-595.4252,139.8465,-200.1514,40.6352,-199.1237,55.8871,80.2413,-147.7990,50.4208,105.8680
-1867.1875,-35.5923,171.4530,22.8405,150.4249,-163.1329,24.1720,12.8981,157.4258,19.6212,-73.8885,-448.8711,145.1198,-353.8499,-1.8437,-314.7476,49.2054,35.8036,-51.8715,74.4015,61.1847
-1859.3750,-62.1860,115.4281,109.4201,57.7172,-223.5943,-72.8114,137.0355,133.9874,30.4103,196.9563,-502.6855,70.9008,-192.8901,-60.6057,-299.7115,-82.7641,-23.9897,-144.2733,85.0951,37.1759
-1851.5625,-46.4809,204.1143,-20.3516,108.6883,-208.4846,-55.1495,152.7605,224.1907,45.8575,67.4898,-478.9153,117.0950,-249.3318,-78.7042,-245.0685,-64.0637,-44.1935,151.9468,27.4650,16.7936
-1843.7500,-6.0662,263.8634,-31.1170,236.6843,-36.4486,8.5115,179.4319,67.3859,-112.6821,-52.9502,-446.2205,167.7491,-222.8132,-87.7942,-253.4652,-73.3558,153.5539,103.1325,-198.1486,-67.6118
-1835.9375,-43.3879,315.8181,22.2877,357.8490,-95.3247,98.3040,11.1942,9.7138,-283.0630,-73.2232,-570.4437,276.7452,-133.1820,77.2714,-200.7351,-18.4933,132.4091,82.4244,-256.5927,-88.8881
-1828.1250,21.0012,325.6120,-42.4906,400.8286,22.5434,107.8787,-17.3201,91.8260,-201.6327,-321.6744,-335.9284,292.4001,-234.7865,88.1426,-227.2235,29.1704,104.0233,54.4886,-215.2040,-117.3910
-1820.3125,23.5359,224.9896,143.3063,122.3804,22.8923,-37.0060,-16.3593,20.4928,-201.6391,-98.5496,-290.9221,119.4433,-11.8760,18.5730,-150.1916,-41.6108,70.1440,-190.9238,-180.2458,-116.3771
-1812.5000,-53.2677,89.8070,72.5288,55.3624,-85.4181,-70.4960,-125.0719,133.5536,-53.2343,15.9826,-318.5500,58.0093,-8.6073,23.4083,-108.8046,73.0163,1.6232,-46.9690,32.1230,-113.9871
-1804.6875,-23.8655,116.5276,26.6312,186.2281,-22.9284,-42.1451,-98.0147,161.4318,9.0220,117.3688,-247.3799,86.5585,-127.5220,-20.9062,-190.6128,65.4938,60.9237,-198.1881,19.3543,-160.7626
-1796.8750,-90.1297,67.1174,43.5514,169.9160,-227.6906,-62.9995,-157.2364,177.0782,-49.9149,391.5864,-299.5179,66.6271,35.3226,33.5900,-136.6468,82.7823,-63.0225,-285.6085,-34.5930,-108.7566
-1789.0625,-77.7898,42.1200,-134.1645,107.9859,-260.1649,-92.5057,-78.1860,367.0742,65.5026,287.1888,-139.4115,52.4709,-142.5188,41.4497,-92.3564,127.4272,-161.6611,-138.6954,147.8243,-66.4263
-1781.2500,-90.5794,-36.0807,-73.1038,-78.1619,-200.9440,-179.2666,128.5313,280.8251,87.6814,385.5765,-183.6449,-61.8119,-7.6402,-43.9350,-67.3554,42.8170,-67.5861,-290.0580,134.0129,-43.3694
-1773.4375,-68.7329,0.1635,-111.6267,-78.8772,-241.3783,-143.6239,52.5798,278.9780,120.2663,310.3963,-179.5717,-29.6265,-83.4046,-6.9103,-105.0039,42.6099,-0.1411,-46.0299,201.6179,-45.9338
-1765.6250,24.7528,49.9640,-168.6339,74.9528,-80.3705,-53.4711,104.0565,184.6476,135.3584,106.7545,26.8863,18.8925,-214.7158,-62.3739,-235.2103,-13.0918,115.7631,-70.4927,175.7363,-141.0193
-1757.8125,7.6980,-48.7380,55.8178,44.2675,-151.9786,-85.8493,69.9215,-32.2222,26.9220,111.5980,-0.3163,-37.1763,47.3859,-56.3761,-82.0120,-81.3378,84.0750,-171.5096,37.3388,-137.6779
-1750.0000,83.2165,5.3910,34.0754,167.4207,-65.8261,-34.4233,-138.4727,-91.2840,-33.6869,-241.7302,166.1780,17.1150,-12.7551,-40.5745,-30.0498,8.2182,169.1507,-15.7327,-18.2260,-87.5614
-1742.1875,150.7984,43.0604,180.8467,168.1086,41.7893,-144.4853,-212.4241,-311.8445,-109.7856,-278.5382,208.0726,-7.2670,97.5698,-76.2622,-66.6275,-64.7205,343.6955,-157.4755,-55.2747,-88.9610
-1734.3750,136.6873,47.6686,219.5407,205.7314,-31.7442,-142.6416,-212.5453,-310.5023,-72.9750,-312.4363,140.7601,36.2148,61.7592,-36.0430,-101.3396,-97.7575,239.1199,55.6790,-20.4045,-88.4707
-1726.5625,239.4619,90.4083,225.3602,210.4838,191.7825,-63.6893,-99.6237,-306.0577,-69.0543,-600.2222,372.4542,66.6936,-43.9831,-28.7226,-205.9950,-127.7021,241.6241,93.9344,-124.4111,-120.8979
-1718.7500,221.5159,25.7167,373.7525,108.8122,191.8225,-62.1775,-100.1986,-488.0596,-216.5633,-598.4415,378.6012,1.8137,288.7980,-25.8512,-130.1388,-162.1006,172.6494,-44.2614,-227.8388,-83.7873
-1710.9375,259.0586,61.1489,296.2600,142.2695,221.9364,-102.5673,-215.7140,-418.9610,-148.9462,-675.5441,526.7625,16.1078,173.6504,-28.8832,-60.2284,-128.4031,98.7477,93.6316,-92.1320,-52.5875
-1703.1250,284.6248,124.5122,286.6777,62.6511,283.9254,-185.0594,-80.3769,-428.9622,-86.3985,-610.7234,521.7321,-27.9781,163.3814,-109.0206,-31.4568,-209.8075,156.7195,-128.5942,-33.4937,-99.4985
-1695.3125,249.2361,159.9874,319.2113,26.1539,166.9858,-226.4634,-49.9908,-396.8567,-92.7203,-577.7776,374.7157,-25.6469,269.1863,-112.0545,37.3859,-213.1048,82.7612,8.2643,-73.7167,-68.3134
-1687.5000,283.6409,199.6734,136.9618,98.8678,313.2137,-76.6739,-124.4523,-321.5387,-128.8087,-722.6093,528.8060,10.6808,160.1717,-145.8883,-70.5907,-173.2020,117.9651,115.3062,-108.7017,-67.9221
-1679.6875,211.4257,78.5818,264.9249,11.7950,217.5917,-133.6991,-181.7676,-452.0084,-150.6587,-447.1963,401.9950,-64.1374,360.3381,-127.5238,-53.3947,-228.0965,133.3359,-115.4718,-58.4367,-52.3244
-1671.8750,168.2730,-52.8958,232.4877,-51.6526,145.5286,-129.1369,-253.5327,-300.8669,36.1293,-442.1364,411.6807,-98.3576,217.0732,-84.5597,-85.6315,-75.3871,67.2845,-3.6522,157.4847,-12.1287
-1664.0625,179.3759,-134.4676,256.9598,-100.1666,240.3374,-215.6770,-85.4279,-276.8115,131.8707,-344.1550,439.1575,-142.2243,92.6773,-95.7061,-135.0018,-86.7835,192.1179,-159.9355,212.3617,-63.0431
-1656.2500,76.3795,-201.7298,330.7326,-98.3595,128.4236,-250.9163,59.9511,-240.4273,93.9657,-85.8618,186.8400,-122.8317,129.5348,-20.5575,-60.1107,-84.8758,86.2257,-194.9107,176.5944,-63.6638
-1648.4375,69.0692,-114.5300,124.9687,-49.0882,213.9526,-199.7111,183.7617,-115.5859,144.5438,-181.0862,204.8796,-57.4850,-77.1706,-3.9708,-81.8022,4.4673,26.7648,-147.4623,223.3133,-86.8383
-1640.6250,4.0081,-168.2765,175.2621,-139.7477,114.5018,-223.4590,267.5845,-176.6811,156.2122,-20.2306,74.8666,-99.0444,45.1641,10.6628,5.5338,-91.1449,-31.6685,-274.9613,235.1328,-74.9599
-1632.8125,-52.1390,-214.6638,49.9103,-188.0269,23.3906,-201.8474,249.7229,-44.4115,250.2699,-35.0254,63.1216,-115.9612,28.8066,33.6358,100.1755,4.5842,-117.7494,-114.0986,290.3474,-54.7339
-1625.0000,22.8611,-224.6590,36.9863,-199.8915,154.6564,-214.8334,308.2256,-57.7339,198.7646,-157.3815,237.6604,-161.4607,14.8397,-50.9907,124.1857,-43.2992,43.5591,-231.8450,206.0052,-69.1089
-1617.1875,28.7334,-188.3213,215.4138,-270.3951,-0.7396,-292.4660,190.0496,-173.6853,118.6639,-88.3720,162.4573,-199.6684,193.1920,-55.2668,229.5195,-47.8295,5.2022,-305.2266,132.0766,-2.1331
-1609.3750,89.5116,-40.7414,70.1086,-160.6449,35.1255,-216.8558,79.1060,-135.3801,191.8586,-306.0850,278.4214,-111.7835,-27.2185,-52.3157,231.0821,-8.1219,-28.9103,-126.3823,240.4447,35.0955
-1601.5625,57.7230,-80.1152,100.8696,-199.8390,100.0181,-223.2036,180.1725,-215.0187,221.1526,-164.7104,201.3286,-146.8966,76.4158,-94.3198,261.6765,-159.3664,-0.9923,-239.4855,232.9211,27.3846
-1593.7500,-1.8793,-147.0938,28.0292,-234.6111,23.3164,-186.1449,104.6119,-106.2483,219.8996,-127.9389,131.5589,-165.3844,111.4175,-92.9391,261.6287,-122.2112,-38.6640,5.8239,231.8477,26.0797
-1585.9375,106.5983,-92.0941,47.2188,-182.3730,224.6080,-131.0910,121.0346,-86.4836,164.6856,-290.1434,300.6860,-141.2028,-16.5652,-145.5739,133.5550,-211.0759,81.6727,-13.8821,176.8186,-29.2140
-1578.1250,56.8967,-210.7037,215.8144,-196.7107,132.2876,-183.6338,176.8235,-212.3006,147.9236,-121.9320,178.1185,-170.4235,150.8340,-85.8172,154.8523,-225.5415,135.4047,-171.1578,160.2497,-46.0956
-1570.3125,75.0103,-187.7242,89.0216,-69.4314,149.5831,-163.5748,157.2023,-119.5087,203.8089,-284.0994,275.0706,-133.4295,58.8181,-138.4872,174.7114,-168.4260,82.7495,-10.8346,214.3322,-27.3736
-1562.5000,125.7572,-104.8134,136.2039,-164.1949,230.8258,-189.5695,127.5101,-182.7594,138.6871,-236.2865,323.8679,-189.5553,178.7560,-236.2169,184.4969,-267.3699,127.0500,-142.5554,117.4082,-18.6913
-1554.6875,110.4468,3.8811,99.1884,-232.1323,116.8925,-189.7510,-22.3996,-110.1931,101.4069,-89.6889,253.3820,-186.5984,214.4730,-235.1597,221.0488,-229.5186,19.1665,-2.4531,151.3265,-20.1925
-1546.8750,116.8596,2.5014,-160.8608,-60.1075,258.9265,-118.9820,-64.3759,-38.6803,134.1102,-165.1234,400.7470,-129.3448,63.1577,-236.1677,107.5281,-230.7396,154.2485,27.6030,111.2439,-60.7317
-1539.0625,51.6101,-129.9994,-120.0149,-53.1694,186.8593,-152.3098,-63.4713,-255.2447,26.7857,-12.6340,369.9126,-174.7834,249.7287,-194.2967,221.8878,-263.0728,228.2312,-143.4009,-24.8575,-21.3669
-1531.2500,73.5669,-82.4777,-149.1312,62.8310,152.8750,-144.5759,-132.5099,-285.7394,-4.4197,-226.0788,452.0460,-85.8054,181.3340,-77.4045,227.2713,-145.3759,165.2847,-64.3475,-50.8492,57.0456
-1523.4375,151.3190,82.6632,-91.5963,50.4843,171.5659,-197.1820,-150.9030,-375.5818,-94.9377,-166.8565,512.7307,-58.8885,164.6116,-54.8820,175.2888,-123.0472,221.0020,-253.6330,-171.1537,77.1242
-1515.6250,89.0719,77.0685,7.2063,-60.5479,-24.4026,-207.4727,-201.0046,-350.1081,-142.1042,42.6455,319.6465,-74.0379,226.1791,8.9257,200.5731,13.5798,106.0358,-191.5757,-143.0967,138.5215
-1507.8125,83.7152,-93.5264,-26.9275,11.4601,83.7208,-95.7098,-129.0476,-200.5843,-69.1653,-100.7852,397.5438,-65.7041,42.8103,11.7595,127.8897,52.2271,141.1366,-85.4702,-72.9323,138.9758
-1500.0000,27.9325,-308.5710,150.5656,-28.9362,74.4635,-176.3446,8.5151,-244.4456,-76.5714,76.3917,282.9722,-146.3668,146.0469,-29.8286,83.8033,-62.5378,167.8434,-197.7412,-80.1150,131.0407
-1492.1875,31.6192,-183.4584,19.2757,-45.1245,-57.5544,-159.7630,-13.7122,-81.0936,13.2765,19.7549,264.5505,-125.2971,14.4654,-86.2407,99.8931,-8.1168,6.7746,-41.7967,41.9578,146.3154
-1484.3750,106.3599,97.4490,-127.1398,-47.4700,-60.7037,-197.3297,54.9269,-81.8854,49.0334,-17.0030,301.8875,-98.5278,-24.2438,-195.8152,98.8067,-44.8675,37.5710,-149.9962,38.9446,107.4551
-1476.5625,87.1936,171.4493,-88.4121,-78.6586,-172.6664,-268.7326,127.7270,-117.4971,86.0041,22.3903,158.3119,-86.6177,123.1856,-193.2529,210.8371,-153.4707,2.5342,-114.0165,110.1459,107.7609
-1468.7500,132.7343,46.0845,-145.9629,-31.1581,-49.8812,-216.4352,214.2459,7.5960,248.7329,-143.5026,323.3999,-114.4839,-46.6663,-287.0216,152.5372,-210.3983,84.2208,73.6578,264.1097,48.7813
-1460.9375,64.4510,-214.7975,22.0526,-82.1309,43.4762,-231.5914,343.3311,-7.7450,307.0811,98.1710,236.0323,-200.5182,84.0505,-301.2686,99.7645,-371.7935,136.4558,-154.1041,316.6895,-4.6296
-1453.1250,-30.6941,-376.4375,-2.6353,-138.8090,-20.8148,-182.4431,278.7347,151.2339,465.7876,148.1373,139.9674,-216.9267,22.0601,-215.2439,74.2508,-284.9026,41.0129,-38.5515,469.6280,6.2788
-1445.3125,29.8684,-335.5387,-35.7054,-133.8981,127.5228,-178.6990,59.7573,154.8279,653.1555,5.7251,292.4270,-243.5805,-86.3105,-283.6342,3.3188,-280.4273,113.1923,-210.3956,614.2243,8.8098
-1437.5000,10.9667,-333.7482,74.1663,-308.0334,51.8426,-289.9918,-237.2628,44.4034,762.5285,153.2542,219.7951,-350.7287,133.2560,-320.0809,113.3204,-353.9976,182.3425,-281.2438,683.8258,7.3114
-1429.6875,79.4170,-383.8738,59.1887,-254.0217,181.3637,-268.1312,-255.1140,28.1431,747.1049,-82.0586,427.3247,-364.2181,116.9667,-371.3983,207.4504,-368.4388,269.6697,-88.9351,702.6416,-46.0254
-1421.8750,124.5290,-560.4777,316.8204,-290.4282,325.5156,-378.6656,-74.3434,-192.4943,673.3631,-80.7248,539.3633,-485.2884,373.2932,-481.1395,317.1798,-515.2966,405.6076,-373.0030,629.1442,-120.7528
-1414.0625,118.9235,-678.1928,487.3987,-408.8921,309.6845,-465.2335,-54.5798,-315.1438,733.6447,-130.4536,564.2666,-563.9364,505.5705,-456.9630,486.8431,-528.2214,390.5294,-387.0932,650.6539,-135.5127
-1406.2500,181.6427,-640.0816,452.9005,-441.4788,456.8103,-463.9001,92.1245,-313.8863,734.8805,-348.2721,713.9984,-561.3359,395.7921,-454.9228,450.4066,-452.2749,425.3903,-492.2841,581.1176,-135.3428
-1398.4375,83.0177,-677.3950,519.0372,-585.4386,409.6376,-581.9181,191.5296,-358.9516,689.8444,-61.4304,487.3073,-611.4072,534.6782,-425.2643,478.6251,-422.6950,313.9193,-637.7762,577.3259,-70.4996
-1390.6250,48.1036,-675.7351,295.2121,-478.3654,405.5829,-510.8797,260.0596,-140.9444,687.9399,-100.5299,485.5834,-527.8467,272.6448,-390.5960,364.8908,-277.0977,207.5316,-285.2002,578.6515,-0.5947
-1382.8125,12.6270,-674.4590,222.0959,-372.6118,439.2682,-364.1367,294.3369,-31.2202,576.7949,84.0883,376.4885,-466.2818,198.3673,-390.2582,216.8563,-276.8272,240.8616,-250.9028,507.7314,-1.9678
-1375.0000,-87.6262,-610.2470,211.9713,-273.8574,207.0209,-153.3785,171.6462,142.5270,493.7158,222.6873,72.3231,-326.8172,150.0984,-215.9488,205.8164,-176.5695,90.2239,-84.5593,429.8716,23.6839
-1367.1875,-82.6818,-530.0515,38.9100,-89.0619,178.8832,76.4402,143.0382,263.3269,430.7361,-23.6498,47.1457,-174.8108,-98.0967,-94.6153,68.8247,-56.2837,203.6758,-5.1498,333.1095,-3.5900
-1359.3750,-117.3701,-561.4720,111.2901,-15.8202,102.2351,75.7253,138.9050,115.6043,282.2726,-24.5260,-98.6363,-160.9734,47.1652,-94.8521,66.2718,-129.5605,309.6013,-144.2498,229.8655,67.6200
-1351.5625,-111.0423,-506.4170,-17.7882,74.9519,82.2092,94.5693,119.3718,97.4519,375.4370,-113.8533,-78.9246,-109.5259,-45.0146,-112.5785,11.2587,-110.3076,292.1237,85.2117,390.2464,85.4109
-1343.7500,-68.3579,-396.5052,-47.9016,8.6436,234.1881,100.3544,233.8449,30.2549,418.6179,-71.2122,-35.3358,-151.3046,33.7965,-252.3820,53.2139,-177.1356,293.6297,52.6289,393.6451,17.1836
-1335.9375,-139.9892,-404.7211,51.9279,-104.7220,147.1858,126.0980,257.3155,56.0303,371.8202,66.3708,-192.8586,-177.7269,242.5580,-226.2651,262.1121,-188.0238,72.1177,148.0261,280.0623,41.9400
-1328.1250,-108.4471,-392.6152,-47.8302,11.2901,303.6425,211.2395,192.2395,140.2131,309.4901,-104.6312,-34.0522,-107.4690,68.7600,-178.7774,235.3891,-102.5335,12.0535,299.8174,220.9477,52.1308
-1320.3125,-107.2131,-386.5885,141.4228,17.2716,307.1469,142.3786,121.2138,-1.5895,205.2341,47.3610,-138.3266,-115.5457,182.9983,-173.3193,202.6683,-171.0573,51.0339,128.6253,156.9004,56.3634
-1312.5000,-102.6015,-302.6374,118.6722,67.2339,208.7283,155.5249,-87.7667,11.6236,182.0371,61.3289,-161.6322,-66.9493,122.2477,-122.8898,141.9321,-10.6023,28.0671,317.4622,135.9093,68.6311
-1304.6875,-38.9896,-210.3674,104.3361,17.5755,376.7634,178.0776,-68.3090,-2.7563,131.2901,10.7215,-65.5838,-77.6491,106.9313,-174.0859,89.5843,-24.7728,82.5379,196.7201,86.3691,53.3297
-1296.8750,-107.2516,-246.3743,173.7920,-87.2925,260.6622,100.4501,-73.0104,-6.3125,91.4056,191.8926,-179.7670,-122.2699,322.4199,-140.5100,232.0309,-28.1522,-59.1486,160.8294,51.6911,121.8528
-1289.0625,-133.9767,-308.3696,-2.6365,-44.0814,303.7527,144.9352,-31.5457,111.2361,172.6794,89.1425,-97.8876,-96.4209,145.0456,-96.8733,238.5807,88.5329,-88.6771,344.0427,95.1600,128.4974
-1281.2500,-187.4975,-408.3069,78.0918,-36.7527,346.0617,152.5752,10.1279,44.9390,71.1683,207.5168,-236.9058,-102.6158,187.8702,-52.1141,208.2914,59.3365,20.9843,208.4400,-3.1562,98.3252
-1273.4375,-234.5211,-414.8239,34.3092,26.0522,227.9612,181.7262,-107.6327,112.1561,28.2194,275.3557,-354.4373,-52.5637,70.2072,14.1157,163.4887,163.6183,13.1912,377.3804,26.0782,90.6805
-1265.6250,-170.1461,-393.9719,20.9955,117.2818,360.3844,242.3374,-50.8853,134.8282,51.7576,151.6539,-257.5629,-20.4706,-90.9669,-36.2234,38.1220,113.3234,102.8856,397.7945,-23.2106,39.5164
-1257.8125,-198.3125,-375.5550,78.3186,31.1502,305.5202,188.6237,77.5477,82.1780,-0.0066,209.5909,-384.0775,-47.9598,111.5170,-52.9279,94.3996,-14.3291,85.2638,344.9224,-73.8052,22.0362
-1250.0000,-184.5233,-288.1208,-159.2688,49.1091,360.8404,281.0382,206.1355,248.6385,56.3711,-28.3964,-327.5230,17.7313,-53.8761,-34.5568,38.7746,42.0940,66.7898,503.1685,14.7352,3.6889
-1242.1875,-232.2658,-359.1159,-160.2059,-92.3107,395.8680,280.1147,460.4326,247.7628,130.4473,45.2564,-402.3717,-49.5452,18.4229,-71.5526,-0.1913,4.1501,29.9986,256.0973,85.9707,2.0319
-1234.3750,-357.6843,-495.3366,-229.3118,-191.8914,251.8305,249.0652,537.6437,325.7587,246.4249,197.7336,-544.4025,-84.7120,59.5759,6.2809,77.6794,83.0471,-106.8986,366.9345,232.1073,6.2573
-1226.5625,-298.6696,-388.9361,-336.7162,-154.7940,364.5558,250.7371,685.6133,438.4731,360.1425,163.9399,-431.7895,-59.0954,-86.5383,-65.2011,5.2349,48.6323,-142.0622,296.5116,304.9798,-28.7986
-1218.7500,-312.0079,-332.3976,-239.9555,-273.4916,166.5233,127.6481,743.8249,389.4345,348.0937,445.3685,-555.0366,-123.4671,83.5560,-114.4769,64.9742,35.4348,-156.0161,143.3633,328.0889,-42.6414
-1210.9375,-338.5270,-285.0753,-449.3725,-191.3426,66.4134,213.4472,680.9481,511.2803,434.9422,347.6486,-543.4581,-54.4904,-89.4800,-66.9244,1.5515,120.0728,-214.0844,331.0868,376.0868,-31.6175
-1203.1250,-333.3317,-255.9421,-491.8917,-160.3207,97.2710,208.1556,674.0435,469.0389,393.7433,416.8277,-513.0082,-36.7103,-95.5666,-35.4989,-78.9651,114.5833,-151.2141,149.7349,337.0290,-37.6589
-1195.3125,-362.6849,-228.0951,-428.6229,-202.5241,-23.9834,160.6869,552.0132,385.6193,385.4047,443.7685,-596.7646,-31.9371,41.1594,27.6980,-16.6884,141.8798,-228.4997,248.2281,331.8198,25.1399
-1187.5000,-289.4927,-169.4354,-477.4523,-142.8732,73.7406,222.1322,500.9521,336.1082,411.0085,247.6118,-461.6398,-19.6564,-118.1722,-57.2309,6.4957,129.0535,-169.8392,342.6348,357.5525,48.8772
-1179.6875,-284.3045,-214.0127,-303.4349,-185.4035,26.3727,175.4405,453.7948,179.4700,291.5139,312.2945,-508.6832,-68.4730,91.3837,-67.3322,69.5448,45.0652,-73.2983,193.9304,245.1826,75.5059
-1171.8750,-246.6018,-220.3244,-311.0761,-120.6024,18.4383,205.1185,298.0591,246.1949,249.4180,84.3031,-405.3840,-24.7557,46.3142,-1.1107,24.9383,148.4059,-44.3529,399.6013,206.2067,104.5165
-1164.0625,-136.0294,-195.1737,-172.1576,-130.2855,157.1205,234.3577,251.9448,201.4706,131.9188,-33.1363,-266.5765,-12.0112,-36.1541,25.6371,-131.1084,103.2715,121.1847,319.8434,126.8304,59.1122
-1156.2500,-134.5621,-159.7539,10.0919,-93.6433,-27.7711,196.9643,176.2541,165.1182,22.8321,150.7467,-378.4305,28.0743,-0.2579,98.7100,-205.8044,102.4760,52.1201,321.4732,24.8612,95.0911
-1148.4375,-75.6588,-86.6167,-94.8498,85.7639,-23.7861,349.3819,32.4457,242.5729,-45.4080,44.4224,-226.4975,124.4608,-215.5229,139.5480,-276.6903,217.4552,90.9039,466.9005,-75.2736,98.9042
-1140.6250,-68.6483,-71.7167,30.0570,172.9877,-43.9010,365.6578,-98.4482,148.8895,-210.7557,134.9415,-284.7258,146.9784,-89.8940,155.2145,-261.7031,159.2684,176.5686,307.2142,-232.5238,114.6102
-1132.8125,-36.2544,-13.6397,54.1950,302.4518,-55.6868,390.2063,-259.0294,136.4621,-331.8180,-23.3251,-260.6854,224.9594,-102.9959,216.1085,-275.4635,220.3182,200.5342,436.8189,-312.4928,138.5995
-1125.0000,74.8219,85.9658,88.9419,404.4916,125.1906,351.3697,-225.9472,23.6296,-406.2534,-208.9963,-116.0677,264.3421,-179.4474,176.5848,-388.6127,180.9476,372.1469,328.0424,-419.8426,99.2224
-1117.1875,43.4604,96.8531,175.0342,275.8595,26.4907,289.9047,-177.4570,-35.8368,-465.3035,-49.3510,-214.1118,247.7209,15.4652,261.3923,-488.4019,155.9209,314.1584,234.6548,-440.8041,111.2272
-1109.3750,73.1135,209.3195,34.7946,283.8399,71.5273,372.0948,-170.2399,118.3543,-418.6780,-115.0666,-170.5021,321.4614,-159.9393,305.8193,-775.5312,273.5260,251.8674,383.9109,-361.0977,118.9133
-1101.5625,56.4898,251.2624,80.1105,222.3401,80.1527,416.8441,-52.4198,53.1098,-445.4787,40.7674,-272.3462,294.6939,-40.7460,240.7818,-768.0815,171.6745,224.1511,216.7326,-420.8139,127.1876
-1093.7500,-8.1902,255.9852,12.2497,228.6733,-24.3123,458.4701,-84.7024,131.7351,-439.3895,9.4256,-341.3106,319.4520,-36.6877,281.5783,-543.7737,212.6610,19.3259,364.4286,-413.6486,168.3443
-1085.9375,-6.1369,286.3423,-174.9004,295.6737,44.9806,419.8058,-15.2345,129.0633,-403.5789,-67.2126,-234.5812,330.8519,-113.8807,241.0545,-510.7505,209.3195,16.2474,325.8290,-378.7692,165.2360
-1078.1250,-68.9524,224.7392,-54.9510,200.7455,-53.5617,319.2597,-5.6121,66.5060,-428.6438,126.2222,-334.7605,281.9700,79.0519,287.6075,-428.6192,182.0661,-113.6883,196.3782,-402.7546,175.2628
-1070.3125,-66.2873,223.3187,-202.7570,201.0373,-53.7720,355.9805,-42.6557,213.2075,-353.4178,16.8900,-188.6917,299.0574,-67.7372,323.3754,-393.2265,292.0349,-253.3333,338.1904,-328.4543,211.5655
-1062.5000,-96.0441,165.4250,-261.9613,110.8916,-2.3410,333.3135,7.9754,190.5092,-337.5575,141.1552,-175.0363,237.9521,-16.8720,299.7313,-380.2072,268.5909,-204.3572,176.6220,-277.5279,225.5011
-1054.6875,-204.1907,102.3743,-364.2684,13.6231,-102.9509,342.5735,-20.4275,346.7217,-289.7766,297.2823,-350.4557,216.7383,65.9041,344.9716,-372.2773,314.0455,-265.4532,361.9832,-231.6920,234.3725
-1046.8750,-138.2103,159.3633,-408.4338,72.4193,109.5955,372.9392,7.3412,450.0199,-258.8862,142.4927,-247.7750,248.8467,-126.1719,299.2950,-380.2304,305.5782,-205.4161,422.4385,-240.7495,153.3816
-1039.0625,-151.3963,87.0883,-149.7908,2.9787,74.9950,301.1129,45.9824,342.1207,-329.1667,254.4726,-357.3072,194.3203,58.5821,300.4040,-232.3680,159.8988,-205.5482,211.7263,-308.9707,118.2336
-1031.2500,-103.8460,68.7425,-167.1830,125.5112,94.4722,283.3006,64.7097,361.2342,-308.4135,-19.5599,-227.8529,214.1394,-68.6431,245.5020,-177.5027,215.2104,-221.6373,337.0329,-323.1625,137.1152
-1023.4375,-95.1485,5.3835,-194.5462,98.0614,178.0386,256.5504,147.5626,260.4155,-333.5843,-9.5301,-145.3830,168.5627,-58.7802,217.6414,-242.5665,187.5614,-108.6545,134.4130,-313.2827,110.0744
-1015.6250,-221.9429,-123.5609,-180.4839,8.0478,9.1047,271.2812,88.9321,238.0715,-280.2848,260.9110,-352.4619,123.4801,27.5395,267.2226,-192.1750,238.3558,-199.1931,184.2838,-155.9439,124.5105
-1007.8125,-190.7412,-86.0056,-284.8746,81.5611,90.7862,315.5791,95.9193,319.2725,-161.4382,120.8924,-272.0070,154.6661,-148.5514,236.3441,-260.2294,280.6844,-159.1376,259.7128,-184.0571,94.5215
-1000.0000,-130.1707,18.7998,-101.9779,47.3499,53.8221,241.1956,58.2678,171.7856,-270.2822,120.1582,-310.2697,149.7549,-2.3128,235.7586,-224.9735,169.3033,-51.7554,16.4805,-321.8571,130.8589
-992.1875,-60.5159,183.1234,-112.5415,75.6731,8.4817,120.3823,-24.7756,87.8464,-279.5632,-73.0710,-247.9633,199.2160,-86.5011,260.7029,-200.1592,231.4608,-59.7847,43.8188,-222.1049,193.7664
-984.3750,-11.5864,226.6139,-137.8886,14.1701,56.3859,-13.2154,59.4306,-46.9033,-191.6523,-98.1143,-126.4764,147.5421,-147.4398,197.8392,-189.1206,205.8034,-13.5876,-156.6380,-104.1632,168.9013
-976.5625,-112.7707,174.2788,-154.0519,-105.1387,-140.4648,-28.5879,80.8875,48.5573,-95.5490,179.0069,-289.7993,114.3692,-53.1663,255.1740,-131.8674,189.3487,-168.1629,-134.8556,-46.0204,190.2614
-968.7500,-132.4516,115.5069,-396.6173,-21.8700,-124.6583,207.6546,97.0196,283.6069,-40.8563,48.7026,-200.5296,153.3589,-258.2551,233.1021,-154.0011,241.4723,-189.0988,125.5331,5.7128,169.2407
-960.9375,-190.4646,-65.5010,-361.3793,10.1641,-125.0098,206.7138,133.0158,245.4546,-40.3624,193.1748,-239.4768,93.1356,-112.5052,193.8222,-83.3076,128.3842,-87.2164,-17.2485,3.2480,131.0446
-953.1250,-228.0667,-132.8856,-390.5031,13.8283,-151.6483,105.4428,104.7249,291.9575,42.7845,201.2615,-267.7678,71.2323,-103.0904,201.1808,34.0472,173.9424,-81.6521,129.6479,116.4333,66.5186
-945.3125,-106.3013,-92.3000,-304.6171,22.4677,44.7459,44.1818,191.4902,267.4594,92.9198,66.3539,-36.0814,36.3305,-128.6316,102.5425,8.4237,111.4955,-2.0658,-37.4564,56.6045,5.0109
-937.5000,-107.2288,-98.0794,-91.1079,-157.2471,-107.1885,-108.4100,147.9470,113.6311,14.7052,243.0837,-153.7577,-65.6506,48.4799,57.5633,148.4585,66.7113,30.1858,-179.8812,55.4302,72.1690
-929.6875,-25.8063,5.4227,-202.3154,-51.6722,-143.7859,-71.6850,0.7655,113.1079,52.7944,58.1065,28.8511,-7.0093,-172.0889,55.8799,72.7960,102.2182,66.7646,-2.0130,57.5566,108.6406
-921.8750,-0.5248,52.8452,-151.5804,67.8332,-164.4122,-93.0045,-56.4048,-17.4596,-76.1632,110.0768,6.3807,23.8702,-119.6679,34.1440,14.1147,43.6716,187.3136,-127.1902,-65.3701,124.0839
-914.0625,-9.8523,92.7392,-144.3543,109.8218,-302.4897,-47.8125,-158.0166,-46.5121,-103.6172,80.5121,-22.5699,75.1992,-74.7325,113.8970,20.9477,86.6244,125.3878,22.1495,-55.8030,132.0472
-906.2500,60.6079,168.1598,-170.5572,187.3318,-142.9870,-1.0760,-74.0301,-109.0167,-54.5396,-54.4923,97.0321,118.8125,-247.1955,87.1926,-6.6559,60.1179,168.0387,-5.9794,-46.7021,69.5788
-898.4375,-5.9036,131.3679,-23.9574,187.6260,-214.6624,-35.5326,-108.2108,-254.7076,-124.6694,129.2873,-49.5589,119.7232,-98.8414,161.2861,104.5591,60.4112,64.5055,-144.2970,-113.8102,70.9332
-890.6250,-0.5803,141.4649,-122.4674,269.8072,-238.4033,48.9238,-242.4491,-133.5021,-148.9131,-43.0581,34.7558,160.9909,-234.5679,171.2733,151.6955,181.5998,-28.0954,79.2760,-169.0408,119.2088
-882.8125,70.1326,193.4969,-66.0281,183.9198,-107.1798,33.3362,-221.6954,-223.3532,-237.2329,-133.4616,163.9960,102.0389,-67.2974,79.2175,207.8163,53.7352,27.2675,-75.1989,-288.3441,139.4600
-875.0000,72.9492,232.6731,12.5485,119.1672,-210.7670,-34.0891,-326.7476,-291.0429,-303.4113,-128.7511,132.3997,80.4226,84.1341,84.3069,285.1014,59.0210,-35.2035,2.4947,-279.5073,181.8818
-867.1875,162.9335,267.9323,-56.7587,192.4863,-57.2232,-65.4163,-320.6439,-249.6471,-260.5063,-344.9515,356.9179,86.7816,-19.2913,15.4940,216.5067,62.3974,38.4454,42.2625,-274.5916,150.4175
-859.3750,168.9207,232.2313,92.9887,87.8392,-88.6080,-134.6920,-278.4397,-355.2162,-328.5655,-157.1436,323.4962,44.7306,57.3640,53.7292,145.9975,-7.1773,77.1563,-95.9128,-305.6444,118.0245
-851.5625,239.2150,320.7262,79.9333,108.3764,-63.7578,-72.7588,-216.9789,-257.5966,-265.4402,-355.1692,383.2803,110.1502,-137.7698,77.1634,21.7086,-21.5564,63.0928,136.0992,-283.5170,68.8484
-843.7500,269.8008,280.4223,154.0781,0.0867,85.2938,-35.6146,5.7246,-256.7816,-263.1369,-427.9864,384.2264,73.1680,-172.6669,40.8039,-88.3609,-58.7366,132.2315,64.3079,-283.2112,-3.1007
-835.9375,139.4000,186.2794,130.3537,-93.0646,27.5102,-21.3027,93.6111,-205.8034,-210.7075,-193.6809,176.3228,47.1166,-86.4169,90.6046,-1.2688,-45.7489,-29.4789,43.6951,-197.7823,11.1300
-828.1250,135.3493,131.1385,-32.3622,-40.2344,123.7473,-35.9853,189.5335,-111.8393,-115.3106,-283.3828,307.4308,33.8371,-174.1391,37.4084,19.8392,12.2377,-46.1778,62.0576,-73.3886,-40.6139
-820.3125,142.8784,34.9000,129.8318,-170.5246,176.8855,-167.7695,243.3839,-241.9841,-98.0388,-159.1948,321.4395,-92.9048,62.0558,-58.8791,107.8723,-157.8672,37.0240,-171.6821,-59.1116,-98.4318
-812.5000,157.3882,-46.4710,196.8645,-213.9679,135.8867,-172.6958,128.1168,-212.2827,8.0589,-274.1838,352.3044,-142.9271,57.1041,-102.3090,174.7635,-164.1153,65.0850,-2.5769,110.9847,-140.3760
-804.6875,157.2510,-134.5200,185.2001,-265.1265,273.1740,-146.3211,228.1713,-223.2914,108.4213,-250.8634,413.4385,-211.9459,9.4879,-188.4291,162.9802,-213.0661,121.4493,-122.1869,133.3476,-224.9877
-796.8750,4.0859,-270.7955,154.2613,-329.5393,134.2073,-103.1882,235.9957,-179.5454,116.5163,-23.8145,198.3184,-252.1213,200.6220,-145.7891,278.9609,-207.2578,-12.4272,-150.0306,141.4513,-217.8254
-789.0625,7.6068,-238.5620,-32.1719,-225.4654,170.7604,43.4427,88.3527,-107.3161,153.0869,-136.2809,306.7115,-176.4037,15.2698,-75.6517,240.4581,-98.9532,-11.7826,26.6016,142.0314,-182.1530
-781.2500,66.2609,-83.5667,94.1625,-173.6575,188.0549,-14.1824,-4.5203,-311.3418,23.3748,-84.0043,284.8482,-151.1282,178.6930,-96.7505,218.7302,-157.8861,76.6174,-167.0298,-49.6667,-128.7205
-773.4375,57.1944,16.2567,88.2909,-72.0509,111.1615,-55.0031,-155.5676,-353.5583,-90.5642,-126.9581,205.7930,-72.8905,210.9210,-29.0470,286.8190,-90.0146,38.8290,6.1198,-86.5944,-96.4787
-765.6250,119.7529,66.7033,73.0289,51.1367,244.8593,-69.2318,-95.9831,-368.1857,-103.9432,-252.3076,300.3260,-53.0970,122.7882,-118.7372,307.5360,-105.5463,127.6514,-115.1725,-101.9637,-147.6206
-757.8125,65.9329,16.9781,242.5640,-67.8877,122.3493,-156.6586,-107.5771,-418.0099,-116.5562,-82.8847,138.6573,-114.6529,330.4541,-96.6098,404.0764,-120.2701,81.2829,-302.6528,-112.5615,-123.9438
-750.0000,105.3929,45.9242,162.7567,-37.2675,81.5056,-161.4276,-148.4792,-239.1985,-46.5557,-198.8400,243.6352,-92.7736,178.7788,-102.8315,361.2813,-52.3525,43.5818,-199.4967,-9.5514,-91.6080
-742.1875,103.8277,-23.0012,204.0699,-103.5550,124.7506,-228.0963,-32.2477,-271.3039,-40.4955,-84.7144,320.6567,-174.4742,332.2325,-172.9386,365.6099,-122.3341,12.9875,-476.2502,-38.4793,-86.1621
-734.3750,89.8279,-59.4276,92.8344,-174.3812,-21.5402,-265.3076,42.4620,-234.9690,33.9816,-12.1880,430.0840,-215.1126,405.1378,-173.5886,438.3970,-159.8604,-90.1398,-369.5610,69.0077,-49.2567
-726.5625,225.8702,-52.1196,-42.6932,-165.5266,175.8642,-215.8216,202.8968,-186.9607,120.1150,-220.9654,846.2041,-253.9885,233.7772,-309.5325,375.9107,-258.6905,-44.5637,-358.2111,80.1501,-73.6437
-718.7500,164.6351,-128.5293,26.0209,-310.4299,99.5038,-256.0782,347.5927,-263.7072,117.4572,-42.5128,693.5776,-319.3923,377.6801,-314.2091,371.7001,-337.2555,-47.7574,-432.6041,113.5078,-76.7666
-710.9375,136.5031,-91.6510,-43.0113,-272.0835,68.4001,-178.0784,427.5563,-150.2126,197.0034,-149.8375,550.2037,-247.1261,162.8385,-273.6219,302.7500,-222.5667,-77.6993,-251.7709,224.0614,-71.6258
-703.1250,126.8163,-69.9791,-18.2783,-283.9942,96.0205,-188.3347,528.2702,-160.9893,223.2411,-87.4162,465.5856,-249.4956,152.7671,-285.2670,254.5681,-234.1203,-17.8938,-473.2124,179.3144,-81.7183
-695.3125,107.4257,-41.6973,46.9930,-289.3435,-130.8174,-232.0363,448.5335,-131.2220,216.9851,-59.4834,346.5188,-224.6260,182.2385,-220.3479,209.9586,-169.1083,-56.5344,-442.1189,211.0806,-15.2486
-687.5000,169.7628,-46.5674,-28.9223,-117.9015,-21.8747,-233.9479,447.6043,-60.6788,252.4749,-245.7484,527.2507,-163.5099,-77.4574,-223.6204,96.1806,-136.3020,-23.3666,-374.2694,209.5926,-16.9693
-679.6875,136.7186,-133.5377,176.0140,-202.6140,0.8849,-285.0128,470.5152,-185.2949,163.7632,-115.1769,399.8418,-223.0614,91.7166,-240.0269,117.2800,-188.6363,-36.3635,-493.5780,160.9072,5.1802
-671.8750,120.0523,-54.1100,110.3066,-227.9765,-62.0042,-165.7313,333.7776,-102.5700,173.3501,-180.2795,334.7807,-176.4945,28.2455,-195.0742,125.7419,-106.6139,-130.0066,-235.5637,172.5282,51.6923
-664.0625,140.0721,16.5525,77.8250,-226.1536,-92.7208,-123.2730,340.2400,-98.6661,106.0891,-176.1673,338.9132,-155.6460,34.0019,-190.9079,130.4321,-176.3885,-92.4581,-303.3963,141.3158,20.4088
-656.2500,96.7383,32.4626,169.5348,-209.1299,-404.2578,-178.6266,249.9172,-80.5597,88.0070,-12.8784,209.2355,-148.6129,199.9510,-136.5275,185.3510,-158.9516,-178.7148,-355.0544,90.2877,39.3219
-648.4375,142.7902,95.1747,89.0010,-76.3669,-372.0597,-184.2475,134.3721,23.2821,82.6441,-128.8441,312.3004,-79.1625,47.6688,-107.3988,105.0515,-56.7733,-148.2206,-220.0265,84.9740,33.9806
-640.6250,132.8960,127.7790,236.3230,-112.7679,-297.0481,-257.0369,98.6868,-87.0340,-27.9048,16.0353,201.2030,-84.5624,195.2579,-72.4067,104.6484,-57.7421,-113.8913,-396.1765,-20.5262,34.4956
-632.8125,94.4805,171.6307,170.8393,-67.9751,-323.8431,-247.6375,-0.7786,-41.1621,-17.2980,-121.9133,135.3200,-8.0221,168.0447,46.7912,114.4681,24.4959,-207.3589,-245.1481,-8.8672,81.2125
-625.0000,131.6796,181.7236,147.5811,-56.9991,-198.4579,-233.0544,14.9626,-64.1144,-39.5440,-255.6625,185.6276,-2.8508,73.0672,23.2028,91.5221,-36.0670,-89.6390,-267.9646,-31.0604,59.1345
-617.1875,77.1729,78.6225,300.0732,-194.2724,-228.3456,-190.7321,-14.5543,-95.3235,-143.0871,-104.6871,42.6890,-66.2242,299.8421,28.3843,133.3507,-103.8591,-120.1800,-193.0452,-61.5428,28.8134
-609.3750,83.8656,55.1356,171.1233,-110.9877,-61.7000,-61.8715,5.4772,69.9985,-88.1317,-161.1712,134.2962,-22.5766,136.1805,9.1239,4.7425,-86.0999,-176.1680,66.3684,-46.5262,-61.9553
-601.5625,95.2545,59.5069,254.9821,-35.8979,60.7013,-14.2267,55.2945,44.1018,-187.4314,-77.8563,70.6877,-1.7604,184.3402,-17.3121,-131.0405,-149.5311,-64.3640,-103.4521,-181.7564,-160.9217
-593.7500,60.6532,110.4902,237.3871,15.7422,-29.3629,79.9583,-34.3427,136.7428,-241.2296,-96.0126,-94.3569,82.6970,58.0425,74.8135,-185.2569,-57.3995,-81.0163,90.2452,-198.4776,-177.3408
-585.9375,103.0539,196.0264,147.3166,101.8621,102.0418,173.6182,23.5230,193.8566,-220.5756,-150.6580,-74.9141,133.8451,-178.7309,20.4519,-312.9364,-37.7661,6.8148,71.3846,-215.7460,-230.2583
-578.1250,47.1958,190.6745,216.3050,62.0314,26.4606,96.3144,58.4327,153.0090,-223.9157,28.7234,-263.4300,127.3257,-108.4532,53.1611,-279.5366,-79.0686,3.6795,-37.4468,-184.0002,-233.1166
-570.3125,118.6895,201.8424,156.7563,143.6612,41.3083,148.4462,37.7929,240.5842,-135.8539,-141.4682,-139.4970,147.4100,-313.7249,-6.6705,-338.6692,-64.9187,123.0030,116.1202,-100.8590,-254.5201
-562.5000,180.5335,158.9723,336.1231,207.2002,112.0014,107.4575,-38.9642,126.0309,-212.9494,-146.7527,-108.6938,125.3934,-243.0745,-48.5786,-416.8700,-180.8636,364.2148,-66.4479,-211.8590,-295.0207
-554.6875,124.4277,161.8203,340.1342,245.4042,-29.6854,149.1077,-217.0800,130.1125,-245.4383,-106.4201,-252.2332,181.8356,-274.7812,66.1731,-412.3949,-103.1512,333.0705,78.6038,-172.2518,-289.8704
-546.8750,191.9151,317.3273,210.7718,366.1988,25.1941,240.3316,-307.6009,110.7529,-191.3816,-273.5035,-125.1764,268.5977,-439.8516,83.5284,-503.2811,-85.8458,385.5275,129.1962,-226.0974,-308.1148
-539.0625,224.5620,392.8427,362.3687,335.9369,-42.0199,172.4849,-338.1945,-105.6685,-333.4189,-196.6424,-157.1789,242.5969,-212.9653,50.8474,-425.1882,-155.5755,427.9123,-5.2783,-360.0211,-265.4019
-531.2500,248.1137,419.0277,314.5714,433.2793,-15.6589,161.2213,-420.2040,-153.5019,-306.9001,-355.1746,-58.5867,263.1260,-223.4876,2.7764,-362.4776,-93.6941,349.8926,162.8034,-297.3917,-202.0937
-523.4375,236.2159,326.3297,365.8414,340.6731,109.7035,65.9938,-367.1803,-287.3050,-256.3906,-268.6461,-8.9805,170.7163,-170.9376,-57.2230,-311.6876,-116.7514,364.9074,-35.1163,-247.7661,-186.7326
-515.6250,103.6209,205.8546,346.2539,185.2279,-54.8199,9.9078,-311.0261,-304.9683,-164.7762,-141.0012,-174.2273,120.0152,-78.2484,33.9475,-145.7238,-61.6376,175.0547,-13.9138,-121.0310,-94.2207
-507.8125,109.8244,230.7468,114.9842,174.0806,-28.0738,36.0990,-246.5712,-170.3556,-64.9129,-299.0522,-40.1868,112.6717,-198.2490,-14.5721,-82.4423,-0.2281,131.4859,81.5250,-59.0418,-67.4104
-500.0000,72.4446,180.1997,136.2167,88.4280,-78.8745,-51.2330,-223.6359,-257.2477,-79.5926,-131.6032,-92.6667,48.6105,8.2564,-29.5702,-23.6351,-125.3033,187.3901,-3.5591,-73.5870,-81.0943
-492.1875,89.6781,185.8700,144.5972,164.9310,-106.5499,-42.4316,-250.5640,-139.9956,-71.1657,-161.0198,-84.9906,78.8767,-55.0982,-58.4051,-14.6646,-117.2178,124.4347,249.4674,-32.0208,-108.6311
-484.3750,112.1251,213.4578,140.8445,226.2745,0.5721,-46.8093,-179.6530,-107.9115,-75.9401,-129.5594,-89.4899,98.5336,-131.5827,-99.3772,-91.8116,-158.2796,188.3009,206.2854,-74.6469,-185.3175
-476.5625,15.9228,188.3125,188.2889,130.8157,-98.1480,-36.0132,-167.5505,-60.6269,-65.5469,64.0925,-336.7955,76.7491,-9.8789,-89.1374,-43.7269,-185.1316,58.3381,251.2700,-64.1011,-173.8047
-468.7500,36.8832,171.5819,61.1010,148.6988,-3.5553,22.1036,-145.0947,69.9823,-7.8346,-99.9124,-170.7566,98.1815,-134.8088,-68.5498,-133.2559,-91.6417,-27.2877,375.5204,-9.2354,-188.9376
-460.9375,65.5778,162.9945,237.0339,104.6600,26.0914,-96.7249,-78.5411,-11.3422,-53.0421,112.1795,-142.6235,38.8272,5.3924,-113.8646,-103.6338,-173.0602,-34.8300,49.8023,-88.2806,-195.9480
-453.1250,44.0649,163.1562,200.6669,105.3056,-120.5825,-169.9001,-187.2803,62.0025,-16.5667,110.9484,-143.7782,37.6153,-30.7082,-77.4792,7.7109,-63.7726,-103.6685,120.7361,-16.6423,-158.2455
-445.3125,80.0110,224.5770,78.5226,165.1422,-57.1013,-143.9149,-159.8297,87.5119,9.0679,25.9286,-81.7565,58.1690,-150.5922,-124.8787,-39.7266,-75.2796,28.6842,4.8131,-25.8399,-131.3428
-437.5000,16.5670,223.6238,148.9301,93.5479,-280.1204,-183.3979,-197.8607,9.5542,-67.7894,205.4344,-269.1901,60.5691,-4.9461,-18.7032,-5.6015,-41.2096,28.5687,-30.5777,-60.5281,-59.8954
-429.6875,74.6595,303.8994,11.5043,172.1224,-270.0211,-137.7496,-222.7662,129.7059,-21.5537,67.0777,-77.4720,127.1061,-178.1507,27.6390,-105.3102,78.0139,-31.4041,83.1222,-16.1177,-49.3038
-421.8750,97.5273,264.9492,119.7945,63.4148,-198.2814,-212.4215,-188.0132,15.5204,12.3250,137.4237,-7.0834,30.6245,4.3546,-48.2915,-33.2919,-35.0485,1.3038,-200.5082,-19.0548,-51.0113
-414.0625,24.6280,189.8961,73.8748,-48.4588,-243.7769,-294.3009,-231.5081,7.1186,76.9488,164.5431,-52.9000,-13.0387,70.6362,16.6023,105.5314,29.7084,-74.1953,-136.3606,45.7515,15.0794
-406.2500,60.3487,215.6759,-47.2720,-23.5620,-106.5713,-232.4522,-167.3030,-4.5669,65.2513,5.4193,82.0188,4.0280,-13.3156,5.2680,95.1231,55.2246,-11.9463,-111.5171,-34.7572,41.9159
-398.4375,-8.4311,193.3306,1.3962,-46.8412,-204.6105,-293.8214,-191.3480,-176.4704,-33.7011,90.0719,-53.2652,-9.2328,220.5336,53.7517,218.5450,29.5618,-33.9107,-204.8941,-91.5151,91.5482
-390.6250,24.6101,281.7578,-164.2189,40.5940,-223.9736,-276.5149,-245.7183,-159.6977,18.9867,-41.5927,72.1498,37.4056,92.0855,33.9512,236.6908,83.6061,-85.1829,-47.6199,30.3657,109.8742
-382.8125,68.6740,260.1126,-76.9695,-53.1151,-172.5509,-372.3772,-156.2777,-255.0928,70.4601,46.6051,160.3773,-55.8287,181.4994,-61.9705,325.7162,-49.4826,-2.6294,-352.5345,79.0386,89.0534
-375.0000,7.8161,138.7494,-20.5384,-244.5987,-262.9712,-500.0487,-98.6745,-347.2921,199.0872,64.9788,104.8004,-172.2772,313.0923,-78.6732,566.9574,-66.3528,-52.8948,-334.2721,167.8816,109.4258
-367.1875,85.6340,139.9899,-54.5381,-314.5306,-39.8818,-534.2003,14.4667,-381.9703,275.2255,-190.0951,290.7642,-226.7900,243.2517,-185.8161,607.7708,-100.6749,19.3911,-299.5247,239.2437,76.3286
-359.3750,24.0488,29.9356,125.1255,-390.8087,-44.1840,-575.7221,11.2360,-460.0092,232.9856,-12.5255,138.3594,-292.7216,461.0637,-190.3010,677.2621,-141.3389,15.3081,-445.1528,163.2278,72.8641
-351.5625,-36.7831,21.0515,3.8953,-259.9749,-128.4116,-439.1596,-70.9164,-250.9543,257.8073,-24.8575,52.0448,-177.3892,266.9637,-55.6771,593.8665,-6.8979,-98.6818,-209.7245,188.2740,99.4794
-343.7500,-82.7960,-25.4651,-80.0154,-201.8380,-65.3977,-339.3191,-7.8083,-188.6154,209.8853,74.1458,4.0069,-157.7771,221.1805,-65.7352,473.7970,19.8498,-111.3953,-258.0521,175.5851,53.3839
-335.9375,-191.5591,-148.6694,-62.6811,-326.4449,-121.1772,-322.2515,84.5170,-135.0318,226.1813,201.3948,-162.7779,-214.7443,349.6354,-48.5265,565.9988,36.8727,-233.8828,-242.1599,157.1223,71.5304
-328.1250,-150.7441,-154.9787,-178.4843,-334.2047,54.8559,-255.3624,188.6766,3.3793,292.2942,9.5150,-23.7311,-195.1850,123.9498,-55.4569,450.0810,102.7531,-240.5387,-109.4900,184.4769,65.5210
-320.3125,-165.8287,-114.8280,-28.8859,-366.5588,58.2260,-216.1048,193.2057,6.1807,183.7793,159.0537,-204.3166,-165.6952,164.6629,-14.9640,343.5942,33.0499,-271.8264,-178.4573,82.2122,69.9103
-312.5000,-190.2134,-73.0555,-96.7496,-291.3482,-9.8916,-99.3267,16.2596,121.5242,78.7930,164.1396,-273.3514,-72.6301,61.9031,101.0881,277.6707,148.9107,-300.5795,72.0752,87.4836,76.8421
-304.6875,-83.4894,-15.9248,-70.3040,-130.8500,163.2402,-1.2871,6.5980,36.1507,30.0806,41.5600,-102.1066,-39.5210,15.4611,16.4515,157.0774,101.0798,-105.0603,-85.1652,2.0294,-6.9276
-296.8750,-123.4615,-93.1904,32.6781,-68.8027,81.8762,28.2759,-36.5445,-44.6700,-15.1032,70.5383,-220.3199,-32.2226,119.5599,46.3878,224.0531,56.8231,-41.0182,-128.8867,-40.8846,-13.1488
-289.0625,-119.6001,27.3957,-137.5349,85.0503,95.2774,188.6080,-167.9190,152.2919,-39.5199,-26.6570,-244.7460,98.2169,-158.5399,97.1344,54.8463,181.3739,-98.1856,130.1378,-99.0348,1.4238
-281.2500,-166.1910,96.6408,-106.1389,117.5099,53.2180,256.5177,-245.7363,219.8451,-229.3718,224.7672,-434.5956,143.7216,-89.0339,128.4992,-22.7386,212.5368,-133.7802,55.7322,-312.6156,70.5945
-273.4375,-168.9536,130.5519,-109.1444,184.5881,-97.2731,326.0102,-432.9874,324.9911,-307.6567,219.7740,-439.8401,198.5069,-54.9445,198.4757,11.2836,282.3093,-206.7823,191.9013,-280.6215,104.3567
-265.6250,-76.7641,165.9126,-108.7328,218.0621,12.5925,325.8777,-357.8572,325.5183,-307.5739,109.1983,-255.7072,202.8759,-163.4374,162.8670,-60.2759,209.4830,-102.3998,84.4229,-352.2630,69.5100
-257.8125,-137.8029,143.5762,-98.0769,158.7903,-87.3302,261.9709,-310.4995,224.2928,-409.2643,265.8718,-357.3418,179.8509,-5.6931,209.5237,-48.5670,218.9244,-125.7965,-11.8181,-482.6701,116.9088
-250.0000,-97.9900,355.5392,-322.1678,262.7741,-128.0241,331.2916,-386.9126,330.3087,-414.7294,113.8039,-288.7350,293.1831,-154.7028,242.4312,-124.5965,325.6189,-195.9597,162.1394,-448.8516,187.5542
-242.1875,-102.7834,413.6010,-300.2054,318.8105,-180.7229,278.6365,-364.3156,240.3630,-431.1718,244.8149,-342.1050,321.1411,-58.6545,264.4016,-137.5487,273.3749,-174.0924,-28.8883,-428.0025,210.2506
-234.3750,-137.5798,380.4269,-263.5493,354.5733,-402.7585,241.6658,-364.0601,276.1157,-395.9383,243.5146,-416.7689,351.2893,-93.9312,338.0791,-63.7876,309.8446,-278.5352,75.7622,-357.4774,247.6423
-226.5625,-36.8624,396.3992,-284.7741,367.4427,-313.7314,292.7786,-273.7431,327.9466,-307.6445,74.3371,-219.3471,336.4170,-298.0879,242.8663,-119.9110,251.4150,-194.8932,52.4682,-308.8951,227.1277
-218.7500,-79.6107,313.5180,-113.8985,248.4198,-401.6476,168.9760,-250.3712,203.8727,-286.2807,318.2679,-343.8348,239.3710,-89.1471,193.7714,-21.9184,165.1026,-208.1798,-137.7388,-183.2312,214.7117
-210.9375,-75.2576,264.0415,-202.6701,266.7567,-418.2349,115.4955,-191.6797,297.1239,-155.5855,227.5488,-250.9638,227.8698,-140.8682,178.0352,-36.5652,222.1481,-224.1240,-14.6428,-59.2364,199.6390
-203.1250,-65.5080,119.0092,-170.0300,190.5017,-275.4677,37.3855,-10.6284,181.7371,-124.5140,186.2512,-108.7171,148.6004,-33.1762,173.7133,-38.7848,145.6037,-123.6775,-233.1907,-65.8614,159.9654
-195.3125,-108.5187,83.7248,-171.6961,116.9637,-351.0284,-1.0363,60.0808,143.0419,-127.7634,257.6348,-184.7734,129.7730,39.1953,209.1070,-39.2915,179.7823,-160.5386,-167.0617,1.1961,158.9885
-187.5000,-36.6025,178.0219,-292.7957,173.9775,-216.0742,97.0685,86.3097,203.8770,-67.4832,97.5922,-50.2909,173.6037,-117.8808,161.0619,-233.2399,205.5180,-102.8615,-111.4456,57.7940,111.5578
-179.6875,-56.1898,118.2520,-136.9922,5.8850,-172.2709,-5.9544,169.4073,101.6187,-60.3041,253.4728,-116.9203,76.8984,37.9365,132.9268,-187.2740,140.1637,-94.3189,-386.9550,29.3007,121.0301
-171.8750,-113.1978,10.0150,-252.6923,-69.7128,-177.9933,-11.5071,126.9941,167.8568,42.3756,172.8661,-87.0449,40.0092,-38.7596,164.2833,-80.8006,208.3126,-169.2874,-216.9920,165.2990,152.9985
-164.0625,-102.1127,-72.0362,-228.2341,-48.1575,-117.6092,-24.9307,188.7056,155.2271,29.1803,160.4464,-63.0526,9.5560,-86.2992,115.7975,-91.1619,159.6157,-43.1161,-267.9047,150.4294,105.1138
-156.2500,-147.6477,-139.5914,-80.3441,-47.1154,-226.8055,-59.9083,117.8387,83.0463,29.4196,308.4644,-209.6228,-2.0731,-10.4167,154.7778,-88.0693,161.3853,-41.5044,-268.3697,115.9932,107.6727
-148.4375,-98.2678,-58.0486,-178.3957,65.9908,-143.9700,23.1487,18.0052,128.8956,75.6789,208.5320,-127.1480,58.4985,-218.4889,128.8161,-223.9195,246.2019,3.1515,-121.8269,158.5730,82.2753
-140.6250,-122.9945,30.3737,-124.5917,11.9402,-126.3202,-32.9658,-0.0091,-37.4155,18.7685,409.4514,-220.8382,37.6164,-52.7033,110.7172,-93.9001,190.8785,-51.3618,-282.4442,103.9934,64.7265
-132.8125,-132.8545,24.2319,-169.3893,-31.7015,-211.2771,-79.6959,-81.6447,-11.3351,44.2521,325.7549,-158.1306,2.1349,11.4602,101.0207,154.5239,217.9624,-128.4749,-187.6774,129.8096,92.5662
-125.0000,-57.4463,-37.9279,-91.2184,-97.3796,13.6917,-147.4901,-39.3658,-116.3310,85.6621,110.0328,29.5029,-81.4993,55.5872,-2.7188,198.9031,113.0008,-18.6405,-324.0003,134.5474,99.3453
-117.1875,-107.6979,-146.8017,50.1954,-242.7811,-66.1228,-228.0420,-44.8855,-270.0734,40.3095,213.5643,-87.6161,-157.6368,233.9445,27.8084,267.5389,107.3072,11.4214,-296.0801,128.5286,130.3659
-109.3750,-67.7091,-51.6530,-71.3877,-116.1760,-5.9592,-129.6138,-92.4233,-135.8207,64.9441,91.1176,-27.7427,-58.0429,40.3041,54.3392,111.1873,169.6226,-0.5362,4.7925,114.4953,83.3808
-101.5625,-58.7127,-8.4345,-23.9162,-109.5303,40.2122,-85.1605,-9.9425,-164.5128,-0.3812,173.7567,-55.8479,-54.4927,161.7213,26.9330,84.9073,69.0028,5.5320,-167.3027,14.5082,20.4497
-93.7500,-122.0552,-46.4321,-102.7200,-45.1244,-2.8831,-90.9686,-88.7336,-96.4365,29.0472,168.1594,-135.2068,-25.0107,120.8547,59.2832,155.3684,101.1489,-69.6581,1.3432,78.2797,16.2622
-85.9375,-68.7342,10.5866,-228.5233,44.2755,163.9889,3.2039,-30.5281,-76.3582,48.4751,-32.3865,-5.5896,27.6863,-4.0120,43.6385,66.8309,85.2943,19.1313,-17.0455,61.0517,1.0633
-78.1250,-94.4145,-30.7779,-51.7439,-34.7177,44.4271,-5.0255,-37.7399,-158.6605,2.5047,70.6856,-161.3829,-14.4015,173.7031,36.6043,97.9035,4.0562,46.4912,-61.8365,17.4229,-5.5415
-70.3125,-5.1025,8.8764,-48.9708,2.2923,83.8514,107.7321,3.0234,-81.9664,-32.4748,-147.2243,-49.1752,41.7886,-79.5847,40.5724,-44.0148,7.8301,83.8515,219.3342,17.7864,-38.1522
-62.5000,32.9826,-32.7559,91.4992,-6.9911,185.9314,173.1691,106.4505,-163.5759,-77.7593,-191.3897,-21.2978,18.0607,-48.1686,-2.7540,-86.2174,-72.6845,144.9007,67.1863,-97.1425,-81.0655
-54.6875,-19.4042,-90.9147,102.4009,3.1931,85.4418,183.0447,154.3039,-153.7186,-68.5820,-108.0909,-121.9765,32.8911,-36.3447,45.3754,-110.9740,-61.7370,85.3966,110.4895,-17.6133,-69.5386
-46.8750,9.1796,-79.9122,-71.5421,81.5307,167.0801,266.0637,200.2961,-71.7207,50.7350,-208.6195,33.4739,57.8420,-173.3660,18.6612,-210.5844,-51.6348,128.0399,80.9159,25.0495,-95.8709
-39.0625,-48.5372,-197.8027,23.6125,-4.0164,76.7941,175.1813,221.3511,-124.6232,-3.8566,-41.0401,-56.9802,-10.6528,-3.2938,40.0611,-114.0948,-67.4157,148.7668,-40.5456,9.8048,-74.1040
-31.2500,-52.8426,-229.9845,-50.5399,-73.8529,38.2032,173.9937,221.0807,21.1700,68.2511,-78.7493,14.2760,-33.8994,-76.5406,40.1669,-75.9101,-30.4882,45.1914,133.6683,80.2638,-36.6463
-23.4375,20.6673,-168.1092,49.3727,-190.6404,99.6306,51.8316,246.8463,9.0050,92.4121,20.6221,112.5610,-106.6964,-49.7340,-44.6685,-122.6624,-77.5068,68.6524,-56.0878,32.7765,-47.1444
-15.6250,-30.6344,-173.5615,113.9174,-198.7621,-58.2973,-31.6825,90.2464,-38.4959,44.2256,194.6299,-8.4955,-116.8508,88.6933,-16.8507,-56.7655,-49.8616,-10.2478,39.8226,58.9346,-19.0000
-7.8125,12.5581,-133.2918,8.1607,14.8295,92.4677,45.4955,21.3331,39.6881,84.7203,-21.6470,105.1421,-35.3518,-52.1729,-48.3325,-87.1651,-45.5245,28.5495,146.4145,60.7714,-50.1654
-4000.0000,35.6715,59.8057,52.8801,56.6176,-18.3162,-23.1615,-69.9211,-89.9336,-42.3126,-5.8803,11.7631,16.3505,37.5130,-13.6702,-53.3970,-86.5364,72.8135,-72.4586,-83.8743,-61.0272
-3992.1875,60.5063,87.9312,9.0817,50.3035,-27.6485,4.4274,-154.0572,-137.4455,-51.6593,-199.0270,76.9690,37.1731,-8.2357,13.8152,10.3369,-23.2783,66.7286,165.5973,13.2050,-34.1909
-3984.3750,122.0877,131.3264,21.5734,-46.7118,204.3278,-57.6747,-32.8742,-200.6260,-39.6719,-260.8742,199.4930,-23.1316,41.2875,-85.4112,20.3641,-86.7236,111.9380,67.9750,-13.3759,-97.0574
-3976.5625,43.6844,29.1760,136.5899,-183.2209,133.8014,-129.2787,5.8290,-199.2973,-37.1615,-110.1864,54.5082,-70.9970,191.3137,-9.1454,58.8892,-85.6794,9.6415,33.8421,-11.4306,-95.4261
-3968.7500,86.5361,33.5902,-4.7848,-73.1164,137.8644,-51.2734,46.1332,-85.3394,40.9798,-253.8948,207.1296,-15.4746,-25.0772,-5.2799,-121.9876,-9.0299,14.9310,178.3321,62.1412,-92.1894
-3960.9375,63.5753,22.1238,56.0048,-47.8616,86.0922,-29.1104,104.6027,-174.2268,26.2849,-120.4590,118.9248,-18.8998,71.6664,-20.2746,-172.7219,-62.2385,40.3730,-44.0245,14.8808,-33.7986
-3953.1250,12.2121,-5.7845,-14.5789,-77.0243,-95.0914,9.6498,-4.3227,-99.5122,102.2086,-81.4010,85.3177,4.7868,1.0145,92.3251,-134.8426,49.1460,-58.5933,101.2308,126.2467,41.2012
-3945.3125,45.5127,-49.0674,-20.5104,-47.5375,44.3901,2.0679,24.4069,-72.1301,94.8044,-88.7063,188.3806,3.0513,-117.0149,84.5646,-253.3116,77.1850,5.0885,58.1665,118.2888,32.8559
-3937.5000,-36.3368,-195.1819,122.7887,-123.8577,-35.9117,-40.3043,17.3509,-42.5524,51.6081,89.1993,35.6454,-47.8982,25.1640,114.9907,-224.5772,32.4066,-105.0345,16.3083,146.5324,25.7208
-3929.6875,-2.8456,-148.1877,-9.7456,-111.0332,14.9436,9.4888,29.4462,117.1852,175.5714,-80.7516,160.0718,-29.3604,-145.5087,91.5629,-248.6830,118.7785,-163.0218,97.6461,227.9371,1.7523
-3921.8750,-28.6462,-211.9756,34.9858,-243.9543,21.0713,-57.4450,145.8043,85.1861,218.7861,109.5362,130.7747,-139.7323,9.0507,-13.6273,-169.5485,12.3926,-155.7564,-142.7352,233.6020,7.0384
-3914.0625,-122.7908,-283.9930,-3.4522,-385.0795,-129.0058,-97.5638,178.9635,191.9966,252.8013,180.6431,-18.7312,-184.5235,79.4146,19.9810,-27.6161,81.8024,-295.6928,-4.2969,373.0764,40.1251
-3906.2500,-112.8872,-243.0812,-177.9309,-342.2422,-11.1242,-16.7034,333.0764,235.7808,370.7769,151.6787,62.7253,-171.9417,-96.3036,-46.4639,16.2552,51.1644,-288.6757,-68.8603,378.5160,10.1609
-3898.4375,-181.5628,-251.7579,-112.9341,-385.9602,-94.7743,-137.3817,321.6523,150.0211,324.2100,399.1748,-94.3584,-201.1409,77.4274,-20.4689,115.5746,75.9684,-331.2117,-218.9645,369.4183,35.6469
-3890.6250,-137.1137,-165.7237,-206.1736,-333.9295,-43.6755,-159.2945,224.9878,200.0297,375.4123,229.4315,-5.6941,-154.1746,-55.0960,-5.7301,91.6544,162.5225,-314.0266,-27.2751,385.0987,85.8914
-3882.8125,-122.7067,-176.8755,-143.5578,-308.0508,92.2957,-206.3342,250.1950,77.9066,290.4874,218.5291,-16.1547,-169.1451,8.2141,-53.1557,116.5872,75.9228,-219.0029,-108.7065,302.6534,73.9943
-3875.0000,-161.7496,-206.3781,-62.2172,-196.4848,-12.0372,-164.6693,144.1210,82.4836,186.2823,261.3492,-156.9209,-117.6641,51.2432,-11.8916,121.2359,117.0202,-247.2904,72.5736,237.9332,78.8065
-3867.1875,-59.7161,-65.6131,-132.5782,15.3910,62.9347,-52.6908,35.3598,46.3812,114.4056,5.4577,-7.3722,-7.7355,-130.4544,-11.3329,48.1868,117.4238,-106.2885,142.1963,132.5503,42.9256
-3859.3750,-37.4660,26.8215,3.7766,38.9599,-23.3783,-28.0080,-51.6740,-114.0172,-44.7477,66.2727,-130.1142,23.3923,4.5389,12.9187,71.8350,-7.4791,23.4157,59.5233,-21.1040,29.7462
-3851.5625,-18.1151,101.0686,-63.0028,150.3687,-128.8446,86.5336,-157.8371,-37.5492,-3.0270,-39.0516,-162.0157,85.9344,-137.6225,-19.9864,75.3431,32.4699,28.9505,274.7391,88.1213,33.4269
-3843.7500,25.3352,218.7299,-82.3300,198.2265,-76.8428,65.5479,-143.5267,-96.6004,49.1661,-22.9326,-145.4397,86.2623,-122.3638,-114.4537,53.2946,-27.1304,112.9212,75.4427,65.8211,-25.4337
-3835.9375,-11.5188,224.2967,-39.6795,135.0208,-182.8852,-4.4775,-103.2395,-129.6911,-19.6852,54.1598,-213.9185,70.5244,29.8562,-73.9808,166.2003,-24.7849,13.8302,46.1110,0.4831,14.6674
-3828.1250,-1.8223,184.5325,-155.3297,130.5192,-78.2226,63.2142,-73.2413,-27.0484,11.1837,-135.0564,-72.6992,79.5196,-87.2520,-43.8070,158.8022,78.2754,-24.5773,76.5384,30.8678,44.4836
-3820.3125,-71.9761,45.8940,-42.8238,-42.8181,-78.3936,-9.9155,-37.0822,-64.2338,-25.7933,121.8760,-181.3286,-11.9588,60.7568,-7.4866,194.5387,39.4927,-21.8337,-133.8547,32.4132,80.4569
-3812.5000,-92.4306,-33.1257,-123.6541,-14.4978,-124.9247,17.6266,-47.2652,109.2534,38.8880,39.4729,-153.3182,2.4425,-58.5900,19.4848,184.9338,102.3642,-64.4570,69.4362,129.6271,107.0919
-3804.6875,-51.8921,-28.7736,-151.0873,27.2182,67.9609,25.5939,107.9789,116.1750,83.9923,-25.5396,-108.8796,-4.4279,-123.5625,-82.1587,81.7338,35.6397,47.3093,4.1574,135.2740,41.1345
-3796.8750,-111.6048,-33.7226,-79.7434,-82.3396,26.6127,-14.6872,177.0039,147.8573,79.8651,154.2189,-295.6830,-24.5413,-17.7766,-51.0641,113.2965,-7.3427,-26.1856,-35.3564,130.6884,35.9381
-3789.0625,-46.3473,-35.4173,-116.0898,-47.6011,99.5756,20.3471,101.3431,219.8646,153.0509,6.2697,-150.1760,4.2446,-238.7030,-16.6754,0.1710,63.9887,78.5951,104.4881,164.4259,34.0513
-3781.2500,-43.9884,-138.0034,35.7237,-43.7155,102.7239,-49.4446,140.8595,75.0440,82.3964,82.4554,-146.4923,-40.8114,-125.4912,-14.1495,2.1970,28.4699,188.5169,-103.4913,61.3260,36.3213
-3773.4375,-40.1443,-94.4885,10.7082,37.2982,-34.9731,-40.0737,39.5495,46.3916,18.9010,55.8106,-136.6631,16.4901,-116.1219,68.5211,47.3943,110.1047,198.5612,46.7059,35.4000,44.7596
-3765.6250,59.5534,-24.8658,12.8316,108.4539,112.4960,33.4747,39.4049,8.9229,-17.4204,-200.6886,48.3342,45.2391,-115.6342,31.3358,-27.2446,71.9047,305.7417,-23.8985,-70.3456,44.3622
-3757.8125,54.6667,-59.7412,197.5188,40.1493,1.5296,-40.4164,-109.1638,-138.9870,-128.1814,-91.6166,-25.1214,17.4960,67.4008,103.6929,7.6792,-3.7431,377.4675,-92.9357,-104.5276,79.5236
-3750.0000,106.4942,-13.9150,136.9646,192.5954,13.3197,45.4605,-244.9762,-55.1267,-116.1786,-226.7932,97.1810,93.1940,-140.8210,114.7999,-90.6339,79.3691,354.9235,129.8350,-126.9352,90.4476
-3742.1875,101.0294,23.6212,142.1741,267.7855,16.8993,85.1106,-352.0112,-88.4986,-222.4070,-149.2327,101.2623,133.4320,-64.3172,154.6389,-125.1937,44.2316,323.1218,62.3931,-229.5676,93.1279
-3734.3750,39.0337,109.0632,50.3578,284.9038,-114.5670,175.7256,-410.0656,-0.9033,-278.6635,-132.6973,-65.7169,197.6515,-11.8620,207.4205,-72.7848,133.0435,200.2541,290.9270,-213.2218,108.7677
-3726.5625,103.7348,189.6237,-81.3219,402.1700,47.1304,300.5111,-395.9330,86.8804,-301.7388,-302.0239,96.4641,267.7311,-143.2884,183.3348,-207.2126,109.0149,211.5217,407.6643,-272.6888,48.5648
-3718.7500,90.4364,113.0351,100.9007,327.3237,43.7466,260.2143,-399.8622,-28.4119,-414.8937,-195.4231,56.5445,222.4654,36.1855,216.1286,-174.7294,-7.1187,206.6792,296.3190,-383.2290,7.2665
-3710.9375,121.7999,108.6803,62.4262,359.7623,187.6678,294.2328,-366.4667,4.6255,-344.7228,-382.4929,164.9177,232.3149,-115.0465,175.2150,-178.9254,62.0600,134.1168,399.3149,-316.4334,3.2779
-3703.1250,92.1990,76.2823,68.9474,224.1866,376.6185,188.2676,-215.0414,-102.3022,-302.5252,-340.5670,133.3078,147.7786,0.6935,106.2834,-102.1066,28.2486,139.5502,157.3458,-276.6087,7.2964
-3695.3125,-41.6610,-83.9582,46.6836,64.7891,315.7764,127.5115,-129.3812,-53.0137,-216.1080,-181.4217,-38.1156,65.6590,123.6332,117.5381,55.9359,75.6324,-20.8272,208.6009,-119.5543,92.5226
-3687.5000,-43.4715,-193.5357,-138.8914,-7.9142,385.6468,123.4815,12.0155,89.0159,-36.9621,-221.5747,142.1639,-4.5643,-27.7610,39.4804,14.6928,106.7246,-57.5218,241.6153,53.2347,124.4539
-3679.6875,-108.8274,-285.4646,-48.7663,-166.9303,290.2423,66.1744,174.1536,66.7798,52.9012,49.9940,11.1508,-88.5092,97.5387,18.1111,-6.8350,11.5224,-146.5331,81.3450,103.7438,139.0909
-3671.8750,-185.4644,-364.8980,-200.0839,-104.4204,174.3897,133.4286,167.8680,281.1318,231.3316,118.1384,-68.3209,-54.1225,-128.6098,46.2917,-50.7853,112.8836,-259.0182,320.6625,341.8269,95.2951
-3664.0625,-161.0443,-391.4694,-184.5009,-94.0184,261.4643,147.5957,328.5029,293.4206,318.6811,168.1639,-16.8683,-101.9054,-188.8895,-86.6373,-39.8248,51.1608,-248.6033,119.9158,387.8354,34.4108
-3656.2500,-192.1740,-392.1810,-74.9855,-162.7385,76.4559,36.6648,364.0671,255.6118,354.9346,314.1063,-127.5139,-143.4822,-44.2644,-88.6791,106.0557,11.3356,-317.2947,15.0833,388.7589,69.4389
-3648.4375,-66.3625,-380.6363,123.8229,-149.1663,16.7643,13.0512,302.9488,268.1169,442.5071,180.3418,33.1499,-151.3122,-214.3539,-113.4219,44.2603,96.8236,-268.7035,63.6095,472.0080,81.7832
-3640.6250,-17.9632,-525.8255,674.9296,-221.2883,-96.5961,-63.2352,300.1660,190.9298,440.3852,398.8650,-79.8669,-221.6185,-143.1557,-116.8750,40.7843,18.6119,-270.8238,-78.5369,469.5623,78.4420
-3632.8125,-10.4982,-527.0851,713.9931,-220.4718,-205.0089,11.4413,227.3545,337.7058,441.2158,399.3501,-114.9366,-189.8794,-289.9989,-80.3833,3.2911,91.3595,-341.0190,203.2992,470.0727,78.0746
-3625.0000,59.9285,-375.7133,546.6907,-138.0159,-43.7572,62.7859,278.2156,352.1613,382.7074,303.4713,10.6657,-165.7402,-349.2206,-214.2529,-56.5328,30.7761,-258.5807,144.8374,411.2582,18.3745
-3617.1875,-1.3616,-402.8893,559.9031,-199.0854,-105.9827,0.6372,326.6153,289.1232,357.7100,389.1096,-125.2335,-210.5872,-118.9356,-240.6375,65.1672,-70.3110,-248.6513,84.8943,385.9613,-7.8117
-3609.3750,40.2028,-357.1562,393.0591,-116.2212,20.7556,91.4513,378.9947,378.0634,373.6840,110.6907,38.8224,-152.2063,-212.7103,-225.0767,6.8483,-55.4337,-235.7932,168.9554,363.6416,-66.0355
-3601.5625,26.4799,-349.6613,369.0030,-105.5632,68.3302,139.0848,427.2105,351.8266,238.4738,158.0631,50.6977,-149.8639,-91.6995,-214.7331,16.3444,-119.7505,-226.1390,-32.1565,198.1436,-92.4518
-3593.7500,-53.3733,-338.1627,199.9939,-56.8707,-102.0452,226.7818,293.4994,475.6611,178.3276,208.5061,-46.3827,-77.0084,-152.6236,-93.3469,-7.0763,-34.0091,-317.4547,192.8068,211.7157,-79.8048
-3585.9375,-7.4438,-319.6394,151.0176,-2.1308,31.6507,323.5484,315.8634,571.5842,202.2512,84.9829,87.5985,-43.2850,-312.5266,-107.9156,-58.4269,-86.1994,-367.7424,177.8693,231.3633,-131.0962
-3578.1250,-48.5354,-346.4980,309.6890,-26.7656,-30.9857,259.9763,325.9142,434.1808,138.8365,205.1285,-11.7741,-64.7193,-82.7815,-61.8430,60.8932,-114.7326,-427.3907,-22.4063,100.6786,-121.7262
-3570.3125,-12.9270,-212.3368,120.3965,74.6292,-38.5689,253.4782,245.0411,499.8670,95.4883,13.3284,91.8882,21.9153,-165.0023,3.2836,16.2854,23.8040,-396.0096,44.4213,97.0696,-56.2937
-3562.5000,-74.6101,-200.3559,-50.0650,18.8672,-62.2686,118.8573,220.0627,401.4380,108.0052,173.3660,67.4155,-21.3848,-42.4018,14.2481,27.5374,34.2023,-311.7814,-222.8675,146.3275,-8.0039
-3554.6875,-163.4729,-280.6628,-96.7744,-58.1526,-258.2087,32.9968,170.8587,387.7737,169.2745,308.1752,-18.3128,-62.8664,54.9584,73.9577,87.5640,130.3537,-389.8142,-193.3851,209.3437,89.0463
-3546.8750,-96.2358,-258.5424,-145.0446,-33.7195,-196.6747,57.5995,122.1164,411.5845,194.0025,221.4125,153.4296,-70.4067,-67.2611,24.1077,37.0568,189.9732,-330.4046,-134.3954,197.8206,112.5596
-3539.0625,-130.4800,-310.0079,24.1407,-117.8511,-248.6572,-67.3335,69.8482,322.8517,69.1785,390.0983,28.6323,-122.8715,173.9679,44.6995,132.0175,136.0504,-308.5477,-216.9383,149.7512,133.5333
-3531.2500,-132.2939,-304.4573,-38.6262,-144.9500,-129.5863,-59.1977,114.6508,367.1953,114.4065,213.8485,36.8765,-95.2656,70.2469,87.3460,139.0546,179.1982,-335.6643,-33.3873,192.7472,140.5720
-3523.4375,-70.9300,-282.6831,-12.1658,-226.8025,-30.2355,-141.7899,251.7233,282.8145,177.8932,203.8435,137.3925,-154.9690,22.7523,3.2350,91.3601,93.6162,-241.5369,-219.5472,217.0072,92.8709
-3515.6250,-98.2489,-257.3347,16.8980,-270.0737,-185.2744,-260.7723,242.4227,199.0470,205.9841,305.4560,55.4951,-182.7285,123.8647,-6.2874,155.2995,82.6428,-284.8188,-226.0836,244.8766,119.7798
-3507.8125,8.6148,-108.4082,-80.4596,-188.7533,-101.6961,-250.1344,289.7403,172.9070,253.6856,20.6580,213.2022,-136.1799,-49.4395,-71.2141,127.8684,91.2889,-168.5184,-179.9641,219.3617,129.3013
-3500.0000,23.6920,-18.5634,89.1304,-237.5060,-152.1308,-264.5339,275.0452,10.7253,202.3437,116.8034,51.8679,-152.0352,44.2057,-123.2025,186.4171,2.8934,-111.2701,-332.8760,171.8045,150.7817
-3492.1875,3.2973,-27.6091,9.8652,-174.1305,-307.4039,-198.7734,119.5348,2.7104,195.1558,35.1052,43.6783,-106.6800,-73.9898,-60.0391,251.1554,65.6619,-117.8982,-57.6034,235.4065,178.4263
-3484.3750,52.5834,41.1170,-58.6325,-31.9504,-229.8492,-85.1907,86.8482,-31.4717,125.7797,-34.8016,122.3070,-52.1954,-107.4101,-94.0806,180.7149,-5.7469,22.2589,-56.4965,95.8244,107.8777
-3476.5625,47.4845,66.0217,8.0658,30.4141,-309.0882,-55.3997,-30.6170,-111.4386,-28.3946,-5.4801,79.1209,-12.0740,68.3782,-27.9286,173.5091,-49.9463,51.6034,8.8165,-85.5512,100.5376
-3468.7500,127.7561,166.2079,-100.9622,168.0647,-128.0229,90.7050,-140.7713,-113.0696,-138.2540,-336.8594,225.2292,77.8749,-44.5461,-31.4735,60.6402,-17.8189,153.2259,252.4738,-159.6041,61.5078
-3460.9375,131.9800,180.4698,28.0916,184.7910,2.1667,146.9241,-232.7831,-278.5715,-303.0016,-245.1308,170.4442,76.3116,157.6221,-50.9294,41.9015,-109.5828,205.9347,200.2419,-317.5453,42.5810
-3453.1250,80.6738,180.3529,-42.2219,223.1445,41.0051,223.8013,-340.1046,-240.3928,-300.0902,-278.7230,63.2942,120.7968,122.4545,-13.7403,80.8490,-36.6821,173.2671,450.6794,-244.8198,44.3126
-3445.3125,149.4838,252.0196,-72.7724,261.2866,267.6618,339.4983,-298.5935,-308.3677,-331.3656,-458.5203,141.9526,158.2881,17.0551,-46.7557,-62.3826,-69.9586,317.3843,454.9546,-346.2739,11.8488
-3437.5000,128.9588,253.0150,80.0140,229.7536,161.6806,343.5549,-330.6906,-378.9717,-475.2844,-343.9440,35.9433,172.0435,167.0027,29.5723,-95.2378,-139.8759,249.8416,388.5806,-448.3716,14.7370
-3429.6875,165.6307,255.8950,-22.3280,270.0925,205.6043,424.5214,-433.8649,-224.6428,-467.2882,-410.4547,153.8208,203.9490,-84.1632,35.7990,-198.1619,-61.8716,255.1791,642.1490,-407.5474,-15.4685
-3421.8750,126.5383,119.6074,61.1591,207.2650,325.4104,434.3442,-387.1585,-179.4384,-457.4308,-254.1174,89.5622,127.9715,-38.4958,-30.1330,-153.2202,-127.9987,298.3623,509.5835,-434.8624,-43.8176
-3414.0625,55.9008,72.3904,51.7461,162.5193,278.3235,350.2551,-361.3358,-154.1265,-394.4723,-265.6608,-31.6001,129.3614,-13.7042,31.0326,-55.1374,-67.0169,182.6325,677.1277,-338.0762,-19.0546
-3406.2500,110.7674,168.2093,-100.6454,224.8232,420.3081,308.2222,-256.4440,-123.7505,-326.4600,-381.1746,110.3025,146.3686,-130.8813,-49.7508,-134.9761,-73.9612,209.9463,565.7598,-275.2328,-62.2308
-3398.4375,23.9951,66.7680,-53.3055,91.8610,282.0632,169.9483,-137.7809,-224.6235,-279.7029,-115.9405,8.9535,51.5049,61.7035,-41.7877,-52.0333,-66.1440,147.0108,328.1524,-232.6450,-90.6470
-3390.6250,2.2634,-49.3314,-98.6417,119.2336,200.1777,161.0373,0.2420,-50.1299,-105.5932,-162.3539,36.9417,42.1823,-95.3563,-52.4730,-61.7043,-2.9567,69.4085,391.9387,-63.7051,-63.7028
-3382.8125,-51.5293,-153.0298,-94.6118,-18.9936,129.7291,91.5396,187.6785,25.7727,44.9155,61.6160,-32.6516,-48.6905,-56.0295,-87.7635,-21.9582,-75.3564,72.2085,114.1502,44.6328,-61.3519
-3375.0000,-131.1089,-158.3308,-134.1869,-125.8402,-58.3109,-23.5543,330.5222,94.0705,150.8096,204.0028,-183.8589,-86.7468,11.7105,-93.6525,83.2227,-45.3403,-106.5973,78.7663,184.3633,6.4081
-3367.1875,-99.9090,-65.5376,-367.6878,-101.5924,39.7637,-73.5341,391.4717,154.4891,211.8029,6.4742,-13.9583,-49.7560,-111.4646,-70.4408,69.5295,50.7983,-115.3133,104.5222,174.1993,66.2798
-3359.3750,-170.9071,-146.4038,-302.8583,-110.0083,-6.7822,-118.1550,381.7866,34.2577,165.1441,144.3026,-132.7046,-77.5098,60.7142,-44.8866,170.2110,2.2815,-124.6717,-7.3671,131.3785,92.5081
-3351.5625,-189.1219,-203.0257,-357.8040,-58.1892,-26.0777,-64.5149,252.3569,125.2820,182.7274,87.3901,-115.2190,-66.6506,-32.8503,-29.0717,223.1731,92.0270,-107.7954,151.0334,148.8134,108.9951
-3343.7500,-103.3837,-167.2393,-281.3929,-55.9648,88.0562,-61.4500,255.3378,16.7292,75.7085,-20.1339,-3.3184,-92.5502,4.9598,-101.8587,225.5408,19.1949,70.4744,14.8674,10.6440,110.8774
-3335.9375,-145.1820,-115.7054,-226.2385,-142.0085,-114.0397,-79.6240,163.0886,34.9278,-15.5726,144.1019,-131.6819,-83.2936,95.5353,-11.8951,243.6731,72.1181,-51.5057,34.4568,-39.7855,164.5067
-3328.1250,-136.8576,-2.8683,-470.8172,-96.7653,-100.8110,42.5141,65.1556,194.4437,-3.5540,82.6132,-44.7431,0.7261,-112.6034,71.3706,145.1166,194.3633,-76.1878,152.3816,6.0903,139.4375
-3320.3125,-162.7250,8.4231,-343.9760,-84.0857,-122.0962,95.1134,6.6957,98.4184,-98.0864,207.5649,-177.3526,3.3251,121.7014,85.0805,197.0204,97.0644,-28.4185,-44.2430,-85.5836,116.8150
-3312.5000,-132.2613,-16.8835,-329.7616,33.9770,-144.9805,109.1200,-88.3419,74.8012,-84.2161,110.9302,-89.5878,9.6227,171.4155,24.1928,246.3532,72.1794,-15.2696,76.5510,-35.8537,129.5929
-3304.6875,-34.6260,-29.9830,-228.3862,93.2301,29.3631,63.3414,48.8424,-44.6002,-21.1434,-9.5257,84.3859,-21.0957,160.3084,-96.4958,199.9030,-48.4877,79.0815,-74.4298,-12.9206,82.5631
-3296.8750,-93.5843,-113.0320,-126.9615,-56.4839,-53.2197,-92.3927,150.1014,-126.9604,6.9691,92.0773,-35.6014,-95.1385,298.2685,-70.1435,264.5227,-59.0991,34.4846,-151.3665,13.0537,72.5785
-3289.0625,2.0121,31.7722,-226.7101,-50.3675,67.0601,-119.2778,197.2200,-117.4556,16.9338,-155.4751,121.2549,-43.0055,86.0779,-62.9370,163.0206,-14.8344,76.7266,-2.4290,21.8810,44.4436
-3281.2500,18.7787,80.0780,-135.9927,-70.7732,158.8689,-248.6593,251.8638,-211.4390,-39.6024,-29.5437,101.6212,-75.2787,249.3921,-120.2288,180.0395,-145.0500,91.4624,-231.9967,-68.7956,23.8092
-3273.4375,-44.8845,37.5292,-178.1525,-40.0511,79.8211,-289.8881,172.6667,-106.2616,-7.9942,1.5596,23.1159,-65.7807,279.8765,-90.3611,248.2438,-79.0962,-18.6688,-129.4135,-2.3228,54.3325
-3265.6250,8.6768,33.3378,-178.0135,-7.9864,154.1315,-253.7567,172.8234,-71.7123,28.9695,-72.9963,132.9658,-72.4511,204.6965,-129.1373,210.8175,-81.7652,84.5476,-235.4617,31.5060,16.2090
-3257.8125,-41.9347,-58.8946,-12.9484,-130.9972,-10.5999,-234.6808,117.9336,-162.2142,10.8772,129.4124,4.7595,-134.5388,332.4917,-76.9645,229.3721,-27.4721,100.7125,-357.5793,13.2759,-2.9611
-3250.0000,21.5602,-0.0200,-58.8154,-36.9295,53.7726,-134.5067,36.1385,-99.6023,1.8826,-64.0758,105.6468,-50.0037,101.3973,-13.6843,73.0573,71.9449,161.9616,-190.5761,4.1442,-13.0238
-3242.1875,71.8335,56.7209,42.1284,-48.0213,118.0269,-107.4762,-84.7962,-256.1301,-155.2716,-111.7220,132.3943,-42.5916,127.1451,11.4507,25.6037,24.2291,292.0645,-304.7281,-181.1502,-24.2325
-3234.3750,87.8728,139.7121,95.2994,38.1140,-12.4752,-91.1963,-251.4899,-277.4085,-249.1886,-168.0900,74.3716,24.9758,105.1676,62.8498,41.4274,38.7895,271.4152,-112.6389,-271.1989,-9.1824
-3226.5625,210.4525,301.3176,48.0220,165.8432,50.6297,8.6887,-298.5913,-214.0625,-333.5049,-326.8583,247.9463,111.6009,-53.2292,49.8581,-80.1317,25.9824,364.3585,-52.9353,-353.6357,-57.5291
-3218.7500,213.6029,343.4397,243.2167,105.0490,-83.7538,-51.9318,-360.1732,-313.2106,-431.3234,-169.1103,113.0155,78.4715,177.8871,23.3616,-31.1769,-36.3181,373.8032,-76.7620,-413.5820,-83.3794
-3210.9375,203.4779,355.1208,149.9314,153.7839,-30.5934,-36.0104,-343.1917,-187.8011,-341.5923,-298.8130,92.6234,103.4458,83.5613,-34.5756,-14.6456,-22.0521,282.7870,185.9694,-257.9860,-104.6738
-3203.1250,189.8927,259.4192,165.2005,25.1202,133.1873,-19.4816,-143.5973,-245.7844,-216.2655,-247.9402,107.8393,13.1269,97.8243,-130.9107,-36.5074,-117.1657,294.3712,58.3043,-175.7945,-163.3662
-3195.3125,67.9978,108.2257,157.9514,-124.0562,52.4694,-26.4569,-77.5061,-216.2800,-112.4430,-71.5486,-46.4673,-41.7386,163.6119,-66.7430,30.1525,-125.7701,146.4529,158.1309,-43.1073,-171.5563
-3187.5000,89.9510,178.3585,-20.0405,-16.9424,206.0587,52.8777,2.8879,-137.4702,-70.3142,-286.8783,69.5215,32.4439,20.6883,-62.2654,-74.8674,-85.0547,77.8239,267.2772,-75.1222,-240.4453
-3179.6875,49.3427,240.4763,48.8787,47.1082,164.6091,-24.8394,34.2457,-252.7169,-149.2447,-181.2560,-82.5445,67.1399,198.7195,-31.8311,-42.9257,-128.3771,36.1454,87.3588,-186.2007,-246.3910
-3171.8750,41.2716,287.8250,-85.0399,131.3474,68.3441,25.6429,11.7987,-202.7575,-98.9832,-315.4147,-69.4371,131.2990,137.9609,16.8158,-29.7755,-42.4741,15.6545,208.6450,-101.0841,-197.1383
-3164.0625,82.8877,233.6016,-66.6041,78.9863,198.4982,7.5323,30.7460,-294.3884,-80.3261,-333.1930,60.0784,83.5711,81.5899,-3.1243,-48.2296,-62.1494,139.5661,52.3386,-47.5839,-179.4912
-3156.2500,24.2371,90.5493,76.9660,-62.2363,121.8121,-32.4303,-82.1602,-333.8844,-45.5478,-153.8150,-17.2722,-13.0561,225.3941,-7.9017,22.4757,-65.6657,68.6260,89.1659,-46.9590,-109.6932
-3148.4375,55.5388,134.6752,-58.3587,-16.3144,245.2798,16.7567,-106.9307,-285.2248,-33.6317,-288.3022,105.5243,40.7818,15.3531,39.4819,-38.6548,-19.0014,79.8254,208.1577,-70.1926,-98.7385
-3140.6250,15.3370,187.1312,-1.4157,-67.1002,192.0632,-35.7597,-49.4116,-302.2781,-124.4266,-48.4998,-58.3692,40.2465,71.6217,58.1702,-18.4785,-36.0212,28.3342,-17.5764,-85.1416,-79.4799
