Time,Fp1,Fp2,F3,F4,C3,C4,P3,P4,O1,O2,F7,F8,T7,T8,P7,P8,Fz,Cz,Pz,ref
-4000.0000,-21.3063,-6.9076,0.3396,-3.7407,-21.9275,-42.1822,-66.3944,-7.9866,89.8672,70.0676,13.7868,4.0277,-12.1467,-14.6280,-24.5923,-2.8585,39.5390,-1.9474,-49.0636,59.2139
-3992.1875,-36.9719,11.6555,-9.4875,122.9164,12.1755,21.8278,-2.8744,94.7469,-210.9586,-11.1880,5.6703,-41.3272,16.3821,12.6336,2.6618,25.7546,-9.0939,53.6765,40.9122,-95.0683
-3984.3750,112.5313,89.2173,71.8432,96.7215,29.8265,-8.0080,114.8056,-7.3594,-53.6358,-75.2997,-96.2983,77.4617,61.0586,-53.9634,10.0621,-3.4874,-33.5780,-112.5656,-124.9666,-49.2073
-3976.5625,-10.6767,40.7084,-95.5547,79.8244,-35.1496,44.4553,-90.2288,-28.1610,-109.9889,-58.1002,-78.9748,93.5504,40.0351,72.7370,-11.2355,86.5755,-15.7640,116.5091,-3.5354,4.9684
-3968.7500,85.5619,50.3491,46.4903,70.3868,36.6155,77.3774,88.1938,42.5057,-295.9171,-96.4691,26.8083,-19.9208,-0.5288,-4.1169,-14.0707,9.0836,-24.5054,1.0327,21.3566,-144.4209
-3960.9375,43.2004,6.8114,-40.0732,-6.6527,-28.8986,26.6994,37.0225,-7.4260,60.5857,74.5689,-23.0199,-33.9842,-50.6921,-18.5766,-28.5067,32.9890,40.1545,-41.0564,-21.3631,-9.4039
-3953.1250,6.1681,-13.3821,-37.3130,26.6612,2.0387,103.3771,3.1858,107.0070,-228.5715,-67.0427,54.5114,-103.6956,-46.5109,58.3213,-24.5994,73.2591,4.1631,99.2154,118.2868,-115.0331
-3945.3125,134.8573,42.5036,22.1543,14.6726,18.9634,162.7586,135.0710,56.1415,-130.0338,-79.9640,4.7543,-43.7187,-23.6294,-29.0982,-38.9852,-13.7815,-42.1318,-53.8374,-35.3678,-90.9646
-3937.5000,-52.8664,-34.6076,-177.8048,-31.7270,-37.9062,146.7341,7.5490,76.8706,-70.8610,52.7254,-83.4053,-23.1444,-40.1424,65.0858,-54.7663,80.7843,-52.8244,145.7134,93.5870,4.7258
-3929.6875,7.4982,-20.6469,-108.6715,-6.0215,13.9674,179.8143,114.1308,147.7210,-293.6204,-96.4988,-50.4526,-99.4776,-6.5504,61.3763,-21.4435,40.4633,-61.4211,66.3692,153.6601,-144.4976
-3921.8750,38.6272,18.4462,-153.7887,-9.5643,-24.6365,132.6447,67.4699,28.3224,30.3909,-141.9765,-95.7580,1.9465,21.7918,52.3995,-31.3712,-42.1224,5.7354,61.7578,43.4760,-41.9669
-3914.0625,-44.6507,2.0444,-200.3285,48.4990,-5.9844,160.0724,-16.6018,93.5335,-235.0038,-186.8569,-31.4668,-44.0290,85.7352,42.0179,-3.7024,21.8897,64.4995,189.7634,205.9117,-123.8316
-3906.2500,152.9896,78.3127,6.0362,70.4716,31.3430,109.4013,116.2468,43.6541,-172.5129,-198.8564,-7.2678,-57.1119,72.5796,-118.4728,18.8745,-64.2049,87.1623,-104.3485,16.2404,-135.8114
-3898.4375,48.5751,63.8567,-110.6737,72.3951,-45.8909,-7.3206,-73.9592,-73.2835,6.9575,-128.9004,22.8715,46.7649,29.3768,-50.0088,-23.6004,39.6536,124.7767,-32.5029,52.5111,43.1679
-3890.6250,84.3611,92.2893,-33.1938,143.5285,5.2855,34.1670,3.0329,5.9964,-279.4061,-232.7559,66.2148,15.8309,35.3755,-9.3453,-18.8743,8.7136,90.5861,-67.4446,88.0015,-60.6682
-3882.8125,72.9185,89.9456,-86.9604,97.4132,-28.6785,-19.5913,21.7872,-119.9735,34.9900,-65.8599,-60.6974,108.6417,17.1199,-25.9496,0.6047,-44.4923,45.1501,-77.6507,6.2344,70.2430
-3875.0000,-118.2403,16.2531,-287.4515,116.6022,-52.4080,-0.0506,-31.1785,-26.6369,-90.3135,-44.6678,-3.3050,92.7499,38.1665,29.7501,20.3778,11.6153,-4.9785,82.4650,165.7851,55.4616
-3867.1875,45.3583,71.7481,-112.1832,104.5511,11.0308,-9.7501,141.6198,2.4669,-133.8954,-125.7504,24.8526,84.5966,66.9681,-52.8047,48.9055,-70.5298,-15.3668,-105.6828,-22.9057,-25.5907
-3859.3750,9.3058,30.9772,-194.5810,32.8399,-67.4137,-54.1041,-50.2162,-115.0842,117.9071,14.5201,-55.6468,112.7945,58.1259,13.9834,40.7891,-3.3305,-15.4093,-0.4847,-59.2430,114.7136
-3851.5625,-21.0031,-40.4260,-145.2493,39.8818,-5.7624,31.2946,34.7135,44.1322,-125.5610,-81.4728,30.6040,-58.2648,72.0395,62.5175,126.4283,45.6162,-148.7115,40.4729,17.2020,-18.2456
-3843.7500,12.8581,-56.3404,-115.7645,-65.9264,1.4408,24.8422,100.8214,1.5050,127.1230,-13.3253,60.9969,-26.1736,102.1051,-53.8059,120.2232,2.6989,-184.8700,-101.4433,-55.2075,86.9350
-3835.9375,-90.8909,-124.0555,-263.9049,-170.3315,-13.7102,24.7916,-9.6904,75.2862,55.2112,-11.7778,97.7882,-63.6753,138.5753,-17.7226,119.4188,75.1893,-147.6319,75.0495,156.7894,124.5233
-3828.1250,46.0190,-77.6854,-115.3918,-174.0718,59.7208,24.4059,210.4455,76.7318,21.9043,-83.6060,26.2488,-98.5298,139.6978,-89.9926,157.2705,-69.6727,-185.7433,-68.8132,117.4393,16.7432
-3820.3125,-20.3637,-75.2738,-265.1851,-205.1100,-15.2623,-51.2830,133.2801,1.8692,315.3147,99.2678,-121.5935,9.3215,100.5197,-129.5686,117.8179,-34.8323,-145.1489,6.0131,120.7831,162.6687
-3812.5000,-74.0003,-54.5884,-206.2423,-48.3889,14.4754,6.7869,118.8562,134.7718,-28.5543,49.8781,10.3036,-42.0825,50.0913,-107.3807,67.1150,-13.2312,-128.8028,57.6077,206.9004,39.3343
-3804.6875,47.7841,12.6470,-41.8864,-30.2630,16.9119,-47.7387,172.8545,43.0776,174.9654,31.8662,65.6009,-24.0924,-41.9340,-163.7985,10.8155,-141.2393,-5.0599,-135.4172,48.4106,58.3813
-3796.8750,-55.8340,-11.0490,-116.9546,-28.5339,-26.6435,-85.6663,-11.5545,5.9797,176.1019,32.4521,102.4955,12.4926,-41.3552,-90.6210,-24.8835,-67.6480,67.2853,6.1736,120.5308,96.0336
-3789.0625,104.1045,45.7825,57.5293,26.7577,26.4201,-59.0353,51.6056,34.4465,-88.2505,-85.4424,130.9518,-33.3861,22.7769,-63.9030,1.9749,-77.5160,53.1768,-114.6829,34.2201,-58.7872
-3781.2500,19.1043,30.6919,-0.9343,-22.9060,-34.3907,-79.3534,-43.1688,-60.0417,186.4697,41.7051,0.4502,92.7867,0.9541,-11.1444,-19.1171,-24.3398,75.1188,-93.5006,-50.0428,68.4416
-3773.4375,-43.4086,-2.7602,-25.9200,20.9343,-37.9255,5.8394,-141.4484,26.9827,-93.3285,-54.6533,13.4427,32.4556,14.6328,111.1262,-6.7033,62.3407,13.5556,20.2020,97.2203,-27.8358
-3765.6250,86.0381,41.8123,109.0539,-25.2673,0.2579,-6.0097,-7.7551,-20.0295,6.8014,-102.0749,2.3915,58.0672,3.2714,26.3407,-18.3330,-23.0354,2.9331,-132.1657,-19.5665,-38.1845
-3757.8125,-64.8727,-28.0118,-53.3388,-71.8168,-32.5004,-22.2122,-134.4192,-36.3934,66.6022,-43.8402,22.9811,78.3374,60.5622,83.2069,-34.3134,34.2476,-8.0440,32.1234,74.2983,57.1225
-3750.0000,37.8661,-38.2829,58.9145,-37.6996,52.6958,54.2447,14.5718,77.9110,-186.9915,-185.9754,64.2199,-102.7520,100.5066,49.7263,42.3644,1.1871,-114.3797,-38.9305,106.8257,-48.9411
-3742.1875,35.7727,-54.6164,-22.6715,-109.4348,11.6238,44.8518,41.7325,-3.6409,174.5765,-45.9785,-90.3973,-72.6910,55.6070,4.3819,33.1990,29.2621,-114.5641,-5.8579,-0.5036,91.1383
-3734.3750,-103.7274,-104.4478,-130.6684,-74.5670,5.3463,122.0647,-29.5166,110.4101,-41.2698,-5.3945,-123.4002,-143.0319,22.3108,6.6407,73.6340,106.9356,-113.1494,205.8294,210.7879,21.8159
-3726.5625,3.4970,-64.9243,-15.9502,-70.9876,45.0631,126.9852,159.9539,117.1695,2.5481,1.8630,-153.6940,-137.6805,28.7124,-98.4028,115.7717,39.2980,-146.0421,-2.7966,71.7831,-44.8259
-3718.7500,-112.2767,-86.2106,-179.2456,-80.4119,-37.7178,35.9041,-4.5726,63.9241,134.3899,133.1192,-134.0002,-43.3228,-24.8860,-40.4462,61.9106,95.6591,-119.9395,127.5819,96.7814,86.5381
-3710.9375,-56.6620,-64.6541,-80.1514,10.5764,28.5210,27.2320,95.3105,166.0998,-167.4076,14.7571,4.0994,-126.5756,2.9222,-51.0867,89.4571,50.4296,-167.4515,43.3703,117.2067,-31.7205
-3703.1250,19.9683,-33.5390,-41.0510,-53.4289,4.2392,-44.4381,133.2197,20.2779,166.7946,90.3853,-103.8102,-50.8264,-32.2622,-85.7388,91.0084,14.1909,-125.9736,-90.8601,17.6268,81.0063
-3695.3125,-59.8158,-60.1667,-163.3683,-28.8356,-28.6475,-19.4991,10.7236,84.0654,47.5916,80.6105,-151.1265,-61.4838,-6.8440,12.2199,117.1636,114.5615,-135.9104,74.5349,147.6672,71.3292
-3687.5000,51.9630,-22.5949,-5.1275,-20.6848,21.2330,29.0013,132.8019,96.4225,-12.0995,20.3618,-101.8930,-87.6110,6.1294,24.7227,55.8793,-20.5216,-128.3072,-59.5339,14.2722,-25.8230
-3679.6875,-67.4429,-68.4386,-136.0925,-68.7391,-53.9671,44.2948,-71.3095,39.5691,189.0341,110.9014,-47.8708,-32.9301,-14.0950,77.0207,-1.6054,-3.8113,-70.9006,103.1893,-0.3244,101.8315
-3671.8750,-90.1467,-63.7948,-42.3645,13.9213,15.2897,139.2996,-14.7276,98.4229,-156.1751,-50.8837,82.8617,-123.5540,-29.6185,61.0319,19.6124,-19.4012,-21.7934,116.6283,118.8009,-59.8320
-3664.0625,18.3618,1.0031,31.5830,-18.2008,17.9659,66.5145,95.0818,-47.5249,66.8062,-12.4910,10.7919,-11.9718,-28.9421,-48.7596,-16.9645,-18.8079,16.5058,-57.7516,-19.8790,-21.3187
-3656.2500,-30.1916,-3.5200,-93.5331,39.6357,-22.0804,51.6872,-30.1606,12.4808,-93.2590,-26.1537,-40.3446,-26.4323,-43.3148,47.4052,-68.5926,113.7392,4.7488,140.8353,37.4065,2.1419
-3648.4375,152.2109,53.0102,65.3031,81.4338,42.0988,63.8258,129.5646,62.4594,-263.4177,-122.8873,46.4674,-86.9504,-30.7400,-14.4810,-19.2639,16.2405,-59.0770,6.3694,-62.3358,-131.4776
-3640.6250,56.7214,-5.1159,-77.7689,-13.6659,-21.2314,32.0656,60.4047,-5.4615,74.5391,30.4746,-21.6293,-45.3679,-25.0597,-9.2713,-13.8315,21.8429,-48.8162,51.9954,-52.9839,-14.9993
-3632.8125,35.8208,6.4574,-57.2524,35.8440,-6.4162,88.9148,42.8487,125.2340,-234.9352,-22.5795,-1.1189,-61.1960,-41.7731,84.5467,6.2091,42.0468,-33.9694,101.2391,31.9881,-140.9348
-3625.0000,145.2424,65.0866,91.5873,40.6556,-1.0882,17.0731,81.6273,18.2339,-10.1333,17.6422,-71.3098,-21.7312,-38.1807,-23.3430,-27.4426,-28.4636,41.1624,-105.2371,-104.7426,-100.5884
-3617.1875,5.6098,20.1240,-21.6352,41.4185,-45.5120,-21.8186,-105.6411,16.1791,-10.3719,89.8116,-73.5649,-24.3090,-40.6414,10.7203,-67.1415,78.9720,113.2401,71.2500,1.4885,-28.2881
-3609.3750,115.5338,90.7073,135.7040,152.7395,-10.3064,25.8445,-21.3445,28.6856,-219.1010,-45.4936,11.7355,-50.3446,-102.5471,-15.6626,-92.2791,16.9581,118.8514,-64.7150,-29.7156,-163.4645
-3601.5625,96.9167,104.2737,35.4995,98.5060,-79.9194,-1.0478,-85.5689,-71.3682,49.6394,39.6474,-87.5343,71.0756,-164.9960,31.3946,-118.9614,27.3887,171.9021,-48.2482,-118.4747,-5.1965
-3593.7500,2.4392,74.1908,48.4353,145.4209,-47.5171,49.2114,-145.6344,16.7320,-192.4864,-19.0697,-73.6600,11.6434,-152.2887,81.6067,-68.4891,77.9747,183.0913,68.3903,32.9436,-63.7890
-3585.9375,139.3799,95.5967,192.7848,106.7477,15.6032,46.8836,35.7365,-58.7601,-82.2404,-57.4147,-112.3801,-27.3955,-80.1871,42.2198,-33.6163,-34.0495,179.6710,-110.5875,-147.2262,-102.0115
-3578.1250,15.4692,75.1381,22.2728,88.2319,-32.2694,23.7126,-61.7433,-44.1007,42.1638,-6.6164,-170.9667,59.7223,-103.9398,55.9935,-57.5952,16.0755,162.4016,81.5932,10.7609,-14.0895
-3570.3125,39.3595,70.5952,128.5725,113.5331,36.0136,93.3564,81.5801,100.3796,-179.6902,-83.0445,-27.7546,-17.3687,-106.8853,-21.4218,-60.7682,-23.9926,80.9201,35.5813,69.5610,-200.4003
-3562.5000,-28.1793,54.1593,91.4389,46.3916,28.0334,19.5536,154.4763,-9.5963,115.0019,28.0632,-27.0013,93.0934,-106.2733,-58.2953,-60.3890,-134.5188,84.9814,-31.9018,1.9029,-126.1746
-3554.6875,-166.8730,-14.4332,22.1446,48.1036,60.9240,24.6077,122.2182,106.2829,-99.4678,-39.9821,14.5884,24.4006,-27.8118,-17.3115,-19.1577,-93.1880,51.8814,110.4848,145.1198,-194.1048
-3546.8750,12.5989,23.4285,174.0204,16.9787,105.5822,29.8260,274.1359,75.3282,-92.8317,-107.9043,-53.6669,-7.1479,14.7981,-86.1828,59.2285,-124.7125,-14.0891,-131.9864,7.4917,-224.9113
-3539.0625,-104.5843,-37.7874,7.2396,-98.7965,19.3952,-26.6030,70.4066,19.7203,73.1647,20.5203,-72.5787,83.6640,-4.2432,5.3031,76.9661,4.1160,-24.7216,-2.1027,66.2124,-59.3667
-3531.2500,-24.9302,-22.1082,94.3113,-54.7112,77.8744,-13.1705,120.5313,70.9756,-243.0317,-75.2266,162.3696,24.3218,83.5731,-18.3527,91.5642,17.7947,-50.5199,-98.3602,40.8041,-154.9930
-3523.4375,101.0494,2.6742,143.7021,-104.3252,63.4928,-145.4374,96.9880,-98.4744,103.0760,-23.6981,139.6012,38.2764,133.6977,-150.7148,141.4733,-79.2413,-30.0296,-218.3415,-149.3118,6.6680
-3515.6250,18.4794,-30.8797,18.5276,-116.4844,36.9929,-160.2496,-28.1038,-75.4760,-20.3773,-0.7284,126.2622,23.6817,156.2729,-56.6174,126.8359,-19.8185,-7.1002,-55.8511,13.0410,29.7782
-3507.8125,210.2691,55.1085,186.7186,-64.2794,64.8372,-176.6958,140.1784,-90.1104,-34.5311,-52.4335,73.2711,8.4335,67.1943,-109.1606,111.5556,-72.0449,-24.8411,-250.0130,-76.2466,-58.7938
-3500.0000,120.0570,24.4869,9.9119,-119.0718,-36.6131,-204.1393,0.4758,-153.7523,232.3329,103.8585,82.2684,90.1922,-33.8819,-26.7074,9.2768,-26.2758,-9.5917,-129.1775,-60.5362,97.6275
-3492.1875,110.9929,-1.4757,43.2546,-56.7043,-18.7163,-99.4256,-40.0650,25.7681,-138.6892,-9.7171,263.4083,-23.9072,-37.8013,78.9003,6.1579,79.6431,-53.2099,-103.1761,-34.6522,-15.8229
-3484.3750,201.0512,47.4120,132.7186,-106.2361,-21.1111,-118.6103,-24.4762,-67.6088,63.3741,-30.2120,169.6388,66.0874,-21.6197,21.6074,22.1472,22.6604,2.2525,-258.0974,-190.6683,74.8069
-3476.5625,81.4502,19.1359,4.5203,-120.4194,-51.6756,-99.4426,-187.5378,-46.6319,9.7856,-9.3594,115.2068,122.4426,-1.0899,77.6804,41.4840,79.0347,-9.9455,-25.6527,-28.3182,131.7837
-3468.7500,183.5072,48.0432,152.9908,-89.9406,16.7953,-61.6146,-39.9225,-6.9897,-134.2014,-117.8824,154.4277,51.4315,1.0957,6.4042,44.4760,8.0549,-50.5092,-101.5616,-69.2995,-12.6237
-3460.9375,37.4756,-2.3356,69.3714,-128.5611,-18.5931,-69.8857,-85.3854,-89.4609,115.7199,20.4833,71.5344,115.3298,-8.8181,70.0313,-2.6282,34.9692,-19.1851,-35.5818,-108.3883,88.8644
-3453.1250,-112.9589,-60.9693,65.3474,-67.5696,18.1484,35.4568,-90.2568,54.6786,-181.8003,-55.5731,142.2352,37.8386,-11.1346,177.2783,-5.1317,105.4943,-63.2730,96.0206,57.1377,-61.0629
-3445.3125,-20.2785,-19.1600,162.4460,-80.4668,36.1372,58.9124,43.0016,4.9206,-10.2430,-31.5480,92.0257,61.4498,-24.3465,89.6258,-18.5273,-17.8894,-41.2811,-93.2959,-26.2447,-73.9136
-3437.5000,-161.0047,-45.4007,47.1324,-45.7629,1.4215,90.9696,-109.1413,1.7647,-13.0772,1.0820,51.4017,93.6637,-28.9539,121.5777,-60.3189,14.3294,-6.7051,115.9993,42.9838,-4.1645
-3429.6875,-12.8787,28.8183,208.6825,68.8006,66.1647,106.8886,-57.4173,17.4717,-291.1123,-204.4647,176.6314,35.7136,60.3000,63.3867,-45.2499,-80.5962,37.6988,-15.8533,-53.9217,-135.5938
-3421.8750,16.4156,64.3344,158.4011,97.5141,6.1409,19.9585,-143.5221,-105.6777,-8.9935,-106.8763,53.9955,95.9231,47.7038,13.3497,-58.0315,-94.3773,101.2429,-21.5785,-164.6863,-0.8778
-3414.0625,-69.9472,47.1812,71.4656,152.5813,9.0102,43.3796,-194.2746,-7.4714,-277.5474,-155.9440,40.6983,46.4813,34.4540,73.6751,-33.4595,3.1944,121.1278,138.0649,64.9240,-86.8197
-3406.2500,35.9637,87.9778,145.8133,117.8997,38.9133,45.0536,28.2583,-42.0150,-165.8797,-153.7850,-30.3506,85.2787,-0.5474,1.2419,-32.6280,-67.9945,86.2509,-38.0552,-76.2121,-121.5367
-3398.4375,-118.5270,35.2955,-56.2374,105.8120,-27.0614,27.3223,-100.6050,-58.9675,1.4057,-98.0227,-48.8135,140.6802,19.0527,56.4108,-50.1914,-12.5831,72.9625,125.4340,-18.7442,-28.6523
-3390.6250,-53.0713,35.9241,90.6671,135.6848,41.3657,100.5541,-27.4997,52.0479,-256.4037,-245.3227,98.6624,30.0274,18.6037,19.5432,-50.7966,-50.2180,-2.4040,49.8845,46.6945,-138.8440
-3382.8125,-22.3510,36.5005,77.8378,60.8105,16.1283,15.0406,-2.1110,-69.6891,28.0416,-109.3817,13.3646,55.6312,-29.5916,7.9266,-62.1482,-98.6037,63.4583,-25.4372,-28.6225,-2.7972
-3375.0000,-99.4884,27.2877,0.1510,91.0848,-3.9666,46.6810,-80.5743,-0.2714,-160.3778,-76.3037,-27.7805,50.3837,-70.6336,76.4764,-66.3430,-28.8289,92.4529,109.4057,141.2232,-43.6044
-3367.1875,96.0889,76.5326,168.1930,40.0656,43.9443,-4.9731,88.6888,-51.1476,-100.1418,-90.5530,-42.2214,35.8284,-47.9631,-12.2713,-7.8296,-117.3617,77.1264,-118.0623,-16.2296,-94.7373
-3359.3750,20.9676,12.2217,9.5412,-70.6534,-29.3939,-53.3254,-33.7447,-98.7369,183.4045,8.4984,-126.3891,61.5851,-59.9955,50.2954,-19.0155,-18.5938,37.0875,17.7752,14.6133,41.4316
-3351.5625,23.2917,-5.2168,55.3405,-31.9098,31.0211,29.7882,49.2737,22.1401,-137.6485,-92.0161,-7.1194,-39.2050,-49.5821,59.3295,-9.7521,-9.3608,-30.5198,56.0808,87.9249,-95.9720
-3343.7500,59.9382,23.1774,87.4614,-65.8597,22.6727,-10.7891,118.6220,-54.6848,116.5927,14.7547,-48.5617,30.3014,-90.8681,-55.3451,-13.1847,-86.8389,6.1557,-84.3313,-16.4730,10.9107
-3335.9375,-73.3711,-13.5299,-15.3725,-57.7632,23.4893,-40.3105,16.0237,-46.4612,14.8791,-14.4268,-76.9616,37.8549,-46.0993,-10.9663,68.4411,-42.2657,48.8654,99.3274,131.1928,18.8461
-3328.1250,29.9288,27.5972,134.4216,10.9409,86.0926,-73.2204,166.0535,-79.6297,-18.2762,-158.0316,-36.7594,3.9994,31.2723,-80.9821,144.6732,-75.0973,46.1558,-79.4223,23.4650,-124.6451
-3320.3125,-29.8193,17.2680,-6.8263,-13.4120,17.5144,-105.1851,61.0531,-182.8605,209.5382,-4.6834,-104.6334,83.1078,0.5880,-76.0395,76.8567,-69.9767,56.3846,71.7736,-1.3173,-8.1899
-3312.5000,-64.2232,-12.8442,37.2805,23.5922,86.5250,-23.7928,142.4111,-64.7303,-113.3354,-70.9927,-24.1756,-19.4391,45.2559,-31.7300,48.3921,-98.4954,-13.0522,108.3368,140.2676,-147.4036
-3304.6875,18.9939,-13.5201,122.0165,-33.7954,104.7397,-48.7924,227.3900,-125.9996,119.3697,-22.7201,-49.1273,-44.3900,93.5269,-93.8258,59.5341,-161.4217,0.0967,-54.5185,-22.5555,-99.0348
-3296.8750,-134.7409,-73.9662,-4.2009,-11.1370,46.1831,9.2565,-8.5892,-66.2202,31.1290,-0.4013,9.9595,-59.2852,115.8452,38.1366,7.7309,-28.2881,22.2803,143.6940,70.6809,-76.6120
-3289.0625,-84.3199,-43.8798,128.7495,74.6788,105.6821,105.4633,124.6022,-7.2827,-203.0018,-124.9461,68.2026,-111.0341,101.3129,60.2558,-5.9156,-43.0040,1.5918,52.0563,49.0736,-238.0677
-3281.2500,-109.5903,-39.1342,-13.9882,14.7897,-2.0934,110.9681,19.1200,-38.0547,97.1797,27.8134,-0.2737,4.5306,33.0815,102.6754,-74.2577,-1.4253,47.1875,62.7064,-11.2436,-122.2269
-3273.4375,-113.6212,-58.0206,-14.4755,46.1600,30.9792,146.7364,18.8869,109.4291,-197.4191,-46.1879,73.4847,-106.6563,33.1049,101.3614,-38.3492,35.4096,8.0137,129.6272,126.7122,-196.1469
-3265.6250,35.7115,-26.2326,101.4172,-15.1158,52.1936,79.8630,135.0322,43.2674,-6.6956,-39.8553,5.5838,-136.4964,2.4776,-2.5995,-32.0878,4.5877,16.1720,-39.1128,29.0169,-152.7371
-3257.8125,-162.5606,-108.2731,-72.2955,-36.9952,-0.9272,89.3969,-2.4221,53.5053,40.4383,80.8842,-57.9388,-126.9287,-23.7588,154.8576,-95.4284,125.1699,-6.2870,185.5592,147.7280,-68.9243
-3250.0000,-76.6340,-53.2826,59.2027,49.3291,70.8635,111.1434,204.3405,149.9637,-157.2661,-44.1910,0.7296,-178.1751,-75.7957,65.5227,-73.5620,36.9577,-25.5746,25.4434,163.6566,-193.9345
-3242.1875,-9.7941,24.0315,45.6148,45.5417,30.0241,-50.2064,153.0305,-47.6859,196.9405,88.6298,-50.7197,-8.5214,-52.9304,-131.9135,-50.7900,-88.3541,75.0202,-84.7865,-16.5237,12.9509
-3234.3750,-45.5692,14.2499,82.4232,116.1513,65.5294,-86.1507,7.1226,-45.9300,-22.4745,-57.1551,97.2187,-44.4655,58.3351,-131.9332,24.3856,-87.2556,74.0066,55.4082,17.7146,-22.7698
-3226.5625,99.1703,29.1428,234.7599,49.2690,127.8776,-117.5889,159.7446,-150.6677,19.5779,-88.4523,139.6497,-75.9146,101.0977,-199.4472,103.0657,-191.6613,42.4771,-116.9092,-119.5509,-54.0151
-3218.7500,-75.5427,-32.8717,-26.3523,16.9310,32.7506,-83.4784,-28.0847,-151.8686,127.1989,18.8081,25.6118,-5.8028,98.4036,-56.4015,63.2964,-84.5056,8.4910,131.3272,-12.2691,53.2926
-3210.9375,-98.2539,-38.9115,-6.4454,64.5993,42.1912,46.6406,66.1026,51.9431,-183.2210,-70.9444,82.5650,-22.7009,44.7125,37.6524,46.5299,8.6525,-119.5116,38.5688,71.0222,-110.4212
-3203.1250,-85.1911,-69.8047,-34.7624,-26.9838,-14.7416,18.5055,38.0670,24.4888,120.1137,84.0470,-19.7454,-13.8445,16.7736,46.4557,18.5190,90.5463,-140.7733,-54.4611,-20.9537,8.6081
-3195.3125,-173.5394,-124.2793,-128.4825,-10.9592,-8.8062,35.9718,-55.3786,115.6283,-82.9678,64.6347,34.5364,-107.3699,70.4348,99.8760,36.1077,145.0471,-160.4381,102.1306,170.6774,-10.7634
-3187.5000,-47.5309,-101.0660,8.1797,-59.5736,45.6545,61.8016,154.5430,106.1233,-19.7422,54.5537,23.1649,-117.5457,60.4466,52.6520,62.0504,23.8938,-244.7673,-51.9401,86.6572,-94.8082
-3179.6875,-144.9266,-106.9503,-172.5539,-87.5918,-45.8303,27.2323,10.0691,71.2071,204.1055,167.0806,-157.6344,-5.1113,26.0618,91.0326,27.5919,99.3394,-203.5066,95.5919,128.2322,17.7539
-3171.8750,-118.2250,-83.4015,-65.1803,11.4879,26.1958,99.7705,82.6983,181.4020,-164.9873,55.7031,-123.3351,-79.5831,61.7794,126.5289,63.2349,61.8943,-212.1653,88.2433,155.9261,-130.6010
-3164.0625,-28.2024,-38.4637,23.5209,-4.1373,16.1686,40.6137,96.6548,48.8936,107.2194,106.6187,-72.7435,-28.7560,39.7928,-5.6738,4.1807,2.7483,-122.5454,-68.8290,-71.0893,-5.6676
-3156.2500,-100.3955,-54.4743,-92.9891,29.0293,-13.2390,-2.7425,-56.5927,44.1895,28.2298,64.3355,31.6246,-35.1145,33.6017,24.9439,-2.0748,33.4208,-89.1389,104.9199,32.7046,62.0696
-3148.4375,68.8196,25.2566,87.9237,93.6045,34.4914,32.3093,51.5861,41.8929,-84.4030,-11.5625,29.3803,-74.0785,-5.1907,-88.0341,33.0752,-79.5080,-61.3474,-40.9339,-79.0974,-13.8167
-3140.6250,-0.9530,10.1989,-28.1454,59.1694,-40.8684,-46.6400,-100.2216,-72.4204,203.9821,129.5472,-123.8774,29.9664,25.0184,-56.0166,26.2257,-47.4430,-60.5665,29.2024,-77.9176,127.3037
-3132.8125,-30.6272,-21.4802,19.8936,99.8325,17.6865,0.5151,-52.9377,12.3662,-115.5632,30.7474,-77.0271,-68.8897,73.3268,28.1132,38.4784,-0.2673,-126.6949,69.4558,32.3741,-8.4828
-3125.0000,49.1704,-10.4266,100.4078,39.9447,34.7495,-28.8778,65.8199,-90.4035,150.3281,38.3895,-141.7402,-61.2872,82.0781,-38.3007,46.1847,-66.6445,-116.3885,-96.8561,-98.8969,36.1679
-3117.1875,-69.0401,-23.2434,-27.0852,62.0554,-15.0654,-45.2738,-97.4232,-69.1771,97.2325,21.0422,-85.4798,-4.6735,27.8249,55.3020,-8.1106,26.9857,-60.0900,100.8426,-7.1627,92.8244
-3109.3750,45.5457,39.2550,63.2442,142.9696,1.0868,44.1370,-44.8493,-15.1405,-180.1016,-109.5152,40.5802,12.7309,44.3735,71.7124,-27.5972,43.4183,-87.0089,-29.6584,-137.6185,-37.7417
-3101.5625,3.5872,35.6367,-59.9569,101.3201,-76.0753,30.9939,-167.8040,-100.6623,64.0311,61.3880,-9.9286,109.5881,31.3707,58.5656,-76.6285,30.3038,-57.4858,33.2780,-178.6387,96.1439
-3093.7500,-20.8352,-17.6162,-45.6083,76.2211,-14.4285,82.4003,-117.2145,60.3689,-177.3120,-34.1597,-32.8909,-60.0019,46.9204,72.9842,-26.1083,118.7501,-84.4170,149.7844,6.9020,0.5736
-3085.9375,98.9131,26.1604,43.9226,21.2771,-6.5074,61.9612,46.5511,4.5465,-14.5253,-17.5722,-162.7088,-43.4377,-47.3840,52.5504,-9.4393,98.3354,-34.2086,-11.5751,-84.4178,-19.8626
-3078.1250,-37.3981,4.5611,-65.5968,26.2764,-60.5560,26.4754,-134.7358,42.6651,23.2289,56.9803,-125.6030,31.0872,-46.7438,54.0743,-45.8270,135.8735,3.9469,98.0324,26.2161,54.6612
-3070.3125,64.9388,53.2037,157.5470,57.9307,28.1411,27.6523,-60.3545,81.4455,-195.4096,-51.8312,95.1477,-3.7487,-7.4538,-128.7387,-43.5621,-8.9339,35.7356,-45.6999,-12.4883,-54.1840
-3062.5000,135.6812,87.5577,149.1030,22.9750,2.5157,-89.7665,-67.5554,-72.3818,164.3631,49.7621,-22.7029,23.8195,-15.7643,-173.1469,-50.8952,-90.3410,175.9115,-116.0403,-117.8070,121.3672
-3054.6875,100.5547,88.3267,76.8037,94.1683,3.8962,-88.0290,-102.6182,1.9501,-90.7279,-22.4833,-95.4145,-47.4564,-50.9274,-61.3867,-50.0784,-16.5883,210.2268,23.7925,22.0375,86.0627
-3046.8750,266.2475,161.3467,178.3281,119.1617,19.4388,-61.4794,35.1440,-79.9066,-64.0462,-67.9309,-104.3504,-19.9322,-96.2990,-70.8259,-59.4637,-134.0393,200.3294,-125.5909,-127.3183,40.5393
-3039.0625,66.8356,90.7432,-34.2544,132.0420,-70.5308,-16.0328,-177.1959,-70.8708,53.5636,49.5435,-134.4144,24.5045,-88.7750,10.6400,-87.9509,-16.5858,176.3215,60.9333,-80.7764,157.9287
-3031.2500,24.3706,63.7102,73.1206,159.8646,20.7290,55.3678,-69.5771,74.1262,-240.9108,-62.0452,9.4745,-14.1126,-17.2981,-27.9360,-53.4826,-56.1666,27.2478,53.4211,-18.2738,9.2534
-3023.4375,59.3158,59.9881,-4.0755,89.0816,-25.0998,51.1704,0.4677,-39.4871,49.0211,44.7663,-67.2434,92.6762,-21.4244,-32.1178,-56.6151,-23.3532,-114.4392,-17.7053,-88.3844,78.9732
-3015.6250,-21.7044,28.2298,-158.2277,149.3431,-78.2979,153.0288,-81.4426,63.9469,-105.9978,36.6361,-112.9255,84.5210,-66.5038,106.7561,-65.6984,79.5122,-265.0774,184.2306,6.5682,33.7500
-3007.8125,161.7387,86.8117,34.0950,192.0521,-11.3679,163.3353,76.1229,36.8282,-133.5943,9.9453,-105.1637,20.8062,-19.1246,-29.9222,-55.3246,-58.1743,-294.2745,-20.3980,-128.0278,-30.0390
-3000.0000,83.2808,55.4100,-53.4772,114.8441,-74.3614,73.7315,-85.2017,-50.2054,71.9434,67.3706,-120.3201,78.2009,-70.6409,101.5004,-69.8481,0.2407,-196.3758,42.0667,-99.5368,138.2831
-2992.1875,94.2606,42.8985,-0.5977,125.0836,-22.8222,90.5873,4.9223,40.2239,-204.0993,-62.7562,5.9681,-14.9558,-91.7136,118.3900,-53.9183,90.1157,-187.0383,17.9970,-18.5792,8.0478
-2984.3750,228.6074,100.3825,61.6522,84.6664,-30.0002,5.7945,67.4137,-80.0000,78.2082,-0.5278,-41.4033,47.2470,-101.4395,-39.3735,-63.6394,5.3424,-158.3582,-128.7448,-165.2887,107.1589
-2976.5625,143.1962,50.0069,-66.8582,68.4897,-62.9304,-11.7465,-134.8586,-24.9769,-50.2216,-18.0357,48.4586,28.7100,-9.9183,15.1218,-46.1113,96.8329,-174.4341,30.7831,-75.7460,161.5325
-2968.7500,305.9849,100.9311,106.8537,91.5152,1.5394,13.9199,-34.9195,-71.7469,-207.4910,-175.3548,148.5252,18.3695,52.8060,4.8278,16.6220,50.5238,-223.3186,-122.4908,-194.0041,78.0899
-2960.9375,168.5706,45.0698,-79.6200,-9.6711,-84.9449,-61.6143,-146.1812,-146.7299,84.0622,6.1339,108.3851,125.8411,51.3293,76.3324,-21.8477,121.0108,-185.4067,-82.9694,-190.4770,222.4581
-2953.1250,81.6364,23.5035,-91.5962,42.6399,-64.9889,-37.6387,-121.9530,23.7963,-185.9095,-43.8743,94.7375,76.8038,37.3464,173.3535,1.1783,146.0082,-202.9997,-64.9175,-32.4258,99.3206
-2945.3125,205.8675,80.1370,-1.3990,27.0928,-66.4786,-56.5043,-67.5475,-67.5273,15.2621,10.2696,38.2196,93.9104,18.5100,7.5205,-16.6434,52.1572,-114.4489,-222.7308,-188.2316,153.3188
-2937.5000,83.0442,47.6647,-95.2546,10.4824,-97.7076,-77.4256,-235.1946,-50.9113,-4.5939,63.3746,17.6328,109.9773,-1.3708,60.6421,-37.5156,142.2587,-26.9513,6.4152,-100.0882,206.2811
-2929.6875,171.6681,76.2123,41.3558,64.3253,-20.0559,-51.8955,-62.3757,-61.8368,-162.0442,-94.0830,42.5079,26.4926,24.1996,50.2214,25.0650,58.8084,-10.0121,-114.9852,-116.4901,48.6761
-2921.8750,138.5909,92.0562,-35.7209,66.4657,-66.0612,-55.0631,-102.2477,-174.4803,126.8284,12.7672,-108.3194,95.3265,-15.9397,10.1051,-15.0663,54.6491,62.2319,-78.0951,-149.6118,191.3742
-2914.0625,23.2946,37.7740,-77.9992,92.4084,-28.5693,-24.4233,-106.3290,-33.3252,-171.5172,-30.5773,-5.3513,16.9688,14.7165,77.8061,-21.4046,86.2977,16.2787,52.6124,51.0775,75.8692
-2906.2500,113.9148,23.5678,16.6506,6.2518,-6.2279,-39.8813,24.5139,-48.2689,-3.9784,-9.0254,89.5113,1.5064,36.2747,-11.6003,0.1642,33.8410,-69.7841,-138.8017,-104.3424,60.2520
-2898.4375,3.5757,-21.7062,-140.6573,-67.8723,-71.5659,-87.2919,-169.6012,-58.1701,94.6370,17.5955,113.4059,64.1002,25.8880,51.0464,26.7895,95.4436,-39.8020,32.8391,-74.7138,195.7031
-2890.6250,19.3853,13.0848,-8.8059,18.1475,4.5010,-28.5457,-37.5647,38.0924,-138.6349,-70.6360,62.4542,12.8325,10.6506,-0.1484,48.5692,45.2036,-24.6742,-22.3610,-23.9248,71.2935
-2882.8125,-3.8896,34.0516,-1.0403,-4.9479,-19.2709,-93.9029,7.3819,-26.7573,199.0116,120.0392,-114.6000,93.4698,-54.6979,-28.4451,-16.7532,15.8565,55.3520,-46.6761,-83.2493,151.7941
-2875.0000,-133.4288,-28.5315,-58.5340,41.6948,-13.1140,-77.5140,-49.9350,100.1423,-5.5966,136.4752,-25.9065,-0.1379,-39.3042,24.0174,-1.3319,69.2716,32.1268,70.7845,69.1923,58.0549
-2867.1875,39.1375,0.4164,51.0962,-32.5695,39.9387,-116.0149,169.8721,25.1476,102.8698,62.0011,8.8876,-38.6460,-40.8115,-124.4201,71.1896,-43.2181,-7.0056,-142.6611,-4.2708,19.4016
-2859.3750,-93.1585,-49.7531,-131.1271,-93.6936,-1.3184,-150.3673,97.8214,-45.7074,288.5151,99.6976,-136.1909,1.0068,-38.1703,-48.6964,71.8569,32.4527,35.0137,6.0491,73.4049,167.9111
-2851.5625,-60.9164,-40.5463,-53.7985,-61.2694,49.7304,-110.1618,213.3186,68.9987,-38.3167,-6.0523,-60.7209,-32.7969,-71.9864,-8.4138,77.0760,73.6859,-73.4181,-32.6805,141.6461,24.9583
-2843.7500,13.6845,-21.3342,-53.1048,-126.5060,19.0555,-147.6082,212.1846,-40.9519,255.2190,140.5569,-60.9080,39.7521,-34.4542,-118.7900,38.6483,-0.7324,-69.4983,-133.0848,-28.7821,134.3566
-2835.9375,-92.6809,-80.9539,-165.3690,-127.7062,-4.5665,-149.0103,64.0887,30.1413,143.8074,176.2297,-26.0435,-33.6458,0.1305,-46.1094,74.2706,70.9061,-35.5253,40.5813,109.8472,132.8183
-2828.1250,-19.3386,-74.6694,-9.9111,-194.2071,38.1301,-103.7029,183.7110,76.9315,115.0630,147.5883,17.5299,-63.3491,-28.5747,-111.7345,83.6002,6.2351,-33.8508,-130.0596,78.1676,30.9658
-2820.3125,-120.6966,-113.4238,-158.1523,-296.4127,-6.5886,-142.0919,108.6302,1.9970,334.6462,256.2542,-94.6124,9.2596,-28.9833,-39.0557,81.2272,4.8640,39.1327,12.5991,116.7708,139.4282
-2812.5000,-128.2236,-119.6753,-83.5462,-267.7623,58.2601,-30.6189,184.3851,113.9156,41.0495,147.7659,-131.9043,-63.2845,8.4513,-38.5072,82.7024,6.3552,-3.0321,76.1220,215.2401,-43.2628
-2804.6875,-70.8465,-123.4585,-26.0221,-315.2227,55.2227,-47.2440,315.0538,61.7308,319.3595,278.1830,-258.2938,-79.9223,-45.2155,-128.0606,67.0772,-10.2592,-52.2931,-77.4765,96.5936,13.9441
-2796.8750,-251.5803,-187.3380,-216.6046,-321.7982,-10.8160,-54.9722,160.6080,164.4376,275.5831,344.5120,-302.7895,-86.6511,-88.9808,11.2983,22.3466,93.0350,-23.6469,127.8400,231.8532,43.0635
-2789.0625,-106.6055,-106.0972,-96.4681,-245.6767,41.4715,-6.9972,318.8732,175.8542,138.4722,207.5242,-256.5808,-39.6799,-42.0499,-14.6357,69.3170,-43.9714,-88.3028,-42.1494,96.8128,-57.1330
-2781.2500,-144.2092,-103.6414,-180.9280,-284.1715,8.1824,-18.6266,196.5378,53.6572,383.7816,269.9509,-231.9789,58.7029,-16.7303,-136.1705,57.6767,-91.5822,-56.5590,95.2527,22.1552,115.0859
-2773.4375,-235.6145,-139.9467,-124.1930,-199.4689,66.1427,38.9466,144.3816,148.6656,-36.7318,143.5837,-103.1684,-30.7226,40.7890,-42.5067,78.2290,2.0137,-79.6128,179.8827,177.7092,-11.4918
-2765.6250,-81.5542,-50.1826,1.0131,-185.3239,50.5910,52.9755,195.6842,89.1167,87.1925,47.6680,-198.9037,57.2925,-19.2389,8.6044,56.2309,-20.9464,-30.2114,-17.0517,15.7010,2.3714
-2757.8125,-203.1586,-49.5985,-128.4351,-131.8448,-24.8754,69.3543,-8.6836,69.9085,104.4916,64.1250,-256.2982,110.6653,-75.9198,99.0726,-1.4198,69.4548,92.5486,141.3709,139.0449,55.6008
-2750.0000,-63.3192,0.0502,23.5804,-96.9228,38.0129,75.1817,145.4076,113.1594,-73.7821,33.0344,-251.2332,42.4791,-70.1587,-6.0114,41.3875,1.3085,91.7653,0.2410,103.8461,-85.7280
-2742.1875,-42.6300,-20.3922,-33.5469,-216.1632,-22.1771,-19.1530,51.3631,19.2470,236.8311,196.8012,-272.3227,96.1505,-54.5505,-26.2582,21.0424,-18.9920,111.8412,-14.0509,19.4846,40.8058
-2734.3750,-54.8640,-58.1193,-5.5867,-193.3054,3.7618,8.6157,-31.5907,157.4369,-67.4650,76.6753,-100.3125,-24.0743,-26.8414,74.6014,11.7989,44.8149,63.0226,78.7821,147.2359,-42.5592
-2726.5625,40.9607,-19.0779,58.4371,-202.4004,-8.6992,35.4414,32.5266,111.6747,33.2752,104.5946,-219.2491,3.7500,-73.0818,28.5090,38.6025,35.6669,53.2544,-35.3520,32.0339,-51.8894
-2718.7500,-154.7775,-58.8949,-149.1034,-188.0590,-90.4176,47.7191,-137.9129,123.3479,155.4936,263.9854,-355.7406,89.0344,-97.8802,40.8714,13.8486,120.9709,67.9489,190.9692,117.2833,33.2457
-2710.9375,-108.5739,-38.4512,16.3168,-106.7726,18.3564,103.9513,-9.3995,179.9781,-119.3654,62.3189,-264.2731,-2.7503,-5.7265,-13.8091,70.0470,30.2290,78.6001,131.2433,93.4962,-131.6789
-2703.1250,-27.8610,-19.0410,58.2538,-131.9996,-4.4610,35.6823,-40.3652,39.0903,143.2969,31.1549,-185.3092,39.9675,-0.0722,-7.9921,38.7464,-1.0221,87.7611,35.9969,-72.8115,-16.0992
-2695.3125,-52.5164,-30.6997,-2.1716,-86.5842,-22.0508,47.0642,-174.6971,87.8479,-139.3865,-30.3469,9.3070,-21.6605,-24.7694,77.4862,14.0909,84.3811,133.5768,152.4192,43.5420,-40.8594
-2687.5000,101.9875,46.3172,198.5742,-37.0247,45.6752,27.5955,-10.8654,-5.2425,-121.9364,-49.7033,-11.9176,-5.1433,28.6887,-51.9031,30.5908,-45.0747,146.5491,-80.0255,-82.9565,-97.4801
-2679.6875,-23.6142,-7.1689,26.2082,-91.5861,-20.5153,2.0130,-145.1373,-67.4481,73.4504,34.8612,-147.2498,43.2790,40.0508,32.6040,41.9871,39.3748,162.4319,76.4312,-67.5607,23.8185
-2671.8750,-33.0780,-20.5710,96.9866,-31.0103,46.6575,109.5885,-75.2605,40.5068,-261.0395,-115.4279,-78.4214,-34.1607,110.5656,66.2755,75.5321,35.9857,81.4651,67.0552,-6.9972,-126.7424
-2664.0625,26.0822,7.4470,117.3807,-77.8484,-4.7670,92.7664,-91.7713,-48.9527,53.0772,-21.1188,-58.9836,60.0012,56.6774,13.5361,-14.3259,-53.8131,69.1090,-49.7456,-123.8504,-32.7029
-2656.2500,-54.4539,-18.0258,-2.9358,-52.3951,-44.6333,119.2360,-211.0036,14.8702,-104.4985,-31.5068,39.7572,49.4736,10.0798,113.1025,-61.8936,9.6949,58.0731,115.7637,6.6035,-43.3501
-2648.4375,130.1927,8.1503,157.9184,-78.7901,28.9344,96.8514,-14.0881,28.8373,-126.9552,-164.7572,90.6593,-46.9051,60.6265,16.8054,-11.3129,-13.6556,-2.7972,-86.5903,-54.7974,-139.8609
-2640.6250,16.3590,-43.9345,33.2777,-156.6934,-14.4594,7.9547,-102.6906,-59.7248,115.1115,4.4991,38.0655,12.2309,81.6718,38.9946,-26.2380,45.4851,22.8538,10.5509,-27.7168,-7.8583
-2632.8125,-31.1841,-61.3688,25.9316,-99.2892,10.4859,74.3704,-72.0217,118.0160,-186.5554,-39.9561,103.7811,-68.3326,38.0170,68.4945,3.1367,37.9300,-25.1771,69.0101,100.6752,-125.5641
-2625.0000,78.0846,3.5303,63.4020,-96.0863,-18.6789,37.5973,-34.5485,8.5545,34.5777,-1.6129,-6.7024,5.9067,2.1570,-4.2037,-32.6942,2.1619,13.5983,-67.7511,-36.1447,-51.4759
-2617.1875,-43.2171,-45.6538,-64.6961,-77.4445,-44.3607,20.2777,-162.6441,-9.4632,-19.8198,-19.8018,84.2650,-12.3971,20.7417,87.5578,-51.0806,56.8543,31.8348,126.9478,52.4932,-32.9203
-2609.3750,53.1276,-34.6942,114.8674,-86.1542,31.8204,52.6114,-20.0823,23.1781,-171.5948,-97.3428,226.8949,-54.0641,52.9785,46.9670,-18.8154,-20.8011,-48.2765,-23.7057,-27.2125,-147.7249
-2601.5625,3.3638,-52.6716,-54.6674,-170.9776,-67.6454,29.8422,-115.6152,0.7028,99.5625,27.0274,203.4197,34.1768,-43.8807,97.2715,-78.6506,30.4356,-27.4717,-2.4667,-6.0277,13.3851
-2593.7500,-10.8881,-70.1250,-99.6617,-150.2531,-58.8542,57.6324,-124.6116,139.7809,-166.7436,-92.0524,230.5060,-48.0317,-52.1930,199.1338,-49.9356,132.2266,-42.1040,89.3449,155.7275,-105.9510
-2585.9375,54.5030,-59.3481,41.0097,-154.8826,27.6011,14.0764,90.0654,22.5069,47.5967,-98.4920,223.2523,-91.5952,14.1439,8.6404,16.4398,-21.3376,-12.0751,-91.2175,-24.8707,-75.6390
-2578.1250,-111.3311,-152.4405,-101.5309,-180.7266,20.2225,-18.6877,-16.4694,-9.9736,124.7722,-21.1107,226.7967,-160.3605,92.2833,12.9449,57.6175,-18.0960,-3.2344,58.0338,89.3357,38.4942
-2570.3125,-23.0310,-110.1757,34.0816,-162.4294,70.9746,43.7051,120.1529,15.7047,-106.9296,-142.5822,288.5048,-135.9936,80.5832,38.4048,45.9552,44.3053,-55.2443,-98.5602,73.7027,-83.2326
-2562.5000,-46.3347,-67.3641,-68.8991,-149.7436,-38.0330,-22.5107,54.1784,-50.2315,157.7958,12.3588,184.6150,55.7786,-22.7065,156.2544,-57.3009,89.1045,-43.8430,-156.7785,-55.5522,34.4536
-2554.6875,-112.5588,-95.0628,-132.7944,-74.9670,-53.9588,23.3630,-46.7142,69.9276,-90.3766,58.4028,266.8453,-45.3459,-12.8948,166.2037,-47.4524,135.0155,-4.3281,-46.8892,54.2992,-66.7448
-2546.8750,52.1741,-31.2415,114.2790,-51.2443,50.7070,-23.8218,126.3544,-50.9696,8.3902,-25.6097,365.0409,-93.5222,11.8667,-65.9106,-21.6506,-60.1328,55.1485,-199.0671,-96.9028,-77.9948
-2539.0625,-38.3110,12.5157,51.1359,34.2642,27.2525,-14.2153,-83.7890,-187.0812,55.9887,-161.8018,375.0323,27.1072,22.4279,-56.2229,-49.0495,-86.4826,210.4414,27.5647,-82.2999,42.5770
-2531.2500,6.3912,110.2400,142.1912,219.9680,49.0623,77.6013,-29.7297,-132.9843,-257.2394,-327.7973,355.2346,81.9182,-33.8076,-1.3262,-104.2456,-105.6270,219.9376,1.4042,-72.4751,-123.6609
-2523.4375,19.7452,114.6174,78.9011,232.3055,-4.2434,50.0732,-19.0071,-232.2417,46.2126,-171.1359,217.0932,91.3712,-60.3987,-27.7828,-131.7936,-169.1285,232.0867,-55.1248,-165.0047,-40.2443
-2515.6250,-108.1270,38.1651,-15.6139,245.4322,32.3658,29.3519,-3.5007,-106.6977,-84.5264,-192.6660,269.7598,-39.3786,-8.1937,-48.4296,-78.5462,-116.8202,210.0517,98.1665,23.2784,-98.0137
-2507.8125,26.0014,49.5051,128.8869,168.5642,91.7148,26.6437,178.0111,-73.1579,-88.2933,-158.2127,265.4525,-80.1368,26.0135,-162.0794,-45.2929,-193.5270,133.0339,-84.5466,-53.4433,-174.7939
-2500.0000,-85.2809,3.6018,-66.0174,92.2866,-7.1410,-21.4642,20.1073,-84.0394,84.5690,50.8534,180.7508,19.7105,-22.1745,-26.1299,-56.4432,-94.6348,92.6331,51.3393,12.4301,-38.9593
-2492.1875,-56.1249,38.3385,-28.4766,192.4600,27.6293,88.8862,93.6497,64.5353,-209.1438,-95.6330,180.4935,-16.9981,-21.9111,48.2733,-56.1425,-130.2856,50.6912,45.6884,76.7700,-185.6829
-2484.3750,35.2881,93.2022,-11.6756,177.8736,7.7837,31.4831,147.4614,-66.6497,64.4071,-41.8725,122.4842,72.5450,-5.4044,-120.0817,-39.5911,-151.6953,107.0121,-144.7327,-113.6455,-59.1572
-2476.5625,-38.1180,52.4619,-91.6962,175.4772,-34.0024,-10.7245,-79.5470,-35.6335,-88.8291,-10.9004,226.6838,30.2849,-11.6971,-89.2338,-8.8436,-46.8952,139.5458,-5.9369,-9.8516,8.5826
-2468.7500,109.7694,78.4016,28.5953,146.3764,-36.8659,-0.6334,-32.2416,-25.3087,-152.7922,-74.6407,235.2111,3.3130,-38.6823,-79.0916,37.2109,-36.8016,75.3901,-209.8522,-109.7539,-55.3915
-2460.9375,-1.6470,39.9947,-91.4110,70.9667,-105.3870,-48.8538,-153.2402,-109.3052,93.9778,98.3309,76.4448,102.0461,-49.9662,56.7427,-11.0414,24.9831,104.9554,-110.0759,-113.9644,80.3492
-2453.1250,-19.8256,34.4311,-30.1731,122.8083,-48.2922,-23.8244,-129.0044,24.9504,-176.0235,12.5529,137.9467,16.0188,-24.9985,7.8267,13.9571,50.0204,86.7873,-23.0367,43.0883,-78.6610
-2445.3125,67.5674,66.9902,60.6322,105.1981,-19.9488,-43.2490,-0.2072,-67.2614,62.5312,30.3212,81.0054,33.5424,-7.4793,-84.5547,-4.4933,-42.4052,104.1895,-146.4752,-79.3253,-61.1218
-2437.5000,-44.6501,47.4933,-95.1794,132.9839,-60.4707,21.7229,-120.0330,-76.0901,17.5040,-14.5023,108.4597,61.4793,-53.5615,17.4759,-50.5421,-14.4277,132.0101,92.4931,53.6608,-33.1634
-2429.6875,118.5792,134.0258,82.4628,226.2193,18.0039,88.1542,20.5890,-46.4691,-211.1079,-205.8893,137.3846,17.8615,-61.1941,-100.0335,-58.1376,-94.9995,119.2915,10.9106,7.1042,-150.7691
-2421.8750,96.3607,111.3292,52.6553,132.9954,-21.8582,21.1341,-83.2408,-148.3169,53.8579,-51.7241,33.8690,61.7937,-54.2800,-93.9938,-124.1871,-52.0201,168.1426,58.8641,-50.9161,3.1848
-2414.0625,26.0264,67.0454,57.7340,168.6700,9.8504,26.0177,-77.1907,-33.2634,-235.2901,-82.6634,148.2605,-7.3810,-48.4643,21.9582,-82.3353,-10.1381,97.9143,129.7377,19.9805,-101.9620
-2406.2500,119.6115,95.0378,154.7319,121.2490,27.3208,11.8112,55.7572,-121.3136,-65.5532,-96.7167,134.5616,52.3358,-62.7482,-28.1904,-59.5876,-60.3629,50.6011,-58.5037,-133.2339,-79.2190
-2398.4375,-36.3679,29.2247,-85.8337,71.2710,-35.2044,30.0555,-73.8725,-102.9272,25.6631,-79.3049,41.3204,70.5118,-45.5836,26.1166,-42.3959,-6.1345,35.7488,137.7114,29.0013,11.9893
-2390.6250,41.0471,26.2974,38.0053,77.6951,36.3248,79.7106,49.8959,19.8639,-182.7505,-139.5066,53.4975,-63.9236,3.9821,1.8242,-29.7997,-66.5041,7.3048,39.3271,70.6485,-122.4119
-2382.8125,39.3249,12.3161,30.7017,5.9565,4.4736,-1.7937,5.5230,-97.5145,177.7130,37.1347,-102.4697,-35.5061,33.3981,-42.6263,-37.3499,-75.0345,75.7266,2.7673,-36.8683,17.0500
-2375.0000,-69.9088,3.9477,29.8842,71.7106,11.7436,71.1944,-68.3701,12.5970,-117.3293,-36.7216,-28.9253,-35.5877,-3.6838,-5.5673,-37.3985,-1.0583,107.6658,68.7243,101.1249,-56.9772
-2367.1875,124.4685,85.3449,124.6809,126.0726,9.1819,54.7758,25.3443,-77.6968,-59.7880,-126.9863,27.2395,-15.0709,-20.1665,-58.9209,-16.8404,-54.4938,91.2188,-158.7351,-56.2944,-73.4155
-2359.3750,21.0357,41.5808,-26.3393,93.6291,-29.7192,-22.4535,-86.7528,-79.8074,46.9870,-20.0400,-50.3983,-19.3482,-24.4458,10.9245,-57.0833,15.2704,128.9867,20.0088,16.4824,70.3621
-2351.5625,64.1905,56.8381,100.2339,135.7930,41.9031,-7.0756,0.7411,7.6909,-231.6710,-114.5034,1.5753,-77.0323,27.8731,-10.6280,-41.7243,-6.3626,101.3598,-7.6351,23.8791,-98.2688
-2343.7500,85.3058,101.9711,81.7662,121.8966,14.7790,-98.7477,20.1916,-119.8709,80.6382,-22.0187,-53.4933,52.2308,47.1405,-65.2322,-60.4172,-134.0585,193.6960,-91.3495,-129.7832,-5.9463
-2335.9375,11.0564,82.0434,6.9308,188.6409,8.2069,-63.7657,-129.7279,-85.7923,-142.3963,-97.8857,54.1004,13.1339,81.0645,-30.1758,-62.4577,-100.1012,189.6961,116.6073,7.2184,-44.9624
-2328.1250,182.3170,125.6612,189.6117,148.8708,44.7801,-28.2882,-20.1454,-49.2285,-179.9184,-135.2634,16.2167,-25.4706,43.4862,-67.6250,-99.9927,-137.6496,150.2086,-28.9605,-67.2895,-119.4721
-2320.3125,66.6088,67.0573,26.3162,103.1412,-17.9438,-44.7649,-145.5373,-66.6213,24.6379,-4.5671,-74.6095,-5.0283,26.9523,-48.0179,-80.4796,-81.1416,104.7838,136.5310,-6.7380,11.0826
-2312.5000,27.0052,44.7463,65.1235,168.5144,44.9972,30.8564,-70.8167,46.0969,-231.7216,-149.7794,0.6777,-76.4985,102.5191,-46.3096,32.1379,-115.5326,30.4617,132.1105,58.9205,-134.2730
-2304.6875,16.7026,50.5596,89.2292,124.1795,24.9619,17.7789,-9.8039,-2.9017,50.2410,-51.6975,-122.7300,20.3334,89.3972,-58.3008,19.0548,-128.6270,20.4460,16.9861,-91.1322,-73.3127
-2296.8750,-188.6696,-15.0973,-54.7263,128.7956,-34.6283,57.6587,-153.8540,73.0469,-56.8763,-11.6805,-46.1723,60.1158,19.2350,54.6726,-51.0763,22.2271,-9.6117,127.8351,53.7813,-33.4036
-2289.0625,6.2609,12.1825,114.6269,77.7095,40.2870,79.8350,51.4066,22.2894,-108.6919,-63.3550,48.6933,-27.8050,4.3753,-70.0657,8.0951,-66.6273,-59.3577,-99.0403,-31.0146,-48.1989
-2281.2500,-126.7236,-89.0441,-33.9345,-55.2854,1.6357,5.0960,-23.2490,-90.3779,220.6211,81.0790,9.6630,-29.6250,38.6144,2.3037,42.3689,5.6254,-51.9916,-55.8134,12.2957,170.1167
-2273.4375,-246.3071,-142.4127,-7.0892,-34.8693,54.3849,31.7556,3.4930,47.3550,-82.6890,-1.1112,110.0580,-76.0494,66.2622,103.0754,70.0475,142.2757,-101.2159,-0.1942,138.0096,50.8223
-2265.6250,-120.5407,-65.1895,86.1113,-48.1038,50.9015,13.7582,59.5888,-6.5829,120.3762,18.0574,18.8152,15.8816,48.2634,-24.8096,52.0753,14.2683,-79.0783,-154.2407,18.0579,106.8894
-2257.8125,-197.9890,-59.3377,-32.8987,-20.5498,22.4575,-31.4423,-59.5272,21.2816,73.2322,46.0427,-26.6153,43.6027,39.0603,-33.8936,6.9064,6.0684,-15.1322,15.5229,152.9237,170.7642
-2250.0000,-38.2249,-0.2603,103.2983,34.2015,76.2247,-43.4444,113.5665,46.3386,-47.7113,-74.7889,35.1643,-4.4840,28.0549,-81.7784,68.9389,-42.9413,-31.9802,-141.5241,31.9790,49.8371
-2242.1875,-98.0256,-10.8210,-38.0772,9.3950,3.7662,-73.9965,45.0981,-95.1682,251.8161,40.8295,-69.6024,110.8842,33.5025,-2.1972,37.4204,0.4982,-20.3628,-61.1077,-98.5099,165.3710
-2234.3750,-108.9849,-18.6183,-45.6059,67.4483,16.3561,-7.6835,1.4790,8.1844,-48.8393,-2.7178,-40.5114,31.0885,26.8070,27.2420,30.7585,29.7830,-67.8849,68.1669,30.8632,48.7389
-2226.5625,76.3628,43.6619,76.1744,42.7979,24.0483,2.9334,86.1596,-54.1769,72.8263,82.0270,-103.1125,4.5867,-36.5892,-108.0254,41.3998,-105.6366,-22.0920,-62.2674,-98.4768,59.4104
-2218.7500,-96.0086,-14.6326,-71.7601,45.4475,-30.1581,-34.1462,-134.8799,-55.2329,107.7939,117.0712,-67.4025,4.3747,-36.6862,-35.9841,-32.6640,39.2547,52.0192,152.6073,10.4956,168.3853
-2210.9375,-43.7223,-12.3902,100.9692,98.7447,41.3287,28.4298,-36.2645,44.3645,-122.6040,-40.2522,67.9704,-81.1995,-11.1287,-47.2898,-7.0729,28.7934,-34.2117,30.1204,28.1170,11.0001
-2203.1250,-74.3457,-60.4669,26.7814,-36.8666,43.5959,-44.8965,73.4371,-65.9537,244.1249,69.5335,-6.5517,-43.6742,24.5335,-83.4845,28.6191,-8.5706,-64.3338,-1.2695,-3.1542,120.7316
-2195.3125,-153.9318,-98.9341,-88.3680,-47.4211,79.3100,-52.1696,178.1837,37.7831,91.8704,27.3567,-12.0056,-87.1015,56.2523,-89.6207,60.3557,-14.8779,-143.3969,95.3989,234.6434,41.5085
-2187.5000,14.5953,-39.7114,16.5893,-89.8690,116.2376,-94.3479,394.0248,32.6014,159.7243,22.2665,-91.3539,-56.4128,51.0728,-131.6562,91.1786,-130.0906,-185.3405,-122.8539,121.5222,-0.6125
-2179.6875,-103.2900,-73.3822,-148.8650,-101.7057,16.0469,-111.9269,154.4454,50.0055,251.1873,113.7713,-109.1036,34.8805,68.4881,-39.0789,72.6077,-37.7081,-197.6640,-28.4941,109.9978,127.8731
-2171.8750,-42.1240,-22.0310,-42.2546,-4.4750,30.9051,-5.4535,77.9179,120.4486,-119.3183,-36.6839,70.2097,32.2167,65.9475,-43.4471,106.1040,-42.2808,-169.9339,-73.0950,66.5112,14.3994
-2164.0625,3.1330,8.2892,-35.5570,-29.1483,-23.5679,-72.8856,9.4731,-20.0194,106.2957,78.9660,38.6357,110.6645,33.5084,-73.7034,37.6902,0.2677,-90.0960,-167.5986,-63.8869,130.0391
-2156.2500,-59.2280,0.5544,-100.4650,11.5804,-50.3108,-27.9163,-128.5742,60.9200,-104.7136,51.0092,-62.5151,82.5046,5.4816,81.4517,9.6733,119.2020,-47.8521,14.3045,84.1318,102.0723
-2148.4375,113.2750,53.8195,85.4851,10.1415,2.3997,-25.1090,21.2480,27.6923,-138.8513,-56.0981,-59.8058,49.1893,9.3117,48.4434,13.5287,48.9666,-48.7534,-161.9699,-59.0025,-5.0451
-2140.6250,60.6633,19.4525,-83.6874,-7.4066,-60.4498,-84.4062,-112.0490,-68.6410,94.9247,30.7055,-82.2060,24.7762,22.0484,24.3407,-9.7092,61.6616,4.2432,-4.3272,-39.2321,118.7524
-2132.8125,93.6945,34.3744,-6.2156,60.7012,23.4723,-44.0410,2.3050,8.6948,-193.6768,-147.8557,31.0509,-80.9987,27.4350,-44.1011,31.7028,-6.9845,2.8840,28.9647,63.1968,-23.8073
-2125.0000,169.1258,51.2950,69.6411,-39.8038,20.8539,-78.2804,78.0704,-98.5788,102.1660,-108.0063,-40.2907,-42.3791,-44.7799,-114.1566,-3.4867,-42.2504,43.9370,-71.3559,-36.9697,52.0513
-2117.1875,16.6634,-11.5121,-89.4143,-51.2121,-17.5506,-18.4297,-45.0654,-38.7552,15.1019,-48.0668,-89.5164,-54.6737,-56.8932,18.8888,20.4290,18.5783,33.1077,128.4313,127.9846,76.0080
-2109.3750,75.6633,-3.8047,49.9983,-27.1602,43.2256,12.8683,95.2582,28.5069,-101.5163,-54.6881,-22.2778,-98.5179,10.4398,-23.6236,50.8029,-24.1491,-13.2552,-58.3507,46.3682,-40.5925
-2101.5625,-27.9097,-33.6044,-63.1512,-59.6496,-39.1376,-64.3859,-54.9889,-48.7955,188.3273,125.1497,-99.5820,7.0930,5.2316,8.3263,9.6277,81.5836,-11.1541,13.3257,-21.8068,102.2700
-2093.7500,-62.7897,-36.5100,-58.5951,45.5709,-23.8786,-22.9319,-87.5427,66.6093,-136.1612,57.6680,-95.1687,-60.6037,11.7269,51.9873,53.1522,161.0176,-44.3451,84.7083,14.7181,-2.1792
-2085.9375,71.4312,4.8822,81.0704,-32.1017,6.2555,-68.3857,14.9965,-52.9099,76.4637,12.2775,-139.6424,-32.1852,40.3257,-67.2489,81.7639,42.5483,19.5827,-131.8249,-131.6788,26.4786
-2078.1250,-26.5590,-36.0857,11.5247,-57.9687,-16.9768,-62.0482,-163.6919,-83.6310,43.8737,16.6770,11.6993,-26.9608,44.7266,-24.6679,49.1736,46.8824,63.3278,15.4472,-19.2661,104.9385
-2070.3125,170.2649,42.3599,184.7912,-3.0301,34.3670,-37.9196,-65.5727,-59.5575,-186.9192,-104.1329,110.8640,-75.9414,-3.0665,-36.2851,38.3850,-37.9912,48.8749,-104.5015,-69.0736,20.1890
-2062.5000,149.1311,28.6228,82.0954,-94.0432,-27.2999,-102.7471,-129.4202,-160.4522,151.3646,15.1041,9.0810,7.1333,-30.8088,-26.8442,10.6470,-28.8163,63.4851,-54.3913,-123.8331,175.5057
-2054.6875,1.0465,-34.6767,7.4531,-30.9973,-6.7126,-67.5107,-131.2223,-16.2952,-106.3324,-24.6384,81.3584,-68.7515,3.5120,7.6552,44.9641,79.4080,-12.8500,44.7737,45.4659,63.8661
-2046.8750,110.3671,14.2311,87.2122,-27.5510,18.1368,-98.8710,20.3804,-47.7543,8.3874,18.0141,13.0361,-27.2284,46.2318,-96.4509,50.6837,11.0290,-43.7787,-126.6694,-91.8469,32.6331
-2039.0625,-64.5336,-93.6118,-62.2514,-97.3014,-25.5290,-64.4325,-129.2319,-13.4107,78.9041,125.4725,-27.4675,-65.9059,42.7537,10.2522,47.2010,118.4577,-112.9091,118.7045,13.6497,103.2061
-2031.2500,18.3716,-100.4985,31.0952,-84.2469,35.1185,-8.1935,0.9698,116.7374,-157.7997,35.7117,-6.1506,-229.7895,63.0795,-42.2414,104.5220,101.6767,-134.2405,-8.1368,62.9457,-23.4285
-2023.4375,123.6268,-53.1108,-13.2253,-188.8478,-6.7547,-126.6155,-6.4839,-37.7791,201.8796,63.3045,-87.4906,-128.3136,54.7514,-86.3858,59.2001,56.2551,-27.2146,-78.6346,-42.4115,152.3061
-2015.6250,101.2385,-36.2866,-70.2013,-106.0863,-34.1097,-72.6869,-174.5930,-21.9489,-75.1116,-29.7645,38.5199,-148.4820,34.7731,39.8308,39.2276,73.1852,56.1676,75.2135,76.5916,95.3868
-2007.8125,173.5229,43.3558,119.4834,1.3316,13.3761,-30.1189,-21.0571,-89.4790,-32.4384,-97.1909,45.1856,-68.9897,5.4489,10.6935,46.9046,-67.2480,58.2032,-99.3062,-62.7738,-7.8783
-2000.0000,18.8440,22.7123,-8.7975,22.7953,-43.0734,-11.4952,-148.4909,-105.9612,134.2919,-4.5629,-82.0931,23.5444,-12.8244,66.6219,-8.3683,-11.6287,81.2853,64.2441,-5.0736,84.9150
-1992.1875,31.3542,27.4636,12.1287,71.4537,-33.8811,83.3376,-91.7099,60.7659,-139.7864,-56.7382,-61.1592,-28.7375,-64.8856,50.7536,12.5660,46.1893,-11.4453,40.9871,113.8332,-78.1069
-1984.3750,62.1036,18.2971,-70.7087,31.3566,-78.6395,37.4163,-64.6808,14.7356,145.4171,44.3428,-107.9800,-1.7601,-37.6939,5.1452,3.7442,74.2622,-50.9243,-34.0274,-32.0222,23.1351
-1976.5625,-84.6982,-56.9233,-185.1035,60.7244,-77.2991,68.9433,-142.2205,119.1543,-6.9565,38.8599,-2.3375,-81.3321,-6.0469,74.0027,35.3725,104.7884,-90.9541,136.4171,68.5728,17.8280
-1968.7500,80.2159,-21.2393,26.2080,14.7945,21.5792,96.1631,67.9544,110.2628,-89.6166,-43.9309,25.0123,-127.2170,22.3078,-8.4527,62.7071,-13.9992,-136.2866,-49.4603,-47.1370,-27.7761
-1960.9375,-3.1330,-31.5729,-104.7593,-32.3939,-33.7596,38.1330,-25.1217,16.1147,147.4905,82.0356,-67.8927,-36.3492,-34.5882,7.8556,41.7976,-34.0317,-77.8718,77.4273,-24.0904,135.3840
-1953.1250,12.7687,-41.8530,-9.4823,-17.3195,10.7080,24.3604,-3.9334,75.2216,-88.1817,-5.7674,27.4623,-89.2327,-13.2347,30.4236,101.1439,-12.8167,-132.2107,58.5640,26.2078,10.7852
-1945.3125,52.6258,-36.8033,28.7426,-118.3001,24.8862,-83.4664,145.2076,-69.7323,245.1206,106.3789,-117.2304,-14.1637,25.0834,-77.0569,103.4455,-47.6586,-126.5956,-112.3568,-109.5605,86.1463
-1937.5000,-92.7257,-108.5660,-86.2448,-192.4774,34.5764,-126.4961,102.1411,-75.8878,239.2140,174.3220,-123.1083,-19.3022,56.2134,-45.7348,97.5497,19.3095,-130.1835,94.5340,61.4813,117.3033
-1929.6875,34.0815,-47.8599,16.9195,-136.5029,81.3521,-60.3801,316.2392,-46.8962,122.4587,56.4068,-19.8266,-63.2917,-23.4997,-53.2655,53.8092,-60.5829,-108.6257,-59.4446,83.6631,-36.3953
-1921.8750,-25.5694,-33.3529,-121.3838,-123.9751,-15.2209,-52.7259,176.8708,-75.3649,351.2780,138.0448,-121.9893,18.2795,-88.6714,28.7550,-11.3797,-52.9245,9.4934,22.1308,60.3972,45.4777
-1914.0625,-62.0138,-35.4162,-42.4841,-21.2295,4.3781,28.1288,73.6913,78.3607,-46.7311,34.8679,-78.9341,-48.9528,-45.6388,109.9889,-4.3661,27.9357,8.8234,90.9025,94.3184,-131.4578
-1906.2500,89.2136,36.3833,79.0674,-10.8269,22.5860,1.6252,157.1538,-22.2856,74.9228,45.3366,-104.2310,-1.5237,2.0470,9.8815,-30.7050,-35.5610,54.8143,-109.6902,-71.1345,-120.7294
-1898.4375,-6.8640,-13.0625,-61.6958,-35.7186,-39.8991,8.8320,-19.7081,-15.2275,118.2696,162.5040,-171.8313,-31.3997,-27.5691,53.4849,-60.3515,44.6574,64.5033,75.4420,79.1208,-40.2922
-1890.6250,92.9130,33.2961,85.3871,29.2516,19.2550,81.8983,90.2859,94.6845,-139.5416,51.5159,-61.5739,-69.4233,-65.3453,-20.0551,-61.1523,7.7246,-9.9612,0.4186,39.2180,-151.0124
-1882.8125,-3.2221,3.4942,-22.4603,-31.6684,-50.5405,48.0674,-17.6285,23.6937,120.7670,164.6304,-58.2161,44.6677,-99.0232,20.5158,-94.8686,47.8916,-0.3171,44.5056,-57.5877,-0.6241
-1875.0000,-171.0019,-58.1727,-46.9621,11.7809,-32.7291,96.5964,-116.1863,109.0573,-124.6018,103.0701,101.4988,19.0997,-49.3416,69.4352,-45.2353,59.3959,-26.3198,123.9443,56.9632,-61.8972
-1867.1875,24.2782,-4.8492,82.5974,-38.7219,11.6492,42.1698,50.3162,18.4561,79.0985,12.5582,10.2557,2.5806,7.3881,-20.6047,11.4552,-68.0700,-6.2687,-103.5795,-99.4433,-42.1159
-1859.3750,-21.0138,-15.2928,-116.4156,-48.7762,-50.1683,26.1922,-74.7391,-34.6898,137.2493,69.5071,-114.5407,22.5230,-9.4371,36.8272,-5.4155,25.9372,19.2254,98.3680,-3.3886,89.1166
-1851.5625,22.8440,18.7785,-26.2739,30.3322,-14.3036,117.3753,14.3632,92.3317,-177.4681,-23.4056,-61.1826,2.6158,-65.1129,91.4122,11.8603,43.1061,-41.1456,72.4609,5.8086,-77.5146
-1843.7500,-41.7571,5.3197,-61.5963,0.9835,-43.9073,82.1085,17.0126,-16.1018,156.3855,88.2403,-96.2732,78.2635,-63.2309,20.5468,-22.3050,8.8225,0.0385,42.1010,-94.4532,-1.5818
-1835.9375,-108.6564,-25.0939,-128.2169,39.3452,-26.1315,89.5378,-12.6402,64.1680,-20.0899,58.5722,-88.6668,11.6092,-18.6412,27.3771,21.2466,15.2401,-31.0731,186.4485,49.9894,-67.9580
-1828.1250,56.2150,3.4521,9.9257,-6.5361,4.1538,43.7019,125.4775,55.1718,7.2023,12.6438,-97.3210,-34.2819,-28.2978,-18.0666,49.5531,6.3896,-76.4304,-35.4756,-30.8315,-113.5857
-1820.3125,-80.3192,-29.9364,-172.3469,-71.8186,-75.9996,7.4567,-21.8123,55.7738,155.1102,123.3270,-134.3680,76.4313,-64.3522,93.0912,-23.5485,80.1429,-35.1919,110.2182,44.9477,-2.6047
-1812.5000,-51.8493,-35.7154,-62.6121,-8.0891,3.9048,45.2097,88.9049,166.3852,-138.0012,13.9981,-22.4006,-69.8671,-26.4087,58.2495,-22.6510,44.9032,-41.9520,67.9065,143.7253,-185.6387
-1804.6875,9.6215,-1.7383,-37.8859,-51.3582,-5.9429,-5.0399,150.6212,5.9863,106.9173,37.6877,-71.4469,27.8457,-38.4719,45.4113,-34.7553,-5.3378,-14.7102,-45.4137,-5.5053,-87.6653
-1796.8750,-65.5456,24.8737,-153.8105,13.7309,-74.7355,64.0618,-75.3214,74.9387,-118.8343,-40.2812,-40.1381,133.9080,-80.1884,187.9223,-76.5117,100.7660,15.8826,160.6182,60.6236,-92.3426
-1789.0625,27.9720,76.1278,-15.0665,72.4714,-33.3825,128.8036,63.4010,66.5271,-163.9329,-86.6240,-48.1780,161.6239,-52.2501,143.0672,-48.6122,18.5104,-29.8732,-26.7307,-92.6166,-174.3628
-1781.2500,-80.4620,23.9966,-207.2924,34.2601,-117.4970,82.5895,-93.8425,56.1596,84.0330,88.0788,-94.1783,189.4051,-24.2572,134.2768,-57.6648,45.3228,-32.5884,74.9846,-59.8146,-36.3183
-1773.4375,-106.1374,-19.0429,-154.7722,79.8071,-56.9643,136.1237,-77.3318,146.5559,-230.2748,-42.4684,33.5765,58.9331,66.4910,151.2435,-3.9612,98.8920,-92.5719,85.4446,20.7398,-166.5396
-1765.6250,22.5399,46.5308,-60.9140,32.6947,-65.4646,83.0023,-19.4594,56.3008,-25.2024,-58.6424,-20.3333,152.8192,49.5827,135.5590,-56.9017,45.8139,-33.2195,-137.7538,-132.3601,-72.4077
-1757.8125,-91.5409,12.7776,-181.8208,24.8270,-96.9532,35.1337,-141.3361,81.3029,-73.8838,3.4269,-30.9837,140.9526,1.9303,198.1277,-68.5932,70.9852,29.3841,30.3083,35.8079,-10.0337
-1750.0000,88.7140,55.8998,46.5909,-6.7400,3.9718,6.5669,51.1028,53.5997,-175.2664,-98.2272,51.6739,39.3863,-26.4171,59.9827,-22.9869,-30.5646,69.2836,-106.3500,4.2560,-111.3727
-1742.1875,26.1427,12.7906,-25.8501,-104.1463,-41.3242,-101.8622,-58.3335,-55.9690,157.5092,50.2662,16.4830,77.9833,-24.6081,24.9867,-21.2428,-28.9688,112.3425,-28.8539,-23.1561,37.4459
-1734.3750,-53.3522,-15.8900,-66.2295,-42.4866,-20.9580,-32.2430,-24.7265,87.5153,-103.7122,45.7909,12.3505,36.6357,-27.7513,95.0425,11.5417,3.6759,-1.5447,68.6945,109.4807,-76.7020
-1726.5625,41.0845,26.3812,-4.7121,-52.9167,-7.6212,-44.7325,146.7859,37.8841,104.9818,70.2205,-109.8964,98.2055,-3.0000,45.9925,0.2209,-7.7882,-46.5234,-153.8720,-7.0009,-51.9545
-1718.7500,-75.6767,-47.4883,-167.4136,-99.5336,-59.3542,-61.4233,-16.9117,59.0603,125.4713,54.4473,21.6496,82.5887,17.5450,140.7438,20.6903,86.5543,-57.7018,-24.6171,52.3245,42.5839
-1710.9375,20.9323,-31.5215,11.2426,-72.7846,39.9238,-64.7582,89.7535,91.5900,-135.7055,-96.9982,164.5494,4.3236,124.4409,100.8462,53.5034,8.2449,-100.5380,-139.0248,7.9877,-71.5488
-1703.1250,-8.6081,-22.3264,-26.2612,-101.1743,-19.8330,-101.2358,-21.7365,-56.0373,121.9872,12.3966,17.3001,114.9190,87.1850,173.7925,16.1574,7.7812,-59.5223,-96.5780,-90.5012,75.1753
-1695.3125,-94.9924,-15.3893,-112.6117,-12.3982,-59.1753,-4.5621,-144.0715,77.4920,-184.2025,-37.0699,5.2152,138.6614,38.0870,271.8844,-33.0342,142.4647,-75.3573,62.0132,33.1660,-10.9574
-1687.5000,77.0369,45.3026,-5.5559,18.7749,-30.7766,28.5004,-1.0028,37.4154,-78.9713,-78.1253,1.5243,97.8153,34.3959,121.3746,-36.8261,28.5487,-78.8048,-118.0162,-111.7904,-14.6824
-1679.6875,-20.2961,-20.6079,-150.8746,-42.3976,-47.2207,29.2173,-109.3070,1.9911,32.9074,-2.5191,39.4776,62.6232,72.3579,86.5324,2.0238,29.3027,-69.6150,65.6284,-32.0944,134.2505
-1671.8750,26.7259,-14.6032,14.1624,3.7903,41.5755,84.2959,18.7500,56.9304,-204.8863,-131.5710,168.7975,-29.2271,90.6686,69.0375,20.2148,-25.5894,-93.0932,-27.3876,-21.0507,5.5251
-1664.0625,5.4900,-10.1771,-12.0596,-86.2779,4.7467,-14.8748,66.5655,-78.3817,137.1024,-10.8569,32.8654,92.6766,28.7209,80.2827,-5.8482,-14.7425,-42.8226,-82.6583,-112.2610,90.5731
-1656.2500,-88.8285,-42.3936,-71.3702,-41.4381,7.2840,-0.1438,7.2944,8.2174,-70.0334,3.7390,-26.1602,33.4773,43.6772,168.4221,-28.0067,74.0019,-31.6579,67.9538,4.4273,31.5064
-1648.4375,72.9681,21.3241,100.4110,15.5031,44.0087,24.6768,68.1171,-4.0957,-119.0361,-82.5598,-1.0950,-15.6057,67.7295,46.6513,-3.0650,-12.1527,-9.3907,-122.3390,-115.8030,-17.4482
-1640.6250,16.0175,-6.8269,-38.5701,-40.2944,-36.5203,-41.2515,-144.8167,-33.1518,72.1859,-37.6153,5.2220,27.5692,38.0276,53.1314,4.1226,67.9472,4.1200,31.6343,-66.7698,136.8393
-1632.8125,34.2449,-5.4256,23.6087,12.0608,-1.9097,-16.0375,-82.5730,28.9365,-158.4336,-86.5247,179.6819,-19.0991,28.4739,43.7416,30.4626,57.1808,-47.2270,14.7355,-48.6000,-20.7284
-1625.0000,78.4288,24.4455,28.7202,-49.6378,-4.2299,-83.8850,33.6092,-76.0306,104.9204,29.5278,111.0848,97.1934,33.8725,-24.7066,35.7508,-10.6360,-38.6270,-116.2047,-180.4816,58.6678
-1617.1875,-56.5723,-13.1892,-75.3564,27.4751,-20.4331,-4.9345,-106.3949,-34.1935,-36.9584,-1.6371,81.2941,66.2789,77.0788,55.6344,4.8430,32.3406,-67.2373,64.6529,0.4397,64.8486
-1609.3750,37.5393,22.1528,99.6637,50.6897,51.7785,24.1111,31.7037,-5.2708,-154.7073,-83.6952,109.5945,21.4816,68.3854,11.0690,-2.9719,-49.5888,-78.7491,-52.3976,-45.5569,-16.8661
-1601.5625,-41.3522,-7.2612,-61.3315,6.9157,-44.6886,45.1624,-93.2073,-20.3397,87.5225,48.2451,20.9011,79.6925,-19.3045,106.5077,-53.7909,-27.5171,-86.2674,43.5685,-19.5465,115.4111
-1593.7500,-85.1100,-61.3588,-66.2114,34.2488,-9.8367,115.3114,-61.0009,159.6917,-136.1539,-28.7280,54.3130,-70.9924,-22.8915,103.0226,-21.5067,5.6397,-199.6891,141.6097,112.5482,1.7760
-1585.9375,10.0360,-69.8714,-44.2081,-82.5223,1.1600,101.3569,72.0867,71.6145,107.0894,-6.7885,3.6175,-84.7668,-0.5730,15.4397,0.6716,-9.2963,-210.2147,-11.4333,-4.4617,61.0506
-1578.1250,-160.7619,-126.3009,-187.1562,-112.2383,-11.8512,104.4681,-34.7671,111.6097,36.3441,-3.8134,6.9760,-80.5039,2.7929,92.9197,3.8940,67.8285,-134.7070,204.5840,141.5945,101.3497
-1570.3125,-50.6928,-77.7379,-29.2607,-37.1069,49.7688,115.4316,123.2475,159.4563,-136.5292,-65.9733,55.1675,-144.3820,-22.0030,67.2415,15.9549,5.8005,-130.3551,68.4352,75.4939,-34.5011
-1562.5000,-102.6254,-88.5040,-126.3837,-88.9638,-40.6683,54.3969,-11.7509,24.3154,170.5919,56.8699,-5.6466,-57.2516,-81.8034,80.5619,-8.9959,91.7810,-42.0060,86.3033,22.4048,88.6477
-1554.6875,-110.4261,-98.2914,-55.3815,-25.7128,15.9908,89.4572,24.3737,133.2761,-88.1996,-18.1984,29.6498,-169.0234,-47.5036,78.9585,-9.8459,89.8473,-47.5596,115.2438,86.4015,-23.1186
-1546.8750,90.8391,-19.6936,79.6661,-35.4123,47.4175,4.5525,159.5415,-25.7329,84.0902,-30.2072,18.9888,-143.7383,-22.1484,-5.6136,15.3524,-69.0487,12.9439,-106.7570,-99.5632,2.1785
-1539.0625,-39.6336,7.4880,-60.0355,45.1522,-11.9154,-26.1003,-54.0345,-91.4869,54.5967,-23.9821,62.5871,9.8009,-15.5407,75.0547,-15.1999,-25.7058,128.6929,79.5007,-54.2707,82.7088
-1531.2500,0.3165,50.9870,134.6704,155.1191,50.2094,58.6440,-6.1975,-44.8484,-227.4769,-160.3544,147.5779,-15.2451,-3.5391,49.1083,-3.3576,-87.9710,133.8371,-56.8593,-84.6008,-53.3629
-1523.4375,-62.0331,40.7945,62.0598,127.7952,5.7339,23.0846,-77.6792,-153.5065,104.1414,-48.0250,1.2684,59.4147,34.1631,13.8578,-38.8217,-122.5258,176.6833,-49.5044,-147.2241,95.2700
-1515.6250,-108.0589,-5.1288,17.7662,116.7782,16.3539,52.8279,-158.8423,-51.8585,-159.9653,-56.4067,104.2760,-21.6326,64.1682,80.8937,-46.9857,-57.7911,130.8180,115.1338,17.4462,14.1867
-1507.8125,69.9261,29.7462,168.4594,83.7546,39.2268,55.5627,-9.0096,-85.2197,-47.0345,-89.7757,145.2781,-54.6673,31.1687,10.9164,-43.1571,-91.0550,62.9466,-129.2283,-86.8882,-18.8855
-1500.0000,-97.6848,-14.8926,-50.4583,20.1365,-45.3008,20.7029,-153.7748,-46.1642,102.2661,-50.7489,36.6729,57.6971,-4.4292,123.3432,-76.9259,58.0847,70.4588,53.8249,-9.8004,93.4246
-1492.1875,-37.4245,24.4211,56.4848,117.3688,28.6323,54.6969,-9.6704,23.7442,-194.5764,-164.8666,33.9048,-18.0832,-6.1775,83.6067,-43.8477,18.0685,60.8103,8.7085,16.1244,-56.4269
-1484.3750,61.2316,50.7045,116.8077,39.9980,25.7237,4.0865,12.8261,-135.9445,85.9913,-67.5749,20.5353,41.5449,16.4772,-39.7281,-57.3769,-68.5385,89.5520,-102.9935,-166.5405,77.1250
-1476.5625,28.8086,29.0634,82.0418,42.5345,9.2049,6.3836,-167.7579,-133.7186,-94.5729,-138.3968,207.0801,7.0664,19.0275,-1.1770,-55.0091,6.7483,127.1866,39.1958,-59.3073,79.5575
-1468.7500,218.7523,117.5488,209.6199,56.4204,25.1715,-12.9750,-40.9935,-190.1490,-114.7548,-194.8566,187.9680,61.9525,-37.0786,-20.2953,-38.2961,-49.6226,106.1711,-123.2701,-185.7370,23.3497
-1460.9375,123.9508,110.4877,30.4389,66.5661,-58.5362,-80.0811,-144.9881,-221.3158,111.2836,-79.0655,46.1107,141.0917,-66.9369,58.8326,-68.3375,-6.7392,152.3972,-41.4696,-139.9042,139.3825
-1453.1250,75.2750,74.1436,134.3708,124.8128,13.6868,-51.0860,-78.8619,-119.3823,-152.5738,-160.1709,150.3455,24.3288,-37.6909,53.0398,-2.2768,-13.7685,103.7102,-55.5911,-47.9821,-14.4955
-1445.3125,114.0501,62.4477,207.7430,22.5043,36.4282,-123.6509,31.7122,-192.0015,105.0463,-50.8106,77.0152,24.0180,-37.9983,-93.3156,34.2324,-14.3520,142.4689,-193.2497,-185.5973,59.0855
-1437.5000,-27.8574,25.5966,96.4279,56.5036,17.7932,-161.9146,-115.3972,-156.3088,-44.0611,-52.1663,148.9885,23.0007,-2.0059,-22.3806,33.0430,58.3633,212.5172,-19.6159,-81.9091,57.9476
-1429.6875,156.6002,128.5328,292.4613,134.8585,80.2089,-150.8340,42.8414,-181.2800,-141.7947,-186.1598,198.3125,35.3548,-25.6671,-120.1083,9.1947,-76.5832,219.9110,-187.6451,-179.8912,-39.8352
-1421.8750,55.7577,115.1899,179.1853,103.9222,25.8051,-152.0513,-68.2337,-256.5421,114.1526,-41.4527,49.3482,107.4104,-63.6202,-121.1451,-65.9588,-77.8299,294.9923,-42.9581,-140.1640,105.0792
-1414.0625,29.3419,92.0949,195.3214,183.3882,89.1159,-63.8650,20.1140,-132.4050,-200.5057,-173.3510,101.7781,-24.1386,-49.1756,-69.7934,-51.7120,-63.6830,233.4624,36.1167,-26.0488,-26.6192
-1406.2500,74.6771,78.9244,205.1845,123.6035,86.4926,-53.9288,103.2073,-194.5186,-7.3927,-127.4851,185.9330,-13.9309,-38.9874,-96.6839,-41.7189,-90.7732,208.6718,-59.0441,-157.1795,-16.5611
-1398.4375,-109.7832,24.3554,48.2497,150.0252,19.1680,-25.7803,-89.4951,-94.4125,-53.1194,-25.4271,177.2987,14.4767,-47.6006,5.6183,-50.5284,-25.6573,200.0595,143.0018,-25.0991,-25.3264
-1390.6250,69.7716,109.1386,168.3235,188.4418,41.1011,57.3679,67.8097,25.6891,-227.8208,-53.3586,39.6704,-13.1055,-111.2126,-59.1032,-78.3414,-90.5517,168.4366,-29.9677,-22.0331,-163.0928
-1382.8125,20.6703,87.0946,-1.2618,103.2085,-51.2498,-2.1367,-28.5464,-33.8472,117.8232,145.0677,-130.6087,74.6618,-133.4724,-81.4855,-100.8067,-76.0863,154.1578,25.4280,-36.6011,-1.5093
-1375.0000,-10.5490,45.6693,-29.9733,72.8262,-14.8534,6.2042,-20.0267,85.4690,-130.6967,6.3349,-11.0365,10.2767,-87.8858,-72.0382,-54.4222,43.2144,87.7244,134.6536,72.6765,-103.0930
-1367.1875,84.3465,81.0371,142.4056,61.5433,46.6547,-5.3621,152.5851,-0.1265,4.9125,-5.2828,14.6190,35.9979,-99.2095,-194.4987,-65.9445,-42.3831,41.3997,-18.0202,-44.9518,-114.5657
-1359.3750,-61.1517,44.9746,-14.6056,55.8702,-0.7034,21.6726,32.7929,-10.1062,68.0894,57.6918,-32.1189,62.3098,-109.9357,-203.3706,-76.8696,-52.3863,105.6824,81.9135,90.0282,-14.4506
-1351.5625,65.6682,64.8680,122.7014,77.4928,95.0173,-25.0027,207.3129,-19.7931,-124.4191,-62.0291,-4.5536,-57.0756,-8.3602,-285.9689,-12.4966,-98.1023,92.2732,-72.8741,111.2993,-134.0355
-1343.7500,58.5278,39.4199,72.0402,-34.8370,71.5227,-148.6282,230.8697,-143.4231,266.1236,71.3068,-91.9407,3.5975,52.2573,-336.5147,10.9223,-112.7558,119.9093,-150.5899,-1.3642,-0.5684
-1335.9375,-54.2953,-4.4856,-7.3093,-7.8567,58.2575,-81.9434,150.7469,-2.7401,38.9429,27.9406,-61.0276,-39.4341,9.1769,-232.7861,40.6399,-45.1173,76.8273,-18.0120,166.2705,-43.8237
-1328.1250,110.6388,67.6480,91.0882,-19.1256,55.5543,-93.5095,249.3680,-14.3127,101.5396,53.3423,-72.3792,22.2953,-2.1546,-318.3210,29.1032,-56.7400,65.4866,-239.6813,13.6483,-55.3198
-1320.3125,39.7166,45.0310,-99.3678,-55.2387,-36.5744,-99.9156,58.1357,-22.7187,278.2549,155.8917,-152.5771,89.1691,-10.3387,-288.7010,21.7148,45.7945,65.2854,-66.1846,48.1932,84.3192
-1312.5000,44.3610,47.4690,20.7429,20.2016,33.2856,-52.7690,106.4780,62.4236,-41.4678,19.9973,-31.2355,26.5957,38.0140,-240.5488,69.8721,19.8679,34.6282,-96.1544,52.2803,-51.5017
-1304.6875,23.9454,42.5344,66.7886,-36.4092,14.2632,-80.6741,41.7628,-39.4752,224.7744,66.0738,-22.9553,109.9740,47.3065,-305.4572,41.9704,-45.1051,48.9187,-153.1572,-74.6681,67.6319
-1296.8750,-154.8492,-38.4948,-46.5423,-4.4081,-3.1819,-9.9701,-107.3378,69.2379,38.5841,63.7358,-25.0717,-3.0586,8.1955,-197.7849,2.6706,26.5131,44.7976,123.4366,167.9850,28.3464
-1289.0625,2.0712,-5.3483,87.8317,-22.7113,46.6846,50.4325,100.2618,92.6372,25.1207,50.1079,-148.4874,-89.3857,-5.2177,-284.4343,26.0663,12.8277,26.3709,-35.2706,114.3237,-95.2301
-1281.2500,-28.5162,-18.6506,-25.2999,-88.5118,11.4789,-25.6617,24.3585,16.5503,281.1346,120.9792,-260.3979,-18.2146,66.8671,-286.5778,23.9618,10.6512,31.4275,39.5399,118.1814,49.6840
-1273.4375,-41.0859,-7.5294,41.5827,3.6903,92.5568,-32.7524,128.4753,120.4659,-93.8510,-33.1498,-83.3070,-61.0452,96.9500,-256.7385,53.8576,-33.5357,-17.5324,61.3275,175.0321,-104.4112
-1265.6250,-37.9109,47.9862,79.2053,41.6377,61.5138,-31.0943,166.3264,-25.8629,164.9285,4.4929,-45.4694,86.8826,23.7759,-256.1595,-55.5049,-142.9646,55.2489,-42.1204,1.6374,-66.7433
-1257.8125,-201.3288,32.0150,-17.7592,124.9858,25.9024,18.9656,32.5843,-12.7757,31.0760,18.5298,-32.2167,138.2025,1.0018,-133.1879,-115.4649,-91.9937,103.4157,110.8294,119.6489,-89.6938
-1250.0000,-28.1818,87.9341,167.8356,191.8818,99.1610,20.5739,218.3948,25.8510,-78.1964,-53.8732,-30.4254,65.0799,39.7700,-242.6846,-40.8758,-164.4766,29.1305,-104.6824,45.1925,-199.0854
-1242.1875,-97.3923,26.2434,14.0758,87.4377,35.7948,-23.1645,100.8440,-17.8663,210.1618,86.3771,-147.9946,95.6079,106.1814,-248.5331,26.3597,-98.3044,-4.5026,-67.5219,46.4057,-21.8285
-1234.3750,-90.3396,-6.3341,24.5877,94.2517,64.8400,24.3540,75.5658,139.6720,-110.2415,23.8805,-63.3165,-40.6220,117.8393,-202.1494,73.8411,-50.8890,-33.8958,8.8730,157.8690,-121.3388
-1226.5625,76.0121,35.9201,83.3914,14.3570,44.3778,-26.8318,134.5757,51.5048,95.6783,45.6991,-40.3332,-17.5480,29.7941,-252.4714,58.6191,-139.1683,-42.9975,-142.4235,42.6306,-25.5387
-1218.7500,-39.6836,-9.5185,-78.8499,-31.5849,-7.7051,-79.0588,-28.4672,73.2992,80.5113,104.4538,-19.3814,3.4661,-23.2992,-194.8514,6.3531,-44.4946,-54.1643,93.2355,208.3521,69.2004
-1210.9375,33.5835,15.0929,76.8710,-28.5815,86.2339,2.6646,165.4478,156.0349,-131.6853,-33.8368,26.5107,-23.5619,-13.4492,-222.2977,15.0345,-108.8762,-122.3853,24.8352,175.0112,-69.1030
-1203.1250,-61.2690,-15.1787,-28.5134,-53.6701,10.3991,-28.7059,60.2416,87.6835,168.0054,117.7869,-150.7008,55.3122,-8.7043,-143.8392,-16.3924,-30.3457,-110.7087,70.3610,79.5822,46.4955
-1195.3125,-148.6597,-53.8142,-77.4220,-0.3023,-3.7614,32.3793,10.4947,221.7943,-64.8743,105.8632,-127.4470,-30.3703,-57.5149,-83.9493,7.6301,67.6272,-129.5930,158.3246,238.5991,-76.4736
-1187.5000,-39.3566,-27.0490,-1.6322,-32.2381,4.9410,-1.8375,161.4374,187.5978,121.9793,145.6574,-161.5012,-27.3516,-54.6274,-191.3742,47.3518,33.2966,-126.7725,-85.0038,65.3131,-73.7293
-1179.6875,-166.9649,-92.0527,-139.7355,-90.0673,-18.2836,-67.9480,21.4819,158.5178,165.9009,226.5430,-116.4552,-20.2432,-10.6495,-146.6978,55.1773,78.0747,-112.8589,102.7826,147.1495,44.1020
-1171.8750,-65.6163,-56.1979,8.1300,-23.9467,89.8181,7.8940,170.4933,160.3852,-126.2167,44.3818,-4.4624,-91.1797,102.2693,-219.0892,130.9490,-31.2037,-118.0052,28.5050,72.9257,-101.1177
-1164.0625,-40.5305,-18.8806,-45.2636,1.9303,34.3244,28.4837,117.2432,-39.9973,151.4178,64.9809,-130.7237,2.6338,85.9353,-198.7338,113.4698,-47.7240,-58.4080,18.0002,-78.5402,29.4224
-1156.2500,-190.6398,-53.4634,-128.8340,131.6174,-2.2435,128.8801,-39.1979,24.4331,-116.1717,-18.6240,-104.1725,-43.7635,39.3957,-25.5958,103.7911,52.5572,-70.0247,147.2853,85.7945,-17.2496
-1148.4375,-119.7550,-28.0272,-14.4047,98.3005,19.0903,132.2673,74.3537,26.8568,-38.7312,-15.2100,-63.6168,-3.1565,41.8462,-59.4675,107.1126,-17.1602,-67.6428,-62.4308,-52.8762,-50.9028
-1140.6250,-190.8337,-57.5083,-130.9234,26.0377,-32.8263,88.7093,-79.0576,-16.6589,101.7291,51.2478,-106.9972,63.4987,72.3463,43.7107,63.4863,49.1759,-35.2118,75.9249,15.5206,52.4876
-1132.8125,-75.9016,-3.5645,-4.4140,70.7745,16.3648,106.1549,11.5479,111.8198,-212.8066,-152.2934,-53.3723,44.1510,52.8449,97.8650,80.8654,29.5032,-95.7897,15.2651,24.9081,-114.1250
-1125.0000,159.4560,78.6069,-22.4592,-11.0478,-60.0558,51.0485,-6.4128,19.7527,-9.8786,-60.3622,-108.3016,136.2444,-39.2177,79.4631,-11.3097,-25.7028,-141.9166,-67.9205,-128.2351,14.7233
-1117.1875,173.6078,70.8206,-118.6870,37.9328,-93.2637,64.7464,-212.5604,106.5037,-216.1772,-46.6296,-20.4326,40.1237,-25.4893,55.8652,-71.6826,24.8984,-164.2525,192.6860,-8.5654,28.3541
-1109.3750,349.8086,98.7773,33.1377,37.9534,-53.5141,106.4915,-134.6527,75.2999,-321.3822,-77.8258,21.4741,-64.9416,16.2767,23.2986,-66.0066,-43.4578,-164.5416,52.3408,-113.8569,-76.9507
-1101.5625,237.9816,45.9319,-54.0418,-39.0286,-134.1215,93.2384,-330.7506,25.1077,-77.6015,92.9961,-65.6078,-5.0203,3.0426,83.7183,-79.3269,53.1912,-135.8414,115.0238,-86.1263,56.7442
-1093.7500,210.4553,21.2187,32.1013,-30.7175,-78.0363,68.2869,-244.5278,148.2227,-285.5234,68.1242,20.6178,-102.8088,-57.8921,58.4204,6.6602,65.1337,-128.8593,87.9977,-8.1034,-41.2649
-1085.9375,238.1010,41.2258,56.4377,-74.2112,-64.0277,-55.4617,-110.1221,61.5384,68.7724,92.4637,-28.9557,-42.3942,-70.6342,-64.6742,-7.1556,15.2866,-100.6821,-26.8055,-120.8715,55.9428
-1078.1250,50.1809,-3.5092,-102.7604,-16.2436,-81.0201,-30.7470,-196.2575,122.3194,-17.5154,116.2441,-41.0754,-17.5398,-46.9347,-4.3244,17.4824,76.8951,-113.0617,207.8510,6.8246,43.5893
-1070.3125,166.3976,43.6227,-10.8018,30.8700,-33.7369,25.1182,5.7645,141.2410,-145.6219,25.1956,-22.0614,-35.5272,-28.0950,-22.8428,-0.7268,21.6504,-174.2909,42.6564,-18.3375,-121.6029
-1062.5000,76.8889,19.3798,-182.5401,-23.7170,-115.7896,36.2840,-56.9220,42.4729,122.5601,183.4526,-84.7327,49.7777,-90.9573,24.9366,-63.6368,32.7106,-123.2236,92.7829,-2.1819,-0.4913
-1054.6875,34.1846,-40.1945,-113.4468,2.4929,-49.4850,69.2520,-23.7923,148.5089,-138.4715,69.5015,-14.5877,-138.1312,-57.0242,94.5076,-30.7419,65.5659,-131.3624,119.6949,129.7701,-114.5854
-1046.8750,156.9583,-8.9081,14.1391,-49.8075,0.9594,49.7178,177.8216,19.0444,63.0250,50.0804,-69.9502,-120.5353,-39.6078,74.5776,-13.3507,-28.0649,-114.0065,-73.8768,-63.7700,-97.1587
-1039.0625,19.0056,-56.2365,-133.9692,-46.8069,-50.3014,48.4943,30.7367,18.9002,98.7931,122.9712,-71.0187,-84.6488,-40.8991,183.9403,-50.6535,8.6121,-147.3557,104.8717,44.0130,-24.4404
-1031.2500,141.8368,-13.4962,37.7392,-30.0129,28.9711,36.0732,164.4633,79.5562,-61.6097,36.6772,-10.3050,-133.9609,19.6051,23.0877,9.8490,-78.9152,-164.9137,-54.5815,26.5890,-147.9153
-1023.4375,123.3823,-48.4615,-99.8129,-152.4759,-20.3287,-101.5922,137.9198,-21.0227,279.7347,194.1438,-110.8360,-87.5300,66.8464,-4.0075,-16.8975,-31.6741,-147.7267,-37.2493,-27.0662,9.3704
-1015.6250,45.5210,-128.5555,-176.7361,-197.3351,2.4342,-31.6513,134.9877,123.0102,18.6578,117.2104,-40.7496,-201.5094,99.6793,139.4825,-21.0422,75.1632,-227.9448,129.6776,139.8822,-104.7518
-1007.8125,306.5396,-44.5160,-49.7561,-252.3027,14.4404,-14.8181,261.9451,28.9369,72.5154,60.2017,13.2325,-184.5859,79.3976,44.8633,-41.2871,-19.0940,-213.2579,-101.4829,-21.2703,-124.9530
-1000.0000,372.5799,17.3959,-168.7174,-256.2174,-82.3239,-97.9294,67.9509,-91.0716,136.3893,50.2421,4.2659,-83.6277,-3.8356,108.2942,-124.4693,44.7138,-112.5229,-0.5691,44.6450,-24.1085
-992.1875,710.8561,180.9758,7.5949,-164.8872,-76.8587,-141.7897,61.2156,-98.8316,-165.4709,-104.4575,69.5425,-91.4237,-48.8214,-10.0405,-131.3931,-36.2296,-56.5398,-120.4104,-4.1981,-179.0069
-984.3750,920.0892,299.5011,37.9012,-166.5564,-148.2201,-257.6438,-92.5441,-324.5877,48.6707,-73.1339,63.8175,49.7851,-54.8199,-127.3700,-175.3186,-116.1647,47.4466,-157.2175,-182.0293,-74.8888
-976.5625,852.0604,324.4545,-29.0183,-23.4700,-200.0184,-141.7350,-342.5484,-245.5791,-276.4636,-214.0691,106.8519,56.7321,-49.0780,-10.9567,-168.4890,-73.3502,119.1775,20.7282,-75.1078,-179.0282
-968.7500,983.0112,393.9918,112.0740,36.6077,-203.5314,-37.8295,-276.5600,-214.5838,-282.5666,-256.9902,63.8834,86.6821,-92.3391,18.4490,-211.6585,-190.5285,74.9108,-165.3187,-190.1942,-259.1480
-960.9375,807.3249,331.5765,-77.4265,2.0823,-290.7662,-7.5164,-428.1797,-221.1715,-104.2933,-115.5059,21.3307,154.0187,-135.2038,123.2581,-254.4201,-85.2966,75.0375,-58.9371,-118.8606,-117.8684
-953.1250,793.5746,305.3580,23.0476,58.5022,-215.3071,19.7520,-328.8406,-82.8020,-371.0646,-162.0603,85.7226,34.3017,-108.1283,113.0034,-227.2258,-58.1140,-9.8899,-72.6117,-62.5808,-237.6330
-945.3125,732.6867,290.9755,28.4139,-2.1799,-195.9553,-12.0793,-249.6212,-188.5304,-71.9202,-82.6969,-19.9959,113.4836,-66.1638,80.6491,-223.1305,-127.0164,35.0892,-133.3555,-158.3870,-122.4775
-937.5000,393.2259,193.5372,-68.7408,46.5938,-180.2389,74.5454,-346.9466,-101.8010,-207.3547,-106.8871,29.7427,126.1006,-90.7467,165.7359,-210.5745,-77.4673,47.5141,90.3637,30.2600,-109.8807
-929.6875,352.3377,179.7740,74.7204,75.9621,-77.5243,106.7707,-93.6762,-69.4807,-248.1613,-221.4551,63.0834,85.3209,-94.7366,124.4088,-103.4170,-118.3219,41.5391,-126.3112,-10.5044,-150.6625
-921.8750,139.7630,74.3633,-44.4721,5.6775,-97.7180,25.3542,-175.0837,-77.7925,75.3592,-45.6628,-19.2201,76.8901,-67.3913,115.4486,-75.9117,-53.8029,40.9094,14.3990,24.1058,24.9116
-914.0625,19.2754,-34.7370,-17.5384,-9.5079,-9.2289,89.0446,-75.3852,60.0046,-193.0284,-91.7690,44.5811,-80.4390,33.0381,178.5848,24.6943,46.8231,-79.6223,70.2099,114.8094,-95.4170
-906.2500,12.6972,-47.1826,45.3422,-51.7488,3.1553,3.6819,-13.7567,-25.2456,53.5585,7.0973,-3.6689,-18.8264,131.4111,92.6655,86.2566,35.4000,-87.1995,-147.9959,-103.5298,3.2271
-898.4375,-149.1603,-104.1239,-92.0051,-72.2446,-32.7662,-96.9204,-151.3769,-15.7334,61.8674,15.7070,115.8474,26.5107,140.5374,101.4813,132.5851,154.7300,-73.0286,-62.4286,-53.1000,122.6189
-890.6250,-51.0434,-52.3891,86.6653,-43.7521,47.0505,-175.5241,-9.9924,-21.2285,-52.7975,-61.6781,184.3605,21.8531,135.6548,-14.7062,163.9177,76.0632,-78.8623,-209.8553,-94.6765,81.0318
-882.8125,-190.2270,-102.1230,-65.9290,-112.5158,-1.3364,-255.3695,-88.8824,-99.9553,234.2770,115.7056,68.6190,89.9454,128.5119,15.8786,157.0029,70.1749,-42.9523,-102.4981,-58.4818,258.2066
-875.0000,-276.6847,-177.7802,-76.7553,-92.5422,52.5884,-156.4628,-26.0066,35.0875,-32.9033,67.8635,93.6324,-68.2303,154.1102,114.2101,183.8466,132.0473,-129.3084,-13.3965,136.4664,137.1296
-867.1875,-226.4815,-212.9217,-23.8799,-181.8917,59.4748,-103.8623,135.5567,50.8297,238.6492,120.7484,72.3540,-126.7167,95.4067,92.2339,162.4016,73.6298,-219.9648,-172.5731,81.1185,152.7815
-859.3750,-439.7646,-300.1933,-251.4364,-219.6962,0.4082,-37.7055,18.6620,118.1375,305.7195,187.1763,66.6461,-133.6590,52.2483,194.8088,118.5152,176.7770,-187.0714,35.8255,184.3354,255.9862
-851.5625,-396.2697,-261.6059,-89.1719,-105.7056,88.3423,87.2566,106.5586,133.2372,25.6037,18.4161,227.7388,-191.7923,65.8766,173.1842,170.4288,44.7269,-143.3745,9.0277,123.3372,124.0088
-843.7500,-460.8752,-281.5865,-123.9614,-134.7608,46.3516,89.1722,-1.6211,-11.7113,285.4382,130.6121,192.7881,-116.9762,104.4437,173.5201,134.2948,47.6431,-101.7182,16.2192,60.3022,236.0014
-835.9375,-532.4556,-287.0892,-156.6694,-64.7621,65.3879,167.1459,2.2587,102.3967,31.3046,98.8459,49.9027,-150.1254,108.0584,213.8904,139.2180,124.6074,-138.0061,156.4669,199.3150,130.0421
-828.1250,-426.8762,-234.6470,-44.1705,-99.5780,105.4784,132.3111,224.3231,67.6944,144.4019,64.3052,-57.7763,-111.0754,35.8655,142.4518,141.3473,52.7839,-138.0879,-19.0638,129.5261,95.3109
-820.3125,-569.2941,-300.1952,-232.6127,-134.3467,40.1317,89.5354,72.4241,136.0614,249.5203,169.8186,-62.3927,-115.9892,31.7134,173.0801,98.5311,158.0214,-138.1236,157.4967,199.8119,200.6291
-812.5000,-588.5424,-321.7669,-97.8357,-117.9194,150.0707,77.9670,243.7412,271.6305,-21.1451,47.5387,108.1865,-202.7029,91.7546,122.9043,159.9179,108.4565,-157.9605,68.2641,216.2914,41.1534
-804.6875,-582.8448,-301.4485,-58.0609,-146.4936,142.4574,-29.5996,245.0449,126.2037,275.1962,160.2753,73.7717,-127.4178,92.7912,50.7269,88.3064,36.8995,-80.7881,5.0748,117.7859,153.6980
-796.8750,-654.1742,-321.0851,-93.2628,-77.0644,144.0245,-29.1585,136.3527,200.7910,55.5115,162.0036,149.3805,-199.1473,93.8216,51.5347,89.7065,75.3451,-45.6160,145.8970,222.2852,118.2420
-789.0625,-407.5409,-200.0608,92.5390,-41.6455,182.9847,-63.7174,285.6492,93.3696,94.8553,127.7508,114.9898,-160.8715,95.8422,-92.6524,92.1106,-33.2028,23.5611,-98.2673,47.7723,83.8168
-781.2500,-465.2066,-175.5527,-46.9083,-27.4797,91.4488,-92.5217,108.6731,-9.2870,248.9239,208.2560,-24.6378,-6.8514,66.6038,23.9201,99.2732,12.0182,73.4896,-14.6456,26.0266,238.1538
-773.4375,-452.5006,-162.3657,11.0710,20.0784,120.5356,1.0696,130.1007,48.4625,-96.6026,83.1756,70.1389,-23.4378,49.7632,117.8819,120.8474,32.6455,50.8188,-1.6258,74.6712,75.9022
-765.6250,-390.3521,-146.6400,37.5417,-20.8783,90.5197,-8.8435,156.0043,-71.2859,149.3949,109.6248,59.4200,3.4770,2.4163,106.3563,72.9290,58.7903,113.6533,-113.0735,-73.1752,139.1773
-757.8125,-497.5918,-174.3368,-69.3245,12.8199,63.3609,28.9028,9.5595,2.6314,3.0143,74.7170,24.3695,-31.9662,2.7118,217.4801,74.6742,97.5897,183.1369,98.1478,67.6386,104.1008
-750.0000,-269.7649,-76.6519,137.9187,100.6092,86.5108,126.7510,34.2045,27.6416,-156.2359,-48.0781,12.4147,-82.3053,-9.9002,204.6920,25.5216,47.4939,200.7324,-24.5137,-55.4513,-18.8497
-742.1875,-364.0389,-98.8797,35.1116,78.3482,-16.3087,134.5528,-179.2242,-38.3840,108.4457,107.0875,-17.5808,35.2964,-39.5674,247.8599,-40.6766,92.3625,177.2874,58.8193,-77.5712,99.1623
-734.3750,-374.6879,-104.8280,103.9893,138.7373,32.7799,239.0049,-147.9989,66.2433,-190.2324,-8.0896,51.0916,-43.4566,-45.5930,241.6726,-9.2199,123.8846,132.4989,83.8067,16.9453,-16.1702
-726.5625,-210.0367,-47.3800,200.2132,58.4702,50.2457,150.8036,-16.4466,-57.7873,51.4613,-58.9013,0.1207,15.1520,-60.2803,152.8386,12.5924,35.7723,157.0686,-135.8201,-133.1888,79.8768
-718.7500,-275.6770,-64.9981,93.1971,28.9551,21.3207,80.3630,-159.1496,-91.0507,-18.1331,-17.9726,3.9243,54.5049,-57.2269,228.7601,16.1624,112.4198,198.3864,46.3325,-56.5581,156.6744
-710.9375,-129.5977,30.0358,254.9401,141.1774,69.1264,20.6665,-37.1050,-78.5708,-188.9465,-79.2771,90.4784,68.6056,-82.4258,94.4285,66.4892,15.8187,205.4566,-86.7460,-190.1886,23.2455
-703.1250,-182.6809,26.2879,120.5820,124.2885,6.8476,-76.1265,-97.1806,-174.1767,117.1338,44.3367,-42.0650,154.6020,-68.7290,70.0035,41.7208,28.1322,222.4347,-31.8745,-242.8992,146.7338
-695.3125,-256.7452,25.9164,87.2984,227.4475,17.7850,-0.8598,-131.2050,-25.7276,-210.7475,-26.0022,-40.5417,119.6469,-103.9877,72.6220,45.0134,68.4974,149.4651,106.0543,-69.5644,39.2728
-687.5000,-114.6060,62.4436,201.2600,159.8464,31.7697,2.6567,-18.9992,-59.0332,-61.3498,-22.0726,-73.7651,122.9462,-137.0077,38.4939,11.5613,-38.8761,152.7551,-65.7375,-170.9774,43.0954
-679.6875,-209.4111,-12.6389,62.3318,101.3411,9.3605,47.2841,-157.7062,-86.2207,-15.8854,-13.0443,-63.8738,57.3303,-92.9353,119.4726,19.2181,5.8726,164.1423,157.6062,-53.2715,125.0242
-671.8750,-87.1504,10.4248,236.5196,119.9233,78.4072,73.0088,-22.3083,-61.3074,-210.2980,-169.8998,35.1151,-27.1825,-105.7719,70.5486,81.9818,-4.2737,112.6372,2.0550,-70.4774,4.0729
-664.0625,-73.1997,10.6101,97.4459,29.2540,-26.6981,8.4809,-87.1829,-161.6437,202.0427,22.0067,-103.1326,91.0576,-133.8598,41.3798,53.5062,40.3426,91.8939,-52.7037,-159.9229,159.8955
-656.2500,-110.5786,-17.4529,-10.9029,63.2839,-45.2535,46.6555,-122.3556,-14.2737,-17.9387,-13.3926,-64.6616,18.9948,-169.2511,152.9099,55.7352,152.6613,19.8630,87.2477,13.3276,88.4202
-648.4375,37.0548,-3.3978,147.8016,1.3512,28.9629,94.8731,34.5026,-39.8614,-6.8438,-74.7188,-17.1390,-44.0111,-121.6054,53.4910,30.0092,54.0420,-41.1022,-43.7228,-82.3765,63.0262
-640.6250,-149.6524,-76.9849,-11.7893,-42.8825,-0.3017,116.7929,-89.9570,-52.7395,51.9207,-14.3477,-29.8940,-20.3276,-100.2630,148.7746,15.9913,76.1323,-14.3582,159.0467,13.6375,159.3417
-632.8125,-116.4797,-66.1536,106.5418,-7.2225,63.4008,162.6091,28.4872,65.2785,-232.4041,-43.0733,15.2526,-86.7483,-93.0178,82.9474,24.8875,48.1149,-49.7029,89.7324,49.5381,-15.4310
-625.0000,-87.2691,-58.0489,60.9616,-81.4627,11.6404,79.5236,54.9982,-17.5940,125.3756,58.3140,-103.5010,13.9404,-101.6757,36.2347,14.8841,39.2150,-88.9338,-19.4300,-60.4504,85.9138
-617.1875,-220.3858,-83.3965,-38.8966,-3.9949,4.9532,53.1464,-45.7943,67.2493,-49.1800,-4.6067,-57.5405,24.3295,-56.6415,119.2155,25.5838,123.0155,-115.4568,131.1309,89.2583,59.9518
-609.3750,-114.6810,-32.3684,115.0983,34.3147,73.9525,22.6167,144.2488,-0.0680,-42.8543,-34.6616,-13.7303,30.5740,-13.7644,15.0370,32.1371,19.6595,-114.1157,-76.4360,-13.1945,-7.1314
-601.5625,-177.7805,-66.5700,7.3393,-63.1302,26.1544,-48.6609,34.5244,-34.1259,179.6991,114.5384,-47.6502,68.0597,-48.6394,-20.8767,32.9489,20.5749,-70.5178,38.2915,29.6170,142.0454
-593.7500,-97.3123,-37.4994,64.1983,-14.9840,80.3214,-30.3339,90.4010,21.4169,-96.1433,-49.6577,8.0451,-22.8565,-30.9172,-76.1884,53.3719,4.0987,-58.3173,87.6293,78.0158,14.8317
-585.9375,1.8490,7.4546,92.7983,-56.0993,64.4964,-75.2558,154.9975,-96.2893,152.7760,-21.0847,-37.5058,41.9836,-40.4476,-120.7441,44.5447,-77.6150,6.6448,-57.2380,-67.8213,80.3966
-578.1250,-141.0231,-11.8501,-18.5818,48.7822,34.9666,-40.1749,6.5897,-60.9771,4.6628,-57.5175,-38.0352,40.8133,-41.9819,-13.3071,43.7271,-5.3263,41.6156,118.9144,72.3563,79.9652
-570.3125,4.1167,42.5689,179.0936,90.7019,100.7215,45.9485,129.2246,-48.6227,-93.3698,-190.8897,-24.5072,-20.2968,-66.4688,-74.8221,55.9664,-65.9836,48.6515,22.1316,-25.4289,-17.3881
-562.5000,-144.7517,-18.9038,18.8105,48.6686,14.8563,33.1202,4.8888,-60.2084,224.6335,15.7852,-146.9120,2.6479,-115.9022,-51.2720,6.2607,-5.5700,77.7430,122.4411,2.8504,117.3229
-554.6875,-217.9901,-75.8108,-10.8029,48.2794,56.0450,112.9451,47.2144,128.8589,-63.7181,-87.8878,-67.6600,-101.7552,-74.6886,-9.0787,49.2186,37.4849,6.4874,193.4066,143.7687,-23.3121
-546.8750,-99.9719,-65.2738,39.8694,-42.8209,58.7501,89.0626,133.8175,69.2187,133.2530,-37.2386,-91.1114,-88.8468,-25.1804,-33.5835,63.4796,-59.1528,-13.4483,-1.2865,17.9857,27.3848
-539.0625,-211.3877,-102.9417,-113.8468,-47.3124,5.9585,81.7869,-58.0029,61.1931,51.7841,29.0042,-96.9440,-59.3399,2.9216,68.5163,-18.6575,80.8196,-18.7698,205.6523,153.8064,93.6853
-531.2500,-73.5319,-32.4368,38.7523,22.4916,35.6657,124.8107,20.4539,104.4592,-126.3702,-148.4434,-54.4651,-53.5256,8.3179,73.9173,-85.4922,87.0985,-53.7719,65.9093,47.9025,-46.6910
-523.4375,-112.2300,-15.9405,-5.1567,20.7945,-18.7540,117.3376,-60.6235,-13.7715,196.9669,-80.3857,-134.4669,48.7886,-36.7872,28.8231,-55.8246,5.8951,14.7416,66.7176,-58.4891,93.4519
-515.6250,-160.5512,-40.4747,25.3543,80.4931,5.8649,146.2648,-106.2871,16.3986,-68.3071,-124.9329,-69.0559,-32.5036,-81.4959,57.1196,83.2504,36.0871,4.6677,162.9441,36.5208,12.9958
-507.8125,-66.3638,1.7538,89.4062,35.7261,-3.0069,99.7292,-5.4045,-29.8862,69.0061,-97.9099,-115.1028,67.7581,-91.6559,46.9670,0.8772,99.8347,-39.8477,13.7533,-113.9148,4.1161
-500.0000,-260.0654,-47.2382,-75.3904,20.1064,-17.6749,44.3490,-62.3765,24.9962,123.4435,68.2551,-131.9852,122.1656,-37.6639,64.9678,-91.3335,7.7328,-21.2098,174.7503,46.8131,59.3884
-492.1875,-137.3439,-23.4063,100.2713,3.9273,74.3495,-1.5879,149.1039,53.3221,-32.6489,59.8770,5.6043,40.0303,-47.2201,-91.5974,46.9137,-147.9270,-36.1143,-14.7942,101.9749,-95.8723
-484.3750,-113.5733,-25.5362,86.0150,-75.1567,9.9385,-90.4269,60.6565,-35.2464,283.3599,192.6138,-118.6955,98.0028,-99.6778,-144.0589,32.2653,21.5251,-8.9066,-22.1924,-11.7487,36.9920
-476.5625,-243.4790,-74.9914,-7.8723,-26.8939,-19.1113,0.0881,-71.4388,165.5471,5.6917,98.6948,-102.6318,40.3324,-120.7875,-18.1677,-25.0260,185.3302,-66.3420,133.7703,141.8749,-19.7932
-468.7500,-42.1694,-35.0114,58.4830,-105.3931,22.1941,-7.1534,141.6919,158.5840,145.3016,129.0477,-146.3190,-40.0722,-91.6484,-174.0194,-32.0671,-5.6037,-38.5148,-83.9931,99.7369,-26.3002
-460.9375,-32.6980,-40.2153,-78.9691,-198.6865,-23.9807,-109.1938,76.0030,93.8338,337.0779,211.5991,-209.7874,-32.2761,-120.3020,-164.6640,-23.9001,2.6697,78.5208,35.4812,216.8086,56.3978
-453.1250,57.7598,21.8614,101.5959,-70.9835,22.6981,-40.2430,107.3154,126.0786,1.8609,61.1468,-140.2396,-73.4737,-161.9546,-170.3230,46.2686,35.9399,101.5702,-11.0385,169.8620,-130.8940
-445.3125,3.6326,24.1859,153.5960,-52.8378,24.3583,-61.8480,85.0514,-5.2323,200.1037,150.1475,-162.2379,14.7885,-111.1642,-193.5279,23.8883,50.6675,155.0874,-61.0616,-23.6270,-41.7111
-437.5000,-179.4117,-45.9580,77.7077,-22.5932,36.9554,8.6522,-65.1083,102.5660,-59.5866,74.2316,-53.1169,-24.8551,-41.2729,-85.6367,-15.3836,122.4868,150.7173,182.0343,77.9901,-80.4311
-429.6875,-32.7798,22.8887,310.5182,56.3357,117.4675,20.8452,56.4239,41.0533,-195.5454,-96.9751,32.7144,-49.7859,7.3182,-148.0508,-76.9563,61.0004,160.0636,-19.1510,-89.6981,-141.4281
-421.8750,-109.7383,19.0021,153.7629,16.7186,15.6229,-63.5101,-139.6162,-5.9960,14.9206,3.2748,-50.9887,49.7361,-40.6428,-86.0031,-124.0782,123.9787,260.8661,84.1624,-93.9224,-3.9666
-414.0625,-82.4620,13.2784,194.2638,81.3499,43.3065,-60.6193,-100.3988,107.2088,-240.3626,6.7758,62.5532,-57.4864,-38.3532,-120.7108,-83.9431,127.2084,220.9272,115.7359,-62.9103,-184.2521
-406.2500,-18.2308,44.4391,224.7450,42.9711,34.1882,-103.7344,-34.2031,-9.5886,47.3755,37.2907,-16.9044,9.3023,-46.0573,-201.4184,-53.8035,47.4486,253.0031,8.3473,-207.8946,-116.5175
-398.4375,-112.2207,29.2794,128.0353,92.3979,20.6169,-54.0461,-206.2120,3.4250,-124.1251,-59.4060,33.4597,21.8887,3.0430,-115.3282,-76.8577,97.4890,267.8906,200.7785,-87.0750,-65.9885
-390.6250,19.8325,97.5826,273.3813,156.8638,93.7713,-20.3153,-25.1817,1.4736,-274.5515,-172.0477,104.8771,19.5396,0.1912,-229.1931,-42.8625,21.5689,226.8494,56.2738,-163.2251,-141.3872
-382.8125,-80.2975,51.9886,127.5664,93.1757,24.2162,-92.7349,-98.3283,-70.6242,21.8569,14.1566,107.1625,94.0427,-35.8130,-227.1984,-78.0149,59.5067,199.6746,100.6615,-155.5127,8.0774
-375.0000,-80.1298,44.5591,136.0644,130.7910,74.9996,-48.8620,-55.1699,84.5743,-301.4453,-125.3499,188.7627,27.8568,7.4854,-147.9166,-33.8642,67.7336,131.8202,140.3473,-12.5134,-94.1557
-367.1875,52.1095,91.9493,164.6494,54.5012,52.8203,-93.8991,46.0642,2.8593,-53.6258,-96.7468,107.4711,92.7948,-38.1160,-194.5310,-41.6169,22.0625,162.0808,-38.8298,-158.4214,-28.2661
-359.3750,13.2190,123.3978,14.1356,89.1187,-42.2146,-61.0277,-177.8113,-37.9396,-57.9474,-63.2467,104.0984,199.6291,-79.8138,-88.2427,-118.4623,56.2960,232.2433,102.9236,-53.4203,42.5140
-351.5625,221.5635,243.3913,241.8740,194.9738,12.3276,-54.9163,-136.4294,-31.4905,-271.9930,-239.4871,221.9727,205.7226,-74.2566,-192.7197,-112.0533,-84.2228,267.6601,-36.0665,-88.1840,-97.4411
-343.7500,215.0340,206.9014,196.7382,83.9642,-26.4655,-63.6638,-182.9240,-149.8849,13.1034,-101.5712,140.0063,232.9650,-83.5433,-202.0457,-157.4930,-56.5777,228.2399,-2.8658,-56.7853,4.7731
-335.9375,74.1051,79.2456,169.2117,51.5493,28.1502,19.1825,-137.8150,43.3218,-236.2211,-91.0660,149.6634,58.8051,-1.2249,-120.7797,-148.3250,63.6602,55.4304,141.9395,86.2050,-132.4146
-328.1250,160.8605,88.2918,228.3784,0.8262,44.0997,3.7143,29.9780,65.2101,-104.8202,-69.8565,135.0280,79.3585,19.8024,-136.8142,-163.4574,11.5906,-29.6562,-47.5313,-105.1196,-146.8776
-320.3125,58.0494,45.2545,44.9989,5.5546,-40.7288,-32.3034,-191.7915,28.5525,-30.0029,5.7911,136.8571,117.3667,56.2804,-26.3964,-163.1373,48.9663,-59.2759,100.4767,-63.9813,-34.8942
-312.5000,191.7913,63.4861,156.1759,35.8271,28.4337,-32.7791,-45.0124,102.4329,-214.6230,-68.0122,174.2344,-30.0588,92.3089,-100.4384,-89.2692,-61.1131,-99.3287,-42.9627,1.6939,-144.3534
-304.6875,175.7544,37.2556,62.5749,-83.6482,-7.5188,-91.0123,6.9854,-28.4365,169.0120,95.4415,6.8683,22.7784,70.5885,-122.2243,-73.1525,-81.9323,-77.1141,-89.1125,-46.3712,19.4486
-296.8750,40.3663,11.2658,-74.3680,-4.4711,-2.0007,-43.5942,-20.3659,55.3528,-115.7316,33.5299,54.1711,-3.7361,43.5283,-38.3647,-62.3826,2.8978,-67.2433,97.3937,103.2084,-6.1106
-289.0625,195.7174,64.6852,94.4228,12.4518,55.7332,-23.4296,110.0217,2.8845,-94.7041,-55.6245,113.2229,-20.4870,101.2204,-91.7605,-40.8678,-123.5273,-49.6044,-94.3291,-55.4699,-57.9008
-281.2500,88.9063,3.7390,-91.9468,-56.7672,-3.5064,-63.4087,-4.7648,-73.7201,85.1348,52.0569,110.1486,13.6122,133.7631,-59.2981,-44.5023,-16.1020,-48.1039,50.8344,-18.2868,50.1564
-273.4375,68.5537,-24.0192,-30.8608,-39.5309,65.2455,-39.9387,91.8951,24.1243,-148.5791,-33.8213,171.5333,-72.8297,193.7574,-73.3923,53.3146,-65.2374,-100.1410,-0.5562,69.3254,-72.3347
-265.6250,115.3319,-6.1950,-22.6426,-95.1530,53.4631,-140.3311,135.6746,-112.8864,190.8659,11.4604,144.0654,-28.1088,164.9153,-138.3390,99.2866,-166.2181,-15.0184,-123.7633,-56.9173,84.3450
-257.8125,39.4618,6.0868,-134.0671,7.5714,4.2449,-143.3799,-52.1888,-115.5461,40.6334,-27.9194,215.9664,5.9619,161.4352,-31.9478,96.6159,-95.8538,53.4537,50.3875,11.1896,82.3701
-250.0000,252.5919,96.4301,21.4926,47.2828,34.2402,-136.4425,28.9512,-144.2241,-61.5608,-92.2915,298.8707,15.0480,169.9559,-60.5684,67.9446,-196.5025,58.9377,-116.4527,-124.7099,18.4174
-242.1875,117.3038,34.2503,-123.3681,-15.4087,-30.7240,-96.9079,-116.3250,-178.2935,160.8283,56.9319,227.3852,52.7375,134.0771,-23.5820,-3.1241,-158.5490,32.0286,68.3436,-80.9948,168.0667
-234.3750,2.8746,-10.8031,-195.3718,48.7507,-20.5955,13.4704,-80.7398,5.4839,-133.9409,-15.0104,302.7641,-19.7115,97.0573,50.2462,-2.3398,-121.7588,-43.0200,169.9851,18.5514,22.5603
-226.5625,44.9349,27.5815,-296.8991,58.4016,-69.9996,58.3355,0.3268,-23.2525,58.8132,-6.4448,201.6384,62.3518,104.5472,57.5785,-68.0558,-148.4698,-33.5494,41.1488,-112.4010,68.5679
-218.7500,-47.6936,-6.3739,-466.1233,74.3574,-99.5881,109.4984,-132.3021,-8.6839,-38.1641,-63.5949,216.8193,39.7115,155.3468,108.2027,-52.4689,-133.8903,-16.7687,200.6215,44.9537,120.8616
-210.9375,98.4976,14.0284,-233.5535,47.1073,8.2838,83.4506,24.8726,-70.3269,-172.3195,-124.9426,339.7903,-59.1176,203.9473,-27.3820,32.9121,-305.5175,-7.1744,-0.1012,-16.9067,59.9634
-203.1250,-19.2788,-50.8289,-360.9561,-68.0889,-59.1529,-43.5471,-66.9266,-159.9130,176.5497,77.7650,249.8274,34.1135,185.5982,27.0888,-20.6636,-176.0872,-51.5216,99.2625,-61.7037,227.1144
-195.3125,-137.8460,-94.7805,-402.1469,-9.0853,-58.3782,60.6510,-110.5189,54.7036,-122.3909,35.6621,245.0838,-8.4492,179.4576,131.7496,-63.0384,1.5271,-166.6610,230.8164,68.6861,112.4525
-187.5000,-68.3624,-84.9058,-328.3064,-76.0411,-42.7936,60.8836,35.9235,18.3539,60.7477,110.6143,173.3904,-7.9514,142.3795,58.4507,10.6340,-69.8166,-128.7340,25.4342,-68.8782,150.8588
-179.6875,-182.3154,-110.9082,-447.9217,-83.4449,-85.4038,14.6641,-121.0900,10.5626,50.3972,175.0998,127.2563,20.0967,95.8580,84.7053,74.8590,-5.6132,-64.2513,231.6156,29.1149,215.8071
-171.8750,-38.8039,-30.8252,-249.0898,-6.4035,-1.8982,-9.1120,38.3443,60.2096,-155.4884,5.0335,178.5766,-3.3898,108.7887,-49.5950,125.5280,-66.9672,-57.3057,64.2415,-34.4603,83.2121
-164.0625,-49.7511,-41.1596,-264.7324,-119.8082,-25.7692,-98.3393,-14.6910,-28.5956,195.1693,136.5169,126.4527,90.6867,129.2777,-102.3447,73.7429,-81.7772,-28.7960,94.4499,-146.4800,252.1712
-156.2500,-179.2741,-92.0625,-282.9658,-70.8067,-8.3040,-79.1688,-107.3156,99.9958,-43.7923,82.3834,183.7373,-0.8403,111.1776,-48.7102,92.3639,46.7980,-14.8816,286.0512,41.8893,161.5173
-148.4375,-119.1394,-72.4318,-176.5712,-80.1627,-2.2106,-48.3583,33.6937,59.2222,97.9233,188.9061,69.6644,-4.6939,32.7309,-90.4261,88.6332,-30.9803,-22.3076,140.3147,-36.1047,84.5312
-140.6250,-205.0993,-93.2548,-230.2895,-92.6147,-40.4095,-28.6487,-94.4076,5.3620,154.5092,282.3206,16.5008,14.3502,-22.8071,-35.2449,33.8020,-46.8608,36.1720,235.4970,56.8141,178.4327
-132.8125,-80.0884,-56.0320,-20.0563,-71.1241,65.1968,-2.0024,41.4609,32.4410,-112.9347,15.6876,81.2877,-68.6590,4.6169,-82.1327,98.9232,-57.8102,24.6068,83.6138,79.6730,96.2824
-125.0000,-60.0733,-48.8676,-74.8485,-153.6400,12.9386,-20.3690,20.3110,-59.4829,198.6222,35.0535,-83.9211,59.3370,21.0456,-28.0198,79.0394,-1.7586,-22.9456,38.7558,-38.4550,225.1379
-117.1875,-178.1820,-102.2272,-189.7814,-92.3020,-18.1197,9.1133,-95.9758,81.4405,-29.0007,102.2449,-88.2719,17.1880,52.3291,75.9401,111.0043,102.1321,-136.6400,207.7419,93.2605,146.8258
-109.3750,-67.2720,-87.1660,-104.7311,-121.9690,3.6097,-15.4160,61.7323,93.3507,-16.5941,151.4440,-112.6334,-6.9395,63.6110,12.8941,196.9614,41.0091,-199.3208,5.7310,-5.0355,49.5239
-101.5625,-180.4588,-143.0145,-258.8018,-196.7310,-39.9390,-61.0456,-20.6687,49.1664,232.6872,217.5385,-156.0866,-15.1692,91.8028,4.7459,188.8217,32.7835,-97.1008,108.6470,95.5816,116.1082
-93.7500,1.5343,-84.6567,-130.7213,-188.3422,23.1153,-5.5263,70.0903,105.1255,-43.8801,-21.2299,-100.3865,-106.2402,110.1578,-51.2628,207.8308,-59.3031,-88.7307,84.6976,175.3280,-85.1683
-85.9375,257.5272,50.6348,-45.6762,-176.9501,-16.3233,-105.0100,43.8267,-67.9165,150.5599,-8.9940,-162.6932,14.7069,120.5238,-114.2610,108.8325,-158.3877,-5.3581,-41.2355,-23.9251,-36.4385
-78.1250,271.6968,107.4988,-98.4848,-89.3977,-59.1652,-121.3385,-157.2775,-47.8013,-122.8886,-98.6305,-103.8447,72.8070,104.0478,-21.1095,18.9813,-100.3312,48.1661,154.9742,63.9719,-88.5792
-70.3125,551.3956,241.4531,55.1992,-19.3518,-54.0857,-115.1805,-41.8871,-77.2056,-227.8127,-165.7729,-96.4945,79.4185,37.0805,-89.4693,-11.3760,-204.7871,84.2084,-54.3258,-6.6477,-228.2131
-62.5000,508.6057,271.2660,-99.6348,-23.8046,-146.5169,-196.5272,-124.0160,-122.1088,21.7381,-25.4245,-250.6306,182.5303,-81.3812,-60.3278,-92.2349,-174.7507,185.7607,84.8973,24.2422,-161.3552
-54.6875,528.5006,309.1279,-65.8136,103.3977,-138.3937,-90.2282,-91.4788,-14.3686,-313.0663,-175.4311,-253.1302,142.3006,-122.1868,45.4499,-132.4488,-105.0833,172.9694,108.7556,116.7733,-384.8632
-46.8750,630.1085,356.8620,42.6768,102.2974,-118.2861,-56.2350,14.7463,-127.9363,-58.1461,-251.7286,-254.9445,176.7856,-125.2950,-68.0718,-134.9690,-217.7166,207.8871,-65.6758,-24.9936,-349.6652
-39.0625,509.1443,284.8508,-48.4407,88.6003,-117.0802,-74.8438,-77.6175,-108.0929,-76.8561,-231.6447,-198.3436,121.6653,-69.9908,-13.2048,-78.0884,-124.9592,196.2048,29.2857,102.6472,-256.0893
-31.2500,533.8635,245.1738,93.0889,45.5443,-56.3424,-80.8187,25.6812,-40.6182,-192.8868,-200.9124,-129.0918,79.1988,-2.0228,16.2987,-47.5557,-94.5752,48.1782,-117.1226,-10.0777,-297.8611
-23.4375,346.8407,160.0756,-72.1549,1.7357,-143.5941,-62.5528,-140.7853,-94.8938,46.3184,39.0670,-220.5905,134.9929,-20.7958,108.0648,-101.7759,35.0618,5.4056,-17.2658,-54.5398,-94.3898
-15.6250,154.4044,63.9359,-84.8456,57.4842,-89.6354,35.2575,-153.6903,40.3797,-260.9409,-46.4187,-84.5445,13.3466,2.9857,168.3814,-77.4534,133.2392,-78.8148,77.1172,108.5370,-142.3915
-7.8125,76.3406,13.2748,15.7841,17.5785,-16.6482,25.4064,56.7416,-7.0072,23.1721,-18.5480,-56.1637,-33.9345,-6.8761,48.0465,-13.7863,12.7630,-47.6797,-136.1452,-3.0398,-41.0375
-4000.0000,98.5865,15.4255,-123.9622,-18.9622,-65.6796,-20.6628,-9.4618,-25.2254,62.0069,2.3717,-20.9609,-26.9224,-2.8007,38.7726,-34.3476,13.7955,-16.3568,-50.6803,67.3362,-27.1144
-3992.1875,53.3069,-31.1285,13.3842,6.2194,44.4934,9.5843,167.9407,4.8588,-91.1519,-114.9886,43.1234,-144.1618,63.7568,69.6131,68.7996,-29.4016,-26.2095,-165.9984,24.0678,-107.5211
-3984.3750,-53.1413,-76.3293,0.5876,-30.7488,37.2207,-38.3178,119.2029,-153.2100,267.5732,-15.4900,-4.9871,-82.5431,89.1571,60.3238,130.7982,-113.7447,-28.2041,-169.4784,-81.3604,101.9406
-3976.5625,-221.7395,-158.5293,5.6744,-23.8104,104.3678,-31.3128,89.3499,-36.3714,55.2036,-8.0797,110.7678,-149.0249,170.4645,104.9689,137.7050,-143.1772,-91.2993,-22.0378,-3.8630,109.3195
-3968.7500,-147.2062,-126.9791,152.9290,-54.7247,132.6701,-29.1479,165.6696,-107.3724,132.9875,67.4793,111.6525,-110.3740,135.9314,-1.2305,66.7765,-103.4624,-87.2543,-159.4655,-103.2141,148.8526
-3960.9375,-312.8191,-162.1503,10.0718,-44.7503,58.7355,-60.0879,-48.1146,-175.4737,213.7185,111.9651,79.4028,-68.8237,69.3049,43.4919,109.7559,87.1582,63.6907,-8.9793,-20.6661,265.3219
-3953.1250,-203.9152,-80.7434,164.7613,62.7872,151.2349,-49.4709,145.6514,-165.0096,-32.0277,-60.9995,88.6882,-131.7317,6.2272,-18.2066,229.2934,-12.6654,171.1806,-76.9227,53.4445,92.3464
-3945.3125,-164.4760,-26.4246,164.0130,101.8881,126.4922,-49.2978,182.9745,-311.9960,264.7982,13.5927,-132.5071,-58.0825,-29.2986,-16.3464,156.3806,-47.9419,245.2228,-73.3288,-46.9166,166.9371
-3937.5000,-338.6803,-90.6472,20.6511,209.4036,65.6588,65.2782,4.6783,-123.5746,51.0309,54.5960,-166.3401,-127.0332,-60.4219,137.9424,14.8718,178.1908,141.6758,208.6866,62.1343,98.9523
-3929.6875,-246.8951,-65.6824,115.3119,229.9298,52.5380,163.8657,65.3978,-26.1444,76.2512,152.5838,-217.2063,-140.9906,-109.5422,90.2520,1.3678,129.3217,56.1318,87.6938,-125.8109,49.9653
-3921.8750,-415.9981,-107.5182,-70.8843,201.6039,-28.8900,198.6036,-118.7392,-63.5702,260.6635,225.7376,-292.9585,-31.7881,-110.5167,164.7447,-34.9847,128.6127,63.7394,199.8560,-82.6120,233.1579
-3914.0625,-444.0506,-132.2559,50.0223,174.3838,70.0819,211.4510,-32.7778,58.1187,-91.8431,90.9893,-245.6257,-93.4935,-61.3787,178.3600,49.7774,141.0115,36.4450,171.1312,30.7031,135.4541
-3906.2500,-416.9350,-150.7373,71.1503,60.3646,94.7333,161.4987,101.4078,-64.9947,189.8795,151.4451,-371.1249,-71.0043,-37.0258,130.1801,73.7525,128.6006,27.3475,57.5961,-10.7932,232.9639
-3898.4375,-579.9258,-216.6723,-64.7912,38.2980,90.9481,210.5014,40.5298,57.8526,93.5749,128.8714,-396.7082,-95.5614,-23.7223,181.9791,86.6801,178.1464,5.1986,245.0434,143.6726,246.4498
-3890.6250,-451.7419,-168.0424,106.4906,25.4437,159.7066,199.7206,212.8651,83.9180,47.4375,8.4907,-298.1143,-106.9305,-35.2188,98.9985,147.8139,21.8946,27.2504,21.6922,28.3412,199.1344
-3882.8125,-499.9344,-179.8428,-26.5685,-57.7611,81.8513,142.5872,45.8524,-11.3633,322.9795,61.7767,-320.9156,18.3585,-19.0688,117.6844,164.6002,38.2991,48.9549,77.9909,51.6527,362.4988
-3875.0000,-539.7734,-186.3532,-26.2337,8.4360,132.6776,144.8625,85.2296,137.7701,-3.0811,-9.5328,-247.3390,-15.9602,57.4846,157.7975,129.7964,114.1175,-24.9428,178.7108,153.3852,218.2734
-3867.1875,-499.2332,-170.5513,49.5222,-21.9655,154.0919,76.5343,199.0352,106.3100,186.2823,105.5657,-317.3927,24.1212,99.4411,53.3176,134.4022,46.3298,-20.4435,42.8104,-15.4918,223.4534
-3859.3750,-660.5917,-221.6959,-47.5805,-42.2139,154.8264,54.3492,104.9851,157.0034,128.8278,120.8306,-304.3175,38.3652,150.5513,107.0065,149.1565,24.6939,29.2123,197.0749,105.7838,238.8129
-3851.5625,-484.9296,-166.3989,138.3918,-7.3973,224.9897,23.2166,255.9929,198.7562,-11.6127,-19.8671,-154.1954,-30.3491,155.7210,3.7617,190.9729,-79.8997,-6.0787,-13.6059,72.1088,134.2226
-3843.7500,-458.3960,-190.1400,12.2818,-121.6759,135.2422,-103.0178,167.8964,110.4025,305.8756,184.3489,-244.2072,-9.1525,104.7957,28.4284,211.6973,-20.5981,20.5384,-23.3887,101.3109,266.5590
-3835.9375,-467.2596,-220.8061,6.8288,-129.2923,158.0133,-69.5922,164.4340,326.7118,46.9999,182.2173,-286.5985,-123.3099,100.5295,25.7717,209.0797,85.3644,-58.1905,108.5026,269.1691,153.5608
-3828.1250,-297.2849,-165.1983,145.2590,-135.0487,176.4073,-75.3084,232.8351,210.8747,153.9618,139.9168,-220.1588,-129.6150,95.1211,-51.0181,166.3187,-28.8295,-29.0634,-37.7674,88.8584,148.4145
-3820.3125,-376.5483,-156.9666,22.4945,-73.0028,104.6708,-49.2218,-35.9831,125.8397,106.7439,128.4225,-122.9433,-31.0997,157.5067,86.0185,82.3546,-40.2164,32.8728,129.7805,82.3426,211.0952
-3812.5000,-202.7003,-86.7616,208.9016,-39.7905,150.1075,27.0295,4.3450,92.9688,-217.3618,-13.9231,-47.5852,-27.4365,163.0404,92.2275,48.5456,-35.4457,-5.0400,55.4921,-24.0185,68.9223
-3804.6875,-165.3838,-53.3582,129.8260,-109.0736,71.3068,-13.2177,-108.8127,-57.3972,1.0620,57.2518,-163.7667,114.7392,122.0744,89.9453,45.2361,-2.1731,32.5476,57.6944,-89.8983,212.2633
-3796.8750,-226.7687,-25.7447,67.0969,6.0003,59.5224,36.8887,-132.6310,28.6017,-242.1636,-3.2122,-153.6195,125.2642,25.4610,142.0351,21.2781,47.4576,42.4878,171.2732,60.5846,151.9701
-3789.0625,-114.7124,43.5178,146.8560,48.5327,69.9645,9.4511,23.0154,-72.9359,-157.9562,5.7599,-146.0369,208.2254,-1.6939,79.5793,29.7857,-52.4711,14.8747,-31.7068,-105.4945,125.1255
-3781.2500,-223.0421,-10.5636,28.2737,-23.2892,42.1979,-34.3381,-93.6999,-116.8250,-53.0729,36.3994,-117.8372,236.8429,27.8025,110.7933,59.9401,-22.7432,46.9215,105.9822,-70.9343,228.9608
-3773.4375,-190.1580,-36.1263,179.9588,9.1522,125.9653,7.1335,-15.1689,-73.4455,-301.9719,-140.7163,-3.4039,95.7021,107.5622,119.2772,175.3570,20.2419,44.2162,32.9360,-72.1211,52.0454
-3765.6250,-178.2946,-65.2528,149.6693,-48.4038,40.8838,-19.3963,-115.6145,-138.0710,75.1501,15.1700,-69.9865,103.5682,116.3236,130.7645,184.7825,30.2182,56.5093,-95.1209,-198.3270,135.1442
-3757.8125,-238.8290,-83.5218,86.0266,-2.3011,17.9546,-7.2759,-250.4239,-16.0422,-94.0746,26.7099,13.0713,78.1012,128.7302,180.9180,85.8604,78.8486,-2.5398,54.5007,-45.8823,110.9166
-3750.0000,-7.3834,39.5353,256.4227,17.8191,67.2784,-20.1528,-78.2170,-29.0063,-141.3248,-93.7672,36.1231,139.6389,80.1425,61.0703,36.9475,-6.5334,17.4096,-99.8808,-199.4503,62.6840
-3742.1875,-55.0224,42.1086,162.7871,6.8917,3.5715,-38.0826,-244.0651,-83.0229,-47.5984,-75.2747,-20.9131,194.1413,-10.4913,155.1808,-17.0122,87.0355,77.3180,63.6952,-139.0858,192.4256
-3734.3750,-57.3951,37.3422,276.4719,75.2783,34.8410,39.2935,-238.6207,67.2786,-372.6026,-143.4767,54.3259,87.9369,-115.8199,198.6076,-13.6632,91.9067,38.5323,96.5904,-70.4129,50.4691
-3726.5625,-70.6723,20.0302,222.2915,26.7666,-4.7313,23.7699,-181.0582,14.6811,-92.5010,23.4096,-37.3531,107.8397,-168.0527,147.1410,-65.2150,75.8745,25.8514,47.5740,-151.6628,108.6204
-3718.7500,-271.8396,-15.4809,50.2656,108.4036,-24.5616,74.3968,-277.3623,102.2389,-261.2436,1.4536,-61.8954,158.9081,-117.1322,237.8419,-87.6136,163.9966,1.3224,304.7339,-34.7667,49.9450
-3710.9375,-172.0284,36.2147,198.2767,174.0501,55.8576,150.0326,-55.6512,177.8103,-368.0146,-143.5095,10.5664,159.9699,-42.2033,130.5416,-50.0006,19.1046,-73.2123,87.8903,-143.8788,-94.7374
-3703.1250,-129.2931,18.9638,50.2570,40.6470,-3.6043,77.6126,-89.9893,105.3269,-34.8057,-67.5095,-26.0392,196.9995,-40.3270,61.1977,-84.4366,21.1645,-100.7934,130.9951,-134.0659,54.5547
-3695.3125,29.2073,44.6790,39.0434,60.0572,9.3355,105.0006,-63.5439,242.6602,-298.8230,-187.7060,35.1445,39.8340,-12.6551,53.6736,-95.0695,12.0323,-117.5766,149.9335,26.5526,-101.3459
-3687.5000,246.4988,139.3964,118.6671,32.2722,-2.5661,38.1960,16.7194,139.8020,-144.0442,-180.1072,-33.8899,120.4695,-5.1842,-11.0472,-161.8998,-53.2999,-110.5591,-19.3361,-105.0501,-93.4478
-3679.6875,154.0469,102.1043,-17.4012,46.7869,-53.8931,51.6923,-189.7291,152.2499,-202.9449,-166.1845,-23.6442,95.4110,44.5905,40.5475,-112.4302,-3.3273,-61.2388,99.7182,50.6423,-43.2305
-3671.8750,318.1205,118.0645,157.1166,34.8655,28.4537,42.7439,-15.6193,144.2659,-319.3252,-283.7224,150.1562,-60.1021,35.9200,-76.3115,-10.3946,-121.8147,-37.3698,-123.6798,40.8794,-124.4709
-3664.0625,247.6849,92.2973,1.1653,-33.5533,-22.6077,-72.7166,-22.0071,26.7792,79.8131,-105.7611,67.4412,5.9097,-7.2556,-116.6847,-16.8563,-126.8180,-0.9874,-50.5844,43.5918,53.8139
-3656.2500,99.2639,20.3033,-38.7243,-4.9057,30.7025,-39.1247,49.6340,98.3464,-142.0311,-34.7514,100.7686,-70.0154,28.6170,-116.9886,18.7340,-92.7649,-78.5426,81.5942,178.3503,-57.8384
-3648.4375,147.4866,10.1667,86.0784,-96.5929,59.8442,-96.8772,212.9378,40.5669,96.7522,54.8981,40.7424,-54.2816,44.1407,-209.6436,33.9753,-113.0676,-99.4478,-150.5787,52.7348,-77.8481
-3640.6250,-29.1733,-58.6280,-101.9596,-130.1272,-1.1429,-135.4803,99.3905,74.9382,241.7148,88.7081,-2.1504,-21.3870,41.8092,-100.1493,31.3654,-5.2208,-99.2041,-10.5816,160.2588,-6.6870
-3632.8125,93.9914,-26.1974,69.8815,-112.8022,67.8370,-37.2264,199.7118,174.1798,-24.5055,-104.6369,58.8104,-105.6549,31.3303,-108.8137,57.6159,-15.5363,-116.1087,-62.7232,108.6319,-163.6822
-3625.0000,112.1985,-22.6733,46.8074,-128.4268,2.0524,-95.9295,104.1035,78.4659,249.3390,94.0761,34.8001,-91.8603,-64.0985,-165.4402,35.9244,-36.8166,-61.9559,-43.8197,-10.9735,-37.6172
-3617.1875,37.1708,-71.0374,7.5432,-96.2420,11.2385,-21.8303,-6.7174,152.5598,-44.0310,131.5872,68.5826,-202.2591,-26.7256,-126.2547,35.0349,-0.2869,-64.9976,128.9138,127.2199,-110.7444
-3609.3750,194.0872,0.9028,174.2693,-114.0960,57.2139,-38.7799,161.4213,99.6183,-21.4748,79.0378,50.3197,-145.7018,-43.4056,-214.1161,19.1042,-52.8096,-83.0965,-65.4112,5.3380,-162.9343
-3601.5625,45.4279,-20.7385,-20.5369,-121.5017,-17.7610,-48.2820,41.0009,89.1263,153.5544,142.9589,-35.5108,-8.6723,-52.6425,-74.5327,-27.3828,-24.8807,-89.7361,138.7254,33.8857,-98.6521
-3593.7500,42.7533,-20.1273,22.6855,-51.8924,26.3355,33.2204,196.5741,244.6483,-130.4604,114.8728,7.6606,-37.6446,-43.8755,-27.9558,-19.8617,-89.9586,-232.3718,101.8828,34.4335,-310.3759
-3585.9375,79.9777,-5.4564,-17.1455,-84.3810,-29.3826,-5.3828,232.0586,169.0666,236.4287,259.6890,2.7327,33.2952,-83.2143,-174.4922,-21.4423,-128.1494,-230.1014,-37.0663,-173.1500,-201.1965
-3578.1250,-4.7270,-32.8128,-69.8638,-26.7626,-20.1291,-19.8908,70.6237,191.5898,3.4144,135.6158,133.9032,-18.6601,13.5416,-149.9265,1.0838,-32.2370,-171.7239,56.1161,-44.6421,-177.9057
-3570.3125,165.0686,32.7408,146.9572,4.3762,46.4300,-22.8968,177.7041,114.6208,-72.1351,-13.9823,91.5803,-59.1107,47.8029,-151.8753,35.1200,-71.8336,-106.8406,-160.2084,-153.6554,-217.1277
-3562.5000,74.2026,44.2350,-28.8469,-15.1274,-54.8646,-13.5579,-33.8729,13.9909,122.6849,31.7683,-86.4001,96.8174,20.4090,6.5189,-29.4948,11.9112,-20.5957,-4.1733,-102.3495,-59.9811
-3554.6875,109.4618,51.4085,51.5261,56.5348,-3.6111,67.9393,10.6868,58.5209,-162.3939,-70.3346,-7.2313,-6.0966,28.1652,17.0652,15.0492,-17.1929,-19.1957,-2.9590,-28.8941,-198.6914
-3546.8750,135.9235,79.0039,148.1460,48.3982,-17.6137,17.6371,-2.5396,-64.7468,83.7209,64.7670,15.1299,54.1934,-20.8822,-67.1987,-34.2058,-66.1036,78.4022,-117.5560,-212.2649,-100.2051
-3539.0625,-1.8903,79.3510,3.5202,124.0102,-85.2148,22.0857,-182.0291,-23.2542,-94.4052,32.6231,90.2381,132.2418,-127.1829,86.2887,-103.7176,48.7409,117.7528,98.6236,-100.8926,-94.9527
-3531.2500,153.9473,173.0892,171.5849,211.2814,-30.4297,44.1901,-12.8609,-39.1003,-218.9256,-128.8924,73.0226,152.9379,-141.8285,72.4122,-155.5734,-39.7776,98.7521,-96.5461,-188.8810,-183.0646
-3523.4375,84.3283,125.4399,17.2376,142.1066,-74.8466,0.8356,-93.1418,-154.4037,107.1186,-24.8516,-82.6416,183.1984,-74.9256,68.0682,-160.8840,-8.7545,65.3098,10.8368,-150.3506,-4.6129
-3515.6250,18.9339,51.5710,-44.8376,149.1920,-39.4972,50.7372,-79.1880,4.5584,-209.6237,-48.5588,74.9421,48.7112,12.2293,83.9789,-74.9382,4.5292,-33.8789,87.5008,-38.5765,-137.9138
-3507.8125,51.2489,67.6042,24.8337,112.9883,-35.3049,84.3381,-9.5174,-34.7710,-27.6866,-50.5748,69.2327,118.9389,9.0791,45.5752,-41.2930,-71.4987,-35.3747,-55.1480,-215.1342,-103.5246
-3500.0000,-75.3518,28.4662,-147.3928,92.8840,-75.8010,133.0326,-143.7624,50.9987,-50.6406,-75.4819,-31.3701,130.2881,22.0261,133.2549,-66.5462,14.5757,-19.7666,135.3236,-58.6094,-17.0162
-3492.1875,71.2938,76.0246,-26.3345,66.0402,-14.5063,145.9760,52.2476,100.0307,-221.3927,-210.1440,-57.7062,105.8831,-38.7743,111.1728,-53.5345,26.9001,-82.9157,37.0507,-49.8484,-114.2720
-3484.3750,-5.3599,31.8534,-147.5428,-45.1046,-86.5995,133.6092,-33.0345,51.7579,99.5714,-37.1049,-107.3454,167.1958,-86.8774,137.7767,-137.8249,89.9114,-53.3578,102.4754,-54.4202,22.1794
-3476.5625,-61.9764,4.6924,-128.6783,39.8150,-60.4815,155.2868,-122.2813,146.5389,-209.4401,-126.0213,94.0795,40.5697,-65.9282,124.4171,-81.0703,73.9645,-3.7383,186.9779,67.0554,-103.3189
-3468.7500,85.5760,50.7047,63.3877,48.8960,-20.8126,90.1100,-39.3600,44.4711,-88.3299,-79.7998,137.6708,12.1023,-56.8372,-12.8286,-35.1656,-63.8511,40.0364,-15.3781,-135.3432,-93.6816
-3460.9375,-75.9805,12.6066,-111.6338,63.8783,-104.8597,62.8285,-250.5558,17.3001,32.6865,40.3405,71.1638,58.5591,-83.8548,72.8156,-99.3687,56.2377,124.7171,174.1842,-84.8613,26.8682
-3453.1250,15.7093,42.5840,66.6208,123.1237,-27.6313,94.8063,-145.5052,49.3976,-155.0972,-148.2911,63.9267,-56.7348,-51.6211,32.7094,-31.3125,14.5713,183.6434,58.0119,-95.1369,-124.3490
-3445.3125,25.7110,58.7333,71.2117,99.6707,-39.9012,26.0840,-139.1479,-56.2114,145.4215,-69.6307,-80.0026,-15.7195,-83.0913,-34.1108,-98.9559,20.1946,230.8760,69.1284,-188.1466,28.7385
-3437.5000,-57.3000,47.4341,-13.1839,159.2233,-46.5616,53.3545,-222.8142,45.1852,-157.0800,-78.9582,18.0890,-25.6863,-93.5651,32.0550,-109.6023,47.8235,219.1158,198.2640,-23.1638,-17.1691
-3429.6875,103.1511,95.8237,120.9178,145.2371,3.1027,40.0744,-52.0208,-3.9676,-132.1611,-53.8482,76.6592,-38.1941,-68.5858,-89.3604,-121.7913,-38.1084,204.8067,7.8365,-142.7592,-65.6464
-3421.8750,-2.5537,56.9367,-33.1123,111.1004,-38.1914,-2.3619,-167.3806,-82.2796,47.6232,14.1172,-4.9238,-7.8289,-36.7627,-55.9283,-126.1323,-43.1912,241.3450,149.2716,-69.5292,76.7396
-3414.0625,69.6910,75.2134,49.8315,184.9215,42.4391,44.1591,-47.7879,-36.6255,-234.6872,-195.9797,76.4618,-108.5199,46.0058,-81.5664,-43.5156,-107.3385,208.8274,81.6813,-31.3472,-59.9367
-3406.2500,80.5088,74.8710,19.3686,126.2818,2.0395,-22.7781,-41.6233,-139.4250,103.5498,-114.5272,7.4091,-28.6595,53.3198,-108.6871,-37.3450,-98.9503,220.8579,-12.3676,-194.6386,57.9320
-3398.4375,-100.4904,-14.9793,-94.8826,121.8349,-16.8784,-25.5238,-153.2753,-106.0244,-9.0196,-44.8640,2.5688,-68.5904,87.8291,-37.6022,34.0174,44.6621,181.0903,158.8084,-58.7420,19.0033
-3390.6250,11.4143,7.3653,102.8040,60.3010,37.9761,-48.3713,5.9819,-92.7132,5.2683,5.6858,13.6558,-54.6057,101.2325,-132.6284,47.2822,-14.8214,119.2188,-43.1227,-189.9743,-77.0478
-3382.8125,-97.9768,-38.6365,-17.7936,-12.5283,-33.8594,-93.5307,-149.0655,-174.7094,144.2774,180.9431,39.4574,9.1041,18.3355,-29.9761,-35.7568,49.3854,151.0537,94.6457,-156.5401,61.6113
-3375.0000,-52.5684,-9.1314,38.4316,105.4494,5.7706,-1.8908,-93.3139,-81.8978,-202.9471,90.9921,94.0815,-81.3966,1.2455,-8.5580,-15.9806,-4.6257,127.6900,106.2419,-74.3072,-101.9395
-3367.1875,70.0597,69.9490,91.8997,88.6347,-11.2269,-21.0548,-2.3471,-138.8935,0.0069,145.2333,-112.0859,45.3318,-17.6561,-62.9661,-35.0078,-23.4464,111.5282,-50.9670,-194.9084,-47.3038
-3359.3750,-30.0739,44.1043,-13.3775,96.0827,-53.4556,-15.9639,-180.1606,-59.6339,-104.8096,150.7333,-34.9893,87.3680,-12.3263,-19.1383,-29.8032,55.9861,82.6197,96.1040,-83.2735,-4.4192
-3351.5625,159.9749,106.8291,152.5418,111.6998,8.6642,-32.7145,-14.8086,-39.2118,-194.5209,-13.6317,93.2986,33.5260,-28.8503,-108.2262,-10.4402,-71.4677,62.8672,-99.6836,-138.4925,-94.4020
-3343.7500,129.0079,110.2942,2.4487,82.2567,-75.4054,-71.5311,-126.4881,-114.8519,61.7534,57.9566,14.5621,104.5845,-104.4216,-71.4361,-85.1161,-37.0094,103.0825,-24.5332,-131.7792,87.5889
-3335.9375,117.3918,100.2044,33.7198,143.1600,-37.3329,-4.0099,-132.8182,-10.1424,-272.6402,-57.1174,118.2061,25.9933,-73.6397,-39.3300,-54.4305,-5.2161,57.6576,0.9913,-0.7118,-27.0654
-3328.1250,231.5320,97.8952,114.7728,11.8105,-13.3369,-70.7443,22.6275,-112.6888,-7.3033,24.5410,160.6182,33.1860,-66.1099,-139.4629,-47.0003,-71.6655,31.9752,-200.7459,-96.9259,18.0024
-3320.3125,136.0549,38.9866,12.2239,-82.1437,-17.5859,-172.0869,-78.5462,-140.8358,112.4313,32.6105,93.4351,3.8183,15.8077,-130.1595,-2.1857,-25.6709,113.6833,-84.0672,91.2378,100.4588
-3312.5000,333.9858,92.4881,225.1035,-59.6852,89.3750,-216.0219,96.6645,-148.5637,-41.5103,-157.9320,157.6688,-77.1209,119.1092,-246.4229,101.0170,-143.2428,65.7880,-271.9848,43.7819,-16.7276
-3304.6875,299.9547,77.2765,110.0286,-125.2144,28.6231,-294.9593,54.8765,-226.2945,248.5546,-14.4733,113.9292,-7.0377,41.4036,-249.7645,96.2169,-146.8690,68.9077,-233.9217,-22.7120,163.0907
-3296.8750,223.0993,40.4866,-2.8617,-95.5871,11.9007,-186.7677,16.2290,-117.8851,-10.2424,-53.8704,220.3992,-82.8164,-34.1346,-213.0657,131.5843,-39.4150,64.2017,-98.6894,147.9407,88.0802
-3289.0625,354.0007,100.1576,137.0068,-139.2570,57.8909,-193.8964,193.3002,-161.7964,130.6342,-97.5919,137.6269,-17.9378,-4.9583,-329.7619,123.6704,-119.2919,55.2127,-282.7676,34.2683,44.7726
-3281.2500,166.8143,44.2893,12.7903,-149.0359,8.6828,-171.1430,32.2581,-138.8303,191.4182,-37.4079,158.7773,41.8272,-17.8875,-194.5894,36.6590,-23.2426,80.1295,-82.9236,94.4778,105.3825
-3273.4375,219.8799,73.5544,115.8367,-24.5591,34.6512,-69.1317,98.4588,-0.6033,-109.6001,-118.9855,223.1994,-39.1540,-62.5778,-166.1413,28.8944,5.0822,28.2835,-134.8147,78.9308,-85.7884
-3265.6250,198.0032,89.6801,86.9467,-81.0324,-27.9607,-97.0649,33.7151,-65.3259,157.4231,37.4844,46.6833,79.9627,-126.2398,-154.6116,-35.8417,51.4724,77.4836,-155.6690,22.3993,34.0684
-3257.8125,59.5133,38.5690,-15.5484,-6.0935,-32.8197,-53.5872,-69.6642,52.3573,-92.1880,44.3572,88.5767,13.5333,-83.5222,-73.6366,-28.1978,95.2800,46.0849,23.9020,167.2536,-31.6960
-3250.0000,203.7618,71.7456,138.7007,-1.4282,22.3104,-9.3950,85.6699,-13.2508,-46.1382,-21.0876,131.2026,-16.2011,-38.1066,-138.0216,-20.8482,-43.2462,-19.6174,-147.8400,30.7778,-96.7868
-3242.1875,0.8453,-6.1125,-78.2245,-27.9701,-40.0789,-5.4178,-21.1804,-9.0719,104.7478,130.2751,23.6668,24.8408,-34.8798,-22.7363,-53.6872,33.9830,-46.5051,37.2156,110.0868,17.9478
-3234.3750,-48.9539,-50.9183,27.9697,-4.4158,34.4551,63.6498,84.0707,133.2069,-119.3095,88.7194,53.2796,-91.0282,-2.5476,-63.3796,15.5789,-7.7040,-129.2889,24.3908,203.4994,-170.2292
-3226.5625,-40.7312,-66.8858,33.1881,-100.8685,9.9260,31.7092,163.3288,28.4792,217.6181,168.1584,-16.0805,-47.8761,-70.2282,-93.0072,-16.1638,-2.3669,-120.0869,-72.4469,71.8758,-90.4285
-3218.7500,-161.6690,-90.0150,-54.7474,-44.4705,-12.8144,54.6217,2.4163,88.6063,-16.6194,154.4653,42.4330,-25.8569,-84.0717,41.2078,-30.0540,57.8407,-134.0451,159.5935,163.0854,-103.7849
-3210.9375,2.9725,-2.1883,123.9051,15.4808,51.6626,85.0875,181.0640,45.2921,-132.3455,38.3090,34.5319,5.7094,-53.3629,-0.0855,-35.3762,-58.4316,-145.4498,-26.8297,11.8346,-219.6145
-3203.1250,-54.6567,-21.2787,20.2778,-40.8840,18.2501,18.2312,77.4122,-57.3391,96.6538,119.8567,-33.6472,85.9821,27.0423,-28.7282,-65.0018,-51.0012,-132.1439,56.4362,-9.7378,-64.7345
-3195.3125,-59.5197,-60.4801,58.4068,-8.4991,66.6715,57.1088,115.5054,54.7765,-195.6308,11.1493,76.9796,-23.0100,66.2003,10.3512,-26.8745,-12.8116,-276.0874,88.4644,57.4381,-173.1159
-3187.5000,-8.9945,-47.6843,-2.0777,-62.7652,10.4804,-4.6725,164.9664,-6.7654,75.4194,97.7863,51.9971,63.3475,41.7106,23.7442,-14.3949,-0.2980,-294.6847,-71.1754,-102.0638,-86.1594
-3179.6875,-189.9686,-97.4785,-192.0626,-66.5331,-47.9528,26.0475,-24.0873,61.1950,-3.0390,165.9318,7.5269,131.2262,109.7102,166.6185,16.5779,67.7187,-263.7826,100.7066,-1.0716,-54.6970
-3171.8750,-28.5163,-51.5127,-16.6282,-9.8999,26.9571,54.1776,150.2648,88.5666,-196.1516,82.4558,144.4935,11.5037,100.0962,47.8676,44.9487,-14.8601,-243.4893,-90.0085,-85.6781,-173.8627
-3164.0625,-58.0333,-69.4265,-91.1794,-108.2838,-30.8774,-20.7015,2.6261,14.9258,61.7586,192.9811,142.4852,47.7907,63.4718,11.0907,7.3129,-15.4464,-130.1932,-47.7353,-78.3046,9.9659
-3156.2500,-49.7440,-71.7032,-1.9267,-63.8692,24.4047,-5.7846,-19.2171,104.0894,-217.5566,24.3057,230.3152,-48.1269,115.6464,64.0857,22.4802,36.7695,-86.1008,-3.6433,36.8729,-121.4211
-3148.4375,60.3368,-55.7928,150.1086,-128.7009,81.2277,-74.1153,132.7070,-1.9939,45.8550,-44.6300,159.9366,-79.2933,156.5647,-4.2107,64.3989,-68.2836,-46.2677,-174.8216,-64.2271,-116.0795
-3140.6250,-103.8192,-118.8029,12.8830,-184.7890,56.0314,-101.6938,32.3668,8.6715,130.0242,3.2009,132.3296,-69.7055,130.2263,44.2204,74.0647,-21.5867,2.3103,14.7641,89.4115,-31.9788
-3132.8125,41.9380,-32.6478,135.5667,-109.9764,136.2425,-53.3644,228.9297,20.2452,-114.9553,-169.0767,215.6694,-95.2276,68.7904,-54.4772,122.6332,-193.9802,7.7796,-50.7401,129.9504,-167.0021
-3125.0000,52.9193,32.9740,104.4734,-132.9710,121.2923,-47.8435,197.7021,-84.9935,74.2696,-127.1524,73.2437,57.4659,73.5483,-121.0162,54.3993,-334.1765,125.4508,-38.0604,106.6562,-13.8313
-3117.1875,-32.2340,20.0352,167.2400,-41.1131,171.5867,14.5178,113.3098,-22.3880,-229.6790,-247.3849,97.7094,-26.9877,100.1568,-131.7403,44.0199,-308.5345,180.9803,123.4888,198.2038,-97.8177
-3109.3750,94.9023,91.8241,265.2881,16.0026,166.8018,1.1262,247.1749,-108.5357,-95.4139,-224.3910,83.4694,33.8138,50.0149,-181.2427,-43.1101,-284.6553,167.7661,-65.7280,-26.0196,-110.5818
-3101.5625,-46.1420,68.0516,3.1407,51.9208,20.4672,-40.4715,57.8207,-76.8975,47.6621,-7.5892,-31.9408,102.4326,-102.3346,-74.9805,-193.4479,-32.9885,168.3601,145.8631,44.5382,-4.5421
-3093.7500,33.1923,78.3633,59.3618,97.1965,-3.8781,52.2814,77.8192,90.0867,-189.9678,-24.4457,-49.9525,12.3904,-192.3308,-54.4088,-174.4327,60.0150,72.3067,84.8139,89.4401,-205.1729
-3085.9375,80.0043,81.1560,30.0574,38.9138,-73.6368,-14.5201,11.2732,-13.4880,111.8531,56.1419,-81.4866,92.8045,-185.8869,-9.4095,-167.9739,30.4729,49.7048,-43.8028,-74.2367,-87.3640
-3078.1250,61.0166,71.0197,-63.0519,91.8286,-65.8938,1.8801,-82.0887,40.1418,-129.1344,-37.0665,45.2210,72.4153,-58.2507,7.7620,-114.3192,47.1379,-4.6931,42.7986,-22.7063,-70.3595
-3070.3125,280.0685,165.0118,92.8678,100.7433,5.4032,-62.7219,110.5723,-98.2279,-83.1498,-139.2943,52.9859,118.0143,23.3853,-167.1181,-31.6573,-54.2213,3.9078,-194.6204,-224.1804,-61.3789
-3062.5000,156.5341,86.6381,-43.8121,13.0463,-66.1123,-162.9350,-99.3685,-197.2100,148.2526,91.8921,62.1759,128.0271,-2.5838,-119.6160,-21.6048,-7.1866,21.9114,-34.6377,-171.2734,133.0035
-3054.6875,150.4057,59.5683,29.9049,42.7523,-37.2518,-89.7425,-99.9133,-50.7797,-108.9876,-17.5249,135.7963,18.4316,-2.1568,-8.7182,-21.1530,30.2588,-18.6900,-41.2387,-72.9593,-13.2419
-3046.8750,144.9133,59.1873,58.2420,3.0582,-59.9961,-61.9475,-71.8345,-59.7522,213.3688,9.6471,15.0513,45.4352,-84.1332,-17.2667,-67.1011,-16.7077,-23.6921,-116.2635,-76.0665,88.0929
-3039.0625,23.9814,-11.9095,-103.8827,-11.0972,-73.8074,31.3998,-161.2175,33.8220,50.2756,-6.6228,107.8903,-44.0049,-100.5595,39.6918,-46.4960,40.8673,-38.1370,80.2785,154.3816,108.9765
-3031.2500,187.0812,57.8845,106.0155,11.7540,2.5076,21.7504,-24.5920,61.3979,-105.8592,-89.9070,134.7720,-54.4536,-74.9887,-43.3727,-56.8865,-42.5694,-51.5829,-74.1889,35.8162,25.8289
-3023.4375,155.3539,75.6039,-41.9240,16.7529,-53.8230,19.2399,-99.8224,-50.8892,39.1662,-54.0349,-52.1641,53.2631,-76.2775,29.6877,-58.1372,-6.8590,-46.8700,35.4823,5.3714,170.8281
-3015.6250,168.4913,79.6341,-58.0097,64.6062,-12.6498,40.5798,-5.2206,-30.3200,-232.9982,-179.3221,-31.1909,1.8216,-18.7143,50.5573,36.4674,-23.3092,-69.3025,14.0213,122.7801,8.6625
-3007.8125,281.3242,117.4853,-51.4208,2.1077,-21.4504,9.5681,148.0420,-133.1042,67.4719,-135.9787,-99.5298,45.0310,-49.5050,-52.9662,5.7212,-90.1262,-61.0865,-153.8079,60.8216,52.1296
-3000.0000,126.4176,68.2333,-140.5916,-11.1481,-66.7506,-8.1938,-16.4644,-40.6447,87.1901,-43.3803,-80.5915,64.5001,-102.0525,39.7460,-83.7785,2.3067,-39.6200,42.6264,152.1097,108.8504
-2992.1875,251.9347,86.1322,32.6543,-25.0017,-34.2943,19.4560,84.4293,23.2202,-32.7443,-90.3964,19.8011,18.3552,-149.2028,-6.1597,-57.8702,30.1355,-124.7619,-112.5420,31.7931,-11.0565
-2984.3750,199.5718,76.5970,-100.9953,-76.7638,-105.5098,-41.7946,-13.5773,-37.8254,200.4342,31.6962,-42.6716,140.3150,-173.2524,43.0129,-81.8696,115.0638,-140.8044,-22.6240,-55.4457,148.1320
-2976.5625,115.2057,55.0696,-146.6570,15.4759,-97.5800,21.9624,-59.6041,26.1378,-102.4171,-50.2108,58.8936,94.2712,-145.3054,108.1717,-17.8695,143.0068,-153.8482,33.3169,71.3185,29.3077
-2968.7500,209.0220,107.0514,-87.1470,2.8665,-99.6591,7.8723,74.5408,-24.7488,67.8629,-26.9793,-65.3539,154.3728,-196.2125,57.4273,-31.7126,129.0793,-130.7442,-118.6148,-115.7794,52.6160
-2960.9375,56.4054,51.2512,-248.0987,-42.2076,-156.3985,-7.6779,-124.7712,-3.0984,88.7153,30.8080,-154.0239,176.0295,-174.5715,115.1937,-46.0043,260.6988,-72.0816,80.0025,-21.3285,147.4865
-2953.1250,159.4073,45.9151,-26.4512,-10.6948,-31.6687,30.3731,-13.4791,35.1581,-165.8717,-113.8144,66.9524,-6.7246,-64.3287,-102.4404,65.3126,151.9227,-75.8312,-63.7796,-61.2727,38.9302
-2945.3125,158.3817,26.2298,-70.8513,-80.2448,-57.8411,-51.6207,-95.2287,-83.6409,192.5023,-48.4810,94.9134,22.4716,1.8504,-258.1399,92.5727,143.1052,-40.6386,-63.6290,-167.2871,214.3164
-2937.5000,73.2106,-5.3344,-118.4181,-23.9493,-50.2552,-26.7620,-143.1427,-21.5866,-38.2926,-59.2907,119.7673,-26.4851,25.8705,-196.0227,118.6886,242.1474,-54.5917,61.3847,-76.4481,129.5500
