Time,Fp1,Fp2,F3,F4,C3,C4,P3,P4,O1,O2,F7,F8,T7,T8,P7,P8,Fz,Cz,Pz,ref
-4000.0000,-51.7745,4.5011,-39.0182,68.9962,-56.4197,41.1825,-11.8930,51.2413,-175.2717,-33.1551,-59.1314,-45.7296,51.2667,-13.2184,-110.3267,24.2792,51.5310,203.8209,120.7116,24.3144
-3992.1875,-84.7194,-131.4535,303.3486,109.2808,284.7468,126.9782,-84.7582,-46.7130,54.1396,15.6612,-11.7226,38.8349,65.3088,-38.0804,83.1659,-2.9062,-84.5459,-387.9335,-471.2018,-147.1989
-3984.3750,23.2352,82.5020,-149.3932,-166.5570,-94.1979,-66.3580,-55.2055,-165.8069,260.5155,78.3965,234.6316,174.3373,93.2550,25.9607,108.5969,-68.0570,-149.7459,-64.8280,-219.2788,173.2111
-3976.5625,-152.0329,-196.7506,88.6388,47.4048,216.6442,173.1138,69.8512,109.9264,-127.3694,-161.0863,-189.2330,-138.3903,261.0413,6.8062,-96.2054,23.9367,28.8679,12.1333,101.5208,-175.5853
-3968.7500,-25.8182,-69.5359,103.2136,-70.1361,121.0269,5.0887,-82.9797,-240.8454,510.2692,74.9423,193.4096,207.3818,94.3505,59.1514,174.5085,-74.3103,-160.0325,-385.4713,-578.2424,-12.9089
-3960.9375,-12.5474,15.7488,-140.1979,-19.6594,-85.5794,57.0869,-13.2868,-42.5863,-29.0194,-94.9654,23.1428,0.2212,257.7220,36.5596,-142.7242,-30.0547,66.1106,229.9891,106.0478,1.8504
-3953.1250,-37.3949,-150.0971,249.3130,132.7416,266.7385,154.9976,-70.0686,-54.4032,-9.4616,-34.9976,-138.2560,-13.0719,246.0328,22.8542,-11.0722,4.2836,7.1706,-284.6532,-338.7279,-268.5267
-3945.3125,55.4573,85.7627,-71.4713,-122.1787,-164.2532,-55.4175,-140.1560,-190.5539,255.8685,121.7126,202.0916,253.3734,111.0328,143.8475,107.3205,-21.3277,-73.0978,-151.6634,-346.8824,72.8109
-3937.5000,-76.1505,-80.8242,25.2538,134.4489,5.2738,190.7122,-28.7951,128.8631,-310.2855,-148.0374,-215.0168,-90.6456,321.6031,94.3986,-126.7521,65.8792,114.1930,107.9273,121.5757,-233.2931
-3929.6875,18.8701,-54.7919,157.6713,-14.2654,26.4948,29.4952,-146.7949,-142.0744,297.2249,94.8652,138.5199,152.9761,198.8287,117.6008,188.8463,-10.6140,-140.8724,-460.8936,-553.3621,-136.7764
-3921.8750,7.9527,76.3116,-227.8950,-128.9626,-248.2744,-24.6990,-31.8754,-11.9893,-16.1714,2.8368,120.1534,23.6782,257.0936,62.8589,-14.4788,-14.2930,-8.9056,95.3318,141.7289,29.8275
-3914.0625,-77.6823,-114.3081,173.8462,34.6622,153.2693,122.4248,-23.6710,98.4171,-94.3257,-34.9242,-139.9448,-125.3485,257.6883,-11.5864,19.4754,34.1661,48.3880,-268.1249,-116.8349,-265.2942
-3906.2500,54.3846,124.7714,-70.6937,-183.0241,-91.4786,-120.7734,-70.9977,-181.5143,320.2935,125.0393,203.6940,218.3612,51.9839,0.6718,215.1589,-77.9142,-64.6435,-200.9571,-332.7835,79.2883
-3898.4375,-61.1547,9.2609,-34.8777,124.6812,54.1386,100.4168,43.0935,112.9611,-342.6989,-169.6046,-201.2617,-75.5284,275.7014,-71.6638,-80.7756,-9.6096,173.7323,178.6560,221.7147,-140.7146
-3890.6250,49.9376,52.3682,228.6230,98.0528,207.4459,-2.7307,-100.9393,-135.9017,175.9562,58.4027,63.4158,188.2141,138.0914,-101.3579,182.9504,-82.6197,-100.2469,-479.1376,-542.1620,-133.1062
-3882.8125,90.1849,233.6422,-254.7598,-69.4614,-165.1250,-153.7652,-37.6384,-65.6444,58.8349,89.5898,131.2938,146.1407,208.6386,-68.8976,65.8543,-71.7566,-57.1032,-12.8164,-7.9252,119.6845
-3875.0000,-36.4897,-68.0049,105.9443,87.1319,195.4124,25.3110,20.1010,112.7424,-134.2346,47.8580,-168.7612,-153.8707,242.3207,-112.3435,21.8377,22.8040,28.1565,-241.3652,-25.5259,-216.4454
-3867.1875,139.7333,109.2311,-54.4170,-192.3889,-39.1253,-171.7290,-84.3687,-156.9953,438.6534,254.0502,221.1091,163.0419,9.9024,21.1087,263.7632,-37.4712,-145.7076,-413.0953,-444.3158,101.3159
-3859.3750,46.2598,51.7855,-145.5170,-2.6302,-94.4000,-4.4895,26.7559,120.5614,-242.1622,-57.4645,-126.6948,-111.7364,178.8021,41.8666,-12.0032,38.5687,78.7317,165.4976,239.2242,-25.5965
-3851.5625,32.2701,-31.1912,139.9157,56.6511,154.8639,25.2621,-80.3004,3.6257,151.5010,192.5078,-61.0256,63.9686,-9.7714,-2.8761,199.7289,46.5366,-143.3233,-405.4547,-439.7443,-143.0471
-3843.7500,156.0881,164.6431,-294.8741,-133.2996,-280.1007,-77.2185,-55.0234,-24.5471,192.0472,272.3197,128.4928,143.5177,-38.5519,5.1907,168.3010,19.7131,-192.6123,2.3362,-65.9728,158.3283
-3835.9375,29.5923,-102.8333,28.0115,57.4548,42.6276,100.0091,14.5036,227.0070,-183.7446,82.8157,-209.3187,-194.2605,142.3969,-2.0426,-23.4502,115.5355,-37.1871,-85.1405,125.5648,-178.6068
-3828.1250,171.9934,5.5680,18.8344,-148.8976,-149.7085,-163.8709,-133.2553,-147.5550,431.4146,332.2221,223.7857,201.8801,-84.7535,63.6235,261.7295,8.0052,-173.8815,-465.8011,-467.0771,71.3430
-3820.3125,108.2567,12.8374,-155.5310,-105.4258,-251.2425,-80.9305,0.9614,8.7178,-76.5536,83.4828,11.7772,-82.1089,73.9512,36.1520,-24.2274,24.1718,80.2724,142.3960,245.1396,44.1760
-3812.5000,63.1556,-172.2738,283.7836,-7.2828,150.9016,-45.3251,-18.3717,-65.3411,214.0992,82.3807,10.3847,-47.4794,2.3241,-38.6702,230.4626,-21.5276,-103.9076,-390.7842,-358.9788,-140.3794
-3804.6875,170.3184,77.8732,-172.6450,-248.9261,-268.7034,-241.5054,-40.8657,-151.1948,454.0895,214.5658,327.2967,122.4418,-83.0633,58.7639,325.4418,-47.8446,-274.8716,-138.7813,-248.9313,250.3343
-3796.8750,-24.8261,-222.2819,-69.3960,-90.8762,-55.6135,-26.9973,100.4103,174.6661,41.7456,135.4355,-121.0971,-251.9556,60.2744,51.8942,97.1082,107.3962,-118.1286,-15.0378,226.8769,-49.2544
-3789.0625,-1.4321,-196.9118,-48.5529,-275.2726,-34.9234,-189.9349,-21.3220,-61.9352,647.9879,375.8554,230.0653,98.2018,-101.8287,109.5670,337.3547,53.4377,-372.8554,-443.8270,-414.8350,81.6812
-3781.2500,-75.3272,-94.8225,-348.0420,-242.0030,-261.5674,-120.2065,58.6934,155.1361,125.9796,113.9918,77.9738,-15.9120,43.7694,141.9443,37.3289,88.6125,-198.9027,189.0739,287.1411,114.3539
-3773.4375,-221.1404,-309.6579,29.5905,1.3771,152.9163,38.6302,44.9537,204.3340,99.0317,52.2135,-58.0457,-42.9590,94.4910,79.4220,120.3960,99.7297,-201.8368,-339.9388,-65.7535,-204.9063
-3765.6250,-54.9437,-72.4903,-290.7585,-288.2677,-203.5909,-206.5597,-25.2084,-40.5116,439.1687,246.4630,320.9806,226.0302,34.2003,164.8999,241.5183,24.8727,-315.7968,-311.0381,-143.7438,137.8431
-3757.8125,-143.8976,-264.4618,-259.2892,-93.0766,-26.2741,-28.9074,79.1145,211.5033,-120.8594,-52.4445,-16.1398,-74.1367,288.7695,123.2280,-96.5196,75.3233,-85.8957,-8.2561,369.1641,-124.5479
-3750.0000,-58.2130,-213.8130,-63.1256,-182.2237,96.7432,-197.5947,-65.8011,-141.8346,443.7846,145.2930,292.3756,270.3422,194.9924,100.2082,137.1120,-48.4042,-280.3519,-587.8967,-387.3260,-73.3239
-3742.1875,28.8359,-20.7928,-381.6411,-232.0582,-221.9203,-257.9569,-8.6739,-90.8528,121.8480,9.3988,304.2929,172.2097,319.5483,38.5560,-71.8792,-92.9870,-84.4813,-40.2172,195.4954,86.2848
-3734.3750,-70.8778,-260.5468,80.0968,20.3666,129.6873,-52.0536,12.7148,4.4044,-41.8835,-152.2646,31.4283,-63.6987,418.3730,-48.8463,-125.6261,-74.2037,26.6557,-312.2852,62.6123,-258.8822
-3726.5625,53.8242,-29.9045,-169.7375,-203.8197,-157.2943,-263.7728,-77.7663,-243.9745,441.8727,76.5039,370.0060,237.8299,243.5694,32.1476,65.0765,-136.3540,-162.8300,-324.0576,-231.9722,43.3525
-3718.7500,-112.2613,-124.0434,-222.4028,-15.8248,-99.1126,-58.3117,37.6568,109.8441,-200.1647,-85.5236,-49.1979,-107.4401,415.9628,18.3369,-245.0223,4.4114,24.8911,146.3951,413.6783,-191.1923
-3710.9375,-125.3597,-206.2152,99.9775,-61.8152,149.1206,-102.8402,-53.9898,-118.3327,267.8032,90.4404,126.5728,104.2784,336.3594,9.5204,39.8881,-51.8495,-162.3805,-461.2088,-299.6987,-272.7759
-3703.1250,-60.6933,-34.6203,-283.9020,-205.0918,-197.9039,-190.6569,-11.6951,-96.8039,139.6068,-35.8253,257.1436,87.7881,396.4866,67.4654,-87.4050,-84.6034,-95.9345,28.8889,154.6137,-30.5768
-3695.3125,-184.5347,-264.5390,79.7138,23.1279,238.5887,-10.9716,71.2859,48.2479,-160.1221,-186.6078,-77.8076,-173.2371,469.1264,-9.0920,-128.2040,-40.4683,28.0226,-197.4996,173.4798,-364.8936
-3687.5000,7.0264,-1.0687,44.7667,-240.2649,56.5130,-301.9014,-25.8035,-316.3255,429.6236,37.0378,366.6680,160.1591,216.1454,30.7424,167.4440,-167.0334,-165.6511,-494.5834,-300.3464,-30.8203
-3679.6875,-63.1561,-35.3188,-98.9611,-132.4281,22.6550,-150.6060,144.7066,-17.6607,-156.3618,-180.0677,2.4224,-167.1714,260.4100,34.8284,-86.6475,-67.7109,82.9233,36.6016,476.0916,-99.4701
-3671.8750,-141.2495,-182.4933,268.4548,-67.4697,316.9468,-113.1924,55.6243,-126.8878,172.7375,4.9105,3.2477,-19.4205,78.7778,35.0082,96.3642,-44.9200,-63.3878,-495.1525,-162.3771,-246.0625
-3664.0625,-85.0220,84.6539,-127.8252,-256.2476,-79.4704,-250.5081,37.9663,-153.8588,252.2330,86.2215,194.4239,135.6725,-21.5882,117.4961,66.7168,-44.2592,-42.4276,-154.6743,71.3819,56.6669
-3656.2500,-180.2964,-114.7040,192.3838,2.4701,239.6151,-3.3221,112.7540,56.6883,-237.7946,-180.9888,-182.9185,-132.7659,118.5539,70.4807,-54.4397,10.4587,147.0473,-211.6724,261.6972,-247.1125
-3648.4375,2.0818,-1.4312,186.2875,-199.1694,124.4016,-228.4906,26.2159,-277.1301,417.8907,-2.5346,216.4023,193.4576,-177.6765,139.1127,271.1001,-100.6207,-55.8532,-588.1188,-291.4217,42.7384
-3640.6250,-8.5755,59.8173,-118.8938,-137.8925,-144.8944,-91.7394,108.3299,4.9796,-109.4280,-160.1180,-52.2848,-38.3434,-77.9788,128.7055,-35.3814,-12.2425,146.1819,107.3792,438.4027,68.5756
-3632.8125,-73.8867,-110.6029,228.3051,44.7528,202.1920,35.3773,33.0341,23.4593,15.5787,-33.3713,-145.6507,-58.8165,-131.9310,35.6387,54.4883,27.0846,47.5822,-341.8007,-82.4183,-171.2716
-3625.0000,26.8233,200.9937,-160.4851,-169.6259,-112.7237,-131.5292,24.7351,-143.1033,213.6811,56.4097,164.0281,140.7581,-185.9193,15.5775,142.4092,-67.2982,-27.0484,-27.0587,-14.3370,175.9009
-3617.1875,-108.9651,32.0950,43.2003,153.4885,237.8500,146.0636,159.7960,98.8491,-354.7337,-289.3222,-255.8034,-206.1785,-16.4102,-110.9787,-131.1771,-35.8961,226.8294,227.2115,380.2969,-133.4231
-3609.3750,-12.4082,93.5186,175.2874,40.9467,295.8356,22.0085,22.3055,-208.8542,254.2448,-47.6955,96.7104,110.2337,-211.5633,-125.1894,147.6204,-127.1930,8.0406,-271.2543,-364.7804,-0.4302
-3601.5625,-10.9811,200.8111,-159.8015,8.2100,33.6515,17.7660,108.6615,-65.7333,-82.8602,-125.1990,19.1236,-40.4708,-103.8918,-92.5473,-77.6948,-78.0659,151.0797,330.1050,270.9698,142.4450
-3593.7500,-49.6523,23.9814,255.0324,184.3796,412.4088,139.4314,111.9858,-54.6929,-73.0894,-187.8271,-190.5893,-103.3096,-164.3086,-118.0157,5.8872,-64.1844,150.0334,-56.6567,-46.3504,-139.8111
-3585.9375,113.5453,258.0037,-30.2566,-72.6300,17.0341,-71.0805,24.3223,-264.8454,375.6315,6.4322,149.5952,236.7407,-372.9111,-34.6334,124.3745,-125.4320,-1.1948,-30.6663,-196.9234,200.7938
-3578.1250,32.7524,107.0443,5.4247,129.3438,125.6325,112.3934,156.3853,-6.9892,-176.6507,-288.3046,-217.2220,-131.2111,-151.5255,-109.2491,-169.1396,-83.7844,235.5835,242.3538,392.5432,-19.5849
-3570.3125,94.7511,64.8593,288.9565,17.1347,262.0803,-45.3169,78.3150,-273.3330,398.8899,-42.2466,65.7498,41.6296,-305.3571,-118.0717,223.1704,-152.9578,-17.8423,-360.8920,-316.2430,43.8009
-3562.5000,107.2249,182.1504,-76.0723,-110.6632,-140.0455,-114.6035,135.8463,-160.2654,143.9581,-74.7165,142.2269,-28.0401,-263.7760,-78.4395,115.9748,-121.7904,66.1589,180.2755,259.3710,267.6715
-3554.6875,-53.5001,-81.7751,286.7079,118.3459,222.6557,101.9267,143.3416,56.6221,-46.2082,-189.4143,-156.5259,-215.9437,-229.3932,-83.0098,36.5693,-21.4347,153.9795,-116.7473,136.8298,-66.6809
-3546.8750,89.3877,96.8904,91.1201,-125.0558,-83.0082,-166.9571,15.3789,-174.9213,455.3145,129.5096,236.3488,138.7801,-423.4446,16.0205,281.8157,-54.3162,-53.6246,-288.2675,-246.2110,252.5623
-3539.0625,4.4397,12.7276,9.6520,3.6673,-89.5497,-25.7097,114.3450,150.6809,-176.0017,12.5891,-136.6033,-124.3346,-206.3622,-62.7951,-91.7791,56.0331,144.9194,192.3768,445.9214,99.9779
-3531.2500,70.3903,-26.5587,340.1368,1.3054,165.8566,-26.5516,1.4032,3.1885,262.5869,122.5643,-27.6773,58.4328,-314.3904,-64.7125,90.5401,17.7809,-104.6315,-372.1427,-260.0718,26.2556
-3523.4375,165.0746,174.8807,-86.6776,-148.3962,-224.0491,-121.7274,47.6657,-17.6474,237.9717,101.2680,135.0023,109.9425,-372.7628,-11.9261,104.6063,-14.5365,-148.5101,76.9859,118.5693,298.2628
-3515.6250,26.6167,-138.8376,189.3530,30.7527,161.9118,43.9534,144.9047,185.3912,-74.8237,-27.1985,-177.4905,-201.7277,-240.2893,-67.2998,48.5132,57.8420,-39.5255,-59.0129,227.1135,-49.8948
-3507.8125,120.7240,26.9823,127.9785,-224.5627,28.4746,-198.8247,9.5219,-131.0427,490.0048,206.9070,277.5825,178.1680,-446.2979,20.8697,319.0182,-26.6381,-295.0191,-313.5543,-344.8842,221.4818
-3500.0000,33.8096,45.7829,-106.4750,-63.9637,-60.0352,8.3260,104.2857,148.4620,-187.1860,-64.0319,6.6398,-55.9633,-274.3781,6.9934,11.4898,45.2817,-64.5748,339.8595,344.0701,170.8387
-3492.1875,-36.0985,-59.4339,269.1189,42.6516,315.5055,126.4896,49.8091,47.9815,40.6100,18.0066,-59.3278,-11.1191,-373.4654,-21.8916,202.9648,44.7897,-168.1278,-150.7653,-251.9847,-3.8411
-3484.3750,29.8273,183.1737,-189.4800,-170.9677,-107.1555,-37.5779,62.2214,-42.7440,241.3072,147.8748,144.5631,118.5687,-463.7968,-1.9753,220.2921,4.1947,-136.9106,129.3350,-8.3331,309.3026
-3476.5625,-108.1328,-94.1178,87.0125,79.5065,207.2813,203.4615,161.6361,198.6507,-215.9189,-90.1703,-276.4655,-191.6664,-331.0345,-92.9622,-53.2872,70.1545,114.4234,169.5628,313.4641,-37.4577
-3468.7500,27.2187,-63.1300,184.8602,-64.7177,194.0684,-29.1974,45.8729,-217.6748,395.2144,81.0997,151.8069,162.4079,-525.9999,5.3532,227.4710,-51.1491,4.0455,-291.0067,-323.5219,134.0562
-3460.9375,14.4499,-40.2616,-49.4717,-41.1243,-3.3293,-6.0353,154.6160,-84.1744,-97.7461,-151.7646,27.9695,2.3577,-317.1433,28.5253,-42.8905,-41.6089,203.5011,296.2646,403.3280,157.4528
-3453.1250,-53.5680,-282.6603,369.9706,103.2316,342.0615,119.8903,98.1343,-31.9016,-9.9827,-99.8947,-66.1558,-55.9719,-298.5376,-29.5658,45.5004,-0.2615,136.7166,-192.7295,-50.0516,-120.4379
-3445.3125,81.0443,27.5529,-18.9698,-76.8414,-156.9356,-48.6045,-4.8415,-162.0638,262.4833,99.6106,280.3628,179.3396,-465.3751,60.9384,207.5370,-22.7478,26.4930,-55.2102,-123.9229,226.2850
-3437.5000,27.0273,-131.8739,83.4123,221.4191,-17.5999,165.2478,84.7981,125.1375,-332.7127,-164.5435,-131.7735,-158.0063,-286.8692,16.7972,-20.0835,60.0828,290.6260,208.6817,315.6102,-37.6345
-3429.6875,163.1722,-65.1728,295.9977,112.8334,83.9341,9.2584,-46.2710,-139.5174,208.2786,-26.5422,191.2306,127.7973,-440.2318,44.8065,228.4769,-32.3913,75.8989,-356.3592,-390.7689,64.5643
-3421.8750,162.8466,75.0610,-78.9373,7.7134,-217.0576,-33.2572,21.8434,1.2940,-129.1658,-69.0241,147.7792,48.1393,-298.1329,39.3237,-35.4282,-3.0890,145.6530,172.0904,277.3145,205.2971
-3414.0625,-1.1259,-158.3677,280.5014,196.9599,141.3424,141.5953,13.5488,139.4740,-176.2955,-41.1881,-117.3579,-108.2026,-268.6858,-6.8227,-7.9901,81.6786,123.7783,-202.0976,9.7803,-133.6504
-3406.2500,156.7725,105.0552,-10.1684,-30.9644,-185.3633,-74.7206,-88.4309,-76.5414,268.5110,220.5178,254.3907,226.3313,-483.4234,70.8727,179.3548,36.3156,-33.2739,-217.5196,-253.0021,201.2545
-3398.4375,60.5394,10.3454,-65.0124,190.9336,-93.2291,128.8031,10.8422,238.2941,-336.8313,-53.9298,-130.0099,-85.2976,-241.3225,17.4179,-167.4476,112.8486,188.5305,180.9403,321.1129,1.0237
-3390.6250,131.0138,10.3083,192.9032,156.5410,90.6675,56.0422,-133.7203,-19.1629,176.5406,130.3138,90.2651,135.7548,-386.5459,-19.3426,88.4661,35.7304,48.0341,-415.9560,-487.1096,1.4512
-3382.8125,194.1723,249.9499,-155.5405,9.7601,-293.7998,-35.0984,-128.5724,37.9922,-25.3523,77.2382,146.2364,154.4939,-366.1621,74.5537,35.0703,54.5317,147.1651,105.7605,-105.7377,241.5577
-3375.0000,68.3390,18.5832,206.0244,165.9813,141.7557,179.7801,-70.7475,216.1735,-251.2785,-2.8667,-189.8256,-144.8022,-295.7841,-5.5563,-44.3379,132.5290,163.3178,16.4924,-161.3101,-94.3590
-3367.1875,203.1811,224.8637,76.2844,-155.1618,-97.9987,-95.6978,-163.0595,-96.0254,389.5255,272.6931,195.7842,166.5799,-424.7992,-24.0214,192.9472,15.2273,-86.9038,-127.2157,-587.3226,217.3640
-3359.3750,98.1537,120.2762,-64.3849,-47.2253,-92.6834,55.9140,1.8334,166.8722,-119.5570,-15.6487,-128.4842,-193.9256,-122.7423,-91.3881,-94.6639,47.4448,89.9698,366.1990,117.7905,113.2112
-3351.5625,112.2333,-5.2366,249.0914,-33.1699,146.7839,39.6441,-105.9388,2.8833,303.4591,188.1014,1.3154,-65.3529,-211.6004,-144.6631,107.8293,17.5461,-106.0516,-215.3273,-570.0084,23.1178
-3343.7500,240.5463,228.4741,-181.2360,-148.9471,-320.5535,-96.4525,-136.5810,-21.9452,276.7681,272.0833,196.3616,56.4654,-310.3112,-134.7297,82.5665,2.1001,-81.9048,265.2911,-299.6748,328.2508
-3335.9375,87.9210,5.2400,115.4770,155.3305,14.1597,164.5109,-59.2097,165.3005,-233.9068,-17.9094,-203.5753,-196.6849,-121.9881,-167.7475,-61.6588,50.7002,81.3123,289.9904,-101.2320,-35.5766
-3328.1250,183.6651,137.3463,96.5964,-29.0440,-77.7334,-74.1802,-181.8167,-146.1252,297.8314,147.4660,181.8510,188.5314,-211.3536,-75.4202,177.4996,-50.3180,-137.1371,-70.0511,-636.5203,166.9280
-3320.3125,121.3455,110.3783,-148.4092,49.4478,-139.7570,10.0080,-11.4468,85.3347,-241.4952,-97.2444,-136.7905,-56.3360,21.1533,-100.1940,-141.4241,-12.2984,82.3025,501.8148,181.1011,105.3647
-3312.5000,86.0300,-65.6149,230.6180,191.9514,276.2702,96.2150,-47.5901,-13.1841,-47.8411,-85.9717,-236.4695,-46.2376,108.6527,-199.9729,-20.3460,-62.3339,12.7469,-60.3357,-345.2660,-140.2361
-3304.6875,185.2018,174.8609,-156.8943,-60.1241,-112.2394,-108.1510,-85.4510,-142.2929,152.3486,40.7735,74.3458,154.3549,125.5566,-109.2943,33.2273,-103.6088,-63.3876,180.9027,-245.2722,170.6345
-3296.8750,15.1441,-29.9002,11.3292,157.5523,166.9970,134.2438,24.5542,173.3611,-376.7440,-157.7566,-307.1039,-191.3178,333.1988,-87.8673,-165.4640,23.4794,48.2451,257.9323,148.5253,-174.7441
-3289.0625,97.4532,51.6793,52.9629,-6.4155,135.6384,-44.0033,-106.9632,-115.6481,252.5546,105.0693,29.7890,182.3679,156.1610,28.9014,134.2268,-28.7530,-184.7850,-291.7689,-507.3996,-21.8021
-3281.2500,9.3501,139.8464,-298.8748,11.1306,-106.1969,-29.7313,-18.9432,83.8636,-173.5442,-27.5451,-101.7250,49.6315,355.6393,6.2231,-144.5046,8.4800,-27.2751,289.0721,178.2112,66.7259
-3273.4375,-102.2902,-76.5534,111.7739,182.1393,267.4564,88.0141,-31.9894,90.8465,-131.2345,-19.7391,-279.8237,-16.6896,401.5645,-60.0141,-64.7975,22.7651,-67.2949,-173.6356,-178.6963,-220.3297
-3265.6250,-5.1996,161.7513,-168.8546,-71.1764,-86.1769,-155.5499,-94.0297,-115.5016,249.8589,103.7972,101.8177,216.7222,342.1423,26.4531,58.6575,-52.6099,-179.6466,-38.7126,-290.9913,124.3211
-3257.8125,-149.6336,-18.4805,-52.0599,170.9420,30.6228,145.3396,7.7885,222.6169,-367.6139,-109.2277,-258.0959,-143.4322,461.1548,-39.6240,-154.4431,63.3643,27.4581,273.7003,198.2227,-125.5702
-3250.0000,-84.7056,-23.3879,124.1395,60.4225,95.8292,26.5946,-104.6918,-42.9133,211.2850,177.0897,27.3234,105.7584,196.4987,-10.3606,204.8276,18.0322,-189.0935,-328.6014,-510.2592,-60.1464
-3242.1875,-38.1357,94.3379,-239.0837,-67.5257,-267.3927,-5.5768,-51.7024,34.1237,-78.1435,70.0308,68.3803,-0.4127,237.3974,66.5092,-11.2725,38.9345,-71.0629,281.6763,99.8273,127.9089
-3234.3750,-146.0495,-119.4431,177.2046,142.0463,185.9064,116.7751,-31.4550,120.6855,-214.1092,-101.5513,-176.1113,-172.1120,324.7854,5.8654,-109.8948,51.0123,-2.5125,-1.5167,-78.5348,-190.5669
-3226.5625,-20.9321,146.7836,-37.4699,-84.3948,-65.7632,-207.8777,-109.8840,-203.7834,306.0062,87.8844,270.4242,164.2172,184.1305,-24.7817,42.5208,-95.2821,-122.9867,-15.7804,-373.9938,145.9517
-3218.7500,-79.9881,51.8358,-17.3675,137.9465,27.3499,-3.7331,35.5654,73.5419,-335.0887,-184.8952,-113.2307,-146.6541,390.2660,-152.6226,-229.2668,-52.7103,134.3505,416.7997,270.3828,-53.7140
-3210.9375,0.9135,-43.1812,290.7375,113.2609,188.4789,46.3845,-94.3114,-133.1786,82.7532,49.2576,11.0371,51.4104,183.3441,-101.5164,77.9056,-52.2940,-31.3583,-205.7147,-457.3215,-113.4700
-3203.1250,57.5553,154.5373,-101.4632,-39.7617,-202.7039,21.1785,-83.8619,-83.2375,-88.6372,24.1314,97.0549,26.2110,123.0804,20.2904,-56.1815,-10.4082,60.6101,344.4366,-14.3796,119.5031
-3195.3125,-100.2319,-108.2002,264.8890,188.7688,199.6759,241.5352,-6.6054,136.2821,-384.5256,-196.4653,-271.4114,-231.4748,233.3649,19.6375,-204.7390,69.4967,185.1457,187.1706,75.1766,-248.9937
-3187.5000,67.3101,94.3570,170.5916,-30.4114,32.3958,0.1859,-123.9226,-177.9231,182.9501,40.2606,112.4389,152.1577,29.9176,109.2794,69.0374,-16.8657,1.9588,-135.8766,-425.0534,24.7977
-3179.6875,-3.2079,59.8493,-8.8398,146.2787,-73.0127,115.7206,-16.4485,83.7638,-436.6629,-212.1163,-176.7928,-100.2978,219.3482,114.8292,-256.2823,51.0777,283.6709,356.0059,313.6448,-80.4822
-3171.8750,-39.4620,-82.4292,330.0172,251.2368,190.8762,159.5306,-93.7735,-56.2812,-100.0481,-95.2673,-132.8162,53.4727,43.0170,84.6240,-66.3497,28.2897,211.6394,-207.8794,-285.4041,-257.5507
-3164.0625,45.2738,213.2661,-74.1792,124.1153,-248.2945,13.2670,-115.0845,-91.4109,-25.3998,-57.4368,90.1551,202.2321,-28.4091,122.3730,-65.4289,-6.7821,191.5311,158.1382,-60.5705,38.3556
-3156.2500,-116.1223,16.8172,214.4571,385.8480,39.3767,227.8703,-39.9359,123.3345,-471.9445,-210.7733,-247.0586,-98.1835,151.0105,5.9705,-218.6806,51.7419,311.2909,103.0562,165.1839,-298.8964
-3148.4375,63.5016,160.3576,206.1409,142.5875,-41.9073,-37.5137,-159.0439,-214.9344,107.5591,38.8994,222.7184,224.4099,-40.6021,34.5694,105.0944,-61.2947,68.0339,-315.0988,-429.1330,-49.1731
-3140.6250,66.9112,199.6827,-85.4573,111.0512,-185.4760,38.8400,-36.3614,7.5269,-441.1524,-177.6824,42.2730,-30.2239,109.5134,73.9298,-149.3679,-5.4299,213.5185,286.5132,314.3039,-9.6681
-3132.8125,5.6318,32.2879,264.2785,225.8350,200.2981,130.5167,-79.7640,26.3077,-276.6033,-159.9916,-49.9103,-11.5928,55.9351,55.5751,-57.5404,17.5342,81.3219,-196.5743,-169.9350,-211.9007
-3125.0000,124.5926,292.1065,-142.7695,-6.2092,-206.7223,-92.6283,-94.1004,-159.7489,15.2279,-52.0648,205.1473,242.2743,-56.4818,89.4145,86.5284,-72.5452,-9.7040,27.4757,-121.0459,153.0809
-3117.1875,-7.5743,53.7815,27.0108,247.5915,73.0982,40.0832,43.8757,83.0627,-513.1242,-287.3012,-213.9611,-102.0292,149.9491,-34.8969,-147.5766,-26.1358,244.1357,247.4292,308.7593,-155.0874
-3109.3750,125.4753,116.6385,160.0460,134.6075,169.1745,-121.9839,-68.4391,-261.9311,96.7349,-81.3439,140.1174,214.8650,-47.4342,-49.0098,132.5321,-145.3571,-9.8294,-252.4691,-402.2932,-22.0915
-3101.5625,149.4120,175.3820,-224.0957,17.4431,-104.9293,-64.2145,34.1832,-95.1002,-287.5142,-207.5237,49.0829,49.6377,83.0106,43.7334,-104.4921,-84.4412,85.0345,334.4928,325.4897,107.7842
-3093.7500,71.7591,-78.4832,148.1800,115.6959,267.3968,123.9824,40.2920,20.1659,-209.4170,-166.3275,-128.5940,-92.2249,52.8593,12.8694,-63.1365,-8.5248,-27.6897,-60.1236,36.7175,-180.9739
-3085.9375,169.6974,195.2161,-168.9699,-208.5233,-123.7098,-46.2827,-57.4568,-150.0535,281.3029,66.4443,251.3093,178.4921,-116.7813,98.5592,-12.1938,-41.9031,-175.8918,3.7400,-111.5847,162.8258
-3078.1250,-9.7299,51.5384,-88.5456,-1.1565,30.7583,181.0485,48.9593,187.3350,-298.4011,-146.2005,-145.1875,-182.1993,74.1706,69.8494,-372.6645,80.2623,30.5160,316.2498,447.7715,-86.7581
-3070.3125,22.9103,47.8907,128.9841,-4.7260,138.3244,67.4454,-67.1556,-73.2222,211.9470,71.1995,109.3381,72.1467,-75.8426,29.1823,-9.0832,-1.8833,-149.0257,-285.2386,-294.8544,-90.3261
-3062.5000,75.6381,241.3266,-265.4517,-56.2781,-219.0904,2.8640,5.7971,9.2346,-35.5919,-65.3256,81.9548,81.5795,-64.8372,1.5725,-108.4283,-34.3619,9.4666,260.3102,250.5358,103.1905
-3054.6875,-63.8753,-39.4971,118.8657,189.9402,165.2635,204.0584,71.3096,137.4712,-202.4387,-160.1305,-231.7191,-122.2708,-48.0745,-91.2919,-166.0507,13.0972,116.7310,14.6497,215.7363,-247.5663
-3046.8750,65.5377,124.5797,-54.8842,-67.9472,-117.4539,-42.8498,-28.0060,-108.4218,322.6746,108.9799,110.5228,182.8063,-219.4444,29.7416,29.2636,-23.8917,-71.1274,-67.1780,-111.2402,57.5711
-3039.0625,-66.8210,27.8817,-148.4706,81.3469,-65.0079,157.4362,125.4508,200.8834,-285.0213,-169.7168,-277.0302,-168.9115,-19.6303,8.9858,-284.2310,58.6197,113.2193,434.2444,600.0344,-110.0691
-3031.2500,-122.5216,-99.1873,165.6353,-9.6802,212.1338,140.4033,50.4285,72.8503,174.9167,70.2229,-147.9732,-75.9998,-110.1806,-8.1272,-45.0838,58.8116,-118.7688,-184.7117,-54.0456,-201.1010
-3023.4375,-88.7326,110.2231,-252.8179,-222.2781,-133.2916,-58.2038,117.3164,21.2312,159.3691,92.6371,20.5743,-17.5935,-87.3153,13.2137,-59.4646,11.0911,-84.3266,235.7560,365.2734,78.3440
-3015.6250,-188.7325,-166.1653,98.9226,-6.6657,255.4878,110.4067,212.0182,226.8417,-150.0278,-106.7753,-362.7160,-327.0205,43.7539,-112.2463,-185.6749,47.7198,61.3345,135.4808,476.8659,-268.0270
-3007.8125,-58.7591,-1.6124,0.6510,-264.1023,83.2585,-99.0249,100.5554,-92.6170,487.5742,199.7762,54.9421,16.5170,-163.2484,-100.7550,121.0908,-47.2141,-197.0711,-156.9078,-63.6647,1.5336
-3000.0000,-159.1544,-31.4265,-249.0578,-223.9630,-19.4046,55.1309,223.3364,209.5157,-57.2074,58.9286,-194.7754,-307.3318,-9.6652,-56.6598,-129.5497,74.3679,-86.8852,410.3450,646.4326,-28.2788
-2992.1875,-160.5930,-209.3077,122.2165,-190.8517,315.9265,96.2636,172.8845,102.6217,241.9197,137.0136,-228.5872,-267.2627,-42.1261,-89.6252,95.7500,51.2047,-229.7375,-154.4566,45.4990,-171.1829
-2984.3750,-62.3945,28.4358,-305.8968,-410.1649,-75.1461,-74.0246,146.8521,6.2878,364.7123,186.7185,78.2441,-69.5573,-101.0170,-1.9871,108.6849,8.3066,-272.0101,189.2979,213.1005,172.5318
-2976.5625,-205.2276,-184.8609,-72.0742,-131.5233,195.7242,159.6519,215.4056,312.9268,-173.6032,16.3437,-348.0037,-386.9265,22.0481,-26.3982,-134.4601,137.6729,-64.3123,257.0623,527.7283,-181.8107
-2968.7500,-113.6992,-93.8225,-19.8513,-285.5214,99.9861,-9.3083,66.2177,33.9063,466.4522,325.3225,-2.9057,-41.9373,-182.5514,-11.4600,174.7559,71.8818,-253.2722,-248.8803,-155.3492,-19.8315
-2960.9375,-90.1338,0.2562,-291.6592,-262.5468,-171.7916,11.7105,153.5607,238.8691,-27.4710,125.3094,-127.7682,-240.9193,-51.1687,-64.5140,-98.0249,86.9021,-20.2442,301.1937,571.5767,38.1822
-2953.1250,-114.9052,-201.0238,133.2080,-77.8986,180.1084,69.4027,121.5495,223.5059,67.2012,72.9175,-218.0206,-257.2865,-67.1322,-152.9238,33.8262,57.5718,-44.5419,-216.0736,124.1929,-198.1873
-2945.3125,56.5572,74.9118,-217.7109,-293.0687,-244.7909,-134.7126,9.0625,54.3053,341.1384,235.7473,165.9611,16.5850,-159.9305,-26.1272,85.9174,24.7692,-119.6612,-45.2007,47.9365,148.6566
-2937.5000,-30.0553,-153.2378,-112.7597,5.6604,-66.8217,117.0834,81.0798,381.0204,-253.0686,10.4556,-280.1743,-282.6557,-18.8293,4.5829,-176.1219,163.5827,73.1340,218.6302,452.6552,-150.5941
-2929.6875,46.7934,-147.9548,73.6882,-130.1410,46.6386,-26.6519,-28.8073,52.1854,339.1829,233.6071,16.1185,50.5563,-198.2905,43.7407,158.2882,76.3070,-167.6194,-338.1367,-280.2138,-74.4289
-2921.8750,67.7311,-56.5889,-240.8378,-213.9152,-193.8849,-84.3623,74.6706,105.3683,23.5233,138.8241,-4.4990,-44.1408,-71.7305,59.9570,-47.2456,72.5729,-41.3307,210.1525,373.9536,51.8211
-2914.0625,-74.7689,-304.6849,175.2031,28.8857,222.1640,148.5007,57.1817,154.1257,-111.6543,40.5585,-212.6100,-215.3182,-23.6162,34.7188,-71.2601,115.8883,26.5373,-108.9725,89.7279,-267.4075
-2906.2500,43.8595,-80.6689,-48.6309,-169.2196,-74.6720,-39.5431,-32.8596,-144.0500,289.3202,110.4074,224.4060,111.6405,-137.4355,104.5883,108.8531,-7.2999,-65.5192,-97.0526,-179.4761,96.4669
-2898.4375,-30.7365,-226.8712,-8.7554,1.4201,75.2107,148.1605,108.7118,116.5303,-368.9842,-217.0098,-139.8315,-215.6526,86.4929,71.2124,-182.3060,45.4221,175.1841,250.6820,449.1299,-83.8934
-2890.6250,53.3745,-248.3855,224.8598,-56.2147,197.8385,12.5876,-32.8188,-129.1802,158.3965,89.2637,56.5955,53.7400,-47.8815,83.5325,125.2307,8.9411,-93.4130,-404.9141,-312.5772,-71.5935
-2882.8125,153.1208,-44.2610,-269.9438,-203.2769,-259.9588,-114.4085,-23.9856,-72.3205,66.4279,182.1586,149.6604,109.7684,-27.6863,139.4639,34.3860,36.5079,-64.4305,45.0802,138.2831,168.3360
-2875.0000,39.6299,-229.3844,67.0012,34.4281,113.0017,75.3668,52.2181,80.3158,-184.8582,-33.2269,-175.5658,-104.4925,51.2696,35.1437,77.2580,44.8462,-2.6660,-139.1292,93.9685,-157.0066
-2867.1875,211.1236,47.4517,-101.0590,-181.9257,-127.0574,-165.9142,-69.5984,-235.1260,308.8493,92.3451,245.1781,315.2147,-115.8451,50.7712,350.1037,-103.4884,-218.9678,-319.4575,-368.4652,189.5896
-2859.3750,148.6092,-15.7227,-235.1998,-68.3529,-189.1999,-44.2649,68.9046,70.3757,-303.5090,-78.1540,-73.1088,-4.1230,78.9874,-11.6510,30.8910,-18.7254,-36.3133,179.2105,413.1008,91.1621
-2851.5625,66.8583,-168.1656,50.4490,-46.0078,60.4482,-51.8463,0.2373,-47.3590,129.8431,171.0759,-44.6805,99.2597,-38.4205,-18.3421,244.4236,1.7379,-187.8974,-395.3831,-196.5723,-26.5546
-2843.7500,135.9863,41.2686,-368.0690,-223.8411,-358.0733,-213.5952,-6.6419,-61.2749,188.1086,229.1951,160.6389,157.5311,-89.0055,77.8232,155.8309,7.2264,-155.6636,24.8441,116.5608,252.6037
-2835.9375,8.8677,-263.5450,-44.8591,34.0851,39.1377,36.4334,83.9693,187.5927,-186.9304,-35.9556,-214.3293,-143.4762,87.1622,32.7515,-71.0428,77.2436,-3.6667,0.8747,304.5238,-122.4990
-2828.1250,148.2647,-123.8698,-19.1154,-213.4810,-45.1283,-231.0197,-39.8426,-154.0502,501.5631,210.4029,253.2013,176.0362,-33.2006,21.1913,138.6048,-48.9815,-215.1847,-316.6585,-295.0724,86.8814
-2820.3125,107.2868,-129.5626,-206.8154,-114.4593,-159.8491,-125.8857,112.2817,60.9002,-19.3338,21.3672,-46.6492,-49.8271,71.0102,-20.7532,-123.1573,-1.7739,-12.1004,239.4469,471.9599,44.8957
-2812.5000,54.6042,-289.9821,151.8102,6.8918,198.7637,11.5783,45.8010,15.1751,193.0124,85.6099,-128.2432,-21.4166,-48.4788,7.6028,51.3552,30.7750,-100.6943,-307.1376,-109.6745,-184.8257
-2804.6875,182.7404,13.4102,-244.7587,-181.9738,-197.8292,-164.1752,-2.1465,-124.7883,347.2248,166.6848,173.0001,206.8368,-113.1992,50.7623,94.6957,-37.8120,-148.5129,-73.9626,-16.5740,153.2744
-2796.8750,62.0249,-178.0443,8.7997,82.3144,92.7094,89.2300,96.1596,92.4136,-245.4675,-205.1092,-198.6280,-127.7795,140.2406,11.0748,-55.8369,-4.1186,45.8370,85.4245,282.7548,-144.4696
-2789.0625,158.7531,-83.0721,137.8526,-33.9318,74.7391,-76.9046,-57.8953,-256.9372,288.3101,34.5526,188.1852,185.0551,-25.8850,29.8376,294.0935,-100.2376,-139.3669,-346.7911,-465.5103,21.2123
-2781.2500,124.3958,58.8317,-158.2351,1.7030,-221.3757,-6.1601,1.3502,-39.4061,-154.9881,-77.8756,74.9330,-38.1780,81.8701,26.5129,-3.0707,-30.8401,35.3210,321.9209,202.1355,91.8327
-2773.4375,42.1779,-165.1297,245.8452,165.5152,182.6854,178.7605,-3.1434,-2.6995,-119.2007,-79.1857,-72.2154,-112.2939,82.7880,-83.6640,34.8903,-18.2588,-11.8180,-113.1911,-127.0150,-202.4272
-2765.6250,181.6226,78.5640,-139.4064,-118.0341,-165.5966,-59.6812,-68.3563,-167.3793,267.2961,86.1805,314.3256,164.2735,28.3296,-27.1853,163.5349,-89.5325,-154.3303,-44.7071,-234.5861,146.9753
-2757.8125,26.2733,-42.5286,-70.4892,111.6137,-24.7100,155.0733,33.5508,157.1561,-362.0548,-213.2641,-94.9390,-134.9713,206.0774,-33.5034,-98.6439,5.6042,75.3762,256.0428,277.1144,-115.4082
-2750.0000,56.8711,-11.6956,105.4255,107.2343,5.1704,73.7947,-117.2925,-108.3535,181.5358,36.2314,117.7303,188.7192,-22.2249,32.1252,151.1284,-28.6704,-140.9676,-311.2956,-431.2602,-49.8729
-2742.1875,93.0955,163.7728,-307.0886,0.4261,-334.3860,-7.9085,-35.7920,29.7120,-47.2339,27.3418,72.0433,69.0465,7.0502,60.3594,-40.4776,14.9193,-70.7298,249.9683,200.9474,125.3022
-2734.3750,-21.4832,-127.5712,28.6023,131.8412,111.2623,106.6127,45.1825,145.0061,-80.8737,-4.3726,-217.4823,-146.4599,47.5371,28.7945,37.0870,73.3478,-45.2694,-111.5349,50.4236,-201.3416
-2726.5625,168.6529,96.7832,-156.9835,-171.0534,-147.3855,-189.1694,-29.7644,-151.0261,395.2395,139.6415,221.7147,181.7646,-65.3042,98.9452,291.3833,-48.1249,-208.1343,-238.4057,-252.4651,163.7182
-2718.7500,72.5985,0.9538,-140.8176,-22.1626,-21.2823,10.8511,125.7216,121.7601,-286.8655,-247.5441,-93.2906,-168.2122,208.6439,-31.0901,-22.5444,-39.6602,116.8076,227.5807,424.5175,-3.4004
-2710.9375,92.2353,-51.2037,211.0843,30.4516,220.5566,-4.3991,-22.2677,-114.7315,101.7182,-80.0378,112.3623,35.4895,82.2847,-83.4230,146.2105,-99.5538,-40.5465,-351.7562,-330.7940,-55.8563
-2703.1250,87.6866,119.4643,-208.2370,-79.1533,-161.8359,-93.8718,-15.8408,-56.4485,-23.8365,-21.7134,169.8538,57.0342,67.6972,12.0566,-53.2179,-44.2541,25.8792,170.6888,120.6614,185.5232
-2695.3125,-52.3722,-126.3698,137.9262,166.7579,221.2671,69.1721,39.0087,105.3640,-338.9570,-153.9173,-145.1895,-184.9472,192.6244,-9.9623,-148.1799,27.9894,129.8275,-5.3153,156.6973,-166.6078
-2687.5000,117.4138,41.6384,43.9684,-17.4774,16.2449,-171.9386,-86.8800,-244.9962,227.8130,82.7494,275.6308,198.9434,-10.6124,42.8644,162.7385,-80.9297,-52.3902,-259.5242,-378.4826,107.1027
-2679.6875,36.5057,30.9729,-110.7314,146.5731,-65.5196,3.2410,18.4606,2.9353,-331.1272,-182.2835,-27.2279,-66.8483,127.4394,35.0014,-139.0480,-18.8096,181.6989,291.6166,277.6760,25.1429
-2671.8750,39.4283,-37.8668,191.4552,183.5092,200.6020,48.2968,-77.0588,-136.2630,6.7378,-28.4883,17.7231,52.1936,24.3465,5.9919,51.9957,-38.1825,42.6578,-304.4003,-353.3007,-114.0061
-2664.0625,106.5151,205.4645,-230.2122,-30.4199,-221.1464,-152.5238,-79.8832,-190.3436,98.8190,64.4916,257.8673,181.4294,7.3757,62.1418,35.2107,-64.5616,3.7431,44.6923,-75.1866,199.0198
-2656.2500,-65.9994,-73.7906,45.4941,183.0618,54.4862,86.0615,2.9541,85.0032,-359.7642,-175.1469,-128.6137,-130.9555,208.8093,6.6907,-131.2023,15.7841,182.2525,81.2406,173.4132,-150.5590
-2648.4375,80.1432,71.6007,76.8958,-24.7865,-25.2015,-66.7031,-154.9419,-251.0246,222.3219,39.8721,270.5556,231.3181,18.8763,74.8870,121.0517,-76.0046,-60.5917,-265.6263,-491.3907,64.4942
-2640.6250,73.2070,133.9290,-152.8369,2.2442,-144.0360,-39.5857,-20.3772,-5.1721,-264.6830,-153.1962,76.6576,0.5092,156.8198,27.9974,-108.7952,-35.4177,107.4641,358.4338,203.7293,91.4852
-2632.8125,-7.9396,-52.9588,287.2516,97.1007,258.9541,32.3577,-15.7687,-79.4949,-46.9473,-81.4888,-35.4797,-37.5311,81.5687,-47.0959,73.1353,-43.1652,61.3371,-144.6951,-264.3056,-130.7540
-2625.0000,110.9278,171.1693,-45.6538,-101.0624,-74.0659,-152.7150,-53.6572,-265.8544,208.8500,27.2451,293.4258,144.4675,-30.7195,-11.1845,71.0982,-114.6234,3.1854,113.1265,-216.4004,198.0314
-2617.1875,-33.0046,-9.4886,147.6065,174.9712,193.0831,150.4176,18.8723,75.0060,-442.2050,-330.8421,-63.4816,-176.3510,163.1923,-39.0624,-285.7661,-21.5549,210.2516,355.2112,201.7875,-122.9714
-2609.3750,54.6007,42.3869,306.4533,15.5734,241.8140,15.1147,-129.0487,-207.5781,46.2967,-100.3724,315.1454,166.3838,26.6357,9.6178,55.9283,-91.1280,-20.1410,-226.2062,-520.5108,-1.4501
-2601.5625,67.1673,160.2421,-16.7843,-7.8987,-118.5517,-14.2558,-66.6094,-53.2305,-351.2220,-201.9386,248.7640,26.1058,144.0017,16.2667,-120.4193,-59.7574,167.4056,313.3386,124.1432,116.0605
-2593.7500,-0.3298,-84.9697,366.9410,204.6086,264.0446,111.3494,-70.1930,-1.8999,-299.8574,-150.5863,7.2897,-68.2537,159.3184,-78.1340,-141.8469,-20.6917,203.9341,-143.1337,-156.1927,-199.5045
-2585.9375,158.1759,178.8295,74.6877,-59.8891,-137.3535,-143.0613,-153.8726,-219.6011,107.5656,34.7937,377.8434,228.4257,51.5975,-1.5293,-65.2490,-93.9109,44.4450,-90.6599,-244.5961,133.9408
-2578.1250,-40.6217,15.3492,100.0995,162.3098,33.9124,65.2250,-6.9286,98.4062,-529.3480,-271.1397,-75.9003,-77.2008,369.5751,-87.2142,-371.9744,-30.6885,267.6736,307.5692,365.7717,-135.8942
-2570.3125,-63.6356,26.6396,331.3547,138.3303,192.0251,-34.6749,-121.4493,-148.7768,-4.4741,-76.2816,82.1323,190.9598,233.3449,-40.0951,-30.9029,-81.7086,67.7116,-349.4437,-397.0788,-124.9586
-2562.5000,-9.4954,220.1087,-100.2589,86.4768,-239.7511,-98.4544,-91.6353,-65.8393,-215.4006,-141.2549,90.3646,199.3114,278.2328,42.1853,-131.6651,-64.3056,155.8856,90.6868,113.2007,104.1669
-2554.6875,-107.0247,-18.0851,215.4760,269.0005,38.8281,106.1348,-104.1524,64.4791,-378.0457,-230.9082,-182.0903,37.9861,410.4716,27.8133,-184.1018,-2.2311,233.4357,-218.7914,-20.1013,-205.3735
-2546.8750,53.9908,177.2691,-0.2142,7.0757,-250.0299,-181.7352,-211.3286,-260.6727,177.9101,-4.9840,264.0287,374.2412,267.2295,105.9919,78.0446,-105.6053,41.5214,-304.7896,-422.9219,130.6387
-2539.0625,-68.3929,54.2504,-85.3472,130.7443,-151.3315,-10.0123,-64.8334,57.7769,-495.5543,-236.4608,-115.2416,-4.8943,513.5737,94.7811,-226.2316,2.1038,235.2178,274.8672,262.9139,-27.7207
-2531.2500,-96.2039,-10.1912,257.1559,136.0460,227.0103,-36.6601,-136.6710,-115.1510,-117.4533,-79.3604,-30.9501,116.5460,450.5139,32.1705,41.0824,-44.0519,-5.4759,-246.8887,-468.6393,-127.5162
-2523.4375,3.6399,229.0416,-203.7052,-11.0294,-160.0240,-129.6788,-115.8674,-135.4527,-137.6432,-62.5863,133.0345,169.6740,466.0685,12.2257,-51.9241,-90.6368,-47.5445,202.9808,-89.5845,146.3682
-2515.6250,-126.2367,-5.4371,116.7187,210.2064,234.2301,80.6196,-10.6326,38.5835,-404.5947,-220.5277,-244.7158,-133.9307,603.9178,-71.4076,-209.6599,-39.3603,68.7081,73.2010,61.8595,-194.4567
-2507.8125,49.5272,134.7229,29.8173,-36.9106,73.1588,-152.4294,-109.9704,-305.7416,280.1478,23.2093,220.1882,183.1248,405.3893,-47.3865,71.2802,-158.3929,-107.4119,-242.9922,-466.1047,86.3598
-2500.0000,17.4893,102.1132,-111.9390,36.1514,-69.7635,-39.2970,36.6821,-8.8682,-266.8979,-229.8423,-33.6894,-105.6033,483.0348,-80.1587,-181.5782,-96.0608,140.6644,286.0555,310.1694,53.4168
-2492.1875,11.2235,-45.7176,254.1273,99.0413,186.1449,-3.3403,-37.0003,-83.1645,61.8144,-84.1092,-33.8065,-70.5616,297.4739,-81.1357,0.3494,-76.0349,27.5563,-319.0956,-258.7316,-94.7551
-2484.3750,101.4056,182.9212,-183.3594,-199.6351,-324.5188,-182.9583,-69.1072,-116.0410,286.0450,176.1068,189.5694,43.9712,153.3229,33.3453,4.7615,-31.7859,-94.1230,-19.8362,-30.2396,239.5536
-2476.5625,-101.4295,-89.4387,-48.8709,18.6984,-80.2070,61.4314,33.9364,201.1083,-131.7822,90.3070,-263.0719,-262.5196,250.1720,-17.1720,-228.8523,108.0343,18.2249,93.4805,329.3366,-104.1322
-2468.7500,-26.3852,20.0813,-16.4350,-117.0567,-119.9630,-125.2725,-98.7647,-59.8450,490.3126,307.4171,100.1834,100.8954,24.8961,16.2108,98.4491,26.1898,-222.5318,-359.3630,-369.2350,76.0624
-2460.9375,-68.8414,82.1349,-284.5378,-55.3324,-316.2691,-63.4981,21.9897,111.6908,-36.0706,37.0366,-95.0266,-20.1577,123.0945,41.1162,-133.7504,46.4550,49.2085,229.3128,360.7021,137.7991
-2453.1250,-111.0250,-100.5227,159.6778,147.7234,-19.2526,86.6000,-53.6425,78.5574,39.7854,77.9255,-202.9764,-17.9340,15.5930,8.3278,-56.6789,75.7489,112.2719,-235.6992,-104.0180,-116.1890
-2445.3125,58.7935,138.8347,-156.0977,-69.2299,-409.2462,-119.3264,-123.8541,-127.6089,347.7071,238.8519,142.1172,180.3343,-153.9450,96.5436,-42.5724,25.3069,35.3142,-30.7810,-109.8146,228.8466
-2437.5000,-78.1025,-103.4908,-28.6083,144.1213,-97.9784,118.0445,45.3530,182.5410,-223.1150,-74.9317,-280.4972,-206.1082,45.8177,40.0660,-319.1820,100.3859,178.6744,288.4882,420.7589,-84.7987
-2429.6875,-22.7769,-84.5958,136.1734,-12.2568,66.5742,-11.3143,-27.2065,-94.0505,383.3153,89.5363,31.1222,105.6917,-156.1844,57.8412,65.4650,2.5750,-83.7178,-255.0397,-298.4493,-30.2179
-2421.8750,8.8439,17.6232,-240.7813,-86.3641,-163.6168,-21.3923,73.6057,42.6425,78.0823,-30.6718,-51.9173,-14.1781,-19.9141,47.9293,-90.5703,9.5684,18.1745,268.7424,295.6378,106.7040
-2414.0625,-112.0224,-244.6272,159.8169,73.1026,273.7573,122.1037,81.4126,112.9252,38.3322,2.6446,-313.4464,-164.5331,11.9104,-28.4342,-58.0837,65.0777,2.6437,-99.8877,-1.6573,-190.8480
-2406.2500,47.6479,20.6699,-96.0110,-190.8838,-55.3057,-169.8598,-10.5136,-142.2629,480.1902,224.5369,128.6018,167.6897,-170.7485,10.7594,163.9804,-26.2049,-155.3562,-117.0239,-265.4771,178.1543
-2398.4375,-6.2472,-104.5723,-33.4299,1.5749,44.0413,2.6263,114.0763,103.0146,-191.5310,-44.1241,-174.8944,-172.6433,1.0376,-37.5926,-140.5230,34.8312,142.1065,215.3545,384.2133,-16.3721
-2390.6250,66.5227,-137.1457,226.8935,3.7615,193.1316,-32.1625,2.3007,-151.9940,324.4279,67.9015,47.2817,49.7037,-143.4793,-35.2462,155.6810,-50.3501,-31.7184,-380.5990,-351.4105,-14.2298
-2382.8125,104.7890,110.8037,-150.3075,-29.5735,-257.3091,-77.4700,0.0403,-124.5285,93.9360,-51.5521,111.0068,77.5880,-117.5272,-7.3908,-0.5886,-75.7337,75.9413,182.9397,106.4272,233.4540
-2375.0000,-75.9797,-104.2551,153.4836,282.1167,119.2474,152.2401,49.7281,67.9747,-191.6176,-190.0306,-210.3072,-134.5593,-35.5701,-71.5372,-27.8929,-9.3522,105.6294,-32.4706,67.3401,-87.8736
-2367.1875,39.8335,116.2764,-35.0958,-59.5947,-105.5729,-109.4571,-14.1805,-230.9402,392.4776,100.1152,189.0000,191.9104,-261.0444,-2.0832,261.4249,-90.8876,-131.0963,-268.3423,-274.2140,238.3972
-2359.3750,-85.4179,25.7780,-233.7710,-10.3728,-158.4875,20.7831,143.0284,121.1027,-137.4794,-61.7815,-192.7307,-116.6622,-130.5860,-17.6687,-11.3140,25.1896,59.1329,273.7821,479.2296,112.6502
-2351.5625,-113.4518,-36.4977,72.8394,67.1320,74.8854,71.2919,8.2437,-12.5807,242.7842,171.5639,-143.2496,43.9878,-337.8830,-4.0093,149.1909,51.2305,-74.3741,-316.8661,-217.0722,-20.8766
-2343.7500,-52.3937,234.3499,-318.4612,-47.2835,-389.6666,-62.1318,-44.5321,-0.1949,218.2151,220.0438,53.3817,202.7796,-400.1131,82.7599,51.8279,64.3569,-47.8061,94.5502,54.6730,285.7361
-2335.9375,-169.3642,11.1970,-22.7848,255.3162,15.7683,159.4549,61.1506,221.2260,-220.4140,-35.4920,-349.0219,-15.4566,-289.3413,10.5351,-94.5648,114.2335,78.7839,46.0149,252.4971,-43.6501
-2328.1250,-76.6546,174.7444,-46.4104,66.6139,-45.1043,-85.2624,-17.5743,-132.6477,379.6713,123.6809,31.2753,328.0072,-460.8975,24.0171,249.7490,-28.2909,-108.9291,-247.8341,-321.9770,189.6733
-2320.3125,-194.4652,162.7927,-240.5341,89.4130,-129.4883,50.5202,101.7836,149.9879,-218.7429,-69.6410,-199.9221,23.9754,-288.9733,49.0060,-91.4343,70.8702,53.8585,372.8065,439.0465,142.5069
-2312.5000,-260.6929,-79.5555,214.9393,93.8167,289.7237,139.9062,42.9594,128.2252,-21.5614,17.6377,-186.5150,1.5427,-274.4613,27.5938,32.9928,99.5671,-47.7536,-151.9522,-119.3362,-100.0498
-2304.6875,-110.6914,175.3429,-83.3354,-178.5282,-46.8177,-49.4577,-5.0333,-24.2816,156.8706,122.1715,139.1431,143.3599,-354.7147,132.4305,28.6732,63.2987,-73.1148,103.5329,-39.4640,225.6535
-2296.8750,-194.7204,-48.7609,173.3814,89.1260,210.6350,135.1801,105.7596,233.2230,-393.6911,-134.2879,-227.1999,-186.8216,-171.9857,-13.7245,-155.6377,99.5242,123.5224,195.0170,333.4141,-104.6351
-2289.0625,-109.7322,71.1776,255.1417,-73.1685,144.1381,-42.1281,-35.2531,-54.2124,238.8126,241.2995,147.5113,152.0456,-458.2258,-42.8272,183.1041,36.3339,-107.7896,-318.4400,-355.6570,50.1358
-2281.2500,-120.6645,165.2093,-91.9993,-49.3610,-129.2533,-20.3350,57.7565,150.4556,-145.5744,113.9852,21.3203,-9.9907,-439.3759,15.1656,-16.0616,105.6992,19.9999,303.2090,301.3765,144.0138
-2273.4375,-242.7643,-62.9087,342.7155,74.2944,306.2062,83.3090,75.8906,143.9771,-78.1102,108.5381,-95.0197,-127.1814,-556.6943,8.9998,124.6184,136.9628,2.6443,-136.2930,-67.7427,-119.2514
-2265.6250,-50.3767,199.4820,49.9263,-190.5470,-60.8348,-99.5481,11.0606,-75.0001,252.8528,255.6062,273.1386,131.1324,-814.5366,47.3262,308.7998,53.8369,-121.2123,-14.2914,-191.3636,248.9876
-2257.8125,-141.1571,39.7185,148.9848,70.4660,74.9673,146.4490,115.9456,170.8837,-382.3329,-86.4816,-104.8558,-172.7011,-678.5391,-0.4798,40.8388,105.0674,175.7776,316.5658,315.8612,18.0753
-2250.0000,-51.8119,93.0945,349.1882,17.6308,163.9217,15.5942,-23.1082,-143.0737,221.6410,114.5791,168.3089,137.6109,-810.4007,15.8707,241.0281,14.9441,-18.0880,-227.4307,-403.7625,71.3164
-2242.1875,-40.9373,245.0212,-50.0593,-5.6596,-161.5826,-15.7089,20.5041,-28.4722,6.1717,9.1966,136.0294,105.4607,-733.7170,58.7779,-11.2393,35.6180,98.5984,381.1187,134.1642,223.1149
-2234.3750,-148.7375,-2.7092,296.0412,204.3901,220.2613,182.3352,52.3961,132.4836,-126.9382,-13.8261,-105.9032,-100.3491,-645.7003,-37.9673,2.8432,97.3136,97.6398,28.0183,-7.5513,-129.7297
-2226.5625,-39.0719,212.0435,-9.3616,-74.0604,-48.3975,-86.1173,-6.9953,-99.0539,449.4597,232.6589,286.6588,182.3376,-695.2020,-11.2090,175.4353,7.1219,-109.8078,-109.5768,-249.7614,189.9305
-2218.7500,-185.9335,65.2901,-118.2528,59.9953,26.4401,98.9407,157.1332,233.9183,-136.6461,13.6440,-115.2843,-219.4719,-473.2182,-83.9520,-116.4706,97.1698,94.2545,376.3291,447.5291,8.0913
-2210.9375,-149.6261,-38.2619,217.0598,-8.7349,251.4783,30.1977,45.6788,54.0973,272.4517,201.8291,35.9745,-31.0744,-580.0488,-115.5000,182.8171,56.5738,-79.4798,-185.5668,-288.9826,-60.5433
-2203.1250,-62.9475,188.5855,-145.2251,-133.0528,-111.0883,-75.1480,73.1498,58.6812,91.9521,95.4126,187.6376,10.7246,-503.4835,-73.6627,149.5047,13.6526,6.1871,251.9331,112.9045,201.2285
-2195.3125,-166.1494,-54.4230,167.6441,150.7750,238.4999,127.6556,106.4064,188.4220,-256.3853,-68.8496,-160.5430,-191.3269,-337.7740,-90.6770,22.3404,68.1796,115.0039,44.5779,151.9352,-146.8447
-2187.5000,-45.5303,101.4141,-48.6340,-80.5460,-52.0627,-88.6895,-18.4381,-101.9820,372.1333,265.7435,210.1338,180.4687,-483.2144,-13.8373,283.0291,3.9929,-151.3280,-257.9272,-290.1929,113.9381
-2179.6875,-132.9967,49.2011,-282.9631,43.0885,-139.6714,80.9058,116.3907,214.5735,-155.3944,68.2898,-170.2421,-126.7876,-276.7109,-28.0507,-62.3275,100.3260,42.2915,287.5190,466.6235,26.6743
-2171.8750,-121.2436,-113.7714,65.9550,55.9727,171.9756,99.7473,33.9272,123.3833,156.3406,124.0905,-115.3694,1.2055,-332.9694,-45.0236,104.5833,75.1459,-85.8429,-261.7853,-154.3129,-101.3385
-2164.0625,29.8767,106.6509,-305.7321,-109.7462,-309.9702,-88.0105,-11.8602,45.6136,188.4821,118.3008,136.9029,143.5870,-338.8304,61.3988,99.9013,34.7509,-40.5878,64.3142,68.1555,225.0543
-2156.2500,-74.7769,-137.6879,-32.1740,171.7828,-72.6616,148.4795,67.9056,283.1118,-272.1223,-48.2321,-285.5815,-206.7879,-213.4422,41.0712,-66.5302,139.4894,170.9158,64.6581,349.8763,-125.2958
-2148.4375,84.7409,-13.8317,15.5716,-89.4950,-98.1565,-96.8294,-72.0335,-74.1843,363.4761,257.4445,129.1339,136.0333,-349.8549,88.9465,164.2380,50.3150,-90.3756,-303.8006,-299.1978,69.5600
-2140.6250,37.5314,10.3204,-215.3864,-66.4712,-183.3533,-107.8322,67.8142,134.8263,-161.6318,62.4243,-29.8570,-94.8481,-140.9709,41.1218,-102.6885,75.6017,38.6385,353.0464,429.0224,58.7154
-2132.8125,-51.1503,-182.9763,180.2063,56.1125,249.0027,29.7184,39.2362,89.3951,-24.1957,16.9506,-75.2956,-104.1774,-78.5459,-41.1594,34.9414,39.3770,-85.7942,-157.5600,-82.2226,-170.5745
-2125.0000,68.3481,41.9226,-153.0018,-177.1024,-121.4515,-193.5289,15.2293,-96.8370,230.4528,123.6877,253.4663,112.6861,-81.9311,-6.2413,141.7838,-48.7901,-213.0216,32.0247,-33.2695,194.3461
-2117.1875,-91.2740,-153.2874,24.6840,15.5752,92.9911,-15.8755,112.5974,228.8405,-362.9872,-64.6540,-119.8722,-258.5627,132.5768,-12.4211,-83.4664,78.1021,-20.3523,188.5034,406.5765,-104.8238
-2109.3750,12.2899,-84.3034,165.5668,-126.5549,122.6255,-168.0259,-14.9036,-109.2770,218.7822,149.2124,204.9951,28.3866,14.2776,-18.3960,277.4817,-34.9385,-197.4865,-339.8129,-333.3886,-0.7777
-2101.5625,9.1853,54.0268,-172.2004,-163.3297,-178.3950,-138.8235,42.4448,67.9634,-156.1011,31.4128,124.2217,-88.3169,116.3210,-25.0288,12.7733,1.7231,-24.2609,255.2347,296.9978,102.6255
-2093.7500,-97.5456,-192.2513,209.4388,46.2962,238.9902,57.7850,49.0162,118.6145,-179.5801,-64.9886,-120.1586,-185.6318,165.7571,-11.2706,27.4690,41.3828,-24.6299,-133.3151,14.7814,-214.5726
-2085.9375,33.4437,44.2049,-110.1725,-208.3307,-116.8757,-76.8505,-56.4713,-89.9696,235.6986,56.3694,259.2119,119.7920,27.9370,147.2361,111.9225,-8.7612,-174.2546,-107.1124,-169.6880,127.9813
-2078.1250,-92.3971,-152.1518,-121.5975,-18.7620,18.4596,168.7107,81.0465,229.6630,-435.8153,-175.0560,-156.2215,-185.5850,237.3176,136.9477,-119.4253,102.3146,51.3102,224.2920,443.0378,-103.2598
-2070.3125,43.3873,-155.8627,93.6152,-22.5458,49.4479,52.9203,-82.5619,-33.0473,146.3284,77.1856,133.0037,103.6917,9.3515,94.3031,169.8842,25.4096,-93.4799,-448.6614,-334.6004,-71.8450
-2062.5000,144.3547,50.6221,-250.9688,-97.1289,-368.3649,-33.6760,-58.9791,25.4450,-51.3197,62.6211,192.4416,52.1685,30.5892,42.8524,-27.6107,13.2773,41.9393,109.5804,187.9538,134.7753
-2054.6875,0.5649,-232.6526,129.7062,146.5407,48.0808,162.9776,-14.7051,150.1839,-259.7157,-70.7132,-161.8676,-118.1069,117.0873,-16.3570,-125.8582,63.3624,180.6128,-104.9297,115.7449,-219.3470
-2046.8750,113.9586,-47.7283,-23.4275,-91.5927,-104.2742,-100.1750,-72.8719,-186.8712,286.0915,70.1529,199.0271,206.8128,-1.2133,87.6264,126.0928,-52.5261,-56.5117,-236.2404,-263.2682,105.7392
-2039.0625,9.9849,-152.1562,-125.9134,-19.0774,-22.9816,18.3103,99.5083,115.7281,-293.4452,-142.3159,-123.4248,-187.6232,191.1405,59.2471,-123.3010,33.0020,121.0139,222.0928,442.3620,-32.5214
-2031.2500,-0.1072,-231.6914,162.4891,-28.6574,191.2036,-25.3020,3.1472,-37.7621,140.9301,73.1203,18.0209,-47.1594,73.3944,-20.2352,129.2083,-6.2744,-99.5690,-349.6661,-235.1190,-111.8804
-2023.4375,21.5261,70.5167,-194.3729,-112.4858,-202.8675,-161.1499,-3.4600,-63.4872,40.0567,9.3086,175.2112,109.0511,118.4112,-8.9697,28.4684,-59.2336,-43.4063,163.3400,102.1422,155.5088
-2015.6250,-123.1566,-142.5847,151.4626,201.3802,179.7672,110.7055,67.1767,98.4992,-385.1145,-195.8007,-213.8954,-133.0447,243.1500,-68.0102,-140.5745,0.4897,165.4525,126.0474,241.0926,-233.4030
-2007.8125,29.2487,80.4152,116.3953,-32.6559,-2.4962,-71.3399,-57.3734,-229.4109,241.8228,63.1880,156.0960,200.9521,23.9993,8.0392,46.4832,-80.8005,-33.5891,-178.1439,-238.8643,-10.2129
-2000.0000,-40.3107,46.4635,-62.6279,38.3602,-71.7148,43.6642,96.6696,31.7367,-267.1873,-189.7706,-133.8674,-163.0073,210.9064,-23.8713,-242.4157,-29.4229,178.4194,384.7274,501.2285,-78.9701
-1992.1875,-70.2469,-123.8487,281.9947,80.0190,309.7249,94.3163,59.6973,-27.4518,39.4679,-102.0710,-120.1879,-112.3367,113.4702,-47.1437,-8.6620,-32.9210,8.0726,-207.7395,-91.0261,-249.0767
-1984.3750,7.4412,131.4792,-129.7391,-122.6749,-102.1832,-96.3788,36.0413,-144.9797,178.7781,-35.7044,167.1355,63.9724,30.6962,55.2228,56.7456,-74.8781,-52.6287,82.4519,57.3608,111.4642
-1976.5625,-92.8434,-38.1581,73.5797,164.6765,100.9740,143.9766,80.7452,132.5553,-351.8506,-273.2842,-217.4950,-209.6816,160.9756,-34.3660,-142.7946,-3.6549,163.7174,158.6968,310.7913,-198.9449
-1968.7500,39.1070,128.4431,92.1511,50.2735,-27.6111,15.5830,-98.4529,-178.6548,254.7890,3.3851,95.1158,176.9081,-42.4912,21.2930,132.9127,-70.3018,-56.6816,-236.8119,-401.5305,3.8989
-1960.9375,-18.9057,177.0842,-226.2274,98.9246,-236.1522,101.2378,5.6130,53.1951,-210.5129,-167.8947,-112.2264,4.5394,79.0899,70.0013,-148.3347,5.0364,97.9715,374.7306,315.1954,52.7933
-1953.1250,-140.1357,-83.4824,176.1885,154.3711,239.1029,208.6934,28.4695,87.8575,-103.0082,-134.3641,-262.7735,-71.0356,112.4761,30.5107,-40.7734,38.5815,12.4183,-97.9258,-51.2886,-243.5096
-1945.3125,-28.9303,98.4033,-162.9522,-155.7342,-63.1926,-56.4016,17.4470,-67.0234,219.9553,4.6215,97.1229,177.8315,29.3166,59.4696,98.2412,-41.3518,-121.6853,12.8668,-45.3309,79.6424
-1937.5000,-98.0372,-111.0144,-38.3906,21.8558,209.2165,105.2001,165.8257,205.8035,-317.3740,-274.6979,-256.2852,-211.6117,300.8636,-35.8823,-144.0431,0.8693,90.9158,156.3564,449.3231,-199.5029
-1929.6875,-10.4616,-92.7415,121.8712,-136.8534,258.3319,-65.4997,26.3007,-112.6637,322.0045,32.6864,88.0069,95.6323,129.1234,-22.5476,163.3748,-71.8242,-137.7767,-423.4590,-306.3281,-75.9444
-1921.8750,-15.0487,79.3838,-257.0202,-174.7079,-120.6997,-113.3509,59.3208,59.7284,-21.7693,20.9211,-33.8500,9.7180,189.2426,1.6358,-68.3543,-1.7148,-0.6202,204.5777,287.8612,96.4683
-1914.0625,-191.8514,-167.6918,123.8890,106.2348,223.0754,120.6043,43.3835,147.9379,-117.7419,-75.0360,-240.9137,-123.4005,202.1606,-57.3781,-55.2809,39.2700,34.3318,-76.5792,5.8342,-220.3183
-1906.2500,-56.0646,73.8357,-79.6118,-144.2246,-127.5496,-45.8335,-52.5370,-129.2427,303.8873,88.6077,180.6164,188.0810,33.6824,-3.7966,145.3883,-56.9272,-110.1164,-81.1371,-244.5977,127.4960
-1898.4375,-151.9351,-90.2844,-96.7663,41.6623,2.1818,194.0802,91.4099,148.9355,-337.1246,-221.3949,-203.5144,-196.0962,237.5612,-19.8669,-165.5977,20.1384,146.7872,351.6564,399.3104,-72.3398
-1890.6250,-139.2631,-182.8531,102.6246,56.0944,201.4723,136.5408,-4.9911,-56.3363,192.4245,-58.8411,-41.0997,2.2662,105.0008,-5.4018,107.9674,-27.5656,-15.7653,-232.9880,-325.2379,-93.6231
-1882.8125,-119.1496,13.0321,-291.5366,-65.0257,-191.7792,35.4544,-6.6243,-9.1558,-17.5701,-47.8439,78.7629,49.0672,150.9000,41.5013,-28.0217,-13.3153,39.1316,243.8349,116.6549,137.5443
-1875.0000,-249.5929,-220.6392,103.7543,193.3055,129.4311,211.8173,13.4846,129.4773,-284.1084,-131.4064,-223.9262,-179.7005,251.2558,33.8504,-111.5532,69.9823,157.4746,-24.8845,92.9899,-201.8367
-1867.1875,-52.8952,9.8305,0.1906,-67.2217,-120.1985,-38.6809,-85.1054,-193.7397,312.5145,97.1955,187.5377,158.6678,36.7663,77.3427,117.0738,-37.7957,-34.0277,-180.4566,-308.5318,99.9342
-1859.3750,-106.4061,-76.9059,-157.5743,56.0453,-96.0231,96.6165,66.4019,125.8495,-287.0476,-135.4005,-118.2074,-183.1785,208.0927,-7.3687,-187.5027,29.4106,161.2770,365.7750,413.7419,-21.4933
-1851.5625,-92.9683,-203.6989,156.6121,35.2593,256.1029,80.8703,9.1835,-0.6057,100.3581,32.9546,-61.0128,-90.0829,117.3731,-61.1384,52.8662,4.3712,-36.4655,-183.0399,-241.0420,-147.9704
-1843.7500,38.3180,69.3502,-233.3581,-183.6770,-97.9249,-52.0243,-20.0608,-22.2026,77.6273,46.1718,174.0208,69.8501,130.5107,-9.0712,-5.9163,-26.0474,-79.3565,195.0010,-1.9744,160.4019
-1835.9375,-42.3528,-115.5569,101.7233,87.4335,238.1023,136.1258,28.5333,203.2598,-357.0427,-205.5557,-151.9014,-219.1783,281.7073,-78.9658,-185.6491,23.5925,16.8015,151.0920,128.1389,-165.1789
-1828.1250,132.7243,95.2731,53.5538,-123.7077,78.8820,-94.9855,-136.8231,-138.5214,293.0446,40.4691,314.9328,137.5404,85.6680,-53.1215,97.3648,-93.3140,-194.2904,-236.0693,-540.0048,80.9876
-1820.3125,115.3989,78.7003,-146.0106,-70.2523,-84.7294,34.5055,-50.8332,138.3056,-238.2775,-121.9130,40.3679,-136.1491,252.2493,-69.6702,-176.0261,-5.4984,35.2088,344.3760,111.4426,64.7538
-1812.5000,69.9709,-141.9722,258.3216,61.0990,246.5629,107.8979,-122.4120,29.0400,19.3013,-12.3994,-33.3009,-99.9439,214.7471,-33.3205,-29.5076,17.4559,-9.3975,-263.2792,-460.2184,-155.5773
-1804.6875,192.8416,121.6598,-142.0567,-131.2568,-227.8435,-108.4078,-174.1287,-113.9102,243.1856,101.4261,264.3228,86.5529,180.5582,44.3125,48.3171,-38.5818,-96.7122,-33.6317,-372.5914,179.3943
-1796.8750,37.7065,-67.7088,-32.4391,100.3858,-7.2467,76.2867,-61.7443,181.1529,-306.9219,-81.7424,-176.0621,-243.9602,401.3815,-66.0648,-134.8577,37.9319,64.9703,128.0173,36.0258,-150.6325
-1789.0625,156.5655,16.9247,12.1774,-61.9736,-36.6435,-64.0233,-196.9664,-68.7950,362.9848,221.0902,162.5506,94.5235,223.2243,-95.4492,92.9711,-36.9094,-237.3468,-385.3329,-618.3708,4.3446
-1781.2500,182.1232,79.2536,-368.4988,-104.6463,-343.3220,-39.6415,-117.8480,139.9500,-54.4009,97.6169,38.8618,-28.2991,393.7913,-34.1445,-176.5076,25.3807,-104.9635,134.0283,111.9291,102.0222
-1773.4375,117.9227,-160.1717,19.0779,42.9215,-29.7365,89.9896,-158.5037,159.9492,2.4665,117.3913,-124.5826,-82.8784,449.6248,-14.6004,-83.7441,72.9133,-133.3336,-350.3520,-268.5310,-172.0534
-1765.6250,219.5651,117.2559,-294.4994,-170.6626,-416.2939,-112.5296,-250.2237,-79.2051,314.1909,245.0250,223.8210,229.3858,319.3254,75.7832,44.8695,-3.3664,-241.8531,-142.8743,-412.1554,176.7174
-1757.8125,64.4629,-37.0695,-187.8224,96.0056,-162.5939,105.2011,-98.3489,174.8909,-312.8343,-88.1084,-184.5300,-142.1132,536.2939,-36.5890,-215.2623,33.8203,24.8895,264.8622,101.4643,-83.2644
-1750.0000,78.7620,-56.0061,84.2620,6.0718,109.5210,-27.6688,-152.0146,-177.6208,215.5430,73.1515,87.5168,55.7852,439.6801,-96.5718,130.0056,-95.7562,-169.9597,-246.9927,-621.5219,-31.8460
-1742.1875,64.2118,70.2060,-267.5052,-147.7155,-132.2087,-85.3911,-30.2439,-87.9809,-61.9280,14.5535,28.7099,-112.1741,564.2438,-80.4125,-37.5821,-77.4014,-41.6600,337.3085,32.6375,130.7209
-1734.3750,-55.2835,-224.5368,175.7793,48.5397,311.1169,99.9302,8.9329,60.7104,-207.3438,-92.9947,-263.0508,-332.0950,565.8737,-116.2073,-73.1141,-7.4283,13.6848,77.6593,-122.1569,-234.6637
-1726.5625,73.5754,10.0643,-34.5893,-207.8637,27.7967,-145.4024,-90.6113,-221.2446,318.5977,175.8091,116.5288,-26.6755,392.8722,-31.6577,122.7043,-71.9987,-137.6266,-4.6346,-448.5952,71.3024
-1718.7500,-46.8127,-108.5962,-76.2172,-81.5244,96.2363,69.0166,76.1654,104.5515,-274.7046,-123.6331,-257.1489,-399.5167,570.6414,-73.3691,-177.7404,4.2380,129.8111,404.8282,275.7271,-117.9864
-1710.9375,-6.5455,-173.6128,226.7976,-111.5295,325.3220,41.0854,-6.5305,-107.9954,212.6500,-4.4273,-102.1790,-170.7059,394.0790,-102.4320,52.4609,-68.5971,-40.0965,-188.0721,-387.3052,-182.6286
-1703.1250,78.6285,88.2694,-173.2939,-200.6282,-110.6912,-28.9413,-8.3859,-65.6387,69.8977,-37.3185,49.6894,-91.9958,361.4284,-96.5915,-89.4402,-87.4460,-25.0986,284.9221,50.5541,79.6267
-1695.3125,-63.1394,-193.7914,136.6627,80.3223,235.3474,171.0795,50.8242,134.7723,-208.8066,-131.1518,-302.3967,-335.2354,450.8326,-155.7041,-221.2973,0.6101,80.9478,143.9697,120.4602,-272.0732
-1687.5000,44.6455,-14.2973,-20.8383,-128.1795,41.9397,-59.3506,-53.3435,-168.2649,408.0421,153.5588,92.0602,60.0690,182.8053,-55.2683,26.3952,-65.1634,-161.4556,-134.4319,-333.0851,12.7728
-1679.6875,-56.4161,-9.6478,-232.1893,17.4584,-97.3068,59.3685,67.6378,133.8491,-172.9515,-95.5864,-266.3436,-153.4859,263.9613,-46.6798,-258.7664,16.9381,89.2834,398.3099,409.5178,-52.2349
-1671.8750,-87.7631,-145.3008,183.1589,92.7862,172.1530,34.7783,-18.0963,-1.3321,170.7765,62.9811,-182.0476,-31.3512,127.8349,-72.4007,-101.2331,5.7777,-11.2817,-229.2587,-183.1914,-187.5433
-1664.0625,39.2643,52.4030,-176.1416,-130.5408,-261.0366,-141.4658,-24.1440,-66.1693,251.8664,181.8971,82.6000,86.1292,98.0657,-63.7831,-92.3454,-29.5992,-59.4993,73.5245,84.4308,151.5029
-1656.2500,-140.9904,-233.1897,17.2821,75.8198,79.4858,52.9782,98.0096,201.6676,-178.2812,8.5387,-311.0237,-271.6711,254.9921,-91.4690,-229.7261,72.1652,41.9581,140.9498,362.6601,-168.7461
-1648.4375,-9.2298,-98.7633,-2.3354,-106.8384,60.9701,-149.5896,-43.4700,-110.4867,391.5562,210.1789,74.3579,114.5210,51.9294,-0.1502,45.8785,-10.5837,-176.5788,-218.5631,-314.0613,70.0288
-1640.6250,-38.0674,-22.9614,-253.5134,3.9259,-117.0988,-34.7389,43.3546,77.7706,-154.2217,-41.7945,-103.8984,-63.9143,166.2850,4.5534,-242.1245,22.7542,40.2905,385.3006,360.6004,112.1691
-1632.8125,-106.5744,-160.8369,200.5895,146.9632,264.1085,52.3833,-2.3351,18.2924,6.3617,8.5529,-201.8198,-15.0193,105.9385,-55.4505,-81.8086,17.2046,-27.5538,-174.5416,-164.4853,-131.3560
-1625.0000,24.3732,145.7301,-119.8631,-107.5361,-130.2250,-232.0286,-40.5459,-191.7078,274.3342,92.3225,175.6678,215.2801,6.0805,-8.0216,38.9238,-86.9045,-70.9255,-42.8740,-139.0576,246.5506
-1617.1875,-84.8064,-67.8608,109.5701,99.8087,99.3226,-1.5950,69.0187,75.1182,-340.7927,-192.0437,-181.9861,-143.5622,198.0707,-72.7448,-208.4661,-17.7424,171.5342,164.5840,315.1420,-37.7039
-1609.3750,-23.1102,-75.5774,207.8088,-49.0184,87.6866,-87.3267,-62.8033,-156.2093,235.9314,90.4392,173.2231,138.4467,-35.0746,-11.6154,109.9835,-44.7381,-82.1538,-299.0575,-360.7758,60.9199
-1601.5625,-17.8599,0.2324,-159.3738,-114.2726,-206.3565,-50.4858,42.6338,63.0317,-131.8289,-19.5407,98.9365,-45.0243,37.3552,61.0510,-74.0316,30.5871,27.7181,266.8383,346.8627,171.0554
-1593.7500,-137.3795,-293.7368,244.6302,83.6437,197.7935,96.5206,60.7937,137.4336,-131.3186,-93.2979,-84.1180,-119.2627,73.9910,-12.0792,-0.8260,47.3844,15.7662,-167.0972,52.6447,-122.5845
-1585.9375,22.2092,-29.6039,-82.2849,-108.3320,-201.9576,-156.3633,-17.3439,-114.0401,351.2362,131.0150,250.8916,215.5672,-142.2274,65.8840,150.4401,-26.3544,-106.0649,-183.8678,-104.4034,212.8669
-1578.1250,-61.1413,-147.4312,-83.1125,160.7519,-129.6154,62.8033,115.0833,179.5242,-200.1228,-89.6102,-227.0587,-79.5466,-33.3826,-45.1138,-180.2224,46.8133,128.1395,262.3487,516.5292,-44.6532
-1570.3125,-5.7643,-126.5339,160.7154,111.5098,40.3844,11.6543,-16.8759,-55.2249,374.2380,80.4830,14.7107,164.0527,-231.8300,-59.4078,62.8237,-21.0097,-61.9651,-243.7035,-271.8237,-58.4415
-1562.5000,5.4660,61.1877,-166.5844,17.1380,-248.7338,-20.6133,19.7294,-50.0943,84.3995,-61.5933,92.2773,130.4618,-116.3960,17.1491,-79.2977,-36.0549,90.7910,330.0970,196.7001,129.5830
-1554.6875,-162.7807,-176.5780,224.6134,307.2391,252.6434,187.5947,47.0479,46.5022,-221.8658,-222.1404,-177.6215,-29.6008,16.5326,5.2173,-92.8921,12.8293,169.0181,56.3535,28.6519,-213.8728
-1546.8750,-23.1686,104.5188,62.6286,24.1893,16.8589,-48.3554,-54.9534,-261.0345,241.6801,-16.8616,285.3103,286.1614,-181.6514,26.1283,186.3296,-103.8652,-7.8889,-119.4731,-358.4735,102.5259
-1539.0625,-67.0448,-9.9023,-12.8148,121.6523,14.6209,59.1947,82.5616,66.9182,-384.2504,-202.0794,-48.2731,-84.5778,-1.3139,-49.4750,-109.9360,-16.6808,194.6925,329.1434,370.8503,-46.6014
-1531.2500,-33.3364,-115.7428,357.2532,85.6376,275.8954,-11.7308,-22.1595,-113.6077,59.4053,21.2767,101.7260,65.2561,-109.4234,-83.5290,114.3626,-44.8789,18.8092,-303.6721,-333.2887,-117.1414
-1523.4375,100.6726,159.6983,-67.3684,-131.0571,-112.5072,-178.3332,-5.9156,-132.8060,3.3065,1.9087,263.9781,154.3459,-129.1975,6.7071,56.9310,-69.1838,47.2435,110.8474,46.9215,193.5882
-1515.6250,-13.9425,-96.5036,194.3790,104.5763,223.4562,46.3998,84.4673,92.3122,-359.3719,-215.0820,-135.3959,-98.1911,-51.6279,-26.7074,-12.1176,0.0983,142.9965,66.6660,178.4006,-132.3225
-1507.8125,118.1150,70.9627,62.7412,-114.1543,18.0467,-194.2239,-45.5299,-184.9108,281.5692,95.5659,284.8688,247.9024,-292.3767,25.5316,261.4623,-67.3019,-75.5943,-257.8051,-357.4100,141.4338
-1500.0000,42.7325,66.9513,-197.3036,-14.3242,-167.7619,-51.2845,71.1007,105.4135,-271.9425,-54.2391,-49.3467,-13.4725,-148.5556,22.3174,-35.4090,33.3768,130.3655,335.2358,411.3027,101.7076
-1492.1875,-12.6638,-93.0856,158.5715,107.4255,151.3536,47.5803,11.0131,20.6588,47.5477,44.9230,-134.5835,49.1317,-271.7914,48.0665,137.6846,52.8457,5.2613,-246.7666,-172.0609,-93.0345
-1484.3750,79.1403,174.0662,-238.3516,-81.6015,-281.3177,-91.3290,-18.3164,-117.8669,239.1816,16.2601,129.3235,239.8994,-300.7955,165.0139,180.9430,-19.7507,-42.6189,21.4754,-44.1645,245.3956
-1476.5625,-63.0864,-72.8321,-5.2935,162.3222,24.9802,104.7016,97.5922,115.5269,-261.1717,-228.4287,-224.8070,-115.3581,-67.8545,30.9089,10.1773,17.3634,166.4340,125.6045,270.6013,-72.2295
-1468.7500,74.5132,-5.9087,57.5284,-51.9688,-22.9581,-126.4794,-4.3008,-189.2881,389.2618,128.6820,167.8654,204.1803,-262.0973,-17.3920,331.2009,-73.6949,-81.7009,-369.4150,-330.7839,100.9655
-1460.9375,40.8200,-3.3085,-234.9061,-48.5378,-204.1494,-88.9387,100.6710,31.6091,-49.6306,18.4827,21.2041,-15.6097,-113.6183,-15.9939,36.9086,-3.1633,95.8721,230.2422,374.5237,138.8211
-1453.1250,-47.0891,-232.9288,200.3922,143.6142,231.3839,88.3360,46.0028,27.2235,-55.7129,-22.9403,-94.6700,-58.6148,-83.4016,-21.8298,105.3901,25.4670,77.1665,-174.3733,-101.4657,-160.5418
-1445.3125,61.7578,53.1985,-140.5727,-98.4741,-146.3388,-67.6239,-28.8225,-165.3835,228.8948,114.3666,263.1615,189.0954,-129.4051,41.0888,206.5914,-45.0125,-93.7638,5.8144,-166.6316,160.8303
-1437.5000,-80.1776,-88.4759,-56.2963,110.6479,49.1713,163.6084,81.3104,213.1841,-383.2526,-94.1117,-129.8043,-167.9778,64.7862,-20.7987,-39.9830,75.1302,45.4940,286.1404,323.3242,-121.6120
-1429.6875,67.2655,-10.7692,93.2917,-57.8925,124.9960,19.1692,-39.8186,-78.9184,207.9458,165.7575,166.5915,91.3131,-153.6613,18.6710,256.7874,8.4238,-192.8880,-304.1414,-372.3405,-8.6747
-1421.8750,153.7185,145.9132,-229.0859,-147.4007,-197.1344,-46.2532,30.4569,39.9891,-114.9032,26.6041,173.9401,-10.4251,-71.0833,26.1362,80.5519,4.9782,-72.2564,203.5703,240.0094,183.2255
-1414.0625,78.3107,-105.2846,219.6288,23.1671,177.8223,71.3993,20.0256,121.9530,-180.5869,-2.4248,-75.5764,-151.0257,-64.4185,-40.2908,52.4534,49.9859,-42.5485,-188.6506,-11.6003,-102.7486
-1406.2500,195.7695,152.3726,-4.8282,-246.4163,-193.3789,-227.0872,-84.3798,-176.2136,330.5295,251.3755,323.7229,175.1968,-214.8813,30.1417,232.1656,-34.8076,-170.9734,-245.9579,-280.2822,261.1268
-1398.4375,41.3429,-1.8858,-48.1426,-14.8960,-88.4394,-12.4679,47.8321,148.7026,-298.2240,-11.7075,-49.8819,-160.4815,-0.2392,-13.3175,-67.0122,58.6378,61.6830,197.7774,338.0776,72.0812
-1390.6250,56.5010,-56.5597,190.0536,-34.8527,112.0126,-69.3204,-31.1494,-90.8530,196.5934,152.7717,114.0890,76.4121,-167.0432,-33.2110,244.3652,-13.3368,-133.1234,-384.9110,-350.0088,52.6218
-1382.8125,91.6153,119.7039,-225.7805,-175.8334,-303.5528,-154.1976,13.3634,-65.4411,38.3088,105.1748,174.9665,101.2242,-178.8739,65.8387,122.6715,-5.0489,-63.9615,141.3592,175.8891,298.0794
-1375.0000,-62.8366,-140.6174,107.7964,127.5692,67.2788,106.3036,64.6570,84.3295,-179.5084,-2.9903,-189.7226,-117.5257,-176.3211,-5.7027,14.4101,63.4688,98.5794,-82.0230,163.1123,-66.0459
-1367.1875,84.5869,77.9294,-44.8083,-41.1693,-158.0662,-156.3437,-69.3313,-215.0448,367.4787,249.6717,209.4172,280.5656,-364.9042,26.6146,192.9728,-30.4356,-70.0068,-285.4896,-286.7450,222.6875
-1359.3750,-37.1738,26.2589,-166.5675,82.9137,-169.5723,-22.1703,87.0060,104.3775,-157.7296,17.1339,-132.6681,-61.5480,-192.6856,13.7368,-111.6636,62.2541,124.2016,295.7995,435.1540,101.1907
-1351.5625,-39.1047,-116.5775,131.4376,115.7732,165.6828,18.7851,19.9947,-38.4306,250.8971,169.4196,-129.9205,52.1724,-262.6771,17.6798,112.5126,53.0243,-18.8068,-269.1004,-235.1576,-41.4703
-1343.7500,37.1197,134.7235,-280.3953,-90.1905,-209.8915,-135.0875,25.5303,-82.0639,353.6091,197.8257,118.9257,154.0082,-270.4932,47.7793,31.8059,8.5871,-83.6395,157.1806,50.7386,244.9894
-1335.9375,-118.5263,-89.8674,-22.1007,140.9409,159.6468,87.1236,126.2432,176.3619,-84.5193,53.3493,-283.1091,-175.0200,-85.2226,-62.0178,-76.7748,88.4339,42.6146,143.5020,246.6612,-120.4483
-1328.1250,19.3965,83.1152,38.7064,-73.3813,73.7016,-146.1192,7.5394,-166.6600,491.8725,261.4175,144.4023,142.4995,-244.3956,-38.2529,241.1701,-31.4063,-136.5679,-245.5666,-354.8013,87.6783
-1320.3125,-20.4225,113.3276,-147.1899,-7.4307,-39.9506,-40.0937,124.8706,87.5692,-99.4969,0.7331,-115.8757,-117.7495,-64.3098,-41.2385,-56.6367,22.5934,69.5024,347.5786,378.9696,48.0181
-1312.5000,-118.9082,-90.1327,275.1903,105.7906,310.6700,52.2076,53.1772,33.0570,66.4915,56.3694,-134.8161,-62.6625,-81.9347,-58.9124,36.8815,34.7243,6.8492,-172.9827,-141.9907,-190.3055
-1304.6875,24.4645,229.2523,-68.5833,-138.1214,-106.8481,-180.6223,-34.1242,-90.5848,237.2633,153.8259,256.0500,181.2408,-131.6859,1.2716,59.2164,-27.0207,-95.9354,5.3596,-104.0273,164.2031
-1296.8750,-52.7474,82.0323,120.0731,100.3646,119.0634,7.9462,68.8817,172.1426,-306.5122,-97.2937,-105.6777,-181.4318,20.9508,-67.1292,-118.0206,36.9378,142.6541,104.0440,275.2613,-123.8952
-1289.0625,67.0108,166.7884,201.6362,-62.2180,89.8884,-95.5403,-54.7823,-150.1873,288.6521,130.5448,232.5470,156.8505,-192.4591,-22.5608,257.6777,-52.3198,-54.8050,-444.2666,-414.4506,30.9805
-1281.2500,106.3685,241.1203,-128.1621,-58.1770,-238.6413,-21.4042,4.2531,33.0913,-150.6125,-52.0314,85.3245,9.7075,-82.2577,88.6042,-36.0303,13.8120,90.3428,122.0048,292.4475,105.4188
-1273.4375,18.0025,11.7312,270.2798,135.0839,123.0602,120.9565,-32.2232,64.5764,-82.5653,-94.3312,-104.6076,4.8498,-86.8199,46.0265,-41.4617,33.9781,107.7193,-318.5010,-77.4444,-193.8622
-1265.6250,195.9452,259.6462,-0.9962,-74.3392,-220.9501,-150.3661,-129.0113,-205.6129,271.7183,75.6478,285.7223,358.2610,-247.0618,105.7554,18.3706,-57.2983,38.4202,-245.6478,-215.9567,160.1476
-1257.8125,122.8024,81.4563,117.6623,168.1481,-30.0353,41.2188,-12.7008,59.0828,-381.0661,-210.4608,-111.0521,34.5866,-93.4160,40.3936,-266.8765,9.7673,317.0068,103.0480,307.3646,-88.9570
-1250.0000,207.1408,130.7472,313.7284,112.0618,93.2855,-56.7690,-160.3296,-221.7859,109.6115,-50.1068,158.6390,341.3846,-300.3240,89.4957,2.3277,-62.3781,85.0355,-409.7718,-452.8311,-39.5791
-1242.1875,267.1825,365.7189,-109.4802,65.6985,-218.6628,-112.0351,-106.3620,-130.9327,-166.0555,-179.0581,138.9778,284.8529,-209.5188,107.3018,-199.7885,-71.1312,178.7731,211.1076,98.7045,125.4591
-1234.3750,155.2473,183.7105,230.3083,305.3197,194.3725,80.6811,-73.8927,-11.1164,-303.6561,-242.9730,-183.6510,110.3604,-126.7359,43.1231,-227.8754,-20.0828,172.4848,-76.0487,-48.8230,-232.4850
-1226.5625,314.7187,484.1087,15.4740,42.3496,-57.2058,-170.1860,-177.4884,-261.8835,181.0842,-16.5187,190.0935,410.2444,-304.5374,122.3547,-38.5963,-90.9830,-20.3757,-162.7352,-381.8668,67.9682
-1218.7500,263.3442,432.6398,-30.1569,201.5477,8.4131,4.1124,-35.0214,22.4837,-451.0194,-281.9222,-187.0276,-3.7220,-93.1897,77.7424,-340.1592,-19.3090,279.9101,277.6815,304.1953,-124.4554
-1210.9375,422.1962,450.3950,360.3776,112.9236,288.1912,-84.4067,-128.1988,-212.9743,-24.9010,-186.1014,18.0799,128.5396,-181.6486,25.3531,-98.5284,-120.7494,121.3888,-373.6813,-382.5341,-212.6462
-1203.1250,652.2440,751.3250,37.1311,-114.4746,-34.8069,-295.6979,-74.7423,-241.2085,-162.6392,-361.0923,210.3374,135.9626,-99.8883,-2.8259,-162.7280,-235.4291,176.0897,68.1756,58.9890,53.3247
-1195.3125,614.0123,500.9662,380.5995,92.8184,345.8996,-137.2994,14.5909,-81.7842,-517.6181,-532.3641,-108.6768,-182.8748,96.5533,-211.2863,-188.1956,-243.2192,277.4707,-41.3188,125.1340,-301.9955
-1187.5000,725.1025,682.9278,190.3388,-183.5873,156.8779,-326.5973,-92.8670,-345.0565,101.6515,-134.3609,289.6007,142.5827,-56.6905,-180.4338,63.6122,-290.3394,-33.8328,-316.4514,-326.3523,-50.0053
-1179.6875,598.9981,626.6713,-48.0772,-99.1708,-8.3021,-88.0754,18.0350,4.4635,-393.2911,-298.5626,-60.3487,-170.1598,72.8733,-87.7793,-211.7727,-137.8998,85.6598,190.1730,390.9330,-141.2465
-1171.8750,593.7195,445.2507,247.2732,-34.9776,213.2735,60.2232,-72.8286,-68.2515,-61.4009,-187.9353,-60.4634,-23.0646,-110.7790,-13.3078,9.6636,-102.7800,-61.0639,-414.3984,-213.9964,-287.6503
-1164.0625,681.6877,673.0690,-191.1284,-157.5044,-297.8944,-85.1969,-125.6222,-102.6892,51.6597,-111.0832,125.6177,163.2529,-254.1655,99.4272,-61.6748,-96.0472,-44.5156,-45.6848,14.3926,46.1713
-1156.2500,492.6217,343.8415,30.4403,109.9124,33.8968,174.3251,-41.0059,155.7916,-460.2823,-293.2606,-277.3239,-129.4494,-142.6097,65.1288,-280.0387,16.0890,153.9610,47.9222,282.6562,-283.0551
-1148.4375,531.8224,382.8843,61.2216,-62.4292,-9.1026,-15.9141,-162.1102,-181.4813,194.9951,31.8054,83.9884,232.1013,-331.7876,59.0896,7.8258,-68.1531,-88.3030,-335.1613,-381.7632,-68.0103
-1140.6250,382.0700,338.9484,-171.9049,-36.6964,-168.0133,44.9189,-27.5230,-9.6980,-294.7023,-128.0869,-113.6851,-1.3156,-124.9048,46.1081,-187.2676,-24.8532,77.4879,252.7827,311.8632,-6.9542
-1132.8125,196.7403,47.4358,232.3418,94.4133,236.4420,119.1289,-30.4852,-9.5461,-73.9467,-53.5403,-187.9236,-38.2907,-161.6442,9.5429,-40.9486,9.5123,32.6584,-248.8878,-156.1357,-227.4698
-1125.0000,213.9100,276.4162,-170.9247,-99.9598,-166.6041,-100.1396,-66.7232,-155.8657,185.2424,57.4805,144.2933,219.2075,-233.8610,84.4879,32.8299,-45.6308,-54.6514,13.9897,-103.5497,141.4936
-1117.1875,0.3925,61.6847,-14.8601,142.9685,99.6771,128.8883,76.0907,110.0833,-393.2324,-227.1877,-289.1811,-138.9641,-3.7835,20.7452,-178.0641,22.2967,152.3206,257.0993,350.2721,-143.2539
-1109.3750,14.5923,40.6796,141.8618,15.5850,183.6117,-8.3990,-32.8401,-210.2795,204.9774,39.8432,88.0566,127.5785,-141.9998,29.7259,162.7337,-56.8408,-80.0020,-256.0420,-374.1647,-23.2742
-1101.5625,-29.0645,102.8014,-167.2258,-28.6131,-88.2710,-60.5069,42.1451,-42.4830,-213.7155,-47.9946,35.4006,-35.7516,26.9463,14.8623,-36.3363,-17.7674,86.8407,367.9622,249.5664,108.8146
-1093.7500,-150.2472,-194.6115,270.1285,166.6200,349.2770,82.8170,54.3147,27.7216,-254.9047,-125.3525,-115.7649,-222.5935,134.3312,-61.5391,-2.9334,3.5988,70.1097,0.3882,-48.2994,-188.6231
-1085.9375,13.9239,74.3246,-16.1863,-126.7904,25.1672,-166.4960,-17.7715,-185.7034,157.1853,29.6115,295.3944,77.8870,30.0984,-53.5860,224.7883,-104.4938,-117.2479,23.2273,-271.7331,186.2777
-1078.1250,-99.8521,-109.7055,19.5914,74.8663,98.1382,52.2541,97.5849,106.8996,-467.6642,-190.3756,-73.3935,-289.5630,250.9211,-91.5745,-33.4249,-9.2543,84.4375,332.0606,317.8239,2.2055
-1070.3125,-36.5597,-187.6530,230.3824,-38.4347,162.1071,6.0467,-22.9874,-123.4667,74.5249,92.6882,136.8968,-42.9340,93.7990,9.5015,287.3982,-13.1689,-168.8291,-309.0140,-358.5451,29.2128
-1062.5000,-17.1317,-97.4725,-236.6584,-195.5477,-267.7519,18.0250,34.2592,71.3410,-61.2010,103.8844,110.2889,-105.1829,104.8489,93.7310,78.3391,72.4325,-114.9279,237.0783,257.2757,224.3264
-1054.6875,-167.6381,-424.2303,99.3474,5.3798,105.4203,280.0366,100.7953,297.1631,-128.8208,37.1682,-289.2372,-356.3385,147.9310,64.0349,-63.6427,182.9351,-91.0102,16.1755,247.0836,-137.4976
-1046.8750,-88.1916,-240.0314,-126.7353,-196.7420,-156.4883,53.0046,5.4535,69.9532,490.4516,215.3808,72.1637,4.4408,-6.0114,131.3046,114.3016,99.3772,-293.1248,-150.7121,-131.0702,187.6283
-1039.0625,-235.9902,-318.0994,-276.0256,-65.0957,-159.6122,197.7366,142.8275,361.4803,-99.5298,-45.6666,-261.6922,-292.0256,248.8104,92.3242,-181.9896,162.7203,-90.4954,333.0996,564.4871,74.4729
-1031.2500,-329.5701,-446.9408,-3.1544,-53.2687,113.4177,140.6562,76.6584,157.1840,320.7036,155.4957,-136.3156,-130.2603,228.8329,-1.4440,127.9222,99.9282,-254.6756,-182.8654,-128.7503,-19.4515
-1023.4375,-310.3143,-251.9492,-400.4253,-210.5653,-246.6868,38.4559,82.5311,90.7681,254.7086,162.4787,54.8663,-11.6791,235.7415,43.6417,98.6441,65.9660,-200.9853,293.0511,171.9279,245.4388
-1015.6250,-521.7469,-534.6562,-53.3825,104.4278,137.5111,274.5419,131.7927,290.6198,-132.9469,-41.2153,-333.6196,-216.7635,399.9510,23.0374,-69.3095,147.9690,-26.0183,222.2144,240.8462,-142.3689
-1007.8125,-408.4772,-385.6558,-91.6741,-63.8757,-11.6255,15.3280,-29.5996,-5.8200,527.0416,288.7692,68.5898,148.8456,250.8880,58.1451,149.4089,77.1232,-264.3351,-156.8541,-384.4592,76.5311
-1000.0000,-436.4621,-307.9309,-338.1740,13.6006,-147.9743,61.8901,93.4633,261.4898,-51.2501,114.4883,-179.4752,-98.8026,408.5943,-4.9947,-98.1288,127.3596,-46.8963,377.7957,360.9656,13.1408
-992.1875,-378.2770,-392.0269,96.4436,176.2117,177.7908,56.5819,23.2334,35.9148,164.6347,183.3766,-185.3486,-67.2618,366.4481,-83.9705,80.4926,50.9575,-96.3247,-233.4025,-215.4755,-176.0701
-984.3750,-181.8060,-89.8389,-227.6452,-48.8478,-220.1426,-120.4052,-16.3950,-142.3303,280.7359,299.5357,114.0372,48.5468,262.6417,-3.6458,86.3789,2.7995,-110.4257,32.7415,-53.5363,160.9884
-976.5625,-280.0331,-293.3580,-22.4134,169.3973,59.2291,121.9095,92.0799,99.6931,-248.8345,65.0083,-269.2547,-297.3144,432.1416,-92.0088,-111.4196,62.4174,37.7573,147.1259,305.6400,-147.6639
-968.7500,-139.3509,-188.9584,39.6684,-44.4600,10.4511,-36.8783,-22.7934,-242.3807,365.4482,310.3659,123.3671,22.7341,200.5715,-102.4570,207.6535,-51.9955,-210.1529,-311.5301,-329.2236,61.5987
-960.9375,-124.8808,-103.7836,-279.4185,-99.4888,-234.4992,11.1581,77.3233,-46.6401,-100.5203,101.5043,-13.2433,-186.4310,321.8363,-53.1028,-37.4826,-9.4511,-54.2551,300.5931,387.7185,146.6180
-953.1250,-221.9956,-305.1912,72.8700,49.8610,116.9148,143.5674,37.8037,10.4596,-6.0455,160.0720,-175.4134,-202.1571,270.5049,-32.3397,56.8089,60.2895,-151.9770,-182.9021,-24.9721,-125.9379
-945.3125,-88.4700,-67.9560,-246.2123,-205.1142,-275.0338,-27.3539,-37.6431,-160.7656,300.0017,282.2564,204.0296,103.7360,135.8634,90.0736,141.7039,12.6074,-266.0223,-50.6790,-68.9252,217.1341
-937.5000,-186.2465,-271.0351,-115.5650,49.6209,-107.2523,213.4325,77.1865,153.6884,-303.2361,-26.8577,-217.8165,-242.6509,267.9364,38.1911,-131.6931,97.4545,22.6149,274.1944,431.7651,-56.1159
-929.6875,-119.6168,-204.6906,97.4372,-25.2583,-4.1192,58.6106,-43.3194,-148.4673,276.8929,223.4129,31.7665,80.3770,39.4359,31.7230,118.3011,21.5411,-157.3493,-222.4766,-276.1029,10.0573
-921.8750,-105.5552,-50.9262,-226.0847,-82.6513,-291.5020,28.2702,27.6152,-68.1542,-46.5994,82.1039,37.7648,-23.1716,156.4261,74.7006,-95.2741,24.5306,-3.8440,318.3043,334.5002,163.6351
-914.0625,-207.7742,-364.4472,195.0853,95.6405,203.7886,156.6124,52.1583,21.8214,-140.3536,-10.4835,-202.4845,-189.9833,211.1135,56.3905,-115.1289,74.1233,69.3404,-66.2489,90.7516,-150.0693
-906.2500,-109.5428,-125.5224,23.6757,-157.6066,-114.4958,-124.5802,-35.6037,-259.7307,350.2569,149.3472,250.7042,153.6312,40.2975,105.5281,44.4181,-36.2246,-79.0013,-108.2748,-162.4539,193.6641
-898.4375,-228.5195,-279.8209,18.1058,73.9603,-9.9435,53.0383,103.5815,28.5048,-280.3409,-150.0269,-123.3029,-146.9507,182.3103,27.4593,-181.2365,18.5462,153.4505,300.4608,421.0994,4.1621
-890.6250,-204.5386,-327.1475,262.4464,61.4667,161.5205,-32.4104,1.1003,-168.3268,221.9971,94.5462,84.6742,98.4385,23.2940,-21.6563,136.0515,-29.7014,-0.1527,-344.8125,-294.3700,-8.3688
-882.8125,-117.3276,-99.2483,-133.9465,-26.7406,-198.7443,-98.5743,13.7617,-160.8775,45.4946,65.3327,164.8600,142.0464,30.5792,23.4711,-77.4510,-33.9808,86.5173,199.1814,179.4659,219.3030
-875.0000,-289.5566,-340.7898,218.2128,258.5977,263.5213,180.7977,107.9927,44.0852,-265.4196,-170.3195,-218.3578,-130.7520,127.4261,-28.8497,-166.3847,25.7573,161.7202,97.6731,218.7929,-163.4705
-867.1875,-151.1362,-133.6785,92.9791,-26.4057,65.3877,-18.1734,3.6041,-191.2868,309.2426,35.6479,171.0719,186.0902,-71.0312,67.4860,113.2897,-41.4498,-88.3984,-115.1210,-241.1394,79.4040
-859.3750,-245.8299,-264.6967,-38.3131,54.5152,7.1858,145.7693,157.1181,155.2404,-263.2272,-132.5007,-181.6087,-166.1700,19.4504,120.7231,-166.1400,103.1499,97.3906,385.9468,541.8016,-51.8631
-851.5625,-228.6137,-387.7944,206.2535,1.3216,288.8331,169.5938,96.8129,31.6467,164.1961,112.2526,-158.3422,-105.4954,-103.1405,107.8674,78.3324,111.9923,-131.9293,-194.0619,-73.3592,-175.2074
-843.7500,-134.9199,-118.4116,-300.6783,-221.3369,-144.0118,-6.0533,120.3028,2.5867,282.0118,194.4649,-3.6170,12.6484,-204.1671,116.5071,86.2606,74.9181,-178.7272,215.4725,230.0497,163.9053
-835.9375,-280.0768,-332.8800,-70.4531,20.1557,197.2989,225.4412,209.8712,269.6429,-112.0008,20.8381,-396.7069,-308.0250,-120.0073,17.2973,-50.6497,155.9815,-42.3977,247.1112,402.5410,-156.8420
-828.1250,-175.2872,-159.3880,-83.3244,-157.3994,36.5231,-9.1144,85.3991,-38.3450,535.8651,302.1295,-6.8383,47.2497,-351.8319,41.0341,267.3555,66.6958,-255.1025,-105.2260,-196.9430,87.3624
-820.3125,-208.0614,-157.4753,-301.7078,-85.4640,-144.7586,66.8022,200.9617,184.1184,-14.8800,119.8267,-188.5343,-208.0359,-202.1444,6.2047,10.7946,116.1034,-8.3406,458.8653,544.0134,88.9673
-812.5000,-265.6687,-355.3894,163.0358,-1.3929,210.0738,127.8463,152.3666,134.6968,193.5311,180.6660,-239.0234,-184.1378,-288.2688,-42.4741,145.3922,118.5082,-65.4367,-90.8945,29.0973,-144.2558
-804.6875,-127.9387,-42.9708,-187.8826,-216.9484,-214.7495,-75.7367,57.0475,4.6512,393.1881,233.8149,70.8087,89.0730,-379.9698,121.1882,124.2888,84.9718,-104.1535,115.7542,59.6200,202.8371
-796.8750,-239.0591,-154.4146,2.3680,59.6485,49.5876,151.8267,124.4239,268.7361,-188.9885,-89.8757,-325.1787,-160.5523,-225.4801,129.9917,-162.6567,161.7865,101.2551,252.5019,407.2310,-83.9414
-789.0625,-65.8800,-16.5451,101.8626,-49.4668,1.1833,-79.3228,-58.7563,-73.8765,425.0866,229.7105,67.1553,233.1228,-418.6267,119.0919,156.6724,61.5443,-112.0384,-383.3901,-369.7933,88.5915
-781.2500,-45.6238,143.3929,-214.5188,-29.4498,-314.0901,-101.3479,3.4257,50.6313,-1.8112,96.3605,-28.4363,99.8776,-255.6020,133.2753,-11.9173,77.0929,46.7809,127.8077,247.2985,213.1725
-773.4375,-151.5582,-137.8500,201.8766,146.3539,65.3932,95.4046,-16.7844,99.9053,9.1097,72.8237,-201.1725,2.4733,-242.7434,110.2566,36.3042,123.9243,11.3899,-293.2162,-103.8497,-68.4293
-765.6250,-27.9036,91.4985,-126.1548,-153.2165,-299.5507,-85.2267,-82.5736,-81.1922,341.5246,258.8491,168.6697,262.6358,-348.2072,185.8272,185.0670,71.6412,-147.3685,-170.5706,-192.3059,264.5468
-757.8125,-205.3074,-88.2205,-80.2065,55.1801,-106.5304,145.0953,62.3313,258.6449,-310.1206,-25.1840,-225.5175,-95.2393,-153.6776,123.3391,-99.2221,162.9070,96.8172,213.9818,403.1413,-19.5580
-750.0000,-151.9038,-104.1189,161.4895,4.3692,61.2340,55.2043,-68.3240,21.2742,223.9950,179.5577,15.1346,146.7005,-314.2922,144.6488,142.2666,114.9722,-95.1904,-293.6143,-350.5638,-35.8482
-742.1875,-112.0722,5.3976,-209.3476,-61.9546,-271.5267,52.7960,-28.9582,129.3797,-72.5295,102.7041,49.2025,70.0542,-205.3772,142.3932,-44.8369,129.7991,13.2738,343.2538,180.2251,108.2556
-734.3750,-253.6401,-276.4799,209.3981,183.3105,183.2921,288.9709,21.0176,217.0589,-280.4275,-66.5437,-231.0849,-135.9575,-78.8187,83.7308,5.6725,154.5913,118.3119,61.6996,3.5620,-245.0371
-726.5625,-91.8207,-45.9613,-6.4940,-43.0152,-68.5146,110.5511,-98.0453,-71.8354,164.9751,85.5734,216.0173,200.4056,-218.7819,126.4557,231.5312,44.8792,-38.2261,10.6212,-397.6069,91.0525
-718.7500,-224.6604,-107.1262,-63.0069,177.0220,-51.9339,274.4873,25.9909,238.6170,-443.2933,-192.9705,-172.5235,-113.8861,-17.3336,69.5142,-120.2634,117.9850,217.5803,512.8463,279.5424,-76.5516
-710.9375,-190.5862,-179.3758,232.3372,140.9359,206.4969,202.3003,-73.7267,18.9489,-2.6780,-7.6242,12.8832,34.7423,-160.9284,34.4655,64.8248,64.4663,74.2895,-51.9924,-390.3871,-149.2396
-703.1250,-120.6792,30.1938,-184.4596,-36.2545,-173.2083,79.9921,-40.4654,43.1622,-52.3207,16.5167,110.1119,96.1837,-170.5827,96.2447,-22.2877,67.5758,108.8795,406.0570,31.5861,95.8700
-695.3125,-215.5642,-205.0345,171.9532,256.7592,220.2818,253.8706,17.3662,216.5385,-358.7545,-104.1504,-267.4048,-172.1452,-68.9830,12.2102,-106.1920,130.0528,225.6555,205.2629,42.6972,-245.8252
-687.5000,-75.8014,40.3860,82.9721,44.4242,20.3872,-56.6055,-112.8914,-129.4209,250.3740,173.7824,194.7376,217.1556,-229.6425,70.8082,171.5159,24.5508,-22.8983,-110.8051,-485.4509,69.1253
-679.6875,-126.3501,59.4704,-116.2793,169.8107,-67.7684,40.6327,-3.3671,149.3187,-352.8424,-24.6157,-151.4258,-54.8636,-58.5257,93.0803,-137.0869,115.4644,173.2513,365.7974,237.0894,17.7248
-671.8750,-124.7414,-45.2793,222.5763,171.3248,234.1730,84.9977,-69.1556,46.1857,-16.9113,56.1368,-107.3819,26.2866,-159.1995,101.4926,90.4542,95.3377,-1.4559,-336.4308,-359.2235,-122.5096
-664.0625,19.4525,204.5459,-194.9773,-106.5315,-220.2889,-111.0115,-89.4314,-40.3095,152.5079,115.4456,174.2371,196.9965,-169.1833,198.4854,112.5373,49.4614,-68.5367,-86.0138,-143.8584,231.8125
-656.2500,-88.9459,-10.2354,35.8776,136.0191,84.6481,156.3645,10.6387,190.5661,-314.6588,-167.8525,-219.7039,-122.8656,27.2879,136.8568,-23.9654,100.8359,103.7720,15.7523,98.8442,-88.4795
-648.4375,73.4077,116.7509,85.4226,16.3289,-13.7185,-14.5193,-135.7538,-163.8051,284.8537,65.5623,161.1193,221.0197,-140.4182,149.9610,246.2465,-11.5058,-85.1518,-418.6615,-547.6265,107.9848
-640.6250,30.1409,214.1023,-217.6127,44.0765,-242.6590,50.0162,-41.5037,83.2406,-240.3023,-90.6620,-32.6757,27.2851,-1.6406,177.4341,-21.1635,65.5701,117.3340,206.3125,183.3120,134.7953
-632.8125,-68.5215,9.0692,128.9130,192.4050,140.9640,178.1313,-61.5237,100.8602,-114.8506,-111.2878,-161.8156,8.1797,-55.2062,157.5019,106.0233,86.1680,53.4063,-209.1080,-267.1707,-105.7790
-625.0000,68.5528,215.7652,-185.8316,-58.4901,-210.6651,-25.9861,-100.2764,-67.7389,193.2337,-22.2322,147.7714,244.7827,-145.9146,210.3013,119.9015,11.7914,-21.7397,-1.7096,-235.8130,240.3606
-617.1875,9.9242,87.7433,-13.2517,164.9213,-0.9748,221.1928,-17.1051,215.9416,-405.3919,-180.8921,-266.3113,-133.3032,29.7525,53.3723,-184.9220,93.0691,201.4080,257.9383,198.7934,-64.2293
-609.3750,228.1546,234.5873,100.1204,31.1788,39.5105,41.2090,-157.0150,-112.5261,146.7742,153.2692,67.4852,164.4667,-183.6398,-16.7286,112.0666,-8.7894,-73.5849,-262.5020,-496.6931,12.0385
-601.5625,285.6108,361.6454,-285.2386,-52.2768,-272.7245,22.4927,-68.4287,53.2805,-203.8956,-49.3648,12.5102,72.4525,-88.6762,75.3931,-53.7372,15.1718,18.6928,357.3099,158.1012,103.4976
-593.7500,209.0230,109.6623,89.3297,118.1991,175.9671,141.6983,-46.4623,172.0124,-234.5997,-153.0428,-163.4575,-103.5867,-41.6977,46.4459,-46.5857,53.1421,12.8969,-34.9475,-93.1897,-220.0889
-585.9375,388.7226,393.9654,-143.8351,-159.0104,-131.0595,-90.7844,-138.4977,-97.9213,191.8810,17.5273,228.8634,141.6340,-161.3254,107.7725,49.8213,-37.2453,-88.5705,4.1682,-300.0865,134.5990
-578.1250,278.4681,248.2944,-103.9200,46.8415,18.9894,96.7837,6.5749,162.1840,-429.6169,-235.8721,-208.7443,-223.0994,29.1692,1.1196,-276.7186,19.4842,187.0078,386.2852,328.0278,-82.6990
-570.3125,308.5718,171.9915,147.2964,6.0303,160.3392,17.6783,-91.8601,-100.3763,114.1975,15.0497,7.0411,29.5309,-156.9142,-4.1987,47.0662,-34.1228,5.9445,-216.1945,-379.4745,-88.6301
-562.5000,331.3114,335.3079,-205.8173,-111.0927,-228.6411,-40.7517,-40.4284,-13.2606,-93.4501,-8.4357,21.4531,43.7732,-101.2608,10.1039,-85.5409,-20.4738,134.5611,265.0060,170.7167,109.0350
-554.6875,155.0638,88.6317,213.0678,169.7790,153.3622,121.7956,-3.5336,149.8215,-302.0873,-103.9293,-257.0745,-161.9508,-83.5485,-84.6126,-219.1410,40.7215,240.1645,18.1711,135.8530,-244.3008
-546.8750,300.7600,303.9083,92.8552,-1.3834,-113.7165,-107.7031,-118.9210,-154.1257,238.1308,32.4756,174.3497,196.2463,-235.7922,-93.4032,-9.8467,-102.5161,68.7446,-186.6385,-279.9645,76.3004
-539.0625,160.9450,233.6529,62.1683,140.9758,-108.2650,45.3057,-15.1242,109.4283,-382.1833,-291.6400,-112.7238,-54.0702,-5.4611,-87.7261,-334.0726,-43.3679,280.8240,342.0215,353.6938,-64.6462
-531.2500,115.3389,153.6151,387.6359,201.5135,143.3416,76.4894,-151.2808,-43.8295,14.6874,-41.5704,28.4575,123.8250,-81.8640,-93.8754,-121.1090,-34.8974,59.1006,-231.0804,-394.4334,-181.3762
-523.4375,145.2685,393.1030,-37.3359,55.6342,-242.4788,-124.7580,-119.3076,-62.5051,29.9905,11.9818,194.1678,215.2213,-58.6179,-111.5116,-139.6467,-79.0829,17.9638,186.4152,-47.9457,93.3962
-515.6250,-26.2942,81.0884,279.2042,236.2502,145.2019,6.4724,15.6550,142.2879,-281.2018,-187.9772,-151.5636,-93.8599,113.1901,-201.6753,-193.6718,-41.8371,128.3153,86.3693,132.9807,-290.3421
-507.8125,47.5407,189.4831,233.0952,-6.7269,26.2422,-257.9033,-75.3045,-123.5076,333.9217,97.4255,282.1171,228.4350,-38.5121,-172.4668,128.6614,-120.2027,-114.9110,-261.2028,-389.6086,-41.6870
-500.0000,-1.9411,139.5468,33.7127,14.0215,-24.9742,-199.5637,77.1792,119.4071,-199.3090,-139.5036,9.4893,-80.5955,208.5702,-187.5992,-182.3286,-71.1463,117.5666,287.9066,369.4968,-57.3861
-492.1875,-76.7126,-41.6716,366.9890,44.4485,345.4768,-160.5538,54.5927,10.9989,59.1580,-100.7477,12.6241,-40.8999,215.4230,-222.0597,40.3749,-110.0599,-28.2690,-280.2680,-162.7088,-239.3680
-484.3750,11.0489,221.6393,-107.2020,-182.5390,-92.5268,-302.9728,2.1952,-94.8196,170.0575,11.4935,274.2832,145.2986,185.9239,-108.0057,152.5803,-134.0204,-150.5179,20.1619,-72.2775,94.1599
-476.5625,-156.4847,-16.3600,23.3194,71.1788,149.1715,-60.6961,94.8762,220.0418,-362.3378,-151.5773,-145.3228,-163.7899,322.1862,-160.2775,-46.5099,-16.3965,32.9285,99.2386,287.7953,-215.6305
-468.7500,-82.2088,22.4536,55.5870,-100.3086,70.6175,-210.6391,-21.7774,-115.2899,294.0021,138.1242,218.8938,163.9110,138.3253,-91.7718,279.1617,-89.3744,-173.8029,-422.8148,-340.2592,-36.6161
-460.9375,-113.9451,94.2360,-277.1219,-131.7639,-187.9037,-138.5641,41.5115,103.4001,-187.7342,24.7819,70.0941,-22.4228,288.5479,-20.3014,18.7986,-0.8172,-31.5120,142.1276,329.6990,34.3405
-453.1250,-154.9140,-122.2182,93.8886,38.5178,146.2962,-24.7636,-35.3207,107.8077,-186.7074,-8.8231,2.1016,-17.9794,333.5806,-16.1122,58.1858,20.0241,-71.4824,-354.1804,-96.6205,-182.9403
-445.3125,67.6569,134.8631,-204.5770,-195.6281,-262.9629,-249.4030,-120.8946,-153.1967,62.7589,-13.9332,475.6428,270.9713,260.2582,16.5956,89.0619,-127.9255,-93.8751,-200.8670,-118.2939,179.2990
-437.5000,-43.2708,-81.5771,-87.5186,10.7369,-34.6962,-20.5515,11.7849,111.2821,-518.2836,-374.5631,79.7104,-88.5781,494.5068,-86.2282,-234.5569,-99.0743,182.2230,110.8992,404.4842,-143.9912
-429.6875,-14.1359,-122.9482,124.5385,-100.8632,67.5708,-138.6769,-120.1750,-191.1921,58.6779,-127.1652,403.8715,197.9200,380.8816,-95.0360,50.8498,-181.6745,-70.6195,-457.2277,-339.6396,-116.2165
-421.8750,7.6365,3.2989,-300.7318,-183.7794,-248.4800,-233.1441,-80.5853,-65.9922,-259.8019,-149.1623,382.6600,139.0230,548.0014,-80.2430,-192.1250,-149.8674,22.2130,93.3080,245.9237,45.1537
-414.0625,-109.7260,-220.5897,66.8379,50.1410,120.2997,-47.7935,-90.2911,9.0264,-409.4081,-187.3170,200.3597,-7.0047,701.0289,-190.6315,-193.2479,-125.3891,79.8809,-270.3256,22.2906,-285.6196
-406.2500,66.2990,25.9154,-132.2259,-160.5314,-188.5289,-319.0368,-207.6322,-298.5250,88.2775,-56.1302,664.4459,346.3238,580.5593,-130.6483,-62.0237,-251.1003,-26.0266,-339.4730,-291.8427,29.9858
-398.4375,40.6158,-106.3075,-77.9642,60.1106,-61.0185,-116.9774,-105.4079,-60.7803,-593.7618,-442.6733,278.8433,33.9447,862.4655,-187.3926,-411.5004,-226.8233,195.3611,92.6359,280.2864,-173.1480
-390.6250,76.7004,-140.7567,181.9968,-8.5166,162.1931,-225.1954,-212.8651,-316.2962,-154.0749,-295.4839,503.0448,256.3200,796.1895,-222.4137,-154.2387,-320.0438,20.4936,-538.4674,-420.8091,-208.5117
-382.8125,175.7756,63.7685,-204.0361,-155.1122,-223.5835,-426.3922,-181.7639,-332.7744,-284.4902,-313.3402,669.2247,238.6475,894.0019,-240.4790,-246.0251,-374.4665,84.6607,-121.5419,31.1528,30.0732
-375.0000,72.7648,-181.8011,69.8316,128.1906,123.5270,-225.7085,-129.3930,-169.3822,-527.9884,-446.3051,319.3551,34.9028,953.7690,-297.6744,-267.9063,-320.0164,121.7185,-294.7498,-2.0423,-321.4439
-367.1875,220.6081,71.4818,-84.4911,-110.6496,-140.5387,-377.1772,-260.7231,-469.1214,14.2741,-231.4732,719.3365,395.9792,805.4726,-230.0446,19.0149,-412.8810,-117.3412,-462.0325,-485.2985,-34.1190
-359.3750,181.8023,-2.9226,-231.4358,-43.1251,-139.2165,-193.2887,-119.8807,-137.5056,-612.1454,-453.3147,389.6677,66.3752,1032.5941,-231.0993,-275.7236,-309.0648,90.9524,62.9953,250.7767,-144.4884
-351.5625,169.4653,-85.8598,129.0236,14.8220,147.5120,-162.9860,-208.2002,-291.4543,-255.1121,-314.7145,383.5053,206.2326,921.2241,-274.7310,-99.0145,-337.7355,-62.3166,-476.5081,-394.6955,-299.3825
-343.7500,260.0657,215.1245,-305.5723,-139.2504,-322.7933,-301.7212,-238.9283,-320.4161,-214.2363,-235.2213,538.2695,359.9905,859.8973,-231.4540,-203.3951,-350.1786,-42.6053,-34.0149,-92.1501,0.6343
-335.9375,79.3273,-37.2424,-3.5083,66.3250,52.5556,-72.8259,-85.0395,-55.7531,-612.6972,-450.0806,105.7292,-36.5775,1021.2696,-334.5566,-307.1149,-281.1075,93.7430,-2.9166,184.9840,-322.7067
-328.1250,182.5960,30.4039,-54.4892,-147.0985,-72.1380,-269.9430,-174.1866,-363.0814,31.7698,-133.9780,461.2022,243.8344,792.7198,-311.6896,45.1214,-355.1005,-154.8815,-319.7416,-377.8024,-80.0448
-320.3125,112.8606,-4.9811,-312.4351,-111.4957,-219.7905,-124.0475,-40.8437,-32.3947,-449.8164,-281.9107,166.6597,-50.7868,872.2446,-312.8663,-250.6679,-236.9417,21.5095,384.4167,361.4118,-81.4352
-312.5000,58.1401,-236.3525,80.5893,46.0816,173.5333,12.8154,-69.8944,-43.7348,-206.3847,-184.8464,10.1718,-62.3939,793.8201,-362.0660,-189.4544,-200.3985,-33.1132,-127.4192,-114.3841,-313.8069
-304.6875,179.7602,26.6045,-286.0462,-111.9740,-228.7811,-167.9656,-90.2557,-187.6894,12.2960,-111.4888,307.0149,123.2935,653.8299,-322.9539,-151.9378,-268.7457,-86.3537,172.1503,8.2610,18.1363
-296.8750,19.8412,-169.9974,-110.2060,184.4199,57.3746,118.6871,29.6823,98.7840,-548.5602,-377.6900,-140.6565,-215.5654,800.3379,-369.4292,-344.9590,-176.1816,105.8484,400.1185,377.2964,-284.4886
-289.0625,113.9397,-41.5755,-21.4159,67.8123,73.4786,-12.6788,-113.5304,-216.7433,88.5367,-104.9213,170.7010,95.5688,564.9022,-315.9320,-36.0085,-242.4037,-116.9316,-138.8499,-371.6137,-122.0952
-281.2500,125.3314,75.1236,-310.2972,8.5417,-179.0866,-44.7242,0.9414,-64.9516,-240.1344,-248.8931,66.3334,-85.0378,649.8329,-312.1696,-252.7892,-221.3073,70.6112,401.4828,308.7909,28.5516
-273.4375,42.4354,-149.4588,127.5013,207.9562,222.0188,63.9060,31.8964,-66.4858,-210.0821,-290.1609,-119.2844,-196.9183,616.4916,-388.7282,-146.8602,-221.0186,128.8401,-67.4868,15.8591,-232.0840
-265.6250,199.6854,148.1035,-167.5738,14.5410,-181.7314,-155.3035,-73.0245,-249.8336,154.0206,-107.3359,249.2237,133.3039,402.3728,-243.1696,-1.8293,-253.4860,-30.7485,-49.2332,-141.8278,134.4056
-257.8125,77.1912,24.8945,-102.3654,208.3831,-43.1921,93.7344,27.2300,110.0532,-444.6215,-337.2837,-161.9933,-206.2296,511.5504,-215.3941,-267.5387,-111.1423,163.9068,251.2162,369.6874,-94.8839
-250.0000,139.3710,51.3586,105.4466,94.8489,53.9609,8.3901,-71.8321,-123.4164,91.3664,-94.5947,84.4728,38.8861,284.4275,-190.9928,86.3859,-158.5812,-90.7832,-388.6428,-305.1027,-34.5008
-242.1875,174.8920,227.1443,-272.3757,-44.3057,-322.4990,-37.5941,-25.0496,15.4962,-142.3692,-105.5959,75.2556,-43.6959,281.7212,-92.2771,-71.3746,-87.9289,15.9001,139.8603,258.4979,175.1855
-234.3750,31.4287,11.9448,68.7981,163.5230,92.0273,156.3891,19.7374,172.3822,-283.0652,-170.5867,-243.9103,-255.2521,299.0403,-156.5893,-136.1158,-16.0239,48.5644,-72.6706,151.0449,-146.1167
-226.5625,175.7196,261.5024,-127.3042,-77.8968,-176.7165,-74.8788,-95.2018,-95.9571,216.9058,73.1336,150.6669,63.9060,74.1684,-95.1821,70.8513,-87.3339,-158.9960,-103.3787,-230.5677,172.3239
-218.7500,99.6140,148.6369,-164.7700,91.2986,-104.8183,71.4567,58.3469,197.3014,-411.5265,-149.5683,-216.1585,-303.3556,225.9344,-133.2084,-224.5795,2.6692,10.0455,418.4738,467.3867,23.3315
-210.9375,147.1779,55.4439,143.3678,34.1194,204.6970,-23.5835,-10.5065,-7.8017,77.6942,84.3683,-53.2926,-178.9577,28.3809,-120.6120,45.6365,-19.8248,-187.2675,-199.9846,-221.9928,-35.9835
-203.1250,217.9269,230.4246,-274.2877,-140.8299,-176.5601,-146.4044,66.6529,-20.6678,134.0285,69.4613,45.7391,-192.4101,-14.9113,-23.8477,32.0173,-30.3346,-151.3527,257.7834,200.8830,243.8617
-195.3125,118.8875,-116.3874,39.2694,40.4096,174.3815,94.9531,171.4409,183.6352,-69.3963,-59.2402,-336.9881,-502.6409,13.0151,-77.9016,-60.3806,51.7920,-5.2510,123.7039,313.8958,-104.0875
-187.5000,242.6528,7.6123,-64.4103,-186.5466,-38.9124,-117.8945,64.6939,-103.2453,558.9165,276.8225,38.0866,-165.0961,-268.2144,-35.1764,201.9861,-5.2253,-232.3212,-102.5079,-159.2095,158.7696
-179.6875,126.5102,-4.3183,-256.9521,-20.3784,-121.0667,56.3646,185.3895,218.9794,-78.6879,45.9665,-262.7554,-431.4824,-159.3129,-81.3828,-101.5505,82.2426,2.7202,521.3497,569.7720,75.6879
-171.8750,70.0324,-201.5806,132.1175,99.4126,232.3958,80.2471,121.1766,132.8334,162.3844,140.7702,-238.9057,-335.2025,-276.7471,-133.9574,67.5728,71.9550,-87.5917,-26.1288,-12.5978,-122.7155
-164.0625,137.7425,41.3339,-253.6103,-114.5730,-152.9223,-47.6529,101.5376,77.9267,213.5703,194.7319,2.1020,-206.7743,-324.9326,31.6404,46.8580,81.3190,-125.6747,288.6422,231.3143,189.0498
-156.2500,-4.0392,-207.2506,15.1806,130.9366,152.2794,221.9266,210.1327,347.4937,-292.7039,-89.8044,-425.3547,-488.8311,-194.6099,4.7156,-125.3357,161.2748,84.7244,287.8603,548.6687,-130.6880
-148.4375,132.2403,-106.7626,35.9770,-49.5168,100.4991,22.5418,83.3936,38.1255,314.0292,187.6833,-35.7476,-136.8555,-424.2096,24.8134,225.4980,74.8513,-95.8153,-172.7994,-122.8555,73.6429
-140.6250,69.9132,-63.9030,-214.7860,-5.5493,-113.8280,65.5733,190.1562,265.1754,-161.8748,7.5455,-211.7661,-315.5133,-263.3844,29.2801,-28.2829,128.1168,88.0604,399.9240,590.0212,115.3346
-132.8125,-54.8913,-260.5237,213.9379,150.8940,242.3246,166.0789,142.8788,180.6974,6.7664,68.9143,-295.2330,-326.6496,-231.0633,-19.7638,106.4496,125.7287,33.4250,-111.8623,78.3652,-117.4423
-125.0000,60.6480,30.1963,-86.9940,-120.2952,-132.1663,-61.0569,89.1817,-45.4011,290.6756,206.5893,66.6188,-76.4851,-341.3566,46.5236,208.5029,47.0545,-61.8228,110.7623,55.1380,242.1115
-117.1875,-84.9592,-150.2403,65.9633,121.3699,95.2286,166.6484,180.0990,255.3316,-330.5311,-81.8837,-365.6619,-400.4706,-178.8031,-21.3663,-79.5699,129.3166,180.7708,424.1885,473.6933,-45.4974
-109.3750,-38.0534,-36.1516,256.3790,26.5192,212.0939,25.8341,36.7859,-68.4344,223.7473,143.1312,-28.4219,-100.9632,-349.7430,-16.7783,182.8434,39.2965,-20.1273,-91.8281,-288.2016,33.4207
-101.5625,-17.0523,90.0079,-59.0724,-21.2095,-65.8962,6.1353,139.3905,57.9281,-167.9146,-62.7767,-84.1154,-232.4013,-216.5591,-1.1193,-23.6601,34.9082,177.0910,493.2388,402.0273,158.4006
-93.7500,-200.9788,-234.7660,387.5147,182.0830,381.1409,195.4579,172.2442,101.3170,-240.4666,-96.6080,-333.7131,-336.7625,-203.3403,-71.4170,17.9111,75.0781,241.3360,170.3184,150.2607,-167.5430
-85.9375,-75.6011,29.7625,95.3738,-44.3157,53.4536,-20.9109,73.0232,-114.9537,164.2204,88.8357,38.9626,-2.8568,-339.8057,5.5737,166.7438,7.7797,84.9064,189.7572,-76.1214,165.8076
-78.1250,-170.4662,-100.9718,78.0207,142.0507,146.5467,145.4710,201.3751,198.5192,-444.3169,-187.9714,-344.6037,-351.1955,-128.5310,-13.7045,-109.6570,90.7204,271.2177,553.8893,534.1852,-36.1088
-70.3125,-112.9132,-149.2744,320.0221,59.7951,314.9981,57.2281,112.8994,-37.6204,87.5584,15.6266,-174.7382,-147.1232,-283.8553,-30.5955,168.3452,28.9446,82.9277,-19.5466,-145.0839,-15.5862
-62.5000,-80.8686,-12.1012,-98.4526,-118.9350,-29.0152,7.5062,173.4250,23.7728,-113.1230,0.6909,-150.4120,-160.5948,-253.6628,28.9891,5.8268,53.4019,185.1577,540.5304,415.1884,190.4051
-54.6875,-220.9561,-295.0645,209.9289,127.1697,315.8198,242.6068,203.6440,258.9849,-322.8917,-97.3677,-465.1962,-367.1887,-195.6429,4.4133,-91.8094,157.0592,256.2135,294.4182,381.2413,-163.7321
-46.8750,-91.6929,-95.6704,34.6308,-94.3743,31.9864,33.0558,62.0346,-24.4273,198.6396,204.9073,-49.6473,9.5317,-399.2604,86.1764,137.8813,100.7337,69.6412,73.7219,-50.2793,139.4894
-39.0625,-196.0837,-130.9527,-106.2724,46.4388,1.5548,185.8578,196.4656,276.5092,-386.4613,-10.4671,-372.7651,-278.4170,-237.5330,55.2759,-188.0612,183.0990,246.4207,568.3286,690.5101,-1.9643
-31.2500,-235.8048,-205.5541,150.4444,77.8700,221.7426,186.2847,102.1525,129.0780,13.1210,133.8164,-261.1970,-132.7007,-341.1758,53.0191,30.6625,155.3919,65.8424,-33.3969,53.9481,-113.7280
-23.4375,-161.4827,78.8767,-263.7690,-93.6292,-191.9930,66.7819,96.5990,118.7322,-0.3063,159.1187,-122.6222,-31.9865,-307.7536,151.7902,-17.5869,151.0938,35.3427,358.9589,375.4892,169.5316
-15.6250,-268.3456,-170.8915,43.8432,151.6535,152.0921,264.0629,161.4937,354.1578,-357.8658,-12.7529,-475.2118,-313.4597,-139.5556,90.3498,-189.0026,226.9149,174.6192,253.0603,516.7571,-185.3979
-7.8125,-38.3511,23.2060,49.2653,-40.2242,11.0050,13.1930,7.4185,-6.5488,233.3962,138.2094,-25.9631,96.8947,-346.5112,132.7524,109.4192,82.6569,-52.2409,-113.9206,-132.0575,77.5412
-4000.0000,-50.6331,16.1688,-44.5056,16.0376,-38.0659,42.7032,70.6585,107.6586,-44.4560,-27.1340,-94.5097,-36.4837,-260.0263,46.4135,-28.1657,61.3031,58.4498,152.2887,216.8916,37.7497
-3992.1875,-29.4562,-101.5970,353.5451,108.9258,285.8401,74.8996,-11.5214,-43.2056,205.5043,75.9423,-64.7046,-6.6334,-270.4467,4.9613,150.2454,31.8927,10.0140,-421.8446,-391.3431,-150.8797
-3984.3750,162.2885,197.2109,24.1506,-85.6573,-116.7161,-142.3799,-76.5200,-222.5488,354.0945,187.5999,229.6891,179.8004,-310.3554,45.0732,188.2469,-39.6544,-76.8966,-121.4756,-336.0971,183.0757
-3976.5625,56.9903,-13.0146,185.6850,161.7177,154.6511,93.2968,-2.4806,51.0839,-218.4074,-54.8058,-161.9963,-173.8430,-116.3192,-12.8612,-53.8179,43.4686,100.1663,56.9030,-15.8263,-132.0060
-3968.7500,145.3932,111.4476,232.9674,3.8100,91.7609,-77.3211,-126.3572,-229.5895,416.8172,213.5011,178.0074,167.2122,-330.5990,-0.0972,251.8427,-36.7548,-162.0793,-380.0804,-662.9058,27.5969
-3960.9375,140.8235,213.9458,-103.7783,0.8711,-135.1627,-46.9681,-22.9795,-51.2839,-30.9220,23.8185,24.0410,13.2869,-194.9001,30.6817,60.5265,-3.4808,45.6623,216.9514,5.0155,95.2474
-3953.1250,51.3483,-15.4758,328.5939,158.0492,260.0459,92.5136,-58.9881,-57.8417,-3.6063,14.2151,-95.8770,4.4184,-171.0940,-12.4367,127.2983,10.6353,28.5209,-292.9019,-397.9182,-169.0245
-3945.3125,171.3875,246.6208,-3.5200,-108.2878,-146.2442,-165.5155,-135.1475,-277.9258,326.2801,196.1490,304.7307,259.0837,-251.8226,96.9661,235.6082,-50.8855,-132.1470,-205.3177,-450.4322,198.2229
-3937.5000,31.2842,71.5859,45.1839,103.2214,13.2865,68.3068,-18.3954,30.8606,-322.0123,-85.0676,-87.8276,-131.4129,-21.7028,75.2291,-8.2433,41.0578,80.0490,114.1800,80.9601,-81.6599
-3929.6875,128.0789,99.4340,253.8411,24.6545,111.7738,-52.9581,-133.1454,-272.4557,253.5934,50.6078,192.4944,149.9782,-148.6871,64.3942,310.8206,-75.8781,-136.8538,-419.4687,-662.7902,-18.6657
-3921.8750,208.1021,286.5169,-148.3167,-68.7437,-180.5699,-85.0479,-33.2542,-157.6052,-38.5504,-56.5042,120.0569,78.6013,-41.4883,31.7703,129.1173,-86.9935,-55.5739,156.0767,-16.3686,168.5764
-3914.0625,97.5743,0.0328,226.9870,65.3247,268.5552,107.3291,2.8596,-38.2771,-141.2952,-160.1850,-129.9758,-134.3643,36.1755,4.5945,101.8456,-32.6311,9.1791,-163.8969,-194.4401,-152.7465
-3906.2500,237.5630,212.0484,-8.1766,-215.1135,-39.7990,-126.8069,-91.9860,-308.4820,321.5311,119.6677,257.5139,181.1950,-94.6775,100.9221,271.1153,-87.1370,-165.5943,-232.4416,-437.1014,164.4402
-3898.4375,108.6164,49.1375,-24.3300,-62.5143,16.8568,42.0912,47.6242,82.3735,-244.5973,-43.4258,-125.9455,-165.2046,69.5286,50.3037,-38.5646,43.3675,23.6797,99.1087,246.3359,-33.2932
-3890.6250,151.0111,-12.4534,168.9096,-159.5492,172.9095,-21.6444,-30.8004,-90.4054,352.6251,149.8249,-8.0911,26.7190,-72.9030,61.0327,229.1147,0.6831,-248.6931,-524.0328,-410.8925,-59.7033
-3882.8125,249.2788,155.8292,-291.0127,-307.7646,-213.2151,-112.5653,-2.7346,-70.3705,222.7679,130.9538,81.6579,44.5307,-23.4951,79.6235,99.6840,-15.3020,-150.2332,32.6424,40.6772,179.7782
-3875.0000,121.4505,-75.9915,106.9663,-13.0632,220.5620,102.4227,47.8089,71.5882,-114.2487,-96.0331,-257.7311,-182.7872,111.8408,2.1160,-16.8631,15.4915,5.1494,-92.7423,22.1980,-192.8508
-3867.1875,259.5331,169.0908,18.8891,-154.4525,22.2636,-95.6967,-127.1189,-271.5770,385.6832,145.8983,202.7954,205.8190,-90.9292,61.5092,189.5273,-75.9092,-136.5904,-338.3031,-539.4722,87.4161
-3859.3750,205.1791,115.7546,-107.6752,1.6861,-67.5253,35.7231,-24.9948,44.8077,-218.8239,-89.6086,-107.1152,-67.0154,108.8585,47.4613,-119.5251,11.9968,56.2104,207.7153,148.4328,-0.7315
-3851.5625,179.5189,-14.9109,274.4917,81.5387,240.4292,51.8576,-122.4422,-122.0859,90.3514,-38.4166,-21.3682,57.8155,81.3739,-9.8913,79.1244,-48.6284,-4.2882,-343.5897,-541.9599,-131.2114
-3843.7500,307.7290,255.2892,-82.4933,-69.7925,-153.7713,-120.1845,-135.3218,-220.1649,100.4583,-28.3387,245.2696,177.5331,87.7311,2.6067,89.6665,-120.4819,20.0269,-1.0871,-305.5712,174.1897
-3835.9375,198.2928,5.8412,220.8535,172.2346,187.3730,37.1348,-34.3184,-24.8715,-330.1311,-201.9334,-112.7755,-107.4248,239.4662,-96.5457,-10.4614,-72.3503,157.7126,-74.1864,-95.7698,-145.0596
-3828.1250,340.7106,184.2343,137.1035,-36.8753,-6.5898,-191.6905,-189.0556,-326.7471,321.1695,118.3359,242.0289,250.4740,42.0511,-31.8512,237.2887,-138.9301,-120.7638,-421.5097,-689.1964,103.5260
-3820.3125,225.4042,210.9122,-165.4279,25.2395,-274.3402,-53.2912,-83.5629,-40.3996,-165.2501,-0.1299,-24.8886,20.6502,174.8877,-3.8939,-101.6940,-26.6813,46.0040,239.4303,113.6215,95.4015
-3812.5000,91.2423,6.7173,218.2230,171.5260,110.0935,37.2769,-116.4505,-94.8844,34.4421,52.5323,-119.6959,36.9473,186.9067,-58.7879,-11.5350,-26.4300,-17.0670,-245.4860,-368.3953,-143.6014
-3804.6875,225.8509,214.2866,-133.3651,-114.4606,-204.7216,-166.4310,-109.1571,-261.6625,233.9646,105.9748,188.2905,235.0293,161.6684,-3.9241,115.4179,-113.6745,-55.4178,-71.7190,-265.7438,204.1690
-3796.8750,96.8701,-19.7403,75.4286,72.9492,113.8470,7.2598,21.5259,-14.0278,-364.1468,-199.1969,-155.3352,-106.5099,365.8648,-50.6624,-116.2415,-59.0317,167.6432,82.4897,171.3599,-99.6510
-3789.0625,225.9940,4.3118,241.3771,-78.5244,169.5611,-119.9476,-111.3017,-360.3007,204.8691,-70.2640,229.1303,206.0485,159.1776,42.6920,160.2248,-158.4105,-54.2048,-384.2737,-540.5088,30.6064
-3781.2500,218.7903,103.0439,-101.0504,-85.3729,-100.1143,-95.5378,-21.3704,-113.9581,-211.4133,-230.6602,105.2886,46.2864,252.1470,67.7051,-108.6363,-94.3885,114.5837,278.6062,157.2468,129.5538
-3773.4375,71.7845,-148.0450,273.7468,84.0030,311.4376,97.0861,5.5600,5.6006,-167.5442,-223.8776,-73.3910,-57.3116,255.3598,-70.0925,-100.3133,-58.9026,74.5933,-113.3045,-91.7702,-192.3246
-3765.6250,137.9955,60.0640,-75.2279,-129.4404,-74.7918,-140.1160,-70.7752,-193.6838,292.5997,53.1374,275.1687,218.3197,85.7816,-12.6906,29.2549,-101.1772,-68.2239,-79.0873,-232.6860,122.0088
-3757.8125,-7.6339,-119.6685,3.9208,111.2538,77.1128,85.8251,58.7998,143.1884,-326.1286,-198.7000,-161.1249,-107.9122,270.3910,-43.1396,-222.0399,6.8292,173.1116,199.3260,327.5898,-128.4926
-3750.0000,80.4320,-65.7364,203.8125,58.6629,129.7752,-7.5217,-98.7449,-133.2370,167.8518,1.1678,110.2588,165.5386,134.7354,11.1021,88.3788,-54.2575,-18.8602,-378.6209,-425.4771,-74.3299
-3742.1875,154.2731,148.9655,-205.5645,27.7845,-279.8392,-48.1485,-72.2390,-25.9483,-94.3539,-40.1811,104.4447,122.7695,162.8435,44.1002,-62.4149,-27.9176,89.8879,153.1469,107.1554,105.6210
-3734.3750,16.0131,-94.4503,179.9617,346.8129,69.4609,117.1357,-75.1987,67.2688,-223.7094,-132.6445,-100.5038,-43.1367,248.9040,-46.0086,-81.3269,-1.7193,199.5426,-229.1651,-98.2668,-242.5459
-3726.5625,176.1149,172.4674,37.8733,119.1736,-219.8573,-134.2492,-215.0935,-256.1966,296.3568,92.2756,417.9269,329.3296,66.3310,-3.7696,145.1483,-111.3329,43.5187,-383.2130,-533.4329,94.6359
-3718.7500,85.9341,154.1001,-49.5446,311.2112,-196.5049,37.0519,-116.9108,25.0335,-340.8778,-177.1083,72.0769,21.4965,268.4921,-14.8283,-161.6770,-35.7392,271.1901,55.4734,83.1271,-64.4558
-3710.9375,99.0033,61.9502,297.3316,324.5210,38.1463,-20.3763,-234.7448,-178.4869,78.1252,20.7461,233.4459,183.8948,168.9468,-35.6463,74.7508,-72.2573,109.1151,-562.6324,-640.0909,-121.3332
-3703.1250,177.6005,282.3178,-110.2990,157.2996,-332.7205,-170.3389,-209.0773,-179.5478,-72.2952,-18.8614,375.3612,215.8404,198.9066,36.0407,35.7159,-91.0048,118.5050,-59.2901,-241.8802,170.3225
-3695.3125,-27.9032,7.5699,203.9618,338.9843,92.3129,71.6015,-102.4819,26.3115,-418.8567,-145.5783,27.1443,-57.3452,361.8141,-52.3766,-90.4333,-16.4808,159.8083,-88.0216,-93.7178,-175.1328
-3687.5000,52.2506,193.4500,53.9128,33.3158,-20.9665,-150.8149,-167.9315,-269.2076,203.2935,145.3783,426.5857,306.1366,170.3953,-17.1466,201.1052,-105.8969,-180.2603,-357.1866,-538.0044,117.0485
-3679.6875,-59.9301,151.9951,-171.5179,60.2755,-100.6339,-45.6016,21.6971,19.9084,-242.8926,-7.0046,88.7076,7.2886,307.6611,-58.2634,-60.6974,-27.2548,-45.6937,199.3147,266.3635,75.9109
-3671.8750,-112.1218,-39.4933,185.0926,44.2542,219.7451,-19.3707,-25.5740,-61.9642,113.8914,166.6028,76.8012,-4.5864,218.9816,-104.3899,75.4923,-16.3210,-168.1194,-342.2193,-274.2751,-80.2626
-3664.0625,-18.4898,158.8300,-211.4884,-179.0066,-214.0735,-231.3744,-12.8486,-126.0854,305.5565,247.0493,302.7506,76.3765,149.1250,-57.7125,47.5230,-51.4738,-214.7849,32.9745,-4.2051,259.3921
-3656.2500,-169.7626,-166.7558,-21.9890,21.8279,85.2017,31.7212,135.2830,174.9056,-92.7146,32.5878,-132.2107,-285.5854,334.4267,-124.9439,-203.3607,41.5163,-48.3480,165.3053,411.0086,-100.8495
-3648.4375,-101.5398,-96.8765,5.0582,-190.8303,39.0270,-122.6861,16.6703,-89.6246,560.5532,281.6470,187.3308,34.9570,137.2661,-22.6947,82.2854,-7.0783,-296.4340,-256.9451,-222.3632,38.3907
-3640.6250,-166.5020,-57.1834,-320.1257,-185.7254,-176.3806,-44.3254,113.6445,173.6186,87.6668,212.5297,-66.2871,-143.6781,284.9390,20.3488,-169.2482,103.1424,-149.7386,311.6018,488.0503,44.4694
-3632.8125,-260.5321,-255.5779,72.6632,-33.6544,179.1953,55.0003,95.7132,200.8358,259.6949,238.3512,-190.9914,-193.3940,269.6239,-63.6633,-33.8421,111.9922,-207.0886,-201.9105,45.4261,-223.5371
-3625.0000,-127.2553,-15.6740,-246.2352,-217.3055,-212.9250,-116.3968,43.0653,29.3161,493.1049,249.5173,150.6467,76.2265,203.6303,-13.3764,125.9048,10.2394,-285.1796,-32.1923,3.9982,120.7684
-3617.1875,-283.3773,-172.1740,-139.5619,83.6343,3.5371,137.8009,143.1657,322.4119,-134.9175,-47.7205,-294.1209,-257.5644,417.2960,-52.4926,-133.7636,92.8079,-54.6693,199.1693,448.2125,-175.3198
-3609.3750,-188.8543,-113.0598,101.8144,-32.7685,97.7015,-24.3453,-23.3821,-22.8501,400.7238,230.6918,55.7598,56.2913,287.6642,6.0302,145.2370,27.6394,-240.5242,-407.8921,-333.9901,-79.7912
-3601.5625,-106.1062,77.2705,-184.6327,-90.0082,-152.9620,-53.3226,20.7719,58.0463,-33.3770,53.3248,24.8948,-10.6198,437.2718,50.7504,-31.5422,25.2331,-50.2091,133.2213,208.9697,74.9712
-3593.7500,-158.7106,-150.7794,287.5828,138.4116,283.0485,125.3626,-17.5469,54.6104,-147.8737,-24.4054,-129.3533,-126.9156,465.5939,-25.9001,-35.6891,33.5174,2.7651,-199.0084,-158.3849,-222.6474
-3585.9375,10.5508,124.0125,79.6709,-44.3349,-34.0724,-118.1221,-141.5190,-261.0176,232.5565,135.7426,287.2836,216.6763,290.7953,-11.7078,88.0529,-88.2438,-109.4461,-169.4816,-444.9951,122.5858
-3578.1250,-131.5766,-51.5863,89.3258,201.4974,84.3772,74.9716,-25.8957,42.9493,-418.4234,-112.5061,-109.4688,-106.1298,516.6523,-74.9167,-195.6106,-1.4118,136.9360,253.6730,120.0214,-87.5612
-3570.3125,-155.6616,-111.1781,321.0731,106.3918,315.9232,13.1193,-88.5788,-202.0402,143.6581,45.3009,83.8110,88.1034,376.6181,-63.0942,109.7840,-69.3756,-27.6425,-367.1833,-569.9555,-75.6946
-3562.5000,-127.6314,23.3356,-66.0976,-41.6568,-71.4483,-115.6702,-26.4926,-109.9699,-59.0811,27.2502,100.2408,69.4744,389.7256,-7.1810,54.3075,-43.4443,69.8392,153.0181,-48.8943,163.3027
-3554.6875,-255.1654,-244.7317,295.1782,182.7465,289.6466,133.9989,9.7934,31.5757,-286.4157,-90.3668,-238.9074,-196.7367,453.3599,-50.8323,-25.7414,25.6527,154.7762,-43.3049,-103.3401,-173.2741
-3546.8750,-52.1463,-6.2742,86.0377,-106.3104,7.3299,-109.7905,-81.1453,-249.3631,313.8571,104.5947,211.5152,109.6272,240.5855,0.0582,207.7974,-85.3678,-98.7734,-226.1610,-461.3385,170.6844
-3539.0625,-145.1174,-98.8054,-80.1411,-23.3931,-13.0163,16.4020,106.1511,25.6887,-255.8691,-134.4289,-139.0431,-203.9972,401.8703,-56.0542,-31.6593,-31.6589,89.6618,280.0030,326.6706,78.6610
-3531.2500,-178.1475,-236.4314,146.6718,-57.5107,177.6346,-12.4396,12.5645,-76.2965,192.3310,92.4960,-60.6760,-87.6952,258.1719,-11.2362,196.8295,-7.5464,-118.9531,-313.9291,-301.3919,-23.4578
-3523.4375,-113.5140,4.5966,-275.8684,-239.0147,-282.0741,-103.6684,0.7696,-55.6756,173.2595,184.1134,66.3959,4.3007,163.1613,82.2249,142.0037,24.1154,-123.9586,103.7278,46.1111,253.0949
-3515.6250,-229.9396,-218.4442,58.5314,30.4278,89.1704,121.0520,93.7712,168.9109,-261.9025,-105.3333,-261.5996,-323.7772,310.1750,12.6266,-36.8938,71.1912,75.9969,127.3515,247.6093,-109.4145
-3507.8125,-78.0606,-65.2162,97.2709,-203.8342,17.7525,-96.9371,6.9148,-158.2305,328.2830,80.5395,179.7254,9.4710,124.5359,-20.6864,222.5361,-69.2823,-157.7708,-175.8239,-266.6929,114.3589
-3500.0000,-134.4643,-121.2770,-142.3319,-154.4249,-39.0101,-7.2554,169.3250,153.3038,-168.8116,-84.8682,-135.2093,-305.5543,248.6441,-112.2987,-126.3302,2.2554,31.1476,436.7068,522.6987,58.8613
-3492.1875,-192.6773,-318.1790,175.2912,-36.8003,352.4630,54.6425,114.7868,69.0513,76.2620,85.9151,-222.9786,-245.4043,123.0259,-161.7312,44.9901,19.9986,-60.7298,-112.5862,-60.7122,-173.4785
-3484.3750,-43.5702,-29.7859,-198.7781,-204.9089,-58.7622,-135.1927,72.8728,-83.9450,252.7168,115.0290,63.6077,5.0925,39.7441,-56.8714,74.6479,-48.2075,-122.3441,142.3487,54.0774,151.4983
-3476.5625,-178.7126,-199.6560,4.8786,82.7202,218.7482,141.7155,159.4935,157.8185,-277.1177,-195.1194,-322.0584,-268.6720,203.2874,-73.2738,-160.9731,18.2422,59.7982,255.0679,379.6647,-157.7780
-3468.7500,-13.0094,-103.7163,97.4315,-102.7950,163.1569,-23.5282,3.2939,-152.5884,329.9281,81.5932,99.1315,116.4265,-39.2628,-53.8456,115.2735,-67.6744,-161.2294,-281.4402,-296.9804,8.7618
-3460.9375,35.1075,-20.3656,-223.6502,-125.9422,-84.0671,-13.4004,96.4215,77.3692,-63.5833,-55.2746,-39.2331,-58.0336,4.6331,-43.0210,-131.0695,-11.6484,-7.8850,259.4479,384.7467,92.7300
-3453.1250,31.7576,-200.4990,186.8318,45.4725,290.2945,104.2980,35.6907,48.8981,-20.5931,-49.6097,-145.0849,-88.9694,-28.8453,-72.6671,-50.8853,-0.0144,-81.9856,-237.1214,-74.9556,-156.7909
-3445.3125,224.2116,134.1506,-106.8718,-218.3467,-151.5273,-153.2250,-64.9401,-170.8211,311.2729,61.8927,257.9079,203.9363,-141.4781,39.4740,98.1384,-83.5705,-204.3309,-182.9740,-195.9574,248.4920
-3437.5000,170.6092,10.7416,-43.6609,-62.2415,-14.4161,21.1932,42.3907,114.4169,-321.9388,-204.6590,-156.1458,-135.2118,66.9129,30.5534,-167.9020,0.0875,23.2710,80.1603,350.0332,19.7296
-3429.6875,234.4869,3.7845,131.0959,-173.6346,86.2515,-97.8814,-71.2172,-150.8534,256.3554,42.2963,89.2956,111.1405,-129.1257,58.1207,116.5624,-52.1308,-193.6503,-417.2704,-358.5391,84.4249
-3421.8750,208.3761,84.8407,-270.1683,-235.0684,-205.1069,-94.9929,27.7383,-0.1641,2.7013,46.2731,17.7938,3.5393,-92.1143,25.6826,-99.9503,-3.7170,-78.6043,225.2693,284.8385,235.1466
-3414.0625,78.6018,-256.7792,85.9230,19.8602,187.9050,151.2515,75.5700,172.8930,-81.6564,-38.4294,-288.3863,-191.7348,-69.6676,-95.4224,-148.1409,50.2134,0.7974,-80.8321,155.5991,-105.8137
-3406.2500,181.1802,-118.0665,-113.6139,-227.8770,-121.7123,-122.1785,11.0583,-98.7437,417.4063,128.2549,98.8175,158.3850,-235.8278,-0.1903,21.0527,-37.8115,-141.4916,-116.6729,-55.3964,209.5676
-3398.4375,2.5587,-262.5511,-144.3950,-56.8398,-6.5629,103.1711,187.8011,238.4188,-237.7375,-158.2469,-301.1633,-239.6812,-49.1250,-31.1668,-229.9696,58.1078,66.0092,372.3131,645.4327,-4.2400
-3390.6250,-39.9835,-339.9872,144.9575,-99.6893,246.7309,62.6356,98.5682,87.6928,199.2156,94.3501,-160.0674,-134.6485,-202.2590,-71.0631,60.1032,49.6114,-117.3982,-162.6611,-63.6743,-80.9945
-3382.8125,1.2330,-123.6692,-226.9603,-234.8275,-88.2500,-51.1881,144.6991,120.6708,121.9939,89.7311,-18.1627,-174.8109,-171.6024,-37.2172,-90.0470,46.7347,-76.0859,336.0617,399.8990,136.0244
-3375.0000,-140.2590,-335.0789,158.4129,46.3378,297.0746,150.2804,183.7592,286.9606,-153.9694,-75.6006,-368.9765,-377.6883,-46.5629,-93.1027,-181.9253,100.6918,29.5421,126.1038,366.8194,-249.6801
-3367.1875,-3.8012,-126.5691,67.7702,-168.5533,96.3827,-123.3160,60.0476,-60.8332,456.0771,165.0483,53.1843,8.4131,-212.5243,0.9388,59.1690,1.5335,-184.9110,-158.9948,-127.4102,28.5463
-3359.3750,-85.6855,-174.4056,-88.2708,-75.8259,14.3035,50.7261,175.8251,226.0153,-141.2220,-63.6428,-212.9768,-293.8111,-39.7804,-43.3784,-205.1001,70.2154,49.2666,322.5854,565.0224,-52.5584
-3351.5625,-111.8433,-306.5417,258.4645,-32.3407,250.0195,66.5430,52.6960,131.6312,169.1952,135.4121,-126.4169,-206.3057,-137.2142,-64.9644,30.3641,85.3150,-82.8079,-267.1121,-128.8062,-183.9629
-3343.7500,17.1097,-72.5823,-174.7066,-220.7951,-220.1715,-109.5670,16.3124,30.3006,177.7852,217.5995,137.2973,-50.6487,-167.5050,53.5442,74.9601,64.2650,-94.8279,72.2341,105.3808,155.7465
-3335.9375,-103.0494,-296.7459,44.0007,46.6440,72.5389,110.2281,76.0091,287.8867,-299.7832,-4.3381,-232.1025,-346.1008,12.1869,16.9370,-35.5737,144.7919,67.0579,24.5243,269.5131,-138.6601
-3328.1250,53.1810,-105.5458,12.1473,-148.5216,-69.3001,-105.5806,-70.9652,-74.1546,330.0768,221.1442,212.9128,61.8678,-168.6633,58.7085,301.3073,17.1600,-162.6816,-486.8653,-381.0445,124.3000
-3320.3125,14.7711,-39.9854,-251.3952,-83.3697,-296.8244,-38.0707,14.7415,103.1261,-152.6932,-41.0081,22.3242,-53.7737,6.8975,89.8200,2.5331,38.4209,77.9091,36.1063,318.7302,155.6304
-3312.5000,-68.6067,-191.4144,112.1402,44.8502,66.7405,31.5017,-51.3971,-9.5310,27.5376,-45.1369,16.7594,15.6220,-35.4140,86.9647,108.7770,13.7889,31.5582,-501.8878,-219.4379,-31.0374
-3304.6875,73.9714,55.1023,-233.3664,-201.0120,-315.7408,-167.0104,-106.1686,-170.2926,232.7961,87.7109,368.2026,257.0242,-125.7338,147.0498,169.0038,-40.5065,-37.8806,-220.0091,-181.7510,322.2535
-3296.8750,-111.3555,-130.2920,-79.8073,71.2088,-14.1451,96.5668,16.7639,131.0537,-419.8799,-126.3489,-104.2528,-66.4781,63.1155,80.2181,-81.6902,67.2969,129.7802,124.0043,267.0860,-37.3575
-3289.0625,-42.1956,-96.2277,100.2921,-71.0732,91.9944,-18.3578,-98.3344,-129.1138,163.9647,91.1077,221.7897,260.5356,-90.4768,39.8593,172.1266,-20.9848,-117.0783,-298.5627,-435.6456,32.4916
-3281.2500,-44.1779,5.6999,-199.7964,-74.5388,-98.0584,11.5344,20.0933,47.5347,-245.3015,-135.5662,103.7342,143.4500,11.8265,33.3458,-90.2005,-12.4976,18.8926,330.7089,265.4323,100.2161
-3273.4375,-165.9785,-220.2070,203.3228,121.2217,305.1073,158.6392,26.5190,121.3991,-246.4269,-137.0603,-82.1513,32.5525,9.4054,-76.9885,-54.3613,17.5674,39.0806,-35.8114,-30.2666,-230.9005
-3265.6250,-13.9771,72.6760,-56.7423,-114.2302,-28.9158,-101.4814,-66.4410,-137.9785,156.3088,81.2758,318.8069,286.5136,-141.1750,-6.5393,90.2983,-55.6239,-53.9678,-24.6068,-228.2702,97.7766
-3257.8125,-98.0296,-11.4885,13.1010,82.2497,78.9839,115.3427,51.2162,153.5954,-434.0411,-215.4499,-89.2749,-83.5582,38.2667,-45.1558,-169.1216,16.6009,212.9286,313.5856,320.7175,-161.5939
-3250.0000,-21.9006,64.4986,203.1790,52.9306,195.1371,11.3804,-80.0579,-133.6335,87.7990,-24.9768,135.8289,179.5749,-105.0323,-75.5887,95.6509,-78.2105,43.0095,-243.0756,-410.1372,-154.8133
-3242.1875,46.7855,238.0388,-211.2238,-20.8822,-182.1837,-73.0567,-32.2812,-33.3462,-141.7589,2.0640,124.5304,132.3133,-79.7380,-48.4762,-62.0151,-39.9879,110.6058,317.7889,150.5112,19.5382
-3234.3750,-88.2988,-2.2098,140.6165,231.5580,169.7610,132.7717,-34.9137,63.2132,-304.1343,-85.6729,-148.5463,-65.7189,-22.1107,-63.1284,-112.4691,20.9074,187.4649,7.9307,-18.5450,-325.8964
-3226.5625,81.1115,237.0145,-66.0157,-22.5204,-109.7673,-73.9118,-130.4919,-215.7603,189.0416,76.1194,305.9135,279.7814,-191.9324,-11.2960,159.5962,-91.7520,-31.2111,-138.5075,-375.2040,20.1514
-3218.7500,30.3698,115.0910,-148.8421,137.2285,-119.4751,101.2370,-4.4093,106.1009,-407.9530,-228.2378,1.2506,-24.8489,17.1680,-57.6305,-143.5102,-31.1803,199.9611,266.9470,313.0065,-135.9389
-3210.9375,53.9066,33.4247,100.6708,126.2989,93.1633,55.6981,-89.0623,-48.7392,62.3214,-14.3124,102.8705,151.8188,-102.3615,-64.6916,106.6632,-52.9346,12.4385,-376.3300,-330.5120,-216.7814
-3203.1250,138.9517,259.2757,-301.3304,-36.1567,-345.7250,-52.3784,-99.1405,-10.1264,-8.8452,24.1388,251.0519,190.0477,-137.3516,47.7372,35.3559,-22.0348,26.3848,23.8471,36.3923,79.8945
-3195.3125,-20.8589,-41.7385,60.8066,225.5418,53.5311,163.7027,-20.5141,206.6458,-379.9290,-127.2864,-122.6304,-71.5837,2.8846,-29.6994,-78.8382,58.8854,148.4950,-29.7888,124.4891,-255.3014
-3187.5000,51.2258,100.1266,14.8800,-18.8610,-29.2818,-67.3224,-108.8261,-132.7136,272.9174,158.2018,235.6138,286.7146,-154.9292,34.7503,169.8823,-23.6508,-96.5198,-273.6086,-400.6112,-6.6215
-3179.6875,-102.9326,86.7511,-143.3435,72.4557,-39.3858,32.3754,40.7351,151.6589,-214.4849,-35.5487,-70.3515,18.7949,18.0623,23.9385,-171.6578,60.2658,66.2057,275.3382,325.0528,-90.1711
-3171.8750,-168.1050,-83.6613,275.4601,112.7953,342.5471,46.0854,3.6677,18.0413,94.0671,14.6778,-57.3417,106.8647,-5.8825,-34.8998,26.7762,11.7050,-34.0509,-281.7332,-266.2853,-259.7694
-3164.0625,-43.6593,180.5403,-87.1364,-115.2763,-57.9377,-132.6351,-26.9217,-123.0329,172.2814,56.5227,240.3283,258.6012,-76.2002,5.8509,-5.1777,-55.9454,-50.7311,123.7313,-70.1197,76.2454
-3156.2500,-190.7659,-71.8105,142.6886,159.1077,209.0079,134.0976,82.6675,144.3510,-295.1098,-191.2040,-192.5625,-99.2126,80.9965,-20.9608,-214.7213,34.6118,119.0464,223.6837,275.5459,-281.3011
-3148.4375,-58.0332,25.6562,162.3970,-60.6606,155.8380,-66.3162,-1.6405,-166.4302,388.3781,87.9322,158.4053,215.8463,-156.9164,-36.9343,137.5915,-70.1495,-135.3520,-207.5912,-330.0113,-113.0321
-3140.6250,-73.7488,43.6863,-114.3939,-76.9172,-83.8225,-49.2048,136.0828,72.3223,2.4398,-78.3625,-8.0347,-23.5043,-30.2412,-55.3633,-102.5524,-24.1915,58.7745,374.6966,427.9764,-58.1908
-3132.8125,-121.2889,-144.1216,253.0266,86.0403,246.7527,60.1317,97.8944,72.2968,148.6386,-42.4856,-120.3073,-60.6698,-68.3019,-92.6098,7.4684,-5.5028,12.1133,-164.8093,-5.8105,-316.1978
-3125.0000,57.0805,138.9705,-164.6462,-158.1243,-207.7646,-136.6465,26.2458,-87.8741,430.7928,128.3074,196.3676,183.1180,-228.4358,-32.9596,105.4107,-60.9883,-125.6827,13.5177,-2.7900,38.6958
-3117.1875,-74.0509,-62.4403,-69.8550,61.1970,-1.8054,68.0765,129.9007,228.4642,-208.6024,-69.4181,-260.4561,-161.5951,-24.0200,-46.8159,-130.1796,62.3538,58.0240,269.3896,465.7868,-232.9133
-3109.3750,-6.2456,6.0545,33.9209,-46.5280,28.1468,-49.2399,-32.8732,-35.2486,373.9573,181.8151,63.6605,162.6448,-177.6122,-53.7392,158.1749,-12.0430,-190.3396,-260.8404,-309.7379,-128.6170
-3101.5625,20.1206,172.1125,-387.7898,-21.7422,-356.3870,-30.0402,-1.1817,95.5588,63.1056,54.6213,8.3860,109.4749,-158.6265,-34.1192,-42.9195,6.4644,-24.1793,292.4779,244.2594,38.2531
-3093.7500,-74.2329,-63.5576,3.8074,200.3520,34.3989,104.4783,3.3346,119.6848,-22.5190,78.6898,-225.6133,-13.4194,-98.2767,-120.2154,19.2499,37.5427,-12.6974,-118.8761,-25.4045,-231.6131
