Time,Fp1,Fp2,F3,F4,C3,C4,P3,P4,O1,O2,F7,F8,T7,T8,P7,P8,Fz,Cz,Pz,ref
-4000.0000,49.7197,44.2111,28.5917,-8.0785,62.6685,-1.9896,-2.2139,-70.3981,10.4240,-106.1702,88.4611,-18.9153,-7.7352,-67.7970,39.9287,-96.8691,17.5047,23.0739,20.0220,-33.9616
-3992.1875,58.3451,-227.1392,147.0047,-70.2684,144.6855,-104.8055,115.8117,-100.3803,128.5600,-63.7691,61.1883,24.5231,36.0596,-61.8279,84.5617,-54.5195,4.5726,-72.3935,-40.5974,9.3667
-3984.3750,-75.0352,-116.4902,79.4063,76.5561,114.6929,-24.6111,11.8341,-59.3490,-12.3211,-59.3553,-5.0876,103.9688,4.8414,17.1628,17.1873,-50.1592,54.1994,74.1553,-69.2309,14.6900
-3976.5625,-14.3675,-55.8032,66.8462,-4.5881,138.7519,-1.3644,34.9146,-146.2694,47.8692,-183.9015,56.7139,15.4410,64.6755,-106.8055,41.8900,-101.7647,40.3590,64.7589,26.2014,74.0622
-3968.7500,-82.0136,53.5934,70.9853,103.9631,70.5160,76.5723,-71.2927,-33.4878,-167.2424,-34.7309,-83.7810,56.6164,-4.8000,42.9285,-100.7189,84.3408,92.1300,103.0591,-40.6659,41.1294
-3960.9375,-105.7204,-41.0471,11.0696,-61.5257,48.2229,164.4603,15.4502,-20.7467,-7.4062,-60.6085,4.6851,-114.2705,44.6764,18.6072,60.6174,-87.6153,-10.4299,79.3203,145.4243,-19.8585
-3953.1250,-93.6684,-274.9609,59.9075,-226.2830,134.6807,139.0884,247.9637,-10.2566,114.2020,60.2630,-19.0838,-140.4269,55.9093,66.0233,-37.2925,-41.8285,-81.0390,-14.6754,122.2768,-9.0928
-3945.3125,-132.6278,-137.8668,57.7397,-90.0273,59.1301,283.7204,135.4734,96.2468,-35.2039,129.1519,-166.8587,-107.5767,16.1281,172.4569,-187.2159,27.9776,-2.4727,87.3386,-22.8861,-49.3323
-3937.5000,-25.0351,-171.2313,60.1224,-159.2280,25.1309,211.9087,100.5356,24.2970,150.9517,56.5803,-90.0642,-253.1985,91.8970,62.4335,110.4229,-118.6827,-34.8766,18.9035,50.5139,-48.0242
-3929.6875,-113.0521,-83.2049,41.9130,-37.0284,-29.4638,156.4908,82.0036,114.7510,58.5067,183.4169,-142.8628,-125.4195,-0.9425,153.8181,128.4498,45.0635,-14.9210,-34.1314,-143.6885,-67.3152
-3921.8750,-184.8258,22.0874,-33.0583,31.4212,-102.8161,155.3319,6.7196,149.4665,57.3030,106.5159,-32.4052,-163.4014,-2.5368,114.4570,201.7184,5.0548,-17.0122,0.0979,-109.6365,-69.3629
-3914.0625,-126.5881,-131.6382,24.9692,18.8479,-81.1615,103.1771,27.4564,95.1854,115.1134,89.6231,27.0654,-180.4143,18.8753,61.0761,222.9931,98.0328,-20.1545,-117.6781,-122.5657,-12.4101
-3906.2500,-151.2141,54.7760,72.1428,239.4396,-181.3569,76.1892,-109.6582,141.0746,-132.9500,97.9059,-35.3198,-24.2763,-8.5785,142.8578,86.3899,179.1801,95.0788,-71.2899,-252.3550,-3.3132
-3898.4375,-105.6924,-4.6775,79.4589,143.1745,-136.4018,-64.6311,-66.6234,-0.8846,-15.8675,-43.6621,83.4587,-92.0020,108.1218,37.7911,203.9438,0.4668,58.3858,-96.7483,-101.9815,75.9285
-3890.6250,-9.4611,-49.4484,68.4798,203.5997,-109.7460,-147.7528,-3.8851,23.8585,-99.0886,52.4779,-36.0565,42.9709,22.5192,62.4343,-27.7984,134.4629,88.5235,-70.5255,-109.9095,100.8695
-3882.8125,35.5562,100.5950,5.3001,212.8397,-135.3026,-101.0695,6.6480,33.4183,-89.5225,-47.5673,-23.7709,-57.2626,69.7124,-2.1092,-53.7498,69.2640,103.7835,44.4990,-67.0480,73.6051
-3875.0000,-38.0873,27.9841,0.4653,32.4185,-29.5114,-142.0401,148.5365,-81.6713,52.4071,-54.2636,82.8797,-100.1648,101.2623,-80.3019,89.6582,-9.5881,16.4315,5.8672,0.1712,104.7000
-3867.1875,-137.8421,33.2792,-64.4750,107.9080,-19.8301,-61.1149,47.3228,35.1514,-158.7807,61.9624,-16.5783,17.8457,35.7035,36.4181,24.9521,143.4842,15.2104,82.1397,-64.7247,38.6970
-3859.3750,-63.7424,-172.5835,13.4306,-64.7516,57.6879,53.6572,50.9580,-36.1739,-83.1115,-81.9685,135.8371,-126.3147,112.0068,-71.0171,102.1023,-2.6025,-25.7984,51.2597,115.2375,41.5436
-3851.5625,-56.9308,-166.7621,92.0469,-128.7293,99.8998,95.1136,55.3073,-31.8015,-150.7284,-6.1915,67.9634,-48.7729,43.0101,5.2458,-3.0494,74.0173,-18.1208,-12.9345,51.8963,82.0973
-3843.7500,25.3684,-14.4289,-5.8432,-48.1975,-33.3930,181.0714,-115.8546,16.0862,-248.8638,-67.8960,45.5909,-110.7226,-18.4920,164.0246,-26.7206,48.1539,11.9694,139.3768,63.0421,57.1489
-3835.9375,109.5151,-71.2615,6.1165,-104.8296,-93.8301,155.8791,-103.1517,-45.1813,-89.1266,-57.7606,133.0794,-99.8423,-7.1352,64.6450,-14.5278,22.1253,-12.6997,83.5312,42.0568,105.0549
-3828.1250,-56.3564,114.9003,55.0714,150.5497,-154.2624,130.6858,-275.4385,74.5568,-261.3905,172.3916,72.5587,132.0373,-68.7856,75.2794,-259.3450,179.1120,94.7003,93.6885,-193.9398,78.9613
-3820.3125,28.7030,24.0019,70.9711,128.8900,-174.7480,73.4487,-296.7649,15.2500,-135.6980,75.4948,200.9932,35.8464,56.5183,-57.1338,-133.2110,8.0446,76.9208,37.8018,-74.9763,56.8137
-3812.5000,144.0167,-142.6744,81.1204,-2.5408,-127.9784,-63.5471,-212.8263,25.1957,21.2596,194.8618,139.6875,82.8940,30.0736,25.6987,-48.8170,54.2324,-7.7473,-128.8541,-135.7514,29.9213
-3804.6875,7.6262,2.9495,-59.4434,71.3280,-193.9203,-20.2333,-170.5889,214.4661,63.5004,273.5536,-0.3292,88.2527,-75.0861,103.8454,-79.1452,131.7478,-24.7888,-89.2047,-236.2312,-1.6745
-3796.8750,-64.2623,2.0649,-64.5141,-36.3232,-160.3717,-98.4078,-65.8462,135.2408,280.2619,192.7420,34.1648,45.0863,-79.7428,24.4934,-46.9738,88.7552,-71.2933,-124.0590,-131.1909,66.2328
-3789.0625,-134.4666,140.8725,-101.8872,137.7284,-198.1318,-172.8693,-103.4013,205.7324,57.7097,300.6630,-76.6497,226.6232,-154.7033,205.8672,-231.1294,232.4867,-23.1536,-125.2200,-203.4631,63.8444
-3781.2500,-48.9012,122.4799,-156.4697,83.5911,-143.1043,-228.5096,-86.1692,113.0417,75.9447,96.4062,17.3356,169.9528,-64.8707,76.0525,-103.4962,65.0321,-59.5251,-109.5690,24.0675,44.2574
-3773.4375,101.4604,26.8506,-111.2572,-48.7641,-60.2808,-329.3510,70.8780,10.1539,84.9984,66.9610,28.1323,142.0720,-56.2365,10.0344,-94.0502,109.3808,-89.2698,-134.1238,68.4091,52.4764
-3765.6250,-27.3300,109.0693,-134.1977,102.7405,-81.6213,-168.3419,11.7768,97.1331,-85.1042,153.3875,-103.2346,155.0490,-115.7679,96.8807,-261.7741,158.6046,-16.8994,17.1707,79.5872,-7.4538
-3757.8125,-76.7676,-116.3632,-112.7945,-87.4199,14.3747,-36.9895,106.0319,81.4604,47.1571,100.1594,-43.2418,-8.6386,-57.9448,44.0727,-131.1326,-5.8263,-89.4677,3.8078,277.1251,12.9754
-3750.0000,-137.3164,-176.8995,-138.4849,-78.6760,-10.7462,84.2530,117.1825,201.6984,-126.6900,292.8549,-178.3543,111.5838,-121.2280,127.1694,-156.5939,150.6626,-104.9444,13.3382,146.5512,-13.6848
-3742.1875,-53.5677,-23.1349,-267.8788,-136.6153,-104.5825,210.8025,22.6187,253.2490,-147.2517,270.8607,-123.1627,-19.8930,-68.2155,105.5803,-65.7718,54.4540,-153.9262,62.1778,230.2739,-72.0438
-3734.3750,28.8913,-115.7014,-255.5709,-299.8731,-128.7139,186.0447,108.7686,264.4979,-24.0957,318.5662,-72.2543,-8.6869,-19.4903,79.6875,-90.2495,64.9417,-231.0156,-31.2981,206.7061,-60.6925
-3726.5625,-40.2192,-44.8161,-289.8192,-159.6702,-199.4022,225.7331,37.3707,340.2106,-132.5070,392.7488,-141.9105,139.9834,-91.3218,155.2565,-161.2970,212.9148,-191.5328,40.6749,32.5751,-95.8845
-3718.7500,-66.3422,-176.9292,-210.0778,-256.4751,-192.0938,195.4172,6.9786,271.9214,58.0911,214.9276,-23.5587,-1.3549,-11.1483,86.8258,66.6670,70.8888,-212.0717,13.6425,111.4562,-53.0696
-3710.9375,-163.1110,-202.7149,-164.9872,-107.9359,-182.4291,131.4410,-57.0444,353.9781,-79.9533,406.4697,-159.8589,116.6540,-76.6178,241.7471,-108.0254,262.2194,-149.5040,22.9455,-55.3168,-44.8919
-3703.1250,-174.1377,68.2367,-247.1521,-48.6353,-191.0205,158.2187,-140.3102,379.7951,-163.2485,431.7785,-204.4200,143.4100,-123.3386,268.4274,-153.9785,214.3102,-134.4383,47.9969,-66.3419,-91.9635
-3695.3125,-51.4221,84.9068,-266.5685,-173.6137,-62.8563,-9.2611,23.1970,248.3611,0.2331,299.8426,-149.2189,158.8941,-70.2987,136.8516,-100.1651,119.1501,-194.9988,-76.2179,20.4036,-76.2801
-3687.5000,-86.3337,190.9629,-264.5830,2.8075,-59.3028,-115.3339,64.1073,251.3564,-69.8982,302.3464,-254.6336,271.7788,-103.8603,175.6922,-169.9706,157.4234,-122.9122,-5.0389,-84.4607,-147.1924
-3679.6875,-111.5516,94.7072,-254.9090,11.9271,-49.0656,-69.6972,109.7189,149.0721,87.6716,162.5655,-206.3468,133.3439,-21.7168,111.2402,-87.0812,18.3980,-108.1284,74.8362,31.3861,-138.3975
-3671.8750,-192.2060,14.9798,-229.6875,36.5813,-23.2861,29.4845,134.8950,173.3478,1.8016,260.3553,-326.5113,230.4483,-34.0286,135.3470,-208.6457,115.9370,-88.9133,100.2396,-14.2196,-114.0403
-3664.0625,-204.2664,142.8552,-240.8733,22.8486,-33.9308,128.2641,86.6649,198.2367,-83.4824,210.7650,-300.0902,181.1647,-45.7506,86.0775,-182.6227,29.1056,-78.2979,158.2424,78.7558,-163.0791
-3656.2500,-68.4779,-38.4490,-173.2078,-158.0418,-2.7375,85.8844,191.2914,80.9700,131.0975,56.0224,-119.8054,-10.2745,21.3918,-32.3445,105.2621,-125.8799,-137.5530,48.0803,180.5968,-133.2589
-3648.4375,-91.9033,-61.9624,-122.7347,-6.1233,-62.7580,135.2935,93.7227,166.5155,-39.5295,141.1107,-178.7323,39.1065,-39.6724,91.0451,81.9221,32.9602,-62.6912,94.7052,-18.7745,-157.6312
-3640.6250,13.2552,8.1389,-123.6715,-43.5977,-63.1986,97.3047,92.7450,91.6751,-3.5618,28.8126,-68.0617,-72.9093,32.8625,-21.9597,118.1783,-79.5914,-57.6563,128.9260,50.4546,-159.3977
-3632.8125,18.1663,-23.0316,-120.8568,-4.3332,-59.8901,-9.9476,169.5195,93.5832,36.1660,177.2741,-99.6396,-34.1752,35.1546,16.7875,-98.8112,68.6193,-53.6379,63.8815,-15.5658,-120.4006
-3625.0000,-112.4294,58.2958,-145.5462,182.4516,-157.0923,39.2919,-2.2132,178.0070,-62.6330,188.2591,-159.7303,50.0766,-27.0636,102.0501,-160.3221,152.3603,7.6935,144.3381,-40.0989,-145.8953
-3617.1875,-87.4731,-57.8457,-12.6886,65.7787,-59.7463,-11.9297,94.6170,15.9785,108.1308,-10.2125,-25.2634,-1.1290,32.2785,12.8603,-27.2756,-46.3519,-1.5666,28.3320,55.9284,-86.8266
-3609.3750,-67.0355,-2.5089,118.6637,190.6067,-38.9123,-27.6651,40.9616,-0.5393,-55.6024,44.8460,-113.3107,165.1829,-94.8789,106.1811,-190.7397,45.4693,109.0952,48.8109,-135.5584,-67.2466
-3601.5625,93.7380,17.1721,176.3546,139.7906,19.2535,-80.0472,-47.3506,-90.6910,2.0112,-155.7215,19.9830,74.8495,-73.6799,-20.1395,-94.8508,-81.3470,129.7977,69.6328,-44.7009,-83.3150
-3593.7500,196.2801,14.5779,245.7904,30.7035,89.1691,-230.6852,21.1020,-205.0893,71.3899,-233.5237,54.0277,143.2581,31.2743,-62.7065,-136.2141,-13.4100,101.5047,-38.8217,-82.0856,-51.6252
-3585.9375,83.0619,288.2390,200.4682,232.8758,44.3199,-239.0664,-134.1990,-142.2137,-121.0004,-170.0440,-62.6952,280.9297,-13.5268,38.0005,-217.3596,86.8052,178.2189,22.9626,-230.2336,-60.6799
-3578.1250,95.8234,230.8803,174.1391,176.0328,91.4566,-266.4439,-87.4912,-278.3326,-37.3738,-307.5585,59.5882,179.5885,105.6794,-99.2946,13.5061,-87.9739,148.4859,1.7366,-112.3609,22.2758
-3570.3125,-44.1294,160.7858,100.1092,175.4803,54.8857,-156.5268,-51.4679,-170.1436,-147.4433,-88.7492,-50.8391,177.5526,31.1840,8.7227,-61.3296,56.5753,117.0111,37.7989,-76.1909,57.5408
-3562.5000,-145.4382,23.3284,-80.2816,107.5918,-14.0533,68.0520,-46.7973,-20.2875,-70.8767,-13.2721,-81.6260,-2.8296,-38.6614,49.4077,-19.5231,22.7888,27.2581,145.5114,173.6200,24.4587
-3554.6875,-171.3931,-212.8008,-142.3198,-127.9563,33.3492,113.9788,110.2263,62.9143,123.0508,69.5590,-70.0630,-66.8638,-102.1432,-15.5491,-9.3725,68.3570,-108.7606,85.5543,323.7851,33.7435
-3546.8750,-166.2601,-102.8272,-171.2605,-53.3967,-31.1739,197.0061,45.3358,181.2376,58.0569,187.5199,-206.4213,14.2303,-203.5358,29.6207,-74.1484,149.0677,-82.8972,90.6907,224.0304,-31.8600
-3539.0625,-99.9906,-35.7053,-140.0545,-162.6879,-36.5699,154.1794,40.5917,100.7161,237.2175,70.6366,-100.6285,-102.5244,-100.7707,-51.0570,67.2329,-42.0605,-109.8003,16.9658,255.4307,-1.3064
-3531.2500,-169.4719,-1.3557,-142.5926,-128.7282,-75.7220,77.5840,0.1066,170.4472,159.6302,213.0220,-175.5914,2.9813,-139.7540,92.5270,-46.1347,101.0778,-107.3304,-18.5338,115.0688,68.5097
-3523.4375,-163.6556,-65.7079,-173.8377,-87.4541,-142.5894,120.2802,-31.0863,212.4910,165.3242,180.7287,-131.2691,-65.1954,-134.4410,60.4335,-3.2179,68.5353,-97.3688,58.2622,156.0001,73.6293
-3515.6250,-124.6784,-237.9320,-99.9342,-226.0471,-105.3088,10.1119,116.8799,138.6840,350.1899,143.5930,-18.7946,-103.2292,-97.9719,-123.5169,70.8467,67.1405,-138.2779,-7.8091,160.0991,146.9083
-3507.8125,-184.5642,-87.0227,-87.8800,-5.4756,-166.8780,58.0845,-53.9967,223.0394,30.1981,301.6324,-116.1934,54.9090,-196.3526,-38.3067,-26.9623,261.9344,-36.8611,71.2576,-39.6698,121.3446
-3500.0000,-59.3667,-67.0220,-66.7365,-55.8003,-108.3545,5.1561,-106.7657,133.4960,88.3032,137.7698,-19.4999,-108.8450,-102.6209,-54.9893,141.3442,134.8366,-47.1512,-14.5837,48.6583,104.8886
-3492.1875,-62.5209,34.6239,2.0538,-23.4859,-38.1846,-145.1352,-110.8777,91.5993,11.0585,169.5625,-22.1607,34.0666,-107.2307,12.9849,-9.6916,203.4046,-20.1637,-121.7979,-58.3742,137.0980
-3484.3750,-57.2860,286.6786,43.2356,191.2458,-32.6353,-213.0216,-252.6036,59.1134,-166.8148,62.7744,57.5648,-72.5952,-65.4410,17.3764,-114.3481,170.4026,117.3606,-10.6182,-123.0226,141.7175
-3476.5625,139.2480,202.0036,136.7149,106.2639,96.2032,-340.6162,-159.0184,-104.0790,-37.3681,-64.7118,189.5979,-383.9628,63.6659,-109.9320,16.3040,42.7059,132.3334,-130.1570,-66.3593,197.6533
-3468.7500,114.1201,211.6605,148.5383,221.6300,108.3815,-255.8766,-184.0675,-19.9122,-209.5665,20.1854,18.9581,-335.9578,-34.8865,11.1179,-82.7000,162.3924,194.7061,-85.3606,-126.3557,171.9522
-3460.9375,72.5374,99.8601,69.8937,109.5471,104.0874,-113.5878,-115.5629,-25.1829,-67.2063,-59.3538,88.8603,-415.3997,32.1131,-142.2821,132.8550,9.6423,104.9861,-127.0258,42.1983,129.8100
-3453.1250,50.0956,6.1870,84.3954,-19.4038,155.9273,-136.1585,8.0978,-48.2957,19.3192,-9.7226,67.9071,-328.6852,83.2714,-128.5252,147.5565,59.0665,34.4273,-184.5644,-15.0941,106.8373
-3445.3125,-20.5177,146.3662,48.7390,85.5022,83.5929,48.1183,-63.4055,-12.5359,-125.3254,-10.2060,-3.2218,-291.0912,47.2764,55.1153,1.0885,59.3761,86.5225,-45.2589,-120.5523,70.7260
-3437.5000,99.1765,-16.1787,97.3811,-41.3078,95.5407,59.6880,-14.6164,-110.4698,32.3396,-181.3822,120.9535,-353.1913,132.5924,29.0536,49.9310,-76.0145,48.1847,-101.6638,-35.7055,118.9289
-3429.6875,37.8689,28.2500,146.0275,72.8899,70.4722,108.2443,-39.8375,-136.3917,-139.0034,-97.5340,23.1151,-196.2639,106.9061,114.0032,-48.2453,80.6314,104.3219,-92.0775,-201.8703,93.1440
-3421.8750,60.6482,15.7784,97.7668,59.1993,96.4877,132.9030,-51.9648,-258.2014,-113.2580,-293.5725,124.3594,-281.2196,205.3176,65.0645,123.6677,-78.6089,82.4940,-35.3961,-74.9398,44.4639
-3414.0625,137.7336,-83.4001,140.7995,-75.2047,176.8070,29.8412,103.2248,-362.7182,39.7948,-361.3019,132.8980,-274.8616,286.0425,-39.5778,204.8741,-108.5469,31.1628,-133.4337,-32.7059,51.0966
-3406.2500,57.6516,82.2786,57.6743,90.2599,56.9634,129.6231,19.2569,-262.3699,-80.3230,-298.1497,87.2643,-176.6250,164.6145,23.6523,10.9071,-10.6028,85.1500,-3.6232,-77.6425,40.5870
-3398.4375,165.3187,-126.3096,130.2965,-13.5348,18.8588,129.1465,55.0369,-338.2742,28.3134,-447.2532,198.3868,-287.6385,163.9550,-14.3667,157.7190,-158.9097,68.6676,-35.0739,65.1781,112.8330
-3390.6250,196.8383,-95.0724,236.7778,88.5109,-20.3957,14.5070,-57.3166,-342.3320,-194.2008,-341.4977,196.3457,-108.7789,86.1479,54.4686,117.3865,-16.3410,136.9495,-38.7011,-113.1596,108.9378
-3382.8125,255.0979,137.9147,263.0126,180.3215,5.0868,-33.3778,-141.9208,-390.6295,-241.9748,-425.9774,260.0352,-120.1476,112.0836,-30.9358,106.7651,-174.9944,214.4042,53.4198,-125.7609,60.8035
-3375.0000,305.5526,83.0812,276.4443,54.3263,166.7612,-129.0683,-18.3133,-413.7274,-81.5229,-376.2530,237.9217,-180.3163,162.2287,-164.1406,9.3286,-162.4421,175.2720,-36.2784,-75.1561,110.8890
-3367.1875,181.1920,134.4394,221.0589,141.5452,148.6098,-73.5588,-72.5078,-248.6125,-246.8820,-211.2959,73.9794,-52.2519,143.5733,-109.1168,-80.9135,-34.6514,183.7415,-20.7910,-128.3703,92.1805
-3359.3750,158.3741,-29.6639,196.2068,-56.6937,196.9829,-98.5025,11.8577,-236.9420,-50.6784,-236.7904,198.5822,-260.6306,265.4760,-244.5253,151.4166,-133.3027,73.0724,-113.7710,58.9730,104.0245
-3351.5625,105.6001,-152.7308,177.4043,-110.8928,214.3929,-118.4101,103.2799,-110.2151,-33.4189,-73.2086,106.2149,-206.9317,208.4255,-117.8766,57.8048,-6.8836,23.6305,-166.7175,41.3525,120.9294
-3343.7500,75.7546,-111.8278,109.5438,-105.1226,110.7242,33.6339,-0.3684,-30.5200,-64.2346,-104.6506,113.7776,-275.2508,178.3181,-2.2632,-44.8527,-74.4902,20.8007,-55.7193,118.6601,126.7873
-3335.9375,179.0229,-255.8473,104.7842,-284.2645,143.1473,-43.2308,105.0712,-145.7289,151.0566,-182.9962,221.4486,-316.4670,210.3324,-43.5491,96.5877,-189.9827,-71.0921,-163.6395,186.0698,158.7612
-3328.1250,99.0933,-265.0976,61.8285,-153.5935,137.3575,-50.2933,136.2935,-153.1234,71.1261,-79.5157,105.9036,-103.8464,130.1517,21.9956,127.7784,-50.6352,-55.0436,-103.7677,0.2583,78.5539
-3320.3125,69.6383,-365.8726,30.3677,-183.4104,143.0574,28.1492,215.0122,-185.0087,223.6881,-185.5259,149.8451,-244.7089,171.4787,-118.9533,280.4796,-155.7796,-77.4557,-98.3977,111.9461,83.8601
-3312.5000,50.8125,-384.0062,82.5571,-201.5975,84.4059,7.2208,230.3978,-133.2492,238.9014,-96.8757,92.4163,-156.8990,113.4611,-104.2485,185.8666,-30.2534,-72.7609,-151.4003,58.2806,135.8273
-3304.6875,103.5355,-156.5634,29.2831,-115.2315,-41.7101,63.8351,104.3212,-39.9274,149.6406,-40.6596,77.5231,-137.5104,59.9927,-11.9687,21.7831,-84.1545,-37.3808,-99.8595,76.1519,82.3417
-3296.8750,117.9820,-212.4509,43.7008,-206.1713,8.8726,-31.8602,191.9452,-98.9073,384.0997,-62.7455,167.3324,-196.4146,111.2408,-143.9895,36.3806,-254.3550,-81.2267,-190.6340,195.7305,96.5662
-3289.0625,-20.7398,-175.5090,84.9668,-64.2532,-23.6971,-100.7163,123.4222,50.9712,278.4041,160.0499,24.9617,-45.4355,41.3347,-103.1426,-69.1926,-140.6673,-22.9009,-153.5715,58.1428,63.6493
-3281.2500,25.2745,-270.8101,132.9789,-54.5796,25.4710,-125.8238,134.6461,62.6019,363.4554,61.6011,112.3280,-181.6904,90.1796,-239.5421,-21.0077,-240.2210,1.1324,-143.7704,138.3010,38.4807
-3273.4375,133.5542,-373.8770,173.2474,-86.6660,65.8794,-233.6997,175.1307,65.4717,366.7758,137.3985,116.9493,-141.6844,56.2859,-309.7012,-17.5658,-90.5177,-3.9186,-175.7430,36.7040,41.5706
-3265.6250,144.1697,-47.5945,114.8649,-6.3713,7.6169,-146.2280,79.9490,116.7038,198.4224,189.5655,59.8950,-53.2975,-76.2617,-258.4887,-38.7901,-39.4300,34.4750,-96.3700,-94.5665,-53.9811
-3257.8125,219.7776,-42.3279,83.4763,-142.0718,49.3319,-176.7598,122.7609,47.9314,314.0711,83.7310,176.8407,-121.9082,-33.7991,-253.2635,39.9915,-181.3367,-33.9796,-161.0023,-17.8358,-48.5180
-3250.0000,89.3779,-32.0807,94.0897,-60.7561,60.0248,-130.2987,59.5664,95.1663,140.7065,204.9184,78.7632,72.5074,-60.3377,-134.0215,-133.2520,-24.2024,-2.1253,-80.6468,-148.1187,-38.0439
-3242.1875,-17.2769,-34.0706,92.4502,-62.6751,95.4404,-95.0838,22.1064,93.1574,139.0772,91.8611,78.4194,-39.3055,47.8713,-208.0214,-23.7445,-100.2976,12.5393,58.4528,-43.6666,-39.8178
-3234.3750,53.7802,-209.3522,91.5176,-97.9138,131.5421,-132.1828,131.3400,55.8408,175.1504,127.4987,4.7724,-40.4025,47.7951,-172.3194,12.4852,-101.6902,-3.8651,59.2264,-43.5240,-3.8803
-3226.5625,-0.2273,-158.6717,1.5373,94.8107,4.5792,-2.3305,40.4931,148.4929,47.1324,184.1192,-120.9515,16.4931,-43.3363,-43.6387,-78.3597,-8.0999,43.4167,145.9458,-61.4564,-57.9823
-3218.7500,93.5638,-240.2140,-11.6539,-57.6680,-45.5923,21.3214,138.4362,60.9502,291.9136,-13.4526,14.1227,-143.8015,17.3446,-167.1547,55.5916,-132.7021,-30.4313,28.4597,138.4212,-34.2720
-3210.9375,58.3653,-135.7787,25.1442,-23.1571,-119.7677,-16.0381,101.3854,97.4094,144.7022,169.9953,-21.8200,-34.0622,-93.9697,-94.6590,-17.4758,87.7269,-15.9060,-42.0464,-2.7091,-34.5529
-3203.1250,-55.1514,-3.6307,-20.3706,73.0635,-164.2529,12.3006,20.0305,125.5799,99.1843,124.1568,-29.0817,-116.5989,-102.5772,-29.4499,47.1511,41.8812,19.1325,54.1440,-11.1575,-43.1351
-3195.3125,-61.2291,-115.0498,44.5587,-2.2789,-26.2868,-33.9170,48.1284,43.1992,201.1325,78.7691,-35.9017,-124.6696,-74.7173,-75.7939,76.2529,-3.5059,4.3292,-57.2302,53.8406,21.7418
-3187.5000,-115.5276,-28.6617,27.2875,119.1896,-6.5331,-14.3391,-5.9810,98.6266,72.8595,171.1993,-199.9519,-68.8958,-129.0615,90.6839,-88.8537,162.9404,48.1939,-40.8138,-35.3822,-32.5745
-3179.6875,-9.5732,-135.0218,27.2558,12.9023,66.4481,-14.5139,67.1496,-48.6940,256.8442,-87.1246,-51.7573,-105.8525,-55.1466,17.4157,132.2870,-21.3595,-9.4379,-147.1549,34.6556,-32.6328
-3171.8750,44.3369,-46.4497,44.1621,66.5577,10.3672,-107.7466,48.2342,-141.0566,126.7888,-106.4772,-69.6234,316.1706,-111.2780,71.1038,76.3576,105.3122,-3.2753,-233.5582,-157.3585,21.2692
-3164.0625,-11.3824,180.5257,-51.5410,116.6379,-84.3271,-56.5688,-47.2942,-163.0004,-4.8927,-201.4057,-90.1129,479.6301,-132.0150,86.2124,54.8184,120.4040,-2.3696,-148.5562,-141.9906,36.5722
-3156.2500,-21.8072,27.7879,-27.9406,0.0077,11.2707,-69.0943,49.4775,-250.6512,91.7240,-326.0400,-103.3012,502.4083,-36.4407,34.6196,77.5941,32.7937,-43.6451,-159.2654,-12.3207,96.1852
-3148.4375,-122.7864,102.5107,14.1152,144.8408,-19.6995,8.8208,-54.3191,-171.8461,-196.2408,-210.2018,-242.0561,765.6841,-103.4192,187.4884,-136.1987,148.6635,28.3701,-84.5308,-148.2236,65.2516
-3140.6250,-9.9977,144.9829,58.9260,47.4293,-11.9341,16.4840,-46.3847,-274.2817,-151.4688,-386.6110,-124.0625,700.7302,-23.6355,122.1026,-19.2609,-63.7143,18.1902,-113.0448,-69.3813,73.0707
-3132.8125,23.9620,37.5854,129.8867,45.1614,21.9773,-95.7138,-12.3094,-314.5670,-117.5457,-315.8611,-124.9253,697.9487,-25.6985,81.8763,14.8180,43.0701,28.7714,-184.4229,-141.3947,107.0486
-3125.0000,-43.5461,40.7610,60.3881,153.4686,-82.5785,-19.3622,-80.7144,-236.2881,-150.1084,-274.5387,-120.2657,591.7579,-58.2220,123.2312,56.4475,84.4342,45.7132,-112.2483,-103.8808,74.5758
-3117.1875,44.2736,-187.7234,41.2329,-4.8789,-64.7904,-73.6660,46.2300,-292.6535,124.6925,-330.8641,-64.2652,425.9376,32.6085,29.9393,221.4424,-8.8500,-42.9586,-199.7320,53.9861,92.4626
-3109.3750,15.3342,-41.9657,-24.6765,72.0322,-130.7562,-66.7306,17.4219,-174.7613,-15.2642,-138.9197,-201.0412,544.4133,-69.3126,111.9064,82.6625,110.1581,-23.6278,-123.9717,-44.9179,63.6110
-3101.5625,-15.4123,103.0051,-20.4036,5.1465,-126.5349,-26.5879,-15.2021,-170.6589,-11.0263,-244.7650,-86.6336,439.1143,-65.0334,79.0848,50.0750,-33.6203,-27.0922,-84.0075,100.3738,67.9615
-3093.7500,27.4910,4.6091,22.5086,-56.1015,-83.6693,-55.8000,-8.1734,-200.9047,-40.1172,-238.9546,-5.5814,408.4819,-22.0967,121.9199,-52.8554,9.2600,-45.1831,-147.4046,108.3144,110.9669
-3085.9375,-39.2729,43.5777,-7.2420,87.0119,-77.4690,-13.6533,-110.8019,-120.7854,-217.8698,-158.7713,-34.2102,416.2374,21.1875,165.1210,-83.4499,53.5160,3.3700,-39.4499,5.5834,44.3211
-3078.1250,11.9527,-11.4424,82.9974,-37.8820,48.7192,-70.5020,-22.4306,-251.6669,-127.6037,-252.5971,56.1488,323.0029,111.4837,-2.6781,42.9638,-113.2304,-4.7138,-58.5009,92.8560,60.6808
-3070.3125,66.9226,113.2774,103.9856,51.9824,69.6501,-86.6067,-74.3086,-194.7948,-327.5872,-158.6543,-68.7694,417.5522,-15.4766,55.2965,-9.8868,-20.2017,59.2584,-39.8138,-29.1352,44.7964
-3062.5000,178.0824,119.1944,39.1606,92.0621,41.7544,-4.4979,-103.0018,-149.7076,-355.3783,-186.5007,14.4928,243.3276,30.7560,-9.5129,36.4597,-121.9520,74.9153,71.0834,12.0666,-19.8901
-3054.6875,167.6900,-103.4520,63.7840,46.5778,102.3014,20.0555,-41.2447,-89.1706,-293.6995,-52.9022,3.1931,194.5672,55.4470,-21.8799,-12.7232,-97.2472,45.9058,-9.5806,36.7307,4.8786
-3046.8750,-26.1620,54.4608,-26.0435,169.6556,-23.6081,151.1539,-93.9484,78.9247,-420.4851,115.2689,-121.5795,289.3868,-34.3147,35.3193,-28.3738,34.0326,57.3353,42.3093,-87.0724,-47.8087
-3039.0625,-50.6146,-5.2193,-52.4707,4.1320,-13.1148,50.6489,27.7422,52.4175,-152.8647,51.8364,0.0532,153.6219,13.3333,-138.0839,166.3627,-102.2931,-33.0568,-17.4024,64.5199,-37.0976
-3031.2500,-9.9711,-34.7949,-44.7936,44.7149,-42.5183,-14.7673,71.5229,134.0117,-146.1535,206.5156,-101.2278,198.9919,-52.9167,-56.3819,-46.8218,52.4988,-17.6408,-12.0186,-34.8070,-66.2765
-3023.4375,24.0593,69.0550,-79.7256,78.7176,-151.5316,23.2193,-37.3195,209.0174,-107.0649,208.6049,-99.1282,127.7873,-51.7703,18.7314,-81.6096,-56.3055,-2.3240,91.7741,-36.7473,-138.0511
-3015.6250,65.8928,5.6910,-72.8615,-55.4995,-181.7492,-44.0053,6.6392,178.8204,9.8451,215.4898,-91.2271,135.3857,-7.8109,-11.3624,-38.5760,-12.3088,-65.1544,63.3553,5.1263,-131.0204
-3007.8125,-72.2777,149.3323,-140.0045,88.2970,-248.9859,36.7752,-97.4156,332.6446,-204.2653,406.4059,-194.3548,253.0301,-111.8651,32.5680,-141.5670,141.7277,-23.9710,206.9329,-97.0263,-197.9918
-3000.0000,-120.2003,65.2347,-226.9069,-29.6518,-187.9901,133.8165,-73.2442,356.7304,-107.1370,356.5774,-95.2406,56.9489,-87.6661,-17.2451,-7.3079,19.0248,-96.6750,263.7628,31.0574,-210.7101
-2992.1875,-201.7253,53.5333,-201.4079,28.7996,-126.5969,85.2487,-84.6861,418.2152,-118.6168,529.1577,-216.7348,193.3029,-172.0609,81.3513,-202.6494,191.7352,-76.5817,251.9797,-50.4729,-222.0184
-2984.3750,-248.8665,218.2367,-285.5175,87.6710,-209.8160,149.0891,-168.7513,519.1124,-201.7188,555.1441,-262.8517,294.0857,-183.0518,145.3743,-249.6133,217.8719,-71.0106,380.6115,-133.6161,-268.9269
-2976.5625,-150.2610,246.6862,-293.8805,-59.7229,-181.2919,66.6816,-140.0652,473.7541,-137.0564,473.8647,-196.2238,249.6293,-117.2794,137.1444,-110.8212,209.7592,-138.7215,268.9880,-104.9977,-240.0766
-2968.7500,-218.2129,318.6032,-399.7972,83.3393,-251.3325,144.7224,-172.9397,550.8513,-316.9609,551.0537,-301.1711,328.6677,-150.0716,288.3803,-143.5852,361.1232,-133.9855,235.8126,-207.9517,-272.7719
-2960.9375,-222.5212,244.1823,-369.0737,43.0590,-220.7361,175.4208,-142.1809,434.5984,-102.2191,361.8936,-122.4765,176.3795,-82.2115,172.2682,71.3083,98.1307,-151.5900,125.2946,-71.2545,-241.8228
-2953.1250,-233.0751,233.5047,-273.5954,33.5243,-162.3877,86.8686,-82.6744,346.0941,-79.7237,346.4908,-100.0367,235.8634,-60.6000,193.9029,19.9467,193.8880,-134.7458,-26.4813,-187.8102,-146.1229
-2945.3125,-221.9445,279.5415,-298.4286,149.7100,-225.3536,208.0307,-219.4863,357.3112,-252.5528,320.8101,-124.9298,248.0800,-49.3037,279.2568,-42.7404,279.3749,-81.3637,55.4638,-246.6772,-134.7310
-2937.5000,-129.9152,54.4734,-243.3709,-4.2145,-169.4232,190.0945,-127.3944,228.4288,-87.4571,193.0190,5.0623,83.2044,116.8915,150.5167,86.4727,113.7628,-127.9210,-28.6926,-119.6338,-42.4409
-2929.6875,-195.5987,93.7119,-203.0145,105.1691,-166.1961,119.4563,-124.0066,195.8550,-157.0632,232.5408,-63.6722,198.6673,83.3812,154.0943,52.9664,154.4668,-75.5814,-25.5504,-185.3096,-38.8528
-2921.8750,-115.6437,315.6157,-155.0119,45.2232,-117.3247,58.4675,-110.9868,60.9333,-108.0275,-48.2889,60.2336,64.8083,96.5244,56.3253,177.1036,-53.1813,-46.1417,20.2495,-69.3460,-62.6196
-2914.0625,-10.1289,315.0656,-83.4529,9.8209,-82.8983,-16.9849,-76.4169,-88.4457,-73.4319,-87.5680,58.6821,137.5180,57.2274,54.0963,63.7829,-18.2759,-22.6438,19.5914,-105.8326,-27.8312
-2906.2500,22.1290,312.2896,-84.1507,183.1898,-120.7301,55.3128,-187.1142,-15.0642,-257.1088,-88.0786,-15.1437,175.0134,19.6768,127.6246,-83.8056,54.4044,64.9901,157.6924,-143.5973,-65.2972
-2898.4375,63.3446,36.4690,-79.9058,-21.4964,-42.6163,59.5603,-72.8751,-121.7344,-32.8315,-229.6526,100.9867,33.4591,135.0838,-14.9058,67.5845,-87.9760,-27.0489,128.7450,73.5895,-23.8144
-2890.6250,-27.3958,15.7086,-63.6099,-7.1296,10.5438,2.8583,-19.5951,-68.3516,-163.5107,-67.1661,-29.8451,86.9783,114.5295,111.6285,11.0192,38.7063,-25.0806,142.8465,-17.1901,-44.2784
-2882.8125,-11.8485,102.2787,-81.0268,-61.4436,102.9905,58.4704,-37.0381,-48.6528,-144.9144,-121.3715,-9.3991,-39.1855,97.2691,94.4790,103.7422,-51.3052,-34.8364,158.2673,33.3229,-98.4454
-2875.0000,21.4529,-5.3948,24.3026,-134.0130,208.1795,-57.1635,31.2589,-91.2096,-39.5638,-89.8292,22.7916,-80.5930,54.7693,89.0779,98.2206,-56.5709,-32.8523,50.4331,31.5914,-29.8605
-2867.1875,-174.3977,8.8007,38.4838,56.2893,185.2084,-5.9417,-28.6099,-39.9048,-99.3842,-1.4220,-72.1868,-28.1275,-3.8876,177.5420,-34.4790,32.0335,42.4969,99.4529,-60.3129,-15.4335
-2859.3750,-107.9380,-168.6983,33.9677,-87.1078,254.5322,-47.4092,77.8100,-153.2994,81.1022,-225.7265,71.1400,-215.3662,138.7567,-10.7014,182.1172,-119.0724,-20.8450,61.7742,113.0908,17.2899
-2851.5625,-7.5729,-174.2821,101.3567,-57.6024,284.7495,-89.9790,72.1211,-158.7950,1.4865,-121.1173,-6.6486,-145.6881,96.2929,-53.0504,139.6038,-14.2675,20.7025,20.9920,37.3863,11.9118
-2843.7500,9.7910,-51.8309,47.7484,-4.0790,193.9614,40.4578,-19.5832,-104.2788,-16.1495,-174.5050,12.5444,-198.9884,42.8179,-33.3925,49.0702,-31.4587,48.2664,108.2220,54.6670,-5.4784
-2835.9375,76.8697,-90.6919,42.8433,-146.8626,151.8844,-1.4100,49.4133,-144.0739,89.9297,-142.2049,119.4390,-238.5831,38.0512,-38.0392,81.2398,-108.9616,-24.2513,0.1504,121.6527,26.8310
-2828.1250,-8.4508,71.0615,-5.4657,12.9656,103.4080,97.3184,-36.0000,-9.2602,-69.4020,28.7068,-2.0948,-138.5447,-47.1181,97.9255,-41.0058,26.1513,24.3799,54.6781,-68.7744,-58.2631
-2820.3125,-64.2687,-54.6539,7.7119,-41.7112,116.4306,147.5487,14.0828,-32.9513,54.7690,-67.8953,122.8639,-270.9909,76.2158,38.3956,46.2468,-107.2456,-6.1523,-0.2857,16.3024,-7.8629
-2812.5000,-112.5957,-138.8644,62.3862,-20.8903,60.9590,92.2718,-5.3315,-15.1448,-1.5504,24.0026,68.3066,-67.9081,58.0477,93.3696,-82.0114,58.8693,-2.5997,-83.7452,-67.1285,84.0420
-2804.6875,-19.3996,60.4810,13.5969,73.5050,-133.9747,43.5586,-126.2104,-26.7738,-49.3278,-60.5403,93.2766,-4.2530,9.4250,118.9027,-93.7212,84.5471,30.2332,-26.6305,-45.0198,72.4913
-2796.8750,177.5511,-24.4419,32.5576,-81.3641,-152.1567,-46.4044,2.6673,-116.6599,190.6699,-114.3459,149.9953,-166.8476,28.5612,-8.8348,34.3505,-42.0417,-18.2697,-145.7656,45.8531,128.6906
-2789.0625,44.3917,18.5427,42.4223,67.6781,-179.4367,-37.4634,-60.5634,2.3623,52.5504,78.7707,13.5895,-83.5036,-70.4133,74.3379,-175.7001,114.2912,54.0651,2.0073,-50.3965,101.7898
-2781.2500,-35.9290,9.3985,71.1282,22.5841,-113.8773,-9.6540,-33.9731,-5.7547,118.2664,-40.2611,116.0236,-236.2881,30.4618,-80.6307,-73.9169,-41.5250,52.0838,62.6521,79.1984,56.7378
-2773.4375,44.3536,18.8571,82.4328,-2.9188,-30.7209,-108.2458,51.2113,-68.2765,128.5911,-65.6918,91.0512,-188.4517,4.9439,-105.9949,10.4615,7.2552,45.7867,36.9003,18.3956,31.2881
-2765.6250,26.8288,142.5334,29.9291,49.7882,27.6256,-87.6262,-1.4171,-83.5833,3.0982,-117.9092,39.2577,-165.3825,26.6106,-48.1424,142.0242,-44.7523,62.7670,125.3634,-70.2195,-20.9702
-2757.8125,11.7524,-119.3499,84.8689,-106.0616,229.4182,-105.5472,126.4017,-174.4346,168.0629,-208.6807,131.9105,-328.8600,154.7328,-138.8448,234.0505,-135.3192,2.3446,4.2865,55.6241,34.2186
-2750.0000,-85.0034,-75.8728,91.1542,7.4484,272.5590,-26.1026,59.5623,-57.9207,-9.6356,17.9149,-45.1155,-173.9555,51.1933,-23.1886,-126.5925,91.4872,59.5799,11.5716,-76.1936,77.7566
-2742.1875,-70.2751,9.1326,-5.0696,-47.5254,213.1935,25.8607,0.2061,-42.8964,42.1516,-39.9888,44.3404,-230.5359,66.1486,-80.0249,-148.7595,32.7964,12.4731,26.3830,78.4875,92.7888
-2734.3750,-4.1971,-133.5164,29.0593,-190.1583,210.1878,-49.8224,34.1992,-81.5269,150.3022,30.4505,42.1403,-231.7590,100.4529,-46.5151,-41.5812,67.4510,-64.0658,-116.4509,110.5260,90.1735
-2726.5625,-27.7798,-122.7927,45.5311,-109.4161,115.5321,39.8538,-23.4759,44.2010,55.7793,83.2536,-14.7377,-251.6004,79.0882,116.3614,-26.0596,83.4675,-28.7182,-34.9174,15.8970,-4.0994
-2718.7500,-0.5623,-234.2654,34.7991,-185.8712,105.6878,66.3348,39.6458,-3.2754,192.0671,-73.1614,85.1869,-369.6423,142.5310,33.0308,74.2741,-36.7358,-64.6017,-77.5744,149.0724,59.4233
-2710.9375,-100.8918,-88.2858,37.5198,-74.8752,34.3079,69.2653,-66.7867,36.6966,47.7991,39.8813,-21.4523,-35.2133,35.4261,-0.8506,-105.9621,114.5163,-21.5317,-71.7767,12.6905,99.3943
-2703.1250,-51.3164,-3.3833,-17.8619,-60.9648,15.8297,14.1057,-86.3283,-55.4271,66.4201,-52.1779,70.7932,-14.8767,54.2144,-55.8310,-52.3119,-14.3396,-34.4983,-23.0609,98.2106,44.2543
-2695.3125,47.6186,-151.1297,47.1157,-207.7157,43.7116,-103.7057,51.4869,-63.2081,167.4113,-23.9008,63.3931,-59.1950,45.3574,-63.4759,49.6903,-58.8616,-83.2555,-134.9987,161.0873,72.4651
-2687.5000,-9.6054,38.9936,25.9415,-18.6020,-123.5578,-52.6610,-79.8599,62.8688,-37.7656,103.2358,-68.1796,31.3586,-49.6562,-11.2622,-45.4670,67.4810,8.6491,19.9284,34.7986,51.5229
-2679.6875,82.6130,130.5845,8.2095,-137.0371,-141.3844,-32.1585,-133.7670,8.3899,55.5184,11.8063,25.7003,-57.6379,-29.2130,-63.6078,-61.1622,-22.7372,-17.7130,40.3222,125.9685,108.0257
-2671.8750,65.8812,80.2315,-8.4691,-82.4214,-122.1607,-85.6102,-151.6187,64.9622,-34.1446,142.4370,-64.3868,37.4298,-119.7291,65.1021,-225.8307,181.1062,-3.3685,95.7676,39.1896,127.5770
-2664.0625,-54.8130,29.9558,-59.1064,7.2665,-98.8950,-62.9977,-165.4312,51.6043,-48.7710,18.1389,32.5543,-48.4354,-60.2130,14.8743,-20.4851,94.0101,2.4237,185.2822,94.4499,77.1721
-2656.2500,-36.0530,-196.8780,-40.3010,-113.6127,28.8220,-153.9350,36.2091,-75.2980,80.0719,-71.7137,124.9408,-137.8559,105.7560,-111.9089,146.3304,39.3530,-60.4048,134.2492,113.1735,96.2165
-2648.4375,-97.7000,-48.0942,-65.8987,71.1130,41.1371,-69.2678,11.4412,46.4136,-55.4961,50.0527,-9.0964,-13.6586,44.3126,-27.0900,-135.2567,162.3119,19.2229,213.8260,-54.5152,34.8529
-2640.6250,-63.8511,92.2065,-102.0080,-34.6609,77.9493,42.9146,49.1683,-26.3660,56.4434,-59.6821,28.3574,-121.9644,45.3677,-62.7777,-62.3433,-20.2413,-16.5131,177.9192,50.3053,-1.0197
-2632.8125,-18.9417,102.5624,-54.0642,-25.3927,88.8199,127.1420,22.9557,-15.0990,-6.5562,25.6309,-33.1484,-72.2090,-54.5334,58.5848,-125.3915,28.2460,0.0660,81.0598,-10.8186,-26.8442
-2625.0000,-38.2368,118.7526,-34.3210,96.6897,-2.5126,257.1761,-105.4696,40.9799,-134.7756,-28.2467,-13.8676,-88.6429,-71.6447,152.7591,-142.6629,47.5314,51.4095,98.0160,-30.1522,-80.8782
-2617.1875,34.0716,-19.4592,3.0260,-41.6358,-38.2323,184.8091,-31.2914,-68.3409,49.6201,-101.5343,98.0156,-122.4937,2.8495,79.5142,5.6776,-24.6045,-18.1229,-40.4153,42.1279,-43.3139
-2609.3750,-25.0788,97.8867,-21.0820,39.6021,-136.3937,123.9937,-55.5641,54.9031,-47.4431,132.7481,-36.5806,76.2220,-132.1132,129.8260,-92.4557,172.8293,-7.4178,-64.2779,-87.0593,-67.2059
-2601.5625,-36.3347,157.1545,-108.3029,-76.2472,-185.6546,37.0952,-31.9459,116.0537,160.3883,82.9308,-12.2911,-9.1584,-108.1795,43.0400,-31.7016,49.1635,-78.1984,-40.2185,76.6507,-43.2087
-2593.7500,-87.9441,36.0814,-91.8734,-126.4537,-206.2515,-93.1501,57.3195,205.8510,249.8777,209.7654,-32.3563,45.1205,-91.6013,59.9002,-162.2965,103.1535,-111.5644,-91.5108,61.0065,46.4376
-2585.9375,-107.5681,52.0360,-111.4545,-5.6415,-335.8568,-76.3841,-73.4368,296.6647,156.3484,337.6140,-51.4412,64.4243,-147.0439,40.7804,-181.9015,120.1575,-63.4750,30.2136,41.3506,27.0756
-2578.1250,45.9098,-75.9059,-25.9369,-168.7387,-286.3654,-172.5131,12.9061,236.5727,315.9407,240.5466,71.5750,-142.1849,-134.3786,-129.2413,13.6044,-50.7541,-82.0158,43.0415,158.8108,39.8106
-2570.3125,-1.9104,52.8550,-1.7209,-5.1344,-263.1734,-111.9413,-74.0439,297.1863,46.2352,375.1862,-50.7230,-5.0924,-258.0173,-32.5574,-145.1982,121.0337,17.8587,171.5724,-65.0311,27.2464
-2562.5000,-8.7250,116.6411,-82.5024,93.4751,-269.9845,-8.3610,-189.9941,327.7979,-34.4716,294.8135,-20.0236,-84.0180,-227.6520,-75.8836,-80.0011,78.7974,49.2521,270.1176,-36.8639,20.6795
-2554.6875,-33.0734,23.8715,-70.8207,35.5237,-184.3344,-70.3352,-105.4797,266.8400,14.2882,306.8689,-44.8658,-33.5024,-178.8181,-172.7869,42.6564,126.9850,9.1010,177.1146,-25.2345,32.5664
-2546.8750,-156.9829,181.5667,-122.6921,193.0399,-127.2317,-10.8496,-84.5209,325.3422,-111.5210,329.3857,-133.2818,26.4801,-158.5437,-115.2339,-83.2499,186.6342,51.8801,193.5842,-114.1701,-56.1017
-2539.0625,-86.1937,76.9715,-49.8720,88.2498,55.5799,-48.6558,25.1468,214.5415,71.3837,181.5894,-59.9996,-82.8535,-48.5724,-187.9917,-121.4480,1.9662,38.8598,88.7678,-7.3925,-20.0722
-2531.2500,-84.9505,78.8299,-11.5971,160.9089,93.8523,-84.0100,26.2676,216.1891,-37.2573,220.2506,-169.2831,-6.7327,-84.1565,-40.2973,-156.2171,113.7478,76.9442,55.4056,-147.1683,-18.5933
-2523.4375,-65.8543,98.5591,-61.4679,144.4344,80.9847,13.4947,-24.7747,165.6839,-14.0604,59.7527,-71.7292,-127.7628,-96.8931,-16.7516,50.8534,-9.6298,59.1988,144.9150,-93.0950,-105.2737
-2515.6250,19.3456,-131.6167,-10.2302,19.0471,169.2394,66.0925,101.2895,71.2639,112.2513,38.3339,-19.0680,-184.7061,-8.5240,-74.1201,103.0527,-66.9285,9.0348,19.5202,-7.9106,-89.8517
-2507.8125,-113.2136,17.4728,-37.7395,132.9174,141.7533,185.9395,73.6052,118.0964,-26.1969,85.1731,-156.1823,-63.3873,-71.9163,45.7685,1.4988,16.0389,46.7502,28.3841,-70.4853,-117.1825
-2500.0000,-105.2165,25.1168,-30.6988,-69.6725,111.8233,192.3358,116.4771,13.4781,164.9226,-55.4523,-39.7441,-128.5376,7.2500,15.1916,118.4963,-124.4621,-45.3860,-104.1929,78.5111,-73.9654
-2492.1875,-10.3566,-54.3937,-5.8014,-9.4245,-10.2401,181.5798,104.2121,38.7036,78.9009,79.7751,-124.4584,8.1566,-77.7339,151.4589,-40.6715,84.8784,-29.3385,-184.9160,-37.6370,-48.8980
-2484.3750,-0.4100,-43.7833,-30.8048,71.9374,-183.2021,266.9411,-30.9549,88.0418,16.9649,18.1056,-112.0866,-15.0514,-102.6216,273.8324,7.2415,23.3145,0.0465,-68.5170,-27.6908,-73.7378
-2476.5625,3.7949,-73.9288,-28.5521,-29.4600,-179.9020,196.5529,8.1447,17.6224,130.2981,-15.3239,-72.4641,-11.0285,-63.2564,239.4373,83.4195,-10.0210,-42.9250,-63.8729,-23.4825,-34.3278
-2468.7500,-70.5510,98.3862,-67.8447,177.6039,-219.1414,230.6133,-142.2980,162.6548,-92.9281,92.7003,-185.4158,172.4538,-176.4476,274.4913,-176.9545,135.0975,48.8317,108.2216,-168.8323,-73.4700
-2460.9375,-18.9550,-25.3313,-14.1906,124.6179,-129.4241,210.6261,-125.7907,68.6271,33.8012,-37.3453,-21.4145,6.8758,-48.6874,33.4785,-160.3569,-31.8539,59.8939,160.2735,-11.2142,-56.6641
-2453.1250,-16.1021,-56.7998,61.7182,127.8634,57.5539,66.8828,-49.0176,-1.1612,0.8019,2.8539,-54.1678,11.5365,-45.6798,0.7062,-157.5068,8.4403,80.1899,57.5716,-43.3388,-53.6026
-2445.3125,-16.8524,48.1575,66.0175,197.5246,171.9242,107.5540,-45.8543,-34.5436,-142.8099,-103.5427,-87.5360,-19.4052,-5.2811,41.3490,-80.2799,-97.8572,120.6364,92.2887,-45.0700,-160.1417
-2437.5000,138.9547,-111.3476,154.8679,107.7286,297.8476,123.7848,43.8559,-202.3870,-53.8582,-235.4062,39.6573,-148.8205,84.6771,20.5364,-27.4962,-192.6245,112.0918,-32.4371,-29.2324,-144.1245
-2429.6875,57.6156,18.9956,180.5736,237.7941,286.6202,223.8712,-41.5868,-102.3761,-249.0664,-98.4135,-119.3188,-48.3829,-0.5283,156.5840,-185.8827,-56.5309,185.9927,-7.2988,-180.5482,-155.2509
-2421.8750,92.4767,-15.4412,143.4770,132.0597,250.5959,224.1673,-4.8360,-139.1650,-101.0687,-209.2300,28.8940,-193.7581,36.4608,9.8187,-2.0658,-203.2570,130.4369,-6.9391,-4.6487,-155.1781
-2414.0625,188.1882,-202.0375,242.2444,52.1569,311.4485,102.3036,129.7899,-188.1191,-3.2035,-184.2018,16.9497,-167.3004,61.3024,-39.1172,-51.3912,-178.1492,119.7096,-87.7302,20.1202,-130.2559
-2406.2500,137.9877,-3.5196,228.1168,214.3675,224.4152,124.5402,5.5205,-127.9667,-127.2569,-198.0649,3.0855,-106.7461,47.2375,-15.9483,-138.6254,-154.9355,187.5776,-66.4056,-65.0189,-144.2433
-2398.4375,250.1541,2.3468,230.3357,114.9073,153.7494,54.1259,7.6168,-271.4745,22.0547,-377.5975,116.5817,-175.8660,123.5311,-86.4486,47.5119,-298.3979,150.4324,-130.7272,46.2094,-67.8835
-2390.6250,115.4738,115.3625,234.7061,226.5918,47.2403,-14.1425,12.8801,-229.8305,-83.4911,-262.9719,-62.7840,88.1712,53.9725,-7.8021,-58.2010,-146.7049,194.9466,-52.8943,-123.4197,-26.3717
-2382.8125,58.9873,200.5894,213.2713,206.4871,25.9316,-36.1984,-9.6613,-288.9794,-68.8472,-358.1484,62.0440,141.3972,68.6132,-103.9614,-6.7128,-204.8166,171.0887,-73.8449,-37.8478,-11.6604
-2375.0000,198.8036,94.0953,283.1412,99.6690,95.9364,-147.9598,-12.8783,-364.8392,39.1189,-324.0371,96.1713,176.8975,29.5627,-141.8368,-9.9099,-207.6469,145.3130,-179.4960,-3.9542,22.3562
-2367.1875,264.3177,90.3193,280.7186,201.5582,93.6500,-115.0240,-126.3833,-256.9997,-111.2288,-216.2279,19.9894,176.0939,-120.7952,-72.0060,-49.4161,-136.7778,205.1117,-78.4419,-43.3737,-16.9308
-2359.3750,339.6929,-79.5943,283.1440,-4.7045,169.2165,-111.2395,-14.0280,-291.3207,38.2808,-287.5883,132.6658,-4.8818,-8.2931,-252.3327,25.9359,-281.0805,133.3857,-106.5386,137.0638,58.6306
-2351.5625,235.4217,62.8392,244.9288,31.3881,132.1394,-39.1105,-51.3163,-145.2954,-108.8567,-104.5921,21.6774,69.4928,-81.4427,-180.3096,-195.3772,-98.0288,145.1912,-106.2942,31.8511,94.5440
-2343.7500,67.1467,176.2990,143.7117,40.4934,31.0611,44.0241,-114.6059,-62.2659,-99.0030,-94.5926,31.6741,-30.1360,-36.6053,-170.2824,-111.6936,-124.9836,107.8510,-63.0482,110.6414,67.4519
-2335.9375,79.6360,-55.4916,118.2495,-51.6654,78.7382,54.9056,4.8720,-87.4991,94.6176,-83.8568,42.4286,-90.0393,47.9873,-159.5258,-28.2447,-114.2079,32.7431,-190.0629,123.2030,115.1108
-2328.1250,59.6197,-40.7478,24.2797,103.6972,-15.0963,109.2977,-51.1570,1.7769,-71.2885,5.3835,-87.3258,74.5467,-44.9275,40.7323,-84.3007,12.0741,61.5798,-68.5646,-37.7422,95.2619
-2320.3125,75.2178,-129.4240,-69.0769,-55.3616,0.6824,88.2823,0.4319,-54.3597,127.4339,-124.7975,75.5357,-55.3117,6.7715,-52.4340,187.2867,-118.0748,-43.4608,-52.4743,83.9337,111.0105
-2312.5000,-19.6757,-12.6266,-56.9225,-78.9295,50.9797,-45.2430,87.5443,-77.9967,103.6669,-2.4679,14.8840,69.3210,-53.0336,-40.0963,90.3728,4.2698,-63.2806,-111.8833,60.1060,87.2582
-2304.6875,-81.3178,137.4160,-83.5266,34.7507,-12.4623,-71.5212,60.9264,-32.3839,77.1678,-28.8971,25.4764,44.1941,-6.5928,-102.5241,63.7036,-94.1500,-15.8208,-33.0271,103.5361,60.7587
-2296.8750,42.2901,-53.2751,-29.8791,-122.3183,4.3583,-200.5575,224.5691,-87.5347,277.9195,-84.0906,79.3115,-47.6868,84.0961,-232.7151,117.2736,-151.3202,-68.6140,-118.9146,192.2193,114.5219
-2289.0625,-25.2675,54.9250,-62.3841,20.4920,-63.9779,-196.7446,155.0455,-10.8377,135.4986,29.5632,-64.0182,105.2895,-22.3745,-81.0540,10.6944,36.3591,-22.6880,-45.9392,18.7476,82.1325
-2281.2500,36.6345,10.5629,-35.4349,-23.2603,-36.8488,-168.4951,145.9857,-91.7175,236.5426,-125.3679,38.1248,-13.3093,5.6136,-163.9611,148.6079,-118.5366,-24.4404,-54.5284,115.7534,73.1929
-2273.4375,-13.3025,-37.6641,59.6851,-1.8664,21.4464,-257.1046,167.0907,-107.4619,220.7251,-104.1563,22.4187,83.2363,-46.2500,-105.7198,59.6534,-60.2755,7.9579,-66.9742,66.9079,94.4081
-2265.6250,-32.0246,155.3193,-30.9813,15.7383,-32.0579,-200.5042,113.3869,-52.0172,130.0920,-48.7598,5.9097,67.9646,-63.9112,-86.2805,5.8736,-113.8306,6.6647,54.7985,83.2718,40.8241
-2257.8125,121.0307,28.0384,-18.8829,-182.9169,54.2044,-188.1469,273.4488,-75.8404,253.2173,-36.6236,55.1454,-138.5855,22.1926,-294.1073,91.8388,-248.6586,-52.3597,-3.6816,236.3997,52.9921
-2250.0000,35.3223,-21.9703,-32.5315,-22.3103,76.7214,-55.5328,222.7643,57.5997,18.5694,133.7831,-69.3933,-41.8910,-102.4618,-197.6776,-142.9546,-80.2403,14.9428,122.0994,114.7691,2.4041
-2242.1875,59.8050,-137.7896,-77.9834,-67.5199,105.4520,83.2927,177.2961,12.2384,-26.8621,51.3807,-4.7241,-86.0360,-36.9075,-206.0593,-41.5247,-197.6476,-24.6198,148.0811,210.3602,-42.9886
-2234.3750,196.5975,-246.3342,-8.1228,-142.4344,138.4921,42.4219,173.1444,-28.8244,-67.9971,47.2764,-8.7542,-14.9053,-41.0519,-138.1406,27.2214,-129.7495,-54.5052,-31.6441,171.2437,-47.0858
-2226.5625,109.0800,-52.1772,12.4448,16.3552,49.2361,64.2561,83.6997,65.8094,-194.4376,105.8610,-61.0815,6.9029,-56.4888,-42.5274,-25.3023,-108.1593,17.9850,-13.6747,48.8214,-99.4894
-2218.7500,54.7262,-34.8821,-10.8257,-72.7219,62.1427,4.2228,96.4250,5.5710,-70.7018,8.5808,25.7492,-89.1571,30.2290,-66.7768,98.3355,-167.4380,-30.3356,-67.5748,99.5671,-12.7369
-2210.9375,-2.8089,83.2239,-35.2870,46.0219,1.8513,-57.0156,35.9523,55.1303,-241.1847,131.0947,-108.6417,108.5851,-31.2667,19.7853,0.7552,28.0848,8.2993,-18.6750,-63.8980,-0.1849
-2203.1250,90.0090,71.6862,-47.3862,69.1210,-84.0813,-105.9063,-13.1618,6.0210,-179.3109,-28.0677,63.3219,-12.3529,103.5963,-66.3187,98.5408,-95.0688,6.8297,-30.4230,-5.0026,-12.2806
-2195.3125,251.3262,-13.3498,82.0186,-86.2749,-101.5014,-269.3152,79.2401,-85.5959,-51.9346,-46.7300,118.7785,81.1900,121.9681,-119.9316,116.8348,-75.7259,-22.1548,-150.6727,-55.6117,43.1294
-2187.5000,181.8839,164.8756,47.6735,20.5975,-99.6673,-267.4773,-66.1042,-9.9596,-232.3226,29.8573,84.4776,231.9665,87.5903,-8.3042,-27.6253,36.8705,12.5382,-79.6533,-194.9691,8.7829
-2179.6875,206.8400,84.4867,72.7359,-95.1483,-0.4060,-278.2388,32.9781,-130.9393,-24.2981,-165.1676,146.5888,110.1107,186.6243,-129.3057,144.3258,-158.1489,-22.0552,-123.2409,-29.9095,33.8374
-2171.8750,84.2049,103.4818,56.2087,29.5047,93.2732,-294.6008,89.4740,-147.5211,-40.8975,-108.7942,20.0879,168.6328,133.0497,-36.8906,90.6793,-65.7619,21.3016,-70.4330,-150.4459,17.2879
-2164.0625,-43.7646,81.1064,34.3298,147.7912,109.6118,-242.3142,142.6407,-169.4668,12.1635,-202.7922,35.2360,37.7625,186.1272,-57.8251,143.7155,-159.7422,58.8306,13.0230,-68.3027,-40.6164
-2156.2500,50.6109,-104.9308,58.8120,-38.5794,208.3147,-327.6820,240.1790,-218.0716,146.5781,-178.4486,96.7268,-9.7718,210.5545,-143.4078,278.1087,-171.3766,-29.5308,-138.1754,26.1916,-16.1628
-2148.4375,63.5173,-21.3814,-35.1514,-26.3696,150.5595,-238.4883,182.2549,-56.1269,-21.4994,-53.5625,-35.2348,154.2341,78.5323,-54.4418,110.0404,26.5509,-48.3554,-54.8096,-31.7772,-74.1545
-2140.6250,135.5983,-18.6909,-69.9500,-200.0135,115.9522,-127.1496,184.4749,-91.0646,164.5686,-198.5544,40.9892,-26.6439,117.6833,-89.3395,149.1372,-118.3951,-112.5254,-52.3031,146.4227,-71.9926
-2132.8125,39.6035,-8.1208,-59.8336,-154.7465,89.2425,-5.9124,158.6009,-7.1115,26.5168,-4.6470,-58.8819,57.3710,90.7459,104.6689,-61.8742,38.5588,-99.1370,-76.9143,15.5112,-61.9347
-2125.0000,-191.1773,78.6520,-116.5092,-33.2826,32.7233,194.5319,-9.0665,83.0335,-103.3312,85.4451,-78.5470,38.5643,34.0090,158.8649,-118.6624,92.6981,-60.8212,79.6683,30.8001,-81.6840
-2117.1875,-168.3498,-179.9823,-130.5760,-186.2276,55.7993,181.5801,87.8777,31.7749,66.4372,71.1421,17.3873,-10.6667,56.8701,70.6654,51.1627,41.4280,-148.6308,66.8312,124.6836,-58.8280
-2109.3750,-128.2951,-104.3684,-124.3932,-75.8963,-11.8818,186.8921,57.0620,111.7806,-1.5611,151.1040,-123.4420,106.3490,-84.0264,150.7302,-89.7702,194.4158,-91.4260,107.2404,-12.1901,-89.7184
-2101.5625,-43.9292,-19.4671,-148.9141,-201.2861,-72.2538,126.4876,69.5643,14.0702,121.7554,-20.6571,-36.9494,9.6234,-34.6026,52.0754,106.6437,59.6779,-136.3894,85.9357,72.2558,-40.3047
-2093.7500,-92.0506,38.9377,-53.9293,-143.1771,-160.1071,37.5493,-19.4132,34.8456,32.5729,74.0800,-89.9599,141.3810,-87.6721,36.9065,127.5686,154.4469,-82.7949,74.1222,-45.8064,17.6071
-2085.9375,-56.5817,144.9419,-52.3308,31.5378,-232.3414,112.1966,-200.7822,72.2150,-114.0086,38.4003,-51.3654,180.7100,-123.1308,111.3278,19.0808,81.8037,9.3025,214.9183,-81.2586,-17.8830
-2078.1250,98.7368,-51.2400,-1.8633,-127.9004,-108.6972,52.6777,-114.2754,-24.5852,47.2741,-95.4442,109.0779,47.8580,1.2616,14.5909,69.4515,-52.0035,-40.0959,124.5650,5.1476,32.4842
-2070.3125,-29.7927,67.7272,-26.2394,-11.1713,-95.8875,28.3068,-137.6098,24.7597,-123.3191,26.8610,-25.3464,208.1351,-60.2037,64.0067,-66.0240,181.3434,0.0903,172.3717,-122.2966,44.9959
-2062.5000,-88.6596,184.3355,-87.9561,-69.7939,-48.4133,2.5872,-126.2823,-74.2588,-40.2542,-145.2000,59.8922,146.0174,-12.0043,1.0550,93.1571,82.3090,-39.9134,183.8192,-7.0703,56.1549
-2054.6875,10.9352,73.3835,-59.2105,-109.9655,90.5204,-78.6901,10.5136,-192.8379,24.2524,-154.8053,50.5852,138.3305,52.6511,-43.4536,83.7822,35.7233,-42.9630,108.6989,-46.3969,120.7639
-2046.8750,-6.3463,57.5327,-75.3510,12.9614,112.5448,-21.8703,32.4131,-172.3262,8.8478,-133.3344,-38.6084,123.7179,37.4059,-23.8756,31.5376,20.2262,6.6338,161.6724,-64.6184,68.4662
-2039.0625,-20.0028,-131.7527,-52.8694,-245.5194,246.1719,-71.4568,202.9319,-259.2347,253.0555,-221.2944,94.8200,-73.3316,133.7761,-146.7139,238.9199,-102.6934,-109.2873,78.2293,132.7695,54.7738
-2031.2500,-215.7158,-152.0837,0.5786,-231.0301,225.7341,17.9139,182.3867,-61.1921,121.1846,14.7132,-35.8085,-57.4350,113.0943,-58.5856,107.2226,96.3554,-95.5162,92.7323,42.0888,34.0348
-2023.4375,-213.5703,-149.5488,-71.1224,-228.6927,154.1387,130.1412,147.6813,51.6937,123.1505,16.5572,3.4256,-237.7151,152.2720,-56.6062,109.3725,-12.7466,-106.9076,130.0698,149.2688,36.1489
-2015.6250,-23.3982,-239.0282,-56.8194,-354.3686,167.5428,107.3513,234.9921,64.5722,210.1103,66.4028,16.6680,-334.0111,92.4511,-42.6376,123.5461,0.1540,-146.3409,4.3763,129.4514,86.2654
-2007.8125,-20.5737,-94.8632,-88.8604,-210.3878,25.5942,112.1962,128.9555,106.0994,67.7085,107.8942,-89.4330,-218.6786,-13.7201,108.9877,54.4035,151.7018,-93.2984,78.3183,-43.7191,54.0286
-2000.0000,30.1155,-255.8713,-38.0403,-265.5709,3.5014,52.8734,143.7799,-27.5389,192.1690,-61.7788,73.3316,-276.5320,111.9709,12.4595,216.1342,-17.9098,-120.6923,22.0930,111.9659,68.6472
-1992.1875,-42.8423,-222.5126,71.1321,-162.3972,-35.2327,-23.1104,141.9566,7.1798,116.9484,82.9140,-2.5735,-94.0417,36.0038,47.2925,30.1795,90.8534,-55.2301,-14.7820,3.9945,66.6163
-1984.3750,-133.0504,37.6058,13.0458,-78.4773,-128.2117,29.6531,10.8936,59.6446,58.4780,61.3461,13.2716,-78.8266,14.7908,25.8639,45.9746,32.3494,-28.4650,35.0936,18.7966,45.3365
-1976.5625,-46.6613,-49.7174,65.5630,-165.9599,-39.5812,-63.9851,-10.5549,-35.2972,147.6203,2.3762,65.7221,-99.0281,67.1825,-31.9633,135.3781,10.4411,-46.3884,-18.4439,35.2044,97.6623
-1968.7500,-49.7315,51.5098,62.6353,41.1171,-42.3974,-104.0659,-122.4566,34.3101,-112.7117,72.9566,-11.2819,44.3093,-45.8848,37.7663,-15.6587,155.0844,51.3853,84.5710,-71.8422,94.5299
-1960.9375,30.6125,-6.8612,71.1138,-17.4281,39.1982,-168.7494,-39.9414,-66.7012,5.3642,-139.0805,108.1341,-55.9976,35.4632,-63.1227,103.7421,-19.8922,37.9428,58.9678,42.5188,139.7943
-1953.1250,-86.4781,-89.6940,57.1425,5.5782,26.3378,-256.8918,55.1264,-44.1523,27.9723,-5.5485,20.0949,76.2258,22.3587,-40.4592,52.6897,148.6977,11.6148,12.9124,-74.5722,162.6031
-1945.3125,-156.8088,-19.7904,-13.0882,75.3305,-43.7766,-180.2834,-51.0473,31.1554,-6.6733,69.7358,-13.1854,80.1589,62.0229,-38.0484,130.3978,115.0298,6.3742,46.6066,-109.9024,92.1506
-1937.5000,79.8991,-133.8650,-22.2663,-109.8630,57.1549,-189.6238,49.8488,-15.4855,131.7312,60.0803,51.5896,-38.8827,89.7483,-83.5785,157.1544,-5.5921,-69.9775,-102.6638,-14.1826,82.7486
-1929.6875,43.7496,41.2008,-58.2914,-5.8762,21.2210,-78.8011,-23.1082,132.0332,-52.7369,207.5894,-58.4950,35.2054,16.6044,63.0511,-98.9361,105.9444,-29.3532,-102.7839,-119.3167,46.4895
-1921.8750,-88.3169,-20.7043,-85.2565,-136.8540,-6.6718,3.0646,23.0037,104.5844,103.8604,106.1164,61.4953,-138.7003,62.5213,-39.2908,57.0602,3.5002,-100.0274,-93.8728,99.6243,55.2766
-1914.0625,-160.9149,-233.1647,-51.7574,-209.3922,27.8807,0.3662,130.5810,101.5799,136.9083,176.0966,21.9338,-141.1643,22.8880,-5.1730,91.4977,111.5108,-138.9271,-96.5378,97.0152,52.5063
-1906.2500,-153.7958,-225.9133,-114.5456,-62.2125,-34.8732,158.3524,67.8528,185.2691,0.6477,186.7677,-3.9225,-166.9375,-3.0429,78.6463,64.6289,84.2215,-90.7289,15.4844,34.0893,-10.5764
-1898.4375,-53.4626,-301.4639,-49.1053,-136.8284,-6.4216,186.5166,60.3314,66.1377,102.5835,67.6197,61.4500,-248.5270,99.2446,70.6525,56.9697,-34.8745,-91.5065,-60.3196,99.3405,54.5408
-1890.6250,-106.0717,-143.9514,-32.5935,-50.3561,-135.9254,239.7143,-106.1556,192.0491,-101.4719,193.5194,-70.1242,-49.0702,-32.4104,233.7162,-146.6407,202.0821,-42.1130,-9.0767,-60.3873,70.7047
-1882.8125,-170.4191,-32.1973,-23.8251,-43.6355,-238.1726,248.1538,-171.3926,163.1927,-58.2869,91.6486,12.5785,-113.4011,13.2041,168.0344,-28.9823,136.2688,-40.4777,-2.5901,17.1431,42.1158
-1875.0000,-113.1537,-115.8618,71.5465,-22.3236,-179.8087,122.1821,-113.0096,110.9353,-37.5103,112.3816,33.8782,-92.1495,-2.5839,188.9543,29.2801,121.0677,-15.7156,-121.5241,-67.7178,63.1209
-1867.1875,-73.3346,-3.9849,44.4701,124.5468,-206.8851,93.7635,-214.0696,156.2299,-211.1893,157.6600,-30.2764,-10.3699,-66.8146,308.4172,-71.9049,129.4161,42.5446,-45.9115,-97.0253,-1.3351
-1859.3750,92.4874,-85.1250,70.4015,-25.5975,-107.9536,10.3387,-151.1205,71.5137,-1.8635,72.9288,69.5826,-166.6176,-40.0314,150.8760,-45.0773,-65.2408,3.4609,-91.3143,103.6734,-11.7882
-1851.5625,28.0592,-114.5205,115.0844,121.0166,10.7295,-19.3369,-107.4306,115.5541,-68.8084,153.9628,-69.8202,-50.1412,-69.5023,158.1051,-220.4974,125.8679,73.4903,-85.9742,-30.8746,-41.4985
-1843.7500,-67.0620,-68.6252,53.0646,165.9094,58.7136,28.2826,-58.4273,52.8936,-94.4315,-18.7146,-57.9042,-75.4063,15.3414,132.6234,-25.5924,26.2499,68.9998,-40.3484,-21.1088,-66.9125
-1835.9375,-21.6748,11.7662,61.5427,70.2929,141.1878,-36.6017,-12.9177,-49.2705,-86.5551,-121.8829,-12.4679,-30.1728,60.6816,103.6284,92.8117,-1.8705,34.3511,-136.2319,-81.8463,-21.8254
-1828.1250,-61.5285,217.8974,20.7661,241.4328,62.3875,68.2766,-164.6628,-17.6711,-347.9435,-90.2865,-54.2870,111.7916,19.7653,172.3946,-59.0341,102.7660,104.1629,-71.3560,-190.8334,-27.0016
-1820.3125,-9.0783,59.2801,36.2867,117.8557,78.8725,47.4700,-76.0872,-148.7711,-149.0056,-221.3960,108.2025,-56.9641,145.1485,77.4671,67.4411,-29.2957,50.7146,-123.1940,-34.5105,25.1149
-1812.5000,-58.6462,9.6476,20.8042,104.2878,100.3423,-42.3294,56.4811,-127.8553,-92.0841,-54.4848,-17.3229,38.2981,19.5233,61.5574,51.9099,102.6714,31.2630,-138.0383,-83.1961,46.2277
-1804.6875,-43.0028,61.2299,-108.4818,119.9217,6.9968,12.0628,74.2420,-75.7426,-1.9634,-74.3836,0.3717,-55.2564,0.1049,-32.1576,179.5993,45.8251,-3.1935,-121.6924,-32.6869,26.5407
-1796.8750,-66.3411,-33.1809,-100.7568,-44.4505,-22.3502,-17.5695,118.0019,-67.6414,152.1596,-30.2890,44.0775,-120.8360,43.6884,-60.8590,186.2735,88.9837,-81.1222,-217.3568,47.8169,106.8645
-1789.0625,-205.3836,108.7041,-135.7286,26.4966,-130.4059,20.0939,-26.9543,79.7726,-30.4371,155.1231,-99.9165,26.8601,-27.4335,160.7499,41.2327,237.4558,-66.1448,-145.7239,-54.3771,108.4880
-1781.2500,-70.8661,-1.8953,-106.1438,-119.0169,-173.9051,13.2876,-107.3499,71.7342,71.5390,73.0796,38.6626,-52.9295,38.0042,41.8843,181.7767,45.4722,-106.1801,-116.5663,43.9951,137.6569
-1773.4375,-25.8506,-134.0001,-23.0571,-40.0270,-201.8988,-51.0349,-208.2357,117.2005,7.0070,155.5612,10.7332,64.7719,-25.0684,50.5172,42.8279,202.0018,-52.5128,-72.9196,-16.1357,146.3168
-1765.6250,-86.3803,-19.6572,-47.5268,75.4156,-225.4452,34.0916,-268.6778,166.1293,-90.0797,131.4906,-49.7317,77.8953,-85.6902,63.6021,-17.6647,140.9710,0.3352,6.1807,-7.8125,85.4172
-1757.8125,32.5623,30.1213,-68.5353,-49.6970,-63.5420,-97.3381,-106.6621,33.5078,-3.7067,71.8704,2.2664,55.4432,1.1411,-67.8658,-38.7101,-28.6057,-42.9981,-48.2958,77.9524,99.9680
-1750.0000,-69.6901,208.7128,-100.7351,128.0117,-59.8495,-92.9687,-175.8691,111.6988,-182.5689,223.0635,-102.9325,169.7749,-67.2349,45.4880,-217.9729,85.6304,29.2555,59.0244,-60.5009,67.3167
-1742.1875,-15.6288,156.5965,-80.6253,41.0137,-38.8553,-109.3106,-190.7820,22.1807,-125.1339,23.5482,65.1845,7.3808,64.7064,-43.8584,97.0908,-113.8499,-3.6694,76.6243,63.3433,14.9646
-1734.3750,69.0268,31.0830,47.0777,-50.3769,87.7322,-166.0562,-28.0980,-72.7269,-110.1057,-34.3447,44.8972,60.5838,44.2445,-101.5897,187.7293,-61.7045,-8.5516,-50.1859,42.7770,-5.7927
-1726.5625,34.7800,136.6608,120.8695,91.3394,88.4081,-56.6828,-27.3218,-35.5167,-181.9773,-34.1308,-27.2943,96.8648,-66.1171,-101.2137,-142.5462,12.5553,110.5267,56.1012,-26.6817,-5.4553
-1718.7500,48.1334,43.7959,131.2645,33.6399,135.6750,-46.7067,93.0641,-98.7050,83.7737,-134.3185,56.1238,-76.2808,-19.8686,-201.2429,-242.1909,-124.5752,100.0021,-2.0371,91.4659,77.4832
-1710.9375,-34.8650,67.5809,10.3109,162.5946,14.5773,15.9125,83.0928,-37.2389,-0.8384,38.1563,-101.8035,59.2231,-66.9807,-28.6020,-253.1598,47.9446,82.2452,-14.5305,-26.7505,30.0599
-1703.1250,-41.7901,59.4191,-104.5888,84.5876,-100.4782,47.5774,189.1705,-41.7309,141.6128,-114.3341,-31.6506,-56.2552,-34.0392,40.0925,-0.0702,-67.5056,-15.4231,-56.9835,107.0827,-48.3189
-1695.3125,-38.5016,27.4511,-64.2834,-17.2112,-97.3476,-22.5637,265.4452,-39.0249,217.2560,-0.6219,-102.2970,20.4631,-104.9001,7.0001,113.1985,-64.7431,-48.9566,-90.2406,39.1105,-45.4973
-1687.5000,-179.4579,309.2408,-97.2235,158.7585,-240.4814,54.0467,85.4506,74.4333,-0.3740,112.8428,-172.1848,133.9164,-212.0100,46.6592,190.2194,-25.2253,14.6678,-19.7448,-101.1216,-115.9334
-1679.6875,14.5042,185.9182,-44.2576,35.6263,-187.7129,32.5413,-8.6384,-20.2235,88.9096,-55.8031,27.8490,-34.7429,-48.2095,-47.8013,206.1708,-82.8158,-8.8749,-72.3698,-13.4616,-63.4714
-1671.8750,94.1649,-16.6996,35.4129,150.2059,-181.2549,111.7382,-149.0387,58.8346,-90.1284,60.2661,-2.4199,117.2958,-42.7194,141.4407,-228.2025,106.3227,66.5899,-29.2908,-144.1105,15.6877
-1664.0625,-85.9743,-161.1068,29.2815,251.9762,-150.6061,216.1470,-155.2566,89.1132,-131.9708,16.5408,-8.4704,74.5040,-12.0228,98.8871,-87.3957,-10.3425,101.9660,71.9870,-79.5520,46.0495
-1656.2500,-219.1060,-154.5102,73.1524,47.7489,-34.9658,75.5456,34.5122,-15.5979,-89.8281,-14.1663,-75.5174,80.7137,-5.3308,31.3539,287.3958,-3.9911,15.6811,-27.7430,-38.0082,52.4069
-1648.4375,-166.3315,179.9815,-12.0833,65.4228,-46.4274,62.8448,-50.8256,45.5925,-285.7853,10.0245,-86.6505,141.8012,-53.7330,166.7248,128.0978,20.2527,11.5452,25.4254,-89.5616,-70.3448
-1640.6250,118.2916,-28.7074,-46.4649,-2.0632,65.9661,27.9865,-11.3056,-25.3694,-63.8812,-134.9329,63.0760,-3.2757,58.7199,57.9418,-16.3327,-161.6418,-18.0967,-7.5684,52.7302,-68.2445
-1632.8125,2.9172,-144.3964,-18.8496,58.4594,167.3456,-17.8633,52.1995,0.6827,-73.9995,39.1198,-93.1992,96.6415,-23.8334,122.1787,-173.7650,12.4875,-0.7425,-17.5593,-26.9935,-78.1491
-1625.0000,-66.4389,-2.0953,-13.2405,94.9659,172.7200,24.2928,58.7059,-30.2729,-69.1038,-28.8427,-87.4515,28.5314,-55.3801,54.4174,-57.1866,-92.3892,18.7541,-16.5607,9.2944,-183.0535
-1617.1875,138.6038,-80.3902,89.7615,-17.1295,202.4806,-94.1499,198.6049,-184.8214,144.1861,-183.3863,89.6946,-90.1754,11.4670,-136.9237,46.7859,-209.8493,7.3847,-130.1693,36.9708,-190.5585
-1609.3750,63.0383,-14.2801,122.1571,259.1773,123.6283,-62.1825,82.8933,-116.9615,-45.1208,-115.5293,-24.7521,-21.4971,-67.2834,-31.8514,-68.8428,-67.9188,134.7012,-65.3804,-108.9452,-195.6670
-1601.5625,50.1253,-98.5601,106.2063,281.1244,33.4233,-42.5757,66.8351,-207.4481,11.2438,-243.0189,105.4648,-223.1883,-10.3712,-12.1286,25.1796,-195.3371,141.5853,-8.9557,-17.2005,-139.1184
-1593.7500,37.1575,-217.8958,164.2062,409.0343,-54.8448,-57.0168,51.7156,-185.9685,-77.4498,-147.5384,17.6270,-201.9319,-61.5150,46.5499,-173.8576,10.2163,202.7577,-22.5796,-65.5173,-117.6233
-1585.9375,46.6066,-32.8377,177.6020,524.3341,-189.7228,28.9363,-46.0044,-173.0846,-175.7209,-208.6615,-5.7930,-226.3052,-122.2577,22.6220,-123.4780,23.1598,271.3359,22.1829,-126.4237,-178.7321
-1578.1250,217.0697,102.2157,280.9949,306.6324,-197.6133,-53.1150,-53.7276,-291.1911,-109.9872,-362.7635,96.7943,-306.6752,-20.0134,-59.2916,125.8883,-131.8817,231.4231,-125.0740,-132.3445,-149.8433
-1570.3125,134.9277,266.6827,340.7844,401.3323,-211.1164,7.2370,-286.0698,-157.8843,-453.8524,-156.4602,-26.2033,-137.6535,-106.3708,112.1974,-70.3510,1.4839,307.7968,-66.9352,-283.8685,-126.5605
-1562.5000,177.1938,97.5393,272.9798,337.4102,-169.2148,48.9750,-318.0099,-153.1776,-412.2990,-188.7534,90.2192,-279.2455,-27.3204,43.0796,-65.1827,-103.7533,261.5835,-25.4097,-101.9939,-84.8742
-1554.6875,328.7523,-68.3003,209.4726,206.8020,-85.0170,-13.9897,-197.6682,-180.1518,-292.4659,-104.7164,63.9344,-196.5282,-16.9783,53.2813,-201.7307,16.3298,169.8140,-121.5756,-91.8435,-74.8923
-1546.8750,210.5166,94.0443,126.1574,264.3879,-58.6204,12.2495,-171.1302,-115.9200,-303.4111,-78.4893,17.8603,-207.6294,9.5736,80.6822,-212.0733,80.5970,163.8994,-64.5377,-175.4811,-158.7121
-1539.0625,158.7947,-28.1294,109.3426,107.4613,71.2717,-6.0141,-78.0916,-171.1811,-100.8453,-169.7479,74.2937,-298.2284,138.6241,-48.4171,65.0750,-11.6235,80.1753,-116.0135,-121.6210,-140.0324
-1531.2500,17.0750,75.7044,143.5166,175.5401,69.1402,-8.2727,-80.0641,-136.4236,-251.2837,-97.9921,-75.2655,-117.8327,63.6694,60.4953,26.2177,133.1682,112.6897,-118.4807,-229.7707,-142.3608
-1523.4375,100.8124,123.9750,84.1379,84.0536,-28.5521,4.9169,-103.5892,-160.2117,-127.2515,-232.7865,12.6490,-178.9987,114.1682,-0.1529,39.8251,-0.6001,64.3669,-105.5026,-40.4639,-129.2344
-1515.6250,206.9400,-16.3474,9.1543,-21.0247,-28.8608,-32.4930,5.2697,-124.5743,18.1685,-123.1442,48.9542,-143.7660,113.0567,-37.3865,-108.1937,35.0586,-14.0319,-141.1161,30.2325,-93.7088
-1507.8125,-17.8371,40.4169,-39.7359,175.9884,-42.0722,102.2073,-43.7778,10.1828,-178.2900,11.6094,-36.6323,-46.4822,27.0489,60.4812,-157.1094,59.8114,44.8919,-14.6233,-53.9539,-143.0893
-1500.0000,-14.6070,-62.8464,35.3789,37.9930,-4.2822,102.9027,31.1763,-99.0480,-140.7268,-134.6178,112.7896,-119.2191,102.0407,-48.6457,27.9742,-123.4297,11.8193,-47.1418,54.8551,-105.4715
-1492.1875,-0.9250,56.3530,124.9358,122.4566,-62.0609,44.0501,-63.4384,-83.8096,-382.7157,-9.3729,91.6690,79.4887,43.4700,-34.3104,-103.4979,1.7959,77.0298,-34.2113,-72.9025,-127.4099
-1484.3750,220.2183,64.9910,208.9329,131.3513,-88.3947,54.6401,-163.6009,-37.1198,-446.2159,-72.6813,213.0188,15.6166,127.3539,-170.5342,-240.5008,-134.5332,142.2902,45.1596,-29.1986,-153.8945
-1476.5625,467.6502,-110.0787,245.2198,26.5527,-16.4376,-20.4698,-164.4729,-74.1093,-373.4126,-72.6621,286.6620,-22.9503,127.5270,-171.4443,-276.2197,-172.5325,115.5083,-25.1680,6.7942,-118.0792
-1468.7500,343.8290,116.6096,191.2437,219.5003,-70.7423,-0.8168,-364.6072,18.6652,-648.8540,57.1083,159.0610,106.2318,-0.5522,32.4067,-221.1958,-42.7858,176.1837,61.2608,-117.4581,-172.5165
-1460.9375,180.6653,23.9442,165.9194,127.0825,-22.3939,-26.5208,-279.0931,30.0912,-452.6328,-5.4667,208.1152,44.0741,11.0197,-30.0900,-25.5299,-178.3860,112.7252,39.3310,0.9330,-124.2992
-1453.1250,144.0424,-48.1505,161.1412,160.2270,45.4945,-105.6680,-211.0512,61.0829,-458.8810,99.5231,92.7190,221.4831,-30.8705,-35.0204,-213.3350,73.5808,118.2671,35.9597,-107.1450,-56.5322
-1445.3125,124.6727,71.9860,30.6141,140.6088,25.6320,-14.5647,-267.7648,115.3220,-441.8543,116.7514,73.5927,201.1291,-50.5023,-17.7029,-232.8790,53.7923,81.9215,121.8300,-55.9647,-76.5103
-1437.5000,170.2561,-93.9458,-31.9697,-25.0569,72.7114,-41.5143,-148.5337,88.5205,-175.8680,89.9498,158.4095,100.7363,-3.1871,-44.4256,-113.4735,-9.0240,-25.7778,60.6461,24.1482,-66.5369
-1429.6875,54.9848,36.2797,-114.4142,34.4287,26.9286,59.6906,-120.1620,189.8819,-221.7181,228.3063,2.3730,201.4970,-48.7289,20.0035,-195.9111,92.3121,-26.9830,120.6192,-91.5916,-112.4156
-1421.8750,4.3199,127.0982,-168.2618,-85.5058,9.7379,116.4927,-26.1882,136.8448,19.0611,64.2631,22.9447,36.8576,44.3224,-69.9656,-64.7497,-71.7494,-81.1668,105.1814,33.2775,-92.6847
-1414.0625,-2.0008,14.2694,-139.7753,-57.0825,37.8770,70.6523,75.1175,128.1809,84.1916,166.5882,-95.1380,101.5792,-37.2881,68.4390,-147.2559,29.5634,-76.6022,27.0965,-8.5143,-64.6026
-1406.2500,-48.7780,-33.0253,-222.7472,35.8759,-119.4429,207.3652,27.9702,228.0705,73.9039,192.4619,-141.6526,90.8423,-121.3375,132.3933,-120.2107,93.4228,-69.6390,155.5609,14.2551,-111.9657
-1398.4375,-21.7675,-182.5233,-195.9186,-148.3755,-92.9662,160.8712,128.6172,180.7648,321.4302,72.1469,-114.3713,-30.0743,-57.5941,-24.8397,127.6254,9.0995,-145.0350,76.8151,216.8185,-85.5186
-1390.6250,-64.4065,-119.6506,-163.7491,-85.2778,-61.1521,118.7265,123.5992,213.8121,243.3111,215.1760,-191.7342,1.3664,-98.5054,44.2841,12.8125,115.1299,-107.3201,138.4297,138.7278,-163.7204
-1382.8125,-23.7762,-80.5473,-120.3267,-150.9490,55.9192,87.8200,166.8284,146.1012,359.4669,110.4459,-0.8296,-103.9503,-19.1596,-60.3427,-54.7531,-62.5973,-108.7057,143.2909,178.8988,-194.6629
-1375.0000,-14.6946,-70.9906,-40.4583,-142.1588,171.4335,-16.6236,172.4865,115.8524,328.0560,153.1807,5.5164,-24.7995,-13.3710,-90.4959,-195.8935,-19.8540,-68.1017,116.6109,82.5025,-115.1523
-1367.1875,-91.5187,132.6667,-86.4974,-8.2791,163.0453,11.0418,53.2319,179.7043,171.7566,181.0075,-39.0230,-33.5501,-58.4776,-62.5527,-167.9156,-102.0209,-1.2856,214.0328,39.2155,-87.5342
-1359.3750,-16.9979,-39.3398,-84.1897,-250.0595,202.0130,-96.9448,166.3308,108.9075,431.8153,73.1921,110.7912,-251.9393,53.7635,-206.2624,92.4114,-208.8205,-113.5363,112.7967,254.2778,-48.5539
-1351.5625,-9.4332,-32.2921,-111.8396,-172.7824,100.0285,-50.8721,138.4672,265.1730,293.9245,303.4339,-26.3419,-60.2751,-83.9521,-50.9139,-82.2205,56.4311,-107.5536,84.6169,86.3847,-76.5195
-1343.7500,14.5944,26.1880,-161.0393,-183.0774,13.4960,45.6443,15.0567,325.8811,243.5190,290.1135,33.9893,-74.1684,-60.2089,-64.1152,-21.3961,43.1221,-120.7375,107.8757,38.9516,-53.0229
-1335.9375,34.9750,-59.9754,-106.8869,-234.0168,66.3021,-48.4971,-6.0142,268.9455,223.4657,306.1559,88.6631,15.3142,-7.1203,-47.9567,31.7597,60.1817,-142.8199,-14.5175,-12.1456,36.8303
-1328.1250,-76.0382,-65.5401,-149.1444,-98.3696,23.6973,19.9691,-120.4915,336.6122,71.0266,300.7878,9.9527,46.3880,24.5752,130.7961,-119.4684,201.8285,-101.7166,120.6949,-52.6346,31.2903
-1320.3125,-62.3989,-157.4745,-139.7501,-297.0857,32.7471,29.0811,-1.3175,235.9268,264.2593,90.0743,93.8998,-90.8926,144.9197,30.1966,-0.0462,101.1280,-176.4111,62.5485,136.5347,114.4111
-1312.5000,-91.0726,-46.7140,-134.6621,-291.0939,-35.5100,-2.0956,3.5459,239.9545,158.1979,205.0767,-10.4576,95.5383,2.9555,108.3025,5.0568,252.1336,-173.2137,33.1188,2.4006,155.2349
-1304.6875,-107.4418,6.3369,-186.2703,-272.8246,-87.4634,55.0220,-48.2945,188.2821,179.4684,153.3777,47.4982,80.2680,23.2929,56.6968,136.4589,90.4285,-184.0789,86.9977,90.5772,103.3685
-1296.8750,-23.8633,-121.6564,-100.9390,-365.6087,-2.4733,30.0892,35.8048,127.5798,265.6792,165.6552,134.3873,54.9713,35.5715,-39.9423,148.7841,-7.2941,-198.5204,-7.1566,137.6894,115.4555
-1289.0625,-127.9866,-50.3508,-169.3249,-223.0997,-71.1923,145.4683,-32.8092,280.1941,87.2008,317.2404,-44.4238,132.9762,-104.8536,74.7202,-30.5893,181.2778,-150.0296,170.0104,104.1141,46.8393
-1281.2500,-99.0642,-163.0021,-213.6652,-371.5606,-42.8572,137.8875,107.6345,235.8640,373.8038,162.8838,-51.1805,-21.9619,-112.2312,67.4277,36.0898,100.8951,-228.6843,127.2241,272.5951,39.2793
-1273.4375,-177.5545,-171.0320,-184.4182,-344.4133,-13.9302,93.9113,172.6619,265.1543,403.0024,229.1462,-167.3490,116.7261,-157.0274,169.7524,-81.6486,166.1339,-223.2495,84.0524,158.6632,31.3173
-1265.6250,-244.1909,-98.2185,-179.3324,-200.4358,-9.1554,61.7955,103.5325,233.3039,371.0714,160.2592,-125.6588,158.2608,-115.9709,137.9302,-77.5373,61.2224,-167.8053,121.7362,126.5888,-0.7872
-1257.8125,-108.8890,-208.4805,-77.3083,-311.5100,92.5628,-93.3612,205.3457,114.4234,509.0981,115.3563,-60.0301,112.7689,-14.9665,-17.9286,-84.4927,15.2861,-177.2583,10.3714,191.4531,64.0690
-1250.0000,-133.7514,-58.8947,-102.4482,-160.7390,67.1263,-118.6574,142.9993,162.4139,336.9843,237.3115,-157.5500,234.1291,-40.1087,-5.9342,-183.5897,174.1993,-118.2851,55.8632,-9.8277,38.7799
-1242.1875,-21.0202,-85.7105,-131.9946,-258.3945,74.2932,-148.3586,114.2589,97.0014,418.5027,60.8703,33.5389,20.0955,41.3525,-144.3449,153.9250,-2.2923,-163.0514,27.9472,68.4968,46.1034
-1234.3750,-39.2966,-71.4996,-81.5477,-279.0370,87.4517,-172.0575,127.5008,73.6046,395.0101,111.4473,47.6164,33.0872,-54.1989,-56.7379,168.4201,48.2338,-155.3426,-27.9585,-22.2001,96.4312
-1226.5625,-118.1166,131.1608,-163.6588,-146.2397,5.0547,-69.2977,8.1820,175.6563,202.9941,140.4602,-32.8418,-12.4660,-99.2984,44.3080,123.3676,40.1989,-100.9722,104.5918,-30.4356,88.2202
-1218.7500,-41.0918,101.6596,-157.9243,-245.5956,-25.5013,-64.6911,13.7100,70.5599,281.8386,71.3317,45.5480,-154.1449,15.4538,-22.7919,238.1520,-63.9742,-140.5479,4.9982,81.1756,129.8739
-1210.9375,-23.0741,190.1671,-100.2070,-86.9529,-78.0671,-44.0696,-38.7738,129.4716,119.6844,166.2024,-6.0655,-132.8082,-36.7897,71.1108,38.9337,66.8552,-54.1342,-12.5761,-75.2109,77.5296
-1203.1250,109.7605,146.4705,-35.6971,-130.5392,-86.8288,20.3492,-47.4558,84.1812,221.3488,10.8662,170.1307,-362.6655,-9.2269,-47.1937,67.5262,-87.5231,-34.1187,-56.3476,56.2145,68.9932
-1195.3125,192.9841,194.1899,50.2074,-152.7194,-111.1958,-39.8251,-34.7532,23.3058,234.4063,97.9557,147.7113,-387.0912,-68.2791,-144.0767,43.4928,-38.4839,-5.5625,-148.7067,33.0242,81.8630
-1187.5000,213.2932,425.0069,111.1991,-28.8118,-124.4634,-15.8922,-84.9538,84.5336,74.5843,85.1359,98.3994,-362.4124,-154.2264,-119.8539,-79.4390,-51.3547,92.4510,-94.9529,-53.0554,-4.1569
-1179.6875,381.3466,205.5579,174.9408,-142.1691,12.0314,-99.2203,15.6014,-72.4920,249.5260,-71.9267,236.8345,-482.9656,-55.4176,-202.8819,21.3859,-207.4725,63.5383,-173.4496,44.6160,22.5849
-1171.8750,414.5890,238.3103,172.8774,-74.3204,46.7337,-174.3413,13.3458,-37.3113,173.6680,0.2084,88.4572,-338.3021,-57.4078,-130.7083,-54.5953,-99.3815,81.6372,-245.7258,-28.5166,20.5332
-1164.0625,463.4862,427.6931,78.4634,-165.8479,62.0944,-195.8197,65.7458,-131.4930,226.4883,-167.0234,140.7414,-359.9861,-4.7383,-115.8981,-1.9164,-230.6543,26.4968,-232.3486,56.0241,-0.8495
-1156.2500,400.1351,363.8363,81.7926,-228.6287,139.2076,-302.5504,178.8875,-200.9205,340.0562,-200.4940,108.7607,-245.8932,-1.3311,-111.3306,-34.4994,-153.1627,-9.1759,-260.2061,27.3090,76.5225
-1148.4375,169.3346,308.5356,-12.3394,-38.8710,44.8806,-212.7224,122.5783,-109.7985,284.1910,-146.4236,15.3340,-193.2582,-21.3710,-58.2182,18.4786,-63.1385,19.1482,-104.4951,-27.8439,56.4450
-1140.6250,238.5199,25.2110,21.5284,-215.1323,78.5784,-251.8862,266.2792,-222.6743,538.3410,-296.3439,123.9025,-343.6159,86.5954,-281.1077,383.4552,-249.1171,-57.9003,-176.7804,147.0044,90.3791
-1132.8125,167.2801,-10.5072,91.9890,-146.7865,111.8825,-255.4378,262.5639,-188.9399,388.0761,-115.6585,11.0627,-126.3424,10.1610,-210.3833,233.0160,-68.4827,-13.7212,-178.4431,-29.5531,123.9177
-1125.0000,83.8999,80.6172,41.2935,-54.6156,24.0444,-123.1377,63.7030,-130.3677,263.6856,-130.1435,34.0846,-67.2135,32.5884,-150.8175,145.4467,-83.0154,18.4263,-51.2612,-43.2465,146.3196
-1117.1875,139.7737,-4.0102,60.8399,-175.1990,6.4546,-177.5877,83.0874,-221.5444,356.5477,-147.3662,90.3428,-11.8041,124.2566,-131.9853,164.1145,-137.2826,-36.9264,-100.8250,12.3005,201.9867
-1109.3750,92.7842,53.5087,13.5304,-116.6388,-77.9882,-114.8746,35.6111,-121.5648,199.5680,-47.4369,7.7506,160.7648,5.0792,4.9994,79.9215,-37.4061,-36.1536,-43.2251,-69.9916,154.8168
-1101.5625,100.2419,-149.5382,-16.3284,-215.6433,-107.9808,-70.7111,78.5890,-114.1341,280.0602,-114.0531,87.6103,56.7958,84.3515,-61.5725,271.1630,-140.0755,-101.2304,-36.1733,42.1800,162.1126
-1093.7500,-154.3036,-159.5603,-27.1977,-154.6405,-117.9878,29.4570,68.5523,-13.6948,159.5435,23.3390,-68.5434,230.8588,1.6123,1.8648,150.3936,69.2628,-94.9596,-10.0973,-36.6571,188.4128
-1085.9375,-278.2438,-2.9901,-83.4721,-33.0588,-174.3917,156.2194,-23.8782,40.3310,30.6535,4.3057,-123.0824,247.5204,-17.5135,55.8892,-14.7392,86.1752,-41.8805,146.5894,-20.8756,169.3187
-1078.1250,-255.3908,-156.6318,-25.9407,-151.6804,-79.9815,139.7791,33.4970,-48.8462,161.5655,-84.9230,-64.8352,195.0029,3.1614,3.7189,5.9288,34.8917,-71.7646,98.0863,72.6946,227.0333
-1070.3125,-329.0499,-53.7616,-63.9174,57.2039,-82.0626,175.8496,-78.6319,-12.5211,-59.0266,24.3392,-213.0922,378.0006,-144.6646,149.0442,5.0843,143.1023,-0.0316,166.1101,-71.2333,189.2585
-1062.5000,-300.0615,-131.2458,-71.2501,49.7206,21.5248,168.5634,-49.1049,-93.5611,44.0479,-166.7561,-72.6981,259.6656,-41.8356,69.0016,180.8870,-47.0413,-8.4768,158.7873,-8.4959,182.1536
-1054.6875,-247.1313,-219.7714,-16.6356,31.1863,148.0721,112.2273,-31.6346,-148.6482,-10.9355,-111.8871,-90.3694,351.3081,12.9396,50.9169,52.6283,7.7748,-2.6249,105.4313,-60.8169,200.0019
-1046.8750,-175.7458,-113.8659,-12.5755,137.0813,152.0860,153.3439,-64.7028,-145.2921,-117.4477,-145.5824,-123.5848,318.3807,-19.8208,53.2848,-17.1621,-61.9781,65.8549,176.5370,-24.6679,130.3060
-1039.0625,-63.7709,-213.3725,101.0867,2.5661,230.7113,84.0691,49.8314,-250.3290,70.6434,-287.6706,29.7846,176.0668,58.0200,-87.7429,60.6411,-204.1207,49.8577,42.2503,51.0779,172.2256
-1031.2500,-128.4618,-137.5166,106.0883,112.4076,198.6936,89.1593,-18.2983,-208.0182,-106.9212,-208.4147,-75.5010,291.1233,27.2150,-8.4211,29.7831,-51.9123,96.9873,82.3382,-83.8268,177.5020
-1023.4375,-178.3019,-81.8342,55.9385,98.0705,110.5537,112.0968,-69.5631,-295.8740,-9.6096,-369.3252,58.0713,204.0359,122.2734,-96.2564,198.7849,-138.8712,69.9360,139.2727,8.1380,163.6400
-1015.6250,-160.3571,-134.3643,109.5872,80.5375,91.2260,20.8348,21.9787,-313.9276,8.4960,-278.4291,3.4274,257.7736,67.1330,-41.2878,33.5881,-11.0246,67.1758,51.0184,25.8995,181.5815
-1007.8125,-257.0158,14.5078,46.6343,264.3903,-7.6930,102.9810,-42.0764,-156.5910,-128.9856,-84.1501,-96.8135,341.9167,-69.5943,78.0657,-251.1915,108.1963,128.6439,130.1719,-71.9234,154.9302
-1000.0000,-197.1673,-173.1180,-1.8165,77.7254,-20.1033,54.6273,19.3713,-131.7568,43.0372,-132.3615,-34.5714,219.5844,-7.8242,30.9227,-5.4929,23.9221,15.5910,48.8299,57.7544,179.7933
-992.1875,-242.4763,-112.8734,-10.4224,101.9153,-65.6653,45.1358,-26.3504,-30.0637,-75.1011,41.2829,-152.4959,321.1267,-90.2176,57.6412,22.0385,198.4988,13.0754,38.3573,-57.7130,134.5132
-984.3750,-261.2346,-61.0980,-101.4786,83.6278,-119.6664,139.1878,-44.5173,25.1620,-19.6732,24.4604,-132.8634,230.2212,-70.0503,3.8988,78.1501,107.6078,-19.7790,90.4406,28.3940,80.7982
-976.5625,-142.5022,-119.8408,-52.0339,-10.1562,-70.1588,40.7306,77.8142,-35.1095,67.2443,0.1455,-119.7422,279.8421,-94.3789,16.6580,16.7543,46.2309,-49.8452,-37.9579,76.9969,93.5953
-968.7500,-168.4301,99.7620,-41.2470,104.4011,-131.2893,53.6173,-20.4989,50.9627,-139.4806,87.1673,-143.2721,328.8227,-155.3425,139.7523,-153.2842,59.1934,12.2206,7.0182,-20.0368,32.7532
-960.9375,-118.4118,-26.6902,10.4854,12.8882,-44.4469,-5.5568,31.1543,28.9738,-15.2416,-8.8595,-18.8620,122.7697,-67.3499,-29.2153,7.6297,-108.9018,1.9805,21.9571,100.8887,47.8744
-953.1250,-184.7567,-58.4812,-21.1386,122.0327,-1.9372,-37.0703,36.4525,144.6409,-119.3722,180.7667,-195.8217,239.3849,-98.7107,50.4728,-169.8213,115.6548,30.8860,95.5751,-71.5362,16.6492
-945.3125,-221.7010,45.1118,-130.3620,225.5614,-37.0034,74.8255,-35.8436,183.6893,-191.0931,182.7637,-230.3755,240.3935,-97.6526,88.5534,-241.8608,154.5846,43.8419,199.6102,-108.5400,-55.1663
-937.5000,-237.3499,28.9951,-111.2784,139.3954,55.2496,57.0329,-53.8388,129.0256,-135.5369,202.0614,-173.6403,296.7255,-115.2924,70.9410,-185.6057,246.8213,-2.8760,77.9574,-159.2536,-35.6774
-929.6875,-358.3992,188.4877,-198.5986,298.8277,-68.8810,116.8566,-251.2398,261.9466,-332.3914,334.9413,-261.3118,503.6658,-275.3291,277.9244,-236.7356,416.6460,16.2743,132.9248,-280.3578,-86.5912
-921.8750,-322.8524,118.5749,-198.3185,192.8405,-142.3835,117.2807,-251.0232,188.4521,-148.6377,187.4031,-151.3902,356.2180,-165.7551,278.5074,-90.2623,307.0623,-42.7915,63.4943,-139.8519,-85.8964
-914.0625,-288.7774,46.2219,-200.4990,191.4140,-181.3266,77.2671,-181.2617,222.5081,-151.3531,258.4209,-188.9407,354.3556,-167.6275,349.6556,-130.2581,341.0400,-55.5055,-8.3724,-175.8004,-51.6467
-906.2500,-219.4532,186.1013,-165.4335,225.2137,-255.0069,113.4994,-182.2370,185.8015,-187.7928,147.6697,-117.2376,169.7417,-95.2319,275.0409,-93.9857,156.2425,1.8259,26.0129,-106.4672,-52.1397
-898.4375,-54.4339,34.6704,-32.6608,108.6971,-194.9711,26.4229,-49.4959,-12.2146,-54.5277,-50.3775,54.1527,81.8491,111.8655,41.1279,39.9815,-41.8575,2.6750,-54.8965,-10.4289,8.0735
-890.6250,-147.0679,80.5954,-56.5405,260.5309,-218.5785,75.7052,-110.4095,74.1193,-260.9218,72.9193,-80.1140,242.3138,52.3129,127.5723,-57.7124,118.3802,59.2607,62.5697,-174.0336,-15.3593
-882.8125,-148.6948,78.5000,-131.4159,188.3427,-183.1757,110.9835,-38.3207,36.4405,-152.3075,-38.7911,-7.3815,93.7844,50.7634,53.0076,51.6089,6.6043,15.7539,96.0500,-71.6207,-16.7780
-875.0000,-100.1850,22.5619,-81.1498,167.3102,-132.6254,88.4181,-24.0886,13.9166,-137.5675,49.6592,-66.5169,145.4286,28.3578,103.5976,-117.9138,57.9904,23.5598,40.7072,-127.0607,-2.0460
-867.1875,-62.2313,130.0698,-38.4384,309.7150,-90.6120,131.3085,-166.4015,-17.1644,-278.3717,-18.4495,-97.2012,151.5262,33.4116,146.6190,-185.9809,25.8069,119.8261,148.8337,-160.0275,-69.8601
-859.3750,-19.0855,-3.2284,41.4776,176.3168,62.6203,27.3908,-123.5038,-158.0473,-161.9845,-195.3466,57.2937,46.8479,113.6724,42.8351,114.1322,-115.1714,77.9996,16.1667,-81.7916,-26.4615
-851.5625,-99.4543,56.9935,67.8879,236.4271,90.3610,-19.0302,-133.1140,-131.4275,-281.1170,-95.7467,-99.7277,185.6863,31.4297,143.5544,104.7424,96.3481,104.4440,7.0288,-195.0560,-35.5612
-843.7500,-31.8150,18.1956,64.3008,127.5210,87.1227,-59.4614,-99.7157,-134.8202,-138.2419,-208.1570,8.2547,34.5221,138.1994,30.2582,138.3658,-17.1494,63.4887,3.9059,-23.3049,-38.6553
-835.9375,92.7176,-103.7073,120.6128,5.5319,180.8057,-113.9909,-6.4160,-187.3094,-81.4943,-152.6579,65.1136,18.2748,157.8667,12.8625,10.8794,-34.7405,35.1878,-46.2872,-3.6606,-18.8516
-828.1250,-29.6656,19.4940,105.0222,128.6321,128.6199,17.5832,-59.0091,-56.7089,-242.6454,-95.0783,13.0704,39.1228,142.6488,107.5497,-152.4877,-13.2623,93.0044,77.6439,-90.8950,-70.9483
-820.3125,51.1446,-111.1101,152.6345,32.9200,176.6705,-7.6492,61.6180,-119.9214,-85.5982,-158.2973,97.2146,-96.8175,190.6394,-28.5785,6.3428,-150.5859,61.2514,-52.2214,-9.9214,-59.8409
-812.5000,45.3986,-81.2653,183.6968,132.6649,207.1891,-50.4219,92.6970,-88.6841,-201.1217,-90.0681,-55.2069,44.7007,148.0817,2.7446,0.6179,-45.4647,104.2736,-128.6213,-121.4891,-65.2863
-804.6875,-31.1951,16.7072,139.9135,125.5347,200.8800,-57.0458,48.9477,-169.3197,-171.4809,-242.7053,48.5219,1.3581,178.6917,-114.7884,214.0730,-163.2175,82.1357,-134.8731,13.1176,-71.5768
-796.8750,33.3500,-60.1614,167.2750,-57.4428,229.7303,-139.5154,150.3528,-250.8030,4.2868,-252.1838,77.3716,-43.8089,169.4440,-159.1487,242.6788,-134.8113,12.6186,-244.9641,42.8668,-6.7186
-789.0625,2.6393,119.7190,61.3794,87.3267,86.3298,-25.2177,7.5059,-172.5367,-138.2020,-173.9215,7.9630,-2.2188,99.9519,28.2417,26.0368,16.3316,52.5250,-135.2778,-58.6212,-2.1108
-781.2500,69.7230,-59.6160,54.2841,12.8864,43.7368,41.8777,-72.5350,-252.4747,-34.8864,-290.8528,185.3460,-154.8185,204.2615,21.4250,93.1892,-99.7233,15.3075,-137.7789,79.7002,65.3076
-773.4375,100.6350,-133.0883,84.0306,115.3035,-34.9997,71.8233,-152.7288,-185.5529,-150.7412,-186.9254,68.5536,-50.5481,87.4176,162.4577,-96.8112,76.0725,77.4950,-70.4006,5.8795,132.5732
-765.6250,96.0502,1.9212,42.2757,110.2050,-76.2150,141.2605,-267.4070,-154.1497,-118.0869,-228.5172,28.2658,-91.7824,46.0887,83.9734,-64.2923,-37.6554,96.7083,65.4911,107.5840,128.3384
-757.8125,93.8564,-140.6698,150.9261,-68.4839,104.9936,28.0997,-85.6823,-266.3503,25.9399,-230.7021,26.3501,-167.5961,81.1618,-64.0980,6.6100,-113.9771,57.8867,-6.2009,245.6793,126.5016
-750.0000,-30.0526,-54.9456,171.8676,53.1341,163.5159,13.2537,-101.6650,-171.2537,-171.7558,-99.5942,-98.2767,-109.1078,29.5382,30.1330,-82.1797,16.9889,115.3701,81.4316,122.0816,37.9597
-742.1875,122.2385,-114.0466,111.0123,-146.0661,251.2678,-10.3928,-15.4277,-231.9711,-49.2506,-233.2894,61.2857,-242.4216,116.1219,-103.4413,114.2425,-152.8569,18.9016,58.2779,239.7025,14.6163
-734.3750,143.1127,-163.5526,95.7586,-196.6566,235.6471,-63.4301,79.4164,-174.0810,-137.1740,-102.3700,8.4237,-75.1242,101.3034,-82.4108,99.2479,-23.0973,-19.4584,44.7469,119.9213,35.8615
-726.5625,69.9462,-97.1245,18.4562,-95.3093,159.0078,44.4913,-34.7832,-68.2530,-251.1492,-69.5171,5.5180,-77.9012,98.4480,-85.4413,96.2174,10.5868,3.8098,147.1737,82.1176,33.0487
-718.7500,83.1305,-330.3592,29.5081,-222.6101,207.7407,-18.2333,124.3767,-129.0764,-55.7893,-130.3082,53.9364,-212.3307,182.9467,-184.1144,217.5343,-87.3826,-58.2184,90.9687,236.6643,81.5802
-710.9375,48.5950,-189.2867,68.8546,-152.5996,210.7863,-52.6448,162.8439,-90.5993,-200.1543,-91.8070,19.6385,-135.4611,112.7550,-71.4861,110.1543,-13.0613,-12.8447,92.0906,61.5171,47.4035
-703.1250,135.8477,-102.4177,14.0036,-170.7996,156.6524,-70.2585,182.1301,-144.3410,-143.7173,-219.5207,149.1358,-226.7892,205.3844,-89.0678,165.5814,-139.9570,-40.8082,40.0176,79.1837,30.0259
-695.3125,151.7379,-156.8850,66.8045,-119.3273,136.1808,-126.2213,161.0613,-128.4362,-127.6602,-93.5803,55.2584,-100.4466,184.6572,-36.9831,-2.3467,-15.1970,-23.7545,-84.3866,25.4910,46.2849
-687.5000,96.0344,68.0286,11.0119,-0.4583,45.1335,-72.7903,68.4037,-38.1537,-220.2019,-2.2624,-37.2202,-8.7111,56.3426,55.4913,-57.8488,2.9340,6.0756,-104.3752,5.2191,-9.0659
-679.6875,209.2938,39.8763,18.1821,-134.6392,16.0670,-102.4165,149.7097,-104.9365,-66.8094,-68.9981,81.2370,-112.0147,99.9783,-85.0878,60.5928,-100.9914,-53.4186,-236.4026,153.8988,-1.4703
-671.8750,139.2970,74.4945,20.1072,5.9408,-92.2344,-100.2923,114.7603,8.0270,-210.7020,80.0125,9.4299,-35.5624,65.3600,-8.9205,25.7782,84.8225,-13.1640,-235.6512,-21.6632,-36.1365
-664.0625,117.3974,-17.7929,34.1444,-51.3941,-76.4057,-85.0722,92.9239,-13.9250,-86.4921,-51.8885,134.7232,-240.0283,154.8563,-104.6764,335.0721,-121.2860,-32.6585,-186.7971,97.9016,-57.7080
-656.2500,231.9914,-219.5752,78.6936,-218.2104,42.9413,-150.3483,247.5894,-43.3771,68.1818,-7.2778,105.4860,-268.9818,162.8517,-132.9244,305.8402,-149.8902,-79.3512,-211.4293,106.9630,-12.7890
-648.4375,149.4405,-162.5238,-43.9064,-126.1722,-5.8469,-89.7588,235.1029,128.0175,19.6931,127.1682,-53.9080,-171.1003,40.7081,-72.3257,72.4713,-15.6664,-67.2491,-47.1900,59.8865,-25.0258
-640.6250,97.7413,-108.6421,-135.6515,-282.2937,12.2416,-72.3153,326.4766,72.2517,184.0419,34.4655,0.5334,-226.3685,58.4138,-163.8724,90.9579,-108.5914,-150.4426,-28.0937,220.6651,29.5814
-632.8125,-65.1757,45.0560,-157.5999,-163.5960,-45.8519,-94.0570,304.6405,123.2862,88.1542,196.5672,-130.2441,-27.8301,-37.0857,-39.6073,-41.7585,16.2803,-122.9530,-13.1733,93.2439,7.9735
-625.0000,-40.9401,67.8889,-168.3925,-141.7605,-54.7683,-66.6481,220.9693,39.4574,78.4161,2.8059,-30.8700,-74.1612,-9.4198,-49.2101,169.6888,-67.7269,-129.4040,-59.0957,153.0005,-38.4906
-617.1875,138.5844,-103.9772,-18.8855,-242.6171,-14.3679,-209.9411,224.6063,-105.0679,154.9519,-68.6399,82.7798,-108.1838,30.5470,-119.5060,246.4241,-65.4268,-131.7280,-194.7023,158.0563,1.3359
-609.3750,157.2597,89.3081,37.7641,-14.3225,-140.8039,-154.0737,23.3987,-48.4465,-83.3763,-11.9388,28.5679,22.9289,-60.3269,10.3403,-28.6788,28.0081,6.0258,-71.1429,0.2766,-15.7006
-601.5625,306.9827,63.6194,47.4760,-39.9758,-130.1648,-71.1614,-3.7460,-112.7857,0.3394,-113.1940,111.3942,-114.9118,60.8545,-126.7670,-55.7238,-146.5104,23.4657,-60.5317,115.5545,-5.6925
-593.7500,195.7353,127.9908,77.2393,58.4459,-135.4652,-40.1993,-46.8502,28.9232,-152.9237,138.5994,-41.7481,-9.6864,-18.9197,-59.8039,-170.7256,-5.9737,71.7152,-65.8498,-30.1245,-11.6474
-585.9375,46.2928,224.1640,33.8068,120.6548,-177.9485,63.5499,-127.1417,132.4138,-232.3781,132.1751,-11.0908,-52.6776,12.1224,-29.0527,-141.9008,-86.6639,80.3589,-2.3667,-2.9814,-54.8092
-578.1250,145.5438,-63.9542,99.0818,-27.4269,-112.7154,-18.0141,-24.7210,49.6054,-132.1438,49.4600,127.2462,-170.9708,113.8605,-74.6021,70.6152,-132.6506,19.6474,-79.1720,25.8609,-26.2788
-570.3125,101.3267,-73.5147,91.9023,69.0541,-118.9165,-25.0224,4.2572,116.3476,-248.3715,116.2960,46.1201,-67.7288,70.1519,-44.6099,63.6757,6.8967,41.4657,-86.3944,-87.7336,-70.2110
-562.5000,228.5151,-16.6992,77.1235,-85.0764,-95.6891,-113.6315,100.6520,-8.5236,29.7977,-45.4731,142.3860,-156.0968,129.8476,-169.2290,86.1435,-155.1671,-12.9262,-134.2049,75.0937,-47.7513
-554.6875,281.3556,35.7612,95.0003,-67.5421,-39.7942,-168.5831,155.7023,-64.7416,11.5875,-27.5808,50.2794,10.1872,1.1867,-78.1963,-5.7499,-137.5832,8.6282,-150.3462,-11.4256,-29.6647
-546.8750,159.1483,124.1561,79.8325,55.9354,-16.9243,-73.5769,29.7159,-43.0178,-114.6711,-79.7500,-1.8765,31.3917,-13.5155,-56.2236,15.3187,-153.0783,65.2379,-25.5295,-27.9691,-81.6436
-539.0625,174.3779,-37.0007,130.1191,-70.1334,107.4231,-97.1146,80.1913,-103.8416,9.4975,-140.4507,84.3861,-101.9501,110.2204,-188.7925,102.8285,-249.1188,33.8991,-44.2485,57.9396,-31.1859
-531.2500,39.3871,109.6486,138.1951,40.6205,116.5902,-51.8342,14.4636,14.1417,-167.5635,14.6523,-54.5702,16.4888,8.7563,-145.5566,-109.8620,-58.3696,102.1389,103.8580,-40.3381,-59.9489
-523.4375,52.9006,157.7765,42.7780,-51.1303,170.2751,73.9467,-6.7423,-7.3854,-115.1214,-79.7507,33.9641,-151.5979,23.7979,-202.8331,-94.0359,-154.1403,61.8923,223.4695,79.9069,-81.2235
-515.6250,161.8085,-15.6899,82.7615,-118.4623,210.3672,77.1294,33.4479,-4.5019,-149.3172,-3.7309,0.8788,-148.2820,-82.7693,-89.6973,-127.8265,-40.4985,40.2877,157.4978,47.5425,-78.1164
-507.8125,85.3763,13.4893,43.4000,-19.1504,172.1172,74.9645,-42.7113,67.0313,-188.8767,103.9352,-75.5560,-113.3329,-158.6793,-18.9218,-129.9603,29.7755,52.7415,188.1826,42.8486,-154.3735
-500.0000,63.7545,-149.5316,91.8441,-112.0437,221.6830,12.5947,42.9304,4.3650,6.3428,5.4137,-27.2054,-138.5812,-72.7936,-80.3445,-8.2983,-106.1485,14.9953,131.6706,126.9539,-105.8408
-492.1875,-63.0304,75.3146,69.1388,42.9403,127.1058,27.0844,-89.5816,92.5522,-200.6169,130.7425,-124.0241,23.0138,-132.0593,44.0915,-103.7993,128.7708,68.0301,147.0361,-104.0930,-91.4774
-484.3750,-27.5194,180.4495,-4.2534,78.2306,-18.1482,64.8654,-199.7809,56.0210,-163.2738,20.3612,60.4583,-86.1206,-57.0102,44.8177,-65.9813,54.9617,54.2940,148.7042,-67.8260,-90.8249
-476.5625,69.1312,30.7316,59.5112,69.6968,-64.2316,17.7853,-135.8240,-27.3574,-99.8148,10.1485,124.0698,13.9017,7.1852,71.6974,-186.0167,81.3104,41.1002,0.5331,-111.4201,-64.0400
-468.7500,67.7395,239.9605,24.2277,208.1160,-245.3457,56.6433,-207.9080,47.2048,-246.4058,48.8690,51.6293,199.8522,-101.6661,183.5067,-222.0791,155.5852,77.6956,-0.6745,-218.0427,-136.3237
-460.9375,168.1693,199.9782,-19.2467,62.3306,-286.6377,87.2814,-177.1683,3.5572,-32.1975,-31.6159,118.9780,120.5914,-70.7116,141.1106,-43.3351,-35.3526,-1.6810,-109.0879,-80.8596,-105.8231
-453.1250,33.0939,134.5211,-51.2167,173.0695,-318.4164,165.4221,-208.9329,118.4152,-138.5213,157.4051,-24.1958,271.8223,-176.2596,255.2242,-186.1088,153.2081,17.7322,-102.9894,-145.1790,-64.8431
-445.3125,-56.6884,149.3539,-181.8844,118.1053,-299.8724,218.8635,-192.3884,135.5651,-121.5516,100.7224,28.9328,105.3269,-85.4934,198.6297,14.4327,22.0459,-45.1039,-15.5850,11.8232,-84.5781
-437.5000,-52.2320,12.4259,-177.2966,-88.5871,-74.0570,76.5623,-3.5893,65.9758,66.6416,105.3127,33.2899,-0.9225,-6.4832,56.2960,167.2037,-10.8585,-130.1711,-44.9183,88.0735,-80.0869
-429.6875,-269.5228,5.7402,-145.4659,-26.0270,32.0323,108.5213,-8.5253,207.6352,-49.9190,210.1479,-82.1095,68.0497,-12.2185,88.2143,-58.7772,94.4707,-85.5451,125.0093,10.5931,-122.3704
-421.8750,-253.2695,-119.4082,-166.0822,-114.9262,160.6934,125.0232,45.1132,149.8417,114.0729,116.5422,-65.9751,-136.4468,4.5986,30.6752,30.8035,-73.6487,-101.4815,248.4816,133.6729,-106.1189
-414.0625,-219.0345,-154.5371,-163.7008,-114.7994,237.3555,126.5322,120.7477,189.0595,42.0350,228.9558,-211.8694,-96.9443,-65.5990,70.1469,-40.6211,38.2396,-85.7925,319.9725,64.7501,-140.8917
-406.2500,-236.4876,-102.3799,-179.0138,8.6245,260.3299,222.3444,68.6899,210.5737,62.3027,213.6620,-190.4611,-149.1739,-44.4917,17.9138,-128.7315,-51.6027,-29.4098,374.7673,48.1470,-193.3849
-398.4375,-219.4863,-261.7859,-53.8674,-80.4860,313.7628,163.6097,121.0860,114.5498,224.9996,154.8420,-64.6232,-244.9624,45.0586,-76.8620,-40.4090,-146.9904,-39.0936,252.0193,65.9879,-141.4484
-390.6250,-158.8472,-201.5310,48.9289,50.0673,195.8442,118.5340,3.1227,180.1902,32.3279,183.6788,-110.1456,-142.1157,-73.7498,-11.9825,-11.4356,-8.7290,49.8522,277.9375,-84.5111,-186.8879
-382.8125,-2.9077,-186.9753,100.0298,29.9174,175.2365,133.7526,18.4623,84.1302,119.9467,-22.1809,14.6302,-237.9834,-21.2588,-106.8046,113.8429,-215.1716,73.2783,224.1580,-33.7024,-172.0413
-375.0000,-14.2182,-57.6506,159.8811,89.5544,126.3774,83.7266,-32.4609,33.8314,69.2791,74.7248,-35.8691,-31.0967,-34.0303,-46.8632,-194.1507,-81.8570,114.5891,144.1447,-149.1586,-112.4627
-367.1875,-42.4595,265.7254,95.7796,237.2495,25.5832,92.7415,-170.3266,42.5641,-70.3347,9.6619,-64.3155,51.8218,-25.7520,35.1195,-368.0807,-0.5187,162.7552,152.1870,-176.5495,-140.8516
-359.3750,110.1973,101.0002,68.5884,107.8541,0.7086,28.6448,-49.2834,-57.8122,86.9414,-53.4944,18.1233,-12.3577,21.4196,-101.9973,-138.1115,-64.2741,84.3864,24.1321,-58.0462,-94.3604
-351.5625,-22.6671,38.7838,76.8985,185.9816,-26.6558,37.0510,-77.7445,23.3133,-52.3011,64.8511,-83.9498,106.9556,-42.9054,16.3852,-18.6442,53.4641,92.4393,-1.4031,-155.0352,-86.3941
-343.7500,30.4672,20.5515,95.2144,28.1036,-6.9941,18.4568,-96.1894,-31.5621,38.4623,-63.8007,43.9779,-58.7607,12.7776,-38.2472,146.8296,-75.8185,42.6859,-16.9401,-30.0009,-68.4442
-335.9375,117.8454,72.5858,110.7775,-95.5085,83.9305,-75.8809,-43.3811,-16.1698,17.4541,-11.1773,-13.8718,-80.2383,-45.3061,-22.6184,15.5357,49.1623,22.4764,-34.2155,-11.7280,-16.2655
-328.1250,14.9304,215.3162,3.0317,12.5784,50.5693,0.4894,-114.8679,95.9225,-91.8544,28.1382,-122.0234,-41.0526,-115.6853,16.7078,-93.0394,87.8271,52.8090,110.2182,-8.7389,-14.4063
-320.3125,14.1742,-31.8310,-37.5554,-58.1833,122.3776,-2.9960,-44.1865,19.1632,124.9854,-49.3865,-16.0365,-80.7358,-44.9161,-59.8126,-58.4672,-26.3562,-4.0926,111.8017,97.4031,55.5854
-312.5000,-146.5419,18.0813,-58.0954,62.1245,140.2358,13.5783,-64.4486,72.4682,-6.1415,151.1528,-146.0146,82.6157,-175.1064,66.7241,-261.8553,173.5088,28.5883,162.4454,-28.4021,34.6019
-304.6875,-217.7083,192.5334,-94.0828,25.9708,141.6532,87.7064,-136.1449,36.3200,31.3020,42.2424,-73.4440,-27.5151,-136.7390,-6.1953,-41.6787,99.9046,9.2510,162.6325,7.3581,-1.8509
-296.8750,-119.9834,42.8921,-30.1686,-88.2662,169.9706,4.7409,-72.9460,26.0870,93.6263,69.2622,-46.9950,-37.7527,-146.4846,-53.2029,-14.6158,89.2153,-19.5712,120.7265,70.0102,24.5722
-289.0625,-81.4467,47.0602,-58.4507,-12.6952,143.0976,49.5839,-100.9533,144.6562,-45.2578,188.0756,-112.7456,-29.2215,-138.4334,29.5882,-152.7487,134.3047,11.9038,232.6289,-29.5216,-41.2264
-281.2500,-105.8529,-118.7285,-47.6732,-37.0710,155.2897,60.4681,-52.8954,118.2723,74.9061,124.9393,8.5485,-129.6578,-54.3410,3.4303,-141.8409,-2.5555,-11.6647,209.5811,52.0038,-30.9869
-273.4375,-152.1344,-130.3544,-21.7428,127.7331,72.6285,86.5025,-63.6945,144.0484,-9.7996,223.9623,-114.0228,-29.9489,-174.1063,65.4284,-225.7872,169.7439,54.2100,199.7018,-28.3275,-42.6156
-265.6250,-31.8119,24.6022,-42.2067,177.1365,-57.4219,66.1245,-83.8822,86.4142,5.1096,19.5782,-60.9909,-87.6650,-158.2689,-27.9877,-26.1078,0.6287,80.7690,180.4250,56.9555,-63.6595
-257.8125,77.5244,-6.4335,-2.6661,5.5638,-53.4629,-41.2626,65.9288,-58.2115,154.9982,-50.7866,-21.9797,-48.3801,-82.4415,-62.3916,50.5536,-107.4784,8.6676,10.1493,168.2184,-24.7234
-250.0000,21.2682,112.9543,-21.7275,160.4089,-144.1014,-23.2500,10.1321,32.5687,24.2799,114.2499,-152.5722,79.2876,-174.2152,65.6022,-153.3901,56.8005,58.4196,25.2755,41.8847,-81.4057
-242.1875,-21.5389,34.7922,6.6694,117.6983,-150.2777,42.1955,39.7956,24.7961,127.0229,32.7440,23.2804,-38.6093,-108.5417,-14.9612,-86.8823,-25.4698,36.5404,-16.1585,70.0105,-89.6500
-234.3750,-47.9566,7.0391,89.4607,232.4056,-140.0519,-21.9625,11.8632,70.4419,-12.8473,115.6593,-4.4813,79.8851,-136.4846,-6.1223,-151.9753,56.6702,104.7746,-6.1833,-60.4680,-81.5197
-226.5625,-4.3685,121.2707,65.2517,276.1136,-126.8077,26.8736,-85.0485,46.0807,-110.6981,54.5702,43.7636,18.3414,-86.4194,79.7013,-102.0484,-42.2165,125.0933,38.7872,-85.9272,-143.4091
-218.7500,108.3264,92.5921,72.1432,71.9309,-7.4488,-76.1916,69.1496,-21.1713,42.5448,-12.3994,50.0928,-49.1123,-42.2648,12.6336,14.9643,-108.9978,39.1268,-129.1423,26.7074,-137.2136
-210.9375,-0.1345,124.7741,32.8759,175.6057,64.7575,-78.3941,67.1942,87.4386,-34.3656,96.4875,-136.7370,59.2649,-44.2647,84.4155,-134.1808,35.0712,67.6756,-94.2092,-79.7971,-140.1878
-203.1250,-38.3994,-19.8538,25.8128,66.4750,96.1698,-48.3944,97.4521,43.2503,68.9415,-20.4214,-33.3666,-58.1830,58.9360,4.3867,-30.1169,-45.6618,21.1230,-62.0844,22.9031,-73.9727
-195.3125,-71.9312,-158.7211,63.4981,-1.8802,172.3245,-121.6369,135.4558,43.8273,105.9763,90.4374,-107.2629,-131.8807,23.8775,5.1265,7.6924,101.3746,0.1318,-93.2053,61.3337,-37.0237
-187.5000,-134.3056,-10.4333,0.3299,5.9087,146.6192,-74.7274,71.6074,127.5563,41.1686,137.4464,-98.0006,-159.4570,33.9656,-21.9828,90.6683,36.5400,-9.1727,-49.1778,-0.0701,-64.9385
-179.6875,0.6807,53.2018,-44.4807,-140.9474,140.2611,-119.4740,64.1064,9.6485,143.7144,55.8324,114.6046,-130.6966,63.3884,-175.7375,193.9717,-118.9346,-84.7570,-122.8063,64.8762,-36.5172
-171.8750,12.7127,135.8810,-65.2414,-57.7340,10.9463,-103.1651,6.6532,98.8081,-25.6891,219.2878,-16.7506,32.0933,-31.1502,-13.4375,-10.6888,6.6432,-56.6717,-39.3762,-27.1201,-95.0671
-164.0625,-14.6505,3.1409,-92.3970,-14.9293,-88.7587,16.7316,53.8182,71.5710,94.5366,45.3482,65.4932,-68.5471,-21.0910,32.4570,35.2650,-21.1901,-57.5652,39.6450,16.4955,-123.0323
-156.2500,-60.7685,-150.3294,-70.3036,-25.8524,-65.2145,2.8792,76.2261,56.6043,115.9933,104.6808,-23.0351,-9.9348,1.1985,54.6133,57.4538,111.2404,-75.7106,-41.0806,6.3451,-64.7685
-148.4375,-47.7307,74.3582,-131.0582,93.3850,-159.5220,52.1849,-20.2277,106.7920,-18.4030,81.1541,-84.4049,75.8025,-59.3555,104.9230,107.7928,86.8073,-26.9437,9.3427,-85.6498,-52.3720
-140.6250,14.2062,100.9432,-141.8987,-90.4705,-133.9196,3.3835,41.2190,-16.1191,189.0946,-77.4621,13.1189,-47.5651,1.9858,56.1441,133.0169,-36.7193,-87.9336,-31.3386,48.2500,44.9119
-132.8125,-113.9538,42.4411,-129.8400,-43.4002,-120.4145,-21.5164,16.5633,69.8757,126.4803,118.8255,-84.4662,0.9597,-21.7844,142.2697,-38.8610,121.6503,-78.5571,-18.1133,26.0415,56.0730
-125.0000,-154.1986,-69.1730,-132.8777,-48.4292,-84.9991,12.4784,50.8250,66.7621,233.7898,42.0022,-16.1402,-112.6453,11.3460,65.2736,105.1750,44.9054,-94.4763,-22.9992,92.7435,15.1203
-117.1875,-115.2569,-206.5722,-93.7186,-149.2348,28.6193,-94.3277,201.2969,-4.1435,346.2936,82.3961,-50.6326,-74.0558,-22.3376,-5.5082,181.3948,10.3820,-133.5087,-88.6921,166.6349,17.3511
-109.3750,-191.1692,-106.8046,-133.4184,-14.8911,28.3885,-22.9787,125.9310,67.1034,159.9598,116.9399,-89.9757,-2.3422,-60.8715,65.8608,105.7779,43.9935,-84.1072,47.7561,56.6820,-59.2818
-101.5625,-17.9743,-179.9459,-98.0157,-86.4518,102.2577,-24.5402,198.6728,-81.5476,304.7422,-105.4053,54.7843,-152.5430,48.6938,-45.6699,215.2658,-105.2867,-98.0967,-58.7083,125.8276,-61.8208
-93.7500,46.0089,-80.2892,5.1889,-22.1917,132.9070,-106.2897,154.1988,-89.3773,149.3216,-75.9358,10.3358,-123.9543,41.0427,20.6149,96.5543,-39.7473,-21.0995,-97.3716,15.7633,-33.5734
-85.9375,35.1537,83.5023,-7.4535,72.2070,84.7028,-81.8915,31.8834,-102.0580,26.0766,-124.3240,34.0454,-100.2400,65.5417,45.0393,121.0101,-127.0681,26.7903,-71.9013,-30.1376,-10.1841
-78.1250,28.8938,-28.0969,-16.4986,32.2221,41.0929,-88.8935,60.1707,-109.1220,90.4326,-95.0830,24.3347,-71.9206,19.6196,110.0748,2.0310,-62.7657,-3.6567,-111.8379,35.5472,53.7994
-70.3125,-20.9242,-7.2293,-31.1076,193.7038,-45.0841,5.5585,-100.1080,22.2810,-108.7556,36.6220,-99.9261,59.8312,-66.8574,205.5678,-195.5087,179.9834,55.6754,-55.3167,-47.3172,38.2243
-62.5000,-17.4875,-110.1191,9.5253,126.4273,-40.0152,9.2469,-60.1354,-48.0629,78.3217,-105.4154,-24.9313,-48.1821,45.9202,25.3123,65.2350,72.9771,30.1947,-120.5627,26.0740,40.8888
-54.6875,-40.1012,-98.0452,24.1066,34.1135,47.9942,-122.1176,27.7756,-70.4432,128.3295,18.5152,-83.9970,39.7617,-13.3644,40.0187,189.9376,49.9379,-15.9823,-176.8586,-30.5990,17.4848
-46.8750,2.0448,48.7798,-4.5499,5.5426,20.7615,-78.7406,-0.5610,-25.0731,99.1051,-9.8149,-40.2977,10.4305,-4.9012,85.4584,161.3896,-53.3666,-23.5004,-169.4098,-58.5116,-12.1735
-39.0625,55.8423,-108.7403,12.4548,-115.3638,4.1854,-133.7188,90.7424,-81.0455,226.5252,-65.4717,13.0427,-83.2490,86.2013,28.5424,178.4635,-74.0057,-75.8319,-220.3133,102.2096,40.8177
-31.2500,3.3903,-90.5032,33.2043,8.4964,-47.6471,-112.9414,37.7891,12.7387,25.6973,65.6167,-76.8606,-27.1966,33.0541,123.3817,89.2744,57.1081,-18.1012,-164.4706,15.6856,23.5502
-23.4375,99.9539,-100.2916,21.9561,-1.6561,-57.4711,-87.1741,26.8558,-107.4821,123.9025,-128.2998,58.2424,-75.1657,95.9109,1.2185,262.0763,-137.7787,-18.5851,-172.6428,42.1737,48.2822
-15.6250,141.3978,-129.1626,63.6011,-63.8900,-51.4076,-119.5064,68.8332,-139.7860,129.0088,-123.2915,62.2236,1.7740,27.6432,-66.0331,156.7759,-24.7557,-21.5236,-165.9172,49.5497,88.9013
-7.8125,15.4843,26.6418,6.8866,-14.4806,-69.7022,6.8011,-23.5242,-13.4414,-2.2054,-32.6386,41.8576,55.3389,8.0179,-12.6529,-9.8298,28.9013,-4.6788,-43.5541,-39.4136,68.1553
-4000.0000,8.6201,-49.8425,-10.9455,-73.9524,-39.0118,-1.4601,35.3973,12.9413,134.7570,27.0605,56.3635,-51.4222,14.9511,-28.7380,34.3809,-7.2496,-45.4998,-108.1838,5.8855,65.4249
-3992.1875,-31.1407,-90.8754,-53.2794,-45.5105,28.0981,-44.0939,-5.6441,116.3618,-16.0550,130.7246,-57.7396,15.7646,10.0939,74.4199,-6.2961,60.0339,-49.6417,-45.2368,0.3995,61.3033
-3984.3750,-35.4337,-166.4511,-56.1597,-156.6115,97.6600,-47.2767,26.7450,4.2196,55.5505,-18.1810,50.6187,-97.5959,118.7033,-1.9689,248.4838,-127.2407,-95.9848,19.1733,64.3537,22.6315
-3976.5625,21.5470,-287.7892,1.2159,-172.4713,192.4921,-99.2218,160.3859,-47.7030,116.4063,-32.8661,0.2440,-112.7093,67.5859,-90.1175,271.5306,-105.2831,-79.5909,2.8345,85.5542,9.2113
-3968.7500,-7.5114,-37.1586,8.5494,-27.3657,162.2850,-20.2232,56.9651,-4.6922,14.1712,-26.6172,-65.1851,-69.8500,1.4241,-120.3006,168.5149,-98.3755,13.0282,75.4567,19.6843,-19.2594
-3960.9375,-6.8042,-1.7719,44.6340,-133.5150,161.8327,-93.4837,93.2875,-78.9550,198.6806,-137.6569,46.1512,-144.2399,38.0189,-194.7360,205.2728,-172.7442,-20.2673,5.8382,126.5750,18.0239
-3953.1250,-34.0940,-100.3804,88.7221,-57.6666,131.3836,-86.7586,26.6090,1.7646,-13.8290,16.2979,-56.5145,-63.6034,8.6109,-41.1635,66.0331,52.8944,17.2303,45.2172,27.4568,26.3173
-3945.3125,6.9110,-165.6729,20.1056,17.4944,62.2263,-8.7326,-39.7898,6.7782,-43.0664,-88.4529,-12.8791,-95.6478,125.5033,-0.2909,146.0876,21.8363,18.8940,83.9124,-72.3595,32.9162
-3937.5000,-3.9732,-142.8699,43.5854,-31.2564,48.1775,-95.6238,-16.0848,-81.1249,-18.2032,-65.1197,11.8699,36.4165,149.5012,-13.3324,170.2450,-28.1247,-15.7682,-34.2891,-49.0648,57.6256
-3929.6875,41.8923,146.7010,56.8156,81.7500,-85.1199,-82.7740,-113.6370,-68.2822,-224.6284,-52.0328,-47.6408,270.2520,15.2430,34.3858,110.1361,-16.3186,49.8612,8.2787,-145.0308,-1.9081
-3921.8750,148.1203,181.6167,57.3909,46.1013,-122.0630,-82.5803,-149.8360,-142.1068,-185.7087,-162.6241,65.2105,196.4342,53.3468,-74.5529,184.3983,-89.1889,46.6003,7.2184,-73.6403,-0.0943
-3914.0625,38.3802,210.5351,88.9855,110.4635,-128.0008,-52.3960,-155.0347,-73.9633,-336.8090,-57.2473,-86.9339,301.6412,-25.5407,28.5063,32.6667,50.9225,83.9367,35.1520,-79.2720,-4.2787
-3906.2500,31.0082,307.8411,82.9503,136.2101,-98.5861,-59.8583,-123.9173,-80.4974,-341.6061,-137.5476,-17.7273,258.2243,-31.0765,-52.0818,137.2686,-101.6335,101.4990,61.4567,-53.5788,-46.1146
-3898.4375,145.1939,104.6914,89.4865,72.5058,17.4018,-125.7660,-8.2678,-148.5041,-223.8687,-168.3246,27.0384,153.3573,12.9596,-118.1239,108.4125,-132.6598,75.6020,-2.6806,60.6661,-1.3977
-3890.6250,140.6336,63.7902,10.2828,172.0621,11.6598,-58.4224,-49.3896,-43.2679,-411.9276,-99.8468,-13.9523,147.7641,8.2487,22.0959,-80.2056,7.5788,95.2491,96.4409,-15.8627,-5.4316
-3882.8125,146.8796,173.7051,-21.1231,70.4097,53.7260,-53.2779,-7.7223,-149.2431,-331.2074,-278.5879,102.8765,116.9705,124.3475,-45.8884,35.9904,-96.3954,46.9010,64.3705,-45.5866,1.3285
-3875.0000,72.9348,238.4171,46.2714,64.5482,83.6074,-96.3374,-49.2552,-192.4267,-446.6973,-138.5299,24.5118,256.9833,119.2470,19.9301,-43.0318,-29.5638,66.6799,58.1008,-120.5094,32.8927
-3867.1875,119.2864,249.4399,23.9646,110.0022,60.7951,-83.0864,-108.5128,-142.3083,-541.9302,-161.1695,40.4399,197.3165,133.4416,-2.9266,45.2143,-53.4276,81.5814,103.1530,-109.1435,-25.2406
-3859.3750,198.0609,44.8558,31.0576,-25.1568,177.3983,-112.4428,7.6213,-208.8136,-349.7702,-191.4368,84.7811,57.0443,141.0479,-69.3882,125.8874,-156.9127,27.8458,73.6140,72.6346,-16.9745
-3851.5625,73.9981,-10.5692,47.3132,95.8448,120.1570,-96.6515,-13.1094,-83.1837,-516.5015,-64.5649,-7.7372,182.9448,47.8052,56.3046,-41.2802,-31.2405,70.8673,123.2352,53.5468,0.4381
-3843.7500,166.7836,-24.1268,-4.5756,10.7191,67.7643,-75.0074,-27.0002,-98.7174,-383.4077,-189.8685,89.5931,94.7035,70.4142,3.8489,18.3926,-82.7256,23.9263,108.7327,110.3122,23.6936
-3835.9375,194.8285,72.5801,22.7991,-33.1443,20.6282,-122.1219,-35.6391,-72.0265,-391.0734,-52.9438,44.1674,84.7282,24.2708,-5.3593,-99.6982,53.0285,25.1966,63.4853,66.3282,52.1995
-3828.1250,82.5755,241.0132,16.8764,98.7280,-58.8161,-55.5363,-115.5948,-5.6443,-397.0792,-59.3282,2.4244,78.4814,-18.1825,24.1465,-179.0986,46.4880,85.9188,124.9585,-11.9698,10.3983
-3820.3125,173.0776,118.1852,74.7014,45.3490,-75.5035,-72.2050,-22.7983,-132.5293,-117.3407,-186.9840,61.4399,24.9892,3.1228,-29.6036,-157.7281,-116.3208,76.0581,72.1951,77.4907,-4.6531
-3812.5000,252.4784,91.2585,86.4295,158.8775,-101.2863,-97.9803,-84.1057,-84.5219,-251.7374,8.2679,-35.6466,147.4108,-57.6657,56.5537,-292.4702,4.7808,117.8347,79.3395,-19.1570,-64.8036
-3804.6875,271.8395,73.2992,71.1042,105.3575,-43.1169,-76.7986,-99.4809,-101.5703,-193.2182,-118.5441,23.2194,20.7857,0.5071,3.6581,-87.2544,-85.1787,93.0987,95.4656,-1.8544,-116.0139
-3796.8750,175.1668,46.2871,116.7310,42.7799,38.0184,-105.6656,-53.9102,-93.6841,-219.7618,-36.4257,-3.9563,29.1159,9.6392,47.7115,-78.0903,-77.2012,74.8003,67.5574,6.3973,-106.2746
-3789.0625,36.6870,258.4943,8.5635,148.4244,40.3737,6.6764,-162.1636,55.3945,-364.1614,38.8846,-72.9443,68.6738,-60.0316,123.9871,-185.7560,-38.0099,102.1689,207.8727,-63.1704,-139.3364
-3781.2500,-6.6351,108.8559,-37.4525,68.2227,66.8992,33.1660,-61.2790,45.6001,-153.4323,29.3096,-8.7792,-14.6135,-106.5361,39.4158,-84.2668,-122.6892,39.7794,163.3582,68.4186,-111.2496
-3773.4375,17.9502,-8.8738,-11.5553,55.9364,92.3454,21.5499,37.4975,69.6790,-163.8362,127.6189,-128.7232,47.0231,-154.1359,64.7594,-168.8962,13.5340,33.6519,115.7495,56.8927,-121.2605
-3765.6250,-5.4632,-104.5823,1.3456,29.6674,105.8032,34.9302,125.2565,8.7413,34.7215,-43.0930,-77.6747,-13.3258,-29.7367,-32.8913,-80.5266,-47.2416,12.3036,124.1635,102.3646,-180.2789
-3757.8125,-36.4557,-171.9088,40.6593,-37.2052,144.6857,-36.2955,200.4189,-25.8233,148.6729,-4.4327,-37.2215,-11.2826,10.0662,-30.1507,-77.7337,-8.6379,-17.4657,55.9832,35.2475,-139.9040
-3750.0000,-27.7390,82.4794,11.6816,110.6485,78.2814,-28.8234,24.2654,54.3047,-100.7248,112.9272,-101.0834,70.4834,-18.4392,50.3044,-106.2562,34.6759,48.9949,62.5236,-133.1960,-130.8363
-3742.1875,63.9331,65.8548,-41.3454,-46.5363,60.8367,-83.4072,44.0461,0.3636,29.8055,-14.7826,30.0042,-19.7936,39.0163,-40.2954,135.1630,-56.0771,-37.7662,11.0348,-42.6898,-109.8264
-3734.3750,-1.5867,0.0450,35.4355,62.0828,27.2049,-81.2052,10.6181,39.2110,-76.8905,97.2953,-76.1093,129.7510,-67.7219,71.9031,-8.6305,92.9681,24.6089,14.3557,-144.3913,-69.0212
-3726.5625,-57.6147,82.7491,11.7152,180.2309,-33.9266,5.5050,-123.3349,51.5538,-172.1296,-0.1360,-24.7336,216.8200,-90.9591,158.6145,-177.9422,69.5184,75.6239,131.2115,-165.6016,-54.7222
-3718.7500,84.3598,83.4447,8.9933,74.3749,-37.0502,-34.7806,-125.2901,-61.1234,-137.3770,-39.5923,84.6463,176.8938,-56.1840,82.3227,-180.2573,29.0618,45.5210,96.0878,-130.7942,17.5778
-3710.9375,49.3885,188.1986,10.3180,107.5818,-109.1215,-34.0053,-235.2103,-25.7565,-319.6150,-3.0016,50.0667,215.0434,-17.3678,156.0958,-215.5352,103.6706,62.6285,164.0331,-166.9500,-17.0731
-3703.1250,43.5691,110.1199,42.7871,29.9386,-78.0423,-2.0708,-129.9932,-104.2507,-104.7300,-191.2808,119.6449,26.3399,88.5991,41.0204,-73.6427,-12.5841,41.3793,157.1496,-68.9447,-57.5809
-3695.3125,34.3522,-5.3551,103.8671,123.8927,-53.3460,22.4668,-141.1877,-116.1624,-188.2630,-93.9710,35.8237,51.2455,41.1674,101.5554,-121.1560,121.7565,96.4473,144.8814,-148.3415,-31.4908
-3687.5000,32.5786,26.6407,66.3949,226.3259,-54.1877,94.4679,-215.9568,-45.6274,-299.3922,-59.2155,35.4360,49.6241,40.1778,137.5650,-122.2539,83.5569,131.7793,212.1030,-186.3029,-67.9586
-3679.6875,73.3611,-38.8127,35.4724,19.3075,60.5430,62.0158,-102.1708,-78.5662,-110.9765,-54.9389,115.5952,-55.4378,82.7478,68.1129,-42.7996,14.8924,29.1007,109.8873,-77.7005,-61.8821
-3671.8750,-34.7007,61.8954,31.7074,84.4558,56.4382,131.6986,-178.2412,64.6290,-223.4429,87.4820,-34.1111,50.6826,6.4616,100.8143,-192.2090,120.3899,67.8917,175.8270,-151.9561,-64.6619
-3664.0625,-141.8686,-10.4816,-7.1621,-23.4831,128.2481,166.2899,-108.4179,24.7161,-42.0335,-62.2141,38.0667,-24.2918,115.0688,61.4230,-10.7206,-66.2234,1.8472,207.7012,-84.3015,-65.5561
-3656.2500,-174.6857,-80.5049,67.3252,-59.0702,203.4304,93.2318,-33.2388,-48.8547,-3.2902,12.4268,4.5776,-22.9155,80.0267,99.3849,28.1115,-28.4939,-5.0440,101.9458,-83.2934,-63.1074
-3648.4375,-103.5155,-10.5043,31.8130,80.3796,167.6213,131.1803,-106.0793,-11.4235,-149.6001,-23.9278,-29.9346,14.4820,-28.0249,100.3595,-7.0807,82.2457,55.6639,171.2234,-119.2950,-97.6685
-3640.6250,55.3548,-98.8069,48.9966,62.5321,109.5239,72.8229,-16.2206,-106.3063,14.7866,-191.5977,60.2515,-42.4275,-11.3717,6.0226,9.4444,-12.3284,53.2419,82.2296,4.4264,-43.5444
-3632.8125,-23.0784,-2.4054,73.8836,193.3988,61.1387,-12.8322,-28.6542,-45.4907,-70.1488,-57.5590,-60.8871,93.3750,-60.0291,104.3859,-222.3321,122.8034,114.6143,72.9538,-75.1580,19.2648
-3625.0000,-139.1233,90.4186,-49.8341,74.6870,11.1574,-26.0733,-4.6994,-59.2727,64.2899,-107.1269,75.3640,6.5773,38.7138,17.1529,-51.7262,35.3295,6.5255,59.1071,17.6667,7.4584
-3617.1875,-84.1611,40.2395,-64.5525,-82.0325,-3.8081,-78.3115,54.2638,-111.0632,122.7269,-50.7048,97.6127,28.7750,24.4572,1.9199,81.8699,93.8462,-81.2280,-27.7250,37.5050,-6.3560
-3609.3750,-51.3042,106.9750,-67.3764,90.1692,-116.8698,29.3647,-59.8842,31.0536,-63.9808,19.6270,22.7308,98.8907,-51.9153,108.6097,-68.6641,90.2882,4.6076,39.3757,-71.7655,-8.2830
-3601.5625,49.5912,-75.2307,35.8457,12.4292,-123.8686,58.0993,-30.9915,-86.7899,113.3499,-135.0146,162.8965,-55.9441,14.7631,-46.6494,34.8543,-138.2352,16.1929,32.5572,63.0292,21.8286
-3593.7500,166.4407,-100.4768,121.0302,57.6523,-112.8916,32.7782,-56.1528,-76.7000,-22.3990,-51.7204,101.9992,-6.8090,-46.6145,2.0437,-63.6894,-90.8075,70.7877,6.7061,2.7647,-2.1164
-3585.9375,211.1921,-55.7927,134.1175,65.8051,-27.0063,81.3534,-117.4394,-102.7205,-83.2870,-113.5423,115.9903,-67.7526,-33.0965,-59.3553,-50.3473,-152.4765,109.3167,155.7851,46.3965,-62.1741
-3578.1250,88.0490,-75.0042,149.3075,12.0586,97.9954,96.0172,-28.6277,-123.6627,-31.0824,-134.2836,95.0816,-15.5944,-54.4751,-81.6538,-143.8960,-101.0497,92.8941,135.9725,63.1400,-9.1407
-3570.3125,-93.1070,129.8040,-5.4993,145.3390,17.0061,161.6740,-145.8248,13.3936,-147.9194,39.9797,-94.8502,123.5893,-61.8655,58.0638,-335.4662,74.4049,95.9649,200.1794,-49.1300,20.8840
-3562.5000,-58.6721,58.2287,-114.7139,-32.7712,17.6305,87.9325,-109.4215,-23.9581,72.8303,-34.1665,-20.1889,-59.6283,13.3481,21.3830,32.5506,-36.5544,-37.2205,127.0103,125.2168,-14.5032
-3554.6875,-1.3229,-97.4548,-54.0276,23.0178,115.1656,38.0896,-49.1167,-37.4086,23.4684,26.5945,-68.6375,-71.9389,-35.5409,118.6088,56.4474,24.3852,-8.7571,76.7553,5.4673,-62.9977
-3546.8750,-51.2310,-77.3849,-30.5970,77.5718,138.4551,135.0090,-26.0816,-15.0942,8.8198,-61.8847,-81.3605,-85.4913,-12.6851,104.5964,6.0873,-26.9129,29.6823,131.2839,-10.5309,-112.7596
-3539.0625,-35.0515,-133.2127,19.9344,-48.7789,224.8633,74.0318,60.0636,-76.6848,133.2723,-123.2705,-29.9899,2.0434,38.2718,7.6675,20.8383,-88.1271,-21.5412,-30.0661,4.5937,-61.4368
-3531.2500,-155.0405,133.8318,3.3221,40.7435,98.1340,93.9060,-66.9481,16.5836,-67.4565,80.2051,-119.7975,169.4473,-50.9302,63.5928,-106.5904,42.5218,16.3101,-10.5391,-151.4403,-40.2777
-3523.4375,-122.6886,200.2366,-73.9467,-69.3659,57.7544,90.1383,-33.6177,12.2067,113.1484,3.0259,-48.2692,55.2038,-16.7846,-50.1288,1.3272,-35.4825,-52.3948,-49.6290,-14.1191,-42.7874
-3515.6250,-13.2911,167.6841,-73.1669,-32.4204,-14.5665,17.4304,40.7682,48.8786,150.7964,112.8979,-119.7037,167.0137,-52.5982,24.2117,-143.7193,38.5730,-49.1118,-152.6602,-82.7409,-4.2610
-3507.8125,-56.0083,159.0436,-154.4874,100.4495,-169.9817,81.6492,-42.9662,148.4625,68.3082,139.6843,-164.2658,194.7275,-97.5239,88.4773,-189.8945,102.5399,-22.0913,-56.7635,-55.4659,24.1485
-3500.0000,-72.0209,-68.9061,-139.1114,82.0117,-264.6789,59.5847,9.0036,126.7447,193.5243,81.1556,-74.1391,63.1188,-80.7493,66.4381,-27.3549,80.1921,-50.0649,-110.1527,31.5336,77.2458
-3492.1875,-171.0819,6.1002,-57.7842,192.5314,-293.4032,67.4761,-129.0752,133.9764,-55.3430,125.5826,-139.0848,181.4724,-109.0317,184.3603,17.1234,160.8075,21.7096,-34.5770,-137.5248,49.2815
-3484.3750,-115.4150,167.8838,2.2812,71.8185,-233.3636,54.1341,-216.4149,8.9569,-69.4867,-73.2549,-5.2923,94.5871,24.4396,97.0389,188.3430,0.1700,20.9548,55.7806,-151.8313,0.0544
-3476.5625,116.6905,258.1112,96.7920,56.5584,-102.8567,0.2471,-196.2962,-117.6254,-158.1832,-125.6531,15.9417,152.1543,8.3641,44.1656,-11.9885,19.9754,76.6113,-30.3947,-167.6707,21.2718
-3468.7500,140.6812,316.2400,85.2031,220.2128,-78.4390,62.2702,-318.2795,-94.3034,-280.0080,-138.1450,-31.9474,214.6248,-76.8189,32.2070,-206.4472,44.7058,166.6796,98.3588,-109.6068,10.3770
-3460.9375,68.5132,172.2116,43.4633,110.7117,27.8418,-16.8554,-139.4039,-173.1396,-64.9770,-180.8084,1.0087,172.9276,-44.1452,-9.9074,-100.0536,-34.7206,88.5367,59.9824,-7.6610,43.3188
-3453.1250,-124.4112,119.4395,23.9791,268.4726,82.3925,0.2694,-122.2738,-119.7306,-267.7134,-54.2208,-126.8064,301.4845,-62.2311,118.2368,-229.4239,166.1109,134.5451,146.8713,-165.4631,61.4960
-3445.3125,-132.6936,74.3440,-20.8586,222.9123,74.5998,29.0546,-130.5058,-92.6700,-165.8342,-172.9872,-24.9868,108.6972,40.3214,36.0419,-55.1636,10.5873,97.7001,172.4532,-35.6115,17.3030
-3437.5000,46.9773,43.2000,59.2504,50.3169,116.7678,-39.2030,-52.7878,-124.6644,-88.0150,-131.8105,18.7760,4.8583,46.8165,-32.2149,62.0510,-20.9947,51.5795,0.0104,-30.8015,-12.9559
-3429.6875,97.8889,233.3208,39.6087,100.0071,98.1950,-21.1966,-145.8287,-34.4072,-215.9841,31.6198,-73.2349,22.2816,-45.4510,21.7841,6.4992,-3.3210,84.5548,13.8486,-86.7459,-67.9861
-3421.8750,118.2926,112.9425,-13.5324,13.2087,81.1326,-38.6748,-15.3615,-52.6582,59.5491,-22.4678,-15.7606,-67.8208,-25.2223,-105.7135,62.4402,-58.1597,19.1859,-36.7807,37.8367,-47.5365
-3414.0625,-65.1136,69.7525,-24.4592,145.6275,-2.7137,-12.9350,-26.6875,46.2926,12.2680,76.6524,-99.1105,69.2720,-72.8072,-6.0057,-58.4435,151.2149,36.4877,-115.1939,-40.3773,16.0989
-3406.2500,-238.4430,35.6740,-61.2850,146.1691,-76.4538,59.9247,-63.9238,44.3632,85.0631,0.8790,-62.3907,68.4653,-36.3077,-7.1868,-22.2538,149.7088,9.2861,-79.4711,31.5175,52.8139
-3398.4375,-189.5488,-92.1530,-48.8709,-17.0493,-27.9254,-2.9561,94.0997,-54.3145,206.1168,-24.6447,-49.4309,116.9018,12.4382,3.8863,26.1906,50.4496,-71.5480,-206.4839,79.6834,101.7633
-3390.6250,-60.1142,142.5848,-58.9184,42.3006,-146.8339,24.7213,10.6745,-29.4334,49.6937,38.3959,-131.9482,180.8994,-69.2785,68.5317,-19.8306,40.7596,-15.9198,-111.9337,-37.6105,56.2455
-3382.8125,95.6219,51.6260,-41.6779,-85.0388,-165.4296,5.7069,65.5544,-86.2512,214.5711,-92.2718,32.8190,-95.8120,-14.6965,12.4724,182.4480,-125.6304,-59.4883,-134.0636,117.4077,1.0103
-3375.0000,41.9445,-108.7296,85.1657,-34.7714,-77.4091,-15.7114,44.0395,2.5284,119.0415,33.6674,-61.8334,-79.9213,-35.5202,65.0194,51.3223,36.5909,1.4158,-118.5852,28.0307,17.3652
-3367.1875,-132.7207,-179.0111,48.0574,0.5699,-3.3316,57.9349,-30.4330,75.3738,45.5309,32.6705,-61.4645,-115.9760,38.6914,27.6293,14.2255,72.8726,13.7461,91.9721,62.7145,17.7511
-3359.3750,-134.3009,-321.1939,8.0438,-141.9865,140.8611,54.6884,150.2071,-2.6717,189.1328,-8.2228,-63.0043,-191.9533,145.9965,-49.6747,85.2158,32.2419,-60.8668,55.6438,96.5321,52.2225
-3351.5625,-148.2760,-125.7730,-5.3698,-16.9239,164.6547,77.0431,99.4501,56.8942,28.3185,124.5008,-148.9664,-132.3245,95.8849,-26.3676,-2.2244,55.2240,4.7799,109.9313,-24.0517,2.2810
-3343.7500,-140.4964,-117.5952,-106.0415,-80.0970,175.1945,124.1446,183.4381,29.2174,185.2498,23.9685,-103.1858,-231.9520,106.5215,-127.3115,118.0774,-120.0393,-51.2174,118.9949,160.1273,-23.9278
-3335.9375,-174.3248,-153.0236,-69.3117,-115.8722,212.1438,86.6448,219.8423,27.9384,147.5868,58.8361,-212.0179,-159.1883,33.5544,-53.8587,154.7887,-46.8958,-64.8628,47.4639,159.7176,-23.7480
-3328.1250,-208.1786,-115.4270,-100.5904,-78.6262,180.0920,55.1568,187.2378,31.6790,188.9007,26.7250,-206.8767,-154.4201,-34.4265,-48.3997,233.4883,-78.7399,-68.4901,84.9580,196.3094,-91.5856
-3320.3125,-103.6469,-292.4279,-29.4779,-185.9812,178.4388,15.0844,258.0475,-8.1725,370.6304,-12.9837,-99.3464,-229.2713,-0.0097,-125.5542,157.5917,-82.1948,-96.1043,12.8655,266.3283,-57.0409
-3312.5000,-165.5246,-110.8361,-24.7610,-74.7248,146.3893,20.6295,115.4580,142.5899,153.9396,174.9272,-203.2371,-78.5132,-69.0094,26.8985,-167.7305,179.9642,-43.5143,-15.6123,60.9540,-14.9122
-3304.6875,-107.3594,-122.1886,-37.9952,-155.4012,96.3990,-29.7555,101.9138,91.4111,251.2846,86.8914,-106.0923,-163.7131,29.0227,-60.5892,111.9778,56.1665,-87.6793,-63.0123,84.6422,9.2489
-3296.8750,-5.4964,-265.8491,-8.5294,-160.3778,90.1304,-109.4390,168.0816,46.9384,243.3322,116.5639,-75.2571,-97.2283,21.7452,-31.3818,178.3712,85.0744,-102.4011,-206.7023,-24.9559,76.1011
-3289.0625,-162.5058,-3.3510,11.0769,32.8120,-37.9799,-54.9649,40.3980,102.6363,78.5118,98.4089,-92.3023,-5.5951,4.6102,98.9881,13.8942,140.1558,-9.3838,-118.2233,-147.4032,59.0890
-3281.2500,-104.8340,158.8373,34.3739,-87.3076,-51.3818,-68.7945,63.4369,-59.9603,137.4170,-64.0576,40.3419,-92.2865,65.1835,11.0479,147.1400,-21.0734,-34.0178,-132.0253,-56.1198,45.7593
-3273.4375,20.1737,144.3737,131.0164,72.9287,-64.4129,-8.2773,-24.1501,-37.2041,-97.3200,32.8346,-9.6927,4.3673,-58.8991,34.4598,96.7406,2.0530,80.5074,-78.4726,-175.4807,-4.2371
-3265.6250,82.8620,-4.3672,162.3492,135.8768,-69.7362,95.9431,-67.0295,-43.7342,-29.3574,-47.5612,57.9504,-112.2853,-27.2930,-156.4275,128.0452,-188.1201,139.4345,90.7976,-8.1374,-46.5554
-3257.8125,178.6884,-120.9651,147.8215,18.9716,64.1012,81.3161,102.2601,-59.1050,29.7740,-62.7994,7.7286,-125.7985,-41.5447,-206.1647,40.4958,-165.1353,100.5618,44.2239,51.3710,13.2656
-3250.0000,100.9348,-58.1159,67.7418,-23.4564,57.3843,111.1499,58.9962,44.0002,-88.6672,3.4444,-73.0728,-132.8565,-85.3615,-104.4354,-3.6381,-26.6724,66.1967,143.1176,79.3304,6.5269
-3242.1875,-10.1178,-168.5608,24.3539,-276.1822,161.3681,31.6845,236.4344,-0.1900,125.6021,-40.6164,104.8291,-286.2232,19.5198,-220.0232,173.9262,-143.5184,-80.6175,65.7222,249.0103,0.4723
-3234.3750,-77.5127,-61.3475,27.6141,-203.2571,165.0046,-2.1395,202.5350,112.2733,55.5271,108.9825,-1.6322,-171.9341,-13.9596,-107.9600,30.1180,6.2948,-59.6095,-1.0177,76.3449,4.0546
-3226.5625,-65.1807,-48.3658,-69.3785,-156.5563,105.3811,47.7999,142.3778,125.5048,68.1878,85.3402,12.6311,-194.8904,37.2950,-20.1314,-66.9598,-17.1337,-72.3315,81.0187,88.4364,-18.6310
-3218.7500,42.0347,-223.4964,-70.4712,-225.9492,141.6610,-63.3446,215.1348,50.6418,214.7645,83.6018,48.7872,-269.9743,73.4403,-58.4040,5.8610,18.3333,-122.7219,-59.0347,124.4526,17.5723
-3210.9375,14.8719,-144.9748,-62.9104,-7.6678,112.5862,-128.8191,111.5328,93.4540,37.9724,127.5370,-17.4291,-188.4089,7.2105,-51.0084,160.3109,62.4728,-33.7704,-51.4174,-7.8868,25.4105
-3203.1250,-45.4592,-99.5988,-89.5046,-33.5316,48.3669,-156.4167,120.7782,-8.8751,193.0341,-48.6823,102.2007,-253.0148,52.8199,-114.7652,389.6202,-112.5470,-56.9634,-40.9198,72.6391,71.0751
-3195.3125,-50.1406,-36.5802,-60.4507,66.2546,-68.1865,-90.3499,38.6897,56.4501,111.7452,90.7586,-15.5394,-113.9774,-63.9286,-13.8713,124.5726,62.0883,-0.6102,-46.7612,-73.1816,100.3727
-3187.5000,-26.1844,200.1097,-68.7618,90.7080,-185.0791,85.3803,-114.7493,122.4400,-5.9108,82.8667,-22.6543,-85.2901,-108.0361,53.6800,-29.8483,18.3932,30.6861,14.0681,-84.3542,20.2987
-3179.6875,66.9056,151.9445,29.0618,-27.6864,-124.8112,72.2696,-55.0235,35.5908,54.6050,33.1302,75.3677,-61.4686,-47.9949,40.3805,-80.1312,-32.1478,1.3104,-139.9362,-62.3605,7.3567
-3171.8750,-33.6837,157.1297,71.2335,117.2880,-119.1931,151.5198,-195.9465,113.1161,-197.5402,147.7744,-30.2871,127.7005,-115.6228,192.4557,-331.0859,193.6904,74.2536,-64.5798,-197.0211,12.7485
-3164.0625,-99.2902,89.3167,-38.5954,15.2749,-116.5776,152.7821,-157.8670,77.6596,-86.6870,38.4239,82.0563,55.8492,-41.2529,156.5298,-293.0377,84.5245,-8.9368,9.7915,17.3333,51.1217
-3156.2500,-21.0466,-7.6616,-65.5692,-46.8961,-35.1097,14.8926,-39.9218,49.0579,-77.9678,83.9303,17.2462,64.8290,-68.0332,165.4426,-174.1269,129.2139,-53.6025,-51.9928,61.5511,60.3360
-3148.4375,50.0751,28.2637,-135.6530,-11.1452,-30.7547,-55.0868,0.9204,51.3846,-112.3592,49.3638,-52.6862,31.7098,-101.9250,132.2602,12.6782,58.8248,-45.6603,89.1393,132.6636,-9.5618
-3140.6250,52.0309,-39.9626,-133.8985,-115.5389,45.4466,-127.2157,112.6311,-20.4270,73.1264,-22.3466,23.2232,-40.5795,-62.9721,-13.0888,124.3337,-86.7140,-88.5142,91.1323,274.6452,-7.6194
-3132.8125,-37.6244,116.2216,-153.7430,-29.5111,26.0450,-72.9472,55.7498,106.1740,-130.9906,141.3620,-143.4855,123.5318,-155.6350,39.9622,-79.6324,40.1605,-47.6973,142.5295,185.0244,-27.2853
-3125.0000,-69.8904,83.8166,-259.1820,-97.0617,-5.9632,-68.2693,134.2655,147.1886,20.2908,71.4787,-102.7963,-18.9751,-77.9053,-102.5865,-38.2117,7.4257,-109.7941,215.3380,328.8159,-59.5704
-3117.1875,-127.4504,-43.8983,-210.9137,-119.9185,5.7388,-130.8844,292.4951,157.9064,179.2876,156.3014,-163.4070,-7.7986,-66.4815,-164.4292,-101.1065,55.3826,-124.5644,87.8442,307.3175,-11.1691
-3109.3750,-148.0730,74.3414,-234.6962,34.1859,-91.6115,-117.5317,195.6726,207.6002,118.2187,169.1066,-187.0872,42.3302,-90.1257,-115.3127,-160.0831,-4.6881,-61.6840,137.3156,249.7634,2.1682
-3101.5625,49.2799,-43.4339,-210.4881,-154.7141,-103.9614,-239.1696,219.8586,120.3158,326.1683,118.9205,-53.7680,-44.5705,-65.7694,-200.2032,46.9584,-128.7607,-145.8371,18.7938,378.2324,-10.5091
-3093.7500,21.6214,-36.2187,-165.2873,-76.6204,-167.3050,-229.8078,155.0633,202.0476,188.1196,311.7571,-154.4661,74.5171,-166.4216,-82.0869,55.0131,64.1829,-122.2313,-78.7307,209.7041,-38.2024
-3085.9375,-66.3589,50.7057,-183.4047,-165.8106,-184.9536,-175.7341,99.9718,257.5079,205.7693,256.3134,-99.4846,-16.6986,-148.3897,-63.2631,147.7585,45.8394,-162.6251,-61.5394,262.8825,-56.2150
-3078.1250,-107.9067,-60.9280,-192.0789,-276.5487,-84.1495,-147.2061,201.3460,211.4359,306.8954,246.3360,-108.0574,-26.4787,-119.9194,-35.9969,100.9412,109.9475,-219.2360,-137.8967,256.5255,8.2154
-3070.3125,-230.5690,62.3474,-246.8528,-119.3712,-137.4520,19.2248,109.6114,266.2882,104.9078,265.2933,-161.7432,29.6492,-101.5657,56.1836,-137.0054,202.9796,-156.0201,20.6535,169.0556,-9.4620
-3062.5000,-100.3856,-52.5225,-217.7888,-129.3511,-34.9118,84.5080,138.7289,148.0066,206.7836,110.1080,-60.5725,-126.3882,37.6365,-61.7911,-35.0930,-26.1420,-145.6084,-23.9364,229.4477,-54.3054
-3054.6875,59.6402,-68.5490,-87.8794,-4.4816,133.4781,68.6390,85.7097,94.5911,6.5149,166.7916,-150.5646,-31.5798,-14.3169,-40.9137,-125.3293,-42.4020,-22.6881,-4.6779,73.6902,-70.3108
-3046.8750,11.0458,-12.1610,-62.5797,-18.1881,158.2507,94.1817,37.0872,82.5943,-5.3533,44.8889,-125.1706,-117.3684,47.1114,-53.6276,9.8232,-128.2476,-7.9129,87.9921,130.3315,-118.9294
-3039.0625,-112.0508,-171.2706,-45.7872,-212.3937,212.5118,37.2272,163.9751,62.1032,158.3052,61.4870,-71.2835,-211.6745,101.0317,-72.8495,210.4904,-74.5958,-118.6799,-35.8389,182.4852,-102.0582
-3031.2500,-232.5533,-79.7817,-60.3904,-85.9727,161.3532,96.8827,39.4618,157.2294,-76.4446,193.7051,-122.8111,-78.3787,49.5321,22.5436,48.7418,94.6728,-81.4116,-15.0640,98.2282,-116.5973
-3023.4375,-149.4718,-172.6896,-11.3920,-178.9353,248.7829,110.1530,89.5441,96.9698,9.4060,59.5287,0.2635,-176.4953,99.6253,-74.4587,-12.4179,-40.4602,-83.6867,34.3285,217.5799,-103.5491
-3015.6250,-56.6007,-185.7961,47.4060,-121.1018,271.0141,132.2323,74.4272,81.5263,-115.9410,118.1750,-87.8692,-117.8103,47.5054,-16.6584,-174.7947,55.2265,-12.0326,126.5180,98.7305,-81.7079
-3007.8125,-20.5516,-113.6906,-23.6087,-15.0583,200.4380,245.5315,-33.4933,84.3139,-150.0981,47.0475,-47.8212,-114.9201,13.5680,60.3558,-134.9891,-15.8677,18.8920,233.9184,65.0717,-115.6778
-3000.0000,-64.0579,-158.1438,37.8118,-93.5757,189.3061,233.2865,65.0531,-38.4389,21.2174,-149.6253,13.6710,-127.6000,75.0839,47.8161,-110.7181,-101.5142,-6.1186,119.7697,161.8804,-54.2070
