Time,Fp1,Fp2,F3,F4,C3,C4,P3,P4,O1,O2,F7,F8,T7,T8,P7,P8,Fz,Cz,Pz,ref
-4000.0000,226.0517,117.8500,74.4701,73.5717,78.0872,10.9354,-50.2520,-89.9840,-111.8978,-203.4119,226.4355,35.3412,44.3996,-54.8882,-131.2848,-153.7157,-0.8067,-74.0879,-157.6010,-138.8204
-3992.1875,248.5393,173.8492,131.3031,93.3080,60.5630,-7.4528,-33.0738,-110.3969,-95.7345,-188.6240,248.7937,57.8255,66.8612,-48.5347,-78.0264,-137.7742,17.6571,-56.7514,-178.3445,-122.1169
-3984.3750,177.5380,136.3650,157.6364,89.5380,13.5353,-18.3462,-9.4126,-49.3313,-35.0933,-56.3490,94.6552,74.2574,22.6992,17.4079,-18.2824,-4.3378,-57.3777,8.0939,-80.6023,12.0979
-3976.5625,144.6597,31.9832,40.0713,19.8633,-103.4020,-27.1393,-18.6700,50.8225,27.6322,115.0119,-57.3795,30.5665,-35.2904,67.2495,82.5574,168.1883,-93.3167,-63.9684,-49.7789,185.4226
-3968.7500,181.1907,-2.9907,-109.0939,-52.4143,-216.9509,-104.5336,-60.5434,81.3674,20.7411,217.7624,-168.0169,-19.2388,-103.0625,38.7990,112.7918,198.1110,-130.8614,-32.6283,-20.5709,216.1604
-3960.9375,107.2593,27.6019,-76.7075,-23.1469,-183.9556,-145.3808,-29.8804,74.4485,14.3862,172.0554,-95.1103,-17.2385,-62.4501,-1.8247,104.5738,117.5792,-68.8634,-111.7334,-30.8180,136.4600
-3953.1250,89.3661,43.2549,49.7320,-8.8369,-167.9223,-204.1710,-53.1783,50.5683,-9.9258,110.3904,143.8373,-29.9631,29.1476,-35.5929,80.4020,93.0956,-55.8212,-169.7925,-56.0282,112.8201
-3945.3125,76.0116,133.4470,-6.2854,-25.9937,-188.3530,-151.4061,-185.9349,65.2293,-33.6883,122.2744,200.3225,4.6890,16.0368,-1.1330,58.7752,143.1630,-108.2401,-83.2920,-112.6871,163.7472
-3937.5000,119.6943,105.6845,-39.2604,-20.1220,-147.7486,-37.5864,-184.6499,102.9359,-32.4083,121.2083,59.8475,21.6492,-17.9360,50.5553,96.1936,180.2858,-68.6129,-114.7431,-181.3012,201.7415
-3929.6875,17.5822,1.1326,-37.0385,15.9397,-72.9543,109.4278,-111.1716,136.8281,39.0583,155.3290,-156.4378,42.5161,-64.6038,110.8205,93.8091,178.6121,-34.7887,-10.9941,-115.7219,163.9512
-3921.8750,-135.0804,-11.9644,60.6289,1.4439,24.2787,168.8855,-90.2545,158.1595,58.9690,209.8865,-239.2817,57.0936,-63.4579,133.5935,76.8752,162.3877,-50.5185,77.2117,-63.6956,111.6257
-3914.0625,-143.3560,-20.6537,125.6873,60.3435,124.8999,195.7363,-101.9480,145.8804,45.2746,195.8472,-246.7319,74.7247,-42.0929,131.2885,64.3422,112.5632,-26.8561,63.8134,-114.2784,62.7154
-3906.2500,-74.9409,-59.6384,119.4375,90.9397,81.2064,151.2738,-110.9543,99.2888,0.2772,184.5176,-213.4919,64.4422,-27.0916,128.1850,91.5045,139.4367,2.4997,162.1201,-123.1605,90.5223
-3898.4375,-23.5818,61.3355,94.1378,104.4828,-90.5511,88.7485,-212.0221,35.6401,-28.7831,82.1344,95.6801,73.0103,34.7015,96.8800,99.6134,147.2598,119.8036,103.3755,-185.0974,136.2976
-3890.6250,35.3592,82.9136,79.4343,89.6192,-141.7188,-1.1776,-192.5006,-19.4186,-84.2476,25.3491,230.4291,51.0877,67.5686,54.3550,81.3199,128.6835,138.7055,121.2338,-169.4376,118.6885
-3882.8125,84.6364,24.8472,90.0670,31.0928,-95.5447,-28.7603,-38.6373,-13.1385,-4.3670,103.9108,-125.4900,36.0307,-27.4506,77.2414,124.3767,171.4567,148.9465,165.4548,-92.4245,162.4435
-3875.0000,1.2493,81.1365,106.0363,-19.0957,-117.0280,-49.9987,-24.4268,36.4857,8.8602,188.8217,-252.0817,50.6728,-60.1490,99.8816,174.7891,220.5809,167.5309,147.0214,-42.0597,249.5641
-3867.1875,-135.4535,49.1192,72.6949,-18.6009,-186.8196,-47.5396,-60.5191,73.8042,7.7845,223.4283,-63.9975,33.8729,-15.7113,88.8155,137.9035,220.4101,132.8121,146.2980,61.0191,213.4040
-3859.3750,-147.7251,0.5425,59.7944,-33.6678,-164.1754,-25.6311,33.8306,93.5694,28.1546,241.4913,-74.4832,10.1258,-2.4947,78.8399,157.4644,203.6931,116.5344,59.0371,6.5499,160.7155
-3851.5625,-104.0703,76.9171,64.8307,42.2000,-159.5994,-57.7690,36.1151,95.2824,-7.5324,278.5164,-287.0394,71.0866,-87.5368,103.6596,158.9767,204.9347,155.1945,61.7320,-62.9694,162.9995
-3843.7500,-155.7967,165.9430,46.5005,93.7027,-141.3947,-77.2562,-21.9641,73.6450,-29.5707,255.2016,-119.9741,115.4267,-53.7145,114.6557,100.1379,219.8366,135.4965,147.0951,-85.8257,141.9536
-3835.9375,-166.9475,153.5668,-4.2380,79.7946,-192.6067,-20.1376,-1.4517,56.6088,-47.0162,126.4956,310.6587,79.4004,104.8582,71.9014,119.8997,165.3470,85.3953,96.0630,-140.0818,125.5253
-3828.1250,-200.5108,47.7821,-7.3870,43.4736,-159.2336,86.5811,29.6549,14.1689,20.1298,82.3974,-131.1444,71.8811,-23.9441,99.1502,150.2646,121.4643,82.8927,197.6379,-39.7310,156.7169
-3820.3125,-209.3447,-69.2728,52.2072,29.8822,-27.1215,182.0504,85.5102,-3.5279,2.0301,100.0545,-473.2226,66.3581,-113.9039,148.7302,132.3834,140.3397,139.1354,182.9703,-92.6142,176.6791
-3812.5000,-303.1061,-22.2324,98.8921,4.3826,18.0735,153.6179,-17.5411,-34.1251,-64.9706,104.8158,-130.2251,54.4250,-10.9273,136.6473,66.6085,183.3216,112.4786,119.4009,-157.3936,183.7601
-3804.6875,-200.7401,-27.0375,92.7122,-70.9729,11.3998,35.3324,-26.4461,-79.5774,-74.8268,130.7271,48.8956,-16.0687,61.6820,49.0758,92.9813,136.4594,33.9785,110.9974,-133.0195,175.0089
-3796.8750,81.0109,-27.4416,89.9296,-72.9262,9.1120,-77.5589,42.0351,-122.6412,-8.2946,86.0404,85.3858,-53.1933,81.2730,-12.6919,123.7572,95.0005,66.8902,39.0036,-173.2437,206.6767
-3789.0625,111.5319,142.9483,41.9414,-10.0836,-76.3888,-127.6552,-9.6924,-174.9068,-23.9645,32.1731,38.6335,30.9946,21.9679,12.7158,108.3336,115.3468,94.6039,98.8173,-114.6529,302.1648
-3781.2500,-36.5908,239.7264,-4.6583,15.1457,-270.5007,-138.3581,-169.0218,-150.7755,-111.2298,54.7247,178.2517,66.4119,-2.9457,22.1299,58.3134,139.1048,117.7067,87.0446,-93.6477,290.0757
-3773.4375,-192.7878,223.4513,-21.3217,66.3098,-324.6795,-83.1235,-152.4046,-60.6946,-57.5415,69.2367,236.7914,85.5734,19.9066,36.5763,75.2491,118.8311,97.7508,67.2155,-81.6821,233.9617
-3765.6250,-253.9049,19.2624,-88.8981,72.5447,-318.7780,-40.8041,-74.6890,15.4840,55.2561,107.8653,24.3952,43.7158,-12.2875,64.8312,151.3001,157.6737,33.8911,140.4926,61.4034,237.9743
-3757.8125,-121.9028,-24.7897,-137.3361,-8.0875,-258.7451,-90.3450,20.1770,36.8083,76.2156,127.6630,-204.8904,-5.0198,-79.3671,11.1095,136.5109,68.6733,21.1826,93.9236,116.6499,260.1614
-3750.0000,-44.3907,51.7048,-132.2404,-38.1804,-290.1812,-197.3347,59.5933,2.6824,151.7370,91.0302,-308.6706,-4.7688,-138.2175,-38.7474,101.2815,-2.7664,25.0136,96.9192,188.4542,262.9190
-3742.1875,-155.1277,80.9908,-140.3663,-81.4811,-225.8374,-279.5165,85.8057,-119.6323,140.0667,5.2211,-93.6972,-39.9327,-26.8634,-102.3258,126.8617,-51.3878,51.6332,155.7402,176.0738,252.4962
-3734.3750,-188.7647,45.4032,-105.3596,-47.6467,-153.3671,-208.5357,45.1653,-123.7767,61.5521,-37.4048,-18.6130,-34.2957,19.4841,-85.4713,122.5985,-55.8396,49.3956,117.7227,99.8637,249.2439
-3726.5625,-228.0341,-29.8164,-147.9630,-124.4386,-87.5130,-105.1537,72.9301,-96.5156,88.4515,-11.6122,-207.1691,-53.9026,-35.7047,-49.9987,112.7384,-28.8754,5.5546,144.1243,194.0862,240.4118
-3718.7500,-294.8811,-132.6134,-293.1207,-229.8093,-122.2151,-30.3301,109.1567,-23.8040,123.8138,59.6444,-202.3101,-114.7198,-51.6296,-33.3876,111.3377,43.5459,-64.8344,38.9824,225.7756,204.0483
-3710.9375,-371.7071,-174.3633,-301.2416,-202.1410,-93.8823,69.5379,62.4332,38.9577,112.2313,-26.0315,-356.4415,-90.8850,-76.1870,19.5821,172.9998,69.0316,-74.1793,62.8925,213.5245,193.7564
-3703.1250,-442.2189,-140.7764,-158.0287,-135.1363,-25.2212,100.7476,18.0571,-5.9289,105.0055,-109.3340,-579.2670,-25.0983,-124.2783,79.1792,202.0225,97.8871,-8.1826,128.1710,241.6424,223.8412
-3695.3125,-274.2210,-113.6534,-24.2824,-180.5991,71.9720,14.4986,39.2249,-132.2593,51.3370,-90.0583,-259.5874,-77.8815,13.1362,-1.5667,186.6100,44.3131,16.3595,12.0033,158.3302,282.5027
-3687.5000,-132.3695,-183.6499,-98.6503,-287.1810,-3.9504,-97.8602,-0.7065,-172.6804,46.5829,-58.8627,-38.0507,-178.8391,40.9321,-82.2857,109.1077,39.6548,-56.2006,8.7457,188.9447,279.0898
-3679.6875,-161.1557,-143.2687,-238.6268,-248.3766,-70.4864,-54.8311,3.7651,-94.7013,51.2381,-18.2481,-249.1559,-137.8009,-77.6918,-63.7098,77.0137,7.4145,-88.3538,-59.1040,187.9772,211.1004
-3671.8750,-171.7296,-85.6485,-248.3652,-156.3279,-117.7892,43.4404,-45.5169,2.5291,-35.8501,-33.3634,-110.0566,-78.6914,-53.3656,-38.8216,26.1832,-42.5524,-33.2527,-74.6984,241.2755,125.3853
-3664.0625,-101.8006,-120.4986,-174.5708,-121.7435,-45.5640,43.2492,24.7503,-36.6821,-2.3746,-36.8896,-218.4586,-60.5155,-83.2260,-6.3786,-13.0807,-8.9468,35.3942,-7.7276,342.1540,87.2432
-3656.2500,-179.4175,-23.8677,-113.2919,-97.6791,15.1410,29.5470,83.5270,-15.3824,54.6248,-53.8697,-449.4108,5.2422,-148.8156,35.1970,8.1704,12.1759,-12.4613,-20.2544,327.5613,109.6222
-3648.4375,-255.3247,5.4888,-159.2876,-140.8821,-30.4254,19.5863,-36.9376,45.6852,-29.6021,6.9305,-272.6648,-2.7967,-116.1546,31.6699,-39.8182,37.0652,-90.5737,75.9849,386.7548,135.7749
-3640.6250,-207.9863,-123.8821,-221.0110,-235.8052,-91.7081,-6.0738,-101.0958,54.0729,-57.5112,87.0591,-39.6739,-108.6119,-31.3398,-13.7050,5.5091,82.2724,-151.3995,85.5454,393.2866,109.2525
-3632.8125,-256.7040,-172.2709,-236.7634,-251.7455,-36.0081,51.2695,-45.2517,109.4805,69.5972,178.2276,-309.7360,-108.9180,-117.4458,-7.9215,-13.1445,26.5011,-168.2359,103.1192,443.8491,91.7539
-3625.0000,-312.0692,-229.2874,-185.1390,-204.3050,125.0728,65.0186,150.0044,47.2990,191.1218,77.8234,-588.4571,-92.9771,-159.9217,-23.7985,-38.3763,-107.8463,-86.6772,184.1195,488.8560,67.6772
-3617.1875,-237.6789,-121.5365,-72.7308,-167.0880,164.9343,30.5731,150.0732,-62.0755,154.4668,-68.7573,-325.4306,-72.3847,-58.1970,-53.9692,-38.7903,-144.3737,-15.3201,78.9389,380.7004,32.4220
-3609.3750,-171.2939,-124.7601,-77.2878,-171.8396,49.8273,25.1805,70.1979,-105.3874,110.8797,-41.2550,1.5941,-98.8151,22.8205,-74.9172,-46.1428,-114.8335,-91.9171,107.8285,372.6304,26.2390
-3601.5625,-261.5674,-216.6079,-137.4670,-161.2127,62.1028,74.1841,81.7302,-95.2813,84.7122,4.6897,-167.0324,-106.0139,-33.2262,-39.3764,-35.0826,-68.8706,-116.1171,118.1357,310.9976,1.4791
-3593.7500,-344.7326,-194.3201,-185.5158,-105.4473,197.5138,209.3287,104.4193,0.9921,32.7058,-10.1812,-507.5536,-33.0877,-137.5212,32.5546,-48.8565,-82.7355,-167.1638,67.5949,257.5441,-85.1089
-3585.9375,-297.9444,-182.0520,-133.5813,-129.6942,248.9093,223.4634,190.1223,49.2748,118.7177,-36.0183,-528.1288,-28.1780,-124.9608,46.4039,-37.6155,-70.5792,-191.2040,112.0697,266.1231,-145.6763
-3578.1250,-147.5006,-138.1125,-54.9573,-122.2546,216.9919,118.2865,230.5382,15.2656,121.4508,-34.1224,-484.0518,-29.9693,-112.2576,44.8907,2.3434,5.3012,-149.5389,12.2554,129.4265,-104.5208
-3570.3125,-121.6017,-77.6874,-105.8519,-63.3285,54.5535,28.6017,66.4594,-38.2275,-6.2985,21.3185,-167.5311,-35.3923,-37.4278,-6.7943,22.8201,-11.2942,-91.3721,34.9516,44.2618,-46.8391
-3562.5000,-253.2473,-138.7837,-98.2644,-20.9190,98.5949,-37.5907,-1.1133,-70.2074,-75.5331,25.2980,-230.5701,-50.3291,-38.1463,-31.5897,27.8116,-43.3684,-49.7065,41.1666,48.6413,-40.6344
-3554.6875,-325.4916,-176.4520,-98.2451,-25.0724,208.0737,34.6672,69.7703,0.2842,-41.2990,-15.2454,-414.2115,-35.4512,-89.1070,5.7464,-12.7280,-45.9712,-54.5922,0.8390,41.5041,-115.9573
-3546.8750,-242.3474,-164.7053,-159.7957,-49.8013,108.9848,83.3739,80.1167,47.2462,4.4143,-7.3012,-143.4533,-46.1804,-41.8309,3.1204,-75.7962,-37.0923,-115.0379,45.9862,84.8642,-141.8056
-3539.0625,-68.5550,-96.2915,-164.6674,-17.8531,-43.4232,40.7780,36.1750,39.9277,-3.1439,95.3956,73.9573,-32.6099,-9.8590,18.0761,-46.1478,66.5173,-83.7950,5.8494,42.9672,-110.9308
-3531.2500,22.6001,-146.5037,-1.1563,-34.5279,9.5539,-127.4202,14.6418,-18.9704,11.7231,71.5418,-166.2876,-58.0109,-85.3577,9.0407,-69.0825,117.5544,3.8367,23.1252,93.5135,-58.6369
-3523.4375,-77.9371,-212.4084,39.6781,-65.8808,86.8649,-161.2643,-20.5264,-54.4916,-24.0321,-37.9253,-344.2395,-84.5733,-118.8672,-7.8727,-67.6477,81.9717,-28.1908,60.7734,94.4598,-55.9719
-3515.6250,-148.1310,-106.9482,-35.1098,-67.8539,84.5601,20.3001,-61.2788,15.4153,-28.3623,-116.9509,-307.8405,-23.6904,-109.9817,45.4363,-34.7849,77.8158,-136.8232,22.8333,19.8420,-58.8856
-3507.8125,-203.0353,-21.1623,-205.5698,-124.5007,-13.4099,106.2118,-50.6686,25.7010,-18.3131,-70.5881,-111.1440,-14.1532,-57.3441,49.9853,12.4526,88.0334,-228.1063,71.2589,66.6182,-10.4281
-3500.0000,-246.0429,-30.4510,-253.0946,-100.2100,-24.4454,95.0746,-63.0998,49.9581,-31.2882,-10.2331,27.4457,-21.4430,-27.7421,35.1114,-37.3390,75.2323,-169.4440,24.6462,53.3773,-22.0000
-3492.1875,-93.8502,-18.5107,-94.3839,-18.6780,-49.2498,70.1846,-126.2799,23.4870,-57.9989,72.4222,188.2364,-2.6589,-14.8338,36.4877,-137.8597,85.7126,-88.5286,-70.7121,61.4120,-47.2976
-3484.3750,-21.0564,-85.9521,55.9589,-17.5111,-83.4226,35.9346,-124.8046,23.6845,-20.0370,35.7711,44.6368,-28.4800,-43.6874,17.4380,-99.7087,49.8752,-17.9595,-70.4084,96.1416,-81.9208
-3476.5625,-34.8029,-99.9279,1.7852,-32.8579,-64.1085,18.1719,-32.8145,5.4027,-39.5429,52.6574,-155.5093,-36.0956,-82.6510,20.7861,-8.0304,67.5679,-33.8853,-122.6024,-62.5973,-63.0223
-3468.7500,-83.3358,-78.6847,-53.1549,57.0352,-83.5611,-37.3496,-90.5593,-15.6123,-60.7703,68.8353,-208.4557,4.4548,-109.8901,47.7549,7.9215,120.5369,-14.5629,-32.5334,-116.0511,-8.8524
-3460.9375,-42.8164,-73.3659,-49.0156,61.0145,-79.9270,-70.7804,-51.1894,-13.5066,-58.8694,-3.8418,16.6434,-14.8421,-19.8755,11.4404,9.9967,85.6357,-11.1432,-100.3520,-114.3663,-5.5621
-3453.1250,-7.5593,-108.2678,-48.0931,24.7803,-116.5097,-70.4167,-15.0005,-14.5801,-23.1398,-79.6773,238.4960,-58.5652,59.8064,-28.9836,8.8993,47.5685,-47.9220,-137.3656,-82.8467,-42.4516
-3445.3125,-49.8062,-45.6393,-130.6362,-18.9236,-162.5579,-5.5153,-25.2491,47.9150,-33.8304,20.0800,10.8497,-21.5489,-47.8921,15.3356,-1.6232,74.0788,-92.1519,-5.8086,-57.7263,-51.7702
-3437.5000,-54.3992,19.6515,-103.4943,10.0570,-98.9210,58.0820,-36.7806,74.1331,65.2137,154.5846,-181.1487,41.9562,-123.2530,82.3354,-13.4240,136.3171,-99.6824,-12.5342,-31.8619,11.6284
-3429.6875,-89.4437,-85.4980,-31.7733,-96.3799,-64.6933,-18.7151,-3.6891,69.9801,133.8903,186.7307,0.3951,-53.4999,-14.8224,23.5866,19.3947,132.1815,-100.6119,56.3628,36.6594,45.6416
-3421.8750,-190.7902,-151.9271,-62.3274,-234.0805,51.2715,-86.7570,74.1792,73.6021,175.3535,153.6602,7.6347,-141.7173,30.8102,-52.0171,23.9828,62.8254,-168.7904,23.0320,106.9836,-22.5814
-3414.0625,-251.6786,-141.8766,-124.4006,-260.2965,99.7256,-2.2992,121.5650,120.7476,148.3478,199.1367,-200.6776,-128.1600,-46.4254,-46.1088,-3.8999,-1.0027,-231.4697,-74.7931,113.8481,-85.2892
-3406.2500,-276.3709,-238.6156,-190.2440,-183.2746,33.4183,79.4114,165.2176,127.1737,227.6223,168.9171,-191.7923,-114.0000,-48.7752,2.1048,2.4919,42.4538,-153.9004,-32.3525,261.0097,-77.7291
-3398.4375,-255.4667,-357.7407,-96.4455,-163.6185,15.7499,61.7712,183.5332,108.2808,208.5772,149.4018,85.6909,-168.4126,67.2088,-6.9572,20.5507,97.5952,-63.6748,-154.2460,172.8607,-58.5016
-3390.6250,-202.1042,-373.3943,-41.1625,-145.4700,-2.4290,42.6344,163.3586,50.9195,115.0630,165.4373,-116.3771,-161.5394,-17.5752,-7.9867,1.1229,77.2642,-80.9464,-205.6274,154.2553,-40.7605
-3382.8125,-206.1843,-307.4739,-9.2959,-150.7338,-8.0114,37.0883,156.8080,81.1851,71.1866,158.1188,-266.8973,-134.2601,-74.9019,-8.7845,-5.6811,33.5597,-86.6124,-177.3906,76.2957,-46.4075
-3375.0000,-148.9629,-145.2321,-60.0985,-93.6548,-22.2421,22.8876,104.6288,65.8286,18.6913,68.1930,13.8855,-93.8706,21.0429,-51.8266,14.8936,-54.7636,-30.9252,-225.7919,-9.2782,-60.6884
-3367.1875,-150.6386,-111.8678,-23.7729,-97.4389,50.6688,-87.1627,139.6145,27.6475,17.3702,66.4651,160.7729,-115.2641,93.2010,-131.1221,-23.3516,-166.9046,0.9164,-125.0195,56.3419,-134.8026
-3359.3750,-110.0019,-141.1830,56.8903,-21.8808,203.9155,-81.8647,255.9591,69.8476,95.4214,181.1367,-163.0288,-70.0089,4.9555,-86.7836,-55.2308,-161.6655,40.1216,-120.8829,59.3499,-165.5525
-3351.5625,2.7528,-98.3689,133.6967,-16.1785,169.2997,-115.4168,257.4639,108.2267,134.6500,146.0013,-378.7254,-32.0597,-84.6461,-36.7815,-52.9424,-86.2524,81.4846,-79.5847,64.5506,-89.1411
-3343.7500,52.6699,-84.3852,72.6941,-108.2881,-2.1230,-176.7717,85.1921,82.8282,35.1110,120.1062,-35.2690,-98.9136,-18.9738,-96.0533,-78.4354,-74.6144,59.0532,-32.0626,40.0063,-76.5177
-3335.9375,88.3399,-12.6235,39.4760,-38.6044,-72.7515,-63.3281,-23.2554,121.2572,-73.5942,121.0600,225.9419,-56.1529,36.5813,-83.1920,-113.1049,-109.1507,58.4248,-32.7269,-31.6931,-147.0817
-3328.1250,80.6613,-20.1964,103.9445,23.7710,66.3128,-35.1763,78.0159,148.4198,-9.5716,147.7608,70.8060,-7.9810,22.8895,-43.8678,-123.0527,-118.9554,49.4977,99.3394,64.3578,-155.9316
-3320.3125,4.8436,-166.9029,96.2974,-53.9639,204.2716,-80.1187,178.2035,138.5175,127.3761,174.4095,-84.4710,-88.0719,34.3717,-78.6492,-60.0738,-128.8313,7.4695,92.3298,21.3488,-127.8706
-3312.5000,-132.1513,-198.7774,62.4890,-85.8548,207.0757,-4.2085,143.2579,140.4851,93.2034,175.9448,-154.9340,-90.6500,-3.6081,-58.2519,-94.2175,-126.8318,-60.7054,95.1799,-12.7811,-124.9485
-3304.6875,-133.9231,-94.4240,97.9188,-17.5056,243.1246,68.9456,178.5783,175.7257,54.3168,210.7656,-229.1831,-6.9857,-24.4836,-5.6986,-97.0850,-128.5542,-27.6279,163.3000,-15.6182,-162.7630
-3296.8750,6.4138,11.0608,168.4868,120.9836,165.3143,138.2472,27.0681,208.1466,12.6122,205.7824,-158.3220,76.4742,-10.4374,44.6231,-27.7765,-96.0833,40.6058,90.5746,-89.2706,-129.4109
-3289.0625,91.5541,-44.6356,107.8871,135.3147,30.3470,77.4021,-108.5746,182.4498,-13.2165,216.7049,2.3441,42.6469,-6.2163,40.7275,-52.5942,-11.7250,89.6976,69.7165,-41.0332,-80.1948
-3281.2500,106.4028,-99.6163,48.0207,79.3887,-65.8723,17.3111,-95.4453,122.5359,36.7392,192.4259,89.7165,-20.7080,2.8564,-2.6687,-39.6334,1.4095,103.5480,-57.3739,-28.0022,-66.2182
-3273.4375,175.4183,-30.4160,9.3460,41.6602,-141.8967,-20.5790,-98.0972,82.8479,33.9334,116.3877,272.2542,-38.6170,41.9598,-50.3404,-42.4437,-37.2332,101.6079,-200.2576,4.2613,-68.0310
-3265.6250,139.4523,-66.1871,81.7143,39.9768,-143.8826,-22.4252,-63.6835,80.2364,68.2093,39.4447,160.8049,-41.3452,42.0090,-42.9268,27.8218,-39.7949,134.7209,-202.0765,142.6226,-69.7829
-3257.8125,-1.6436,-66.0856,115.9729,145.1857,-182.9750,11.6274,-67.3493,150.5602,138.4178,146.4516,-25.7836,20.8674,-36.3804,15.6951,24.0064,-6.4208,168.7380,-237.9909,105.9213,-35.6234
-3250.0000,-13.9267,-8.1586,64.0675,202.2405,-271.2204,-40.4680,-83.1453,171.7684,122.5079,204.3570,70.4385,57.9670,-61.0422,25.1463,-64.9370,14.8383,155.6121,-180.0410,127.1172,-13.6037
-3242.1875,75.7956,45.7936,12.2014,220.3370,-286.4232,-129.5161,-98.8646,156.0565,69.6868,224.3602,18.6712,74.8495,-105.0473,31.9517,-80.7980,72.1776,208.5429,-163.0164,144.4091,-65.5250
-3234.3750,160.9801,97.2168,-46.1679,199.9359,-235.1338,-152.0596,-85.0615,169.8737,83.4034,164.9139,-77.6317,78.5393,-118.5599,17.8208,-30.1268,49.0461,222.9758,-217.4829,123.2350,-50.9384
-3226.5625,175.5885,41.0603,2.8971,37.9795,-114.4028,-286.1454,-73.7910,34.1691,131.6031,64.9512,-65.5163,-26.4281,-51.4450,-79.2153,18.0255,-12.6073,201.8602,-64.4802,171.5546,-1.8916
-3218.7500,104.0767,-30.2088,75.8446,-69.0876,-3.7704,-249.3336,-37.5975,69.3861,93.7293,63.9193,-28.5262,-80.5352,14.1879,-76.1115,53.1028,22.6649,199.6553,-65.5680,133.8154,-38.9331
-3210.9375,17.7850,-151.2471,136.0289,-14.9113,18.1142,-154.2735,20.8657,128.8790,116.1362,49.1836,-42.3142,-71.7181,40.1461,-13.3967,75.4552,82.2168,183.7115,23.6037,152.3600,-89.7130
-3203.1250,29.0446,-243.7164,146.8074,-4.1308,-8.4033,-143.6119,30.9435,102.0047,162.1729,59.1009,41.4622,-113.5560,82.0925,-52.1729,85.4321,18.4089,194.3785,70.3952,127.5407,-78.8824
-3195.3125,109.2615,-95.1996,116.5745,4.6560,-0.9206,-172.9433,1.0419,34.1647,132.2372,102.0608,122.2056,-68.9490,75.1451,-41.5411,54.4389,61.6353,203.0505,8.1894,64.7436,-35.0437
-3187.5000,60.6611,-36.5013,138.5290,-8.3554,20.7614,-151.0724,22.3555,-17.4461,153.5313,123.2617,-39.8769,-28.5272,13.7052,-7.0024,38.6668,83.0907,189.9265,136.1922,122.1818,-12.9986
-3179.6875,-28.8530,-126.7334,157.5740,41.7308,38.5419,-22.1003,113.7909,0.0750,207.9579,30.6059,-131.8817,-8.9432,-24.0882,38.3780,-16.9780,64.6738,134.9091,116.3019,66.7534,-67.8485
-3171.8750,45.0634,-193.5414,90.0723,10.2689,44.7680,130.3312,82.6949,6.0863,102.8596,-147.5604,-51.4608,-33.7444,-0.6332,35.6185,-48.1526,-3.2612,67.3563,118.8690,33.8047,-135.2433
-3164.0625,79.2057,-88.1191,53.8222,-25.9421,8.2459,168.0209,45.8615,-30.6259,66.0419,-184.4358,-14.8193,-16.8098,5.8566,22.4393,-11.0553,-39.9203,31.0628,153.7099,-2.8630,-171.3853
-3156.2500,149.8759,87.8461,194.1218,8.4064,1.2772,50.2661,74.5958,-74.7605,132.7982,-81.7271,88.3449,30.0064,86.2787,9.1755,128.6190,-10.0027,65.3338,118.1072,-38.9568,-30.9735
-3148.4375,57.2160,-4.5001,201.1119,56.4600,-28.9893,-51.7846,119.0459,-67.1695,176.2803,-74.2829,96.1808,10.0766,106.8805,-4.9157,135.0225,-3.3523,113.3142,200.2203,7.6749,87.1438
-3140.6250,-117.6698,-108.0687,128.8967,161.3151,-64.4496,22.9687,83.3117,-29.7494,67.5877,-110.0001,-13.2107,36.1603,38.6989,40.0700,63.2509,-1.8734,113.1041,165.1528,-62.8650,52.0661
-3132.8125,-58.9191,-49.0089,47.3307,255.8151,1.7473,51.3765,1.2510,-37.6501,-14.4296,-119.0287,53.0292,83.0527,28.9873,41.3034,-18.8415,-46.7200,66.5502,154.7396,-144.7271,-29.3565
-3125.0000,161.8617,137.0683,-84.1976,231.3563,15.9939,29.8387,15.2637,13.5320,-74.3563,-67.9697,214.2972,117.6621,39.6345,20.5818,-78.8550,-69.4848,7.0523,200.3993,-240.5007,-124.7207
-3117.1875,323.0131,263.5257,-28.3331,180.2973,35.6374,12.7103,-2.2993,33.1475,-90.8457,-48.4726,233.9417,130.3338,53.3163,14.7251,-22.4427,-49.8130,-9.0382,44.4716,-289.8469,-104.6758
-3109.3750,251.8853,157.7275,76.2782,38.9954,66.0356,-103.6626,28.9041,27.5422,-23.5636,-54.1882,7.3087,48.2839,33.3545,-3.4520,81.7450,18.6371,-9.3721,8.3096,-151.4167,0.1239
-3101.5625,168.2813,108.4626,61.4354,25.2498,50.9880,-45.4733,12.6801,-25.4853,-2.7118,-33.3144,102.2021,25.9683,61.0602,-11.2840,65.5070,2.6602,-23.1503,-5.2845,-164.4084,21.4731
-3093.7500,139.3642,150.8746,-41.7102,137.2120,21.6572,109.4218,20.1799,19.2117,-32.1395,-62.7045,145.7814,102.7030,60.0126,52.6818,72.9941,10.4109,-88.2183,-34.1746,-229.6830,-7.4778
-3085.9375,116.0257,127.8660,-28.2561,183.7769,-2.0616,159.9171,-3.6984,31.5310,-55.9491,-123.4612,48.9456,131.5721,13.6064,90.6693,49.1042,22.7908,-75.6736,12.5486,-217.3279,-30.8230
-3078.1250,118.0207,130.1987,46.5406,255.6950,-37.4257,161.7705,-39.2127,33.2263,-54.3908,-158.8348,86.4457,145.5627,36.8219,82.2230,87.5874,-11.4501,-3.7699,-126.3762,-251.6049,-28.8125
-3070.3125,98.4984,147.0257,62.8323,237.1152,-95.2824,141.1308,-23.2106,-23.5503,-38.3090,-105.6775,139.4351,139.8201,48.0726,74.6606,103.5999,4.8325,-22.3584,-74.7896,-235.3515,-12.2982
-3062.5000,25.0095,213.8826,-13.8225,304.5880,-172.0809,137.5443,-27.1382,9.7471,-79.1498,-72.4437,135.4608,192.4986,19.4626,106.4800,99.6878,37.1923,9.1184,-42.1415,-274.0180,-15.7300
-3054.6875,14.5197,309.7157,-61.4702,364.0706,-182.8754,126.9646,-75.0499,35.0677,-89.9721,-46.1768,161.4735,244.1883,-5.2278,115.6389,51.7966,26.5826,-1.3972,-88.4937,-249.6669,-26.1586
-3046.8750,88.5218,278.0286,-57.6182,227.0517,-143.1697,-53.1123,-34.4424,-34.0891,-12.2607,-42.3855,201.9734,151.9543,24.1342,34.9499,55.4298,30.4989,37.5945,-119.3285,-34.7882,-22.0846
-3039.0625,170.2634,219.0867,-10.0200,132.7819,-58.7055,-116.4404,48.9381,-60.4737,34.2379,-31.8088,285.2117,80.7430,84.2563,-7.3926,65.8373,41.1869,48.3437,-248.4069,45.8603,-11.2579
-3031.2500,172.1441,221.2935,28.7239,98.6676,16.9201,-77.6201,87.4869,-21.6877,35.9110,-30.0484,102.5919,103.5223,35.5926,51.5664,67.4140,117.0494,15.2492,-175.3300,82.6766,-9.2799
-3023.4375,119.0155,133.4819,9.4683,46.5562,107.5546,-22.7972,105.0508,33.1194,53.6050,-12.2578,9.9699,74.7530,37.9099,69.4710,85.0145,134.9367,-36.8343,-88.2401,65.5182,8.7001
-3015.6250,38.8823,123.6559,-39.7864,1.4518,95.1947,39.0364,56.6334,57.9473,42.3275,12.5584,108.3426,55.6084,79.9760,63.2794,109.6428,122.8447,-82.9030,-63.1483,55.3771,33.6820
-3007.8125,5.9893,91.0786,-110.7959,3.6098,97.0883,114.1325,21.4826,60.0472,7.3260,14.6513,219.9510,56.6528,111.2452,79.5713,74.5424,125.0248,-115.7090,80.2078,127.5114,35.9135
-3000.0000,-31.6587,124.7435,-76.5596,37.0308,132.2398,149.4880,-17.4017,58.4227,-105.4073,13.0165,291.7961,83.3917,147.3912,95.4696,72.7057,123.4730,-82.2484,78.8244,90.9170,34.3908
-2992.1875,-60.5498,167.1474,5.4343,43.2151,103.1534,157.5989,-83.5273,65.5697,-134.3769,21.1532,188.3902,106.8237,94.8792,100.8445,43.6287,94.6889,-40.0210,120.1979,62.0893,5.6137
-2984.3750,16.6478,173.6365,48.5358,119.5052,72.1751,163.8072,-77.5372,71.8410,-54.2260,27.4141,47.0759,149.3946,19.0371,107.0830,-23.3281,28.0214,-69.6846,267.6888,139.3885,11.9353
-2976.5625,207.6292,152.9129,26.4433,134.5994,51.0068,141.8221,-25.7299,123.9341,-2.2534,78.5001,61.5557,135.2907,25.8551,87.7860,-8.4631,6.1718,-18.5337,212.9836,224.5081,27.0571
-2968.7500,219.1116,94.6864,39.8512,76.1995,-9.6491,81.3458,24.5962,100.5464,84.2386,55.1047,110.5245,82.5640,42.4821,58.2320,4.9217,19.8417,-6.8626,259.7915,271.1493,3.6771
-2960.9375,105.5026,158.3532,32.1555,103.7051,-91.3926,37.7782,16.8409,56.0772,113.6533,11.6307,139.3826,100.7621,38.7662,46.1971,33.2254,12.4303,20.7284,217.5046,158.7109,-3.8092
-2953.1250,66.2472,153.3613,62.8195,170.5714,-97.7723,-5.4333,-63.5487,50.9771,70.4374,78.5284,132.5817,109.8861,44.1648,37.0948,63.8915,6.3845,51.6868,178.5660,83.6323,27.0493
-2945.3125,62.8790,150.2553,59.3952,202.3466,-101.2400,-82.7410,-30.0250,47.7934,67.1421,112.3450,128.6704,111.6537,44.7442,22.5134,60.4712,3.2556,48.5533,210.5498,115.4720,23.8040
-2937.5000,157.4635,139.0819,47.9292,156.0809,-75.7455,-57.0909,-4.5343,72.5795,55.8172,101.1297,116.7067,94.3260,19.7984,30.5069,13.0257,29.0890,37.3778,93.4911,34.2679,12.5047
-2929.6875,72.8488,125.6962,69.2652,71.6219,-54.4412,-35.6355,-20.2257,94.1862,4.3174,122.7407,64.5351,81.0330,-12.1811,57.5150,-39.6015,86.7395,-10.9923,115.2408,55.8819,34.0026
-2921.8750,72.0759,195.1572,29.4472,36.0135,-20.2794,-38.3235,13.9482,55.6683,38.6936,120.2210,61.2189,82.4420,-0.2083,33.1976,-5.3595,48.2618,-12.5095,44.8465,20.3571,68.3488
-2914.0625,82.8013,171.1217,3.1238,10.9119,64.3925,9.4937,98.6399,-7.3339,12.5865,21.2225,108.4076,59.9221,63.4172,7.2338,42.4002,-14.6997,-1.5178,-15.0511,-4.6624,79.1918
-2906.2500,88.4773,72.0268,10.7509,17.7764,72.0267,17.2683,142.2930,0.6271,-16.5564,-44.8037,78.5421,33.5341,83.3240,10.4967,86.1292,-6.6935,-30.5693,27.0110,2.2707,49.9795
-2898.4375,88.6455,107.4290,85.8850,18.1594,110.1756,92.5564,107.4521,40.1028,-88.1912,-5.3177,116.1673,60.8922,70.8351,51.5540,15.3756,32.8399,-65.1155,-78.4267,-103.3072,15.2639
-2890.6250,93.8170,147.8430,53.0215,58.5569,113.3347,96.8533,74.6156,43.5920,-120.8194,-38.8172,82.7946,98.4909,43.5083,72.4157,-18.3618,36.3878,-59.6536,-37.8649,-62.8902,55.5482
-2882.8125,46.0968,65.3552,37.2615,46.0698,98.5972,44.2522,58.8959,-8.8051,-98.3289,-17.2061,66.5214,54.8571,64.6846,53.5361,40.0216,58.0466,69.9210,-14.1956,-4.3635,113.9329
-2875.0000,-37.0658,52.4037,61.0621,33.1471,122.4236,31.2057,45.7417,15.3597,-148.2712,43.9756,52.7934,44.7791,75.3142,55.9995,63.9704,82.2725,92.0532,-96.9815,-17.2827,100.8631
-2867.1875,-120.0337,75.6435,48.0748,20.4290,72.4618,18.3654,69.8042,2.7335,-123.9953,31.3707,-106.7339,62.2188,14.0788,75.6383,88.1358,106.7126,79.3940,-4.5643,-29.9900,87.9861
-2859.3750,-19.2583,141.6382,41.8444,16.4675,66.2638,-23.7246,63.6313,-75.1284,-92.9534,62.5228,-223.5080,77.9481,-39.7940,76.9772,119.0695,137.9145,39.4956,-42.3995,-103.9450,118.8539
-2851.5625,87.2228,143.3355,5.3177,18.2171,28.7767,-97.1097,63.1697,-112.2761,-56.2032,-10.6104,-150.5736,62.5175,-40.3406,52.0324,81.7221,137.8323,41.3049,-5.5405,-137.2012,155.4209
-2843.7500,112.6156,132.9263,-41.3148,42.8688,-17.8015,-107.5921,15.6131,-122.5079,-66.5471,-56.8238,-51.7323,52.4335,-17.1151,23.9489,71.2950,90.6713,66.0123,53.2218,-147.5502,144.8890
-2835.9375,79.8633,65.3609,-2.0991,46.3722,-50.5207,-67.2177,-17.0847,-81.8705,-63.0278,-53.1678,-49.0413,37.3586,-3.7789,45.6720,111.7382,131.3776,105.5716,-12.1742,-109.0499,148.2044
-2828.1250,29.6592,-19.6674,-18.3307,-73.5759,-30.6801,-47.2820,2.7883,-24.6675,-6.9373,3.0539,-139.8072,-21.1657,-14.1314,41.5568,131.7484,151.6436,89.6901,41.9831,16.0143,168.0637
-2820.3125,-47.4479,-61.6026,-64.4610,-221.4161,33.2764,-56.2367,30.7803,3.6530,57.2686,104.3850,-112.4700,-95.0063,15.8651,12.3974,159.8734,180.0209,13.9163,-69.7583,10.1794,196.0192
-2812.5000,-28.2406,-112.2424,-155.2838,-306.9461,52.5393,-109.8795,14.0818,-13.7153,76.7838,198.0191,89.1807,-172.8662,78.2323,-53.7961,142.3112,162.7112,-142.5477,-120.2003,-6.3681,215.2729
-2804.6875,-17.8192,-172.6874,-218.8999,-402.2708,99.0117,-99.3229,24.5875,-2.8815,87.5111,208.8548,99.0368,-221.9431,91.0391,-55.3172,152.9686,210.6094,-272.8067,-109.4363,40.2888,225.7239
-2796.8750,-112.0452,-90.7805,-171.1560,-391.2408,146.8468,-52.4178,35.4545,8.2992,98.6032,146.0485,-110.7519,-165.3811,39.9788,-11.1550,200.9945,221.8644,-261.7078,-169.3285,15.2915,236.5215
-2789.0625,-221.4289,-94.0171,-137.5589,-359.3480,143.5492,-55.6638,68.1829,-31.6657,132.5525,106.0960,-151.6846,-150.4158,37.4366,-14.1309,197.8816,181.9761,-194.7506,-101.3654,48.1475,233.1665
-2781.2500,-239.2622,-111.7038,-155.4081,-235.8995,125.8116,-36.3566,14.4731,-49.0721,42.0630,125.6934,-60.0565,-127.6685,68.9905,-36.0243,180.3379,90.6445,-106.2309,-83.8466,-5.4395,215.3591
-2773.4375,-165.2272,-72.5412,-151.4083,-90.5963,56.9332,-32.1933,-55.3759,-44.6216,-26.5625,57.1509,-19.5796,-69.8403,65.6469,-23.9190,184.6507,59.1684,-66.8535,-114.4806,-36.1745,219.3987
-2765.6250,-132.3316,-110.5412,-154.5524,-93.4431,-19.0907,-72.1746,-95.3651,-84.3154,-29.3252,-18.5251,13.7452,-87.6071,61.4306,-25.8116,181.8186,92.5543,-34.6195,-47.2537,65.9525,216.2804
-2757.8125,-65.4807,-113.6093,-119.7381,-131.3307,-20.1502,-73.1906,-96.3925,-48.0479,41.8731,16.7557,84.0205,-124.2417,88.0301,-75.7114,180.9476,18.8962,-1.4269,-155.0750,28.0285,178.1027
-2750.0000,-36.4817,-85.5306,-50.7692,-244.0589,46.9586,-152.0490,-101.2624,-52.6234,74.2319,11.1887,189.4501,-173.6000,125.6814,-121.5645,139.2411,13.3895,-43.0833,-126.7408,-47.7508,136.0692
-2742.1875,-11.1464,-59.0944,12.5494,-252.4249,75.4309,-160.5509,-109.7757,-134.8435,28.9460,-33.0277,143.2334,-162.6595,109.1997,-107.9811,130.8940,42.2408,-17.3933,-100.0446,-92.1865,127.3828
-2734.3750,-70.2561,-48.0889,60.4219,-205.2287,123.4629,-149.4960,-98.7366,-123.5043,3.2074,-57.6819,79.5707,-124.8139,90.2435,-62.3765,105.1062,90.6536,63.8501,-123.8048,-116.0827,138.2439
-2726.5625,-17.9448,-65.6927,-30.2967,-187.6341,105.9058,-167.0412,-79.2863,-103.7671,-14.1176,-38.9391,61.3174,-122.4022,70.9067,-54.6840,87.7284,110.4747,82.5054,-35.1634,-62.5700,120.4996
-2718.7500,13.8816,-103.8160,-68.5011,-191.5442,141.8684,-94.0893,29.6800,-68.5348,60.0682,-39.7023,-50.4291,-121.0489,41.4441,-45.1745,86.8657,73.7974,8.6735,-5.0306,-67.5625,46.2474
-2710.9375,-16.3351,-168.9986,-59.7499,-221.4953,187.8040,60.8202,111.6035,-22.3555,68.2056,-104.5116,-152.2197,-115.1749,12.1436,-16.7546,21.9589,9.0738,-56.2005,142.0461,8.3809,-19.0640
-2703.1250,-94.7994,-212.4302,-29.2480,-228.6809,217.5038,201.4905,105.2792,-28.4264,62.0934,-147.5760,-86.2588,-107.5873,37.5628,18.0421,-21.1933,2.1029,-64.3174,238.8769,35.0629,-62.6314
-2695.3125,-157.6134,-205.2015,-20.0937,-151.2030,190.8616,322.8229,115.6083,-54.8428,35.6326,-136.9946,-76.6412,-61.8105,44.2135,53.0199,-10.6858,-24.2145,14.2242,248.3519,44.3807,-89.5534
-2687.5000,-182.4170,-229.9673,-7.9344,-104.7203,166.2301,334.1586,126.9513,-43.2638,48.1758,-161.4152,-139.0217,-42.7810,17.4157,64.3535,-35.1659,-48.5338,25.7692,363.8274,89.6941,-114.4810
-2679.6875,-107.6130,-191.1337,-4.1770,-30.6322,133.2138,302.0944,57.9009,-2.0852,15.3235,-157.2293,-135.7992,-14.7924,1.8321,68.5338,-31.0332,-44.2506,64.9185,297.8966,-12.3961,-110.8133
-2671.8750,-72.9601,-121.4487,30.4345,-30.6866,58.0534,262.8863,-54.3023,32.9486,-96.6684,-122.1930,-101.7217,3.2029,-12.8825,75.2690,-33.0434,-9.1169,64.9165,262.8077,-12.6379,-76.2980
-2664.0625,-58.2074,-106.6681,45.1516,-15.6360,-0.9997,167.7780,-76.3957,11.0772,-118.5525,-144.0708,-50.5374,-9.7455,0.2868,38.3691,-17.9451,-29.8857,115.0218,241.8194,-32.7764,-61.6875
-2656.2500,59.8095,-57.6465,95.1355,32.6648,-23.7888,106.9186,-100.2298,-11.5508,-142.1874,-167.7060,34.9029,5.7359,8.6601,30.4854,-40.5856,-16.4083,163.3872,150.0619,-125.6809,-48.8324
-2648.4375,56.7472,-60.7348,55.0312,64.8649,-63.6687,66.9528,-140.1600,-14.2828,-144.9208,-170.4425,68.2483,9.7253,-4.1761,22.9551,-80.3200,-19.0281,195.6581,182.2028,-57.6989,-52.0799
-2640.6250,135.0968,16.5876,99.3372,37.4659,-93.1451,1.3868,-95.6917,-43.6249,-137.2505,-125.7821,75.0050,9.9791,0.4305,2.1226,-35.6462,-11.2474,203.3365,119.7403,-121.3323,-44.9314
-2632.8125,236.8996,83.3696,133.0983,69.5236,-96.1658,-38.7236,-98.7731,-46.5173,-140.1243,-54.6768,108.2176,37.2870,-2.8830,9.3119,-38.5160,21.9860,165.4631,45.7153,-88.5327,-48.3383
-2625.0000,233.1981,43.6429,130.3569,101.0806,-98.6809,-78.3319,-64.3462,-12.9179,-32.4882,15.9234,177.9327,24.8881,14.5326,-17.3749,-77.8756,-17.2819,126.0881,112.1852,-23.2427,-88.2504
-2617.1875,193.4970,74.9047,163.6176,166.6340,-65.1815,-7.9373,-67.9102,21.6738,-34.8491,13.5152,285.6552,69.7122,31.8949,15.1457,-154.2279,-19.5465,121.7124,72.6434,-62.9687,-128.1626
-2609.3750,156.1599,108.5149,199.2372,236.5398,-66.3230,101.8090,-105.1241,57.6063,-108.8662,12.4510,209.7377,131.1855,2.2406,46.1711,-192.2244,-93.4633,120.6883,247.4498,-99.3582,-129.7260
-2601.5625,121.3403,108.6231,199.3651,271.9435,-28.9559,175.0603,-141.8268,58.0364,-108.3824,-24.1277,135.3336,158.6256,-4.3188,76.5527,-154.7118,-92.8869,121.1612,282.7538,-134.2582,-129.7947
-2593.7500,147.4832,99.6853,153.4504,263.2972,-0.6312,203.2653,-113.5694,12.4130,-80.9490,-69.7683,162.8921,149.3127,18.3756,70.0572,-126.2414,-101.3728,112.5798,239.0040,-108.2198,-138.9197
-2585.9375,154.5829,0.6922,160.4870,200.5950,43.6563,210.4258,-106.3542,-54.2666,-36.5721,-135.4582,206.4074,88.1441,52.7122,49.2292,-118.8194,-93.9158,119.9491,211.2094,-66.2305,-132.1032
-2578.1250,107.7416,59.7386,146.5812,187.9425,30.0092,233.6443,-120.0863,-30.8999,-86.1496,-149.0984,191.9780,113.0602,38.3377,81.8996,-95.3475,-34.4176,38.3715,93.4613,-148.2024,-109.2463
-2570.3125,16.5012,74.3773,88.2863,202.8961,-65.0273,322.4621,-179.2170,58.0657,-145.1326,-97.1479,96.1492,154.7147,-31.5647,144.0300,-117.2767,17.6743,17.3959,108.3125,-63.5825,-94.7962
-2562.5000,-4.8928,87.8575,103.8476,146.7014,-50.2038,264.1245,-126.4928,36.8757,-129.2678,-8.3574,74.1702,130.7964,-53.3245,112.8433,-175.3503,-3.3832,102.2717,16.0089,55.8787,-116.5032
-2554.6875,153.2142,34.8379,158.9087,94.0096,6.1268,172.2866,-71.2666,-17.8189,-73.9004,-26.0682,128.6961,56.4239,-8.8824,36.0247,-155.9209,-57.9429,190.6462,-177.8136,72.8252,-134.7160
-2546.8750,248.0749,-12.4288,182.7142,118.0730,-6.7908,123.1968,-83.2898,6.2265,-122.7816,-75.0354,115.9756,37.8902,-9.2825,7.5466,-168.7399,-106.7603,214.7720,-153.8875,61.5171,-111.1819
-2539.0625,233.2832,42.6553,165.8737,208.4855,-59.3551,143.4568,-173.9607,63.6095,-176.3138,-18.6691,61.6184,93.1010,-47.9755,40.4596,-148.2021,-86.2339,199.2469,-237.6260,10.5490,-91.2989
-2531.2500,96.1895,117.4333,133.7414,283.5903,-166.2157,147.4130,-242.9288,104.6804,-172.1385,96.3849,-9.0211,154.1330,-105.1412,66.4361,-143.9568,-82.0134,168.4176,-199.6826,50.2715,-87.7162
-2523.4375,41.4647,26.5537,113.9583,299.0317,-148.7202,127.7062,-189.5494,85.0837,-117.6110,149.7789,-102.2979,133.1821,-131.8460,56.0496,-163.3556,-101.4465,148.9324,-149.4016,135.3336,-107.7851
-2515.6250,23.6117,44.5306,22.0233,316.3232,-92.3699,109.8468,-96.3276,104.3222,-62.2401,22.0159,-231.7166,150.4550,-169.1752,48.2873,-180.9114,-156.0305,166.2977,-167.2950,152.2269,-126.0062
-2507.8125,-26.7807,29.9525,-29.4521,232.0573,3.4350,58.4308,-0.6597,52.9993,34.5779,-29.3120,-318.6812,114.9651,-165.0253,20.3765,-158.0166,-170.1656,152.1096,-75.7448,208.5627,-140.7794
-2500.0000,-26.9678,-6.4358,-66.7196,160.9780,113.4506,58.2099,36.2101,15.8670,107.5911,44.5432,-319.4318,66.3067,-133.9037,-7.1541,-120.9153,-170.1115,117.1198,-111.0028,102.0932,-141.3563
-2492.1875,-63.8442,27.4709,-68.6769,89.1904,75.7747,129.2861,-2.6277,51.0233,105.9017,115.6911,-358.8699,65.3126,-162.7767,3.1422,-122.5133,-171.7701,45.4302,-77.9784,99.9132,-143.6385
-2484.3750,-170.5695,130.5242,-70.4802,17.5496,37.2512,127.5108,32.6781,49.3158,104.3573,40.9796,-361.1556,82.6637,-159.2075,4.7524,-87.9591,-173.2826,-27.1189,-9.8126,97.8784,-145.7742
-2476.5625,-177.8946,53.9693,-41.8806,10.3082,29.1289,83.1369,24.3803,40.9972,97.2029,-4.3501,-296.0401,40.9287,-123.1836,-10.6046,-59.0000,-144.3998,-33.2712,-121.2604,56.2273,-117.5102
-2468.7500,-223.9097,-64.2988,-93.9793,-1.6390,13.3063,-5.9410,8.3815,24.9664,81.3449,53.6083,-275.6165,-6.6401,-124.3724,-7.7799,-73.7412,-49.2269,-80.1280,-63.4154,78.8698,-59.9477
-2460.9375,-240.6217,-81.2646,-113.7794,-17.2916,-5.2122,-99.7260,-10.3215,43.2240,98.7842,144.8596,-258.8839,-26.2503,-128.1207,-4.8545,-56.1818,42.2365,-165.6888,-115.2808,61.8034,-6.0892
-2453.1250,-220.6810,-61.5675,-165.9276,-68.2928,-59.0810,-151.8648,9.6246,99.1194,81.8664,164.7533,-202.4966,-48.0154,-115.8483,-22.0294,-35.9764,62.3400,-216.6042,-129.5109,46.3702,13.4148
-2445.3125,-248.4473,-123.5778,-195.7798,-129.9985,-88.6446,-181.7057,89.8719,106.3007,163.2511,171.9417,-195.8144,-97.3160,-95.0811,-44.7752,8.5307,69.7353,-209.2337,-122.4428,88.2339,20.2126
-2437.5000,-267.3652,-213.7550,-179.7803,-113.8646,-72.3552,-239.6969,216.9719,86.3233,253.4863,150.9687,-180.2777,-140.8989,-39.4143,-80.8223,97.8911,48.9740,-193.0220,-247.5435,68.9313,35.8562
-2429.6875,-241.6307,-223.2912,-191.1286,-159.0945,-9.4123,-324.0457,279.7215,37.9842,242.3767,176.6273,-192.0859,-171.3181,-28.3538,-115.4273,87.9018,37.8531,-202.1689,-222.0049,94.2749,61.1464
-2421.8750,-165.7411,-182.6915,-222.3296,-188.1822,33.6789,-355.2494,285.6235,6.7823,211.4214,145.4241,-186.7400,-176.3990,-23.1392,-127.6518,94.0614,43.8672,-196.1755,-251.3283,64.7676,66.5824
-2414.0625,-162.0502,-179.2948,-218.7334,-219.4779,37.5761,-351.6582,289.3319,47.3755,141.2627,76.0095,-146.5938,-185.9530,-1.5333,-127.7249,98.0240,47.6704,-192.3882,-283.8673,33.0564,69.8145
-2406.2500,-209.2618,-191.8012,-157.0402,-266.6820,62.5790,-289.9724,313.1428,-1.9440,93.2008,26.6872,-159.3513,-190.7373,0.1102,-128.3297,49.0854,-1.4338,-169.5073,-155.3109,90.4417,57.1428
-2398.4375,-167.6264,-185.4684,-76.4962,-260.0448,144.4375,-245.4457,284.7984,-30.4223,-9.0183,-1.7965,-115.2547,-189.2287,34.7155,-142.2055,20.9918,-66.6912,-92.7831,-148.9168,26.6626,28.3136
-2390.6250,-70.8960,-194.0481,-10.8533,-198.3185,136.3957,-142.8225,203.5507,-75.8072,-54.1425,-47.1816,-88.0597,-160.6076,52.0677,-113.3748,49.9911,-74.8615,-100.9710,-52.4292,-17.0247,19.5792
-2382.8125,-44.7271,-238.1897,-19.7647,-136.1485,90.8045,-79.7599,157.7546,-47.7515,11.1829,-56.1247,-97.4156,-142.7205,27.9154,-78.8149,41.4340,-46.5940,-143.7132,-26.5010,-62.2653,10.2904
-2375.0000,-123.4497,-37.2304,-28.5745,-75.8871,46.3155,-14.6061,112.0579,-56.6108,2.6064,-27.9813,-142.6623,-40.1196,-23.9215,-37.5987,32.9763,-55.2445,-152.3613,-70.4952,-141.4142,1.0959
-2367.1875,-146.1165,80.7885,-88.3397,-63.5908,-13.1243,-37.4142,89.4157,-42.4343,-19.9290,-13.8044,-201.8607,10.5239,-88.2216,-31.1368,-26.4349,-77.8543,-140.9722,47.5576,-94.5124,-22.0535
-2359.3750,-33.6928,16.9092,-80.0145,13.7896,-41.4613,7.8771,60.8779,-71.1640,-48.3656,-5.5362,-158.9648,6.3162,-75.7939,-35.5725,-17.7500,-106.3737,-63.4962,-16.3002,-123.5210,-51.1077
-2351.5625,-81.0777,-101.7817,-55.4943,107.3661,-90.5987,-4.6312,48.5378,-46.7029,-23.6062,-18.0754,-171.8736,2.9944,-83.9304,-16.7597,-29.8681,-81.7054,-5.8289,6.0286,-100.3346,-63.9655
-2343.7500,-185.0157,-64.0475,-53.5268,144.3833,-51.2842,-76.6985,87.6516,-81.8061,14.6055,-90.1734,-133.3351,20.3297,-44.0045,-25.5994,8.4632,-79.6011,-3.7219,7.7962,-98.6933,-62.3783
-2335.9375,-171.8685,88.7837,-3.4625,122.4943,-0.8685,-137.6716,63.8652,-142.8161,-8.0886,-187.1764,-46.6995,48.7313,-18.0359,-47.7101,-14.1065,-103.4111,44.4742,-49.3551,-156.9579,-49.6962
-2328.1250,-95.7374,130.6036,2.5936,92.5942,41.5474,-167.6435,33.0737,-208.8296,-75.7931,-181.1890,-4.0642,48.2111,-22.3518,-56.1340,-81.6901,-97.2325,85.6544,26.4808,-151.2139,-44.0202
-2320.3125,103.7536,46.7585,25.9963,80.0260,29.3221,-144.2711,-15.3716,-185.5110,-88.1532,-193.8712,55.9375,-4.8035,6.3107,-94.9186,-56.9323,-146.7335,73.1802,-56.3566,-199.1252,-57.0143
-2312.5000,184.9505,22.6094,37.1113,91.1466,4.8129,-133.2085,-41.1129,-138.5176,-113.8184,-182.8802,66.6553,-8.9181,8.5424,-88.2882,-45.4872,-135.5675,49.4010,-45.5027,-222.3336,-46.3320
-2304.6875,73.9397,87.2497,69.0385,86.0640,36.1166,-138.3434,-46.0498,-143.7368,-118.6877,-152.1150,61.1859,16.2157,27.0865,-84.1403,-13.2500,-140.6183,9.4180,-15.8523,-158.7407,-51.8568
-2296.8750,-18.2144,100.7254,120.8160,63.8169,14.2666,-49.6308,-31.1480,-129.1150,-66.7200,-137.5027,38.5707,29.6262,18.4902,-54.9596,0.8325,-125.8250,-12.7338,-73.3631,-181.3037,-74.5276
-2289.0625,-90.1208,-77.5650,80.8342,-42.1963,-24.3345,21.3280,2.9985,-95.2573,40.4953,-66.6562,-0.8142,-50.5182,7.6001,-50.5386,-0.8413,-91.7967,-84.6412,-4.6294,-76.6199,-40.9496
-2281.2500,-162.0326,-185.8705,39.8684,-186.2173,-65.9314,89.2687,35.1488,-26.4280,72.7096,2.1720,-6.1940,-122.2338,-0.0300,-35.3304,-5.5164,-22.7899,-87.5421,-43.9222,-44.9378,-9.3791
-2273.4375,-50.2525,-142.4676,47.6118,-213.5413,-57.8427,60.8886,78.9921,-55.9219,44.6123,-64.3051,1.1483,-117.4231,0.8676,-25.5507,2.5006,21.9007,-79.7500,-71.5293,-37.5561,-2.1146
-2265.6250,19.4375,-144.1716,46.2482,-214.9800,-58.8692,22.3832,77.7238,-57.5277,79.4028,-138.8879,36.4155,-128.2785,27.2842,-40.0863,38.4129,20.4782,-81.0692,-38.2512,-4.2746,-3.9490
-2257.8125,-17.2595,-112.2942,7.4732,-181.8300,-60.3113,-16.5322,76.0517,-59.5416,114.7886,-67.8838,107.2993,-122.3792,55.4096,-57.0572,72.9162,18.6460,-117.7962,-110.3987,-41.4043,-6.1826
-2250.0000,-6.0520,-101.5255,-18.4023,-134.8035,-85.8662,-115.5586,51.2786,-85.6682,163.0728,54.0062,155.0835,-125.0694,52.1547,-95.6320,48.3091,-7.2965,-140.6357,-99.6542,4.3768,4.4837
-2242.1875,49.3959,-46.5108,38.9730,-80.5496,-101.1710,-205.3450,34.7597,-65.5562,109.6104,37.1375,138.1153,-98.5066,37.3424,-107.6683,31.9506,-24.0099,-120.2334,-149.6816,-10.5912,24.3934
-2234.3750,2.0264,-24.3116,63.5449,-58.1116,-77.2649,-180.9301,22.4524,-78.2482,134.3475,24.4674,88.3215,-76.2450,19.2239,-96.1862,19.7906,-36.5366,-98.6578,-162.5239,-23.3581,11.4963
-2226.5625,8.3041,17.5257,-2.2376,-87.0398,-31.7108,-209.8688,30.7905,-107.2984,142.7331,-4.5621,96.1715,-78.9885,30.5367,-119.9771,28.2821,-65.4233,-161.4482,-86.7313,17.5261,-17.7502
-2218.7500,23.4921,67.2569,-59.1223,-107.0752,22.7279,-229.9208,84.0110,-90.4622,160.0158,-24.7143,75.9720,-77.4620,48.9613,-136.9103,81.6657,-85.4254,-181.3530,-176.0667,32.2954,-38.1014
-2210.9375,36.6835,9.9744,-83.0128,-163.1104,72.1553,-216.9780,134.2262,-77.6349,173.2963,-85.8767,51.7800,-107.0354,67.1808,-134.1949,95.0381,-72.4423,-168.2720,-129.4150,151.0539,-25.4607
-2203.1250,32.6140,-65.5627,-89.1582,-168.4047,67.3333,-186.2977,128.1906,-47.0732,167.3217,-55.2902,82.3157,-127.8409,70.5269,-132.2004,53.1616,-78.7191,-208.4503,-64.0213,146.5573,4.9347
-2195.3125,-4.1139,-31.7482,-126.9522,-204.3707,27.8609,-115.2845,52.4957,-13.1854,127.6948,15.6332,116.2131,-118.8030,60.4315,-107.9714,50.6314,-44.6606,-279.2890,-65.2941,109.4163,38.6838
-2187.5000,-100.4459,10.4356,-193.3473,-231.9725,-38.1991,-71.8838,-13.8035,31.0873,135.4669,59.9328,87.5466,-94.5985,16.1853,-72.2667,21.4985,-0.2196,-307.7447,47.8213,187.6894,45.8340
-2179.6875,-118.5215,27.8452,-174.4909,-215.3424,-56.0134,19.7571,-31.8505,86.6019,81.4829,78.4773,32.1229,-61.7577,-16.3760,-27.6672,3.6196,18.4608,-289.9610,29.1628,133.2150,27.2382
-2171.8750,-13.9434,-8.0962,-173.9818,-215.0681,-55.1848,57.0317,-31.2555,86.7636,8.1479,78.6795,-41.6912,-66.8181,-40.9347,-16.7337,4.3765,18.7898,-254.5371,29.1429,133.3981,27.2939
-2164.0625,25.5912,-145.0854,-133.5283,-281.8579,-14.4258,97.2318,9.2847,52.8684,48.7539,44.8314,-1.5068,-134.4565,-0.8141,-29.6349,8.0724,22.0554,-251.1739,32.0534,207.5309,30.2930
-2156.2500,9.5277,-125.6697,-113.6775,-228.2704,-30.2913,116.8141,-6.7883,73.3655,32.7577,-8.6253,56.1128,-114.3281,24.8738,-25.2405,29.1602,5.7026,-197.4221,-55.6526,156.0744,13.6886
-2148.4375,51.6148,-14.1079,-141.6847,-150.5494,-58.0174,125.5389,2.2930,45.0116,-32.0922,-110.9381,100.8463,-46.7373,7.9622,-7.2335,-35.6004,-22.5159,-85.5331,21.7960,91.7847,-14.7669
-2140.6250,173.9387,71.7015,-50.4489,5.4170,-39.4993,106.5150,-90.3781,-48.1001,-160.6951,-202.0095,118.8188,24.7869,9.7794,-4.8629,-54.1159,-78.4950,71.6053,37.4817,2.7412,-33.9723
-2132.8125,165.5871,97.8534,15.1401,101.7238,-10.6390,97.8403,-135.7187,-56.8745,-204.9677,-138.7326,36.1446,70.4446,-26.7233,0.9120,-99.2956,-124.1286,134.0801,28.5102,29.0534,-42.8288
-2125.0000,37.1761,74.9229,27.6833,113.9569,39.1723,73.1084,-123.1121,-81.7028,-192.3013,-89.5102,85.4288,69.3050,-1.1380,1.0754,-123.5306,-111.8190,75.4923,75.4757,41.3227,-30.7429
-2117.1875,104.7296,141.9196,23.1824,111.1222,34.9434,-4.6796,-126.5417,-86.5868,-196.6828,-130.3444,154.6538,79.2737,3.8840,6.0013,-126.8156,-42.5721,37.8478,-68.6276,3.5440,1.2952
-2109.3750,219.1421,114.7531,29.5316,-21.8817,4.5605,-107.6329,-119.1246,-115.6358,-153.2180,-123.3288,160.7219,-0.4093,24.9898,-40.2824,-47.2524,0.5144,46.0412,-94.8901,46.6235,44.1875
-2101.5625,241.1424,101.1932,51.4865,-35.3035,-10.2327,-160.0000,-97.1131,-168.0975,-94.1666,-101.7152,145.4159,-30.5794,27.5233,-86.6693,-25.1008,-50.8114,102.8275,-144.5708,-2.7055,65.6817
-2093.7500,185.4158,185.9328,31.7436,14.5648,-29.7358,-106.0722,-80.8179,-188.2671,-41.8202,-85.8104,89.4396,26.1209,-0.9820,-63.9609,-7.6524,-70.8372,47.8961,-93.9659,-92.7272,45.4750
-2085.9375,53.6232,229.6068,-32.0555,93.3685,-56.2839,12.8034,-107.5742,-105.4911,-31.5371,-39.9569,25.4306,104.5603,-33.8862,15.8193,2.7459,-24.9213,-15.1003,53.5893,-119.7882,18.2167
-2078.1250,-74.5023,135.9262,-54.2071,105.8115,-114.1849,174.3305,-129.6819,55.9382,-53.6096,84.5568,40.0582,111.3975,-42.0455,82.7944,-19.2216,26.6362,-37.4618,65.7728,-107.1881,-4.3933
-2070.3125,-26.8685,-28.0088,-3.6153,11.9898,-101.3507,224.5935,-80.0451,68.1128,-2.9304,60.8231,52.4340,36.5074,-35.6359,81.1199,-79.4515,39.9313,-25.0885,147.7029,10.1842,-28.2551
-2062.5000,73.0581,-139.6576,103.2796,-99.5371,6.7667,184.1365,26.8876,27.5812,30.0444,-15.6136,123.1373,-63.9611,39.2716,6.1170,-82.3801,-37.4879,39.5788,106.9282,-30.1452,-68.8168
-2054.6875,166.6276,-11.6477,127.8317,-41.4151,30.5291,171.3141,14.4670,-21.3098,-18.3387,-65.4144,147.4988,-10.4120,45.6145,8.9023,-57.6571,-50.2706,26.8867,22.8029,-148.8333,-81.7243
-2046.8750,201.5391,22.7206,125.7281,-6.9636,-7.3764,131.8179,-23.5963,-60.8606,-57.3688,-67.8565,145.2255,12.5391,27.2633,20.6895,-59.5911,-15.7137,-8.4732,92.0192,-184.1583,-47.2782
-2039.0625,200.9995,56.6291,123.1459,-7.9820,-9.7496,91.8601,-100.1059,-63.8629,-96.8457,-33.7354,142.5329,14.2842,26.3447,19.1532,-24.9853,18.3838,-9.3044,20.7664,-219.9276,-13.2820
-2031.2500,151.8896,42.9694,144.9921,-22.5638,12.3045,40.3550,-114.1705,-42.4019,-74.8704,-86.1596,164.2619,-2.3442,41.7578,-0.2989,-39.9295,2.9287,12.2958,6.9658,-198.2274,8.1636
-2023.4375,189.7072,9.2540,220.7948,14.8032,51.3061,-32.2003,-112.2856,-113.9844,-108.9498,-156.6394,202.9298,-14.6979,58.8473,-16.3658,-74.9225,4.4184,118.8470,-27.8886,-266.5713,9.5636
-2015.6250,234.2332,88.2268,267.3126,128.8556,61.0058,-60.0703,-175.7078,-177.8784,-172.3332,-221.4236,212.3304,48.8125,53.6567,17.0440,-65.2175,50.6078,199.0969,-89.0530,-363.2153,18.6729
-2007.8125,195.7576,84.1894,263.8271,159.8873,20.6966,-135.9654,-216.1284,-181.7860,-175.7076,-115.2066,171.7222,49.7420,37.4637,12.3405,-31.5132,83.7945,195.3320,-58.2220,-330.8547,14.7927
-2000.0000,173.9193,96.7990,277.9806,137.5485,-0.9795,-195.2199,-163.9090,-167.0494,-88.4389,46.6576,149.7863,29.4521,28.2516,-22.7880,-16.1599,61.6249,208.2057,-149.7606,-317.8470,-7.4311
-1992.1875,213.0285,65.3444,209.0805,141.1463,-33.7230,-228.5303,-123.7502,-91.3650,-10.2273,50.4768,116.8337,17.8906,1.3279,-40.2286,-48.8659,28.3989,177.0216,-112.3616,-243.8742,-3.7025
-1984.3750,121.4388,9.1758,112.4808,120.0347,-19.1688,-177.5466,-109.2828,-3.3861,4.2964,27.5896,58.1641,8.3534,-1.8847,-32.3140,-34.2695,5.4628,85.1369,-28.6783,-158.5898,10.3287
-1976.5625,21.6896,48.8586,7.7316,124.7677,-13.7627,-99.7143,-139.9604,75.4417,9.6708,105.5353,26.3244,36.7420,-6.7962,-6.3127,8.1721,10.3714,20.0984,-24.1600,-153.4470,15.2168
-1968.7500,9.5414,1.1385,-41.4254,112.0876,-25.7709,-2.2996,-80.0453,62.8681,-2.3740,57.0787,-59.8859,43.4111,-9.5407,33.3703,70.2081,34.8820,7.6444,103.9579,-25.6926,2.7112
-1960.9375,28.3900,-86.5810,-20.5986,60.3905,-41.8055,91.1052,-22.1493,9.3007,18.5734,-33.3529,-76.0675,8.9824,2.7185,38.1227,90.2381,18.4020,26.1709,158.0609,28.0767,-13.7882
-1953.1250,-49.7819,-94.3167,9.2135,52.6782,-48.8496,157.5055,-29.2475,1.7489,11.5263,-40.7618,-83.2697,16.9886,-6.9295,43.1256,47.2675,-26.0785,18.6795,220.1617,55.8737,-21.2799
-1945.3125,-152.1213,-93.2080,-26.1281,18.8037,-47.0387,158.7468,-27.4868,40.0504,13.3374,34.6781,-81.6462,10.8632,-15.7002,42.9619,12.1417,-24.7140,20.0379,256.1057,92.5398,-19.9187
-1937.5000,-91.7950,3.5601,-34.8159,79.5674,-18.5884,112.6213,-36.0791,66.9975,-69.2010,25.7554,-16.3466,51.4341,2.7404,40.1063,3.6604,-33.7117,81.0427,141.6861,48.8713,-28.9005
-1929.6875,-76.2631,53.5315,-17.2995,130.5206,-0.9639,55.6682,18.5224,11.1373,-88.5385,6.0363,-35.8173,79.6410,-4.9698,32.9257,-15.6217,-53.5133,167.2412,156.4726,29.4227,-48.6669
-1921.8750,-36.7043,21.5577,59.2607,168.5223,39.6936,-14.2456,58.1611,-59.6748,-84.8396,-27.6162,4.7733,66.1517,26.4655,14.9189,-11.8574,-50.2711,240.4805,124.2980,-71.9663,-45.3707
-1914.0625,0.0344,127.7813,60.0111,204.7146,2.5380,-51.9506,21.9869,-60.2767,-120.9464,45.9405,-32.4206,108.9719,-7.6853,17.8442,-11.9003,-50.8348,276.9028,89.3197,-106.1316,-8.8733
-1906.2500,40.9785,169.1904,65.9621,210.0858,-28.4128,-83.4554,-8.9703,-91.6733,-187.8409,51.6941,-100.4345,124.4970,-50.7541,6.7294,-42.7438,-82.2011,282.5074,129.5328,-29.0708,-3.1756
-1898.4375,44.7374,207.3987,69.7118,248.2385,12.4194,-43.1620,-42.1206,-51.2664,-220.9290,-55.7454,-96.6315,154.9945,-39.1281,17.3974,-38.7934,-114.7601,285.8966,62.5362,-61.2005,0.3287
-1890.6250,-71.2066,125.9071,57.7607,166.6887,0.5315,-18.5812,-16.9866,-26.5589,-158.7298,-67.8695,-71.5071,114.4537,-13.7274,33.9870,-13.5487,-54.0148,205.5791,156.8424,34.9878,25.1479
-1882.8125,-92.9227,67.6581,33.0667,108.3901,-24.1035,-6.7590,-4.6108,-14.6006,-109.2894,55.2605,-22.1621,77.9594,-14.1993,36.8701,-38.0521,-5.0184,111.5155,168.3975,82.4398,37.2243
-1875.0000,23.5389,78.6053,46.5755,49.2851,-10.5246,6.2623,-28.0279,-1.4374,-96.6542,141.5829,-45.6347,61.6482,-40.0985,32.4622,-61.3616,8.1634,17.6483,144.1478,129.1049,13.4999
-1867.1875,91.6373,-64.7883,-29.2803,-59.1778,-12.3072,77.9425,7.2019,70.3823,-62.3768,102.5611,-84.4228,-7.4009,-47.3757,42.6958,-63.0255,42.9904,-55.5891,212.5528,233.4346,11.4267
-1859.3750,22.6866,-133.2266,-65.1940,-93.6993,-11.1562,188.5689,45.3853,144.1616,-61.1465,103.5138,-46.2202,-31.7129,2.9922,57.6732,12.2591,43.7738,-89.8863,177.9010,199.7246,12.3115
-1851.5625,-79.9079,-96.3300,-97.7562,-160.8773,-7.6701,191.5239,48.9200,221.2908,-20.5655,70.8349,-42.6602,-43.8925,26.2178,39.8520,52.8900,9.9115,-86.8340,180.6058,238.3873,15.5563
-1843.7500,-114.1473,-62.0879,-61.9639,-125.7012,-7.8379,227.8115,11.8015,220.7695,-20.6307,70.5123,-79.7663,-8.2453,3.0585,75.5128,52.8668,46.3955,-121.4333,143.6593,168.4106,15.1527
-1835.9375,-113.9837,8.5557,-25.7661,-56.1338,-44.6124,226.4910,-97.9151,219.6457,-130.2943,142.5901,-43.4714,34.6561,-7.9982,98.3264,52.2489,82.2813,-85.6436,39.1059,28.8386,51.1565
-1828.1250,-109.1946,-22.1507,-21.9338,-50.9300,-77.7493,155.8184,-168.9778,185.1751,-164.3085,146.3207,70.4610,8.5084,24.8901,82.1964,55.2881,121.8212,-46.2199,7.2203,68.9267,90.8233
-1820.3125,-22.2208,-76.6402,-5.9153,-35.5268,-61.6973,60.3496,-152.8505,164.9135,-111.1334,88.2674,123.6174,-33.1008,65.4213,48.0616,108.5164,137.5671,3.3935,-117.4604,-20.7813,106.7011
-1812.5000,96.4594,-97.4243,8.8090,12.5722,-83.9566,1.5886,-138.0337,105.3646,-96.2614,65.9226,138.5012,-41.6474,68.7669,20.8572,123.4261,115.0154,-16.2963,-138.4399,-75.7638,121.2822
-1804.6875,105.4989,-53.8682,-18.1118,21.0019,-74.8741,-62.8228,-128.8548,77.1743,-87.0395,74.9280,110.7454,-33.0680,54.7889,9.7605,132.6861,123.8117,-43.6435,-165.0686,-101.3718,130.2159
-1796.8750,-25.8228,24.3372,-9.3844,29.0825,-103.1487,-91.5792,-83.0277,48.6439,-78.1742,46.6004,156.6245,-5.6836,75.8838,24.5250,178.5937,169.2654,-35.3426,-263.0445,-162.3230,138.8075
-1789.0625,-77.6140,112.0954,8.8909,-23.2784,-120.8769,-183.7847,-101.6570,-5.3266,-59.7663,28.8472,175.0382,-7.8818,84.4921,-11.0844,197.0486,150.2764,-52.4977,-210.4567,-73.7140,156.9566
-1781.2500,-57.3057,26.9498,30.2760,-38.5413,-135.5043,-198.8963,-79.1804,-20.1984,-0.2575,50.1839,160.5831,-46.7422,78.1249,-31.4287,182.6049,135.3872,-67.5546,-189.7803,-52.9985,142.2136
-1773.4375,-93.2403,-79.4418,-5.5904,-75.0557,-98.4002,-125.2630,-4.9555,15.6790,35.9869,14.2533,87.9011,-75.1982,66.0812,-26.4674,146.9172,99.2449,-68.8666,-121.3532,87.4659,106.2251
-1765.6250,-133.1805,-83.8079,-81.4718,-79.5576,-101.3122,-55.6245,102.2582,12.5580,107.2192,-97.6728,48.2019,-54.7063,41.4494,2.9552,107.2220,96.1057,-73.1812,-56.9192,187.9349,66.2434
-1757.8125,-83.9663,-2.0105,-103.1961,-101.8904,-86.0954,-41.8361,117.6092,-9.4128,122.5958,-83.4343,26.6684,-42.6163,42.5153,-9.2572,158.6718,74.1262,-95.3382,-149.3285,166.5426,44.4289
-1750.0000,-149.9401,-101.4178,-135.1133,-97.4221,-81.0958,-0.2626,122.7594,32.4091,127.7744,-5.3961,-5.0257,-61.3618,38.2783,14.7430,163.9286,115.9567,-126.6908,-144.9196,207.9611,49.4318
-1742.1875,-214.7635,-167.6612,-56.8731,-128.8172,-75.9513,4.4463,91.0553,74.3934,133.0978,73.8033,-36.5538,-84.1015,10.6201,31.6930,96.3387,156.9438,-85.9075,-140.3608,177.5249,54.5907
-1734.3750,-173.4006,-161.6749,-49.4483,-88.0172,-68.6153,49.3612,25.5477,118.5949,140.6166,118.2226,-64.9038,-60.1074,-41.5736,44.0125,-6.0547,128.1347,-80.9447,-169.5864,185.2995,25.9564
-1726.5625,-143.8554,-133.4855,-53.8318,-95.0184,-0.0887,-29.5222,94.2395,114.0131,210.3452,113.8533,-106.0378,-65.2633,-39.2174,10.7432,-10.2486,86.5368,-52.7881,-141.5930,214.2911,-15.4680
-1718.7500,-176.4605,-130.4539,-87.3702,-57.1638,113.2820,-63.5543,134.7840,117.2818,213.9290,80.3373,-102.2957,-56.6004,2.2405,9.0375,30.4103,89.7959,-49.7805,-172.7491,148.1450,-12.0328
-1710.9375,-198.6166,-117.9847,-146.4490,-79.8613,126.0956,-51.1319,110.7838,93.0039,152.9630,93.2887,-89.1249,-60.4289,26.2574,10.0346,80.5095,102.5145,-37.3265,-91.4407,161.4670,0.8608
-1703.1250,-136.5668,-127.3172,-119.3347,-54.3608,81.0937,-60.4979,28.9805,120.9401,71.2000,121.4487,-23.7645,-62.2738,10.1341,5.3651,-2.1906,93.4497,59.3200,-100.9328,116.9951,-8.0305
-1695.3125,-28.8783,-53.9737,-41.5838,-16.2147,48.7162,-56.2085,-40.1906,125.5340,39.0719,89.2611,-18.7133,-29.9161,-23.0370,-7.5965,-71.2386,25.0413,96.6104,-133.7697,121.1726,-40.2592
-1687.5000,19.8305,-75.5608,11.2044,-38.0070,63.3834,-77.8588,12.6833,67.1789,53.9833,31.1383,-39.5831,-44.0689,-33.1568,-33.4144,-129.2417,-33.3176,110.9454,-49.5437,240.4105,-61.4362
-1679.6875,-27.9272,-18.5906,-1.4520,-16.2276,87.6091,-90.9421,73.1196,54.3927,78.4519,55.5825,-51.9334,-18.8478,-34.8802,-46.5170,-141.6936,-83.1202,97.8312,-62.7665,264.2071,-74.0592
-1671.8750,-93.4917,-83.4293,4.0902,-11.2500,93.0291,-11.8296,78.7616,96.8154,47.1290,61.2339,-83.1049,-12.0256,-40.8182,-12.0672,-171.9430,-77.7112,66.9125,83.2255,340.2177,-68.4649
-1664.0625,-77.6531,-139.8628,-15.9813,-31.8820,109.8269,40.6743,58.7890,150.6387,-8.7942,78.2952,-65.8599,-33.5210,-17.5415,-13.9913,-155.7908,-97.8874,11.3925,167.6170,320.6334,-88.4544
-1656.2500,46.1901,-50.2712,3.9466,-13.4997,130.6011,61.1871,42.8036,60.4721,-24.7349,-11.6356,-8.5933,-11.6988,2.7554,-34.5938,-134.6465,-151.0543,-5.1237,116.0210,199.0590,-104.4374
-1648.4375,163.3940,-4.3165,15.2267,-37.7575,141.7160,-1.9535,17.1699,-2.3356,22.6749,-110.2057,40.0354,-22.9061,21.0682,-70.0499,-123.1500,-176.8630,-29.2833,161.7869,210.8433,-93.0612
-1640.6250,136.3940,73.4374,22.3016,-65.2155,110.6184,-32.2966,24.3303,4.6621,29.8857,-103.9687,46.4764,0.5383,1.4086,-28.4124,-116.8544,-59.8629,-21.6467,63.3582,149.4324,-49.8715
-1632.8125,53.5754,26.3908,-28.4325,-78.4805,96.7204,-9.4414,10.7044,27.8658,-20.7024,-6.5205,-2.8861,-6.8370,-25.5225,0.5662,-129.3675,0.3425,1.1826,86.1501,138.2334,-26.4759
-1625.0000,11.0942,-51.2891,-72.8117,-86.3888,126.1776,19.7762,40.4401,56.4315,9.0588,23.2872,-46.9115,-35.6389,-12.5269,-15.9761,-100.5291,-44.1019,28.3572,114.3076,166.3830,-33.7260
-1617.1875,42.3577,14.7977,-39.4363,-54.5326,122.3861,15.7564,36.9215,16.7628,78.5613,-17.1419,-13.1924,-20.5635,7.6125,-49.1982,-66.9434,-121.7884,59.2809,39.2419,92.2846,-37.2181
-1609.3750,81.1103,53.3885,1.4413,-51.1636,53.0938,-54.7530,3.9005,-16.3923,82.5608,-13.0525,-8.9886,-16.5792,-9.0374,-65.4579,-62.8587,-117.9614,27.7058,42.7048,167.6858,-33.2004
-1601.5625,128.3630,30.4944,13.8094,-75.2851,28.2927,-79.7553,16.3728,32.9620,95.0531,36.5553,-33.2697,-29.6880,-51.5316,-53.8234,-123.2826,-68.6246,4.6284,-50.3182,145.5750,-20.6732
-1593.7500,97.0266,34.0119,-19.4280,-72.0080,31.8870,-76.3541,20.2427,72.7183,98.9348,76.5619,-66.1282,-15.1853,-77.3177,-27.8386,-155.3073,-27.8816,7.9488,-46.9232,219.8705,-16.7403
-1585.9375,-11.5626,30.2851,-22.9119,-110.9766,-8.7682,-117.1898,89.8613,69.2318,169.5647,110.3227,-106.2444,-30.9953,-64.7954,-43.1004,-86.5740,-31.3810,4.0222,54.2301,286.9157,-20.0503
-1578.1250,-59.1153,-16.3852,39.6576,-51.8863,-57.3803,-91.9585,115.5284,57.8064,232.2467,173.1415,-117.3031,-27.6779,-52.5449,-41.0167,-23.7905,-42.8265,-42.8579,7.4465,241.0106,-31.2957
-1570.3125,-6.8312,-71.1987,-17.9190,-71.9329,-114.1564,-38.8668,95.0409,38.2390,248.7738,78.8267,-100.4999,-52.9336,-38.0012,-49.4507,29.8361,-63.4095,-97.8874,58.5339,292.9587,-14.6836
-1562.5000,94.1474,30.7062,-96.8032,-145.2510,-83.2534,-82.0528,126.2490,-41.6047,205.9922,-36.7679,-31.9970,-61.9817,-16.5200,-91.2290,24.1562,-105.2759,-67.2121,19.3207,324.6024,16.6324
-1554.6875,93.1794,64.6812,-135.6475,-182.4965,-49.3198,-120.1843,124.5000,-80.3929,203.2610,-2.3028,2.5530,-76.4649,-4.0944,-113.9956,21.5211,-107.0859,-33.4841,-17.8263,289.3004,51.0111
-1546.8750,-91.0340,-14.5688,-108.7504,-120.9860,-58.6461,-130.5670,77.4917,-53.4280,193.2738,98.9232,-43.1451,-63.4971,-21.7351,-61.9598,11.6322,-8.1419,-7.0015,44.7835,281.7461,78.1538
-1539.0625,-224.6030,62.8534,-139.2067,-44.8145,-52.3269,-87.2916,84.1290,-10.8010,163.9282,105.8074,-72.2019,2.9994,-26.9062,-11.2205,55.3907,35.4691,-35.8670,-54.9448,147.8437,84.9539
-1531.2500,-125.0350,92.4224,-181.5123,-15.4815,-57.8658,-92.8535,41.9162,-16.0076,158.7320,100.8463,-41.1173,16.9583,-46.4203,-14.0779,13.3008,30.2358,-75.5801,-94.4997,143.0967,79.9076
-1523.4375,-1.5665,4.8979,-197.9227,-32.2343,-74.5140,-109.5079,62.5976,4.7004,178.4299,121.7919,15.8838,-36.2084,-19.5818,-47.2691,34.1108,13.9106,-92.3885,-147.1508,127.2420,63.7673
-1515.6250,58.4067,-41.1042,-97.8378,-8.4792,-122.6710,-48.6656,51.7660,104.9155,131.6183,111.2560,42.3935,-29.2183,-28.0968,-10.6457,-13.5753,40.0977,-34.6873,-193.2823,81.8910,53.1408
-1507.8125,64.5672,-34.8866,-17.5484,-1.5073,-114.6353,-3.6285,-13.8658,76.3389,139.0141,118.9474,14.0932,-17.4028,-44.3191,-5.1059,-42.0602,11.5022,-28.7754,-82.1964,53.7409,24.7292
-1500.0000,81.4693,88.0828,38.4919,85.2321,-96.8523,15.1657,-31.7474,58.5253,85.1598,65.4006,-3.4629,56.9865,-47.0622,18.7723,-22.8013,-6.3293,23.8941,-135.3462,-34.6585,7.0788
-1492.1875,14.9591,162.6467,5.1144,123.5819,-93.4751,18.5838,-65.0358,25.3250,51.8944,32.4508,-36.4320,102.2580,-55.2109,49.2146,18.0407,34.4461,27.1641,-96.8743,-100.4576,11.0209
-1484.3750,-19.4463,128.3335,6.8334,125.0409,-56.0009,20.1241,-99.2327,27.2328,16.7206,34.6081,-71.3044,94.9340,-54.4591,52.2157,19.9799,36.3310,28.5333,-24.2927,-132.1657,13.0579
-1476.5625,56.4616,98.3442,48.8570,59.8036,-14.2292,24.9682,-58.1296,32.4453,-15.1457,40.0766,-28.8682,50.9338,-6.7646,19.8703,62.2244,4.5257,-1.7929,-90.3890,-162.5708,18.4058
-1468.7500,60.9079,-38.0883,-22.5641,-41.8785,-47.9205,27.3712,-18.4720,72.2173,98.5424,43.1034,-25.8924,-28.7056,10.6923,8.2943,102.0248,44.2851,-33.5594,20.0843,-86.4222,58.3191
-1460.9375,-31.1244,-58.9772,-46.4249,-62.9925,-110.0691,75.3387,29.7299,120.5426,183.7825,54.6820,-49.3872,-21.0918,-9.4039,58.4186,113.3788,129.6067,-54.7649,32.1215,-108.7190,106.7989
-1453.1250,-128.0285,54.2839,-37.1452,-19.9356,-101.0753,84.4704,3.0793,130.0245,119.1698,64.4155,-113.7380,46.8935,-32.9008,91.5031,122.8738,139.0860,-81.8138,77.3437,-133.8667,116.4326
-1445.3125,-201.2802,52.2196,-39.2301,11.8018,-102.4401,156.2767,38.0710,129.1656,44.1956,100.8063,-151.4193,72.7919,-38.3083,107.1095,122.0048,101.2177,-120.2075,144.2384,-136.3853,78.7113
-1437.5000,-160.8282,-13.1264,-32.6171,53.2563,13.8916,163.7896,82.7599,100.0207,-22.0852,108.9015,-106.4157,59.9012,9.5770,107.5030,129.8344,109.0608,-113.8945,79.8531,-235.2091,49.6936
-1429.6875,-204.0284,-56.1137,-5.6471,45.0650,77.5713,117.6490,109.7934,53.2294,-104.0173,99.3561,-79.0720,42.5367,41.3024,105.5752,120.0101,136.2625,-87.2192,106.8395,-207.6831,77.0344
-1421.8750,-210.3817,7.7643,-48.8324,37.7350,69.0987,146.3665,64.6748,45.2952,-185.1013,91.6730,-49.8739,63.9140,32.6368,123.6355,112.0350,165.3224,-94.6896,29.6897,-284.3159,106.2328
-1414.0625,-231.8908,93.5051,-71.1795,17.2640,83.4750,160.9472,42.4050,60.2190,-207.3400,69.8492,1.1641,83.4836,70.6129,117.9106,163.9022,143.2451,-115.3118,44.4232,-234.1029,121.2859
-1406.2500,-250.8034,38.8568,-17.9324,-1.5884,99.4527,140.1438,58.7286,39.7568,-190.9850,13.6252,17.7899,58.3384,98.6632,114.8468,180.3642,159.7752,-64.3260,60.7699,-181.2998,137.9418
-1398.4375,-132.6641,-53.7358,66.3688,45.6191,74.4839,152.4045,35.0975,16.3491,-252.5802,26.4528,30.4592,45.2377,87.7458,135.3376,155.8727,209.3608,-87.2873,-30.8181,-239.4511,150.6524
-1390.6250,-88.9796,-114.7757,75.2207,-14.6127,11.0617,124.2302,44.0164,-10.5035,-169.6290,-37.1674,39.6685,-1.5434,85.1123,115.2955,164.9323,218.5063,-113.6910,47.1676,-195.0640,159.9180
-1382.8125,-78.4087,-33.8996,49.9679,-74.9128,21.5311,60.9887,90.8257,-36.4410,-48.7905,11.1167,50.7659,-12.8229,85.4726,75.8816,175.8874,192.5600,-138.1923,23.0751,-218.8085,171.0867
-1375.0000,-76.9022,72.9451,15.6557,-73.2360,58.9376,-9.2824,92.5709,-71.4182,-47.0115,49.3541,88.7966,11.8457,79.3085,61.2812,140.7870,194.5711,-171.7378,-9.0352,-251.6206,173.2077
-1367.1875,-68.1017,13.1018,24.6349,-99.2386,67.6324,-37.2439,65.6069,-99.0921,-74.9371,58.8955,172.1381,-27.5859,121.2928,41.0861,149.9819,203.8825,-162.9730,34.1651,-207.1458,182.6313
-1359.3750,-22.7014,-12.1203,35.2118,-88.6187,41.9144,10.4029,76.2358,-124.1644,-27.2691,34.0389,220.0804,-39.6023,151.9791,31.6261,197.7703,177.8002,-117.5956,-25.0252,-231.0789,193.6558
-1351.5625,-32.9987,82.9703,-11.9107,-28.6771,-5.5054,72.3573,66.1645,-133.9321,-0.3044,24.4832,173.3029,29.2135,111.2036,66.6883,187.8512,168.0272,-92.9063,35.1005,-170.7208,183.9800
-1343.7500,-5.3485,111.0258,-55.0804,33.2312,-11.9783,103.2681,59.0413,-103.7427,-43.3907,-18.1193,130.4542,69.6434,65.7734,80.6537,107.8809,125.2116,-30.2564,62.1796,-142.4305,141.2559
-1335.9375,126.4993,103.2890,10.9415,96.3531,16.7424,97.3898,-19.8834,-109.3461,-123.2699,-60.5187,197.7880,82.2955,56.1840,72.3703,-7.8944,82.6037,30.5973,55.4776,-149.9469,98.7337
-1328.1250,80.4439,57.6590,74.0500,85.5915,5.5637,12.6252,-30.7070,-82.8433,-134.0509,-70.8161,187.2227,54.4270,66.3396,34.4480,-18.5721,35.1062,19.5540,149.8898,-54.3709,88.3158
-1320.3125,-20.5758,27.0893,116.1992,55.8890,10.4358,17.9246,-25.4871,-77.2844,-128.7953,-65.0618,192.7116,32.8064,84.9574,18.0175,-13.1984,3.6725,60.5715,120.3550,-14.7642,93.9481
-1312.5000,37.1283,86.2824,104.0961,43.9523,35.0578,42.9909,-1.5287,-88.9742,-140.8000,-113.5608,144.9377,57.4136,69.4039,30.3752,-25.0822,-8.0023,153.3414,178.5946,43.5725,82.3293
-1304.6875,160.6753,104.3422,51.8368,26.8889,56.5341,64.9283,20.2685,-104.8050,-118.9685,-128.2054,92.9974,56.2040,42.1404,26.8566,-41.1235,-22.8222,241.9681,162.6976,97.7429,30.5632
-1296.8750,226.6786,99.8555,122.0234,57.2899,89.4669,61.3348,17.5106,-108.1747,-122.6948,-131.3939,53.4923,62.7464,9.8122,19.1777,-116.7240,-62.1853,308.0500,87.2732,58.3637,-8.7524
-1289.0625,132.7797,41.4794,209.3021,68.8010,102.4983,37.8602,-6.1449,-131.4377,-110.3211,-154.4882,-6.9240,57.3529,-13.7604,16.8973,-176.2340,-85.4420,284.2368,239.9710,105.0804,-31.9718
-1281.2500,178.5752,-52.1866,258.2762,81.0261,115.2282,51.1081,6.8899,-117.9943,-97.2519,-177.8851,6.3479,19.3028,26.0667,-14.3376,-128.0501,-145.9928,260.1324,252.3831,46.4816,-55.4918
-1273.4375,202.3548,-97.8418,247.2466,70.2733,103.9539,40.3677,31.9158,-91.5475,-34.1864,-115.2802,-41.3915,0.7206,4.6022,-24.4864,-138.8679,-156.5411,213.0376,276.8249,106.8789,-66.0119
-1265.6250,133.4872,-61.1364,175.5599,0.8963,68.0258,41.9892,33.2872,-15.7473,40.2297,-113.3271,33.2117,-9.9439,15.4078,-19.9217,-137.3372,-117.7405,144.3065,278.6316,108.6112,-64.1860
-1257.8125,122.1138,33.0707,90.3723,-9.9601,56.5930,31.1253,59.1487,-26.4373,29.1372,-86.8737,96.3021,7.8471,16.9750,-31.8440,-148.3172,-128.4310,133.0841,196.9626,61.8345,-74.8657
-1250.0000,127.6333,4.1892,61.0826,67.1028,64.0504,39.1706,29.8952,-55.2152,-0.0575,-41.5102,67.2742,25.2196,4.4692,-19.6920,-140.4095,-120.2104,103.7692,239.2164,-2.0526,-103.6490
-1242.1875,49.3462,32.5266,89.9869,164.3814,92.7063,105.4294,-51.1690,-62.7888,-81.0543,-85.9404,-14.5641,95.9780,-39.7943,66.4456,-148.3138,-17.7867,60.6660,196.6821,-185.7535,-111.2319
-1234.3750,70.9033,194.7184,74.7284,222.5264,77.2078,127.5445,-140.3856,-77.5114,-170.1987,-100.5259,7.4297,170.2082,-61.9288,84.5325,-163.3683,-31.5133,47.4253,148.0249,-303.6067,-88.9643
-1226.5625,135.2040,224.6638,67.2183,287.4333,-3.5413,83.4234,-110.8550,-84.4793,-140.5949,-144.3592,1.1630,193.0909,-67.2672,68.4485,-133.6770,-75.4868,76.9427,178.1290,-273.7277,-58.9546
-1218.7500,188.1541,138.2755,124.3548,341.0079,15.3610,66.9721,-90.6790,-100.7869,-120.3489,-86.5464,-52.4662,181.9198,-87.9002,74.4273,-150.3498,-54.8093,60.1054,91.8961,-290.2183,-75.3049
-1210.9375,112.6570,98.4458,194.0339,301.1497,11.8110,64.0861,-56.9579,-140.5423,-86.5530,-89.1920,-55.5584,156.6164,-80.6529,64.6706,-153.4832,-57.5814,54.8250,87.2370,-225.1709,-115.1079
-1203.1250,22.1127,184.5706,210.6594,281.2587,28.2165,7.1653,-41.2956,-123.3418,-69.8151,-145.8883,-39.6987,169.8533,-64.9729,46.9978,-136.6774,-77.4033,69.5051,32.5330,-245.1859,-134.9643
-1195.3125,45.1521,243.2951,196.8805,304.9837,14.2230,-6.1373,-54.0389,-99.5288,-120.4860,-121.9903,20.7582,191.9603,-47.0849,54.8268,-113.2832,-53.6261,57.7987,-49.5525,-291.6066,-111.2288
-1187.5000,121.3747,214.2259,91.3004,241.9238,-17.5662,-37.2187,-123.5885,-57.5078,-188.9661,-42.8872,62.3920,153.0065,-39.4943,53.6393,-71.6936,24.3533,-41.6987,-42.4275,-249.8376,-69.3024
-1179.6875,127.6394,186.2140,23.7703,177.9265,-48.2998,-30.2358,-154.0895,22.5682,-182.4005,37.2676,32.0500,118.1561,-53.6291,53.1900,-28.0616,68.3895,-105.1394,-141.2447,-278.0314,-62.3305
-1171.8750,68.3022,92.6150,-0.3690,84.3438,-72.6294,19.1561,-67.1933,73.0438,-96.4408,87.8188,-64.9076,65.2683,-73.7784,41.9258,-15.0427,44.8229,-94.1749,-128.6414,-161.8430,-85.9650
-1164.0625,-5.2848,55.7804,-38.7615,82.5385,-38.2102,54.3090,3.4444,145.2672,-61.7424,86.1105,-67.1212,63.0295,-58.3958,55.1769,-17.2848,43.0054,-96.4492,-130.2803,-163.9312,-87.8578
-1156.2500,83.4311,38.2550,-20.8541,101.0629,-94.4968,109.7757,-14.6272,163.7913,-80.7561,30.6878,23.9466,65.1147,-47.2788,73.8273,-36.2390,61.4859,-78.4063,-147.5945,-285.7323,-69.4602
-1148.4375,164.0900,14.6897,-9.9921,77.5600,-120.8342,47.2108,-77.7533,101.2709,-69.8273,-30.7984,34.9276,28.9354,-32.2010,31.2692,11.7494,35.9188,-102.3876,-99.9409,-239.5950,-58.1216
-1140.6250,133.8927,55.2849,31.0215,47.2305,-116.0249,-20.1927,-72.7366,-3.0972,-27.7549,-25.1397,40.0421,10.5519,-18.0884,-12.8060,52.8773,5.4969,-97.1962,-165.1264,-269.3259,-52.6414
-1132.8125,3.5004,137.6753,5.8250,94.7128,-68.4190,-82.7887,-61.9273,-28.6630,-53.8891,-50.6785,50.9630,53.9259,-9.7603,-17.7396,27.7907,-20.1260,-86.1970,-118.4940,-223.2673,-41.3699
-1125.0000,-50.1852,154.7697,-14.6798,75.9044,-89.1108,-102.6721,-45.4274,-11.5214,-37.3323,-107.5176,104.5723,47.8014,34.7771,-32.9017,80.3948,-40.0450,-34.4960,-65.1574,-136.5252,-24.4059
-1117.1875,63.7261,164.4694,-79.5874,50.6957,-117.1987,-92.9455,-36.3279,-1.7748,8.8286,-60.7634,40.7560,41.7096,-27.0437,-44.3971,16.5910,-67.3550,-25.1951,-91.2116,-92.1904,-14.8483
-1109.3750,99.9750,59.5179,-77.1502,-18.1658,-187.9273,-89.8574,-33.8771,1.3241,47.3409,52.3429,-30.7304,-6.7060,-90.1733,-40.3514,-54.8731,-27.3129,-24.5391,16.0981,49.4847,-48.9498
-1101.5625,85.3159,-94.3268,-52.6171,3.0853,-164.5458,8.3465,-10.3282,62.5301,71.9478,77.5519,-80.1361,-34.0477,-90.3281,-20.0869,-67.2470,-39.1757,-3.7770,38.5109,71.2364,-97.9599
-1093.7500,0.8956,-106.9187,-65.8422,26.6024,-103.9119,32.8118,-23.5351,86.9850,95.7913,65.0017,-93.3148,-27.7962,-66.1699,-28.0906,-43.3809,-88.7825,-51.7591,96.1949,58.2296,-110.7251
-1085.9375,-194.2316,-20.2115,-123.7787,78.4429,-87.9828,49.5966,-43.4475,103.7429,74.9256,44.7464,-114.2202,40.5476,-82.2142,11.9740,-64.2207,-72.0909,-140.4273,219.1852,38.5184,-94.1956
-1078.1250,-211.2652,174.5948,-142.6259,132.3953,-106.9541,68.4931,-99.2648,159.6119,-16.8410,137.5898,-133.0360,139.4823,-125.0494,68.2773,-82.9702,-16.3047,-157.9889,167.2817,-13.1004,-75.5752
-1070.3125,-77.6461,98.0515,-112.8319,56.0034,-114.2776,25.0490,-69.4390,116.1320,49.0390,94.0797,-103.2107,78.1453,-112.3441,46.3671,-90.0775,13.1238,-93.8995,196.0393,120.9212,-82.3161
-1062.5000,-4.1858,-73.6387,-34.1821,-45.5299,-35.7463,-42.5330,9.2292,48.5021,91.7649,26.4113,-97.5489,-40.3554,-54.7041,-22.4531,-47.3437,-17.6027,-19.9526,130.6458,124.7752,-113.2156
-1054.6875,-9.2320,-148.8239,-38.0318,-14.5527,71.2843,-8.6125,5.3805,8.3707,50.9769,60.2366,-101.3909,-54.0461,-46.6921,-18.9604,-88.1207,-20.8283,10.5116,90.7570,49.1181,-153.6182
-1046.8750,-56.2280,-123.9518,-85.8361,80.4872,96.3635,55.3517,-42.4319,-1.7135,3.2321,13.1121,-149.1878,4.8529,-80.6359,20.2849,-135.8518,-31.0007,35.0420,151.9103,3.4916,-163.9751
-1039.0625,-122.9685,-13.8250,-118.3970,155.7870,63.6930,132.5610,-75.9984,39.4551,-30.2682,-19.7646,-145.7573,83.3037,-95.5753,67.3290,-132.3396,-26.9262,73.8324,120.3107,-63.8986,-160.0889
-1031.2500,-93.6050,51.4008,-123.8621,151.1875,58.1289,127.8676,-7.4708,-2.2717,-35.6718,-24.5494,-188.2431,102.7268,-99.1101,54.8825,-100.7397,-68.7530,68.7238,151.8172,-34.2004,-165.1117
-1023.4375,-90.2916,55.5787,-194.3816,155.5417,97.5210,95.1328,-3.9990,1.9521,-32.1329,53.6113,-221.7877,97.3850,-94.9263,43.1014,-61.1985,-64.6317,72.5733,120.2682,5.4326,-161.1939
-1015.6250,-170.6385,81.1016,-206.5543,181.2462,49.2705,120.7608,-89.1744,64.5233,29.7531,79.1144,-233.9978,120.3137,-120.4535,53.3865,-72.3192,-75.1656,27.7780,76.0825,65.4162,-135.9389
-1007.8125,-238.1910,50.4161,-202.9333,185.7585,15.8316,89.2021,-49.5425,31.8925,70.4445,-27.5934,-230.4265,109.8643,-110.0754,36.0812,-68.6511,-107.9081,66.7919,115.7060,174.1900,-131.8999
-1000.0000,-169.8969,-22.4222,-94.4664,148.1267,50.2527,50.5122,-15.0627,-6.8842,30.9815,-65.4562,-233.0254,52.7088,-77.1724,-8.0235,-35.1461,-146.8035,134.6599,-26.8130,101.8063,-134.0250
-992.1875,-40.0166,-101.6672,-33.4070,104.0968,38.2801,-34.5632,-26.9848,-18.0570,19.1144,-39.7238,-244.0478,-4.4437,-82.9924,-35.5365,-46.0502,-121.1058,160.1321,-0.7178,57.0230,-108.5643
-984.3750,5.6129,14.8364,14.4046,80.8200,-24.9344,-58.8765,-89.1569,-79.4781,29.9907,-28.2487,-197.3378,15.2573,-90.5927,-42.4408,-35.2117,-109.6634,207.3603,11.1281,-3.0266,-97.3660
-976.5625,-31.9666,119.1298,12.0096,114.3522,-63.3420,-24.3755,-128.5378,-44.0947,64.6594,-29.9856,-199.8425,71.1167,-119.3918,-5.3692,-37.5894,-74.4276,169.3969,-60.2157,-75.2781,-99.3815
-968.7500,-136.3074,50.6640,-60.1406,81.1366,-99.4952,-22.6132,-90.6721,-79.4599,139.5716,-28.4875,-235.1144,34.4295,-125.4497,-19.6970,-0.7285,-72.9514,135.6968,-58.2988,-74.2916,-98.1599
-960.9375,-194.5978,-41.7501,-86.2419,23.9729,-51.5940,-9.7901,-42.7637,-104.7774,150.5156,-53.9541,-223.3570,-12.7779,-102.3784,-15.0382,11.1749,-24.4273,114.0599,-115.3363,-132.2698,-49.8973
-953.1250,-121.8340,-38.1203,-48.2979,27.8571,-50.6420,-7.9181,-78.8083,-139.0474,77.5030,-52.3777,-185.5740,-12.8598,-87.3097,-16.2144,12.1247,-22.8594,117.4825,-76.3176,-163.2014,-11.5942
-945.3125,-18.0661,-39.4970,-13.3586,-8.2616,-52.6856,27.9486,-6.8521,-104.3200,75.4914,-126.8085,-115.7957,-26.5446,-37.8720,-28.5561,47.0666,-61.2906,79.9140,-41.3154,-165.1363,-13.3045
-937.5000,40.7558,20.1730,12.6300,-18.3301,-63.6785,53.8637,55.1549,-77.5415,64.5228,-173.1928,-52.9723,-14.9559,0.9030,-53.4154,72.0428,-144.6788,34.4044,-16.2654,-176.0245,-23.9787
-929.6875,44.6757,-10.0597,-18.2770,-83.2941,-20.5697,97.8817,98.2560,-70.6572,-2.3558,-94.4797,-47.0641,-39.2547,13.3141,-63.1356,41.1042,-174.9734,39.0045,94.8903,-66.8220,-54.5658
-921.8750,73.3457,-86.5358,12.5648,-89.4986,47.2893,166.6545,93.1038,-38.0150,-44.4961,-25.0171,-52.4227,-61.0082,22.6378,-66.4104,-1.0968,-216.5262,68.3625,123.7996,-73.8799,-96.4177
-914.0625,25.2717,-133.7725,73.6580,-31.4494,71.4047,154.6801,80.2007,22.8755,-94.3882,-37.3107,-102.5416,-45.1278,8.1890,-50.8554,-50.0620,-228.8427,90.9876,181.9712,-51.6848,-109.0360
-906.2500,-62.6414,-185.8652,93.9073,-12.2498,91.6850,102.8513,100.4516,43.9075,-111.1313,-53.4673,-156.5119,-49.7183,7.9008,-32.1231,-30.8864,-172.0224,109.7734,202.2908,-33.3540,-125.5199
-898.4375,-102.1509,-153.5639,52.5553,20.3569,87.3688,99.4335,96.0949,77.3424,-78.4835,15.7595,-161.0913,-27.9581,-9.9909,-15.6485,-35.3164,-138.8077,105.9587,93.0192,-72.6404,-129.6157
-890.6250,-115.2753,-95.8622,-36.4019,78.3700,35.4518,85.4297,81.1308,63.1839,-56.4488,38.3809,-176.2876,11.4864,-40.3721,-11.0531,-49.3600,-153.1951,128.5431,151.1663,-15.5326,-107.3238
-882.8125,-182.1074,-55.8607,-33.0608,83.6808,0.8413,88.7349,83.4665,29.3234,-54.1162,-31.6997,-100.1932,23.1254,-6.5331,-10.9473,-10.1139,-150.2858,133.4335,86.6087,-11.1274,-67.7487
-875.0000,-241.0353,-79.9707,13.1832,24.8819,-25.8584,61.9414,92.7106,3.3576,29.1144,-58.8935,19.7965,-20.1506,51.6471,-38.0520,36.0186,-139.4869,110.2341,-7.0428,0.1798,-21.2900
-867.1875,-102.0960,-115.2442,-26.7180,-81.0755,-28.6917,-49.9993,53.8108,-72.7619,63.1870,-61.2563,89.6335,-102.1919,75.1762,-95.8414,69.9891,-104.8470,73.8962,-42.8513,-0.6700,13.0040
-859.3750,65.9018,-17.4641,-73.5656,-52.9854,-38.4718,-58.8851,-30.0454,-116.8286,16.2963,-33.5814,116.5203,-64.7442,16.9918,-71.2655,-13.9996,-41.1638,101.6186,-189.6186,-79.4812,40.3358
-851.5625,127.5047,-25.0921,-9.8017,-94.2984,-48.6525,-103.1664,-76.3120,-126.2967,5.9922,-78.2998,107.0111,-79.5224,5.0071,-60.0396,-24.3979,23.1163,93.9473,-161.7876,-52.6961,67.2552
-843.7500,139.6161,-81.2250,39.4696,-187.1045,0.6621,-126.9401,-64.0888,-113.2588,-18.8296,-139.5195,192.0014,-143.1770,82.7519,-99.8167,24.6901,-1.1111,106.7857,-148.4704,-5.4182,79.6616
-835.9375,206.1811,-84.9107,109.1969,-225.4556,33.4209,-130.2620,-141.4192,-116.7665,-23.2164,-106.3037,261.4325,-175.2209,113.3940,-135.5723,20.2131,-40.8978,138.0857,-221.7038,-9.6802,75.5038
-828.1250,182.5037,-71.8569,121.6767,-212.0523,8.9393,-116.8398,-202.9949,-140.5275,-46.8605,-93.3518,236.6089,-156.4857,94.7464,-108.4903,32.4751,8.0565,81.1510,-208.1954,37.8074,88.0817
-820.3125,153.4915,-101.1709,125.8095,-169.9951,-22.8824,-74.7660,-234.9236,-135.6379,-115.8619,-161.7484,203.4270,-139.6946,90.9225,-71.9593,73.3726,49.6515,87.8816,-237.0492,-25.0549,129.2955
-812.5000,218.9843,-174.9839,119.4423,-173.4413,-65.1975,-80.1865,-241.3503,-140.2470,-122.3701,-167.6465,233.7303,-170.3405,96.3947,-84.5575,66.7562,44.7340,83.1204,-205.3966,5.5872,159.9920
-804.6875,222.3863,-100.8919,85.9839,-168.9909,-61.6052,-112.6970,-274.8740,-135.9540,-118.9842,-126.6568,273.9240,-152.3535,102.3453,-91.0203,70.0307,48.6971,87.2714,-200.8559,9.1275,163.5681
-796.8750,222.2947,74.6941,86.0312,-98.0440,-98.5053,-111.6974,-274.8942,-135.1626,-155.1079,-90.1827,273.6088,-63.0816,63.8074,-62.3102,33.7927,49.1411,87.9387,-234.8159,-61.8293,163.6246
-789.0625,135.4060,58.4703,32.2878,-78.8973,-78.1940,-90.4925,-254.7149,-151.1767,-99.0375,-32.5163,183.4811,-47.4578,38.7045,-41.6078,52.7421,68.7737,1.8184,-144.5809,-7.5831,146.8650
-781.2500,101.0255,-45.2551,33.0516,-112.2501,-77.3739,-51.7850,-217.0418,-113.6911,-61.4835,-31.3561,183.8467,-89.7992,57.1976,-32.0656,90.1764,106.8961,-30.7957,-213.8536,-77.8395,147.5908
-773.4375,109.6525,-70.9793,41.8181,-172.6111,-68.5500,-79.0722,-208.3795,-104.2029,20.0533,-96.1991,192.2051,-122.8505,67.8718,-46.6762,98.5912,116.0113,-57.4047,-204.1203,-34.0915,156.3011
-765.6250,144.1827,-140.8111,5.4905,-172.0743,-105.8270,-78.4518,-171.8209,-103.8094,92.4836,-96.1500,191.4595,-151.6677,64.5822,-70.0544,97.8971,79.0180,-92.1058,-203.4975,35.5566,155.8951
-757.8125,145.6111,-103.7556,-28.9287,-169.6418,-67.2028,-75.9297,-97.3596,-27.5122,93.8093,-94.2026,155.6087,-131.8109,76.7941,-57.8478,136.0925,80.9144,-89.9007,-235.9795,72.1110,157.3749
-750.0000,112.2957,-66.4592,-64.0930,-166.9638,-28.3231,-73.1597,-58.6452,-24.9690,95.3846,-55.0028,82.9993,-103.4306,56.2371,-28.2873,137.5276,120.0506,-87.4392,-162.2165,108.9223,159.0909
-742.1875,78.9421,-99.2202,-60.3082,-164.3390,10.5098,-105.4484,-91.9794,15.5296,61.9068,-50.8527,86.3374,-109.0925,49.0324,-2.7822,103.9083,198.1323,-85.0234,-159.5256,40.6815,125.7447
-734.3750,29.7912,-146.7907,-73.3257,-176.5234,-2.4600,-80.5438,-105.1065,76.2315,48.6315,45.4957,35.8676,-119.8274,14.2226,0.5694,53.4823,185.4109,-132.4089,-101.6441,27.6518,112.5883
-726.5625,-78.3623,-185.3692,-114.3434,-144.7232,-6.4229,-120.6523,-72.2208,109.9383,81.3525,78.8443,-5.6079,-118.6664,-8.8830,0.4584,12.0437,181.6803,-100.7868,-69.7816,58.6315,108.4194
-718.7500,5.5393,-99.9021,-97.3033,-128.8887,10.6748,-139.7198,-56.2760,90.6922,98.1082,59.2394,47.9651,-101.6541,14.2696,-28.3887,28.6466,124.9867,-84.1035,-158.8811,38.6709,88.2884
-710.9375,65.9574,66.0350,-144.7550,-173.5697,0.2831,-186.2966,6.1783,80.9473,50.3563,12.1274,0.0409,-52.3363,-21.0563,-13.2081,17.7412,151.7840,-129.9128,-62.4852,99.2241,77.6452
-703.1250,-16.5138,160.0508,-230.0929,-219.1616,26.0032,-122.7736,68.7397,144.3011,75.6983,38.1099,-84.7788,-13.0169,-60.9050,25.3343,5.9328,176.6736,-175.6167,-39.0114,52.8780,66.0915
-695.3125,-86.9883,125.0647,-266.4239,-148.7715,25.7319,-49.2583,68.3091,180.6582,75.0347,75.0879,-158.6043,17.9051,-86.5257,61.0570,5.1145,176.5560,-175.3224,-38.5406,52.5411,65.5280
-687.5000,-101.8988,-30.3678,-281.1993,-127.8511,48.0212,-63.1947,126.4350,166.5629,132.9099,97.6137,-210.8792,-28.7388,-77.2423,44.0850,26.8384,161.9758,-189.4776,-17.5323,142.7582,50.5031
-679.6875,-223.8392,24.1367,-298.0165,-73.9947,68.2619,-43.1769,146.5124,224.4214,115.7225,154.0939,-265.2086,17.3307,-85.6806,62.5840,46.4995,145.3352,-205.6765,-68.5845,125.9321,33.4153
-671.8750,-336.4718,51.9162,-305.5303,-45.8464,60.8026,24.1436,138.8981,291.5866,71.8290,183.8811,-273.2470,64.3116,-104.4642,113.4598,1.4545,174.9870,-247.5741,-40.3412,224.4194,25.6138
-664.0625,-292.2529,-44.4674,-295.1855,-105.8557,108.1944,36.3132,150.1431,302.6088,118.7839,232.5146,-299.4392,5.8745,-92.2909,84.8707,12.2580,149.4781,-272.6195,-65.2668,303.7635,-0.3505
-656.2500,-244.4950,-101.3010,-280.2839,-161.3247,160.1430,15.0261,201.9494,281.1785,170.2814,247.6967,-322.0865,-40.4628,-76.1830,54.1753,26.6005,127.5143,-259.1072,-86.6447,387.6707,-22.7755
-648.4375,-255.2352,-146.6410,-290.8736,-137.3061,186.5995,42.2335,227.2649,308.2434,159.2728,200.3750,-333.2334,-34.7877,-64.4234,68.8672,15.4337,117.0392,-234.0862,44.4649,447.0884,-33.7136
-640.6250,-236.1529,-163.1966,-233.6566,-118.4986,205.8581,62.2368,174.3877,329.1091,68.0559,220.8480,-239.5775,-39.6444,-29.2855,62.9510,-1.9446,100.3546,-250.2548,-6.6401,395.3079,-50.8627
-632.8125,-245.4502,-206.1625,-170.8347,-127.1006,233.7244,53.8260,128.1159,283.5734,58.4248,100.9174,-213.3170,-63.5424,-19.3462,39.4417,-48.7321,54.2585,-188.8152,19.8492,351.1387,-60.4210
-625.0000,-276.1792,-166.5685,-54.4478,-86.1535,276.1498,23.9531,59.3978,142.5843,63.3238,33.5277,-135.4994,-53.1732,20.9624,17.8583,-43.9770,23.6989,-76.8122,-9.1306,286.5177,-55.4441
-617.1875,-272.1898,-21.2722,22.6542,24.4962,206.2847,28.7680,26.3840,73.2884,-6.0891,73.8296,-94.9783,33.5530,10.4505,45.6487,-40.5288,27.8222,-2.1032,-39.4182,219.6030,-51.7816
-609.3750,-241.5510,-97.3397,-18.5834,54.7859,165.0736,24.2310,21.0236,105.6460,-11.8576,142.7876,-100.8044,17.8990,4.6601,42.3026,-46.4386,22.5812,28.2604,60.9348,285.3476,-57.4807
-601.5625,-229.7083,-189.2161,-4.6095,68.2626,143.0676,75.8928,35.8715,158.2041,1.5619,157.9525,-49.4303,-1.5314,2.9998,57.9643,-106.1592,36.5309,41.8296,39.4718,227.2989,-79.9901
-593.7500,-150.9499,-181.2047,79.2802,41.6227,151.9665,86.4532,45.6282,131.6629,10.8692,94.0094,-77.1594,-1.4895,-22.3402,55.1509,-170.9902,9.3714,51.3081,83.9039,271.1647,-107.6096
-585.9375,-128.7809,-158.8034,103.5843,-5.6356,139.2728,37.4183,106.7963,82.5248,34.5631,81.4533,-90.4886,-27.5359,0.0089,11.1621,-110.4250,-39.3948,109.1942,106.7221,258.4365,-120.8404
-578.1250,-196.6058,-84.4166,69.8944,-1.9129,106.5854,78.3866,145.9751,86.3848,37.2543,47.8991,-51.8108,2.4260,14.2864,25.6855,-70.8646,-36.1687,78.0831,39.5326,190.7208,-118.0831
-570.3125,-118.5134,-77.1408,40.1144,-29.3060,76.8000,49.2460,153.0643,57.1466,6.8346,-17.7534,-8.2223,-15.2439,35.7386,9.2440,-28.4091,-29.0505,50.8749,47.2314,197.9177,-111.4341
-562.5000,73.5906,-95.8778,56.3538,-12.7095,19.0143,-6.8981,169.1621,36.9117,96.4057,-75.4022,81.3712,-39.3578,50.3612,-13.6982,-12.9604,-12.9385,31.6781,-41.0910,109.1217,-95.7914
-554.6875,65.5555,-68.7783,46.4619,84.7253,-63.9226,20.8033,160.1140,101.5254,122.8168,-11.1981,-3.1769,17.9439,-10.5594,31.1610,-22.6732,14.0164,24.3382,-48.5672,30.1859,-69.3057
-546.8750,-124.9184,-47.1309,-4.8646,142.7023,-79.3103,6.0465,144.6206,86.6881,106.7683,83.5634,-55.1661,53.8346,-27.0173,51.4617,-1.8428,35.5107,11.5516,8.4883,51.7994,-48.2804
-539.0625,-163.9791,18.9162,27.2226,68.0658,-9.2929,-34.3205,177.5382,-26.7522,139.1123,43.7229,13.2482,28.5034,20.7889,1.8814,29.3866,-5.6033,8.1737,-101.0765,12.8257,-52.8669
-531.2500,-103.9730,-96.9983,52.3770,-47.5309,162.7829,-82.6519,165.5241,-75.1456,126.5024,-79.0737,111.7162,-73.7059,121.7243,-67.8042,53.6613,-54.6797,-1.1424,-75.6045,37.9181,-28.4153
-523.4375,-41.0939,-139.0752,79.4017,-20.2889,189.7198,-91.1449,155.3776,-83.6932,78.7335,-88.0230,175.0448,-83.3165,162.1803,-63.5372,79.7840,-27.9196,-8.6013,-83.3077,-5.1352,-2.1226
-515.6250,36.5001,-62.4617,87.1379,58.6371,123.3625,-82.9545,125.9436,-39.5461,85.6621,-80.2722,182.0869,-19.2940,109.8391,-19.0079,13.6039,16.5300,-36.3581,-109.3223,-33.4703,4.8642
-507.8125,119.1961,-50.7520,63.9877,35.6488,27.1090,-105.6751,139.6204,-62.2986,98.6903,-67.4191,158.2447,-34.1953,72.1123,-55.1361,-10.4809,-43.9289,-23.0147,-63.2503,14.3073,-19.0565
-500.0000,181.9512,-21.9856,130.8973,-42.2967,-17.0951,-76.3569,95.3540,-68.9970,90.7561,-74.5098,113.4565,-53.2989,30.1683,-74.7971,-55.5204,-88.3464,40.3823,-105.1420,7.1397,-26.9348
-492.1875,149.0215,85.0712,133.1189,-74.9623,-14.9938,-73.7480,60.4007,-29.3971,19.1155,-72.2923,77.9708,-16.9022,16.1661,-59.5997,-54.2662,-86.4703,8.0775,3.2620,44.2905,-25.5184
-484.3750,180.4008,152.4089,92.6577,-43.3502,-18.5861,-76.8471,56.7578,-69.4938,14.7737,-75.7611,110.7893,3.6103,31.1504,-76.7453,-21.7091,-126.2995,40.0648,-0.0558,-29.2392,-29.8059
-476.5625,272.3811,174.3306,151.8014,14.8314,-33.5769,-90.3516,-31.2637,-155.9805,-74.9627,-89.6176,132.2153,28.4590,6.3668,-64.2605,-74.5537,-104.5307,62.6396,-13.7886,-78.1468,-8.4979
-468.7500,261.0761,126.9428,175.6531,2.6892,-46.8675,-102.1627,-81.5688,-168.7661,-161.0026,-138.7778,118.3595,18.4799,-1.6145,-41.0848,-88.6972,-45.0652,86.9118,46.1659,-19.3446,14.5047
-460.9375,299.7485,95.5008,216.4684,6.4820,-80.2100,-62.0287,-77.9134,-127.5991,-195.1020,-134.9898,121.4583,12.3428,-0.8936,-29.9546,-85.8916,-41.6589,161.1442,-20.9479,-50.5809,17.4500
-453.1250,279.6776,40.2955,233.5494,22.5115,-100.2988,-45.6443,-60.9958,-110.1815,-142.9590,-81.9440,63.8099,-0.6664,-0.5670,-36.2896,-32.8387,-62.0176,141.6344,-5.8101,-35.5505,-3.3638
-445.3125,157.3086,-13.2131,251.3448,4.2413,-118.6814,-27.5570,-6.3668,-92.0610,-126.1284,-28.1952,44.8712,-15.4521,5.9476,-26.2497,-16.0971,-44.6882,124.8271,12.0169,-52.8120,13.5125
-437.5000,91.4015,27.7236,256.6034,-25.5912,-77.6095,-22.0225,-38.2779,-86.4851,-121.8617,-58.9948,49.3949,-8.8277,12.9563,-24.1221,-11.9104,-39.9108,60.4674,-52.7147,-12.6057,17.8315
-429.6875,69.8145,40.9457,235.1795,-47.1427,11.7671,-43.2019,14.1217,-107.6073,-144.3080,-80.4920,63.2352,-14.7042,55.7192,-51.9777,2.5722,-97.8385,39.4168,66.8348,71.9227,-4.5521
-421.8750,175.0055,109.9076,235.5277,-47.9659,122.8991,-4.6521,51.2867,-142.9885,-181.0126,-43.2396,100.8431,9.7658,59.7718,-53.7203,-71.1983,-134.0281,39.1260,31.1052,71.2163,-41.1873
-414.0625,283.6737,113.3242,240.3437,-9.3538,127.4897,37.3228,-17.0833,-138.9368,-214.2721,-38.5457,104.9107,28.5868,31.2165,-48.7424,-141.5182,-166.7800,7.2904,68.8113,109.9709,-74.3744
-406.2500,228.7506,-12.8474,257.5698,5.6549,107.4811,53.6845,-1.0457,-122.4864,-199.1440,-21.4443,121.3882,-11.8090,70.8844,-62.0412,-88.4334,-187.1398,22.8562,154.8955,90.1254,-95.1631
-398.4375,148.4807,47.6374,211.4505,31.3120,98.1133,81.6926,26.6435,-94.3818,-209.3762,-67.6799,147.5199,21.9066,93.3689,-37.1334,-25.6997,-160.8480,-20.9321,145.6211,-60.0535,-105.3012
-390.6250,52.5151,162.4035,183.6443,5.2496,33.0453,53.9941,72.6472,-84.9722,-164.3100,-58.6052,82.9608,57.3225,65.4314,-30.0805,19.3301,-152.2613,-81.4165,189.6426,-50.9078,-97.1416
-382.8125,31.1100,176.7113,88.4043,19.7206,10.5333,68.8417,87.2180,-107.0087,-113.6965,-6.9751,96.9641,67.2311,43.9706,-23.5674,-4.0907,-138.1345,-102.3448,169.1938,-71.1965,-83.4388
-375.0000,63.5190,102.8108,46.9805,-18.0213,-30.1765,101.4853,82.6102,-74.2454,-119.2854,62.4566,91.7799,27.2572,46.6972,-34.7016,27.2841,-142.2173,-139.4708,166.5397,-74.6698,-51.9425
-367.1875,44.9973,48.9576,63.6203,-1.7244,-50.8369,82.1761,62.0669,-20.4349,-140.8331,41.9493,144.6557,14.3682,64.5621,-30.2760,6.7102,-126.2544,-87.5470,217.9242,-93.0838,-36.4010
-359.3750,147.4856,45.1038,97.2681,29.5559,-54.4997,78.8661,22.5365,-23.6174,-145.3836,38.4549,177.5401,15.6827,64.7026,-21.3069,2.1397,-94.2973,-19.6323,143.2997,-201.4793,-40.8619
-351.5625,171.9831,69.2378,86.9271,53.8119,-102.1618,31.5505,12.0260,-33.7940,-119.9338,27.9726,166.4362,23.6976,42.3832,-33.1244,-9.4319,-105.3506,5.2760,168.6688,-211.8535,-52.3258
-343.7500,170.2988,67.1687,85.4025,16.8527,-104.0182,30.0344,10.3327,-108.1711,-122.6899,-10.7153,200.1495,5.6517,47.8823,-33.0677,-12.2067,-70.6127,73.9867,130.8222,-248.4204,-54.9908
-335.9375,118.4805,84.9450,140.7425,34.7340,-123.0211,48.3658,-8.5029,-89.7006,-105.6111,7.4357,217.7279,25.6740,42.4906,-13.6146,-32.1326,-53.0275,57.5480,78.8226,-230.1279,-37.8050
-328.1250,102.7219,34.7714,124.1557,19.6533,-102.9693,68.7420,-25.2796,-69.1892,-49.4963,-9.3576,164.3728,6.7571,40.1941,-18.4490,-13.0043,-70.3938,78.1643,98.8566,-174.7826,-18.5707
-320.3125,109.7366,-29.6491,94.3448,-9.6867,-59.1681,112.8541,-18.2947,-61.9379,-43.6385,-111.3924,133.7870,-17.3362,53.5381,1.2672,29.8735,-27.0126,85.5417,35.6197,-202.6858,-12.5888
-312.5000,119.1753,-55.6765,30.9604,-35.6384,-49.9667,85.3495,-8.8933,-16.2957,-72.3866,-66.0290,68.6174,-29.3521,22.3662,0.0396,1.1479,-18.2366,25.3271,114.7704,-158.1792,-4.2080
-304.6875,82.6785,-57.6514,-44.3535,-37.5498,-51.7132,83.8763,26.5650,-17.6030,-1.0886,42.3959,-6.4800,-25.9795,-25.9141,0.6328,-38.5326,-20.4177,24.1648,112.9459,-89.6257,-6.7761
-296.8750,12.5928,-58.2195,-44.2545,-38.0667,-15.0574,83.7851,99.4304,19.4943,34.6023,79.2366,-7.1627,-24.5753,0.9905,1.8750,-2.8133,-21.2014,24.4014,42.5043,-54.6678,-7.9426
-289.0625,-38.4716,-74.7889,-60.1434,-54.5936,5.5996,67.6789,120.3098,3.5912,90.2891,63.0843,13.1683,-34.8739,7.8878,2.6871,-20.0875,-0.9846,43.6396,61.0452,0.2972,-25.1081
-281.2500,67.2375,-39.6104,-59.2636,-54.3773,6.0067,31.3148,120.9522,-32.5671,89.7210,-47.3195,13.2624,-37.4647,3.5946,-23.3629,-20.6059,-38.0220,79.6281,-9.6785,-34.9819,-25.5233
-273.4375,84.3528,47.9563,-41.9680,-2.7777,-14.1889,-25.6524,101.0085,-15.3295,68.5571,-66.3159,-118.2372,13.1301,-45.7208,-18.2991,-4.7210,-58.6624,62.0108,42.9992,-17.8469,-9.5369
-265.6250,-40.2708,133.7664,-25.4094,49.0566,-35.1363,-45.3715,81.3221,1.1626,47.6407,22.9461,-102.4715,58.0508,-41.2147,-16.8324,10.4184,-79.0544,43.6349,22.9146,-36.4509,5.7025
-257.8125,-32.9361,175.5289,-17.8942,55.8274,-101.1378,-2.1411,14.5945,45.6106,16.6696,67.1682,15.2534,73.7404,-23.7802,4.5785,16.5102,-36.5004,15.2018,-74.2270,-64.0854,11.8928
-250.0000,86.1072,117.9795,-41.6643,-2.7148,-124.4354,-25.2148,27.5837,21.7569,28.3981,43.0889,64.6956,15.2908,9.2659,-38.6718,65.3049,-60.2497,-6.5347,-97.6752,-16.0082,23.7807
-242.1875,137.3586,63.6254,-25.2205,-56.0665,-145.5299,-45.0932,43.7887,2.1045,43.3297,59.2156,80.3583,-24.2619,-1.1269,-40.0877,43.3060,-8.7990,-25.0713,-151.9377,-34.7312,38.8697
-234.3750,80.6719,40.3173,-11.7127,-9.3807,-132.5789,-31.9338,-16.9402,51.4960,-18.6893,109.4100,19.0840,3.4545,-43.0126,3.2648,-18.6401,40.7020,-11.5580,-139.1532,13.6069,51.0103
-226.5625,-2.3905,-7.3821,13.4107,47.9052,-108.0272,-8.1847,-65.0594,76.4828,-32.1186,97.2120,-67.5798,25.0687,-66.3640,39.0536,-31.9853,64.7937,46.5638,-81.7882,72.5422,37.7506
-218.7500,1.4112,30.7749,55.4006,86.0392,-31.6233,-4.5946,-24.3177,81.3163,-65.7066,64.8573,-100.3853,51.6190,-54.8621,41.1689,-28.4742,31.7276,120.5452,-149.5839,40.3297,4.3422
-210.9375,5.6623,69.3812,96.8530,54.6213,9.2285,-36.5634,-57.1114,48.5962,-99.8491,31.9501,-96.7250,56.6784,-55.7129,37.9154,-62.5068,35.1077,89.9861,-74.9362,114.5691,7.3890
-203.1250,-47.2320,51.8531,78.1770,1.0571,26.9298,-54.6971,-39.0470,66.7164,-83.1483,86.9035,31.8026,21.8191,2.0159,19.0957,-45.6851,52.3319,37.2839,-93.4546,97.6541,24.2891
-195.3125,-19.6075,7.8329,32.0181,-7.0111,-19.8698,-27.3496,-47.4748,94.3266,-56.9503,114.3633,58.8395,6.6559,8.5950,27.6725,-19.3671,79.0540,-4.9156,-66.4781,125.2489,50.6922
-187.5000,14.1390,40.9095,-78.0243,26.0203,-57.5707,-65.9095,-48.7913,56.0265,14.3409,149.9329,19.9893,14.9589,-13.8257,-0.0878,15.0512,39.8779,-40.0166,-32.4102,158.9457,48.1983
-179.6875,39.4001,29.4836,-52.5577,14.5410,-32.7726,-113.9800,-23.5925,9.2243,39.1297,139.0087,82.6561,-14.7997,21.4194,-34.0735,39.9743,28.1962,-16.6151,-149.8468,78.1553,36.2082
-171.8750,-2.1782,23.2017,-22.9322,8.1976,-75.8218,-121.9071,-30.2211,-34.4302,30.0779,168.2331,37.4821,-11.6690,-6.7356,-21.5065,31.0524,56.6593,-21.0687,-86.1304,71.5346,64.3681
-164.0625,-38.2464,92.4247,12.2054,41.3474,-114.3687,-86.3334,-104.3315,1.4166,-9.4724,203.9635,35.8093,32.6159,-34.4416,3.2412,-8.3646,54.6170,11.9722,-52.9187,35.4141,62.0279
-156.2500,44.6865,103.6552,26.3536,17.4897,-100.9187,0.2436,-90.4331,50.2628,-34.0303,216.7060,12.1440,44.7914,-67.0649,34.1273,-69.7819,67.5720,24.0065,-111.7018,12.3071,37.6905
-148.4375,118.9174,1.1898,30.8123,-48.0786,-97.1679,-31.8800,-14.2262,54.4124,-31.2914,147.7568,-21.2097,-14.2836,-46.2266,13.6682,-29.8951,70.8286,28.3415,-37.1904,87.5093,40.6562
-140.6250,86.1575,-32.2779,33.2856,-12.6530,-59.4195,5.9964,24.9899,93.5620,-67.5549,149.8124,-19.5475,-5.8990,-29.7623,31.4123,-29.0036,72.0835,65.6778,-106.6837,53.7174,41.6257
-132.8125,-28.0286,-76.2014,27.3196,49.3171,-30.1199,35.4191,18.7610,124.2614,-75.2706,216.4267,-26.3272,11.0148,-21.7462,47.7883,-36.5609,64.8832,22.5617,-45.6241,81.4845,-2.8507
-125.0000,-40.5496,-89.4814,52.0128,-0.0619,30.8299,59.4948,80.1936,111.6131,-52.3393,130.6985,-39.4461,-6.2468,3.2448,43.1647,-13.4640,51.3345,10.0955,-58.9271,68.8944,-16.6738
-117.1875,56.6365,-29.0493,78.4149,25.2565,19.4793,85.2655,69.3332,63.6630,-64.7149,8.6734,-87.8508,22.8145,-2.5314,51.8773,48.3407,39.4872,1.3291,-103.5392,-10.9958,8.2101
-109.3750,2.8854,58.4470,21.8814,41.6249,-0.8270,65.0718,12.5242,7.7554,-86.0448,-10.2926,-143.1853,59.2932,-43.9545,50.8444,27.2057,18.6936,18.6109,-17.1148,6.1508,24.1533
-101.5625,-20.9028,68.8969,70.3163,87.9401,9.8150,2.8146,-13.3370,-54.2055,-76.4324,0.7083,-60.5536,58.4127,-21.7697,22.4123,0.0313,-8.1496,64.8411,-40.7533,-122.7615,34.0563
-93.7500,68.7623,-19.2085,89.2135,69.7044,-9.0967,-52.0000,42.2590,-145.7179,-59.3715,-53.8376,31.5424,-0.5775,38.7190,-23.6318,54.3082,-26.5404,83.5214,-22.9378,-104.2204,51.4173
-85.9375,84.2427,-39.4999,106.9236,14.2651,-29.2108,-109.0249,59.6630,-92.4385,-6.5108,-73.5868,121.4535,-38.7726,86.4618,-34.9808,106.3913,25.8648,64.0028,-43.3284,-88.8828,30.5836
-78.1250,11.6378,64.1193,68.5347,-23.2734,-31.4277,-74.1559,57.9787,-20.2674,-46.7502,-2.4396,119.2794,-5.3770,70.5765,-7.4460,103.3885,60.1662,-7.6224,-81.8248,-160.6416,27.6554
-70.3125,-66.7139,17.9914,57.4043,-32.5687,-42.3974,-86.0471,46.5593,5.1452,-22.7396,22.9577,-2.6303,-9.7834,23.5267,7.9067,91.6534,84.7215,-52.0006,-21.0731,-100.1511,51.9865
-62.5000,-35.7613,-54.8355,54.5830,-2.5651,-10.0764,-89.6353,80.4400,-35.1457,9.5646,-53.3399,30.7753,-36.6521,62.6932,-17.8516,123.2257,43.5819,-19.0842,-61.0292,-138.3640,47.6281
-54.6875,47.5519,-78.3088,106.1237,8.7828,3.5805,-75.8753,94.6740,-95.0910,-14.7803,-76.2795,44.5413,-44.8713,57.1125,-39.0665,63.1508,-17.2071,27.1794,-48.6365,-126.2206,23.6257
-46.8750,135.1743,-132.4792,88.9787,-44.5682,22.5342,-93.8218,114.2175,-75.7377,40.1826,-93.9161,26.6166,-87.4661,51.0132,-64.2609,44.3779,-35.6963,9.7391,-32.9567,-72.7799,4.9285
-39.0625,100.7967,7.3556,52.8384,-44.9228,22.4905,-56.7725,77.7762,-38.3916,2.1555,-56.5516,26.6956,-35.1890,35.0076,-44.5573,43.6212,-36.1833,10.2862,-67.2797,-143.3359,4.2389
-31.2500,-35.3358,152.4373,20.9473,28.9679,26.6981,-16.4785,45.5984,-70.8003,-31.6166,-51.9297,31.0345,58.0024,15.6130,-1.2260,10.1291,-32.4117,15.0768,5.6471,-103.6444,7.8094
-23.4375,-107.8671,149.1259,20.6578,96.4607,25.5019,55.4130,8.0208,0.3928,-33.7885,-17.6979,29.9857,92.7406,13.3377,30.6980,8.2507,-34.0326,12.4633,-32.8384,-105.3676,-31.0109
-15.6250,-103.8873,47.3133,-12.1235,99.4512,-8.1991,95.8011,-25.0575,41.0827,-31.4611,-49.9652,33.4482,64.2698,13.8383,35.5599,10.8809,-31.1468,-18.6514,5.1744,-101.5958,-28.3231
-7.8125,-47.1449,-2.7375,-64.1490,14.1915,10.8471,4.9264,-41.3810,-11.4864,60.6219,-29.4796,-21.3264,6.0719,-4.0101,10.8380,29.2720,24.4899,-31.0156,25.9191,-11.0846,27.1213
-4000.0000,16.9266,-33.3381,-3.5489,-36.1150,26.5434,-54.8833,39.1316,-62.5467,119.3318,-43.8097,18.3977,-37.6790,44.2088,-19.2889,92.2287,34.8849,-11.2470,-44.2551,-19.6303,95.1878
-3992.1875,-58.0873,-108.1590,27.1310,-40.5984,-15.4528,-24.7592,-2.8642,-69.6359,77.7141,-50.9250,49.3293,-59.0100,58.7565,-17.4752,87.2145,30.0541,19.5084,20.7894,10.9270,127.3172
-3984.3750,-23.8452,-74.7342,28.0585,-5.8230,-14.2030,12.6122,-38.6208,-69.4698,43.3423,-87.7936,85.5103,-36.1404,56.9186,-15.4211,52.4405,-5.5371,53.5190,20.0878,-25.2650,92.6879
-3976.5625,93.1443,-28.5458,40.7362,4.7139,-1.2124,-11.2623,-24.6397,-19.5492,58.7110,-74.9123,62.4396,-22.9235,36.8192,-24.6049,30.4051,-28.3861,30.2874,-39.8645,-48.7112,70.7980
-3968.7500,82.5289,-39.9459,29.8116,28.6676,-47.8337,-22.7390,36.7303,-31.2263,49.4711,-12.6334,-20.2316,-8.7791,8.2736,-7.9062,57.7591,-2.8378,-14.5465,18.5879,10.2471,61.2984
-3960.9375,-7.2351,9.5074,-26.2626,114.4797,-104.6103,28.6350,16.9421,19.9480,31.0788,38.4962,68.9495,41.4597,24.7336,23.2639,75.9550,14.5565,-34.5299,-36.1207,-43.9446,42.6413
-3953.1250,-119.4060,-68.4475,-70.7414,106.9034,-111.7971,94.6089,9.7444,85.7346,-11.7251,67.2258,61.7317,28.4602,30.0958,37.4459,69.7411,7.5495,-77.9138,-10.2299,52.4663,36.5790
-3945.3125,-173.0313,-122.8580,-91.6715,87.8841,-132.4452,110.1357,-9.9174,138.0830,6.0121,82.5090,41.0569,11.5976,16.3276,46.9578,50.0665,24.0867,-61.7456,5.2134,104.4328,54.0565
-3937.5000,-76.6915,-26.2970,-63.6561,42.8189,-141.1458,137.6165,-91.6386,165.3869,-75.3132,35.7392,-3.6745,33.4877,-29.5520,55.2410,5.3315,15.5646,-34.6246,-74.4011,130.3444,46.4702
-3929.6875,29.7487,43.3711,-24.5412,-26.1424,-137.7454,103.2092,-125.2654,93.8003,-143.5514,38.0627,-1.3165,25.3673,-47.9171,37.5466,-27.3181,19.1293,0.5915,-72.9083,201.3620,13.9696
-3921.8750,130.3784,37.2320,79.7696,-31.8919,-106.1392,97.0145,-130.6974,50.4240,-183.6025,68.5881,67.2351,3.6482,-14.7409,5.3815,-31.7823,-23.1112,30.0068,-185.2187,125.5826,9.6544
-3914.0625,75.3451,16.4374,57.4238,17.7184,-91.1797,111.1844,-189.7906,101.4099,-241.3156,45.4711,45.1317,28.1755,-22.7600,33.2940,-52.9100,-8.0054,9.7613,-101.1768,175.1538,25.6758
-3906.2500,-24.4064,-48.0642,28.3700,-11.3630,-47.9181,154.6634,-218.5890,144.7105,-268.7426,15.6529,53.3178,16.1113,-25.7528,65.1309,-116.7454,37.3948,51.8072,-25.8264,252.0354,-2.0144
-3898.4375,-13.3666,-73.7664,79.1145,-35.6372,3.1405,204.9586,-167.5975,194.8251,-253.3851,28.6325,-6.7042,6.1413,-32.4286,56.5482,-139.7899,-22.4116,61.6503,-51.6795,261.7152,-60.9180
-3890.6250,-74.3263,-99.4708,89.8516,-25.9024,51.1943,216.2604,-120.6179,205.9443,-277.0376,75.6200,-68.7322,10.6811,-26.3209,59.4062,-126.8496,-47.2268,36.4922,98.4770,236.3986,-84.8371
-3882.8125,-102.0879,-57.9611,96.7827,51.0503,22.4409,258.7668,-149.4527,175.2661,-342.5068,8.8174,-24.5648,55.7283,-19.1640,87.1643,-118.7273,-39.8493,43.5344,104.8375,67.2721,-76.5748
-3875.0000,-88.8060,-9.3839,109.7683,135.0742,-38.2745,271.3347,-246.2569,113.6471,-364.9519,-125.9452,-11.3531,103.3620,-45.6086,113.3674,-141.5662,-26.4262,126.6331,117.2552,10.1883,-62.2784
-3867.1875,34.9266,7.6459,129.2043,152.5689,-55.5528,217.3560,-263.6269,22.4834,-416.9661,-180.2684,-28.6976,98.1924,-58.3657,78.0485,-157.9713,-80.5579,250.1920,170.1374,27.5543,-78.5450
-3859.3750,167.2207,-1.7754,231.1908,213.6309,-27.2899,170.9347,-198.4669,-24.1210,-461.4497,-190.0362,36.5017,99.5048,-34.1955,53.2725,-201.8465,-126.1446,347.3108,89.5695,-51.5338,-86.2790
-3851.5625,123.6068,58.9164,258.2806,239.7980,-35.9370,161.6199,-207.2201,-107.6130,-431.8506,-199.6954,63.7898,124.3519,-21.1762,49.8887,-173.6395,-134.6372,338.5311,116.1081,-60.5199,-93.9317
-3843.7500,94.6913,170.3282,229.0692,246.6730,-101.8912,132.0107,-200.2875,-100.4011,-423.5660,-157.6544,71.7772,161.4417,-49.1984,65.3102,-164.7476,-89.4445,309.4593,50.3488,-125.8122,-121.9046
-3835.9375,67.5922,212.5482,165.6630,254.3661,-166.0535,177.2062,-191.5701,-91.3825,-375.4973,-111.8257,7.5629,189.2052,-109.9128,87.1122,-191.0759,-79.4678,282.1946,22.3910,-117.3158,-148.0951
-3828.1250,-80.7525,134.5185,47.0116,246.8230,-173.4672,206.1555,-88.1186,-26.6076,-272.6957,-46.2406,-109.9037,177.6666,-148.0441,97.1657,-197.6757,-86.7541,239.6825,50.1951,-20.0666,-154.5545
-3820.3125,-66.2988,148.2907,-11.8373,226.0801,-122.0766,182.9182,-36.8818,-13.0133,-220.1138,-106.8393,-169.5751,174.7362,-159.7521,97.5009,-182.4957,-72.2482,217.9630,-7.2021,-76.0133,-139.2355
-3812.5000,9.8011,153.7086,29.9638,160.9849,-79.0342,152.3456,-68.0004,-7.7518,-249.8970,-175.7855,-199.6041,161.4481,-170.2642,107.1063,-212.6810,-30.0987,223.8797,104.0584,-35.3010,-132.2834
-3804.6875,41.0366,78.2659,63.9040,121.0417,-45.8428,147.9349,-34.9734,-48.3259,-177.5369,-105.5861,-166.4897,113.6598,-132.6617,82.6795,-177.7309,-32.8048,183.9371,168.4742,-5.4284,-171.1976
-3796.8750,-37.5374,-35.9748,56.0350,113.3019,57.5452,139.7379,31.2512,-19.6878,-110.9896,-4.1854,-174.1804,70.3970,-98.5903,54.4554,-184.5978,-77.3188,106.1901,231.0892,-13.3552,-177.9305
-3789.0625,-178.5725,-1.6615,-18.2913,78.1171,130.4861,139.1031,68.0178,16.5072,-35.9071,-42.2310,-247.3319,84.4110,-108.2458,64.4730,-183.9337,-77.2922,35.9904,300.2669,57.2741,-177.1344
-3781.2500,-176.8058,105.4432,-52.8147,44.7434,169.2246,67.2790,106.5749,17.5073,3.9590,-77.4701,-318.6880,94.1591,-104.9541,32.8700,-107.4864,-111.4807,37.5975,231.2485,58.6970,-174.5609
-3773.4375,-156.5264,125.0575,-106.8356,29.8875,116.4563,-24.0308,89.6147,37.0202,25.3039,14.7930,-335.5492,83.3384,-128.7531,24.4723,-86.5643,-55.1848,21.7110,179.7411,113.6164,-153.5109
-3765.6250,-152.8902,-12.9633,-140.5065,103.3971,46.0326,-56.9788,92.9922,76.8892,66.9787,54.4021,-332.0642,52.5661,-133.5887,14.9736,-82.3126,-51.5573,61.1822,147.5965,116.8836,-149.1334
-3757.8125,-156.5566,17.7290,-70.4795,134.6239,5.3012,-61.2210,89.0592,72.4701,27.3348,49.7052,-189.8851,70.2425,-109.9972,28.5192,-122.3796,-18.2428,21.3516,73.1590,6.8388,-152.0770
-3750.0000,-98.5773,75.0606,-48.8062,86.5088,-45.7817,-113.8090,-0.2280,19.7072,-23.6758,-3.3339,-20.0600,50.2423,-71.8960,-10.7489,-136.8172,-33.2890,-26.8362,94.3846,-6.5549,-129.3936
-3742.1875,-19.7990,83.1998,-40.3332,24.2050,-37.0623,-179.5932,8.2765,27.7542,23.0888,4.4309,61.5651,0.9567,-28.4139,-66.5050,-90.4798,-60.5463,-53.2205,-38.5916,-68.1516,-119.9338
-3734.3750,37.9812,140.3720,-126.8572,11.9191,-86.3492,-192.3746,-4.2356,51.8142,85.8272,28.2028,49.1853,10.5479,-52.5148,-64.9083,-65.1685,-36.8157,-65.5987,-51.5705,-45.7484,-131.4987
-3726.5625,103.8135,134.6167,-205.3319,42.6938,-128.5963,-161.0992,27.2857,82.9372,81.5971,96.0322,6.8468,24.8135,-75.0987,-41.7882,-33.8254,-5.0469,-70.9240,-57.4907,-51.2916,-136.0383
-3718.7500,151.7505,181.9608,-228.7085,125.5779,-189.7510,-148.7104,-33.1029,95.1761,21.4433,107.9679,56.6063,66.2859,-92.8143,-22.7989,-56.3981,7.8126,-58.1553,-151.3071,-108.7399,-122.5003
-3710.9375,131.6806,196.2924,-214.0879,105.4630,-174.9062,-171.3052,-55.5020,72.4339,-36.7316,84.9133,71.3588,64.9991,-99.3059,-33.9189,-114.9875,-14.3381,-43.4009,-101.1088,-59.1791,-106.9818
-3703.1250,113.7485,212.7675,-160.3251,87.4940,-81.9053,-115.7347,-110.7590,90.8555,-89.7709,103.0252,53.2572,75.4022,-88.6508,-22.5849,-132.4446,-32.3424,-61.5122,-49.7544,-77.4641,-124.3342
-3695.3125,64.0598,127.5067,-138.3260,37.7722,13.3501,-56.9044,-125.7716,112.5431,-140.5726,160.4022,38.3957,45.7726,-68.1602,-6.5746,-146.6716,-10.1020,-111.3915,40.8544,-57.5005,-138.4593
-3687.5000,-15.7880,83.1041,-110.4815,-7.0900,4.4616,6.7831,-134.9419,139.0942,-111.5433,114.6341,-7.6244,31.2749,-63.3552,5.0314,-118.0669,-19.0232,-120.4228,136.3265,3.3131,-146.7559
-3679.6875,-10.4851,52.8584,-105.4812,34.2208,-27.2797,48.6264,-129.9790,107.8037,-69.3922,82.0159,34.5073,33.4661,-41.6739,13.2880,-75.3358,-13.8034,-115.2962,70.9570,-26.7358,-140.9254
-3671.8750,-65.8750,-4.0777,-91.1761,48.8461,-48.7248,62.7742,-115.7300,84.8202,-53.9705,132.7005,11.9360,29.6027,-57.6803,24.7531,-97.3257,0.7024,-171.8667,84.9026,58.5087,-125.8189
-3664.0625,-75.0132,-48.7443,-63.6177,3.7342,-57.9333,16.1748,-88.2386,75.0959,-25.3186,195.6440,39.6098,-15.5299,-47.8654,-8.8710,-106.0882,-8.5536,-146.1896,4.1041,84.0023,-134.4884
-3656.2500,2.7452,-6.5004,-56.1575,11.5295,-87.2490,-13.5159,-117.8565,119.2788,-53.7881,165.4987,10.1813,-1.1311,-67.0564,-5.9090,-97.9712,-0.9194,-138.6165,-23.7899,91.3896,-126.2817
-3648.4375,19.4449,9.6989,-113.7432,28.2804,-181.6239,2.7504,-138.5351,135.4251,-36.3269,108.3132,-9.3054,20.0610,-111.6913,27.8031,-117.9224,52.6575,-86.0991,-42.7196,142.7301,-109.1466
-3640.6250,47.1479,36.8971,-84.3317,21.0337,-225.0029,-4.9756,-109.2154,163.5855,-42.8802,63.1347,-16.7990,21.3703,-112.9089,22.8030,-87.8910,45.2279,-58.5903,-156.6454,100.0674,-116.0322
-3632.8125,43.4053,-2.3510,-14.3836,-17.6596,-192.8430,-45.1429,-76.3463,123.3149,-8.8969,58.5143,-20.7527,-10.3672,-99.1866,2.6405,-91.3296,41.3470,-62.5394,-125.0124,95.9598,-119.3874
-3625.0000,90.2479,-27.0037,69.1542,-76.7470,-182.0908,-108.7061,-28.8779,96.6511,39.6764,68.5054,25.8870,-55.3399,-56.9610,-29.4148,-43.1810,52.0565,-86.8859,-185.7710,106.4605,-108.1628
-3617.1875,85.3244,-31.3935,62.9383,-45.5722,-187.0937,-115.0166,-35.1610,127.2428,71.4810,135.7610,56.7687,-52.6074,-59.2555,-44.9209,-85.8040,9.0093,-55.9807,-190.2761,66.2036,-76.7093
-3609.3750,-2.6977,-49.8674,44.6217,-63.4938,-95.1907,-170.4175,-16.5578,108.7428,128.1543,226.9303,2.5419,-66.4117,-73.5931,-64.6676,-140.5456,-9.1454,-39.1862,-102.8675,118.8492,-94.3779
-3601.5625,-74.3159,-121.9417,81.7032,-65.0173,15.1209,-133.4028,19.4341,144.6610,128.2026,300.5084,1.7126,-89.5641,-35.8254,-74.6127,-139.9029,-45.9051,-41.0039,-140.0501,81.8884,-130.6698
-3593.7500,-96.1921,-250.2708,96.5320,-121.7936,140.1905,-81.6151,34.1642,196.3429,106.9829,350.8404,-56.3696,-135.8236,-7.4542,-64.4883,-124.5306,-30.9242,-98.0848,-22.4673,129.6780,-152.2357
-3585.9375,-98.1366,-252.6541,57.3053,-158.6223,212.2118,-10.8611,68.8417,230.9896,69.6965,311.1316,-95.5075,-134.2064,11.0320,-46.1989,-89.2235,-32.9936,-135.2279,46.0749,92.4227,-153.8743
-3578.1250,-170.6865,-184.6396,18.4828,-90.0480,210.6290,61.2995,29.9148,229.0530,68.7875,235.8380,-60.2490,-80.1027,19.3367,-26.0007,-90.5334,-71.6650,-101.9705,79.0172,20.5559,-155.1336
-3570.3125,-231.4378,-175.8199,-45.5351,-80.6707,182.8422,107.2588,38.7762,200.9253,78.6602,170.3599,-51.1979,-70.9221,34.8938,-25.1698,-45.0599,-98.5420,-92.9160,122.7745,29.4888,-145.6133
-3562.5000,-225.5824,-136.3830,-79.9551,-75.6865,112.6448,146.8254,41.2270,240.4073,82.1157,99.4946,-48.5530,-50.8378,17.8633,-7.5253,-41.0056,-95.8272,-53.2598,92.1366,-71.9815,-105.5160
-3554.6875,-162.0801,-71.2816,-87.7299,-46.0442,31.0878,176.0504,-2.6776,195.5502,38.2014,54.2894,-19.2671,-12.6857,-5.8756,18.7695,-48.3193,-66.4694,-94.9545,121.1584,-113.8076,-75.7904
-3546.8750,-136.0844,-45.6838,-97.0133,-54.8977,22.0213,129.7835,-12.0830,150.2038,103.7716,118.5948,8.5101,-25.4012,2.3503,-11.1039,-20.1506,-75.6182,-104.1538,40.6936,-52.1319,-84.5861
-3539.0625,-95.5961,29.4130,-54.7984,-49.2481,27.4522,98.0162,29.0100,118.3672,109.8296,123.4137,-23.2186,-1.2634,-14.4387,-11.0543,-14.4961,-70.2743,-133.8621,-59.2694,-81.9626,-78.8999
-3531.2500,-136.1131,23.5186,-99.5868,-19.6005,56.8792,53.2467,58.1042,73.5349,139.8739,78.2369,-67.9506,6.3692,-9.2965,-16.9887,15.1467,-77.9352,-139.5845,39.7790,-52.7935,-49.2290
-3523.4375,-150.1861,-62.9143,-42.9290,35.5010,113.7515,36.9278,77.6454,56.1637,49.3505,60.5255,-48.2365,-6.5863,35.6899,-23.7226,35.2197,-95.1514,-119.8611,24.2844,-69.1793,-29.1278
-3515.6250,-124.6588,-72.7291,19.3241,26.2163,139.2142,62.2200,66.7752,45.4063,-34.5991,-24.5710,-22.9270,-8.1729,72.6867,-19.2945,60.8684,-106.7733,-94.5354,84.3992,-78.9672,-3.4505
-3507.8125,42.0072,-10.3876,10.7296,-16.9087,93.8209,-20.3234,58.0472,-74.1956,-42.4175,-143.5149,42.5313,-26.4388,75.4490,-58.2358,52.6463,-115.2553,2.9460,146.6880,-87.5927,-11.6476
-3500.0000,74.4173,127.6973,9.8897,-19.2873,130.1888,-58.1044,56.0713,-149.0441,-79.4986,-217.7082,41.7367,15.2745,54.9506,-58.3542,15.1596,-115.9992,35.1777,108.7306,-90.4611,-49.1168
-3492.1875,-75.6219,118.3428,-73.4005,6.8715,195.1252,-67.3241,83.6508,-121.3367,-51.0551,-155.3443,-41.5158,35.4899,35.9560,-34.8532,6.2074,-88.1982,25.9476,169.3332,-28.7806,-58.0551
-3484.3750,-114.6168,43.0505,-77.6436,38.0723,264.1240,2.5187,116.2717,-51.5646,-54.5932,-122.9140,-82.7249,34.4672,42.7893,-12.0603,2.2873,-92.3467,21.7530,129.9972,-104.0611,-61.9608
-3476.5625,-65.3094,-12.9372,-26.5894,87.5723,278.4278,89.6741,20.1804,-37.4816,-113.8586,-109.1710,-68.6325,46.7932,50.6148,32.8769,16.6499,-41.2022,-34.1522,143.9653,-194.0487,-47.5833
-3468.7500,-68.7548,-16.6828,-30.2853,84.3235,201.9737,197.0790,-20.6662,-41.1391,-153.8871,-76.1664,-109.2935,66.7450,11.4262,76.0707,13.2520,-7.8078,-73.8120,175.1973,-163.7798,-50.9735
-3460.9375,-36.3109,14.4705,-34.0775,80.9716,124.4114,229.3868,-61.6106,-44.8876,-83.0247,-80.2424,-76.0620,75.7380,-10.6799,90.3985,9.7438,24.4866,-77.5765,65.3355,-132.6118,-54.4812
-3453.1250,48.4259,28.9374,-19.5700,25.9199,102.1410,133.9970,-10.2601,-67.3272,-104.8788,-103.0030,-24.5381,36.1315,19.0950,27.6757,24.5178,-33.9228,-27.0423,9.7874,-12.1411,-39.7060
-3445.3125,103.5658,48.8168,37.3364,-23.7292,85.2692,44.0087,9.4922,-84.3591,-84.3499,-156.3567,32.3734,1.8575,38.3871,-28.5998,7.6773,-87.9445,27.8899,-76.3445,42.7355,-19.5486
-3437.5000,136.3559,81.3559,32.8924,-61.7252,45.0467,39.6761,41.9013,-88.7328,-51.1793,-197.0530,64.9349,-3.0496,53.3112,-37.4406,40.4693,-92.3237,-10.5329,-43.8242,40.2500,13.2423
-3429.6875,89.8920,34.6500,56.1935,-37.9653,-5.4348,26.0907,28.0593,-101.3491,-27.2671,-136.9844,88.2461,-8.6729,49.9426,-31.2428,26.9976,-68.9568,-22.2113,15.4551,63.5130,36.7665
-3421.8750,95.4243,74.9608,61.4901,38.8007,0.0829,31.5025,-40.7831,-95.9576,-94.3740,-95.9045,93.5576,37.5766,27.8850,3.1163,-4.4831,-26.5931,-51.8910,-15.2640,-2.2286,42.2749
-3414.0625,86.7519,171.0836,-21.4109,65.3718,-45.6089,-14.2820,-85.8305,-68.7558,-102.7008,-69.0062,84.6645,78.1311,-20.8128,15.3495,-50.1812,1.5627,-60.7730,-24.1713,24.8318,33.5670
-3406.2500,106.9765,121.1089,-36.4153,15.8495,-23.4045,-66.1610,-27.9768,-46.6416,-44.1452,-47.1954,106.6652,38.1095,-15.0075,11.6140,-64.9944,60.6167,-40.7554,-74.1687,9.7961,18.7413
-3398.4375,184.0031,57.9416,7.3819,-12.8690,57.5973,-59.2296,-58.3244,-76.7179,-73.8018,-3.5747,186.4608,-12.6096,51.4904,-25.6087,-21.0172,30.4704,-33.9407,-136.3664,-54.4455,25.6994
-3390.6250,220.1221,22.8756,43.2824,-80.4933,93.6982,-59.1903,-94.5714,-76.6871,-146.3725,-4.8424,149.3530,-44.0707,54.5233,-34.1224,-21.9515,29.4179,-33.0345,-66.4479,-18.5838,61.7435
-3382.8125,216.8388,55.4199,39.7880,-14.5260,53.3998,10.4583,-98.2199,-44.0478,-112.3631,-45.5006,108.8436,0.0452,29.2102,-13.7385,-25.2992,-11.0351,-1.5354,-103.9267,-22.1284,58.3757
-3375.0000,158.4030,101.8277,16.1407,33.2822,-7.0481,60.9660,-86.0197,6.4418,-63.5237,-32.2998,48.1824,50.4196,-20.3696,25.9017,-48.8101,2.3656,9.8103,-127.5494,25.1671,34.8462
-3367.1875,56.8069,70.0842,19.3362,0.9383,-76.6456,64.3327,-46.9671,9.7851,14.1538,44.7639,14.3616,42.1875,-48.1097,54.6137,-45.4763,79.6239,-22.0013,-90.3127,63.3096,38.1554
-3359.3750,29.4499,78.5882,64.7702,-60.1548,-67.9933,35.9534,-38.6545,-18.6069,-13.9270,90.0938,59.7806,8.8943,-22.6929,17.9197,-36.8900,51.1320,-13.5708,-151.8208,0.6989,46.7033
-3351.5625,78.2320,56.2510,40.3542,-81.1085,-91.1908,-25.2716,-62.1812,-78.8379,36.1347,28.5863,109.3435,-24.9962,-4.3548,-22.1698,-24.1582,26.7863,-1.0056,-69.1664,13.2389,59.3907
-3343.7500,213.1545,-19.9371,35.0900,-51.9177,-133.2406,-30.3450,-31.5491,-83.9143,31.3330,23.2390,141.0635,-52.7304,14.2960,-35.2953,7.7134,21.5888,64.7072,-74.3516,-27.0760,54.2196
-3335.9375,198.7765,0.5827,20.5253,-31.0238,-147.5908,-44.7151,-9.2179,-25.2883,54.2124,45.5999,126.4850,-33.5858,-0.1208,-18.0000,-6.7269,44.0914,85.1154,-18.8287,-76.6980,39.7386
-3328.1250,71.1513,48.8638,-4.2863,-18.3846,-135.1995,-68.3364,39.8624,-49.9106,103.8267,57.7147,64.6539,-8.0603,-13.8592,-21.4497,5.5669,19.3482,26.2689,29.4556,-64.5661,51.9978
-3320.3125,17.7770,66.3965,-22.8469,-69.4988,-117.5653,-50.7113,57.1936,-32.2757,47.6779,38.0928,82.0759,-20.0842,5.3193,-32.1085,23.1048,-0.1427,-26.3307,10.9956,-152.1859,69.4996
-3312.5000,-78.4039,4.1307,-50.2066,-96.4240,-108.7303,31.1058,102.7299,-23.4377,19.7281,46.6880,53.6933,-21.7650,10.1130,9.8616,31.8371,45.5689,-87.7368,125.7447,-72.5960,78.1945
-3304.6875,-85.9453,-72.4915,-21.9154,-103.7072,-79.2331,60.5724,131.9214,-30.9468,12.4236,112.9427,45.9522,-41.7777,17.3428,23.7638,24.2142,74.9294,-95.4925,153.1526,-80.3467,70.5290
-3296.8750,8.4582,-119.1610,3.3291,-78.0428,56.2211,12.9983,157.0708,-113.5048,2.0598,102.1552,72.1589,-69.3566,63.1136,-29.4958,13.5312,-9.7625,-70.2990,177.5214,-91.1539,59.8022
-3289.0625,1.3618,-90.3339,33.0783,-84.8908,159.1839,-31.0653,223.7258,-157.5645,32.1883,20.8768,-9.1352,-65.8310,76.8452,-49.7475,43.3397,-53.9592,-8.6123,206.4023,-98.4512,52.5658
-3281.2500,-102.1355,51.0922,34.4351,-83.1525,197.7544,-29.5192,224.9898,-156.0155,70.9124,22.2063,-43.8310,-16.3739,72.8334,-37.9851,81.7431,-52.5614,-7.3333,101.8867,-168.1544,53.9195
-3273.4375,-75.1287,42.0255,25.2931,-91.9235,188.8262,-38.4664,215.7601,-164.9645,62.1301,50.0373,-17.0311,-20.7511,59.8917,-31.5726,35.6469,-24.6599,-16.5609,127.8757,-142.3509,44.7649
-3265.6250,70.1701,-92.7386,-6.5489,-86.3975,121.1981,-105.1120,146.8399,-159.6089,67.6443,55.1800,25.0595,-86.2801,57.8627,-55.8344,40.8466,17.5404,23.5115,63.1718,-101.2415,49.9053
-3257.8125,114.5110,-49.4612,2.6555,-42.8167,56.6204,-95.7017,119.9720,-150.1984,40.1943,27.3885,71.1988,-57.5224,43.3811,-41.5805,13.0889,26.7903,68.6381,-33.4747,-92.0794,59.0915
-3250.0000,53.1969,-4.8249,86.2015,2.1028,-7.6115,-122.9446,92.4517,-140.4301,50.0795,-0.0418,-29.3140,-16.5156,27.5092,-7.6762,96.6734,73.3967,148.1146,11.2464,-13.5540,68.6233
-3242.1875,129.3805,-34.6730,165.2460,42.5062,-111.3484,-117.6914,60.4364,-98.1547,92.4573,5.0424,-24.3253,-15.7980,8.3191,-1.9248,101.7538,78.5056,153.0904,-53.5346,-43.5231,73.6468
-3234.3750,169.8087,-63.2587,133.5396,13.1549,-179.8400,-186.1959,28.6766,-56.6180,61.0825,47.3992,16.9035,-48.5295,-3.6088,-27.7359,70.0769,83.8676,123.3122,-13.0597,-38.2361,78.9127
-3226.5625,141.7217,-56.3454,103.3258,-48.6996,-208.8349,-252.2068,35.4202,-85.5723,68.2070,91.2844,60.6277,-90.9765,24.0835,-79.3325,113.9025,53.7344,165.0282,-41.0777,3.5589,85.6769
-3218.7500,30.4215,78.3652,207.9067,-19.7516,-178.0348,-220.4223,29.9735,-90.7193,26.1296,48.9886,-17.8424,-17.0864,16.1196,-43.3276,145.5331,48.4087,194.5406,-46.2977,-1.8581,80.2422
-3210.9375,-62.1308,89.8267,258.2361,26.9380,-164.4937,-170.8926,43.2788,-42.1091,2.8009,-11.5496,-114.5607,35.1626,-14.7111,8.0628,121.9155,61.8446,135.7959,36.2339,80.4780,56.5594
-3203.1250,5.2143,-17.8151,184.4714,26.5147,-127.0582,-61.4642,80.4899,32.4079,3.3669,-11.1809,-78.3735,4.4272,10.9124,8.6294,121.1998,25.1883,63.9436,-0.3336,43.7131,19.7785
-3195.3125,103.8039,-129.2063,103.9517,54.3290,-98.3775,5.2092,35.9499,25.1826,-3.8250,-18.5506,-12.9376,-22.4730,22.1648,10.1680,77.7372,17.7909,21.3421,27.3504,71.2057,12.2509
-3187.5000,33.7336,-129.2361,66.7726,19.4803,-62.3525,79.2271,35.7701,-11.6934,-3.6633,-92.5554,-13.1575,-21.0783,32.5280,26.8981,77.6277,17.7482,56.0873,97.3924,71.0591,12.0728
-3179.6875,-40.8904,7.1983,63.0407,51.0784,8.1276,75.7001,32.0497,-15.1213,-81.0523,-96.1000,-53.9301,39.9813,12.5341,33.0145,36.9630,-22.8403,87.2782,23.8839,32.3577,8.3438
-3171.8750,-20.5249,-7.3715,85.3061,1.6775,103.6130,61.1821,17.3313,-29.5507,-131.4530,-110.6382,-31.7052,13.8571,41.1637,13.8509,22.2977,-37.4243,72.4654,44.3900,52.6520,-6.3814
-3164.0625,-4.9760,7.2525,100.7669,-18.5279,157.3058,3.8792,-3.1831,-49.7761,-115.6633,-93.9679,21.7193,-9.2952,73.6687,-23.3660,38.8340,-57.8015,51.8432,-10.8951,-2.8562,-26.9043
-3156.2500,-54.4379,63.8723,49.2253,3.2567,142.0087,-11.4180,-18.6870,-64.9950,-93.8766,-35.2793,6.1419,15.6123,58.1124,-15.6557,60.3707,-36.1731,3.2215,-24.1766,-52.3609,-5.4259
-3148.4375,-67.6561,85.7386,-3.0639,25.2749,53.9569,-26.4662,-33.9332,-79.9566,-71.8377,-13.3291,-9.1902,29.6465,32.4109,-8.7584,82.1631,-14.2841,-11.1485,-2.1999,-30.6071,16.3053
-3140.6250,43.6236,91.1092,113.1535,65.7919,-14.5991,-94.0187,-65.6749,-74.4178,-66.3033,-117.8862,-4.0227,29.6980,22.7216,-17.8045,87.4583,-8.8874,99.9912,-102.7258,-129.3589,21.5404
-3132.8125,99.4050,146.9843,134.8741,86.8079,-28.6592,-144.0797,-115.9119,-88.3790,-80.2772,-167.9391,55.6446,35.9842,25.1250,-62.3689,36.2529,-96.9907,155.6337,-81.7397,-143.6091,7.2799
-3125.0000,82.9345,236.6177,118.3482,105.5730,-7.9773,-160.3993,-96.3941,-140.5897,-132.5049,-258.2223,112.0619,68.3613,49.7294,-52.5975,56.7975,-76.3396,210.0331,-132.9988,-196.0997,-9.2294
-3117.1875,67.5589,256.3559,64.9260,160.4380,-25.2029,-140.6151,-76.7747,-156.6957,-148.6356,-201.3968,95.5799,101.5463,25.4480,-28.7926,39.4428,-56.5795,194.5325,-147.1530,-211.4912,10.3634
-3109.3750,31.0870,184.9930,62.4013,195.1967,-63.5310,-179.9339,-78.2485,-158.9074,-77.8676,-93.6692,19.0000,92.5618,-10.1087,-21.2721,36.9904,-21.9128,192.9263,-112.3971,-141.9750,44.8601
-3101.5625,74.0179,157.0316,69.2691,167.3408,-20.4550,-172.8569,-35.3127,-114.7182,-34.7017,-50.5291,-11.1710,75.7798,-9.4786,-22.1761,43.9435,-14.8324,129.7058,-176.2472,-135.0591,51.7639
-3093.7500,90.5315,173.6666,13.7271,8.0649,-1.7805,-117.1858,-16.7651,-60.9182,21.0644,-31.7666,-29.7426,39.5854,-25.3776,-21.8555,25.5046,3.8600,5.0694,-123.4902,-48.5300,33.2773
-3085.9375,23.8799,108.1310,-90.9759,-127.3789,76.7450,-40.6646,61.6468,-56.2508,99.6912,-64.1290,-25.4700,-15.0265,7.3633,-13.9005,66.9186,45.4172,-130.7268,-49.8775,-79.1354,37.6495
-3078.1250,-77.2779,76.0880,-125.1766,-124.3463,116.7771,36.3550,64.5714,20.9243,65.8195,13.0163,-58.7013,-6.5904,10.7951,13.1977,69.8457,48.4838,-163.0272,-11.7650,-110.2377,40.5328
-3070.3125,-159.3429,-5.8490,-136.2842,-135.2311,105.9072,62.4718,53.6037,47.1985,128.0486,112.2719,-142.8336,-21.6809,-21.1907,30.3773,58.8773,74.6665,-209.2367,48.4574,53.7694,29.5265
-3062.5000,-172.6222,-18.9833,-149.6019,-183.3329,55.8357,122.3938,113.4404,107.2763,189.0830,136.3461,-156.1664,-38.8357,-12.9343,29.2917,118.7144,61.6623,-257.6511,0.4788,40.5827,16.3279
-3054.6875,-184.5147,-30.7208,-200.5245,-195.0430,42.1641,109.7229,136.6829,130.7629,249.5170,86.8290,-96.0982,-47.4954,12.7096,30.6922,141.9587,85.0693,-340.6724,58.8968,28.8041,39.5387
-3046.8750,-258.4642,-67.5205,-278.4998,-197.8127,37.4410,105.0038,132.8838,127.2071,281.9029,155.2727,-64.0843,-56.5201,14.0335,49.8276,138.1590,153.4398,-378.7449,91.2672,24.9856,71.7080
-3039.0625,-253.0157,-97.9236,-236.0762,-157.1904,-29.8822,36.6844,138.4947,133.0568,250.6929,161.1328,-58.6730,-60.8391,-2.9681,41.3906,106.7596,159.2184,-303.4129,26.0340,66.5755,77.2838
-3031.2500,-191.1136,-106.8784,-172.2017,-201.1280,-38.7571,-45.1911,165.5638,87.3603,278.9351,152.4616,-104.8162,-93.8303,-5.8018,6.9161,134.8165,150.4530,-241.6321,-17.7512,162.6259,68.3145
-3023.4375,-86.4164,-107.0175,-98.5276,-236.2765,-38.8393,-81.2782,165.4434,50.4584,315.9825,152.5997,-68.1537,-120.7443,5.1630,-17.3078,134.6785,150.4963,-207.0460,-122.7438,197.4780,68.1530
-3015.6250,-67.3693,-192.7896,-81.5032,-218.0812,-57.5739,-64.0222,109.6769,67.9018,259.3823,134.0863,21.8618,-139.4698,44.1694,2.1058,151.8966,204.8994,-259.1070,-103.3928,216.6868,122.3543
-3007.8125,-111.9680,-167.2201,-166.1320,-156.5416,-105.9686,-38.4266,61.2682,93.6988,175.1388,122.9252,47.2267,-93.4951,16.3615,52.6708,103.4716,267.6666,-233.8147,-42.6947,207.2565,147.9191
-3000.0000,-42.8219,-62.9114,-92.0123,-122.2632,-104.6216,34.9141,-10.3846,95.2472,65.6505,50.5301,47.3507,-34.7014,-13.8388,78.9195,30.8054,232.1961,-163.7710,-42.2551,136.5814,112.2457
-2992.1875,-70.3430,-125.2604,26.4514,-184.6431,14.0778,118.6031,-37.6786,68.1503,1.5166,-13.5000,-52.1785,-56.6979,-0.7030,89.2185,40.4935,205.0913,-156.3839,70.5433,144.2610,84.9336
-2984.3750,-55.1811,-250.9058,-30.3905,-240.3306,141.4803,170.9910,14.7370,84.7588,55.0880,3.1857,-1.0139,-125.3373,63.4887,52.0317,56.8868,147.6952,-212.2955,85.0474,123.6458,64.3299
-2976.5625,-91.5767,-251.0843,-140.7863,-205.5737,141.3378,244.8222,88.6103,84.8171,55.1171,77.3314,35.5922,-103.3453,72.6114,73.1146,56.7374,147.7520,-247.7501,120.0015,88.4911,64.1828
-2968.7500,-128.5727,-252.8679,-142.7819,-172.4333,65.5927,243.0463,49.8987,83.2712,90.5578,75.8753,33.5975,-82.6361,32.4178,110.4778,17.9994,220.2157,-214.7937,118.3592,121.7548,62.4464
-2960.9375,-142.1673,-196.2667,-84.3763,-185.9045,50.2462,154.6725,34.5998,68.1300,112.3999,97.8220,18.0073,-88.1897,28.3709,78.7267,39.6702,205.0913,-158.4321,34.1144,37.4236,84.1220
-2953.1250,-161.2688,-110.1705,-31.4819,-204.8805,66.3936,-13.1960,50.8051,47.4967,128.7504,151.2786,-38.0870,-88.6468,30.4696,30.3574,92.8492,184.4821,-212.5733,50.3734,53.6004,100.3091
