Time,Fp1,Fp2,F3,F4,C3,C4,P3,P4,O1,O2,F7,F8,T7,T8,P7,P8,Fz,Cz,Pz,ref
-4000.0000,67.1157,38.1544,88.7932,28.3033,56.5109,2.0150,-1.4345,-35.7365,-21.6960,-113.5968,-20.0342,-20.9088,18.0507,-7.7767,-19.1694,-49.4883,60.9146,-0.7306,-6.2328,-15.2400
-3992.1875,269.1555,52.9989,80.0287,-36.7584,-63.2487,-8.3372,-159.1560,-83.7476,-106.7636,20.2833,116.4018,-68.9152,-29.2468,18.3807,6.8009,13.1891,-18.7895,23.9318,-16.9863,-26.1804
-3984.3750,117.9982,14.1402,107.0767,-21.5247,35.7838,53.1150,12.9189,15.0442,-8.0354,6.9561,31.6281,-81.1227,32.2655,-141.6687,31.5628,0.6623,-29.6694,12.4027,-63.9542,-38.3284
-3976.5625,184.9534,-63.1940,-8.7728,-223.1579,29.9143,-26.3300,43.0926,7.9334,58.7912,145.7242,134.9621,-88.2248,-47.1375,-147.6149,97.4266,103.2376,-420.4751,-62.0344,36.1845,-8.3816
-3968.7500,212.8223,-53.1376,58.2896,-180.9439,-51.0709,-71.8701,34.1557,-1.2854,49.5108,135.3785,126.2022,-206.4188,91.3580,-192.6707,88.1830,20.7059,-216.3601,69.4376,-42.7865,-17.5376
-3960.9375,147.6342,-125.1133,100.3116,-232.2168,-10.1043,-68.4531,73.1682,38.4518,88.1718,173.9869,129.3926,-314.6598,94.8079,-153.7841,54.8804,96.1154,-248.2906,37.8596,-75.8111,-14.7440
-3953.1250,274.6249,-82.9871,86.4842,-226.4390,-136.0024,-83.8873,-89.6859,-51.6634,-1.0340,193.7648,224.7441,-293.7483,-30.6039,-96.7478,74.7261,116.6853,-227.0976,93.4309,-55.6787,-30.8015
-3945.3125,207.0623,-14.5523,164.1164,-57.2714,-95.4636,-7.8670,-13.0895,-12.3250,1.2147,83.9876,153.5392,-291.3895,8.4400,-204.2713,4.0223,8.6984,90.5688,94.4679,-90.1024,-65.4155
-3937.5000,267.4981,-1.4108,152.7407,-94.2537,-107.9237,16.1603,-100.4854,11.0199,-86.5329,143.2237,177.3301,-231.0346,-77.5232,-144.7861,-46.6819,31.7193,-60.7986,47.5009,3.4779,-42.0333
-3929.6875,229.8079,29.3589,189.2145,21.5924,-146.5483,88.0373,-177.0467,7.2179,-126.4418,102.3163,100.9827,-270.8251,-42.6435,-147.4535,-86.5479,-8.4132,181.6761,149.3915,-1.1058,-81.8044
-3921.8750,33.4577,-22.6229,134.0527,37.4006,18.1742,141.2677,23.7461,60.7692,-0.0000,80.7539,6.9889,-256.2607,-26.4053,-167.7849,-107.0715,-66.1988,161.4998,92.6280,47.6535,-139.2327
-3914.0625,156.3165,1.9068,79.0827,-7.8625,-0.9091,121.6950,-70.2670,40.5213,-93.3561,96.4079,98.2118,-202.5016,-118.9807,-77.9096,-90.3935,-50.7782,36.4864,108.0654,27.6225,-159.4666
-3906.2500,50.2728,56.3062,153.2079,134.6409,35.1020,120.2271,-72.1742,38.3824,-95.6094,-17.8329,59.5321,-130.6510,-47.4460,-152.9424,-129.6174,-89.2586,317.5840,106.6151,-80.3208,-161.6058
-3898.4375,155.6869,60.9154,113.7849,37.5243,-5.4314,43.2175,-112.6332,-3.3015,-137.4179,87.3895,92.3150,-62.3553,-161.4670,-83.5258,-134.3969,-21.2863,104.1049,-0.3880,-12.8230,-129.2966
-3890.6250,270.1801,135.7365,160.4205,99.8164,-106.9332,-22.7421,-179.0679,-68.9347,-167.1974,-16.3251,137.1560,-55.0034,-116.4485,-76.0564,-127.1288,-50.2615,288.6631,42.6702,-40.2809,-121.9394
-3882.8125,74.4486,71.3385,212.8590,102.9798,17.3685,-8.8951,-54.6945,-19.7564,-117.1718,-41.2311,76.7764,-77.8499,7.3781,-99.8006,-151.0638,-37.4431,303.0294,-14.4649,-26.9341,-108.7850
-3875.0000,115.4499,17.3613,70.0195,-24.4761,20.4168,-42.2946,-126.5695,-53.8234,-115.3859,69.6383,190.1462,-38.9319,-63.0560,49.2160,-75.2471,1.1435,26.1064,-44.8574,47.1797,-69.8787
-3867.1875,-59.3623,8.0726,34.3676,61.9190,20.6549,-42.4933,-16.2418,-17.6883,-42.4038,31.7114,152.7086,-3.8057,46.7120,48.4332,-76.2311,-74.0617,202.3968,-10.0417,-23.5105,-70.7728
-3859.3750,-77.3837,-44.4911,-58.4921,-67.5129,73.6960,-63.8860,34.8905,33.2544,9.3800,155.5940,205.0687,85.1305,-10.7201,63.4487,-98.4179,14.5351,-133.5318,-99.4274,-8.3992,-55.8657
-3851.5625,103.8081,20.1404,-92.1594,-68.1355,-71.0826,-99.0757,-73.7910,-1.6019,-63.6370,192.6873,243.6349,123.2701,-8.9671,64.6715,-60.4025,52.3275,-129.2749,-60.6028,-76.0818,-17.7601
-3843.7500,-82.3758,-34.8265,-68.1817,-42.7243,-48.2162,-39.6015,-14.8137,94.1998,-4.9976,176.4253,154.8369,108.0665,50.4475,50.5394,-38.7395,73.7647,-104.3503,-72.1149,-87.1201,40.9895
-3835.9375,-56.5702,-88.9491,-190.2169,-175.9504,-134.3580,-126.1203,-64.8380,79.0066,-19.3583,345.1862,214.0447,130.8826,-37.1567,146.4113,19.9225,132.2172,-360.4629,-81.6278,41.8444,99.7380
-3828.1250,-77.7185,-13.8682,-101.2114,-30.1069,-230.4617,-148.5857,-51.8252,55.8691,30.3197,210.0055,191.3045,143.7651,13.2901,49.3299,-3.3700,71.7241,-31.5217,70.9238,-85.1528,76.5359
-3820.3125,-106.8775,-43.1831,-60.2149,-61.1161,-189.5646,-108.0427,-12.8126,21.7384,-4.0046,138.8342,231.5635,146.6578,-56.2611,126.2465,-0.6657,111.2327,-132.5943,3.4723,-82.1530,79.3344
-3812.5000,99.8317,16.2819,-26.3744,-50.9742,-230.8327,-76.6572,-126.9658,-92.5473,-81.4890,58.5265,300.6870,105.4107,-96.9760,121.0228,30.8852,105.5970,-100.8389,34.8709,-87.2989,73.9835
-3804.6875,-85.4816,-18.9218,1.4646,13.4173,-130.1071,22.7333,7.8934,5.1786,16.0370,46.2219,105.7947,57.1636,1.3158,-1.2134,-17.5619,56.9605,-7.0635,24.2743,-64.4468,62.6307
-3796.8750,-49.5673,-80.5438,-143.4673,-116.7972,-130.1372,59.3758,-29.9913,78.1672,51.8211,265.1951,105.1488,56.1789,-145.1542,71.8124,-18.7561,129.5897,-323.0730,-12.0817,40.6658,61.5308
-3789.0625,-94.7664,-49.7112,-188.5221,-22.3636,-176.2859,85.9187,-2.9830,141.0634,41.5042,254.0833,-15.5983,46.1057,-82.7257,24.7452,-29.0484,82.1259,-123.1820,47.4662,-6.3274,14.3328
-3781.2500,-193.2384,-76.5262,-181.8365,-16.0587,-61.6855,128.2145,111.7867,145.7200,82.9471,183.7317,-47.6059,50.7889,-77.5462,-7.5737,-24.5899,49.4219,-151.5489,-17.2444,-1.5771,18.8894
-3773.4375,-69.7956,-27.4968,-163.2677,-14.5661,-153.2041,72.3987,-55.5541,52.2728,-11.7103,126.3074,80.2927,103.3878,-132.4802,46.0149,-8.2212,65.6332,-134.0525,-0.0588,-20.9248,35.3522
-3765.6250,-131.4704,19.6799,-9.8067,103.5466,-183.8284,78.4807,-49.9878,57.7233,-43.4581,56.7892,49.0834,108.9006,-17.5061,-59.5027,-111.9479,-3.2573,117.3567,41.0315,-119.3799,40.7156
-3757.8125,-2.5643,-0.7979,-58.7669,-32.5333,-159.8477,28.1592,-98.8113,6.7785,-56.5970,115.8919,109.4729,132.0303,-102.9407,0.5845,-53.0708,56.4569,-174.6669,-6.2856,-62.2284,63.6824
-3750.0000,36.9381,37.2460,-91.1394,25.4268,-194.2913,-6.5604,-97.0459,8.4363,-55.1405,79.6059,74.4588,97.7789,-64.7822,2.2784,-51.5957,57.7741,2.9004,67.0063,-94.4758,65.2510
-3742.1875,-184.2435,-69.1371,-101.1748,-1.5225,-22.3901,56.0795,37.0777,70.4541,-31.3228,140.6812,-47.2248,11.8891,-3.2689,-9.6786,-63.7764,119.4481,-43.1804,55.6494,-72.3683,53.1713
-3734.3750,-157.0847,-103.1252,-181.8867,-65.8901,5.8511,84.0702,-9.4528,60.8274,32.8436,203.1328,-20.5558,2.3637,-49.4213,17.7204,-0.5982,109.4860,-191.9473,46.6427,-11.8989,43.4466
-3726.5625,-206.1449,-43.1541,-84.8109,58.6628,29.8771,69.8680,86.8195,47.0090,55.8119,41.3903,-34.0970,25.6443,84.2366,-70.0870,-14.6155,-52.6746,74.0965,66.4498,-97.6335,-7.4779
-3718.7500,-39.6308,-23.1673,-94.1546,-38.7841,19.5010,23.2746,39.6962,71.8042,7.3837,66.2630,-8.0475,50.5362,-73.5051,29.7123,-26.0308,9.7756,-147.2844,-14.1463,32.2370,-18.7966
-3710.9375,95.3810,60.9510,-24.0243,27.6849,-133.3945,-18.8200,-39.9401,29.0957,1.4611,22.6531,-87.4977,44.9414,-115.7524,23.0245,-31.9379,-33.2652,21.8225,84.7595,24.6108,-61.6113
-3703.1250,-94.2430,1.1992,35.4879,47.4798,-73.8896,2.4848,91.8465,50.7957,58.9570,6.4538,-211.5664,-7.2431,-19.6005,-28.2651,-47.4395,-48.9077,78.3329,105.0640,9.3813,-77.0249
-3695.3125,-25.1799,-18.9552,-77.3291,-33.9747,-151.6869,-0.5138,-22.6660,46.2055,18.1575,73.9817,-106.9374,25.2917,-97.7638,4.1566,21.7655,56.1649,-100.5004,32.0608,112.8611,-44.7322
-3687.5000,-46.3365,-4.8257,-26.3630,29.5652,-138.7004,48.2931,26.6165,58.4187,66.1602,12.3156,-130.5170,-35.3562,98.8822,-131.6242,-3.2326,-4.9573,53.4795,44.8696,125.1331,-32.6353
-3679.6875,-110.9188,-124.0547,-95.8119,-140.0933,-24.1160,88.7038,102.5080,172.2455,142.7678,198.2653,-163.5032,-69.3884,66.1246,-54.7974,36.3685,107.5242,-326.9586,-90.7260,200.0106,7.0645
-3671.8750,-80.9983,-129.6612,-174.7769,-169.7344,-69.0464,81.6097,57.8923,163.5734,133.8757,299.7339,-134.9894,-40.9093,-16.1415,10.5365,64.4720,172.5126,-403.9195,-26.8200,193.4006,35.2664
-3664.0625,-266.7655,-150.3297,-187.4077,-95.9084,28.3714,104.8733,153.6364,223.2612,120.3469,210.5690,-222.1438,-18.0718,80.9509,33.2210,86.9254,121.8514,-274.5222,-38.5614,110.1393,57.8180
-3656.2500,-112.1049,-131.8312,-245.6227,-172.8622,-31.7653,44.5880,19.8299,126.4102,59.2714,222.8836,-135.8463,32.2373,-16.5205,120.3692,136.8340,134.6572,-436.7176,-59.8601,123.3358,70.8244
-3648.4375,-90.4101,-32.6501,-110.8075,3.6036,-43.8725,69.3491,7.0724,39.6122,46.2488,-11.7421,-222.5012,19.6135,118.0593,-3.4309,49.7973,10.5221,-64.8543,66.8979,3.5786,20.8854
-3640.6250,-143.5039,-41.9358,-93.7626,-9.6072,47.2694,85.3606,23.5798,92.0751,-11.5087,-33.1000,-205.9124,72.2573,134.8908,-23.9828,29.0199,-10.3535,-153.7541,46.8943,18.0791,0.2014
-3632.8125,-14.5554,-12.1886,-140.6983,-14.2670,-1.5535,73.4163,-99.8731,43.5889,-61.2148,27.6154,-144.2665,59.9705,85.7598,37.5229,53.3037,-23.1679,-131.6340,69.9414,5.6392,-12.4258
-3625.0000,-166.7852,-36.0311,-79.8014,49.3970,58.4611,97.3257,70.5275,102.9635,35.9329,-60.8128,-231.7847,10.5476,183.4882,-13.1152,39.4354,-37.1224,31.3489,21.8409,-42.9575,-26.1976
-3617.1875,-171.3965,-113.4568,-194.2864,-95.2792,89.1144,17.8862,100.5755,59.9963,65.7319,42.4358,-164.6545,3.7899,102.8577,89.9161,105.2281,66.5959,-219.0523,-88.6243,57.1053,3.6913
-3609.3750,-189.7236,-65.0949,-212.4984,8.3078,70.0462,-1.2548,117.9182,40.3310,118.8378,58.9976,-184.2281,-15.6469,120.5278,-39.7510,85.3298,9.6194,42.8472,-1.7887,72.4680,-16.1150
-3601.5625,-199.9390,-83.9772,-149.5800,-24.6794,133.1298,-12.2472,180.4292,101.8293,144.1087,119.7264,-232.6634,-63.9245,72.3526,-51.2700,73.5831,34.7983,-3.1135,-47.8023,166.9845,-27.7661
-3593.7500,-121.1195,-44.2373,-140.6456,-13.9453,31.2516,-78.1936,76.9911,36.3812,77.4348,89.5278,-151.0471,-19.1373,-29.7858,30.2763,117.8974,42.0420,39.9375,-4.7635,139.5641,-20.3604
-3585.9375,-274.8807,-18.4769,-119.2840,134.3905,14.8189,-57.6907,134.0155,19.3901,61.2240,-38.2138,-204.9993,1.1144,64.5318,13.2722,64.6690,-49.2612,342.4514,50.7381,18.5878,-0.5018
-3578.1250,-110.8253,-0.2419,-133.1060,32.5981,-0.7585,-72.3408,7.9003,3.2577,-29.1220,-18.0818,-110.1068,96.2323,-61.3086,144.1311,85.2955,-28.6941,48.7822,-31.9217,5.4722,57.2153
-3570.3125,81.0547,95.1337,-8.1109,102.1122,-168.4991,-21.1433,-123.3650,-55.0268,-86.6058,-150.0788,-22.3688,111.2133,-10.3020,122.8463,62.7821,-14.2634,168.9526,18.2686,-49.7813,71.7882
-3562.5000,-6.8108,58.9472,47.1578,94.4751,-113.9380,70.3584,-69.3077,-1.9950,-69.7702,-133.7633,-5.3479,128.5027,44.0124,102.8633,5.5664,2.4725,81.4197,-34.2455,-102.7236,88.6663
-3554.6875,54.1566,42.9641,-35.7553,-2.9507,-125.5339,21.7133,-118.4059,-13.1058,-82.0855,0.4329,129.5280,189.6571,-39.8359,90.7427,30.2129,27.0701,-139.3011,-78.9116,-41.8015,113.4024
-3546.8750,-53.9001,42.1837,-38.6878,76.9095,-55.1435,18.0723,23.4992,-17.2043,-13.3929,-40.3627,51.3864,149.8196,65.3196,49.6276,25.8610,-49.3312,66.9929,-46.5642,-116.8791,109.1437
-3539.0625,-21.2416,-13.9027,-79.9008,-68.7553,12.9957,-21.8178,19.1623,-21.5396,18.0624,62.6164,119.9817,181.7446,-48.7820,118.2731,94.2694,18.0389,-251.9840,-155.4784,-50.2017,140.6413
-3531.2500,83.4541,49.8977,-43.0908,-33.7808,-60.8281,-59.6651,-92.1281,-59.8275,-56.4272,60.6663,118.6295,216.7322,-49.8407,116.9753,55.7384,16.4728,-181.9247,-51.3398,-51.4691,139.1951
-3523.4375,-81.1495,-3.0914,-30.5570,-11.6687,23.0942,-11.7611,-7.6476,-12.3517,-9.1451,34.4800,20.0071,155.4830,-2.1401,54.4232,29.9690,-9.3364,-137.1093,-6.4550,-6.9879,113.5062
-3515.6250,6.4093,-32.7188,-121.8643,-119.0382,5.2135,6.3412,-25.9605,-30.6687,8.3484,52.5280,111.5811,173.4560,-93.2445,147.0876,48.4124,45.0742,-401.1423,-24.3841,44.7081,95.0298
-3507.8125,-43.3081,1.8300,-27.4547,0.3256,63.0613,64.1884,30.4762,-11.2320,28.6001,-73.6584,20.8980,121.1978,-36.5916,56.5153,31.6193,28.2474,-136.4215,-5.5622,-75.8454,78.3127
-3500.0000,-44.6550,-11.4586,-28.6735,-56.8225,60.3038,61.4311,27.3250,22.6169,25.2572,-40.4207,18.6087,191.3554,-75.5381,90.3534,65.2333,61.8381,-313.3179,-111.3534,-7.9899,112.0061
-3492.1875,17.6803,29.8174,-36.2246,-32.4507,-56.7701,-19.6306,-90.1369,-21.8333,-19.3800,-13.4623,46.0215,220.2291,-83.7954,118.9064,56.5546,16.1430,-215.5311,-84.4390,18.5824,103.4103
-3484.3750,-115.4350,43.9672,7.8011,50.3291,23.7564,-84.0915,27.0113,-14.6776,24.5978,-78.8936,-54.9858,228.7122,-3.4427,16.0561,-9.5231,-12.9443,0.8774,-76.9177,-45.2493,74.4231
-3476.5625,25.6242,42.4917,-27.0053,-32.8976,-12.5174,-120.3567,-45.6314,-86.3170,-48.2142,-7.1002,17.2012,192.4037,-74.9004,16.4171,-9.3852,24.1829,-138.5485,-76.2093,25.1327,74.6475
-3468.7500,-17.8915,81.8455,2.6071,105.7580,-56.3519,-55.1791,-53.8136,-58.5084,-56.5610,-87.8467,-63.1741,111.5543,-82.9017,-64.7711,-53.7803,-57.2359,168.4831,89.9558,-19.0279,30.3308
-3460.9375,-92.9584,6.7414,-37.3120,53.2038,-22.6777,52.4947,-20.4736,48.8135,-23.3807,17.9244,-177.0660,35.2177,-123.3967,-31.4509,-94.6702,-24.1433,23.0000,84.6086,11.3224,-10.4771
-3453.1250,-35.1389,12.2144,-85.3698,46.9149,-71.1171,114.0613,-69.2379,36.0375,-35.2919,41.6213,-189.0622,22.7980,-172.0082,-6.2103,-69.6503,0.8694,-25.6083,177.1570,67.5844,-59.3753
-3445.3125,-188.5088,-9.0678,-58.6043,124.4710,28.2842,176.4867,103.8596,99.1259,63.6521,-79.8247,-311.2279,-24.7619,0.2340,-54.1137,-43.7738,-47.2629,137.6498,199.5625,19.6977,-107.4171
-3437.5000,-91.4609,-51.4046,-104.4238,-22.5251,93.1337,94.3664,94.4110,52.6781,54.0546,-16.7950,-174.9560,-33.8550,-9.0864,9.4500,-17.4373,-20.9251,-117.6741,85.4061,81.2766,-116.9991
-3429.6875,-21.7961,43.7001,7.3749,87.9825,57.6152,21.8959,58.6115,16.8819,55.1190,-126.0980,-137.0432,4.7140,66.2455,-63.3276,-53.4374,-129.9217,162.6566,84.8980,-60.4903,-152.9218
-3421.8750,-83.0880,13.6632,53.2443,53.0521,139.1970,-6.4722,139.9333,25.2014,63.3019,-118.2852,-92.0449,13.3936,111.6825,-91.0017,-81.3293,-121.8039,101.0837,-12.5240,-52.1543,-144.7325
-3414.0625,49.8057,8.5406,8.2704,-16.3431,57.9651,-51.6521,-15.5493,-20.2776,17.6929,-17.2474,9.1599,-31.7072,-7.6934,-63.4592,-17.0075,-93.4701,22.6792,15.2486,-25.6028,-153.3296
-3406.2500,-107.3275,11.8122,103.2791,91.2400,78.7224,-30.8334,78.9822,0.2478,38.0951,-71.2132,-117.6453,-47.8012,122.9398,-115.9127,-106.6808,-147.1332,252.2939,69.0257,-112.0479,-169.9180
-3398.4375,-80.2962,-17.0452,19.4575,-3.1488,178.6867,-3.8217,31.7264,26.9797,-9.2853,-7.9532,-91.2581,16.3175,2.7692,-16.1521,-80.1430,-83.5792,-37.9288,60.9949,-15.2799,-143.2952
-3390.6250,14.6058,41.7205,9.4967,66.5745,131.5455,23.0816,21.3703,16.6089,-19.7572,-18.7647,-138.9759,-30.6564,-7.4986,-63.4786,-90.6952,-94.1054,127.7394,120.8621,10.3890,-153.7623
-3382.8125,-78.3933,-29.9429,21.6586,24.5129,217.5611,72.1345,107.1800,102.4012,28.9375,29.5909,-201.5600,-128.4689,41.3947,-124.6496,-79.0910,-46.4730,69.5604,62.8740,22.2089,-142.0690
-3375.0000,86.6845,27.8637,8.8800,-11.9802,93.6745,21.2814,-16.9078,14.2934,-21.2567,52.0735,-68.0424,4.8357,-8.6221,-64.7051,-19.3702,-22.7220,-46.5543,-53.0247,11.1470,-82.2630
-3367.1875,34.8328,126.7531,98.1776,140.1487,72.8827,-72.4768,-37.8842,-79.7100,-5.3348,-152.3353,-89.4378,169.2467,80.4717,-48.6597,-40.5397,-80.8671,252.4481,-70.8185,-146.8107,-29.3470
-3359.3750,-52.0607,82.1330,2.4460,61.0187,88.0961,-130.2379,13.1569,-174.7066,8.6094,-174.7218,-110.8476,294.6661,21.5629,76.3967,47.3030,7.0058,23.4297,-157.6235,-58.7581,58.5813
-3351.5625,-72.0277,124.5806,-55.3724,150.0995,-7.7584,-116.0559,-44.8576,-233.7545,-13.4935,-197.1439,-170.3064,346.0475,-0.4065,127.4218,98.1118,-15.1533,180.3516,-106.4750,-7.7489,109.4720
-3343.7500,-317.7880,69.7644,-56.9637,206.1666,63.6328,-6.6169,62.3898,-161.5437,57.6624,-126.3114,-319.5274,381.6848,70.8853,125.6944,96.1733,-16.0580,215.5385,-176.0784,-6.4886,144.6234
-3335.9375,-230.3143,-7.3009,-186.3380,28.4691,9.2674,-62.9354,7.8888,-108.0809,75.0783,73.8003,-192.4936,325.5789,-20.5875,217.2273,187.4964,110.3008,-83.0527,-229.4436,115.0463,162.0368
-3328.1250,-285.6193,-17.4252,-169.4892,94.8754,-10.8524,-9.0091,96.6453,-54.3641,165.7562,17.1736,-176.2222,231.7358,68.1923,160.0148,204.0795,52.9094,106.6247,-178.5538,-9.1645,141.7066
-3320.3125,-270.6249,-70.9838,-193.3204,-9.8643,39.3896,-69.7340,109.7714,-41.2812,141.8005,-6.0873,-53.6206,209.2517,82.3215,210.1651,254.0151,139.8800,-53.3582,-304.3274,-65.0096,191.7331
-3312.5000,-51.4476,27.3376,-147.9857,11.9503,-99.1800,-171.2641,-64.9102,-142.9941,4.0530,-108.1289,101.1804,254.9757,54.6343,255.5434,225.1566,111.0697,24.8412,-190.9072,-91.6389,199.9660
-3304.6875,-109.4630,59.0986,-58.8228,84.6055,-9.9031,-154.9416,60.2736,-163.8449,92.1716,-166.3130,42.8156,270.5579,105.8039,123.7807,167.1580,-18.8829,142.9066,-142.6431,-114.4212,142.0554
-3296.8750,4.6401,71.9783,-85.5437,15.0297,-0.4724,-181.4825,70.6225,-190.5421,65.4556,-83.3288,88.6077,281.3012,-29.8779,97.1763,103.3305,-9.6746,-23.9103,-134.2467,-71.0417,115.3085
-3289.0625,-64.9729,116.3710,-44.9937,182.2863,-69.7528,-67.7365,0.2794,-187.9429,-4.9444,-191.0373,17.7039,248.3481,8.7512,100.8728,32.8168,-43.1588,293.5858,42.4512,-104.3614,81.8718
-3281.2500,-252.6243,8.3419,-93.4655,130.8314,-9.0292,30.0071,25.9512,-88.3367,20.6748,-165.7320,42.7958,200.3974,-38.6133,162.5770,21.3085,-18.6287,141.0761,67.1385,-10.6734,70.4487
-3273.4375,-135.1333,-1.6414,-153.8156,60.6434,-68.1663,6.8954,-70.2347,-111.5804,-2.5555,-79.2544,93.0423,140.6074,-134.8401,139.4515,108.9640,32.0704,47.6931,113.9663,72.1729,47.1898
-3265.6250,-231.0774,-18.7220,-69.5839,114.6299,-20.7082,55.3763,51.1930,-28.2222,118.8239,-105.1683,-7.1238,42.4257,-51.4615,3.9210,83.2275,6.3671,197.9368,123.3971,81.6177,21.5393
-3257.8125,-188.0599,-86.0999,-171.3816,-40.5689,-49.2472,-10.1463,59.6304,17.1376,127.2209,49.9416,111.7093,14.2482,-115.0855,86.4045,91.5027,88.6766,-75.8441,26.8127,266.0761,29.9011
-3250.0000,-120.9642,-5.3113,-100.1068,69.6646,-87.6969,-48.5748,21.1671,15.5965,88.7252,11.1613,108.6395,-23.8242,-81.6067,10.9997,-21.1089,-60.9036,202.4815,164.3292,192.6457,-8.6273
-3242.1875,-130.7563,-1.6252,-33.7108,67.7285,17.0066,-54.8530,87.8711,9.2226,45.3929,4.5429,101.7116,-29.7392,-87.9685,-69.2488,-64.5628,-104.3291,193.9589,120.9841,149.3748,-51.9974
-3234.3750,30.6892,19.8302,-11.0982,27.0491,-71.0455,-31.8861,-73.1824,-41.8973,-41.6893,26.2004,198.0363,-43.3909,-175.0958,-46.2229,-41.7564,-44.4857,109.6573,141.8798,135.3735,-66.1068
-3226.5625,-77.4972,-2.6571,59.8992,114.2120,-35.7047,113.4825,-37.8256,29.3933,-43.3576,-85.7411,121.7467,-155.6388,-66.8166,-121.7898,-80.5493,-46.2367,283.7775,175.1797,98.7717,-67.8070
-3218.7500,-97.3701,-90.2528,-34.7812,-26.4192,52.9933,129.1935,-22.1061,82.0389,-27.6634,39.6704,136.8031,-175.5229,-125.1863,-68.9967,-27.9774,42.3779,-17.7722,49.8145,149.5331,-52.1418
-3210.9375,-43.2042,-74.9647,-51.4363,-16.6955,36.7277,75.9455,-75.3408,28.7266,-43.9122,60.1412,82.9163,-191.3488,-30.5062,-11.1534,-7.3383,100.0529,70.7255,104.4974,62.3486,-68.4124
-3203.1250,-130.7754,-119.5089,-32.8120,-40.1239,129.7678,94.9922,17.7468,121.7212,-24.8390,78.9283,28.3129,-207.8748,61.4812,7.9860,-25.3899,119.0377,19.5281,17.4745,-23.5360,-49.3732
-3195.3125,23.9308,-108.4496,-57.9206,-126.4464,32.1049,34.3325,-80.8557,61.0141,-49.4524,55.0345,150.0116,-195.0985,-36.2406,57.4434,60.8704,168.3391,-141.3985,-3.2552,60.8969,-0.0213
-3187.5000,-19.8361,-54.1851,45.4991,-6.2526,24.9920,27.2192,23.0966,53.8577,54.4922,-26.3108,32.2537,-201.7753,67.5968,-60.5399,53.6876,87.1902,131.2501,24.5687,-16.1226,-7.1078
-3179.6875,41.0747,-86.0313,-1.3985,-136.6610,88.5834,-56.1973,86.7577,44.4063,81.1489,111.0538,22.1938,-173.7514,21.1360,4.1863,80.2117,114.7526,-124.4158,-125.9221,79.5706,-16.4825
-3171.8750,142.2839,-63.6849,-5.0150,-146.8587,49.4612,-96.3272,47.7135,4.2496,78.1110,70.7375,18.4376,-213.4221,17.9667,1.2192,77.0481,185.6318,-92.7801,-59.1188,41.5702,-19.5480
-3164.0625,-92.1432,-145.0383,6.7562,-128.7395,171.7428,-47.0648,170.0849,53.4969,164.4843,46.8263,-43.9322,-274.6894,140.2103,-97.3508,53.2907,123.9099,-45.7109,-81.9235,18.9703,-7.2064
-3156.2500,43.9167,-141.6654,-36.9998,-225.8509,128.5249,-89.3136,126.9604,10.2410,121.3609,113.4320,133.2085,-243.4536,60.9438,-66.4083,120.0475,81.6986,-260.1628,-120.2430,119.8861,23.6464
-3148.4375,47.1587,-75.2294,40.4314,-98.7231,96.4977,-49.3678,131.0345,14.1874,125.4426,44.2408,100.5424,-239.0207,137.8810,-134.2591,88.0087,-25.3041,-11.3931,-47.3569,19.0044,27.7084
-3140.6250,28.3132,-76.4044,20.7867,-129.0971,114.4329,-67.4753,113.0780,32.0919,107.4966,62.0162,80.8142,-146.6394,82.7737,-44.1553,31.9300,29.6535,-133.6902,-134.5315,72.0845,45.7314
-3132.8125,199.9129,23.6395,53.5694,-66.8823,-37.1903,-107.1452,-38.4219,-45.5506,-6.9863,-52.7356,149.5381,-112.8073,5.1091,-83.5985,-8.6862,26.0700,2.4446,-68.2607,68.6289,42.2141
-3125.0000,12.2350,14.4731,116.0942,14.1436,-11.0576,-118.0673,24.8450,-19.4378,19.2964,-172.7393,65.0056,-87.2302,105.2091,-167.3019,-19.5451,-21.7677,167.3546,-44.2423,22.9172,31.4548
-3117.1875,110.4475,-20.7659,34.4947,-105.4503,-55.0241,-125.0889,-55.9885,-26.4248,-24.5188,-70.8313,167.3770,-93.7483,-49.8009,-65.0902,10.5093,82.3116,-85.8629,-51.3344,121.1129,24.6099
-3109.3750,73.3002,20.6623,71.5285,30.0812,-127.3523,-15.4646,-92.1771,11.2333,-97.6830,-33.2664,57.3903,-93.6126,-12.1602,9.7780,-25.7778,82.0415,159.5856,18.2341,14.9613,-11.5755
-3101.5625,-62.6393,-38.8638,37.7969,-6.6912,-13.4225,62.4137,-51.0937,125.1487,-92.5804,7.5556,-13.3578,-52.2310,-8.2644,87.9029,-58.8098,87.0221,-11.7065,-115.9469,91.0660,29.4951
-3093.7500,75.5157,-3.3576,-3.8549,-39.9323,-89.3973,-15.6127,-163.9206,48.1660,-132.3782,3.4907,93.0050,-18.7472,-48.2804,121.1449,-25.7385,120.1174,-48.9087,-83.0362,89.2831,62.6739
-3085.9375,49.3520,20.1676,44.1867,25.0404,-5.6796,-3.9386,30.9546,59.8941,-11.4718,-94.8638,-43.9430,-79.5683,73.4124,22.0856,-86.9668,20.9206,101.6137,-39.4251,29.1986,37.5581
-3078.1250,165.0715,1.7443,20.1080,-95.0195,7.9435,-27.3744,-29.2593,36.5306,-34.6562,28.7087,6.0114,-66.4934,-61.0003,35.9336,-37.2859,71.6328,-167.9861,-27.9271,76.0285,14.3488
-3070.3125,128.5908,31.8407,57.8146,29.0566,-27.6387,47.9848,-64.6732,0.9607,3.9652,-43.9143,-30.2306,-137.6221,-22.6138,-73.4141,-35.7950,-0.8532,112.2263,112.3736,40.6548,-21.0534
-3062.5000,3.9307,-24.9881,74.3603,10.8366,100.6428,65.1964,100.7777,55.2454,95.4455,-25.6913,-49.6271,-191.9055,-4.3670,-128.9163,-54.4488,-56.4844,93.2972,23.5195,22.1269,-39.5954
-3054.6875,168.2163,-9.2108,62.8324,-61.0464,52.8708,18.3468,17.1722,8.4791,84.8750,73.5029,12.9323,-202.2376,-89.1810,-65.4555,-28.1454,-30.1472,-22.7046,12.6089,81.5614,-50.1751
-3046.8750,-10.0180,-50.1763,62.7999,15.0024,53.5943,54.9891,91.0743,82.2105,85.8176,37.1975,-135.0147,-275.0739,21.5127,-27.4983,-27.3319,6.6878,186.8252,46.2019,10.4919,-86.2515
-3039.0625,-48.1673,-149.6833,-87.1400,-127.7925,88.4253,89.7275,89.0880,154.0437,83.8695,182.0042,-137.8561,-313.8185,-53.6975,43.5628,6.5876,78.6322,-132.5569,8.8805,149.5296,-88.2207
-3031.2500,-11.8594,-79.8485,-85.6416,-40.0091,16.6931,54.9109,54.5389,82.3199,86.3678,74.2718,-136.2344,-237.1148,21.5413,46.0766,82.9621,7.0308,45.5203,46.0123,82.0234,-85.7339
-3023.4375,-118.0286,-55.2607,-13.6018,-1.5010,126.5194,-19.3543,164.5558,8.1564,159.4259,-73.9054,-138.0666,-91.8690,131.3390,9.1452,81.8855,-67.0261,81.1629,-94.3080,47.0638,-49.6932
-3015.6250,26.5557,-40.6561,-50.8279,-86.1378,54.0967,-127.8798,55.3233,-101.2581,87.2397,0.6840,-27.1407,-53.8773,58.8764,83.9722,83.5656,7.6728,-55.4661,-123.8911,86.8618,25.1053
-3007.8125,-29.2162,-27.7126,36.5970,12.2411,31.3216,-76.7570,69.7418,-86.0309,27.7057,-58.0827,-85.5673,-148.2475,147.0734,24.4425,23.8988,-50.9761,171.5899,31.1783,-2.7007,76.5579
-3000.0000,-66.3004,-87.6144,-39.2833,-99.1716,102.2525,-116.9350,66.8733,-52.0998,-11.1180,48.8525,-16.2915,-113.9253,106.9691,58.6141,57.9316,19.0815,-75.6626,-5.0601,66.4449,110.7152
-2992.1875,13.8674,-42.8743,-65.9237,-68.7770,3.4263,-105.8695,-30.7495,-77.9206,0.3128,60.0454,30.2430,-65.3590,81.1041,33.0430,32.2237,67.3974,-28.6718,5.9535,7.8544,122.1253
-2984.3750,-128.6412,-96.6069,-33.2225,-60.2836,36.9554,-72.4476,74.9934,-7.3807,70.1065,56.5929,-8.8819,-105.4557,188.5945,30.8142,29.8643,64.0610,4.6895,-65.6763,-28.3864,155.8887
-2976.5625,16.7063,-100.6371,-139.6853,-172.2778,-31.6624,-104.1790,7.5805,-2.9862,39.7451,172.0119,177.8553,-63.7142,82.9188,36.4369,107.3664,142.5849,-236.1213,-129.4657,13.2353,197.5107
-2968.7500,-36.8475,-70.1468,-85.0502,-61.2672,-49.1930,-85.8181,63.2646,-20.4913,58.4854,80.5326,122.6927,-116.8855,175.3536,-54.8435,126.9716,16.2110,28.1972,-42.1507,-39.0424,180.2368
-2960.9375,-124.4248,-129.1502,-102.4173,-129.8022,44.2859,-102.4617,82.9604,36.0110,78.2304,138.0736,105.5259,-97.0705,121.7903,38.8796,73.5789,35.8460,-129.4851,-128.8501,-20.3168,163.9661
-2953.1250,111.0557,-19.3811,-73.7466,-97.3155,-73.1940,-147.0627,-33.3048,-44.4362,-1.9810,93.6897,171.4216,-30.2113,77.2605,67.6685,29.2389,27.5407,-69.1248,-103.5060,-64.5410,119.7490
-2945.3125,6.8750,40.7949,76.2729,42.9322,-32.3265,-105.3144,43.7869,-40.5302,2.1649,-84.3397,101.6635,46.9906,119.0899,-1.1974,-38.7498,-76.4182,144.6144,-100.8117,-131.4238,87.8842
-2937.5000,110.2016,53.4559,-0.2209,-24.5110,-69.9548,-107.0757,-30.6117,-78.1184,-71.1751,-13.8541,136.4162,119.6880,-29.5880,71.4422,-40.2308,-41.8702,-67.1742,-102.6329,-61.7980,86.5242
-2929.6875,132.8390,91.5697,100.5872,65.0268,-116.2916,-80.5474,-40.7096,-88.4132,-45.2101,-23.0701,52.4793,36.6716,71.0373,-11.6257,-86.4013,-124.0284,166.3528,26.8440,-107.8759,40.4676
-2921.8750,18.9148,20.7891,91.8542,11.9186,-15.1689,21.4229,25.6533,13.7454,21.2044,80.1566,6.9938,29.1014,26.1223,-56.2528,-94.1167,-95.7406,-17.6627,-52.2355,-81.5088,32.8708
-2914.0625,122.0064,46.6296,16.1162,0.0680,-125.0556,-16.6141,-85.0076,-24.1075,-53.3969,79.3998,42.5301,28.5280,-11.8018,-19.8693,-58.8265,-96.4409,-18.6923,17.6830,-47.1390,32.2841
-2906.2500,27.6432,57.9200,101.9325,92.0325,-76.4006,-3.0955,1.8817,-10.4054,-39.4517,-17.8050,-55.3834,-31.5134,111.8316,-115.9398,-81.9954,-155.5977,204.8629,99.1654,-70.2272,9.2469
-2898.4375,113.4364,24.0188,82.8996,-48.8641,-57.5967,-58.4178,-16.0835,-28.5449,-20.3687,74.1456,-0.1315,-12.4158,20.6065,-97.8574,-63.0205,-101.6003,-95.4494,80.7927,-17.1592,-8.6377
-2890.6250,78.5959,61.9442,122.2197,48.4497,-91.4544,-18.3946,-49.7136,-25.3361,-53.9431,40.4528,-34.5199,-8.9783,23.7321,-167.4247,-96.6967,-171.2552,81.6020,222.7778,-86.7376,-42.1724
-2882.8125,-51.5660,-0.5211,60.2423,28.6300,-4.6013,67.3348,36.3711,60.5857,-3.8027,53.4814,-96.2190,-32.8634,35.5613,-155.3006,-83.6751,-159.2095,-12.6413,233.4662,-4.6135,-66.0124
-2875.0000,194.2761,45.3412,25.2473,-18.6687,-75.7464,70.0655,-70.5424,26.5154,-74.6567,130.5341,-20.9145,-66.7732,-71.6268,-78.1672,-80.6418,-82.1492,-81.9104,199.1530,67.5153,-99.8554
-2867.1875,74.3162,55.2470,122.4593,99.7703,-51.6891,130.9985,27.7505,51.6423,-13.3125,44.7689,-106.4090,-115.4839,26.3957,-163.8357,-129.4117,-130.8972,186.0513,186.0396,-17.1765,-148.4972
-2859.3750,54.0689,-13.2568,27.3773,-23.2876,38.0731,110.6246,43.7402,67.4645,2.7282,133.6914,-91.1848,-99.4853,-67.8803,-73.7998,-113.4826,-77.9513,-80.2982,25.6059,34.8320,-132.4317
-2851.5625,153.3483,39.6966,58.7966,19.0752,-40.6770,68.7422,-34.7829,25.7726,-38.7365,56.1076,-60.4467,-103.9907,0.3395,-78.2654,-81.0448,-82.5056,55.8618,90.6765,-40.6576,-136.8608
-2843.7500,-6.2415,-6.1524,112.3810,38.3592,87.7279,123.0148,56.8563,80.2418,15.9528,-0.3272,-116.5778,-123.3639,54.7148,-134.5886,-100.4543,-64.9126,73.1944,37.9034,-57.9973,-119.1365
-2835.9375,18.2194,-48.3574,-10.9949,-68.3085,39.1806,74.3359,-64.4615,31.7649,-68.3114,99.3112,18.3458,-60.7007,-29.8772,-34.8534,-37.8066,70.7480,-148.4443,-7.8238,37.7247,-93.3546
-2828.1250,-30.6730,11.1143,49.2801,59.8287,26.2768,98.3125,-4.1366,55.9457,-43.9338,-24.4009,-32.0723,-0.4055,67.1863,-11.4719,-50.5181,21.0561,85.5933,14.1168,-79.9071,-105.9195
-2820.3125,46.3391,-5.4427,54.4604,-41.4591,69.2779,67.1873,3.0920,25.0301,-37.6568,-17.2022,10.4219,42.7753,36.1514,68.8053,-7.3273,64.2654,-153.4761,-83.0541,-71.6429,-62.5816
-2812.5000,148.1307,62.6749,48.3985,23.2982,-8.9797,61.8007,-148.9390,-53.1453,-188.6326,-59.2444,78.6846,74.6894,31.8582,27.8342,-12.3784,59.2277,-15.8009,-51.4773,-145.6349,-30.4928
-2804.6875,-54.7193,31.6767,56.7034,90.1129,73.1162,107.7649,-103.6101,-6.9724,-143.2569,-49.9426,-22.7066,83.9372,40.9230,-36.7925,-77.0826,68.5319,98.2453,-78.5449,-136.2904,-21.0567
-2796.8750,32.3497,2.6096,-73.0911,-33.6536,18.1103,52.6285,-121.3883,11.1014,-124.9812,78.2752,31.8122,102.0712,-125.1291,91.4811,-58.8877,123.7380,-163.8297,-95.7191,-12.0385,-2.7211
-2789.0625,-6.8744,37.8692,-3.1787,66.5692,14.7892,49.1942,-51.4675,7.8744,-92.0114,-34.8045,-45.9602,62.8933,-55.4843,52.4379,-61.9954,47.6364,77.8280,-28.1790,-86.0921,-5.6879
-2781.2500,-19.8940,-1.7178,-18.0499,-14.4962,74.6732,34.9629,-28.3468,30.8515,-31.8465,62.3155,13.4734,85.8966,-69.6378,38.5900,-38.9090,33.7278,-110.3061,-76.4420,-62.9503,17.5438
-2773.4375,84.5170,3.4534,-55.5087,-46.0977,-36.0581,-1.8696,-100.8506,-5.7757,-31.3033,98.8383,86.3320,49.2843,-69.3981,76.1483,35.5747,71.2192,-110.0438,-41.2975,-62.4178,18.1730
-2765.6250,-57.6736,-22.5138,17.4500,-5.4937,0.6118,-2.2986,46.0408,31.0014,42.6302,25.7568,12.6010,12.0531,4.2590,2.0941,35.4484,34.0956,-4.3477,-41.7410,-97.4980,18.1925
-2757.8125,32.2074,-70.2813,-37.5379,-138.0673,-16.6590,-19.6770,-8.0180,-23.1703,25.6124,82.7292,141.9430,-5.1428,-122.0431,96.0896,55.3702,127.0191,-265.6188,-126.1475,-42.5294,38.2563
-2750.0000,58.3726,-6.0776,27.7399,-23.8976,-97.6815,9.1918,-88.8345,-31.0983,-56.1644,0.9521,96.5512,-13.1068,-94.0960,88.3232,-26.4634,119.1861,-28.6234,-30.2942,-85.3189,30.5648
-2742.1875,-30.9625,-63.6586,7.5363,-64.5912,-44.1957,63.5640,-35.1452,23.4850,-38.4404,92.6813,77.6659,-32.5907,-112.6438,106.0468,-8.8006,100.8445,-151.1279,-47.9400,-32.6146,48.3697
-2734.3750,79.9299,-42.1979,-61.4666,-97.5931,-74.5236,32.1333,-138.2680,29.2698,-104.5261,134.6263,156.0083,-26.8895,-181.0047,147.9772,71.0637,69.7073,-215.4570,28.6131,44.2884,54.3724
-2726.5625,-48.3698,-14.6429,-9.6544,35.7583,13.9406,120.5059,-13.5932,117.8581,-89.8155,3.3696,61.1575,-48.4049,-92.5569,16.7012,-24.2800,-25.6349,9.0390,111.9745,-13.0265,33.1707
-2718.7500,-54.6596,-70.6005,-52.8328,-65.0007,45.4025,78.8758,-91.9233,76.4478,-95.1152,72.1248,128.3270,-53.9315,-134.1145,48.4279,-29.6264,43.0231,-172.4753,71.3275,87.6568,27.9661
-2710.9375,24.8816,15.5071,-40.1954,53.3516,-52.3515,91.0495,-116.4717,15.8335,-82.6347,-25.3216,104.3154,-40.6748,-48.8790,-12.0520,-53.1734,-17.5281,82.8245,186.4966,-7.8745,-32.4432
-2703.1250,13.3771,-11.3343,23.4110,18.1957,48.8506,82.1794,21.9294,6.1715,-17.2101,-70.8288,95.2599,-86.4822,-20.6825,15.4022,-61.7764,-63.1360,37.0872,105.6197,-53.4720,-77.9047
-2695.3125,194.2012,23.6300,28.3228,-31.0677,-55.6552,87.6099,-82.3878,-61.1981,-85.4976,-65.0297,173.5357,-43.9942,-126.1963,132.1536,16.9202,-20.4414,-97.3689,76.0414,-47.7765,-72.0671
-2687.5000,58.7957,30.9824,70.0047,74.6383,-87.4161,166.7898,-39.9593,17.1773,-43.0410,-59.4913,68.5724,-38.7736,-46.9525,26.6508,-13.6390,-52.0111,83.9603,116.2177,-113.3474,-66.4856
-2679.6875,-43.6887,-46.1814,-38.4006,-41.3596,-11.2706,131.8654,-37.6272,56.4516,-40.6864,126.9561,107.5244,37.3339,-118.8083,30.0481,-11.3038,24.3128,-192.8233,-20.7198,-38.0196,-27.0102
-2671.8750,-41.7404,-11.5962,-36.3886,6.4505,-82.7338,24.3371,-71.9030,23.1174,-74.9414,92.8009,72.8957,39.8205,-79.2715,32.8376,-8.5705,27.0341,-15.2049,51.7479,-35.2968,-24.1410
-2664.0625,-170.4960,-48.3639,-22.0552,5.8722,42.1055,2.1162,53.1247,74.0936,14.1015,33.9426,-22.4331,17.5898,-27.4307,10.9152,-30.5431,5.0527,-2.2734,29.5206,12.7133,-45.9745
-2656.2500,79.8212,-9.6972,-55.6691,-89.9536,9.9863,-31.0542,-15.8132,41.1271,-18.8190,75.1553,91.3079,21.4004,-134.5548,51.0428,-26.4637,9.1306,-208.3193,-1.6582,86.7800,-41.7564
-2648.4375,79.7183,71.8693,54.2889,57.2615,-26.6037,6.3255,-15.2133,5.7099,-18.1997,-34.0848,54.6145,57.7440,-60.1288,-21.2914,-99.8401,-64.2517,72.2160,33.7258,-52.6159,-40.9951
-2640.6250,91.6864,36.9000,65.3213,-24.5598,-15.1393,-19.2463,-40.5659,17.3441,-80.5347,14.7322,139.9812,70.1270,-121.6583,27.4143,-51.1785,21.4076,-90.2065,-93.8477,-3.9691,7.8076
-2632.8125,236.4503,73.5184,106.1222,-12.8922,-156.9346,-52.0681,-182.1890,-52.2767,-112.1420,-17.6922,144.1174,0.2469,-81.4497,31.8614,-9.7737,62.8099,20.1147,-18.6659,0.4184,12.3568
-2625.0000,-1.4359,19.9858,114.2907,45.5457,-76.3791,-6.5331,9.5392,-6.5419,6.5963,-82.7748,5.6064,-28.3052,1.1229,3.6406,-1.0268,34.5540,133.8080,-46.1223,9.1489,21.2511
-2617.1875,-4.6579,-26.6390,-0.8893,-53.9874,-7.1699,-48.3461,4.9179,-48.1562,1.9871,23.8029,74.7630,3.7740,-76.6685,36.0705,68.3728,66.9506,-79.8760,-83.9289,76.5439,53.7896
-2609.3750,34.4876,55.1894,5.2933,48.4388,-37.6111,-78.8071,48.6470,-78.4160,82.7263,-6.2673,-29.7250,47.1840,-34.1048,-68.1608,38.1208,36.6839,135.8065,-8.3709,11.2807,23.6679
-2601.5625,50.6913,52.5259,-13.4596,-4.3385,18.0108,-97.2144,67.4359,-22.6197,100.5117,12.7204,-11.1598,101.6267,-89.4842,-49.3559,19.9152,18.4554,-22.4688,-62.7616,98.0611,5.5873
-2593.7500,131.4913,79.6732,-38.6470,11.9340,-43.8264,-122.0749,5.7545,-84.2816,39.8325,25.2628,36.9868,76.5991,-77.3251,-37.0062,32.2604,-6.2224,57.7947,-16.6036,108.3897,-18.9513
-2585.9375,-61.3923,55.5050,17.4963,106.3992,49.6342,-64.6313,136.3715,-26.6410,96.4457,-101.9064,-89.5591,23.8506,17.1411,-90.3778,15.8981,-96.6079,252.3909,1.8636,57.0008,-35.1989
-2578.1250,86.6449,50.8371,24.5553,-4.9392,56.9969,-94.2873,33.8792,-56.1015,30.9477,-57.1714,-8.1854,30.9893,-86.5047,-45.8436,23.4325,-52.0969,13.8721,-60.7780,99.5060,-27.5514
-2570.3125,120.1636,141.3008,171.0837,132.3814,-17.2079,-95.4889,-41.1841,-94.1171,-44.1158,-203.9944,-9.3502,65.5690,23.2988,-120.8612,-14.5907,-127.1436,294.8174,43.0434,-41.5527,-28.4630
-2562.5000,16.0914,108.2124,171.0275,116.0662,56.9885,-58.2827,-3.8420,-56.7189,-43.7836,-203.4141,-9.1115,139.5358,23.5013,-83.4889,22.7780,-89.7943,191.1688,-60.7372,-75.2219,9.0156
-2554.6875,280.3032,154.6004,152.2314,28.9718,-72.5728,-112.8275,-131.2650,-111.0696,-98.2148,-75.5663,82.4025,157.7386,-32.0601,-64.8742,41.3913,-34.1928,33.7490,-112.2711,-56.6417,27.7370
-2546.8750,171.1221,131.7372,185.0603,79.7308,-76.5387,-80.7664,-26.0923,-41.8161,7.9477,-79.1252,-31.4784,80.5269,74.9868,-140.6757,37.5942,-111.0013,170.9592,-81.1904,-60.4740,24.0502
-2539.0625,117.1581,31.7059,55.0975,-74.0861,-59.2988,-99.5004,-8.7212,-24.3556,25.3024,49.5236,59.8524,97.5034,-18.7783,-14.2791,91.9933,-20.6093,-163.6504,-132.9111,27.8912,41.5537
-2531.2500,144.5834,85.2998,82.5044,30.9689,-176.7226,-34.8837,-54.0176,-32.5539,-20.0085,4.5140,51.5563,88.8143,9.8018,-59.5347,46.7383,-28.8826,39.0957,-37.2684,-51.4115,33.3972
-2523.4375,62.1699,68.5579,182.0905,50.1643,-114.9971,27.8895,8.8319,-6.5979,5.8164,-6.3563,3.4195,77.2614,35.5365,-106.6485,-1.3770,-113.0158,28.0066,-48.4718,-27.5803,22.3822
-2515.6250,164.6961,82.9145,104.5887,-1.5138,-118.3814,-12.4324,-68.4362,-46.7468,2.5295,-9.3197,73.2018,109.6052,-4.8450,-109.8682,32.4036,-80.2488,-81.2066,-15.7727,5.1518,19.2609
-2507.8125,-3.6567,79.2763,114.2110,116.9490,1.3324,-2.6530,88.3940,-36.7967,49.3347,-110.1879,-63.9040,46.0345,77.8766,-137.0091,5.2724,-143.3968,208.7082,62.0366,-58.0299,-7.7704
-2500.0000,14.2499,12.6194,23.1027,-13.0545,94.3052,-56.6232,108.4717,-53.5945,32.3812,-52.7962,-43.7452,28.7025,24.8468,-6.9028,61.3824,-13.2953,-19.1408,-24.9133,-38.9689,-24.5591
-2492.1875,145.0364,92.9343,49.8586,52.7567,11.1083,-29.7483,-48.6280,-100.5456,-51.7441,-99.5500,-16.7154,91.2121,50.6561,-16.9429,51.3398,-60.3456,75.8633,34.9947,-189.0663,-34.5064
-2484.3750,84.0398,101.2961,132.8422,70.0851,56.1094,-57.6646,-2.5259,-91.2940,-79.6736,-127.1167,-44.4780,136.9118,133.6685,-81.7928,-12.5150,-125.2070,85.0837,9.1013,-215.9816,-25.2644
-2476.5625,155.9877,72.6319,23.7391,-23.1048,-14.9904,-55.6787,-111.5324,-89.1464,-77.7140,-13.7722,-5.3204,138.5029,-11.4307,-5.7552,-10.4731,-12.1671,-123.8232,46.1040,-74.0023,-23.1281
-2468.7500,-37.9922,71.9707,42.7076,125.5372,-33.0484,36.3561,-55.4971,4.0474,-58.7108,-68.3815,-134.1038,83.1324,43.5284,-97.6836,-28.3842,-67.0867,175.3410,169.1718,-55.9894,-40.9511
-2460.9375,-128.2683,-4.1552,-14.6102,48.9781,55.6011,89.0975,-2.7582,55.9453,-6.0062,-15.2910,-118.1822,61.4508,-50.8156,-81.9086,24.4019,-51.3080,-19.8109,78.9400,64.7183,-25.0795
-2453.1250,-51.6101,21.2567,-46.0173,63.9569,-11.8641,57.7385,-34.1379,25.7404,-0.4185,-46.2960,-149.3431,30.6552,-82.2698,-2.2290,66.0862,-8.6340,55.9291,155.6169,70.3260,-19.3125
-2445.3125,-255.9996,-24.3929,-39.4583,129.0262,67.6193,138.3430,119.4312,68.4962,79.1081,-113.3603,-251.5504,-0.2022,-1.7626,4.3878,-0.2833,-2.0204,168.6350,127.2507,41.8702,-12.6019
-2437.5000,-130.7620,-14.0316,-130.2843,35.5561,14.6964,84.5441,29.5861,15.8498,26.2221,-18.8160,-85.1202,92.5395,-92.6686,24.5944,19.9384,18.1971,-58.0889,76.4791,62.0074,7.7048
-2429.6875,-84.6793,74.4977,-44.2800,152.1845,-10.4445,59.5379,4.5192,-9.0026,1.1201,-80.4746,-109.8640,141.0771,-6.7801,-74.4130,31.9473,-80.7928,199.0010,51.5202,-69.0737,-17.2000
-2421.8750,-79.6719,56.7289,-2.3475,83.9830,31.3215,28.4415,46.3512,-3.9478,42.9074,-38.2347,-141.6996,182.4968,-38.9956,-32.5290,-0.1589,-75.8925,27.9843,-48.5354,-28.2679,-12.2149
-2414.0625,62.8730,77.7185,-36.9006,56.9925,-114.4234,-6.1513,-62.3354,-38.3959,8.1738,38.5090,-102.0137,147.4043,-110.7212,43.8560,2.2289,0.5114,30.4473,-11.0862,-25.9663,-9.7383
-2406.2500,-42.3282,54.1927,35.8181,112.3347,-114.9172,30.5137,48.2249,71.4071,7.6852,1.4870,-139.0758,36.5581,-37.1874,-30.5274,-35.1466,37.1576,206.1846,-11.3743,-26.4297,-10.0201
-2398.4375,0.9335,-11.6117,-31.0088,-10.1240,-107.9620,73.6305,-56.7697,114.6629,-60.3565,117.9202,-58.6763,5.1604,-104.2077,86.5384,-29.0722,153.2518,-67.6540,-39.2129,51.5624,33.1417
-2390.6250,-37.1814,-4.9715,-34.2200,43.0331,-111.4152,70.3493,-60.1731,111.5140,-26.8090,41.9586,-98.6655,-35.6498,2.3678,46.1957,-32.4056,76.9405,70.1178,98.5626,13.1487,29.8891
-2382.8125,-151.2901,-69.3733,-79.4100,-27.6485,27.1445,62.0756,79.4284,140.3697,75.7376,-2.9999,-178.6572,-7.4745,67.9411,74.8386,-3.7448,68.6216,-114.0979,20.3391,39.7197,21.6202
-2375.0000,-89.7099,-66.5167,-160.9335,-87.7669,-18.6528,-20.5529,33.6648,58.8715,66.9210,25.6977,-77.9792,57.3477,22.1497,102.1241,61.5634,59.9521,-227.6853,11.7623,65.9401,12.9917
-2367.1875,-273.7561,-78.2489,-134.0833,6.8271,81.8925,7.1750,134.2473,85.7267,130.4488,16.7276,-159.9396,47.5130,122.7124,-17.2600,15.2068,13.6241,-25.9039,37.5466,21.4909,3.7033
-2359.3750,-209.9908,-115.8184,-213.4218,-106.0788,111.2413,-0.2954,126.6254,78.3846,122.7702,193.5659,-167.0854,39.4749,5.0671,49.1513,-29.3575,79.0948,-279.3491,30.1304,118.8476,-3.7918
-2351.5625,-112.3043,-46.9168,-183.8505,-15.4248,68.4773,30.1386,83.8902,72.9401,79.9805,151.2995,-173.3218,-3.6673,-0.6837,6.4569,-35.0307,0.4591,-75.8890,163.6309,41.1018,-46.3986
-2343.7500,-278.1178,-80.4284,-99.7603,4.3373,189.2175,77.0865,167.6589,157.0064,89.6814,124.5185,-199.0668,41.6847,9.0734,-20.7454,-25.2150,-26.6850,-101.9219,103.6387,-19.1523,-36.5156
-2335.9375,-138.0399,-60.0595,-174.8084,-57.4903,75.7973,38.8874,-18.7447,117.9226,-22.7880,233.5964,-90.9429,112.8859,6.6660,50.9031,-27.5557,45.0287,-242.1306,102.4934,-19.5598,-1.7881
-2328.1250,-169.9140,-18.1244,-96.7823,57.2662,43.4294,42.7425,-14.0887,122.8939,-18.2034,127.7035,-195.7761,80.1379,121.3144,18.5841,-59.8519,12.7785,41.7452,141.3997,-122.9308,-34.0188
-2320.3125,-109.4623,-30.5003,-107.4453,-19.9704,69.3622,31.8844,11.8562,75.1526,7.6723,43.1111,-133.2872,105.6934,0.2554,80.5770,3.1450,37.8244,-145.0982,24.5985,-28.0059,-44.9555
-2312.5000,-29.1849,71.9543,-23.2819,111.2622,-30.9153,41.8329,-52.4211,-24.8005,-19.6758,-130.7038,-85.9874,152.0573,10.0012,17.3707,-24.0682,-25.3406,111.8947,69.6083,-89.3066,-35.1014
-2304.6875,-139.0014,64.0087,43.7988,165.7866,36.7193,72.6904,-21.7982,6.1447,-63.1291,-135.6308,-91.7856,145.3327,76.6467,-25.9476,-67.3886,-105.6060,212.7781,30.5098,-93.7157,-4.3538
-2296.8750,96.1202,87.8244,31.7844,60.3082,-50.7543,23.4446,-144.2911,-44.0203,-185.6920,-1.6515,6.3325,131.5233,-9.8200,-2.3709,-43.8017,-7.9722,25.5331,-15.6942,0.7738,19.2868
-2289.0625,31.1995,110.3137,111.7394,169.2211,-118.2748,30.1523,-102.8277,-37.2271,-107.3036,-105.7285,-60.6032,63.6593,69.6734,-69.8572,-0.2733,-75.3976,312.2530,94.0564,-29.8040,-11.1304
-2281.2500,-9.6141,10.3326,31.7976,41.6918,-50.6930,59.9592,1.7263,-6.3342,-39.8259,-37.7008,-103.4240,-16.1053,27.2609,34.7622,30.3538,-7.7133,59.0324,17.9079,33.7230,-17.4519
-2273.4375,199.0929,74.4998,29.3622,30.1851,-127.6244,21.2688,-112.2257,-8.9457,-116.8555,-40.1847,5.2655,-19.3781,-12.6541,31.8755,-46.5171,-47.5310,56.3188,50.2741,-75.2528,-20.2858
-2265.6250,89.4108,56.1088,173.5464,53.8906,-93.9441,17.1753,-41.5663,-11.9559,-83.2788,-154.0747,38.5552,-23.0491,94.0341,-82.4307,-86.7916,-87.7607,122.1995,-24.7615,-115.6367,-60.5301
-2257.8125,167.5257,-29.9274,110.4993,-123.0651,-84.5254,-46.1719,-69.1809,-39.2196,-36.9694,-70.2062,195.6171,-124.9721,-7.5407,0.0081,-40.3208,-41.2336,-152.1984,-52.0460,-2.2716,-88.0321
-2250.0000,142.6019,-46.2914,85.4265,-81.7310,-73.1585,-35.5672,15.1563,8.4654,10.2903,-95.3969,170.6294,-260.9566,114.8468,-61.6174,-29.9102,-66.7631,34.3785,28.6297,-97.9668,-113.5973
-2242.1875,222.6882,-92.4598,130.3611,-174.6353,45.2139,10.0424,23.5020,17.1555,-18.4465,-49.5826,290.6453,-362.9529,86.2302,-53.2386,-57.4990,-58.2925,-133.0836,-33.6964,-160.6508,-105.1729
-2234.3750,507.0325,-4.7408,244.5517,-194.3703,-62.1635,-24.0909,-194.9068,-16.9045,-199.9348,-10.5265,366.9282,-360.7002,14.8699,-14.6186,-54.8349,-55.5768,-166.2953,40.2387,-193.0895,-102.5103
-2226.5625,289.0070,-36.1738,310.4000,-115.7123,40.1274,5.4390,-91.6556,49.6992,-133.7681,-17.8226,175.8534,-405.7994,118.1644,-132.3663,-62.5266,-137.2173,2.1455,67.8300,-129.8879,-110.2068
-2218.7500,150.7241,-135.1323,90.9514,-228.4342,77.1091,5.6697,-54.7222,49.9966,-22.9124,130.5819,176.5010,-332.1931,44.1400,-21.4092,-25.5211,9.8431,-276.7484,-35.8804,47.0150,-73.2092
-2210.9375,57.3329,-118.9235,28.3863,-138.2698,50.9277,-19.2531,-6.9450,24.1412,-49.2215,67.8098,115.0011,-321.7386,91.9698,-10.6202,-14.6761,57.7467,-54.7577,10.2714,22.7503,-62.3751
-2203.1250,11.9602,-135.4650,16.8459,-154.7648,149.7480,5.8315,53.8256,49.2821,-24.5381,56.0251,103.5069,-297.2861,116.7918,-22.8383,-26.8343,45.6545,-135.7849,-34.5800,47.4859,-37.5513
-2195.3125,185.6532,-101.4616,14.3658,-179.5484,35.6100,2.9670,-59.3704,10.4592,-27.8183,53.2794,175.0811,-337.7839,3.6574,46.9958,7.0559,-30.3976,-173.7491,32.6276,115.2662,-40.6864
-2187.5000,-1.8728,-96.2476,41.7028,-30.8804,62.2904,102.9106,40.2437,36.4372,34.7033,-103.6859,54.4577,-348.4816,140.3314,-0.3836,-4.2678,-114.6637,96.1139,126.6439,67.8370,-88.0305
-2179.6875,-38.5322,-128.4695,2.8935,-101.6230,59.8266,137.6992,37.6973,34.2531,32.0639,4.2011,126.7046,-241.3185,-10.1563,34.0874,-6.7485,-7.0795,-153.1991,89.5100,100.2580,-90.5348
-2171.8750,-2.4159,-61.2638,3.8597,-17.5251,23.1095,138.2471,-72.1146,34.8096,-77.8337,-31.1881,163.7087,-168.4069,27.1161,-2.7073,-42.4912,-6.7496,-11.7341,195.1356,-5.5901,-90.3039
-2164.0625,-26.1909,-66.8725,14.9373,-11.5646,107.5103,184.8978,-61.8169,45.4736,-104.6336,-57.4748,174.8097,-158.3948,74.4850,-28.4007,-69.1444,-32.3186,-36.1982,135.8467,-30.3336,-79.9824
-2156.2500,229.4642,-10.5223,60.4100,-82.7053,41.3049,82.9430,-201.1333,-56.4595,-207.0440,-49.3524,331.3260,-150.9748,-27.7503,52.3029,-98.4048,-24.4832,-134.2809,108.9613,12.3275,-72.2670
-2148.4375,106.1044,-3.8039,152.8929,29.9942,60.0975,101.9902,-72.4486,-1.3826,-115.4537,-141.2409,202.8418,-242.5467,64.0253,-76.0044,-79.6764,-79.6589,164.6621,126.0864,-6.0218,-90.5576
-2140.6250,-7.9934,-88.9776,69.6291,-68.3841,86.1353,91.2829,-9.5229,61.9366,-52.6225,-3.8777,192.6274,-216.8590,-19.9636,22.9481,-53.7002,19.4211,-55.1692,11.4585,90.8813,-64.6030
-2132.8125,-29.1690,-81.7536,-26.7166,-29.0941,-10.9352,67.4673,-70.7062,75.1398,-76.9003,9.3639,206.3166,-204.2653,-7.0481,72.7948,-40.8222,32.3950,62.9227,24.7382,32.6682,-51.7569
-2125.0000,-131.9916,-117.8943,11.3091,-25.2556,62.3510,68.0044,40.4629,112.6884,-2.8296,-27.0587,134.3507,-240.3156,30.2179,36.9856,-40.6006,69.7244,100.3616,-78.6322,-35.2001,-14.5659
-2117.1875,128.8109,-82.7581,-13.0630,-157.1907,-35.7705,-66.8590,-58.7839,14.8370,-28.1672,96.1241,220.9951,-191.7552,-68.9307,85.7826,45.2192,155.6638,-130.6315,-133.4023,-22.4616,34.2207
-2109.3750,87.3514,-34.3675,54.3171,-57.4787,-6.1340,-109.9688,7.7347,-66.2567,38.2608,15.0510,177.3766,-162.4409,34.6876,4.3132,74.7878,75.3443,107.1346,-106.4183,-99.9769,26.7496
-2101.5625,37.3358,-73.2931,0.1291,-137.5335,122.9676,-163.6261,100.7101,-82.8973,94.1461,71.4284,197.2137,-107.6614,-20.2510,23.3036,93.8159,57.4843,-84.6962,-191.9958,-46.0357,45.7240
-2093.7500,142.2364,-2.5032,36.8495,-94.6129,-25.0427,-164.3848,-11.4270,-119.6428,18.9191,33.6984,196.9637,-35.9742,-58.2886,59.1962,55.7382,19.5303,-50.6150,-121.6702,-47.1989,44.5942
-2085.9375,-35.0137,-19.8341,72.4421,-10.3735,9.8030,-93.2890,60.2913,-85.5371,90.5442,-5.1984,48.5634,-38.4266,13.5310,19.9242,-20.4966,17.4191,88.3120,-123.4932,-14.5181,42.3088
-2078.1250,27.0193,-42.2297,-12.7122,-102.8450,-2.1136,-103.9499,11.2430,-96.1914,41.4148,94.1423,111.4324,-13.6060,-107.4143,44.9000,41.5201,79.5556,-132.5365,-134.0675,81.4195,67.2726
-2070.3125,6.7044,-10.8417,40.8010,-2.7365,-60.3890,-52.9640,26.8469,-81.2022,19.9264,-0.8956,53.9504,-72.1243,17.3020,-50.4847,57.1762,21.3354,92.2978,-14.9756,24.9946,45.8814
-2062.5000,-70.0726,-56.6468,32.8636,-32.1078,4.9013,12.5813,54.9968,-16.6650,10.9883,-9.3805,9.0141,-80.0840,45.5579,-22.3133,48.3807,49.6827,-20.3428,-56.3382,53.1233,74.0401
-2054.6875,81.1542,-20.6455,-31.0734,-43.0368,-94.8141,-14.8702,-81.8674,-116.1356,20.0446,0.1312,56.0866,-71.0290,17.8170,60.8585,94.5854,59.0298,-10.9805,-46.6968,62.2389,83.1968
-2046.8750,-79.2296,-36.1079,-13.6097,20.5667,-6.1115,-34.9104,117.6779,-99.2060,146.4997,-55.9714,-73.4398,-91.5624,34.4872,3.4236,111.1831,-35.2226,144.7813,-66.6658,5.7423,62.7521
-2039.0625,-16.8882,-58.9971,-95.4542,-98.8268,57.2889,-80.2596,106.9091,-72.5812,136.6493,43.6256,-46.2471,-29.3770,-85.1632,66.7008,137.4809,28.2363,-144.7951,-144.9463,67.9510,89.0053
-2031.2500,-11.6444,15.1921,-54.3839,36.3031,-12.4087,-39.7102,37.0419,-105.0611,103.6976,-60.8965,-77.1624,11.7198,28.0892,-3.1291,67.6711,-4.4164,105.5569,-35.3124,-33.9458,93.1528
-2023.4375,-57.1589,11.8208,7.9442,38.5964,50.1542,-14.9110,99.4309,-43.2868,91.9997,-72.1795,-87.8352,37.0832,16.5801,22.2967,19.1090,-51.8140,59.1478,-80.4319,-10.5929,81.5461
-2015.6250,170.5540,63.9024,63.4788,-17.1412,-6.0923,-69.9248,6.0028,-98.3325,35.4934,-55.2819,-34.2936,17.6664,-39.7333,39.9195,-0.2522,-71.0151,-31.0515,-65.3450,75.9628,62.1306
-2007.8125,20.7010,49.2037,128.4790,76.1834,59.1194,-5.4921,71.0403,-71.9308,99.4466,-64.9594,-151.3089,-28.2979,62.4242,-6.0280,-46.1682,-152.7751,170.2251,-40.8038,29.9582,16.1545
-2000.0000,24.7140,8.8260,22.3241,-26.3510,98.1848,-2.2100,36.9236,-31.6826,66.2546,49.2182,-75.4634,48.5936,-45.5832,70.8691,-43.2358,-77.6718,-108.6896,-107.4164,67.8152,19.0250
-1992.1875,92.6349,84.8551,57.0783,61.0048,-14.8507,-42.0254,-3.2904,-71.5388,25.9592,-27.7117,-40.7193,81.3862,-11.6788,30.6563,-46.4135,-80.6672,99.3130,-40.1187,-5.4316,15.7914
-1984.3750,-48.4121,53.4149,92.8807,66.6893,58.1790,-42.7880,105.5567,-35.3415,97.7225,-28.5833,-40.9267,117.2423,24.2726,-44.5041,-10.5388,-81.5993,98.3359,-144.7786,28.3794,14.6086
-1976.5625,108.2022,78.2207,35.3230,-7.6817,-1.1454,-100.9055,-26.9582,-93.5100,39.1410,23.1916,85.5218,168.7663,-72.1367,-29.9967,40.9920,-66.8680,-63.0136,-129.7923,77.8411,29.0765
-1968.7500,72.5983,124.4129,107.5748,110.4241,-39.6652,-66.2236,-28.6651,-58.8865,0.3613,-88.2677,10.7612,167.1129,37.2715,-31.6978,-34.6819,-68.3381,182.4599,-97.0019,-29.9035,27.3422
-1960.9375,13.9513,46.8422,44.7701,15.7089,-66.2307,-55.5888,-91.4338,-48.3173,-63.4743,-5.7846,57.9602,176.4279,-27.3805,88.5582,11.5931,52.1438,-18.1492,-225.2617,16.3066,73.5592
-1953.1250,108.6654,121.9585,33.3251,82.7988,-188.4561,-67.5960,-177.8703,-96.4013,-75.9720,-53.9734,83.5002,238.1092,-2.6794,39.1573,36.2109,2.9636,110.6194,-202.1483,-31.1384,61.1217
-1945.3125,-7.5799,86.6823,96.9419,84.8903,-89.6233,-78.5467,-43.2489,-35.4322,-14.4175,-65.1355,36.0756,189.8512,60.0773,-46.1980,-12.1220,-45.1683,134.4348,-177.9856,-42.5322,49.7281
-1937.5000,102.7827,68.2443,27.1461,-25.2613,-122.1910,-110.8958,-76.0358,-67.8725,-48.2653,-25.7063,114.2544,193.2108,-47.5731,31.0566,28.1434,-4.6951,-107.1644,-139.2281,31.6821,52.9279
-1929.6875,67.7358,122.8400,65.9586,92.0493,-86.1458,-110.6377,-2.2134,-67.7049,-10.5058,-133.6918,5.0147,194.1784,27.3906,-42.0961,28.9935,-77.6267,136.8568,1.1292,-75.5011,16.7188
-1921.8750,14.0856,63.8439,8.1627,2.1864,40.3153,-130.9734,50.0133,-52.1303,41.6643,-82.2698,21.1706,209.5530,-31.2559,10.1510,7.2466,11.8516,-58.7611,-89.1292,-25.2636,31.9041
-1914.0625,37.5346,61.6658,-40.5430,-2.6240,-9.1277,-143.2115,0.3437,-136.4573,65.9402,-58.7487,46.4171,197.0301,-43.8017,-2.5181,31.6063,36.4351,-36.2671,-66.2783,33.0827,19.1832
-1906.2500,-122.8503,25.6209,-23.0505,41.3408,80.6559,-91.2594,163.9010,-47.5819,155.4339,-115.0324,-47.1574,139.7098,46.8613,-59.9917,-62.8311,-20.7877,49.4357,-86.2290,82.6271,-1.3394
-1898.4375,-10.8298,11.2475,-54.1730,-49.7079,85.8417,-48.9224,58.8534,-42.3168,50.3328,0.0700,69.6688,144.8026,-59.0797,-18.0512,-20.8589,-15.6063,-191.4799,-80.7825,158.5871,3.5392
-1890.6250,37.0826,80.7247,34.6143,73.9811,26.9243,2.3171,35.7068,8.8396,27.1353,-96.9586,-26.6218,84.8068,-8.1069,-41.2101,-80.9905,-112.5223,66.5396,72.5739,99.4387,-19.6866
-1882.8125,-12.1518,37.1773,20.2578,31.9636,84.8657,24.4096,56.4081,66.8461,47.7845,-38.1404,-78.0635,69.6768,-60.2888,-19.5216,-59.2751,-16.5776,-18.6104,-12.2315,84.1439,-35.0620
-1875.0000,148.7829,73.5255,41.0510,1.8677,31.9446,-28.3517,-32.7565,-22.0079,-4.4217,-17.1852,17.6488,53.7139,-113.3126,-35.6841,-38.4112,4.5101,-34.5956,42.1210,67.9967,-51.2891
-1867.1875,-34.1048,55.2958,71.0468,82.4034,61.2333,1.0945,106.2971,43.3386,97.5853,-62.0475,-100.4554,45.9600,-10.1247,-154.6519,-9.3491,-40.2060,133.6411,34.6735,-9.9569,-59.3184
-1859.3750,-100.2364,-27.8176,-36.2136,-53.3911,100.2734,3.2897,108.0951,46.4312,99.3396,86.8413,-60.8118,121.9756,-45.1991,-78.8524,29.4642,35.8389,-214.4025,-67.0319,63.8437,-20.5928
-1851.5625,-57.0695,19.3564,-65.1648,7.1371,-39.3888,-26.2198,42.1837,16.8160,69.3915,58.0122,-52.8785,166.3070,36.0415,-34.7665,72.5790,43.1756,-67.1135,-23.4304,0.9378,-13.5658
-1843.7500,-40.3661,20.2892,-48.5729,-19.5181,-23.4921,-47.1922,93.8324,69.7467,12.0026,109.7301,-36.3944,182.2036,51.8354,-19.1287,52.2452,95.0653,-121.2977,-113.2870,16.5972,2.0125
-1835.9375,85.2386,52.5612,-66.0918,-40.1248,-114.6935,-65.2734,-71.6200,14.5620,-43.4805,128.3495,56.9903,201.0042,-40.4747,36.4114,33.8133,113.8665,-172.5898,-24.2372,105.1651,20.4887
-1828.1250,-95.2318,54.4127,3.3359,96.0795,-46.9281,-33.3942,-40.1006,9.3310,-11.9963,49.9011,-58.7020,158.7544,65.1842,-80.1002,-45.6666,72.6251,138.0785,76.7653,-5.3157,14.9169
-1820.3125,-37.7532,6.6254,-11.3071,-20.2198,11.7912,-48.5604,-18.6336,-5.9516,-27.5573,108.4067,-36.4466,106.4719,-24.2159,-58.6375,12.8196,94.3512,-86.3489,-7.2956,51.1724,36.3034
-1812.5000,28.8617,54.5989,-15.8112,35.5928,-30.3407,-89.5769,12.9878,-84.0832,4.0430,29.0463,-77.0563,65.3594,44.5430,-136.0131,81.4592,15.2323,84.3857,93.7935,45.8099,30.8434
-1804.6875,-152.7999,-12.2474,-21.5701,14.5067,110.2903,-95.8488,153.3738,-17.4609,144.4114,22.4340,-155.9370,59.0190,111.0635,-142.6322,37.8550,8.8669,42.8557,17.6131,74.1994,24.1398
-1796.8750,22.5470,17.1772,-95.3362,-50.3192,35.9205,-133.1359,41.7533,-55.8562,105.7805,94.8143,-119.8105,93.7063,-37.4216,-35.2504,36.2590,81.5071,-99.6829,16.4264,107.6004,22.4445
-1789.0625,-44.8706,58.1070,-53.8481,93.6495,3.8076,-19.1842,82.3879,22.9931,37.4006,-11.5779,-225.4464,61.6596,4.3608,-67.6175,3.9059,12.3951,150.0604,124.4904,40.2483,-9.9960
-1781.2500,-44.5429,29.9690,-90.6191,34.4624,40.4467,54.5132,45.7613,95.5855,-0.2332,61.7794,-262.3310,98.3811,-107.1210,5.7812,3.2984,85.0414,-62.4745,54.2932,109.6683,-10.6791
-1773.4375,-50.7701,42.4056,-96.9450,88.5749,-77.4733,83.6643,-35.4180,52.6218,-7.4124,54.5636,-268.7756,91.5713,-77.1509,-1.3730,33.1451,115.1350,71.4610,82.5571,67.5424,-17.9079
-1765.6250,-277.7284,-23.4924,-78.9802,118.3341,-23.0795,138.1263,91.7190,142.9630,46.7203,34.6396,-323.9424,72.0678,-22.8675,-58.2304,13.2957,132.5329,123.6909,-4.8793,14.7317,-0.8287
-1757.8125,-105.0837,-2.4785,-193.4315,19.3640,-102.0859,59.1850,-24.5572,100.8990,3.4551,102.3168,-182.5227,140.1796,-137.9962,9.5218,44.0554,163.5363,-91.5020,-9.7114,80.5337,29.8561
-1750.0000,-51.1084,72.3269,-62.5332,137.9480,-153.7349,80.5944,33.5345,85.1801,-12.4462,-97.6854,-197.7818,87.6605,-44.7558,-43.3736,-8.8368,74.8877,174.6841,80.8032,29.6763,13.8932
-1742.1875,-78.8877,5.6739,-55.4013,13.5286,-38.1186,50.2466,76.8787,91.7061,30.9088,-18.4356,-190.7893,94.4064,-75.2733,-0.0048,-2.4732,117.5068,-100.9056,52.5462,71.0781,20.1866
-1734.3750,-48.6075,-22.8196,-132.2164,-26.9440,-43.4679,7.9297,-2.7323,12.2692,-11.6839,86.8587,-158.7535,53.2093,-43.7295,31.4090,-8.0615,186.1779,-106.4234,82.3357,-4.4719,14.5326
-1726.5625,-225.4608,-54.1289,-98.1277,28.2819,65.0956,42.5105,68.5645,83.7287,22.6349,84.0335,-234.8386,50.9280,64.7349,-8.2805,-47.7464,146.7486,-3.0287,80.0268,-78.1300,11.7828
-1718.7500,-135.1672,-71.7826,-187.9071,-79.2460,84.8116,25.2366,14.0090,29.3242,5.1091,176.3521,-140.7785,106.8212,-26.6557,48.1972,8.7277,203.4783,-264.5110,29.8634,12.3704,31.1889
-1710.9375,-107.3085,-17.4678,-122.0993,14.4290,76.1358,16.5679,42.0688,20.5236,33.1945,94.2553,-186.1446,62.3137,75.5664,-34.7210,-0.1947,120.8112,-28.3667,126.3154,-32.5225,22.1954
-1703.1250,-198.9722,-81.8970,-107.8103,-44.0102,162.9779,30.4138,128.6419,34.2362,119.7933,143.6682,-245.0315,39.2994,52.2914,-21.1330,13.3885,171.6492,-154.7494,70.2624,-18.8923,35.7045
-1695.3125,-115.0232,-67.9794,-167.9261,-59.7492,29.4129,6.8575,-5.1961,-26.4508,22.9927,120.6854,-158.3217,52.8848,-45.3816,66.0487,63.5685,222.0872,-176.5269,153.8138,-40.6512,48.8114
-1687.5000,-222.7408,-56.8841,-96.6895,55.8961,26.2105,114.6490,28.3320,7.2163,-17.4414,6.0424,-198.2805,12.8238,62.3130,-48.4331,-13.9041,144.8716,31.0546,185.7159,-113.0636,45.2667
-1679.6875,-71.8980,-62.6154,-123.9179,-49.6537,-1.4391,86.9787,-36.5948,-20.5719,-45.3226,125.9450,-77.6915,-14.6745,-75.4578,-39.3533,-4.8198,154.2118,-170.8435,125.1671,36.0911,54.2763
-1671.8750,-47.1688,15.2225,-95.2442,66.5130,-9.1917,79.2146,-44.6165,-28.4666,-53.3022,80.7193,-122.2295,14.7423,-47.3224,-84.3748,-12.8374,36.4410,65.2013,221.5307,-8.8602,9.1890
-1664.0625,-226.9648,-41.1852,-99.0769,63.5005,134.5714,111.9483,61.8669,78.1357,-19.7767,75.9958,-236.2877,11.6768,-50.6850,-50.8902,-90.3574,33.1741,24.7329,146.3839,55.7040,-31.3918
-1656.2500,-94.4772,-37.0355,-141.6177,4.4671,54.6333,105.9863,-91.3462,72.0337,-62.9396,106.5696,-169.0754,4.9229,-203.7433,126.8952,-133.5773,100.2016,-88.4168,138.5472,118.5820,-74.6714
-1648.4375,-206.0276,-26.3679,-72.1740,110.0217,49.7137,174.0327,-23.5360,140.9395,-32.0791,27.1490,-246.8962,0.1732,-135.7929,121.6821,-138.7886,58.2359,115.4269,131.6952,5.4709,-116.9451
-1640.6250,-212.9866,-84.9571,-119.1506,-22.6541,113.3886,90.6749,39.8659,130.4447,-5.6188,53.3297,-111.1278,27.0305,-146.2419,111.0892,-38.3883,47.8874,-140.1398,17.4351,31.9703,-90.6059
-1632.8125,-77.5228,-28.4464,-123.6853,10.5403,34.5163,11.7675,34.7218,51.3997,26.3034,-25.0530,-4.9314,-14.6551,-40.2207,31.9554,-7.5256,5.9913,30.7632,83.6209,-43.0767,-95.8069
-1625.0000,-158.4169,-73.2843,-61.5855,-4.1353,96.3050,36.4958,96.2403,76.0018,87.8922,-37.7785,19.9049,-62.6794,20.4523,19.4777,-55.9999,30.7520,20.2851,37.4351,-53.4619,-71.3473
-1617.1875,50.6432,-42.2650,-65.5420,-78.1978,19.0409,33.1617,-55.2887,35.5408,-26.5625,31.4394,125.6707,-29.7412,-93.9137,125.9502,-23.5173,100.4634,-158.2245,0.1938,-55.8985,-38.9293
-1609.3750,-6.9251,20.5302,22.8962,56.9679,-3.8134,10.2280,-4.4023,12.4800,-49.6056,-28.9554,65.8131,-15.3899,-42.8637,-7.1681,-46.6381,-32.4271,135.6782,82.3446,-149.9351,-62.1017
-1601.5625,-98.4993,-71.5556,0.3138,-39.9154,46.3308,24.2871,9.4766,-10.5918,1.3480,57.6495,116.9478,-38.0219,-65.8166,42.7347,-32.7501,-18.3117,-61.4325,-8.5084,-100.9640,-48.2638
-1593.7500,-35.7944,-39.1742,-7.9700,-5.7852,-35.2185,15.6511,-73.3398,-56.3704,-44.3897,12.5355,145.3514,-46.3451,-37.4568,70.9358,-4.5569,-26.9015,34.7882,52.9457,-73.7032,-57.1194
-1585.9375,-128.7130,-45.0361,-29.8734,35.7925,15.6395,66.4170,14.2534,68.2495,-29.7137,-10.1766,123.1366,-31.2589,50.3055,48.5519,-26.9455,-86.0723,83.3820,-4.2178,-61.0254,-79.5631
-1578.1250,14.5029,-32.3062,-101.6461,-50.7958,-18.3603,68.3314,-131.0048,70.0183,-138.8736,101.2602,199.0536,43.9829,-94.7754,197.3335,-25.1734,-10.0854,-161.8703,-37.2298,45.8160,-77.8446
-1570.3125,-32.7647,14.0601,-2.8835,75.1013,-67.7976,129.7912,-106.6903,131.3408,-114.4647,-21.7568,112.4914,31.7806,-33.2910,184.6698,-111.8474,-59.5519,72.4391,55.3029,-36.7820,-90.5668
-1562.5000,-125.0376,-20.3893,-28.1408,23.9553,17.7644,104.2337,-58.3739,142.6544,-103.0462,-121.7632,123.9180,117.5943,-21.8120,197.0213,-63.5109,-11.0151,-91.2669,-36.1711,11.6330,-42.2808
-1554.6875,16.1747,28.7342,-29.9007,18.6760,-95.1798,66.1727,-169.5534,30.4611,-141.1198,-159.2835,232.8236,152.9135,-23.8207,120.8746,8.3265,-12.9845,-91.4381,-1.1353,-23.4483,-7.4883
-1546.8750,-93.5857,0.2618,3.3784,36.6694,-25.0692,62.1654,-27.6715,63.3222,-35.1321,-127.7563,117.7652,112.2875,46.2169,6.7795,4.2186,-16.9069,-24.5659,-5.0587,-98.4612,-11.6359
-1539.0625,-69.9041,-60.0772,-82.9073,-84.1106,-38.5154,48.6042,-4.3436,12.6226,-11.6867,-68.7810,178.1427,99.1159,-41.2988,103.1401,27.5694,43.6220,-282.2353,-17.5264,-4.0060,11.6729
-1531.2500,-56.4060,-18.2803,-69.3535,19.3856,-25.0984,61.8974,-28.1492,-11.2216,-35.3791,-201.9528,154.3373,39.7952,46.0522,116.3533,3.7680,-54.0012,-24.0350,66.8543,-96.7008,24.8351
-1523.4375,-40.2205,-43.1623,-17.1237,-35.7487,28.0221,77.8893,-12.2599,4.6342,-19.3728,-223.4152,170.2244,19.1772,62.0988,132.2871,-17.3253,-37.9126,-148.1605,-23.0716,-45.6784,40.7067
-1515.6250,163.9912,29.0077,13.1479,-46.0535,-88.8113,-3.0621,-128.3210,-75.4598,-63.3093,-156.8409,237.1422,49.6077,-18.7933,125.2721,12.6358,29.2261,-119.2059,-29.9356,-52.6071,33.6380
-1507.8125,33.9749,68.5355,99.2065,93.4849,-40.8381,-28.2115,-44.5717,-64.7502,-51.4357,-219.4608,137.8400,61.8436,103.1213,27.0656,-12.5953,-69.8397,206.5482,-55.0107,-112.7226,8.3786
-1500.0000,118.5159,49.2644,39.8006,-8.9203,-26.3251,-86.8184,-67.2789,-122.4964,-110.0112,-168.5262,263.0739,76.6365,7.5796,78.4278,38.7336,-55.3459,9.8503,-145.5374,-28.2768,22.6768
-1492.1875,150.5748,94.4305,110.9357,72.4543,-102.2550,-89.8729,-142.4250,-125.6885,-149.0222,-246.0463,222.8187,36.9764,41.6028,75.3449,-1.3870,-58.2949,217.7281,-43.5142,-66.2824,19.5308
-1484.3750,-9.7341,2.6079,52.6991,2.0747,23.4709,-74.2839,-17.9150,-74.2314,-24.3736,-193.9064,128.1967,15.9658,94.2744,53.9275,14.1535,-42.5799,57.2326,-96.8529,-15.6184,35.0436
-1476.5625,134.9912,15.0918,19.5010,-88.8064,-46.7528,-143.6451,-14.3465,-70.7263,16.3367,-80.7153,167.6064,19.9949,24.0082,20.5589,54.7576,-38.8182,-114.1968,-93.1366,59.0991,38.6138
-1468.7500,55.8308,37.8692,121.4358,13.8832,18.1915,-115.8543,87.3943,-44.0633,81.2189,-200.3588,122.1385,-25.8302,161.9066,-134.6469,45.5237,-156.9036,121.5128,-68.2816,-56.0241,29.3437
-1460.9375,141.3227,22.5409,61.0005,-72.9499,31.7849,-65.4146,26.7849,-65.7531,20.7579,-187.3362,172.3092,24.9910,65.4507,-48.1854,95.9486,-69.3316,-144.1415,-122.7834,-40.4835,79.7342
-1453.1250,217.5864,98.8279,67.3600,14.2825,-70.8153,-59.1764,-76.0096,-133.6422,-45.8888,-217.5205,104.2489,68.6115,71.8174,-41.9261,102.1781,-136.9680,2.0345,23.5113,-68.1442,85.9348
-1445.3125,-19.2136,41.1587,78.6519,72.5392,12.5436,23.9981,81.1560,-85.5851,38.4316,-243.7545,4.1301,43.1801,120.1361,-31.7160,76.3693,-199.6520,82.1381,68.7444,-59.8350,60.0986
-1437.5000,85.3329,54.7812,40.2837,29.2554,-25.7579,22.5123,-67.3263,-87.1896,-36.8892,-209.6379,113.3484,79.0923,7.8106,77.8449,37.9218,-126.9841,-25.3865,31.3372,8.8251,58.6175
-1429.6875,58.0469,91.8985,124.1059,130.2105,-88.8500,69.2328,-94.5903,-5.5854,-63.9964,-200.3157,11.7354,52.1985,91.6951,13.6114,-26.3212,-117.1174,194.2963,75.1220,-53.3058,31.3425
-1421.8750,43.0461,29.1496,72.2092,9.1129,-30.6496,17.2500,-36.5685,53.3181,-41.8072,-32.6778,33.4169,37.6082,39.8729,35.6973,-4.2499,-95.9380,-32.7333,-10.8022,37.8783,16.3797
-1414.0625,176.3655,88.4524,65.6512,48.4548,-74.0993,10.6176,-80.1838,-27.4253,-48.2561,-76.6970,63.4231,31.3634,33.4207,29.1409,26.1740,-138.4117,66.6192,53.6178,-39.5840,9.7790
-1406.2500,25.1213,58.2562,90.5254,93.5122,61.9061,72.4252,18.6612,-2.7142,-23.2499,-198.2523,13.8634,19.5723,131.4202,-56.9452,14.0559,-150.4258,126.3956,43.4686,-118.5839,34.6414
-1398.4375,106.3727,37.4189,-11.1159,-18.4252,33.3991,6.7290,-82.0046,-30.5081,-86.7439,-79.3030,58.7862,65.2828,29.9235,25.4834,22.4478,-31.9322,-109.3222,17.8243,-39.0736,80.0152
-1390.6250,32.5393,73.1081,61.1803,91.1830,-4.1515,-31.0143,-47.7049,-68.3460,-15.2776,-154.4072,-16.3670,64.9398,103.3913,-49.1359,58.7949,-105.4896,168.9258,86.1266,-110.6111,42.3496
-1382.8125,-1.3426,19.2553,99.4128,17.1107,71.2487,-29.8134,27.5437,-67.2408,23.1479,-116.5502,21.4263,29.5496,67.8031,-47.8003,60.1001,-68.0991,30.1056,-18.6292,-75.1829,43.6471
-1375.0000,166.1121,89.5213,90.9973,44.7858,-48.0036,-38.2683,-126.8507,-148.7918,-59.0673,-89.3507,123.5507,58.5081,59.5782,-56.1133,51.7599,-76.3643,91.6727,43.9642,-48.4112,35.3042
-1367.1875,0.8956,60.8811,103.9179,108.0932,39.1025,11.6286,-4.8848,-63.9839,-8.9238,-113.7817,62.0062,34.8028,145.7008,-43.0675,-9.2301,-173.2703,208.5745,54.8990,-107.2741,11.3203
-1359.3750,119.5231,46.7794,42.6671,-9.2709,52.0479,-49.6189,-29.0737,-87.3170,4.0709,-28.3388,111.2935,47.9264,48.6672,6.8411,3.6383,-160.3170,-25.6737,-38.3063,-59.2755,24.1918
-1351.5625,136.7683,99.3404,135.0566,108.6300,34.6516,-30.2072,-46.5943,-177.9873,-13.2678,-155.2453,56.2009,-6.3098,141.2967,-84.5993,-13.8352,-177.7201,273.7460,15.1365,-181.6232,6.7149
-1343.7500,90.2525,65.7801,160.6734,67.5070,96.5084,-4.5532,53.1401,-152.4081,49.6582,-203.8868,44.3469,-17.2924,130.1721,-95.7745,-62.0441,-151.8656,157.3956,-32.1921,-122.7038,-4.5081
-1335.9375,169.0740,70.5307,133.6349,19.4827,33.7082,-31.5474,-10.7685,-179.4811,58.9468,-194.1804,89.8182,-6.9352,30.4071,-48.5945,-14.8985,-106.6671,59.4248,11.8282,-8.4342,-31.3753
-1328.1250,-25.3295,39.2053,115.3858,107.5986,88.7189,60.2548,118.1396,-88.7499,152.0423,-212.6657,-38.9322,-61.7900,85.4497,-140.6030,-69.9420,-160.6724,217.2525,98.6423,-26.3510,-49.4343
-1320.3125,78.8157,4.3046,39.6700,-14.3813,123.2763,58.6011,42.5930,-54.4748,75.6887,-69.5907,31.8551,-101.0977,-63.9640,-142.0527,1.5729,-90.1259,-29.3698,28.0088,78.2932,-14.9375
-1312.5000,106.8294,47.0969,69.8523,61.6662,6.7412,14.8483,-1.0400,-61.2984,69.2463,-113.6177,-12.4933,-143.5171,40.5383,-184.5944,-5.0124,-96.6864,209.9366,91.2768,71.8400,-21.5358
-1304.6875,-82.9670,-48.1420,92.2158,14.0247,103.4079,1.2912,95.5275,-0.9185,93.0099,20.5754,-100.6512,-192.7385,63.2355,-161.9180,-18.3915,-36.0323,161.4185,-27.2697,93.5992,-34.9230
-1296.8750,17.3800,-47.5945,13.7181,-48.0335,25.2148,-41.1166,-19.7506,-6.3927,14.9291,198.9232,-32.6722,-161.8199,-88.9070,-20.0932,-23.6069,32.7707,50.0703,-68.6624,88.5131,-40.1494
-1289.0625,-70.3631,-17.7531,34.1547,62.6497,8.9840,-20.5723,36.9398,14.0933,71.8144,182.2367,-123.7648,-141.9665,5.9096,-73.3132,-39.8598,-20.4745,280.6690,-49.1132,2.3882,-56.4122
-1281.2500,10.3398,-46.6344,-66.9869,-78.6850,55.1987,-84.5848,121.0783,60.0307,193.1565,265.0300,-77.4139,-94.6793,-57.8240,-26.0677,7.3523,26.7422,-26.3013,-179.1197,82.7266,-46.2129
-1273.4375,115.5171,-6.0127,-29.6327,-65.8394,-17.0829,-157.0998,121.7308,-12.5261,230.0135,192.3269,-40.5803,-130.9080,-20.0380,-99.3218,81.0721,-46.5442,79.2541,-178.6315,48.5637,-45.5048
-1265.6250,0.2778,-2.5486,68.2990,-39.1280,81.2398,-206.0201,219.9903,11.5200,218.4746,69.2363,-90.1510,-69.5364,78.3412,-183.9592,105.4042,-95.2214,105.3883,-223.5624,5.0116,15.8165
-1257.8125,138.2863,5.3887,24.4698,-119.4446,0.8016,-248.7036,-7.5012,-104.1928,65.1855,172.3966,49.5205,-1.9227,-2.0212,-79.3343,136.9946,8.3488,-72.2046,-226.2403,36.7125,83.3969
-1250.0000,70.8201,31.6822,66.1870,12.9271,-67.0756,-170.8356,-2.4251,-63.3496,33.4609,140.1190,-20.2739,-69.7679,77.1739,-111.1557,31.1385,-59.5305,211.7558,-82.3811,-30.0346,51.5354
-1242.1875,105.5005,9.7779,66.0337,-41.5334,-66.8086,-60.8214,-39.2024,9.6441,-76.1089,140.0138,53.0805,-69.4659,3.5095,-74.8096,-42.5579,-23.2534,-0.1541,-118.3858,41.3761,51.8343
-1234.3750,223.1086,69.2830,79.8213,-7.6787,-162.5943,-83.8541,-171.0221,-13.4082,-134.7245,153.8613,66.3680,-56.2252,17.8079,-61.5084,-65.2991,-46.0318,82.9209,-36.4439,88.7365,29.0929
-1226.5625,-21.2424,-36.4936,84.6437,-13.9633,-47.3270,-4.8436,-18.7826,102.5911,17.7195,306.7749,-113.3013,-159.9443,60.1590,-129.1430,-95.9798,-39.7528,85.0304,1.5277,127.1593,-38.5875
-1218.7500,-30.7422,-157.0719,-106.6880,-175.8596,-17.2196,24.0053,10.3035,169.4336,84.0139,483.5498,-158.1240,-276.8205,-93.6382,-24.9221,7.1949,100.3749,-204.9972,-7.6570,188.4283,-82.4079
-1210.9375,-102.0801,-82.4602,-69.8267,-20.1713,19.0945,61.0513,84.6062,132.4817,84.5213,262.5296,-230.7637,-167.5028,16.7786,-24.5028,-28.4238,26.6944,41.1854,-7.6433,12.8945,-82.0177
-1203.1250,-43.0670,-23.0616,-47.6358,-36.4066,78.7552,10.4383,70.2540,80.8793,70.3777,100.8815,-136.0530,40.1602,40.5375,35.2819,-42.6808,-23.6311,-110.3072,-194.2836,37.7241,-22.2654
-1195.3125,141.7869,69.8725,-76.5951,-11.0252,-23.7443,-56.3250,-32.2445,-58.8727,42.0875,-1.9128,-92.5018,120.6615,11.1587,42.9134,38.9169,-16.1124,-65.9188,-150.0625,82.4025,22.3419
-1187.5000,-114.9805,28.8953,20.8325,79.8565,38.1636,5.3134,103.6704,39.7819,104.2066,-51.2856,-362.5609,72.5533,73.1749,-6.0486,63.9176,-28.1934,99.8581,-89.4540,107.4929,47.3563
-1179.6875,-187.1417,-62.3020,-131.1551,-37.1912,32.6570,0.5433,61.1808,71.0328,98.9246,127.9610,-405.0206,67.0370,-78.2125,99.6012,132.5266,151.3233,-147.7641,-127.2456,246.1888,115.9752
-1171.8750,-301.0657,-65.9259,-176.8891,61.4407,-11.5953,64.0255,15.9589,135.5408,52.9060,81.4604,-415.2503,21.7541,-13.3391,90.4961,49.3851,142.0755,54.8897,40.2118,239.1282,143.8475
-1164.0625,-346.1944,-114.1658,-187.8385,-0.2401,50.9528,54.3024,78.5354,161.8483,79.6890,144.7864,-389.6795,12.2548,13.3258,80.1940,76.0509,168.6326,-58.6786,-73.5390,230.8833,170.5273
-1156.2500,-161.6406,-101.8082,-179.0972,-88.1783,-12.8047,-46.7204,15.8159,60.8610,89.1752,190.8252,-307.4172,-15.5589,-51.3044,126.5889,159.4181,214.8848,-154.5193,-99.5855,205.3404,179.9084
-1148.4375,-183.8563,-69.8194,-91.1137,-12.9219,38.6949,-31.4956,140.3668,39.1337,141.9309,95.1320,-440.9154,-37.1358,37.3172,105.2433,138.0415,156.3869,-0.1222,-51.3913,113.0580,158.5419
-1140.6250,-111.7090,-99.7401,-162.7893,-118.7182,40.5347,-29.9288,105.2671,40.7532,181.0350,207.8013,-440.0555,-35.3733,-107.7108,144.2594,140.0272,195.2376,-245.3846,-119.8503,221.1268,160.5299
-1132.8125,-161.0789,-41.1859,-176.9592,16.0466,-83.1208,-6.8593,128.6734,26.8726,167.6402,193.9708,-454.7030,-12.1224,-121.2204,20.7665,126.5162,144.5817,21.8830,7.1865,207.6848,147.0214
-1125.0000,-236.2022,-65.0772,-107.8942,30.9374,-12.5273,25.4574,162.3264,59.2440,164.4947,153.4160,-496.0934,-52.6271,-87.4866,17.5321,86.2606,104.1831,53.3772,-32.5398,204.5026,143.7683
-1117.1875,-71.0311,-44.0761,-81.5350,-13.8687,-133.6414,15.0723,-30.7192,12.9145,7.6454,143.1648,-359.1902,-62.8437,-134.4509,117.6034,76.3074,131.0850,-25.8066,27.0329,159.6196,133.8177
-1109.3750,-217.2775,-42.8582,-11.5789,103.6410,-98.1452,49.2876,-34.1535,47.1905,-31.6015,67.5236,-362.6940,-101.4660,47.1852,42.2745,0.9512,18.5819,249.6116,127.1959,84.3380,58.4718
-1101.5625,-145.9648,-68.9400,-81.0872,8.4912,14.8957,53.0495,6.9504,51.0140,9.6960,71.4539,-249.6385,-98.5438,-22.6362,83.5069,5.1497,22.6315,40.5705,-12.0970,121.6111,25.6803
-1093.7500,35.9828,10.6969,-36.9460,44.5790,23.5868,24.4596,-21.2864,-14.5055,-18.3527,43.0420,-204.9442,-126.9792,-13.7942,18.3827,-22.9996,-5.6799,153.2088,65.2629,93.5294,-2.4591
-1085.9375,-113.7272,-53.0679,28.5323,25.1930,125.6349,53.2131,80.8385,87.3271,47.9587,71.0025,-250.8917,-171.0731,52.3945,-26.3876,-30.7860,-50.6417,109.1738,56.9567,85.8027,-10.2437
-1078.1250,-3.0322,-93.1064,-77.5929,-111.9333,21.0757,21.3573,13.3608,92.5551,16.6694,187.3670,-100.4331,-165.7741,-53.0152,89.2428,11.8295,28.7970,-165.4466,27.0464,126.4708,-4.6265
-1070.3125,-85.5527,-82.7861,-51.9161,-23.3529,-26.6821,47.3012,39.6967,118.5836,43.1880,139.5409,-148.1777,-176.6846,47.3816,78.6714,-35.7597,18.0374,33.7413,85.9221,10.9310,-15.2064
-1062.5000,-150.2131,-132.1636,-84.3998,-88.9145,-21.6008,15.0821,44.8722,123.4538,11.5556,218.5922,-71.0565,-135.7518,15.6183,157.9659,-30.4854,60.1360,-102.2430,-14.3668,51.2470,-9.9309
-1054.6875,-20.6756,-71.1617,-57.6836,-38.0947,-141.3245,42.0637,-75.7416,76.5294,-108.8760,171.8497,-7.7356,-145.6270,-30.9416,148.4586,-3.0073,13.4255,-6.0065,115.5430,-28.2478,-19.4520
-1046.8750,-146.8988,-79.5163,-6.7229,22.1464,-53.7896,92.2904,-24.1006,90.8621,-94.0590,39.3807,-68.1546,-131.2620,93.7384,53.2091,-25.2740,-9.0306,78.4545,129.6850,-119.4833,-4.7141
-1039.0625,-48.0724,-74.1562,-86.7229,-52.4495,-96.2170,86.5642,-139.4221,11.2465,-135.1992,69.9797,108.4859,-27.8504,14.4643,84.0077,5.5129,58.5658,-136.0280,89.8799,-122.6651,26.0807
-1031.2500,-31.1660,-12.7656,-31.6267,65.9242,-113.5352,68.9336,-120.6306,-43.2616,-116.2328,-58.3090,90.2275,-45.3513,107.2999,102.8947,-11.6061,-32.7446,162.6050,107.1723,-210.7488,8.9768
-1023.4375,-10.9956,-37.8999,-47.2879,-15.4025,-18.6020,16.5408,-25.5920,-58.5277,-58.0217,0.6645,111.2404,-23.6105,129.3754,162.0433,-26.4698,-47.8041,6.4703,-49.2952,-154.5775,-5.8761
-1015.6250,114.4856,-19.9682,-24.6404,-51.0772,-69.3786,-34.5522,-39.2521,-145.4977,-71.5122,-50.0688,170.5603,-74.5850,78.7568,148.4915,-3.0317,-24.5741,-7.3340,-27.4540,-134.1161,-19.4319
-1007.8125,-110.9328,-67.6114,33.1046,6.1783,-11.0497,23.4622,56.1927,-51.3641,-12.9005,-102.6857,43.9959,-90.4668,137.2319,96.0392,-18.4923,-3.2470,83.9439,-6.5262,-182.5572,2.1132
-1000.0000,-82.7366,-107.6555,-87.5540,-109.5701,-58.1357,12.0747,-28.7747,11.3641,-59.7001,71.3162,106.0542,-27.7530,16.2995,159.1886,44.6508,133.6799,-204.1783,-50.0018,-49.4059,65.2614
-992.1875,6.8849,-23.7329,-29.7607,-0.9316,-218.7702,-1.8637,-78.2838,-2.4543,-73.0483,20.7761,127.5642,-41.5961,39.8259,109.7827,31.2445,83.0534,63.1720,41.9703,-96.8152,51.8596
-984.3750,11.3090,-21.9545,49.8199,-38.1717,-138.6028,-33.0103,-35.9924,3.5306,-30.5990,64.0596,95.8927,1.3510,9.1420,79.1831,-36.3533,52.2318,-38.7064,-60.2670,-93.4128,21.2580
-976.5625,242.2850,47.1966,69.9486,-67.2181,-191.8884,-49.6085,-161.1480,-49.9363,-155.5959,120.8998,152.7777,21.8409,-79.9882,63.1266,-52.4057,35.9481,-122.0167,-39.9466,-106.4690,42.2011
-968.7500,39.6496,8.6359,78.4728,12.2908,-145.7612,-3.8078,-78.8886,-3.9966,-109.1928,20.1550,51.0788,-43.2672,76.2744,-38.5323,-79.0623,8.0570,62.0622,39.7602,-97.1293,51.5435
-960.9375,-30.6564,-93.0033,-67.7036,-122.5574,-71.3447,-2.7163,-4.3497,-2.7627,1.4944,95.7284,88.7118,-78.0776,-33.1747,37.1094,-4.4197,83.4658,-217.5701,4.7643,114.5055,53.1843
-953.1250,-69.4572,-84.0163,-106.3675,-70.1836,-36.4374,-4.1250,68.6893,32.9745,74.6784,93.8017,12.8556,-116.3961,39.8812,-0.7550,31.7154,8.3678,-80.6790,107.2667,111.6290,15.3209
-945.3125,-197.5567,-142.7793,-129.3312,-105.7823,125.1711,10.1649,230.4233,83.4135,125.5499,145.5891,-84.2707,-139.0237,127.6292,-59.9116,46.5533,-51.0302,-172.1100,84.4557,124.4549,-6.8406
-937.5000,33.7480,-126.1680,-143.8919,-199.5384,74.1717,-41.1479,105.5547,-3.7549,74.8153,168.7851,85.0208,-189.2609,40.7795,-36.6737,105.7924,8.9701,-292.1236,35.0450,181.6668,-20.6016
-929.6875,-21.4990,-88.2105,-16.9983,-79.4646,91.6268,-24.0128,160.1415,13.5315,92.5326,38.4403,27.7779,-246.0490,131.3747,-165.9910,86.4791,-10.5806,4.3048,85.0740,91.3227,-39.9119
-921.8750,-37.4684,-131.0161,-34.8588,-152.0804,148.3201,-41.6386,142.9633,-3.9400,75.4890,58.3688,83.8198,-226.5848,41.2060,-36.0568,106.4162,9.1243,-152.0366,-35.6541,111.2288,-19.9727
-914.0625,47.8043,-61.6759,-17.4677,-77.3502,19.2607,-24.0161,14.0445,-60.1604,20.6971,-33.4476,64.1253,-172.8742,58.2942,19.1180,87.6009,-9.9294,-30.1022,49.8691,57.3747,-38.7868
-906.2500,-80.1679,-79.3259,-40.3391,-36.8979,69.9572,26.3518,138.8818,64.3709,71.6574,-18.4894,-31.7957,-159.4197,73.1166,-2.9542,65.5378,4.7707,17.5531,-7.8738,35.2796,-60.8536
-898.4375,26.1799,-99.4778,-112.9071,-145.8357,34.9438,-7.9890,67.0129,66.1957,36.9117,130.7777,79.6072,-157.6748,-34.7653,-0.7356,67.7684,79.7625,-191.4800,-76.3107,108.4816,-58.6274
-890.6250,-120.5903,-80.2265,-44.5694,-13.7613,29.8420,22.5710,99.0550,97.9237,69.0651,51.9399,-0.0746,-163.0333,70.2542,-79.6246,25.8947,37.6442,85.4038,23.1526,67.5749,-63.5065
-882.8125,-173.2885,-131.5205,-136.1809,-85.9090,123.7884,42.1727,156.1333,154.6915,89.2507,109.1609,-17.6687,-143.3346,-19.6923,-22.4616,46.0687,94.5797,-107.6766,-29.3424,121.7117,-80.3388
-875.0000,-16.7200,-82.1833,-118.5243,-72.6215,30.9809,23.0215,63.4568,61.7045,33.6776,16.6266,74.0041,-162.3884,-38.3837,31.9317,64.4839,1.7510,-56.4716,57.4131,32.0821,-98.9268
-867.1875,-125.9429,-81.1898,-12.6659,0.0986,64.3835,56.0586,96.9818,94.9151,-6.6980,-96.6951,32.9053,-166.2415,31.1169,28.5233,24.1007,-37.8811,80.9118,53.3536,-41.3465,-102.3182
-859.3750,31.9550,-46.5573,-67.7128,-65.6286,8.8772,74.1843,4.5968,39.2197,-23.9839,-40.9081,87.9395,-73.9931,-97.2904,47.2129,42.8190,16.5908,-147.6036,35.3906,47.3147,-83.6129
-851.5625,15.4546,10.6720,-11.1459,46.2126,29.9690,57.9094,62.8161,23.1249,-3.6773,-93.5136,71.5954,-90.1475,-39.0987,-78.5045,-9.8701,-72.3455,118.4924,90.0195,-3.4355,-99.3121
-843.7500,-113.2148,-64.4688,0.2259,-22.0619,152.8461,32.4285,111.8150,34.8253,8.4162,-8.3019,83.0952,-78.4940,-27.1211,-29.4267,-33.7606,-23.4801,-10.6422,-39.5641,8.6129,-87.2135
-835.9375,-44.6225,-42.4963,-37.1365,-27.1170,3.9613,-41.8015,-72.9423,-3.2266,-102.2469,28.1600,154.8732,-42.5872,-101.8934,79.8794,1.5887,11.6166,23.4972,-5.8930,7.9008,-87.8687
-828.1250,-98.5297,-10.0134,54.0049,65.3017,22.5834,12.4606,18.8126,15.2221,-46.4099,-99.8672,100.1793,-25.1849,-46.1741,61.6785,-52.5656,-42.7867,181.1266,-59.7323,-80.3043,-106.0285
-820.3125,105.9844,13.2424,8.5444,-39.2673,51.5987,4.1207,10.9578,-28.9346,-54.1791,2.5138,164.9201,3.6151,-128.0693,16.8758,-23.3182,22.2117,-70.8452,-137.1732,-51.1156,-76.7953
-812.5000,102.1065,53.2951,41.7028,37.9845,11.2195,-35.6245,7.7094,-69.4963,-20.3581,-36.5120,125.2891,0.0180,-20.3551,-59.3437,9.5238,-17.2072,136.8047,-35.0219,-125.3513,-79.9687
-804.6875,-75.9352,-37.9329,1.6668,-13.7968,118.6400,-2.5844,115.2496,-36.2727,86.2512,-39.7273,47.5047,-2.7697,-23.8528,47.2373,43.1621,16.1745,-5.7770,-72.0874,-91.7982,-46.3467
-796.8750,35.9989,-34.7741,-67.4052,-59.6338,13.9991,-34.6046,10.7287,-68.1096,18.7950,3.0060,89.7021,-34.6013,-92.3969,163.7571,85.7391,21.4991,-69.3884,-30.1971,-13.3172,-3.7833
-789.0625,-151.0584,-56.2723,-81.4658,38.8882,37.3632,62.3735,71.2053,29.0516,5.3281,-84.2534,2.9370,-48.4253,42.0559,113.2588,109.3058,-29.1863,94.9920,-7.3185,-60.8464,19.7724
-781.2500,-102.8771,-82.0488,-105.3185,-79.9315,11.9170,-0.4616,8.8597,3.4030,-19.9576,1.6976,235.4174,36.9587,-56.3064,88.9497,85.0732,56.3222,-172.4395,-99.2403,-47.1824,68.5200
-773.4375,117.3087,37.4031,15.8472,-28.3521,-121.5258,-98.2959,-124.4826,-58.2457,-80.2484,-22.3583,357.9155,86.3382,-80.6658,27.6283,23.8320,31.8229,-21.8474,-20.1602,-141.5305,44.2580
-765.6250,142.9579,26.7058,116.4628,-41.7644,-21.5180,-34.6825,-61.3788,6.5524,-89.0974,-30.9552,311.9022,3.1684,-89.5911,18.7566,-58.9672,-14.2217,-65.8326,-29.6308,-185.4251,35.4407
-757.8125,289.1754,19.4911,85.6337,-126.6483,-88.9667,-29.5208,-164.7362,-25.1062,-193.4120,11.9956,391.4788,-28.4493,-156.9697,98.4196,-53.2200,65.2773,-235.2500,-24.5443,-144.7845,41.1647
-750.0000,120.2472,46.4637,128.6682,15.9827,-45.5522,14.4895,-120.2392,-17.9175,-148.8844,-126.2099,287.9384,15.7935,-40.4978,-5.0867,-117.6302,35.6123,18.1822,53.3850,-207.3048,48.7302
-742.1875,39.7502,-12.2956,6.1052,-67.3815,-20.7400,1.8909,-95.3612,6.6531,-86.9685,-65.0100,276.8394,77.4552,-51.6407,56.8035,-56.6440,60.3376,-203.0043,6.7111,-76.4360,73.6871
-734.3750,61.3689,2.3979,-5.3401,-31.5743,-68.8309,-9.6172,-107.3797,-41.6874,-98.9573,-2.7215,264.8701,29.2277,-63.6837,45.7697,-68.5661,49.1447,-76.0620,99.1371,-55.4864,25.7307
-726.5625,-76.4375,-28.5767,36.7757,21.4976,84.6264,32.4201,9.1443,1.5157,-19.4119,40.1256,124.4935,-38.4375,-57.1951,-21.7217,-61.9458,18.5040,67.4153,66.0957,-122.9938,-41.6843
-718.7500,97.8893,-1.6867,35.0074,-68.9654,46.1668,-42.4467,-66.2545,-37.1911,-57.7897,113.0775,196.2644,-2.9974,-168.6206,-23.1283,-26.2367,52.9580,-109.9882,-5.8401,-53.4153,-43.0077
-710.9375,127.5810,65.1659,103.6090,36.0006,5.0601,-10.9597,-34.3066,-5.5466,-25.8290,-38.6241,191.4138,-8.2053,-100.6983,-139.2001,-105.1927,11.7568,96.9697,58.5724,-164.5009,-47.9895
-703.1250,46.4640,-0.2067,54.3692,-55.2557,66.0907,-23.3307,-9.2277,19.2377,-0.7377,59.8243,216.7619,16.7473,-148.6438,-114.1220,-117.0023,36.7042,-124.9441,13.1297,-33.4433,-22.8301
-695.3125,58.5124,27.9409,-4.7005,-6.6500,-29.7338,-9.5560,-69.0065,-3.8349,-23.5083,37.4029,194.3006,29.8604,-171.4340,-99.9138,-139.6658,13.7883,-41.6817,130.8355,13.7425,-45.5298
-687.5000,-124.8768,8.5618,23.7886,77.3778,35.9944,92.7606,33.7605,98.6352,-30.7375,-79.4655,3.4302,22.5383,-68.6810,-107.1643,-182.7877,-30.5758,56.1089,158.0751,6.4747,-52.6851
-679.6875,87.3244,37.7901,-13.1687,-9.0239,-37.7421,91.6173,-113.9404,97.6385,-141.4310,31.2167,77.1532,58.7720,-178.3865,-33.8754,-182.3697,78.6063,-153.5481,87.8691,42.7513,-16.3018
-671.8750,87.5843,99.1271,59.9444,109.4246,-111.4184,91.5232,-113.5808,97.6878,-105.0760,-5.0650,40.9558,59.0593,-142.0492,-107.5576,-145.9107,42.8243,128.8594,87.7115,-26.9341,-15.8826
-664.0625,1.5213,50.0605,42.7122,29.4929,18.5566,0.0739,16.4186,79.3783,-12.0854,14.3116,60.4606,115.0115,-123.0813,-88.6002,-126.8078,24.6889,-28.1132,-33.8018,-43.9709,3.1793
-656.2500,135.8762,112.3889,34.8942,36.7251,-63.0731,-44.9791,-101.1945,-38.5347,-92.7114,-29.9065,164.4003,218.3729,-129.7080,-22.2632,-97.3211,53.9442,-34.6661,-40.9044,-118.6301,32.6314
-648.4375,47.0471,131.1841,123.8808,118.9468,-9.8943,-29.2380,-49.0108,-59.6460,-76.5487,-122.3104,71.1766,234.5418,32.4568,-115.1337,-117.0413,-4.0008,122.5539,-25.2133,-208.4953,48.8715
-640.6250,173.3046,118.9082,71.9241,-4.3271,-25.6747,-81.4548,-99.7907,-110.7197,-55.3455,8.3313,129.0454,292.7741,-56.3430,-57.9640,-23.7168,91.1057,-137.1862,-144.4694,-187.3225,70.1472
-632.8125,204.2626,171.5481,103.6826,82.8972,-102.7481,-86.9712,-141.8681,-116.0973,-60.4441,3.6538,88.6459,287.7210,-61.4410,-63.1114,-28.7049,48.8949,68.7937,-80.0219,-262.4723,65.1092
-625.0000,37.2030,121.0471,75.3969,90.5007,-21.8665,-42.5430,-96.0107,-71.5351,-87.6155,-24.0683,61.2457,296.6383,-52.6049,-54.3164,-55.7578,57.6341,42.6940,-105.6370,-183.6813,74.0129
-617.1875,132.3736,139.6097,-8.6658,78.0516,-140.7943,-15.9226,-179.9751,-81.7857,-171.6088,-33.6036,89.0921,286.7775,-135.5718,8.6526,-29.6240,84.5590,-3.1784,-47.0450,-53.7095,64.1058
-609.3750,41.6985,171.0701,82.4361,186.3405,-50.5663,1.8474,-89.7884,-64.8957,-81.4587,-88.9949,-76.8806,267.0809,-45.3919,-120.2429,-48.3426,-45.3690,223.0998,2.6928,-74.5889,8.3372
-601.5625,138.7113,150.0990,75.1876,71.5296,16.3060,-5.7369,-59.9703,-35.3652,-51.6771,15.2690,-46.1645,260.0488,-126.5807,-128.4915,-55.4175,-15.6501,-31.9783,-76.9122,22.1732,-35.7889
-593.7500,218.6927,183.9404,124.9108,109.0929,-8.8749,-31.3690,-84.2105,-59.8917,-75.9652,-9.5333,-33.4724,198.9917,-76.8162,-115.8140,-79.5579,-39.9932,117.9228,1.4351,-39.1393,-96.9742
-585.9375,62.7036,109.0491,145.6516,79.8560,86.9408,-10.0068,47.5291,-2.4334,18.7267,-24.3406,-120.7350,146.9633,-19.0718,-94.1454,-57.7101,-55.3410,67.8046,-49.2265,15.5456,-112.1690
-578.1250,103.0331,84.0243,40.7028,-1.5994,55.0419,-42.3539,15.5564,-34.6861,23.7067,55.1393,-4.6677,189.2601,-50.0316,-52.1932,20.4296,-14.3969,-102.9955,-79.5818,91.5242,-107.0770
-570.3125,-104.2900,67.5622,44.1073,112.7041,132.5024,-2.3518,92.9450,42.4046,101.0407,-15.0431,-110.2158,155.9212,63.3590,-159.9105,23.9083,-84.1105,146.5583,-6.5949,23.8434,-103.6475
-562.5000,-29.7123,29.9648,9.3706,-7.8672,171.8001,-0.5070,95.1608,44.3279,103.2023,24.6165,-32.8514,159.4520,28.5814,-83.7811,26.2267,-44.9729,-131.0552,-107.7608,98.9930,-64.3797
-554.6875,277.6076,148.4935,73.3727,10.7146,50.7920,-83.9665,11.0608,-3.0592,19.0370,-58.0485,31.2549,149.6902,18.5047,-56.9791,53.2302,-55.1582,-34.9388,-48.2154,52.8114,-74.4283
-546.8750,151.6645,118.1174,163.0966,43.2373,67.4848,-31.7276,101.6439,13.2460,72.5592,-152.0160,-24.8904,129.6427,72.1159,-77.4938,69.9215,-75.6557,14.8547,-68.9746,32.3199,-94.7905
-539.0625,161.0535,81.7012,62.1373,-33.1374,39.4654,-59.1953,36.5086,-51.1620,44.3637,-68.6920,133.3069,174.9083,-28.9824,4.2770,78.9030,-66.8591,-152.0424,-95.4285,41.1134,-85.8678
-531.2500,48.0017,114.0202,89.7436,110.7235,67.0061,-32.1168,63.9231,-61.0266,34.7033,-151.8277,125.0879,166.7440,71.4743,-78.4252,32.4198,-150.5118,157.6151,1.6613,-71.5625,-58.4074
-523.4375,-91.9529,36.1293,51.4125,41.8610,139.5922,-34.0026,62.3649,-62.8547,34.0711,-78.9073,161.9726,202.6469,33.9599,-43.0880,31.9766,-115.1131,-17.7048,-33.2078,-36.1956,-22.9045
-515.6250,72.8238,74.8914,76.8012,41.9398,17.8766,-46.1956,-96.5052,-148.9934,-14.8759,-90.3092,224.5904,154.2546,58.1547,-55.0702,20.2225,-90.0331,40.7026,24.6281,-48.1444,-34.7142
-507.8125,31.3740,86.7080,181.9552,81.8739,85.9131,-51.6423,45.3740,-80.3929,52.9235,-131.9686,110.9945,112.6212,90.0888,-97.3142,-58.7890,-132.2104,139.8462,17.2044,-90.3440,-76.7865
-500.0000,187.2041,86.0683,86.3738,-24.7912,63.1888,-74.8472,-13.5105,-66.5544,-43.0396,-43.3866,236.6877,127.2534,-5.7386,-9.3211,-81.5591,-44.1424,-91.7564,-38.9615,-6.3033,-62.6227
-492.1875,157.2347,139.2796,128.0031,120.0249,-5.3304,-33.8447,-83.1929,-62.5162,-75.8073,-149.6174,242.6041,95.1017,71.6384,-79.1522,-114.1374,-150.8825,228.8525,71.0771,-72.0792,-58.2724
-484.3750,-7.6940,59.6990,101.6385,85.2819,41.1466,12.1525,1.0983,-15.4948,-28.6000,-64.8506,181.5735,68.9763,44.9993,-68.9854,-140.7290,-140.6242,134.4313,10.1158,8.1349,-47.9330
-476.5625,151.2668,82.1215,47.1485,37.2059,-49.5310,-42.0025,-90.7796,-70.6411,-46.5645,27.7392,165.4329,51.7150,-45.7871,-12.9947,-84.4847,-121.5336,81.8850,27.0184,-9.8230,-65.7590
-468.7500,51.2068,100.8894,127.6342,141.6312,-43.2502,-0.2082,-11.7138,-28.8497,-40.5915,-38.7350,-47.7207,21.4192,33.3690,-81.0746,-115.3030,-115.5015,297.2777,66.8715,-75.8364,-96.6489
-460.9375,113.7847,71.0286,80.7313,33.3416,-16.3790,26.1831,-21.0723,-2.4731,-51.0412,24.3818,-19.2288,48.7440,-86.8848,-17.5661,-88.5326,-51.8805,7.2682,-12.6625,20.7458,-69.9555
-453.1250,49.1122,78.2987,49.5965,86.5838,-47.7493,-5.6646,-15.6830,2.6528,27.2468,-5.7773,-48.9587,54.8305,28.6160,-86.3280,-46.0323,-120.5256,154.0348,27.5613,-8.9350,-64.5296
-445.3125,-138.6789,-1.3201,-37.6799,39.3041,47.7253,16.3392,79.5368,61.6262,86.3632,16.9088,-61.7970,114.7808,87.9501,-64.2465,-23.6960,-98.3190,0.6280,-55.3655,-21.7690,-42.2654
-437.5000,78.1122,21.0537,-71.3852,-50.7692,-59.2655,-54.1046,-64.7159,-8.8598,-20.9909,93.1255,89.9490,118.2921,17.8345,49.3679,16.1774,15.4324,-135.2068,-86.7311,17.9299,-2.4655
-429.6875,47.5690,55.8480,43.5710,29.8226,-55.5925,-50.9013,12.6808,31.2969,19.2985,-13.0175,22.3807,85.4627,131.3674,-58.3865,-17.3060,-55.1692,44.6066,-12.4518,-49.7322,0.9721
-421.8750,82.5710,30.7495,4.0388,-63.4866,-21.4250,-54.2083,9.5573,27.9389,16.0660,21.3297,58.3633,120.1505,55.3875,-61.6516,16.7077,-21.2776,-202.0926,-49.6696,55.0914,34.8978
-414.0625,76.7427,75.6876,34.6806,28.3949,-101.1081,-61.3669,2.5765,-16.2791,8.9745,-95.1977,53.5235,114.0024,121.5652,-104.7840,9.8541,-101.2494,2.3834,84.2664,13.0442,27.9586
-406.2500,-133.1073,24.3569,71.2820,77.8101,45.1630,11.4166,75.5315,-17.5596,44.8210,-131.7794,-19.3263,113.8270,157.6747,-105.9711,8.9381,-102.2720,71.7877,48.1429,-24.0575,26.9596
-398.4375,26.3766,47.1693,16.1991,12.7773,-47.2745,-7.5090,-90.2288,-36.5578,-48.0455,-41.0747,75.1616,169.9688,29.0767,22.1243,27.3125,-48.0043,-85.4940,-3.6730,-5.8724,45.2456
-390.6250,18.3701,91.6626,44.6378,118.4106,-56.2034,57.0661,-63.4873,-46.0564,-57.4269,-121.8858,-5.8231,161.6259,93.9770,-24.3033,-18.8284,-93.2443,116.7255,-12.9867,-119.1983,36.0188
-382.8125,30.1059,30.2859,-18.2107,-18.8308,-45.4435,-6.6587,-53.0792,-35.8675,-47.1353,-39.0057,43.9375,173.0011,-6.4288,59.9611,-8.2814,-9.7811,-153.3690,-108.5948,-74.8282,46.4823
-375.0000,88.2602,86.3709,-32.6361,41.0331,-132.2920,-21.9807,-140.2821,-51.2921,-97.4561,-52.7512,68.1262,195.7855,-57.4262,44.6048,13.6526,-24.9313,-26.0306,-51.7911,-18.0743,68.3313
-367.1875,-39.6613,70.9899,53.8483,91.0820,-47.2348,26.5912,-19.5898,34.1761,-13.8867,-113.6006,-27.7518,171.4812,27.4603,-17.8577,-11.5160,-49.1845,57.1836,-75.0954,-6.4192,80.0683
-359.3750,131.5965,69.3444,11.4905,-41.1673,-53.0358,-53.6912,-97.7662,-9.2227,-20.1791,-10.3142,78.5507,203.3397,-51.5057,49.8135,56.4603,17.7106,-194.4447,-151.2411,93.3740,73.9451
-351.5625,-9.4453,42.3562,49.8408,17.2439,-53.1326,-90.2694,11.7552,-8.9260,54.2213,-46.3449,44.5763,130.9155,59.2305,-60.8304,57.1287,-18.6987,15.6390,-47.6845,-14.1509,37.5125
-343.7500,-55.5973,-37.7517,-37.9515,-88.3071,43.6122,-68.0057,71.1079,50.2077,76.4522,13.4600,69.4920,81.3609,7.8025,-74.6325,79.6420,40.7440,-207.4460,-95.2764,8.1703,59.9235
-335.9375,162.9239,11.9925,-31.0688,-100.9874,-59.9987,-98.0936,-33.8978,-55.0230,-28.6760,56.8875,152.0768,14.4628,14.0326,-68.8055,48.7951,46.8224,-165.8488,-19.2072,-20.8711,65.9731
-328.1250,8.0613,-4.9065,65.4239,-29.3486,35.0008,-40.5785,61.6890,-70.6594,29.7875,4.9078,65.2843,0.1756,109.8559,-157.3869,-3.4611,31.4949,-40.6711,36.4593,-71.3131,50.6119
-320.3125,59.3364,-35.8159,-30.9738,-136.0173,49.0911,-63.9643,-35.6473,-129.2094,6.3313,56.0126,155.6173,88.9986,12.7726,2.1273,47.3695,119.2614,-307.3904,-20.7590,-57.6669,64.3400
-312.5000,15.9676,26.8646,-2.0022,-2.5869,3.5360,-72.9950,-80.6311,-212.4130,-39.7807,-98.5535,149.3119,154.1800,115.0467,-7.0222,38.5354,73.3703,-34.7400,41.3756,-136.6836,55.4058
-304.6875,-63.8253,-23.0384,-15.4752,-36.1328,63.5335,-13.4801,-22.0762,-153.0798,-17.3505,-149.5733,174.5884,141.9251,100.8567,15.3666,24.2502,59.0234,-151.5626,-6.9388,-149.1466,78.0114
-296.8750,47.6598,26.6034,-44.6787,-8.1224,-40.2179,-7.7171,-162.2760,-184.5071,-120.6753,-143.3674,183.1331,148.9322,32.9212,57.9812,30.2011,27.9082,-110.1112,105.0148,-108.3719,83.8518
-289.0625,-43.5438,57.6949,45.4315,115.1520,-24.6581,45.3467,-74.1782,-132.6386,-69.7103,-237.8718,53.9975,92.2456,86.2809,-110.1101,9.4408,-66.9073,148.6295,188.2704,-96.2993,25.9834
-281.2500,40.6858,41.1359,-12.0527,38.2730,-8.7105,59.8112,-95.7057,-118.3855,-91.3630,-148.9906,72.2883,70.9764,-45.9678,-21.8035,-11.9229,-14.3232,-14.2292,94.9282,56.1676,-32.4937
-273.4375,52.5241,103.2481,76.0825,152.8958,-31.1611,73.8788,-118.6406,-67.5379,-114.4230,-208.5290,15.1915,49.3187,-31.6070,-8.9157,-108.6993,-74.1486,243.5404,140.1866,31.2200,-92.3809
-265.6250,-104.7636,26.7831,21.0753,137.8869,60.2330,164.7962,-27.7439,23.1511,-59.6476,-154.2214,-38.0242,-5.4777,-50.4055,-28.1805,-127.6338,-93.1216,189.1371,51.2853,83.1274,-111.4238
-257.8125,83.8736,40.5269,-77.0142,50.2282,-38.4877,138.6155,-126.9632,33.7299,-122.9881,-32.0346,12.6770,-29.3647,-187.2993,-53.5609,-42.6739,-45.2092,24.6575,62.2986,128.9235,-100.5776
-250.0000,-13.6725,25.0567,40.7126,109.7444,4.5955,109.2362,-10.3873,40.1092,-42.5410,-99.0656,-51.8066,-132.4397,-69.3929,-121.1497,-35.9243,-112.5041,243.9784,104.1147,29.5076,-93.9392
-242.1875,-13.3833,-41.3417,-34.7516,-14.7771,38.4679,68.6516,-13.0386,36.2710,-9.3129,-102.3058,21.5364,-134.6988,-72.6970,-13.9419,-2.3723,-78.9977,-3.9068,31.7380,98.8813,-60.5076
-234.3750,10.5619,-2.8528,-9.5520,40.7552,-47.0113,55.7128,-63.0384,-13.9256,-22.4330,-151.9231,48.5329,-109.2988,-48.3407,-27.0977,-15.1821,-54.8466,124.8863,90.0161,49.8920,-73.4352
-226.5625,-21.7804,-7.5992,65.3486,58.2510,64.2145,93.4693,47.6547,23.5648,-21.8598,-113.8450,15.2545,-144.1836,-10.2905,-100.5598,-51.2927,-53.9897,161.3550,19.9833,-19.3957,-72.6688
-218.7500,238.6495,45.4287,42.0108,-22.2579,-32.8170,31.9742,-123.9137,-37.2082,-83.5475,-27.0379,177.7453,-93.3083,-71.4851,-51.2826,-1.6625,-78.3975,-1.4141,-2.2850,-6.9362,-60.1591
-210.9375,179.9289,93.4462,128.5307,118.7720,-57.9941,80.3356,-75.6318,-27.1290,-72.3883,-89.3975,81.0889,-117.5734,13.1756,-114.1618,-64.1913,-140.9616,290.6714,113.2966,-102.6291,-85.8058
-203.1250,127.1436,24.8564,107.9570,33.2080,-5.2753,132.5948,-60.4735,24.8365,-94.3480,0.1331,26.3570,-137.9303,-81.2748,-25.1363,-85.8296,-88.6251,59.6423,93.7845,-52.4178,-70.5595
-195.3125,256.6805,85.8017,133.7038,61.8364,-91.2618,120.1550,-184.0239,-24.9050,-144.0156,-49.0660,89.9318,-111.9882,-56.4212,-74.8263,-61.1780,-138.0003,118.9530,151.5887,-99.9178,-83.0247
-187.5000,140.1276,47.9940,194.3625,58.5852,5.6654,69.6194,-49.6757,-1.7498,-83.7876,-99.3760,79.4157,-161.1443,3.3242,-162.6280,-74.6368,-151.4801,176.1509,103.2938,-113.5145,-96.5980
-179.6875,215.0371,-6.7177,125.4778,-85.9825,-26.9604,-1.4626,-83.8911,-72.1563,-81.1108,50.7449,159.3569,-192.8459,-103.4814,-122.9879,-34.6490,-37.5187,-66.1925,71.4638,-5.6660,-93.7299
-171.8750,107.8971,-34.4450,122.5532,-19.5512,-30.6278,31.4086,-15.1469,-40.6129,-12.4851,9.8005,11.2465,-305.5938,39.6735,-127.4099,-38.7146,-41.6124,141.4223,137.5800,-9.8794,-97.9204
-164.0625,38.7393,-98.5719,11.5791,-106.8611,40.6465,29.2279,56.5360,-6.1247,22.0806,81.8011,-24.8946,-269.3822,1.7682,-18.8755,32.1730,66.2451,-69.0426,31.6412,59.8665,-63.1666
-156.2500,126.7878,-79.1490,-82.1858,-120.9479,-52.8866,8.2505,-0.5907,-26.4403,1.8416,97.9824,-5.8319,-251.9606,-18.9265,69.8511,48.2495,119.2975,-88.2806,47.9169,75.8042,-47.2213
-148.4375,-86.7087,-103.5110,-48.4930,-32.6464,-19.9663,40.7291,104.7219,78.6969,107.0432,93.6093,-190.3098,-255.0809,49.8229,28.0306,43.7642,40.8054,83.9164,43.6377,1.1908,-51.8311
-140.6250,3.8752,-107.1693,-103.7426,-122.6999,-39.0117,21.2601,48.0631,58.8721,87.2746,222.2743,-132.7252,-199.1471,-79.3831,45.2559,61.3292,95.3613,-143.8291,-8.5778,88.6230,-34.3958
-132.8125,13.6513,-40.9608,-55.7780,-11.4599,-65.8501,-6.0031,20.6095,31.2466,22.7050,121.1191,-156.9415,-188.0142,4.6282,54.6654,-1.9097,68.1070,111.6435,105.4126,61.2506,-61.7656
-125.0000,-91.1553,-93.8611,-55.4115,-44.8909,7.7139,30.1237,56.5454,67.0082,21.5378,83.3631,-154.7446,-187.4756,4.0369,127.4743,-39.7491,67.2578,5.4928,33.7972,166.2844,-62.7370
-117.1875,57.2475,-49.6596,-85.8353,-70.6780,-60.5268,-1.5551,-11.3208,-2.0419,-9.4300,15.7874,-0.3428,-144.7391,-27.3408,132.4718,2.6079,35.5988,-58.4325,39.3950,206.5104,-57.5130
-109.3750,-69.6900,-36.7853,1.3970,39.0701,-11.1061,47.4156,73.4658,46.5588,38.2487,-83.1491,-58.2904,-167.3506,131.9303,-2.8830,-22.3915,-62.4152,165.2811,51.6455,148.3907,-45.6428
-101.5625,-0.5455,-66.1414,-39.3174,-83.9547,21.3579,6.4332,-4.7164,41.1966,-3.0322,22.9552,-23.1832,-133.9093,17.2478,28.8153,9.6581,-30.3826,-118.9577,13.9608,215.3266,-13.7286
-93.7500,52.5882,-7.1579,-21.0150,-3.9278,-35.1706,-13.5381,-24.8915,-15.1644,13.6881,-70.9586,-76.0929,-116.4750,34.5798,44.5041,26.7016,-50.3548,72.8291,29.2821,89.2560,-33.8215
-85.9375,-41.6768,-48.3483,-10.1221,-28.5223,84.9052,-40.9090,57.5224,-5.9266,23.0067,-24.2621,-63.4036,-105.4354,44.5043,90.7964,-37.6519,33.2812,48.1907,-101.8006,28.7913,-24.3163
-78.1250,186.2676,1.9221,5.9743,-104.7171,-9.8320,-173.0738,-74.8728,-65.4921,-73.4819,64.6155,26.4813,-89.1972,-14.3653,105.2824,-59.8084,84.1116,-42.2158,-121.6747,43.5233,-9.6150
-70.3125,73.8647,30.9429,107.7326,24.2243,18.0804,-146.5813,-47.6138,-75.4017,-46.3186,-55.8781,-88.9917,-97.3061,123.4145,-14.5861,-69.3163,38.5839,231.0309,-24.8965,-72.0856,-19.2660
-62.5000,66.8355,-40.9547,24.8406,-107.4522,81.3307,-120.7395,-22.0163,-86.9709,-20.8110,6.9689,-60.1123,-70.0667,76.5359,47.8987,-6.4720,137.4096,-94.3807,-104.7624,-46.3353,6.4305
-54.6875,17.6012,-31.6888,-28.2389,-45.7602,-9.6215,-101.0928,-39.6165,-104.7362,-38.5033,-47.4031,-37.4491,-49.0355,96.4701,103.1771,50.1648,157.0291,32.0376,-49.8177,-61.7929,25.9226
-46.8750,-125.9822,-68.0832,-33.6727,-12.2667,94.0766,-34.7921,26.4269,-38.8522,27.4500,-90.1254,-115.1385,-54.3524,162.0468,132.1140,42.4513,113.3069,62.0834,-90.2277,-67.5937,55.0635
-39.0625,32.5473,-58.5260,-89.0056,-109.7887,-0.1348,-91.3897,-67.4416,-95.8709,-30.5067,-1.7615,-22.7299,-36.5704,68.7294,148.1497,58.8353,165.6793,-131.7551,-107.5264,54.7063,71.3012
-31.2500,-17.6794,-18.5285,-33.0802,-2.9841,-18.0826,-73.7315,-13.0487,-78.6343,24.7962,-56.1534,-111.0895,-53.5436,160.6759,19.4269,40.4633,74.2965,96.6609,-21.5785,0.2611,52.7860
-23.4375,-32.5929,-53.5874,-85.8607,-88.1760,38.2694,-54.7813,5.6383,-23.1020,43.4030,35.7588,-126.1549,2.7830,32.9146,75.0171,59.3991,93.2222,-164.6426,-72.3285,90.1264,71.5700
-15.6250,61.7791,-2.5176,-97.3371,-39.7389,-83.0763,-30.5245,-44.3699,0.7328,-6.6873,22.9507,-98.9439,-8.5925,-52.5286,98.9076,83.6335,80.4474,-70.6227,21.2332,77.2790,58.6522
-7.8125,-95.3007,-42.5036,-42.2654,-6.5931,7.1284,24.2867,47.1708,55.1183,47.7734,40.6902,-115.1896,-26.4264,1.5790,42.3543,27.4189,24.2357,-20.0753,2.3400,22.9898,39.2884
-4000.0000,-35.1907,-51.6701,-46.2845,-47.6811,-28.9340,30.7161,-21.0172,39.1120,-1.2202,69.5282,-40.5110,-49.6558,-26.1679,58.2665,23.8358,31.7105,-96.7762,15.8111,55.5583,25.7271
-3992.1875,-30.3897,8.5556,33.4126,83.3920,-57.9731,76.5091,-12.7307,48.2095,-29.5729,-67.7471,-33.9512,-78.8550,54.7399,-6.3841,-4.2390,-33.2114,188.9162,93.3435,-77.8902,-2.3385
-3984.3750,39.1919,65.8264,69.9078,66.8657,-22.2043,40.0991,-49.6317,12.1165,-102.1205,-66.2183,1.3969,103.7543,-19.5451,31.7559,-77.5118,-32.3252,46.4044,-47.3316,-111.5402,-1.5980
-3976.5625,206.3303,179.3913,97.9438,121.1715,-102.8928,-41.7677,-240.9929,-106.4325,-220.1207,-110.1315,103.2956,241.9227,-64.2922,24.4519,-121.2285,-39.8768,142.4171,-55.4601,-153.6306,-9.3012
-3968.7500,-31.0897,132.7867,144.4357,184.6620,16.8726,-30.1845,-83.8919,-57.5304,-99.6627,-171.6073,2.6333,215.5419,19.4177,-37.4049,-110.4979,-101.9863,290.8981,-46.1317,-178.2777,-34.5527
-3960.9375,97.7384,75.3155,22.1709,-2.0140,41.8948,-115.3523,-21.5335,-68.3787,0.0523,-70.8240,64.2244,166.4188,-66.6322,24.9882,-10.5096,-38.8399,-38.4010,-92.5658,-82.6643,-45.5501
-3953.1250,105.0689,90.8489,68.4115,63.1751,14.4085,-105.0211,25.3206,-94.7312,46.2666,-96.5475,36.3159,65.8000,16.8202,-74.1193,-0.0215,-65.1873,177.8109,-13.4939,-144.5553,-72.0433
-3945.3125,11.3262,42.4459,79.6083,15.0924,98.8761,-92.7364,110.1365,-45.1298,132.4342,-83.3161,47.3509,77.1361,28.2254,-98.2808,-24.5835,-52.5784,46.9738,-72.4801,-60.4973,-59.5820
-3937.5000,92.0554,66.8433,16.2502,-4.5986,-0.2177,-118.0098,11.3910,-70.0822,70.0476,2.3818,94.8456,123.9316,-34.9394,-85.9887,24.3048,-77.5051,-13.4411,-25.0206,-12.9793,-47.6660
-3929.6875,-79.4626,51.8015,57.6482,84.6449,41.4416,-75.5384,126.4064,9.7142,112.4170,-64.1824,-48.9198,92.4894,43.6516,-116.9599,-7.0621,-108.6880,165.9171,15.1947,-76.7176,-42.0006
-3921.8750,-38.8394,-22.0018,-12.8021,-53.8209,45.2651,-70.9232,57.5857,14.6624,80.9455,15.4094,28.4619,59.2094,-26.6136,36.2161,-2.2736,7.2796,-110.5960,-84.4534,0.7051,-0.1826
-3914.0625,7.6973,-2.6354,0.6494,-8.0691,-15.0127,-93.4145,-2.3365,-7.4957,58.3788,-6.0971,4.7449,-38.1663,24.0148,14.2849,-24.5840,-14.8526,74.7919,33.7996,-20.9692,-22.4665
-3906.2500,-113.8342,-51.3635,20.0584,-28.6408,114.6717,-72.9529,127.7143,13.2990,114.7722,14.3372,-50.0346,-55.5938,80.5962,-38.7062,-77.9459,-31.0415,21.1403,-54.0022,33.3067,-38.8009
-3898.4375,71.8373,3.2695,-6.3416,-73.6511,52.5592,-134.2938,65.9636,-48.7092,53.3703,26.9802,-2.6042,-7.8166,-56.6402,-26.4934,-29.1031,53.9810,-74.3424,-77.6099,80.7998,-26.9336
-3890.6250,41.9019,58.2212,109.6581,68.7338,20.8472,-55.2362,107.6201,-42.3113,59.3740,-112.9872,-34.7820,-39.6335,22.5299,-130.8915,-59.8626,-12.5959,210.6008,-36.8116,-17.3116,-20.6677
-3882.8125,136.1584,32.2202,96.8605,-27.6158,45.3422,-29.9777,22.4903,-53.7089,10.5857,-12.7552,26.2389,-51.2420,-63.1024,-68.0945,-34.4223,50.0300,-11.2717,-81.8233,43.7857,4.7992
-3875.0000,215.0367,62.1187,106.6692,7.6351,-55.5718,-56.1301,-41.0457,-79.5103,-15.6068,-37.9206,35.8780,-114.2421,-90.1412,-19.6990,-23.3788,24.2582,135.4514,-38.2454,53.4836,-21.1336
-3867.1875,-3.6924,3.4625,135.8888,38.0433,11.9212,12.1142,63.8316,-10.9077,88.6080,-42.6915,-81.0834,-120.8374,-23.7669,-98.9169,-28.9399,18.8847,162.5894,-79.2741,83.5741,-26.6661
-3859.3750,20.9822,-9.4584,13.5035,-19.0998,-37.1833,0.7507,15.1099,-21.9096,41.2254,93.9467,-20.6339,-60.0207,-108.0030,-72.7414,33.9012,80.9243,10.0977,-88.9097,181.0751,-0.7951
-3851.5625,-39.9968,45.4714,61.4716,112.1660,-62.9387,12.7297,26.7435,-9.5659,16.2037,-40.0754,-9.8381,-12.8411,-24.8836,-60.2301,-27.9093,20.3078,264.9787,-8.1874,85.9176,-25.5782
-3843.7500,108.0118,46.8698,33.4415,3.1769,-16.6810,-14.2969,72.3998,0.7753,62.1945,6.8935,35.9563,-3.6467,-89.7642,-49.7238,-54.7155,29.6908,23.8515,-106.4811,95.7643,-52.3638
-3835.9375,169.4810,64.9464,23.8598,8.3827,-62.9795,-22.8866,27.5021,-44.4399,17.6364,-0.6890,26.2115,-12.9867,-25.2060,-94.7568,10.9324,-14.4729,49.1671,-44.3332,17.0650,-60.6979
-3828.1250,-91.9119,8.7986,41.4340,59.3745,65.8770,-4.3285,155.7651,11.4954,109.2326,19.8646,-139.3880,4.8305,66.5136,-112.6491,29.7260,-32.4957,137.6588,-95.0291,-31.4921,-4.8812
-3820.3125,-135.5979,-71.8315,-79.2933,-67.0172,17.4349,-51.0765,71.7312,1.1314,99.5291,157.1309,-77.2725,30.3554,-18.0821,-11.8470,93.2229,105.1878,-117.1747,-102.0298,67.6535,58.6363
-3812.5000,-78.3731,6.7154,-55.1104,29.8068,-31.1098,-98.9269,96.5961,-47.3363,124.7254,36.2862,-53.2532,54.7878,79.2223,-60.1588,44.6150,19.7656,113.9148,-44.1246,-14.3062,47.0502
-3804.6875,84.3909,64.4288,77.6336,-22.6681,-8.0910,-185.2293,121.0258,-59.2496,75.4758,-12.0156,42.3168,115.7821,66.0774,-107.9342,-4.4514,-29.1084,-4.4361,-161.6812,-60.7214,35.0108
-3796.8750,347.6284,156.3864,169.8355,-34.3174,-97.6277,-275.0948,-44.1027,-184.7237,-52.3312,-101.8628,135.3578,135.2390,48.3719,-88.2616,15.9236,-45.5261,10.6512,-107.7957,-76.6881,18.4222
-3789.0625,143.4645,119.5379,252.6544,45.8056,20.4386,-229.3614,76.3727,-138.5966,31.4544,-164.1247,-76.9986,70.3014,130.2724,-115.0020,25.8903,-72.3488,192.3722,-66.3025,-103.0677,-8.5690
-3781.2500,159.9543,43.8312,122.1258,-81.6571,74.1707,-174.9818,93.5029,-120.8213,85.8914,-35.7388,-24.6891,50.0167,36.8143,-23.1009,116.5035,-17.5218,-108.2733,-118.1615,-13.7945,9.0880
-3773.4375,207.2084,90.2828,98.3534,1.6844,13.6525,-88.8530,106.3872,-107.3063,63.0787,-94.6221,-11.6221,26.4877,87.1049,-82.4591,93.8661,-39.9538,41.8514,-72.2623,-35.7812,-13.5116
-3765.6250,59.5029,16.6390,91.6393,-32.7737,44.1975,-20.6691,137.3388,-38.7388,93.3219,-25.4770,-18.5107,20.0203,43.4500,-87.7790,52.2678,-8.3395,-69.9624,-147.3143,-5.7264,-19.0663
-3757.8125,155.7095,53.7352,82.8249,-30.3088,-75.3565,-65.5848,-17.8205,-83.2736,49.4580,40.5680,46.5175,48.4674,-39.3169,-58.2001,44.5691,-15.8147,-45.8912,-86.4754,22.2297,-26.7234
-3750.0000,37.9102,68.9292,145.0224,77.1925,-11.9096,-38.5000,82.0249,-18.8065,112.5988,-41.3950,-112.4523,0.9179,23.9280,-141.6378,33.8662,-99.2947,187.2140,7.3655,11.1758,-73.3868
-3742.1875,34.8633,14.3439,67.9708,-29.8768,95.2967,-3.6678,79.6292,-20.5872,73.4905,30.4000,-78.6656,35.1298,-16.0839,-69.3342,31.9093,8.9785,-98.9438,-30.0519,80.8656,-75.3022
-3734.3750,122.6778,90.3227,86.7679,64.2199,77.3484,52.0093,25.0783,-37.5221,-16.7693,-95.9575,-60.0128,53.2046,38.7488,-86.1879,-21.2083,-7.8977,57.7591,57.3885,-6.6036,-92.3724
-3726.5625,21.1814,49.7154,128.2793,61.4958,156.1147,94.3851,104.2450,4.2461,24.6764,-200.6336,-92.6593,21.9884,43.2955,-80.3610,-15.6292,-75.0815,26.1844,27.5255,-35.3900,-86.7478
-3718.7500,71.8569,9.7390,33.9499,-37.8480,61.0365,36.9003,10.5585,-88.8457,5.2646,-109.1647,33.8671,37.9337,-14.0143,-26.3858,74.0988,14.8869,-134.2558,-26.1992,16.9696,-69.9722
-3710.9375,-110.1666,26.4072,27.9351,110.8870,55.2573,68.7098,41.1696,-56.6430,0.1458,-113.4156,-46.3017,68.1953,89.9823,-68.1228,32.1189,10.1548,174.6382,38.3837,-57.3893,-74.8984
-3703.1250,-47.2429,18.4440,-18.1266,18.2873,83.4347,24.4713,33.7357,-27.4879,-45.0264,26.2786,18.4844,133.4195,44.9236,-38.9145,-11.9194,76.3756,-45.5201,-74.0904,7.1978,-45.8769
-3695.3125,99.2083,72.4965,24.3191,38.5762,16.0994,-6.2766,-71.2124,-57.8383,-75.7059,-2.5320,60.7877,102.1604,13.3600,-32.2147,-5.4622,10.0916,29.8344,37.9358,-55.7233,-39.3614
-3687.5000,-37.2989,20.7251,65.8313,24.9715,93.8256,-0.9750,44.9029,-15.1393,-33.3304,-33.3083,-8.8600,70.9613,90.8582,-63.4841,-36.9665,-21.1582,-2.7280,43.0137,-49.6094,-33.8010
-3679.6875,18.1017,-4.4777,-25.7584,-68.7051,77.4603,-91.7810,-46.0792,-31.5443,-50.0571,-12.1884,84.4114,90.6768,37.2498,31.1474,20.4260,-0.5039,-159.4079,27.9829,6.4011,-13.3414
-3671.8750,-15.9924,65.4753,50.1589,77.4693,42.5894,-89.0894,30.4385,-65.4561,-10.2888,-155.5869,49.1958,92.9004,112.1479,-76.7347,-13.6875,-108.3521,157.4407,65.4633,-61.1022,-10.3852
-3664.0625,-33.8399,14.7893,30.3360,-5.9201,96.9844,-107.1478,48.2160,-47.1145,7.7305,-100.7439,139.2421,73.3844,56.3012,-95.3818,4.4414,-89.9467,-2.4554,13.1851,-42.3674,7.8159
-3656.2500,63.0899,23.7901,-15.7303,8.4939,14.1307,-42.4710,-71.2618,-55.0348,-37.5067,-34.1553,130.0589,-9.3705,47.1948,-66.2818,-3.6871,-60.7912,58.4009,74.6523,-49.8907,-0.2377
-3648.4375,-47.1885,-8.2873,19.0234,60.7388,49.0874,103.0039,38.0719,90.8423,35.0587,2.2030,-56.3217,-85.3210,80.9039,-67.3989,-42.0256,-98.8459,123.0987,35.9278,-87.6285,-38.4986
-3640.6250,54.4457,-47.8896,-59.3159,-54.0123,-29.0430,136.3792,-39.6924,124.6148,-42.4791,146.4481,-23.7818,-125.3609,-33.4965,3.3769,-8.4721,8.9909,-127.3115,32.1027,15.5284,-41.8647
-3632.8125,-19.3984,-10.0405,10.8648,65.7668,-69.6788,133.2564,-5.9655,121.8761,-8.5269,70.1655,-101.7198,-128.8890,36.6068,-36.3649,-11.4294,-67.6913,147.8167,63.7895,-56.8342,-44.7388
-3625.0000,-142.4458,-8.2771,-47.1411,36.6726,57.4964,76.9402,84.5729,138.9424,8.2236,51.6672,-48.8539,108.3954,15.5147,-56.3236,5.3992,-50.5845,-46.2413,-93.7257,-38.4120,9.1798
-3617.1875,-80.9203,21.9208,-131.5990,20.8245,-27.7831,-8.8308,-37.3471,54.5557,-3.4817,77.7221,-23.4150,206.2421,-33.0383,43.2662,30.7671,-24.9273,-90.7540,-31.7004,-10.4482,71.6406
-3609.3750,-326.6450,-25.4079,-133.2905,101.5422,43.6893,64.1502,108.4890,127.9230,69.5597,3.5060,-245.2231,168.8422,38.1703,5.5880,66.8771,-24.5287,48.5263,4.0758,-8.7588,107.8427
-3601.5625,-301.1079,-79.0878,-292.7229,-24.3362,32.4218,16.3798,59.5733,115.5406,57.8441,102.5343,-221.7663,192.6998,-47.3746,67.1538,128.2333,147.1192,-207.9514,-39.9006,88.1746,169.2900
-3593.7500,-219.3029,-4.8728,-242.8937,75.0296,-64.5988,-6.1396,0.8966,56.3992,35.3696,7.7938,-208.0422,169.8170,3.3335,44.9582,105.8301,88.0149,49.8452,42.3806,66.3467,146.9809
-3585.9375,-284.1038,-42.0266,-198.6505,44.2236,51.7951,0.7443,117.6338,64.6546,79.2960,52.4323,-200.9100,140.3419,-26.5452,53.1494,39.8117,59.3101,-16.9315,13.0601,108.8981,118.0635
-3578.1250,-152.5217,-30.5240,-171.0493,-14.3366,6.5397,-44.0323,34.7132,-16.7534,70.5669,81.4090,-100.4066,131.2260,-73.0825,44.6907,31.1373,124.9605,-97.3631,4.0859,100.7873,109.4893
-3570.3125,-266.2829,-5.1039,-31.7754,82.0866,108.9377,-88.1587,138.4452,12.4818,137.4812,-34.9929,-181.2482,123.7682,65.0406,-71.1381,-11.9021,7.2494,139.9058,-3.2279,23.3020,102.5572
-3562.5000,-167.0946,-25.5253,-114.5399,-34.9748,137.3013,-133.3381,130.1341,-30.3355,129.3429,67.5500,-80.1307,152.2648,-15.8833,-42.0288,17.0017,36.4847,-113.8759,-44.5990,52.7573,131.5714
-3554.6875,-26.7390,46.7101,-114.1478,25.6422,27.8138,-132.3759,56.9668,-103.0106,56.3506,-3.7713,-42.8397,152.9142,20.3487,-40.7788,54.0512,1.8691,26.5131,26.1823,-14.6519,132.7305
-3546.8750,-62.4974,43.7753,-40.8465,42.2445,63.2392,-95.5154,93.7188,-65.7832,56.2644,-76.2046,-43.6423,152.4686,19.4971,-4.6356,17.9909,-33.8569,24.8330,25.8611,-50.1774,132.7832
-3539.0625,85.0182,68.6592,-33.2934,10.2910,-112.0796,-50.4140,-81.2824,-94.3106,-44.5767,-30.3836,72.8240,160.2822,-120.1144,39.7517,26.1755,10.6690,-74.6062,33.7805,28.5462,141.0799
-3531.2500,-71.5443,72.8377,23.1828,143.3114,-128.5026,42.5840,-23.3854,-35.9450,-23.5211,-82.6838,-52.7970,107.0027,-62.8184,-47.9846,10.2485,-77.9213,188.8994,87.6033,48.1443,125.2683
-3523.4375,-156.2385,-14.8285,-66.4681,23.5076,-71.0646,63.4285,33.3553,57.2671,33.3688,11.8440,-32.5361,127.5873,-79.6653,9.1206,31.1519,-19.6705,-107.7335,4.2645,140.5664,146.3019
-3515.6250,-130.2476,-4.6531,-112.4523,50.5283,-152.9917,91.9169,-48.2746,49.1152,-48.1136,4.0051,-4.5916,118.8294,-51.8611,73.8689,22.6944,8.2225,-47.6961,64.5875,132.6170,137.9782
-3507.8125,-229.1095,-45.9665,-140.2661,54.5538,-70.7612,138.5604,-2.7451,96.1066,-38.4497,50.2833,-69.4871,91.2245,-6.8905,83.7483,-40.6283,54.2534,-41.4622,37.0683,105.7915,110.7926
-3500.0000,-82.3869,-57.5652,-205.5175,-73.0572,-99.9734,72.7435,-67.6720,67.6369,-67.2478,169.0974,10.2005,99.1757,-109.3769,129.1779,2.5874,136.8333,-282.6876,8.0884,217.4931,82.1489
-3492.1875,-111.5871,-14.8149,-123.6951,49.2902,-56.1366,117.9694,13.4401,77.1978,13.9954,31.9351,-91.0446,34.1824,8.1989,27.6421,-25.1593,72.4461,2.1758,84.1696,153.2175,17.5463
-3484.3750,-196.2022,-95.1628,-137.2657,-27.7342,78.3253,141.7988,74.1748,100.3572,37.8442,19.3646,-68.6894,-16.2109,-5.6103,51.6935,-1.3117,95.6443,-152.3486,35.8461,140.5318,4.5375
-3476.5625,-135.7549,-81.6504,-184.7897,-24.6872,30.8443,131.6753,-10.0475,17.5509,-9.2578,9.8372,-5.2670,-26.5453,-16.3683,41.7955,-11.4145,122.8905,-127.8133,166.5694,95.8840,-5.4262
-3468.7500,-275.1571,-121.3624,-145.1486,13.7297,107.5157,172.7059,103.8877,94.8935,31.7924,14.4327,-75.6864,-96.7259,60.0436,9.0317,-44.3763,90.2723,-22.0816,168.4497,63.3578,-38.2455
-3460.9375,-130.1403,-143.1078,-250.1001,-119.8057,112.5935,104.1331,36.2189,100.6311,37.2332,130.4245,76.3104,-91.5028,-45.1435,124.6641,-1.9432,96.0552,-263.9551,67.7261,104.2220,-32.6704
-3453.1250,-103.9066,-62.5702,-148.8351,-2.8642,66.8635,58.7625,27.7433,55.5614,64.8582,12.5909,67.5209,-63.0711,19.8759,42.4868,26.6788,-21.9710,7.4121,130.2113,-8.7371,-40.9033
-3445.3125,-159.3352,-109.2152,-99.2067,-67.8282,154.4957,36.7486,151.6193,69.8427,115.8217,27.0900,81.0877,-86.2803,-40.7436,20.6466,3.6364,29.3404,-120.8435,73.0487,5.6349,-26.7895
-3437.5000,-4.4385,-84.4753,-84.2725,-88.1833,59.4247,15.0266,19.7778,12.4138,-15.9259,42.8801,169.9728,-143.1764,-63.0667,72.1019,18.8838,44.9474,-106.7938,123.1887,-13.6966,-11.3787
-3429.6875,-155.6821,-83.3095,15.5288,20.3946,121.2120,77.1538,81.7950,38.8281,10.1764,-78.5085,121.7060,-154.2217,36.4795,61.3947,-66.0372,-39.6122,92.1554,183.1883,-95.2049,-22.1290
-3421.8750,-23.3611,-68.0593,-66.1135,-68.6175,150.5625,69.8276,1.3646,31.7907,-71.1780,-11.3554,224.9999,-52.7114,-45.4229,128.2302,-73.4177,63.3784,-161.3502,104.7302,-67.1773,-29.3353
-3414.0625,106.3321,19.0841,34.6122,23.0017,66.2604,59.8518,-119.7293,-14.9064,-154.1891,-94.8643,214.6620,-62.8498,54.0298,81.4047,-83.4538,53.7032,72.5265,130.6256,-146.8215,-39.1977
-3406.2500,-10.9754,-31.9417,20.3554,-5.6311,88.9750,82.8761,-96.8060,81.3982,-131.1957,-34.3894,163.3263,-39.9916,40.5033,104.5603,-60.4997,77.0119,-10.5648,-22.4834,-123.4842,-16.0665
-3398.4375,24.2903,-40.8819,-53.3442,-46.2172,-57.7617,47.4443,-168.3411,9.2402,-130.6617,3.6286,273.5555,-2.5780,-33.4742,142.2717,-22.9999,77.8713,-82.1057,-58.0414,-87.6101,-15.3902
-3390.6250,-142.2402,-57.0603,-4.8252,51.9438,-46.3001,58.2140,-47.6813,21.2735,-45.9374,-95.1798,211.9872,-64.9635,87.7668,80.1737,-48.3122,-20.0803,173.6051,-12.3880,-147.5646,-40.5229
-3382.8125,-61.9666,-94.3386,-31.4994,-86.9464,0.9713,-4.2147,-37.2187,-4.8984,-35.4190,-10.2029,332.2292,-54.5444,-12.1852,127.8663,-37.8329,63.7607,-98.8763,-107.9411,-66.7288,-29.8605
-3375.0000,74.1344,-9.1420,37.6344,-29.9128,-77.9614,-45.8517,-115.9676,-46.2815,-114.1087,-51.4468,327.2905,-22.3235,-17.3322,123.3516,-79.5639,96.3842,36.4699,-77.6810,-141.1087,-34.4054
-3367.1875,28.7350,-13.1081,98.2859,-31.7325,-16.3810,-57.9837,-54.2066,-21.1703,-89.3048,-26.2136,241.8532,2.3968,44.0353,74.3236,-91.8113,121.4920,25.3568,-192.9131,-150.0099,-9.4595
-3359.3750,170.0137,1.6869,61.5961,-92.0739,-90.1461,-94.4654,-126.8101,-94.4156,-88.8660,47.6653,314.0854,1.7730,-30.9567,74.9512,-55.4222,158.2485,-80.1072,-191.4994,-113.2722,27.1300
-3351.5625,24.9051,4.3280,129.5296,26.6639,-95.3114,-63.3434,-22.8213,-63.0722,-20.8432,-67.8800,161.9246,-76.2499,74.6643,-3.8356,-60.4432,43.5912,196.0790,-91.4757,-117.9609,22.3127
-3343.7500,0.9988,-47.9304,68.6723,-55.6336,-10.2642,-51.0203,-10.6351,-50.5311,-45.6312,18.7635,173.9678,-64.0710,49.4999,82.5726,-11.2769,56.1332,-4.5200,-149.2593,-71.4599,34.6898
-3335.9375,126.0211,21.1293,89.7200,-14.3012,-63.3274,-66.7957,-99.5668,-66.0997,-133.5298,3.2924,231.9265,-43.9864,33.2390,29.8763,-27.2229,77.5671,84.7994,-60.1313,-121.0723,18.9578
-3328.1250,65.6890,35.7802,100.4313,34.9742,22.2691,-17.9108,-14.8388,-17.0194,-49.7765,-95.5540,132.5280,-32.2534,80.6478,-106.1852,-52.5304,15.6278,128.8139,-14.3448,-146.0623,-6.1324
-3320.3125,262.8203,74.0608,86.5973,-36.8026,8.3206,-68.5780,-102.6631,-104.4947,-100.5795,-34.9530,192.5942,-9.0731,-43.4934,-82.7928,-66.3920,2.1303,-25.7289,-28.1149,-90.6117,-19.7776
-3312.5000,181.0632,128.1532,187.8743,124.0157,-1.5319,-4.1522,-75.3950,-76.8771,-110.2900,-155.2711,34.7696,-18.7931,19.4797,-92.3053,-113.1627,-118.2769,278.8751,65.2254,-137.0828,-66.3327
-3304.6875,61.7040,43.7470,100.5632,53.5872,58.0320,18.6754,-14.7178,-52.8652,-49.6031,-94.2030,-14.6526,-32.1128,-30.1317,4.5749,-89.5452,-57.2846,123.8973,-18.0413,-44.1708,-79.4967
-3296.8750,88.8718,54.6641,17.7557,80.9611,-23.9073,47.0007,-97.5549,-61.3632,-58.4264,-102.6409,-60.5577,-40.9287,-39.2430,32.9517,-24.4317,7.2031,184.4265,79.1923,-52.7753,-88.1656
-3289.0625,-10.0183,61.0383,61.9117,140.4862,19.1105,54.2802,19.5575,-16.9147,-51.3074,-132.1514,-16.5127,-33.7925,40.6177,-106.7260,-91.3731,-58.3728,296.9481,121.3822,-151.4588,-80.8908
-3281.2500,205.0089,83.3469,102.9652,38.7266,-49.9652,21.4597,-160.4308,-12.5700,-194.2927,-53.7693,244.4468,-29.7627,-102.6191,-102.4967,-124.4200,-54.0552,89.3637,90.4670,-112.2530,-76.7187
-3273.4375,318.3141,148.9958,224.2847,119.3158,-112.7961,32.8891,-223.1776,-38.9910,-221.0397,-153.1601,181.6627,-92.4938,-18.5921,-128.0217,-113.2221,-116.5018,307.0670,167.8225,-209.8189,-139.3032
-3265.6250,343.1150,75.4904,215.1214,-11.5417,-12.1117,23.8234,-121.4203,-10.9149,-156.2937,-125.0685,209.3779,-175.7273,-28.0459,-101.0574,-86.5396,-52.4617,84.3020,51.6776,-184.9089,-185.3929
-3257.8125,478.2354,92.1914,210.2617,-52.2658,-91.1293,19.0493,-237.3839,-52.5551,-235.2640,-56.6882,351.4174,-180.6457,-33.1976,-105.7896,-91.5586,-57.1286,8.8446,116.8235,-225.7132,-190.1816
-3250.0000,296.4067,84.0292,277.4667,62.7785,-23.0951,123.3168,-132.2952,52.8423,-167.1810,-99.2846,235.5000,-223.5108,70.7262,-258.4839,-170.5287,-135.7603,213.4856,147.0246,-266.4891,-195.9230
-3242.1875,341.0810,46.0012,176.1696,-37.6209,22.4514,132.0863,-123.6934,61.7336,-121.5918,-16.3894,207.0777,-214.8818,-67.8449,-175.6755,-89.0047,-90.8965,-24.3747,49.7262,-186.7690,-187.1681
-3234.3750,365.8133,113.4535,239.9262,50.7869,-61.9530,84.9061,-134.0495,51.6635,-95.9593,-63.4575,85.7139,-188.2106,-41.3587,-185.8156,-99.4342,-136.9925,175.8451,109.4876,-197.0114,-197.3682
-3226.5625,177.6841,56.2617,225.8427,55.1347,-2.1977,107.8831,-75.2447,110.7427,-73.1802,-3.3936,35.5034,-165.3985,-18.7081,-162.8087,-112.7253,-113.9490,163.2478,27.4045,-139.1205,-174.4241
-3218.7500,282.8314,95.0154,150.0089,33.9170,-114.1962,33.1115,-187.2045,36.0614,-111.1604,31.9200,143.5592,-93.3362,-93.8067,-127.5487,-114.7683,-78.6603,126.8980,27.5673,-68.9907,-139.2339
-3210.9375,178.5904,129.2342,262.7901,154.1145,-39.6029,34.9374,-74.5711,0.9772,-72.5459,-150.1860,35.2154,-91.6820,54.7184,-162.6973,-150.2208,-150.7843,375.2006,99.3371,-137.2866,-137.4474
-3203.1250,224.8485,72.0924,199.0808,11.8342,44.4964,8.2675,-64.4418,11.3892,-99.4416,-65.8006,82.3781,-81.5294,-9.2452,-42.3436,-66.1837,-103.4180,68.0140,3.6055,-92.0940,-127.1617
-3195.3125,251.4306,73.5458,153.6763,32.0951,-1.1065,36.8972,-110.0290,-33.9109,-108.0480,-111.1320,73.8464,-127.0791,-17.9018,-13.6918,-38.8495,-111.7621,129.1522,66.1827,-100.6133,-135.5811
-3187.5000,102.0058,26.6521,144.2833,18.0277,62.2996,63.5339,26.3983,29.7881,-44.6536,-121.4803,26.3038,-100.6359,8.4636,-60.0499,-48.5224,-122.1246,50.3290,-13.2316,-74.1522,-109.0096
-3179.6875,206.8334,46.8377,31.1304,-38.3219,-50.0373,24.4218,-85.9313,27.7264,-47.0141,-12.5779,98.0210,-28.9402,-103.9202,-62.1502,-13.9500,-50.2384,-91.2521,-13.4006,30.5528,-74.1915
-3171.8750,87.4670,61.4449,127.7832,85.6832,-64.5780,47.1119,-26.4706,50.4589,11.4179,-137.8967,9.5331,-80.4529,28.5131,-113.4492,-28.5890,-101.5639,210.0114,42.2454,-18.9620,-88.5794
-3164.0625,39.4038,-0.9746,76.7426,-10.6070,-4.8099,-2.8909,-3.7069,36.4945,-1.8566,-77.9159,32.3404,-57.6734,-21.7469,19.5506,-5.9382,-4.6000,21.5831,-39.8114,3.8197,-65.6722
-3156.2500,54.7597,53.9489,55.1058,51.1601,-63.6469,-61.4926,-99.5541,-21.0767,-60.7394,-99.5375,84.5558,31.4999,-6.6027,34.9509,-27.8919,-63.2410,142.5680,10.5381,-16.0038,-50.3682
-3148.4375,-8.1467,49.4434,99.2327,83.3990,53.2712,-17.3408,18.3522,-13.8981,-16.8742,-92.4240,-18.4881,1.4151,36.3178,-30.9073,-95.1010,-130.1462,184.3440,-17.3536,-9.0982,-43.3185
-3140.6250,184.3055,52.7433,42.7065,-38.2354,69.5434,-74.8401,-2.4005,-34.3784,-37.6653,-38.9643,70.8268,-19.3208,-57.4057,22.5872,-41.9545,-113.7044,-45.5381,-71.8987,77.1434,-26.9198
-3132.8125,84.3179,67.4342,123.7291,76.0762,40.3603,-29.7923,41.3899,-26.3194,7.0857,-104.9755,-31.3055,-48.5099,97.4407,-6.3713,-71.2615,-178.7214,206.1715,5.1161,-22.0878,-55.9738
-3125.0000,-21.2811,-3.7236,86.1548,-10.6709,150.5844,-67.3387,77.5825,-26.8659,79.2377,5.4015,4.9540,-12.3089,59.7042,-43.9195,-35.1746,-143.3457,29.3014,-101.4695,-22.9331,-56.6292
-3117.1875,76.6355,42.6997,77.0771,5.2233,31.3058,-113.3853,-4.7365,-72.9279,-3.1186,69.2689,68.7220,15.3837,14.4712,-89.9593,-7.5876,-78.4756,91.9379,-73.5499,-66.2868,-28.7877
-3109.3750,2.2565,46.9764,107.7196,62.2001,61.7328,-82.7275,62.6453,-42.2971,27.2211,-10.1805,-10.8167,8.7684,117.9575,-132.3095,-51.3116,-84.9260,193.3220,-42.9251,-139.9555,1.7472
-3101.5625,173.5341,55.5052,29.0110,-46.4648,18.8216,-123.4170,-17.3237,-84.0212,-15.7984,-15.9785,130.3013,39.7971,39.1001,-65.0019,-20.3901,-89.7251,-57.6498,-46.6649,-39.9753,32.9321
-3093.7500,168.5612,136.9116,135.0556,100.6666,-59.3463,-92.3607,-21.5541,-125.0032,-20.0720,-166.0353,89.1729,72.5669,71.0113,-105.9433,-24.7219,-203.7835,218.1636,53.3536,-81.2559,-8.1321
-3085.9375,63.7248,86.7375,136.2516,61.0474,52.6507,-54.1523,16.3761,-87.8367,-19.1895,-128.9524,54.1844,109.4761,36.0938,-30.7388,-60.9005,-129.7102,78.1461,-15.4784,-45.3982,-7.0426
-3078.1250,115.5115,64.9566,80.0409,13.4925,-41.7643,-37.3499,-114.1064,-107.0833,-76.7121,-2.2675,70.8009,89.9744,-58.2220,23.0811,-44.4675,-40.0360,-10.2755,1.2889,-28.9447,9.6469
-3070.3125,-64.3585,41.4401,76.1851,93.5824,-8.8333,32.8051,-8.2391,-37.9845,-6.8809,-43.2492,-44.2466,85.8164,48.8300,-54.7481,-11.6914,-81.0217,125.6971,32.4167,-103.1593,5.6795
-3062.5000,39.4630,23.6463,0.0247,-13.6929,-11.1923,30.6611,-47.6694,-40.1879,27.6448,28.4708,27.4053,119.3581,-64.4133,17.1339,59.7805,-9.3068,-122.6322,-75.7645,0.3218,3.4115
-3054.6875,58.8447,78.5986,21.4136,70.5453,-101.0063,-21.9355,10.4377,-55.8507,48.7118,-61.2643,11.6030,103.4424,-43.0937,-35.4337,79.8067,-62.0524,107.6162,-20.3898,-15.6503,-12.3063
-3046.8750,-66.0994,17.3333,37.5073,41.3806,-11.1078,-42.8250,136.2576,-39.8133,100.4881,-82.3103,-46.5137,46.2133,9.9443,-56.3067,59.5278,-46.1063,88.5941,-75.3149,0.0728,3.6743
-3039.0625,97.3161,31.4358,-14.0615,-30.9934,-62.8598,-93.3663,11.4198,-90.4382,12.6148,-59.9946,49.7269,31.3273,-78.6778,3.1793,81.5967,13.1959,-30.0836,-52.8945,57.1482,26.0062
-3031.2500,-7.1581,75.1528,24.4773,87.7133,-24.5152,-91.8125,86.6832,-88.9707,87.8393,-167.5891,14.0520,106.5275,70.8141,-69.2324,82.7646,-131.4139,183.3856,-51.3670,-12.6917,27.4365
-3023.4375,76.1101,74.0552,-0.2335,-1.0962,24.5884,-115.5129,61.7067,-112.7598,99.8207,-82.4347,63.1124,191.4686,-27.9330,17.1173,94.6907,-119.2770,-51.3995,-214.0963,35.2158,39.6204
-3015.6250,169.3322,127.6058,61.9988,48.3410,-61.3636,-127.2667,-24.3280,-161.6087,13.7484,-58.3381,51.1240,179.3513,-2.7184,5.4254,45.5722,-95.1923,77.7762,-119.8667,-12.9353,27.7589
-3007.8125,-14.1105,65.1238,91.5821,58.6028,42.0409,-62.6658,41.9914,-23.1089,6.0270,-28.9025,-67.5171,134.5763,26.8659,-1.9191,-36.1978,-66.7629,70.3312,-93.2853,-20.7558,20.2488
-3000.0000,64.3591,59.5662,-11.9400,-12.9440,12.3457,-55.1624,-61.7988,-15.7164,-23.8032,52.4435,-23.2475,178.6873,-112.6477,42.6435,7.9367,-22.4370,-132.2242,-50.8083,57.3249,27.6383
-2992.1875,9.7778,91.5460,42.4957,96.9420,29.5949,-37.7045,29.3531,1.6207,30.3098,-114.2747,-80.0309,121.7324,14.8120,-50.8466,-11.9761,-151.1780,128.2057,0.6309,2.3439,7.9753
-2984.3750,-2.8657,2.8160,-8.1183,-32.4678,125.8045,-51.2917,52.4635,24.9069,16.3782,-18.0452,-19.8749,34.7195,1.2376,-27.3812,11.0645,-127.9779,-94.4197,-46.9895,25.3135,31.2643
-2976.5625,44.6593,18.7277,3.4069,-22.9757,27.1560,-111.7350,-47.2859,-37.6646,-9.4043,-43.6626,-8.5670,8.8577,49.8143,-15.7513,22.2600,-116.6275,-12.9001,70.5386,36.4312,42.7066
-2968.7500,-121.4889,-15.3665,14.2823,13.8505,110.8642,-65.8269,110.3277,10.1137,75.1736,-105.9387,-143.9273,19.3349,133.7688,-4.7727,32.8022,-106.9348,31.9970,9.4261,44.8898,16.5020
-2960.9375,-15.6483,-35.3506,-57.8565,-90.8388,76.5768,-63.9201,75.9367,-62.1145,76.7522,-31.2102,-70.2853,57.8065,25.7254,107.2215,107.3546,-32.2367,-212.1221,-94.6870,116.3557,18.3019
-2953.1250,-101.8158,-20.6368,-36.9983,-8.2995,23.2901,-80.0186,59.5452,-41.3569,96.3316,-47.4923,-122.6486,78.2687,82.6995,128.2162,90.9100,-48.5521,-17.2060,-40.7896,29.8183,2.1029
-2945.3125,-156.2025,-74.0817,-94.3469,-75.2146,38.8200,-27.3143,74.9693,48.2024,111.7204,79.0194,-107.2210,93.5181,25.4834,107.0077,33.2648,40.9232,-212.4806,-60.0963,10.0820,17.7054
-2937.5000,31.6281,-1.4255,-46.5067,-42.8759,-96.4570,-15.4074,-61.4181,22.9518,13.3030,90.7328,-22.5948,67.9584,-36.5348,46.0154,44.8270,52.5970,-129.5614,22.7963,-14.4491,29.5094
-2929.6875,-95.7561,-6.4968,40.1391,45.8606,-10.9278,34.3035,25.0001,72.4965,-11.3112,-7.7621,-119.1963,6.1911,50.2655,-15.1787,20.1906,-8.9329,58.1930,70.4969,-72.1883,42.1125
-2921.8750,-49.1050,-50.3643,-57.1787,-68.0653,1.6620,-26.9350,-36.5254,48.0873,-35.8674,78.8010,-34.7557,18.4710,-10.8849,108.6838,69.6103,77.5843,-140.0188,-57.7588,46.1304,54.7695
-2914.0625,-68.7584,-10.8046,-76.8070,23.7194,-55.0574,-9.4775,-19.3567,28.3697,18.2801,22.0602,-90.6196,35.4475,43.6788,89.2523,49.7356,57.7902,51.4892,-7.3066,-9.8543,35.1297
-2906.2500,-132.3329,-80.9599,-143.3438,-58.9840,25.3355,34.0744,97.9283,71.7500,61.5379,102.4182,-157.3975,4.5156,13.3551,95.9254,55.9655,101.0914,-152.8887,-70.7593,32.2565,41.5919
