Time,Fp1,Fp2,F3,F4,C3,C4,P3,P4,O1,O2,F7,F8,T7,T8,P7,P8,Fz,Cz,Pz,ref
-4000.0000,22.6902,54.6083,42.1627,10.7359,-20.6372,-52.5226,-14.9022,-15.1891,8.2790,-23.9063,-43.9030,18.9623,-2.6699,9.5281,-17.0133,9.7100,29.0063,-57.2382,-3.3562,26.6426
-3992.1875,-42.7156,60.9542,-24.7724,-18.4907,-52.4348,-10.8604,27.1090,26.6557,13.1411,16.6633,-75.4302,25.7094,-34.3654,15.4092,-48.2581,15.1383,-34.9872,18.3067,72.7167,32.1355
-3984.3750,-48.3224,-83.9024,-103.9083,-23.9118,-58.4380,19.6120,57.9295,57.2997,6.7981,47.0250,-46.1573,-27.1765,33.7353,10.1015,18.2881,46.3651,-40.1819,46.6615,31.5914,26.4203
-3976.5625,-99.6329,-135.4570,-82.7402,-5.0261,-1.1341,76.3921,4.0412,40.2366,26.7435,-43.3202,-63.5827,-26.1225,90.1411,30.1097,112.1224,29.8955,-91.0659,64.3163,14.7543,9.9980
-3968.7500,-218.4965,-7.5518,-133.1214,87.3169,-52.3722,134.6273,99.5988,25.6210,-24.8757,-131.2211,-114.5591,69.2134,39.9952,53.5810,60.3958,52.8686,-69.4997,119.4296,35.3710,-3.9845
-3960.9375,-105.8045,-34.0928,-124.9508,95.2185,28.9491,104.4229,33.7154,-41.4492,-53.9620,-124.5800,-107.9847,56.5205,10.3951,61.6048,67.2096,60.3855,-26.3787,91.0994,7.5317,3.5740
-3953.1250,-160.3034,-88.8308,-146.9676,73.9246,-30.9209,118.0245,84.6210,9.2714,-40.2662,-74.1475,-204.6060,56.2363,-12.4025,113.4340,117.8133,110.6994,-81.4458,104.5720,56.4786,17.9303
-3945.3125,-230.9682,17.2775,-218.1362,74.4935,-30.9424,117.4876,157.3822,45.8418,-4.7410,-38.8645,-242.3870,76.6068,-12.3579,77.1274,153.2620,110.8614,-80.6577,103.9134,-14.7228,18.1319
-3937.5000,-94.5431,14.4842,-185.2041,-33.8259,39.1488,77.0574,80.2405,4.5112,27.8703,-7.4778,-136.0748,12.6105,-16.2107,36.9339,185.8048,71.1241,-154.7583,64.3655,-18.8383,14.4237
-3929.6875,-147.5255,-38.7085,-241.6648,-88.5386,17.8555,92.2369,205.6985,19.7783,6.0627,7.5001,-121.1544,8.0440,-0.4619,90.3443,127.9369,49.9825,-207.2602,79.4275,-3.3507,30.3042
-3921.8750,-183.4175,-2.7913,-204.0283,-158.1389,127.6604,54.5323,131.2623,19.1494,5.3305,6.5674,-86.1315,-11.9952,109.3864,90.8642,90.1524,86.9383,-172.6542,43.6054,-73.7690,30.2755
-3914.0625,-223.3547,28.0776,-172.4295,-127.7810,122.4285,85.7856,89.7619,13.4625,-36.4652,0.5736,-56.1520,11.5560,68.1839,86.3469,84.3126,117.8450,-177.0909,72.7418,-9.2511,25.1870
-3906.2500,-207.8904,-95.6554,-155.4336,-76.0144,139.6068,101.4476,142.6676,-6.8278,-56.8736,-56.0186,-39.7729,3.2672,48.3732,104.2391,26.8606,98.1493,-55.1313,87.2911,-29.3280,5.4852
-3898.4375,-42.2671,-176.2370,-17.2872,-51.0894,202.9447,54.2642,21.7212,-90.9717,-32.1489,-140.4633,22.7599,-40.5277,110.7156,57.2822,15.5460,-22.3993,39.9854,40.9998,-40.2650,-5.0764
-3890.6250,-85.1372,-147.3161,-23.6393,-22.6587,121.7898,46.5870,124.2663,-98.6217,-39.9358,-148.4128,14.8017,-18.2325,103.5585,50.8273,7.7242,-29.4535,-1.3973,68.2195,-11.7029,-12.1466
-3882.8125,-109.9221,-30.2922,-11.9006,22.8750,133.7355,21.0210,61.9197,-124.1647,-65.6406,-101.2617,-11.0534,42.0099,78.4992,100.4829,-18.0075,-17.4044,80.3215,77.5516,-108.0372,-37.1282
-3875.0000,-108.0050,-28.5708,28.5383,25.1098,172.3914,22.1569,27.2680,-123.0102,-100.6536,-63.4075,26.8006,47.4992,44.1513,103.8432,-53.0390,-51.6576,81.7397,42.5834,-36.6805,-71.4192
-3867.1875,-54.2478,-114.0068,49.8226,44.1947,192.8988,42.1476,121.4720,-103.0011,-189.8213,-80.6973,46.5095,17.8442,64.6485,51.0647,-70.2210,-68.0606,100.9950,61.4717,-53.4649,-87.8668
-3859.3750,116.3512,-118.5950,116.9497,39.1352,185.2557,34.0028,-33.4741,-147.1354,-198.1494,-89.1323,75.0636,-3.4976,93.9848,44.1530,-41.5630,-75.6072,96.1001,54.2223,-95.4071,-58.4690
-3851.5625,60.4954,2.3642,-15.3765,54.6309,53.1620,85.4231,-55.8818,-59.7204,-257.9375,-38.0161,-57.8250,75.5890,-1.1321,133.8002,-64.3610,13.3947,76.7582,68.5354,-9.8034,-43.5296
-3843.7500,21.1350,139.8169,-17.2100,85.6392,13.5715,82.3588,-95.7814,-62.8017,-224.2507,-41.3981,-61.2056,134.4459,-4.7483,167.9605,-141.6683,9.8915,142.9155,28.3652,-49.7035,-83.1022
-3835.9375,39.7313,194.2240,41.9146,68.6066,34.9461,66.2526,-148.7382,-115.9406,-204.6389,-94.8355,32.3723,137.0526,16.5904,153.0798,-121.0346,-78.6667,127.0368,11.1549,2.3278,-135.7367
-3828.1250,51.4721,171.7841,19.1924,80.7356,11.4809,79.3074,-25.5453,-65.9343,-192.8991,-119.1292,8.1041,122.2762,30.0791,93.3529,-108.2608,-139.0772,139.3060,-12.8893,49.5116,-159.2343
-3820.3125,130.6547,40.7984,101.9245,55.3198,57.4734,13.8286,-89.8976,-94.4775,-184.7260,-0.9776,53.2874,39.4282,39.0191,30.0807,-100.0534,-130.0428,149.0353,-40.4656,58.1343,-150.2977
-3812.5000,-0.5573,-19.5771,111.2635,64.5116,66.0760,21.9572,-45.6579,23.5749,-176.9671,117.7680,24.0830,40.2716,-63.4371,39.4115,-129.2519,-48.4187,17.3620,-32.4325,101.3447,-141.7742
-3804.6875,-49.9213,2.8923,23.4393,51.5607,50.5266,42.9508,-24.5609,81.4842,-45.3761,175.3655,7.7369,46.9865,-78.0514,61.6027,-145.6063,-62.9398,39.5320,-46.5398,16.4076,-120.4106
-3796.8750,83.5711,-3.8002,51.4640,9.4641,77.8337,-4.2016,-107.6214,34.2399,91.0595,127.8120,34.2501,-3.7991,-14.8155,15.6507,-119.1120,-72.6092,32.5608,-89.7905,-26.6910,-93.2019
-3789.0625,111.9559,25.3961,8.3887,38.2725,-2.9556,-11.4486,-4.7842,26.8892,46.3914,157.1589,26.6742,14.2186,-21.6782,9.6027,-163.7172,-79.3797,61.4843,-62.1332,-33.8853,-100.1010
-3781.2500,168.9834,48.2457,67.9559,60.7400,55.9052,-26.0320,-93.2872,-61.8055,-42.6413,141.1650,84.7443,17.0235,-35.8969,-4.7876,-178.6753,-57.5006,119.0524,-75.8102,-82.4395,-78.3612
-3773.4375,147.1686,27.2450,81.6769,74.3626,68.9276,22.5444,-117.6535,-49.3518,-176.5423,43.3149,96.9761,49.6638,-96.9638,45.9798,-166.4898,-44.4761,97.7687,6.6752,0.1465,-65.4785
-3765.6250,71.9885,22.8967,114.0354,104.6469,63.5989,90.7837,-86.3606,-55.2425,-293.8081,-110.8958,127.8731,84.2653,-28.3837,78.4037,-172.6653,-49.8070,163.1284,71.8261,-40.6096,-70.9536
-3757.8125,103.8004,90.5547,184.3927,136.9393,97.2731,87.0363,-164.0699,-96.1390,-298.0806,-224.1090,123.7859,111.5888,78.1935,75.8302,-176.8436,-90.1392,160.4961,67.9854,-79.3796,-74.4364
-3750.0000,89.6640,77.2596,133.8013,123.2881,83.0025,109.3467,-30.7328,-73.9888,-239.3110,-166.2761,71.7632,97.6503,-10.1874,25.3113,-191.9642,-104.4282,146.9129,88.2053,10.8998,-88.8782
-3742.1875,156.0314,39.4560,167.7013,85.1414,116.2314,68.1672,-34.8815,-78.3396,-171.0504,-97.9446,67.2421,46.8022,-50.0669,-14.7089,-123.5901,-108.2141,214.8304,12.9417,-63.3230,-92.8307
-3734.3750,119.0061,3.2319,129.2001,48.5950,77.0747,28.5935,-74.4354,-81.0955,-64.1949,-27.0223,64.3377,25.5516,-89.3336,20.8725,-15.6215,-73.4011,72.3522,46.2873,-30.9555,-95.1901
-3726.5625,-9.9197,-54.8913,66.7929,61.1553,13.0200,75.1327,9.1126,2.2508,-18.2604,18.9939,-36.4539,39.6093,-116.5034,68.5547,-43.5587,10.5024,84.9660,92.7561,-54.4871,-48.4572
-3718.7500,26.8474,-52.2981,104.0766,27.4270,49.6723,38.3859,-102.6404,-35.7036,54.3504,-56.2908,-0.5355,-5.6870,-42.9715,-4.0618,-44.8006,10.0973,122.2837,92.9457,-54.3356,-12.0345
-3710.9375,10.4649,-67.8569,88.2129,11.5487,-2.8106,57.5032,-8.5520,-52.8162,36.7995,-36.7299,55.2512,-16.2249,-22.5838,-19.8310,-25.1888,-43.4667,35.4478,75.9989,-0.3397,-28.7721
-3703.1250,86.0220,-96.4749,94.2902,-17.3682,2.6599,26.5851,-3.5023,-47.9789,4.1877,-69.2190,96.9950,-28.2601,-17.2516,22.3547,16.3694,-38.0851,77.5545,46.0198,-66.3915,-23.5692
-3695.3125,82.2309,-100.4476,89.0175,-20.6264,-3.2113,20.3290,-46.8092,-54.4902,-39.7875,-75.0606,90.4013,-19.5868,-23.2698,54.1925,46.5717,-7.0568,38.3161,76.7061,-35.8083,7.2753
-3687.5000,-99.0654,1.0787,11.2411,44.6205,28.4185,87.5852,58.3852,-23.4996,-82.2753,-81.4001,11.3168,43.4633,8.2079,13.5363,-33.7313,-49.5316,33.5676,141.9156,-5.7212,1.6081
-3679.6875,-58.4804,112.4983,54.3626,14.7702,107.9546,56.7554,-9.5132,-91.6014,-77.8697,-112.8356,17.1393,50.6062,14.5794,-16.2127,8.8623,-117.1076,74.7180,75.0427,-1.7395,-29.1690
-3671.8750,-24.2869,77.4932,19.0866,14.5235,72.0940,20.5366,64.1811,-91.1023,-114.8616,-113.6777,16.5818,54.0785,-21.4468,21.6387,45.0576,-116.0880,3.4644,109.7849,66.8380,-65.3511
-3664.0625,12.0187,-96.4224,-52.1025,52.3837,73.3248,58.4327,101.9835,-16.5021,-114.7701,-2.4223,-18.8557,10.0694,-20.3785,23.5859,9.3549,-40.9728,5.3100,110.6457,-37.4853,-64.4419
-3656.2500,-19.8699,-198.5256,-13.4883,55.0477,111.3631,59.1329,-7.4204,-16.1117,-77.8938,71.6354,18.5243,-50.0071,17.4970,-47.6704,46.4477,-40.0610,8.9592,113.3148,-0.0269,-26.7443
-3648.4375,-164.0153,-131.8676,-19.1225,51.4677,68.1572,89.5933,59.9217,14.0292,-157.2764,27.4440,48.6665,-6.3500,-25.8758,-16.1784,39.2845,27.5917,5.3456,143.7445,-4.8199,3.6942
-3640.6250,-80.2272,-10.2691,-3.8193,66.8412,9.8969,31.0229,-109.7809,-8.8702,-106.7197,-68.7790,135.7609,13.5454,25.7008,-0.7331,90.0593,42.2023,20.6779,87.1437,-130.6736,18.0791
-3632.8125,15.5604,85.3058,-87.5197,92.2192,-111.3550,20.4656,-156.4963,17.2340,-46.1683,-6.9897,161.8703,34.6971,15.2743,-10.2873,78.8352,-5.1853,-94.9928,76.5601,-107.5292,7.4581
-3625.0000,71.6897,143.2211,-98.8819,79.9475,-123.2607,-28.7291,-96.8514,4.6956,-59.2681,127.1581,149.3448,16.6648,76.1902,-58.4995,64.9661,19.7669,-72.3210,62.3432,-227.0224,-41.8228
-3617.1875,154.0693,50.3931,25.0070,56.9231,0.0927,-52.6715,-157.9525,-19.5957,-84.1171,65.5505,272.0858,-18.1869,126.3579,-44.4728,40.3538,-4.0438,-60.3981,38.3794,-251.2700,-65.8621
-3609.3750,182.1030,8.2065,55.5388,85.5422,-79.9030,-22.9545,-91.4037,-27.2362,-129.3151,-15.4090,374.4932,-16.1811,119.1809,-50.7961,-40.6054,-11.2101,-31.8430,67.0796,-222.8682,-73.2559
-3601.5625,268.0832,59.9460,108.0054,66.1151,-64.9560,-8.2703,-186.8971,-12.9182,-115.5736,-75.4086,352.8553,-15.1307,96.9591,-72.1661,-26.6194,-70.4242,18.6550,45.7548,-244.5209,-58.7043
-3593.7500,233.7663,26.3716,71.1674,67.3908,-102.2980,-8.8741,-186.6994,23.1036,-80.1392,-39.7029,277.9327,7.9386,59.4377,2.1661,9.0650,-107.9372,-49.1553,47.1466,-103.4865,-22.4580
-3585.9375,158.1400,-83.5073,-6.9807,27.3600,-144.9422,22.2329,-83.7884,53.8319,-13.0050,-9.2931,234.7242,-35.3848,53.5998,-2.8013,2.4547,-39.7543,-19.2753,76.2537,-74.7437,-28.5180
-3578.1250,191.4116,-155.4796,64.7648,26.2336,-109.6887,56.2504,-194.9796,14.4589,58.0215,-48.9791,232.4298,-61.7028,88.6530,-3.8725,-0.2503,-41.6793,-20.4945,74.2758,-77.1075,-30.6843
-3570.3125,8.5263,-20.6073,21.3570,54.9606,-153.5810,86.1274,-93.3279,43.9377,12.8898,-93.8116,189.0025,9.9812,44.5657,-10.0988,-82.1002,-48.7634,-26.8711,103.1585,21.3789,-38.0074
-3562.5000,-72.0693,180.5523,48.2341,44.9945,-90.1728,75.3177,-104.3633,32.7225,-35.9494,5.6598,140.8850,67.9455,-2.2196,-20.0263,-130.6486,-59.5485,33.0449,56.3590,-24.8341,-49.0371
-3554.6875,-9.2126,139.1505,41.5593,3.4832,-60.3088,30.9692,-111.9578,97.9571,-7.3404,144.5868,96.2286,35.3561,-83.5589,-26.5077,-101.7476,-29.8830,-43.5837,14.0215,72.3902,-56.6214
-3546.8750,22.6893,-4.2015,-33.0708,-68.9733,-98.4044,29.6820,-3.4991,206.2421,63.3178,252.5662,57.6338,-31.0718,-158.8636,-27.9390,-140.8002,41.8336,-46.1643,10.7500,139.6709,-95.1636
-3539.0625,128.3466,-143.8120,4.0466,-103.6799,-25.7490,-7.8449,-40.2842,205.2764,61.7285,251.2970,93.7996,-106.8754,-122.4194,-63.6254,-68.1035,4.2926,-45.9978,-59.7606,138.6996,-95.9645
-3531.2500,-26.0761,-157.5391,-83.9353,-116.4911,-40.1857,13.5298,90.8285,300.2055,82.0456,308.9248,3.8871,-102.9614,-101.0689,-78.4218,-47.4961,-10.3645,-128.9423,-38.3645,229.6262,-74.8707
-3523.4375,-121.8676,-181.6200,-149.2803,-106.6554,-31.9747,58.5655,98.6063,344.7926,163.0056,390.2089,-61.3638,-87.8217,-93.0723,-32.5729,-77.2338,34.6254,-154.2498,-28.2990,204.2025,-30.1263
-3515.6250,-206.9193,-160.9643,-200.8790,-156.0677,-49.0065,78.3557,45.1239,327.1281,291.7107,372.2476,-41.8513,-103.6841,-73.3159,-48.9772,-21.2144,17.3641,-202.8040,26.5337,293.5153,-10.6331
-3507.8125,-274.3687,-122.7211,-269.8839,-187.8809,-44.4374,119.7518,196.2444,331.0632,258.0127,338.8846,-74.7161,-96.5987,-105.9558,-80.7875,-54.5901,21.6915,-200.7649,63.9847,331.4345,-43.5472
-3500.0000,-200.0642,-116.7276,-191.1432,-182.9435,34.8803,125.9054,128.1238,262.7498,263.0598,270.2716,-105.8142,-100.2078,-62.8442,-73.8600,-49.2125,63.7593,-160.9734,69.2017,159.0971,-74.7203
-3492.1875,-273.5071,-190.4891,-157.1505,-114.7572,68.4565,159.3184,161.2486,258.6863,258.3586,228.9109,-146.6431,-73.7235,-103.4825,-39.6969,-90.5833,97.0696,-163.9385,135.6794,190.0053,-78.6502
-3484.3750,-181.5104,-307.8186,-134.7199,-92.1279,53.4771,144.1964,218.8400,243.0862,242.1113,214.0042,-125.0209,-107.9225,-118.6846,-54.0890,-69.4964,81.8319,-105.4694,122.6271,211.3760,-57.1310
-3476.5625,-55.5182,-287.1565,-114.2989,-177.5037,110.4985,53.0838,128.4315,189.4863,297.8669,233.1041,-68.3874,-169.5863,-98.8827,-107.4879,23.5970,64.5949,-156.0029,36.5856,230.7396,-37.6137
-3468.7500,-117.0228,-101.9987,-141.3832,-201.3807,10.0250,26.4733,211.5233,161.3872,269.1263,167.7112,-59.2307,-129.4073,-126.5761,-134.4013,32.1937,73.8475,-111.0536,-23.9450,239.6076,-28.6016
-3460.9375,-34.8805,-19.2056,-55.8336,-155.6082,-15.8005,-36.4729,74.2745,134.9439,169.0332,177.9843,-48.4113,-90.2874,-115.6176,-85.6746,5.4411,121.7444,-63.4596,-47.8063,74.1200,-17.9435
-3453.1250,-37.9886,-91.6820,-59.5395,-52.0913,-93.8711,33.3403,33.7685,167.2591,90.6987,173.0147,-89.8264,-49.7259,-154.9081,-15.2093,37.4461,191.3846,-101.1218,-14.9034,71.3834,14.4600
-3445.3125,-175.0582,-122.1208,-58.2048,22.4699,-127.8949,71.2166,34.3287,167.6330,16.4194,173.1028,-124.1841,-12.4324,-117.1594,23.3021,0.5090,229.0719,-27.7477,23.0599,38.7017,51.9090
-3437.5000,-87.4226,-34.8661,-1.1777,40.7270,-73.2200,16.7999,-93.4123,76.7059,-2.1565,118.9004,-69.8285,-2.1826,-62.7118,6.5074,19.2782,174.4583,26.3182,-30.2683,-15.2916,34.0595
-3429.6875,19.7171,2.8881,2.3404,77.4783,-70.0482,-17.1194,19.3360,5.2800,-0.2260,10.2060,-66.9577,14.1455,-96.7630,-26.7989,-15.4361,103.3463,62.8672,-28.0861,21.2210,-0.2858
-3421.8750,49.3435,-1.8641,34.3429,107.7250,-1.3897,-59.5285,50.5986,-74.6354,30.2088,-141.9786,1.4220,4.3320,-28.3190,-68.6156,15.3643,24.7335,128.9079,-69.3849,-19.7665,-6.1288
-3414.0625,47.8704,67.2649,106.2443,106.8657,-2.8305,-61.0364,11.7549,-112.6490,-9.4488,-218.2468,36.7171,43.4787,-29.9695,-32.5404,13.0748,-13.9811,56.8427,0.2229,-21.8626,-8.0704
-3406.2500,9.4925,99.4733,66.2353,104.0985,-43.1801,9.5627,45.0150,-80.5546,-50.9960,-185.4037,-40.8780,73.8350,-70.5276,1.6290,8.8901,19.4010,53.8627,66.9429,-61.8464,-11.9119
-3398.4375,86.7096,72.2832,147.8157,41.9191,38.0652,-20.2316,-22.1211,-145.8564,-7.9285,-252.9534,3.1402,15.6107,10.5143,-64.6116,52.3063,-47.6242,61.4789,39.2670,-55.2326,-5.1530
-3390.6250,38.6884,59.8392,133.1372,64.4828,-13.9391,1.7244,73.4867,-161.4102,-24.0980,-341.7558,24.9273,25.2949,-4.6880,-79.1186,73.4872,-62.9091,83.8318,61.3505,2.1343,16.3581
-3382.8125,97.4680,14.1763,120.2501,88.8505,9.8493,-11.5114,59.9118,-175.1582,-38.4655,-318.7607,48.5294,6.2681,-18.0958,-90.8381,59.4715,-2.3994,142.9826,50.2543,-80.6952,39.6683
-3375.0000,214.2466,-45.4997,95.3720,65.2167,20.6439,-37.7411,33.3293,-201.9099,8.1716,-308.7622,59.1448,-15.6597,-44.5032,-43.5642,106.4576,8.1071,84.1373,26.1690,-104.5303,49.9761
-3367.1875,113.6167,66.4108,64.0914,71.1736,-47.9590,-32.3610,75.3548,-160.0537,-96.5905,-230.1604,27.3693,29.0162,-39.3140,-37.7011,111.0536,13.2104,19.8774,31.6945,-99.7522,54.8815
-3359.3750,63.3876,121.7135,121.1987,20.5265,8.8423,-48.5736,-52.2060,-140.7956,-77.9536,-211.1574,84.0083,18.7786,17.2775,-53.4510,130.0533,-40.2957,4.0155,15.6321,-151.5812,74.1866
-3351.5625,-24.7272,105.1069,102.4076,3.9736,-10.2538,-30.6844,38.3220,-123.4453,-61.2073,-194.0549,101.7638,12.0571,-2.0263,-71.1158,147.1633,-22.7049,-81.7531,-1.3274,-63.3113,91.5939
-3343.7500,-17.1460,7.1912,-0.6932,12.1151,-38.6628,-23.0897,45.5625,-79.3908,-18.7471,-114.2373,35.2284,-8.1562,5.3591,-27.0916,189.9840,20.5869,-39.8359,6.4196,-92.3346,98.7039
-3335.9375,36.3355,-77.8368,-16.9030,-3.8526,-19.1725,-75.5932,-8.2959,-59.4317,36.6358,-21.5040,55.6020,-45.3993,25.6420,-7.1819,209.7161,3.7765,-90.0247,-9.9305,-73.4655,81.7175
-3328.1250,-21.8364,3.4767,-75.7719,8.5203,-78.3371,-26.7490,116.1971,-11.1141,-24.6159,-45.4047,32.3345,-7.1879,2.2726,-29.9369,185.8099,-55.6899,-112.8809,2.0719,-28.2388,58.0849
-3320.3125,5.2786,67.0944,-48.3562,1.1851,-51.2090,-35.6060,32.0008,-20.4903,1.4383,-201.9955,59.3771,14.6839,66.2101,-2.4053,212.2171,-101.8610,-85.4491,-40.6185,-70.7140,84.7580
-3312.5000,-26.1610,0.1568,-80.4969,-29.7110,-83.6290,-32.0130,35.2433,-17.4167,40.9537,-126.1329,62.8890,-17.9355,69.6062,1.5601,215.0855,-25.5811,-152.5744,-36.8542,1.2640,87.8846
-3304.6875,-82.0538,-21.2572,-102.0999,-51.0669,-33.5112,-53.8572,124.0532,33.2161,55.0325,-2.7192,40.9636,-36.5428,121.5510,-19.9351,119.5129,-11.7526,-139.1627,-58.5234,-21.1957,65.5627
-3296.8750,-69.4296,-8.1852,-53.2023,-71.9313,53.1035,-77.1950,25.3588,8.3517,29.6146,9.2007,53.5445,-41.4296,169.9919,-6.9436,131.4431,-35.4279,-126.2480,-115.6820,-44.1564,77.7439
-3289.0625,-90.8998,6.7800,-74.4081,-22.8974,-6.3817,-26.6310,76.5598,22.3897,-65.9002,-12.9734,31.0348,9.4730,148.3284,44.9301,71.2797,-21.2151,-181.4413,-64.9308,-64.2070,91.8281
-3281.2500,55.0611,84.1935,-68.1777,-16.4175,-0.4191,-56.6099,-27.7733,-81.1186,-97.9601,-80.6943,73.9738,17.0563,190.1162,51.2452,76.5742,-15.5589,-69.1950,-94.7187,-164.8034,97.3671
-3273.4375,98.6165,127.1935,-60.3504,26.6496,-28.8482,-48.9872,-93.5069,-111.0283,-91.4044,-110.8128,118.5257,28.9414,124.5078,22.1504,120.4834,-8.3066,-61.3563,-50.9044,-192.8039,104.5136
-3265.6250,35.3582,64.3749,-52.3272,105.9026,-94.0776,-5.1641,-49.0304,-103.7327,-121.6378,-103.7266,89.2893,34.8672,95.0986,-5.7593,90.6102,35.1447,15.6776,-8.8781,-185.5945,111.8672
-3257.8125,82.8067,6.2514,-3.6092,117.8437,-44.6085,-64.6421,-146.8487,-127.7406,-36.1572,-90.9327,139.7630,-1.9631,108.3911,-28.9889,103.4497,11.2939,63.4131,-66.1453,-174.6911,87.9229
-3250.0000,-4.4765,61.3805,-55.6502,31.0302,-60.8949,-80.8715,-17.4235,-107.5024,56.5876,1.1147,86.5007,-8.0875,91.9356,-44.9849,49.5522,-41.3129,-23.6185,-82.1636,-51.5364,71.2310
-3242.1875,-39.1712,202.0974,-91.1085,-38.1885,-24.5953,-154.4992,-17.3860,-70.6571,92.9464,74.7766,12.8437,10.5521,55.0816,-44.3901,12.2635,-41.3184,-23.0637,-117.5765,-16.7805,71.1450
-3234.3750,-58.9789,181.6893,-113.6739,-93.5174,-10.3954,-177.2269,-39.4569,-20.9059,106.2258,235.3480,-9.9020,-10.4695,-4.8643,-29.9059,25.8898,8.5801,-148.6126,-103.0893,31.8754,84.9678
-3226.5625,-70.0911,100.9726,-198.5410,-104.1668,-57.5016,-151.2570,59.1769,40.5526,94.2241,334.6266,-56.9426,-26.5098,-16.1082,-4.7344,14.2333,34.1728,-159.4712,-77.8973,20.2438,73.4934
-3218.7500,26.7975,23.2526,-131.4076,-145.8315,8.3921,-158.2881,-22.1749,33.0127,196.2317,289.9221,-99.9845,-72.6601,13.6518,-11.5818,43.5841,-10.2345,-131.3305,-120.7030,12.6082,66.0199
-3210.9375,-77.3117,-46.4806,-168.2764,-74.5106,-28.7095,-121.3233,51.4732,69.4715,232.2616,252.2279,-137.0232,-56.5381,-23.5946,-11.4429,42.9551,-10.6446,-131.2002,-84.5093,82.9807,65.5486
-3203.1250,-122.1339,-19.9306,-139.8629,-48.9008,-37.5139,-93.0549,42.4449,23.2367,222.6104,205.8403,-108.7629,-32.6439,4.4484,16.9859,33.6387,17.2426,-34.7765,-93.0131,2.6692,56.3796
-3195.3125,-73.5541,30.0172,-52.0554,-34.8945,15.0868,-114.3910,-16.1830,-71.5995,200.3744,73.8511,-21.0922,-27.3140,56.9004,-4.2029,85.7271,32.5195,-55.9518,-80.1183,-19.2410,34.6131
-3187.5000,-139.8235,34.1122,-84.1014,-30.7431,18.8295,-74.5754,134.3340,-32.2808,129.2946,40.0169,-54.2588,-17.1602,97.5062,-37.2532,51.9692,35.9385,-86.9846,-41.0691,20.0065,38.0019
-3179.6875,-75.1970,-42.9044,-55.2520,-106.7014,121.4669,-81.8597,89.7604,-76.0585,157.1276,-5.9100,-25.5221,-71.0359,126.0110,-44.4121,80.1211,27.2562,-92.1144,-47.1207,12.1534,66.2986
-3171.8750,-31.2676,-67.6401,-80.0998,-166.3739,96.4064,-34.8484,101.4801,-65.5407,131.2812,5.4624,-13.4750,-98.9827,100.8181,-69.2839,91.5944,-35.1278,-116.9491,-1.8739,92.6067,40.9030
-3164.0625,40.8519,4.8143,-113.7580,-128.8585,98.5346,-31.6356,140.4147,-63.8176,60.6459,45.0321,-84.2273,-62.7029,66.8259,-66.9701,20.2835,-32.3111,-46.5940,0.5766,58.2724,6.7137
-3156.2500,97.4742,-44.2320,-91.9129,-106.8537,120.1609,-46.9237,51.8426,-42.5992,117.5198,103.1005,-62.4658,-87.3153,51.3402,-81.1652,78.4825,-47.9958,-94.7396,-83.4789,44.4300,28.0326
-3148.4375,-47.6422,-84.0389,-173.8177,-112.6125,1.0285,-17.9663,79.5105,58.8688,108.6575,167.4262,-69.4400,-67.3713,-30.8959,-16.1222,68.9421,16.5689,-169.6462,16.7099,73.8453,92.6144
-3140.6250,-145.4147,-75.5052,-166.3786,-139.0338,-64.7655,25.3380,-23.4648,101.6918,114.1605,210.1143,-100.0604,-72.5650,-23.7811,-8.7436,74.7637,96.4806,-126.2050,60.2476,10.6124,135.5569
-3132.8125,-207.3841,-102.1717,-120.1435,-95.6699,-91.7572,34.4330,-50.6429,111.3063,123.4849,218.6092,-89.8792,-72.8900,-14.8633,-35.5850,121.4072,69.1876,-117.9679,68.5817,89.1828,108.3044
-3125.0000,-202.3671,-95.8438,-110.9220,-89.3190,-47.7523,6.5243,30.1933,119.9256,130.8290,264.1089,-117.6947,-64.6096,-6.9521,-28.4406,56.0668,40.8957,-42.7438,74.9174,58.7697,43.0592
-3117.1875,-64.8056,-98.9889,-39.1595,-92.4339,25.8038,43.1664,-44.4127,82.1043,92.7439,189.1680,-82.9602,-64.5242,-7.4851,-28.7556,18.2857,-33.8401,-44.9783,72.8017,55.9059,5.3759
-3109.3750,-71.6945,-70.6021,-45.8545,-64.0210,-18.0912,73.3491,59.5327,74.8402,12.2349,71.7840,-52.6709,-33.5070,22.5393,-35.5323,-99.9270,-41.0338,-15.6735,101.2317,118.6075,-1.7477
-3101.5625,104.9737,1.3276,28.9894,7.9270,56.5553,0.0798,-13.9545,1.1258,-61.7090,-39.0506,22.1655,-14.5443,96.1178,-71.7782,-135.5825,-113.6813,90.1819,32.2110,48.8713,-1.3149
-3093.7500,170.8555,-73.5469,97.0367,3.0663,50.4080,31.0073,-57.2527,-5.3940,-68.4388,-81.6870,16.2092,-36.1870,16.8991,-76.8404,-32.0321,-119.1335,16.2408,63.3879,79.3350,29.3231
-3085.9375,50.7751,-53.3792,6.1301,-11.7529,-3.6908,87.9817,36.5114,51.1347,-49.1082,-26.2791,-37.6897,-15.2346,-73.2701,-56.8686,-49.4140,-63.5480,0.3459,118.6198,63.8713,49.0127
-3078.1250,65.8263,67.9361,23.3673,-66.4293,13.3648,68.1046,-93.5600,30.8176,4.3845,-46.7216,-57.4376,-16.6645,-20.2883,-76.7612,-32.6343,-47.8193,16.5993,99.0043,8.5598,28.8556
-3070.3125,-74.6660,103.6984,-47.9489,-30.6637,-58.1343,70.6743,-18.1920,105.9531,43.3378,29.2955,-91.7285,-0.0557,-17.8569,-111.2115,-30.3945,-45.6411,-53.7114,99.8326,78.6994,-5.8419
-3062.5000,-96.8052,46.8079,-32.9264,-52.5597,-43.2997,11.5909,-3.4727,83.4454,93.6480,190.6726,-76.6700,-34.3343,33.9245,-97.3192,-15.8021,-68.1090,-4.6784,8.0084,56.1977,-28.1794
-3054.6875,-42.0263,-74.1854,-13.0031,-67.5710,13.4342,-5.5997,-20.8641,102.8328,149.8805,246.9520,-19.7087,-87.3046,16.6058,-113.5418,3.7042,-48.6807,-55.7403,-42.9262,110.5976,-8.6068
-3046.8750,-9.2883,-146.2441,-54.1311,-69.6496,-27.8884,-9.8458,85.7012,135.1709,145.0796,205.1815,-60.7928,-93.6807,-24.7649,-80.8274,-0.8276,20.6957,-57.8600,-44.9122,142.9621,23.9277
-3039.0625,3.2434,-133.5154,-4.4607,-90.9426,21.5818,-70.2944,-12.9274,74.3090,194.0909,107.2142,-48.0692,-117.9957,24.6774,-104.3263,48.4480,32.8776,25.8232,-67.1043,85.1220,36.2739
-3031.2500,-52.7762,21.6525,48.6674,-7.8059,-36.4997,-55.3056,2.8783,52.8871,98.5774,11.7015,-31.8827,-25.7544,3.5882,-89.3909,-46.8022,11.5167,4.9499,-52.8625,98.7327,15.0831
-3023.4375,49.8929,53.5103,82.4812,60.0188,-39.8936,-21.6288,-0.6000,12.1714,-89.2098,-102.0900,38.9902,17.8502,74.1916,-56.7700,-123.3308,7.8642,71.7636,-55.9289,-9.9476,11.6065
-3015.6250,127.4088,-44.7757,126.1353,32.6824,-32.4411,22.8907,-103.2345,-54.6909,-154.1235,-205.0169,119.7003,-8.0696,117.6423,-12.3086,-80.0024,15.0637,79.4303,-13.1527,32.2212,18.9954
-3007.8125,37.1624,-29.8184,70.0282,-23.4169,-52.7399,76.6549,23.3807,-1.2975,-138.7690,-79.6806,63.6569,-2.6103,24.3389,4.3918,-100.4111,31.5135,59.3372,2.8749,46.6633,-1.3557
-3000.0000,57.8536,62.0714,128.8566,-1.5788,6.9068,25.3722,-65.0382,-52.9400,-117.4535,-20.3882,-24.4394,28.9657,9.9893,27.0283,-77.8602,16.9146,115.1885,-47.1458,-37.9281,-15.7540
-2992.1875,15.6970,90.0971,158.8317,26.3928,-0.2895,18.2344,-72.3068,-60.4260,-87.9694,-27.9400,-68.3852,59.7288,-34.2022,56.7967,-48.1461,9.4591,108.1838,-54.0263,-10.3530,-22.9998
-2984.3750,56.1174,-9.2753,127.3967,66.9523,5.1106,-13.3037,-29.9589,-55.2969,-45.8701,-22.8811,-62.7419,23.3942,-28.8007,25.1481,-42.8260,51.5976,184.7668,-83.3049,-40.1527,-17.6384
-2976.5625,139.0352,3.8415,103.4537,45.0059,18.0130,-37.3401,-91.1078,-42.6659,-33.2495,-10.3213,24.3963,1.3741,-52.8963,0.9885,-67.0056,100.2285,126.8582,-70.0870,-63.4471,-4.7678
-2968.7500,30.4092,0.4024,26.9579,111.4936,-59.6347,-3.9311,-20.8060,-9.5817,-37.1641,-14.3130,-53.0156,44.5819,-93.5415,34.2656,-70.7224,170.3070,88.3908,32.5709,-31.2775,-8.4406
-2960.9375,-48.1767,-146.9898,92.5044,139.0143,6.7629,-11.4778,-28.4428,-54.4453,-8.0110,-96.2457,-60.3827,35.1708,-27.1412,99.5824,-41.3775,88.4439,186.9711,-9.7324,-39.0522,-16.0577
-2953.1250,-64.4039,11.9615,113.4047,52.8717,63.5134,-64.6922,-7.7381,-107.9645,12.5172,-148.8194,-39.4017,53.4131,-43.3839,83.2350,-20.6633,-1.0684,135.9067,-25.7048,14.5251,-32.3156
-2945.3125,-37.1833,214.3563,67.7514,9.1661,18.7093,-36.4666,93.4279,-117.0354,3.5131,-193.9340,-84.9725,92.2859,-52.1733,38.3277,7.5126,-47.1297,127.2867,35.7609,-29.4380,-41.1142
-2937.5000,196.4818,96.1914,55.5489,-3.1023,6.3548,25.1993,-28.9562,-92.6577,26.9690,-206.5928,-23.0912,38.5124,-101.5051,25.8727,31.1463,-59.7357,79.1229,58.6648,-6.9597,-53.4531
-2929.6875,207.9894,-67.1460,32.1993,43.4651,-54.1437,37.7112,57.5038,-42.4330,40.2869,-158.3939,-46.3596,2.6024,-124.9810,2.2648,7.6438,-46.4917,55.8063,70.4125,110.3767,-76.9302
-2921.8750,117.0398,-123.9483,10.3916,-12.4278,32.9025,51.7698,71.5276,-28.6533,17.1710,-107.6404,-69.0852,-22.6328,-110.9043,16.1931,-14.3024,-32.6933,141.0373,49.7079,89.2717,-62.8489
-2914.0625,-9.8051,-109.6352,60.6844,-33.2375,47.0562,65.9141,12.6430,22.2246,-4.8280,-93.7892,-54.7097,-12.3239,-133.7203,30.2046,-37.1378,18.2066,84.3667,29.0904,138.2648,-48.6625
-2906.2500,-104.4003,7.9240,37.2263,-21.8116,23.4544,79.3005,99.0177,34.3572,-65.5616,-80.6921,-41.0884,50.3638,-83.2881,79.4598,-60.7061,-5.6432,60.9396,40.7121,79.5232,-72.2185
-2898.4375,29.4037,106.8677,104.1631,-64.0005,53.2543,35.0820,17.8013,-46.1100,-35.8767,-125.1958,61.9277,30.5759,19.5453,35.1123,-30.8619,-50.0932,53.9167,-1.2739,-33.8145,-79.3638
-2890.6250,102.4601,4.0488,68.3479,-25.9549,-18.6906,37.1042,55.8314,-8.3314,-34.9122,-124.4509,27.1878,0.5398,21.6375,-0.0001,7.2480,-49.2939,-12.8598,36.9780,4.1122,-41.2489
-2882.8125,142.3950,-130.8728,35.4179,13.9778,-15.7393,77.0236,22.7841,-5.6428,-69.0311,-84.8009,-6.6634,-27.3038,-12.3709,2.7756,47.2681,-46.5964,62.2548,77.1274,-62.0404,-1.2292
-2875.0000,136.3296,-172.8055,64.4835,6.9003,13.2190,31.9393,-22.2649,-13.9528,-40.1424,-92.1470,59.4884,-48.1425,-57.3768,-5.4577,76.2975,-54.9018,21.3748,71.2695,-33.1917,27.7981
-2867.1875,62.9739,69.9533,24.2513,39.5117,-64.1245,-8.4500,11.3830,-17.5626,-43.5476,-59.7943,19.3497,45.6750,-60.6777,27.9990,-0.9693,-58.5113,18.1877,33.1030,-71.6281,24.5315
-2859.3750,68.5654,251.6633,66.9661,80.0605,-94.5213,-39.8878,-166.0157,-49.2196,-38.0025,-90.4903,62.1613,111.8129,-18.0251,70.4024,-32.2879,-53.1684,58.9533,-32.1197,-135.1084,30.2195
-2851.5625,44.4084,121.6177,40.9364,90.8476,-156.6666,-29.0812,-155.1723,-1.6271,-64.1950,-79.9345,36.2238,83.6744,-44.1142,81.0532,15.6418,-5.5686,34.9687,13.8981,-55.3320,41.1626
-2843.7500,57.2951,-41.3912,18.9503,68.6726,-178.7648,22.7694,-68.2679,50.0225,-49.3259,7.6767,14.3327,21.8948,-66.1494,58.7516,30.6269,9.0803,83.0334,-8.0404,-77.4880,19.1600
-2835.9375,11.0873,-52.5127,44.8623,22.3865,-80.9571,11.5110,-79.4633,1.5721,13.4593,-3.8022,40.3349,10.5900,-40.2799,84.3407,56.5298,-2.3711,72.0021,-54.0956,-53.7444,8.0625
-2828.1250,-39.3219,4.1570,30.5688,42.8897,-167.3473,34.0476,17.1416,23.9297,-0.9317,-92.4747,63.1265,41.9717,-17.6213,69.7247,5.2503,-17.0223,57.7565,2.6400,2.8103,-6.2262
-2820.3125,120.7009,-11.7259,124.7063,26.8309,-111.2983,18.0317,-35.7892,-29.2521,-90.8543,-144.6884,120.3515,19.5519,3.4864,53.5603,-47.5708,-33.2133,147.9523,-49.1849,-48.1716,-22.0539
-2812.5000,114.9154,-17.4162,156.0392,20.9553,-43.0421,49.2003,-4.5264,-35.2398,-96.5561,-77.6944,77.7705,22.4012,-39.1963,47.5887,-53.1773,-39.1989,36.3497,-54.8254,-53.9448,-27.6718
-2804.6875,36.8201,44.5843,109.0657,47.7615,-53.0876,76.0597,22.4559,-45.5195,-106.5387,-13.9902,31.8816,57.1332,-49.1788,74.3048,-26.0746,-12.4842,63.4398,-62.7756,-202.9959,-0.5815
-2796.8750,100.6200,73.4698,137.9874,41.4547,-24.2258,30.8154,-131.6563,-89.8973,-149.6047,14.6179,133.8860,40.4419,16.7481,65.9140,-34.0693,16.1320,92.4386,-102.8342,-279.1383,28.4180
-2789.0625,103.5556,6.4920,106.0602,79.2831,-93.2081,-1.2805,-91.6227,-49.1210,-218.5060,19.3743,139.0398,25.3410,21.8288,33.6688,-65.9057,57.8982,95.5835,-30.7492,-136.1089,-3.4249
-2781.2500,190.1312,57.1661,162.7731,94.7514,-36.5491,-18.7231,-145.9271,-103.6821,-199.7539,1.7835,121.8319,41.3815,77.5562,52.0661,-46.0912,3.3191,147.3825,-49.0162,-224.4181,-57.6138
-2773.4375,197.5678,99.6839,170.3366,67.0545,43.9652,-11.3212,-174.3899,-133.3970,-119.1422,-138.9518,92.4686,42.9655,48.1444,23.3049,-1.4155,-63.4065,84.0345,-77.4475,-147.8781,-49.9461
-2765.6250,47.5439,55.7426,120.4438,22.8938,-4.9678,-24.3777,-40.2949,-108.5609,-57.9625,-114.1269,6.6508,19.9221,73.2829,10.0863,22.8182,-39.5775,75.2293,-86.3420,-121.7733,11.2789
-2757.8125,49.9560,-12.7505,122.0025,-45.8269,32.5520,-59.9965,-111.7380,-107.2778,53.6852,-76.8452,-29.7293,-45.2930,110.8755,-26.6855,97.5058,-75.2977,77.8819,-118.8074,-118.2147,48.9611
-2750.0000,-59.3678,-16.0003,81.8155,-14.3088,-7.6767,-99.3788,-5.9400,-74.7450,50.5991,-44.3042,-104.8617,-36.6129,33.7207,-66.2156,167.4497,-78.7644,39.7836,-17.0486,-17.3926,45.8989
-2742.1875,-171.0417,-22.6139,77.2713,14.8487,61.7311,-69.1165,26.5151,-43.5503,119.1797,-49.0956,-183.3536,-31.4085,66.2072,-108.0955,126.0459,-120.5655,138.3310,12.3492,12.0896,4.4925
-2734.3750,-245.8241,-62.3310,110.6269,44.8914,132.0397,-71.9641,23.8645,-46.4482,190.6838,-125.9738,-149.9521,-10.5059,26.5955,-75.0797,49.5514,-124.4513,134.7770,42.6279,148.4701,-35.0051
-2726.5625,-147.8718,-104.3011,66.7211,72.6697,125.0962,31.9286,126.9665,-53.5922,72.9615,-169.0922,-156.8109,24.9048,-54.2600,-8.3214,-67.1760,-94.5832,162.9608,70.6416,141.6176,-41.7439
-2718.7500,136.2590,-31.0835,69.0017,74.6394,164.3560,-2.9861,-17.7191,-125.5340,-34.5389,-166.9986,-81.4781,22.9198,-14.9114,-6.3647,-101.6919,-92.5087,165.3454,37.8422,2.9693,-39.2758
-2710.9375,127.7432,101.4707,-10.3746,101.9459,83.9761,-9.5630,-24.0550,-95.1283,-114.6723,-63.5437,-13.8047,66.4388,-58.2096,-13.0641,-144.8438,-62.0828,51.0759,29.3786,100.6814,-82.4519
-2703.1250,-22.5352,197.2826,-19.5128,92.4920,74.8441,17.1086,2.8697,-30.4607,-123.5520,37.1715,-59.8920,81.4796,-104.2633,-59.5166,-116.7443,1.5975,78.0513,20.1572,56.6604,-91.3735
-2695.3125,-5.3693,144.5372,-4.2018,38.4739,127.1672,-3.7717,-54.7611,-15.3351,-107.9783,16.3430,-81.5288,49.5290,-14.8579,-44.5185,-64.1941,17.7319,24.4860,2.3779,109.0946,-38.8412
-2687.5000,-26.4545,17.5166,-27.1367,-17.8039,67.2468,10.0934,33.3575,-1.4543,-19.6432,-6.7321,-67.4177,11.8814,36.3000,6.2236,-86.8886,31.6216,3.6697,-18.6586,158.2999,-24.5581
-2679.6875,-8.9946,-105.9570,-9.5214,-71.5411,121.8751,-83.4957,14.0411,-21.0181,108.2495,83.7423,-12.7707,-71.7157,89.9949,-13.4900,-69.0320,49.0667,21.4099,-141.1520,105.0651,-6.7244
-2671.8750,-38.3368,-133.2271,-76.7028,-100.0845,91.7089,-112.8898,57.9155,22.6187,226.3562,238.4152,-42.9348,-115.2466,-13.1169,-81.0025,12.0325,55.7163,-112.6478,-134.4604,183.0356,0.3124
-2664.0625,-53.7330,-113.5492,-165.9408,-150.6859,38.4844,-93.3373,77.7477,115.2078,282.4247,368.0424,-96.1546,-134.7391,-103.2762,-97.5656,-4.9516,148.3143,-92.7592,-150.8283,167.9705,20.3040
-2656.2500,-18.8267,-113.5703,-92.8900,-185.9921,38.5624,-129.4925,-33.1206,152.0985,282.7997,367.9690,-60.0769,-143.9006,-67.1182,-61.8300,32.3650,148.2179,-92.5713,-150.9101,132.2040,20.5992
-2648.4375,-141.2742,-62.9505,-111.1921,-204.6556,20.2940,-39.0043,95.6614,170.6419,191.8401,239.5459,-78.3508,-88.5411,-48.3074,-6.4405,14.3405,129.7780,-144.7447,-99.3586,185.0980,2.5489
-2640.6250,-89.1852,-113.7881,-56.9531,-221.7708,75.5771,-20.9671,41.0071,114.7397,99.4357,73.6749,-23.0861,-105.1504,81.0503,11.5010,32.8689,110.8927,-57.3626,-81.2606,97.5506,21.0546
-2632.8125,-39.5911,-205.1368,-42.2035,-172.3948,53.3695,-43.4382,55.8396,56.3343,78.5400,14.3061,-8.3212,-124.5327,131.9162,-11.0591,84.9000,52.5081,-77.4677,-31.6775,147.5078,36.0624
-2625.0000,-90.7041,-115.1904,-58.1555,-83.7283,37.4708,14.3855,149.9813,40.2327,62.9560,-38.7573,-61.2566,-44.9256,80.0858,9.6708,32.2368,-0.5803,-23.2793,23.1975,96.7760,20.3674
-2617.1875,-34.9207,-25.3415,38.7906,-63.1638,96.4806,0.1115,26.0278,26.0345,85.2752,-125.9198,-38.2888,-16.7711,29.1626,-4.7018,18.4708,-51.7693,-1.1940,43.9643,47.9324,6.5727
-2609.3750,-91.7275,58.9010,-19.8671,-50.2026,38.8933,52.2385,114.4659,41.2420,63.9995,-183.6831,-22.9232,6.3531,-29.3591,-63.6707,-2.8922,-36.5567,-58.7174,92.1214,96.4936,-14.8198
-2601.5625,12.1024,21.7861,-58.8835,-52.5916,109.9464,13.0195,75.5637,-34.8918,26.3735,-185.7905,12.0815,-12.9337,42.7656,-28.9866,68.4007,-38.6857,-24.5893,19.9294,24.7123,-16.5612
-2593.7500,33.5769,-62.6780,-37.2461,-101.3334,94.6561,-39.5521,24.2989,-87.3739,-25.5982,-128.2410,70.7338,-60.0004,100.5491,-7.6484,127.3463,-17.1630,-38.8091,6.3780,46.5815,5.3452
-2585.9375,-30.2976,-55.4995,-29.9596,-59.4288,29.0216,4.5230,68.6898,-43.2012,-127.9170,-85.0355,114.0292,-32.3024,107.9789,-0.6647,24.9434,27.0102,-31.3814,13.4701,54.1111,12.8981
-2578.1250,-3.2746,-29.4175,35.2219,37.3763,20.2927,-4.5014,-124.0098,-52.1239,-100.3336,-56.9244,142.2094,2.8173,136.3044,27.2144,-57.5625,55.0877,30.9474,39.4560,-24.4603,4.3509
-2570.3125,-24.9580,19.9646,13.7020,85.4785,-38.1346,47.7708,-72.4237,0.2538,-121.4445,-115.5119,83.6860,80.4860,41.9331,115.3965,-78.7638,-3.5269,9.5772,52.7359,24.2783,-16.8929
-2562.5000,9.6399,124.6348,50.4758,49.8734,-1.2655,47.3467,-35.5257,-37.0614,-121.2511,-115.7911,47.4580,98.0462,4.8600,114.8887,-78.6658,-40.8346,44.5070,-88.6874,-81.6706,-16.8346
-2554.6875,38.0979,83.1419,79.1041,-27.8897,64.4611,-35.2324,-80.7783,-118.5202,-55.2007,-87.2168,39.0745,17.8472,70.6380,33.2287,24.2805,-49.2901,3.2933,-95.2720,-87.7692,12.0747
-2546.8750,-103.0366,83.0516,5.1340,7.7477,27.5881,1.5848,30.3692,-82.5756,-54.7545,-87.2382,-34.9134,44.9407,33.8139,32.9596,24.6257,-12.3426,3.4757,-25.4631,-52.4524,12.3819
-2539.0625,-94.0864,92.0674,14.2574,51.4818,73.8150,47.5017,-71.3719,-73.5203,-82.2056,-78.1443,-25.8101,76.3859,6.0909,78.7927,34.0691,-3.2886,12.7574,-16.5686,-113.0353,21.7861
-2531.2500,-149.8433,71.3643,-45.3174,65.5062,51.3544,98.7154,-19.8165,-22.1613,-103.3458,-63.7419,-84.4069,95.5696,-16.3264,92.9366,11.8191,11.0724,-78.6645,68.6126,-28.3138,36.4918
-2523.4375,-214.8100,41.4430,-76.1085,105.3223,19.6878,103.7311,22.5520,-16.9897,-61.6781,-94.5299,-115.2065,85.3994,26.0593,60.8812,54.3727,53.2497,-3.3038,73.5854,-92.7759,41.9999
-2515.6250,-143.1840,43.1212,-1.3097,36.7328,58.6256,105.3438,-85.4791,-88.2106,-22.4001,-92.7056,-4.4140,52.9887,28.0465,62.4292,93.5287,18.0381,-1.3436,4.1451,-55.6376,44.1090
-2507.8125,-82.2181,34.1422,-47.1623,27.4814,-24.0851,96.3047,-21.1629,-24.0730,-67.7650,-28.5180,23.7177,49.2879,-17.6216,53.3393,-25.9583,9.1885,-45.0442,31.0427,6.8665,35.5698
-2500.0000,-54.6104,131.7970,-54.3759,19.8740,5.8496,51.9160,-65.1897,-31.2748,-74.4788,1.3348,16.4868,49.2876,49.3566,8.9102,-69.7942,1.9993,-17.0925,-47.4122,-70.9728,28.6841
-2492.1875,-99.1004,157.3422,-99.6857,10.1678,-3.3130,5.4271,-37.3295,33.4256,-46.2927,102.0947,-29.8458,49.2875,3.2383,-0.6202,-4.7335,29.7161,-96.2352,-91.9736,61.0900,19.7014
-2484.3750,-55.4480,61.0363,-126.8521,-52.3823,-68.3335,14.0895,82.6839,115.2831,37.0405,185.0088,-94.0325,-6.5592,-61.7294,-28.9970,41.4706,38.5859,-87.2364,-117.3866,140.3165,28.8686
-2476.5625,29.6542,-30.8093,-76.5712,-107.4832,20.0916,-45.8006,23.1467,93.5898,88.8200,125.3652,-43.7734,-52.5998,-47.2387,-14.9198,19.1257,15.9127,-106.7813,-103.3583,154.9882,43.4855
-2468.7500,-132.4418,-121.8573,-135.4951,-129.7901,-2.6781,5.1049,147.4066,180.6979,66.4015,176.5234,-29.7163,-58.3021,-68.9534,-1.0366,-40.4125,-6.9556,-198.5330,-20.5365,240.4715,57.9040
-2460.9375,-170.0135,-88.3628,-174.8791,-167.5470,32.1058,-34.4336,109.2355,215.3669,137.5366,321.2473,4.8794,-89.9718,1.8592,-40.5988,-42.3995,27.7372,-235.7355,-23.1616,132.5070,55.8723
-2453.1250,-166.3844,-15.6826,-279.0686,-269.1028,-35.8979,-28.7730,78.2571,258.2401,217.8802,401.1837,-26.3275,-110.8710,44.8806,-34.9631,0.8116,106.6382,-372.7383,-19.5899,207.7378,25.0373
-2445.3125,-207.0511,-91.3246,-356.5602,-309.9651,-39.1937,41.5905,221.9825,327.8170,250.9236,433.8246,-139.8373,-125.9080,-32.3895,-1.6223,34.7201,214.2469,-378.0491,10.6748,167.6818,-15.1017
-2437.5000,-133.9715,-228.2138,-316.3007,-307.0844,74.2677,44.7023,151.4683,294.1427,254.7154,437.2151,-100.5969,-160.0502,-28.9058,38.4731,38.3788,217.6086,-338.6040,-21.3254,100.3730,-11.4918
-2429.6875,-247.1474,-201.3366,-363.2842,-280.4585,65.4882,-2.4434,252.7012,284.2150,209.2573,501.3529,-109.6080,-139.5440,-38.6705,28.3211,65.7896,207.7211,-382.4160,5.4150,163.8205,15.8686
-2421.8750,-293.7385,-142.8600,-339.6747,-222.2286,89.3037,-15.9834,165.5439,271.9007,159.3966,488.0892,-86.0269,-113.6189,22.1641,14.7733,52.7921,194.4396,-287.6302,28.7588,11.8753,39.8271
-2414.0625,-274.7749,-158.8509,-245.5166,-168.4464,146.6775,-31.9659,76.9291,219.1398,71.0844,362.3795,-28.8978,-115.8550,80.5496,-38.2146,37.3377,141.7120,-198.2911,82.6468,31.4814,24.3314
-2406.2500,-281.0586,-95.1045,-175.6163,-69.9105,105.7991,0.8108,146.0652,178.1335,-43.4782,247.4246,-33.0232,-53.5892,39.6754,-42.4449,-3.3647,137.7433,-99.2089,111.2877,-9.1529,-16.4175
-2398.4375,-192.8500,-6.8663,-84.2232,18.1305,162.4230,-16.9062,-18.2893,49.6323,-23.5450,119.9752,23.3437,-20.0199,22.2998,-60.1708,52.4316,83.2804,59.3784,58.4328,-97.2881,-33.6689
-2390.6250,-66.8936,14.1192,-98.0815,73.9247,37.8089,6.1272,5.0982,35.8842,-73.8604,-3.7248,45.4628,15.6317,-28.3177,-37.1441,38.9745,32.5672,80.7150,44.3266,-4.6730,-47.1751
-2382.8125,100.0543,111.1069,-106.9438,100.7198,-6.8076,-2.8336,-40.5022,-8.8599,-156.1738,-12.4206,36.5777,63.3622,-36.9452,26.8826,-42.4889,60.8587,143.0483,0.2205,-83.0494,-55.6889
-2375.0000,197.6042,103.6926,-3.1994,128.1227,-13.8160,-47.1934,-158.5068,-16.0010,-162.8901,16.4867,103.2876,55.2387,-6.9722,19.5043,-49.3636,16.7537,100.9923,-42.2898,-89.8295,-62.6077
-2367.1875,97.6508,72.7747,2.0503,168.0323,-45.3219,-42.0537,-79.0137,25.3626,-193.1077,-14.1011,108.4983,49.1022,-1.5046,-48.3730,-43.7324,-13.8496,106.4270,-2.3055,-49.0966,-57.0293
-2359.3750,148.9843,89.1585,54.5911,184.2425,-28.5318,-99.6092,-136.2100,-67.9637,-140.0216,-108.3790,125.0000,52.1943,51.2589,-31.9439,10.2062,-71.1422,158.1572,-21.0253,-138.0681,-40.1527
-2351.5625,104.5741,185.7834,9.3773,209.7042,-74.4917,-108.9135,-108.1687,-77.0337,-148.6817,-117.3965,78.7508,102.9086,6.2724,-4.2582,1.3948,-43.1737,78.1332,-30.5023,-75.7941,-49.0274
-2343.7500,51.3104,203.5548,27.3027,262.3192,-93.3078,-54.0646,-89.9729,-95.9459,-202.1944,-172.2484,59.6486,162.2981,24.4296,86.5861,-17.2768,-25.0425,132.2491,-47.8348,-163.3622,-30.7559
-2335.9375,169.7481,146.0346,75.9259,204.6347,-43.4140,-78.5195,-150.0758,-156.1574,-153.0133,-306.3955,146.2482,107.2133,73.2891,62.1320,68.7497,-49.2133,109.0630,-71.4717,-150.2367,-17.7875
-2328.1250,169.2432,74.5605,39.6068,169.0068,-153.4619,-41.9261,-40.1331,-120.3200,-42.7825,-306.4974,145.9057,80.3127,37.2029,61.7277,68.8263,-49.3343,38.9267,-36.0682,-80.0695,-17.7699
-2320.3125,144.4251,49.7917,49.9857,144.0876,-142.8114,-31.6281,-103.4812,-145.7742,5.1535,-295.8907,156.2465,71.3426,83.7996,109.0333,43.5934,-1.7536,84.4884,-96.9646,-139.1944,-7.0553
-2312.5000,126.1653,101.5662,31.9156,125.7190,-124.6095,-49.7842,-121.2749,-127.6747,24.6396,-276.7190,138.1348,92.1635,65.9440,127.8860,25.9038,-56.6222,31.6082,-80.3152,-50.7661,-24.7946
-2304.6875,190.4683,95.8772,26.3974,119.8911,-92.8517,-18.3972,-15.5173,-133.0213,19.6764,-281.9856,132.5755,69.7583,24.6404,48.2826,20.7663,-98.9436,26.2646,-86.1190,-55.7766,-29.9872
-2296.8750,286.7026,87.1527,123.8288,75.0128,-68.1481,-31.0538,-100.8030,-180.4046,7.6612,-293.3008,156.9584,27.9975,49.2826,-0.3712,8.5742,-110.3083,87.8703,-128.9669,-133.8395,31.7645
-2289.0625,146.7917,17.2797,87.1155,110.9899,-140.5852,5.1401,-28.2499,-143.9425,-29.5044,-220.7747,46.1971,49.7916,-25.2278,35.8300,45.2296,-109.8264,89.3306,-23.9642,-63.0533,68.3622
-2281.2500,65.3777,-29.1149,75.9063,134.4789,-78.5263,-6.1475,-39.1976,-117.9789,-3.1838,-120.7549,-39.0675,49.4822,0.7576,61.5390,71.3770,-84.8376,148.2906,-0.4469,-143.7583,57.4584
-2273.4375,8.1505,-51.3115,126.8909,112.1884,9.7298,8.7731,-23.9452,-103.8125,-24.6682,-142.5328,12.8580,27.5599,15.9478,2.4568,49.7215,-106.6412,91.4627,13.2753,-60.2763,35.7505
-2265.6250,-66.5265,16.0423,87.4254,143.4597,-67.4645,79.2507,46.8441,-34.0915,-100.6016,-182.7522,9.3302,74.0318,12.6796,-1.0757,-27.3768,-109.8846,123.1801,79.5509,-63.2439,32.5869
-2257.8125,-3.0939,8.4797,190.0499,135.8481,-0.5696,71.8407,-71.2549,-78.2644,-71.4483,-226.8658,38.9009,69.6693,5.4929,28.5046,2.6178,-81.0204,150.9985,71.9284,-139.1140,25.5229
-2250.0000,28.6132,-29.8424,151.9257,133.4814,35.5798,69.6771,1.8875,-79.1896,-35.0515,-154.7317,0.7238,63.6002,-69.4318,27.3435,-35.1414,-81.9067,78.0638,103.5498,-36.7408,-12.2919
-2242.1875,129.1015,-35.3467,146.5888,127.9142,66.5269,28.3192,-3.1621,-84.3045,-39.8525,-123.7840,-4.6612,24.6994,-37.5587,-52.0194,-77.0956,-86.9965,107.9046,97.9779,-77.5584,-17.3100
-2234.3750,206.2640,-28.1215,153.9318,99.0475,74.1721,-1.3328,-69.4995,-113.7090,5.0490,-116.1261,39.6462,-13.7166,-29.9992,-118.6758,-69.3523,-116.3702,80.4367,105.1131,-33.6854,-9.6313
-2226.5625,81.4779,-11.8454,61.3213,45.2359,19.8701,17.0720,23.1989,-21.0566,-12.9962,-60.4232,21.0009,-10.2121,-48.3985,-100.2715,-87.5568,-60.6930,62.0143,122.2992,53.2436,-27.9050
-2218.7500,118.4863,-45.7933,62.5039,-23.7697,57.3593,-55.7119,-12.2933,-19.5926,61.7504,15.0866,58.1536,-77.0991,63.0053,-136.0635,-11.9665,-59.2068,28.3881,17.2907,19.9791,-26.3804
-2210.9375,40.4068,-123.8587,17.5904,-101.8701,12.7505,-101.5971,53.1111,45.7739,164.3916,116.5066,50.2110,-116.5753,18.3149,-107.9564,53.5253,-30.8164,-119.3389,-24.8169,154.6049,2.0413
-2203.1250,-18.9793,-147.2203,-46.6273,-124.2696,-51.1649,-54.7803,63.2154,128.8422,211.7376,200.6398,-51.0270,-96.6137,-81.6817,-24.1396,26.7100,53.2774,-142.3751,-14.2244,130.9389,49.1555
-2195.3125,-43.6272,-171.8301,-72.1048,-149.9124,-112.3271,-7.2095,-36.9169,139.6679,259.8330,248.5266,-40.5198,-113.3303,-106.9365,-13.5608,37.6319,64.1264,-131.6573,-3.8794,142.0140,60.0104
-2187.5000,-67.6690,-230.8531,-131.9623,-103.9495,-135.8723,42.9601,50.5430,190.0842,162.5260,298.0114,-27.4034,-88.5306,-94.5855,36.6130,14.1509,40.5715,-155.3403,43.0708,153.6789,36.4625
-2179.6875,16.6395,-182.5377,-44.4676,-90.6289,-48.0686,21.4879,-7.6380,131.8540,68.5445,276.8457,-11.9418,-71.6803,-42.8889,52.1413,-6.9775,19.3719,-36.6759,21.3857,27.6926,15.2670
-2171.8750,-16.0973,-145.2681,-3.0199,-52.3426,-6.3116,25.9706,-2.8750,99.5699,-0.4954,244.6259,-44.5342,-48.6056,-38.2461,19.6208,-39.1608,24.1319,-69.0561,58.6548,100.6443,-16.9791
-2164.0625,-72.4832,-95.6331,50.7808,-73.6981,10.7905,79.8119,51.2277,117.6312,-19.1904,225.7510,-100.7690,-32.9594,-20.2652,-0.5373,-132.0032,4.2509,15.9075,108.2777,44.9409,-72.8804
-2156.2500,-0.3689,11.5090,129.0720,-71.5465,52.3905,47.1608,-18.1615,85.1947,-15.3993,193.3624,-59.5047,-19.2499,20.2183,-33.1764,-127.3479,-64.1224,-16.6287,75.4074,-22.2802,-105.2877
-2148.4375,0.9125,-22.2013,19.5135,-70.2357,-19.8558,85.6573,57.5859,159.8925,-49.4666,232.1118,-58.0853,-12.3061,-51.1318,5.3399,-125.5312,10.6487,-85.0090,41.6848,50.6439,-103.5490
-2140.6250,81.8365,-118.2626,27.6069,-95.2645,-10.4547,19.8107,-7.0055,132.2417,32.0934,240.5122,-50.0212,-66.9405,-42.8378,13.5093,-80.0672,56.0809,-4.7472,-19.3813,-9.7743,-58.1669
-2132.8125,30.0032,-203.0746,46.9522,-112.0287,-27.7985,-33.7749,-24.3471,77.8423,125.8850,260.1678,-30.7042,-112.1949,-23.2953,-3.0644,-23.3676,75.7666,-55.2281,-70.1944,80.0499,-38.5409
-2125.0000,-18.0792,-147.1368,-1.9464,-89.0392,-77.3792,-9.5994,73.0571,139.1862,113.4239,358.5625,-154.6301,-72.8841,-73.0042,20.1189,1.0831,100.1979,-103.9738,-48.2579,32.6241,-51.1671
-2117.1875,75.3848,-123.6389,57.7023,-101.4932,-16.4136,-22.8720,-49.9745,126.0835,63.5124,308.4990,-131.0116,-67.1598,-49.1656,43.8579,-11.9123,87.1735,-115.1779,-59.7651,-13.2644,-27.2465
-2109.3750,-48.6411,-72.6283,-36.1490,-49.4421,-73.9455,-6.6476,40.4830,179.4708,44.1102,214.9404,-77.8884,-12.5429,-69.8194,60.0935,-69.4054,66.6493,-167.8881,-43.7785,108.3291,-10.8267
-2101.5625,-101.6564,16.3773,-18.0114,-31.3813,-92.4898,11.5817,21.9417,123.8638,98.7061,196.3914,-22.7675,7.3238,-88.4884,42.3338,-50.9071,85.1297,-80.6075,-96.7823,21.9312,7.5931
-2093.7500,-63.3661,19.6725,22.4254,-28.0126,-88.7367,-21.8777,-11.3042,90.5608,139.5902,163.1491,17.6614,4.4087,-156.8701,45.8811,63.8846,52.9090,-77.0191,-128.4743,60.8287,11.3073
-2085.9375,-5.1641,-28.1256,-27.2284,-40.7375,-137.0762,-34.4349,123.3360,78.1520,164.3610,150.8003,-69.0071,-31.0965,-133.3426,-3.6662,51.5720,113.5814,-54.5355,-106.2592,83.6239,-1.0856
-2078.1250,85.8792,-183.0540,-6.0406,-90.5971,-42.5683,-87.1347,71.8371,26.5969,222.9702,62.2966,-10.8293,-115.1995,-1.9663,-19.3567,36.0912,135.1021,2.7910,-154.1819,35.2645,20.3660
-2070.3125,100.6264,-132.2798,-28.1483,-75.7401,-64.3502,-72.1260,87.0311,41.7385,127.2610,3.4852,4.0497,-89.4467,-23.8900,-41.3472,14.3010,77.3219,-53.1736,-70.4021,85.5978,35.5170
-2062.5000,53.0274,65.1470,-77.6052,-17.2124,-39.4871,-47.4623,74.8718,29.5233,5.1804,-8.6836,-8.4078,-10.3774,0.8367,-53.6834,2.1598,28.1836,5.5062,-11.9620,-32.4223,23.3102
-2054.6875,76.7791,88.9346,-14.7106,-64.3171,60.7250,-21.4432,-9.9322,-55.3482,-5.5676,-56.5056,54.4871,-38.2922,63.9106,-101.6569,65.3719,-19.6085,-5.4617,-23.1682,-43.1180,12.4464
-2046.8750,-0.8101,46.3841,-59.1601,-0.7608,53.5905,8.2278,92.8957,-62.5722,-12.6748,-63.6884,10.0273,-6.1481,19.6282,-71.9753,58.2301,-26.7465,-48.7729,4.2875,20.8299,5.2338
-2039.0625,37.6947,49.9373,-18.5118,37.9131,93.5471,12.0118,23.8246,-58.6956,-45.6920,-96.7675,13.6584,5.7957,23.4354,-68.1852,25.1722,-22.7774,26.0184,7.8582,-81.1181,9.1179
-2031.2500,8.5734,90.8447,-10.5075,43.9438,64.8565,20.1474,32.0928,-50.4719,-74.3650,-88.5043,-15.3496,44.4837,-5.4099,-23.0439,-3.5438,-14.4663,-37.8337,83.7757,-3.7268,-19.6546
-2023.4375,-145.6607,77.6006,13.3544,30.8179,89.0009,43.1284,92.2058,10.6003,-50.1964,-64.3936,-65.4952,71.0246,-55.4177,36.9499,-16.4086,9.6957,-15.8425,106.5454,-16.4875,-32.5820
-2015.6250,-42.5430,-101.2964,81.5678,28.0557,84.4859,39.4681,14.6652,6.0303,56.3074,-141.9145,3.7077,5.0651,-23.0786,33.2979,16.0637,5.2179,-18.5063,102.6729,-18.9166,-0.1590
-2007.8125,92.3183,-141.4362,3.5314,58.0523,-30.2786,70.5648,82.8577,1.2126,-22.4433,-182.6798,71.6619,-13.9829,-64.9903,-8.5939,48.2834,0.4947,11.5737,133.5493,11.3955,-4.9830
-2000.0000,165.7178,36.9943,81.0436,60.6059,11.5021,2.2168,14.6050,-105.0583,-91.6581,-178.9106,113.1655,10.9236,13.6498,-40.9268,16.0527,5.3128,84.2030,64.9844,-126.7344,-37.2595
-1992.1875,119.6828,201.9850,144.1097,85.7141,36.8371,-8.5741,-33.0953,-115.7923,-102.3313,-189.6130,102.2241,69.7010,38.8472,-51.6994,-31.6345,-42.3262,3.3830,18.9755,-102.3274,-47.9945
-1984.3750,-17.0765,171.2240,72.4249,89.0832,-33.5784,66.8908,6.4518,-39.2831,-135.7568,-40.0730,-5.4631,84.4193,42.2933,-12.2246,-139.0755,70.2724,7.8055,58.2294,-166.6696,-8.4852
-1976.5625,-1.1351,11.1580,88.4397,105.1637,19.7054,83.0696,-124.2882,-23.0807,-119.4955,50.1670,10.5506,39.4121,21.4306,3.9557,-122.8277,123.5744,23.9317,74.1966,-150.3221,7.7226
-1968.7500,-59.7480,-12.4561,28.9218,81.7077,-40.5475,96.6988,-37.5906,27.5553,-69.8069,99.8437,24.0176,12.9737,-38.9808,-56.4064,-73.1351,63.3357,0.5179,85.6257,1.4600,-15.6186
-1960.9375,-35.8710,117.4368,90.9071,35.7668,22.6983,12.8375,-11.3922,-20.3083,-6.6280,16.0008,48.9816,0.9261,-12.9049,-141.2555,-9.9542,-20.4078,59.5968,-30.4318,-9.2538,-26.4574
-1953.1250,22.2553,104.5887,77.1360,-45.9111,9.1912,-0.7666,-24.9491,-33.9312,53.8010,-34.5945,72.1869,-27.0625,47.4181,-117.8477,13.4746,-33.9006,-58.0687,-42.2316,14.2697,-3.0458
-1945.3125,8.6360,-50.0143,-11.3859,-24.3360,-80.0599,57.8841,33.7359,24.6950,1.4774,24.0664,-16.3649,-40.1069,104.9856,-59.1854,-38.8359,24.8545,-71.4920,49.2311,1.0461,18.6135
-1937.5000,55.9221,-107.7180,0.9886,-11.8462,6.5806,70.4405,-64.6704,37.2215,-22.9633,36.6345,-4.0152,-42.3949,117.4448,-9.6178,-63.2581,74.5123,-94.0113,61.6073,-92.2846,31.1639
-1929.6875,-14.4676,-73.1109,-36.3208,-83.0415,-30.4758,70.3026,46.2080,74.0328,13.8789,36.4904,-4.3481,-29.6424,-29.7966,27.2434,-26.3880,74.4648,-128.2191,61.2896,13.6553,31.0054
-1921.8750,-15.8984,66.4709,-37.6693,-49.2657,-68.5883,69.1191,8.0284,35.7891,-24.3511,35.2826,-5.7228,21.1395,-104.0978,26.0587,9.4191,36.3564,-60.4771,59.9308,-23.4625,29.7947
-1914.0625,-61.2251,92.1844,-9.9191,-22.3806,-40.5999,60.0394,-75.0531,26.6437,-70.4963,26.1681,22.0060,30.8930,-3.3018,16.9771,37.3124,-9.6558,-69.6323,15.6803,3.5034,20.6809
-1906.2500,-138.6694,49.7409,-91.3142,40.3621,-47.7585,88.8156,28.7044,56.3405,-113.8044,18.8948,-22.4018,58.3652,26.3476,46.7468,30.0630,20.1801,-76.9474,43.2901,31.3128,13.4162
-1898.4375,-96.4000,21.9684,-47.0204,82.8160,-3.2260,96.3054,-74.8298,26.7374,-106.4219,26.3086,-52.1040,57.9893,-3.2960,54.2215,0.5171,64.7138,36.4312,15.6179,-67.1844,20.8505
-1890.6250,-121.3278,102.0008,-34.9140,129.0848,-101.8941,108.5972,-62.5827,1.9190,-95.2445,1.5059,-76.9927,119.7667,-138.1283,102.5012,-61.2330,113.0415,81.6185,25.7525,14.0936,-3.9159
-1882.8125,-49.9071,103.4090,4.5500,129.7211,-99.2180,111.2436,-22.9940,-32.5619,-55.7389,-32.9562,-111.5228,121.5967,-136.6083,105.1348,-95.6385,78.7121,118.1487,-8.7534,14.7107,-38.3303
-1875.0000,157.3617,28.6999,73.8595,91.2243,-28.7019,33.7440,-63.5639,-110.1976,14.5988,-110.5700,-41.2062,55.6175,-66.2440,64.6258,-25.2113,-34.7629,78.5363,-82.3929,11.1627,-41.8968
-1867.1875,-4.9894,77.3539,12.5327,69.0891,-53.8355,46.5894,59.1906,-61.4973,-47.7252,-98.8409,-66.5288,85.0900,-91.5407,76.4688,-13.4371,-22.8892,22.2797,-33.6787,24.9559,6.8795
-1859.3750,-82.2294,36.1091,41.3192,98.0614,12.1309,1.5370,-59.9418,-105.7074,-91.9651,-106.0346,-74.7410,81.6467,11.2630,105.4095,15.4337,6.0752,121.1285,-4.8574,-87.1527,35.7480
-1851.5625,-41.9891,5.3090,47.5769,102.4879,18.5593,-29.0707,-53.6301,-136.4854,-122.7698,-172.8009,5.5114,75.9806,54.5257,111.8021,21.7476,-61.5157,125.4408,34.4068,-11.8309,5.0673
-1843.7500,12.7166,95.9570,70.2903,123.3680,5.4301,-42.2342,7.1174,-150.8163,-173.1281,-223.1133,28.2245,93.2840,77.2351,61.6537,8.5080,-111.6624,216.1944,54.1285,-62.0564,-45.1592
-1835.9375,54.7231,136.9217,152.2941,129.5589,86.5856,-34.0917,-58.8334,-179.8422,-166.2090,-252.1060,73.2408,83.6634,85.2378,-4.1892,-20.4386,-140.5147,222.2430,25.1578,-90.9829,-74.0852
-1828.1250,-27.9043,54.2577,101.6505,83.1039,36.0843,25.3996,74.5486,-82.5164,-142.9505,-265.7476,-50.3891,76.2853,-38.4117,19.3162,2.9660,-80.0259,140.6369,84.5377,37.4325,-50.6638
-1820.3125,-52.1364,65.0047,75.4032,58.0539,46.9774,36.2988,48.3304,-108.7872,-132.2933,-254.9946,-76.6218,68.1834,9.3379,30.2250,13.7616,-32.1409,186.4275,59.3307,-21.7550,-39.8476
-1812.5000,-3.9654,114.1519,90.5645,72.4241,99.2694,-21.3900,26.5083,-130.6622,-117.2483,-239.8505,11.5511,61.2400,60.4950,-27.4586,-8.0631,-90.8593,94.6264,37.5369,26.4363,-61.6362
-1804.6875,-16.6292,66.4312,3.8808,94.9534,86.7181,39.0754,87.8209,-106.3871,-167.0613,-143.5571,-1.1160,54.8970,84.8062,-39.9884,-57.7422,-103.4349,116.9656,95.9102,-21.2171,-74.2791
-1796.8750,-3.5912,-26.5944,18.8961,73.1861,138.8675,54.2507,-8.1529,-54.4180,-115.1767,-128.5782,13.9211,9.2923,99.8195,-61.8203,-42.7239,-125.3160,130.0039,108.9948,-8.1671,-96.2246
-1789.0625,-95.7867,-48.8529,-3.3281,51.1717,116.7786,106.1695,117.6089,-3.7132,-100.5451,-113.8607,-45.2803,29.5731,3.5842,-10.9050,-28.9625,-110.4647,72.7986,86.8325,40.6244,-118.4231
-1781.2500,-28.2663,-16.3878,-7.8541,48.8670,112.3813,101.7930,76.0751,-44.3155,-105.2246,-81.4588,-48.7749,38.5476,-0.9616,21.7110,-32.5127,-77.9200,70.2918,49.3805,-67.8856,-85.9252
-1773.4375,26.5126,73.3294,-26.1280,32.8187,93.2296,9.6752,-53.2084,-63.6671,-87.6657,-63.8112,-31.0160,34.5961,17.7401,3.5815,58.1832,-23.1241,-15.9662,33.1926,-13.1581,-31.1767
-1765.6250,-81.8103,105.9527,-104.4992,30.6696,-21.0262,42.4622,53.3894,5.8862,-92.2176,-31.2558,-72.3573,51.3239,-23.6564,-0.6431,127.7836,9.5771,-18.3360,100.9152,-15.5354,1.4725
-1757.8125,-60.4308,22.2903,-46.1749,17.2199,0.4068,-10.0415,-36.3152,-9.8588,-71.0836,64.0116,-51.0057,11.6916,34.6339,20.8453,149.0734,30.9840,2.9902,52.3526,-100.2242,22.8193
-1750.0000,-88.2854,-76.6317,-76.0989,-10.4709,-66.4074,-2.7916,-29.2815,34.1422,-27.1995,107.0319,-80.8975,-6.0643,-32.3250,65.0836,119.1089,38.1371,-60.9278,59.5382,12.8280,29.9159
-1742.1875,-117.9328,34.6430,-106.8222,-75.9467,-97.0277,2.6570,-24.0493,39.3423,51.8799,112.2539,-75.5796,5.9064,-27.0880,70.5206,51.3311,6.4814,-20.6486,-5.0714,-17.9154,35.2111
-1734.3750,10.1260,91.6317,-120.8460,-88.7049,-74.9552,-49.1930,-111.1156,-12.7596,110.6459,24.1768,-16.5609,-13.8937,31.8398,18.6628,110.2389,-45.4727,-68.6586,-18.9737,4.0265,57.2040
-1726.5625,32.8997,9.3356,-133.1611,5.2368,-123.1808,-24.3442,22.4977,11.8380,61.1038,-62.2018,8.1598,2.6134,-17.5323,6.5115,60.8375,-57.7276,-10.9713,74.8322,27.6621,44.8919
-1718.7500,39.2780,-19.3480,21.1258,46.7868,-42.8150,-15.8917,-80.2848,-53.9672,32.1474,-90.9883,16.4761,22.9689,-9.3030,51.9677,-4.9718,-49.3938,101.3108,81.2512,-37.0999,16.1723
-1710.9375,-24.8855,-48.5735,64.8758,17.7944,2.0032,29.0137,-35.6294,-9.3259,-34.3740,-120.3295,-12.7510,26.0484,-38.6114,58.8653,2.6640,-41.6220,37.0481,87.1288,74.5790,-13.1017
-1703.1250,-2.3348,-26.1073,16.3254,40.5079,62.5223,52.6244,61.7241,-21.9895,-121.1887,-168.9763,11.7267,44.1366,-14.2243,46.4605,-47.0065,-91.1599,94.4817,110.7173,-8.0375,-25.6778
-1695.3125,148.0244,-16.8285,98.5690,50.0369,108.8287,26.0345,-76.1146,-123.8595,-112.2057,-232.8343,57.0037,23.6899,31.9525,19.8589,-37.8849,-81.8939,103.7210,49.1151,-33.8695,-16.4538
-1687.5000,123.9053,-6.0385,72.3205,61.0720,9.6323,36.9382,8.5223,-113.2410,-64.7301,-149.2008,31.7863,36.0448,-68.3708,30.7628,-27.2650,-34.1371,44.4679,25.0168,11.7892,-5.7273
-1679.6875,140.0352,-24.9804,52.3330,42.3626,25.6789,16.0930,-12.5928,-97.3765,61.9761,-60.3260,10.8278,4.2795,-89.4486,9.9180,-11.4047,-18.1398,60.4612,-28.8209,-78.3005,10.2513
-1671.8750,120.3801,-8.7106,31.5583,23.8639,4.9200,-41.5459,-33.5276,-44.3219,113.8728,29.7307,-9.9241,-9.0862,-109.3216,-10.7316,4.6512,-38.9465,-29.3294,-83.4501,-27.2056,26.4299
-1664.0625,11.2450,127.0571,-48.7027,19.8693,-38.3358,-83.6889,34.0228,-13.7795,71.2690,60.2820,-16.1644,27.8093,-42.6922,-16.8812,35.2003,-45.2524,-68.6213,-87.5739,-66.6100,57.1056
-1656.2500,-17.4830,169.2247,-41.5632,-8.7194,5.8024,-112.4300,-105.0235,-43.8393,78.0557,30.2459,64.9978,7.8784,38.3303,-46.6324,42.1410,-1.1590,-61.5162,-114.2864,-59.6150,64.1769
-1648.4375,-31.9478,14.6559,-92.1668,-23.0498,-81.8093,-17.9206,26.1743,15.3476,100.0817,-21.5521,87.4149,-19.2296,23.6024,-24.1329,27.3259,21.1709,-110.1540,-24.7429,31.6175,49.4962
-1640.6250,143.2031,-22.3042,-20.1650,-23.7732,-82.8294,18.1918,-49.0428,14.1264,24.7001,-22.7665,49.4396,-30.5670,-14.5311,-25.0299,-47.8849,20.0940,-7.1934,10.4093,-5.5523,48.4162
-1632.8125,209.3622,8.7404,11.8350,42.5100,-51.8619,13.3073,-126.2550,8.9054,-54.6848,-27.9853,44.4681,-7.8728,-56.6696,-66.9273,-89.1026,-58.9857,-12.2343,40.5736,60.2757,43.3333
-1625.0000,42.6330,87.8895,-53.0596,86.8924,-42.7913,59.5180,-8.3781,17.7807,-117.9655,-56.1046,-57.3959,68.8814,-47.7057,-20.7291,-116.2196,-85.9722,-38.1697,84.8385,69.2014,52.3472
-1617.1875,5.6479,51.7866,-19.2017,51.0284,65.0255,56.4823,-47.7456,-22.5852,-84.4984,-94.4694,-23.5093,55.3468,-13.9960,13.2193,-82.5928,-88.2145,-39.3672,48.8623,-3.1166,86.1089
-1609.3750,-108.7824,-28.7648,6.2084,5.7138,90.3919,44.9961,13.4383,2.6001,-96.4874,-106.2836,1.9278,22.8636,-24.7294,1.7217,-21.4263,-62.9126,-14.0158,109.4373,57.1141,111.4181
-1601.5625,-26.9467,17.9462,19.8706,-17.3553,104.0118,21.7555,26.8619,-56.9671,-83.2284,-92.8508,15.6231,-1.9818,-12.2096,-57.5222,-9.0121,-50.3703,68.5774,121.2633,-36.4100,87.9749
-1593.7500,161.0431,135.8189,-3.3193,30.7282,80.7730,-1.3286,-69.5596,-116.3834,-70.8332,-116.2714,66.4681,21.3336,1.4588,-80.6130,4.5453,-73.6803,-25.6846,63.2508,-59.7891,64.6825
-1585.9375,65.0510,109.6912,-103.5009,74.8243,-21.4675,7.5889,11.9999,-71.8030,-62.4522,-35.7033,38.3238,43.7737,10.1290,-35.7017,-23.8970,-28.9897,-85.9376,72.2451,-85.1848,73.3902
-1578.1250,-43.6287,-34.1459,-108.3761,72.2309,10.5846,2.8140,-102.1458,-39.9276,5.2211,-3.8443,70.4920,-0.6669,79.1030,-3.4901,7.9592,39.9961,-53.8911,33.5481,-124.2873,105.3960
-1570.3125,-68.8480,-24.5254,-60.7964,-23.9038,-14.9182,-22.5089,-90.8442,7.3920,53.3393,7.4471,45.1174,-22.4995,90.5332,8.1704,56.2586,14.4219,-79.3820,44.3042,-44.9479,79.8485
-1562.5000,-43.8079,36.3587,4.0446,-68.7848,13.8305,-30.5850,9.6920,-1.0451,7.7054,108.9778,-36.9978,-32.4753,118.2144,-36.9215,10.8040,43.0905,-20.6224,34.3123,-124.3599,34.5505
-1554.6875,-7.1699,1.8557,43.4808,-103.0592,89.1686,-65.0609,-25.1681,-35.8814,82.6578,148.1132,-71.5040,-59.3983,47.4924,-34.4124,85.9411,45.3594,-55.2667,-0.0708,-90.1737,-0.1487
-1546.8750,-112.5631,-67.6854,-65.1270,-102.3889,91.4572,-25.5914,160.9093,3.2287,121.5538,150.2029,-143.0521,-47.5398,-61.2759,5.0468,88.0233,46.5740,-53.9619,0.4965,15.9528,-34.8996
-1539.0625,-75.3940,3.3249,-62.1858,-30.1693,168.2931,-59.5754,126.5331,-31.1056,123.9987,78.8478,-103.0489,-19.2960,14.5027,-28.9469,16.6516,-23.6686,16.8819,-33.3813,-18.3644,-69.1015
-1531.2500,-50.4728,64.0842,-35.5019,29.8007,120.8698,-32.8080,41.9086,-5.6793,39.1939,68.2573,-39.3007,30.1202,41.0257,-3.1883,-66.9804,-71.1668,6.4771,-8.5067,6.0688,-79.5531
-1523.4375,-70.6374,42.7470,-20.9125,44.6720,98.3426,-18.1456,93.1638,8.6438,16.2948,82.5710,-61.6449,49.5585,18.4445,48.4736,-89.7134,-56.7693,91.9745,-28.7325,-49.6040,-65.1069
-1515.6250,-24.6520,-51.4283,62.8256,20.7026,145.9510,-44.3333,-6.4304,-53.8773,63.5413,19.0404,-13.8380,6.7236,29.0103,59.2862,-5.3039,-46.2246,102.6214,-52.8043,-39.1275,-54.5157
-1507.8125,-99.7645,-56.6976,20.4680,15.6406,66.4586,-12.6269,97.8701,-22.4981,20.6894,-59.5902,-56.1283,14.9218,23.4788,54.0011,25.0000,-14.7771,61.1696,-22.9775,25.2392,-60.0238
-1500.0000,-53.6280,24.2789,105.3655,26.8255,77.2125,-1.6719,-1.5874,-85.8673,-41.9061,-122.9734,27.8428,49.4336,71.2010,101.9653,-0.4428,-4.0835,107.9591,-81.8979,-105.1416,-49.2804
-1492.1875,71.2589,9.0137,160.0120,11.7588,21.7105,-20.9664,-131.2893,-105.4867,-61.7581,-105.6108,119.5653,32.8173,52.6747,119.6807,-20.1459,13.3583,56.5024,-133.0566,-85.7718,5.2088
-1484.3750,32.2673,4.8556,153.7683,7.7931,-58.6825,-27.1651,-100.8979,-75.0144,-68.5095,-38.1526,113.3922,27.7592,46.2570,113.4887,-26.7519,6.8900,87.1519,-136.1233,-124.3059,35.7891
-1476.5625,79.0416,86.4492,167.2748,-15.4195,-8.3225,-87.6197,-160.7493,-170.7939,-18.5114,-24.9462,89.9758,9.4425,59.5882,54.0454,60.3876,-16.8398,98.5452,-159.4420,-148.0840,12.1130
-1468.7500,-30.8222,116.3981,88.1273,-20.2866,-13.6135,-92.7265,-57.2513,-140.2212,12.8362,-30.3877,84.9118,26.0728,-19.7316,48.9544,90.8686,14.7806,23.2859,-130.4093,-49.5207,6.7879
-1460.9375,-62.2818,-20.2514,54.3796,-51.7545,25.4868,-53.4319,-18.3654,-65.2459,51.5838,8.5695,51.2540,-8.8055,19.3475,88.2620,56.7530,90.8012,-8.5831,-124.9751,-114.5543,45.8676
-1453.1250,-45.9510,-108.0986,33.4251,-140.4223,41.3756,-109.3426,-39.6748,-12.4631,140.1365,24.3384,67.3957,-64.3926,72.2265,104.3690,109.4379,32.6272,-62.6537,-144.7389,-29.7876,61.7492
-1445.3125,42.7850,-91.5470,-21.1281,-157.6937,-13.3348,-90.8580,90.4018,-30.2756,122.0990,-30.4766,12.9372,-76.9713,91.5022,49.8759,54.5319,14.8514,-10.3293,-126.1039,23.3727,44.0293
-1437.5000,190.8569,-49.6513,61.6612,-115.6233,69.2931,-83.0174,-49.1666,-95.7262,93.4209,-95.9259,58.8240,-68.0471,99.1200,21.7358,-11.0236,-13.5692,67.3321,-120.1103,-41.1091,15.6573
-1429.6875,93.0263,-41.6462,71.5439,-72.4532,79.0179,-72.0819,34.3667,-122.0719,29.8453,-195.2667,105.8143,-40.9467,72.8461,-4.3047,35.5068,-113.8914,74.0994,-42.0188,107.5063,-47.6202
-1421.8750,-59.7877,16.3580,61.4365,-14.2826,142.7446,-45.1543,134.8877,-95.4190,-17.7301,-242.6088,95.8131,10.3690,62.5815,-15.3484,25.0363,-161.2216,97.8661,16.0678,60.1242,-94.9018
-1414.0625,23.4004,65.3505,74.3272,33.8925,118.4657,-32.2265,-0.5800,-82.7590,-78.3085,-193.9440,145.8166,48.1309,38.3109,34.6091,0.5613,-148.5552,4.6289,-5.8428,1.7489,-82.1835
-1406.2500,74.5064,115.2403,15.1252,48.9623,-13.9096,-17.4010,-22.1579,-31.2017,-174.9879,-142.3819,123.7260,84.8804,15.9399,86.4689,-95.0164,-96.9906,-15.7033,9.1471,16.2672,-67.5637
-1398.4375,265.9176,165.4368,67.2212,29.3326,1.0096,-39.2714,-155.4392,-90.3366,-123.3691,-164.5312,138.9361,67.5989,-5.1369,64.6261,-80.2978,-119.1251,69.2567,-45.5532,-38.9108,-52.6437
-1390.6250,369.1754,92.4965,100.1645,-7.4476,-40.2311,-43.2924,-122.8704,-94.6177,-127.9023,-203.8303,171.9923,35.8134,-46.3620,60.6337,-84.7333,-123.4129,32.0695,-12.3983,28.7570,-19.8781
-1382.8125,326.2320,49.3638,126.9114,-15.4298,-87.6713,-16.5153,-96.5142,-105.0962,-173.6305,-214.3184,235.8548,13.5195,54.2170,51.4366,-131.3701,-59.9089,93.6796,-20.4436,-85.7769,6.6819
-1375.0000,331.6393,20.5793,242.0022,-80.0623,-82.7705,-85.3844,-274.7988,-210.2119,-97.0092,-210.4396,350.0679,-59.5448,205.1406,18.5906,-17.6636,17.9431,64.6280,-119.1373,-149.9527,47.5884
-1367.1875,242.4539,0.1782,145.4863,-63.3062,-179.4674,-144.8578,-151.6861,-159.9189,-10.9726,-50.1438,216.6808,-71.6660,108.4661,-4.8585,69.4515,105.1969,-26.0243,-139.4335,-134.7280,97.8950
-1359.3750,232.0589,131.5732,94.7657,-38.7600,-192.3678,-157.5374,-238.7739,-136.8150,48.8889,45.9708,93.0878,-21.9737,57.5839,19.4877,19.3734,128.2508,34.1134,-148.9304,-215.6896,157.9998
-1351.5625,134.6570,138.9778,29.0393,-31.2139,-185.2729,-150.2245,-268.8514,-92.6972,55.7626,127.1033,63.4879,-5.3487,-7.3030,26.8277,26.2896,135.3038,-28.7528,-71.4333,-67.6534,165.1015
-1343.7500,39.3654,43.4798,-66.5827,-20.5652,-208.0796,-62.8199,-144.8428,30.5221,-4.2597,141.3299,40.9952,-18.6303,4.9197,3.2646,2.3070,149.4551,-52.5200,9.1606,12.4837,105.3032
-1335.9375,84.1719,-17.9291,-56.1125,-46.8223,-122.7963,-52.3127,-169.7249,79.8541,7.8218,152.6580,53.6129,-65.4895,54.2436,-58.2023,14.4213,87.7084,-80.1964,-17.1419,91.7323,43.6042
-1328.1250,-109.4670,70.2077,-110.0972,-29.5361,-140.9660,3.7424,-42.0562,208.7443,-10.5432,208.5451,-38.2139,-17.0298,-37.8782,-112.1238,-40.9179,32.5128,-168.3253,71.1041,249.5307,25.4537
-1320.3125,-106.9606,37.5034,-143.9305,43.8920,-102.9899,79.9478,-40.2416,210.7918,28.2442,173.5900,-72.8909,8.5908,-35.8511,-109.8934,-148.1078,-39.5364,-61.3157,108.5010,216.4850,27.4503
-1312.5000,-22.1134,51.1456,-129.4135,22.6683,-88.6687,94.5026,-62.0700,226.1960,6.3876,114.9924,-57.2265,0.2592,-57.4718,-131.3121,-133.9451,-61.2398,-117.9535,87.2439,264.7948,5.7933
-1304.6875,-88.7057,90.3361,-160.3408,-8.0167,-119.7929,100.6007,17.6451,231.1548,12.0891,157.9541,-88.0038,4.6825,-125.5389,-126.1859,-129.2318,18.6007,-114.0409,56.5233,233.6543,-25.3155
-1296.8750,21.2089,94.0396,-83.7778,-4.2091,-79.4278,-5.8036,-90.1378,161.6269,88.2956,198.4336,-84.2802,-32.1263,-85.1134,-158.5681,-52.0210,21.9514,-39.6424,-44.6958,167.0180,-21.9258
-1289.0625,27.1233,99.7234,-78.2197,1.6029,-111.0720,-37.2055,-10.9214,130.1132,93.5084,239.9279,-78.5590,-29.2828,-79.6868,-152.9502,-46.8117,27.3130,-70.2422,-74.9162,172.3794,-16.5367
-1281.2500,1.2328,73.5832,-32.4597,10.6144,-102.5148,-65.4138,-39.5138,101.8092,28.9310,248.6366,-32.6334,-3.2523,-34.0597,-34.1292,-75.4044,71.8810,9.3549,-100.9464,4.9492,-7.9489
-1273.4375,-40.8346,-73.6974,33.1484,4.4719,-37.1096,-36.7820,-121.2411,57.3616,-16.7897,277.2061,-3.8649,-24.8464,-5.5781,31.5413,-47.1482,64.3022,2.8030,-72.1326,-1.6296,20.4879
-1265.6250,-79.1055,-146.1641,-7.4445,36.1188,-77.9015,-3.3549,-15.1752,89.7180,-20.7022,273.5804,-44.2945,-39.7100,-9.2946,-8.9876,-88.0880,96.5239,-0.9506,-4.5236,-5.4167,16.7248
-1257.8125,-5.1696,66.5714,34.1614,3.9659,0.4943,-72.7325,-121.9080,57.2824,-16.4024,205.1597,-2.5228,-25.4543,32.1867,-78.3199,-83.8238,100.9463,1.4825,-36.7163,-108.9974,-15.8422
-1250.0000,21.2764,92.8012,61.2582,-4.6909,-45.6146,-81.6151,-57.1315,85.3511,-25.5901,122.2480,-11.2537,-4.5724,-13.8304,-50.1555,-19.0553,91.8658,-42.5828,-45.4110,-47.0788,-24.9129
-1242.1875,43.3786,9.6645,47.0035,-17.7053,-24.0740,-59.8524,1.2891,70.0785,-4.1110,69.9956,-26.3373,-9.7837,-29.2034,8.6517,2.3678,76.4405,14.0000,-23.4613,-96.4995,-3.3335
-1234.3750,95.1627,-44.7868,63.4379,-37.0218,29.1605,-80.3885,-56.5780,13.5245,122.0758,13.4589,-46.7331,-60.2954,24.1121,-48.8382,55.4900,56.7227,-4.7211,-42.8117,-45.2038,12.9444
-1226.5625,-78.2151,-6.3817,-43.2782,-33.4991,-3.7503,-39.0785,131.4048,90.8266,126.1235,17.7832,-116.2769,-33.5393,-8.7230,-81.4765,58.4608,23.8578,-73.5898,30.6789,62.9424,-19.9341
-1218.7500,-47.2516,-46.6172,-48.6452,-3.6376,63.6857,-7.4261,88.7453,85.4888,46.5362,12.4646,-47.4688,-36.9546,-14.2052,-86.7672,52.7803,-18.6543,-8.1212,60.5104,-12.5498,-25.4690
-1210.9375,75.2580,-64.3035,7.5302,13.7675,45.6659,11.7774,33.6450,67.7124,-44.4924,-42.2918,81.8803,-42.0116,4.8669,-104.5091,-1.3501,-73.6122,-61.1031,77.8873,39.5097,-43.4591
-1203.1250,81.1203,10.3292,13.0551,18.5118,15.0015,91.3314,39.8958,74.2970,-186.1587,-72.6900,125.5815,7.7223,10.2885,-60.9067,-106.1191,-67.2161,-21.7395,118.6128,8.9279,-74.1011
-1195.3125,126.2765,20.2377,98.8707,28.5443,26.6377,103.1850,-58.5296,49.1957,-211.5131,-97.7731,173.5758,25.6290,59.0050,-13.0108,-205.5812,-19.5169,-12.0851,128.6396,-16.3423,-99.4457
-1187.5000,97.5795,-43.6954,69.8340,35.7180,-2.5723,111.1836,22.1990,94.2501,-240.7023,-89.6954,181.7203,33.4934,66.8736,32.0319,-234.8947,-48.6688,-6.2831,169.8056,60.5340,-128.6437
-1179.6875,181.9252,-100.5670,84.8445,48.9361,49.2674,89.2231,-0.0260,72.3603,-225.8300,-38.5649,159.9144,-0.7761,81.7938,10.1249,-146.1558,-70.7680,42.5589,113.0178,-32.5323,-150.7915
-1171.8750,198.4696,-119.2437,64.0470,65.3508,65.2944,105.4598,-21.0439,124.6866,-135.7511,-22.2209,103.3027,8.5428,-50.0895,26.4131,-57.2154,-90.6617,-82.4030,129.4285,-16.3959,-134.7403
-1164.0625,60.6125,-81.3326,-82.1546,68.3549,-44.0718,143.2905,90.5344,199.6219,-98.0571,15.7448,-6.7144,56.0680,-85.3759,101.3007,-55.6652,-16.9493,-150.7683,132.4267,21.3398,-97.0898
-1156.2500,16.9817,-89.1763,-92.1216,24.6020,18.8039,59.3691,6.3751,116.8240,-34.0899,42.9782,-15.4908,18.9295,-21.4153,91.4379,7.1452,10.0194,-123.8981,89.6738,13.3363,-70.1898
-1148.4375,-40.2054,-112.5761,-116.6473,-32.7093,-4.8796,34.8907,166.6695,166.4881,14.3419,92.6670,-39.8162,-15.6153,-46.0008,30.0235,19.4108,-13.5564,-181.5712,102.3645,131.7888,-57.8415
-1140.6250,-49.5916,-191.1892,-128.3739,-42.2325,56.2363,60.2057,191.7686,154.9647,39.5890,81.1615,-51.3405,-41.7523,16.2139,19.4041,-28.5215,-25.3301,-86.4523,127.8489,122.0624,-32.6982
-1132.8125,-146.2421,-253.0624,-82.3593,-69.0144,102.0975,106.2717,126.6416,164.2073,48.6050,17.4157,-5.1293,-52.9330,25.1709,28.5335,-19.6977,-53.3517,-112.5916,172.0802,236.0992,-23.8102
-1125.0000,-201.4007,-169.4356,-140.8473,-54.3099,7.4645,195.8373,215.0184,252.9571,-45.8572,-3.8179,-63.4227,-9.8002,-33.3733,7.1640,-78.3653,-37.8723,-63.2363,255.7964,249.6263,-45.4210
-1117.1875,-57.3762,-165.6216,-100.1474,-86.4167,47.0241,199.6009,108.6091,183.9240,-79.1065,0.1631,-59.5184,-47.2661,43.2759,-26.0097,-37.8294,-34.1816,-24.6915,224.7070,148.3681,-41.8283
-1109.3750,-115.7106,-187.1694,-124.8044,-108.8805,59.2242,175.0098,157.8614,159.5556,-29.6992,48.8216,-46.9653,-69.2165,19.5776,-50.5326,-25.6425,-21.8283,-83.4951,202.2628,195.7574,-29.5887
-1101.5625,-207.7876,-140.4704,-75.2124,-96.1000,71.6785,113.6663,243.3586,98.4459,19.9672,61.7399,-108.1579,-46.8109,32.1260,-37.8063,-50.2020,-46.2220,-0.0529,109.0616,138.3996,-17.1077
-1093.7500,-31.4236,-140.3219,-1.1770,-95.8727,71.5780,40.7726,133.3227,61.7977,56.0877,99.1170,-70.9016,-81.3841,32.1198,-74.6286,-50.3131,-46.1560,-0.1661,-30.6944,173.4971,-17.1829
-1085.9375,7.2929,-206.8313,-34.7940,-92.3096,-72.1688,44.2292,173.6354,139.5077,96.5746,213.8532,-104.2926,-91.5723,-75.5290,-34.0990,-84.0749,67.2661,-31.9305,-27.1194,176.9399,-13.9098
-1078.1250,-31.2383,-174.5983,-2.6672,-129.0105,-77.1733,2.4287,94.7050,171.9759,202.8208,282.3525,-107.9308,-112.7803,-80.4320,-38.8175,-52.0754,173.4486,-35.9604,-100.8058,68.1355,18.1155
-1070.3125,-135.2714,-138.8696,-77.0507,-164.2256,-113.6855,-35.8755,94.2855,170.9562,311.5762,318.3725,-145.0783,-132.5363,-44.8315,-76.0419,57.4390,172.1375,-140.4949,-135.0039,138.8229,53.6429
-1062.5000,-293.5247,-191.3453,-169.6365,-146.6551,-96.3968,-54.3943,184.6662,151.7488,403.1608,373.2094,-164.4309,-139.1688,-27.4234,-58.4757,111.7727,189.6295,-123.2374,-152.4133,86.3172,70.9687
-1054.6875,-213.3678,-252.3874,-197.7794,-172.6461,-15.6620,-118.4631,156.5235,88.0105,449.2236,419.5083,-192.3474,-188.1755,-18.5704,-85.4620,193.5670,161.5775,-149.5350,-178.3780,95.2823,79.7420
-1046.8750,-285.7695,-114.0024,-272.4712,-174.2018,-53.4683,-83.0849,228.8431,159.7305,373.7618,455.2586,-229.8269,-131.0981,-92.2637,-86.9998,154.8229,159.9788,-186.3755,-144.9006,163.6931,77.9676
-1039.0625,-290.8154,-119.2862,-240.8194,-214.4182,-22.9232,-52.3631,149.5216,191.8052,295.6678,450.3607,-161.9576,-135.3354,-25.6031,-56.1849,113.4331,154.7300,-85.8740,-115.0813,123.4647,72.5418
-1031.2500,-252.1734,-291.8732,-163.4764,-211.9411,18.3171,-48.9428,116.9185,196.5898,299.2892,418.1773,-120.3923,-194.2033,-21.2529,-88.6740,116.7453,159.1863,-84.6718,-77.5693,231.9369,39.8083
-1023.4375,-249.3395,-254.2560,-122.9385,-209.2704,-14.2353,-44.3274,232.5188,201.5845,267.1187,349.2086,-189.6350,-176.8846,-162.7090,-120.9706,84.2676,163.8479,-11.2725,-39.8643,234.6100,7.2711
-1015.6250,-219.2179,-153.3353,-55.1099,-179.3069,17.5075,-49.4059,116.4341,159.8926,299.2524,270.5425,-231.5898,-129.7853,-241.8713,-89.9673,116.0958,158.8148,18.4200,-79.8561,194.5949,2.0299
-1007.8125,-207.8538,-108.1714,-81.0319,-168.1033,-82.4952,-38.2349,164.6081,134.4574,310.6417,246.1224,-220.2981,-105.1935,-230.7736,-78.7092,90.1735,96.0380,-5.6284,-68.6083,240.8277,13.0358
-1000.0000,-132.9988,-34.5194,-149.4521,-128.4077,-78.9908,-71.5696,131.2938,101.5240,277.5434,176.2008,-179.5076,-84.8632,-81.1672,-74.9515,57.7614,99.7587,-2.1840,-99.8688,138.5682,16.5376
-992.1875,-120.5084,-57.2273,-137.2379,-116.0718,-66.8349,-95.2542,106.6552,78.2480,327.1134,114.9416,-130.0779,-77.7200,-68.9157,-25.5499,106.0038,112.1367,-96.0946,-157.4893,150.9685,28.6872
-984.3750,-197.2661,-63.2005,-182.2796,-52.9978,-73.9253,-66.2018,209.7674,70.7315,283.4615,71.4578,-174.9033,-33.7781,-111.9170,3.5937,99.0066,105.2740,-32.2547,-92.3754,145.1193,57.5867
-976.5625,-98.0905,-104.2284,-43.3847,-59.9859,-8.0695,-109.2047,55.8501,-9.8180,276.7878,27.9532,-107.7916,-65.3633,-46.9827,-3.3165,91.9663,61.3707,101.5212,-135.3235,103.2353,50.4322
-968.7500,-114.5812,-85.9069,-20.1492,-75.6433,52.1409,-123.8586,115.2962,-23.0003,299.4846,14.8158,-49.3387,-90.0751,-23.7043,-90.8765,114.2794,-26.1691,50.6445,-115.9370,122.7018,-0.3760
-960.9375,-97.7277,1.7448,-1.5698,-22.9743,106.7054,-69.1719,134.0979,-40.8202,244.5514,-39.9551,43.4624,-50.1086,31.9290,-109.0906,58.9571,-81.3460,32.1075,-99.2166,-71.4705,-18.8345
-953.1250,45.3086,3.5768,0.1917,13.8783,108.4665,-30.2868,26.1284,-38.4280,210.8343,-111.5062,81.4537,-29.1417,33.7670,-70.1051,60.8452,-116.3104,-36.2363,-97.3085,-104.4320,-17.0936
-945.3125,-31.7104,-3.6603,-44.0984,76.6651,-8.8135,36.5397,92.1156,-8.0769,130.0880,-118.0911,38.3858,11.4354,-10.4395,-40.1655,90.6948,-86.3192,-8.6284,1.5342,-111.4430,-24.4025
-937.5000,-32.7016,65.1464,29.6577,111.4876,27.9523,36.4173,-53.8267,-43.6575,94.4143,-116.6159,75.3567,47.3858,63.3957,-2.1816,91.5962,-122.2705,25.0216,0.4242,-182.3909,-60.6634
-929.6875,27.2436,55.9016,58.3538,136.2504,56.6732,28.2473,-25.7970,-51.2726,49.7145,-124.1869,67.2637,42.5781,18.1743,-47.2518,83.4509,-167.2669,14.6188,25.2550,-157.3857,-105.9786
-921.8750,52.6343,150.0956,47.4912,195.4437,82.8546,54.5196,37.6949,-61.4324,2.4940,-134.3028,-17.3914,83.0446,-29.5983,-94.8746,35.7759,-177.8106,39.6611,50.5245,-237.9258,-116.8466
-914.0625,40.7108,208.9764,71.3139,219.3118,69.7407,41.4900,-122.0758,-110.8816,-10.0111,-183.7121,6.6429,108.4449,-5.6744,-70.8023,59.8191,-153.6499,63.3929,74.4805,-213.7524,-93.0158
-906.2500,-85.0218,153.0414,48.3311,198.3596,9.8370,92.6520,-33.6346,-96.1267,-31.2954,-168.9061,20.8757,129.0243,-27.5409,16.4591,37.0740,-139.2757,77.3230,123.6244,-164.3790,-78.9848
-898.4375,60.3807,88.2350,127.4867,168.5459,52.0837,60.9612,-65.0297,-90.2083,-25.4113,-198.9410,26.2543,83.3042,-22.2540,-14.1310,5.4883,-170.7403,152.3958,93.9222,-227.8393,-73.8058
-890.6250,178.6688,170.3226,177.5316,215.6248,29.2279,38.1764,-87.5021,-112.3722,-121.6156,-221.0702,40.5259,91.1150,-45.0745,-110.8142,-17.1985,-193.2968,129.3691,106.1096,-146.3941,-96.7319
-882.8125,81.1605,283.5998,149.7765,223.8842,1.5809,47.5850,-4.7679,-65.3310,-148.6013,-137.9909,12.9971,133.8817,-36.6916,-101.2990,-44.6755,-183.6501,136.5389,43.4786,-208.7477,-124.4600
-875.0000,61.8396,158.0655,202.2126,168.3229,91.1342,26.1860,-61.8044,-86.0818,-95.3655,-121.7044,65.6590,99.4260,15.8939,-12.5904,8.0564,-167.7970,116.9041,-11.9645,-227.8901,-108.9911
-867.1875,17.4633,43.4728,81.5971,124.6942,6.6452,52.7292,38.1226,-21.8794,-68.1589,-94.4614,92.2688,48.3656,42.4313,-21.9347,34.7505,-66.9883,-32.7745,-20.4777,-131.0867,-82.5757
-859.3750,-3.3678,93.4228,21.5269,103.5950,20.7151,29.8195,15.6142,-7.1189,-16.3882,-42.6574,69.4234,50.1090,56.5138,-7.7273,49.0002,-15.6269,-18.9144,-76.4524,-186.7219,-68.6127
-851.5625,-50.2180,80.3619,44.4410,20.4867,7.7868,16.9073,-33.8634,16.6573,7.3970,18.1538,19.5579,51.1463,6.5959,88.4785,109.2558,43.7454,-102.0578,-124.4310,-93.3563,-45.6519
-843.7500,-79.5858,-18.2088,-24.1479,-8.1372,-61.6268,21.4937,8.1719,58.9349,-24.2944,96.4654,-49.8190,41.7024,-25.8174,167.1837,114.0340,85.6257,-60.6997,-82.9237,-86.4928,-4.1920
-835.9375,-8.2677,-53.1002,48.9561,27.9229,-62.3372,20.7826,-138.0683,21.9213,-61.2666,97.4808,-13.5034,21.2012,10.4620,129.5920,77.5268,86.2138,11.3523,-81.7194,-118.9165,31.9666
-828.1250,-33.9061,-8.9549,21.1070,107.0170,-161.9901,30.1241,-128.2412,31.9585,-123.1734,70.5423,-4.1413,71.5787,19.7962,139.0498,13.0726,58.8559,-50.5403,-37.4719,-40.2997,41.1744
-820.3125,10.4399,141.1901,30.2528,116.1005,-226.6294,2.4624,-155.4063,-32.0051,-187.0704,-66.3983,5.2190,113.1023,103.1370,148.5090,22.6237,68.5040,29.5631,-63.2333,-135.6866,50.3792
-812.5000,73.4661,168.0341,20.0855,72.8725,-199.5710,-43.4951,-201.8444,-76.2589,-196.2544,-111.6263,32.2655,111.5158,56.1762,175.6651,86.8872,58.8613,-14.6343,-70.3077,-72.3705,77.2807
-804.6875,-125.1514,145.2269,-40.7335,84.9791,-187.1529,4.8897,-41.9244,-27.1646,-183.0674,-25.5036,-28.3480,136.3739,-151.4324,188.1684,99.5170,108.5777,-2.4749,10.9476,-95.7089,89.5288
-796.8750,-70.8759,58.3052,-57.6562,102.9718,-92.8307,-11.8233,-131.0790,-43.1666,-124.9696,31.5096,-9.0735,82.2074,-58.1485,135.5744,83.0570,129.1971,15.5856,29.0917,-182.1315,72.6754
-789.0625,12.9384,-102.0848,-42.0259,47.5072,-40.9436,5.0111,-113.6589,-62.6161,-144.3117,12.0700,7.7458,21.0524,31.6811,151.5283,63.1523,145.3648,-39.7924,8.7740,-96.0077,52.3733
-781.2500,19.8963,-26.3274,1.7544,-16.8215,3.1019,-25.0139,-34.0821,-127.9160,-173.4889,-53.2175,51.7186,23.4551,75.6691,158.6273,70.4041,116.6779,37.9772,-88.4083,-159.7254,59.2237
-773.4375,10.0858,174.6835,100.7725,-60.9190,65.3938,-108.7910,-80.2258,-211.9556,-184.3980,-137.2502,76.9287,64.3185,100.9069,147.9708,95.9156,68.2473,-8.0101,-134.3487,-134.1821,84.3218
-765.6250,-92.9233,211.4807,65.5874,-25.2378,-6.5045,-69.7648,-5.5579,-136.1878,-217.4842,-207.4849,41.9312,106.2394,102.9460,150.1141,24.2341,70.6244,-6.1954,-61.5034,-96.8415,86.2152
-757.8125,-6.2879,87.9112,84.0419,-8.9314,49.2536,-16.0888,-95.2083,-153.7625,-234.8971,-225.0636,60.5728,90.7079,121.6291,204.9077,-30.7860,52.6594,46.2568,-80.0219,-114.8312,67.7542
-750.0000,57.6350,9.6326,39.7786,18.6507,5.3149,50.8871,-101.5269,-160.0257,-240.9830,-231.3251,53.5000,90.1607,40.6067,235.0056,-0.4945,83.0062,2.9973,-18.2574,-51.5194,60.5932
-742.1875,21.5484,-25.6631,2.5004,54.2039,5.3902,87.8580,-28.8302,-159.2791,-277.0394,-230.5708,16.4195,99.5685,40.5892,235.1027,-0.1890,83.3595,73.7255,52.4928,-85.2000,60.4347
-734.3750,37.3925,-11.0284,19.1550,68.6793,96.4193,67.7794,-120.1436,-178.5638,-259.1308,-286.8502,70.2748,96.5674,130.5242,215.1505,-19.9297,26.6745,88.3853,67.1873,-104.9181,40.2262
-726.5625,-7.8864,49.4940,10.7038,58.0304,51.3715,95.5969,-18.5366,-185.9422,-230.2999,-294.2142,62.0198,107.9781,49.3652,170.0947,-64.7592,18.9005,77.9415,91.7720,-45.7428,-5.0827
-718.7500,44.2078,66.3962,102.6463,109.7601,106.7385,77.8141,-72.5021,-202.9113,-247.0435,-311.1752,44.1578,97.3012,67.6078,78.4310,-155.1705,1.5292,200.8899,73.7501,-98.1563,-22.9925
-710.9375,45.7328,67.7394,178.0206,146.9183,108.5665,43.4847,-106.9823,-200.4255,-244.3200,-308.6877,81.7309,98.2436,33.2981,44.2172,-80.1218,-33.3821,132.2916,40.1713,9.8839,-21.4534
-703.1250,-46.3403,116.4762,117.7873,124.4537,49.8082,57.5535,-18.0480,-148.5399,-192.1769,-257.7954,22.6958,110.1432,10.3887,58.4094,8.3357,18.1151,110.0917,18.9769,-46.6775,-7.5167
-695.3125,42.1725,63.8016,98.1415,106.5687,30.6589,38.2272,-145.4846,-130.0407,-136.4233,-202.2923,40.2513,73.7415,28.0748,76.1989,26.3967,73.2234,92.4853,-34.6267,-98.6268,10.0166
-687.5000,38.3315,59.7573,21.1435,102.3123,-46.8247,34.5507,-112.2510,-96.8869,-139.0027,-95.1376,36.4541,79.3990,-12.5833,108.6346,-50.8820,142.9836,18.5363,-73.5907,-31.9302,6.1990
-679.6875,76.5377,168.7518,24.1867,70.0816,30.7547,-36.0826,-107.9460,-128.6780,-171.5106,-90.9268,76.7013,84.1416,27.8078,76.1098,-47.0998,73.7967,21.6307,-105.5140,-98.1718,9.4279
-671.8750,105.1731,161.1931,52.6680,63.2880,59.7901,-44.2643,-114.1614,-136.0096,-141.5581,-134.2521,141.3820,64.4848,56.6451,31.0369,-54.8675,29.0671,-20.8232,-110.9960,-102.9626,38.1038
-664.0625,-1.0493,90.7827,-21.7037,97.6293,22.9986,-7.3007,-4.2148,-62.1922,-67.4516,-60.4279,31.2056,80.3796,-17.3624,68.1133,-54.4763,29.4920,-21.1207,-77.3429,-68.6084,37.9281
-656.2500,49.5731,0.2157,31.7668,76.8040,77.0675,-27.4889,-23.3881,-81.5195,-13.4847,-43.7557,10.8708,21.2710,36.4767,11.0341,-0.2235,-27.2337,29.4263,-97.8444,-53.3959,17.5997
-648.4375,73.5897,24.0341,20.6324,30.3615,66.5463,-75.2758,77.8642,-91.4463,-23.1044,-53.6865,-0.0690,-7.2529,25.7192,-73.6477,-10.5602,-74.5493,-52.6220,-73.9588,77.2095,6.6717
-640.6250,27.4922,153.7441,46.3919,-16.1997,91.9338,-86.1666,68.0289,-65.4703,-32.8084,-63.7181,-48.1152,5.2015,-22.1324,-120.4217,-20.9878,-47.9564,7.2295,-50.1836,31.7175,-4.3573
-632.8125,39.9773,130.0461,94.7345,-40.1756,104.9310,-109.4565,7.8265,-87.8873,18.1037,-122.1500,-72.5708,6.4209,-46.3850,-71.5913,29.1943,-71.7585,19.6739,-37.8147,79.8357,8.2057
-625.0000,-44.6797,46.1967,79.9245,16.6753,53.7983,22.0994,67.4901,-65.4564,-33.1156,-173.7414,-123.1716,18.0147,-61.7780,-85.9153,14.2308,-49.7069,40.9677,89.3823,101.7983,29.6135
-617.1875,-17.2852,38.3934,72.1592,43.5544,83.7217,14.7061,-12.7713,-107.9765,-2.2733,-143.2951,-94.7202,6.0336,4.8780,-93.1927,44.3227,-56.6043,103.3047,81.6162,-11.1788,22.0712
-609.3750,-54.6416,0.8337,32.6320,40.6664,44.8986,49.5611,-13.7605,-73.2466,33.8354,-71.5986,-97.0309,-6.0980,-34.2159,-95.2144,79.6749,-21.2459,30.8974,114.0882,23.0869,19.7798
-601.5625,12.6031,-107.1416,-9.2973,72.3557,40.6968,82.0087,19.8667,-39.9227,-42.4340,-38.3003,-64.7479,-6.2324,-74.7074,-26.6363,1.6431,48.7160,98.0864,76.1429,-50.0455,52.0874
-593.7500,211.9344,-155.0245,50.8562,-10.8735,64.6012,31.5570,-101.3698,-88.4929,-90.5930,-86.8999,-5.3743,-55.9448,21.9037,-2.9620,-11.2844,35.7781,86.3722,28.2883,-26.0684,75.4945
-585.9375,55.0061,-101.1617,-40.2423,-28.3718,48.2652,51.8557,29.1597,-31.3119,-32.9926,-29.7601,-58.2530,-45.3014,5.2748,-55.5380,9.5496,-53.4067,-1.5846,82.1702,63.6493,58.6542
-578.1250,-19.8888,104.7436,-80.2965,-67.8388,81.9895,11.2090,26.7635,-34.0796,74.6715,-32.5766,-62.0872,-13.9834,-35.3055,-95.0562,6.4451,-56.5380,30.5053,78.0928,-10.5773,54.8631
-570.3125,-47.9975,146.4402,-109.5576,-61.5222,15.5269,18.3655,-1.8022,9.9563,157.1436,-97.5973,-91.1319,20.4317,-100.0845,-51.7681,51.1468,-84.8637,-33.6021,84.8048,102.9927,61.8699
-562.5000,-123.8484,35.3773,-152.5651,-32.9692,-62.6661,49.7702,30.8960,79.2331,115.8803,6.6228,-133.9304,8.5522,-69.6093,-21.2325,9.1072,-17.9425,31.5422,113.7553,97.8048,56.1274
-554.6875,-7.9585,-128.9397,-67.8288,-57.6783,-13.0991,-11.0671,-28.6286,93.2600,93.3714,131.5813,-48.9884,-85.0708,-20.3935,-80.9438,22.8163,-41.2692,42.4399,54.4572,109.3716,32.1333
-546.8750,-21.6155,-178.8061,-80.6439,-107.9487,-62.0634,-23.4495,71.3133,117.7304,118.3140,229.9755,12.3991,-119.2539,-32.7206,-94.2087,-26.0248,-53.1465,-7.1972,39.6038,201.3754,-17.4149
-539.0625,28.0287,-165.3776,-101.1584,-128.9361,-44.7069,-43.5364,52.5776,135.4922,173.5636,247.6572,-7.9079,-111.7501,-52.7346,-40.1829,-82.5567,-35.7304,42.4678,19.0396,110.6830,-37.6693
-531.2500,18.0707,-174.5539,-39.2764,-139.5403,-18.9299,-55.2281,-31.7243,124.6531,163.2200,273.7298,-56.8212,-120.6306,-64.3436,-51.7586,-93.6834,-9.9133,32.5313,43.8649,136.3905,-12.5259
-523.4375,-31.3395,-153.1812,-17.8443,-118.6186,-70.5863,-33.3744,28.5375,147.3586,39.4481,259.3433,-108.1909,-86.7275,-79.4014,-29.7899,-107.2517,12.4583,89.1470,100.2260,123.6477,9.1690
-515.6250,17.9872,-71.0708,70.3226,-70.9674,-17.4879,-54.7678,-65.4216,53.8202,56.4472,164.7048,-56.8169,-74.3728,-63.7121,-88.0730,-92.0618,-8.4162,138.4999,78.3302,102.6690,-12.3850
-507.8125,19.9631,36.6788,74.1292,-68.6892,-86.7296,-13.5110,-22.7085,58.9347,98.1141,95.7152,-15.7940,-34.3970,-133.3706,-83.7029,-124.2131,-3.6396,105.5063,45.0715,141.3332,-45.2867
-500.0000,80.0912,-43.4334,64.0745,-115.2776,-58.8086,-60.1090,6.1715,50.1968,53.9430,86.8729,11.3803,-64.4677,-68.8781,-19.1808,-96.1993,60.2905,130.6537,34.9488,26.1539,-55.0336
-492.1875,88.4080,-141.3632,72.2060,-107.6848,-12.6774,-125.5027,-57.7189,22.6615,63.9814,96.2289,19.7461,-103.0174,13.8129,-10.4556,24.0190,69.4290,68.0046,-26.9790,70.1820,-46.5783
-484.3750,-54.2288,-144.2456,-3.6063,-111.0607,-51.4741,-90.8495,88.4550,94.1675,63.0829,168.6257,-56.8423,-92.7199,-25.4356,-12.6847,22.2918,141.6106,30.4129,-29.8619,103.2526,-49.0744
-476.5625,-14.2770,-174.5238,37.1751,-106.8523,28.3427,-85.5884,22.2577,64.2754,105.7850,174.6162,-14.8354,-120.7184,52.9180,-44.3148,-45.8355,147.3882,106.4128,-96.1467,38.9299,-43.9763
-468.7500,-5.7226,-166.1990,45.5490,-134.0603,73.7759,-39.7208,105.6839,-0.0121,116.0863,110.1992,30.7660,-113.5060,61.8726,-35.3433,-36.3643,82.7647,9.0182,-122.8345,83.1977,-35.2814
-460.9375,-14.1657,-69.8860,71.9229,-143.2889,101.2287,-86.8546,171.1214,-46.3075,108.3977,27.7662,20.3769,-89.9517,52.8354,-45.3744,28.1086,37.1393,0.6288,-131.5330,-30.5293,-8.5861
-453.1250,24.9290,4.9689,74.8354,-174.9840,141.2396,-119.4361,65.1431,-115.0528,149.2728,-6.1172,59.5320,-103.3659,92.3488,-78.8581,105.1371,40.0657,-66.2093,-162.6883,-60.7016,30.6557
-445.3125,16.1347,-74.0868,-9.1474,-148.6022,22.3710,-55.9182,131.2762,-49.7052,104.2580,-49.8967,49.7785,-94.3161,45.9675,-51.2435,59.2755,68.0946,-73.9418,-65.7532,37.2132,57.9949
-437.5000,63.2938,-132.2070,40.8128,-137.2897,36.4688,-6.4510,35.3822,-36.4035,82.1952,-72.7305,99.9664,-102.7804,59.5413,-38.6771,36.3655,8.0717,8.2666,-19.8703,14.0869,34.2814
-429.6875,119.3471,-112.4324,64.6637,-187.0947,98.4804,-18.0791,62.4121,-48.2000,109.0355,-48.6671,51.0476,-122.8848,84.0254,-87.2111,25.3469,-77.0478,-40.6251,1.9082,141.8562,-14.5333
-421.8750,60.2929,4.2427,4.4152,-178.0153,112.4113,-41.8046,187.3480,2.9028,159.7804,2.2909,-9.9644,-87.6066,60.4101,-110.8399,-34.7670,-100.2739,-29.6189,-22.4231,83.5228,-38.4475
-414.0625,14.9279,-41.3705,-8.1404,-154.2474,175.0466,-53.8234,104.0095,-8.2910,186.2262,27.9516,-22.2846,-101.5371,49.4843,-121.7672,27.8238,-74.8025,-75.9184,-33.0566,108.8941,-13.6646
-406.2500,-121.1395,-107.6937,-77.3983,-44.1976,70.9983,-11.5425,183.9890,34.8113,119.9886,33.9114,-17.3083,-60.0849,54.8643,-80.3922,33.7197,-69.0254,-105.9116,41.5939,114.5596,-8.5840
-398.4375,-121.6524,-37.4919,-41.1055,-10.6202,107.5116,-48.7128,148.5393,-38.5375,121.3199,-39.5846,19.2178,-41.2733,127.7951,-80.4661,107.1695,-104.6939,-35.3606,5.7814,-61.2130,-8.9527
-390.6250,-98.3683,20.5036,-18.0240,-23.2538,95.8285,-62.0844,100.9174,-50.0798,109.4579,-87.2828,5.5358,-30.4160,114.5228,-92.7351,131.4150,-116.5583,-48.0080,28.7636,-2.1853,14.4791
-382.8125,-128.8761,-11.3000,-51.7420,14.2901,26.3604,-21.2576,143.5033,-9.4240,77.8020,-46.7876,-64.9426,7.0610,45.4588,-15.8075,62.8634,-40.2230,26.5495,66.9365,38.0348,18.1110
-375.0000,42.2119,-15.5076,-18.8687,-25.5854,60.5021,-61.8296,30.7148,-12.1713,75.7543,-85.6964,5.1776,-22.9158,41.9980,-19.2803,59.9173,-79.2895,57.6997,-7.2971,34.8647,14.3419
-367.1875,157.6032,28.5772,-44.7002,-123.1765,-38.0391,-87.1008,118.2433,37.3778,52.0142,-74.3136,16.6000,-60.0658,-20.1562,-81.4580,35.2758,-104.0582,-2.8430,1.7554,114.9855,-11.1247
-359.3750,158.7610,64.4104,-6.7882,-123.0310,-35.8191,-85.6226,47.5331,76.6676,18.0258,111.8092,-19.2230,-70.5268,-18.5517,-115.8920,0.3870,-66.0810,-1.6376,-68.4501,11.8567,-9.8406
-351.5625,71.8083,48.1592,-61.9872,-139.9998,-52.6848,-102.2423,-5.2518,133.8551,38.9300,204.8326,-37.1538,-54.6974,-36.0470,-23.4254,57.3959,-9.2049,-123.5315,-119.7606,66.6271,9.3396
-343.7500,-64.5576,17.5091,-166.5815,-136.3858,-82.9250,-61.2634,112.5729,212.6404,8.4462,210.4525,-105.4919,-34.6456,6.0656,18.6455,63.0024,-3.7301,-118.8281,-115.4795,106.9932,14.1197
-335.9375,-10.5802,-34.8126,-111.8376,-188.4360,11.1936,-40.9254,60.7713,123.7838,67.3230,121.4144,-49.4842,-79.2720,136.5235,2.0699,83.9631,-56.9077,-100.7818,-132.8463,90.7226,-2.7472
-328.1250,25.9537,-33.6042,-146.5536,-187.9523,-23.1272,-2.0344,138.5405,126.4753,70.7536,49.9197,-10.9250,-79.5858,101.5324,-32.9546,86.4792,-90.5324,-168.1765,-61.6631,162.9980,-1.0635
-320.3125,50.9035,-8.9945,-157.8652,-164.0821,-70.0277,23.2505,128.7211,78.5556,97.5902,1.8015,51.0459,-65.8477,90.9445,-7.5833,75.4067,-28.7710,-109.1711,-72.0887,12.6788,24.0156
-312.5000,37.3532,47.1298,-100.6816,-109.7264,-47.4211,-28.9642,5.4304,-8.8689,46.9272,-11.8335,72.5158,-33.8960,112.8625,14.2864,60.8323,30.4827,-121.6670,-51.0206,-35.1437,45.5926
-304.6875,-72.5392,112.9046,-104.8448,-79.7308,-50.1456,-32.5282,113.7951,24.3483,44.9107,-14.8310,-5.3651,24.1218,72.4405,47.8124,-16.0977,27.3905,-161.5100,-20.3079,-38.3336,41.8217
-296.8750,-69.6822,45.4139,-66.2674,-77.9925,63.8856,-29.3314,44.9212,-43.6825,123.6393,-47.0768,-2.4975,10.6953,112.7692,88.0973,-12.2849,31.0547,-88.6087,-52.8372,-104.7738,44.8016
-289.0625,-75.6291,-101.8771,-72.4913,-120.0576,59.1305,2.0689,78.2626,-12.5149,156.5628,-16.1248,-8.4312,-40.8702,70.2952,82.5796,56.7247,25.9177,-128.4946,11.8308,29.9821,38.9788
-281.2500,-16.8722,-114.4533,-83.0086,-98.4366,13.0966,29.1652,107.3110,51.3433,111.1930,47.5138,-55.6543,-36.6583,-13.4812,72.7555,10.4391,16.4717,-35.6787,34.1853,19.4381,-8.1466
-273.4375,97.5824,-105.3250,2.1702,-54.1281,25.7653,40.9622,10.0827,-10.1028,87.5264,22.8439,-7.1772,-35.8130,-38.5553,47.6263,22.8548,-45.2822,8.8397,8.2351,-41.3977,-33.5735
-265.6250,22.0971,-40.1519,-3.5996,9.2269,-52.5006,71.8116,80.9051,22.4941,46.9063,-18.7832,-12.6484,18.5434,-117.5602,42.5434,-55.6848,-49.9889,38.4120,37.3318,-10.1963,-38.9504
-257.8125,12.8149,126.2056,22.8283,-1.2322,13.4487,99.8633,-0.0565,14.2920,76.4902,-64.2173,-21.9177,62.8249,-89.3540,33.6606,-137.0296,-58.4945,64.1774,27.6255,-89.7925,-48.1274
-250.0000,52.9404,130.9594,-8.3490,2.6958,19.8060,142.3182,44.4021,20.4878,9.4786,-130.2576,20.2121,64.0586,-83.7551,2.1790,-94.9791,-52.5982,-35.6560,67.3211,22.0068,-42.9035
-242.1875,18.9773,-9.3828,-118.6199,2.5075,22.0748,217.6724,157.7607,59.5773,-24.6291,-92.4040,-15.7512,30.0447,-45.2559,3.5943,-56.0297,-50.8084,-34.5883,103.9111,-11.2985,-41.7788
-234.3750,25.4628,-73.2727,-38.4475,7.7556,66.7994,150.4781,19.5906,30.1169,57.7112,-49.1083,27.7409,-5.1737,-1.3001,10.4591,-11.6293,-43.5764,-28.0822,38.9516,-75.1451,-35.2051
-226.5625,-43.2457,-37.3713,-74.4782,7.7902,-4.6554,152.0851,97.2291,69.4559,23.8489,26.9832,29.0380,11.9976,-36.5270,12.1189,-46.4247,-4.5526,-97.7804,39.7889,-38.2020,-33.8287
-218.7500,-43.3081,67.1799,-111.8647,41.4665,-3.4507,115.3441,25.5229,70.4453,-47.3692,64.7214,-8.0088,46.3898,-36.1009,12.4287,-82.5693,33.1214,-26.8319,39.2778,-107.6107,-33.7987
-210.9375,-0.7385,110.3889,-102.6100,48.7891,7.4062,51.2637,-36.5202,81.0897,-36.9466,111.1109,-35.4102,44.6167,-100.0292,-14.6070,-35.0740,43.4540,-54.2287,11.4226,-28.3709,-61.1184
-203.1250,-78.7475,30.9930,-73.9501,39.5066,37.6752,80.5843,141.8322,74.1255,-6.1197,30.8922,-43.4061,31.1687,-70.5517,-22.2438,-42.1830,36.1817,-27.2191,2.9605,-0.7343,-69.0432
-195.3125,36.0556,-64.5983,43.5056,-57.9860,156.7463,15.7120,79.0052,-64.0373,77.5092,-143.5325,74.4019,-55.4732,48.7181,-51.0835,3.5018,7.7027,52.5805,-93.7059,-26.2878,-24.1709
-187.5000,25.9086,-111.1359,-4.9903,-140.4355,109.8756,-33.1047,143.2348,-38.1502,104.1884,-80.9068,99.2547,-84.3345,0.0366,-25.8736,-7.7673,-3.7228,-27.5699,-69.3275,105.1988,0.7547
-179.6875,18.2602,-13.1825,-49.9894,-114.3934,66.5149,-3.4178,137.9650,-8.7650,-11.6305,95.2173,55.6086,-40.8165,-7.1442,3.8417,-14.5384,26.3530,-35.2292,-77.4520,-7.8113,-6.8141
-171.8750,7.0120,45.1676,-24.5977,-90.9575,56.5540,-14.3294,55.1083,55.0199,-21.0538,121.7379,7.3614,-18.6593,-54.9226,-7.0359,12.0898,15.8278,-82.4885,-89.1740,17.5795,-17.9799
-164.0625,-37.5730,-34.8226,-71.5511,-101.8718,11.2564,13.4052,158.8935,120.4411,44.1664,112.9032,-39.2190,-39.4391,-64.0350,-16.2661,3.3617,6.9423,-56.0886,-63.2527,78.6048,-27.4980
-156.2500,24.6493,-78.0128,-5.7021,-75.9884,78.7654,5.9410,79.4868,76.6620,75.1812,105.8609,27.0070,-60.0232,39.6505,-23.6973,-40.5716,-0.1523,-28.8929,-107.5287,-34.5657,-35.2170
-148.4375,9.8212,-129.2569,-20.9049,-92.1608,65.2262,-8.5645,67.0373,99.8319,62.1399,91.7607,85.1777,-84.2319,61.2834,-38.1725,-17.5568,-14.2946,-78.7372,-86.8524,92.2067,-49.9836
-140.6250,12.9993,-161.4945,17.9014,-90.3394,69.6955,-5.0740,109.5856,66.9960,30.0990,21.6442,88.3539,-91.7912,101.9168,-34.6464,-13.5411,26.5603,-40.5834,-84.1818,25.9822,-46.7485
-132.8125,68.0310,-141.8707,74.5561,-36.6691,127.0161,-21.7324,-15.0022,14.0015,14.8974,-31.6298,108.3827,-66.0199,85.4014,-14.2681,7.3184,-26.7366,-20.5805,-100.6620,11.6041,-26.6609
-125.0000,-17.0226,-16.3430,21.1132,51.9007,38.2455,35.5063,80.2999,-2.1014,-72.4111,-120.0111,91.3220,25.9090,32.7989,6.0047,-81.9283,-6.1393,34.3288,-45.2390,32.1188,-6.6707
-117.1875,54.6217,19.8830,58.3711,52.1681,78.1814,37.4481,11.3092,-35.5030,-106.0247,-154.7014,129.9660,28.1438,71.8994,7.9742,-43.4794,-3.8496,70.9387,-44.1110,-71.6572,-4.9836
-109.3750,43.3154,43.1516,46.6813,4.4853,68.1751,26.4524,2.3841,-9.8556,-115.5962,-128.3490,81.6626,16.6631,61.0504,-3.0045,20.0050,22.4803,-10.3920,-20.9301,-12.3912,-16.2519
-101.5625,-5.0743,100.3190,-3.0998,-45.2989,56.0861,50.3557,64.3492,-22.3186,-127.2734,-104.1053,32.2681,42.6394,11.1082,57.9173,7.3770,46.7027,11.1777,0.1451,-95.2272,-29.6231
-93.7500,41.9890,5.9476,44.5636,-34.6328,106.4497,62.7172,-30.2253,-45.3328,-76.5094,-91.4267,80.3259,14.8874,23.6122,70.2869,20.1919,22.3688,-11.8046,-23.3228,-116.6065,-17.5459
-85.9375,-28.0895,-64.5610,-28.9191,33.8857,33.6748,98.9305,44.0497,28.4955,-74.9067,18.0925,44.2416,27.8757,-50.0244,70.5020,-53.1452,22.8802,-46.9300,11.0604,-47.1500,-17.6188
-78.1250,6.6904,-30.2288,7.4524,68.2609,71.7570,62.9958,46.1739,-7.8296,-73.4692,18.4565,44.0115,30.9812,-49.8095,33.5666,-88.6306,23.2409,57.7906,-24.6976,-115.8425,-17.8416
-70.3125,-2.3879,30.2503,33.9763,21.7876,63.9906,54.2191,3.4565,20.9979,-80.8950,-27.0248,34.9301,46.6799,-58.4487,61.7867,-96.9776,51.7529,48.6665,0.6981,-55.3895,-26.9159
-62.5000,-0.1131,32.0910,0.8528,58.6553,32.5826,57.7923,83.0735,26.1700,-148.9730,-22.1517,-34.7989,79.5960,-53.7307,102.3581,-128.9750,56.6121,50.8865,37.4365,-52.5913,-59.6381
-54.6875,90.9667,-18.2623,59.5144,42.3199,91.9690,43.1672,-3.5004,12.1460,-162.2555,0.5198,-12.7237,30.1665,41.7884,50.7249,-70.1713,5.2662,35.8952,21.9769,-101.9885,-74.5564
-46.8750,21.1589,-52.5093,-13.7267,42.0896,58.4534,81.6401,74.0184,51.2145,-122.4392,76.2897,-48.5401,20.1928,7.4124,16.1910,-68.2744,-29.9847,-67.9888,58.6198,5.7002,-73.3709
-39.0625,-47.8958,52.9945,-51.2108,76.6093,21.6839,44.8631,75.2741,51.0314,-47.8721,38.8103,-49.6039,56.2919,-30.2144,15.4085,-68.6284,6.5154,-32.1284,58.0135,-132.8546,-37.4333
-31.2500,-27.7606,73.7009,-32.5014,60.3309,5.1117,-9.7083,-12.2591,-1.9440,-27.1148,21.5330,-30.4672,54.8443,-47.6444,34.8289,-11.7895,-10.7897,-47.0684,8.6171,-76.2090,18.7042
-23.4375,-126.6171,79.4096,-65.7870,65.0548,-61.4483,-5.2782,31.1946,40.0765,-94.3715,63.2425,-62.3224,82.5884,-78.0623,76.2482,-5.9581,-5.1040,-41.0015,49.2268,-34.5707,59.8414
-15.6250,-25.1694,40.4242,4.2320,95.0846,-63.7087,-8.5432,-154.0539,1.3923,-60.3507,24.2386,-29.8700,47.7790,-9.1765,35.9699,27.1653,-8.1241,61.3643,45.1460,-108.6252,56.2779
-7.8125,9.3862,38.5408,41.3557,93.2208,-61.8659,-7.6995,-114.2053,-34.2005,-58.2445,-11.6787,7.6901,38.3026,-8.1874,-0.2063,-8.6193,-8.0461,24.8401,43.1747,-4.5876,19.8136
-4000.0000,58.1633,67.6121,90.9090,85.3635,-37.8375,-1.2912,-111.7970,-87.9012,-93.0836,-71.5495,36.2595,47.8523,16.0519,7.8788,-48.7901,-36.0049,69.7912,41.9829,-76.1540,23.0698
-3992.1875,60.7008,141.4829,94.0195,53.4544,-36.7780,-36.6243,-184.8179,-51.3103,-20.4805,-34.5491,38.6721,38.4273,-18.9171,-27.1580,-11.7269,2.3461,-32.5163,-26.6542,-41.4968,25.2031
-3984.3750,-37.4633,113.6576,-7.5693,26.8364,-103.4195,-29.6602,-32.5401,-9.4185,22.4331,8.7501,-27.6155,30.3011,-11.5845,-19.8940,31.6403,45.9996,-60.5317,-19.0031,34.4736,32.6353
-3976.5625,2.3076,-22.2086,-40.2218,-3.8359,-28.1255,-62.7430,-31.3034,-7.5696,98.3055,48.0076,13.0405,-31.3563,28.6897,-16.6736,70.9558,48.6116,-56.6000,-50.4087,1.4023,36.0178
-3968.7500,-84.5255,-73.6804,-129.4765,-19.1049,-45.4342,-43.4265,59.3233,85.6831,190.5836,140.6738,-2.9022,-59.8831,-24.6407,-70.0466,90.6738,31.6284,-212.2710,-66.4214,159.7360,19.8009
-3960.9375,-174.9178,11.2867,-222.2851,-39.9222,-32.2965,-65.6578,109.4090,209.3965,204.3126,301.8019,-98.3989,-47.1430,-9.5230,-91.9680,30.8395,46.0952,-197.5038,-87.9810,136.5280,-1.9668
-3953.1250,-72.3130,-59.7324,-151.0948,-146.7390,1.8372,-139.8915,31.4881,243.1127,275.0461,372.9335,-62.8928,-118.1093,25.5959,-93.8924,27.9984,43.5614,-234.7307,-158.5462,204.3164,-3.7397
-3945.3125,-99.8070,-227.8373,-179.0053,-207.6590,-65.1325,-133.2309,147.4615,321.7363,316.6886,378.9730,-55.4876,-178.1854,-41.3954,-86.9195,71.0629,86.9275,-262.0626,-151.2205,315.0171,3.3822
-3937.5000,-40.8061,-203.4527,-154.4234,-219.0771,-42.6119,-183.0667,95.9505,307.8694,376.8423,402.5221,-67.5936,-196.7010,-16.8957,-99.4480,94.6267,109.7989,-168.8943,-199.3990,196.2281,-8.9996
-3929.6875,-94.1963,-186.4801,-207.2350,-201.8946,-61.4823,-164.3078,113.0395,325.6034,431.6102,456.6685,-122.1007,-177.2063,-71.7984,-80.3751,148.7890,128.2669,-256.1196,-216.9827,282.0343,-26.7825
-3921.8750,-210.3498,-163.2584,-254.7979,-213.4654,-75.1088,-105.3039,208.3868,348.5928,380.6393,517.0700,-134.3549,-151.9278,-47.4535,-56.0506,62.2041,114.9934,-198.1030,-159.3254,233.0971,-39.3163
-3914.0625,-151.7162,-103.2333,-193.5692,-188.2425,-14.9402,-81.5080,83.5403,224.3889,292.4808,393.2816,-72.8056,-122.7997,13.6939,-31.9276,48.4270,101.5217,-138.2939,-168.8728,149.9643,-15.0502
-3906.2500,-128.8867,-115.0109,-206.1516,-129.8287,-30.5747,-59.5186,140.8943,171.3934,203.5367,230.7049,-50.0590,-75.4765,-0.9626,27.3954,32.8557,87.2573,-115.2984,-112.2270,171.0452,7.4174
-3898.4375,-9.3266,-66.0418,-155.9997,-115.6745,18.5296,-82.7741,115.0109,36.1684,141.3455,58.9018,0.4265,-60.1059,49.1228,40.4800,82.0363,62.7543,-66.5672,-98.8351,42.8861,20.6323
-3890.6250,24.5770,-30.7352,-83.4998,-116.1856,52.9913,-48.6837,37.4737,-3.6949,28.5218,-17.5364,73.2531,-32.4867,10.5564,75.9288,116.5716,60.6114,-137.4908,-100.1060,75.0825,19.1930
-3882.8125,-82.7806,-67.6888,-157.2531,-116.9597,-23.7982,60.1556,144.6979,67.2071,-11.5349,-20.2184,34.8233,-2.3621,-28.2630,147.1253,76.8685,131.2200,-138.6738,-31.6409,37.0487,17.5023
-3875.0000,-111.7462,-96.2494,-150.6142,-75.3361,17.8070,102.3974,0.3336,34.5204,66.8175,-52.4983,3.7944,10.1996,-22.6857,189.7191,81.5694,173.2299,-97.4556,-25.7791,-29.5837,23.2099
-3867.1875,-234.4589,-42.5711,-203.7335,-92.4729,-38.3351,83.8841,91.2160,52.0914,120.4373,39.4856,-87.9761,24.0247,-40.8579,171.5640,62.5281,154.4949,-150.0012,-7.6784,92.0393,5.1656
-3859.3750,-170.5426,-13.2450,-208.2205,-96.9757,30.1625,5.0217,120.7711,46.3347,151.7231,144.1438,-92.1014,4.5231,-45.3892,130.0622,20.1357,149.4212,-84.9163,-48.9294,14.3238,-36.2324
-3851.5625,-47.0315,-65.3160,-115.1206,-149.8861,121.2669,-50.2420,64.9318,63.1865,169.6230,125.4123,-72.6384,-52.8768,-26.3165,75.1574,74.3438,93.9491,-138.2348,-66.5844,30.2105,-54.0325
-3843.7500,-104.6770,-86.5431,-175.1776,-170.9520,60.2233,-0.6624,185.9510,111.8996,107.3859,137.5320,-96.3308,-43.4754,-50.3989,88.1021,50.4049,69.3308,-159.7118,-18.3949,111.9669,-40.9863
-3835.9375,-98.6937,-116.1299,-94.5951,-164.3732,137.8324,4.5690,115.6417,79.2789,74.8088,142.3075,-53.3746,-61.6225,-7.8360,56.6927,18.1236,38.3633,-118.5357,22.4395,11.3792,-35.2934
-3828.1250,-141.9696,-87.9755,-102.2646,-137.0526,165.1957,32.5456,142.0823,106.4180,102.0009,95.8399,-61.6686,-58.1587,-16.5230,-24.9695,8.6014,-7.8525,-161.6166,84.0161,106.5524,-43.8526
-3820.3125,-117.2977,-97.8770,-75.0021,-146.7909,153.5014,57.4709,240.4922,94.5247,127.1581,11.3407,-35.0214,-76.9403,9.7321,-72.6852,-2.9696,-19.1169,-65.7625,109.5343,24.6942,-54.4643
-3812.5000,-19.5279,-105.6770,27.3498,-154.4382,180.9075,12.4912,119.0107,11.7458,117.4272,-72.0397,66.7170,-97.9244,74.0832,-81.3004,24.5608,-65.2718,-38.8197,65.1443,49.9325,-62.9787
-3804.6875,-39.2790,-54.9832,6.1869,-138.5948,120.8144,-9.9895,243.0344,25.4851,57.2083,-57.9052,8.9540,-59.2293,15.9340,-66.4113,-35.4033,-87.9211,-58.3921,80.2497,98.6824,-47.9956
-3796.8750,-90.0007,-34.2415,-8.9406,-81.7066,139.7652,-27.4208,150.1298,-29.7099,40.0561,-1.7165,-7.7598,-44.5572,71.8352,-46.4749,-16.3151,5.4780,-2.9182,65.3972,-58.5089,-27.9646
-3789.0625,-128.4702,-72.2514,-85.8204,-84.5697,97.9721,5.3942,144.4787,2.3498,71.1716,30.7229,25.7759,-47.0840,31.9835,-13.2989,53.0301,38.1263,-112.1936,61.7797,7.5483,-31.6851
-3781.2500,-140.5497,-48.8678,-134.3115,-61.0348,84.5730,29.6127,204.2424,25.8254,94.7002,53.5663,-23.2976,-19.8012,-54.4836,11.2817,2.7816,61.1844,-53.0766,49.5500,-40.9818,-44.0079
-3773.4375,-11.4437,-60.2842,-108.6109,-72.3066,108.3711,-19.9701,79.2169,-24.4916,118.4376,40.6204,1.8264,-49.0772,-29.7515,-0.9340,26.7349,48.4516,5.2432,37.5073,-54.3074,-56.1339
-3765.6250,-116.7939,-94.1573,-107.3680,-36.0457,-2.2707,52.9891,114.7493,47.7502,80.7386,40.2364,-34.5012,-18.9043,-66.4694,35.3971,26.2450,48.2752,6.1019,73.0022,14.9377,-55.7123
-3757.8125,-149.6033,-56.4901,-67.5897,1.7558,-1.3629,91.4950,41.8568,12.5593,44.6004,5.4188,-32.2915,28.1177,-64.6481,111.2757,27.3089,86.6521,79.5039,75.0428,-90.2527,-53.7422
-3750.0000,-124.8151,-31.2335,-40.2190,27.1438,-12.8480,80.5971,-7.4301,36.9778,107.0802,-42.7941,-5.4835,39.4651,-75.2302,100.7552,51.9764,38.6358,-1.4938,-5.3286,39.1635,-64.1741
-3742.1875,-194.6879,-65.6354,-76.5114,-7.1336,-50.9809,80.0441,137.6532,72.7623,68.9311,66.3539,-5.3288,11.6175,-38.4673,63.5843,15.0001,37.9750,-1.1611,-5.3638,37.9501,-64.2594
-3734.3750,-150.2682,-90.7422,-29.5247,-32.1305,-5.8113,15.7937,35.0572,80.8669,77.1030,74.8206,40.1148,-26.1187,43.5906,35.7128,59.3300,10.6157,-26.5409,3.8910,11.0463,-55.0481
-3726.5625,-155.1063,-131.1084,-33.8019,-36.4011,-48.8895,83.2918,101.2204,148.7454,71.0458,32.0560,-0.7034,-35.4346,2.3932,-5.4136,90.4239,-31.9885,-66.1874,68.8890,110.9130,-60.0908
-3718.7500,-101.5743,-112.0947,-50.7044,-18.2882,42.4314,65.2005,118.8172,130.0526,15.4144,-22.2893,17.8629,-28.3723,57.5830,-23.1405,34.9248,-87.1834,-13.4465,122.2844,21.2048,-77.7407
-3710.9375,-28.8571,-3.9015,-47.4164,20.0122,80.9599,67.3130,45.6329,57.5816,-55.9946,-57.4303,20.6256,2.1774,22.9722,-57.6638,0.6293,-85.1761,-10.5069,89.8701,22.7075,-75.1977
-3703.1250,-57.7019,178.7391,-77.6928,97.7566,12.9378,72.8746,86.9172,62.5780,-124.9277,-52.1100,-9.1739,86.3863,-7.1978,-51.7458,-31.2095,-79.7136,30.8661,59.8917,-42.3182,-69.2086
-3695.3125,39.6811,171.6316,23.2593,90.7460,39.1620,-10.3098,-71.5245,-58.1532,-98.5917,-25.5237,18.2530,61.1139,55.8697,-24.5780,32.2096,-15.9870,58.4844,-17.8460,-157.0898,-41.9725
-3687.5000,23.0552,49.5172,6.1964,73.7216,-17.6105,-29.4991,-54.9625,-3.8708,-81.2335,102.0816,-37.3294,27.6041,0.9354,-6.4039,49.6394,1.7447,7.0970,0.4018,-33.8546,-23.7408
-3679.6875,-28.6307,-36.6628,-11.9370,57.6319,36.5651,-11.7368,-1.4208,-23.6181,-63.9084,156.6547,-55.9689,8.6792,-55.0561,11.7214,-6.9753,19.4341,95.6410,18.5874,-87.6453,-5.5647
-3671.8750,43.6310,1.0875,63.8706,25.4805,110.6967,-84.0229,-74.9142,-59.3949,-25.6163,121.1917,57.3383,-14.8412,-16.1049,-23.2061,-5.6343,-15.9189,63.1317,-50.2891,-86.4804,-3.4407
-3664.0625,31.1812,59.1236,51.9713,-21.3842,-12.8748,-60.0090,21.9054,-35.8530,-39.0088,35.0369,117.9403,14.5648,8.1373,38.1656,-55.9855,-28.9660,50.9136,-62.8755,-64.9925,-16.0164
-3656.2500,81.5641,75.0045,106.9051,-40.4071,3.4022,-6.1393,-73.4019,-56.4441,-22.5422,-59.2695,98.3810,17.1609,25.2222,54.3922,-39.4847,-49.1554,102.5497,-46.6242,-155.6373,-35.7439
-3648.4375,-2.4128,61.5227,93.4880,-18.7918,25.3400,52.3751,-15.0470,2.6204,-37.4120,-110.9158,47.4723,28.9158,-26.0422,4.2702,-17.3278,-100.6945,17.8367,9.2615,40.3781,-49.8268
-3640.6250,-11.4040,-16.9730,48.0535,-27.1930,15.2801,116.8908,84.3386,65.7052,-47.2616,-83.5411,38.5476,8.6306,1.6855,-4.8591,-27.1615,-110.2227,9.1012,35.1417,30.4178,-58.9161
-3632.8125,129.8452,-86.2203,85.8450,-26.3636,14.4815,116.6515,9.9988,102.0654,-10.8397,-83.8980,75.8538,-35.3821,37.6643,-41.7489,-27.7347,-110.4964,-25.3982,0.2639,29.7142,-58.7608
-3625.0000,93.1853,-158.3802,10.7201,-62.4571,-99.2090,151.5112,116.7766,173.5399,59.7119,-49.1440,1.2449,-61.0727,-74.2633,-43.5370,6.8108,-38.6656,-61.8151,-1.5290,168.1292,-60.5105
-3617.1875,52.1514,-127.8988,6.2213,-31.9160,-68.2447,72.0203,36.2379,130.6868,90.9320,55.2791,-40.7329,-73.6757,-79.5509,-85.6694,74.0178,-7.1800,3.4043,-41.6757,127.2092,-65.6151
-3609.3750,30.8570,-77.6742,22.4623,17.3615,-16.5195,13.2771,50.4580,108.6004,68.9226,33.4618,-24.9625,-60.4607,-64.0964,-144.0557,88.9809,-65.9413,-17.6302,-63.0814,210.0452,-86.9724
-3601.5625,49.4501,11.4307,41.5874,36.5277,-35.8965,-4.5624,141.6046,52.4329,12.8319,-95.4517,-6.2953,-16.9054,-45.7479,-125.5398,32.8481,-84.7976,72.2183,-79.5939,122.8077,-68.4342
-3593.7500,91.4863,53.9672,84.1446,79.1301,5.1838,-36.9501,-1.7699,-53.2637,18.2119,-127.9176,35.8086,22.0177,-3.9494,-46.5739,1.1714,-80.2009,78.5165,-108.6691,23.0375,-26.4527
-3585.9375,41.6581,74.6350,31.8453,64.8687,-12.5783,-17.1900,54.0267,-70.7933,0.7704,-71.2323,-17.9431,38.9899,-21.0009,-26.4580,-53.3415,-60.4554,28.9569,-88.6107,77.4382,-6.3279
-3578.1250,73.2062,71.6933,64.9222,96.9917,57.0576,-58.0260,12.2622,-111.8923,-3.2525,-112.1283,15.6897,21.3935,49.3340,-66.9442,16.5537,-64.3053,95.7840,-92.1630,-67.7419,-9.8080
-3570.3125,173.8526,31.8490,171.0865,57.2024,50.8028,-26.7741,-31.3867,-153.8805,-9.1532,-263.9138,83.4181,-8.7001,79.7664,-72.3446,120.5606,-33.0471,55.7087,-97.6302,-37.8178,-15.1934
-3562.5000,101.1429,30.6403,95.8834,21.0500,-25.7932,8.1265,39.6409,-120.1969,-48.3864,-192.0318,81.7797,9.5641,41.8418,-0.0984,81.2246,38.8685,54.2654,-64.4593,-5.2221,-16.9349
-3554.6875,170.3742,-5.6361,131.6098,-15.1612,8.5744,-31.0196,-37.3541,-122.5447,-13.6554,-48.1856,80.0709,-38.2974,2.8608,-38.8973,42.8347,36.7418,87.7695,-101.3460,-42.6651,-18.7320
-3546.8750,101.4045,-3.1225,97.1275,-12.5881,-64.2439,44.6341,0.4633,-10.0815,-86.1141,27.4674,9.1536,-2.3651,-106.3222,0.1013,-29.7513,38.4196,55.0678,-64.4434,28.7072,-16.7343
-3539.0625,92.4644,23.4338,88.6780,14.0183,-74.0106,35.3405,-9.6385,17.4532,-168.5136,18.1840,0.2689,20.9707,-41.4660,28.1541,-76.2842,65.1545,117.4095,-73.4951,-50.8488,-25.6928
-3531.2500,129.3570,24.8249,129.0648,15.4574,2.0820,0.8994,-81.8715,-17.1408,-167.0468,19.7637,39.2280,19.3877,-1.7634,30.0608,-110.9608,30.7502,47.5981,-71.7086,19.4554,-59.8080
-3523.4375,47.2400,49.1970,81.4381,4.8792,-46.8160,25.4610,52.9183,44.2865,-104.5638,82.3564,28.1768,16.4037,-50.0641,-17.0363,-85.6270,19.3487,-68.2239,-82.9341,42.7845,-70.9299
-3515.6250,66.4103,68.8578,62.0944,-10.4194,6.5961,-30.6782,-3.9566,61.0316,-87.7643,26.2628,46.4160,10.3946,-33.0676,0.1593,42.0177,37.2506,-84.7558,-99.8708,-79.5755,-16.7581
-3507.8125,56.2272,24.1517,49.3973,-21.0831,-45.3297,-8.1701,-19.1678,84.4462,-101.2966,-25.1773,69.2934,7.6863,-47.4219,23.0031,64.3289,22.8036,-128.6458,-109.1706,15.7266,43.0592
-3500.0000,103.6265,1.0290,23.2822,26.8388,-70.6544,-34.0525,27.2587,20.4848,-127.2104,-15.0056,42.7477,13.3588,-36.1882,33.4458,37.2420,32.9582,-46.9507,-132.8755,-77.3435,90.4725
-3492.1875,155.0109,52.8999,3.1479,8.7452,-54.9673,-90.9341,-66.2898,-0.4577,-74.1070,38.1806,59.1854,-14.0502,16.0363,-23.1138,53.1553,49.1132,-64.2568,-151.5863,-97.3981,106.8808
-3484.3750,-0.4602,74.9011,-82.8498,29.7879,-107.1164,-68.6669,27.3388,58.7667,-52.8306,97.5215,-28.2339,10.6508,-34.5963,-37.5277,38.2327,71.4165,-114.4232,-60.1586,-7.2818,92.4319
-3476.5625,-11.0877,169.7202,-57.0158,55.6696,-81.4103,-43.5441,-57.1450,10.8566,-27.6864,49.7119,-38.8115,49.6347,-45.3835,-12.0895,64.1691,60.5705,-19.7434,-70.8896,-158.2993,81.8286
-3468.7500,-42.2126,174.0383,-52.6870,95.0381,-78.1937,33.0739,-127.1170,-22.5446,-96.0273,-20.5973,-34.8918,87.4137,-41.6660,28.8407,67.6117,64.2264,-50.5660,-33.1353,-83.8142,85.7223
-3460.9375,-61.8012,118.9186,-73.8228,74.9455,-101.4302,47.2431,-76.5214,-8.3812,-155.8131,-6.3464,-20.4307,85.4905,-27.4071,80.3108,44.6088,78.4363,-0.8464,16.1674,-140.7638,100.1611
-3453.1250,60.3996,31.5921,-55.1737,57.6450,-83.8626,28.2207,-206.1091,-62.4003,-100.7951,11.7177,33.8096,38.8474,26.6504,98.5779,62.4135,96.4573,17.6726,-34.7318,-157.9140,118.3943
-3445.3125,-36.7046,-64.0657,-81.8341,31.0233,-148.5816,37.9005,-86.9789,19.2996,-55.0603,21.5003,6.7342,8.3377,-0.5998,71.5509,34.9310,106.1868,-9.1261,7.0614,24.6516,91.3273
-3437.5000,-28.0708,-91.0009,-70.7692,41.1271,-100.5405,50.3330,-113.0609,68.7684,-6.5625,71.0519,-54.6027,-1.1054,-25.1073,47.2728,-26.7882,81.6830,70.8114,51.5976,33.9830,30.0104
-3429.6875,-3.9934,-67.5123,-80.2695,29.6578,-38.0338,76.2081,-50.6769,94.7001,-16.5890,60.0701,-64.4877,-1.7941,-35.1549,0.4412,-37.0463,34.6360,-10.8094,39.5672,162.7742,-16.8584
-3421.8750,-64.2364,-21.3380,-105.0876,39.8663,10.1784,87.7807,107.4397,106.3571,-41.8885,-1.1977,-126.6890,25.3826,-60.5026,-24.6928,-62.5923,9.2931,34.2474,84.2286,172.2910,-42.0319
-3414.0625,-36.6475,-63.3257,-38.0831,32.9086,75.2480,80.2109,-10.5589,61.8916,-12.3167,-8.6073,-97.0661,22.1778,-31.0060,41.0229,-70.2738,37.8103,62.1415,76.7343,94.6666,-49.3579
-3406.2500,-104.0687,-59.3324,-34.0938,36.9351,5.3216,157.6453,28.4542,102.4461,-82.7234,30.9956,-130.4533,54.4828,-101.5226,81.7427,-103.9405,78.3380,-3.9767,80.2273,168.0591,-45.6821
-3398.4375,-49.8637,30.3041,-53.4761,21.5970,22.0389,100.7313,-27.8545,46.6795,-138.4655,-24.7301,-76.2031,66.3755,-47.4047,99.1139,-86.9528,95.5196,15.5437,29.3664,11.1265,8.6391
-3390.6250,-25.2116,55.3863,-30.4195,-24.3032,44.2180,50.2600,-114.6977,-41.6248,-78.7404,-74.9970,-16.5126,30.4508,12.1735,48.9240,-27.5080,45.1502,-30.4835,-17.0608,35.6528,68.4007
-3382.8125,-97.7542,17.2496,-69.5696,-26.4188,2.2092,45.5855,-10.7100,-45.1131,-46.1940,-78.4709,-130.0277,23.5134,7.5509,44.5228,4.7480,77.5720,2.2809,50.2922,-2.9934,100.9530
-3375.0000,6.7950,-52.8048,37.3670,8.5515,36.3137,43.0088,-122.5825,-157.4884,-84.5334,-117.8431,-132.4510,14.9727,6.0249,79.2191,3.1084,112.0897,143.1457,49.7343,-108.5258,135.6008
-3367.1875,34.6881,-59.5215,67.6461,36.8559,-7.2169,72.7814,-93.0871,-127.4995,-165.5075,-161.8506,-65.5427,32.6902,-37.1607,72.2643,-40.1715,67.9584,101.3515,42.5131,24.3032,128.5995
-3359.3750,-2.3262,8.8556,29.0048,35.2542,-9.6496,33.6596,-22.4680,-129.3866,-167.3797,-126.7452,-30.5620,31.8074,32.7231,33.4149,-6.3473,28.9383,134.6472,-28.6075,-46.7504,126.7017
-3351.5625,-6.2967,40.2740,25.4017,-37.3062,58.9782,-42.4096,-99.7898,-170.2145,-24.2074,-130.5836,-34.5427,0.5019,102.6580,29.6179,62.5321,24.9805,59.9985,-103.6801,18.2417,122.8545
-3343.7500,-100.0800,-18.1195,-70.0082,-60.6821,-2.1787,-30.2753,59.1056,-46.8402,62.1713,-80.2229,-95.3259,-18.0668,78.8029,6.0164,1.6288,38.2240,36.5414,-56.5577,135.4407,99.2051
-3335.9375,30.8674,-62.7850,-42.6814,-105.3222,100.4227,-111.3825,50.7804,-18.7020,127.3108,-53.1048,-67.3763,-81.6625,70.7014,-74.8308,-6.5138,-43.7763,97.8305,-67.6816,160.3898,54.3044
-3328.1250,27.5031,-134.7648,30.3363,-143.2725,134.7368,-113.7848,122.1612,54.1464,126.1609,19.7246,-69.7434,-123.2563,-4.6962,-148.9773,-7.9494,-118.0703,24.8164,-36.1048,334.0426,16.1028
-3320.3125,12.9267,-114.9522,16.1366,-157.4336,82.8550,-92.3828,181.3703,149.8118,111.8205,42.3608,-84.3241,-119.4471,-19.2943,-163.3276,-22.5827,-132.5624,10.5908,20.2681,283.5164,1.6959
-3312.5000,85.4055,-77.1023,20.9766,-120.5602,124.0380,-124.9393,74.6564,154.5387,153.5422,10.0526,-79.8616,-107.1022,-14.8398,-159.6406,-18.1611,-129.0038,-21.5788,-12.3174,251.0488,-30.6714
-3304.6875,-22.7575,-43.9234,-90.8373,-52.3461,48.5883,-89.1518,183.3140,189.6293,188.6358,45.0981,-118.0533,-52.5336,-53.0496,-124.6178,-93.3782,-130.1038,-59.4045,19.4337,283.9531,-68.6965
-3296.8750,15.6243,-40.1960,-50.1155,-48.5899,51.6952,-85.8118,113.5593,120.2923,192.2943,48.7023,-40.7133,-50.9260,23.2656,-84.0508,-127.0409,-126.6617,14.3148,-12.2663,146.4227,-65.1786
-3289.0625,27.9489,-98.5220,-0.4483,-70.8974,26.7643,-73.5215,88.7666,58.9170,168.9150,24.2624,8.5635,-77.5695,35.5306,-71.5380,-40.7439,-77.2685,-8.0156,-35.0229,158.8515,-52.7159
-3281.2500,-61.0956,-82.2243,-21.1441,-19.5730,-30.5131,-20.5743,141.6501,75.2143,111.2008,77.4815,-86.5156,-18.6057,-21.5438,18.6158,-24.7920,-24.2172,43.2851,-19.1294,33.9572,-36.6095
-3273.4375,-7.8004,-27.6057,34.4984,34.0807,24.5719,-39.2725,12.9108,-16.1189,55.8525,59.0642,-68.2492,0.5121,-40.2638,0.1154,-43.4843,-5.8146,96.9327,-0.8919,-52.5779,-18.1580
-3265.6250,-64.2034,57.2920,12.4340,84.0149,-35.0300,-24.6731,63.4834,-38.1359,34.8206,-36.0424,-53.6942,42.0285,11.3099,-22.0884,-65.8661,-28.1060,41.8672,13.6369,-37.7956,-3.4067
-3257.8125,-45.8655,216.9376,-5.9024,102.6907,20.1198,-43.3224,8.8332,-93.3870,16.5432,-200.3845,-72.4121,98.1429,66.6236,-3.5377,-47.4914,-46.6375,130.5385,31.9110,-159.2534,15.0944
-3250.0000,0.9277,193.0266,5.1998,78.8113,30.7277,4.4827,-54.3603,-118.1812,27.7189,-336.2708,-61.6882,105.2573,40.3840,44.4667,37.3349,-72.7138,71.6609,77.6298,-79.2638,26.0447
-3242.1875,-19.3393,102.0510,-51.7560,58.8761,-26.7109,94.2414,72.4129,-102.0119,44.8386,-319.1947,-118.0231,88.7515,20.0866,61.4277,54.1157,-55.8319,51.7222,127.2962,-64.3095,5.9434
-3234.3750,72.3320,-15.9798,-27.7715,10.8836,33.8097,44.9595,23.1546,-114.8812,104.8999,-259.1579,-58.4225,15.2358,43.7373,48.3361,76.8490,-31.9973,38.7393,43.9123,-77.4035,-7.2112
-3226.5625,1.7146,-52.3259,-102.0838,-24.4191,33.0485,44.3765,95.6037,-41.0503,178.6649,-149.4330,-59.1196,-3.8760,-30.8972,47.9429,76.2895,4.5368,-67.5479,8.2219,-6.7954,-7.6720
-3218.7500,-39.3478,-58.1406,-107.8576,-30.1810,62.8402,1.3468,126.6333,27.3385,209.9911,-45.1662,-65.2753,-15.1310,0.0183,42.0985,34.2874,-1.3791,-37.2888,-32.9209,-118.6241,-13.5884
-3210.9375,10.2449,-7.3128,-18.9932,-51.3024,41.2959,-21.0342,31.3273,5.3808,224.9779,-67.2505,-13.7938,-31.0808,-22.4124,-17.1014,48.9462,-23.6417,-93.3797,-54.4161,-68.8012,1.1430
-3203.1250,-64.6313,-11.9403,-61.5883,-54.8848,-38.6900,10.1359,135.5872,36.9857,182.5309,-35.7723,-92.7726,-27.4903,-101.2950,-59.7588,6.1681,-29.3527,-61.9374,12.6348,68.5897,32.4205
-3195.3125,-83.7770,-65.8388,-45.4472,-107.7287,14.0855,-10.9400,78.6274,53.3600,198.8454,-56.5288,-113.0203,-58.4903,-49.4260,-43.6665,22.1443,-13.3052,-10.7515,-7.5613,84.7327,48.4434
-3187.5000,-205.5669,-116.4088,-97.9592,-90.2383,-2.7707,9.3373,98.0198,74.0909,219.5163,-35.9284,-93.9221,-41.6639,-66.2023,13.7786,42.4778,7.1000,-62.2225,11.5839,209.2272,31.8149
-3179.6875,-152.5610,-100.1886,-79.6847,-72.9591,16.1766,28.4185,154.2336,56.6326,127.9900,-53.5245,-76.0308,-33.7729,-47.1808,-3.9729,-12.3808,-10.6942,26.0964,28.5249,120.5341,13.9856
-3171.8750,-7.4023,-128.8208,36.7337,-102.5340,94.2849,-40.3505,12.6145,-11.6733,60.6158,-47.9717,3.0036,-81.4964,-5.0116,-35.5827,29.9143,-5.3419,31.5772,-1.3848,55.9921,19.3017
-3164.0625,-97.2974,-112.5121,16.0969,-51.1585,37.3586,12.8347,65.9586,41.9773,40.1940,5.5345,-91.0260,-40.2923,-62.8940,-19.2465,9.1634,10.9612,12.9983,14.6518,72.4158,35.5598
-3156.2500,-42.1607,-23.1698,-0.4986,-30.7393,57.4861,-3.9219,-24.6186,-11.3041,60.8242,63.0976,-107.0192,-15.5797,-42.7277,1.1399,-7.5413,31.3228,68.4637,-1.2612,-48.0982,55.8639
-3148.4375,12.5360,66.7087,-89.5504,-46.7851,41.1773,-20.1295,-3.6426,-27.0312,82.0123,84.2161,-87.4579,-29.0470,-59.0065,-87.9292,50.3101,15.2339,-18.5242,-17.6287,76.9410,39.7164
-3140.6250,-2.4608,16.8695,-140.3163,-61.5500,26.1703,-35.0386,128.6554,32.5532,140.5114,105.6470,-102.6038,-52.8528,-73.9883,-102.7041,72.4670,37.4479,-33.2268,-32.6973,62.3052,24.8671
-3132.8125,-87.3109,-67.8365,-82.9412,-40.1754,84.3238,-50.7981,40.1262,54.2998,199.1609,164.2419,-81.6133,-65.7269,-52.8218,-81.3296,56.7806,21.8197,-46.7785,-46.6158,48.8193,46.1633
-3125.0000,-153.3673,-133.7585,-153.7664,-70.0066,-60.7036,-47.7533,79.4046,130.8515,238.6112,240.6396,-78.8315,-83.4070,-49.8522,-42.1549,58.9055,97.9924,-147.5394,-42.7367,123.1412,85.2559
-3117.1875,-41.4787,-161.7414,-219.6484,-133.8959,-89.7727,-113.7533,12.6568,138.3587,283.0010,321.9907,-36.0955,-138.1073,-6.9323,-35.0292,102.9768,142.1132,-105.3584,-105.9053,60.4142,92.2997
-3109.3750,-39.3805,-194.5359,-179.3301,-166.5937,-122.6263,-109.5607,-19.8918,179.0624,250.5908,436.5443,40.8443,-158.8698,-39.8010,-31.7070,107.2476,109.4388,-137.9751,-102.8757,97.8799,59.5480
-3101.5625,-101.0370,-150.0877,-130.7683,-123.0498,-112.2260,-99.1135,65.8241,192.0244,189.4306,485.3586,16.0193,-117.7335,-27.4232,-19.1340,45.7719,84.0158,-129.3501,-95.5973,36.6069,-1.9524
-3093.7500,-48.4506,-64.3954,-38.9614,-175.2549,-19.5701,-117.4137,-25.1979,137.2421,171.5179,430.4234,34.4313,-109.6946,28.2028,-0.3122,63.5473,65.8459,-112.4597,-149.0649,-16.4148,-20.2076
-3085.9375,-204.8502,-8.7139,-93.1410,-191.4679,0.1015,-97.7168,104.7823,157.4596,154.6044,414.4830,-20.1554,-83.7438,-26.1664,-17.5010,47.3298,122.6737,-197.5626,-94.5336,38.5630,-0.4690
-3078.1250,-253.0984,13.1089,-143.1702,-133.5326,-15.0747,-38.8632,89.9319,142.8366,66.8420,325.7010,1.4038,-32.0416,-4.3788,41.4555,-4.7325,144.6512,-105.5176,-37.8511,-45.3306,21.4154
-3070.3125,-104.8372,-13.5764,-97.7024,-91.1022,-4.7410,-28.5104,-46.4150,79.7188,3.5843,152.4350,48.4555,-17.0995,42.9121,87.9112,5.7105,118.1362,-61.9744,-28.6707,-0.7572,-5.2002
-3062.5000,-29.5349,-9.2199,-54.1995,-86.6304,1.6483,-22.1008,70.2948,49.6557,-63.6228,85.2314,17.5458,13.2296,-24.7513,131.4200,-24.7916,50.6786,13.6058,-24.4425,3.8808,-35.7661
-3054.6875,68.0541,-51.5643,85.5842,-93.8638,141.3467,-66.3849,26.3222,-30.0996,-33.5381,41.3315,82.9205,-35.4311,40.8803,50.2354,-31.9932,-66.4759,76.4836,-66.9093,-73.1709,-43.0325
-3046.8750,148.1014,-113.4603,57.8133,-48.6530,113.5069,-57.2176,35.7961,-20.4061,-98.0090,50.8844,165.7443,-60.2844,49.9638,-13.5013,-59.7378,-94.1822,15.8043,-22.9293,-28.7670,-33.8464
-3039.0625,86.1981,1.6872,67.0826,-4.4033,85.7194,-48.0006,9.3340,-47.6542,-197.4298,24.4999,174.6198,9.4082,59.0900,32.8045,-124.4309,-84.8341,60.1629,56.0997,-125.2982,-24.6094
-3031.2500,85.7460,35.2688,104.7976,-5.7128,123.3896,-47.3478,-63.6747,-83.4503,-124.3875,-48.4163,137.9451,13.6374,59.6798,32.5543,-12.6711,-121.0340,58.9754,19.5720,-126.3779,-60.9236
-3023.4375,32.8980,-17.5664,52.1117,11.5677,107.6630,9.8977,104.9230,-61.6415,-102.7326,-63.7147,10.8702,16.7811,43.8754,16.8975,7.6988,-136.6361,42.3801,72.6367,-37.8460,-113.6433
-3015.6250,-20.1038,0.4384,107.2702,29.6949,198.7847,28.0002,49.3835,-79.9671,-121.2277,-119.1500,28.6327,26.5454,61.9142,-1.9169,-11.0802,-118.3839,60.6300,90.5579,-89.4608,-95.5156
-3007.8125,-27.9076,62.6424,97.6253,57.0207,153.1135,55.3038,3.0387,-89.0951,-167.5213,-128.3781,92.5962,53.5024,15.1597,-10.5332,16.3398,-127.9294,-17.9195,82.6801,-26.8747,-68.1926
-3000.0000,40.2787,131.8495,21.9767,91.3489,40.4495,53.6121,38.7072,-53.2183,-168.8179,-129.6112,90.5489,79.7258,50.4000,-12.1439,-21.2419,-166.4690,-19.4726,115.8030,-98.2844,-69.8747
-2992.1875,107.1273,92.7021,17.9779,87.3294,36.4497,49.5747,-74.9657,-19.6993,-98.4760,-59.2001,160.1406,51.4091,83.2884,-16.1034,-62.1680,-170.3532,-93.3718,111.5802,-138.0590,-73.9083
-2984.3750,2.6483,94.1956,-16.3682,123.9574,-34.8912,88.1861,0.0065,18.4641,-96.4935,-20.1501,161.3936,72.2720,84.8315,-14.4167,-97.4362,-131.5871,-127.6296,113.0068,-100.1817,-72.2910
-2976.5625,44.7756,65.2857,26.8788,60.1854,45.3670,21.4023,7.5871,-46.7765,-125.9148,-86.5176,204.2524,35.4197,201.9893,-7.1319,-90.1061,-124.2267,-49.2866,85.0348,-163.7010,-65.0745
-2968.7500,80.3679,-5.1650,63.5816,-10.1395,82.0908,-14.9336,44.6108,-83.5824,-51.8892,-160.4519,203.5570,-35.7901,201.6052,-81.3980,19.6767,-124.4210,-84.4842,48.5078,-57.7732,-65.4078
-2960.9375,88.3995,37.8330,-0.2707,-2.0166,55.2686,-5.8175,165.0972,-72.9342,-41.4204,-222.9376,140.3116,-6.2501,101.6680,-71.2147,29.9126,-151.1622,-6.2445,92.4336,-49.3836,-92.2904
-2953.1250,145.7250,96.1235,61.1692,56.4016,116.7516,-18.4021,79.8933,-158.9849,-53.6576,-271.1159,90.3717,33.1457,89.0405,-46.7345,54.4527,-163.5950,52.2948,79.6596,-96.6961,-104.8752
-2945.3125,21.0648,77.4008,77.6105,107.8053,22.2489,72.0098,133.6844,-105.0411,-73.8956,-291.2852,-4.5648,85.7584,-5.5755,5.7399,34.0020,-110.0259,-2.1760,165.8834,-44.9982,-88.4606
-2937.5000,-68.1941,22.0667,56.4396,88.5963,38.1545,124.8242,38.8954,-88.6897,-94.7366,-166.0440,10.8809,61.9307,47.2024,21.6183,49.9470,-57.0529,13.7485,216.5145,-169.8879,-72.6446
-2929.6875,-4.0501,-18.8771,50.6700,46.7914,69.4739,119.0426,-3.4955,-93.9447,-137.1831,-97.4020,115.7183,25.7932,41.3799,15.8984,81.2890,-62.6782,-61.9189,175.5544,-140.3826,-78.4295
-2921.8750,34.8507,54.9232,17.6518,86.7367,36.5532,86.0151,74.8652,-89.4487,-169.8890,-167.0174,82.3133,51.4571,45.3146,-16.0773,48.3817,-58.5558,-22.8432,144.3458,-136.1213,-74.4691
-2914.0625,125.8552,110.8145,111.7357,106.7794,56.7391,32.0881,-51.6607,-178.8553,-185.4963,-255.5319,102.0128,55.1715,102.3534,-32.9585,31.5755,-75.3314,103.3338,94.2393,-185.7647,-54.4129
-2906.2500,118.4651,103.2988,104.4274,99.4137,-23.4632,24.7555,-58.5911,-112.6671,-156.4996,-79.4481,131.3187,44.7967,20.9980,-40.2397,-48.6243,-45.5072,60.1099,15.7290,-86.8114,-61.7556
-2898.4375,56.0125,111.7418,113.0621,71.9979,-14.7147,-2.6207,-49.5606,-66.5301,-73.5680,76.5844,102.5741,38.5255,-6.4088,-31.5704,-76.8750,-36.7290,33.8284,24.1770,-148.9035,-53.1464
