Time,Fp1,Fp2,F3,F4,C3,C4,P3,P4,O1,O2,F7,F8,T7,T8,P7,P8,Fz,Cz,Pz,ref
-4000.0000,40.8292,18.3760,32.3770,16.6256,-6.9995,-24.0780,-52.4507,-50.1098,-38.6461,-70.6422,72.9219,41.2735,-29.0001,-25.3875,3.2593,5.7287,22.2042,14.4911,-14.8130,17.7266
-3992.1875,50.8965,62.8874,8.0435,61.1465,41.3773,60.8852,-5.7221,-76.5370,-27.6724,-97.3389,12.2982,16.3566,18.9032,-14.4896,14.7863,-56.7889,-37.9658,-8.4460,-75.4046,-7.6246
-3984.3750,-0.3418,81.0904,-69.6063,44.3609,-14.5413,151.5440,-25.2833,13.7329,-82.9993,28.6630,-116.6368,-1.8575,-0.4823,77.1079,-3.9935,-1.6049,-90.4343,12.8544,-22.2931,10.7299
-3976.5625,-54.5255,-8.6692,-79.1434,-45.3858,41.5944,133.2482,-6.7921,105.0499,8.7270,119.7098,-133.5183,-56.0269,-55.8221,94.7512,51.2813,53.6305,-109.8404,-39.3470,98.8859,-43.8679
-3968.7500,-96.1971,20.0657,-100.1070,-52.6361,-3.7656,124.4479,95.2133,132.8642,36.9682,147.2635,-140.9158,-26.6980,9.3417,86.8864,-29.9394,46.3672,-115.7491,-9.1643,57.5640,-14.9683
-3960.9375,-53.4291,-8.7511,-57.6585,-45.4402,-35.6830,56.0931,25.6716,101.1375,-32.3292,152.2823,-97.8763,-57.9132,-59.0523,91.4713,-24.7055,124.5590,-38.2069,31.4114,99.7023,27.3826
-3953.1250,87.2862,-44.6230,-27.7816,-116.2977,-37.6457,-20.3157,22.0876,97.3593,75.3435,111.2516,-25.8836,-96.1838,-61.4998,51.0028,46.4876,85.6949,-73.7134,57.6717,63.7977,61.6816
-3945.3125,27.2498,-69.2487,-84.3141,-105.9109,-139.3604,-48.4732,30.7585,67.8309,120.2645,118.4731,-52.6528,-50.1973,-53.6877,58.7860,54.9295,94.0757,-97.9672,100.7786,73.1404,107.2373
-3937.5000,-46.0943,-73.1879,-59.0946,-74.8323,-66.3792,-13.9277,29.1247,30.0044,119.8854,117.3987,-15.7244,-87.5097,-91.1796,21.2730,92.0796,94.1690,-66.5169,31.8674,140.1928,33.4940
-3929.6875,-63.7826,-56.4878,-131.1332,-58.1162,-48.7415,41.2625,84.1511,84.8290,101.1713,170.9781,-179.1535,-31.1759,-1.0105,2.4053,36.8834,75.9163,-153.4209,18.1503,121.8969,15.4008
-3921.8750,-178.1243,-67.4469,-147.2688,-69.0577,-59.7570,66.7992,109.5319,146.0031,89.8124,232.9095,-189.2386,-41.4904,-85.4863,27.8848,26.0389,101.0154,-129.9739,13.7328,181.9618,4.6633
-3914.0625,-71.5147,-66.4566,-55.1472,-32.0479,17.1797,32.2879,147.8610,111.1285,91.4030,160.7988,-113.3782,-74.8519,-84.0204,-6.6867,-7.8445,31.0642,-57.5746,-18.2516,111.9740,-29.1284
-3906.2500,5.0369,10.4929,-32.5837,43.9191,-50.9258,-36.2693,80.1446,80.2033,23.9369,128.6404,-69.5902,-68.2467,-41.5995,-38.3033,-38.7843,0.0565,-16.2283,-17.3524,12.9242,-22.9647
-3898.4375,15.7261,-14.4099,14.7371,-15.9645,0.1225,-59.6765,19.5781,55.4315,73.6256,104.6343,55.3362,-127.4948,-65.0275,-24.7650,11.4191,-22.8041,-5.7211,-81.0164,94.0378,-82.6498
-3890.6250,16.0189,-49.7285,-18.5721,-51.2621,35.7843,-23.4893,91.6255,54.2614,146.9288,66.2292,-18.1436,-127.1519,44.1553,-62.6273,11.2253,-60.0655,-75.6162,-79.3572,93.7588,-82.7432
-3882.8125,-57.0425,-53.4056,-70.9212,-54.9204,-40.9025,45.3534,50.3327,123.7467,142.8809,135.4784,-130.9839,-56.1613,3.9989,-29.8406,-28.3162,-26.6706,-43.8674,-78.7812,160.1298,-86.1842
-3875.0000,8.8513,11.8642,-15.1611,-25.6411,67.3680,80.1422,84.9941,121.1817,66.7877,168.6805,-131.8716,-95.2210,-72.2061,-33.1029,-103.8994,-66.3369,-13.1659,-148.1119,154.4636,-161.6744
-3867.1875,-17.8458,19.5354,-32.3647,18.0336,37.0386,86.3200,54.0605,127.0134,-0.9003,175.2863,-124.3716,-50.8651,-29.0014,-62.9673,-171.0854,-22.6060,-40.0610,-104.1701,128.1925,-117.7634
-3859.3750,-37.1423,-0.3971,-3.2041,-1.8943,17.1041,65.8932,33.5305,106.2447,15.8080,154.2950,-33.4777,-70.1023,-123.3956,-46.4270,-79.8754,-5.4716,11.4529,-125.5298,178.3257,-137.4561
-3851.5625,108.1602,3.2617,13.4140,1.7704,20.7788,32.0683,73.6107,72.0781,93.1271,82.9093,-28.9912,-65.7417,-46.1781,-80.2987,-76.0632,-74.7426,-20.4326,-126.9266,77.0621,-133.5540
-3843.7500,64.2571,28.7073,-27.1355,27.2195,-63.7466,20.0403,61.5002,59.7167,81.2672,107.3361,-39.7254,-39.5850,-58.1501,-18.3721,-87.4422,-49.2166,-29.5223,-103.9726,67.6044,-107.8467
-3835.9375,11.6070,-24.6053,-11.9666,8.9042,-9.0162,1.2572,79.6470,40.6049,99.6768,51.0198,-20.2171,-93.1804,-3.8750,-1.1952,4.4435,-31.4378,-12.3611,-120.9075,119.4042,-125.8902
-3828.1250,-39.8906,-40.7729,-65.0241,-77.2650,-28.1348,18.6221,169.9506,56.6418,116.2435,103.8562,-112.5751,-149.6209,86.5658,-20.8685,-14.5184,-13.5109,-63.0461,-66.3126,67.3496,-71.7812
-3820.3125,-147.1524,-113.6894,-63.8104,-79.1787,-30.0118,16.2416,130.5054,90.9340,151.0546,137.9438,-76.6933,-223.8082,-25.7403,49.7142,19.7627,57.6626,-29.4714,-65.5441,101.5537,-73.4251
-3812.5000,-69.8097,-37.0045,-0.7585,-3.4936,48.7270,-15.5377,135.6700,-14.1754,119.4681,32.6258,-70.2134,-70.3991,16.5574,-55.1077,25.6453,-46.5706,46.7094,-61.3411,-33.6444,-67.4791
-3804.6875,38.7833,105.9240,19.0690,34.4284,11.7224,-126.0743,61.0971,-89.0337,82.1445,-79.4295,-70.5061,150.2507,52.1234,-92.6854,-11.2182,-120.5540,85.1385,3.9766,-31.5915,5.7210
-3796.8750,89.2138,15.6835,62.3145,-20.8140,101.5696,-146.7618,113.3860,-146.0340,171.6906,-136.6228,-52.9613,130.7361,31.5373,-77.4083,42.7831,-140.6850,100.4216,-15.1569,54.3293,-14.2296
-3789.0625,-29.0123,-104.2199,-8.6845,-70.7149,122.7747,-54.0977,208.0391,-89.6737,155.5934,-116.4594,-214.0768,152.5669,125.3093,-19.7740,27.1319,-83.4726,52.0500,13.3159,40.6019,7.1712
-3781.2500,-159.6018,-129.4817,-24.0057,-61.9736,131.6232,28.2229,142.3457,-45.6516,54.1463,-72.6300,-204.5596,162.0519,97.7368,62.5189,36.1254,-37.6046,61.3243,26.1753,84.5346,16.2207
-3773.4375,-75.2413,-80.8031,25.5940,-47.2949,146.4296,5.4956,120.6091,-67.6759,31.6598,-94.8392,-116.1028,177.4862,112.1189,2.7697,14.0781,-95.7815,76.5429,37.3516,-6.5775,31.2102
-3765.6250,-53.6333,-58.8865,6.6407,-60.3740,18.4870,-11.9825,65.1378,-85.4457,50.4388,-76.7897,-95.4176,160.1627,130.7642,-14.7321,-3.7129,-3.7064,98.0069,86.1133,-54.4408,87.4519
-3757.8125,-13.7404,-89.6796,6.3646,-57.1623,24.8478,-79.1550,-3.0231,-79.9083,93.5243,-35.4325,-53.4399,130.1260,62.7102,-9.9300,113.8087,39.6616,67.7761,49.7332,-15.9954,56.9948
-3750.0000,-10.0533,-17.6839,-27.1011,-19.1612,26.0145,-115.5231,34.6324,-116.5649,94.4265,-34.2652,-123.6752,242.8743,63.4746,-8.3294,115.1338,-32.1714,35.3412,86.2824,-82.7542,95.3371
-3742.1875,-61.7837,-1.1033,21.0066,-2.5673,42.7786,-99.2871,14.8965,-173.6159,36.9372,-129.4803,-69.3281,260.2107,42.8536,-28.1228,95.0581,-88.3979,123.5092,108.3284,-29.9102,112.2823
-3734.3750,-34.4193,-8.4329,84.6522,26.1280,149.6536,-102.9491,47.2670,-178.5591,-3.4534,-170.5910,-36.8891,146.6445,76.3295,-69.8161,18.0792,-165.5358,151.7928,40.3147,33.0453,35.3207
-3726.5625,-41.1033,-15.8121,46.7640,17.7743,70.4814,-37.6592,77.5935,-112.5491,-9.8962,-140.7441,-116.5165,104.0328,69.7712,-40.5635,-134.9652,-135.7278,145.0338,3.9785,94.9505,-7.6985
-3718.7500,5.7122,-74.6962,86.6568,28.9162,86.8136,15.1265,93.4238,-60.0336,6.1643,-89.3875,-98.6508,-26.0801,-61.2847,-60.8056,-118.5041,-119.4222,191.7767,-80.9210,212.3608,-101.2236
-3710.9375,45.5285,-71.5877,88.4191,32.0437,127.1588,54.9088,133.2703,-20.5080,-26.7552,-124.0122,-131.7992,-22.2016,14.6625,-95.0412,-115.0288,-153.1222,160.5000,-75.7458,110.7661,-97.7461
-3703.1250,-126.8760,-32.6856,42.3406,70.9577,127.2905,55.4965,59.9301,-21.1713,-100.8542,-87.8175,-131.1688,-20.5232,15.4173,-21.4774,-77.7466,-79.0116,130.0079,-2.3939,113.9746,-23.4574
-3695.3125,-90.3405,-67.8437,53.5794,1.8153,202.3705,19.0320,96.5454,-57.8770,-62.9861,-123.6604,-55.5898,-18.8986,53.1224,16.0322,34.4931,-40.9476,60.4685,-10.1164,45.1434,-22.2188
-3687.5000,-81.6053,-59.8056,11.9963,-61.1306,134.6471,-12.2319,139.3692,-52.3762,-19.9059,-81.2881,-48.8292,24.9208,169.0342,21.7443,3.9390,-34.6895,-0.8731,24.6089,-52.4934,21.2224
-3679.6875,-84.3827,-98.2799,28.8350,-64.5815,133.4191,23.0036,64.7000,-17.3661,15.6773,-10.4017,24.4155,-49.7705,130.4436,19.9693,2.8857,-35.9227,-3.7070,-14.1160,-19.6188,-16.8352
-3671.8750,-43.7183,-94.3193,20.6263,-95.5897,139.6495,64.6939,69.4930,25.1051,57.7187,31.9506,-42.9081,-117.0211,136.3136,-11.3528,45.2809,-29.7076,0.9101,-45.0164,-86.2891,-47.4478
-3664.0625,-132.8257,-113.1149,0.4992,-43.3539,46.1278,44.6445,49.5535,76.8386,38.0196,83.5702,-100.0105,-137.0221,115.4495,4.5834,25.9215,23.7573,87.7685,-23.0888,-33.7104,-30.8103
-3656.2500,-102.6997,-83.6720,22.0795,-14.8757,40.8678,38.8499,43.8762,71.8291,69.5859,41.4517,-66.8705,-140.7870,73.8342,-0.2239,57.8255,-17.5339,117.8772,-63.5214,-4.8697,-71.9284
-3648.4375,-30.8690,-12.5344,21.9987,21.2901,4.3103,1.7549,43.9134,34.5253,32.8623,4.0439,-30.0393,-103.8596,146.9355,-75.3296,57.4296,-55.1247,83.6775,-32.4405,-109.3367,-35.3418
-3640.6250,24.6044,-63.7561,43.7976,6.1040,-12.6075,-15.6913,-10.3975,16.8762,52.7862,-13.7080,63.4361,-83.2873,56.6909,-55.7730,114.6867,-35.0623,69.1335,-16.4208,-54.1512,-15.0977
-3632.8125,131.3171,-62.7294,48.6668,-28.8299,-13.2730,-89.8798,25.5442,15.4829,51.9660,-15.1991,100.1490,-46.4692,55.7013,-19.9608,41.2016,-35.7573,0.8380,14.6670,-87.7204,21.3935
-3625.0000,66.4109,-58.3007,-13.3862,-59.3614,-82.5486,-86.6649,-45.1080,54.4989,17.5550,97.7319,30.2412,-6.2480,58.1241,93.2567,-65.8840,40.9515,-30.0669,51.4356,-47.8949,61.2850
-3617.1875,5.3404,-50.0261,-8.0474,-15.0433,-71.9717,-112.5953,-33.9073,66.3715,30.0003,145.5246,43.1753,-67.1807,-40.6094,68.3346,56.8808,89.5151,14.8844,-6.9496,-3.2090,0.0241
-3609.3750,-30.7804,55.1938,-36.9296,19.2242,-73.4433,-78.5756,0.2611,26.2000,64.4009,106.2745,-32.9532,-69.1679,30.6117,-8.6356,91.5912,51.0212,14.7874,27.1562,-144.5745,34.7137
-3601.5625,-69.4634,14.8585,-33.6735,13.9406,-78.4761,-48.0987,-42.1152,56.4875,21.2561,62.4925,-1.6490,-73.7105,-12.7137,21.8533,85.7501,81.9765,10.1414,61.6824,-77.4887,65.8571
-3593.7500,-10.3512,-31.6816,-38.5003,-32.5439,-53.7041,50.1823,-53.6899,81.5885,-63.0802,87.5253,24.4501,-84.4621,12.7648,121.1401,37.7156,107.7279,-70.7035,48.1274,-124.6013,54.7969
-3585.9375,-51.2967,-72.2719,-105.6721,-39.0818,-134.9846,115.4142,-98.3007,182.6460,-107.4535,188.5276,-20.5206,-55.2682,4.2097,185.3716,-7.3655,136.4296,-146.6077,77.9406,-95.7655,83.6877
-3578.1250,-52.2533,-108.8691,-65.7903,-40.6262,-97.2673,115.6475,-134.9050,182.7145,-70.8133,225.5423,54.5010,-91.0748,-32.3522,148.6138,30.5649,173.1324,-111.5174,41.1004,-61.9273,47.5799
-3570.3125,-2.0722,-60.3167,-14.4129,-26.0244,-46.3996,93.0351,-83.3464,123.9428,-56.0109,92.7182,69.6561,-75.7367,56.2432,90.0116,-28.3444,77.9848,-62.2915,57.4386,-151.9415,62.6262
-3562.5000,-4.7119,6.4271,-0.3122,5.7692,-85.3403,89.6262,-123.5795,83.3879,-94.9931,52.1202,66.9823,-78.2047,16.0530,86.6183,-31.0518,38.0441,5.1230,56.1341,-119.7516,59.8760
-3554.6875,69.7432,45.2598,41.5434,9.6521,30.8236,59.3228,-81.7028,-21.0560,-89.8624,-15.3576,73.4004,-71.5855,22.9706,56.3319,13.3402,8.2042,9.6375,-12.7910,-150.4531,-6.7848
-3546.8750,13.9983,58.8869,1.8361,23.3297,42.7856,70.8222,-33.0151,-46.6916,-112.9253,-41.0256,12.6041,-22.1700,108.7014,30.8496,-48.4673,20.1624,-47.0535,38.9929,-137.3630,42.3566
-3539.0625,-1.9117,7.3621,5.0434,41.8557,26.5912,54.1741,-49.4788,-26.4654,-93.1364,-57.8264,33.6508,-37.9127,18.2753,88.2250,9.5830,77.9722,-27.8932,24.6709,-48.4167,26.3538
-3531.2500,5.7186,49.3833,4.0544,48.9283,33.9538,24.0769,-5.3842,-19.6829,-49.7898,-51.0617,4.2390,-67.1154,62.4058,58.1484,17.1853,48.3319,-20.1873,32.5682,-75.9163,33.9010
-3523.4375,-30.3688,118.6931,-1.1950,83.2974,-41.3886,-15.7121,-79.9781,-22.5868,-87.1401,-52.9739,2.1067,41.9751,22.8422,55.3853,15.0813,45.9910,50.8136,64.3112,-111.1122,68.7479
-3515.6250,93.4264,206.8960,73.2545,100.5641,-22.8233,-69.5872,-97.6667,-112.5755,-104.5901,-180.9695,58.8592,98.9523,5.1741,-36.4708,34.8800,-45.4451,138.7177,44.6455,-128.4037,51.4842
-3507.8125,141.3632,183.2473,35.5066,77.9763,-119.1067,-21.2970,-85.1912,-100.4017,-165.8887,-131.8048,-2.2561,112.0789,54.6678,-24.1764,-26.1754,-32.7369,116.7690,56.5741,-150.5543,64.3686
-3500.0000,77.5862,13.9034,33.6045,13.6864,-37.0947,25.2953,-113.4114,-55.9207,-119.8802,-13.3277,44.9247,48.5033,-9.5323,22.4207,-15.9329,14.2717,53.1195,-4.9917,-39.4046,0.5533
-3492.1875,59.0065,-40.2429,5.5474,-40.4051,18.1248,43.0865,-59.4191,-1.2323,-65.6565,41.3583,26.2985,66.1179,45.4779,3.2210,2.5157,-4.5304,-35.3417,-23.9350,-58.0581,-18.0651
-3484.3750,-83.8896,-7.6941,-63.6444,-7.8007,-22.9634,38.5849,-26.7138,31.1642,-32.7208,73.7615,-88.6455,99.4236,41.1990,35.7248,-1.3291,28.3688,-38.1139,14.2698,10.9859,15.0216
-3476.5625,-77.6964,32.9412,-38.8963,-2.0978,22.0475,9.1898,-18.9043,38.6796,49.3218,44.2850,-43.4926,-2.1849,-24.9780,79.3354,43.9278,36.3646,-30.7913,-14.2420,52.1372,-13.7951
-3468.7500,-76.1147,68.9809,-81.3638,34.0069,-52.5435,8.2006,17.3202,37.6054,11.7664,80.2320,-80.9511,-2.4006,11.2577,79.3479,43.5816,35.7561,-65.0748,20.2258,-52.3237,22.7837
-3460.9375,-73.9020,35.6717,-55.2186,0.7638,-86.4945,9.8714,-54.8021,39.1995,-60.1332,117.8564,-4.7747,0.0300,-60.8636,81.0202,8.8860,110.8089,-27.7181,20.5726,-15.1357,25.0119
-3453.1250,72.7539,-30.1887,1.0706,-30.0293,-7.9924,-22.0042,-49.4740,44.2519,-90.5760,86.9444,37.8460,-31.0954,-18.5332,49.1498,-22.3539,80.3169,-56.9202,25.9114,-9.4977,30.6871
-3445.3125,36.9965,-66.4491,-70.7014,-66.2211,-82.8987,-25.2713,-51.5371,114.9130,-56.4150,83.6427,-38.9498,-33.6223,15.4073,119.8836,-24.9989,114.4230,-127.5228,60.2178,60.7375,64.9676
-3437.5000,19.3189,-119.6121,-81.3880,-153.3104,-26.7083,-78.4327,5.5016,134.6801,74.8503,103.4523,-17.6490,-49.0573,-74.5569,139.7266,70.4594,134.6284,-180.0214,5.7945,148.0742,12.3467
-3429.6875,48.4360,-55.9663,-69.1749,-124.5892,2.2787,-121.7840,71.3499,90.2535,103.9123,96.0695,-25.5590,-19.6923,28.2819,21.3752,25.7136,53.6255,-185.7271,34.6755,72.2013,41.5248
-3421.8750,17.7910,-17.0680,-33.5086,-86.6139,6.5049,-117.8743,38.4506,20.0876,108.2250,62.9486,15.7711,-15.0847,-41.6298,-48.7202,30.2099,20.8766,-110.1854,41.8129,111.5879,45.9522
-3414.0625,68.1408,-1.1749,15.8671,-71.6419,23.7358,-101.9615,55.5613,-0.0716,124.5539,5.8434,33.1033,-34.4883,-24.5425,-104.8132,84.7102,1.1201,-25.6507,22.2104,21.9801,26.3713
-3406.2500,-16.0696,-15.8270,-53.7968,-50.2170,-64.5809,-44.5973,40.1335,21.2317,146.3391,64.2058,-56.1336,-12.4357,33.9994,-47.4522,69.6540,22.8153,-38.6820,43.8527,7.8114,48.2454
-3398.4375,-16.4951,-87.6786,-34.1899,-121.9935,-28.1080,-44.4289,40.5046,58.3466,146.9255,100.3848,-18.5787,-85.5856,-2.6634,-10.2804,106.4062,60.3155,-39.9191,8.8376,112.4493,11.9235
-3390.6250,71.4250,-139.1840,-26.3501,-174.4215,-10.2842,10.0975,131.2357,75.8227,127.8704,44.9301,-37.6782,-103.3960,162.0342,-29.7598,14.5084,4.1587,-91.8165,28.8079,60.4322,29.9515
-3382.8125,-41.7779,-146.7928,-54.6659,-145.9510,-17.5751,76.5359,87.8726,68.2140,84.7197,37.3994,-44.8895,-74.3169,117.6420,36.6598,7.5067,-3.0936,-98.8206,24.9835,88.3174,22.8795
-3375.0000,-41.0983,-113.5102,-16.8648,-76.5792,59.0367,41.8813,53.4141,33.5232,124.4797,39.7955,-4.2020,-70.3578,84.1468,38.9805,11.4114,-36.4385,-62.9294,-46.8506,18.0996,-47.2980
-3367.1875,-58.0260,-24.8297,-48.9549,-23.8032,4.0384,59.6284,35.3584,15.2448,105.6450,21.6169,-23.1206,-15.0046,139.0585,20.7046,-44.2831,-18.3775,-80.6550,-31.6773,-69.7297,-29.0708
-3359.3750,-40.9179,-8.0966,5.6513,-6.9720,23.0803,5.4320,17.3521,-2.9701,50.8621,-33.4969,32.0135,4.3898,47.0121,38.4909,12.0780,-36.2633,7.6568,-47.7285,-16.5127,-46.7918
-3351.5625,-43.3108,-10.8626,-8.1879,-9.6407,55.6221,-36.2637,85.8510,-44.6811,47.5793,-75.1020,-8.3549,37.2772,116.4748,-2.2165,7.9389,-40.6556,-29.5350,-14.3402,-18.7976,-14.0129
-3343.7500,-159.9234,-22.8274,-57.6543,-57.5053,41.9557,-50.1509,73.1547,-21.5768,34.0921,-14.8906,-21.9371,23.9577,139.7426,20.8863,68.5876,-17.2428,-76.9303,8.1448,39.7193,9.5696
-3335.9375,-145.1512,-42.3976,-41.3133,-75.9683,97.6902,6.3759,91.8606,33.9402,53.0054,40.7384,-2.1238,-66.9715,85.4007,39.3929,87.6329,-34.4234,-95.9244,-42.9865,20.6426,-44.4545
-3328.1250,-130.3803,7.0336,-70.3610,-26.4228,39.4241,93.9156,69.5751,48.4650,-5.0782,92.3800,-98.3200,-88.8999,100.0634,53.8941,-7.3264,17.3858,-80.9295,-26.3186,-70.4436,-29.4788
-3320.3125,-75.5219,-44.4374,-26.6392,-7.7684,23.2458,77.5644,-19.6100,69.0975,-21.0670,76.1299,-40.4094,-141.7351,-26.1738,74.5091,13.8132,74.2885,-25.8382,-40.9274,19.5719,-45.4035
-3312.5000,-5.6779,-79.9051,-15.5922,-43.1069,59.0683,77.2203,17.2070,68.7392,15.9445,75.8938,-40.5017,-141.5833,10.5907,37.1360,13.9535,37.1944,-60.7602,-42.1924,-15.4170,-45.3305
-3304.6875,-123.2550,-56.7645,-62.0796,-19.8407,9.4766,63.4840,3.6263,91.9987,39.5569,136.2800,-54.0154,-43.8396,-3.0427,60.3715,-36.3050,24.7079,-73.0910,-18.9870,-26.8092,-21.6516
-3296.8750,-62.2522,2.9743,24.6021,5.0355,37.4721,18.3610,-41.3544,9.8776,30.7789,54.2862,85.0628,-14.5106,-11.0922,-20.7828,-6.9528,-20.1690,23.1706,-67.6066,-36.6003,-66.3769
-3289.0625,63.0889,129.0629,58.6637,60.2695,21.8134,-34.3972,-20.9764,-42.8805,-21.6418,-35.3441,105.4886,6.1667,45.2125,-74.5796,-60.2583,-73.7045,43.7681,-50.4694,-157.0537,-45.7552
-3281.2500,99.4184,164.1475,93.6755,96.5003,-14.8459,-71.1445,-57.5978,-79.6298,-95.0676,-71.9574,142.9197,-30.1619,9.5170,-74.3689,-59.5680,-36.2412,115.3589,-49.8013,-121.5122,-45.1327
-3273.4375,185.8465,215.3275,95.2315,147.8312,1.6053,-91.7932,-78.1156,-100.2788,-115.3875,-92.4584,159.4523,23.5993,-11.0796,-58.0595,-79.7748,-56.6756,61.0459,-37.5443,-209.8733,-28.4143
-3265.6250,118.7653,219.0096,17.1133,150.6726,-107.4535,-54.9366,-113.1231,-99.4208,-150.1989,-91.4483,122.4660,60.8531,-11.1709,15.7516,-78.4838,17.3911,-5.7681,33.5531,-205.7377,45.8031
-3257.8125,102.3635,131.3972,35.7451,134.2288,-87.8224,-34.3708,-129.4283,-42.8521,-166.3056,-34.7231,143.1729,7.7995,-64.5763,36.2721,-21.4910,1.1552,14.1170,22.1707,-115.8944,29.7154
-3250.0000,102.5953,61.4411,21.8764,64.4466,-12.5435,-32.1454,-92.0811,-3.6185,-127.7653,77.6711,-1.4688,-63.6072,84.6656,1.4521,-55.8579,3.5748,14.6367,-9.9985,-116.4116,-4.7233
-3242.1875,-22.0380,6.6359,32.2603,44.8172,42.8691,23.2372,-72.5880,51.7815,-109.0806,97.2319,-18.9533,-117.8654,67.0520,-16.2067,-36.0833,-13.8447,65.2962,-54.5955,-29.7802,-59.0077
-3234.3750,-34.2196,65.2797,51.0331,103.6386,106.7290,50.0715,-9.6429,4.6425,-81.9380,13.2576,-29.9814,-53.6843,19.8811,-63.4098,-9.8534,-97.8164,89.3936,-96.1989,-41.6987,-105.8470
-3226.5625,-34.5600,134.7765,-1.2238,138.3188,-5.5758,84.7689,-47.8424,39.3644,-83.9453,11.1478,-68.1688,17.3398,-18.4358,-65.7536,-84.7760,-99.9403,53.3290,-60.6858,-6.7778,-70.8337
-3218.7500,-2.9659,96.2271,-17.9869,99.9625,-7.9406,120.4227,-49.0975,75.0478,-48.0019,84.0074,-33.4063,-20.6922,-167.8138,5.8630,-85.7505,-28.1118,-19.7895,-99.1026,96.0941,-108.8710
-3210.9375,-29.8797,69.1854,-32.3538,108.1203,-37.8037,163.5831,-5.8545,81.2352,-78.5617,90.3745,-26.1434,-13.2221,-87.6912,11.9782,-153.2306,-57.7806,-46.4154,-54.0842,33.4559,-65.4085
-3203.1250,-101.1634,67.8007,-19.1507,142.9377,-77.0281,161.4065,-44.9607,42.0830,-117.4682,-21.5945,8.7572,57.8990,-126.9194,46.7447,-154.0638,-59.7978,23.5927,-16.7837,68.4714,-30.2937
-3195.3125,47.7339,40.6130,40.9336,115.9625,-67.0507,97.4445,-34.8611,-20.8575,-33.1703,-85.3481,17.8590,31.2111,-153.9551,19.7177,-107.6870,-86.6159,102.7856,-46.9664,76.6879,-56.9869
-3187.5000,74.3125,32.1338,4.1610,71.6950,-114.3792,87.1934,-8.0557,5.9138,-43.1717,-21.3943,-28.3377,22.2221,-53.2828,10.4013,-117.6116,-59.7388,58.6639,-24.7000,-1.4091,-29.9802
-3179.6875,37.5747,-4.6453,-7.0049,35.1379,-77.0192,50.6476,-81.5580,79.3914,-79.4820,89.2729,45.1736,21.9267,-126.9195,9.7977,-42.8432,13.8477,-12.7556,-64.4866,67.1900,-66.2714
-3171.8750,47.7454,5.4816,-20.8418,-24.5061,-66.7680,98.0099,-34.1654,126.7700,-31.9027,99.8442,55.5886,32.5239,-116.6630,20.0981,-69.1832,-48.6654,-72.2739,-54.5412,7.6799,-55.6655
-3164.0625,-23.0394,-30.3348,-37.4029,-25.0786,-142.4795,95.4344,-36.7240,161.2075,2.7161,97.4774,53.0499,-5.8320,-119.3592,54.4486,-71.4892,-51.1318,-37.7478,-16.6074,77.2149,-21.0085
-3156.2500,-9.4378,-51.7455,-0.2090,-11.2343,-88.7888,39.2665,-18.8849,142.0491,130.7350,41.5216,70.9228,-24.7957,-138.6631,-37.8014,-16.3889,-70.2020,11.1680,-71.4117,92.1475,-76.9589
-3148.4375,-66.9023,-4.1988,-18.8666,36.5714,-39.1487,15.0611,29.9146,80.8498,143.7013,17.5200,-26.2568,24.1842,-15.0158,-99.0972,-40.3348,-94.3251,24.0136,-57.5108,-0.9822,-63.9578
-3140.6250,-42.5393,56.1951,12.5367,97.2244,-49.6661,4.7151,-16.4366,33.5178,22.5193,-28.6118,-0.5959,51.0085,-99.5208,-109.5302,-13.4381,-104.5888,84.6971,-65.1369,58.7490,-74.1047
-3132.8125,92.8620,85.6393,28.0351,126.9356,-18.1409,36.4287,-21.7344,-8.7503,17.3970,-70.6733,-5.8822,82.8697,-67.9854,-114.9080,-55.4946,-109.8045,43.4218,-74.0253,-16.4704,-79.2109
-3125.0000,24.3014,88.1411,-30.8828,94.7085,-54.5779,74.2051,-20.9835,-6.9555,19.3219,40.3268,-41.1163,83.7826,-67.4109,-114.2313,-54.5131,-71.9728,-23.8050,-37.4888,21.3518,-41.2697
-3117.1875,-11.3109,16.5996,-12.9134,23.4497,-18.0700,73.9430,-21.2891,-7.2065,92.1891,4.2833,31.6091,46.6428,-104.9021,-77.6012,55.4093,-72.1948,-24.0844,-40.2910,21.1257,-41.3858
-3109.3750,-23.7752,4.2178,-22.5495,11.3588,-34.4065,58.8420,36.5594,-23.3045,40.1936,-11.6050,16.4817,68.6496,-47.2407,-93.8264,3.4637,-51.2598,-37.2243,18.3729,-26.9644,16.6436
-3101.5625,-29.1055,-36.0110,-14.8368,-28.5708,-40.6025,15.9020,-6.4415,-29.2414,71.3431,-17.3342,10.4981,25.7995,-89.4343,-62.9029,34.6657,16.8367,-6.2205,48.7379,75.0967,47.8226
-3093.7500,63.5550,-49.2412,3.4514,-76.4936,20.2035,-34.0271,17.5577,-42.1716,95.4989,6.9490,34.5276,12.9383,-29.6371,-75.9734,58.8767,3.9287,-54.2275,29.8090,27.1548,34.9929
-3085.9375,-45.3942,-52.0625,-72.7206,-79.0027,-57.6014,-38.5468,49.9555,27.3111,91.0400,76.6509,-7.0462,45.4766,2.5573,-79.6275,17.4760,-0.5813,-126.8420,64.8435,59.6015,67.5650
-3078.1250,-107.3580,-42.8761,-70.8371,-34.4957,-46.4150,-63.0509,62.3385,39.8053,139.5649,52.3620,42.3869,21.0170,-22.2645,-68.2704,103.0695,-25.0870,-118.4620,4.9897,103.0463,6.1371
-3070.3125,-43.6300,56.0243,-75.6659,-5.2736,-54.5343,-70.8483,91.4208,-4.9982,95.7873,7.7729,-2.4739,50.2624,43.6118,-76.2111,59.3602,4.1065,-123.3922,31.3432,27.1770,35.4083
-3062.5000,10.3883,75.2374,-73.1313,13.2658,-109.3690,-88.3449,-38.2033,12.5025,2.3055,25.4894,14.9698,104.8114,-85.2155,15.1526,76.9423,95.6052,-105.0340,80.2081,10.5991,89.9805
-3054.6875,103.3546,62.4016,-14.3414,-34.2315,-13.2575,-100.8870,-50.8804,-0.0391,-10.2308,13.1609,39.3799,92.3025,-98.1005,39.4665,101.4770,9.0513,-81.7307,66.5886,-2.0342,77.4958
-3046.8750,7.8654,2.1173,-37.6031,-58.1689,-38.6076,-53.8673,-4.0029,-26.0232,-35.2182,-12.6092,13.3409,66.3318,21.5684,87.3302,75.5604,20.0522,-70.8892,80.1891,8.8698,88.5617
-3039.0625,-98.4449,-68.9707,-21.4081,-58.9013,37.2333,22.3630,36.0702,-22.7934,4.0000,-9.1609,16.5059,-41.4559,-12.5715,89.4043,78.8493,96.2648,-37.8608,17.8371,78.9784,17.8270
-3031.2500,-52.9157,-93.2128,-4.4034,-47.7833,84.9186,70.4453,83.9919,-48.6924,15.0771,-34.8368,-46.4797,-67.3995,35.1290,27.3383,15.9893,71.3306,-26.9998,33.4800,19.9335,28.9411
-3023.4375,-128.1063,-64.1541,-31.6056,-18.3634,2.8922,99.8349,2.2139,-19.2766,-29.5469,-5.1934,-54.1681,-1.0394,-9.8745,56.5798,8.4280,26.6973,2.1453,64.0302,49.1906,58.3555
-3015.6250,-63.0459,3.1576,7.3075,14.3178,-0.8815,96.4764,-38.3154,-22.6012,-68.9234,-45.2977,16.4090,32.5653,-86.6373,53.0696,42.1139,-13.6904,34.5338,58.6910,9.6980,55.0110
-3007.8125,-44.1840,92.2797,-38.0917,32.8177,-129.8605,76.9231,-56.0424,-5.1245,-124.5029,-26.6004,-3.2101,123.9684,-32.5940,33.3494,22.5930,3.7210,17.7160,107.6343,-40.0092,109.4651
-3000.0000,-40.3860,96.3612,-32.3573,38.2890,-123.8995,-27.6723,-86.8299,-35.6937,-45.1441,16.0549,40.1275,130.3155,-99.6110,39.5876,66.0221,47.0843,21.8448,71.8335,33.2329,78.8665
-2992.1875,13.9064,115.9531,-29.7804,58.2752,-67.4399,-43.7551,-31.1195,-51.7622,-25.2886,-36.7971,22.9689,150.1573,-44.1373,22.3272,48.9521,29.9503,-28.5329,90.0234,-87.0326,98.7623
-2984.3750,-69.4074,137.9541,-64.1412,150.6749,-196.5948,-24.4273,-122.0090,-69.4321,-116.0384,-17.2546,6.2126,205.4077,-99.2669,77.4704,68.2695,122.2174,29.4857,180.7135,-134.9070,191.0623
-2976.5625,-10.9248,161.7558,-44.7734,138.8868,-246.9572,-74.2936,-209.1033,-45.3044,-165.9864,-29.9112,66.2773,192.4547,-148.6121,138.4162,92.3850,183.2846,53.3031,199.2993,-110.9766,215.1579
-2968.7500,-12.4910,89.5161,-81.5095,69.0616,-249.3765,-150.2039,-138.2479,-48.2213,-57.9899,41.3948,27.2981,152.4490,-42.0030,99.3151,90.4414,180.2985,-18.9409,230.2491,-77.1095,249.1996
-2960.9375,-130.4700,7.8817,-83.6572,21.8493,-150.1981,-160.5078,-75.8006,-21.5285,77.5935,31.3135,16.9217,69.0373,-52.8006,87.8212,152.0930,169.9209,-31.5922,189.1389,15.3559,201.8376
-2953.1250,-126.6997,11.0032,-54.5280,-8.5994,2.7289,-154.0588,40.3936,-52.0795,119.9300,-36.0123,-50.6972,74.3665,26.1423,57.0816,121.4983,102.2950,-27.5003,163.9509,-15.4374,171.2189
-2945.3125,-115.9864,22.0778,-43.8570,2.9087,-23.4105,-142.6565,51.5348,-114.6738,58.2163,-98.3824,-76.3620,49.6527,73.0378,105.2965,59.8461,113.6211,19.5284,177.4049,31.7114,182.5516
-2937.5000,-41.2324,-42.7938,30.8302,-27.5185,57.4928,-97.1964,22.7123,-105.2069,29.5380,-125.6962,5.0403,20.9895,-64.0319,114.5673,68.2338,86.0005,58.6060,117.1650,106.9144,117.9289
-2929.6875,20.6238,-50.5576,-20.8523,-68.8346,12.5010,-31.6243,51.9880,-39.6322,-14.0589,-22.9035,-38.4595,50.4236,-36.0050,106.9403,-12.2885,78.4794,-53.2244,108.2940,63.2031,110.4013
-2921.8750,-30.9730,-31.7694,-12.4168,-84.5844,-3.9456,-11.4926,-1.1942,17.5017,-103.1189,71.4468,18.5863,71.4030,-88.4452,90.8710,-28.2654,62.5095,-35.5040,94.1495,118.0401,94.4201
-2914.0625,1.5788,1.1718,8.6696,-88.1744,68.7583,-12.2079,-2.2293,16.7921,-104.0294,33.9482,54.7945,33.5211,-54.7433,15.9529,-30.0916,61.6920,-73.6349,55.8065,80.0194,56.5789
-2906.2500,-55.0262,-20.0286,-6.5876,-37.8994,9.3031,2.9309,49.5803,-5.0636,-53.0926,-24.6947,-41.1412,48.4913,-3.1859,-6.1126,-51.0811,39.7284,11.0736,76.5540,59.8385,71.5868
-2898.4375,-47.5828,-47.1731,43.1224,40.4302,19.8897,14.1208,60.4317,-67.8645,30.8925,-123.2807,-30.0117,-14.4852,-66.5949,4.8796,-4.0251,-23.1801,123.8225,19.4179,101.7136,8.6410
-2890.6250,5.6739,41.4913,47.6737,94.5674,40.2760,-1.8930,80.0821,-120.8652,87.6716,-175.0648,-83.0752,43.3375,-9.2090,-11.3250,-57.1781,-76.2920,143.3690,0.3750,-19.6170,-7.5089
-2882.8125,-54.0802,87.1624,30.3663,105.7241,-23.3484,-27.9016,54.7291,-145.8647,62.4461,-200.8538,-35.1424,54.1610,-72.8265,36.4751,-9.3387,-28.4020,153.9146,8.7013,26.0518,3.3382
-2875.0000,37.3588,4.0439,57.7863,23.0967,73.2287,-77.7050,77.5768,-158.6630,85.4200,-176.4439,25.9948,4.1815,24.7452,23.4800,14.7049,-41.3138,69.6595,-9.6031,47.9124,-9.6251
-2867.1875,-37.6438,-71.5217,20.2711,-51.9691,103.3493,-83.9541,107.9707,-91.9110,42.9350,-73.4824,-54.3142,-2.2434,127.8752,17.0430,8.2947,-10.6783,29.9387,22.4780,43.3073,20.9620
-2859.3750,-119.5974,-81.0371,48.2555,-25.9835,205.5071,-55.1555,99.4043,-100.1037,34.4964,-81.4681,-25.5527,-47.6238,45.0499,-28.3343,72.9358,18.0216,54.2573,-17.2810,67.7487,-24.4028
-2851.5625,7.9491,-24.0479,94.8167,31.5111,227.1649,-69.8549,84.3323,-150.7903,19.5588,-131.9546,-3.2814,-25.5051,103.7281,-80.2128,22.0715,-70.7749,76.0662,2.0745,-51.3201,-2.2728
-2843.7500,27.7908,-3.7485,91.8114,52.3200,136.1130,-49.2548,31.5525,-166.1733,2.9163,-111.1365,-19.7180,-5.0813,13.7004,-59.7868,-31.4965,-50.2699,131.1746,23.2458,4.9026,18.1577
-2835.9375,-4.7637,-0.8453,90.4055,20.7403,142.6687,-5.0618,37.3663,-86.9592,9.8705,-67.7166,-12.5420,-72.0585,-127.7355,-15.7590,-24.4666,-43.1698,134.8836,-38.9575,42.7215,-48.8214
-2828.1250,0.0907,-30.5338,36.9179,-43.4277,73.6249,73.5358,42.5820,-7.3438,-21.7898,12.0974,-80.9606,-103.6324,-85.7631,-10.3365,-93.0462,-37.6743,68.9871,-30.6297,118.9224,-43.4021
-2820.3125,6.6374,-164.5201,56.4701,-141.8904,120.2797,83.8432,52.4894,75.9739,98.2366,21.6105,-34.6687,-240.5090,-76.0922,-38.2063,-45.9297,-28.4780,40.7827,-91.0433,265.8253,-107.2867
-2812.5000,113.3966,-197.3067,83.1991,-139.1542,197.1350,51.3575,166.5939,43.4992,138.4589,26.3239,6.8314,-237.1947,0.7753,-143.8748,-42.6121,-97.0796,-28.2281,-124.8703,197.9239,-139.9776
-2804.6875,55.7207,-114.5346,36.5941,-90.8610,135.5266,64.4225,142.2392,56.5832,41.2207,39.5921,-17.1170,-113.3266,13.1908,-130.9947,-65.7573,-84.1279,-50.6936,-113.9130,139.5624,-127.1160
-2796.8750,120.0517,-49.7550,77.5659,-25.5545,130.9118,96.4868,100.8703,15.6672,-0.0287,35.8606,15.9508,-117.4589,-102.4076,-135.1088,-70.9123,-89.1734,13.8392,-154.1423,133.2047,-168.2601
-2789.0625,137.5297,3.1794,45.8100,-7.0918,38.4455,78.7010,82.6457,33.9097,17.8690,54.2836,-39.8302,-136.4409,-47.8493,-117.0702,-88.9224,-71.0657,31.5098,-140.2870,45.9868,-150.2593
-2781.2500,124.4547,-9.4358,70.7067,15.8220,-11.5689,29.3640,-4.1312,58.6059,42.2132,42.1602,94.8433,-185.9730,-97.8425,-93.5798,-65.4883,-46.5090,53.6253,-157.3131,33.2228,-162.8141
-2773.4375,196.5959,99.1530,100.1985,88.9406,65.6233,-39.7741,37.2936,-10.4979,9.7505,-26.7750,136.7291,-181.3049,17.3597,-198.8949,-60.8595,-78.7649,20.9470,-193.9076,-105.3442,-195.1783
-2765.6250,138.9470,181.9539,44.7699,173.2751,42.0072,10.2905,12.9131,2.5945,-51.5149,-13.5186,75.8078,-168.4285,102.7658,-186.0114,-48.0399,-138.8296,-36.5313,-180.0578,-162.7251,-182.3438
-2757.8125,124.5536,168.0196,63.9604,194.8703,65.6398,34.6028,-36.2315,-9.0643,-26.5376,11.9783,175.1478,-217.3021,53.4097,-124.8728,-22.9684,-151.6423,-50.7533,-231.0956,-141.8597,-231.2693
-2750.0000,138.3221,182.2487,31.0511,139.6243,42.4275,86.0645,-22.2267,5.4198,-49.4117,26.6095,152.6394,-130.0198,104.2093,-110.5806,-82.7507,-137.3166,-107.8314,-220.6620,-197.8573,-217.0528
-2742.1875,110.1896,119.5813,63.2745,112.4841,49.3181,93.6229,-89.1209,49.0018,-79.1935,34.3336,160.2296,-122.6338,1.1166,-103.1836,-112.4432,-55.8936,-29.8142,-209.3364,-120.7516,-209.7431
-2734.3750,178.0141,82.8641,112.8555,111.2924,121.1784,92.1323,-54.0630,11.5281,-44.0323,-41.0028,158.7767,-160.3013,-1.0251,-141.8309,-114.1913,-94.5227,3.1567,-207.6812,-122.6994,-211.4971
-2726.5625,84.0521,94.3527,62.2385,159.3079,58.2411,139.8517,-80.8094,22.2539,-106.6805,-30.1528,59.5245,-112.7667,9.0480,-130.2750,-139.7552,-119.9563,15.3256,-154.3123,-75.4676,-164.0558
-2718.7500,1.3967,47.1474,28.0372,147.6304,83.6069,166.8776,-54.2673,48.2794,-81.0415,33.9914,48.5805,-123.9295,-75.5906,-67.4153,-114.0229,-57.0903,-32.2030,-199.3670,-16.9411,-211.3188
-2710.9375,-15.1400,31.0482,-1.4701,96.0559,100.0759,184.0019,36.3710,66.4003,-64.3155,51.2255,-7.2593,-69.9860,14.8710,-50.4560,-170.1907,-77.1288,-84.6324,-145.3606,-69.3273,-157.4823
-2703.1250,-29.0649,17.5555,5.4749,48.0840,45.1369,129.7242,-18.4062,85.1202,-119.0066,33.0569,48.5009,-50.4360,-40.0629,5.1107,-151.7661,15.4399,-62.4624,-56.4448,-12.1185,-65.0423
-2695.3125,74.2227,15.2616,28.1357,46.3068,4.4023,51.6412,-22.9868,44.0358,-123.4984,30.0782,118.4695,-54.6904,-44.7950,-35.1183,-119.1368,85.2085,-65.0924,-31.4335,-49.7073,-32.4135
-2687.5000,48.2225,60.6696,-67.4724,22.2229,-134.6285,61.2475,-51.8598,89.6496,-78.2843,75.7917,17.1412,-9.2464,-36.8143,-63.6480,-109.8154,130.6801,-126.0269,9.4107,-75.6018,12.9107
-2679.6875,-34.6199,-21.7719,-70.5445,10.2842,-72.5104,49.9954,-62.5921,79.4138,-14.9231,138.6498,42.9681,-56.6553,-47.6794,-37.0222,26.6544,83.3109,-138.8094,-37.4994,17.6544,-34.6174
-2671.8750,-27.9990,-49.7541,-47.4401,-17.2050,8.0621,21.1855,54.1217,49.6258,28.8826,71.9496,14.2476,-49.6121,68.9075,-29.9432,-3.4258,-19.6093,-132.1457,-27.4955,-10.6522,-27.6962
-2664.0625,-94.4673,-115.8225,-36.1532,-11.7907,10.5282,24.2685,57.7244,53.7361,-5.4201,76.1452,17.4183,-46.6584,71.3935,10.0433,-74.6094,20.3699,-92.5850,16.7738,28.9328,12.1289
-2656.2500,-29.2647,-86.2361,-38.6140,-16.7287,4.6562,55.9927,14.9726,84.4891,-11.0750,106.9812,49.2439,-15.0568,-44.4684,4.6785,-43.1435,87.9974,-133.3713,7.1536,-11.8312,6.5950
-2648.4375,-46.1995,4.2038,-129.9645,-32.8210,-88.3508,73.5522,-41.9195,139.0832,6.1207,161.6559,-44.0810,39.3911,-27.4520,22.1646,-61.8334,179.4677,-219.3092,54.6634,-63.7563,60.9046
-2640.6250,-156.1317,-37.3558,-124.0053,-37.9173,-94.3455,105.1092,-119.8124,170.6687,-36.6821,156.3158,24.5939,33.8359,-70.4251,126.6525,-31.5283,173.9393,-190.2442,50.4860,0.3229,55.2084
-2632.8125,-126.0474,-75.9239,-118.0068,-41.0235,-62.3248,101.6659,-51.7036,167.2518,-40.4807,116.9629,-15.7212,30.2762,36.6073,123.1366,-35.2218,133.4067,-194.1810,48.5481,-38.6058,51.5050
-2625.0000,-135.5018,-120.0375,-93.6384,-84.6880,-34.8602,92.6738,-61.1488,121.2880,-85.8310,144.0602,-24.5944,58.1676,100.1013,114.0766,-7.4699,124.3216,-132.6751,37.2845,-48.0868,42.2500
-2617.1875,-80.3970,-170.5995,-32.8516,-64.8107,61.1543,42.2308,-38.0502,70.8827,-26.6428,93.7057,-0.9126,7.6038,49.1396,100.5780,52.8292,110.7897,-79.6176,-11.6990,-28.0077,-8.4665
-2609.3750,-142.9252,-91.8095,-64.4696,-20.5920,-5.4735,86.1405,-68.5960,78.8320,-93.1083,64.6911,-30.8919,51.3845,92.5456,107.4331,-14.5323,117.6069,-71.2157,32.7422,-90.5865,35.1593
-2601.5625,-225.7886,-33.3742,-58.2543,38.2686,-55.4463,109.6960,-153.4888,66.4250,-178.9225,52.3173,30.7722,75.8145,43.6093,168.9388,-27.2419,142.0740,-13.1608,20.7894,-33.5187,22.4282
-2593.7500,-135.4302,-47.7336,-43.5967,59.3268,-33.2066,95.4421,-132.1795,88.2107,-120.5324,38.1291,16.6360,61.4467,28.8840,154.6366,-41.7503,127.7286,-27.9000,6.1569,-83.2588,7.8894
-2585.9375,-150.5591,-64.5856,-72.0686,7.8768,-89.4644,39.6802,-114.3739,106.4943,-102.6516,92.4317,-3.0068,41.5902,45.6756,208.8354,-60.7676,144.8875,-45.1421,57.1904,-64.5086,61.8522
-2578.1250,-79.0758,-96.8351,5.9227,-23.9868,-12.1162,7.5016,-110.9765,74.3711,-99.1731,23.3282,111.9620,9.3252,13.0723,176.6424,16.8174,112.6501,-6.7806,23.9436,-27.1502,29.4082
-2570.3125,-30.3665,-48.8798,2.2294,-10.6625,-36.5475,-16.4877,-25.3770,50.4433,-86.4982,-37.5908,52.1331,22.2576,135.6924,115.6444,-44.4047,52.5993,5.7796,37.3053,-118.6001,42.1560
-2562.5000,-16.6462,36.0760,9.9919,74.6525,-57.9661,-0.4807,-83.7796,-7.4897,-143.8271,-21.5263,-5.7020,75.1867,41.3282,131.6487,-28.6342,31.5462,89.3420,17.3724,-106.0544,20.8990
-2554.6875,61.2948,79.2269,64.9015,118.1594,25.8343,-27.2753,-36.9779,-71.2258,-134.9575,-85.2801,4.6584,84.3030,50.1745,67.8534,18.3388,-32.3072,133.1050,-8.4379,-133.3114,-6.1684
-2546.8750,39.8062,57.9369,26.7109,62.2071,-36.8006,-88.5306,-25.6227,-95.4203,-86.5405,-72.4997,-20.4410,132.9783,98.5924,43.6113,29.8516,-20.6119,110.4182,34.9873,-119.0364,42.3143
-2539.0625,1.3913,-15.2874,17.2481,-10.7019,-1.3796,-90.7518,9.7693,-97.5824,58.9113,-74.6907,52.5176,94.7271,24.0617,42.4212,65.4146,-21.8691,36.7956,-3.9277,-17.7157,3.8500
-2531.2500,-30.3435,-46.8509,-28.8423,-42.9733,1.6925,-87.3403,122.8009,-57.1055,135.0044,-107.2465,-17.8748,98.1447,137.1929,8.8859,68.6270,-55.4802,-30.1708,0.9739,-85.7540,7.0378
-2523.4375,-151.1168,8.5386,-46.7359,-22.3045,-15.2886,-29.9854,69.7753,-36.6791,45.0461,-86.8563,-71.3347,82.5150,83.2821,29.3124,88.7920,-35.1418,24.8109,27.8444,5.1556,27.1771
-2515.6250,-36.9742,-18.1720,35.9224,57.2474,-5.3563,-56.7402,42.6557,-63.3559,17.9914,-113.5771,-23.9038,18.7811,20.2805,2.6402,97.8608,-24.9028,138.6954,2.9988,-22.0286,0.2114
-2507.8125,66.0364,14.9762,-8.6127,90.6332,-119.5666,-60.6534,1.3936,-67.1885,50.7882,-80.4649,-136.6350,88.9062,16.1555,-1.1829,57.7733,-28.8196,135.4272,31.5813,-60.3733,33.0962
-2500.0000,68.5104,17.5753,10.9684,93.4556,-79.3198,-56.1254,-68.4190,-25.5814,55.0363,-39.9169,-96.9175,92.4778,-90.5047,40.4500,62.1369,-24.2888,138.6168,-1.0718,-22.2679,0.4270
-2492.1875,40.6162,24.7817,-14.6734,65.8707,-35.4663,-86.0074,-24.6364,-18.3778,24.8812,4.2161,-125.5984,99.6492,-9.5544,10.6843,69.0931,-17.1575,74.4100,4.5305,-51.5743,7.3534
-2484.3750,-91.4040,-1.1587,-31.9453,40.1277,-26.7648,-40.0462,-16.0133,27.6716,-40.4356,13.1909,-152.4364,35.6731,36.2558,19.7733,40.8833,-8.1763,83.0637,21.2364,27.9682,16.1284
-2476.5625,-102.6994,21.6009,23.1406,28.0730,35.6519,-13.3905,-26.6983,17.4179,-14.0626,2.8471,-16.5691,-11.6067,24.7698,-27.4319,103.3665,-55.5055,106.4365,-28.0119,-19.7895,-31.4120
-2468.7500,-24.1664,65.1711,-29.8404,36.8056,-68.1095,-43.9375,-20.5765,23.9564,29.0990,83.2838,-9.9089,31.9163,68.1022,-57.8399,73.6377,-49.0463,8.6096,5.7886,-117.7627,11.8388
-2460.9375,20.0856,39.4497,-30.9568,46.2270,-96.1505,-34.7935,-85.7579,-3.8155,-36.0491,92.4059,36.4453,78.1396,4.1511,25.4546,82.6063,-2.8895,-17.5153,10.4483,-74.0387,20.7864
-2453.1250,88.1217,2.4832,0.7888,44.3790,-63.4133,-38.9124,-53.1885,29.1519,-149.4571,14.2596,32.5471,37.1091,73.9743,58.4975,4.3222,30.0110,-20.8880,47.4581,-76.5712,53.4807
-2445.3125,15.8386,-35.8283,-11.2797,-28.8349,-103.0211,-42.3907,-56.9763,24.7623,-117.2290,46.7445,28.2959,32.7361,69.4641,54.1963,-0.3305,62.5587,11.3955,79.6652,-9.4562,85.8293
-2437.5000,-12.6168,-28.3344,-19.5560,-22.2683,-57.8268,-70.0777,26.0298,-1.8336,75.7975,20.0113,38.8427,6.1637,-31.2401,27.6981,83.8186,-1.0916,-16.5144,17.5452,32.4644,21.9718
-2429.6875,14.8036,34.0163,-70.3134,5.1261,-103.7712,-78.9218,52.8892,-11.5843,102.6821,47.1152,-44.7770,107.4393,-4.0710,55.0465,36.8208,-10.8884,-60.5809,40.4298,-46.7764,48.9597
-2421.8750,-78.1190,47.0200,-55.4305,18.1549,-127.0623,-66.1196,-45.6024,1.3137,41.2205,59.8596,42.2398,120.3624,-101.2445,105.0526,49.4798,38.9640,-13.0005,52.9383,0.6360,61.5964
-2414.0625,-51.7766,3.2849,-9.5779,9.4150,-64.0872,-75.0734,-17.8356,-7.5462,69.0142,50.8381,70.5059,74.5341,-74.1554,22.3101,40.3855,-6.9447,13.8315,47.7172,27.2956,52.4756
-2406.2500,-53.0080,-69.0390,-15.1094,-61.9367,-101.7040,-76.6378,54.3355,-9.0065,140.1976,49.2081,-41.8449,-0.8884,-1.6424,-16.0356,1.6756,-8.4533,82.0686,51.8522,130.3484,50.7508
-2398.4375,50.4404,-106.7128,20.9735,-64.6578,-26.6583,-75.5701,92.1536,-6.8248,215.0365,14.2200,-39.5548,-72.6705,-73.4666,-50.7302,76.6198,-43.3114,78.9683,-54.7515,162.0631,-58.3354
-2390.6250,51.1679,-1.1376,1.8614,5.8466,9.6527,-1.2678,129.2295,-6.4021,142.1379,-22.5311,-113.0253,-35.2057,-36.0174,-50.1790,3.8172,-116.9281,43.1226,-49.9858,56.0207,-58.1803
-2382.8125,-131.1415,-6.6033,-27.2853,70.2862,-34.0804,100.9792,84.2540,22.9678,60.1808,-67.3429,-120.5541,-42.7918,-80.6040,16.3281,-41.0494,-87.5932,72.2303,-11.1333,120.9234,-29.0776
-2375.0000,-109.5773,-91.2105,28.8546,55.5640,61.0539,86.0746,143.1232,-28.8155,82.0651,-155.3195,-61.2341,-94.5293,-58.3306,1.6868,17.9273,-102.4109,93.1908,-23.6768,140.6673,-44.1315
-2367.1875,-117.8371,-99.6566,23.7413,12.9749,51.3539,76.3091,133.1469,-38.4613,109.0930,-92.1703,-107.7826,-104.1122,6.1244,-7.8045,-28.9544,-112.0867,120.3069,0.9856,96.5549,-17.0358
-2359.3750,-91.8789,-108.8995,73.4547,-32.4394,42.8774,67.7286,50.3752,26.0838,137.3219,-26.8419,-5.1423,-185.5065,-113.2085,-16.0885,-0.6331,-83.5671,179.6430,-45.9906,156.6507,-62.7446
-2351.5625,51.4582,-71.7893,86.0089,4.4744,7.7703,32.4826,51.9618,27.9658,138.9057,-25.1884,32.8401,-147.5550,-74.1678,-14.0270,-72.9628,-81.7025,146.3417,-51.7019,17.0897,-61.1081
-2343.7500,39.5234,-47.9658,32.1432,28.0727,-78.6302,19.9318,-34.7597,15.5371,51.1738,-1.8456,20.5133,-86.8972,-50.4127,9.7363,24.3972,-58.1361,99.7449,-34.7108,40.2214,-37.7696
-2335.9375,23.3682,-99.3847,49.2270,11.4033,14.7315,-33.8798,-14.7377,34.8456,71.1856,-18.7654,39.9407,-66.4854,6.1010,-6.7467,117.5027,-74.8240,82.9079,-53.4381,-11.8992,-54.6849
-2328.1250,-26.8085,-115.8505,31.6080,-4.3424,33.0501,-53.7651,39.2305,16.0977,15.1437,-38.7531,-15.6871,-49.1209,97.5872,10.7185,24.5485,-57.5560,66.0334,3.1948,-28.0692,-0.6438
-2320.3125,22.4877,-171.8652,104.4474,-61.6590,47.8316,-75.2217,17.6550,-5.2198,-6.4382,-97.3178,73.1397,-107.3096,39.5286,-10.3736,40.0519,-41.8414,150.6234,-16.2577,90.2095,-22.1554
-2312.5000,142.2207,-158.4608,80.9906,-47.5826,63.0253,-97.2847,105.4851,-27.1538,81.3661,-45.5140,-21.6413,-129.0907,54.8897,-69.0697,53.9432,-26.7464,93.6197,-40.6532,32.8719,-44.2667
-2304.6875,51.4271,-108.5968,8.4881,-33.0725,-32.3212,-119.9022,82.7573,60.3477,132.6048,78.7179,-80.9864,-77.4242,-40.2816,-54.3145,68.2778,24.7961,72.0776,-26.6433,81.9884,-29.9296
-2296.8750,35.5532,-88.8340,25.6655,-14.6937,-11.7455,-136.6236,102.9380,43.7429,262.7593,61.8323,13.5588,-130.8673,-93.5309,-70.6651,125.5100,-28.7706,55.4440,-44.3402,101.0129,-46.7051
-2289.0625,33.3426,-57.4179,4.0793,-18.6807,-55.5010,-105.6980,95.7821,37.7788,182.5652,55.5880,-30.2704,-63.6659,-26.1039,-40.3633,82.3828,-72.6922,52.4699,21.2105,26.6856,20.1618
-2281.2500,-25.0993,-116.2394,-10.4268,-42.9352,-117.4781,-59.0276,-3.6201,48.5611,119.1051,66.0716,17.6395,-52.7180,-88.9140,7.6890,129.0059,49.1255,63.2646,29.0513,72.1124,30.7729
-2273.4375,48.5928,-146.9510,-12.0562,-109.1060,-78.3378,-92.2654,36.0819,51.4324,195.7295,68.6332,20.6389,-85.6695,-11.6034,-26.1542,131.7260,89.0367,-3.8319,26.4552,39.6255,33.4904
-2265.6250,35.5624,-161.4014,-25.7794,-124.0457,-130.9445,-109.2717,18.0239,33.5401,177.6009,50.4322,39.8864,-65.3733,7.9674,-42.7418,114.6944,108.2081,-18.6685,81.3731,95.3836,89.4616
-2257.8125,68.7207,-93.6975,-19.6229,-56.8611,-131.3936,-74.1416,-56.8893,32.7850,103.6319,86.3617,76.2868,-30.9322,-102.2932,-44.1769,186.8116,107.5294,-21.3521,40.6560,22.2873,51.5799
-2250.0000,16.2513,65.3590,-69.4637,65.6423,-78.4837,-21.6732,-76.4480,11.3693,-27.9832,64.6277,-53.9772,132.8592,-85.1761,8.7346,92.2795,49.2019,-72.6844,95.3333,-136.4573,104.0547
-2242.1875,-73.8093,113.8120,-51.2094,114.5123,-65.1593,-8.8113,-137.5967,24.3477,-51.1973,40.2855,-77.8620,109.0483,-108.6453,59.0515,-4.8506,25.2772,9.3899,115.5739,-52.7843,116.9337
-2234.3750,-10.7006,36.4229,-18.4901,36.5137,40.3252,-50.8017,-69.5855,20.4786,16.7362,-0.9147,-46.6252,31.3850,-39.9550,55.5201,-9.8324,21.5093,-33.3828,36.8076,-26.9622,38.9633
-2226.5625,-19.1292,28.4888,-50.8417,-8.0488,30.2595,12.6566,-43.1250,47.0589,-66.8817,-11.6718,-55.9543,21.1701,24.1957,45.4451,-20.3726,85.1916,-110.6982,62.8226,-70.6895,65.4444
-2218.7500,61.8574,72.9554,9.8846,-68.2329,76.6159,-15.4976,-70.2536,19.0269,-94.1011,-39.0434,63.1274,30.3337,-3.2402,54.7645,25.4898,-16.7381,-101.6029,68.2022,7.9910,74.3231
-2210.9375,182.2581,157.8221,18.7085,-54.0390,54.3820,-110.2612,-91.9760,-39.6102,-116.9115,-61.0302,40.5996,191.8943,48.7518,32.4735,-33.2500,-38.2766,-87.1052,73.1372,-81.9322,88.6022
-2203.1250,220.3292,195.3494,41.1832,-19.2141,-16.1891,-144.3804,-126.0465,-73.6029,-225.0750,-95.3824,80.7041,269.1049,15.4013,72.8327,-103.3464,0.8292,-16.9447,36.7602,-82.1989,54.5234
-2195.3125,246.0292,185.4890,69.6709,-29.8063,49.8616,-116.8998,-99.5138,-83.0034,-196.6521,-105.1484,108.3964,260.9134,80.6710,-46.2104,-112.8524,-44.4653,-26.1846,-6.9090,-92.8758,9.0421
-2187.5000,228.9308,131.8360,14.7351,-118.2200,28.1130,-138.2167,-83.7754,-67.2057,-72.0367,-53.7140,13.2713,238.9180,133.1550,-67.0456,-61.1652,-65.5537,-80.2224,41.7874,-76.3492,60.7686
-2179.6875,296.0410,128.3796,33.6216,-192.4588,61.5767,-179.3379,-87.8384,-107.2051,33.7954,-58.0859,46.3370,235.1073,56.8421,-70.6803,44.7272,-33.4432,-84.0508,30.7779,-45.6041,56.6920
-2171.8750,357.4767,154.2297,37.0802,-167.4160,50.3514,-191.1644,-98.5883,-155.9062,21.9393,-106.1690,-2.3113,297.5879,155.8385,-81.0270,32.9084,-44.0385,-58.5669,51.9372,-125.5636,81.9113
-2164.0625,263.8352,235.9878,31.6575,-52.4786,-47.9693,-142.0943,-160.4428,-143.7152,-112.0264,-168.3730,9.9317,345.9610,131.7376,-33.4728,-65.0198,-68.7303,22.8380,34.1834,-80.6108,57.0282
-2156.2500,349.0253,320.5557,124.6999,-3.7594,81.5240,-125.2289,-143.4878,-198.7336,-168.1997,-297.7916,101.9684,328.1320,114.4528,-88.1233,-84.1557,-124.6394,71.0550,-55.1744,-137.8551,-35.0589
-2148.4375,393.0779,328.9723,109.2803,-67.2155,124.8693,-191.5185,-100.6737,-229.8963,-125.5153,-255.3555,-2.1554,261.1354,232.0330,-153.9136,-78.4494,-117.6932,44.1080,-15.3671,-164.2426,7.7036
-2140.6250,320.2201,219.4800,106.2941,-140.5964,121.3280,-195.7051,-67.7466,-196.9608,-19.7232,-222.8104,-6.1854,146.2058,154.7205,-121.6015,28.3682,-85.6298,75.2576,-15.3913,-28.5197,3.5620
-2132.8125,303.2799,167.8963,111.7743,-159.0919,176.6944,-177.9979,-12.9156,-142.1249,-39.0403,-242.3734,11.6770,127.1648,173.3168,-67.3964,-27.9156,-139.6663,23.3178,7.0973,-46.9059,21.3266
-2125.0000,225.3181,159.2862,46.6525,-168.6442,94.0065,-114.3502,-59.1462,-79.3538,-121.4127,-177.9940,-34.5146,192.0739,164.8602,-2.2523,-110.2586,-76.7564,-20.6542,-0.7621,14.6604,12.0477
-2117.1875,276.3768,138.6811,43.0143,-224.2099,151.3227,-95.7109,-76.3682,-96.5887,-102.7664,-160.6285,-14.7131,210.9723,148.4044,53.8853,-54.6023,-19.8608,-76.6153,-98.6636,28.2369,-79.2355
-2109.3750,304.6327,96.2772,9.6974,-233.5924,141.8460,-105.8718,-12.3741,-106.6258,-38.9095,-170.0731,-98.7299,165.0674,212.1643,8.2280,-27.7468,7.2358,-120.3771,-71.8610,-14.9836,-52.3192
-2101.5625,214.2958,75.2811,34.7100,-254.5884,156.7791,-54.6377,2.0237,-92.2659,-61.6581,-192.1281,-47.3542,68.5581,154.3269,22.9785,59.5069,-52.2673,-69.7331,-50.8515,34.2090,-38.0040
-2093.7500,215.1227,40.4429,34.7561,-290.4508,193.8752,-18.2544,74.5866,-92.7625,11.7417,-193.0431,-47.8431,-41.8056,264.6533,-14.1285,58.9011,-52.6275,-105.9258,-51.2386,-36.4459,-38.5398
-2085.9375,107.7619,-31.5919,9.7700,-293.5305,152.7792,13.9314,69.9561,-97.4585,6.9390,-125.1608,-89.5400,-119.3864,334.7957,18.5556,18.0851,16.8120,-73.3102,-16.8933,-39.2883,-6.2815
-2078.1250,118.9175,-57.1260,115.9529,-214.1255,239.1921,25.6135,45.8335,-84.6487,-91.3610,-186.7754,-39.7471,-107.4791,237.4393,-5.2563,-43.2281,-81.2477,77.8038,-65.0148,39.3722,-67.5276
-2070.3125,194.5867,17.8457,156.3940,-141.2378,247.0985,32.7966,16.2156,-114.3401,-195.1501,-217.8902,-69.4753,-27.0640,318.5880,-71.5598,-221.0382,-110.8023,151.4135,-129.0833,8.5260,-134.2621
-2062.5000,251.9520,39.5212,193.0027,-120.6649,271.7123,-16.3239,-32.7030,-126.3414,-244.2374,-230.3138,-8.5064,-1.9505,270.4399,-47.1601,-196.1350,-122.6489,173.7356,-180.9172,29.3867,-183.2904
-2054.6875,319.9225,36.8026,159.1161,-195.5077,377.9430,-58.8534,35.9879,-94.7582,-138.7245,-162.1669,-13.9345,-44.2329,229.9118,-15.1631,-90.6359,-164.9048,-5.3277,-155.8582,-45.1544,-151.7141
-2046.8750,186.9961,43.1963,21.6256,-259.2591,232.2736,-20.2844,73.7877,-57.0870,-27.1084,-87.9345,-86.2714,-5.4200,231.4949,-50.0735,-53.0496,-53.0709,-140.2734,-48.5714,-38.5796,-40.0341
-2039.0625,156.9433,12.4432,50.1087,-256.1703,200.4571,-53.8714,40.4453,-53.5709,49.3718,-84.8558,28.2359,-1.7666,162.9258,-120.1463,-12.6189,-12.3981,-101.3534,-46.1106,34.8600,-36.5169
-2031.2500,222.3040,42.1069,34.8771,-227.6846,156.0410,-62.0542,33.5091,-61.6498,78.2487,-56.3665,-16.8759,-9.7169,155.7562,-126.8297,16.1926,-57.3341,-107.0267,-20.1300,-41.2983,-7.6063
-2023.4375,170.0717,-10.8187,42.1303,-211.8000,99.0302,-82.8313,12.9687,-45.3261,21.5119,-40.4800,-37.5972,-67.2773,62.9791,-37.1145,-4.6021,33.1341,-19.2960,1.0797,44.9542,8.7028
-2015.6250,162.7953,-89.7915,63.9225,-220.9812,166.9855,-52.6646,42.3888,-15.0616,14.7267,-10.6539,-81.3706,-110.8985,93.1589,-43.4591,-48.4418,26.5559,7.3955,-36.1567,71.1636,-35.0361
-2007.8125,28.0219,-84.2675,-29.2116,-216.6726,135.4460,25.9938,121.3250,26.6911,19.4445,30.6595,-222.6482,-69.0217,172.8543,-1.3048,-117.7905,31.4714,-57.4082,-26.2549,40.8853,-30.2679
-2000.0000,-52.9449,-130.9389,6.1814,-228.5766,235.7202,51.4608,148.0665,15.2416,81.9587,18.7659,-161.1287,-153.3499,89.3386,24.6495,-17.3393,-15.8184,-34.4138,-67.9515,134.4127,-77.6991
-1992.1875,66.7902,-116.9062,24.3118,-286.7849,247.6993,26.6403,196.5129,-9.5067,93.1651,-6.4270,-112.9204,-176.9837,175.5258,0.2993,-43.1965,-4.4062,-91.7181,-26.7335,41.6348,-29.4225
-1984.3750,74.6588,-144.7216,50.2640,-245.8460,140.8222,-8.0200,125.1074,-44.0985,-14.4815,-77.4677,-36.5755,-174.4757,141.8552,77.1114,-40.9107,35.1711,-14.8624,47.7585,48.0212,47.0094
-1976.5625,50.6248,-99.4285,52.1415,-166.8131,153.0503,40.4185,63.8118,-69.5951,-40.0232,-103.4136,-25.1358,-162.8837,117.2874,89.0199,7.4759,-27.1557,-3.8939,22.5110,-12.4822,21.5353
-1968.7500,-46.8082,-21.5262,-42.9831,-90.1849,50.8795,47.4644,34.1265,-62.4998,-32.9594,-23.7675,-91.1042,-82.6993,162.3264,96.5139,-22.5282,17.1059,-67.3121,25.3881,-76.3820,28.6594
-1960.9375,-100.2779,-4.6708,-3.4993,-40.6092,68.6611,64.4616,-22.6045,-82.4607,-52.9419,-44.1774,-38.1170,-66.5786,33.3077,149.9489,-42.5792,71.3157,19.2309,9.1306,9.6700,8.7338
-1953.1250,-19.6803,5.2352,41.6534,4.0082,78.4916,36.5117,60.7155,-109.3728,-80.8740,-108.5415,-29.0808,-57.4091,6.3471,122.4335,-106.5993,6.5748,63.8286,23.4122,-16.2288,17.8633
-1945.3125,-50.0873,8.1388,14.8410,41.6193,-30.6821,74.5661,25.0380,-107.2767,-114.8199,-70.8965,-64.0440,-55.2435,-28.6205,160.9268,-141.6332,7.8384,102.4281,63.0486,-14.1086,55.9951
-1937.5000,-9.3464,14.2052,70.4981,80.3785,13.2936,80.7755,-42.4872,-66.0299,-109.6138,-66.0916,15.1359,-85.9395,-58.4413,94.5633,-99.5113,-22.7510,142.1832,33.5308,-8.8381,25.2757
-1929.6875,4.4835,62.3870,25.9760,92.2470,-10.6369,56.0776,7.0966,-89.6832,-61.2877,-17.1855,-46.5996,-73.5406,28.8364,-3.7120,-87.2847,-10.2445,85.0427,43.0492,-32.4640,37.6658
-1921.8750,-13.2017,44.0768,16.9139,72.6185,-31.0736,34.8772,-13.8103,-73.8472,-8.4524,-38.7923,6.1696,-21.6499,-100.3949,49.5055,1.4513,5.7704,66.4177,55.6590,-16.5860,53.5623
-1914.0625,-39.7408,85.9257,-35.7783,78.1412,-25.3655,38.8298,27.4437,-68.8665,32.5281,-70.2562,-25.9162,-16.6121,-95.4767,53.8709,79.3287,9.9299,-33.0480,95.0822,-45.5527,94.6127
-1906.2500,-145.3785,49.6786,-143.3673,40.5641,-100.7649,35.6881,24.5989,1.0152,103.4060,35.1944,-175.1084,-18.6790,-23.6691,88.1323,76.1001,80.9898,-103.6135,127.9347,-11.6009,128.5653
-1898.4375,-101.1692,-12.7259,-95.4570,-23.1729,-52.3101,48.3986,37.6173,12.7558,152.1431,84.5104,-126.4484,-80.9118,-12.0260,101.2400,51.7270,93.9082,-61.3360,29.8383,66.2198,30.3668
-1890.6250,-7.4731,-23.6326,-87.0961,-35.4104,-64.3697,34.6246,61.1427,-0.9813,138.3835,33.3434,-140.2924,-57.6555,49.1147,87.8450,37.8456,80.3285,-72.5681,50.0300,-16.4538,53.6760
-1882.8125,-54.9800,-1.7270,-73.3653,-14.8401,-117.6436,16.6588,-29.5364,18.0887,84.4153,51.9866,-84.3323,-74.6058,-76.9629,107.2552,93.7641,99.5472,-15.9917,106.8613,39.6821,109.7854
-1875.0000,-51.9942,0.6874,-38.9890,-13.7722,-41.4166,-17.8060,-27.7082,-16.3453,85.9586,53.1368,-45.8673,-110.0624,-74.5393,35.1517,95.1827,101.2608,-13.9179,109.7831,77.3207,111.3955
-1867.1875,-122.4247,-70.2979,-76.9665,-16.1031,-79.5980,16.3370,6.7265,17.8237,47.0970,124.8973,-121.8059,-111.9225,-75.5201,107.6487,19.1931,99.5839,-15.2440,113.6791,110.5573,109.6091
-1859.3750,-185.9110,-99.3400,-42.6367,-10.4818,4.1739,100.4469,-18.8860,65.9468,-15.8188,134.6117,-147.7814,-174.8585,-174.5668,118.0933,30.1499,146.8676,61.3801,23.2234,151.7571,9.7693
-1851.5625,-164.2475,-78.2405,-32.8915,-25.7014,27.0893,196.7255,40.6565,87.2257,-67.5828,82.4860,-199.6030,-116.6684,-115.4701,67.6911,-21.7486,95.3023,82.1495,13.3483,66.1149,-4.9180
-1843.7500,-192.4963,-1.0428,-13.8434,-20.8118,-3.8953,165.1035,9.3034,56.6064,-62.2381,51.4622,-121.3166,-75.3911,-109.2930,36.3837,-53.5373,100.8333,123.0281,15.4346,71.5876,0.5006
-1835.9375,-113.5629,7.3740,9.9954,-13.7095,79.3150,100.6877,55.1573,29.1885,21.3107,-13.3634,-75.8348,-102.9239,-62.9253,9.2739,-7.1208,0.5598,61.1150,-14.4863,44.2600,-26.8758
-1828.1250,-165.1996,-10.7494,-50.1292,-33.1415,21.9608,115.7313,107.4632,7.2168,73.3089,1.2698,-132.9124,-123.0140,-10.1186,-12.3854,44.7381,15.7500,8.6584,36.3064,26.3880,25.2014
-1820.3125,-159.8923,-110.9277,-19.2271,-28.6254,28.5542,121.7353,76.7219,86.2002,78.2613,43.8594,-55.0290,-191.1611,-40.3806,-6.0973,50.5483,-15.1105,13.1509,9.4683,100.4759,-5.7748
-1812.5000,-161.0997,-42.6115,-23.0028,2.3963,27.6437,120.2527,149.4939,84.6801,39.7131,114.9470,-56.6434,-192.8003,32.8605,-44.3205,11.8549,-53.4806,10.1416,-29.5490,-7.9304,-44.2439
-1804.6875,-232.8777,-8.8450,-86.8474,34.8733,-47.8221,155.2287,110.7204,156.6134,37.6095,222.4895,-95.8022,-158.9906,-79.4584,-9.1025,9.6034,54.6043,-26.4134,-32.0656,-9.8634,-46.2567
-1796.8750,-186.2704,1.3168,-69.1775,43.7587,1.1095,129.6167,48.3545,130.9574,48.9152,196.4407,-47.5596,-148.8018,-104.3923,2.5101,56.7585,103.0898,-51.5652,-62.9522,-0.3813,-71.8716
-1789.0625,-201.5909,21.5796,-75.5579,62.7557,-54.8787,147.1235,66.0985,111.4109,30.3327,140.5151,-104.2323,-94.5162,-49.2394,-16.7804,1.0151,83.6745,3.3809,-5.7494,-15.7968,-17.3862
-1781.2500,-279.3884,13.3944,-40.1352,88.3123,-63.3164,138.1852,21.4001,65.4183,21.3060,94.1613,-39.3489,-103.6898,-130.5561,11.4699,28.8251,74.8102,99.8834,-12.8657,10.3457,-26.3526
-1773.4375,-215.2011,112.2123,-32.6935,186.8917,-69.7678,168.2609,50.7030,22.4273,-59.7248,13.8154,-46.4619,-36.8715,-136.8837,4.7124,-15.3600,-5.0556,93.3935,-17.6471,-66.5170,-33.3118
-1765.6250,-215.6843,147.3746,-35.3444,219.8322,-143.8885,203.6992,13.3521,20.7904,-98.4107,-25.1736,-48.2261,-38.7044,-173.8779,3.3151,-91.1867,30.4375,128.2563,-15.3298,36.9824,-34.9112
-1757.8125,-149.0424,108.6848,20.0091,179.9351,-70.8706,165.2971,49.1553,-17.6839,11.0567,-27.0009,61.1632,-76.3918,-211.7345,-33.9215,-54.8663,-43.9100,124.2605,-91.4679,103.6440,-109.3578
-1750.0000,-130.8302,161.5923,-22.0012,196.6466,-18.2649,107.5042,101.5699,-1.5538,26.1349,-11.2050,-33.8441,48.5199,-195.0045,-55.5636,-113.9529,-28.6525,35.8486,-41.1543,14.9213,-57.1983
-1742.1875,-156.3778,170.7415,-44.8598,169.6156,-85.4118,76.9617,35.2405,4.8332,-3.5315,-5.1487,-27.5836,91.6636,-262.0473,-11.9783,-33.7783,14.8587,44.6868,-1.3781,93.4625,-13.7879
-1734.3750,-81.8880,138.9446,-17.1181,137.6553,-44.5136,80.4788,74.9689,8.2712,36.8595,-2.0375,12.7269,58.8489,-184.0578,-82.3563,-30.5441,-55.5862,13.5768,1.2033,62.0507,-10.3250
-1726.5625,-182.5394,108.0485,-67.6344,104.6177,-149.7349,120.9032,78.5945,48.6157,40.1555,73.9957,-21.0686,24.9307,-107.1965,-150.8306,-64.3988,-15.1205,17.3696,6.6591,100.5522,-6.9545
-1718.7500,-227.5122,27.8517,-33.8505,94.2943,-86.2693,112.0338,69.9238,112.6695,104.1591,175.7500,42.8442,-95.2997,-152.6571,-196.6102,0.4486,49.0509,41.8673,-37.6382,90.7695,-52.8813
-1710.9375,-176.3500,8.7999,-73.8453,108.1319,-144.6680,52.3280,47.4177,125.8782,117.3158,261.6675,56.9111,-82.3854,-101.9753,-220.2494,13.4400,99.3732,-48.4880,3.7403,0.1444,-2.6485
-1703.1250,-188.9642,30.9893,-87.7062,129.2314,-196.8266,36.8785,-4.8351,147.3424,101.7304,246.8490,151.2369,-97.2331,-190.0659,-161.6441,71.6877,120.9512,-96.5924,21.0579,-13.2152,18.8407
-1695.3125,-78.4041,35.3746,-29.8909,97.5482,-155.7981,-33.3518,-0.8835,78.0132,69.3541,176.2458,191.7694,-93.8877,-111.9667,-157.8389,75.1394,51.7322,-57.5099,20.7323,-9.3772,22.5337
-1687.5000,-143.5213,40.1083,-45.4261,102.2354,-189.4414,-30.2099,2.4099,118.0438,-1.6757,179.0112,121.6576,-90.1959,-71.5404,-117.6809,-33.0555,91.8692,-17.0729,66.3823,30.8113,62.5835
-1679.6875,-165.6071,-17.1194,2.9160,78.9956,-136.0470,22.9947,-18.2492,133.1326,-22.6530,194.8439,136.6002,-112.4593,-166.0965,-138.4716,-54.1945,144.0646,66.4240,14.9493,113.0595,4.6846
-1671.8750,-56.0145,-12.6501,18.2685,117.4765,-95.9714,63.8975,22.7942,99.9232,-18.9186,161.3878,103.2444,-36.0189,-124.9612,-245.5675,-87.6297,37.9657,35.6245,20.7432,47.0148,8.4921
-1664.0625,-51.5562,-43.2890,47.9057,156.8776,-165.0122,67.7057,-10.2571,67.6187,-89.2773,90.8344,217.8090,-32.6794,-120.9432,-167.7657,-84.1582,-32.2398,74.7273,24.3143,85.8913,12.2050
-1656.2500,-67.3323,-24.1287,43.3845,175.0962,-108.2655,51.3272,-26.4953,51.1195,-105.8286,74.0997,238.1750,-86.5403,-101.1308,-111.1695,-63.8833,-11.6477,23.6216,5.8275,69.5667,-4.2762
-1648.4375,-143.4948,39.6786,-38.4763,166.9882,-191.8869,40.6106,-37.0838,114.2780,-114.7281,137.0326,80.1987,-95.7572,-73.6913,-83.9229,-37.9526,51.6021,16.1667,69.0961,62.9042,58.8967
-1640.6250,-210.4744,7.6763,-81.9056,205.0978,-260.3176,82.1070,-69.4675,191.6418,-38.4239,178.1767,47.4317,-165.7900,-217.0696,-44.4820,77.1897,129.0571,19.9100,39.2692,100.4512,26.2713
-1632.8125,-195.2405,-12.0897,-90.6757,219.4752,-244.5160,134.8698,-15.5931,208.2722,15.1373,157.5976,63.9083,-113.5812,-163.2163,-27.7859,19.5854,35.7707,-36.1101,19.1828,10.2575,5.9050
-1625.0000,-180.4501,-67.2769,-43.8260,127.4675,-193.1276,149.2496,-38.1176,185.5157,-44.6896,171.6459,150.9913,-99.7797,-148.7883,-13.4876,-3.4065,13.0937,-21.5358,30.3736,-10.3156,20.1408
-1617.1875,-69.0442,-129.8258,43.1503,63.1270,-39.1003,47.2945,-29.9852,82.4211,0.1476,142.3663,195.7291,-129.3293,-140.7259,-79.5427,41.2587,21.0668,20.6775,-3.3089,-4.2346,-8.9692
-1609.3750,-35.0783,-130.7886,27.5344,96.4025,-77.4900,8.9528,42.7524,44.9364,71.5934,103.7071,47.0740,-131.2893,-70.0807,-117.0028,39.5334,19.6459,89.4929,-1.9643,-5.5366,-10.4764
-1601.5625,-107.2866,-98.9105,17.6112,164.5494,-115.0335,8.4683,41.3464,43.3095,107.8994,102.9165,9.2819,-133.4076,-179.6049,-81.6238,74.6657,-17.9287,158.1613,-33.2651,98.0184,-48.1369
-1593.7500,-139.5248,-62.0326,4.2206,200.7199,-76.5946,9.9927,42.9448,81.6846,72.2137,141.1386,46.4967,-95.5245,-178.1430,-43.2500,2.8001,20.5027,88.8234,-33.1805,28.5715,-46.7911
-1585.9375,-157.8951,-79.2572,-6.9897,147.8197,-170.2791,-11.5721,-14.5582,133.9637,14.4309,156.2681,135.6358,-43.7381,-199.8162,9.0247,-56.1535,108.8381,71.3811,13.8582,46.0319,5.4629
-1578.1250,-18.8348,-115.0365,29.6172,75.3935,-133.5349,-84.6819,-13.6106,134.6953,88.1032,156.8649,210.2359,-80.4999,-236.0568,9.7484,18.3496,72.6296,35.3790,-29.0237,79.9407,-30.8227
-1570.3125,17.4939,-112.5329,-14.4517,76.2833,-207.5127,-48.4836,22.6328,133.7402,87.0799,155.7901,135.1463,-81.9724,-163.0115,45.7742,17.1591,35.7343,1.6696,5.3477,11.1580,5.2011
-1562.5000,-9.8106,-104.6478,-12.1310,118.5919,-237.0942,-77.8783,-43.7174,141.1897,94.4643,200.1351,142.4698,-75.0557,-229.5815,90.1975,24.3858,43.2434,44.3594,12.4000,53.7789,12.6258
-1554.6875,34.4482,-61.1704,22.6286,163.5269,-154.0910,-104.6660,-71.4651,77.2438,67.4525,135.0921,151.3990,7.4618,-183.5549,25.2106,-3.7777,52.3493,53.6517,19.1136,-7.0040,21.6591
-1546.8750,-34.9238,-26.3021,-57.9396,161.8836,-193.7003,-70.0477,-72.8151,74.7058,101.8518,132.4684,38.7368,78.3755,-149.1560,-14.3794,-6.5242,49.8629,-17.6584,55.1050,62.6269,56.0925
-1539.0625,-96.6722,-87.7963,-71.9958,135.9092,-108.6711,-21.7688,-24.5089,85.8304,149.9132,144.5264,50.7303,52.9291,-174.1219,-2.3254,115.3896,25.0311,-79.3314,-4.2705,105.9109,-5.8231
-1531.2500,-155.2203,-40.0507,-101.0959,112.2102,-96.4085,-9.2230,25.0483,98.2199,162.2237,82.8610,62.9824,100.7332,-52.8539,46.9791,127.5590,-36.5434,-135.7682,4.8912,13.4508,6.5188
-1523.4375,-190.8551,-74.3676,-59.9539,111.4885,-135.2065,-48.7163,-51.4455,59.5648,86.4935,81.1587,133.1989,98.4860,-90.6651,118.2325,88.6903,34.8338,-32.2558,36.6508,12.9555,40.8127
-1515.6250,5.6298,-53.5445,17.2268,132.9431,-148.8741,-62.0462,-100.7797,-27.9396,-1.0744,-6.3852,156.5671,84.3870,-104.3369,104.6338,37.9749,21.3578,60.4083,20.1738,-36.3906,27.2653
-1507.8125,66.5794,-27.2368,24.0351,229.9264,-197.0581,-35.8717,-110.6172,-38.9406,-85.1387,-17.4099,109.4440,109.7853,-78.5281,56.5319,-83.2261,-26.6068,86.5726,51.7943,-45.2244,53.2215
-1500.0000,48.3020,-11.1401,56.8802,280.7319,-104.4495,-52.8878,-128.6529,-93.1368,-66.3979,-34.6142,202.1307,90.9863,-96.9371,2.2246,9.3850,-80.7666,67.5271,-2.9510,-28.2594,-1.0210
-1492.1875,7.6388,19.5937,15.3989,276.2081,-38.2119,-22.2391,-25.0389,-98.6725,-73.0116,-114.1424,158.4752,84.8381,-30.7117,-4.4249,76.6524,-122.2697,-42.8798,29.5362,-103.6400,29.3973
-1484.3750,-96.7030,-48.3431,-43.4085,136.0514,-38.6446,-23.2293,-26.0787,-26.8435,-37.2673,-42.2980,47.1895,83.0338,4.8332,68.2801,38.2848,-50.4156,-75.9443,66.8277,38.3448,65.1690
-1476.5625,-96.6318,-84.8520,-44.8402,100.3605,-36.6411,-19.7603,14.3378,13.4485,75.9490,35.0213,50.3605,11.6763,-29.1801,71.4344,41.3772,-85.1059,-77.5715,-2.7204,72.7789,-5.6033
-1468.7500,-102.1594,-54.9302,-31.6790,95.1384,-79.2056,12.1634,9.2061,45.2030,70.6252,29.8148,44.9915,78.7652,-71.7636,66.0374,-38.0630,-126.3411,-11.7509,-5.7769,32.6761,-10.9202
-1460.9375,-12.5140,-33.8251,29.6658,151.1417,-55.5809,35.2908,-40.7245,-4.8348,20.5107,-20.1834,104.8355,102.0542,-158.1637,51.8386,-88.2901,-176.3756,43.2703,-53.1635,88.7744,-61.0363
-1453.1250,70.8508,15.0206,62.3481,199.9241,69.7757,51.1758,11.0958,-63.1149,-73.8519,-78.4080,46.4311,117.0974,-69.8260,-42.6157,-219.7653,-124.6554,22.0347,-71.1607,-3.3723,-82.3973
-1445.3125,18.7827,-1.5496,34.3066,183.3291,50.7197,69.6694,29.5111,-44.7856,-92.5993,-97.0113,-45.3624,97.7391,-51.9103,-98.4698,-201.6210,-32.3328,40.3937,-48.2821,50.0908,-64.1595
-1437.5000,29.8310,-59.9832,67.1789,124.9092,139.8004,85.3245,45.0817,-66.2981,-4.1902,-81.4443,43.0038,38.5363,-73.8556,-83.1785,-76.3159,-90.8626,16.8924,-109.9620,62.6977,-122.7698
-1429.6875,34.4357,-19.8336,44.3581,130.1152,105.4611,88.5910,48.2506,-26.2019,-111.1737,-5.2605,-27.0235,77.9359,-34.2225,29.7128,-147.3991,-124.7864,21.9892,-70.5068,-3.0860,-82.7737
-1421.8750,-10.3819,5.8980,49.4929,155.9419,93.7163,151.4641,-72.9832,-0.5056,-231.5466,-15.4645,-1.4374,139.9337,-120.0073,92.2033,-158.8632,-99.1049,47.6865,-43.6451,22.7312,-57.1759
-1414.0625,3.8733,90.7099,46.0743,170.8841,108.0572,129.4454,-58.1177,-59.7033,-216.8144,-111.5467,13.2523,227.0360,-68.7038,69.7914,-144.2216,-121.3162,27.4756,-34.2094,-67.3522,-42.4666
-1406.2500,1.9882,160.3924,6.8211,205.7431,32.2858,54.3328,-97.3547,-98.9891,-219.1673,-149.7051,10.8555,298.0373,-34.5211,68.2792,-181.6603,-86.6260,-7.8421,-6.3906,-103.5236,-7.8554
-1398.4375,67.6644,120.6538,67.1967,201.2199,65.1074,14.8270,-99.9775,-101.6698,-221.9000,-189.2466,118.0653,257.6354,-37.7383,28.3564,-112.4856,-126.3407,22.4309,-47.4369,-108.0896,-47.6448
-1390.6250,99.2981,82.8972,40.0382,163.7210,23.9064,47.3269,-30.5989,-106.3423,-189.6212,-192.7681,76.2810,179.2378,68.0326,-13.5697,-80.2981,-94.0417,-15.3060,-16.8785,-179.6509,-15.4278
-1382.8125,-20.8906,-1.6727,-11.7515,79.4436,7.8958,69.0261,-46.0250,-47.8054,-96.1295,-99.0684,61.7078,53.0461,51.9782,44.6985,15.1078,1.4606,-64.8513,3.7460,-89.0102,5.9932
-1375.0000,-41.1004,-90.2552,-64.9578,-45.8153,22.8655,10.7213,-30.4552,78.7377,30.3685,64.6490,3.1423,30.8691,29.9153,96.9659,67.5291,16.9594,-154.4076,14.8622,-73.3737,21.4266
-1367.1875,-151.4470,-130.9556,-149.4602,-155.1572,-21.2811,4.3150,0.0097,145.1898,60.7758,168.2871,-76.5087,97.5985,59.7357,127.1392,97.8730,10.3654,-229.0723,43.8360,-7.8280,51.7637
-1359.3750,-68.0673,-151.9297,-77.7992,-174.7344,70.3198,-51.3410,18.2332,163.3950,77.9484,112.6898,14.5988,77.0748,40.2995,71.0589,114.9836,-45.4696,-214.9975,-10.3304,42.4673,-4.1473
-1351.5625,16.1243,-101.0817,-55.7740,-125.4478,84.7603,-73.1436,70.3108,104.4565,92.9856,54.9640,-7.4436,91.4020,164.7106,-62.1716,92.9567,-67.4460,-200.0834,3.5595,-48.3807,10.7970
-1343.7500,-48.8669,-61.4140,-61.2152,-49.2961,53.0539,-67.0916,2.2400,74.3720,25.8892,61.1033,-1.6266,60.5744,132.9556,-19.5505,135.7982,-61.5702,-159.3248,10.8170,-6.3712,16.5905
-1335.9375,-38.0389,-14.9176,-49.0908,-36.2784,102.1866,-16.1766,16.0220,14.1464,39.6449,-72.8950,-24.9570,36.6013,109.0477,-43.0806,186.5016,-47.8449,-146.7241,-10.6398,-29.5172,-6.7578
-1328.1250,-36.9463,20.8556,-63.6405,-35.9467,25.6034,18.0417,50.0977,-61.7721,36.7093,-184.5712,-63.9784,142.9317,143.4245,-45.3092,110.5232,-49.8137,-111.8254,59.8667,-64.3487,64.1967
-1320.3125,-14.3244,-24.8449,-5.9105,-46.0591,14.5744,7.8092,39.7324,-145.1337,100.3440,-231.6832,72.5586,131.8123,58.3482,-55.9941,136.1095,-60.2383,-52.3903,48.1028,31.3765,53.6964
-1312.5000,49.1625,4.3308,-13.3958,-51.2550,8.4414,2.4826,71.2756,-150.5927,94.8945,-162.8781,66.9959,125.6006,162.1686,-61.7857,94.6101,-101.7652,-92.0650,38.0445,-44.9995,48.0985
-1304.6875,-23.4287,2.4425,-27.8136,-52.4789,43.2497,1.1142,32.7605,-115.0967,19.3943,-91.1149,28.3938,87.3497,159.9197,-27.6234,93.0777,-31.3378,-93.7895,38.4604,-11.4277,46.4521
-1296.8750,14.9146,6.4909,-11.6155,-47.7338,85.9892,-29.3033,39.1880,-109.6489,98.8407,-85.3854,34.7489,19.0645,128.6146,-21.5102,172.5057,-24.9555,-90.5701,5.6150,-41.9145,15.7656
-1289.0625,-9.3699,-17.0831,-75.1775,-104.5721,-15.8951,-55.3222,49.0026,-98.7935,145.6937,-74.2339,7.5169,102.1857,211.6944,-11.9940,145.3541,-15.1623,-148.9585,45.9864,-64.9968,62.4872
-1281.2500,-60.3324,-33.3304,-39.5262,-86.0488,-32.4339,-34.9934,-40.8345,-42.5775,56.9143,-53.7115,102.6432,121.6670,122.1132,8.8668,93.5760,5.9832,-94.0093,34.1001,25.2668,46.5624
-1273.4375,-4.8289,-11.0931,-24.1392,-98.0100,65.5121,26.8292,-16.1693,-17.8587,-66.3511,-28.6724,16.2662,108.6589,145.0407,-3.7737,44.3139,-6.3651,-106.5714,26.1565,-57.9765,34.1490
-1265.6250,-3.7073,-44.2274,-18.6857,-60.3053,67.1067,66.2931,-50.8579,21.5068,-135.9510,11.0195,-91.4510,74.3058,36.6099,35.2365,46.7273,-4.0592,-35.4791,36.7271,-20.5644,36.3910
-1257.8125,8.0950,-67.6862,27.5400,-82.8879,118.3972,45.4529,-34.8417,37.5698,-84.8308,-9.5852,-39.4694,-21.3412,14.8799,13.9481,98.8593,11.9513,12.3039,-20.7812,-42.4575,-21.6609
-1250.0000,-35.0304,-39.0708,-11.1109,-53.3599,73.7747,37.7103,-42.7262,29.7362,-55.5999,19.9269,-47.3868,7.1245,116.2421,5.7672,18.1083,41.0649,-29.8163,4.8446,-84.2460,7.3956
-1242.1875,-32.6232,-35.9257,-17.6409,-119.2773,39.7036,4.5133,-76.0671,33.4579,-14.8136,61.0077,30.2604,47.1476,9.1453,46.1382,21.9264,81.7337,-61.4027,3.4422,25.5178,11.0048
-1234.3750,105.7603,-2.8002,30.2836,-154.1936,74.6271,-70.6882,-40.4100,-4.8111,-16.0255,60.1108,28.9104,45.1867,7.0520,44.5075,-16.2437,43.4117,-28.0081,-0.7924,24.2775,9.6248
-1226.5625,10.1161,8.2936,-9.3370,-73.1069,11.5444,-58.8917,-28.7559,-30.0721,-4.2325,-1.7693,-70.4301,56.2293,17.9501,55.8781,-41.3914,55.0976,19.3776,17.4147,71.0498,21.2506
-1218.7500,-50.8932,54.0102,-3.2127,-26.3631,61.1150,-44.4466,22.5499,-52.6785,46.2239,-23.9860,-93.1221,31.9307,-42.4971,68.8931,46.1225,32.4307,64.4053,-38.8248,46.4671,-38.4707
-1210.9375,28.7172,28.3634,-41.6243,-15.9531,32.3225,-36.3509,30.5023,-81.6318,18.3387,-15.5449,-121.1671,76.2977,75.6939,113.5590,55.3007,3.4173,-31.9149,-0.9200,-49.4683,6.4633
-1203.1250,13.1156,-21.4978,-59.2605,-99.7284,-57.6756,-87.4596,-21.7494,-59.7906,40.2685,6.6953,10.5995,24.4759,59.6732,172.0250,113.2963,135.2027,-80.4378,10.2492,-27.6036,28.1981
-1195.3125,4.3034,-29.5804,-62.4973,-106.7004,-28.8861,-94.7767,-29.2012,-30.1473,106.0098,-0.2540,40.1659,16.4696,124.4611,127.2952,106.1016,164.7870,-122.1702,0.2172,-69.9421,20.7414
-1187.5000,-55.7408,15.1088,-111.8919,-60.8730,-93.3002,-122.2982,-56.8524,-21.6976,115.5630,45.6112,-97.4674,61.2722,96.0430,136.3701,115.7289,173.1824,-77.1117,46.6971,-93.4688,66.0862
-1179.6875,-38.1046,-0.5262,-50.7077,-40.3429,1.9947,-209.1280,-70.7991,-71.5456,138.8282,70.1827,-38.3967,47.7840,45.3352,122.1420,139.0781,123.2771,-23.3656,-3.7313,-74.3024,16.1326
-1171.8750,22.8183,26.1167,-29.9424,-12.5053,28.5886,-181.6691,-6.4477,-80.1015,56.4029,24.0577,-48.0245,74.6146,144.9433,39.2085,93.7428,77.6724,-31.3265,26.0113,-186.8409,43.4897
-1164.0625,-77.3254,-4.3091,-44.5984,-41.7074,33.1399,-102.2754,-38.1480,-74.7154,-12.0591,29.8821,-5.6933,42.4105,149.4985,81.2236,99.3806,83.0185,-61.3369,34.3084,-110.4385,48.7998
-1156.2500,7.2151,-58.0426,-23.4358,-128.1964,51.3869,-48.1899,-19.1505,-19.6380,7.1763,49.4129,13.3345,-50.0671,130.7547,62.9407,154.7293,102.0646,-79.6509,16.4604,-94.3525,30.8200
-1148.4375,108.9300,-25.5943,-42.6331,-131.4838,-65.1729,-52.9085,-60.9660,47.6429,-35.3825,117.1500,-29.4407,-20.3329,124.2055,18.8679,75.2933,132.3189,-82.7642,81.2621,-132.0602,98.0469
-1140.6250,130.6377,-4.1762,-16.6731,-71.7749,-114.7245,-64.6364,-146.7801,35.9221,-82.9213,142.8920,68.7878,-32.5991,0.6582,43.7925,26.8752,157.5724,-58.8817,69.6739,-38.7629,86.2756
-1132.8125,52.5259,-10.5861,-75.0664,-76.8722,-121.0734,-70.1761,-152.3908,104.4049,-52.2461,210.8403,26.2137,-38.6518,68.3266,37.9162,21.6729,188.0271,-135.8125,62.7659,-78.2663,80.7116
-1125.0000,-29.7492,-56.1724,-88.3298,-123.1212,-95.5599,-80.8725,-126.1507,130.7349,-26.7135,274.6419,15.4962,-49.8391,56.8434,26.8867,11.3376,177.3302,-146.9014,55.8412,15.0880,69.9988
-1117.1875,65.1161,-67.6279,7.3507,-131.2231,-31.8881,-89.4228,-61.7526,122.2111,-34.0241,193.5997,81.9148,-57.8578,11.5200,-54.9967,4.1647,59.7809,-51.8488,18.0856,41.5920,25.4402
-1109.3750,95.0140,-2.0651,-25.2292,-30.2837,-110.1708,-57.9253,-66.3102,80.7431,-2.2721,151.6188,-34.6205,10.1868,42.2395,-95.8204,-37.9442,-19.7149,-20.7489,51.4185,-32.8413,56.9377
-1101.5625,78.3589,87.9192,9.9928,26.0953,-124.9969,-71.9930,-152.4164,67.7218,-15.0549,102.0903,26.3008,-3.3060,-82.5943,-74.1974,23.4101,4.2453,69.8009,0.6717,-11.8206,6.8866
-1093.7500,116.3471,162.5355,4.5344,66.1200,-83.1709,-65.4234,-110.8687,0.3497,28.8184,-0.7879,-4.1386,38.8705,-39.7666,-67.9325,30.4258,-100.1435,38.9962,-30.8509,-78.1543,-23.5069
-1085.9375,26.9265,143.7312,-24.5826,83.7477,-64.7372,-83.2696,-54.7236,-17.4263,11.3026,-18.0649,-58.9757,57.6523,15.6623,-49.0708,-23.9382,-117.9344,20.7914,-42.8407,10.1156,-41.2994
-1078.1250,12.0024,94.4146,48.9318,36.8748,109.2014,-55.6273,8.9272,-63.7096,1.2982,-63.8406,-32.3142,10.9482,4.6091,-22.7118,-33.7856,-127.2347,78.0724,-120.6862,32.8751,-124.5903
-1070.3125,50.1655,97.1831,56.9307,76.0978,112.2387,58.1042,12.6730,-59.8917,-31.6018,-133.5069,-64.5531,14.3630,118.6634,-19.2508,-139.5196,-160.4318,81.4442,-114.5296,-104.2675,-120.7788
-1062.5000,20.2838,103.8820,82.6068,119.2610,119.2394,139.7694,-52.6296,-52.1282,-96.5373,-125.2233,-20.8326,21.7380,-22.3254,-11.8431,-131.2881,-152.6773,123.7591,-102.3596,-96.4673,-113.0201
-1054.6875,98.4069,111.5678,105.3724,128.4201,125.2447,146.4203,-45.9361,-82.3708,-163.4679,-154.9460,-13.1123,65.1296,-52.2973,-41.4443,-87.0466,-181.9308,132.0735,-59.6474,-158.6754,-69.2543
-1046.8750,106.0784,119.7876,74.9640,138.1286,20.8060,152.6077,-148.7032,-76.0689,-265.8428,-110.1205,-43.8375,108.0811,-46.7202,1.5005,-116.2371,-101.6336,140.9377,16.5751,-147.3303,11.0578
-1039.0625,115.7991,59.0414,92.9182,78.8854,33.4313,129.8388,-136.4155,-98.7228,-214.1548,-133.2434,7.4796,48.0965,-70.0784,15.4871,-28.3677,-88.2977,151.8442,-44.8714,-66.9434,-48.5879
-1031.2500,117.6576,26.4285,83.6316,12.7851,36.2196,59.2158,-21.9783,-95.2265,-101.3093,-129.2171,10.9375,14.2783,6.7232,-18.3745,-61.3402,-47.8208,119.8955,-43.3096,-63.4048,-45.0851
-1023.4375,72.1185,-17.6058,78.4615,-29.7208,-10.3684,13.1791,-68.9390,-68.1394,-73.8618,-101.5970,38.0042,-31.9283,-3.8664,8.3642,-33.7024,53.2496,146.5478,-19.0498,-1.2658,-17.9851
-1015.6250,75.6884,21.4523,66.5233,-25.1340,-7.8537,-20.7694,-65.7995,-64.9558,-70.3144,-96.8855,41.1659,-29.0136,-38.3450,11.1973,7.0319,56.4230,115.2962,18.2616,-67.0389,22.2216
-1007.8125,49.8590,102.0976,-4.7923,22.0466,-109.7375,-48.1280,-130.0731,-55.1740,-97.1652,-50.5693,-60.0717,52.5169,-103.2254,55.6266,15.3801,64.2049,91.6385,97.0295,-90.2113,104.0292
-1000.0000,115.0385,96.7344,44.0364,18.2167,-40.6109,-87.5003,-132.3478,-94.3976,-63.0061,-53.2565,-27.3122,13.0636,-143.0952,16.0486,50.7459,61.9801,121.9716,57.8271,-24.3901,64.8340
-992.1875,97.2143,79.3531,56.6885,2.3771,53.5273,-177.8896,-2.6185,-147.6299,-5.8405,-68.9504,-43.5587,-40.3762,60.0582,-0.5320,35.1182,8.7454,105.3039,40.8138,-75.5668,48.6407
-984.3750,-19.4044,34.1477,62.0404,-6.2716,116.8866,-150.0944,25.3161,-193.6734,59.5290,-113.4538,-52.5981,-86.6048,87.4211,-9.9179,26.7018,36.6983,130.8401,37.5423,21.4596,39.6429
-976.5625,-7.1567,-95.2171,106.5954,-63.0812,205.1084,-99.4664,77.1082,-178.8758,147.7584,-135.1110,36.2023,-144.9658,64.6501,-69.4682,79.1411,14.4989,108.2182,17.9050,-0.6731,17.4968
-968.7500,-49.0068,-99.6914,18.0896,-101.0024,88.2390,-32.9519,70.7924,-111.1837,178.8932,-31.8688,-44.0961,-150.4093,94.7796,-39.1217,73.4893,8.2005,33.4918,47.7097,30.0961,48.2520
-960.9375,-113.7495,-130.0741,4.7242,-129.8314,24.4794,14.6494,44.5771,8.6072,116.1375,53.4653,3.7033,-213.7385,-42.9854,45.3219,83.9426,55.9997,39.8541,-9.8333,177.9640,-14.8911
-953.1250,-107.3408,-158.3140,-34.4891,-156.5254,32.8730,97.3917,127.5089,91.5470,126.5301,62.9489,-97.3530,-277.8951,39.4176,53.9131,21.5472,64.9466,-22.6439,-30.9733,150.9774,-41.8783
-945.3125,-126.9173,-247.5743,-51.8971,-174.2374,14.2872,116.1149,183.4435,73.4794,182.9339,82.4293,-152.4095,-296.0391,20.8287,35.4993,77.1661,83.8889,-6.1472,-46.6067,167.9951,-59.8699
-937.5000,-84.3763,-239.7521,-13.1226,-130.8693,60.8207,88.9212,229.4866,46.5064,266.4504,56.0043,-142.3758,-286.0683,30.3579,-64.8252,124.8931,-16.0754,36.4388,-71.3060,141.1046,-86.7599
-929.6875,-130.2850,-215.3892,-63.9530,-138.9673,11.9162,76.2644,218.0770,71.0740,218.5143,81.1236,-189.7940,-188.5285,91.4517,-77.6026,76.1777,45.5074,-7.4278,-12.6163,96.7670,-25.0984
-921.8750,-184.7817,-234.6347,-45.2995,-190.6745,-6.5677,-15.0012,163.0651,53.0327,236.9794,137.6295,-61.8135,-279.5693,35.9570,-21.9905,132.8699,100.4840,9.1030,-35.8421,219.8252,-43.0428
-914.0625,-112.7744,-232.3866,2.2404,-222.8932,107.4553,-47.7782,203.5527,57.4875,241.9470,105.6348,-20.3485,-312.0893,150.9792,-91.8797,101.0592,-5.0408,-23.8744,-67.8706,187.3773,-75.4841
-906.2500,-184.9599,-269.3527,-5.3084,-222.3287,144.2964,-10.7676,203.8312,57.7374,242.7160,69.4379,-57.0806,-348.7934,186.8022,-91.9675,65.0596,-4.7643,-24.0573,-62.6988,187.7369,-75.1273
-898.4375,-167.9335,-358.1361,18.1904,-205.5889,238.3556,46.4263,262.3158,79.1856,264.6933,17.4304,-72.6101,-474.2857,170.8489,-107.8624,124.2626,15.7092,-42.0531,-107.2286,206.2930,-127.5690
-890.6250,-158.3014,-312.3319,5.7521,-193.2695,285.0221,19.2080,309.3954,52.2327,275.2715,-7.9797,-136.5443,-391.1616,254.5085,-98.1562,61.0643,25.7838,-65.4573,-63.0681,77.4497,-80.4088
-882.8125,-121.5021,-205.3826,62.3174,-153.8105,246.8618,-54.8689,198.6242,-58.5758,164.9963,-82.2510,-26.3293,-170.8752,143.3271,-99.3032,98.0180,26.0014,42.2870,2.0604,79.7529,-7.1049
-875.0000,-26.2332,-144.9822,63.7989,-162.9104,161.1645,-139.5107,113.2994,-105.9424,117.1572,-92.0822,-1.6755,0.8826,130.6177,-74.0061,124.4208,13.6632,68.4852,51.8419,36.4933,54.6518
-867.1875,-111.1948,-159.8346,-42.1023,-141.2741,33.2341,-120.4179,58.7132,-49.5715,137.0615,0.8297,-128.2677,20.4073,76.6606,18.0382,181.5755,33.0723,18.4365,107.4216,56.9891,111.1566
-859.3750,-154.7268,-203.2983,-56.5991,-183.2573,62.7229,-127.9462,125.5331,-20.8112,203.3763,30.1285,-172.4579,-23.6492,32.1235,10.4738,248.1298,62.8728,10.7779,104.7144,155.8734,104.0576
-851.5625,-183.0033,-161.5141,-111.4986,-211.0164,31.4783,-122.2366,205.6066,-13.8066,246.9444,1.6691,-239.4066,56.5681,148.8574,-18.8444,218.9344,32.9158,-51.6465,146.1582,93.0089,147.2096
-843.7500,-253.4223,-195.8876,-111.6750,-208.9468,-2.8864,-120.6916,207.5349,-48.9601,286.3594,4.0447,-200.4969,21.6450,150.4559,18.6810,257.5940,34.8024,-14.2242,147.8633,130.9968,149.2060
-835.9375,-153.8725,-167.3151,-88.7856,-142.9453,-44.2874,-126.2118,165.4211,-17.1766,281.7238,-0.6456,-132.6449,16.6885,108.0301,13.1449,217.2032,65.6318,-19.8560,139.7139,54.9289,144.1535
-828.1250,-130.6999,-179.1463,-92.0722,-83.3592,-167.0747,-102.1436,78.9032,7.1975,196.6908,60.2477,-144.1933,41.3480,58.2099,37.2047,94.4113,90.0533,38.1152,166.2186,79.4626,168.6979
-820.3125,-101.5931,-220.0771,7.0888,-52.8887,-129.9443,-65.1949,6.2851,43.4581,124.5639,24.0278,-34.8422,5.9309,-51.7008,74.1562,59.5214,17.3666,173.9816,63.1385,110.8864,59.1387
-812.5000,-42.0144,-160.5621,30.6411,-27.9856,-29.3516,-0.8135,72.1189,35.1611,42.8829,-20.7532,-43.0586,34.9853,-23.1460,28.5550,-21.9266,-64.8724,128.2919,22.1830,-4.2362,14.0316
-804.6875,-73.5725,-122.2028,35.5108,13.7478,50.1210,4.4067,40.8028,3.7047,-24.9542,-14.7053,-37.4287,40.9014,-17.7312,33.7993,-15.5234,-59.2697,98.4586,28.6926,1.5002,19.7668
-796.8750,36.7867,-117.9412,100.0988,-16.6387,202.5156,-27.4882,46.3944,-27.8576,-91.8864,-45.7710,5.0936,9.7289,61.6045,1.9267,-9.2236,-89.7796,68.5241,32.3737,-28.8696,25.3979
-789.0625,111.9117,-112.9256,116.0130,-10.2941,131.6759,-24.6469,-24.2666,-24.6822,-198.0589,-78.0914,44.3636,86.3268,63.6972,40.7926,-152.1688,-86.5507,74.3359,107.0644,-22.4904,101.7722
-781.2500,155.8175,-103.1553,108.3612,-35.2109,32.6098,-14.0691,-85.1763,-13.7651,-186.4878,-102.6786,93.3816,98.6911,-35.4453,52.4008,-102.3672,-38.5831,83.8904,78.5248,58.6305,76.8896
-773.4375,179.5502,-81.5844,34.9943,-80.3479,21.3583,11.2978,-60.2937,11.9460,-86.1400,-76.4763,8.1961,87.8740,27.2368,3.8034,-39.7786,23.1831,-33.7561,61.0807,-23.4540,65.8100
-765.6250,24.0042,-95.3182,-67.2619,-58.8071,-67.1687,69.3519,-74.7126,70.3491,-28.0982,-18.5905,-43.2829,72.7618,-61.3699,61.8945,55.5102,44.6421,-117.7021,85.0001,33.1688,87.4236
-757.8125,-52.6573,-32.2008,-72.7028,-64.4371,-33.8236,103.2411,-5.2701,67.5921,42.7967,-21.8698,27.0768,70.5138,-101.1027,58.8217,53.6425,-32.0626,-157.8071,47.2911,29.6357,47.8818
-750.0000,-24.4965,30.7245,-99.4345,-1.2856,-77.6655,95.9181,24.9708,133.6271,-37.5153,45.6380,-53.7683,137.0859,-35.0246,14.5489,-62.4300,-1.9710,-165.1190,43.2125,-13.1011,41.1367
-742.1875,36.7401,-13.2888,-72.9689,-8.0962,-81.4336,17.6321,-15.7446,129.7034,33.2112,115.1818,-57.5534,59.7311,-75.8907,10.3209,7.5453,31.1621,-103.3919,-36.2639,121.2007,-36.5627
-734.3750,90.6418,-65.6438,-72.3200,-59.2761,-58.5397,-34.0169,43.1874,115.4207,166.5754,138.3651,-71.6905,46.0484,-17.0857,-41.2626,67.1559,-20.0599,-119.0184,-91.9673,70.1486,-87.6054
-726.5625,-8.6799,-24.2551,-115.0625,-16.7329,-124.8795,9.0636,13.8672,159.8791,100.6926,183.2879,-64.0715,54.1262,-45.5214,1.8943,-34.4830,23.4667,-147.8951,-82.1673,41.8573,-79.9031
-718.7500,-6.1056,12.9899,-95.4157,56.6341,-83.3447,86.9712,-54.5967,200.1758,31.6634,187.0507,13.3969,59.0691,-115.0893,5.8846,-66.2751,27.8310,-180.9289,-113.0336,-25.5913,-112.3590
-710.9375,18.6436,72.4000,-107.2689,82.1334,-57.6499,75.0184,-28.9150,152.6191,-15.2237,102.9581,-70.9922,122.1814,20.5034,-5.9831,-113.9318,-19.6624,-190.8188,-87.2670,-69.8922,-86.6686
-703.1250,-32.2790,57.1176,-45.2828,31.9179,38.3661,23.3550,-6.9306,138.3548,7.1806,52.1439,-85.0774,34.6084,-30.5978,53.4403,-53.2923,-33.8643,-64.4156,-95.7271,21.1113,-100.6866
-695.3125,21.4734,39.4934,5.7106,15.3380,96.0531,-30.6689,50.7143,84.7251,65.2258,-37.0421,-64.5242,18.7073,26.9760,-0.4952,-32.0150,-50.4288,-11.3726,-113.2002,-30.2417,-117.0554
-687.5000,66.4390,119.0733,-12.4556,60.9351,30.9638,14.4996,-50.4393,56.2868,-72.5355,8.9570,-55.7754,102.0153,-1.2419,7.7589,-96.5400,-4.8030,-36.1300,-72.5954,-89.3801,-71.2303
-679.6875,125.1345,142.3591,34.1503,86.2106,20.6034,3.3585,-134.8822,8.5414,-119.5943,34.6387,80.6746,165.0299,-84.7502,33.7004,-106.3854,-15.4894,-12.1866,-89.4540,-99.8211,-81.7135
-671.8750,184.2107,166.0095,36.6663,74.8191,7.6029,-47.4378,-147.9754,-4.8643,-132.3123,-15.3426,66.4726,189.4051,12.0975,19.9834,-154.9012,7.1662,-22.8955,-33.9709,-145.9067,-21.8511
-664.0625,128.3710,144.7211,15.0591,54.4605,-51.3297,-70.1925,-133.0227,-27.2262,-80.9819,-0.2867,81.3267,167.8409,-121.0024,34.3042,-67.3681,58.8601,-8.5569,-19.7078,-95.9408,-6.9507
-656.2500,204.2555,185.1486,36.3761,95.7894,-5.5442,-62.2553,-88.3658,-18.8940,-108.9570,-65.5396,89.8719,212.9951,-149.3846,5.3169,-95.1481,-43.7575,-37.5315,-44.2866,-124.2872,-35.3544
-648.4375,168.4570,253.8854,18.5676,130.3983,-81.4407,-28.0258,-90.4163,-58.2675,-219.6493,-103.5130,51.7280,248.4634,-77.4570,2.6251,-205.6414,-46.0866,-3.2043,-6.7728,-124.3274,-0.4623
-640.6250,181.6979,161.6280,83.6754,38.9874,-26.3078,-47.8037,-109.4624,-77.6582,-129.3553,-123.5143,105.5911,156.9379,-96.5084,-54.0791,-187.1485,-28.4311,81.1209,-61.2863,-4.3725,-56.5785
-632.8125,231.9704,105.3804,84.6312,18.5565,26.8422,-68.5894,-18.5086,-98.0548,-1.0832,-106.5284,48.4454,100.4292,-6.5435,-74.7922,-170.6742,-85.7801,60.4433,-81.9568,-59.4191,-76.6997
-625.0000,134.8729,148.7418,105.3375,62.7083,73.6157,-59.7874,-8.9519,-88.8584,-102.2112,-169.9565,20.9058,147.5245,-32.9753,-65.9194,-124.6083,-150.5345,139.3616,-63.7350,-14.8575,-67.2350
-617.1875,173.1117,186.4221,170.1461,137.1451,187.7146,-19.6992,-5.0828,-159.3706,-244.0414,-239.1003,61.6628,151.9294,-29.0904,-62.7626,-83.2607,-183.0120,177.5742,-56.9620,-81.0002,-63.4784
-609.3750,207.1730,255.9190,101.4589,171.3714,112.6278,-59.8158,-81.4159,-161.0904,-283.0888,-167.4589,-13.7785,223.1482,5.5961,-28.8131,-121.1271,-75.7037,106.5892,-31.9810,-152.3389,-28.9292
-601.5625,254.0658,231.2311,109.2813,112.3821,52.3649,-84.1388,-141.9450,-149.0156,-195.3437,-155.0300,109.5804,200.1750,-54.9098,19.9272,-108.2057,-25.6076,82.4010,-64.9124,-140.8827,-52.5931
-593.7500,366.9356,202.5002,157.6297,49.3189,96.0701,-151.5233,-98.5143,-214.9977,-151.6505,-221.6693,152.8881,208.1579,61.5552,-47.3935,-100.3564,-56.5715,89.1583,-27.8545,-202.4681,-9.3104
-585.9375,321.3911,191.3173,132.6272,2.7763,46.3377,-202.3706,-110.5295,-229.4345,-202.4034,-198.7705,102.7623,231.6833,85.5772,-25.1808,-75.9618,-33.9894,113.4662,30.6903,-142.4862,50.5094
-578.1250,314.3365,183.5950,108.4955,-39.3374,78.0716,-170.7763,-116.0865,-160.4294,-169.7143,-166.4332,61.0919,190.6706,7.0602,6.4656,-8.1222,35.0348,71.2104,-9.8156,-79.0625,8.7703
-570.3125,235.2053,139.7966,14.2714,-12.5585,-4.2881,-72.2842,-88.7487,-97.5306,-105.1429,-139.2058,-59.6787,218.5750,71.4442,33.0014,-53.3978,24.9491,-7.1457,21.5005,-86.7406,35.9317
-562.5000,113.8552,86.7653,49.1387,-29.0405,17.1207,-52.0550,-68.6617,-77.8910,-120.8235,-82.2412,35.3052,129.2391,18.5794,16.2773,-32.9382,-28.4037,46.2513,13.5949,38.3367,19.8325
-554.6875,123.9768,97.1960,73.4856,-18.0814,104.9919,-38.3788,-17.1197,-63.8046,-108.0624,-68.8376,48.7303,107.3604,69.1753,-81.0089,-92.0496,-125.3061,21.0921,-41.8082,-21.1433,-39.8255
-546.8750,104.1161,146.6348,57.7705,31.8612,85.8822,-21.6983,-73.5734,-46.7183,-199.3100,-88.4455,-6.8380,198.4727,49.7731,-101.3038,-183.1713,-108.2168,35.9262,-58.1015,-5.6128,-59.4931
-539.0625,177.3819,184.1874,95.4470,33.8856,163.8966,18.0805,-105.9215,-79.5344,-305.4579,-120.9634,70.6938,203.6846,17.4816,-97.5141,-143.2025,-67.0421,2.8478,-94.5518,-72.9812,-92.0651
-531.2500,157.9252,199.0089,16.4963,15.1468,67.1702,67.1012,-56.0204,-67.1054,-291.3705,-71.2437,10.4776,218.1550,104.4400,-48.4728,-164.9998,-54.6230,-86.9848,-12.0850,-161.0973,-5.3906
-523.4375,20.2004,131.5544,-30.1604,-16.8965,-1.8379,69.8195,-125.4188,10.0163,-140.6080,6.1572,13.9763,148.3347,-1.9007,28.2593,-88.1200,-14.5124,-84.1169,-7.8722,-17.5140,-2.0299
-515.6250,40.3488,79.9688,10.7939,-33.0957,58.0160,55.3877,-28.9648,31.9867,-8.0184,-44.6045,0.3267,61.3716,20.6229,-60.1693,-65.4187,-28.5656,-29.4039,-53.2056,-33.0827,-52.8272
-507.8125,41.0206,80.8993,9.7525,3.1891,-14.6135,91.4531,-29.0075,32.4568,-81.9393,-81.8739,-73.8124,-11.0918,21.6419,-61.1081,-137.2336,44.8719,41.8010,-9.7455,3.8585,-16.1355
-500.0000,75.9822,44.0905,75.5539,1.6989,23.0322,91.7596,-27.7916,32.1704,-117.6081,-80.8996,1.3029,-46.3042,-51.0811,-23.8130,-136.8061,-28.4485,111.2421,-42.2256,38.0462,-52.1997
-492.1875,115.9143,48.2425,30.5487,6.1413,28.6288,59.0110,14.3744,36.8348,-75.3332,-38.9743,6.3644,-3.5590,27.1529,-19.5732,-167.4446,-60.8235,-25.3771,-43.8375,-61.8086,-47.3129
-484.3750,-24.2288,47.3136,-21.2437,-28.5216,29.1351,21.1665,13.4380,-0.6024,-39.1753,33.8340,42.3432,-40.9015,27.2794,-21.4377,-59.2020,48.6903,-96.0987,-12.9231,9.2408,-11.5393
-476.5625,48.9650,-20.2835,42.4561,-61.8884,103.9559,-15.3802,51.8003,0.2522,-37.7409,-2.0734,80.6287,-111.9272,-8.2814,-58.0166,16.3111,49.4903,-58.5289,26.7294,-23.4226,26.5260
-468.7500,59.0894,24.0451,8.7547,-17.3645,0.6845,26.9688,-14.9410,-30.0033,-103.4168,40.9093,-23.1810,-31.0467,-37.9400,-87.7122,-49.2883,92.1856,-14.0590,106.6120,-47.1823,106.4807
-460.9375,-11.6494,-12.5050,9.5729,16.2494,-34.4650,64.4092,-50.5752,6.8305,-28.9965,41.9735,14.1210,-66.0693,-146.4940,-52.3254,-11.7975,18.9640,20.5101,76.4197,57.1533,70.5275
-453.1250,-77.3654,-8.0322,-27.9731,20.8586,-28.6076,68.8462,27.7945,11.6624,49.4091,10.0246,19.4280,-24.0902,-68.0428,-47.9551,-6.3314,-13.2736,-45.9206,79.6287,-43.5106,75.5750
-445.3125,-108.3064,29.2158,-56.5866,23.2085,-135.9867,32.0331,-43.0904,12.2417,14.5452,11.8157,57.5010,-21.3531,-102.8452,26.1596,-4.1369,98.2258,-43.6023,111.5844,-5.4180,113.3606
-437.5000,-52.5603,15.1370,-28.0904,9.2009,-73.7053,-17.1361,-19.3246,0.4661,39.3212,36.2483,46.2261,-32.9532,-113.9887,-23.0877,56.6797,86.3717,-22.6452,62.6336,16.3214,64.7858
-429.6875,-41.5871,59.2829,-45.4798,19.3875,-62.2160,-6.1096,29.6358,11.8874,14.2767,84.8703,-15.8410,-20.3396,-29.9414,-86.1414,-5.3223,23.7077,-48.4900,40.4739,27.2702,39.4021
-421.8750,-40.9757,24.0575,-22.3835,19.1655,-22.1111,-4.4864,32.1989,50.9062,-20.1800,87.0750,23.7042,-54.1161,-101.2992,-47.6088,34.2612,-11.3734,-47.7441,9.2656,62.8212,4.6061
-414.0625,17.7609,11.9561,-70.8973,7.0265,-34.9044,18.2359,55.8668,74.0210,40.4609,110.3763,-63.6478,-29.7928,-77.5448,12.0163,20.9323,-25.3538,-130.9198,29.7373,16.4659,27.9076
-406.2500,-115.8344,-16.4820,-108.8821,-22.4782,-100.0378,61.6082,26.1900,80.7863,47.7498,117.3210,-92.3383,-21.8270,-106.1473,91.2883,28.2530,92.3092,-89.4587,37.4377,93.7660,34.8570
-398.4375,-104.2100,-76.7007,7.5136,-46.7925,25.0363,37.1866,76.7204,20.7505,62.2307,-53.5424,32.1734,-43.6631,-92.5436,67.7478,42.7518,32.1638,26.1946,-17.2895,140.2661,-24.9975
-390.6250,-110.3670,-12.6974,27.1715,-17.9061,18.3092,65.9707,143.4455,-24.0908,54.8875,-170.2222,-12.1055,-13.2945,48.2654,-13.6059,-38.5797,-86.7868,90.0611,18.4592,133.9760,4.3355
-382.8125,-129.7848,1.0270,37.0379,30.6803,0.3069,9.4522,87.8687,-43.2379,109.2196,-117.2186,6.3321,-31.2300,-7.2253,-33.2654,-20.2341,-106.0584,139.6359,-37.6941,219.3873,-51.6522
-375.0000,-25.9749,68.9765,22.8357,28.4598,38.5168,10.1390,126.4974,-6.1870,110.7309,-6.0238,-30.0331,7.0338,-6.5086,-70.7271,-55.7116,-142.1436,66.4006,-114.4672,111.9929,-124.4492
-367.1875,-7.2975,121.7948,-26.5115,46.0802,-16.4102,27.6787,70.9787,48.7133,18.0767,49.0100,-47.5343,26.1478,12.0586,-53.3476,-111.3609,-87.3829,-21.9901,-100.0115,60.4587,-106.4079
-359.3750,-2.9908,55.2406,49.5485,-21.7065,101.2766,-4.1772,40.0641,17.2107,61.0158,54.6343,68.5763,-77.1332,18.2351,-121.3868,-31.4267,-46.0408,17.2040,-133.6263,99.5175,-137.7770
-351.5625,22.6901,-24.9333,49.4963,-67.1476,127.3138,-53.6837,139.4982,-31.9462,123.2931,5.5979,20.0510,-88.0610,153.7575,-134.0842,-43.1565,-94.3565,6.7394,-108.6631,89.9258,-112.8001
-343.7500,-38.4919,-51.9860,40.7900,-58.4938,137.4613,-8.0955,112.0259,13.9918,58.6572,14.6501,-7.3498,-77.8951,16.3704,-88.6948,-33.7977,-85.5813,15.3757,-92.9092,134.4395,-103.7324
-335.9375,-17.8932,-32.2621,43.7517,-4.0932,158.3549,85.2433,95.3026,33.6805,5.7524,-1.5532,-22.9975,-56.9725,-0.2592,-106.5667,-50.7180,-103.0595,-1.2463,-69.9183,48.6956,-83.9184
-328.1250,-120.6852,5.0821,-13.6642,67.9095,47.8537,120.1883,21.1761,68.9714,-69.5660,-3.1605,-61.0403,-20.4499,-0.2995,-34.8443,-88.0540,6.0527,0.7318,2.3505,16.5637,-11.5179
-320.3125,-103.3065,-14.3989,32.4227,48.0541,67.5196,65.2906,4.2089,14.4157,-12.7354,-57.6167,32.0688,-73.7805,-54.1880,-16.9880,4.7416,-11.6974,51.8458,-54.5120,103.5833,-65.9839
-312.5000,6.0457,25.0869,54.1207,16.1372,72.1397,31.3419,81.1999,-55.1875,28.0355,-128.1264,36.1371,-32.1655,22.8740,-87.1908,45.4640,-119.4989,54.9028,-55.3173,36.5613,-62.5055
-304.6875,66.3288,12.4862,65.2935,4.1095,23.6754,17.2966,-4.9045,-68.8913,14.6932,-67.7503,60.1226,-44.6624,-26.1709,-27.5019,-4.9283,-59.4129,77.8606,-37.8382,25.4481,-39.1360
-296.8750,174.4375,-20.2945,109.5968,5.8743,28.0137,-15.9458,-37.2016,-64.7929,19.1409,-63.5776,101.9129,-39.3646,-21.4049,-25.0260,-37.5362,-18.5403,114.6034,-74.7558,-6.8723,-71.9726
-289.0625,108.1071,17.4955,70.6442,8.1826,-6.0950,21.3694,-35.9561,-27.1412,-90.8708,-25.8534,66.2628,-0.5217,16.9111,11.9958,-109.6051,-18.1183,81.8858,-35.1415,-38.6380,-34.2682
-281.2500,73.8990,53.4068,61.8602,7.5855,-5.0885,57.7855,-109.6056,9.6107,-126.7910,10.9617,66.7270,-36.5832,-19.6723,11.1067,-36.5878,-18.6038,81.2584,-35.6389,-38.3019,-34.4758
-273.4375,59.7052,109.3389,-4.9030,62.9833,-22.0836,40.2063,-89.2468,28.3589,-34.7237,29.7716,-23.8065,-16.6460,36.7440,30.2179,-17.5923,-37.0933,-4.3786,17.2184,-121.9645,21.3121
-265.6250,-85.4218,103.3373,-48.5671,92.4292,-139.0234,30.6850,-96.8421,19.1605,-5.6235,-15.3781,4.7273,12.3351,-8.8025,57.3830,47.4348,64.4588,25.0348,80.7648,-127.5727,86.1409
-257.8125,-72.9293,114.9590,2.4410,103.4768,-124.3586,6.7715,-82.8342,-41.4385,-28.9405,-74.9297,55.8662,26.9056,5.2610,33.1360,24.0358,40.6024,106.0445,58.0684,-115.5808,62.5604
-250.0000,44.9831,161.9974,30.3887,113.9237,-112.2925,-19.7367,-71.4296,-102.6368,-53.8732,-101.0819,30.4192,75.8703,53.7200,-30.7174,-73.9879,-58.8611,116.4591,69.0306,-104.1840,73.3681
-242.1875,76.3733,122.5104,37.6336,38.8248,-77.7669,-59.7886,-38.5737,-70.3911,-21.3746,-31.7987,65.4486,0.2796,-59.3826,-34.1302,-4.5772,-25.8885,76.3253,29.9966,32.6609,33.6149
-234.3750,93.6248,103.9008,-3.4049,19.5829,-59.3952,-4.9858,17.1317,21.7051,-3.0420,23.3261,47.3334,-17.4604,-3.6405,-53.6998,-23.3299,-45.0734,-47.9687,12.0700,-21.6505,14.7148
-226.5625,84.9821,199.4127,-34.4346,79.4430,-141.9214,19.9247,-31.0645,46.9045,-123.6188,48.5533,36.3302,45.8909,-14.8091,7.8267,-69.9968,-57.1628,-59.1672,37.3859,4.1485,39.9051
-218.7500,84.5096,198.0924,-28.4688,42.4517,-104.2915,-54.0065,-30.1003,10.2538,-14.0505,48.9259,110.4817,47.3875,-13.8187,-29.5037,2.4651,-57.1100,-96.2273,-5.7140,39.0932,3.2325
-210.9375,29.3513,212.0919,-68.9294,20.7615,-125.3696,-77.6276,21.1644,23.9087,-37.1929,99.5959,51.9397,62.1810,74.4669,-16.5312,-56.7883,-6.7629,-117.9930,5.1317,-87.6642,16.8530
-203.1250,40.1645,187.0685,-11.4555,30.0229,-113.4939,-29.2956,-77.6240,35.5122,-134.3917,74.2063,174.3663,0.9176,-24.3022,-5.6209,-82.0984,77.5290,-72.8140,-19.2834,-77.4735,-8.5831
-195.3125,266.8980,165.9674,71.1238,78.1855,-97.7275,21.9343,-98.5092,-22.9869,-155.6941,-21.2862,263.7061,-93.4465,-8.1656,-27.8156,-103.5242,-17.2891,-59.7484,-40.8688,-98.3854,-30.1152
-187.5000,307.5919,100.8331,91.4224,82.3016,-129.0142,-11.8886,-94.4501,-20.5358,-153.0513,-18.8247,268.0115,-124.8743,-42.0902,-26.0589,-64.0089,-52.1567,-20.7401,0.5172,-58.3367,9.2976
-179.6875,192.1511,90.5596,86.6802,71.2693,-27.4487,15.1491,-103.5372,7.7712,-89.5692,9.4886,259.1689,-206.4643,-87.1705,37.5474,0.3457,-61.1796,-31.8910,-41.8648,-32.4370,-36.4466
-171.8750,110.2140,112.8038,12.4596,93.7386,-39.3934,38.7011,-79.1288,-5.4162,-65.6056,69.3074,136.8317,-181.5594,-25.7607,60.6533,-49.8184,35.3034,-80.5404,-56.3050,-81.0331,-49.6942
-164.0625,48.7436,85.5184,-17.1757,29.6627,-28.8836,47.7089,-69.2754,39.8514,-19.2070,78.5735,109.9607,-136.2107,-89.9114,106.2083,-40.5513,44.2304,-108.7392,-82.6743,-2.1760,-77.5034
-156.2500,60.2835,61.2613,13.8410,4.5890,55.6234,57.7237,15.5817,-22.8864,28.1819,-58.1656,158.0915,-87.8633,-5.0639,78.7599,-30.2978,-55.8436,-133.9434,-70.8149,8.6745,-67.3153
-148.4375,20.7839,91.9647,-2.1421,-0.5350,12.0782,48.6963,44.3814,-31.6710,-90.4842,-66.9628,150.1824,-21.5746,60.7208,32.2629,-111.1028,-27.9676,-140.2021,-3.4315,39.4876,-2.1789
-140.6250,43.0016,7.3817,51.5864,-49.9590,38.2382,73.3730,-4.1145,29.2401,-103.4589,-42.0713,212.9873,-142.5985,-24.7878,19.4599,-88.2199,32.5932,-83.7616,-48.5296,132.0020,-51.3481
-132.8125,93.0236,-49.3852,0.5236,-72.5805,17.1901,124.8604,47.1964,80.9572,-51.6434,45.6230,80.5967,-127.8326,26.5010,-3.5461,-110.5539,-26.0545,-141.5233,-69.5323,74.3162,-73.7200
-125.0000,-26.8441,-64.0376,-38.5819,-123.1003,39.2445,72.4537,69.6054,139.7797,7.2657,141.4235,29.3215,-141.9818,11.8787,17.5483,-88.7936,-5.6033,-157.1952,-83.5042,130.7330,-89.0030
-117.1875,-7.2956,-80.2728,-23.0621,-105.2188,60.6961,55.4561,90.4191,123.0105,63.5675,124.6293,50.4488,-157.7395,-40.3404,0.0385,41.3525,-22.7542,-139.4817,-102.0243,79.5478,-105.8902
-109.3750,14.5038,-59.2523,-41.1475,-86.0936,5.3945,34.7135,71.4796,65.4992,7.1199,68.0941,-5.1639,-66.2639,50.6859,15.7785,58.7423,-42.6494,-120.5216,-15.6536,29.6213,-15.5315
-101.5625,-57.9898,-27.5198,-50.1711,-54.2674,2.7965,30.6754,31.2439,61.6915,3.3685,27.2636,28.9325,-32.0978,10.4106,85.2181,17.8296,-9.8510,-124.8691,-18.8540,96.3846,-19.4775
-93.7500,-87.8837,-22.1677,-80.0883,-85.8324,8.7861,35.2496,109.6041,30.4913,82.1980,69.0341,34.6262,10.6623,52.7337,15.2612,-14.4974,-5.4471,-190.6199,-16.5488,66.7416,-14.8202
-85.9375,-56.2733,-97.3063,-66.0137,-126.8945,4.2656,-6.6619,104.4586,60.7929,112.5186,99.3038,66.8386,-68.1008,47.5496,-101.1934,53.6720,25.4529,-196.8653,-22.4777,96.6086,-20.6728
-78.1250,37.8954,-108.8812,-15.3158,-139.3990,105.2972,-18.0120,131.8697,50.6474,139.3855,52.1241,56.6087,-150.3286,0.9171,-149.1024,153.3734,-22.1035,-174.5652,-67.3737,85.0177,-67.9842
-70.3125,-45.1386,-123.6385,-81.0458,-119.0953,52.1192,1.4459,151.0763,69.3052,121.0414,71.7455,-70.8173,-129.7632,57.0708,-94.2033,134.8655,-3.8542,-189.4655,-9.1377,71.2307,-12.4999
-62.5000,-132.8073,-105.0289,-78.4879,-102.4332,35.2969,19.2577,96.6321,88.3126,103.0406,126.7104,-50.8819,-146.8546,-34.4389,-38.9462,116.7024,14.7394,-138.0196,-24.0962,159.7900,-30.6697
-54.6875,-40.2673,-84.1975,-29.1164,-81.5650,94.6620,4.2788,156.3883,36.5170,125.2269,111.8666,-27.7455,-124.7441,25.2509,-91.4833,28.7242,-37.4749,-117.3796,-39.7956,74.5507,-45.6382
-46.8750,-66.4793,-40.1015,-36.8913,-74.4433,66.2774,-25.4355,126.3963,6.9741,131.6561,82.2661,-20.3530,-116.3960,32.1801,-122.7666,-2.0131,5.5547,-110.4832,0.9989,48.5711,-2.3653
-39.0625,-47.7369,-23.0456,-26.1291,-57.3686,85.8420,-7.1899,108.3591,-11.6171,113.0315,26.6196,35.9868,-98.1075,14.0634,-68.1045,53.1860,-13.4685,-129.6349,-21.0708,-4.4571,-21.1479
-31.2500,-57.7036,2.3218,-44.5744,-33.9854,35.6957,52.3713,58.6207,-25.8968,25.7050,12.2832,-14.3706,-37.5306,37.2333,-46.1408,38.6779,8.8154,-105.4937,37.2625,-84.1858,38.3664
-23.4375,-93.5114,-70.1499,-38.4638,-36.4473,34.6963,50.0904,-16.9689,8.9733,-13.4692,84.0991,-51.5637,-38.8154,-74.4561,24.9711,110.3247,80.2450,-37.2094,36.5164,-16.7688,36.0237
-15.6250,-19.0153,-66.3046,-22.7271,-33.6014,39.9844,-19.8879,-12.2572,13.1459,64.6540,88.2162,-83.4519,-34.8095,-33.8406,27.3879,114.2673,82.9693,-0.6364,-0.5094,-49.0607,2.9847
-7.8125,-61.2297,-38.1494,-14.4255,28.5458,-41.4388,7.4377,-21.2508,3.6262,18.0721,4.6398,-55.0304,-6.5231,-5.9344,54.1189,30.5075,37.0053,61.2377,31.3768,-21.0457,30.2430
-4000.0000,9.4117,44.9370,25.3705,41.6008,-16.6685,37.3105,-23.6864,-2.1525,-56.6593,-40.0770,-0.1729,-35.9995,-51.9571,56.1094,-38.9013,5.4634,66.9627,-0.5302,-21.9559,-3.6775
-3992.1875,4.9538,76.3931,-19.9789,2.8120,13.4428,-5.6123,6.4386,-8.6155,-27.0169,26.9051,-79.7164,30.9380,-22.4093,14.5269,-45.9792,36.1081,-6.4642,26.4289,-26.8895,26.7732
-3984.3750,-39.3647,-2.9916,-28.0159,-76.8218,3.6948,-51.3763,-3.2866,19.0730,73.7760,127.0359,-53.1192,-52.9673,-68.7163,-30.9030,18.0915,63.9037,-14.7424,16.5721,104.3296,17.3754
-3976.5625,8.5631,-59.1294,-7.1883,-168.2093,55.2023,-72.8944,85.2411,34.0121,160.8266,104.4148,-38.2664,-111.6237,-55.7785,-52.0854,68.4183,4.9569,-35.7693,-4.4098,151.8006,-4.7714
-3968.7500,-30.7529,-62.5183,-59.8770,-170.8593,11.4524,-41.6683,115.5202,64.7001,153.6337,98.5479,-80.6675,-81.5287,46.9144,-57.5146,25.4878,-75.2337,-110.0503,28.0784,147.0189,25.8388
-3960.9375,-38.9701,-69.8089,-34.2259,-109.4112,41.7996,-10.3439,107.8899,58.4914,109.5365,90.7938,-50.9521,-89.3353,39.6939,-62.8400,18.6587,-44.3255,-81.2283,-11.6650,174.3495,-17.4587
-3953.1250,-19.1807,21.9061,-83.6340,-52.9574,-12.8479,9.9828,91.2658,78.2900,92.4353,110.0450,-104.2393,-33.1353,95.4758,-79.1736,-36.1725,49.5699,-131.4108,1.6733,-18.3257,2.2362
-3945.3125,-159.8121,21.2360,-120.9312,-17.8922,-87.9039,-29.0828,14.2382,112.6900,88.9320,180.8997,-105.9351,-72.3189,17.8585,-43.9100,34.5999,157.0577,-95.9995,36.0551,51.5957,36.5367
-3937.5000,-117.7931,-40.7778,-69.2330,-81.1701,-9.3110,-94.5030,57.8565,82.7404,168.0802,150.4034,-26.9748,-65.8440,-12.1161,-36.0005,78.0295,91.1948,-87.9383,40.6817,58.1666,43.4885
-3929.6875,-74.2640,3.7088,-79.1885,-71.9505,-75.2249,-123.4303,63.9765,15.2855,100.7318,120.4119,16.4820,50.1376,30.4235,-28.5935,46.9604,23.8369,-112.3832,77.2807,-38.7721,86.9434
-3921.8750,-28.4369,51.4904,-37.4021,10.5615,-61.8423,-145.0655,-32.6063,-43.8679,77.6904,97.7246,141.2464,64.4177,-102.7383,-49.8781,61.1963,38.7795,-101.5241,14.6145,-29.4025,27.6931
-3914.0625,83.8448,58.7269,-25.5579,52.5259,-18.0066,-101.2485,86.2610,-72.5750,85.1052,31.4789,76.4634,35.1532,13.5436,-150.7137,67.8860,-63.8367,-129.2123,-9.3025,-93.5904,-1.1098
-3906.2500,21.9733,33.8249,16.7603,27.3494,27.6660,-54.5801,94.9697,-99.4328,93.3600,-70.9147,85.5283,-30.2411,58.6647,-176.7054,40.4251,-54.5971,-48.0521,6.7970,-14.9399,7.9455
-3898.4375,21.3583,-37.8214,35.9279,-43.5694,137.5939,-53.6659,130.9225,-100.0466,165.8613,-108.0573,48.8516,-104.3697,95.0277,-176.4548,76.2243,19.8853,-48.6453,-28.6402,18.9587,-28.7499
-3890.6250,-7.9535,-30.1585,-48.0767,-72.1845,31.8233,-48.4600,135.1811,-21.3707,132.6671,7.0972,-93.5205,-63.1786,135.7102,-97.9122,44.3218,97.6524,-76.9498,10.5015,-10.8517,12.8579
-3882.8125,-41.1720,-27.3929,-38.8806,-69.7020,-3.8441,-9.1574,63.5392,54.4040,97.5751,45.3541,-55.7905,-24.8813,25.4984,15.7270,45.5154,-10.4793,-38.1609,14.7746,26.4487,14.5663
-3875.0000,34.3187,-20.9280,9.9447,-27.5252,38.1931,-3.1569,31.6060,22.8786,65.1947,13.3148,23.6314,-19.8844,29.9863,22.0598,50.4142,-78.9085,-31.6743,17.3790,-74.5462,19.9690
-3867.1875,-10.0351,5.6855,-39.5378,-1.2006,-46.6271,-14.0136,-17.1768,48.5062,15.9639,75.4326,-24.8058,5.2733,-54.3806,11.5468,38.4678,57.8218,-41.0404,42.2521,-49.3939,45.5268
-3859.3750,-29.9447,21.7432,1.8147,-20.4251,5.9992,-33.4275,-0.5167,28.5828,32.1828,92.0075,29.2174,-15.1119,-112.3096,-44.5119,90.9881,75.0077,11.0402,22.8683,-34.7867,25.5360
-3851.5625,-42.0047,45.6497,-20.4137,2.1915,-45.5266,-48.0014,19.9952,12.5098,15.2528,75.4294,13.0986,42.3654,-18.3723,-22.7233,38.3651,22.0312,-1.0348,79.1313,-82.3344,83.4018
-3843.7500,21.0778,4.7048,13.5719,-4.0472,-89.9075,-90.4274,-59.3440,5.5839,44.4791,68.0028,43.1308,35.0023,-63.2790,-28.7906,-6.1041,52.1926,64.0383,70.9661,15.2826,76.4173
-3835.9375,112.8663,26.4605,29.9456,-17.5777,-67.5747,-68.1525,-37.9813,-8.6421,103.4106,53.2848,28.8632,20.3480,-78.4803,-114.1772,-20.8744,1.0444,50.8043,57.2069,0.5943,62.1236
-3828.1250,12.4508,33.0244,-9.9059,-11.2956,-99.4470,-62.0726,-32.8240,33.9321,71.1365,58.3717,-38.6120,62.5149,-73.8717,-144.7790,-15.8491,6.6987,57.3600,68.3240,76.6983,67.6329
-3820.3125,-11.6648,10.8929,14.9960,1.2921,-48.0239,-45.7029,19.6283,13.8029,86.1650,0.7605,14.2136,4.9920,-59.9718,-92.0729,36.4878,-50.3402,69.2126,-22.6935,122.1060,-26.5585
-3812.5000,-79.6713,48.8559,-57.4863,38.9718,-44.4960,-4.2461,23.1889,53.7639,126.3018,77.2445,-92.8586,44.5848,-19.9673,-50.2653,2.9383,-9.2787,2.1601,-57.4671,18.6079,-59.6450
-3804.6875,-178.1259,-13.6374,-88.0153,-23.8069,-38.4250,2.7475,-7.7078,97.2726,94.9892,157.2815,-86.3669,14.7395,-51.4081,-5.9104,119.9446,70.3252,-25.3444,-52.7631,59.6692,-53.1767
-3796.8750,-11.5232,-197.0894,-41.3018,-172.5388,61.7035,-44.2166,55.4483,50.8271,157.7375,109.3622,-22.8089,-70.0533,85.2084,-15.5218,219.0091,96.9580,-103.7991,-34.6151,50.7844,-26.6629
-3789.0625,-16.5654,-272.1848,-86.4208,-246.9154,15.1747,-52.8258,82.9544,41.7361,111.8322,136.7991,-103.9068,-42.4768,185.1835,50.2010,173.4174,124.9280,-141.9144,27.6149,45.2400,38.2050
-3781.2500,-59.7598,-208.4312,-63.3545,-219.4404,45.4970,-21.5875,39.3033,35.4963,140.7740,93.1004,-38.1525,-12.0383,141.0022,44.7658,166.6816,81.7587,-115.1902,-15.3173,36.5512,-5.0763
-3773.4375,-17.9452,-95.6905,-86.3935,-106.9717,49.8242,-16.3561,80.6522,3.2532,108.7280,-12.5917,-69.4044,103.4080,218.8299,13.3293,133.9554,13.5961,-177.4772,24.9929,-133.1358,36.6427
-3765.6250,-105.5909,-7.4179,-101.5066,-18.9602,-46.3019,-1.5865,-15.4416,-18.4440,11.2441,-71.7317,-55.1092,153.4154,158.2241,27.4449,147.7883,-9.0144,-124.2150,115.1199,-81.2639,123.9153
-3757.8125,-114.1338,-15.0584,-71.8247,43.1382,-55.3134,26.2658,-24.4215,-27.0509,37.8708,-7.7830,-26.6991,144.5324,2.7219,-16.3432,101.7368,18.4639,-60.8556,111.6352,-55.2845,115.2862
-3750.0000,-118.5164,51.4484,-107.2808,75.3806,-132.1721,61.2615,-28.2496,42.4859,-2.3497,99.3195,-30.1400,177.8164,-37.6113,-54.9895,-49.1649,53.0765,-99.3604,73.2300,-95.1624,75.8125
-3742.1875,-77.7517,59.0998,-39.2151,81.7721,-85.8798,36.4100,-91.9355,90.1758,-102.4192,146.5816,90.5698,78.2616,-101.8007,-6.5003,-111.9110,100.8365,-57.7243,-25.3922,-54.8810,-23.5075
-3734.3750,-17.2831,14.4518,-22.8508,72.8730,-20.8832,27.2568,-63.9259,81.5642,-74.7845,137.5448,44.9836,32.4211,35.7032,21.6656,-157.9522,18.2933,-67.3947,-70.3391,-64.9017,-69.1247
-3726.5625,-89.4650,-20.8503,-39.4258,37.3286,-20.5446,28.4469,-26.5722,119.3001,-37.8043,173.8621,-27.2536,32.9481,-1.4351,23.1721,-194.6390,19.0958,-32.7151,-99.9944,38.4319,-105.3859
-3718.7500,-39.0474,-40.5685,17.6865,17.3776,72.4020,49.2308,29.3805,101.6299,54.7838,82.7801,-7.8833,-20.9185,-56.9684,-29.7227,-138.7134,2.4905,18.5607,-186.6982,53.3851,-196.0561
-3710.9375,-46.9228,-12.5994,0.1366,10.1163,62.0609,76.7085,56.0477,55.6578,44.0878,36.4068,-90.8213,5.9212,43.2227,-38.9304,-75.0904,-44.4226,46.5215,-161.0815,-25.9602,-169.0314
-3703.1250,-54.5017,-19.3472,9.1769,38.1486,89.0249,67.4800,9.0143,8.9876,-3.3035,-10.6575,-63.4557,-3.9287,-77.2843,-10.8434,25.8340,-17.0317,39.7712,-132.4025,72.0081,-141.7041
-3695.3125,1.2232,-68.8087,9.2220,-46.5261,107.2939,12.5411,101.2883,-8.3885,88.6103,-65.4165,-7.7788,-21.4644,50.5143,-64.4620,44.0712,1.6594,-44.6905,-82.4103,56.2751,-86.0740
-3687.5000,-36.1028,-139.3283,-24.6649,-153.2590,65.5051,-102.4600,95.5104,-13.8143,119.4892,2.7780,-13.1538,9.9702,82.2791,-32.1418,38.2703,34.2951,-81.2112,-19.5265,160.4935,-17.4848
-3679.6875,-46.4722,-183.9138,-17.9820,-198.0465,166.6709,-110.5185,123.6814,-22.2969,184.3345,29.9231,-58.5722,1.3645,-1.0044,-2.8861,103.4320,-11.1277,-89.7872,-61.7826,254.6713,-62.9474
-3671.8750,-66.6807,-168.3619,-85.5524,-147.6847,106.9919,-21.4303,175.0137,29.3720,161.3353,81.2153,-226.8453,15.9188,-24.1202,12.5012,43.7453,39.5835,-110.2218,-40.8269,198.9980,-48.2613
-3664.0625,-153.7946,-149.7210,-83.0340,-94.2252,88.4168,33.7608,119.4481,84.1408,105.4400,99.6147,-208.0209,-39.4148,-80.1272,-5.0200,136.1625,95.3847,-56.5668,-55.2905,180.4331,-66.4781
-3656.2500,-105.0051,-100.1937,-64.1978,-43.8706,65.7554,48.8450,96.7903,61.8036,119.4545,3.9194,-157.2894,-61.8422,7.7765,-26.6520,223.4896,36.0777,-41.0209,-45.8509,18.7712,-51.8039
-3648.4375,-106.1121,-64.5769,-69.3132,-9.4169,-12.8002,45.0219,-18.7634,20.5638,-33.4250,-38.6711,-88.4629,6.8478,75.7947,79.8086,181.9222,31.8699,-42.3878,14.5597,-88.7952,16.9727
-3640.6250,-6.2659,-35.0254,6.0992,20.9813,-18.4003,40.1372,-97.3716,-21.7331,-112.3492,-117.3031,90.3156,38.5007,32.7576,148.2112,102.3217,26.6224,-10.8108,3.7605,-128.4014,11.7010
-3632.8125,-10.2613,31.6620,-14.0595,87.5178,-24.8472,34.3840,-102.8247,-27.8855,-192.1084,-122.7829,121.2476,142.3178,172.8862,106.7531,22.8860,-53.4785,-85.0957,32.4392,-203.8568,42.5865
-3625.0000,-65.3654,82.2249,0.4011,137.9404,-10.4007,49.5181,-162.3748,-49.1378,-250.9507,-72.3509,172.0809,157.0509,150.9286,48.1860,0.3630,-74.6811,-69.4911,49.3894,-154.3985,57.3773
-3617.1875,81.7337,53.9632,104.3198,74.5529,71.2597,20.8403,-117.7128,-114.1891,-207.5746,-101.7138,254.1244,91.9853,157.1859,-90.2049,8.0499,-103.6961,8.3032,19.7554,-148.7219,28.3626
-3609.3750,192.5466,25.3836,113.2888,45.8625,2.6302,-10.1422,-149.3391,-108.5436,-239.4962,-60.3758,259.8695,97.6320,162.1659,-83.9203,-97.5651,-62.0318,14.7909,20.8437,-178.3417,34.0498
-3601.5625,147.5086,51.9388,112.7782,36.3262,31.1563,19.0201,-194.8193,-81.7557,-211.2655,-31.8913,287.7700,88.4404,6.2950,-18.4954,-106.0130,-70.2233,5.4255,-21.7760,-83.8043,-11.1077
-3593.7500,115.1822,54.1800,29.5479,39.4878,31.3898,19.8709,-84.6022,-44.2779,-137.3235,-31.7090,141.3692,89.9655,80.1283,-17.3791,-68.7464,-32.7115,-97.2493,17.4583,-115.5731,26.4455
-3585.9375,15.9081,26.4586,-29.1353,10.6920,-37.3368,-12.2418,-79.3396,-38.7582,-96.3217,-27.4692,110.0189,57.5634,47.0141,24.7847,46.5715,8.8599,-124.8849,58.8725,-5.2848,68.0616
-3578.1250,46.4879,-12.4282,23.6088,-28.2638,-4.2020,-14.5160,-10.2255,-5.3987,-64.4620,-30.3774,143.5332,-18.9758,43.7543,22.7862,43.7504,-30.7264,-58.6766,23.2528,-10.1304,28.5272
-3570.3125,-6.2277,40.3700,-20.9811,25.4708,-95.3627,41.8988,8.5986,13.6591,-82.8895,-11.5830,15.7430,-36.7975,62.2192,5.4645,-11.3666,-11.6275,-4.7772,11.1500,-28.2700,10.6931
-3562.5000,-82.0986,70.9928,-0.4043,91.0509,-24.6632,76.1581,6.2807,47.5668,-85.4525,-13.9306,-23.1962,-38.7657,-14.4509,3.9747,-14.6241,-87.6879,59.9609,-54.4046,36.4591,-65.2969
-3554.6875,-50.8131,102.7405,-7.5156,122.7696,8.2055,35.5629,38.1298,7.6257,-15.8457,-18.1227,-26.9913,67.4162,54.0452,-36.3823,-18.7209,-165.6066,21.8347,-63.4342,-72.6569,-69.1420
-3546.8750,-40.3324,113.6625,-8.9829,97.6841,-57.7226,8.1666,-26.8162,15.8888,-45.0393,-10.1064,18.4067,112.8089,25.7529,9.4503,-46.6078,-120.3267,32.8977,-23.2842,-63.5680,-23.7774
-3539.0625,58.4530,36.8603,77.4753,55.8853,8.6551,-35.9438,-34.4624,-28.5487,-89.9188,-17.7747,158.1158,68.5108,-19.2407,2.5673,-54.1742,-90.7453,61.2446,-33.0204,-35.1680,-31.1119
-3531.2500,78.1487,20.9354,54.7079,40.9748,-48.0633,-18.1664,-17.1990,-11.0849,-144.8781,36.4744,102.7264,13.1237,71.6857,-16.4372,-110.8336,-73.2721,46.4735,23.1831,-16.8701,23.4562
-3523.4375,-53.1150,31.0401,9.1671,16.1053,-73.7286,-6.3483,-42.8845,74.4255,-61.7720,83.7785,3.3950,-49.2075,-28.3223,32.5935,11.5671,-61.7540,91.7407,2.4122,63.4901,-1.9238
-3515.6250,-46.9773,73.5273,-16.2402,92.6374,-102.9752,1.8644,1.8349,81.3248,19.7420,18.4720,-62.5320,-41.1256,-20.9149,4.0091,55.3738,-53.8450,98.4034,-25.1096,-0.7491,-30.9059
-3507.8125,-63.5990,127.2476,-57.4641,147.4182,-193.9683,57.3179,-54.1904,63.4629,-36.4819,-0.5874,-81.2165,14.2274,-3.2378,22.6677,36.4405,-35.6831,82.3011,-9.4724,-53.7367,-12.6283
-3500.0000,-12.0313,108.1348,-46.2009,163.3855,-139.7508,38.9617,-72.0072,44.7931,-54.4866,54.5574,-24.7016,32.7890,51.6429,5.5224,92.7324,-53.3149,28.3867,-69.3352,-72.5051,-67.1455
-3492.1875,7.8956,94.3398,-59.7674,113.6869,-120.1750,-15.0567,-16.4677,-9.5254,0.8720,37.0579,-42.8437,52.7142,143.8941,24.7212,37.3895,-34.5964,-20.1960,-18.1914,-87.9175,-11.3060
-3484.3750,-5.6783,80.0132,-12.2644,65.4696,-64.0972,-32.5821,-34.4284,-63.3374,-17.2588,-54.9228,50.5160,72.1465,52.6479,81.4114,20.5513,-15.3762,0.7080,37.9413,-31.8076,45.0379
-3476.5625,106.2007,87.1050,49.3791,72.6874,13.4450,-62.6598,-64.9305,-94.6917,-48.9240,-122.4455,92.3283,77.0323,56.8586,12.5282,-11.8313,-46.7188,8.0561,78.7161,-95.2323,86.8290
-3468.7500,41.8789,127.9682,-13.7073,78.6937,-90.2104,-20.9359,-133.6243,-52.2424,-43.7858,-44.1563,60.9386,82.7248,61.8916,-17.5749,-6.4088,-5.2708,-20.8088,81.2060,-124.8488,92.4248
-3460.9375,21.0050,178.2478,14.3991,128.1336,-73.3982,-3.7728,-152.8642,0.6523,-100.1868,9.5901,152.0081,100.8652,-67.6153,-37.2407,-25.5241,12.6251,-6.2264,28.4343,-109.9894,36.4669
-3453.1250,121.3887,208.7534,14.4873,158.8170,-81.3161,24.6282,-161.8401,-7.2092,-255.3247,-35.4153,107.3194,129.2631,-38.8559,-7.6710,-143.3866,40.7635,-44.4018,94.4226,-185.8736,101.7613
-3445.3125,67.7183,84.1842,34.1996,105.4468,-65.2799,4.9742,-218.8640,8.8726,-239.5000,-55.4695,160.5716,71.6216,-60.1348,44.8377,-127.2890,56.8478,-27.6316,112.5864,-64.7907,118.0114
-3437.5000,110.4508,20.9820,76.6500,6.4693,17.1645,14.7156,-172.4817,-18.6482,-119.2507,-119.1221,207.2227,-28.6172,-15.0093,55.7357,-81.7735,30.3246,-21.4693,47.2018,-58.2906,54.6558
-3429.6875,190.2827,-4.1454,104.8040,-53.4188,28.7135,-10.4510,-123.9809,-80.0671,-108.8799,-72.6650,181.9688,-16.7496,-3.7599,67.7117,-143.1513,4.8942,24.7779,19.8650,-48.6839,29.3987
-3421.8750,205.9170,-59.5025,138.1759,-72.5259,122.0705,10.1740,-105.6700,-60.6844,-89.6919,-52.3987,165.5208,-70.0840,-20.7026,14.4691,-123.7112,-85.7282,39.8094,-62.8306,71.7363,-61.0608
-3414.0625,131.1584,-28.2886,85.6367,-7.0472,156.0442,117.3875,-34.7438,9.2967,-129.8898,-19.5221,14.6640,-35.8124,85.9673,-25.1876,-163.6524,-235.7493,0.4190,-92.0103,-3.2399,-100.9138
-3406.2500,11.4840,-7.0037,45.7376,50.5246,107.1225,178.6893,-83.7143,71.3760,-141.9816,42.4643,-34.1023,-11.4239,36.7534,-73.7506,-175.4789,-211.6691,23.1213,-133.6993,88.8911,-149.6531
-3398.4375,70.9565,-18.5968,113.6585,39.2373,209.3616,171.1314,-18.5332,26.5982,-39.9072,-2.3948,-4.7107,-92.8742,28.7000,-155.1793,-147.1384,-219.4508,81.9682,-211.7706,148.1885,-231.2416
-3390.6250,84.8378,30.1869,56.1599,-16.6583,110.0048,72.9653,67.0545,1.2183,81.5884,-64.8520,-66.9217,30.0837,40.0659,-217.2226,-98.3917,-133.8355,61.2032,-170.5688,125.8883,-182.4286
-3382.8125,79.0159,59.2393,48.6950,-23.2662,102.9517,28.0905,58.9446,-79.8603,74.3933,-108.9963,-37.8281,169.3451,-42.2610,-187.9769,4.6688,-178.9118,55.7259,-146.5636,154.9014,-153.3143
-3375.0000,124.4426,104.5122,38.8388,-12.6347,148.1656,-73.5371,104.0968,-145.6894,82.4632,-174.8873,-102.4859,288.8617,39.6790,-142.4941,-24.0051,-207.7468,30.4810,-106.3598,95.1683,-107.9469
-3367.1875,83.5499,134.4565,-0.5671,-52.3091,102.0819,-119.4626,57.9541,-189.8140,110.2450,-183.0743,-183.4523,391.0876,31.3365,-77.3233,4.0334,-105.8861,60.9192,-48.6847,89.1438,-42.8680
-3359.3750,134.8524,150.5685,33.3784,-71.7965,118.2090,-212.1969,74.0173,-247.7411,126.2433,-203.0526,-95.2192,443.5157,-26.7994,-23.9675,94.2891,-126.8167,77.5483,-39.9397,70.3356,-26.5883
-3351.5625,153.9151,204.4024,-7.7571,-87.5429,62.0933,-268.1892,17.8406,-266.9203,70.0048,-223.2755,-113.2440,534.6957,100.8371,30.1237,74.3005,-108.9960,26.9152,3.4729,-16.7206,27.4464
-3343.7500,130.7257,145.9571,33.5604,-75.5494,38.7336,-291.4408,-42.5847,-254.3525,9.5321,-136.7404,9.4836,438.6303,40.2294,43.9493,51.0784,-22.4287,74.0225,-19.9954,30.9889,4.2350
-3335.9375,186.5893,201.5340,81.0646,-18.5180,61.4397,-232.6495,-56.9450,-194.7357,-41.8726,-151.1490,69.2613,387.6169,25.6793,-7.1964,0.9208,-110.8164,95.1682,-30.6679,-124.2418,-9.9283
-3328.1250,168.1490,323.7841,68.5244,138.2020,-71.1497,-144.1647,-114.5936,-180.4192,-136.5589,-209.8470,46.7359,402.3060,-34.1474,7.3412,-167.5297,-168.5048,146.9957,30.2651,-106.7656,41.6147
-3320.3125,249.4969,333.8037,131.9894,184.7142,-95.9264,-131.8898,-139.4339,-242.3065,-52.4223,-271.7416,132.0152,340.7935,-95.1659,-90.3339,-192.1649,-120.3933,228.6235,6.8721,-27.4752,16.9565
-3312.5000,307.6408,286.6008,52.2497,137.0268,-108.8978,-145.8203,-44.4573,-292.3969,44.5339,-211.8324,45.0882,401.0834,-36.3677,-177.2208,-132.9920,-61.4927,76.0453,23.4394,-39.3811,40.0977
-3304.6875,257.4293,201.0210,-15.2791,51.9818,-127.2149,-164.1069,-24.8266,-236.8335,-10.8489,-156.2623,26.8035,383.0283,-126.9159,-47.4665,32.8378,-5.9385,-42.8936,77.2564,51.3805,95.8910
-3296.8750,202.5326,109.7086,-72.2053,-37.7806,-114.2223,-150.0977,61.1101,-186.9644,76.0809,-106.3797,4.8245,249.2719,-114.1588,-34.4267,156.9801,7.9215,-168.5528,128.4523,101.4501,145.9844
-3289.0625,62.4343,-29.8339,-125.3019,-141.7617,-151.4335,-151.2904,133.8470,-78.2872,222.8215,3.3178,-106.3546,65.3200,-41.5905,-72.5990,155.9255,79.5897,-168.4335,173.4273,278.3264,181.8876
-3281.2500,-19.1314,-146.8608,-77.9632,-223.2009,-13.0912,-159.9350,199.1339,-49.0476,361.1268,67.5803,-114.9839,-126.0856,-86.4731,-80.2218,184.4311,34.8123,-108.7752,100.9229,372.7773,100.3390
-3273.4375,-20.8043,-149.0149,-87.2276,-154.7449,21.1660,-14.6776,271.3360,21.0963,249.3422,28.7497,-189.7257,-53.5881,-51.4378,-81.9568,35.8428,-113.0724,-145.2209,111.3610,230.1338,98.6880
-3265.6250,-126.6924,-10.3964,-47.7086,-15.4900,-15.7746,57.3814,86.3447,20.0402,27.3630,-81.2745,-80.6849,17.7236,-126.5971,-82.9005,-1.9325,-77.1572,-39.8708,113.9491,194.3029,97.8417
-3257.8125,-96.0865,-49.3101,-35.0215,16.2587,56.8014,19.9371,121.8551,-17.5207,136.8958,-83.7935,-46.1434,-56.4597,-55.2483,-120.3540,34.8081,-5.7392,-80.0258,36.3934,190.9756,23.4949
-3250.0000,-100.5393,-160.2970,-77.6325,-94.0545,89.3294,-21.5631,191.3141,-22.1316,279.3918,22.6438,-159.6503,-96.6793,14.0670,-52.8657,30.4960,99.6368,-118.2420,25.8892,150.5956,19.1066
-3242.1875,-152.2469,-177.5637,-66.3217,-144.6369,145.6135,-38.3263,174.5261,-1.9919,262.6429,78.8377,-139.4012,-149.1466,-76.8623,4.3649,123.9508,156.7716,-100.7152,7.6174,133.9817,2.4771
-3234.3750,-131.1462,-157.0654,-41.6602,-124.4324,128.7097,-55.2925,120.5510,-20.0529,171.7057,98.8330,-120.3595,-129.8133,-56.9765,23.3866,143.2172,175.7063,-44.4003,59.2460,14.1714,58.6551
-3226.5625,-123.7058,-221.2405,-30.1460,-116.8833,25.1526,-83.9072,16.9310,24.2355,69.1261,142.1797,-39.9788,-122.1255,-49.7292,104.7616,113.8375,219.9950,-1.7435,62.6218,21.7217,66.1907
-3218.7500,13.7724,-223.3976,50.2334,-84.2949,98.6603,-49.4752,-20.6269,23.5767,-5.3855,104.5845,69.4550,-196.3922,-51.4218,104.1776,76.5221,108.3370,-4.0463,26.6996,-15.6614,28.7713
-3210.9375,18.6875,-220.1329,9.3918,-114.2710,27.6282,27.3993,-17.7157,63.3698,-39.4296,108.4508,-1.6665,-193.2065,25.3644,107.0264,6.6664,75.1240,-33.9125,68.3637,-45.5896,68.8038
-3203.1250,-26.7626,-301.2518,59.2022,-123.6097,93.2503,-18.0859,-26.1491,17.8170,26.1954,98.9806,63.8663,-274.3746,16.8083,24.5139,71.4722,102.5659,26.8635,26.1359,85.1462,23.4901
-3195.3125,-1.8680,-312.0436,69.2984,-64.6118,158.2295,-26.2272,75.7802,-27.3822,18.1929,-19.1345,18.7449,-246.2012,118.6087,-57.6563,63.6390,94.3622,16.9809,-13.4798,75.2416,-21.4743
-3187.5000,-111.5282,-353.4148,-18.9137,-34.1728,42.6584,42.0799,34.1687,40.8729,12.6556,85.2138,-60.9418,-214.5784,75.8582,10.6203,21.2590,125.6177,-23.4557,-16.4183,104.8007,-26.9852
-3179.6875,-135.3419,-305.9669,-26.4523,13.1017,94.9504,131.2298,49.4146,92.9806,27.9892,101.4198,-44.7804,-199.1122,17.9584,25.7385,0.7422,-6.2733,-81.0444,-68.5218,83.2250,-84.6483
-3171.8750,-81.1590,-217.5456,-56.4016,-2.6344,112.2514,148.3763,103.6754,110.0909,45.3360,81.6297,-101.6290,-180.6409,72.0745,6.8445,-54.7657,-25.1644,-166.6422,-15.8007,-3.3502,-30.3060
-3164.0625,-33.3452,-240.4935,-12.3788,-24.7316,162.2030,161.1691,79.5888,85.8533,-14.6628,57.4926,-51.8265,-204.5155,48.8480,19.5918,-41.6153,-49.4022,-153.5959,-1.8249,44.7390,-17.3090
-3156.2500,-4.2887,-283.2127,30.7198,-31.5846,230.4142,156.2140,148.7603,80.8659,16.5983,15.6142,17.2249,-209.1458,153.8766,-59.4176,-46.2051,-165.3887,-161.3078,-41.6923,3.0826,-59.0672
-3148.4375,-82.8993,-326.5972,9.2546,-39.0917,186.9822,148.6086,141.2873,73.2337,46.2162,82.0998,9.6109,-180.4193,219.2650,-67.0861,-53.4456,-136.0187,-133.6799,-51.3253,-4.2218,-66.4717
-3140.6250,-19.4745,-405.9547,57.9495,-46.5537,179.6141,67.0523,96.8686,102.6562,112.8979,74.6408,75.0382,-223.6442,138.7046,-37.7140,12.3737,-106.5965,-70.0020,-61.9535,-11.4607,-73.8272
-3132.8125,-18.4538,-404.7348,20.6047,-10.4204,65.8513,64.0948,57.0578,135.6793,109.1927,107.7827,35.0563,-153.2713,134.7562,-4.7478,-27.1977,-109.5685,-68.7277,42.9321,-80.0992,33.4196
-3125.0000,22.3620,-294.7342,64.3650,30.5001,32.8851,67.9316,-12.9580,103.5021,-33.7004,38.7365,38.8799,-39.1014,-80.3849,-36.9880,-22.9607,-104.7314,42.3388,89.1263,31.0691,74.4718
-3117.1875,101.4778,-146.4582,89.5897,74.7093,80.2285,41.0605,-39.6695,2.6264,-132.2800,-25.0041,49.0108,44.3630,-71.2214,-63.9365,-49.4100,-59.5951,51.6990,56.6022,-30.4586,47.8232
-3109.3750,58.0268,-154.7504,55.8161,32.3594,-0.9747,-3.3587,-82.9212,-4.8000,-67.4022,41.7089,78.5814,37.2738,-42.5898,1.5587,-93.3976,80.9923,44.5011,40.5782,-2.5380,40.6295
-3101.5625,129.4030,-331.2198,86.6703,-73.1403,3.6813,-35.9237,-42.3151,-0.3709,47.3347,82.2735,155.9898,-68.9749,-1.1037,5.9001,21.4746,121.4370,45.1509,-33.0598,104.2507,-28.7189
-3093.7500,144.4175,-387.0652,69.0096,-163.0000,17.0049,-95.8375,81.9692,12.7068,61.7352,59.4944,22.0327,-164.5787,122.0569,55.8809,72.0032,134.5320,60.4379,17.9592,49.6897,21.5786
-3085.9375,-46.0409,-438.3826,12.1462,-247.3197,-1.1122,-113.2044,63.8157,68.3402,80.6945,115.2748,-68.3788,-218.6341,104.7836,148.4047,165.0875,190.1809,81.2658,76.3072,140.6820,77.4290
-3078.1250,-14.0601,-443.2697,16.0846,-287.2015,69.2317,-117.1261,134.1182,64.4275,150.1222,111.5126,-36.3311,-296.2472,137.9627,70.3696,272.6369,149.2777,6.5399,71.1702,102.1288,73.7263
-3070.3125,-47.2863,-441.3717,-45.2367,-249.2912,33.3707,-116.2488,172.2228,65.3147,188.3641,75.5539,-71.4897,-332.0643,248.9517,-1.8702,273.9936,224.1841,-95.3892,107.8825,34.3726,111.8283
-3062.5000,-128.6809,-453.6346,-47.5349,-224.5313,59.3544,-90.5187,161.1750,54.0555,214.4659,101.4561,26.1913,-379.0316,200.7807,-49.2568,336.2112,249.9542,-141.4718,97.3636,58.4739,100.7807
-3054.6875,-61.2311,-387.0628,-9.4431,-191.9233,92.1887,-94.9370,119.9809,13.6564,174.4296,134.2217,95.7142,-310.1506,197.4673,-53.7954,259.2801,172.5786,-143.7130,125.4370,-48.5728,133.5821
-3046.8750,-88.6000,-345.3113,-7.3247,-149.1261,-8.7794,-50.1523,17.9956,57.4649,71.5908,142.1981,103.4303,-154.0778,57.3665,62.8697,83.5515,143.4208,-65.7644,136.7716,-4.4088,141.5914
-3039.0625,-61.1899,-282.7850,40.8434,-85.5490,23.0598,-54.5701,13.8208,54.0830,68.5666,101.9795,99.9456,-121.2192,-19.9277,59.3333,43.6349,103.0751,31.9755,64.5791,22.5712,64.4067
-3031.2500,-65.1471,-181.6222,35.1962,-20.3308,-54.4555,-96.3403,45.3029,11.3573,63.2070,59.4278,57.1025,-89.7090,11.4348,16.4417,1.3726,60.3840,99.3535,97.1697,-15.8011,95.8784
-3023.4375,-17.3708,-205.7095,127.7159,-7.3625,-41.2283,-46.3574,-14.4727,61.3930,-33.3946,35.6443,144.0024,-223.4457,-84.4723,-42.7035,51.8696,36.4530,217.4818,119.3022,67.5745,109.0999
-3015.6250,16.4469,-243.7566,89.6268,-9.3356,-42.9544,-12.3205,19.8021,96.4871,38.0621,33.9221,67.9499,-262.1365,-13.3331,-118.8012,50.4225,71.5828,145.6501,118.5153,30.9947,107.3719
-3007.8125,-73.2051,-228.2737,-26.6693,-27.7684,-208.1384,42.2660,-34.3773,188.1391,57.0765,199.7607,-23.5632,-170.2777,-67.6251,-27.3438,-4.4652,200.2811,92.3586,94.8593,12.9631,89.2056
-3000.0000,-31.5254,-151.4661,5.8535,50.1299,-123.9669,53.1927,-61.2012,162.1396,31.4580,247.9543,-13.7231,-159.0790,-167.5580,-54.5289,-29.9801,137.3384,99.4127,34.2929,-14.7119,26.3954
-2992.1875,42.4885,-113.3155,60.2155,89.3692,-83.4455,57.4660,-56.6676,93.4910,-37.7950,141.4976,-46.5427,-117.5301,-54.1176,-159.3691,-99.1351,-5.2505,173.8040,44.1473,-10.0466,30.9437
-2984.3750,-8.5298,-61.1649,92.2707,108.6061,-22.9294,43.7426,-32.1314,42.8460,-50.0453,92.0510,-22.3691,-131.9820,-103.6744,-209.2112,-74.2814,-54.8287,228.1887,-36.1014,115.6222,-55.5042
-2976.5625,50.4930,33.0268,42.6183,97.8921,41.6443,-1.9257,32.4664,34.2564,51.7621,83.6544,-105.1545,-140.3905,-75.1848,-219.0075,27.6287,-63.3485,112.6183,-87.8916,34.3493,-100.9046
-2968.7500,-33.0976,19.6098,-39.8222,84.5730,-10.3832,19.8100,53.4749,55.0709,146.9759,104.6682,-230.5541,-155.3991,-91.2962,-161.3970,85.9322,-42.4646,64.4458,-29.0196,57.4799,-42.9007
-2960.9375,-141.8057,-19.9230,-47.5414,11.1451,24.4954,17.4423,89.3899,53.7896,219.1074,29.5923,-196.0560,-193.5155,-92.5207,-89.8873,158.1403,-7.6695,61.1709,-66.2301,160.5282,-81.0005
-2953.1250,-135.3318,-14.2714,-73.8844,17.9081,31.5756,24.2704,170.5183,60.7118,189.4519,-36.2777,-225.3647,-150.4362,61.4680,-46.1824,55.5562,36.3327,-1.9101,-61.1886,26.7752,-73.9007
-2945.3125,-100.5400,19.7274,-68.1823,18.0167,-41.0000,61.4530,59.9954,60.9962,117.1484,0.2164,-189.3254,-150.0144,24.8089,26.8725,19.3227,110.6850,33.3574,-66.0252,27.3788,-73.4505
-2937.5000,12.0937,25.5764,-36.9312,-10.0193,-33.7213,31.4967,30.3237,68.1376,50.6954,7.5619,-109.4353,-105.7552,69.0004,70.7723,-10.0578,80.8859,5.4792,-66.6847,-70.1704,-66.1593
-2929.6875,-76.8855,111.8255,-97.4943,7.3495,-92.0476,83.9504,-63.9447,120.6845,-43.3592,97.3110,-130.1652,-16.0984,84.5988,86.0777,-30.0369,59.4993,-48.0064,-16.8434,-123.3273,-13.4706
-2921.8750,-129.4415,163.5115,-84.4568,59.1594,-109.9242,102.8573,-118.7592,139.6882,-97.9531,116.5184,-38.4564,3.0033,-43.3567,104.8478,-10.5521,78.5844,-30.0525,-33.0850,-71.0270,-31.3376
-2914.0625,-24.4562,198.7422,-82.6844,25.5103,-145.2481,102.3134,-82.0163,139.2440,-97.9868,43.2758,-39.1977,2.6651,-43.7514,104.1707,-47.5196,42.2215,-64.5555,2.7555,-69.1809,5.3430
-2906.2500,-45.3348,71.1318,-75.4989,-30.9881,-204.4251,116.9087,-67.1299,153.9500,-45.8745,58.1888,12.2132,-56.5106,-101.9948,118.6370,-106.3417,93.0122,-49.8983,21.0323,51.8090,20.1770
