Time,Fp1,Fp2,F3,F4,C3,C4,P3,P4,O1,O2,F7,F8,T7,T8,P7,P8,Fz,Cz,Pz,ref
-4000.0000,-69.0864,17.7805,20.1691,38.3619,-20.8390,-20.9844,-8.9759,-32.4430,3.0459,52.1373,-213.4452,95.2924,8.8135,45.4407,-89.7215,83.2954,-26.5716,-38.8843,-11.7235,5.5358
-3992.1875,133.7846,71.8691,-72.7085,21.7445,-112.3431,-3.7348,-28.2732,-50.9963,-53.1041,-76.3750,352.3404,77.7225,-156.1922,-45.9417,109.5688,28.9589,61.7793,-90.7040,-29.1642,23.4434
-3984.3750,175.4453,62.9069,-72.5957,-48.8862,-112.8567,-41.5026,-28.5774,-87.5421,-53.2613,-148.8925,496.2030,79.1498,-84.1936,101.6840,-38.1418,67.6404,61.1237,-22.5283,5.3880,23.3566
-3976.5625,-47.1879,69.6499,23.4694,77.4421,17.5900,-20.3260,30.0655,-103.1218,-68.4675,-163.4530,-293.0611,102.5317,-25.2323,87.2760,-54.9181,17.2936,185.4118,67.6083,-45.1165,8.2219
-3968.7500,326.2074,98.8942,3.0245,-47.7437,-3.4690,-78.6672,-27.7991,-161.1931,-125.1814,-293.5231,786.2847,-26.5984,-82.7824,-116.6438,68.8288,-74.5561,200.2005,81.2440,-31.1249,-12.4114
-3960.9375,-12.1903,31.1925,45.7795,27.2695,186.6726,1.1919,125.5387,-192.0537,-8.6927,-213.3850,-131.1951,17.4690,70.8781,-35.3499,-109.2489,6.8082,98.1811,191.0925,-25.9309,-42.8446
-3953.1250,96.8591,41.9459,42.2873,24.0383,182.5681,-3.1955,121.6244,-159.1462,-49.4562,-252.5012,157.0533,-57.7253,-5.7173,-186.3168,141.4295,-105.0804,128.9139,115.7035,-29.9893,-46.5287
-3945.3125,220.7510,33.6329,40.0784,-47.9100,142.7518,-6.2871,82.0037,-161.9282,-51.9262,-291.3298,556.7169,-95.6362,27.9810,-113.9871,64.4105,-105.6693,90.9379,42.6158,2.2611,-48.9138
-3937.5000,-92.8814,8.3339,145.2162,51.4987,173.2953,59.9773,75.7403,-59.3317,-21.0466,-187.8074,-445.3643,-27.1964,59.0449,-45.2933,-17.2807,-72.8956,119.3086,105.8930,-4.1348,-54.9518
-3929.6875,245.9146,-0.8918,55.7972,-139.6537,46.2875,7.6829,23.9192,-1.2673,-36.7249,-202.8453,639.1008,-151.3256,-66.4564,-171.1702,149.4994,-123.6751,68.1302,-15.3827,84.9235,-70.5422
-3921.8750,-31.5817,-68.4750,59.6273,-135.5656,49.5268,46.6319,63.3461,75.0634,39.8488,22.3699,-59.1690,-72.2108,47.3065,17.2150,-105.4852,28.8051,-69.8060,22.5946,194.2308,-66.8830
-3914.0625,-31.3088,-65.1665,15.6642,-106.2684,41.9672,38.7707,18.9672,140.6189,-4.3793,14.7885,-33.2775,-78.8985,-33.7279,-26.1993,68.7314,22.4866,-76.5351,-19.2323,152.7300,-38.0240
-3906.2500,183.2537,-20.7911,-82.9994,-163.6879,-20.3023,-60.8118,-43.1211,42.4840,7.6871,-82.4930,675.0477,-28.3044,-21.4750,-50.3287,79.2501,36.4609,-133.9604,-43.7705,164.5322,-25.8688
-3898.4375,-174.7621,-37.3546,-17.7037,5.8535,81.3895,-70.4481,-15.2591,33.3152,35.7041,-16.8189,-402.7569,74.2386,116.7408,88.5021,-5.3000,140.3873,-106.4332,54.6505,16.2785,2.2307
-3890.6250,170.6219,19.7020,-96.9530,-69.1594,0.5307,-112.6463,-93.9516,-46.3881,-44.8370,-59.7169,580.9710,-3.7864,-36.6085,-101.2352,171.6196,25.7522,-7.4541,13.5194,-59.5316,32.7778
-3882.8125,10.1781,-3.8034,-74.9556,-11.9311,22.9247,-55.5992,-36.3951,-60.8262,14.8713,37.6236,122.0022,20.4234,60.2999,-3.7181,-28.2222,86.3661,-22.2308,69.6433,-39.0913,18.5718
-3875.0000,-80.9367,-0.8896,-48.1564,48.1049,49.1272,7.2489,26.9619,1.5565,4.3802,27.7657,-221.2242,11.4268,-97.9863,-13.4029,69.7344,77.7796,37.7920,58.5739,-49.8562,8.1644
-3867.1875,179.7248,-6.9687,-178.5685,-112.0718,-46.8830,21.8851,5.1057,-20.2493,19.6724,-67.3041,673.5011,-45.7902,-154.4807,-34.3034,120.5074,57.9822,-18.3871,2.3025,0.1757,23.5575
-3859.3750,-205.7871,-49.8133,-111.9349,22.8071,20.1556,88.5746,35.2938,84.0180,87.0093,37.6873,-475.7763,23.0408,-14.9139,106.8687,-70.6918,164.2383,-25.5221,101.0975,29.2543,17.0011
-3851.5625,56.4909,-36.2568,-179.8062,-42.8167,-49.3078,55.7594,2.9752,51.8039,54.8359,6.1619,335.5016,-81.6427,-119.8600,-71.4724,188.6329,96.9809,-21.1488,-0.5988,-37.1750,21.9443
-3843.7500,9.3103,-25.5671,-172.8830,0.3488,-42.9733,61.7396,46.4535,-15.5995,24.4637,13.4231,229.6635,0.4543,33.9998,82.9885,9.7509,179.5166,-83.9784,41.5096,-99.8012,28.6831
-3835.9375,-158.8692,-22.4551,-88.0063,82.4694,5.3255,72.6740,20.8872,32.9742,36.0512,25.6332,-349.2945,50.4938,45.8168,59.4059,56.8172,156.0032,-38.8639,52.5776,-194.4848,40.3683
-3828.1250,211.2483,25.5179,-95.6390,-65.9280,-75.8852,-46.9033,-24.1900,-11.9331,-45.8715,-55.6701,706.3991,7.0091,-72.8833,-58.6983,194.4124,75.9774,-47.2520,-61.8563,-132.6724,32.5530
-3820.3125,-144.4154,-27.1013,-29.0277,-1.0795,27.1595,-54.2310,42.9790,18.4278,-15.5475,49.2857,-331.6835,74.7684,68.6798,82.4637,-33.7559,219.2073,-54.3970,0.9686,-103.6073,25.9866
-3812.5000,60.8550,20.3545,-19.6185,8.5651,-0.9899,-81.7703,14.9441,-9.3927,-79.4305,-51.9685,189.0665,12.3099,-32.9553,-91.5888,120.8975,156.2152,-10.7376,-25.4011,-130.7466,35.2193
-3804.6875,106.5121,7.0598,-44.1151,-14.7088,10.9590,-70.2208,-9.9980,-69.1060,-67.2201,-39.1402,383.0401,-11.0669,16.5158,-4.5483,-15.3458,170.3002,-67.9769,21.3353,-48.7861,47.5514
-3796.8750,-170.5762,-25.2407,8.8465,70.4766,100.3745,54.7780,-31.4876,18.6479,21.4435,-22.8735,-449.6078,42.9979,32.4495,48.9453,-2.1447,187.8255,-55.7590,70.5376,-70.3811,26.3315
-3789.0625,190.2334,4.1516,-72.7924,-77.9516,-18.8097,9.1638,-39.5833,-26.1860,13.4979,-140.2272,643.2861,-37.5705,-49.2286,-106.1865,172.4889,70.7275,-64.1383,-8.8672,-8.5788,18.5086
-3781.2500,-127.9880,-44.2196,-20.3327,-28.2876,33.1133,60.6511,49.4216,26.0990,101.6537,-14.4714,-262.7137,51.9495,76.2038,56.7819,-34.7881,161.7238,-120.4269,39.8309,40.3272,-3.2183
-3773.4375,-17.6171,-29.4774,9.7291,-35.0203,25.6395,52.7365,79.0190,19.0066,94.4068,-95.1179,-15.1111,-26.9465,-77.7692,-59.6574,177.5478,82.3019,-59.1138,-2.8716,-2.1666,-10.3457
-3765.6250,120.1564,-60.2972,12.9284,-137.6173,-45.6997,17.9632,44.7558,22.0798,97.3040,-164.6390,426.7856,-133.7122,-37.5967,18.0462,142.0518,161.0077,-56.6516,-0.4238,0.4906,-7.3225
-3757.8125,-181.8277,-64.2686,118.6750,-0.6506,23.5136,49.7455,77.0419,54.7284,92.7557,-58.6054,-571.8340,-62.9337,105.1392,50.3141,26.0956,195.2544,44.3581,-5.4122,-40.3062,-11.7503
-3750.0000,214.3430,13.4901,79.8147,-108.2965,-52.8788,-101.0818,-36.2845,-21.2132,-19.4001,-134.1829,527.0701,-100.7812,-6.7390,-135.0427,206.5719,83.8755,146.7763,-148.0055,-77.7037,-13.7793
-3742.1875,-25.6416,-2.3630,48.0550,-68.8442,-12.1770,-133.8151,4.4836,-54.0420,21.5400,-92.6678,-96.8824,51.4562,107.4953,90.7060,-11.8658,163.5853,80.2952,-110.4892,-39.0020,-9.7098
-3734.3750,-31.6074,19.2795,36.8034,-42.8865,13.0303,-145.0467,-7.2577,-28.3505,9.9680,-103.6606,-147.3538,78.1817,-13.7695,6.9483,123.2097,116.7711,105.3262,-119.4595,-83.8014,15.8579
-3726.5625,159.6434,-3.8182,-75.1067,-183.6007,-62.4198,-183.9348,28.3439,-65.2941,45.7366,-67.3240,549.6841,5.2284,-14.6926,-30.4749,120.6555,117.2772,33.7106,-121.0786,20.7545,14.7726
-3718.7500,-240.1124,-91.5330,-29.0627,-71.3597,57.0933,-66.8628,109.8972,16.7360,201.4583,125.9663,-583.3802,-21.7836,67.3506,52.0606,-19.9578,164.7154,5.0387,25.2661,62.2556,-13.3644
-3710.9375,90.1053,-95.5677,-29.7766,-211.8789,18.8617,-68.5420,72.6941,90.0313,126.4212,51.4943,368.9077,-204.5707,-117.3676,-95.1730,198.7081,54.3768,3.6210,-47.1371,95.9980,-14.2536
-3703.1250,-17.2982,-96.9827,-7.4001,-153.3100,3.7339,-47.1238,20.5908,112.4361,38.4816,74.1243,58.3708,-145.2769,16.0205,38.6920,-38.5290,115.1207,-45.7013,-25.4320,117.8411,7.9534
-3695.3125,-80.4281,-83.5478,19.0297,-92.6869,-7.3268,-21.6485,-27.4612,101.9091,-46.4054,-9.1963,-174.1563,-117.9472,42.4586,-45.3932,60.2906,105.8939,-19.9732,0.3364,38.7289,34.2080
-3687.5000,223.7186,-77.8442,-75.7517,-182.2847,-101.5927,-80.3764,-84.7227,43.1932,-103.5004,-30.7398,832.2837,-211.8505,20.6857,-102.7012,147.9451,49.4350,-110.4400,-20.0954,-17.5839,49.2612
-3679.6875,-136.0484,-122.2988,-35.2748,-2.6310,11.4021,-3.8492,-44.7320,47.7382,-27.3375,120.9635,-158.0640,-132.5175,172.1832,86.2491,2.8466,55.2052,-211.6552,89.7376,-188.6436,53.5592
-3671.8750,147.2240,-77.4129,-107.5953,-2.7778,-62.4020,-5.1222,-118.5486,47.4994,-99.9802,47.8459,648.8531,-243.0119,24.8722,-97.6254,221.9823,-17.8559,-142.6555,17.7724,-259.5055,53.0541
-3664.0625,138.9417,-88.3260,-65.9253,-32.9405,-93.2097,0.6042,-76.3732,54.2719,-94.6293,90.7185,579.8780,-272.5310,68.5595,-17.5023,6.1209,-9.9419,-102.6562,22.8122,-185.3552,22.5452
-3656.2500,-2.5246,-76.5603,110.9002,29.0566,46.1448,29.4921,-48.0522,84.2130,-66.1308,-26.2534,-54.0026,-278.9096,97.3986,-24.2281,-2.5955,-126.9035,62.4998,13.0183,-159.0540,-21.8178
-3648.4375,346.3556,-13.6308,114.8620,-73.8123,12.6417,-41.4739,-7.5936,14.3144,-62.4928,-206.0890,867.4286,-348.1672,-8.6221,-203.8340,109.8723,-267.7532,134.8130,-55.6279,-52.5977,-55.0310
-3640.6250,33.8022,-53.3799,157.1679,34.6716,90.4893,-1.0812,70.2108,55.7797,52.5007,-127.5724,-48.7978,-305.0884,106.7209,-51.0772,-107.3179,-152.2719,137.4725,17.0890,-14.7898,-86.8940
-3632.8125,236.1321,-17.8671,166.1756,8.8621,25.0374,-28.9873,41.6990,28.9623,-11.8159,-118.3692,473.7139,-369.3311,-68.2419,-189.6311,84.2228,-251.1218,180.8432,-44.4924,-6.2878,-78.0570
-3625.0000,283.1980,-25.7693,111.5257,-76.6147,7.9266,-47.5472,-12.4768,48.4986,-66.7902,11.1770,712.7139,-312.2507,-11.8543,-95.8435,-44.8721,-194.6472,93.5626,-25.7196,47.5680,-58.8713
-3617.1875,-1.1254,-41.1641,113.4808,32.5106,46.4311,-9.4982,-48.0542,123.6542,-102.1637,161.3326,-95.7492,-198.5852,63.1499,-19.4520,-117.3672,-118.5899,61.8813,12.6690,16.0247,-20.0863
-3609.3750,317.0831,3.5695,12.7738,-62.0320,-127.7121,-1.0950,-148.2845,97.1736,-128.1955,23.8154,869.2908,-225.6015,-74.5078,-119.7314,74.5291,-180.2213,37.5483,-12.5922,96.8276,26.0508
-3601.5625,22.9227,-49.1931,-16.3930,-19.0367,-84.2966,79.8650,-67.9575,105.2505,-48.6755,68.8469,102.9007,-143.0820,44.3982,108.5476,-102.0232,-98.3201,-26.2457,100.7099,139.1860,33.7382
-3593.7500,74.1731,-16.0730,-60.6608,9.8549,-127.9672,71.7337,-39.7297,171.2397,-19.2562,61.7787,241.4160,-113.6871,-36.7925,28.7131,35.3507,-177.5508,-34.1348,22.9153,166.4401,26.3236
-3585.9375,219.1031,-13.1477,-97.2385,-96.5695,-202.9368,-3.6978,-76.8138,170.9313,-20.1465,97.4020,718.7828,-113.6260,-37.2928,65.5597,-40.5540,-104.1152,-70.3237,-14.1696,236.4000,25.6094
-3578.1250,-95.6672,-17.7926,-34.6124,36.2144,-139.6951,96.0889,-86.6961,234.8387,-30.8288,161.2266,-285.7141,-13.3851,-47.5774,165.6127,-124.2621,-40.5037,-9.3105,82.9646,191.5641,52.0940
-3570.3125,265.4050,43.4407,-69.2931,-68.3146,-175.7489,22.5837,-159.8872,199.4546,-101.8134,89.7306,707.6160,-84.4790,-192.1725,-53.6657,21.7702,-184.2391,62.4097,48.7969,228.4261,53.2785
-3562.5000,8.7154,-30.5750,-42.8343,-44.7026,-39.6557,85.2372,-23.9329,227.2245,-2.6540,227.3836,34.1578,-94.4421,-55.6083,11.2094,-209.0491,-155.8559,-20.7240,141.7885,216.4324,6.6132
-3554.6875,-23.1801,-37.8997,-8.6743,-13.3810,104.1384,81.6040,46.7132,261.7058,-5.7965,187.7397,-79.6088,-133.7281,-58.3505,-139.2234,-67.1505,-231.7966,-25.1541,137.4897,105.1331,-33.3518
-3546.8750,183.3972,-45.7069,-90.6722,-127.2267,58.7704,35.8254,38.1996,180.0427,22.9042,68.9325,647.6239,-177.2039,-29.2543,-146.8273,-2.3655,-238.9244,-104.7282,129.0414,96.6956,-41.4677
-3539.0625,-216.1286,-111.5817,-60.2680,-27.6657,162.8121,65.4583,141.0865,210.7868,126.0080,136.5259,-462.7624,-110.2981,148.2637,30.9732,-84.1882,-207.6872,-146.9016,227.0034,54.6609,-48.1898
-3531.2500,96.3661,-59.2411,-166.9670,-130.2102,91.7617,30.9973,69.8608,177.4359,55.0018,66.0107,458.8582,-143.5200,-32.3332,-112.3505,138.9225,-277.5949,-74.1720,159.8667,57.5203,-45.0123
-3523.4375,-15.3179,-65.6727,-148.7272,-76.8102,73.6577,49.4967,88.5759,197.0389,73.9394,122.4447,108.4934,-123.8080,23.0203,17.2821,-64.0142,-184.5744,-56.4967,211.6923,145.3388,-62.8812
-3515.6250,-112.5653,-53.4703,-58.7366,7.3421,126.3119,101.7534,104.0364,249.3957,89.6251,64.6286,-317.1352,-144.3575,2.1283,-76.3319,23.8135,-240.8255,61.9355,190.2770,88.9055,-83.9999
-3507.8125,181.4268,-31.0046,-111.0023,-112.7747,36.7135,48.7607,51.2430,198.5062,37.0557,49.5556,587.1052,-196.1872,-13.0239,-165.2193,81.4300,-292.3627,46.1219,69.6142,108.2326,-99.3637
-3500.0000,-215.9681,-95.7021,-97.7175,-29.3470,123.6770,98.3296,100.9947,248.1648,87.0383,210.0443,-467.0915,-71.4864,111.3898,32.4462,-90.4080,-205.3757,-81.1461,82.5173,50.1078,-86.1775
-3492.1875,57.5815,-29.9022,-117.7820,-81.2744,-6.7050,40.5608,7.3880,266.4788,-6.3309,80.1757,285.4208,-54.1626,-18.5577,-60.2585,109.4381,-223.7760,-63.7570,-39.9241,-36.3721,-32.3370
-3484.3750,31.5313,-7.0227,-150.2011,-41.5660,-114.4341,43.4532,-64.5745,232.4381,32.9469,156.9523,250.6716,59.7869,-15.8524,89.6844,-36.0481,-110.5534,-128.7235,-71.7081,2.8024,7.1564
-3476.5625,-166.3959,6.1898,-98.4230,80.3450,-98.9545,58.5746,-49.3374,285.6054,48.4314,172.9382,-431.9241,111.9176,-36.9426,105.8268,-21.3225,-130.1600,-44.4904,-21.2720,-52.8206,22.8507
-3468.7500,224.5504,81.6906,-102.3096,41.5932,-176.1320,17.0596,-162.7546,171.1219,7.2646,59.2595,592.9730,-1.6321,-149.6979,-81.7127,47.7956,-244.4615,92.0956,-60.4770,-22.0875,18.8956
-3460.9375,-114.3445,61.1054,-44.2997,202.7397,-82.4014,111.4627,-69.2721,156.5369,28.9968,44.4940,-451.2385,57.7032,-18.5378,14.6545,-115.1902,-184.8927,111.5806,100.2341,-1.4486,3.8372
-3453.1250,45.4037,65.7635,-45.8376,166.3288,-47.2107,109.3321,-107.3419,155.4013,-46.8242,-104.8337,-12.9735,-54.5359,-129.9335,-97.5429,102.3031,-295.9093,144.5275,98.4094,-3.3593,2.2272
-3445.3125,99.4795,71.0056,-99.3367,113.9477,-63.9658,55.2586,-51.3617,103.3086,-63.5963,-157.1215,191.4630,-33.7553,-73.2834,-2.7031,11.8698,-275.9095,127.5272,152.6396,84.7897,-14.3322
-3437.5000,-159.9674,71.7340,22.3676,228.7712,56.4983,102.4073,-4.1745,113.4188,-53.1545,-110.2044,-679.9587,50.2061,-25.4188,44.3388,-89.3605,-264.7400,171.7288,196.0851,23.1367,-40.6919
-3429.6875,210.6141,117.0092,3.1689,104.6822,1.0596,-27.3357,-23.8943,21.6168,-72.6207,-166.2045,403.8551,-4.7580,-118.4694,-84.5472,37.5526,-356.5148,152.0409,70.6323,38.5830,-59.9506
-3421.8750,-88.7937,68.0514,58.1757,156.7887,92.8225,27.1345,67.5877,41.0064,19.1177,-73.0014,-423.1188,87.4571,47.6885,81.7747,-165.3369,-227.1179,62.5606,88.3927,91.2364,-78.0114
-3414.0625,-15.1828,70.8732,91.5912,188.3050,88.9940,23.0212,63.4667,73.7897,15.2600,-113.3998,-243.7021,10.0508,-65.7616,4.4765,51.1974,-267.3613,58.4981,13.5617,51.2889,-81.6752
-3406.2500,134.2751,80.0356,23.9954,124.8120,21.1656,-8.0836,32.3385,44.5615,21.3979,-143.8038,277.8553,16.6229,-59.2204,48.1536,19.7626,-187.6498,-5.5653,-50.2724,93.3437,-75.3387
-3398.4375,-205.7832,37.0476,111.2959,208.2285,71.2490,78.7318,45.1108,58.2285,34.4432,-56.2979,-737.7452,104.0851,-8.7610,208.7407,-40.7645,-64.0637,7.2628,-37.1913,0.2935,-62.0981
-3390.6250,169.0984,79.4990,95.3327,53.3804,-17.9275,-47.6919,-7.3760,5.6339,-17.7640,-182.0416,312.5215,15.2740,-135.5626,46.0588,200.5067,-116.7588,97.8376,-122.3617,-49.0064,-41.1015
-3382.8125,-61.9880,32.5827,134.1620,55.3198,20.6961,-9.2983,66.9382,-29.1745,56.8290,-69.9823,-309.3660,90.2463,50.4427,159.1834,-19.4138,-40.6705,29.2075,-14.7243,-47.5037,-39.3004
-3375.0000,-82.0312,39.1682,177.2489,61.5112,62.5771,-40.6298,36.4995,-22.7403,99.6719,-100.6741,-414.0369,96.4519,20.6965,-18.4431,95.9389,-108.3566,34.8370,-8.8295,-77.7523,-33.2448
-3367.1875,147.2520,18.5622,38.5249,-71.1132,-39.3453,-69.7466,44.2470,-51.1212,70.7079,-129.1698,403.6451,-5.1697,-7.8658,-83.8894,177.5157,-135.8814,-27.3270,-71.7304,1.2093,-24.9880
-3359.3750,-230.2783,-24.2495,18.7032,52.1664,51.6457,-15.9316,96.8981,3.3953,124.6425,-0.7520,-644.8364,85.0911,82.4881,44.5695,46.9871,-45.5313,-46.5868,-54.7072,18.0755,-7.8320
-3351.5625,110.8137,56.4856,-26.6687,10.8943,-67.9099,-98.6404,14.9887,-4.6519,6.0192,-118.9004,266.2042,40.7782,-72.7177,-74.5461,221.9507,-125.7740,52.6201,-130.2309,11.3900,20.7744
-3343.7500,17.7729,51.3314,45.8545,9.5083,-32.5631,-100.4314,-24.0281,-5.8182,-69.7089,-47.1502,-28.7883,112.3606,73.9776,72.2402,-38.1791,-91.1446,15.7282,-62.8488,44.6132,19.2804
-3335.9375,-81.1788,60.1335,151.0823,39.8325,36.4994,-68.4950,-29.3428,26.7049,-74.7361,-51.6995,-437.1454,144.6366,32.3796,-6.2737,-6.5971,-131.8409,80.5390,-67.7555,-31.4642,14.4877
-3328.1250,249.9413,76.3571,127.3976,-87.7568,12.6567,-164.4439,-53.5643,-32.6927,-170.6677,-184.1616,568.7433,47.9858,8.8670,-102.7087,43.1186,-118.4758,23.4549,-123.5602,-18.4325,27.7987
-3320.3125,-104.8902,50.3665,133.7128,94.6564,92.8251,-49.3693,26.2198,-26.1031,-164.5873,-104.6159,-453.4193,127.3248,162.3680,87.8635,-98.1660,-40.1282,29.3692,-48.3508,-82.3945,34.1105
-3312.5000,154.8842,117.0142,120.7246,116.7687,42.6974,-99.5781,-61.2933,-38.8304,-214.8019,-190.3736,232.1621,78.3470,76.5595,-72.8837,108.2878,-162.1248,85.9897,-130.4384,-95.6571,21.1235
-3304.6875,128.1081,94.9712,124.9760,84.1161,46.8202,-132.5235,-20.5527,-71.3325,-137.7643,-113.8836,200.0845,81.5997,191.0040,5.6161,-34.9883,-194.9024,52.8558,-94.2684,-93.6585,-11.6113
-3296.8750,-95.9310,70.7189,190.3840,146.6188,148.1109,-67.2998,80.3434,-43.6970,-73.5689,-122.2367,-505.9186,109.9964,182.6070,-2.7355,29.8994,-240.5476,78.8728,-31.9322,-171.5118,-20.1925
-3289.0625,269.3122,113.7654,124.6856,14.0029,46.3024,-133.1662,15.1361,-71.1916,-102.4789,-222.7034,569.1133,45.2707,44.1013,-141.2133,147.7264,-269.3265,86.7966,-59.6960,-129.4649,-11.8715
-3281.2500,-84.1963,60.0109,118.1857,77.5880,75.7074,-65.8098,45.1384,-41.5082,-72.1852,-82.9673,-392.6781,148.7358,147.8074,72.5190,-43.2527,-128.9260,44.9171,39.7520,-101.2168,-18.3509
-3273.4375,67.1745,75.6313,97.3359,23.8295,55.7697,-86.7830,-13.2057,-25.1963,-93.2362,-175.5885,28.1916,90.8279,54.1495,-58.1143,119.4482,-185.9096,95.7041,-14.1443,-120.3161,-2.1794
-3265.6250,153.3150,74.0454,73.4262,-34.9933,-6.2207,-74.7839,-75.6020,-48.9586,-117.3337,-200.2612,336.1210,102.8415,139.4371,-8.8153,21.1191,-136.9749,37.4484,-2.0834,-73.4462,9.9410
-3257.8125,-143.3690,53.7259,150.8746,75.5403,108.1541,-33.4019,-107.6399,-8.3856,-77.0676,-122.5677,-577.6910,181.1986,181.0879,69.8340,-11.8573,-96.7116,76.5447,37.3442,-174.2232,14.4087
-3250.0000,219.3587,91.3656,66.2694,-41.9916,60.4747,-119.0488,-192.7311,-91.8819,-197.8533,-133.9271,514.5637,95.4842,22.6668,-52.5935,86.1576,-144.5303,99.5930,-45.2838,-150.0508,2.8275
-3242.1875,-42.8456,58.5568,121.8570,11.6686,152.9948,-62.4663,-173.6211,-37.2018,-142.4364,-41.0733,-273.9774,151.9644,115.4549,114.1910,-151.6287,-90.1573,116.8288,43.2976,-98.6750,-14.5485
-3234.3750,31.9133,72.6599,175.0936,62.9805,132.1668,-46.2098,-194.8615,16.1141,-126.3687,-98.5618,-147.8911,58.0844,21.8891,-53.3792,48.2630,-146.1548,168.7188,-10.4670,-151.6473,1.7291
-3226.5625,201.6904,57.7555,98.7161,-44.3218,55.7277,-122.5379,-198.7030,-23.2013,-165.9009,-64.6591,475.7224,17.5856,55.7141,-92.5629,7.5815,-76.7772,61.0082,-82.8290,-118.2076,35.4094
-3218.7500,-140.5715,-11.8629,115.9915,44.0387,109.9439,-105.1841,-181.8865,30.1142,-111.7701,26.9054,-462.1045,34.7315,146.1966,-2.0814,-121.4534,50.2392,6.9517,4.4699,-137.1122,52.7397
-3210.9375,208.0261,6.1378,-5.7414,-69.6057,-11.8376,-151.8130,-266.0766,20.4029,-122.6412,-20.5369,631.1562,-85.1345,-47.3401,-158.6188,87.5516,2.2302,-2.0964,-73.2421,-111.0179,79.0705
-3203.1250,-16.0013,-54.1219,-34.6314,-62.4074,-4.7622,-107.5697,-149.4142,27.5115,-42.6667,97.8767,87.2928,-42.1531,32.9823,68.7033,-88.5914,83.0594,-100.2960,2.9007,-34.0699,86.2530
-3195.3125,-91.2297,-55.6664,-70.4684,-62.1529,-40.6234,-71.2516,-75.6967,63.6496,-6.6404,61.3527,-131.5790,-6.1210,-3.6454,32.0761,57.3352,82.9221,-64.4447,3.0966,-34.0806,86.4896
-3187.5000,152.9385,-32.0556,-173.4196,-160.0123,-105.5924,-63.0223,-105.0873,35.6533,-34.7179,32.7239,649.5859,-34.1972,-67.3908,-32.6677,65.1952,90.6634,-92.6906,46.1866,8.8094,94.6326
-3179.6875,-204.4279,-64.9031,-66.8186,-24.3161,-0.9989,5.7848,-109.9192,141.1769,-39.2365,139.6530,-456.7833,34.2778,37.4282,110.1504,-122.3995,159.9470,-97.3864,147.8396,4.2508,90.3292
-3171.8750,115.5156,-25.8962,-49.4692,-76.8753,-19.6585,-49.6382,-166.0000,85.4198,-58.0039,10.3204,408.6588,-93.5151,-90.0119,-55.3045,78.7974,29.9539,-46.3249,94.2446,20.4398,71.7792
-3164.0625,-0.9817,-46.8968,-55.0228,-49.3450,12.7851,-16.9427,-61.9768,43.7265,47.3326,43.0942,110.2533,-63.2188,14.6534,50.3357,-109.9003,62.0493,-88.1720,122.7573,84.7364,30.3316
-3156.2500,-147.2021,-37.4853,8.3766,46.1417,76.1918,46.7270,38.0025,69.9561,109.6252,32.8305,-413.2853,-36.9732,-32.7279,-71.0728,-10.6411,51.0819,-29.0648,77.2333,3.9924,19.8383
-3148.4375,140.6592,-34.6328,-97.3837,-90.5424,-30.5555,-22.7378,4.8293,37.0030,150.7650,37.4086,548.1541,-105.8943,-65.2728,-212.6546,103.5046,54.9399,-95.1046,-24.4397,43.1105,24.1980
-3140.6250,-246.5139,-126.1177,-66.1946,-25.2737,38.6528,9.7794,109.6129,105.9724,292.8690,179.9454,-522.5292,-110.8647,41.1437,-34.2769,-48.4044,122.7447,-134.1937,76.8544,108.1849,19.5086
-3132.8125,-21.8909,-105.2139,-82.9589,-111.9511,-15.0904,-6.6278,56.4509,125.9685,240.0227,126.5266,86.8532,-200.7944,-122.4046,-159.8659,155.7713,32.5750,-47.2237,-9.7983,126.3090,2.8709
-3125.0000,-26.7868,-88.9959,-151.6291,-109.5417,-10.7377,-1.9121,59.3948,129.0351,133.2777,241.2034,129.4104,-124.6434,-81.8587,-46.3582,-60.9480,109.4906,-80.1508,-7.3430,164.5454,-29.6674
-3117.1875,-238.5548,-88.0202,-55.4449,17.7253,12.4790,57.6827,45.2015,225.9322,156.3985,264.7476,-618.2885,-101.6430,-132.4623,-22.9972,-37.8181,132.2526,11.7777,-21.0273,115.6389,-43.3578
-3109.3750,127.1469,-34.3023,-98.5198,-94.2740,-67.5540,-20.9568,2.7653,145.5421,76.2674,75.0301,442.8704,-144.9065,-210.3331,-102.9122,66.1015,51.7520,5.4636,-61.9720,144.4842,-49.2985
-3101.5625,-194.4183,-62.6956,-64.7478,8.5734,39.2733,12.2749,35.1926,215.9664,72.9906,146.1724,-478.1665,-37.3117,-30.3417,78.0419,-121.1297,122.0999,-33.0019,4.9362,141.1797,-52.3873
-3093.7500,-30.3319,-6.2130,-80.2196,65.1768,-12.1456,-38.7246,-16.6305,237.1104,-15.5383,131.0641,-51.4721,-52.9643,-82.6061,-10.2603,11.4163,33.1866,-11.7065,-79.4092,91.6153,-30.7228
-3085.9375,46.9058,-2.9004,-148.5504,34.9215,-81.4220,-70.5593,-49.3072,167.3586,26.0810,173.1057,285.4702,-11.4711,-3.7298,31.5857,-57.8755,73.4173,-113.2642,-109.6078,132.2027,-25.9046
-3078.1250,-249.6345,-35.6074,-62.2774,83.2771,5.9104,-19.7628,37.6250,180.1810,112.3112,186.7637,-619.0997,74.6191,46.7534,45.0426,-44.5705,123.2477,-100.2208,-96.1907,39.3962,-12.4857
-3070.3125,114.4553,-9.5649,-118.1134,-75.4794,-87.8610,-113.0518,17.4656,86.8727,56.4475,57.3137,465.3221,-18.3978,-119.8767,-85.6254,193.6692,66.9581,-83.2771,-147.8846,21.4989,4.8369
-3062.5000,-163.1394,-55.4922,-116.0569,-2.3427,-11.7311,-36.4253,92.2121,88.4273,131.4952,132.7684,-303.3723,20.5071,29.4006,100.6143,-25.1941,141.5780,-81.4426,-5.6845,-11.4953,7.0685
-3054.6875,-103.7928,-11.5989,-76.1030,71.7029,-7.7028,5.1214,22.8621,91.8494,98.4401,100.1175,-224.2138,24.3281,-40.4253,-5.2447,88.8636,35.0977,-42.7016,-1.5863,-78.5926,11.2102
-3046.8750,65.9067,-23.7015,-95.1129,-17.2140,-26.6374,23.7347,40.5585,-74.7142,79.4326,81.5111,346.0989,-31.8029,14.7846,-24.0557,69.9964,52.6608,-96.9110,-20.4394,-62.6315,-7.5911
-3039.0625,-281.9350,-60.2345,-21.8181,87.1814,82.7372,317.6753,75.5658,-370.0105,115.7333,155.2255,-683.4072,77.3793,87.3063,49.4464,-40.5775,124.5330,-62.8182,49.0122,-63.3669,-8.0901
-3031.2500,77.5603,-15.7419,-63.6207,14.4720,-68.9890,571.5243,-39.5218,-890.4423,0.9361,40.8390,380.0426,36.4533,-100.2932,-29.1717,138.7776,46.2893,-30.8142,11.3585,-31.2011,24.3107
-3023.4375,-128.0146,-69.2975,-91.9256,22.2571,-61.2132,763.8928,4.9027,-1104.4064,8.6478,158.9543,-127.0070,81.0265,-19.4000,125.7164,-74.3742,163.5449,-58.3074,89.2058,82.4761,32.2105
-3015.6250,-154.9836,-62.7963,-26.0783,50.2021,-31.2810,757.4423,71.4862,-1075.2443,-35.4810,79.2257,-315.9922,36.7498,-63.3594,82.7537,66.6365,118.9513,40.3566,47.2083,75.3006,25.2596
-3007.8125,156.6361,-22.4948,-0.8434,-67.4646,-79.9575,562.4037,59.4717,-1050.7208,-47.2151,-6.1078,556.5311,-12.1373,-74.9327,34.1752,55.0718,70.7561,28.4250,-70.3948,98.5337,13.7087
-3000.0000,-187.8662,-33.8617,128.6426,56.1239,50.6327,508.6366,114.7230,-994.9761,9.3130,50.8136,-526.8028,117.2329,55.7633,126.8606,-73.2514,125.8159,10.7423,18.2670,11.0241,-3.5940
-2992.1875,144.2643,28.8622,135.4302,-6.9928,-16.4714,369.1837,84.2872,-988.9630,-20.8579,-89.9794,364.1947,50.9001,-48.2556,-123.1746,191.7559,-14.8414,52.3701,-45.7745,-88.1815,3.4019
-2984.3750,45.8130,3.2765,153.2671,10.9289,38.4736,313.7954,101.9118,-971.9346,-2.9686,-71.7242,125.2752,68.6155,116.7771,4.8364,25.8174,39.5594,0.0450,-27.7683,-139.3246,21.4474
-2976.5625,-74.6238,39.7064,181.1130,143.8557,66.4271,305.4271,56.5489,-871.9306,-49.0633,-79.4574,-322.7542,132.3393,71.8097,32.8455,53.8808,29.9709,62.7262,0.2412,-217.4641,49.4944
-2968.7500,241.1172,68.9982,90.1496,21.9701,-61.4330,215.2677,-35.6120,-853.7615,-101.9603,-96.0014,652.5240,78.2612,-55.9766,-57.9617,110.1702,11.5754,10.6112,-15.5565,-92.3993,68.7440
-2960.9375,-162.8633,-13.7543,44.6833,49.5933,3.2111,317.6312,66.7395,-716.1205,35.6544,41.9695,-420.7855,142.6960,82.7443,43.7484,-82.0549,76.6918,-33.0086,82.1522,-31.8237,60.4947
-2953.1250,29.6073,-23.2656,-24.4324,-85.4328,-28.7912,287.3546,34.4531,-638.1579,40.6266,-26.7070,173.2467,37.4855,-59.1978,-97.2017,143.0933,-29.8415,6.7272,52.2052,8.1008,65.5959
-2945.3125,25.0055,-54.9653,-55.9057,-151.8231,-60.1482,255.7373,38.8285,-597.5817,82.2559,15.2648,252.9865,41.9260,18.5084,53.4995,0.8989,85.2836,-58.8890,56.9022,48.6813,70.3474
-2937.5000,-259.9112,-126.4701,-59.2277,-84.0509,9.6528,253.2953,72.3709,-454.8824,116.0433,123.3894,-521.2484,1.5344,89.3717,87.3608,71.8583,154.5726,-62.3525,123.7587,9.4075,67.2498
-2929.6875,76.5877,-114.5701,-153.6001,-211.3397,-48.6057,158.8109,87.8633,-403.2656,94.7715,65.4455,524.5606,-128.9140,-42.8328,-44.8505,271.7971,96.8091,-83.8537,32.5621,59.0852,46.1054
-2921.8750,-244.7330,-107.6615,-157.4708,-108.1266,21.6400,192.8434,120.8613,-335.1825,128.0040,172.0043,-397.1933,87.1486,64.4739,99.4528,47.2203,202.5650,-120.8515,-5.1248,21.2663,79.4623
-2914.0625,-43.2950,14.7603,-165.1899,-42.7542,-95.9606,112.0380,2.0227,-306.9755,-26.6059,53.7072,36.1654,189.3644,-53.0816,17.9008,149.8120,120.4673,-19.6927,-114.6560,-53.4035,144.9700
-2906.2500,84.6249,21.1953,-186.2706,-61.7466,-152.9129,54.8927,-55.1542,-292.1534,-47.5595,70.0565,421.2481,131.2321,-73.9932,143.9882,-16.9332,136.0188,-39.8859,-63.5443,32.5856,161.1270
-2898.4375,-211.8988,-3.5453,-72.5904,116.0180,-39.1023,133.5139,-15.5660,-179.6049,28.2501,74.1667,-567.0486,97.8668,2.8538,147.8337,-86.9360,139.3426,31.6753,78.3206,-0.6786,128.0323
-2890.6250,196.4490,62.4637,-23.6145,92.0711,-136.9942,73.4395,-39.6742,-241.7871,4.3575,-95.4396,477.0262,-72.1968,-131.0177,-96.0360,72.3922,3.9698,113.5453,19.4738,45.3541,104.2398
-2882.8125,-66.7350,50.1909,10.1570,192.9239,-66.0847,145.1766,31.0289,-208.1996,39.2701,-25.2432,-296.1277,34.5533,12.9155,47.9103,-186.4915,38.4167,74.2127,51.4226,77.1872,65.2495
-2875.0000,-49.9729,84.7156,-8.2209,210.6349,-11.3229,91.7798,49.5945,-117.7830,21.0352,-43.1894,-277.5030,90.1683,-114.3110,-7.2956,-58.5133,19.7231,90.7325,-37.7822,23.8606,47.1122
-2867.1875,105.0809,52.3741,-89.7096,26.2321,-19.6745,47.2827,41.0611,-90.4984,12.6988,-14.2439,303.1172,44.6870,-122.6433,21.3885,-66.6192,47.9395,47.1547,-46.0983,50.4389,38.8780
-2859.3750,-266.1064,-34.8662,1.1614,77.1847,108.3349,102.1478,94.8952,35.1138,67.7196,78.0599,-781.0371,25.5724,-32.6147,112.4410,-157.3896,101.5255,27.9266,75.9440,66.3729,19.9942
-2851.5625,71.4779,-10.2736,-58.3212,-51.2197,12.9880,44.6725,72.3875,85.3525,8.3880,-54.9996,190.5058,-107.8928,-163.9581,-56.8708,40.5199,5.7718,75.3541,18.6278,149.9611,-2.2374
-2843.7500,-124.4194,-62.2295,-46.9153,-76.7316,60.5382,56.1100,120.7875,168.4680,55.9574,66.8388,-312.0540,-59.4471,-43.4005,101.7262,-168.6838,126.9403,14.6794,63.2180,194.4606,-27.5669
-2835.9375,-193.3172,-81.1321,14.4430,-89.2838,85.0458,8.5084,108.1478,191.5176,43.4842,128.6353,-544.7658,-72.0376,-18.8932,-20.7231,-33.9370,114.0765,36.9587,50.7630,146.9126,-39.9459
-2828.1250,102.6464,-53.6325,-28.8119,-235.4487,-31.0592,-107.6950,64.9142,183.9438,37.4102,85.8276,333.0218,-115.2263,-99.0061,-63.7848,-2.7709,70.6147,30.6381,9.7012,245.7707,-45.9248
-2820.3125,-248.0163,-88.8696,74.5373,-102.0062,72.4406,-39.2833,132.2963,212.9532,141.9486,116.6330,-739.7065,-47.7996,5.4899,76.7664,-120.0267,100.7766,23.9191,73.2456,204.2326,-52.3057
-2812.5000,75.6576,-6.7033,47.9419,-126.5161,-27.0115,-64.8214,68.7336,184.9939,78.5353,-56.5324,117.6318,-74.3178,-131.9774,-96.6494,111.7890,-36.0057,105.2680,-21.1714,109.7457,-41.6375
-2804.6875,-2.7846,-1.6190,47.6951,-55.6852,9.8851,-64.0134,68.5345,109.3558,41.4783,17.6432,-65.6546,-0.4764,-21.0878,14.2877,-72.0503,73.5764,33.9708,-21.2493,73.6181,-41.6198
-2796.8750,-162.7512,3.5244,95.7504,25.4512,21.0879,-51.8985,42.6527,119.0007,52.7352,29.1249,-567.7521,83.6783,27.1045,25.5316,13.4163,84.4807,44.9774,-45.0311,-20.2114,-30.2991
-2789.0625,180.2300,49.3785,25.5895,-77.6318,-123.9178,-121.9918,9.5814,47.4190,19.7916,-41.6018,465.0460,49.6398,-43.9264,-45.4401,52.7092,50.2011,12.7852,-113.0229,17.7655,-27.1741
-2781.2500,-160.2230,-3.8928,79.9272,11.7907,5.5829,-65.5794,64.0238,137.3224,38.3582,124.1813,-508.7470,105.1188,48.5535,83.1026,-148.5192,142.4485,-38.9103,-23.5077,-33.7559,-8.5498
-2773.4375,57.3459,20.2785,44.4693,-56.5792,6.2841,-135.9599,28.6701,136.4098,2.1175,15.1530,117.6478,32.8099,-61.7810,-99.1573,73.4637,105.8983,-1.3961,-91.8017,-67.0811,29.2758
-2765.6250,41.9593,-34.4218,-27.0461,-123.0033,8.9196,-132.3921,31.2696,101.4276,78.8224,55.0662,232.0467,-1.5378,51.8272,13.5372,2.3955,182.3152,-69.9301,-89.1519,-64.4535,32.0520
-2757.8125,-193.8275,-42.2839,54.5480,-11.3148,126.6602,-123.7134,75.9815,143.5401,122.6362,100.0802,-494.5852,80.2318,132.5416,21.3418,47.4157,115.8591,-97.3607,-115.3960,-196.7252,39.9266
-2750.0000,198.0946,30.2709,-1.1099,-130.8865,-1.8560,-288.2901,20.4518,50.3865,31.1928,-28.1749,664.6147,98.7485,77.9925,-106.1249,176.2089,-12.8356,-147.0308,-200.9026,-282.2468,95.5491
-2742.1875,-105.6110,-11.0787,21.3377,-37.3534,57.7325,-264.7614,43.0340,71.3173,53.8537,30.6736,-195.1502,158.3738,174.5531,62.5219,-20.9181,83.5928,-194.5979,-37.3034,-259.6645,118.2692
-2734.3750,28.5844,13.7138,48.2438,-50.3632,10.7745,-236.7829,33.0768,59.6900,43.9673,-88.0333,89.4837,74.4564,53.5528,-21.3885,152.4142,36.4776,-66.6980,-15.2534,-235.6299,71.4356
-2726.5625,164.5464,11.1412,81.5932,-124.9377,7.2545,-240.3551,29.5764,54.5022,3.5338,-128.3073,453.6414,-3.0114,86.9957,12.1438,76.2020,32.8267,-37.3420,15.2403,-135.1352,31.0482
-2718.7500,-139.1314,10.2198,204.4018,25.9491,93.1919,-116.4746,42.5406,101.7547,-20.4467,-80.1291,-561.8790,83.0015,135.8935,98.1385,-21.5784,45.6521,9.4668,131.1854,-159.1989,7.1111
-2710.9375,212.7888,57.0300,80.2553,-58.1195,7.1727,-128.5559,-44.4489,87.0424,-143.3926,-238.9207,491.7298,-2.9267,-24.1794,-24.8341,186.7092,-78.4680,31.3373,83.1722,-32.2159,-5.7746
-2703.1250,-71.3497,14.7481,42.6062,45.3081,6.6530,-55.1437,28.0797,158.8145,-33.8325,-166.2148,-280.1918,32.6522,85.2564,121.7053,-34.5219,30.9339,-6.2932,151.6636,106.2767,-43.1643
-2695.3125,-54.8079,4.8555,22.9164,60.6896,-49.9016,0.2190,45.5762,210.5295,19.6798,-149.5732,-262.2405,-59.8119,-44.3607,-44.8048,93.2051,-24.7034,44.0364,132.1062,156.7178,-62.6082
-2687.5000,129.5496,-20.8775,-37.5788,-68.7390,-74.2637,-60.2290,95.2796,184.4278,32.3870,-99.7530,374.9901,-158.0684,-68.7835,-106.1255,32.1408,23.8744,-15.4303,107.7398,202.3620,-86.8518
-2679.6875,-239.3038,-71.9994,49.2786,49.1909,86.7326,-9.3229,182.3401,233.6758,120.4507,24.4149,-713.5320,-106.9516,18.1575,-19.0755,-100.5922,111.8289,-38.5505,154.7256,144.3518,-109.7450
-2671.8750,94.2408,-50.4216,-16.7694,-83.7817,20.8173,-73.3249,153.4991,277.0206,91.6127,-40.3394,288.0904,-209.7276,-120.8150,-157.9401,91.7946,45.8946,-30.5635,-13.1940,187.4406,-101.5344
-2664.0625,-100.9380,-113.2492,-46.1765,-112.1105,64.5448,-102.6814,197.3147,282.0096,171.4271,113.5652,-146.6378,-165.8383,32.8610,-4.1494,-85.1797,236.6335,-93.9260,-41.4686,194.1937,-94.6733
-2656.2500,-205.5249,-117.9896,-96.5777,-53.4350,88.2756,-152.0400,184.1435,341.0047,195.2430,247.4860,-415.4649,-141.9344,-16.4691,-53.3584,48.8415,223.3945,-70.2818,-123.7454,112.9453,-70.8128
-2648.4375,109.9888,-41.5178,-156.6333,-110.4189,-7.6583,-246.0655,88.3252,242.3466,62.4076,224.7431,481.1509,-127.6847,-76.4659,-113.2353,63.2288,200.5132,-21.2756,-144.6880,92.0502,-56.6017
-2640.6250,-205.3101,-28.0236,-38.9795,72.3047,35.1066,-129.3945,95.2115,284.3967,32.2729,158.7043,-577.6353,-9.7215,40.2463,40.6070,-150.7122,244.3613,20.4335,-66.9222,62.8606,-49.6916
-2632.8125,121.0072,49.3217,-14.8174,59.5270,-50.6310,-104.2371,8.6008,232.9465,-127.3704,-74.8514,255.0909,-59.2503,-82.5534,-82.0603,20.8550,121.7215,78.6591,-115.6640,15.1712,-62.2841
-2625.0000,37.2908,40.4534,-42.2054,68.1936,-40.9222,-56.6446,-18.5504,240.9385,-117.5659,8.0209,81.2991,23.6777,0.0998,37.7236,-190.1398,131.5468,-19.6570,-71.9570,93.9348,-89.4303
-2617.1875,-129.8949,46.6876,16.6152,159.0776,17.9918,40.1412,4.5165,299.1324,-94.5551,31.0758,-483.4109,83.8250,-50.0468,60.7136,-166.9381,80.5879,1.2400,-16.0427,44.8948,-103.3793
-2609.3750,202.6561,85.6310,-50.0247,24.4997,-85.5543,-25.5380,-61.8601,266.8755,-124.9954,-109.3448,515.5242,53.5221,-191.6589,30.2402,-49.1705,13.1828,-27.3033,-9.5892,86.4087,-96.7810
-2601.5625,-143.1598,20.9147,23.3353,95.9271,-12.0925,11.7740,48.7803,265.6214,22.5732,-34.7611,-475.6239,91.2330,-7.2563,141.7832,-232.4273,87.8035,-61.8493,96.8669,51.9254,-96.1868
-2593.7500,54.5570,39.5189,17.6460,90.3071,-53.6757,-28.9689,-30.6196,258.3298,-19.9061,-77.2381,70.1646,-25.1034,-85.9153,-47.7376,19.2809,45.3809,2.5602,20.2691,-24.6121,-101.6460
-2585.9375,72.9901,7.2551,9.7024,11.4234,-61.5129,-72.9720,-38.2613,211.7926,-27.6348,-11.9730,209.7594,-32.6887,53.1705,54.4879,-98.2665,111.7174,-40.2797,12.4164,-32.3863,-109.3601
-2578.1250,-173.2755,1.5354,76.0742,76.8522,40.9617,-42.6778,-44.5907,239.5729,-34.0589,54.5920,-569.4716,71.0424,45.5632,121.0215,-105.5354,177.3745,24.1885,6.8663,-143.8618,-79.7789
-2570.3125,208.2735,57.8832,-26.7047,-54.8791,-61.7259,-144.5493,-74.0706,172.2092,-100.6371,-48.0172,578.2383,41.6236,-131.2113,-18.6188,123.0621,148.8893,33.5180,-89.8464,-169.4894,-35.3495
-2562.5000,-117.5423,31.0583,-15.5800,61.2906,-13.5140,-132.5326,-62.6433,181.7531,-52.3075,73.2766,-329.2033,164.1124,63.9206,176.6520,-49.4625,233.3314,9.7518,-42.6606,-228.2151,-24.0216
-2554.6875,1.9618,51.4778,-15.3470,61.5697,-13.2055,-131.4314,-99.1157,143.4138,-88.8810,-36.3371,-34.5880,90.7094,28.1403,30.0192,98.1224,123.8935,80.0981,-42.3826,-227.8495,-23.5946
-2546.8750,115.3743,13.2126,-67.4175,-58.4645,-28.2127,-109.6544,-76.8890,126.7806,-103.7584,-51.2710,391.8127,3.0059,86.0512,51.0821,10.4085,109.1711,30.1491,-57.4093,-102.7783,-38.4689
-2539.0625,-203.0714,-27.4436,14.6175,19.6152,52.8850,-26.7890,5.4498,206.2634,-58.5306,30.8961,-591.8130,47.4187,94.0781,133.2616,-92.2265,117.5689,38.3060,-14.3245,-94.6114,-30.2471
-2531.2500,151.2807,11.2140,-75.3490,-100.3053,-36.0234,-78.9430,-47.2069,189.7560,-111.3128,-21.9512,458.6292,-41.1755,-68.9094,-29.5806,76.1569,-8.0323,59.4730,-64.2422,-37.4447,-9.0289
-2523.4375,-116.3965,-35.4908,-68.0174,-21.9301,8.3695,3.1946,-2.5596,195.5589,-29.7976,59.4947,-268.6490,3.5422,49.4119,124.8898,-100.1807,36.6901,-3.0537,49.1373,5.0252,-1.5146
-2515.6250,-93.8588,-23.2426,-34.4213,9.7028,5.0146,0.5704,31.3423,190.6317,40.9617,-54.8232,-271.7475,-36.4739,-28.0189,11.6082,80.7308,-40.3251,28.6841,45.7574,36.7378,-4.7535
-2507.8125,122.6554,-18.1274,-82.9237,-107.7844,-43.4555,-47.1793,56.1466,140.6158,65.6130,-139.2608,415.1574,-84.5912,-39.5612,0.2150,33.5512,-51.4378,-17.6765,69.2702,95.3598,-16.0974
-2500.0000,-229.9418,-42.8367,12.4304,17.5854,87.9376,-25.0885,77.8200,196.4750,87.1269,-44.8436,-666.2041,11.1488,91.7594,94.6844,-92.7996,7.3179,1.8081,124.6379,9.8352,-31.5954
-2492.1875,149.7281,23.3667,55.0282,-81.8002,21.5810,-127.7662,-25.2547,165.6050,-53.1136,-148.1961,333.7336,-55.8633,-48.6774,-82.6199,98.1199,-59.6711,78.5516,-9.7516,-53.4448,-24.8449
-2484.3750,34.0260,27.5412,108.4702,-29.3365,38.0756,-110.6161,-82.4768,106.5959,-110.5116,-21.7098,-17.4628,34.9807,41.7447,44.9338,-106.1246,31.2069,60.1473,6.7099,-107.8721,-8.2451
-2476.5625,-9.3140,59.2164,197.6722,90.8913,16.3253,-130.7269,-103.9505,120.3641,-167.1635,-6.4809,-295.9978,13.5843,-17.0819,-13.7623,-53.6215,-27.1522,146.5100,21.9227,-161.5616,7.1039
-2468.7500,290.7040,86.5496,84.3718,18.6140,-59.9360,-169.3612,-141.9310,42.6480,-206.3280,-82.7717,658.0760,-62.3192,-56.4233,-125.9708,-18.6137,-66.0152,108.3855,-15.3676,-94.7494,4.9513
-2460.9375,-90.1767,49.5151,83.0310,158.3004,12.7612,-61.0574,-69.9527,76.9066,-61.5395,-47.1167,-408.9998,47.7397,126.1978,19.7857,-202.6902,7.0868,72.2201,53.3040,-95.9853,3.7435
-2453.1250,148.1205,82.9522,-29.3540,84.9434,-63.5945,-98.8234,-35.0234,73.1368,-26.8096,-195.5272,323.8909,8.7452,-60.2454,-93.5237,52.1956,-105.8620,70.0252,-19.0769,-27.2807,1.4805
-2445.3125,70.0999,60.2893,-73.8351,77.4835,-71.0592,-69.7077,31.8042,101.2872,2.8170,-166.0477,169.7278,38.6525,6.2103,10.0641,-66.0397,-112.9029,-7.2659,8.4377,70.3311,-5.8861
-2437.5000,-131.7941,49.7623,-34.3550,185.9888,-31.5680,-29.6496,34.5871,139.4237,5.3975,-91.6132,-452.5947,77.5182,8.6222,12.6100,-26.3431,-145.9830,-4.6003,45.9046,2.8919,-3.3071
-2429.6875,214.3329,70.3832,-109.0312,79.3244,-106.2420,-66.7587,-39.7808,100.4415,-106.1818,-128.3447,613.0388,-32.7711,-66.1348,-99.0111,47.2224,-219.2125,-40.0833,45.2077,2.3113,-3.8803
-2421.8750,-154.4781,12.9357,-73.3051,184.0593,3.4848,43.5236,-40.7410,134.8922,-70.3583,-56.6757,-416.9982,40.3463,79.5175,83.7826,-173.8391,-74.0217,-77.1646,149.9196,-69.8638,-5.0589
-2414.0625,65.7485,54.4440,-28.4183,119.9512,-25.6329,51.9319,-106.5511,141.5192,-136.3936,-158.8753,105.1062,-25.3870,-22.6901,-129.2856,17.2539,-175.6800,34.9213,84.7799,-62.8941,-34.0925
-2406.2500,125.8112,29.7293,2.4214,6.7892,-30.7992,46.2660,-37.4116,61.1115,-104.4879,-128.1396,284.2344,-67.1754,8.0541,-60.4121,-98.7104,-144.3881,63.9632,42.5886,35.0239,-76.1814
-2398.4375,-127.9284,-15.2324,103.0248,31.3948,68.7931,36.3365,-11.5157,86.4844,-40.8343,-64.6578,-498.0007,-40.2006,-2.4389,-33.7786,-71.9448,-80.3319,88.7603,68.1527,-10.3179,-86.5224
-2390.6250,229.2641,4.0336,-15.3210,-115.9590,-86.5730,-7.5739,-55.5769,39.9329,-86.1422,-219.1429,596.9169,-159.1839,-157.8937,-153.1176,103.8841,-162.2290,117.6111,25.7560,18.3899,-57.8132
-2382.8125,-31.2469,-13.8593,25.8352,-6.8102,-8.4386,33.9937,-14.1365,43.9131,-7.9412,-142.1280,-170.7082,-79.6666,-41.8356,-0.9428,-148.8111,-156.6131,85.9592,134.8607,21.5985,-89.6064
-2375.0000,123.0052,65.1559,111.8010,39.1487,-33.5077,-26.6611,-38.8949,17.7251,-68.9431,-204.3171,99.4313,-67.3493,-140.9884,-209.9781,-26.7001,-327.1967,166.1226,3.7628,-3.3998,-114.6024
-2367.1875,258.6189,107.0450,124.0176,15.3478,-57.3432,-124.0975,-62.4076,-81.1854,-129.7030,-264.2726,479.9169,-17.7912,-90.9027,-196.7747,-86.3373,-313.5275,142.5431,-90.0885,43.8548,-138.3522
-2359.3750,-0.0090,113.7939,217.3433,137.6602,35.9248,-67.4417,-5.8123,-62.9595,-37.3586,-282.1286,-345.6100,111.8695,1.2947,-103.4586,-214.8959,-294.7439,125.0673,-107.8315,26.2092,-156.0052
-2351.5625,280.0776,171.3440,111.1684,73.4655,-34.3172,-137.3032,-1.7231,-97.1985,-33.5236,-388.4984,503.4423,117.0267,-105.0207,-173.6629,10.0611,-400.4715,131.1008,-243.0862,67.0581,-115.1594
-2343.7500,78.0441,133.0464,49.0920,85.3664,14.5374,-125.0832,47.4667,-86.3069,15.4086,-229.7711,74.5885,239.2907,53.7767,-14.7578,-124.9061,-277.0966,2.2311,-265.2392,44.0110,-103.2161
-2335.9375,61.1978,131.4864,62.7782,65.0264,-7.8510,-183.1328,24.4054,-109.6276,29.0829,-215.3017,14.4227,253.3063,30.3286,-74.0982,72.8704,-262.9749,53.1218,-320.6414,-46.2904,-52.5263
-2328.1250,223.9251,128.9849,-16.4238,-43.2239,-88.1373,-262.1109,-17.5618,-153.8190,-13.1518,-221.7333,598.4116,248.4143,61.9915,-6.3430,103.7285,-157.7538,16.1109,-358.9441,-84.4898,15.2591
-2320.3125,-89.8652,88.4003,18.3375,62.4968,20.5378,-227.1503,-19.5723,-120.0214,21.5635,-113.2028,-285.7671,319.4739,169.6094,138.3594,-8.4769,-13.5750,-19.9464,-253.2914,-118.7431,49.9917
-2312.5000,195.1786,109.3377,-63.4554,-50.3507,-25.3506,-309.7649,-64.1437,-164.7365,-24.2772,-159.2393,587.6434,237.9708,50.6571,19.4914,240.7830,-93.9487,8.4442,-260.2001,-126.5413,78.1730
-2304.6875,32.1243,64.7390,-48.8925,-35.8423,-10.8849,-221.0448,-13.3588,-188.0619,27.2396,-34.9252,160.3139,252.8223,139.0714,144.9897,34.3683,-6.9620,-46.8116,-140.7494,-75.9862,92.7016
-2296.8750,-80.7464,45.5586,-6.6176,40.3708,32.2719,-104.6533,-6.8846,-145.6491,33.4429,-28.9276,-236.3028,185.3646,71.1778,40.1751,114.6692,-72.2902,-5.3431,-29.5980,-69.7367,98.9293
-2289.0625,175.1224,29.2222,-148.0907,-95.1752,-72.3284,-63.0427,-38.1621,-178.9658,0.8884,-97.6989,650.4141,80.1488,1.5356,7.6070,156.2030,-104.3710,-69.6179,-25.1904,38.7659,103.4038
-2281.2500,-219.1529,-27.9029,-159.8529,-2.0031,24.7886,71.2499,60.2715,-45.5449,26.0346,-36.7605,-464.3002,142.6372,137.6080,143.7399,-39.5868,-6.7461,-81.1849,103.9390,97.9652,91.5725
-2273.4375,17.0031,-17.0146,-204.5149,-78.7382,17.0045,63.6213,15.8011,-16.9932,-18.7254,-80.7422,226.2174,24.2033,-18.2276,-48.0522,172.7426,-50.0385,-54.6473,61.1541,160.2621,83.8360
-2265.6250,-40.2850,-57.3450,-192.3195,-137.6126,-7.9236,75.8289,28.1837,-5.5569,30.3657,3.1287,128.5275,36.6153,104.8016,74.0185,37.8945,35.5199,-112.2522,73.2300,172.4022,95.9438
-2257.8125,-209.2238,-40.5113,-104.9638,-19.3274,5.2994,52.1721,4.7144,81.0674,43.6033,90.1327,-483.0436,87.1718,117.9794,87.2282,51.2142,49.2162,-28.6860,15.4510,115.6736,109.1947
-2250.0000,155.7188,1.1781,-88.7045,-145.1537,-87.5911,-77.6056,-51.8636,22.6196,22.7309,143.0214,525.3942,-7.3798,-13.9509,-43.6797,67.4300,-8.1986,20.7913,-110.4316,164.8496,88.3403
-2242.1875,-170.0175,-17.9418,20.4148,-7.1126,21.3812,-41.5318,-15.5902,22.0719,59.7009,252.7711,-503.4536,66.9208,96.9829,66.2823,-115.5364,29.2393,55.1245,-42.4503,127.8719,51.3332
-2234.3750,42.8875,22.9940,87.3314,-14.2811,14.1455,-84.6768,-22.5285,14.3654,15.4585,98.3033,3.6057,-13.9890,-58.3011,-87.9754,60.3102,-51.5411,83.2587,-84.6785,85.7002,44.1224
-2226.5625,96.7815,0.9797,76.0482,-60.6523,39.7132,-60.0415,3.3401,2.4955,41.0186,49.6298,213.4440,-62.1024,4.2315,-26.4145,-62.0653,-25.5135,37.1786,-61.1053,109.3410,32.7076
-2218.7500,-186.6544,-30.0785,114.8228,48.0349,115.3379,15.6244,43.2537,40.7238,80.6228,125.0040,-629.7314,-22.1619,43.8148,-23.8049,-95.3903,14.5598,40.1521,-23.4771,77.0294,35.3423
-2210.9375,186.0972,12.6647,27.5972,-35.2919,-9.0460,-34.7407,-44.8495,-10.0194,-44.7748,74.3648,496.2301,-108.2375,-44.6011,-147.2159,37.2931,-36.3834,28.1254,-70.8551,64.7190,57.9765
-2203.1250,-117.1113,-26.6613,11.1402,56.1538,-25.6655,58.6248,-60.2047,47.0275,-60.4205,241.4931,-328.1883,-15.5601,49.7524,93.1371,-199.3041,58.4254,-22.1447,55.5287,50.1555,78.3561
-2195.3125,-28.0320,7.5137,-12.8630,69.0429,-48.8356,71.4177,-83.1112,59.5531,-120.6255,144.0586,-131.0776,-38.4451,-83.4586,-5.0840,-3.4273,-2.3369,62.0493,103.3564,-7.9642,91.1816
-2187.5000,109.7029,-0.9811,-38.7073,7.0804,-74.8586,82.3476,-72.8717,-3.7371,-73.6842,80.7670,320.1938,-100.1874,-37.5175,42.8529,-101.4289,9.0501,36.3976,112.3403,37.0835,65.1505
-2179.6875,-244.4717,-60.1295,17.7629,95.4328,54.4286,174.5704,19.6653,88.3238,55.5629,135.7780,-689.3381,-45.6395,18.7240,135.0843,-156.1381,102.7301,-16.9412,164.6285,-16.5647,47.4145
-2171.8750,113.1610,-34.4953,-44.5204,-33.9781,-45.0498,113.0181,-42.5569,99.6674,-6.9527,74.0233,388.5208,-142.8581,-152.7986,-37.4506,75.4195,77.6421,-40.0306,106.1536,-39.9614,58.9288
-2164.0625,-138.3080,-90.5686,-74.9451,-28.5259,-2.6741,155.3027,-36.9301,104.8940,-1.6187,226.1310,-230.8718,-64.2233,-38.4458,151.8800,-102.2095,230.4097,-103.2704,146.5420,0.4789,64.2939
-2156.2500,-151.3129,-90.0606,-67.1105,-20.8178,41.9488,88.8213,-29.0695,112.4078,-31.0424,196.4787,-295.9608,-92.3539,-30.8519,49.4418,51.4257,128.3979,-61.2490,154.1830,-26.8433,71.9068
-2148.4375,112.2309,-62.5500,-92.8249,-150.6729,15.0182,24.7695,-54.7681,12.4081,-57.0167,96.2739,486.4608,-119.0510,16.1941,22.4573,24.5012,27.8253,-50.7785,164.2760,-16.7100,81.9666
-2140.6250,-220.2663,-76.9553,12.2195,-14.7613,157.8462,57.4553,14.2897,8.2060,11.7624,54.8284,-584.4880,-49.9914,123.0041,92.2265,-88.6826,61.0034,15.4445,266.1211,-55.8360,77.7739
-2132.8125,117.2855,-55.1260,35.9038,-97.2081,144.3138,-29.2394,0.9927,-42.3170,-38.8197,-68.9800,358.3516,-210.2979,-1.5522,-104.3769,153.8019,-26.1908,38.3209,146.6082,-69.3094,64.2331
-2125.0000,-30.3531,-98.3933,49.2472,-120.9991,194.4407,19.7050,51.3446,-29.1535,11.2450,90.8757,3.7517,-159.9509,85.5599,-56.3063,-17.0953,61.2732,-56.1574,122.7555,-23.1303,40.3403
-2117.1875,-145.0673,-98.5318,97.9474,-40.4363,205.9207,30.9865,26.0357,19.3976,22.6507,138.0746,-388.4932,-148.2684,23.0193,-80.8985,31.3700,36.0738,-44.2779,64.2573,-11.6078,51.7975
-2109.3750,164.5757,-50.8321,6.3387,-126.1846,41.0924,-23.0442,-28.5842,1.6863,4.7474,-27.0253,550.0513,-165.8966,-31.8128,-97.7999,124.5248,-18.4355,-59.7020,12.4561,7.6265,70.9544
-2101.5625,-203.4297,-71.3419,10.7411,54.0895,45.2792,53.9175,12.8012,79.0128,82.8513,87.8883,-511.5341,-51.5120,83.3682,89.3056,-55.3456,60.0457,-89.1257,87.6597,-23.1378,75.1080
-2093.7500,58.1132,-35.0687,-24.3564,-15.1466,-27.0412,-17.6427,-58.3230,7.8657,47.4517,52.2854,225.5056,-122.6449,-61.9794,-92.1081,166.3097,-11.9976,-18.0448,-16.6387,-21.4077,76.7589
-2085.9375,57.2271,-16.7255,11.0542,18.1258,-100.8571,-55.7091,-59.9453,-30.7439,45.5600,50.1897,186.9891,-87.2877,46.1908,14.9937,-55.5673,60.4577,-19.4776,16.5754,-23.1721,74.9073
-2078.1250,-101.9448,11.9689,117.8807,119.8069,-69.2682,-24.3777,-100.1772,2.0918,-32.9387,45.5056,-441.1640,-19.5516,41.7676,10.4765,-24.0374,19.2961,82.4980,83.1949,-27.5455,70.4535
-2070.3125,256.3725,42.0845,65.5075,-36.7257,-157.8861,-76.2634,-115.6187,-13.2434,-84.6445,-80.3819,609.6006,-107.0366,-47.8568,-78.2517,71.2955,-69.0827,102.2744,32.6124,27.8830,54.7977
-2062.5000,-75.3505,5.4435,133.9018,64.5206,-53.7395,27.5975,-48.3219,55.2136,-16.6053,24.4871,-351.0203,-2.7638,95.2851,63.7918,-116.6475,-37.7113,27.8067,97.7907,-12.9533,49.8919
-2054.6875,94.1732,26.1162,88.6463,20.1149,-26.2530,17.7887,-57.6921,46.0455,-63.2455,-22.3154,153.8188,-49.1463,-25.2353,-56.8368,56.7824,-83.0107,53.7009,53.3106,-92.4515,40.3385
-2046.8750,140.4740,13.8971,27.6331,-40.0320,-13.5228,-6.7778,-7.8140,-13.8521,-50.6303,64.1301,387.8863,-36.2730,24.5087,-7.1990,-78.5690,-34.0617,-5.1583,64.0975,-81.6937,16.0337
-2039.0625,-144.9624,-14.9484,88.7690,53.9826,121.3738,54.8057,54.2234,10.4391,11.1551,124.7349,-469.9804,25.7441,12.3972,54.5855,-126.7595,-8.9806,-16.8648,122.0472,-128.7877,3.8730
-2031.2500,221.9553,9.6537,13.2942,-89.6186,45.6654,14.7762,14.6606,-27.8370,-28.6565,-25.2489,630.6714,-87.8626,-101.3294,-96.2388,90.4628,-85.5194,15.8183,49.3969,-131.4781,1.1086
-2023.4375,-53.6805,-21.9662,122.6272,-21.4106,117.7707,50.5531,86.9045,-65.2700,80.3382,10.5747,-215.0217,-14.6626,81.7631,49.7583,-57.5487,-49.2516,13.3047,117.5572,-99.3578,-36.8601
-2015.6250,39.2618,20.8724,177.5164,29.3372,98.4234,30.8624,67.6926,-48.1193,60.8767,-120.0608,-88.1022,-70.9226,-10.6112,-116.7244,144.0050,-105.4479,135.3577,62.2472,-118.6746,-56.2802
-2007.8125,200.3352,24.7489,114.9125,-66.4281,35.5819,4.6436,41.9836,-73.4543,34.9214,-146.1886,438.3343,-96.6838,-36.4704,-68.7012,44.0443,-94.1532,109.9060,36.4290,-3.4815,-82.2008
-2000.0000,-113.2397,31.5228,197.3706,81.8744,118.8091,86.4595,51.3207,-26.7131,44.0239,-27.2650,-582.2810,22.6085,-28.2635,13.3751,-130.8605,-84.8169,152.5006,114.6680,3.7468,-110.0669
-1992.1875,238.4882,84.2705,96.1145,-15.5342,16.3174,20.5537,-14.0565,-54.6491,-21.5841,-92.0392,456.5496,-41.8178,-129.7705,-199.2638,61.5532,-187.1919,196.3850,17.2081,48.2650,-101.6275
-1984.3750,17.1326,59.0876,70.4072,66.6119,-9.6226,68.2012,-2.8889,-43.0040,63.3605,-8.2325,-121.1658,42.3040,-8.7052,-4.3238,-148.5132,-102.0076,137.7992,64.3185,59.3283,-90.6350
-1976.5625,8.6335,101.0256,117.2045,181.2574,-36.0584,40.3428,-103.2279,4.1699,-1.2013,-71.9275,-257.3556,51.9145,-72.1504,-30.9071,7.9427,-129.3545,217.7174,2.9332,-2.1111,-81.1413
-1968.7500,263.8573,114.1132,76.0481,71.9439,-151.4444,-37.4677,-181.5201,-73.5826,-41.7161,-76.5901,546.5643,10.5670,-76.5336,-35.4409,3.4319,-96.6639,178.6810,-36.3951,28.5035,-85.6006
-1960.9375,-116.4315,55.0019,152.6066,144.3578,-38.1159,1.4275,-142.1121,3.3950,-3.5227,72.4410,-553.9464,86.9111,72.7948,76.7321,-141.3964,15.7180,146.3541,35.9870,30.8144,-83.3634
-1953.1250,185.4519,71.7979,67.7666,29.3607,-49.1937,-10.0843,-116.1133,29.9891,-50.7303,-85.9393,391.2773,2.8260,-48.2901,-44.5243,105.4067,-68.3377,102.6311,-43.0333,-13.2726,-57.5311
-1945.3125,20.6905,18.2816,5.2839,-30.2881,-1.9021,-0.2540,5.2478,3.9590,-3.5827,-38.9470,70.7788,86.0836,72.0029,112.5847,-31.4680,51.9524,-27.7509,2.3038,31.9837,-47.3551
-1937.5000,-138.9312,-19.6335,27.4605,-9.2828,94.0492,22.2170,64.2545,27.6101,18.2112,19.7007,-383.0779,71.9784,94.9409,61.3271,64.3203,37.8793,-6.4827,-46.7145,-17.1179,-61.5293
-1929.6875,164.1646,-0.9441,-35.2634,-105.1895,67.0972,-42.2223,1.3476,-35.6292,-44.9000,-6.5553,546.2673,-28.0447,-5.0236,-38.8371,111.2091,11.8954,-31.1123,-36.6357,27.8750,-51.6012
-1921.8750,-209.1687,-53.6777,31.7224,29.6235,134.8597,61.0465,68.1451,32.8546,58.6941,59.8994,-562.8229,2.6363,135.7312,101.7180,-79.2147,78.6035,-37.0450,62.1534,56.5574,-57.9721
-1914.0625,35.7622,-33.8384,-0.7494,-37.0214,138.1620,63.8489,34.4879,36.9053,61.8387,-84.0902,138.7585,-105.1571,28.0305,-116.1974,144.9400,-65.1592,1.5637,-39.5248,24.7926,-54.7934
-1906.2500,28.7053,-45.8134,-69.1292,-66.5705,69.5696,68.7469,39.9377,6.0800,30.0988,-41.9585,217.3913,-62.8594,107.4509,0.0132,-33.8228,-59.8117,-62.7515,-34.0945,-39.8697,-49.5151
-1898.4375,-153.6660,-53.6164,-25.6091,79.7840,38.8793,111.5414,10.2836,50.1821,36.2604,37.0723,-363.1204,-56.6624,39.7700,6.1268,-27.6679,20.4313,-56.1678,-27.7622,-104.6283,-43.3327
-1890.6250,158.0955,-45.8322,-68.4411,-31.2249,-114.1799,67.9770,-32.7335,44.9437,-5.9324,-42.2575,550.1332,-208.8139,-76.2759,-111.1082,150.1415,-22.6937,-26.9339,-104.7874,-4.7279,-49.4945
-1882.8125,-70.0361,-61.1220,-15.5590,87.4832,-60.5300,84.1163,19.9449,62.4263,46.5754,10.1457,-133.0523,-157.2513,124.3909,15.3704,-91.3823,-43.1240,-48.9955,-91.1047,7.8748,-106.9533
-1875.0000,120.2773,-19.5101,-15.2296,87.6424,-24.4374,46.7011,-52.9514,63.3741,-27.4823,-26.9960,382.3115,-194.2524,-23.5188,-131.7306,55.5602,-154.1219,-48.5964,-161.9833,-62.0711,-106.9600
-1867.1875,133.8046,-6.1716,-89.0927,88.6053,-98.5455,45.0885,-91.0500,63.1393,-64.7371,8.6743,492.4573,-121.4681,-23.6100,13.9804,-92.7205,-44.3268,-118.4064,-126.0560,8.7831,-71.1657
-1859.3750,-66.7067,0.1552,-49.6501,160.8737,-59.3405,10.7809,-88.8489,66.2270,-62.6867,47.6510,-131.1785,-8.3847,14.6080,126.9863,-127.6952,67.7561,-79.9235,-123.8245,-24.0751,-69.0681
-1851.5625,150.5401,10.5746,-76.8630,31.4726,-123.7992,-91.1939,-79.3089,76.6677,-90.2883,20.9771,504.6746,-72.9629,-85.8379,-10.6623,65.6908,41.1738,-69.1008,-181.2456,57.4197,-22.6166
-1843.7500,3.3841,-30.5550,-39.6731,31.4853,-49.8436,-91.7655,-79.3600,40.5266,-53.4791,167.7189,136.7963,-36.1326,61.1300,99.1203,-154.5544,113.9965,-138.8878,-112.2543,22.3219,-22.7645
-1835.9375,50.7146,-19.9594,-1.3789,34.5950,-48.7876,-90.2396,-114.3156,79.5013,-52.5690,131.5552,212.0780,-72.2228,-47.8135,-10.0218,-6.6746,78.8956,-100.5649,-143.1603,-45.6705,15.1864
-1828.1250,147.1447,-35.5024,-13.5921,-46.8062,-61.2234,-102.2159,-125.7641,31.9829,-65.1499,118.9093,567.8804,-83.8334,-23.2454,51.3344,-19.3048,139.2865,-180.7511,-154.5566,-21.1468,39.6320
-1820.3125,-180.3980,-94.4353,-9.1494,28.4488,-19.9874,47.4659,-85.5490,110.1386,12.9266,233.9299,-346.7790,-43.8079,17.9905,128.3416,-88.2845,180.3183,-211.2945,-45.2910,-16.9767,43.7250
-1812.5000,114.7598,-54.0632,-116.8714,-41.4672,-127.9041,47.9972,-84.4910,112.1548,13.8519,123.8044,536.5527,-114.9551,-126.9305,-90.8167,132.6085,71.1824,-210.0073,-44.1868,20.0500,44.6680
-1804.6875,-89.8662,-82.9242,-116.3478,-6.1327,-91.5629,85.7893,-47.1716,114.4456,15.0409,271.9554,-13.9760,-41.8408,20.4177,57.3091,-87.2654,108.3092,-245.5017,26.1698,54.3253,8.8641
-1796.8750,-131.0570,-86.4673,-62.6713,-25.6557,-37.0720,101.7263,-29.7143,132.8977,-4.6146,179.2665,-216.3195,-61.5812,-36.0926,0.5833,4.0320,88.5751,-158.8523,76.6636,34.7373,-10.7835
-1789.0625,84.5393,-90.1575,-136.2498,-166.4397,-37.8428,27.4089,6.4850,96.0987,-5.5221,104.3459,481.1496,-135.5719,-73.8460,-37.3895,40.0664,87.5883,-159.4591,40.9058,103.9012,-11.6782
-1781.2500,-257.9850,-145.9739,-71.4165,-70.8077,100.8032,91.5042,108.0779,162.7148,132.9775,169.8487,-519.1072,-108.1615,64.8130,64.0420,-116.5186,116.0007,-167.6673,102.5550,60.4535,-20.1726
-1773.4375,64.9606,-74.4070,-67.8949,-137.4858,31.1432,21.3009,74.3645,93.0376,62.1729,26.0479,329.4651,-141.0885,-78.8428,-116.8529,107.6274,9.0892,-95.1768,35.9080,28.7127,-16.9667
-1765.6250,-22.0027,-85.3816,16.3745,-129.4076,4.2441,-6.1375,121.4044,67.1254,109.1312,72.0147,8.6976,-132.2626,5.2652,40.0198,-103.4941,54.9288,-50.9476,79.0274,71.7232,-44.0090
-1757.8125,-131.0660,-48.6257,128.3367,11.3723,42.0515,-4.8809,123.1394,69.9190,147.7941,73.6826,-504.3793,-130.7264,-66.9372,-68.4137,-64.8913,-16.5425,89.9772,79.8398,36.4194,-79.3425
-1750.0000,174.2037,15.1335,50.4756,-27.6720,1.0458,-83.4332,82.0655,29.9097,106.6620,32.5516,410.8345,-134.9797,-144.9425,-219.6456,40.9085,-131.8166,50.0895,-30.1473,32.3312,-83.4673
-1742.1875,-188.5005,-32.3934,44.7122,109.3972,69.1519,-52.8733,113.1001,62.0101,174.6444,137.5469,-549.9989,-30.1280,33.1662,-41.7548,-75.2079,-63.9951,-58.7023,35.9819,-41.6511,-52.4893
-1734.3750,18.2714,-26.3263,-53.8632,16.6565,-66.5433,-115.1215,51.3343,37.3181,148.8288,148.7361,159.4774,-56.0921,-65.5356,-140.6884,193.9007,-52.9982,-116.2996,-56.7001,-64.4211,-4.3099
-1726.5625,-7.0494,-58.6413,-93.1462,-55.7824,-105.9356,-118.0536,84.8687,-1.0661,145.3274,182.2508,193.1982,-22.7556,5.0797,2.6966,80.2809,91.3023,-187.6203,-58.0742,-65.8783,29.1718
-1718.7500,-217.3045,-77.6801,9.7672,8.9877,-76.1165,-52.7770,77.6001,29.7650,138.0255,174.9801,-511.9287,6.7745,-2.1145,69.2814,109.8760,156.7955,-122.7495,-63.2510,-105.1370,58.8562
-1710.9375,150.5265,-26.1206,-62.0858,-94.0064,-148.0564,-88.2460,-32.4185,-5.1521,65.9642,138.9656,555.3042,-65.4564,-147.0733,-40.8808,146.7350,84.5348,-85.6347,-96.1891,-35.1406,59.7924
-1703.1250,-179.8071,-82.0426,-9.5714,-10.6323,-59.6331,36.6464,20.9161,85.2853,45.2625,266.3181,-421.2629,-50.3221,15.3332,86.3358,-94.0815,136.6311,-72.1769,58.2365,-20.8011,39.0796
-1695.3125,-25.0334,-28.7433,18.9001,16.6852,-68.2683,101.4905,-61.8019,77.6703,-37.4896,109.6078,-98.7967,-95.2555,-67.3241,-70.5213,117.0748,17.6515,60.2401,14.6089,-64.5169,30.3156
-1687.5000,67.3602,10.7190,2.2687,-71.1059,-84.9947,84.2461,-114.6129,25.9502,-91.3249,92.8099,178.5502,34.7031,-47.0667,23.5273,-9.8869,37.5674,43.5420,-2.1134,-10.3251,13.4482
-1679.6875,-239.6784,5.6373,75.6338,69.1125,25.2910,156.0127,-79.4135,62.2356,-92.1438,92.0200,-778.1923,143.6533,26.1930,95.5766,-84.8361,73.4823,42.8434,32.1695,-47.1371,12.5807
-1671.8750,116.2664,51.6193,-14.2173,-15.8866,-64.6396,103.5779,-130.4203,11.3170,-143.1551,-33.9746,272.9949,54.3823,-99.7575,-30.5776,47.0412,-16.8045,63.9323,-17.7580,9.8686,33.5161
-1664.0625,-175.1511,6.7061,16.0779,48.2697,2.5840,132.3081,-65.2665,42.5566,-40.9962,33.2193,-542.8075,120.2764,40.4520,109.4502,-142.9540,87.0623,22.1594,46.4693,38.0319,26.6014
-1656.2500,-121.8464,37.0261,12.8168,79.8531,-0.7483,92.4821,-31.6698,40.2436,-7.3809,-7.1353,-436.0581,116.6102,-36.9040,-4.0884,36.5185,-64.6305,53.8261,8.1383,-0.3456,23.1382
-1648.4375,35.0537,29.9878,-56.2986,-21.4194,-32.9229,22.8177,10.0875,-27.9204,-2.6031,-39.3209,119.7628,85.0975,4.8996,37.5438,41.1222,-96.1616,-12.3729,12.9656,74.4308,27.8284
-1640.6250,-298.1460,-0.6345,36.4795,68.2078,96.8046,4.0629,65.7419,28.8161,53.0738,16.3953,-890.5186,176.4828,97.5916,93.0716,-14.3559,-4.7902,-28.6783,101.6886,23.1096,46.4242
-1632.8125,45.8778,38.5237,4.3946,-68.0254,64.6737,-100.5424,33.5374,-76.3038,-16.0985,-124.7277,107.4180,108.0138,28.4349,-86.2457,174.3121,-73.2647,11.1537,36.5545,-8.0509,51.1730
-1625.0000,-138.5824,11.2116,20.2104,-19.3486,153.4560,-86.2341,122.2417,-96.5247,-0.3601,-109.9304,-391.8647,159.4505,154.1930,76.3556,-68.1290,-21.8366,-45.1250,85.3228,-29.3131,29.8228
-1617.1875,-150.8362,31.2217,49.0203,78.3174,182.2375,-94.9263,150.9447,-103.7533,28.3828,-191.1382,-547.0521,77.8752,35.9401,-6.0615,34.4533,-103.4233,87.5907,77.0801,-37.5755,21.4753
-1609.3750,109.3855,34.7745,-15.5742,-19.4151,117.6232,-87.0094,123.2558,-130.3886,37.7357,-218.7266,234.3095,-61.0946,8.2970,-107.8606,43.6217,-167.4037,129.8910,84.4427,110.7671,-6.2719
-1601.5625,-256.8410,-11.9758,88.6269,77.6542,221.8175,17.7131,191.3755,-61.2268,141.8990,-78.5030,-875.5670,6.7337,149.4447,-39.8606,-110.3962,-138.5885,122.9875,182.6033,103.9078,-49.2184
-1593.7500,51.0837,15.6072,82.3628,-33.7426,142.5519,10.9883,148.0506,-29.5250,98.6160,-121.7282,1.1963,-73.8966,-40.8623,-229.3144,104.1427,-217.2266,116.6198,70.3091,61.6122,-55.6135
-1585.9375,-63.3222,-31.6922,41.8005,-72.4315,100.9933,78.9796,143.4367,-33.1208,94.0536,-15.2429,-186.4618,-4.8180,64.5470,-51.0508,-84.6254,-76.1583,-27.0603,102.7229,59.0172,-23.3054
-1578.1250,-203.0342,-46.7979,58.5251,-19.8308,80.7270,95.2720,123.1227,57.5708,73.7933,38.5419,-611.7427,11.5547,45.2458,-34.5002,5.9350,-59.7941,-10.4522,84.4265,40.7200,-6.6937
-1570.3125,117.8887,-16.6231,-45.7133,-119.1901,-59.4851,28.6200,92.8630,-7.7002,44.5892,-65.6081,388.0067,-56.0126,-21.9962,-101.8772,85.5275,-90.3721,-39.8094,56.1850,117.4817,-0.0318
-1562.5000,-230.3787,-50.1116,9.0989,37.5072,-41.6372,119.0332,147.6559,47.0754,135.4472,26.2972,-661.2653,-1.5254,68.8073,99.8045,-117.8222,1.0946,-23.1151,107.0001,134.2933,-19.3217
-1554.6875,1.1969,8.0435,-40.7983,24.4904,-54.4933,68.7519,60.7493,35.1375,85.6076,-60.4981,-12.1446,-14.7397,-91.0997,-23.2187,90.1450,-49.1494,33.8748,-45.8951,85.4104,-32.3117
-1546.8750,1.0396,9.0451,-80.0904,-12.9194,-19.7350,66.0826,58.4538,-2.2075,10.3771,-25.6797,58.4550,55.6591,17.6125,121.3792,-59.3064,22.2145,-3.5443,-48.1832,83.1284,-34.7026
-1539.0625,-235.4794,-0.8554,-22.7376,77.3151,73.6741,86.0659,78.7983,55.0882,-6.2036,67.7849,-656.2432,149.7040,37.9650,178.6080,-39.0858,42.2231,-18.3130,-63.8304,-36.5081,-14.4425
-1531.2500,144.9424,70.1581,-127.8892,-22.9555,-32.4116,-20.4474,-27.3624,-13.1288,-76.2800,-1.2380,487.5758,153.2459,-105.1800,72.3456,111.6229,8.7351,-13.5956,-162.9789,-66.6407,26.3193
-1523.4375,-182.6494,29.2991,-78.5383,61.2789,55.0108,29.5459,22.9826,-35.8521,-25.8453,49.2503,-454.1929,240.2918,55.1802,232.5951,-95.1657,95.7500,-35.3852,-79.6330,-88.2739,39.5820
-1515.6250,-9.9282,46.1293,-65.6070,39.0939,-5.9767,5.1392,-1.0693,-58.9958,-49.8019,-84.6645,-1.2505,141.9316,-5.8724,61.4345,137.6690,-2.6385,12.4159,-100.6989,-145.3027,52.4467
-1507.8125,91.4456,27.4266,-64.5859,-30.9907,-4.8610,-31.1542,-0.0126,-129.0434,-48.6486,-47.4577,367.6952,106.6863,69.1868,62.3964,28.5858,35.0907,-90.6982,-65.6603,-108.2290,53.4149
-1500.0000,-203.8075,-0.6350,-9.3725,59.1167,88.4524,-12.2438,19.2357,-108.8966,-29.2983,45.9532,-532.1328,161.6391,125.4331,118.5522,-62.2740,54.0207,-71.6174,23.5742,-54.9580,72.5889
-1492.1875,168.3604,24.3832,-73.3242,-108.9411,22.6104,-76.4828,-45.6737,-136.9130,-93.0965,-55.7774,578.9388,59.4408,22.5326,-57.4241,129.7091,-48.1937,-63.7024,-3.3378,23.1757,80.6153
-1484.3750,-109.7393,-19.6146,-51.1232,-52.8397,45.9307,18.4429,-23.4267,-112.7864,2.2592,3.6487,-206.9460,119.4015,155.7835,75.7693,-68.1663,47.7459,-77.6397,123.9095,45.4594,66.7926
-1476.5625,-57.9278,11.8910,-55.9339,12.2497,4.2446,50.3723,-28.1878,-44.6780,-39.3919,-73.9332,-137.7230,77.3645,41.0211,-40.0512,110.9777,-67.3168,-13.5823,119.1447,4.7405,61.9715
-1468.7500,153.9859,-0.0689,-83.5514,-85.4570,-60.2348,59.5105,-18.7403,-34.3826,-66.8292,-137.3026,495.6306,-61.4611,13.4738,-30.6534,9.3037,-95.1652,-6.3432,161.5874,83.2240,34.3533
-1460.9375,-198.3067,-46.9118,-14.6202,14.3808,46.8360,128.2053,51.2597,72.4512,40.3026,4.8727,-574.4749,-28.7428,46.4699,39.2873,-141.7940,-26.4667,23.4403,226.5784,112.2579,-6.7105
-1453.1250,130.5426,-18.2955,-73.9577,-114.0500,24.6552,68.6508,65.0140,15.0136,-18.8103,-128.1981,396.2435,-125.2746,-86.7810,-167.0193,92.8591,-49.0153,70.9555,98.3191,90.0513,-29.0219
-1445.3125,-58.2373,-45.4045,-75.9991,-116.1741,95.7834,66.4115,137.0755,-23.1269,-20.6072,-55.9426,-84.8546,-16.4995,58.2737,50.9876,-56.1954,22.7499,33.7627,96.3623,53.1461,-31.0319
-1437.5000,-87.4421,-4.8754,9.0974,-34.1642,107.0510,41.3254,74.2862,-11.1365,-83.2464,-81.5390,-293.7096,31.4168,33.4569,26.1306,64.9231,-3.3369,114.7156,37.5468,-76.6045,-19.8907
-1429.6875,200.4892,32.2680,-49.4128,-89.7652,12.7244,-17.3488,-20.0951,-141.7601,-140.4692,-102.7282,604.7859,9.7374,-24.9570,41.6881,44.4307,11.9912,60.0580,-16.8617,-95.9456,-4.3512
-1421.8750,-171.0619,-39.0873,11.2756,37.8321,72.6057,79.1869,3.7296,-81.1882,-80.4893,32.2834,-475.5576,-3.7434,71.8184,175.4463,-116.8512,71.5206,46.6029,109.9311,-74.0867,-17.6114
-1414.0625,120.8326,-1.8604,-47.3534,-52.8805,15.1780,21.4236,19.2474,-64.9297,-64.8117,-63.0013,385.8905,-62.5302,-22.7141,-30.0916,82.5685,-60.2496,26.8384,-14.5795,-22.5138,-2.1725
-1406.2500,33.7472,13.0069,-91.8849,-92.4812,5.8604,-25.2238,9.8698,-108.5737,-0.0215,-35.1677,229.3208,148.7960,78.8684,71.4893,-72.9337,78.0921,-83.8358,-89.9866,-28.8350,62.3653
-1398.4375,-95.2416,60.9519,-91.2249,16.1054,-28.2650,-22.6732,-24.3134,-107.0303,-71.0325,-106.1378,-209.9707,297.3214,79.6325,109.2556,1.7904,115.6318,-45.3179,-121.2106,-93.9488,137.1033
-1390.6250,226.9363,100.5894,-194.1273,-79.8706,-167.9407,-52.6710,-127.0370,-135.0498,-136.5835,-171.6502,790.1762,267.2996,-22.1487,116.4883,118.9556,85.6386,-71.3615,-146.9870,-49.6018,181.2914
-1382.8125,-144.0208,71.1108,-121.3858,58.8082,-95.9643,19.9851,-92.1104,-135.4145,-101.4762,11.4931,-314.0894,376.9372,122.7115,262.3779,-65.2242,195.2996,-72.7566,-113.1132,-50.6026,180.1319
-1375.0000,89.2776,113.6972,-71.8102,35.3213,-119.1493,-77.5337,-115.3354,-157.9113,-124.5167,-11.5179,249.6010,279.4167,-46.5886,92.1147,94.4606,60.8090,9.6876,-171.3986,-73.7497,156.8227
-1367.1875,104.3714,101.3592,-67.4880,2.5877,-114.5684,-73.3229,-73.7965,-153.6172,-82.7891,-7.7635,290.9269,246.6543,-79.1217,170.6149,-84.1206,65.0828,10.8717,-168.9318,-1.1465,124.2604
-1359.3750,-144.0562,62.3690,-20.9707,117.0487,-66.7885,46.0742,-63.0606,-68.1152,-35.8569,39.1814,-470.4951,220.0907,-68.4663,180.3035,-73.4765,75.5504,54.2520,-125.2751,-61.3515,97.8975
-1351.5625,211.1668,87.9304,-114.6682,25.3024,-161.2121,-11.7214,-120.5300,-124.8310,-129.1147,-18.0625,611.9009,89.3355,-163.0092,49.8018,51.9554,54.8289,69.4157,-180.8157,-12.7520,77.3355
-1343.7500,-132.8544,22.5392,-79.0758,93.8641,-15.3308,24.8096,-48.6966,-88.2640,-57.0662,19.0048,-344.4960,124.8893,56.7461,196.6101,-131.3087,91.4188,31.8745,-43.0459,21.1487,40.0747
-1335.9375,31.8787,57.2717,-38.6045,61.3086,26.4363,-7.7479,-6.9676,-83.8174,-89.1187,-123.0318,27.1204,56.3332,-49.6153,17.3134,56.3433,-89.0910,104.2294,-75.3874,23.9623,7.7158
-1328.1250,150.4760,38.2079,-22.6410,-29.7443,5.7102,-28.7853,9.2660,-103.8858,-35.6633,-143.5520,411.1422,-1.7120,3.5313,-3.4523,-1.5301,-36.0799,48.0743,-96.2241,108.2895,-13.1439
-1320.3125,-154.9150,-3.2463,84.4137,37.2969,76.0778,5.2881,43.5989,-31.8702,71.8947,-35.9728,-547.7108,32.3448,37.7576,-6.1270,-78.2833,35.0316,80.0193,-63.9647,105.7252,-15.9057
-1312.5000,226.9833,51.2285,17.9586,-62.1796,-64.0579,-62.1327,-23.5624,-61.3794,5.9618,-138.8918,561.9836,-35.1012,-103.5142,-146.3002,75.4630,-69.3499,86.4526,-127.2103,112.6720,-9.1706
-1304.6875,-47.2005,13.7727,12.5062,38.3530,-32.1808,6.4604,8.2868,-28.9044,74.0384,3.1918,-178.4245,33.4626,2.2245,32.5406,-149.7942,-0.7234,10.8864,-62.4562,178.6084,-14.4377
-1296.8750,-22.3116,30.0655,38.4019,62.2292,-5.9611,-41.6028,34.4757,-2.1077,100.4543,29.6113,-153.3685,22.3736,-82.7044,-52.2749,-13.6789,-48.7477,34.6700,-108.3643,132.8912,-25.3543
-1289.0625,169.2590,20.2424,-12.5519,-56.7339,-56.5889,-92.5085,56.8184,-52.1827,124.0234,16.1885,494.7756,-28.5503,-59.4714,-28.9214,-27.4350,-25.6048,-14.4051,-157.1210,154.3226,-39.1217
-1281.2500,-196.2021,-8.7440,19.6409,78.4565,12.9358,13.7431,126.3110,-19.1254,156.7414,47.9114,-575.9368,76.6792,45.9003,76.5703,-69.0239,42.6818,-19.3277,-55.7302,78.9025,-43.7400
-1273.4375,183.8600,43.2323,35.5775,-10.6136,-81.7978,-44.2510,32.5502,-39.3462,26.2093,-119.6272,432.1835,-54.3331,-84.9883,-128.1873,131.1318,-51.2827,66.4959,-75.5981,60.2390,-27.6084
-1265.6250,13.9423,13.3004,70.0176,22.8264,-46.0261,-8.7315,-5.7122,-77.0854,25.1824,-83.6599,-47.3045,-18.8279,60.6340,18.5731,-91.2313,57.2648,64.8178,29.0417,59.0728,-28.9751
-1257.8125,-38.2720,22.9312,101.9016,123.7023,-13.8129,-13.7622,26.4717,-44.3947,56.6047,-125.2543,-272.2428,-60.8918,-17.3080,-23.2278,14.8815,-57.7429,94.5897,94.1336,19.3629,-33.8960
-1250.0000,211.1585,27.6546,9.6802,-1.5313,-32.6884,-32.8810,43.5678,-99.8196,74.9458,-143.9370,554.6754,-117.0624,-36.3406,-116.1161,68.8855,-150.8359,40.2476,40.1350,70.5628,-52.9244
-1242.1875,-148.8683,-17.2563,129.6049,77.3845,87.5908,13.1593,90.8191,-52.1087,159.4410,-22.4724,-539.2935,-33.0727,83.7759,-31.8639,-67.9410,-29.7749,48.0544,84.2790,8.9055,-79.8050
-1234.3750,138.4277,18.7203,102.8618,-18.3707,61.2067,-49.4559,27.4153,-78.0723,96.2800,-159.6597,280.1950,-96.7255,-52.7688,-169.2583,163.5914,-93.3585,94.2008,-11.2439,-50.3966,-69.3327
-1226.5625,64.8093,1.0615,76.2080,-8.0253,71.9316,-38.9618,38.1129,-103.9417,107.2231,-111.7308,143.6770,-49.2567,30.7976,-10.5234,-9.7912,-8.8223,33.4360,-35.6624,-74.6020,-58.7588
-1218.7500,-111.0875,-4.3957,96.2954,82.0579,92.3976,18.2774,58.5518,-46.0772,90.9138,-17.0613,-387.0052,7.9546,-21.9042,-27.0505,46.6049,-25.5345,18.4231,-50.3360,-194.0594,-38.4316
-1210.9375,226.0282,27.7209,6.9298,-37.3121,-33.5936,-71.9251,-30.4626,-98.6846,39.1574,-69.8422,662.8645,-45.2862,-38.0456,-117.0183,141.5389,-41.6894,3.9565,-135.4521,-172.9600,-17.5535
-1203.1250,-122.5217,-26.5503,111.8177,27.5859,71.6648,-39.8705,38.7723,-66.0570,70.6525,36.6214,-371.0722,23.7315,104.0608,62.2639,-47.2748,27.4078,-36.2574,-34.3192,-143.6125,-22.4256
-1195.3125,89.0076,-13.0259,88.6915,-28.5226,12.9084,-25.8194,15.9998,-51.4549,12.1424,-59.9273,231.1100,-73.2451,-65.8452,-70.4603,187.9223,4.5044,-22.4710,-91.2009,-129.2659,-8.2968
-1187.5000,91.4400,-35.6593,-9.0331,-87.2186,-11.4393,23.6401,-8.3723,-38.4699,-11.9613,-47.0648,353.5949,-60.8042,-16.3402,16.2363,16.4998,90.0160,-81.2910,-7.6783,-46.5276,4.2332
-1179.6875,-182.3331,-66.9942,26.4867,17.3370,61.4565,59.3504,-9.5016,34.7444,24.1799,63.0317,-456.6115,-25.1150,19.3991,52.1690,-21.6493,125.7697,-82.8558,61.0879,-47.5434,3.0144
-1171.8750,170.6170,-34.3330,-89.1539,-93.2568,-53.8016,-19.0823,-50.7818,30.7945,-16.8279,58.9687,642.0622,-103.5711,-132.0169,-63.0327,121.0385,11.3797,-122.5739,21.7039,-15.7041,-1.3543
-1164.0625,-155.8415,-86.1008,-38.3939,-10.4359,-2.6491,67.8990,0.3400,81.2337,70.5642,220.3069,-299.9502,-52.6195,-8.0272,61.1726,-122.8756,98.3988,-145.8922,103.7225,-3.4752,-24.3239
-1156.2500,4.2803,-37.6741,22.8016,-23.1796,-15.0590,19.3247,-49.0980,106.1081,22.3944,60.0882,18.6072,-102.2218,-94.6011,-98.1844,48.6737,12.8692,-17.7603,21.1828,-15.7921,-36.8442
-1148.4375,131.9139,-29.2466,16.3966,-100.5208,-21.0601,-60.8454,-18.1322,27.3738,52.6302,18.2840,416.4810,-108.4180,10.2369,-67.1209,-30.4001,6.7582,-24.2373,-54.9485,48.3003,-42.9672
-1140.6250,-187.7178,-92.1401,43.7884,-37.0693,43.7332,-33.2140,46.6304,55.4355,154.6684,119.2678,-474.8180,-80.8189,73.8605,-2.2671,-2.6533,70.4398,-31.9068,-63.2814,6.1955,-15.2916
-1132.8125,140.3210,-67.8733,-101.9277,-209.7258,-28.5764,-140.6825,48.2923,-16.6156,119.6037,85.1461,593.8435,-115.3255,-107.6232,-146.5124,219.9856,73.0243,-64.6774,-128.7134,44.9993,23.2813
-1125.0000,-130.0242,-115.0470,-109.1392,-145.8706,38.6274,-111.6423,78.4539,13.8288,187.0403,225.5275,-112.0956,-49.3252,32.3982,-7.2483,-7.8785,176.1163,-140.9443,-31.6400,38.2973,16.3523
-1117.1875,-73.9893,-65.0810,-60.0089,-63.6738,52.1656,-62.2568,17.9561,27.6018,90.8225,165.2367,-62.5731,-35.9777,-65.2424,-30.6460,79.6297,42.5524,-93.8553,-88.2276,-19.0513,29.7698
-1109.3750,145.4653,-22.6419,-125.9771,-92.5685,-88.3981,-91.9627,-49.6422,-2.7370,23.5059,134.8527,606.7921,-29.7194,-94.9736,12.8772,49.0154,48.8960,-121.8697,-115.9095,-12.4988,36.0818
-1101.5625,-208.1773,-62.0742,-30.7900,34.6953,-28.8138,4.4821,-26.0950,95.0661,84.3282,195.6096,-472.6948,30.6953,1.4311,109.5398,-75.4403,145.3851,-135.7260,-25.4433,-25.7992,22.5420
-1093.7500,126.2950,-28.5192,-47.8134,-53.2509,-82.4438,-49.2729,-42.7569,78.6529,-6.0572,69.1567,465.7045,-97.0958,-89.3745,-90.9970,128.9004,91.6846,-83.7786,-112.1758,-42.2887,5.8000
-1085.9375,-33.2765,-68.4830,7.6173,-0.7325,-26.6120,6.4402,-23.9677,60.6876,13.0136,161.1622,6.4419,-115.4360,40.2738,38.9308,-73.3213,147.4507,-102.3748,-24.4510,-24.3229,-12.4994
-1078.1250,-95.6680,-51.3455,87.2942,74.0284,17.4616,13.4015,-16.9357,103.9582,20.3282,168.4059,-317.4691,-145.5297,-26.8398,-27.9082,7.7288,43.4595,8.2851,15.5052,-19.1134,-42.5527
-1070.3125,182.5570,-46.6778,22.0169,-59.1568,-84.4117,21.4107,-44.8577,113.2681,28.6898,66.7066,537.6506,-245.5619,-54.8923,-92.6874,52.8117,15.5261,14.9829,-12.4922,58.1395,-70.5524
-1062.5000,-162.2805,-45.8731,105.5852,55.5187,-0.4365,68.2708,2.0654,123.4167,38.9013,150.8555,-519.4064,-52.7335,27.9001,27.3806,-121.2462,99.4456,-10.4706,32.3560,-36.7726,-60.6994
-1054.6875,168.1912,35.8462,54.8898,8.9316,-50.7223,-18.1312,-122.2683,73.2984,-121.1394,27.7434,387.4049,-66.1618,-132.5642,-132.8097,49.4572,-23.8838,47.8230,-14.0590,-83.9368,-37.0955
-1046.8750,86.7275,-14.0395,25.5072,-20.3433,-42.7009,-47.2312,-40.2986,8.4699,-75.8721,71.9418,247.4168,-95.2788,-13.7131,-13.6864,-126.5603,20.1020,-16.5835,61.8302,-6.8193,-66.1919
-1039.0625,-92.0648,-47.7631,107.8281,21.0747,113.0185,-2.6380,41.3576,16.3221,-66.9218,6.8262,-331.7776,-123.6974,-6.1750,-5.8782,-43.8535,-44.2218,24.7163,104.4113,-35.0213,-94.5861
-1031.2500,205.8633,-4.0085,49.0510,-68.6046,54.6420,-60.1496,19.9060,-77.9427,-125.0826,-124.3977,565.9379,-145.2043,-26.7246,-100.1522,44.7408,-65.6377,4.9134,48.8937,-19.3337,-79.0799
-1023.4375,-102.4413,-40.9472,65.0302,17.4840,145.0159,29.0961,0.1931,-24.4663,-71.5003,-70.8832,-262.6511,-17.9491,136.4769,100.3302,-122.9075,23.6928,-84.1305,101.1279,-72.9063,-62.8231
-1015.6250,93.2919,0.0311,5.4504,-1.9852,48.8208,6.7873,-97.0852,-10.5566,-94.4831,-202.9381,302.3375,-41.2477,40.1179,-32.7468,74.9091,-35.5343,-69.7193,80.8064,-93.0285,-12.1156
-1007.8125,100.4182,-7.8998,-88.3220,-55.6355,-7.5691,24.2861,-115.5668,-29.8629,-76.6688,-39.1927,431.0331,13.2659,57.5724,21.9904,-17.4937,19.0472,-122.5060,63.3019,30.6386,5.3892
-1000.0000,-168.1418,-47.2085,-42.1408,-10.3278,38.9845,70.7388,-70.1094,53.7689,-66.9192,191.4802,-368.2617,59.7262,29.9596,31.6609,-44.9269,65.5599,-113.3331,72.7494,5.2485,14.8414
-992.1875,185.5055,-9.9792,-94.3535,-95.4210,-86.8663,-19.2027,-121.0572,37.9833,-81.5784,138.7326,646.0851,-67.2147,-96.0490,-130.0639,123.2267,-24.3244,-57.5596,-47.1954,26.4601,35.8894
-984.3750,-96.0470,-53.8172,-15.6091,-19.5525,-80.7588,23.8163,-152.0518,118.1468,-75.2803,255.9314,-193.6986,-24.2059,19.8979,59.1666,-126.6701,92.7449,-86.8381,64.8109,67.6165,41.8841
-976.5625,34.6919,-5.1173,49.3240,-28.4973,-89.4576,-21.9764,-197.8541,109.4945,-156.7861,173.3307,54.8436,-33.0083,-62.9682,-23.4198,-26.3434,47.0107,10.0825,21.0082,58.9683,33.0765
-968.7500,181.3280,17.1850,32.5060,-80.1843,-105.8994,-75.5211,-177.4047,19.0864,-173.0325,46.9979,479.5623,-49.5542,-5.5721,-2.7444,-115.7840,30.5403,28.2506,39.4597,77.5669,16.5185
-960.9375,-124.3307,29.4365,97.4924,87.9345,-40.5440,-46.2702,-76.1600,11.4661,-107.4878,-34.5505,-519.8857,53.6923,23.6148,63.7173,-123.4013,22.8695,90.2328,136.7059,34.9486,8.7617
-953.1250,211.0896,65.0179,-18.8755,-23.2992,-119.5468,-89.3785,-82.2754,-31.5216,-113.3035,-186.4581,503.3905,-26.4164,-93.5435,-53.1745,54.6298,-94.1455,118.8665,60.5955,63.9766,2.6546
-945.3125,-60.5639,7.3077,-37.2843,28.4385,-27.5905,-70.5291,10.5583,-49.5670,-21.1741,-58.4079,-175.4735,29.4293,72.2626,112.8855,-147.4007,-1.2033,30.4570,112.4338,80.9410,-15.5048
-937.5000,-66.1136,-2.2953,-48.6486,52.2263,35.4062,-7.6328,36.4225,13.4266,4.9815,-69.3226,-186.1674,-18.6780,-11.9010,-8.0176,25.6393,-86.2188,19.1050,101.3105,34.9493,-26.6160
-929.6875,124.9452,-13.4163,-108.6098,-75.5776,12.8055,6.6686,49.6869,-9.1902,19.5331,-54.8398,452.4963,-78.3722,-34.6564,-30.5024,3.0537,-145.8300,-38.8499,78.5950,153.3557,-49.3283
-921.8750,-215.8560,-35.1793,17.2324,43.4348,139.0039,95.7755,102.7440,79.9868,71.8771,34.4291,-634.0385,10.7350,54.3736,58.8003,-165.7181,-92.6484,-24.9963,128.6799,132.5524,-70.2414
-914.0625,129.0776,16.9135,-10.5794,-53.2013,36.5398,67.2299,37.1434,51.4998,43.5629,-103.9660,330.8745,-53.8180,-84.2454,-153.5559,26.8620,-158.1239,18.2046,31.1151,106.0997,-61.8092
-906.2500,-25.7988,-28.0473,-0.1774,-42.6151,47.2850,77.8957,47.7374,26.2088,128.4467,17.8428,-63.1175,-43.1674,0.3545,-31.6993,-146.3805,-36.3967,-6.3912,41.7600,116.8384,-51.1832
-898.4375,-104.7803,-12.7018,54.1265,45.8675,29.9235,59.4608,-6.7783,80.8057,110.2163,36.5320,-374.0971,-24.6291,-92.1658,-49.9655,-16.7032,19.2212,46.9196,-9.7004,29.4713,-32.6598
-890.6250,185.9409,5.2137,-5.3163,-81.3907,-104.1896,-36.7235,-67.0489,21.6455,87.2303,-60.5242,522.1583,-84.8325,-151.4317,-72.9684,34.2101,33.1001,25.4774,-30.9112,78.3418,-18.8879
-882.8125,-201.7091,-33.6755,21.3498,49.4729,-40.2025,-9.8095,-3.2306,48.5761,151.3365,40.5142,-590.5143,16.0736,22.3969,101.1240,-123.7656,96.0798,15.1448,98.9793,33.2866,-29.0158
-875.0000,56.9695,2.1590,-21.4893,43.8377,-82.7254,-52.4034,-8.9297,5.9873,71.9281,-1.9630,139.4333,-100.5248,-94.2743,-88.2948,91.7712,-19.4423,44.3156,93.3650,27.7178,-34.6459
-867.1875,-10.5998,-16.0621,-66.4151,1.1248,-53.3401,13.9090,-16.7320,-38.7105,64.4156,27.4585,22.1869,-34.2138,8.9724,51.2008,-62.8080,82.9477,36.3885,85.6558,55.0299,-42.3796
-859.3750,-166.0593,10.8560,42.1122,69.8636,-17.5109,48.6636,-18.0979,-2.9697,27.3346,-10.6853,-566.5156,74.5424,7.6577,50.1274,-26.9168,81.7817,105.9224,14.3845,-16.2259,-43.6654
-851.5625,186.6532,32.4443,24.7898,-123.2408,-145.5325,-41.4306,-35.3263,-57.0890,-26.6138,-101.6738,482.9488,20.4527,-83.4978,-39.7871,103.1072,-8.2275,52.6073,-37.7364,71.6514,-60.8021
-843.7500,-201.3130,-58.1297,54.3267,-59.4724,-4.7001,24.3312,104.2839,9.6362,113.2754,38.1896,-552.7921,50.2178,56.1990,100.1464,-51.0117,57.6128,-59.8487,24.9903,100.3586,-68.0889
-835.9375,-37.3309,-44.9713,-38.2922,-112.8565,12.9674,5.9415,84.7329,27.1949,94.0022,-54.1137,-20.5518,-5.1776,0.7333,-103.0832,187.7347,2.2954,-42.4525,-27.4386,46.9106,-50.5252
-828.1250,-1.4703,-43.9320,-124.3611,-122.6693,38.1909,-42.8865,72.7339,-58.7036,46.2836,-65.8629,189.1501,19.9838,98.8338,-3.7476,102.0132,63.5333,-88.5100,-2.3032,72.0044,-25.4135
-820.3125,-239.3971,-40.8731,-63.1809,7.7734,98.6619,18.5345,23.9816,2.6436,33.8105,-41.3822,-594.8434,80.3852,123.1762,20.8210,126.5654,88.0099,6.6887,22.0804,-44.6612,-1.0548
-812.5000,145.9041,23.8148,-118.8051,-45.5850,6.3343,-37.8416,-69.5776,-53.8211,-59.4672,-132.7095,489.4098,-12.0115,-6.2735,-72.4079,218.3143,-41.3092,59.0826,4.6626,-27.1369,16.5013
-804.6875,-145.2689,14.5302,-63.3124,78.1759,99.1139,18.8872,-13.0421,-34.1882,-2.6517,-77.9353,-409.3199,80.6992,123.3825,94.4712,-56.8381,15.4740,76.5850,127.3489,-8.5355,-0.8436
-796.8750,-34.3295,61.1937,-42.6146,133.1341,83.0851,2.8054,-29.3236,-50.3692,-55.6623,-129.9713,-203.7195,28.5977,-2.7788,-31.4690,111.2312,-74.5526,201.2954,111.2280,-95.7503,-16.9893
-789.0625,132.7352,90.8008,-43.1999,96.8123,9.7636,2.4286,-66.9180,-87.8601,-55.9873,-130.2980,273.5212,28.1998,-3.2185,-31.7014,-36.0240,-74.8692,165.7102,75.8150,-25.2889,-17.4359
-781.2500,-197.0067,60.4503,23.8744,231.1537,76.0923,105.6997,-36.8786,16.2858,11.3238,10.0156,-724.5540,94.4482,62.9867,71.7012,-152.6139,-44.5374,158.7872,104.0493,-32.2044,-24.2327
-773.4375,132.6127,69.0772,-73.9004,33.6461,-57.4338,119.1176,-60.6985,66.5676,-49.2261,-50.5349,318.6037,34.8418,-107.6562,-61.7505,80.9446,-105.0543,101.0177,-22.5700,51.0203,-10.8808
-765.6250,-115.9992,7.4402,-90.5124,17.3127,-36.8026,213.6906,-3.3697,122.9936,8.3748,44.0623,-321.1834,91.3964,-13.1391,105.9551,-119.3516,26.5841,49.4059,65.9610,104.3776,-27.3797
-757.8125,-89.3484,45.7017,-28.8730,75.2313,25.0667,164.5031,-15.8001,110.6561,-40.7891,-42.1040,-369.5943,79.1925,-99.3850,20.8871,-20.3717,-22.5452,143.0516,53.7314,56.9749,-39.6295
-750.0000,154.5114,76.4549,-42.3331,27.0699,47.8388,114.2159,-29.3326,-12.7918,-91.0571,-92.3655,352.8569,28.8948,-75.7177,-29.2629,-33.5089,-72.7660,129.5891,40.4092,43.4533,-52.9772
-742.1875,-188.8903,65.4666,45.6089,183.3335,137.0112,166.3307,22.5182,2.1590,-75.9397,-40.2361,-697.2931,155.0005,49.3488,95.9752,-165.2308,16.4073,109.5273,90.4918,-46.6968,-37.9214
-734.3750,146.5314,100.7823,9.9458,80.0080,64.5731,56.8480,-51.2427,-34.5026,-147.4400,-112.7192,296.0564,81.5024,-60.1810,-87.3943,19.4476,-57.0285,75.8665,-12.0278,-45.4607,-0.4654
-726.5625,-29.3681,41.5410,-14.6992,92.7112,77.1514,32.3711,-39.0080,-22.1688,-25.9466,-27.1916,-94.6922,94.0158,63.3080,73.2440,-150.8890,29.5420,-16.7937,0.4575,-33.2464,11.9866
-718.7500,-105.6240,60.3944,32.0068,173.7665,50.0715,5.2411,-29.4367,-12.4951,-16.1225,19.6723,-414.9923,103.8698,-37.8626,9.2114,-31.8455,2.4594,62.9029,-25.7182,-93.7016,21.7910
-710.9375,209.4012,92.6254,-5.7405,67.3806,-97.4556,-105.3311,-67.3218,-50.2780,-53.7530,-54.9128,504.2460,30.2713,-147.4700,-65.2542,41.7385,1.9422,62.1445,-61.3297,-59.6234,21.1472
-703.1250,-162.6167,30.0934,35.2666,177.7612,-57.2300,8.8581,10.5367,-9.3100,24.3617,23.2529,-556.7883,71.4167,-34.3301,87.0236,-100.9175,116.1708,31.1420,13.8191,-55.8198,25.2550
-695.3125,101.2783,75.9764,-16.1803,94.6930,-143.4638,31.5925,-41.0697,13.1966,-26.9943,-28.0349,201.8314,57.0976,-157.6469,-74.1637,105.9936,-8.0554,53.6945,-103.4800,-102.4841,47.9137
-687.5000,41.4471,55.5560,-76.7101,37.5460,-167.7898,44.2355,-28.7852,-11.4026,-14.4618,21.5831,142.2783,142.6773,-36.0496,48.5512,-65.2153,4.6269,-39.8505,-90.8647,-56.2728,60.4673
-679.6875,-137.2713,47.0807,-3.2777,108.3620,-93.1704,44.8284,-28.5644,25.9379,-49.9953,22.1292,-444.2624,180.1935,1.4841,123.1941,-64.4560,-31.7567,-4.4291,-90.2971,-90.1292,60.9689
-671.8750,233.5835,90.7471,-30.6412,-22.6053,-157.3480,-19.3715,-91.1498,-37.5284,-150.3411,-41.1312,632.4196,116.9077,-61.7764,22.0381,18.4866,-93.9443,5.1896,-151.5236,-80.7968,70.6645
-664.0625,-100.1364,43.6673,49.4092,89.8531,-41.1164,23.8381,-13.3392,-31.5992,-107.2932,75.0043,-353.5430,159.0219,54.3631,175.2697,-195.1696,21.2545,-23.7853,-40.3462,-75.0811,76.7524
-656.2500,97.9148,70.4218,56.2114,26.0651,-34.1456,-6.2050,-42.7869,-24.9326,-137.5097,-28.1263,169.3539,92.8783,-84.7552,-1.7691,-5.0596,-44.8142,17.9959,-67.4299,-68.6330,83.5863
-648.4375,151.6666,44.1191,41.3778,-58.3465,-12.8190,-20.8884,-21.8883,-39.9201,-78.3821,-78.9063,375.5249,41.0928,9.4926,-16.4505,-55.6212,-23.5265,3.1264,21.8373,-14.8555,68.7669
-640.6250,-93.2925,21.1203,146.6978,43.4050,93.6570,-25.4300,47.1467,-44.7641,-47.1206,-83.5537,-436.0927,36.4552,78.8847,-21.0003,-24.0062,-64.1002,69.4147,123.2422,-54.9547,64.0956
-632.8125,279.2469,63.5612,109.9189,-62.9367,19.0296,-135.0826,46.0729,-155.7214,-120.9703,-231.3057,630.2471,-74.2757,4.1877,-167.6443,123.5050,-174.7691,103.6006,87.5358,-21.1763,63.3236
-625.0000,-22.7952,19.8262,158.0600,18.6506,141.3144,-122.8381,130.8944,-143.7838,-72.9270,-109.1544,-238.5910,-26.0962,163.4016,-46.3903,-121.0832,-89.5368,78.6950,203.7296,-11.5309,38.4508
-617.1875,76.0059,21.7782,210.0075,32.0428,156.3901,-72.8062,108.4976,-93.0687,-59.0968,-131.2133,-3.4962,-121.1240,104.4048,-177.3560,40.1542,-184.5170,91.5922,110.7105,-34.1134,16.3791
-609.3750,213.4083,-18.7561,135.8646,-75.6419,82.3681,-72.8717,107.9978,-57.4648,-22.3723,-59.3712,512.4405,-231.2399,104.3281,-141.4069,3.2743,-184.5946,54.3879,73.5967,-0.8242,-20.7919
-601.5625,-138.2841,-68.2370,183.0254,3.9943,92.6502,11.3633,154.7892,26.4299,60.6369,60.7585,-505.2973,-149.0578,188.5423,-21.1763,-23.2863,-102.3832,62.4910,46.7824,-63.2580,-47.6644
-593.7500,229.7210,1.8000,119.1819,-91.3671,-44.0677,-15.3975,53.5755,-0.6926,-39.3653,-39.1242,535.0435,-174.8817,14.7589,-193.9525,171.1569,-165.1752,108.5864,-48.0251,-53.7077,-37.5383
-585.9375,-4.5577,-9.0491,63.7916,-1.2504,11.6759,76.3070,35.8104,17.6334,-57.9254,16.4344,-71.2577,-46.2461,143.4432,7.7295,-67.9463,-73.5130,56.1278,40.6312,-71.7347,-18.9601
-578.1250,-29.5967,17.7819,51.2949,57.7667,35.3095,63.9092,-15.0659,40.8516,-107.5992,-34.1213,-155.5363,14.2810,93.0196,-5.7058,29.8750,-86.9567,44.5665,29.1808,-152.8799,4.5219
-570.3125,176.0796,4.6809,-75.7038,-61.7004,-17.5542,11.0175,5.5514,-49.4370,-122.7781,-86.1634,601.6451,-38.6837,78.1162,15.3694,51.1830,-65.8937,-40.4968,-20.7646,-98.5428,25.5045
-562.5000,-193.7305,-23.1091,-29.1463,54.4023,66.1312,57.6746,51.7091,33.8181,-77.4192,33.3468,-490.6318,81.9061,160.7599,134.9824,-85.9405,17.7147,-66.0045,59.8380,-89.6806,35.0382
-554.6875,130.5921,8.8634,-53.9879,-38.8914,4.4108,-4.0746,-10.5442,8.6616,-65.4740,-64.5536,441.7931,-16.9088,-10.9966,-36.8107,146.5448,-80.0830,-53.9120,-33.9629,-78.2374,47.1715
-546.8750,-14.9048,-20.0612,-55.9655,-5.3113,39.5556,-5.9669,-12.9448,6.3531,5.3251,43.3988,72.9624,18.1351,98.1100,109.2534,-39.1282,-9.0271,-90.9678,-0.9083,-45.9654,45.1524
-539.0625,-129.2486,-14.1756,-1.7367,46.4741,93.9043,11.3325,40.8496,23.2312,22.3165,60.5312,-349.5683,35.3689,78.4105,52.4863,52.4292,-28.7829,-4.8182,15.3336,-66.5144,25.3312
-531.2500,173.0397,3.0121,-33.1509,-55.3769,-11.3925,16.9824,8.9900,-45.5492,-9.3450,-7.9782,539.2424,-70.0450,-26.9211,-15.9261,94.3217,-23.1839,-1.3273,-52.0789,42.2701,-6.1413
-523.4375,-186.3038,-25.2652,63.0919,107.4436,84.9656,113.2828,67.7731,14.3199,50.6295,52.1668,-576.3321,-9.8025,106.3962,117.3008,-103.1197,73.0623,19.8161,5.1584,27.6773,-19.9609
-515.6250,80.3599,18.1520,64.7330,40.6695,-24.2877,40.9753,-5.0596,14.5723,-23.0184,-58.2961,160.6117,-46.1658,-39.8885,-29.0876,155.8505,-36.3028,22.3649,-132.2091,-41.5324,17.6214
-507.8125,92.8307,19.8584,88.3348,-6.1261,-73.5780,-46.3739,-18.9416,-72.2334,-72.7182,2.1955,222.4032,14.4313,57.7986,31.4865,-4.2478,24.2834,-25.1344,-144.6196,-88.8123,41.1526
-500.0000,-60.6955,16.9370,192.0436,94.1922,-6.7704,-52.6258,-62.7298,-42.9464,-79.3270,32.7692,-333.6282,8.1202,88.5774,25.1350,-47.2212,-19.0477,39.4722,-80.9338,-166.0190,34.7835
-492.1875,299.9298,29.8618,157.5054,-43.7259,-77.2149,-122.1189,-132.7743,-76.9168,-113.1910,-74.9055,736.1079,-135.4377,-19.8907,-82.4612,66.5453,-89.6191,41.8235,-112.4980,-128.4953,37.1637
-484.3750,-54.9976,-6.7135,165.3735,70.7840,3.7462,-78.2037,-53.4214,-33.4834,-33.6602,42.8288,-246.8275,-18.5924,135.0400,72.3398,-108.2789,28.2189,-21.4274,-70.6626,-121.5950,44.9431
-476.5625,94.3425,24.9599,71.4841,52.5437,-17.0550,-98.0405,-73.8308,-17.8062,-17.8946,-51.1842,210.6105,-39.5038,-32.7864,-58.6222,128.1650,-65.6978,-5.4364,-124.5872,-106.4629,60.9733
-468.7500,131.8376,-0.5369,26.5957,-60.6739,-60.8517,-105.8665,-46.2437,-62.1304,-26.1313,-23.1858,424.9592,-10.3978,33.4042,43.4309,46.5899,-0.6065,-83.4489,-132.4984,-11.3517,53.0051
-460.9375,-166.5494,-50.2556,95.8092,5.2249,7.4494,-38.5964,-14.5666,5.6375,5.7193,45.8942,-460.5445,21.8034,102.6896,112.5732,5.1394,68.5744,-88.3530,-67.3066,-17.1675,48.1398
-453.1250,186.7652,-23.6263,-7.2290,-126.1211,-93.4975,-30.5759,-44.1411,13.1438,-59.6884,-20.2819,614.7524,-80.2459,-0.2644,-63.5377,160.4402,2.5071,-80.5098,-164.3581,60.7436,56.0236
-445.3125,-86.3934,-41.5578,54.3455,-32.8444,-33.8239,-5.9484,16.8858,37.2457,37.4987,41.1582,-204.4404,17.3075,134.3911,107.9475,-71.6621,101.0445,-93.0669,-141.8038,82.2310,43.5058
-437.5000,21.3401,9.9806,113.4224,-11.0731,-47.6478,-56.8275,2.4043,-14.1668,23.1709,-9.9150,-34.0122,3.3500,-26.4618,-17.0926,98.7613,13.0728,33.8773,-190.7571,-2.8000,29.4879
-429.6875,196.4555,20.1661,102.1057,-56.6811,-94.8609,-140.0977,-46.4737,-62.9778,11.4404,-21.3853,507.9466,-44.9989,-0.6955,-28.5190,13.7680,1.7079,-12.5882,-237.0991,19.7474,18.0704
-421.8750,-140.4851,-30.9633,173.3378,47.2706,-24.5133,-70.8127,-49.8052,7.7591,8.2538,122.6938,-486.5321,-10.8003,143.6131,42.5878,-98.6452,35.8847,-15.5056,-169.8943,-19.1763,15.2035
-414.0625,217.4912,5.4899,118.3112,-74.0252,-78.4161,-123.7796,-104.3862,-10.7634,-47.1806,68.5226,562.8131,-101.8572,-21.3241,-121.5603,104.6949,-56.1847,3.3140,-220.9463,-37.3705,34.0877
-406.2500,1.0256,-4.1514,127.5424,41.9585,-33.0566,-78.4899,-131.7189,34.9598,-38.3656,150.6140,-50.6948,-19.6534,99.0017,70.5456,-105.7183,64.0046,-23.6207,-141.7425,-64.3414,43.2240
-398.4375,-6.3928,29.8098,133.5687,118.7441,-26.9050,-36.4099,-163.2620,40.4701,-141.7635,120.4936,-154.2942,-13.6588,31.1161,-34.5688,9.6950,32.9900,53.2500,-99.7453,-128.5284,49.1614
-390.6250,218.7377,47.5047,17.8018,43.7470,-141.5530,-5.1276,-169.6070,-2.8243,-147.9620,3.5777,576.2599,-56.4576,-48.5531,-3.4757,-32.7032,27.1797,12.3154,-36.5431,-31.5276,43.3004
-382.8125,-181.3647,6.5898,-6.9068,195.8184,-20.1491,117.2086,-85.9099,82.9321,-27.1171,89.7024,-550.1539,29.7943,0.8259,118.6569,-129.0305,39.4139,-12.5658,79.7083,-21.4980,18.4926
-375.0000,80.3788,-3.0940,-119.5702,87.9420,-95.7059,114.5896,-89.1718,79.7304,-67.2337,86.8707,331.5787,-83.9082,-147.7404,-31.1720,124.7040,-37.3047,-86.3987,77.0039,-61.4335,15.7366
-367.1875,-86.2805,-45.5576,-173.7743,70.5423,-77.8011,207.4261,-33.9817,133.9773,-48.9008,104.5046,-53.3490,-28.1466,-19.8414,134.4599,-77.1277,91.4346,-139.7881,128.7576,-9.9384,-2.5685
-359.3750,-190.8992,-18.9008,-106.8885,136.2470,-8.8004,202.3599,-2.7011,165.3228,-17.4838,136.2348,-461.0819,40.7095,-61.8583,56.1714,-44.8370,86.2700,-75.0803,18.6043,-51.3660,-7.7689
-351.5625,130.4293,18.9856,-144.0072,-4.0425,-46.7938,17.2971,-4.4202,16.6612,-19.0688,97.9788,495.1764,2.5740,-99.8622,-56.1046,65.4394,49.1113,-40.3887,-157.5427,-18.8107,-8.9668
-343.7500,-205.9397,-3.9021,-18.3682,117.4392,79.9729,-41.0119,47.6119,-5.2530,70.0950,113.4755,-554.8660,91.1935,63.8898,70.3594,-66.5167,100.7015,-24.9475,-107.9368,-75.5362,6.5887
-335.9375,77.5494,38.1732,-7.5870,59.0660,16.8846,-139.1783,-16.2082,-32.0271,6.4043,-22.8902,192.3531,-8.0470,-73.2059,-67.0400,128.7023,1.4410,55.6359,-131.1888,-136.1306,17.2978
-328.1250,35.4877,-11.6528,-46.6443,-13.1364,-22.0392,-105.1867,18.1273,-71.6532,40.8669,48.9012,191.6163,-10.1280,-1.1380,41.7281,-19.9423,73.3414,-52.6387,-29.2803,-69.5976,15.1565
-320.3125,-167.3054,-18.4365,9.9016,76.2627,71.6433,-49.5990,73.0607,-15.6855,95.9175,68.2843,-485.4558,9.3850,-18.4800,-12.9291,0.0419,18.8332,0.6895,59.2235,-52.4832,-2.3852
-312.5000,212.6443,37.4340,-45.7071,-47.4900,-20.8177,-31.1573,53.8537,-71.8773,3.8219,-134.4753,600.3390,-46.2501,-110.9624,-141.7380,55.8663,-73.8217,16.8557,40.5840,-2.5294,-21.0772
-304.6875,-115.6021,16.1370,14.7387,115.8286,75.7868,65.3435,39.7041,-12.0156,26.7779,-112.1838,-404.8982,14.1723,23.6085,28.4990,-214.2522,23.5706,38.0723,132.9988,17.4543,-34.7180
-296.8750,55.3468,35.8506,5.6765,107.6491,30.8829,93.3411,-42.9502,-21.6665,-19.7727,-121.4072,65.4829,-68.9102,-59.3336,-164.7801,34.1511,-133.5482,63.7887,123.9061,6.9215,-43.8582
-289.0625,108.0796,-2.5892,-46.6769,-11.8092,15.6838,78.0407,14.0923,-37.6245,1.3794,-99.9129,345.4661,-84.2806,35.4398,-107.3506,-17.7651,-111.9571,-21.7943,143.5220,25.0773,-59.3002
-281.2500,-185.4252,-49.6736,-7.3741,61.3976,128.1333,117.3901,89.7719,37.0660,39.1746,-60.7727,-495.8650,-45.0064,74.8532,-31.2919,-52.0101,-35.7277,-54.7176,180.7832,-9.1373,-57.0924
-273.4375,199.1299,8.5926,-71.3743,-32.6895,28.2765,53.4380,25.1456,-26.5500,12.6658,-160.9376,618.5524,-109.0273,-62.0331,-168.5316,105.4412,-99.7955,-9.9475,49.7498,-35.6618,-47.1822
-265.6250,-83.8679,-19.4564,-30.4686,42.1415,68.3265,94.3934,65.4265,-23.2634,52.0621,-84.1984,-185.2273,5.8658,88.9937,55.1352,-74.2057,15.0407,-41.2792,88.6155,-68.3060,-43.3720
-257.8125,-25.2993,-9.4656,-51.2709,94.2660,11.6732,73.6386,44.0010,-7.6879,31.7464,-31.1649,-21.5896,-51.9410,-4.6918,-38.9167,126.4738,-5.8287,-25.3147,-0.2290,-88.6674,-27.2601
-250.0000,89.1618,-68.6746,-171.4208,-55.9450,1.6735,-9.4656,70.2300,-18.4664,94.0794,32.5352,521.6236,-136.0829,22.2864,-12.2995,116.7861,56.9686,-141.7088,24.5876,-30.3893,-37.4976
-242.1875,-300.3159,-140.8086,-151.3147,0.1041,132.9350,47.6804,200.7095,75.0046,188.6653,89.4822,-558.9215,-77.9758,116.5086,81.5516,64.3736,152.0167,-192.8505,114.6538,-12.8679,-53.4845
-234.3750,81.7403,-37.6268,-142.8646,-96.5054,67.5534,-16.8274,172.5434,9.8175,122.6000,-123.2276,443.9437,-32.5158,-58.9099,-57.2516,257.3166,13.4079,-149.6476,17.0696,-41.0027,-45.1210
-226.5625,-102.6135,-22.4796,-94.4116,-49.0967,79.1916,-5.3298,146.3831,-53.3723,133.5390,-0.9275,-131.2885,125.9638,62.6859,63.9540,12.2470,60.8053,-138.4523,63.4937,-31.1608,-33.7558
-218.7500,-117.8697,20.0340,-89.8658,62.4057,83.9277,-0.7333,39.3189,-49.4672,63.5726,40.4689,-272.3496,130.5414,-42.6376,-41.7573,90.3089,29.3067,-28.1594,33.0165,-63.2322,-29.2834
-210.9375,148.2951,38.1409,-123.8717,-3.6360,-22.8865,2.3177,-31.2859,-84.1153,-6.9358,6.3209,503.9832,23.5765,-76.4936,-76.0066,93.8112,-4.7286,9.5789,0.9969,-61.8578,-26.3601
-203.1250,-214.8936,-0.0301,-46.9718,105.2278,54.2108,78.2695,8.0151,-7.8663,32.4603,46.0709,-594.7971,99.5076,37.5520,0.6255,-49.7650,71.1263,12.2198,73.8736,-95.6021,-23.5394
-195.3125,140.5462,60.5068,-4.7780,6.3893,-51.3927,-26.4747,-61.3822,-77.3204,0.1567,-96.8811,330.7861,31.7307,-141.1047,-141.4574,139.9679,-33.7285,87.1520,9.0504,-128.0534,-18.4177
-187.5000,14.5577,50.6422,-24.6336,22.5193,-34.0358,-46.2579,-7.8284,-97.8283,16.8069,-42.8784,17.2496,121.9145,-50.7994,58.4212,-100.3640,56.3717,32.0283,-10.8167,-43.5734,-38.3499
-179.6875,-118.4370,37.4590,37.8547,83.0038,29.6667,-19.6908,17.0778,-34.9849,41.8043,-16.5389,-431.9008,111.4485,-61.1583,11.6355,-36.3172,9.8166,56.2572,13.6591,-55.7492,-48.9307
-171.8750,194.9745,40.4567,-43.2134,-65.0580,-52.1775,-101.6738,8.4401,-80.6981,-2.7469,-61.7433,553.3873,-6.5596,-106.0543,-107.6916,66.1692,1.7175,47.9274,-29.4115,4.5232,-57.0643
-164.0625,-189.6182,-32.8245,-5.7825,42.3925,22.4832,-27.1554,82.3063,-6.9086,70.2048,85.5561,-510.8653,29.9375,41.5482,39.4722,-79.8378,112.1146,-21.8988,41.0194,3.2844,-56.6992
-156.2500,29.2661,-33.8033,-78.6046,-25.4117,-13.1071,-25.9026,45.9209,29.6205,33.9001,49.5957,189.7242,-78.8155,-67.1025,-106.6246,142.9176,3.2601,-55.9766,-27.8109,2.7871,-55.5831
-148.4375,3.0342,-52.2914,-105.4180,-50.2056,-39.6826,21.3505,55.5386,39.1474,80.5975,96.6496,201.2160,-31.5569,-19.7370,14.2992,43.6548,86.4197,-152.0593,-52.6409,11.2785,-45.4657
-140.6250,-197.9831,-53.9555,-2.0844,51.1495,26.8913,50.7498,47.3054,31.8223,109.4472,88.8403,-466.0887,34.8480,9.7638,79.3549,73.5701,115.7280,-122.9931,-23.3277,-101.0905,-16.1933
-132.8125,177.6107,-6.6511,-30.4592,-80.1912,-75.2372,-14.5522,-54.6263,-71.2064,-29.3984,24.3436,609.9223,-30.4407,-55.4287,-22.2856,155.7805,51.3412,-79.6408,-50.7191,-94.1638,-7.6175
-125.0000,-127.3554,-24.4791,49.6206,31.9346,43.0877,29.6038,-48.1081,-64.7827,-22.7912,104.3073,-337.6955,49.7324,98.8334,94.5255,-130.5582,131.4071,-38.8430,60.3439,-125.8001,-37.5905
-117.1875,45.5830,-21.2639,84.2406,63.6018,76.9513,63.3032,-51.0469,-67.8174,-99.6454,27.8167,65.3359,-173.5432,-13.3685,-129.1261,50.6740,-17.9770,62.5011,126.9512,-131.8870,-77.0113
-109.3750,126.8516,-15.0193,67.1571,12.5770,97.1256,46.3101,-32.6780,-85.5460,-43.1888,47.6438,343.5715,-153.5113,5.7453,-109.4607,-1.8131,-35.0472,9.1331,144.8663,-115.6751,-94.1312
-101.5625,-178.8001,-5.6755,79.3617,97.8520,220.6062,22.6198,15.9901,-73.9730,41.5664,59.7686,-524.8654,79.8237,55.1505,-23.5138,11.0263,50.1807,-46.9439,88.0776,-209.1720,-44.9471
-93.7500,162.6010,49.7765,-79.3486,-83.7874,62.1857,-98.9707,-69.2376,-122.3014,30.4214,-62.0041,568.8446,142.2626,-102.3364,-108.4573,183.9655,39.5189,-90.9397,10.3895,-113.5686,17.3419
-85.9375,-150.7094,8.9930,-136.4536,1.1775,77.3727,-47.9530,-17.8567,-108.0264,117.8846,63.8300,-260.9491,231.3061,22.7850,126.2132,-21.5026,127.4720,-111.3353,95.3138,-29.3678,32.2323
-78.1250,-103.9193,26.3786,-127.3112,11.3779,86.8057,-74.6889,-9.2244,-63.5055,90.5949,-1.0942,-176.3991,203.5925,-41.8625,25.1132,136.2953,63.6707,-67.4734,-1.5183,-21.9118,41.3706
-70.3125,65.2822,12.9097,-178.6117,-104.8624,-1.1942,-87.8685,-61.0311,-77.4327,112.8623,21.5331,398.6183,152.4359,-18.9495,10.5721,85.6183,86.4210,-114.0595,-13.7899,34.0946,64.0549
-62.5000,-294.1451,-44.0754,-133.6116,9.2041,118.1129,-7.7482,-16.5365,2.9437,120.4347,176.4599,-622.0756,197.5800,63.2558,92.3143,-15.7429,131.4591,-177.3423,65.2392,5.3996,72.0370
-54.6875,50.7771,4.6642,-204.9258,-92.0375,47.1194,-40.9352,-51.3364,5.0166,11.7125,106.0903,374.9966,127.4252,-116.8382,-88.2516,207.5960,60.1936,-139.9359,-38.0306,6.4078,74.7171
-46.8750,-129.4590,-8.0005,-134.1860,-23.2199,44.1861,-8.0688,-18.0699,1.1430,8.0526,139.7775,-178.0022,197.3321,-10.8674,91.2430,20.9843,130.9890,-178.4873,28.7537,1.4582,71.4484
-39.0625,-129.6375,30.4218,-40.2553,66.7869,29.4458,13.9842,3.3959,22.4599,-7.4002,50.6543,-375.7064,145.4414,-61.7142,-35.0767,80.6009,4.9821,-18.8439,13.7225,-50.2926,56.3831
-31.2500,147.4055,55.5897,-64.3310,-26.2114,-31.2910,-9.9700,-21.1247,-39.2221,-31.8393,-47.4494,410.5460,48.5593,-85.5529,-131.3808,57.1979,-92.0090,27.7820,-10.3033,-6.0381,32.3200
-23.4375,-208.4893,6.9078,24.0414,93.2470,94.4262,41.5276,29.8152,11.5518,-17.8178,3.9015,-677.7899,63.1176,76.0556,-8.2456,-110.7392,-41.5490,74.8563,108.1234,-30.3379,9.7097
-15.6250,105.4737,20.1067,25.2026,-10.5123,-15.0658,5.8174,-43.4435,12.1224,-16.9912,-140.9446,207.7653,-83.5315,-70.5442,-153.3186,147.1338,-77.2895,110.7274,4.3474,39.1681,10.9005
-7.8125,-9.6530,-12.0023,17.4197,-52.2158,-22.4960,-1.8375,22.3582,40.7492,11.8960,-2.7246,-55.7503,-17.1171,-4.0817,21.6712,-43.9551,-10.9673,32.6431,-3.3726,100.7206,3.1403
-4000.0000,-78.9581,4.3637,39.8268,-1.1698,-6.5002,0.0137,23.6657,41.2344,15.2274,47.1852,-292.3170,41.8965,-14.5179,0.8674,-20.1664,-12.8818,40.7227,-35.9840,75.5998,15.3286
-3992.1875,240.2068,38.6447,-34.6551,-108.2463,-116.6947,-74.8178,-50.9113,4.7315,-22.3992,11.1343,694.7628,4.5875,-88.7474,-74.0561,89.5748,-87.0047,5.2665,-142.6280,75.9435,14.6356
-3984.3750,-129.1560,-6.7645,9.8119,2.6275,-0.9338,-30.6822,30.4719,48.1787,57.9361,55.0469,-369.2943,85.2284,64.9909,116.9888,-124.7534,-7.1655,-24.2530,-33.3156,83.2436,-15.1091
-3976.5625,98.0277,0.1474,-6.2776,-85.0460,-17.7267,-47.0966,14.3138,69.0702,41.7317,2.4135,270.1039,-40.6867,-62.8275,-46.5264,78.3942,-133.8813,29.6737,-50.5626,67.9905,-31.4032
-3968.7500,70.2753,-45.2385,-38.8744,-118.2283,22.9682,-6.0118,17.6561,36.4516,83.0372,44.2872,306.0597,-73.1126,50.8584,-5.5447,-64.9559,-57.0950,-72.9077,21.6879,141.2409,-64.1976
-3960.9375,-166.1336,-66.1145,-5.4127,-15.3467,129.7208,27.1305,89.0530,70.8771,154.3992,42.2181,-401.0459,-38.4838,84.6033,-8.5003,-31.2611,-60.2484,-75.4433,52.9977,104.5333,-66.9417
-3953.1250,185.1637,-33.4268,-99.3572,-105.8726,35.0625,-30.1386,68.0434,-24.1106,96.3524,-51.2590,676.5564,-133.2614,-47.0655,-140.8735,131.0609,-81.8061,-94.3789,-2.1081,121.4220,-51.0851
-3945.3125,-147.9855,-73.4466,-81.9024,-17.9968,51.8028,-13.0057,122.4408,-6.7138,150.7143,76.6807,-267.4885,-41.6322,43.6813,24.1684,-73.2346,82.0491,-112.9237,119.1833,69.7042,-33.8262
-3937.5000,7.3030,-46.5041,-100.1434,-34.8106,32.8388,-31.5663,67.1303,-24.0276,95.3740,21.9224,149.7525,-96.7034,-86.2748,-105.4930,128.7844,27.2027,-58.1660,66.7695,53.2730,-15.2639
-3929.6875,94.2837,-53.3418,-164.3471,-62.5799,-33.0923,-23.0715,75.8608,-15.3074,104.0803,68.2069,484.1351,-123.7302,-41.1808,-23.1049,26.8595,35.4114,-120.3642,74.4033,98.8916,-6.6496
-3921.8750,-192.5217,-58.7973,-84.4519,84.7565,47.0749,93.5480,82.6975,27.5163,110.8947,112.6072,-433.4910,-43.6513,2.0211,57.4058,-40.9829,41.7368,-78.4723,115.1458,0.6130,0.0667
-3914.0625,187.3662,16.5676,-135.8718,0.7817,-79.0734,4.8748,-5.7736,-23.9624,22.3993,-86.2948,648.6789,-58.8847,-87.0983,-69.3978,126.9020,-48.2385,-56.8812,-5.4119,-46.9650,21.4867
-3906.2500,-66.3002,0.2792,-93.3522,76.7578,-37.2747,48.1635,0.6984,-54.4964,28.8603,-42.2327,-85.2185,58.8279,65.7427,84.7624,-87.2814,31.7479,-85.3479,70.9886,-110.5845,27.8571
-3898.4375,8.0926,20.5853,-42.9773,89.5924,-24.6248,24.3147,-95.9785,-78.1852,5.1744,-102.3181,69.6871,35.3827,4.4332,-13.2288,72.3945,7.5811,-36.9609,12.2405,-201.3606,41.0746
-3890.6250,206.0545,26.2686,-67.6087,-4.5826,-121.9890,-0.5334,-119.6584,-102.8903,-19.5165,-89.4129,664.7068,-26.0745,-20.8845,-1.2253,47.0760,56.4109,-24.5738,-11.5135,-152.1362,53.2889
-3882.8125,-134.3086,-0.9725,-5.1379,124.3555,-25.2512,61.7353,-59.2330,-40.4993,5.8962,10.5988,-381.2706,36.5722,77.9136,133.8929,-39.1592,81.3576,34.9065,10.8425,-162.8147,41.6006
-3875.0000,204.7274,32.1332,-45.9245,-20.9631,-65.7707,20.7496,-99.0616,-81.3638,-34.9396,-29.6546,601.5865,-41.0409,-73.5475,-54.2530,140.3834,-33.9540,66.1322,-64.0576,-131.7555,37.6616
-3867.1875,-8.1440,-11.3723,-58.2755,2.1589,31.1611,45.2064,-75.4318,-56.7903,-10.3149,105.5470,69.9157,20.7908,60.4530,81.0611,-92.6257,64.1965,-16.2107,-7.5090,-73.2508,25.1730
-3859.3750,-57.8678,-2.6780,-34.6722,58.2356,54.0514,31.6200,-51.8481,3.7282,13.2694,55.7103,-132.8644,7.5701,9.4104,-43.6771,3.3244,13.3007,5.3878,-22.0086,-85.8093,11.6338
-3851.5625,193.7525,-11.1078,-112.7294,-87.3506,-24.7180,-46.6206,-55.9214,-74.4188,9.2025,-20.7873,702.8350,-70.3180,4.7142,-11.0709,35.6427,8.7479,-33.6714,-62.1625,-18.0192,7.4448
-3843.7500,-185.4637,-55.3117,-78.5374,15.3167,82.7663,-12.5942,52.2657,-3.3215,43.3942,86.9753,-371.2921,38.0436,148.2819,132.8051,-114.8078,79.4591,-107.4940,39.9422,-19.9793,4.5039
-3835.9375,85.3925,-28.4031,-167.6065,-106.2645,27.9905,-66.8112,35.2029,-20.4781,-10.6660,-39.5204,452.3927,-15.8555,20.5878,-31.5825,161.5213,-12.0796,-87.5715,-12.2075,0.7967,24.3124
-3828.1250,-16.4008,-62.4205,-191.8948,-94.0517,40.0045,-54.2218,47.9402,-44.8463,2.0719,47.7832,238.9376,-2.9659,106.7051,91.8313,26.6490,111.1973,-143.8614,35.4496,14.3731,36.9202
-3820.3125,-156.1975,-57.1077,-112.1299,18.2230,46.0727,-10.5655,17.7304,-1.1650,45.8646,55.1465,-273.5392,3.9652,38.8795,61.3037,69.8244,80.5314,-103.1036,76.1669,-13.0124,43.5762
-3812.5000,174.0520,-23.0754,-185.2771,-88.4198,-64.7696,-47.8073,-56.3877,-38.3911,8.7469,18.6041,713.2236,-69.0200,-107.8582,-13.1462,106.1254,5.9573,-103.2514,39.9836,22.6938,43.3309
-3804.6875,-165.0764,-39.8728,-129.4254,34.9415,27.3846,45.9672,0.5006,18.3788,28.6412,112.0708,-301.0705,60.9892,20.4185,153.4232,-131.5915,99.4015,-120.4166,91.8145,6.3980,26.0833
-3796.8750,89.6671,9.5165,-118.2307,9.6516,-35.1166,21.0945,-24.2644,-6.5025,3.8920,-22.1210,330.0163,-37.6633,-114.9575,-18.6666,63.0648,-36.8032,-4.2328,30.9932,17.4446,1.1815
-3789.0625,126.3762,12.4797,-95.3868,-4.9915,-12.9711,6.8648,-38.3766,-57.7484,-10.2065,-35.6776,421.8464,-51.6796,-19.6842,40.8938,-99.6267,-14.3625,16.5985,85.8142,39.1351,-13.0763
-3781.2500,-81.2980,13.7583,25.8751,109.7920,33.5866,90.0387,-65.0904,-10.6050,-36.9126,12.1620,-308.0002,-4.2947,-10.0003,50.8658,-125.9282,-4.5154,61.8305,130.0423,-19.8035,-2.9370
-3773.4375,289.8091,64.4893,-30.4232,-12.9786,-60.4144,-2.3431,-120.3731,-30.0274,-165.1859,-117.5579,770.7471,-60.4760,-138.8727,-42.7332,38.2440,-61.2210,79.5084,41.7154,-36.3084,14.6518
-3765.6250,-41.6374,4.9900,40.6161,53.6022,9.9398,31.6363,-50.3036,-33.1055,-59.1052,28.0837,-156.1743,10.6859,40.6241,101.0334,-148.2510,46.4418,6.5192,107.7502,-38.4668,11.5881
-3757.8125,71.2418,-12.1987,40.3456,-17.1130,8.9979,31.3254,-13.5291,3.5175,-59.3180,-8.5800,205.6157,-63.4682,-34.1846,-46.5089,70.9745,45.7986,-28.7737,1.4922,-108.9378,11.2204
-3750.0000,179.2914,3.6389,-28.4397,-48.3362,-23.4562,-0.4807,-8.2546,-65.3664,-54.0290,-39.7542,611.0268,-21.1473,44.5002,69.4426,-35.2919,50.6484,-94.5750,-100.2592,-102.9116,16.3478
-3742.1875,-106.9299,20.6605,46.9828,93.6506,14.2923,0.9248,-6.7767,-64.0496,-52.5351,-0.7321,-311.4423,127.3705,118.4015,143.6107,-71.3704,51.7137,-58.1817,-64.8008,-169.7001,17.6693
-3734.3750,271.0638,64.3001,-8.1976,5.0261,-78.5712,-54.2769,-61.9143,-119.3385,-70.6511,-129.3249,768.6193,-0.7295,-10.3112,-58.8389,130.9788,-77.8243,-5.3929,-118.9462,-118.1066,-0.6104
-3726.5625,-31.5653,-15.3612,-29.4884,53.2979,10.4613,71.4177,27.8405,-103.7324,-17.8690,33.9908,6.6055,15.0605,114.8896,66.6252,-74.7867,48.5505,-97.7154,-0.1799,-103.6160,-21.9910
-3718.7500,2.1055,-20.4785,-21.8332,60.5261,17.4424,79.0647,-1.4600,-22.1704,-47.1367,42.2634,82.5304,-51.2113,12.0409,-72.9640,116.4088,18.8749,-90.0935,6.5470,-130.1913,-14.4241
-3710.9375,204.2071,-16.5025,-50.2405,-72.3014,-48.6399,51.6554,-29.8166,-50.6720,-38.4626,-21.5311,712.5541,-79.5494,-16.8616,-64.6151,87.5688,64.1444,-116.5277,14.2229,-85.8296,-5.9105
-3703.1250,-146.9057,-56.8415,73.6583,47.1909,38.5866,101.5462,21.1315,-36.8836,-24.4859,29.9678,-381.1863,-28.5857,70.5544,60.0522,28.0191,113.7195,-102.6649,97.2085,-141.1971,7.8992
-3695.3125,215.5847,-15.4513,82.5562,-85.3072,-27.1887,0.4216,-80.9307,-65.1083,-89.5220,-108.5553,615.1847,-128.6390,4.9625,-79.3005,183.4990,12.2773,-22.7973,70.1896,-165.5898,16.7052
-3687.5000,25.4109,-50.5321,137.1977,-70.0509,26.7864,18.0449,-26.2473,-84.5974,-34.8069,-53.3408,76.3631,-75.9534,132.1342,49.1022,-20.2855,102.5855,-78.1873,190.9295,-115.2451,-2.7442
-3679.6875,-52.4101,-50.7430,158.4821,-15.1332,83.4193,39.3267,-4.9073,-63.4315,23.5623,-31.4819,-199.8406,-91.6299,78.9652,-40.8404,73.5878,50.5391,-22.9358,139.3317,-95.2678,-18.5498
-3671.8750,179.3863,-49.7174,14.6959,-118.2857,12.9928,-31.4390,-38.6204,-97.3157,62.8760,-27.7003,607.0632,-160.3782,8.7342,-111.8419,113.4290,53.4363,-54.7442,35.6911,-20.3484,-15.4096
-3664.0625,-185.1477,-78.5342,67.9100,-30.4382,66.5743,22.8069,15.6690,-43.1900,117.1936,100.0825,-446.0821,2.8648,98.5201,53.1689,-16.7451,106.3439,-108.5647,52.0669,-108.4393,1.7241
-3656.2500,117.8852,-10.5470,-18.2711,-77.9903,-58.2472,-27.3549,-71.4503,-19.4647,-42.8962,14.4512,418.4636,-10.3163,-98.1039,-34.2387,190.7004,-17.1608,-84.7821,-30.9550,-118.9440,25.4515
-3648.4375,39.4202,-7.7193,-19.7546,-8.8453,-96.3791,8.1795,-72.8783,-21.0390,-44.2933,50.5176,192.8027,25.1826,-27.0219,75.0548,4.8390,55.0338,-121.3070,37.7260,-49.7587,23.8730
-3640.6250,-122.7075,1.8288,12.9178,91.4624,-65.3591,77.8641,-40.1644,-25.4497,-48.5474,9.7400,-366.7536,57.8272,-31.7834,70.5038,37.1288,87.3860,-19.6887,32.5643,-53.4440,19.4389
-3632.8125,234.6805,76.5596,-77.4280,39.7593,-154.3539,24.5355,-93.4641,-78.8592,-137.8098,-117.0603,641.8618,4.4509,-121.5552,-20.0623,93.4418,-3.2712,68.9216,-55.6022,1.8563,3.0020
-3625.0000,-103.4182,62.2535,-6.9794,174.8655,-12.5504,94.0061,-59.9645,-45.4693,-105.2637,-83.0666,-395.7426,110.8624,21.4953,123.1848,-131.4592,65.8750,99.3253,-25.9497,-3.0608,-37.6405
-3617.1875,133.1310,99.2918,18.5719,129.0812,-23.6480,46.5721,-107.3691,-92.9791,-152.6205,-166.9985,214.8114,27.3504,-100.3549,-71.4816,41.7646,-54.8908,158.8376,-72.1927,-12.9062,-48.1921
-3609.3750,137.8868,48.6290,44.1682,46.3454,1.2990,-0.8249,-44.7282,-141.4499,-89.9345,-66.8946,309.5409,-21.1199,-1.1561,26.8958,-116.9562,7.3927,77.3940,-49.3886,11.2731,-59.6993
-3601.5625,-97.6268,44.7315,133.4123,132.2759,88.9017,50.4251,7.5608,-89.2666,-74.5989,-88.1410,-450.1290,67.0621,86.7025,5.9354,-102.0383,58.3320,92.5935,-34.9232,-77.9201,-44.5593
-3593.7500,263.4143,105.8075,50.8903,-15.5515,-30.2539,-68.0845,-74.9081,-171.8312,-120.0241,-169.1593,640.6129,95.4707,-32.2048,-113.7925,73.1507,50.5091,85.0342,-148.2021,-84.8772,-16.1706
-3585.9375,-111.5055,23.2772,43.8552,47.1194,36.0969,-1.0935,29.1255,-141.8819,21.0544,-28.6852,-326.1380,162.3667,107.4056,99.9924,-81.1748,153.1923,-27.0425,-49.9576,-91.3417,-23.2879
-3578.1250,-28.8781,3.0554,-32.7296,8.2404,31.9066,32.3499,61.6098,-71.4699,17.5809,-105.7749,-40.4105,48.6863,30.4667,-13.7813,135.9677,75.3139,4.3302,-19.2486,-129.3767,-26.9632
-3570.3125,47.8728,-28.5150,-107.1683,-62.5001,30.8591,31.9328,61.2364,-71.8992,-19.7494,-105.7331,323.6164,11.1247,102.6776,58.5816,98.2700,111.5768,-102.1557,-20.3831,-94.2683,-27.4973
-3562.5000,-232.6275,-44.8991,10.3473,13.7240,109.7704,74.4669,67.8132,-28.3648,-13.1285,12.2675,-592.4665,90.5014,145.8543,101.9007,-5.4872,154.7966,-59.6998,55.4469,-122.2270,-21.0900
-3554.6875,158.1728,23.9697,-17.6957,-83.6106,8.1237,10.4350,-33.1689,-56.3711,-115.0657,-52.3018,480.0453,26.2996,-29.5318,-73.3485,113.2337,16.4562,-15.7995,28.7294,-77.7544,-12.2389
-3546.8750,-83.1930,14.4480,5.6030,8.4037,66.8274,69.7485,-9.7981,-33.0173,-54.6568,-28.5370,-236.0556,122.4385,66.4426,96.7689,-84.7100,39.4712,-29.5621,120.3795,-19.9426,-26.0437
-3539.0625,-62.1845,38.8483,6.3049,78.8316,66.9350,70.4566,-9.0323,-32.2489,-53.8524,-101.3807,-238.7503,85.9683,30.8199,-12.7166,62.7547,-34.1203,41.0737,120.4363,-53.7532,-25.4547
-3531.2500,134.3851,39.8085,-73.7077,-32.4474,-12.6671,64.4451,22.0182,-75.1755,-59.7547,-143.9353,414.0263,43.7749,24.4895,-18.9191,20.5333,-3.4132,0.0022,77.7901,45.7155,-31.5704
-3523.4375,-222.0562,-17.5022,10.2806,47.2886,69.7405,148.4288,68.0647,-28.0848,24.3475,-22.4856,-645.2468,89.5736,70.1747,63.8962,-80.7019,116.2998,9.9231,123.1595,-13.8408,-21.6910
-3515.6250,142.2855,19.9996,-12.5866,-79.8236,-26.7104,52.5428,9.2505,-87.8367,-35.4062,-118.9036,394.7522,-6.4998,-63.0005,-69.1544,117.2430,20.1505,58.9917,-4.3117,-34.2783,-7.6652
-3507.8125,-12.3783,-4.4133,22.9354,-45.5279,-28.7632,51.0472,7.8242,-89.1780,37.2287,28.0629,-51.7813,28.8149,9.2357,76.2009,-141.4260,128.3989,57.4567,-6.3632,-0.3337,-9.2443
-3500.0000,-60.9925,38.4753,89.5636,87.8843,1.2991,80.6505,-35.5055,-21.4031,-6.0467,22.1111,-317.2398,59.2192,-71.4232,-3.3443,-74.9965,48.7420,86.0230,-48.2977,-41.3136,-15.7313
-3492.1875,236.9472,71.3199,32.8349,-1.0643,-93.9981,23.8851,-93.1941,-78.9668,-100.6804,-72.2186,578.1195,1.2458,-92.4446,-61.2575,-21.9007,-46.2799,67.2394,-68.5776,-24.6582,0.4225
-3484.3750,-137.5248,22.5450,37.1086,143.9959,-16.2840,65.1179,-51.8783,-37.5130,-59.3130,43.4483,-449.5572,79.2539,59.5503,89.8401,-127.8221,31.7038,1.4536,6.1634,-56.0201,4.5644
-3476.5625,130.0932,35.6197,-22.5165,52.1638,-76.4713,5.4351,-110.4678,-22.9468,-81.8543,-52.8016,369.9596,-17.6619,-74.3634,-79.9803,106.3799,8.7721,-19.2281,-50.9907,-41.3043,18.7966
-3468.7500,21.0620,-27.7691,-56.3006,-14.8238,-73.8124,8.5840,-34.2108,-19.5199,-4.5527,-12.2168,186.4341,-14.7385,76.5811,34.0482,-37.5701,121.6876,-122.0723,22.7079,-1.7591,21.8746
-3460.9375,-124.3420,-16.4022,16.6607,88.9521,-1.3990,44.4685,-35.2072,-20.3197,-5.5002,24.1186,-331.3694,20.9248,111.2881,32.8298,-1.7721,47.3545,-53.1750,56.1709,-73.4882,20.6987
-3453.1250,227.2608,38.2833,3.7074,-29.1795,-51.8912,-42.5642,-85.1170,-107.0018,-55.3570,-99.4673,646.0944,-29.3401,-11.9180,-54.3035,95.1448,-39.8914,4.8225,-27.2580,-51.1289,7.6126
-3445.3125,-120.7452,-6.5575,57.5608,91.5017,39.4287,12.1950,6.7731,-88.8678,36.5823,-7.2611,-368.6582,25.1844,115.6917,73.3814,-71.1604,14.6628,-14.3776,58.1269,-69.9907,-11.6857
-3437.5000,56.9367,-3.5188,-4.7734,-3.0061,-24.4451,-51.2601,17.4530,-77.9194,47.3079,-33.2885,190.4548,-38.5037,16.0955,-63.1488,160.3524,-86.0005,-3.7697,-36.6874,-94.0866,-1.1908
-3429.6875,30.1557,-74.4429,-90.1201,-120.5155,-36.3263,-99.7359,79.1167,-51.9621,109.0172,102.6638,286.7058,-87.2064,77.4989,36.3153,74.8658,13.3317,-86.1662,-48.4918,0.7962,-12.6969
-3421.8750,-235.9686,-104.6270,-21.0192,-19.5594,68.2495,6.2276,148.2242,16.4685,141.1705,135.0636,-528.6394,-55.4670,109.3661,31.2339,69.8239,81.1155,-91.1146,-18.8186,-38.8935,-17.7554
-3414.0625,160.7969,-44.3931,-64.5807,-164.2587,-11.8358,-74.4803,68.6691,-62.7333,61.6610,-18.2070,602.5300,-98.4034,-44.4326,-122.5186,174.1555,1.2328,-60.7135,-129.7887,-8.2507,12.5314
-3406.2500,-96.4463,-51.5944,-12.7491,-46.5544,2.4812,-22.8043,46.5107,-84.5115,75.5521,33.9229,-193.8816,-10.9484,44.1776,39.1403,-69.1306,15.7543,-46.9299,-82.3395,39.7798,-9.7889
-3398.4375,74.6735,-8.4152,69.1295,-4.7928,-26.1493,-14.0947,-18.6049,-75.2119,11.4935,-141.9081,142.7906,-113.4632,-95.1691,-63.1587,49.6385,-86.6778,64.9011,-145.8283,-23.1591,-38.0659
-3390.6250,206.7278,-38.9999,66.6464,-77.3897,-103.1358,-16.7568,-21.0827,-77.2387,9.0765,-144.1010,580.2621,-225.3529,-23.8737,-28.8207,11.0617,-89.4648,27.3750,-183.6635,9.5465,-40.7010
-3382.8125,-109.4828,-91.6745,115.1667,39.0228,-18.1135,31.5705,27.4422,-28.2381,20.6625,51.7095,-329.3233,-214.2483,60.4364,-17.4688,22.4689,-41.2534,3.8451,-102.4808,-48.7647,-29.3445
-3375.0000,256.4539,-54.7359,13.8759,-57.3727,-120.8890,-33.9240,-74.8407,-56.0204,-81.5635,-12.3109,780.4396,-315.9674,-41.0612,-155.9411,178.1033,-142.8583,12.5200,-129.0978,-39.8954,-20.7955
-3367.1875,33.1814,-77.7417,27.0840,24.7291,-70.1521,90.0733,-60.6257,-41.2912,-30.2917,2.1475,129.7528,-266.2047,82.9627,5.0956,-65.7716,-92.9623,24.6833,-11.2014,-27.5509,-43.7520
-3359.3750,77.7274,-26.7599,83.7961,113.3447,-50.9012,72.5598,-77.9193,-22.0372,-47.5325,-125.9100,110.5700,-283.9543,-7.5098,-86.3690,26.8606,-183.5797,113.3476,41.2136,-44.7336,-61.2125
-3351.5625,290.5106,-11.9968,72.2026,-4.3430,-99.9540,23.7253,-89.5314,-69.0644,-59.0845,-100.2899,759.2558,-296.0264,-56.2967,-98.1490,15.1977,-159.5130,66.7109,-5.6588,48.7692,-72.9793
-3343.7500,-100.7409,-66.0089,100.7640,58.1406,1.1578,52.0298,12.0097,-3.9199,42.5127,38.4723,-353.9627,-194.9563,45.0857,40.2317,-103.3392,-57.2983,58.2256,91.6451,40.4063,-81.6074
-3335.9375,197.4668,-50.3543,20.5777,-54.1252,-41.4759,-27.4409,42.7898,-9.5100,36.3487,-77.5455,557.1854,-311.6541,-34.2965,-187.1607,148.3936,-137.8578,52.0008,50.2078,105.2717,-87.9958
-3328.1250,0.5242,-125.7830,-9.0137,-81.7943,1.4953,15.6670,124.1667,-1.4807,154.7772,3.0221,122.0077,-304.7656,119.9262,-105.9489,-28.2847,-56.8260,-81.6280,162.3834,217.7268,-80.7941
-3320.3125,-110.6841,-141.6339,-24.7453,-61.6061,58.3283,72.6061,144.3897,93.4289,138.0552,23.4321,-190.3444,-285.0376,29.0029,-122.8876,64.8861,-73.9466,-96.4077,147.4211,203.0099,-60.7496
-3312.5000,150.4274,-107.8333,-136.3863,-203.3328,-15.7419,34.6150,106.7049,19.4578,137.4211,22.9231,653.5764,-249.2313,-118.8281,-86.7461,64.1717,-111.9809,-133.0916,111.5598,273.3753,-61.6079
-3304.6875,-200.8584,-115.5135,-44.3788,-81.3947,74.8462,163.2588,197.6624,75.1635,191.4286,78.0686,-469.8854,-122.7770,-27.0013,41.0565,-138.9130,-94.3557,-81.1294,162.3681,254.3694,-80.8191
-3296.8750,90.7735,-42.6638,-66.8790,-101.9510,51.9251,140.3853,139.1059,53.3981,58.9216,-128.3108,315.2405,-145.8381,-123.6886,-128.6551,59.5223,-190.2466,-31.6619,35.6829,162.8477,-66.5313
-3289.0625,27.5656,-50.6876,-63.2405,-63.3595,18.1486,143.6444,68.6931,20.7998,25.5655,-13.5572,170.6161,-105.7606,-9.2283,21.7884,-83.8997,-113.9922,-63.0540,39.1574,166.4679,-63.0983
-3281.2500,-135.8133,-48.3053,43.9034,3.7422,88.8914,103.3917,28.7795,55.7318,22.7119,93.7042,-421.5597,-72.1886,-12.2576,-17.2613,-12.8278,-117.2409,39.0421,72.1469,57.5704,-66.1724
-3273.4375,228.3050,8.5231,39.7363,-105.4692,10.3371,24.8179,-11.4402,15.3851,18.5479,-57.3546,602.1285,-113.9427,-90.5971,-132.6364,18.9599,-158.8096,34.8361,31.8461,53.3579,-70.5510
-3265.6250,-110.5839,-13.4599,88.4228,46.1813,58.6428,110.0800,73.1872,64.9127,104.2226,-8.5767,-416.3450,-28.8499,30.9256,-10.1531,-189.4301,-110.5339,11.4813,149.4194,29.9838,-59.0846
-3257.8125,89.3568,39.2069,73.1676,32.8942,7.0017,21.3712,57.8547,13.5154,15.9406,-60.7730,118.2852,-44.7327,-20.5121,-172.6416,16.2372,-198.2286,68.1931,30.0560,-53.3551,-37.5803
-3250.0000,128.4106,45.3406,41.0660,37.7536,11.5163,-11.2138,26.6610,-53.7160,-16.2034,18.1591,306.1877,-3.4920,21.2000,-57.9917,-89.9510,-84.7875,3.0595,-35.1455,-48.5560,-32.9395
-3242.1875,-115.5359,59.0916,78.2832,180.9311,48.3481,-11.5140,-10.2326,-52.6207,-16.0560,91.3807,-466.6678,106.0410,21.2230,52.9654,-89.8573,-11.0534,75.2267,-33.0241,-151.4800,3.9914
-3234.3750,259.6345,119.0449,2.1511,73.7522,-66.1712,-124.1898,-122.4949,-91.8556,-92.2780,-21.7765,633.2863,66.2063,-92.1156,-61.4424,17.9079,-14.6948,109.0460,-105.2512,-188.7724,37.5670
-3226.5625,-50.0439,81.5876,13.9169,155.4788,-17.7867,-76.9787,-38.8632,-79.1698,-80.6069,26.9540,-238.8466,150.2742,66.4587,98.0630,-153.4471,70.5661,85.7609,-23.5649,-212.1817,49.0386
-3218.7500,49.0075,102.0186,15.9350,157.4689,-16.1479,-111.5378,-36.9910,-76.2054,-78.6963,-8.0733,19.2903,115.5882,-42.7233,-48.1910,68.4551,-38.9278,87.7295,-91.6221,-210.3648,50.7567
-3210.9375,145.2076,68.0901,-55.3069,20.1993,-13.7674,-146.3680,-34.3829,-72.4713,-40.0509,31.6409,426.3201,80.6361,-3.1625,-45.7015,34.1096,0.3109,20.4473,-122.9204,-101.8038,53.2206
-3203.1250,-189.3059,-8.3504,6.8052,78.2983,47.9768,-49.8509,27.5672,27.6426,95.9394,93.7033,-542.3690,68.0364,58.7629,16.1496,-51.9085,61.8965,8.5169,-30.8462,-113.9108,41.0290
-3195.3125,174.1567,29.7658,-25.1825,-22.6991,-58.3770,-45.4481,-4.5987,33.6779,26.8127,-49.3673,490.9655,-38.6803,-119.4285,-89.1188,173.9930,-80.6370,13.4955,-95.8646,-75.1358,45.7317
-3187.5000,-68.0233,-14.3765,-2.3696,-0.8925,-35.9246,13.7373,18.0316,57.5310,86.4772,47.3529,-184.8654,20.3987,-24.8129,80.4211,-24.3241,14.6306,-0.7234,-4.0717,-54.5744,31.2295
-3179.6875,-57.9604,6.8285,33.1957,32.6809,-0.7102,11.6569,-20.5944,57.1606,47.8843,45.8197,-223.9660,18.2252,-63.4545,-32.2909,85.1147,12.6351,67.8154,-41.5161,-125.2749,29.4737
-3171.8750,173.6589,23.2112,-35.5521,-68.0546,-69.8033,-20.7466,-88.5302,-10.4948,-58.0156,50.9599,515.7842,-14.2618,-21.4071,-64.3122,53.2635,-19.6809,38.0587,-0.2553,-86.2754,34.4150
-3164.0625,-196.5812,-7.6686,-4.8973,66.6267,71.5196,46.2428,-59.0641,58.2757,-27.5146,117.4971,-557.1329,89.6537,83.0524,40.0805,-64.2168,10.3979,-3.2973,133.4218,-92.8868,27.7494
-3156.2500,135.1000,37.3687,-52.9398,-14.3899,-13.8528,-2.4903,-70.3155,11.3681,-38.7282,-77.6839,387.3442,3.8608,-76.1989,-118.2473,145.6166,-75.2398,20.6552,87.3964,-69.2160,16.3773
-3148.4375,-8.9061,29.2564,-31.9313,39.6403,6.8314,17.8026,-12.5244,-40.4779,19.0956,-56.8231,-34.0637,61.1155,18.6062,12.4874,-91.5193,19.1658,4.6571,142.4276,-14.5071,0.0508
-3140.6250,-93.9226,39.4644,9.3375,113.9333,10.7853,21.3307,28.5181,-35.0498,60.1658,-89.7190,-360.2653,64.6238,-14.3347,-20.5293,-13.4121,22.8200,78.9099,75.7166,-46.5697,3.9712
-3132.8125,177.5258,56.3571,-86.3042,-10.6883,-85.1656,-75.0687,6.6532,-128.5074,38.3273,-37.5345,536.7889,42.2191,-36.1887,-42.4606,75.8142,-36.4361,24.2584,-13.8959,4.4563,18.9912
-3125.0000,-226.3227,-14.8422,-83.8964,61.7461,64.9464,0.5685,82.8408,-51.8950,113.5402,148.7025,-564.1585,116.8657,77.0276,143.6771,-105.9269,39.3616,-8.3525,58.5609,-29.4802,21.0595
-3117.1875,60.8045,20.9372,-100.1378,-24.4734,10.4110,-54.4599,28.3709,-30.9159,-13.9058,58.2779,227.3081,25.8538,-51.4154,-57.8496,97.7047,21.4913,46.3933,-27.6306,-45.0815,40.4774
-3109.3750,23.3416,-0.0250,-43.3377,-40.6486,30.9267,2.5450,11.9418,-8.8763,6.6958,4.8906,99.9145,8.8860,43.1922,36.6693,-66.6237,41.6672,30.1905,27.2352,9.3587,23.9438
-3101.5625,-155.5674,-17.1792,52.0760,49.7952,162.0576,23.1399,33.1024,86.7797,27.8899,-47.9108,-502.9471,-7.4728,100.4028,-16.2019,-8.3673,-11.5619,49.5992,46.7253,-6.6146,8.0073
-3093.7500,168.5897,-12.8938,-20.9594,-90.2155,88.7411,-87.7298,-3.2025,52.9961,-8.3827,-10.1847,526.8882,-117.2928,28.1460,-125.5451,102.4459,-48.2625,15.5684,-58.2300,-6.0483,8.6171
-3085.9375,-174.5824,-50.6634,37.4066,0.1770,146.8393,-67.2093,54.8892,111.6306,12.7404,194.9463,-481.9080,-23.7153,122.3032,42.5171,-97.3648,46.4394,-0.0624,32.2344,-22.0842,-7.3763
-3078.1250,77.9103,36.3987,77.8291,4.6276,76.9956,-246.6468,-14.9750,338.3336,-20.0974,-95.8855,37.3722,-94.0967,-57.5017,-101.3834,90.8904,-97.8244,145.3653,36.7583,16.9181,-3.3216
-3070.3125,150.0310,57.3536,87.4954,-57.6686,49.4012,-384.8549,-5.6003,643.2953,-10.6974,-269.4811,194.0048,-85.2339,-11.0662,-18.0361,-83.6128,-125.8510,118.0505,79.5367,130.1688,-31.0197
-3062.5000,-123.4340,39.2285,133.1243,19.0066,94.7787,-377.1177,112.7249,837.2225,33.6480,-188.1289,-643.4980,-3.4111,-2.6713,26.2704,-112.1867,-154.9366,89.6926,87.2760,101.3566,-59.7749
-3054.6875,217.6998,76.4620,21.5030,-51.5707,-16.0963,-452.6522,37.7872,763.9086,-40.2665,-79.0536,421.8741,-78.8490,-151.5418,-84.6964,34.0059,-192.2867,89.0943,-19.2366,64.2879,-60.7848
-3046.8750,-80.9010,55.7720,-1.4160,102.5597,-3.2599,-366.4897,14.5432,778.3013,-27.4885,43.7129,-373.0624,43.4131,9.3057,112.0509,-173.1251,-69.9326,-3.8031,28.9624,76.9117,-48.0965
-3039.0625,-14.8949,63.4929,-79.5283,99.4942,-44.6155,-334.5330,10.0895,849.5081,-31.9174,-107.7249,-121.2047,39.4761,-69.0552,-2.4025,6.5517,-74.7854,-76.8953,26.9694,39.3253,-15.6096
-3031.2500,93.0703,49.9871,-206.4005,-21.3330,-99.7219,-316.3403,28.8790,832.9695,-50.1000,-88.9173,340.0239,57.7855,-87.1797,53.3847,-48.5224,-19.4074,-161.7371,81.2294,92.9854,3.1252
-3023.4375,-250.1765,-1.8028,-161.4167,91.7004,19.0447,-236.3029,36.5202,842.2887,-42.4320,139.7440,-644.9829,100.9617,-42.4402,171.0364,-149.7703,61.8215,-153.7319,160.3500,-4.5110,10.7085
-3015.6250,121.8685,52.2344,-154.5375,-6.3729,-85.2880,-340.3848,-67.9437,703.5156,-144.8777,109.2910,392.0146,34.0330,-181.8128,30.5688,39.9016,-6.0631,-112.8249,61.3669,1.8874,17.1913
-3007.8125,-90.8220,29.7218,-70.0099,4.1994,38.0370,-328.8247,-55.7632,570.3950,-133.6838,158.4850,-257.3199,118.7607,-23.5328,152.7623,-167.7999,78.7120,-67.2708,72.0478,46.9342,-7.6767
-3000.0000,-37.1244,66.2219,59.6793,21.9339,93.5212,-347.1166,-36.4407,480.4349,-151.3490,-43.1803,-274.5447,100.6467,-41.1065,61.1070,-39.3543,-12.3669,56.4432,54.8901,-40.8802,-25.3939
-2992.1875,236.0563,118.1628,57.4689,-50.2415,54.1030,-387.3172,-113.0335,332.5729,-153.9264,-191.7656,495.4648,97.6264,-6.5914,22.5416,-41.8031,-89.3606,89.2598,17.8366,-43.5938,-28.0099
-2984.3750,-102.7766,98.1353,154.9596,112.2996,151.4028,-217.8212,-89.9213,320.4167,-131.8077,-133.6509,-546.9086,194.3165,89.6327,155.6942,-201.5768,-29.6525,75.7797,74.4988,-93.6093,-41.9274
-2976.5625,223.6635,151.1929,89.7487,50.1473,13.0022,-210.0387,-118.5145,256.5587,-195.3991,-197.2500,381.0896,128.3068,-85.8564,17.1274,-10.0354,-168.6607,120.6153,13.4552,-120.3329,-33.5452
-2968.7500,75.3175,106.4519,69.5375,66.9954,-7.4014,-122.2674,-102.1152,201.6953,-142.9954,-108.8497,30.1300,144.3033,4.6622,143.5620,-176.5123,-79.6756,66.4569,65.4105,-69.0588,-17.1654
-2960.9375,-36.4947,105.3554,75.8434,144.3566,-1.2908,-79.9976,-96.2218,209.3347,-101.0945,-102.9439,-330.3959,149.8079,-63.3175,75.4999,-61.5021,-74.1950,107.8023,71.8734,-98.2966,-11.2863
-2953.1250,229.5150,100.0337,-22.5036,-19.9457,-63.8402,-142.3868,-120.9927,148.3253,-89.8586,-200.7024,563.5661,86.6588,-124.9696,13.7788,23.8680,-26.3694,49.4973,13.6783,-16.1815,-0.0545
-2945.3125,-162.3688,19.9878,-7.1985,65.4082,25.2749,-55.1178,-33.1108,164.9675,-37.9747,-76.8002,-486.8925,138.1732,37.0420,175.7313,-108.1357,62.1188,-41.1646,99.1405,-1.4156,14.8276
-2937.5000,85.1088,39.7070,-77.7454,-1.0898,-8.4536,-125.7015,-67.0840,169.7639,-71.9430,-73.7526,251.8349,30.8359,-70.8099,-5.1814,79.0255,-46.2495,-1.6690,-2.2477,36.5013,17.8602
-2929.6875,15.3604,-11.0670,-73.5493,-69.8406,32.5733,-123.5383,-26.3092,138.3008,5.8360,77.0279,145.3744,34.2498,7.0890,35.6592,-102.0726,31.1366,-105.4204,0.1160,144.1685,-15.3578
