Time,Fp1,Fp2,F3,F4,C3,C4,P3,P4,O1,O2,F7,F8,T7,T8,P7,P8,Fz,Cz,Pz,ref
-4000.0000,-21.8861,-17.6786,-23.6182,-8.7212,-47.1744,-7.9128,-8.8166,-2.4624,7.2352,76.4397,58.8444,-43.2201,10.6500,10.0039,13.2280,40.8424,-81.2809,-20.5747,-6.5022,44.0838
-3992.1875,-74.5721,-0.3329,-42.3645,8.6611,-30.3367,-1.7911,-63.3387,15.0066,-47.9987,95.2896,40.3335,83.9598,21.3967,-8.2866,68.0782,59.0912,-134.8636,-39.5037,-57.9778,62.3430
-3984.3750,-87.9641,-12.6911,-94.8263,-39.6704,-83.2088,-4.9759,-115.5574,0.7746,-25.9289,118.4650,26.1163,179.4590,-10.7287,-22.2808,53.2274,81.6566,-9.1509,-18.1347,-36.1469,84.9028
-3976.5625,18.5405,-47.1467,19.6110,-72.1022,-42.1794,-27.5055,-73.8736,4.4448,-20.9564,87.5299,-4.2084,146.8613,-13.4662,-54.3718,22.2788,51.1106,97.4751,-50.8649,-0.4143,17.3544
-3968.7500,119.1658,17.5095,51.1645,-43.4211,-48.0430,-41.0693,-6.0897,-36.7972,11.1164,-26.3345,28.5797,105.3683,-12.6456,-59.3661,-19.5744,-27.3578,55.2127,-56.5074,-5.5895,12.9065
-3960.9375,0.2108,4.5649,1.1290,-56.3435,-25.5089,-13.7729,-18.9111,-49.6491,72.5878,-74.7916,-57.2287,128.2822,-36.2747,38.0385,4.9663,34.5766,77.3646,-35.7600,52.6371,0.8573
-3953.1250,-104.5884,-31.2185,-36.7520,-57.1148,47.1744,-12.9180,54.4210,-50.3561,108.2048,-74.1065,-93.8945,238.3621,-17.3107,37.6007,41.6631,-2.3393,4.6562,-36.8719,52.0088,0.9536
-3945.3125,-89.8883,19.5069,-58.1471,-40.3804,23.3497,-14.4269,31.2535,-72.5677,49.3141,-94.9326,-42.0636,214.9668,-11.8470,14.6831,18.8592,12.2451,54.4418,-56.4883,31.8727,52.5499
-3937.5000,12.2616,16.6842,49.9098,-44.1971,58.9758,-27.2491,-6.4669,-73.3371,-98.1223,-58.3160,-4.7854,104.0279,8.2111,-22.7750,-18.4873,12.2763,191.6835,-58.6587,30.1904,15.5888
-3929.6875,146.5783,11.0114,155.1244,-50.8630,90.7547,-74.9627,25.9733,-114.9703,-29.4024,-135.5633,64.6453,62.2628,47.2291,-100.0913,-22.6823,-102.5638,184.0833,-66.6885,23.6563,-25.2244
-3921.8750,146.7058,-59.8563,158.1486,-86.7305,92.3342,-84.8074,28.2142,-113.8162,121.1213,-131.0197,-41.1239,101.3156,5.3309,-97.6144,-19.0862,-135.6088,218.3079,-67.9264,128.9291,-95.2422
-3914.0625,128.2959,-43.2636,141.6382,-104.1482,185.3704,-102.6376,122.9076,-93.2271,141.0929,-109.0301,-93.4416,121.8307,12.9211,-76.6966,0.9565,-151.2109,57.9982,-85.7248,110.6530,-147.8250
-3906.2500,55.7475,-80.8115,61.9805,-106.7135,180.2621,-70.2576,154.4561,-61.7966,25.9108,-113.2001,-60.9092,153.2148,37.6251,-44.9316,32.8483,-81.9874,-14.4466,-53.6773,38.2267,-78.5705
-3898.4375,7.3080,-94.2567,47.4305,-120.1792,164.2646,-46.8515,102.1070,-40.2702,11.8259,-164.2755,-38.2879,100.6956,66.3563,-23.0608,91.8397,-59.6805,41.2321,3.4706,24.9047,-56.2323
-3890.6250,69.1775,-67.3989,74.1881,-127.3454,80.5818,-58.7643,92.0677,-13.4481,39.0495,-172.0608,26.6336,54.4727,66.3571,-69.8960,82.1267,-32.0828,-38.7836,-6.0880,-18.1203,-28.6030
-3882.8125,76.6471,-59.9322,7.5513,-85.9135,13.5043,-28.8800,-10.3715,-6.0324,-27.1283,-53.2546,-38.8510,61.8676,17.5644,-25.1473,90.0107,13.1146,38.8160,0.9523,-10.5426,-20.3775
-3875.0000,47.4727,16.8880,-21.7312,25.8684,20.7808,24.6360,-2.4620,38.7368,-92.9590,-7.1053,-140.9897,179.6248,-31.6237,56.9413,61.2479,-52.3399,8.7684,-28.6633,-75.6175,-48.8075
-3867.1875,-35.4950,109.9015,-109.8126,83.8548,-32.7535,63.0097,-18.3612,22.7064,-34.5885,-58.7587,-227.9323,274.5914,-105.7493,115.2318,9.6887,6.4078,29.9285,-75.0843,-52.4943,9.9611
-3859.3750,-56.1608,124.2104,-132.5903,63.1409,-54.9843,77.4273,-76.9588,73.9791,-19.9179,30.8834,-249.5878,214.8582,-147.3562,129.8269,-49.5760,95.4564,114.4061,-97.2082,-38.0671,25.0231
-3851.5625,16.0678,91.4297,-58.4683,-5.6808,-91.3115,46.2740,-112.6469,74.1508,-91.3437,106.4167,-137.3493,215.0370,-117.0021,130.3149,-47.9387,96.4017,-24.2242,-95.4270,-69.7428,62.9859
-3843.7500,-36.4163,36.9415,-116.0580,-23.2099,-112.3384,70.7589,-133.0370,90.6256,-38.4617,50.2527,-119.8205,194.5161,-105.7607,110.0996,-30.9876,113.6514,25.4565,-8.3365,15.8823,80.2534
-3835.9375,-71.1499,3.1865,-74.8953,12.0058,-35.6007,58.2576,-55.6766,58.8524,3.1690,19.8436,-150.5493,162.7366,-83.0021,78.6297,-26.2816,8.6582,25.8933,-8.4915,88.2533,12.2703
-3828.1250,-57.9320,52.3842,-132.7794,26.1672,16.0952,47.1039,33.6352,74.0281,18.7334,-37.6255,-135.3273,177.9223,-67.2539,20.1019,-47.6318,-86.3813,3.2875,-30.6907,136.5672,-8.7549
-3820.3125,-167.4143,11.9052,-137.3618,-50.3739,49.0899,40.7116,30.2430,70.5012,51.5915,-39.7987,-101.8181,63.4181,-49.9555,89.8684,-50.6858,21.8774,32.9986,-0.5856,167.1871,-48.4814
-3812.5000,-47.9424,-114.6141,-47.9914,-105.9592,101.0386,7.3797,82.7976,85.9226,31.4094,-22.0254,-10.3670,-67.1367,10.5900,69.5761,-33.7853,2.0814,-59.3410,13.4673,75.7601,-68.2624
-3804.6875,71.6803,-99.9922,76.5200,-91.3883,115.1336,-25.9546,24.5029,27.4963,-26.6203,-43.1020,78.2257,-52.5387,43.4568,-25.5672,-55.7381,-19.5580,-9.5233,27.6760,20.4866,-52.8903
-3796.8750,86.7961,-14.8793,131.5339,28.6815,169.7407,-15.7164,4.7088,8.5723,-45.1400,-60.6864,23.3097,1.5468,34.7991,-81.2078,-74.1942,-74.6946,38.8087,6.3867,34.7166,-108.0190
-3789.0625,76.2226,80.5423,82.8534,89.0419,120.6556,-10.7990,30.2185,-3.0617,-19.3543,-70.9837,-23.3005,63.9458,10.9291,-92.5620,-48.3467,-85.5449,-6.5487,-38.6044,25.2419,-81.8452
-3781.2500,-30.7932,78.5269,7.7294,86.9504,81.1251,16.5941,65.2747,31.8449,-21.0320,-34.7436,-135.3698,-11.0791,-21.5333,-57.3756,-12.9489,-49.8545,95.6734,-41.0397,58.3165,-83.1264
-3773.4375,-1.6001,72.7184,1.8172,46.0734,37.8088,6.1419,96.5291,61.9474,-26.5140,-3.3187,-103.2508,-90.9111,-10.8330,-25.9931,17.6468,-17.9682,54.1119,-47.2711,-17.4083,-88.2186
-3765.6250,17.5397,56.8585,-18.1458,65.1565,-55.5517,16.9104,40.7420,43.0063,-9.0322,-57.9451,-48.1990,-73.8097,-14.0694,-8.6621,36.1812,72.8667,72.5048,-99.5457,-33.1724,-33.3656
-3757.8125,2.3240,76.6488,1.5380,84.8827,-73.2586,22.2544,-50.3848,25.7197,48.1075,-36.9173,-101.5129,19.9381,-42.7844,11.3153,56.3677,93.3518,91.5538,-114.1689,-84.2814,-12.8696
-3750.0000,11.5157,191.8412,-27.3798,130.0040,-100.5563,25.3888,-78.1111,-3.1647,19.6374,-27.4875,-91.4336,175.0876,-52.7395,19.6867,64.9655,29.2348,-5.0003,-69.3925,-213.9945,33.0287
-3742.1875,-10.6896,240.6273,-86.7001,142.7232,-162.2567,53.3679,-138.2376,9.5529,-41.2278,60.5357,-113.7696,187.8340,-88.3424,32.6590,41.1624,42.7229,7.0601,46.9869,-201.0974,46.5288
-3734.3750,-73.5463,141.7640,-114.6691,79.7936,-116.6023,43.5872,-93.0068,55.6263,5.2734,106.9023,-140.7676,86.9269,-80.3036,4.9744,50.7005,125.5622,-90.5226,54.7190,-88.8479,19.3728
-3726.5625,-85.9068,-12.5972,-167.1434,-39.6333,-23.4493,18.2908,38.7290,40.1992,101.2773,19.7671,-82.2764,34.5252,-45.5824,-10.2119,-1.2613,74.9002,-0.5971,39.9595,38.9016,41.7121
-3718.7500,18.9269,-11.7657,56.5832,-39.8629,126.9204,-28.2566,78.6722,-67.0257,-5.5217,-123.1672,32.4102,-72.6767,33.6971,-43.1976,-71.0284,-68.5722,210.5424,5.4028,73.8570,-27.7587
-3710.9375,203.7161,67.0124,252.2645,39.8513,139.2572,-74.3824,54.5769,-128.3022,-29.3698,-183.1663,119.0419,-96.9172,71.3397,-177.2405,-94.8431,-166.1053,183.6316,13.7962,12.7651,-88.2819
-3703.1250,184.1140,12.3939,234.5498,20.1587,121.2030,-60.4464,37.0888,-108.9847,26.3865,-199.5849,65.2604,-114.5470,53.7166,-158.6835,-75.0597,-146.0535,234.3455,64.7928,64.2789,-142.2080
-3695.3125,77.2228,-24.5153,197.5460,19.1765,156.8531,-20.6408,110.3029,-35.9703,63.8461,-198.3242,-44.8319,-151.4830,23.5243,-48.4354,-75.5795,-108.3102,196.7832,27.4915,62.4973,-178.4457
-3687.5000,-16.9591,-47.7090,23.2471,29.9107,130.2055,11.1591,121.2172,-25.2608,37.0072,-113.3827,-70.2254,-104.7120,3.4957,-1.5024,-64.4045,-97.8735,206.9358,73.8909,39.4148,-130.9894
-3679.6875,-1.4360,2.8009,40.6529,46.3499,183.2680,21.0210,64.8316,-8.8565,-19.1307,-94.7531,-88.9242,-124.2302,6.8145,-56.8771,-83.5389,-116.7398,327.8028,158.9946,20.0349,-149.8430
-3671.8750,155.1916,124.4254,205.1624,131.8938,200.4358,-9.0554,8.5529,-64.3502,-111.1682,-187.0401,39.4668,-180.6429,63.2542,-150.1526,-102.5682,-246.5177,342.7687,174.1948,-105.2542,-168.5998
-3664.0625,210.1712,143.4011,263.0232,221.7864,183.9528,0.0176,-44.3791,-117.4980,-163.8655,-201.9807,24.1953,-196.6946,50.7557,-166.0775,-118.2445,-224.9477,397.1074,157.7506,-86.1937,-184.0079
-3656.2500,158.3636,162.5773,246.0969,204.8885,166.6807,7.9417,-24.1144,-61.4461,-143.3690,-143.7286,-28.8813,-213.5472,17.5155,-145.8097,-134.7296,-130.1914,344.6684,105.5155,-31.9339,-200.2291
-3648.4375,87.9708,92.1638,97.5819,99.4025,91.8179,5.7713,11.5452,11.0039,2.5234,-107.0974,-66.5648,-140.9833,-2.6780,-110.1470,-62.8255,-131.0508,238.6468,70.6922,38.7200,-164.0572
-3640.6250,90.0775,-46.7401,137.5658,-39.5795,58.4601,-23.0374,15.6989,14.9557,79.9072,-65.9762,-24.7635,-210.9075,7.7940,-69.9823,-58.4211,-163.4148,310.1418,107.3801,75.8744,-196.3967
-3632.8125,195.6863,-47.1388,248.0518,-40.0618,93.6105,-68.2240,52.3615,-22.5912,-30.2108,-28.3614,49.5257,-211.3321,50.5321,-143.3202,-58.5210,-163.2799,274.1378,71.5717,-29.4676,-196.2482
-3625.0000,164.8526,64.0083,177.0914,35.9999,97.3250,-35.3332,18.5809,-55.5889,-99.7748,-61.2172,16.3619,-97.2021,19.7092,-103.1128,-91.0773,-159.5982,313.7012,76.3114,-60.2500,-155.5562
-3617.1875,119.0359,88.1456,166.1526,130.0576,86.0637,-7.5289,-29.1905,-66.5967,-74.3404,-107.0953,6.1976,-72.0732,19.7784,-76.9197,-65.6342,-169.9369,267.2916,65.0513,-71.0249,-165.8761
-3609.3750,104.4854,108.5367,111.4725,150.3639,-6.9321,-2.8054,-46.7040,-48.3621,-54.6589,-124.7431,99.2777,20.3107,24.8136,-58.4885,-45.9389,-77.0394,111.1433,-20.9555,-120.5502,-109.9513
-3601.5625,115.0791,84.0822,84.9401,54.8232,-32.7691,-20.6116,-73.0625,-37.9802,-80.8216,-76.2560,147.4953,30.8501,28.4847,-10.9148,-35.0905,7.0028,86.1605,-45.8009,-74.9181,-98.8848
-3593.7500,164.3228,-7.7197,136.0616,33.9303,-18.9412,-11.8607,-58.7636,-23.9446,-66.3263,-24.1358,88.3565,-27.9528,18.8212,39.3077,-20.5946,-14.3157,28.8340,-31.9972,-60.6373,-84.1781
-3585.9375,127.4721,-8.6241,94.0848,67.9337,-61.2037,44.8356,-100.5671,7.9891,-70.9362,-28.1264,11.1096,4.1617,-24.1843,145.4308,-25.2027,-55.7426,62.4235,-34.2884,-97.4595,-14.5752
-3578.1250,59.4296,63.2750,59.9209,104.7359,-96.6575,41.4292,-134.5738,-27.2797,-31.7445,-25.3364,-23.3465,79.0809,-49.5944,110.3462,-23.0159,-53.3748,63.8426,-32.7716,-60.4783,-12.1845
-3570.3125,69.5056,108.2804,-6.1276,114.6508,-87.9998,19.3577,-125.4810,-19.4560,-60.4524,-16.4671,59.2952,88.1035,-3.1236,8.3525,22.2609,-44.9250,-67.6133,-23.1515,-85.4022,33.2968
-3562.5000,-1.7109,37.9922,-79.4640,44.2792,-88.6262,46.6076,-89.6925,17.0645,-60.4749,-15.9182,22.6273,87.8216,-16.5924,82.0577,22.2316,-7.7891,-68.3323,47.1726,-15.6271,33.4691
-3554.6875,-4.2175,-0.5871,-45.0856,-30.3879,19.4620,5.6882,-18.2019,15.2844,-24.8022,-16.6872,-15.3438,85.2452,-1.1928,43.4487,20.9027,-45.9645,-141.3417,43.1994,16.8417,-4.6690
-3546.8750,-18.6160,-50.0557,-60.6065,-43.9519,3.6550,-10.4098,40.3885,36.5975,106.9674,79.6196,-30.2162,-40.2127,-14.3862,-9.0693,5.6798,12.9503,-191.2399,29.3274,38.4098,17.2921
-3539.0625,-110.5637,-107.0743,-82.6720,-66.0626,18.3074,30.8734,55.4331,124.3547,122.1924,131.3646,-88.6469,-171.2248,-18.8161,42.8584,20.9019,65.3102,-142.6692,76.9178,86.4349,-4.3084
-3531.2500,-155.5512,-116.1449,-129.7802,-41.2253,42.9289,29.7339,116.4419,76.0621,74.3709,47.0459,-99.1416,-74.2893,20.8821,67.7298,119.0635,16.6097,-189.1461,31.4695,76.4155,21.0317
-3523.4375,-203.6856,-60.3673,-182.0425,-88.5473,-46.5800,23.1032,65.3073,60.6238,59.3954,69.5599,-76.8038,21.5011,-9.3837,89.4488,105.0800,75.7566,-132.7596,16.8754,98.2517,43.2163
-3515.6250,-183.2662,-75.0447,-159.7465,-103.3278,-133.5222,29.3979,50.7265,82.7369,81.9745,92.6113,-54.9173,43.8473,-40.6219,74.7085,53.6487,98.4443,-182.8239,72.8365,118.6410,28.9467
-3507.8125,-129.9490,-126.8216,-178.5565,-121.2039,-189.5576,50.7940,32.0470,137.7494,100.4560,147.5520,-36.1302,62.1004,-67.7945,92.8604,-1.8867,6.0322,-199.9838,125.7085,101.9313,47.5783
-3500.0000,-144.4398,-141.3929,-155.1665,-66.8665,-130.3842,91.1199,91.5671,159.9633,50.1419,97.6761,-122.1596,-62.4570,-77.3240,189.2104,-15.2239,-7.1890,-40.9192,74.7932,86.4280,-2.5981
-3492.1875,-129.8719,-22.9063,-104.7204,18.5257,-80.1457,65.8297,70.1466,101.2273,64.8810,39.8321,-143.1570,-10.9693,-58.6345,129.5991,36.4892,7.6252,-61.7966,-17.0643,-4.0204,12.2700
-3484.3750,-127.3494,15.5226,-176.3266,20.8572,-113.9468,79.2928,-2.3149,65.4408,-44.4276,78.9311,-178.2194,174.4781,-106.2617,131.9333,1.1482,83.3858,-23.7091,21.0393,-1.5104,51.0857
-3476.5625,-108.0766,-71.2995,-119.1782,-66.0688,-58.9797,52.3495,-19.0216,48.4074,-60.9881,62.7727,-120.5432,157.6730,-63.6615,151.0089,21.5529,66.8968,-40.8612,39.9111,17.7501,34.6451
-3468.7500,-66.5547,-99.8698,-114.7839,-129.7424,-53.7536,-0.6452,59.5173,-20.3661,54.6945,-6.1477,-42.6216,89.1216,-14.7208,82.3283,63.2057,34.6530,-139.7540,81.0468,59.2565,76.4549
-3460.9375,-118.7914,-186.1888,-131.1400,-146.1597,2.7356,-13.7868,80.3020,-36.8872,148.6239,15.1737,-22.4583,-38.1803,20.1683,28.8956,84.1030,55.6548,-85.3692,134.4352,113.0193,60.5076
-3453.1250,-100.7685,-98.2527,-112.2349,-59.3208,58.4880,3.5232,135.3439,-19.1635,57.8080,-75.2666,-3.0608,-19.2328,45.6009,10.6989,66.2447,-36.0976,-139.7217,116.0726,60.0352,42.8033
-3445.3125,-83.7874,22.6255,-95.3744,63.4616,38.1977,32.7089,79.3412,-74.4891,-36.0550,-167.7665,14.2767,108.6620,24.8921,27.4442,9.3329,-54.9021,-18.1093,62.6686,6.0102,60.0481
-3437.5000,-77.0483,31.2454,-13.7542,35.9872,10.6688,10.7922,15.0941,-66.0639,10.8350,-120.5297,24.3546,117.2961,17.7665,36.9352,19.1715,-8.9623,-45.7324,-0.9769,14.7441,33.0344
-3429.6875,4.4918,-28.3318,-40.3360,-57.6863,-53.0485,-38.8739,24.6567,-19.8334,131.5244,-1.5096,71.2273,53.7309,26.2610,-26.7739,65.8110,0.7684,-139.5557,-58.8172,-9.7238,79.8166
-3421.8750,-37.4745,-71.4095,-49.4235,-101.8511,-99.2579,-20.1908,-21.2861,6.9027,84.7097,62.9978,61.5952,-29.3336,21.3160,36.0174,92.9477,64.9941,-112.8605,-32.1444,17.3105,107.0949
-3414.0625,-33.6436,2.3197,-45.7050,-27.2069,-132.6553,1.9981,-53.4267,10.4407,14.6948,104.2970,28.7548,10.4066,-11.7948,39.6013,59.8781,69.0153,-109.3618,-28.6659,-47.8566,111.1698
-3406.2500,1.2962,38.1525,-8.8878,42.5320,-204.9406,31.0835,-89.4647,11.0734,-20.2160,31.6882,67.0026,48.2477,-30.6364,-31.7257,-12.0977,70.1361,31.2483,5.9190,-12.9171,112.3456
-3398.4375,49.7870,15.5349,117.4815,55.8224,-79.6596,27.0873,-73.9462,-10.7456,-4.5689,-61.3821,46.7849,-82.3683,-12.2915,-53.5098,-69.5258,12.7991,114.4227,54.0674,-0.4213,55.0647
-3390.6250,89.9286,-49.4260,122.5027,-10.2321,-38.7128,-10.6966,41.2322,-5.9124,37.7322,-55.8181,52.2015,-113.3341,19.1921,-84.6554,-28.3064,-18.9040,13.2502,22.8755,4.7307,60.4307
-3382.8125,-15.1431,-188.5905,-24.6806,-149.4840,-37.9490,-16.0641,116.2143,31.7280,75.8307,55.5274,-20.5885,-112.5068,6.4563,24.9966,46.7154,93.1937,-21.1075,-11.5019,76.6901,61.5911
-3375.0000,-101.0713,-169.6129,-114.7118,-200.5877,17.9815,-44.0172,171.3535,50.5215,95.0840,75.0121,-1.2276,-21.5369,37.6749,6.7919,102.8895,112.4420,-212.3195,-61.7226,95.7989,80.8955
-3367.1875,-189.9974,-48.6457,-210.7433,-114.6992,-4.0780,-29.0155,149.4929,28.3192,109.3393,52.4869,14.1317,29.4342,43.8655,-88.4187,117.0632,89.6842,-267.5274,23.0686,111.9087,132.2028
-3359.3750,-205.3707,5.8688,-224.2203,-59.2679,92.4236,-15.6114,136.1837,13.6723,59.1399,76.5033,-35.9748,-130.0504,48.3550,-65.0877,103.7836,76.4717,-177.1619,78.4262,96.5739,82.0567
-3351.5625,-103.6346,2.4947,-117.5901,-28.7264,126.0429,-32.3301,95.9748,-25.8741,56.0308,36.6025,34.0098,-133.4460,68.7966,-68.6704,63.5998,-0.6545,-145.6816,38.8993,22.3362,79.0099
-3343.7500,14.3551,-53.6313,-31.7048,-15.9228,101.9239,-44.3117,35.0101,-86.1761,69.1674,-23.0560,84.2411,25.4027,54.4023,-93.0111,2.6595,-23.5310,7.0689,-18.3677,-34.6493,92.2105
-3335.9375,81.5970,-23.5071,111.4424,15.1305,61.0693,-59.7716,-41.7041,-127.2269,28.5643,-62.4769,117.7264,95.5025,68.0693,-97.1069,35.9618,-27.1586,-31.9342,-56.3836,-108.3837,88.6537
-3328.1250,72.4416,108.2179,26.1859,76.7801,-23.1787,-23.0112,-89.8136,-102.6768,-55.4401,-74.3102,105.8081,83.2068,41.9537,-35.6042,60.8680,70.8126,-110.3408,-100.7946,-116.5203,150.7009
-3320.3125,-23.3164,153.3344,-74.6718,120.8244,-125.0138,33.3390,-117.5240,-56.7229,-83.0472,-27.7532,42.2812,92.2990,-18.3249,10.2922,34.1771,154.1855,-66.3266,-56.7945,-72.2457,160.1474
-3312.5000,5.3854,145.9012,-8.0714,149.3220,-168.3884,27.5528,-124.7758,-64.3179,-53.1979,-34.7582,108.1974,158.8301,-13.3506,-34.3782,-9.0672,36.9960,-2.8516,-64.3320,-114.5197,153.0407
-3304.6875,102.6906,138.0691,132.1262,141.4240,-138.1556,8.2012,-203.4298,-107.3067,-22.7525,-40.1741,139.7080,115.9586,-21.6763,-40.4605,-88.7216,-5.6012,199.2426,-72.2526,-122.1913,110.5319
-3296.8750,251.3376,110.5836,328.6784,113.8796,21.4498,-34.7948,-190.7287,-130.9396,-83.9656,-65.2513,115.5626,-55.5736,11.6757,-66.2014,-113.0251,-29.8524,207.6905,-64.8067,-148.5112,13.3667
-3289.0625,328.2199,117.3460,262.4706,85.5865,65.3209,-60.1900,-146.7754,-124.3156,-148.9286,-58.0885,122.6626,25.1496,19.4553,-95.6920,-106.0764,-59.8567,73.3819,-93.1041,-177.5816,20.4540
-3281.2500,164.5914,94.6068,126.7573,62.7915,40.7050,-15.8242,-134.3228,-76.1916,-173.3864,-117.4347,99.2552,74.3678,31.8953,-10.6849,-20.6285,26.6448,15.5931,-80.8944,-95.1483,33.0371
-3273.4375,72.2279,107.1190,29.3036,75.2478,16.3552,-8.2766,-12.6176,-99.8220,-123.5937,-215.5443,112.0979,86.8224,69.8971,1.5614,66.0643,-34.6139,-42.9339,-33.4245,-82.4655,45.8653
-3265.6250,37.5266,107.2763,-7.4933,75.3562,16.6607,0.1167,-12.2589,-99.7983,-51.1570,-215.0162,75.5881,49.9181,57.7158,1.4479,66.3990,-70.2321,28.2057,1.7106,-47.1284,46.3436
-3257.8125,1.6257,36.2313,68.5157,39.2658,92.7825,-17.2449,-9.0974,-98.9709,-10.9156,-138.7012,4.8712,15.8002,39.3178,4.1239,32.5286,-31.0525,62.1608,1.6559,-46.9844,-24.3865
-3250.0000,69.1677,33.6301,27.9767,1.6267,88.3664,-20.9576,23.5206,-66.6902,21.7804,-141.9413,0.6015,-25.8701,17.0315,-0.7569,-8.8931,1.5785,-10.4371,-0.9422,-50.3868,8.3326
-3242.1875,-9.6010,-10.2807,-54.8678,27.6815,79.6586,19.3294,14.8415,-1.7022,-23.8225,-41.4825,29.0253,-180.8465,32.6380,-9.9363,-17.6120,-7.0887,50.6693,95.1627,11.9220,-0.2488
-3234.3750,59.1859,-11.6388,19.8374,61.2890,117.5067,28.5333,15.7129,71.8372,-96.8729,-3.4846,30.0060,-181.2694,36.2670,-46.5705,-53.7803,-43.2144,14.3201,58.8180,-24.2250,-36.2793
-3226.5625,112.7333,76.7571,74.2971,79.6468,26.1076,16.5276,-76.6760,17.1247,-115.1774,15.2536,-25.2586,21.0504,-28.0465,-28.4660,-72.2048,-24.5857,102.7348,-27.7640,-76.6267,-17.5537
-3218.7500,125.2881,124.1499,161.7701,91.0124,2.7195,3.5482,-100.0668,-6.5849,-101.4854,28.9788,-85.5294,70.3481,-49.9338,-52.3722,-58.6347,-10.9557,150.1637,-51.3295,-64.0219,-40.8330
-3210.9375,158.1958,120.8925,157.5938,53.7313,-38.3046,-12.1018,-67.0989,-47.9387,-68.4479,-48.9518,21.5431,29.9882,-18.2603,-56.9320,-62.7171,-51.9871,41.9409,16.4634,3.9351,-7.7641
-3203.1250,109.5843,38.1276,107.9030,5.9502,23.1817,-10.0799,-5.6295,-23.7863,-43.9147,-61.3878,82.1054,-93.8674,12.1604,-69.9872,-112.3017,-101.5178,64.2241,73.7686,96.4059,-20.1966
-3195.3125,80.0656,-26.5400,152.3101,-23.7339,103.7832,-7.5615,1.9463,20.4733,-36.2731,-16.7358,52.7665,-196.6290,17.8057,-62.9598,-141.7797,-130.9546,-0.3935,115.1832,102.9803,-49.5337
-3187.5000,91.1031,-86.6656,89.2713,-47.8721,151.9444,12.6708,49.0729,67.2845,-99.0783,-42.5436,-46.0213,-185.8561,28.9488,-89.3978,-56.7063,-82.8415,10.5440,161.1595,114.1033,-38.3150
-3179.6875,48.8461,-59.1040,84.9438,-56.3121,257.8182,-17.5575,81.8996,25.8005,-30.1891,-46.6501,-161.1121,-80.4034,13.5562,-94.1360,-24.9401,-50.0291,38.1968,117.8465,105.9240,-116.3992
-3171.8750,41.2955,3.1605,40.3205,-64.0419,287.3976,-64.9811,111.4234,-18.9818,36.3954,-18.0696,-94.4973,21.7377,26.9048,-102.1775,-32.4763,-94.5244,-40.4455,40.2411,28.4355,-123.7854
-3164.0625,-61.7602,-29.0723,-31.8062,-96.2689,214.4861,-37.5135,75.4477,18.7374,0.4827,56.9975,-56.3804,-14.6137,19.7910,-27.7262,-30.5192,-19.5278,-2.5759,42.1430,30.4600,-85.6738
-3156.2500,-52.7697,-126.2551,-22.8854,-123.4386,186.6386,-24.6521,84.5277,64.5091,9.6318,103.1102,-84.2258,-189.9177,27.4287,-19.2345,14.4863,25.5158,-28.6583,87.0992,39.5411,-76.5172
-3148.4375,-53.2884,-161.9354,-62.4768,-89.1096,111.2953,-11.2106,82.1114,61.7853,44.2872,100.7170,-86.5775,-118.7221,5.1236,-22.2465,12.9962,24.0621,5.7520,15.5618,74.1274,-41.8560
-3140.6250,-64.0590,-137.8744,-36.3187,-100.0360,63.7064,8.8166,-1.5547,87.8163,70.6913,53.0719,-97.1813,-92.7881,-20.5051,39.4882,2.2529,49.3617,100.9270,-30.2082,99.4690,-52.4475
-3132.8125,-9.0650,-83.0671,20.6059,-80.2126,10.8768,5.9236,-18.4653,70.5955,17.8377,37.1650,-3.0276,-73.1142,-18.3604,58.9636,-51.7459,33.3962,49.8606,-45.2169,48.5598,-32.2904
-3125.0000,13.5339,-130.6622,8.1371,-92.7883,-1.3422,4.6897,6.2231,57.9782,41.5777,60.8437,-15.2806,-48.8413,-27.9267,46.0349,-64.1531,-15.9755,72.4079,12.3832,71.2548,-44.5334
-3117.1875,-2.5247,-110.9072,104.0197,-108.0106,57.8100,-4.3020,28.2672,80.7093,-9.3322,9.8529,-29.1874,-27.2163,-1.0291,31.4552,-41.2120,-30.0005,57.3062,-3.6668,56.3066,-95.4317
-3109.3750,41.1031,-67.4542,36.5932,-64.5356,101.6766,-10.0214,35.0222,50.1397,-38.5332,-19.4447,14.6033,-19.8877,23.2345,1.5680,-34.5674,-60.3318,-5.1078,4.9916,-5.9333,-51.6264
-3101.5625,-60.2349,-63.9667,-32.7945,-26.0192,68.6017,11.6613,38.8282,53.6289,2.3152,57.3108,18.4434,-53.5189,14.7993,40.7293,-30.8714,-19.6060,-1.4646,8.7174,32.8866,-47.7733
-3093.7500,-19.9193,11.1640,9.4696,14.1469,37.1904,-5.7673,44.2868,22.7747,7.8105,26.7132,23.9385,-11.5200,10.5283,9.5408,-25.5303,-51.2331,-66.1665,-20.8995,-31.6508,-42.2751
-3085.9375,-1.2416,29.6385,28.0937,32.6599,-16.8647,9.0818,-9.9095,4.2697,26.6491,-28.5368,42.7892,6.8250,0.2147,-9.3005,-43.8437,-69.5128,22.4908,32.8340,-12.8377,-23.4274
-3078.1250,7.2435,2.9093,113.5309,-29.0353,31.8890,-25.0035,1.6961,15.5625,1.2955,-15.9980,54.4329,-55.0346,28.4460,-71.3416,-31.3588,-19.9964,30.9598,41.3625,30.7785,-84.7815
-3070.3125,42.9779,-66.5779,75.2184,-63.4824,30.8964,-38.2330,74.5561,15.1059,-35.8014,-17.2215,90.3224,-56.6381,54.6406,-73.1372,4.3810,15.7729,-73.3215,7.1426,31.6432,-48.8807
-3062.5000,-29.6001,-34.3663,-2.3980,-31.2280,-9.3931,-7.8068,-2.8912,10.3493,-40.2035,52.2502,12.9113,-24.5430,11.8782,32.7625,36.8256,84.2485,-40.8924,-30.3654,-5.7865,-16.2793
-3054.6875,-36.7217,-5.7016,-47.5640,-2.5219,-17.2254,5.5498,-47.8839,39.0472,-11.1564,81.1638,4.9541,76.9896,-9.7827,61.1045,28.7177,77.1616,-152.0139,-72.4151,-47.7679,12.7693
-3046.8750,-86.3382,-22.5389,-102.2312,-54.3156,-108.5603,14.3521,-66.3777,56.2436,6.3996,171.5713,-14.5009,131.0120,-50.9193,77.9448,9.1055,94.5678,-168.6301,-52.9543,42.7588,67.3210
-3039.0625,-138.8561,-75.2850,-118.7947,-72.0157,-88.7892,20.3063,-8.7716,77.5475,138.0542,193.0780,-66.8564,5.1334,-69.6734,134.8929,-6.4099,115.0722,-116.1478,-70.3900,95.3942,14.9691
-3031.2500,-144.2219,-45.8823,-124.2048,-42.5616,-93.8588,23.8975,59.9842,72.0046,169.8451,77.7258,-35.0628,-37.5846,-53.6493,128.9948,-11.7791,109.7201,-121.5211,-110.6725,125.1773,9.7669
-3023.4375,-171.2953,-37.1833,-151.3138,-69.8053,-83.6137,14.4669,69.0411,44.7624,105.9315,50.6662,-24.9760,44.9947,-42.8724,101.3909,-1.8542,119.6671,-42.5801,-67.6471,134.2666,-17.1378
-3015.6250,-147.4702,-47.5889,-86.5190,-44.1557,-54.4512,20.4216,61.0059,72.4236,97.9240,5.5062,-32.9859,36.4548,-18.0890,55.6762,25.9713,37.5082,-52.7372,-6.7189,89.2610,-62.1503
-3007.8125,-123.5973,-58.9463,-99.6791,-20.4638,-67.2302,25.5873,48.0313,59.1333,47.9715,29.3869,28.0567,-13.0319,1.7813,42.0078,13.8463,-11.6081,6.1605,17.2575,77.3098,-38.1139
-3000.0000,-90.2788,-26.8574,-26.3925,46.6757,42.4469,45.3995,10.5117,58.2891,-62.5280,64.7062,-46.4504,-51.0670,-6.3852,40.7877,-23.8234,-12.2761,74.5108,49.6905,39.8108,-75.6310
-2992.1875,-47.9146,50.2819,-19.0631,53.8666,87.1762,26.9032,18.0432,28.4988,-54.9744,-0.9280,-75.9106,28.9578,-8.6694,10.6162,-16.4377,-41.8997,-24.1010,57.1768,12.3605,-68.0976
-2984.3750,-149.7097,19.2702,-86.8883,58.9113,93.7560,55.0425,24.4242,71.5569,-12.5652,41.2870,-106.5259,-2.1660,-25.5560,16.3001,-47.2017,-72.6766,15.1419,132.5181,52.7686,-98.7153
-2976.5625,-137.9045,-5.1473,-38.1082,34.5549,142.9426,29.2552,74.4116,84.2160,0.4485,17.0921,-56.5356,10.3067,9.2109,28.5887,-35.3706,-96.8580,-44.0081,38.4556,-7.2236,-122.7392
-2968.7500,-40.2447,22.2874,-13.4721,-8.9487,56.9820,-8.9496,-11.7525,34.7224,-11.6947,-32.2624,4.3179,217.6304,0.7655,-21.2714,-10.6943,0.8020,-51.3081,-75.7571,-85.3695,-24.9116
-2960.9375,-21.8351,-29.5304,4.9150,-25.7079,2.7769,4.3273,-104.1727,15.9748,-30.0921,23.1304,-51.0696,199.7047,-30.5301,-3.3808,7.7301,92.2104,37.1521,-21.2175,-66.7592,-6.3373
-2953.1250,48.1748,-29.7538,41.9037,44.1276,-33.8224,18.2160,-29.9832,52.8315,-29.8854,23.1133,-13.8594,88.3844,-13.1896,-3.8925,7.7532,19.2135,-32.7920,-57.0792,-101.5420,-6.1658
-2945.3125,-24.9211,2.9187,-36.2201,76.8556,-74.5225,43.7571,-33.8941,48.5939,-33.7771,18.9954,-17.7579,47.9752,-11.7428,28.4991,40.6763,15.1128,0.1683,-24.0335,-103.4166,26.9040
-2937.5000,-61.8188,0.7914,-38.1405,39.7872,-39.0191,47.0780,-72.6086,83.5665,-35.4821,17.0777,-56.4570,8.7591,-20.3202,26.1069,38.7923,87.2049,-37.6706,-25.7840,-35.0901,25.1649
-2929.6875,-67.9099,-6.5311,-82.2609,33.5234,-46.7120,24.0559,-43.5265,75.3421,-6.3885,119.9450,-27.3523,37.3367,-18.9479,-19.4799,30.7055,79.0940,-78.7150,-66.7340,-5.9654,54.2250
-2921.8750,-120.2046,-25.0622,-100.5799,-20.9495,-27.6002,7.9639,-24.6387,56.9141,12.5169,101.6027,-8.4464,-18.2823,15.3676,-1.2671,86.4212,60.7775,9.0432,-49.8824,11.9698,36.0817
-2914.0625,-65.5029,-3.6022,-78.9018,35.5644,-41.4800,11.2001,-1.7414,42.4861,-1.5740,87.2621,14.4641,-32.8900,18.2624,-16.0587,72.1353,46.4551,-41.2076,-29.0299,-38.0883,21.9346
-2906.2500,-83.8033,47.8547,-134.2287,87.0741,-97.3540,35.1095,-21.8405,22.0599,52.3291,66.9253,-42.6266,57.5083,-40.3036,-36.8486,14.8456,26.1284,-24.4507,23.8252,14.8543,38.7854
-2898.4375,-116.5550,84.8590,-94.9979,19.1376,-56.6670,-5.3786,19.6153,-10.8213,129.7811,34.1240,-75.1676,60.4485,-44.5670,-33.0854,19.1110,67.3407,-57.1319,-8.7705,52.3524,6.1735
-2890.6250,-109.1002,21.0652,-126.5630,-9.5981,-87.7770,-17.3461,60.2800,-7.5035,134.4440,37.5163,-33.5126,27.5851,-6.5923,-66.1222,96.5742,107.7421,-119.6153,-37.1743,24.0525,83.7566
-2882.8125,-134.0483,-38.1323,-155.5301,-69.7389,-79.2864,-20.1780,31.5437,-34.5853,142.7155,82.5076,-61.2642,-1.6799,-2.4379,-21.5534,141.6366,115.7417,-74.4959,8.0226,34.3636,128.9361
-2875.0000,-58.5461,36.1161,-113.0460,-28.4390,-73.3421,-19.8205,-34.7364,-29.2172,74.4336,87.9477,-18.5615,77.5149,-15.9944,-52.5290,73.1479,121.1890,-103.9352,-20.3306,5.1242,134.5615
-2867.1875,6.8551,65.2594,-120.6660,0.7537,-117.4996,35.0462,-116.1233,0.0533,-78.9610,44.2814,-25.9521,143.6346,-58.6360,12.4040,-6.4434,113.5366,-3.4736,9.2184,0.7794,164.0851
-2859.3750,-10.9955,13.1581,-25.5289,52.6998,-94.9058,48.7190,-93.7676,-15.9241,-93.6071,-7.6457,-40.5901,-19.4902,-16.1230,-3.9045,50.7123,98.6263,84.7529,61.5149,18.1779,112.3488
-2851.5625,48.0609,-33.0399,-0.4796,6.5506,3.5900,-10.8099,4.4856,-63.0064,41.6500,17.3176,-15.3325,-66.7156,-2.1904,-51.3068,2.7699,50.6012,2.8848,15.7061,42.4712,101.5111
-2843.7500,38.4655,-76.8896,26.9186,-108.2452,68.4401,-63.2452,32.0885,-72.7452,143.2590,44.6274,-24.7311,-3.5928,2.5226,-97.3540,-6.8258,3.9173,-6.6182,6.2478,69.1186,92.0205
-2835.9375,6.9247,-39.6879,30.3731,-104.9883,72.3475,-64.4164,35.7443,-69.4373,72.9155,10.9833,14.9249,36.5819,35.4830,-94.3503,33.6322,-28.7221,-72.0791,9.8352,36.8119,95.5723
-2828.1250,16.5883,-30.2813,-32.9786,-59.5441,8.4534,-32.0663,8.6022,-59.9338,8.7722,20.5307,24.7885,-28.0188,28.8201,-85.1384,43.2892,16.8320,6.6549,54.6175,46.7003,105.3233
-2820.3125,24.2970,-58.8250,50.7195,-54.0569,19.6098,-13.5436,-17.4893,-14.3824,-17.3261,31.1297,-38.2996,-127.5492,6.3774,-76.8694,16.9939,101.4319,84.4320,62.4538,54.6431,42.1182
-2812.5000,110.8519,28.4898,67.2605,33.2853,-0.3865,-8.2429,-0.7334,-34.9783,-0.5787,-26.4303,-21.5310,-111.2119,-14.7771,-60.7381,-40.4490,6.8708,31.0457,8.1415,-34.5734,58.7617
-2804.6875,28.3951,51.8093,-20.2062,56.6362,-13.3901,20.4191,-85.9804,-11.5797,23.1718,-2.9998,-33.7677,-51.8641,-7.5127,-37.5905,20.1102,-78.6863,54.6639,67.8300,-45.7925,82.4032
-2796.8750,-48.4562,79.7327,-62.0661,84.5835,-17.7945,62.1465,-55.6312,57.4162,-55.4834,29.0244,-75.3993,-19.9104,-21.9000,-5.8347,15.2630,-48.6439,-23.1107,166.1067,-121.4080,40.6381
-2789.0625,-83.4402,114.5071,-98.0647,84.3743,-54.3535,109.6166,-91.4320,130.2561,-164.3016,65.8926,-75.1714,-20.0921,-57.1119,30.7799,-58.7444,25.2287,-58.0238,272.2219,-157.1658,40.7203
-2781.2500,-111.6204,122.0726,-88.2546,126.9521,-43.1044,129.9695,-154.4274,140.8948,-154.3124,39.5523,-65.1484,-83.4611,-48.0247,77.2012,-47.9607,35.8790,54.8719,244.1376,-115.1110,-22.4064
-2773.4375,31.6441,89.0851,-46.9952,128.9724,-1.4030,55.0860,-39.9653,70.9884,-39.8634,-67.3482,13.3176,-153.3688,12.0596,-28.9182,-6.7259,-71.0259,22.2064,106.5017,-41.6026,-55.0901
-2765.6250,18.5523,39.7473,-62.0913,79.6379,56.9455,17.5185,55.1496,-17.2718,19.2328,-119.6021,35.4254,-168.6156,30.0369,-7.3751,-21.8451,-86.2789,79.2081,22.5168,50.5585,-33.1319
-2757.8125,-34.3377,-13.3934,-44.9763,-43.4965,74.5040,6.6153,72.4684,36.6653,-0.4765,-65.6620,15.7337,-77.6538,25.7510,45.3783,-4.7667,4.6519,-43.5829,4.7265,32.9191,-15.9884
-2750.0000,-64.0675,-43.3747,-113.7075,-108.4765,43.2147,-15.0124,40.9337,40.7461,3.9628,49.4185,20.1927,73.4713,6.2895,13.2848,-0.5408,45.7164,-142.2269,11.0811,39.4264,25.3022
-2742.1875,-64.9471,-114.4952,-39.5874,-109.6081,44.7787,-16.1578,5.2466,41.6718,5.2520,123.3370,58.4958,-35.5424,16.8404,-22.9500,-36.4658,82.6237,-38.0119,45.2817,108.7849,-10.5628
-2734.3750,-4.8723,-90.6577,23.4843,-49.7869,70.2926,-5.0551,67.5114,66.5391,104.4876,39.1939,10.7510,-120.5823,-6.0467,2.7785,-84.4372,35.4705,-84.8556,-35.5790,63.0876,-21.4828
-2726.5625,-37.5035,-16.5151,-86.1537,-11.6623,36.1026,5.6147,33.0746,-5.3021,106.0198,3.3511,-24.6992,28.6948,-53.6039,40.8172,-119.1087,-0.3851,-10.3930,-33.1432,31.6888,16.8964
-2718.7500,-30.3955,24.3785,-41.0400,29.2153,44.6581,-3.3416,4.3857,-34.3942,4.3024,-25.7377,57.5906,-0.2766,9.9372,47.6162,-38.0264,44.5065,65.8253,-96.9580,3.0410,-11.9832
-2710.9375,89.0191,-67.4207,47.3775,-26.6091,22.5111,-56.2281,-17.9951,-57.1890,-18.1124,25.4645,182.1764,-59.9323,85.7554,-48.2758,50.3503,58.6824,45.3444,-82.4786,-53.3072,2.4305
-2703.1250,143.9340,-118.7184,141.2966,-7.9416,-30.1410,-29.5837,-70.8780,-36.4808,-34.0269,9.1556,166.2556,-76.0741,55.3135,-27.6415,-2.7770,42.3515,135.3691,-63.5001,-69.1544,-13.6647
-2695.3125,179.2495,-12.6142,178.6173,62.1181,-29.3984,-20.0198,-70.3632,-73.3698,-70.5451,-101.7569,129.7318,-38.7859,44.0082,9.4121,-2.5084,-31.5780,99.7737,-98.1373,-103.6043,-13.3650
-2687.5000,159.0607,36.9945,119.4266,76.6688,-88.1668,-9.6772,-55.3520,-95.7571,-18.5645,-123.1664,34.7034,13.0275,-3.1605,23.9799,12.2587,-54.0113,114.6717,-83.2766,-53.5471,1.4361
-2679.6875,51.3141,35.0475,45.6827,39.6646,-13.4841,-24.6563,19.1138,-58.6960,18.8696,-50.1261,-1.8829,-23.6983,12.2478,23.0131,48.4750,-17.0055,78.0279,-119.9681,-19.0361,-35.3224
-2671.8750,28.2224,46.7534,19.5908,51.3108,-40.1568,-33.7782,29.2318,-48.9849,28.9468,-3.4456,45.1779,-50.7575,28.6773,-40.2865,59.3420,-7.3589,-14.9668,-108.0211,-42.8846,11.5649
-2664.0625,5.8271,-46.8306,-4.7999,-6.3397,-64.1439,-8.4461,5.0394,-36.5747,4.7162,8.9354,57.9309,-38.0891,30.2561,46.1305,71.9012,4.9813,-2.2526,-25.3796,-30.0328,24.1471
-2656.2500,17.0312,-34.8056,45.4175,4.6161,-13.5309,-0.6302,-18.5527,-23.5701,-18.9153,-52.0874,71.2788,12.1911,39.2936,58.1598,48.0594,-19.0893,-25.9377,-13.1518,-88.5855,0.3196
-2648.4375,11.2388,-5.7777,0.6320,-1.4282,-20.9177,3.7612,-26.1441,-31.5745,10.4526,-96.1211,63.6220,41.4877,25.9122,87.2060,40.2171,-27.1664,3.3787,-54.9338,-59.1384,29.4868
-2640.6250,0.0934,-53.0925,-10.5016,-12.8256,5.3428,-1.0760,-0.0879,-42.9330,73.4670,-143.5071,52.6074,-6.5401,36.5727,112.9165,66.0296,-1.5987,-7.6491,-101.0749,0.9551,18.2920
-2632.8125,11.0987,-41.2421,-0.4834,-2.0723,-57.2538,-8.7718,10.1233,-33.1421,46.6278,-96.7493,99.7384,77.6039,44.5764,49.7914,75.9926,-28.8981,-100.5359,-88.0716,-57.8125,65.2426
-2625.0000,-38.2948,14.2135,-16.8628,18.2866,-72.2608,10.3076,-78.0752,-12.7549,-6.6145,-4.3930,83.4655,134.3551,0.7193,-3.7184,-14.4508,-8.6023,24.1913,-33.4770,-70.9794,85.7894
-2617.1875,11.8169,29.1744,75.2685,68.1549,-55.7745,11.8962,-61.7756,-31.8672,-62.3559,-23.5495,101.6850,5.6140,19.2287,-22.7124,-33.4004,-27.8186,74.4215,16.6089,-92.6422,29.8251
-2609.3750,23.3263,-29.4480,51.7948,79.4295,-41.8951,14.5805,-11.0743,-55.5828,-11.6963,-84.3150,78.2887,-91.6960,38.7326,-9.2942,17.0438,-51.6470,86.0436,28.0933,-9.9008,6.2534
-2601.5625,-1.5281,-89.4223,101.9621,19.3489,45.6229,-14.2238,76.2824,-78.6442,75.6141,-107.4242,18.5262,-151.3286,49.7162,3.7898,30.1392,-74.8261,132.3144,3.2261,70.4982,-53.6796
-2593.7500,60.7654,-97.2400,131.2785,-58.5899,38.2877,-57.3224,142.7913,-49.5584,142.0759,-78.3839,46.9132,-84.7868,40.7583,-76.9632,-13.6172,-82.8627,18.7310,-4.4993,63.0407,-61.4696
-2585.9375,60.6597,-98.4518,92.1971,-58.9336,0.5442,-35.6218,66.8973,-51.8763,66.1342,-43.7488,81.8987,-86.6289,41.6625,-79.0925,-15.7764,-48.3077,88.7537,100.3697,28.1793,-26.6634
-2578.1250,81.4553,-6.7571,152.0185,31.6220,-13.3030,1.5027,16.8974,7.7070,-94.9180,-58.2101,31.7757,-174.5541,43.2464,-130.2970,6.9624,-25.8561,145.6719,122.1301,-20.7931,-40.9680
-2570.3125,137.2968,-22.0036,134.8829,-18.7749,-30.1104,-24.4648,-0.0533,-9.6570,-74.9255,-38.6318,51.6915,-117.3991,28.9784,-110.4324,-10.2492,-43.3601,165.6224,35.9411,-0.7213,-21.2239
-2562.5000,132.3230,-62.0446,131.9364,-23.9698,-32.7200,-15.5521,-2.8083,23.1785,-40.7378,31.1368,11.7926,-157.0169,-2.8042,-76.3405,-50.2645,-46.6652,195.7739,30.9532,-5.4475,-61.2843
-2554.6875,144.5412,-49.8836,107.1869,23.0372,-20.1317,16.1157,9.6404,72.2138,-65.3471,-29.8926,24.0865,-144.4188,5.2015,-27.0284,-38.0795,2.2214,32.1151,8.1553,-62.9756,-49.1530
-2546.8750,-8.3513,-26.8195,-18.6719,10.9366,-35.6521,45.0210,-6.0139,57.1502,-81.0600,-46.0182,8.2785,-48.8996,-0.1370,-5.7986,-16.9926,23.0049,-14.6415,101.2488,30.3956,8.8715
-2539.0625,-134.4434,-11.9520,-75.7247,25.6245,18.6226,43.5421,48.1327,72.8842,-26.9762,-29.3439,-11.7433,-68.5591,30.3886,-25.7509,36.8961,-34.4182,0.4036,81.1296,80.5659,-11.3145
-2531.2500,-101.7305,90.7199,-115.9786,93.1094,14.6928,20.6397,117.0846,-4.5875,5.9124,-33.8725,-15.9785,-35.3848,18.9621,-29.8885,32.5837,-39.0549,-72.7557,8.7949,43.5287,21.2975
-2523.4375,-151.7759,110.6442,-131.9856,112.8430,-74.9937,61.9032,-9.7219,15.1868,26.0462,22.8438,-32.9754,22.0636,-43.6403,64.2443,-21.4782,54.5662,-17.6570,-7.2962,63.7429,41.1554
-2515.6250,-70.9739,121.4302,-49.1438,88.4311,-99.8389,34.7075,-35.6771,25.8096,37.0271,-3.5925,51.8717,70.3805,-26.4820,1.2500,-47.6873,-8.9679,-76.7169,-31.5492,39.7990,51.8539
-2507.8125,-83.6208,1.7786,-27.7528,3.5742,-115.1427,-12.8826,-14.0848,-27.0229,58.5553,17.5149,110.2670,92.2620,15.8640,-87.1791,10.6491,49.0355,-55.2202,-10.2640,61.4047,73.0972
-2500.0000,-64.0652,-82.6630,70.8468,-81.0761,18.7425,-59.5501,47.7026,-76.6589,9.2822,4.8177,133.8541,43.3521,71.1190,-63.3912,35.1823,73.2358,-34.5157,-24.7892,12.2074,23.5290
-2492.1875,82.5981,-76.9930,112.5521,-75.6219,61.7137,-79.0244,53.5859,-107.1936,-58.8910,10.2170,176.5339,49.5669,85.4054,-57.4854,3.8136,-32.4735,-28.7168,-54.2310,-17.9028,29.0584
-2484.3750,115.0102,-8.5628,149.0078,-7.4146,24.4187,-73.8255,16.2097,-144.9822,-22.3119,9.3614,101.9511,-24.4373,49.8095,-57.8093,3.1874,-33.4359,109.8474,-56.9335,-19.2666,-8.6660
-2476.5625,225.9273,67.3802,230.9748,-2.7051,32.6143,-111.3325,24.3341,-137.2758,22.7682,-19.0040,73.8543,-88.9114,55.5551,-85.6218,48.0605,-61.9100,44.9143,-122.1444,-49.1392,-73.8991
-2468.7500,292.8456,62.3397,188.9407,28.0141,-46.2003,-70.6409,-17.5491,-69.5748,-56.1666,-62.3757,141.7506,-131.3599,48.3151,-91.4158,5.9323,-31.3926,40.9803,-91.3636,-89.0208,-43.1334
-2460.9375,212.6067,-16.8423,179.7590,-16.4113,-18.1680,-56.7084,-26.5906,-42.0218,-65.2633,-71.8965,132.4894,-176.9528,69.6311,-100.3377,32.6524,-4.0259,102.8981,-29.7382,-27.0551,-52.5272
-2453.1250,208.9662,-20.4177,139.1739,-20.2405,-21.5409,-60.9532,42.9688,-8.8650,-31.7625,-1.8141,54.8227,-142.9271,42.3416,-140.6437,28.9688,-82.0577,63.4009,-33.5200,4.5021,-56.3283
-2445.3125,112.0694,22.7554,38.3303,22.6721,-85.1738,-1.7486,16.2783,37.0412,14.4849,7.0243,-82.1085,-58.1181,-39.6014,-56.1808,2.0382,-109.3427,142.6526,9.4439,12.8111,-83.3839
-2437.5000,33.2226,50.9869,30.5390,50.6405,-55.7639,41.0199,8.6408,102.9919,-29.2183,-1.0933,-90.0052,-29.2425,-39.8732,46.3499,-5.8401,-117.5853,64.9520,1.4489,-64.8328,-91.3985
-2429.6875,55.2253,37.0837,-24.4088,1.4678,-0.5124,7.3933,-46.1449,47.7902,-121.0731,17.6321,-35.0646,-9.5057,-0.9394,28.7472,50.1330,11.0174,-18.9017,-47.7056,-78.6344,0.4346
-2421.8750,-11.1820,-29.2059,-58.7570,-100.1011,39.3289,-23.4342,-43.3383,50.1882,-45.3272,56.9526,4.4613,-43.1518,31.1817,-5.2367,89.7057,123.2218,-50.1492,-43.2676,-38.8381,39.8602
-2414.0625,2.2140,-15.6835,-82.3038,-85.8641,13.9581,-34.9858,-30.7335,24.3882,3.2135,68.0704,52.7826,43.0287,38.0052,6.5962,101.0765,98.2225,-141.6070,-100.0463,-59.2568,88.0803
-2406.2500,-35.8395,-19.5980,-125.3021,-91.0736,-26.8781,-20.3121,-35.5956,-17.8627,-37.7081,61.7442,10.6537,74.7903,1.7174,0.9963,57.9958,91.7667,-39.5131,-33.2833,5.8600,118.8537
-2398.4375,-62.6458,-11.2526,-42.0473,-48.0290,-17.4793,-5.7860,-26.2203,-8.8601,7.6083,71.6750,-52.2323,11.8100,-19.1427,11.6641,31.1606,64.5630,-32.1671,-26.2704,14.2201,91.8735
-2390.6250,-97.8009,-10.2510,-79.1474,-12.3264,-54.4495,20.1555,-26.2042,-9.2037,80.5626,-2.7409,-53.4791,48.4912,-18.8305,47.9996,66.9747,63.0195,-101.1727,9.3889,-54.7805,127.5438
-2382.8125,-189.6591,3.0601,-100.9487,-34.3157,-39.1316,38.2931,-47.8976,4.7566,21.8082,-24.8575,-38.4452,101.4790,-16.4742,100.6599,45.0839,40.7788,-51.8692,22.3480,-6.4847,105.5105
-2375.0000,-115.3662,-27.4650,-58.5929,-99.1463,2.3251,-9.5050,-42.4426,-26.1366,-8.7930,54.1722,39.7280,108.6353,8.0450,70.4798,14.3387,9.6799,-82.4208,26.4540,32.9502,74.6245
-2367.1875,-49.8765,-101.7771,-62.0387,-104.7725,-37.0308,6.8177,-45.7940,45.1661,25.8042,161.3970,-36.9068,-40.9914,-25.8500,31.5080,11.7959,80.7799,53.2290,57.7563,64.5808,34.9388
-2359.3750,-69.4461,-86.1395,-4.5340,-54.4462,-16.4434,38.1279,-62.2001,101.4242,-27.6481,144.5771,-90.6093,-93.6498,-47.1066,14.5039,-41.7924,62.8387,138.8206,107.9991,44.1550,-55.8022
-2351.5625,-35.2177,18.3125,32.7664,50.6788,-52.0712,67.9394,-60.8117,102.4836,-100.3007,71.5578,-89.5224,-18.4830,-73.4843,16.3165,-114.5809,-46.2977,173.1999,107.0288,8.5185,-91.7373
-2343.7500,-74.5514,15.2299,69.5099,81.2611,20.7369,75.4797,-24.9816,64.9956,-27.5101,-40.0054,-90.0026,-54.8518,-51.0514,89.6005,-114.9220,-120.9815,205.0289,102.5038,75.3262,-166.2188
-2335.9375,-9.9875,-25.9423,99.1452,-30.2465,88.4335,-7.1349,79.7429,58.4092,40.1645,-9.6593,-60.5934,-23.3041,-4.2697,10.8048,-48.3631,-127.7675,-12.2549,25.8731,104.0266,-172.8015
-2328.1250,-94.7259,-75.4148,-63.5272,-150.0585,-1.1847,-33.1677,101.1694,79.5213,61.5469,232.3890,-112.4940,108.9486,-73.0057,-4.2784,-64.0994,40.1492,-96.8367,46.9373,160.4344,-151.6885
-2320.3125,-154.4745,-63.8887,-86.1961,-139.8680,13.1976,3.3584,114.6020,129.6395,74.9445,135.4357,-172.4086,87.1979,-77.6849,46.6542,-49.8312,-56.9352,-15.4353,91.9923,171.8461,-211.5875
-2312.5000,12.3673,32.2551,50.7228,-8.0670,76.1605,2.9342,103.6322,45.3599,64.9498,-132.9194,-36.7339,77.0701,-18.2411,37.1979,-97.9665,-252.4208,45.5460,12.6421,91.8473,-185.8795
-2304.6875,164.5467,8.7567,134.9884,-31.9155,50.4551,-29.3558,41.9961,-17.5624,39.2905,-48.9096,11.2777,89.3117,-39.6526,49.1075,-159.7503,-204.5445,126.8952,-47.3658,103.1923,-174.8208
-2296.8750,182.7948,97.3206,155.3181,-13.7008,33.7869,-28.2746,62.4064,-34.4373,-14.3358,-102.8449,-42.6605,184.6083,-51.9179,143.0685,-103.4811,-184.6240,-29.7123,-99.3335,51.5638,-191.7137
-2289.0625,138.6490,160.4995,-1.7516,48.1297,-50.3036,37.4333,52.4000,-44.7126,-97.3728,-186.1729,-53.0081,359.5115,-99.7816,354.6368,-112.6143,-158.0989,-143.7168,-107.7010,-27.4822,-165.0017
-2281.2500,98.5934,155.7920,-4.7255,43.0713,-53.2976,40.1902,12.4838,-84.8850,-64.3137,-226.3941,-56.2771,357.5316,-84.7727,462.3227,-42.6464,-161.4694,-148.6270,-112.9693,3.5680,-205.1968
-2273.4375,217.1741,133.7521,44.9383,55.6709,-40.6534,-5.8114,98.2145,-182.4050,-14.5978,-323.9781,-6.9103,518.2330,-55.2927,402.6791,-30.0283,-333.1859,-135.9113,-170.5919,-18.7433,-192.7338
-2265.6250,276.7363,158.7130,107.5883,45.2731,-51.0265,-37.2944,87.9327,-266.9164,12.1075,-370.5535,19.4408,618.9555,-79.8675,356.0576,-114.4079,-343.8803,29.8082,-216.2163,40.9395,-203.2643
-2257.8125,349.4999,231.8910,225.4457,48.0870,-7.2112,-110.5492,95.8401,-370.2285,-18.0073,-364.9261,63.0013,664.8807,-64.7136,290.6401,-143.5870,-374.3700,102.7184,-284.6483,43.8034,-306.5902
-2250.0000,410.8662,293.6796,219.8995,73.5098,24.1779,-133.5615,126.3334,-412.9411,-60.5300,-407.7028,93.1645,770.4126,-47.7961,284.8344,-149.1690,-563.2583,164.2420,-294.4794,34.2640,-386.3069
-2242.1875,443.3834,290.6232,258.5110,71.0865,99.7054,-126.9946,128.9620,-411.5002,-94.8994,-406.3222,21.4607,663.0845,-48.9555,361.1935,-147.6079,-671.9947,301.9274,-262.1570,66.8849,-494.8840
-2234.3750,476.8514,289.5253,295.0755,69.6207,210.1790,-157.1212,202.5488,-411.1061,-21.3162,-442.9767,58.6855,553.7144,-17.0066,325.5089,-184.1003,-708.7874,265.5447,-298.8956,30.4471,-531.5178
-2226.5625,423.1619,342.2921,311.4841,51.0189,226.5012,-181.0359,181.9769,-431.8677,-41.8935,-462.7870,37.7496,645.2271,-24.8804,195.6827,-204.7399,-656.7258,317.0190,-282.7957,46.8461,-515.2977
-2218.7500,424.5160,344.1177,312.9498,52.4720,227.8695,-179.0054,146.4511,-356.5797,-76.4219,-461.5551,38.8665,683.8080,-10.7204,123.9078,-166.3286,-619.6078,248.5327,-316.6525,13.2829,-514.0258
-2210.9375,432.6127,246.6819,283.1593,95.6636,86.9745,-136.0002,42.6696,-313.5397,-70.1957,-418.5632,44.7304,692.1357,-35.0250,167.8896,-123.1608,-539.7233,221.7883,-344.7598,-14.5291,-470.9958
-2203.1250,391.9563,170.4856,277.6215,90.0951,81.3218,-90.4278,37.1382,-245.2416,-75.7169,-388.3050,-34.1684,613.7078,-76.7029,237.1300,-165.7266,-471.5894,286.2941,-350.6236,14.9076,-476.7213
-2195.3125,282.4028,237.3960,233.1927,15.6412,73.7595,-105.8397,103.7128,-215.8488,-46.1406,-394.9514,-41.9739,644.3909,-68.8344,194.4727,-136.1854,-442.3574,106.8878,-284.3953,-23.5694,-410.3457
-2187.5000,105.0473,131.5297,80.9558,-55.5849,31.3862,-76.0791,61.4760,-148.2549,21.6232,-290.4117,-84.5954,566.2748,-46.8301,189.0270,5.5493,-337.9210,105.7010,-179.9576,-24.8582,-305.7668
-2179.6875,54.3451,-58.6687,62.3824,-105.1385,123.6579,-65.1256,42.8799,-93.0078,4.0229,-162.2296,-103.5762,401.8109,-7.9752,172.2409,60.9297,-208.8315,55.1599,-124.8770,-74.5178,-250.5398
-2171.8750,14.0025,-63.5084,51.1510,-145.3429,149.2611,-44.6022,31.6263,-67.4055,-155.2319,-173.6999,-41.2105,465.7038,10.1017,124.8114,12.6654,-110.3715,14.9629,-59.4542,-150.8423,-114.9511
-2164.0625,-43.3992,125.5987,24.8734,-168.5986,85.7962,-40.6286,-30.7001,-56.8442,-216.5529,-126.1913,-104.9018,477.5412,-40.9224,99.3537,-12.6512,-62.9367,62.7172,-12.0821,-103.2280,-67.4082
-2156.2500,-58.5474,180.9730,8.8435,-113.5813,68.5688,-45.3707,-84.7899,-37.0217,-124.6303,-69.4133,-122.3557,388.6435,-36.8030,46.1379,43.2777,-43.2601,-57.2980,-27.4625,-83.3729,-47.6092
-2148.4375,-106.7674,62.3146,-119.2495,-56.6019,-23.7240,22.5170,-101.9465,17.7512,-104.7520,22.3194,-139.8754,333.7177,-74.1135,65.8715,25.1564,85.3746,-105.3488,29.1092,-61.5580,44.1464
-2140.6250,-227.0438,-56.3914,-137.3970,-69.6636,31.9265,64.4445,-120.1536,73.4830,-12.9250,41.0040,-158.4595,133.7290,-68.3680,122.5662,6.9899,176.9724,-85.4497,48.6300,-39.7979,99.8482
-2132.8125,-178.5596,-7.3433,-125.7938,-160.9756,44.3101,-9.6131,-108.6179,11.9709,35.6361,16.4375,-37.2910,182.4778,-8.0050,25.0223,55.5753,114.3347,-105.8136,28.8982,-96.3055,184.3127
-2125.0000,-161.6233,80.1464,-108.7327,-179.8352,24.1376,-23.1628,-165.6481,-45.0899,-94.3659,-3.6692,-57.6747,347.6660,-14.3165,-31.0695,72.6076,94.1606,52.2842,79.6238,-114.3676,201.2316
-2117.1875,-131.8267,109.4932,-39.8131,-44.8305,91.8061,14.3289,-206.8357,-49.2982,-135.5184,-44.9266,-99.1976,197.7093,-4.8330,-34.3087,67.4882,126.8360,80.2112,108.1966,-120.5904,160.0021
-2109.3750,-218.0410,59.8553,-93.8994,45.1936,75.4627,83.7684,-150.0335,43.4971,-5.6742,47.8205,-189.7239,-38.2341,-62.5598,-13.5489,-21.6319,183.5119,-4.8705,163.7717,-30.8155,179.7793
-2101.5625,-323.8157,25.6757,-167.5370,-25.3237,38.5660,76.5529,-77.7828,115.7508,66.6138,194.0306,-264.8141,-147.7416,-85.8583,-13.3397,14.7021,255.6474,-75.5068,162.8035,3.4038,179.0026
-2093.7500,-306.8861,8.1929,-226.4762,-77.1397,52.3619,60.9096,-99.8260,166.7129,-28.4008,318.9499,-250.2027,-205.5682,-38.8806,-34.4359,138.7363,307.4926,-233.4552,144.5346,-48.6823,266.9298
-2085.9375,-330.4571,-85.8024,-292.9146,-101.4599,-50.3474,102.3769,-128.3729,212.1855,16.0924,363.3809,-316.0988,-306.9199,-86.2061,10.9640,147.2649,424.8575,-222.8916,155.7674,32.7352,348.3594
-2078.1250,-394.5252,-113.2993,-321.8411,-94.2693,-80.5575,122.5902,-85.4235,292.1649,170.0817,407.3079,-346.4985,-409.7780,-126.7868,-18.1406,80.2997,505.7307,-285.8344,162.4877,39.6417,355.2915
-2070.3125,-479.8846,-128.0740,-413.0732,-74.3588,-171.0864,146.5594,-65.7918,311.8451,189.7528,499.9371,-364.1957,-425.9303,-150.3576,2.4589,100.0345,562.3064,-337.0747,217.9087,23.2281,374.9358
-2062.5000,-582.3523,-229.9287,-444.4010,-105.5267,-92.7310,154.8830,-23.2868,354.4364,158.3083,615.4822,-321.9992,-492.1906,-121.3770,45.9683,68.6716,530.7985,-332.4215,220.2361,62.6966,343.4791
-2054.6875,-574.6379,-291.5817,-438.5547,-168.4909,-13.1986,127.6924,56.4115,360.2468,164.0758,585.2553,-279.6201,-448.2520,-67.7588,15.6795,111.5190,499.5233,-465.6072,192.7672,70.3519,386.2374
-2046.8750,-538.3524,-290.6475,-438.1379,-236.8581,-14.0806,117.2130,92.7071,322.6728,200.4400,510.6412,-317.6535,-410.7228,-80.6807,53.0077,111.9810,425.8731,-359.1866,193.9030,106.6098,422.6150
-2039.0625,-479.0652,-230.7077,-374.7185,-142.2097,-60.9643,128.9968,83.0012,313.1037,227.7903,428.0367,-327.6906,-530.2068,-88.2402,7.3299,101.4508,416.2256,-264.7744,182.0365,129.8594,376.0012
-2031.2500,-436.4645,-116.4506,-367.0000,5.7512,-126.5607,137.9031,53.5867,283.8284,235.4466,361.7425,-247.4191,-521.3969,-81.9357,-94.0735,73.2135,423.8892,-257.0699,154.4724,102.4016,383.7003
-2023.4375,-432.3140,-111.6397,-360.7187,46.2694,-120.6133,134.3672,22.7080,253.1110,240.6577,368.0035,-204.5981,-477.0526,-93.8246,-123.9391,5.5212,466.1244,-252.8136,158.4590,106.4920,352.9533
-2015.6250,-433.4657,-7.1313,-363.7356,80.4995,-160.9784,137.1370,56.5243,287.0990,238.5592,327.9671,-208.0725,-479.0163,-80.7340,-89.0969,76.5328,427.0706,-394.8729,87.1405,-0.7253,386.9153
-2007.8125,-455.7318,-27.7304,-388.8707,58.6333,-259.4571,149.1373,-5.7660,263.9987,140.3534,413.8397,-232.6622,-429.0933,-100.7451,-39.3410,125.4511,475.9464,-311.0337,100.7312,-22.0401,435.7891
-2000.0000,-376.0048,-53.3225,-302.0048,138.7704,-247.9456,167.3880,-67.0629,274.9179,79.1477,462.7249,-184.2595,-489.1851,-93.8425,-63.5917,64.3718,414.8358,-231.2077,144.3307,-48.3680,374.6706
-1992.1875,-274.9705,12.3839,-233.8387,239.2214,-253.1445,204.9884,-145.0714,270.1404,37.2334,384.9222,-152.5533,-382.9852,-111.2176,-67.5542,-14.4058,336.0226,-201.0806,210.2388,-123.4095,369.8630
-1984.3750,-322.0705,71.9433,-280.7973,262.5408,-300.4904,239.2686,-229.2434,297.2063,-46.8530,410.9719,-199.9839,-317.9661,-138.6634,-2.6812,12.6546,363.0665,-177.0754,267.0027,-135.6057,322.9026
-1976.5625,-340.2039,89.4704,-296.7883,245.8362,-316.8754,226.6124,-172.4674,318.2195,-62.9957,468.9543,-216.4507,-370.0167,-156.6196,18.1190,-4.3433,420.0752,-301.1286,249.7082,-118.8670,269.8971
-1968.7500,-305.5435,19.8031,-296.9893,174.9457,-280.4691,206.1385,-135.9016,318.0408,-26.3340,394.7304,-144.1194,-369.2810,-135.9712,18.7141,-40.5387,456.8979,-266.3833,178.2234,-48.3254,269.7035
-1960.9375,-182.1834,-102.1722,-128.4865,122.7595,-149.3654,135.7191,-77.6399,228.5719,-42.9854,305.2214,-50.0836,-420.8731,-43.6938,-69.0061,-20.0181,330.4290,-142.9454,125.4500,3.9094,217.2122
-1953.1250,-67.3672,-92.6950,-82.5351,97.0198,-103.8188,83.6810,-32.9295,163.5658,-70.1892,241.1839,-4.5941,-411.0368,3.4934,-133.3011,25.9523,266.4251,-169.0657,99.1339,-22.4094,226.1802
-1945.3125,-158.1497,-76.8206,-139.1822,112.6862,-123.8724,88.3995,-15.8252,143.9678,-16.9887,221.5632,-24.7168,-393.8349,11.4184,-152.2068,79.3214,282.8315,-153.7696,149.2277,27.6781,206.5487
-1937.5000,-193.3842,-76.3990,-137.2739,77.9166,-86.3722,75.8947,22.8271,182.9240,57.7625,186.4939,13.7141,-354.0952,29.7361,-112.5776,80.2432,247.7906,-223.9329,78.8744,-7.6923,171.4757
-1929.6875,-172.2262,-124.5751,-152.9777,30.5548,-101.4812,74.0197,-30.1283,167.2828,5.9127,207.8280,34.5588,-221.9660,17.0293,-54.5658,65.5658,233.1662,-202.6926,64.9334,-56.6682,192.8131
-1921.8750,-125.5681,-113.2570,-65.1738,5.7043,-125.0873,59.6426,-89.5908,145.1519,19.5547,148.6739,46.9142,-206.3746,8.3708,-76.0751,42.3896,247.0624,-50.9525,75.5049,-46.1461,133.6460
-1914.0625,15.4973,-76.5373,47.0374,113.2615,-122.2984,50.8540,-123.6571,74.4352,21.5803,77.9272,123.6763,-202.4105,16.6872,-109.1950,-27.3777,140.3790,55.1802,41.4779,-115.2406,99.8855
-1906.2500,56.0624,-36.3165,127.7559,224.3261,-79.0143,86.7207,-191.2310,44.2247,-117.8912,10.6878,129.9218,-268.9627,30.1979,-64.8262,-57.6561,73.2119,271.8386,10.9600,-145.8333,69.6278
-1898.4375,117.4450,26.7042,231.2922,251.2077,-50.9280,51.9578,-198.0172,37.8196,-161.5569,-32.7455,195.9734,-237.7404,76.5788,-144.6861,-28.1386,29.8484,228.2995,-32.7535,-224.6324,26.1718
-1890.6250,162.5853,107.4716,202.5819,261.8539,-115.1036,25.1046,-226.0685,-27.8295,-190.4891,-133.4218,277.7978,-81.7893,111.2442,-172.8047,54.1292,1.2431,202.5255,-91.7147,-249.6939,71.4758
-1882.8125,139.7793,85.2961,218.9287,274.5675,-136.2292,16.3583,-211.0849,-85.4228,-137.3955,-118.0493,292.6757,-138.7987,105.8993,-155.8750,33.4511,17.6876,250.8124,-45.6204,-202.7106,13.8319
-1875.0000,207.5326,47.6795,253.8229,236.8430,-65.8106,-1.5891,-103.5527,-86.4661,-103.7432,-120.1259,254.1052,-176.2639,87.1829,-156.4230,-41.6752,-20.3045,142.6329,-12.9757,-170.1838,-24.2506
-1867.1875,206.8834,12.6630,180.3133,131.7258,7.2019,-12.5957,-67.4300,-49.8947,-140.4866,-156.5792,180.1356,-139.1705,97.2277,-120.3920,31.7882,16.3354,142.0549,-48.7127,-137.0568,-24.7262
-1859.3750,215.3449,-49.2658,225.9108,34.7179,52.3229,-58.1964,-59.2063,-41.2096,-96.1345,-147.9260,261.2741,-94.0124,150.4588,-147.2797,76.3555,-11.9170,9.5619,-76.3401,-128.8342,-16.1001
-1851.5625,168.8635,-59.1429,137.5562,59.7649,0.5015,-48.1389,-72.9362,-55.4736,-72.7419,-124.2213,357.4739,-33.8256,160.0226,-161.1338,62.9835,47.8833,-71.8813,-51.9156,-139.5701,43.5884
-1843.7500,68.3300,-19.0745,107.1565,170.7684,-30.3596,6.8400,-103.7211,-48.7882,-30.4021,-154.5587,289.6185,-136.7271,138.2492,-117.0559,69.5708,17.6579,38.6455,-11.5332,-100.3515,13.2259
-1835.9375,129.4573,43.6370,135.4125,197.4225,-2.5624,-7.0282,-39.8556,-57.4521,-2.4063,-200.2410,207.4284,-181.9932,132.7881,-162.3609,96.8144,-64.9041,-5.1960,-20.4989,-74.4874,4.5252
-1828.1250,150.9402,-40.3103,84.0069,78.4248,-18.4281,-27.8647,18.3465,-72.7565,18.9395,-141.5595,154.6056,-85.9266,97.4539,-140.3243,82.4043,-43.1012,16.3108,0.9002,-18.2764,26.1916
-1820.3125,132.5667,-58.1102,101.7543,-9.4143,36.8465,-45.3150,36.6887,-53.8939,0.4426,-87.7183,135.9500,-103.7508,97.9196,-158.1508,64.1517,12.8584,-2.0425,87.4594,-36.9155,8.0129
-1812.5000,105.7509,-49.3599,35.0461,-1.6886,5.6611,-5.6420,-31.4145,26.5229,-66.5056,-80.3146,178.8573,-60.0632,104.7361,-151.4453,70.4479,19.3775,-29.8527,130.5784,-98.0016,51.3922
-1804.6875,6.7835,-42.7623,6.1884,40.8992,13.3254,17.9547,-96.6765,34.8071,-95.6226,-36.0426,186.6144,-52.5586,96.0070,-105.8987,41.5948,27.7615,117.2000,66.5587,-58.2441,22.6195
-1796.8750,82.9712,-0.0035,87.4839,82.6557,21.1350,-23.9152,-52.7941,-30.7462,-51.6014,-27.6232,120.5207,-44.9191,64.1338,-171.2202,12.8913,36.3091,123.3889,-32.3037,-52.3433,-5.9987
-1789.0625,145.0643,-78.3632,114.6825,5.3050,-26.1599,-43.0628,-26.0171,-40.3987,-24.6608,-0.2835,110.3338,-53.4069,46.7097,-180.6643,3.0873,63.7778,150.4868,-41.2586,10.4660,21.2949
-1781.2500,205.3052,-157.6069,180.0341,-75.9186,-35.2896,-69.8537,1.9202,-48.8855,3.4413,-8.7582,101.3000,-134.8034,55.4206,-151.9814,31.4442,54.4093,175.7173,-51.0415,69.4373,-24.2576
-1773.4375,199.5849,-128.8104,137.4180,-81.0871,-41.3671,-64.2449,68.9163,-17.3083,-2.4045,-51.1684,132.3178,-104.1794,73.4784,-85.2698,61.8561,13.1015,63.9865,-92.7538,28.4581,-29.7505
-1765.6250,125.9007,-131.9545,59.8467,-13.1888,-82.3910,-5.4018,-8.0387,16.3268,-43.2159,-54.5395,165.3810,-71.5184,70.4963,-14.5126,58.3053,9.8559,131.3251,-60.3982,24.5336,-33.1940
-1757.8125,87.9282,-63.3971,94.9858,55.4295,-84.6995,2.0440,-10.2913,14.6618,-45.3311,-19.2258,163.1590,0.8255,54.0397,-16.0756,20.4531,8.3104,58.3605,-98.3397,-12.6975,-34.9387
-1750.0000,162.0598,-24.7576,60.2263,-10.8515,-83.8973,-49.4482,-9.4421,-57.9048,-7.3359,19.1827,127.0509,39.2356,13.8797,-51.5561,-15.2981,46.8714,61.4999,-130.1714,25.1790,3.4258
-1742.1875,160.8917,-24.4289,60.1765,-11.4394,-46.3800,-60.5997,28.1053,-93.7689,66.3662,20.3056,53.6493,3.3198,-2.3882,-50.3504,-14.3442,11.1308,95.3362,-96.2969,58.7598,-32.5081
-1734.3750,159.1333,44.2980,58.5188,22.3745,-11.4728,-64.3363,99.0488,-95.2254,101.4575,-18.1562,-21.3364,38.7991,-15.0653,-88.7648,-15.9801,-101.1986,23.5603,-98.0219,91.7394,-34.0355
-1726.5625,25.6705,17.3197,-4.8381,30.4944,33.7294,-21.6362,108.2779,-48.3734,73.8349,-82.3136,-12.0127,11.5627,21.4773,-41.8909,29.6758,-54.2008,66.0989,-54.4381,135.0264,-61.2597
-1718.7500,-41.2276,-49.1030,-0.6244,-0.8190,75.4890,-46.7868,150.0471,-42.9667,115.7526,-76.9279,65.8786,-20.1391,74.0308,-36.4858,71.8696,-12.6528,-70.8164,-86.2956,102.8527,-92.9307
-1710.9375,-24.0575,-137.4776,-21.3524,-89.0697,53.2944,-57.4998,127.8571,-27.5133,130.7108,-61.4995,117.8336,32.1908,87.3340,-21.0378,87.1091,-33.0705,-124.6632,-69.0906,83.7298,-40.5447
-1703.1250,0.2782,-147.7365,5.0837,-169.1904,42.2594,-58.7820,116.8250,-0.9077,82.8229,-34.9111,32.9504,21.6347,55.3021,-31.4452,76.5078,-43.3292,5.6482,-9.7403,108.7666,-51.0157
-1695.3125,85.6699,-25.9746,56.5732,-83.2799,94.2741,-49.5999,94.8604,-22.2488,-11.9938,-93.2660,12.1422,-36.8828,63.6809,-89.8381,54.9672,-138.5283,55.9936,40.6566,52.8689,-35.4351
-1687.5000,116.5540,-30.7232,88.5479,18.1234,88.7936,-39.8256,16.4067,-101.0864,-54.3001,-61.1092,42.8368,-41.9264,56.5599,-94.7577,13.9341,-106.2173,156.8463,35.5620,47.4877,-40.3564
-1679.6875,135.1775,-11.7319,184.2706,2.2771,111.0770,-75.1739,0.7115,-115.1774,41.1477,-75.2020,139.2854,17.7360,67.7559,-71.9376,-37.3407,-83.1576,34.4352,-50.7734,30.8591,-91.5327
-1671.8750,157.6983,11.1421,131.8755,-44.6724,57.2664,-89.5301,21.9206,-131.3766,25.4876,-91.3992,159.6454,111.2816,70.4134,-14.2318,20.2770,-62.1883,-84.0744,-99.1998,-16.8704,-33.7993
-1664.0625,131.8679,-50.3502,104.1378,-105.9778,66.1178,-87.2581,-6.2259,-121.9246,-2.5247,-81.9374,131.6614,47.4710,80.3464,-4.9037,65.5389,-15.5614,31.0874,-89.9582,62.0467,-24.4197
-1656.2500,222.7029,-28.2067,164.0632,-84.6373,51.6369,-109.7618,52.2820,-135.8237,56.1165,-95.8265,117.3466,-3.7169,77.5767,-92.9514,51.4546,-103.2868,51.8969,-68.0616,47.6129,-38.3885
-1648.4375,252.5901,1.9778,122.0338,-53.2497,10.2178,-81.8388,10.8424,-103.6684,14.8054,-100.6611,112.0875,28.1122,39.7033,-133.9652,-26.5743,-144.9439,152.7522,-3.1045,42.2375,-43.3042
-1640.6250,172.0725,-8.2469,150.5920,-28.2614,111.4030,-65.8044,38.0130,-74.9053,-67.9080,-108.8917,103.4379,-17.4798,83.9185,-143.3990,1.0058,-152.9911,107.1892,57.4631,31.4671,-88.6134
-1632.8125,33.4449,-5.5789,40.0323,-25.3709,148.4793,-40.6961,38.0845,-37.2365,-67.7137,-108.2164,103.7037,92.8209,95.5680,-68.9507,38.4889,-152.1307,-31.4716,23.9395,-1.3961,-51.0108
-1625.0000,-64.0850,2.1778,-23.4175,-52.3784,157.6593,-45.9301,10.2539,-64.4657,-21.4114,-98.4389,76.0817,102.1879,79.8200,-22.4197,48.0717,-68.1626,81.9849,-3.4716,5.8483,-78.3076
-1617.1875,79.7583,40.2763,54.4996,-49.0350,198.2005,-88.0387,14.7748,-133.3473,-17.7552,-130.3025,117.8251,32.8753,94.4175,-54.5680,15.9960,-136.8494,119.8006,-0.5245,-26.5611,-110.2548
-1609.3750,197.9168,18.6625,104.7294,-35.3948,138.0530,-68.9205,27.5862,-119.9240,-77.8029,-153.8535,130.8801,9.8373,75.5915,-78.4375,-43.7883,-197.2259,202.9256,48.7271,-13.6666,-96.9025
-1601.5625,201.9844,22.9376,147.8653,-31.8569,180.8146,-75.1737,34.3014,-112.5984,-34.9564,-183.5026,99.8519,-57.3204,68.6854,-108.4267,-74.6720,-189.6953,276.9463,51.8843,25.1298,-163.6498
-1593.7500,135.9610,-7.8912,152.8954,-26.4179,185.4774,-77.1274,75.9201,-107.3711,6.7879,-141.2580,104.7441,-16.5977,72.6594,-103.5356,-69.6517,-147.2659,176.8667,21.9510,29.8319,-158.4896
-1585.9375,37.7360,-70.9314,86.7321,-89.1781,154.9502,-69.5784,82.3398,-64.3454,13.3309,-61.2115,75.4495,-10.0933,63.8187,-23.8633,-25.8266,-103.0372,147.5984,-42.1728,106.3403,-151.5329
-1578.1250,93.9746,-14.5288,71.0296,-67.4946,102.8836,-89.5239,66.2150,-78.8750,34.3312,-75.7242,169.6147,84.8552,80.0477,-2.7591,-4.5503,-155.3554,28.7770,-125.8476,22.2985,-130.1258
-1570.3125,196.6614,53.3120,101.7714,-69.3685,22.2731,-101.1090,-50.4550,-121.9610,-8.2085,-81.7897,237.2428,78.2318,61.7877,-45.2197,-46.8199,-87.2180,96.4131,-93.0593,-51.2830,-62.2656
-1562.5000,267.0979,52.8813,213.2596,0.5014,23.4323,-75.0899,-86.3602,-120.2900,-43.9937,-117.1061,201.6392,-67.6840,51.5275,-80.9507,-82.3376,-48.3312,165.7937,-23.5030,-17.1023,-97.6584
-1554.6875,294.7884,81.6834,205.9909,28.6155,52.8542,-62.7214,-21.0077,-90.3657,-88.5277,-87.1731,157.3047,-75.3753,44.5571,-51.4473,-89.6065,-129.1947,88.4232,-30.6855,-24.6662,-104.8001
-1546.8750,114.9308,41.9237,55.1748,25.1784,48.7406,-7.7621,-25.2031,-56.9865,-129.6124,-53.7814,80.4214,30.3680,7.5527,54.4887,-93.4251,-95.6034,84.5181,0.5835,77.2200,-108.4967
-1539.0625,48.6337,46.7102,23.9162,-5.7090,91.1811,-35.5012,17.1509,-15.0596,-51.1465,-84.8383,86.0945,35.6553,52.1756,-50.0414,-14.6884,-126.4566,18.1646,5.4050,80.6538,-139.6439
-1531.2500,112.2450,4.3908,50.5550,-46.6992,80.5238,-60.6578,6.4103,-24.2373,-23.7783,-95.0001,112.6832,-48.1653,72.9904,-134.6895,11.9511,-99.4072,10.7218,33.1306,37.9947,-75.8900
-1523.4375,165.8102,-81.9852,145.1527,-62.7433,100.8226,-47.8288,-10.3787,-4.4702,-77.4501,-1.2095,96.2448,-175.0552,59.9095,-77.4017,-40.4685,-78.4135,100.2320,52.8097,-13.7077,-92.1897
-1515.6250,227.8849,-20.8773,172.2526,33.7067,54.6215,-29.1895,-55.6643,-13.1991,-123.6257,-45.9191,160.3306,-220.4735,69.4324,-49.6298,-49.3915,-123.9243,91.2432,44.0017,-127.9011,-100.9839
-1507.8125,181.5654,38.8110,125.9592,59.7504,44.0288,-17.2210,-66.3459,-23.3240,-97.2046,-93.0326,187.0214,-85.3190,56.2455,-60.2732,-96.7139,-170.8319,150.8669,33.8097,-33.4782,-111.1803
-1500.0000,145.2113,73.4396,89.6251,128.7400,81.4055,-17.5646,-30.0662,-22.5039,13.1743,-56.2051,77.6700,-48.2264,20.3441,-96.9901,-96.0866,-169.7991,79.4407,-2.4247,0.9028,-147.4338
-1492.1875,61.2610,129.4650,-38.3084,115.1244,26.1967,-10.6208,-11.3799,-3.2898,68.9562,-35.9837,22.7334,7.2696,-4.9508,-78.3232,-40.0642,-113.3731,-40.5786,-17.2563,20.6913,-91.2918
-1484.3750,46.8653,80.0307,-52.6862,66.0470,-25.4425,5.2407,-26.1355,19.4731,54.2887,22.7864,8.3586,-44.7065,-25.9512,-56.1206,-54.4918,-53.3993,50.9527,74.4771,42.0349,-105.6069
-1476.5625,185.6752,78.7802,93.1347,65.1620,-26.8649,-16.1792,9.3257,-18.5684,-21.1773,-15.2401,81.1964,-83.4992,3.6097,-94.7389,-92.7186,-165.2310,84.6784,108.4223,4.5847,-106.7248
-1468.7500,232.9835,90.0104,141.4512,76.7661,-15.7702,10.2233,-16.7031,-7.1099,-83.1331,-76.7670,18.5357,-35.8068,-33.6579,-83.8730,-155.4400,-190.5640,165.9139,119.8759,15.6488,-95.3488
-1460.9375,160.5438,123.4820,141.0203,110.6122,95.5875,10.0664,20.5238,-43.4023,-82.8369,-187.0488,-17.8624,37.1208,-21.1230,-46.7691,-154.9104,-189.6452,129.4014,48.5802,49.9696,-131.7256
-1453.1250,32.9601,136.7879,42.4309,89.3002,143.8008,-6.8668,105.6071,-67.8495,1.3195,-175.4777,-42.3981,121.8847,-4.3383,-72.8267,-106.5337,-213.8790,-33.2550,62.1426,98.1512,-83.2516
-1445.3125,-114.4740,23.2256,-74.9999,11.1237,136.1715,19.7544,97.8485,-2.1460,-6.3664,-71.7564,-49.7775,76.7871,0.2983,-43.7438,-77.0082,-110.9638,-5.7503,159.8605,160.4987,-90.6369
-1437.5000,-75.3435,-7.8007,-68.8723,15.4830,178.1077,27.2600,103.6486,41.1041,-37.5016,-29.4964,-7.5967,-64.7670,15.6961,-2.1270,-107.9335,-104.5075,-1.6917,164.1341,59.4015,-121.4773
-1429.6875,41.6366,-31.9983,15.1021,-8.3224,151.9092,5.0591,40.3075,15.2044,-99.7824,18.6137,40.4441,-54.4847,12.4729,8.3313,-134.0098,-93.2028,45.2281,105.2667,35.1707,-110.4733
-1421.8750,111.7185,-32.1113,126.1757,-78.0404,151.8286,-32.4828,40.0815,-21.5967,-26.9599,-18.1739,-33.4069,-55.1130,-18.3003,44.8803,-133.9847,-92.8014,115.2429,-0.5005,35.0474,-110.3765
-1414.0625,104.8031,-75.2349,115.2414,-85.7629,104.7548,-31.3622,65.8640,-31.4025,35.8706,-64.9666,-80.2491,44.2575,-27.8760,34.4249,-70.9615,-29.4108,72.2613,-42.2631,-8.0706,-47.2785
-1406.2500,-12.3124,-51.5646,65.1124,-61.6931,54.4933,-8.5577,-20.5513,-44.4121,-13.4896,-40.9632,-93.2853,67.4210,-24.9985,20.7592,-10.1426,67.7704,132.0950,16.7834,15.6211,-23.3897
-1398.4375,48.8331,10.3388,56.2424,-34.3884,45.4982,-13.7371,7.3015,-16.1751,-22.5938,-49.7212,-65.0538,-16.1754,-14.1860,-25.6776,-19.0775,-13.8116,87.1797,43.0889,-28.4233,-32.2600
-1390.6250,96.6325,22.8759,31.0281,-22.4486,-53.8340,-5.3111,-19.1807,-42.2952,61.9545,-38.8365,-54.1623,-79.1382,-46.1925,-15.4768,-45.3621,-39.7490,99.9303,91.0536,19.1968,15.5110
-1382.8125,81.8902,-28.1485,53.2701,-72.0655,-68.6945,16.0018,-34.2008,17.0287,46.9567,20.4845,-68.8099,-58.6616,-64.2953,80.1633,-60.1951,-17.2446,50.1367,76.4710,74.2674,0.7206
-1375.0000,100.0561,-10.2806,71.4144,-18.7929,-50.6451,50.3543,-53.3165,35.2460,-83.1489,1.6988,-87.5435,69.7241,-74.6086,133.6889,-79.1270,-35.8490,-37.7582,59.7946,22.2427,18.8298
-1367.1875,26.5752,-14.0790,67.9097,13.8139,19.7668,70.3760,-57.0788,31.8095,-122.9015,-1.7292,-162.9223,65.4605,-91.1622,93.5572,-118.7090,-2.1097,64.7015,91.4767,53.5754,15.2837
-1359.3750,10.8996,-29.0914,90.2081,-36.7893,115.9897,20.5084,2.9688,54.1712,-63.8411,57.6407,-141.4943,-97.0150,-44.7975,5.2209,-96.4926,-15.5784,48.9572,75.9582,72.7177,-35.4657
-1351.5625,-11.5764,-16.9156,29.7000,-95.2082,128.4215,-15.9943,88.2284,30.7254,-14.5734,34.2103,-128.8577,-48.2919,-35.5310,-19.9178,-84.0797,-39.8459,61.4181,18.6372,85.0752,-23.0166
-1343.7500,-53.8527,-24.5515,-14.6065,-102.4429,121.0667,-27.7402,117.7005,-13.5238,14.9060,-10.0278,-136.0203,-19.3656,-17.8619,-27.8618,-17.4661,-9.9157,54.0770,46.5175,77.6446,-30.3763
-1335.9375,-94.2805,5.6465,-95.0704,-71.8480,77.5623,-16.1292,111.0377,17.0722,45.2535,20.5751,-177.3180,84.4134,-28.5878,-34.9622,50.0009,-16.1434,-91.4169,42.2481,38.0785,0.1117
-1328.1250,-182.7108,21.8240,-150.5349,-20.2672,21.0653,12.8995,90.3854,-3.3337,97.6066,74.1795,-234.6060,100.1832,-61.7771,17.9346,66.4665,0.6240,-74.8963,58.9814,89.5258,16.5924
-1320.3125,-177.7786,-9.6575,-109.6421,-15.3505,26.9298,12.4309,133.0940,2.6008,140.3118,43.1239,-191.5345,68.3061,-53.5588,60.1751,35.2847,6.7364,-35.0257,-6.9399,58.3294,-14.5801
-1312.5000,-133.7962,33.9014,-65.7044,28.6050,-3.1488,12.4316,102.8588,-27.4210,74.0723,13.1153,-75.4125,74.4779,-27.6498,66.4591,5.1510,-23.1070,-62.0948,-33.7980,-2.8001,29.2935
-1304.6875,-135.3728,31.8954,-67.3193,-8.9988,-4.7564,-9.3831,28.0943,-65.9927,35.2909,48.5562,-2.8412,72.0789,-9.2451,64.1934,3.4642,12.4809,7.2907,-35.1913,30.5390,27.6003
-1296.8750,-131.7998,-0.9668,-63.7862,-40.4649,-1.1965,-13.3689,104.5011,-25.4176,75.6684,15.1356,-36.1087,111.8335,-14.3159,30.0713,6.9249,16.2007,-60.1792,-66.4377,69.0367,31.0489
-1289.0625,-186.5330,-20.1407,-193.5571,-93.2524,-58.9212,9.7726,84.6117,27.8485,91.7528,68.4091,-128.6753,200.3017,-65.7134,45.6451,23.0851,32.6198,-43.9379,-14.9778,120.2484,47.1913
-1281.2500,-202.0075,-0.0795,-170.0698,-39.8076,-72.3801,75.9439,33.9845,124.3599,-32.9053,127.9274,-142.9868,112.0265,-88.6119,178.4617,-27.5086,19.2807,-59.4464,5.7309,104.7207,-3.4259
-1273.4375,-138.7272,61.7209,-179.8328,23.3771,-82.0816,103.8707,-12.8769,151.6127,-42.8060,45.1900,-115.5400,28.5079,-87.7976,205.0252,-37.3525,46.6756,-136.1972,-1.8079,61.9462,23.7010
-1265.6250,-170.9957,-6.0389,-176.1415,-44.0019,-78.3209,73.1290,27.7205,118.3113,71.7475,11.8862,-111.6425,31.4393,-69.3133,171.0403,3.2541,50.5127,-132.4903,2.1095,135.6292,27.2689
-1257.8125,-204.7584,-75.3074,-211.9489,-147.8894,-40.0512,22.8054,101.8277,119.5069,108.8064,87.0786,-74.2434,105.8798,-48.5853,98.5507,4.3546,51.8432,-237.2892,3.5271,172.8208,28.3329
-1250.0000,-221.5266,-91.5886,-266.7592,-164.7972,-21.7691,25.8175,119.9445,137.6992,53.8743,178.2669,-91.8436,123.3253,-58.0353,79.0601,-14.5436,70.1666,-184.0794,21.9442,155.0282,46.3926
-1242.1875,-232.4929,-104.0853,-200.7645,-105.9247,44.3297,19.7006,149.8754,93.6889,45.7441,97.2517,-99.6349,4.5650,-6.6351,70.3695,51.3640,26.2836,-90.0681,11.1575,180.0404,-34.7551
-1234.3750,-167.7559,-74.8955,-170.0747,-76.3592,39.1349,-4.4065,217.5140,88.3773,151.3136,91.9343,-141.7205,-75.4913,-22.2064,28.3765,45.9709,-15.9124,-130.3503,-63.9242,174.7592,-40.2048
-1226.5625,-192.7701,-101.4585,-197.1326,-102.5550,12.2038,-2.1789,190.4104,97.3108,233.1406,137.8610,-204.5585,-140.2898,-52.9184,36.6351,54.8195,30.1290,-121.3730,-54.7514,253.7413,-31.4180
-1218.7500,-187.6822,-131.9245,-192.0884,-166.6587,17.3821,-24.4593,231.4219,102.3427,202.0747,179.8774,-163.2919,-99.9808,-37.7364,40.9876,59.7634,71.2612,-221.2976,-49.4820,223.8327,-26.5410
-1210.9375,-194.8029,-173.6071,-237.2498,-208.9810,-27.6301,-4.5353,150.2524,131.1697,82.8240,171.6880,-98.2286,76.1246,-38.3153,69.1420,52.5146,137.1846,-227.4165,-20.4083,147.7375,2.1307
-1203.1250,-207.2313,-117.6013,-175.7115,-152.6203,-38.9276,18.7264,64.8033,156.6895,71.2975,123.1978,-72.4635,62.9279,-35.2798,92.9886,39.9742,125.8007,-100.8433,-33.6366,63.3529,-46.5053
-1195.3125,-138.2587,-83.1982,-67.7844,-82.8790,-40.8178,17.8929,26.7636,117.6072,106.1804,84.1080,-111.2964,-12.8467,-31.0057,90.2361,74.8278,50.8104,-65.8767,-69.4691,-6.6235,-11.7402
-1187.5000,-151.9933,-98.4980,-84.5610,-27.8466,-20.4088,26.7387,10.0254,64.8261,126.3571,104.3103,-162.8318,-103.3115,-45.8892,73.7878,58.9866,34.1173,60.4012,-48.9957,13.7076,8.3219
-1179.6875,-104.7780,-85.8508,-32.3917,21.1343,31.9531,0.4775,25.2462,42.9927,104.4814,119.4549,-112.4164,-161.8282,6.4505,14.2939,110.0966,49.3712,-31.3677,-70.5702,-43.0042,-13.6690
-1171.8750,-61.3106,-42.9646,-98.9738,-76.6488,1.5740,-42.6749,31.7284,12.4057,110.8715,89.8482,-31.7556,-10.0943,12.7852,20.0490,116.4526,55.8708,-93.8774,-96.8941,-105.4527,29.5861
-1164.0625,-103.7459,-50.9862,-106.4506,-118.3501,-5.6891,-50.5881,24.3253,4.9147,67.3767,155.3359,-38.9968,92.7512,1.9564,11.9028,108.9079,85.4580,-171.2934,-34.1218,-77.7924,21.9368
-1156.2500,-135.6336,21.5389,-178.3875,-46.5150,-41.3945,-12.2802,-11.5133,42.9665,31.4429,120.3680,36.3174,166.1617,28.2257,49.3054,146.9164,49.5792,-309.1656,4.2007,-179.5734,59.8411
-1148.4375,-241.1322,55.4488,-253.9276,57.6980,-115.6891,40.2874,-49.9422,3.4182,65.9158,80.8020,-2.9717,163.9748,2.8515,120.1062,181.3315,158.1034,-274.6303,38.9299,-214.9356,94.1408
-1140.6250,-181.8239,80.1510,-191.6598,46.6962,-126.1739,21.2756,-96.5508,-7.3345,18.1947,70.0295,60.5383,115.5858,4.9582,108.7043,134.5407,220.4297,-214.2957,-41.5463,-190.4873,83.2355
-1132.8125,-12.2597,73.0955,-88.1393,5.9292,-170.4000,-8.3201,-103.9012,-49.8458,-98.2597,62.4998,164.3004,144.4475,9.9686,100.5491,53.0011,102.9963,-114.7013,-116.7818,-125.7720,112.5825
-1125.0000,27.3557,-27.9182,-9.5667,-94.7995,-89.5643,-31.3044,-61.1868,-44.3157,-19.6442,32.0127,134.1097,150.3630,5.5338,69.4401,-14.4799,-37.4012,-40.0520,-75.9772,-15.9942,81.9777
-1117.1875,-18.7785,-73.6864,-20.7471,-141.2943,-64.4722,-26.7320,0.7953,17.4628,80.2286,-16.2248,86.1648,138.5388,6.4905,57.5762,11.2887,-12.5557,-156.1634,-52.9183,8.0379,70.6281
-1109.3750,-73.4305,-93.9546,-76.4336,-161.3003,-83.8771,-14.3970,18.2761,-2.2515,60.5978,1.0460,29.7083,118.2249,-25.4039,74.2236,-8.4460,78.7953,-0.7701,-2.3437,24.5708,50.7808
-1101.5625,-48.8837,-142.0206,26.0795,-138.1121,18.9192,-24.9519,46.9578,-9.7563,16.1695,-6.4807,58.4458,72.1151,20.0962,65.0685,-15.9782,-2.6574,58.8181,-12.5592,13.3027,-30.8695
-1093.7500,52.4158,-76.3336,57.3389,-72.1715,50.4708,-42.4977,5.3986,-52.5162,10.5022,-49.2657,89.9314,66.7480,37.1823,-14.3423,-21.7609,-82.3747,20.1701,-16.0218,-25.2050,0.2281
-1085.9375,60.2155,1.8543,65.1036,-64.7345,94.5324,-50.8665,-23.6467,-81.7755,18.3432,-114.5649,61.9123,36.8670,40.0644,-44.2500,-14.0427,-74.6008,98.0329,-7.9841,-17.2051,7.8216
-1078.1250,107.8121,48.8480,77.6584,-17.5075,107.4004,-68.4259,-10.8776,-141.2333,-6.0071,-175.0736,110.6847,121.7990,72.8787,-32.3543,35.4807,-98.0349,5.6851,-66.1487,-75.4042,20.2197
-1070.3125,55.5492,65.9879,-17.6454,34.8536,87.4220,-61.7124,-31.9548,-199.5416,-27.2088,-122.4247,90.6071,137.8907,60.7069,-53.3119,51.1606,-45.3176,58.4923,-48.1536,-91.4404,72.7700
-1062.5000,-38.6635,42.1693,-3.8898,82.2515,64.5032,-44.3394,-54.9682,-185.7898,-13.3515,-36.7232,30.5781,3.0170,60.8636,-77.2243,101.8957,4.4500,105.3419,-1.1074,-80.4154,49.3679
-1054.6875,30.6696,74.8964,31.4090,80.1865,63.1392,-58.0646,17.5813,-187.4820,22.0755,-74.4694,29.0849,0.6961,53.3290,-115.5882,63.1739,-70.2400,103.7334,-2.5032,-81.8298,47.5211
-1046.8750,42.1868,50.8337,44.8964,21.3193,39.9829,-23.3364,-5.6570,-136.9683,35.7139,-134.0214,5.7729,-23.4194,28.4553,6.2567,39.6447,-57.7339,150.3271,45.3009,-70.0310,23.8754
-1039.0625,56.0450,29.1273,58.7220,-36.2076,17.1872,-29.6927,-28.5304,-87.1028,12.7130,-120.2217,19.8068,100.8149,5.1728,56.4481,16.4733,30.1219,-46.7389,-46.5453,-90.8733,37.5846
-1031.2500,24.1962,31.7112,-50.1582,-102.4490,-54.3038,-20.6569,-63.0947,-48.9288,13.0249,-46.1100,20.1385,174.3429,-22.8267,55.9338,16.6041,67.2839,-112.5013,-7.0862,-16.4053,111.5975
-1023.4375,-39.6038,-66.6578,-78.9841,-131.6484,-10.7343,-17.2349,-19.6015,-41.6972,58.3903,-2.9456,-8.4763,107.9123,-12.9537,63.4661,24.7857,38.4970,-36.2158,34.4233,25.1142,82.6631
-1015.6250,16.9041,-81.7238,-57.5042,-110.5500,-24.8685,-6.5012,2.1926,-20.1639,6.0609,-53.4878,13.2058,91.7816,3.5891,84.2963,46.2660,23.0055,-48.6270,-13.7613,-57.0634,104.0374
-1007.8125,-5.1393,-33.3376,-44.5737,-63.0084,-121.5461,28.3605,-93.5556,-7.1751,-52.8104,-4.5834,-9.6741,178.0989,-52.0785,96.5806,-13.8021,35.9628,33.4207,-0.4949,-43.7822,116.8622
-1000.0000,-0.5841,4.6625,33.9571,11.1343,-77.6175,13.0333,-86.6927,-37.5806,-47.0700,0.9217,-3.9626,110.0092,-30.8360,65.4528,-8.2687,5.5192,38.0660,-64.6347,-73.8962,86.2916
-992.1875,45.3662,-19.9343,7.8804,21.6714,-30.2910,-0.3515,-75.4192,-99.5798,-35.9179,-60.1643,7.1400,83.3075,-15.3756,75.7206,2.6703,16.4790,49.1124,-89.3730,-62.5982,97.1302
-984.3750,28.8633,-2.9790,29.3563,3.7552,-9.4106,-22.8777,-91.5871,-115.0197,-52.2098,-40.6930,-8.2143,140.1452,1.2528,59.5318,61.1631,37.9909,102.7044,-105.5539,-80.7476,44.5228
-976.5625,46.9078,85.5370,47.3811,21.3869,-27.9803,-27.7691,-37.1999,-96.8994,-69.9491,-58.6635,9.9746,157.5294,16.0653,39.8864,79.2065,-53.9479,14.8460,-87.1767,-167.3479,62.4745
-968.7500,72.6472,75.7580,73.1025,82.7148,-73.8409,-6.6167,-120.1064,-108.0704,-79.9762,-32.9354,35.8506,35.5953,1.0186,27.9433,30.9522,-28.1815,146.6956,-97.0976,-141.2368,88.1296
-960.9375,132.9881,65.5801,175.4235,177.6385,-82.0978,27.4753,-127.3964,-79.6331,-52.3885,-113.6128,28.3200,-82.7553,-4.0781,19.6009,-13.6890,-72.8141,172.1302,-105.4206,-80.5193,43.3916
-953.1250,124.5698,161.6582,129.9826,239.8056,-90.1047,44.6152,-99.4313,-87.9327,-23.5358,-159.0335,-53.9709,18.1461,-52.1605,-26.4950,-59.0747,-117.1912,93.8076,-44.4949,-18.5448,34.9193
-945.3125,7.1466,78.7507,46.5422,191.9708,-137.1115,62.1062,-36.4650,-25.2181,3.3207,-60.4426,-137.2678,80.0448,-82.2401,-37.5981,-32.4620,-55.5618,81.4818,14.4340,75.4256,-12.5403
-937.5000,3.2223,74.3582,42.5944,116.6423,-104.6261,18.6653,-3.0014,-28.9885,36.6773,-27.3438,-68.0672,112.4356,-54.9163,-79.2091,-36.3468,-59.4252,42.6491,10.8700,36.8918,-16.4829
-929.6875,26.8877,62.5759,66.2417,69.9225,-116.5389,18.7467,-15.9384,-42.1489,23.6362,-40.6421,-7.2785,62.4040,-39.9342,-19.2185,-49.6230,-72.6827,101.4261,34.9117,25.9632,7.1868
-921.8750,54.8996,55.1535,97.2411,62.5538,-85.0968,23.5174,-57.5115,-9.9451,-55.0376,28.4126,-12.1525,19.7060,-41.7638,48.1148,-54.5448,-40.5881,59.5433,28.2975,-50.6078,-34.7852
-914.0625,31.8059,66.6320,34.1324,39.0775,-110.7528,51.1341,-47.1736,37.1672,-81.7852,-35.6241,-39.1303,101.8996,-55.8448,58.3453,-44.5647,-30.5894,-104.4479,110.5866,-74.2699,12.1570
-906.2500,-94.6470,45.7734,-62.3263,53.2591,-59.7569,110.8420,-69.1787,51.9468,-102.8759,-94.0053,-97.4694,152.7180,-75.7556,145.2150,-66.9284,21.0681,-89.7937,196.5407,-24.2807,26.7605
-898.4375,-149.1027,-10.0691,-82.7865,67.4445,-5.7609,109.3378,-15.1784,68.7392,-49.9612,-41.3857,-81.8136,94.5202,-49.0403,161.0718,-50.2833,0.7336,-180.1453,176.5013,-8.2879,6.3821
-890.6250,-227.8127,-54.1505,-162.4958,-10.6210,-13.0166,91.6276,-22.4249,97.2934,-57.2848,24.9991,-15.4185,86.0495,-20.9121,152.6637,-20.8848,30.1520,-151.7325,169.2207,19.4638,-1.2329
-882.8125,-200.5598,-98.2712,-97.2436,-125.7305,17.6787,41.4114,8.2848,90.8171,-63.6479,54.3446,-59.0813,78.4958,-17.5641,145.1931,9.4663,23.5271,-126.3679,125.8870,46.1584,-44.8888
-875.0000,-130.6469,-132.7297,-98.3374,-159.1861,54.0173,2.5518,80.6429,54.0078,9.6424,54.3479,-97.1015,187.5701,-27.6157,106.3637,8.4668,-51.4323,-159.3582,56.2125,12.5002,-8.8765
-867.1875,-184.2407,-186.6845,-117.9288,-179.1425,70.8552,17.0402,24.4976,33.7258,-10.5618,33.8619,-116.6308,203.1154,-28.6732,122.0232,24.9729,76.1187,-73.8442,73.0530,64.3482,7.6489
-859.3750,-184.5824,-153.3763,-118.2705,-145.8440,70.9510,12.9660,61.6194,34.7119,-9.5089,34.6305,-79.9180,165.8779,-3.4060,158.9106,61.7400,75.9205,-145.0896,37.1528,28.4461,-28.5604
-851.5625,-148.2856,-116.4034,-115.9726,-108.8850,73.6976,0.4777,64.3970,0.3675,-6.7982,0.0631,-3.5737,93.2572,18.3783,123.4420,28.1653,5.3902,-72.6824,4.9131,66.1983,-26.1029
-843.7500,-98.2403,-101.6515,-23.9286,-59.1586,55.1936,-4.4832,45.9252,-18.1997,10.6693,-18.7449,13.5050,-36.6451,20.9397,103.7191,8.3400,22.6156,12.4687,-15.5705,81.6997,-81.8791
-835.9375,-1.0996,-74.7739,39.2036,-32.3143,9.7732,-8.6037,36.5496,9.3604,38.2511,-28.4393,40.6718,-10.4732,15.2065,93.0795,-0.3821,-23.0491,-30.2862,-93.9439,3.3076,-54.5307
-828.1250,11.9734,-61.9297,52.2803,-19.5108,-50.7042,4.5543,-22.8743,-14.1033,88.7988,-52.1716,17.7749,74.6157,-35.5307,105.3744,-61.1451,-9.7397,123.9044,-115.3552,16.8697,-41.2131
-820.3125,83.6910,-26.4248,166.0022,-19.0540,-47.5303,-25.0717,16.3578,-47.8895,129.0016,-123.2407,-16.4735,150.3286,-38.0155,33.3038,-58.2519,-80.7667,159.7266,-114.1069,-16.9175,-75.2211
-812.5000,118.4452,43.1409,163.7646,50.4637,-49.3103,-13.6211,-21.3592,-86.6022,17.2584,-161.2431,18.3218,184.0629,-25.2917,30.2698,-60.3074,-119.7268,159.6018,-113.7921,-51.6512,-40.1513
-804.6875,74.9910,34.5264,193.3308,77.7903,17.7149,7.4914,-64.2704,-55.4970,-62.6678,-131.4269,47.9006,28.5647,6.9106,60.0194,-66.5521,-88.8755,186.2734,-85.6706,-24.5805,-83.2633
-796.8750,84.0941,8.4900,167.4473,15.6844,66.2835,-16.2148,-16.6296,-7.8186,-51.0343,-83.0452,96.0213,1.5829,22.6706,33.3022,-92.2434,-40.4619,55.4844,-75.9951,-49.9665,-108.8021
-789.0625,50.4965,-95.2257,95.8675,-88.1075,68.1487,-32.2169,22.3047,-5.8170,-49.0957,-8.3558,60.4411,112.8575,19.0344,33.8708,-53.6276,-38.7244,56.9955,-39.0082,21.9439,-107.0177
-781.2500,77.0582,-103.7750,125.4477,-61.7396,99.1666,-46.7404,90.3923,-48.6426,-19.0034,-51.5018,17.0162,68.2320,28.4772,26.5615,-23.8524,-81.8178,48.6442,-46.8646,50.0030,-150.0573
-773.4375,97.1273,-48.8057,72.5282,-6.8594,119.6771,-44.0970,146.9810,-63.9467,1.6021,-104.1309,0.0828,-23.9392,37.9589,8.7217,-3.5697,-98.3937,33.7969,-61.2084,35.5694,-129.5722
-765.6250,29.6932,-10.3128,77.1140,-3.4582,123.6773,-37.6894,115.0753,-59.7159,43.7256,-136.2454,-32.3654,-57.6565,28.7333,12.3633,1.2140,-57.4659,106.4540,-58.0350,73.6363,-161.5723
-757.8125,86.6155,11.5596,100.0529,18.3202,111.0187,-50.0999,139.5188,-35.1055,31.1995,-148.9970,28.5233,1.9343,39.8874,-1.6624,-11.6495,-70.1819,23.4600,-140.4996,-8.9523,-174.2013
-750.0000,118.6862,43.6037,94.1439,14.2643,68.5080,-53.1047,23.1103,-40.3120,-48.1733,-81.5823,132.5484,104.6191,55.1538,-9.5612,-18.3570,-112.7265,55.6209,-143.7955,-82.3902,-106.6597
-742.1875,119.0106,43.9218,131.4893,14.4768,32.2466,-33.5028,-49.0488,-3.2329,-121.2835,-7.8989,168.8194,-7.4976,52.3292,-10.2319,-53.8027,-75.0013,91.0163,-71.8353,-81.5867,-105.8450
-734.3750,155.3880,9.3131,93.8756,50.7533,-40.9710,2.1797,-86.1601,33.9271,-194.3402,28.8519,169.1387,-82.6073,35.3233,-11.8769,-54.1882,34.7962,92.4564,-34.8122,-115.7359,-68.9505
-726.5625,152.2191,6.1790,90.7159,83.4955,-43.7403,57.0620,-125.8231,68.5695,-232.9464,26.0793,91.8998,-198.3221,-2.5679,57.9004,-94.1202,69.0640,194.3489,32.6711,-82.4299,-71.5824
-718.7500,189.3105,43.3186,166.8087,120.5102,-41.2669,40.5674,-86.2356,34.4936,-158.2881,-7.4218,93.9013,-197.8448,-4.8793,-15.1023,-128.7924,-1.3955,161.4816,70.4175,-115.8813,-68.9341
-710.9375,183.5446,72.6371,159.0474,114.7024,-48.6536,18.4004,-93.5009,-8.3953,-128.4684,-51.7617,123.0367,-206.2720,17.7606,-96.9770,-99.3037,-8.6808,190.7627,100.3282,-86.1894,-39.1042
-703.1250,122.4228,-23.3606,169.9371,88.5667,-0.3923,23.4455,-82.1183,39.3928,-79.9945,-3.4428,59.8226,-198.0888,21.6310,-87.2235,-51.1573,75.6978,129.6749,74.9009,-75.8534,-64.5914
-695.3125,129.0545,19.4165,136.5712,25.1976,-33.3892,1.0732,-77.9867,44.9600,-38.7570,0.6485,64.3566,-122.2068,4.3952,-84.7449,-47.2476,116.8500,31.3235,13.2340,-103.7680,13.7100
-687.5000,41.3842,71.9095,78.9025,42.5404,-53.6888,33.3254,-97.1583,61.2631,-58.8042,53.4685,5.5832,-143.6908,-30.7498,-33.5937,-67.6226,133.7359,48.6641,30.2832,-84.9820,66.7445
-679.6875,46.8201,77.5304,10.3311,83.0037,-47.9026,49.1097,-91.2369,67.7064,-162.7515,133.4213,10.9027,-140.1304,-28.6164,7.6217,-61.8900,102.7520,-51.9029,36.4493,-79.1063,72.9166
-671.8750,1.7014,-2.3665,-71.7921,2.9529,-56.6800,15.6836,-63.8799,59.6374,-97.2482,160.8423,1.6623,-115.1840,-2.6823,-39.7331,39.2932,131.2415,-61.0017,28.0902,16.2131,64.5694
-664.0625,-78.5059,-117.3299,-78.9967,-77.1606,10.4454,-7.6691,3.3713,90.5036,116.1604,155.1598,-41.6793,-197.4133,10.3243,-47.2157,69.3859,124.6365,-71.1963,19.6459,148.4230,-14.8496
-656.2500,-33.3541,-72.9160,-69.8475,-67.9000,-17.0877,-20.3959,85.9674,100.7526,236.9252,90.8599,-69.6711,-154.3532,-25.8038,-113.3836,5.8351,61.4153,-132.0543,-5.4359,157.9782,-4.8815
-648.4375,-22.1169,-25.3832,-58.6111,-91.5274,-79.5343,-14.8673,61.6606,113.1491,174.7985,102.7108,-58.5833,-145.2562,-44.2499,-103.4809,-19.6028,73.3385,20.1766,-29.3916,169.6379,7.2150
-640.6250,62.8579,-10.0684,32.3684,-40.3757,-62.2353,-37.9240,78.1059,58.3412,118.4318,83.3254,-41.7564,-203.4758,-7.7808,-124.8606,34.7237,54.0306,0.1444,-48.5730,79.0423,-11.9082
-632.8125,43.6849,6.1170,9.1980,45.6512,-84.0918,-21.9546,56.3945,36.4245,96.9280,134.8187,-65.0792,-154.9219,-14.2917,-184.4318,48.9021,31.5948,-20.0259,3.1191,-10.7021,39.8523
-625.0000,-5.4791,97.3261,-41.9535,101.6993,-24.9468,-2.5153,5.6793,23.5487,46.4399,158.3438,-115.4062,-135.4536,-30.3434,-164.0572,35.0895,55.1809,1.8111,25.8305,11.5571,26.6420
-617.1875,-3.2343,170.9665,-40.7025,105.1764,13.5909,13.7312,7.3632,26.1174,11.3550,50.2965,-113.3379,-62.6534,-35.4753,-127.3260,-0.3224,57.1923,-65.9563,28.9612,-20.7917,65.8683
-609.3750,-20.3971,84.2401,-58.8542,53.2810,-5.2804,25.6876,-11.3672,45.3368,29.8717,31.8829,-95.6796,-10.3391,-29.5862,-111.0213,17.8726,112.8469,-13.1299,47.7169,-2.5431,84.7259
-601.5625,19.7892,88.8925,20.3403,57.7660,1.1916,-13.3433,-41.7520,15.9560,36.7423,38.8478,-17.6783,-43.7554,5.4300,-179.3950,24.4345,82.8778,-43.9755,17.8466,2.0441,54.9674
-593.7500,49.0236,118.6187,-24.4247,52.3306,-42.2988,-4.3249,-12.0933,9.6772,29.6726,-5.1142,48.3643,-54.1973,17.5393,-151.7457,17.0576,38.9871,-49.7833,48.0528,31.6759,85.3028
-585.9375,11.1576,46.2705,-25.2858,14.8228,-43.9004,31.9711,-49.5436,47.3441,-7.4861,31.8523,10.3000,-203.8219,-3.2351,-82.2303,-20.4107,76.0418,18.2983,152.1797,135.2033,48.5796
-578.1250,-5.1553,30.5049,-2.5975,-1.1039,16.0322,8.2893,47.5497,71.6025,52.9150,91.3929,-78.2101,-257.9577,-6.0719,-98.2078,2.6788,-11.3168,-69.0886,136.8730,119.2719,-1.5492
-570.3125,10.7352,116.9718,-25.7095,50.2007,30.1455,-9.7211,24.8292,13.1028,30.5145,-3.8383,-27.5274,-63.9555,11.1204,-159.0168,16.9802,3.5538,-53.2756,48.7903,30.5389,50.5589
-562.5000,-16.2117,126.6159,-16.6692,59.6889,39.3994,-20.0651,-39.7455,-13.2024,3.2723,6.1071,18.3047,52.1127,25.5458,-187.6981,26.4417,50.5945,-44.3218,22.8764,3.9483,60.8484
-554.6875,-92.0014,14.4428,-97.4752,-17.6411,30.7954,-17.0446,-11.1729,16.6770,32.1896,109.2269,-27.7160,77.2518,9.6537,-125.2581,55.0570,79.8071,-121.2146,17.1366,32.5055,90.3211
-546.8750,-176.2343,-68.1371,-147.7240,-135.3933,17.7484,-40.1439,49.9537,42.1448,166.6621,169.9171,-150.1896,60.8644,-8.0088,-67.3096,152.2258,67.5872,-64.5584,-64.0295,125.6097,78.3726
-539.0625,-141.3052,-67.5259,-74.8179,-98.9622,17.8439,-61.9439,124.2238,6.7987,204.2907,170.7790,-150.5070,57.5588,-1.1860,-106.2555,152.5570,68.5363,-64.7628,-134.0240,90.8546,79.6081
-531.2500,-62.7065,45.7613,-68.2529,13.1597,-12.4179,-2.8597,56.1298,-20.8569,63.5719,67.3169,-108.1755,23.8229,-10.8666,-65.5841,85.5430,38.1586,12.6979,-19.3542,27.7475,123.5202
-523.4375,-58.8311,87.3429,10.5825,124.5723,30.5666,45.5449,26.2828,-13.2259,34.1013,-107.8809,-101.5911,-9.7322,5.1378,-60.6998,55.7721,9.0465,53.4048,20.5762,-2.1159,94.7050
-515.6250,21.8576,63.7775,-15.7760,65.8233,41.3332,9.0138,111.2303,-36.7566,82.4381,-206.2667,-91.2061,-2.5484,26.8326,-89.0516,103.8035,20.7474,27.9131,-36.6774,8.8195,106.7178
-507.8125,-27.6911,13.9957,-30.3789,-19.1378,26.8390,15.8913,59.9214,22.5042,-5.4533,-36.8756,-70.0787,-57.7002,5.4907,5.3134,52.5980,81.2149,49.1718,-50.1658,29.5063,93.5003
-500.0000,-79.0253,69.4270,-46.7746,36.1372,47.5435,25.5943,6.8111,82.0081,15.8666,94.7363,-86.7453,-40.7323,-18.0563,-50.1573,-0.3969,28.9043,-73.3784,-31.4368,49.3814,78.5117
-492.1875,-141.3492,42.8860,-75.1640,8.4403,55.2416,11.9187,-22.3016,54.5543,98.1814,103.3681,-79.4106,36.1656,-11.9347,-118.6610,7.6102,0.6185,4.0802,12.3163,127.2476,87.5549
-484.3750,-60.9091,19.1409,12.2147,20.5216,105.6912,-0.6120,-7.6707,33.8892,76.2488,44.7662,-66.3243,-63.2606,19.5004,-143.4556,22.3770,16.0960,85.2901,24.8360,102.8548,29.3723
-476.5625,72.6528,82.5416,76.6999,48.7388,97.2266,1.0067,-16.9462,26.3626,-43.5888,-37.7118,-39.1361,-113.6460,27.2579,-118.1950,13.2534,7.6909,42.5942,-17.5236,25.5529,58.3176
-468.7500,98.4189,39.1704,102.3886,40.2001,85.9526,-1.3585,-64.0315,-18.9130,-89.2270,-10.9612,-50.7602,-128.9169,18.2151,-131.7629,2.3323,34.5192,138.0967,9.3417,51.4501,85.4877
-460.9375,104.6429,46.2732,109.5305,82.1479,57.1225,8.8307,-19.6693,-9.6884,-45.3972,-38.7328,-5.9314,-124.8356,32.7027,-88.9141,10.8669,-30.1739,74.0291,-18.3255,57.7923,58.1396
-453.1250,47.3737,129.9062,49.1704,130.6162,-4.2227,23.6217,-6.8115,5.0807,-32.0589,-24.9745,43.4027,-42.3187,37.2720,-78.6040,23.9096,-88.3440,-19.5446,-4.4728,35.6281,72.3290
-445.3125,-16.5762,136.8778,20.1212,137.4101,-33.2741,28.9593,1.3316,15.1839,-23.4304,-15.9005,14.0476,-112.5574,36.7107,-73.0351,69.2688,-7.1940,-12.8125,2.6971,41.7474,44.8493
-437.5000,25.3953,74.7861,26.9851,75.1464,-26.4296,-6.2474,45.3583,24.2235,58.0945,29.0836,20.6018,-146.9653,40.3301,-105.6053,76.5313,0.8744,-77.1760,-24.2099,13.7562,53.3022
-429.6875,42.0255,22.3793,6.5105,-13.4269,-9.9445,-22.4263,62.0286,42.9515,148.2833,83.7301,-0.1941,-171.7977,12.1787,-128.5621,19.4379,18.6132,-25.8762,28.5581,-5.5864,71.4283
-421.8750,60.7189,7.0651,64.0983,7.0873,10.5936,-16.0075,45.7431,65.7685,96.5210,68.4475,-16.9313,-155.6498,24.4318,-147.5124,40.4005,3.4152,-42.5307,13.3978,-21.8946,56.6278
-414.0625,92.1299,74.4864,-15.6055,39.3356,-32.1731,-0.8529,3.1442,62.3205,17.4461,63.8856,14.0367,-128.8714,14.9008,-118.7982,35.0772,-1.0657,-81.4818,10.9597,-25.5104,89.5585
-406.2500,13.7109,67.0916,-22.1443,31.7666,-1.7883,31.6031,-40.3155,95.0636,11.5228,58.4892,44.1587,-177.0212,16.7281,-17.9746,-8.0917,-6.3773,-19.2807,39.6886,2.0186,47.6684
-398.4375,-43.0362,47.3896,-45.0243,-24.1144,12.2304,11.6202,10.8615,111.4954,63.2562,110.7557,20.9288,-204.5935,12.7664,-6.5436,6.3994,45.9894,-145.4331,19.0900,-19.8134,63.4627
-390.6250,-119.5230,-29.0241,-127.6494,-63.7042,-34.5170,45.5380,37.2714,140.2191,53.2422,101.3004,9.9472,-218.9995,37.6033,54.1028,107.1423,73.6338,-82.3246,48.7671,8.5968,128.5329
-382.8125,-115.7022,-60.1064,-122.9690,-25.9525,6.0283,56.2064,78.9688,147.2891,21.5274,107.1775,-59.7273,-256.1878,59.6181,56.0076,185.1913,5.6100,-80.9302,52.7666,47.2964,97.9294
-375.0000,-89.9760,36.7364,-171.3895,0.7233,-5.5290,17.4410,141.5586,101.3018,158.7127,133.9874,-70.4975,-235.5412,13.0423,-31.2199,101.1476,32.5107,-160.6485,9.6897,36.8867,125.2604
-367.1875,-173.9423,24.8984,-222.5049,-11.2823,-19.7867,32.8842,89.4429,125.6590,217.2000,194.1278,-84.9726,-218.6726,-21.5227,-49.1738,49.4127,129.7336,-104.0700,32.9378,58.7731,148.9196
-359.3750,-171.5968,28.3910,-184.3148,27.0420,-17.7525,64.3694,54.6216,130.3601,109.9895,160.5909,-47.1484,-185.5850,-2.7828,24.1387,51.9905,96.2747,-102.1943,36.5076,25.9523,152.9105
-351.5625,-143.9889,57.1536,-192.8684,55.6467,-63.4712,109.3109,9.0381,123.3479,-7.9684,78.3309,-56.0696,-235.3226,-4.9604,121.6612,79.8163,125.0921,-75.0559,100.3566,-15.6142,182.1758
-343.7500,-152.6662,120.6490,-128.7132,82.9875,-109.4869,134.2946,-35.8476,191.0779,-16.2138,107.7845,-139.2840,-249.4399,-46.1311,109.8427,71.3423,154.6261,-119.2286,127.9256,-60.4854,175.1634
-335.9375,-132.2892,106.2275,-145.5110,104.4032,-162.4609,140.7446,-52.6857,213.8960,-32.4008,203.3051,-156.4490,-198.5745,-72.5960,90.0413,54.9299,102.2377,-134.3617,114.5614,-75.3108,197.2343
-328.1250,-51.2101,48.5290,-57.6095,82.5417,-148.7416,111.4895,-74.8245,157.4532,-53.8818,182.5559,-68.9125,-263.0929,-50.3936,64.9056,-3.7693,44.5784,52.2001,91.9115,5.5646,140.0319
-320.3125,106.0870,67.0540,145.5034,99.9108,-19.8241,44.3555,-19.7636,69.2456,1.8473,-17.9747,96.8339,-358.4894,20.6382,-29.0713,-93.2667,29.1362,67.9578,4.4766,-48.3659,88.0600
-312.5000,149.9989,112.2066,152.2244,144.9143,-13.3119,51.9082,-13.1176,42.6733,-26.8207,-118.8903,140.1870,-320.3507,43.7194,-61.4840,-85.1579,37.3077,41.3270,14.6645,-73.7051,133.7185
-304.6875,108.3203,141.7955,109.3519,174.3576,16.5898,61.3221,-20.0844,38.5378,-180.0917,-87.3774,132.9377,-296.8813,90.4159,-71.5298,17.3590,-4.1055,34.0908,79.2803,-116.6587,128.8012
-296.8750,114.1419,183.9256,77.9681,146.3381,-15.0288,32.7898,-14.5661,82.9480,-136.8601,-7.3350,138.1841,-296.9744,83.8773,-180.0988,23.3778,3.0133,-66.6598,86.4218,-111.1246,136.4129
-289.0625,103.6648,174.7825,30.2862,137.0525,-61.9583,37.4886,-25.3612,112.1002,-36.9250,56.4337,91.1313,-349.4355,42.5526,-156.9930,13.0956,66.8567,-42.7089,42.2858,-51.8944,127.7465
-281.2500,86.7108,124.1651,48.1170,86.2960,-8.3917,14.2621,-7.6665,95.7891,-18.4951,38.7235,144.5866,-265.4639,77.5198,-142.4167,31.3116,49.2157,-130.2607,-7.3361,-34.1761,147.6042
-273.4375,55.7738,59.5745,-22.0458,56.5734,-40.8348,17.1627,-3.9843,66.5077,21.9273,44.0355,184.0439,-231.5606,82.2429,-142.8752,34.5311,54.5951,-125.8064,68.0685,-28.4606,189.4870
-265.6250,7.5978,12.7654,2.5495,115.6355,-17.5320,65.8382,-52.5549,130.0110,-25.8944,70.1134,172.2551,-357.9840,89.7774,-120.6197,23.5056,80.7422,-69.6053,127.2433,-42.9964,143.1382
-257.8125,-1.2699,111.2808,30.4422,143.0292,-62.9324,66.7010,-61.8276,160.8490,-107.4175,62.5151,162.7712,-337.1700,98.9575,-133.0910,88.7857,147.2034,-113.1212,83.7353,-122.2399,136.1156
-250.0000,-5.6391,178.3178,25.8296,139.9403,-67.8384,67.0835,-66.6051,159.2259,-74.4409,59.4412,47.7857,-274.9161,28.4153,-215.0872,10.5761,181.1909,21.8511,116.7488,-90.9826,133.6158
-242.1875,76.5508,120.9253,113.7653,152.4180,-17.2043,66.4603,-89.8338,177.1866,13.1001,38.9408,25.3561,-303.1634,17.6234,-277.5657,-48.0777,123.7496,67.3503,164.3331,-46.1786,76.6876
-234.3750,131.5977,71.4005,171.5468,137.7707,3.2717,52.3406,-106.2202,164.0276,-76.5049,24.3109,155.7761,-288.6207,69.2136,-260.2125,-63.8822,35.1765,156.7041,114.7891,-97.5228,62.6316
-226.5625,134.8031,111.0411,212.4882,213.2996,7.8996,86.2412,-138.4620,171.0544,-143.9578,30.8568,123.3444,-289.9993,64.1087,-184.7323,-58.5432,-32.2307,229.2104,84.4178,-94.7210,32.7377
-218.7500,114.7242,163.4074,154.1344,229.5538,-14.7753,81.4847,-87.0135,188.8150,-18.7172,10.1158,26.6180,-245.7252,23.2143,-247.5791,-43.4997,21.0727,138.4116,65.7579,-80.2304,49.5661
-210.9375,27.4513,183.6004,61.5835,249.6381,-33.6623,103.6251,-68.7844,210.4028,0.3187,67.1892,-28.2974,-306.6987,-9.5527,-269.6501,-61.6465,151.1919,121.4241,120.9103,-61.9496,70.2138
-203.1250,65.0414,152.6690,65.8968,218.6086,-29.7115,100.7127,-64.7169,254.8628,-31.7926,73.1302,11.6519,-308.8762,6.9672,-268.8982,-56.9494,157.1684,52.2865,124.9319,-58.8284,39.7261
-195.3125,132.4434,185.5653,60.0114,181.4138,-35.9697,70.5846,-70.8579,215.1471,-74.1100,31.8834,79.3995,-248.3066,37.3599,-278.3659,-25.4555,79.9584,12.9626,122.7714,-98.9140,73.0514
-187.5000,143.5129,128.1333,74.7914,158.8901,14.4233,69.1211,-93.3549,196.1073,-58.7813,84.2967,-17.2061,-350.1397,22.0078,-267.2036,-10.3088,95.4020,199.2968,171.2727,-52.3543,16.0335
-179.6875,206.5553,86.6668,141.5304,153.3277,154.7656,25.9595,9.0938,155.0401,-28.5086,5.6755,-24.8475,-364.0565,69.2308,-315.1163,18.7884,89.8083,191.5691,59.7337,-94.8546,10.9811
-171.8750,245.8532,162.4630,66.5220,158.0352,79.3510,25.0518,-102.2216,120.2464,7.0095,5.3207,47.7767,-225.7614,51.7325,-283.7938,18.1336,127.4820,160.0957,29.4593,-197.1132,122.1913
-164.0625,158.7606,217.8866,11.1245,178.3769,-50.4657,68.0420,-230.9502,179.0757,-10.8763,62.5707,102.0131,-176.9174,37.4431,-231.8922,37.0811,147.7615,107.2198,84.7958,-178.7832,143.0100
-156.2500,221.1316,175.7798,2.1805,171.1987,-95.8420,50.2555,-166.2377,136.3734,-19.3121,92.2756,203.7082,-302.6605,65.9673,-207.5561,28.4810,103.4926,27.7956,113.5858,-117.0066,136.2906
-148.4375,213.4167,169.5892,-3.8515,164.9398,-103.3185,63.3944,-136.6248,170.5823,-61.8429,124.8899,197.3053,-426.5453,81.2641,-180.3373,59.7805,99.1300,54.2741,177.2836,-126.3288,95.4758
-140.6250,176.2232,239.9141,-4.3755,270.1957,-104.2993,101.8655,-138.5120,209.3089,-61.8731,52.0091,122.4084,-433.9659,59.7743,-221.6386,58.5831,136.2728,-18.7629,212.4999,-129.1605,60.1726
-132.8125,209.4324,204.6503,28.4965,234.8659,-108.8841,71.3422,-106.0106,172.4601,45.4896,86.5365,117.9249,-408.0205,41.1312,-266.5474,18.7886,134.8205,13.5994,176.1377,-96.5979,95.2800
-125.0000,167.0955,57.8595,56.8204,88.0121,-6.0172,33.3128,-40.0686,205.0787,75.2969,264.5195,72.8991,-568.6553,68.4984,-278.0186,48.4445,128.8204,-29.5910,241.2368,-33.5969,89.8414
-117.1875,31.7126,30.0410,-47.9080,60.1339,-38.2024,49.6700,1.8141,286.6636,154.0485,381.4615,4.8306,-570.3606,46.9802,-276.5550,90.0469,171.7758,-165.8338,283.2968,-28.6568,97.3635
-109.3750,-55.3595,119.5326,-139.3275,79.5723,-93.0901,110.6942,20.9834,346.5595,137.0979,328.7152,-86.9349,-485.7963,-34.8714,-187.8095,-0.0548,193.0395,-77.7648,302.6705,-11.4171,82.1913
-101.5625,-24.5642,152.8869,-67.8846,182.8689,-22.1263,138.2843,17.0048,310.3153,60.9986,180.8260,-52.8474,-458.4105,-0.6721,-120.2314,-2.3070,155.1567,-82.8527,264.8995,-51.3316,44.8739
-93.7500,-22.4554,120.5456,-68.1416,221.4729,14.1347,147.5767,17.3203,239.3836,98.1963,109.2393,-53.4533,-465.7552,-4.4020,-87.3618,-39.2565,120.5766,-46.6328,268.4406,-49.9467,83.8601
-85.9375,-24.4455,120.1113,41.5089,185.9979,49.2930,126.4889,-20.4701,205.3707,135.2867,109.5540,-54.1491,-400.2246,-5.5731,-91.5960,-76.3037,10.8944,56.4867,267.8924,17.3297,48.7451
-78.1250,71.8734,147.9872,70.4629,177.8360,40.7447,102.5397,-29.9703,200.6716,53.6659,103.1738,-26.5311,-304.4088,8.3231,-104.5369,-47.0527,-32.4826,10.9029,224.6476,6.8982,5.9358
-70.3125,26.4009,104.0654,59.6204,133.8827,-7.6097,125.1676,-41.2835,230.1815,-29.7620,94.0019,-37.6993,-212.4131,-28.4837,-45.2793,-94.6034,105.3528,34.5267,180.6093,66.6592,-2.6723
-62.5000,14.0006,93.2050,83.8377,122.9900,16.0790,151.5154,-54.5531,257.7442,-79.1406,82.8905,-50.8127,-85.3789,-55.2856,85.0191,-144.1111,131.2331,-49.8039,134.6222,18.4615,-13.2273
-54.6875,56.8648,172.6096,52.3074,167.3611,-15.9889,169.0771,-85.5822,192.5630,-147.2773,-19.9684,-8.6786,96.8964,-52.2642,197.5638,-138.3753,-82.6416,-77.8700,107.8936,24.5134,31.4706
-46.8750,70.9344,47.2303,69.9821,41.9512,1.1437,111.1726,-32.4139,139.5859,-92.2194,-0.6265,8.6560,70.3562,-12.7807,247.3049,-47.4434,-100.3153,-64.7305,53.3677,108.7634,-22.6385
-39.0625,68.3082,-93.8420,69.9564,-99.1416,37.5755,10.5726,115.0505,106.9105,56.1396,38.0144,82.3051,64.1092,51.4727,133.3462,27.7871,-97.6898,-138.3048,-17.8604,211.3070,-93.4486
-31.2500,50.5796,-111.0219,15.8276,-151.3357,56.9002,-45.7879,170.4125,56.1408,149.4043,59.5627,64.8620,75.7628,52.5481,75.2938,46.9171,-150.1568,-51.9842,-70.1905,262.7528,-145.3633
-23.4375,20.4042,-174.6467,61.2478,-144.9833,100.7739,-85.5436,178.3279,-79.0684,194.2188,-41.3418,35.9711,76.9633,53.4787,153.7934,55.5986,-251.0804,-47.1240,-133.9671,196.7455,-208.7311
-15.6250,11.2828,-216.2198,11.7101,-151.5729,51.6937,-107.0382,129.2903,-234.2250,72.0687,-162.1947,60.1255,241.2061,20.2947,211.3429,6.3322,-224.9603,-92.2005,-175.6825,81.7864,-145.0480
-7.8125,-59.5852,-145.5424,-26.5700,-150.9021,12.8678,-87.1046,16.4958,-232.1302,-38.8344,-124.7967,-15.4668,416.6898,-42.2735,206.1400,-30.6937,-113.5968,11.9855,-140.1414,9.0788,-144.1264
-4000.0000,35.9324,-76.5049,18.8530,-95.9638,-22.1040,-88.1087,-28.6611,-219.8552,-40.2229,-181.8243,23.3012,481.1787,-32.2239,146.9483,-15.3799,-149.3776,55.9254,-166.8645,-45.8878,-159.2137
-3992.1875,60.6895,-123.5406,43.0967,-73.4564,-34.4073,-101.7171,-5.2323,-272.4833,-16.8458,-160.7218,10.5716,512.2371,-11.5672,61.1659,45.1434,-127.6344,150.9769,-145.3340,-22.5641,-137.6539
-3984.3750,25.3990,-90.6309,81.2904,-111.0012,2.2401,-99.4142,32.1545,-203.1593,-17.5058,-52.6671,-61.2051,446.2265,-34.6593,63.3107,8.6174,-165.9373,151.9802,-113.8497,10.7158,-176.1366
-3976.5625,57.8652,12.0366,75.2309,-9.7928,32.6392,-54.4912,25.2969,-139.0769,-60.4095,-97.8585,-30.2280,336.9531,-20.3622,22.1602,-34.1645,-211.4928,114.7359,-83.6064,-27.2466,-110.8564
-3968.7500,141.0721,-13.5387,123.9172,0.1679,43.7850,-38.6861,-36.8097,-131.2359,-86.5576,-126.2843,-18.5096,208.4107,-5.1377,-2.2751,-23.1993,-128.2856,162.2572,-4.5968,-16.4451,-101.8173
-3960.9375,178.8293,-82.5575,165.1605,-69.3155,84.4929,-72.8436,2.6345,-93.8397,-46.1542,-51.1556,58.7570,145.3891,21.6707,-71.1763,-56.6911,-53.5192,95.3361,30.9752,-50.0950,-137.2268
-3953.1250,172.1499,-21.0135,155.9587,27.7593,37.7531,-23.9376,-6.3721,-69.8888,-93.2013,-26.4738,86.5817,179.8804,-22.0763,-42.5412,-176.6455,-28.1990,88.9778,56.1049,-129.1941,-112.0784
-3945.3125,178.3331,124.3930,196.6153,171.6924,41.8693,43.2981,-114.5298,3.9212,-237.4070,-62.9383,54.2562,264.1864,-27.6583,-38.0777,-173.7554,-100.0250,24.4817,58.0963,-194.4392,-74.0759
-3937.5000,216.9801,197.2635,121.7238,103.0854,2.4385,16.3865,-116.2297,-1.8115,-166.1664,-102.9477,52.3814,342.9098,-29.3165,-38.1887,-102.4193,-67.3957,-111.5663,-11.4529,-157.2328,32.3863
-3929.6875,100.8303,148.3455,-1.9689,-86.3104,-10.7920,-48.2094,-130.7242,-18.3347,-32.7170,26.2499,38.7045,336.7920,-36.0059,-88.1190,-42.8941,101.4366,-122.4046,9.2126,-28.8166,53.0560
-3921.8750,96.7296,143.4893,-5.6090,-92.6409,-14.9681,-74.4414,-60.1590,48.2064,36.7957,130.5054,73.0833,229.6739,-18.1316,-200.0260,-46.3178,95.3184,-197.1985,2.9395,0.6558,10.7798
-3914.0625,180.8311,260.8486,-30.0549,130.2405,-39.9448,-9.5325,-86.3845,55.9584,-25.4829,102.9725,84.6630,137.7181,-32.5723,-224.7604,-109.5409,-5.5851,-147.7988,12.8707,-56.6695,56.7193
-3906.2500,243.8304,393.1195,35.3928,262.0264,-48.0220,21.8965,-131.7044,44.6221,-144.8606,18.3480,114.1357,99.6267,-26.5534,-268.6141,-154.8633,-52.5735,21.5048,2.7174,-65.0854,46.5711
-3898.4375,415.4299,528.0051,141.4366,220.4235,-53.4972,-31.4227,-174.4158,-1.0988,-222.6348,-98.6689,183.2038,101.0932,5.1528,-309.8882,-123.5939,-59.9592,53.4034,-39.8136,-141.8965,39.0384
-3890.6250,465.2221,504.0986,154.6731,197.0289,-77.7661,-34.9299,-233.9218,8.4010,-284.2048,-52.4690,232.4639,46.7167,22.3875,-331.9814,-111.1358,-49.1375,102.5007,5.8863,-164.4949,49.7185
-3882.8125,433.4561,506.6461,195.3597,234.0924,-37.5669,-36.1219,-230.9722,45.3763,-244.3168,-15.8021,200.1656,-16.2703,41.6576,-400.6516,-71.2237,-47.8503,36.0381,7.0599,-195.6422,50.8578
-3875.0000,402.0771,543.5929,84.4371,305.5636,-38.9625,-12.2746,-195.6104,41.7728,-209.0220,-54.7186,199.2612,-120.9209,71.8200,-436.9378,1.0915,-49.1449,39.9682,42.6533,-194.3816,121.4171
-3867.1875,334.0806,544.9354,86.9055,306.4466,-36.9525,-22.8442,-156.8395,4.5961,-97.3162,-18.2096,164.7430,-333.2282,53.9887,-470.8393,-34.1935,59.9798,113.2978,77.6634,-121.7057,121.3897
-3859.3750,360.0184,428.2335,112.3167,295.2864,25.0115,-42.6413,-96.1071,26.3955,0.3532,40.2700,190.1630,-411.6339,81.2300,-555.8069,-46.5300,46.0726,34.5601,65.6389,-97.0730,144.3323
-3851.5625,313.2917,344.8737,59.0645,175.4778,8.3231,-45.8617,-75.0189,43.5735,57.3840,22.1225,174.9267,-311.7415,71.8496,-497.4345,-25.5240,65.5395,93.1676,15.9898,-40.0856,199.6508
-3843.7500,292.1512,322.1184,111.4116,46.2682,60.2377,-99.4293,-61.3232,18.3788,35.0162,34.5964,153.2812,-363.3006,122.1224,-481.4779,99.0837,77.6246,72.3706,-8.0365,41.5115,175.5858
-3835.9375,287.2540,314.6217,67.0048,74.3118,52.4059,-111.1308,3.6347,-29.5450,63.8925,97.3388,108.8810,-437.6581,104.2907,-524.2893,90.9442,104.9713,31.8229,19.2113,70.3612,202.7883
-3828.1250,185.5960,247.3762,-2.1486,146.6161,55.8356,-32.9639,43.8473,81.8071,141.0205,134.3505,2.7257,-611.8343,67.2037,-519.8643,57.0539,180.5876,72.5352,90.7259,109.4709,204.2548
-3820.3125,121.8857,182.0832,3.6535,186.8791,60.2244,4.8472,48.0242,120.1334,182.1138,64.3336,44.5092,-748.1251,111.3124,-514.5121,98.1146,183.1639,9.1902,165.2092,44.5347,243.6875
-3812.5000,25.0651,83.6924,-65.6517,123.0507,-8.4859,32.5312,53.1074,157.3842,185.1139,102.2302,86.1842,-811.5626,143.0927,-473.2787,175.0760,221.6536,17.7446,240.6225,87.5023,319.0439
-3804.6875,-69.8167,22.2533,-91.0063,96.1882,75.7624,49.1682,63.1431,201.6141,233.0592,220.0869,-13.1913,-905.1171,114.8393,-424.1097,148.9924,305.1108,-6.7525,284.0120,95.4234,291.3666
-3796.8750,-107.4056,54.1318,-132.0672,127.6427,108.3125,92.3278,59.4942,231.1671,154.3122,250.2627,-90.2706,-902.4387,68.3237,-390.6570,72.2072,335.8869,-7.9654,349.7217,57.6449,322.0071
-3789.0625,-165.1677,99.8694,-120.2896,173.9563,119.7174,143.9660,-40.2977,275.6008,19.4221,296.3150,-152.5124,-958.9711,59.2330,-342.3589,83.2697,308.5313,109.6656,394.3083,68.7274,331.5148
-3781.2500,-144.0951,84.4525,-60.6724,192.1263,140.9743,129.5501,-18.2236,294.9210,78.3939,316.2377,-129.9119,-1077.7146,86.5495,-392.2210,104.1853,329.0375,-8.8663,377.7698,123.6679,314.8911
-3773.4375,-207.3339,-86.2575,-167.3616,127.0035,109.9336,147.5428,96.5635,369.9712,228.0666,391.8741,-125.6112,-1251.8225,87.8553,-387.3959,108.8008,405.2601,-107.6998,451.9530,164.3136,353.9907
-3765.6250,-324.1841,-204.5527,-214.6524,44.2958,98.3001,163.5038,120.7569,429.4529,253.1410,414.9366,-136.9211,-1257.5992,89.4669,-325.1816,132.8174,464.8964,-153.1423,473.5627,187.3572,340.5072
-3757.8125,-350.5534,-197.3327,-208.4568,-19.8851,67.1620,174.5975,127.4529,469.4745,221.7129,418.5379,-166.7496,-1135.9294,69.0840,-244.4733,139.3353,433.0541,-214.1164,444.6956,160.8954,381.5486
-3750.0000,-369.1571,-110.3086,-228.4905,-4.2538,46.8153,193.6193,69.9478,446.3333,166.0942,469.9785,-260.8008,-1076.5055,-0.4568,-189.9659,81.6589,484.0497,-161.3040,459.6519,177.2467,396.4154
-3742.1875,-365.1331,-73.6325,-223.8823,33.0308,51.1161,178.2274,111.1093,447.8777,279.1450,435.0918,-293.2115,-1103.5067,-10.0451,-258.8138,85.6330,523.7237,-227.8540,425.2763,213.2665,361.9523
-3734.3750,-388.4070,-133.2559,-287.5721,8.0170,25.1204,167.8654,193.9864,418.1537,325.8945,368.9229,-245.9173,-1050.8810,18.7574,-247.9710,132.2985,495.1136,-250.7031,364.6213,259.9964,407.2121
-3726.5625,-446.5334,-227.7260,-311.1029,-16.8385,37.2817,203.3638,206.0209,465.6108,264.7843,416.9216,-232.4767,-1142.1755,38.2289,-159.9832,145.1130,506.6650,-238.3948,410.1364,341.8820,381.6407
-3718.7500,-425.3654,-207.8883,-288.3352,2.6189,59.7429,200.3924,228.3678,484.3965,249.9842,473.2464,-246.7508,-1151.2358,7.9016,-173.7063,56.2352,490.5249,-215.8082,358.9724,327.0705,365.3929
-3710.9375,-389.6174,-173.4423,-212.9837,36.6939,23.8010,199.1170,192.3241,445.8162,250.7955,472.1989,-282.4349,-1108.7573,-38.5037,-171.8304,-17.0413,453.0060,-39.6396,321.4340,325.8624,327.7661
-3703.1250,-356.4914,-176.5931,-101.2463,33.1739,61.2701,159.5188,193.6967,407.6805,288.0091,471.5819,-317.7229,-1101.9449,-22.6138,-207.5556,21.0865,341.9148,-6.1055,282.3124,359.0564,253.5591
-3695.3125,-319.1819,-210.5426,-136.3252,-1.1466,-10.0595,152.4009,232.2798,406.7843,289.4228,434.1937,-315.8089,-1022.0012,-15.0766,-205.0866,94.4207,342.0419,-73.3972,282.4135,395.4582,253.5817
-3687.5000,-380.9457,-273.5475,-163.4651,-29.5128,71.5559,136.8197,277.8250,376.8756,298.8076,441.7825,-305.9570,-1007.1823,14.4586,-231.6628,103.7133,350.1311,-29.7456,323.4885,402.8265,224.5742
-3679.6875,-300.5198,-265.3408,-154.4100,-56.6613,117.3725,112.6953,286.5891,346.1960,344.4048,374.5893,-223.9147,-993.2159,25.9644,-222.0460,39.2096,284.4350,-89.9099,330.7823,341.3912,231.7854
-3671.8750,-260.8542,-226.8612,-113.1095,-53.5345,121.4367,138.8431,180.6070,347.7956,201.2488,303.6684,-182.6360,-947.0634,33.1645,-217.1809,6.9482,287.0078,55.1784,404.3488,309.2063,234.2694
-3664.0625,-198.6009,-165.7679,-9.2078,7.2124,189.1084,136.9237,138.2309,303.0271,84.6881,222.3644,-187.7689,-874.3838,36.1092,-221.7103,-36.7107,242.1978,152.8564,393.5400,265.6199,153.3708
-3656.2500,-120.8095,-124.1250,34.2379,13.5227,160.3260,114.0737,145.4149,307.8487,128.6725,190.6275,-144.3515,-825.2230,34.6737,-287.6862,-65.8045,174.9594,126.0593,364.2990,201.5748,159.0478
-3648.4375,-164.2391,-133.6807,-10.5277,37.6376,114.3424,151.3909,136.4041,333.5096,119.4585,216.7262,-189.1428,-866.3279,18.1981,-221.8509,-39.0919,164.5415,118.0503,423.8744,227.3308,148.5493
-3640.6250,-266.5819,-61.1233,-80.2038,109.8651,43.4580,179.6092,139.5070,371.3069,85.3586,290.9537,-185.8460,-747.3895,10.3429,-180.9100,-0.2835,129.2329,-52.8814,425.5631,160.1886,150.1761
-3632.8125,-345.7964,-1.4073,-201.7416,134.2506,-4.2820,207.4925,53.7691,394.2899,73.4064,351.3516,-234.4043,-607.3699,-41.3036,-154.8131,-11.3183,190.0986,-26.6722,414.4291,150.2008,173.9777
-3625.0000,-329.5801,-20.2415,-145.8302,79.1004,14.4333,174.3469,73.4899,337.7585,92.9011,258.2271,-214.5223,-619.9772,-36.5213,-136.2594,-29.8885,244.4342,94.9693,358.7673,165.6626,118.2457
-3617.1875,-134.4226,-37.1187,-15.9739,61.9106,72.0996,105.6644,94.1688,245.2119,76.3460,167.0796,-83.7007,-594.6957,5.9704,-187.7444,-82.5060,189.7390,149.5276,235.0741,114.0664,100.4911
-3609.3750,-8.3914,-52.0959,80.7665,82.6244,94.6635,78.3940,42.7526,191.6012,24.6957,150.8642,85.0075,-568.5665,51.6038,-165.3121,-133.2197,100.9718,170.9642,149.2962,99.3814,84.6649
-3601.5625,91.4682,-24.2290,146.3387,74.1895,123.0769,30.4554,34.2052,144.8824,15.9058,103.5211,150.5540,-461.6522,95.6478,-172.0128,-69.0734,54.0690,24.2229,35.3850,21.5555,111.7113
-3593.7500,23.9965,-23.6633,70.5903,41.4648,47.1838,29.8197,-39.6296,140.9034,14.8243,136.9023,148.7905,-385.1043,89.2337,-171.9975,2.7810,161.8861,27.1623,1.1994,23.4365,182.4822
-3585.9375,-20.5953,1.8090,25.7375,64.6544,39.1925,41.6425,-84.5547,130.8611,5.6404,201.2045,66.9136,-425.7174,48.9887,-143.0679,-6.4668,189.6125,123.9938,24.9434,48.2140,136.1705
-3578.1250,17.5008,38.9922,29.5811,102.5624,5.9076,46.4462,-44.7732,132.5563,9.1468,129.2284,107.7279,-307.6863,46.7268,-174.4298,-39.0161,118.0483,57.5031,27.4105,16.6809,138.5807
-3570.3125,-9.2264,46.3715,39.6173,74.6743,-57.1746,63.7774,-71.7851,140.4892,18.8475,63.4780,117.7377,-293.5253,40.7029,-128.5739,-30.3468,89.7017,102.2049,105.0968,24.3522,110.2092
-3562.5000,-15.3734,40.3460,74.2501,103.3971,13.3460,62.4255,-38.1826,172.0599,16.1576,96.3493,114.3389,-365.8299,61.1084,-130.0950,-33.0663,48.9647,-8.5234,132.3982,18.6272,32.4518
-3554.6875,22.7562,41.6235,2.1679,104.4311,88.1575,59.6267,0.7304,171.9682,-56.2226,132.5463,116.2240,-285.8796,47.8863,-127.2959,-105.4899,12.5410,-5.9743,98.0185,20.2029,33.0202
-3546.8750,1.8612,19.9101,56.0776,82.4752,142.9669,42.5947,17.6493,113.9134,-38.6057,111.7681,60.0878,-154.9858,30.7627,-72.4719,-124.9142,-44.8587,78.5621,40.6603,68.7782,-24.3905
-3539.0625,5.3020,57.5477,96.3284,49.8747,146.1233,-1.6055,57.9350,78.2446,37.3614,76.3639,63.2913,-74.8021,42.2174,-104.2765,-84.9781,-42.8888,12.4203,-27.3349,36.7022,-22.4309
-3531.2500,-67.8781,89.5719,-18.0287,46.6766,67.6737,-0.2579,53.6306,73.0086,69.7374,107.3883,59.8855,-111.2806,27.0425,-144.6575,-52.6264,98.5015,10.6618,4.0835,69.0294,8.9496
-3523.4375,-56.3305,65.3456,-4.6412,57.2366,43.9742,10.7724,67.0847,120.5657,82.8631,119.1860,72.2226,-242.0759,37.4289,-130.2690,-39.5180,73.6528,-12.3723,14.2749,45.1009,-15.9005
-3515.6250,-1.9598,47.9643,13.5785,74.6502,26.1241,17.9614,85.4003,100.0149,63.8335,98.8718,90.3982,-220.0836,37.6647,-111.0069,-58.5533,-19.3240,-28.5903,31.3386,63.0234,1.1218
-3507.8125,-29.6247,-15.4274,22.7793,11.0585,34.2802,17.8875,57.7264,107.5051,72.8055,69.5909,62.5535,-133.1422,36.3968,-27.7092,-12.5715,25.7238,-55.8401,2.4117,69.9492,-27.8386
-3500.0000,-22.6166,26.8754,-8.3419,-17.8338,4.1358,8.6426,63.7759,111.7297,78.4879,38.0248,32.3973,23.4506,16.3948,16.3188,30.1253,103.4859,-223.4317,-61.8046,-27.4239,13.9271
-3492.1875,-115.7460,72.0695,-109.5878,28.1776,-97.1119,59.4271,-1.2618,118.8932,50.0818,118.3821,3.1267,35.8814,-34.2333,62.2752,0.7307,148.1551,-176.1423,-16.0912,18.1162,94.6160
-3484.3750,-134.7011,17.4553,-54.6379,8.3933,-79.1538,62.3010,18.9148,136.2929,32.8732,135.9682,23.0471,-14.5551,-13.3744,46.4588,-16.4537,56.0366,-89.6749,34.8416,104.8555,39.5177
-3476.5625,-58.2194,-81.7087,-44.2449,-90.9357,-31.7466,24.0835,139.5526,145.1758,116.1050,108.0219,-3.5906,-74.5915,-11.2855,-15.8786,-43.1805,-8.6149,-82.7856,75.2410,217.0341,-25.1093
-3468.7500,-129.4592,-153.5737,-41.5597,-127.9605,43.9587,27.9349,215.4928,182.3904,154.6339,146.3921,-111.9449,-179.3736,-26.2621,25.1132,-41.5966,29.0534,-117.6145,108.9556,216.5157,-97.4164
-3460.9375,-105.1254,-59.8410,-56.2873,-69.3789,66.2609,27.1091,201.0497,167.2392,140.7703,93.3930,-52.7171,-6.6013,-18.8593,48.7339,-55.4029,14.3363,-303.8776,26.2804,99.5990,-39.1047
-3453.1250,-146.1739,39.5291,-138.3840,-6.1432,-53.7963,62.1495,118.2710,82.7734,93.5658,9.0799,-62.8596,207.7702,-53.8352,114.0399,-28.5553,3.2892,-204.5125,54.2702,92.3356,23.8771
-3445.3125,-128.5919,56.5384,-44.8359,11.7444,-32.2070,65.6604,140.1509,64.9947,78.0266,-81.5567,-151.3703,158.7325,-63.7160,136.0342,-7.0477,23.9062,-116.5174,35.9150,74.7200,-29.4770
-3437.5000,-63.7772,85.7996,19.9550,4.8894,-4.3736,50.8158,131.2872,18.4969,32.7351,-90.9309,-196.6398,226.9003,-82.5536,202.3119,-16.2742,-23.2189,-120.2975,-76.1871,-0.6572,34.4422
-3429.6875,-105.2389,6.8033,-24.5132,-38.2103,-48.7979,64.5363,51.1700,9.7774,25.1736,10.4628,-204.1620,296.7843,-125.2694,307.3832,-60.7443,-31.5765,-23.3401,-84.5238,26.7092,26.1328
-3421.8750,-74.5777,-31.0477,49.1671,-77.1556,-11.0726,14.0502,88.2023,9.2434,-11.2431,-26.9724,-94.5488,300.7778,-47.1295,272.6411,12.9418,-31.7672,-131.2605,-158.6959,-11.7776,-48.0098
-3414.0625,-35.1395,-63.1036,52.6305,-73.3002,-45.5477,4.1393,54.0457,-26.4634,-45.8571,-25.5866,-18.1578,306.5322,-30.0723,276.7327,16.4342,-30.1449,-196.4008,-154.0537,-78.4563,-9.3358
-3406.2500,-57.3286,-15.7689,30.4808,-26.0452,-66.6195,33.9601,-39.6923,-11.7358,-104.0610,25.2155,-39.3895,435.6366,-77.9257,367.2579,-41.6594,-52.1101,-114.1658,-178.9944,-136.7313,-68.2536
-3398.4375,-5.5920,141.5053,12.2667,60.1623,-121.7392,29.0800,-57.4669,-68.0257,-85.3216,-67.0136,-20.6834,604.6411,-106.4360,424.7742,-59.7822,-145.1182,-167.0170,-267.9728,-225.0645,-87.2031
-3390.6250,-56.2373,89.4185,-4.3121,9.0180,-176.2068,38.2176,-74.5862,-86.6374,-65.9351,-159.5666,-38.3358,664.2538,-97.3591,518.9820,32.7621,-126.4696,-112.2400,-284.2894,-275.7487,-68.4849
-3382.8125,-101.7554,9.4832,22.2544,-0.9732,-185.5246,64.0896,-83.5486,-97.0738,-149.3962,-132.9498,-47.8486,657.9821,-98.8461,585.3719,23.4636,-136.6630,-156.3406,-189.4469,-249.2862,-78.6052
-3375.0000,-70.5912,-30.7570,19.5094,-41.2640,-225.1489,72.4963,-85.8033,-100.7803,-152.1653,-210.6084,22.3294,694.3820,-90.8791,620.4916,-16.1302,-286.1356,-54.7714,-123.8944,-185.1258,-119.0094
-3367.1875,7.7966,-93.7651,145.0055,-68.3099,-136.5278,27.2821,39.1940,-161.2052,-100.6866,-306.9945,36.7389,601.9993,-55.6935,637.9092,-37.4633,-419.3394,59.0236,-187.0801,-105.7155,-252.1494
-3359.3750,92.9599,-43.9858,161.2825,-19.5595,-46.1135,7.0843,55.9986,-218.7974,-195.3927,-291.5604,52.9277,658.3826,-35.9184,729.1769,-21.9799,-440.7382,-31.4187,-278.4602,-267.5109,-273.4701
-3351.5625,76.9409,80.6411,107.3941,35.0438,-99.8605,52.1097,-70.3481,-199.5117,-359.2536,-272.2609,35.9530,791.5789,-75.5849,825.3485,-37.6345,-421.2753,23.9773,-294.9817,-353.4589,-253.9222
-3343.7500,65.1512,103.5122,133.7562,57.9037,-110.3645,61.0943,-80.4460,-211.9482,-332.8766,-320.6959,-11.7728,856.9857,-89.5751,889.8095,-12.0303,-469.5463,-23.3991,-307.2450,-330.1668,-302.1133
-3335.9375,108.5452,5.5778,142.3119,-5.0292,-138.6752,15.2192,-35.3412,-277.1649,-250.3079,-386.9155,70.7010,905.5701,-51.4730,863.5065,33.7871,-498.6127,-49.6008,-335.3073,-321.6880,-294.0895
-3328.1250,112.0668,-61.2187,184.0084,-71.8155,-95.8377,-3.5072,-29.0828,-272.2075,-245.5924,-381.9688,113.3102,804.2844,-19.7637,871.4025,39.7688,-457.5240,-10.6731,-331.2181,-283.0605,-325.9040
-3320.3125,134.9664,-38.6239,207.0922,-84.2053,-109.6020,-18.8383,-42.4095,-249.8228,-332.4764,-359.6025,136.3009,756.3680,9.6317,822.7398,100.1647,-399.0225,-127.3881,-344.7207,-295.0343,-303.3072
-3312.5000,66.5377,-71.3405,97.8525,-81.8979,-182.6710,1.7629,-77.0319,-249.7101,-331.6588,-359.5157,136.9781,723.1192,-9.9601,826.8275,101.2722,-361.8073,-89.4300,-307.5141,-292.3084,-265.9983
-3304.6875,70.9334,-33.2238,66.4536,-78.7449,-139.8841,-33.0838,-34.7982,-281.7255,-251.9912,-354.5640,178.4946,731.6832,-27.0154,797.8141,-3.7524,-465.7300,-120.6500,-339.4502,-323.7379,-297.8293
-3296.8750,92.3019,22.8778,14.0394,-92.6022,-155.0938,-72.5955,-48.5567,-297.7141,-267.3297,-333.5964,236.9979,793.2126,-19.4691,673.8437,-18.7613,-481.6434,-134.8961,-353.3774,-338.1709,-276.6410
-3289.0625,48.5885,-20.0795,6.5630,-65.5099,-125.3585,-58.5170,-92.3626,-305.7274,-274.7177,-267.6562,192.4374,788.6730,-21.0426,668.8613,11.1908,-380.5944,-71.2115,-326.3507,-345.6585,-284.4886
-3281.2500,19.3574,20.4681,11.5771,-24.9082,-121.1374,-41.0667,-87.6716,-265.2211,-270.6063,-301.2029,123.3660,795.6373,-27.6906,639.4153,52.6485,-340.0347,-171.0622,-355.8293,-374.6556,-243.8197
-3273.4375,-62.4507,9.4536,-39.9747,-71.8603,-171.4830,-42.5930,-137.5363,-243.2445,-248.0363,-279.2813,145.7234,821.0470,-36.2623,554.4647,39.5595,-281.0090,-111.4853,-330.8470,-315.1960,-184.6831
-3265.6250,-19.1860,-18.4846,-30.4378,-64.7244,-125.7260,-57.2685,-91.2876,-234.1480,-275.3575,-270.2378,155.1598,723.5217,3.3539,492.6597,85.5930,-271.8712,-103.8308,-324.7621,-307.6259,-212.4408
-3257.8125,27.4602,-8.0424,-20.5118,-53.2001,-151.5696,-66.1938,-80.6173,-261.6279,-265.2769,-260.7800,164.9837,662.3667,6.4355,468.3003,96.0497,-262.3287,-161.8126,-312.2815,-295.6593,-165.7847
-3250.0000,-13.3722,-83.0616,-27.0495,-93.1292,-157.8669,-54.6995,-49.4020,-231.5378,-123.6554,-266.7611,122.3499,548.7372,-5.9196,464.5448,91.0649,-232.2232,-61.2612,-318.2436,-195.1453,-135.5643
-3242.1875,17.1778,-17.6890,-31.1858,-97.6512,-124.7642,-94.6135,21.2114,-272.0288,-54.6438,-307.3282,81.1042,621.4797,-2.7636,390.2271,123.4840,-272.7092,-100.3341,-357.7956,-163.2384,-139.9343
-3234.3750,44.0117,43.9728,-77.0347,-105.8725,-134.3642,-100.0817,12.1275,-245.2004,-100.3407,-280.5768,71.1558,651.4997,-8.7885,273.2515,115.2120,-281.8895,-73.1336,-296.0439,-136.0335,-112.9938
-3226.5625,89.6706,-16.5283,9.9560,-131.2526,-84.1150,-124.6583,26.8941,-232.5013,-123.1829,-231.9626,121.0454,520.3536,22.6688,216.1658,91.8086,-233.2126,-28.1077,-286.4408,-125.9789,-173.1990
-3218.7500,127.4064,-13.9445,13.0263,-128.5440,-43.7687,-144.6009,30.7662,-229.6843,-119.9108,-229.2424,198.0246,416.2978,65.0005,148.2168,95.5251,-230.4231,-95.0157,-248.7351,-157.8266,-170.2950
-3210.9375,34.7095,-36.7783,-48.3190,-116.2457,6.1755,-92.3403,7.2447,-143.2452,-107.0309,-216.9040,63.5830,320.8180,31.9471,89.9089,72.8509,-218.0123,-12.3490,-130.4184,-75.0717,-157.7808
-3203.1250,10.4896,-26.1240,-72.1697,-35.4519,19.6242,-51.0708,58.2317,-94.2860,-94.6681,-241.0411,2.6229,299.8174,13.0166,69.1477,49.6882,-205.1012,-36.2125,-84.5961,-98.8195,-181.7586
-3195.3125,8.1510,43.4187,-111.1333,-1.7590,-20.0304,-48.9009,-17.8772,-96.4112,-133.4149,-244.2699,36.5561,336.7039,21.4771,33.3324,84.4367,-171.2902,33.8015,-120.8720,-134.6659,-147.8246
-3187.5000,-15.9544,54.2010,-61.8500,10.1807,-43.4403,-50.6809,-77.7380,-84.2736,-83.9078,-157.2387,-24.2655,279.8260,-1.5629,-24.2014,97.4442,-85.2121,45.0562,-74.8949,-88.2668,-171.6351
-3179.6875,75.1801,109.2258,-79.3209,29.3661,-24.6069,-81.9364,-57.3486,-101.8751,8.8558,-138.9374,-5.8466,264.1826,-4.5601,-112.4600,80.7169,-65.8762,-75.4640,-89.6698,-137.6195,-116.1880
-3171.8750,85.0963,84.0417,-109.0053,-29.6507,-15.9820,-92.5146,-49.1610,-131.6641,53.4283,-131.8259,39.3573,274.3266,-0.8633,-101.8766,51.8030,-58.7342,-29.1991,-79.6449,-127.1719,-34.9313
-3164.0625,80.0978,78.9447,-78.5878,0.4262,-22.2579,-39.5474,-91.8721,-64.3379,-62.9062,-64.6126,-4.3463,160.5616,-13.6611,-31.1527,46.9980,8.5132,-34.8566,-49.5207,-131.6278,-4.5657
-3156.2500,59.7924,58.5345,-100.4728,50.1962,-45.8394,11.2791,-149.8870,-14.2975,-158.5524,-14.6909,-28.3500,140.4834,-33.2505,-14.6936,23.8970,58.4730,-19.8326,-34.6940,-115.3914,45.5155
-3148.4375,71.2211,34.8630,-49.6115,26.7149,-29.6741,0.0951,-170.1653,1.5047,-143.4581,0.9989,-12.6052,48.1288,-24.6493,-69.4444,3.5559,110.1974,97.9326,-22.1133,-33.4072,-12.6470
-3140.6250,177.8898,35.4390,62.4978,-7.5163,45.7394,-63.8746,-96.1983,-34.4341,-69.1103,-35.0496,62.3823,-21.9810,27.6863,-137.9202,5.4796,38.1763,28.9222,-92.2811,-68.1809,-11.5560
-3132.8125,199.3409,-13.1913,83.3933,-20.9517,29.9470,-41.9636,-109.4331,-50.5575,-47.9593,-51.2873,9.1545,-70.2924,17.2659,-112.5726,27.2099,58.9628,121.7008,-34.6479,-45.1523,46.3376
-3125.0000,200.0263,-48.5836,121.5344,-21.1359,32.4118,-31.6004,-107.4145,-11.4141,-8.5534,-49.2627,-25.8331,-176.3731,16.2057,-143.9477,30.1901,60.9967,156.7095,1.2413,26.1231,11.4812
-3117.1875,213.4460,-0.2424,99.4205,-7.5734,9.6294,-36.0073,-92.6397,2.4907,5.6026,-35.4770,-12.0774,-159.7320,2.2514,-163.5516,7.9422,110.7886,100.4517,-21.1178,-30.8517,25.3814
-3109.3750,131.8601,24.0924,13.3047,16.9846,-2.1553,0.5904,-102.8641,27.4052,-43.2424,26.3184,-24.3330,-169.1127,-12.4606,-98.1292,-3.2848,135.5871,90.1878,3.5195,-5.8203,50.2789
-3101.5625,81.1772,8.3326,-38.9087,37.4460,56.9620,6.1538,-81.1877,12.2252,-58.1841,11.0234,-2.6917,-70.6034,7.0194,-146.7856,-17.6107,84.2925,39.8036,94.0422,15.1064,35.0774
-3093.7500,95.4784,-47.4336,-22.1288,-19.0940,37.0681,-11.6126,-64.5203,29.0565,-41.1358,64.7479,13.9411,20.8979,-7.9217,-237.4161,-73.9374,64.0184,124.4100,143.5713,30.0239,14.8907
-3085.9375,118.8142,-94.1708,115.7027,-65.5887,101.2248,-52.1678,-72.8159,19.9565,23.9447,18.5422,4.6199,-22.5661,24.8355,-315.9679,-45.2073,17.8117,149.0538,133.1569,53.9896,-31.2390
-3078.1250,145.2917,3.2352,105.6815,-38.9389,128.5235,-69.0280,-7.9720,-26.9837,14.1799,-65.5103,31.4519,-65.8929,41.7898,-322.3396,-54.3178,-29.2404,104.8274,88.8947,81.1068,-4.2087
-3070.3125,53.8135,-19.3171,46.7061,10.7536,69.8627,-0.2804,-30.0868,24.1299,28.4837,-14.5078,-65.6680,-85.1844,-14.5637,-267.6383,-76.3553,58.7565,118.6440,173.6789,130.2809,9.8758
-3062.5000,-37.1553,-4.3705,-11.7660,25.9494,48.7071,15.6263,-13.6997,39.7462,81.2903,37.9951,-50.2899,-103.9836,-11.3692,-212.4276,-59.8821,37.2478,28.9427,188.9626,145.9541,25.4598
-3054.6875,-41.3731,-43.6688,-50.4944,21.9008,47.3051,-8.7488,-14.5707,38.1165,78.8245,109.2537,58.8342,-103.0310,26.5780,-283.4576,-60.6664,35.5006,94.9834,185.0017,143.3752,-13.1972
-3046.8750,-1.9096,-74.2781,67.4699,25.5492,128.6052,-28.7405,-5.7478,45.1966,-22.9461,117.2243,102.6493,-130.3939,74.4569,-309.7660,-51.7446,42.4714,99.7151,153.7485,77.5035,-79.1509
-3039.0625,42.1306,-30.2957,39.0292,-0.2143,99.5060,-44.5630,2.6748,16.8886,21.8923,50.8128,110.0579,-10.1667,60.9165,-261.4560,-43.2069,-22.9530,3.0220,92.1014,51.2344,-34.4990
-3031.2500,21.1609,-16.3158,18.5819,-55.9804,79.4136,-37.4230,20.0950,-3.4097,37.7304,-5.5865,52.4661,46.0446,37.5223,-167.1312,-25.6712,-43.3748,87.3213,107.4627,101.9698,-54.8436
-3023.4375,54.1024,51.5602,55.0458,47.1606,80.2223,-24.9754,57.4108,-39.8084,38.4781,-42.0872,15.7804,-24.8703,26.1868,-90.9069,-24.2241,-79.8956,15.5079,70.7269,29.6005,-91.2868
-3015.6250,46.4496,78.8340,7.9068,109.7026,33.4255,9.9285,-25.8811,-50.8069,28.6367,-16.1850,-31.5017,40.6008,-18.5898,-24.2763,-34.3532,-54.0110,78.0835,27.3915,-47.3722,-28.3239
-3007.8125,32.6380,-5.0483,67.6150,96.0917,56.4769,-6.1592,-75.3275,-100.9482,15.6444,7.5895,-44.9420,66.9068,-9.7236,-33.7840,-9.6208,6.7408,205.4983,-21.0900,-25.4949,-41.5091
-3000.0000,91.5670,-16.1798,129.0651,50.2345,45.2789,-36.7881,-50.0261,-113.3260,3.3957,-41.8691,-20.6335,56.9535,18.4129,-42.5368,52.8559,67.2584,123.6480,-67.8224,-106.8647,-16.9361
-2992.1875,71.1893,-37.6113,106.2062,65.0802,-15.2235,20.8048,-145.0322,-62.9995,-57.1487,-28.6197,-44.6235,72.6853,-19.6984,48.4158,30.0289,154.4866,138.5040,-52.8532,-125.5143,33.3397
-2984.3750,45.6769,6.8026,79.2110,74.7738,-4.8693,33.2145,-171.1853,-52.8201,-82.8396,18.4788,-70.7584,85.2351,-31.4271,136.2212,41.0546,127.5632,43.2122,-78.0373,-115.3056,43.4597
-2976.5625,-46.8218,19.2137,-55.7731,51.4670,-65.5116,33.2023,-122.3466,-76.6333,-34.5418,66.5849,-58.8911,135.7605,-42.8588,151.0243,53.0793,102.6387,-15.0791,-30.2119,-67.0984,91.5860
-2968.7500,-75.1237,-44.1766,-47.5485,23.3611,-56.9489,6.2911,-75.3266,-104.2341,10.9499,112.9034,-86.8316,73.4618,-30.8568,127.0202,100.3117,147.9219,26.8318,-58.1758,-25.6839,63.9158
-2960.9375,-3.8680,-42.0189,28.2303,-9.1986,-53.8324,-31.5199,-71.7617,-138.2817,14.0073,78.7755,-48.2153,152.6985,-19.3737,133.5557,104.1000,114.7657,-5.7168,-160.5875,-57.7170,66.7979
-2953.1250,51.8892,-21.3620,49.5065,-57.2573,-68.2148,-42.1201,-123.7011,-153.8294,-37.4298,63.1440,8.9012,213.4169,-26.9663,158.5875,52.3947,99.1170,50.2376,-174.4845,-70.2388,88.1831
-2945.3125,47.2472,-96.0993,119.3911,-61.7049,-35.9856,-22.3024,-127.0462,-120.7668,-5.2783,22.1230,4.6210,137.7032,-9.3583,158.2122,49.2904,58.0707,10.7946,-108.7717,-40.1620,84.1660
-2937.5000,10.3131,-133.1350,41.9788,-64.4457,-75.0500,-4.9913,-92.6988,-86.9997,65.5718,-17.1851,38.0428,100.6625,-4.8502,121.5223,46.8888,91.7369,-60.9538,-39.3572,-40.3837,117.8567
