Time,Fp1,Fp2,F3,F4,C3,C4,P3,P4,O1,O2,F7,F8,T7,T8,P7,P8,Fz,Cz,Pz,ref
-4000.0000,-68.8293,-54.8852,-30.5647,-28.3179,58.1344,13.6987,75.4127,6.9655,38.2034,26.6806,-20.5089,-34.6660,45.4977,-35.8634,77.4645,-72.8706,-23.1117,87.2917,11.1262,-76.8404
-3992.1875,-120.9989,-37.5606,-50.2568,60.4556,76.6247,106.1773,20.4294,62.4692,-164.3241,45.5161,-39.9027,14.2365,41.4705,-17.8606,59.4148,19.0249,-5.6802,36.7988,-5.8639,-59.8795
-3984.3750,-8.1350,-64.1729,-5.9147,-70.7032,85.1469,-69.2741,29.4813,-38.9591,176.1675,-55.5860,78.7422,-108.9938,101.2173,-119.7864,142.3955,-9.9937,38.7944,-92.6403,4.1789,-15.8640
-3976.5625,0.1748,-55.3352,2.8666,8.5926,58.1019,-22.2776,3.9688,7.0624,-108.8667,101.7635,-23.1693,-42.1554,29.9710,-73.2471,41.8228,73.4594,-23.2904,59.3679,13.6594,-7.3883
-3968.7500,124.6606,-0.2876,58.8239,-6.8858,42.2302,-39.0577,-12.3600,-8.6944,-51.7443,-24.6598,70.0919,-51.2161,45.9763,-90.4783,26.4212,56.1563,66.8103,-130.4061,-37.6706,11.2965
-3960.9375,184.7402,-79.6269,82.3720,-86.7536,-7.0618,-124.2304,-61.1028,-20.8460,83.9837,0.5083,93.9480,-108.5878,41.0081,-66.0882,51.6051,80.4810,-13.4856,-138.5968,-46.4154,71.5905
-3953.1250,138.2106,-20.5631,34.3075,8.7863,-53.9736,12.0010,-106.4633,42.4082,-146.8939,100.0912,9.1918,-13.2327,-27.0979,-3.2758,-32.8214,106.2383,11.6042,-111.3781,-20.7748,96.2948
-3945.3125,234.1123,4.9632,60.6825,-70.1991,-26.4536,-106.2962,-42.3979,-76.8682,248.6355,-91.8631,72.8790,-82.1892,13.7698,-85.9852,33.1773,-49.5121,108.1349,-258.7061,40.2915,86.4577
-3937.5000,124.8664,2.3470,57.9067,-37.3333,-64.1001,-71.7510,-6.5055,-4.2965,63.0318,18.0354,-38.5727,-4.4835,-65.4873,23.1665,-77.9855,22.6127,34.5090,-154.2014,144.1852,83.4858
-3929.6875,91.8029,39.9373,24.3132,-34.2527,-60.5689,-67.9959,-2.4384,73.4945,29.5887,-14.8377,0.1579,5.2954,-51.5139,26.5511,-73.9737,62.9846,37.0599,-289.4824,147.2696,85.7319
-3921.8750,113.3328,-41.8548,10.3134,-186.5647,-73.4565,-190.6388,58.2107,22.8934,236.7365,45.8822,58.4901,-108.4062,-4.4948,-24.4391,22.6161,48.9919,-45.7938,-265.1794,169.9407,107.5964
-3914.0625,30.5565,14.0565,-3.0002,-93.1687,-49.6665,-92.5875,83.5412,47.9961,-68.4094,107.3107,-26.4876,-27.1628,-31.1855,0.2926,-26.1087,109.7349,-22.9591,-136.1704,122.2986,94.1804
-3906.2500,102.6617,17.8814,111.5752,-123.8474,-6.9967,-158.6201,53.7514,-55.9868,157.3032,-106.3499,88.4198,-80.9991,33.7187,-67.0471,18.0388,6.4166,120.7661,-235.2534,56.5380,62.6791
-3898.4375,48.3103,35.2669,129.6943,-72.9685,-24.7928,-104.1055,-0.5045,-36.4244,-7.4135,24.5273,32.8822,-9.5058,-23.5654,26.1771,-73.2722,25.6681,67.0403,-75.7967,2.3093,43.7439
-3890.6250,247.5414,234.2600,155.4035,21.5259,-34.0083,-38.9820,-46.1808,-82.2512,-162.5598,-94.9765,96.9305,66.7737,-41.8940,-19.9730,-155.0107,-57.4411,124.8988,-156.7243,-44.3298,-3.5746
-3882.8125,460.0162,236.5217,196.3490,-10.7102,-28.9935,-144.5918,-77.6318,-223.8172,98.5255,-200.2312,174.2223,3.8668,-2.1235,-88.8474,-76.5236,-200.2688,163.0026,-151.4092,-76.7373,-36.6298
-3875.0000,411.9378,260.2332,148.7339,118.5076,-2.5493,-6.7555,-49.6474,-85.9314,-314.9234,-135.0378,52.9608,115.9342,-44.9703,-25.2506,-159.5967,-172.6158,115.5439,49.3549,-52.7064,-84.2182
-3867.1875,464.0353,277.1531,132.2978,100.9454,19.0676,15.3052,8.5158,-64.8192,-147.2179,-297.6221,110.8780,79.0972,7.1763,-114.4197,-100.4943,-298.7193,167.2664,-71.6661,-0.4862,-137.5918
-3859.3750,395.1820,175.1327,99.9033,34.4434,24.7160,-15.5816,51.7124,15.3471,-141.4487,-70.1643,41.8439,49.6065,-25.8971,-71.5229,-131.3579,-255.7478,30.0359,38.3486,73.7709,-169.8993
-3851.5625,281.0646,166.8696,54.2440,26.7140,17.0889,50.2923,80.6312,155.2800,-259.9500,-2.9325,33.5402,64.9173,-23.5548,-41.8515,-138.5064,-188.9848,21.5461,-2.8668,65.7695,-178.4392
-3843.7500,327.8305,38.5299,138.4750,-136.0879,28.3376,-84.9176,129.4270,57.1308,83.4137,-137.7910,155.1259,-79.9072,65.1335,-104.2544,-16.7850,-214.2871,32.9560,-129.1910,78.6532,-131.0637
-3835.9375,227.1373,-26.2507,68.2502,-59.3341,-3.8843,-5.5813,61.7494,135.5338,-169.6535,51.9059,85.2586,-42.6668,15.9668,-62.0853,-84.5286,-62.0086,-66.0955,20.0215,85.0760,-90.1186
-3828.1250,261.8732,44.4309,103.4537,-23.1105,-40.6813,-5.7761,-11.5027,62.4115,-96.3185,-57.9232,157.8220,-39.4222,20.9043,-98.4297,-84.8499,-25.2348,39.2873,-153.3078,14.9333,-54.7043
-3820.3125,283.4559,31.9776,87.4996,-35.0291,-93.6468,-20.1188,-63.9308,11.1432,-75.1283,1.0893,68.2422,-25.0651,-42.1958,-39.9039,-100.3345,33.4177,-9.4779,-93.8101,37.6242,2.5788
-3812.5000,159.1316,84.6279,-6.3622,53.1632,-111.5353,71.6358,-82.2818,102.9821,-239.8528,93.2161,-61.2467,57.8614,-112.7454,15.7489,-153.7449,163.2095,7.8438,-74.2069,20.4058,19.9841
-3804.6875,153.0942,44.5979,-12.9346,-57.3176,-154.1417,-7.2920,-87.3589,24.1370,84.6777,51.6422,4.5601,-41.5543,-71.6145,-64.2661,-50.8880,120.3377,2.4609,-113.3085,50.4640,49.7093
-3796.8750,-3.9342,63.5800,-67.5062,33.2096,-208.7667,86.7739,-140.4591,117.2875,-115.7835,256.0513,-122.6260,67.3032,-161.8684,66.7347,-140.0453,177.4937,-118.9268,48.5731,33.5021,68.4581
-3789.0625,-32.6754,106.8742,-59.7883,42.0636,-236.1138,59.1562,-94.2903,90.7489,39.0056,154.7739,-4.5281,57.4801,-128.8678,39.0706,-130.9322,186.9927,-76.0265,-151.2328,6.8239,76.5309
-3781.2500,19.8772,-14.5089,-6.7779,-43.7679,-256.1724,-106.1575,-76.8462,-38.4879,277.0781,99.7815,84.8720,-54.2026,-85.6794,-17.2711,-76.5425,204.8216,-92.8242,-166.7535,25.4245,129.9269
-3773.4375,-88.5308,-16.8350,-83.7258,23.4607,-295.2009,1.5815,-115.3777,70.3301,-54.8049,208.8463,-26.6840,29.3470,-155.7717,92.4623,-152.1190,387.7332,-130.5891,-27.2217,-10.9356,127.3957
-3765.6250,-117.7046,-44.8946,-112.4413,-73.0341,-286.0012,-61.4016,-68.6870,6.4199,247.5154,182.1696,53.9979,-60.3242,-93.5035,28.4805,-32.4796,360.9368,-89.1156,-158.4397,-5.0620,99.1356
-3757.8125,-195.7219,-86.7918,-119.0094,-78.3672,-254.6735,-30.2386,-73.8709,38.6617,131.9968,324.6317,-24.1669,-47.1783,-121.3673,60.6713,-73.7092,393.3122,-130.4891,-22.5303,23.9488,93.0504
-3750.0000,-120.8498,-11.7788,-114.6825,-72.7839,-212.4665,12.8294,-32.1822,81.8142,26.3399,111.0144,52.5535,-16.8769,-90.3228,66.7894,-105.0682,399.6257,-90.9726,-119.7056,-40.1518,97.8915
-3742.1875,-82.4808,-77.2485,-73.8606,-173.6846,-244.7765,-90.5942,-63.0134,-23.5230,289.1637,79.8900,93.7741,-107.1770,-70.1287,35.4226,-26.9455,479.4726,-121.9594,-113.3961,-35.7677,102.2551
-3734.3750,-219.0633,-70.6608,-176.9962,-96.5295,-311.0520,27.0258,-91.8173,96.1851,39.0424,272.8171,-81.9574,-16.4098,-160.7734,154.1256,-55.7898,635.3997,-186.9052,-37.0398,-31.3439,72.6925
-3726.5625,-210.0644,-131.4568,-204.5452,-191.7449,-263.7489,-35.7359,-9.0462,70.5136,307.4698,136.3588,0.8951,-91.5437,-108.1870,128.4614,-9.0649,609.9700,-142.2623,-200.0816,13.6675,82.7517
-3718.7500,-260.1625,-321.3379,-258.2011,-205.0506,-279.5608,-13.6005,12.6022,92.7410,217.8097,232.7860,-88.3466,-107.8533,-140.2874,224.7126,-23.4490,705.4621,-227.7205,-72.2496,69.5617,103.7351
-3710.9375,-316.7206,-271.6595,-279.3199,-154.7876,-262.8433,78.0914,29.7719,183.5306,50.6717,213.7812,-146.0539,-37.3119,-169.6981,279.5461,-79.3097,760.5348,-212.6430,-55.8587,48.9942,83.2948
-3703.1250,-233.8828,-257.5591,-229.0458,-175.1011,-285.7408,19.1989,7.3106,51.7379,359.9034,119.1650,-95.3674,-86.0830,-127.8528,220.8056,44.1970,666.0353,-199.1592,-145.0800,27.8130,97.2787
-3695.3125,-356.2835,-237.6934,-320.0166,-48.6515,-302.9023,151.0489,-8.4273,109.6857,47.8939,250.2871,-259.9286,38.1403,-219.0518,351.8295,-44.5668,797.3018,-215.9223,-18.5672,12.3727,117.0373
-3687.5000,-357.9991,-167.1133,-285.2943,-14.4714,-303.3864,151.6136,-44.4889,110.3500,158.5383,141.1196,-223.8079,62.4578,-213.5854,352.5819,-44.6597,761.3058,-110.9902,-122.3530,-93.3776,116.5198
-3679.6875,-415.0607,-152.8576,-271.9249,35.3745,-362.2389,202.8271,-176.9281,125.6609,135.8406,266.5888,-320.0359,109.4426,-278.4482,405.0007,-67.1201,813.9853,-203.4051,69.4826,-184.4986,130.6802
-3671.8750,-480.7810,-6.2430,-267.2106,182.5873,-356.7658,320.3904,-282.0514,205.3314,-188.5247,273.4193,-278.9266,238.6636,-307.4906,448.8024,-208.2541,821.0446,-162.4763,76.6702,-215.2814,136.2198
-3664.0625,-372.9170,-38.0084,-117.9004,12.4249,-244.7165,139.5695,-205.6078,25.6155,70.6775,19.8573,-92.2214,118.0420,-174.3765,379.2295,-95.8148,677.7377,-88.9458,-128.5584,-176.4750,175.3858
-3656.2500,-313.3900,-82.1160,-129.9379,72.9136,-219.0266,203.3854,-253.5336,52.5383,-234.4497,119.9279,-177.8564,171.2625,-233.4818,442.3146,-216.7341,705.0893,-134.7569,38.8413,-151.0233,201.2303
-3648.4375,-162.8121,69.8432,-82.9285,119.4693,-208.2976,215.2551,-278.4304,28.5205,-259.5663,-50.9442,-93.4525,194.0473,-210.2613,344.4743,-242.6371,607.5118,-53.5226,-18.7036,-245.5276,212.1516
-3640.6250,-88.4260,75.6264,-41.1220,125.8416,-165.7793,110.9281,-309.5482,-75.7000,-217.8836,-81.0404,-51.2444,176.7517,-171.7742,314.4504,-199.7620,466.7426,-48.4816,93.5381,-275.2454,217.8955
-3632.8125,-170.8880,169.5694,-123.1636,362.3770,-173.1205,288.7469,-353.5437,64.2272,-630.0662,-13.9837,-132.8928,356.2191,-246.9038,418.5928,-353.7620,461.1547,-25.2942,189.9354,-286.8222,136.8126
-3625.0000,-56.1551,179.7364,-37.0110,303.1439,-86.2748,192.7841,-340.3633,-31.6295,-395.1033,-182.7207,25.6521,277.3535,-144.6748,322.9467,-266.5989,328.7970,54.0935,26.5339,-277.2116,76.9525
-3617.1875,-147.8067,159.5220,-58.2546,353.5212,-70.8366,247.4140,-360.6093,60.1119,-599.5317,18.1227,-67.1925,314.7964,-183.8219,340.9090,-323.8516,384.0432,-36.9130,218.7056,-298.0117,56.7204
-3609.3750,-198.7055,286.0701,-37.7546,445.6675,-121.6656,306.8029,-375.1339,83.6140,-651.2536,4.7283,-46.3022,399.6139,-206.9135,364.6537,-375.3838,297.0629,17.8195,170.6311,-383.0670,42.2678
-3601.5625,-130.8962,250.3467,-4.5591,374.5264,-124.8101,194.8983,-340.9855,7.8203,-323.2910,-69.9796,-48.7100,338.3072,-191.5679,326.1202,-304.2364,185.8029,-18.7426,135.2281,-314.4371,76.5420
-3593.7500,-154.4807,263.2307,-65.7627,458.9913,-149.3684,245.5856,-291.2587,132.6161,-531.7230,-20.0928,-183.5223,415.4204,-254.2705,377.2052,-365.4962,200.1634,-40.7091,184.4121,-231.2131,89.4441
-3585.9375,-31.0223,283.1840,-9.9256,373.5275,-129.8927,119.3387,-234.5060,42.4753,-217.1484,-182.1409,-91.2993,338.7648,-188.6993,288.3633,-271.7347,0.5990,47.3677,29.6413,-211.9434,109.4215
-3578.1250,-49.2048,265.5041,-29.7350,392.4172,-149.0777,101.4315,-216.4182,24.6793,-273.2001,-51.8500,-183.7128,358.6802,-229.0653,307.8754,-290.6350,-15.6139,-4.1962,225.1869,-194.3304,127.7748
-3570.3125,-50.3357,371.8898,-30.4989,499.3702,-149.2276,212.5703,-253.3034,62.9422,-457.2290,-124.4903,-184.0867,453.9533,-238.2730,346.4592,-327.5133,-49.7576,29.2840,226.7881,-265.6707,128.2030
-3562.5000,-2.7585,316.0047,-17.5646,373.0458,-135.6896,43.4189,-239.5165,-31.0912,-148.5863,-182.4404,-97.7565,346.8410,-183.9157,287.7553,-239.7126,-145.1881,42.4720,172.0752,-217.3227,142.3508
-3554.6875,-66.4659,288.8336,-45.9245,381.4287,-126.4559,90.9571,-230.0501,88.5702,-397.2412,10.2909,-161.7264,353.7408,-210.1220,261.7584,-304.2214,-96.9150,-19.6398,287.0549,-139.2793,115.2211
-3546.8750,29.4732,316.3247,-17.6412,304.4854,-60.5772,10.1605,-164.9549,7.8942,-148.2915,-105.3247,12.9445,251.4006,-86.0166,108.4279,-165.1063,-249.9710,5.8976,104.6869,-182.5911,107.7623
-3539.0625,68.3299,250.7341,22.5496,275.4496,-55.8006,-55.7460,-159.9744,-57.8904,-106.4305,-62.0665,-18.4717,219.9512,-79.4437,114.9960,-123.0989,-317.1243,10.3443,181.1937,-178.0130,113.2265
-3531.2500,60.7405,350.7045,16.2905,374.9785,-61.4829,49.8950,-201.4656,47.8737,-332.0425,-102.2576,-60.3440,312.8835,-118.9193,148.1277,-201.5601,-282.7064,38.3398,176.2476,-219.8905,72.2672
-3523.4375,166.7610,317.2952,90.6343,237.1236,-24.5678,-21.8607,-200.3799,-23.7577,-37.0907,-210.8615,49.3878,209.7422,-51.5868,77.8744,-126.4412,-390.6774,74.9439,73.8821,-219.1711,73.9327
-3515.6250,55.6506,243.7457,85.8438,269.1131,8.1924,12.2219,-204.4621,47.4462,-261.2698,-102.6319,7.9826,217.4164,-50.6312,75.4745,-167.4793,-355.8033,34.4078,212.3437,-153.6074,70.4733
-3507.8125,64.2939,252.9586,132.8030,172.8751,128.6896,-12.9353,-119.8204,-14.5886,-177.7384,-274.6350,92.3087,154.4334,41.6998,13.8419,-83.7902,-380.1629,113.6197,46.5574,-180.2962,44.7878
-3500.0000,13.7508,168.9965,118.5641,125.4538,114.9719,-98.2884,-133.4026,-63.8262,-8.4061,-176.8503,78.4372,91.1502,42.9980,2.0159,-24.3141,-280.7130,64.6392,34.5378,-123.1925,31.9276
-3492.1875,-51.5793,176.2434,51.5221,168.2365,122.4427,-16.4506,-90.8096,56.1355,-183.8733,-58.8637,11.7555,126.4600,19.3420,11.4063,-53.6515,-198.0402,69.8581,6.7058,-48.8860,3.2951
-3484.3750,107.3503,89.7639,142.7351,-23.7127,215.1521,-216.3567,39.0167,-107.6458,238.8675,-221.6294,104.3174,-53.9951,117.2880,-150.9415,76.2401,-287.1031,123.3337,-183.8891,40.6663,22.9360
-3476.5625,14.3000,-36.6972,45.9602,-43.6605,228.8572,-164.2778,89.8256,-56.4413,105.6231,-96.4144,-30.1087,-47.9985,72.4520,-63.2913,53.1296,-161.1734,31.8227,7.4979,54.2134,37.5986
-3468.7500,-33.1968,-12.5963,33.7373,-19.0374,254.1138,-101.6395,114.1653,-29.6847,93.8836,-253.6444,-4.9905,-37.9889,114.2303,-73.0808,114.5454,-97.6932,54.8618,-73.5486,-28.6930,26.8299
-3460.9375,19.3370,-98.4642,86.5218,-68.3968,270.3733,-194.0026,94.4831,-120.9330,257.1267,-308.9038,11.1426,-116.3407,155.9314,-126.8716,204.9429,-115.2204,72.9207,-87.6185,-10.6092,81.0764
-3453.1250,-52.4388,-63.6568,46.9693,34.9013,305.2842,-120.7281,55.4269,-48.5472,-74.9881,-235.5302,-63.0654,-30.9255,111.3091,-90.0132,92.9739,-78.1009,105.6363,15.9581,58.1164,79.9890
-3445.3125,48.4499,-32.1715,82.0754,-37.1261,302.8460,-194.7974,91.0041,-121.5091,179.4994,-420.5133,81.3732,-94.8439,181.2267,-163.4997,164.6378,-188.3330,172.0118,-90.8197,54.4869,42.5661
-3437.5000,-3.2849,-46.3190,29.5487,20.1989,287.7633,-134.5302,38.9234,-63.1422,-19.6442,-286.1765,-7.8217,-31.3753,125.0755,-67.6471,112.6513,-127.2292,86.7554,36.7224,39.2031,28.5113
-3429.6875,-34.1118,30.4422,-3.0731,61.4323,256.5822,-19.3661,43.7265,17.1251,-160.9082,-279.9324,-3.1278,22.4485,99.3086,-60.8880,44.5442,-84.2183,91.4018,-27.8369,43.8257,34.3769
-3421.8750,4.3194,-104.5344,37.5566,-108.0799,260.6533,-159.9515,47.7758,-87.3574,173.0732,-238.4544,74.8164,-128.0047,144.5425,-126.8731,121.6750,-77.9550,95.3087,-92.1736,117.7053,39.5125
-3414.0625,-77.1275,-185.4160,-8.7061,-48.5053,214.8249,-21.4503,38.9200,15.2465,-56.8244,11.1051,-45.1328,-69.8468,56.3697,-24.7589,2.9079,25.3959,49.3248,39.5751,142.6982,-5.2306
-3406.2500,20.3860,-122.3313,56.9846,-54.9655,242.9473,-27.9901,31.0014,8.8087,119.1792,-178.3855,93.8625,-94.0948,107.1134,-104.6853,-4.9305,-91.3056,111.2958,-142.7229,98.6430,-12.0075
-3398.4375,51.6779,-123.4780,88.4396,-56.6733,201.8196,-68.7876,25.8196,-68.8874,77.9450,-109.1587,89.6285,-99.9111,106.1021,-106.8697,26.9746,-93.2734,38.0356,-39.3059,60.3424,20.9802
-3390.6250,-2.3677,-0.9693,32.5574,32.2728,183.3446,25.0547,7.2771,-11.9405,-124.6557,-90.2821,71.0484,-12.5094,76.1616,-87.4031,-28.4780,-73.5951,54.4319,-20.2425,6.6992,3.6337
-3382.8125,16.5972,-15.4466,53.6823,-16.7725,130.8745,-26.1000,-8.2697,-99.9951,153.7213,-104.4195,91.4739,-59.7148,88.5044,-100.9385,66.0640,-122.9238,38.8400,-70.1996,-43.9385,-10.6997
-3375.0000,-81.3198,-41.8255,-12.0819,98.2712,65.5092,93.8203,-73.7168,21.0359,-131.7699,126.5320,-46.9874,25.8151,7.9388,-16.3891,1.7163,-39.1610,-58.6474,80.9184,-35.4629,-0.9175
-3367.1875,15.2705,-14.6953,13.6574,20.8257,91.6417,-25.7576,-47.6713,-25.4283,-32.7867,80.9954,90.0456,-50.6092,76.2738,-98.3441,64.8524,-47.8961,3.3696,-136.4661,-45.4773,26.3799
-3359.3750,-2.3582,-98.8017,32.1590,-98.8737,37.5347,-114.5987,-28.8777,-42.1564,59.9687,174.1829,108.8392,-142.8047,109.3963,-150.5652,156.7353,-62.8986,-83.8465,-47.1322,44.2659,46.4424
-3351.5625,-109.2183,-66.1542,-7.5824,-30.8256,72.1834,-6.7011,-31.3408,30.8569,-89.5203,210.1194,69.3765,-76.2396,99.5202,-114.0394,117.3638,-99.1596,-86.3046,-13.0517,41.7694,45.2718
-3343.7500,-7.3115,-101.7405,62.4313,-136.0176,105.5899,-118.0519,1.9415,-80.3791,274.7213,23.7986,175.6591,-176.0314,176.6524,-189.7659,224.7324,-210.6784,-17.9992,-153.2418,40.0314,79.8650
-3335.9375,-0.7254,-93.6711,-4.8909,-127.5719,38.6517,-72.7776,45.8749,-35.9834,60.6453,179.1098,72.5998,-132.5686,91.2457,-143.8602,121.7620,-128.5668,-80.0254,-4.8090,81.9571,88.1224
-3328.1250,36.8245,14.3560,-38.2579,-124.1718,42.6680,-32.5566,49.7512,-31.6381,64.4891,111.3823,149.4896,-98.2831,98.3919,-138.0010,88.7327,-196.5114,-44.0989,-105.4251,83.8382,56.3420
-3320.3125,48.9566,-7.0524,12.9420,-145.2256,-16.7610,-125.7894,27.1704,-88.7516,225.8835,126.1769,163.9481,-118.0216,101.1642,-121.6009,139.2523,-289.9290,-66.6052,-57.5199,96.2748,35.1227
-3312.5000,19.2662,35.6903,-16.6925,-68.1355,-9.0327,29.1143,34.7316,-6.7339,-98.5651,209.1072,61.5621,-21.2959,38.6802,-40.0586,36.9276,-207.2185,-60.9531,20.5270,66.8731,7.0661
-3304.6875,155.7443,-2.3994,88.8288,-139.8894,-14.1487,-48.8323,29.4411,-119.5680,228.1031,21.1823,129.3297,-121.3605,95.9809,-152.3730,141.7416,-283.3636,6.8631,-87.2862,28.6278,40.1694
-3296.8750,123.0032,-67.7285,89.1231,-100.9016,-13.5038,-10.0518,-7.1035,-117.6765,44.5512,96.9799,19.8639,-81.5999,39.7345,-75.9635,69.3190,-206.7757,8.4520,92.6190,31.1401,79.0328
-3289.0625,109.6288,-10.7043,112.7793,-42.5686,47.5031,52.0714,-20.2969,-92.4400,-42.6741,-97.8728,80.7498,-42.4522,83.2472,-87.2110,56.2494,-254.8512,136.3956,45.8803,-17.9890,67.2561
-3281.2500,160.6871,-63.2655,166.8524,-93.8367,65.9270,-39.4122,-2.0878,-220.8196,159.4940,-189.3484,135.0501,-96.2341,122.3015,-104.0730,110.5843,-345.5559,152.7561,63.5186,-0.7160,49.8855
-3273.4375,81.7414,70.1319,122.8906,73.8340,22.3124,139.0335,-45.9316,-80.2721,-214.3692,-48.8916,18.3128,73.6647,19.4176,-0.0066,-43.1241,-276.3352,74.0775,197.0967,-44.4853,7.4719
-3265.6250,148.1183,136.8434,192.2389,70.8139,18.0046,98.7840,-50.4789,-83.4219,1.0311,-161.1306,86.8754,33.4694,62.5948,-112.6483,26.4540,-352.8256,140.7051,-53.0292,-48.9443,4.3593
-3257.8125,152.9284,2.9641,159.0080,7.1791,22.1145,30.9185,-9.6185,-77.1858,4.8560,-9.9978,54.8601,-37.5021,61.8139,-142.9193,30.4413,-346.9445,75.7527,25.2139,62.0099,46.6498
-3250.0000,52.8553,10.1844,91.8925,49.6386,29.3330,112.1467,-39.6593,41.1420,-99.2306,108.2361,24.9382,-9.3959,44.4434,-134.0991,0.5326,-300.9829,80.9114,-3.4422,67.0837,18.0446
-3242.1875,72.4527,-39.9352,76.4351,-35.2549,14.2181,25.0263,-55.0429,-46.8810,180.3216,94.1014,46.6713,-77.0959,53.2892,-147.6344,58.2745,-314.4035,65.7423,52.5301,51.8274,4.0889
-3234.3750,-49.2183,15.6434,-13.3070,125.5331,-2.1801,156.5912,-71.7191,84.7789,-167.3909,226.6436,-80.8869,49.9610,-27.6886,-90.4876,-68.2751,-256.1576,14.2880,213.1842,70.2911,-11.1645
-3226.5625,58.5259,54.6254,62.3608,59.7225,36.8371,86.5591,41.0111,15.8394,19.2649,46.5802,-4.0460,-2.5153,48.3654,-157.9495,44.5710,-361.5243,87.2469,-64.7629,109.1700,-7.0181
-3218.7500,121.3557,-57.3341,54.1022,-87.0465,28.9180,-68.4379,105.8003,-29.0713,230.9916,148.5318,-50.1344,-119.0949,43.9438,-202.3923,109.4806,-294.8795,10.2782,-35.6891,137.1086,22.1791
-3210.9375,54.1135,-18.3861,-17.2410,-47.9214,-5.0879,-27.5508,145.4945,48.9034,49.6154,263.3707,-84.3182,-70.6149,12.7304,-160.9519,75.2996,-217.3634,-21.7795,-66.7154,139.9603,26.2794
-3203.1250,134.7464,-75.5726,65.2784,-210.9443,3.7671,-200.8129,154.0376,-51.2817,389.0685,199.0438,35.3577,-204.2356,100.9281,-223.6778,231.9758,-280.0216,24.0320,-229.9091,114.6726,73.2294
-3195.3125,22.2649,-81.9134,19.6676,-216.1386,32.4900,-171.2566,145.4408,-21.6473,159.4122,339.5425,-10.0919,-165.1837,82.2238,-157.5792,186.5242,-249.8597,-53.2915,-95.2747,178.2451,103.0312
-3187.5000,98.0059,-40.0538,98.2703,-246.1389,74.4288,-165.5073,187.0526,-51.8188,200.9331,161.2452,105.6616,-190.4098,159.1191,-224.3014,228.2739,-390.5187,21.5977,-229.4348,183.0330,109.0319
-3179.6875,108.3812,-99.5899,71.4996,-304.5483,47.9887,-227.1680,197.2745,-114.4070,358.0710,98.5182,116.0349,-232.2317,183.8517,-212.4557,312.6340,-452.6218,-2.8884,-148.0142,229.4374,120.6278
-3171.8750,73.9389,-27.9853,36.8994,-196.8235,50.7139,-113.6949,199.6587,-37.8605,29.3781,101.9359,44.5642,-133.2093,131.0668,-172.4794,204.1488,-338.6064,-37.2092,-41.4466,230.0103,87.3697
-3164.0625,206.9199,-68.9776,102.7104,-274.7015,79.8569,-157.8166,228.4503,-154.9197,352.0644,-162.2451,146.4978,-218.9798,195.4305,-252.1209,270.0591,-455.2052,60.8836,-153.4907,222.0002,80.5052
-3156.2500,124.9363,-114.9736,54.5415,-213.6042,69.0149,-93.9633,254.2547,-90.9953,156.7971,-62.4513,62.4484,-161.4714,134.1438,-188.7914,147.9934,-390.8411,14.9910,82.4359,246.0085,70.6383
-3148.4375,109.2229,-59.7208,40.6343,-158.2679,128.4337,-71.8663,276.3180,-31.8224,105.7684,-112.4020,84.6424,-123.0918,141.9788,-201.2225,97.1862,-440.2534,34.3552,32.6162,265.2848,21.0177
-3140.6250,118.6853,-120.3061,49.8914,-288.7869,176.0198,-169.6192,323.5393,-20.5102,336.9003,-65.2298,58.0014,-215.5107,156.4631,-263.5276,144.5403,-465.5519,-27.1106,41.9190,309.7243,-4.4586
-3132.8125,-23.9698,-50.0419,-96.9805,-183.4738,139.4722,-22.5425,323.6220,127.6324,78.9040,119.7799,-125.7793,-106.6875,67.8324,-188.0043,107.7590,-317.0342,-98.7110,147.0622,273.0264,-40.0884
-3125.0000,17.7014,-7.4659,-127.5374,-175.8587,109.2391,-52.1612,293.0066,98.0686,379.1734,17.0827,-82.2594,-127.5988,80.7539,-217.1972,187.2789,-309.2411,-91.9907,-56.4987,244.6425,-32.4246
-3117.1875,-10.7318,-36.0392,-159.2130,-133.4102,39.8787,-9.9560,223.2555,103.3215,273.3247,132.2018,-186.8616,-74.1109,7.5137,-101.5798,155.6700,-230.6384,-86.3880,-14.2433,250.1270,10.0825
-3109.3750,52.3108,28.8255,-93.4203,-70.5298,69.9900,20.6793,179.9757,97.0011,81.9303,-21.2330,-85.0023,-21.0792,27.3131,-71.5421,74.5278,-236.6118,47.6738,-126.5389,243.0827,4.0351
-3101.5625,137.7840,-25.9098,69.7886,-195.2665,86.5249,-146.2999,195.1198,-32.9334,318.9383,-187.2856,41.2782,-123.8288,96.9025,-127.1331,127.8043,-292.2219,133.1534,-146.4602,222.4539,-15.6200
-3093.7500,8.8918,-13.0531,48.6215,-76.4356,138.6758,-19.7093,173.8802,93.7103,-70.4081,-98.7559,-16.8240,-28.0112,62.2745,-74.1569,-4.2961,-202.2690,110.2433,7.2041,235.4483,-72.6792
-3085.9375,32.3148,-24.8867,110.7625,-88.3086,202.1421,-30.8185,199.9495,83.6508,28.5253,-255.9249,83.3714,-77.3460,145.5930,-157.8951,58.9070,-286.0381,238.6431,-144.8315,222.7618,-119.4475
-3078.1250,29.1680,-62.3178,146.3234,-90.8000,237.0285,-104.5424,198.4401,45.9695,-10.1063,-183.7188,80.9842,-94.1198,152.5734,-158.2664,56.5300,-250.4484,200.4641,-42.4961,219.4951,-156.8250
-3070.3125,110.4455,-15.3636,160.2988,26.0843,214.3330,20.1209,174.3506,96.6759,-254.3236,-133.1126,58.0011,-27.4146,119.5854,-143.2617,-3.4286,-199.4865,210.6897,-101.7580,159.6539,-215.8102
-3062.5000,280.4965,-55.6642,190.0339,-85.2956,208.4015,-96.4715,168.0311,-55.8687,70.1999,-211.7678,162.7792,-143.1330,170.7291,-222.5317,101.3772,-241.7989,204.6839,-212.2824,118.5843,-221.0580
-3054.6875,124.6878,-140.8790,101.8965,-28.6102,156.5939,0.0135,116.8305,39.6648,-166.1325,30.6560,36.6785,-112.1376,116.6941,-162.7282,86.3037,-72.0530,119.7913,19.2717,68.6349,-235.2168
-3046.8750,100.6470,-93.3511,77.5212,-17.1878,132.5489,49.2491,92.3992,52.9497,-6.7365,-103.1673,86.3221,-114.4637,151.6563,-186.1893,171.9857,-95.5831,130.6582,-74.4158,-26.5442,-258.6369
-3039.0625,83.6446,-110.8212,95.1682,1.2201,150.5225,-42.5238,109.9823,-75.7884,121.6835,-159.0241,103.9893,-138.3243,189.1500,-204.6822,263.6877,-77.1564,148.5514,-56.1294,-78.7118,-240.0703
-3031.2500,33.0246,-53.9415,115.1931,127.9650,134.8627,51.0353,55.9281,-92.2057,-153.5320,-138.5509,13.0246,-25.9402,107.6637,-110.8553,136.7577,90.5827,168.8156,-0.4986,-128.5159,-219.1656
-3023.4375,149.3325,-44.1560,160.1413,67.6070,143.1264,-87.5131,26.7860,-230.7375,149.1354,-240.1907,94.9771,-80.5820,101.7350,-138.1596,107.7338,136.1913,179.0034,-130.9816,-119.4039,-173.3742
-3015.6250,107.4790,-49.5758,77.9168,27.0203,61.2100,-21.2920,-17.5319,-127.4995,-43.3479,-64.0548,-23.2452,-22.7356,-8.1698,1.2972,-10.4608,239.5537,102.0111,4.3143,-54.4719,-143.7963
-3007.8125,121.8866,0.2436,55.9530,5.6716,39.5583,-6.8256,-3.5802,-76.0153,7.4131,-122.6554,27.7797,-39.4196,9.8022,-57.0130,3.6038,254.1385,116.2727,-122.1287,-5.2674,-128.9874
-3000.0000,137.3668,-53.8898,69.0584,-119.6457,15.9761,-140.3129,46.4423,-173.4879,278.2431,-72.2298,3.8717,-111.9261,10.6521,-43.3007,90.7404,267.7349,61.5998,-142.5463,10.0032,-78.1470
-2992.1875,25.5818,-59.3399,-49.1157,-54.2913,-28.8855,-0.1177,1.1871,-33.2812,11.8054,66.8812,-114.3215,-41.3704,-65.3894,23.0775,8.6006,443.9904,-15.3635,-7.2685,38.9989,-48.6203
-2984.3750,27.1146,-93.4940,-84.9788,-123.6525,-27.4243,-72.6225,2.2569,-31.7774,270.6523,-41.7122,-76.2055,-106.8340,-35.9575,-12.2684,83.7712,445.5152,-14.0158,-146.6932,75.3179,-46.8094
-2976.5625,-52.3206,-206.6602,-168.8199,-168.0447,-72.9404,-45.1466,29.3556,68.7040,186.5456,132.6627,-123.0689,-121.1744,-74.8883,51.3535,36.9636,509.9935,-128.6463,-50.1350,135.6604,-56.0150
-2968.7500,-123.3929,-173.4966,-205.2969,-134.1033,-36.0919,28.6753,102.8258,106.5286,112.7852,22.3871,-49.5851,-104.7535,-25.1463,15.3129,37.5202,473.7947,-94.9163,-121.2182,134.3796,-91.8874
-2960.9375,-38.4444,-228.3339,-114.7624,-189.1774,17.7763,-101.5011,156.3231,-24.6560,350.0384,-70.9068,40.9086,-182.8035,49.6543,-40.7583,127.0885,343.5667,-80.1638,-177.3209,114.1196,-111.7795
-2953.1250,-122.1614,-171.8878,-92.9100,-61.9786,40.9631,-5.4000,142.1427,35.4380,4.6357,25.0920,-47.2888,-71.9232,-4.6469,18.4312,2.9832,402.6090,-59.1006,-15.1362,65.1835,-125.3847
-2945.3125,-26.9165,-146.4975,6.8989,-107.8386,103.1149,-16.3515,130.9314,-49.5197,66.1618,-132.9541,88.4611,-110.1614,68.2681,-29.4486,28.8393,318.5837,35.9232,-130.9951,19.2177,-136.0569
-2937.5000,-57.0433,-211.5113,12.3317,-137.1199,108.8838,-10.7226,99.3377,-43.8997,-75.6688,-17.4273,20.8417,-110.0767,41.8495,13.2391,-2.6794,324.1166,-28.4331,50.7212,59.8632,-130.1478
-2929.6875,-106.3049,-154.6883,-39.3632,-46.5704,94.5217,121.7427,84.6139,89.5542,-274.6384,4.9481,6.0898,-24.6374,19.5252,72.7546,-54.3281,345.4601,-78.9323,36.2912,10.3758,-144.4055
-2921.8750,-97.0994,-181.4150,-30.5831,-107.5838,30.6352,-16.3486,93.3632,-12.5511,64.8446,-60.2442,51.8081,-105.3746,49.7124,7.6852,64.4843,318.2173,-69.9610,-60.7011,54.3504,-135.2312
-2914.0625,-244.9704,-188.2572,-74.8787,-9.7254,-13.3300,50.4338,86.0388,91.2107,-162.7238,116.4416,-29.5496,-29.0573,8.4395,74.4847,21.2269,346.8379,-112.0734,73.1942,82.2402,-142.1756
-2906.2500,-119.7785,-133.0600,19.8860,-25.8254,43.7733,34.2643,106.7849,1.0106,-69.2535,-46.8271,101.1446,-61.4921,63.8543,-15.6799,5.0316,220.4857,12.8741,-83.8565,31.1962,-158.0913
-2898.4375,-68.0577,-187.3759,36.1743,-79.4467,24.3970,-60.4202,86.0570,-56.7152,56.7498,43.3784,44.3697,-96.6986,34.9863,0.6203,21.3620,199.5972,-40.6558,38.5576,47.6665,-141.5267
-2890.6250,-150.1637,-199.5678,-87.3699,-21.9485,48.1889,111.0323,110.5037,78.6935,-176.0727,103.7337,-116.2453,-24.8748,-37.0828,62.0454,-65.1334,297.8212,-53.0296,131.1259,70.3103,-153.8298
-2882.8125,-124.8520,-209.3654,-99.4976,-102.0634,37.3939,62.8904,98.3699,29.5051,142.4968,18.4843,-54.4555,-80.6239,1.8375,49.8487,33.7745,211.4227,-27.9916,16.0937,60.3727,-128.7555
-2875.0000,-200.7105,-144.3744,-142.8035,-2.4084,-43.5829,92.5327,55.0575,96.1025,-86.0932,158.0128,-171.8518,13.8813,-71.9294,116.4243,-10.4970,240.7881,-34.1403,115.8444,90.2590,-98.9025
-2867.1875,-110.8595,-19.6964,-51.4009,15.9303,-61.8467,73.8737,36.4689,77.4041,-67.9906,29.2531,-79.5511,30.0743,-50.7111,60.6828,-29.0573,148.8323,90.4114,-76.6972,73.8679,-80.3682
-2859.3750,-48.1406,-62.1801,12.8654,-26.9068,-70.2464,-82.9426,26.7557,-5.4536,106.9912,19.3263,-52.3826,-28.8074,-37.2569,14.7648,-1.7431,101.6881,82.8300,-49.4126,136.3471,-53.0011
-2851.5625,-117.1575,-26.4324,-23.6041,78.4812,-69.3854,64.4732,27.3148,104.9265,-224.7428,167.6490,-162.9574,81.6743,-128.6085,88.0753,-185.1536,138.7643,83.5009,56.1213,137.0974,-52.4004
-2843.7500,-4.4681,16.0040,20.6331,15.5592,-25.8137,-38.4051,34.5928,2.0070,3.2155,-9.3239,-44.8250,26.5516,-72.7385,22.0613,-140.8541,71.5239,125.8852,-41.6486,109.5651,-45.1194
-2835.9375,-13.4080,41.7719,9.2462,40.9557,-35.8735,-12.9580,-49.7523,27.4151,-228.4177,126.0310,-130.3159,60.7276,-110.7796,47.3615,-152.1787,170.5944,45.6405,124.9057,65.4004,-19.5079
-2828.1250,38.6065,164.4702,62.8268,92.2921,-55.9698,40.4296,-70.1252,6.7620,-395.0969,32.3367,-39.8464,119.9837,-89.9174,63.5953,-172.5400,149.5912,98.3547,35.4168,-23.7978,-2.9666
-2820.3125,139.0325,87.5640,91.8252,-19.9806,-63.6480,-114.7877,-78.0789,-111.5051,-147.3598,-12.9792,62.0420,24.5610,-32.9602,55.2022,-69.4795,67.9540,91.4855,-5.6866,-29.5901,25.9515
-2812.5000,52.2765,71.4380,75.6408,34.5188,-79.5091,-58.2219,-57.2067,-17.9946,-419.7833,117.4947,9.7448,80.2549,-72.2903,111.5818,-159.5902,124.0864,40.4212,118.0101,-45.5701,9.6496
-2804.6875,116.7724,64.5488,107.7112,-78.7451,-11.1079,-100.3999,-26.0628,-60.2291,-131.9725,-71.7683,187.6919,-22.8204,44.8769,-3.8000,-53.4459,-28.5415,69.6071,5.9679,-52.2772,-32.4227
-2796.8750,66.1336,-21.5118,93.6430,-94.1912,12.1586,-77.7413,-3.0401,-1.6246,-109.2618,60.8004,136.5096,-51.4303,48.2224,-18.3629,-31.4281,-43.3491,-52.3429,165.7567,-68.1123,-83.6658
-2789.0625,72.5952,55.5066,64.6828,-18.5578,20.5409,3.0124,-31.8959,80.0740,-212.4390,68.4754,107.4253,-23.2268,58.2789,-84.8363,13.7061,-36.0735,-116.1931,136.6533,-131.8283,-112.8289
-2781.2500,173.7086,15.1673,21.3826,-93.2812,-22.4168,-113.5820,-1.0817,-36.5806,149.0403,61.7901,138.0027,-112.1682,97.6125,-128.6786,191.5011,-80.1690,-191.3806,26.1881,-135.8809,-82.3634
-2773.4375,80.3342,61.3090,-114.4002,-12.5332,-120.8572,7.3022,-26.7401,84.2425,-60.9310,256.5943,-70.9047,2.7651,-40.5413,-7.0474,92.8180,4.2070,-250.0594,143.2146,-89.4128,-71.4153
-2765.6250,209.9593,191.4382,-127.1744,11.2079,-133.2891,-4.8085,-39.3759,34.0660,111.0881,96.4193,-46.8171,34.5701,-59.9385,-20.4350,80.1366,-83.4299,-155.7341,-43.7451,-99.9323,-47.4853
-2757.8125,334.6014,244.5544,-110.9293,-6.0766,-189.7055,-62.9335,-58.9897,-23.1216,164.1514,112.2222,-104.7079,65.3935,-144.5671,32.1429,-13.5245,-68.0948,-172.3869,9.2754,-81.4365,5.4264
-2750.0000,420.4039,365.8018,-58.5131,43.7727,-209.9630,26.0791,-117.4338,-8.1763,-115.6123,127.1743,-126.4413,139.1427,-204.2863,46.8579,-146.0218,20.3683,-121.8848,24.4427,-136.7778,20.4718
-2742.1875,731.3138,499.1425,45.0135,-34.2853,-253.1107,-127.8040,-160.7652,-125.1350,135.7209,-26.7766,14.9339,89.4366,-195.1708,-34.3419,-152.4120,-61.0884,-57.2697,-123.3035,-178.0053,13.5985
-2734.3750,849.8436,617.0640,59.1525,48.2335,-312.6505,-41.1109,-255.4740,-75.5141,-182.2924,96.8566,-82.0685,213.6246,-304.5797,89.0308,-284.1775,-10.9736,-116.0468,-40.4679,-234.6207,-9.6910
-2726.5625,1040.0685,806.6678,74.9978,61.4425,-333.4808,-62.7164,-313.4622,-134.1962,-166.6159,-34.7966,6.6264,243.0659,-300.0056,67.0902,-268.2321,-33.1690,-31.1257,-272.9190,-326.5189,-31.2982
-2718.7500,1148.7974,809.7559,76.3511,-5.8674,-367.7962,-170.8258,-348.9285,-279.3828,18.5946,-33.9650,8.8434,190.2894,-313.0075,31.6232,-229.7702,-32.8914,-62.6940,-199.8807,-322.9057,6.5752
-2710.9375,1090.9769,856.2651,51.1635,110.2482,-319.6493,-50.4953,-409.9173,-231.1295,-299.7129,14.3189,-53.4814,257.0277,-329.8289,5.5897,-291.8367,14.8117,-15.8189,-83.3825,-345.8261,17.8810
-2703.1250,1199.2932,857.9070,90.1283,76.5060,-317.3427,-122.0036,-370.7353,-339.7191,-40.8760,-167.2430,22.3455,201.0390,-279.3643,-67.3003,-215.7458,-94.3422,56.2079,-150.7340,-378.5829,19.3172
-2695.3125,1085.1151,779.0222,44.6045,137.2316,-325.5294,-58.0221,-379.0313,-275.8192,-232.4848,-30.3223,-97.3131,257.9375,-328.8544,34.2973,-261.1310,-31.0202,-22.2550,50.3978,-316.8212,10.2354
-2687.5000,946.5225,710.7138,11.6831,139.5469,-247.1107,19.5641,-264.7063,-198.3105,-229.4986,-137.7885,-56.3815,253.5766,-257.4160,37.4983,-220.9126,-138.1068,-20.1237,-17.8543,-279.4382,-23.2648
-2679.6875,782.8275,475.2942,23.6658,9.7469,-198.7847,-79.9461,-180.4545,-223.8982,76.4118,-198.3622,28.4576,100.2471,-139.6501,-25.4216,-61.7812,-163.3106,-43.0852,-6.2213,-231.1394,-11.8849
-2671.8750,381.5322,320.2478,-26.9412,64.3235,-140.0531,88.9266,-120.7775,-93.0948,-232.2354,-104.5329,-59.2935,133.8771,-115.8951,33.0366,-76.2306,-33.1206,-22.6484,154.8106,-141.4263,-27.1180
-2664.0625,190.5739,128.5423,30.8030,-21.7554,-7.9675,36.1549,-25.7382,-108.9315,46.4583,-303.3355,109.3025,3.3333,52.6399,-57.1618,55.6723,-159.5789,68.1354,33.1982,-85.3537,-43.0148
-2656.2500,-66.3287,-95.1287,56.6067,-33.8068,55.1688,61.4165,37.3679,-83.7302,-1.7442,-169.0919,60.9656,-28.2931,88.9599,4.6731,81.6436,-136.0071,20.9780,162.6127,8.7787,-54.8738
-2648.4375,-250.3867,-139.9682,10.2663,25.9814,120.1561,125.5240,65.3370,16.3219,-158.0888,-141.9776,88.4768,-2.9138,126.7527,30.3505,72.4720,-72.5921,11.6649,117.8847,-0.2322,-64.8940
-2640.6250,-335.5546,-294.9188,28.8354,-130.3368,176.0474,-3.4762,84.2226,-75.7290,155.4820,-86.9656,143.9054,-161.9894,203.3471,-62.0911,201.2147,-18.2870,-2.7432,102.0456,-14.3408,-10.0250
-2632.8125,-551.1735,-335.3394,-13.0379,-30.1271,170.4912,100.0525,78.6766,-8.2496,-145.3483,127.5929,27.8997,-71.3822,135.2063,41.9977,85.5318,85.5535,-41.5981,273.7514,-17.8953,20.3822
-2625.0000,-593.0059,-306.9730,16.8877,-2.1175,200.7402,92.3831,108.9522,-52.9708,31.6075,-27.0368,130.6936,-78.4216,178.4714,-3.1176,78.6570,3.1953,91.3456,125.2593,-59.6394,12.5737
-2617.1875,-576.0815,-396.8750,106.5759,-22.3739,180.7499,35.4525,88.9972,-73.9557,48.3594,63.0706,110.2545,-108.4094,163.3294,12.5000,58.5457,18.5718,73.0508,141.4914,-7.6250,28.5018
-2609.3750,-580.8673,-367.5077,101.5708,42.6528,176.0611,102.8210,84.3598,-5.6438,-103.5750,57.4949,105.1151,-40.9289,136.1060,80.4154,-19.2575,12.2478,103.0474,66.0299,22.7037,22.7196
-2601.5625,-408.0213,-441.5102,135.2146,-102.6795,173.0232,-48.1493,118.3860,-46.6692,261.1385,-57.4288,138.6256,-179.9763,177.4546,-35.0129,87.5930,-66.4254,135.6964,-43.7860,89.6890,18.5739
-2593.7500,-502.6325,-431.9892,36.4149,12.5149,74.5362,37.4268,130.9754,74.8493,15.4545,101.1922,-33.3104,-93.9743,66.8663,13.1046,-9.9872,91.4374,74.8975,142.9402,101.2345,-7.0349
-2585.9375,-485.2706,-274.4878,18.6136,63.7087,20.0495,92.0149,76.5697,130.3856,108.7527,9.8315,-14.2549,-29.5458,63.7704,31.2342,45.4320,-0.6897,57.0931,-16.3153,47.7823,-25.6561
-2578.1250,-505.9654,-296.0457,-42.2294,41.8475,-40.4847,67.5566,16.1170,68.8773,268.0240,94.4147,-39.2401,-33.8603,26.5082,79.3099,57.8027,-26.8725,1.2464,67.3667,27.2806,22.6592
-2570.3125,-641.2197,-186.1727,-111.6169,186.4256,-145.5733,217.5456,-90.8819,181.8222,51.7657,245.4669,-144.7805,113.5283,-93.3964,191.8374,-85.3743,86.3947,-29.1600,142.5062,-1.7660,62.4128
-2562.5000,-582.3383,-198.1615,-14.8536,139.1508,-195.5132,93.6932,-138.7164,94.9279,406.6497,157.6723,-49.1691,30.7556,-62.1986,104.5133,-24.4001,71.8164,65.5841,-45.2156,22.3492,85.3048
-2554.6875,-572.5562,-295.2765,31.8264,112.7552,-185.5430,28.7152,-92.6250,103.9102,232.4923,240.7582,-39.6364,2.6685,-61.0421,113.0690,-87.5012,117.1202,110.2404,-1.0595,137.3726,94.0898
-2546.8750,-441.9461,-306.5601,168.3570,30.2079,-85.7206,-19.4114,7.3266,18.7425,259.1812,8.7095,133.7405,-83.6993,65.9683,-9.5256,-24.7511,-5.7200,205.7399,-187.0384,162.2501,82.7184
-2539.0625,-349.7447,-390.2480,192.4832,-123.7415,-25.3013,-141.9373,68.8868,-67.8261,466.4884,-77.7400,194.7298,-196.0218,135.7571,-59.5325,73.6064,-91.9583,192.8429,-130.4326,149.7267,68.9401
-2531.2500,-476.9015,-307.3003,61.2595,-6.0526,-8.2345,20.1731,85.1061,94.2479,78.4760,48.4725,63.3744,-48.4230,66.3495,66.1033,-20.3780,-41.5470,64.5886,57.8196,128.8564,10.8064
-2523.4375,-404.1305,-235.4115,28.9794,-39.4123,32.7772,-12.7589,127.2857,61.2821,267.3990,-132.3470,104.9720,-77.0728,124.4509,-4.3117,94.5891,-184.1795,103.2747,-44.9761,96.9406,-22.3844
-2515.6250,-482.9104,-315.0894,-15.8471,-14.3397,61.2400,50.7423,118.9317,88.7561,111.8258,-30.7268,59.0328,-67.9050,139.2195,22.7101,123.0257,-231.3684,23.4072,121.6605,123.4815,-32.1290
-2507.8125,-498.9600,-297.0412,-31.9276,38.4771,119.4498,144.9965,103.3324,145.9899,-14.9978,-47.3272,79.8259,-32.0519,157.6497,41.4926,107.2126,-211.7968,7.2788,69.0672,72.7754,-49.1265
-2500.0000,-431.4739,-371.4533,-36.4600,-106.1553,115.2051,29.8103,136.2858,103.7822,312.7378,-52.3805,75.1689,-143.2630,189.7748,-0.1725,249.9477,-180.6655,-101.2976,31.0164,69.6203,-17.5816
-2492.1875,-521.6971,-391.5888,-168.6852,-91.5073,56.2570,152.9122,150.5506,227.8698,32.8153,107.8688,-58.1789,-61.9860,105.5510,159.4592,190.9940,-22.2378,-260.5741,116.2598,85.7711,32.2576
-2484.3750,-433.0467,-339.8456,-153.0092,-144.9583,109.2069,94.9273,166.7205,132.8698,195.7739,-95.9616,68.3644,-104.3890,173.4799,101.0056,243.9334,-79.8957,-207.9566,-7.5857,33.8256,83.9936
-2476.5625,-387.9056,-295.6137,-105.8259,-135.9200,82.6532,67.4393,140.3936,68.3699,96.2702,-86.3000,41.4248,-62.4959,135.0384,147.0507,180.3682,-108.0553,-197.8354,178.0527,8.3823,93.2256
-2468.7500,-369.0822,-136.7007,-120.9436,57.8186,68.7874,199.6516,89.7650,126.5816,-174.5316,-137.9197,-9.8218,82.3034,60.0825,167.8060,19.4934,-87.5049,-109.0222,232.4079,-42.3562,41.1537
-2460.9375,-268.2328,-142.7435,-16.0147,16.6209,99.9725,46.9279,122.1898,10.8530,113.7082,-254.4879,58.9800,-3.6135,123.5033,51.6124,124.6641,-129.9037,-79.1508,120.8132,-47.0459,35.1224
-2453.1250,-304.3512,-144.7542,-54.0330,49.4752,99.2070,82.2480,121.6739,83.1676,-107.9578,-109.0059,-53.1673,24.2771,80.4335,49.4573,86.8941,-60.2566,-80.2299,225.2637,23.3152,33.1346
-2445.3125,-248.6024,-54.8784,-31.1600,34.2473,122.3330,67.4814,145.0671,68.3952,26.2621,-233.5961,-30.4255,33.9662,92.3681,34.2029,110.0179,-111.6972,-23.4242,69.6248,44.5808,18.0411
-2437.5000,-200.6693,-111.8132,-18.0856,-24.7890,62.6569,5.9119,121.6679,43.8272,149.7169,-146.9865,-54.4687,-5.7279,51.4763,46.1408,86.3456,-99.9339,-46.4200,82.1621,93.0460,30.1452
-2429.6875,-218.8055,-61.8190,-38.0639,62.1092,42.9206,96.2854,102.2218,133.2137,-90.8592,-58.4076,-74.5626,62.1863,-0.4132,62.0405,-43.3733,-48.2044,-64.4824,63.6552,75.4642,46.2010
-2421.8750,-53.4623,-2.3317,24.4462,-19.4901,31.6767,-62.8293,55.2735,-25.8842,193.0552,-179.3180,98.8378,-37.3778,71.1681,-60.5442,56.4063,-95.9592,31.9486,-122.3578,-4.6234,70.7584
-2414.0625,-75.8268,43.4394,36.2538,132.1966,6.7265,21.3462,-43.3721,-14.6879,-124.6843,-130.9391,-0.4543,74.9742,12.5905,23.1731,-5.4990,-49.4078,43.6746,28.9097,-96.4117,81.6193
-2406.2500,-54.3240,136.0924,60.9521,188.7896,68.6673,82.4250,-127.1140,-63.5804,-210.5423,-290.6306,98.1389,125.6259,52.1315,46.8063,-17.5072,-98.9286,136.2891,-53.9076,-179.2998,68.3821
-2398.4375,-32.2378,52.3364,85.2504,104.9795,93.2042,32.1050,-139.2511,-112.8677,-76.7833,-230.7298,121.3421,57.3011,68.3048,33.0455,7.0868,-112.8429,53.5008,-32.1415,-156.5903,54.7448
-2390.6250,-86.9211,66.8078,28.7956,119.4104,109.9802,159.0293,-86.1329,13.0975,-314.7485,-139.5703,-8.2056,116.4382,18.3217,86.5461,-49.0624,-61.5031,-1.0469,53.8774,-139.6290,34.3588
-2382.8125,75.7650,87.6682,50.7301,35.2549,96.1415,33.3680,-99.6171,-75.5108,0.6653,-301.9895,87.6384,40.1613,61.8517,33.4670,47.1761,-112.7429,90.7999,-135.6971,-153.2733,55.3673
-2375.0000,57.5912,68.6738,67.8176,86.2473,39.4478,49.8541,-154.9523,-58.9674,-127.7358,-138.2666,-6.3624,72.1193,-15.0924,49.5373,-46.4345,-24.8290,37.7967,20.8686,-99.7753,71.5228
-2367.1875,49.2996,129.5710,61.8034,147.1561,33.6482,80.2407,-124.3932,7.4812,-207.2534,-144.6209,97.5259,97.1310,-1.4229,5.5145,-125.1528,4.9998,29.6858,-22.6535,-108.3821,27.5790
-2359.3750,74.7957,49.2655,88.5889,-3.1202,61.6481,-40.5703,-60.0314,-76.2710,114.0289,-154.1819,162.2200,-16.9784,54.0222,-41.7111,-24.0737,-42.3623,-50.6203,-102.3840,-47.2001,17.4377
-2351.5625,-75.7224,3.9372,6.3720,21.5984,52.6372,60.6110,5.3309,61.9735,-151.6562,19.2635,42.9138,43.8479,9.3533,59.0700,-69.9840,21.2791,-129.9346,28.8863,-20.0166,7.3014
-2343.7500,-17.3270,-9.4450,31.0910,-26.7228,76.5656,-26.2378,30.6432,49.1925,56.5862,-140.3189,177.5419,-12.4402,71.0622,8.8162,-44.9532,-66.1064,-36.3147,-89.8815,3.1145,-5.8835
-2335.9375,-15.1470,-44.0318,33.6020,-25.2495,43.2857,-24.2913,-3.2383,51.2115,-50.3332,8.8887,68.9798,-8.5278,17.1528,10.3648,-79.1133,-64.6849,-69.9008,53.1357,76.0378,-4.2639
-2328.1250,-51.2805,25.0683,-2.1933,42.9169,43.6916,86.3449,-1.4160,124.9326,-231.5363,45.8153,33.1061,48.9547,-2.2099,10.6260,-114.5781,-27.5506,-34.8060,51.8693,40.6624,-40.9372
-2320.3125,29.4081,-34.9759,8.8475,-17.0435,54.9368,-13.1402,10.2481,25.5253,110.0682,-16.3930,44.0668,-35.6958,36.2899,-53.2424,7.7907,-128.5410,-23.8691,-7.5457,52.1269,-30.7570
-2312.5000,-79.8639,-3.9877,-105.0622,120.0311,-20.7806,130.4047,7.9593,132.1609,-186.2090,164.4348,-142.9049,78.8997,-81.1744,16.9426,-105.7779,-21.4770,-61.8843,130.0670,84.6331,-34.5165
-2304.6875,-19.7219,54.4372,-78.5374,108.5707,-31.0605,119.4073,34.1136,84.2628,-12.0693,6.7496,-116.4437,77.4641,-73.9204,5.6013,-78.9034,-69.9385,67.5262,-56.8406,74.5847,-45.8189
-2296.8750,9.7567,13.2179,-83.6625,66.4683,-35.9990,76.7598,29.6187,41.7120,56.4299,74.4050,-158.6220,40.7998,-71.4304,-0.3892,-9.6778,-76.0482,27.2959,7.5832,69.8811,-51.7711
-2289.0625,-50.8273,56.9293,-71.8375,181.3095,-23.9926,198.0507,-30.9262,127.1086,-225.0961,123.0167,-146.8477,120.7000,-78.7598,46.5753,-71.4972,7.8057,36.9986,16.9645,-24.8814,-77.7687
-2281.2500,84.5030,51.5894,31.9292,70.1275,6.9503,44.3181,-73.5334,10.4791,63.2583,79.6031,30.8669,-0.3233,-0.3425,-70.4861,-3.3861,-72.3542,67.6413,-163.6865,-99.7111,-47.8122
-2273.4375,29.9779,31.3992,-27.1506,85.1005,-15.9588,58.7276,-131.9993,96.9886,-178.1869,277.3175,-65.2513,44.1594,-63.4231,16.5918,-63.1095,51.6297,-57.5570,-43.2064,-48.4118,2.2990
-2265.6250,78.6261,114.4064,21.9620,28.2986,-3.6770,-3.6468,-118.2775,72.7035,-128.4590,142.2533,20.8100,45.3578,-46.3838,27.8874,-86.6439,62.8238,-8.5682,-204.4963,-33.9255,50.6160
-2257.8125,129.2169,58.3807,-0.9784,-27.5274,-25.4534,-136.0546,-103.6214,12.3786,69.2036,157.1262,-2.1831,-14.4668,-51.3389,4.1477,-35.2425,75.9830,-27.6265,-153.8574,-17.5093,100.8898
-2250.0000,59.8499,95.3850,1.1229,79.6851,-23.1970,-60.4238,-100.9288,51.1088,-185.0389,195.0583,-72.1283,67.7599,-88.0865,42.4715,-105.7872,114.2101,-25.6553,-82.1755,-49.0421,102.2275
-2242.1875,102.8408,101.7830,45.5955,15.3108,20.4446,-164.3669,-55.8398,-87.7262,154.0689,18.4328,44.3037,-14.0012,0.3014,-59.7767,11.0551,-26.1306,51.6906,-180.0760,-77.1720,108.9778
-2234.3750,40.6814,74.0185,54.9173,23.7751,29.9339,-155.4755,-45.8999,-78.7182,16.0781,138.6347,-19.3973,0.6840,-31.9172,-51.1768,-51.2377,18.3847,-9.1121,-30.1636,-31.4557,117.5921
-2226.5625,82.6805,150.4264,26.4290,65.4343,38.6077,-73.3894,-73.7689,-70.4916,-11.7140,73.0742,-11.9139,43.2263,-44.3126,-44.3532,-79.3328,-10.8567,32.2596,-95.0298,-59.5447,88.4270
-2218.7500,152.1407,43.3390,26.4251,-41.3944,38.7681,-184.7910,-1.1452,-144.7443,283.9715,-0.9735,25.0640,-58.2438,3.2138,-81.0071,30.0565,-47.5639,-2.8776,-95.4103,-25.1412,87.7771
-2210.9375,20.4918,17.1449,-71.6793,2.6664,-23.1929,-27.3156,11.3668,12.8923,1.6228,157.8830,-109.0522,9.7415,-52.8936,2.2456,5.3529,36.6392,-97.1204,55.0912,20.1541,62.0425
-2203.1250,109.7628,-0.0929,-51.8411,-49.2946,-2.2208,-79.8772,69.8100,-40.5074,281.1740,31.7259,-53.2389,-60.5122,-10.8592,-87.5245,63.5725,-54.1689,-44.4253,-67.4371,40.3885,45.2705
-2195.3125,67.5365,-42.8216,-94.4999,14.2640,-45.7550,-50.9426,26.7408,26.5821,238.2472,209.0337,-168.9126,-36.2388,-99.1101,-94.7998,-53.7090,12.5213,-51.2063,136.5126,104.1030,38.0099
-2187.5000,-0.1934,64.9528,-90.6583,121.3434,-77.7983,27.4935,32.1561,104.1621,59.8120,250.8465,-201.1031,48.5065,-134.4032,-91.5597,-121.5059,16.7228,22.5079,68.9859,107.3059,5.2583
-2179.6875,2.5157,32.2065,-50.3743,18.9161,-74.3967,-80.5960,36.0057,34.2019,394.7714,254.1142,-160.8568,-30.2175,-107.8573,-124.8579,-44.8800,-17.6143,-9.3216,-34.0861,145.9429,7.9581
-2171.8750,-107.6146,27.6162,-162.9297,49.6361,-113.8482,26.4446,33.0029,177.3760,96.9277,434.5070,-275.4480,38.9804,-167.6138,-19.0119,-85.0908,88.1926,-84.0001,67.9690,142.7159,3.8154
-2164.0625,-52.7772,47.0225,-141.5044,-35.6264,-92.3129,-25.4986,18.9986,125.5784,304.0427,308.9384,-143.0641,-29.8573,-92.4355,-71.1398,11.6825,37.0182,7.2905,-122.9417,128.4908,-11.3218
-2156.2500,-36.9560,-43.5732,-125.0858,-90.8853,-111.7823,-119.4400,35.9974,104.7980,321.1789,399.3628,-162.6657,-73.1633,-110.7585,-55.2633,-8.5479,88.8480,-47.4195,-36.8808,181.2570,4.5437
-2148.4375,-83.2372,15.7169,-135.7642,3.7469,-86.3622,-20.4891,25.8895,167.9179,54.2262,351.6978,-137.3700,14.1020,-117.1731,7.5351,-92.8841,114.5800,-22.2425,-47.9127,99.9203,-6.6819
-2140.6250,77.1232,-0.3334,-42.7960,-82.9451,-66.3014,-146.8675,46.4141,40.7125,294.8659,150.6904,-7.4339,-82.7823,-39.3859,-83.9932,1.4062,60.9891,-2.4129,-168.2973,50.2132,12.7489
-2132.8125,26.9506,-16.9361,-59.3710,7.8114,-81.7934,-54.8155,-6.6189,60.9375,-14.9992,245.1044,-97.0277,-3.5042,-86.2022,9.9155,-51.8440,153.8582,-53.1240,-8.2582,35.9454,32.6389
-2125.0000,35.6095,62.3107,-50.1112,-19.5598,0.5549,-81.9008,3.1759,-3.9672,-5.0690,70.4027,-14.8043,-6.5591,-37.8946,-18.3027,-42.2567,125.6040,26.9956,-103.3276,-25.4785,41.3892
-2117.1875,0.6599,-8.0187,-48.4644,-88.5141,2.2922,-116.5638,5.3583,-39.4535,108.2392,109.0984,-13.1844,-56.6118,-11.8927,-17.1035,33.7204,126.7592,-77.4836,-33.0128,11.4820,42.5444
-2109.3750,-88.2293,8.7001,-138.7656,-1.4239,-15.9285,84.8024,-12.4186,90.0967,-166.3714,163.8445,-68.5031,38.2034,-61.2041,75.1469,-58.2439,218.9615,-129.9229,19.3396,-6.5159,23.7659
-2101.5625,32.0725,-13.3691,-87.8665,-58.1075,-37.9627,-11.6195,2.9816,30.8626,106.1541,31.8008,20.3650,-18.9047,-25.8934,52.6160,-6.0244,122.3942,-46.1697,-142.0959,8.6687,38.2058
-2093.7500,-14.0175,-58.8278,-62.3652,-68.1855,-48.4123,-23.4624,-8.0320,56.2184,-87.6824,204.3299,-64.1475,-10.8888,-63.0048,77.6823,-53.1960,184.4355,-89.8115,59.0414,34.4334,63.2620
-2085.9375,6.0662,-39.0881,-40.6744,-83.0407,-26.6747,-1.1010,52.1355,78.7784,-101.3404,117.0961,-5.4841,-45.4781,-4.4698,-11.0365,5.8207,206.7037,-70.2678,-26.5946,20.3949,48.5297
-2078.1250,37.4906,-112.9798,-44.6466,-192.5180,6.4054,-114.3720,85.6467,-36.2986,115.3228,113.2036,27.5260,-137.8682,30.4891,-52.3890,76.1772,202.3188,-108.3725,4.1033,52.6895,44.1562
-2070.3125,-94.2739,-105.0735,-105.8114,-78.1994,-18.7169,6.1404,97.9524,86.4146,-203.1797,235.0917,-71.6471,-40.9141,-20.2526,33.0601,14.3362,323.7279,-169.6853,84.5860,62.7686,18.6004
-2062.5000,-28.8479,-109.9528,-109.7870,-151.6582,14.3440,-72.1238,130.4308,8.3504,87.4439,84.2036,35.3668,-125.6937,64.8307,-45.2685,157.6756,246.3629,-137.8166,-95.7087,24.0329,14.2594
-2054.6875,-86.7169,-168.1149,-170.0583,-139.4175,-9.9045,-59.6961,107.5925,57.9887,-10.2065,243.9919,-62.9015,-96.1778,14.7931,41.1012,133.7180,258.6960,-231.2409,57.6703,36.9816,26.6289
-2046.8750,-95.9511,-107.6303,-178.6858,-79.5111,18.4850,42.3824,62.3886,159.2768,-127.2187,124.4503,-71.5319,-31.3322,-3.7901,69.1321,52.4070,249.6938,-134.0256,13.7153,28.5699,17.6603
-2039.0625,39.6055,-113.3243,-74.5211,-119.7795,50.6689,-73.7280,57.9713,7.3825,124.5200,9.7114,-2.3683,-95.0489,31.8819,-10.0235,84.8759,133.5123,-70.0109,-62.4440,58.9419,12.4980
-2031.2500,-81.3111,-128.5133,-88.8468,6.4380,-0.6551,22.6351,81.0457,102.9718,-145.1920,105.4530,-126.6857,-9.8695,-23.3467,49.3121,33.8568,229.8332,-84.5024,28.8751,79.8028,-2.1527
-2023.4375,-25.0335,-37.4931,-66.9859,-7.1246,-15.7907,-29.7894,66.3002,14.7755,97.2361,-19.5788,-68.8193,-30.1361,-5.6809,-3.1338,93.0151,214.3876,-27.8110,-160.5789,-4.1401,19.4082
-2015.6250,-95.5904,-108.3070,-68.9744,-9.5264,-90.7857,-69.0723,-10.3018,48.7265,94.8258,88.5141,-143.7855,-12.7330,-55.7618,104.5754,90.3145,248.0887,-63.9548,-56.9131,-4.9425,53.1292
-2007.8125,-233.4452,-71.4222,-65.2691,64.7800,-161.0971,44.3410,-78.2136,126.3754,-47.8764,165.3207,-140.0722,46.3127,-77.4046,143.9983,57.3134,324.4986,-25.4087,-123.5246,-1.0574,56.5608
-2000.0000,-103.5666,-151.7554,-3.8396,-85.1080,-98.6828,-113.4572,-16.4055,-32.1938,309.1083,6.8979,-5.6377,-102.5895,31.9086,22.1840,193.0301,165.6896,70.8879,-238.3640,59.5568,81.7449
-1992.1875,-98.2760,-146.6769,1.9969,-79.5905,-55.8755,-107.8738,25.7933,9.6198,94.5435,86.8462,-71.7874,-59.3927,-6.2596,64.7564,89.1586,135.2778,40.5984,-92.8393,101.5628,87.3365
-1984.3750,-25.9027,-74.5051,6.9284,-77.9602,-15.9758,-103.1902,68.0857,-58.4618,247.0468,-128.0776,5.1392,-51.9395,29.6684,32.4533,94.3751,-8.0068,114.3965,-125.2027,69.6751,55.0390
-1976.5625,-18.5789,-136.3731,53.8032,-105.3805,30.8646,-167.5506,41.3279,-121.5831,257.5086,-82.0645,-21.9825,-91.6742,21.7343,5.1069,67.5427,75.6754,87.1382,23.3493,77.7308,27.7040
-1968.7500,-84.0956,-63.1016,23.8219,40.3200,37.8464,-14.7819,48.7125,-5.5668,-102.8401,-1.8952,-51.9558,-13.7203,-13.0410,-62.0826,-73.1220,155.5285,92.0059,133.0513,47.9272,-2.4563
-1960.9375,41.1646,-44.0177,80.6156,-10.1605,94.6050,-105.1869,31.8825,-59.7200,137.5462,-164.8996,78.8468,-79.3162,60.5200,-151.4452,-16.0034,-8.7777,146.6499,-23.4280,32.9072,17.2005
-1953.1250,38.5457,-81.8261,39.5066,22.4507,53.4550,-36.5134,-8.8556,10.2095,-121.9250,-22.8375,-36.2292,-6.3479,-15.9777,-9.7056,-91.7751,24.0165,39.4025,115.1584,65.9771,49.9732
-1945.3125,81.9757,32.4159,11.4370,-4.8818,25.3499,9.2118,-35.5596,19.1946,-112.3859,-122.7084,9.7313,27.3212,-20.2284,36.1053,-82.5030,32.8841,83.1877,-52.1841,4.0903,58.8115
-1937.5000,100.9630,-54.7651,30.9194,-89.6390,7.7870,-80.4990,-15.7405,-107.2679,90.6564,-140.0470,-7.7477,-40.2422,3.8152,55.4804,46.3060,52.3175,31.5357,-66.9919,23.7212,78.2083
-1929.6875,-10.8856,-25.7810,-47.4400,-26.2450,-33.6393,59.9253,-20.8001,-3.5994,-171.1376,37.7523,-122.0597,41.9010,-68.9973,124.0101,-31.7300,120.9108,-43.9661,-3.6520,53.4794,72.7657
-1921.8750,27.0084,-23.0239,-8.0562,-128.0661,-30.3286,-46.8725,55.8659,-72.1649,199.7389,-31.6798,27.3608,-57.2162,5.8732,16.3101,44.9580,-23.7127,29.2721,-210.5421,56.9690,76.0802
-1914.0625,-13.8774,-29.0465,-49.4665,-133.6817,-71.8262,-88.4769,50.7122,-5.5334,84.8374,183.0646,-51.0008,-25.0703,-62.3610,84.8033,-33.1518,7.8623,-46.2806,-41.2668,87.6406,70.6020
-1906.2500,2.8840,92.5857,-67.2375,-47.6350,-89.6870,3.5652,-2.8048,14.7513,-42.4323,129.4845,5.2698,35.9456,-54.6291,67.9619,-50.6223,-8.8888,5.8029,-60.3254,33.9545,16.7839
-1898.4375,83.8961,68.4944,-16.7620,-106.3049,-40.3039,-94.1199,10.9144,-45.7000,118.4938,-3.8519,18.7835,-22.9824,-5.9929,7.3811,37.1420,-106.3745,-17.8632,-13.1333,45.4911,-6.7790
-1890.6250,-22.7219,31.7688,-89.9324,-1.6210,-2.5769,53.5285,11.9697,65.1775,-173.2029,70.1395,-54.3444,42.3995,-30.3087,44.1563,-35.7318,-31.5148,-54.1788,126.3948,44.3580,-42.9793
-1882.8125,67.3490,51.7573,-30.4119,-51.2133,55.8348,-34.1024,70.7055,-22.2254,68.7286,-128.1507,78.2000,-36.5341,64.5521,-80.3411,60.0698,-119.9190,1.1932,5.6479,-5.0815,-57.4692
-1875.0000,20.2375,4.5623,-44.0980,-28.0059,43.0414,-47.9341,58.2281,-35.8265,-17.5320,-67.6670,28.5576,-31.4102,41.8499,-57.0366,47.6685,-22.5124,-45.6337,98.6760,-16.7291,-34.1503
-1867.1875,27.2800,46.5122,-36.6439,14.3482,86.3901,-3.6233,28.8921,8.7213,-229.6495,-133.0203,72.0561,17.4713,62.6489,-12.5719,18.4231,-14.9485,-3.3233,35.8711,-9.2261,-26.6685
-1859.3750,111.0702,-9.7625,87.5437,-147.5174,100.4818,-100.5417,43.2909,-123.9657,78.9184,-228.6253,197.2927,-99.2367,137.5686,-72.3382,105.9073,-147.6109,45.7360,-56.1813,-30.9906,-12.4309
-1851.5625,46.1909,-39.7165,57.0367,-36.0837,32.8653,15.8280,-25.0272,-8.3702,-172.1868,-2.9614,18.8353,-16.6954,41.1794,7.2050,38.7008,-68.9709,-18.8989,90.0418,-25.4773,-6.8813
-1843.7500,67.6235,51.6501,41.8271,20.6785,-56.4747,74.5126,-76.0778,-23.4618,-41.0549,-54.9785,40.6564,12.2636,18.4929,-7.9272,60.7684,-47.0133,2.7571,-99.4078,-73.6826,14.9835
-1835.9375,79.1886,-7.8464,-22.2756,-38.4446,-118.7214,10.2981,-139.0440,-13.4626,80.1619,29.0699,-59.4113,-5.9784,-51.8649,76.0390,70.9349,111.0358,-56.4762,-86.7736,-26.8165,61.9608
-1828.1250,52.9265,71.8266,-13.2202,41.5904,-183.8313,93.2238,-129.8900,69.6625,-203.4697,75.2543,-123.3244,80.4520,-103.0439,122.1586,6.2516,193.2314,-47.5584,-77.9710,-51.8275,71.1016
-1820.3125,119.3544,103.2384,57.5251,-32.6253,-187.2573,-21.1168,-133.0690,-43.4932,49.5080,-37.8556,-17.5515,11.7738,-34.9638,45.0052,114.2422,80.1396,19.0648,-117.4460,-91.1655,67.9447
-1812.5000,22.1115,75.9829,30.5889,81.4687,-140.3820,99.8312,-159.9638,2.6289,-270.1871,82.2947,-80.4559,91.6618,-61.1402,92.1337,13.5353,53.3266,-42.9937,171.3548,-118.2214,41.0912
-1804.6875,177.3849,231.2514,49.1539,167.0816,-87.0149,117.2817,-215.3799,-15.7464,-325.4348,-120.0349,48.1291,138.4606,-29.9655,36.7729,-41.6980,-38.9786,77.4459,80.6782,-208.7823,-14.2570
-1796.8750,415.4220,329.3092,116.4714,159.4602,-55.9007,37.4896,-295.0586,-132.3683,-294.9611,-198.6247,115.4744,134.5784,-33.4900,-5.8383,-84.1952,-81.5371,69.6422,178.7339,-286.6122,-56.8571
-1789.0625,399.1377,453.0265,138.4448,318.4823,-34.1479,133.3306,-310.0966,-73.3532,-640.8047,-178.5723,63.4711,254.5443,-52.0995,15.1992,-136.0299,-96.4420,88.4765,267.4369,-338.8115,-108.7985
-1781.2500,491.1560,475.0684,235.7117,270.8340,25.9010,46.4931,-248.8564,-233.0249,-359.4250,-374.2047,197.7419,175.5643,42.7237,-107.4459,-37.5838,-220.0248,180.6021,113.4590,-386.7264,-121.4282
-1773.4375,400.4061,419.3301,213.1910,285.3812,40.1450,60.8412,-271.4231,-182.5152,-454.8106,-212.6778,65.2323,201.1906,-33.0245,-55.9059,-133.9305,-131.4179,124.9480,233.6511,-337.4507,-106.8475
-1765.6250,308.2650,398.1924,154.2704,264.5377,53.9838,111.7827,-184.4049,-131.4094,-403.6166,-271.5417,42.3107,214.6984,-44.0995,-5.7541,-156.6827,-80.2026,138.8878,106.4648,-288.5811,-92.6609
-1757.8125,340.2852,218.2444,149.4947,85.8738,48.9657,32.8967,-116.2533,-208.1437,-115.3216,-349.2751,74.5372,86.9257,6.7290,-9.4426,-50.2995,-158.8346,135.9810,103.4223,-185.5839,-60.3204
-1750.0000,259.4847,243.4708,101.8747,180.3559,38.0941,170.1360,-126.9653,-72.7463,-492.8524,-249.8944,-9.0693,197.3723,-51.8793,90.0126,-170.7547,-132.3225,90.2237,268.5197,-196.4483,-70.8195
-1742.1875,342.7337,291.7641,154.2948,158.9054,16.2651,148.4396,-148.6407,-94.2861,-293.4023,-455.4416,153.3481,165.5621,0.6862,31.5344,-156.1758,-226.7318,173.5080,70.6865,-184.2628,-92.2623
-1734.3750,268.9057,217.9673,186.6141,155.3508,12.3412,107.6351,-152.4246,-97.9278,-370.0353,-349.1165,149.6716,156.3749,5.5499,64.9576,-159.6964,-194.2431,134.7073,171.7250,-153.1808,-95.8022
-1726.5625,174.0510,229.1235,162.8826,202.7418,25.3573,193.7723,-102.2747,-47.6258,-504.7321,-372.8341,161.9358,190.8804,30.9785,78.3482,-146.2703,-180.7986,145.8458,112.7264,-142.1517,-119.3856
-1718.7500,145.4220,94.5109,169.3488,68.3494,31.5736,16.1234,-21.9382,-115.1117,-131.2909,-366.3689,242.4008,35.4874,112.1494,-26.0530,7.3355,-174.1462,82.1944,12.9246,-64.9344,-112.7679
-1710.9375,11.5804,66.6651,103.5789,145.6938,-34.4556,97.2000,-14.8571,2.1217,-307.0564,-139.1984,139.6403,79.0189,35.3731,-18.7154,-95.2974,-55.7593,18.3073,125.8515,-22.9786,-105.3994
-1703.1250,96.9400,81.0367,118.0084,90.2703,15.7056,37.5037,35.4121,-56.4396,-35.6823,-270.8286,190.0587,16.7823,62.2184,-114.1570,-80.7493,-115.1675,68.6131,-35.9902,-8.8328,-90.8329
-1695.3125,60.3851,9.4873,78.4919,53.9107,13.9228,-1.1349,33.7162,-58.9611,71.7362,-163.4444,77.5377,-0.9768,14.7370,-79.5508,-83.1617,-80.5289,31.9887,68.1871,25.3384,-56.2148
-1687.5000,3.1532,57.2435,18.2779,137.8487,26.4295,84.5136,46.3079,27.8057,-62.5523,-114.7583,-19.6856,76.6062,-37.9254,-29.6448,-143.2784,-30.5756,44.6643,10.6769,37.8066,-43.2889
-1679.6875,59.7657,8.8746,39.9063,18.6611,10.7814,-77.9642,103.7311,-61.5607,289.9303,-165.2113,1.9285,-37.6526,3.9030,-118.8719,-11.5636,-82.7566,101.1876,-108.9660,94.1157,-21.5156
-1671.8750,-36.3560,-17.2353,-25.2041,62.7171,-17.6107,-32.2044,76.3967,21.3038,41.6997,63.5449,-63.1860,26.6259,-49.0584,1.1394,-76.5793,0.3038,4.9653,40.6246,67.6616,-12.4922
-1664.0625,39.0728,23.2136,17.2304,33.3348,-49.4549,10.1202,44.6008,26.7260,83.9701,-79.1400,53.2318,23.5560,-15.7406,6.7080,-71.0532,-68.0720,45.2821,-95.1997,37.7477,-6.9159
-1656.2500,64.4184,-57.4162,42.5613,-11.1383,-61.3955,-38.6429,-4.3050,-58.9507,182.1046,-89.9373,41.5488,-14.7779,-5.4764,32.1776,-8.6377,-115.5367,0.5047,-35.1274,62.7222,18.5647
-1648.4375,-0.0649,19.1183,-25.9526,64.5374,-92.1895,40.7303,0.9265,20.5091,-105.5956,-11.6045,10.0273,66.2213,-56.3711,74.7913,-112.0668,0.1409,5.8801,6.0884,32.8397,24.1998
-1640.6250,49.4054,33.6257,62.4745,9.1774,-78.0352,-91.9355,-21.9032,-111.0742,201.6011,-143.3130,98.4493,-30.5676,11.7265,-58.6307,11.4377,14.7772,90.2019,-155.7324,10.9014,38.7827
-1632.8125,-38.2528,-18.9916,43.7540,-8.3301,-60.0330,-73.7526,-3.8905,-56.8129,-1.3512,-16.1909,42.7334,-18.2711,15.9797,-3.2085,29.7945,70.2559,2.3774,38.2801,-6.1968,57.2126
-1625.0000,21.6581,40.9533,69.5835,16.7127,1.5110,-49.0233,21.6623,-104.0093,-48.7628,-99.5098,105.5617,-0.0359,61.3912,-14.2327,55.6972,-14.7100,27.0935,-44.1501,-86.7493,46.1945
-1617.1875,201.7314,45.0719,73.5598,-50.0828,5.2015,-154.1312,-11.6479,-211.0475,138.9363,-132.6808,145.5349,-68.6411,72.0894,-83.1031,96.7386,-47.5166,-5.0378,-5.4295,-119.1628,50.3287
-1609.3750,156.8804,105.2444,28.5934,81.1601,-40.0546,-16.2048,-56.9143,-73.0558,-200.2933,42.1716,64.5711,44.0138,-18.6863,-17.9323,-59.1593,55.7192,-85.1065,90.3300,-128.5306,5.5176
-1601.5625,206.8898,121.2776,81.4725,-8.7404,13.5386,-73.4208,-3.3407,-93.2190,36.2865,-89.1259,191.4507,-45.1107,59.6189,-147.8977,-5.2202,-1.1876,-34.3277,-71.0312,-115.0566,-14.4435
-1593.7500,101.1157,50.5426,81.5580,-8.4283,-23.6694,-36.4262,-40.5817,-56.1880,-74.9515,58.7490,44.5343,-22.1936,6.2501,-74.6582,-5.0873,36.1041,-70.3376,69.8023,-45.4026,-14.2095
-1585.9375,28.1190,83.5740,7.4035,23.6349,11.8712,72.3133,-5.0795,52.5754,-185.4459,20.3499,6.3715,57.6650,-8.2019,34.3320,-43.2069,-38.8603,-2.5934,-3.6080,21.9930,-52.2231
-1578.1250,57.6867,7.1774,1.8033,-86.7374,41.9629,29.6156,25.9647,10.8930,138.5635,-59.5089,0.7571,-11.2413,-0.8833,28.8750,-11.7883,-118.2745,-8.2930,-44.4708,85.9326,-57.6864
-1570.3125,-68.7166,-14.2084,-56.7845,-3.1214,57.0562,155.9076,40.0012,136.1916,-177.4072,28.6071,-94.8435,72.5590,-49.2781,118.4133,-107.3621,7.3036,-29.9824,74.6533,99.8629,-79.1494
-1562.5000,-3.8155,15.7180,10.9224,-8.1933,51.4455,113.5108,71.3168,56.7925,0.8861,-160.9691,9.8482,22.1331,15.1953,2.2601,-38.6537,-107.8091,34.6253,-71.8896,58.0823,-84.3144
-1554.6875,-14.7553,39.8221,-1.2168,15.9050,37.9859,63.2840,57.7670,43.5432,-49.7086,-137.4171,-39.3048,48.5971,2.3203,26.2625,-14.8079,-120.7808,-11.6041,56.7182,46.4422,-60.3343
-1546.8750,-53.0727,142.5377,-41.7455,118.6038,-1.8696,170.6566,-19.1951,76.8805,-273.6996,-141.2881,-42.8538,131.9467,-11.4552,59.8615,-18.3641,-87.1628,19.7748,17.9332,7.3956,-63.7568
-1539.0625,7.0664,61.7245,-16.8300,2.7739,22.7247,-25.4991,5.2841,-82.3267,80.7086,-225.7131,92.0349,8.6309,72.4577,11.9179,116.5074,-99.0907,9.6038,-62.3807,-38.2042,-38.7365
-1531.2500,-60.7680,28.9266,-51.9067,39.9484,24.3169,13.3458,6.7566,-6.5420,-173.8734,-41.1636,20.9288,31.2094,37.1395,13.9679,45.3782,-23.0244,-23.5541,115.2953,-36.8162,-36.7217
-1523.4375,-15.3462,39.3888,33.2615,50.3796,72.1559,24.4437,18.4677,-31.5092,-53.2241,-176.3557,106.0610,0.9517,94.8725,-84.7244,56.4890,-158.6962,56.5351,54.2397,-27.1837,-61.4603
-1515.6250,8.9885,-76.2287,59.3358,4.7204,60.8993,-22.5482,43.0709,-42.5749,82.2949,-77.6518,58.0927,-38.5322,58.1276,-58.5176,9.4854,-169.4649,45.5320,149.0798,-3.6609,-72.3031
-1507.8125,-52.7597,-67.9401,-4.6832,83.9530,70.5440,134.3518,15.5673,40.2463,-166.2649,78.9412,-5.9675,27.7875,-11.1914,-12.4147,-128.6123,-12.3491,18.4377,156.8134,3.7576,-99.2454
-1500.0000,0.0412,-120.0839,12.8442,-39.2532,50.7375,3.8104,32.6046,20.6249,218.6782,-13.8986,48.5119,-78.1762,35.8831,-67.7532,-0.1727,-67.6748,0.8882,-1.8863,20.7229,-81.6405
-1492.1875,-92.0865,-143.1602,-47.5701,-26.4130,-10.0156,53.3164,8.6835,144.0418,46.6792,182.2907,-122.9493,-15.2482,-46.9993,54.9517,-24.6759,-17.9612,-91.6012,151.4442,32.7322,-68.9881
-1484.3750,-129.5003,-38.5299,-86.2798,42.1241,-12.0726,162.5242,-30.5453,179.1477,81.3733,69.1748,-87.7125,40.7798,-42.0603,53.3578,-26.4798,-56.5467,-58.3873,8.4854,-4.5638,-70.6344
-1476.5625,-103.8034,-47.7813,-60.8872,-2.2225,-24.0319,76.8465,-42.6840,130.3477,217.1312,94.1440,-99.3726,20.6793,-51.8333,78.8703,-1.1945,-68.0339,-68.0616,33.6312,-49.7673,-45.1822
-1468.7500,-134.2302,61.8213,-93.6259,143.2719,-57.1344,228.0076,-148.9773,208.3777,-183.2451,171.9340,-204.1632,156.4511,-132.1643,157.2246,-108.0613,10.3086,-28.8732,108.6217,-82.1192,-40.8807
-1460.9375,14.7491,69.8306,25.0414,116.1677,-12.8307,88.5763,-141.8716,31.8066,43.7361,-4.8745,-50.5585,65.1451,-42.8686,17.9815,-26.5424,-55.9542,119.7197,-95.9605,-75.0703,-33.1846
-1453.1250,-22.3585,-37.2465,20.6151,77.9611,19.3835,11.0450,-73.8626,-46.8692,1.6182,100.1958,-55.0429,2.0297,-15.8615,-23.3741,5.8740,13.6700,46.2171,7.3586,-43.1236,-0.5977
-1445.3125,-11.4131,-26.2702,-5.7652,53.7996,66.6479,-15.4349,10.1972,-36.4985,-62.4396,74.3235,29.5118,-20.5519,46.8874,-49.6834,53.3429,-12.6601,56.7557,-123.2547,-68.1276,10.0350
-1437.5000,35.5826,-85.2285,40.8904,-109.2971,38.9641,-188.8427,19.3020,-99.0682,278.5182,46.5098,76.1032,-138.9270,75.9211,-111.9374,136.8503,-39.9393,-2.6593,-146.8099,-22.0803,56.7147
-1429.6875,-97.9994,27.2211,-63.0485,0.9950,7.6787,-72.8594,-48.1940,15.7447,-11.0921,199.0782,-64.8993,0.5466,-25.3903,3.2023,31.7655,77.1667,-66.6663,-35.9752,-16.6350,62.7951
-1421.8750,-86.8758,73.3805,-52.2906,-23.0104,18.0907,-98.1703,-1.9955,-46.7451,219.9782,99.3547,-18.2123,-27.8173,3.1504,-58.9501,79.3679,13.9761,-20.9812,-200.4183,-6.4886,73.5750
-1414.0625,-128.8444,-38.5480,-96.6331,-99.1146,9.4035,-106.5689,26.1009,-18.3347,247.9444,237.5154,-98.6250,-70.5012,-14.8621,-30.2035,107.8645,79.6762,-132.3864,-65.9660,56.5583,102.2532
-1406.2500,-176.0645,-50.7238,-183.2237,-75.4801,-39.5268,-46.2260,49.9479,115.8167,50.6783,261.4132,-111.2853,-49.0975,-24.7208,-6.7097,95.1114,177.1151,-110.0372,-78.7509,79.3622,89.6818
-1398.4375,-61.1957,-146.7883,-100.7140,-242.7333,4.6483,-147.7662,57.8939,50.0806,353.4706,195.4118,-29.8567,-152.9046,17.6248,1.8911,140.4413,112.6527,-136.5818,-176.4178,87.2711,98.2048
-1390.6250,-157.5043,-172.0374,-165.3918,-198.1920,-58.3662,-28.5121,66.6441,206.1309,30.0810,352.1779,-203.6148,-65.1174,-80.3345,122.2840,38.5668,194.9664,-197.3120,7.6974,95.9865,107.5233
-1382.8125,-56.2549,-106.7356,-133.5139,-168.1017,-63.8233,2.2916,23.9459,127.7265,135.2185,162.5017,-98.8283,-65.9979,-41.3490,80.2277,70.2275,116.8266,-97.4881,-137.6208,19.2635,102.3879
-1375.0000,-8.8489,-57.2766,-46.4848,-119.8634,-88.1271,-56.7404,-35.6048,-6.5176,147.4869,100.9752,-48.8939,-55.0937,-28.6547,56.3216,83.0229,92.8288,-48.5109,-89.7841,-37.3024,115.3944
-1367.1875,-3.8334,51.7812,-5.8547,24.9615,-46.8239,-16.1777,-105.5500,-2.1632,-142.6205,105.0406,-8.3501,22.4493,-35.2477,24.0036,-21.5739,134.4072,25.0695,-120.3465,-69.2609,119.9923
-1359.3750,107.9235,57.5924,72.5238,-74.4574,-41.7661,-193.8457,-63.7421,-144.0475,192.9857,-0.1390,106.9346,-79.3445,36.9545,-79.5634,92.5767,28.7247,65.4040,-220.1382,-64.4680,125.3290
-1351.5625,-39.0119,16.7080,-5.7862,-10.5727,-83.3941,-125.2164,-68.6291,-38.6458,2.9086,251.9578,-44.4686,-7.4379,-50.5611,25.1528,14.0339,98.3252,-45.9484,-16.6372,-36.3789,83.9564
-1343.7500,-71.4464,55.3216,-1.5909,-8.1865,-80.5142,-49.0841,-66.0168,38.2476,43.3228,144.5560,-4.3776,6.5034,-19.3804,29.3731,54.9837,65.4181,-43.7973,-154.6160,-69.7916,51.0759
-1335.9375,15.1196,-34.0563,14.6057,-95.7884,-64.6260,-104.9335,-50.4087,-19.8514,205.7062,124.1447,11.7153,-78.3593,9.5515,-28.4104,107.9187,7.5034,-96.6356,-102.5857,-19.2020,67.1838
-1328.1250,-53.9514,1.9185,-57.8325,-61.0486,-28.3773,4.5566,-14.4441,91.3823,-87.5341,197.0650,-24.8300,-15.9267,-7.4232,9.1468,34.2067,44.9138,-132.1111,-33.2128,15.7390,67.6324
-1320.3125,14.5781,-34.5015,-23.6646,-167.7032,6.4773,-70.3414,57.1222,15.2136,202.7970,10.5935,47.2198,-87.6563,37.3891,-29.6948,69.0812,-67.0820,-63.9823,-104.2181,49.2809,65.6746
-1312.5000,-92.6840,-142.7088,-63.2856,-136.1551,-34.4571,-1.0381,52.8880,85.2323,14.3366,117.3008,-102.5262,-32.8455,-28.6668,114.6542,28.1551,2.1092,-101.6370,66.9732,115.0218,61.9115
-1304.6875,-119.0893,-64.0694,-126.0506,-92.7628,-24.5392,119.1115,99.4989,131.0952,-13.2660,52.8674,-129.4309,9.0368,-57.5142,87.8543,-35.9264,49.1479,-24.4412,-30.9709,122.6185,34.9960
-1296.8750,-11.5549,-130.4745,-124.8731,-159.4172,-23.6705,10.2288,100.0574,58.9203,245.0570,90.3918,-165.3958,-93.4599,-55.3630,-21.9927,38.9273,87.1438,-56.2927,-62.9523,160.1735,73.0263
-1289.0625,-112.2635,-90.1365,-230.9457,-50.3376,-56.0475,88.0899,66.3710,172.4875,-118.8323,240.6544,-308.6021,6.7652,-133.4755,55.9008,-30.4611,237.8768,-86.3924,81.8060,163.4900,76.8017
-1281.2500,-52.4845,-31.3025,-168.5267,-60.7558,-66.9242,3.4560,18.1898,88.5623,126.7735,82.4322,-135.3236,-27.5842,-67.1846,8.2961,31.6425,153.1120,-27.9980,-69.9165,82.3181,66.0719
-1273.4375,-111.2552,-55.0137,-120.6561,-49.7240,-56.3444,-22.7247,-8.5337,62.0850,62.8463,165.6470,-87.5886,-13.3325,-38.9403,56.1334,42.1943,90.7897,-86.1427,46.7988,57.5988,76.7853
-1265.6250,-145.3242,51.9667,-47.0779,20.9952,16.9441,14.7843,-8.5511,99.2926,-83.3575,92.5592,-15.1528,26.9515,-5.8456,-17.3391,-30.5536,54.1583,-16.5783,11.2225,-13.4078,77.1939
-1257.8125,-113.7983,12.5468,22.1013,-52.6826,49.8466,-135.0886,24.0355,-87.8900,205.0060,-22.9217,91.8773,-54.8450,67.0114,-57.2085,75.2810,13.1229,14.5889,-27.7367,-52.8114,73.1954
-1250.0000,-175.1616,22.2240,-41.6130,61.7259,59.8610,-52.8651,-3.2719,-78.9842,-79.5027,23.6794,-8.9849,47.4144,10.4620,63.0112,11.2154,97.1776,-12.1358,86.3967,-80.1098,46.2916
-1242.1875,-79.1935,13.2413,23.0145,52.4824,87.2267,-98.2866,23.7742,-198.7196,57.3331,-132.3512,165.4883,-17.4337,98.2401,-20.4137,75.4968,50.5887,84.4798,-169.0966,-124.0445,36.7334
-1234.3750,-32.8364,-115.3402,34.0421,-42.3593,98.0020,-123.2950,34.2285,-225.0495,104.5607,-49.9899,139.3667,-83.7301,113.2205,-9.4445,123.1719,-12.6050,25.5045,-53.1964,-79.5721,47.5676
-1226.5625,-33.1770,-46.6258,35.3843,28.0889,62.0824,23.9814,-2.0136,-78.0940,-151.8815,-12.3328,67.5610,3.9320,36.7030,28.8138,-23.8485,62.4840,24.8339,17.0007,-80.7931,11.6972
-1218.7500,88.5229,-29.8661,88.7793,-62.4087,78.2216,-32.6842,-22.1979,-98.0835,47.6990,-142.6144,83.7977,-38.3077,40.6620,9.1189,-6.8337,5.6253,40.2139,-73.7337,-29.9537,-8.1315
-1210.9375,22.6734,-25.6695,19.6300,-22.4713,45.8271,45.0997,-18.9207,53.3700,-206.2395,44.5424,-59.5044,31.4752,-35.6388,85.8625,-77.3685,82.2068,-61.9524,70.9776,8.3422,-4.5189
-1203.1250,42.9066,-5.3926,2.5724,-73.4403,28.5422,64.9881,0.4655,72.9256,-114.0725,-47.1839,-2.7174,8.6549,0.0175,69.7071,-20.8055,-8.1088,-6.0287,-85.1846,27.7498,15.1863
-1195.3125,35.5250,-48.7183,-7.0908,-115.0097,-18.3341,-18.7047,-9.7399,62.8902,22.4842,16.4947,-49.5344,-16.8192,-13.1878,96.9517,43.1506,-18.0263,-84.7011,-22.9441,54.5611,42.2835
-1187.5000,-40.1581,-18.3554,-85.0490,-15.8949,-60.5027,123.2889,-52.2377,167.5436,-240.2157,120.8619,-90.6408,41.7447,-56.3555,91.8834,-36.1780,87.7458,-54.6707,7.9911,49.0829,37.0755
-1179.6875,29.0378,-55.1049,22.8892,-121.8786,-25.7679,-25.8048,-17.8284,55.1083,123.9694,-28.8474,54.1392,-75.7175,25.2265,-21.2832,35.3848,-25.5816,49.2580,-170.1580,46.5183,34.7619
-1171.8750,-50.3249,-98.4156,51.2796,-26.4202,-34.5741,-34.4497,-26.9521,46.1210,-32.3615,35.8841,45.3771,-25.1754,14.5124,43.9921,-10.6051,2.5243,40.6479,-38.8691,37.4194,25.8909
-1164.0625,-52.7531,5.2019,86.6153,76.9775,1.5798,1.8512,-65.1154,8.0865,-70.7151,-113.4188,117.5544,20.8704,62.4286,6.2101,25.3534,-72.4237,107.9846,-111.6156,-71.7090,-12.0364
-1156.2500,11.0979,-36.8816,116.2487,-0.3186,31.0426,-79.5305,-35.9693,-110.6347,105.2156,-157.4110,147.0201,-50.5014,110.4974,-38.2766,127.5976,-117.0691,65.6245,-48.0528,-114.5257,-19.6710
-1148.4375,-70.2027,-12.1234,32.7347,59.2238,20.3651,56.9327,-46.9667,26.4850,-235.9641,15.4396,-10.6595,48.4751,15.6065,61.0748,6.6981,20.1238,-14.8782,117.3518,-54.4793,-30.4580
-1140.6250,-15.3713,-63.2246,16.3679,-62.0778,39.8385,4.5508,10.1917,9.7601,39.9874,-112.5330,82.7914,-55.9724,71.7950,-28.4175,62.9343,-33.5229,38.7681,-5.0773,-1.2706,-47.0945
-1132.8125,-95.0962,-107.8777,-29.5468,-70.9341,67.7677,31.6169,0.8070,36.4803,-42.6013,-11.0623,-36.3028,-22.8622,29.5704,72.5355,53.6153,30.2764,-40.1210,126.9312,24.4014,-56.2796
-1125.0000,-153.1337,-24.8502,-52.7580,45.8952,44.4043,119.3746,-22.8651,86.8931,-177.4664,-71.8845,-22.6945,56.2245,11.9441,86.1891,-6.0110,43.7696,6.6981,68.6471,0.7919,-79.7652
-1117.1875,-105.0943,-46.7301,-2.8646,-46.1740,94.1536,-14.7555,25.5692,-47.5803,92.7439,-133.5977,26.0099,-20.2217,50.2735,24.9406,42.4417,-16.6378,19.6263,45.4785,48.2948,-67.1576
-1109.3750,-168.7577,-5.3270,-33.6568,65.0416,63.2214,101.4013,31.3162,31.2351,-195.7096,92.9774,-114.9644,64.2270,-44.6925,30.9726,-98.7973,62.2412,-9.1384,227.6012,19.1048,-61.2544
-1101.5625,-60.5978,31.9000,41.4019,-2.9020,102.1485,29.4089,32.9245,-3.0925,25.6832,-89.5713,-2.0921,-17.3909,19.9469,-114.1508,-60.1868,-9.0251,133.9378,89.5968,20.7781,-59.5068
-1093.7500,-7.1142,15.4589,133.8086,15.4994,83.4395,-25.2283,14.8951,-96.0623,43.4356,-71.7619,-20.8646,-0.3351,-3.6662,-58.9365,-79.2184,-27.9474,117.3665,107.9398,3.8119,-41.4173
-1085.9375,21.3470,114.9921,127.2092,114.8887,76.7404,78.1240,-66.1178,-66.0320,-183.7672,-78.9442,-27.6356,84.4538,-38.5561,-28.7307,-159.2379,-34.8829,180.7906,30.2839,-3.1362,-48.3319
-1078.1250,178.8121,95.5484,143.6485,60.3292,56.1037,-89.4589,-50.0659,-195.9377,126.0693,-209.0498,98.6278,-10.4362,17.5942,-123.4734,-70.2086,-129.7634,197.2584,-94.3042,-22.0174,-32.1978
-1070.3125,106.5515,94.3791,105.3859,130.0537,54.7808,-16.7528,-51.6936,-161.5468,-169.7445,-64.8578,-12.7992,48.8782,-24.0850,-87.9363,-108.8673,-57.3525,126.0329,80.4009,11.4196,-33.7632
-1062.5000,122.6076,110.5266,85.4710,110.1198,108.8177,0.3036,-34.9549,-145.7979,-43.1937,-195.2907,114.1139,7.1523,45.0248,-181.0541,-92.1793,-151.5923,176.1488,25.4820,-8.7714,-53.9780
-1054.6875,118.8389,0.8604,81.7554,35.3855,142.0658,-40.4311,33.9979,-185.8319,62.5544,-163.5124,110.2264,-52.0005,83.5127,-184.9754,-22.2969,-227.6347,66.4682,162.7564,22.2495,-57.9981
-1046.8750,-14.1874,8.9257,17.7917,114.3817,152.0661,116.5689,43.7176,-66.1194,-185.8968,-116.9773,46.0951,33.0968,52.1316,-102.1515,-86.6591,-145.9344,39.5328,205.7694,30.0350,-85.2705
-1039.0625,42.5611,-74.2232,41.6229,-39.8261,138.8736,66.3734,67.2435,-116.5937,132.4421,-276.6110,106.7555,-52.9787,96.5252,-78.5277,9.7694,-232.4246,97.3899,87.5901,87.6362,-98.7439
-1031.2500,-81.9924,-128.6781,-14.8420,10.6523,119.3894,156.8679,84.4810,10.6270,-108.4808,-150.5467,-59.8717,42.7080,11.1589,85.7776,-83.0980,-179.2231,6.9552,279.0901,172.9432,-118.5167
-1023.4375,-83.1459,-59.7406,-50.9047,10.5228,119.3041,231.7506,158.1171,85.2415,-71.9861,-224.0582,-60.1035,46.1186,18.4619,12.4748,-82.5704,-215.6116,41.9198,172.9975,207.6584,-154.8862
-1015.6250,-57.9472,-139.4435,-25.6199,-70.2506,108.5712,109.9901,220.1053,36.2106,136.8451,-199.2003,-34.9942,-51.9480,46.9207,-72.4793,-21.7099,-153.6487,-3.7636,198.2534,232.7309,-129.9069
-1007.8125,-147.1718,-52.5959,-81.7812,16.5122,88.3895,199.7578,162.6483,162.7181,-140.7222,-35.7889,-128.3257,43.2023,-24.1038,-19.8977,-115.2977,-27.1500,-56.8998,285.0419,214.3562,-113.3756
-1000.0000,-50.9927,-27.3444,-56.5503,-63.3238,39.6013,77.9266,151.5925,77.6295,178.1004,-83.9429,-29.2747,-24.9577,0.2936,-67.9147,-53.4992,-112.2382,3.3537,99.2426,203.3880,-88.4420
-992.1875,-53.1033,-29.3862,-60.6236,-30.4667,-0.4861,73.7881,110.2415,110.2406,63.6477,95.6030,-107.5182,3.7280,-54.4569,-35.2465,-95.0027,-79.6288,-68.6887,202.1285,166.1224,-55.8061
-984.3750,-93.1117,36.6595,-29.5937,35.4760,-6.4729,31.7380,103.9990,103.9435,21.3315,52.2604,-2.6641,5.7606,-0.6712,-115.4892,-64.4045,-85.9255,-37.6311,128.1177,90.9700,-25.0680
-976.5625,-40.1286,19.7040,-11.5677,-52.5731,-25.4581,-134.3038,121.7658,-62.3415,296.0024,-3.0732,88.1848,-95.4807,60.4243,-206.7307,64.1813,-141.2270,-19.5732,110.1067,38.8313,-7.3340
-968.7500,-98.2906,66.5851,-71.6891,65.2090,-11.5854,-84.5123,172.3947,-48.7813,-21.4246,83.4359,28.8967,-10.4696,41.1282,-157.1416,40.6306,-54.6878,-42.6626,157.9255,50.5549,-30.7512
-960.9375,39.1841,63.0954,-1.1658,26.6297,57.9412,-161.0759,205.6817,-162.5640,231.8005,-67.3730,135.2485,-75.9936,96.9315,-233.9063,72.7320,-132.4879,58.8825,-56.5926,46.9446,-34.5151
-953.1250,23.7891,-58.2525,18.4960,-23.8056,41.6270,-141.4898,225.1319,-179.1922,178.1945,61.9745,80.7535,-100.6969,73.1956,-177.5312,55.9870,-76.1373,-26.4219,33.0346,101.4904,-15.1280
-945.3125,-61.6730,-72.6715,-32.8937,-3.3060,27.2701,-8.9675,210.5437,-47.8754,-20.4242,47.2887,30.2101,-31.4299,39.7183,-46.2219,4.2019,-16.8333,-5.7811,18.6163,86.9944,-29.7872
-937.5000,-38.8208,-155.7505,-8.9391,-122.4495,14.2702,-22.0863,197.3129,-98.2021,297.2899,-39.0185,17.0145,-99.5249,56.5052,-22.5591,100.7573,-104.1680,16.2045,-29.4445,109.8525,-43.0924
-929.6875,-191.3757,-168.2485,-58.3763,-29.0135,1.8869,112.3782,110.6916,73.0607,-46.3484,95.2740,-106.5618,18.6657,-12.8378,148.6898,14.9250,30.0843,-31.2054,169.0707,61.3203,-55.7912
-921.8750,-147.4496,-87.2807,-9.3142,15.9089,13.0154,161.3294,11.5868,121.8199,1.5251,-3.9069,-57.6388,59.7715,-23.9983,160.4280,-47.4110,4.8502,48.8845,74.0979,1.3045,-80.9840
-914.0625,-125.2383,-100.0282,14.0518,3.1255,-35.5440,148.5750,-74.2012,145.8878,25.7038,131.2202,-144.4118,75.6332,-97.5487,220.4523,-97.4459,28.9231,-33.7220,166.4111,-11.3988,-93.8774
-906.2500,-141.4296,-46.2047,-1.9777,57.9187,-51.4869,242.3965,-53.3678,239.5461,-211.4726,114.9489,-160.5723,133.7738,-115.6540,241.0560,-150.8632,86.5889,-14.7278,80.3108,43.5110,-110.1702
-898.4375,-11.8940,-128.6470,132.7297,-59.5411,45.3306,7.9726,80.2304,4.9657,180.0858,-119.5455,10.0086,-28.0831,33.4022,80.4102,19.4657,-73.9885,115.0038,-107.0257,67.1778,-86.7100
-890.6250,-94.2258,-139.9464,119.5795,-0.8562,69.3019,31.6964,66.9834,-7.4637,-16.1650,-21.8809,-76.2596,13.5832,-0.6567,103.9046,-30.0461,-13.4151,67.8782,56.7766,54.9920,-63.0951
-882.8125,-43.6377,-19.3116,60.3621,48.7794,47.2174,46.3657,44.6855,-29.9324,-1.4462,-81.2241,12.4060,17.9478,20.6078,8.3530,-15.6115,1.1273,118.6900,-68.4585,-0.2373,-48.5229
-875.0000,14.7251,4.1148,47.9396,2.2229,34.9313,-77.1620,32.1905,-117.5904,132.0734,-20.7405,35.8677,-27.9133,16.8817,-42.4025,7.6160,-12.5150,71.3005,-80.9072,-11.6564,-25.1429
-867.1875,-52.6144,77.8155,-22.1719,75.9456,1.9481,0.5827,36.0032,-39.9641,-158.0435,93.0475,39.6459,34.1137,6.7096,-38.8805,-25.8431,28.1440,5.2218,-41.0834,-7.7648,-21.4501
-859.3750,82.0732,71.5420,6.7671,-36.2862,31.0150,-153.6295,100.8706,-157.2827,201.8919,-62.0775,141.4723,-79.7306,87.1920,-156.3101,112.7394,-54.1252,-0.8141,-188.2070,21.1881,7.3032
-851.5625,44.7539,-1.7397,-34.2923,-38.5288,27.0832,-120.8593,60.7478,-88.6030,50.8662,154.8046,-46.6936,-45.4443,4.7230,-51.7517,72.3229,15.6178,-73.8447,20.6435,19.1459,40.0648
-843.7500,61.7713,51.3104,-52.0032,14.5650,9.4995,-29.7600,5.9854,-33.5779,-3.7740,64.0565,-64.5088,2.0500,-28.5117,-32.8544,17.2622,71.7161,-21.5269,-33.1593,1.4661,22.1858
-835.9375,129.3671,-22.0479,19.8831,-127.7339,7.5202,-141.0598,40.8279,-108.9473,252.1735,24.9271,7.2797,-100.9351,19.2672,-72.3619,88.7909,-4.5808,12.3988,-70.3672,34.3934,19.9114
-828.1250,38.8579,-77.5202,34.6799,-79.1424,22.4509,-17.4844,18.5771,-21.4287,-64.9272,149.6989,-88.0145,-26.5011,-29.8187,53.0047,-7.7694,84.0139,-8.7626,50.3062,49.2252,34.5403
-820.3125,112.2754,-39.0638,112.4214,-145.6032,26.3294,-50.9647,-14.7176,-54.9490,159.9271,6.4606,62.6312,-61.5401,-9.0758,19.3185,-77.3805,13.5738,66.0165,-87.0673,53.0183,38.1226
-812.5000,110.5244,-75.7776,111.0045,-111.2229,-48.9359,-52.6043,-89.1518,17.3881,48.6641,115.0893,-12.8665,-20.8000,-91.8486,91.4685,-189.1299,48.9958,29.6405,87.3792,86.6693,36.5632
-804.6875,53.0581,7.7767,89.8857,41.4292,5.1033,74.0295,-110.2735,70.0195,-155.2486,58.0415,-33.0551,67.5151,-92.0774,69.9074,-246.5573,-8.2747,148.5512,100.1094,64.6305,-20.6811
-796.8750,55.0683,-25.1830,131.2523,78.5783,45.6421,5.1667,-68.8917,-35.8365,143.3300,-10.4760,-28.7470,5.4772,-50.6850,-73.1503,-169.4907,-115.0308,185.9548,67.3404,67.0963,-53.4149
-789.0625,-80.8802,-21.1070,63.6696,259.7667,15.2335,121.3369,-25.4532,43.3499,-107.9963,179.0591,-133.3729,84.0665,-99.2586,-104.1670,-236.3648,-71.7340,85.4046,177.5989,107.6086,-84.0881
-781.2500,-50.0969,9.6954,96.8309,184.6993,48.5750,80.2452,6.7392,39.2879,109.4348,102.3753,9.7529,7.8999,-33.3608,-218.4410,-204.4858,-112.6710,116.5945,-37.3880,103.8721,-87.9993
-773.4375,-53.2804,-63.4601,92.0375,40.6811,7.9749,2.1963,2.9900,34.2783,178.9245,207.7502,5.9357,-46.6957,-43.4848,-150.6754,-172.5486,-43.5483,7.8329,29.6614,136.1835,-55.8507
-765.6250,-66.0234,-5.1844,5.6927,64.0966,-5.1712,98.5736,-47.3015,131.7089,-18.0889,231.5838,-44.4248,21.7601,-77.3594,-53.4704,-185.1422,17.0303,-3.4808,-16.8500,88.9494,-32.2426
-757.8125,44.1550,-36.9782,8.2879,-72.5363,-2.3645,-9.0965,-44.6328,24.1057,315.8391,51.3979,32.1512,-79.0006,-16.4803,-88.3115,-36.7903,-17.4244,1.1413,-188.4051,93.6756,7.3246
-750.0000,-80.8247,-90.9396,-49.2716,-21.3418,-22.7038,7.0597,-28.0990,77.3504,38.6717,252.0747,-98.4071,-30.1180,-66.8125,1.6796,-57.5759,145.9779,-53.3918,-32.1398,110.2628,23.7527
-742.1875,-51.7669,-61.8732,-17.7869,-62.1098,9.0016,1.2447,3.4979,71.6493,106.5840,98.8359,6.0795,-45.7375,-11.3411,-4.2906,-26.3041,103.4478,-23.8885,-177.8298,104.9094,18.2446
-734.3750,-49.0214,-164.1101,-14.6082,-164.1754,-24.5946,-69.8801,43.7999,37.6520,258.2029,102.3080,9.2693,-104.6195,8.8961,35.4319,50.6715,33.6316,-55.6804,-138.8365,143.2536,21.4504
-726.5625,-149.5798,-159.6603,-79.7269,-53.5487,-89.4916,48.6666,15.7998,229.3400,-27.4331,221.4878,-55.8215,-1.9450,-57.0893,153.8400,-51.6405,115.5228,-49.7706,-64.1668,114.2957,-43.6286
-718.7500,-54.2144,-99.2742,-13.9012,-98.9694,-60.4365,3.1611,6.7543,183.9856,221.8680,66.6519,9.0335,-43.6020,-26.0692,71.1951,-23.0061,33.3825,10.0755,-145.5422,69.2883,-88.7466
-710.9375,-33.4558,-78.4972,8.3193,26.9985,-36.9751,-10.9618,-42.8825,170.0278,-12.3973,200.2156,-77.6956,8.6878,-64.6939,56.9400,-73.9549,56.6462,-3.6768,-18.5495,55.6739,-102.4528
-703.1250,36.6452,-8.3875,45.8872,133.3040,36.8371,-10.7538,-6.1702,97.4109,-84.2845,54.1469,-4.0794,21.5508,-10.6785,-52.9690,-73.5386,20.2706,102.9176,-88.2178,-14.5914,-101.7905
-695.3125,90.1355,-131.8797,63.8489,45.0196,18.0463,-103.1493,11.9375,4.2008,155.2143,35.4960,13.9367,-70.2533,34.5108,-72.4815,54.2741,-71.6861,85.9163,-70.4937,38.5345,-83.7130
-687.5000,-69.4661,-79.4774,-27.2841,97.6268,0.1562,62.3282,30.9402,169.8739,-120.3394,164.7434,-114.1280,17.7003,-21.7931,-18.1130,-1.0012,20.2645,-3.1809,52.1003,56.5547,-101.7202
-679.6875,-27.9314,-37.9336,-57.2729,-1.6166,7.4131,-5.0516,112.0919,103.6958,181.2542,-11.8260,2.9501,-50.5113,52.4926,-84.5975,116.8783,-45.6112,3.8577,-82.1597,27.7193,-94.5613
-671.8750,-19.8041,-64.7957,-87.6655,-28.2656,-21.7270,-34.8485,118.8484,110.1151,78.4782,106.2051,-100.3533,-42.7103,-4.4037,-41.4903,86.3688,34.1273,-93.5044,31.1484,71.4724,-50.7877
-664.0625,14.4202,39.4258,-125.9575,6.1730,-23.7681,36.4262,79.7055,144.6238,-33.1601,67.3484,-102.5457,1.8887,-27.3249,-44.2912,47.9707,105.9766,-58.7743,-75.4603,36.3251,-15.8952
-656.2500,104.4796,-46.5052,-70.4040,-113.5373,-77.9614,-128.4555,62.4118,52.9901,281.0340,13.3641,-9.8819,-101.2899,-1.3423,-63.2434,103.4174,88.7014,-73.1995,-124.2300,22.0218,39.8616
-648.4375,66.9444,-49.0478,-110.4419,-46.8668,-117.7481,-95.9695,21.5184,122.7421,-17.3224,156.7762,-49.7911,-31.1791,-37.1735,43.1890,62.2840,157.8298,-145.2248,-22.6316,-15.8903,73.0344
-640.6250,175.0471,-10.9546,-33.8359,-113.5497,-150.8851,-203.8493,25.2720,15.1459,170.9706,13.8704,100.9543,-95.2400,28.8066,-27.7350,139.8058,51.6285,-70.6178,-194.3813,-12.1570,76.8742
-632.8125,179.8414,-75.1645,-28.5328,-143.5326,-145.3234,-199.0418,30.7255,-16.7494,140.9740,93.6724,69.4117,-118.6816,24.2311,-22.9661,145.0285,57.1431,-136.3104,-83.4559,-6.7296,82.4307
-625.0000,108.6371,-7.3861,-28.2342,-39.5317,-143.7648,-88.2644,32.1842,21.3426,-150.9756,58.4839,70.8756,-30.6710,13.8745,14.7904,72.2660,95.6643,-67.0079,-50.5498,-42.2992,47.0062
-617.1875,116.1639,36.1362,55.8003,-31.7732,-97.4615,-151.7381,42.3959,-79.8070,115.8113,-114.9355,154.0788,-66.7981,84.7521,-86.6982,155.2548,-42.0405,12.0375,-112.8932,-69.1185,20.3449
-609.3750,-3.4576,91.5043,4.6880,129.8298,-75.3079,-20.3810,-8.5383,-20.1198,-190.5098,-18.5116,30.1504,54.3105,37.8974,-27.3533,104.1084,-55.8927,-38.0576,48.5818,-118.1013,6.5451
-601.5625,113.7120,209.6580,17.3675,142.2351,-62.3580,-8.2349,-32.6764,-44.6344,-140.0200,-151.2597,80.0215,73.3120,47.4906,-52.2166,116.7730,-79.9303,-25.3618,-115.1452,-210.2943,19.5572
-593.7500,117.7730,107.7121,-17.0535,41.5425,-94.5083,-43.1929,-65.9187,-42.2471,-27.6351,-75.0958,8.8036,18.3911,18.7494,-13.1845,156.3410,-3.0532,-125.7678,-40.9970,-170.5982,59.4813
-585.9375,-50.2117,80.7073,-117.5276,49.7852,-85.7115,112.7732,-57.2145,114.0813,-274.2578,44.0271,-55.4482,70.7394,4.0553,68.7868,128.8751,42.7859,-152.2276,38.0742,-126.9583,68.3727
-578.1250,49.7464,4.6474,-50.0592,-96.0184,-18.9720,-5.3178,-26.5685,-3.6306,50.0489,-107.8688,85.2466,-48.1722,96.1645,24.7122,232.3558,-36.3942,-121.7492,-142.9138,-131.3756,99.2310
-570.3125,6.3588,-39.7637,-62.9444,-140.1761,-67.5864,-16.7780,-75.2773,57.3012,-107.9646,62.8847,36.6073,-48.5316,48.7543,85.2799,183.5022,135.0869,-236.6179,-11.2874,-140.1583,160.7562
-562.5000,-6.7853,19.0635,-112.5793,-152.0909,-80.9547,-31.0149,-88.7373,44.4767,-46.7107,14.9070,96.2263,-36.6200,47.4405,108.0905,169.9105,158.8371,-213.2444,-129.4238,-151.6991,184.5524
-554.6875,-1.8882,-12.0512,-107.1668,-217.9471,-148.2761,-136.2081,-83.1594,13.7044,179.5765,56.9983,65.9009,-77.2467,25.6997,112.9485,212.3664,127.6570,-242.8205,-89.5301,-111.2051,190.4167
-546.8750,-98.9284,65.8839,-133.6965,-68.7606,-174.5443,-16.3860,-109.5375,95.9596,-103.0426,178.1339,-33.3511,42.1232,-56.4056,159.8416,74.8842,212.5341,-234.3401,-10.6222,-67.6778,164.3517
-539.0625,-11.0790,47.7182,-78.3311,-51.6708,-118.9182,-108.6763,-90.0268,5.1147,137.2225,14.1933,58.3005,-21.8723,-0.4192,30.6382,94.3053,84.3366,-75.9686,-99.8213,-85.2649,147.2067
-531.2500,-31.0756,62.7048,-60.8137,33.5601,-101.1411,-54.8375,-109.3670,-14.5933,-27.3444,68.3942,-69.8762,53.6209,-68.9340,84.5796,1.8981,102.2979,-60.4496,91.0880,-104.7214,128.2306
-523.4375,35.3346,201.0784,11.1008,172.1781,-27.9643,16.3752,-109.3134,-87.9155,-174.4797,-76.9993,-33.6400,124.6006,-56.0876,9.9148,-71.0927,28.6747,78.4587,17.3845,-141.7914,91.6762
-515.6250,153.4445,178.1543,97.7086,114.5053,20.9082,-117.7184,-96.5664,-222.5365,59.0622,-174.6836,52.3015,22.3248,24.9914,-124.0521,50.6177,-31.2291,55.0674,-40.6283,-164.1789,104.8398
-507.8125,-4.3338,196.3298,7.4259,202.9278,-31.1192,11.2591,-75.7254,-92.0789,-212.2524,29.7224,-72.6353,124.6366,-52.7085,-31.9355,-38.5584,25.9716,-65.2190,118.4280,-110.4799,89.1222
-500.0000,-26.8172,138.8029,-14.5615,110.6581,-16.8530,-11.4755,11.4102,-42.3221,59.7229,-28.5494,14.7237,57.8634,-15.6093,-54.5186,-24.4352,-32.5065,-53.2177,-80.2161,-62.4937,67.7245
-492.1875,-68.3515,27.2357,-20.6029,-1.6569,-22.6389,-18.2678,42.4870,-11.6197,54.6577,114.1276,-99.9553,51.5691,-74.3611,86.8416,-66.3503,-38.0244,-93.2634,19.0604,1.4223,62.2936
-484.3750,-51.9295,43.6125,-1.6954,15.9672,-40.4818,73.8619,-12.4925,81.0194,-108.4185,96.7677,-81.6769,74.8365,-85.1048,104.1403,-120.2972,18.4205,-7.3642,-35.7325,-51.7181,44.8322
-476.5625,48.2271,2.7419,66.9503,-25.6503,-8.5812,-43.2623,-17.7319,-72.5849,180.2402,-18.8137,23.3480,-23.0170,-25.9668,-11.8059,-53.4945,13.6364,23.2805,-111.7832,-57.1189,40.1372
-468.7500,-63.5588,-3.0757,-12.3542,74.7722,-13.6333,24.6364,-59.9237,32.8516,-117.0086,160.6518,-127.5574,57.4838,-87.1838,56.2835,-94.6267,118.9079,-53.0218,93.1788,-27.4842,35.5086
-460.9375,-5.7433,53.7000,-25.0614,26.7973,-26.0985,48.1209,-35.5249,19.8876,-19.6494,38.7420,-30.8610,43.4525,-54.8909,42.9716,-71.1506,70.7976,5.2653,-61.2696,-40.2593,23.4975
-453.1250,64.9286,-16.6648,-25.9205,-78.3204,-26.7183,-64.5580,-36.2849,-55.2301,17.5568,112.6839,5.6956,-31.7991,-24.2798,41.5056,2.1771,70.5521,-64.5887,-25.8959,-39.2050,60.3548
-445.3125,24.1627,13.5211,4.7782,-47.8972,-31.7906,-34.7249,-77.5019,-24.8189,-206.6498,144.1753,-0.1815,-13.1153,-7.4175,34.5759,33.0739,174.8618,-33.8892,-30.9978,-77.6158,91.7824
-437.5000,91.7373,10.0622,73.8199,-121.1177,-35.5152,-222.5479,-82.3798,-139.0589,119.4727,-6.9644,143.2924,-117.2848,71.4950,-80.0049,139.3246,134.5465,33.1495,-139.7530,-116.6955,124.5768
-429.6875,-19.4798,4.8113,32.0574,-21.1367,-4.0433,-155.1862,-87.0658,-107.1093,-104.1768,99.0821,27.9858,-50.0181,20.5448,-49.3918,60.7896,240.4391,-6.6089,29.6505,-86.5955,120.5868
-421.8750,-14.1452,46.1119,2.8411,19.3966,2.9716,-111.2931,-43.2179,-136.6198,-22.2680,-39.3080,73.2335,-26.2672,51.3403,-43.2226,105.8077,138.8936,34.1789,-104.4070,-115.9617,92.1666
-414.0625,4.6403,-41.1259,22.0741,-65.6079,22.4284,-166.9541,12.0667,-154.6760,145.0748,-55.2441,92.9382,-83.5032,80.2917,-24.6024,162.2778,84.8128,-50.5809,-157.0375,-131.8993,112.2149
-406.2500,-32.4062,-43.2103,-54.5378,-69.4735,19.0330,-25.4936,-27.5099,-12.6031,-188.3927,13.9603,88.8139,-36.6736,60.9342,44.1559,83.9137,154.8832,-124.1856,-90.5463,-99.7062,145.4339
-398.4375,2.4450,-148.3896,-16.2506,-208.4302,20.5295,-98.1405,-26.2001,-11.6299,70.0150,-130.9165,201.5887,-146.5606,130.1162,7.8196,159.4439,82.8755,-87.8951,-195.1556,-63.6274,147.5711
-390.6250,-164.9929,-210.8578,-43.2582,-130.6869,29.7237,-17.1043,-17.1982,34.0299,-101.8615,25.8922,64.0843,-98.2112,90.2126,54.1715,132.6860,130.5800,-114.8961,-13.1007,-54.8686,121.4248
-382.8125,-140.4250,-81.3272,-16.2661,-35.9483,58.9102,10.9061,-26.2022,25.6711,-145.7206,-54.2844,93.5910,-45.7550,102.1460,8.5182,124.9458,86.2987,-54.9085,-128.0604,-100.1278,77.2969
-375.0000,9.6840,-105.2404,31.2640,-165.6538,69.6385,-125.5362,21.3335,-110.1297,122.9484,-115.8975,141.6508,-146.4821,135.2478,-55.5791,208.7614,97.5924,-78.3786,-189.4813,-89.8591,88.7368
-367.1875,-33.9888,-44.9460,-14.0053,-69.1706,61.5675,-25.8033,-59.9443,-9.7488,-214.1499,22.6804,59.9338,-47.7194,51.7094,9.5154,53.7912,237.0886,-86.6478,-23.7309,-98.4117,81.3956
-359.3750,62.9383,16.9452,51.3224,-43.0837,16.0932,-72.4792,-104.6317,-55.7668,-2.6699,-94.1280,161.8208,-37.8446,49.4472,0.2135,8.4237,119.1987,8.6765,-103.3793,-143.3746,73.6690
-351.5625,17.2286,41.2005,40.9995,52.3558,-31.0282,-9.8153,-151.9724,-29.4467,-120.8360,42.4024,42.0757,47.3492,-29.5673,63.2486,-74.5846,72.6673,-1.6458,131.2924,-154.0070,64.3058
-343.7500,-38.5105,196.4091,-14.3743,277.7403,-49.1972,154.7729,-207.3676,61.8070,-322.0338,-12.1254,-12.7101,174.3802,-89.0876,7.2282,-202.6309,91.0897,118.9775,145.9027,-173.7092,9.9089
-335.9375,119.4428,143.3331,77.9449,259.8431,7.3222,25.0641,-188.0812,-103.2309,-8.5664,-174.9370,80.1999,66.6448,-24.0876,-159.0805,-146.9827,-35.7597,242.2907,-13.7933,-87.7374,-6.7742
-328.1250,81.5020,106.3643,113.3631,294.0481,42.9321,22.4412,-117.7109,-105.1816,-191.9736,-66.6579,-30.7734,101.3280,-67.0936,-124.2949,-221.2150,0.5052,240.7073,53.5771,16.3105,-7.3416
-320.3125,127.3603,80.1955,123.5804,163.0558,89.3329,-41.3953,3.4430,-132.3335,76.4054,-201.5577,54.0549,10.6406,15.4495,-187.7068,-101.6395,-99.4044,215.9164,-148.2669,61.1422,3.9105
-312.5000,95.1747,-57.0085,15.7427,-8.9806,92.6741,-77.2878,42.5379,-129.5373,189.7352,-52.5142,-17.1542,-65.9594,5.3880,-113.1666,-25.1030,-22.3626,44.0789,-39.1940,99.9035,44.1311
-304.6875,-54.0469,-65.2619,-102.1420,-17.0791,47.9598,60.7410,71.5699,46.1882,-37.9456,51.4686,-61.4008,-28.8970,-14.6850,-47.6700,-32.5936,117.6308,-69.8085,-13.1995,91.5983,37.3203
-296.8750,2.6256,-148.6087,-117.1327,-172.2688,69.1349,-103.3327,128.4916,-44.1890,316.2491,-37.6341,71.2482,-158.7963,58.5434,-101.2647,62.8174,66.5511,-48.8010,-134.3053,112.1751,59.4226
-289.0625,-112.4441,-159.6925,-165.8690,-147.2084,57.5598,-42.1755,117.6555,17.6682,47.7215,136.4952,-13.8314,-82.9026,13.7433,34.3753,14.4941,92.7271,-128.5313,30.8079,101.9789,85.7863
-281.2500,-36.4607,-82.7292,-84.5523,-104.0914,65.0330,-35.9844,50.8598,-49.4339,93.2429,-75.3182,105.1432,-57.9682,53.0916,41.0604,22.2271,26.9611,-16.2154,-138.0273,2.8196,94.2137
-273.4375,5.6285,-75.6473,-41.1376,-132.8617,-1.3966,-138.6949,-15.8502,-114.4308,175.8425,-104.0336,150.2286,-80.6177,59.7434,47.8436,67.0540,35.3016,-8.7931,-97.7770,9.7387,102.7533
-265.6250,-13.9126,10.7912,-24.3645,-12.2849,-20.4764,-13.0808,-35.2221,-62.0969,-99.1809,-49.4216,94.6847,15.7115,13.4053,64.9699,-25.7536,53.9931,6.9882,-48.1990,-10.0147,84.6576
-257.8125,77.0501,30.7391,34.9045,-62.1936,-35.0612,-102.9658,-50.1143,-113.2639,217.2557,-99.3064,190.6334,-65.0123,56.6234,-61.3917,33.9378,-69.7922,63.2629,-168.1146,-25.2878,71.0752
-250.0000,-36.2747,23.3977,-46.1220,36.6023,-77.9462,-37.1564,-57.3182,-47.7460,27.4034,114.4818,37.2988,24.1386,-37.7067,41.9401,-46.6555,34.1266,-14.7533,-1.3631,-32.8832,65.2068
-242.1875,-72.9933,56.6537,-45.5464,104.9932,-41.2339,-0.7663,-19.9287,-10.6381,-7.8371,41.8712,75.5664,46.4764,-5.1623,4.8746,-45.6403,-1.3458,19.8263,-39.0241,-104.8920,29.9570
-234.3750,-43.0123,15.6226,-14.2759,29.0944,-9.8314,-118.6752,11.1471,-90.8317,171.6036,73.9696,106.5406,-25.0315,45.2485,-38.4835,60.0723,-80.1012,-20.8900,-46.0043,-76.2208,25.4223
-226.5625,-153.1617,11.4560,-55.1473,60.0389,-13.5872,-12.7585,44.0605,15.8053,-88.0772,180.9050,30.3802,19.8794,18.1157,-5.9943,19.6491,27.9918,-95.7511,18.8372,-44.7183,22.7535
-218.7500,-53.1122,-64.5020,-60.8248,-86.8069,17.8467,-93.6409,74.1557,-27.3561,201.4139,29.0554,135.4135,-90.7993,77.2861,-49.2907,87.4221,-13.7001,-66.4163,-129.1219,18.9710,18.2979
-210.9375,-133.6494,-180.0443,-143.1003,-131.2507,8.6777,-67.1300,101.6402,72.8764,83.3112,167.5933,16.8594,-100.5114,54.8998,13.8118,115.6026,15.0034,-145.6748,36.2964,115.0430,10.2513
-203.1250,-164.7790,-141.1802,-209.9762,-91.2943,50.9002,47.7686,107.5158,152.4967,-57.3725,100.5317,23.7079,-47.9914,44.8065,56.3113,48.1923,58.1114,-106.5359,-30.8910,83.4961,-19.3852
-195.3125,-106.8089,-188.1992,-150.7645,-174.2162,74.2173,-40.2300,93.4781,64.2236,151.0077,-22.4266,47.6504,-102.3585,82.1245,78.9187,145.8785,46.3381,-83.3001,-113.9810,70.0335,5.0875
-187.5000,-107.3233,-153.7042,-116.0489,-104.6453,36.0376,66.2523,17.9356,135.4310,-180.0894,50.0844,-64.8816,-4.3007,-0.3313,187.0197,34.0776,118.0610,-83.5554,-10.5980,-0.9474,41.0699
-179.6875,22.1185,-60.2577,-56.3809,-116.1255,22.8134,-21.3281,4.3367,11.5829,27.7455,-108.4563,33.5407,-41.3698,50.5354,99.0745,131.2298,69.7357,-24.8607,-164.2564,-83.9907,66.0099
-171.8750,40.4677,-41.8938,-37.8054,-97.6946,-32.5082,-41.0076,-87.3674,-81.3731,47.4634,-53.1130,15.8795,-41.9869,31.8322,80.0228,150.2862,52.2976,-6.2575,-6.0272,-135.1561,85.8544
-164.0625,-30.4718,63.1730,-36.5301,77.4327,-31.1270,68.9986,-123.3842,-43.6447,-207.0934,-88.0820,-19.0692,82.2786,5.9819,117.6688,79.0545,17.5546,99.0470,26.8906,-171.6357,51.4071
-156.2500,12.1404,70.7978,47.2885,50.1229,52.8005,3.5617,-77.8622,-181.3610,97.8681,-261.4967,65.5265,13.0288,75.2557,-20.1242,125.3663,-118.6232,177.8971,-1.6476,-199.5778,25.5189
-148.4375,-21.8287,142.8369,49.5108,157.2061,55.1193,79.5073,-111.9489,-105.6885,-228.7419,-147.5321,-4.4660,109.9410,8.9025,18.4808,-17.9066,-41.3954,179.1563,139.1743,-200.1334,-6.9582
-140.6250,15.2444,250.9211,127.7821,159.3354,96.4787,45.4969,-107.9911,-138.9705,-150.3018,-215.5042,110.5831,92.9377,59.8716,-87.8554,-13.1194,-147.1055,252.4555,-35.9530,-233.6455,-38.3718
-132.8125,65.6014,194.3068,142.3473,103.7709,74.1314,-52.2090,-93.7362,-161.9465,12.4290,-128.1767,51.9300,39.6812,44.7305,-110.8840,37.9764,-131.5094,161.0585,48.2010,-219.8653,-22.4736
-125.0000,38.7191,274.4412,114.6615,217.9451,83.5284,66.8215,-121.7409,-79.1848,-271.0603,-81.1101,-47.9628,143.2902,-3.9102,-65.1616,-25.1686,-84.1602,135.4124,126.0880,-245.3452,-11.8133
-117.1875,132.8862,262.6355,175.0165,136.1799,69.9659,-22.0918,-98.7130,-167.3624,47.4638,-239.9821,50.1847,58.3230,43.9357,-153.3729,35.7297,-168.7473,228.8099,-27.9661,-222.7853,12.9046
-109.3750,28.6218,158.3975,139.9254,172.9687,35.9489,15.5407,-97.1434,-92.0013,-96.4587,-54.3306,-58.0997,86.2468,-17.4141,-78.0363,-35.8085,-93.7931,160.7664,113.5102,-152.6956,16.1766
-101.5625,13.8259,213.6237,125.2917,193.2152,21.3774,73.6156,-112.1435,-70.2012,-36.9438,-105.2323,2.0722,101.0825,-9.7813,-93.2514,-49.8912,-107.3942,181.1748,-8.5564,-168.1753,2.9025
-93.7500,50.2853,180.1304,126.9098,124.7359,-13.9463,-37.0529,-110.9108,-106.1486,149.7838,-102.8856,41.4942,52.3871,-1.3579,-92.2124,-10.7322,-104.7371,112.8369,27.6213,-132.4297,5.8799
-85.9375,-17.9883,216.8958,91.7842,196.5019,-12.0216,74.5128,-109.4367,42.1345,-140.2061,10.6909,-66.8219,130.1162,-67.0235,-53.9298,-119.3077,9.1665,78.7572,28.0262,-60.4463,9.1128
-78.1250,64.1377,124.0675,104.0543,67.6754,37.3028,-61.5200,-60.5700,-19.1850,166.1754,-87.3211,-16.7522,24.5481,-17.5380,-79.2368,-32.4823,-51.5209,127.0722,-137.1530,-14.0771,22.7519
-70.3125,64.0798,89.0582,31.1223,32.6545,-36.5751,-62.7489,-97.9122,16.2910,20.3573,97.4454,-125.8793,63.6819,-98.9858,67.2569,-68.8542,-13.4132,21.1948,1.4526,20.0766,24.1949
-62.5000,157.9902,182.0090,20.1443,56.5839,-46.5069,-1.0369,-108.3189,79.7073,-99.5046,15.1542,-99.0552,111.9120,-112.6742,93.7037,-115.2756,-22.3586,80.2699,-81.9895,-27.8329,-21.4067
-54.6875,243.6115,126.6850,73.8669,-34.7674,-29.7416,-132.6059,-92.0427,-52.1737,213.2860,-78.4482,-7.5374,16.2650,-54.2854,35.8660,-24.0112,-115.6069,95.0552,-138.7247,-14.0618,-40.3065
-46.8750,179.7545,132.8746,82.0978,112.3783,-58.4718,-15.6826,-48.2758,-7.5711,-72.4128,-32.5849,-72.5067,122.6500,-89.0196,116.5320,-89.2341,-106.3700,66.3509,-62.9749,-7.8060,-67.7050
-39.0625,323.2963,136.4734,122.7285,45.9349,-18.8095,-50.3520,-45.1222,-78.5661,153.2516,-176.3181,41.9202,40.1288,-33.4163,9.6127,-48.0571,-175.7296,140.0448,-272.8106,-41.1619,-62.7035
-31.2500,259.7994,38.0402,90.3148,16.4505,-50.1992,-84.0658,-40.0264,-73.6145,121.8468,-23.1231,-25.6899,9.7081,-69.2699,13.6443,-79.9285,-96.1458,111.6961,-126.7094,35.4187,-19.7546
-23.4375,135.5159,54.8124,72.1086,69.1621,-31.3922,7.4133,-58.7394,17.5246,-79.3521,-3.7437,-43.0889,68.8180,-64.8667,68.8755,-97.5926,-76.3706,128.5498,-111.4038,51.1888,-36.6063
-15.6250,118.7338,-32.9000,92.4015,-53.6087,-12.0855,-84.5882,34.0343,-73.8300,235.9037,-130.8695,51.0101,-51.8873,22.4237,-22.3789,33.2304,-92.0937,76.9012,-129.5868,68.4442,-51.9600
-7.8125,-11.8810,-22.4495,-7.1476,-8.2293,-0.6276,72.5581,44.9538,47.9538,-45.6726,-8.8799,-46.7339,18.2112,-16.2141,25.5090,-28.7892,-42.6796,-19.5834,90.3638,76.8442,-76.1649
-4000.0000,34.1729,30.2838,-7.6980,1.8869,5.3723,116.2690,31.7122,42.4451,-36.7237,-120.0010,16.3251,39.2623,7.9985,30.7593,-24.4322,-146.4282,-0.5412,70.1072,26.9322,-92.4717
-3992.1875,2.5343,-37.2499,-4.5873,-30.9992,45.8382,47.1203,72.7690,46.4148,40.3587,-81.4550,19.7140,3.9776,49.5811,34.3627,52.5861,-181.4680,-103.3362,145.2795,30.9203,-90.5836
-3984.3750,-108.9654,-6.6494,-10.3318,-0.7400,76.4557,117.1096,104.9805,78.5350,-113.3984,-51.7371,14.2412,18.9409,65.7923,-7.8811,46.7633,-79.3504,-108.9907,140.6099,26.0641,-97.5428
-3976.5625,6.1633,-67.3956,71.5656,-131.8234,121.7259,-94.2468,187.8438,-96.6896,299.4829,-119.3609,96.4155,-133.6191,134.4256,-146.4787,164.5969,-110.5736,-29.0002,-95.4122,36.8608,-53.8518
-3968.7500,-5.5612,-78.9996,55.6124,-73.7682,107.1483,-107.4692,135.8659,-37.7751,100.5568,84.1583,-66.2556,-81.0327,24.0187,-87.9344,38.5947,56.3436,-75.8612,-1.2983,60.8135,2.9935
-3960.9375,38.3436,70.0395,26.3024,-30.0546,77.2206,-99.0452,70.5442,-29.2009,107.2627,53.3497,-59.2903,-23.6748,-7.7086,-80.7313,9.2387,23.9188,2.9163,-96.5255,-0.5765,45.4911
-3953.1250,41.9949,3.8204,29.7458,-62.5984,8.0451,-204.8802,0.9812,-61.8723,220.7345,92.2856,-55.5626,-55.7404,-19.3587,-39.7859,48.6396,25.2440,-28.5503,-22.0283,3.7893,47.7401
-3945.3125,-114.6619,23.2808,-21.1046,62.5452,-6.4253,-33.0301,-48.8784,72.1555,-161.0829,223.9345,-69.1392,52.5370,-43.0906,56.8620,-38.2496,83.2763,-44.3197,104.1674,-46.1368,-4.3062
-3937.5000,-40.4360,-8.3590,128.9458,30.5969,71.0036,-101.2736,-44.8406,-70.9036,99.9738,4.4956,118.1783,-32.8261,56.6052,-49.5850,0.7616,10.2227,63.8102,-102.7439,-112.1602,-2.4492
-3929.6875,-13.5138,-16.3075,153.6994,57.3372,59.1344,-111.8396,-92.0992,-82.2746,-96.2269,101.7524,33.2003,-12.3096,21.1094,-24.3401,-10.5084,106.8751,55.6419,-39.9822,-120.4824,58.1141
-3921.8750,-23.9581,9.3796,179.0929,82.7253,84.9149,-121.7653,-65.7104,-92.9862,-107.7870,14.6886,58.8590,-13.6344,39.1727,-72.4395,-22.1267,93.2016,151.1088,-188.5665,-94.1481,82.3362
-3914.0625,-124.9644,-162.4933,180.9350,-54.4416,88.1463,-227.2499,11.1345,-162.2492,226.1217,15.0790,60.9713,-119.9510,86.4056,-70.0859,90.7118,-16.0148,155.0265,-184.7220,16.6361,120.0148
-3906.2500,-336.0287,-232.4335,70.7299,15.3292,88.3326,-116.8091,48.9316,-15.5714,5.0190,197.4318,-85.9665,-60.3638,23.5974,4.2132,16.5113,90.7266,119.8915,-113.9342,87.3776,118.6505
-3898.4375,-393.6556,-289.9270,10.9769,-111.4444,101.9693,-173.9172,137.1799,-37.4380,350.3465,100.2549,1.5332,-159.5116,96.9592,-55.0390,140.7558,65.9337,62.2104,-205.6965,171.5718,94.7431
-3890.6250,-536.7845,-362.9284,-101.2671,-149.7244,64.1091,-138.5524,209.9321,-1.8197,348.2190,243.5746,-110.4572,-153.9739,63.4452,17.1872,175.5141,98.6447,-45.9598,-66.9822,240.2712,91.3422
-3882.8125,-596.8762,-246.8873,-162.4628,-34.9527,75.2988,-14.1493,258.7346,46.8494,139.1448,179.9770,-135.4181,-70.9135,60.0143,-7.5385,150.3252,108.4266,-0.0912,-91.2153,216.0262,64.9987
-3875.0000,-466.6291,-222.4951,-137.3093,-45.8317,101.8393,-134.4112,285.8884,-73.1298,349.4251,57.7367,-36.0331,-150.9601,116.9493,-164.9110,213.4902,95.5734,24.1288,-136.1168,171.1303,53.0142
-3867.1875,-480.7372,-201.4638,-151.5037,45.9225,51.0293,-36.0515,235.6917,60.5258,77.3975,226.1607,-123.9956,-83.6254,51.4703,-142.6393,125.3199,189.3808,-61.0050,-8.3811,192.8895,37.6917
-3859.3750,-368.7630,-194.3377,-144.6016,-53.2194,58.3173,-64.5987,280.5968,68.2875,268.4487,84.7135,-42.8726,-137.5980,92.0947,-171.2594,169.2471,121.3136,-18.0440,-141.5450,200.7484,43.4802
-3851.5625,-358.9941,-254.4231,-99.8936,-148.5711,67.4082,-129.3638,252.2969,76.8412,350.3262,238.0661,-107.9396,-183.8894,53.6147,-162.0814,139.9851,164.0544,-113.2796,-95.9334,246.4078,87.0775
-3843.7500,-343.0902,-133.3762,-122.0401,-61.7738,7.6496,-76.9917,157.1430,128.5455,70.3505,361.5935,-129.8645,-96.8105,1.5620,-110.7424,80.8737,248.9630,-98.3754,-113.1655,157.2189,136.8354
-3835.9375,-171.8085,-67.9314,-19.7903,-137.5692,0.2881,-266.2164,76.3854,-25.3408,356.7606,241.5392,-27.3965,-164.3766,24.3823,-191.9951,109.1597,165.2910,2.9265,-223.0056,153.4245,201.0012
-3828.1250,-167.3903,-27.3529,-16.3933,-62.2249,-31.9253,-224.3145,7.7788,15.9175,65.3653,390.6507,-97.7849,-78.7709,-72.6639,-115.1001,-70.3866,277.7820,-27.6304,-76.7067,124.7788,240.3260
-3820.3125,-43.3116,61.9172,1.6857,-44.1720,-13.4446,-241.7086,-9.1307,-1.1061,83.6531,260.5025,-5.5027,-74.6116,-62.2848,-169.4874,-125.2301,257.0104,61.4965,-233.7036,107.8319,257.3606
-3812.5000,59.1504,-11.4281,34.1626,-152.7320,-17.5611,-317.7253,-12.6348,-114.7379,227.3789,217.7570,27.1856,-147.4820,-48.4942,-173.4755,-92.6543,250.6548,23.0339,-200.3405,141.2916,288.8022
-3804.6875,50.1730,14.7476,-11.7954,-90.7650,-26.1157,-215.2331,16.4256,-12.8424,-75.3131,244.5774,-55.5723,-57.3640,-101.0387,-71.9248,-175.5115,350.8589,-20.8780,-102.4480,133.3091,278.8024
-3796.8750,121.2938,16.0184,-10.6520,-195.6929,-24.5685,-322.6538,18.5825,-47.8489,183.0780,170.5158,-17.2404,-132.1286,-51.6402,-106.2719,-27.2616,313.1908,-89.6984,-171.4631,65.4101,278.9210
-3789.0625,21.5495,-13.5678,-152.3638,-120.4718,-91.8799,-205.9481,-12.1250,32.2859,5.6462,358.6199,-195.7594,-65.5629,-128.7493,-27.4655,-21.8493,389.6906,-225.3685,46.6616,71.6568,283.2135
-3781.2500,-50.7168,19.3243,-191.5795,-86.7584,-57.6912,-132.7573,-13.3342,66.9208,40.7037,282.2569,-160.7861,-59.1953,-92.7724,-66.1582,13.0650,385.7179,-157.5378,-60.7120,36.4290,280.0161
-3773.4375,26.2690,-78.5458,-110.5317,-185.8121,-50.2425,-272.3410,31.7184,-72.2077,304.0410,214.1445,-79.5449,-170.5755,-20.8043,-131.6173,129.2413,281.0058,-115.4468,-122.8732,78.4526,286.0734
-3765.6250,35.8086,-103.8809,-62.9267,-141.3280,-38.2446,-222.4030,7.3140,-22.7993,22.9557,261.6028,-104.7541,-118.3116,-36.5183,-46.5305,67.9804,290.8673,-69.8204,-77.4913,89.0176,259.6980
-3757.8125,163.0244,-81.5177,-1.6320,-154.1356,-50.5533,-270.7678,-4.4033,-108.6785,266.5492,64.7923,-7.2810,-142.3569,4.7898,-58.7340,128.4189,165.4629,-12.5065,-195.4105,8.2757,246.0424
-3750.0000,94.6338,-79.7648,-36.9412,-46.5546,-121.4662,-193.7642,-75.7237,-69.1701,121.5857,211.3925,-115.4037,-65.5422,-64.6591,17.4554,93.2790,202.4724,-80.7921,-51.9545,-60.0675,246.8017
-3742.1875,73.2276,73.9761,-58.2521,107.0244,-179.3814,-29.7826,-169.0452,20.3317,-82.3750,152.0254,-100.5394,81.9474,-123.4260,105.6517,-36.8527,179.5099,-32.0861,-107.4993,-115.4141,224.5745
-3734.3750,148.2084,78.1184,20.8339,76.0074,-172.8963,-96.4127,-198.9693,-82.7705,144.0694,83.0704,-57.2778,48.6431,-114.1016,75.2419,-30.5773,73.9669,8.0249,-102.6646,-145.3657,192.7598
-3726.5625,76.2823,148.3464,-14.9728,251.0823,-172.3125,52.0243,-270.7978,28.2098,-221.3514,194.2341,-129.9124,172.0665,-181.0575,113.9245,-177.1848,146.5423,-27.7678,73.2555,-215.2201,156.0600
-3718.7500,164.0343,200.2744,39.9116,232.8672,-153.0346,-38.8449,-250.9315,-62.1047,-56.0966,-8.8682,-1.8593,123.1515,-102.2824,22.3105,-84.0950,52.8551,58.1314,-120.1283,-232.3819,137.0751
-3710.9375,161.8814,163.3012,37.9013,160.7423,-117.6602,-111.6453,-215.9719,-136.3311,-21.7055,61.1351,-3.6965,81.6091,-85.9157,20.7909,-49.8861,49.2854,21.1324,-51.4435,-198.4529,134.2036
-3703.1250,130.8611,238.4680,44.0368,199.7672,-75.1413,-69.3132,-171.8713,-57.4136,-198.1649,29.3273,2.6010,133.8104,-88.2919,27.4294,-116.5174,90.8969,25.2762,-81.6121,-193.3777,102.4980
-3695.3125,220.0262,185.8315,101.3749,42.9985,-55.4289,-230.7920,-114.5809,-145.2993,79.5698,-134.2576,97.0939,11.7026,-16.4228,-62.7248,-23.9437,-1.2610,79.6190,-131.6036,-104.1111,85.0075
-3687.5000,55.8393,92.8321,43.3672,89.8691,-39.0681,-104.6495,-98.6497,-19.5565,-198.0072,26.8199,-34.7586,54.3495,-54.6593,-9.2279,-81.7023,50.2482,21.6123,91.0332,-20.2022,26.1836
-3679.6875,69.1864,107.3739,59.9064,68.3020,51.8378,-85.9621,-7.1813,-38.2577,-145.0615,-104.5197,55.9248,30.1450,14.1071,-65.1677,-63.9196,-44.6594,70.1491,0.2211,-40.7472,-31.0769
-3671.8750,46.5820,-21.0431,74.4963,-24.2252,103.7922,-144.2452,45.3316,-96.9146,-20.0396,-53.8000,70.6593,-57.6093,67.2212,-87.0596,23.9234,-68.4876,47.7405,49.4228,-27.2465,-54.2739
-3664.0625,4.7652,43.3124,69.8788,75.0336,62.5448,-0.7531,4.6384,-27.7737,-245.1956,13.7599,29.1792,37.9781,18.7077,-18.1422,-54.4197,-37.4785,77.1138,78.4176,-67.9431,-96.6539
-3656.2500,96.0311,63.7573,128.3522,25.3919,85.3980,-88.1719,-45.9627,-114.5249,35.7378,-185.5528,124.7906,-15.4848,66.0987,-69.1170,5.3416,-90.3331,167.5824,-5.5033,-81.5460,-111.9181
-3648.4375,39.0938,6.9876,143.6274,108.5341,64.0547,2.1784,-103.7687,-62.4962,-206.4939,-24.0584,67.2125,33.1216,18.4153,-16.3001,-90.0740,-3.3678,145.8529,149.3522,-67.3564,-134.3634
-3640.6250,53.7407,56.8014,160.4950,123.2808,80.3092,93.1155,-122.9856,-7.8623,-226.1547,-117.9159,120.2157,48.0788,51.3671,-35.8701,-72.8875,-61.7606,196.7088,23.8157,-86.5723,-155.1915
-3632.8125,67.2797,0.5065,174.2627,31.9211,58.4658,-2.0681,-144.3094,-67.3306,9.1014,5.1443,97.1200,-11.6964,37.5616,-21.5419,-21.7950,-85.2265,139.4649,3.1542,-71.8942,-142.1058
-3625.0000,-35.1885,39.1960,31.0313,140.5521,-11.3791,75.7203,-103.6360,84.1915,-207.6212,155.2343,-8.9818,73.0917,-36.0818,19.7848,-91.6885,27.3390,38.2071,112.4794,-67.2214,-139.0020
-3617.1875,30.4759,34.0324,23.9400,30.3359,18.9254,-3.3565,-72.8185,-32.1294,80.7935,0.5091,95.0536,-24.9800,43.6622,-60.7350,49.5716,19.0947,33.0899,-33.0613,-106.4034,-109.7288
-3609.3750,-21.6594,-52.9428,-31.9510,13.2991,-0.5722,14.7268,-90.8006,-14.2681,-48.5444,127.9978,38.2942,-31.1021,28.5095,-6.0683,67.0530,109.0740,-53.8307,92.5735,-86.3841,-56.2339
-3601.5625,-51.6083,-12.7326,-26.6448,53.4571,5.1289,57.9865,-84.5893,28.7918,-190.6881,58.7326,80.7214,-0.9640,56.0505,-0.1989,72.7333,113.2894,21.4424,-7.5895,-115.1630,-51.5200
-3593.7500,34.1405,-66.8221,25.3706,-0.6826,21.5288,-35.0734,-104.6847,-64.4574,46.8697,-35.8255,133.8587,-74.8653,91.2798,-56.6342,126.1123,54.2334,37.4239,-26.0759,-134.2550,-36.0910
-3585.9375,-43.2050,-4.0179,-17.7007,133.0730,-21.1723,142.7321,-147.8906,39.1728,-252.6514,66.5316,-20.0931,64.5500,-21.9857,46.8297,-27.6021,120.1025,-4.6968,108.3218,-140.4603,-43.7465
-3578.1250,30.0446,-0.6123,21.8301,101.4390,18.7257,73.1262,-143.5110,-29.6023,-28.6024,-77.4847,56.5505,13.4792,23.3457,-22.1033,12.2822,12.6044,68.7805,-28.6886,-136.0791,-40.7865
-3570.3125,42.2071,-94.3100,-1.7266,42.6997,-4.4748,86.3845,-130.2398,19.5004,-52.6230,44.3969,-40.8881,9.5836,-24.3601,63.8499,-10.9172,24.0220,-23.8381,90.1693,-51.8093,-28.9086
-3562.5000,5.7169,-59.6692,-37.9337,77.3075,-4.3291,160.9711,-54.6287,131.9408,-162.3036,7.6555,-113.9875,67.5462,-66.2002,102.1611,-83.7514,59.8195,9.8853,54.3780,17.8013,-65.6603
-3554.6875,112.8197,-93.4223,36.4581,-27.4808,34.4081,16.1432,20.5716,22.9799,207.6122,-101.4715,-38.4867,-27.8178,-12.9436,30.0758,-8.9793,-49.7579,11.2107,-49.8355,20.0016,-64.7960
-3546.8750,-8.0753,-108.1857,-51.1458,27.7178,20.1420,113.2793,43.7662,82.9997,-63.4355,30.4173,-163.9838,46.8021,-69.8007,126.9837,-59.1876,44.6910,-38.4675,146.9265,6.1966,-79.9146
-3539.0625,39.0143,-61.9549,-1.7561,39.9264,70.8695,90.4073,20.9520,23.0243,-13.5082,-177.6542,-3.4936,27.2653,4.0439,66.8973,-46.3990,-16.8251,78.8476,-17.3128,-16.6170,-104.0190
-3531.2500,53.4539,-117.3793,88.9891,19.4806,87.9446,33.8623,38.4789,-33.6118,40.8022,-198.3709,-23.6504,-1.7750,16.0280,47.1631,-29.2481,-73.9718,58.5135,68.7672,-0.0928,-124.7591
-3523.4375,-10.1144,-39.8172,61.7311,96.0295,98.0123,118.2974,48.9998,14.7445,-205.8790,-151.0611,-12.8205,77.1537,4.7909,94.4376,-92.0858,-65.0887,100.1685,40.8454,7.4254,-188.4823
-3515.6250,52.1118,-118.4547,130.2646,-16.6131,129.8712,-33.4770,118.3093,-101.0966,120.2272,-267.9262,91.8023,-30.9023,93.3413,52.5196,49.8743,-181.3735,128.6184,-106.2905,35.7360,-231.3900
-3507.8125,-27.5090,-162.9483,83.9516,-26.1150,120.8755,30.8668,146.7579,0.2000,-72.4820,-130.6237,-27.4195,-2.8503,56.4655,117.7365,40.9984,-118.4835,48.2177,24.7106,63.1858,-241.1318
-3500.0000,47.5081,-51.7983,89.2882,-20.9579,126.5248,-0.1442,115.8410,6.1534,6.4300,-162.6271,13.9943,-9.8958,71.3766,49.6031,83.7663,-113.9039,53.4585,-180.6293,33.2780,-236.2081
-3492.1875,115.5247,-124.6544,47.6280,-128.8028,84.1727,-115.1713,73.9163,-71.9057,223.3593,-20.6175,-27.5870,-107.2426,48.9706,8.4574,152.5432,-46.3004,16.7095,-181.9933,32.3585,-168.2694
-3484.3750,68.1859,-31.8750,-5.3801,-36.0046,-4.5322,-19.5773,59.6362,23.6709,-86.0453,111.0765,-79.5185,-9.8089,-19.7322,66.9594,63.9775,84.9793,-31.3991,-158.7102,-14.9203,-110.6631
-3476.5625,190.2884,55.3548,47.0600,-88.7482,-61.7897,-150.5426,1.7928,-70.3087,150.9688,-20.7527,46.0000,-44.6906,18.9843,45.9172,153.8611,25.7465,20.9365,-351.9832,-66.7624,-58.5894
-3468.7500,172.7065,107.8796,26.8077,-36.2041,-155.7484,-97.2386,-91.7625,-54.0167,-53.6851,104.7226,-48.1719,46.9026,-67.7757,173.1665,96.0609,114.8370,-67.4283,-228.9755,-84.3200,-6.1969
-3460.9375,208.7204,180.0092,63.1499,34.9483,-192.1139,-23.3433,-163.7352,-54.1235,-126.7632,-80.1727,25.2449,94.6547,-58.6989,173.0248,59.8594,113.5604,39.7973,-297.3624,-117.2915,29.8125
-3453.1250,227.0415,57.4478,116.7979,-52.5946,-175.1825,-115.1645,-183.4220,-145.9411,111.4645,-98.7739,115.9656,-12.6100,10.1976,117.1844,149.9641,56.6047,22.3319,-278.4773,-132.9809,83.1387
-3445.3125,74.2664,9.7770,-7.6482,40.7564,-224.3583,17.8826,-232.2191,24.1187,-231.3864,70.5452,28.5903,63.6063,-36.6769,214.2412,100.9823,189.5770,-58.2392,-114.7051,-143.7847,106.3850
-3437.5000,102.1299,-31.2426,-15.4547,-35.2347,-195.8925,-26.4295,-240.3854,-20.1679,16.3819,-11.4432,167.8567,-39.0171,39.7089,95.9558,166.6512,144.2456,-30.1743,-226.2891,-149.9579,134.3006
-3429.6875,43.4974,-89.7639,-38.7599,-58.7321,-182.9384,-13.2694,-264.0745,-6.9700,-42.3222,111.0839,106.6347,-45.2186,4.1186,109.1707,105.8327,193.4451,-123.6083,-3.4009,-136.6466,146.7356
-3421.8750,-60.0892,-19.2414,-110.0183,46.8204,-143.9436,136.9274,-260.7302,106.2769,-222.9929,76.7061,72.4499,39.6100,-9.5753,112.4426,35.0638,158.7360,-88.0032,32.5420,-135.2984,112.2389
-3414.0625,-85.9776,-79.0155,-62.5741,-13.9247,-59.2559,37.8097,-212.6964,7.2213,45.0371,-58.9517,156.9662,-35.2887,76.0351,50.4119,120.9964,21.7547,-8.6958,7.1621,-89.2615,86.4584
-3406.2500,-235.7583,-88.6989,-70.0217,48.4194,-29.4738,141.7600,-144.5676,75.2453,-217.7996,81.5080,40.5894,47.5257,22.9533,117.4764,4.0395,-22.1054,-52.2919,175.8649,-28.1342,42.7958
-3398.4375,-141.1405,7.0176,-41.0707,73.1730,-0.2957,134.1036,-80.0538,-6.3300,-79.2754,-74.6018,68.6020,61.5611,27.2363,72.9492,-3.5248,-67.5312,8.5028,24.9745,-36.6189,-2.4514
-3390.6250,-109.1127,-31.8658,-45.7135,0.3213,-4.7177,92.8292,-10.1472,-47.5200,-9.3406,31.6913,-45.9767,17.2130,-18.4375,32.8147,-7.6813,1.4613,-100.2969,92.4654,31.2843,29.7166
-3382.8125,-123.6905,23.6392,-134.9587,54.8707,-21.7447,112.9436,10.1470,46.6935,-135.0199,88.4206,-99.1632,68.8765,-62.1597,53.0833,-61.4393,94.8781,-114.7068,112.3663,51.5816,49.2985
-3375.0000,-77.6213,-35.1964,-86.5577,-107.9188,-46.1282,-21.2919,97.0777,-51.4367,317.9309,26.8191,-13.7047,-63.7380,-14.2155,-44.9964,25.4497,32.9638,-102.4672,19.9041,99.5180,61.5388
-3367.1875,-187.1346,-74.6282,-163.7512,-112.3140,-50.1205,48.8472,129.3963,55.8180,167.3095,243.6262,-163.8422,-40.7812,-76.0971,-11.6845,-15.2515,138.4615,-247.8227,191.8231,130.8449,57.1888
-3359.3750,-160.0482,-82.4555,-208.3466,-156.0959,-20.5215,4.5808,233.2991,48.6732,344.2502,162.0651,-98.3905,-102.3678,-8.1007,-91.7617,88.6417,57.5942,-185.5802,8.3424,158.7586,49.4482
-3351.5625,-76.3011,-138.6319,-194.2863,-282.2295,-6.2738,-91.0526,247.8473,-10.8368,469.8559,213.1500,-84.2770,-181.0934,11.5121,-113.1979,139.1898,-2.6123,-241.6788,92.4930,138.3087,63.3664
-3343.7500,-167.8571,-55.1140,-252.5160,-127.6642,-64.3231,34.9980,116.0875,152.3384,117.1694,301.9502,-105.4624,-67.4143,-36.2248,-61.9386,45.4434,86.8921,-228.0825,177.3519,117.5495,41.9937
-3335.9375,-100.3716,-22.5423,-143.6949,-166.0366,-66.3209,-40.8996,78.3682,40.5664,373.5078,152.8055,39.3938,-124.3961,32.4393,-135.6244,116.7386,-26.5260,-124.4320,34.2641,45.8291,39.6777
-3328.1250,-101.8727,12.0254,-72.8699,-62.4160,-30.3220,-41.8150,3.6425,39.7809,114.8736,225.6488,-35.7400,-56.9664,8.5798,-100.3218,80.0437,-27.9253,-56.7814,138.1682,-25.8996,38.3712
-3320.3125,-14.0304,169.9412,57.2991,60.5647,-10.9745,-59.3804,-50.7378,-51.6504,-12.4393,23.8703,20.4652,57.0731,1.3701,-7.6634,25.6948,-8.9508,66.2026,-19.5686,-113.2843,20.4256
-3312.5000,71.6179,79.6641,109.2711,-29.6581,5.1690,-226.1559,-71.3250,-181.2920,151.0508,-71.1026,73.4799,32.6864,5.8064,155.7940,42.1506,6.8366,81.9897,-74.5283,-96.8815,36.2920
-3304.6875,-27.5753,51.5319,43.3948,48.2604,-24.5430,-72.8042,-63.7748,-64.7953,-134.3003,10.1012,-30.3590,152.4227,-81.5098,347.4026,-97.2371,87.7963,18.9176,3.6601,-89.3388,43.3221
-3296.8750,125.3213,63.5089,55.6116,-45.7040,-49.1651,-132.3522,-87.1414,-88.1953,98.4179,-123.5649,55.8940,48.8251,-21.5262,213.1194,25.4655,25.8891,65.9356,-160.0497,-110.7104,55.4654
-3289.0625,104.6804,42.9425,33.2876,-31.2230,-106.3431,-81.4726,-108.0705,-37.1648,2.6176,0.2178,-40.3913,66.5212,-57.6865,228.2756,40.6241,40.4494,-25.5946,-5.3220,-95.6535,70.0718
-3281.2500,33.2859,111.6349,-39.7908,73.5240,-106.2827,66.6564,-107.7682,38.1137,-141.9539,-72.7179,-39.4319,143.8495,-57.1376,229.6843,5.0284,-32.7136,9.1105,29.6716,-97.3701,33.9431
-3273.4375,18.0470,61.4921,19.2786,23.4319,-48.0782,-22.0703,-49.3284,-50.4655,99.6247,-123.5096,56.6855,67.3911,17.1714,141.2396,64.5803,-156.7101,-6.0251,14.7886,-76.9509,18.9771
-3265.6250,-69.1715,45.3415,40.3564,112.3277,-26.8728,109.1771,-64.8904,44.9311,-245.7705,7.6875,-33.1858,137.5777,-42.9576,162.7868,-98.8558,-100.6954,12.8446,174.8860,-57.5392,3.0265
-3257.8125,22.0681,100.6428,98.8876,133.6824,-4.2173,94.8711,-42.0127,-6.2244,-113.7646,-153.6593,62.3917,118.9774,-8.3255,74.7898,-112.8467,-187.2056,139.1646,19.4420,-106.6899,-11.4639
-3250.0000,42.2739,85.9002,84.3805,153.9851,-55.6117,80.5047,-93.1951,52.5566,-163.7997,15.9262,-25.0661,131.5729,-77.8812,97.7295,-162.8809,-92.7605,53.4427,110.9425,-120.9066,-25.9982
-3242.1875,12.9292,197.6083,18.3213,229.7485,-47.5578,162.5913,-121.9397,134.7877,-339.4091,96.9840,-54.0808,184.7870,-103.2600,69.1189,-191.4685,25.1410,24.1658,10.9190,-114.6841,-55.0788
-3234.3750,133.6834,142.4276,68.3675,68.6262,2.5979,-8.2146,-71.5966,1.1262,42.0559,0.1592,33.0051,33.6371,-27.7985,-64.4004,-67.9680,-71.8486,38.9946,-184.0042,-64.3765,-5.0605
-3226.5625,104.1966,77.9962,37.1756,40.2561,44.5004,-40.2834,7.4826,6.2056,-209.7092,79.1044,0.8481,31.1361,-11.9343,-22.1838,-62.7234,6.9230,10.5744,-73.1818,13.6686,36.7087
-3218.7500,136.8567,75.7243,35.1288,-32.9443,79.5443,-79.1929,42.6967,-32.5522,-101.3686,-106.7666,108.8272,-33.8568,64.8447,-96.8099,9.6478,-32.1231,78.3003,-144.1962,11.8502,34.6308
-3210.9375,80.2846,-51.7894,11.8409,-89.3949,56.3358,-137.3596,93.6558,-91.5678,59.7261,-19.8946,86.5719,-84.8728,76.8619,-46.6956,97.7669,18.5879,-49.2177,-61.4818,-10.2258,48.3077
-3203.1250,-2.1790,6.7919,-38.3441,-30.7477,6.2225,-41.4356,80.7116,-31.4898,-99.0811,41.0869,-0.5855,-6.2854,2.8719,14.5178,10.9889,116.4107,-60.6354,-37.6573,-21.2076,72.0904
-3195.3125,148.3598,-18.6156,43.4751,-161.0867,14.1097,-179.5036,51.7578,-169.4087,239.0832,-96.9292,118.2561,-97.1310,44.1574,-13.2723,56.1995,13.2500,-16.0479,-167.8286,-11.2052,116.8761
-3187.5000,87.2168,-9.7147,-20.3932,-117.1222,-12.7058,-59.2899,-11.9049,-49.0476,-8.4221,58.3416,-19.5908,-18.4854,-56.8388,69.2187,-80.2818,133.3901,-112.1542,51.2942,-1.9177,125.9686
-3179.6875,103.9812,78.0913,-38.3602,-100.2424,5.3723,-5.1747,-29.6839,-30.7906,-62.0590,-32.4701,35.4544,5.4443,-28.0948,51.6141,-60.8743,115.4539,-59.3612,-36.6735,-19.7410,107.9718
-3171.8750,110.8169,-21.0374,-31.2698,-163.3137,49.4924,-70.0208,-22.4271,-96.4932,128.3516,-25.2395,42.5635,-74.9188,4.3932,-13.9455,-17.4184,48.5857,-52.5092,76.3873,22.4734,115.0338
-3164.0625,-38.6825,5.4852,-110.5207,-31.7350,6.2555,69.7692,-29.5292,80.4419,-171.5893,115.6570,-73.6779,20.4321,-56.5719,16.1444,-96.3211,116.3860,-96.0117,209.1036,50.3265,71.7552
-3156.2500,-11.2290,-2.0307,-44.8219,-40.1925,36.9646,-10.4823,1.3086,0.3328,115.3742,-38.4817,30.0291,-59.1157,15.4922,-135.8134,-30.2878,36.1534,0.4375,129.7709,42.1175,28.4347
-3148.4375,-65.4545,-56.2428,-25.8122,47.6449,18.9767,45.5511,-16.5602,19.5019,-12.3430,127.6579,-61.9429,-21.7483,-30.0202,-117.4853,-84.9500,55.2249,-88.8043,323.7206,24.1960,10.4253
-3140.6250,-140.4231,44.8030,-65.5529,113.7383,16.2343,152.8316,-56.1930,89.9149,-125.8490,88.0607,-27.6666,38.3412,-30.4744,-120.9019,-124.3652,51.5699,-22.8055,247.9359,19.5048,-29.3231
-3132.8125,-44.2288,-34.9832,-1.1454,32.9906,42.6366,32.2623,8.3132,7.4708,196.7781,5.6019,-0.2276,-50.4229,16.5248,-166.1721,-22.6310,-67.9247,2.3478,133.2940,44.9465,-38.9156
-3125.0000,-112.0714,-32.8163,-33.7858,71.1942,46.9873,110.6354,48.7621,84.9575,-93.6272,120.0961,-106.8376,28.7632,-52.9086,-51.5001,-128.9398,46.5325,-30.5556,170.6059,83.3247,-71.5528
-3117.1875,-22.1147,-47.8374,24.3696,-14.7886,69.1301,21.8221,71.0052,70.2539,75.7325,-5.5940,25.3430,-48.3164,15.1774,-103.0229,-69.4598,-5.1957,24.3391,-55.2732,68.4907,-86.3875
-3109.3750,-8.2911,-139.9977,1.3850,-70.9235,83.1218,35.8487,85.0880,84.3933,52.9560,119.5493,-33.6096,-74.0190,-1.0096,-51.7075,-55.1267,82.9234,-101.9005,28.6873,82.4935,-72.3710
-3101.5625,-12.1602,-72.8528,-2.2916,-74.7518,79.4062,106.1743,118.4619,154.8352,-134.5514,42.0119,-37.2670,-33.0845,18.5247,-18.0944,-21.5046,79.3565,-70.8411,-10.0312,42.7922,-76.0560
-3093.7500,69.4817,-97.1956,45.5359,-170.0624,127.1951,-29.9850,129.3273,17.7800,171.4176,-94.0297,46.5744,-136.5350,109.3772,-117.9880,136.6062,-56.7124,-25.2679,-69.2473,53.5756,-65.2470
-3085.9375,-3.3080,-98.9831,6.9253,-136.8161,125.5347,41.3979,127.7343,90.2620,-88.0523,14.4701,-28.0275,-75.1402,65.7687,-45.3422,61.2673,14.7584,-97.1378,105.0895,87.8941,-66.8903
-3078.1250,37.1502,-58.5066,12.5627,-166.2965,168.1229,10.0482,133.3807,22.0023,64.6821,-126.7683,87.6131,-109.8260,114.8780,-113.4440,67.1603,-89.5109,13.2432,-30.3078,93.4528,-61.2850
-3070.3125,29.1231,-137.5209,3.7119,-139.2694,158.2081,-35.8050,123.5228,-23.7701,91.9312,-62.5238,40.7640,-131.7604,107.3202,-123.0608,94.5568,-62.2840,-29.8612,102.7833,49.5006,-34.1792
-3062.5000,-79.3486,0.0181,-36.5908,68.3129,154.8382,144.8904,83.2086,46.0043,-278.2764,-28.7142,-35.5425,19.5472,64.3109,-89.1294,18.4930,-28.4981,1.5787,169.4445,-58.9031,-37.5213
-3054.6875,-7.6613,1.7255,2.2545,35.0619,156.6132,35.7463,122.0384,-99.0624,53.6398,-173.7552,3.3012,-55.5201,108.6453,-196.0536,130.5607,-100.5571,73.1704,30.2577,-57.1617,-35.7117
-3046.8750,-104.5999,-24.2136,-62.5443,79.1554,128.7334,81.9397,131.2162,-15.7897,-121.0696,-17.4548,-135.4894,1.3100,48.1575,-114.6416,102.9754,-17.2773,-22.8823,180.4153,-13.0674,-26.5507
-3039.0625,-88.5915,-8.1926,-46.3958,60.2108,144.8018,61.0973,184.3418,-36.5586,-67.8633,-112.1907,-45.3380,-15.9149,91.4736,-134.2825,119.3205,-38.0404,28.0161,55.5466,-32.0244,-10.4430
-3031.2500,-16.5181,-78.1085,26.8146,-8.6723,106.9179,-49.6892,146.5107,-146.2854,79.3925,-147.8950,-9.1225,-72.8573,90.5147,-133.8850,118.7107,-75.7555,63.9763,91.7138,4.0521,25.7140
-3023.4375,-88.8714,-8.4639,-11.4201,129.9958,32.5746,133.0694,-1.7841,-38.4656,-252.8091,-40.0364,-84.3537,70.0354,-11.7292,11.0591,-29.3536,34.0857,62.4734,125.4403,-33.3370,24.4284
-3015.6250,42.7900,17.1973,53.3449,85.6788,-13.7795,50.8336,-48.0940,-120.6385,-5.0504,-158.1663,54.4172,19.5874,7.5195,-34.9937,-38.4315,-49.0609,158.9671,-23.8325,-77.7391,15.1489
-3007.8125,77.8315,-17.7819,53.4677,156.7011,-50.7902,123.9307,-121.0565,-47.4771,-224.9115,-11.9576,-19.4479,86.9623,-68.4638,76.2874,-147.1572,25.1394,87.8152,81.2308,-112.7998,15.2257
-3000.0000,118.3846,92.7484,95.0947,197.2348,-82.3034,166.5301,-188.5295,-4.8196,-329.2997,-116.2333,60.1777,133.6362,-61.5580,82.0640,-178.4001,30.8520,128.1678,-54.1864,-141.3688,20.8087
-2992.1875,164.9039,34.2466,105.6767,67.7268,-71.8681,29.0828,-142.0615,-104.2228,-62.7451,-179.5775,142.7567,37.5699,2.4076,54.7832,-58.7055,3.5159,69.4909,-111.6588,-94.9951,67.3449
-2984.3750,35.7822,80.1019,5.6181,43.5740,-97.0837,39.9857,-58.2482,15.7098,-345.8351,-22.5865,43.6855,81.3056,-25.2508,102.8451,-47.6653,88.5235,-60.8259,-31.7679,-15.2783,78.2308
-2976.5625,66.6518,75.9690,-35.4414,-100.5540,-65.2949,-110.0864,47.5621,-25.3471,17.0274,-98.6011,113.6075,-34.8258,34.2177,-12.0829,58.3563,47.5258,-65.1391,-140.8584,15.4295,74.1097
-2968.7500,10.1356,19.4415,-92.8929,-122.0746,-86.9000,-132.5510,61.9747,-10.8115,68.4977,61.9562,17.1473,-61.2152,0.1298,-33.4230,72.9680,99.1082,-155.8361,13.6524,65.7332,88.5788
-2960.9375,-48.5245,66.7684,-118.4909,-40.7348,-75.6496,-48.1472,73.2315,37.5817,-30.2174,36.3691,-8.4691,-8.1891,-27.8785,-57.9144,-25.5887,73.5424,-39.6824,25.0398,76.8861,99.8868
