Time,Fp1,Fp2,F3,F4,C3,C4,P3,P4,O1,O2,F7,F8,T7,T8,P7,P8,Fz,Cz,Pz,ref
-4000.0000,-97.5605,-106.3530,-117.6011,-121.8232,-76.8068,-93.1649,12.3634,46.3969,175.9341,258.3060,-57.1652,-86.9756,-22.2004,35.8856,37.0495,154.0708,-122.7454,-60.1268,86.0500,7.1562
-3992.1875,-9.5387,-33.7374,42.4085,-54.6166,46.7543,-6.9250,138.3240,62.9128,-63.2885,20.2331,-5.1863,-36.7913,-43.7766,-58.8504,16.5778,-11.8256,-111.0038,-116.2735,-74.8946,-13.9121
-3984.3750,3.2730,26.6674,-44.0850,36.1398,-39.1939,53.8156,-57.2129,14.9188,185.0315,-171.3489,18.2988,59.8844,17.1521,-70.0994,4.6077,-132.2323,-14.7689,50.0750,-46.3494,84.5173
-3976.5625,57.7157,72.6703,58.9643,96.5762,64.4021,121.0991,-25.2025,121.4872,-404.0961,-172.3648,13.3239,53.0893,12.6156,-37.8011,-72.8198,-245.0896,8.0124,180.9865,-19.2213,-30.5184
-3968.7500,52.6008,67.8546,90.9226,80.3585,22.9085,189.2798,-65.2747,44.9682,-147.3299,-244.4731,46.2435,122.1777,8.9640,-77.6170,-75.3509,-135.0438,-65.3203,72.7742,-229.1974,3.3310
-3960.9375,-31.0937,6.3203,-40.4362,37.2319,-70.9047,131.1513,-157.6559,62.1471,-91.8075,-76.8701,-49.1414,62.9548,-84.9941,13.2612,-58.1774,30.7093,-85.9612,229.2547,-107.4612,19.8855
-3953.1250,-43.9882,-7.0868,1.2098,20.0955,8.2838,174.0159,-77.0326,145.3410,-410.3286,-28.2433,-78.5289,69.7148,-150.9610,58.1430,-12.0171,151.4554,-153.6017,91.7364,-241.7159,-45.5765
-3945.3125,-35.9085,-12.1319,-42.8886,4.4286,-109.2826,92.1320,-156.1622,-45.2228,100.4259,-103.3742,-11.6644,61.7242,-46.6782,-21.7408,55.3838,184.4442,-49.9937,-13.5441,-239.7404,95.2069
-3937.5000,27.7565,7.5372,22.5620,14.4293,29.6927,11.7930,-52.7558,-87.2403,-123.2712,-141.9556,54.7530,-18.7238,19.1392,-27.0783,50.3293,32.9678,45.1751,11.7397,-106.2048,52.5361
-3929.6875,66.9415,39.6105,100.3287,33.2387,71.9806,16.7619,-9.0471,-151.9567,33.2951,-279.2492,97.4744,22.1222,136.2461,-129.1224,94.5661,-31.2274,84.6410,-87.6834,-238.3923,59.1542
-3921.8750,47.9938,24.3106,11.3905,32.4441,-16.4439,-34.9666,-60.0537,-165.3861,169.2033,-215.2704,82.5022,-29.7315,157.6636,-70.8755,44.1033,-80.1445,139.4074,73.2007,-5.2936,45.0785
-3914.0625,76.4465,42.2446,147.9640,49.8365,157.6431,27.8086,79.4401,-27.3165,-240.4402,-145.8082,36.0330,-41.0957,75.5769,-42.1294,-73.8589,-159.5878,86.6816,21.6029,-18.6946,-110.5140
-3906.2500,66.2480,35.8603,87.6650,29.2607,23.8381,40.6913,21.0341,-48.1641,219.0213,-237.2878,86.6788,8.6452,53.5858,-100.3042,15.2829,-216.9584,32.0647,-31.9094,-35.0328,-22.0082
-3898.4375,76.6561,26.2895,74.4777,24.3372,48.1285,-9.3306,45.7112,88.0692,-84.4103,-134.6964,74.4346,-78.5132,-32.3110,-37.3898,40.5233,-299.2547,52.5642,94.6854,163.7315,-70.3937
-3890.6250,124.0354,73.4799,180.7665,66.7384,117.8903,61.0954,117.8471,49.7394,-157.4418,-279.6794,108.6494,-8.2299,2.2427,-76.0380,2.2142,-372.1252,48.5175,21.7244,-48.0729,-72.3337
-3882.8125,132.5275,118.4631,89.9554,141.8222,27.5509,80.4239,-45.1197,-38.7114,-22.5348,-400.7995,128.7736,47.9537,59.7130,-54.7986,-12.1864,-422.1049,176.3723,150.6622,-21.9955,22.6339
-3875.0000,191.3807,175.7062,235.5435,209.2769,210.6175,152.1544,-44.6862,-37.7614,-570.2568,-507.5319,128.2989,83.5254,58.5798,-54.1535,-48.1917,-530.6956,206.6311,182.0088,-165.5088,-51.0077
-3867.1875,185.7049,191.3349,224.0867,215.8620,88.6418,177.8425,-127.2933,-230.8632,-137.0226,-623.3380,154.7769,182.0485,48.3984,-136.5708,52.7418,-501.3501,200.8389,71.2938,-307.0909,86.3007
-3859.3750,137.9398,122.3437,153.7637,135.3395,55.8029,70.6755,-158.7583,-187.8188,-201.6070,-319.9974,122.4019,74.7180,-19.6407,-130.8445,58.8273,-346.8670,169.2058,111.7418,-124.4991,91.7652
-3851.5625,107.8776,35.1895,224.4474,18.1800,127.9810,-4.4860,-13.2126,-187.7599,-200.2394,-133.6582,121.0269,-36.6209,52.2997,-131.1221,21.9099,-52.4017,93.5732,-102.8062,-301.9073,54.2152
-3843.7500,15.2265,-59.1563,90.4307,-63.6073,-41.5540,-101.3369,-107.3753,-245.4092,296.4573,-5.0439,60.9567,-133.6515,177.5356,-43.1147,37.2854,148.3533,108.2463,-52.0522,-214.0369,105.9705
-3835.9375,-7.1547,-72.3630,86.6099,-60.4765,64.1095,-69.9808,35.6495,-101.8515,-71.6873,69.7676,-15.9127,-175.4850,62.9668,64.0968,34.8420,147.2896,62.1252,7.9258,-116.9629,-44.0844
-3828.1250,-4.4644,-25.6850,41.3549,1.5494,19.3334,32.9410,66.2237,-70.7443,292.6795,-116.9018,-23.2194,-73.7628,-17.0486,21.8432,29.9369,69.7571,55.5605,2.4412,-121.3689,-13.5994
-3820.3125,-33.2167,-22.3453,-69.1989,36.3553,20.2495,33.5638,68.4860,42.0471,150.7617,-36.9023,-95.8162,-111.3419,-52.3600,97.2749,-41.2718,-37.0984,86.7151,210.6600,230.9295,-85.4086
-3812.5000,51.1308,52.7343,111.7194,91.7070,200.6438,103.6393,177.2068,188.2855,-216.7757,-109.4764,-61.9518,-41.4784,-55.2277,22.1505,-117.0412,-184.5339,78.3327,97.3328,84.6749,-197.7802
-3804.6875,80.4647,110.7895,51.1997,148.2902,67.5908,117.2725,-28.5284,57.0559,59.2487,-236.5473,26.4789,82.9408,33.4571,0.5595,-100.2590,-277.4454,165.5079,115.5542,33.9427,-108.5976
-3796.8750,154.8270,179.3389,147.2324,188.5275,200.0924,65.4581,-4.7255,44.3713,-465.2031,-210.0913,86.4664,141.9101,19.6884,24.5148,-112.9317,-397.8358,218.2463,99.3479,19.7672,-158.8709
-3789.0625,202.6883,250.3424,236.0368,228.4131,179.3604,80.4034,-61.1660,-85.5647,-299.9439,-372.9137,139.2104,303.6335,72.6658,-68.7918,-132.8599,-379.4941,236.7327,-57.1199,-205.6860,-68.4044
-3781.2500,174.9060,249.6976,132.3408,234.6753,76.1145,13.8523,-162.1220,-150.0169,-251.1539,-323.2528,109.4581,310.8584,7.1481,-23.6054,-87.2930,-368.6546,281.7267,58.9173,-51.6470,13.5683
-3773.4375,189.8767,228.3761,250.4046,200.6376,157.6304,59.0570,-80.3301,-103.7102,-569.6703,-346.8412,118.4577,281.8258,-20.6319,-13.6661,-39.9910,-321.0728,181.4758,-40.2854,-217.8611,-13.7239
-3765.6250,137.0159,192.8704,145.5323,147.6681,-18.8032,-7.6743,-145.4902,-241.3639,-45.1207,-372.4147,125.5132,323.8476,-12.3626,-5.6896,78.3536,-127.4568,158.2775,-131.4456,-274.0466,141.0343
-3757.8125,119.0492,134.0012,155.7052,86.3701,27.8102,-71.3522,-96.6058,-192.9700,-213.5201,-209.9621,99.6214,186.9168,-38.0474,5.3285,53.7410,-41.8142,131.1437,-87.5368,-122.1696,115.8437
-3750.0000,99.7922,101.0072,209.3547,38.6960,81.8944,-90.5686,-4.2651,-247.1282,-9.5234,-262.0992,80.1941,166.4304,52.7179,-85.2155,72.5747,52.2431,80.4670,-244.1776,-276.8640,171.0927
-3742.1875,27.0841,48.7075,41.8132,5.7478,-85.2262,-148.9717,-97.1360,-266.5067,305.2900,-130.4875,24.5790,109.7397,70.2887,-67.9741,55.1983,145.0736,96.6111,-85.0044,-80.7781,225.1482
-3734.3750,-3.6321,13.4239,94.0424,-7.3321,3.4179,-58.6113,29.7389,-137.1405,-5.2161,-0.1626,-69.2777,50.7987,-24.4047,23.0139,-74.4390,201.6113,-1.4707,-42.0606,-70.9445,58.9408
-3726.5625,-38.5473,4.8739,-3.6038,18.0547,-92.8234,25.8667,6.7168,-122.6877,379.3572,-55.7990,-92.0223,62.9772,-47.0010,0.0789,-23.9839,180.2089,10.5646,5.9745,-91.0396,72.8277
-3718.7500,3.2800,34.8699,2.8063,80.1713,-13.0146,70.3979,15.7293,-4.2016,-52.0241,-81.4198,-85.7078,-3.7852,-76.5454,45.1870,-51.4936,-30.1715,82.6720,185.0813,124.9171,-29.2402
-3710.9375,95.9311,84.6063,193.5398,122.2697,141.1152,150.2494,97.0509,3.5884,-298.1756,-290.7703,-4.0907,2.7595,5.2095,-56.4103,-116.7289,-205.2789,87.0916,120.4886,-78.8500,-58.0271
-3703.1250,75.9714,81.5035,87.1298,137.0077,-1.9047,153.9624,-44.7856,-26.7887,-106.4526,-245.3145,0.3854,6.1639,-27.1839,-51.1685,-111.1188,-197.5577,127.3767,266.7495,34.2155,-15.9617
-3695.3125,82.4695,57.9150,158.7390,89.3657,108.0883,152.6802,29.3785,157.8293,-580.7702,-20.8983,-0.1288,-32.4322,-100.5783,-13.9368,-183.5161,-195.8764,13.6854,225.0294,29.2862,-162.9084
-3687.5000,63.8028,39.7472,139.0293,53.7073,50.7521,96.0646,10.2048,66.0846,-119.4600,-72.8922,17.0207,-15.3633,26.6798,-106.0769,-165.2677,-139.5898,33.6533,33.9526,-89.0291,-71.2135
-3679.6875,62.5504,6.7868,114.0224,15.2272,26.1163,-1.8393,-13.2814,80.0257,-214.4385,53.7750,29.8827,-114.5761,39.6395,-55.5288,-77.3288,-124.6379,78.3410,115.5905,99.3558,-94.8168
-3671.8750,100.4592,45.9123,250.9904,47.0921,90.4532,61.2215,52.1845,71.9208,-367.5390,-24.6326,20.7023,-50.8290,-43.4583,-65.0357,-49.4627,-131.7645,66.9895,-1.8122,-121.3221,-140.4850
-3664.0625,75.4229,65.5579,167.0246,67.8374,-67.1579,51.3459,-104.3110,-47.1510,30.4218,-68.0364,11.5896,48.9848,-52.5033,-36.5107,-20.5596,-102.8596,95.7061,28.8292,-88.9823,-39.0962
-3656.2500,79.1814,73.0042,218.2213,80.2175,21.3872,65.6266,-14.6676,42.9181,-391.5141,-48.3212,-46.3627,25.9544,-36.4029,-20.8419,-77.5155,-158.8230,71.5909,5.6408,-5.4841,-96.5577
-3648.4375,58.3027,53.1236,187.2939,43.8059,-9.2020,71.7730,29.8278,-60.1702,21.3498,-185.8013,-3.4530,68.7855,79.5366,-87.3315,3.3708,-113.9491,10.3383,-125.7018,-135.1705,-16.1717
-3640.6250,56.4781,28.0564,119.4703,26.2673,-39.6977,4.0290,37.4030,-15.1767,31.3148,-138.2262,3.5661,-36.2664,-23.4221,-42.7245,11.3423,-104.9906,51.2110,22.0751,120.2316,-8.6794
-3632.8125,79.6934,36.8190,206.0757,25.6411,83.2290,52.7039,161.3786,35.2157,-283.4033,-158.2946,15.9959,-23.9069,-83.9812,7.2772,-48.3113,-52.6653,-10.4938,-73.7352,-9.9771,-68.8023
-3625.0000,32.6940,9.1171,114.6031,2.2011,-44.9365,35.2912,34.2518,-17.5117,143.7847,-208.5142,-0.6586,-5.6349,-27.6282,28.1665,8.9221,5.5390,-24.2814,-51.6531,49.6860,24.9759
-3617.1875,57.9893,16.6293,170.0320,11.2850,47.8007,17.7855,91.0247,76.6628,-239.1459,-111.8437,-17.4145,-60.4593,-81.3759,84.9576,-43.9554,-46.3789,-10.1577,33.3489,171.2635,-65.3541
-3609.3750,87.1626,42.7421,213.6890,33.5590,55.7555,61.5022,99.0129,48.0431,-43.9191,-212.0067,27.0315,-17.0684,-36.9364,-17.0611,-72.6521,-111.1272,-1.8229,-27.4480,6.0143,-20.4963
-3601.5625,74.7468,40.2473,109.2585,60.9470,-11.3953,68.1376,-40.1149,56.3058,2.2269,-164.3153,34.3909,-47.7580,-29.6021,27.8063,-64.4569,-175.0141,74.4313,119.6721,155.6501,-12.7317
-3593.7500,107.9685,47.8621,167.2614,58.4224,156.8767,88.1854,18.1542,78.9675,-377.3036,-139.2684,92.1649,-64.0421,28.1360,-60.9349,-115.8763,-226.5500,54.1126,66.2092,32.6783,-101.5821
-3585.9375,37.8791,-5.2670,21.7025,7.4712,48.5645,53.6540,-15.1794,-64.9945,142.5472,-96.8894,94.3579,-62.9081,104.2901,-131.2998,-38.9064,-183.7271,26.2151,3.1498,-28.9336,11.9646
-3578.1250,-10.7785,-53.9524,-89.4988,-42.4601,48.6106,-20.5099,22.8228,10.3815,-38.2782,90.7793,57.9127,-136.4092,-42.2006,-94.3186,36.3955,-109.5952,-11.2995,71.4705,111.8018,-24.1374
-3570.3125,-28.5100,-74.1049,-55.3217,-84.7547,46.0400,-23.2970,94.1854,-27.8993,109.1667,91.7309,56.8343,-102.5437,-44.3426,-131.9937,108.0340,37.8469,-83.4412,-69.8536,-99.1371,11.1016
-3562.5000,-81.1861,-110.5677,-223.1898,-95.6134,-85.5785,-81.1150,-37.5151,-49.2526,347.5702,146.5684,34.7227,-161.7037,44.4717,-115.7254,87.6089,164.2182,2.3983,52.7816,59.8538,63.3010
-3554.6875,-21.5564,-72.0917,-114.9920,-70.9893,59.8663,-82.8641,36.8247,-10.5598,-91.0537,149.4182,71.6696,-162.8007,44.3305,-153.4058,51.2117,92.6224,32.3180,12.4865,20.8881,-46.4590
-3546.8750,-16.0340,-45.6600,-165.0204,-51.7019,-27.9254,-59.8402,-50.0875,-97.1322,302.0414,28.9647,131.3750,-67.1265,67.9335,-202.3462,75.5579,116.7600,58.0074,-101.0611,-92.3635,50.5295
-3539.0625,-58.3347,-65.4362,-196.4472,-54.4869,-22.1180,-91.2076,-116.4085,-17.1188,16.7412,221.0785,27.6899,-98.8453,0.1399,-49.6956,8.4947,161.4745,61.3217,-27.9911,53.9870,20.1217
-3531.2500,-41.7481,-52.7374,-116.7492,-55.3347,20.8193,-49.4624,0.3890,26.9958,-85.5164,157.2596,34.1181,-57.4569,43.4496,-42.9499,-21.4899,132.2584,-4.2548,-161.8155,-114.5721,26.7981
-3523.4375,-54.6494,-42.1993,-229.4485,-21.2683,-90.6428,-87.0994,-73.2127,-47.3024,209.8558,10.9979,32.1571,-58.4519,78.3642,29.3808,51.1132,58.6209,102.7836,-54.0360,28.4539,99.0795
-3515.6250,-29.3279,6.0282,-147.6380,27.6443,64.4105,-42.2228,82.6857,72.9056,-292.3243,-49.7877,-31.2977,-13.9385,-59.2206,113.2117,61.1956,-3.5578,69.3434,-16.7311,103.9902,-38.1461
-3507.8125,-65.9654,6.4506,-197.8501,36.2964,-22.5644,54.6314,70.5406,24.0606,27.3952,-170.6833,-44.7864,82.5515,1.1514,99.9797,86.2092,21.1707,-12.1269,-62.4784,-10.5553,22.5734
-3500.0000,-92.0096,-5.3203,-328.5557,49.5911,-6.0387,71.0040,13.8732,41.6994,-101.3984,-78.1332,-27.7605,61.5670,55.0327,154.2450,66.6985,-34.6337,2.9369,93.3010,110.3919,2.7984
-3492.1875,-30.3444,35.7227,-178.2759,67.8673,108.4671,111.3510,129.1546,46.2896,-277.3429,-144.6774,13.2282,101.5527,21.8560,48.4561,34.1192,-139.5265,-32.0216,24.0434,-62.7315,-66.0386
-3484.3750,-60.9763,18.2188,-264.8704,66.4271,-14.9224,97.8204,43.5248,-76.0403,225.8137,-191.1875,1.3349,87.6603,82.7769,-0.2509,59.6345,-150.3521,28.1467,14.8902,69.2156,-4.7663
-3476.5625,-22.9807,16.4932,-152.4974,40.9397,135.6537,27.2539,156.8373,1.5707,-136.1254,-75.7988,4.4016,16.7321,49.6526,2.9853,26.0862,-183.2725,25.2984,12.7204,139.1192,-111.5468
-3468.7500,-12.0838,30.9035,-72.7409,32.8539,67.6039,34.0678,90.5118,-64.4806,130.2323,-140.1223,11.8327,96.1806,19.8839,-26.4384,69.8670,-64.8836,-0.1809,-83.0954,-60.6684,-30.9832
-3460.9375,-38.5773,4.8165,-158.9252,26.3245,-19.4001,19.9494,-69.7796,-3.5031,81.6556,-3.4517,-1.6771,45.7048,6.1697,70.1810,20.6834,-3.4668,22.4158,81.1538,103.5781,-7.3573
-3453.1250,9.0762,26.6147,-35.7890,49.3197,141.9225,70.1407,18.2318,84.7683,-305.6868,-24.5095,12.1182,21.5395,-17.2438,85.1051,-75.2186,11.2398,30.3303,19.7057,8.1191,-103.4382
-3445.3125,-16.0889,21.6747,-114.3882,50.9470,-9.4994,65.5976,-58.5053,8.2702,133.2385,-62.3550,9.1741,53.6407,-57.3928,81.2709,-4.8753,82.2005,64.5074,19.5017,8.8773,-33.2623
-3437.5000,-16.2767,1.5337,-76.4386,33.9222,64.6340,66.6121,-20.6951,120.3218,-232.2989,51.3313,-27.2134,-19.7032,-129.9928,119.9976,-39.9945,84.7082,26.2542,52.8743,148.1969,-105.5374
-3429.6875,-9.0616,-2.3789,-33.5127,-5.1292,34.7387,36.6041,60.0749,53.3358,-75.9485,-13.0683,17.3563,23.9199,-12.6587,16.6751,-33.1872,129.1488,-34.0296,-113.7946,-51.5479,-24.8742
-3421.8750,-52.2992,-46.3794,-126.5772,-37.8805,-59.1597,-21.3812,-69.1659,-2.6542,126.4121,79.4912,-3.0645,-34.4330,3.6736,33.3484,20.5954,146.5597,-15.2832,-23.4481,74.7115,65.7915
-3414.0625,-52.4710,-60.3567,-67.3189,-60.6666,1.2638,2.9543,28.9040,59.6696,-214.0079,142.3203,-15.1815,-47.4714,-8.6936,21.3160,82.6473,98.2276,-100.2091,-72.7739,-44.7199,16.7385
-3406.2500,-54.1763,-67.5192,-98.7844,-66.2449,-104.0451,7.5717,33.2265,-81.7626,306.7947,1.3374,25.9659,-42.2264,69.1966,-83.4845,123.9293,30.0942,-90.8611,-62.8402,-103.9364,131.9354
-3398.4375,-26.9790,-59.6020,-86.5367,-52.7585,-55.6456,-17.0920,84.2345,-69.5019,64.2611,54.0030,39.8264,-104.2528,82.7931,-71.5847,63.8939,-66.3843,-48.7791,85.8240,80.5482,34.8348
-3390.6250,21.9218,-33.4574,56.6017,-38.6198,14.6362,53.1217,117.0941,-35.3977,61.4909,-95.5362,72.5544,-72.4075,42.2390,-111.8378,23.6957,-106.0494,-89.8204,10.3393,-100.1459,-5.4242
-3382.8125,-15.7274,-44.4478,-55.4926,-28.8830,-96.3271,52.1006,-30.3105,-35.5699,283.4807,-57.3840,36.0494,-73.7870,-32.5507,-75.3517,23.2461,-68.9858,-54.0843,81.6059,77.8819,31.0813
-3375.0000,20.3591,-24.7886,55.9312,-28.0724,51.2270,52.5918,81.7830,76.7558,-192.0956,-17.7662,37.0508,-72.6478,-30.8324,-36.3596,-48.7232,-66.4459,-92.8209,42.3927,39.4078,-77.9168
-3367.1875,-26.1546,-21.9887,-12.8699,-21.1134,-91.4521,93.8562,-23.3718,8.8173,109.0537,-10.4481,5.8156,42.2713,-26.3565,5.3725,-6.9627,85.8238,-120.7877,15.9305,-127.3556,0.8387
-3359.3750,-42.1410,3.3252,-54.6634,24.4630,-133.1319,89.1339,-138.5426,77.8627,-187.7916,133.8379,-72.4083,73.2109,-141.8866,111.1008,-11.2127,156.0759,-56.7216,150.4865,-27.1155,-40.3961
-3351.5625,15.7637,48.6328,113.5208,66.4516,-74.8344,184.3798,-152.7474,99.8582,-421.7462,-26.9568,-50.6780,131.1140,-120.4640,95.7764,-26.5220,67.2499,-71.6874,-4.0007,-250.9400,-18.6897
-3343.7500,73.0339,84.4383,98.3667,92.8673,-162.8795,95.2933,-277.3018,-24.5154,-141.0133,-223.1432,44.7100,115.6921,-24.3733,44.0952,-4.1907,-55.9424,60.0079,93.1583,-47.1432,113.6810
-3335.9375,162.6121,94.1509,286.9202,76.1174,25.7869,63.9165,-89.1556,17.8070,-501.6191,-253.6595,123.8054,9.9874,54.4241,-23.8771,-36.1724,-197.4505,60.4285,93.0390,23.3577,8.7547
-3328.1250,157.7993,79.4564,362.0989,27.1514,-9.9294,28.1593,-13.4066,-90.2758,-94.6695,-286.6220,125.5144,47.9063,92.8306,-59.2454,2.4314,-121.3677,-7.5311,-9.4790,-78.5720,47.4299
-3320.3125,85.3059,28.0024,250.5368,-10.6506,-48.3980,-47.3327,-14.4244,-18.1143,-58.4755,-67.3809,14.4823,-27.9017,-19.5158,-23.3559,38.2664,-50.0398,-10.2062,93.2765,129.7548,9.3641
-3312.5000,61.4241,-15.6299,270.7994,-53.0617,8.9582,-25.9980,80.3644,39.8615,-219.5800,28.6263,-1.7521,-80.8901,-35.0764,-38.6541,58.8755,8.0764,-65.0547,-31.1415,-64.1160,-79.9156
-3304.6875,16.1772,-22.3152,158.5768,-48.7492,-139.1785,-65.1306,-31.3501,-71.6656,294.8195,65.0823,-39.4799,-46.3533,-37.1380,-77.4573,-16.0242,117.6792,6.6141,-29.0526,-62.5038,-7.6920
-3296.8750,32.7523,4.7233,138.5105,-0.1107,-86.1546,-48.0964,-50.9142,18.9619,-91.6619,193.6644,-59.0516,-66.6494,-131.0394,-24.1079,-109.7904,61.4111,88.4571,-17.7855,56.2667,-101.3231
-3289.0625,41.3296,28.1880,135.2723,27.3590,-89.3024,21.7643,-53.6639,-56.6071,127.6051,45.0180,-24.8150,2.8817,-97.1319,-99.9650,-112.7786,21.9170,87.1112,-124.7139,-85.1967,-67.1606
-3281.2500,30.1735,42.9345,17.9358,67.9052,-95.5555,15.5413,-133.5325,-26.2869,48.7882,40.2373,-31.6651,-3.6585,-66.3139,4.0808,-192.8756,-56.6895,148.6893,79.2714,188.2304,-110.0875
-3273.4375,77.0432,97.8014,144.3692,125.6965,66.9620,105.0911,-6.6521,63.7913,-411.3524,-89.8124,-51.7608,48.5711,-124.7522,20.8903,-213.2360,-150.5591,125.0358,20.0224,94.4038,-204.2704
-3265.6250,79.7307,91.7304,66.7695,122.9470,-46.5684,101.6147,-120.8253,23.8169,-46.5421,-202.9413,18.0983,44.7831,-128.2419,-56.3507,-106.6588,-191.4824,160.3444,20.7293,61.4953,-97.4965
-3257.8125,90.4007,97.3631,55.6702,128.2252,52.4062,53.6534,-58.5108,86.3397,-387.2502,-102.5872,7.4657,-3.4846,-176.2221,-68.0808,-154.5981,-238.9208,181.1790,147.9599,188.0952,-182.2201
-3250.0000,90.2292,100.6321,107.0028,135.3922,103.8098,142.1117,-5.7845,29.2602,-297.6148,-232.8723,23.2417,48.6723,-87.7956,-125.4107,-139.1531,-259.9852,125.4360,57.5884,-112.9295,-166.5484
-3242.1875,65.9616,91.1259,25.9452,139.1919,22.8163,98.1865,-123.4645,-88.2436,-83.3447,-274.6064,15.6310,40.4590,-20.7613,-133.1469,-73.1148,-228.4699,193.3246,125.8239,-44.3693,-63.2609
-3234.3750,80.9845,50.9595,119.9129,64.0896,153.8455,44.2742,-66.1387,-104.7479,-392.1399,-253.3773,73.0224,-13.7358,-1.7189,-75.8771,-53.0940,-172.9862,106.2444,-31.9156,-166.8021,-79.9762
-3226.5625,17.6117,8.7971,-7.2982,-4.1915,26.6893,-45.8140,-155.0072,-230.4608,142.8538,-268.3961,94.2231,43.8952,56.1318,-55.8131,3.7210,32.2742,60.9804,-110.8522,-280.4649,51.1133
-3218.7500,-62.1457,-29.4309,-108.0575,-33.0237,-0.0180,-109.4398,-145.4356,-146.7243,7.2871,36.0146,-43.1247,16.9983,29.4291,64.7110,-133.0193,152.9769,32.1863,-34.3138,-27.6664,-12.3424
-3210.9375,-85.2499,-50.1045,-98.5508,-72.7537,45.5459,-99.7926,10.3949,-63.7195,53.8971,192.6628,-70.2224,25.3685,0.9797,0.4985,-161.5274,198.9295,-67.3473,-134.5167,-56.6266,-76.5598
-3203.1250,-126.5806,-51.2785,-274.7364,-56.5532,-94.5888,-129.8269,-18.4776,-19.4195,356.8193,237.5837,-100.0164,32.0631,7.8491,7.5917,-154.7452,133.1905,-25.5628,13.5857,196.6980,-69.4695
-3195.3125,-71.0892,3.8868,-164.8067,5.2673,52.3973,-18.7506,128.7508,164.9874,-157.2159,202.5855,-99.7071,68.8704,-65.1741,81.7988,-190.8726,-50.4549,-66.6533,42.8077,191.1293,-216.2833
-3187.5000,-54.6751,52.0066,-187.6986,60.3535,-6.4444,69.4915,33.1357,106.5334,115.8703,-3.3067,-48.2314,193.8533,-14.0267,23.1560,-139.8617,-71.9586,-49.5786,26.1712,-2.3177,-127.9418
-3179.6875,-36.3371,84.2425,-174.7380,98.3948,43.5643,45.5927,-27.6407,119.9164,-128.1851,-26.3790,-70.8956,206.7093,-74.0223,73.3689,-89.9987,-132.6183,-1.6296,144.3999,117.0923,-114.7394
-3171.8750,16.0739,114.5263,-19.2016,105.0502,162.1428,90.2647,91.1410,90.8520,-302.7591,-200.9193,-26.0076,251.1425,6.5197,-28.8582,-45.5947,-197.7412,-62.1109,13.1858,-119.9596,-69.9917
-3164.0625,-6.7509,82.2088,-111.2084,60.1004,32.1721,-1.5922,-0.6380,-73.7746,120.1382,-218.0454,28.3408,232.0648,172.5152,-83.6323,45.2474,-142.4262,-35.1212,4.4262,-57.5868,132.2217
-3156.2500,3.4379,62.5252,-65.6053,32.7862,151.8130,-28.8365,44.1796,-27.8023,-237.4050,-98.5920,37.2910,167.6066,144.1214,-74.7958,90.6732,-96.5273,-62.5084,13.2960,-48.6070,141.0346
-3148.4375,-24.3339,37.7743,-71.0730,-8.4258,36.3774,-71.1567,2.9057,-143.9347,161.9113,-103.2817,33.1509,198.0752,138.6425,-80.0562,158.9870,155.2520,-60.9762,-160.9346,-222.7569,282.7473
-3140.6250,-61.5663,-6.8314,-137.2388,-57.6160,-28.7583,-173.1645,-62.0793,-171.7796,207.5498,52.2900,5.3201,133.8709,110.4787,37.9865,130.5970,347.3159,-52.1168,-45.8502,-37.6063,327.7752
-3132.8125,-51.9647,-14.7810,-42.4308,-75.6923,65.0819,-153.2079,68.9007,-114.6649,82.0783,110.7876,-11.5564,116.6341,130.2634,21.9853,40.1446,367.3137,-105.2897,-133.8031,-160.5068,274.7479
-3125.0000,-74.0895,-7.6350,-151.2599,-47.8048,-79.7246,-113.8819,-1.7650,-149.2050,562.9793,113.6089,-8.0782,155.7775,133.4049,24.3333,6.0347,333.6544,-66.1050,-59.4030,-86.0752,314.0818
-3117.1875,-25.8926,28.1703,-92.5917,12.0640,14.9722,-55.0486,92.0624,-16.2379,143.3577,208.9357,-23.0990,103.4433,7.0498,82.1965,-83.5859,134.4926,-16.4022,59.5183,102.8792,151.9155
-3109.3750,24.5157,81.5529,6.2962,61.0301,77.8871,7.0029,156.0978,-27.0561,280.8891,51.4570,2.0843,166.3308,32.8974,-37.7293,-94.0135,-58.4680,5.5061,-22.3664,-13.9850,104.9405
-3101.5625,34.6848,98.6005,-54.6188,106.0760,52.9975,19.2653,57.3226,-15.6818,256.6491,-9.8372,14.4682,141.4444,81.9524,-26.4470,-46.2470,-194.2219,86.6360,198.9628,137.3488,80.1732
-3093.7500,99.0773,131.5756,109.9813,141.2453,218.6254,111.0415,149.0554,113.2075,-239.1483,-64.6316,33.3478,123.0752,62.4983,-81.6494,-65.9947,-322.4771,64.2819,142.8077,10.1867,-12.1030
-3085.9375,79.7177,146.2327,37.9491,170.3080,72.6119,150.1876,3.1412,4.4453,93.4081,-135.0996,34.5793,198.0835,64.4030,-78.5031,-27.3959,-247.3844,106.2895,113.9993,-18.6551,99.9802
-3078.1250,92.0331,142.2628,73.1697,168.0037,106.8535,74.5884,38.4650,39.9324,-238.8000,-64.3324,-3.9331,122.3581,-11.4247,28.9041,-67.5495,-176.0505,171.5737,179.4639,116.7650,24.3195
-3070.3125,60.6919,91.7715,130.7255,96.2464,128.4250,59.3070,133.1020,-12.2833,-70.7789,-151.2972,-19.1376,106.9542,120.0630,13.6124,-46.4035,-45.4310,85.1779,-47.7661,-74.5389,8.9511
-3062.5000,-23.7252,3.5457,-43.7466,18.4389,-9.0523,-42.0124,69.6771,-75.5691,308.2128,4.6470,-46.3783,6.5277,166.5225,97.2702,-37.3010,112.1265,96.7588,-1.0418,78.0860,55.5465
-3054.6875,-52.8105,-49.7571,34.4091,-53.3694,106.0887,-73.7225,220.8536,38.7422,54.7459,157.1677,-115.0113,-62.2815,97.5902,175.5371,-106.6017,300.2660,-9.0403,-106.7010,42.3094,-50.2581
-3046.8750,-126.2521,-87.3503,-74.7155,-107.2134,-77.0564,-108.7197,111.7392,2.7423,533.9704,268.3456,-149.9330,11.6337,24.3695,212.5088,-69.1975,558.0994,-74.1267,-205.6661,-57.8019,60.6488
-3039.0625,-127.5429,-113.8451,-133.6445,-121.4284,-100.0039,-131.5094,51.8138,90.9306,254.3977,429.6994,-135.6482,-85.2313,-108.6440,263.6965,-56.5927,572.1339,-61.9903,-53.4082,130.3000,37.7705
-3031.2500,-32.5303,-53.6548,28.0916,-59.9675,-11.2723,-43.6332,103.5509,69.7808,49.4204,297.6879,-47.7143,-69.4304,-20.0077,131.5469,-78.3478,366.8204,-12.1928,-74.4962,-66.9463,16.5380
-3023.4375,9.9942,3.5094,3.6719,7.4016,-107.6943,-30.8970,-30.8622,8.4801,246.3346,163.5143,2.0712,-19.7615,66.4928,34.2510,-65.2601,85.3697,72.4649,116.2689,53.6553,66.1694
-3015.6250,86.5474,89.6874,106.1957,112.4434,66.8416,108.7989,-1.3177,74.1516,-348.8251,82.3140,30.7959,45.8635,-15.0545,25.9203,-184.2334,-107.1254,95.0814,174.0047,40.2302,-52.2548
-3007.8125,115.4859,140.5738,125.9742,151.6983,13.6387,165.7617,-55.5117,-15.9118,-71.7390,-153.6275,88.7713,176.7553,4.6425,-27.1569,-126.9558,-196.3725,82.9489,91.9888,-110.9621,41.5689
-3000.0000,131.0701,154.9452,86.6940,164.0733,10.3761,125.6862,-130.7730,17.9767,-221.6806,-156.6145,121.6956,173.6163,1.2937,43.7260,-130.7282,-272.6687,114.7770,194.9386,25.8075,38.3508
-2992.1875,160.3328,138.4513,209.8300,118.0648,96.5367,139.0238,-45.6222,31.2813,-318.2908,-217.2059,172.0208,149.8904,87.3513,-53.9791,-119.1099,-296.5733,21.0205,65.2978,-104.0244,14.5235
-2984.3750,97.3987,88.8190,74.2267,70.0310,-37.0466,77.6268,-106.2263,-29.1767,171.3603,-204.5801,147.6069,125.4452,62.6793,-40.4354,-33.2406,-211.2339,2.5286,81.9083,18.3695,136.9585
-2976.5625,67.7570,46.8020,48.8797,48.5291,9.6296,89.4867,-22.5858,91.6139,-184.7774,-47.7175,85.4457,26.2646,-109.7380,80.3762,-24.1199,-126.6544,-26.6925,123.7951,130.0256,37.6440
-2968.7500,25.1964,36.1741,23.8087,42.5838,-88.4269,101.6152,-10.6849,66.6533,157.2998,-35.6255,23.5451,75.3522,-97.8966,92.4405,-49.7475,68.1695,-14.6540,-5.0789,-34.0967,49.5801
-2960.9375,-35.5162,-14.1507,-79.2618,3.9310,-153.4836,35.7406,-39.7910,74.6778,202.4103,156.4522,-42.3468,9.4520,-91.0404,173.5092,-79.3512,149.0015,-7.6036,72.0459,147.7811,20.5343
-2953.1250,2.4117,-27.3978,83.2315,-27.9639,-28.9694,50.4139,85.6710,163.2547,-39.9750,172.0795,-26.6861,-48.8966,-75.6257,152.1419,-101.3982,127.3900,-65.9982,-56.2800,19.2178,-37.9611
-2945.3125,-53.6301,-68.6646,-23.2193,-53.8137,-134.4040,-18.8571,-20.8142,19.8762,405.7137,212.7413,-59.9767,-82.1705,1.8555,155.8385,-61.3918,241.8506,11.6625,-49.5635,26.6844,39.6097
-2937.5000,-58.2575,-76.2555,-2.4786,-52.9461,-40.6436,-33.9215,-36.1104,114.7055,-125.4100,380.6093,-112.0712,-134.2302,-87.4645,213.7628,-77.1838,336.5282,25.5366,35.3759,111.3692,-86.6134
-2929.6875,-13.5972,-44.2145,99.0823,-33.6161,-14.0638,29.8295,-9.6010,68.3442,-97.7716,187.2656,-47.3682,-69.4708,13.0233,131.4966,22.8237,290.0088,16.2173,-78.8910,-145.1674,-96.0405
-2921.8750,-18.3814,-40.0522,61.3914,-24.6740,-50.7399,-6.6676,-83.3454,30.7249,-24.3452,150.6593,-47.9159,-69.9521,123.2788,130.9803,95.5867,179.2447,52.6679,27.5959,-37.9467,-59.7043
-2914.0625,22.4450,-47.2781,207.5168,-55.3341,95.4036,-8.3610,-11.2797,66.9194,-356.1631,149.8662,-12.6661,-107.6302,48.3311,130.2739,131.1428,104.2809,-20.0677,-45.1050,-181.9096,-97.5757
-2906.2500,-37.8305,-80.5510,78.0553,-79.8162,-35.0481,-27.6424,-102.8146,-62.4868,175.4258,56.4646,-32.0141,-89.8892,65.7806,73.9743,184.1006,194.7301,-31.3959,-56.4074,-192.4917,66.9578
-2898.4375,-75.8589,-108.2496,5.0944,-93.3159,3.0004,-63.4167,-66.8623,48.6094,-7.4940,204.5658,-103.8683,-161.6339,29.7346,111.1885,147.5677,232.6842,-32.2103,13.8102,52.4400,30.9954
-2890.6250,-83.4584,-106.2178,42.8565,-126.1391,3.7713,-62.4771,81.8033,49.4152,177.2340,205.3619,-103.0222,-88.6696,103.3999,39.1040,74.7321,270.3309,-135.3161,-161.2684,-52.9454,31.7245
-2882.8125,-123.8827,-138.7396,-99.3267,-157.6212,-101.4113,-130.4803,48.5142,16.2585,476.0544,246.1809,-98.1205,-119.6336,71.1278,80.0678,77.9569,311.0175,-128.3541,-118.2912,130.7153,109.5158
-2875.0000,-93.5480,-113.3410,-51.2495,-136.0463,20.6699,-81.2287,134.4839,139.3565,10.0918,259.2444,-85.9692,-107.3440,-26.8837,93.2934,90.4406,175.9458,-189.1271,-108.0540,139.6382,48.5517
-2867.1875,-74.2709,-89.8582,-69.8584,-119.9974,-108.9395,-63.6691,77.7623,82.7512,358.4351,165.5943,-31.5148,-52.7357,-9.5810,-0.1695,106.2334,119.1812,-168.6042,-158.5252,88.8363,138.8895
-2859.3750,-42.2422,-59.2197,-77.1796,-81.2726,-79.2579,-70.8044,33.3311,112.4474,93.1016,231.2440,-3.7602,-60.8160,19.0256,28.6839,24.3290,0.7327,-107.7730,-27.6814,220.3445,94.5381
-2851.5625,-2.8893,-7.8398,17.4140,-39.2862,15.3422,-13.0345,92.8141,98.0576,-67.3857,106.7982,18.8913,35.0113,4.5324,14.4462,9.3282,-49.8104,-122.0378,-111.9379,-40.2483,80.0824
-2843.7500,-22.4203,-13.2128,-73.3440,-22.8495,-148.4138,7.3893,-109.0553,7.3149,170.8116,52.0022,38.1883,53.5026,23.6960,69.8585,63.9918,6.3085,-64.6418,-54.5453,-18.1923,172.2906
-2835.9375,36.2458,7.3966,46.2966,-22.6624,-29.7636,-20.7865,-62.5262,52.9860,-333.6172,24.6269,84.8777,27.3928,-3.7407,117.6909,74.0596,-22.1592,-59.8390,-49.7386,-48.7110,71.8944
-2828.1250,34.9027,2.8505,51.1581,-40.9800,-59.8968,-13.7555,-93.7841,-51.1379,-33.8656,-116.5515,126.7737,69.4955,2.0368,48.7268,152.3307,93.5816,-85.8381,-110.7451,-216.0461,150.6962
-2820.3125,-14.1063,-35.3057,-26.1327,-54.3744,-65.1825,-55.8793,-136.1942,-19.4144,-113.2362,-10.8863,47.5229,-8.5469,-3.3172,117.6161,183.4635,162.1734,-55.9813,24.1079,-45.5205,145.3580
-2812.5000,-18.5400,-39.2878,26.8435,-63.9476,24.8066,-2.7505,-9.3368,33.5684,-279.4063,-30.9735,28.5215,8.6650,50.5818,98.7588,162.8506,143.0087,-146.8693,-31.7839,-136.7384,89.2643
-2804.6875,-73.0372,-67.3565,-124.6241,-56.3120,-89.6561,-6.0648,-49.9265,-43.9122,266.0026,-72.5393,-11.9261,-31.5528,119.0424,20.4476,157.8087,100.3920,-78.1974,36.8659,-33.4202,157.7353
-2796.8750,-42.4256,-81.7027,-30.4904,-66.4469,41.4861,-22.7810,81.0781,50.2043,-80.0104,-15.5074,-28.7704,-157.1632,140.1098,4.7467,104.3719,-25.6275,-63.9094,52.1355,121.5087,31.8085
-2789.0625,5.3705,-49.3379,79.0665,-54.3041,40.0477,-24.0889,152.4911,-25.2792,212.3419,-89.0865,6.7910,-121.3601,102.5867,-105.5491,139.3352,-63.2473,-28.2220,-87.2061,-19.1902,67.2788
-2781.2500,-39.4739,-67.9222,-25.8774,-49.1086,-27.9036,-53.8974,85.3886,-55.2757,329.2324,62.8265,-60.1424,-152.0445,-2.4317,-63.3408,144.8174,-57.3606,12.9720,58.9552,162.6053,73.2646
-2773.4375,-17.0199,-58.2022,102.8902,-51.5422,100.8563,0.9940,176.9905,36.4313,15.7887,80.4402,-79.3737,-135.0238,-94.7447,-45.4239,126.0123,-76.7742,-79.1313,36.8122,35.0989,-19.0524
-2765.6250,-47.3946,-40.9317,-1.6299,-29.6575,-76.6873,43.5897,35.2861,4.8227,389.0740,49.7400,-72.9021,-18.2898,-52.3476,-39.8019,94.9246,-70.4678,-103.5345,116.3546,-26.7341,60.3439
-2757.8125,-12.7489,11.8235,25.2364,45.8908,23.1587,106.5794,-12.0272,104.6195,-172.2445,75.4705,-84.0454,8.8431,-62.5544,24.2425,10.2486,-154.7359,-47.5293,208.3094,29.8597,-23.8524
-2750.0000,67.9108,95.8467,92.4098,127.5607,54.3192,174.8759,-55.0243,25.7390,-178.3039,-149.4738,21.1015,113.2801,-31.4598,-55.4051,-33.1254,-233.6841,53.7700,63.5589,-185.2445,7.2446
-2742.1875,124.7851,127.3520,98.4718,150.9808,-14.6283,70.0685,-159.1237,-115.2371,-99.4178,-291.5146,100.1474,82.6176,10.5448,-49.1513,-28.5887,-338.7188,202.9758,107.7117,-36.4264,86.2475
-2734.3750,206.8852,173.2716,240.5896,176.2726,164.4915,65.3088,-55.1537,-121.1451,-546.5188,-407.4956,168.2403,76.9996,-31.3925,-91.8406,3.0036,-454.7075,230.2314,28.9262,-80.5304,7.2851
-2726.5625,178.5363,159.5991,152.0678,166.6297,75.9715,49.9090,-105.8210,-245.6955,-157.2598,-459.1394,189.6811,99.7377,64.0331,-142.1841,60.9561,-395.3535,255.8339,18.4851,-125.2960,102.6694
-2718.7500,142.5210,128.0284,110.8868,158.5178,108.8001,46.8612,-146.1412,-102.8924,-454.6401,-278.4304,112.4695,22.8317,23.8059,-73.1707,-16.7312,-362.6532,248.7909,152.4146,8.3069,25.4080
-2710.9375,120.0905,107.5360,160.8250,119.1232,84.7480,95.9245,-98.3551,-16.9802,-405.9746,-266.6286,88.3610,72.0366,-74.3229,-60.0530,32.6975,-239.8593,118.8418,23.4432,-227.0114,1.2406
-2703.1250,2.5995,22.4710,-63.3382,51.9625,-137.4171,56.8899,-210.6833,-20.1797,68.6211,-49.9508,12.1623,33.1587,-113.5312,10.9675,66.0451,-23.1653,82.7972,57.3745,-53.4512,34.9895
-2695.3125,-49.4225,-76.0625,-50.0958,-57.9023,-15.1728,-3.7472,22.3852,104.0200,-65.4272,221.1333,-48.6348,-137.3184,-64.3351,-12.5982,4.7997,63.9242,-17.8407,-43.2819,57.5155,-135.8654
-2687.5000,-109.0337,-133.5426,-119.4811,-128.6345,-84.5679,-73.0283,99.8091,33.5620,526.8704,224.5439,-81.0754,-170.4321,13.2165,-118.8187,118.9162,141.3599,-47.1244,-178.6120,62.8105,-95.3653
-2679.6875,-119.7469,-142.1827,-184.6677,-115.9473,-75.7723,-101.1195,108.4265,79.2842,350.3987,307.1418,-109.3133,-235.3448,-52.0192,-36.8370,90.2485,113.0029,-5.1966,4.2564,245.3210,-123.6488
-2671.8750,-44.3120,-56.2388,-55.6869,-49.6224,16.1982,-46.0716,163.2100,98.1591,75.0375,140.8882,-54.3954,-105.1192,-70.0924,-17.7039,71.7424,57.8068,12.8838,-118.7358,15.9849,-141.7857
-2664.0625,-25.7773,-12.9764,-98.7552,3.5491,-100.8886,-52.0783,-27.0567,-19.0303,288.6753,24.5820,-23.5263,-37.9412,-39.2084,-23.6170,101.2007,50.5858,116.9125,-14.7894,48.5905,-37.9616
-2656.2500,5.9198,-16.3700,2.8177,9.8541,37.6734,-24.4454,37.3246,45.4416,-199.0512,14.9567,-33.0154,-120.1207,-48.6764,4.1374,92.3182,-31.9652,104.5832,43.8155,106.8654,-120.4936
-2648.4375,4.6351,-2.9242,-1.6979,20.5430,32.1429,8.0896,31.6127,-70.1782,53.1094,-173.7556,-0.6081,-51.3954,93.7502,-74.2091,123.3537,-36.5989,103.1427,-63.6963,-70.9727,-52.1310
-2640.6250,-8.8882,10.9494,-84.0736,47.2841,-12.2517,-0.2295,-49.9520,-78.6454,-65.5443,-109.3106,-9.0563,-22.5254,122.3312,27.5949,40.5555,-45.0672,129.8545,103.9461,60.3587,-60.6062
-2632.8125,37.6898,45.7048,76.4569,72.2308,148.2711,86.3520,-0.6033,-28.1974,-382.3546,-169.9573,3.3909,27.2357,98.8169,4.3078,16.6667,-68.6387,71.4643,9.4962,-139.3978,-84.1918
-2625.0000,2.6587,28.6263,-3.6084,49.5706,-5.8099,43.3397,-115.8546,-107.3517,51.2541,-212.2169,-2.7606,58.4091,92.7134,-1.5841,157.1855,-1.8156,71.4782,9.4415,-102.7654,56.6257
-2617.1875,-4.0286,-5.6071,7.2693,4.8702,78.0598,-19.7232,3.8412,-24.5495,-305.2096,-55.5231,-28.9641,-41.4664,29.5676,9.4774,204.6587,81.9449,43.4501,17.3547,78.8433,-6.6146
-2609.3750,-5.8272,-19.6701,32.0164,-59.8816,66.7988,-68.9300,101.3985,-73.8919,-24.8588,-103.9926,32.6878,20.5122,90.2746,-39.6167,192.0010,143.5414,-72.7320,-98.8911,-107.7170,17.9863
-2601.5625,-36.8157,-26.5188,-100.0916,-43.6556,8.6787,-89.9936,7.0969,-58.0956,27.6831,21.6852,11.4897,-0.3605,106.1371,13.4320,96.5193,122.2881,-22.7613,91.0149,116.8759,-3.2495
-2593.7500,12.6924,11.9628,13.2056,8.0865,157.9714,23.3385,83.2006,92.1075,-374.4122,23.7786,13.6830,2.1561,72.4036,15.8836,-11.5530,14.4335,-27.3936,52.3244,77.8811,-148.0927
-2585.9375,-20.9191,-5.9503,-92.1462,0.3493,52.6113,28.0158,50.6672,59.6554,107.8825,-8.7822,18.2248,7.0230,150.0317,-16.3203,-44.2624,-18.0613,-20.6866,58.9686,154.2229,-106.5860
-2578.1250,-13.9997,13.8447,-84.1606,28.0360,134.5964,0.0328,169.4875,178.5503,-142.4451,110.0171,-46.8861,-20.7693,11.0120,65.8303,-109.6103,-120.2017,16.3692,130.9646,331.9407,-245.7308
-2570.3125,18.5333,70.1431,-1.5614,80.9793,180.1992,82.6462,214.9264,151.0532,13.7999,-27.5861,-37.3968,99.0357,-89.4064,38.5802,-63.3516,-184.7426,24.0185,-2.4576,58.2502,-273.2821
-2562.5000,0.9558,119.6084,-100.4709,161.7782,44.2895,93.7529,41.8538,125.0454,172.5889,-90.6948,-100.4064,184.3426,-152.3230,49.8262,-15.5698,-246.7754,143.1706,116.6148,106.0607,-225.3194
-2554.6875,52.1686,150.9578,50.6250,188.0081,158.3853,134.8515,82.7762,129.0488,-265.6765,-123.7829,-96.4158,187.6461,-148.2467,17.0864,-85.7776,-316.7937,143.3196,46.6906,-0.1187,-295.3635
-2546.8750,66.5336,149.7291,76.3794,165.0132,74.1318,86.5986,-2.6497,-30.3029,163.7068,-282.2245,-34.7681,213.6068,-12.5094,-68.0059,-61.3260,-255.1441,174.1072,-64.6065,-110.6718,-159.7536
-2539.0625,64.6275,104.0051,45.5752,101.6707,80.3199,-18.2147,3.3591,-24.2149,-87.4505,-166.2130,8.3316,109.0156,-6.3081,-24.6482,-18.4086,-249.0399,144.3476,47.5484,36.2378,-153.6792
-2531.2500,77.2558,75.6691,134.7836,60.3754,132.5246,33.9671,55.3778,-82.1239,-109.6586,-188.2003,60.4394,88.4203,8.8973,-82.3008,-3.4773,-196.9368,56.5806,-111.3085,-193.8573,-101.6038
-2523.4375,15.9865,27.5504,3.7872,15.7343,-35.4794,-23.0619,-111.8030,-138.2512,237.9812,-97.4041,40.3495,68.6266,62.9124,-66.1617,-23.7224,-106.0293,42.6086,-55.3746,-67.1580,25.2902
-2515.6250,-22.7214,-21.5139,-5.5617,-54.9047,28.1681,-69.4533,-11.3273,-1.7291,-103.7477,150.0513,-6.0931,21.4712,-57.4179,-1.3713,-33.3068,30.5273,-75.7134,-103.7838,-9.7870,-58.1678
-2507.8125,-120.3626,-90.3929,-135.8024,-119.8139,-102.0839,-53.7466,-32.7458,13.8914,353.6268,165.5956,-64.4356,38.4185,-41.6525,14.5114,56.2339,194.1897,-196.9473,-154.1166,-96.3356,31.4750
-2500.0000,-148.6459,-123.0323,-236.5053,-124.1152,-92.8057,-80.5044,-22.6246,61.0516,253.5895,285.6895,-91.2326,-62.0861,-68.3384,97.9435,29.3492,204.4070,-152.6288,-4.8975,122.6793,4.6797
-2492.1875,-82.4372,-93.0960,-102.2472,-107.4938,42.4371,-55.3191,112.4630,48.1630,93.4667,163.7290,-29.0763,-73.6546,-6.0643,13.3127,16.4196,118.5674,-132.3626,-124.7386,3.6532,-44.1732
-2484.3750,-64.9183,-68.0965,-118.6864,-74.8779,-49.0251,-72.8452,20.8554,-43.4444,406.6936,109.0519,-10.6170,-54.9261,12.5233,-5.0357,-1.1977,101.0241,-39.7984,-67.2935,60.9218,48.2853
-2476.5625,-10.5268,-7.7367,-25.2846,-1.2900,82.3612,-15.5290,5.0985,87.7983,-234.2377,129.2428,-26.3126,-33.3625,-77.0450,52.4711,-53.9607,84.3346,11.6130,19.0167,76.0640,-41.4103
-2468.7500,25.2989,56.0485,-9.4246,70.0961,25.2057,74.2393,-90.1978,-6.5027,-144.7445,-112.1114,26.4431,92.6461,-24.1635,-4.5765,-1.2599,64.1047,64.4583,-34.2359,-117.3589,11.3341
-2460.9375,54.5916,90.9678,-52.6280,124.0246,18.9869,67.9496,-168.5552,-49.8574,-262.2745,-191.5052,57.1439,86.5970,-30.3269,63.3266,-7.5936,-16.1598,164.2506,135.4622,87.1811,5.0320
-2453.1250,133.4230,135.7301,138.6721,151.4848,173.2832,111.1572,-52.4066,-42.6949,-549.3578,-295.3789,100.3374,94.0378,13.0125,-40.2679,-111.4259,-82.9192,167.5331,33.6575,-49.7689,-61.7849
-2445.3125,122.2683,109.5952,111.3201,91.6950,34.9278,9.7147,-152.9112,-180.1820,-27.0648,-359.9033,145.8798,103.8208,-14.2930,-103.5235,-28.8932,-37.3248,146.1586,12.1848,-71.3815,57.7553
-2437.5000,81.0050,26.0017,145.6109,-0.9542,33.2113,-66.0870,-82.7780,-110.0159,-212.1272,-105.7678,70.0700,-45.7554,-126.9565,-70.1298,42.3034,34.9220,70.4371,7.3724,63.6754,-18.0524
-2429.6875,-10.1023,-60.2763,79.5682,-99.6288,-32.8462,-95.2396,36.0162,-102.2002,236.4321,50.0126,4.9164,-74.6866,-81.9739,-99.1023,50.1602,152.8139,-62.6388,-125.8095,-69.6315,-10.2152
-2421.8750,-124.2987,-145.2020,-167.9822,-170.1798,-170.4191,-158.9056,44.3056,-55.9012,502.5439,279.2831,-59.7359,-139.1237,1.5157,-52.5882,59.5381,235.2037,-125.2154,22.5004,184.5663,-37.8647
-2414.0625,-119.0474,-150.4861,-91.2333,-168.4873,17.3149,-82.2860,232.9047,94.6995,137.9264,319.8622,-93.0912,-171.2713,42.2995,-48.7770,-9.7756,165.8866,-197.4981,-50.8888,147.0823,-181.2208
-2406.2500,-124.6226,-149.3070,-135.1334,-158.7731,-100.6040,-52.3175,114.8616,50.6421,498.6895,238.7706,-63.0939,-142.0699,71.4409,-92.6248,56.2709,194.9182,-165.4422,-87.9469,73.9316,-78.2239
-2398.4375,-91.6179,-125.6627,-102.2990,-117.6397,-30.7844,-56.6125,36.5678,120.3296,15.2294,271.4308,-67.3485,-183.1283,-6.6647,-22.7207,89.0726,117.7015,-98.6412,47.7435,139.5579,-82.4749
-2390.6250,-18.9839,-67.2411,24.5477,-79.3180,-14.9523,-3.9124,16.2899,62.0206,-79.2611,66.0976,22.3958,-93.1993,46.2296,-80.8257,67.8801,96.4835,-81.8522,-110.5858,-124.8177,-29.7344
-2382.8125,-8.3766,-16.9014,-44.4616,-19.4753,-119.9839,-36.0699,-162.8483,-43.1493,35.4467,33.9142,26.2901,-15.1283,-22.7371,-2.7929,-1.1480,138.4229,33.0838,-30.7719,-10.0473,85.1680
-2375.0000,46.6542,10.8881,72.2781,-12.0024,-4.2630,-30.4842,-83.2419,-0.5637,-472.1428,3.4938,69.9355,-8.3180,-52.9678,40.9866,-31.4185,108.1051,2.7673,-95.1961,-75.5118,54.8141
-2367.1875,49.0640,30.0878,45.9773,-6.9366,-66.5902,-55.9484,-145.6843,-136.0352,-94.7883,-131.9960,116.5389,75.4422,31.7632,15.6996,16.2749,117.7253,19.3938,-115.6847,-201.0527,175.4105
-2359.3750,59.0673,36.2212,34.3669,17.4559,-40.2270,-66.7237,-157.4406,-147.8173,-326.7199,-106.7934,105.8429,27.8988,20.2065,40.1043,78.6827,33.0371,75.7177,46.5349,-72.8754,127.7117
-2351.5625,92.1686,66.8944,128.6600,32.0336,52.0472,25.4030,-100.2864,-200.6931,-416.7944,-270.6851,163.0453,122.2456,40.5480,-12.5980,135.9983,-19.7579,-11.0755,-39.3476,-335.8011,110.8997
-2343.7500,68.9846,67.3310,52.5892,37.9926,-61.0426,-13.8236,-214.4809,-314.9221,-53.1706,-347.9345,158.8943,155.2385,110.5475,-15.6593,205.9775,-59.8999,25.7670,67.4060,-299.0844,217.7459
-2335.9375,102.4676,71.5858,129.7082,44.9894,90.0655,-9.8614,-99.4700,-236.9502,-527.3595,-343.9758,163.9401,86.4085,152.7514,-11.5255,137.1666,-165.8349,24.8023,101.3639,-265.1385,111.7852
-2328.1250,94.9140,56.6158,99.5656,31.3909,22.9199,32.8347,-55.7050,-304.2366,-152.7706,-410.2570,206.7310,93.3155,232.7119,-77.6446,144.1293,-194.9991,-3.4248,72.0521,-328.4407,118.5735
-2320.3125,40.4436,7.0875,24.8158,1.4108,-14.8326,-5.0927,-58.5235,-158.1308,-153.7601,-228.1163,94.9140,-18.3976,121.0681,-43.3737,68.5123,-123.7416,-9.2709,207.1219,16.6745,6.7619
-2312.5000,14.2082,-41.8652,99.7561,-64.8793,97.1128,-4.3345,127.3715,-11.3278,-227.0235,-117.2523,22.7939,-90.4217,12.1210,-115.4158,33.6049,-12.7734,-118.4384,-8.1294,12.4939,-102.3448
-2304.6875,-85.4558,-117.2546,-75.4697,-141.3802,-78.0959,-68.7388,62.1164,-1.6677,296.5795,39.4752,-41.4773,-118.6090,-14.9700,-106.6193,79.5505,144.0339,-175.7610,-66.5386,166.1798,-19.5948
-2296.8750,-84.6602,-134.2265,-49.4416,-157.5622,-52.0542,-115.8968,125.1122,171.2466,-118.5843,322.4563,-88.4909,-202.5543,-62.8116,-6.5870,-41.2537,170.0664,-156.8308,-46.7015,291.1298,-140.5983
-2289.0625,-84.9454,-118.2054,-18.3080,-149.7579,-93.9221,-84.9568,119.2064,128.2591,132.3555,316.5273,-94.3994,-134.3984,-31.5608,-85.4712,-119.9646,201.1755,-162.7999,-157.7624,144.1806,-146.5002
-2281.2500,-66.2851,-88.6619,-56.0815,-109.6841,-168.6968,-122.9079,8.3902,127.3846,131.3751,389.6950,-95.2153,-135.1422,-142.2184,-50.2573,-157.5831,163.3760,-58.6804,-18.7117,284.3380,-147.3090
-2273.4375,-29.1674,-68.0076,62.9921,-84.8586,-49.6201,-41.0033,53.4183,173.3696,-190.7863,361.7175,-87.1878,-127.0388,-207.0375,-41.2026,-222.3436,98.4298,-88.7288,-83.8097,114.3347,-212.2738
-2265.6250,-52.8943,-66.7530,-21.4345,-74.0977,-171.0513,-15.6025,-67.0572,88.8466,239.5619,203.2314,-60.6608,-63.4436,-70.3701,-51.6555,-196.5940,13.9887,-94.2887,-19.4186,37.8229,-112.7310
-2257.8125,-13.6924,-40.8085,45.6885,-25.9842,-66.9326,15.3406,-36.9940,118.8658,-208.5606,160.2906,-67.5801,-107.3027,-77.1618,15.4307,-166.2726,-102.8933,-35.3061,145.5080,96.8453,-229.6302
-2250.0000,97.1791,46.5665,256.8617,38.3666,-2.7752,78.3189,-9.8881,-1.0879,-108.6269,-107.6085,33.5584,-6.1194,-86.8933,-105.4437,-101.8832,-222.7042,26.7158,-3.5291,-193.1011,-202.4674
-2242.1875,162.5567,112.4708,309.5781,92.8881,-61.0744,19.8334,-142.2345,-133.5058,16.8599,-237.9492,85.2440,45.5992,-108.0602,-126.7740,-85.9448,-316.9466,152.2886,50.9813,-102.4977,-76.7533
-2234.3750,227.2209,129.9501,493.8436,86.4217,123.1792,-16.1101,-31.0274,-206.3898,-386.1052,-311.7332,122.4789,8.8594,-70.6678,-163.5660,-48.4592,-389.6343,152.4064,-18.9735,-208.3537,-76.4934
-2226.5625,196.0170,109.5582,423.0463,62.8130,89.3701,-14.1156,-28.8748,-350.3284,56.9197,-492.5644,161.6588,49.0607,115.6678,-196.4198,64.9925,-313.3675,124.4656,-46.9939,-305.2546,36.7157
-2218.7500,154.6761,67.5653,342.8929,44.0782,119.2049,-20.4878,1.9418,-283.6151,-133.3851,-425.7327,118.4749,-31.1012,109.6418,-56.6286,58.1010,-246.4552,116.1610,15.6264,-138.4834,-6.4384
-2210.9375,124.2893,62.6219,311.5793,39.9550,161.8794,21.9811,117.6299,-241.0419,19.1917,-456.0419,88.1308,11.5735,152.4539,-87.0001,-8.9456,-203.6976,53.6932,-116.9161,-235.8400,36.2478
-2203.1250,36.6414,29.4086,79.9549,22.4905,4.2552,-61.8592,70.0274,-214.7596,412.4766,-283.6547,3.4837,0.9347,104.9611,-60.6812,53.7018,-141.2573,81.9228,-17.7532,73.5286,135.6239
-2195.3125,13.3270,6.2076,59.9828,7.6382,130.2909,-47.0457,197.0818,-15.8246,61.3786,-83.6425,-54.5113,-57.0544,-62.8777,-8.7206,70.9982,-124.2022,23.8012,-7.9374,155.5553,41.6375
-2187.5000,-19.3372,18.2800,-29.7355,28.9281,-32.4233,10.0232,143.3834,-31.6506,448.5303,-100.4190,-70.2487,36.2072,-78.4609,-61.5361,53.5526,-30.9422,10.9305,-18.8741,37.8352,134.9053
-2179.6875,-68.9229,-1.5925,-157.0979,37.4123,-85.7815,29.4379,53.0343,97.8643,174.0069,103.1337,-123.6263,19.8220,-94.7054,67.9784,-72.5291,-12.3632,-7.5945,172.5353,160.4666,81.5299
-2171.8750,-32.9969,30.3509,-99.5077,65.2053,-29.1908,123.7914,74.6273,155.3169,-62.5752,50.6278,-67.0438,78.3826,-37.9872,15.4238,-124.6504,9.1625,-25.1801,14.8769,-32.9681,29.1194
-2164.0625,-32.7497,36.3995,-182.7689,78.2833,-149.4587,76.2761,-9.6410,70.9000,220.9916,3.2788,-39.3049,67.0819,24.8972,-30.9882,-97.6114,-1.1378,74.3735,8.3510,102.7350,128.8741
-2156.2500,25.2533,51.4938,-73.4257,84.0930,70.8665,39.3481,100.6848,108.0693,-292.8403,39.5384,-3.9575,-6.6280,-11.6273,4.1946,-133.9680,-74.8082,106.5146,4.4057,169.0274,55.2383
-2148.4375,44.8029,58.4741,-63.3487,74.2435,42.9221,48.1562,72.7614,6.9738,-25.8841,-134.4323,79.1393,39.3941,34.5918,-58.8789,-50.5721,-101.6919,83.3920,-52.8023,6.0735,138.3647
-2140.6250,26.1650,54.9649,-149.4416,78.0224,30.8201,-0.2028,-12.2992,30.7333,-112.0547,-72.5219,67.0740,27.2445,22.6466,1.8955,-26.3278,-150.7080,107.1057,110.8374,169.9911,126.3418
-2132.8125,21.2436,38.2141,-55.3531,34.6177,125.9037,19.6417,81.8424,88.7068,-312.0049,-52.3938,51.1943,48.2791,6.8849,-15.1345,-5.8840,-92.5130,-17.0005,-48.3199,11.1129,73.5134
-2125.0000,-60.9793,-27.1255,-173.2385,-30.0164,-65.9783,-24.4613,-35.9651,7.7431,157.1219,85.7927,7.3568,40.3467,72.1628,14.8800,23.6118,118.7223,-55.0741,-51.4144,43.2949,175.7320
-2117.1875,-106.7013,-89.3030,-197.8307,-86.9022,-17.5589,-49.2639,-24.4666,166.0941,-197.4650,393.2776,-54.1754,-57.2929,-25.2526,137.1829,-37.6047,279.2339,-117.8525,-9.2092,121.7916,78.2381
-2109.3750,-142.9712,-126.3728,-186.1728,-127.7921,-78.8813,-1.8206,-12.7085,140.6897,144.2063,367.9945,-79.4491,-45.6826,-13.4239,110.7118,-25.5848,363.9632,-210.3674,-136.7620,28.5528,125.9883
-2101.5625,-205.0437,-164.8032,-354.4607,-146.7792,-173.1452,-59.3311,-32.9026,193.3335,343.9090,456.7432,-136.6719,-104.0297,-33.5473,126.2706,-8.5206,379.7099,-193.8188,-14.2547,257.3784,178.7791
-2093.7500,-163.1115,-188.3773,-226.3439,-181.1903,-45.0038,-41.4411,57.3016,247.3723,29.9744,400.8702,-82.4893,-195.9722,-16.2684,107.2218,44.9419,286.8287,-249.8669,-70.3549,166.5930,122.9610
-2085.9375,-170.0194,-219.3378,-269.9780,-178.3395,-162.6206,-12.3023,-22.2555,129.6503,391.2851,247.2352,-53.0494,-276.6617,51.2574,64.4132,39.6622,280.1869,-181.6704,-2.2103,94.0409,226.3937
-2078.1250,-118.9117,-180.6441,-204.9093,-113.6717,-97.5303,15.5316,-30.1161,158.6174,-57.7355,238.2840,-60.9064,-322.6523,-67.5201,128.2988,30.0942,124.2306,-87.7717,126.6255,188.1833,144.5275
-2070.3125,-62.4842,-97.7538,-107.3393,-45.8696,-35.9379,75.8511,29.5221,109.0680,-33.2547,5.8114,-36.2539,-187.1415,-79.7867,5.6618,55.0476,1.7622,-65.3716,-26.0594,34.8117,132.1722
-2062.5000,-75.6293,-85.7691,-185.3274,-37.0761,-114.9070,-2.3946,-84.3923,29.9468,144.6957,36.7890,-41.1516,-156.1844,-47.5943,36.4626,13.4594,-3.2543,-0.5289,108.6949,170.8931,127.2762
-2054.6875,-74.9998,-74.0619,-105.4253,-11.5889,3.0150,78.2468,33.5965,148.7219,-288.4316,118.6924,-108.1588,-148.3327,-40.5057,81.1573,-125.2341,4.6604,-33.8065,39.3332,66.8645,-11.7160
-2046.8750,-117.7359,-97.1863,-187.0472,-32.3431,-79.5861,69.3768,-12.9252,65.9908,179.9905,73.1267,-115.6742,-119.9849,-12.9278,72.3515,-60.4202,69.1113,-40.5990,-2.5464,26.3347,52.8006
-2039.0625,-87.9987,-91.0344,-150.8311,-29.4153,-43.3406,-4.6578,24.4041,102.1117,33.2703,72.4307,-117.3437,-193.7983,-12.5022,71.3955,-22.7566,-41.5746,26.4438,99.4136,198.6648,-20.8275
-2031.2500,-43.2482,-58.3417,-5.2253,-28.2181,65.2956,29.7067,170.1362,63.6250,67.9710,-112.8742,-81.6191,-123.2169,22.3188,-40.1702,49.3044,-189.8526,-47.1146,-44.2306,-15.6043,-59.0444
-2023.4375,-61.6842,-31.7302,-131.5364,-4.8620,-23.9840,14.1752,79.9645,11.2360,420.7783,-92.0789,-60.7993,-28.5320,44.2248,-56.6363,70.4596,-242.0253,-24.5811,13.2404,112.2356,-1.1568
-2015.6250,-46.5001,-21.1449,-47.1572,-9.1655,97.4354,24.3512,128.4964,132.5520,-10.7310,66.4125,-86.2851,-18.1473,-19.1807,-9.4109,-28.6953,-231.5085,-89.3523,18.4145,118.7800,-100.5727
-2007.8125,-36.8283,-12.0096,-52.1369,-22.3639,19.5009,20.1743,50.6826,54.5201,353.4243,25.5465,-17.1218,51.8801,14.0684,-87.5505,-32.2018,-125.3515,-89.4808,-121.7602,-57.0200,5.6626
-2000.0000,-45.1469,-28.6868,-90.1316,-50.0882,-19.4358,-56.0035,-25.1250,52.4998,167.5692,133.6867,-18.9653,12.8986,-24.6877,-52.6957,3.2878,-17.2026,-89.6148,-16.9254,154.1899,40.8930
-1992.1875,-31.4982,-33.8202,-4.9784,-74.5943,29.7762,-44.0309,24.2204,64.6344,-41.1338,109.9917,-6.6572,25.0635,-121.3061,-40.6950,52.9244,142.0970,-147.6069,-144.9404,-44.4610,53.2657
-1984.3750,-67.2560,-28.7443,-129.3314,-63.2434,-131.5206,-94.5657,-136.9426,-22.7257,238.6650,94.8115,-19.8513,83.7286,-99.4287,18.8018,38.0498,274.8933,-87.0961,-49.4555,-17.6084,149.1344
-1976.5625,-14.4354,14.1114,-19.0351,-18.2013,-21.1670,-58.4480,-99.4624,50.5594,-273.8975,96.2900,-20.3960,85.0460,-98.8920,55.9465,-71.1805,239.3342,-56.9379,-19.3299,12.8844,39.6470
-1968.7500,-14.3567,-9.1163,25.0596,-65.6176,-50.0212,-86.5365,-91.1897,-52.3609,63.3659,29.5647,23.8580,92.1649,18.4450,25.8734,-62.6098,320.5687,-81.9824,-185.4138,-118.8290,83.9641
-1960.9375,-121.0701,-94.9035,-127.9556,-144.7966,-129.9839,-167.7278,-63.0214,50.6165,166.5197,353.7505,-92.9863,11.1849,11.6700,128.6933,-33.1509,386.7004,-162.1264,-89.5967,153.3577,40.1852
-1953.1250,-125.0437,-87.1115,-28.8738,-141.0157,-67.8521,-105.8186,111.2375,187.6950,45.7593,454.0350,-176.7336,37.3133,-109.0100,118.6061,-79.5931,376.9321,-246.1742,-173.6863,34.6325,-43.4906
-1945.3125,-132.3909,-78.0915,-78.5975,-131.3589,-227.5324,-81.7153,-12.3082,100.9682,511.2120,441.5232,-152.2865,98.6438,-157.4939,68.7169,-18.8352,290.3692,-254.0244,-110.5852,27.1076,54.0379
-1937.5000,-58.6485,-53.9757,67.2243,-115.7048,-118.6659,-120.0705,-12.2882,173.7909,69.2178,440.5700,-117.2942,23.5197,-122.4345,67.3730,-18.5268,105.3621,-190.3334,-46.9421,92.1372,-56.8821
-1929.6875,12.5179,-19.3792,254.5972,-102.7426,-78.2583,-79.8821,-8.7044,29.1613,183.7975,223.1619,-39.7663,63.9431,28.1625,-76.4155,21.3380,-1.0909,-187.0950,-114.7551,-151.2805,-53.2487
-1921.8750,14.5829,10.5849,150.0223,-37.7461,-109.8086,-74.6453,-114.0749,-1.4119,226.4174,81.7883,-34.1903,69.4153,70.8058,-34.1514,-8.7553,-106.5007,-74.7974,68.4952,-37.6376,-10.5688
-1914.0625,78.1824,60.7406,241.0589,21.9568,92.2539,16.2030,14.1591,15.6150,-233.3984,-121.0074,19.9849,87.4916,52.0545,-16.2908,8.7250,-198.3271,-59.8892,12.3492,-129.3943,-66.2987
-1906.2500,69.0144,90.8748,108.4418,66.5120,-4.3310,30.4065,-81.2588,-116.0069,147.1358,-289.4778,71.5103,174.9193,103.6559,-3.0901,23.5456,-109.8232,29.3737,-4.4417,-179.7882,58.3164
-1898.4375,72.9105,104.0073,81.8314,103.0857,7.0928,41.6057,-143.6647,-69.6290,-282.3470,-204.9478,46.0343,149.3431,41.2427,81.1029,-38.6339,10.6637,106.6361,73.7597,-102.1710,-4.0753
-1890.6250,63.6128,106.3537,129.2738,104.6559,17.5637,87.8544,-133.0168,-132.2056,-271.7667,-268.3676,19.6105,196.8127,-22.1196,55.3345,46.2284,131.2065,81.9414,-56.9997,-301.5110,6.5874
-1882.8125,-1.5477,39.3675,-33.9868,47.0210,-107.6740,-1.5989,-185.0746,-184.4846,80.1209,-136.4856,3.4794,107.5727,-1.1788,38.8644,104.3842,189.0495,104.5455,0.5542,-138.5491,64.5566
-1875.0000,-4.4895,-13.5986,22.7981,-38.2401,58.1397,-55.0022,17.9174,-91.7177,-157.9477,-6.5533,23.4085,16.3831,18.7976,58.4334,50.5893,172.9371,-22.7997,-55.8339,-89.5411,-62.4271
-1867.1875,-76.5451,-70.3239,-127.8264,-95.3975,-56.4581,-59.7984,51.5003,-132.3598,427.6067,25.9821,19.9388,12.8009,52.3583,-19.4051,83.3924,242.4299,-94.5412,-127.6188,-90.9384,7.1887
-1859.3750,-108.7851,-101.7414,-210.4989,-113.6951,-29.1057,-106.6453,78.0278,4.9507,233.1032,236.4820,-26.5796,-70.8276,41.8650,43.6990,37.1317,121.8739,-106.3363,1.5462,144.6126,-39.2457
-1851.5625,-58.7736,-47.2069,-127.0197,-68.2372,55.3962,-21.3393,163.6994,52.4056,60.7598,101.1413,21.0562,13.6854,90.5362,-18.0544,12.0063,-13.5400,-131.9776,-130.1426,-21.6996,-64.5237
-1843.7500,-55.9096,-6.6026,-240.6965,-9.4485,-59.2559,-26.1880,-24.7889,-25.2913,241.2763,23.6481,54.5462,83.0442,160.0564,14.0389,-65.2684,-55.1078,-26.7573,10.0186,47.8398,5.0548
-1835.9375,23.5109,56.8907,-79.1120,54.3431,103.3438,25.2072,-10.0277,63.2619,-404.9722,38.4005,69.2807,98.6547,64.8122,28.3809,-86.2907,-150.4238,17.7223,19.4244,-12.3755,-90.1161
-1828.1250,66.4111,79.5475,-12.9325,69.7042,22.5366,55.1990,-90.6758,-54.5933,-82.6112,-151.2530,135.6163,127.8701,21.1721,-89.6713,17.2924,-193.1276,50.8038,-53.5796,-154.0038,13.3240
-1820.3125,87.5470,100.0296,-24.8103,105.8658,47.6741,6.1392,-138.3822,-66.4944,-203.3234,-199.9574,123.9044,79.0377,46.4796,-101.7702,42.8243,-351.8796,144.8347,146.3803,44.3170,1.7226
-1812.5000,138.8237,145.1910,115.5007,146.9195,151.0100,109.2893,2.1149,-110.1912,-393.8475,-353.4703,154.3875,146.4041,75.9849,-145.6655,-0.4525,-469.4336,101.0654,66.5504,-209.1557,-41.6779
-1804.6875,101.2438,141.4656,22.9432,149.2899,-15.5049,90.5956,-126.2226,-237.7295,64.7931,-445.8342,136.0154,200.9152,94.6380,-163.4146,17.4040,-413.8434,123.4492,89.8770,-221.4575,87.0644
-1796.8750,60.3772,77.8877,40.6290,70.2469,112.2373,-2.8451,-73.2907,-221.0087,-248.3161,-280.9447,79.8847,107.6756,75.5277,-73.9089,-1.4946,-250.0082,67.0790,-1.5434,-136.4954,31.0424
-1789.0625,-12.3290,-15.4300,2.0521,-43.6877,37.7187,-40.5272,-36.6033,-332.5348,228.3565,-208.2961,78.4926,70.1944,184.1627,-110.6544,108.3610,42.5735,-36.5506,-175.2160,-310.7860,103.7685
-1781.2500,-104.7628,-123.9940,-183.8358,-144.4423,-38.1009,-153.5062,-39.2203,-261.3517,409.7281,45.0594,38.7987,-78.5879,145.5067,32.3011,142.9029,260.8459,-73.4803,-38.1738,-66.3704,101.1907
-1773.4375,-85.8332,-119.8709,-107.5708,-132.4666,39.2348,-77.3297,74.3182,-75.0187,119.2390,122.5547,6.2592,-113.2191,-34.9920,72.4064,72.5873,338.2533,-111.2503,-74.9795,-68.8187,-5.2429
-1765.6250,-90.6254,-99.0219,-188.0062,-94.5167,-116.1277,-48.8396,-6.8527,-46.3929,516.0546,151.3282,-1.9758,-84.5452,-80.2022,64.8079,-8.4278,292.9380,-47.7065,-46.4713,101.0303,23.6217
-1757.8125,-62.0076,-70.5352,-141.1379,-49.9145,-32.1845,-38.0392,114.2783,148.5370,49.1321,273.3836,-64.9136,-146.5618,-105.1199,38.5099,-144.1539,119.9119,-8.8485,97.3507,315.1763,-149.2230
-1750.0000,-5.8842,5.9191,-64.5070,30.0425,8.5157,76.5186,155.1582,152.2103,89.9489,93.1675,-24.0957,-32.8179,-65.2825,-105.0369,-177.1402,-133.3631,-5.2289,65.9232,108.0590,-145.3185
-1742.1875,29.0627,70.3409,-109.6285,105.0441,-37.5344,67.3267,36.2722,143.1350,44.0054,10.2074,3.9706,32.1791,-37.1892,-77.3201,-185.8781,-325.3708,92.6497,234.7430,242.1935,-117.1604
-1734.3750,126.4650,119.7132,106.8052,147.0278,142.9724,136.6805,68.9308,139.6146,-474.4027,-104.1976,73.5849,28.7327,-77.5482,-82.0398,-152.0646,-439.8120,121.0833,122.0990,93.8609,-194.4454
-1726.5625,129.2655,111.6703,98.7753,123.0644,61.0213,91.5806,-48.8655,-52.3662,-78.2410,-258.0435,139.7475,56.8433,24.6409,-164.2032,-12.6953,-410.6822,154.0729,14.0031,-47.9272,-55.1657
-1718.7500,126.8536,110.4699,99.8877,120.3969,99.2184,18.6294,-47.5107,-15.1975,-406.9380,-184.7243,104.0568,21.1054,62.9842,-89.2039,-48.1757,-409.3946,188.2165,84.0681,57.4304,-90.7306
-1710.9375,145.4168,129.4440,168.9963,122.0594,131.4136,50.6883,-15.1516,-93.0255,-338.6135,-261.4018,136.3583,90.3688,95.3232,-168.2073,-89.6563,-377.1149,150.3641,-24.8596,-192.2086,-58.2906
-1703.1250,131.9568,120.4479,71.9017,119.4522,-2.5846,-9.4533,-147.9756,-189.0452,5.5329,-174.2909,149.4644,67.4266,-1.5253,-190.4202,-39.3480,-327.0656,237.3236,27.0243,-35.0182,28.9511
-1695.3125,127.6307,85.7263,166.8603,80.3983,129.4841,-24.5391,19.2775,-132.0080,-266.2735,-80.1351,97.6275,-21.4685,-16.3048,-206.5898,19.0017,-378.9904,183.3363,-27.0353,-52.7609,-59.7648
-1687.5000,53.2142,18.5594,111.5629,-1.6201,74.3067,-43.8664,38.2904,-259.2152,376.6841,-97.2248,79.5381,-3.6102,112.6673,-261.0098,75.1026,-324.1679,66.1043,-179.3286,-204.7458,69.2598
-1679.6875,22.3649,-10.0603,18.7069,-29.6297,55.5802,-134.7263,56.7484,-240.9544,285.0718,-6.8440,60.8855,-58.2899,131.0689,-169.9675,93.6521,-268.8902,84.3215,-90.1582,-46.2982,87.7257
-1671.8750,43.7694,-14.3815,95.5430,-51.3881,95.5479,-131.8720,96.8906,-237.9901,141.1392,-75.7656,100.9244,-55.2530,170.1508,-130.2121,96.9007,-155.9029,52.2470,-193.2874,-218.1703,90.8991
-1664.0625,46.6370,2.6315,20.9205,-21.6996,-51.9412,-169.4624,-50.4344,-239.4818,360.7504,-150.1568,99.5230,-55.6585,95.7888,-57.9026,58.7012,-9.3691,159.7408,-85.8599,-40.5021,163.6362
-1656.2500,64.6464,35.0518,95.3603,44.2209,59.6259,-95.9882,24.2905,-54.9277,-298.5961,-112.5238,-8.8172,-92.0008,-86.5114,53.4589,-49.4563,65.2054,190.2932,49.6144,95.1924,18.4272
-1648.4375,40.9357,21.7854,76.6986,54.0173,3.0896,32.3906,4.9054,-37.4763,11.9699,-242.0034,-28.2561,-74.4324,-140.9099,-3.2720,5.2800,118.6722,136.7598,-2.9904,42.8056,36.1273
-1640.6250,11.7986,-2.5443,-20.2004,44.8188,-19.6785,9.5306,19.2820,49.7406,-10.7725,-118.7393,-50.9415,-134.1124,-91.5579,10.7575,-17.2297,95.8760,147.9773,148.1625,229.1667,-23.4306
-1632.8125,27.3112,5.9899,88.6534,39.0362,126.3005,81.4261,164.4104,122.7016,-232.7283,-45.7410,-51.8753,-98.0348,-55.4459,-64.4620,-91.9835,20.8345,37.9451,73.0723,13.2635,-98.2290
-1625.0000,-4.2596,-7.0685,-47.4414,22.6970,-46.6671,55.3718,-7.4110,59.7244,183.3381,-34.6796,-3.7629,-49.9090,-7.2871,-53.6168,-43.6909,68.8457,51.9722,87.0515,28.4235,-12.9815
-1617.1875,-5.6243,-16.9779,-10.0227,22.8326,27.8692,93.8259,-6.7242,171.2479,-256.0918,113.8797,-39.1500,-85.2769,-116.6311,57.7246,-41.8937,107.3637,14.5022,120.5177,97.0529,-85.2301
-1609.3750,-34.6368,-24.1481,0.0338,2.8522,-72.9582,139.9287,-33.4009,181.4162,10.1716,160.0997,-66.8852,-1.9946,-180.3182,29.7216,-32.4481,226.5399,-79.3057,60.6490,-103.6593,-38.8194
-1601.5625,-72.7240,-49.9951,-144.2500,-5.4435,-143.1199,106.6901,-140.4157,185.2430,87.0410,310.9784,-62.9778,-35.0559,-140.3543,107.3844,-65.3673,230.3688,-40.4576,170.4391,76.2804,-34.7708
-1593.7500,-18.4211,-16.2205,13.2189,13.2354,14.4619,117.2150,-19.6873,194.8177,-197.3093,247.5930,-52.3191,-25.3562,-129.6345,80.8063,-91.5347,130.9509,-33.8517,36.9750,-57.0449,-97.9640
-1585.9375,-4.6175,12.9177,-40.7658,43.6644,-76.4074,99.2893,-73.4144,-6.0471,374.8750,83.7681,3.8882,31.8939,-109.3729,-10.2079,-35.1570,77.0834,61.3200,-8.9202,-102.7901,32.3903
-1578.1250,40.3480,51.5764,56.3601,90.9484,21.8362,49.4772,-12.0293,18.2051,-5.8692,34.0438,-45.8034,-17.7491,-86.0172,13.8868,-84.6892,-83.6892,152.5948,117.2869,58.5556,-17.1670
-1570.3125,52.2216,53.6907,114.8282,90.5096,43.4205,108.0295,46.6998,-34.1865,125.7632,-128.3366,-24.1507,3.9697,-64.3120,-75.6661,-25.8762,-171.1193,103.2389,32.8702,-130.7378,4.6267
-1562.5000,-1.7603,23.8650,-10.4379,67.1094,-82.7270,56.8504,-42.3119,-12.3103,258.5833,-33.4692,-76.2495,-11.0614,-151.3611,-16.9625,33.1783,-113.3223,90.1481,160.7214,67.2288,26.6558
-1554.6875,-35.4234,-18.8960,2.3089,32.8709,4.1331,106.6870,44.6752,184.5616,-207.5881,127.3624,-136.3333,-71.0836,-176.4056,69.7373,-27.7551,9.4608,-8.9294,131.5740,74.1667,-107.3090
-1546.8750,-86.6645,-55.3343,-60.1928,1.4502,-95.2567,117.2816,18.3959,159.1796,134.9797,137.9242,-162.6638,-60.3505,-54.6951,80.2031,-15.9379,203.9882,-31.2361,74.1970,15.8560,-59.5178
-1539.0625,-86.7303,-78.0992,-50.4235,-14.9556,-11.3766,54.1386,29.3698,243.0479,-186.2402,221.7280,-188.7405,-160.3619,-44.7333,163.9275,-5.8737,251.7716,11.7130,151.0642,163.7671,-122.4784
-1531.2500,-33.4005,-68.2181,85.2870,-45.3256,87.4431,41.9434,91.2783,156.8521,-234.4619,62.4821,-89.8667,-135.4210,91.1883,115.6036,-17.8577,276.5233,-34.3731,-35.1115,-22.3725,-97.4745
-1523.4375,-50.4661,-80.1930,-22.6973,-63.8877,-20.4255,-28.9514,-16.5027,48.9680,61.5812,28.5543,-50.6975,-133.1868,93.4068,117.5957,95.4510,315.5760,6.8493,6.0248,124.8070,-21.1812
-1515.6250,-10.8308,-34.3726,90.8702,-21.7369,56.2562,10.7162,60.2729,89.6380,-375.8064,105.1749,-83.9750,-92.3974,-86.8162,157.1423,99.3028,282.1837,6.6273,-29.2909,89.5225,-91.3405
-1507.8125,-8.0387,15.4512,26.0748,24.6525,-45.4188,57.0392,-41.3139,-12.0333,37.4674,3.4598,-38.6063,64.0438,-114.3951,129.3597,71.7985,254.4468,21.0723,-85.9322,-73.0886,28.1445
-1500.0000,-15.4350,16.9145,-7.6072,40.4208,-41.9742,23.4821,-74.7907,-8.5818,-143.2101,43.8420,-72.1421,30.5936,-74.8888,169.6927,1.3835,183.8027,57.6249,91.5378,69.3921,-5.2929
-1492.1875,45.3949,60.4228,143.7098,80.7094,72.4640,100.9379,3.7280,-41.1297,-322.8566,-136.7929,-30.6775,71.1567,3.6236,137.0349,-31.0371,77.1526,60.1911,-10.9825,-139.1296,-37.7320
-1484.3750,41.8308,79.8834,36.6315,106.5486,-34.4795,68.0083,-102.1488,-147.0598,85.0479,-278.8315,9.3889,112.3229,80.7396,103.9878,9.1345,7.0749,139.3677,33.1259,-60.0345,76.4131
-1476.5625,86.0144,99.5461,139.5643,117.5405,105.5900,60.0995,36.9814,-44.9817,-290.0588,-286.8909,2.4597,67.5023,-0.1383,95.9386,-34.6914,-74.0236,129.5541,57.2326,0.0394,-4.4472
-1468.7500,66.1220,94.7813,138.8914,95.8044,32.0560,97.5988,73.4981,-81.5040,114.2410,-323.5606,1.9338,141.0897,-0.6150,22.3017,-35.1080,-73.7245,27.1566,-10.2409,-101.4751,69.0974
-1460.9375,20.5171,79.9379,-5.4153,78.4779,-39.1065,26.4541,2.3724,-5.6672,79.8338,-64.8847,-32.2409,144.0291,-34.7387,98.0252,-69.1715,-35.0722,28.1155,96.6383,180.3511,34.9870
-1453.1250,14.2505,53.7061,63.6263,31.2509,30.0775,58.6637,71.5871,137.5113,-183.1855,78.1270,-36.0623,140.3303,-75.4958,131.1033,-72.8759,33.9506,-86.5702,-53.1344,65.5063,-79.7573
-1445.3125,-41.2305,40.7294,-79.1376,28.2009,-112.5385,26.0773,-34.0045,67.8968,262.9742,119.3511,-68.6848,181.8309,-71.0523,135.4049,-68.3795,149.1929,-45.0477,-11.6876,106.8728,-38.2980
-1437.5000,-47.4750,38.2923,-47.7399,33.1156,-43.9951,21.6502,34.5646,210.4371,-109.7203,297.7272,-147.1566,139.4902,-223.4606,203.8661,-146.7382,180.5984,-55.3730,48.8967,202.3723,-153.6875
-1429.6875,-51.6455,44.4264,9.4958,34.4081,-59.6122,79.0742,54.9745,193.8198,94.4805,244.9545,-163.7786,197.0075,-203.0132,114.1938,-126.2449,200.8661,-102.8354,-69.6521,-22.2655,-96.2188
-1421.8750,-53.2838,39.2856,-74.9054,36.2108,-107.8569,-6.1449,-66.2499,182.5702,119.9891,270.5345,-138.0486,149.8728,-103.2124,139.8820,-100.4054,153.4747,-6.9416,62.1631,144.4487,-70.4135
-1414.0625,39.2121,95.2294,151.2953,81.1036,81.5019,37.2548,50.1222,151.9229,-388.8745,128.7025,-95.7126,155.3521,-23.8000,71.1698,-57.9614,48.6747,29.5558,27.5822,-30.2522,-175.0020
-1406.2500,108.1069,144.1347,250.7460,113.6758,-2.8845,25.9169,-71.2653,-42.4628,-32.5131,-102.8752,3.8771,218.0886,112.8523,-13.2798,41.7307,-35.8899,129.3227,-13.7139,-177.6837,-75.3405
-1398.4375,184.1598,179.4680,402.9707,134.3793,76.5007,-5.6496,-65.8958,-74.0859,-431.4485,-171.7240,46.2218,186.5913,118.2536,-7.9770,47.1725,-178.7215,167.8486,60.7455,-138.3820,-106.9358
-1390.6250,219.5911,192.6565,478.5932,125.6921,115.2808,-2.8022,9.8582,-182.3150,-355.9636,-426.1932,121.9758,225.5067,157.0663,-42.2713,123.0221,-212.1731,138.7956,-74.3736,-414.6772,-31.1217
-1382.8125,200.5542,190.5959,326.2832,140.5515,0.1372,-44.8907,-104.3259,-296.4841,-177.4857,-504.6282,153.7854,221.4694,151.9405,26.4920,154.9184,-180.6014,209.8092,66.5779,-237.9125,74.7287
-1375.0000,202.3594,188.5130,362.9852,146.4353,184.0030,-7.9664,4.4968,-186.6564,-545.9843,-505.0841,116.5957,184.4475,77.8325,62.2612,80.8141,-145.0306,170.8310,27.5235,-171.1681,0.5796
-1367.1875,130.0420,134.4802,202.2762,98.3127,60.4665,-21.4409,-9.0858,-200.2202,-8.8679,-481.9300,103.9990,171.0290,139.3189,12.6557,31.3131,-11.8376,127.4569,-15.9185,-144.8034,98.0308
-1359.3750,32.1621,54.4156,40.3262,51.2821,45.6972,-36.1564,50.0961,4.9786,-98.0286,-130.0157,-21.8507,46.3601,86.5502,70.8216,-57.4385,47.1353,73.8332,106.3796,117.2981,9.2248
-1351.5625,-13.1500,8.3862,-12.9782,5.5973,65.5666,20.7740,143.9250,135.8266,-3.4832,73.5529,-38.0508,29.3393,-39.5559,17.6493,-36.5266,29.7782,-49.1337,18.3320,-5.9492,-43.9210
-1343.7500,-84.5726,-30.4305,-189.5280,-15.2921,-111.8012,28.4589,-33.4903,142.4403,333.7761,227.8920,-68.5044,37.0597,-69.9100,25.2436,-29.8698,37.1803,-76.3403,97.0532,143.5690,-0.3287
-1335.9375,-51.7506,-12.4274,-127.3670,13.0666,25.5385,54.8587,66.8023,279.7564,-192.2554,290.9269,-78.2588,-10.5145,-79.5599,51.5412,-113.5116,-47.7100,-55.8414,117.4736,162.7725,-121.0383
-1328.1250,-17.5982,38.4302,-116.3122,53.3197,0.7763,103.1674,4.9860,143.9772,39.6168,80.8636,6.8844,111.8186,41.6853,-47.2401,-102.2536,-109.6982,-40.4241,61.8177,-33.1105,-35.8476
-1320.3125,1.6615,58.3116,-144.2363,89.9660,9.0354,75.4928,-59.8238,116.2104,-208.5689,52.7945,15.0330,84.1590,13.9373,34.9878,-93.0034,-210.6954,37.0033,246.1697,114.9934,-63.6721
-1312.5000,69.2905,81.8779,12.2991,100.8813,92.7466,158.2770,22.8076,88.8868,-419.2729,-47.8452,98.6410,93.9642,23.6614,-29.3362,-83.3029,-274.2513,9.8917,77.9768,-123.4643,-91.0382
-1304.6875,41.2413,27.4219,-69.5562,22.1461,11.0751,40.6700,-58.9621,-66.8280,12.5814,-92.8901,163.8582,49.3685,89.9881,-74.0508,129.0016,-209.2273,9.3865,6.4068,-90.3045,48.1920
-1296.8750,36.1106,-36.3381,-24.4940,-65.6318,129.3172,-62.0204,96.1714,-58.6377,-309.6742,-12.0589,171.9850,-90.3162,97.2180,-28.8630,174.2105,-164.3108,-55.2122,-58.2622,21.7363,19.3228
-1289.0625,-8.0211,-50.3904,-52.3422,-98.1261,63.6529,-89.6026,104.3920,-123.3506,27.1905,-77.1325,143.2126,-7.8909,179.5501,15.4377,182.5230,25.7091,-111.6976,-184.8088,-141.1089,137.5572
-1281.2500,-63.5579,-72.3921,-212.7724,-93.1036,-58.5934,-102.7683,-17.9760,-62.6424,14.4035,55.1864,92.8463,-20.0585,92.2779,187.1488,169.2324,160.1182,-87.7844,-19.9475,57.4455,161.1809
-1273.4375,-50.8802,-55.2291,-102.7481,-74.4288,50.6069,-30.4732,17.1078,9.5117,-242.8821,17.9350,55.9380,15.2328,92.4690,186.3143,132.3947,158.9691,-126.4161,-129.6366,-121.5585,87.2652
-1265.6250,-80.5545,-79.7660,-194.6777,-82.7074,-77.1388,-84.1257,-36.7611,-81.2735,215.8744,-36.2487,38.0754,-38.4296,184.7034,94.5490,150.5977,177.8767,-33.9906,-142.2555,-29.4850,179.3976
-1257.8125,-52.2734,-83.6920,-116.7464,-83.3718,36.9758,-115.9156,40.2279,32.8011,-110.5315,150.4187,5.0653,-144.2388,78.7802,99.6440,44.6444,144.6479,0.2869,-73.0276,145.4275,73.3733
-1250.0000,-40.9602,-71.4938,-68.3236,-77.0690,12.5817,-67.1967,15.7094,8.3775,47.5932,126.5838,17.5541,-94.5412,-19.6312,75.2494,20.1887,230.9289,-21.9222,-130.2841,-18.1443,85.8500
-1242.1875,-73.7404,-71.2240,-135.6302,-51.5940,-54.5423,-61.2173,-124.5494,14.2231,52.9076,205.0063,-49.7025,-88.5927,-49.7905,118.1207,62.9788,236.4523,19.1250,15.7181,128.5355,91.5565
-1234.3750,-26.9895,-53.0754,9.6276,-24.9460,90.8861,11.3240,-16.2620,86.6125,-352.2122,203.9610,-51.3991,-128.0841,-14.3923,42.5479,-11.6759,124.5241,13.7271,10.2703,-18.2599,-20.1860
-1226.5625,0.4108,-2.2945,-17.7118,27.8620,-9.2795,21.2731,-79.5901,-50.5927,134.0451,-7.6862,-4.6934,-44.1809,32.4018,-57.6075,35.0782,-13.0055,97.7445,24.2480,-40.6431,63.4685
-1218.7500,20.5416,-3.5193,10.5702,43.2945,55.1720,12.8370,-15.3144,-22.1890,-96.1317,-16.7392,-13.3858,-126.6722,59.8030,-29.1576,62.4329,-132.9366,156.3650,81.8278,87.5553,-19.2881
-1210.9375,13.1540,-17.1285,71.8535,3.0407,80.6163,37.4031,45.9525,-70.7929,38.7383,-102.7949,11.9227,-64.1629,122.2179,-3.6996,87.7871,-107.8504,38.9954,-34.5869,-135.2458,-31.0412
-1203.1250,-42.5062,-46.7766,-112.7048,-5.8351,-67.7699,37.1246,-65.6243,-72.2353,331.7192,-67.6917,10.3779,-65.5076,84.7843,68.9276,50.2904,1.3946,41.7767,73.1599,-27.8901,41.3432
-1195.3125,-26.5483,-43.3399,-35.9562,-8.6004,46.1460,40.1537,48.1037,41.6245,-106.9740,9.7037,-22.8675,-98.5497,14.6509,71.8608,17.1028,4.9553,6.8544,38.1989,-27.2468,-28.9708
-1187.5000,-64.9206,-48.2932,-116.1111,-3.9027,-70.8426,33.2836,3.9257,-2.4090,290.4478,38.2116,-67.0130,-68.5004,6.6221,-9.0954,83.0172,70.6243,40.0360,0.3525,-30.4744,73.8136
-1179.6875,-112.7813,-100.8981,-188.2504,-36.0962,-69.8089,-1.5822,-31.2311,109.5721,106.8428,259.7249,-139.1582,-176.4517,-65.4057,102.9513,47.9260,145.2908,38.2136,104.5055,214.2970,1.5851
-1171.8750,-68.4577,-91.7829,-51.1460,-62.2235,31.4672,25.8112,69.8571,137.8034,-12.4606,250.4907,-75.0560,-150.1490,-0.1778,57.2520,2.0838,173.2139,-42.3576,-46.0867,62.3231,-44.3861
-1164.0625,-89.6971,-124.6238,-131.0861,-104.8814,-48.2987,-53.8401,26.8984,94.0005,311.1530,207.2214,-45.0059,-191.8999,103.0021,14.5185,32.1834,129.0789,-45.9748,21.2824,165.3183,22.5811
-1156.2500,-44.8542,-101.9714,-26.1120,-89.4752,130.8404,-58.5815,168.8440,163.0990,-99.3259,200.8412,-50.0452,-233.7418,61.0852,-27.3137,-9.8204,12.8410,-53.6944,47.5419,226.1970,-56.5545
-1148.4375,-20.2909,-49.2016,-24.7877,-40.1303,59.3244,-19.9731,170.1261,17.5465,233.5620,-55.1862,-11.7306,-121.2352,100.5150,-134.7854,102.5278,-59.0402,-12.0540,-50.8383,92.4370,55.6623
-1140.6250,5.6477,-18.3521,-67.8918,1.0541,53.3746,-62.8093,90.9623,-25.4433,79.9423,-61.6582,19.1401,-127.1742,94.4900,-104.6907,59.4260,-137.3619,88.1290,119.3284,192.2178,49.4184
-1132.8125,64.2398,15.6122,99.0496,12.4076,183.4650,-5.5891,146.8347,-42.3884,-194.5904,-152.0849,75.0643,-72.0503,113.5150,-122.5365,-31.6210,-191.6154,34.3600,-4.4527,-73.9656,-4.7660
-1125.0000,55.4306,13.3118,36.5850,2.2488,10.1593,-30.7644,-25.7003,-177.7212,219.4470,-213.9020,123.5864,-23.3308,88.1461,-146.7629,52.9274,-181.2596,50.1863,11.3843,-127.5319,116.6421
-1117.1875,76.2270,13.2541,93.7368,-10.7490,67.4643,-48.3325,-6.6281,-157.4465,-55.9265,-195.1329,142.7170,-41.0089,71.3900,-126.3863,73.0740,-235.2991,32.6069,-42.1910,-146.5151,62.6457
-1109.3750,74.1247,5.4401,157.4302,-33.8471,-14.6910,-19.3528,-89.0155,-314.6273,265.2848,-315.8129,170.4009,23.8601,98.1951,-136.4543,136.7711,-97.7807,-6.4146,-186.2112,-397.9324,163.2049
-1101.5625,-25.6717,-52.2115,-20.7103,-57.0638,-156.6745,-88.2242,-194.2381,-272.6507,269.6089,-16.3365,29.2353,-44.1345,-5.8531,16.6344,141.6198,89.8930,35.7141,-74.0873,-144.1908,204.9016
-1093.7500,-58.0514,-70.5476,-0.8489,-69.5348,-61.6660,-30.0992,-62.4558,-66.6804,-76.0055,224.1407,-59.9281,-59.1333,-57.8992,36.7235,52.4753,221.5819,-53.1660,-127.9707,-128.4527,115.6030
-1085.9375,-103.6797,-105.4057,-153.3398,-95.2758,-178.0082,-72.3284,-106.0194,-36.0477,394.0330,254.2956,-66.4515,-102.4947,-27.2978,-5.5221,45.9829,288.9357,-22.4100,-97.1869,76.9604,145.9468
-1078.1250,-96.7483,-121.0475,-139.9268,-111.0730,-54.4410,-95.6442,54.3276,124.5035,76.9658,342.3693,-90.0823,-197.9546,-13.8001,9.1384,-12.6128,193.2071,-51.7732,14.4937,330.2603,-23.8221
-1070.3125,-91.0175,-112.8259,-81.5242,-94.0589,3.1093,-0.9575,149.6630,182.0590,207.9485,215.4595,-105.7193,-178.4160,43.7024,-80.1901,-28.2147,66.4976,-104.1431,-37.8163,206.5674,-76.5870
-1062.5000,-112.6129,-99.4366,-208.1080,-56.5862,-49.3293,19.7323,96.0033,202.6309,338.8933,235.5596,-122.3576,-157.8821,-45.8048,-59.5070,-44.8260,-23.2111,-83.5200,158.8754,367.8819,-56.3665
-1054.6875,-55.8586,-50.9778,-63.6834,-16.5835,96.2301,128.4236,130.3473,275.1910,-142.1269,159.6458,-86.9869,-85.3428,-121.3076,-61.8250,-10.4326,-135.9157,-158.9008,153.5533,151.1851,-132.1425
-1046.8750,-35.1493,-6.9269,-113.5103,19.9635,-64.4569,152.8606,-29.5644,151.4954,175.6015,-74.5135,10.1367,48.9383,12.9496,-74.3884,50.7017,-184.8753,-130.5234,182.9949,-66.7341,1.8294
-1039.0625,-8.1292,11.8782,-94.6102,47.0687,-8.4198,135.0020,-84.7650,133.5035,-211.0154,-18.9891,27.9685,29.9202,-5.0897,17.7467,-4.4715,-277.1490,-79.4483,304.1324,-15.9688,-53.5071
-1031.2500,76.8988,87.3682,81.5915,101.9843,56.9045,201.4497,-55.6908,51.8018,-218.3126,-247.1859,94.1067,133.2164,-12.8350,-62.8098,-12.3426,-358.1226,-50.0692,86.5796,-232.9120,-24.5306
-1023.4375,81.6401,91.3428,33.9533,104.0297,-62.6139,117.0540,-139.4751,-141.7392,100.4838,-369.2250,120.3980,122.6618,49.5605,-72.1996,12.9196,-332.9445,50.4557,83.1897,-96.7024,111.5864
-1015.6250,134.0180,69.9501,165.6742,55.5795,141.2164,28.0102,-8.9107,-119.9318,-246.3441,-384.9140,178.0418,-3.5405,108.3116,-88.2426,-2.4702,-274.4034,69.3183,-4.8713,-79.1585,59.0511
-1007.8125,102.7267,34.6393,139.8337,8.7990,41.4862,2.4091,-33.9024,-256.6733,241.3139,-411.1265,189.1290,7.6886,118.5131,-76.8325,8.5868,-80.3960,47.6209,-95.4715,-170.1368,142.9622
-1000.0000,20.2820,-43.0819,25.4998,-68.6399,1.2673,-74.6933,-75.3745,-149.8996,126.4567,-120.8174,111.7123,-69.5943,41.2094,66.0835,-32.8651,62.1229,-29.5962,2.4150,-2.6151,65.3569
-992.1875,11.3817,-51.0641,104.9569,-97.5004,44.8325,-32.0009,-33.0541,-71.3299,22.4583,-5.6976,80.0956,-27.0737,-63.2953,35.8015,10.4781,178.4613,-132.0209,-134.9075,-140.2959,-2.4452
-984.3750,-39.0417,-85.5835,-18.4839,-109.3219,-114.5032,-44.2145,-81.6338,-46.6455,376.5409,54.5522,30.5744,-75.4659,-74.7173,22.6325,33.9117,275.9115,-104.3550,-71.1217,27.1457,94.8398
-976.5625,-32.5827,-92.0654,14.4853,-94.4677,27.5638,-12.0304,23.1943,95.4422,-143.9559,123.2055,-10.5472,-154.4669,-80.7448,91.8574,-7.2527,197.7741,-114.3019,24.0430,123.9771,-20.4800
-968.7500,-2.5927,-22.9908,29.1886,-15.4441,-31.6382,75.8912,0.7664,73.2767,54.3388,-9.3738,4.0784,-29.7290,-29.0224,33.8393,-66.6717,101.4010,-64.5031,3.9640,-2.4168,-6.0531
-960.9375,7.3519,23.4422,-58.3988,59.5083,-45.1266,99.5136,-49.9504,133.8219,-143.7036,12.7628,-10.5970,-7.3006,-6.6024,56.5261,-154.4129,-59.2668,23.9847,197.5807,226.8890,-93.9469
-953.1250,80.5747,78.1601,102.7632,103.8234,116.1234,187.8882,38.0692,185.1103,-459.9494,-120.3551,41.4786,44.8817,-28.4291,-2.0341,-103.4168,-229.1807,-0.7861,137.9421,24.9295,-190.0899
-945.3125,59.8165,68.2015,33.1728,100.4448,9.6213,155.5132,-68.6724,78.6559,-51.9654,-153.2052,44.7955,48.3007,-24.0160,-71.3351,10.8227,-260.8380,42.6932,181.5607,33.2436,-75.9915
-937.5000,38.9881,41.8426,63.3962,91.0017,112.9217,147.9351,-39.6049,145.0017,-390.1768,-13.2554,-36.0875,-32.4852,-31.8084,-41.8380,-33.1362,-305.6794,32.9547,241.9541,128.3380,-157.0971
-929.6875,3.4729,10.5839,53.6070,40.9504,67.2024,138.3392,61.4536,98.3335,3.6642,-60.2918,-45.9732,-5.2789,32.3984,-88.3375,-43.0927,-242.4958,-47.7964,126.3459,-21.5593,-167.1938
-921.8750,-46.6832,-33.0762,-80.7717,6.6192,6.8902,78.1369,73.9145,75.0706,273.8649,27.0897,-69.4621,-65.6808,8.9925,-37.4301,-66.6553,-228.8946,-35.1617,174.1313,200.9397,-190.9015
-914.0625,-10.7639,-14.2762,34.2975,6.3027,159.0146,83.3810,225.8118,154.2470,20.5532,-6.0765,-64.4970,-60.6379,-22.9536,-32.0780,-135.7711,-260.8185,-69.0948,34.3528,96.8745,-260.1513
-906.2500,-31.5444,-8.6302,-61.4934,16.1050,26.2795,61.7596,93.8536,58.5781,440.3864,-65.0625,-50.3861,-9.4659,-45.7446,-54.5697,-47.7521,-209.5711,-14.8930,19.7317,80.9928,-135.2554
-898.4375,-9.5186,5.2982,-20.7756,16.4502,66.0535,28.6297,23.4126,172.4136,-72.2851,122.4739,-46.7720,-5.8112,-152.0349,96.4404,-81.2488,-95.8025,-14.2183,89.5912,151.6104,-205.8717
-890.6250,12.3191,23.3475,48.3243,-0.4213,62.2098,60.8879,18.3660,130.6502,-77.4983,80.4302,22.2380,99.2346,-83.9319,91.8569,-122.3492,47.3884,-88.1586,-89.1492,-98.3564,-174.0880
-882.8125,-1.4395,27.0894,-41.6307,7.2503,-27.6809,8.0932,-145.7229,40.8548,16.2057,101.3698,42.1875,120.2187,11.1004,113.2350,-102.5137,67.5380,-27.1673,-27.9356,-2.3572,-43.3760
-875.0000,63.0230,56.3725,70.5650,8.9507,121.5713,10.4509,-69.6638,80.2097,-458.9009,103.4643,118.2785,122.3546,13.2753,41.7610,-100.5446,32.8527,-60.0387,-96.5920,-70.2193,-41.5219
-867.1875,44.0180,54.7236,17.5985,-8.4438,31.6615,-41.3560,-84.7617,-81.5784,1.8577,-58.5710,139.2099,180.3331,70.2917,-9.8546,-5.7393,54.0279,-68.0670,-138.3900,-148.2027,126.1691
-859.3750,39.4160,45.2752,-10.5074,-11.7623,40.6122,-106.3165,-39.9936,-72.5100,-172.5566,22.2524,110.9891,115.1537,79.1453,35.3801,-34.0943,26.0601,-26.2606,-26.3529,33.6548,97.6894
-851.5625,45.7685,56.1970,63.0841,-21.9629,40.2487,-69.5820,-4.5377,-72.7553,-136.2211,-87.2311,110.4685,187.6690,4.7039,-1.6898,75.2386,62.7949,-96.7589,-201.6197,-176.7892,96.9109
-843.7500,6.5071,54.9159,-53.4648,-18.3393,-149.2590,-150.0097,-120.2312,-153.1517,223.9305,-94.8463,66.7992,218.0219,-37.8971,30.0905,178.3987,92.3802,-28.4122,-133.0409,-73.3696,199.9653
-835.9375,57.8490,63.5122,49.0423,-15.2880,-9.7259,-157.3954,18.1225,-123.5024,-113.8424,-138.4036,96.1773,137.4245,27.5464,-50.0860,97.5981,12.0325,-4.0383,-178.4375,-13.9183,119.0647
-828.1250,69.7439,72.5067,75.4303,-23.1085,-57.3157,-204.8951,45.3603,-280.9512,352.3163,-296.0271,121.4435,162.7170,126.8747,-171.3518,86.6847,-34.3878,25.2149,-254.9315,-89.5497,218.0612
-820.3125,35.1922,39.3803,-8.8352,-26.7427,-68.5546,-216.0546,32.9561,-256.0399,266.8074,-124.2734,73.0522,77.3460,42.5422,-72.2641,2.1087,-8.4377,46.7897,-57.0919,107.1677,169.3899
-812.5000,41.3611,27.8037,72.4840,-46.1386,12.7835,-133.6321,115.1519,-173.5422,17.9813,-78.9001,82.2566,86.5610,13.8099,-63.5809,9.1233,73.1329,-55.0599,-123.6720,-64.5115,67.3198
-804.6875,-19.5374,-7.0887,-49.2041,-60.3378,-107.8816,-145.2313,-7.6443,-185.0344,264.1607,19.5207,33.4495,74.7508,39.0625,-1.8904,34.1169,208.7247,-29.9341,-62.2572,30.8345,92.2356
-796.8750,-32.6420,-15.7385,-9.8937,-56.6965,40.4442,-106.8425,31.5657,1.4781,-247.6323,205.9721,-37.3670,39.9293,41.3059,74.7942,-73.9044,248.3442,-68.8380,-31.8712,98.1638,-52.8564
-789.0625,-55.7671,-38.4584,-20.9597,-61.5846,30.3939,-43.8212,-15.5887,27.6397,-1.7299,196.1069,-48.5444,29.7448,68.1845,28.1409,-48.2809,274.6401,-77.1119,-143.8356,-50.8376,9.6997
-781.2500,-55.4468,-26.3566,-79.6792,-30.2082,-65.3019,-65.4526,-146.3846,80.1654,-60.5172,284.6215,-70.3831,7.8968,-27.5943,80.8450,-33.3327,290.3009,8.9468,11.5408,105.5182,24.5844
-773.4375,24.9912,22.2884,87.1408,3.3865,28.5418,-8.5398,-54.6401,99.2334,-334.7187,230.6828,-13.6705,27.6018,-81.8222,-9.9036,-50.8588,236.5240,24.5433,-113.5441,-53.5853,-29.9820
-765.6250,10.5329,16.8154,26.1606,-5.6241,-105.4183,-68.4384,-114.7102,-34.5000,155.2488,133.9520,-1.7582,39.4966,-31.8660,-69.4487,34.7972,212.9551,77.3332,-130.4271,-36.4697,92.6416
-757.8125,15.0144,21.2161,32.2987,-9.7712,-27.2754,-136.2450,-36.6832,7.8614,-132.6944,213.3222,-32.7465,8.4848,-99.8300,-27.8980,3.5348,145.4985,79.2087,-58.2381,106.7243,24.3586
-750.0000,15.4290,27.6732,55.4704,-7.3821,-41.1138,-77.0247,23.3720,-42.7436,147.4683,15.7638,-9.6890,68.5126,-40.7598,-41.2973,-10.6882,132.1203,32.1205,-175.0038,-81.0224,47.1310
-742.1875,-26.8845,3.3365,-75.2118,-24.8404,-133.8016,-133.6730,2.5878,-62.1942,384.7605,32.3902,-30.4926,47.6733,-24.5546,49.4584,-67.7864,148.9103,48.1573,-123.6285,146.3938,63.0327
-734.3750,-1.1290,-5.4218,59.7436,-44.4455,1.1412,-109.6865,138.4598,-0.0027,78.7710,94.6895,-41.6539,-0.5257,-35.7033,38.8569,-117.2565,138.3800,-2.1847,-243.6304,96.4584,-22.4252
-726.5625,-17.3527,-18.7959,21.0765,-47.9625,-110.5300,-110.3214,25.7318,-74.4054,518.2088,93.4372,-43.4330,-3.3486,-147.4700,-0.3381,-81.3432,210.2736,34.8498,-240.2287,28.9561,85.5013
-718.7500,15.7312,7.4840,31.2073,-9.3746,-65.4026,-101.1691,-38.1799,8.0022,50.4517,214.0152,-34.4208,-30.3939,-284.4422,47.2587,-109.6418,146.9846,76.6502,-59.0489,141.2466,21.2056
-710.9375,72.6082,53.1545,141.0661,27.3490,-28.5503,-28.2840,-38.3525,-28.8456,-23.4849,30.3735,39.3282,43.2956,-174.6744,-26.3989,-74.2069,37.4709,76.1819,-128.1258,-138.7009,20.6529
-703.1250,63.1119,69.4707,71.5179,47.7264,-97.1044,-60.8130,-180.9211,-97.0800,91.1558,-39.6265,42.6637,83.5618,-61.3289,-22.4537,-34.1970,-32.4216,116.2898,16.3857,5.9698,60.6773
-695.3125,63.4181,60.0845,127.1105,48.6860,30.4755,30.7919,-89.3412,-5.1645,-331.0117,16.5484,24.1414,64.9683,-79.8457,-2.3611,-52.0639,-86.1329,22.5195,64.0162,-51.2181,-68.1536
-687.5000,-3.2336,25.7306,18.3829,25.8197,-78.2676,70.0697,-88.0699,-3.5446,111.5472,-54.5315,-10.6958,103.0502,-4.6785,-0.5629,-14.2572,-47.1161,-43.5640,-0.6582,-150.6734,6.7067
-679.6875,-39.0314,-35.0730,-50.1976,-15.4629,-72.8624,37.4841,-45.6393,38.2358,-29.7648,24.5747,-42.3918,-38.7362,36.6174,41.3853,-9.3284,32.0775,-41.5239,106.7922,97.0221,-62.3048
-671.8750,-31.0560,-40.3975,28.1527,-35.4952,42.4631,42.8302,106.7263,6.9563,-25.0594,-116.3413,-37.1476,-33.5803,78.8447,10.2828,105.5367,75.2548,-73.5562,-65.8250,-75.3313,-94.3659
-664.0625,-98.1693,-84.0869,-96.9552,-81.9646,-82.6682,-45.2963,55.6347,-80.7676,403.1739,-93.6717,-89.3674,-48.8903,100.5993,-3.2630,200.9299,172.0078,-84.0583,-4.9033,90.8769,1.1113
-656.2500,-109.1095,-106.3040,-57.0169,-116.9479,30.2405,-42.3872,204.5908,32.5414,37.4750,131.0575,-123.5351,-83.1539,66.4012,0.2371,129.3595,175.8262,-190.5325,-5.9600,126.1036,-70.3610
-648.4375,-146.8470,-134.2123,-144.9486,-145.2347,-21.7270,-21.3467,152.6747,54.9836,427.9515,189.9544,-101.5553,-62.2757,124.3495,-52.1058,76.9209,197.8059,-235.8682,-120.8585,45.4861,24.3167
-640.6250,-142.7024,-127.9797,-203.0242,-115.6373,-79.8404,-42.4683,58.6131,144.2735,296.2409,390.7150,-122.7291,-119.5604,30.1354,1.3997,18.3053,140.6427,-151.3710,68.0846,270.7079,2.8239
-632.8125,-67.2314,-44.5263,-71.9653,-36.7209,-57.8214,52.5459,116.6924,239.6940,-12.2579,339.6261,-101.7585,-24.7023,-95.9393,-12.9559,-71.1701,52.6506,-134.7489,16.1607,114.0722,-49.5180
-625.0000,-69.9907,-8.1128,-145.2728,29.3328,-205.1628,125.1873,-68.5802,202.7678,280.8849,229.2190,-102.1480,47.7825,-60.3830,-13.6538,-145.0100,16.3290,-62.4994,88.8836,151.1077,22.7787
-617.1875,-31.6025,14.3393,-66.8396,62.4093,-15.7615,168.5633,-25.0938,282.5906,-263.2042,235.5855,-96.7983,16.0011,-91.0812,-6.6062,-141.1191,-87.2144,-61.5339,195.3268,152.8840,-82.1867
-609.3750,5.1966,34.0151,46.0177,72.0167,-13.9380,207.3609,-23.1648,174.8571,-40.7914,18.4363,-58.0106,55.6526,-89.3390,-78.1102,-65.7948,-84.2771,-57.1383,60.2118,-87.8662,-6.7076
-601.5625,1.0794,27.9012,-8.4298,69.8876,-67.4171,152.8361,-186.5260,121.8313,-129.7063,39.0353,-38.5368,37.9811,-141.9276,-20.9138,27.2031,-26.6069,-1.0651,151.7751,-30.9031,49.4486
-593.7500,34.9445,16.5847,168.6017,24.8638,35.5774,145.7882,-120.3932,78.3009,-504.0562,33.1703,-8.5734,30.7979,-113.0321,9.7748,19.6739,114.5995,-80.5210,37.8062,-249.4409,5.1046
-585.9375,-2.2242,-22.4957,81.7470,-15.0136,-124.3002,95.8636,-206.1162,-44.0685,-39.2496,20.5147,14.5180,16.7378,19.9978,-2.3747,42.2642,249.9921,-52.8561,28.9881,-292.7932,101.8951
-578.1250,1.2227,-41.5947,99.6229,-27.2666,-33.4372,40.6752,-151.0782,-26.6757,-387.6888,187.6539,-3.6573,-75.5940,38.7631,53.2271,-13.4211,233.1682,-5.4770,77.8994,-208.4001,9.4097
-570.3125,-6.5656,-33.2688,125.0654,-25.3720,-45.0091,66.0704,-126.4551,-74.6774,-105.4685,67.4318,-15.2477,-13.3381,27.1074,5.4317,48.4656,222.9754,-17.5201,-74.5969,-395.3912,-2.4882
-562.5000,-59.8391,-37.5678,17.9015,-10.4534,-152.1928,-5.1551,-160.4351,-108.2663,193.1219,70.6596,-123.4535,-10.7028,-7.1849,82.0387,49.7164,153.1981,52.8174,32.2947,-181.9674,-37.0107
-554.6875,-48.6740,-16.9140,108.4316,22.0816,-24.6952,49.2996,41.2786,20.8355,-83.5507,53.6112,-215.9661,-30.3753,-100.7933,64.3300,-80.3561,25.1373,26.8336,6.8647,-137.8566,-203.8412
-546.8750,-54.5084,2.6601,38.1503,48.4642,-95.0174,51.9293,44.1773,-49.8695,398.9774,-89.2031,-213.2871,9.1312,-134.2232,-6.1765,-78.2457,-80.7043,66.0343,11.6337,-62.5309,-164.4888
-539.0625,-32.5769,21.1800,32.7783,76.1891,9.5612,46.4472,75.9782,56.3204,-10.6189,-19.1045,-217.7108,-32.4775,-139.7652,26.2132,-120.2662,-231.6286,91.1100,142.2773,174.6672,-280.2595
-531.2500,28.9489,31.4676,182.9930,74.7406,123.7109,86.5427,189.3629,-12.9127,-42.5613,-198.3955,-141.5404,-66.4964,10.2932,-116.8034,-117.7128,-337.9309,93.7699,-30.4950,2.4617,-277.4330
-523.4375,36.5540,33.8770,149.9514,68.5270,53.6121,16.3616,83.5006,-119.3960,182.2221,-266.9030,-100.6304,-63.7916,51.0857,-112.0654,-4.4320,-405.4691,136.1593,48.4691,82.0237,-163.8789
-515.6250,53.5750,28.5684,214.7571,43.0714,191.3529,7.0076,147.4950,-55.0449,-304.0990,-274.5503,-73.8769,-73.2514,78.7121,-83.4920,59.6876,-413.1354,56.3790,4.2484,3.4278,-173.4820
-507.8125,47.2556,19.2409,203.4406,10.8789,105.9718,-4.4768,63.3840,-174.8015,16.5208,-394.2600,-11.2415,-10.8336,177.2149,-94.0138,120.6880,-238.8800,17.4792,-105.0699,-139.2427,-1.1925
-500.0000,43.3734,-9.6014,182.6164,-29.7374,86.0874,-62.4769,5.7790,-158.0511,-149.3738,-229.4333,4.8789,-68.9307,83.1935,32.9684,63.1608,-38.0998,-1.9524,-18.9021,87.5773,14.5737
-492.1875,53.9124,-40.2860,257.1643,-87.4600,122.5639,-62.0937,116.5592,-119.9063,-184.7990,-116.1786,42.3834,-104.6362,46.5582,-2.6541,-10.9874,185.1119,-73.0083,-193.3483,-52.2048,14.7347
-484.3750,-19.0777,-87.0806,55.5947,-128.3659,-40.0723,-151.8321,26.2395,-172.8529,276.6624,51.0258,24.7672,-121.4628,28.8005,54.6290,-28.2691,280.2497,-49.1824,-134.9027,76.9351,107.7741
-476.5625,-55.3142,-112.5516,24.6177,-137.2543,0.8772,-109.9860,69.5257,-21.2040,-85.2526,242.8548,-43.2597,-152.7042,-112.3736,134.5048,-60.9779,288.0160,-120.7794,-64.8885,78.6625,2.4018
-468.7500,-99.6059,-125.9854,-63.2858,-133.3193,-123.0990,-15.0627,17.8989,1.5367,306.9677,156.8127,-57.1969,-93.8637,-126.4638,84.4813,-75.6134,237.8990,-202.2835,-40.7715,-71.4887,61.1222
-460.9375,-86.7744,-97.2437,-179.2435,-87.8451,-166.1204,-21.2053,-24.7686,107.2340,191.1024,188.7371,-27.1915,-101.0884,-96.6284,116.4038,-155.3265,49.7330,-139.8538,127.2818,202.3112,17.7690
-453.1250,38.4791,-3.4258,-8.9654,-3.5839,40.0874,38.8841,146.8096,131.1627,-78.4615,-6.0896,70.0583,-78.0686,-147.5504,-6.4375,-242.8074,-181.1766,-52.1874,5.5669,151.3574,-69.3369
-445.3125,74.3249,45.9881,-23.0555,54.0040,-10.0638,-11.4020,60.0333,7.7421,240.6020,-201.2324,92.9485,-55.4160,-123.8414,-92.6267,-183.6640,-266.4219,112.1191,65.5018,212.0679,-9.8108
-437.5000,136.9329,78.8803,82.5052,87.9962,132.4294,-17.0524,91.9061,39.9641,-314.6918,-240.7034,125.4826,-97.1230,-92.4977,-60.1682,-227.8965,-416.9958,172.0542,91.0602,238.4088,-125.6530
-429.6875,155.7337,80.4553,176.6854,65.7463,152.5436,3.9250,75.4163,-86.1713,-183.2892,-402.4877,182.6488,-40.1862,1.4765,-149.0586,-134.5088,-394.8870,123.6261,-62.7387,-91.5862,-68.8522
-421.8750,135.9523,79.3098,85.2032,84.5410,98.0049,-50.7708,-51.7181,-174.9463,-198.5619,-417.8753,165.1499,-57.9067,20.7761,-91.5954,-41.7943,-410.4051,214.5218,63.7921,36.7809,-12.7250
-414.0625,162.7216,89.2188,199.7972,77.6477,249.5442,-46.3894,63.2451,-170.6262,-524.6746,-485.1322,169.7398,-53.5381,61.1709,-124.0396,34.9974,-440.7847,179.4894,-40.6034,-102.7576,-82.5018
-406.2500,101.6196,53.6473,76.5143,49.7802,89.2119,-60.8841,13.3491,-330.1529,14.3718,-533.1852,155.4652,-31.0495,157.6995,-172.3219,167.9129,-414.9799,170.5866,-49.8453,-109.1258,13.8600
-398.4375,51.9029,1.2510,41.3729,-0.8777,128.0233,-95.2402,52.6119,-216.5233,-238.4389,-307.0623,84.3294,-102.4293,123.3574,-96.4583,95.9593,-300.0034,98.8095,20.0362,-4.3543,-57.6403
-390.6250,19.1107,-44.8200,56.3064,-65.8890,104.9075,-81.5241,30.9593,-238.8084,-40.0930,-217.8196,98.2889,-88.7250,137.0975,-116.5003,109.0970,-99.9069,8.1189,-174.9870,-233.4677,-7.0387
-382.8125,-62.0766,-122.6301,-113.0181,-148.1521,-27.4639,-177.0762,-100.9414,-223.3367,195.9643,19.2064,75.9873,-147.2886,114.5676,-27.7923,122.9546,61.9534,-45.8377,-87.2678,-38.8229,80.2935
-375.0000,-79.3955,-150.2263,-85.8630,-175.3683,36.6465,-149.1395,-0.3489,-84.3709,-104.4524,159.7604,30.1743,-193.3590,31.5209,-0.5850,39.2853,166.3457,-126.3178,-133.0710,-49.6925,34.1208
-367.1875,-128.9684,-149.9953,-213.8895,-169.3844,-127.4185,-130.3753,-53.9246,-175.5531,392.9874,107.2115,13.1960,-101.6014,50.3038,-16.5169,20.4358,297.6233,-138.9559,-144.0205,-94.6856,162.7897
-359.3750,-133.7437,-151.5084,-276.9191,-144.1109,-117.4880,-120.6281,-42.4934,-90.7319,110.3999,193.6872,-13.7958,-164.8680,-12.9320,31.5519,29.5617,236.9257,-97.6121,3.0126,124.3114,99.4399
-351.5625,-106.0419,-128.1447,-170.6237,-124.7313,-48.2337,-51.5502,63.2799,-56.5755,71.2177,44.5229,-18.4463,-131.7996,-17.8274,-44.0353,62.0260,161.5958,-138.9266,-71.6158,-55.3385,58.4384
-343.7500,-167.1582,-129.7693,-343.2437,-98.5194,-182.8845,-39.3901,-33.8412,-44.3128,342.1061,59.4892,-79.0151,-83.6521,-41.6426,5.4848,72.5688,138.3733,-126.1559,80.8598,63.1336,106.5134
-335.9375,-153.6307,-131.7417,-258.4259,-102.0756,-63.0945,7.2101,86.4927,113.3980,-87.5270,219.9202,-106.1447,-111.0640,-106.0196,53.4501,9.5362,115.6079,-191.9497,85.7636,34.0368,-29.9772
-328.1250,-164.2324,-127.6579,-295.0328,-121.4929,-135.7227,-30.6086,50.4188,77.7056,318.4700,221.9792,-69.6863,-37.8903,4.1976,17.0132,8.0772,154.4441,-192.1514,-18.7294,-69.4356,6.1192
-320.3125,-158.7751,-139.1633,-315.6423,-122.5710,-120.3466,-50.4394,-5.6411,95.0203,190.4453,352.0650,-52.2372,-94.7358,21.3968,108.5691,-12.4011,136.2844,-144.3730,65.7575,86.0924,-50.8060
-312.5000,-129.4232,-120.7331,-191.4292,-133.0586,-32.1449,-36.4413,45.1422,110.1754,95.3317,295.0251,-37.9485,-43.7441,-1.5696,50.9703,-36.0386,152.9963,-202.7609,-97.9185,-111.5298,-73.8810
-304.6875,-161.6036,-123.0237,-324.0860,-131.8035,-201.8025,-59.3070,-122.9282,51.4893,405.3391,349.1663,-24.5248,6.3845,-25.4136,65.5239,-60.5473,206.8672,-184.0088,-43.4365,-54.9850,50.1782
-296.8750,-129.7421,-78.5434,-244.1920,-94.5795,-121.9138,-53.6309,-152.4544,169.3403,-137.1077,431.8471,-54.5489,50.0593,-92.7217,110.6159,-91.5291,178.2982,-180.7105,-4.4240,-51.9159,-17.2190
-289.0625,-121.8897,-56.5441,-202.7736,-86.8975,-190.4937,-48.4276,-184.4515,101.7253,163.0143,366.0909,-49.0245,128.2694,-50.4817,42.2584,-86.9757,186.2970,-173.8653,-136.8615,-217.2812,60.9316
-281.2500,-155.4251,-89.2980,-299.1649,-112.8835,-249.8683,-108.0427,-170.2380,116.3177,214.2933,492.5591,-71.3127,67.6612,-73.0513,94.1055,-38.2480,202.5211,-160.8308,-52.1143,-26.4427,74.2613
-273.4375,-151.3046,-96.2827,-179.5364,-132.0614,-130.2160,-135.6194,23.0230,126.9509,41.6744,468.0999,-135.5645,40.0994,-101.5889,105.0020,7.5110,213.8302,-190.7640,-152.3322,-125.5581,9.6421
-265.6250,-166.5956,-99.0966,-253.0919,-124.0340,-277.7291,-173.3655,-48.8688,53.4477,447.8984,360.5354,-135.9840,39.3721,-28.3062,105.7629,43.0974,217.0153,-117.8581,-78.7008,-85.7952,82.8622
-257.8125,-123.8416,-51.2778,-206.3004,-50.9928,-121.8996,-127.7770,34.5980,138.2960,-92.5275,336.3567,-163.0634,12.9833,-92.6915,153.8683,-94.9809,155.5756,-44.6239,30.2537,59.3082,-54.5824
-250.0000,-103.1858,-24.7525,-153.6322,-30.7242,-67.2017,-73.3124,88.9489,120.0407,37.9988,100.1191,-146.2576,66.4818,-38.1879,62.8711,-78.1785,139.0590,-64.5006,-58.8929,-28.6763,-74.1309
-242.1875,-110.4474,-43.5325,-207.9138,-43.8710,-85.4536,-165.8133,71.3576,102.8476,94.5384,157.9683,-164.4159,-24.9891,-56.6525,45.9217,-60.3447,123.5961,21.6545,-6.9946,235.3968,-92.6522
-234.3750,-39.8912,-34.5964,-24.4061,-69.8482,62.0836,-165.5288,182.5703,104.4478,-234.0739,161.6269,-89.7800,-62.6673,-20.3230,-63.2373,-134.7209,126.9331,-16.4066,-150.3111,128.2639,-166.3762
-226.5625,-62.1758,-55.0742,-55.5668,-80.7155,-80.0397,-158.9122,42.1296,0.4029,214.6647,59.6600,-84.7997,-57.0101,59.3508,-92.0442,-130.7721,172.6198,-5.1227,-137.2700,36.5041,-13.7604
-218.7500,-56.3039,-55.7589,-83.7234,-80.8679,-34.1590,-188.2989,-22.3080,47.3617,-142.6317,255.6963,-75.8259,-85.3529,-116.9895,-9.8501,-159.8450,183.3124,-0.8484,7.7591,148.7291,-79.1594
-210.9375,-37.8647,-20.9528,-49.8492,-49.8358,-74.2546,-81.6424,12.2809,8.3590,-33.8513,218.7858,-41.8122,21.3546,-193.2936,-48.6087,-163.8772,220.0683,-39.5173,-101.1615,-64.9991,-82.5036
-203.1250,-28.8423,-1.1181,-98.3219,-32.4250,-157.6966,-129.3475,-108.4857,-38.9910,177.5190,210.5381,-16.1558,47.7035,-166.9625,-21.7098,-175.2774,175.4780,22.4648,-2.4300,69.9250,-20.2134
-195.3125,11.6320,10.5464,40.4512,-10.1596,16.1003,-64.8094,-6.0069,27.8931,-232.8386,242.5342,-24.2521,1.3024,-140.3912,8.4317,-258.4367,59.1609,9.6921,-14.4671,24.0763,-102.6763
-187.5000,-2.8887,7.2052,-27.2471,-4.1497,-87.5695,-22.7415,-108.9887,-38.6790,178.3728,104.1098,18.1894,44.4339,-61.2855,-20.8710,-179.0570,67.4178,20.4665,-73.9451,-68.2026,13.4057
-179.6875,15.5029,27.9546,-10.3456,20.8617,-34.6347,-80.0838,-165.3523,-21.6441,-95.8344,161.3079,-1.7796,24.1501,-117.5971,33.4222,-128.0822,50.2881,104.8248,12.1578,17.1131,-6.9271
-171.8750,61.6315,50.5603,128.9269,4.5813,31.6759,-87.0418,-135.3192,-100.2197,-175.5738,46.9182,64.6431,90.2571,-88.5084,-8.8869,-62.7179,82.5768,63.5740,-169.3443,-268.1630,22.1430
-164.0625,33.9594,29.3327,7.9310,-11.0698,-126.2617,-135.2628,-293.5294,-185.0340,108.4017,2.3113,88.8025,77.1038,-26.6746,-19.4344,-1.6266,111.6277,92.0658,-69.0922,-131.6725,156.9454
-156.2500,41.1544,8.8169,48.5752,-21.9772,24.4416,-130.8380,-141.0864,-68.1982,-361.9614,47.3714,57.6070,-28.4012,-59.2025,23.6686,-71.8994,82.3523,57.1945,0.7855,10.4486,51.3926
-148.4375,6.7403,-7.2196,-18.0059,-27.9007,-41.0719,-86.6328,-58.8599,-59.5589,50.4937,-15.7413,28.2025,-21.1199,-87.9422,-40.4249,-137.3785,165.8955,29.1250,-60.5312,19.3979,58.6382
-140.6250,-56.5093,-58.9666,-136.3876,-57.5463,-49.3735,-96.2340,-30.4214,80.2925,8.0985,163.3659,-53.0056,-102.6503,-206.4920,99.6825,-184.6697,197.6385,-19.7492,101.3472,324.5495,-59.9356
-132.8125,-93.3566,-74.3119,-104.2313,-64.7309,18.8560,8.7166,112.5598,185.6908,-68.7161,235.0151,-131.6631,-71.6267,-250.4977,95.3295,-190.4187,195.9194,-136.0693,-14.2171,210.2434,-175.9588
-125.0000,-149.3280,-109.7227,-256.9805,-84.6135,-133.8115,2.7635,-3.3641,182.1995,369.5167,269.7657,-137.2255,-76.5047,-182.4221,91.0795,-197.0882,193.2747,-140.2800,88.3348,279.0565,-144.8947
-117.1875,-107.1205,-111.0804,-164.1198,-78.6030,-2.8758,22.4150,91.3108,276.2995,-87.6720,293.0982,-117.1887,-167.7724,-162.7494,112.4136,-251.1698,69.2119,-126.8881,102.4703,293.4448,-272.2350
-109.3750,-47.6097,-65.1005,-99.7265,-38.3743,-12.4026,86.6016,83.5226,121.9287,126.7173,29.9806,-15.6032,-103.4915,-134.5143,-41.7072,-187.7018,-84.3043,-98.9429,26.1583,78.3844,-208.0184
-101.5625,-37.4973,-29.8272,-133.5837,26.1030,-47.1671,88.5289,-24.5081,88.3041,-17.1884,-38.3825,-50.2712,-101.4684,-169.5309,-38.0779,-186.4825,-152.0617,8.7453,204.5920,187.0572,-206.0590
-93.7500,39.3996,19.8741,66.1954,52.7997,79.7057,142.0992,66.0974,69.3085,-439.3982,-166.1016,3.7133,-47.7932,-116.9010,-57.7966,-171.6058,-170.1475,-13.9203,112.6600,-44.6413,-263.4353
-85.9375,22.8153,-4.1859,30.6583,26.3256,-28.7290,106.3522,-78.6022,-75.9879,5.0835,-233.0957,41.3895,-46.4339,31.4191,-54.8010,-97.0321,-54.5043,29.1144,49.4310,-70.6167,-115.1157
-78.1250,47.5648,-2.9874,107.8681,2.3643,84.5881,-1.6485,-74.5400,-34.5336,-356.6846,-116.3260,44.8092,-80.3349,34.4811,59.9407,-95.7133,24.9104,64.8902,15.9343,-31.8553,-149.0524
-70.3125,42.0487,-7.0075,133.3479,-25.5462,73.1838,-12.3607,-85.1821,-116.7793,-145.1034,-160.2402,70.5184,-17.9386,-13.1574,50.9818,-33.1033,201.6377,22.9648,-130.2500,-246.7773,-49.6839
-62.5000,-37.1408,-54.6113,-38.7783,-53.8655,-60.8139,-73.6718,-217.4126,-140.6052,15.8302,39.2649,9.6178,-43.1477,-38.4109,175.4304,14.8877,326.7618,38.4384,-9.0223,-89.2839,36.0673
-54.6875,-34.7931,-55.8965,46.2391,-52.1140,60.3326,-26.8286,-60.4941,-19.2855,-228.0576,125.9146,-53.1314,-69.2054,-64.5220,151.0199,-11.9714,267.0349,-24.9387,-36.6511,-79.6512,-27.0298
-46.8750,-42.4422,-45.8952,-43.6068,-41.5819,-29.3755,-42.8416,-1.4299,-32.8083,308.1909,40.7238,-31.7362,-48.1222,66.5102,62.7666,-29.6792,144.4535,-2.1585,-12.1174,50.1580,67.0179
-39.0625,-16.9624,-22.6673,-46.7480,-12.0921,77.6294,-46.1507,143.3476,75.3783,13.0965,151.2247,-34.6443,-88.3379,137.2499,61.2143,-69.6948,-1.4351,25.3163,121.1123,325.6505,-46.2448
-31.2500,19.6559,10.0792,70.3455,25.1750,158.8698,70.7897,224.3568,119.8082,-51.7259,50.9658,-27.2984,-44.2954,180.2388,-4.0876,-27.4683,-102.0704,-6.9489,54.5992,190.3949,-113.2491
-23.4375,4.0623,34.7612,-24.7099,70.9668,62.9658,85.5805,57.2136,136.1007,76.2272,69.5582,-49.1019,7.5944,85.0620,12.4647,23.6012,-156.8645,44.6528,212.9541,244.0050,-61.4174
-15.6250,50.4501,66.7005,89.1398,101.9763,177.9637,126.2797,97.9680,178.2905,-432.9163,40.0399,-45.0045,10.3895,-21.2179,17.9059,26.5684,-186.7678,47.1573,145.2014,141.4980,-94.6878
-7.8125,67.6515,74.6626,75.7773,84.5745,53.7579,75.7778,12.5180,-16.7207,-39.2518,-152.6730,51.8880,70.9842,75.2971,-29.8585,122.3356,-123.8869,76.4706,34.2620,-37.1913,75.8419
-4000.0000,41.2852,49.5292,36.4764,58.5923,21.8456,30.4185,-52.5725,-38.4544,-128.5655,-113.1714,26.9476,42.4017,50.3652,-10.4028,73.9184,-77.4175,65.5740,74.9320,8.2931,49.6841
-3992.1875,24.0422,17.1339,71.4538,-2.0291,56.6366,65.1690,17.0814,-41.8748,-133.2950,-117.7106,61.7456,77.2802,85.7661,-13.2032,35.6453,101.6009,-77.0713,-101.6682,-204.1879,47.8572
-3984.3750,-68.1452,-41.6757,-124.6224,-47.0032,-102.6293,16.8716,-69.3096,-129.3555,328.9849,-22.3030,13.4963,65.1121,73.1215,47.9482,60.3481,308.5785,-83.7651,-74.3215,-71.7226,145.9983
-3976.5625,-131.2056,-152.5944,-135.4024,-169.7007,-4.5903,-32.1274,63.6092,5.4697,58.5440,330.4260,-35.4579,-92.7642,-48.2187,108.4133,87.3614,442.8622,-238.1584,-123.6599,-16.9322,61.4385
-3968.7500,-193.7412,-219.5596,-203.3191,-261.0026,-108.6873,-63.2728,69.3974,9.1449,538.9459,481.0052,-29.5578,-87.7934,-4.6874,76.7243,93.2248,520.0004,-369.6997,-220.1618,-148.3017,140.7289
-3960.9375,-179.2147,-202.3004,-256.9865,-241.8662,-125.5340,-117.1746,14.4337,65.0640,408.6240,535.8408,-9.4059,-104.5782,52.1091,132.2947,77.3432,390.3913,-315.9763,-60.4035,79.6039,124.2787
-3953.1250,-83.4189,-114.3864,-105.2377,-149.8665,26.0441,-39.6740,164.8891,104.3982,116.6486,317.0850,31.1491,-62.9713,94.3102,63.2759,9.8638,136.1828,-244.8452,-95.2457,8.9207,19.2159
-3945.3125,-56.7080,-44.1171,-158.5284,-37.3025,-100.4239,16.7850,109.2966,12.6808,428.6614,77.2671,13.6633,-7.4132,41.4717,45.2085,-6.6657,-66.0725,-84.7575,30.8564,99.1828,39.1077
-3937.5000,16.4724,42.6220,-20.9136,60.6123,74.0186,45.1438,173.6054,112.8685,-133.4382,-7.6480,-30.9183,21.0413,-76.4653,73.0534,-87.2966,-296.4330,6.2429,86.8661,154.3649,-116.1050
-3929.6875,78.4328,118.6295,52.4250,153.6414,73.1780,118.2085,171.6338,0.7566,-27.8513,-266.8766,4.2067,94.1982,-40.6949,-38.4105,-14.2194,-373.0959,146.9434,15.5523,-22.7715,-116.6198
-3921.8750,93.8172,129.4291,52.7621,169.7893,73.3290,44.2655,96.6606,-74.3685,-67.2051,-306.1129,4.3364,57.3556,71.0924,-38.8733,23.8717,-448.7590,251.6539,155.2392,116.1023,-153.1195
-3914.0625,179.5358,181.7845,252.6621,205.9405,273.0516,96.8674,259.2662,-95.9382,-383.0277,-439.7838,58.0157,74.0544,124.4338,-133.7825,-32.4786,-544.8729,264.9149,-6.5290,-47.4619,-210.0748
-3906.2500,201.3359,200.1142,221.6685,220.3258,131.8775,65.5692,79.9828,-238.4205,60.2991,-547.3492,136.7996,115.8495,167.8878,-128.5945,-25.7156,-540.8667,348.2743,5.7843,-105.9385,-56.9190
-3898.4375,232.1301,212.2343,285.2677,240.7100,158.3013,54.8653,-5.6987,-176.2974,-356.7641,-413.2866,126.1825,68.2390,83.9489,-66.7951,-72.3487,-553.2408,407.2377,64.7069,-47.7954,-104.1577
-3890.6250,246.7495,215.9315,382.6368,215.9585,144.4919,77.9170,-20.6167,-228.4188,-225.1101,-465.4650,149.3258,128.3766,33.7704,-153.2426,-11.2328,-531.8572,326.9433,-86.6343,-268.9169,-43.6452
-3882.8125,175.0930,151.7775,209.0997,161.4881,7.7732,15.0637,-120.4394,-218.4449,-33.3094,-420.5402,123.5769,65.6170,8.7074,-106.5816,73.9871,-522.3557,270.7500,104.1234,-78.9325,40.9853
-3875.0000,152.8907,121.9149,220.5732,130.6426,129.0701,99.2069,-1.2494,-26.4585,-355.5493,-301.5948,96.8331,39.8502,-53.3507,-132.9027,12.2081,-513.8425,102.5620,111.8766,-72.9304,-21.3883
-3867.1875,34.7697,56.9991,23.2550,94.5447,-30.4238,160.5519,-13.8413,-39.2770,179.4339,-279.4500,10.2962,63.2852,7.8051,-110.0238,-0.3608,-418.1116,-10.4302,139.8047,-44.7422,76.4471
-3859.3750,6.0611,53.4404,-67.9694,104.3038,-48.8191,141.9919,39.6670,88.0086,-23.4616,-189.1845,-44.1368,45.8116,-45.9317,17.9681,-90.8268,-327.2690,4.6782,224.8380,143.5740,-14.6073
-3851.5625,17.6310,39.4931,2.5268,76.7914,21.5032,175.1344,108.8945,83.0098,42.3136,-232.2059,-10.8623,42.0324,-48.9737,13.6609,-130.5903,-221.7225,-33.5176,-24.4354,-0.4157,-17.9638
-3843.7500,9.9940,-7.0421,-55.2332,13.1986,-72.4338,43.0295,48.8726,-12.2418,386.8998,-182.4752,41.1701,-52.0019,3.7409,28.1053,-112.6013,-134.4173,20.0295,-40.9610,193.3434,71.4475
-3835.9375,27.7522,-54.2415,79.9079,-81.5340,98.5390,-42.1805,183.7628,84.4193,5.3699,-48.8223,67.1023,-137.1495,-6.6347,90.4586,-50.7183,-38.2032,-99.5281,-90.5825,179.0223,-13.2469
-3828.1250,-52.6747,-96.2337,-33.4951,-132.4903,-51.0312,-44.9408,142.1203,42.5330,477.3219,-18.7150,25.4894,-67.8516,-10.5453,85.2606,56.6133,139.4713,-202.6468,-123.7787,73.1391,93.5076
-3820.3125,-109.8689,-140.7252,-140.9158,-156.7733,-50.6104,-80.7093,106.4835,153.6492,292.3260,201.4084,-46.1269,-139.5625,-81.4572,197.0647,59.9584,250.1640,-203.7732,16.0263,248.2809,22.2687
-3812.5000,-75.4380,-137.0276,-10.9320,-164.6655,43.2276,-61.0755,162.2748,172.1790,126.7085,292.9557,-25.3514,-156.8872,-22.9791,143.2741,-29.2917,305.2671,-188.5090,-144.7765,51.8279,-67.5803
-3804.6875,-97.9235,-151.4060,-66.8547,-172.8648,-85.8435,-116.3462,32.1764,115.8044,473.2560,381.6088,-44.4716,-175.1209,-4.3913,87.5780,-10.4402,395.4856,-98.1456,-158.4897,71.4705,-12.3230
-3796.8750,-62.8892,-154.6258,37.0275,-180.6008,17.8954,-123.8254,134.8920,181.2370,59.5915,520.0872,-50.7878,-255.5679,-83.9940,79.6879,-52.7993,350.5081,-106.9763,-134.4030,131.9335,-92.2792
-3789.0625,-80.8746,-162.6219,21.3822,-206.2566,-34.8997,-138.8575,118.0780,90.1215,445.3791,391.0247,-30.6480,-198.5762,10.8647,-10.7598,42.2903,332.9907,-152.3645,-214.8944,-21.1715,2.2028
-3781.2500,-131.7889,-179.1516,-117.2727,-194.7288,-99.7033,-166.8934,89.2599,98.0069,415.2069,508.9741,-95.5071,-226.5893,20.7139,34.7994,88.3773,303.4830,-110.7530,-31.3810,162.7343,-25.3127
-3773.4375,-115.9370,-152.5080,-37.3638,-165.7516,-19.9419,-88.3711,241.0036,139.4594,198.5361,475.4862,-125.8189,-185.0572,-9.9006,2.9197,58.9958,307.5313,-143.5926,-100.3210,22.1894,-129.2952
-3765.6250,-160.8683,-151.6784,-177.1066,-134.7435,-159.8350,-45.4904,173.0974,71.2561,644.2522,406.3377,-155.7756,-141.1678,-2.1597,9.3895,28.9609,385.9359,-99.0863,-54.9245,66.9719,-48.9254
-3757.8125,-128.8193,-123.5274,-106.4532,-94.2710,-16.3309,-48.2149,242.5933,140.4605,234.3687,401.6043,-196.3370,-181.8847,-78.0193,42.2686,27.3204,344.7493,-34.1828,-26.1217,166.1704,-125.1631
-3750.0000,-108.3800,-113.1342,-35.3899,-90.7787,-18.4198,-14.5385,239.5130,63.0715,412.8997,249.2884,-161.5011,-147.2135,29.5222,-34.4602,62.0680,339.9736,-32.8915,-165.9479,-44.2468,-54.0105
-3742.1875,-108.8359,-108.3217,-114.1372,-88.5019,-60.3261,-93.6775,122.6362,19.8805,368.7110,316.1935,-129.4651,-151.3591,99.2636,34.0058,58.0145,333.4199,34.5912,-63.5886,127.5538,-21.6489
-3734.3750,-92.7912,-104.7055,-5.7301,-121.5681,84.9306,-95.6787,193.9321,126.8569,-40.3401,458.2811,-132.2832,-118.3800,24.1505,67.6280,20.1010,404.0306,-75.7862,-209.0987,87.5249,-97.1484
-3726.5625,-150.2145,-119.0536,-164.6747,-132.2707,-39.1675,-108.0405,68.8910,112.4833,349.3146,554.0383,-144.4500,-57.7591,11.6801,90.9002,7.8329,536.3231,-82.5257,-249.9877,150.1352,37.0043
-3718.7500,-126.1677,-118.2399,-148.2330,-139.6719,15.1256,-165.0169,85.2513,238.5214,-40.6053,679.2311,-128.2234,-114.7578,-7.3979,180.5843,-85.0441,551.0444,-68.8625,-131.4800,269.1754,-19.4487
-3710.9375,-90.8502,-96.3606,-63.6796,-144.3709,63.5351,-117.8943,58.7345,174.6700,4.5560,540.5504,-43.8974,-30.6708,41.6220,117.3707,-72.8322,560.8852,-127.1104,-259.8926,-0.7013,-7.8171
-3703.1250,-74.5072,-77.9050,-135.4359,-132.8492,-47.3722,-154.0781,-88.0883,100.5157,150.4706,502.5833,30.1258,6.1082,42.3456,190.8537,-71.9219,523.4482,-89.6626,-116.6155,141.1153,29.5202
-3695.3125,-31.6191,-45.6240,3.9094,-119.6689,93.8268,-125.1648,50.1941,166.4703,-188.5506,493.7415,23.2502,35.9748,-36.8394,220.4448,-113.9253,478.1178,-136.1165,-199.2383,95.0389,-87.0563
-3687.5000,-78.7197,-51.5361,-87.3853,-132.3880,-34.6213,-105.9035,68.8403,110.7729,378.8012,363.2491,5.7301,128.1918,-17.6785,165.3792,-94.5882,459.1448,-218.2324,-211.5397,11.2871,5.7155
-3679.6875,-106.4182,-71.9857,-138.4382,-137.0570,-11.8310,-121.4008,89.7321,168.3251,141.4312,458.0184,-45.5370,76.6486,-31.2751,224.5656,-71.0058,369.4266,-234.1014,-87.5924,170.7983,-45.2593
-3671.8750,-83.7065,-43.7677,-65.4329,-101.0940,60.0261,-48.8477,198.6896,128.9357,65.0825,270.8436,-46.7500,112.1505,41.1796,111.8055,2.6070,292.7607,-234.9344,-158.6107,-41.6570,-46.1953
-3664.0625,-76.1379,-7.3703,-130.2372,-50.5406,-42.9299,-78.1003,57.8491,24.7372,253.9999,201.8601,-39.7612,155.8530,49.8369,82.2424,84.4093,225.3025,-117.5756,-42.4387,3.0769,35.0747
-3656.2500,-8.8311,36.2724,2.9560,-6.5781,91.1159,-55.3591,80.0214,47.5482,-312.0904,186.8870,-15.7789,142.5400,0.4764,67.6874,34.2078,136.8475,-64.2229,-58.2668,-84.1682,-51.6735
-3648.4375,-0.8782,61.6489,-5.7447,28.4962,9.2684,-27.5153,-38.6844,-108.5336,-65.0565,-6.9905,12.3017,207.3207,103.1987,22.2262,64.0997,164.5007,2.2135,-96.0232,-227.3246,50.6650
-3640.6250,2.9271,60.4857,-14.0648,49.1156,37.8059,-73.2822,-84.9858,-82.2060,-259.5607,55.5648,-33.2292,124.4813,94.3169,87.1646,-17.6213,153.5757,98.0395,33.6088,7.9397,5.3996
-3632.8125,18.5089,46.9753,77.5167,25.1178,129.2494,-18.1621,42.6344,-28.9635,-354.1750,-38.9258,-14.8703,105.5195,113.3324,67.0039,-72.4577,133.5782,7.7447,-92.8882,-118.9000,-49.9838
-3625.0000,-19.5382,25.0344,-45.8664,28.7293,-68.2751,4.9946,-81.6934,-43.6713,108.3286,-53.3388,-28.4680,92.6007,27.3985,53.8942,-11.2601,155.6743,33.4833,38.6323,-58.7046,10.6878
-3617.1875,-16.6578,23.5991,-18.8614,39.6164,32.5928,31.5366,-18.6207,93.0350,-270.7667,81.6866,-74.6775,45.0699,-129.1555,80.1959,-20.6840,108.2016,18.6073,94.5485,-3.0922,-109.2484
-3609.3750,-27.9917,18.7696,-14.6586,31.2319,-37.3412,71.2702,-16.3335,57.9501,97.3529,9.9375,-71.6929,84.7296,-125.5202,9.6920,-15.9275,109.9591,-11.0854,-41.3672,-139.2979,-68.9941
-3601.5625,-44.6981,9.5702,-105.9232,44.4929,-91.7459,17.5381,-108.5009,40.4132,152.0812,64.7687,-89.1597,30.9265,-105.3454,64.7368,-106.6364,55.2857,78.7636,83.2582,21.0548,-49.1911
-3593.7500,32.0046,44.5109,97.9659,57.6443,38.0034,72.9500,-15.5095,22.0419,-124.0809,-65.2214,-32.4798,49.2666,-122.0411,46.9363,-160.2092,-37.2318,26.7513,-3.9779,-137.4515,-66.2609
-3585.9375,42.7136,44.0294,36.0078,52.7782,-96.1101,47.5088,-188.3684,-77.1841,252.9547,-165.0609,52.3494,60.7569,-72.5934,21.2775,-146.6393,9.4091,78.8849,11.9092,-120.8361,55.8146
-3578.1250,74.2863,36.1796,81.0435,29.0624,21.7702,19.0557,-144.2285,39.5919,-255.0016,-48.8776,97.1769,-4.7650,-64.1574,65.6212,-248.0897,17.0537,47.0170,50.7946,-12.2134,-46.1194
-3570.3125,98.1367,30.4497,173.3887,-1.8826,39.9599,36.8989,-126.7667,-17.3258,-127.6653,-69.3869,152.2991,13.0011,-45.4333,-26.7441,-229.2528,34.0020,-4.5672,-107.0476,-205.3094,-27.7669
-3562.5000,47.2105,-2.3367,34.1101,-16.5877,-63.4703,7.1324,-229.9045,-47.8432,-12.8569,47.5171,122.8099,-16.8466,-146.3157,17.2872,-111.0229,77.3674,5.2382,43.4997,-56.0035,16.9856
-3554.6875,60.4564,-7.8142,121.9278,-51.4107,61.2031,21.4571,-106.9258,39.7524,-329.9684,23.5467,137.4099,-2.6073,-133.1080,-5.5765,-59.7189,16.8430,-124.8709,-50.8635,-150.5960,-42.1846
-3546.8750,24.0373,-25.7536,5.1388,-73.7082,-17.7341,-21.8179,-112.5408,-77.2533,176.3750,-94.0201,168.4080,27.0245,45.4947,-85.0532,44.9678,-26.2699,-123.6000,-85.8539,-184.8149,99.0392
-3539.0625,34.3927,-36.2657,9.2809,-89.9307,59.2635,-91.1585,-72.2042,-38.3029,-152.2959,-54.6183,171.3499,-42.4091,50.0340,-45.5820,49.5944,-97.4259,-121.3925,21.1007,-43.0663,66.2064
-3531.2500,41.9484,-17.4213,71.1781,-65.4424,47.0199,5.2479,-13.0996,-51.5914,-92.2267,-179.4586,159.0402,17.8926,75.3026,-58.3697,37.9579,-147.8318,-168.4552,-61.2216,-195.5791,54.1102
-3523.4375,2.1125,-27.7226,-53.1391,-49.3759,-113.4462,-9.5563,-100.2005,-66.0843,221.7061,-158.4952,108.5251,2.9839,61.3502,-0.3627,24.1079,-126.4223,-110.7301,102.2412,36.7118,76.8199
-3515.6250,-23.7961,-48.9688,-16.7187,-41.7598,31.8326,63.3809,81.4528,78.1940,-111.6344,-87.7409,-2.2509,-71.1908,-11.8755,-0.5971,-12.0268,-129.2413,-153.2697,95.4517,100.7726,-70.7394
-3507.8125,-59.6028,-64.0503,-82.3099,-43.5895,-32.9004,71.3188,89.1114,12.4872,337.0494,-116.9598,-31.0330,-63.3762,-3.1122,-66.8332,33.8123,-48.0298,-107.8343,-35.3685,39.8101,-25.3129
-3500.0000,-75.0817,-83.1277,-125.7205,-57.1083,-3.4531,-9.5579,81.9636,114.9880,70.9653,132.0562,-74.6289,-144.3795,-10.1636,-0.8669,-83.1711,17.4127,-47.2122,23.9997,241.0619,-105.6925
-3492.1875,-74.5746,-103.7871,-28.0750,-96.8961,58.0499,-22.3967,142.8808,101.5488,-16.0963,191.1561,-87.1822,-157.3521,-22.1855,-49.8574,-95.1325,114.9274,-94.5517,-128.6102,16.3462,-118.0416
-3484.3750,-69.3274,-78.8313,-118.4361,-60.9137,-106.4698,-76.2489,-22.2154,47.1029,259.8903,210.2692,-67.7407,-137.3298,-38.2294,-67.8523,-75.1157,96.4629,34.1039,-0.2379,74.6121,-24.3959
-3476.5625,27.5335,-18.3469,46.9948,6.0991,21.8016,-22.3117,-5.5152,63.4686,-275.3419,189.2021,-13.5130,-157.5210,-93.4970,-87.0409,-130.3261,-33.1936,117.5529,47.9336,16.6834,-116.9761
-3468.7500,70.7991,38.3254,93.9786,77.9291,-4.3787,61.1758,-69.2499,-74.6125,26.9987,-96.3116,34.2576,-74.1723,-46.2355,-186.6935,-46.0069,-134.2928,201.5376,-9.3832,-179.7201,-33.0253
-3460.9375,106.0354,66.0048,115.4428,113.9601,16.9203,46.1453,-157.4883,-91.1972,-136.0981,-185.3096,55.5221,-90.3443,-24.4866,-165.8554,-61.2034,-260.8842,258.0130,152.7891,-54.6175,-11.5813
-3453.1250,177.7245,102.9004,274.0573,120.7509,101.3725,93.2552,-110.5606,-80.6196,-347.0630,-322.1413,139.9270,-42.3827,-12.5999,-191.8723,-86.2769,-323.3250,199.6214,23.0931,-218.3739,-0.0128
-3445.3125,130.6544,60.4738,138.5567,78.2074,-70.2953,30.2596,-209.7359,-179.1448,139.9356,-276.0684,151.2226,-67.5250,-0.8252,-218.0017,-0.4733,-239.8577,215.1103,38.2800,-97.2534,121.4496
-3437.5000,112.1430,7.0322,173.9907,7.2948,37.9742,-44.7954,-28.9648,-108.7114,-193.1183,-131.0296,112.4547,-179.7329,-2.1364,-183.1863,-1.7354,-168.4403,138.5401,67.4181,36.8268,9.8480
-3429.6875,53.4867,-30.8851,132.0792,-34.9192,32.8932,-13.2012,76.4687,-113.6263,167.4756,-174.3477,71.3356,-148.3016,104.1824,-225.7371,30.6338,-100.3723,30.6043,-41.8214,-72.4661,41.8831
-3421.8750,-29.5793,-58.5394,-41.3070,-43.1659,-30.6640,-40.0675,49.4429,-31.9958,213.6693,-19.1098,-29.2406,-138.3251,41.0404,-105.7407,41.5241,-55.7486,4.2086,72.4825,146.7957,15.4643
-3414.0625,-42.2344,-77.4206,22.5034,-70.9292,69.9780,-12.7421,149.6213,104.8480,-17.9783,80.3516,-75.6258,-150.1626,-41.9298,-79.5452,68.5837,8.0906,-78.9993,-46.0300,63.2524,-67.7794
-3406.2500,-84.2824,-89.5559,-115.7954,-72.5407,-105.4983,-5.5227,46.6902,75.5914,430.3117,160.7270,-68.1138,-105.1118,-34.0227,-35.4600,3.5181,51.8630,-68.3279,-35.6748,74.5842,13.8693
-3398.4375,-77.7313,-84.5792,-100.0115,-71.8024,-16.8896,-27.2214,98.8527,200.4421,-33.2920,286.2392,-88.5090,-126.9807,18.9651,53.7298,-90.4807,-43.2395,-93.5705,44.7774,225.0274,-117.3975
-3390.6250,-36.1547,-23.7572,-31.9798,-2.9483,14.9693,78.3272,130.2777,157.5613,33.3444,59.0224,-56.6617,-22.6117,51.1792,11.1703,-22.2480,-123.0786,-63.5960,-31.5495,7.6943,-122.4342
-3382.8125,-9.9491,20.4372,-79.0772,56.6940,4.6974,66.7698,44.5845,72.5842,57.9409,-63.2768,-30.9291,3.6538,4.2736,0.5081,4.8707,-244.0004,34.2576,102.0143,106.2508,-59.5708
-3375.0000,74.2050,66.1183,136.1067,82.6345,182.7172,60.5018,75.1948,28.9255,-389.1809,-180.2399,0.0916,-2.8005,-38.3567,-79.8537,-0.7331,-324.6133,63.3887,24.8675,-40.8937,-65.4277
-3367.1875,90.9666,87.6202,109.3767,77.9596,44.8215,-2.6758,-61.0902,-180.6331,59.8494,-318.0969,83.2053,79.8385,9.1049,-143.1299,9.7375,-241.1207,117.5949,-97.2068,-162.9639,128.8078
-3359.3750,72.4792,48.0172,75.2208,35.8367,11.5061,-73.2631,-168.7867,-178.5919,-231.4874,-205.3367,85.9040,9.0669,48.1462,-29.8090,-60.2178,-129.0308,120.3906,-59.6792,-55.4194,131.6317
-3351.5625,95.1728,41.7219,162.9139,6.4784,26.0385,-60.0002,-118.6196,-239.6912,-181.9940,-339.7228,136.4435,23.1407,63.0075,-53.6467,-46.3470,-5.0960,65.0161,-185.3163,-251.0459,182.2804
-3343.7500,67.2491,5.6028,56.2880,-13.4507,-81.7536,-94.0434,-190.7651,-311.0993,150.2623,-375.4203,139.6750,-48.0885,-43.4564,-50.7921,67.2089,107.5425,107.3308,-73.2659,-68.9879,258.6244
-3335.9375,45.2632,-27.2828,139.1514,-55.3935,0.9462,-121.5956,-33.4070,-191.0000,-98.0033,-181.6055,38.3915,-112.8311,-144.4487,-41.4443,113.2429,115.6811,39.1314,-105.7201,-30.4307,121.4452
-3328.1250,-34.9385,-80.0255,34.7603,-108.8754,-102.6140,-152.4045,8.7067,-185.1566,421.4999,-29.0419,-27.1470,-106.8309,-100.7019,-35.3590,83.0035,158.5874,-23.3409,-134.4598,-60.1590,128.0028
-3320.3125,-75.3076,-100.8048,-77.3568,-98.4390,-105.9018,-154.9298,43.1044,-5.0134,235.3351,224.8414,-104.3963,-182.5433,-103.6756,35.0235,-28.9613,81.8168,2.4771,32.0970,247.4160,-21.1471
-3312.5000,-64.9302,-76.3496,-7.2243,-52.7256,1.0585,-12.2150,185.7576,101.3895,120.3887,146.0047,-144.4080,-151.0197,-106.4332,-6.3483,-68.7069,-32.6857,-41.4737,-47.1201,133.2201,-135.0713
-3304.6875,-71.4890,-62.3819,-110.1619,-34.0865,-65.0607,-5.5605,119.3426,70.7363,420.4493,5.1437,-100.4822,-107.5523,10.7365,-35.7824,-61.5299,-173.2167,-32.4894,31.5896,247.9537,-91.0508
-3296.8750,21.2618,-22.7756,23.0804,-4.9967,141.0021,17.2762,252.1169,129.3005,-146.3032,-83.4756,-4.3729,-158.8986,71.0798,-124.0132,-76.1878,-370.5415,-14.3202,49.4980,229.8955,-178.8548
-3289.0625,76.2868,42.8352,74.4661,52.2996,119.2026,68.2663,156.0435,-2.9778,51.1062,-325.9401,83.8716,-34.0948,48.5404,-183.1045,13.2788,-392.7164,39.9780,-36.4690,-32.0435,-53.5315
-3281.2500,72.0076,72.6715,11.2279,92.9478,55.7697,41.6511,-55.6486,6.1422,-159.0393,-280.0099,57.5038,12.1080,-88.6297,-100.8000,60.1302,-383.5014,86.6658,185.9680,84.4155,-6.8171
-3273.4375,89.5231,99.6725,92.5397,121.5163,99.8886,159.5848,-47.7859,49.8224,-446.6787,-272.5308,64.6778,92.8566,-80.2720,-92.9492,31.5013,-375.7542,22.8855,85.9441,-155.5892,-35.5804
-3265.6250,35.0379,96.7243,-41.4646,131.9272,-107.3143,171.2133,-182.2308,-47.7994,-30.5740,-223.3618,40.5472,178.3087,5.7705,-79.4144,6.5494,-253.3105,39.7874,138.5988,-207.9186,87.3473
-3257.8125,40.3059,87.6351,-14.5870,126.2602,-7.6333,161.7272,-154.7814,-21.5173,-408.5775,-160.2858,31.3063,131.6474,-3.3118,-16.9819,-39.5193,-262.9725,29.5771,162.1488,-149.3411,41.1605
-3250.0000,87.4889,136.1374,79.5913,159.6361,13.3463,145.5332,-98.0272,-110.9400,-131.2945,-397.9192,51.3621,189.2874,-18.1157,-69.2643,-54.3135,-317.3378,87.6503,9.9676,-266.4984,135.2622
-3242.1875,90.8006,147.9132,-3.1553,199.6033,-33.6086,134.4293,-145.2017,-122.2780,-105.8696,-446.4576,41.5123,141.0269,-65.8358,-43.4522,-65.0352,-327.5894,184.8204,176.8835,6.4298,161.4660
-3234.3750,105.9863,136.9921,128.2929,169.1599,98.6330,156.5161,-51.1814,-27.4116,-488.2838,-424.7774,26.8498,125.9590,-80.3829,-22.4414,-79.5879,-232.6312,95.1761,121.9853,-118.4496,36.8491
-3226.5625,38.0709,75.3537,12.3761,109.7629,-90.4963,151.2453,-166.5191,-68.8971,19.0031,-357.4388,20.8262,120.5315,-85.3098,8.2083,-11.5043,18.0002,57.1547,84.7105,-156.7030,104.8788
-3218.7500,-11.0817,3.4149,-39.1673,42.8747,-33.2504,98.3555,-108.4646,62.0193,-253.2779,-151.6725,-30.8123,-5.5128,-136.8660,140.2586,-64.0378,187.0471,4.5136,135.8276,0.4565,16.2977
-3210.9375,-69.1605,-55.9786,-39.9731,-33.4721,-34.2611,97.2071,-36.6499,23.6984,-34.8089,-44.1372,-68.7168,-6.8172,-101.6989,102.0547,-27.8510,369.8621,-102.4059,-76.3293,-140.6518,15.4471
-3203.1250,-156.1538,-133.8703,-183.3611,-111.0808,-214.8520,-10.5004,-106.3986,25.8277,262.1718,178.8663,-138.1877,-77.6744,-98.1011,141.2960,11.7634,483.1486,-132.8966,33.9583,2.6831,55.0420
-3195.3125,-147.3965,-147.9354,-122.0151,-135.0915,-116.7029,-21.4658,28.6017,124.7238,-44.1400,314.6509,-149.9206,-126.7948,-110.7794,130.2874,-35.9011,398.1959,-181.6583,-16.0014,-46.2350,-29.6396
-3187.5000,-145.4174,-144.5270,-186.6283,-147.7243,-181.5186,-51.3821,-1.3540,-15.3296,404.6163,211.4882,-68.6083,-81.8634,7.5771,27.3126,45.4546,295.2950,-171.3877,-75.9309,-71.1360,51.7127
-3179.6875,-103.3904,-138.2982,-146.3669,-152.6537,-104.4574,-120.4036,39.5718,25.5241,114.2783,252.2507,-27.4092,-152.0386,12.8024,68.2365,49.6877,115.2952,-137.2280,29.0455,104.8736,-54.0515
-3171.8750,-72.1670,-119.5134,-43.6101,-135.6456,-2.8984,-54.9174,67.9959,-20.1016,68.3962,133.5243,0.2741,-123.7069,40.4821,-14.3435,78.3880,32.7935,-147.5856,-86.4858,-116.6421,-99.3426
-3164.0625,-75.8524,-106.7414,-121.9258,-106.3600,-117.4290,-96.4793,-83.6576,-60.7824,284.5024,128.7524,-3.1110,-128.4128,37.0793,-17.9758,38.0110,-7.7473,-42.0042,17.9315,-12.2309,-29.6896
-3156.2500,-19.7456,-38.8741,-1.4590,-35.4171,2.8251,-50.2455,-37.5302,22.3519,-257.6299,137.8055,-30.7094,-81.3277,-27.5510,28.1949,-99.6000,-71.4879,-2.6370,23.1484,-8.0243,-130.2608
-3148.4375,-26.6806,9.8915,-52.5438,31.6946,-85.4818,45.4344,-125.9526,7.9326,57.7034,13.3027,-44.8629,50.2065,-78.7468,13.7956,-114.7866,-49.7781,23.1631,-22.2178,-123.4009,-34.3940
-3140.6250,-35.8044,38.8965,-117.7470,89.1779,-76.9126,53.9933,-226.4877,89.3960,-155.0143,131.6919,-110.1190,58.6309,-216.0552,95.2824,-179.0845,-78.1736,100.8603,90.3045,95.1253,-62.6289
-3132.8125,-4.0885,77.5517,-10.5520,118.2275,-6.9431,124.9361,-157.6113,123.2544,-304.3400,91.4817,-112.9885,129.4464,-219.9906,55.1602,-254.9925,-118.1741,60.9441,-20.7917,-50.9602,-102.4799
-3125.0000,-67.1960,42.5816,-154.6810,78.7168,-115.3031,52.5676,-155.0457,87.8049,175.1048,55.9804,-147.1741,130.9582,-144.2478,20.7261,-216.2209,-79.4592,30.7125,54.7990,94.6370,-26.6302
-3117.1875,-77.4265,6.8157,-94.3321,33.6212,18.8170,39.6936,89.0032,184.8686,-59.9629,153.0133,-197.8739,43.9566,-158.0366,6.7896,-156.9790,-92.2387,-58.0260,71.8999,217.7476,-150.3010
-3109.3750,-114.5550,-21.5489,-131.3343,-19.9015,-18.4193,2.4700,198.6986,111.5932,418.6042,42.7012,-197.9286,80.6051,-121.2012,-30.5050,-46.1189,-19.3688,-126.1269,-102.3663,148.4789,-113.3444
-3101.5625,-152.3131,-54.9577,-205.3056,-67.4603,-91.6300,-107.7061,161.4260,147.3684,455.2496,189.4371,-233.9446,43.3089,-121.3403,43.2472,-46.2316,91.5473,-126.1846,-67.5794,359.2622,-113.3476
-3093.7500,-139.4091,-51.7328,-97.4298,-82.8354,-21.9835,-75.0297,232.0091,144.0101,193.6876,223.0291,-238.1252,76.8572,-124.6571,39.8547,-86.5164,161.3061,-202.4068,-177.9430,178.8901,-153.5295
-3085.9375,-153.1430,-66.2083,-233.0246,-102.0163,-157.8088,-137.7991,95.1343,44.2047,535.7128,160.1667,-152.7652,86.9595,-77.4459,50.0037,-2.2674,209.6204,-151.0980,-162.7655,159.0465,-32.1689
-3078.1250,-99.3116,-51.7958,-151.5430,-92.1084,-38.5472,-165.4749,141.3444,90.5067,-8.1744,205.4163,-107.3172,22.1592,-68.1557,59.2570,43.0587,145.0371,-109.6967,-86.4774,164.3119,-96.7227
-3070.3125,-52.3652,-11.9466,-69.3140,-56.9949,-30.5352,-83.3975,75.3067,-11.4360,36.6729,103.4135,-25.1261,104.1119,13.8695,-42.7493,15.1099,116.1999,-100.5622,-147.4604,-142.6993,-51.5430
-3062.5000,-36.3229,19.4918,-136.9624,-22.4991,-135.4011,-114.1761,-139.5958,-42.2409,-67.2808,219.5645,18.2070,147.2203,-16.9676,0.3831,-15.6995,85.5184,-23.2878,34.7072,-65.5693,-45.2117
-3054.6875,36.5002,55.0361,54.2867,-1.2404,18.6298,-70.0631,-95.6003,-36.1410,-501.3734,189.6360,61.4334,153.2202,-83.9271,-30.5903,-9.6254,18.7324,-20.1262,-102.2273,-272.5435,-111.9967
-3046.8750,21.7302,42.5739,18.6255,-25.4639,-126.2542,-105.8509,-241.5145,-217.9484,-60.3322,80.8083,99.7530,191.3272,27.2031,-102.4777,65.5242,20.0530,-12.8806,-165.0782,-336.4511,36.3176
-3039.0625,13.5445,7.5631,29.0416,-73.9281,-81.0573,-205.5478,-121.3509,-207.6563,-270.1769,127.1001,73.1611,90.5331,110.4109,-93.2641,38.7531,-43.5244,-39.5443,-121.8202,-117.2522,9.7268
-3031.2500,-1.8973,-9.2310,22.1081,-94.4691,-51.2105,-175.5965,18.4671,-177.7113,-20.3970,-26.9548,66.2114,84.3951,140.2381,-172.4076,31.6226,-50.4545,-113.5720,-196.9262,-157.4274,39.7690
-3023.4375,-71.1718,-43.1711,-148.1959,-80.2260,-184.7421,-163.0022,-6.0813,-92.1267,323.0872,22.6381,-32.0977,22.9161,42.6993,-50.9056,-29.8644,-0.7311,-66.9639,-44.3856,101.0342,52.4625
-3015.6250,-78.8785,-28.5497,-88.0091,-49.9819,-50.7753,-65.9117,54.8690,115.9661,-93.9642,120.7397,-117.9128,46.9379,-80.3558,47.0988,-115.8774,60.4872,-120.8677,-63.3384,82.0033,-107.3628
-3007.8125,-109.6254,-27.5703,-155.5796,-16.8140,-191.5698,13.4349,-49.9341,84.3151,316.2548,52.0781,-148.4859,89.2201,-148.1751,52.3462,-73.6567,139.9521,-77.5349,-90.0506,-49.8009,-27.9470
-3000.0000,-48.9652,-6.7807,-121.6810,6.0107,-121.8872,-25.7204,-89.2486,82.1737,-17.0025,49.9299,-77.5752,13.0010,-151.5123,50.1017,-75.9523,100.9167,24.2918,11.7534,121.9158,-67.0443
-2992.1875,47.1842,42.3513,88.2654,21.0772,50.8476,-36.8220,-26.5032,-2.8944,-176.2428,-145.1493,21.3748,38.8363,-51.8232,-34.0942,-87.2160,-20.0713,48.1523,-104.4085,-100.3323,-78.1187
-2984.3750,53.3242,67.8992,8.6474,60.8874,-28.9895,-43.4745,-107.3221,-82.5214,2.0181,-260.7879,52.7670,69.1367,15.3031,-40.8426,-57.0449,-100.6015,115.4581,67.8675,-33.1450,-10.7438
