Time,Fp1,Fp2,F3,F4,C3,C4,P3,P4,O1,O2,F7,F8,T7,T8,P7,P8,Fz,Cz,Pz,ref
-4000.0000,19.0655,4.7366,17.7658,24.6968,65.1808,-30.7551,76.9599,0.9487,21.9097,13.2793,23.2949,-35.8360,-46.2770,-55.2974,-22.5838,-11.9961,-39.7725,10.1965,-24.2281,-46.4262
-3992.1875,-40.2584,-5.6409,-83.7350,35.1852,-35.4279,14.0568,12.6157,-26.5978,67.6540,-51.0908,-40.9549,8.5149,-76.7312,26.1299,132.3944,-19.4507,4.7462,-14.2731,20.9191,-1.8658
-3984.3750,-65.8764,-25.3447,-0.5334,44.3671,47.6720,59.5722,22.9811,-17.4421,114.0998,-41.7508,-178.5198,-57.4410,-179.5458,71.2616,178.0853,21.9165,12.9709,-5.0392,64.7915,6.3920
-3976.5625,-135.4810,-91.7708,-111.3331,-24.4613,-62.2275,95.0832,23.3559,55.7119,40.5470,31.5955,-69.0613,-58.4033,38.6331,69.3943,29.7817,66.0504,-91.8166,101.1910,65.6519,41.6512
-3968.7500,-190.2831,-87.8453,-168.3383,-45.4923,-82.3308,73.3941,3.5241,107.6679,166.8150,157.7480,-235.8103,-44.5640,-242.4290,47.3321,45.2836,117.8959,26.2029,115.2174,255.3192,19.7160
-3960.9375,-127.8754,-101.4162,-101.1295,-52.3299,23.7734,-6.0952,73.8888,102.8260,125.2962,226.1028,-94.3557,-87.5344,-102.3286,4.4676,2.9912,114.4217,-87.5780,38.4360,143.1859,-23.0132
-3953.1250,-96.7679,-85.0171,-143.2330,-21.4692,-17.4338,24.1166,31.9545,96.6828,9.4640,147.1683,10.8152,-57.8096,-36.5333,71.3059,-3.6025,103.0085,-92.6652,-71.6486,102.7531,6.9686
-3945.3125,33.3876,-12.9569,-9.2847,-32.5579,7.4115,47.3782,-15.9267,47.5909,33.6904,24.2897,-38.9802,-35.0442,-198.7526,57.2001,129.8710,43.5534,0.3162,-151.6842,56.3955,30.0068
-3937.5000,36.8993,-21.9604,-44.9796,5.7012,-173.3866,84.9909,-124.4465,11.8514,-38.7239,62.7481,109.5898,2.0590,21.3686,94.4474,-16.3104,48.5788,-66.3623,-44.3627,-115.6119,67.3986
-3929.6875,-18.3958,11.7422,-28.4774,20.1600,-156.9835,100.8070,-179.7687,28.3200,15.0617,42.4150,-94.6421,17.3601,-222.3483,109.9006,-37.2948,70.7619,122.1664,76.1679,73.5941,45.9927
-3921.8750,61.6158,23.2344,93.3402,-5.0900,2.7385,74.9255,-19.7870,3.0880,63.1537,-130.6147,-45.5812,-82.0454,-138.8086,46.6547,-25.9675,-3.6859,95.9939,120.9953,83.1049,19.8881
-3914.0625,-0.9655,-40.7484,-46.4458,-68.9484,-26.1475,81.4429,24.5944,83.2552,-2.3595,-12.2525,-1.1043,-112.0532,-23.8688,52.8145,-93.2360,61.9639,32.2137,199.2237,125.0138,26.1931
-3906.2500,-50.9454,-53.5494,-22.6376,-83.2209,71.5595,66.5652,86.5691,70.0236,-15.2608,10.7149,-162.0446,-127.4610,-260.3854,74.5821,4.1173,87.0935,16.0463,219.0546,250.5447,-24.8940
-3898.4375,-62.0628,-63.0472,-70.9814,-94.6541,61.1134,18.5347,113.3945,58.6470,-63.3038,-73.4511,-25.1171,-30.0262,-16.0694,62.1961,-44.6805,32.1520,-171.2803,207.7343,98.9218,-37.1229
-3890.6250,-141.2867,-75.3594,-79.4393,-68.1905,16.5515,45.4091,-4.8842,87.1749,38.5376,65.3036,-107.2879,-2.6948,-210.8786,89.7221,19.4240,95.5519,-76.7049,164.3161,160.2096,-46.4396
-3882.8125,-12.8146,-32.4168,17.8067,-11.0315,78.6993,68.9873,-16.4647,74.4022,100.0812,52.7623,-45.7741,-53.6677,-190.0334,38.9594,43.2493,65.8595,-54.4210,45.5950,41.2107,-60.0489
-3875.0000,1.6619,-46.4327,-42.9574,-31.8756,-18.1612,44.5752,-3.0497,49.6303,-71.3793,28.2185,113.7530,-79.6390,40.8104,51.2060,-54.9339,50.3525,-42.1456,94.8761,-14.7883,-11.6488
-3867.1875,-30.4160,-54.3938,-1.2795,-99.2740,60.4219,-25.3785,39.8087,91.3194,43.6161,107.1286,-65.2778,-113.1675,-250.9526,-19.0812,96.3422,70.7016,30.5999,98.6042,198.6872,-44.7906
-3859.3750,25.0691,-82.5875,19.9548,-150.1317,83.5549,-77.7784,100.2166,113.5644,29.1624,129.5914,67.2480,-165.1462,-11.1923,-34.8146,7.1652,70.0565,-55.1075,83.8781,113.7139,-60.3750
-3851.5625,-16.9447,-90.9685,-25.3206,-122.4878,38.1752,23.3288,129.1194,104.3149,-52.8106,120.5562,-14.7204,-211.6212,-95.9515,64.9594,-38.5118,119.7235,41.6894,75.6545,211.2526,-33.4485
-3843.7500,43.5919,-47.2829,72.9628,-97.2968,101.3549,47.9850,118.5656,19.6122,119.7691,35.0644,-26.1494,-150.5467,-147.2154,16.2906,59.3761,40.6885,-3.9486,-4.0174,131.3599,-8.9652
-3835.9375,3.9833,-31.7625,-81.8978,-32.2613,-53.6169,1.4911,37.8597,10.7532,148.1947,-9.5793,149.2773,22.3709,99.3711,-30.5239,88.1068,-31.7346,-150.7355,-44.8369,-15.6817,55.3759
-3828.1250,34.6220,13.4130,-122.5022,-0.9775,-130.3403,-40.7485,-39.5985,6.1458,106.8895,60.0328,-2.0712,53.5284,-201.8454,0.9167,267.0881,-5.8132,-16.2483,-118.3999,50.5500,49.9715
-3820.3125,106.1329,-0.8367,-86.2395,35.1463,-166.2048,-5.1387,-39.2105,-31.6113,-3.5590,132.4843,181.4461,14.5288,-21.2429,73.2154,154.9190,27.4416,-120.9062,-188.1189,-124.3719,85.4208
-3812.5000,18.9156,8.7102,-104.7302,17.5130,-183.8391,12.7275,-92.5815,-13.1153,52.2128,78.1852,163.2480,105.7792,-42.4065,90.7753,-11.0095,25.3047,-32.3134,-169.5909,-70.0446,103.1306
-3804.6875,135.8558,53.5246,55.9382,-41.9769,-22.3233,-10.2491,-77.8114,-72.4658,140.1247,56.0479,141.1927,82.1612,-214.4781,-6.5063,3.2305,-32.1395,11.4456,-228.9157,10.4545,42.9979
-3796.8750,168.8867,28.9423,-22.2980,-9.3751,-98.7177,21.8759,-116.9448,-2.7107,-47.8525,125.0245,285.2396,39.6310,36.5528,25.3188,-74.4244,20.5539,-96.7067,-126.1376,-96.9449,74.9751
-3789.0625,46.3466,19.7318,-77.1049,7.6719,-116.6769,38.4600,-134.6402,51.5074,-30.3612,69.4686,81.7150,18.5499,-244.0026,41.6123,52.3832,45.2721,24.6017,-38.9071,130.1293,91.4118
-3781.2500,78.3575,45.7727,-8.3629,4.2607,-47.0853,-2.4000,-27.7860,11.2811,40.6915,-190.5386,78.7305,14.0228,-66.0438,-35.5327,48.7542,-76.5769,-14.5361,27.8686,56.7624,87.4050
-3773.4375,-16.0827,19.0195,-69.0862,15.3967,-70.9572,8.2977,21.6190,59.6081,-57.7164,-216.0037,53.3029,-11.9445,16.4663,10.8857,-50.3256,-39.0780,30.8780,110.1948,137.9448,97.9601
-3765.6250,51.0207,33.4964,2.7431,12.0824,2.7212,7.5518,-14.4345,95.4872,15.4330,-106.9203,-57.6001,-51.3643,-207.5315,46.8624,22.1581,20.8235,61.8652,36.0700,239.7049,23.0724
-3757.8125,107.3322,-0.8073,23.7751,-38.0394,-86.4082,-45.9875,-29.2970,80.5679,36.7702,-11.6347,147.7057,-31.5901,67.6633,30.0517,-31.1601,12.8236,-92.9466,-83.8558,49.6667,43.3956
-3750.0000,74.2366,36.5486,23.3934,-71.5655,-157.9541,-45.9167,-137.5735,43.2575,36.6980,-11.7322,37.6044,77.7894,-118.5689,28.8570,116.1307,-4.8078,82.8536,-152.1870,121.2445,79.3332
-3742.1875,174.4945,97.1312,165.3709,-76.7423,-89.1554,-51.4860,-105.5184,-35.7098,-78.0106,-53.4899,106.8494,145.5284,-53.4974,-13.9714,73.7805,-58.4766,77.0157,-192.1740,-24.8233,73.6316
-3734.3750,163.6008,76.3353,116.1948,-53.0670,-137.5217,-64.1962,-153.6298,-47.8357,-126.8805,7.5904,130.9589,94.1300,41.4235,-26.9385,-49.7277,-43.0409,64.0274,-62.3069,-106.0492,96.7934
-3726.5625,194.0053,78.9213,222.3189,-94.0896,-31.5914,-69.6051,-156.4503,-88.6584,15.5384,40.9781,16.3478,15.0372,-260.4063,-32.5978,-17.9245,-31.6143,163.3575,-34.1434,-6.9500,55.2649
-3718.7500,227.9654,81.2350,181.9974,-94.5707,2.8853,-0.4622,-85.7223,-90.9242,-207.4925,-108.0728,234.2894,84.4889,65.3025,37.3049,-93.5712,-58.6706,-14.7624,-0.4370,-148.3016,88.2967
-3710.9375,64.0260,35.6229,45.7628,-117.9544,-57.5629,83.7924,-109.9131,-43.0845,-306.4252,-134.0176,135.3283,94.0455,-73.9129,121.3299,-10.1196,-2.4928,67.2315,118.3717,39.4518,135.4409
-3703.1250,103.1432,26.4615,50.5876,-150.2916,57.0320,14.1041,-32.0782,-39.1980,-191.2987,-55.9228,103.4094,23.6567,-109.1264,14.4113,-6.6051,-14.8108,34.2956,156.2279,78.2664,102.6431
-3695.3125,32.2135,-9.9254,-22.6400,-150.6857,-16.4381,-22.6347,5.6975,33.6348,-154.2289,-19.8812,140.4520,59.2227,144.6164,-22.5513,-79.1315,-5.4455,-71.6921,191.0391,7.0271,101.8071
-3687.5000,-69.8776,-37.3870,-19.0232,-183.2397,62.9350,-19.5195,-62.6856,75.3225,33.6925,-14.9803,-39.6781,62.6487,-147.8335,17.3510,71.2137,28.4899,35.1879,88.6985,150.6568,68.8337
-3679.6875,9.3799,-35.9233,-10.0515,-139.4470,35.6577,-11.0434,-15.7249,84.3561,-67.0434,-42.7330,80.5370,-3.5658,115.0582,25.6212,-31.0860,20.1306,-26.5801,-8.2947,54.6246,77.2260
-3671.8750,-0.9235,-8.7977,-94.6427,-150.2056,-49.1917,12.8994,-27.3307,71.8372,-189.3389,18.9546,31.2069,19.6775,-10.6101,49.3652,-42.9365,49.5018,138.1093,16.1648,219.0431,101.0858
-3664.0625,64.0313,25.7792,47.0160,-156.7184,94.1993,-28.8975,6.2899,30.5629,-83.3738,-22.1088,-46.8866,14.1764,-92.0796,7.3769,25.4787,12.2771,166.0647,9.8667,142.7277,59.2069
-3656.2500,-28.9597,6.9058,-14.2800,-74.1854,-40.3780,-16.6384,-54.0522,6.3364,-34.3681,-82.1161,40.0869,99.7385,175.5078,-17.5482,0.9320,-39.1146,37.0672,58.6104,-20.5444,71.3925
-3648.4375,-92.2131,9.7604,-5.8400,-32.9007,-31.2176,-8.6207,-117.6627,-22.1401,85.3884,-74.3688,-134.2092,70.0670,-3.1952,-9.7034,46.1489,-34.1623,183.8374,30.0979,91.9547,42.3414
-3640.6250,19.6812,7.7321,111.7543,-62.4608,51.0872,-1.4452,-73.1389,-88.4750,-127.6897,-66.4755,56.6321,39.5538,258.2299,-2.6972,-20.4750,-51.4201,83.7711,-35.2790,-113.3981,12.4528
-3632.8125,-7.5822,32.7841,46.1934,-19.1711,-14.7771,5.5863,-64.7791,-116.9630,-229.9314,-21.7380,64.3242,118.9016,188.5055,41.1726,23.7504,-33.1644,125.5668,-27.8112,-139.9010,19.4329
-3625.0000,69.0631,65.1030,127.5406,-12.9831,67.2487,50.5219,-55.5395,-145.5522,-75.2891,-87.0971,-38.0966,89.1587,-63.3666,48.9540,104.8887,-51.2283,167.2879,-56.4543,-204.4914,-9.6703
-3617.1875,71.8246,48.0732,91.9844,-10.7004,69.3526,13.5616,-17.2167,-181.0428,-74.5514,-122.3529,109.6006,125.5214,264.8682,48.8471,-41.8756,-90.7581,28.1005,-123.0014,-306.9884,27.3433
-3609.3750,28.3775,72.4252,81.2145,15.3782,132.2318,39.4067,-64.1212,-191.7335,-11.0132,-131.8000,-83.9096,150.6918,29.8692,74.5612,21.1703,-77.4443,123.7285,-132.7437,-140.6610,53.1714
-3601.5625,56.1774,36.0512,110.7023,7.7051,125.3539,31.5097,3.2107,-199.1797,-18.2300,-103.0015,18.8172,69.1228,130.0932,29.5372,87.4791,-88.8193,9.6199,-140.2328,-183.0796,45.2587
-3593.7500,-62.6881,-64.0644,-87.4725,-6.6171,-72.1864,52.9733,-11.1186,-67.2713,3.8930,-7.8589,3.8951,-21.0826,221.6782,87.8814,109.1338,0.8578,-73.1371,-48.3699,-56.1530,66.7077
-3585.9375,-105.1087,-87.6260,-96.1913,-50.4921,-44.2817,80.8972,-56.0134,71.0914,142.4707,57.7273,-150.5995,-66.8281,-47.3375,78.6939,173.2459,72.5448,-13.4171,-57.0552,111.2368,57.6183
-3578.1250,-94.1700,-88.3652,-159.5586,-40.0167,-142.0447,91.1845,-44.5710,118.7960,80.3789,31.6559,6.2713,15.7898,216.9958,125.8738,-0.2974,79.4273,-143.3428,-80.3931,-19.0299,67.8934
-3570.3125,-148.9879,-53.5938,-251.6906,11.7122,-123.5802,108.7347,-62.9000,99.7530,61.5243,49.8418,-121.6202,69.6747,-25.4452,142.3284,17.4069,93.8064,-23.0001,-30.4881,67.9646,48.4324
-3562.5000,-89.5056,-45.6628,-152.5189,0.7405,12.1765,60.5974,-35.9435,89.0041,123.9795,76.3188,-96.2367,20.8727,-39.6222,58.1035,6.4275,70.9548,-34.3433,-76.2949,-13.7382,37.2807
-3554.6875,-76.4299,-40.5334,-139.7620,13.3693,-48.4895,36.0694,-22.4010,27.8538,27.0296,52.3911,-10.2465,32.6887,153.8200,33.4958,19.0497,28.2858,-22.0864,-97.5127,-140.8526,49.7430
-3546.8750,-9.2079,17.3699,78.1447,44.1481,23.9826,33.6963,-97.7308,-121.1447,62.2202,-23.3723,-86.1234,-7.3310,-109.6302,31.0509,126.8386,-29.3014,185.3386,-136.5885,-143.8037,10.3687
-3539.0625,138.5195,66.0100,195.5530,86.4253,-42.0556,3.8258,-161.5738,-149.6476,-41.0933,-125.6391,105.5115,-0.8422,151.4217,38.1166,-12.8658,-81.4310,121.2571,-129.1784,-348.2584,17.5095
-3531.2500,140.7322,86.7579,122.4379,88.1995,-113.6214,40.4679,-234.9392,-76.6448,-186.9010,-52.3955,-4.3590,35.1616,0.9674,74.7030,-13.0612,-15.0480,157.6788,-58.2766,-275.2000,54.1677
-3523.4375,105.9859,62.3953,122.3672,53.0193,-77.1506,3.1676,-197.2828,-76.5917,-112.6384,21.9151,-77.2016,34.2296,-75.4752,37.3588,60.8128,-6.4266,87.1594,-58.3346,-170.0837,53.8881
-3515.6250,-42.6122,-0.2372,-34.5672,44.9885,-122.5516,-42.9792,-95.4931,-49.3961,-85.2366,86.3852,-49.8897,60.4619,132.2484,-9.8202,13.8290,-0.3435,-27.2087,38.7585,-107.8285,80.7743
-3507.8125,-157.6236,-21.6009,-80.9042,69.5570,-59.3669,-17.5152,-69.1168,13.4031,50.7539,113.4526,-279.9928,49.3086,-176.4654,16.6158,114.4523,55.5200,-2.9535,99.4563,22.0446,70.2761
-3500.0000,-143.4352,-70.3153,-104.0295,48.3274,-117.9941,-3.8378,-18.5591,64.4007,-9.0685,90.7082,-81.8931,-11.6312,92.0169,30.2654,17.2774,63.3986,-129.4839,78.3536,-67.8918,83.9921
-3492.1875,-190.5518,-73.9541,-190.4637,70.8060,-203.9500,57.5479,-102.3251,126.0954,-21.2168,188.6622,-58.0914,12.1494,2.1990,54.6351,4.7954,120.4588,-37.3007,29.9567,23.8682,71.4211
-3484.3750,-93.2682,-17.8976,-13.4969,97.6839,-135.5173,88.3400,-144.7091,119.1852,47.0418,36.0166,-64.9092,-31.6549,-154.2630,48.4230,72.7275,77.3556,95.2974,-13.0436,-18.9631,28.2572
-3476.5625,-66.8403,9.2686,14.6105,159.7127,-143.9483,79.2900,-116.9598,37.4254,-72.5489,-46.4849,37.4282,-4.2924,91.4444,76.3766,-84.1826,32.8263,86.0359,-21.8959,-167.6566,19.2556
-3468.7500,-74.3778,40.8910,118.7559,151.7902,-40.3495,36.3032,-86.1795,-42.2785,-41.0913,22.0667,-152.2048,-10.8611,-212.8189,33.3974,-53.0294,30.5347,218.8385,-28.7023,-70.2814,-23.6823
-3460.9375,-14.3678,23.8634,181.4532,105.4225,22.8007,-49.1259,-22.8621,-127.4361,-89.0987,11.1621,-53.2906,-59.8624,-6.5426,-52.0165,9.6776,-39.2256,137.1996,-39.9719,-185.3615,-35.0583
-3453.1250,-96.2113,15.3403,94.2896,129.2090,-26.9178,-25.3984,-72.4086,-66.4561,-101.9724,-38.6000,-66.2225,0.3108,50.9002,-28.2622,33.5257,-31.4478,124.7183,-16.0985,-127.3019,-11.2695
-3445.3125,-70.0161,24.6452,122.1844,120.0457,74.4067,2.3894,-43.9267,-75.4389,37.2108,-10.3159,-184.1276,-9.4451,-109.6443,-0.4439,24.4340,-8.5218,115.3126,-25.1861,-66.1884,-20.4202
-3437.5000,10.2306,37.4724,21.1318,128.9348,47.7641,11.2315,39.5852,-103.3751,-101.5667,-37.9839,8.0267,-1.1317,153.8766,8.4401,-150.6113,-35.2780,18.9550,-52.2292,-127.0381,-11.5086
-3429.6875,-36.3789,26.9775,-27.7839,80.9796,36.2466,-0.7686,28.2271,-78.1572,-39.2052,-49.5003,-114.6790,-13.6490,-82.4674,-3.5145,-52.4989,-30.7177,111.7670,-64.1245,2.2782,-23.4351
-3421.8750,6.2181,45.4420,53.5083,124.2248,-67.0786,6.4331,-74.9533,-70.7413,42.3625,-115.8251,-70.1931,-6.9529,-4.6324,3.7361,-8.1771,-57.6271,118.7930,-91.8203,-96.2029,-16.1520
-3414.0625,-72.2936,35.4913,-30.3076,151.3738,-222.5275,33.5435,-156.2526,-43.4239,-41.1913,-51.2552,-5.8005,56.6563,56.1247,67.9065,-54.9619,-12.1358,181.7250,-99.6093,-68.7893,11.0439
-3406.2500,-41.9589,40.0169,111.7280,110.3708,-190.1367,28.5221,-160.7230,-48.2572,-8.9113,-18.8271,-120.5882,-22.8732,-210.3020,25.9562,14.1136,-0.4410,246.5255,-69.5513,67.4849,6.1002
-3398.4375,-27.1747,9.6179,53.2144,124.8226,-212.3146,42.9606,-109.7610,3.3542,-31.2021,-40.9494,-32.9147,-82.9268,58.7337,3.4690,-118.3628,-3.0906,84.7789,-20.0542,117.1855,20.6161
-3390.6250,-188.7941,-117.9541,-115.7092,32.8916,-159.9260,58.0019,-21.2277,128.5612,131.0946,121.5212,-274.6284,-251.3452,-114.6397,55.5914,-30.2445,128.0764,97.6471,99.0402,377.4777,-1.2579
-3382.8125,-138.3142,-85.7758,-134.5244,-21.9304,-31.4447,39.1485,108.3838,147.8665,113.4969,141.0793,-292.2539,-160.6526,-61.9388,0.8222,61.9750,111.8598,77.6290,44.2382,287.8750,-56.0230
-3375.0000,-44.2930,41.5767,-182.8051,0.8025,-80.4330,26.8577,96.5307,98.7234,-119.5572,-54.8221,-84.3260,121.6043,142.3410,-11.3857,-60.2550,1.7482,65.1590,31.9934,169.8118,-68.2261
-3367.1875,18.2666,118.1839,-115.5423,64.0880,61.1145,-15.8773,91.2066,56.1292,-51.0585,-134.1659,-200.8746,151.4270,-123.8606,-18.0235,-65.9177,-32.7380,128.2567,60.2996,197.3075,-110.8702
-3359.3750,12.2732,74.4074,-47.8272,22.8273,92.0990,-58.1555,122.3167,12.9774,15.8863,-177.0668,-95.9716,108.7243,122.4006,-60.1941,-109.1314,-81.5521,51.8043,18.0431,51.2371,-117.0543
-3351.5625,-74.1791,50.7461,-29.5774,41.1261,36.6107,-3.8673,29.9589,-41.6227,34.3556,-84.4193,-188.5230,89.6022,28.2194,-41.7961,-53.8024,-52.0991,174.9110,1.3255,104.7131,-98.6769
-3343.7500,17.8218,101.0828,139.1235,97.8778,95.5661,-18.1197,-20.9733,-130.7736,56.2775,-62.3183,-129.6432,110.9543,-63.5417,-19.9324,-32.0064,-68.1046,196.4774,-117.9635,-14.3639,-76.8412
-3335.9375,67.0171,75.5311,77.0123,111.8314,-76.2977,-6.1682,-82.7239,-118.7351,-41.5997,-50.0118,66.4470,85.5288,128.9323,29.1411,-57.0108,-60.1922,69.2331,-139.0646,-71.2642,-27.7912
-3328.1250,-2.8589,23.3502,40.8420,75.7399,-39.2276,30.7402,-82.5471,-44.7500,-4.5303,24.2498,-80.5301,12.0831,-95.6630,65.1772,89.9494,13.6281,68.9533,-139.2210,104.7983,-27.7779
-3320.3125,-20.0340,-29.1221,-15.6254,-11.6465,-58.4652,48.3554,-27.6811,9.9279,50.2240,-31.8028,11.1912,-7.6441,139.4463,9.9299,34.6164,-12.2022,-54.6233,-86.6825,52.5513,-10.0552
-3312.5000,-98.8224,-34.1862,-169.7049,-19.6271,-103.3293,3.3780,-35.4286,39.0071,78.3563,34.5385,-33.6846,-15.9522,53.9771,-34.9045,-47.3245,3.9454,78.2074,46.2590,255.7065,-17.9226
-3304.6875,-81.6676,-34.4403,-40.8314,-73.6524,63.7494,-50.6425,20.7522,58.0410,61.4429,53.8272,-124.6351,-70.2876,-113.5750,-51.7806,-27.3085,28.0523,95.0021,133.1530,342.8243,-71.8348
-3296.8750,-151.0172,-79.7300,-39.4680,-72.1737,65.2996,-49.1543,96.4137,96.5743,-83.9676,-17.4004,-12.0771,-69.1021,140.4010,-13.1427,-136.7992,38.0166,-44.7096,204.5557,203.4271,-70.2400
-3289.0625,-157.8826,-77.5385,-46.6149,-79.1909,169.3255,16.8388,126.5562,52.6110,19.1290,-61.1249,-203.0338,-113.3957,-89.1371,16.0049,-32.7851,35.4670,18.0945,162.4598,337.5371,-77.1384
-3281.2500,-105.0997,-105.0898,-29.1074,-96.5586,187.0036,34.4856,217.3408,-2.7075,110.8704,-117.1892,-112.3522,-170.0230,107.9758,33.8075,20.8868,-1.7984,-69.4479,74.0073,214.2848,-59.3812
-3273.4375,-190.9825,-129.2699,-85.2677,-43.5645,57.0157,89.4910,125.4648,51.3237,91.9341,-61.9001,-57.3159,-115.2715,158.4645,88.9768,38.9019,45.6787,-87.6394,21.9030,162.3635,-41.2639
-3265.6250,-113.5758,-46.8009,34.8674,34.7357,30.3215,99.8064,-11.1314,24.6524,102.2870,-14.3136,-84.0044,-31.1934,-90.7691,62.4607,49.2349,41.4731,-8.5178,-4.9052,29.7393,-67.8390
-3257.8125,0.2244,3.1616,79.4023,42.4426,2.0140,-2.4796,-40.3392,-77.6286,-110.9547,66.6707,70.7099,12.3080,132.4300,-39.6525,-127.0368,-13.5573,-36.0052,72.6832,-173.5099,-60.0062
-3250.0000,32.3652,30.6291,113.2762,4.5070,72.0407,-79.4085,-6.2192,-80.5607,33.1564,27.0114,-116.2376,-26.8205,-93.0251,-79.4046,-55.9667,-34.9930,65.8676,140.6192,-35.4038,-62.8190
-3242.1875,136.2581,45.3129,220.9091,-32.6707,216.8098,-81.5801,64.6331,-45.7395,68.0050,-84.8986,-7.4428,-66.1824,11.2582,-118.3955,-95.1428,-72.5990,-6.4956,103.2920,-108.5570,-64.8773
-3234.3750,94.6388,43.4114,140.0282,-3.3359,173.0525,-52.2441,93.9646,-53.4183,-123.6663,-92.3168,94.8644,-37.0157,110.0778,-51.8712,-139.8188,-52.8086,22.6410,61.4560,-79.2340,-35.4271
-3226.5625,87.0686,63.1718,206.1954,-46.9385,276.3270,-95.8465,161.3218,-97.0585,-19.2877,-135.7011,-21.7969,-7.7664,-120.0780,-58.2818,37.5710,-82.5429,84.8494,-17.3427,89.1374,-78.9224
-3218.7500,93.9620,16.6057,139.8179,-110.0823,246.0408,-125.9918,204.1082,-90.2607,23.5246,-165.6481,132.0078,-1.0387,176.2450,-88.2398,7.4029,-120.1538,-84.4931,-10.7007,-10.0696,-71.9603
-3210.9375,26.3476,-13.5588,30.9310,-107.7167,137.2365,-87.6377,169.3782,-51.9669,98.8055,-90.0883,23.3097,1.2176,65.0748,-49.6915,82.7269,-71.2080,-82.3250,-7.5561,63.2252,-33.4866
-3203.1250,55.4751,-27.0337,95.7924,-113.5993,92.1763,-21.5305,87.3862,-59.9230,17.8435,-23.7792,88.3434,-6.7591,90.6422,-20.3910,74.8162,-40.9652,-123.4003,-84.6592,-12.7286,-4.2593
-3195.3125,-29.2647,-49.3639,-68.2115,-22.3245,-71.7568,34.7280,-76.4693,-3.7267,-108.9669,69.6812,181.5262,49.4293,215.3962,73.0709,-15.9465,29.6850,-172.3321,-63.6037,7.4528,52.1232
-3187.5000,-41.5742,-44.1204,-116.7670,-34.5865,-48.2492,59.4470,-88.8899,20.9238,61.6648,94.5910,-14.8633,37.0880,-93.4150,60.9920,118.7444,47.0429,-113.7929,-41.1027,101.0929,39.9585
-3179.6875,9.6694,-52.0861,-174.7620,-53.2926,-68.1925,38.7229,0.2286,0.1174,77.8352,-36.9613,112.2982,16.3251,140.3402,40.4722,98.9733,-20.1906,-203.7047,-25.0594,-23.7337,56.3467
-3171.8750,-19.3934,-29.3943,-171.0681,-47.2910,-63.4580,5.7071,-31.9655,4.0135,-28.3043,-31.8281,5.1587,20.2882,30.8100,44.6627,65.8996,-3.1073,-92.9162,50.6888,88.1317,97.4389
-3164.0625,45.3021,-12.5451,6.3843,-86.5320,40.0277,-35.5544,-1.4180,-1.3417,39.2924,-0.9600,-0.2436,15.0231,-88.9825,2.6053,97.5805,-5.2670,-133.3631,45.1847,46.7426,92.2807
-3156.2500,54.0990,-6.0266,-21.0663,-77.6688,-24.3924,-62.7156,7.2217,7.3982,-25.0365,8.0088,119.4608,60.8837,100.3676,-24.3503,-4.6531,-18.3269,-194.7209,124.7749,-48.5728,101.2260
-3148.4375,58.2766,36.3405,93.8704,-75.3964,53.5719,-58.4751,49.2400,-24.4652,-56.9503,-23.6082,-23.4574,29.1677,-155.8957,-91.8951,37.5272,-40.4581,-16.6738,92.7574,59.5163,69.5720
-3140.6250,126.3911,81.5447,164.7548,28.8305,51.4816,-96.2804,47.2017,-98.3790,-94.9038,-25.2816,48.5698,64.4159,22.8076,-57.4846,-74.3374,-62.3199,-53.6804,19.6883,-118.4560,67.8673
-3132.8125,6.3888,43.8281,3.5215,84.9658,-36.7286,-38.1776,-40.9466,-112.3850,111.0340,34.9386,-2.4996,87.5936,-30.5601,38.8310,-15.3126,-23.0530,2.2090,5.5221,-27.5357,54.0654
-3125.0000,33.6300,-0.3085,33.5314,6.3588,30.3067,-44.8252,26.1450,-84.1417,214.2165,101.4096,-46.3397,-29.9498,-151.6917,-41.6033,161.9744,-17.1920,-5.6452,-38.3995,-0.3587,10.5116
-3117.1875,58.0707,-26.1207,-90.2671,-5.0420,-57.4679,-22.2714,48.4328,12.2994,-57.4158,88.0757,124.0291,-44.2703,161.4158,-54.8356,37.4482,-1.0268,-157.3135,-14.1166,-81.0023,70.1574
-3109.3750,42.8961,74.2527,-106.6702,51.9707,-109.8560,-37.3125,-40.8904,-3.8537,-36.6553,35.1485,33.7792,160.8360,-115.0800,-33.6626,58.3203,-25.5979,-31.5740,-62.4365,43.7480,91.2026
-3101.5625,102.6717,83.1506,-45.1113,4.9480,-84.2986,-12.4017,-16.2773,-51.0657,62.0686,-48.8326,133.4771,223.9118,-18.6165,-8.5418,10.1452,-69.2988,-147.8907,-73.8195,-37.5716,80.1975
-3093.7500,-51.2574,-31.4865,-131.2653,-77.7693,-134.4629,-25.1909,7.6205,46.0234,159.0889,85.4843,46.4789,137.3090,1.1824,52.8905,-2.7368,33.4420,-160.9121,-17.9023,55.3944,67.4940
-3085.9375,-75.5431,-76.3565,-82.7682,-171.8365,-12.9768,24.6718,57.1637,58.7621,282.7503,134.4517,-87.8905,77.3757,-136.3852,28.9704,157.0422,57.0498,-114.2713,-111.3328,31.0243,43.4361
-3078.1250,-2.4868,-58.5915,-117.9215,-133.5517,-158.1414,25.8807,-15.9414,22.8488,136.7510,172.7639,134.0983,115.8059,155.4335,30.3919,85.1686,39.2658,-147.2923,-109.4120,-177.0054,81.7296
-3070.3125,-8.7029,5.5933,-87.3404,-34.5070,-164.5638,56.8437,-131.3093,16.6957,-17.5006,277.8253,53.8184,145.9996,-110.9834,61.5666,79.0467,97.3356,57.4401,-79.7356,-77.2793,75.7746
-3062.5000,73.9291,30.2036,35.0972,13.3923,-42.1296,70.6591,-117.8334,-6.6021,-76.8943,217.7341,140.3723,87.0588,-63.5455,38.5887,-55.2290,74.9950,-1.9760,-34.2125,-171.7135,52.6653
-3054.6875,37.2564,41.0043,-76.7697,82.9931,-80.0030,68.1774,-83.6586,27.7983,-78.5985,105.3372,138.6335,121.8338,3.6375,73.3160,-166.8237,61.5288,-71.6975,35.0081,-207.4722,87.2560
-3046.8750,0.1238,44.0988,-42.0848,46.1511,28.6725,-5.7492,-11.9361,-46.2586,104.2352,-5.5208,-46.5726,121.1763,-183.6361,36.5968,16.1496,-7.4720,-39.8500,68.7711,-103.6773,50.3946
-3039.0625,-9.3579,-4.4248,-87.7481,1.9697,55.9932,-52.0251,89.4267,-18.6691,94.7143,22.2594,54.8807,76.1780,97.7761,-46.4774,-30.2246,-27.9630,-189.3560,94.1801,-113.2474,41.1806
-3031.2500,-98.8443,-43.0724,-143.4236,-17.1956,-0.7086,2.7012,32.7659,72.9185,75.1867,77.0332,-75.6624,20.2016,-34.7967,-28.5476,24.3972,38.8352,-103.8567,144.5867,77.1803,21.9653
-3023.4375,-20.9280,-54.1468,-135.6879,-80.9564,44.9945,11.8215,77.5011,80.9001,120.0639,85.2043,-29.8178,29.6427,-28.9743,17.7739,106.4186,48.7726,-201.9561,46.3832,-20.9903,-5.8518
-3015.6250,-17.1169,-34.0518,-206.0531,-40.8132,-63.4055,51.8347,44.1399,84.7751,12.8339,89.2758,46.9372,105.9963,153.7974,57.9819,-0.6728,55.5531,-197.1662,-19.9159,-121.2819,34.2320
-3007.8125,-12.7715,15.5171,-55.8646,-0.1120,-59.2499,56.3951,-62.6665,52.1940,54.1591,129.8985,-95.7816,110.9127,-137.8848,62.7344,40.7928,71.9742,18.1822,-119.6674,-48.0180,38.8635
-3000.0000,-5.7313,19.0820,25.0274,77.2854,-124.3845,63.6481,-91.7642,22.3103,-49.8145,101.2180,95.2023,118.5406,50.1675,107.1804,-63.0350,66.8871,-45.7841,-112.7217,-181.0710,46.1917
-2992.1875,-103.9991,46.8040,-3.4035,190.3798,-189.8315,108.6020,-84.1594,68.1326,-187.0938,146.2311,29.8860,164.8805,-92.0482,115.3280,-91.1553,115.2698,31.9394,-37.0777,-104.4251,18.2212
-2984.3750,45.4323,91.7985,81.8656,164.1776,-31.5716,84.2560,2.1440,6.6567,-102.6751,84.9412,5.2534,103.9313,-192.5670,18.1725,-41.5686,42.9666,5.3665,-27.7397,-60.0768,-43.0528
-2976.5625,52.5012,39.5638,-21.2118,101.6320,-61.6664,18.5595,9.0959,13.8322,-58.6167,19.2979,159.2772,74.6460,104.6151,25.6591,-108.3564,7.6950,-128.5641,49.2532,-124.0948,-35.6769
-2968.7500,-53.4971,16.7352,-20.3367,30.0382,49.1833,-17.1887,8.9920,50.9662,52.4040,19.5961,-23.7667,76.3192,-117.2566,-9.9096,-33.1892,18.8655,-23.5354,84.2036,50.8497,-71.3564
-2960.9375,-4.0902,5.0296,-41.0501,-25.1574,102.4363,-37.5422,136.2830,30.5055,-5.1697,-0.7255,102.5875,93.4008,116.2876,5.9125,-127.6084,1.9347,-150.1080,63.5547,-4.8109,-91.6449
-2953.1250,-53.6905,5.6400,-204.7775,-4.3422,48.6794,19.1047,119.5754,51.0520,-57.7671,19.9543,48.9498,114.4920,59.8735,26.7268,-107.0352,23.7850,-93.6875,83.9126,121.5217,-70.9368
-2945.3125,2.0529,33.8676,-109.1560,16.8312,71.2833,5.0949,68.2206,36.9492,111.9824,-30.0173,-38.3560,63.9436,-103.1982,-23.1159,-11.1150,-13.0714,-2.9045,33.6209,107.2102,-84.8852
-2937.5000,-35.5116,17.5705,-76.8335,85.7071,-80.4071,-35.2197,-9.4328,69.5454,33.4426,2.6999,30.0415,97.1068,182.4792,-27.2679,-51.5115,-5.4338,-111.4367,66.0316,-71.4194,-52.1384
-2929.6875,-55.3362,58.2808,-24.7695,136.3407,-102.3551,-19.7799,-105.3404,84.8886,-24.3340,18.1656,-64.8329,113.0330,-98.0850,25.3299,-36.1535,35.4472,44.7859,46.1889,83.7035,-36.6487
-2921.8750,17.8918,51.5018,51.3528,105.0296,-62.2473,-16.2918,-28.1961,88.2802,-58.0651,-52.3382,85.3336,80.0194,11.4111,28.9711,-106.7394,17.1944,-56.9353,49.3909,-89.1268,-33.1185
-2914.0625,-7.8896,58.5146,-86.5252,149.7224,-163.1502,-6.8072,-56.0471,97.6728,-194.8217,-42.8478,131.5091,127.0141,54.9550,38.6039,-97.3282,19.0591,-83.6588,93.5935,-79.9687,-23.5918
-2906.2500,29.7634,96.6277,-44.9402,152.8666,-85.5965,34.1254,-88.4493,65.5179,-155.1288,-37.8921,25.1182,132.4599,-163.0557,6.6756,17.5393,4.9811,25.0780,26.2411,-6.3517,-55.6211
-2898.4375,82.2111,97.0829,-27.5505,170.8112,-105.2364,51.8509,-71.0451,10.1650,-209.6330,-20.1372,153.5370,150.7057,145.7788,24.5387,-111.8072,-10.8802,-62.3981,-26.3025,-164.9561,-37.8573
-2890.6250,12.1007,74.1937,-27.7206,136.2178,-142.4305,89.0202,-145.1911,46.2609,-63.6872,90.0599,-30.5986,188.4093,-76.9174,97.8440,-37.7012,64.1670,7.5823,-97.3860,-130.1124,-37.6499
-2882.8125,25.6536,48.7390,22.7680,115.2815,-91.9640,65.8356,-94.6841,24.0044,23.9153,30.8939,19.9021,165.7689,6.0429,74.7822,86.0599,22.8141,-84.7856,-187.8217,-256.6251,-23.8000
-2875.0000,-38.6883,-2.8644,-83.6552,121.4437,-196.4030,107.7460,-162.0747,28.8524,-8.3994,35.8216,97.5157,134.2367,119.1518,153.8134,17.9058,52.7145,-113.0675,-146.1567,-250.0449,18.1450
-2867.1875,80.2094,68.8032,7.1823,100.8533,-107.5868,124.9078,-219.2135,8.9580,81.5410,-21.0119,-32.6438,114.9614,-197.4959,134.0863,-38.9913,32.7680,5.9113,-63.2417,-97.2037,-38.6660
-2859.3750,219.3968,110.4035,78.3268,134.5561,-72.4648,123.3709,-221.0463,7.3673,-177.2093,-96.5649,149.5046,76.9883,92.1962,95.6506,-114.5891,-6.3709,-30.8212,-30.0195,-239.0773,-40.1831
-2851.5625,116.8292,108.8098,43.7110,138.5145,-108.0966,88.0794,-182.6288,9.0281,-285.7021,-57.8701,40.9011,79.2684,-54.8351,61.4616,35.0563,6.8708,112.6939,8.4544,-95.7025,-1.4547
-2843.7500,143.5166,83.9834,70.3530,129.7270,-6.4598,6.0279,-119.9619,-37.0607,-74.9384,7.0749,31.5370,-2.1999,-66.6141,-21.4937,-11.0485,-20.3264,33.4663,-0.8250,-140.0692,-10.4859
-2835.9375,41.1034,3.6421,-36.1032,97.8451,-113.9219,-27.1322,-116.3857,3.7450,-34.2934,47.9142,145.0796,-34.7580,117.5614,19.4399,-154.2674,14.9364,-68.8669,143.7976,-136.5439,-6.6251
-2828.1250,-37.5777,-46.1562,-5.8059,-15.2804,-9.6311,3.4577,-49.0524,107.3038,106.0879,4.5068,-45.6511,-114.5591,-148.5192,13.1132,-50.7296,55.2803,-6.4397,205.1734,65.7471,-50.0252
-2820.3125,-47.4115,-70.4483,-15.6547,-59.5532,16.5210,66.8903,51.1387,171.7122,-13.6786,-42.0510,17.4648,-86.5149,96.2793,39.6225,-60.3465,70.9067,-86.1703,125.3952,-49.1101,-59.5859
-2812.5000,-98.2502,-33.8284,-69.5172,-3.8256,0.6745,87.3169,-1.6605,155.1297,-177.4451,51.3848,-72.4251,8.5293,40.1126,24.1191,-39.9744,92.3967,4.0928,74.6259,-28.9559,-39.1557
-2804.6875,0.8184,34.3721,70.5305,59.7956,66.7503,43.6344,-45.5446,1.4496,-111.2986,-28.2927,-79.4274,2.4660,-79.1531,17.4998,26.3073,14.3413,103.2616,32.7551,-70.8931,-45.8377
-2796.8750,0.6397,12.3968,33.3298,60.1624,-80.4220,7.6951,-45.6685,-35.4836,-74.4018,-139.2235,104.3338,3.1509,138.3893,90.6169,-9.6682,-25.4988,67.1665,32.6356,-142.1017,-45.7754
-2789.0625,-35.8054,46.7809,105.8879,95.2850,-44.8468,79.5058,-121.0442,0.3295,-38.7399,-176.4083,-44.1733,2.5902,-158.3112,89.4770,25.1099,-4.6060,241.8292,31.2627,-37.5642,-46.9698
-2781.2500,72.2494,90.0471,217.9605,133.9146,-6.7607,80.8104,-82.9201,-35.3596,-183.5682,-248.1071,103.8265,-32.4649,23.5125,17.8238,-120.6142,-58.5397,209.9861,34.3843,-140.5472,-8.6729
-2773.4375,66.7990,68.9204,175.5269,93.0533,-12.1766,39.6108,-51.2897,-40.5450,-225.9079,-179.3142,98.3317,-74.0204,15.8825,12.6557,-88.8502,-40.2163,239.6397,64.0173,-76.0301,-13.8827
-2765.6250,59.4469,28.2353,243.1985,-18.7067,92.5210,-2.4931,-19.5529,-45.6229,-85.1433,-112.4297,18.9152,-78.4848,-101.6557,-66.4241,127.0175,-54.3772,162.4084,-13.2384,-82.3904,-56.0030
-2757.8125,36.4415,-0.1949,71.2234,-41.1252,67.5765,-27.2535,-7.4575,-33.3454,-147.0383,-100.1980,178.8560,8.3890,239.2080,-54.1715,-7.7670,-65.5998,-1.4854,-1.1421,-210.4017,-43.7822
-2750.0000,-5.4768,-3.7401,27.3457,-12.4546,97.7338,3.0734,-51.2559,-2.9608,-116.8255,-32.8519,-12.1175,-34.6442,-27.8135,49.1646,-14.4443,18.2194,97.7207,27.0579,-42.2971,-50.4686
-2742.1875,53.1599,-27.5511,127.0305,-58.2425,160.4544,27.9404,10.5019,-51.0234,-54.0355,-43.9612,12.4478,-119.1319,69.7333,75.0375,-25.5685,14.2221,86.4688,-19.1929,-124.6455,-61.6166
-2734.3750,-23.0015,-66.4655,44.9126,-28.8351,41.3770,57.0018,39.4781,-21.8870,-62.0606,-14.8796,-31.7778,-162.4243,132.5339,67.1011,39.4952,32.1439,79.4056,-25.2439,-95.7963,-32.5721
-2726.5625,-65.7157,-80.8247,74.2446,-70.9767,107.7701,49.5096,105.9216,7.6930,77.3555,14.6493,-150.5730,-169.2734,-61.2174,-13.3960,180.0226,27.6625,71.7983,-67.8469,2.5218,-40.0864
-2718.7500,-83.5828,-129.6150,-19.5696,-88.2676,51.0259,29.8562,159.2326,24.1203,20.6322,68.0136,86.4931,-115.2801,284.9298,39.9343,12.3905,46.7840,-154.9717,-154.5944,-120.3092,13.2444
-2710.9375,-129.9587,-94.0341,-106.8902,-64.0605,35.7882,51.6963,108.0549,-27.9463,-31.5789,-21.1355,-1.9471,-19.7936,83.5999,98.7508,144.2542,23.9493,-62.2307,-166.8314,-61.6231,72.0677
-2703.1250,-17.6295,-29.7844,-63.4908,-56.1566,80.2683,22.2295,151.5883,-129.3150,-24.0858,-159.6027,42.3018,25.3849,125.9728,69.2530,151.8247,-71.6602,-54.7792,-194.3660,-159.2349,79.5792
-2695.3125,15.7459,-5.6019,-138.0386,12.7958,-32.2012,57.8110,114.1769,-167.6345,-25.5563,-198.0250,114.6114,24.6103,269.4507,67.7923,77.4266,-105.1108,-21.2876,-160.8465,-195.8076,78.1345
-2687.5000,36.0143,6.9869,-5.6750,-1.3495,65.2380,7.2877,26.6674,-181.0502,144.8758,-101.5476,-10.1989,-25.2712,-40.1777,-19.7770,173.9340,-102.9271,69.1209,-140.4259,-106.4606,27.5805
-2679.6875,33.7980,-23.0252,29.2078,-3.0003,99.1899,-68.7445,24.6675,-145.9664,-4.1972,6.4175,171.5021,-63.6640,212.7300,-130.8626,61.9311,-101.3960,-38.9721,-108.5047,-178.6198,25.5170
-2671.8750,-34.7690,-14.2159,31.7391,-0.0009,65.7875,-102.1335,-9.6743,-71.2307,-75.6232,-27.9815,136.8592,-60.4127,66.3184,-202.3123,27.5740,-103.2996,34.5857,-35.9343,-36.1254,28.0964
-2664.0625,37.8146,20.9460,106.4277,2.1497,177.5512,-100.3781,-7.8645,-32.3461,-73.8737,-63.2318,101.3505,-58.0242,-7.9424,-237.6328,29.3797,-110.9565,1.2918,-69.2173,-34.4723,29.8163
-2656.2500,-58.6583,-50.1797,4.0624,-58.7524,75.2735,-91.6860,-0.0913,-24.5088,-101.1754,18.4629,145.8034,-48.6953,218.8100,-193.0201,0.1292,-71.8269,-60.0609,10.4537,-24.8637,74.4806
-2648.4375,-166.5912,-101.5284,3.2472,-130.1072,110.5590,-93.4494,36.2381,-25.1106,81.0644,91.7105,-76.2126,-121.8299,-76.8862,-230.8664,146.4383,-44.4480,43.1465,78.6787,148.3233,36.6860
-2640.6250,-77.9688,-92.5172,60.9944,-145.9221,94.4118,-182.6678,93.1315,-4.1630,100.8497,1.4999,91.3302,-174.4284,161.0003,-320.1750,20.2843,-109.5217,-8.1040,97.4581,27.0598,20.4330
-2632.8125,-103.5545,-60.1407,70.5437,-66.9461,68.0720,-210.0939,66.8405,-31.4185,37.4435,11.0748,27.6794,-164.2360,95.7211,-310.6945,29.9144,-107.8797,71.4463,107.0471,141.6009,29.9729
-2625.0000,-108.6429,-78.4098,140.6127,-106.4818,175.2569,-176.0297,137.0712,-34.1794,107.5674,8.1405,-86.4900,-203.5630,-20.0649,-240.7388,63.0578,-70.7935,66.5067,102.1398,207.6596,-9.9999
-2617.1875,-112.7785,-76.8630,-10.3702,-110.0778,97.3989,-144.0276,170.2752,-37.9905,66.6461,4.1487,56.2969,-97.9584,232.1599,-244.8444,-50.8454,-96.3989,-42.4932,63.1842,168.6618,-14.0299
-2609.3750,-93.9156,2.2547,-63.3520,-90.6777,81.5471,-124.0231,80.4862,-16.7990,124.7209,-11.8441,-69.9301,70.6339,-43.6021,-223.9584,80.2540,-102.2034,81.5256,-93.7708,222.6754,-30.0641
-2601.5625,23.6663,45.1995,-53.6153,-113.5764,91.4109,-149.3299,54.4060,-80.9108,97.5015,-112.1474,13.5464,154.9037,185.3550,-251.3946,127.0502,-186.2338,-11.7533,-117.0270,58.3836,16.5957
-2593.7500,-44.1036,40.1101,-88.2243,-74.8302,19.9261,-148.0007,92.9858,-78.3829,-11.0648,-73.8100,-22.3141,156.8094,185.0095,-213.1978,92.4906,-150.3994,26.6177,-78.6299,131.7413,54.9010
-2585.9375,-9.2310,66.5228,59.8350,-40.4378,94.1101,-147.0260,93.2195,-41.2059,27.0395,-73.8342,-58.5407,85.3485,-72.6953,-212.3582,56.5887,-119.8385,130.6515,-114.5852,166.7725,18.8459
-2578.1250,84.6480,55.9094,121.9036,-15.0541,47.3041,-122.0607,82.4638,-15.0271,-130.8518,-84.8711,151.2428,0.8734,171.6557,-149.5347,-102.3258,-92.2834,49.6789,-90.5442,49.8080,7.7835
-2570.3125,22.4281,39.1770,94.8719,-41.7741,130.4020,-76.2032,92.6202,-4.9414,-84.8489,-1.0075,-23.0771,11.2814,-78.0785,-104.8333,-18.3357,-32.6397,92.6164,-82.6091,128.7645,-19.3845
-2562.5000,7.0145,-35.2853,42.6529,-127.7073,152.3248,-128.5635,114.5944,-57.0623,157.9695,56.6505,34.4054,-3.5340,52.9996,-156.3561,39.4646,-70.6719,-98.6451,-97.8748,7.5253,-34.7599
-2554.6875,-84.7620,-113.7377,-126.9196,-182.0052,19.9020,-150.2849,55.2352,-5.5298,356.4445,144.9599,12.5473,-62.7166,138.7855,-178.2388,53.9049,-47.3843,-84.2677,-47.4734,91.9393,-20.4899
-2546.8750,-68.2927,-71.4583,1.7714,-167.0667,73.7469,-96.7545,36.1365,48.2617,337.1739,51.5145,-118.0770,-81.6692,-66.1851,-161.8756,108.6023,-33.7263,37.3686,-31.8187,248.6342,-39.9766
-2539.0625,21.5339,-36.5809,-15.1776,-146.7843,56.9558,-39.8754,93.4022,32.4047,26.2424,-112.5932,48.6602,-61.2918,210.2421,-106.1777,18.6455,-69.7756,-47.6544,23.1823,198.6845,-20.1195
-2531.2500,-5.4977,-17.2453,-43.9872,-103.3591,-7.6802,-68.8526,101.8274,76.7017,-39.5279,-67.5486,-53.4534,-89.7860,-4.1572,-98.3460,62.8374,-29.6252,65.4737,31.3396,347.9082,-12.1157
-2523.4375,20.2237,-20.1504,20.9701,-112.1912,20.4508,-115.0898,93.0122,67.7451,135.4790,-76.7632,-62.8293,-98.5557,-14.8024,-107.7803,53.7859,-44.3784,21.3644,57.2534,267.8906,-21.3684
-2515.6250,-62.8525,-57.2922,-65.8723,-89.8355,-29.2181,-91.1340,80.4092,54.9877,159.6889,-52.7840,-75.9872,-74.1409,154.8058,-84.0235,-32.0753,-36.0894,-61.5480,115.3653,255.0695,-34.4248
-2507.8125,-95.7705,-62.2829,-61.5544,-122.3438,85.2730,-87.0409,158.9628,22.3697,274.0620,24.3411,-292.0016,-69.5935,-63.4386,-80.1310,82.2216,-10.9909,-24.2926,82.6198,328.4195,-67.3362
-2500.0000,-37.7725,-78.1680,-112.3263,-133.9591,108.6815,-101.0568,218.4341,9.6367,223.3321,47.3544,-123.1033,-83.1640,216.2604,-94.3568,-41.5815,-24.8366,-142.1414,34.7740,175.6605,-44.3488
-2492.1875,-40.7802,-31.4257,-152.0995,-101.5659,69.0920,-104.0775,179.9115,79.8962,0.5880,155.3557,-126.2033,-48.7407,27.9953,-97.5889,-81.3842,40.7320,31.0170,66.9356,242.9040,-47.3581
-2484.3750,60.3159,24.3130,66.2400,-70.0774,140.6145,-107.0004,140.4895,40.2545,-39.0410,41.4476,-92.2068,-88.2367,-50.1781,-137.7283,-47.0722,-12.0049,132.2887,27.1954,133.2556,-87.2732
-2476.5625,67.5736,35.6960,147.7349,7.5494,37.2834,-99.7829,37.2298,10.7654,78.4758,-98.3155,-12.0359,-80.6098,139.8481,-130.7323,-113.6264,-73.0657,104.7057,34.6074,-0.2457,-80.0435
-2468.7500,99.2861,80.9246,254.6891,39.6107,71.4142,-103.1249,-2.5756,-65.2710,185.4543,-64.6257,-235.4212,-83.5602,-159.6762,-134.3003,-6.7270,-78.8294,206.5903,-3.5321,102.7335,-83.3687
-2460.9375,120.3578,27.0880,276.0114,-43.9968,129.9230,-82.1295,18.9815,-43.9579,-87.2049,-80.5860,-67.4424,-136.1915,81.1802,-39.5357,-58.4774,-35.1088,87.8176,88.6697,53.0754,-62.3480
-2453.1250,-15.1695,-65.5889,97.7265,-109.2209,98.8350,-2.7482,61.9573,71.7569,-191.4728,34.8562,-136.0466,-202.4437,48.4814,75.6104,-89.8329,98.6073,93.4363,199.2693,164.8367,-56.9246
-2445.3125,-16.9973,-80.8667,135.1527,-109.7631,172.4681,33.3255,62.6542,109.1720,65.9723,-2.0040,-245.9660,-239.0224,-99.5169,75.4408,-52.4715,102.6550,56.7635,162.5611,128.3194,-93.8038
-2437.5000,-23.3749,-107.3179,53.0287,-80.8620,17.5531,61.8458,17.8147,138.0338,94.8850,26.5682,-144.4307,-210.1774,111.9901,66.7176,-97.6541,100.4003,-90.4687,156.3066,-18.7519,-65.2308
-2429.6875,43.5834,-48.2317,13.2512,-48.6171,-21.0135,58.7216,-57.6762,172.2389,129.1660,171.4813,-440.5631,-177.0002,-150.1475,26.3499,83.5279,138.7708,-23.3300,153.4102,119.5456,-68.3086
-2421.8750,101.4554,-53.3543,-35.6086,-96.4803,-33.6683,8.4936,2.7448,159.3313,116.3443,194.2795,-380.7880,-153.9429,19.6336,12.8708,107.6072,118.5250,-106.2830,105.4238,35.7562,-81.4886
-2414.0625,17.3758,-39.2313,-161.4133,-39.2987,-122.2665,30.3068,-10.7736,107.4677,101.5605,143.1159,-247.9405,-57.8526,40.5093,34.4294,18.7095,82.7106,-49.1822,21.5003,94.0327,-59.6180
-2406.2500,99.3939,-2.0171,-2.1052,-28.0265,0.2609,41.2113,0.8181,44.7013,75.8838,7.0439,-237.0053,-120.6837,-133.5249,45.0721,29.9190,38.9404,-2.9630,-37.3180,140.4396,-48.6544
-2398.4375,84.2735,-21.5249,-56.9398,-42.9186,-17.3449,23.9519,57.2762,27.7767,-124.9373,-11.1837,-35.2104,-100.6950,179.3412,64.5476,-134.0193,31.5042,-87.9026,18.7139,90.6960,7.1550
-2390.6250,-12.5566,-21.1033,-46.4781,-69.5244,30.3545,-3.0209,104.0432,74.1562,-41.4328,71.8878,-208.1246,-91.4284,-106.4769,37.3107,-87.6391,77.0113,61.4608,27.0503,311.2710,-19.7354
-2382.8125,68.2689,-16.0557,77.6458,-58.4934,80.7173,9.6476,118.4657,88.1866,119.7522,-24.3987,-159.3817,-151.5371,-56.6285,49.7124,-110.5972,54.7680,36.4706,2.0309,145.5004,-79.9746
-2375.0000,43.2482,10.2727,51.9143,57.6726,-17.7783,57.4631,19.0410,62.3693,20.0768,-87.5295,-111.4637,-103.5157,63.4187,23.2625,-62.4113,12.0434,47.6248,-21.8427,15.8782,-69.0566
-2367.1875,77.2277,26.8840,124.1844,55.8231,90.7325,18.2794,17.6263,60.5503,18.4020,-15.6507,-223.5557,-142.5183,-123.5438,-15.1928,45.7838,26.9471,116.8027,-129.7247,49.2799,-71.1353
-2359.3750,127.8637,-21.4167,66.1168,1.6109,69.8984,-2.2616,33.8666,39.3787,-38.6114,109.8756,-23.9815,-162.8994,112.1832,35.9962,-122.3781,65.0949,-43.3684,-113.9625,-110.6714,-55.5612
-2351.5625,59.2462,-28.8437,-4.1988,-30.8517,-0.1949,35.9451,0.8550,41.9558,1.1301,75.1510,-132.6546,-160.5462,-107.3265,111.9274,-82.7997,93.1788,100.2311,-5.4438,33.1437,-53.2366
-2343.7500,53.8932,-6.9881,63.7601,33.9347,30.9862,104.3952,-40.8979,36.7728,32.1218,-77.3406,-101.0797,-165.9630,-76.5815,69.0964,-50.9627,36.3764,95.0932,59.3232,28.2204,-58.6660
-2335.9375,-85.6969,-26.9326,-9.5241,105.4611,-79.0760,140.5869,-77.8906,110.3276,-78.1425,-115.1015,-64.7316,-129.6518,68.9660,105.0093,-197.3843,67.5800,95.7014,131.8440,100.0420,-22.3435
-2328.1250,-68.9278,1.9930,9.5564,87.3235,-21.7740,160.1204,-20.5312,93.2239,-95.0434,-58.5159,-229.0370,-111.0163,-206.1381,124.2628,-105.4527,97.6274,147.6703,147.7222,258.2227,-76.6764
-2320.3125,19.3039,-9.5043,-6.9145,34.6219,-38.0239,106.0958,36.2794,39.5651,-111.4967,-38.4802,-25.8615,-90.9487,33.2518,106.9494,-85.0719,56.4040,25.0775,96.0504,65.8511,-93.5610
-2312.5000,4.2390,17.9277,-59.6814,54.6117,-91.5588,88.7652,-53.1995,22.5993,55.7453,-18.7421,-115.9879,2.7950,-57.6513,126.3329,-64.9825,49.1740,81.2005,45.0729,50.1937,-73.7452
-2304.6875,58.8430,27.4491,70.2256,39.2362,-34.4205,71.0835,-107.0097,6.2772,149.6370,-36.3814,-96.4498,-14.8420,-112.8776,71.3647,-45.2375,17.2968,64.9718,-40.2630,-34.8173,-54.2780
-2296.8750,18.8010,1.4142,-48.5295,69.1986,-151.9491,62.7614,-114.4719,-39.7020,-6.1149,28.3164,42.4520,12.8547,135.2831,62.7555,-91.1424,7.2602,-9.9056,-81.2507,-110.4753,10.5513
-2289.0625,-35.2037,24.5311,-31.2369,121.2011,-134.4348,42.4862,-96.8957,-59.6361,48.2113,45.0893,-124.6067,-7.4158,-178.5172,79.1893,37.0174,25.9513,147.2885,-99.1886,47.9397,27.4338
-2281.2500,-10.3203,15.4408,31.9620,145.1017,-73.0157,31.1051,2.5808,-70.6745,110.4352,-113.2155,11.2483,-55.8142,29.6184,67.5210,-47.9305,-30.8378,31.3755,-40.2227,-33.7367,16.2168
-2273.4375,-108.4998,14.8641,5.1202,188.9501,-62.6356,40.6634,-23.9786,-23.7682,83.6093,-67.5721,-15.9529,-9.2833,-35.2846,75.7963,-111.9139,10.1588,74.4263,38.6852,10.5586,-11.0467
-2265.6250,-75.9659,22.6689,150.9954,150.4858,120.4476,37.9117,12.1680,-62.1710,119.4917,-69.2337,-91.4407,-11.0763,-148.4723,36.7583,-39.1865,-6.4059,36.1769,0.2816,-27.4461,-49.6060
-2257.8125,-38.2695,16.0352,115.0134,117.1579,48.6631,2.3069,13.4497,-98.4225,47.5115,-177.7359,56.2490,26.2713,146.5228,37.8754,-38.3228,-71.2261,-66.9235,3.0235,-130.3058,-12.0083
-2250.0000,-55.8126,19.8186,60.7951,30.5752,-6.3684,20.4545,-41.5241,-115.9323,139.2858,-159.5040,-109.3164,81.3575,-93.7402,55.7459,127.3018,-67.4018,22.7483,21.5047,-5.4008,6.3405
-2242.1875,34.6115,5.5428,43.5358,-21.0665,-23.4478,-34.4494,-21.5468,-96.5011,196.0175,-31.3344,58.0934,63.3784,35.9840,-36.4418,73.8753,-72.2447,-98.6228,5.9250,-125.5613,25.6438
-2234.3750,-53.9051,-34.9841,-86.6814,-3.6677,-153.4839,-19.3018,-41.5233,-80.0259,27.8016,131.8913,73.5583,78.4258,87.7751,15.4234,52.4967,3.4825,-115.9306,22.3983,-108.6666,78.0047
-2226.5625,-118.6987,-45.2160,-45.2043,1.4170,-37.8130,-14.4575,-35.7897,-111.8620,33.2828,136.8070,-68.2765,83.1529,-54.7262,56.9868,204.8266,21.9724,-74.5338,-7.4230,-67.0606,83.0720
-2218.7500,-98.9986,-44.8314,-135.2445,20.9879,-90.6430,41.8839,-51.5467,-129.2090,-19.7348,82.2248,61.4006,139.3681,221.3108,76.0569,77.6495,-6.6136,-195.6436,12.2722,-152.9513,102.6462
-2210.9375,-163.1092,-56.0363,-202.0796,26.7521,-121.2629,84.4265,-82.1101,-49.3597,22.4718,87.8448,-6.7334,107.7717,-30.4686,155.3261,120.6767,59.4186,-48.5345,-16.8351,-6.6249,108.4195
-2203.1250,-60.9546,-25.2009,-132.6405,-12.2330,-87.6313,80.2200,-48.4309,-17.2721,18.9169,83.6974,63.4098,140.4058,1.0314,113.8523,42.9421,47.4686,-123.1675,-54.6985,-80.0724,104.4493
-2195.3125,-69.4855,7.1583,-214.8935,50.0785,-169.7109,107.3176,-57.4603,10.1067,-172.3583,73.8476,127.8678,204.3276,101.8438,103.6770,-2.4933,46.3641,-130.4898,-27.2617,-52.2154,131.7849
-2187.5000,-85.1999,45.6346,-120.3209,69.1808,-37.9845,54.1983,-72.7003,-41.7132,-151.8211,-15.1982,38.1315,224.0318,-134.5486,87.2877,91.8836,6.0370,-40.0035,-9.0265,37.4474,115.9171
-2179.6875,-56.5056,35.8455,-53.3466,61.6627,-8.8608,9.4735,-42.5326,-123.1246,-194.8957,-58.8444,104.8234,180.1106,151.4954,42.2995,-25.3586,-51.2585,-83.1240,18.6174,-38.4849,108.4489
-2171.8750,-97.0120,48.3472,15.4309,91.9262,24.0695,5.5571,-10.5518,-126.7371,-16.1761,-27.6851,-118.6968,101.9512,-73.6688,1.1223,-65.7910,-35.6594,87.5722,84.0721,96.4151,67.7788
-2164.0625,97.0271,91.6866,185.7649,40.7252,157.5709,-45.8087,12.9916,-140.8086,44.1223,-150.9819,50.3440,50.3195,-89.2530,-13.5089,-116.6711,-90.7943,71.8089,33.0799,-25.1327,16.6606
-2156.2500,285.7527,138.1207,161.7839,18.2232,23.7643,-33.4753,-10.7701,-128.1870,-236.8718,-175.5782,394.0941,62.3876,33.8908,-1.4416,-250.8504,-107.0467,14.7491,10.7929,-115.9804,29.2465
-2148.4375,339.2397,122.9366,255.5524,0.4739,80.7023,-14.3892,-27.7882,-109.8230,-327.1289,-84.4165,339.5993,-102.8061,-241.2272,-19.6140,-121.2609,-56.7861,102.4494,-6.7545,6.9242,11.5859
-2140.6250,234.3861,2.8031,219.9636,-34.6172,45.2664,-50.6449,10.8301,-72.8155,-215.7404,27.3886,377.7720,-212.3557,53.3400,-56.1169,-120.0367,-27.1758,-72.1995,29.3466,-62.5471,12.5879
-2132.8125,21.3347,-85.0380,34.1756,-36.9109,-30.3819,-16.0996,-27.7652,35.9744,-34.5287,171.9882,191.7435,-215.1103,-23.3040,15.1813,-49.0123,80.7882,-39.0259,62.2388,76.7919,10.3950
-2125.0000,21.6061,-81.1136,36.7020,-71.9157,46.2708,-14.2581,48.9274,74.0531,77.9888,136.9042,120.0319,-176.5823,-95.6417,16.7834,27.3070,80.1030,-73.5496,27.4243,77.4175,-24.4978
-2117.1875,2.9790,-69.3911,-94.6876,-55.8267,-10.9942,1.6885,138.7086,90.2331,-15.4103,42.9492,210.4415,-88.9704,178.1464,32.4985,-30.2701,49.4428,-126.9811,43.7047,-10.8549,-8.2858
-2109.3750,-63.9425,-50.6317,-52.3778,-17.0467,67.4384,6.3369,144.1786,95.1035,62.9127,10.6964,-5.4506,-121.6660,-112.3780,-0.0841,47.8800,49.1918,17.2947,46.6805,168.5748,-40.3686
-2101.5625,9.4905,-68.9431,-11.7157,-48.9227,71.2134,9.3363,147.9975,98.3174,-43.4125,13.7837,108.0276,-191.0233,74.4877,2.6810,-21.6326,51.5705,-49.0880,50.0197,101.3371,-37.0894
-2093.7500,-62.0865,-92.4525,-124.0628,-50.8042,-4.0073,43.3454,108.8156,169.5449,-118.7550,157.8815,68.4917,-157.4031,71.3516,36.4525,12.8464,129.9338,-14.4574,14.3836,172.1224,-2.8094
-2085.9375,-29.3645,-45.0903,-17.1012,-18.3928,30.0939,75.6628,32.9465,92.0851,25.1992,44.2890,65.2518,-89.5099,-116.4847,68.5335,46.6192,79.4811,17.4626,-23.9519,133.2064,-6.2340
-2078.1250,-44.9931,-25.4272,-33.5086,36.6657,-23.1645,95.6349,-20.2719,2.2761,-65.1972,-83.6673,233.6884,4.0378,124.3593,52.2778,-80.9606,-4.4312,-67.9818,31.3559,-22.0651,13.9982
-2070.3125,-60.6752,23.7875,-11.9685,90.6764,35.5261,43.5553,1.4534,23.4035,-152.6394,-25.6863,70.0756,24.5659,-112.8581,-1.0209,-22.5727,11.8309,22.5323,15.5931,138.6270,-1.8154
-2062.5000,-3.0483,-11.9039,48.8702,41.9801,95.5092,-7.2322,98.4772,82.8187,-129.7835,70.5914,130.7765,-63.5889,21.2643,-15.0185,-72.8851,54.5590,-61.6698,-32.8734,55.6040,-15.3197
-2054.6875,4.3819,-15.8477,-54.4947,49.0785,-43.7252,36.7744,33.2859,127.0232,-122.1169,114.6871,138.2731,-56.9472,28.1893,64.7871,-138.3928,105.6230,-18.0572,9.4540,28.3819,-8.0168
-2046.8750,72.2846,35.0085,55.6105,46.6340,-6.5151,35.2342,-77.4662,89.6683,-12.0004,4.2323,101.2165,-57.8649,-193.4399,-8.9485,-65.4443,33.3728,85.0166,7.2151,61.5960,-45.2632
-2039.0625,106.3386,18.0497,53.8558,9.3522,-45.1828,-40.1353,-42.0857,50.4597,-50.7606,-35.0789,246.3308,-60.6361,98.1161,-85.5041,-30.3462,-35.6139,-21.7691,75.1192,-45.0670,-47.3500
-2031.2500,5.8863,-3.4597,23.5904,-55.4277,-2.3634,-71.9962,0.7728,92.7433,-8.0246,43.1344,67.9462,-18.9144,-80.8511,-80.5493,122.2587,10.7514,53.9608,80.5161,65.7754,-41.9274
-2023.4375,2.9014,-7.9733,91.7815,-59.7608,102.8987,-40.4113,70.0727,51.4638,-49.8436,1.8134,63.0381,12.2533,60.6529,-49.1429,117.2996,3.8435,-18.8678,77.3724,-112.9622,-10.0473
-2015.6250,-89.1858,-48.9722,-6.1337,-46.1939,5.0444,45.0802,45.2469,26.0704,-109.7612,-96.6043,149.0436,23.3245,183.0574,36.1799,56.2330,-0.1517,-40.7913,126.1447,-168.8091,38.7395
-2007.8125,2.8815,-14.9276,17.1056,-60.4734,28.3384,67.7283,-42.4474,-25.1715,22.4717,-110.8765,62.1967,8.5378,-89.4002,58.6615,152.3235,-16.7067,16.4322,77.0748,-77.5089,24.6785
-2000.0000,55.6592,-15.5336,-1.9718,-78.0581,-27.6947,48.0853,-24.4588,-44.7062,-33.6203,-57.4356,264.0804,62.4419,185.8703,38.8542,-13.9040,-32.3063,-105.6564,24.7118,-199.5096,42.3256
-1992.1875,-46.0035,-7.2350,-106.4975,-39.1093,-23.1827,51.9967,-55.9306,-40.6799,7.8235,-16.4282,120.5126,138.8754,5.6639,79.6113,64.4150,-3.9683,-32.1748,-7.0991,-54.9327,46.5261
-1984.3750,-49.7087,11.1484,-38.0656,27.7789,47.2761,47.8691,-59.4533,-116.7018,188.2090,-57.4751,43.9108,134.2486,1.4094,38.3317,97.6828,-57.1068,-0.7509,-114.9514,-128.4097,42.6782
-1976.5625,-102.1249,3.3054,-57.3533,43.9682,-9.9839,26.0528,-42.6847,-138.4060,93.9013,-114.2186,96.6094,149.9162,200.4646,16.3734,39.2373,-90.7310,16.9687,-133.4915,-180.5798,95.1356
-1968.7500,1.1579,73.0326,48.0536,41.8502,23.4594,-14.0527,-83.2221,-142.3972,-18.7011,-81.2474,18.9959,145.2700,-59.7951,-23.8755,109.4928,-88.9254,156.3863,-205.3350,-112.0409,128.2933
-1960.9375,174.3857,74.6452,44.4010,4.6790,-54.1518,-55.2091,-87.8117,-146.4405,-23.3676,-49.3156,235.3585,102.5800,191.9415,-65.1690,31.6955,-119.8846,-22.2670,-209.2359,-220.5729,160.4048
-1953.1250,113.2050,37.4821,-55.6611,-21.8872,-154.1712,-82.7577,-187.8070,-136.8935,23.5598,33.2197,209.3243,74.4975,53.2668,-18.8483,77.5152,-78.7362,23.6844,-128.5328,-34.5228,170.1166
-1945.3125,107.9871,50.8871,49.2318,-27.5025,-85.2494,-87.3531,-154.8627,-178.4065,18.4299,-8.2847,131.2617,69.3685,-24.4508,-60.5679,147.2892,-107.6232,51.5747,-64.8876,-40.5603,128.7817
-1937.5000,-14.6232,-0.4828,-39.2915,-10.5214,-64.7461,-67.3468,-98.3388,-122.3237,-34.1088,-61.1759,187.8152,88.8539,252.4598,-41.6715,56.6505,-97.4413,-33.9442,-11.6404,-127.0223,112.0562
-1929.6875,-33.6769,24.6539,50.7368,-29.9835,25.3105,-50.7856,-80.2781,-67.7067,55.8965,-117.5201,21.9143,68.9074,-61.1025,-25.2135,74.5637,-68.7671,122.1019,39.1544,-39.9490,92.8853
-1921.8750,81.4264,59.3303,96.9175,-21.2876,-1.5018,-6.0681,-34.0839,-132.9582,-80.9611,-182.7200,215.1829,77.1150,94.5133,-16.5926,-26.3776,-109.9462,60.2881,48.1054,-136.7616,101.8700
-1914.0625,47.7369,71.3267,-10.7110,15.6058,-72.1376,32.8602,-68.7180,-94.0119,-152.6275,-106.7055,144.6478,115.5201,22.3184,59.2419,-97.1159,-45.3656,133.6827,15.2630,-64.3659,104.0605
-1906.2500,79.1595,91.9721,59.7715,10.5944,-2.6841,66.8929,-35.2716,-133.9623,-9.1939,-183.5791,-42.7782,112.0286,-163.7863,93.1918,9.2381,-63.8541,164.1754,-59.4899,-67.8681,64.3541
-1898.4375,47.4327,60.0175,-46.9164,13.4432,-71.4070,69.7918,4.0125,-131.0633,-5.9303,-217.5908,71.6660,150.4066,168.9869,96.0144,-24.5739,-91.7659,62.5048,-126.4001,-205.5408,67.5003
-1890.6250,46.2487,75.4090,-12.0711,11.8488,-36.5909,31.2530,-33.1737,-95.6111,-43.1177,-72.0366,-40.3468,148.3431,-89.7199,57.4099,85.1635,-42.6856,131.3890,-162.7605,-101.6630,66.1987
-1882.8125,130.2734,57.1750,38.9505,-9.5448,13.4067,-29.0726,16.8283,-118.9471,-29.1134,-94.2657,121.8571,88.4816,70.7937,-2.9785,99.0931,-92.6227,-30.5621,-253.9200,-157.6063,80.1040
-1875.0000,25.1311,-18.5894,-145.2090,-43.0911,-96.7638,6.4694,-19.3321,-46.4249,79.7403,13.3721,120.9124,86.4807,143.1587,32.4997,134.8768,-35.7922,-99.6763,-289.2322,-51.7024,115.8661
-1867.1875,-22.7649,-66.3070,-158.1205,-92.3835,-72.6928,-6.7337,-106.2599,-23.6609,324.8611,184.2680,-38.7783,72.7438,-90.2420,56.2394,268.9208,28.8170,-112.5367,-337.3094,5.4429,102.8798
-1859.3750,-1.1050,-93.3471,-246.4852,-106.1156,-125.0932,-57.3833,-84.6570,-75.3485,272.5086,279.7130,56.0986,56.5703,186.9363,40.5473,143.5006,24.4768,-195.8450,-280.8381,-112.8899,124.4477
-1851.5625,-87.2852,-93.3680,-227.6952,-122.6904,-106.3606,-38.8629,-28.9341,-19.8866,218.2911,261.3040,-33.8837,37.5499,-50.7640,22.0360,162.2245,55.2120,-71.9825,-191.2139,45.9143,143.1663
-1843.7500,-46.4972,-73.2063,-74.9416,-117.3132,-63.6859,2.6176,-23.2782,-14.4810,150.0026,156.8390,44.1107,6.4886,26.5012,-8.5122,130.8823,27.2801,-31.1773,-150.6384,-53.3613,148.8372
-1835.9375,-51.2546,-48.4924,-116.7501,-52.4792,-178.5677,-2.4442,-65.1878,-19.6340,-37.8598,151.8346,113.5599,36.9038,132.2173,22.4001,15.9790,35.0726,0.0673,-50.5995,-93.2088,143.9574
-1828.1250,-5.1613,-27.9326,-64.7092,-75.7877,-127.5941,-25.6596,-50.2512,-42.9492,86.1305,165.6832,-19.1513,14.1808,-184.2388,37.1733,103.9336,42.0130,45.1550,-39.7039,-12.2245,84.9271
-1820.3125,-14.8214,-74.5128,-111.4391,-85.8351,-100.3933,-35.6217,-24.0773,-17.0194,150.3575,119.7958,82.4070,3.7270,99.5897,27.2064,131.1262,18.0639,-139.5333,-14.5561,-127.0127,75.1528
-1812.5000,-113.9330,-104.6318,-179.6456,-116.3304,-131.6670,6.9797,-18.3793,62.4730,192.1268,161.4779,-58.4903,8.8373,-6.0531,32.8056,209.8780,65.8168,-98.6773,-8.8542,53.7537,80.9326
-1804.6875,-88.9460,-85.8340,-116.7668,-91.7266,40.1351,-4.3011,43.3928,51.0823,107.9961,114.2721,-33.2817,-2.9333,-17.5941,21.5291,198.7236,52.0109,-109.7418,-89.0516,7.6027,69.8165
-1796.8750,-72.3212,-67.4515,-174.2560,-75.4620,19.5519,-24.9136,96.7896,-42.6407,13.5004,56.7254,57.5830,49.9661,219.5210,37.9314,68.1979,0.3784,-128.1654,-108.5899,-80.9116,86.3549
-1789.0625,-129.6352,-54.5054,-48.6961,-97.1388,108.9965,-9.4640,75.2165,-137.3136,140.0332,35.2471,-109.5064,64.9259,-60.3489,16.4024,120.7218,-27.1220,25.4679,-165.0868,-32.3807,64.9413
-1781.2500,-63.4431,-55.8226,20.3612,-101.3079,104.9134,-50.5033,71.1180,-141.4836,99.0467,31.2819,32.9254,60.4032,156.3027,12.3869,42.7441,-42.2523,-82.4158,-169.0970,-141.3818,61.0283
-1773.4375,-69.6242,-31.1985,-58.9454,-73.8185,24.4569,-56.8846,64.6447,-74.9959,55.7265,61.9925,-10.0136,53.5490,76.5877,-30.9566,73.4228,-27.5502,15.3448,-140.4515,27.2577,54.7661
-1765.6250,44.6972,8.1219,61.2493,-100.8206,108.4924,-119.7465,37.6581,-66.0044,175.8952,-1.7870,-36.4506,-10.7942,-61.6366,-130.7820,119.5921,-80.1035,59.5994,-97.3044,71.3765,28.0045
-1757.8125,15.3220,-33.0575,29.7229,-95.5207,39.8131,-114.2955,42.9670,-23.7077,34.3383,-33.2595,80.4266,-79.8212,201.4575,-89.2923,15.0375,-57.1919,30.1339,14.1567,41.7755,33.5441
-1750.0000,34.4560,-50.1259,87.6894,-145.7125,97.6285,-20.3407,26.7542,-2.9110,-55.7146,61.7736,-155.2106,-168.3290,-72.9816,42.7072,72.9883,55.8287,119.1653,33.1265,165.6640,17.5797
-1742.1875,82.7882,-33.6468,138.8378,-133.6878,75.6394,-5.1778,41.7275,-24.9135,-186.5826,76.0049,6.3689,-118.6090,88.8041,20.9248,14.1218,38.7671,62.3718,-23.7056,-32.2834,-4.1887
-1734.3750,104.2992,53.8684,88.1747,-6.4546,-86.1590,-55.8076,-46.1056,-38.7158,-237.2784,26.4490,177.1489,15.3345,37.7868,-29.6405,-73.5475,-19.3817,118.7782,-2.3324,-81.0601,-17.7580
-1726.5625,150.9203,82.5993,211.6331,38.8965,0.1317,-80.3202,-70.8662,-26.4274,-115.8964,-72.0192,116.0344,-83.5890,-171.1470,-91.0907,-98.1100,-52.9489,165.2862,78.1297,0.2212,-42.2266
-1718.7500,123.0915,34.3705,107.6370,45.8096,-30.0561,-36.2681,-27.1104,17.4151,-108.9813,-138.9407,197.4878,-150.9509,130.4885,-120.9629,-128.1453,-71.6307,66.3212,191.1506,-63.9770,-35.1396
-1710.9375,69.3509,8.7922,89.7322,27.8266,-11.1533,-54.1017,-45.2694,35.3652,-15.9646,-45.7197,-3.9915,-205.2168,-145.8149,-64.7193,1.9154,-4.9574,154.4542,243.2758,58.9275,-52.9555
-1703.1250,97.5646,7.1626,155.7735,19.7950,17.6875,-61.9741,-16.4880,-8.7260,12.9810,-90.5246,61.4937,-177.5231,-7.1524,-35.5127,-43.0811,-30.4441,75.5216,165.3417,-54.2404,-60.8235
-1695.3125,71.1202,30.4849,54.1366,64.1285,-47.1503,20.5212,-7.3711,36.5481,-161.7341,-80.9607,71.3186,-94.4675,75.8596,10.0667,-144.7321,3.6152,84.9256,104.7655,-45.0633,-51.3412
-1687.5000,159.0732,64.1300,109.8777,45.8684,44.3974,39.4250,-62.8623,55.2440,-70.0415,-24.9910,-56.4764,-75.9936,-200.7502,29.0638,-14.9698,30.5646,102.7072,-54.4080,-28.4932,-69.4643
-1679.6875,163.2663,8.8329,38.8318,14.8614,10.1655,5.5915,-61.1115,-15.7956,5.8781,50.2349,92.9936,-74.2470,132.9151,-4.6753,-49.9706,-4.5196,-70.2910,-121.3177,-200.6906,-30.3426
-1671.8750,20.1416,-6.5708,-2.5286,12.5570,5.6265,1.4702,-101.6767,-20.1288,38.4855,120.1704,-20.8488,-4.7741,-55.7413,-8.6971,56.7187,19.6302,-1.5864,-123.5214,-28.1877,2.4734
-1664.0625,88.3778,7.2860,69.4651,10.6122,77.4297,-0.2934,-30.9049,-59.1141,-37.5703,8.4490,14.6647,-43.9259,-21.0473,26.6476,90.7357,-9.7530,-39.5370,-125.3736,-65.3647,0.6365
-1656.2500,22.5622,-22.6384,-0.5963,14.6364,-29.8301,3.9030,9.7949,-18.1486,-179.6945,-24.3077,92.1167,-77.1037,166.5683,30.9648,-15.2979,-1.3603,-35.5373,-51.2794,9.3959,4.7450
-1648.4375,20.4011,9.7228,71.9973,12.3211,43.5499,3.7659,-27.8704,54.4704,-71.1842,-24.4125,-91.7785,-77.6087,-166.1606,-6.0469,21.3206,22.4781,33.0858,17.4530,182.7672,-32.4985
-1640.6250,39.1341,-19.0960,19.4662,-4.0788,-84.2023,23.5461,-44.6575,74.9942,23.2152,-151.6107,39.2335,-94.1861,75.0243,13.8594,-69.1696,-17.3170,-89.4054,142.0786,95.0118,-48.8394
-1632.8125,-46.8797,-43.1648,-33.8260,-20.2191,-173.7190,7.5877,-61.2180,132.7710,153.8671,-93.5428,-49.5190,-110.4916,-88.5713,-1.9724,-48.4050,16.5581,0.3553,195.9492,219.5036,-64.9338
-1625.0000,-0.6471,-59.5103,52.1217,-79.0989,-14.0107,-16.1160,24.4531,108.8096,166.7453,29.7879,-110.0041,-171.5205,-112.8965,-61.5413,0.5919,35.8951,-23.6535,172.0768,160.2138,-88.7809
-1617.1875,-84.1745,-78.0842,-73.6933,-22.7171,-30.0679,5.4399,82.3498,130.1112,-33.1488,88.3827,-14.2520,-113.2717,92.0038,-3.8465,-88.1735,82.7910,-72.4159,193.4661,40.1698,-67.3837
-1609.3750,-119.5473,-62.2074,-73.3632,-22.1810,43.0249,43.1516,45.3915,130.5643,-69.9034,89.1296,-197.3590,-75.8567,-165.9548,34.0080,59.2028,110.0456,-2.0393,194.0132,75.2639,-66.8422
-1601.5625,-114.4829,-83.2150,-31.6063,-17.1933,47.5570,-24.6763,86.8831,61.4777,44.7784,94.3294,-119.0165,-70.9788,96.5591,-33.6694,-8.9785,51.7921,-138.2341,199.0153,-96.1953,-61.8519
-1593.7500,-137.4851,-91.6361,-91.9144,-5.2463,24.0286,-11.5321,26.3132,75.3593,132.4200,181.4784,-178.7440,-94.1334,-1.0042,-20.3711,-106.1978,89.1401,-90.4888,210.9615,21.2994,-84.9166
-1585.9375,-51.4450,-59.2490,34.8138,9.7646,77.5297,5.6813,5.7756,129.2985,75.0837,198.6894,-198.4055,-151.2122,-168.4975,-3.0041,-89.3813,129.2672,-5.7169,120.9529,0.8123,-104.9353
-1578.1250,-100.1204,-75.5379,-54.1794,67.0894,-48.6971,27.2058,-46.4834,150.5417,-50.9686,147.2195,-28.7826,-92.9651,110.2944,55.6812,-105.2672,125.4378,-54.6502,72.2507,-154.3841,-83.6584
-1570.3125,-43.4959,14.6975,-30.8738,123.7208,-99.6317,88.0379,-134.4590,63.0932,8.2868,23.0575,-152.8745,3.6004,-198.6277,116.6735,28.1449,77.2261,107.7009,-12.1449,-97.3005,-97.0892
-1562.5000,150.5749,92.7600,59.8652,141.8167,-82.1392,106.3352,-190.0048,-28.8930,-84.0313,-68.6431,49.4916,58.6340,2.9208,61.1301,-64.0181,-16.8865,54.4828,-64.0799,-290.8009,-79.0703
-1554.6875,139.1402,128.2326,8.1017,165.4288,-134.1553,54.1462,-205.0678,-44.3722,-318.8661,27.1661,71.3369,117.1882,-12.0656,46.1033,-152.6843,4.8344,112.7701,-5.5136,-197.8070,-20.5570
-1546.8750,124.8579,110.4772,30.4902,116.2001,-76.0215,40.1134,-182.9895,-21.6977,-186.5709,49.1238,-52.6608,65.9131,-210.8936,-3.7645,-20.2145,9.4036,134.1945,50.2045,-107.6867,-34.9030
-1539.0625,24.0677,22.5782,-75.6376,121.4815,-180.3943,9.5838,-178.4148,20.4856,-109.7790,91.5809,-10.1703,-1.8404,50.7724,37.8774,-52.2500,44.3159,33.1108,161.4328,-172.0738,-29.7572
-1531.2500,-95.6685,24.1868,-52.7075,177.8127,-158.7113,69.1085,-192.7848,79.7208,-123.9357,115.0844,-170.6445,-15.5294,-184.5280,61.5721,-29.2320,103.8741,195.0697,147.7108,-11.4283,-43.5726
-1523.4375,-0.7086,73.7441,82.9185,166.8546,-60.3418,95.3405,-168.4655,31.6615,-171.4222,30.2915,-108.4031,46.5031,-122.0991,87.9803,-151.5343,72.3910,148.7102,101.6884,-94.1076,-54.6921
-1515.6250,2.8909,84.8624,13.1913,170.5576,-167.3312,136.2347,-165.5169,72.2625,-204.2718,-75.8316,-67.5306,87.2076,-82.0481,129.0526,-184.1902,62.4999,116.9979,175.3164,-91.1382,-51.1688
-1507.8125,145.1383,176.7888,126.1047,171.9190,-54.6814,139.7919,-126.9259,75.5211,-275.4715,-183.2997,-138.0024,90.5813,-299.3387,95.7861,-145.1985,28.8244,222.9119,176.5884,-54.5448,-85.0053
-1500.0000,220.0738,183.4654,130.6908,141.9937,-13.3527,108.0629,-85.6488,43.4883,-454.9897,-141.0657,-21.7794,132.6747,-1.9198,64.2352,-286.5158,10.3670,87.5183,146.5632,-225.2608,-80.1470
-1492.1875,99.0534,138.5460,40.3214,161.1261,-66.9769,92.3958,-176.3328,27.5127,-250.4620,27.2224,-185.5249,152.8321,-239.4740,122.7477,-156.7780,71.8215,106.1695,95.5816,-101.9303,-96.2453
-1484.3750,36.5276,76.4660,49.4319,133.7669,-22.1187,102.2371,-130.5311,37.0484,-95.4419,0.0187,-175.7614,89.5113,-193.5041,131.7776,-110.5503,72.3076,43.2905,103.1057,-130.1243,-123.8462
-1476.5625,-58.5605,56.8212,-87.0228,144.8552,-121.8191,149.5409,-120.2885,122.0498,-121.9786,-25.7302,-90.5617,173.6549,-36.1061,143.2637,-210.8665,88.3031,-17.1456,149.0894,-119.8624,-113.0030
-1468.7500,-55.8909,101.5761,-119.7179,147.6961,-80.7689,117.5969,-116.2956,125.8105,-117.7974,16.2690,-233.6130,252.5636,-289.9551,111.4992,-95.4444,87.8984,21.1514,116.8266,23.1276,-145.4144
-1460.9375,4.0208,101.7625,-168.1735,136.8037,-92.4840,106.9119,-55.0684,114.8259,-203.3870,5.5153,-96.4162,277.7519,-43.5442,101.0023,-217.7961,66.2212,-131.3113,176.8203,-94.6472,-156.5774
-1453.1250,-79.4252,114.3378,-180.9733,195.5705,-142.5478,131.8823,-68.2017,176.4889,-216.3078,103.4171,-219.5940,339.6082,-203.5187,126.1655,-230.4898,134.1032,-74.1186,164.4631,-72.7751,-169.1031
-1445.3125,-12.4245,138.7575,-38.3285,261.7893,-110.1638,128.3121,-108.8833,98.6115,-36.7905,99.7782,-186.3190,335.9092,-245.0164,85.7846,-197.7407,85.6502,-148.4995,54.5628,-182.4771,-173.1873
-1437.5000,3.7649,114.0153,-132.4969,243.2205,-242.5898,107.9467,-167.3750,114.9467,-21.0931,116.3515,-95.8611,352.4194,-45.3267,176.6089,-255.7914,108.0841,-203.6781,70.8654,-237.9811,-157.0768
-1429.6875,2.8656,132.8666,-95.7627,172.5679,-168.1174,109.4897,-129.9761,116.1793,-57.5150,154.8136,-242.5009,353.8543,-339.7411,141.3342,-143.9456,122.4775,-98.9654,105.0636,-27.6050,-193.0714
-1421.8750,-10.6863,89.5124,-74.6900,123.2822,-110.3144,58.3844,-36.2389,100.7683,-109.6084,139.6236,-109.7837,301.6604,-134.7931,53.4192,-159.7712,80.6310,-218.9172,126.6233,-42.8858,-171.7199
-1414.0625,-161.1508,31.3905,-196.5196,149.0992,-122.4021,84.3856,-84.3999,200.4684,-84.5947,165.5323,-231.9970,254.5766,-145.7776,79.6106,-134.4934,140.7394,-193.7749,188.2843,87.9460,-146.2791
-1406.2500,-116.6696,42.5883,-111.4082,123.8623,-1.5451,95.3400,-74.6046,249.1267,36.3769,177.3824,-329.2589,229.4535,-245.7857,54.7549,-160.2693,158.9723,-183.7131,162.8935,61.7085,-171.8942
-1398.4375,-99.0018,7.7403,-131.1150,71.8268,-21.5063,113.4991,-20.6161,229.9945,-20.4534,158.4413,-202.3372,210.5497,29.3995,109.1073,-325.8353,163.6032,-237.4536,144.6994,-97.3275,-154.3135
-1390.6250,-131.9347,31.7791,-92.4150,74.1903,16.9316,153.0643,17.7640,158.2658,-91.8915,87.9140,-309.0224,213.0549,-190.0237,148.8613,-140.9937,148.3070,-59.7950,76.8996,10.0324,-152.3431
-1382.8125,-61.7684,29.8582,-56.6235,109.6638,16.4537,153.7427,-19.7678,121.6518,-92.2563,14.4997,-162.5956,139.6723,-6.3286,112.7241,-104.0754,91.9886,-95.0479,42.1978,-61.5260,-152.2754
-1375.0000,-46.7556,64.2022,-151.9817,195.9977,-153.1811,169.2809,-189.4640,100.8917,-114.7770,-7.0665,-73.3370,192.1558,-28.8141,165.4498,-126.3060,79.4450,-45.4429,22.3448,-12.2402,-137.3635
-1367.1875,37.1620,111.2410,-29.4384,173.2391,-66.9133,109.7182,-177.2575,40.0285,-29.4023,6.2625,-134.1722,205.5561,-237.3866,106.0774,-113.6458,41.5212,-32.9545,-70.6119,70.9194,-124.5561
-1359.3750,44.2669,81.7974,-22.7000,146.6924,-61.4535,42.3589,-97.8584,-26.6290,-59.8387,49.7911,19.1799,175.1655,63.2396,1.9033,-217.7976,-9.4815,-131.2631,-27.3567,-62.7161,-81.5526
-1351.5625,-48.0330,72.2926,25.6420,159.7462,23.6150,18.5996,-11.8582,-87.6805,25.3301,99.9196,-151.8838,152.3765,-145.5539,-20.6721,-132.3411,-3.6244,-47.9793,-49.4934,54.2539,-68.9600
-1343.7500,-39.9375,20.6211,70.3647,62.2002,142.0806,-45.7564,105.5513,-116.3224,69.8889,108.4440,-69.5402,123.9961,9.0830,-48.8455,-50.4919,-26.2459,-181.3247,-76.2184,-43.3885,-60.9744
-1335.9375,-58.8468,-39.7928,-134.9242,-25.3494,46.5509,-30.1096,156.9622,-63.9552,48.4532,86.9712,-17.2245,102.6235,134.6998,3.9783,38.3655,-11.6766,-269.6694,-94.9433,7.9790,-8.9961
-1328.1250,-11.8498,-22.4458,-124.3127,-50.0067,129.9263,-18.5644,167.2711,-52.6871,58.9267,98.3931,-116.0096,77.1539,-75.7685,15.7030,122.1231,6.5232,-224.1280,-152.7753,88.2348,1.8786
-1320.3125,-74.6725,-52.1149,-81.5125,-41.4571,99.4836,-11.8137,172.7701,-46.2070,-9.4136,106.0208,0.4002,84.8981,224.9738,-14.3612,-91.9270,4.6945,-286.3891,-109.4072,-10.3172,44.9533
-1312.5000,-182.6495,-85.2380,-48.8535,-79.0472,58.8933,-14.2036,132.1183,25.1276,134.0869,66.5042,-111.3640,45.5022,0.5350,-16.5756,-22.1224,26.9505,-184.7912,-43.1964,161.9852,41.8707
-1304.6875,-77.2690,-67.5456,64.1536,-147.2765,96.6409,-48.2378,96.8168,64.8133,209.9218,-78.6640,-73.7667,11.4621,-34.5299,-50.4364,127.0222,-26.3121,-184.8591,-42.6382,162.6172,7.1354
-1296.8750,-92.3473,-79.7210,-64.2886,-92.9471,5.9331,-27.7182,116.0527,121.0560,8.3093,-21.2818,57.3595,-5.0243,168.9313,-66.7494,73.7249,0.9517,-235.3682,13.4731,145.8040,26.9459
-1289.0625,-98.7736,-42.1571,-71.0651,-63.9673,108.8815,-70.5534,145.9418,114.9511,1.3492,9.7461,-59.8663,-10.8581,-95.9505,-72.4156,67.0737,19.1792,-102.2373,7.2332,244.6268,20.3979
-1281.2500,-120.9092,-75.5753,-59.5529,-86.6875,157.1284,-94.0862,157.1380,91.1521,122.6684,-51.9232,26.2092,1.6178,173.4859,-95.7781,-69.2891,-25.3898,-230.8197,19.2993,114.7511,32.1452
-1273.4375,-163.9938,-76.2034,-138.9949,-58.3629,76.4426,-27.5642,112.3946,47.4038,263.0438,-21.5486,-126.6805,32.1439,54.9436,-29.0922,-2.5987,-8.7711,-168.3439,-23.5873,177.9446,24.9330
-1265.6250,-87.7293,-23.9890,-59.0928,-51.6918,120.1104,-18.6936,120.0136,19.0077,233.7733,-158.8285,-155.2180,41.0215,-47.2176,-20.0643,78.4391,-55.8588,-92.5375,-87.1212,183.4727,-3.9367
-1257.8125,-126.1254,-49.5713,-65.8489,-55.6657,3.1258,-24.4737,149.9773,12.9648,5.8547,-164.7542,-15.4292,35.2551,203.9612,-25.6897,72.8336,-62.5030,-97.3728,-91.3049,107.3703,26.5374
-1250.0000,-223.1714,-91.5776,53.7598,-81.2930,48.5040,-14.9053,121.2970,22.2744,14.2991,27.6655,-115.3029,-29.1642,-45.5127,-52.9694,154.5764,13.7223,17.1425,-152.1427,221.6187,35.3550
-1242.1875,-222.1738,-147.9154,91.4144,-113.8697,85.9264,-50.2921,158.6739,23.6404,51.7884,66.1308,31.8770,-100.5327,176.0884,-51.1996,45.3569,26.6108,-88.3054,-80.9230,45.9118,36.2206
-1234.3750,-247.6340,-126.1581,-10.3821,-34.8974,20.9038,-76.1320,130.6029,-3.4350,60.8328,39.1402,41.5856,-90.3521,148.2090,-40.8861,91.7010,8.3535,-9.1955,-1.1475,54.7743,45.6289
-1226.5625,-74.1388,-36.7544,61.7723,-0.9710,92.8383,-77.0273,128.4941,-41.5619,131.8116,-35.9162,-33.7440,-91.2250,-0.6943,-113.6350,162.9873,-56.6111,24.8561,-37.4145,17.5863,43.9820
-1218.7500,21.0530,-34.5774,-60.3772,-45.3422,6.4712,-87.2221,117.0847,-15.9843,-27.5182,-46.2708,139.6133,-65.3956,245.0962,-87.6866,40.9611,-63.3211,-90.3833,-46.9721,-28.8847,69.0286
-1210.9375,-32.5004,-28.6605,28.7358,-98.4643,22.3689,-34.1735,95.9376,37.8446,25.4064,-102.3807,-27.7952,-48.3136,-33.8724,-70.5020,131.1928,-39.0433,29.6300,-64.2843,92.8977,85.3161
-1203.1250,-87.2680,-95.7600,80.6411,-187.7846,37.0614,17.6707,110.6019,53.4770,114.1229,-233.6896,97.6023,-68.4307,127.9953,-54.5214,146.2314,-66.5679,-59.5693,-14.8055,-33.5315,100.4049
-1195.3125,-89.8515,-105.8767,-33.2591,-154.9093,-40.0451,14.7121,68.4721,49.3108,183.0684,-200.7960,130.1731,-72.3456,160.0356,14.6568,104.4790,-43.9940,-63.5641,-16.1303,-35.7404,132.6894
-1187.5000,-0.5253,-51.9504,22.7468,-135.1353,89.7572,-36.3461,15.2445,34.0452,239.9271,-143.0121,77.6479,-87.3630,-40.0051,-36.2684,125.6120,-49.9131,25.3269,-67.5593,51.9411,116.8655
-1179.6875,34.2971,-18.1593,22.2525,-99.8616,52.0541,-72.8995,51.5169,-37.7150,55.2660,-142.7411,188.6162,-13.8747,254.4588,-35.6923,14.2514,-83.9536,-10.2723,-67.4875,-18.8664,116.5385
-1171.8750,-95.7206,-8.9120,33.9222,-53.4360,26.5181,-24.3037,62.9460,-26.3294,-79.2465,-56.3303,15.7150,34.7637,-28.9428,-23.9786,100.0575,-25.9751,105.2909,-56.2812,131.4823,91.3571
-1164.0625,-81.5309,-28.9014,48.7916,-40.8004,78.1770,-45.5157,77.5754,-47.7547,-65.5703,-5.7212,31.0266,-23.3934,22.8876,-45.0727,78.0545,-25.8732,48.0495,-113.8813,144.0170,69.3767
-1156.2500,-88.5411,-38.5738,-104.5347,-47.3624,33.6397,-51.9393,107.0022,18.6130,-73.0774,-12.3138,24.1240,-29.7578,125.4963,-51.3783,-3.1454,-16.3790,4.6188,-50.6731,242.3716,62.1936
-1148.4375,16.9534,-11.9335,-30.3520,-115.4328,182.6107,-85.8703,181.9430,21.4820,38.9367,-82.4230,-47.2767,-99.6369,-93.3846,-85.1915,109.1549,-44.2353,75.6813,-84.9599,312.2323,27.5051
-1140.6250,78.0369,-41.4378,-41.5804,-159.9126,134.1817,-95.2023,207.4969,-26.0339,27.5484,-55.9308,126.9159,-108.9203,227.3517,-94.4137,62.0508,-70.1703,-39.6635,-92.6428,91.7058,53.4141
-1132.8125,-44.6798,-52.0088,13.3990,-106.1951,41.9755,-40.3365,115.2595,-79.3473,155.3610,-37.2344,-2.7182,-54.0092,61.2698,-39.4536,117.1533,-53.7730,49.1992,-145.1263,39.3958,71.5202
-1125.0000,-11.8928,-15.3937,121.8750,-37.9843,76.2730,-41.9846,38.5392,-118.1664,226.6754,-112.0418,106.1561,17.3964,58.7241,-41.0037,114.7551,-98.8972,10.5475,-217.1103,-174.4160,69.1237
-1117.1875,-28.3671,1.3555,29.0937,50.9694,-16.6758,-22.8894,19.5742,-99.2338,97.7606,-130.0997,197.7576,36.5495,260.9143,-57.8071,22.1255,-108.1228,-6.3462,-128.3454,-191.4573,87.4707
-1109.3750,-12.5404,36.0716,46.6217,68.2241,37.6840,-5.4969,-0.0846,-45.0033,115.1562,-148.8732,31.6527,-18.9993,-53.5894,-40.3211,76.7957,-71.0594,150.0619,-42.2843,-1.1954,68.1160
-1101.5625,-15.0624,-29.6085,43.7975,-4.8631,34.6910,-7.4573,-3.0869,-11.1251,1.1934,-114.0121,140.1991,-92.9045,201.5748,-78.1885,74.0968,-65.4937,42.1332,-44.5660,-39.2724,65.4138
-1093.7500,-107.3814,-96.3685,-17.8035,-96.7518,-27.0906,-66.2228,-27.8801,38.9486,50.4439,82.0392,41.9217,-116.6259,102.9089,-101.8694,159.6161,1.5037,54.4272,-31.6499,78.8747,77.9085
-1085.9375,-31.9952,-96.3807,63.3051,-160.9476,16.8334,-95.2997,-57.9584,46.7156,278.3985,89.7747,-24.6426,-108.6499,36.9773,-93.8735,203.8400,-2.3014,-11.5837,-61.0378,13.7151,48.1024
-1078.1250,13.4357,-104.5070,-0.5415,-185.0929,-47.1901,-84.3376,26.0176,20.5338,104.4041,63.5526,96.8336,-97.6225,304.0915,-46.8429,104.1193,-10.6359,-105.5375,-84.3720,-47.3744,58.3461
-1070.3125,10.0756,-77.2912,-41.1740,-153.0457,60.0083,-51.1871,96.2014,-55.4553,-10.3814,97.5184,-53.4927,-100.3984,43.4055,-13.6244,247.5960,3.1488,-40.2842,-123.5067,89.7448,54.7856
-1062.5000,7.2712,-81.1664,-45.2541,-120.4486,91.7592,-91.4948,163.9395,-95.9019,58.3769,19.0220,88.7365,-104.6317,259.2965,-89.8608,168.6127,-69.8382,-148.4736,-91.0882,51.4156,86.7751
-1054.6875,-54.2302,-77.4247,-148.0188,-112.5545,61.8256,-83.5097,170.9835,-51.0552,139.4502,-45.1893,59.2336,-96.5790,229.4579,-81.8166,139.9519,-70.9800,-36.3323,-13.3620,163.4118,94.0584
-1046.8750,15.9246,-20.8667,0.8814,-111.0177,137.5535,-79.8865,173.6945,-84.5580,141.1882,-152.7507,-11.6167,-92.8945,11.2975,-78.1425,215.9322,-102.0688,70.4561,-11.9861,129.0643,59.9853
-1039.0625,-1.1310,-33.6184,-18.4173,-92.6868,45.0866,-25.4699,118.2129,-103.2559,-25.2651,-134.5075,117.3215,-38.4231,285.9399,-59.6794,49.7170,-99.4334,-17.9490,6.1910,-29.4601,77.7116
-1031.2500,-48.2883,-0.4224,43.1977,-34.4681,32.5416,-1.1673,31.6473,-78.0558,-37.8085,-72.3704,-41.8546,-14.0599,-20.5253,0.6692,111.4150,-35.8517,145.5500,-5.7371,98.9323,65.3383
-1023.4375,113.2041,47.8899,175.4547,-48.6030,54.6465,-15.2198,16.7529,-92.2107,-124.7095,-123.6039,90.6258,-28.0499,74.6997,-13.3379,22.7585,-65.9619,130.6975,-20.0191,-22.0217,50.6209
-1015.6250,120.8489,71.2949,109.8642,-5.5928,-85.0916,-7.1252,-12.9792,-84.2261,-191.4342,-189.7091,171.2303,17.1056,119.0556,-5.1986,-6.7306,-92.0594,138.0147,-47.1562,-49.8046,58.0545
-1007.8125,137.7030,82.7595,127.4799,47.6119,-30.6156,12.1618,-104.4955,-102.0564,10.0594,-133.6211,43.0320,-0.5480,-120.3651,-58.8676,121.9897,-101.0531,119.5328,-99.1025,-33.3889,39.6887
-1000.0000,86.9018,52.5892,36.4444,67.1611,-48.7906,-41.2128,-85.6497,-82.5480,-45.0863,-114.1902,172.1810,19.1394,230.5800,-75.1991,68.0655,-110.2163,33.4133,-79.6970,-49.6095,58.6740
-992.1875,2.1631,42.1590,-14.5238,88.7613,-25.8939,-18.5501,-135.7423,13.0021,-168.1679,-18.7286,11.3687,5.8672,-4.4407,-16.5017,164.2005,-12.6514,124.3592,-59.2515,147.2331,44.7061
-984.3750,61.9380,37.1446,48.0148,42.8635,36.5101,7.6009,-111.3263,2.0445,-253.7570,-29.7856,111.0732,-4.9061,57.0781,9.6832,42.8261,-4.9091,42.8037,-35.3148,65.5718,33.2440
-976.5625,-7.3439,15.0871,12.5040,8.9117,0.8769,9.6990,-73.9536,-32.9735,-215.3862,-99.8942,185.7033,34.2674,132.5303,48.8105,-102.5786,-23.0135,44.2132,37.5684,31.8879,34.7355
-968.7500,-25.8207,14.2022,141.7990,-45.2541,130.0576,-7.4126,19.2346,-87.1970,23.8037,-118.2150,21.1335,-19.7689,-180.2019,-42.2805,26.8221,-61.5434,130.4242,53.2489,118.0066,-19.9718
-960.9375,6.7057,-27.9894,65.0938,-82.4213,90.2384,-46.5406,126.4283,-89.4290,20.9987,-120.5469,91.5690,-58.8098,149.0869,-7.3961,60.2257,-66.1791,21.6460,50.9284,-25.8667,-22.6725
-953.1250,-4.4147,-1.0748,15.7614,-58.2437,40.7888,51.6651,75.9815,-65.3197,-66.4391,-60.5399,-31.6673,-34.5203,24.7082,53.8212,83.9980,-5.1193,186.2396,39.9603,-2.3709,0.9799
-945.3125,177.2657,69.7875,131.2415,18.7262,82.1523,20.6556,45.3571,-95.4221,-61.0700,-90.7429,10.9030,-101.4568,-42.8322,-14.1814,53.5631,-49.3256,191.6307,10.8068,-138.0657,6.4368
-937.5000,157.5867,59.0799,110.3774,35.3428,-11.8237,-36.7145,24.3983,-188.8774,-82.0347,-110.2973,137.1078,-84.7599,157.2625,-34.5489,-4.2197,-105.7162,172.6924,27.3036,-227.0781,22.5419
-929.6875,83.1681,61.3192,218.7739,66.1998,58.4693,-1.8483,-52.3016,-191.0930,62.2756,-149.6179,-12.4404,-87.8207,-177.3830,37.3116,66.2581,-77.3651,273.0110,-11.9558,-91.8334,-17.1036
-921.8750,141.0990,69.0833,241.5118,53.3978,45.1160,-14.6459,-65.6387,-166.9730,48.9453,-199.6007,84.3584,-63.5313,104.3583,24.5038,-56.9031,-105.2236,189.6799,-60.8636,-140.2272,-30.3916
-914.0625,143.3733,96.6668,170.6003,90.9376,-25.8708,-12.1100,-63.6117,-92.5162,-59.0046,-124.2446,50.4785,-60.8904,-4.5665,-46.9788,-17.6905,-83.4941,261.7187,-128.4261,-32.2437,-28.3247
-906.2500,195.2077,90.9552,225.2489,38.0250,102.6954,-104.0429,-8.0228,-146.5213,32.6043,-106.3598,68.1604,-115.7077,-132.9049,-137.9345,74.0702,-129.1087,243.3146,-146.4418,-85.7036,-46.7008
-898.4375,62.5970,-3.4210,123.4601,-23.3340,36.8211,-131.4344,36.1266,-101.9821,40.7519,-23.9434,150.3794,-106.9804,169.3027,-93.3531,-27.6178,-78.0828,111.4922,3.0920,-148.5858,-38.5210
-890.6250,13.0994,-18.6550,182.7963,-73.5926,96.0725,-35.7380,21.3951,-5.3597,25.9933,-1.4487,-11.3061,-121.1536,-139.3883,3.3119,30.8001,19.2020,166.7799,23.7182,47.6379,-53.2383
-882.8125,71.7034,-12.2244,207.2258,-48.7583,121.4298,27.0383,46.7782,20.3455,-132.6482,-49.8565,87.1153,-132.2312,70.0527,-7.9435,-16.6803,8.0545,49.1666,-22.5595,0.9602,-64.8488
-875.0000,-18.4487,-53.6739,37.9141,-33.6813,62.0507,42.0441,24.4181,71.2905,-80.9919,38.9902,64.7622,-153.0671,47.7250,-29.9737,-38.8936,42.5612,28.8242,27.4048,121.5526,-50.2065
-867.1875,-3.1944,-40.7525,129.0125,-18.2140,116.0900,22.4383,4.4697,51.6188,120.0859,19.2192,-65.1871,-208.5058,-156.1691,-49.6236,14.2961,32.9588,114.8821,77.7662,101.5444,-70.1599
-859.3750,3.6108,-62.4146,61.6609,-46.2008,11.6880,29.3725,11.0848,58.4858,89.7103,25.9861,88.4075,-165.3990,108.4985,-5.7415,-88.9556,36.1141,50.5070,49.6726,-32.8903,-63.5569
-851.5625,65.0782,-19.8346,89.9754,-90.5447,2.9528,-16.0607,-33.6362,-23.0084,154.9973,53.3874,6.6465,-137.6499,-158.1907,-14.2310,-23.5406,9.7391,182.8028,-28.7791,64.3410,-72.2970
-843.7500,196.3525,29.4103,115.0962,-65.0900,65.0172,-27.7095,27.4468,-144.7120,69.0878,5.5676,104.7008,-112.1059,13.9543,-62.9400,-35.3299,-69.9385,102.9071,-38.4296,-122.6206,-47.2279
-835.9375,119.2240,86.4469,31.8290,104.9613,-18.3091,-0.7720,-18.8639,-190.8272,-124.2007,-41.6677,95.3298,26.0353,114.6810,0.9332,-45.4983,-76.6739,130.6362,25.5228,-198.9516,16.4447
-828.1250,130.9993,115.5658,81.4726,151.9048,-4.7196,50.0505,-116.2582,-177.0632,-37.5504,-65.0274,34.8517,40.0691,-202.6608,51.6874,78.2450,-55.3600,213.2595,2.3696,-222.3755,-6.9763
-820.3125,216.8176,99.7207,61.1498,131.8907,-136.0759,29.9080,-99.5861,-124.2583,-131.8304,-48.3380,235.4128,-16.8463,34.0671,31.4765,-88.9575,-52.1713,122.9348,17.2683,-347.7237,-27.3367
-812.5000,232.4386,98.8438,78.6253,77.6643,-118.6097,10.5492,-156.0913,-70.6641,-77.3075,43.1527,141.7579,-72.9653,-206.4135,12.0453,-71.3454,-7.4170,243.4260,-2.0361,-157.2440,-46.8915
-804.6875,290.0599,56.2909,176.0965,-5.5692,51.8643,-39.8248,-132.5806,-47.0757,-16.7801,102.6264,238.1191,-159.0865,-145.8507,-38.4050,-84.7368,-2.2295,124.9193,-86.3389,-135.7618,-60.4393
-796.8750,265.7825,18.3867,38.6723,-64.6976,-11.5563,-103.1166,-48.9607,-0.4039,-154.1083,186.1884,358.5549,-148.1039,47.7984,-101.7849,-148.0150,2.2968,-4.4618,-109.5537,-53.1608,-13.8825
-789.0625,227.0728,-4.9120,70.8236,-137.2727,94.5879,-106.8823,57.2160,32.7915,-84.8601,219.2747,170.5401,-188.5660,-176.9869,-141.6462,-4.7321,23.7126,26.7193,-183.2323,47.9916,-17.7693
-781.2500,194.4166,-53.2908,-1.9725,-99.8013,21.7858,-69.6174,94.4540,33.0187,26.4265,109.4016,170.5791,-224.9753,118.3054,-68.4768,32.6046,7.4059,-112.0329,-145.8592,-90.7889,19.4050
-773.4375,26.2141,-80.8506,-104.3037,-57.8862,-81.5386,48.0790,-7.8422,3.6785,144.1758,79.9621,-42.9507,-179.9382,-57.9623,86.1243,150.4038,56.4790,36.6931,-68.0375,-12.0912,27.0336
-765.6250,120.8579,-12.8341,-4.7746,-33.1275,-54.9980,74.6103,18.7304,-79.8298,60.7875,-4.6560,-16.6075,-153.0545,-105.3401,75.5603,103.0417,7.5332,61.2746,27.6322,12.4545,16.5199
-757.8125,67.4487,5.9861,-25.2845,18.5833,-75.4950,54.0812,35.2572,-99.4013,-106.6336,-61.3395,146.6708,-99.2225,95.2265,54.9283,-173.3649,-20.0825,42.8273,149.2548,63.9714,32.9653
-750.0000,8.7015,38.2019,26.8745,30.9354,86.6780,32.1841,49.4460,-86.3321,-92.3871,-84.3809,-22.4234,-85.7492,-220.5465,-4.0753,-123.1042,-24.4502,160.0365,196.5339,251.1444,-25.9340
-742.1875,78.9986,11.8506,28.0722,-3.6660,162.8988,-39.6797,125.6938,-121.2214,-90.0721,-82.3713,16.5228,-156.2174,38.7615,-76.0494,-120.7869,-71.3669,19.3034,196.8668,146.3744,-60.7764
-734.3750,-53.8996,-43.2986,-74.9187,-31.4680,132.9322,-106.7574,132.7460,-40.3240,101.0797,-38.5732,-124.7607,-148.8850,-28.1508,-106.2448,33.3553,-49.5967,-8.6084,238.9912,223.4215,-53.8167
-726.5625,-40.1349,-67.0019,-24.2555,-53.6192,183.6213,-129.1979,109.4533,10.2031,335.8882,-62.1473,-111.3845,-170.9005,-87.3699,-128.8065,121.1501,-57.9179,-100.8735,182.7623,167.1069,-40.1959
-718.7500,-44.8260,-112.7165,-141.0500,-91.2234,28.8656,-99.1055,65.7190,76.2635,181.2455,40.8254,65.5279,-141.3558,162.9684,-62.8388,40.5048,3.8260,-209.5736,143.0838,57.3713,25.9894
-710.9375,-86.3619,-114.9022,-187.6866,-134.6912,19.2808,-35.8837,93.1548,103.4613,134.7789,177.9412,-90.4234,-150.6619,-140.5428,-35.7374,105.0119,82.9717,-42.1124,65.5553,190.8101,53.3320
-703.1250,-66.7489,-148.3492,-131.1755,-150.0099,1.8450,-52.5234,75.7501,122.7938,191.4781,197.1859,0.7781,-203.8088,26.1288,-16.5011,13.6650,97.4100,-91.4963,14.1856,69.4060,72.8331
-695.3125,-142.4388,-108.3758,-172.9534,-48.6239,-148.8783,-21.4765,-2.9471,154.8129,186.8988,229.1041,-40.3505,-135.2480,-52.5114,-21.5893,-99.9567,119.6152,43.8489,80.5117,134.7289,68.0411
-687.5000,-50.7191,-10.0139,-1.3190,43.1648,22.8159,-34.0492,22.7680,106.2162,138.7307,107.4129,-125.0766,-109.2812,-209.7151,-70.3043,-39.1754,60.0077,100.5909,67.2240,157.4464,19.6574
-679.6875,25.7033,5.3964,4.0127,48.6462,28.2168,-64.9444,65.1961,37.3043,34.2746,-35.5755,25.8847,-103.6071,88.7912,-65.3335,-142.6903,-15.1468,1.0455,107.6271,21.8741,24.9829
-671.8750,4.6922,8.8746,-17.0934,27.6699,7.1891,-50.3087,-29.8135,-21.0809,160.3953,-93.0233,-141.6172,-88.3792,-153.1545,-13.8352,19.3672,-32.5916,85.0618,156.5705,70.8536,3.8634
-664.0625,50.8810,-16.3563,-3.9973,3.8957,20.3649,-37.4902,-53.6211,-8.2798,136.7328,-44.2904,-56.9114,-111.9451,-28.8578,-75.1573,32.6219,-42.7858,-79.7156,168.7103,12.0258,-20.0417
-656.2500,-35.0880,-71.1981,-131.0454,-47.0226,3.4019,-17.8310,3.4233,48.3613,-27.0631,86.2773,-37.3868,-127.6542,64.2770,-55.6459,-58.2686,32.1934,-94.6186,223.7034,67.0772,-0.0862
-648.4375,41.7462,-51.5968,-13.2841,-111.1424,158.2540,-10.3850,121.2849,91.7885,53.9382,-17.3702,-140.0624,-193.5636,-148.7650,-48.3548,-13.3545,31.4224,-52.7163,159.4999,143.9388,-29.3240
-640.6250,91.4760,-86.5516,-110.6328,-131.3597,61.0091,38.9479,134.0594,68.1017,30.8446,-42.1288,56.1499,-180.5607,159.1122,37.8240,-74.5357,25.8108,-213.9010,68.2032,-17.2826,20.3450
-632.8125,-47.9388,-108.4740,-221.1154,-94.7291,-86.3644,75.1168,-50.3081,67.2541,140.6321,141.9430,-18.8124,-106.6998,-62.1729,73.8357,36.1445,87.5730,-72.2170,-36.2415,89.3615,56.8661
-625.0000,-82.1468,-125.5337,-74.3965,-24.9026,-50.5310,74.4730,-122.4708,29.5928,104.6285,251.2003,-19.5673,-143.6251,-62.2114,73.0279,73.0178,118.4850,-106.3388,-70.4865,54.1962,56.5945
-617.1875,-252.3566,-147.4010,-68.6810,86.9233,-154.6954,41.8158,-117.6372,-2.0830,-1.3672,292.4615,-14.3469,-101.5331,90.7419,77.2036,40.9065,129.1737,-100.4377,-28.7400,25.0467,98.3331
-609.3750,-230.1055,-102.0223,63.4903,73.1965,-131.4024,-8.4070,-131.3444,-16.3293,96.1043,241.1553,-175.6841,-114.9832,-179.8343,-10.1891,101.2582,87.5922,25.9192,-8.5537,152.3492,84.5336
-601.5625,-83.0074,-82.1544,70.4993,10.3263,-161.2700,-37.7939,-124.1991,26.2630,-7.5639,174.6866,50.8260,-107.5696,47.4652,-3.7449,-38.5417,65.2577,-70.8598,-1.5154,54.5121,91.5971
-593.7500,-100.3630,-59.1413,16.0650,-6.9880,-178.5715,16.3587,-141.4980,82.3935,-60.6605,156.7667,-40.1403,-50.5958,-80.7027,51.2320,-19.7857,100.9129,15.9320,-18.9293,177.2418,74.2156
-585.9375,-38.8166,-23.5655,83.5390,-15.3904,-75.9589,9.3952,-75.8853,38.4106,-30.8529,75.7325,-48.2001,-21.7129,-123.9314,7.0900,47.8588,43.6028,8.6238,-96.4470,98.8639,30.7411
-578.1250,-15.5796,-33.1747,-77.2828,-27.0845,-161.6366,-4.8764,-88.5693,24.1102,-80.3377,61.3724,48.4114,38.8873,120.5400,29.6410,-39.7851,21.3524,-107.9622,-73.2649,-53.7960,53.9735
-570.3125,70.4165,14.6469,-172.3387,-46.0273,-146.5427,9.5865,-109.4961,1.5430,-29.0413,112.7332,-120.2400,54.2521,-157.2301,43.9199,86.3291,33.0083,-23.7874,-58.3364,67.2971,68.9593
-562.5000,82.8690,1.0885,-269.9472,-33.5172,-97.0036,21.4854,-24.9686,-58.5859,20.7176,124.5318,-35.4377,67.0830,75.4786,55.6282,24.8828,13.3257,-116.1581,-11.9564,-61.1596,81.4036
-554.6875,-58.6811,-16.1935,-308.5446,-35.0056,-98.4514,19.3649,-62.4348,-60.7279,56.4949,122.3246,-73.6607,102.9254,0.1721,53.3185,-49.5445,20.6870,22.4924,21.4197,7.3969,79.8547
-546.8750,-1.9754,23.4717,-63.8837,-13.2405,-1.6388,-29.5231,-74.6435,-73.6431,44.5303,35.3554,-86.6381,54.0390,-157.8438,40.2348,-25.7211,-0.4985,116.3856,-25.9527,-39.8082,67.5642
-539.0625,135.5185,63.9314,5.5711,-16.6671,-78.0227,-33.6236,-78.0517,-77.7761,-178.6216,31.1752,92.1653,50.9677,58.9505,-1.0599,-138.0844,-25.5400,78.0948,-29.5229,-112.2019,64.0828
-531.2500,191.7122,110.9627,176.7355,3.6043,-54.6911,-84.0394,-127.7551,-19.2263,-154.0413,54.6848,-32.3498,1.6087,-210.5519,-51.6687,-78.7381,-7.1471,204.5125,-44.3976,13.1047,14.3074
-523.4375,274.5564,96.9247,264.5407,-88.4715,-2.7168,-106.8120,-39.8034,31.9648,-103.8016,-42.1574,128.7825,-20.0825,-49.3658,-110.6406,-172.7471,-49.4363,41.5783,-31.6258,-43.9452,-7.8078
-515.6250,169.4460,33.8613,117.3896,-122.4914,-76.6889,-71.5422,34.1984,68.2005,-139.4960,-42.9562,90.9456,-56.6990,-12.1462,-75.5725,-63.6893,-21.9299,6.7060,39.1916,96.0655,-7.8635
-507.8125,98.8382,-2.7952,119.7320,-157.0090,72.8421,-106.7841,109.6999,32.9226,83.3019,-41.2693,-54.3800,-90.7865,-157.3893,-111.0146,122.8769,-41.8621,7.3229,4.5008,167.5644,-42.4066
-500.0000,-14.5417,-31.0659,-0.6928,-61.2656,-10.3845,-80.7823,99.4518,-15.1177,37.3548,21.6696,118.5140,10.4025,164.6327,-85.2193,2.7024,-42.2794,-106.8015,-3.9359,-16.6720,-15.6860
-492.1875,-48.0431,30.7140,-35.2143,12.3861,-44.6906,-41.8935,29.1088,-13.2728,-33.6521,23.5002,47.2596,123.5117,-90.4449,-9.5393,5.4456,-10.9774,36.9869,-72.4715,56.0026,-13.0587
-484.3750,102.1983,113.6749,48.0049,91.7956,-72.2468,3.7319,-35.4801,-78.6932,13.1107,-78.9395,91.7488,170.4102,-43.7303,35.8790,-132.0715,-56.1175,46.5225,-132.2567,-110.5846,-3.6715
-476.5625,98.3990,138.6374,-31.8217,158.1652,-223.8433,34.3001,-150.1209,-120.1806,44.8217,-84.4514,122.1718,202.2923,-12.0836,29.2378,-210.6355,-82.1127,113.0327,-101.0968,-114.2136,27.6735
-468.7500,134.5699,145.1210,45.3213,124.4915,-183.4763,-0.1962,-220.8059,-118.7422,121.4734,-9.0385,-22.4480,132.1471,-339.4655,31.5260,-134.2536,-46.5737,220.4950,-65.9915,-6.9068,-6.0236
-460.9375,125.2381,94.9380,-38.0361,115.3281,-229.6119,-10.2033,-156.9974,-92.8202,39.6232,-19.1315,77.4270,87.5208,-17.3266,21.3014,-107.3767,-55.8423,70.4663,-40.3836,-51.0998,-15.2093
-453.1250,29.5053,74.1042,-102.7803,89.7701,-220.1363,-1.6222,-147.5969,-84.3120,159.3925,-47.6243,-61.1204,97.5088,-155.6035,29.6629,50.1093,-54.1987,151.0483,4.8215,63.3164,-5.7894
-445.3125,86.8265,73.0586,-4.4797,77.2651,-159.6139,-15.0015,-124.1456,-60.7661,257.2128,-61.0732,-74.6080,48.5742,-93.7866,-20.9342,0.6398,-66.0847,67.6699,62.0753,15.7634,-18.3087
-437.5000,-5.1134,-10.2828,-63.4343,20.5209,-145.3369,-0.6408,-71.9436,100.5178,125.8033,100.2180,-97.3708,-46.5788,68.7734,-43.7932,-132.0696,45.4360,11.0531,181.0779,63.9668,-40.0712
-429.6875,-96.7992,-48.9385,26.8719,-35.9654,56.2027,51.9571,18.5132,227.0328,106.6602,153.7350,-337.8925,-102.4608,-208.4032,-27.4172,-40.5303,142.7441,60.6869,124.3333,148.4119,-96.5802
-421.8750,-53.2922,5.2320,-1.6344,-27.2473,101.9431,59.7426,138.1786,197.7451,4.7103,-59.5449,-110.2271,90.8752,58.6526,-19.8554,-105.7923,46.7194,-106.4786,26.7918,-18.9403,-87.8820
-414.0625,-146.2874,107.3568,-61.6402,55.9731,115.1935,-0.9826,114.3495,99.9557,18.2779,-158.3204,-172.0926,399.7269,-38.8043,-44.8024,-55.5388,-45.3630,-58.1315,-30.2564,65.2223,-74.6790
-406.2500,-77.6349,166.0030,46.0002,-16.1536,223.0918,-115.0606,185.1680,-13.1966,164.5122,-197.4607,-247.3040,545.2523,-40.5738,-122.1041,-20.6397,-139.1297,-131.1405,-32.6537,63.0157,-76.8177
-398.4375,-61.3427,176.6509,-11.7173,-34.6165,165.6377,-136.4914,201.6261,-72.7156,69.4013,-218.9697,-159.8849,635.4634,233.3049,-107.7643,-42.0837,-177.0667,-182.4875,-51.3967,-25.5343,-24.2985
-390.6250,-58.6056,221.9337,64.0245,39.3786,131.6522,-61.4846,167.5405,-70.7994,-0.2535,-291.0414,-378.0298,602.1499,-20.3548,-31.9924,107.9304,-150.5337,-4.3864,-83.6949,82.3658,-21.3237
-382.8125,-49.8300,194.6383,-0.1971,153.4329,66.7162,20.5648,176.5157,-62.8390,-101.8632,-319.0595,-297.1339,537.9133,209.0708,49.8280,116.9880,-128.0081,-136.2436,-109.9435,-84.6907,-12.2889
-375.0000,-221.9624,131.8380,-145.3204,191.6003,-42.1123,20.7150,103.5860,-25.7840,-63.3624,-98.9815,-333.1664,539.8038,174.5775,12.7475,118.1429,-61.0590,-97.9872,-142.0999,-46.6393,25.8522
-367.1875,-196.4389,128.6327,-45.7924,147.4337,59.7078,-63.4885,58.3006,-73.0928,111.7900,0.7306,-343.5431,531.3670,18.7650,-34.6921,145.9328,-64.9711,-72.0869,-151.6073,-125.9532,16.6485
-359.3750,-174.3700,128.2980,-60.7237,204.8269,-28.9300,-42.1519,-30.4436,-160.8562,61.5025,-52.0104,-175.3824,518.5042,225.4993,23.4067,-15.7260,-94.5477,-84.6273,-93.5648,-243.7023,38.9970
-351.5625,-176.6465,164.5406,-62.9969,238.8781,-30.9046,-8.1806,-105.5366,-126.9758,-14.1232,-91.0984,-325.5938,480.3178,-71.1177,20.1387,56.2725,-78.1885,54.4860,8.1223,-35.8000,36.9961
-343.7500,-49.1380,160.7347,-38.4749,190.7403,-43.0789,-21.4176,-117.8223,-68.2984,-98.9579,-68.3922,-192.0090,394.9606,64.1056,-30.3390,-29.9387,-75.0298,-28.6058,66.6142,-48.1121,24.8020
-335.9375,-85.8903,110.8246,-40.2034,119.3641,-117.4947,-23.9079,-155.3619,40.1227,-136.0318,-33.9486,-194.7083,284.3754,27.0612,-33.0715,-68.3821,-19.8745,41.0659,134.8612,126.3338,23.3613
-328.1250,-108.6373,79.2148,86.0764,61.9936,-27.9087,28.5961,-103.9005,54.5354,-47.1055,-129.5161,-290.4050,153.8102,-177.9530,-17.8149,-14.8337,-12.5289,124.7302,183.1112,280.7592,-34.0748
-320.3125,-131.0397,9.8044,63.6961,39.9761,-12.9779,78.4457,-15.0912,179.2983,-142.8440,-152.7357,-167.7563,59.6235,132.3941,68.7899,-183.9389,59.3567,-3.2586,230.7221,222.5369,-56.1555
-312.5000,-196.8923,-27.1690,-4.1350,9.5171,66.5111,120.8431,64.2637,294.6061,-136.0185,-36.4056,-345.5758,-6.9867,-118.7189,73.9411,-104.4882,153.9105,36.3006,199.8844,367.8645,-86.6870
-304.6875,-193.7618,-53.9510,38.0200,-21.9314,218.9985,88.2403,179.6201,261.9071,-56.1775,-69.0852,-268.3995,-0.5684,34.2062,4.0910,-26.0453,100.2156,-100.1552,98.0537,196.1788,-118.2174
-296.8750,-295.7553,-75.7362,-32.9276,16.5344,259.3958,53.5379,293.8740,153.1016,-52.4329,-140.8740,-156.3584,76.7825,222.0152,6.1400,14.3052,34.9641,-167.6926,66.1228,23.3985,-114.8466
-289.0625,-240.0982,-39.9452,60.7824,36.6633,352.4549,35.4846,276.7852,61.9386,3.9595,-122.0270,-211.6763,97.8142,21.4991,-12.1708,145.3000,6.2813,-147.5859,-20.1670,-62.7578,-94.8224
-281.2500,-161.6964,-68.9960,-4.7718,-23.4468,287.2582,-30.8216,284.4395,31.5237,-23.8951,-41.4309,-20.2478,106.6243,360.7513,-41.7317,116.0366,-15.8691,-312.7333,-10.7139,-228.1698,-50.0398
-273.4375,-236.9879,-60.0624,-123.0199,6.7518,243.3604,-38.8331,277.3842,24.3971,6.5581,-49.5344,-139.5368,137.7600,207.2841,-12.9987,183.0816,-7.1596,-212.5731,54.0334,-129.2793,-19.9515
-265.6250,-227.9838,-70.1938,-39.9806,16.2629,216.7543,-30.5491,213.6236,-4.4408,89.3035,-115.3369,-167.5200,75.2254,181.1597,-41.9713,229.4236,-41.6781,-203.1311,98.0753,-189.1048,-10.5575
-257.8125,-161.6482,-70.4850,-118.5994,-22.8664,27.5021,0.0777,97.2044,26.0730,11.4149,-84.7874,-101.1848,71.0674,323.3783,-11.5981,113.1246,-25.1058,-206.3343,129.4663,-123.5771,21.1890
-250.0000,-114.5155,-18.3423,-31.4101,-45.1890,78.0582,-23.5014,38.5851,39.3779,63.3347,-34.4506,-197.0533,86.7326,-29.5863,1.5642,90.6313,5.3997,-53.7474,71.6608,99.7356,-1.2615
-242.1875,-61.4925,4.5122,-48.3316,9.3995,98.5078,-4.1858,94.8586,21.5826,10.1402,21.7900,-32.0129,144.3254,211.3776,-16.3796,-35.9751,-3.0736,-140.2660,-51.2369,-57.0585,-17.8047
-234.3750,-125.8727,1.5509,-116.6452,50.5983,67.5651,0.7282,63.7239,-10.6173,-20.4542,62.6298,-64.3954,151.5411,107.9151,25.2743,7.0200,17.8578,-28.1764,-80.5276,-51.2458,-11.7453
-226.5625,13.0905,1.9954,-44.6161,49.1578,102.9692,34.9954,25.9391,-50.4748,15.3055,59.8005,-30.4266,41.1337,32.8384,22.2805,78.3515,4.0136,-100.7469,-117.4647,-124.1018,-13.3332
-218.7500,-11.6616,-45.1208,-144.2958,25.0302,2.6684,80.5682,-1.5550,-5.0333,-11.6365,32.2699,124.8149,52.0590,301.0531,30.5916,14.9795,-0.3600,-229.0034,-141.0925,-217.6598,33.3800
-210.9375,-54.2594,-20.7098,-153.8097,18.0665,-6.4706,70.2868,-83.8995,-15.4526,90.5597,95.8746,4.1966,118.1606,-1.5816,20.0478,152.7515,10.2533,-95.1063,-218.5670,-85.0869,61.2418
-203.1250,-39.8590,-3.8911,-102.3260,33.1184,-28.6121,-26.9934,-69.2392,-38.8771,31.7297,72.4586,54.5856,134.2894,197.8162,-3.4992,131.5073,-23.5205,-80.2116,-239.0368,-104.5280,76.1071
-195.3125,-98.2678,-14.5393,-127.6369,45.3820,-88.5482,20.9319,-93.3858,-28.0986,7.1047,9.2302,-45.8448,73.6453,136.3925,81.1550,69.4740,10.1156,71.8877,-122.3130,-23.7648,88.1722
-187.5000,-39.0744,14.4342,44.6462,35.2574,47.1134,46.4556,-67.9427,-39.7280,34.0846,-111.3984,-57.6748,28.6281,-20.3987,69.4110,59.0363,-15.5285,96.5697,-61.9989,-34.4265,77.8372
-179.6875,19.7076,29.3463,-3.4905,24.7424,73.3702,34.5758,-5.9048,-87.7598,-159.3298,-123.4179,151.0782,92.2388,264.4091,20.2706,-97.8007,-61.4577,-55.1569,30.9108,-185.4860,67.1033
-171.8750,-16.2169,53.1542,-2.3266,60.5305,184.9386,-39.0025,32.4328,-160.4926,-48.4262,-88.1387,41.1156,95.1704,-28.4871,-16.5726,12.6716,-81.4193,50.4088,31.1101,-116.2498,31.6715
-164.0625,54.3969,91.4671,71.3782,130.8811,185.0510,-77.0270,32.3141,-235.6740,-10.9878,-198.3127,186.7091,96.6781,156.2066,-91.8664,12.6816,-180.2635,15.5151,-5.1417,-221.4807,31.7972
-156.2500,71.0547,102.9332,-59.8656,148.2926,92.2098,-60.9989,-24.7621,-219.8091,-102.5086,-182.4332,202.3342,115.2602,210.9267,-76.1079,-7.2642,-173.6745,32.6861,11.6540,-169.6581,48.9751
-148.4375,56.6160,91.8829,-0.2061,64.6170,114.2712,-39.0733,-75.9437,-161.0531,29.8637,-88.6594,39.8668,139.7646,-60.4357,-54.4484,15.6788,-111.1712,53.7477,-2.6507,-78.9632,35.0532
-140.6250,8.6176,45.2022,-14.1068,52.3984,-9.2364,-53.6943,-88.6866,-102.8460,-56.3080,-102.4317,171.8396,127.7425,221.6591,-32.3357,-70.9301,-94.6606,-28.7449,56.5032,-160.8221,58.5833
-132.8125,43.3105,90.3647,-15.3052,87.8875,-119.0425,-18.6107,-162.7398,-68.9290,-166.7729,-68.4988,95.4964,128.4367,-36.5653,2.4774,1.1717,-56.7247,111.4591,-15.6409,14.0195,57.8123
-125.0000,138.3024,93.8531,85.7796,78.6882,-128.5588,7.7740,-209.4955,-79.7018,-101.9548,-5.2644,158.4645,120.4506,28.5454,-8.4047,28.5645,-56.6887,31.9415,-165.4790,-66.8528,48.3440
-117.1875,11.3306,31.4148,-48.0962,93.5486,-225.0255,-15.7840,-195.2055,-66.4238,21.9141,118.0199,134.4617,136.5359,153.6886,41.7665,-30.9878,-5.6841,-24.5203,-151.2670,-52.6726,62.9264
-109.3750,2.3025,25.2092,16.9830,49.3649,-159.5347,48.6119,-166.9697,-39.2021,87.7336,108.2506,14.4082,55.5921,-147.2047,31.8954,34.4031,21.0453,107.9519,-160.1080,44.4309,54.4595
-101.5625,93.1058,33.8163,-0.1038,35.0430,-249.2038,67.8678,-146.8860,-20.1304,34.3862,17.3379,180.2024,41.5247,129.7713,13.8881,-91.3644,-16.9064,22.2638,-69.1038,-76.6289,74.8454
-93.7500,118.0056,90.7001,-47.0904,60.8291,-295.7667,20.2267,-266.7077,-30.9616,99.1494,43.5286,95.0797,106.5834,-99.1758,2.9799,-29.0244,-25.3614,153.6730,-10.0112,19.4055,65.3306
-85.9375,149.5469,112.7361,25.5638,94.2788,-149.6872,-18.7704,-231.8827,-70.1434,98.5671,-32.6404,129.6278,107.3195,-100.4397,-36.2882,-67.0443,-73.7675,80.7170,-13.2705,-18.9318,27.4670
-78.1250,-16.1731,44.6306,-38.0404,105.4854,-102.8565,-46.0148,-75.3141,-60.5709,-74.2565,-23.0603,212.9050,82.8179,169.0332,-63.7996,-165.3116,-62.4392,21.5111,68.2262,-79.5070,38.3553
-70.3125,-58.5016,44.8439,101.7579,99.0866,0.3896,20.1505,-82.3414,-68.5947,-7.6804,-68.0742,20.5611,40.7190,-131.0846,-34.9012,47.8264,-42.0043,154.6933,61.1207,-51.6860,31.6443
-62.5000,20.5090,39.0403,146.8904,73.0409,8.9749,27.6731,-110.0211,-61.2674,-71.7728,-169.7267,174.5711,50.9969,135.1728,9.3585,-17.6870,-66.3209,23.2145,69.3567,-253.5325,40.2850
-54.6875,28.6165,70.1195,120.1311,47.1023,19.6617,37.2958,-100.6105,-88.8419,-170.7718,-51.2712,72.6705,100.3974,-0.4985,-18.2737,-117.1013,-40.2178,101.8401,77.6809,-174.2811,14.0241
-46.8750,157.2238,99.7214,256.8708,35.6731,193.8447,-10.5744,-36.7031,-99.9153,-180.2864,10.6757,98.2894,18.3183,-83.6377,-66.4066,-128.0332,-35.6639,125.9501,-4.5001,-187.5515,-32.7361
-39.0625,99.8222,14.3935,160.6010,50.2519,97.0228,2.5615,14.1964,-49.9808,-93.8101,60.6288,110.9000,-111.7498,189.2109,-53.5370,-149.9643,-2.2806,34.0622,9.3274,-207.8186,-18.4966
-31.2500,17.0177,-28.1712,73.9391,38.4330,47.8058,25.2942,1.6899,46.5525,115.2785,121.1826,-160.8914,-159.2134,-80.3468,-30.0663,94.7113,59.0584,56.7668,-3.2388,-45.4955,-30.6595
-23.4375,46.0483,-42.5344,-4.8812,33.4728,-30.5728,18.8807,32.0344,39.9375,37.2009,114.5826,53.1802,-125.8163,98.9767,-36.7414,52.2192,34.8906,-89.6868,-8.9384,-157.3328,-35.9718
-15.6250,-42.6270,-87.1355,-99.3967,-20.1778,-124.6498,34.7768,-24.3262,55.6341,-56.5912,130.2769,142.5360,-107.1074,116.5668,14.8935,-3.9730,61.2179,-72.8288,7.6685,-34.8607,-18.9898
-7.8125,23.6575,-58.3815,8.0397,-57.8721,-16.7784,30.6295,9.2625,51.2851,-22.4433,51.9165,63.8542,-145.4447,-69.8716,47.4855,-7.2304,60.0453,-5.0348,4.2251,31.5345,-22.0629
-4000.0000,32.0914,-65.4198,-27.4183,-69.5025,0.5780,26.7121,53.3369,52.9004,-43.9162,33.2033,111.2495,-144.2532,77.0692,44.8197,-62.5110,49.8535,-51.7163,-6.8607,18.4472,5.3191
-3992.1875,-13.7585,-46.8672,-37.2894,-46.8375,64.0869,16.7638,44.6273,44.2390,129.7182,97.1918,-81.3414,-156.2751,-226.2653,-0.9625,36.8234,59.3731,112.1547,-18.2029,148.0878,-41.3054
-3984.3750,10.4568,-58.8314,60.9075,-23.1127,52.6458,5.8659,-39.0409,33.6147,191.4075,86.2156,-16.8721,-170.2411,-89.5615,-47.6969,61.2049,28.3196,30.0835,-29.4991,-39.2356,-52.8841
-3976.5625,-46.5248,-47.0133,-2.1057,58.4210,-84.0160,17.7668,-101.9114,8.7911,90.8894,97.0347,32.4096,-125.3974,-4.0360,0.3689,-3.6174,38.7089,76.8042,18.0105,-26.7706,-5.6644
-3968.7500,-58.4610,-27.1827,94.9290,80.0142,51.3789,5.7245,-76.7380,-2.9779,113.4260,121.9110,-88.2854,-140.5041,-236.4932,-11.5150,93.6189,55.3941,133.5930,40.5757,30.7585,-18.4035
-3960.9375,-151.3463,-63.2089,34.0176,126.6654,99.8246,-18.2629,46.4888,-63.6904,-95.0037,97.8347,36.0750,-130.5620,145.1192,-35.3467,30.8853,23.4479,40.4298,88.1984,-132.6718,-6.0994
-3953.1250,-150.2830,-19.2018,34.0502,126.2804,100.2152,19.7062,11.6589,-99.4564,-131.4978,61.7074,-108.6236,-58.6526,-73.3285,-34.2285,140.0953,7.6811,110.2316,123.7730,-62.1491,-5.8502
-3945.3125,26.0468,8.8099,106.3457,90.1515,99.8617,-54.0764,12.0715,-135.9808,-23.7334,-11.1793,-70.0786,-98.4831,0.4511,-70.8648,212.5527,-58.2606,4.2980,159.5986,-166.3775,-6.3603
-3937.5000,-47.4711,-28.7581,26.7858,50.1832,-16.3508,-22.7066,6.6308,-30.3595,-30.8172,20.0710,-1.3744,-70.1592,106.4051,-39.3474,58.1506,-4.9372,-36.4888,225.5830,-101.4677,24.2710
-3929.6875,-84.4428,-1.4920,135.7798,81.7738,56.9912,-22.7786,-30.2655,6.8131,4.6569,55.8638,-147.1448,-73.2744,-151.1272,-76.2785,93.3109,20.1219,101.2955,153.1204,2.0005,-13.5583
-3921.8750,30.0510,15.7771,181.2287,54.8246,28.7807,-50.3956,-20.7130,16.4297,-61.4292,-7.9082,47.5453,-66.9304,116.8050,-140.7612,-10.0846,-36.3124,4.5298,91.1078,-164.1017,-4.9435
-3914.0625,42.0522,21.2896,82.1701,30.3888,-33.9451,-1.5085,-82.6707,64.5429,-14.0342,3.8194,-49.2673,-58.0655,-54.7647,-91.7389,74.0055,-1.3496,50.2783,137.5943,-48.7066,6.1685
-3906.2500,84.4648,-24.2452,88.5237,-34.6332,-27.2626,5.7789,-75.2346,72.0489,102.7578,83.9429,-77.6906,-127.7819,-83.9636,-84.3191,152.4976,25.0126,-49.5548,109.4611,-76.9141,12.6743
-3898.4375,-42.4667,-102.9271,-83.4738,-21.9961,-198.9390,17.7149,-99.1568,85.1917,76.1954,169.7105,45.5504,-118.8262,149.5144,-35.2496,126.6326,62.0887,-141.7467,157.9675,-133.4870,60.8300
-3890.6250,-155.9987,-112.0739,-132.0710,38.0478,-173.2193,44.0505,-182.6863,111.7261,175.0419,195.8733,-73.8286,-131.4538,-154.6377,28.2168,188.1814,114.3663,-11.5239,148.8718,32.3520,86.3834
-3882.8125,-99.3212,-58.2951,-112.4610,57.2973,-189.2969,27.5884,-162.0127,58.4546,46.0965,106.2223,21.9823,-40.8684,86.4175,48.8787,-13.0641,70.1715,-26.1058,203.9800,-51.6206,106.1334
-3875.0000,-81.5020,25.0540,-92.7124,74.7111,-206.2325,85.2755,-215.1928,42.3279,-154.7049,52.7238,-104.0705,49.8897,-113.3690,106.6871,-105.1562,84.8750,166.4620,258.2393,106.5537,89.0313
-3867.1875,-19.1892,80.7169,84.5393,100.6382,-102.6655,79.4606,-219.8780,0.6907,-123.9858,10.7267,-217.6466,41.1667,-263.6877,63.9907,-39.7380,53.7046,262.5432,248.9870,132.2311,9.4222
-3859.3750,-17.5663,85.5935,50.0840,135.8731,-100.8100,45.9412,-180.2748,-32.6597,-86.9634,-59.9830,-102.9100,41.7651,-3.6866,-5.4090,-184.0266,-13.5820,227.9288,285.0319,63.1910,-24.8883
-3851.5625,-68.7835,116.9168,144.7795,189.2695,68.1878,31.5710,-158.5335,-46.8617,44.2048,-148.5632,-227.0463,24.5322,-311.5624,-56.6584,-128.1599,-45.5880,351.4908,269.2386,152.3129,-77.0538
-3843.7500,39.6049,133.9246,221.0911,155.2809,218.7931,-1.1965,-44.1927,-43.4700,9.9766,-290.5608,-74.5986,25.9227,-86.8465,-126.3154,-125.7037,-123.5579,211.6646,200.0568,-21.9721,-110.6284
-3835.9375,-55.2118,85.2667,121.1961,165.1082,192.1947,9.8352,3.9438,-68.2879,-127.4628,-207.7521,-25.3592,34.1418,-38.3230,-115.1760,-42.4608,-101.5342,151.6431,140.6758,-46.4595,-100.4076
-3828.1250,-39.8243,69.3069,137.5164,109.1462,282.7989,-46.9318,131.2705,-87.9175,-111.7109,-190.7502,-6.9421,11.5852,-167.6364,-97.8379,46.0021,-95.4687,95.8439,120.4826,3.2602,-120.9928
-3820.3125,-91.4781,-2.5386,43.7913,91.1460,153.3448,8.2455,149.5379,3.3880,-95.0012,-172.8239,159.4304,-9.9914,108.0220,-43.5543,-84.5787,-48.8946,-63.0119,173.2392,-84.0990,-103.6291
-3812.5000,-147.1389,16.9276,59.0584,139.1569,131.8855,61.4239,55.7951,93.6853,29.7317,-119.9087,-44.2241,3.4624,-206.3372,-27.2760,-70.1497,14.4702,56.1473,151.9946,35.5416,-125.2670
-3804.6875,-9.2459,57.8956,128.8874,169.7254,90.9906,58.1456,15.5997,90.5281,-11.9730,-86.4428,-9.3484,33.4857,-99.1606,-30.4570,-75.1642,7.6194,-54.1357,78.2911,-109.2754,-129.3600
-3796.8750,-14.0517,70.4212,10.0100,164.5990,-64.6197,50.1655,-65.2971,45.6636,-94.3911,-94.6789,57.8275,133.8385,4.3304,-1.3384,-47.8784,-20.1586,-59.1173,37.8834,-114.8025,-64.1531
-3789.0625,47.3911,111.1287,35.3936,189.7327,-112.9784,76.4351,-149.9514,-37.9682,4.4529,-105.6809,-61.7720,157.4695,-226.9673,25.0274,123.6757,-46.5843,1.1728,-41.2809,-89.0731,-38.7018
-3781.2500,43.3916,61.5401,-82.6635,184.4325,-228.7872,34.2486,-155.0614,-118.0697,33.8534,-1.1510,43.1814,148.6814,99.2987,55.9385,79.7769,-53.1045,-109.9894,-81.9001,-162.8153,-8.7041
-3773.4375,-51.3168,51.0224,-109.4249,157.4504,-256.2980,80.3576,-180.8791,-107.8892,115.5473,118.6706,-129.5834,156.2313,-148.1429,66.1431,88.1818,7.5070,75.1628,-72.2261,-49.2546,0.5923
-3765.6250,16.7322,74.6833,-4.4267,119.2308,-187.0509,77.2140,-184.9565,-110.9712,146.9946,-32.7602,-58.6193,150.5600,-114.8559,26.0889,45.3503,-53.2415,72.0741,-74.8112,-120.9466,32.6355
-3757.8125,6.3339,57.2856,-126.8857,142.5730,-310.2704,64.6205,-234.4988,-86.5090,59.9789,-8.6445,-33.1120,135.4752,-15.9988,87.5825,-41.9336,-23.4352,24.5321,-15.8452,-63.0959,56.2288
-3750.0000,-1.5164,28.6767,-97.7946,63.4798,-132.9416,-15.4236,-130.5028,-56.4994,162.5233,132.0173,-185.0858,52.9772,-278.6380,44.6235,97.3455,23.7573,51.5624,-59.3364,139.3158,12.3680
-3742.1875,-10.3605,-19.2928,-71.7025,-17.6014,-33.6134,-61.4714,7.4822,8.5007,226.0789,122.6684,-83.0592,4.5137,42.7272,-75.3453,-24.3727,-1.5517,-64.4065,2.1657,24.7058,2.5041
-3734.3750,-94.4637,-15.1612,-11.8674,39.0866,26.4482,-37.7733,-5.7979,32.2371,137.3884,72.0584,-169.3020,-48.1609,-80.1609,-88.5664,-39.3344,13.1399,62.3864,93.4222,115.8389,-11.6090
-3726.5625,-31.1727,9.7082,128.3802,30.1866,166.9126,-43.6756,24.3102,62.3633,56.1096,-7.1704,-174.1805,-93.4037,-122.6759,-94.3938,-46.8772,9.3025,88.5949,85.0755,108.3725,-55.3211
-3718.7500,-21.1364,6.3027,28.3719,4.0457,141.1193,-31.8352,110.1697,74.2306,29.5749,-69.6514,-124.3204,-46.8630,73.5800,-82.4764,-110.6652,-12.6222,-7.4521,130.4767,82.6395,-81.2805
-3710.9375,-17.7538,45.3049,32.7095,-28.7345,255.6739,-63.6464,151.3704,5.4328,33.4057,-138.7787,-229.1437,29.0636,-178.8498,-77.2125,76.9117,-55.1557,65.8726,63.2197,155.2635,-113.8932
-3703.1250,-15.8633,38.8958,33.5555,7.0005,293.7312,-61.9624,227.0594,-65.8793,-76.2507,-211.4248,-42.4768,65.5274,117.2204,-112.4552,39.9931,-120.9556,-74.2988,28.4476,-54.6305,-113.0080
-3695.3125,-154.9771,-6.1614,-40.6067,77.7495,182.7745,-25.2808,189.7352,-66.2071,-40.9066,-175.0830,-41.8172,63.0395,81.2894,-38.7019,38.0780,-81.6921,-73.4635,-40.3297,16.4712,-77.1220
-3687.5000,-147.9874,2.6455,-36.6571,83.6055,186.9202,-20.5009,158.4948,-135.4461,72.5467,-169.6487,-35.0873,139.6897,-24.5848,3.1482,152.2833,-100.0985,-138.5134,-140.0116,-12.3192,-36.1380
-3679.6875,-104.7450,15.5637,-179.4540,90.7215,6.3095,-16.4775,89.4988,-166.4510,-34.7569,-91.9727,116.8926,252.6275,237.8088,44.2402,118.7389,-100.9391,-201.3144,-202.4492,-145.8785,41.0972
-3671.8750,-30.1614,83.0608,-140.9015,94.2049,-63.9575,-14.1030,-55.1646,-164.1181,-32.7054,20.0375,47.1914,289.9573,-90.4764,9.6779,156.5611,-77.5795,-22.7367,-233.5461,-37.0805,79.6840
-3664.0625,188.9218,129.3922,-59.8363,30.2069,-93.7296,-78.2340,-47.3442,-156.3040,-26.1396,-9.4787,165.9716,221.8269,28.7263,-55.3913,-21.0987,-118.7646,-15.6473,-226.1550,-134.7923,86.7739
-3656.2500,119.8025,89.1495,-96.9801,30.0215,-167.7206,-77.5730,-82.7344,-155.7071,83.2349,64.8036,94.5349,184.5423,-7.2618,-18.6658,-21.9577,-80.3034,19.2440,-190.9707,-99.7122,86.6690
-3648.4375,88.0319,89.7249,16.2227,32.2004,-53.3556,-73.5643,-114.7875,-187.7757,233.9782,32.4365,-10.5944,150.6518,-221.9394,-13.5938,17.5556,-84.7162,127.5000,-223.4494,-96.2850,53.9135
-3640.6250,62.5623,74.8310,24.7244,40.6920,-80.6937,-64.2557,-105.5511,-215.5652,58.0274,-68.6547,146.5667,158.1042,80.6999,-4.2230,-47.6215,-121.0229,66.0541,-109.6351,-158.5841,62.4601
-3632.8125,-3.5679,30.9603,29.5749,8.5499,-3.6925,14.4029,-64.9829,-64.0179,-48.5670,-64.4044,-30.9471,13.9500,-134.3324,38.4969,66.5654,-19.1244,173.9751,-1.4742,20.4700,30.3592
-3625.0000,-3.3543,-9.2129,67.7870,-27.2364,107.6682,16.4046,10.9257,48.8708,-10.7961,11.1923,-28.1392,-22.8215,14.9685,3.5549,67.1175,28.7512,68.2524,-71.9620,-86.1252,-5.3919
-3617.1875,5.2896,45.6564,-70.5568,-18.5653,-29.5291,-10.1491,-52.7198,58.2071,-1.5772,57.2414,-16.9001,169.8956,62.7395,-22.9432,39.1178,5.0328,75.9765,-134.0005,-78.2790,-32.6911
-3609.3750,121.0249,165.4582,-57.7985,25.2170,19.3742,-33.6077,-113.2763,-2.3664,46.7483,33.3821,-113.5988,328.7596,-218.4309,-46.3509,87.2438,-43.8305,120.8199,-124.9505,-33.3296,-93.8915
-3601.5625,101.2685,163.0941,-41.5317,39.5090,-1.2313,-17.5767,-23.3453,14.5413,-121.4172,-59.9949,-22.7982,417.1656,92.9061,6.7340,-44.1130,-52.6393,-75.8374,-74.4172,-123.9043,-114.5906
-3593.7500,-17.9941,211.9904,-55.7675,96.3184,21.6509,5.9557,37.0696,37.9305,-210.0727,-73.8812,-219.5209,549.1138,-104.2721,30.3199,-22.9597,-25.8955,51.0160,-88.3930,2.0194,-128.7876
-3585.9375,37.0985,271.5493,74.3679,114.4914,115.8947,-47.1679,57.8268,-88.3524,-116.3597,-201.4380,-234.9205,642.4507,-83.1308,-22.7506,-3.4416,-135.1292,34.2304,-176.0276,-119.7154,-145.6357
-3578.1250,-2.6079,253.8529,31.6972,73.8742,-0.6696,-52.1017,15.7719,-204.4540,-122.4400,-169.8079,-165.1279,709.0340,96.2303,-27.6319,-9.7206,-180.0744,63.6441,-216.4677,-160.2625,-151.2813
-3570.3125,90.7753,283.8404,129.1317,61.3662,23.8616,-26.9462,3.8009,-216.4665,-62.4057,-145.0754,-287.2821,659.7595,-209.3472,34.5798,51.1268,-144.5348,121.1754,-263.8209,-67.6960,-163.8242
-3562.5000,226.1037,297.5929,84.5196,54.8156,-21.6634,-34.8456,32.7736,-187.5417,-34.4044,-227.3958,-109.5081,650.4711,77.0275,26.7325,-32.0626,-184.8039,-26.3460,-235.2388,-215.1859,-135.4120
-3554.6875,140.8678,298.4460,30.3474,74.7203,-37.7541,-50.3020,53.1884,-167.1775,-14.9414,-207.2628,-125.3037,669.6750,-49.1511,-26.6639,-12.7825,-185.0416,64.5852,-215.2160,-160.2298,-115.5426
-3546.8750,152.4792,302.6465,115.0315,120.4770,46.0094,-75.9184,27.4424,-228.9768,-40.6080,-232.2831,-40.2798,605.7678,-110.5092,-88.2204,-2.6200,-228.2384,75.3771,-274.3557,-149.4234,-104.8186
-3539.0625,161.5841,262.6617,47.2139,92.7390,-57.7342,-106.0413,-1.8186,-221.2896,-71.7654,-188.8182,78.2370,538.4029,80.6537,-44.2909,-69.9482,-205.9866,82.6610,-265.9964,-141.1311,-61.5860
-3531.2500,259.8716,270.9641,112.5995,49.2069,-29.2843,-76.9739,-46.8935,-193.4111,66.2953,-161.1554,-113.0796,382.2773,-222.0197,-52.1631,30.9420,-176.0018,215.1669,-239.4450,61.3700,-70.1475
-3523.4375,356.3121,263.0574,177.1442,39.8321,-1.6847,-85.7642,-55.8301,-202.4006,-16.4813,-206.3462,-11.2618,298.3427,-9.5541,-23.8924,-89.0051,-182.2427,135.8283,-178.7533,-17.9938,-79.5545
-3515.6250,236.5452,229.5754,161.4834,59.2763,-91.2924,-63.7653,-70.9738,-107.6111,-216.4638,-148.7434,-25.6624,208.2534,-134.2867,-38.8322,-142.1423,-111.0827,261.2958,-18.2667,177.4432,-95.1560
-3507.8125,221.1241,214.4229,255.1865,79.0818,-33.5417,-42.4196,-86.7782,-13.4849,-197.0864,-201.8161,-76.7510,81.5632,-260.7063,-91.4245,-84.9076,-93.7433,315.1340,71.5573,232.2386,-111.4056
-3500.0000,120.8490,130.8241,186.0381,84.0448,-102.6520,-36.9313,-118.4434,65.7742,-118.5416,-159.7531,2.3036,12.0638,3.0411,-85.8733,-227.5128,-56.8703,214.1093,111.5186,237.1701,-106.4995
-3492.1875,93.0062,111.7087,196.3278,20.4587,54.6821,-26.9990,-71.6676,112.4716,1.4845,-76.2369,-207.2241,-14.9514,-317.7852,-38.8812,-181.6327,16.1760,256.5414,82.9148,349.5581,-170.1358
-3484.3750,167.3510,125.9571,235.8230,-12.9247,167.2204,-23.8784,42.3013,79.3636,-180.2556,-146.5230,-56.5780,24.2654,-93.4216,-35.7038,-216.5264,-18.4432,153.1712,15.5053,176.1325,-167.5660
-3476.5625,128.6839,108.1329,118.3132,18.6987,123.7486,43.2311,72.2565,-1.7567,-259.9879,-116.8218,-25.9454,53.5219,-26.0474,31.4711,-187.4122,-11.3349,114.8099,-23.9051,101.6978,-100.9891
-3468.7500,126.6113,69.3263,113.4206,-54.0685,192.8772,2.9403,104.8012,-79.2897,-8.1171,-121.5341,-176.7465,12.4209,-140.1177,-8.7530,28.3245,-56.7304,41.0716,-26.7323,98.8716,-68.8097
-3460.9375,69.5381,-11.5767,-22.4650,-111.8256,129.9999,-22.3575,153.3328,6.1618,112.7502,-110.2469,-90.5564,-13.6331,166.8268,-33.9830,3.0696,-50.2595,-121.6722,21.4249,-28.9741,-20.6224
-3453.1250,-82.4585,-42.1804,-36.2517,-88.4767,116.2165,-35.5589,102.9472,66.6978,172.7293,24.1517,-212.2988,9.4552,-30.1491,-47.1190,135.9344,15.3998,-28.3073,9.6772,29.2824,2.6726
-3445.3125,-51.6611,-34.2243,30.7678,-23.3231,36.2377,-77.9724,23.3513,-13.9786,202.5350,54.3417,-72.2664,39.3769,110.6541,-89.4657,202.6225,-35.1336,-102.1422,-66.2760,-151.6631,32.7708
-3437.5000,11.2744,24.7125,-125.0785,38.9828,-156.6001,-86.2464,-59.0989,-23.5114,82.4999,81.6753,-7.0955,140.4789,175.6231,-97.6676,192.4738,-57.4711,-74.8367,-109.0829,-194.4551,60.0242
-3429.6875,170.7461,104.8901,-69.3729,21.8390,-99.8828,-102.9789,-76.0049,-76.4942,65.0420,27.5546,-23.4148,123.1587,-98.8940,-78.3303,174.9024,-82.2356,83.0258,-161.3490,-141.6801,42.8311
-3421.8750,154.1106,82.7254,-51.7623,39.5943,-119.2613,-84.8248,-58.0135,-58.5932,45.5029,-28.6786,142.1560,103.7650,177.5025,-96.1086,-28.7502,-101.5802,-5.2131,-143.7246,-194.0106,60.5447
-3414.0625,4.9096,50.9977,-133.7053,30.8014,-128.1898,-57.2312,-102.5752,5.7411,110.4202,73.5329,-12.8452,131.8575,-88.6611,-32.4457,36.0654,-14.3426,92.0108,-81.6568,7.1216,51.7184
-3406.2500,60.2473,75.4751,-113.0855,50.5605,-144.5597,-37.0934,-82.5927,26.6135,56.9027,57.2978,-28.3289,151.5362,-104.2996,-11.2368,56.4539,-7.3526,4.7867,-64.0484,61.8024,35.4491
-3398.4375,71.6655,51.3080,-213.3733,-9.5756,-207.8372,-25.8624,-71.5167,74.5809,67.4954,-5.8421,20.2814,126.3535,55.1830,-36.9290,-7.0549,-28.4843,-54.3476,16.6498,142.5702,46.2901
-3390.6250,72.0153,22.6443,-139.7049,-78.7595,-61.1664,-25.6863,-35.5068,37.4881,251.0661,-79.0385,-162.1932,15.1489,-164.4234,-36.6742,66.4219,-45.3530,-19.5146,16.2859,248.2914,46.0857
-3382.8125,33.0705,-43.8719,-108.3249,-118.2474,-29.7956,-65.8213,70.1927,-4.9210,208.3550,-83.5396,-20.9774,-26.3269,160.6756,-40.7321,60.6208,-63.2449,-162.9889,47.6040,68.7031,77.5876
-3375.0000,-155.1388,-109.4514,-124.2043,-96.9800,-8.6880,-8.2192,91.6342,16.4139,82.4027,46.7148,-108.0302,-41.0146,72.5210,16.9491,191.5861,27.4247,-106.7111,-1.3325,124.8724,98.8482
-3367.1875,-174.3077,-137.6522,-35.0259,-116.6562,79.4736,7.4216,144.1155,-4.2091,171.5265,62.0190,-92.0616,-62.6251,51.3872,-3.3328,243.6195,25.5312,-161.3801,-56.2295,-0.8952,114.1651
-3359.3750,-199.9249,-168.1823,-137.3055,-106.7800,15.1737,-20.3994,78.1408,-32.2900,179.1989,69.8694,62.4601,-54.6517,317.8207,5.9257,141.2052,5.3459,-187.5071,-81.5905,-131.1217,159.0425
-3351.5625,-138.8963,-126.9880,-37.9376,-152.2538,76.5177,6.4196,31.8040,-42.7306,131.5334,96.3677,-56.3864,-65.0014,-23.1308,31.8342,204.4642,35.2095,-21.9686,-127.3103,-36.6830,148.5780
-3343.7500,-39.2235,-118.3319,-6.9082,-158.0835,70.5120,0.8768,26.1076,-11.5403,-20.4524,127.5050,47.4251,-70.6768,191.5658,26.3873,124.3949,45.6743,-132.7850,-133.3905,-182.6103,142.7703
-3335.9375,-119.8771,-101.9758,-94.1849,-64.2101,-51.8072,61.0239,-59.9041,12.3410,-70.7180,188.3486,35.9279,-9.6269,105.9706,50.6329,111.0531,82.5052,-73.9083,-109.7829,-88.8405,166.6712
-3328.1250,-89.3992,-55.6663,47.6986,-34.1906,17.0265,20.3116,-64.7804,7.3641,-38.8008,146.3578,-78.4543,-14.4060,-81.5083,46.0139,105.8934,78.1253,-8.8770,-80.0366,-23.9079,161.7315
-3320.3125,-77.8327,-45.7487,-14.3199,11.9203,-156.0452,31.6853,-53.5600,-18.5172,-64.7745,11.4706,43.2554,-3.0657,150.1407,93.4873,-66.1578,32.9769,-32.7602,-69.1869,-47.8811,172.9047
-3312.5000,-72.3338,2.7726,-7.3925,86.9812,-186.1664,38.0007,-156.3947,-11.4548,88.2164,17.5314,-59.1101,-32.7552,-209.2844,63.9051,-59.2374,31.1586,148.3154,-99.3858,168.1102,143.0387
-3304.6875,24.8601,-1.7717,-14.7521,78.7396,-119.5777,-4.9948,-126.5327,17.2915,81.9234,84.2763,81.2087,-112.7163,-69.0207,-14.9852,-176.5978,26.9161,34.0901,-2.8890,194.7991,99.8813
-3296.8750,-40.4105,-62.2860,-228.5665,13.0506,-113.4426,0.5467,-47.1181,60.5814,51.1827,200.5649,14.0680,-143.1021,-63.1928,27.6681,-170.4031,94.1993,-31.5845,142.1517,340.0336,69.2843
-3289.0625,-50.3375,-69.4580,-201.0190,-67.2892,24.0476,29.4337,-19.3653,89.2081,152.8181,118.1981,-139.7505,-151.1166,-254.0539,19.6699,-69.8252,86.2692,-6.9006,166.5223,400.6222,24.0446
-3281.2500,-123.3168,-130.4703,-168.5134,-141.6799,-17.5185,25.2624,13.3298,120.7681,185.4183,3.7762,-71.6151,-155.1608,72.0579,-21.3875,-110.2836,42.3636,-115.2802,232.8266,325.1426,19.7662
-3273.4375,-171.8182,-127.7858,-72.5165,-154.5729,43.4077,12.5856,74.5162,144.8259,246.5280,-9.1284,-155.9959,-167.6829,-124.3468,3.0523,-50.2258,68.2101,11.8471,148.6283,383.1736,6.9979
-3265.6250,-54.2693,-98.5423,87.5494,-177.4147,92.3887,-49.0542,122.7366,46.9322,110.7052,-33.9843,2.6578,-155.1414,36.2783,-21.4678,-38.1015,12.1330,-46.9719,55.4705,219.2544,19.2864
-3257.8125,-128.2713,-133.2288,7.0592,-146.8070,-61.1931,-18.2513,117.3971,77.4816,-5.6639,-3.3934,70.7641,-161.1356,177.3703,-27.5422,-7.5168,29.5481,-51.3503,85.7590,108.7797,50.0373
-3250.0000,-115.5884,-103.3060,167.2715,-99.5069,24.9287,-4.7586,56.7524,53.7251,44.6792,-27.0929,-26.4606,-184.4156,-66.8701,-86.9277,189.8022,6.9120,30.9810,61.7449,50.0227,26.4976
-3242.1875,-23.2684,-94.3237,153.1348,-42.5662,47.7068,-54.6276,5.7630,39.6196,-79.3093,-77.1376,217.9519,-161.0379,287.5560,-99.6720,138.7886,-40.1000,-157.0482,49.3807,-243.0901,49.6160
-3234.3750,-50.3804,-96.2027,10.5948,-1.0320,15.0830,-12.9050,-25.6290,44.1147,-73.6802,37.4220,149.9437,-119.0463,72.5791,14.1823,180.3955,35.0196,-150.4774,-49.3839,-236.5904,91.3419
-3226.5625,-50.6021,-132.0562,9.9633,-35.6007,-21.6343,22.7094,-100.1269,42.5035,70.8748,146.8748,148.8153,-83.1456,71.4800,49.9315,179.9232,68.3542,-291.0027,-155.2557,-272.1816,126.9754
-3218.7500,-207.3294,-195.7378,-156.1790,-16.6760,-188.8607,40.8081,-119.1306,24.3862,124.9478,237.8405,166.1944,-28.7329,235.9017,104.1681,85.9519,101.0940,-378.0389,-101.6307,-218.2778,181.1204
-3210.9375,-200.5669,-159.0026,-147.8174,-45.2629,-107.5773,48.3900,-74.6326,-4.2376,133.5418,245.3148,-44.9540,-19.8100,-85.2143,149.8910,131.5077,126.1698,-230.5611,-95.5057,-35.8540,152.7723
-3203.1250,-143.7079,-151.7154,-126.3335,-59.7591,-122.1811,34.0576,-15.0301,17.2270,82.2360,194.8772,49.9961,-70.7833,120.7806,61.7029,43.1814,84.8554,-244.9890,-40.2853,-50.3371,138.5336
-3195.3125,-224.7232,-173.8804,-62.6988,-105.1057,-168.6358,23.8667,-62.2789,42.8398,146.0817,184.5910,-68.9106,-153.5941,-36.0652,51.6592,33.0207,105.1142,-44.2671,54.0786,185.3323,128.4559
-3187.5000,-171.5501,-146.9435,102.1505,-123.2514,-76.8855,5.8650,-117.3307,-11.3510,201.1576,129.5161,-49.6378,-171.2036,-89.7424,33.8080,15.0809,69.3038,42.6632,35.6339,167.2055,110.5832
-3179.6875,-90.1308,-85.0344,76.2530,-77.1459,-102.8876,-18.8972,-143.1350,-36.2949,-7.5135,66.6873,70.8925,-86.5549,177.8574,9.1955,-82.6036,21.0915,18.8301,117.4350,37.3145,121.9695
-3171.8750,-54.8721,-43.0553,114.2091,-78.1965,-29.0378,-18.8157,-142.0992,-36.3913,-116.3276,67.7090,-37.7460,-85.0525,-113.7195,9.4337,101.5866,34.3919,158.8634,116.0787,36.2893,86.2150
-3164.0625,39.3830,-100.4918,104.1721,-123.2578,-3.1827,-28.7410,-78.0660,-46.4866,-126.1124,57.7384,136.6040,-204.5597,169.7072,-36.3318,128.7891,1.8310,-61.1133,140.7107,-148.7317,76.4688
-3156.2500,-68.2784,-193.7398,-119.7755,-162.2281,-43.2397,40.4250,-45.9371,96.5175,-92.7814,163.8815,-14.9434,-281.9643,166.2437,70.0009,198.1053,125.1307,-100.9945,171.4330,-81.6463,72.8329
-3148.4375,-128.0370,-184.9651,-70.8174,-151.3033,79.6035,127.4830,-33.9195,145.4143,-44.5421,139.9278,-110.5909,-195.4665,32.6480,120.2289,248.3552,160.8468,-88.9725,42.0427,-141.6577,49.1040
-3140.6250,-145.7431,-96.3702,-91.8086,-28.3343,-15.5117,105.5858,-17.8603,50.3645,-138.2536,8.0262,87.8306,77.0777,342.1312,98.4972,79.6604,51.3303,-177.9204,-117.3036,-335.6315,101.4386
-3132.8125,-204.5188,-60.2985,-44.8529,-17.4212,-4.6856,78.6338,-43.8593,-48.7315,-17.0008,19.0887,-47.8134,161.5672,58.5431,108.7175,200.9321,28.1537,-25.9122,-211.7019,-218.6415,148.7367
-3125.0000,-163.4961,-61.8112,-4.0852,-46.7147,-1.0489,47.4726,69.9407,-82.0356,24.0695,-13.0508,-43.6613,165.8507,246.7450,76.7355,205.0194,-10.8124,-125.1060,-241.3026,-282.8496,189.8439
-3117.1875,-259.8341,-87.6256,-107.6770,-3.3708,-104.7693,16.9502,40.3918,-111.6879,-43.2030,103.4597,-72.8531,172.7825,290.6158,84.3992,248.7623,16.1528,-81.6576,-233.2426,-239.4003,233.6118
-3109.3750,-215.5358,-86.9147,-25.6117,5.6111,-58.8224,26.0638,-60.5007,-139.6872,77.1982,148.6369,-100.4223,110.3590,44.1024,93.6943,331.1806,30.9505,-72.5551,-189.5318,-195.2738,243.0335
-3101.5625,-212.5494,-122.7943,-134.8379,8.2785,-169.1682,26.8567,-133.6854,-101.9935,78.3200,150.5168,121.7135,111.6342,302.3141,94.6795,222.3101,26.5591,-210.7694,-82.1224,-298.4520,281.1640
-3093.7500,-278.9302,-119.1182,-203.4190,12.5945,-200.8698,68.2928,-202.2214,12.3533,83.1030,155.0398,-20.5125,79.5597,13.1648,136.3109,154.1101,98.6141,-66.3261,27.9383,-46.9716,285.9554
-3085.9375,-171.8090,-87.7467,-127.4848,-21.5903,-88.0534,71.2228,-163.2580,52.2001,12.3973,85.0681,-18.2496,8.9733,-20.4991,102.4313,10.4116,91.8605,-64.3747,133.4895,24.0143,252.2541
-3078.1250,-133.7507,-85.1773,-196.5972,-53.8301,-157.2806,76.0925,-84.3376,92.9928,-92.3593,16.0632,-50.0244,-58.6723,57.8112,106.4904,-21.3443,89.3246,-26.4766,241.9886,166.9442,220.5097
-3070.3125,-112.4053,-65.6704,-134.3983,-68.7824,-21.1932,27.2522,13.8825,81.0780,6.2020,4.3677,-207.5135,-107.0238,-173.6122,21.8461,151.2309,59.4475,28.7258,226.7783,294.1902,136.0681
-3062.5000,-180.7630,-156.9294,-167.8975,-102.4489,17.1953,-42.3001,53.4045,121.4617,83.0872,117.9640,-93.6991,-140.0881,160.2906,24.4966,44.1352,95.0270,-179.7914,227.8645,189.7288,102.9350
-3054.6875,-339.7383,-206.3827,-186.0105,-120.7259,-1.0266,11.5436,72.3245,176.2554,102.3880,209.9715,-258.4889,-157.7659,-41.4032,80.5417,63.4528,183.7745,-56.9098,209.3549,277.6819,85.2140
-3046.8750,-271.7682,-181.0846,-41.1501,-88.0617,71.7087,84.3277,71.1911,138.0002,64.6448,98.9426,-223.3381,-195.5099,-42.1725,79.5298,25.7357,149.2455,-61.0699,170.7942,168.5981,47.4495
-3039.0625,-247.6531,-135.0050,-88.1403,-30.2532,-13.4149,110.2515,97.2074,126.9032,-128.9593,51.0687,-87.0239,-95.1139,131.2361,105.6603,-58.8331,130.7646,-72.0871,159.3969,87.6621,36.8443
-3031.2500,-126.2069,-14.0786,-31.7804,21.8965,79.8148,92.5159,79.5742,110.1654,-110.1930,-39.4453,-176.3803,-2.3819,-179.0344,88.1337,-1.0339,86.1356,50.2579,70.3567,175.0966,-16.4050
-3023.4375,22.3829,0.4741,-59.2648,29.1925,89.2072,101.9185,126.0931,82.5771,-100.2511,-66.8059,-57.5825,-29.5093,87.8520,60.7518,-102.0733,39.9646,-118.2595,7.4639,76.6696,-43.5009
-3015.6250,-116.1868,-72.7004,-91.9050,-3.6684,19.4474,106.1637,130.4608,123.8347,14.5510,47.6796,-199.9297,-98.7923,-54.4000,102.2188,-97.2551,116.0260,-44.9351,9.4268,185.0962,-75.7395
-3007.8125,-116.5075,-122.0315,20.7195,-110.2929,131.9518,71.6526,132.0822,162.3432,201.6099,160.4159,-271.0363,-169.8345,-162.4284,30.9278,-21.1671,140.5724,-46.3570,-62.3648,184.7920,-146.7240
-3000.0000,-128.3331,-121.6080,-66.1457,-87.4279,81.9544,20.6305,119.2106,185.3559,78.1668,220.6637,-100.6217,-109.3949,118.0703,-19.8717,-107.5840,133.8929,-93.2942,-4.6577,31.9847,-123.2014
-2992.1875,-154.2720,-28.8680,16.8945,27.3294,164.8620,30.4967,92.2375,122.2758,14.6280,156.8258,-237.3217,-25.0753,-202.5550,-9.7808,-60.0837,117.4692,92.6783,40.9549,77.1026,-112.7729
-2984.3750,-48.0033,20.4827,128.1501,63.2737,164.9886,-42.4466,55.4728,11.3938,15.2910,10.1892,-52.8185,-24.5782,-17.9753,-9.4976,-243.3764,26.3995,92.8479,110.7640,-28.5818,-112.1369
-2976.5625,-46.7463,47.1096,167.4085,99.2074,58.1097,-40.3930,-15.2923,-22.4876,18.9621,-23.4399,-13.3092,-22.1013,-124.3760,-6.2113,-312.6674,8.5459,164.0136,217.5763,78.7381,-145.4907
-2968.7500,86.1555,116.6218,308.3227,125.7832,124.8939,-9.6971,-58.4165,-65.7115,86.3093,-139.4047,17.8359,-27.9964,-351.1584,-49.2807,-209.2889,-54.3285,191.8354,244.0333,70.7256,-188.1933
-2960.9375,212.1012,157.0949,291.2914,145.4001,34.7364,10.0365,-75.4815,-45.8826,-150.2920,-267.3101,259.0469,-7.8536,-73.8618,-66.3106,-298.8499,-108.8830,105.6901,228.5377,-14.2499,-167.8422
-2953.1250,304.7810,176.2495,316.0081,62.7593,59.3344,-39.4835,-123.7860,-21.2960,-199.1371,-205.4588,135.9939,-56.9758,-306.8274,-78.5962,-200.6497,-86.7984,199.2975,145.7984,149.5423,-179.7365
