Time,Fp1,Fp2,F3,F4,C3,C4,P3,P4,O1,O2,F7,F8,T7,T8,P7,P8,Fz,Cz,Pz,ref
-4000.0000,-31.1760,-32.0026,-14.7084,-27.4859,5.0022,-3.4560,27.1586,-41.9753,81.8808,24.0124,-44.7707,-26.2108,-27.2106,-33.3720,56.8796,22.3780,-35.2161,4.4103,78.1439,22.5458
-3992.1875,-64.9940,-87.3812,-109.8181,-82.8521,56.0981,-26.3463,41.6118,-28.4958,60.1832,75.4106,-31.3312,-65.4401,23.4294,-55.7789,-1.3341,36.5813,-21.5372,53.4758,93.2218,36.8387
-3984.3750,-53.0776,-161.4612,-38.6295,-86.9145,91.4929,-26.9294,77.3641,-29.7046,23.7871,38.1148,-32.5999,-67.7195,-14.6341,-20.8785,-1.2492,-0.9149,81.4422,85.8383,91.5960,-0.5765
-3976.5625,-19.7673,-91.7897,-1.6858,-52.2273,128.6437,-26.7558,77.8759,-30.1599,-47.8586,38.5701,-33.1161,-48.6062,59.0559,-58.2295,-74.4166,-0.6656,81.1640,85.9507,57.7078,-0.2471
-3968.7500,28.0681,-0.4562,20.8962,-31.8990,77.4413,-3.9229,28.0267,-7.9511,-97.8711,-12.3247,-10.9690,1.4032,44.4023,1.0750,-124.9456,-14.7639,136.5383,106.7122,9.4523,-14.2666
-3960.9375,53.8258,47.3336,71.9338,16.8830,55.6835,11.3635,42.6219,-30.2915,-44.4456,-33.7757,3.6396,6.0859,22.1876,-58.1631,-72.0350,-73.4158,79.3818,49.9204,-46.3661,-35.8411
-3953.1250,27.5377,23.5268,8.3777,-7.9302,-7.6752,21.0578,-57.3920,15.7774,-70.6278,50.1791,49.6414,-33.2184,105.3741,-85.0083,-24.7342,-26.6667,20.6304,-8.4705,-69.7971,10.9799
-3945.3125,57.2985,3.9705,25.0709,8.5119,-100.7917,38.0070,-77.1606,32.1068,-52.5635,30.3791,102.8870,-17.7437,10.8049,-32.6023,-7.1852,-83.6694,107.1425,-27.6169,-51.9866,28.0470
-3937.5000,92.7672,63.2167,48.5653,31.7576,-150.1104,24.7631,-125.1282,18.2372,-27.6933,54.3759,125.9285,1.2999,-2.9720,-45.3968,-56.8398,-205.8797,95.4514,-38.9674,8.6205,51.9082
-3929.6875,68.4350,35.7686,21.3485,40.2952,-104.1322,34.8293,-79.7994,64.6797,-16.5222,64.6765,61.2650,12.4418,6.5584,-36.8925,-83.2032,-269.7867,138.0602,4.9851,17.5235,25.0665
-3921.8750,73.9485,19.3371,117.1354,58.8317,-8.1536,20.9013,17.5329,13.1304,6.6494,-23.0312,46.5964,28.5951,-7.9198,-14.3898,-59.5720,-283.7022,86.6797,-11.0600,-32.5822,-25.7785
-3914.0625,24.5100,56.6707,7.6775,26.1188,-7.4270,58.7384,-18.3915,50.3409,-27.4392,88.0198,9.6741,41.2892,29.3526,22.8550,-95.2029,-208.8707,-16.9493,-44.3507,-28.9563,12.1283
-3906.2500,32.3460,41.9559,-6.8352,46.3579,-21.7470,44.5387,-32.3751,35.5131,-40.5869,38.0310,31.6917,50.1775,-22.4265,45.0473,-71.8984,-223.0868,39.3781,-22.6893,-7.3905,-2.0153
-3898.4375,40.8534,54.7875,8.2032,59.1509,-6.5073,58.8926,-16.8042,50.2419,11.8162,16.5971,46.2593,38.2257,-7.6666,-14.2146,-93.0449,-207.7635,-17.7472,-9.4777,-28.2833,-23.6148
-3890.6250,2.7957,15.9743,-69.4176,55.2883,-9.9182,92.6018,-19.8813,82.3366,9.5633,-23.4802,5.1704,41.1358,25.4492,18.8745,-58.8490,-139.0878,48.4727,57.0897,-30.8332,-26.8651
-3882.8125,41.2868,29.8140,-14.3888,105.0749,-28.6743,110.9635,34.6948,63.0911,-45.0407,-78.9115,21.7263,83.5339,-67.7893,72.6160,-77.0095,-157.7697,133.3573,36.3104,-50.7358,-82.4688
-3875.0000,42.9584,75.2626,-3.7579,115.4554,-17.8272,47.9263,-64.1274,73.4502,-106.0437,5.2556,-4.1208,76.9089,-20.4258,45.9466,-102.5822,-109.8569,143.8479,12.1330,-109.0388,-71.4775
-3867.1875,102.2167,149.8201,72.9707,118.9332,-50.8808,15.0016,-133.8519,39.9218,-137.9498,-26.4751,35.1249,85.2669,-53.9644,49.3737,-61.0715,-105.8417,217.4480,-18.9389,-175.2501,-67.3914
-3859.3750,138.5607,194.9241,120.2572,57.9606,-77.3828,-10.3578,-86.0264,13.9507,-126.3067,-52.6551,118.9196,58.2771,-6.9643,23.3497,-50.0172,-95.2790,122.6026,-78.4601,-232.9212,-56.7619
-3851.5625,91.4781,133.4703,54.9893,-2.5664,-106.4416,34.7476,-114.7595,58.4484,-117.2194,-7.3731,126.1626,22.6403,74.4853,30.7738,-78.5280,-13.2616,61.2114,-104.5310,-223.1527,-11.6820
-3843.7500,76.5321,31.8220,94.5271,35.7077,-102.7010,1.6585,-110.6951,61.7556,-112.3316,-3.2963,129.2059,22.4937,3.7251,71.0019,-0.2521,-46.4525,99.6376,-100.8031,-182.5929,-7.8072
-3835.9375,13.5054,-20.0581,40.8177,-16.2657,-83.2097,21.3223,-126.8860,80.8161,-91.7001,16.5306,74.9970,3.1607,59.7101,89.9776,-17.2344,10.1035,13.8214,-81.3251,-162.2980,11.8139
-3828.1250,7.5676,-7.8281,-19.7974,-40.1338,-32.6223,35.1002,-39.9830,92.9911,-76.9798,-80.5431,50.8809,29.7068,35.7854,139.0538,-40.1259,-13.2362,60.1161,-33.7437,-115.9116,-11.4696
-3820.3125,23.6215,7.7048,35.8974,-23.7002,23.2690,17.1844,53.2255,38.4730,17.0368,-134.3211,32.0652,26.1750,18.1509,84.4265,-20.7267,-67.2792,40.7216,-17.8626,-98.2375,-65.4615
-3812.5000,17.3175,42.1951,-37.4594,-59.3179,60.1108,17.2296,53.3743,111.9202,-19.0036,-60.1414,31.2003,9.8207,53.4686,46.7420,-56.3906,5.6328,40.2775,-18.0311,-97.6328,-65.5035
-3804.6875,51.5963,60.9443,19.4378,-5.6781,118.2008,-34.4743,74.7689,58.6270,-69.8075,-75.7176,51.5836,38.8250,1.0245,67.3095,-108.8121,-10.2019,95.0964,1.0527,-148.7924,-81.2979
-3796.8750,38.9341,56.4502,14.0904,24.7169,149.0405,-40.4258,68.9143,16.0869,-74.8661,-81.5524,44.7202,36.6921,31.3274,24.6341,-151.5017,-15.2897,19.6685,31.8903,-152.2191,-50.3471
-3789.0625,5.2646,37.7182,-80.5160,40.8612,91.6237,-23.6196,48.8043,32.3095,-94.1856,-101.6324,24.6075,57.5426,10.3788,76.7056,-60.4582,-35.6248,36.0028,83.4795,-99.9078,-33.6495
-3781.2500,-12.4441,67.5472,-46.5629,106.5646,14.7608,9.7317,9.2496,28.0822,-95.9674,-30.1625,-52.9557,112.8483,-67.0342,147.3226,10.1326,-38.4121,-4.0980,114.6156,-103.0598,-73.4100
-3773.4375,-57.8026,86.5404,-100.4594,124.4192,-111.9569,141.2384,-80.1590,159.0156,-111.6050,137.4601,-144.3708,134.7543,-84.2935,167.0797,-43.1381,54.9555,-56.0496,97.9017,-119.0798,-90.0221
-3765.6250,-17.0461,-24.6111,43.4969,119.1270,-151.8309,137.6033,-82.7229,191.8122,-40.4039,60.9303,-73.9397,89.7772,-124.7087,162.6945,-45.5681,89.1767,79.8614,-47.9599,-123.2620,-129.7870
-3757.8125,43.5722,-83.1606,200.0603,24.4309,-142.1071,74.5767,-109.6879,128.2187,7.3862,33.9986,82.0956,-13.8353,-4.5216,61.9134,-71.4110,99.0021,55.3703,-142.2184,-181.8561,-82.9582
-3750.0000,76.2413,-19.8627,153.4639,-53.4239,-41.5286,-8.5845,-82.8051,80.4960,-37.9860,-12.0822,144.9798,-27.1893,58.5206,51.9891,-81.4181,-21.3150,83.7300,-148.6322,-186.6132,-19.2828
-3742.1875,107.3644,96.1963,127.6221,-42.5236,43.8034,-70.9927,2.8244,-18.4723,-62.6178,-147.4286,155.6194,5.4359,69.3089,25.8165,-69.6867,-83.8870,24.8539,-31.3023,-245.6343,-7.8656
-3734.3750,61.5010,110.4710,31.9816,7.5860,58.3399,-19.1974,-56.3528,32.7681,-121.0664,-96.5823,95.4608,23.6348,119.3015,2.8419,-91.7741,4.7404,-31.8182,18.2296,-230.4727,6.7479
-3726.5625,64.7696,44.5535,38.1414,81.5007,63.6761,24.4045,-12.7376,1.8207,-150.7329,-162.9402,101.1030,38.2225,52.0936,8.6682,-85.0776,11.1709,78.3241,-12.4333,-189.5292,-23.8430
-3718.7500,68.6755,26.4406,56.1062,98.2174,82.8169,-30.1939,42.6785,-16.3217,-93.6130,-180.5055,119.5542,20.1115,33.6897,-46.7042,-65.5846,-43.5986,25.2703,4.7024,-172.8033,-41.6414
-3710.9375,39.7290,71.8792,-6.3776,3.4868,56.5090,-19.2344,17.6342,31.0994,-81.9562,-96.5119,55.5609,19.7732,43.8483,0.4711,-91.5564,4.1905,0.7710,15.3839,-126.5517,-30.8927
-3703.1250,73.8721,130.2203,18.0488,25.6633,44.0995,-68.3738,41.4803,-18.5729,-56.4117,-108.6201,79.4699,45.9722,-6.0956,24.5486,-66.6345,-45.1143,23.1881,2.9657,-103.4165,-43.2499
-3695.3125,69.4056,141.0759,-8.0213,36.3406,-17.8145,-57.0108,-57.1823,29.2666,-81.3786,-60.2327,52.8780,39.4266,41.4631,-1.8709,-129.2216,3.0803,69.1079,14.0455,-55.7966,-32.1117
-3687.5000,62.2927,110.2953,-1.7471,111.3677,-85.3881,22.7108,-87.5089,71.4703,-74.0160,-90.5011,21.6374,73.4896,-26.6273,40.0687,-85.4769,8.6350,144.3867,-16.5242,-50.8395,-62.6256
-3679.6875,69.1419,84.5241,82.5286,155.3974,-73.9681,71.4406,-112.8386,82.6839,-135.6631,-78.7758,32.3973,88.6098,-15.7212,51.0130,-73.7471,-16.8081,83.6700,-7.0898,-110.8921,-88.1456
-3671.8750,9.2709,48.9483,7.9946,84.6271,-112.3537,144.3836,-186.9823,192.1203,-245.1190,-5.8441,-5.6495,83.4093,55.3859,123.1626,-74.8276,55.9638,13.1550,-41.4467,-145.7534,-52.4708
-3664.0625,31.6621,50.5700,45.6573,16.0626,-73.5424,109.5384,-111.9339,156.7742,-206.3812,-114.7110,31.4951,75.6663,20.6808,161.5237,-35.7159,57.9456,14.8510,-74.5998,-108.4248,-50.6066
-3656.2500,13.4508,65.9031,-13.9765,-3.8042,-23.0236,86.3928,-61.1865,133.1369,-154.9506,-63.8697,45.3413,50.7536,70.6778,100.5797,-21.9207,71.6255,-75.7499,-95.0681,-92.4067,-0.0497
-3648.4375,-2.3806,51.1005,-67.7586,51.1715,-39.6444,71.0949,-77.5919,116.3532,-133.6826,-80.1870,28.0453,71.7455,53.5371,120.4786,-1.2896,56.1555,-20.4880,-39.6994,-71.5542,20.3561
-3640.6250,-1.4607,27.2031,-17.6250,97.0495,10.6356,47.6931,-27.0976,56.4673,-46.5288,-139.6223,40.6590,73.1244,66.2993,96.2803,12.2373,32.5844,-79.3146,7.5661,-94.8260,-3.3368
-3632.8125,-39.3656,-16.9889,-64.7989,53.6298,0.6127,38.0025,-36.9195,83.2943,-92.6975,34.6472,29.9705,41.3006,128.7716,86.7800,-34.5479,59.7276,-121.4447,-36.4602,-32.4148,23.6757
-3625.0000,-8.1510,-22.3296,3.8694,13.0623,32.4371,-77.8342,-4.8999,3.9844,-133.0267,102.7721,61.1296,2.8167,50.0892,44.1360,-76.4988,90.7319,-92.7135,-76.6283,-1.1631,18.5363
-3617.1875,4.8165,-6.1662,20.0409,-7.0040,48.7617,-133.1679,11.6142,-16.8170,-115.8559,119.4015,76.7889,-25.5784,28.9084,-14.0147,-96.9584,107.2390,-110.4870,-95.2889,-55.4256,34.8904
-3609.3750,27.2270,26.3512,16.5574,-10.7229,-28.5673,-136.1487,-28.5313,-20.2524,-82.3386,43.3778,72.7942,-25.1176,25.0833,-17.8187,-26.0767,68.1068,-9.9117,-98.5953,-23.3520,31.5919
-3601.5625,53.8760,104.1292,63.3296,32.8125,-18.6549,-162.8775,55.5703,-120.4305,2.4166,-20.3997,45.0523,13.5670,-2.5030,-8.3731,21.0492,4.2229,-1.0774,-90.6481,-50.0467,4.5402
-3593.7500,34.1341,122.3219,7.4964,15.7524,-37.3467,-72.1964,-36.9426,-66.1933,-52.4440,-1.7692,25.7052,23.0067,52.3155,9.4680,2.5544,59.7496,-18.8374,-37.2931,-66.3666,22.8896
-3585.9375,8.7591,19.4237,11.5593,52.5946,-70.1372,-30.6074,-32.5642,-25.0428,-84.4186,-34.2324,29.2506,29.7530,56.0327,50.2142,6.9446,63.1810,-15.6867,35.9642,-27.7993,-9.8656
-3578.1250,-16.2795,-30.5750,33.5242,37.3376,25.9837,28.8876,-10.2810,-39.9848,-61.5011,-11.7950,13.6981,4.3288,113.6505,-2.1443,-44.7821,48.5156,-101.6343,56.1222,-42.3424,-24.7270
-3570.3125,-25.7674,-44.8243,18.2288,23.8235,47.8615,51.1420,48.7488,-18.1546,-75.8500,-26.6034,-39.1032,2.5618,135.0262,-17.7507,-96.7725,34.6144,-44.8345,43.0306,-20.1462,-2.8374
-3562.5000,-3.0028,-22.7707,79.2430,44.6064,72.0394,2.7026,73.0756,-30.0170,-49.9148,-75.1227,-51.6028,33.2381,48.6987,42.9495,-34.4603,22.0169,12.2741,-5.7638,1.3401,-51.6498
-3554.6875,-22.8664,3.0967,-2.9415,35.1857,63.0208,30.0610,27.1951,33.9312,-58.1920,26.1621,-61.3054,29.9854,39.1751,33.4400,-7.3533,50.2264,3.1835,-14.7577,-7.3949,-60.6646
-3546.8750,-39.5332,-51.9782,-23.0768,14.8205,80.0535,47.4765,81.3587,50.9375,-4.4416,80.4951,-81.9673,21.1720,-91.2968,49.9722,-27.2115,67.4908,53.1527,-34.6880,42.9078,-80.6299
-3539.0625,-16.0588,-31.5511,35.2965,-0.0341,65.5893,33.3965,67.0180,36.4493,18.7915,103.3200,-60.1295,0.9992,-69.2693,-2.0027,-77.5832,53.2579,3.6327,-14.1072,28.6960,-95.0979
-3531.2500,-28.2562,-32.3120,-3.5418,-36.0858,62.9234,31.1282,-8.5357,70.7737,16.8067,137.9516,-63.5006,-27.8256,1.5648,-41.1778,-80.1727,50.8389,2.9124,20.2848,28.2769,-60.7651
-3523.4375,-7.1895,-58.1149,41.5655,-27.1851,72.2057,4.8170,36.8549,7.0599,26.7611,36.5355,-17.9314,-28.8238,-26.6566,-32.4036,-33.8230,23.3795,12.1478,29.6340,37.8002,-51.4857
-3515.6250,-4.2617,-16.5684,-26.9827,-20.9331,3.8388,-27.1455,5.5926,-25.2893,69.0577,5.4748,22.9846,-42.8320,51.4731,-65.2853,7.8653,29.2789,18.7270,1.3394,9.6653,-9.8568
-3507.8125,26.8481,-8.9637,17.5151,-13.6316,-62.4795,-19.0584,13.3633,-54.5765,41.3902,-60.5329,29.9450,-19.7949,-15.3483,-21.1175,15.5977,0.2387,96.3625,44.1027,17.5703,-2.1764
-3500.0000,55.3738,41.1025,107.4664,1.1303,28.6547,-38.5257,30.5821,-74.4135,-14.8334,-80.0913,9.3534,-0.4375,-35.7288,-41.5043,-4.2293,-56.3487,41.4539,24.3241,-2.0924,-22.0485
-3492.1875,-7.1044,-11.2249,15.0084,-87.5060,9.3861,16.6203,48.3899,17.3633,-33.4646,11.9598,-47.6496,-27.7771,-18.5121,-24.3012,13.5289,-1.3194,-10.8578,42.1559,50.8301,-4.3204
-3484.3750,-44.2716,-126.2057,5.9001,-96.7966,73.4704,8.1274,112.5461,8.5055,68.2443,3.3605,-57.3085,-56.2953,-64.9581,-33.7451,40.6242,-9.9331,-19.8064,68.3461,148.1003,-13.2480
-3476.5625,-76.4710,-158.5840,-67.6016,-128.4928,111.1601,46.2483,113.2992,9.2618,106.5463,4.3556,-20.3747,-86.4771,9.1933,-70.5948,42.3135,-8.9370,-122.1580,71.1398,149.9564,24.4214
-3468.7500,-59.2275,-109.8549,-91.0073,-82.0894,87.9449,22.4802,90.1351,-14.8630,83.9308,-19.5423,-8.3512,-74.4207,58.4473,-94.3454,18.0901,4.1740,-75.4041,49.0386,127.8962,37.1930
-3460.9375,-33.2019,6.7783,-41.5122,-70.7782,64.6334,-37.3839,66.8698,-75.0837,134.2026,-42.5398,-32.4332,-30.1291,-2.4108,-45.2001,31.7553,18.1930,-132.7442,60.8394,104.7203,13.8639
-3453.1250,-80.7273,-9.6337,-131.0775,-120.5122,10.2762,19.7065,12.5499,-18.3462,191.4160,14.4135,-87.5703,-44.1131,16.6852,-26.1121,51.3518,38.1667,-113.1312,115.5967,54.4873,33.4887
-3445.3125,-77.1463,-67.9897,-118.5975,-144.1934,-13.0325,33.8530,63.2774,32.4472,168.6772,-45.5846,-74.6684,-46.7945,-44.1785,24.0204,100.9935,52.1929,-32.4529,92.4158,66.2990,10.1618
-3437.5000,-46.6144,-34.8362,-84.6140,-112.3754,-14.8387,69.5056,24.4986,30.7464,93.4286,-10.0837,-3.2735,-46.1842,-9.5475,-15.3563,99.1269,50.7258,-104.2663,55.7432,29.6020,8.3296
-3429.6875,-36.2001,12.1245,-109.8297,-66.7530,-40.8486,6.9618,-38.4970,41.8562,31.9677,1.2289,6.9117,-29.1145,37.8869,-4.9450,110.0498,62.0704,-58.2703,-3.1234,5.6943,19.2972
-3421.8750,7.5569,36.7406,-10.3843,-6.4703,-51.2063,-39.9343,-48.8495,-42.3791,22.1467,65.1901,32.7396,-22.7622,-47.0381,-52.8934,62.6185,15.0712,-68.6164,56.6644,-40.5718,8.9133
-3414.0625,-0.8190,84.6598,-71.6418,-29.8865,-38.2679,10.4725,-35.9152,7.6917,-38.3826,151.4552,-29.1381,-26.3405,2.3446,-113.5499,-34.5268,28.3836,-55.6642,69.7583,8.4521,21.8333
-3406.2500,-0.3787,0.7300,-46.7540,-43.1497,59.8223,-37.9701,62.1614,-41.0838,24.2239,65.8684,-4.8696,-44.2145,-47.1286,-90.0588,-9.5263,52.8556,36.4490,21.0100,99.6216,-27.0945
-3398.4375,-8.1526,-51.0504,10.2898,-25.2611,117.0712,-54.2594,119.3873,-57.7031,80.9651,13.4285,13.5444,-61.3849,9.5416,-107.4249,9.6195,73.4781,-15.2891,-65.5815,82.9322,-43.8711
-3390.6250,-26.9449,-22.0198,-34.8757,3.4188,72.1215,12.2625,38.4010,-28.5083,73.4954,-31.2027,-31.2536,-20.8803,1.0132,-41.9939,38.5534,102.9092,13.7680,-107.3656,77.0350,-14.8421
-3382.8125,1.3578,44.5653,-1.4910,34.6486,-4.2793,-27.6608,-2.0421,5.2439,70.5740,-34.2814,-35.5080,13.1667,-76.9777,-9.0100,109.0348,62.9002,10.3749,-110.5914,73.6810,-18.2636
-3375.0000,-41.8232,27.2945,-57.9592,17.0292,-60.5264,-9.4286,-58.3413,60.1581,52.7981,93.7932,-55.6178,16.4172,-22.8146,45.1159,52.6613,81.0597,-42.8788,-127.6577,21.4680,-0.5307
-3367.1875,-48.8605,16.5171,-68.9381,5.9144,-71.2738,17.3126,-69.1466,85.5840,5.5060,83.3669,-67.2330,35.5442,-71.1512,106.7418,5.7829,107.7298,-17.6323,-103.2147,-24.2501,-11.2935
-3359.3750,-13.8140,3.5428,-10.1096,27.5991,-49.2150,2.8535,-84.1555,34.8081,-8.9959,32.7346,-9.0467,-7.2965,-49.6888,-18.8373,27.6988,93.2050,-31.5872,-80.9750,-38.1745,10.7469
-3351.5625,24.2330,68.0254,-17.8389,21.7342,-92.7115,-4.1519,-126.7255,27.4882,-53.0571,25.5577,-17.4162,-11.8167,-20.7689,-63.9750,20.0555,123.1433,103.9069,-51.2844,-8.6617,40.2486
-3343.7500,86.7964,149.8691,105.7826,68.2274,-151.8623,-26.8111,-113.9558,-69.4833,-75.7769,-34.2706,-4.4364,50.7076,-117.5101,23.2336,33.7581,100.4376,150.7650,-74.2390,-31.8074,17.1049
-3335.9375,41.6459,149.0716,66.7611,67.0845,-228.6618,-29.1222,-189.8524,1.8991,-41.1610,74.2552,-45.1090,45.8726,-83.9024,19.7831,30.8011,135.0895,8.9742,-39.8410,-32.6169,51.3140
-3328.1250,-0.5519,75.0303,25.4862,-43.3002,-232.7127,-68.6843,-157.0104,35.0364,29.1879,143.5326,-50.0361,0.8292,-88.5444,52.0789,63.5821,131.5002,-30.0571,-8.6855,34.3186,47.2773
-3320.3125,6.1447,16.1464,75.3672,-136.5332,-109.6021,-128.1005,1.9795,-62.6782,189.6750,46.9470,-0.8122,-61.8411,-77.0383,-9.4816,75.5143,72.0667,-88.9351,3.6249,80.3928,23.3922
-3312.5000,-3.9504,-71.7372,56.2432,-224.7672,18.5131,-109.5126,93.9639,-80.3907,208.1548,-45.6395,16.4060,-133.6029,51.4823,-102.0514,20.4450,16.6394,-35.8168,-14.0594,133.4606,41.5133
-3304.6875,18.4896,-100.4284,100.3143,-218.8022,99.8331,-137.7248,138.1469,-144.9015,216.8276,-146.0233,59.8190,-134.8307,22.2024,-95.4222,101.5787,-85.5818,6.5050,28.4652,104.7258,12.8370
-3296.8750,-2.6195,-32.0767,25.4396,-149.7836,98.2168,-66.8863,99.3797,-146.3638,178.5445,-111.3574,21.2743,-88.7538,56.9772,-97.7427,99.7549,-86.7540,-66.1265,97.0493,68.0395,11.2104
-3289.0625,-12.1253,-2.9312,-55.6376,-52.9600,91.4038,37.7614,92.4057,-81.0194,98.0449,-117.8946,-23.4802,-10.2677,-24.4378,-31.2612,55.7252,-56.1227,-1.9527,125.4440,96.1571,4.3846
-3281.2500,-29.4535,-90.3396,-35.2520,36.3216,112.0477,94.8600,112.8785,-60.2265,81.9902,-133.9896,-3.7871,23.2596,-78.4122,25.6644,3.1433,-72.0386,-18.3245,74.2987,79.7243,-11.9946
-3273.4375,-70.9229,-154.1454,-68.2698,-28.7931,80.2934,100.5659,80.9431,18.1710,87.5214,-92.4821,-37.4929,-16.0593,-0.7773,29.1832,-66.8494,6.6506,-13.1077,10.7622,85.8833,29.2292
-3265.6250,-2.9283,-50.6460,-32.9881,-65.6048,4.8361,25.5740,79.2986,16.8758,49.3416,-93.6771,34.0981,-17.1507,-39.8415,27.0026,-31.5495,5.6437,21.4151,-61.4701,84.3409,27.7552
-3257.8125,63.9042,75.5012,23.9518,-114.7668,-11.9697,-27.7691,25.2997,0.2302,-4.1909,-37.2164,89.3371,-46.8532,16.7421,-64.5343,-11.6025,-10.7131,5.5866,-76.0482,-1.5486,47.9301
-3250.0000,38.0933,20.9936,3.2394,-64.5777,-68.4309,-10.7629,-68.3644,16.9430,-24.3866,-20.3911,68.9218,-33.8052,32.6829,-11.7220,4.7011,6.2888,93.1044,-59.2747,-55.0873,64.4588
-3242.1875,29.9979,-30.1124,60.9323,-10.9768,-48.4982,-62.3659,-11.6363,-35.9445,-40.1881,-72.1675,51.9101,-20.6274,-20.9770,8.4893,62.4072,-9.3017,77.0177,-40.0968,-71.2292,48.3907
-3234.3750,0.7360,-38.1154,13.7163,15.7340,-21.4661,-34.8693,-21.8263,-8.7314,-121.8900,-8.8365,40.9962,2.1045,42.4680,34.7977,15.2099,-18.7833,-1.9835,-47.8057,-44.2762,75.4313
-3226.5625,-22.2207,-101.2238,-15.6128,-13.6457,60.4646,-27.4700,59.8768,-0.6183,-150.7003,-0.6103,10.9726,-7.6183,12.8139,42.0110,-14.0831,-10.3569,39.9223,-6.5983,32.5826,46.3762
-3218.7500,-49.0023,-94.4383,-43.0318,-76.1198,143.3055,-17.1763,105.4847,9.3902,-68.6194,46.5105,-54.1488,-41.0408,59.0610,-22.8743,-41.4753,-0.0346,12.7345,37.5061,40.3431,19.2174
-3210.9375,-13.2317,-67.0064,-52.7953,-48.9466,133.8096,-26.2396,59.7388,37.0506,-149.9058,37.2824,9.3857,-44.6883,85.9742,-70.1166,-51.2254,-9.0643,40.2025,65.2488,32.7551,46.7115
-3203.1250,44.4795,-35.9852,15.0555,52.8248,91.9238,-30.7096,53.5899,-41.6947,-228.6012,-41.3556,112.5392,0.7538,42.4891,-39.7529,-20.3823,-50.4957,35.2732,61.5799,-42.2420,77.8093
-3195.3125,-8.1512,-46.4587,-34.5896,112.0993,40.5378,29.3261,-33.0725,-17.9371,-316.8083,18.5048,24.1984,31.8126,101.5113,-16.8777,-34.0409,-26.4243,-9.1748,85.4152,-52.7540,137.4156
-3187.5000,-66.8421,-82.2399,-107.5474,146.0795,-31.1579,30.0699,-33.0496,18.5335,-241.3326,56.0621,-85.4413,59.4624,-8.7640,56.7085,77.0057,10.3559,59.0793,120.9604,-18.5637,101.7292
-3179.6875,-77.2854,-80.9290,-142.4020,146.1767,-29.7553,32.9143,5.0706,21.0978,-55.7658,132.7165,-47.9789,29.1562,-43.9402,-15.6011,115.1621,-23.7631,-45.5685,121.6117,-18.2745,67.1426
-3171.8750,-77.4613,-64.6127,-200.2588,127.2787,-85.3482,86.7532,-87.8135,74.6577,-75.2096,185.3698,-32.5112,34.2786,-28.1028,0.0846,-15.6845,-6.8794,-29.2158,138.2598,33.0123,83.5618
-3164.0625,-16.4268,-27.9447,-85.7554,164.7435,-154.5979,128.9330,-157.3588,79.5553,-71.3097,153.3568,-28.6832,71.5912,-169.9127,41.1283,-121.1834,-1.6508,79.5026,71.2622,71.6472,51.3333
-3156.2500,-13.7420,37.4721,-55.4867,194.9683,-160.1037,159.8540,-237.1685,147.1950,-76.6729,148.0894,-72.0930,108.2940,-138.9644,71.9238,-162.9256,30.3269,38.9652,-4.9806,31.0239,45.8580
-3148.4375,-22.3209,15.9329,-77.1650,173.2488,-144.5630,212.8188,-184.9435,162.8833,-62.0004,53.8743,-94.4445,109.5948,-160.9548,85.7745,-75.6157,9.3560,87.4785,9.8302,44.4489,24.4385
-3140.6250,-27.5427,-40.1689,-23.3849,152.9826,-92.5587,193.2205,-59.2591,143.0095,29.1170,-2.9031,-78.3318,84.1989,-145.4858,65.0784,15.1559,-47.1744,32.4361,25.0880,-10.6764,4.4725
-3132.8125,-55.3795,-42.6793,-101.0110,114.3169,-59.9442,189.2093,-63.9719,175.7276,-12.1699,66.9233,-83.6070,55.4484,-77.3945,23.9870,-63.4753,59.8936,-6.0264,22.9468,-14.2011,37.1142
-3125.0000,-2.6696,-13.1988,-33.6397,73.6624,8.6767,74.1962,4.3141,97.4449,-54.4614,24.7450,-15.8735,25.1095,-119.3001,-19.0956,-32.0978,54.9551,24.5090,-53.1902,-19.7217,31.7596
-3117.1875,-11.5541,35.2772,-21.2655,16.0134,58.3015,-23.8214,16.5968,36.1587,-41.7637,74.5596,-41.1247,4.5166,-34.1968,-44.1710,-56.7055,31.0112,-68.9602,-75.3297,-7.2479,44.4060
-3109.3750,-43.2194,-2.5476,-60.1881,-21.9302,56.6224,-61.1361,14.5649,34.5687,-43.3885,110.0666,-80.6598,5.2339,0.6160,27.4651,-95.6175,29.7652,-0.7267,-76.7683,26.9241,42.7535
-3101.5625,-6.8437,11.6271,28.9052,-7.8563,34.9439,-82.4510,-7.4772,-24.0284,8.9648,88.5469,-29.1810,11.3398,-21.5684,42.1185,-80.5329,8.5133,-22.4863,-63.2059,40.0949,21.0987
-3093.7500,-12.4911,6.9481,-13.8428,-12.6217,-44.5875,-50.6163,-86.3788,7.5213,-33.5499,120.1697,-35.5368,-8.6952,-27.5875,-1.0677,-49.2974,77.4054,8.8968,3.5041,71.4115,52.5955
-3085.9375,3.4120,-18.0904,35.0626,-1.7278,-69.4660,-39.1415,-75.6339,-54.2881,52.5733,95.4409,-61.2243,-29.5580,-89.9464,-63.5906,-0.4044,52.9430,89.9280,84.8556,151.3832,27.7423
-3078.1250,15.3457,-58.7865,102.3277,-43.4762,-74.9935,-44.3327,-44.5439,-95.7548,120.0444,90.0623,-30.5443,-97.5061,-21.9426,-178.7551,30.8522,10.8197,49.3020,79.5466,145.7049,22.2407
-3070.3125,7.4670,-113.5917,80.4970,-64.3180,-96.6333,-65.6344,-103.5722,-81.3268,98.4077,104.5822,20.0489,-120.4993,28.9766,-165.0085,45.0174,-48.4009,63.5822,94.1325,159.9254,36.6469
-3062.5000,28.4789,-47.3976,115.6881,-31.1483,-24.2803,-102.9570,-31.6093,-82.9145,96.7648,30.0860,17.6653,-74.0088,-9.1024,-131.2484,43.1929,-85.6337,-9.1301,91.7178,122.1419,-0.9456
-3054.6875,14.2004,77.0492,26.1351,22.2829,33.3303,-83.0478,-11.3979,-62.2691,7.3653,50.8307,-35.4445,-23.3643,84.0938,-148.2326,26.6169,-101.6259,-96.6000,110.5443,35.5969,-17.2835
-3046.8750,7.6620,66.6915,16.7769,82.9223,135.1450,-53.9528,90.0165,-107.4403,35.1594,5.7624,-81.3330,-0.4742,75.5159,-157.0023,55.2554,-146.4315,-0.8738,101.5619,-9.7522,-62.4166
-3039.0625,9.5421,-1.7776,92.3221,48.4594,209.8684,-51.9679,128.3350,-68.7239,110.8556,-29.4225,-80.2985,-37.6409,76.8539,-192.8481,-17.1902,-107.3504,0.7304,67.4743,-43.1935,-60.6481
-3031.2500,7.4332,9.0305,29.1628,-45.7094,147.8889,-40.6858,101.9501,-20.7049,84.8464,18.6990,-69.9478,-50.1469,50.5119,-145.3734,-42.3275,-58.9680,46.6199,78.6849,37.6733,-49.5744
-3023.4375,4.8875,13.2189,35.4111,-6.4697,154.3141,-34.0103,107.9662,-51.2908,128.2203,-48.7808,-65.1760,-20.5132,-17.4248,-102.4810,36.9477,-89.1961,15.9055,119.2969,6.9442,-80.1032
-3015.6250,2.1941,88.0541,-34.6813,-1.5694,83.3959,6.3022,73.6353,-48.2379,131.2326,-8.6143,-61.7267,-14.6777,22.3034,-136.9342,2.8759,-48.7875,-49.1688,88.5466,11.8673,-39.9831
-3007.8125,-3.4384,107.8266,-51.8237,-16.7066,30.4244,26.5533,-16.7521,-28.2446,77.1893,11.4886,-79.3006,1.8059,-31.0010,-80.4187,22.7592,8.5631,-29.2899,73.7393,31.7409,-19.9124
-3000.0000,-20.9321,91.0857,-31.4473,-33.3354,49.9489,10.2922,3.3576,-7.7654,24.6397,68.0769,-96.3436,-13.4985,-47.7961,-97.3808,43.1549,65.3967,-116.9122,57.4238,15.1144,-36.3418
-2992.1875,-48.5290,71.8919,-52.5141,-52.4138,-6.9852,26.5755,-17.9979,45.2603,76.6254,121.2113,-117.8052,-10.4674,-32.0166,-44.7780,22.1048,81.7697,-135.9898,3.6530,-3.9627,-20.2183
-2984.3750,-9.1604,59.2387,44.9810,-29.9335,-19.3774,-22.6074,-30.8095,-4.1741,175.1512,35.8809,-93.6833,-19.8181,-81.6726,-57.6010,46.6101,33.6789,-42.5107,-8.5764,-51.4895,-32.5450
-2976.5625,11.9725,71.8272,94.7436,-52.1893,-6.5264,-46.5596,-55.3798,-65.3755,150.9223,48.7867,-44.2795,-52.6239,4.9375,-119.1595,59.3801,46.8210,-100.7885,39.4328,-74.7686,-19.6206
-2968.7500,-19.2781,5.1067,61.2153,-84.7281,-2.9794,-42.8321,-15.2594,-61.8948,117.3841,52.3775,-41.1477,-51.0722,8.2711,-42.0075,99.8643,50.6485,-97.3626,43.1365,-35.3470,-15.9962
-2960.9375,-52.1684,-39.2698,15.0578,-127.9002,60.9287,-52.7759,48.2211,-35.0867,107.1864,42.2949,-51.6331,-75.1719,34.9707,-52.4870,126.7049,77.7989,-139.5874,35.1802,-44.5793,10.9699
-2953.1250,-80.3673,-62.3519,-84.7982,-114.7666,34.1440,-5.4295,-15.9995,12.0143,7.2752,89.5081,-41.7928,-73.1725,81.9945,-42.6438,63.8481,161.2332,-128.5238,47.5138,-32.5112,58.2352
-2945.3125,-47.0396,-18.9539,-75.1517,-72.1263,44.8637,5.4115,31.2876,-51.3912,17.8551,-10.7979,-68.4211,-33.0855,-18.4682,-32.2686,37.5065,99.1477,-14.9636,56.3377,47.0652,31.9965
-2937.5000,-12.6865,45.5191,-79.3999,-42.3843,40.6905,1.3422,62.6819,-55.7004,86.5368,-52.0167,-72.9223,-17.3809,-22.8103,-73.7616,-40.7246,21.1446,49.6770,50.2539,75.7527,-9.1476
-2929.6875,-18.8392,44.7299,-75.9067,-7.8963,80.2684,41.0140,65.8316,-15.2575,15.9646,-48.4812,-143.6478,28.0331,16.6242,2.5218,-111.1973,-12.1209,190.0570,14.9101,76.1919,-79.5457
-2921.8750,4.8407,33.0336,60.6991,15.6963,179.9489,-6.2294,128.0848,-62.7265,42.4821,-95.8672,-154.2256,30.1375,6.1679,-8.0662,-85.5558,-59.3054,177.5316,-32.3501,28.7231,-126.8502
-2914.0625,-18.5549,-2.3780,22.6165,-54.4072,105.9230,-6.1854,90.6330,-26.9046,78.2885,13.0318,-118.4599,-26.8591,42.0392,-46.3340,-49.6050,-23.1989,108.2961,-31.3241,-6.4548,-90.8548
-2906.2500,-5.5670,-50.9052,44.4414,-32.5998,16.7906,15.7417,1.0801,-5.1920,99.9833,34.8191,-23.7576,-39.8038,-46.1656,-24.6695,9.2588,34.7865,94.9614,-44.4162,-54.7346,-68.9598
-2898.4375,-2.5385,20.2629,7.9777,3.9186,-93.6412,88.3476,-109.7700,31.2031,26.3665,108.2906,-24.3144,4.5597,-83.6501,11.7199,-27.1603,71.4539,25.3202,62.1728,-124.3243,-32.3657
-2890.6250,-8.0545,108.3228,-84.5825,57.3515,-221.1805,143.8356,-200.7327,122.4845,-66.3739,126.6536,-78.9336,70.6028,-102.2066,67.0423,-45.6703,90.0066,43.5759,151.6535,-106.0163,-13.8688
-2882.8125,17.4255,113.4268,-4.0784,97.8555,-178.6743,150.3507,-159.6432,91.7971,-60.0774,23.0414,-109.4614,99.7023,-132.6973,73.4475,-76.1180,23.5778,82.8925,156.1709,-65.6623,-44.3281
-2875.0000,-15.8222,54.6778,-28.4152,4.5180,-56.0164,89.0030,-110.4026,67.2434,-10.6453,71.5601,-133.8024,21.8950,-46.0156,-23.9735,-63.4125,-37.7230,60.3502,97.8308,16.8401,-31.6413
-2867.1875,-54.9540,-114.4202,-19.1004,-93.1680,100.2814,-11.7075,82.4895,3.3312,108.4224,-29.2906,-87.4557,-53.0787,-0.6574,-15.7198,18.9502,-65.3919,67.4566,35.1332,58.9946,-59.3084
-2859.3750,-109.7154,-201.5810,-38.8213,-146.9019,191.5360,-31.4876,209.3425,-16.6459,162.4348,-12.2134,-70.1120,-100.1501,90.6749,-34.4902,73.2789,-11.1401,-91.4982,-17.6324,41.1023,-42.0325
-2851.5625,-136.5281,-174.8163,-122.5865,-188.6807,180.7424,-5.3346,199.1441,46.3186,114.3908,50.8020,-80.7792,-93.9849,116.9884,-8.2850,26.5729,89.0469,-168.5153,10.5368,34.1662,21.1932
-2843.7500,-94.9809,-95.9246,-113.1903,-179.2992,153.0946,3.9534,134.1043,55.4231,87.4926,59.9457,-34.2510,-68.1409,16.4696,1.1055,36.0343,61.3508,-194.3855,54.8420,8.3805,30.5624
-2835.9375,-99.2591,-34.1397,-158.8889,-116.0098,107.3517,31.1277,87.9671,45.4150,40.4839,86.9805,-43.7794,-37.8867,43.8740,-8.5782,26.4028,88.5268,-237.3721,47.0308,-35.5073,57.8265
-2828.1250,-51.3509,-32.0642,-83.2815,-79.4153,-1.0970,33.5851,16.1298,47.6953,5.7616,15.3034,-3.9667,-17.8783,46.6025,31.0726,-7.9207,90.9791,-130.0561,49.4999,1.9074,60.3860
-2820.3125,-32.3038,-41.1488,-18.8033,-17.9628,-46.6983,24.8711,7.1498,38.8094,-3.1131,-30.5441,-12.2554,-17.7479,38.1968,-14.4001,20.6209,82.2568,-102.8951,40.7985,-6.8336,51.7902
-2812.5000,-28.7452,-19.7373,-33.8176,-31.0077,-133.8044,46.6335,-81.3321,23.4134,18.5002,-8.9023,-26.9968,-33.2842,60.3246,-29.3480,79.6681,104.0116,-12.2406,26.5783,-20.0784,73.6948
-2804.6875,34.0362,-27.1827,143.3303,-2.8883,-140.7644,2.5193,-124.6609,-20.8497,48.2525,-52.1320,3.4565,-23.1572,-57.3787,0.8840,108.8795,22.8903,86.5728,-15.5102,-96.1764,66.7428
-2796.8750,64.9290,43.5139,143.6392,-1.5987,-141.5798,-33.4576,-162.8378,-56.9771,10.1386,-52.2309,77.1035,-29.1031,16.0855,-36.6976,72.2458,21.8951,16.5254,-84.4649,-131.1253,102.9326
-2789.0625,57.1087,48.6124,112.3457,4.1061,-99.0101,-28.0409,-120.6179,-51.7048,15.4106,-83.9390,46.1850,-16.8819,21.9695,-30.8401,41.0153,-8.7218,56.8732,-114.0338,-125.6768,108.5124
-2781.2500,44.2255,46.5541,110.9135,37.6707,-27.5915,-66.7900,-13.5369,-90.5958,-22.4711,-122.8156,8.1615,3.4085,20.7177,-32.0986,39.6441,-10.5161,20.0645,-80.7761,-127.3754,106.9305
-2773.4375,4.3270,67.8291,-14.1604,24.5774,30.1807,-82.2076,7.9024,3.8547,-148.0018,-27.3561,-43.4662,19.9317,42.8463,-9.9841,-12.3592,84.0166,6.5968,-94.1947,-70.7234,128.6950
-2765.6250,8.7909,23.4857,13.1798,15.8852,58.3546,-91.2500,35.7523,-5.3127,-193.1407,-73.5242,-51.6341,7.6217,-2.5964,-18.4405,53.0534,74.9126,67.5370,-68.2344,-43.6729,119.8541
-2757.8125,11.5021,-15.8704,46.5363,47.1995,91.5244,-58.3109,-5.3924,-9.4921,-234.2936,-77.7140,-17.7514,-3.8445,67.9877,-57.8656,49.4802,33.7816,28.4686,-36.2895,-47.6294,116.0058
-2750.0000,-0.8184,-8.4246,19.6928,91.3273,101.4857,-12.5833,-32.7358,-0.8798,-261.6688,-142.1144,-44.0261,46.9415,115.3942,25.5360,22.7090,-29.5732,72.1987,-29.5605,-74.7898,88.9533
-2742.1875,27.7961,40.1741,35.0192,104.6225,116.5847,-34.7283,19.0725,-95.1372,-173.9042,-164.3904,8.8959,48.9653,93.9654,4.1265,38.1015,-87.8055,50.0814,-85.7047,-96.8077,67.0429
-2734.3750,13.5761,92.4684,-21.9464,87.6239,21.3791,17.8118,-111.4172,-79.7024,-158.4461,-74.9770,-11.4355,40.1238,110.2666,-16.5520,17.1958,0.6347,31.6483,-104.1685,-115.1407,119.8284
-2726.5625,4.0658,92.3561,-57.3033,123.2286,-87.2344,17.9301,-148.3038,-116.6782,-158.4011,-74.9845,-47.1153,72.3032,0.1909,58.4053,54.9044,73.6520,137.8153,-69.0548,-79.8845,120.2105
-2718.7500,-9.8035,43.3335,-33.5474,145.9399,-136.7478,5.1230,-161.0792,-92.5720,-97.2612,-14.9131,-58.6434,49.4600,-11.7578,9.4907,5.7273,97.7388,90.0786,-45.8562,-22.5319,107.6853
-2710.9375,-11.0959,30.3003,-9.7911,98.6535,-186.2540,28.2976,-210.8437,-32.4765,-73.1383,-27.8553,-70.1243,41.5822,-23.6725,34.6035,-6.4400,121.7984,77.3379,-24.6769,34.8165,95.1524
-2703.1250,19.0577,32.9593,68.6799,101.0792,-145.0579,32.1566,-132.8939,-65.6890,-34.3300,-97.1240,-27.8631,51.6161,-91.8777,39.4541,35.0972,88.5219,8.2996,12.1852,37.8631,62.3064
-2695.3125,1.1579,37.8177,37.3530,71.7124,-139.6677,111.2036,-127.7381,-24.7057,7.6634,-56.2082,-58.3570,31.2788,-12.8589,-28.4660,3.8341,56.4239,-56.5516,88.2298,43.1070,67.6505
-2687.5000,-18.6928,53.2161,20.5794,17.9006,-47.7364,93.7822,0.9752,-42.1749,27.1931,-74.7605,-148.2587,26.8790,7.7348,-44.8058,60.1374,1.8520,-40.8496,138.8047,93.9034,13.5357
-2679.6875,-8.7787,25.2607,66.4652,-9.2504,71.8427,65.9911,83.3490,-70.0095,-0.6344,8.3220,-100.4620,-5.5208,17.9942,-108.4668,-2.8983,-63.1026,-138.4992,147.0121,66.3434,-13.9393
-2671.8750,42.3343,28.4521,34.5021,-40.2479,75.5611,-4.6658,49.8752,-66.6978,-34.3272,11.5429,88.5323,-46.3876,22.4302,-140.9458,-35.7814,-59.9286,-135.0038,114.3523,34.9308,-10.2672
-2664.0625,72.0950,-3.9121,78.0029,33.2122,82.7162,-71.8833,56.8554,-96.9421,8.4163,-55.8082,170.0175,-40.5631,-43.6679,-132.9418,-29.2069,-53.3285,-96.0513,83.1224,37.9702,-77.1545
-2656.2500,16.2072,-69.3271,9.4723,3.6272,87.8127,-30.1679,98.7868,-92.2450,13.0968,-14.2222,139.4977,-62.0394,35.2081,-126.9579,-23.6781,-48.8049,-127.1553,51.8125,42.9549,-72.1005
-2648.4375,32.5569,-84.8434,29.8472,58.9494,70.7989,-10.5749,44.6218,-72.6579,-40.3331,-68.7585,160.9212,-15.6861,-16.9974,-32.0461,-3.2350,-66.4053,-36.3594,1.3712,62.8338,-52.1487
-2640.6250,56.7704,19.2396,64.8277,93.8713,-4.6170,23.5886,6.0729,-75.4915,-43.1570,-71.7202,123.9841,37.3722,-55.5884,3.4897,-4.1734,-69.4366,-72.9669,-34.4864,62.3145,-17.6025
-2632.8125,31.6098,78.5634,-21.9498,49.0338,-127.7750,45.9786,-118.2036,-16.0819,-57.7304,61.5605,74.3260,24.6116,-31.8975,-9.7024,-17.8450,26.7572,-83.3401,-46.1003,87.0495,42.1902
-2625.0000,29.9231,82.4208,-15.1740,53.7399,-122.3709,-22.1048,-75.8994,-47.1366,-14.7605,67.3722,45.2580,27.0724,-61.6365,-2.3114,26.0462,-4.5234,-44.1646,-6.1741,91.3312,11.5257
-2617.1875,4.7309,70.5215,10.8572,42.7026,-23.7098,-33.9551,-50.3311,-21.9530,47.4592,91.4215,-0.5144,23.0929,1.8965,-12.6431,-21.8093,-16.5835,-125.7529,16.9837,44.8541,0.1024
-2609.3750,7.2248,12.8195,24.0856,55.8717,26.1429,15.3858,-74.5560,-9.5729,-14.1250,30.6665,13.9505,52.4581,-58.3528,74.2597,-45.4657,-41.4651,-43.1438,29.3233,57.5721,12.8666
-2601.5625,15.1803,-62.5830,93.6246,87.3447,22.2928,-25.9839,-4.4645,-13.8981,-18.4070,-10.8061,47.7574,51.1026,-98.2949,108.4869,61.1862,-83.0737,-11.2432,-10.0575,18.5828,8.9160
-2593.7500,-2.0174,-45.0890,39.0621,70.7145,3.3282,-8.4598,-23.4718,3.6757,-37.7981,6.6155,31.5096,44.2314,-5.3226,90.6339,6.7464,-65.7972,-29.4541,7.4461,1.4942,26.8622
-2585.9375,26.1609,-45.6945,76.4019,140.9808,41.2531,-45.0493,14.4299,-32.8511,-0.3057,-67.0798,70.2024,82.1581,-40.4404,129.7079,-28.7816,-138.6430,5.2420,5.8341,35.2989,-9.2983
-2578.1250,-5.1607,-137.9431,91.1076,155.6025,55.5236,5.6963,-8.3107,-19.0373,-23.4737,-53.4431,86.2876,59.1460,-25.1965,108.1567,-13.9573,-89.1658,-86.7099,-15.4484,84.4412,4.8790
-2570.3125,-19.3780,-116.4917,3.5174,177.9334,-33.5181,27.1313,-23.3551,2.4752,-38.9557,-69.1165,73.1102,81.1622,-2.2339,131.3337,8.5612,-104.0114,-64.9558,5.9527,141.2714,26.7480
-2562.5000,51.9651,22.4128,2.3875,176.7296,-35.1231,25.0011,-24.9430,-36.5721,-40.9950,-107.3585,147.4183,118.2222,-39.8157,130.9910,-66.4700,-253.4306,-66.7429,3.7826,104.5494,25.0575
-2554.6875,83.3367,119.3782,-6.6863,168.5759,-44.6881,14.9019,-71.4746,-46.5754,-86.9878,-80.5614,139.8181,139.2550,-11.3277,122.7158,-147.4475,-299.8229,-39.4858,30.6380,96.8749,52.4114
-2546.8750,80.1248,-4.8625,89.0430,292.2195,-59.4542,-0.4149,-49.1909,-98.7870,-66.1825,-133.9774,127.0561,163.4871,-62.0270,183.2586,-52.6130,-352.4370,118.5741,81.2775,42.9992,-36.4432
-2539.0625,90.8810,-33.7060,173.1786,369.2629,-12.8177,8.6504,-2.4844,-125.6111,-55.9795,-161.0067,138.7346,157.6872,-14.3187,121.2103,-42.3709,-380.6765,90.0324,17.3121,-20.4819,-99.9103
-2531.2500,111.5379,24.1128,160.9577,356.9593,11.4707,32.3435,-15.1092,-64.7902,-69.1365,-174.3917,128.0904,180.9472,-25.9385,145.8193,-54.4838,-394.2877,147.1429,3.9880,-33.3191,-112.7369
-2523.4375,167.4918,62.7405,278.5381,362.4660,54.5617,37.8188,28.0851,-60.1817,-64.4995,-278.9932,136.2764,233.0610,-128.7562,227.2463,-47.7941,-499.1237,187.0595,-27.5476,6.6379,-143.7764
-2515.6250,169.1229,81.9144,261.6744,276.5153,37.1987,56.8358,10.8422,-41.0223,-81.3013,-260.0520,158.0464,204.7262,-35.0098,211.2456,-64.5509,-517.4329,135.5112,-43.5507,61.1367,-124.2737
-2507.8125,150.8204,-28.5658,221.1621,237.9029,33.1774,15.1983,43.9540,-8.5043,-85.7496,-300.7718,230.1952,163.6065,-0.9043,245.6238,6.0449,-485.4070,202.3202,-118.2211,91.9767,-128.4291
-2500.0000,118.9477,-138.1376,217.5594,234.1976,103.0488,-26.5500,76.9752,-13.0917,-90.3007,-233.6091,301.2721,117.9581,70.1027,242.9233,39.5439,-453.4987,162.0338,-194.0075,-18.2948,-132.6956
-2492.1875,132.9659,-80.2518,167.3996,186.9409,89.3577,-39.8523,-10.5494,9.7721,-178.4057,-174.0030,363.8208,123.2672,131.5707,304.6880,26.4947,-395.1506,185.1936,-241.3607,-65.1254,-109.5202
-2484.3750,214.2676,36.4356,255.0447,128.4832,65.4589,-64.3607,2.7391,-14.5650,-202.7131,-235.6057,453.1950,141.1866,144.8344,355.2683,40.2478,-456.0224,197.1580,-335.9220,-124.1604,-133.5559
-2476.5625,183.0750,26.0747,205.6442,84.9702,15.5060,-77.9252,-10.0098,9.0467,-215.0691,-175.2635,479.5426,124.9062,244.0619,380.8045,101.9524,-395.9563,82.0695,-345.5446,-98.2501,-72.6491
-2468.7500,118.1543,-149.2871,132.2441,121.4522,-21.4581,-79.4985,-9.7533,44.6622,-179.4306,-175.9329,480.9129,115.6134,208.2954,455.3581,101.6588,-287.9007,152.9902,-310.1737,-27.3438,-36.7490
-2460.9375,93.2398,-212.0898,142.4013,94.4850,-11.8691,-107.5353,36.0731,16.8229,-134.2485,-168.0646,492.8613,77.0599,218.0789,429.4770,148.9116,-316.3177,90.4578,-338.2676,-54.9001,-64.3105
-2453.1250,85.0428,-144.9799,103.4485,-13.5899,-51.3738,-110.6824,-3.1892,87.8860,-137.1735,-60.2973,492.7313,48.5024,290.7722,428.5012,147.0592,-245.8501,16.8142,-341.4651,-128.5622,-66.9768
-2445.3125,85.0044,-184.4152,136.9384,-52.2163,-55.4308,-115.3940,30.0165,46.3931,-104.6522,-28.0893,528.0630,31.5176,287.9160,462.9868,216.6622,-214.9398,12.6306,-346.2130,-96.7738,-71.2024
-2437.5000,53.0721,-214.5924,105.6775,-117.5917,-50.2366,-147.8666,35.4935,51.1476,-62.8813,49.3594,498.6577,-26.1500,368.3123,395.7198,185.5272,-100.7948,-17.3082,-341.7111,-21.7393,-66.1881
-2429.6875,73.3260,-281.4576,147.7073,-184.6702,-9.7456,-217.0424,77.2798,-18.7927,14.1892,-56.8936,541.5635,-81.4762,373.0137,364.7606,153.6841,-97.3607,91.0586,-339.9165,51.5990,-98.8801
-2421.8750,111.5764,-314.4717,225.5928,-181.9021,105.5926,-214.3669,154.9331,-124.8814,-18.8941,-164.3012,622.3329,-95.7975,341.5541,333.6697,158.6786,-168.0907,93.2814,-373.2787,18.7908,-131.7321
-2414.0625,74.9801,-326.3325,175.6241,-156.9972,54.0719,-191.5376,67.7396,-65.8084,-69.8254,-142.5651,610.2659,-54.6761,366.2536,431.7364,108.8237,-146.6704,11.6471,-349.5025,7.1275,-72.4384
-2406.2500,72.4815,-286.1924,181.6479,-116.1086,22.5433,-296.7067,73.5581,-97.7260,8.2469,-210.8336,581.2080,-11.5107,372.9468,512.8144,114.9777,-142.2594,17.0180,-379.7404,47.4636,-67.1516
-2398.4375,80.6930,-194.4528,169.2738,-128.6235,9.6094,-383.2790,134.9908,-111.0391,68.9217,-188.5037,570.7601,-28.6969,397.2354,427.4975,139.7313,-82.2584,-101.0148,-358.3893,34.3940,-80.2731
-2390.6250,81.0571,-157.9012,60.6831,-161.3447,-24.5288,-382.0529,173.2347,-109.5425,-3.6074,-187.3699,612.1178,-45.2344,400.3268,393.9814,142.2734,-8.4617,-99.2462,-322.2441,1.1239,-78.5977
-2382.8125,55.5835,-215.4366,38.9916,-148.1722,-46.7667,-404.9428,151.4022,-95.1469,10.7681,-136.3386,666.3798,-35.3401,343.3096,484.3656,156.7157,42.2246,-157.5684,-310.2072,-56.2461,-101.0285
-2375.0000,23.9268,-195.8044,-12.5550,-197.8558,-98.8539,-384.6906,63.7356,-73.6018,32.2912,-5.1552,653.7947,-49.9499,402.4442,507.8952,179.3042,63.0591,-207.7455,-326.0239,-71.4730,-116.3113
-2367.1875,47.3377,-148.4089,3.6461,-184.7966,-84.1912,-369.6964,78.8263,-59.2999,10.5614,-64.2237,670.9637,-4.6655,345.3217,598.1683,195.6418,76.6422,-160.1673,-349.0908,-164.9574,-174.8466
-2359.3750,74.4787,-126.3500,28.4983,-127.0841,-96.8823,-346.0640,30.5778,-109.3527,-2.5096,-77.6436,734.7812,25.2165,370.8368,624.0872,109.6238,26.8706,-172.9339,-328.5037,-212.7997,-187.7382
-2351.5625,81.0216,-141.5710,12.0346,-141.6582,-112.8824,-363.7285,14.0308,-125.7034,-19.8803,-131.3617,720.2946,-3.8990,466.0450,571.7034,93.2947,8.7978,-47.9963,-343.2129,-157.9472,-167.9333
-2343.7500,148.3509,-108.9787,122.3665,-73.4303,-77.0871,-401.5930,87.2933,-237.2515,-57.4422,-317.2847,722.5980,9.7846,430.0302,499.1199,56.7623,-29.4787,55.7570,-312.1212,-125.2884,-205.3390
-2335.9375,128.2869,-78.8275,80.2424,-42.6661,-119.7398,-370.9077,82.1217,-206.2438,-100.4459,-286.6554,682.4503,17.4991,461.5598,458.0728,15.7752,36.7872,-19.9358,-283.4864,-131.0700,-211.2026
-2328.1250,65.2894,-117.4652,42.3259,-10.7178,-121.1954,-338.0161,81.1646,-135.0276,-65.2464,-214.8323,573.4948,38.4204,424.2812,495.2249,50.9891,71.2523,-58.4223,-286.6555,-98.6507,-249.8713
-2320.3125,54.3625,-127.2372,70.2557,-19.9313,-56.7996,-311.2711,182.0681,-144.9522,-38.1934,-189.1570,566.3874,25.9474,452.8404,450.2137,79.0499,60.5718,-174.0741,-261.9733,-144.3871,-259.6909
-2312.5000,72.1582,-40.1549,-60.9809,-108.3113,-78.5644,-259.6649,87.8237,-56.0141,-170.2832,-173.6216,657.1142,20.2992,506.2355,467.0451,21.9608,111.7500,-191.8804,-245.4396,-232.2722,-207.6579
-2304.6875,132.4234,-10.2226,-28.3770,-77.8475,-120.4827,-265.2092,46.4459,-98.2211,-249.5125,-216.2220,728.6731,43.3296,392.4613,500.7174,-19.2833,105.7833,-55.8345,-251.0547,-273.3028,-212.7765
-2296.8750,116.7332,-8.7281,10.7637,-39.8437,-118.8502,-227.2068,-24.3727,-59.8726,-285.1881,-142.2651,622.7702,26.4114,395.2329,393.9337,-53.9942,143.3770,-54.2284,-215.1172,-306.7824,-211.3460
-2289.0625,86.9613,-34.9151,-16.8065,4.4566,-182.9140,-218.9003,-51.8721,-14.2153,-276.5608,-170.0128,523.1414,28.6299,331.2828,367.4417,-7.4113,151.2731,24.6940,-241.8669,-297.9617,-202.6211
-2281.2500,52.3693,-44.3331,-25.6260,30.4993,-192.2085,-191.8509,-23.5984,-60.8067,-175.1838,-180.0064,443.2426,29.7182,250.0680,322.6750,20.9190,103.9267,-54.6353,-251.8603,-236.4018,-212.1514
-2273.4375,-4.7022,-24.4878,-152.2055,-55.2215,-209.2437,-135.5567,-40.0622,-4.1451,-119.5558,-124.7403,354.5779,-2.4268,307.0969,271.1415,4.4902,159.8474,-105.7111,-197.5951,-181.6010,-192.4312
-2265.6250,32.4230,97.1215,-135.0330,-73.1983,-192.5346,-119.5209,14.2252,12.2623,-66.1719,-181.7210,263.6572,21.4508,214.8610,215.3403,21.8099,101.5326,-54.0328,-146.5817,-165.0549,-175.9600
-2257.8125,54.6063,200.0435,-104.5795,-75.8824,-199.5360,-17.1751,-29.1880,41.9836,-109.4791,-78.3838,186.0161,22.4121,208.9122,99.8191,-21.5813,94.5320,-92.0553,-80.2591,-239.2071,-109.1850
-2250.0000,-4.2221,174.1252,-168.9870,-65.4273,-154.3931,64.3400,-93.4396,86.8699,-138.6305,39.1034,49.4997,13.8331,182.0967,36.4273,-85.8330,138.6896,-81.9173,-35.7688,-228.1996,-64.2629
-2242.1875,-42.8097,96.7201,-175.9063,-37.4874,-50.7486,56.3670,-26.1762,79.2675,-72.2683,105.1062,7.4519,-11.5973,64.7593,-43.4825,-18.5959,56.3560,-160.2804,-8.7680,-201.6860,-71.8441
-2234.3750,-104.2735,104.8295,-279.3406,-100.0654,-44.6089,61.9078,17.5950,159.1814,-66.4025,184.6226,-94.1281,-26.6927,108.8964,-72.9103,-11.8615,98.5333,-257.1397,68.7456,-158.6684,-28.9231
-2226.5625,-118.4910,86.9027,-296.8334,-116.7013,10.4751,43.4081,72.3230,177.0535,-11.5801,165.1022,-183.7810,-26.8925,54.9562,-89.4042,6.8154,41.6639,-168.0497,122.2143,-70.6976,-11.0507
-2218.7500,-110.5270,126.6936,-292.6389,-182.6449,51.2652,9.6109,113.7537,143.6340,64.9613,168.2917,-250.7661,-77.4694,59.7037,-231.2306,-25.8155,8.5064,-164.2635,160.3967,38.9732,-7.4727
-2210.9375,-123.9753,163.7616,-327.2095,-215.3484,53.3017,84.0760,116.4459,182.4710,103.7655,206.7395,-357.5295,-85.9134,25.6819,-300.8349,-97.2066,45.6136,-128.2260,231.8411,75.9032,-5.6410
-2203.1250,-139.9840,81.8891,-264.7442,-226.0148,78.3894,183.5973,143.2043,171.3694,166.6340,231.2511,-403.2796,-111.1613,-94.3127,-347.4096,-70.5611,33.7912,-139.1361,255.3528,99.8895,-16.7582
-2195.3125,-202.5153,-38.5253,-318.8488,-275.2350,23.9306,275.5727,89.4149,263.7313,184.9612,360.2371,-455.6234,-168.6083,-110.8866,-400.5615,-123.4812,88.4385,-153.5843,275.3304,120.3343,38.5781
-2187.5000,-177.3669,-34.6171,-277.6583,-271.1557,27.7753,278.8452,93.9352,267.3914,262.6013,326.5323,-486.7009,-156.5980,-216.1943,-395.4494,-156.1053,18.3908,-44.7101,278.6244,159.0837,42.2105
-2179.6875,-146.8554,88.0695,-260.7166,-254.3324,44.3798,257.8713,74.2169,209.8060,278.9952,342.5899,-541.0610,-137.4906,-272.7763,-451.6260,-138.9930,-2.8948,-28.0871,294.6801,140.5792,58.5914
-2171.8750,-163.1346,132.5801,-324.9828,-209.7193,16.7815,339.7158,47.2971,256.0357,251.1921,351.4632,-640.6525,-105.4655,-372.5845,-478.0279,-129.0995,42.6390,16.3450,338.5473,184.8740,67.7741
-2164.0625,-140.3111,105.5550,-240.8051,-201.6690,63.6208,349.0312,130.8233,228.7327,296.8479,323.8084,-665.8367,-121.2067,-472.9753,-540.9998,-118.7654,14.6490,60.2302,346.8745,193.6239,40.4066
-2156.2500,-152.1679,120.9940,-264.2040,-221.1784,76.9012,398.8213,71.7908,278.9082,310.9584,410.6330,-686.6158,-155.0816,-458.9427,-636.5435,-141.9918,64.1390,4.5610,360.6658,137.8213,90.4962
-2148.4375,-132.2725,150.5967,-234.4684,-156.5441,69.3262,354.7787,64.9103,271.2428,266.2354,365.6258,-729.2955,-125.1177,-575.7950,-642.9677,-112.0791,92.8022,69.0514,389.6290,132.1734,119.7389
-2140.6250,-121.0714,156.2638,-191.6900,-115.8766,74.8047,322.8008,108.0902,202.6415,308.5795,297.6842,-721.9725,-91.8358,-606.6205,-599.3765,-179.1228,60.5323,39.5910,430.6615,102.5849,125.0320
-2132.8125,-117.1222,211.5457,-282.3221,-130.6329,21.8836,342.4386,91.8769,222.6587,291.5419,354.3676,-737.0933,-99.5190,-622.8728,-651.2163,-232.5765,79.8884,94.7378,450.3146,122.6026,144.9223
-2125.0000,-72.3659,255.8387,-197.9570,-52.4057,67.9750,241.0887,176.6818,122.6869,264.5267,363.0684,-762.2595,-86.5851,-759.1603,-714.0916,-149.0480,52.2635,173.8878,422.9852,130.6231,117.8101
-2117.1875,-66.5684,326.9890,-198.7567,-51.3525,30.9286,239.5977,176.3506,121.5801,300.3803,398.6293,-797.6184,-107.5801,-722.6182,-824.1608,-148.6876,87.5120,103.8951,422.5243,95.4970,153.5534
-2109.3750,-71.7049,313.9622,-176.7705,-29.5036,-20.3048,260.9011,161.8257,143.2697,285.0459,383.9901,-848.2169,-78.3079,-774.3001,-765.4703,-126.5405,108.5815,161.7251,443.8869,117.1716,175.1028
-2101.5625,-73.3127,267.0808,-113.6985,-75.5477,-31.4293,286.3071,188.4027,132.0521,273.8121,372.4629,-820.7638,-92.7479,-747.9104,-738.7206,-137.3033,133.7651,79.6670,468.3771,141.9393,163.7588
-2093.7500,-142.3524,177.7815,-209.1039,-166.0292,20.9958,375.2794,204.5331,221.3943,252.1232,387.5037,-840.8269,-116.9858,-695.0089,-685.4528,-158.5281,185.5231,26.1731,412.4430,157.2596,178.9696
-2085.9375,-94.9416,217.6421,-165.3672,-125.3632,62.5628,344.4221,211.8129,153.9005,258.6025,245.7204,-795.8038,-94.0942,-724.9999,-678.0600,-151.6109,117.4716,99.8356,346.6736,161.7431,148.3278
-2078.1250,-63.3091,299.9072,-154.2403,-44.3125,110.5280,317.9954,186.4856,127.8338,196.5061,183.3771,-783.4391,-53.1272,-676.6275,-703.2982,-214.3076,90.8554,75.9028,357.3064,137.6423,159.0859
-2070.3125,-47.1943,303.9844,-150.3197,-5.4809,114.2876,321.3879,153.9588,131.5870,126.2342,149.8509,-778.3301,-36.7489,-672.4883,-698.7679,-247.2184,94.0634,150.7822,395.7533,105.3464,162.6478
-2062.5000,-26.6331,278.6724,-102.8063,4.9350,162.6487,258.4031,203.0309,68.9630,100.5782,86.9488,-692.6751,-46.1280,-624.7878,-686.6747,-161.5404,67.9031,125.2580,369.8250,79.6473,136.8166
-2054.6875,-38.8084,223.6363,-87.0656,20.5856,178.2574,273.6996,145.3402,84.6121,79.1650,176.3292,-638.8169,-76.9069,-497.8643,-707.3729,-182.6354,120.0292,104.9842,315.1759,-8.8044,152.2466
-2046.8750,-16.3468,176.3663,11.4159,76.9833,165.6196,223.7601,96.3995,35.0172,66.5120,163.4711,-613.2500,-75.5876,-510.2278,-682.3607,-121.9936,143.9324,198.4734,302.3045,-21.4996,139.4283
-2039.0625,2.6808,244.8545,45.6416,75.1128,126.7387,185.5881,58.2120,33.1851,64.6263,124.3859,-613.9916,-52.4038,-474.8714,-646.6431,-86.6159,104.6166,161.7137,265.2103,-23.4388,137.3612
-2031.2500,12.0541,302.8143,-5.6978,61.6765,38.3170,206.8824,-28.5205,54.8146,-22.7892,71.7726,-591.3359,-13.5634,-453.0967,-551.5181,-137.7997,162.7768,183.4003,250.5926,-1.9267,158.7478
-2023.4375,25.5379,318.4893,11.6489,76.9255,-17.3904,222.8749,-10.5437,35.1451,-6.4794,14.8824,-574.0324,17.4436,-472.6568,-496.7426,-157.2943,142.6684,163.7877,266.7103,47.2917,138.8393
-2015.6250,-59.6243,201.4783,-73.7270,65.4633,-65.7844,285.1687,-95.2548,134.7755,18.1588,77.3147,-620.4904,5.9912,-447.9372,-434.7220,-132.5002,240.8910,117.4792,325.1519,106.8232,127.2428
-2007.8125,-116.4423,104.9829,-98.6082,109.4990,-90.6668,332.9734,-119.4564,182.9037,67.3231,89.2597,-681.5089,40.9087,-545.7513,-312.2509,-83.2158,288.6389,160.6870,333.1266,149.8694,65.1523
-2000.0000,-92.3769,142.5567,-58.4556,76.5867,-14.4947,263.8513,-78.6098,150.0994,107.5447,166.2915,-640.5457,18.6661,-505.5450,-344.7752,-115.8983,219.4668,127.9392,160.1851,187.9698,32.1186
-1992.1875,-35.5750,204.1416,-33.3240,-4.3427,84.6697,177.7641,-52.7777,65.3239,96.7732,81.3520,-540.6516,-23.9900,-369.3725,-392.3300,-127.5980,170.3362,188.1960,9.2698,177.0815,57.0914
-1984.3750,31.3895,180.6351,123.6921,7.6050,94.7360,77.6056,-5.0470,-70.5327,69.9181,-91.6608,-419.9178,-25.7331,-322.3399,-345.0254,-43.4056,107.1453,235.3513,-49.7289,84.1062,103.9688
-1976.5625,-10.0662,157.1883,58.7399,18.5849,65.8473,121.5273,-106.2829,-63.3120,-31.8850,-47.5881,-411.1937,-28.8900,-205.2886,-337.7105,-36.1777,188.0455,140.5639,-2.6557,59.1917,184.9097
-1968.7500,-40.2484,97.4579,-4.5189,29.2582,40.6577,95.1755,-131.8318,-52.3753,-20.9707,0.1973,-399.8331,-16.1769,-230.5797,-252.7316,-62.2603,234.6833,187.4906,42.1470,104.9845,195.5603
-1960.9375,-48.1663,63.2401,34.7124,30.4288,41.9714,60.3507,-128.8863,-86.9223,90.4652,37.5040,-361.0361,-45.0994,-192.4014,-287.2921,-22.8491,199.8516,81.9170,77.4757,105.2847,160.7175
-1953.1250,-82.9420,29.9398,-1.1762,-4.5164,7.1899,25.4423,-164.0489,-48.5518,165.8124,2.7414,-359.4090,-73.9096,-117.3483,-285.9908,15.4454,237.9561,14.2440,78.7355,106.5090,161.7828
-1945.3125,-31.2053,58.5472,64.8288,24.4279,-73.6692,-17.5518,-133.3068,-92.2739,159.0652,-40.0849,-291.9503,-54.2440,-198.4380,-255.8375,80.6134,157.9945,41.4773,71.9282,64.6519,154.7542
-1937.5000,-27.3496,126.3170,23.9748,56.5202,-114.3708,14.6192,-211.4250,-59.8304,117.4702,28.2680,-296.4016,-32.8095,-129.4119,-260.5892,3.9098,190.2178,39.8716,104.3048,-43.0468,186.8864
-1929.6875,-38.5717,139.3068,0.3125,66.8187,-101.8717,27.0021,-234.3416,-46.1824,94.0974,77.8431,-319.7162,3.8100,-116.2230,-174.1878,-19.5993,166.6687,85.4810,80.9049,-31.5442,163.2224
-1921.8750,-37.0250,63.5751,32.8936,61.3680,4.8869,22.6526,-127.0132,-86.2785,128.0020,74.6995,-248.8506,-15.6807,-83.8273,-177.5737,-59.8698,126.4068,45.3382,40.7688,-1.8001,122.8137
-1914.0625,-78.8169,-13.6453,-51.0459,-17.5910,67.1335,48.8258,-100.1968,13.1482,80.4277,101.0926,-186.5571,-38.5894,16.0386,-114.4912,-70.6464,188.6914,-33.3016,-2.8519,24.4519,148.9156
-1906.2500,-45.7820,-53.1129,54.7557,-56.8163,63.1254,44.7679,-66.6467,-26.6605,39.6363,-12.7315,-116.5667,-29.5036,11.6208,-8.6982,71.3206,148.7682,-1.1855,-76.7080,55.4651,144.7739
-1898.4375,-25.4135,8.0768,81.1995,-101.4099,90.7716,-36.6239,-75.4506,-35.8113,30.5130,14.1164,-88.9741,-58.9957,74.8325,-55.3089,135.9247,139.5270,-46.4232,-120.8908,-22.8663,135.2976
-1890.6250,-18.6683,14.3188,86.6887,-60.9656,96.4747,-30.9472,-69.2099,-66.9054,-72.5547,-15.9727,-120.3877,-45.7389,116.0649,-85.9086,104.5652,108.3701,-4.6046,-43.9943,-17.1324,140.8857
-1882.8125,20.7062,-35.1242,181.4681,27.7726,117.4835,-46.9494,-47.6804,-119.6905,-125.3147,-104.7424,-62.5666,-33.6326,136.5709,-102.2445,88.4985,55.5463,48.5110,9.2408,-33.0919,124.7829
-1875.0000,-8.3056,13.9880,84.7739,42.0531,95.0536,3.6288,-106.6067,-104.9114,-183.5115,-52.9336,-85.2666,4.2017,224.6022,-52.0684,29.9684,107.3150,-5.8212,59.0552,15.5105,139.2408
-1867.1875,-21.1287,22.5500,57.5208,49.7782,68.0799,12.6747,-96.0788,-94.6730,-174.2424,-43.6547,-112.5806,27.2661,197.0468,-5.4733,38.8820,117.5671,1.3047,68.3439,58.5772,112.1547
-1859.3750,-55.0665,-46.4251,20.7079,48.9434,67.5693,-59.8172,-59.1057,-57.9730,-137.5047,-7.8920,-76.5055,3.7340,232.9119,-6.4757,38.2305,117.3052,-104.1197,68.1094,94.0963,111.5273
-1851.5625,-58.6787,-31.4790,-1.2136,28.0075,44.9647,-119.3920,-154.2485,-43.3605,-159.8631,6.7975,-62.5934,6.4466,246.6490,44.3762,89.4612,131.9800,-89.6399,82.8136,108.5222,125.8097
-1843.7500,-18.1049,15.1874,47.5597,110.7773,59.0733,-215.2509,-103.7005,-140.0447,-108.5149,-15.7912,-13.0445,39.8749,186.0579,56.8896,103.3816,72.3868,-77.4566,95.2447,49.6539,102.7976
-1835.9375,-58.0861,15.5058,-25.0330,110.1966,21.8218,-142.4321,-140.5195,-103.0637,-71.5101,58.3036,-50.9001,29.2039,185.0895,20.0230,65.9420,145.4871,-147.6235,130.3490,14.4419,102.4449
-1828.1250,-61.6825,-76.7252,-11.1803,52.0648,38.0214,-90.1441,-86.9102,-51.6223,-57.0380,37.8695,-35.3602,28.1913,89.5398,107.5769,44.9384,125.0725,-65.3265,142.9217,97.6931,44.5474
-1820.3125,-59.7858,-109.3951,66.2216,-17.5142,78.7683,-13.2829,-47.7652,-10.6204,-16.0063,-31.9935,-32.3279,6.5010,92.5132,110.6441,85.4710,129.2389,-132.4733,110.0625,64.4961,11.2050
-1812.5000,-74.1363,-94.6511,43.0154,-38.6942,18.9241,37.9972,-142.2271,77.7956,-75.5731,19.5679,-55.9607,17.1200,142.8604,161.0712,62.3936,180.8398,-118.2105,89.6283,8.7087,25.2674
-1804.6875,-63.0587,-108.2016,65.5041,17.8136,41.7916,24.0071,-82.9930,26.9286,-89.4319,5.8566,-33.9505,39.1253,53.8734,182.1733,48.0057,167.1699,-98.2502,40.9256,-41.3740,11.0339
-1796.8750,-76.7832,-114.3623,-18.6245,44.7124,69.0701,14.4455,-55.3680,17.4851,-61.8838,-3.4211,-7.5977,45.1297,117.2754,172.6349,-35.9894,120.9399,-104.8935,33.6495,-14.0453,38.2113
-1789.0625,-71.8292,-108.3220,-47.5581,50.8065,40.5565,23.0974,-10.5440,-10.7499,20.8717,-31.4839,-37.1007,54.7736,50.8601,179.2615,9.2130,55.9424,6.6675,75.5930,28.4989,9.5963
-1781.2500,-35.9237,-64.9146,-0.1366,22.2517,50.4100,33.1024,0.6190,-36.6443,30.9862,-57.1809,-29.3071,47.5123,23.7759,152.1898,19.7576,30.3167,48.5737,83.9000,35.4030,-53.6555
-1773.4375,-25.4714,-43.8993,21.8729,42.2933,-0.1328,18.7084,-87.6310,-13.9386,16.7228,38.7398,-44.9754,29.4394,81.2758,99.6765,4.8929,53.3225,105.0880,69.8294,20.9189,-68.2881
-1765.6250,15.9623,-38.7276,138.0239,117.4881,5.4771,-47.5244,-80.7374,-44.0880,23.6382,8.8268,-39.5555,39.6748,13.8905,68.2830,47.1721,23.5045,144.7630,39.9407,25.6030,-98.7600
-1757.8125,1.1900,-51.4497,122.2628,103.7828,-45.8102,-62.6427,-132.7542,-59.1274,45.6744,31.0257,-19.0846,16.6853,107.5901,52.9642,-4.4543,45.8238,96.5376,26.1688,12.3942,-77.1210
-1750.0000,2.3065,-83.6707,86.9969,105.5769,-43.6078,-97.2403,-130.2984,-93.6545,11.2185,-3.2568,18.8450,16.9694,71.7704,90.1234,33.4204,48.6827,168.8142,28.9195,49.6836,-74.9725
-1742.1875,16.6473,-126.4372,153.1804,97.8169,22.0346,-104.3593,-63.4160,-100.7153,-31.7836,-46.0595,47.1728,10.0288,27.3784,81.7119,62.7389,-31.9805,126.5320,22.1499,42.4252,-82.3643
-1734.3750,-7.4285,-57.6062,73.9414,-11.3531,18.2797,-34.8492,-104.9483,-31.1589,-36.1771,22.7682,4.0514,11.1510,58.5702,112.8741,21.6451,-35.0116,52.8417,20.0067,39.7849,-50.1452
-1726.5625,-8.2572,-49.2873,83.1986,-39.0343,-8.9623,-24.8228,-94.9773,-21.0946,46.9443,33.1168,12.3882,31.5226,-43.7586,195.5058,67.0457,-25.5121,25.6453,28.3879,47.6577,-77.4207
-1718.7500,-54.4775,-137.1219,63.2958,-56.8712,8.6602,-6.9247,-77.1629,32.8213,101.9243,51.3373,28.5322,-4.9990,9.7523,174.9599,84.2851,66.8692,-97.7096,46.6372,30.3838,-59.8390
-1710.9375,-102.1824,-225.2386,-30.9171,-41.0104,-12.0073,45.6821,-60.6598,86.4417,44.6157,31.2672,43.3302,1.6650,24.9414,227.0789,100.2210,83.9731,-116.3551,63.6069,46.8236,-43.5508
-1703.1250,-64.8674,-221.2486,45.9720,-74.0479,28.4356,13.3939,-20.0561,17.1556,48.4265,-37.6898,119.1838,-12.6750,27.2100,229.2644,103.2537,51.1955,-147.8914,-37.3032,50.3772,-40.1597
-1695.3125,-75.5281,-175.9561,-22.8444,-98.7904,-39.8153,19.4176,-50.1636,23.1813,55.5524,5.6772,123.2901,-29.6382,105.7665,196.7286,72.5759,94.7511,-173.1294,-97.8937,-10.7593,39.5378
-1687.5000,-15.4716,-91.2285,-10.2104,-52.0790,-98.6086,-41.0957,-72.8387,-37.3336,69.1446,-17.4885,171.8060,-1.0696,6.7556,208.6239,85.3431,72.7791,-54.9214,-118.0208,-32.4382,52.6933
-1679.6875,28.2891,-26.9035,58.0182,48.2345,-103.7929,-82.0065,-151.9300,-42.2459,27.3466,14.9716,201.8923,22.8159,0.3375,166.0873,42.7073,68.4305,-60.1194,-158.5300,-106.5118,47.4583
-1671.8750,48.8956,16.4287,28.2525,90.5495,-132.9772,-109.9090,-181.0388,-34.1610,-38.4509,23.4405,207.9533,47.2121,6.9081,172.5264,-23.9361,77.1034,17.6974,-150.0303,-98.5815,55.2316
-1664.0625,99.3981,70.0154,83.7447,72.1289,-41.9219,-164.5446,-124.9253,-87.8239,-56.0006,-103.8344,261.2341,45.7684,-12.2877,153.1940,31.6649,60.0525,35.7731,-167.2672,-152.3995,37.2648
-1656.2500,70.6664,60.6565,34.2799,25.7694,-16.8268,-139.1132,-99.7929,-98.4225,-30.5097,-114.0340,247.5251,11.7301,122.5553,102.8993,56.3113,49.0813,-10.0960,-176.4408,-162.1652,62.3582
-1648.4375,30.5522,-20.6454,-14.1342,-20.5293,9.3079,-149.6236,-37.6342,-108.9658,-3.9633,-88.1596,234.8314,-14.1768,110.4259,127.6466,119.0105,39.1886,14.0784,-151.5488,-137.8795,51.5073
-1640.6250,-1.4052,-93.0971,21.2961,-23.9771,118.2870,-150.2715,34.3559,-146.6493,32.4391,-89.4110,194.9516,-9.6096,144.1418,161.2265,80.5485,-34.8216,-23.9029,-118.7982,-105.7340,13.5169
-1632.8125,-38.0733,-153.7093,-6.4163,-15.5802,128.1194,-68.0678,44.1862,-101.4800,-31.2978,-115.8033,129.8958,9.7814,226.6971,206.6409,52.9345,-60.9609,19.9723,-75.1923,-26.7279,-13.6160
-1625.0000,-3.5304,-187.5782,108.6294,20.5589,170.7054,-62.1164,85.7531,-132.5652,10.7300,-183.4327,132.5662,9.8009,120.0051,173.7837,57.0733,-91.3333,56.5892,-36.8275,10.0317,-81.9910
-1617.1875,-6.9783,-157.6418,65.4728,14.4913,165.0919,5.6372,80.1040,-100.8505,-30.4347,-151.2487,162.0075,5.9958,187.1135,129.7072,-21.9839,-95.8848,-53.9936,-6.6461,-30.4007,-87.5571
-1609.3750,14.4730,-100.2533,50.7698,-0.1163,113.9343,28.8480,65.8943,-40.6922,-44.1445,-164.6082,145.8768,27.0981,171.6597,151.0682,-73.5850,-108.9761,1.8714,-19.9979,-9.3776,-101.6707
-1601.5625,28.5542,-110.0807,115.8636,-45.9169,105.5871,20.8738,94.4707,-49.7323,20.9547,-98.1573,135.5146,-4.8608,125.0067,104.2183,-82.3908,-153.2495,-8.4691,-29.5325,51.4515,-146.9773
-1593.7500,-13.4365,-142.9266,79.9523,-79.7090,33.2437,22.9116,22.0389,26.2307,-13.9357,51.2975,98.1242,-32.6828,161.3456,104.3681,-8.1992,-113.5042,-41.8098,-62.0571,88.2952,-145.2793
-1585.9375,9.1984,-110.7721,113.0445,-13.5028,-44.0918,-54.0465,18.6029,23.1927,20.1802,48.7596,129.7154,-16.5985,120.6816,99.5033,24.9905,-79.7447,-80.1616,-64.5755,85.1500,-148.5763
-1578.1250,-32.2089,-62.9183,11.8321,33.4017,-69.7278,-42.2940,-81.1531,33.8608,105.0018,133.9355,100.9892,-2.1182,129.7230,71.3286,-2.1255,-31.2683,-208.8138,18.6111,62.7114,-101.1653
-1570.3125,-96.2371,-91.5700,-129.8732,74.8074,-100.8649,-0.0399,-75.4219,40.0262,111.3355,103.6126,-5.2535,30.2287,97.2584,112.6445,40.2642,12.7235,-132.9599,131.3049,138.7750,-95.2507
-1562.5000,-72.9221,-124.9718,-52.3233,75.4707,-22.7591,-31.5325,39.5371,8.4405,115.9252,72.5459,-3.2590,27.9894,64.0485,116.2041,44.9080,-55.0223,-60.8628,63.2500,176.0851,-164.0770
-1554.6875,-44.9861,-129.9817,-21.3681,-0.4550,82.7394,-73.6227,70.8777,40.2533,37.9092,103.8807,26.1278,-27.6838,167.2363,35.1662,-35.0440,-96.3565,4.6346,-82.4046,205.7991,-169.4944
-1546.8750,8.0380,-198.9521,90.6409,-70.3289,157.2904,-107.6592,109.2598,5.1124,39.9542,33.2723,172.5449,-64.8239,130.4748,72.1797,-106.9434,-129.6280,41.1765,-221.0079,136.5683,-167.8589
-1539.0625,10.6385,-113.9335,101.6459,-92.2087,132.8472,-22.6930,46.6292,53.9785,15.0096,45.6772,182.9400,-16.4596,141.7224,156.1877,-132.8439,-116.8844,-121.2838,-206.6073,9.3496,-119.2209
-1531.2500,-39.2936,-147.9221,-46.3406,-91.0894,21.4103,88.2686,-27.0054,200.8407,-57.9241,46.0802,143.3348,9.4294,102.9691,227.1920,-96.7406,-42.1334,-84.7422,-134.2064,46.1358,-82.5837
-1523.4375,-57.9722,-181.6655,-44.0658,14.2818,-12.7683,128.4812,11.5968,166.9472,-54.6145,49.7330,106.9830,40.4053,30.4837,228.4386,-21.3962,-39.1273,-83.9609,-96.5573,48.1722,-116.6872
-1515.6250,-39.8069,-86.5679,-94.9336,2.5087,10.9034,115.5441,35.0321,154.9013,-67.4732,74.2308,91.4706,28.9842,89.8590,140.5439,-71.2024,-14.2594,-60.3215,-143.0569,36.0620,-92.9318
-1507.8125,27.5495,-24.3313,-29.6413,64.8934,-70.2687,70.7512,-9.3857,72.9974,-38.1789,-43.1244,118.1015,66.3275,43.3904,167.7995,-116.8413,-57.2360,107.4628,-114.4078,28.0997,-101.0231
-1500.0000,70.5735,11.3919,80.1432,99.7801,-143.9335,34.4535,-83.3089,36.5904,-74.3842,-41.9743,153.2285,62.0137,42.4453,129.5540,-79.9655,-55.7069,72.7325,-78.2519,-41.3634,-100.6062
-1492.1875,63.8729,4.1985,70.0291,91.7698,-189.4979,25.2514,-166.1364,64.2734,-120.4885,22.2774,141.4583,48.1158,68.6063,118.4095,-89.9813,-27.0756,100.1032,-49.9891,-48.7193,-73.0840
-1484.3750,64.4487,-61.9525,109.9723,58.8180,-76.0142,-43.9078,-15.9319,-4.9983,-79.5442,-46.4105,179.7400,11.1630,70.8299,83.3189,-12.9521,-96.3874,67.5155,-80.6798,-45.0239,-69.5051
-1476.5625,7.8721,-85.7579,9.2650,0.2248,7.8135,-107.7171,67.5972,-31.9214,-32.2596,38.2571,187.3712,-23.5233,190.4129,55.5869,-77.5777,-85.3396,-96.7199,-69.0248,-32.9702,-22.5698
-1468.7500,-18.7346,-113.0236,-57.8786,42.1921,52.1874,-62.9786,110.6651,12.6985,12.5789,46.4662,155.5556,-1.7053,122.5505,61.4165,-33.6401,-113.7504,-89.4048,-24.8229,9.6361,-15.0839
-1460.9375,-11.9281,-92.2534,-72.9737,27.2201,73.6034,-40.1815,132.7642,35.3727,-1.5288,32.7281,175.7871,-7.3554,106.7554,45.3089,61.3496,-127.1085,-104.0465,-38.5672,-39.7051,-29.5435
-1453.1250,19.3651,-35.0492,-87.6142,12.7106,23.4637,56.0718,45.3009,57.4989,-126.1889,19.4322,196.4770,14.3794,91.4149,65.6631,-26.2025,-103.0130,-47.2322,-16.8641,-53.5958,-43.5506
-1445.3125,82.7831,25.9476,14.5556,109.0117,15.1234,123.1242,0.6270,50.4206,-242.0501,-172.0704,186.9784,98.1824,8.8851,130.8199,-107.9448,-109.1172,48.3711,9.6333,-62.6886,-87.7540
-1437.5000,96.4313,57.7814,47.5723,140.1678,-24.3655,193.0235,-40.2054,84.1935,-319.0685,-174.7243,181.3329,120.2021,41.2228,125.8365,-148.8326,-111.3698,9.8228,6.9731,-100.9313,-91.1016
-1429.6875,88.1044,38.2539,27.2502,154.9812,-8.1971,173.5635,-23.3899,64.6078,-338.4342,-119.7359,195.3484,120.8023,20.2271,141.5197,-132.0673,-92.9811,24.9173,-47.0513,-50.5262,-110.7994
-1421.8750,87.1532,38.4171,63.6297,154.5000,-8.3274,100.7958,-23.8859,64.7231,-264.1113,-45.0497,193.0781,95.9569,18.9544,102.9224,-58.6004,-128.8922,-10.3006,-116.3917,-50.4284,-110.7914
-1414.0625,67.9228,26.9224,47.3592,142.3802,-134.1087,85.3719,-150.0451,86.1870,-242.4476,13.9815,139.1675,68.0271,39.0418,85.7010,-37.7799,-32.4520,82.8319,-128.3896,-61.9790,-52.4300
-1406.2500,152.8067,95.9710,193.6482,175.8193,-207.3394,-25.5073,-187.6578,12.1933,-206.2343,-60.4449,172.8160,82.4936,-73.3083,83.0427,-2.4036,-69.4597,187.5090,-93.8479,-98.9805,-53.5175
-1398.4375,181.3041,198.0999,187.0409,206.3618,-140.4794,-105.2905,-157.1874,-67.7064,-174.9235,-65.7703,201.5805,80.3361,30.4643,2.4962,-82.9197,-74.3685,148.2898,-132.2153,-207.8775,-22.4985
-1390.6250,152.7439,232.6531,73.9006,205.3557,-106.1774,-142.6342,-87.2782,-142.1647,-140.1566,-103.6553,196.8176,81.4364,136.6963,-1.5822,-11.9763,-111.8316,146.5256,-167.1447,-243.3152,11.9744
-1382.8125,107.6917,202.9946,41.5689,104.1504,-28.0879,-137.1897,-9.5883,-173.8248,-25.5960,-170.7436,199.8779,76.3967,140.7492,76.1573,66.7719,-141.4966,-24.4529,-161.2839,-167.9485,17.2542
-1375.0000,0.9981,68.3304,-64.7632,-31.0441,-60.0080,-59.7548,-5.9106,-59.4958,15.9528,-19.8368,128.9575,20.2239,180.8224,115.9185,70.5357,-27.1733,-123.4357,-119.4306,-90.5787,58.5355
-1367.1875,-29.3080,-32.9980,-59.7307,-26.8715,-17.5734,-16.9807,37.1120,-16.8286,-51.1494,61.4057,96.4066,11.3013,76.2694,120.0433,112.6603,-19.5134,-118.0774,-44.2404,-51.8680,28.1673
-1359.3750,4.2740,23.7099,-37.6411,-5.6459,41.9084,-31.1674,96.1765,-31.1152,-65.2105,120.6956,115.9273,-7.2607,60.7950,-5.7669,61.8349,-32.8092,-168.6700,-93.0168,-31.1050,13.8538
-1351.5625,-14.4138,-8.2034,-107.1361,32.9863,8.7955,-26.9688,62.6374,-27.0092,-23.8761,89.3710,117.8706,-7.2500,63.7383,-3.1533,28.4214,9.2810,-94.8599,-88.4029,-26.9436,17.9373
-1343.7500,16.6407,-44.5819,0.9286,31.1773,-29.7644,-28.2331,60.6507,-65.3626,12.0093,51.5836,151.3900,-7.5135,-12.7404,31.0253,63.5645,-28.0951,-61.5062,-89.2510,-28.2355,16.5698
-1335.9375,43.6799,19.6279,-7.4009,-46.0229,-109.7289,38.0932,-57.7448,0.8746,-32.5048,118.3791,178.5365,-35.7901,52.4054,-15.1727,18.3142,2.1118,-67.5476,-59.5113,-33.9271,45.8050
-1328.1250,80.6169,22.0762,31.5299,-43.9639,-181.4401,3.6563,-91.8944,3.3488,-29.7795,84.4074,215.9616,-29.3562,16.8228,22.8962,-16.6750,5.5554,40.6586,-56.5306,-31.3684,48.2892
-1320.3125,107.3619,37.0123,119.9586,5.5999,-239.6530,-54.2873,-151.5489,-54.6791,22.4300,62.9327,228.9115,-42.5206,-6.2310,-37.5107,34.8421,-15.5082,19.3507,-75.0637,-51.3066,63.2754
-1312.5000,113.2364,44.7835,127.2405,84.0230,-269.0201,-119.3907,-217.3564,-119.8583,30.4867,34.2941,197.7346,-60.9762,37.5799,-140.0375,79.2170,-6.7363,97.8947,-32.7673,-43.3946,71.1106
-1304.6875,166.1494,82.2979,242.2843,156.2066,-153.6407,-187.7570,-103.4237,-225.2955,36.2912,-70.6078,201.3368,-32.5133,5.1650,-172.7983,47.3468,-110.2284,134.1839,-30.7373,-76.7391,2.6957
-1296.8750,130.7760,122.9032,173.4412,125.5016,-76.1710,-145.0352,-98.4025,-182.6434,5.1908,9.5779,131.0704,-17.9331,46.8720,-168.4334,-21.4170,-103.6377,69.5733,-24.6228,-70.9852,8.3780
-1289.0625,85.5422,29.4970,112.6169,101.8021,-25.7016,-59.3314,-12.3792,-133.0040,19.0946,-50.2550,105.8342,-1.2440,-14.4009,-84.0442,28.8352,-126.0705,80.9572,-11.5262,11.7648,-14.9448
-1281.2500,-6.4731,-109.5277,79.1997,33.5050,51.1635,-18.2422,64.0349,-55.9657,133.3907,-45.6915,34.0328,-13.7093,-11.2378,-7.2305,31.4994,-122.1123,-57.2750,25.9523,119.9035,-47.8650
-1273.4375,-91.6462,-126.3730,-85.0089,-88.5884,71.2258,38.0340,120.6419,74.2651,190.8730,122.0616,-57.5353,-42.9015,44.1512,10.8138,14.3810,-63.9618,-110.3181,44.6140,138.2363,-64.5813
-1265.6250,-39.9343,-93.6819,-49.6598,-127.1286,106.8308,36.8422,155.7952,73.0338,188.9059,47.3494,49.4876,-39.9282,-67.8882,45.4267,49.8291,-64.2746,-112.8298,6.8117,65.1159,-102.7410
-1257.8125,-38.5191,-139.4034,-24.7169,-173.0644,58.0221,62.2415,106.5390,98.3996,178.5289,36.2267,110.1457,-94.5598,-7.3005,-4.3322,37.8835,35.0001,-158.7439,-2.4038,-15.4027,-77.2968
-1250.0000,-59.2767,-184.7849,-38.4117,-149.6360,8.5680,48.9766,92.6341,122.1038,165.4910,60.4269,95.1849,-83.4348,15.6595,55.2903,61.2932,23.6032,-100.3044,-48.2879,-26.5712,-53.5076
-1242.1875,-37.5804,-128.9750,-16.9006,-128.0034,30.3201,-2.1049,113.9363,69.9978,150.6435,46.8090,115.4497,-77.0255,0.8551,39.1382,119.9058,46.3819,-113.6673,-96.9894,-110.5384,-31.5221
-1234.3750,-56.7792,-106.4363,-71.6276,-71.6180,-24.1698,-19.4584,-14.0018,53.6303,23.5463,103.9173,96.5009,-41.2669,56.8308,94.7604,102.2812,103.8880,-92.2767,-39.9710,-122.7523,25.2080
-1226.5625,-5.0950,-61.9704,-22.3870,44.7183,-48.6999,-80.8821,-1.9824,-7.8044,-0.5989,5.9575,107.5446,21.7864,-5.2151,143.3553,114.6176,6.3231,59.0580,-29.0311,-147.0225,0.8845
-1218.7500,6.0625,7.4817,-24.1470,43.0570,-13.2383,-45.3209,-3.9688,-46.2434,-38.7527,-32.0078,67.6287,38.2543,-7.2316,103.9783,39.9661,5.7455,22.3848,40.8892,-148.3013,-0.4376
-1210.9375,22.8753,113.0266,-97.7967,-26.4882,-86.6934,-7.6678,-3.8616,-8.5872,-74.8198,-67.8951,30.8531,36.5956,29.8693,66.7405,3.4220,44.2544,57.8103,111.8964,-113.4932,0.3369
-1203.1250,37.0667,87.6260,-49.3897,-87.9669,-1.1182,-32.9688,80.2748,-33.8818,-25.8575,-128.7388,77.1607,4.7262,40.0419,40.5808,50.9280,-17.2044,-2.7188,86.9406,-68.6440,-24.8380
-1195.3125,-36.8668,-49.0789,-84.2731,-118.7341,38.1442,-30.5826,46.0979,5.5183,13.7911,-88.9015,42.2050,-52.1590,115.9316,6.1524,90.1371,60.0101,-69.5349,91.6705,6.9024,14.6828
-1187.5000,-57.6484,-170.5502,-63.8903,-100.2412,21.6548,-9.9642,102.1728,26.1544,71.6866,-140.8383,60.5393,-51.5748,62.0952,62.0006,147.6096,-29.5570,-51.0969,110.6275,25.6947,-1.5557
-1179.6875,-70.2066,-136.5431,-103.0015,-102.2438,92.6652,25.1385,99.7554,24.2824,70.0767,-70.2936,57.4079,-49.4191,59.7960,23.3774,108.5897,-67.6425,-157.1602,109.0598,23.9849,-3.2979
-1171.8750,-79.3909,-131.1054,-133.6508,-131.7976,62.1274,30.6734,68.7941,29.8544,38.9133,-27.3192,25.7670,-44.5474,64.9704,64.2348,77.0291,-61.3026,-82.7730,79.9230,64.7244,2.4042
-1164.0625,-38.5772,-131.0307,-23.6513,-131.6998,62.2479,-6.1566,104.4918,-6.9307,112.3948,-63.7050,60.8116,-62.6548,-8.1791,27.7679,114.1303,-60.3349,-82.7511,45.4157,30.1047,2.7530
-1156.2500,-23.1589,-75.0677,-41.7518,-180.7031,44.2700,-60.1003,50.0922,12.1783,95.7685,-7.2039,79.7971,-93.1658,84.5984,-27.7645,60.1364,-39.4884,-95.8359,30.7893,15.3805,58.9994
-1148.4375,6.5771,-49.6695,-13.3940,-118.2497,35.7480,-141.6110,41.1538,-33.2676,87.5810,-51.2731,70.2741,-77.9144,38.8497,-36.8156,88.5941,-47.2166,35.5162,22.5942,7.1021,50.6900
-1140.6250,1.6577,-36.1828,2.0517,0.3059,14.3235,-90.0314,19.3223,-54.6154,29.4815,-72.2558,47.8881,-8.7555,-19.7608,15.2599,30.1564,-31.8589,-22.0455,37.4834,21.9259,29.4778
-1132.8125,-27.5844,68.7343,-108.0459,69.3164,-95.6542,20.9875,-54.0526,57.4842,-6.1729,2.1934,-63.0153,77.0163,-55.9035,88.8191,-42.8200,6.9259,-22.1531,71.8096,21.1974,-6.2921
-1125.0000,-19.6431,87.8391,-84.9339,89.5313,-72.4393,43.1916,5.7710,42.7770,53.3629,-11.1723,-77.6752,103.1319,-143.8215,111.6074,-56.5858,-6.1091,-38.0684,21.3187,75.6621,-56.8666
-1117.1875,-54.8934,12.8324,-91.9156,-56.3527,-5.3348,37.2856,35.4867,72.9678,157.7936,19.3479,-85.3909,4.8708,-76.8141,30.3253,10.5554,24.7328,-79.0830,-54.2959,106.0208,-26.5450
-1109.3750,-16.0507,-80.3381,-42.0283,-114.3806,44.6111,-23.7828,84.0540,12.9929,171.0781,-78.3102,36.7890,-55.0891,-26.9341,6.9205,59.5588,-72.6086,39.7505,-76.0791,119.2172,-13.3800
-1101.5625,-5.8873,-119.3152,28.0616,-118.2031,40.7516,-27.6640,79.8227,9.2135,130.5578,-117.7814,69.2096,-69.0872,6.1753,2.7460,92.7616,-75.7723,0.7743,-44.6849,80.6043,-17.0187
-1093.7500,1.5421,-21.8494,-55.3968,-55.5747,-5.6636,36.8877,34.0503,36.8792,11.4821,-53.8204,23.1164,-31.3121,-3.2485,-43.9452,10.4210,-47.5051,28.2491,-16.8637,73.4355,10.7884
-1085.9375,59.8036,78.9545,50.5028,45.4033,-84.7319,-5.2285,-8.3643,-42.1110,6.7495,-130.5206,17.4156,41.5691,-82.3032,24.7339,42.4392,-51.9049,93.0662,-56.7128,33.6129,5.9433
-1078.1250,44.2456,109.2924,43.9557,40.9340,-90.2536,25.1947,-52.2291,-11.5462,37.5478,-63.6865,10.2986,44.2933,-14.7818,17.9942,-37.9887,-56.7721,-17.5675,-61.0253,-76.6641,36.6453
-1070.3125,56.7982,113.8644,46.6691,9.7204,-123.5171,-9.1503,-84.8247,-8.7376,3.5848,-96.6297,49.4729,37.5791,-11.9888,57.5354,1.8409,-16.4224,22.0477,-91.1050,-141.6959,76.5864
-1062.5000,69.0326,82.0261,86.9904,13.1068,-83.1710,-77.9075,-45.8107,-77.3296,44.2120,-129.9906,89.2898,12.9762,28.4388,23.6972,42.2715,-48.5039,25.2487,-51.6075,-138.1385,80.1220
-1054.6875,36.8321,45.5828,12.7132,-22.1057,25.5786,-78.2753,-10.3894,-77.5282,-28.7769,-92.9753,88.5463,-17.9038,138.2900,-13.7075,42.1120,-48.2114,24.8519,-51.7311,-138.1940,80.0532
-1046.8750,53.3849,32.8309,75.1372,35.3903,88.0316,-54.9572,51.7434,-54.0370,-77.0780,-178.2759,39.5421,40.8487,16.8645,48.6131,-6.3418,-133.2446,82.1535,-31.1753,-115.5625,31.6798
-1039.0625,43.5596,84.6690,20.1566,52.4892,70.0787,0.9494,33.4746,2.0542,-130.7929,-158.9865,21.1712,61.7371,36.0676,30.5610,-98.1961,-77.6975,-5.9406,-14.0414,-99.3382,13.9037
-1031.2500,18.7222,44.1970,-22.1175,47.2943,27.8240,-4.4631,27.9121,70.8380,-172.8219,-164.0184,-21.4592,47.9893,66.9835,25.2433,-29.3433,-46.4702,58.6691,-19.2333,-34.4216,8.8207
-1023.4375,37.8904,60.9641,-3.1367,99.3577,46.8086,-22.6341,46.5935,15.8708,-153.6124,-144.8152,-2.7935,61.5472,13.1679,7.2045,-10.2431,-100.0103,75.5240,-1.1978,-52.2673,-9.0131
-1015.6250,30.8140,78.4251,-61.4580,82.1265,-11.5200,-7.1121,-12.0260,68.6039,-211.7096,-91.9374,12.6034,63.7167,66.0714,22.8988,-68.4332,-46.8666,58.0861,15.5200,-34.4173,43.8491
-1007.8125,48.6997,69.4268,3.7765,108.4508,-93.2993,57.9577,-58.0838,96.8845,-256.2630,-137.5263,-33.4338,86.5860,20.5442,51.1728,-77.0672,-19.1963,154.1947,6.7745,27.9788,35.2539
-1000.0000,76.3393,103.7732,113.3586,108.1195,-129.7294,57.3754,-130.7840,96.5162,-293.4806,-100.7741,-34.0939,88.4645,57.3932,50.8216,-113.3498,-19.1994,118.6461,-97.6340,27.7172,35.0086
-992.1875,75.7005,128.5180,100.3499,133.1934,-180.7600,6.1798,-182.0798,82.5458,-307.3084,-151.6422,-48.3159,87.0304,43.6526,36.8952,-53.2310,5.1745,143.4977,-213.6553,16.8476,95.1552
-984.3750,68.2298,155.5561,90.6406,90.5634,-153.4884,-112.7262,-118.0609,-36.1279,-168.8404,-234.2202,-93.2057,61.1457,-2.7642,-9.7161,47.1871,-40.1722,135.6367,-186.3870,79.2685,122.5922
-976.5625,-41.1882,97.4251,-44.2211,-37.2185,-31.3584,-174.7937,3.8210,-24.9523,-84.5319,-148.9634,-229.2079,-2.2387,119.6906,-70.4563,132.4564,-28.6906,8.6267,-68.2804,163.5319,170.8678
-968.7500,-93.5035,-30.5198,-68.8727,-129.7941,126.9852,-236.6706,198.9253,-86.5835,-72.0317,-173.5356,-253.9718,-36.3766,132.3600,-20.9707,181.9280,-16.0410,20.8148,14.0124,175.9852,183.3293
-960.9375,-115.1937,-68.1226,-71.1744,-97.0188,235.6788,-239.1973,233.3845,-124.8617,-0.1958,-138.7732,-219.3505,-34.9560,167.3989,-23.1120,142.7454,-55.0595,-87.6542,11.6362,137.7804,181.1361
-953.1250,-156.4414,-71.6313,-146.3786,-65.1410,197.4631,-166.6289,194.9507,-90.0423,34.7236,-29.9276,-257.5929,-0.5566,166.5472,47.8713,67.6678,-18.9980,-91.0174,9.3435,135.6729,143.0360
-945.3125,-137.2844,-58.8909,-93.3341,-53.0135,212.4934,-114.8216,246.7793,-73.9736,123.8898,-50.8396,-242.5561,5.1601,71.9672,27.1186,83.8423,-39.7048,-149.1423,-14.7143,112.8063,85.1762
-937.5000,-149.0426,-77.6495,-151.7971,-105.3883,118.0259,-25.5151,152.1105,-21.4036,102.5466,37.7388,-189.9929,-39.2930,50.9062,-30.1149,99.5049,49.0721,-237.7734,3.7188,165.4360,137.8084
-929.6875,-127.2474,-61.6667,-171.5048,-159.0106,60.3123,-9.4651,131.2042,30.9159,9.9455,18.0520,-173.6487,-47.1167,-5.4003,-13.5743,152.9220,65.5768,-150.6554,19.8872,146.8096,154.1801
-921.8750,-61.0571,8.9597,-58.5672,-122.9894,63.2469,-7.7653,96.9545,-3.1092,-24.0194,-15.9904,-133.6300,-20.8102,-39.0395,-11.3659,118.9914,31.7192,-114.8938,-14.3067,76.8217,120.1968
-914.0625,-55.7531,10.7394,-56.4823,-49.8192,-7.6674,30.0755,-47.1320,35.0162,-95.8418,22.1028,-131.4354,10.6058,-0.5172,28.0160,10.2072,33.9865,-41.9754,-12.3602,8.9708,122.3531
-906.2500,-22.6681,36.9607,7.0605,81.7993,-89.1198,21.3612,-92.7560,-9.4083,-104.2225,-22.3649,-139.7624,79.2061,-80.5348,93.8663,-34.1318,25.6862,53.3877,-56.9775,35.5561,113.9480
-898.4375,23.8807,132.8115,32.2516,71.0684,-137.9190,-25.7051,-141.7187,-20.1760,-78.9629,2.8091,-77.4211,69.0534,-18.8865,45.3871,-44.8156,15.0325,8.3981,-136.9555,60.7874,139.1838
-890.6250,17.4206,61.5468,32.3415,36.2386,-100.8140,-62.8721,-104.7653,-57.0395,-41.8084,2.8684,-41.1536,21.0164,-18.3299,8.8286,27.4058,15.2648,43.3027,-137.0468,95.9117,139.3074
-882.8125,44.2600,19.6899,64.8190,29.7960,-32.3041,-104.6386,-0.4029,-135.4943,-10.2662,-2.6783,27.5397,-29.7915,-59.3573,-104.3170,60.0134,-26.1158,36.5879,-37.7533,90.4338,97.8308
-875.0000,49.4233,114.8309,-19.7148,55.3456,30.2046,-189.4065,62.9660,-145.9426,-56.7351,59.7666,-19.7446,-37.0575,40.6204,-225.4372,-24.3840,-36.5117,61.8733,20.5374,79.9544,87.3511
-867.1875,76.1177,174.8609,-27.3501,150.7967,96.6148,-234.2768,128.2481,-227.4933,-65.3126,15.1021,-27.1050,10.5537,-40.4912,-232.6417,-31.8847,-81.0238,122.0500,46.7207,70.3683,42.7626
-859.3750,49.9865,107.2323,12.3493,83.5974,99.3749,-194.7968,130.8875,-187.6900,84.4495,54.7879,12.9056,-17.4184,-0.2331,-192.4869,-29.0408,-115.1923,-16.4302,13.2487,38.1199,45.5172
-851.5625,26.4650,36.3473,11.7974,-22.8431,61.8915,-121.5675,57.2907,-78.1339,156.9532,54.2114,12.6849,-36.1118,-0.2267,-83.5631,-29.4504,-78.6260,53.8423,-22.4796,1.6077,45.0093
-843.7500,63.2982,77.2697,93.0463,54.5203,33.2136,-114.5318,28.5026,-106.7760,165.2474,-11.5706,21.2768,10.7438,-65.4161,-37.8259,-21.0730,-71.2796,94.9050,-51.4077,-62.1157,16.2914
-835.9375,28.2142,108.0994,16.1918,50.7835,-44.5664,-45.5890,-49.3767,-74.5119,161.4320,21.5308,-19.2195,11.5134,-31.7058,-41.1721,-24.8051,-2.0527,55.8692,-90.4350,-100.9354,12.4633
-828.1250,43.3764,77.1188,58.5384,55.2511,-75.1393,-2.4418,-43.0344,-68.0443,167.8158,27.8170,-12.5036,13.2702,-135.7953,-34.3089,-18.3420,-32.6474,95.0280,-51.2641,-96.5584,-18.1781
-820.3125,38.4945,43.2722,97.0213,21.8739,-73.5538,35.8619,-41.5311,-66.4177,206.3418,66.2512,-10.6294,-32.4581,-59.7299,-106.2855,-16.7370,5.8993,61.3327,-49.9396,-95.0333,-16.6778
-812.5000,31.6560,-19.9768,104.1048,-5.8996,-139.3569,42.7713,-108.4141,-22.1870,176.4589,36.2709,-3.1410,-46.5663,-52.0693,-61.6498,-9.5455,50.0251,139.2464,-7.0201,-87.9192,-9.5949
-804.6875,75.0596,9.6892,175.0911,24.2220,-69.2498,2.5858,-37.3845,-62.0529,136.4620,-3.8170,67.2635,-16.7417,-91.4997,-27.1073,-49.4612,-26.9744,99.0495,-47.2098,-162.9206,-49.6269
-796.8750,65.3192,67.7083,87.4208,-22.3047,28.2129,-11.2411,-50.9972,-38.5584,85.8002,56.4370,91.0318,-29.4820,-30.5766,-77.1979,-100.0396,-40.6343,-18.7940,10.9487,-173.5771,-26.3171
-789.0625,36.8882,46.0670,29.0991,-8.4713,43.0366,-69.7114,1.7569,-96.7137,64.4785,35.0230,33.1645,-24.2397,-51.3071,-60.9248,-47.2757,12.0355,64.7168,94.4532,-125.8840,-47.6684
-781.2500,32.1497,51.7266,37.0680,32.6647,88.1679,-98.8745,82.8203,-125.5563,72.4433,5.8994,4.6069,-38.8325,-42.7338,-163.3422,70.7726,-17.0103,0.5246,171.2543,-119.9022,-76.7307
-773.4375,24.0434,91.2364,-32.1160,36.6560,92.1560,-58.1767,49.7458,-84.5410,76.2436,45.6119,-28.0852,-20.0815,-2.3159,-158.8899,0.6655,-13.2300,39.1819,174.9016,-45.0864,-72.9551
-765.6250,34.3628,22.2503,45.1893,40.1526,96.6476,19.0364,91.1799,-80.0097,43.5259,49.8303,-23.2701,19.9484,-107.3959,-43.9222,-104.9472,-45.9610,77.3242,177.0460,27.2140,-105.6878
-757.8125,1.5438,-26.9853,29.2299,-44.6029,43.8851,114.0077,1.3687,14.2918,64.5517,33.8049,-1.7027,-17.5000,-12.7207,-22.1898,-83.8199,48.0545,-7.7873,127.9414,13.2602,-84.6789
-750.0000,-35.6829,-103.2725,-13.7809,-156.4129,1.0866,180.9358,-4.4702,82.5461,95.5228,27.7223,-7.1739,-49.5884,-54.0966,46.4934,20.2529,42.0074,21.0561,50.7826,42.2499,-90.7383
-742.1875,-54.9678,-195.0666,39.7007,-140.7290,-19.1999,197.3846,12.2032,99.3134,111.9757,44.1425,9.8670,-63.2531,-73.9722,63.6790,36.8148,21.4499,-34.6049,-4.8744,21.7277,-111.3104
-734.3750,-80.0176,-169.9727,-81.9235,-151.1455,-29.5762,222.7527,0.7831,161.9918,63.3124,106.4562,-1.1828,-60.6378,-11.9500,52.7839,-47.7363,46.7767,-44.3574,-14.6345,47.0993,-85.9933
-726.5625,-52.9594,-140.6848,-50.3437,-156.3604,1.2603,107.3313,106.5721,119.8801,94.8467,100.9660,-6.0295,-60.0730,-52.7281,48.1022,-17.0984,5.2868,20.0857,-55.1989,77.6669,-91.4887
-718.7500,-46.4149,-72.5430,-54.9193,-158.7284,33.9585,65.7736,139.2264,78.6271,53.2195,133.3171,-10.0253,-60.2321,16.3491,7.2704,-20.6232,37.6333,-52.6193,-57.9143,39.0829,-59.1442
-710.9375,-18.3239,-47.7552,-29.8476,-168.4431,59.3218,17.8756,90.5530,104.0327,5.2300,121.3017,15.6362,-78.8494,6.0692,-39.9046,4.4885,62.6198,-27.6735,-32.9775,-5.8571,-34.1607
-703.1250,-1.0474,-27.1742,29.0143,-76.3610,45.4933,-70.2116,76.6908,17.2477,64.0328,107.0902,2.1009,-56.5039,-44.4063,-53.2802,-9.6132,48.3975,-6.9372,22.7627,-54.9948,-48.3838
-695.3125,-9.9657,53.7527,-69.7848,111.0632,-15.9739,-21.9382,-21.8035,-8.1708,39.1769,118.2281,-22.0866,28.0726,-32.5364,-41.3000,-72.3677,59.5235,4.1459,68.8521,-79.7852,-37.2685
-687.5000,-2.2200,65.1796,-55.0906,191.9872,-37.9290,-8.1494,-43.7833,-30.0762,89.8128,58.8699,-80.7690,80.6510,-165.1788,10.1940,-57.6328,36.1447,120.7114,80.4450,1.9109,-96.6683
-679.6875,7.3311,32.1515,-51.8665,124.4523,2.6727,-3.7925,-3.2081,-26.4083,130.9924,63.0797,-39.8987,27.5503,-123.2700,-58.7465,-54.3565,-32.6862,122.8115,11.5867,110.1461,-129.5273
-671.8750,2.8065,-35.9812,-11.7466,-13.1874,43.1896,36.4757,37.2805,14.1681,97.0664,29.1849,-36.1220,-12.5323,-46.4676,-17.7755,-51.1888,-29.6300,160.8152,14.6282,148.2746,-126.4990
-664.0625,30.1404,-81.0112,89.4685,-57.7320,107.8177,63.8557,64.8818,41.8491,50.2263,-17.6185,28.7675,-34.3143,-91.5647,-26.7014,-23.9378,-39.4828,80.9184,40.7730,103.4923,-136.3799
-656.2500,-15.3414,-92.0415,37.6718,-103.2771,56.4504,160.2484,-22.5148,101.5435,-0.6269,41.5749,-22.3417,-51.3994,-31.6686,-39.6158,-37.7031,19.6606,-0.9711,28.9187,92.7076,-77.2734
-648.4375,-32.4832,-126.4323,39.5297,-66.1644,-14.2531,162.3020,-20.2388,103.8911,1.1736,80.4165,-55.8105,-20.7092,-103.1321,36.1243,-72.8258,21.4442,35.7862,30.7165,94.5749,-75.5359
-640.6250,-20.8417,-92.6274,37.5748,-32.8565,-15.7405,123.5729,-21.7459,65.4560,35.1719,78.4627,-21.0873,-13.6782,-30.3881,35.0671,-111.7578,19.4242,33.7243,-41.2810,56.6392,-77.6115
-632.8125,-46.5081,-73.2238,-52.7935,-12.9541,-32.6161,143.4569,-38.6332,122.6300,-18.2367,61.1016,-73.7541,8.0716,-10.0492,55.6269,-55.1002,38.9967,89.2571,-21.6777,41.2997,-58.1009
-625.0000,6.1917,-47.5686,48.0816,13.1922,68.7771,60.6077,62.7445,77.0624,-64.4068,15.9942,-45.1622,8.9144,-92.4588,10.4450,8.7884,-7.1849,115.0267,-30.8169,-37.7980,-67.3550
-617.1875,29.5903,-0.8635,57.9981,-9.6155,116.2334,-39.1763,37.1814,14.5633,-91.5482,62.9389,2.4854,-5.5658,-7.8153,-14.6769,-54.2901,-34.3145,90.8496,-18.8999,-61.8594,-20.5719
-609.3750,54.7928,-36.2116,131.8683,25.5345,116.6540,-148.9978,0.5820,-58.9782,-91.7558,25.8292,76.0891,-23.6486,29.7664,-13.8386,-17.4312,-34.5026,126.6227,-55.0332,-96.9834,-20.8548
-601.5625,24.5051,-72.8736,131.4267,60.3850,116.7853,-113.1020,0.6889,-58.8075,-55.2794,25.4271,76.3985,-21.3687,66.0518,-13.2897,-17.8886,2.0133,20.0848,-55.4663,-132.4160,-21.4533
-593.7500,-26.5710,-86.9473,5.5719,11.8344,65.5301,56.4024,-14.5877,36.9740,-107.2087,46.6161,25.3115,-12.8023,124.9315,8.8757,-70.7560,60.1280,-28.8544,1.6998,-41.2475,-0.4728
-585.9375,-52.1317,-121.6690,-28.9359,-22.3686,67.6331,95.2680,25.5041,40.1150,-68.7953,49.1450,-8.4162,-7.9498,54.1574,48.4018,-68.2813,25.5865,-28.4503,37.2175,30.2630,-35.1608
-578.1250,-68.7490,-116.9836,-61.0531,-88.1759,37.1384,174.5546,31.0005,118.6711,-63.9992,54.0698,-39.7453,-26.9323,23.7890,18.3402,-26.4285,30.4523,-94.6436,77.1390,35.1641,-30.4620
-570.3125,-97.8141,-171.9000,-120.7697,-73.5778,-21.9434,226.2612,8.9040,133.6333,-86.8141,31.3894,-24.6698,-4.1827,1.8089,106.6851,24.8087,7.7128,-80.4326,91.4592,49.4541,-16.3816
-562.5000,-76.1859,-138.1156,-83.7946,-2.2792,15.6826,189.6903,9.5132,97.3083,-49.9449,-42.5856,-23.8915,14.3550,2.5274,70.7353,24.7291,-29.3215,-80.5372,91.4809,14.4285,-16.6171
-554.6875,-39.8573,12.7134,-111.7804,8.0750,-12.6318,161.1938,-55.8202,70.0515,-78.0439,2.4925,-15.0634,24.3734,85.2881,6.8537,-4.3120,15.6973,-105.5981,66.5561,24.4352,28.1832
-546.8750,-19.8018,23.3375,-64.9729,-16.7687,-38.1323,99.5107,-44.3425,44.6054,-67.3571,-23.6295,-3.4316,27.9649,59.8450,55.7824,6.4395,63.5121,-59.8689,77.4313,-0.7678,38.7692
-539.0625,-44.9877,-11.9810,-101.1322,-15.5626,-37.5714,24.8885,-43.8062,44.2253,-67.6368,49.2998,-3.7529,-0.8206,59.4571,18.7690,-31.7770,99.3783,-93.0948,42.3619,0.0708,74.3923
-531.2500,-21.0982,-15.4882,-104.4962,16.4473,-40.1905,-50.9216,-46.4529,-31.3497,-35.1283,46.0198,30.7229,-29.0739,56.8633,-56.4362,1.7970,59.0393,7.4746,39.0983,31.7016,70.7955
-523.4375,42.4273,-4.4474,54.6752,99.0055,46.7542,-147.1599,3.4610,-90.3599,-95.0878,22.2980,81.7434,-20.5783,-3.1773,-115.0892,51.9093,-37.7416,-16.4238,15.3924,7.8726,46.7342
-515.6250,37.7231,14.8289,37.0845,48.8107,29.9614,-54.1240,-85.3621,-34.0991,-149.8088,41.8290,102.0108,-9.8725,54.0302,-58.4836,-39.7454,17.7308,-67.0802,-0.0570,-7.7099,65.9072
-507.8125,22.7787,6.7491,30.1404,5.2601,-50.1640,49.5757,-92.5215,32.8218,-156.8866,-1.9860,58.9296,34.1375,-26.1099,82.7773,-46.7663,47.8496,-41.0976,-8.8528,54.3475,21.7151
-500.0000,-33.3177,-1.5793,-52.0727,32.4575,-93.5300,152.0469,-135.9291,135.5106,-128.2289,63.9568,14.5916,55.9596,-33.4976,111.7974,-18.0533,76.7229,-153.3759,-16.8911,11.1485,13.2618
-492.1875,-69.6211,5.1392,-154.2435,39.7061,-121.8328,196.5854,-165.2699,180.2591,-121.5325,143.9455,-51.7038,53.7784,-62.8449,83.8799,-48.3027,156.6428,-112.6048,26.1275,18.0001,19.8391
-484.3750,-39.7686,2.0530,-46.2274,37.1469,-49.9202,159.3512,-93.3995,143.2234,-123.6410,106.1442,-51.8044,58.8873,-62.9882,83.1655,-49.3703,82.7618,-115.6469,58.3515,15.0468,-18.4008
-476.5625,-46.9387,-20.4855,-31.6759,-54.8673,-34.4436,174.6930,-77.9735,158.7599,-73.2138,157.9053,-36.3657,16.2907,-10.5864,61.9989,-71.8956,96.4366,-173.1426,106.1297,27.6414,-41.1052
-468.7500,-63.5852,-92.5313,-31.6247,-91.3807,3.5530,175.5554,32.9644,159.8091,0.7056,121.1658,-35.4353,9.5678,-83.6911,100.3402,-34.9301,23.6118,-175.1507,140.4144,60.7285,-78.3256
-460.9375,-84.3980,-149.0835,-16.0923,-147.4029,20.0594,155.9511,87.4035,177.3834,53.1182,100.9308,-55.0123,-27.4512,-66.2896,81.1906,-19.4882,3.2927,-195.6738,155.2105,40.3097,-99.0573
-453.1250,-61.5115,-69.1447,-80.0696,-66.9257,-5.9158,91.8693,23.3526,150.4724,25.0173,73.1976,-45.0957,-4.1160,-19.4002,54.5548,-83.5607,48.4729,-80.6962,164.5152,-20.6107,-90.3066
-445.3125,75.5832,92.7438,52.8910,95.4987,17.0789,-31.2422,10.2630,-9.4764,-25.1416,-87.5783,51.7659,51.6952,-32.5633,4.8651,-60.7001,-38.3960,116.2185,80.7761,-140.5884,-104.6221
-437.5000,120.6551,182.2856,70.4855,220.5776,-0.2609,-86.6839,-7.1697,-101.7596,-154.6590,-142.6973,70.2643,88.3752,22.9129,-49.1749,-80.2024,-57.6141,170.7849,29.6929,-225.9238,-50.3002
-429.6875,102.2051,180.0349,68.2804,218.8655,-1.3918,-124.9125,-8.3945,-138.8379,-156.9836,-144.6120,31.9546,122.2983,-15.4242,59.9820,-45.5166,-59.6340,203.5499,-42.1760,-158.0656,-52.7937
-421.8750,78.0798,179.7279,70.0112,184.0985,37.4373,-48.1654,-5.6606,-99.9447,-82.3684,-106.5560,-2.4203,131.9462,-49.8155,100.0908,-43.8955,-57.6929,133.2499,-113.0797,-123.2627,-88.3478
-414.0625,36.8911,149.2603,37.5815,154.1726,-29.8742,30.4570,-74.0649,16.8153,-40.9062,-101.6378,-69.9566,133.1014,-7.3693,143.0550,-76.4316,-15.8952,137.7953,-143.1263,-118.6120,-84.0666
-406.2500,32.9778,29.8401,98.1920,176.2923,-42.1217,129.1511,-49.4066,77.6390,-54.3961,-151.6605,-45.4538,128.0182,-130.8806,168.0714,-52.9279,7.9563,159.3756,-156.1189,-166.9126,-97.7495
-398.4375,67.6678,103.4207,24.7882,144.4107,-77.3599,204.8740,-121.7446,153.4830,-199.8929,-76.6709,66.0300,113.3679,-92.4038,96.0893,-126.4467,8.8146,55.9514,-83.1007,-234.2152,-60.4432
-390.6250,106.5906,147.8047,-0.8262,119.3273,-101.7854,180.4172,-146.2678,129.1391,-225.5970,-101.8851,152.2980,126.5482,-117.1470,145.9121,-152.1766,20.4716,101.3219,-37.2687,-189.7131,-86.3519
-382.8125,127.9608,127.8915,92.2400,64.9379,-81.4953,126.6874,-89.0773,75.5138,-171.6092,-119.3921,171.2535,96.1022,-134.1953,129.4351,-133.2258,-34.1694,81.3754,-21.7276,-174.5144,-141.5727
-375.0000,139.3553,191.0186,47.3440,22.5987,-88.1370,120.0330,-132.8246,105.9521,-142.5805,-89.8392,201.2492,78.4882,-67.2033,86.0073,-178.2413,-41.7517,38.4753,5.8750,-182.2701,-149.7566
-367.1875,142.1213,151.0374,44.3447,53.1609,-53.8556,7.2978,-61.6547,30.3012,-35.6520,-129.3751,236.1327,55.1438,-143.3196,47.4725,-108.3640,-45.4355,68.4657,72.3868,-186.1325,-190.0558
-359.3750,113.6376,110.1021,37.3850,83.7714,51.4954,-108.3680,43.5710,-85.2846,31.3156,-135.8492,230.0547,9.2565,-2.3896,-68.0149,-78.4468,-88.0623,-6.4993,67.9543,-191.9544,-160.3159
-351.5625,93.8331,74.0768,34.3258,83.2831,86.7648,-110.1193,78.7133,-123.9681,28.1715,-175.4242,190.8718,4.7189,69.4321,-69.6056,-44.6444,-90.7946,27.4331,102.4231,-157.8867,-126.6876
-343.7500,90.2551,114.0090,39.2105,123.7402,130.0001,-103.9047,158.8155,-117.6937,-4.0366,-170.0446,159.6356,43.9790,75.2087,-63.2558,-39.9088,-122.5767,-73.6965,142.8484,-152.8774,-122.1157
-335.9375,14.4464,91.7846,-97.0673,31.0509,68.0905,19.1879,96.7707,5.4468,-29.4076,-84.8172,98.2354,34.2508,123.8256,-14.0491,-65.3313,-37.4963,-166.9802,121.1491,-105.0259,-74.7029
-328.1250,-28.6845,18.2509,-173.6561,-40.9300,30.8835,91.0098,95.4302,41.3086,4.9141,-86.8749,96.5150,7.3511,48.1231,21.8660,4.9363,-2.7056,-169.5778,83.1725,-36.4769,-77.6053
-320.3125,-43.9008,-51.4329,-174.4195,-76.0623,-6.4615,164.7122,21.9418,114.0467,-33.9198,-51.0587,132.6227,-22.0096,84.2608,21.6295,4.0340,32.9469,-203.3377,84.0585,-36.0716,-42.6749
-312.5000,-49.2005,-72.2670,-160.3339,-95.3458,-64.9406,216.2796,-73.6791,165.6457,-57.9012,-0.3914,109.5702,-15.0830,62.2317,73.2454,-20.0295,83.4460,-153.2450,64.7960,14.1827,7.0850
-304.6875,-25.9651,-87.2975,-66.4494,-74.8305,-42.6043,165.6691,-51.4906,116.0549,-36.0920,22.0764,132.3075,-22.0560,11.0011,59.6558,1.6995,68.7455,-168.3648,15.3350,34.2287,-8.3679
-296.8750,-44.7517,-32.8772,-120.1268,-159.8653,-21.8058,76.5313,-66.8460,136.9291,-53.8525,78.9961,79.4817,-40.9322,68.2122,43.5231,-53.1357,88.5041,-220.0310,35.3267,123.7213,10.6213
-289.0625,-22.5828,-52.7064,-67.0580,-179.1465,70.7585,21.1659,-12.4413,81.5602,-109.8785,96.6752,23.3969,-56.6583,-24.8384,-11.8565,-110.2345,32.0141,-99.9476,86.0744,244.9607,-9.6509
-281.2500,41.9890,18.4585,6.9963,-73.4308,109.3433,-51.1767,25.9662,9.2066,-145.9111,60.3645,24.2961,-37.6630,-60.8842,-119.2361,-146.3495,-41.4622,-28.8747,156.8289,210.2013,-9.9334
-273.4375,63.2033,101.5636,-15.0024,46.2314,51.8940,-34.5548,5.3379,-11.1899,-131.9966,39.0023,3.1372,8.6282,-44.9909,-139.6620,-95.5153,-62.9864,54.1407,171.5361,117.4003,-32.2801
-265.6250,51.1912,148.8145,36.1441,164.0427,67.6047,-17.7664,21.8677,-31.4275,-43.9366,53.7907,-54.8780,87.7368,-139.9525,-50.9441,-80.5374,-47.3528,-4.7061,113.4015,-11.2551,-91.4850
-257.8125,-43.1797,88.1208,-27.6699,138.9045,5.3653,66.0899,-4.5581,53.3991,38.1628,174.6351,-155.8592,78.6248,-55.8708,-3.1727,-71.5136,36.3404,-100.5060,17.3269,-36.8665,-82.6459
-250.0000,-57.5254,-11.6177,-21.5320,39.7246,-60.9195,73.9104,-34.0311,97.1750,192.2107,218.4325,-111.9053,6.6180,-48.8526,4.5451,-65.5469,78.9824,-24.3550,-116.7876,4.4667,-76.8697
-242.1875,-0.2427,-27.5048,70.4379,-45.6012,-40.3428,-15.4019,23.3479,44.8147,247.1063,127.0976,18.8830,-57.9651,-28.9868,-48.8953,-9.7530,25.4839,-40.3648,-202.0392,-11.3559,-58.2529
-234.3750,-3.4181,-84.8512,45.9484,-102.3726,-27.2084,-2.1393,-0.7168,58.0146,148.5465,103.3153,68.2103,-83.8991,-16.5804,-35.7778,1.5769,37.5418,-26.8272,-187.7310,37.3773,-10.0946
-226.5625,-24.9828,-97.9510,32.7019,-114.8985,-1.8140,23.3886,24.4731,46.4768,135.2413,90.7916,18.7829,-56.4106,-101.9308,26.5956,25.1532,24.8582,-40.0511,-95.1761,59.3576,-23.6962
-218.7500,-78.6508,-124.6982,-33.2108,-140.0838,44.9383,107.2836,34.0158,56.3030,143.2855,135.6326,-46.3085,-68.6132,-19.9356,-0.6766,-40.9253,70.5354,-102.9376,-51.2719,67.6875,-15.9550
-210.9375,-117.2712,-219.5031,-60.1692,-165.3207,56.6531,82.1383,82.5196,68.0859,153.2798,110.4233,-72.4554,-80.6834,-9.0019,47.9982,5.9460,44.1622,-57.8753,-40.4182,112.9601,-6.2739
-203.1250,-87.6919,-209.3114,-13.1307,-189.5583,142.3803,-16.9931,167.0270,5.8757,200.2674,84.2182,-24.6073,-112.0103,-35.0673,-14.3295,15.8104,17.7932,-82.8206,-29.5607,53.2265,3.4016
-195.3125,-43.2211,-51.8650,-70.8442,-136.5459,85.3670,-71.8526,73.7851,-12.0808,142.4956,63.2645,-8.5208,-96.4042,55.1117,-106.4048,-6.0808,33.6794,-65.5116,58.5514,-0.2625,55.3192
-187.5000,19.6858,64.0275,13.8888,-21.0813,98.8150,-95.2421,87.0076,-109.5814,43.1710,-34.2357,-32.9934,-5.4718,-6.2625,-56.0334,5.4673,-26.9808,15.2392,105.1164,-25.3044,29.6776
-179.6875,11.9462,50.6627,37.3613,37.1246,50.0203,-33.8583,37.9789,-84.3148,-80.4140,26.0216,-8.7288,30.0221,-18.8820,4.0887,-8.2409,-3.8796,-69.2680,57.4343,-73.5914,15.7811
-171.8750,-45.5518,-72.4042,-16.8641,-15.3693,-2.4620,23.8305,-50.7420,9.2546,-61.7075,83.5760,-25.1678,11.6212,-35.2031,99.5164,-25.6497,53.5189,-15.4741,5.0528,15.4242,-1.8223
-164.0625,-48.4767,-151.5636,48.8039,47.0429,-8.0380,55.4263,-20.5646,3.7248,4.8931,40.0376,-31.7158,13.8834,-78.6158,93.8366,-33.1604,9.8247,10.2047,-38.4261,41.3299,-46.5263
-156.2500,-64.0913,-115.4216,-23.2413,48.7623,68.6896,95.3259,18.9124,43.4969,-68.2145,41.8113,-66.9716,10.2926,-2.7305,22.4580,-32.3793,11.4350,-23.8155,-36.5976,42.5383,-45.9333
-148.4375,-47.0498,-75.9833,-17.9888,17.7837,111.7310,175.5319,62.7029,87.5654,-137.0196,47.8843,-60.9322,51.2854,-33.5520,102.3754,-64.2991,-19.6552,-20.5433,3.5367,-23.9482,-78.0477
-140.6250,-100.0334,-114.6456,-57.8432,-19.3009,147.6772,211.6507,61.3905,159.5449,-139.9267,118.8633,-100.0024,32.8504,38.5344,101.1919,-30.3205,52.1611,-129.3789,36.5795,-26.5300,-81.2663
-132.8125,-149.6396,-174.6591,-122.0431,-79.7386,122.2773,223.4312,108.7283,208.1806,-130.1900,92.4978,-162.4325,4.5763,122.2627,112.6604,52.3141,62.6372,-83.5695,47.2763,-16.4653,-71.8430
-125.0000,-84.9190,-120.0749,8.3557,-59.5770,217.4871,97.8211,166.6646,82.4239,-182.8649,-34.2605,-142.2666,-8.6705,105.5968,23.7290,108.5415,-28.2753,-64.1772,-73.4283,3.1945,-52.8215
-117.1875,-75.0805,-57.7970,-5.5547,-31.7125,206.4020,-23.0802,118.3027,-1.6257,-159.8433,-45.3118,-154.4087,-39.5111,203.6324,-97.4990,95.4657,-39.4804,-73.0944,-115.4308,-5.4465,43.9021
-109.3750,-75.4047,6.4274,-49.5211,68.0997,163.2781,-139.0208,111.9028,-117.7238,-56.8725,-89.4192,-234.6061,13.7356,123.6107,-66.7711,124.3398,-83.7335,61.9278,-85.4790,58.8641,72.5731
-101.5625,-44.3113,50.1999,-4.9534,148.4539,136.7092,-202.3956,122.0547,-181.2652,23.6455,-116.9693,-188.2609,43.8155,96.1451,-56.4900,95.7582,-74.4290,34.4912,-75.9715,-2.2757,80.7934
-93.7500,-46.1712,70.9225,-56.4371,134.7595,13.1007,-105.8107,-1.8357,-84.8518,-64.8904,-58.5678,-166.9748,45.7082,154.6186,-34.2575,79.1312,20.8275,55.0054,-54.5101,-51.4638,100.9581
-85.9375,-53.7613,-2.7024,13.7297,96.7148,-23.8533,-32.5647,-2.0743,-48.7820,-66.7742,-59.5089,-169.0495,60.0621,79.7450,74.6205,114.1497,18.7381,52.1579,-21.3969,-20.0053,61.7696
-78.1250,-127.8136,-103.4739,-91.2632,30.5208,19.0402,82.5392,39.5319,31.1408,-26.8047,-17.5918,-164.2837,26.8182,158.7252,80.3488,81.0149,59.5113,-83.8390,-52.4309,54.3046,65.4293
-70.3125,-171.0257,-207.7535,-127.7504,-37.1619,57.4383,159.1423,114.6443,69.5582,9.6644,-53.1785,-163.0199,3.4031,123.2014,119.5729,118.3848,97.7889,-119.3320,-50.9628,91.1157,65.5836
-62.5000,-177.6066,-187.9846,-143.1911,-51.7921,79.8931,182.8005,137.8071,56.0263,-5.8260,-30.7128,-140.7134,12.4141,108.7376,142.8372,138.8005,83.1194,-204.7758,-65.4438,39.9769,49.7890
-54.6875,-165.9782,-48.1071,-253.5320,-87.3208,81.4495,147.5624,102.0695,93.5901,-6.2224,5.8544,-177.3151,23.3509,109.3674,107.2026,102.3155,46.5443,-170.1102,-64.8251,39.9411,49.0914
-46.8750,-123.4900,-3.7208,-205.3651,-78.3516,132.5111,87.8239,225.8313,-2.3507,42.8872,-55.0731,-201.4247,36.0250,11.4950,84.0610,76.3303,-14.5287,-56.9461,-20.7068,49.4048,-13.1087
-39.0625,-106.2000,2.7144,-162.1582,-105.3294,177.6212,59.1435,233.6399,5.7665,86.0467,-47.9404,-194.4984,-6.8826,55.6719,-18.0324,46.3966,29.4558,-85.7320,21.4735,55.9196,-7.2595
-31.2500,-111.5421,-74.7054,-133.7959,-76.1552,170.8910,52.6165,153.6026,36.0332,114.3560,-54.6593,-202.4286,-22.3050,47.9901,-23.9742,37.6183,21.5895,13.6317,15.8111,84.5925,20.7315
-23.4375,-43.0794,-14.0342,-34.3364,-15.8864,163.2688,-63.8006,145.6683,-81.5939,104.7647,-27.2731,-100.2699,-8.8614,2.4184,-31.8194,64.9413,-23.1707,4.0800,7.2516,40.3693,10.8217
-15.6250,9.9921,59.6804,3.1646,-12.5785,55.6988,-98.1605,37.7928,-79.1711,68.2289,11.1623,-26.0701,-18.0945,40.8970,-66.6126,28.3216,-20.8767,5.5765,-23.2531,7.2056,47.9637
-7.8125,40.6305,37.9409,54.2177,2.2746,-75.3171,-81.9652,-56.5296,-63.2002,45.2513,-9.8507,24.6734,-21.6194,-16.0754,-50.8591,42.2621,-6.0301,55.6127,-8.2083,21.5929,61.6563
-4000.0000,3.7039,21.0121,23.0452,-29.2306,-90.3655,-39.7203,-67.5929,-61.0237,45.6988,38.2543,-42.4995,-44.4444,-23.1519,-91.2750,51.9821,51.2443,18.0005,-12.2193,55.9366,91.9104
-3992.1875,-49.4986,-6.5324,-113.0201,-92.1002,-46.5940,-31.2243,-22.3766,20.3452,92.6228,85.1282,-69.7493,-38.8312,-50.7015,-9.4157,25.2445,97.8474,25.4991,-40.4137,135.0038,65.3903
-3984.3750,-50.7045,-40.4382,-35.4269,-126.3198,29.8328,-28.0894,90.5031,23.3652,171.1986,53.6433,-102.3180,-46.8837,-119.5884,-5.8714,68.1681,66.0859,-8.3573,-73.9748,172.7160,-2.4924
-3976.5625,-109.1790,-111.7039,-74.1857,-163.8915,98.9092,41.6898,87.0406,57.0422,169.4198,87.8084,-140.2079,-70.2169,-12.7993,-8.6402,66.7425,63.9611,-80.5784,-42.8974,135.0709,-3.7329
-3968.7500,-116.7416,-124.4791,-83.4501,-105.9539,161.4823,67.9680,149.0829,46.2271,160.1326,41.4738,-186.5645,-31.6711,-59.4953,18.1290,56.8141,17.3115,-21.2953,15.6690,124.9185,-49.4849
-3960.9375,-103.5881,-109.1036,-65.5557,-90.8501,213.2137,47.3830,165.2798,25.5579,177.9897,59.2888,-169.7346,-54.3114,-79.0230,-75.9180,38.0315,-2.2178,-76.8700,65.3661,69.9037,-68.1034
-3953.1250,-112.3355,-131.2773,-89.2107,-113.2839,224.3914,22.2462,176.9196,37.3461,191.2791,72.5528,-192.4187,-72.8899,-66.0829,-100.4813,15.6940,-26.3200,-27.9991,112.4975,83.3300,-54.2817
-3945.3125,-32.7179,-108.8084,9.7919,-91.0595,247.2118,-65.2503,200.2137,-50.2160,179.2151,-12.5505,-57.4171,-94.9732,-78.4871,-149.3493,40.0084,-38.7958,29.5278,99.2699,-33.5966,-65.8244
-3937.5000,36.7159,72.1509,-23.7004,-16.3253,138.5267,-62.2510,92.0061,-48.2729,71.6454,27.8455,56.1177,-44.1456,-38.3724,-145.6818,7.8182,-35.7981,-0.4524,33.5388,-204.0244,-24.8804
-3929.6875,85.4870,206.7515,-29.5411,83.0696,19.4832,-105.6049,10.4442,-55.6732,29.7127,21.8916,50.3405,35.0962,-117.5881,-80.3277,-34.7264,-42.1722,98.2220,26.4477,-244.8104,-30.2994
-3921.8750,106.2857,232.9891,72.2850,144.1287,-26.9108,-115.3158,-108.4685,-65.4209,21.4163,13.5796,6.2507,68.4874,-162.1385,-52.2872,-79.6182,-13.9267,124.5434,16.9926,-217.9592,-38.0820
-3914.0625,66.0519,146.8246,56.7116,128.7905,-118.7133,12.5619,-163.7858,64.4378,-32.2908,33.8626,-47.2022,73.2504,-142.0624,4.3893,-95.9122,42.9031,144.4542,0.1234,-127.5136,-17.2713
-3906.2500,30.5405,52.9077,69.3922,69.7084,-70.2663,61.6821,-42.8500,76.5452,91.2449,-63.6137,-70.3647,59.0412,-165.7216,54.3596,-7.9587,18.9592,120.6147,-24.5066,-80.8283,-40.2256
-3898.4375,-31.5530,-44.7683,5.3237,-28.1172,45.4352,69.0499,38.3479,83.9104,174.0203,-17.8371,-61.2437,-15.3611,-48.1075,-11.3750,38.2351,-9.7615,-10.9892,-16.8929,-35.9137,-30.9482
-3890.6250,-89.2865,-129.5020,-45.8047,-77.9809,140.0894,90.3746,132.4982,104.2427,159.7364,4.8941,-112.1458,-29.4625,-62.5264,10.8831,60.3739,-24.5579,-61.6488,3.6626,19.9383,-44.7379
-3882.8125,-89.8708,-103.6513,-91.3279,-122.2370,165.3544,116.2987,196.2625,94.1809,151.0547,-40.7901,-83.4139,-43.7441,-71.3367,-35.2241,89.1226,-33.7844,-174.7108,63.8057,46.3844,-52.9494
-3875.0000,-131.7083,-96.9135,-192.9515,-255.5902,244.5215,122.1252,238.9364,137.0318,121.2659,39.4245,-112.7497,-90.4966,9.7798,-65.3941,96.7680,9.8653,-238.8874,69.8357,88.7236,-45.2765
-3867.1875,-122.7429,-135.1794,-121.5737,-258.9425,351.6895,46.9525,383.6104,60.8940,120.4604,38.6320,-113.0474,-86.0666,-28.0945,-29.5171,96.4081,8.4932,-206.0659,100.8584,51.0502,-82.6214
-3859.3750,-134.8668,-120.4982,-143.2440,-209.3399,364.8090,23.7315,360.2393,74.7185,98.5925,53.7829,-134.3647,-60.1609,24.0024,-14.6539,1.9890,23.0538,-227.3028,114.8283,31.3106,-67.0336
-3851.5625,-132.5092,-176.6324,-165.7181,-91.5296,266.1216,35.7112,262.0681,86.7542,74.9104,-5.8705,-83.4494,-17.5739,0.3231,71.4554,15.7628,35.7957,-109.3385,126.9946,9.7609,-53.2610
-3843.7500,-99.2099,-187.3788,-28.7810,-31.2977,179.8349,24.0840,176.3088,2.1897,101.6179,-16.1442,-56.0983,-20.9972,-9.9409,61.0148,78.9290,24.9031,-84.9696,80.5494,-35.4034,-63.1118
-3835.9375,-147.0920,-169.4281,-84.1428,-13.3534,49.2549,78.1517,9.2554,92.3347,10.0085,186.2788,-111.0103,2.7082,45.5200,116.3100,-12.2113,115.6854,-170.9165,132.7911,-87.8921,-44.2809
-3828.1250,-161.3881,-103.2800,-121.3039,18.7962,-64.1178,149.4145,-66.5878,164.6893,45.5860,258.8907,-184.6895,58.3783,-65.8023,189.8408,-12.1505,151.6424,-174.6644,130.2238,-54.1977,-81.2644
-3820.3125,-135.7992,-41.7334,-93.0593,44.3518,-111.0816,176.0700,-150.0231,227.4511,73.5515,249.8925,-155.9315,71.4497,-37.7068,180.8003,15.3083,141.9754,-218.0234,49.0488,-63.1195,-89.8613
-3812.5000,-88.0125,-122.4434,-30.0689,34.6619,-123.2918,200.4743,-125.7021,178.9728,62.2570,128.6440,-55.3963,39.7594,25.1623,169.5480,41.5090,56.0367,-52.6337,-31.3851,-2.3056,-63.7197
-3804.6875,-34.4956,-182.6124,129.4804,44.5312,33.0578,63.4255,-4.8186,42.0523,37.5003,29.9312,30.7249,-2.5498,73.5947,107.8893,91.2533,-42.3798,-7.6944,-163.2803,8.0414,-88.0495
-3796.8750,-46.5225,-182.5900,90.2306,8.6099,138.6178,-13.4220,65.2738,2.3438,-1.0723,27.4197,66.0741,-15.5469,182.2483,105.4660,52.1908,-82.6200,-79.5660,-163.9862,-27.4248,-53.1969
-3789.0625,-5.6134,-137.4328,139.1251,89.8450,148.3319,-40.1093,75.5268,-24.1972,-100.5139,-107.9471,78.5976,70.9221,157.0621,228.2368,28.2684,-180.7326,2.7132,-153.5442,-86.7459,-41.2149
-3781.2500,24.5493,-47.2292,160.0718,145.1404,131.1010,-57.7388,20.8371,-78.6776,-152.9277,-124.2686,100.2071,115.9082,140.9363,249.0980,49.3785,-197.8208,-47.9635,-134.0569,-101.0327,-20.2067
-3773.4375,35.6741,-41.6754,166.3623,186.7924,61.2256,-89.0143,-48.4988,-73.7855,-147.0102,-118.2411,107.1978,136.1415,147.1780,291.3372,18.8282,-192.5807,28.7000,-129.2243,-94.9816,-13.8690
-3765.6250,111.1715,-41.7277,278.0553,290.8590,97.7569,-161.8884,-11.4220,-146.4851,-146.6951,-225.8291,219.6161,163.6369,111.8263,293.0087,20.6760,-302.9728,97.7697,-132.0063,-130.5381,-49.1546
-3757.8125,164.9172,17.3161,267.8487,280.0352,11.3934,-173.6587,-23.2417,-122.0741,-229.2916,-200.3268,358.1635,144.8363,248.5906,245.8178,-63.3918,-277.2870,51.9328,-143.7005,-141.0075,-59.3578
-3750.0000,180.4993,-29.8966,258.3890,232.9752,-37.2253,-185.6740,-34.3188,-95.8936,-240.1568,-137.0797,459.4860,131.2851,239.1134,310.4226,-109.7249,-287.8646,75.8479,-156.6444,-46.7426,-105.8240
-3742.1875,146.5050,-149.5166,319.5368,289.5319,21.7541,-89.0886,-11.7923,-72.1019,-253.4375,-112.2384,484.4320,151.0504,264.2396,371.6680,-84.4628,-337.8636,-44.6433,-135.9848,-60.8905,-154.7076
-3734.3750,186.0559,-134.8821,263.9194,339.3407,-36.0137,-37.2516,-106.0035,-20.0442,-345.4791,-169.1443,686.6433,185.8706,354.6348,463.1962,-67.9588,-358.6331,-64.8903,-122.0781,-150.7972,-174.3618
-3726.5625,333.1305,72.4018,300.9502,406.8072,-75.1104,-111.7641,-107.5419,-94.3256,-418.8754,-279.4184,909.5255,253.5707,244.6893,500.4050,-66.8148,-432.7859,-32.4798,-161.5367,-224.0641,-247.3922
-3718.7500,401.2043,242.8282,260.1412,400.4243,-81.0311,-117.1255,-149.9108,-99.4534,-460.1295,-283.5645,979.5891,263.0767,314.9187,422.7863,-144.5345,-474.8178,-38.9223,-133.8602,-230.1983,-288.2945
-3710.9375,401.3676,152.1935,243.2804,416.9917,-99.9872,-135.5320,-131.3137,-80.6121,-514.4494,-337.7750,1073.6298,257.0336,408.1146,480.1465,-198.3188,-456.9208,12.5823,-153.2370,-178.3999,-342.2652
-3703.1250,395.0144,69.7448,306.6223,404.7633,-74.7232,-109.7323,-69.4993,-92.5582,-525.5802,-311.7914,1101.8939,230.6505,398.5157,469.7397,-133.9129,-468.8475,-34.7265,-166.4121,-155.4143,-389.0570
-3695.3125,333.2170,22.7387,220.3962,357.9884,-90.0014,-51.4729,-83.2261,-33.0310,-466.2724,-214.3490,1052.6210,201.0258,459.3824,457.8181,-110.0760,-409.3367,-82.6068,-179.1320,-96.9921,-365.4131
-3687.5000,274.0247,-99.2698,131.1564,377.2212,-107.2704,-31.2025,-63.9430,-49.4867,-370.9751,-303.9120,1038.3615,197.8525,370.2534,515.9279,-89.2458,-388.8447,-27.4894,-125.8492,-112.5750,-380.7864
-3679.6875,240.2488,-97.6236,60.5601,379.1111,-106.8801,-30.2788,-62.9921,-48.2833,-369.0382,-301.8347,1004.7715,203.6687,446.7816,518.7141,-122.7725,-424.7292,-61.7280,-54.9207,-145.5168,-378.5268
-3671.8750,287.4046,-4.2745,84.6624,401.7095,-83.7867,-80.6499,-76.3372,-24.3652,-418.4101,-277.0653,993.9012,243.8047,398.0221,544.2231,-208.6207,-400.9343,31.7399,-32.2946,-157.7733,-390.5828
-3664.0625,326.6645,43.8192,137.5241,380.0728,-33.9407,-103.2703,-24.9254,-46.6872,-366.0415,-298.5586,1010.7996,243.1164,303.0113,523.5071,-192.7258,-423.4143,44.9674,-54.9217,-179.2916,-411.9089
-3656.2500,280.0862,16.7039,71.1831,317.2358,-65.2920,-61.0900,-56.7104,32.8046,-322.8822,-255.2493,945.5150,219.7748,309.8182,530.6149,-186.0422,-344.1074,52.9861,-83.7513,-171.0179,-368.4513
-3648.4375,274.7644,-7.5781,118.6769,364.2516,-92.7793,-14.0553,-82.6271,43.1679,-311.8783,-244.0872,884.0878,249.1415,174.4803,579.6068,-174.5164,-296.9632,133.8493,-108.7261,-230.9059,-357.1601
-3640.6250,228.5533,-11.4178,115.6110,360.7212,-98.7926,17.4400,-125.0694,75.0008,-353.4356,-174.4783,808.1190,248.5942,244.6025,576.0757,-215.5507,-265.3873,26.1475,-183.2477,-268.3616,-324.4372
-3632.8125,171.4182,-30.7976,-17.0240,271.6398,-159.3365,30.3949,-149.0499,162.3061,-339.5667,-160.4234,749.6102,224.1496,259.1871,591.0159,-274.1544,-179.3722,5.8909,-203.3164,-182.3857,-273.2798
-3625.0000,153.6974,-27.5671,-13.0630,134.1643,-121.2644,-3.0441,-72.4106,128.2224,-262.1177,-156.7805,681.7134,177.1741,190.3716,559.5757,-233.1737,-139.7751,-25.7596,-200.7857,-72.8283,-269.5415
-3617.1875,82.9726,-28.4942,-126.2517,62.5451,-88.3253,30.3779,-75.9084,199.0081,-301.8376,-11.2907,570.6750,150.6195,188.4178,521.0010,-272.3544,-32.3410,-97.5644,-167.4046,-73.4350,-234.9715
-3609.3750,95.4320,-56.0294,-44.0449,105.3349,-81.9698,37.2143,-68.9938,132.2166,-294.1694,-3.4009,506.0386,168.9647,85.8667,529.8477,-301.1512,-62.5277,16.0336,-160.6194,-30.6526,-227.0202
-3601.5625,89.7314,-64.8673,20.8590,97.8391,-55.8955,-10.2365,-42.3612,85.1421,-192.8033,-12.8206,425.1087,127.8131,114.0155,411.4123,-273.2704,-146.0368,8.3249,-134.1319,-38.1829,-199.3895
-3593.7500,47.6414,-8.7555,-33.2999,13.2945,-73.8619,-28.7181,-23.7699,68.0408,-99.4944,-30.2938,262.1325,88.6791,171.1194,321.9459,-179.4603,-90.6038,29.5617,-78.6969,-17.7773,-142.8272
-3585.9375,-5.3637,-56.7512,-45.5638,-34.3453,-14.9146,-5.2916,73.7344,54.8591,-39.2962,-79.8739,140.0587,73.2535,123.1163,310.4013,-80.7472,-68.2816,16.6979,-22.3638,5.5145,-155.3829
-3578.1250,-85.8273,-83.9989,-149.0775,-96.2364,-9.2097,73.8947,41.9953,134.4406,-33.3607,37.2907,37.7493,41.0871,202.8686,280.6173,-74.2954,10.7778,-46.4222,-15.2768,-57.4556,-112.2008
-3570.3125,-106.1239,-100.4923,-166.8504,-77.3765,-29.7445,90.8360,-13.9846,151.7881,-14.6850,-17.8050,-52.8059,43.8192,148.3743,262.5988,-93.1140,27.5780,43.2115,3.5671,-72.6885,-57.2819
-3562.5000,-81.8888,-15.3748,-117.0221,-97.9098,-18.6581,29.3735,34.6593,53.7389,34.5879,-79.3198,-147.7591,45.0132,51.4738,203.1899,-43.3503,2.9646,92.4478,17.0170,-59.3354,-7.7808
-3554.6875,-109.5428,10.4464,-164.5044,-140.7366,5.1455,16.6187,22.0192,78.4040,-51.4457,-17.1385,-268.0197,20.8015,77.2818,119.4887,-53.9088,27.0421,119.3794,78.1734,-32.2959,54.4063
-3546.8750,-89.1784,5.1650,-132.0928,-145.6637,35.8717,10.7771,90.2964,35.9848,-56.5843,-59.0635,-271.3842,12.2777,-1.0168,78.7030,-58.5806,21.0084,149.2074,107.2341,-2.3653,49.4771
-3539.0625,-126.3382,12.0739,-198.4914,-173.3989,41.8206,91.1485,59.7947,152.7849,-49.5235,-14.7869,-336.5538,13.4608,6.8849,50.1237,-124.0583,27.1681,51.2170,183.4996,40.7569,56.7357
-3531.2500,-129.9121,43.9720,-201.9132,-212.1395,-0.2161,123.5365,92.3094,185.6151,-16.4679,-55.5056,-411.7307,28.5415,3.7853,84.5561,-90.5504,-14.6712,117.2183,143.7733,71.8740,52.9853
-3523.4375,-98.8354,49.9712,-119.2461,-170.7783,80.8702,57.0341,172.9452,83.5608,-8.3163,-84.1261,-402.8120,16.7980,-24.2196,20.0919,-46.9563,-81.4195,158.3192,44.1524,43.0831,24.3194
-3515.6250,-93.8267,71.5256,-134.0402,-113.8726,64.5220,41.0879,121.1409,68.0721,-96.6179,-62.1942,-379.3484,13.4272,-1.6724,-29.8200,-24.8259,-23.6260,144.9703,30.0874,-41.1689,46.1924
-3507.8125,-50.9176,128.0850,-74.8389,-91.9661,48.1812,25.1551,105.3415,52.5980,-110.9272,-112.2681,-355.8882,38.7560,-125.1363,-6.7240,34.2862,34.1595,166.6358,15.0284,-88.4324,68.0539
-3500.0000,-52.3596,187.2481,-52.0356,-137.4566,33.4500,-25.1655,53.1496,74.7373,-51.6410,19.2510,-367.8339,12.0020,-65.0135,-56.0305,-15.0293,92.5404,49.9112,3.5780,-135.1046,127.5031
-3492.1875,-79.7487,149.2576,-129.3923,-246.0907,-8.4214,6.3801,12.8109,143.7473,-19.5131,88.6171,-370.9448,-45.3193,-69.0471,-95.4874,-19.5151,86.7710,47.0465,0.9831,-67.9316,159.7939
-3484.3750,-66.7847,138.4210,-66.6012,-256.5688,16.8748,31.0807,37.6411,132.9166,5.7570,78.1265,-379.9140,-62.7439,-114.9416,-141.8035,7.1446,38.1447,36.3384,-46.4561,-78.6168,149.2193
-3476.5625,-99.9686,115.7963,-164.6241,-242.8521,-46.6036,114.9864,12.6979,218.2950,-18.7724,126.8296,-366.6929,-71.7069,-102.6363,-165.9303,55.9843,85.7162,-20.1815,-68.6819,-100.1133,197.8334
-3468.7500,-95.3347,103.2153,-139.6069,-185.0944,-60.0099,138.9514,-0.1720,168.7365,5.7536,77.5730,-377.4363,-47.7322,-151.2850,-140.0113,115.8582,109.3327,38.3521,-46.8356,-77.5667,185.4871
-3460.9375,-122.2374,48.0254,-122.1910,-169.9414,-6.9887,118.3308,52.3787,111.5957,94.6863,57.7155,-395.7981,-75.3084,-96.5414,-195.6969,133.1133,88.3499,-17.7248,-32.5733,-62.6259,165.5279
-3453.1250,-146.7714,15.6809,-156.9414,-237.9466,66.9029,82.5792,126.7928,76.3310,96.4654,23.7199,-429.3291,-94.7000,-57.9556,-192.5416,98.2003,89.2235,-15.9537,4.5452,44.1604,167.4107
-3445.3125,-117.9727,26.2336,-106.7987,-226.0587,42.7167,58.7447,177.1259,16.9824,184.1470,-72.3852,-413.9788,-78.8134,-116.4921,-177.4912,75.1788,64.9902,-3.2795,84.5679,90.8443,144.1837
-3437.5000,-149.1237,27.7417,-140.7204,-224.2237,7.4916,96.8742,104.4244,54.6003,221.7782,38.4548,-447.7057,-87.0270,-114.0820,-211.5006,77.0953,102.7092,-107.6588,156.5497,163.4692,145.9019
-3429.6875,-170.4597,-37.5940,-135.5098,-255.2412,47.4284,28.1724,146.8855,60.3892,338.5564,118.4411,-440.3104,-120.4651,-181.5325,-204.3623,120.1431,107.5900,-103.8832,89.6914,202.2402,114.7625
-3421.8750,-202.6345,-80.4763,-142.8544,-261.8147,148.8357,-53.0633,174.8096,15.6422,366.7828,183.8783,-410.4856,-162.1837,-152.5476,-248.7846,111.6230,171.9266,-216.6594,-22.6983,125.4545,143.0631
-3414.0625,-205.9803,-59.5613,-197.4153,-311.5934,130.0529,-71.4740,156.5399,35.7216,311.8009,166.1177,-389.8814,-172.7534,-95.7693,-227.4179,130.8818,227.0708,-195.6362,-38.2679,75.4633,199.1589
-3406.2500,-178.0857,-109.6436,-137.9827,-361.3720,114.2896,-86.8693,178.2820,20.8179,259.8210,151.3539,-292.3007,-188.8843,-110.0155,-168.0613,227.1297,174.2138,-175.6044,-18.8227,26.4730,184.2445
-3398.4375,-210.6394,-127.1161,-193.9613,-343.5516,59.1488,-32.6535,85.6428,74.5259,204.4507,316.1980,-273.1457,-200.9266,-18.6723,-186.1328,207.9541,227.9557,-262.9792,34.2334,-26.9206,201.9234
-3390.6250,-225.4767,-102.4806,-240.8534,-212.6382,-25.8715,30.6670,2.1200,137.3433,194.1843,343.1443,-355.9118,-138.2184,-101.2426,-158.1280,197.8644,252.8067,-168.2514,57.3989,-37.2153,191.6980
-3382.8125,-164.0125,3.1042,-165.8029,-105.7761,-62.9150,30.9409,-34.4301,65.1145,231.8708,307.0298,-390.7477,-87.0062,-173.8784,-193.1922,161.7173,179.6160,-61.5799,-12.4702,34.4378,192.4169
-3375.0000,-134.2180,8.8851,-159.5750,-64.7258,-57.7349,-0.5699,-28.7649,35.1010,237.7573,276.1169,-383.4117,-109.7524,-130.3222,-296.0760,130.7554,147.6390,50.2822,-42.1156,109.2936,198.3351
-3367.1875,-54.1367,35.8172,-18.2106,-37.5369,9.6125,-80.9176,38.0670,-81.7457,230.7918,123.3571,-313.9569,-96.3303,-246.6384,-300.8295,161.9305,66.8241,111.2972,-50.5891,101.3038,155.3970
-3359.3750,-53.7901,84.9485,-40.6502,-58.1580,23.1750,-67.0466,-20.8905,-67.3781,209.0342,137.8065,-298.3289,-97.8314,-157.7762,-322.4059,102.2906,43.2201,21.5057,-36.8425,80.5168,169.6506
-3351.5625,-82.6520,75.7751,-86.4057,-67.0896,-23.5556,-39.4492,-30.1458,-39.2812,235.9888,128.9652,-343.0329,-78.0925,-166.2325,-256.3027,130.3355,70.3315,46.4151,23.6209,71.4331,160.6000
-3343.7500,-83.1952,30.1993,-20.5631,-42.4298,39.3345,-12.2346,33.2149,-47.5681,338.5468,83.7282,-350.1671,-73.8957,-211.1133,-264.6187,84.9638,61.0499,0.9238,83.7073,60.9441,115.1442
-3335.9375,-102.1579,38.8314,-48.5430,-68.5835,47.4481,-3.8035,41.7944,-2.6360,310.2998,166.7025,-377.1377,-85.3529,-164.8047,-290.7598,20.7708,105.9866,-60.3727,92.0125,69.6493,123.8864
-3328.1250,-78.5256,4.5140,-9.4877,-31.6900,49.6354,-38.3061,81.4425,-36.6394,276.1018,95.7229,-336.0957,-70.0524,-235.4689,-250.8774,59.6180,70.9847,10.3903,57.3829,106.4025,89.6731
-3320.3125,-66.0501,34.3022,21.6619,32.2943,43.9438,-7.6988,39.2105,-77.5386,197.0204,53.8370,-339.9825,-27.7277,-203.0512,-217.9290,17.5573,102.1003,5.2533,86.8664,101.2445,84.5562
-3312.5000,-67.3087,81.6930,-37.6015,79.8660,-17.1304,79.5188,-21.4130,-28.8259,136.5487,67.5571,-362.3066,22.7209,-189.0478,-166.4114,-5.9147,113.8347,52.7207,132.9676,112.6871,61.0403
-3304.6875,-85.0733,53.0440,-27.9236,86.3899,29.7632,125.6932,25.9300,-18.1552,147.0413,77.2298,-351.7222,27.3044,-216.1283,-155.9714,41.5527,49.5311,-46.8574,140.0405,49.0809,-2.5315
-3296.8750,-115.5392,11.3624,-108.3130,79.8690,20.6277,190.8391,17.2347,47.4765,65.4905,142.8549,-322.2269,3.9209,-113.2861,-199.6224,-4.0527,41.1936,-122.4851,132.0848,42.4258,25.8443
-3289.0625,-87.3075,13.2933,-106.1133,10.9482,22.1077,192.6011,19.1494,49.7172,30.5412,35.0691,-282.1691,-15.2342,-110.8735,-196.7054,71.9295,5.4675,-51.4912,169.7496,79.3781,27.8166
-3281.2500,-65.4630,22.9329,-59.2091,-14.2766,70.3105,167.0791,30.7816,24.6626,42.2974,9.9841,-269.4496,-43.7466,-62.7912,-258.1294,46.5992,16.4570,-41.7908,214.1271,54.0304,2.4817
-3273.4375,-81.9928,-37.4236,-47.3290,31.4932,80.5309,141.5716,42.4178,-0.3737,17.0579,21.9102,-293.7708,-43.8291,-51.7296,-245.5891,21.2474,63.4967,38.9114,223.5199,28.6746,-22.8538
-3265.6250,-52.8245,-55.5287,81.7899,83.5086,136.0040,86.3336,97.3088,-55.1486,35.0704,4.0834,-310.8820,-24.0150,-141.4533,-226.8264,3.1292,44.8508,90.8704,170.1794,10.5655,-40.9422
-3257.8125,-96.9189,-59.8770,1.6493,80.2675,92.2352,79.8669,53.9483,11.8394,28.8407,71.0133,-354.2858,-32.0675,-74.4537,-232.3483,32.7427,110.9951,52.5767,166.6111,7.2051,25.7184
-3250.0000,-107.6352,-150.4153,-20.6978,94.8115,69.2809,57.2165,68.4003,-10.3571,6.4260,48.7490,-301.9381,-51.2006,-96.6781,-217.1104,121.1369,124.9484,102.0869,180.8643,56.6541,40.1813
-3242.1875,-86.3597,-123.7011,7.1947,14.5940,132.6028,-26.1714,96.1226,-19.2962,-2.7232,76.7409,-236.3776,-91.4672,-68.6809,-262.6636,74.7738,115.1571,-13.1598,171.3855,47.3631,30.8969
-3234.3750,-63.2683,-41.9439,-52.8871,-7.5911,144.9943,-13.4917,71.9085,-6.1690,-63.8089,162.7984,-185.8149,-73.3516,-55.6533,-249.2072,-23.5450,90.4428,-35.3624,147.9801,60.1413,43.6670
-3226.5625,-33.4807,-32.2933,31.9232,2.1179,156.3062,-1.9012,119.6127,-31.1326,-88.9799,64.7571,-174.3958,-31.1809,-117.7562,-163.8873,25.0319,28.6453,-25.6588,122.4952,69.8288,18.3391
-3218.7500,-35.8408,52.6659,9.0258,-53.8863,96.9425,48.9961,60.6313,20.2088,-37.8357,79.0250,-195.7167,-23.5982,-103.5784,-149.3122,1.8893,78.1653,-115.6598,101.3275,48.8152,32.3173
-3210.9375,-30.8461,125.4868,-60.0378,-16.0508,-9.5516,89.7491,-8.4866,62.4040,-32.8345,83.1517,-227.2287,19.1545,-209.5708,-106.9294,6.5766,156.5564,-43.8014,140.0300,51.6575,0.1515
-3203.1250,-33.4205,96.3681,-52.0572,-9.1738,35.0262,97.5639,-0.5388,33.6511,48.2263,91.3282,-219.7338,-10.2823,-238.5349,-172.5412,-22.6920,164.0177,-36.8924,145.8012,22.5579,-28.9635
-3195.3125,-101.7040,-27.9436,-109.3018,-64.5085,86.4102,76.2022,52.2089,49.7115,64.0893,144.3201,-239.4857,-70.4285,-111.7171,-193.3941,-44.1620,252.3114,-57.1863,161.3913,3.2634,-13.2695
-3187.5000,-77.5747,-54.9085,9.7870,-55.5042,132.1509,49.2111,97.3110,-14.8642,73.3017,43.6749,-266.9301,-68.1569,-139.5819,-183.9339,1.7178,223.9814,22.8752,135.3552,-22.6710,-4.2190
-3179.6875,-38.2581,8.3321,36.0727,-97.3060,122.0996,1.4381,87.6145,-61.2286,63.7265,33.2404,-203.2157,-90.4694,-76.2744,-230.3172,-9.2201,176.8720,-19.8677,57.5440,-30.3937,59.0358
-3171.8750,-19.4294,52.2297,6.9950,-53.4624,91.7033,8.3385,20.5631,-89.9306,33.8118,-32.5396,-195.8988,-65.5107,-106.3431,-223.0891,-1.5280,146.4388,59.0440,30.4133,-55.4565,102.9467
-3164.0625,15.2164,116.8863,35.6605,11.1286,83.0718,1.0029,13.2777,-97.8838,25.6598,-39.5742,-166.8813,-35.6079,-150.6978,-231.1478,-9.0957,138.7807,52.7120,-44.9462,-132.7574,131.6086
-3156.2500,22.4794,149.4004,-4.8485,7.5544,42.3146,-2.4668,-64.1437,-64.9788,-13.6273,-6.7462,-171.0653,-48.9902,-81.2250,-271.4031,-50.8248,171.0001,120.2240,-48.4361,-135.1975,164.1273
-3148.4375,78.3564,141.5623,98.2736,34.6124,35.2292,-9.2771,-69.8918,-107.4184,-20.2440,-86.2574,-139.6454,-14.9842,-161.1269,-204.0577,-130.9135,90.8990,253.3885,-55.2549,-72.9751,121.3010
-3140.6250,111.2440,121.6319,189.2872,49.5550,89.0681,6.8127,-52.7259,-126.9581,-39.9331,-105.8630,-86.3692,-29.4764,-144.1510,-260.8673,-187.1050,33.7186,198.4503,-41.1541,-92.8487,101.3785
-3132.8125,101.4831,46.9057,185.4925,10.6862,48.1197,40.1101,-20.3575,-93.2944,-153.4139,-109.2628,-52.9363,-50.1268,-111.9973,-227.5244,-81.1025,66.7711,229.7247,-9.8333,-96.5141,97.6641
-3125.0000,88.5975,4.5292,214.0546,3.1625,77.5368,69.7719,45.3660,-100.2822,-160.5370,-153.3190,-60.1935,-56.0861,-155.5278,-234.8641,-15.7605,96.1983,152.3611,17.8565,-67.8219,90.3033
-3117.1875,53.6848,-5.3830,129.0541,-76.9197,102.4152,57.9019,-2.4599,-37.8106,-25.2103,-53.9164,-72.0486,-113.4325,-94.6315,-319.7946,-137.9829,121.1120,71.4482,79.0111,-8.6721,115.4001
-3109.3750,64.8652,-0.8886,98.4328,-72.6110,108.6958,27.4530,3.1139,-31.9264,54.5270,-48.1017,-28.5483,-95.8354,-198.3664,-277.3663,-168.8161,53.4617,76.9430,118.5838,30.8924,84.9040
-3101.5625,75.9490,19.5597,120.7536,-87.3603,93.9298,49.9686,-11.3580,-46.0905,77.2340,-62.3352,-6.1411,-111.1544,-176.1776,-328.0320,-146.7048,1.7954,-8.6071,139.1253,52.4154,70.3625
-3093.7500,28.2648,-19.0884,42.9664,-126.2212,16.0701,83.3982,-50.9338,23.6504,73.8567,7.3485,-46.8810,-123.6956,-144.1111,-295.8419,-76.7027,35.0629,-12.2561,135.5890,153.8469,66.7294
-3085.9375,-15.4100,-99.4959,34.4313,-66.8457,7.4761,111.0898,13.7457,15.6441,175.7469,73.2858,-92.4118,-109.5134,-189.8268,-267.4441,-50.4498,-47.3991,-22.6484,125.3230,179.5313,21.3530
-3078.1250,-49.2903,-79.6084,-55.8083,-47.1940,27.2024,131.0902,-3.2651,72.9371,195.9520,129.5314,-146.6863,-113.5490,-133.2657,-321.7991,-66.8988,-27.5321,-37.7515,145.3855,163.5272,41.2880
-3070.3125,24.6770,12.3767,3.0351,-26.4672,50.0478,81.1981,19.8404,22.3320,182.2824,5.8847,-123.9050,-88.8092,-184.6245,-336.1079,-81.2501,-41.5367,89.2521,167.5720,149.6450,27.3340
-3062.5000,97.7336,59.2178,126.7246,-49.9032,63.7674,21.1566,33.8174,-74.4282,122.4937,-90.9112,-37.3162,-96.3379,-171.1636,-359.6234,-140.7482,-64.6618,66.1057,214.6219,126.6249,4.2343
-3054.6875,66.3142,95.8725,18.1950,-83.5442,65.3073,22.9195,-38.3957,-35.3935,51.5207,-14.8903,-35.9732,-87.1838,-95.9206,-321.3911,-213.4582,-25.9532,-2.2405,216.4854,164.4096,5.9432
-3046.8750,66.5271,137.8413,-11.0453,-42.8823,36.1601,30.9868,6.6975,-101.0641,95.8600,-43.5677,-29.3714,-54.0082,-125.4145,-276.9029,-96.8713,-54.9220,3.7251,152.6661,170.4995,-23.0426
-3039.0625,28.8448,128.6240,-58.4925,-51.4246,-11.1824,57.8658,-40.4074,-36.9368,86.0074,-16.4400,-39.0102,-57.0467,-63.1375,-250.6623,-33.4916,8.9390,-75.5086,73.6711,162.3984,3.7806
-3031.2500,12.1161,66.0069,-87.3496,-44.3777,-40.9241,101.3607,-32.9178,7.7966,-16.2366,-45.7062,-32.0925,-36.6502,-92.2885,-170.8569,-63.5140,52.4345,-33.1373,81.2971,169.9142,11.2136
-3023.4375,41.7793,8.9921,37.3904,-31.7352,10.9418,79.4706,-17.8232,23.1309,-0.8614,-30.3637,18.3855,-45.4663,-114.8761,-156.4945,-121.9430,30.5597,-19.1623,24.5353,112.0422,-10.7522
-3015.6250,55.6658,47.6856,40.8185,-63.4058,14.5132,83.2937,-51.0335,64.1761,-33.7724,-100.2983,21.5186,-34.8536,-39.7860,-116.4806,-154.6800,71.4245,19.5042,-6.5121,80.8811,-7.0108
-3007.8125,89.3648,50.2406,118.0878,-61.2324,18.9349,87.9827,-9.4038,-4.9269,8.1713,-241.3803,25.4645,-35.1038,-72.8806,-112.6577,-78.5679,39.1702,128.0331,-38.6853,13.5803,-39.4090
-3000.0000,109.3890,114.1049,110.6579,-68.7597,47.6582,80.9814,-16.4790,-48.7343,1.4213,-211.1621,54.6716,-55.5492,-43.7001,-194.5775,-49.1623,32.2484,84.8690,-45.5328,-28.4162,-46.4991
-2992.1875,115.4574,140.2242,101.4709,-7.0415,38.6437,35.2430,-25.3024,-57.2893,-7.0694,-219.6866,45.0861,-37.3838,-53.2906,-204.2940,-21.5176,60.6082,111.9574,-54.1091,-2.1516,-55.3315
-2984.3750,118.7125,131.1920,129.1284,-16.4840,66.4963,-46.6394,2.7389,-102.9986,20.3080,-228.3565,72.3102,-53.5812,-26.0582,-214.2013,5.9757,51.8509,66.8921,-62.8171,23.9787,-64.3088
-2976.5625,53.3846,64.7110,21.3214,-12.3954,32.9107,-80.9635,5.3317,-63.1562,24.2521,-116.4655,74.0469,-79.6389,86.7038,-212.6043,45.0203,91.6786,1.3718,-93.9544,28.6738,-24.7249
-2968.7500,32.8275,48.5373,4.8030,40.9843,52.6357,-133.9845,26.2326,-79.0210,81.5079,-58.2684,57.0462,-53.4367,32.7413,-155.7531,64.3657,112.8325,20.1639,-73.7723,-22.3135,-40.8342
-2960.9375,53.4581,137.9766,22.8869,93.9645,-39.0228,-115.4045,-66.2604,-60.2991,63.3773,-2.4673,37.6108,-5.8553,50.3528,-138.3491,-64.6934,131.6063,-31.4446,15.0231,-38.6889,-22.3389
-2953.1250,40.8019,168.0733,-56.3941,159.5939,-154.0253,-46.1645,-144.1114,9.0722,22.8999,-7.0068,-5.2105,52.2318,44.5944,-71.3361,-107.1131,127.0630,33.6017,80.4870,-8.4044,-27.1835
-2945.3125,66.2188,137.9730,25.1212,164.0223,-146.2302,-74.1150,-99.1673,-55.7614,105.2367,-108.7490,39.7367,39.4485,51.6083,-64.5522,-24.7319,62.3480,74.4600,-19.2388,31.6932,-92.2222
-2937.5000,76.0629,96.9238,55.6848,51.4942,-78.3823,-80.0046,-31.1765,-61.5448,136.6391,-114.4347,105.7010,-30.5822,155.6547,-108.7601,-31.3053,56.7165,68.3707,-200.9031,61.8517,-98.2034
