Time,Fp1,Fp2,F3,F4,C3,C4,P3,P4,O1,O2,F7,F8,T7,T8,P7,P8,Fz,Cz,Pz,ref
-4000.0000,48.4010,44.9689,2.1812,0.0387,-7.0520,-28.1370,0.0460,-35.9581,1.5939,6.6654,10.2859,-1.8838,-13.4743,-37.7749,39.7578,-63.2741,13.9646,-29.4874,19.5879,18.1588
-3992.1875,10.9658,112.8206,-39.1187,-2.4047,-11.6552,-32.3515,-41.5798,-40.3030,-3.0643,1.9298,-33.2642,141.1892,-18.2627,20.9377,-0.2498,-32.1245,11.5900,-67.5297,-88.7875,50.5970
-3984.3750,91.3522,-53.5480,83.3998,5.9684,36.5419,-58.7716,43.5923,-66.8570,9.0778,-97.0132,71.2523,42.0679,66.7498,10.7915,11.5459,50.8181,-49.9798,-59.7835,-115.3738,-11.1771
-3976.5625,-47.7095,-88.3691,44.4784,76.9038,71.2923,11.3481,-69.6808,-32.8709,-31.2149,-26.4144,10.3043,1.4860,27.3203,57.7870,-64.1020,120.2836,-13.9953,10.5195,-114.4028,59.5935
-3968.7500,20.6799,-90.7472,117.0122,109.2972,33.4952,46.9181,-143.5076,38.5738,-106.0628,46.6407,28.1422,0.3501,-47.6601,23.7630,9.7015,7.1745,88.4537,-62.7254,-151.9865,21.8153
-3960.9375,98.4929,-224.7504,159.9681,80.0917,-34.8980,14.8786,-101.9291,6.4133,10.4896,-94.9158,85.5608,-31.3997,-5.2398,6.8522,15.9078,11.4661,130.3111,-57.5707,-5.1667,27.4245
-3953.1250,42.8166,35.7268,25.4205,-11.6143,-59.7858,26.3390,-124.8474,17.7456,-14.4561,27.0174,11.8130,17.3379,6.6830,10.4656,-45.3895,23.2834,73.6751,-43.9069,-96.8412,76.5341
-3945.3125,93.9081,225.9711,79.6273,-67.5788,-41.9215,6.5457,-109.0120,-2.1753,-33.6533,-29.3092,44.3424,34.8135,24.3546,-26.8694,-26.9286,-34.1493,17.7994,-100.5028,-117.7713,20.3790
-3937.5000,-45.3881,50.8203,3.4528,-31.9534,28.5511,-32.6483,-74.5663,-5.5041,-0.2531,-68.0510,7.2630,30.8677,57.6318,17.0194,-102.8764,35.0129,18.5291,4.5166,-12.0860,90.8078
-3929.6875,-40.0428,-50.6998,46.9328,8.3171,34.6915,7.8161,-69.4668,35.8221,-68.2121,9.8627,17.7394,-0.4288,26.5657,10.6609,-60.1936,2.8255,22.9083,8.1957,-112.7483,59.8832
-3921.8750,9.8652,-107.7089,64.9672,-13.8643,52.3922,-48.1646,22.1987,-20.3003,-49.6148,-82.6837,64.0370,-56.1875,81.0645,-19.7281,32.0584,19.1813,-34.1710,127.4267,-63.8548,-32.5103
-3914.0625,-131.5757,-38.0777,-83.3644,90.6020,87.7527,-13.4946,57.5297,-22.7715,-125.3499,-47.5828,-46.4351,88.6988,42.2239,86.9614,-42.0247,90.1721,-35.6090,160.3132,-65.3020,-34.2618
-3906.2500,10.8815,138.4601,31.2049,160.9785,128.0208,-83.9261,98.7624,-56.3399,-84.1810,-80.5714,46.7148,18.4819,46.2799,-31.8456,-111.2030,-91.9427,70.8565,19.0883,-29.8569,-104.1236
-3898.4375,127.1990,42.8523,111.6495,101.2052,208.1480,-114.5193,104.8484,-124.0694,-4.1566,-183.7329,149.7804,-85.9064,89.1959,-117.5116,-141.5407,-196.1997,116.1846,28.7068,121.4504,-24.1444
-3890.6250,137.2698,-53.0114,157.8503,74.1867,144.0424,-106.3700,39.6839,-116.0520,-69.3921,-103.1559,145.5485,-40.5503,60.8642,-116.8213,-21.1459,-225.7021,125.2685,2.0805,24.5059,-15.4124
-3882.8125,107.6144,-84.6474,166.3184,78.4253,42.1918,-61.9829,48.7684,-71.7921,-24.3724,-131.3331,133.4107,-105.9464,69.7804,-104.3345,61.5000,-145.9657,23.6071,40.7047,28.8045,-117.4436
-3875.0000,-68.8874,-120.1573,16.9480,112.8306,39.5023,44.5482,9.0079,34.6086,-27.1955,-23.3742,28.9870,-72.2003,66.8505,3.4729,-87.7048,-2.0805,-12.9011,74.4890,28.2597,-83.3321
-3867.1875,83.1189,-41.1716,66.0863,121.7502,52.3173,19.5744,-15.2504,46.5091,-51.5216,-11.9203,81.5323,-96.9608,42.4217,-33.8164,-112.4056,-27.7066,-2.9014,12.7697,2.2114,-144.7267
-3859.3750,4.2011,-50.1219,-17.7050,77.7115,78.1870,7.6379,47.5553,-2.5523,11.2148,-96.4332,29.3838,-108.6895,31.0518,4.4230,-86.0524,69.7020,-47.8514,143.0966,133.2204,-119.0853
-3851.5625,-178.4675,-127.8235,-135.2506,69.9133,70.3098,72.9491,39.6122,99.6387,3.2165,42.3012,-74.7756,-7.1800,22.9280,80.2033,-93.4583,97.3715,-19.5519,169.6764,55.4823,-127.1936
-3843.7500,14.6299,-112.7848,68.9718,120.8694,53.1811,56.0112,22.4155,45.5815,-13.0326,-11.2218,82.6292,-60.9213,79.5492,-48.2907,-72.1050,-141.2141,-4.4965,114.9930,35.4850,-217.5602
-3835.9375,39.7318,-87.7599,127.1998,180.8293,38.0580,76.0658,-66.7776,28.5141,-66.2793,-27.7605,113.0530,-150.6679,64.1765,-78.7212,-123.7390,-158.7973,20.5605,103.3182,25.4928,-122.9278
-3828.1250,265.7785,-144.7967,216.3777,52.7414,-21.1075,53.0692,-52.0227,42.4001,-51.5791,-13.3473,185.0370,-210.4674,41.7544,-88.5980,-72.4277,-34.4100,-36.4247,-25.4105,-67.5570,-145.3441
-3820.3125,303.4549,-284.2474,218.1808,-51.7504,-19.6672,16.6616,-13.6602,42.8841,60.7161,-49.3458,205.9692,-209.6871,79.9426,-49.3235,-70.5269,112.5731,-175.8045,46.4658,-29.9980,-144.1687
-3812.5000,197.7340,-285.1091,139.5882,53.3528,-60.6145,47.8496,-91.6873,73.9649,-18.3833,19.2543,104.1881,-30.3207,0.7321,49.7862,-38.0344,143.1353,-141.5870,43.9575,-136.8199,-75.3909
-3804.6875,266.7608,-111.2285,213.7461,121.2043,-61.8071,-26.2089,-91.9577,-1.1997,-128.7195,-54.3889,161.1358,-31.2062,37.2691,-18.2615,36.2113,30.4305,-73.6192,6.2033,-138.8950,-112.8724
-3796.8750,150.3276,87.1794,86.4498,179.6039,-78.4531,-7.7140,-109.6716,-18.8136,-182.4885,-35.4949,79.0414,-12.5479,20.3573,9.0633,-53.9980,49.3012,-85.1048,99.0104,-116.4048,-19.8094
-3789.0625,72.1378,7.8338,40.3956,170.2516,-124.8446,19.0309,-119.1364,44.8238,-156.0013,64.6442,13.4761,14.3589,-26.3073,24.9820,47.0421,38.4370,-24.3323,89.0648,-229.6675,-29.4975
-3781.2500,45.5247,-160.9767,47.9115,177.4475,-117.6768,-11.6848,-38.0356,14.0058,-0.9609,-75.6822,28.6569,20.8034,17.5881,46.2988,91.6400,81.1119,-51.9977,95.6663,-118.3791,-22.6552
-3773.4375,-5.0408,104.2491,-9.5140,160.7036,-101.4454,39.6510,-95.8803,28.2327,-131.8706,-23.9662,-53.9039,72.2939,-77.4601,106.6535,34.2727,168.8420,-68.6076,44.3233,-204.0388,66.2295
-3765.6250,97.7932,310.8822,61.4715,86.3610,-104.8055,36.3869,-99.3299,24.8650,-208.3859,-63.8474,-18.7746,69.1792,-117.1069,58.3076,68.2848,90.9683,-107.8133,4.3733,-243.3056,26.5054
-3757.8125,-76.0746,101.8033,-50.2366,88.3076,-68.8619,33.4225,-63.4735,21.7981,-99.5959,-64.4420,-95.3368,140.3470,-81.4454,155.3739,30.5943,234.4137,-175.7269,39.7301,-171.2654,98.0716
-3750.0000,-148.0047,-183.3549,-90.0073,84.2018,-36.9639,65.4162,-31.6680,53.6907,-67.8575,39.9164,-107.5272,98.4676,-49.8366,172.5447,-10.1324,265.8413,-144.6935,35.0414,-175.2820,93.5868
-3742.1875,-1.3784,-282.9696,29.7796,54.6553,9.4857,-0.0422,51.6954,25.1406,14.4383,-25.1747,38.0800,-76.8653,32.3285,9.7949,36.6984,52.7945,-104.1053,75.8967,-28.7474,28.6408
-3734.3750,-76.2578,27.9236,-50.9348,49.6176,39.4473,29.0004,7.5655,54.0849,44.2402,41.2256,-43.2275,-47.7028,-49.0014,-6.5613,-6.9920,-28.7782,-74.0091,70.2638,1.3028,58.1979
-3726.5625,20.0655,123.0081,-20.4415,73.7828,-41.3887,58.2457,-73.3674,119.2296,0.2387,69.8194,-27.8406,-93.3429,-93.1321,-15.5190,-13.4903,-1.1439,-48.7107,58.8258,-9.4559,-23.0475
-3718.7500,-31.0480,-175.3701,-39.3788,-13.5107,13.3272,75.0400,-55.7498,98.9208,53.7952,13.9412,-34.9204,-112.4470,-75.7138,55.9890,-32.4429,162.0711,-65.8719,146.9433,114.3335,-5.7530
-3710.9375,-70.6756,-322.2508,-7.8216,-90.3069,7.5473,141.3358,-61.6371,129.1108,47.8544,44.5584,-46.1638,27.9529,-81.8022,123.8664,-74.9015,154.8083,-36.5289,140.5691,37.6235,-11.9584
-3703.1250,8.5483,-210.2937,76.5894,-153.2506,-19.3764,77.4735,-50.6619,65.1479,95.7759,17.0196,14.6975,1.1935,-34.0337,51.8697,-27.4947,90.3850,-64.3266,147.0435,45.7692,-75.3272
-3695.3125,-131.2404,-69.3587,-73.0030,-152.1909,51.7180,74.6075,-16.6620,62.1788,55.7148,87.4712,-76.0285,-39.5783,-37.2538,67.9289,-66.0951,159.9520,-63.1251,147.5323,45.9290,-4.6969
-3687.5000,-54.5896,-63.9780,-66.1460,-147.6822,58.2724,43.1991,62.7893,66.6724,62.0970,56.3784,-42.8869,-70.9014,-31.0249,21.8008,-22.2652,90.9779,-23.4753,116.4702,15.5339,-35.6179
-3679.6875,-66.4247,-182.0914,-80.7751,-125.6796,80.3282,-9.7141,158.7444,14.6626,157.9831,-32.2289,-34.8123,-49.7382,-9.2900,37.6003,-36.9405,111.5162,-36.3284,172.9132,108.6473,-14.0526
-3671.8750,-80.4692,-268.4105,-97.6071,-70.8804,27.1840,9.1784,141.5025,33.4560,140.6761,23.9596,-63.3468,6.2295,-26.7582,70.2999,20.1890,129.8584,18.6147,51.1682,22.5647,5.3095
-3664.0625,18.8348,-240.3955,82.9167,-112.7301,-14.6053,-32.5719,137.6105,-8.3922,136.7114,-54.5008,47.0821,-72.4502,42.1216,-2.0447,52.6634,87.5597,10.9118,-27.2364,50.8221,-72.9918
-3656.2500,-95.3724,-39.8944,-40.0559,-158.0879,10.1120,64.1793,50.2204,51.2625,49.2527,5.5342,-31.6592,-49.6449,29.5049,54.3337,-107.3814,146.7803,36.7152,32.8662,111.5823,-12.8007
-3648.4375,-59.4294,29.7584,-36.8747,-158.2999,12.9863,66.0827,53.9746,90.0745,15.9462,44.7269,-32.1467,-46.6925,-4.9617,10.4167,-30.2836,38.1474,72.6715,-2.8809,76.4885,-83.4628
-3640.6250,-23.6197,-217.7384,1.1744,-123.6640,50.7121,-8.1710,164.5909,-21.2651,200.4986,-65.2433,27.9475,-83.8979,69.4279,-32.2441,81.6709,0.3482,71.4755,-4.7757,181.2501,-120.2870
-3632.8125,-90.5313,-248.9464,-70.4911,-15.7235,88.7459,-7.1172,129.5104,15.6962,164.3546,45.0803,-15.0583,-9.8005,70.1148,5.9645,8.9152,0.8740,74.5799,-37.3613,78.3201,-82.8091
-3625.0000,-14.4591,35.8365,-26.1575,24.2161,59.7783,-1.0573,136.4353,22.6690,98.2088,15.4078,12.4851,-40.7015,40.7972,-66.8357,-19.8483,-140.5798,78.6904,-68.9542,12.3855,-149.3379
-3617.1875,-112.9922,112.0070,-59.4171,-5.4562,62.2131,1.3975,102.7739,-11.9581,64.4810,-18.8759,-47.6786,-1.2159,5.8908,-4.0319,-53.2157,-28.6359,50.1999,-28.1397,88.8689,-73.4731
-3609.3750,-24.8380,58.8772,-3.9773,-58.4400,7.3545,18.5516,84.8186,42.1157,-63.5360,35.5377,-21.5624,52.9644,-12.3156,32.7944,-34.8825,25.0138,67.4050,-81.6242,0.0488,-91.9063
-3601.5625,63.2297,109.6362,16.3702,-147.5316,-9.6046,0.6059,140.7702,24.0912,-7.6531,-19.1584,21.6022,-38.9633,7.3825,-11.4118,-14.6441,43.5705,-21.4903,39.7885,17.1289,-146.4520
-3593.7500,-77.1736,73.9299,-59.7457,-113.0668,24.9921,71.2170,102.2696,20.6249,26.7861,14.6963,-44.0769,-41.3426,4.6299,-2.1901,20.1326,2.6986,48.1667,38.7627,-19.2340,-112.4458
-3585.9375,91.8051,-75.3846,81.5367,-51.1958,55.9945,27.2315,95.1628,-23.4287,20.6240,-66.0398,61.1271,-85.3111,-1.7273,-58.4999,87.2978,-77.7589,146.2298,-75.8666,8.7950,-156.0452
-3578.1250,112.4797,-55.9886,98.5282,-31.6376,71.7102,-31.0626,111.7727,-81.7893,36.1717,-124.0984,69.8866,-70.5883,-22.3743,-39.0716,30.1585,-26.5219,164.9946,-21.7887,98.5302,-66.9504
-3570.3125,54.6961,165.9572,36.0704,-55.5424,45.9881,-94.8005,85.9329,-34.5999,47.2669,-39.6104,3.4836,13.6789,-48.4732,-29.2728,4.5601,-16.7292,141.3036,-46.1536,3.8139,-56.2963
-3562.5000,63.7670,244.7285,46.4653,-117.5976,56.1151,-122.6835,132.9495,-136.5540,167.2118,-104.2734,38.5543,-14.2107,34.2780,-104.5967,51.8127,-119.0784,79.4619,-38.6632,47.9479,-83.7958
-3554.6875,-73.7352,69.9240,-101.7080,-45.2081,54.6973,-51.1127,57.4252,-65.0568,166.6166,4.5075,-41.3067,20.3496,33.4857,-56.8430,14.5150,-120.9509,46.0649,-1.7111,84.5460,-11.8421
-3546.8750,-11.6676,-219.2832,-34.2876,15.7841,47.8739,15.0629,87.5069,37.0506,85.6324,69.8873,10.9195,-24.4854,25.2968,-46.0374,43.8180,-130.2149,37.2665,-81.1614,40.7363,-56.2921
-3539.0625,-39.2066,-249.0983,-31.4557,-12.8226,51.4547,16.6305,90.0008,39.5514,125.0654,-1.3430,19.4341,-59.9284,65.5176,2.4788,-26.4797,18.9125,8.8686,-41.2121,117.3322,19.6494
-3531.2500,-127.2599,11.5752,-54.1246,-101.9205,28.5429,29.7048,30.9909,15.5606,65.9920,48.9317,-32.6837,-9.8642,79.2397,23.3070,-49.2983,68.5543,-11.0285,-60.7669,28.4260,70.0972
-3523.4375,4.6485,144.2063,15.1601,-181.0670,23.5775,-50.2669,61.9236,-101.4708,133.8469,-140.8415,55.9910,-125.8417,146.9060,-108.1592,92.8167,-48.8307,-18.9750,-34.3833,89.4569,-9.5092
-3515.6250,-74.9606,28.3461,-107.0590,-191.7298,49.1125,-25.7379,124.3571,-113.0000,159.2114,-116.1235,-27.3981,-65.3334,98.0745,-60.7578,155.4234,-24.6955,6.5760,-45.4958,79.9973,15.3849
-3507.8125,-58.0397,8.0427,-52.7382,-141.8577,65.1995,-9.6524,104.3390,-23.9671,102.1411,-26.8429,-15.6463,61.7242,77.7892,-27.9108,135.5773,-83.0037,21.6798,-170.0639,25.0841,-5.1726
-3500.0000,-39.8235,-79.9560,0.8930,-88.6888,118.5856,-67.2706,84.6282,-45.6363,82.3758,-48.2791,29.6087,40.0825,94.8049,-13.4664,5.0298,-30.9959,40.0796,-83.3296,113.4755,47.5621
-3492.1875,-119.1780,-125.5008,-49.0368,-29.0703,105.4306,-44.4325,33.3691,-22.8554,-5.9441,10.7277,-33.4236,135.8979,43.2777,49.7813,-45.0866,-8.5235,64.9281,-94.1362,32.3167,106.7529
-3484.3750,-28.4742,-105.0065,11.0919,-79.4027,-18.6731,-23.5455,57.1616,-38.0201,17.7893,-76.2141,-28.6779,84.7674,-44.1960,51.2956,14.8441,49.9748,49.8323,-74.8988,53.2036,55.9889
-3476.5625,-130.9787,-104.7324,-61.9770,-42.9340,-18.9742,49.1384,-17.2385,34.6098,54.3431,69.6317,-91.0842,9.4309,-79.8685,77.0916,-58.4189,122.2738,51.5292,-3.8510,89.8992,92.0256
-3468.7500,-98.7655,32.2740,-62.3109,24.2847,-55.5280,121.5833,-53.8908,144.0060,-93.3497,216.2332,-92.3852,-28.1511,-117.7991,36.2692,-58.9267,10.3608,82.9709,-43.0511,-18.6665,17.8196
-3460.9375,18.3363,77.1913,-12.7490,-35.6091,-43.1854,59.9349,-4.6304,81.3108,-81.1396,43.7324,13.2571,-90.8444,4.1689,-23.5719,-83.5376,-15.6293,23.3099,37.6459,61.6700,-7.4948
-3453.1250,-62.1483,-144.4170,-63.7480,-12.0712,16.6122,44.7448,55.0783,104.0714,-94.4794,102.6807,-7.0160,4.9179,26.5907,39.7190,-169.7198,5.8469,13.0978,96.8028,86.4604,51.6452
-3445.3125,-46.0356,-270.4297,-6.1458,3.0598,36.0078,27.1641,74.3822,85.4391,-75.2223,84.2332,36.8570,24.2907,82.6017,33.5547,-114.3149,-12.0671,-7.5152,75.5627,101.8438,-39.6170
-3437.5000,-161.7765,-106.3160,-127.3972,-77.6521,25.5542,51.7344,63.8419,73.9592,-48.8076,72.9316,-73.1153,12.8082,34.7622,92.1004,-124.7620,160.1781,-52.9836,64.4863,161.3881,-50.7319
-3429.6875,-156.9528,108.4019,-83.0661,-144.7623,-4.2933,57.9074,70.9051,117.0914,-42.7835,152.2394,-96.4502,-19.0701,-32.4722,38.0256,-7.6211,92.0224,-49.8558,-37.9781,94.5377,-118.2439
-3421.8750,-127.5879,277.6754,20.8143,-187.3271,26.4057,-23.3687,137.5238,72.7802,171.8018,72.0935,-29.6387,-99.3996,-2.1534,-107.1240,60.0714,-136.5782,-91.1772,-9.8906,194.2363,-125.2202
-3414.0625,-112.7880,186.3763,-152.8630,3.5624,-0.4446,-14.1890,37.5946,80.9263,181.8454,117.3948,-105.7723,-17.2835,-66.3885,-60.4647,106.2125,-127.6957,-112.0538,-30.3459,138.3887,-5.7447
-3406.2500,-21.1568,-145.0691,-96.6941,128.2990,-91.4440,4.8508,-53.4900,63.9303,90.7317,63.5554,-71.5135,75.6943,-83.7773,11.9834,126.2026,-72.9528,-21.0857,-81.9662,52.3764,13.5794
-3398.4375,-47.8911,-244.8458,-19.8714,64.6713,-50.7927,6.5352,-49.9147,27.5847,19.2800,-8.6477,-29.6299,39.3226,-43.5083,68.1129,-18.1621,75.4469,-14.4771,-4.9408,130.0215,125.5481
-3390.6250,-59.4023,94.6208,-104.8150,-51.7095,-62.8915,-6.5205,-99.0916,51.4965,7.0861,88.4047,-75.0180,26.2088,-19.9898,52.8927,-66.2899,136.1221,8.3796,-17.6660,46.9090,112.7768
-3382.8125,19.7730,173.7831,-16.0605,-8.3874,-48.2916,-28.8672,-47.5681,-6.8771,59.5832,30.1695,-16.6357,4.8023,-4.7767,-5.5814,-14.7201,40.5030,17.9325,-8.6856,21.4835,-19.2971
-3375.0000,-101.3810,-229.3407,-35.6205,221.6336,43.0026,24.4949,-67.3448,9.4599,40.7784,46.6351,-24.0241,21.0990,12.1341,35.7132,-34.4688,-17.3995,72.1812,10.0150,-30.2369,34.3301
-3367.1875,-36.1460,-129.0538,106.2087,181.0533,37.6944,-18.7302,-35.7298,-33.7924,-38.6326,-33.4905,35.8984,14.7990,6.4388,-30.0585,34.1677,-132.8890,101.8365,-135.8904,-105.5638,28.3545
-3359.3750,-43.0067,178.1220,95.9470,31.3649,-10.7078,-103.0571,-10.2070,-118.1450,-13.1375,-117.7337,20.0422,39.3914,31.6416,-25.9622,-50.2944,-35.4686,59.3990,-109.9013,-7.9817,90.2728
-3351.5625,-35.1518,291.0316,-7.5813,38.4280,-75.3603,-96.6266,-111.9326,-38.7460,-77.8848,-2.2351,-62.9562,156.7397,-34.4059,49.4856,-6.9994,80.7211,-4.2903,-138.1543,-140.6497,96.9524
-3343.7500,47.8867,302.1396,10.0970,50.6925,-96.8170,-81.9958,-96.4566,-60.1415,-62.4283,-59.5327,-24.7310,62.2982,-18.2496,0.3518,83.4912,60.1109,8.2183,-161.2109,-94.1256,2.8320
-3335.9375,-124.9886,269.3601,-64.1269,17.0538,-96.1755,-10.2622,-95.8841,-25.4326,-26.8732,-60.7275,-99.7174,22.9620,-19.9908,58.1371,9.0609,167.6152,45.8199,-160.1570,-21.4992,74.8183
-3328.1250,-39.7358,72.7467,25.7804,-73.4425,-80.3905,5.6315,-116.1779,-9.5580,-10.1743,-45.7541,-55.1307,75.7926,-40.5957,81.9687,-11.2255,183.2911,60.5712,-250.9619,-41.7402,53.9609
-3320.3125,46.3620,-88.0092,77.5369,-164.1092,-65.7597,-53.6236,-29.6200,-68.8304,151.3825,-67.9369,18.2384,89.4694,10.6457,15.7041,40.3500,49.8299,4.1668,-166.9235,43.8684,67.9508
-3312.5000,0.8825,-134.3111,-45.2697,-69.3351,-41.6760,-30.4240,-41.6111,-45.6466,101.3849,27.3276,-31.9135,148.6116,-2.6591,21.5829,137.3602,-37.1731,-5.7896,-72.4270,-2.0698,127.4031
-3304.6875,32.7871,36.7918,-10.6730,-39.1589,-44.1886,-33.8149,-7.2082,-49.0555,26.7642,-48.0018,15.9630,-37.8296,32.4366,-63.7183,135.7400,-76.7628,-10.3364,-7.5368,29.3806,52.2574
-3296.8750,-122.5230,126.6896,-63.2760,-19.1826,13.0997,-14.3988,-60.0104,-65.6596,9.9402,-64.5432,-35.1237,-90.4721,52.3341,-17.3402,-64.0979,52.4736,-25.0835,83.1558,84.6394,71.9188
-3289.0625,19.3375,-84.2023,12.3058,51.9863,15.5848,24.2204,-94.6101,-28.0590,-97.6676,10.1231,19.9591,57.0918,17.4217,35.9835,-98.7264,16.9168,-59.6344,13.0435,-20.9043,36.7914
-3281.2500,58.5808,-185.6784,53.2823,20.5494,56.4650,-46.7627,19.1989,-98.0553,-20.8569,-60.8044,80.8359,60.0610,94.9054,4.4841,15.0648,-17.2543,-160.7991,86.3313,53.9543,40.0581
-3273.4375,-102.8659,109.1886,-80.4094,-106.5362,68.6929,-34.3913,-5.6384,-49.6954,28.3138,24.6197,-23.5992,71.3884,106.7382,14.0353,-9.8020,30.9515,-216.6246,99.9875,32.1687,88.6796
-3265.6250,-34.1247,389.2512,-42.9129,-178.4296,-2.8865,-70.8085,-3.2771,-12.1225,-6.3146,26.2485,-9.9313,-38.0729,71.7727,-95.7873,66.5261,-78.6241,-147.2625,-7.1578,66.5761,16.4972
-3257.8125,-50.5360,195.1650,-62.5686,-55.4786,-23.6137,-54.3701,12.9467,-33.6962,46.9138,-32.2777,-12.2869,-94.6823,50.6649,-95.6299,45.6893,-98.3605,-25.0572,-25.4490,154.8359,69.1628
-3250.0000,-46.2228,-152.1667,16.5066,89.2198,-17.5901,-86.1695,-18.0841,-28.5102,89.8820,46.9593,4.4258,19.4627,19.3019,-51.4469,14.5861,-130.3282,119.9015,-91.9866,53.8436,37.5906
-3242.1875,43.1284,-204.4639,74.6389,71.9566,-32.5205,-102.9153,3.9332,-44.2650,147.9043,-5.7564,44.5306,40.6576,3.9867,-39.8091,-37.4570,-111.2241,173.9085,-3.4833,36.8938,-14.9356
-3234.3750,-77.1981,-10.4166,-19.8883,126.0348,-53.1062,22.6955,-89.7022,7.3343,-20.7085,8.8778,-51.1134,55.2051,-53.9818,52.8589,-131.1564,14.2587,192.2592,14.3785,-49.7068,73.8908
-3226.5625,28.0055,341.2022,56.1256,125.6623,-52.1545,23.8675,-161.7979,-28.4998,-164.7793,-26.9252,3.9489,-54.6819,-53.4069,-51.5215,-93.3113,-94.6984,228.1541,-56.2079,-84.7766,38.2668
-3218.7500,55.6017,298.2291,9.5393,11.6941,12.1893,13.4439,-61.4952,-110.9239,-64.4533,-146.3262,29.5549,-100.1682,10.5701,-68.4954,-66.0708,-68.2563,149.4442,5.6125,48.5502,65.0470
-3210.9375,-54.3306,10.7467,-69.5737,-28.7682,-30.9702,79.5337,4.2950,-9.8291,38.3622,-44.2083,-59.4713,0.8552,-32.9614,47.4682,36.6545,70.7170,74.2271,-35.0590,-27.6213,94.3442
-3203.1250,-84.9829,14.5710,-100.3961,-59.9272,-97.8470,84.9309,47.3780,32.5788,118.4767,-2.7772,-85.8100,6.1863,-28.1997,60.3515,79.6779,113.0001,-62.6927,3.5712,-23.4978,62.9372
-3195.3125,-284.4655,167.6033,-237.0309,-46.8928,-87.5324,131.5368,-51.3373,79.1931,17.8029,80.8569,-205.8173,89.7265,-53.2360,128.8755,-20.1031,159.4861,-85.4251,50.4194,-11.1707,109.7308
-3187.5000,-112.9693,197.6491,-165.6807,-88.8635,-90.2212,128.1609,-55.0612,112.8312,-57.8811,78.5113,-148.1187,87.2891,-93.2803,113.6526,-59.9025,155.9958,-91.1728,-25.7391,-86.8609,33.5264
-3179.6875,-90.9756,79.2048,-140.8336,-135.3429,-29.4210,115.2919,6.7102,63.9779,-33.0793,28.6710,-108.5275,74.3592,-69.8285,93.6763,-35.2125,106.0336,-103.4245,102.5997,6.9463,20.8167
-3171.8750,-181.1589,-12.3928,-163.1541,-51.9645,22.2190,129.2848,-15.6800,113.9884,-18.4332,152.6872,-142.9580,198.2918,-91.5336,109.6088,-57.6821,-27.0570,-88.8289,151.7944,-84.4016,34.9640
-3164.0625,-98.8028,-105.4425,-0.9210,-4.0344,38.4004,34.8376,37.4777,92.5567,-2.2373,57.2581,-38.6812,102.7850,-39.6898,61.6957,-41.6016,-11.5938,-76.6885,93.5354,-72.2218,-23.3413
-3156.2500,-140.4670,-76.4892,-85.6912,-12.1121,62.5777,21.3974,-12.3739,43.1336,-51.0409,7.8305,-77.0356,16.2820,-15.8503,117.8639,-89.5279,232.8973,-48.5592,86.2852,-44.0488,74.3632
-3148.4375,-52.9141,115.7309,-31.2317,-29.9491,44.9995,-33.7795,-65.9942,24.9756,-141.6190,63.6728,-68.6475,109.0432,-69.7702,70.5483,38.7876,104.6728,-31.1890,-2.7075,-131.6449,56.3300
-3140.6250,-4.2572,270.0638,-17.6692,-51.6846,-15.4881,-56.8426,-16.5142,0.9291,-91.1142,2.6198,-22.6237,47.9149,-20.5957,-32.6984,89.1990,-66.4637,-122.7284,81.4033,-82.1538,69.3938
-3132.8125,-39.0183,197.9945,-92.5160,-17.8073,-17.3823,-23.2928,-91.4384,71.4932,-57.0083,110.1747,-56.4133,81.4003,-22.8238,-9.4942,-23.8061,-69.0138,-123.6700,44.1250,-119.0680,103.0731
-3125.0000,31.7525,-46.5346,25.1781,53.6181,-46.7330,-53.1876,-47.8208,41.6183,59.6449,43.2878,7.7267,15.4458,-15.5120,-19.7749,20.7456,-25.9925,-88.0603,-24.6110,-47.4453,-36.6896
-3117.1875,-64.6488,-143.2168,-2.2913,168.8835,-0.2369,-7.2273,-1.3503,-22.4038,33.1564,16.2469,-13.2751,-12.6605,-6.3492,20.7419,-6.8462,19.9076,-78.6109,89.5131,-2.9681,-27.5984
-3109.3750,-24.6280,36.5720,38.6695,137.5944,40.7039,-3.8066,2.5631,18.0400,-73.8839,19.6734,-11.7395,-9.3055,-76.7453,-20.0596,34.0012,-87.7235,-38.7202,23.0919,-105.0531,-24.0479
-3101.5625,103.6827,165.6812,136.9294,54.5962,64.9307,-90.0796,27.7725,-68.2084,-11.6304,-103.5948,81.8449,-21.6434,-14.8470,-96.3165,22.1408,-173.0442,-15.5393,45.9744,-81.8403,-36.2003
-3093.7500,75.0642,206.8841,66.2755,60.6957,68.2541,-87.2439,-6.9195,-138.3503,27.7270,-100.7588,39.8182,17.1283,-12.8479,-57.5578,-12.6284,-97.2556,60.7312,51.9676,-109.5193,39.7587
-3085.9375,193.6275,113.2766,155.8118,37.9965,83.7779,-72.2109,-27.4090,-124.2817,-139.7116,-158.7068,117.9946,-3.8861,3.3485,-69.1838,-33.1908,-119.2700,179.2022,-40.8435,-98.0086,-18.0786
-3078.1250,123.3301,7.8120,116.4922,38.4448,118.4482,-39.0271,-30.7421,-126.0604,-288.9964,-161.5121,103.2349,29.2515,36.7036,6.8278,-108.5963,-12.1141,178.8121,-6.5019,-27.3439,52.2339
-3070.3125,17.0084,78.3522,42.1518,-33.1084,154.1154,-39.8264,5.9160,-54.8244,-252.2963,-16.3008,32.0651,102.4035,36.0530,39.5059,-73.0252,24.0626,108.4124,-42.1527,-132.6854,51.5583
-3062.5000,26.5250,86.7489,17.6618,-59.8151,129.6242,-64.7642,91.4177,-42.7253,-57.7557,-41.2285,46.6426,3.4064,84.2524,-22.2488,12.3901,-0.9114,11.8540,2.0446,-89.1813,-10.2687
-3054.6875,-119.6903,10.4574,-100.5453,4.7653,48.4256,74.6070,47.2179,22.6806,-28.8999,61.1449,-65.5633,-42.2846,2.7497,49.6398,-32.8953,100.4388,5.5814,65.5528,-60.3765,18.2120
-3046.8750,47.7727,2.8695,41.9254,32.0429,43.9112,69.6941,6.7122,17.7964,-143.3452,19.2223,27.3968,-46.2546,-1.0560,20.8232,0.5299,59.5161,33.0009,-47.2476,-137.8905,-59.6043
-3039.0625,89.7937,79.8346,83.9549,-31.1251,49.9422,38.3317,-62.2460,-50.5400,-137.2417,-86.1542,48.8136,-41.6654,3.6891,34.1110,-68.4960,138.1314,4.9623,-40.5032,-95.8551,-17.8717
-3031.2500,88.9914,9.0120,82.1753,37.9093,-26.8302,35.1784,-137.0172,-16.6620,-175.9386,-15.3103,21.9283,139.1343,-36.3754,89.9480,-107.3411,97.9510,4.1133,-77.5514,-166.6226,16.0725
-3023.4375,170.2248,-121.7543,167.4428,153.9832,-51.5653,10.0826,-52.7494,-78.7171,-91.5795,-77.4012,107.6011,113.9888,12.6028,15.0470,51.8699,-74.1693,-20.6908,-31.5592,-86.3487,-8.9348
-3015.6250,-3.0978,-47.0791,18.1614,156.4890,-15.8556,44.4325,-53.0272,-43.3250,-54.7685,-42.0464,16.1514,38.2979,10.0430,5.4648,86.5334,-74.8337,-88.0458,5.8810,-12.6184,99.5138
-3007.8125,59.4717,119.5040,85.7713,6.8932,-23.2494,-36.3168,-60.4145,-51.0266,-62.0853,-49.7866,38.0235,-5.4791,3.3816,-45.8545,117.0894,-46.5715,-131.4890,-106.7904,-55.9986,55.8700
-3000.0000,156.6880,146.7490,150.0271,-141.0426,3.9924,-118.4145,2.8393,-133.0750,1.2360,-131.8750,99.5440,-87.6029,30.3656,-71.6292,33.2927,54.3567,-209.2733,-45.8124,6.2646,82.8729
-2992.1875,79.6697,35.7965,65.0611,-112.1739,-5.9787,-56.6938,-44.1181,-34.3033,-45.6336,3.8591,48.8813,-25.9223,20.1464,-10.1322,-50.7129,79.0865,-216.2614,18.9708,-104.6806,181.6854
-2984.3750,165.1964,-55.6188,119.6506,-97.7580,-98.4052,-2.4084,-62.5215,-16.9655,-63.9637,20.1584,91.1505,27.3166,0.4821,-37.8394,-32.1658,-85.6517,-130.7073,67.2978,-55.0957,126.0501
-2976.5625,56.2735,81.5039,6.7972,-65.7976,-64.2820,30.4272,-65.3774,15.9202,-66.7534,53.9927,-4.3097,61.1106,-75.6263,-6.1678,-35.0646,-88.8227,-63.6059,100.1843,47.0388,122.9677
-2968.7500,49.8904,76.1903,1.4814,32.7110,-68.6128,25.8244,-33.6974,48.3652,-71.0067,86.3890,-38.3525,-17.5285,-154.1899,-0.6428,32.5791,-21.4303,0.0466,22.6231,5.7043,81.4421
-2960.9375,64.4588,-15.1483,53.1195,47.1604,-90.9972,3.1719,16.9263,-11.2342,-20.3158,-119.2563,4.3201,-75.2199,-102.7969,13.7484,47.1697,66.8981,14.6466,73.0141,20.3117,95.8621
-2953.1250,-37.8026,22.7177,17.9438,84.8026,-90.1835,4.7209,-91.2508,-9.6305,-129.4215,-8.6994,-36.1845,108.2875,-65.1992,54.1278,-24.0453,-5.5552,52.4388,74.6129,-116.8833,133.4906
-2945.3125,13.4221,-31.9258,77.2556,171.9418,-68.8820,-47.2236,-105.9352,-24.5190,-107.0301,13.3645,25.6248,167.3143,-7.1072,-13.8234,34.2512,-203.4852,103.7277,55.7054,-101.5949,8.6172
-2937.5000,-49.6131,82.1630,-25.6913,214.8356,13.1647,-76.4118,-24.8692,-90.6497,11.1121,-52.8187,-20.4476,138.1063,0.7331,4.5359,-68.6945,-122.6535,111.7560,63.5564,-23.5545,16.4917
-2929.6875,-0.7728,166.1487,-10.7550,157.6377,28.1025,-24.6828,-46.9111,-75.8616,-84.8533,-38.0800,-32.2225,115.8095,-58.5250,31.1058,-53.7561,-34.9111,89.6774,6.3119,-115.6233,-5.7249
-2921.8750,100.8118,-48.0930,60.9307,83.1798,-10.2142,-63.1936,61.7974,-77.3159,-86.0796,-113.5883,72.5897,-32.7454,49.9733,-24.4982,54.9325,0.5768,16.3420,37.8148,-47.9476,-44.1937
-2914.0625,-7.2268,-226.9148,20.0008,45.1086,-15.1311,5.7020,20.9068,-45.3664,-90.9091,-44.7012,22.9531,-37.8891,45.8746,53.6496,14.0178,142.4835,48.3932,69.7266,-15.8693,-12.2567
-2906.2500,62.3715,-52.1054,62.7080,9.6874,-46.4029,48.2604,26.6582,34.2434,-158.1006,-2.1430,18.8571,41.6389,-22.5798,86.0115,-90.2552,148.0616,83.0832,-0.7077,-87.1582,-153.6691
-2898.4375,-15.0878,293.6211,19.3655,3.2253,-52.7321,78.7792,-16.6470,27.8186,-90.3451,-8.6162,-33.8978,35.1207,-66.0847,41.0281,-170.5850,31.5735,41.7135,97.8282,-58.4943,-160.1294
-2890.6250,0.3765,203.2895,-4.0468,88.7221,-75.1157,129.2691,-76.0136,78.3622,-39.6552,78.8786,-38.5425,48.5628,-88.6446,-3.8440,-82.9725,-138.9551,92.2876,7.3269,-112.8892,-109.6270
-2882.8125,220.3488,-103.5239,153.0419,132.7134,-66.0101,27.2659,-29.8826,13.4136,-67.4800,-23.1268,118.5236,-16.4914,-6.7044,-21.8898,-0.8589,-55.9653,66.3523,-53.6835,-33.7960,-100.6262
-2875.0000,18.2064,-270.4086,11.0188,176.5872,-61.0048,69.1601,-134.8514,92.3598,-99.3976,92.7583,-13.7503,62.3563,-37.8573,133.6341,-31.8449,206.9453,4.3067,-44.7930,-60.8007,-21.7205
-2867.1875,-7.4010,-155.7601,23.5452,81.0074,-121.4620,45.6127,-85.2822,105.8693,-11.7661,106.2139,-36.3141,38.7709,-24.4656,115.8674,54.7265,256.4144,-56.1885,-141.3560,-156.2725,-82.2605
-2859.3750,-49.3469,190.5215,51.7295,-66.9222,-57.2812,-0.2762,-21.0668,23.0383,15.5110,-13.6753,-6.0696,-81.1514,39.5790,1.3442,8.9481,136.5343,-63.0405,-112.2688,-57.1077,-18.1501
-2851.5625,34.6359,344.7764,61.8363,-52.9015,-46.1593,-27.2033,-119.9136,70.1701,-157.2670,70.4020,22.6404,-34.1150,12.5724,-53.8223,-53.8881,-37.3801,21.0472,-97.2277,-113.0062,65.9221
-2843.7500,241.9632,59.4018,132.2904,48.4590,-85.6985,-29.7789,-86.4173,30.6619,-86.7065,30.8391,122.6929,-73.7266,9.9159,-80.0822,16.6308,-76.9356,-18.5173,-32.8470,-47.5676,26.3419
-2835.9375,0.5781,-145.6818,-82.9542,89.1093,-80.9412,47.9465,-45.6201,71.4520,138.1581,34.5703,-35.8144,-69.0289,-23.4326,48.8022,20.4473,147.8215,-81.7871,43.8418,28.1695,67.0668
-2828.1250,-156.4304,-162.3711,-170.8090,36.1641,-132.7950,107.0806,13.5662,167.6515,234.4230,167.7188,-159.4994,-9.9141,-111.3845,97.0854,79.6691,170.9756,-100.6586,-9.0687,11.2903,-20.8032
-2820.3125,-269.3770,-275.0114,-176.6101,29.2786,-64.6081,65.2750,81.8016,162.9084,302.7282,162.9167,-142.0303,-51.7461,-5.2839,66.0432,74.9366,129.1663,-107.4804,19.0728,145.4571,-62.6318
-2812.5000,-203.6784,-173.0091,-218.7797,-44.9381,3.2246,96.1344,75.6792,156.8235,259.6632,193.7766,-134.8057,-57.9125,-11.5337,41.9261,32.8314,86.0290,-111.6580,-20.1286,105.2680,-31.8027
-2804.6875,-0.5865,-5.6206,-152.5544,-87.7530,-2.5450,53.3991,143.9547,40.1481,253.9911,3.0421,-55.6219,-26.6653,-17.3780,-20.0125,63.1362,-29.7077,-119.4363,-62.9328,133.4668,-74.5758
-2796.8750,-204.9103,71.3777,-256.7242,-116.9905,-71.7188,95.2587,74.8341,9.0685,222.9294,-65.1045,-179.7101,51.1775,-49.6069,101.5875,-41.9430,159.1460,-112.6171,83.8768,175.2665,-32.7493
-2789.0625,-254.8999,92.7281,-193.5510,-60.8824,-117.5395,122.4783,-7.9486,73.3493,139.2043,109.1172,-201.0057,42.3730,-95.4861,100.2875,-14.6797,149.3586,-91.4467,105.0425,55.4020,-152.5700
-2781.2500,-78.4245,-12.4803,-45.9297,10.6902,-79.9131,87.1509,103.7116,74.0877,250.9055,109.8002,-37.1869,-103.9821,-58.9145,-104.0952,23.0233,-254.9690,-90.8204,211.6611,125.9851,-151.9484
-2773.4375,-96.1635,-134.8943,-106.5224,134.0814,-30.4905,99.6335,43.1603,86.6287,190.3895,123.2861,-60.8821,-54.5268,-82.5425,-70.1682,-0.4886,-277.4720,67.6044,159.0904,73.3660,-28.5198
-2765.6250,4.3829,-104.0109,-32.8176,199.7762,-30.7794,63.4219,5.8932,13.4800,43.1600,-60.9216,-16.0592,-17.7539,-45.8741,8.7488,36.2998,-57.6543,168.3276,13.8109,69.0330,-138.7923
-2757.8125,-84.5733,17.3667,-52.6102,179.9601,22.4291,42.7130,22.1268,-44.1657,96.4373,-80.6261,-35.5428,35.5182,7.3033,22.7955,-21.4104,-41.3345,79.5425,-5.9656,120.2018,-122.5688
-2750.0000,-155.3911,-17.0992,-91.2605,110.2888,20.7901,115.1616,20.5088,28.3542,131.8571,101.8431,-84.0648,107.9479,-30.3705,6.7161,14.0242,-189.8694,8.9010,-5.5949,-20.4906,-87.1867
-2742.1875,-93.7435,-26.1191,-63.4515,-39.9414,11.5894,106.0687,48.3324,56.3371,122.7207,55.7717,-9.2101,-85.1715,70.4136,-70.7290,78.9087,-161.9623,-35.2963,56.2160,76.2563,-96.3565
-2734.3750,-117.8506,-48.9068,-163.4012,-62.9250,-14.3678,116.2276,95.4068,66.5723,132.8449,28.9529,-70.8383,-112.0430,43.4530,11.8071,52.0443,69.2034,-23.2513,32.2833,52.2555,-49.2691
-2726.5625,-7.6148,-150.3540,-82.0120,11.4353,-6.9799,50.7434,103.8257,75.1687,104.3159,0.4919,-42.5557,-30.5576,-22.1584,62.6045,-13.4594,150.7329,-18.8591,-103.3068,-13.4103,-114.8272
-2718.7500,-70.3266,-0.7557,-3.5664,54.8372,-1.5412,19.3100,-1.7011,42.8087,-75.1721,42.0706,-12.2451,11.9822,20.2930,35.7398,-81.9044,45.3163,-45.4216,-24.8489,64.9679,-36.3326
-2710.9375,-47.3495,127.5423,-19.4252,77.9391,-54.4008,3.5776,-90.5347,138.1500,-199.9727,248.3628,-29.6719,70.2305,-32.5459,-41.1040,13.3483,-189.4040,-23.2914,-72.6812,-17.9662,21.8767
-2703.1250,75.7828,-66.0051,1.8676,60.1849,-107.1181,-49.0058,3.7814,122.6444,41.3741,158.8127,10.7759,-19.3760,-48.2266,-53.4698,34.7589,-95.9839,-76.0095,-54.3597,70.2388,-30.7664
-2695.3125,-72.0881,-107.5569,-116.8431,-52.5809,-78.8447,16.4079,-4.9046,114.1402,142.7283,113.2566,-81.2816,9.0105,-19.9006,76.6829,-10.8283,190.4557,-117.7275,-26.0323,98.4537,-2.4098
-2687.5000,-70.4059,34.4279,-39.0049,-156.8025,-37.0243,20.3708,72.9561,82.1933,73.6235,81.2584,-31.5339,-23.0464,57.9769,6.9705,141.1435,84.4480,-116.8852,-60.1689,29.2163,-71.5011
-2679.6875,-74.2042,-74.1115,-43.6547,-229.5288,32.3024,-20.1702,179.3222,4.7430,217.0220,3.7536,29.8792,-138.6153,164.3650,-89.0896,136.6292,-30.0799,-188.5311,7.1887,167.4816,-39.0894
-2671.8750,-93.9140,-233.5550,-139.2179,-214.1619,45.7291,-6.6022,155.7842,55.3944,230.5143,90.3587,-28.1536,-88.0795,103.8575,-50.9377,113.2074,-16.4993,-104.0779,-48.3430,111.8408,11.4349
-2664.0625,3.6704,-206.6934,-36.4839,-186.5000,39.4438,-49.7339,149.5414,12.3502,224.2994,-25.7350,34.2133,-131.2361,97.6539,-81.1394,144.0891,-22.5994,-77.3273,-20.5768,103.4844,-31.7525
-2656.2500,-188.8016,-257.9001,-93.7957,-133.8791,17.1028,2.0869,91.2502,64.2590,92.0379,63.1134,-48.0591,-114.4406,76.4107,24.6893,48.9228,139.2646,-92.6337,103.1363,157.0766,57.0087
-2648.4375,-126.7232,-301.5615,-101.5626,-141.7036,-26.6953,32.4627,84.4937,130.7269,48.3129,92.5291,-35.2693,-122.0791,69.7189,8.4024,79.3034,95.6679,-67.3867,24.3951,113.2018,13.3324
-2640.6250,-31.1266,-99.7141,-73.8195,-221.0247,-34.9972,-12.6653,112.2330,85.6952,113.0775,48.4538,-18.3817,-94.2179,24.5356,-39.4591,107.1880,14.5242,-110.6371,51.1633,175.8238,5.1566
-2632.8125,-9.9879,26.6770,-89.5362,-129.7890,-51.7457,80.7635,-15.4827,179.2132,22.3849,214.9404,-69.5466,-0.7961,-102.0897,30.0188,-20.3858,33.9287,-88.3392,72.4943,19.9922,61.5381
-2625.0000,193.8588,-155.2454,88.4501,-102.8533,-56.7969,75.8927,-93.5056,175.4396,-128.6172,137.1328,64.0369,-41.6703,-71.0133,36.9949,-61.2587,103.0639,-26.3380,64.5130,-93.1606,-16.3869
-2617.1875,83.2043,-300.6721,118.9375,-37.4194,-26.3491,33.5235,-135.0262,59.1642,-134.1193,20.8128,67.8601,-48.0586,-3.4256,64.3762,-103.6291,170.7122,39.1571,95.0393,-62.8106,14.1867
-2609.3750,98.9843,-178.6458,138.8684,84.4630,-6.4485,-57.3864,-117.1024,5.3484,-116.1833,3.9571,67.4421,9.0003,-20.3883,28.8714,-84.5589,79.8040,55.1039,41.0274,-152.0185,-39.7796
-2601.5625,139.4249,-139.9925,145.4548,229.9939,0.0943,-50.6364,-73.5255,-24.8071,-72.6084,-63.2412,89.7270,88.7103,-13.6968,57.1514,-151.8355,49.5320,-10.2972,81.6664,-112.5803,-70.1003
-2593.7500,68.5640,-69.6563,29.7338,335.2217,31.3353,17.8178,-151.2509,6.7380,-224.3347,42.2620,14.0517,194.1235,-56.2950,120.9389,-155.4069,44.9635,24.9987,46.0122,-147.4397,35.2842
-2585.9375,164.0531,167.0210,94.3685,184.7981,-14.0737,9.6238,-123.6269,-38.3688,-195.7101,-76.8817,60.8180,74.8956,-27.5389,8.0302,56.3787,-37.2576,14.6395,-70.3023,-156.9637,-9.9821
-2578.1250,64.5504,172.6974,26.0098,50.3735,-9.4821,-22.5759,-81.9989,-70.4810,-81.0841,-108.0375,7.3418,-30.3310,-22.7740,16.1009,61.1644,114.5229,-49.7240,42.3882,-81.4868,31.7552
-2570.3125,-88.3109,21.0209,14.2857,73.6033,-21.2424,76.8852,-166.7310,66.0600,-202.8287,100.4647,-44.9817,69.1024,-34.3607,91.8234,-61.4107,102.9715,9.5595,65.7355,-163.3646,20.1590
-2562.5000,-50.9614,-82.4657,55.7667,41.0231,20.1890,80.5469,-90.2681,69.8055,-198.3771,68.1765,29.0562,36.7317,44.2562,46.0377,-93.7757,-2.3755,12.0446,103.2749,-56.0539,-12.2385
-2554.6875,-1.2050,-137.5590,-79.3436,-50.1674,68.0232,92.6044,-41.4028,44.9507,-76.5219,80.2894,-7.8431,10.7559,18.2759,48.0674,-44.7466,45.6731,-9.0689,83.2175,-6.3399,72.7697
-2546.8750,177.0128,-170.2124,-2.9986,-47.9032,35.3107,23.1078,-38.0965,12.5460,36.7679,-26.1426,63.7864,-21.7630,22.7489,-12.1995,106.7268,13.1755,-41.7195,-20.3976,-74.1946,40.2341
-2539.0625,62.3921,-144.7225,22.5062,-57.4915,23.7482,-25.2466,-12.6408,-35.7162,-11.7996,-73.4386,65.0388,-69.1365,85.3834,-21.7525,58.3486,38.8400,-16.2179,41.1367,21.1045,65.8474
-2531.2500,-130.8390,-21.8353,5.4012,-108.6862,43.5816,68.7985,-101.7937,58.4290,-211.9667,56.6781,-29.0545,60.8928,31.4214,66.8233,-68.6353,58.9203,37.6823,59.0744,-100.1922,48.8672
-2523.4375,-42.8553,-38.7704,103.5058,-91.6806,30.6149,93.0388,-41.7396,8.7817,-223.9294,-102.9964,36.1346,85.1209,55.6667,74.7133,-44.4017,46.1736,90.7879,41.2072,-83.2928,-73.9222
-2515.6250,-4.4114,-71.2757,32.0643,-18.2297,69.1039,94.7184,-3.2226,-62.4218,-149.4357,-101.2336,33.2034,86.7876,57.3752,65.4919,-42.7062,11.8746,129.3478,79.7950,-44.9407,-35.2573
-2507.8125,218.2743,11.4674,118.8611,-41.5260,156.8370,-1.3477,46.5384,-48.3741,-208.7007,-50.2143,154.2904,26.7123,71.3351,-68.6930,-102.7603,-195.1494,176.1546,-13.3660,-68.3584,-58.3341
-2500.0000,247.3666,-100.4023,222.0662,-83.4231,222.9647,-83.0167,75.6937,-129.9287,-179.5661,-131.7918,245.8545,-127.9663,137.6970,-141.4684,-146.4019,-201.7708,135.3583,85.8781,100.6231,-29.0138
-2492.1875,73.0542,-133.6888,114.8633,-151.7214,189.6902,-79.0898,42.4503,-88.8827,-103.8288,-53.7712,112.9763,-124.0452,67.6677,-95.4393,-32.4435,-88.7945,172.1736,88.7308,67.2146,-62.0855
-2484.3750,43.0075,-22.7369,164.9242,-181.7688,128.6737,-102.9223,129.4609,-112.5953,-16.8515,-151.4999,95.8866,-110.8760,80.8997,-79.8779,127.7676,-1.5995,142.2564,22.8292,2.0498,-232.9083
-2476.5625,-56.6347,-52.3895,94.3983,-35.4082,205.0609,-63.3692,131.8749,-108.9175,-51.4771,-110.8365,60.4133,-34.3134,84.5463,-14.5671,-53.6308,0.9714,147.7491,64.3415,43.2933,-156.3289
-2468.7500,227.4237,-49.3388,167.5666,73.6568,204.1479,-100.1193,57.9809,-35.5341,-198.4175,-37.4657,162.0018,75.9502,9.8958,-75.7331,-164.3356,-255.7439,220.9483,-38.4506,-24.7768,-83.0436
-2460.9375,325.9035,13.1021,195.1429,-4.8979,121.6371,-146.4819,12.4890,-81.7581,-97.9622,-83.7044,209.7885,-80.3866,37.6544,-155.6849,-99.6285,-228.0306,143.5522,24.1432,108.5562,-55.3652
-2453.1250,44.7862,48.9257,48.1192,-110.0652,48.5364,-108.4538,13.3989,-6.5862,13.9002,27.4584,32.8063,-116.3204,2.8218,-65.7043,-24.5254,29.0956,109.5571,-9.8622,73.2925,-54.2828
-2445.3125,124.9274,-117.0236,171.3593,-134.9785,61.6857,-95.1797,62.5549,-31.1551,26.0098,-33.1138,109.7506,-66.0073,52.2458,-47.3170,24.8293,42.4438,48.8186,-140.6225,48.2729,-114.9483
-2437.5000,136.9281,-70.1414,105.4602,-123.0402,69.6865,-88.0545,70.5698,-96.8830,-3.0202,-170.8470,102.7040,88.1344,96.5354,12.9150,33.0482,50.6227,-9.0657,-128.5367,60.1175,3.2395
-2429.6875,68.2296,248.0356,-5.1491,-156.8020,-5.0133,-87.6188,32.8879,-96.3144,70.2546,-98.2856,15.2112,88.5755,60.1308,-64.7243,142.5758,-96.8930,-8.6476,-197.1640,-9.7363,39.7365
-2421.8750,23.8436,203.5082,-14.4518,-201.2667,-14.4160,-132.8865,97.5110,-105.4518,244.8400,-107.4360,15.7408,5.3138,88.0334,-122.6310,170.4136,-142.1095,-17.9298,-135.5075,51.7088,30.5286
-2414.0625,-119.8984,-116.3846,-95.1065,-134.0882,14.8353,-67.5008,51.7804,-38.9422,126.0814,31.0624,-59.8782,107.7022,79.5962,51.6437,125.9031,106.3303,-55.5739,-69.1914,-21.1934,132.9806
-2406.2500,80.8132,-267.8290,-30.3143,-73.4640,5.5280,-75.6550,43.4914,-11.9790,6.7546,23.0239,24.9559,62.5436,71.6103,42.7643,154.8510,135.2254,-30.7700,-149.4281,-66.6625,87.8876
-2398.4375,106.8416,-100.9846,31.7846,-188.5461,31.5140,-86.5085,32.5035,-94.7181,32.7272,-96.7186,55.4384,-131.3217,60.9315,-16.9449,70.0978,197.4242,30.3335,-123.3623,28.1717,114.0940
-2390.6250,-111.7868,242.1716,-47.7691,-267.2781,-48.1468,14.9908,-47.1307,43.8968,25.0517,41.8989,-86.0914,-64.8415,-19.3879,24.7572,-10.3084,189.9751,-12.2032,-95.9410,-48.6380,106.6598
-2382.8125,-98.0487,326.6553,-105.9584,-147.6627,-106.4487,67.8328,-68.4017,96.8557,40.7339,131.8664,-116.0083,22.9780,-76.3466,26.0304,-31.3543,58.8407,-103.3717,-12.1744,-1.0938,85.5712
-2375.0000,-71.9609,176.4942,-193.7930,19.2947,-120.3899,54.0153,-119.3155,119.1525,63.7677,154.1700,-147.9267,82.1461,-126.9468,73.4512,-45.0576,81.0495,-77.1846,48.9506,-45.1936,181.8376
-2367.1875,41.9298,-95.8620,-32.8314,98.0506,-143.5364,-42.0010,-68.4379,23.2477,3.5874,58.2743,-43.0388,134.1163,-75.7469,67.3482,5.0387,59.0742,1.8109,-12.1242,-70.5029,85.9006
-2359.3750,-84.2069,-257.2839,21.0978,146.7491,-53.7286,-62.0718,-15.6056,-69.7144,21.3641,-71.6842,-15.3792,41.0169,14.4164,81.3834,-13.9136,150.0631,-19.2409,72.7453,48.1410,29.9043
-2351.5625,-216.8389,65.7677,-152.4717,83.9480,-44.4095,21.3558,-6.2730,50.8230,-6.3527,84.8628,-134.8581,13.4125,-12.9114,79.2836,32.6385,159.5382,-116.7900,10.1131,-14.7151,2.4210
-2343.7500,-79.4094,309.8608,-153.9859,-23.8032,-8.0405,20.8201,66.1176,49.4060,29.9834,84.4615,-84.3101,-61.1391,-13.1768,-26.8687,32.2568,12.0300,-188.2905,7.5210,52.4783,-35.0107
-2335.9375,-29.0914,182.8599,-104.6071,-9.6623,3.2279,32.1745,4.4122,24.8804,4.2222,22.9501,-43.6148,24.2078,-1.5300,34.6795,-102.2247,60.4460,-173.8967,57.8336,67.5786,50.4587
-2328.1250,60.9175,61.5385,-9.5287,115.1695,-47.8054,18.2329,-46.5944,-25.9359,-9.8492,9.1504,-6.1762,157.2445,-15.1842,71.3643,-81.0075,46.5934,-153.8025,-64.1503,-54.6154,-0.3720
-2320.3125,-30.3104,110.9540,5.3031,200.7498,-70.0906,-40.9542,-31.8559,-84.9966,114.8231,-12.8797,-0.3178,135.0366,36.9146,-22.7928,-29.0414,-158.5395,-138.9468,-13.3879,-4.0534,14.5511
-2312.5000,-127.4262,118.4739,-26.7665,243.4280,-101.2746,-0.0535,-100.0039,30.0360,45.6001,102.1897,-42.1269,175.9293,4.1230,-48.7836,-23.9778,-338.5959,-26.9879,-6.5263,-66.3824,92.5769
-2304.6875,-6.7367,-42.2082,102.9552,223.9050,-118.6567,-54.3603,-81.3420,12.8624,28.1900,48.0594,32.3281,121.6153,-12.8627,-58.6908,-5.1125,-281.8487,24.7676,-25.8575,-51.9092,38.4062
-2296.8750,-6.1056,-146.9411,-10.3802,188.3357,-122.0818,-19.7154,-83.7260,-26.3619,24.7213,7.8808,-13.4006,82.2421,-14.8988,46.1191,-43.2977,7.8575,59.4709,44.7776,-16.4855,109.1866
-2289.0625,62.6152,96.4018,-46.6096,80.8797,-157.4018,-18.9707,-83.0121,-25.4851,-10.6619,-27.2058,-39.3455,46.9693,-50.8338,21.7053,30.6067,46.6827,128.2815,-62.4839,-88.9555,37.0698
-2281.2500,83.0434,222.4095,52.8706,-38.8709,-133.0211,7.4734,-20.5964,-72.9111,-58.3443,-111.5969,21.4045,-74.6109,-24.0604,-24.8157,-53.7885,35.1995,149.8023,63.9651,37.2765,-47.3482
-2273.4375,-90.6574,118.2605,17.2052,-107.7745,-21.7945,117.7736,-20.3262,1.5046,-167.1731,-0.1361,-15.2157,-0.3419,13.5626,61.9157,-236.3150,72.5488,116.1708,137.2628,39.3599,-9.9188
-2265.6250,-57.4022,-165.9227,-17.5216,-144.7311,17.3818,194.0224,92.8948,40.8702,-129.0443,-34.7229,36.4077,-35.1198,127.1385,51.1604,-49.8883,38.8500,8.4908,134.5018,72.3986,-117.5382
-2257.8125,-131.4024,-170.3586,-241.4988,-184.9253,50.3111,227.0191,198.8621,73.9889,13.8375,-1.5580,-28.2498,-2.1530,196.4628,21.1270,93.2794,-75.0896,-100.4268,165.4784,138.1889,-121.3994
-2250.0000,-228.0514,-20.4662,-303.1158,-104.7724,61.5930,238.3632,173.1675,121.4599,25.0720,156.9656,-114.7519,46.1541,134.1423,28.8744,140.7870,-100.6742,-90.9826,34.7922,42.3228,-146.8992
-2242.1875,-205.0966,108.0042,-132.1230,-117.0376,86.4653,152.3041,161.0681,36.5329,49.8967,-1.9103,-31.9741,-76.9332,196.4222,-5.6164,55.8953,-2.6427,3.0614,-48.2966,135.0499,-158.7960
-2234.3750,-245.2407,137.3798,-143.2306,-87.4055,186.2290,105.1389,113.8690,25.5090,-71.3791,-48.8767,-40.7774,-50.1140,186.6035,34.1762,-102.0987,60.3019,32.0025,-18.4915,94.6709,-58.7966
-2226.5625,-86.8227,13.3140,-47.7935,-35.2227,169.5449,15.5207,61.2232,-26.9627,-50.0945,-28.2960,16.6850,7.2533,134.3353,-5.6097,-80.5422,-29.2069,50.4976,-36.1465,5.8432,-111.2440
-2218.7500,-117.9780,-123.3578,-7.9503,109.3496,210.2698,-17.7086,64.9876,-96.0519,-10.4038,-97.3305,33.4413,11.0143,138.4742,9.4680,-76.5775,-25.3271,54.4003,38.5916,45.4240,-107.2772
-2210.9375,-103.1758,-74.0786,6.8519,229.8607,187.9453,-38.9993,42.7118,-81.2093,-68.7574,-82.4308,36.7230,25.7183,116.5657,-19.4696,-24.6515,-120.5015,104.2559,-17.7197,-11.0370,-92.3468
-2203.1250,83.8187,147.3951,131.8595,134.5612,165.8219,-135.0970,130.6426,-177.1724,19.0838,-178.3305,150.3166,-70.3802,167.8679,-160.2632,26.4745,-253.4792,80.3180,-76.8267,35.7106,-151.2098
-2195.3125,18.8213,222.8530,23.8813,34.2625,131.7007,-133.2046,96.5692,-138.1404,131.9245,-139.2288,60.0943,-104.4839,97.1738,-134.2735,-44.3986,-140.4589,50.3912,-70.9361,40.4605,-75.0732
-2187.5000,119.1382,216.5985,129.2085,64.2755,51.8810,-102.0147,16.7909,-106.8139,89.0682,-144.8262,80.1617,-36.2895,17.7745,-126.2001,60.0282,-183.1413,80.7636,-217.7518,-70.4877,-80.6339
-2179.6875,109.8566,172.7337,116.9197,89.6877,40.4645,-150.4216,5.4173,-191.0870,76.6128,-229.0207,78.6986,-11.6910,43.7756,-118.5464,195.8527,-157.4171,71.5335,-156.1642,-44.0283,-18.7863
-2171.8750,16.8622,149.1669,52.9117,102.3849,49.3481,-140.5318,-58.6433,-145.0550,12.4707,-145.9154,3.9804,34.2124,16.0775,-20.5806,167.9874,35.6261,119.5937,-213.2729,-137.2608,64.3626
-2164.0625,255.3907,105.1601,228.4470,58.6439,40.7860,-223.0947,-31.1558,-153.4748,-69.1188,-191.2595,175.2542,-84.3326,81.9307,-108.3267,86.6790,-9.7919,146.2094,-186.8238,-75.9418,56.0635
-2156.2500,238.6648,87.9221,207.7373,6.6651,92.9710,-243.9098,22.0802,-174.1536,-52.9591,-138.8564,188.3914,-142.1332,60.5353,-199.0992,29.1125,-213.4976,94.5883,-62.6199,83.1401,145.5206
-2148.4375,183.3996,103.1422,150.4758,-13.8771,72.6112,-190.2761,37.7694,-121.3831,35.6547,-11.9937,133.1167,-88.4924,4.5959,-231.0279,81.9804,-380.7553,74.4121,-46.9643,27.6820,125.4232
-2140.6250,56.5348,-23.2685,53.6097,-34.0238,-22.3493,-140.2381,51.8668,-107.2036,160.6815,-70.7274,43.0140,-74.4542,-16.9482,-114.6602,59.2459,-146.5784,18.6242,36.0980,147.6276,139.7149
-2132.8125,-29.3290,30.2765,-75.2489,-51.1624,-42.3025,-122.1987,-3.0305,-90.0222,177.7105,-53.4646,-64.4251,-20.4177,-73.4888,-43.2623,77.5212,-18.3932,72.8364,-14.8468,95.5778,194.0000
-2125.0000,200.9769,-22.0388,61.0576,-67.1423,-17.0943,-207.0156,96.2273,-136.7043,166.8836,-137.0588,79.2172,-68.2405,-10.8683,-140.2776,176.9369,-139.0807,163.1992,-65.6484,80.6903,73.4400
-2117.1875,158.8418,-64.7839,90.9221,31.4152,49.6722,-177.2916,89.0372,-180.8453,123.6059,-144.1018,94.8463,-39.5297,19.3140,-98.5000,59.8898,-109.2443,191.1131,-37.8946,73.3665,66.4320
-2109.3750,138.9520,90.7210,144.0311,46.2116,66.6835,-160.3246,-4.8988,-126.7392,29.5988,-54.8994,97.5700,-22.5754,-0.2518,-112.7986,-105.9068,-166.1431,207.2759,-126.8878,-17.6959,46.6662
-2101.5625,111.5119,62.6631,153.5851,-52.5377,39.1363,-150.9060,4.6203,-118.1812,39.0554,-118.2469,104.8464,-123.1808,46.6307,-96.2402,-97.2484,-10.5720,108.8915,-85.4273,25.7003,19.3432
-2093.7500,-10.8200,-130.2988,-13.7575,-69.1743,18.6853,-61.3806,-51.7590,-28.5205,-18.3890,-28.4819,-29.6650,-33.6947,-10.3921,68.6585,66.5158,264.0653,57.6145,-66.8580,-61.7936,73.1213
-2085.9375,50.0502,-106.0480,15.1013,26.4086,-26.5749,-70.6535,-23.9458,37.3495,10.3567,37.4908,17.0283,-4.9875,18.7707,-25.2192,168.4722,-2.1131,82.5397,-146.0883,-72.0900,28.1031
-2078.1250,-1.0931,53.2256,-41.0474,115.9990,26.1542,-52.9218,-7.1413,-19.7838,26.0911,16.4584,19.9629,10.7358,34.9213,-103.4698,1.4118,-279.2544,137.4587,-56.3234,52.6067,118.0870
-2070.3125,32.8601,51.5849,-7.0927,149.6925,-12.0204,-19.0900,-83.2348,-21.8212,-49.0787,14.5202,19.0684,44.5589,-2.8298,-72.3921,-37.5512,-245.2829,136.4739,-128.4563,-53.6007,152.1719
-2062.5000,168.9258,11.0324,135.9589,74.4872,-52.0894,-23.1603,-123.2171,-61.7648,-16.1475,-135.3145,77.2650,-31.5163,-42.4777,-19.7778,-40.4077,7.7799,25.5832,-98.4929,-93.7068,112.3594
-2054.6875,49.1977,66.7133,45.2040,59.4913,-69.9641,-3.0353,-214.0033,-79.5098,-33.0185,-115.9410,-40.8288,60.6107,-132.9298,86.7478,-58.0686,175.0427,46.8906,-42.3325,-107.6108,168.7497
-2046.8750,82.8606,28.8172,45.8351,92.9052,-68.4402,-75.5143,-139.3932,-114.8481,40.5126,-114.1589,-13.4929,25.1290,-94.9898,-3.9079,126.6660,28.7100,115.6001,-78.7745,-74.1048,96.5432
-2039.0625,-13.5346,-103.1381,-19.5818,136.2759,47.0329,-106.0428,50.1677,-181.2325,158.0042,-144.4327,0.2550,-40.4066,-14.1036,-64.7217,96.3388,-110.6674,88.2624,33.7319,38.3619,140.2903
-2031.2500,-81.8757,-66.0581,-55.9409,138.7013,84.5492,-31.5188,15.7732,-70.5691,48.5544,-32.6686,-41.0799,-2.8825,-50.1694,-8.1035,-48.9408,-72.9917,55.9712,2.2918,-29.1164,178.0888
-2023.4375,83.5327,63.7685,46.4527,92.8814,40.8157,-75.2426,7.1190,-114.1622,40.8549,-113.1478,46.0628,-83.5992,-20.4880,-45.8460,-55.4659,-7.5712,10.4259,25.6011,30.1559,97.6381
-2015.6250,30.6891,81.3624,-8.4025,75.8107,-14.1652,-21.2156,-10.7888,-96.0060,58.8961,-94.8759,-15.3960,6.4263,-75.0614,-5.1476,34.7503,-25.3958,-40.3679,114.6619,48.1809,115.9363
-2007.8125,56.6348,0.7769,21.5310,100.5351,-21.3446,45.6192,-54.9011,-30.0510,-58.2651,-28.8078,-22.3416,74.2512,-117.8407,47.4092,28.7489,4.5955,-16.3648,-0.4728,-66.9922,36.0326
-2000.0000,-3.9212,-61.3157,32.9543,39.7712,-10.0210,56.9558,-80.5087,-18.5996,-46.9194,-17.2457,-30.1539,-25.4152,-107.1245,63.9832,-106.7571,126.0810,29.1405,43.8946,-57.6621,10.6321
-1992.1875,45.5839,23.6146,47.4350,19.0747,4.3533,71.3386,-175.0602,32.8882,-69.5231,107.3618,-18.1978,-11.0209,-128.3614,25.5468,-128.2046,30.6006,43.6957,23.3083,-113.2806,25.2862
-1984.3750,254.7994,92.2399,196.6219,17.0841,-30.5725,-0.5711,-100.9182,-1.9264,-30.4350,35.6719,116.0037,-45.9243,-90.9062,-103.2458,-16.9602,-188.1694,6.9502,21.4212,-79.1985,-46.3559
-1976.5625,107.3606,49.2477,39.1582,80.4348,-4.1555,62.8777,-110.4323,-12.3849,-40.9969,26.3390,0.9766,17.5140,-136.1085,20.3243,-64.3809,-14.5784,0.5468,84.8951,-15.7616,17.3487
-1968.7500,13.5129,24.8762,15.2925,91.3689,-65.1426,111.9381,-98.3455,73.7577,-101.9476,112.6046,-72.8795,66.5468,-196.7195,105.8010,-88.1983,108.6149,46.7378,-9.0284,-75.7136,-6.3514
-1960.9375,26.8615,-32.3200,66.6307,-0.5005,-86.9285,53.2008,-9.0522,52.1072,24.3068,54.0706,-7.1224,-28.2318,-109.1299,17.0487,-72.8147,14.0162,25.1251,39.2525,78.5511,-27.8508
-1953.1250,-23.3928,22.8679,49.3619,-85.9500,-68.3197,35.8705,9.6405,34.8611,79.9591,73.9453,-38.2513,-46.6208,-125.1469,-8.4674,-17.0374,-4.1891,-25.0871,24.9502,29.2296,28.0513
-1945.3125,175.4010,-25.8754,113.1295,-134.3396,-114.6577,25.5878,36.3800,24.6591,32.6720,26.8728,48.2243,-92.9609,-99.1232,-50.9829,83.7812,-13.3457,-37.2514,-23.2989,15.9696,-55.0013
-1937.5000,50.2345,-116.5615,-20.0557,-47.6739,-100.9434,76.3555,-22.8311,75.5043,47.4445,77.8520,-36.7109,-79.2414,-121.0563,33.4666,24.6398,110.5458,-21.3654,62.4968,66.7773,-4.0101
-1929.6875,-40.0290,-137.3414,-40.3419,36.8994,-84.3325,93.0300,-117.1447,166.2642,-9.8907,205.7468,-101.8058,47.3936,-177.1059,116.4023,-32.6212,164.3296,28.4118,7.1972,-23.5097,-24.1194
-1921.8750,5.0975,13.2981,44.7617,-58.1170,1.6658,-4.8819,5.9377,67.4340,38.1649,33.0519,-17.0832,-13.5646,-92.7625,11.1383,-20.4959,28.5155,38.5822,52.3157,21.6030,-48.8346
-1914.0625,15.1105,58.8311,50.7554,-153.2305,80.5633,37.1164,-26.0760,36.5062,-29.8732,39.2559,-11.7101,-45.6273,-122.5179,-5.2061,-51.4723,-2.3804,-21.3539,98.3339,-3.3769,67.3366
-1906.2500,146.7810,-126.0078,78.4072,-126.7030,34.1168,64.7739,1.5707,64.2217,-75.2481,67.0957,42.6563,-91.0535,-131.6274,-16.5316,12.2059,-11.6130,-30.6404,123.9894,-12.6967,58.1506
-1898.4375,23.0046,-321.2852,-89.3877,-145.6243,49.2210,79.9818,53.7650,42.4912,-23.0765,45.4856,-29.9028,-74.9324,-79.2040,65.5515,64.4297,151.7090,-83.3820,211.1963,110.5389,110.5137
-1890.6250,-165.3174,-300.0695,-139.7321,-88.0890,-37.2264,103.6418,77.4007,103.2122,36.5316,69.3311,-109.0897,-16.3508,-55.3425,95.4639,125.0929,138.4713,-96.6812,162.8602,26.2168,97.3314
-1882.8125,-122.3932,-327.5654,-19.8386,-47.2976,-27.4300,3.5500,161.2765,3.1768,157.3984,6.4281,-17.0195,-79.5054,27.7639,-22.6166,171.9985,-35.5228,-89.7355,134.7839,69.1508,34.3952
-1875.0000,-150.4779,-391.0609,-14.9537,66.5066,13.3674,44.4600,92.1573,44.1384,51.2774,84.5220,-16.8540,-1.6620,31.8608,46.2677,28.9035,5.4955,-81.7960,72.7091,41.0974,112.4466
-1867.1875,70.1326,-275.8846,32.6229,111.0277,-48.1339,56.0802,-7.2567,92.8090,-194.1431,133.3130,23.7869,83.8836,-29.3517,111.3711,-68.4919,128.2195,-71.1512,-58.6673,-88.2431,87.1897
-1859.3750,15.6886,-154.7675,12.1561,-13.4801,-67.6802,35.6604,-26.7194,72.4348,-140.6209,76.0740,2.4745,-46.6110,-12.6276,81.0204,-88.9572,217.8756,-90.5620,-42.0915,-2.6314,103.8858
-1851.5625,-57.6091,-54.4640,-64.1647,-122.8270,-72.0864,68.3978,-67.0497,142.2200,-34.9514,218.9902,-71.2149,-50.9526,-52.7664,56.5815,-56.2918,176.6833,-58.8355,-116.3512,-41.8669,99.7353
-1843.7500,17.8328,21.6126,54.2501,-117.4229,-100.7584,3.8904,-22.6344,77.7509,-26.5217,81.6438,-15.8632,-42.5513,-45.1708,55.5683,-11.8746,223.2718,-89.3593,-110.8568,-0.3525,35.3282
-1835.9375,-56.7840,86.6458,-27.3899,-86.0657,-35.4908,32.3403,-30.2642,32.2260,-107.1298,36.2329,-36.2642,22.8071,20.3685,104.0451,-129.5000,251.8161,-93.9316,-45.4173,-5.8828,100.8623
-1828.1250,146.7578,9.8416,78.1258,-58.5565,-41.0734,-9.0576,-35.7444,27.8513,-111.5927,68.9751,87.7279,55.3176,53.0541,-30.4564,-96.9773,-83.4967,-30.3573,-120.8269,-47.2627,59.5402
-1820.3125,192.8027,-155.4406,126.1414,-12.5397,-30.1463,-70.9510,12.2730,-71.0247,45.4412,-30.7737,136.5970,-7.6678,64.2454,-100.7520,23.0298,-182.3341,-88.2996,-40.7334,34.8553,70.7098
-1812.5000,16.4436,-297.0885,11.7493,22.0814,-69.6174,-1.2435,-27.1041,34.6979,41.0797,39.0674,0.5717,24.9588,-11.9732,40.6241,129.6214,70.4274,-124.6548,-40.0403,-71.4247,140.4747
-1804.6875,40.9824,-167.8405,3.2549,-59.3949,-114.1889,27.3673,74.4180,64.3136,33.6286,31.8004,-6.6050,-92.5085,-21.3000,31.0331,158.1066,173.1127,-136.1173,-87.4528,-47.7935,59.1407
-1796.8750,-165.1410,82.7361,-65.8867,-194.5101,-74.4136,67.3360,40.2823,67.2891,-0.4694,34.8995,-83.7726,-52.6266,18.7042,67.4835,13.9364,213.1458,-131.2289,-12.5127,-7.8005,99.1544
-1789.0625,-50.5195,57.0886,-19.2753,-219.8679,-99.8992,116.0669,-22.1188,79.0203,-61.8141,83.7529,-73.4259,31.9966,-78.5605,96.4611,-47.4856,187.9189,-121.5901,-2.8201,-68.0568,73.9119
-1781.2500,58.2697,-150.3902,-14.5144,-112.0719,-96.2414,83.9487,19.6267,46.9039,-21.0130,51.7533,-16.0784,-37.2305,-74.6899,63.8143,-6.7628,155.8553,-153.8003,106.0218,40.8453,41.8135
-1773.4375,-132.5910,-96.5214,-140.4073,-56.9136,-40.2317,67.1899,39.7270,104.1445,36.1383,145.1050,-78.8305,-17.0995,-18.4756,35.8367,-59.7100,29.1446,-168.6700,197.2249,96.1105,62.0633
-1765.6250,-66.4633,-30.6398,-102.3160,-60.7398,-74.2282,32.4524,78.8204,106.3999,112.2820,111.4697,-37.7287,-50.9642,20.7279,-25.3250,15.3068,-41.5593,-138.5570,192.4390,92.3810,-82.6891
-1757.8125,-57.5527,-232.9576,-130.4420,18.2401,-65.4287,41.5349,87.7092,115.4610,158.2049,83.6421,-50.6018,-116.0266,-6.2772,40.0172,61.1134,151.5574,-164.6523,237.4586,136.4512,-73.6531
-1750.0000,-81.8598,-187.4602,-117.7625,30.0112,-52.8216,91.4253,26.4046,128.3237,59.9262,169.6100,-78.2423,-30.2829,-30.4871,63.2974,110.7133,127.4668,-188.9490,72.2868,6.3282,-97.8331
-1742.1875,-73.4128,-2.1650,-32.3356,-67.4693,-41.4573,-6.9304,111.8562,66.9335,145.4070,35.3267,-21.9478,-54.7870,55.0435,-10.2447,122.0681,66.1068,-250.5091,10.8696,85.9648,-159.2794
-1734.3750,-168.2636,-62.1507,-135.2256,-56.2274,-33.4002,37.4230,82.9991,74.2457,189.5945,79.7433,-89.8943,-10.5798,62.2581,64.7844,56.1211,183.4560,-238.3768,-13.8490,26.3048,-78.0371
-1726.5625,-135.6314,-100.6468,-99.6143,11.5396,-35.8474,73.2883,81.6325,146.0588,78.2718,188.6507,-77.1403,25.1418,23.9559,66.5429,91.6634,109.3216,-242.7491,18.9265,-81.8525,-116.2954
-1718.7500,-248.2590,33.6301,-180.2636,40.0519,-78.5492,103.9113,75.0133,176.6225,34.7036,182.3022,-135.0254,18.6155,17.3938,96.3119,-26.0597,138.9376,-249.3802,188.4609,-18.2427,-122.8013
-1710.9375,-185.5444,131.3046,-223.5786,66.9008,-85.9108,170.8907,-5.2517,207.5431,-45.5032,250.3118,-150.0057,12.4479,-25.8330,99.7664,-105.4376,132.8985,-151.6715,109.3561,-61.2713,-165.9640
-1703.1250,21.4217,21.2076,-76.6531,28.0181,-12.0219,97.1328,67.7279,133.7270,-8.4541,65.5897,-24.5595,-98.4701,-25.8147,24.4711,-32.5679,96.1062,-49.7131,35.5106,40.9561,-239.8849
-1695.3125,-136.1092,-136.4242,-172.2205,81.6551,2.3764,111.8885,83.2036,75.4175,43.0785,-29.6250,-96.1838,-83.8952,-11.2998,71.5073,92.7928,147.8158,-32.2541,89.1644,59.6870,-151.3131
-1687.5000,-121.4028,-156.7898,-45.5352,132.5490,-17.9710,55.9066,98.9276,55.3595,59.8507,-12.5947,-32.3629,-30.0710,42.4566,27.2049,108.3778,17.7802,-16.5455,34.0660,4.6701,-171.4997
-1679.6875,-78.9994,-44.4176,-3.1527,139.1452,-12.6228,24.6363,68.3451,24.0060,28.3268,-6.8669,13.7205,-24.5328,84.8994,19.9574,-33.3487,23.4406,-45.1535,111.6716,47.3425,-128.9960
-1671.8750,-113.3410,97.2320,-114.5264,105.0049,-50.0249,60.6204,-79.9937,96.8957,-45.9464,140.1085,-100.5797,85.2621,-26.4168,83.7642,-33.8204,96.3399,-9.5201,6.5392,-92.7377,-93.2518
-1664.0625,13.6645,154.2432,-53.5529,-49.7649,-63.0776,11.9619,-55.9818,48.1396,15.1185,54.4309,-57.4393,-0.5908,-39.3888,8.3505,137.0504,84.5967,-23.5422,-77.2432,-71.4677,-142.1678
-1656.2500,-69.9427,175.6851,-108.1886,-97.1172,-6.7336,-5.2801,-36.5832,29.7928,-39.4350,0.1552,-70.3392,91.9596,17.0231,28.1881,45.3073,29.2702,-1.1648,-19.6319,-13.8041,-49.6928
-1648.4375,-43.8486,201.8457,-6.1150,-35.7714,57.3064,22.1854,-82.4874,21.1463,-268.2845,27.5689,-15.7317,193.2087,44.1256,78.2331,-183.7545,20.6548,130.9072,-98.3278,-92.4329,-58.5318
-1640.6250,-5.4613,135.3017,68.2511,2.8793,95.6451,24.9612,-118.0993,-13.1968,-303.8277,-117.7101,46.1808,121.7824,82.5139,106.1521,-292.5243,133.3457,169.2732,-95.7278,16.2374,-20.0705
-1632.8125,-104.7611,211.0622,-3.0809,-27.1641,98.2765,-9.9550,-78.4098,-48.2354,-154.0707,-77.6882,-40.6654,123.6661,11.1897,68.7501,-142.9814,62.3251,173.9344,-159.8344,22.2042,55.6808
-1625.0000,-87.7293,335.2088,20.9254,-42.8568,84.2564,-96.5154,18.6292,-97.9251,16.0457,-54.3251,-32.4451,110.8890,-1.7912,-75.0426,99.9066,-207.3397,86.9429,-176.5808,75.5344,-31.2221
-1617.1875,-283.3047,243.7794,-75.6759,6.8618,98.6310,-118.6586,69.0521,-120.2046,103.5521,-76.5555,-115.1536,125.5165,12.6096,-5.7980,77.1743,-83.5989,31.3557,-20.9321,161.2586,-16.7333
-1609.3750,-212.8662,174.3326,-108.2666,-27.3982,66.0034,-76.7935,73.4735,-78.4865,108.0514,-71.7960,-97.8360,166.1475,52.9990,22.2340,81.4366,-41.8612,-38.2322,-55.2821,126.9870,-86.2577
-1601.5625,-52.2882,160.0202,-48.7147,-42.4931,125.5324,-89.7652,207.0406,-128.6195,167.7024,-158.8878,33.5571,115.9449,149.5323,-92.8847,-6.1672,-275.9601,-53.6836,-35.4681,182.8635,-136.6324
-1593.7500,-109.8114,172.6423,-149.2640,-28.6932,172.9627,-42.8293,180.5019,-118.8476,67.2458,-75.0748,-17.6850,89.6528,122.9580,-62.3983,-106.8766,-228.1551,29.7460,-21.7498,195.6324,-53.1208
-1585.9375,-40.4379,-3.7855,0.0752,-100.0009,174.2916,-76.9811,181.8626,-116.1735,106.6826,-146.3715,44.7453,18.2533,125.2773,-76.2202,42.3096,-153.4451,64.0545,-128.1221,159.3133,-124.7140
-1578.1250,-118.0765,-82.1948,-7.5947,-142.2990,166.6215,-84.1223,174.2168,-160.4952,246.1114,-190.6642,8.2992,-26.1437,117.5886,-40.6678,34.4935,-13.7355,56.3520,-65.5015,187.9973,-132.3098
-1570.3125,-121.1550,90.9383,-8.7075,-110.0450,91.5029,-48.7180,99.1269,-88.2698,171.1057,-117.4101,-22.5266,47.0125,79.4466,-27.2223,33.2297,-51.4875,53.1922,-68.3305,44.2413,-170.3732
-1562.5000,-7.4971,134.7977,72.9188,-31.0333,63.1338,-77.5553,106.7903,-80.2880,141.8629,-146.4041,69.8979,-19.0650,123.0451,-109.9640,40.7043,-190.4763,60.7736,-24.3999,52.2396,-162.6909
-1554.6875,-92.4943,15.0253,-95.1025,60.3479,79.1075,-23.0331,13.7891,11.0547,47.9570,-19.0375,-22.9941,-1.7833,65.9777,-4.7446,-53.4813,-26.1164,46.7082,31.8763,109.5745,-35.6695
-1546.8750,-97.5821,45.1961,-97.2183,125.6406,-34.0144,-25.6098,-26.3230,45.2891,45.9377,52.2160,-48.4219,-4.6078,26.8061,-22.4002,-19.7848,-64.8696,76.5457,27.0588,103.8179,-111.7592
-1539.0625,-197.6689,86.3792,-126.3334,96.9435,-63.1293,-17.1791,18.5566,16.5213,163.9078,23.4630,-66.9149,3.5718,71.6252,-55.0859,-12.0997,-167.6255,12.3925,174.2390,181.0611,-140.8537
-1531.2500,-212.7869,177.5087,-178.4868,82.2020,-41.2954,79.2044,-33.6072,148.7009,75.8360,155.6490,-121.1029,135.6971,19.3885,48.4799,-137.4606,-72.4346,-73.8134,88.3663,60.2531,-156.0111
-1523.4375,-50.9752,233.5977,-116.7004,32.4216,-89.5112,67.5455,-44.8245,137.8292,-46.2803,144.7829,-69.8485,124.7772,8.0976,76.1055,-185.8740,63.7083,-53.0737,38.4534,81.4030,-241.2185
-1515.6250,-122.4175,162.4615,-192.1690,138.4028,-128.9830,102.6452,-121.3020,172.7148,-85.6518,142.6696,-130.6330,159.6134,-31.4539,142.3992,-225.5464,135.6081,-18.5875,73.2787,80.2928,-206.6826
-1507.8125,-40.0021,104.1968,-66.7875,185.2315,-150.6099,118.6000,-105.9307,151.4472,-70.1775,121.3908,-62.7980,174.2910,-16.1610,109.2129,-174.3727,40.3731,-7.2575,14.9506,-82.9583,-265.3061
-1500.0000,-50.4971,94.0536,-7.3251,140.1616,-128.1377,104.6711,-156.4687,137.2838,-47.6076,70.2194,-54.3072,124.0832,-30.7812,138.3025,-188.1066,174.2376,-52.8332,74.7305,-94.1113,-205.8315
-1492.1875,-179.4390,212.4688,-108.3056,82.6489,-118.1173,151.2994,-293.4548,183.6775,-258.4851,190.6003,-167.6991,170.4389,-94.8612,238.7223,-216.2914,367.6276,-75.8661,123.0626,-221.7180,-122.8250
-1484.3750,39.2586,290.5249,12.3565,125.7943,-144.4440,199.5889,-247.7888,194.7247,-394.7059,164.6223,-55.5307,181.4391,-121.2926,156.0645,-205.8452,120.6824,-104.2550,131.0554,-284.6665,-186.1744
-1476.5625,46.2501,227.8761,14.3156,274.2479,-142.4633,239.1857,-243.8313,197.0757,-355.6350,167.9476,-22.2319,220.7499,-119.4360,107.8071,-313.1096,-133.9438,-61.3380,208.3407,-276.3212,-73.2328
-1468.7500,52.0943,93.0963,19.1311,280.5538,-138.6312,207.6336,-277.0194,202.2708,-350.7204,172.1083,-52.6613,224.9113,-187.7357,135.6866,-198.5171,-55.7191,14.4253,109.4811,-340.1234,-32.4523
-1460.9375,17.0805,22.5030,-17.9170,210.0079,-101.6448,171.2388,-203.0653,128.6203,-240.6708,61.4228,-62.3816,115.2337,-151.8923,139.8819,-89.7841,91.6516,-20.6688,179.7799,-234.7846,-32.5146
-1453.1250,-71.5737,181.2801,-112.6133,192.8056,-86.3119,187.1927,-224.7692,181.3276,-225.2710,151.0866,-147.6429,130.9129,-209.7058,170.3420,-146.7028,144.3681,-39.4172,197.4175,-287.1018,19.7645
-1445.3125,6.2175,329.4982,-28.8648,130.0623,-149.5317,161.5997,-214.0266,155.4815,-251.4126,125.1964,-112.6406,105.0455,-236.0676,131.4864,-174.1802,118.5465,-66.7228,204.5131,-244.9600,-43.5142
-1437.5000,-97.3051,226.4128,-67.4273,132.0331,-113.0522,160.7185,-178.5893,117.3453,-178.8634,88.0154,-127.5363,103.8831,-200.7414,132.2493,-211.9604,81.4340,-100.3337,277.3071,-102.1224,28.9011
-1429.6875,-97.7747,85.3828,-67.9329,168.0584,-40.5211,50.8893,-106.1012,117.2669,-106.2711,160.8799,-119.5058,140.7702,-201.3704,71.9168,-102.6909,-66.6363,-30.9052,207.1512,-136.2339,28.3511
-1421.8750,-30.0065,-22.3776,-32.1983,165.3411,-4.7395,-23.6897,2.6364,43.4373,-34.4137,12.9963,-44.0653,65.9131,-93.7559,49.4750,5.8272,6.5457,-69.2414,204.2557,-34.0987,-9.9497
-1414.0625,-92.4805,-15.3678,-137.7098,172.3784,35.7907,54.4792,-30.8782,84.3581,-139.7937,90.8586,-101.2907,107.8060,-125.3993,125.4931,-173.9003,84.4665,-95.8293,247.1070,-27.2231,67.4851
-1406.2500,-37.3928,7.1935,-40.6636,159.9777,23.8698,80.1990,-42.8491,108.8215,-188.6305,115.2512,-33.2683,22.2447,-101.4967,48.0649,-186.0848,-38.0664,-110.8615,198.5124,-4.7888,18.4632
-1398.4375,-174.8058,80.2624,-112.1150,57.0841,24.4541,81.4218,-5.3312,73.7836,-4.9906,43.1421,-107.1320,-13.8029,-100.1030,73.1301,-148.7812,73.9033,-178.3853,271.4135,68.1384,55.9413
-1390.6250,-215.8530,74.6976,-229.2041,51.5377,-55.6004,148.9799,-11.4606,68.0888,25.9937,0.3678,-192.7408,91.5075,-106.3541,167.6755,-9.1255,215.2122,-184.5599,159.6582,-43.5900,49.7598
-1382.8125,20.2827,65.3415,-54.1081,112.1924,-26.4516,68.7381,17.6122,-50.4057,55.1876,-117.2065,-39.4232,83.0213,-79.4080,47.6919,19.7245,-13.2747,-194.5387,80.1149,17.8871,4.7801
-1375.0000,-44.5851,141.9849,-51.0163,153.8575,12.6994,71.4985,-53.3096,-10.8933,94.3782,-4.7744,-70.8137,86.5376,-149.4654,35.5071,-124.4204,-82.7701,-223.5157,121.5710,59.3568,80.7898
-1367.1875,-24.0518,164.0431,9.4762,69.9189,-36.7384,59.6577,-102.8255,51.0150,191.9703,57.0455,-76.4431,37.4377,-199.1212,-6.0167,-28.1630,-95.8615,-203.0935,2.4309,45.2310,31.1898
-1359.3750,70.2742,46.9219,106.7605,-82.2284,-13.3706,-63.3827,-6.5520,-72.2709,252.3511,-66.3330,36.4817,-12.8565,-65.9844,-88.2540,31.8761,-145.1354,-144.8694,-44.9141,173.8936,54.3865
-1351.5625,143.3697,85.5494,107.8112,-77.6226,24.7466,-134.6794,-41.5300,-106.8114,32.4757,-100.9701,48.0460,25.6101,-64.0993,-36.5476,-4.3395,2.3399,33.1112,-181.5132,142.2954,92.3162
-1343.7500,254.9598,162.6657,153.3556,33.5021,-39.6321,-198.4710,-70.0086,-170.8522,-31.9012,-165.1116,79.2772,-38.4162,-92.7151,-59.6105,4.9410,49.3112,180.5959,-210.6007,148.1986,27.7450
-1335.9375,68.1912,151.4353,28.5444,93.2950,-89.3601,-101.6080,-119.8450,-74.2356,101.3633,-32.5995,-15.0142,-87.7814,-106.6852,-74.3032,-46.1200,-38.0790,203.7385,-186.0450,137.7421,86.8157
-1328.1250,159.9824,-2.2275,162.2932,80.6372,-66.5333,-41.2062,-24.1274,-15.0808,51.1807,27.4431,99.1076,-100.6009,-47.1050,-165.6848,13.3774,-307.9229,190.4317,-268.9464,18.8439,73.4210
-1320.3125,297.2163,-145.4253,306.4876,42.4301,2.7569,-117.3652,9.0412,-127.4793,10.4481,-196.0712,221.4550,-140.9738,21.9265,-171.7294,83.3229,-237.3006,222.5659,-202.4031,86.3869,69.4774
-1312.5000,329.8636,-42.2326,265.0952,39.6216,35.4473,-84.1333,-67.3906,-131.4829,-65.8861,-163.1944,193.8614,-70.9481,-18.6345,-131.8427,41.6689,-204.2795,290.0937,-204.4635,-21.6842,101.9295
-1304.6875,467.1633,166.6155,375.3548,-33.5453,72.7922,-157.2571,-69.1763,-167.8415,-67.5716,-162.6760,308.1152,-181.2621,54.4626,-298.6759,41.6583,-425.6170,321.2654,-207.8661,-25.1044,28.0315
-1296.8750,306.4134,181.4276,315.5605,-86.7618,123.0935,-216.4354,-19.0176,-227.2458,19.6859,-222.1915,261.5093,-277.6183,104.5044,-309.1704,17.5972,-338.0155,301.3868,-157.3243,25.4202,78.0776
-1289.0625,293.6262,64.1898,267.7215,-100.0306,75.3489,-227.6712,-29.8976,-238.7023,45.9034,-233.7742,197.5494,-178.0420,56.4925,-229.6162,153.4949,-201.4579,323.4556,-239.8331,-57.0944,30.0656
-1281.2500,315.3857,-125.4887,254.4282,-42.7570,99.1565,-239.3597,31.7739,-250.6096,106.6669,-282.8146,200.6788,-117.9201,44.0255,-188.7851,250.9379,-176.3315,274.0706,-182.7904,34.9355,-19.3872
-1273.4375,195.2539,-174.0758,163.2476,48.6136,82.0600,-145.9538,13.5370,-157.4123,89.5166,-152.7538,148.9780,-97.6933,62.6587,-134.9021,122.4936,-157.1160,259.7867,-162.6490,21.0533,36.2554
-1265.6250,251.5691,23.7815,225.5174,-34.5584,106.4167,-121.1127,74.7528,-168.7694,40.8253,-201.2501,219.3169,-256.0126,123.7497,-250.3747,147.4996,-279.4619,245.9572,-211.0522,42.6269,-12.6535
-1257.8125,137.5759,192.3642,141.4817,-147.0216,170.4823,-129.5775,138.6579,-215.4291,67.8330,-321.0442,161.8900,-228.6150,150.5311,-206.9115,137.1967,-178.1138,167.8376,-147.7592,139.8893,14.1382
-1250.0000,117.0465,-3.5825,83.9027,-133.0301,187.0035,-77.6100,118.0182,-198.6452,10.2903,-194.4015,106.8285,-102.7658,92.7652,-94.5564,79.3508,-52.3329,111.1670,-134.0203,49.5945,-6.6268
-1242.1875,145.5623,-326.4957,150.3716,-33.9845,179.5829,-47.6079,110.4290,-132.8227,39.8037,-92.7190,174.7839,-145.8740,85.0589,-160.6410,35.5689,-279.5048,68.5453,34.7755,148.3532,-14.3301
-1234.3750,-7.3112,-407.8434,23.4476,60.6620,199.7682,83.9794,57.4457,-38.4027,-50.0908,1.5585,82.8432,-124.3806,31.9599,-84.0724,-18.6014,-258.0668,57.5309,129.1603,136.7049,79.5642
-1226.5625,161.9162,-238.0801,92.6286,19.3996,158.0610,79.6494,89.5699,-43.8913,-127.8911,-76.0789,139.3343,-165.7879,26.9661,-82.9556,13.3224,-152.5138,15.6140,17.6539,95.1582,37.5503
-1218.7500,112.0733,28.6666,38.7458,-135.9175,215.3081,-10.7324,145.6409,-169.4264,1.2612,-238.7613,110.8164,-219.2377,83.9168,-99.8825,33.1914,-23.0227,-35.3469,2.1033,185.5492,57.4829
-1210.9375,55.6045,-133.2187,89.2310,-156.8894,154.9101,3.2179,86.0747,-118.6235,51.7667,-115.1117,71.4689,-131.3453,23.2244,-57.5042,120.4179,-9.2121,13.0521,-54.0991,94.2890,70.7550
-1203.1250,246.3912,-292.8663,215.9677,-141.6015,98.7739,20.4069,102.7550,-101.5756,68.5129,-135.2191,177.4590,-78.2001,39.7843,-61.0801,135.8898,-65.1595,-7.2893,-74.0421,39.2847,50.2814
-1195.3125,120.5350,-67.2005,7.0544,-125.9487,72.9865,68.9362,39.7808,-53.1729,79.6065,-49.9696,49.8367,-65.6920,14.6916,-17.5962,73.7215,20.2527,-62.2764,-58.6392,-15.3840,135.1493
-1187.5000,141.5727,130.3492,31.0433,-209.3985,24.1036,20.3533,27.7194,-28.8791,30.6187,-25.8347,40.6652,-114.2890,1.5062,-58.3346,135.4648,44.5799,-41.3687,-177.3386,-64.1509,85.9069
-1179.6875,94.6416,47.9786,91.0779,-291.8100,47.2806,-28.1952,87.7069,-115.5355,127.6739,-149.6514,65.5560,-90.8319,61.3758,-37.4183,121.2560,104.9575,-52.4029,-118.9956,-6.8787,108.7175
-1171.8750,-58.4610,1.4284,39.9386,-233.4272,-2.7371,-4.9680,36.4929,-92.4004,187.5062,-52.6743,-24.7865,5.4243,11.0537,-20.0959,180.8526,18.1077,-29.6264,-130.8612,-88.8182,131.3229
-1164.0625,116.3558,1.7783,117.7116,-127.1400,-35.8435,35.1362,78.1757,-88.3799,154.2298,-121.8167,73.0418,-27.4261,14.6458,-87.5502,147.3490,-160.8481,4.0562,-130.8218,-54.8597,24.8367
-1156.2500,130.8369,-54.2120,-16.8617,62.7964,-23.3012,121.8777,53.5048,-74.7132,19.5979,-72.3142,31.0222,59.3775,-10.1179,45.7656,-60.4978,-2.1532,-17.6063,-81.1358,-40.2689,74.0043
-1148.4375,121.9136,-167.6155,-23.8275,89.3387,6.8401,115.1982,83.4381,-46.4505,12.5723,-80.2204,36.2841,125.7810,19.7246,56.3969,42.2665,-45.8577,9.3360,-124.8461,-84.0773,29.7682
-1140.6250,24.4717,-54.5392,59.7030,-113.6164,16.4881,14.0051,165.8682,-145.6803,169.0495,-254.6120,78.2677,25.6804,139.0735,-71.5074,198.5344,-182.0544,16.7836,-12.0525,-5.3920,2.0363
-1132.8125,-76.2459,-12.7736,27.9477,-141.8708,94.8496,56.4887,97.0097,-104.2119,100.2321,-138.3022,28.6464,-5.7292,107.1317,-51.7363,129.5204,-139.5752,56.9352,28.4254,-71.0144,7.0000
-1125.0000,110.5443,-72.5131,42.6890,8.3665,110.7221,34.4503,75.6641,-89.2555,-68.0742,-87.5164,95.6350,-63.6387,85.7010,-51.2054,34.0109,-88.5993,137.5893,38.4009,-25.1274,-88.5236
-1117.1875,15.3684,-97.1946,-58.5316,195.6439,119.6467,80.4459,11.3612,-117.2543,-169.3397,-115.6860,25.0988,-17.4840,57.3226,75.1367,-104.4451,104.4644,148.2983,120.4151,20.7990,-42.9971
-1109.3750,-84.3527,-90.4170,-51.2921,236.3558,53.0224,87.8701,-92.4808,-72.8099,-235.1460,-108.4125,-53.7371,100.1142,-8.5967,182.6037,-97.4408,258.9753,153.4459,19.8851,-43.8223,-73.0330
-1101.5625,-72.6316,-113.1967,0.3933,143.5084,68.8544,66.7274,-40.8639,-93.9131,-110.4838,-129.6749,-12.2707,42.1571,42.9368,136.9224,-81.9823,237.9076,95.0383,32.8204,39.0039,-131.6065
-1093.7500,-150.4983,-14.5935,-46.5153,102.0607,132.0872,92.9657,-13.8439,6.3840,-121.4243,43.4592,-61.3280,68.5929,-4.1284,125.7796,-130.1094,154.2332,52.0458,-9.8422,-3.7782,-68.7809
-1085.9375,24.0451,-15.5912,63.9840,30.0176,58.7266,130.5748,-50.4185,80.0676,-120.9652,80.9687,39.9186,32.4196,32.2176,57.0352,-129.8317,43.9691,15.4664,-116.1049,-40.1484,-105.5579
-1078.1250,2.7846,-142.3926,2.6841,9.1873,33.5735,105.3629,-1.7906,54.9425,37.6984,55.6779,22.5964,-28.5350,43.7602,50.0047,-118.3520,92.8965,-40.9029,-67.1739,43.6684,-57.1325
-1070.3125,-42.7208,-186.4468,-83.8513,-35.8939,22.1795,129.8777,-14.4119,116.5606,62.1150,80.1349,-51.2734,-3.7389,-4.9367,99.7831,-20.1104,191.5440,-51.5177,-148.4902,-36.7648,-32.9605
-1062.5000,-2.4853,-180.7458,-4.6416,-101.2364,63.5411,98.1266,63.7218,11.9218,31.2886,-61.6602,12.4507,1.7965,73.1310,86.0323,57.8974,196.9277,-82.3773,-177.0418,-31.4436,-28.0298
-1054.6875,-93.9405,-131.7662,-32.1361,-86.2869,110.2085,70.6556,36.1727,-15.4196,-33.2146,20.8353,-1.5510,47.6254,119.5018,75.9944,30.2218,132.6170,-137.9284,-93.3015,-87.8330,91.1946
-1046.8750,-32.1458,-34.5560,-2.3749,-129.0932,67.1378,27.4126,66.8890,-22.5270,-3.4504,51.5545,37.4982,-32.3041,149.1361,-22.8339,97.7957,15.5753,-110.2259,-66.3056,-130.9659,47.6651
-1039.0625,-55.4615,-22.4313,-25.7120,-222.0013,6.9790,-32.9488,80.5017,-45.7389,120.1930,-45.8214,18.5663,-127.3264,162.6798,-17.6278,110.2772,176.4176,-99.6121,-19.4112,21.7899,24.0436
-1031.2500,-20.8093,-92.3588,-26.0826,-256.9513,6.7733,-69.3914,80.0719,-9.0059,83.7809,-9.2469,9.6296,-91.4043,125.1786,-13.4389,183.7237,176.1738,5.9620,-159.5690,56.4910,23.3718
-1023.4375,164.2950,-257.8579,93.9925,-282.4444,90.0194,-133.4090,162.0907,-72.8257,165.8316,-109.2234,150.2992,-229.0313,171.1273,-161.0612,302.6144,-35.6146,119.9918,-220.2725,135.6478,32.1600
-1015.6250,50.9517,-230.8026,-28.3781,-325.3841,113.8144,-72.8971,149.6555,-85.0938,153.4232,-48.6462,72.3947,-204.0991,158.6232,-108.5962,216.0663,26.1530,112.5850,-122.4320,128.3387,129.4976
-1007.8125,-8.6376,-114.9877,-49.9847,-350.5801,20.3644,-93.6618,128.9802,-69.6236,132.7697,-70.3323,7.2060,-150.4252,137.8840,-43.7751,233.2815,189.6628,86.9251,-146.8346,32.7845,-1.4170
-1000.0000,-77.7353,-217.6834,-9.0984,-242.2836,-12.5787,-90.9474,169.8132,-65.6553,210.6235,-175.5104,11.0485,-147.2499,178.6540,14.2746,236.0045,303.6668,18.7684,-179.7389,69.7301,-34.8238
-992.1875,-82.1110,-187.6816,-56.5022,-177.2970,-59.8133,-63.5640,48.3602,-2.9989,126.1980,-40.0019,-26.7860,-11.3797,131.1347,27.6600,188.4485,182.3474,48.3193,-220.9547,-41.6305,64.4635
-984.3750,76.0582,-29.1335,36.6485,-123.7642,-76.4872,-117.6596,31.4657,-19.8060,72.3342,16.0497,86.0666,-27.9621,150.1747,-170.7971,208.4505,-274.4239,66.4235,-132.6106,-23.4369,47.3091
-976.5625,-15.9312,-14.7649,-60.3500,-38.3777,-27.3043,-68.9263,6.4263,-42.7647,47.3208,101.9523,38.9184,58.2992,163.0780,-125.4153,110.3110,-299.3431,44.3882,-13.4174,-9.4002,96.0092
-968.7500,41.3286,-63.1678,-35.0933,-17.7556,-37.8637,-79.9789,-40.3414,19.5104,0.5746,128.0838,20.1164,85.7971,115.2530,-17.2184,99.4464,-16.0213,66.6066,-130.9746,-163.0970,11.9573
-960.9375,8.7684,-24.3599,-30.6516,-13.9411,-33.2169,-76.8572,1.1073,-13.0204,42.0521,-14.5795,32.4522,-57.5042,156.6330,-23.4505,103.7975,98.4866,-0.9755,-59.3288,-90.5820,-20.8824
-953.1250,-161.0287,87.2043,-100.4593,-8.3882,6.1825,-1.0072,-33.6814,63.2046,-29.7120,98.5162,-51.0144,-90.0585,85.7643,-23.0310,-4.0854,27.7305,4.1915,53.0661,-119.3200,55.0288
-945.3125,-84.6263,-47.0533,-55.0653,-0.6527,-57.2146,83.0258,13.7363,146.6288,-93.2697,144.8104,-9.5635,-81.4226,59.1059,-43.1196,6.2412,-108.8228,11.5630,59.6690,-112.8483,-8.8501
-937.5000,-124.7771,-121.8742,-135.2182,-7.4870,-65.1567,111.4814,5.6082,138.4994,-64.3734,136.5587,-36.4718,-52.3488,87.9052,-13.1186,35.0366,-79.9301,-30.6026,123.7203,-48.9302,19.7283
-929.6875,-152.6695,-115.4617,-91.1054,0.9133,-55.8466,119.1532,14.7470,110.6102,-18.2022,145.5430,-53.3867,30.9602,59.9673,2.5286,80.0941,-107.7940,-93.5159,26.0281,-145.7575,-8.4499
-921.8750,-105.6714,-32.1832,-41.0960,14.2251,-42.6263,58.6992,64.7919,50.6190,31.8751,11.4372,-16.4384,44.1780,72.9348,-1.8788,57.0414,-94.7566,-149.5223,74.2509,-98.6828,4.2812
-914.0625,-217.5621,32.1857,-199.9761,77.6463,-54.3011,155.3219,-21.0585,73.7247,-127.9501,71.4319,-138.7172,141.5027,-12.9899,137.5939,-65.8996,75.3574,-191.4161,138.5647,-104.5145,138.1125
-906.2500,-148.1367,30.8613,-163.5518,6.3602,-127.6695,155.2075,-57.5907,111.1094,-127.4526,145.7024,-134.6240,105.1128,-49.6051,120.7202,6.4847,112.7653,-193.0104,66.1793,-176.0358,101.2499
-898.4375,-117.2154,62.0381,-95.6288,-67.4274,-96.5372,111.5662,-26.6215,104.9874,-59.4453,139.4743,-108.3275,62.2220,-92.7204,80.7497,-71.6154,69.6768,-197.0994,97.2934,-110.0664,131.8954
-890.6250,-47.7495,61.7607,-61.1387,2.3395,-61.8548,72.4472,-103.0977,102.4116,-171.8902,173.7931,-95.7920,133.8794,-131.2746,114.0482,-147.1583,104.1256,-92.6305,27.9632,-251.5497,166.0870
-882.8125,21.2473,96.0266,12.8961,2.6509,-60.6140,-0.1409,-102.0144,30.3830,-207.7860,27.6714,-41.0325,98.0858,-94.2712,121.7142,-183.1547,216.1202,-93.6028,26.1976,-181.4731,129.8371
-875.0000,-117.5942,168.4295,-97.9191,-31.8919,-98.2172,-1.6004,-175.7738,102.5031,-171.5151,136.7030,-145.7397,134.4424,-131.1163,192.1743,-257.9832,362.2543,-127.4225,62.5793,-110.2534,165.7396
-867.1875,-19.9661,56.2592,-27.2799,-3.9847,-99.3679,-41.6462,-104.0635,174.0571,-99.7615,208.1695,-80.5426,133.2306,-133.4976,84.6533,-112.3358,102.8286,-98.7926,20.4133,-117.5676,53.0991
-859.3750,31.6016,-32.9696,-10.6984,-22.1347,-46.5626,-135.7706,21.6006,117.5601,-11.0448,77.6016,-25.2606,38.9615,-79.9236,25.1535,-23.7283,82.3464,-82.2130,73.2034,-64.9299,69.4267
-851.5625,-91.3860,54.2447,-141.6570,30.1523,-104.3069,-84.4710,-35.2789,132.5145,-67.8738,129.4823,-154.8359,128.1375,-138.8920,160.5102,-43.6585,318.3099,-136.1823,89.4439,-224.8423,121.2053
-843.7500,-73.0482,36.7897,-83.2724,47.7864,-156.7061,-100.8372,-87.8030,116.8112,-47.3341,150.7067,-156.9047,112.6650,-191.5043,154.7585,49.7802,339.6372,-188.8014,143.0487,-206.3980,68.3416
-835.9375,-164.8146,-17.7639,-180.9963,62.3195,-180.2079,-126.3205,-75.4193,129.0104,2.1154,125.8389,-202.9415,125.1036,-178.2159,160.6636,25.1360,314.8567,-104.5111,227.5479,-87.0667,117.3800
-828.1250,-61.4640,-21.2248,-71.6066,95.9544,-107.6019,-200.7298,-39.9212,54.2991,-71.3300,125.0624,-103.1285,124.6364,-142.8126,31.6467,24.5923,19.1560,32.8802,190.1518,-124.6268,79.5272
-820.3125,-67.6621,42.7418,31.2298,195.0369,-76.5353,-318.7121,-9.9712,-24.9656,-77.3209,44.7457,-18.7274,81.6124,-74.9535,-80.0282,-90.5056,-206.1121,97.7293,325.2178,-25.7246,73.1476
-812.5000,-109.6519,177.9008,-48.7244,259.2985,-84.2730,-327.5237,-89.8103,39.9634,-195.0941,110.6245,-86.7070,110.7749,-119.8876,-15.3592,-172.3715,-67.1885,126.7824,284.4849,-136.6212,101.9650
-804.6875,42.1761,189.8987,3.1654,95.3934,-69.1568,-422.5062,-74.7803,-17.2711,-215.9878,16.3456,-49.3278,126.7705,-103.9570,39.9395,-83.3633,205.6037,137.6823,154.6181,-90.6546,7.6299
-796.8750,19.3418,131.2293,-21.5960,1.8413,17.3217,-484.1584,-62.3844,-42.1563,-129.5276,28.4219,-65.2184,176.1272,-91.6726,85.8199,-142.9995,327.7345,114.9447,167.1004,-43.3458,19.6473
-789.0625,46.6846,18.6954,81.8096,65.4450,9.9612,-492.6889,-105.8273,61.0951,-136.9145,167.6369,-5.5973,168.6321,-99.2280,-8.2606,-150.4812,62.9797,142.3647,124.7421,-85.8765,11.8201
-781.2500,85.7663,-48.0819,158.9535,104.7958,14.3524,-452.4949,-28.5141,-8.9063,-23.5374,61.6091,84.2123,-11.1240,-22.0323,-132.8088,-37.2056,-116.0346,146.5449,94.1533,59.3523,15.7546
-773.4375,37.5437,9.8249,32.8055,127.8399,-1.5544,-322.6250,-7.4902,-24.2060,34.5582,8.2966,13.5663,9.7981,-37.1351,-77.3598,20.7818,-58.3578,134.4347,-23.7307,82.2871,73.3822
-765.6250,104.0251,76.3875,69.3700,123.5820,-38.7506,-324.0782,29.2491,-62.8111,144.3618,-102.3227,31.1178,9.4147,-38.5279,-95.6934,93.4701,-60.9738,95.0278,-167.9015,77.9368,-1.2885
-757.8125,-7.2921,35.1444,23.1362,83.5233,-10.7433,-260.3495,-16.8069,-70.2204,209.3632,-110.7398,-7.3127,37.2345,-10.7179,-45.1555,85.3681,3.6065,-51.1749,-66.8726,107.7877,63.2474
-750.0000,-24.7481,123.7742,-32.2386,65.3021,-101.8867,-133.8001,-107.9964,-16.7916,43.2437,15.6798,-70.8464,91.8879,-65.0513,12.7555,140.1333,58.0024,-103.5208,-84.9941,-49.4955,80.6282
-742.1875,80.2208,122.8588,4.8299,29.5191,-174.5770,-96.8215,-106.7235,-16.9206,44.6032,-20.4480,-29.1072,55.9904,-64.9284,13.1190,104.3579,95.8371,-139.4165,-50.6505,-16.3157,44.4695
-734.3750,-35.5169,-133.7852,-44.8078,54.0428,-151.9678,-38.5633,-84.1378,42.2545,67.2766,75.7386,-55.3094,41.4075,-41.4992,54.5852,52.9036,117.9574,-80.0160,8.9972,43.1628,103.6136
-726.5625,67.3641,-240.8761,66.1630,53.1693,-76.7485,-75.7366,27.0678,7.0104,142.5677,77.5126,53.7536,-30.5885,-4.4567,-102.6245,128.0698,-211.3296,58.9915,-27.7510,77.2583,31.3643
-718.7500,12.8891,-83.3360,82.7899,-1.0722,13.1287,-133.2858,80.9371,-85.5935,159.5243,-53.0706,57.6473,-13.9496,12.2464,-126.8484,34.8999,-267.9608,75.6609,60.1493,129.0081,47.7727
-710.9375,-12.4935,65.3097,21.5255,8.7634,-47.8913,-86.7531,-17.0768,-75.1039,25.5957,-41.5536,-16.9442,35.7772,-48.9409,-44.9649,10.8431,-109.5025,119.4295,69.1507,32.8719,-13.7234
-703.1250,150.6072,17.4735,160.7438,-38.9141,-18.4077,-94.7297,12.4154,-119.1082,92.1910,-159.5238,100.4722,-119.0073,17.3704,-69.9231,3.2926,29.4500,107.6917,21.6663,56.2482,-131.7038
-695.3125,141.2661,-132.8065,146.5059,-13.0516,77.6176,-74.1731,-1.5365,-97.5569,151.3521,-100.9277,122.3668,-133.2377,40.2261,-108.7767,26.3054,-96.0653,97.5079,12.7309,46.1721,-36.1228
-687.5000,196.5837,-112.4812,168.9358,7.4628,63.2930,-162.9935,57.1723,-112.3722,174.1839,-78.6952,174.6799,-74.8212,98.7384,-234.3677,158.9747,-403.9395,47.9859,-72.5399,31.7631,-50.8837
-679.6875,37.0812,45.0082,76.5647,-45.8164,45.1655,-218.6316,76.0850,-166.9911,193.2299,-170.2597,93.3153,-56.2029,154.4543,-157.4351,140.8552,-165.6065,-40.3273,-19.6022,83.5578,-69.4355
-671.8750,-136.1320,12.8012,6.4876,-113.8021,12.3376,-144.9879,6.3159,-54.3110,85.5968,-57.5146,-34.0307,20.7003,83.4722,22.6214,70.0608,168.0134,-72.3412,-16.3616,16.6619,-66.6911
-664.0625,20.2898,-182.7530,136.0494,-97.1558,31.1659,-89.7093,25.2138,1.0209,31.6334,34.8853,99.8266,2.2336,140.1445,-47.1736,52.9249,-33.7234,-56.7063,-35.4498,32.4401,-121.2863
-656.2500,-50.2845,-78.3224,57.6086,-27.5231,63.9968,-95.4405,22.1214,-2.6446,28.6755,104.2907,70.4972,-1.2366,135.8141,-93.3275,-61.2060,-184.4469,-22.0723,34.4651,102.2244,-51.8779
-648.4375,20.6454,-6.4024,23.6699,8.6005,30.3313,-93.6913,24.5476,36.1744,68.2436,181.1877,54.3308,-35.2169,64.9897,-137.2034,15.1731,-255.6600,14.0505,35.8878,68.5270,-85.9726
-640.6250,-26.6934,-53.7253,-24.5336,31.4718,18.4176,-70.2013,86.7331,23.7421,93.5822,57.8440,32.9060,-121.4474,52.9194,-108.0496,3.3105,-159.1378,1.9184,200.0712,197.5900,-98.3066
-632.8125,-224.1385,64.8529,-123.8266,80.2424,31.4042,-22.8290,25.8301,72.2108,-78.1598,106.4083,-77.9785,-35.7796,28.7513,26.9210,-167.6379,37.2456,-19.3169,249.1561,141.5613,-49.7430
-625.0000,-144.3470,3.6457,1.1327,90.2697,45.6442,-10.2204,40.1882,49.9265,-99.6292,10.2301,17.7130,-57.8641,79.8387,-28.8075,-153.3342,-96.1330,-10.3090,294.5111,115.8027,-145.9169
-617.1875,-124.5138,-152.5339,-51.8703,110.3549,65.9311,45.4226,97.6009,-4.3058,-42.0247,-6.8853,14.9101,-37.8919,62.9747,-35.6388,-58.9617,-187.4683,-60.2532,384.9118,206.0935,-126.0271
-609.3750,-99.9189,-21.9616,-134.1213,135.1925,57.9558,108.7919,89.7747,61.2014,-50.6397,95.7414,-32.3759,-10.1837,17.8580,-25.5517,6.1893,-196.0652,-70.4437,305.0641,126.1470,-171.3867
-601.5625,-138.0343,-24.0686,-135.0706,238.3291,93.2759,69.4420,125.2477,60.0018,-13.9398,20.6759,-40.6951,-85.1779,17.0304,-7.3254,5.6297,-87.3665,-37.3232,302.5261,159.5103,-209.4304
-593.7500,-301.2487,-82.2844,-200.0986,321.3650,140.4919,114.9781,24.6208,105.6965,-77.3358,140.5112,-127.3137,-2.2818,-10.9035,97.3503,-169.0357,32.2366,45.7081,209.8942,66.7802,-126.5695
-585.9375,-154.0601,-41.1251,-5.7227,222.7875,77.1061,49.9033,-1.5921,114.7840,-140.3135,112.7342,-42.2934,8.0033,-37.4300,59.1810,-232.2969,5.2344,122.1376,41.6856,3.4738,-190.3015
-578.1250,-60.5313,-17.6379,54.9823,140.5568,64.0668,-1.8215,-14.4427,102.2285,-78.9245,100.3286,10.2296,-5.3547,-13.6126,36.0220,-281.1902,28.5642,110.9061,-5.1549,62.5215,-166.6782
-570.3125,28.1944,36.0379,35.8859,123.5182,8.2161,14.6500,-69.0774,155.8720,-60.3032,154.1323,-5.4734,49.4784,-68.5939,21.7594,-152.8584,-27.9203,128.8705,-126.7892,-60.2124,-148.8613
-562.5000,216.8961,12.7187,85.7768,30.4696,-15.6339,-10.8771,17.3041,58.5191,26.3351,-17.0615,86.5728,-47.7005,-19.5698,-52.0399,7.4792,-51.4027,71.8317,-149.4122,-11.9228,-136.0347
-554.6875,77.6936,50.5056,7.7608,-37.4984,-19.3892,20.6920,50.7958,17.2716,60.0888,-58.1435,14.5605,-52.7857,-23.4465,-0.2122,-33.0756,54.2069,38.8912,-109.9337,26.4768,6.8956
-546.8750,127.7321,135.5293,97.9904,-126.2332,-1.8934,-37.4935,68.5503,-2.7294,-32.8821,-40.9725,79.4177,-72.6284,30.9285,-54.1335,-52.3781,-2.9310,89.1939,-129.1897,42.1468,-12.9218
-539.0625,94.4937,32.2720,136.9542,-160.2118,37.3533,-110.9249,71.0557,-74.9721,6.9072,-112.0368,86.7294,-106.7168,33.0472,-47.5760,-12.9284,72.6876,126.2475,-22.6800,149.5764,-10.9792
-531.2500,23.7048,-109.5505,63.3766,-55.7339,37.0520,-38.9120,-2.9750,-1.7706,7.1542,34.3493,9.9507,2.6425,-41.3777,22.1647,-13.0138,71.7367,125.7525,-57.7115,44.4701,-11.5908
-523.4375,205.6981,-138.5791,107.5850,-13.4632,45.5572,4.8929,5.8126,-30.7740,-20.7746,5.5407,109.6733,10.7887,4.0041,-42.1966,-4.3031,-105.4171,97.0522,-85.9182,51.1903,-40.3980
-515.6250,84.6849,-82.6099,-23.2084,-99.1992,25.0615,19.6989,22.6112,22.2300,33.3173,-15.2543,12.5159,-10.0734,-16.6185,16.2298,49.4004,58.4190,11.3507,-64.1221,71.9225,49.7920
-507.8125,29.2242,0.9052,-6.4481,-119.3903,5.1127,-1.9494,2.9761,38.7777,50.9854,1.4966,-21.7768,-30.3960,-36.6904,0.6408,176.6638,74.7779,-8.8081,-119.7607,-53.7707,29.5271
-500.0000,1.7809,80.4685,37.3406,-110.5307,-23.7876,-33.5415,10.3974,-27.6249,132.7313,-63.6930,18.3043,-58.6618,7.2786,-94.2030,110.9923,-138.8153,-34.9221,-5.3429,60.5946,73.3167
-492.1875,-24.5179,194.1773,-62.7217,-136.5195,-14.5458,11.0165,-52.0277,17.1236,68.6445,91.2667,-42.4473,59.2229,-19.6026,-45.3897,9.4832,-130.2440,-59.8833,4.2212,0.1082,82.2507
-484.3750,30.2819,108.9786,-35.6811,-117.4100,-23.2044,0.6678,12.6547,44.9654,60.6674,45.3181,-32.7915,50.1961,-28.3807,27.7781,75.0744,80.4378,-111.7451,24.8932,-14.2569,-73.7095
-476.5625,-93.3125,-85.6128,-92.0339,6.2979,31.7443,53.9134,30.9446,62.4049,6.2963,26.9807,-71.9370,67.7624,-10.5595,108.3042,93.2738,171.6880,-129.0039,43.1660,3.9808,-56.0676
-468.7500,2.6443,-235.6655,7.1732,66.5536,93.2421,40.7076,56.7991,14.3919,-41.5075,52.1965,35.7416,19.8675,51.8143,1.9415,119.0267,-61.5319,-68.7216,-36.9964,-41.2105,-30.8779
-460.9375,50.3693,-187.9183,93.1620,-61.3926,180.5342,-57.6881,143.4517,-83.8168,83.5089,-82.7738,164.7252,-114.2277,211.9780,-160.4087,59.5744,-268.9456,-90.6520,12.6560,148.4154,-17.8720
-453.1250,-52.2588,96.4781,-13.2060,-197.7029,147.4662,-55.4351,110.7637,-80.3715,124.1988,-79.0886,41.2468,-110.6813,141.7849,-93.0436,26.7895,-45.7188,-121.9384,-19.0352,117.7076,-14.2122
-445.3125,41.4076,189.1532,15.7166,-244.7183,66.6934,-27.8814,141.3938,-50.6324,155.2170,-123.1077,47.5013,-192.8418,97.8900,-94.1771,130.3265,56.8077,-133.9297,-30.4078,106.3250,-132.2473
-437.5000,-60.5306,-52.7733,-56.9655,-136.3267,67.3203,45.0746,179.4309,-13.4946,230.6526,-11.7153,22.3878,-190.5970,98.3862,-117.0439,168.2668,-127.2884,-130.5141,79.6243,216.3531,-57.8765
-429.6875,-110.1136,-207.3341,-72.2840,26.4132,16.2959,102.3754,127.8317,117.9835,142.4624,157.0226,-21.8202,-23.0167,10.2342,-58.5545,79.5438,-252.0691,-73.7468,67.0134,132.7560,-36.1585
-421.8750,-90.0607,-82.2519,-11.9596,45.7896,-34.0771,87.3319,114.8870,67.1048,92.9370,32.4086,-12.8705,-36.7945,-3.2753,-20.4142,-6.5359,-120.1773,-88.3359,52.0698,153.8252,-86.7830
-414.0625,-194.0101,93.8095,-49.6334,47.1535,-34.4592,122.2923,77.9479,66.2321,57.4278,32.8020,-93.3579,-0.5788,-77.7911,18.2850,-43.5943,-84.2621,-87.9346,54.1255,84.8967,-50.4142
-406.2500,25.8293,69.6675,-35.5152,57.3108,-57.0409,134.0552,92.8239,80.1598,-1.2561,83.0004,-17.4015,-23.5714,-63.5077,-30.1217,44.1547,-144.5566,-111.7370,-5.0024,25.7947,-110.2461
-398.4375,36.1468,79.0263,-100.9160,32.9731,-48.1222,105.3257,65.2110,51.5918,8.5739,91.7195,-39.6039,-15.0607,-54.7250,19.9320,17.4069,11.6165,-137.0318,41.3751,107.2122,-64.5712
-390.6250,-80.2303,139.6762,-185.0115,22.9341,-59.9055,128.9016,17.9140,150.3258,-2.2774,190.7411,-128.3168,46.7357,-103.6381,64.7788,-31.0363,36.0668,-77.0331,-2.9448,62.9463,-39.5996
-382.8125,-69.8683,149.0772,-64.3611,-2.3613,-84.9428,65.2435,30.3654,124.8137,120.6305,91.5171,-67.5743,-15.7187,-54.8107,13.0824,-55.7465,10.2775,-66.2958,-27.5024,108.4419,-64.8678
-375.0000,-157.6536,131.3394,-121.8582,15.1860,-69.1463,78.4474,8.6531,103.1588,137.3929,33.1508,-111.9073,35.6792,-40.1473,75.8228,-76.6009,98.3478,-83.7099,-9.2136,92.7907,23.7118
-367.1875,-71.1390,77.8950,-68.0558,33.0303,-51.0576,58.9530,-8.7495,47.7924,120.4833,52.0771,-64.7524,91.3688,-21.1857,30.4026,52.8621,-31.2912,-66.8249,-61.6132,4.4617,5.5898
-359.3750,-88.1491,95.9348,-49.7685,15.3769,4.5319,2.9733,47.3548,-8.0691,103.0908,-40.4837,-48.2509,35.5624,-2.7331,25.7223,-2.1726,23.5581,-48.4395,-7.5071,59.6414,23.9787
-351.5625,-185.0607,174.0710,-150.3797,-11.1773,-23.7769,83.0986,-17.4335,0.1679,38.8123,-31.9421,-143.6111,80.8422,-31.1805,113.9746,-66.1153,178.5044,-4.9534,-103.3024,-71.0658,32.4678
-343.7500,-83.6320,100.5641,-42.6484,21.6133,-24.7391,43.5784,19.1383,-75.2516,75.9117,-179.0532,-46.1919,79.4607,41.7204,56.9852,-30.7059,66.7929,27.8756,-175.7277,-74.3963,-5.6825
-335.9375,-73.1037,5.1623,-72.8224,101.5078,18.3934,85.1691,-10.1822,-142.5716,-26.8749,-173.0613,-39.0186,195.1856,46.7139,81.9067,-60.1813,-37.8358,72.7951,-164.0502,-62.6133,110.2717
-328.1250,80.9126,-16.7497,14.4977,115.9019,33.0201,135.2709,-67.9881,-127.3965,-157.1443,-121.5783,13.5591,209.4050,-10.7968,83.0816,-8.1538,-59.9587,122.2085,-220.8630,-153.3101,88.7262
-320.3125,96.3505,-1.2198,71.2481,25.7439,16.0962,116.8435,-12.3473,-181.7669,9.0468,-175.6336,56.2145,82.0741,45.1321,38.1808,11.3124,-5.6130,68.0712,-133.2185,-65.5465,34.6401
-312.5000,-34.8523,114.6642,7.3611,-68.0732,26.5153,199.7732,-37.3513,-134.7855,57.6033,-91.3339,-25.0435,92.0825,18.4092,56.8358,22.1340,4.0601,43.2799,-157.2236,-125.4255,44.8990
-304.6875,30.9485,109.5503,114.4724,-107.8937,23.9364,195.7121,33.6474,-65.8125,19.1802,-131.0394,60.4367,-58.9178,52.6860,-25.9966,56.9580,-73.2838,38.4791,-161.2120,-93.2844,5.1620
-296.8750,-69.7083,-25.0077,41.1243,2.8433,-11.0946,231.2220,-0.8094,-64.2862,-51.6927,-94.1849,15.0255,-131.3619,16.4966,1.6536,21.3303,-35.0714,43.2260,21.3511,52.4042,115.9790
-289.0625,26.7341,35.5285,-2.1261,-6.3130,-18.0321,186.8490,-43.1645,-70.6573,-93.4579,-27.2288,3.2764,-100.7077,-26.5979,-0.6288,14.7962,-6.7609,71.0735,-20.9779,10.2116,72.8917
-281.2500,43.7497,87.6700,20.2128,-94.8665,3.6308,134.0928,15.0811,-123.4265,39.3950,-79.6643,23.0373,-116.4522,-5.1020,-35.8591,0.8511,-21.8530,17.5175,31.3042,133.6337,-15.5854
-273.4375,-41.7770,38.2716,-34.9882,-38.9814,22.7377,225.7974,-38.2140,5.2499,-13.2910,87.3482,-42.0253,12.2482,-95.1609,7.5765,-88.6384,-149.5117,38.4052,52.0332,85.5136,40.3837
-265.6250,61.8502,1.0258,40.9589,65.0427,-49.0117,262.6671,-73.3463,44.0677,-119.8086,88.5007,19.1725,14.0820,-95.0709,-5.1532,-87.9728,-222.0291,106.4330,86.9237,49.5659,-31.4935
-257.8125,-17.8327,-114.5350,-5.4070,55.7749,-21.0746,252.2643,-7.7890,-2.4031,-55.6193,6.3745,0.4260,-32.3811,-30.2969,60.7942,-96.6096,-11.8353,97.1553,113.5149,146.3259,-40.6668
-250.0000,25.3280,-176.2493,41.0728,-111.6348,26.6998,224.7245,76.6240,-29.0197,67.4387,-56.8995,17.6800,-95.9939,-19.6769,56.6133,-11.3947,108.2087,106.7293,-53.0435,85.9510,-67.0008
-242.1875,94.1200,-72.2928,113.1959,-218.3995,61.1249,147.8497,112.6862,-104.9883,140.1624,-132.5236,63.8003,-170.9552,-21.4132,-34.9472,60.4619,31.9007,33.9497,-53.9495,120.2391,-68.6823
-234.3750,30.2204,75.9854,3.6330,-139.8640,62.8441,185.2917,-30.9551,-29.6538,-2.8086,16.1573,1.0940,-58.6212,-55.8622,-18.4602,-10.3886,-76.1271,-28.5288,25.4403,23.8260,79.9323
-226.5625,88.8858,63.8128,-6.3785,-80.7865,16.1180,174.2999,-77.0473,-3.7748,-12.2256,80.3881,20.0790,3.2536,-30.7709,-38.0209,16.3027,-160.6061,-40.4606,14.3899,-22.0166,33.0999
-218.7500,12.9420,-47.9555,-49.0064,-52.3150,47.7864,130.7379,-9.7467,-46.4843,130.7548,-35.9721,-6.7828,-75.4677,0.7045,28.2343,11.3871,90.3309,-80.9976,44.7467,114.5476,27.6756
-210.9375,-84.9532,-144.6655,-112.5882,-43.8069,56.4962,175.2408,-0.3877,-1.1473,66.8060,-27.2885,-59.7619,-31.1501,9.2224,96.7325,57.5344,171.3112,-2.4898,-15.8358,89.1757,36.2945
-203.1250,43.1242,-192.3857,57.8215,13.6951,118.2080,124.7623,61.9828,-86.8145,55.8921,-39.6078,72.9651,-79.8439,33.7396,-45.8892,82.6894,-134.7237,-14.9876,7.5991,112.8279,23.9176
-195.3125,-34.5962,-59.9165,-64.5699,41.4090,68.1174,147.5060,-22.4443,-25.2787,46.1809,22.2809,-26.5977,-18.3264,-51.5521,-1.6740,34.0437,-111.5697,-57.2875,106.2354,70.6813,121.7405
-187.5000,-76.8625,37.9949,-106.5065,34.5830,-45.5271,141.7166,-63.4169,4.7007,77.9166,-19.3936,-118.8487,11.6390,-130.3968,80.3645,102.8415,103.0370,5.8549,-3.6675,-40.0014,80.0152
-179.6875,-100.6902,-89.6488,-57.0086,47.2050,-69.7231,80.4045,-12.9443,-91.8621,166.1092,-189.6018,-95.8907,24.0511,-80.7996,110.8566,116.0816,188.0873,89.4465,9.8815,43.7712,92.7482
-171.8750,-57.9130,-116.6960,-13.9052,55.4222,-63.3304,48.7102,-42.8713,-85.8193,27.9175,-110.2039,-69.0313,104.0542,-74.6165,106.4161,122.9306,120.7334,132.6345,-16.9739,-86.8465,136.0757
-164.0625,102.6899,8.1184,84.0343,5.4853,-74.0914,36.8914,-16.9482,-133.9252,17.5831,-120.9581,40.5072,55.9017,-13.5939,-13.8564,112.6227,-74.7365,11.6618,4.0307,-135.6010,51.2590
-156.2500,1.0357,223.7034,-23.2839,10.2923,-34.1079,38.8502,-12.2810,-94.2701,94.9884,-80.9508,-36.5519,58.5039,-45.8295,5.8841,-29.9514,-35.4476,-52.5585,44.7786,-129.6056,91.1926
-148.4375,55.0978,207.0066,-3.8926,28.7947,-50.4245,58.5230,-27.9108,-73.9254,44.1004,-24.2499,-30.5583,41.8007,-62.3642,31.8379,-9.8404,57.5134,-35.0789,-75.7719,-179.8909,74.8203
-140.6250,94.7053,-68.1504,112.0471,-1.1454,-45.1907,-11.2356,-22.0024,-69.0331,86.7688,-54.9975,59.3567,-62.3420,-21.3550,-35.4260,-4.1859,-11.9872,-30.0518,1.2340,-33.6209,80.0080
-132.8125,5.6326,-157.0301,127.2915,17.2277,-66.6654,3.3235,-79.7920,-16.8402,104.7458,33.5552,27.3429,-84.1908,-79.0571,-58.5730,-24.2200,-106.1925,22.2710,54.5330,-50.0478,132.4930
-125.0000,228.4458,-216.0029,217.4285,-7.4979,-86.2416,-91.2004,-61.6767,-38.7478,85.6339,-23.9967,120.3670,-104.1502,-62.8559,-71.6764,65.6483,-17.4955,69.4893,-4.2682,-2.5614,38.8821
-117.1875,150.8962,-187.2999,99.2128,-47.5860,-57.1725,-63.0487,4.0821,-10.0012,116.1719,-30.8948,56.3272,-75.4539,-70.0123,20.8040,-50.8421,157.8546,-7.6425,60.5699,133.5701,67.9260
-109.3750,86.4655,29.5015,33.1082,-42.5808,-123.0133,54.2271,-24.0635,144.8401,51.8074,160.2976,-10.1012,-104.6612,-136.0817,24.7086,-190.2313,128.3179,-105.6761,32.4989,69.8022,39.0692
-101.5625,-5.5233,77.7501,13.4473,-99.1260,-106.4047,70.9789,30.2344,125.1321,70.8883,140.9437,-18.3228,-198.4165,-83.7120,-30.6204,-135.1830,71.2385,-162.2662,82.8788,120.4908,-17.3209
-93.7500,-116.4138,3.1243,-67.1126,-68.5803,-39.7010,63.8521,24.6287,118.5239,66.0674,134.6929,-75.8367,-95.0663,-89.2462,-10.4315,-68.0440,-8.7612,-131.7567,114.3541,82.2803,13.3893
-85.9375,55.0977,-1.1023,6.7242,-36.6365,-39.6026,26.1427,25.4265,44.3152,67.6592,60.8329,-4.3339,-22.3265,-90.3847,-63.5864,78.4851,-157.3580,-101.8477,76.2465,44.4887,-60.4968
-78.1250,87.1080,-39.8440,-36.9497,30.8170,-46.0092,18.9661,-17.2878,1.6137,62.7440,-18.5131,-16.9977,7.9147,-96.0387,32.9397,-0.4915,57.5523,-104.4353,109.6446,113.1935,7.1249
-70.3125,-46.5718,73.7252,-67.3143,73.5686,-75.1206,25.1073,-119.7024,7.2122,-38.8742,-12.5642,-104.0188,87.4502,-126.4000,137.8111,-66.1659,246.7508,-61.7272,12.3441,16.2088,50.0393
-62.5000,-20.7049,239.8531,-39.1343,-7.1376,-83.6855,-20.1827,-53.5705,-74.6461,64.0703,-129.0773,-72.6510,42.5309,-98.2136,53.7127,-74.2991,127.5081,-71.4715,74.5888,113.7893,5.5091
-54.6875,-176.3260,154.4714,-166.4471,13.6528,-63.7497,-1.9532,3.0583,-19.0068,158.5197,-37.0901,-154.1472,98.1116,-115.5329,50.9845,-53.9248,-1.2366,-50.7179,166.3140,135.8663,61.4809
-46.8750,-55.0532,-75.0156,-74.8567,66.3399,-45.9168,-20.8082,21.5915,36.5302,141.8775,54.7894,-52.0708,42.5921,-60.9538,-34.9864,74.3524,-166.0794,36.9230,77.9459,82.8508,43.3586
-39.0625,3.9988,-225.6860,20.5170,19.8307,13.7046,-72.8327,45.9127,-14.1242,20.0307,40.4875,45.4892,-44.1164,34.4189,-39.9870,-11.5834,-70.1169,60.3508,68.3835,179.6270,103.0454
-31.2500,-71.3315,-91.7350,-21.5003,13.9155,7.9209,-42.2363,-32.1723,52.8282,-131.2226,108.7946,-24.5203,21.7728,-7.6159,43.2294,-127.9378,69.4417,54.3747,-6.5870,35.0035,97.3242
-23.4375,20.6381,142.5227,7.7684,-33.7053,-36.5640,-13.3115,-39.9636,46.0835,-63.1792,28.3986,-3.5020,14.9557,-15.3623,-10.1075,-61.9991,-11.6842,-27.3049,-18.2544,-47.3125,-20.0935
-15.6250,-67.9452,230.2233,-86.5180,-15.8770,-20.6030,3.0888,-58.3065,-12.2074,-8.6844,7.4506,-54.8074,-6.4124,0.3311,-22.7447,-8.6009,-33.3590,-10.5332,70.5172,-27.1817,32.9359
-7.8125,26.5270,7.9639,14.2569,9.0046,7.4086,-7.4426,-31.5890,15.5447,-90.1343,-1.4643,18.1495,21.2576,28.0805,14.2821,-17.1583,31.0106,14.2829,-44.6535,-71.9853,-12.9870
-4000.0000,40.0705,-87.7925,24.8751,1.6195,7.0834,50.2595,-28.5357,-13.0125,-61.7975,-69.9897,35.2046,-5.5336,51.5733,52.9534,-49.8108,121.0147,14.2365,-36.7954,-29.7959,-17.3140
-3992.1875,17.0640,-44.1592,36.6359,12.7405,54.5056,25.8461,-54.8217,-2.3557,-14.7001,87.7149,54.3948,42.2987,63.7252,-70.8115,-39.4494,-234.3960,25.6740,8.7381,-55.0356,-6.5398
-3984.3750,112.1093,-22.4712,211.4514,0.9186,118.9758,-57.5177,44.9383,-49.6449,-62.5630,39.4728,174.6520,-4.8152,91.9282,-203.0498,23.9589,-498.7776,85.1627,66.3174,-31.2362,-53.7216
-3976.5625,22.7580,26.8019,113.8696,16.7024,168.0420,-118.2877,20.3044,-75.3394,-50.8183,49.8175,107.6141,-30.3345,67.7379,-141.3359,-75.0259,-301.5552,65.2546,151.5060,89.1768,31.6927
-3968.7500,75.6531,254.3109,23.5405,-107.2571,187.3621,-171.8133,38.9232,-93.7883,40.1732,30.4037,60.4766,-121.6087,13.8007,-192.4850,16.2392,-245.0703,47.6116,62.9476,105.8431,13.3613
-3960.9375,72.5181,176.7727,20.1854,-182.2623,147.6376,-211.4084,145.5044,-170.3013,220.1136,-121.0699,87.8829,-197.9397,85.8261,-237.3264,85.4563,-247.6719,-27.0762,128.3365,241.4642,-27.0253
-3953.1250,-84.4744,-86.6058,-35.0285,-22.1212,165.0634,-120.8669,89.2353,-80.6638,162.2019,4.6115,-2.0699,-72.1209,-5.9952,-106.6041,-8.1760,-192.1424,27.3903,181.8832,190.2432,26.7431
-3945.3125,43.7337,-66.7915,137.9578,34.2170,153.6906,-133.1333,113.1637,-55.8240,76.4780,-45.4997,96.2328,-84.0965,-17.6159,-156.9188,53.4059,-311.4112,49.0619,132.6205,141.2160,-22.2974
-3937.5000,57.0598,120.1187,39.0586,-23.3483,127.4220,-121.3125,87.2002,-118.8900,122.8568,-145.5271,75.5144,-73.9750,30.8783,-151.0293,63.0938,-262.5830,-8.1700,179.4585,223.2929,24.7523
-3929.6875,20.0362,150.6879,-70.1991,-61.2547,54.8043,-46.8381,86.8802,-119.3031,121.8855,-182.8959,-9.0371,-73.1975,-3.9813,-90.4731,136.4228,-114.1111,-45.7468,105.9416,115.0141,-48.5416
-3921.8750,-55.8769,72.3585,-1.3422,-33.0563,13.2754,-15.2678,118.6495,-124.6127,116.0102,-190.1633,6.2038,-152.3138,29.2586,-75.5014,56.8585,-44.5575,-52.2194,133.5155,142.8250,-90.7446
-3914.0625,-156.1436,144.6710,-40.8284,145.8019,47.3971,55.9451,-32.9335,-18.2757,0.7857,62.2182,-56.2824,-45.7766,-83.8399,-90.6708,15.9400,-303.3677,-49.0519,206.7463,110.2840,52.7054
-3906.2500,-27.1620,201.2468,23.9253,169.9191,-36.2359,-27.5966,-80.2663,8.3188,26.8109,123.8638,-30.9781,55.0209,-129.6862,-120.3247,115.2739,-385.9394,-24.6421,123.2295,62.9787,5.4075
-3898.4375,-2.3696,83.6384,13.4702,87.8321,-10.0722,-112.3527,-17.7930,-77.2843,161.6457,-35.6972,-15.0787,-30.3885,-65.7247,-72.7204,103.4238,-101.7169,-35.4463,111.5206,121.4863,-6.0945
-3890.6250,40.3628,-87.0200,21.9574,24.6929,35.0396,-103.1636,27.6301,-31.9372,95.4345,-28.3047,7.8750,-58.8607,-19.8119,2.0539,38.5302,128.4633,-28.3016,-22.2389,-12.0482,-34.6369
-3882.8125,64.9541,-135.8310,86.3108,-22.5935,62.0041,-76.1400,89.9082,-6.7420,121.0785,32.9432,95.8724,-180.4906,81.9531,-115.4279,63.4981,-64.5444,-75.3039,-0.1556,45.2722,-82.3264
-3875.0000,-182.1542,37.6588,-28.0290,-58.5743,94.2737,-6.8370,84.4901,98.7424,115.0344,174.4882,-11.9784,-183.8254,41.0186,-166.2350,21.7570,-287.2685,-77.0118,68.2422,113.9041,-13.7025
-3867.1875,-110.4732,70.9505,14.4274,-58.7560,-10.6585,35.2581,52.8689,140.0293,82.7845,141.8398,-7.8887,-106.3521,10.8775,-122.5030,62.8235,-245.1921,-75.9173,33.4447,44.3300,-119.2754
-3859.3750,-55.8658,-51.8548,-38.2001,-4.0414,-26.6879,56.2387,110.1535,50.2086,28.4335,13.0844,-29.3405,-49.9925,-4.3617,40.0898,45.8027,107.7664,-197.9241,86.5451,97.6648,-135.9559
-3851.5625,-115.5531,-8.9440,-142.1347,75.3667,-57.0103,98.9169,78.1365,92.0925,33.7783,128.0384,-113.6246,66.0577,-70.9029,71.1803,50.4797,41.4150,-222.2348,-10.6512,0.7026,-56.9240
-3843.7500,-38.9861,30.2289,-24.8117,10.0253,-51.0841,-5.1650,120.3676,60.2314,148.3686,95.2525,-25.1148,-1.6359,-28.1968,-85.0316,129.4080,-209.7159,-216.2894,-40.6023,5.9850,-51.6414
-3835.9375,-152.0807,-16.2545,-76.1319,-34.9584,-65.8063,-19.9117,68.9616,45.7095,169.3273,42.8033,-77.3312,20.0187,-4.1288,-9.7819,77.6948,-38.5233,-190.9923,19.8027,-4.3662,43.9951
-3828.1250,-103.6313,30.8236,-22.9085,-20.3891,-49.9785,-41.1203,47.1058,23.7376,36.8456,56.9174,-61.0560,108.2205,-24.5197,8.5832,55.5430,-58.7931,-72.1485,-38.2367,-96.1742,22.1883
-3820.3125,-26.9729,-35.9040,57.5127,19.3766,-42.9536,-71.1397,89.4588,-44.0290,5.5674,-48.7570,35.8541,41.6091,56.2849,-42.5697,24.6076,-124.8702,-31.1116,36.9303,14.2262,-8.4222
-3812.5000,4.0229,239.6989,-19.7336,14.4860,-47.5777,-38.8192,48.1715,-12.4352,-37.3451,-18.0611,-29.9214,36.3431,-57.5613,-46.3325,19.0279,-128.5961,-0.7311,31.4588,-62.0065,-13.6744
-3804.6875,118.8183,458.1214,30.8194,23.3910,-70.3989,-98.7143,23.6919,-37.0362,-24.4394,-116.5494,6.4373,11.8746,-80.6102,-106.3249,31.2597,-187.5536,43.4483,3.7784,-53.4354,-111.1276
-3796.8750,13.9130,279.8607,-10.3206,163.5993,-75.9211,-30.3288,-92.4756,-5.3430,-177.2265,-49.7403,-55.2382,190.7003,-121.3543,59.4226,-85.2002,-44.2309,77.9226,38.4009,-18.5524,-6.2776
-3789.0625,-4.9598,152.6514,-33.4216,248.8674,-98.4003,-16.8988,-151.6062,44.4164,-237.9696,73.1420,-83.0724,277.5804,-143.0614,122.3880,-71.6116,7.1515,93.4402,18.0787,-108.6277,43.6355
-3781.2500,-38.2264,153.0307,43.0765,180.7286,-96.2919,-87.8752,-77.1358,8.7836,-54.1007,-37.3642,-36.0190,131.0521,-67.1754,29.6427,39.5940,-26.8768,-10.4400,-16.6432,-38.1020,45.1451
-3773.4375,-109.0974,289.7997,-35.0341,72.9804,-100.7844,-55.4574,-45.2562,-33.4520,49.1891,-42.4697,-121.1835,88.9241,-143.8886,23.4366,33.2094,5.4771,-45.9210,-88.9525,-75.1633,113.0634
-3765.6250,63.1252,319.6946,-1.0475,-37.6750,-103.1791,-58.9503,-49.2686,-37.5837,-27.4207,-11.4633,-73.6060,85.8952,-182.5026,-27.3467,103.9334,-70.0841,-51.3008,-129.1651,-79.1279,73.0854
-3757.8125,52.8484,131.1122,-49.5596,22.1549,-80.0721,-34.9651,-99.7725,-14.2222,-41.5178,11.0403,-63.1187,108.3546,-121.6093,50.2593,16.1588,64.8442,-25.1832,-69.8696,14.4230,132.6038
-3750.0000,-18.4928,23.4813,-88.1249,90.9428,-119.0058,-37.0401,-139.3256,56.0944,-81.6598,43.5190,-98.0759,105.7678,-85.7710,124.7460,49.3314,247.6884,6.8854,-107.6117,-93.0789,130.0763
-3742.1875,-30.3303,9.3486,8.8107,78.2429,-57.4453,-86.6205,-41.3737,5.9210,14.7003,-6.4874,-5.6526,55.6818,11.5626,-32.4034,110.0252,-95.0008,-39.5488,-49.8482,-35.0874,117.0420
-3734.3750,-111.7306,100.6555,-6.8208,135.0006,35.5611,-140.7581,14.0393,-10.8016,33.5261,84.9619,-0.7541,75.0490,32.3429,-139.8260,56.1847,-405.2405,17.4627,6.3736,-48.6351,209.4684
-3726.5625,95.0181,269.1296,101.6931,130.9136,32.7146,-215.7551,-24.3969,-49.3677,-42.5000,44.5806,74.1373,35.5672,-5.7368,-164.0163,16.4999,-332.3445,12.6283,-33.2635,-54.0355,134.0531
-3718.7500,77.5820,179.4344,47.0236,-28.3887,51.6591,-233.9710,-7.0342,-105.1325,11.2780,-46.9864,31.5201,-55.1193,-23.0211,-77.0766,33.6110,17.3279,-39.4155,51.9036,67.3701,115.4366
-3710.9375,-48.6737,-54.0605,-46.4659,-154.4999,30.7968,-144.9876,44.5299,-17.6817,99.2703,39.6641,-44.4610,-76.6077,-6.1117,-3.0867,85.9282,181.1986,-26.2700,-39.7185,10.9773,94.0294
-3703.1250,56.7139,-196.8953,64.6883,-225.9719,68.5723,-144.3636,154.7479,-54.5736,208.9222,1.9815,74.2919,-113.4450,69.4357,-118.6200,122.9237,-75.2833,-27.4836,-41.6961,80.2306,57.2687
-3695.3125,-40.8662,-86.6649,-5.1213,-149.3961,71.3899,-141.6980,121.0206,-50.4071,174.6346,4.3631,22.5678,-37.2265,36.0293,-124.6435,14.9871,-217.7165,14.3370,34.3905,121.5457,133.5631
-3687.5000,52.8778,-30.0877,98.3965,-91.4577,-8.4471,-147.6911,3.6517,-21.8783,56.7076,33.1249,36.1334,28.3518,-43.0278,-81.6854,7.4104,-150.8166,108.5060,22.8267,39.2154,16.2162
-3679.6875,90.1887,-64.9540,68.4752,-54.9691,-75.7286,-143.1516,-27.1563,-89.7995,61.3438,-72.5493,29.3183,-39.5269,-36.5334,-5.8131,-97.6350,113.5762,180.2292,128.8184,145.4453,-88.5770
-3671.8750,-49.0087,-30.2898,-1.9506,-18.9903,0.4846,-103.1211,-25.4838,-14.2124,-10.5251,39.2994,-2.5384,-37.8998,4.4473,-31.8466,-206.1950,-29.5371,322.4429,164.3246,146.1721,-122.8539
-3664.0625,62.6382,-61.7602,80.4649,-48.1686,119.5301,-168.2454,93.0344,-42.7624,71.4543,10.0177,106.3212,-139.4169,50.2717,-209.1792,-87.8730,-351.7867,363.4920,134.6799,221.7298,-188.2800
-3656.2500,36.2752,-126.2301,11.8711,-6.3466,124.5731,-164.3866,23.5713,-75.3152,111.4554,12.7440,53.8594,-98.9322,19.1007,-135.1372,-83.5307,-199.0537,335.5337,106.0453,229.3016,-110.7015
-3648.4375,77.4481,-121.1455,56.8135,35.0408,58.1672,-119.9865,-43.3425,41.6948,-29.9873,56.0481,16.9372,-18.8915,-83.5276,-7.5477,-76.6373,30.1926,306.1251,5.9637,23.4264,-140.5646
-3640.6250,36.4646,46.8053,50.6085,-6.7169,-22.4060,-53.7480,-50.4059,71.5654,-73.5724,48.2201,-5.5072,-26.0053,-89.3085,13.4336,-120.8841,60.2844,264.5515,103.7357,51.3974,-147.5834
-3632.8125,-38.2466,216.0783,5.6761,22.8286,6.3124,48.7844,-132.1676,136.7484,-156.8407,185.7156,-25.6885,2.1819,-58.7987,-26.7922,-166.8274,-130.3147,330.2646,63.8168,-59.3264,-82.2988
-3625.0000,104.4338,180.7598,121.1250,59.7781,11.4235,-20.2834,-90.5261,67.3453,-115.6981,42.6405,86.0268,-103.2205,20.0990,-123.2018,-15.3580,-198.5301,296.3763,-41.7028,-93.6550,-151.6170
-3617.1875,3.5945,42.9504,-22.9374,99.2287,-22.9763,-17.8589,-88.3811,-4.5469,-40.0366,-65.9201,-14.1888,-28.1159,23.4843,35.1828,-13.3871,135.7503,194.9867,-37.7041,-89.4734,-112.4340
-3609.3750,-23.5302,13.9223,-86.2699,212.4410,-50.6420,28.3190,-79.4951,41.3329,-68.6258,15.3108,-81.0308,164.7530,-40.4017,127.2785,-41.6734,145.7645,132.3416,-135.9409,-223.5390,-140.4925
-3601.5625,61.6960,97.2646,2.7394,226.0115,-34.9732,-30.1562,-28.2598,19.5780,-17.8577,66.9188,7.0923,179.9756,13.0491,17.6959,-63.5970,-95.8944,41.0371,-157.8206,-139.2559,-162.2112
-3593.7500,-16.1898,-52.4966,-46.3699,182.4847,-10.4108,-5.7368,-41.1199,79.7327,-31.1646,199.4404,-32.8006,167.0917,0.3876,49.9354,-39.6064,-34.6476,32.6175,-201.7913,-77.0647,-65.0270
-3585.9375,104.9200,-180.2496,80.5142,56.9576,-30.8618,-63.3217,48.0176,58.9015,-15.4689,104.9881,45.5064,72.2139,17.7144,22.2128,123.3956,56.5828,-22.8094,-292.7595,-62.8833,-85.8429
-3578.1250,143.5330,-38.4716,6.8999,-82.0734,-31.8223,-64.4143,83.6569,21.5815,56.7180,30.0587,33.5197,70.8387,18.5373,22.5313,48.8899,93.2935,-125.7473,-184.2100,9.8072,-13.1625
-3570.3125,40.1705,209.3890,-101.6856,-80.0496,-103.7413,-25.4556,12.3413,96.3315,-16.0492,141.2154,-66.8958,183.5290,-15.6126,67.1155,-23.5727,96.0667,-123.6487,-218.5952,-94.4607,-11.4269
-3562.5000,57.7118,119.1711,-6.3805,-133.1177,-118.7767,-40.5990,32.9246,43.9942,4.0992,-22.7032,-15.5196,94.1236,43.1224,75.2436,33.8810,228.7298,-106.6680,-238.0801,-42.8374,-100.7976
-3554.6875,-4.6573,55.0571,-0.9888,-126.0803,-77.7205,0.3521,37.6109,11.7661,-65.6327,-92.5042,-18.8327,60.8225,47.9458,89.6184,38.4435,233.4755,-64.6047,-194.4490,-35.1073,-23.0589
-3546.8750,179.9488,96.9476,117.3823,-118.0330,-32.6799,8.2987,81.2895,-54.4439,-131.3591,-122.2672,104.3108,68.5349,56.7545,-76.2375,193.0159,-198.7874,14.4532,-186.8085,-63.3882,-15.3135
-3539.0625,245.9890,-14.6907,73.1968,-87.5387,32.8013,-37.3182,110.4203,-135.1872,-30.6198,-166.5589,113.4817,60.6976,50.0006,-48.5181,184.0468,-96.5906,-26.0578,-121.7068,1.7826,49.8754
-3531.2500,183.2432,-183.0512,5.2292,-44.7950,38.5253,5.3151,41.8017,-56.6575,-24.6244,-15.5576,35.0638,140.1206,-17.5182,72.1427,116.3188,94.8608,-52.3389,-185.3334,-95.7959,92.3254
-3523.4375,167.5872,-95.2799,137.3451,-130.9481,59.3385,-46.9506,62.2838,-37.0081,68.4777,41.5759,95.6303,49.6504,4.0484,-54.5408,99.7051,-104.6293,-104.5328,-131.8494,-76.2736,75.8794
-3515.6250,-46.5319,110.0595,18.9950,-240.5509,50.6915,-18.6722,53.3215,-7.8075,95.1450,105.2690,7.9840,4.7262,33.1546,-109.2145,89.6607,-222.5871,-108.1887,-65.7966,-11.1885,176.9921
-3507.8125,39.8695,89.9476,1.1739,-259.5934,32.5870,-35.8427,71.9056,9.9587,40.3688,50.5440,9.3832,-13.6297,15.7953,-77.5482,183.1691,-91.9901,-57.3040,-120.1794,-65.5601,122.6624
-3500.0000,95.5609,-30.8655,-14.3515,-309.3207,52.7727,-52.7185,165.7956,-41.9619,170.9005,-75.8553,44.9568,-140.6814,36.7294,-87.7110,202.9814,0.9058,-107.1318,39.7458,94.3662,142.6303
-3492.1875,-71.9409,-95.7915,-160.0584,-267.1972,55.7987,22.2587,166.5338,32.9848,171.2903,72.6212,-36.9036,-175.8747,40.4954,-90.9168,203.6402,-69.3296,-101.1288,116.5369,66.1446,254.4576
-3484.3750,-37.8087,-238.0290,-122.1334,-233.4287,56.4631,22.8874,166.9221,33.6009,98.3323,71.7794,11.8440,-175.4076,77.8870,-125.0478,240.9510,-177.9286,-66.4826,114.9844,99.5693,217.9348
-3476.5625,-140.5351,-483.0956,-158.0687,-125.5039,94.2740,23.6560,131.4647,-2.6211,99.5384,73.1157,-19.6880,-63.7798,80.4159,-57.0544,167.4218,-176.4261,-63.7001,187.5999,137.1628,255.5658
-3468.7500,-154.2913,-357.1667,-96.0330,-33.5757,45.0742,48.4311,46.0045,-14.8149,85.7555,59.4965,-51.4395,-3.1404,31.9287,13.0830,191.8954,-40.9172,-42.9341,68.2231,-17.2459,206.2054
-3460.9375,-150.0139,-73.1827,-54.9614,-30.5989,-24.0942,16.2586,-23.4052,-46.9347,126.0372,-46.0480,-59.3686,-72.4554,36.4786,30.8195,196.4330,147.6520,-145.1362,70.9027,-14.6005,173.8877
-3453.1250,-258.5122,-41.9154,-134.6604,36.6280,-31.0222,83.3362,-66.5628,-16.7905,119.5811,20.6836,-110.6737,-42.5199,31.2630,11.7357,189.2245,-4.5322,-114.1043,137.8482,-87.7028,240.8256
-3445.3125,-41.8746,-213.4680,-89.2175,77.0095,15.1872,54.5610,15.4285,-7.4817,90.2841,101.5997,10.0541,3.5789,40.1748,-121.5279,124.1706,-399.5807,-72.9304,143.9376,-47.6671,175.9161
-3437.5000,-103.9473,-171.7087,-117.4865,84.6954,22.6840,98.0794,-14.2773,72.1378,-11.6959,145.8348,-18.4398,-26.0092,12.3715,-60.4880,-88.5750,-281.3276,-65.4757,186.3321,64.6677,183.3092
-3429.6875,-108.0050,-105.8716,-81.7433,81.4370,-15.7842,134.6584,-51.9366,145.8310,-49.6193,181.1597,-53.7958,-137.5327,-61.3995,-14.9666,-52.2684,-61.0215,0.0150,40.7901,25.0491,108.7563
-3421.8750,-50.9732,-154.9265,92.0923,33.2754,-26.1642,88.3397,10.5152,98.6394,12.5673,61.6117,24.5716,-220.9578,-35.0852,-39.7485,47.1626,3.3795,-13.3986,-6.6512,82.5258,25.2909
-3414.0625,-70.7032,-70.7364,30.1760,117.3628,22.7071,137.2671,-50.7776,111.7106,-84.9887,110.3266,-7.3344,-135.1294,-58.5342,15.3394,-124.1535,16.0271,-34.5714,-28.8243,25.2612,74.0839
-3406.2500,126.8518,20.7676,58.5426,140.7605,-23.1272,127.4951,-60.7766,102.0945,-168.2408,174.3737,74.7866,-180.9854,-30.7000,-83.2823,-134.1743,-140.0283,23.5471,-76.6939,-21.7126,-8.8104
-3398.4375,97.3888,25.3006,63.8895,40.1581,56.0222,59.7130,18.2271,34.4921,-54.4765,68.4424,81.4556,-212.8325,12.1221,-116.0770,-19.1834,-134.0815,28.6503,-71.5523,-16.6806,-3.7025
-3390.6250,41.2825,108.2751,75.5939,18.9601,30.5603,71.3374,-7.3696,46.3120,-43.2949,43.9487,23.3199,-55.2739,-49.6787,-22.4921,-80.7837,-47.7394,42.1354,-162.9910,-108.2452,44.8122
-3382.8125,122.9078,84.0254,160.0285,65.5227,4.8365,45.7138,-33.2133,-16.0966,-104.3540,-55.7618,71.8303,-6.9602,-73.7414,-14.5326,-105.6258,-72.6756,17.3551,-115.6722,-28.0574,56.0715
-3375.0000,-12.8447,-87.5843,14.0985,140.7403,-31.2400,81.7399,-69.3988,-51.8441,-68.7413,-54.8040,-14.1000,66.0096,-73.1647,39.7235,-32.8203,-70.9583,23.2112,28.3167,-23.2080,165.9881
-3367.1875,34.1806,-76.4024,27.9523,82.7611,-52.5245,60.5718,-17.7892,-72.7747,-17.3118,-113.0103,12.3509,44.7917,-20.8120,1.1367,128.7888,-91.4350,-1.1441,5.1093,-116.5559,107.7105
-3359.3750,104.1069,61.6971,63.6989,-58.3294,-17.9195,22.3030,16.7281,-184.7915,54.0355,-261.2993,68.8240,-65.5286,51.4256,-44.0523,90.3103,-20.0159,-2.6177,38.8057,-46.9966,106.3278
-3351.5625,8.9572,107.7854,37.3673,-118.4753,28.6231,-3.0144,-44.8025,-173.8427,-8.6551,-177.6079,0.1667,-18.8877,-10.4078,-11.4398,63.7768,28.3510,77.8469,49.4695,-107.4813,116.9038
-3343.7500,37.5437,134.6487,107.7784,-90.8722,-12.0988,-44.5789,-50.5873,-140.1229,23.4062,-108.1347,8.8859,-60.4921,-87.5146,-76.5108,133.0090,-85.5446,71.0584,112.8904,-80.2201,39.2282
-3335.9375,-111.4434,-15.0304,-49.3782,6.1846,-58.3804,56.3067,-95.9176,-3.9394,86.9278,65.8050,-109.3863,-33.6529,-170.1902,23.2901,12.7041,16.0256,-8.2931,245.7769,-18.5006,66.0095
-3328.1250,-47.5137,-56.7434,-15.6127,71.2003,-134.7199,90.1438,-136.2958,67.2090,47.4074,99.7202,-108.5901,1.1508,-208.9330,98.5645,-63.6482,161.5595,21.2904,134.6154,-59.8436,-10.2509
-3320.3125,0.1026,-9.7691,34.8466,12.9298,-85.3612,30.6766,-49.9619,8.0545,59.6007,-33.6613,-50.1855,-22.3213,-122.9793,99.4482,-50.2999,248.7860,32.5604,75.1605,22.5171,-33.8164
-3312.5000,-74.3026,56.2132,-46.7137,-26.3317,-18.9981,23.2073,-20.6214,37.9103,52.8019,69.9893,-91.9371,44.2291,-92.0344,69.1295,90.0472,131.9795,-7.1842,-34.2702,-52.1084,32.6263
-3304.6875,13.3911,37.3610,45.8052,-44.5011,-74.5432,4.8421,34.8204,56.8940,71.1095,51.7896,7.2634,62.8693,-0.0153,-43.1827,181.5067,-142.7578,-60.8450,-87.5937,-70.6367,14.1680
-3296.8750,-63.0894,-4.5950,-37.8441,-84.8413,-47.2556,30.3297,23.1122,45.7462,59.2837,3.4647,-31.9087,51.3436,25.8342,32.0327,59.8237,30.3765,-101.6734,-23.0541,-40.3081,113.5571
-3289.0625,-18.6560,110.3886,-63.5662,-145.2311,-37.0244,-31.2233,-2.6511,20.5697,-39.5766,52.1169,-42.1406,-11.2186,37.6132,33.2881,71.0929,189.4860,-56.5585,-153.5672,-102.0340,87.9039
-3281.2500,-24.4765,69.1059,-67.5392,-149.8646,-3.0508,-107.0295,69.3409,-17.8451,-5.6729,13.5326,-10.5158,-87.0223,109.1282,3.3363,69.1287,225.3422,-63.7015,-54.3348,-2.0088,12.0033
-3273.4375,-165.2199,-107.0796,-105.4293,-46.3965,31.0181,-36.7407,29.4372,53.8463,-8.6445,158.0638,-64.7493,21.2809,70.7282,77.0268,-80.7241,186.3017,-29.7530,51.0105,-3.8717,46.2154
-3265.6250,-88.6324,-276.8810,14.0181,66.4305,41.4253,10.9016,75.8803,100.8977,74.7395,205.9681,15.5583,-5.0548,44.6598,-13.2074,-34.2268,-97.3969,12.5372,22.7035,38.6048,-17.2209
-3257.8125,-142.4999,-191.0958,-45.9899,47.8002,55.3776,-11.9038,90.8731,115.5076,125.6740,146.4398,-8.7753,-100.8385,59.1219,-30.8646,16.8193,-45.5509,-7.6389,73.9540,159.6347,33.8970
-3250.0000,-99.3388,133.7481,-179.9831,-119.7859,-43.6274,-36.6559,64.9128,91.1881,100.6637,158.9950,-98.8846,-15.5575,34.6119,23.8879,64.9191,151.3602,-33.7832,-57.7329,97.7158,-27.9182
-3242.1875,84.7610,175.5416,-58.0386,-286.4256,5.3101,-134.4589,150.9067,-6.1729,223.6314,-12.4827,28.1430,-150.3242,121.0411,-74.1450,114.9839,164.2089,-61.9860,-85.4624,175.7543,-125.7865
-3234.3750,-53.8610,-32.3507,-97.8021,-213.7653,3.5481,-99.9631,149.2127,65.7700,294.9236,59.3519,-23.2058,-187.7888,81.7598,-48.7675,75.3558,163.3448,-59.8965,-11.8808,179.1046,-17.3502
-3226.5625,-103.6108,-118.3276,-75.6834,-88.2038,-48.3230,-77.5630,97.4132,88.6335,243.1183,82.1194,-37.9200,-130.3422,67.3619,-44.1995,171.6247,75.3966,-38.9166,-26.3943,93.3494,-32.0118
-3218.7500,-188.5228,-98.4428,-92.7236,-31.7871,-28.3487,-94.3120,80.4703,-37.6362,227.1619,-7.2419,-53.7430,-73.0456,87.7985,-34.8500,44.7488,23.2955,-19.0997,63.9508,184.4577,-11.8288
-3210.9375,-252.5010,154.4104,-84.8353,-60.4121,-20.4296,-49.1036,51.4752,8.0557,87.1687,74.3661,-104.3562,9.2071,23.1643,23.6106,-132.1693,68.1363,-13.3419,70.2537,120.5220,-40.6830
-3203.1250,-37.4881,299.2738,-1.9569,-126.0369,-11.5198,-75.8956,61.4854,17.7621,97.1923,84.9887,-18.3220,-128.5421,-4.4945,-50.3742,-159.0759,78.9684,-9.5900,75.5600,195.5880,-141.5326
-3195.3125,-64.6503,95.9841,-181.2439,-47.8136,29.2369,2.1675,65.3490,96.3231,64.0806,126.4731,-76.2777,-87.4379,-36.3142,26.9644,-227.1348,120.6671,33.0008,153.7323,273.5114,-63.5257
-3187.5000,-94.6869,-286.1326,-138.3988,63.5584,36.1417,45.3827,72.3632,177.0428,34.1229,170.1312,-45.4148,-80.1679,7.0024,48.5349,-74.0491,91.5216,37.7389,89.0563,207.5741,-93.3694
-3179.6875,-182.4155,-232.9201,-118.2452,-58.7801,-17.6521,28.8872,129.6927,161.0540,91.4759,118.0842,-66.6146,-170.6025,27.6126,69.2149,-53.6428,259.6537,-84.2230,177.6803,331.9398,-109.9226
-3171.8750,-311.7618,94.6986,-181.6991,-82.7112,-80.0415,113.7952,-7.5794,246.4664,28.2418,239.4489,-167.2737,-85.6319,-34.3964,101.1932,-153.8286,234.1693,-144.7848,188.7146,237.7117,-99.0675
-3164.0625,-109.0584,121.3754,-41.1153,-55.5863,-50.3851,143.7630,-13.8001,166.9478,-51.9345,159.8894,-55.8641,-55.6035,-41.3756,50.9942,-196.9655,81.7285,-117.3049,145.7964,123.5235,-142.1594
-3156.2500,-108.3667,-17.9448,-79.5448,-53.4714,-14.7340,142.7354,-52.0131,92.4384,-53.0887,122.3378,-42.3669,-19.5728,30.6355,74.3104,-198.1013,117.3030,-116.8416,147.8816,90.3503,-70.2418
-3148.4375,-31.3037,-46.8759,-69.5937,-11.9694,-42.6828,79.1137,-5.8132,66.3353,-6.8355,96.2025,-42.2411,26.8691,4.0384,71.2069,-77.8193,127.2787,-74.9820,14.3638,-9.4215,-133.9099
-3140.6250,-38.1410,17.3020,-38.5318,-17.3785,-47.5323,74.5848,26.4948,25.3287,25.5240,-18.8342,-39.9849,59.4011,-0.4677,109.8881,-119.4047,197.3347,-117.0238,42.9373,89.9105,-175.4764
-3132.8125,-179.8465,192.6688,-114.3318,87.3589,-86.2361,145.2023,-86.0585,97.4796,-86.9568,126.2924,-163.0763,167.0768,-112.8480,205.3567,-232.8465,269.5594,-117.9236,42.6705,-16.6034,-140.8798
-3125.0000,-74.9097,156.6937,-38.4903,122.7448,-121.2989,111.4768,-83.9702,63.2985,-10.7788,56.1002,-110.8443,170.4065,-110.6034,162.0866,-155.6495,199.4404,-119.1750,-27.9493,-51.4645,-211.6329
-3117.1875,-150.5310,-60.8543,-121.1996,151.5709,-129.9091,103.2000,-56.4138,55.5687,163.8771,48.3648,-148.2460,198.1934,-81.9068,204.2288,-127.9989,264.7538,-230.9857,36.8842,-22.8548,-146.9400
-3109.3750,-163.3696,-107.6024,-172.1237,211.1922,-217.7115,162.7266,-106.0456,152.6409,77.3385,219.4406,-193.9208,258.7845,-132.4185,240.0689,-104.5323,251.8619,-208.0003,-10.4779,-69.4449,-123.4428
-3101.5625,-179.8447,17.0149,-261.6992,195.1627,-234.1621,146.6041,-85.3221,211.0656,24.1526,240.8701,-208.5063,205.7192,-74.5984,230.9975,-10.6902,309.3039,-293.6675,44.5113,20.3197,-139.6016
-3093.7500,-383.7840,234.2132,-403.7370,130.6761,-193.0564,152.0324,-44.0427,216.0389,28.5312,245.8490,-342.3934,247.1976,-107.2345,294.5835,-42.3033,425.2915,-323.7861,86.0598,-44.3524,-98.2009
-3085.9375,-276.1861,272.0013,-324.2314,98.7256,-186.4040,158.0093,-38.2136,186.5614,35.4600,216.3817,-279.3080,254.2323,-100.3324,231.9500,-36.3703,284.8260,-356.3469,89.1498,-146.4749,-165.2469
-3078.1250,-270.5356,170.8347,-358.6653,173.8186,-183.6962,235.0274,-71.3264,153.1216,1.4434,182.9526,-281.1345,294.3163,-97.3834,305.7702,-143.3750,362.4119,-386.8567,200.2961,-141.5401,-125.2508
-3070.3125,-326.9475,221.5898,-416.1513,224.8653,-241.0261,288.9966,-165.4823,244.6330,-165.6163,274.4866,-367.1172,384.3592,-191.4922,393.1899,-126.4344,453.9474,-372.4196,180.3976,-232.6487,-145.3026
-3062.5000,-208.8489,233.8380,-291.1307,237.4230,-224.8470,267.4672,-186.1306,224.6454,-223.1727,143.5295,-265.7121,363.9041,-138.1120,369.0615,-146.9827,432.9595,-325.4815,157.9966,-184.2618,-202.8597
-3054.6875,-270.5094,278.3535,-212.8743,282.2329,-184.4141,235.1831,-254.5235,155.9061,-254.4665,184.8209,-224.8864,404.6904,-97.4906,276.8261,-216.2836,144.2269,-211.2934,201.8564,-175.6124,-88.1629
-3046.8750,-125.2316,317.8627,-59.6770,286.9769,-141.0263,131.8489,-212.9600,89.1155,-248.8124,119.0645,-112.5435,337.4307,-90.9267,112.9213,-136.6362,-143.5615,-101.1470,136.6547,-241.0184,-118.5193
-3039.0625,-91.0450,141.3026,-134.5672,251.5983,-141.7315,131.4083,-176.4804,89.2091,-213.2516,82.1880,-134.9875,264.0647,-91.4643,195.6297,-100.0775,150.5262,-173.0901,171.3464,-241.5138,-118.9850
-3031.2500,-73.4253,159.1745,-191.0108,269.6652,-160.9801,222.4258,-267.5508,217.7507,-304.2309,210.7664,-176.4512,319.1567,-147.5656,274.6994,-193.0622,243.0621,-119.5764,154.4955,-363.5522,-100.9958
-3023.4375,72.1999,376.0161,-0.4491,204.7384,-117.2256,119.4515,-261.6176,115.2978,-225.2006,71.3534,-29.3749,215.2492,-66.6761,95.0061,-186.0362,-7.4077,-45.0554,124.6406,-323.5915,-131.0133
-3015.6250,-1.1790,443.8613,32.1111,166.8114,-121.4672,78.4821,-301.6721,0.8388,-118.1523,-42.0706,-52.2934,211.3385,-70.7872,92.9758,-190.0066,26.1130,22.4629,157.7971,-290.6196,-98.0293
-3007.8125,55.9784,430.2829,59.2138,259.4203,-131.1491,69.0650,-312.1667,-8.0717,-275.5464,22.0564,-53.0672,274.9756,-117.3470,141.2839,-236.4222,90.1636,79.5301,109.5050,-409.1076,-181.4966
-3000.0000,98.2581,296.8259,102.4316,338.1056,-123.7186,112.7330,-340.5485,-36.9011,-413.8345,-43.7293,8.8537,246.7094,-73.8062,159.4459,-301.7264,98.2962,86.6947,188.3045,-296.4927,-173.8784
-2992.1875,59.2375,117.0815,21.3515,298.4954,-94.5770,143.0955,-348.2353,66.9556,-384.4228,97.1772,-35.6690,239.1490,-117.5742,171.4115,-271.3410,92.1318,82.5672,148.8019,-264.1722,-107.5577
-2984.3750,151.5758,-0.3065,47.6374,251.2451,-142.0763,131.8039,-212.5754,94.1571,-174.6676,50.4267,4.6774,117.9382,-128.0029,100.5772,-135.6066,45.3103,-0.1931,101.6369,-171.5136,-154.8905
-2976.5625,-11.4248,117.9444,-53.4086,158.6411,-132.9188,105.1555,-166.2598,103.9964,-17.2486,60.3119,-80.4515,54.3666,-118.7789,129.4420,-199.2143,202.1326,-93.2992,150.1179,-88.1971,-71.5760
-2968.7500,-33.9794,306.6402,-39.0103,30.4750,-81.3012,82.9566,-151.4896,119.2794,-76.3710,149.6543,-92.5542,106.2561,-104.1067,99.8360,-148.3691,144.3856,-80.9514,22.0475,-181.4347,-93.8075
-2960.9375,-21.3675,108.5046,11.5465,-26.5595,-30.5369,23.9012,-62.5667,60.7078,-98.3367,54.1358,-47.8364,121.2971,-52.2917,117.7642,-96.3535,195.7788,-68.4554,36.1232,-97.5141,-115.8988
-2953.1250,-121.7635,-97.6153,-96.8990,120.3958,9.2324,26.8436,-97.6405,100.1275,-133.2956,130.6061,-102.2228,197.3282,-50.4831,174.6884,-131.3362,199.1936,-27.9564,41.1995,-127.5766,-39.9879
-2945.3125,-1.8600,-12.4239,-6.0429,134.6553,-10.6894,-28.9169,-6.4117,81.8376,-77.9638,75.3719,-14.0556,104.6565,-32.3809,30.5901,-76.0257,-40.0896,-14.1431,-14.4358,-77.3416,-95.7794
