Time,Fp1,Fp2,F3,F4,C3,C4,P3,P4,O1,O2,F7,F8,T7,T8,P7,P8,Fz,Cz,Pz,ref
-4000.0000,-62.3243,-105.7452,11.5132,52.7397,52.9790,-60.4827,-41.5960,11.5013,-56.0077,-25.2168,1.0322,-291.3641,55.7077,-81.7931,415.0741,-84.6715,44.1980,-14.5261,-164.3577,-95.7200
-3992.1875,-29.9929,-44.4957,12.0178,193.9381,-19.9813,13.3168,-116.0250,12.1081,-58.1889,-26.2925,0.2681,-149.3284,19.8101,-9.5319,349.0375,23.7147,-26.7105,-50.9252,-484.7770,-134.0830
-3984.3750,-174.4653,-58.7803,-65.2851,263.3525,-96.7587,82.3209,-195.2640,81.9064,-175.2090,116.8281,-114.3153,-85.1130,-19.9037,95.9268,316.2048,17.2774,-64.4146,86.8926,-384.9705,-103.2569
-3976.5625,-177.6895,-36.4542,-67.3356,298.0297,-61.2899,152.5858,-198.2453,152.9556,-291.0309,187.1929,-79.6549,-18.6681,-21.3822,165.6311,173.6253,13.0692,-100.8706,49.9636,-494.9072,-107.2010
-3968.7500,-117.5595,9.6615,-82.0364,361.0664,-148.4739,138.1929,-286.8708,65.3335,-197.5256,172.8989,-57.6414,72.1047,-71.5169,187.6829,93.4054,34.1878,-179.9841,41.3745,-542.4953,-12.8020
-3960.9375,-179.5850,-3.9386,-182.8901,336.9514,-212.8173,183.6512,-350.6506,185.5641,-338.2260,255.4553,-158.7891,112.7082,-61.8106,195.5947,110.0321,41.1348,-240.2508,155.6443,-395.2065,-5.5625
-3953.1250,-127.4494,20.2011,-164.5912,426.9964,-194.0150,164.2625,-297.2789,92.9331,-322.8141,199.1479,-103.7846,88.4453,-79.9622,138.6534,172.8082,93.2161,-256.3731,139.0629,-591.7747,10.8156
-3945.3125,-231.3140,-2.9010,-237.2947,432.0383,-265.2257,201.8715,-369.9062,95.2853,-360.4288,273.8334,-139.7909,121.1665,-78.1271,175.7081,108.5839,93.2774,-253.4946,247.4866,-450.3090,47.1857
-3937.5000,-236.8740,-7.2772,-200.6953,394.3873,-192.1411,236.7830,-335.2269,167.9409,-401.7954,235.8125,-67.5066,78.1740,-42.0046,137.0637,114.6461,16.6200,-151.3110,173.2081,-351.5217,-29.1589
-3929.6875,-84.6206,-7.1850,-78.2929,303.5434,-106.2648,138.4935,-213.7446,33.3762,-208.3855,99.5816,18.5799,-26.0302,-29.0949,74.2167,208.4999,-47.2551,-138.3365,45.7241,-341.9367,-18.7060
-3921.8750,-86.1205,-34.8783,-80.6511,163.9494,-71.1492,135.4583,-217.0146,104.0662,-286.7739,133.6003,-57.0910,-69.9930,-29.9465,107.6271,213.5831,-88.8997,-103.1237,115.5004,-100.0603,13.9890
-3914.0625,-69.6082,-15.7640,-26.0080,183.3578,-16.0402,152.4317,-200.2784,85.7532,-309.1977,40.6108,-76.7572,-57.9627,-48.8057,124.0416,238.6429,0.4409,-48.9189,98.2718,-260.1857,29.6728
-3906.2500,-152.9349,-42.3382,-75.2238,172.9162,-64.7980,138.5539,-214.3957,72.5769,-361.4964,100.7687,-90.2826,-39.7862,-61.5288,183.6121,269.8400,-15.0773,-60.5817,192.1974,-134.1372,51.5049
-3898.4375,-176.3078,-16.1873,-23.4982,187.4223,-49.6190,190.6358,-199.5621,124.3564,-496.9009,114.8701,-74.8710,43.3382,-82.3162,161.1429,218.9721,-1.6613,-82.2977,204.0802,-160.1064,-8.7218
-3890.6250,-88.0210,29.2497,-43.1221,278.5810,-67.7978,207.3679,-220.0679,31.7622,-482.6733,21.6010,-57.8091,92.1057,-101.4666,177.3200,243.7460,87.3948,-168.3692,188.6103,-353.4125,43.6982
-3882.8125,-189.8829,22.1334,-186.9044,285.5859,-175.1437,283.9565,-289.7216,146.0157,-629.6295,135.1755,-128.9139,163.7242,-133.7857,290.3543,107.3385,88.2903,-198.5939,299.0046,-139.8220,81.9603
-3875.0000,-83.3650,75.4110,-111.3355,288.9487,-136.1469,284.9035,-216.0168,147.6187,-594.2744,62.0835,-90.6716,159.7010,-131.7755,253.7403,43.2373,50.5279,-90.4701,160.7460,-281.8689,81.5628
-3867.1875,-53.2028,69.3234,-81.1668,251.9060,-141.5671,203.4494,-185.7164,30.7963,-456.3391,55.5776,-60.8336,147.2787,-100.1804,172.7305,43.7036,41.3489,-128.7455,157.0866,-182.2847,146.7622
-3859.3750,-95.4759,72.0915,-122.4525,212.4098,-146.4509,272.5554,-191.8588,99.5285,-648.9005,86.6147,-102.4582,174.4120,-105.0550,203.2825,-27.3078,71.7035,-63.4745,256.9824,-86.1113,103.5006
-3851.5625,9.9690,119.4888,-83.0328,250.6152,-143.6426,274.3620,-154.2915,-9.0559,-612.7746,-58.6648,-26.3817,207.2506,-103.2475,167.5331,56.3488,71.7518,-62.5085,187.5672,-228.2284,66.9420
-3843.7500,-16.4756,121.3907,-110.5197,190.9129,-133.7544,209.2681,-71.6262,-35.5542,-606.5758,-49.8500,-54.2160,211.1994,-93.3591,175.8935,-0.9335,-68.1058,-17.4406,197.2546,94.8017,74.4862
-3835.9375,96.2868,183.2214,9.1986,200.4093,-49.6746,181.3860,84.2453,-62.8584,-453.2151,-151.8523,-7.8533,178.3599,-120.2856,74.4605,-131.0569,-171.7725,96.8364,99.1441,30.0615,45.2222
-3828.1250,131.1521,190.8523,43.0173,202.9983,-52.5044,104.6063,80.2263,-176.0816,-275.7617,-154.7612,-11.3904,170.6251,-121.1323,-3.8667,-164.1171,-177.3487,63.2143,100.1382,98.4587,114.0530
-3820.3125,44.3169,116.0252,-7.8666,83.8721,-30.0471,89.1417,101.5179,-80.9963,-367.0443,-97.3644,10.3616,113.2007,10.3009,-55.8795,-60.9198,-194.6371,48.8859,85.4402,327.2096,97.1717
-3812.5000,180.0457,131.4997,97.8029,11.2896,38.9577,-62.7672,206.3770,-232.3694,-190.7867,-249.4248,152.6629,103.3366,80.2665,-98.3407,88.7853,-237.3847,80.1001,-94.7154,180.5311,90.8388
-3804.6875,186.0812,136.6813,29.7641,-15.0043,-28.7564,-58.3709,211.5379,-190.4555,-226.2419,-98.1890,47.2555,139.7879,48.5134,-20.4928,-46.2587,-271.8413,-18.3862,-17.5652,360.2112,130.8077
-3796.8750,146.4811,156.2077,-10.9212,18.0431,-69.1233,47.3847,207.0630,-47.1850,-306.3816,-28.6067,-30.8103,203.6061,-28.9082,47.7188,-227.0075,-167.9523,-21.5264,13.9298,284.2749,125.1215
-3789.0625,178.3477,140.4312,-15.1513,-53.4747,-36.0494,-30.4104,239.0504,-198.4875,-130.0725,-217.5799,1.5788,157.8866,-31.8970,-30.6157,-77.3543,-137.6153,46.7774,11.8671,349.8252,155.8897
-3781.2500,179.9225,136.7197,26.3148,-119.3144,5.7141,-26.5000,315.7492,-157.0875,-240.0878,-250.8524,5.6560,119.8870,-28.2044,-64.2359,-103.0602,-172.5888,85.7771,14.5132,526.1411,121.3534
-3773.4375,253.9231,200.8363,102.1833,-7.7596,8.8694,-24.1782,317.8661,-228.2981,-203.7086,-284.7369,82.1316,154.3112,-24.1323,-99.4429,-349.4291,-98.1622,126.1713,-50.4483,247.8816,159.2152
-3765.6250,203.7923,198.8316,49.9000,-20.3765,-80.1416,-41.0066,227.8353,-207.6738,-296.4803,-191.7685,28.4471,169.6100,-39.2354,-79.7829,-506.0098,-79.8851,147.4100,75.4395,477.5307,177.9328
-3757.8125,201.3247,192.0857,55.2670,-54.3607,-37.5131,0.8279,269.4671,-128.3933,-294.6267,-150.1565,-2.5951,169.5869,-34.7080,-38.4536,-567.0026,-112.9588,146.2981,109.9775,474.8760,34.2966
-3750.0000,187.4782,206.1485,-31.7621,39.2408,-161.2915,61.2678,255.7155,-67.5341,-164.1700,-52.9588,-90.0298,298.1932,-121.6004,58.4798,-647.4478,-55.4328,-112.2177,203.1046,283.8576,19.2645
-3742.1875,-65.4966,144.6335,-222.9369,105.6657,-315.2227,236.5588,99.8309,181.1653,-211.8784,232.0746,-244.6223,358.6687,-201.6550,122.2714,-759.1013,-29.0641,-188.8838,232.0778,486.7596,46.0868
-3734.3750,53.4123,169.2871,-135.2495,85.9172,-226.3023,139.6974,150.8219,11.7014,-16.7386,24.9440,-84.3604,258.0226,-113.8755,-48.0824,-664.9648,-53.8560,38.2966,-35.1179,463.5461,58.7680
-3726.5625,213.7477,159.3083,31.8379,-68.4597,-96.9888,-60.7676,280.2301,-225.3889,146.8153,-175.7937,82.3051,88.8013,16.2911,-249.0282,-527.4908,-183.2746,163.8766,-190.9223,693.7934,76.8653
-3718.7500,344.8529,147.3769,170.6765,-216.1120,115.0689,-181.4775,454.4074,-271.7312,97.1007,-296.7873,109.7215,-73.6425,117.1959,-333.2109,-420.3300,-304.9566,226.2105,-234.9781,787.8566,65.7147
-3710.9375,417.8368,169.2316,205.3792,-246.9320,186.9760,-220.3353,488.4587,-384.2480,275.2390,-445.9435,107.9942,-43.2030,78.9320,-335.5330,-452.3832,-309.7892,194.4034,-267.1915,648.8040,172.4214
-3703.1250,310.7780,136.1659,130.0308,-281.8201,111.8174,-186.2287,412.4696,-275.8117,233.3162,-339.1381,105.2080,-13.7706,76.5998,-265.8704,-705.5672,-240.6870,158.5481,-126.4480,857.7737,205.0821
-3695.3125,371.9873,149.5676,158.9392,-288.4698,104.8969,-193.8541,441.7478,-283.1223,258.6331,-310.0828,170.6705,9.9560,69.4951,-273.9343,-743.5800,-140.3340,150.9371,-205.4553,671.0287,158.9929
-3687.5000,360.7609,102.8328,111.3921,-332.5895,56.5137,-279.9197,355.5891,-331.8959,353.5057,-212.4777,159.6815,-5.7223,94.9213,-212.4288,-676.1124,-117.4108,70.8624,-179.9139,694.8840,182.4612
-3679.6875,301.8935,93.7889,89.1879,-354.3741,72.4666,-227.6149,370.7922,-206.3065,291.7026,-197.5200,101.0355,3.9981,73.6805,-161.5471,-654.3829,-178.1102,119.1297,-203.0146,776.1533,122.2781
-3671.8750,342.4950,125.7747,168.4329,-311.7140,113.8578,-259.8452,375.4597,-275.2710,440.3460,-267.1073,105.8308,41.2209,4.8594,-193.1863,-680.2990,-138.3249,124.8337,-232.6587,568.8981,125.5497
-3664.0625,175.6440,75.2351,106.2083,-335.5164,52.7764,-175.5057,275.6810,-152.6766,338.5342,-145.1223,6.1607,48.0525,-56.4413,-109.2410,-736.7494,-128.9684,135.0752,-81.7416,823.2607,98.3733
-3656.2500,205.4042,92.5175,178.5824,-303.7286,125.2834,-139.5466,311.5208,-117.4738,370.3287,-184.5309,41.0857,41.5320,-58.1648,-147.6771,-768.6751,-95.9946,165.9179,-156.2405,642.2640,21.7942
-3648.4375,262.3510,89.9157,200.1195,-315.8167,109.9350,-155.4467,295.5318,-206.1525,462.3069,-199.7994,99.1702,22.2011,-36.7509,-126.9612,-814.5167,-112.8541,117.9262,-134.6175,626.4725,41.3768
-3640.6250,138.2456,62.3370,147.5774,-297.0391,131.4890,-134.4523,242.4680,-74.9438,259.1765,-69.1859,46.1682,37.8070,-15.4421,-33.3354,-861.5453,-94.8080,135.8535,-82.1052,713.6618,-13.1330
-3632.8125,155.7953,48.9468,204.6593,-276.6859,187.6524,-115.8568,262.0326,-129.1604,385.6534,-123.9951,102.7827,16.0573,-32.5429,-51.1007,-763.0674,-77.1529,119.3922,-134.0081,449.4909,-32.0318
-3625.0000,74.0652,30.1739,118.4402,-287.6591,138.5042,-92.5545,174.3121,-105.6809,331.8322,-64.1017,52.1006,72.0590,-8.9591,-65.1392,-696.9818,-92.7782,73.6255,-4.2022,577.0912,-10.2177
-3617.1875,67.8005,27.5278,148.6728,-256.2068,168.8012,-24.7846,168.0635,-38.7404,285.4593,-70.7483,45.8630,61.5624,-14.9494,-34.6975,-660.5334,-100.9302,68.3022,-44.9461,394.1967,-17.9492
-3609.3750,75.8088,35.0363,119.1575,-211.5324,102.3398,-55.7582,101.0910,-105.5656,399.3706,-65.1341,51.8741,100.3649,-45.7098,8.0095,-685.9152,-22.8080,42.2229,-37.4469,296.6005,23.5818
-3601.5625,-2.1730,31.1867,77.6460,-216.8921,60.8758,-23.7234,59.1389,-0.3852,244.2800,39.4932,9.8859,128.2154,-87.4807,39.7457,-722.3918,7.3415,106.1424,27.0581,430.0800,-19.8805
-3593.7500,66.9641,74.6798,114.2479,-111.1769,61.5192,-23.5782,59.3132,-74.1082,314.3022,-34.7831,10.0159,160.2169,-124.1638,2.6020,-532.8625,41.6131,105.1592,-44.3438,145.6963,-58.2339
-3585.9375,-6.9778,61.3030,0.7539,-78.5883,-15.9473,9.4756,-18.5959,-40.9404,233.2398,71.8469,-103.9532,226.1721,-164.9609,108.3844,-421.5186,35.7980,32.0754,22.1605,212.2807,-63.6725
-3578.1250,-41.7957,48.2498,-31.6366,-76.9312,-11.3162,86.6497,-14.3845,110.3418,160.2738,111.5837,-100.8253,262.2820,-160.6763,222.2973,-486.1685,38.1084,-36.9062,-12.2368,142.0288,-135.0081
-3570.3125,-32.1255,25.4085,13.4294,-65.8488,-40.2382,20.2776,-6.6961,45.0563,349.7968,81.7727,-56.2477,229.9000,-152.9647,156.6821,-399.4568,43.8977,-97.4433,-72.1977,10.2710,-91.8801
-3562.5000,-169.2290,-25.2098,-54.3068,-95.6030,-70.9720,26.1166,-37.7851,123.9801,278.5278,198.1794,-123.4791,230.7727,-147.0693,161.2965,-279.6389,10.9162,-91.7908,2.0459,189.7972,-124.5389
-3554.6875,-161.8071,-29.2216,-42.5382,-50.8835,-22.2064,37.4701,46.6517,135.4014,322.7785,171.0961,-76.2005,201.2042,-172.6865,172.4324,-263.4158,93.4606,-83.6383,-24.2105,-49.1384,-188.6891
-3546.8750,-213.0603,-26.8206,-95.4657,4.1127,-75.1499,94.1335,-43.5941,155.1117,266.3568,228.3187,-129.6128,254.9944,-189.0172,265.8933,-311.9893,112.3306,-134.1828,64.8365,4.2891,-206.5276
-3539.0625,-212.9394,0.3132,-93.0350,40.4318,-72.7444,207.1654,-41.4648,304.1815,155.2862,229.9019,-164.6732,289.1983,-187.0109,304.7377,-342.3096,1.5735,-168.3745,101.2332,4.1290,-243.0154
-3531.2500,-151.7831,2.3649,-105.5929,32.7354,-48.3402,194.2077,19.6891,255.2409,250.2480,179.4921,-140.7285,273.4703,-200.0258,255.6078,-276.7199,24.8473,-212.5709,56.6184,-180.9991,-183.4919
-3523.4375,-265.7609,-55.3037,-188.3056,-10.1420,-94.0996,185.1137,-26.2945,320.1553,127.0769,317.9588,-185.9368,223.6569,-172.2045,246.3654,-244.3714,50.0025,-185.9189,153.8568,20.8018,-194.1071
-3515.6250,-232.2067,-56.5312,-38.5099,-10.5448,18.6447,113.5358,50.2512,211.5771,126.4250,208.9350,-73.6390,185.4024,-96.8955,174.6509,-164.6127,124.6878,-115.7707,46.5851,-191.8546,-267.2135
-3507.8125,-194.0220,-73.7675,-37.1077,-6.3740,-17.0167,77.5606,-22.5795,102.5856,198.4107,172.5197,-35.7325,145.8102,-95.9962,138.5632,-48.3377,160.9945,-182.0242,84.9170,-188.8555,-230.7048
-3500.0000,-150.8146,-72.2148,-65.7066,-68.2223,-45.6836,84.6041,-52.3864,219.6085,-18.6003,216.1178,-65.8252,112.2884,-52.1102,145.5105,-37.1582,239.3274,-139.2761,57.2526,-75.7909,-225.1888
-3492.1875,41.8222,-37.9548,23.1001,-85.6855,-29.9489,27.0622,-72.7625,88.0301,103.8191,158.1213,23.4862,51.2376,-73.8421,87.8890,-54.6791,290.0942,-121.1268,-31.0154,-270.2878,-174.2621
-3484.3750,35.8752,-36.8916,-22.6926,-90.7725,-76.8174,53.9417,-155.7209,151.8616,-19.3477,257.5453,-60.8035,37.6608,-83.1892,77.7055,-133.9098,279.2948,-162.5741,69.1303,-100.3116,-111.9300
-3476.5625,37.3003,-22.1781,-21.1249,-53.5226,-75.3330,55.1953,-154.3017,153.0598,-57.1518,185.3313,14.2581,72.5035,-82.2026,78.9016,-18.8980,278.8786,-125.6696,-0.3688,-274.9443,-112.2439
-3468.7500,0.0552,-52.8774,-62.2543,-53.9883,-79.5528,13.7664,-196.5622,37.5488,81.3810,106.4305,45.6251,64.7130,-50.9319,73.4242,127.3180,271.8045,-126.4696,-36.5685,-276.2323,-45.2420
-3460.9375,-82.6664,-85.4289,-74.8829,-101.9821,-92.2788,0.8533,-135.3011,98.5540,-7.5742,129.0535,-4.5083,48.4878,9.8248,97.4872,154.9402,220.2719,-103.7695,-49.2633,-112.9455,-59.7338
-3453.1250,85.0461,-42.5631,-13.1034,-109.6002,-30.6035,-48.6476,-110.6069,-24.0356,86.9058,6.0929,56.7652,32.7358,-3.0326,48.9834,182.8685,243.1773,-111.6695,-128.5641,-332.2258,0.1840
-3445.3125,62.7750,-59.2395,-113.3266,-166.2367,-93.9336,-38.1311,-136.8985,22.3817,21.4147,53.1583,-6.9611,39.0588,6.0972,58.5219,158.7000,252.1189,-167.5722,-44.8543,-107.4472,82.1163
-3437.5000,57.9718,-40.7022,-80.0927,-170.4353,-97.8127,-41.1366,-103.7197,92.2669,-21.6181,85.6917,-10.2348,69.9061,-34.3333,92.5444,85.8757,283.5461,-103.0144,-84.6887,-147.1736,40.5041
-3429.6875,77.9972,-3.3718,-60.0479,-78.8449,-113.8908,-58.3292,-120.7171,1.9471,105.1924,68.0397,9.3053,123.6200,-86.9780,75.3972,34.7571,301.8135,-117.6536,-135.7278,-233.0674,58.7048
-3421.8750,-20.7041,-29.2929,-161.7473,-72.0269,-215.7190,-14.2515,-185.4459,119.8955,0.2605,222.6677,-56.8990,164.6542,-80.3796,156.5415,8.7898,271.3673,-181.0446,-58.5112,-51.6474,28.1635
-3414.0625,-9.3210,-35.1480,-185.3869,-60.1727,-202.4931,-1.1070,-99.0984,95.9054,82.4096,162.3614,-44.0440,137.8090,-68.7419,132.7704,61.7780,283.0160,-169.3911,-47.2489,-215.1593,2.6842
-3406.2500,-73.4591,-80.4382,-179.5809,-123.8904,-160.8269,4.5031,-93.2890,101.3673,85.0458,167.5311,-75.7357,67.4906,-63.6668,102.4861,33.1277,250.1588,-163.2911,29.4764,1.8272,6.6765
-3398.4375,9.5755,-70.1158,-54.6190,-180.4698,-36.0137,-17.7105,-5.3115,116.0003,23.8485,70.8726,12.7246,5.3982,-12.4514,43.3918,50.5345,226.4875,-114.0354,-98.6437,-19.9983,-17.1725
-3390.6250,165.9878,-32.9172,-43.2964,-200.7045,-61.8486,-116.5617,-66.9611,-20.0208,179.0422,81.5763,23.5460,50.7335,-73.8941,91.6777,27.2038,347.2079,-168.4262,-154.4144,-180.4545,66.3462
-3382.8125,6.4079,-77.4969,-172.9712,-183.9548,-191.6818,-26.3923,-233.5962,142.9739,46.2535,245.3083,-70.6299,101.1388,-58.3451,182.0056,-27.2178,398.9707,-222.8104,-32.1745,-23.8449,80.8785
-3375.0000,73.0008,-38.8085,-139.4851,-117.0656,-158.3584,-30.0512,-163.0511,66.1320,76.6410,130.2084,35.3556,94.7651,-26.6535,104.5269,44.4093,356.9278,-155.0410,-141.7799,-237.0612,75.5713
-3367.1875,63.6071,-40.1059,-116.0013,-126.1869,-172.0377,-80.6893,-176.4892,-21.6971,134.0647,117.1419,21.3394,78.4729,-2.9780,55.0908,69.9381,268.9322,-130.2733,-116.3661,-106.2337,134.2770
-3359.3750,70.0160,-9.3335,-107.7187,-119.5125,-163.9178,-35.4923,-205.1052,60.3086,-8.7046,123.9112,-7.8771,121.0607,-32.5131,99.5073,7.1669,275.7788,-88.7063,-110.1351,-63.5665,103.7855
-3351.5625,156.9500,38.7971,-54.9214,-31.3402,-147.2908,-55.7749,-225.1993,-70.1804,79.0680,-6.8017,45.4180,135.2208,-53.5543,79.4542,-10.1880,254.1727,-105.6428,-128.4072,-222.3936,118.8126
-3343.7500,79.6474,-11.6421,-100.3753,-144.4263,-156.9186,-65.2868,-197.5339,-6.9060,29.6089,20.2618,-0.5333,123.2115,-26.8476,71.1932,19.1166,206.3646,-148.8258,-65.9096,15.5772,144.6082
-3335.9375,86.4109,-42.6858,-20.7766,-208.4621,-39.4967,-94.7189,-43.7974,-0.5553,107.2186,-10.6013,41.5693,54.3294,15.8961,4.0255,63.3816,175.6597,-141.9591,-164.3487,-117.3847,149.4650
-3328.1250,57.5859,-58.1748,-51.7838,-236.1003,-71.6834,-126.7252,-111.6446,-68.7932,146.2733,-5.0249,47.0675,56.9204,20.0263,46.3012,70.9654,179.4045,-99.6932,-52.3701,-39.9168,189.7363
-3320.3125,22.6715,-51.2474,-12.8932,-235.8468,4.0292,-49.8006,-107.5759,44.9007,-36.7578,-2.5037,49.4650,21.4848,22.0475,50.5209,-34.6386,181.1003,5.4754,-16.4768,65.4903,117.9146
-3312.5000,66.6398,-14.4612,107.8607,-156.7389,87.5950,-77.0062,-62.6415,-92.5496,80.0946,-140.1059,132.7236,27.9768,29.9099,-13.3764,-23.4873,152.6979,49.4933,-79.7210,-136.2553,88.9579
-3304.6875,-47.3750,-25.5201,62.6158,-164.6290,42.1558,-11.1835,-70.7002,-27.9821,31.9646,-75.6694,12.9851,54.5461,-15.2365,15.7713,-67.4301,33.3403,76.5063,53.0626,102.0350,79.0157
-3296.8750,-41.5768,-11.7082,107.1725,-159.7189,123.5203,33.4764,12.0600,-19.5833,36.6483,-141.4040,21.0502,60.9898,-8.5907,-13.2388,-94.6575,40.8327,117.3220,22.6610,2.1414,11.8811
-3289.0625,-17.4715,5.0308,131.0326,-135.5014,110.1827,-15.5391,36.1326,-142.8736,167.6747,-153.8070,7.4248,82.8102,-58.6544,-61.9040,-69.6627,63.6819,105.4350,11.5771,-9.4396,34.0599
-3281.2500,-38.5687,-1.9480,109.6911,-156.4836,88.6458,36.2817,15.0162,-17.3257,33.5080,-102.3663,-14.4077,59.5102,-7.9241,-82.7129,-89.9532,4.3801,120.3513,25.3220,110.8116,11.0397
-3273.4375,47.4933,27.8342,123.5072,-105.3011,103.2655,14.2832,29.0698,-113.6064,154.5224,-161.7374,72.9159,71.4339,4.9442,-142.3287,-38.1761,-19.7202,100.4188,-63.7701,-118.7924,60.1758
-3265.6250,0.0588,20.4100,71.8210,-116.6146,-22.6179,35.8148,-59.3708,-92.3585,101.0619,-103.5670,19.7358,127.9332,26.3027,-83.3951,-15.9823,-35.2701,53.9859,29.6653,45.1324,116.8242
-3257.8125,-41.4250,27.6841,104.0852,-87.9671,8.4521,31.3336,9.1506,-61.1248,56.5672,-145.4053,14.5084,158.4571,56.6043,-87.4587,16.0783,-4.8163,82.5009,-46.9263,4.0140,73.4218
-3250.0000,-45.2476,-4.7339,135.0028,-91.6530,39.1714,-48.4717,3.3330,-177.2314,193.7649,-225.5595,81.9372,113.7130,86.5453,-128.8310,83.7143,62.3457,43.6637,-86.8545,-33.4642,102.6800
-3242.1875,-82.6668,-38.6795,97.3126,-163.9274,75.2866,-48.8418,2.9184,-67.8998,116.3663,-189.2704,80.7610,37.4515,121.8800,-129.7570,83.6696,-13.0368,111.2244,-53.3496,174.4836,63.3453
-3234.3750,77.3784,8.0205,154.0765,-144.7235,95.8520,-64.7216,60.9608,-120.0941,245.4367,-242.4984,137.0378,19.7193,67.6516,-145.1897,30.9883,7.0876,95.2373,-140.3744,-17.1349,45.4683
-3226.5625,29.7794,-15.2798,66.1860,-192.1470,43.7594,-42.2182,9.3512,-61.9175,227.8753,-146.3350,48.6593,40.4200,51.7597,-85.2250,17.5787,-45.3808,47.5983,-47.0134,146.6044,65.9524
-3218.7500,6.4783,-25.9569,115.5876,-215.2495,129.9634,-28.3726,60.0511,-11.3993,127.6126,-169.8288,61.5761,15.5002,101.1591,-144.9042,67.3889,-69.4908,59.2574,-70.3224,158.6459,40.7366
-3210.9375,5.2849,-49.6197,150.0920,-215.2335,164.2668,-67.3961,94.8594,-123.7583,233.4861,-246.1798,168.5947,-24.2486,97.6493,-182.4389,29.2273,1.5577,24.0104,-71.5081,88.7728,73.6278
-3203.1250,-45.2680,-76.2496,98.2397,-266.5564,112.2143,-45.7318,5.3199,7.5741,141.0167,-77.8306,116.2598,-41.2739,117.7790,-160.2649,-169.3603,22.3218,8.4055,53.9864,284.5723,56.1744
-3195.3125,50.1331,-38.2931,87.3337,-205.9058,137.1092,-56.0792,68.7392,-40.1052,238.5108,-124.4848,140.8745,-53.2727,105.8476,-170.0896,-180.0692,48.0977,32.7420,-61.5418,98.2980,43.6759
-3187.5000,77.7816,-17.4733,38.6635,-213.9820,89.2450,-103.1439,57.4066,-87.5054,261.2850,-135.8362,129.7285,-28.9435,93.1532,-180.6151,-117.5965,-0.8163,60.3175,-69.7863,231.2719,104.4377
-3179.6875,65.9683,-6.6076,65.5324,-224.4840,115.9253,-76.6175,84.6289,-24.3103,64.6153,-108.5877,119.1288,-3.9906,119.0031,-116.5371,-164.6451,-11.1237,83.4385,-45.4502,219.7951,55.7477
-3171.8750,79.1604,3.2267,78.4045,-140.9532,91.6065,-63.0582,23.8623,-84.0932,147.9810,-59.3016,94.5362,45.0348,56.8429,-65.4182,-262.7608,112.6288,-44.4494,2.9019,-12.7181,67.0664
-3164.0625,-157.6573,-57.7250,-95.7316,-96.4024,-119.7225,93.5392,-149.9131,145.1626,45.3510,208.0391,-80.0687,164.1329,-44.3230,128.7580,-363.9455,194.4460,-210.3423,188.2939,66.7754,74.3943
-3156.2500,-253.9759,-64.9360,-194.3734,53.6839,-144.5551,180.6785,-174.1871,194.9572,53.2235,220.9225,-70.1756,174.8063,-70.9956,179.4873,-352.6951,243.8238,-201.7455,162.2146,-98.2606,11.2264
-3148.4375,-212.4968,-50.5209,-188.2262,25.6026,-138.6008,113.6548,-95.6657,54.5784,240.9199,153.6518,-64.4819,143.3575,-29.8758,76.0607,-272.7056,139.0612,-90.3598,62.9681,83.4821,15.8692
-3140.6250,-82.4322,-43.2841,-50.4980,-88.8442,-1.0592,32.2815,80.4469,45.8547,193.2087,35.0398,37.7970,-12.4171,107.8331,-40.7093,-171.1907,-53.0329,75.6180,-121.6373,214.8169,-30.8845
-3132.8125,137.3821,-7.3600,29.9723,-185.4977,79.2231,-107.3027,124.3074,-94.0906,271.2699,-104.7747,190.8221,-43.3721,187.2768,-106.6844,-53.9838,-119.3124,84.3414,-183.4654,82.8583,11.1185
-3125.0000,86.1780,-21.1165,-25.5717,-201.1192,23.4934,-50.8454,33.1589,-0.9930,140.3390,-11.5353,134.8369,-25.2561,167.7110,-12.6086,-146.8396,-100.5329,33.0546,-23.2448,277.8936,28.1302
-3117.1875,0.4563,-19.6863,-2.6206,-146.1979,82.2615,46.1563,92.5107,95.6543,86.9059,-61.7471,83.3513,-2.5710,115.6380,48.0242,-124.2625,-78.1918,87.2513,-38.4913,156.3928,-24.3591
-3109.3750,63.2206,15.3691,24.8182,-117.7428,73.5200,1.6958,83.3586,-23.1710,148.9933,-107.4091,37.3654,24.6869,69.0584,40.2070,-24.2389,-87.2884,114.9283,-80.2031,79.3625,1.6586
-3101.5625,110.1181,38.7219,2.3888,-140.1039,86.9211,16.4260,61.3545,28.2040,87.2259,-54.8681,-22.4841,2.1621,45.6247,56.5925,-120.1229,-109.1779,196.7446,-68.7199,196.4718,-59.1758
-3093.7500,213.4629,77.9072,110.4022,-70.9652,158.7680,-21.3488,133.7973,-82.9360,266.9220,-129.8320,12.1099,-36.8423,5.6289,-53.5312,-50.6174,-73.5525,230.0000,-175.7555,-16.0295,-62.5551
-3085.9375,191.2871,65.2864,120.8977,-92.2804,169.1003,-82.5804,144.7142,-108.5388,201.1164,-154.2410,-14.8094,-99.2754,15.1184,-115.1010,180.3225,-172.3567,277.7455,-91.2388,207.9456,-16.4242
-3078.1250,228.6438,76.7388,198.9297,-89.0017,245.9725,-77.2134,186.1747,-140.5412,129.8479,-223.0514,61.8088,-132.0903,55.1444,-183.0619,330.7570,-204.5470,351.0316,-123.1297,104.4385,-50.7475
-3070.3125,356.4868,133.6086,218.4525,-31.1842,229.3349,-130.3123,169.1328,-267.0193,257.1047,-239.3202,44.9260,-112.3450,-0.3350,-197.4788,239.6533,-110.1766,337.8047,-171.4874,20.3871,4.4329
-3062.5000,308.8046,143.2250,132.4545,-6.8258,143.1839,-103.8641,83.5846,-166.9447,95.8481,-103.0271,-78.4725,-87.0354,-13.3268,-207.3432,263.9903,-121.2447,361.0618,-41.2958,149.8131,-8.8860
-3054.6875,363.8010,174.7496,155.1442,84.2906,128.7203,-42.6673,69.7186,-180.1195,79.2897,-115.9820,-56.1825,-27.9570,8.3700,-183.4579,358.9663,-135.5464,274.9996,-56.3602,-182.1250,-61.4997
-3046.8750,234.4673,143.5424,20.5127,132.1513,-5.0609,8.2740,-26.4706,-129.5554,16.4359,45.8221,-117.2050,58.8888,-53.2454,-56.8236,371.5973,-10.0861,180.6211,62.3274,-100.3996,-86.4049
-3039.0625,102.1172,114.4604,-5.1361,177.0609,42.1441,94.2645,-15.6757,30.0599,-122.4372,131.6784,-143.2361,107.7980,-79.8687,29.8599,418.1733,112.4403,153.2256,36.0563,-197.7196,-150.3130
-3031.2500,87.9734,133.5168,13.4017,269.2219,23.5317,115.4939,3.2992,-23.0995,-105.1066,115.7761,-125.0715,163.9708,-99.3033,50.7854,472.8999,169.2296,104.0102,-12.9755,-351.9045,-96.0158
-3023.4375,16.6475,121.2137,-62.2402,270.2769,-15.2529,114.6233,-34.8972,122.6473,-182.9431,188.7803,-200.0815,162.0561,-65.8995,124.6216,433.4281,130.9313,138.6236,-12.0993,-177.2614,-62.8715
-3015.6250,136.9943,128.3790,24.8056,216.0908,107.6541,19.5060,125.5985,27.1415,47.9126,92.5318,-114.4025,102.9016,-16.8091,66.2053,482.6073,72.3938,153.9214,-171.4809,-337.9880,-14.0319
-3007.8125,82.1637,73.8087,-1.3147,161.8079,82.3946,-4.7191,137.9203,2.5185,167.6293,143.1847,-102.8846,40.6571,-5.8857,43.6830,529.5931,47.7672,98.0538,-84.9688,-111.9129,69.6609
-3000.0000,-50.0517,-14.5405,9.1956,67.2298,165.7735,44.7532,184.8686,161.5987,28.9725,228.5443,-56.7348,-20.8769,76.6755,129.8670,539.1797,59.8485,71.8215,-39.7543,-32.2290,42.0002
-2992.1875,-62.6009,-17.4607,66.3918,91.4060,222.8382,29.9712,242.4982,73.4190,84.0243,213.6584,73.1022,0.3467,132.9223,153.8012,484.4202,81.6930,58.2685,-15.7920,-186.9153,98.0414
-2984.3750,-169.5987,-12.3564,27.1556,91.2349,184.4819,103.8403,167.7018,219.8963,-67.3421,287.4323,33.5195,72.2286,166.7599,227.3868,371.2169,118.1981,127.2919,89.8346,56.9653,94.6820
-2976.5625,-92.7303,52.0873,110.8068,170.0217,267.0169,114.6620,287.7915,157.3245,-59.8265,151.1515,79.8255,120.0650,211.4853,202.9129,452.8721,129.6644,168.1958,62.4047,-112.3210,29.2188
-2968.7500,-92.2035,58.6233,73.1375,208.5681,229.2352,80.2210,250.5551,85.4844,83.3938,189.6238,41.8200,157.6593,173.9024,205.1828,415.1866,130.8877,99.7767,65.7305,-110.9673,64.4597
-2960.9375,-127.1745,44.3044,72.9964,174.7195,228.9895,82.3820,213.8409,161.2523,9.1281,265.6981,41.3520,158.8600,172.8602,208.0494,377.0070,58.7168,99.8902,-3.3313,-5.1076,63.2419
-2953.1250,65.0325,88.4752,123.0413,194.1313,242.9298,-12.2082,264.3063,-7.7446,130.0610,97.0166,165.0713,100.3125,222.0051,114.1585,499.9922,0.8053,116.1752,-160.1519,-200.1330,149.2233
-2945.3125,105.7563,65.5920,88.6026,130.1467,206.3903,-82.2035,192.2892,-41.1444,19.5302,100.9451,165.3162,28.3702,295.6871,81.8640,499.4898,3.4993,86.9858,-153.3657,-19.6535,222.7580
-2937.5000,123.4466,49.6131,108.1348,81.2285,226.8253,-133.1447,213.2476,-19.4881,0.9782,49.9224,222.5370,-22.5167,315.3493,68.6161,518.9437,26.2527,139.7718,-132.5291,-107.2415,205.2890
-2929.6875,80.8557,48.6692,135.3896,111.1222,179.9827,-103.2950,166.9254,-100.0467,99.1802,5.7011,212.4860,6.3996,267.7440,99.1554,471.1153,-17.1822,132.2858,-102.8965,-80.1490,231.5726
-2921.8750,-23.5207,38.4604,100.8675,149.3214,182.3668,-25.1461,169.8225,14.7039,-10.4027,10.7849,177.6632,9.6150,269.3716,104.9934,398.4982,-86.3133,133.0238,-64.9564,61.1419,196.1015
-2914.0625,83.8279,72.6298,175.0792,189.3336,220.4843,-58.2022,208.4419,-128.7563,135.7476,-95.3344,252.5757,12.6282,269.7314,35.6177,435.5969,-82.6336,99.4851,-96.2235,-148.9069,196.3790
-2906.2500,30.5333,82.9994,84.6598,244.8027,165.9742,-35.8125,117.4221,-33.7765,116.2851,-0.0025,160.8661,-2.9108,214.4779,21.6859,344.0630,-208.4971,117.3204,64.9644,79.3917,178.0599
-2898.4375,-24.5514,94.6689,103.4633,297.5830,185.6940,59.8770,174.6242,61.5091,95.0364,-14.3735,143.3847,-18.1486,196.4615,44.0482,251.7403,-260.0654,237.3792,11.4574,57.8800,85.9828
-2890.6250,25.9818,95.1275,153.8899,316.0753,199.0403,3.2595,225.4525,-69.5221,254.4325,-72.0547,156.5356,-75.6853,172.0789,-11.9072,264.0300,-279.9348,218.0586,-76.3469,37.9434,135.5561
-2882.8125,-28.1816,55.5569,98.6331,229.9810,180.7103,-11.9565,207.5963,25.8463,87.1473,60.6662,101.0083,-128.8202,190.0236,10.5283,207.6345,-259.4048,270.0628,-20.7400,230.3086,116.4695
-2875.0000,65.7210,78.0242,198.4562,257.0560,279.4594,-57.0264,269.8109,-56.6453,73.9476,-58.4710,200.5583,-211.8099,215.0472,-33.8981,195.3066,-267.7125,330.1435,-99.9960,112.6823,104.4748
-2867.1875,84.2879,84.4625,179.9491,208.8878,224.8775,-72.3604,288.6900,-72.3992,-240.5651,-36.8572,218.7871,-264.0613,232.7553,-85.5889,212.6488,-318.2684,383.8914,-7.5053,377.6997,122.1815
-2859.3750,66.5570,131.5512,274.1615,265.5261,319.0218,25.1027,383.2906,-11.3466,-773.3647,-49.4428,238.7446,-241.5255,289.2018,-97.4874,158.7120,-368.0312,401.3595,118.7892,394.4030,68.6319
-2851.5625,21.9339,141.3018,264.4953,329.3729,309.2943,55.7571,374.0070,-55.1124,-638.0222,-55.8382,191.8325,-174.7972,204.7808,-66.1996,147.9031,-374.5956,356.9462,217.2857,243.1678,58.2318
-2843.7500,-119.9930,99.8245,154.5428,366.0279,162.2870,170.2102,265.4348,95.9223,-528.9611,58.5642,45.6392,-172.2734,131.0886,-25.1186,73.8154,-335.3624,319.2546,394.5917,416.6274,-15.4262
-2835.9375,-30.1013,129.7325,178.4196,459.6065,186.1039,197.5585,288.6781,85.8500,-286.0813,48.8484,68.2727,-182.8581,80.2255,-71.1561,22.5462,-235.2282,269.3886,312.7890,153.8449,-66.2417
-2828.1250,-39.2959,96.6883,94.2125,455.2001,101.8395,190.8963,168.8270,78.7532,-261.2693,116.1160,94.8310,-190.4579,106.2936,-40.2183,-25.8016,-168.0992,156.4510,412.9985,179.9488,-40.1047
-2820.3125,-109.3882,83.8995,98.1297,460.0048,68.6977,271.4315,136.0896,232.8630,-517.3519,196.5781,98.5071,-146.8651,109.4936,77.9058,-97.0266,-87.7797,121.6339,487.4125,145.1352,-110.8340
-2812.5000,-88.5670,101.2395,81.9671,519.8239,89.4821,295.9595,157.2654,145.9557,-462.5026,184.0304,82.1080,-86.2808,55.6212,140.0116,-77.3319,-26.4592,36.7300,440.8163,-10.8216,-90.6180
-2804.6875,-131.8459,111.4559,-1.2859,515.6437,6.1820,363.4813,73.3476,213.0396,-584.7357,288.4770,-1.3688,-20.7084,8.6816,245.1073,-197.7158,-69.1450,28.7439,507.2219,155.1206,-64.4556
-2796.8750,-54.1670,160.2059,-29.5628,596.5258,14.8601,339.0437,45.3988,225.1655,-578.0004,263.9488,43.1313,27.9022,16.7257,258.2315,-190.1266,16.2051,35.7301,446.6760,-50.0168,-93.3033
-2789.0625,-74.7420,139.5413,-88.0682,616.2691,-117.6886,321.4453,-122.7899,244.1164,-490.4782,393.2518,22.4076,83.3456,-5.4511,314.1786,-212.7565,145.3931,-89.5082,501.9814,-70.4230,-78.3542
-2781.2500,-141.2768,107.6321,-117.5039,589.1783,-147.1698,369.9918,-188.9204,402.2209,-595.9020,514.7025,28.7465,92.9271,37.4454,363.2614,-280.3221,156.7199,-119.6695,544.4396,-31.7846,-145.3177
-2773.4375,-170.1419,112.9918,-146.2663,670.8569,-175.9802,381.2781,-180.3895,377.0589,-405.6490,563.8806,-0.2371,178.2452,-28.9813,412.0630,-273.2196,241.7841,-219.1576,519.6351,-236.5425,-174.5904
-2765.6250,-327.5465,92.2922,-273.5693,728.0873,-302.3260,442.0980,-270.4031,510.4278,-461.9253,697.5908,-201.7491,274.0971,-156.9257,583.3962,-328.6387,376.3827,-305.1783,612.3799,-79.8500,-192.3704
-2757.8125,-161.7977,194.5120,-319.7048,828.5726,-349.4991,473.1585,-280.2455,504.0345,-548.0343,617.5280,-212.0930,378.1786,-167.6874,688.9564,-376.8746,480.2226,-315.0313,535.3629,-266.0357,-202.9611
-2750.0000,-49.0440,237.4158,-313.8180,841.1675,-380.6568,446.2984,-384.0815,403.7097,-470.1058,591.5464,-169.4067,424.3354,-199.4193,662.5814,-408.0796,527.1456,-342.8617,547.4456,-330.2519,-160.5001
-2742.1875,-190.5941,185.6197,-276.2137,775.5616,-379.0923,452.2275,-419.2120,482.1793,-544.4755,633.3555,-167.9947,428.2618,-161.4187,668.9772,-444.5619,495.8456,-306.9745,551.3336,-156.7730,-196.2960
-2734.3750,-206.2849,161.6668,-148.7322,763.9142,-250.6538,401.0931,-290.4815,356.5784,-380.9684,471.0866,-39.7051,376.1124,-107.5373,544.2828,-391.1690,444.4734,-288.2178,434.1636,-348.4839,-142.1966
-2726.5625,-237.7739,123.7780,-184.0394,666.5659,-251.0036,331.2437,-326.5445,360.2595,-383.2387,476.1037,-77.1962,343.2397,-71.4257,512.8621,-392.5512,411.3731,-284.2458,477.2916,-240.9933,-68.8486
-2718.7500,-201.1091,97.6674,-182.1749,602.4678,-248.1815,338.6352,-287.4406,478.1862,-345.3531,483.3466,-37.5197,312.5912,-32.1355,519.6663,-427.7633,344.5037,-248.1064,377.6616,-839.3743,-103.3110
-2710.9375,-135.1358,-1.3410,-219.9928,393.7730,-323.0416,121.4047,-362.0355,296.4803,-129.1346,375.9678,-112.5175,167.3240,-181.5205,302.8406,-466.6433,164.0214,-320.6605,168.4232,-1477.4944,-141.4222
-2703.1250,-276.0271,-158.8509,-325.6588,152.3295,-391.7498,20.4168,-467.4872,379.0215,-236.7564,348.8356,-255.3559,-7.7133,-250.7311,202.2413,-536.3488,62.7711,-426.0590,172.4434,-1302.4703,-247.3400
-2695.3125,-198.2168,-123.3572,-241.6101,235.6874,-308.7398,73.2140,-383.2253,284.3411,-190.6440,253.4768,-318.4718,-30.9821,-314.2122,181.4070,-563.3205,151.2949,-523.7435,150.2465,-1296.7758,-310.5171
-2687.5000,-329.2494,-131.2908,-413.3912,286.2746,-442.5560,163.2275,-554.7940,373.8740,-254.3373,380.3263,-380.4098,95.9604,-339.5084,272.7761,-626.0982,242.0311,-583.2509,341.2796,-1110.9211,-335.4977
-2679.6875,-356.6118,-99.4056,-403.4927,334.5945,-433.6929,251.9616,-543.6880,499.1319,-393.3654,395.8837,-406.6721,146.6107,-366.1139,324.8490,-616.1879,220.4799,-541.0801,353.0387,-1070.4188,-398.7884
-2671.8750,-322.1011,-82.8992,-368.7160,374.8552,-398.9523,254.6089,-508.7164,354.2963,-176.5066,324.3498,-335.0528,148.1732,-405.8386,254.8221,-582.3950,185.8453,-541.0432,287.7252,-1072.0911,-364.1752
-2664.0625,-381.7490,-93.9875,-394.0786,322.0531,-423.3517,235.1858,-570.8889,407.3911,-239.7741,377.7441,-397.5654,163.6527,-394.6841,271.7076,-608.7288,165.1276,-494.1425,339.3615,-779.9022,-352.6639
-2656.2500,-301.6464,-60.2365,-310.6712,337.0949,-377.9781,212.5962,-487.2924,310.3123,-122.2699,281.9514,-351.3045,139.9494,-385.7531,175.3977,-527.2800,142.2269,-414.4695,282.8330,-877.9905,-343.3608
-2648.4375,-312.6388,-70.0811,-324.3472,297.1295,-389.6929,203.9818,-500.7954,191.1980,46.1644,199.1245,-400.1236,131.2165,-397.8953,94.0492,-430.8937,97.2919,-387.8771,313.2926,-713.1859,-283.1115
-2640.6250,-293.6270,-30.2529,-303.0071,287.2511,-333.3888,230.4485,-479.2947,254.1733,-81.3982,115.3692,-415.9233,156.5486,-414.0073,83.7681,-410.4821,49.4245,-299.2700,302.8383,-590.3844,-298.8244
-2632.8125,-170.5005,-11.3234,-213.5371,275.5559,-280.9639,178.0855,-463.6806,90.3081,6.1753,-11.2296,-291.5898,139.0465,-361.9870,31.6395,-321.9391,106.7212,-316.5571,184.5524,-679.5087,-246.3896
-2625.0000,-189.2248,-32.1532,-233.9031,157.0840,-264.3767,162.9407,-482.9114,148.6697,-200.0808,10.3915,-311.0854,159.7545,-345.7852,126.7191,-343.2152,128.2297,-333.6781,241.5049,-453.4637,-229.7579
-2617.1875,-173.2448,-19.2017,-254.5463,179.3915,-248.0645,184.5674,-430.4202,169.8079,-222.6149,31.7744,-294.8589,180.2223,-329.8546,111.5525,-327.7593,149.4952,-353.0822,263.2341,-579.7306,-213.3859
-2609.3750,-273.9546,-48.7563,-360.8727,225.0782,-354.4373,266.5582,-500.6208,140.3033,-184.8056,113.5190,-328.3087,261.0504,-327.5975,156.7360,-325.9656,231.1180,-489.1675,379.3365,-576.7026,-173.6644
-2601.5625,-462.7583,-81.4000,-445.2788,288.7380,-438.8918,408.5188,-510.9094,355.7737,-343.0878,255.2232,-412.8392,327.8369,-375.4068,225.8754,-300.2424,262.6993,-571.3348,442.4211,-449.7645,-220.9977
-2593.7500,-393.7401,-99.9318,-373.8565,224.2759,-404.5199,337.3438,-439.3743,248.0944,-90.5298,146.7663,-304.5385,219.4810,-341.3861,81.8498,-194.6854,228.1380,-465.6798,271.3754,-452.0476,-186.4818
-2585.9375,-249.4066,-153.3592,-261.1132,-47.8136,-291.8294,124.5320,-290.5302,70.7675,-17.6425,43.6617,-193.9140,4.4850,-230.0354,-20.8348,-156.7906,161.9244,-321.7025,69.7092,-99.0141,-147.6165
-2578.1250,-14.1504,-109.8333,-52.4452,-156.9184,-120.2204,-28.3109,-155.7736,-45.5971,-140.8296,-146.4922,-20.3660,-112.5482,-94.7549,-137.5802,-131.9581,192.6564,-190.8068,-145.9910,-146.0923,-121.8059
-2570.3125,99.9318,-93.6865,-11.9619,-212.1416,-114.7986,-129.2997,-150.2098,-221.1183,-101.1727,-210.7951,57.0037,-140.7180,-54.6465,-201.4898,-90.2855,164.2382,-181.0941,-165.8208,-138.3788,-7.1402
-2562.5000,-17.9876,-102.8267,-61.4648,-217.3025,-165.3618,-63.2225,-163.6325,-81.5725,-226.4960,-145.0388,-66.6065,-75.8389,-103.5040,-135.3517,-104.5785,156.8702,-192.3626,-66.5688,-11.6332,16.5712
-2554.6875,22.8559,-82.9115,-93.1892,-169.6505,-197.1453,-53.3355,-159.2768,-109.2235,-40.0228,-135.4873,-98.4356,-30.1630,-136.5782,-161.4297,-64.0837,203.2997,-256.8593,-89.5063,-182.1384,58.0776
-2546.8750,-37.4427,-128.5566,-194.0410,-224.0937,-262.0591,-38.5466,-223.0561,-57.9715,-32.6584,-10.0370,-199.3897,-53.5901,-164.7713,-110.6164,-18.6956,217.6187,-282.4826,-4.5223,0.2386,67.4841
-2539.0625,-25.3765,-120.1318,-145.5163,-240.1244,-212.6031,-20.3461,-173.4701,-3.3027,-94.9255,-66.1934,-150.9727,-73.6062,-152.5835,-164.4017,29.0741,161.3371,-234.7291,-21.1267,-59.0233,80.2792
-2531.2500,23.2609,-125.7054,-96.4212,-253.5393,-201.5758,-76.5420,-162.3212,-170.0367,97.4091,-121.7571,-101.9793,-130.0189,-140.8212,-294.5938,77.4228,141.6541,-219.4081,-36.1194,-80.7321,165.6756
-2523.4375,-149.5937,-152.1941,-165.8080,-244.4046,-234.0294,-30.1806,-194.6574,-51.2002,-8.7297,-75.7625,-134.4696,-84.8857,-136.5251,-284.2421,7.3099,150.5160,-181.5721,78.4525,130.1021,133.6132
-2515.6250,-97.4246,-113.1775,-75.1643,-185.2187,-179.4520,-43.7672,-102.9626,-100.3138,79.1788,-199.7264,-43.9274,-62.7115,-83.1946,-334.8639,-49.7564,173.4135,-163.7132,-73.9200,-29.0595,151.5962
-2507.8125,5.9109,-89.6626,-116.3448,-285.8276,-184.7017,-115.1585,-145.1026,-173.2379,146.2845,-235.4978,-48.2075,-25.3332,-87.6769,-297.3078,-54.6309,137.4896,-129.6781,-174.0784,108.9563,220.7773
-2500.0000,41.8700,-84.9646,-77.8919,-312.7772,-146.3251,-144.8912,-106.6235,-93.5054,110.0105,-265.6363,-83.8563,-56.3023,-86.5222,-216.1183,-16.8794,107.1999,-93.0139,-237.5830,72.5926,222.5983
-2492.1875,-29.5304,-167.8422,-44.8046,-377.0685,-113.3173,-215.9779,-110.5245,-275.1482,288.3892,-300.1512,23.1310,-128.6232,-16.7336,-250.3042,125.5103,73.5432,-92.7263,-266.4456,0.8300,293.0752
-2484.3750,-237.0121,-250.3457,-38.7985,-436.4195,-107.3941,-204.1211,-104.5094,-190.8418,145.7094,-215.7213,28.0387,-154.9980,24.9924,-239.5520,130.8455,47.8248,-88.5197,-150.3503,213.0141,262.5076
-2476.5625,-205.0182,-183.2201,32.6832,-292.2689,-71.9986,-199.7658,-69.0171,-224.0387,178.5248,-285.8109,63.4275,-115.8748,23.2010,-308.3221,128.6715,50.5960,-20.8374,-182.7537,32.6620,224.4408
-2468.7500,-137.5016,-136.2410,-7.3052,-252.5806,-113.0768,-234.8754,-110.0049,-295.7022,246.8942,-283.3718,22.3516,-78.2088,18.9503,-343.5700,124.0384,15.9013,-22.6215,-179.6042,168.8516,257.9285
-2460.9375,-150.4616,-119.5437,-54.7552,-258.3569,-123.6201,-165.4360,-83.4642,-153.8143,123.7954,-252.3976,-25.1961,-47.0048,-28.7632,-275.2892,112.9389,-26.2686,0.1281,-149.9037,225.5843,210.9595
-2453.1250,-72.9281,-116.1182,-11.7160,-278.6350,-117.6854,-190.5066,-40.4439,-253.4495,276.2070,-276.9551,-18.2572,-73.3060,-21.9926,-336.5387,191.3310,-51.9612,-26.6448,-171.7147,90.7756,254.4958
-2445.3125,-166.8685,-163.0547,-72.1487,-366.3784,-141.2303,-171.0392,-100.9051,-197.5481,177.1646,-221.9806,-78.7853,-92.0635,-45.6800,-244.2584,167.2611,-33.1321,20.1139,-82.9780,381.5217,231.5875
-2437.5000,-142.1226,-146.0103,-5.8966,-299.4377,-75.0903,-98.8831,-34.6832,-162.9554,168.8174,-223.3310,-49.6236,-94.1379,-53.6805,-208.3051,158.8856,1.3733,9.5529,-157.5548,193.9504,151.3793
-2429.6875,-186.4421,-132.3916,-88.7089,-265.5757,-121.0183,-102.8012,-44.5308,-203.4420,267.4443,-190.7536,-59.5212,-25.2800,-63.7355,-249.4416,148.4669,-76.1964,1.9123,-89.1924,254.3181,179.1333
-2421.8750,-197.3869,-78.7849,-97.1417,-199.3443,-92.5627,-68.3328,20.9999,-95.5351,111.4626,-193.7909,-67.0342,6.9639,-34.3934,-325.2069,66.4410,-152.3954,60.6543,-24.4348,382.0957,98.2893
-2414.0625,-84.4362,-36.7539,21.3182,-149.2340,-10.2219,-89.9862,65.4185,-192.7547,228.3978,-289.9588,14.3466,-16.9024,-63.1606,-384.1088,2.3091,-101.7243,69.2767,-44.7976,142.7454,107.3484
-2406.2500,-181.2466,-62.2048,-5.9868,-168.9013,-38.6535,-39.4137,-34.9363,-141.7452,125.5852,-238.9017,-87.0404,33.4697,-91.6871,-222.7917,-100.5790,-14.8389,43.1333,5.0815,290.6631,116.6642
-2398.4375,-228.0189,-73.6929,-16.2497,-138.5467,-48.0468,30.1933,-8.2573,-72.6977,114.8204,-242.8260,-96.3882,65.8774,-101.1699,-116.4544,-73.4203,54.0615,32.0266,-70.0084,171.6268,71.0276
-2390.6250,-200.0964,-79.5035,-60.8182,-173.5282,-93.7534,-9.5232,-15.8962,-148.9817,251.7794,-246.0858,-105.0370,98.9636,-146.9610,-45.4544,-8.5631,50.6308,-8.3946,-105.4174,198.2864,100.0980
-2382.8125,-222.5406,-90.2979,-156.7507,-188.8958,-115.8236,11.3957,-1.8992,17.3774,81.3851,-152.7219,-164.0489,81.6759,-132.1031,10.1635,4.9381,33.8205,-30.1809,-85.1913,315.6149,78.8208
-2375.0000,-115.7244,-70.4864,-82.4391,-180.0448,-78.6535,-18.4558,35.3377,-49.0415,154.2576,-147.1478,-126.8160,49.6204,-132.0002,-56.0141,77.6868,3.2246,-63.7358,-147.7395,140.1765,116.8031
-2367.1875,-179.0588,-90.2846,-148.2920,-202.3823,-108.6515,-5.4886,-67.5938,-36.6415,122.9967,-97.7507,-155.7429,61.3985,-125.0530,-43.3821,48.2862,-20.5634,-56.4561,-28.4539,321.6091,124.6480
-2359.3750,-195.8090,-84.4474,-126.5518,-176.1584,-86.0520,59.0606,27.0722,63.3447,-3.6587,-143.7904,-97.0799,51.7546,-102.5078,-16.1888,32.4820,-30.7919,-36.5851,-39.5877,233.6521,74.0932
-2351.5625,-164.4630,-125.7757,-94.7146,-243.8716,-17.3628,-13.3221,58.8281,-82.6082,137.8229,-216.7650,-28.3192,-21.8092,-70.8648,-14.9400,100.7816,-29.9552,-40.6261,-106.6503,192.7922,106.6497
-2343.7500,-186.1300,-146.4107,-76.8862,-328.6311,35.3103,-27.7295,39.5719,-24.5812,-30.6793,-194.7668,-48.5707,-37.3968,-54.2223,80.2642,81.0867,-9.1613,8.3226,-85.7314,345.9618,51.2151
-2335.9375,-72.2896,-88.9337,3.4424,-278.9307,80.4801,-49.6702,84.8131,-83.0905,87.3404,-291.3120,-4.3215,-24.5047,-82.0791,19.9152,51.8986,41.0890,51.7659,-177.3469,141.6263,60.2902
-2328.1250,-106.6548,-70.0602,-30.4353,-235.4940,8.4441,-41.8569,12.8530,-112.8408,124.1917,-247.0932,-111.2781,-17.8486,-117.1341,-8.6835,16.5221,11.0914,125.0055,-63.1830,318.1507,63.1836
-2320.3125,-126.5135,-62.5287,27.1897,-212.6160,66.9114,21.4212,107.3969,-51.1175,33.5646,-221.4228,-91.7277,-28.7250,-133.6821,-56.8287,0.6504,0.5572,140.7380,-77.5600,298.1922,-25.4232
-2312.5000,-95.4668,-84.3004,58.7157,-209.8890,134.2726,-88.4433,175.8396,-197.5395,211.8929,-221.8999,13.7162,-66.7333,-66.3329,-92.1273,68.7011,-37.1214,102.3659,-215.0702,187.1470,6.8830
-2304.6875,-160.8792,-130.6984,63.7814,-304.6773,139.1818,-113.7868,143.8313,-113.4233,67.7807,-137.8527,-18.3000,-93.2246,-24.4284,-9.9192,36.3163,-63.2997,107.5463,-169.0590,331.6990,12.7406
-2296.8750,-73.4749,-109.9743,119.6668,-280.7123,195.8961,-125.3741,163.6288,-162.5530,86.5088,-187.0571,75.5039,-105.9476,32.2842,-57.9648,55.7371,-39.7266,90.5285,-215.3013,137.0434,-3.5940
-2289.0625,-100.2168,-141.2489,128.4000,-370.9595,167.4511,-185.1519,172.2645,-258.8712,205.1249,-173.4477,47.1560,-128.8410,40.8564,-117.2068,101.0109,-62.3603,134.3604,-200.7296,320.2841,5.9341
-2281.2500,-87.2456,-111.5744,182.8445,-351.5592,221.7146,-199.2667,226.6100,-163.5166,73.4542,-151.1939,27.5083,-145.0582,57.1284,-131.7951,43.9899,-78.3429,218.8937,-251.5017,367.2478,-49.8352
-2273.4375,3.7421,-97.0771,238.2951,-325.2069,239.9774,-248.4257,244.9562,-287.2196,201.8346,-164.9835,118.8553,-158.2947,76.3986,-182.4368,61.9758,-90.3624,168.4168,-331.3174,175.2088,6.4190
-2265.6250,-69.6840,-128.7530,162.3282,-356.3102,237.8237,-245.0163,205.8873,-174.3441,87.8311,-88.1955,116.7924,-155.9528,110.2739,-142.5151,-14.4359,-124.8251,96.5361,-256.5540,382.8226,5.2880
-2257.8125,-1.5038,-117.7462,198.9683,-352.8636,273.2705,-204.0470,242.4322,-132.9058,86.4651,-84.8534,227.3368,-152.0289,183.7520,-138.0415,-89.2395,-120.7310,59.2531,-324.2425,168.0363,-31.2388
-2250.0000,48.4389,-126.6064,138.3524,-366.7283,213.4587,-258.3715,181.7280,-188.7661,172.8970,-29.7991,203.6404,-134.3763,196.9926,-119.8734,-39.2794,-65.9495,-66.2914,-303.2217,182.0504,19.9978
-2242.1875,24.1952,-124.3721,78.5467,-384.8559,189.4589,-203.9326,157.8258,-60.8485,-35.8490,-12.9906,142.7504,-116.9571,210.0429,-64.9573,10.4800,-85.4193,-55.0313,-250.4466,261.9021,-2.9631
-2234.3750,50.3249,-132.3660,105.0996,-352.6965,215.8154,-245.1924,221.2777,-212.6336,99.8099,-127.8853,206.2227,-160.2284,236.4588,-144.7428,146.6061,-54.5860,-63.4144,-289.3778,147.1221,24.4452
-2226.5625,-8.5589,-138.6507,44.6610,-370.6173,155.1781,-226.5024,197.7417,-158.4501,75.5086,-109.8115,108.6995,-142.5381,212.8860,-126.5775,86.7409,-37.8130,-51.7870,-166.3532,333.4274,1.8683
-2218.7500,195.2735,-6.0442,75.9463,-266.9134,187.2667,-190.1685,229.9332,-85.6152,-4.0371,-184.0939,140.8884,-71.1874,171.0324,-163.7744,-66.3923,-2.3899,-22.4569,-202.6935,184.4558,-38.9981
-2210.9375,526.7224,98.6830,90.8323,-281.6864,127.9581,-243.2924,133.7334,-249.2342,84.0770,-237.8181,155.6895,-88.2741,185.7941,-181.4310,-88.8978,-56.4181,27.4616,-217.4669,198.1418,-23.2427
-2203.1250,567.7371,133.0783,64.2719,-268.9865,101.2132,-191.9037,144.0958,-125.3285,-90.2420,-224.0403,92.0443,-74.8465,159.1203,-129.5841,-41.8379,-115.9538,33.9432,-170.7306,274.4385,-85.9323
-2195.3125,631.9358,162.3786,128.8952,-199.2091,128.6390,-232.4210,171.6271,-203.3321,46.6554,-302.1748,156.5826,-79.3117,149.6178,-207.6562,-14.6023,-83.4001,28.5762,-276.9169,55.9016,-20.4494
-2187.5000,619.7902,170.7751,77.1796,-206.8629,39.7285,-280.3453,82.8128,-250.7305,31.2505,-276.6953,104.7782,-53.1660,133.7873,-182.1323,-30.7057,-58.2534,86.8693,-248.4933,184.0880,38.7102
-2179.6875,568.3741,196.7351,136.1817,-146.8869,62.5345,-215.6142,68.7094,-223.4653,-94.4233,-360.5663,126.6914,-28.3550,156.6774,-191.9654,-45.0801,-68.4436,211.8631,-223.4324,131.9908,-11.4171
-2171.8750,472.2370,146.4671,147.4375,-132.7382,72.5932,-236.6935,78.8573,-319.0132,63.2054,-345.2256,174.8701,-86.3283,130.8399,-213.6013,2.8379,-90.4281,256.0988,-174.1765,140.1925,-36.2646
-2164.0625,341.2209,89.2893,126.7972,-187.5770,51.7628,-143.7237,95.1222,-152.4915,-69.0361,-214.8245,117.1602,-104.2376,110.1245,-157.1837,17.8785,-145.3736,232.4480,-88.8710,290.5652,-129.9984
-2156.2500,341.8546,81.9787,163.7863,-146.8803,126.5496,-138.2038,169.0107,-147.4298,42.3781,-209.8848,154.0682,-136.5701,111.0107,-226.2154,55.5252,-176.7755,197.4097,-152.0300,114.5453,-128.1126
-2148.4375,267.6067,59.2143,84.8792,-146.1561,46.4435,-138.6267,89.9971,-185.3090,108.9301,-174.8834,112.0760,-137.8337,105.0113,-228.1925,49.2753,-216.1257,228.4815,-82.1279,285.7049,-96.1024
-2140.6250,261.8350,74.7660,118.4462,-111.0668,116.8113,-102.6504,123.4559,-38.7794,-42.0249,-138.4930,71.5621,-138.6899,101.4897,-190.7802,8.5152,-216.0744,224.0288,-117.8460,209.3616,-135.6327
-2132.8125,273.1055,40.0441,165.0412,-131.0594,126.2069,-160.7458,132.9449,-171.3268,114.1057,-124.1686,155.0840,-197.5901,110.9992,-250.4451,54.8064,-203.0954,199.5913,-171.6386,149.0701,-88.1347
-2125.0000,196.2463,9.8668,123.4956,-203.2741,121.4581,-161.0362,128.2960,-63.0474,36.1070,-53.0176,76.4653,-198.6652,106.3790,-215.2985,12.9491,-278.3314,193.0157,-68.6200,353.6997,-128.7693
-2117.1875,280.7644,58.4436,139.3162,-113.1942,137.0718,-105.0198,181.0045,-79.4586,125.5093,-106.5574,93.2092,-179.4132,86.1245,-194.8459,-44.5416,-258.2607,172.7939,-119.2995,156.6941,-148.0380
-2109.3750,292.4911,44.3938,113.3416,-168.0043,73.8985,-162.8514,80.9243,-137.7150,246.1779,-18.9306,29.1618,-165.0005,22.0856,-144.2420,-70.7812,-245.0455,149.7798,-101.8246,272.9773,-100.0912
-2101.5625,246.8987,45.4166,105.0416,-174.2549,65.4118,-95.0852,72.5371,3.6410,126.5598,-23.7102,-16.2145,-134.9852,13.7246,-77.0483,-79.3189,-250.2435,174.4387,-73.7795,261.9704,-144.4864
-2093.7500,271.4109,56.9486,129.8315,-145.5430,90.0120,-102.3462,97.2389,-115.0388,261.0739,-105.5171,82.5030,-106.9651,1.4491,-157.8897,18.2411,-259.4561,164.1756,-149.7723,146.0672,-118.7937
-2085.9375,294.8712,39.7883,153.5629,-223.0373,150.5583,-147.7803,120.8736,-123.8847,211.5254,-188.4929,32.1621,-189.1015,62.1182,-204.9081,78.7387,-342.8444,187.8670,-156.9387,345.1742,-94.1740
-2078.1250,426.1499,75.7622,251.0914,-263.8687,247.9029,-229.5402,219.3049,-170.0567,272.7776,-270.8051,93.6185,-198.5313,86.5841,-287.2438,140.0221,-462.5414,179.3426,-302.4206,194.0654,-31.7870
-2070.3125,481.5035,59.3186,229.6907,-345.7292,263.3157,-321.2989,233.8024,-335.2241,471.1274,-289.0996,146.1385,-253.9356,139.1203,-342.5699,191.3765,-739.2433,198.8662,-348.8887,284.0641,94.6791
-2062.5000,468.7241,49.4246,217.1488,-389.8096,287.5889,-330.2389,258.1542,-270.5539,348.3510,-298.5700,169.5179,-299.5121,199.5231,-352.0727,252.5903,-896.1319,257.2453,-322.5561,411.9586,83.0198
-2054.6875,535.8784,89.2501,323.5207,-354.0596,356.7698,-368.3298,327.4150,-419.0424,417.5497,-374.1817,238.8271,-301.2109,194.8472,-389.7249,321.7300,-935.1570,359.5386,-356.3955,232.7890,116.2933
-2046.8750,392.9495,81.3818,284.8131,-317.5006,280.8692,-292.5815,251.5995,-307.6727,341.6988,-224.9250,164.0612,-227.0539,193.1109,-204.5364,245.8143,-1118.3396,392.7630,-249.3872,406.6237,115.4865
-2039.0625,350.8559,108.6870,316.9453,-215.2145,238.8145,-184.0911,246.6308,-199.5569,262.7061,-190.9392,158.1240,-155.1339,151.2066,-133.6111,203.7627,-1157.7915,350.8223,-216.6547,223.2998,74.4955
-2031.2500,270.5452,75.4100,230.8607,-187.2541,189.5452,-155.9082,197.4406,-244.7563,324.5336,-163.2622,146.9668,-90.5043,140.0891,-105.9988,265.4987,-1019.5627,234.6571,-188.2318,177.7985,100.2900
-2023.4375,136.0790,71.3988,130.6063,-107.5767,126.1124,-31.9786,134.0914,-48.1932,77.1977,-112.8392,83.6405,-4.1150,149.8018,-19.6486,165.0581,-823.5902,171.3251,-72.0729,254.1841,37.9015
-2015.6250,93.4766,106.4823,87.1904,63.8145,82.5129,37.6820,90.5799,-15.8987,32.7407,-44.6698,2.1614,100.0302,32.3532,85.4359,10.4535,-570.8624,58.8125,28.8074,-34.5903,31.3418
-2007.8125,-153.4838,70.2124,-132.6065,170.7082,-64.4647,150.8809,-56.3054,133.9463,-39.0567,179.0651,-143.6898,250.7306,-77.4530,236.0659,-25.5073,-457.5909,-48.0767,172.2231,70.3417,-3.5858
-2000.0000,-269.5332,64.4930,-178.5181,303.3658,-109.5502,255.8646,-64.2905,275.5883,-10.9439,246.5929,-189.6547,282.2404,-122.3660,229.4844,39.4267,-390.5211,-24.0920,57.4096,-82.8290,-84.6385
-1992.1875,-149.7393,86.0747,-90.6053,285.7420,-95.8084,88.5792,-50.4405,33.9623,261.0484,152.8760,-101.7866,224.5136,-71.4429,61.6457,201.2103,-337.7141,132.7144,-168.6641,-102.1255,-32.8544
-1984.3750,70.7248,154.6676,65.9780,192.6895,-12.3852,-45.1023,-3.9131,-26.0398,123.7311,-18.2283,18.7488,126.4072,48.1622,-35.5927,173.6815,-399.3203,318.2060,-227.1418,118.3232,-22.3995
-1976.5625,354.4992,262.4106,250.8536,195.8120,134.3262,-115.5886,69.9100,-207.8498,123.7454,-237.1479,165.5742,91.5125,122.0488,-143.6433,99.4398,-434.7366,424.9790,-328.4465,-55.9319,15.3327
-1968.7500,301.6118,240.9863,193.0527,181.1451,77.3647,-133.8414,12.0676,-189.4097,66.1214,-218.7975,181.7241,109.8794,138.2706,-88.4440,42.5316,-379.8973,372.0839,-201.5134,67.2222,69.3960
-1960.9375,200.5224,204.1278,162.0439,187.1454,83.1914,-52.4037,18.0243,-34.2548,-37.6916,-136.7392,113.6597,117.9491,71.2774,-7.5375,48.4027,-298.3528,305.9734,-159.9126,36.1895,39.2278
-1953.1250,172.7890,157.2024,132.3733,163.3598,52.3604,-79.7371,61.3225,-135.8697,189.8872,-54.4304,83.9387,90.2752,40.6232,-72.3931,128.6112,-217.5605,244.1943,-184.0825,-61.4686,83.3897
-1945.3125,18.3996,70.7732,118.0368,79.7807,74.8714,-91.8307,46.9697,-38.2280,64.8103,43.1365,69.5494,41.8572,100.3114,-12.0072,77.1686,-119.5323,229.7535,-91.0127,100.2798,69.8733
-1937.5000,-49.0823,28.9900,194.5983,84.9681,188.2885,-86.1360,87.5182,-32.7928,68.6643,-25.5055,220.0595,10.2432,139.8982,-42.8311,43.6234,-77.7118,197.1851,-120.1736,-107.0798,74.2344
-1929.6875,-97.2778,1.5117,178.4388,73.3128,134.9889,-101.2563,33.3491,-84.1556,89.8339,-2.9245,202.8621,-5.1583,160.7805,-21.4486,100.3493,-130.6899,183.8941,-26.1417,-15.0913,131.8814
-1921.8750,-118.7741,-16.1359,156.9729,17.2319,150.3834,-9.7812,12.8729,81.0901,-78.2904,14.2554,145.3559,-23.9485,139.3531,32.5320,79.7532,-76.0638,196.2968,-10.5299,33.6206,75.2010
-1914.0625,-7.7129,6.1899,163.0512,25.5815,156.3190,-75.8709,54.9404,-59.2392,148.1689,-15.1182,114.3880,-17.2684,71.4632,2.9466,121.7095,3.0103,133.2451,-107.4870,-100.1118,118.0517
-1906.2500,-9.2086,-35.3568,85.5549,-80.7414,78.6963,-77.6091,51.4407,48.7959,72.0652,92.8751,0.8474,-55.2213,68.0113,37.7235,118.0955,74.4372,25.6353,-37.0979,144.6557,152.3222
-1898.4375,-19.7409,-54.2377,75.0094,-90.2339,105.0252,-49.5016,77.8909,39.6823,98.9193,120.7102,63.2553,-64.3132,94.5033,-8.6507,107.4135,101.7271,14.9619,-10.8864,-41.6386,142.5179
-1890.6250,-36.4213,-66.7644,55.3058,-72.0065,48.1892,-67.6608,22.1711,-51.6962,189.6492,102.3022,117.5075,-82.6447,111.8423,-27.2765,87.5821,119.7643,32.1214,44.0583,10.9564,160.5533
-1882.8125,-59.1067,-65.0979,74.5918,-92.9112,67.3517,-10.9308,40.4521,41.8394,25.3824,121.7991,99.7513,-63.0683,130.1797,28.9982,69.7527,101.7008,46.2719,58.8840,60.5800,69.5641
-1875.0000,24.9100,-19.5858,124.5705,-8.2397,80.2121,-32.6198,53.4291,-54.0461,148.8485,99.9007,112.6939,-11.8843,70.2073,5.8618,119.6288,151.2600,-11.8903,-31.7131,-171.0947,83.2572
-1867.1875,-74.4396,-79.3302,20.1811,-72.0482,-24.2905,-24.7649,-49.9585,-10.3705,118.9705,253.5777,45.2669,-4.1382,76.8757,87.2808,162.1493,195.3775,-40.4113,11.2361,45.9377,90.5755
-1859.3750,-20.3317,-89.3424,41.2411,-87.5191,33.6579,-3.5598,7.1028,48.6609,103.5615,238.6015,66.2837,-56.0238,97.9870,72.0540,220.1088,216.8487,-90.4965,-74.4881,-75.5844,75.3170
-1851.5625,20.7323,-104.1852,45.2286,-116.1602,0.5393,-108.5102,11.0991,-93.4539,256.1262,206.4898,107.2344,-87.0432,139.0351,39.6794,335.0127,148.1640,-120.6470,-32.3681,-69.1222,116.9985
-1843.7500,-12.3162,-82.9554,-24.9014,-79.0240,-32.6835,-66.6572,14.9928,21.2558,75.5761,211.1979,74.0662,-46.2415,141.9788,81.1241,337.8044,115.2791,-118.9018,6.5424,39.2773,84.5514
-1835.9375,20.8339,-45.3366,-27.8373,-10.7908,1.2933,-68.7005,86.0839,-17.9405,147.2607,136.0066,71.0947,-11.3144,103.1103,78.6733,298.7916,148.5027,-121.9751,-30.4628,-104.1457,82.2794
-1828.1250,-67.9421,-51.5755,-80.7014,-28.5691,-14.6488,-10.7420,33.2576,40.8781,58.0492,193.8449,18.2015,46.6356,86.3384,135.2403,171.8832,169.7330,-104.9660,93.5360,90.5799,30.0835
-1820.3125,-99.4208,-27.4620,-37.2725,44.8361,27.7116,68.4169,75.7351,156.9102,-45.8571,163.8924,-12.3879,52.7990,55.8650,105.0163,67.2808,176.1765,-102.6692,130.7148,-12.3937,-36.8461
-1812.5000,-52.9932,-26.2871,-64.9458,91.0204,0.9755,79.3701,49.1094,20.7382,75.1650,136.7542,-3.0844,26.7618,29.2911,42.5912,76.5701,258.4314,-160.4943,107.6911,-70.4504,10.1071
-1804.6875,-65.1748,-61.1597,-112.2329,7.4847,-46.3648,68.6300,37.8766,119.8936,-45.4352,200.9391,-50.3914,-19.9563,18.1130,104.4776,103.2434,321.9987,-173.9306,130.9761,163.9269,-36.5685
-1796.8750,26.0101,-42.1321,-89.1726,-41.7935,-23.3596,19.1507,134.9784,106.2996,52.3258,187.3815,-27.3477,2.5949,4.2726,90.6221,126.2543,344.8406,-188.0317,47.4986,10.6247,-49.9157
-1789.0625,-46.7308,-68.4517,-167.0393,-45.0713,-65.2757,15.6746,56.1560,101.7252,85.1887,255.8661,-69.2236,35.1729,0.5227,159.7862,121.3594,339.6955,-226.0451,115.0301,113.4650,-17.1893
-1781.2500,-101.2280,-47.0901,-148.6543,5.8001,-45.9381,107.3575,38.5800,194.3267,-79.7036,238.5220,-86.8561,54.9182,19.0148,142.1109,29.7140,321.7081,-140.8124,131.6966,94.5573,-71.2535
-1773.4375,-50.1115,-44.2931,-95.6787,55.1666,-29.9960,49.5360,54.6011,63.4171,85.0336,181.6853,2.1093,-2.8297,-1.8966,83.9321,45.6802,337.2341,-125.0040,41.8473,-29.7505,-54.7305
-1765.6250,-44.4541,-63.0811,-88.1784,-9.0467,-23.5159,57.1678,25.1611,144.9852,-91.6933,262.3259,9.6065,-32.1165,42.7453,128.2197,16.2033,307.2282,-154.6630,47.4581,153.5382,-83.6746
-1757.8125,70.0017,-43.9377,-42.8798,-1.5656,21.7724,28.5049,70.5258,153.2637,-45.6073,196.6682,54.9058,-59.6949,51.1799,99.2101,24.5263,350.9500,-216.5281,-49.2416,-84.3895,-74.8390
-1750.0000,132.7463,-49.2924,-129.2892,-80.8864,-64.6527,-19.9539,-15.8340,66.7513,52.7853,221.2420,42.4971,-35.0506,38.9047,86.4136,85.1389,374.8867,-259.1047,13.2662,-20.9842,23.2816
-1742.1875,144.2863,-27.8055,-116.9102,-70.4966,-88.2910,30.3046,-39.4065,152.9725,-43.0433,197.5409,18.8730,-21.6791,51.4162,98.3393,98.5453,313.5438,-212.8856,-10.5250,-43.7764,0.1722
-1734.3750,205.6664,10.5510,-55.7020,-10.3384,-64.0982,-55.6742,-15.1475,-6.0502,91.9929,75.6179,80.0895,2.4727,76.7624,13.0328,159.7935,299.9707,-186.8296,-90.5541,-227.7329,61.8885
-1726.5625,86.5714,-44.0808,-69.9604,-60.7174,-42.3621,-71.1849,-66.3490,15.4077,4.5548,97.1704,64.8393,-49.9058,98.6551,34.1915,181.5876,284.8573,-130.2294,-69.1202,40.8970,84.1192
-1718.7500,114.0387,-43.7026,-4.6623,-69.6391,23.9364,-79.2420,36.0119,7.3237,-2.3350,15.1838,130.1416,-93.8174,127.0905,62.8051,100.9310,276.2129,-102.0882,-112.2555,-71.9464,76.8681
-1710.9375,60.4895,-51.7706,-61.3882,-89.6573,3.2206,-100.3933,15.3505,-13.8422,87.7809,68.1412,73.4201,-41.8028,70.5075,78.3488,43.2588,291.5051,-121.9734,-25.4700,16.2352,93.6014
-1703.1250,-88.4281,-76.8062,-103.4887,-63.1218,-0.8523,5.0271,48.3281,164.5835,-99.4721,135.6852,32.3397,-9.2115,65.5668,182.4769,-34.7759,248.3846,-130.2256,35.8711,80.0749,15.9453
-1695.3125,-16.4956,-68.3619,5.2512,-27.8228,70.9213,-33.7991,83.1557,52.7630,47.1518,23.9973,104.1039,-48.8508,101.4721,70.3634,37.0456,246.0407,-163.6479,-104.0417,-163.2572,88.1148
-1687.5000,-49.1889,-69.2438,-32.6299,-64.2196,31.0755,-74.3052,7.3636,13.2744,-28.8410,-15.3446,101.2471,-14.1658,172.7653,66.5787,34.2654,242.0286,-127.6831,-33.6384,12.8398,159.6600
-1679.6875,-47.3366,-53.8285,-30.9707,-29.1345,32.7719,-36.3360,45.0977,87.2650,-98.3053,-88.2129,102.9347,-13.0015,137.5963,67.2742,36.0177,279.5038,-126.1665,-32.7865,-88.5443,161.7229
-1671.8750,-83.6395,-88.5528,-107.4837,-31.2659,-41.7101,-39.6028,43.6453,11.0198,83.0727,-17.3033,27.4540,-53.0465,98.2563,64.7540,107.6092,275.7662,-126.8135,0.8295,-53.0776,196.6143
-1664.0625,-119.5574,-119.1116,-143.6208,-104.0750,-40.8104,-2.5403,43.5736,121.1192,-26.1747,92.9410,-8.6504,-89.7550,99.3012,63.5641,108.5841,275.3585,-93.0797,-1.2481,86.8057,160.8709
-1656.2500,60.8164,-48.3251,-29.4791,-65.6640,-0.6304,-74.2673,47.7852,-23.5673,51.8852,22.4165,67.5319,-87.2308,102.6337,-44.3990,38.8603,277.1847,-88.0728,-32.1182,-153.0248,201.4072
-1648.4375,97.8729,-31.1270,-29.6676,-65.6391,-37.7713,-74.3719,-25.3249,-61.6122,-19.3804,58.5386,68.3919,-88.0777,102.6525,-45.7272,-34.1752,203.6491,-121.3866,73.6308,-9.1379,238.6181
-1640.6250,105.9781,-29.8916,-19.8193,-94.6397,9.1299,7.4872,21.5983,21.3138,-119.6051,-6.3632,77.3005,-115.9470,112.7126,-74.0794,-24.1673,175.1124,-78.6697,45.3293,-35.2311,211.8512
-1632.8125,65.0686,-53.8761,9.0059,-67.7153,1.0093,-38.7366,13.4946,-97.8321,56.1541,-52.3246,143.1937,-123.8857,104.7579,-82.4984,41.8315,202.5123,-84.9739,37.9459,-76.3198,241.0620
-1625.0000,-55.5083,-84.3184,-4.8405,-121.5163,23.2262,21.3175,-0.2804,34.3146,-101.7670,7.9996,56.4232,-101.5448,129.1437,13.3686,27.1649,150.1981,-30.9442,125.8295,83.9354,154.5905
-1617.1875,-55.5984,-76.1420,70.7959,-52.8862,99.9308,21.7901,75.4273,-1.1214,-26.1918,8.7533,96.1394,-136.7688,95.0087,-22.3302,29.9870,114.3297,3.5661,55.1287,-90.3305,120.5912
-1609.3750,-101.2638,-98.0648,57.8606,-100.8811,87.0685,8.6399,25.5631,21.8344,-1.1982,31.8990,46.2800,-150.6106,82.3062,0.3600,17.2394,63.8545,27.5102,112.8054,75.8681,145.0059
-1601.5625,-161.2410,-122.3166,72.6099,-93.2427,137.9035,58.1133,40.3872,107.4203,-59.5191,45.6750,61.1096,-173.8242,96.2848,49.6777,-4.8255,39.0225,37.1403,120.0916,50.7384,49.0836
-1593.7500,-114.0314,-92.6065,121.5345,-47.4734,150.9183,-4.2858,53.3821,-63.8637,138.3434,-16.4075,110.1224,-124.9059,73.4428,-12.8693,45.2906,50.3301,49.9478,26.5062,-111.1992,62.3342
-1585.9375,-131.1399,-69.6154,68.1338,-67.0683,133.6122,13.9514,-0.9450,28.4987,-25.1313,2.1562,56.8101,-70.3471,92.2795,-31.7763,28.0831,31.2746,67.4394,112.5464,83.5538,45.2497
-1578.1250,-35.0138,12.8098,130.9645,61.5312,160.5339,75.3676,-11.0455,-19.9652,-34.3714,-83.0956,82.7294,-44.5938,46.3437,-80.4967,-55.8916,19.4220,127.1532,66.7558,-101.4797,35.3868
-1570.3125,-10.1743,60.1749,118.5158,117.8173,111.1845,62.4654,-96.4264,-106.7376,-45.9001,-95.6527,34.3738,15.8484,-2.8559,-93.5278,-68.1288,6.2634,151.5975,158.6481,-39.7587,60.2426
-1562.5000,-52.1004,73.9092,78.3025,144.2983,108.0707,129.7417,-63.5770,-2.3292,-232.2029,-101.0304,-5.7424,46.4763,-5.8244,-25.3769,-108.1337,-0.6926,180.2751,185.7053,-10.8221,-16.6874
-1554.6875,9.3045,68.9982,143.4094,133.0732,136.2772,82.2985,-35.4088,-85.6381,-56.1724,-111.1152,21.4696,-0.6046,-14.4692,-72.9302,-79.8138,-11.3480,171.2790,140.0412,-123.5549,-25.2989
-1546.8750,-81.6626,10.6530,122.1373,38.4411,115.1088,96.4425,-56.6210,0.6537,-150.5316,-59.6009,0.2993,-23.0921,-35.4856,13.1107,-100.8607,39.5882,149.9134,151.9543,137.3502,-46.2985
-1539.0625,-34.7974,27.7225,135.6947,47.6088,128.7736,108.3681,-7.0013,49.7213,-173.0608,-48.3128,13.9627,-10.7878,-58.6769,24.9403,-87.0585,51.3226,126.3757,126.6326,-25.9360,-69.4815
-1531.2500,-39.6662,23.3354,54.5264,40.0160,84.7126,62.5298,-50.1169,4.0345,-32.3312,16.2225,-66.0989,17.7585,-102.5906,16.0130,-56.9783,42.3055,86.1111,154.5527,41.0756,-39.3989
-1523.4375,-120.5123,-2.6835,10.3859,27.4214,77.6829,90.6824,-21.2107,105.3441,-112.5861,44.7518,-74.1325,9.2937,-73.4775,44.0796,-64.8786,-3.7042,109.8685,141.4543,137.0999,-120.3089
-1515.6250,-28.2325,27.3970,106.3644,81.9267,135.7753,36.9191,74.8125,-21.2607,94.2963,-45.6283,21.9610,-7.0815,-87.2423,-46.7667,-42.6488,-20.6096,96.7478,-14.5650,-86.7489,-98.1005
-1507.8125,-70.0302,-2.6455,97.2625,1.3235,90.7947,26.0422,-8.2391,5.0339,13.0853,17.8805,-60.0174,-17.5689,-59.0769,16.2764,-50.4846,5.3763,124.5642,46.2936,118.3509,-69.9807
-1500.0000,-15.4800,32.6900,118.4995,54.0173,112.1596,45.4378,13.0453,24.5983,-75.8008,-36.3442,-39.6531,2.2251,-38.5780,35.5947,-29.9868,-12.3411,108.7208,-6.5833,-1.2349,-85.5496
-1492.1875,32.5522,53.7570,92.2160,63.1485,48.9991,17.2645,-12.2010,-75.3974,46.7751,-62.1246,8.1837,48.4627,-26.6046,-28.6455,17.9817,-40.6073,86.3483,-30.0220,-23.3319,-37.6503
-1484.3750,-21.0990,54.7844,-0.7495,77.5873,-6.8407,107.3892,-68.1397,86.9174,-118.3568,26.3980,-83.6574,64.9991,-45.3146,23.4228,-73.7371,12.4448,102.2853,17.8362,99.8722,-56.4407
-1476.5625,67.2563,95.4520,16.2883,162.0440,-25.6747,85.5145,-51.0819,-8.7704,9.5271,4.9295,-66.4871,43.5478,-102.0189,-34.4985,-19.4465,27.5250,154.2257,-72.2991,-92.9183,-39.2158
-1468.7500,-3.0417,69.5813,-21.3148,124.8677,-64.1473,81.9971,-89.6642,24.9037,8.7626,38.8221,-104.9613,40.4462,-103.3621,-37.0641,-20.7988,-13.0293,154.5355,30.9102,84.6732,-3.6356
-1460.9375,-55.1151,55.1623,36.3046,174.9010,-6.3951,101.6671,-31.0233,118.7656,-78.7795,21.9019,-46.2087,23.5399,-81.4846,17.5600,-72.9228,-30.3762,102.0702,-23.7083,-2.5391,-55.8480
-1453.1250,-62.1613,26.5933,26.9376,129.9377,-14.6313,53.3214,-3.3761,-3.3839,59.6913,10.9842,17.5693,49.6290,-53.5839,6.1780,-8.0318,-41.7154,23.6181,-68.3349,-8.7229,-28.0462
-1445.3125,-83.9966,12.6302,-30.2170,70.1817,1.3508,31.1757,49.4838,85.6784,-33.6382,26.2691,-39.4286,27.9139,-0.4616,20.9980,8.0652,-100.8425,37.3813,-22.7658,182.3158,-85.0392
-1437.5000,37.3799,78.0484,21.8453,152.6396,53.5475,44.2247,101.5568,24.9354,56.2439,-34.2534,-24.2020,41.4004,-22.1212,-75.9818,-13.6122,-87.7555,52.3534,-115.0057,-83.4447,-69.8184
-1429.6875,-1.6884,84.1423,-21.5398,181.6529,10.3021,34.8246,-52.8178,-20.2452,12.6614,-5.2196,-67.4115,69.4409,-65.2117,-47.3976,-93.7324,-23.1097,82.8891,-14.6912,19.3790,-3.0405
-1421.8750,0.6110,98.6560,-16.5626,181.0321,15.4202,75.7787,-10.8344,56.9280,-127.5609,-38.8345,-98.2514,73.8383,-95.9395,28.5462,-87.5133,-19.0902,120.7859,-16.0415,58.5398,-70.9112
-1414.0625,48.1210,66.9705,31.6190,119.6257,26.7439,-26.0692,74.3530,-116.6935,105.4264,-138.2432,-13.8835,9.4402,-47.4584,-36.2993,70.9031,-46.8534,131.8908,-112.1933,-0.0788,-59.5726
-1406.2500,-2.8184,43.5871,-20.6395,66.7789,11.6323,-6.3623,133.0997,-24.7494,-20.0485,-46.1009,-64.9485,-7.4084,-62.4094,-16.5892,18.8912,-64.0620,116.5621,-59.7941,161.8698,-74.6847
-1398.4375,-6.0897,69.9016,10.7724,165.5962,6.1916,22.9918,90.5119,41.8372,-24.8563,-52.3232,-70.3362,22.3925,-67.6980,-24.2232,-59.4623,-34.6039,77.8952,-64.7617,-51.5380,-43.1409
-1390.6250,-82.6542,32.2207,-35.1077,122.1217,-39.5367,12.0403,7.6312,-5.8712,40.0367,10.1559,-80.0128,47.8901,-77.2785,-34.1544,4.8843,-45.4282,70.9509,-3.0297,13.7951,21.1124
-1382.8125,-17.0434,53.2978,-38.8139,113.8109,-43.0909,42.2351,3.9154,61.5693,-109.9156,3.7685,-46.5202,42.5321,-43.6932,-40.9429,-35.6113,-15.0990,65.1791,-46.1613,9.2742,-19.4784
-1375.0000,268.6921,138.3010,0.5915,115.6150,-77.5412,-29.4767,-30.6978,-120.9019,-32.7563,-104.5269,30.0868,43.2734,-40.9967,-113.6335,-33.0035,-14.6651,34.5220,-115.1903,-161.1329,20.0401
-1367.1875,199.1887,99.5197,-108.2470,42.1798,-149.2313,5.5626,-65.5601,-11.6117,-140.8529,-67.0693,-78.5469,43.7636,-38.5407,-4.5688,-30.6442,-14.4688,-0.3689,-12.4634,87.2285,-14.6950
-1359.3750,185.8521,108.6903,-45.9202,96.9158,-86.7602,65.7560,32.7339,11.8194,-151.7962,-117.4678,-53.0126,30.4096,-49.9315,-18.3538,-42.1245,-28.0996,20.8968,-63.5853,-101.2774,-63.2821
-1351.5625,181.0611,98.2563,-16.0458,89.2295,-93.7455,19.5139,-10.4375,-106.1826,25.7804,-126.3044,-22.9278,21.6178,-93.7717,-63.5740,-12.0545,-37.1548,50.7206,-106.1383,-70.2161,-33.3232
-1343.7500,114.7336,89.8333,-11.7124,90.0215,-51.2725,22.7295,-42.1593,-30.7246,-115.2117,-86.6944,-54.3853,25.2890,-88.1579,12.6674,-43.5351,-70.7376,90.0092,-70.2476,40.2706,-64.9227
-1335.9375,68.7769,53.4611,48.9752,76.1965,-27.4532,7.2956,-18.5358,-81.9256,56.1539,-64.7412,-30.4896,10.3234,-101.1984,34.2593,-56.6631,-48.9515,78.6588,-83.0080,-110.9026,-41.1691
-1328.1250,-105.8722,-14.8197,-60.0383,39.6924,-63.3357,43.1695,-54.6188,27.1911,-16.1941,7.5161,-66.3000,9.6628,-62.9412,70.1589,-55.4827,-49.8469,43.6172,55.5335,102.2379,-40.1219
-1320.3125,-130.4546,-20.9654,25.0066,47.2626,21.8393,90.0927,30.3550,74.3513,-76.4848,-56.1818,-18.0494,-16.9476,-50.6347,6.1114,-43.2390,-39.6749,54.6252,-7.8808,7.3992,-65.0254
-1312.5000,-218.6404,-56.8224,39.4463,61.2491,36.4085,-8.5777,8.7142,-60.0726,85.6141,-42.4626,33.6024,-4.1547,1.0692,-18.5223,-28.6033,-64.0825,35.0353,41.1138,-10.0260,-13.5237
-1304.6875,-355.5219,-92.7897,47.1931,27.5570,81.2836,34.0636,-21.6251,55.8207,-127.0120,-37.4446,78.5637,1.9430,45.0785,-12.8447,-57.6639,-95.1681,74.7581,148.4147,135.8432,-79.7279
-1296.8750,-238.7962,-78.3973,132.5424,36.4942,129.7600,43.3132,26.6363,-45.6840,-5.0410,-100.8316,127.1297,-25.3501,56.6884,-40.5555,-10.1218,-85.6238,15.0859,52.3302,-97.7052,-68.3348
-1289.0625,-220.3876,-84.5737,36.5882,-19.8444,33.9355,19.2819,-31.4114,-32.4606,10.6060,-14.4979,68.3867,-11.9273,71.9929,-27.5441,6.1054,-108.3507,-2.8838,101.9700,60.4597,-16.2540
-1281.2500,-197.8304,-51.3670,-11.2110,37.0003,-13.7355,79.4171,-6.3061,64.9268,-36.5973,-28.0116,19.7971,11.6629,23.4388,-4.3669,-42.5201,-85.9052,-14.6967,87.7672,14.7474,-28.0346
-1273.4375,-147.6228,-37.9030,-35.3616,48.5269,-74.7595,16.2175,-30.5580,-34.0274,160.8389,-15.8670,-3.1457,22.9187,0.5311,-65.5255,7.4988,-37.7888,0.1379,29.2209,-39.3148,21.8324
-1265.6250,-129.3589,-41.7907,-52.4648,-5.8726,-91.7302,34.0747,-47.7608,94.0880,-2.6985,38.3354,-20.0354,4.2319,-16.3239,-12.6242,-9.4316,-56.5944,-16.9742,80.7309,84.6602,4.7420
-1257.8125,-6.0829,-11.1997,38.4352,8.7514,-37.7036,11.9344,-30.9702,35.2026,14.7620,16.5403,34.0801,-17.4443,-36.1820,-69.7102,7.6404,-4.3692,-35.0844,-10.7530,-143.3904,21.6500
-1250.0000,-49.4177,-49.4360,-10.2734,-36.2011,-85.2839,0.2085,-114.7905,-13.2561,77.5931,41.1593,22.5884,-28.7096,-10.6440,-46.3751,33.1025,19.2794,-43.7899,15.1768,-10.0305,83.9521
-1242.1875,-56.2967,-33.0350,-15.5239,-44.6813,-54.4121,27.9416,-85.1585,88.7371,-75.1384,33.2214,17.5565,-0.5117,21.3454,-17.5746,-8.9825,-60.5849,-51.0465,39.5508,54.7430,41.6998
-1234.3750,18.8297,0.9912,-13.7783,-44.1388,-52.5466,-7.3235,-9.5404,-20.2676,75.1174,-38.7117,56.5257,36.6996,23.3315,-90.7623,-44.0654,-96.4198,-82.3155,40.9422,-11.4943,80.4501
-1226.5625,-37.5001,12.9937,-70.4905,-33.0197,-72.1373,42.9796,-29.3860,30.3039,-18.1091,11.9144,0.0424,89.4790,-33.1357,-75.3798,-63.6080,-117.6787,-69.0326,122.9047,179.8067,23.7377
-1218.7500,30.3244,46.0382,2.9503,33.2871,-35.5814,40.4468,6.9118,-8.9720,54.8164,-27.3202,-0.2871,87.4261,-70.4613,-78.8350,-64.0037,-10.7655,-35.6060,-22.9761,-32.7772,-13.8308
-1210.9375,86.0873,23.4171,-15.6728,-19.4303,-91.0918,-52.1187,-11.8560,-64.2764,147.6770,26.4111,18.3204,30.3444,-51.8466,-98.3207,-45.4578,6.1228,-86.2368,-74.8859,93.5863,41.5435
-1203.1250,33.6961,-21.4226,-33.4475,-73.2640,-71.7526,-35.8196,44.2148,62.2836,20.4037,80.9934,37.7731,-25.8694,4.6086,-44.9361,-26.0740,-50.1091,-104.0249,-58.9422,147.7559,23.7568
-1195.3125,39.3045,-46.0168,-30.2363,-106.0750,-31.4302,-70.5177,47.2661,-45.1497,171.1685,45.5802,78.2201,-23.0729,8.0498,-42.5351,51.3045,-47.3114,-132.8169,-56.9981,-23.0925,63.9663
-1187.5000,-60.9354,-71.1382,-96.8784,-137.7138,-60.9638,-29.0554,17.4586,32.5848,105.0504,88.3211,11.8181,18.8795,-21.3587,35.0279,58.8227,-42.3387,-128.4567,16.0999,124.2078,34.3168
-1179.6875,55.9863,8.3384,-10.3638,-24.1777,-48.3397,-19.4413,29.8022,43.4668,44.0520,-11.7968,24.5766,29.9948,-45.6188,8.7520,34.4867,5.8044,-82.9458,-79.6561,-75.3779,9.8145
-1171.8750,128.7446,40.2048,-49.0071,11.2275,-85.8764,-57.9660,-46.0171,-105.7866,116.8595,-87.0601,23.1774,-9.0253,-47.0334,-66.6534,32.9934,2.8116,-10.5832,24.4617,-2.1045,82.1564
-1164.0625,95.7500,53.8109,-5.3974,10.9120,-80.1630,-18.2255,-39.5849,45.2245,-60.1042,-47.0771,-43.9805,32.2188,-40.2112,-26.7963,38.7420,-28.9135,-8.9631,58.8344,35.3966,-22.2661
-1156.2500,172.0583,80.9512,0.5058,49.9248,-37.1552,-14.1791,-33.8604,-24.4668,19.2402,-42.7990,-37.8452,73.7720,-71.1001,-22.6355,8.7844,49.6778,-73.0441,-43.4850,-168.8188,-16.3931
-1148.4375,121.5595,40.8562,-91.3959,-38.8401,-91.9592,3.0795,-88.9498,-6.9350,-34.2405,11.6841,-55.5148,91.5327,-51.7946,68.7349,-8.9894,67.4877,-89.9216,-26.5835,27.1614,2.6653
-1140.6250,148.8604,77.4865,-23.4958,-12.7759,-23.9643,-4.8542,-21.2420,22.4036,-76.9278,-106.0401,-24.3830,120.1006,-20.6959,60.9109,-14.9652,23.1269,-62.0041,-36.8728,-50.0974,-40.4920
-1132.8125,67.7977,53.5882,1.0500,9.9581,0.6694,-19.1203,-33.8932,-101.5950,58.0145,-156.1081,0.3863,106.3277,-32.9602,9.7521,45.6932,9.4321,-2.4437,-14.4893,-24.7067,-16.0094
-1125.0000,-66.0683,64.7519,9.7943,83.9184,-27.4936,25.8305,-61.3389,52.6185,-115.8721,-38.9860,-100.6504,151.7634,-97.0347,90.8043,-54.4614,16.9485,74.3232,25.1049,122.8632,-80.3420
-1117.1875,80.6169,156.8066,54.0837,193.4597,-20.1146,30.3413,-55.2402,21.3794,-72.2174,-107.3228,-57.1462,193.7625,-126.5765,22.4183,-121.0746,23.0387,114.6361,-76.7388,-117.0443,-110.1316
-1109.3750,139.4491,167.8541,-31.4822,145.1700,-68.5937,-18.9840,-103.0050,-27.6927,-83.4524,-120.5108,-68.4980,217.9173,-100.9744,83.1942,-95.5547,10.2948,103.1017,-55.4129,83.1958,-121.7826
-1101.5625,132.6413,157.2987,-37.6932,135.2520,-37.7212,9.0494,0.5770,0.5853,-126.3512,-165.3589,-111.4880,210.4268,-71.0224,112.3193,-28.6952,76.9116,94.9183,-135.7298,5.7448,-165.0966
-1093.7500,137.3096,151.5849,0.5916,173.8510,-72.3557,-64.4051,-35.3527,-146.6217,23.2393,-164.6945,-35.9869,174.4402,-68.5833,37.9507,9.6526,77.0423,135.2272,-98.5215,-94.2117,-89.9246
-1085.9375,61.4093,100.4116,-5.6834,130.9259,-42.5491,-35.3915,-77.8343,-43.3539,-166.7482,-62.5734,-5.0507,92.9138,-38.7050,30.0525,-33.5632,32.6428,128.9803,-0.8474,41.2628,-96.3227
-1078.1250,110.2173,123.9050,81.7283,177.7345,7.9452,-23.6634,-64.6250,-68.3805,-116.0477,-124.7530,45.5749,68.1020,-25.1452,-68.1288,-56.0923,7.9713,142.4203,-24.4566,-156.6071,-83.0328
-1070.3125,85.0698,109.9134,15.1673,150.6209,-57.5364,-17.8649,-94.3921,-62.3301,-108.3340,-44.8618,16.2263,74.3606,-16.5555,-25.2297,-85.5943,-58.6206,116.8990,18.0138,29.5667,-38.7148
-1062.5000,79.3186,115.1628,48.0007,142.9435,-25.6301,49.3559,-25.7678,79.1336,-259.2396,-50.5677,-24.7292,69.0374,-21.5843,42.0900,-163.7135,-26.7851,110.7677,9.8966,-10.8978,-80.0207
-1054.6875,113.9061,120.5928,43.1744,175.6484,-29.3864,6.9407,-103.8099,-37.0515,-153.8185,-19.9210,8.6501,137.0820,-62.2818,73.7760,-131.4965,77.4311,3.9727,7.1569,-221.9771,-10.9896
-1046.8750,-68.1706,66.5907,-110.3076,202.7501,-182.7972,108.9129,-256.5065,139.1460,-269.0894,193.0903,-108.6242,203.5062,-105.6285,175.8517,-173.9431,144.0394,-108.4748,174.8061,-122.6684,-17.6214
-1039.0625,-99.9899,38.1068,-142.5383,239.1512,-178.9632,149.1598,-215.9541,142.5978,-155.1176,196.3575,-103.6451,170.2127,-100.7331,179.2047,-133.1501,147.9310,-140.6717,104.7215,-259.1583,-50.0093
-1031.2500,-78.8750,-6.6857,-121.8378,82.5172,-121.2004,21.3652,-122.4727,15.0227,49.7803,68.5878,-45.7215,78.8853,-42.8964,87.5261,-1.4222,56.7855,-48.9193,18.6058,-26.7289,-29.4582
-1023.4375,58.2960,7.6398,-14.0793,-28.0489,-13.3860,-56.3749,22.0650,11.5010,-26.2837,-46.1423,-11.7538,-34.3918,64.9774,10.9044,69.3442,-19.2973,52.8782,-93.4634,75.7006,-68.8726
-1015.6250,218.3620,36.8364,75.5678,-45.6971,76.3148,-188.2104,74.4896,-157.1209,100.5481,-140.9710,78.1041,-92.7607,80.7384,-84.8063,84.9915,-41.4559,36.5597,-180.6168,-46.0046,20.6014
-1007.8125,76.0662,-20.6436,-1.1490,-82.6770,-0.3505,-156.3821,34.5491,-88.0649,96.9885,-36.1391,38.5917,-96.4662,78.1379,-52.8431,8.2672,-45.9392,-0.1204,-44.0966,163.9099,53.7031
-1000.0000,14.7188,-21.5635,9.0765,-41.6790,46.9244,-74.5879,117.5538,-44.0521,70.3672,-64.3598,49.0231,-88.2100,51.4706,-80.9154,18.4776,-36.4490,43.1327,-37.6151,-2.2871,26.7349
-992.1875,-8.1950,-13.0215,-16.2670,3.7891,-15.3677,-64.3277,18.9889,-105.5667,119.1656,-54.1174,23.8867,-41.4880,26.2366,-34.5114,67.1115,-25.4854,54.8156,7.3390,9.9455,38.1968
-984.3750,-39.3657,-21.6917,-45.8693,7.0326,-7.9208,14.6969,-47.8353,82.6930,-94.3215,24.8866,-5.5075,-35.0021,32.7383,81.6672,0.4676,18.2535,23.2338,45.0566,48.8798,-28.6168
-976.5625,19.8537,-24.8571,50.9159,-5.3019,15.9082,0.1320,-24.2719,-4.6421,3.5875,-26.6980,91.4868,-12.1060,56.6261,68.2627,-12.7961,41.4178,-93.9694,-73.8083,-137.8299,-5.0479
-968.7500,-70.3978,-83.5811,-6.7684,-97.0649,-42.7300,-22.8643,-83.1701,83.6013,-54.9800,61.2834,70.0049,-34.6455,72.0430,118.4295,-34.5364,56.1459,-113.6329,10.9057,88.9885,10.0460
-960.9375,-118.7050,-103.3640,17.4894,-111.8456,18.5684,1.1039,14.8741,180.7997,-103.5928,84.2150,58.4620,-47.2246,60.3928,142.5519,-46.3418,42.8415,-127.3569,-4.4202,5.7016,-38.9313
-953.1250,-116.4217,-114.6447,-18.6606,-111.0094,-17.5462,-37.3175,-21.4963,105.6069,43.3796,119.7470,58.5043,-48.1937,24.3257,141.2917,-9.5659,43.1543,-125.4914,-40.1322,-27.0036,-2.3299
-945.3125,-157.6857,-132.1521,-25.3595,-152.7092,-24.2109,-8.2850,-28.4181,208.8779,-147.2188,148.7231,15.9871,-55.7091,53.6933,207.4923,-53.3572,71.9277,-132.1744,22.6097,71.7087,-9.3024
-937.5000,-57.6877,-88.7842,41.1903,-124.1472,42.3721,-17.0049,73.9025,90.3871,-43.5673,-7.0627,81.7155,-63.9695,47.3009,88.9513,-60.9181,100.9668,-102.6119,-20.3889,-143.3745,19.9601
-929.6875,-28.9052,-64.0476,32.5223,-132.7604,33.7403,-26.9049,29.0076,6.7183,-52.1587,-17.0340,74.2193,-36.4067,38.6900,42.2410,-32.7068,55.8282,-74.2739,42.4466,-10.6900,47.9989
-921.8750,63.7041,16.7131,55.6824,-7.4777,19.9358,32.0795,14.9394,28.9284,-102.9236,-32.1414,60.5484,23.0401,24.9027,-9.5932,-9.6658,4.5649,-88.1143,-8.8311,-164.2250,33.8635
-914.0625,176.2312,92.5415,-15.2390,104.7830,-49.9470,-37.9587,-55.1998,-114.8894,11.2590,-28.2759,26.7966,99.4598,-8.9630,-79.4502,30.3064,7.2663,-116.0316,-3.1212,-297.8375,110.6552
-906.2500,20.0390,14.3401,-102.8741,52.3653,-101.5404,17.3247,-71.0460,-21.3795,-113.2780,63.8990,-25.6760,46.1929,12.4531,-22.9858,14.5582,28.2884,-131.6630,120.9056,-66.1836,94.7146
-898.4375,-4.8979,-20.6810,-56.2631,26.2135,-17.8881,27.8618,50.3532,-47.6252,7.4332,37.3197,23.1021,-16.8208,24.1106,-85.2637,26.0458,39.5785,-121.0566,59.1865,-162.3259,69.0013
-890.6250,-86.2463,-78.4392,-70.0582,-56.3284,-32.6421,-23.9916,35.3465,-62.2589,66.7100,58.3424,8.4708,-67.2292,9.3580,-63.9243,85.1135,-12.5193,-98.8569,115.0844,35.1165,90.8633
-882.8125,-108.7456,-46.8823,-52.0018,-45.0000,-50.5487,30.0138,17.1912,64.9608,-99.1783,39.2050,-46.3125,23.2245,-8.5552,63.2743,30.0112,43.2482,-50.8183,91.8377,14.3561,-1.4459
-875.0000,-80.3034,-29.3757,-98.0099,18.2940,-59.5196,19.9773,-29.0241,18.1334,39.8760,29.0269,-55.1635,50.6399,-91.5331,126.4430,-53.1611,106.9880,-93.8485,83.5572,-98.4817,26.1731
-867.1875,-185.4234,-96.1404,-168.5822,-52.9471,-93.0506,58.4066,-62.7949,204.7821,-67.6534,178.3081,-162.5822,16.5203,-88.0753,203.0895,-49.9033,147.1960,-164.4443,117.7425,148.0987,-44.7874
-859.3750,-149.3323,-115.3514,-128.9563,-87.9761,-17.3868,60.0406,49.6337,205.6264,8.0152,179.7878,-122.8098,-55.3952,-85.4308,130.9489,25.5473,112.6187,-163.8582,82.1298,7.8228,-79.5648
-851.5625,-193.9539,-103.6634,-139.0487,-63.6988,-27.4370,11.9854,2.3492,121.7840,71.9616,204.5842,-132.7593,6.9957,-58.5045,83.1275,52.2896,28.3546,-137.9880,140.8472,68.8294,-90.0648
-843.7500,-179.2435,-43.7921,-83.7956,19.9513,-8.1447,103.2969,-15.5838,213.3070,-130.7612,148.7379,-114.3703,62.7410,-40.2400,100.6658,-76.6319,10.4594,-89.7856,117.9385,47.1368,-182.2425
-835.9375,-14.9936,30.6104,-25.0051,113.1658,50.6859,88.1701,-30.9734,13.3791,-34.9423,22.4483,-55.4396,84.0477,-55.4377,48.7593,-91.0213,-4.8677,-101.0513,-0.4002,-176.0368,-123.8909
-828.1250,-70.1431,-8.5260,-122.6264,55.9981,-46.8941,62.6592,-91.7647,62.0776,-58.5536,107.7660,-152.9319,95.9699,-42.0545,134.4701,-41.8393,44.4232,-157.7314,47.8769,14.3622,-74.9672
-820.3125,-69.4276,17.5974,-159.4067,126.6970,-83.6319,99.0051,-54.7082,98.6242,-58.3110,69.9287,-152.5863,132.7522,-78.8370,134.0432,-41.8210,118.5810,-157.5765,47.0047,-126.4465,-75.2109
-812.5000,-106.6226,1.0222,-163.1026,88.4908,-87.2799,21.4584,-95.5566,21.2810,11.0172,29.2028,-119.1559,128.6376,-45.5304,92.7370,-45.7154,151.8525,-88.3432,79.2486,-22.1715,-42.3710
-804.6875,-147.8316,-11.6749,-92.8022,46.2903,-17.9299,89.9230,-63.4013,126.9519,-139.6721,60.4807,-159.7324,87.5259,-50.2342,125.4476,-123.6219,111.1412,-26.1243,106.5046,76.0535,-120.5553
-796.8750,-8.9960,65.7887,-23.4547,149.1496,-21.5349,85.4374,-30.1992,11.6641,-33.3086,-54.1903,-126.2650,120.4676,-89.8934,84.2140,-127.4895,107.4977,-27.8725,32.8198,-172.7132,-87.7052
-789.0625,-48.8252,63.0451,-66.7694,143.3700,-101.7961,77.3117,-110.6513,4.7430,-76.6208,-25.5044,-133.4595,149.7684,-60.2137,150.3499,-172.0274,63.2200,1.7174,61.4994,-2.1515,-58.5303
-781.2500,-3.5010,64.4665,-54.9353,152.7580,-52.9104,88.3407,-61.9463,51.9718,-138.7819,-51.6696,-84.5085,87.2273,-85.3915,161.6387,-160.4244,75.1030,11.4373,0.3316,-62.5066,-84.2235
-773.4375,14.1640,6.7664,-41.7656,63.4966,-39.6866,-9.2814,-48.8972,-82.4472,58.3989,-39.4799,-34.2213,27.0422,-35.2283,64.2866,-36.4818,88.3449,-77.5066,-18.4666,-81.5279,2.4211
-765.6250,-72.4228,-41.2220,-94.8445,-23.0108,-18.7128,10.8534,-65.0954,11.8936,-67.6893,54.4613,-50.1937,10.6052,22.6766,83.7014,-52.7993,72.3574,-57.7148,34.4894,78.1581,-14.2077
-757.8125,25.0351,-1.0113,-29.8798,2.5319,9.3037,-35.9593,-0.2483,-71.7216,33.2808,7.4580,14.8743,38.2201,13.6193,38.1866,-62.0689,63.4399,-66.8943,-45.5000,-142.1557,-23.7986
-750.0000,46.5748,21.5473,-45.8345,-11.8240,-43.5924,-89.6638,-53.3033,-88.2215,-18.6693,27.5700,-37.9763,58.9425,-2.3437,58.7900,-78.2424,11.6288,-45.9900,9.6240,54.6192,-3.3110
-742.1875,48.4686,31.8969,-4.4431,-10.8215,-2.1391,-48.0181,-47.9946,-9.3718,-124.2661,-4.9681,-32.4762,63.0143,2.0377,99.7384,-73.0654,-19.8298,-9.7481,-24.8964,20.6916,-72.4948
-734.3750,101.5111,11.9697,49.0928,-64.6664,14.4618,-69.2242,-68.5352,-104.3747,2.2811,-63.3503,57.1650,6.2372,-17.4381,78.8377,-56.7515,-3.1341,6.6294,-44.2482,-33.1103,-56.5441
-726.5625,33.5945,-31.7017,16.6770,-97.4522,19.1147,7.6289,-64.0212,46.6850,-140.1427,-22.6766,24.8477,-63.4893,23.1330,119.9916,-89.4040,37.6235,9.0456,-7.5359,110.0980,-89.5668
-718.7500,208.1242,29.9119,49.7147,-64.7815,52.2170,39.9347,-31.0542,6.1815,-107.1050,-101.5570,57.9771,-67.7600,19.1450,41.6016,-93.6173,33.8442,-28.1015,-45.3658,-104.2932,-57.1572
-710.9375,263.7867,50.4386,-5.1116,-80.9573,-2.5369,-15.6017,-86.9364,-50.1608,-88.9308,-47.2818,40.2434,-49.8738,1.2997,23.3804,-75.6970,-20.7709,-43.1109,8.9708,21.4470,-2.6217
-703.1250,164.2501,27.4529,2.8628,-75.3267,79.5104,65.6646,-5.0026,68.2995,-190.9590,-76.2057,11.3037,-78.1857,9.2467,30.9693,-103.9821,-48.5728,-3.3371,48.1043,25.9309,-68.3067
-695.3125,165.8095,22.1898,38.9290,-39.5954,78.6535,28.0283,-4.9731,-43.1470,-6.8791,-78.0183,47.4493,-79.3936,9.2848,-6.3332,-68.1735,-12.2629,-2.4812,13.3484,-114.5132,-32.9060
-687.5000,67.9599,-19.4537,10.5861,-68.2540,13.3881,71.0032,-34.3408,38.0255,-36.2190,2.7830,-17.8208,-108.9912,16.9135,-36.0247,-23.7799,-41.3428,4.9591,90.2086,33.6098,-25.9282
-679.6875,150.5569,28.3991,57.6858,-21.4510,60.5663,45.4331,13.7501,-25.3550,-25.0956,-60.9615,30.3533,-98.1351,27.9847,-135.2652,24.0587,-66.9645,50.8283,30.5253,-165.8707,-15.5138
-671.8750,131.2864,14.5347,35.9217,-41.5013,1.8893,-14.9818,-9.0068,-120.5764,63.1611,-47.5393,7.6650,-83.1283,5.2034,-120.3385,38.0434,-15.4314,31.8269,81.0101,-81.2169,35.0305
-664.0625,36.8642,-31.1080,13.0062,-66.7044,16.0698,35.4553,5.1012,2.0579,-70.7396,2.7347,-15.1696,-107.2708,19.2707,-34.5481,14.8752,35.9649,6.6520,126.3410,-0.7690,-25.5945
-656.2500,64.5887,-26.9703,40.2296,-39.7585,43.3942,25.0383,32.3571,-45.1618,103.5159,-7.8373,-24.8636,-116.2607,-27.5151,-44.5924,41.8524,26.5222,-1.3905,81.8315,-185.2062,0.9212
-648.4375,4.6047,-54.9820,-61.2548,-100.5120,-20.9879,70.9350,-32.0859,74.9360,40.0499,110.8977,-89.2757,-106.9457,-55.0124,1.6770,51.1167,-0.6068,7.8551,125.6440,-0.3689,9.7148
-640.6250,53.3224,-34.2039,27.9557,-52.5549,-5.6696,48.5362,-16.8169,88.7269,18.2967,88.3309,0.0089,-128.9272,-2.8182,-57.3524,65.0789,-22.0236,20.7842,68.1589,-162.8841,-12.8105
-632.8125,81.6755,-14.3584,18.8062,-24.9503,-51.7060,1.7902,-62.8908,-30.8255,119.1894,79.4265,27.9273,-101.2570,25.0165,-102.7171,92.6840,-67.7836,48.3490,60.3356,-171.7658,14.2979
-625.0000,30.1765,25.5967,39.8017,28.8134,-29.5877,59.2016,-40.8063,63.7836,-79.7821,26.6779,-24.0074,-43.4343,-27.0029,-44.9162,4.4298,-82.3820,102.0432,113.6674,-84.5539,-38.4626
-617.1875,96.5210,71.6411,107.6377,94.4242,38.3768,53.4654,-9.8676,-52.7663,61.1091,-17.2157,-30.0959,-12.7601,-70.1768,-124.2548,-1.9727,-51.1195,132.5625,2.8610,-299.5337,-8.3848
-609.3750,21.6009,20.2437,27.2144,53.7811,-42.9084,45.4849,-54.1705,-23.5522,90.7358,48.6497,-74.4494,-57.3351,-77.6052,-58.8292,27.3691,-58.0969,125.8213,66.8190,-95.7800,20.4197
-601.5625,-30.7663,23.3937,47.3456,35.6898,-21.6408,65.0543,40.0912,70.2005,37.9241,68.0646,-127.2579,0.6390,-130.4894,-0.8493,11.2652,-36.5119,143.6215,48.3248,-183.5349,-33.2426
-593.7500,-17.1956,48.6253,-12.5803,83.5463,-82.4240,77.5695,17.3100,-27.1005,125.0622,44.4369,-114.1328,86.5616,-117.4330,-24.9115,60.1160,-59.9686,85.3595,60.7932,-207.3536,-20.9678
-585.9375,-105.2349,32.8637,-28.1031,100.8019,-59.7978,136.4902,-35.0537,142.0047,-73.4086,102.2114,-128.6098,71.8812,-131.9793,33.4326,-28.6415,-74.0226,102.4945,147.6646,-85.8103,-110.3148
-578.1250,-49.1263,51.2336,31.5274,156.2070,-38.0158,157.5548,-49.2534,90.2467,-51.7070,50.1420,-68.9345,57.3475,-109.3780,18.9289,-43.2568,-14.9158,122.7618,62.6853,-312.1617,-125.5255
-570.3125,-243.8752,-24.7551,8.3021,136.7556,-60.0830,134.7731,-34.2980,103.6546,-36.8691,100.2428,-92.1201,33.9668,-132.6302,69.5914,-65.7385,0.3461,103.1637,77.8649,-86.3871,-75.6049
-562.5000,-356.0725,-78.4700,0.6303,93.8529,5.4100,126.5385,68.2218,169.6064,-44.4774,128.8997,-136.7491,26.1323,-103.3302,98.8095,-36.6654,29.1646,60.0980,33.5859,-60.1179,-84.1473
-554.6875,-265.9960,-88.1876,-17.7476,42.2358,-12.7963,33.5990,123.0507,75.8502,157.2239,108.8724,-82.0851,-29.4118,-85.7261,6.3388,17.7224,11.2878,8.3130,52.6152,-77.5686,-30.4006
-546.8750,-273.5085,-102.8370,-60.6796,-35.9335,17.4579,63.1138,154.3523,143.5606,40.3677,102.3086,-124.9761,-72.5063,-54.6734,0.3269,10.5614,-31.1250,34.9566,150.1001,160.3938,-74.2205
-539.0625,-191.3291,-101.5320,97.0888,-60.4081,102.4193,73.3217,201.3655,79.9569,51.2317,2.4513,32.8366,-135.9046,-6.9175,-99.9837,21.0946,-56.8235,45.2835,54.2837,-40.9869,-64.3484
-531.2500,-244.0602,-130.1420,112.9481,-78.7943,118.4826,15.6321,144.4889,-14.5395,104.1835,-19.2898,49.7397,-155.2051,45.9400,-120.1794,37.7245,-77.4174,62.6950,106.5820,45.7205,-12.3974
-523.4375,-209.7937,-119.9061,113.8109,-80.1843,156.5601,15.9455,182.6349,58.9677,-41.8604,-19.0257,49.6456,-155.5111,82.8001,-120.3716,74.3560,-39.0060,26.0843,34.8805,43.3796,-49.4664
-515.6250,-57.6756,-96.4382,121.5155,-68.7353,127.4902,-86.9001,190.6457,-115.6796,149.9617,-11.8948,95.3969,-183.9727,91.5089,-184.7066,155.8393,-30.7357,-33.7051,-59.9709,-52.1401,31.3064
-507.8125,-69.1513,-119.8361,33.6172,-151.8927,76.8246,-138.3460,176.0690,-57.9187,135.1703,83.6423,43.5411,-199.0313,113.6218,-162.6335,140.7181,-80.0552,-47.1147,-3.4247,179.7052,52.4687
-500.0000,60.3327,-51.5307,96.6695,-128.0997,103.1167,-112.8541,239.4545,-69.2272,88.3462,35.1238,69.6396,-136.1415,65.6885,-136.6108,93.5463,-90.4113,-58.5872,-84.9350,-43.5490,40.5779
-492.1875,99.4622,-32.5137,61.3664,-124.6665,68.0566,-148.7155,131.4962,-140.8881,127.1639,-0.7371,34.3827,-97.6018,67.4070,-60.9253,58.0219,-51.1066,-55.4214,-80.7863,28.8322,78.3243
-484.3750,76.9952,-57.5990,40.4704,-182.8392,47.4110,-97.1796,146.9606,-16.1472,-4.6212,51.8066,13.5289,-118.6659,83.5283,-9.8345,73.8998,0.6096,-43.8743,-105.2429,110.5623,19.4552
-476.5625,147.7743,-32.4730,73.8195,-147.7717,81.0141,-137.4005,217.6858,-129.1741,212.8637,-25.3952,83.9282,-122.4838,79.9022,-122.4928,144.0338,-37.4169,-44.0918,-210.4440,-31.4819,88.8283
-468.7500,74.5477,-12.6826,-38.8373,-115.7082,-31.3773,-103.6185,142.4247,-22.1893,63.3367,44.4098,7.3179,-51.2997,40.2778,-15.1400,67.1652,-76.4375,-12.3220,-3.6380,140.4481,85.1850
-460.9375,28.0747,38.4157,-48.7406,82.1063,-78.0116,32.9101,59.9288,114.5315,-93.4274,107.9657,-75.5347,48.6301,-42.5934,85.9634,-52.9465,24.3069,-95.8166,123.9084,-119.9251,1.2849
-453.1250,-129.7117,-23.3902,-139.9464,133.6046,-167.9408,124.1292,-68.8576,95.9514,36.5041,237.2357,-129.6895,67.2534,-133.7594,140.7690,-71.3495,116.7561,-149.6240,211.1612,-139.6088,-17.9240
-445.3125,-205.7037,-71.5179,-177.3502,58.9016,-132.0565,160.1507,5.1815,243.1746,-0.7718,273.3048,-204.0378,-7.3294,-134.1154,141.3734,2.0531,81.0109,-84.6441,170.2130,65.4645,-129.3483
-437.5000,-20.2454,-34.5995,-21.3037,-3.3579,24.2858,21.6111,161.6866,-6.1702,229.4206,60.8328,-46.9313,-71.4700,-51.0172,-70.5754,121.9096,-19.2768,-6.2315,-32.2877,-33.0414,-121.3279
-429.6875,83.5059,-11.5153,49.0398,-111.3279,94.9326,-55.6317,195.5041,-83.2056,152.9043,-16.3221,22.4650,-112.3184,18.3857,-148.2118,118.0593,-133.2568,62.4673,-34.4802,209.7350,-89.0198
-421.8750,133.2503,31.2302,64.3804,-62.2973,147.5804,-40.8739,211.3345,-68.2434,20.3995,-75.4603,74.8670,-97.1629,107.7860,-169.8400,59.2064,-117.2213,110.1491,-21.6720,116.4610,-111.7234
-414.0625,135.3266,42.1418,100.0606,-24.9203,146.5756,-42.7620,137.5201,-178.9299,93.2442,-114.2318,110.6133,-61.6616,106.5379,-169.1063,57.7012,-116.8167,112.1675,-19.4989,11.5241,-40.0924
-406.2500,97.0430,21.7011,94.3931,-29.8928,104.2269,25.0048,22.3696,-38.9530,-96.2755,-83.3436,105.0051,-67.5096,100.9384,-65.7142,-21.1549,-48.7270,71.8194,-23.6717,41.1994,-9.8329
-398.4375,173.2067,27.9027,97.1772,-24.4192,107.3337,-10.7825,-12.3176,-146.5369,-20.3255,-116.9967,144.8457,-63.9083,103.7872,-61.8686,17.4372,27.8348,41.9012,-124.3984,-165.7166,64.8702
-390.6250,28.9094,-37.3465,51.5004,-99.4079,61.9914,-55.0209,-55.4464,-154.5596,45.1739,-89.0843,99.2307,-72.7623,132.1912,-70.4668,82.5770,21.9561,70.5084,-23.5728,37.9092,129.1124
-382.8125,-127.4270,-32.9523,74.7781,-10.4591,122.6153,2.6774,3.3986,-58.6484,-41.3619,-177.2300,85.5753,-13.6797,118.5503,-47.1325,105.6801,-27.9483,125.0486,29.1901,-14.5600,77.2978
-375.0000,-140.8631,-18.6525,130.9530,80.3703,142.1518,22.2592,-11.8401,-186.8531,51.0176,-231.4716,141.8225,6.2899,137.8189,-101.9035,87.6929,-44.9437,110.4799,14.8479,-170.1360,132.3810
-367.1875,-124.0950,-13.5933,77.3376,61.3881,125.9017,4.0327,-28.8579,-93.8574,-111.4027,-175.5085,125.2730,-11.5527,121.2937,-81.4755,33.9046,-23.7487,91.1102,66.7011,19.4670,77.6551
-359.3750,24.0328,5.9596,124.0832,33.7388,136.0164,-23.8619,17.4964,-121.5368,-29.4400,-203.1931,208.0822,-39.0599,131.1228,-108.7047,43.4825,21.7806,63.0838,-67.1096,-184.6131,49.2800
-351.5625,56.7104,-13.9917,80.3840,-39.3871,55.6937,-66.2190,-60.5792,-164.6740,75.0839,-136.3272,165.4524,-45.0332,124.5195,-115.3933,73.6321,53.8388,23.6061,-70.3828,-48.1375,115.4499
-343.7500,57.8093,-17.6437,46.1082,-74.1326,58.7945,-28.1931,-21.2242,-52.4312,-67.9779,-97.0771,94.2402,-42.6275,127.3329,-75.6959,76.1910,93.2907,-11.4737,-35.2729,-15.2973,80.0182
-335.9375,85.3654,-0.9377,36.2875,-11.4504,49.3579,-74.7332,6.5967,-172.7575,105.4139,-107.3762,121.4851,-15.7800,117.6063,-122.5461,140.1987,48.1912,-54.1190,-42.7028,-165.0145,106.0401
-328.1250,-84.2461,-12.3600,-65.6921,27.0753,-16.2223,40.5892,-95.7189,-20.2127,-34.3660,-27.8077,17.5732,62.9184,87.7295,-41.5274,73.0453,-54.0583,-50.9437,101.7387,49.0971,74.9018
-320.3125,-55.9355,39.2100,-36.7376,124.5524,14.1467,107.8702,-65.0744,46.2838,-77.1742,-71.2637,11.6014,93.5719,44.7957,-12.5477,-7.1490,-96.3457,-24.8500,58.1334,-101.8868,30.7082
-312.5000,-99.4590,0.7512,-81.6016,81.2205,-31.2916,60.3529,-73.2228,-1.0057,23.2246,28.5102,-34.1827,83.4237,-1.9401,14.6438,19.8707,4.5758,-33.5794,49.7356,-6.6740,56.7068
-304.6875,-151.7307,-25.4909,-98.2082,63.1313,-83.4657,81.0815,-53.1002,166.9477,-66.1134,122.5388,-86.7149,67.5181,-17.4217,110.0796,-32.8473,62.7466,-52.0645,31.5710,44.7548,2.9463
-296.8750,-54.7956,-20.8526,-36.6103,53.2328,-21.4321,31.9957,-26.7635,45.0795,143.7664,74.7653,-25.0364,18.8061,-28.6902,61.7069,-44.3598,52.1137,-62.3540,-49.4013,-107.6332,27.3860
-289.0625,-61.1118,-28.7234,-79.2580,-24.9221,-63.6370,-12.3433,4.3332,37.9667,64.3794,104.7397,-67.6010,11.8416,-35.1996,55.0909,-14.1243,9.2273,-34.8982,14.3754,129.7193,19.5684
-281.2500,-28.3157,-41.8080,-5.8030,-61.9772,47.2638,-12.5869,79.5460,74.9384,65.1126,67.8104,5.9396,-25.0234,2.3907,18.5681,-13.7769,-26.5646,-72.3519,-58.7613,-13.8640,-18.1500
-273.4375,-51.5669,-65.3633,-34.4047,-86.0920,-17.8891,-77.8872,14.7189,8.8543,146.8025,148.8449,51.4182,20.0593,10.9330,63.9980,-42.4694,19.5940,-131.8629,-48.9487,-41.4937,26.0792
-265.6250,-97.8673,-38.7242,-81.0532,-29.2646,-64.0781,-15.2421,-31.1383,108.7202,-9.5527,175.8332,-32.1471,84.0879,-35.5707,164.3749,-89.2113,47.7126,-110.4331,-25.1997,50.7993,-21.7493
-257.8125,-26.0197,36.3660,-39.5480,43.7096,-59.1106,-11.4626,11.1707,2.7134,105.2667,105.9759,-27.5521,198.2628,-67.9158,131.8952,-84.7945,15.9798,-72.8649,-94.3062,-159.7796,-55.4229
-250.0000,-50.4381,48.9827,-101.2918,88.4236,-83.3856,0.0677,-49.7611,50.4660,43.8191,154.8777,-89.1997,210.1814,-92.4977,181.1676,-146.6253,28.9929,-63.5502,-48.6566,-10.6105,-81.3519
-242.1875,-28.3103,64.3251,-39.4760,109.6897,-21.0945,23.1421,11.8711,111.7519,-78.0634,105.3240,-64.2810,196.6484,-67.5231,168.9850,-158.8990,90.5525,-43.6840,-98.4685,-131.9325,-131.7350
-234.3750,28.4647,46.7322,16.9923,94.5975,-38.1483,-68.1426,-3.8360,-53.3167,88.7082,50.4231,29.2852,142.7606,-47.8952,151.4559,-102.5148,110.7630,-58.1765,-148.6375,-183.5993,-76.4672
-226.5625,-38.7626,25.7955,-15.5357,61.4941,-33.1885,-64.4315,1.4758,60.6188,-53.5227,54.5299,-3.1498,146.8692,-6.2629,228.9270,-98.1217,78.9753,-56.6803,-110.8166,-42.2856,-110.2011
-218.7500,11.2087,31.1739,35.1357,75.5838,18.9769,-87.5325,52.9986,-35.2610,34.4705,-4.1598,47.6216,124.1702,-28.4264,133.5904,-46.5200,131.3928,-77.9946,-167.8015,-205.7901,-96.7249
-210.9375,-52.4326,-20.1462,-32.7964,-22.9445,-12.4515,-120.2372,59.9326,-30.7363,76.8574,73.5581,-20.2039,91.8603,-60.1775,101.6542,-4.5167,174.2082,-71.9116,-126.3814,-24.8827,-55.8494
-203.1250,-64.1172,-12.9141,-5.7660,-0.5249,15.0884,-93.9988,86.8399,31.7282,30.2043,63.2150,-30.0676,81.4944,-32.9733,91.6573,-51.5611,164.9718,-49.8842,-139.0205,-39.0599,-104.0236
-195.3125,58.2388,22.4994,45.3137,-20.0626,29.6793,-189.7187,101.8031,-101.7691,155.6093,-33.0712,21.1210,59.1787,-18.7154,-4.2902,-0.5548,106.7858,0.1901,-192.6053,-95.1852,-54.1448
-187.5000,7.8369,8.5000,-7.3553,-72.3561,14.5307,-170.1834,87.0276,-44.0070,-6.7451,-12.0991,-31.4399,79.1110,2.7943,90.0133,20.6965,54.8594,18.5095,-139.9495,97.9286,-71.0188
-179.6875,66.9850,52.3151,18.5347,-13.1123,40.9425,-109.1087,113.8132,-55.7126,19.4761,-97.5727,-5.4427,141.5839,-8.1404,78.8598,9.5046,117.4883,6.3710,-220.7527,-162.4285,-83.3372
-171.8750,41.2261,31.8108,-48.4735,-4.7841,-62.5427,-138.9396,11.7025,-122.3197,99.7960,-16.9339,-35.3404,148.1481,-0.9651,122.8040,53.4238,126.2153,-20.6746,-177.4569,-49.6791,-40.5532
-164.0625,38.4731,10.8928,-49.4746,-43.4624,-26.0196,-104.7826,48.6083,-13.9385,-47.8686,18.7032,0.7721,109.7014,35.2177,121.7393,51.3631,124.9414,-59.7292,-182.1792,-19.9581,-79.7611
-156.2500,129.7700,-22.2787,43.5712,-94.1065,67.5554,-158.5895,105.5701,-141.5248,118.5336,-73.6024,93.9425,-18.7006,91.4593,30.7250,107.3701,108.7179,-110.7406,-196.8602,-177.1833,-24.9092
-148.4375,37.2085,-62.6309,-17.2285,-186.6134,81.2895,-146.2532,82.6951,-92.9521,-14.9212,-96.7512,107.2666,-5.9544,140.8593,43.8641,120.5324,85.6365,-98.6025,-79.3937,9.7411,-12.9093
-140.6250,145.3950,-3.8765,58.7283,-80.3693,83.7847,-73.1712,85.5811,-127.6453,-49.6077,-168.1529,145.3503,-4.4578,143.0158,45.7434,49.4482,125.2991,-97.7190,-147.1845,-236.6146,-12.1511
-132.8125,105.2686,9.3535,-22.6159,-16.4278,2.9832,-116.3894,-30.8336,-172.6422,17.4009,-65.8495,102.1361,61.7320,99.8790,75.3208,42.0679,118.6597,-104.1400,-84.2716,-173.2590,16.3120
-125.0000,60.8467,10.9041,8.7496,-25.7935,34.8917,-50.9126,0.4693,4.0561,-134.8886,1.1502,59.6309,55.6142,93.4478,69.5875,36.3944,39.7209,-78.8625,-94.6708,-45.2182,-64.5245
-117.1875,227.7274,28.4103,70.4146,-35.8721,134.1036,-136.1508,100.0828,-154.9604,74.1445,-84.5448,121.4320,-31.2099,82.3196,-52.8474,98.0366,28.0838,-124.2991,-243.7768,-195.8787,-4.0512
-109.3750,203.0995,-31.6164,-32.4246,-201.4630,66.8190,-167.8880,70.2031,-112.4682,43.6652,-40.7307,53.7284,-60.5318,125.6986,-45.7799,141.1831,36.9445,-185.2421,-164.3784,56.9713,74.9247
-101.5625,135.9179,-81.2265,-28.8130,-234.6041,107.9887,-128.1811,148.7844,-35.5396,47.6592,-74.4720,94.4785,-131.4046,129.5277,-79.2708,144.7885,77.2575,-182.7363,-161.5357,-12.7499,77.3582
-93.7500,93.9213,-99.2264,-4.0047,-243.5529,61.3586,-140.2762,101.5686,-121.4169,183.8530,-50.0034,119.4285,-143.0784,117.5607,-127.5625,132.5988,29.7647,-157.0282,-65.4880,46.7529,137.9957
-85.9375,44.0653,-80.7114,18.9642,-224.3502,47.8921,-44.2210,88.5190,46.8600,-11.8092,-26.3848,33.5344,-156.6085,67.7496,-104.7068,82.5583,-19.5821,-67.1695,23.6979,206.3984,86.7779
-78.1250,93.8555,-39.0944,72.5832,-138.5051,65.0824,-28.5260,107.1286,-45.2269,78.1930,-83.1110,124.2972,-140.4935,48.5917,-160.2065,63.1721,-75.2741,-18.6692,3.5312,-27.3036,66.2182
-70.3125,76.7867,-18.5732,55.3472,-86.5228,48.4242,-46.6767,53.8919,-63.1520,24.3350,-63.6722,70.2081,-121.2345,31.5855,-141.5515,45.9350,-91.8169,-2.0247,56.5177,94.1645,47.8077
-62.5000,100.6778,-4.9670,119.0641,-64.5912,112.7175,-21.8804,118.6165,-2.1341,-94.5597,-39.2836,97.0751,-132.0231,58.5312,-188.9530,35.6512,-101.4106,-14.4390,-27.5532,-25.4442,-0.6491
-54.6875,84.0134,-15.5049,60.2256,-46.2146,91.4574,-79.6377,97.7857,-96.6701,31.0000,13.5655,75.3896,-117.3603,1.9281,-172.9118,14.8312,-48.5561,-66.4086,25.8253,-44.5886,87.3512
-46.8750,-20.5481,-67.9250,-10.5055,-117.7418,95.3030,-42.2973,102.0622,14.8914,-39.3463,89.5108,78.8144,-114.6061,40.4349,-96.7767,-19.8776,-44.6064,-69.2781,60.2896,129.3606,15.4564
-39.0625,70.9034,-41.9040,50.7691,-95.2773,157.1522,-91.9722,200.3400,-71.5703,132.3304,2.4505,103.2477,-127.8580,64.9460,-183.6569,41.4267,-56.6554,-83.1484,-24.2574,-61.6930,1.5764
-31.2500,1.9944,-68.8480,48.6836,-97.1717,81.6468,-57.9970,126.2684,-110.3743,130.6447,37.0536,64.3276,-130.4584,26.1069,-148.8796,76.3781,-58.0579,-84.3666,45.8556,40.9334,35.3457
-23.4375,-22.9139,-45.9622,60.6033,-53.0674,94.1483,25.9786,65.2086,9.8215,-41.0302,11.6621,76.4118,-119.0649,38.2638,-100.1064,14.3345,-45.4640,30.4102,19.9564,-21.4538,9.1146
-15.6250,35.5249,8.9321,81.8741,39.3785,43.0020,-26.7035,15.4982,-78.6445,53.6548,-39.3706,60.8498,-61.3239,-12.2222,-78.9879,35.6452,-23.5282,52.5361,-28.5975,-140.4746,66.2409
-7.8125,-28.3854,22.6001,-19.1960,45.4700,-57.4844,54.2612,-85.5591,38.5436,-46.0270,4.2401,-39.0505,19.0693,-40.0510,2.7764,-28.3972,-50.9465,58.3116,48.4906,109.1572,37.0211
-4000.0000,-17.4997,33.6652,-5.3670,79.7065,-50.2415,68.1007,-22.9573,14.5611,15.8597,-15.2879,-34.4772,25.0497,-54.0590,-11.5877,-40.1836,-81.0167,35.1090,32.5751,22.8545,24.3475
-3992.1875,-52.9574,25.2145,-77.3088,81.0219,-124.8418,69.1437,-96.1308,14.7087,53.3179,20.4344,-70.8090,62.4118,-91.6781,25.2726,-40.4738,-45.2390,0.9050,68.0298,164.5245,25.0170
-3984.3750,-72.1286,49.0579,-93.9574,99.6297,-104.1410,165.4878,-76.0006,110.1647,-180.9357,5.4571,-123.8401,121.0684,-71.9881,83.4369,-56.4512,10.8340,18.0066,84.7817,146.5133,-63.0106
-3976.5625,-1.6391,83.0819,-56.9454,135.8851,-104.7797,92.4728,-112.2111,0.2537,-108.5224,-31.8835,-51.2108,158.3672,-72.6487,83.2415,-56.7679,46.5583,53.7616,-19.8324,6.1355,-62.3797
-3968.7500,-75.2539,59.8939,-58.0394,99.0370,-107.5239,55.3514,-114.5324,35.2402,-255.2085,3.6809,-52.6875,157.5650,-0.4107,118.9508,-95.1863,44.1871,87.4229,-22.5412,215.6772,-99.8375
-3960.9375,-49.9708,41.4840,7.7670,91.0941,-41.3633,49.1292,-47.9507,28.1304,-262.0038,-40.8586,12.7362,113.6679,-8.2715,148.5635,-65.7038,108.7157,43.9884,-66.3576,66.1107,-143.3934
-3953.1250,-162.5371,-12.0510,0.7219,86.2977,-50.0533,5.0467,-56.2252,-52.8467,-196.6324,-12.2539,41.3206,105.9203,20.0252,140.3242,-0.0603,99.3964,2.7068,-2.0296,130.6918,-113.7915
-3945.3125,-184.9077,-22.9050,51.8667,65.6921,37.4596,-15.8357,-4.2949,35.3891,-291.0766,-108.4519,56.1033,47.3678,107.5291,81.2900,13.7895,76.2710,52.6266,-58.5007,180.4991,-134.9905
-3937.5000,11.1775,-20.2394,179.4690,-18.4632,127.4352,-181.2740,86.1000,-203.9373,-91.0573,-238.2080,146.3443,-82.7417,160.4845,-86.3027,104.0980,92.5919,72.9998,-213.5340,24.7329,-43.7349
-3929.6875,6.3042,-81.5676,136.1128,-196.5723,157.4543,-259.6648,79.5362,-210.2145,-95.9902,-207.9073,139.6318,-124.8008,153.4913,-18.8424,134.4612,121.9667,34.4261,-182.5109,267.0299,-12.4210
-3921.8750,-72.7214,-137.5667,130.6093,-237.8293,225.3318,-191.2051,146.8248,-142.6353,-102.0879,-176.7615,170.7731,-167.0139,184.3492,12.4704,128.6747,151.1916,27.7156,-154.6437,155.1777,-54.2614
-3914.0625,-152.3367,-187.1070,155.5127,-247.6836,212.6185,-238.3602,171.5162,-190.6804,34.2269,-115.2321,195.3265,-214.8268,208.6165,-36.8255,190.3006,101.8131,18.4115,-129.3854,180.7124,-28.6943
-3906.2500,-192.8516,-212.3786,152.5166,-286.4456,246.0159,-204.4254,168.3080,-47.6252,-79.3717,-46.6101,191.9859,-254.5420,241.9949,-40.0212,150.0326,60.5289,14.2148,-99.0315,282.3683,-68.0263
-3898.4375,-77.6569,-183.2105,199.2260,-273.5108,255.1295,-266.7999,214.8130,-146.8843,41.7329,-109.3021,275.3565,-244.5662,251.0819,-139.5230,159.4799,142.9484,-43.2847,-191.9882,82.7057,-20.6564
-3890.6250,-56.4687,-182.0561,145.9275,-285.5884,200.2421,-282.1820,124.3180,-164.1481,24.8462,-52.9907,183.7248,-260.5977,233.1719,-120.0214,142.9407,161.3777,-56.7888,-134.9424,246.0525,36.7247
-3882.8125,-22.1339,-167.9391,145.7781,-284.5262,236.5150,-245.4147,160.9763,-127.2551,-11.9056,-53.5340,220.2482,-260.4829,232.4225,-120.3706,105.5608,122.9550,-56.1338,-134.7524,140.5541,37.2549
-3875.0000,-2.8822,-143.2207,123.5368,-229.5733,140.6994,-191.7628,101.5353,-222.4854,77.2556,-39.1888,198.6897,-171.4749,210.5848,-105.8272,83.0876,136.4355,-141.5758,-80.6745,-16.0568,126.6927
-3867.1875,-189.4824,-143.2247,-67.5587,-133.4843,-13.9663,-52.9693,-52.7595,25.4413,-113.4443,135.3101,6.2796,2.6836,90.9050,105.8736,1.7706,201.0730,-255.8771,85.5556,80.5024,82.2836
-3859.3750,-237.4309,-106.6241,-152.0085,31.2509,-61.9786,47.4692,-63.3966,52.0173,-50.4900,161.4548,-41.4706,103.4886,5.8829,132.2281,27.1213,225.3678,-302.5308,73.4223,-141.3057,35.5232
-3851.5625,-268.3284,-129.7595,-182.4186,-32.9692,-92.9429,-19.0531,-57.9855,21.6369,103.5244,203.6514,-72.1703,36.3420,11.9129,64.6344,70.5304,120.7182,-156.1347,43.3355,144.9433,5.8212
-3843.7500,-86.8258,-87.5255,-25.4278,-130.7958,99.5019,-81.1792,135.8274,-4.3347,113.9171,-6.7583,11.5300,-100.4063,95.3488,-109.5575,117.3476,-17.5335,26.6674,-125.3557,187.6060,-56.4847
-3835.9375,127.7421,-46.4791,122.6171,-159.5757,210.0015,-226.2679,209.6990,-260.2752,299.3722,-190.1290,158.2875,-209.1034,168.8398,-254.7026,154.2221,-90.7224,101.5176,-226.0092,86.2913,18.2660
-3828.1250,100.5006,-21.5880,95.8438,-151.1581,182.6916,-215.1565,145.7535,-177.0064,89.0174,-143.2860,131.2379,-161.5901,178.5297,-171.6299,54.2973,-118.6967,146.5592,-112.4518,236.1831,-7.7793
-3820.3125,154.5054,13.5117,152.3159,-96.4878,202.6358,-121.7966,166.0583,-193.4835,108.9085,-160.1882,114.4412,-105.8256,124.4705,-188.3024,37.6292,-99.4114,59.8475,-128.6463,9.3110,-23.5806
-3812.5000,39.5635,-17.2572,66.8442,-103.7767,79.6412,-95.4012,117.4203,-168.9308,244.8716,-62.0524,28.7080,-44.0186,38.4730,-163.9368,62.0287,-113.0830,17.1925,-31.8046,71.4962,38.6689
-3804.6875,-31.3723,-33.2451,32.3816,-102.0877,81.6688,17.9707,82.8043,-20.3838,136.8288,-24.9332,-6.0045,-41.2280,3.4983,-124.5839,27.4490,-111.7661,18.5542,75.0180,72.7064,4.9099
-3796.8750,27.5189,-22.9429,55.7377,-42.6083,67.5243,5.1203,69.0003,-106.0646,234.5932,-2.0413,54.1057,-90.6485,26.3403,-175.4425,13.6839,-89.6553,42.7269,28.6194,-79.3013,28.9515
-3789.0625,-10.6874,-62.8957,16.9900,-113.2379,28.2816,4.1596,30.0899,1.1508,159.2419,106.7475,15.1161,-128.1639,24.0884,-140.3925,48.8264,-129.6419,6.8003,62.1300,130.6036,27.8941
-3781.2500,24.0106,-74.6651,53.1405,-112.9677,63.9506,4.0982,103.0865,37.2725,232.7765,68.4273,51.0287,-165.7758,22.7448,-141.4433,84.8708,-57.7238,-29.2280,-9.4634,-80.5995,27.7317
-3773.4375,-102.8352,-124.0998,-45.2599,-132.2612,2.0746,15.4714,-32.4626,-24.1683,317.7750,115.5569,25.3985,-80.9450,33.8606,-57.0440,95.3796,25.6581,-83.8180,40.3834,-64.3594,113.0266
-3765.6250,-158.0391,-109.4482,-65.0182,-115.9221,-55.1455,70.4840,-52.3604,102.0492,114.4111,206.3452,-67.5813,-27.4704,13.6368,-3.9896,38.5499,76.6974,-66.7621,91.8817,20.5540,93.9680
-3757.8125,-65.3289,-102.3878,-4.8734,-126.6940,4.5436,-15.6152,7.6540,15.1586,284.9532,155.0260,-7.6460,-77.1069,0.3226,-91.0427,98.6349,62.6435,-78.8076,9.2661,-130.6506,117.8085
-3750.0000,-134.1161,-167.4381,-40.2418,-228.9738,-31.2627,-13.2269,9.1685,52.7633,286.9968,266.2105,-80.2115,-112.2434,-35.4861,-15.5920,174.2184,27.0959,-146.3586,81.1549,82.6634,120.1513
-3742.1875,-90.4488,-151.8315,-65.1640,-219.8102,-20.6085,-1.3956,56.1386,138.8269,225.4778,240.8389,-105.3221,-99.9318,-24.8376,68.3103,222.2599,73.0070,-137.4606,-50.5118,-14.5749,58.9362
-3734.3750,-98.0253,-145.0743,-110.3349,-189.9095,-65.1924,-44.8316,11.8658,19.6235,328.7247,232.2126,-113.6689,-34.8749,-32.4306,96.9618,288.0682,137.6741,-142.8159,-91.4437,-55.0713,88.4720
-3726.5625,-191.2555,-139.2038,-131.1572,-176.6783,-50.4171,-28.9264,26.9435,145.7777,124.3035,247.9405,-97.6621,17.5286,-18.6598,148.9714,230.2291,115.7028,-94.8236,-9.0249,28.8012,31.3556
-3718.7500,-200.9621,-116.7172,-31.4763,-79.9547,12.8721,-37.5291,54.5262,63.4250,188.3724,201.1581,-35.1431,45.4297,-28.3822,103.4823,183.8931,142.2439,-103.3406,-18.1155,-225.8550,22.7416
-3710.9375,-270.2581,-109.0080,-65.4104,-41.8489,-21.4429,-33.7465,-53.5005,102.4662,81.8403,277.7781,-105.2225,84.7293,-62.6929,179.3956,112.9691,107.1990,-66.4697,19.1969,-48.0979,-10.4653
-3703.1250,-142.1068,-14.0861,-35.9039,53.6864,7.7013,-4.5266,12.9348,168.9695,-36.2527,158.8529,-113.8481,114.4721,-70.5433,171.7676,68.5051,97.6128,-6.1524,-97.0474,-128.8797,-91.2325
-3695.3125,81.5046,77.4616,12.0598,66.6561,18.3139,-65.8761,-13.1705,-4.0950,85.1215,22.3683,-66.0070,125.6590,-96.9322,71.5841,43.5102,34.4787,42.6088,-119.8544,-186.2248,-42.5514
-3687.5000,66.8199,91.8340,-2.2758,53.3072,-33.3655,-42.5364,-64.5771,128.5470,-148.8172,44.5872,-117.4598,148.5411,-111.6086,168.1037,-7.7803,56.0520,64.0647,-27.9656,-58.8526,-56.1713
-3679.6875,150.0532,120.8929,83.2917,102.8495,15.8655,-66.3090,-52.0785,67.0868,-135.8623,-17.2997,-67.9998,124.3211,-99.3736,143.5212,-32.1600,103.5352,77.4135,-86.1937,-291.5941,-42.8936
-3671.8750,94.7471,92.3071,24.3004,83.8250,-44.4512,-51.6481,-110.1330,45.0660,-84.4529,-3.7349,-54.0855,101.5524,-84.6816,120.3902,-55.0793,80.4860,94.2050,-34.9702,-134.8846,8.8386
-3664.0625,54.4896,84.2639,21.3496,79.8363,-10.7123,20.0573,-78.1333,115.1038,-234.0130,-7.1185,-57.1172,98.8309,-88.9252,117.3180,-94.9390,112.4966,90.0488,-3.6959,-139.1141,-30.3907
-3656.2500,104.4499,57.6431,34.6085,96.0371,-34.7564,-3.0505,-63.9181,-18.6729,-73.3579,-67.3161,30.0629,39.3026,-38.9623,94.4394,-44.5853,161.7171,1.0877,-59.2391,-263.1620,20.5758
-3648.4375,63.6680,25.5728,-44.8874,21.4670,-40.5440,-7.9209,-105.4518,49.8021,-188.4563,-37.2614,24.4900,34.0183,29.2580,124.8086,-12.9753,155.1983,-3.6276,6.4659,-92.9330,15.7926
-3640.6250,133.3048,65.3058,29.0188,92.2865,33.0857,-7.4084,3.4264,-24.3295,-151.1587,-73.8166,61.3250,-2.8686,-8.1111,14.5753,-12.9520,118.0900,32.0556,-64.4503,-267.3183,16.4049
-3632.8125,108.7513,71.7760,-71.2823,103.8898,4.5194,-71.1187,-23.9006,-87.6810,-68.0515,-28.5716,-4.0261,6.0478,-35.6714,-13.8546,-40.1133,88.8022,78.5320,-18.5707,-114.9084,62.8186
-3625.0000,42.6490,41.1211,-102.1383,108.9254,10.4096,-28.3878,18.2274,27.4273,-172.5132,-23.8698,2.0738,-24.5874,6.2297,29.1757,-34.8144,56.9765,48.4533,-14.2470,-111.0402,32.6706
-3617.1875,105.1159,15.3278,-76.4421,31.5036,35.8633,-74.1279,43.9132,-129.9285,36.5823,-107.6314,101.7432,-34.6750,31.6952,17.7536,28.0477,81.7158,5.9188,-91.3907,-257.6479,96.0675
-3609.3750,91.4970,15.5162,-128.8496,-16.0310,-14.7794,-88.9874,-6.5026,-34.3925,-50.4286,-49.4926,13.3148,-12.8589,17.0695,76.2351,-22.1830,102.3648,-6.7197,0.3575,-59.3387,118.3611
-3601.5625,152.1460,53.7556,-138.0032,10.6711,11.8355,-60.6083,56.3415,-43.6032,-59.2038,-59.1072,40.1464,14.2072,7.7026,29.9666,-31.1566,92.2697,19.8836,-42.6491,-208.7850,109.8935
-3593.7500,198.7530,53.1953,-127.2135,23.3110,-14.5955,-124.2940,31.1382,-107.8751,60.9804,-12.7704,50.9347,-10.7799,18.2912,-32.3475,51.8351,29.1391,-37.5744,-66.7055,-196.2898,157.3727
-3585.9375,184.9057,42.4556,-102.8816,10.4838,-26.4654,-98.4337,18.4869,26.4142,-97.3078,11.1171,38.2789,-59.2209,78.4458,-8.1079,39.3914,15.5646,-15.4875,-10.2091,-139.2243,109.3900
-3578.1250,241.0317,72.6145,-44.5910,67.5907,-5.3654,-113.6415,3.7964,-98.3570,-1.6480,-41.0513,133.5920,-37.7184,62.5681,-59.9249,24.9015,35.9513,6.5416,-58.7770,-363.2279,131.3502
-3570.3125,224.4673,111.4839,-100.0098,86.9751,-60.9563,-57.5626,-88.5943,-79.8301,-56.6976,-22.9127,78.2091,53.0821,9.0009,-4.4400,-66.2918,17.6503,60.8599,-4.0357,-238.9127,150.6078
-3562.5000,228.1612,127.9660,-57.1779,127.5965,-18.2812,-15.2403,-45.7282,-37.0406,-87.5154,-91.5221,84.0793,59.1220,13.6933,0.2997,-60.2319,-14.3855,65.4231,-71.0515,-339.3449,120.1000
-3554.6875,243.6747,121.9467,-80.5455,108.0049,-41.7944,-74.1365,-32.0560,-170.4618,73.4791,-78.3372,61.7596,72.9548,28.1907,-22.1638,-9.3542,-38.6062,46.7812,-90.2816,-322.9891,171.3877
-3546.8750,183.6498,78.1001,-103.4673,13.8421,-27.8508,12.4057,-54.9324,-10.4252,-96.0961,8.3026,-34.1085,50.2334,4.1501,63.8263,-32.0172,-25.3664,22.5869,-10.0657,-206.1667,112.1198
-3539.0625,252.3426,78.2324,-31.6871,12.3674,5.8018,10.6308,-57.1053,-12.6937,-23.9695,5.6345,35.7388,11.2103,1.8197,24.5185,-33.9727,-28.4137,-13.9115,-12.1629,-418.6588,110.5446
-3531.2500,193.1493,32.6617,-91.8129,-45.0228,-53.4448,24.9427,-117.1789,37.1325,-46.7412,55.0659,12.6897,-47.7110,14.5954,38.3127,-20.8211,-89.3520,-1.3179,105.8380,-195.0431,88.0657
-3523.4375,221.6156,62.4482,-58.2875,-15.7757,-20.0294,59.8988,-46.5958,145.6186,-158.8893,16.1466,11.2936,-49.9845,13.0345,36.7585,-23.0171,-129.6316,27.9241,63.4862,-236.7707,-23.7792
-3515.6250,211.7088,55.2086,-33.1548,10.0612,4.9959,49.4396,-21.4082,23.6858,12.5694,3.8208,-0.4859,-61.6582,1.0770,-12.2039,2.3990,-141.3046,18.7595,53.7232,-280.9187,1.9732
-3507.8125,87.4090,30.5965,-87.4279,-8.5174,-12.3743,68.5675,-38.6293,190.3596,-115.3862,59.0990,-91.6659,-41.7335,-16.2746,43.4396,-14.5823,-124.3685,35.1939,175.5623,-88.4443,-51.6825
-3500.0000,140.5332,57.7853,-30.2967,10.2905,80.6739,126.0812,18.5588,173.4311,-131.9501,-31.2320,-34.4286,-21.4118,-33.2260,26.4838,-105.1629,-68.0167,19.0220,123.7944,-280.5823,-67.9519
-3492.1875,83.5747,40.5141,-55.2685,24.9782,19.6292,138.4809,-43.3476,148.3927,-118.6103,17.3358,-59.2852,-9.1889,-21.2733,75.4288,-164.8429,-56.7491,-1.2597,137.9205,-160.8102,-18.3271
-3484.3750,80.9189,50.2196,-56.9430,56.9455,17.8918,174.1753,-81.9482,219.6684,-229.9858,51.2111,-23.8394,25.3319,13.9838,110.6793,-131.2180,-22.1727,-4.2473,99.3478,-232.7237,-56.4195
-3476.5625,79.1790,49.9784,-59.7140,91.8023,-21.9323,97.7549,-84.6369,106.8372,-12.4553,11.9843,10.5186,59.7489,11.1470,70.8254,-22.6867,11.3145,-4.3498,62.6678,-409.7542,-21.6196
-3468.7500,2.5908,56.0639,-64.3466,86.7882,-26.6045,93.4780,-89.1789,176.1652,-127.7875,6.9178,-30.9723,92.3165,6.4667,103.1296,-27.0025,-68.0329,59.6830,127.1463,-204.6174,-62.6768
-3460.9375,130.8729,134.6126,69.8746,179.6103,33.5908,118.0411,-64.8624,89.3450,-140.2867,-80.3036,29.3993,116.7348,-6.3532,16.2879,-76.4656,-44.5149,83.5583,-26.5391,-356.6470,-74.8952
-3453.1250,133.2262,98.3644,32.1467,111.4661,-41.1615,43.6375,-138.5024,14.5618,-30.7328,-8.4792,28.8302,115.2086,-8.1201,88.5013,-77.8718,27.0695,50.4771,-60.1761,-283.6347,-2.0664
-3445.3125,78.8347,76.0690,-23.3349,93.5543,-59.6583,25.4818,-156.8962,143.0422,-194.9499,82.5980,-26.4920,133.9372,10.3690,143.9768,-59.0220,117.9155,-2.3619,-42.5620,-231.3558,-20.0030
-3437.5000,81.7640,60.1140,-22.5118,96.9296,-58.8413,-10.3865,-155.9816,33.8174,-47.8604,46.9672,48.4985,134.9598,11.1683,107.7497,-20.8620,155.0740,-34.9117,-75.6647,-332.7965,18.3495
-3429.6875,40.3508,31.4240,-64.0480,20.9362,-63.3748,22.3803,-160.4225,65.2432,-125.1281,41.9995,7.1418,93.6357,6.6293,103.1752,11.9518,112.9003,-4.8246,23.8825,-57.5720,-22.6537
-3421.8750,125.4539,80.6043,26.9157,71.4366,-8.3996,2.6377,-70.3600,46.1788,-107.9135,-51.4690,24.2927,74.8126,23.5993,10.1051,29.2628,56.2460,44.7504,-32.0802,-218.8607,-78.1690
-3414.0625,145.1300,92.2123,8.4284,90.4841,-27.8749,-15.5691,-125.7532,-83.3460,-16.1522,-108.3893,6.0043,92.5473,5.1234,-8.4117,84.1233,37.1563,29.8628,22.5003,-163.6134,-23.1359
-3406.2500,79.9230,78.2058,53.0301,61.6156,16.7509,29.3161,-81.0503,35.2399,-155.3157,-63.2016,-22.1836,64.3842,12.7570,-0.8196,19.0809,-28.8207,71.0675,63.1793,-17.2491,-88.0142
-3398.4375,169.6923,72.4781,146.5883,10.6828,73.3411,-60.8668,12.6118,-92.2346,12.4708,-118.0656,70.5924,10.1672,32.3515,-54.2820,-34.0051,-9.8334,55.2123,-23.2101,-137.9532,-67.9523
-3390.6250,143.4206,30.0481,116.0886,-86.3201,79.8813,-91.1163,-17.7810,-85.7608,19.2046,-37.9722,41.3218,-19.0984,39.9082,-84.7901,-27.1414,-40.8804,-5.7049,20.3522,82.3052,-23.9450
-3382.8125,106.5058,9.6908,40.9369,-51.9840,77.7771,-19.0184,54.1768,-50.9245,-19.7316,-77.5307,39.4105,-58.0183,73.8253,-123.9418,8.0696,-6.5557,-42.2791,53.2603,10.9130,-25.6020
-3375.0000,56.7098,-32.6886,22.8881,-101.5615,60.7791,-73.8339,73.2359,-140.9984,110.4399,-58.9866,21.6051,-75.8418,56.8453,-139.9940,101.3899,-25.1162,-56.7666,74.2657,32.6137,30.8351
-3367.1875,-89.2785,-74.2932,-16.3692,-142.3597,57.5838,-38.8542,107.0927,38.7416,-39.6036,12.3688,-54.4096,-77.8683,53.6725,-70.2385,61.5122,-27.8653,-26.4674,139.0758,238.1410,-44.9410
-3359.3750,-46.9951,-63.3331,65.6222,-134.9182,140.6518,-66.6338,153.2078,-25.2707,79.6026,-16.0308,-8.1652,-68.6448,25.7599,-61.2376,70.8894,-19.3500,-18.9286,40.1290,70.8920,-72.4812
-3351.5625,-161.9986,-108.3092,19.3105,-178.7915,94.4197,-38.7240,107.0218,1.4091,107.5069,10.2708,-17.2136,-40.7188,53.5555,-33.5353,98.9654,-29.1218,-27.6976,66.8818,273.3489,-81.3255
-3343.7500,-115.6460,-65.6802,70.3510,-132.3325,144.5464,-25.4695,157.1899,52.4519,47.7373,-50.0750,-3.9074,-27.4470,67.7105,-93.4764,113.3834,-89.5296,-17.1237,76.9852,179.1700,-140.8343
-3335.9375,34.2790,-17.7671,76.9488,-88.3435,115.2366,-54.6766,164.9168,-87.9683,128.5256,-79.8748,76.9582,-20.6321,74.4220,-123.8756,9.3598,-83.3683,-78.0130,14.6293,47.5268,-96.7989
-3328.1250,-23.0404,-35.7024,92.2870,-144.6259,130.6772,-40.1429,106.3894,0.3701,-76.9487,-28.9106,55.5698,-5.0718,89.8922,-71.5185,-84.9110,-32.4433,-64.1633,64.0315,166.6550,-118.0244
-3320.3125,-47.4875,-60.4942,139.4752,-134.0631,176.9738,-29.7659,153.7134,-26.4382,6.4162,-92.0956,103.0409,-31.6602,63.2228,-61.3112,-1.3352,-22.6565,-88.4691,39.2713,1.6117,-107.4130
-3312.5000,-146.4691,-91.0120,34.1101,-164.0613,109.7228,-23.9451,122.4814,-20.8043,49.2324,-13.8293,34.9681,-25.8004,32.0104,-55.6530,41.6914,-53.4115,-47.3371,149.9608,255.0273,-101.3563
-3304.6875,-142.5484,-56.6800,43.6406,-124.1758,118.3767,95.7728,131.1536,98.7437,-162.0783,-41.6589,7.7960,-16.0402,4.7077,-10.0835,-59.3828,-82.2595,-42.3151,189.5559,435.3614,-202.4172
-3296.8750,-111.7054,-10.3763,39.0837,-22.4011,76.9406,91.3853,53.7312,-52.8161,-93.4879,-120.5908,3.5336,16.6220,-36.6921,-88.6170,-100.5645,-87.1955,-82.4052,150.0473,713.5708,-206.5867
-3289.0625,-257.5595,-55.4265,-2.1808,-63.3377,35.7979,124.2959,48.5940,15.9314,-244.6163,-125.2101,-74.4318,-24.4106,-40.7900,-55.8426,-67.4551,-165.8126,-52.2009,178.8493,1271.0957,-247.4655
-3281.2500,-223.8902,-17.3816,71.0577,5.2209,147.1629,87.7039,159.9561,-56.8148,-207.2648,-235.3293,-0.8937,-24.9428,-4.3832,-92.5689,-66.8519,-202.9155,52.4966,72.1496,1024.1086,-283.8624
-3273.4375,-234.9039,-16.9165,57.5962,29.0645,96.8360,37.3986,109.6219,-144.2696,-110.6057,-212.1477,22.9486,-1.1779,-16.6674,-69.0033,-42.9431,-179.7116,111.4811,95.7532,872.4215,-259.9691
-3265.6250,-211.9622,4.1282,84.0851,87.8396,123.4675,101.0421,99.2415,-44.7634,-195.0160,-187.0111,-24.2553,-11.4657,9.0073,-79.4842,-90.0904,-153.5510,99.4097,83.3138,755.6989,-307.1432
-3257.8125,-88.6069,27.7947,133.9827,105.0083,99.5117,40.0776,75.2657,-177.8608,2.9747,-210.4806,62.9572,-34.3556,-13.9122,-176.5685,-113.8394,-103.9713,80.7262,-5.7360,561.3512,-219.9263
-3250.0000,-154.5011,-11.5436,99.6218,38.9158,29.3013,43.8534,5.0308,-102.2060,-68.2933,-134.1883,-7.0854,-31.4877,-11.0739,-100.8887,-109.8424,-27.6283,85.7824,-1.0328,672.7709,-179.9662
-3242.1875,-119.7346,3.1339,98.9105,38.4655,65.7439,6.2778,114.4563,-102.8908,-31.9198,-135.2456,-7.4833,5.0304,-11.5819,-64.5561,-74.1917,8.3742,85.4822,-107.6881,460.8392,-180.3744
-3234.3750,-124.2007,-6.1376,90.9476,-2.2466,19.9381,-75.5658,106.6371,-184.8359,144.2215,-107.5459,-16.1262,33.2976,-20.3373,-72.4761,-44.7846,-37.8574,80.9210,-112.6025,491.6478,-115.0404
-3226.5625,-169.3621,-37.1248,8.2820,-47.6754,11.4327,-11.1126,98.1183,-9.4689,24.6447,-6.5323,-61.4730,24.8668,-28.7914,28.9160,-90.0841,-46.7742,35.6515,-53.2159,552.7715,-160.4192
-3218.7500,-36.8592,3.6813,35.2742,-20.4608,-35.4161,-58.0178,88.2483,-56.4490,125.7179,-16.8637,-34.1639,52.0865,-74.5919,18.9611,-26.7458,-20.0198,-7.9812,-96.1871,263.5218,-133.1581
-3210.9375,-51.4047,-8.3573,-18.7929,-35.3072,-88.3218,-37.9747,34.3178,0.5264,108.7319,39.7702,-49.9083,35.2630,-54.4406,1.9654,-42.4677,-37.3035,-22.6784,-76.1984,425.2306,-112.9510
-3203.1250,-4.0468,1.2369,31.0336,-24.2623,-2.3276,11.9699,121.2833,13.4183,47.6241,-21.6890,-0.7495,11.3417,-5.3805,-22.1179,-30.2895,-61.6726,-46.4838,-135.3121,260.8392,-136.8602
-3195.3125,56.5311,5.7079,17.0672,-33.0276,-53.1244,-75.8977,69.4542,-111.4991,180.7234,-35.9475,22.6216,33.6242,-19.1141,-36.0068,-6.9096,-1.8293,-126.1031,-110.2413,216.6269,-40.5762
-3187.5000,33.4109,-7.3272,-43.6028,-91.5020,-76.6230,-25.4685,9.9197,48.8948,10.0996,50.1076,-74.7095,47.2076,-42.5444,50.4114,-30.2430,10.3310,-149.4315,-62.8628,334.7353,-64.0021
-3179.6875,100.3548,7.4706,-50.2169,-60.9299,-83.0641,-68.9907,76.4392,6.3361,76.5162,43.2125,-6.9836,40.8476,-48.9199,7.8727,37.4657,40.5523,-153.7175,-138.4360,48.8749,-33.3898
-3171.8750,49.2505,-23.3052,-105.8838,-77.4194,-137.5567,-88.5729,20.9037,-13.2762,94.8875,97.2778,-26.3099,22.4351,5.6585,-11.7163,55.1228,21.7331,-169.0654,-84.0504,174.9782,21.1674
-3164.0625,62.5970,-36.9570,-55.0997,-99.4710,-87.5932,-73.7034,35.8246,38.5810,-1.3019,74.7996,-11.1885,0.4623,20.6902,40.1441,70.2241,72.3733,-190.9684,-141.2139,47.5410,-0.8423
-3156.2500,138.7247,-48.7717,-52.5602,-128.7795,-83.8773,-144.0890,0.4947,-69.8227,148.2681,77.0668,27.6844,-34.7588,22.4720,41.7503,109.0739,111.7770,-220.1290,-170.6329,-86.1732,74.8934
-3148.4375,82.8229,-54.7230,-110.0799,-150.1443,-105.2240,-92.5211,-56.9050,55.7327,15.7635,128.2880,-30.5020,-19.0237,1.2003,94.3187,50.8609,90.1448,-206.3466,-52.0919,68.0770,53.5715
-3140.6250,176.8432,24.6997,-50.6952,-57.6134,-81.6658,-32.0550,-33.4068,6.1917,3.1439,42.4075,-5.7845,42.6163,-11.1687,81.7897,1.5370,40.4287,-148.6729,-99.6536,-189.7942,41.1326
-3132.8125,130.2726,48.1524,-135.9080,1.3119,-167.7090,-8.1928,-118.5132,-43.9597,26.9307,65.9308,-54.6653,103.6587,-60.1336,68.6612,-11.3964,64.1226,-88.6059,-5.8163,-94.2666,65.0861
-3125.0000,125.9130,68.3053,-66.9194,67.4267,-133.5509,62.8687,-121.4255,64.1047,-86.1081,62.6609,-94.3456,63.8986,-99.8917,28.7357,-14.1446,61.0252,-59.3393,-9.7773,-99.5302,25.2272
-3117.1875,140.3815,50.2720,-18.1194,81.3373,-121.5896,0.7279,-109.5417,-71.0402,72.6525,37.1919,-45.2198,1.9341,-50.8487,-69.3885,71.8981,35.7421,-45.2853,-31.9418,-190.0201,74.1620
-3109.3750,45.3555,2.5876,-79.8275,-15.2638,-110.1333,12.0885,-98.1698,13.3285,-27.1068,85.2433,-70.5997,13.4687,-3.3047,14.9999,83.4273,9.9733,-35.7443,13.4052,-4.9962,48.5903
-3101.5625,58.5351,-11.7921,-29.3275,-1.6684,-60.4698,26.6556,-48.5939,64.9078,-12.6817,62.5003,-19.7774,-8.7969,11.4406,66.5861,24.1472,97.4113,-93.0119,-80.0471,-201.7877,26.2091
-3093.7500,30.7702,-28.5980,-96.7732,-31.0260,-164.7532,-5.7325,-115.9721,32.5242,65.8012,103.8090,22.0970,32.9910,16.2410,71.2198,-8.0886,138.9136,-121.2377,-38.4518,-124.5407,67.8801
-3085.9375,41.0488,3.1789,-50.1686,-21.3478,-152.9875,42.9282,-104.3042,154.2048,-105.6852,78.1811,-2.9807,44.8323,-8.9036,82.9126,-33.2803,77.4760,-76.4183,-28.8057,-113.2265,42.5919
-3078.1250,164.5302,43.3210,2.6352,31.5262,-137.0202,-15.2094,-125.4301,-13.9133,19.0351,-17.2384,87.1382,23.8758,7.1517,-12.1866,19.7246,56.2551,-57.4159,-79.9599,-306.7406,95.4972
-3070.3125,100.3913,8.9967,-28.1779,1.7997,-131.6714,-45.9378,-157.1734,28.3891,-47.8498,61.7658,18.6372,-7.6671,12.5945,30.1333,25.1178,98.4579,-52.0308,-74.6886,-124.8469,100.7957
-3062.5000,124.5375,0.8208,33.3028,-9.6209,-33.0269,-57.3496,-57.6199,54.0112,-59.4446,13.0852,44.4266,-54.9051,1.3355,55.7639,13.8020,123.9799,-63.3571,-122.1187,-276.6652,89.3790
-3054.6875,61.5915,-53.6724,1.6892,-107.1490,-28.4786,-89.8752,-54.1652,-51.4813,89.8827,17.3050,49.1301,-50.2533,42.9866,23.2823,55.3894,90.4058,-91.7822,-79.6642,-233.5837,166.8592
-3046.8750,-41.7437,-90.1617,-31.3106,-141.1035,-24.3187,-48.8107,-49.0977,62.6267,-15.1987,21.1210,53.4398,-46.0198,84.2519,64.3881,59.5719,95.4314,-90.5989,-8.6144,-90.8691,97.9325
-3039.0625,-0.1613,-48.9145,12.6065,-65.1739,19.7598,-41.8572,-6.1140,-40.3775,65.6259,28.8245,98.6625,-1.8979,55.4268,-1.6198,30.6527,103.3630,-83.5147,-2.6737,-295.2703,68.9022
-3031.2500,-61.4274,-53.3655,-51.3296,-57.1034,-7.0174,5.2422,-68.9884,43.7668,1.5983,111.6877,-1.9721,8.3765,-8.2437,45.5228,3.8769,76.4575,-76.2912,76.4295,-75.5159,42.0255
-3023.4375,-49.9469,-45.3257,-37.5193,-46.2818,6.9491,92.1029,-56.1175,130.6784,-21.7014,125.3140,-61.8646,-14.5929,-31.1675,58.4271,-19.1638,89.3142,-30.3221,51.2905,-135.0142,-18.1135
-3015.6250,-5.8128,-36.8573,-31.0592,-38.8009,-23.4412,25.6170,-49.6015,-9.7621,131.6615,131.6034,-18.1120,-7.9065,-24.4452,28.9813,-12.5660,95.8328,-22.7143,24.8025,-195.8879,25.3968
-3007.8125,-101.5388,-49.7007,-56.4550,-64.1778,-48.6905,73.2903,-74.9506,111.9662,-40.8378,180.0619,-43.2164,40.9298,-12.5750,76.6987,-37.8320,70.5070,-11.9664,69.4780,-45.5948,0.0508
-3000.0000,-78.0077,-29.9309,3.4079,-5.3055,11.3157,60.2148,-15.0461,24.9513,55.9076,55.7732,53.9292,64.0152,10.5500,-10.3291,-51.8548,93.4399,-59.9715,22.3975,-232.0767,22.9440
