Time,Fp1,Fp2,F3,F4,C3,C4,P3,P4,O1,O2,F7,F8,T7,T8,P7,P8,Fz,Cz,Pz,ref
-4000.0000,-36.0890,-19.1328,-12.1769,-7.3450,42.8384,49.7569,-31.4384,11.9360,-27.2392,-5.5084,-23.9198,-8.4593,24.5944,60.8399,-6.5396,-7.8090,11.0140,7.4503,-6.3407,11.7360
-3992.1875,-16.5849,8.5121,-65.2350,12.7746,27.7917,70.9057,-48.7084,29.7888,-44.4972,14.1786,-40.2011,11.7943,8.1659,45.1819,-60.5192,49.2384,101.5090,-8.3188,-22.3342,32.0031
-3984.3750,-2.8458,24.8015,-15.0495,-8.8497,43.0035,-23.6870,-70.7178,4.9345,-30.4957,-43.8915,9.7602,63.3048,22.9829,-49.2250,-9.2493,100.5434,81.2555,-28.8457,-8.0791,46.5211
-3976.5625,-71.5696,16.4689,23.6819,29.0808,-28.2355,-57.7232,-105.1798,-20.7855,-28.9519,-79.4242,11.2666,101.3826,25.3515,-9.0750,-7.4274,102.4085,48.5483,8.1791,-41.2763,48.5924
-3968.7500,3.5370,50.0097,-7.7440,34.8634,15.3791,-87.9060,-27.7813,-36.9681,-169.5685,-111.1105,16.6191,71.3171,31.5647,-2.0673,35.2516,34.1271,89.6989,-20.9472,-0.6139,54.5142
-3960.9375,86.6259,49.5605,6.8294,12.6427,-5.9924,-72.0912,-13.3656,-36.5742,-46.1536,-133.8054,30.9661,49.2531,119.7748,13.9384,12.9443,48.8480,-2.1590,-8.0761,13.0572,32.4350
-3953.1250,82.1488,28.7612,2.8462,-27.1290,-45.9096,-0.8271,19.5081,10.3459,97.7376,-101.0567,26.7520,8.6388,79.4337,-62.6022,-27.9046,82.0235,29.4300,-11.7516,44.1857,28.8072
-3945.3125,41.0132,-15.7284,33.2064,-100.5481,-14.4687,30.7899,49.7480,28.7227,53.9668,-70.9641,19.8846,-34.6181,37.4374,-67.7937,2.6014,75.5536,25.3735,-51.0811,39.6683,59.5345
-3937.5000,9.1164,-12.7374,36.8073,-96.7133,-46.7802,35.6608,-20.7598,34.2371,-16.5492,-67.6262,60.2614,6.3878,41.6909,-25.7310,-30.6363,79.3477,64.5537,-47.1560,43.3987,63.5147
-3929.6875,27.8083,-2.5454,60.0028,-113.2746,14.5096,-13.8648,39.3467,-7.0563,6.5479,-118.6966,83.2321,-44.0013,64.5364,-75.0684,-7.2674,-8.2555,190.3387,-97.6264,62.7347,13.0938
-3921.8750,104.4895,21.1521,106.2017,-106.8385,-12.1903,-3.3898,48.4691,-39.1127,200.6636,-109.7739,56.2058,-33.3959,75.3865,-100.4131,-33.8904,-71.8588,127.1223,-55.1021,34.0776,-50.3269
-3914.0625,178.3498,73.9763,72.6044,-32.2042,-80.6915,75.2897,15.7925,-32.9532,129.9948,-106.6574,22.3792,6.4160,42.4377,-22.5533,-67.3085,-31.2579,131.1009,-16.3789,-32.3794,-46.5430
-3906.2500,210.1584,100.3775,68.9547,0.3866,-47.2426,108.9129,48.0763,-27.6417,-167.7262,-110.5995,54.4998,3.1936,38.4335,11.2617,2.2257,-72.7049,129.0405,16.2869,-34.8884,-13.8070
-3898.4375,103.5763,63.3575,31.9023,-34.4125,-46.1982,110.1329,-26.0413,-16.0836,-95.8496,-110.9466,17.2172,76.5867,39.0311,12.6736,-34.6417,-35.5464,58.5793,86.5521,-34.8000,-13.4730
-3890.6250,-12.4111,34.0345,22.4472,-8.6091,-17.5507,64.9573,1.4438,-20.6571,5.6129,-120.6985,7.5317,67.5837,-5.7773,41.6858,-43.9069,-44.7862,120.7246,42.4203,-9.1067,-22.5412
-3882.8125,-46.4532,3.8180,23.9478,28.1439,-14.9497,30.7324,2.8899,-22.4216,80.0198,-83.5159,45.7977,32.5354,32.3627,7.6526,-42.2227,-43.0774,16.8234,44.2350,-7.4612,-20.6608
-3875.0000,-41.9599,-6.0371,28.9976,33.4473,-8.7979,37.0591,7.8872,12.2494,-25.0004,-5.7898,50.6127,2.0467,38.0522,-21.8293,-36.9921,-0.8148,-12.5309,49.6046,-2.2624,-15.2346
-3867.1875,59.7600,53.4656,25.2917,65.0077,24.6072,71.6397,77.1576,-27.1621,-138.7603,-46.8213,9.6676,34.8164,34.9859,48.9426,-40.5044,-41.2998,-15.6248,46.2206,-76.8075,-18.5599
-3859.3750,57.0117,91.9025,-13.8688,134.1229,-12.4292,70.7714,-35.0126,-68.6955,-104.9542,-49.3050,7.2677,181.1421,-2.5310,85.2655,-79.4543,-6.2190,-123.1826,79.3845,-182.7947,-20.3316
-3851.5625,136.4405,162.5592,-38.8348,179.4382,-73.2662,10.0989,-96.9702,-126.3231,-92.9210,-110.5876,-17.9340,229.6728,-63.8495,98.7760,-30.1925,-30.9194,28.4480,-15.2546,-207.5746,-44.8965
-3843.7500,269.9508,181.4436,-6.7055,137.8508,-76.9991,6.5149,-101.8104,-166.8372,-60.7790,-188.7720,49.9632,188.3091,-32.0730,131.3784,1.1822,-72.5116,22.1712,-56.7959,-215.2499,-86.3539
-3835.9375,245.6008,161.0044,79.5659,149.4150,-136.5849,58.0815,-88.5014,-132.5148,-158.4888,-176.8071,63.0025,128.1058,-18.1505,146.1349,-22.2909,-58.9523,35.0338,-45.1849,-203.7698,-109.6565
-3828.1250,233.3423,156.1006,65.9315,138.0825,-112.0640,8.7501,7.9204,-107.4357,-281.1023,-117.7485,49.1359,116.0111,-31.1381,60.9931,1.3441,0.7064,23.0023,-127.4736,-180.1785,-85.8563
-3820.3125,285.1728,153.0178,84.3964,84.8508,-129.4432,-81.4858,-83.5473,-132.0891,-116.5831,-62.6026,67.3763,134.0224,-12.0190,6.9424,-52.9112,19.4699,-29.9336,-109.6646,-198.4785,-103.9558
-3812.5000,206.6778,149.4169,79.5650,113.3202,-97.1222,-122.0224,-88.3042,-163.9525,25.6620,-67.7610,25.3167,129.7360,-16.1967,40.5864,-94.4643,-95.0616,104.8264,-151.1538,-169.0729,-145.3546
-3804.6875,256.3211,189.7968,56.8818,127.9432,-44.6488,-70.4156,-37.8938,-175.5602,-69.9535,-127.7712,39.3975,181.6081,-38.2306,92.3733,-116.8628,-117.4278,84.7308,-136.4961,-190.5090,-130.5966
-3796.8750,354.4634,198.4742,48.6888,122.0655,-51.6854,-40.3123,-81.9779,-144.7388,-152.0565,-99.2835,30.9763,136.9882,-45.7712,49.6560,-50.7491,-51.2828,8.1215,-72.3347,-196.4409,-101.3359
-3789.0625,228.3923,108.1464,27.2847,31.9855,2.0743,-96.4140,6.7578,-104.2437,-62.3326,-84.0029,46.3518,43.1752,-29.5199,-80.2593,75.1796,0.6567,24.3152,-56.3747,-109.5627,-85.2777
-3781.2500,69.6035,40.2782,47.1801,15.2099,60.1409,-112.2220,26.8088,-80.8825,30.6982,-101.4223,66.0272,26.6680,28.0302,-95.8816,58.4147,20.9012,7.8075,-38.1205,-56.3821,-101.9191
-3773.4375,-5.0114,27.3291,43.2817,47.6452,57.4054,-41.8379,23.0623,-39.3352,26.9310,-68.6387,24.9013,-13.6307,61.7740,11.6875,-19.1485,-55.6425,145.5048,-6.6695,9.9998,-105.3572
-3765.6250,10.6737,2.1611,61.6817,-6.6199,76.9713,-22.1623,41.6297,-9.4477,119.4772,-87.5599,6.0702,-68.6250,43.8110,-5.4525,-0.4027,-73.8784,127.5029,-24.9220,97.6902,-123.4922
-3757.8125,29.6248,-52.4130,9.3273,-56.6384,25.7815,0.7555,100.4584,20.0500,251.2881,6.7615,-9.5112,-119.3601,-7.9038,-19.3513,58.5993,-15.8555,-63.2620,-4.9273,82.6291,-138.3772
-3750.0000,-48.1908,-46.5011,-0.7812,-28.3989,52.8400,-9.0848,163.5486,41.3662,56.3481,69.3333,-19.8465,-55.8319,-18.3702,-29.0049,47.8540,10.4187,-69.7715,-46.6850,75.8277,-75.0118
-3742.1875,-87.4307,-57.9742,31.7137,-30.5591,12.5001,-48.3338,85.2578,61.7578,-20.9773,65.5017,12.4219,-22.6985,51.7575,-68.0641,43.7187,80.2938,-107.6833,-48.8456,108.6358,-42.0464
-3734.3750,-49.4908,-45.5630,-0.5953,-62.5152,-18.6458,-79.3877,53.1707,33.4862,19.9161,68.8671,16.8827,-18.3597,20.0834,-98.9289,11.7900,11.3778,-68.4009,-45.8051,111.6502,-73.8809
-3726.5625,56.7892,2.2543,2.4406,-25.1218,-50.4452,-74.0980,94.4478,-25.0671,135.1616,35.5785,56.6925,-13.6668,24.7525,-93.4509,-20.7795,-57.1844,-65.7681,-43.4145,44.0199,-106.3625
-3718.7500,93.2134,19.5744,3.6255,11.4284,-121.0982,1.3352,58.8816,-37.3614,283.5632,-36.5638,20.6517,25.1919,26.5687,19.1736,-55.1974,-55.5926,-133.9961,-6.8738,9.5376,-104.6949
-3710.9375,6.1841,19.4238,-12.6425,67.5337,-100.1993,22.3135,115.8739,2.3599,156.5267,-17.1541,-32.8455,8.6108,-27.0698,40.3348,-35.0658,-72.4410,-43.6719,13.2114,65.6085,-84.4764
-3703.1250,-35.2067,-9.9670,-18.2605,62.2930,-31.6498,17.9313,147.5311,44.9856,40.1509,13.9030,-38.6887,-33.3155,-32.0606,-0.8693,-4.2743,-4.6270,-83.7041,42.9399,95.3355,-89.6042
-3695.3125,-107.3970,-48.7997,-55.6740,62.2531,-30.9110,92.7390,110.3882,89.7216,76.9824,49.1618,-76.3271,-69.0326,-104.8490,-36.8766,32.7201,32.3923,-83.5534,113.8624,95.2654,-89.5279
-3687.5000,-114.1945,-57.6392,-98.6875,20.6098,38.2240,87.9355,177.6638,82.6975,218.2283,42.8182,-45.5689,-74.3528,-110.2435,-77.4960,27.1279,-10.1840,-54.0022,108.1815,124.6085,-95.0481
-3679.6875,-40.6659,-33.0563,-58.3492,-10.6861,42.7142,55.4720,108.3054,67.4410,111.8400,82.8235,-42.4625,-34.3251,-33.2927,-72.7803,-42.0992,-6.4005,-85.1066,76.8524,93.3126,-91.2173
-3671.8750,-44.9666,-20.2115,-61.8146,-48.7824,40.4076,53.2004,68.1654,58.9471,-38.3381,116.0263,-46.1635,-0.0935,-72.1481,-38.8775,-82.1126,-82.4126,-18.0070,108.7270,90.2300,-94.1871
-3664.0625,-32.9658,-20.5224,-46.9866,-35.5822,56.4012,32.2133,120.3445,38.8670,12.7948,56.5312,-31.5711,-21.5534,-93.7130,14.3127,-66.8195,-104.1238,-39.6139,86.8987,103.4575,-115.8568
-3656.2500,-17.2406,-3.9163,-29.4655,17.3181,39.0870,51.9103,175.2192,57.7400,31.6500,37.7345,-50.2775,-39.3011,-111.5798,-2.8102,-84.8319,-12.1303,-22.5424,68.7673,85.3878,-133.8268
-3648.4375,2.8270,14.0653,-9.5967,2.5724,133.1189,-2.0507,231.4552,75.1208,-22.1451,56.2867,5.3680,-55.6979,-203.0978,-129.5920,-65.4877,44.2183,33.8801,53.9872,106.6823,-77.4465
-3640.6250,-41.0811,-26.6041,16.3241,-39.1186,86.2051,-47.9657,147.7642,47.6562,151.1212,8.8883,31.0657,-66.0436,-248.5667,-102.3366,-2.0867,34.6221,-7.6535,82.2622,99.0377,-14.0158
-3632.8125,-178.7088,-61.1619,-17.4546,-35.5068,53.5899,-43.5905,77.3831,48.1417,228.7009,48.7916,-2.9357,-25.0903,-281.7381,-60.7960,38.6154,1.3295,66.1088,50.8446,102.7026,-10.2863
-3625.0000,-169.2927,-55.2837,-43.1805,9.1486,66.0252,-31.1769,126.0679,75.0849,166.3382,95.7449,-28.8838,-50.0897,-232.8675,-11.2221,13.3744,-23.9115,40.9228,95.4754,148.4288,-35.5100
-3617.1875,-197.7805,-72.4483,-34.8054,17.9029,112.5627,51.3263,171.8623,111.3905,-8.9114,103.7962,-20.7346,-77.9828,-187.8954,-1.5638,22.2380,21.9546,14.8252,140.2023,122.2606,-26.6352
-3609.3750,-136.6193,-15.3323,-9.7850,10.3082,138.7427,4.4673,160.3221,38.9349,-129.5073,18.4978,4.0563,-15.2174,-198.2852,-49.2730,10.7661,-26.5240,77.3757,96.5738,43.7501,35.8900
-3601.5625,-68.9578,31.6754,-14.2682,43.2153,25.4120,-71.9071,9.2943,-17.9653,12.4086,-22.2994,-0.6562,128.0534,-202.1821,-88.4913,43.8057,6.5034,-65.5823,23.4407,5.7444,68.9166
-3593.7500,-110.6172,10.2741,-56.0580,37.8323,-17.2289,-76.5926,-33.0283,4.0831,117.0525,7.6095,-79.6713,123.0303,-171.3853,-57.0141,37.5457,37.2376,-34.8445,-15.9965,36.4477,99.6412
-3585.9375,-159.6860,-21.1396,-36.2430,60.0478,40.7349,-55.6936,24.2692,0.4039,27.3087,-8.8837,13.9148,69.6086,-113.9913,-34.9616,94.8933,57.5741,-47.5071,-28.8418,-10.2403,156.9673
-3578.1250,-148.1953,-17.8420,-23.8771,72.8117,-54.7546,-5.2645,-72.8791,12.6220,-32.8771,3.1710,26.0520,82.7461,-64.0502,50.6236,70.7983,70.4625,-34.6318,19.8583,-33.3771,169.8446
-3570.3125,-169.0025,-26.8016,-43.8145,53.2732,-0.5558,47.8476,17.6799,46.2220,-89.3519,-17.0770,-31.1139,26.5919,-46.4201,31.8984,51.4098,51.0561,50.9385,34.2529,17.1938,150.4224
-3562.5000,-230.0085,-70.7245,5.0507,29.5341,49.4366,-11.2593,30.0556,39.7977,32.9860,-4.5257,17.5189,3.2400,-33.9916,8.9567,64.8296,64.4565,-7.6943,45.4440,28.5705,126.8026
-3554.6875,-226.0675,-60.1719,9.8638,34.7547,18.3675,-5.4289,-36.6188,45.7319,2.2815,108.9815,-13.8964,45.8472,-64.6154,-57.0487,70.1986,106.8205,-2.3849,-18.4158,-35.0981,132.1341
-3546.8750,-135.9295,-24.0467,-6.1258,20.1805,39.4978,-57.4119,-53.0749,30.7284,-124.2239,91.6828,5.8857,29.6547,-81.0462,-109.8688,127.7700,90.3857,53.1272,-34.0809,-14.5516,152.6661
-3539.0625,-128.2845,-21.0562,-34.6119,29.0949,13.1218,-47.9105,-81.0184,5.9057,-41.2054,63.8760,-22.8286,75.9567,-34.9777,-63.2053,99.8533,62.4461,-42.8708,10.7503,-41.4956,161.6929
-3531.2500,-224.5391,-58.6287,-23.9978,40.1014,-48.1565,0.6758,-69.8492,19.7640,6.9375,38.1732,-12.4426,50.3611,-23.8173,-51.4582,38.0411,37.6019,-31.7786,21.6821,-30.3337,172.8145
-3523.4375,-266.2539,-100.1344,-29.8377,34.6610,-89.8880,-41.2001,-38.1181,46.8054,37.6346,68.0277,18.4892,9.3210,6.8883,-56.1743,68.7784,68.3176,-107.1429,16.1640,34.3838,167.4881
-3515.6250,-254.8256,-94.4047,-54.5283,47.3807,-113.4770,-27.9386,11.7625,86.9214,50.4812,80.0431,-80.4335,-13.5643,-53.2575,-42.7582,118.6685,118.2008,-94.3677,28.8030,82.2600,180.3130
-3507.8125,-140.8955,-79.1074,-118.7189,-13.4041,-139.5655,-55.1933,93.1621,72.8015,59.8351,52.5546,-71.8562,-40.9562,-117.9078,-69.8673,202.0733,127.5862,-120.0877,1.9384,91.6487,189.6357
-3500.0000,-25.6132,-69.6890,-106.5595,-71.8475,-162.3075,-151.1224,33.9266,28.3840,293.5616,64.4119,-58.9252,-26.9974,-67.2089,-92.6481,178.8387,104.3233,-214.4679,-56.5838,103.3924,166.3059
-3492.1875,-91.9257,-104.5683,-138.0015,-101.8861,-120.6588,-182.6660,112.0885,43.3635,409.6932,104.6750,-54.5956,-58.6318,-25.1201,-160.0409,147.0051,109.4605,-173.4597,-121.7077,144.5394,171.3757
-3484.3750,-192.0877,-132.9566,-95.2928,-94.7789,-75.8673,-212.0759,193.4112,38.0513,416.9700,111.0885,-48.1114,-51.1153,18.1146,-152.2974,117.3243,79.7495,-202.3034,-114.6849,151.8454,178.5972
-3476.5625,-220.3040,-136.5963,-122.6267,-51.7277,-102.1348,-164.5462,92.6890,66.2808,426.2135,157.4546,-75.6738,-40.6535,27.3016,-105.6230,90.5985,89.9887,-193.2082,-71.7097,160.1086,151.7649
-3468.7500,-175.9589,-119.2143,-111.4106,-77.1251,-52.8612,-153.4843,141.5255,77.8483,365.0237,94.3738,-64.6864,-65.6425,2.0336,-93.4177,102.4237,101.7819,-113.5588,-97.1968,204.9252,126.4787
-3460.9375,-193.4394,-132.7492,-91.0396,-57.3700,3.5581,-95.2893,88.5138,106.4713,200.9740,114.4469,-44.5442,-81.4779,-14.0885,-36.0844,86.4006,122.7339,-164.7651,-42.5379,188.8888,110.3433
-3453.1250,-281.6193,-147.8888,-70.3698,-73.3074,-11.7374,-37.8063,109.8007,140.3740,75.2229,134.8215,-61.0994,-61.0045,-29.9132,-51.4643,70.6801,106.9881,-110.6794,10.4221,208.1577,94.5061
-3445.3125,-203.9509,-127.8733,-61.8461,-66.3975,35.8111,-64.4877,155.9528,84.8570,122.3408,107.0450,-52.8008,-87.6789,17.1108,-42.0101,117.8134,6.0836,-137.7470,18.2228,181.2827,67.5143
-3437.5000,-57.0213,-54.8010,-53.0711,-58.2317,-27.3994,-54.9327,93.3550,31.1871,168.7285,79.5143,-44.2510,-4.1043,27.3847,-31.3168,54.1931,16.4290,-128.5779,-43.7311,84.6571,40.7686
-3429.6875,-48.6317,-37.2487,-43.8429,-48.6157,-17.1674,-44.9395,103.2047,30.8419,178.5406,14.4350,-71.2483,-31.0752,-36.8977,-58.1865,64.0247,26.2336,-14.9554,-69.2341,94.4825,50.4745
-3421.8750,-57.3748,-52.1006,-51.7623,-56.1504,-61.0900,-88.1089,131.9086,5.5559,245.1874,6.2064,-43.3893,-38.2006,29.6710,-28.2201,93.7109,18.8886,-22.4949,-110.8869,87.1616,43.0311
-3414.0625,-32.6057,-26.4778,12.8190,-30.1841,-32.5272,-96.7929,123.1141,3.0538,15.3511,33.4842,-16.0338,-9.8208,57.7386,0.2306,84.8954,47.0417,-31.5450,-120.0455,43.3419,34.0823
-3406.2500,50.1168,6.6552,25.3527,-52.2690,-19.0155,-119.5515,100.2842,-12.3836,-117.5209,8.7124,33.2740,3.5118,70.7494,-23.3947,61.0298,60.1484,-18.6464,-107.2621,21.4748,47.0798
-3398.4375,31.1493,-16.9179,44.1951,-35.0569,-109.2149,-101.0289,-28.2487,3.7285,47.9197,64.2430,14.8903,-13.8548,53.0631,-40.7359,6.4617,42.5566,-71.4542,-91.1808,38.9085,29.3753
-3390.6250,-35.5484,-51.5861,12.2909,-64.5881,-103.1771,-59.2649,14.4710,17.9912,200.6013,32.0285,-17.2403,-44.9764,-15.3793,-34.8407,49.1393,11.2145,-31.0089,-85.8534,79.5985,34.9171
-3382.8125,-72.0217,-50.5551,-25.4100,-29.9241,-102.9448,-22.3175,51.4006,27.0920,200.4848,31.0107,-18.1679,-7.8996,21.3717,2.2327,86.0235,11.0716,-66.3679,-16.3375,79.4906,34.6548
-3375.0000,-68.8298,-32.0942,-56.4603,10.3901,-60.0745,58.2567,20.9754,40.3164,23.0289,73.6370,-49.4489,-1.1615,27.7675,8.9435,55.5578,17.5750,-26.0798,23.8140,14.0284,4.0394
-3367.1875,27.4181,-1.7024,-28.4620,-33.2406,5.8390,12.8632,12.6042,17.2283,-168.3848,100.3089,15.3183,-9.3684,19.2098,-36.2988,10.1354,9.1142,0.2646,15.0136,-29.3760,-4.5314
-3359.3750,132.6266,16.4620,45.4894,-68.9193,-30.3037,-23.5934,-97.8166,-34.2808,-131.8442,63.9344,52.0422,-8.6237,92.6031,-72.6049,10.6605,9.6050,-34.4529,15.1690,-99.8260,-4.1612
-3351.5625,135.3517,35.8448,84.9454,-29.0983,-25.9594,17.4382,-93.7321,-30.5141,-127.7986,-6.9388,55.2664,-41.3840,96.4951,-105.4392,14.6880,13.5986,74.3267,18.8243,-95.7742,-0.2989
-3343.7500,79.2885,18.2848,100.6085,-13.0791,-9.4219,33.6528,-113.4405,-11.8742,-147.5538,8.3917,70.7012,-24.9550,112.5842,-52.0954,30.9160,29.7893,55.3094,-0.3218,-79.5187,15.7575
-3335.9375,9.9875,-11.4937,102.0325,-11.3082,-7.1414,-1.3920,-147.4039,-34.5362,-73.5723,9.4834,71.8929,-22.7796,114.4243,-13.0158,32.8862,31.7306,57.0419,-34.7196,-112.5098,17.5578
-3328.1250,14.4692,-16.9124,144.2112,-41.7882,35.8831,-32.6986,-69.6138,-63.0264,-103.8532,-22.6741,112.8387,-53.8605,157.0127,29.8008,38.5995,-36.5844,97.5253,-64.3754,-106.7427,23.1029
-3320.3125,0.6818,-25.9916,168.0918,-18.5755,23.5989,-8.3198,-118.1194,-31.3725,-152.4230,0.8668,99.4901,-66.2470,218.3045,17.2981,-10.9896,-12.2049,49.6960,-6.3344,-84.2778,10.3437
-3312.5000,-14.5471,-17.7705,116.5277,-32.8133,9.8511,-22.4059,-96.0835,-7.7402,-166.4284,22.9588,84.6963,-43.0861,167.1453,-70.6708,11.9640,47.7221,105.4147,14.2527,-63.2624,-3.8705
-3304.6875,89.7359,7.0773,79.4720,-68.5526,47.5927,-96.0039,-21.5456,-35.2265,-19.9363,22.5513,48.4105,-42.4288,93.4845,-107.1565,12.4169,48.1454,35.6381,14.3349,-62.7475,-3.5908
-3296.8750,137.2911,23.1959,55.6697,-20.0408,23.5684,-83.3609,-82.7654,-50.9386,29.8018,34.3968,60.3741,-29.5226,106.0707,-20.4062,-11.8825,23.8253,-21.8961,-8.3316,-84.9848,8.9313
-3289.0625,92.6657,21.7850,45.6712,7.2724,51.3321,-55.9342,-18.1890,-31.6557,-125.6801,24.0417,50.1410,-38.8136,96.4505,-29.8774,52.6079,14.3079,5.3776,-52.2000,-57.4242,36.2497
-3281.2500,75.0174,-6.4327,26.6302,-45.4633,-3.9627,-37.5779,-36.6672,-21.0176,-144.2173,41.6434,30.8649,-20.1561,78.7812,25.5915,34.0412,32.7351,-82.4095,0.8718,-73.9199,54.5142
-3273.4375,91.5472,5.6943,-28.2568,-63.0440,-58.1238,-18.0839,-90.0043,-5.3574,-124.5945,23.3985,12.7462,-0.3539,61.2593,45.2010,-20.3787,15.3030,-30.0496,19.0878,-21.2647,36.9247
-3265.6250,33.8022,-27.0501,-50.4396,-49.9340,-42.5969,-2.9055,-75.6385,12.1055,-74.2692,37.8495,-9.6683,-21.8568,75.4352,23.4939,-5.0978,30.5654,-86.9885,32.0019,-6.9048,15.0315
-3257.8125,-16.8690,-48.6628,-28.5660,-28.7782,-94.0345,19.3055,-90.2300,47.2941,22.0983,95.3521,-25.0230,0.6908,60.6647,-28.1776,-19.7724,125.8739,-170.8931,51.9659,-21.5035,0.1824
-3250.0000,0.6795,-34.2742,-47.4871,-46.4199,-1.2797,0.6981,-34.6226,39.0637,-33.3436,113.0591,-7.1726,-17.5624,43.0971,-46.6684,-75.2538,107.3813,-83.5955,35.1252,-38.9085,18.5302
-3242.1875,77.1461,0.8238,-3.4969,-39.1611,6.3692,7.9744,-27.1146,-1.5059,-134.8777,46.6648,36.5888,-9.9261,86.4341,-2.2764,-30.8443,41.7892,-76.3974,42.1816,-66.4145,25.7767
-3234.3750,81.9446,24.6324,38.8032,2.4005,12.3030,50.5370,-130.3194,-27.5502,-240.1213,14.5715,41.6601,-3.9944,92.0747,40.4050,11.8544,10.4961,35.0996,12.5335,-129.6233,31.3165
-3226.5625,84.9782,16.3424,42.3122,-29.8400,-20.5758,17.2887,-126.3311,-46.2885,-125.1840,-19.3182,44.9322,0.1313,95.9097,44.2707,15.7558,14.3965,38.7985,-19.9276,-125.6327,35.0520
-3218.7500,45.8428,-10.5949,38.6215,-33.2872,-23.6722,-23.1750,-166.5509,-37.6606,-19.4400,-23.4050,41.0081,-2.9461,129.5462,3.9242,-24.5446,48.0934,-35.7164,12.4085,-94.8473,31.5823
-3210.9375,-62.4291,-12.3807,-0.2181,1.1170,12.0724,-24.7990,-58.9246,-15.3031,-57.8385,-25.6419,-35.0612,32.8280,91.0272,2.4166,10.9960,9.6296,-1.3759,45.5924,-26.2133,29.9543
-3203.1250,-120.0416,-32.9681,-22.3996,14.1718,27.4647,-9.7839,-43.6455,-5.6089,-42.5961,-11.2258,-20.4724,48.2450,69.1598,54.5474,26.1804,-12.1961,-59.3768,128.4232,-11.9280,7.9670
-3195.3125,-50.6271,-20.9492,-21.5699,13.2301,28.8462,28.2236,-79.3763,24.7094,-115.3680,-47.8075,17.1236,-24.3424,70.2971,18.6698,-46.6466,25.9731,10.6228,128.2540,22.3502,-28.0306
-3187.5000,81.1302,25.7507,42.5637,-30.4114,93.5172,-17.4797,-13.8132,20.8804,-269.8544,-57.0906,44.0272,-69.6377,98.7317,-26.9271,-92.1810,17.4373,107.9275,83.3778,48.9252,-36.7344
-3179.6875,71.8137,16.9416,109.6065,-39.1623,87.0793,-24.2999,-94.3588,0.0364,-167.4385,8.5304,73.8402,-39.0436,92.0731,2.3544,-135.8254,-26.2021,64.1312,110.4036,5.3981,-80.5470
-3171.8750,-28.5883,5.3042,80.5623,-33.0159,95.5320,-17.2332,-86.0062,-36.1961,-48.1250,-20.9489,44.5582,5.4391,100.3129,-26.4742,-127.5805,-91.9458,140.2411,81.3270,-23.2281,-109.4689
-3164.0625,-24.1014,-12.2103,85.3748,-28.0206,137.8304,-48.3320,-7.8040,-51.6445,30.0220,-52.5847,49.1328,-26.2263,105.3990,-57.4651,-48.4952,-86.8501,40.2089,51.0960,-18.0133,-104.5486
-3156.2500,-11.6683,-12.1874,24.0935,-15.1234,77.0165,-35.5424,5.2774,-7.0435,6.0473,-4.3159,24.6175,-48.9905,118.3846,-81.5646,-35.5242,-36.8620,53.0695,63.7638,30.0918,-91.7369
-3148.4375,20.1940,-10.3374,20.2157,-53.8227,147.5916,-39.3591,75.7507,27.9212,-107.5441,65.3590,20.5058,-89.3639,40.7671,-48.2710,-39.1585,-77.4804,84.3353,59.8281,97.5955,-95.5325
-3140.6250,44.0283,11.2844,9.2993,-64.5724,173.1054,-50.2397,102.1771,-1.1835,28.8205,16.9819,-63.6483,-26.7968,-6.8956,-59.0341,-13.8484,-88.1553,38.5489,12.8425,87.0439,-106.3856
-3132.8125,-3.4703,17.7889,-39.9569,-40.6736,87.2568,-63.4770,52.2437,-36.4897,163.8361,-69.7479,-114.1421,34.4173,-55.9047,-35.1623,10.1047,-101.1882,62.4169,-33.5013,76.1355,-82.5973
-3125.0000,-32.8791,26.1149,-71.1526,0.2702,56.4498,-20.6787,21.3543,-36.9000,-14.1208,-64.4268,-71.5716,77.6747,-49.8639,43.7407,-56.9030,-132.1791,32.3396,7.1930,46.2704,-76.7638
-3117.1875,-97.3492,20.0417,-63.4356,77.1151,64.5211,23.0080,-43.6586,6.2380,-154.2022,15.8016,-101.0919,122.8273,-42.9169,51.5352,-86.0237,-50.2642,-66.8456,48.7812,17.2931,-106.0329
-3109.3750,-142.7472,6.8286,-38.6655,67.0089,163.6262,-25.2649,128.3643,9.4467,-202.2412,40.0855,-76.5589,74.0232,-17.9197,-33.6266,-24.1014,-62.3030,-6.9718,2.4154,42.3625,-81.2563
-3101.5625,-77.3692,21.1309,-45.1380,97.6558,157.4695,-31.7928,85.1348,-0.9026,-98.5258,-2.8823,-46.2683,67.9588,12.8284,-40.0437,6.5641,-31.6071,-81.3460,32.7957,38.1750,-50.7377
-3093.7500,-45.9074,36.0783,-85.5528,94.3560,117.3474,1.7212,8.9335,0.1151,45.2248,-6.7977,-123.9119,64.9458,-26.3725,-6.4156,-33.7388,-34.8685,20.3281,-5.7776,35.0232,-54.1767
-3085.9375,-14.7542,52.3330,-126.3061,90.7023,113.8673,-2.1265,41.3718,-24.6603,78.5985,-11.0568,-90.8974,98.5767,-66.9222,25.8424,-37.4064,-38.4874,16.6659,-44.7080,-3.4858,-57.9734
-3078.1250,-44.2275,49.2723,-83.7012,131.3911,45.7262,39.3649,-25.8461,-13.0789,-62.6732,-5.9626,-85.5280,104.5479,-61.1201,68.4429,-31.7306,-32.7631,-12.6470,30.7085,-32.6406,-52.4311
-3070.3125,-71.9266,43.2742,-39.3448,103.8309,17.3290,83.6004,-18.3154,-3.2168,-129.2010,-36.1140,-78.4067,75.2563,-53.5691,38.7872,12.6857,-99.2988,100.7979,2.8730,9.9524,-45.1488
-3062.5000,-49.8379,45.7308,-15.2308,126.0164,-32.3259,70.5789,-68.0376,-26.7070,6.0095,-49.5165,-54.5273,99.7081,-29.2710,62.8741,-0.1591,-112.0962,16.9920,-10.2159,-2.7084,-58.1244
-3054.6875,-18.0696,50.8629,-55.4598,122.8548,-35.3507,67.2039,-71.1331,23.5884,2.8693,19.7334,-94.9865,59.8026,-69.3184,22.6033,-77.3698,-41.2519,48.8308,56.3452,29.2690,-61.4584
-3046.8750,9.4746,2.5922,-136.9285,9.4417,-5.6380,59.5796,31.5132,70.4988,31.4546,85.7314,-139.6807,-20.3608,-76.6118,-57.9254,-47.8390,-11.6666,-28.5745,119.6523,92.9801,-69.0473
-3039.0625,-5.3557,-43.1936,-151.7866,-40.3687,-57.3416,81.5563,53.7434,52.6946,164.6227,107.3355,-117.7673,-34.9242,-128.3009,-35.8497,-25.7206,-26.4863,-149.3814,104.5594,42.2824,-84.0409
-3031.2500,3.9494,-25.4432,-68.5433,3.9221,-121.9552,127.6295,26.0639,37.1508,173.8804,42.0564,-71.7556,-62.3965,-155.8949,46.3180,-53.5159,-54.2082,-34.0837,42.5652,16.6817,-74.9443
-3023.4375,32.4346,0.2171,-3.1464,31.3591,-129.4263,119.8438,-17.4691,37.7180,129.2758,33.9310,-42.5855,-32.7295,-52.3375,112.6183,-61.1648,-61.7839,-6.6290,34.7110,44.2266,-82.7051
-3015.6250,3.3879,12.4394,4.7034,38.2491,-84.4669,90.5070,63.4321,42.5464,137.1122,4.2551,-35.9614,-25.6160,-45.3371,46.3707,-53.3717,-53.9179,70.2748,41.3073,86.2128,-112.0239
-3007.8125,-45.6886,-17.4566,26.5045,-10.9057,10.4250,38.1179,159.2696,57.5670,10.8919,25.5350,-14.3811,-76.5575,-59.3916,-41.9183,-31.6421,-32.1195,92.1336,26.8528,108.1460,-90.4023
-3000.0000,-12.7831,-30.6129,22.2661,-83.1150,7.2626,-2.3256,44.0491,49.8746,80.6127,94.7724,-54.8391,-43.5564,-100.4877,-46.2621,-35.9783,0.6205,18.9377,24.3491,70.0164,-57.8424
-2992.1875,91.7972,25.3614,-15.3159,-49.6787,-31.2617,-41.1232,6.4702,16.3182,225.9745,92.6635,-93.6432,-44.9128,-138.9294,-84.9722,-0.6766,-37.9901,123.4020,-12.5073,68.5276,-59.6406
-2984.3750,249.8522,82.0424,2.5588,-32.7966,-12.3437,-59.4742,98.3334,-58.3396,281.7697,-35.9912,-37.9934,-62.8345,-82.9241,-66.2404,-18.9289,-93.1550,105.3344,-30.9087,15.4836,-77.9964
-2976.5625,167.9901,80.1234,63.4915,26.1364,-25.3856,1.2312,48.2245,-65.8083,84.5999,-160.5860,21.7120,-38.7198,-21.8704,-5.4532,-69.1452,-69.2802,129.3180,-7.2570,-30.5180,-54.3121
-2968.7500,77.9682,74.7393,114.2279,41.8736,25.3623,-22.2689,25.9048,-66.9866,-85.7971,-219.3790,36.2263,12.2001,-8.0188,45.1278,-18.5758,-55.6200,145.1099,-26.8173,-14.7349,-3.8343
-2960.9375,143.7301,88.6643,71.7266,36.3628,-17.1490,8.9652,-53.6788,-83.0887,56.5450,-188.4308,30.5004,43.8764,-13.4146,39.4538,12.7301,-61.2198,103.6464,-32.6385,-56.2163,-9.6079
-2953.1250,207.2000,118.6340,64.9231,29.5547,-60.9723,1.8964,-60.5713,-65.9516,-61.4109,-159.7787,59.4739,37.2527,16.8896,-4.5198,-31.2724,5.8756,202.8858,-75.7584,-63.0039,-16.6855
-2945.3125,217.3845,106.0396,146.8244,4.4453,-16.0962,9.5283,-15.7612,-71.6636,-162.6846,-188.4268,141.1575,8.3206,61.8970,-70.7934,-23.5798,13.6656,141.8278,-101.1809,-88.0979,27.9363
-2937.5000,75.5439,48.3203,143.6838,38.2881,-91.2824,6.1112,-128.0222,-65.7736,-20.0301,-118.1176,137.8050,42.3338,58.8573,-0.1128,10.0499,47.4003,70.7147,-101.6526,-124.2524,61.5076
-2929.6875,20.5273,33.5215,85.3471,52.9328,-40.6851,20.4950,-76.5006,-39.6588,-41.6019,-67.9972,79.2583,20.1381,-0.3838,51.3641,-12.5371,-12.0669,85.4069,-87.3197,-73.6104,75.8743
-2921.8750,71.1302,36.1495,65.6181,33.1753,-60.4965,37.4723,-96.3810,-38.3464,-97.5768,-52.2733,96.3252,37.5256,16.9816,68.4338,-32.5255,5.0604,-5.3032,-73.3863,-93.3721,55.8328
-2914.0625,47.9544,38.5222,42.0953,44.6144,-120.1217,50.6497,-120.0683,-41.2206,-121.3362,-39.3432,108.6003,88.1027,-6.4520,81.7030,-19.3162,18.3771,-28.8095,-62.2572,-116.9463,31.9817
-2906.2500,70.7521,38.3997,29.5273,31.9990,-132.8003,74.7725,-132.8134,-45.2414,-62.1542,-52.4500,59.8285,75.6221,-18.9355,68.9130,4.8321,5.6321,-41.3594,-4.1830,-129.5800,19.0739
-2898.4375,68.4354,47.2352,28.8118,64.2305,-98.6380,72.7427,-170.7263,-15.1500,-100.1485,-16.6996,57.9114,73.9854,17.4285,103.9694,-70.1866,41.7309,-8.0663,27.7414,-98.3757,-18.9926
-2890.6250,146.2039,85.3813,73.1482,35.5124,20.5612,80.7640,-90.6033,6.5581,-275.1114,-82.8997,103.0526,9.3965,-11.1601,38.0762,-62.1685,-24.1264,139.2807,-1.2879,13.8704,-48.0181
-2882.8125,207.3972,87.0209,100.8917,-8.8041,84.1486,34.1880,-26.0851,-10.6503,-247.6801,-55.6989,130.6069,0.1948,15.6497,-7.4112,-71.7545,-33.5925,59.0364,-10.9193,4.5056,-57.6510
-2875.0000,121.2074,69.9838,45.2458,9.4814,65.3245,52.2193,-81.9830,-19.1449,-156.6578,-0.8930,74.7710,54.5845,-1.9341,10.7040,-127.7596,-52.4670,42.4012,7.0549,-47.2660,-39.6911
-2867.1875,-34.4162,19.8667,65.1569,29.3151,49.0471,35.8004,-99.3354,-19.3755,-101.0944,-18.5243,94.4907,38.5076,18.0268,-6.6358,-71.2260,-69.7997,97.3287,-8.4186,-27.4869,-20.1882
-2859.3750,96.2347,57.0537,128.3183,18.3944,38.0098,-12.3671,-73.4483,-56.2157,-38.2883,-66.8908,83.4634,27.6693,7.2413,19.2707,-45.4483,-80.8816,51.4980,-19.6385,-38.4668,-31.4408
-2851.5625,249.8636,114.5165,104.4341,31.4198,50.9094,37.4136,-23.6210,-68.7185,-171.5544,-91.3037,96.3933,3.7739,-16.5940,68.1244,-69.7335,-68.0195,99.6242,-77.9076,-96.5050,-18.7484
-2843.7500,246.1109,77.9074,62.1524,27.0397,7.4023,67.7950,-67.1972,-61.8475,-141.2325,-61.1065,89.9327,-2.5301,14.1731,98.5737,-76.4291,-37.5689,-80.6442,-47.5776,-134.9492,11.5378
-2835.9375,215.6274,56.3455,29.1250,-4.0870,-62.8635,34.4292,-135.5404,-50.8894,-28.6589,-20.6472,93.7253,1.4129,-18.8173,29.2784,-72.8871,-33.8780,-76.6595,-43.9927,-97.1553,15.0657
-2828.1250,221.8144,39.3935,71.7498,-104.5582,-20.4856,2.7224,-21.2404,-54.4884,-132.4426,-89.5311,136.1733,-30.0025,-13.1673,-39.3590,6.2950,-28.5482,-36.0122,-108.7583,-56.7175,20.2338
-2820.3125,194.8785,32.3761,79.2339,-62.1818,-86.2645,-27.1255,-51.1016,-60.4092,-16.3958,-82.5588,106.4797,-22.5771,-5.6619,-69.1429,-23.6833,15.6236,-98.5213,-66.6709,-84.4434,27.2453
-2812.5000,119.1127,51.3739,36.8701,3.3469,-91.9107,4.1828,-56.8306,-45.7652,-59.2136,-51.4252,64.9415,45.9940,-48.0083,-0.7759,-66.5208,9.9502,-33.8863,-37.4330,-90.0359,21.4054
-2804.6875,237.3026,103.7125,50.4556,14.8257,-5.6151,-56.5629,-43.6143,-99.6922,-192.0903,-75.3286,114.3638,59.5082,2.5949,49.5395,-53.4121,-50.7744,-21.2983,-96.2430,-113.6823,-2.4845
-2796.8750,417.3554,171.1246,54.9025,18.1549,-74.4770,-88.4579,-112.5595,-159.5007,-78.1331,-107.3762,82.6471,63.8662,-28.9440,53.7079,-85.4601,-119.6494,17.1390,-163.2004,-145.4894,-34.5273
-2789.0625,581.8736,219.4288,43.8026,4.9304,-159.8963,-136.8946,-124.0664,-216.7167,94.2542,-192.9640,71.3872,15.6637,-40.0331,5.3292,-97.0647,-204.0826,75.0403,-211.7088,-123.8537,-83.1231
-2781.2500,668.6110,229.5750,63.9070,21.8993,-214.1217,-117.1292,-141.3835,-217.9778,113.8502,-210.3446,54.3351,-38.3440,-20.9252,-11.8492,-151.4784,-185.3227,21.1415,-196.0172,-142.0315,-137.5245
-2773.4375,738.3187,269.9482,99.9592,-15.1755,-214.4093,-154.4102,-141.7630,-219.0967,-144.6087,-210.7623,54.2345,-38.4053,-94.8727,-12.0754,-188.9494,-222.6179,124.1942,-233.3740,-109.2712,-174.9796
-2765.6250,832.0009,289.6537,88.9676,-28.3043,-225.7501,-165.7402,-153.1958,-247.6836,-267.1445,-259.2237,42.0939,-86.5273,-68.8711,-60.3486,-200.4763,-270.9710,112.2029,-210.7778,-122.5643,-223.4873
-2757.8125,991.9924,354.2280,37.2823,-10.1293,-314.8013,-144.7609,-242.3429,-272.2781,-208.3913,-237.3745,-9.7402,-64.3592,-120.5621,-75.3143,-252.7086,-286.0315,130.5067,-192.8745,-174.5601,-275.6971
-2750.0000,1123.6322,412.7077,66.2435,-20.3065,-249.2034,-153.1243,-214.8407,-291.9779,-180.9890,-209.8625,19.0799,-72.5457,-165.6097,-120.6282,-298.2979,-331.4435,226.4680,-238.3158,-184.9069,-321.2608
-2742.1875,1155.4410,413.5798,99.3529,-24.3337,-253.4613,-120.3396,-255.1865,-284.2737,-185.4390,-177.2009,52.0562,-40.5843,-132.5078,-87.7920,-376.7416,-298.7124,116.5816,-207.6108,-224.1172,-325.6799
-2734.3750,1165.3700,407.0208,34.5701,-15.2591,-281.6347,-74.4547,-246.4513,-238.4808,-360.8045,-131.4418,24.1405,-67.5230,-86.3045,-42.8499,-405.0956,-252.8861,90.7991,-127.8036,-215.2426,-317.0023
-2726.5625,1144.3597,385.4189,86.8404,-37.1369,-230.7625,-96.5164,-158.6701,-240.5952,-383.1282,-190.6242,76.2823,-126.4239,-35.0506,-100.8601,-316.4060,-275.0149,104.0701,-114.9445,-166.3225,-339.2744
-2718.7500,1001.6484,323.4825,157.4132,-74.7214,-159.5949,-136.2752,-198.5968,-293.2003,-128.1523,-230.4864,73.7308,-92.0338,-0.4889,-103.5653,-246.4152,-277.8453,66.6288,-117.7764,-240.1070,-342.2466
-2710.9375,844.0878,303.1411,137.1334,-22.1560,-107.2787,-120.8778,-146.3744,-291.4233,-223.0313,-251.1753,15.3272,-76.5035,-21.7896,-15.1163,-267.2738,-299.5280,154.3351,-135.4500,-257.7432,-290.0695
-2703.1250,838.2415,309.0747,89.5463,41.1084,-81.2680,-57.7709,-230.4490,-264.2744,-344.2153,-225.1489,41.6247,-50.2797,5.6002,12.0403,-278.4280,-236.5173,76.7346,-72.4192,-300.6850,-227.1934
-2695.3125,722.2064,260.4017,111.7530,65.1773,-132.4728,1.1475,-245.7382,-183.9911,-285.5985,-166.3091,100.7244,-65.2570,27.7858,-2.9938,-256.7912,-140.6994,65.9286,-49.5861,-241.8381,-168.5166
-2687.5000,480.8629,172.3485,76.6609,33.9466,-94.9854,-34.2268,-134.3302,-151.4763,-64.2923,-128.7561,139.5300,-26.5431,28.6708,-75.3305,-145.4596,-66.1785,34.8314,-45.0543,-202.2915,-94.1388
-2679.6875,322.3206,79.4673,91.3726,-19.4923,-80.7029,-56.7986,-156.1219,-91.8968,23.8180,-3.3907,117.1441,-49.0392,80.3657,13.1290,-167.3340,-14.8551,-18.4694,-28.7252,-150.9496,-42.9611
-2671.8750,184.7363,38.1156,92.0347,18.0113,-6.4702,54.5829,-154.9660,-15.5293,-196.1201,69.9340,117.7135,-85.5985,118.0097,86.5395,-130.2634,-14.5859,54.1768,8.5598,-113.6614,-5.8324
-2664.0625,39.1588,-30.5938,120.7002,11.5102,57.7580,154.9669,-90.8051,32.4003,-242.0648,24.2636,109.2912,-130.1679,145.6558,77.9501,-30.1902,49.6783,12.8230,72.8465,-119.3737,58.3007
-2656.2500,-229.2597,-129.4432,56.5180,58.1534,67.1313,165.5064,-81.4976,88.2559,-85.8472,33.7509,82.0261,-157.5945,119.4492,50.5213,53.0388,133.0869,-10.3899,154.2875,-72.9447,104.5835
-2648.4375,-424.3766,-184.7966,35.6314,39.0992,82.8010,144.3525,7.1122,118.5112,38.6730,49.5552,98.0617,-141.7269,98.5332,66.3968,68.5678,111.7873,75.7003,170.0341,12.7807,120.1638
-2640.6250,-411.4014,-191.2667,47.8423,51.1460,94.5698,156.3078,-17.1848,127.6077,124.2947,61.4751,110.1960,-129.7591,147.7138,115.3750,43.1914,123.5898,-16.1157,181.8926,24.6012,131.8439
-2632.8125,-436.2876,-168.6169,21.1979,60.3451,66.4851,165.4196,27.6630,162.1940,23.0578,70.5619,82.4801,-83.6475,157.0461,87.5031,15.9651,169.5499,62.2206,155.9106,68.5682,140.6754
-2625.0000,-479.8251,-195.3551,47.9017,15.8888,167.7548,118.8838,90.8673,158.6107,-96.8376,135.0079,73.1213,-93.1921,184.7259,77.9771,79.0892,159.8597,52.9124,111.2845,58.8855,130.8581
-2617.1875,-578.0029,-231.0482,54.9581,22.7777,100.3685,125.7052,-11.5861,145.9457,19.6173,141.8140,80.1166,-49.3960,154.7541,84.8092,122.5608,203.5166,24.9456,118.0188,-3.4533,137.3894
-2609.3750,-604.5797,-224.7669,26.6120,30.2682,70.5790,96.1364,31.5557,113.0502,173.6681,112.2329,50.7146,-42.0103,88.3754,92.2521,166.6331,136.7695,102.5835,89.3590,3.8010,144.5221
-2601.5625,-626.4606,-240.7039,2.9627,42.4598,82.4901,108.2731,79.4004,142.9618,222.4184,87.3603,-8.9854,-29.9240,100.6971,141.4016,178.4099,185.7219,-25.0852,137.4049,49.7519,156.3598
-2593.7500,-653.7072,-238.5795,-66.0436,14.3067,124.0447,150.0698,157.8950,228.5291,79.8151,129.1506,-78.0370,-25.1862,33.6658,146.2120,145.8382,227.3246,16.8930,179.1106,161.3499,197.8494
-2585.9375,-720.3594,-272.6501,-135.4575,-17.2490,164.2043,116.4720,234.9970,237.8430,192.8082,132.5575,-74.4830,-21.8551,0.2348,76.6173,222.8717,193.5312,-49.5288,217.4150,235.5450,200.9408
-2578.1250,-815.0129,-332.9804,-160.8699,-42.8098,138.3667,127.8773,246.0930,268.5085,350.8113,143.9785,-135.9259,-47.5333,11.8056,51.0227,233.9086,167.7397,-144.9604,261.7229,314.7349,175.0355
-2570.3125,-900.1190,-363.4175,-177.7358,-57.8226,158.0737,110.8466,375.7361,283.6064,260.3739,126.9630,-152.8247,-64.6674,-5.0844,34.9850,216.4981,187.4953,-160.8381,246.5876,334.4767,194.6868
-2562.5000,-962.3387,-381.8715,-207.7122,-15.9368,164.6764,81.7269,345.2854,283.5851,266.8515,170.8619,-108.8245,-20.9105,38.9196,77.8552,148.9919,231.1532,-258.8222,253.3638,306.1216,201.2421
-2554.6875,-816.1281,-344.4490,-201.2430,-46.6002,133.7197,87.0668,314.2821,274.3226,308.7816,250.2279,-103.3694,-51.7062,8.3700,11.1858,191.9348,163.2701,-219.3611,222.5962,310.2144,170.2462
-2546.8750,-608.2164,-318.1510,-168.0752,-155.5671,166.4646,47.1117,420.9834,235.3998,378.3982,246.3024,-107.2101,-128.8051,-32.4802,-66.7857,297.5804,159.0837,-223.1980,148.5308,271.0087,165.9526
-2539.0625,-630.2521,-330.9734,-157.8610,-179.4857,139.2555,21.2134,319.7300,251.8362,314.0649,293.4412,-132.9909,-81.8592,-22.2790,-56.7037,307.2807,242.9499,-280.9961,159.5231,247.8453,212.7132
-2531.2500,-711.4991,-329.2395,-207.8492,-120.6012,126.8439,45.1232,270.2733,267.9239,227.5413,281.3995,-182.9762,-58.1169,1.7171,-32.8131,257.7876,229.6165,-221.9969,148.3246,271.4795,236.2795
-2523.4375,-590.7148,-286.9915,-189.7891,-105.6699,143.4887,26.0882,213.8723,207.5439,281.0710,261.4247,-91.9075,-41.3313,19.7630,-51.8707,238.3523,173.3383,-242.9534,92.1864,215.1622,179.9028
-2515.6250,-521.4454,-236.4568,-153.2336,-38.2449,68.6335,60.5591,175.9744,190.9532,243.1129,260.9635,-129.3378,-42.0554,-54.6945,-15.4298,200.4183,172.5665,-174.4151,125.5592,142.3483,142.0303
-2507.8125,-543.4819,-202.1706,-139.9844,-25.1242,45.4809,73.7343,188.7902,185.0659,71.8467,201.2108,-116.0688,7.9134,-115.4567,-2.2919,176.1922,185.4922,-56.1763,138.6418,119.2405,154.8607
-2500.0000,-523.1743,-202.3409,-120.3877,-5.6538,-7.3188,94.2639,97.9624,185.6369,128.9264,220.8205,-95.4466,27.2291,-57.8696,17.2008,159.3206,205.7693,-107.5946,122.0882,102.4778,138.0443
-2492.1875,-511.0841,-197.8594,-106.9929,-29.3794,4.6854,70.6022,184.9302,166.8195,141.8186,234.2430,-119.0246,3.3425,-44.4866,29.4986,172.2504,144.8448,-25.2080,27.3417,114.5147,114.0319
-2484.3750,-488.9070,-193.4385,-11.4992,-44.0113,61.7908,19.0463,206.0064,129.9784,51.8207,218.7753,-23.4980,24.5507,48.9971,-21.1013,193.2868,166.0198,-74.7271,-91.3004,64.6525,135.1245
-2476.5625,-497.6949,-192.4762,14.0379,-18.5935,-22.0616,8.5483,83.1319,104.3221,76.8815,171.3698,2.0775,49.8060,38.5264,4.3532,181.3784,191.2582,-84.2110,-135.8821,20.8398,160.2748
-2468.7500,-393.3947,-163.0972,-24.3357,-55.0798,-60.8182,-29.8456,81.3648,69.7991,149.0515,170.0881,0.7439,48.1586,1.1431,-34.0920,179.5794,189.6068,-50.5987,-172.3569,-16.8656,158.5328
-2460.9375,-273.2477,-106.3240,-45.8645,-5.7185,-119.7188,-14.3877,-12.5428,53.2341,201.0788,185.6703,-20.7354,99.3526,-20.3931,17.3148,157.6381,167.8016,-107.1462,-123.9732,-38.7154,136.6467
-2453.1250,-212.8211,-34.2829,-56.0967,87.9419,-93.3195,47.3775,-23.1427,70.0960,42.4156,175.5643,-30.9127,125.8437,-30.6344,80.0294,73.0026,120.2986,-11.3947,-99.2757,-13.2616,126.0646
-2445.3125,-245.3103,-75.0586,-17.2309,54.6992,-91.8144,49.2475,50.3668,73.1742,7.8599,103.5676,43.0097,53.4297,43.2168,81.8373,74.4826,158.8994,-9.5388,-97.4737,-11.7062,127.5881
-2437.5000,-318.1633,-107.3047,-20.7188,51.1094,-95.6630,45.7744,-25.4774,77.1237,76.9561,63.2361,39.5797,49.6667,3.7166,115.2985,107.6148,155.1602,-13.0453,-66.0114,18.4959,123.7695
-2429.6875,-428.8734,-124.1829,-26.0646,45.6609,-64.3614,4.4539,40.8284,69.4204,-1.7994,95.0695,-1.6990,81.0468,-37.6352,109.9125,138.9032,75.5771,15.5968,-71.3928,47.8520,118.1088
-2421.8750,-349.2442,-96.1818,-53.0641,-16.4460,-54.7051,-22.5137,13.5005,29.3314,6.8249,178.2603,-64.6261,164.7666,-28.6381,45.8797,74.5562,48.3428,-81.4236,6.5788,-48.4375,90.8026
-2414.0625,-208.7896,-15.2358,-91.2197,52.3013,-20.1963,-23.6231,-23.9712,25.7787,-30.6804,177.3097,-102.7001,163.3355,-65.7905,7.7016,-0.9322,46.9667,-12.6016,5.4046,-49.8822,89.3527
-2406.2500,-132.3006,4.6566,-48.3260,58.1045,21.3708,-53.6808,-18.3887,-1.9713,-98.1564,73.4232,-23.7196,94.9629,-23.8948,13.5756,41.6397,-20.3535,28.2720,46.2827,-10.2800,94.9645
-2398.4375,-186.7782,-24.4921,-68.3874,37.9558,0.9879,-37.6875,-38.7601,12.5800,-81.5764,90.6001,-43.6850,111.6409,-43.9473,67.5011,95.2678,-4.6180,8.1815,26.2196,4.3757,74.6338
-2390.6250,-206.0744,-17.7901,-52.2557,53.9995,17.8074,15.5128,14.0744,15.3497,-101.7687,70.9883,-63.4559,91.5061,-99.7998,84.6263,75.1005,-24.6785,94.2862,6.3675,-15.7629,54.5091
-2382.8125,-183.1303,-8.5061,-28.8791,111.2912,4.8853,39.9678,-35.8256,13.8034,-114.7084,95.6356,-2.9731,78.6142,-40.4004,109.0027,-11.8027,-0.4872,81.6302,-6.2257,-63.6477,41.6422
-2375.0000,-130.2992,23.4876,-9.6073,128.4812,-50.1359,59.3316,-125.8249,16.2980,-169.7526,151.1960,16.4062,97.6195,-58.1064,91.2846,-66.7949,-18.3897,133.8676,-23.9020,-81.6280,23.6835
-2367.1875,-106.3443,17.4693,14.8081,45.8177,-25.9958,-27.1515,-138.6596,-34.1206,-109.6416,101.9214,40.9338,120.7744,3.3265,4.7163,-42.6277,-31.1415,121.2578,-71.4207,-94.4479,10.8816
-2359.3750,-75.2188,35.7324,11.4179,77.3516,-29.6510,-30.4306,-179.2826,-14.3031,-77.3009,98.8587,0.6570,154.1221,-37.0389,1.3447,-83.2500,2.3162,12.8330,-3.7234,-63.0601,7.2834
-2351.5625,-78.1638,41.2785,-29.0337,73.8309,-33.3497,3.2380,-73.9416,44.7420,-152.9898,95.7598,-39.6767,113.4145,-77.4624,34.9174,-86.9097,-38.2687,79.3559,27.9342,74.2873,3.6371
-2343.7500,0.5240,4.6305,-19.8434,-24.0483,49.6083,-24.4423,9.0710,31.6884,-35.0278,105.3239,6.6403,12.3515,5.7595,7.1381,-3.9071,-103.1962,16.5189,35.2518,116.2869,-24.3539
-2335.9375,-16.7627,-14.3264,1.3929,-41.8786,32.6230,-40.0600,29.1321,10.7135,132.9850,89.9510,-8.9923,-3.6631,-9.9652,-8.5859,-19.8537,-119.0664,-1.2854,52.6335,99.3427,-77.2856
-2328.1250,-49.5703,-15.7912,-33.8670,-5.2134,71.1526,-1.1765,67.7034,18.1684,171.5183,92.0910,-44.1243,-2.1866,-45.1902,-43.8120,-55.2879,-80.4445,0.4006,-15.4782,64.9125,-75.7115
-2320.3125,-61.1900,6.6062,-46.9329,18.6449,21.8874,22.9132,-18.5094,12.5108,47.2896,42.4451,-57.0618,94.4748,-21.2176,-19.8352,-68.5156,-19.6251,-45.7218,8.6179,18.6903,-51.9340
-2312.5000,-134.0159,-9.2995,-87.2106,15.2982,18.4332,19.8069,15.0877,50.1912,-103.1336,76.6150,-60.2029,90.9311,-61.4494,13.9345,-34.9310,-22.9944,20.9569,5.5126,85.2747,-55.3472
-2304.6875,-184.6697,-65.0862,-67.2916,-36.8527,111.1790,-34.0951,107.8879,44.1816,137.6407,60.0009,-77.1394,36.5906,-78.4848,-40.0946,57.8588,-40.1481,-66.1737,-11.3788,139.0590,-72.5504
-2296.8750,-216.6503,-112.6835,-100.6751,-68.2994,114.6258,-67.2882,111.3804,52.4734,325.1022,64.0958,-147.3780,-33.0416,-74.8266,-36.4215,98.3627,-36.5968,-98.6092,27.4411,177.5365,-69.0426
-2289.0625,-176.1017,-80.8862,-133.5198,-64.1895,154.6263,-63.9353,188.4293,61.7315,144.1147,67.7441,-143.0662,-30.1206,-108.6143,-70.1860,101.4332,-33.4916,-58.4933,-2.1869,182.5560,-28.9790
-2281.2500,-159.6112,-79.7767,-190.4204,-48.1220,96.5821,-47.6348,130.4324,67.6891,123.1154,84.3511,-162.8023,22.7514,-92.4502,-53.9982,117.4642,56.5688,-182.4359,49.1384,127.5261,-12.9619
-2273.4375,-143.2791,-64.6055,-210.4733,-32.1967,76.3929,-30.4757,184.2931,70.9100,176.9807,64.8160,-182.6986,2.4702,-148.4385,-73.9586,134.3591,36.4841,-132.5371,99.3202,143.3465,-33.0880
-2265.6250,-118.1631,-102.6714,-146.7333,-77.4715,141.0075,-39.5053,247.9600,64.4762,277.6241,56.0951,-119.7984,-118.0034,-84.6301,-156.1145,162.0629,-9.7853,-141.8584,55.3115,168.9704,-42.3965
-2257.8125,-190.6367,-152.2005,-78.5591,-115.3011,99.0711,-7.0866,170.0783,59.1760,346.7216,52.8370,-87.4490,-122.0283,-52.3762,-123.8172,157.2400,-14.5907,-179.7435,52.7571,130.0505,-10.2389
-2250.0000,-77.5359,-58.4156,-70.7900,-72.5406,70.7444,-73.0822,177.8164,-3.7026,244.4460,24.1867,-79.5013,-41.4588,-81.5236,-79.9289,128.0320,-43.7986,-67.0289,-9.1978,67.7466,-2.4736
-2242.1875,136.8478,58.8177,-65.7211,1.5150,1.7246,-104.7797,71.8597,-48.7841,138.5094,29.8447,-74.2583,37.4100,-39.3713,-111.7490,59.1241,-38.6923,-64.0247,-5.8525,0.7483,-34.4036
-2234.3750,211.1643,89.7994,-60.7066,4.5189,6.6573,-62.5258,3.8618,-35.8075,-77.4540,34.4604,-69.0667,5.2163,-71.2696,-106.6239,27.1854,-70.6263,9.9263,32.4462,3.7091,-66.3754
-2226.5625,292.3691,117.5326,24.2017,-20.5803,17.4948,-50.3647,14.7782,-73.2594,-212.5034,-63.0185,-19.9784,-20.0799,-59.2704,-57.6018,-33.8320,-132.6561,54.7613,7.6541,-21.4222,-91.4369
-2218.7500,276.8615,105.8892,47.4033,-36.3830,3.6366,-27.8972,-71.9915,-82.0117,-79.2470,-76.1888,2.4061,1.9287,-36.9741,-35.2753,-121.5403,-146.3747,39.8870,63.1741,-37.2539,-142.1887
-2210.9375,180.4924,106.3410,21.7489,8.9615,14.9412,20.7156,49.3956,-73.2105,-68.8382,-101.2001,-60.0626,13.0887,-62.5298,13.1941,-110.0968,-171.9390,154.1614,37.8493,-27.9279,-167.7802
-2203.1250,135.1063,69.3511,9.0940,33.2898,76.2564,45.3209,36.7870,-28.6653,-7.4186,-76.2091,-71.5254,0.2442,-38.0784,37.6541,-49.6425,-73.5054,38.4359,27.5344,-3.5816,-143.3639
-2195.3125,46.1103,7.4832,-12.1541,14.0081,53.9814,23.3293,51.5974,12.3938,155.4033,-23.8170,-56.5867,-21.2170,-22.2243,-57.4883,2.2216,51.3210,-50.8865,8.6286,13.1874,-91.5445
-2187.5000,1.0357,-26.1320,-26.4539,-31.3299,76.6732,-63.6981,111.3757,-1.3019,141.1841,-0.4674,-33.6973,-35.7414,-36.4180,-108.6878,62.0370,74.1011,-97.2748,-1.3040,2.9214,-31.7689
-2179.6875,32.4737,-19.6232,-69.2148,-36.1186,34.9224,-32.1752,-4.2877,4.3916,25.5377,31.4529,-76.2706,-4.7153,-42.0613,-40.3500,20.4136,32.4486,-171.1302,30.3347,-0.7849,-0.4352
-2171.8750,80.5342,23.3428,-92.3419,-23.2593,84.8389,17.9926,8.7133,20.1925,-108.4296,8.0266,-99.1967,7.9676,-102.0596,9.6349,33.4573,-28.5500,-88.3395,43.6283,47.1597,12.5585
-2164.0625,104.4402,16.8567,-67.6153,-34.5441,73.6078,7.0133,-2.4400,-5.7218,100.4627,-76.5578,-0.2633,-3.5002,-3.2005,-38.5172,59.3569,-39.7058,-99.6981,32.7771,70.9441,1.4091
-2156.2500,-9.2526,-43.9123,-1.4829,-42.4215,65.7768,36.4422,-10.2005,1.7620,240.7312,-83.7374,29.0738,-48.5665,63.0639,-46.2625,14.6597,-47.4554,-107.6544,60.3319,63.1235,-6.3360
-2148.4375,6.7629,-21.0341,12.3505,-26.6073,79.6485,13.5738,40.7457,37.0395,33.6898,-68.2099,-30.8867,-34.9365,40.0248,-68.3216,-8.3279,40.5149,-126.9202,41.5953,79.0075,44.6257
-2140.6250,123.8122,-4.1105,-49.7637,-50.7504,-20.4258,24.7516,-22.2501,37.1914,44.7209,-56.6244,-19.7935,-24.2704,14.0453,-57.3356,39.7528,88.5370,-221.1479,87.9107,54.9437,55.6415
-2132.8125,120.7380,-9.8774,-123.9760,-88.9902,-58.6007,23.8287,50.6612,3.7859,190.6656,-94.1398,-20.7971,-25.6956,-24.0290,14.5566,111.7355,-23.5438,-154.4733,85.1236,86.7812,17.5605
-2125.0000,76.5152,-18.1555,-97.3374,-63.3705,6.0802,14.7536,78.4242,-10.7283,144.4683,-66.8077,7.0395,-35.2634,3.7431,5.3111,102.5689,-32.7788,-127.9473,41.1826,42.4687,8.3352
-2117.1875,-47.8999,-24.9821,-7.9077,24.0459,-14.4391,-5.5301,-16.0054,-1.3874,51.0891,-12.6731,23.6682,-19.0258,-16.6906,-15.1436,46.2164,20.7993,-42.6325,23.0357,-12.0454,24.9212
-2109.3750,72.7783,15.8645,6.6139,2.5595,0.1461,-27.7256,-1.3272,-6.0234,65.8166,-34.4397,1.4010,-41.6781,-39.0292,-37.5148,60.9822,35.4907,6.7683,1.9905,2.5433,39.6190
-2101.5625,341.2335,91.1652,-6.0668,-45.1202,-49.4626,-40.1236,-13.8394,-61.7083,90.3370,-82.4021,25.9361,-17.5222,-14.5668,-50.0733,48.5563,59.9896,-76.0430,-10.2476,-80.0671,27.1266
-2093.7500,295.6625,125.4147,-16.7493,15.2069,-60.0649,-50.5160,-24.3536,-60.5407,-31.1415,-56.3678,15.4659,45.6384,11.9008,-23.6263,1.1310,12.4846,19.1561,-20.4787,-55.6654,16.6402
-2085.9375,176.4845,81.5483,43.9674,1.9302,-36.2522,-63.5136,36.5390,-65.9535,-7.1875,-68.9402,76.3952,32.1931,-1.2292,0.2114,25.1189,-37.6234,40.7585,-33.3064,-33.8547,3.5529
-2078.1250,95.6028,46.2144,32.9782,25.9565,-84.1297,-37.2102,-48.2555,-55.4169,56.0856,-79.2214,28.6227,21.0486,24.9380,26.3501,14.4221,-11.4322,29.6565,-7.8319,-44.7473,-7.2291
-2070.3125,110.3938,48.0921,10.6930,5.6804,-105.2997,-22.2122,-33.3355,-64.0358,-39.9359,-99.8058,43.5464,-1.3931,2.8123,41.1836,29.4423,-33.5285,79.2483,7.3466,-64.9337,7.7038
-2062.5000,160.5019,95.6750,27.7517,55.7457,-125.1072,-4.8682,-90.0576,-107.8196,-96.6089,-119.0388,60.8141,88.5158,20.0412,94.3671,-27.1692,-53.2650,24.1744,22.8802,-153.7592,-12.0010
-2054.6875,229.6491,147.5598,25.8540,88.8634,-90.8605,30.5173,-127.7301,-100.5733,-98.2257,-84.2138,22.1291,123.4749,18.3206,56.5928,-102.7210,-17.9423,92.1530,-13.5356,-191.5322,-13.6481
-2046.8750,217.7106,142.3857,48.8559,111.8781,-67.7076,16.7966,-104.4973,-96.7571,-110.9227,-96.4982,82.3512,109.3332,41.5028,5.7054,-79.3686,42.2880,80.0326,-61.0564,-203.4043,9.6111
-2039.0625,316.2687,158.9534,114.3662,105.3907,-148.0519,8.5700,-222.7704,-118.6181,-155.1116,-67.2843,147.0733,137.7024,107.1922,71.3167,-122.5120,34.0185,-32.5934,-101.0784,-244.7790,38.3765
-2031.2500,338.0651,139.6321,136.1260,57.1536,-163.1407,-6.4139,-163.7854,-103.1460,-133.0558,-80.8195,133.0442,49.3316,92.1375,56.1871,-64.4063,18.9940,24.0280,-114.8529,-187.9000,60.3972
-2023.4375,196.5967,59.8841,171.6319,20.6713,-89.4814,-6.6429,-127.0536,-69.1793,-96.2550,-80.6040,132.7564,-25.2865,91.8354,18.8171,8.4562,55.7264,23.3900,-78.8760,-153.2747,60.1731
-2015.6250,4.0605,1.1840,155.0843,4.1476,-33.8737,14.0794,-70.3675,-37.0943,-112.4859,-96.4453,79.4183,-41.9509,75.4788,2.3956,66.2795,39.4121,112.7004,-25.9440,-98.6955,43.9007
-2007.8125,101.2726,39.6485,110.2959,-39.6169,-5.5056,-31.4544,-5.9189,-51.3916,-120.9525,-68.5549,33.8344,-13.8648,29.8798,-6.2844,57.8638,-6.1448,103.7674,-34.2717,-73.3623,35.3803
-2000.0000,407.7833,135.8980,62.8123,-50.0833,-52.8279,-77.6914,-162.1704,-108.5887,-22.1094,-78.3687,60.5541,49.5290,56.5919,-16.6736,-63.2497,-16.3993,-47.8698,-44.3023,-117.7290,25.1688
-1992.1875,402.3365,137.8010,57.3733,-20.5044,-58.0935,-46.8806,-167.3829,-71.6601,-136.2139,-83.1362,92.3206,6.9779,88.3584,14.9906,-68.3064,-21.6079,17.5436,-14.2852,-54.0413,20.0169
-1984.3750,223.7358,76.7947,91.7822,12.9268,13.4853,24.7814,-60.7453,-25.7759,-138.4705,-85.0660,125.9337,-32.7187,121.9907,12.5235,-70.5069,-23.9713,14.8036,54.5822,-21.5039,17.7165
-1976.5625,99.6390,24.3302,109.6933,29.8635,32.5702,43.9440,-78.6003,-1.0195,-120.2493,-66.5011,145.0435,-87.9066,141.1305,-5.4444,-124.2093,-41.8321,31.5677,141.9529,-3.4597,-0.0865
-1968.7500,100.1992,0.3302,149.2558,-39.5445,71.3175,46.7565,-38.7952,11.4278,-154.3896,-63.2888,184.8029,-158.4481,106.9195,-39.7715,-122.2647,-76.0371,101.9782,143.9798,32.2403,-34.2393
-1960.9375,116.6985,-1.4345,167.7700,-58.0079,127.0235,64.5150,-57.0420,6.7829,-136.5530,-81.1331,166.5120,-141.0352,162.6538,-58.1617,-140.3654,-57.2905,48.3356,125.9519,13.8928,-52.4381
-1953.1250,154.6453,34.5884,132.7328,-56.0226,92.1772,66.7047,-17.8439,5.7866,-206.2272,-78.5336,94.6676,-102.1633,90.8383,-93.1104,-64.0152,-55.0957,85.1443,92.3655,16.0017,-50.1863
-1945.3125,200.2894,49.3020,106.3936,-45.3429,30.0394,41.5901,-6.9324,-10.9111,-195.1945,-67.2336,68.5191,-91.5983,64.7263,-45.3524,-15.9609,-44.1995,60.6502,68.4809,-8.1764,-39.2386
-1937.5000,40.8207,8.2374,50.9572,41.2394,-25.1855,59.3834,-62.1070,15.4679,-30.2818,-11.0409,50.2711,-73.1393,46.5145,46.3126,-71.0061,-25.4056,77.0652,50.5058,8.5517,-57.3906
-1929.6875,-15.1483,-6.8335,102.0241,20.3290,62.0949,37.6772,26.2244,8.4816,-15.8770,-33.3591,64.5278,-96.1777,60.7957,-49.5222,-56.5467,-48.1172,126.9904,-4.9708,22.7750,-43.0418
-1921.8750,102.8418,37.0832,115.0425,-1.6298,75.3245,-23.0843,-34.5019,-50.1313,-39.5092,-56.7369,77.7296,-46.2537,74.0258,-73.4088,-43.1388,-71.8828,68.8702,-26.5012,-34.0514,-29.7445
-1914.0625,145.2753,57.8513,85.5153,-29.1379,10.0054,-52.4063,-63.7761,-64.2377,-31.6763,-85.6758,49.3793,-1.8723,8.6998,-28.8480,-35.2722,-64.1960,76.2003,-54.5907,-26.4251,-21.9961
-1906.2500,170.3022,66.7075,110.5920,-40.0420,-1.7130,-100.1391,-1.4488,-77.5770,-6.2406,-96.0188,37.6341,-13.8841,33.9748,-40.6862,-9.7976,-38.9075,101.1195,-64.0822,-37.2000,3.3566
-1898.4375,151.2853,86.2705,90.6122,47.0129,-59.4836,-83.9205,-95.1767,-48.1869,-26.8749,-43.4193,53.8335,39.0699,50.2060,-24.5725,-67.3762,51.3376,81.9865,-47.6249,-56.0364,19.6681
-1890.6250,125.4309,102.5240,62.7829,91.2222,-13.0998,-74.5592,-12.7576,-25.8236,-126.3610,-105.6899,26.1841,11.1812,22.5922,-15.3080,-93.8131,23.7264,161.0114,-73.0166,24.2786,29.1336
-1882.8125,187.8813,64.2879,92.2568,-22.2689,-19.4206,-81.8988,17.9573,-60.6406,13.4688,-185.6742,56.8350,-69.4009,53.2863,-21.7398,-26.9558,-56.5883,117.3362,-81.1087,50.8940,-14.1022
-1875.0000,182.7808,37.5753,89.1934,-98.3092,14.7088,-84.7954,51.1190,-79.7050,157.7346,-152.2173,52.9417,-72.5328,13.4320,-24.7201,-29.6454,-133.4514,77.1310,-49.7576,45.9646,-53.8917
-1867.1875,68.5921,11.0281,43.0398,-71.4438,41.7584,-57.7984,78.1858,-37.3937,110.8753,-88.8727,6.9511,-45.7594,3.4842,2.1982,-76.4275,-69.4202,68.8359,-22.5126,37.9338,-26.7805
-1859.3750,-14.1979,2.5312,29.2865,22.8294,28.2106,-34.3980,-8.3598,41.0791,24.4235,8.8613,-43.6425,-22.5750,26.9372,-11.4750,-89.8081,65.0109,21.9419,71.1281,61.2924,-3.2669
-1851.5625,-23.4937,-15.7635,20.0324,-21.3906,92.1564,-43.4992,92.5886,54.4430,15.4898,-36.9205,-52.7324,-105.8884,17.8975,-94.6522,12.3076,55.9371,117.5591,62.2631,122.1538,-12.2560
-1843.7500,-34.7986,-50.7410,8.7933,-103.6035,118.1187,-127.6056,155.5390,6.5450,151.5548,-84.7144,-26.8264,-117.1954,43.8692,-141.8331,74.4236,44.8505,71.1919,16.3884,111.0182,-23.2477
-1835.9375,-23.7609,-32.3044,-17.0955,-57.4584,92.4368,-116.3589,56.8422,2.4056,125.9423,-36.1698,-52.5777,-69.1334,-18.8087,-94.6632,49.8867,19.1212,12.1805,27.8661,87.2218,-11.8837
-1828.1250,-63.1178,-50.5629,-23.3866,-96.7075,87.3465,-121.5194,87.7339,17.2351,9.9231,-42.0354,-21.7348,-75.4584,-24.8846,-63.8910,43.9519,12.9966,42.7652,23.9470,118.0194,19.0834
-1820.3125,-153.6608,-125.1083,30.1216,-151.1571,67.0527,-69.8859,67.4153,40.4123,99.7100,-25.1138,-5.0924,-131.9845,28.8431,-84.3267,60.8202,-7.3218,-12.8490,73.8210,132.6270,-1.1490
-1812.5000,-101.7939,-101.2025,12.0401,-135.2150,49.1702,-87.8633,85.5088,29.2429,192.8829,-5.8139,-23.0438,-150.1084,10.9813,-102.3711,43.0866,11.7533,73.9486,-13.9203,114.6440,-18.9779
-1804.6875,66.3318,-25.9892,39.2177,-108.0251,76.5400,-96.6026,39.8514,15.4543,36.3051,21.7244,4.2562,-122.9776,1.3829,-147.1714,33.6074,76.0703,65.9926,-22.4205,36.9084,8.4490
-1796.8750,-0.8923,-16.6008,6.0449,-34.1781,6.5484,-56.7020,-30.1591,29.7828,-33.6099,25.9028,8.1979,-46.1862,5.4460,-107.3216,37.7767,80.0391,34.6924,17.7215,40.8217,12.5299
-1789.0625,-93.1638,-47.6145,20.8170,-56.3672,21.5059,-41.8620,58.7802,5.7172,91.4520,4.0127,23.0882,-31.4424,20.4696,-93.5145,52.9052,-16.0451,47.3548,-40.2059,53.6830,-9.4403
-1781.2500,-71.0885,-48.0236,7.9432,1.7943,8.8140,-17.6775,9.0670,-24.2507,226.8808,-45.5409,10.3284,-44.3371,44.8476,-32.3601,3.3784,-28.7695,-35.6297,-52.8022,5.8897,-22.0602
-1773.4375,-65.8230,-21.0609,11.2741,7.1606,12.3304,22.7020,-61.4488,6.3697,-64.5159,-41.9041,13.7688,-4.0235,11.4304,7.9957,7.0466,48.7044,39.5895,-12.2021,-24.7005,18.5241
-1765.6250,1.7009,-18.4031,6.8627,3.7810,45.1004,55.3254,-64.7181,18.2547,-250.6973,-45.0199,46.4627,-45.4444,44.2789,40.6023,39.9586,44.4218,-33.9452,20.6433,-27.0426,51.3619
-1757.8125,12.9799,-10.2988,-16.7941,16.1562,-15.3754,68.6975,-88.2480,6.7354,-127.1202,4.5965,-14.0933,4.8893,57.8822,53.9644,16.6150,20.8872,-92.7296,-2.7624,-50.6358,27.9498
-1750.0000,-64.5421,-19.3179,-24.2566,8.7336,51.3423,-12.7384,14.4244,-13.2644,-25.3022,-2.6076,-21.4556,34.4291,13.6916,-27.4703,9.4708,50.5442,-65.2975,-44.9827,-58.0255,20.7353
-1742.1875,-86.3647,-39.4208,24.9796,-14.9901,26.7617,-37.4780,-47.2009,-25.3628,61.2256,9.8720,27.8687,46.6755,63.2275,-15.1973,-14.9738,62.8930,-88.1631,-32.5141,-80.7077,33.2147
-1734.3750,-20.7318,-1.3161,21.6631,52.7372,-13.3571,33.2236,-50.3633,16.7692,-52.8230,43.7839,24.6355,6.3812,23.2426,18.5284,-54.9702,59.6939,-21.5704,-35.6004,-48.9375,30.1365
-1726.5625,79.5711,25.9062,16.0046,12.1188,18.1770,27.5617,18.1244,-4.8328,-58.2447,1.3310,19.0635,0.7493,-19.0713,-24.0941,13.6726,54.1381,-27.3236,-110.0463,-54.5229,24.7035
-1718.7500,85.3862,61.2325,-15.1384,18.0046,-12.7938,-40.6101,-49.9034,-82.5271,21.8255,-65.6409,-49.0015,116.6296,-49.8642,18.7930,19.8082,23.0792,-21.5727,-210.0130,-117.6176,30.7694
-1710.9375,-1.4017,81.4911,-67.8742,72.2941,8.6257,-56.4003,-28.5400,-103.0144,-67.6979,-117.2286,-100.6678,174.9180,-65.2131,150.0856,-32.6526,-102.5836,68.5893,-190.6013,-64.3038,15.2371
-1703.1250,-48.9502,63.9731,-78.3605,94.8377,35.2855,-29.9470,-38.9235,-75.2636,-40.9574,-92.5859,-75.0932,201.4606,-38.2787,176.6298,-42.8558,-76.9964,-13.9945,-97.9501,-40.7387,-32.0431
-1695.3125,-47.7060,57.0420,-76.0520,96.1846,0.7424,9.3028,0.4912,-53.0162,-1.4154,-90.1518,-109.7284,166.8147,-35.5502,67.9712,-3.2599,-37.6057,-13.7710,-61.5029,-40.3659,-66.5221
-1687.5000,-96.4599,21.5451,-51.7502,83.5290,24.2025,-3.4565,60.9102,-38.0586,-13.8658,-65.7282,-48.3672,80.1746,-47.8253,18.3078,20.3373,-50.2212,43.4581,-39.0613,-17.9908,-79.0054
-1679.6875,-146.2567,5.0737,6.5041,103.8263,46.6133,54.7267,9.2812,19.1306,-139.3726,29.6287,-26.0506,65.4881,-25.1526,40.5952,-30.1245,-27.8874,64.6484,-18.6741,2.3308,-93.5414
-1671.8750,-8.8954,50.5522,2.9163,100.2741,80.1687,88.0659,42.7977,42.6653,-251.7573,26.1205,-29.5767,24.9604,-28.3307,74.0351,-70.4397,-68.4065,96.0014,-57.1398,69.8041,-96.9288
-1664.0625,104.2761,51.4716,-25.8691,36.5248,87.5167,95.1975,87.1047,11.9664,-135.3448,-2.6006,-22.3010,-4.7519,15.2890,44.2722,-62.9523,-98.1303,-2.8453,-49.8138,41.0738,-89.5191
-1656.2500,-1.7469,6.6445,-25.8529,36.5772,50.6641,95.1206,13.2127,12.9261,11.8677,-2.5394,-22.2243,-4.6539,15.7094,44.3135,-99.6633,-98.0600,-2.8778,-49.7045,41.1393,-89.3095
-1648.4375,-79.2644,-16.5640,2.6725,29.1354,43.3110,124.5392,42.8141,18.3261,4.5765,-9.9958,6.3533,-12.0492,8.6423,36.8669,-69.8803,-105.4992,60.5931,-57.1082,33.7007,-96.5997
-1640.6250,-64.1891,-15.5357,-17.1945,45.3013,-13.4481,177.5596,-13.9965,51.2769,-15.1353,6.1328,-49.4660,5.1646,-10.8098,54.0268,-52.5011,-15.3416,4.6806,-6.9225,13.8603,-116.2915
-1632.8125,-80.7651,20.6360,-34.7054,63.8162,-30.8570,159.9225,-31.4547,58.7363,-180.5071,-11.4049,-67.9373,60.7363,-64.9061,-1.4695,-107.7730,40.1654,94.1335,11.6046,-2.6295,-97.6361
-1625.0000,-29.5829,32.0536,-18.4618,80.0823,-14.5210,102.0266,-52.1737,22.0931,-200.1176,40.7935,-51.6584,77.0682,-48.2442,51.7881,-128.3054,19.4202,4.3427,-42.1247,-56.3739,-81.2351
-1617.1875,23.4043,47.5094,-37.4129,133.1580,-70.3816,119.9227,-108.0947,15.6584,-71.9312,58.7752,-33.5783,58.2073,-66.7732,106.8430,-110.0395,-35.5301,-12.6296,-59.0707,-38.3182,-63.0374
-1609.3750,45.1427,37.1589,-52.6051,48.9894,-85.4892,104.5608,-49.2640,18.4603,-13.0020,7.4940,-48.7474,43.1038,-81.5432,91.6490,-51.0216,-50.7318,9.1518,-37.2796,18.4805,-41.0894
-1601.5625,47.0398,19.4843,-50.6419,15.9731,-120.4511,69.3415,-84.2888,-18.6893,-47.9331,9.3467,-9.7651,82.1618,-42.1574,93.6105,-48.8591,-48.7882,-129.9016,-0.3511,-49.5736,-38.9904
-1593.7500,5.8445,28.0573,-58.7782,44.8585,-91.5103,25.0140,-55.4160,-31.5816,-92.9793,38.0788,-17.8825,111.1267,-12.8628,49.4807,-56.7988,-19.9577,-101.0371,-6.5358,-91.7275,-9.9914
-1585.9375,-53.6007,-6.2209,-12.1598,56.4994,-44.8322,-2.5673,-8.8028,-21.7396,27.7258,10.5449,28.7471,47.8528,34.1910,22.1061,-82.9864,26.6219,-89.4227,4.0200,-80.1308,36.7541
-1578.1250,12.6977,18.1817,21.2067,87.8931,-84.4077,-6.4052,-85.4440,-18.5735,-12.8134,6.7538,62.1209,44.3374,67.9975,55.4799,-122.4324,59.9554,-93.0499,0.3139,-83.7824,33.2475
-1570.3125,103.7971,47.2581,41.3715,73.0860,-100.1867,13.5467,-101.2780,-8.2685,-138.5463,26.7519,8.2929,27.6307,14.6108,38.6526,-30.0865,43.0893,-72.8796,-83.6003,-63.6284,53.5389
-1562.5000,151.4474,27.6610,-19.9116,14.8358,-161.4152,-10.9536,-125.5660,-27.3963,-16.7463,39.2897,-15.9866,40.4827,27.7810,51.3783,19.8055,55.7697,-200.1504,-70.9725,-84.9260,66.3785
-1554.6875,29.0026,14.1064,-72.2919,34.4893,-140.7463,9.4447,-104.9533,-32.8159,114.9380,22.7141,-32.3671,98.2443,-25.1450,72.0116,3.5982,2.3438,-146.5042,-53.4594,-67.3277,50.1172
-1546.8750,-134.6805,-31.3620,-59.9158,45.8925,-55.3342,22.5874,-19.6054,-14.5196,91.3720,35.8751,-18.9909,74.7613,-11.3095,85.3984,17.1337,-58.3309,-65.1024,-42.2110,-20.9875,26.6048
-1539.0625,-131.5077,-21.4450,-18.6852,83.1475,-51.0768,63.5729,-52.4123,-11.1355,21.6499,39.8712,-14.7678,78.1358,30.3855,125.6331,-15.4856,-54.1561,-62.8356,-4.1325,-53.7993,-6.0566
-1531.2500,16.0573,34.5134,-48.0528,90.8057,-43.4225,70.9488,-44.8186,-14.0629,-44.6688,10.2580,-7.1502,49.9270,1.4875,60.2749,-7.7005,-46.5880,-19.1672,-32.6651,-46.2151,1.6845
-1523.4375,1.3076,-9.7376,-25.7253,6.1716,-21.0780,19.0240,-59.5347,-7.9321,51.7244,32.3328,15.1632,-1.5681,61.2936,-28.3751,-22.2140,-24.3215,-33.8000,23.4961,-24.9339,-12.8747
-1515.6250,-124.7920,-65.1622,28.2471,-13.8089,-4.0858,-1.2557,-5.5951,17.6117,104.7525,12.0379,-4.8781,-58.4077,41.7575,-11.3750,-42.0760,-7.4030,16.2308,38.2934,25.0018,-32.7806
-1507.8125,-23.8325,11.1505,23.2742,-18.7373,63.9525,-43.4915,62.3908,-40.0982,26.8139,-67.2162,-9.8678,10.8069,0.2774,-16.3186,-46.8922,-49.4301,81.3124,33.1329,-15.0095,-37.6346
-1500.0000,141.8246,81.3164,13.0025,6.0363,53.6835,-54.0294,-57.9341,-65.6742,-94.4367,-40.7792,16.8404,73.7335,-9.4963,10.4442,-94.0197,-59.7601,1.1133,57.6646,-60.3214,-47.7904
-1492.1875,143.6781,84.6974,-22.0614,43.0111,55.6180,-15.3742,-56.0627,-29.2891,-165.4882,-2.1592,-18.2503,38.8711,-44.0647,48.4126,-54.9513,-57.8978,38.1214,59.3841,-23.4380,-45.7485
-1484.3750,73.7255,46.8407,16.0764,44.1923,56.7421,-51.5237,54.9991,-43.6498,-17.3314,-38.3580,-17.1424,4.2215,-5.4184,86.5805,-16.6852,-56.8333,4.3347,95.2933,-22.3613,-44.5073
-1476.5625,-40.6325,12.0373,42.8164,34.9768,47.4607,-24.0774,45.6561,-54.2780,83.4077,-84.9629,10.5727,31.1735,22.8391,40.3527,11.1758,-66.1697,30.1611,50.7968,-31.6827,-53.6659
-1468.7500,56.8610,44.4825,70.4124,-7.3892,75.0355,-70.7849,73.1666,-76.1206,-36.0205,-94.7197,74.1412,22.9775,13.9577,-42.0248,1.8818,-75.6568,57.8431,-26.8555,-39.1522,-25.9777
-1460.9375,140.8037,59.6972,119.4625,6.6925,-22.9394,-95.0519,-61.8713,-64.2395,-169.9828,-46.0378,87.1533,35.2352,63.5313,-29.9575,-22.9573,47.3075,-34.0138,-49.0726,-96.1677,23.1591
-1453.1250,66.3488,32.6979,77.1122,1.3681,-65.3181,-100.7284,-103.3041,-37.8832,-139.3336,-15.7748,43.7665,29.0965,57.7097,0.7120,7.8045,77.8615,32.7476,-53.7044,-65.5791,53.8984
-1445.3125,28.2938,15.6530,75.1598,35.4466,-67.3100,-67.0047,-33.3565,-57.5838,4.7177,-54.1243,41.7753,-9.6290,56.2907,35.7933,42.9578,1.8153,30.9101,-55.9415,-67.5920,52.0346
-1437.5000,64.2766,47.3186,75.2584,70.5737,-103.2539,-67.2350,-142.3555,-90.0805,-32.1949,-54.4289,115.8289,64.7042,56.9235,72.9280,-30.8440,1.8145,-4.8621,-56.1418,-137.5531,52.2171
-1429.6875,169.5504,100.0460,112.6613,36.0028,-66.8963,-103.1735,-142.0476,-91.7078,-177.8253,-18.4424,116.1888,65.3454,57.8651,-37.6381,-66.3432,2.1129,101.6621,-90.0479,-137.2125,52.6998
-1421.8750,103.6651,45.7733,117.9186,-30.7161,-61.6909,-134.2661,-99.8941,-57.3676,-25.6113,-12.6145,85.3932,34.8407,64.6653,-31.3551,-23.9936,8.2607,71.0438,-87.1096,-28.0162,22.0327
-1414.0625,46.5765,21.1561,59.9711,-16.6380,-9.6810,-120.5675,-11.9345,-32.6479,26.4155,2.0043,26.3951,-23.8570,43.2688,-16.2740,-8.8459,-13.7929,119.2354,-74.3887,20.9848,0.1650
-1406.2500,116.5341,40.9048,60.0688,-52.5056,27.3792,-120.8277,62.0735,-37.6574,26.4970,-35.3320,26.4443,-23.4943,6.9250,-16.1372,-8.6541,-50.7903,84.4720,-74.6242,56.0331,0.3467
-1398.4375,111.2321,24.6321,54.9137,-21.6244,-51.8079,-90.3405,-54.1638,-50.4279,131.3123,-40.9249,58.2391,-28.3770,39.3319,-21.2507,-50.7119,-56.0369,9.4739,-45.1174,15.8348,-4.7202
-1390.6250,68.2692,8.3653,82.1124,-30.3918,-61.6473,-26.5069,-27.0514,-68.8441,11.4762,-87.1827,121.3863,-37.8985,67.0956,-31.0076,-23.4125,-65.9414,36.8289,-53.2764,-63.0148,22.5637
-1382.8125,25.5955,8.5161,110.6191,-1.8465,-105.1923,38.6236,-71.6501,-39.5702,-34.0643,-59.1544,113.8362,27.8952,96.1624,71.5459,-31.8170,-37.5492,-5.5018,-25.1505,-69.5686,51.1487
-1375.0000,76.4651,26.8359,53.6765,14.2547,-89.1843,55.2982,-55.7012,22.7741,-17.0702,67.4150,19.8319,8.2468,39.7863,51.6489,-51.6745,16.3946,10.7360,-10.4813,-19.5645,31.2858
-1367.1875,78.1251,16.4481,18.5244,-19.8483,-51.3718,19.7644,20.0508,34.2400,-15.2779,68.7851,21.6208,-26.5924,42.2141,-57.4550,24.2705,55.1416,47.7671,-79.0135,18.2450,33.2225
-1359.3750,-31.5768,-13.0405,-21.9856,12.6961,-126.9109,52.8781,-20.5423,36.0978,18.1682,27.8002,-18.9451,7.2213,-34.7184,13.0859,57.8661,51.5397,9.4507,-47.9027,14.7043,29.8108
-1351.5625,-118.7850,-27.2079,-76.9972,64.7402,-181.9569,71.4918,-38.6436,42.0682,74.1129,46.3129,-37.0135,26.5401,-88.1515,142.1354,39.9606,-40.5626,26.6316,-31.3002,66.6622,11.9030
-1343.7500,-90.1479,-39.0115,-43.1620,24.6396,-113.1649,66.9578,-4.9043,28.3135,106.9201,78.6682,-3.2357,23.7199,-17.7337,139.0455,-0.0971,-43.8164,-48.3346,-0.8534,26.4710,-28.1561
-1335.9375,-129.0743,-51.7845,-46.8775,-14.0034,-116.9242,62.8750,28.2981,44.5320,140.1695,74.4615,-44.0054,20.3516,16.1372,25.4072,-3.7041,26.3774,18.1618,-4.9634,22.7371,-31.7675
-1328.1250,-164.9720,-72.4446,-48.5401,-50.6000,-81.6311,60.8434,62.5554,76.2798,101.4533,72.3009,-82.7227,-54.9612,-21.9399,-13.1762,67.7356,60.6263,157.7019,62.9737,56.0568,-33.3275
-1320.3125,-119.8469,-81.8077,-35.1559,-39.1486,-68.2915,147.8610,-34.1460,112.8106,77.7813,122.2000,-106.3974,-115.2171,-44.9755,73.2891,44.2278,36.9324,134.2984,109.9562,67.4356,-56.8342
-1312.5000,-4.3739,19.8621,-62.4294,5.6464,-58.6020,120.2195,-24.4908,48.6303,-59.5197,94.4586,-96.7300,5.8792,-71.6710,46.0986,18.0759,-26.4127,179.2468,13.2800,7.1727,-46.9918
-1304.6875,50.2976,79.8815,-7.5095,25.6396,-40.7190,-9.2219,-43.6319,-47.8552,-41.6028,-35.0801,-78.8655,134.1749,-53.1720,28.1034,-0.8805,-45.5575,93.3976,-73.2000,-43.8881,8.0470
-1296.8750,-132.3494,39.5868,-88.8865,54.3330,-49.1327,-17.9688,-15.0632,-32.4003,97.9991,-43.9250,-159.3017,200.1717,-59.9774,56.8091,27.8608,-16.9998,87.2567,-44.9850,-15.2409,36.7882
-1289.0625,-247.9647,-2.5697,-101.2143,44.0768,48.5073,5.3332,119.5577,-11.1985,47.6637,-92.7254,-135.6922,187.2235,-34.7417,80.5695,88.6579,6.6029,78.1589,-53.7207,10.4609,97.5822
-1281.2500,-260.6428,-11.0683,-80.6022,66.7728,33.0916,26.5825,30.1255,3.4557,-40.7108,-72.5749,-78.1424,209.2325,-13.5673,138.2869,72.4055,28.1572,-3.9789,-32.5088,-0.8808,155.3237
-1273.4375,-277.4184,-13.5157,-99.0911,85.3648,-21.4169,44.7307,-24.3931,64.0257,-169.1999,-17.5334,-96.6933,191.1416,-31.5001,119.8964,19.0510,82.6106,14.7939,21.5984,51.6852,173.9639
-1265.6250,-331.1008,-71.6179,-80.4755,67.0548,-2.8314,-10.0239,66.1847,70.7896,-77.5862,-36.3983,-41.1390,99.1567,24.6649,64.6001,109.8005,101.1731,-39.3321,36.7998,103.3501,155.7051
-1257.8125,-362.9013,-109.6804,-74.9596,35.6463,-34.3443,-5.8814,108.6665,42.2295,184.9342,-31.3653,-35.6874,68.0733,29.7184,70.2015,189.4537,69.6368,-34.5460,4.8957,71.9212,124.3511
-1250.0000,-368.4124,-114.1538,-80.1429,-4.4640,32.4487,-47.4412,140.4529,30.1611,215.7579,34.9662,-77.9380,63.2876,25.0639,-7.8993,184.4073,27.4022,-5.4552,-34.7131,66.7990,119.3024
-1242.1875,-255.0391,-86.6011,-106.4267,-30.6735,43.1427,-74.1040,77.1428,17.1056,79.4762,45.1994,-104.2842,74.4062,-0.7011,-34.0998,121.2604,38.0725,-101.4612,-27.4312,40.5825,93.1578
-1234.3750,-142.9789,-29.6394,-135.0124,-24.1871,14.5329,-67.0669,48.5389,3.0898,13.8998,-20.8703,-95.9311,120.2276,-28.7827,-26.6051,92.8233,46.4426,-93.7690,-56.4554,48.0671,64.7200
-1226.5625,-124.7403,-31.3092,-114.4046,-5.4983,-1.8892,-47.8308,106.1289,-14.8821,71.5427,-73.7319,-40.3834,67.2581,-44.6753,31.0952,149.5875,30.0234,-40.8907,-73.2789,31.7445,48.4884
-1218.7500,-174.6715,-41.6700,-56.9515,16.0445,-16.4677,11.2604,54.5648,9.3406,94.0339,-88.7449,-17.9891,53.1417,14.2642,53.6485,62.2049,15.4593,15.8476,-18.2535,52.2776,34.1107
-1210.9375,-224.5573,-68.9318,-34.4444,1.6347,43.0065,-3.6000,113.0593,58.7437,115.5667,-30.7115,-32.5393,-34.9288,-36.7608,2.2479,47.8804,0.9512,106.6389,2.8185,142.8710,19.7844
-1203.1250,-192.0404,-98.1823,-73.5412,-36.3779,40.8832,-6.0580,110.9583,87.9670,150.4952,40.7263,-71.6920,-73.5960,-1.4054,-36.7531,82.9522,72.8493,-0.1746,35.2908,140.8670,17.8593
-1195.3125,-119.1013,-68.3188,-71.1965,-68.9400,6.2118,-41.0601,113.3075,74.5789,42.8687,5.6220,-69.3938,-70.8108,1.3822,-71.3092,48.4738,75.2032,37.4675,37.2133,143.3190,20.3890
-1187.5000,-132.2421,-81.2640,-83.9010,-116.5540,30.4900,-54.1164,174.6043,72.2257,30.2081,29.4735,-45.1472,-83.0721,26.1021,-119.9231,35.9505,25.5104,60.0551,24.0914,166.7319,7.8709
-1179.6875,-131.1962,-62.2376,-79.4028,-78.9682,34.9739,-49.9745,105.1088,56.9856,144.7461,69.5255,-77.6998,-41.1321,-43.0027,-79.3430,3.6305,-6.9807,62.8620,61.1661,134.3536,-24.4467
-1171.8750,-110.5107,-31.0085,-91.2529,-21.7296,59.1164,10.8227,130.2735,65.7765,169.9240,57.2273,-89.6028,-52.5421,-128.4770,-17.1086,-8.0373,-55.8169,155.3184,46.8905,155.6260,-73.1106
-1164.0625,-23.3895,-21.7888,-35.6592,-40.0310,77.7056,66.0751,111.8792,52.2844,77.5650,38.3909,-71.0600,-70.4986,-72.5263,0.5797,-26.2606,-74.1982,67.2203,64.0723,102.3489,-91.3210
-1156.2500,3.4708,-15.9448,-45.3179,-12.5874,-4.9470,93.0828,28.2412,59.0196,30.9459,65.3085,-80.7637,-42.7061,-81.8521,-7.9826,-35.7278,26.1716,-11.1217,55.0005,23.8295,-63.7780
-1148.4375,-98.3246,-48.7217,-79.6238,-7.8012,-2.2476,22.4396,67.9571,76.1396,34.6834,104.5782,-41.1126,-39.5712,-78.8508,-42.2060,4.1623,65.8978,-6.1212,59.2769,63.6654,-23.8800
-1140.6250,-125.2961,-58.0074,2.9173,0.8335,6.2944,-6.3445,40.5248,66.5638,-30.7128,75.7060,4.3839,-30.5883,3.9664,-33.5887,12.9039,111.4865,-32.2727,67.4112,37.3586,-15.1251
-1132.8125,-120.0998,-58.8697,8.6565,-28.3322,12.0454,36.0778,9.3029,77.4432,-134.9191,81.0433,10.0846,-61.4067,9.9565,-27.7761,18.8517,80.2887,78.7709,37.7545,43.2596,-9.1624
-1125.0000,-70.6836,-56.5144,25.6455,-84.2466,29.0571,15.7583,-10.6646,32.6425,29.1090,60.6458,27.0373,-43.9711,-9.8341,-47.7128,-0.9464,60.3560,59.0574,17.3551,-11.5871,-28.9400
-1117.1875,-5.3890,-10.4423,-16.4690,-18.2627,-13.0237,10.3402,-52.7272,14.1496,60.0375,92.1567,-15.1072,-11.6313,-51.7602,-52.7526,-5.8359,55.3277,54.2484,11.8567,-51.5274,-33.8073
-1109.3750,102.8860,25.8823,24.4117,-49.2747,27.8974,-23.0702,-11.7868,9.1114,-120.0043,58.6746,25.7494,-44.2933,-47.7136,-48.7973,-1.7188,23.3099,93.4274,15.3652,-12.4667,-29.6660
-1101.5625,74.3893,5.5230,67.5424,-7.0351,-1.9284,20.7746,-78.5920,35.0859,-148.7811,65.4549,32.8587,-73.7023,33.5433,-4.5922,5.6521,-6.4461,30.8562,57.1247,29.8497,-22.2651
-1093.7500,-44.2358,-22.0134,18.5777,-19.8971,58.1571,43.5216,-17.4850,78.0927,-88.6622,89.1405,19.8748,-49.2161,-16.3329,-17.4912,-7.0688,17.7063,88.1817,78.7860,87.0759,-34.9539
-1085.9375,31.2143,25.3985,-10.2909,-13.6574,66.3378,-21.6258,63.7220,-3.8688,-43.4441,-13.0689,26.9894,-3.6316,-8.1446,-46.2913,1.3176,-11.0294,95.5955,14.5562,23.4071,-63.5332
-1078.1250,126.4503,87.1856,52.6364,11.3835,-16.6789,-68.9716,-56.2639,-79.0191,-127.4235,-134.4732,53.9024,59.7466,18.7980,-19.3009,-45.4853,-20.9614,120.8192,4.1277,-56.4536,-73.3073
-1070.3125,145.9249,82.5622,72.8200,-3.3258,3.5597,-86.0668,-35.9981,-79.5103,-144.1325,-151.6235,74.0702,7.3746,38.9421,-73.0715,-62.0331,-37.6408,141.2936,-11.0542,-36.0615,-52.8273
-1062.5000,54.8415,5.8420,88.4476,-57.5817,19.2454,-107.7038,-57.2888,-55.7921,-91.3874,-62.3084,89.6848,-13.5447,127.4854,-57.3925,-9.1379,-21.8601,16.2145,39.2178,-20.2209,-36.8900
-1054.6875,-8.9368,-24.0181,58.3677,-50.5324,62.2262,-101.0306,-13.2725,-4.9106,-84.3675,54.3203,23.6020,-43.1714,24.2780,-50.4200,35.0522,-14.7713,-11.5629,80.7960,21.9311,-29.6473
-1046.8750,62.0415,-6.4296,-12.9600,-48.7374,63.9543,-62.6025,61.4908,-0.5985,-82.5856,92.7108,-11.7220,-41.0536,-48.2261,-11.7137,109.9968,-49.9222,-80.6019,82.1321,23.8381,-27.6547
-1039.0625,112.5108,19.8124,-70.7825,2.5527,-29.8173,-9.6744,-32.2344,11.6946,-29.2892,108.6085,-32.5461,12.5572,-69.2838,41.4827,53.4449,40.4286,-134.1352,62.9681,-29.7473,-11.1633
-1031.2500,-13.6672,-15.1506,-56.2570,17.1923,-52.2306,4.6049,-17.6058,58.7851,-88.6475,122.8604,-18.0235,-9.4848,-55.0463,-17.9766,31.2428,91.1277,-49.3199,7.1586,20.0140,3.6776
-1023.4375,-47.1291,-61.0779,-16.0274,-50.4627,-48.9448,-29.4046,22.7134,59.1009,-11.3273,125.8192,22.1982,-42.8355,58.8367,-88.7357,-2.2689,131.5279,-80.8041,-60.9441,23.4739,7.2166
-1015.6250,-0.9835,-77.7225,-5.1986,-109.5097,-1.0573,-55.8037,33.6372,46.8191,36.5854,99.3758,33.0258,-104.5886,69.2580,-113.9119,-28.1761,105.5318,-104.6857,-50.4410,34.5311,18.3562
-1007.8125,38.0176,-72.0679,34.4810,-139.7081,1.6755,-89.3564,110.4129,31.3601,2.3730,28.7863,72.7069,-137.4931,108.4674,-147.2536,11.7647,72.3950,-98.7278,-81.0838,74.4368,58.3482
-1000.0000,101.6253,-78.3887,65.7586,-180.3029,-3.9950,-95.3108,104.7839,-15.0957,143.7668,-14.1864,103.9928,-142.7983,102.2141,-80.0024,80.2970,29.8609,-175.1686,-87.1250,33.9456,52.9399
-992.1875,105.3528,-56.3523,35.1444,-139.7996,2.4370,-90.1571,147.2557,-22.6276,187.2453,28.9519,73.3855,-136.0063,34.0017,-74.6564,86.9225,-37.5722,-134.5101,-83.0659,38.5515,22.6332
-984.3750,25.5926,-64.6637,26.0337,-114.7908,30.3709,-62.4916,101.2201,-2.5108,215.2121,56.6009,27.2807,-72.7221,24.2279,-83.8205,41.0483,-9.4930,-179.3638,-21.4994,29.6504,13.8316
-976.5625,-79.2768,-88.9608,-9.1766,-77.8797,32.2071,-60.9175,67.0887,32.9446,143.0714,94.1613,-7.9210,-70.5453,62.2832,-118.0984,43.0784,66.4949,-141.3110,14.9754,31.6499,15.9354
-968.7500,-79.8508,-77.8898,-9.0822,-112.6655,105.3498,-98.0342,140.2542,32.4413,70.2426,58.0335,29.1847,-70.0798,61.5700,-191.0820,43.4129,66.7882,-71.9697,14.7627,66.9463,16.3452
-960.9375,31.7732,-65.0677,36.2114,-141.2425,76.6853,-89.9356,74.6143,8.8268,77.6273,29.1121,37.4963,-98.4198,68.9845,-146.8735,14.9421,38.2929,-135.4306,55.7646,38.4451,-12.0373
-953.1250,62.6516,-52.4455,32.7566,-109.5657,73.2816,-56.5769,35.2365,-4.8328,38.2505,25.4533,34.0620,-137.5211,27.5808,-77.4249,11.7179,-1.9466,-68.6418,52.0260,0.2014,-15.1635
-945.3125,55.8274,-30.6319,24.6075,-80.5849,102.1846,-64.9040,64.1550,-24.3278,30.1581,-19.8888,25.9359,-72.3302,55.4108,-48.6863,40.7901,-9.8684,-109.5644,45.6009,-5.7425,14.0164
-937.5000,-54.5492,-33.2557,-16.0864,-13.1504,62.5396,-31.7711,60.5191,-15.4486,-10.4886,-23.7647,-14.7286,-1.6977,50.6140,21.4876,37.3119,-13.3348,-113.0269,76.6314,-9.2409,10.6521
-929.6875,-62.5270,-36.2778,-60.3701,-20.3074,128.2939,-39.2308,126.2757,-11.0416,-54.7199,5.7690,15.0195,-8.6731,79.1470,-59.9485,67.2378,16.6053,-85.0971,-0.9315,-16.3509,3.6904
-921.8750,-21.9510,-52.0808,-18.0934,-50.9055,170.5973,-71.1249,58.5746,-33.1811,24.5871,10.8663,20.3227,-40.1063,119.1542,-91.8371,72.7059,22.1099,-148.6137,-30.9371,-46.9188,9.2855
-914.0625,12.1321,-30.7822,-20.3107,-50.9950,131.4069,0.4921,19.3726,-9.6658,96.3777,8.4767,-55.8619,-42.0445,42.5789,-57.2329,70.6732,-16.8719,-79.6237,-32.4358,-11.9953,44.3904
-906.2500,-52.7778,-67.5235,-86.5227,-44.0766,102.2179,44.1236,63.1572,24.5942,213.1779,15.1033,-85.0390,-70.9889,10.9223,-13.6373,77.6423,-9.8448,-106.6357,10.0790,30.9256,51.5004
-898.4375,-165.9827,-104.3153,-94.0278,-16.4561,21.7316,73.4711,19.6450,53.8156,206.6772,45.4398,-55.5147,-41.2461,2.8759,53.6436,34.3181,57.8889,-115.9410,1.3052,22.5486,8.3169
-890.6250,-76.6036,-51.5157,-70.9296,-30.2254,44.8518,59.4313,42.7357,32.6777,45.7716,-5.6173,-32.3847,-17.9084,24.3458,2.5210,20.5888,7.2410,-59.6540,-47.8531,43.7699,-5.2562
-882.8125,32.2540,-27.8999,-67.3307,-26.4761,11.4717,62.9093,-27.6854,2.2780,12.3580,-2.1590,45.2522,-14.0712,63.2313,5.8959,24.3475,11.1048,-125.8702,-44.4913,-22.5064,-1.3216
-875.0000,12.8154,-18.8443,-51.0281,24.9832,-9.2023,79.1038,-85.3966,4.6046,65.6504,51.0096,-12.4015,2.4522,40.7250,58.9589,40.8043,-9.3290,-109.3839,-28.4181,-42.0824,15.3152
-867.1875,-69.1125,-54.0762,-26.2154,14.9440,52.6281,67.8098,-60.6039,15.3168,53.4507,75.6947,12.4568,-9.5358,63.6237,46.5085,65.7650,15.7502,-118.4072,-3.8310,-52.1634,40.4569
-859.3750,-108.2503,-89.6693,-29.5995,-24.2885,49.2596,64.3323,-64.0069,39.7611,123.0438,72.1973,9.1125,-49.7347,58.2262,5.8490,25.5262,49.6468,-121.6318,27.5748,-20.4414,37.4118
-851.5625,-56.4416,-58.7087,-47.0321,-41.5694,68.8520,46.8159,29.5420,34.8880,-4.4108,17.6654,-8.2706,-66.9927,38.6905,-48.8755,45.2394,-4.4949,-69.9168,44.9401,33.2349,20.3279
-843.7500,-2.3759,-25.8993,-26.2102,-21.5926,88.6994,30.5632,50.3373,4.7262,-94.5995,1.4052,12.6023,-46.0153,57.3132,-28.3624,29.2029,-20.3765,-85.9672,98.5671,-17.8404,4.4999
-835.9375,-48.8071,-9.2417,0.1156,37.8916,115.0548,55.8238,-34.3605,-6.5283,-31.2968,-9.3414,1.9807,-19.5493,44.3301,-2.3626,-18.3344,-67.7484,9.4848,87.7093,-28.4181,-5.8191
-828.1250,-51.4334,-19.1427,35.2463,1.1882,113.2114,53.9025,0.7296,-27.8514,3.8019,-48.2738,37.1693,-21.2904,76.0443,-4.5753,-20.0760,-106.3023,7.7255,50.6749,-30.2018,-7.3283
-820.3125,-68.0051,-31.2766,18.4237,21.5465,23.4144,74.0527,-53.1357,-6.8386,23.9570,-65.1389,20.4058,-0.9934,57.6957,15.2560,-36.7730,-11.7966,-77.9813,70.7163,-45.9354,13.2175
-812.5000,-48.7184,-18.3783,-35.5445,6.7628,-30.5216,58.0702,-33.1416,42.2384,43.9562,28.8668,-70.5021,19.1411,-35.9063,-2.0768,-16.6221,45.5682,-57.8397,55.6259,10.1801,33.6179
-804.6875,56.7157,8.6077,-35.3514,7.1437,6.6985,21.2581,3.9987,23.6988,44.0944,29.0384,-33.2515,-17.5842,-38.4605,-2.2669,-16.3247,-27.9049,-92.5542,55.7027,45.4436,34.1759
-796.8750,0.9465,5.5441,-18.3485,22.3308,-13.2733,38.2611,20.9447,29.0551,61.0235,9.0242,-16.1900,-0.5248,-61.3204,51.3260,-36.2291,-47.5637,-42.4651,105.5880,60.5029,14.5436
-789.0625,-4.9690,20.3200,13.5132,17.3698,18.6038,33.1245,52.7372,15.8422,55.8153,-33.1229,-21.2688,-5.6283,-106.4385,-28.2490,32.7211,-52.3556,58.4615,65.3345,55.4027,9.7697
-781.2500,9.1298,42.3084,28.3787,67.4246,-40.5176,48.0052,-43.4829,15.6684,-3.3934,-18.2466,-43.3466,46.2656,-94.6752,-13.8356,-26.3336,-0.1396,3.3859,80.0948,0.2953,25.0029
-773.4375,91.5476,53.1771,4.5528,10.7922,-64.3370,24.2038,-103.4002,19.8626,-100.3140,-5.0502,-30.1150,22.4496,-84.7201,-1.1371,-50.0969,13.3888,51.6086,58.1659,13.4771,38.5440
-765.6250,141.6391,30.7359,21.3859,-45.1767,-47.5084,4.0747,-13.6799,-15.4909,99.4190,-62.1912,-13.2200,-34.7302,-71.2244,15.2006,3.7814,-43.4124,-3.5236,2.9017,28.2981,18.7430
-757.8125,64.0845,19.0376,15.5806,20.2242,-53.3294,35.3163,-19.6123,-41.7784,204.4960,-104.9749,18.0407,-3.5793,-43.4949,45.8837,-1.9890,-11.8487,-9.2974,-38.0063,-48.5291,13.3022
-750.0000,73.9285,95.6313,61.1880,101.0313,-7.7528,6.9764,-48.1467,-67.5828,-81.0284,-95.3424,63.7145,115.9614,-38.4781,53.9594,6.6426,-2.8729,71.3197,-98.4997,-106.9647,59.2689
-742.1875,77.1785,95.9712,65.2000,105.2519,-40.7794,-25.9419,-153.2880,-76.2424,-113.1512,-91.2828,104.7893,155.8987,-1.1836,57.4230,-26.3365,1.5219,4.3311,-94.5828,-103.0136,63.6424
-734.3750,63.9990,53.6870,52.7733,58.0388,-53.2528,-1.2932,-165.8837,-63.5330,57.2683,-103.6590,55.4255,70.3735,19.5438,44.4194,-74.7776,-10.5230,27.8931,-72.0991,-81.5233,51.5755
-726.5625,136.9368,70.9666,56.4544,61.9388,-12.6269,2.4688,-89.3917,-76.8782,-13.2160,-135.9170,96.1732,36.9398,56.2568,47.5028,-35.1232,-43.4537,-4.4552,-68.4987,-77.9406,55.6180
-718.7500,179.8380,93.0180,64.0927,69.7977,-42.0490,47.1975,-154.9515,-51.5980,-151.7554,-128.2115,66.8740,44.4465,22.7920,91.5224,-27.5166,-35.4250,3.1468,10.0678,-70.4129,63.6192
-710.9375,99.4000,93.8410,55.3889,61.3203,23.1854,38.5936,-90.8591,-30.4266,-197.6455,-100.8458,58.2324,72.5904,-64.1436,82.1827,-36.2615,-79.7324,100.3924,1.3008,-9.2439,55.2796
-703.1250,-7.6235,34.2001,56.0927,60.2674,23.8176,39.4185,-54.3731,-4.3794,-14.1487,-101.0586,21.9980,36.1210,-30.8093,45.2409,-35.6166,-42.6263,29.0386,69.9534,25.3156,19.3487
-695.3125,-29.1828,25.9069,0.2571,39.6772,40.9005,-16.2865,0.5591,6.1536,76.7878,-82.8049,-33.7724,17.0872,-91.1453,-11.2617,-17.5253,-24.0617,78.1455,85.0635,74.3106,-36.1245
-687.5000,-16.5236,13.4501,-21.3637,-16.6962,56.1839,-37.7752,125.6721,2.7388,-18.0749,-67.3348,-18.3289,-4.7531,-117.4026,-33.5789,-2.2418,-8.2807,56.4448,98.3850,52.4797,-57.3901
-679.6875,-72.5040,-13.3917,-6.6249,-1.6927,70.8085,50.1092,29.1180,48.2076,-114.6072,-52.4995,-3.5305,9.7563,-70.4451,16.4458,-98.6254,6.8692,-33.8998,148.0706,66.9829,-42.2953
-671.8750,-73.0635,-10.6205,29.5225,-1.2705,144.8349,50.4155,28.9534,65.1305,-40.7645,-15.2465,-3.3206,-27.3437,-75.2132,-20.1388,-135.6157,-66.5672,36.1570,113.1690,137.8759,-41.7877
-664.0625,4.2000,-20.7231,76.4844,-63.0350,154.6570,-13.4619,75.5761,42.5604,225.8670,-42.1777,5.7027,-91.6549,-71.3056,-84.9305,-125.8111,-93.1958,9.0134,86.0892,180.5603,-68.4731
-656.2500,54.3347,10.0787,54.3087,-47.9345,132.3339,-34.4713,53.0491,41.7573,167.3540,-27.2375,-15.4128,-77.1373,-97.6792,-107.8855,-111.1641,-40.9686,58.7244,29.8715,160.0870,-53.3037
-648.4375,41.9473,18.4377,41.5984,-58.3658,119.4606,-47.0095,76.9594,54.5285,-103.7009,-2.8350,44.9316,-53.1801,-115.7279,-84.4046,-124.0798,-16.2790,82.8783,54.1187,149.0437,-28.6766
-640.6250,46.9858,38.4034,84.2971,-17.3735,50.9768,31.8787,-64.7493,31.7100,-207.3893,-34.0148,50.6875,26.1720,-78.5048,-42.5285,-118.6147,-10.1754,18.4415,95.7821,48.3815,-22.6405
-632.8125,21.4485,47.8992,22.4107,28.0405,-10.1082,44.1913,-53.0678,-10.2960,-160.7053,-58.7791,62.8604,36.9205,-73.0126,4.7368,-106.7633,2.3399,134.4083,34.8558,-46.8980,-47.1975
-625.0000,78.8782,57.7926,46.4891,50.4225,12.7517,31.4745,-66.4539,-44.3336,46.9399,-34.5779,86.9923,23.6078,-91.6978,27.9455,-82.9719,-10.1832,121.3211,-48.1031,-95.2418,-59.8014
-617.1875,141.3277,113.3432,76.5848,149.8217,-30.3834,98.7770,-147.8436,-48.3043,2.5790,-41.3626,43.1357,53.2788,-104.5160,94.1424,-90.1918,-16.7035,149.2474,-55.0531,-138.5937,-66.3996
-609.3750,179.2975,149.6390,78.1940,153.7384,7.9822,137.5988,-109.7489,-29.5610,-289.2961,-39.6294,44.7906,91.4413,-107.9599,94.8314,-88.9236,-14.7096,152.6688,-86.4942,-135.4615,-27.4884
-601.5625,52.2869,74.7175,19.8079,133.6793,-88.6605,115.4428,-168.6711,-32.2186,-165.1903,12.1203,23.4482,105.6057,-136.5425,108.5193,-0.6684,0.3012,26.0919,-71.9165,-156.3465,-12.5689
-593.7500,52.5065,89.2051,-16.3736,134.8436,-125.1004,42.5047,-95.3951,-50.3200,-91.9002,13.0861,-12.6882,105.9599,-179.0604,108.3940,-0.2230,-35.4755,96.7197,-107.1246,-121.0423,-11.4454
-585.9375,89.9370,102.7192,22.6559,137.2232,-86.3393,44.7948,-93.9306,-38.1843,-127.4081,15.2704,-10.6161,107.4950,-183.5072,72.4547,-35.5850,3.9627,63.5366,-140.1124,-119.5466,-9.1154
-578.1250,-14.4818,32.6644,-12.1532,103.7651,-121.4230,47.2596,-165.3156,-2.5948,58.2363,17.6196,-45.3854,72.1615,-187.9406,36.6595,3.1995,79.5622,30.5044,-102.9369,-82.9093,-6.6248
-570.3125,-72.4346,7.4897,-36.5010,116.7771,-109.0596,60.1911,-80.2544,7.8971,181.3441,-6.5664,-69.6960,48.2713,-256.0525,48.3047,88.4263,56.6268,7.9158,-125.3021,-34.8380,6.3264
-562.5000,-54.9718,4.7827,-55.4456,135.2122,-127.3000,78.5427,-25.8058,16.8617,198.8562,48.6732,-51.6027,65.7738,-244.8976,65.3359,70.0483,111.1094,-115.2758,-72.2513,-88.3801,24.6874
-554.6875,7.5170,35.9336,-64.3806,128.6698,-63.5415,33.9134,-35.3594,50.2637,5.3445,149.9291,-60.5026,56.2639,-259.8766,-17.6438,-13.3321,139.6050,-87.4640,-79.1931,-60.9368,53.0609
-546.8750,107.2402,63.5128,-32.1007,19.3435,5.4128,-7.4997,-3.7374,20.3714,-109.9782,72.4026,-28.1871,50.9432,-198.7843,-23.4369,-18.5254,25.3146,-22.4621,-48.9193,4.6892,48.6439
-539.0625,166.2927,85.1183,32.4926,8.3357,-4.3422,20.4060,-13.8257,23.1414,-157.0172,26.1882,-0.5617,40.9141,-215.5256,3.0595,-65.4369,-57.6750,-33.1459,10.6685,62.5961,2.5313
-531.2500,126.8788,64.4152,29.6002,4.8512,29.4020,91.8355,19.5727,62.5148,-160.5831,-12.5169,-2.4293,-35.6222,-261.8990,-36.9419,-104.8656,-96.1662,32.6819,77.7709,128.9845,-36.0797
-523.4375,55.0940,-0.3937,-6.6787,-31.0072,29.7406,92.8954,19.5531,110.5220,-13.5571,61.3902,-38.6909,-72.5663,-231.8010,-111.3456,-67.7125,-21.0484,-73.8834,181.4868,161.9572,-72.0901
-515.6250,-82.9199,-42.6478,-39.1913,-27.0936,69.8301,96.7231,96.2838,104.7521,63.2213,65.0587,-35.1897,-69.7729,-273.0819,-109.0141,-27.8169,-17.1648,-35.6886,184.9615,129.6633,-68.3467
-507.8125,5.5856,0.6139,15.8104,27.3401,51.4108,79.0666,77.5010,25.2587,-65.4962,10.2442,56.8218,-88.4899,-224.9853,-54.1950,-46.4347,-71.7637,17.9997,98.9469,6.8473,-49.0976
-500.0000,207.7632,79.3769,119.4712,54.4466,-30.3609,72.0822,-151.6427,-5.7352,-221.5959,77.1029,123.4810,-59.5644,-167.3772,-26.7276,-165.4174,-41.7005,44.3417,124.5954,-108.3382,-93.1903
-492.1875,340.8272,120.6198,149.9868,12.4256,-36.2858,66.9658,-157.9478,16.6413,-264.8701,107.8265,116.9948,-102.7930,-218.0532,-107.4162,-208.5575,-10.7756,141.5371,117.1025,-81.6902,-135.4253
-484.3750,364.5639,76.3687,176.1627,-33.9253,-10.5660,92.5225,-96.6206,-9.6172,-239.4823,97.2124,180.1727,-188.3815,-163.2030,-82.4589,-146.0575,-58.1992,60.3872,106.2730,-128.4111,-146.0089
-476.5625,360.9128,87.7589,209.9567,-0.6518,-88.2400,126.6988,-136.6990,-18.5476,-280.5056,94.2110,213.9567,-155.3795,-138.8753,-49.9090,-149.9750,-61.0173,56.8500,103.0499,-167.5469,-148.9866
-468.7500,368.2364,98.8464,217.7198,7.5975,-43.9644,61.8458,-93.8475,-34.6099,-199.6043,66.1773,147.6980,-185.4354,-175.7179,-43.4226,-105.9623,-88.8628,134.2586,40.7881,-125.7534,-141.0036
-460.9375,397.2891,94.6999,173.1915,-33.4342,-52.0002,-19.2860,-65.3111,-46.1117,-24.0079,58.8541,104.1434,-156.7983,-191.9867,-125.2409,-77.2611,14.0028,58.3673,-35.7584,-132.2728,-111.3129
-453.1250,374.6790,113.6776,110.9649,-20.1531,-77.7385,-44.0954,-54.4772,-29.7120,-50.1115,69.8387,114.8939,-109.8707,-227.0753,-152.7623,-67.2662,25.1730,105.7703,-22.9926,-85.5041,-63.3175
-445.3125,282.9803,77.4673,125.6480,-4.9479,-63.5831,-28.9826,-4.7572,6.6683,-110.3266,84.7389,129.5532,-96.0481,-258.3824,-29.3865,-53.3853,40.2517,14.0714,-8.3144,-36.8546,-48.4170
-437.5000,160.6773,21.6237,72.7434,14.6843,-117.0275,65.5513,-21.6484,67.0984,-53.1542,143.0573,76.6163,-112.8355,-283.4114,27.3857,-70.1157,24.7377,-37.2152,46.7749,16.1858,-64.1088
-429.6875,122.3036,23.6817,69.7509,12.2319,-10.5758,26.0058,48.3491,57.7316,-21.0789,140.2857,73.5866,-116.7365,-295.6611,-50.9496,-36.9535,-13.8614,29.3917,7.7748,48.1058,-66.8932
-421.8750,149.7164,40.6106,60.5127,40.5527,-19.3820,17.2309,38.0779,23.0671,5.7339,57.2782,101.3063,-89.8930,-277.2759,-60.5416,25.9435,14.3042,-13.2499,0.5354,3.7557,-38.9199
-414.0625,26.4613,-1.9972,76.5863,-10.8072,-40.8883,-39.2277,90.1032,21.7111,21.8303,37.5843,80.3368,-74.7548,-269.7083,-119.8404,78.1292,30.7764,4.4135,18.6022,20.6891,14.3605
-406.2500,-85.6220,-69.8950,32.8226,-51.9933,-12.2480,-46.5191,155.2646,17.9557,50.0771,30.0547,73.5210,-83.4706,-250.1017,-91.9944,143.4507,23.4100,-107.7744,47.8263,13.7569,43.7954
-398.4375,-63.5875,-55.4189,-18.8326,5.9368,-100.5112,-23.6936,66.5196,19.5511,181.4201,52.6393,21.8084,-62.1020,-274.5083,-34.0574,127.8658,83.1546,-119.8525,70.1571,-36.0837,66.3382
-390.6250,68.4128,9.8694,-29.5276,32.8351,-74.8337,-33.9036,127.7162,22.5367,169.7035,5.1820,48.0548,-108.7928,-332.0743,-119.1695,117.2262,109.8542,10.0162,26.4501,-10.9882,92.8370
-382.8125,72.1871,7.6386,48.5349,2.5023,-35.4144,-65.3439,57.6480,21.9866,62.7286,46.4876,52.0494,-69.7377,-301.0007,-152.5291,120.3216,151.3061,-56.3596,30.5059,-43.1591,97.0890
-375.0000,-34.9262,-19.8514,10.7001,2.2916,-36.8925,-29.6656,55.6800,44.4073,-13.1511,119.9016,14.1415,-35.5909,-348.9398,-82.7982,81.5091,113.8673,-57.6195,64.6733,-45.2433,96.4436
-367.1875,-108.4695,-61.6072,-65.5774,-0.3430,-40.8250,41.5818,51.2435,55.8174,19.5073,152.8782,-26.2108,-39.8899,-362.4309,-13.5179,77.2279,110.9883,-95.3313,61.3994,-84.8011,93.3513
-359.3750,-135.2258,-54.5903,-56.0992,44.7971,-104.0214,52.5964,-13.4589,50.1797,28.9027,163.6159,-15.8092,6.5640,-362.2738,-4.4858,49.6769,121.8634,-122.2888,69.8785,-112.6300,67.0146
-351.5625,-93.5904,2.0216,26.7398,87.3096,-59.8797,24.9757,31.1708,15.9128,-37.3593,62.7159,29.9514,14.3647,-363.8645,-34.1038,57.4578,94.0982,24.0984,6.7087,-107.1317,39.0348
-343.7500,-37.5443,18.4444,83.9924,73.2469,-3.3469,8.7762,50.1821,-17.2877,55.7706,9.2235,87.1200,33.5579,-317.1478,-52.3223,39.6277,77.7452,-27.1090,-44.0538,-123.2530,59.4610
-335.9375,-40.2595,13.6546,43.5085,72.4555,-7.5652,42.8477,-28.5517,-0.3611,51.1315,5.9924,46.5385,28.9901,-331.2791,-20.2911,35.0485,111.6506,5.9538,-80.5592,-125.1364,93.1434
-328.1250,-10.6532,25.0425,36.3333,66.9807,-15.4891,36.2317,0.0034,-13.0619,-67.2042,-36.9282,76.2562,20.7228,-312.2065,45.0358,63.7579,104.8636,35.3139,-84.7620,-132.7431,123.1311
-320.3125,24.1923,51.7841,72.3625,66.7220,-53.2268,35.8235,-39.2640,-5.0720,-142.3482,-73.6388,75.1726,55.6558,-324.0277,79.5623,61.6558,104.2837,33.8786,-16.7665,-99.1696,122.3237
-312.5000,-7.4793,50.6365,40.8475,106.9310,-12.5227,78.8784,-35.0908,46.3409,-212.0523,4.1082,43.5390,23.0409,-403.4888,46.5403,28.9977,110.1621,72.8957,22.6751,-63.1641,90.9727
-304.6875,-66.6319,9.9346,17.8358,84.6663,37.6712,93.4478,-22.4326,72.7582,-53.2609,55.3640,20.4030,-1.0700,-437.5315,-14.9783,4.8278,87.5504,14.4098,34.6217,-16.6782,68.1296
-296.8750,-86.0673,-2.5912,-1.4705,66.1224,17.5532,37.7298,-43.0833,64.0488,110.2207,73.3307,0.9703,15.5138,-430.9628,-72.7949,-15.6516,105.6427,-5.3662,15.2750,-2.5061,48.9926
-289.0625,-23.2382,-1.1107,-9.5162,-12.1534,81.6827,-6.7245,57.5013,52.5728,27.9518,65.5558,-7.2036,-30.6595,-450.2166,-45.3575,-24.9003,60.9905,21.1084,7.1863,22.9004,41.1094
-281.2500,-53.8958,3.0492,-5.0525,29.0877,49.3124,35.3374,24.5743,63.7608,-42.8258,33.2881,-2.8742,9.6634,-494.0452,-5.4246,-21.6650,65.8427,-45.9101,46.6041,25.7942,45.7289
-273.4375,-81.7690,8.2592,-33.8268,73.0875,19.6916,81.1606,31.3931,63.6284,-35.8780,41.7727,-31.7925,-20.2682,-571.1965,37.2496,-14.6847,37.4482,67.8239,19.7775,-2.5788,54.1040
-265.6250,-30.6693,32.8559,-18.6505,89.0570,34.0052,96.9487,8.1425,30.9657,-21.9886,20.2176,20.2378,-6.2495,-567.4714,50.8852,-0.7665,16.0112,82.5070,-0.0899,-60.0180,69.4311
-257.8125,-71.5155,16.6611,13.5801,85.0960,-82.6389,92.8055,-72.0614,32.0845,45.9467,15.7225,15.3163,24.8120,-619.7667,118.5747,30.1898,48.6313,77.2506,-4.9022,-66.4158,64.8102
-250.0000,-146.5999,-22.7553,8.5692,80.9045,-51.5325,88.4269,32.4782,56.1034,2.6247,47.9878,10.1474,-18.3828,-636.3713,112.0111,60.8851,44.0051,36.7476,25.0411,-37.0787,59.9418
-242.1875,-143.7710,-7.7889,-28.5393,118.6305,-52.5313,88.9646,-6.0982,42.2689,-72.8062,85.1609,9.8787,54.3223,-611.1419,110.3509,22.4678,118.2804,-67.8538,61.8876,-141.8545,96.9738
-234.3750,-20.2747,67.4061,-44.9910,139.0132,-69.8805,72.1612,-98.0239,12.5296,-126.5908,104.9852,-7.7429,109.6707,-639.3245,55.3411,-69.3033,101.2003,-13.7990,46.3842,-194.9920,116.6570
-226.5625,109.2892,100.5267,-56.3853,93.4568,-118.1911,61.4171,-146.9172,-10.1702,-103.3208,56.8724,17.6869,97.0713,-626.5114,42.3830,-82.0312,53.1769,9.3017,69.9352,-173.1014,105.3922
-218.7500,98.1610,95.3702,7.5213,83.2275,-165.2076,52.9835,-194.5224,-5.4961,-150.7710,48.0739,45.4117,85.7797,-611.4557,104.7282,-93.4757,44.4653,68.7112,93.7883,-150.9267,59.4345
-210.9375,98.9972,116.2776,82.3820,119.9708,-56.2839,91.5094,-123.1894,-10.5874,-334.2915,12.2273,83.0849,49.4378,-585.4968,104.0269,-93.9789,-28.2851,139.0789,94.5890,-151.8140,60.4334
-203.1250,31.0090,72.5158,47.4009,157.8752,-92.2195,130.1914,-194.7173,1.1149,-223.6618,51.5294,84.9105,50.2429,-595.4349,178.4760,-56.3361,11.1104,35.6014,96.5376,-185.5629,62.5817
-195.3125,-30.0579,49.2877,-15.6756,203.6833,-191.2599,178.7793,-186.3439,41.7139,-31.1276,25.7263,21.6386,-14.0545,-633.5201,150.8301,-46.8007,22.3943,114.0327,105.3769,-109.4262,36.6295
-187.5000,-23.2617,59.6146,30.1015,176.3593,-74.4633,151.2261,-69.1387,16.5835,-23.7469,-2.2172,-6.7853,-43.4929,-636.7958,84.0467,33.5655,-79.4684,191.3078,42.0674,-68.4575,8.5301
-179.6875,-2.4527,92.7784,13.8822,162.0565,-54.6754,135.6891,-86.9473,-6.8104,-41.3846,18.8488,-60.2154,86.0702,-628.1125,66.2721,-20.0829,-21.3277,105.5915,62.7627,-155.4989,29.4336
-171.8750,-46.2838,72.8739,-70.9824,154.1110,-103.5409,89.5076,-99.4024,4.0609,20.3267,82.2638,-107.2964,110.9787,-614.1076,16.8466,-32.3864,42.1673,61.2350,88.8064,-166.1986,55.6874
-164.0625,-41.9002,38.6824,-66.6447,124.3812,-100.2118,57.5329,-96.6675,49.8437,96.2467,86.8832,-103.1845,41.0887,-584.9337,-53.3778,-29.4969,83.8645,-4.9211,93.0499,-57.7120,60.1393
-156.2500,-7.5971,40.1218,-30.4113,54.5681,-27.9866,57.4587,-62.0369,76.3308,-15.9462,49.4043,-68.1785,2.1057,-524.8939,-92.6955,-68.7164,46.4649,63.8320,57.1872,44.6629,59.4945
-148.4375,88.8099,47.3892,32.9252,-24.1362,34.3346,10.4917,-0.3144,49.7674,-65.0518,2.0264,-42.0750,-46.7743,-473.7771,-141.9065,-6.8410,-0.8358,54.6794,13.4325,69.1300,85.9525
-140.6250,35.8082,32.7794,12.8595,28.7665,-23.7530,28.1304,-58.9930,75.7406,-86.5436,56.2486,-97.3789,-31.0559,-432.0809,-89.5078,-28.3715,53.4572,0.1309,65.2770,49.1958,103.0084
-132.8125,-61.8278,15.1000,-50.8522,109.0210,-51.4890,39.1192,-13.3198,62.1166,69.3193,29.8228,-124.3382,-58.9940,-398.0533,-43.7582,54.4411,27.1002,113.9390,3.4654,55.6022,76.4144
-125.0000,-50.8961,1.0695,-39.0153,84.8367,-3.6824,14.6603,32.8885,15.1757,300.7168,4.9515,-113.7541,-48.3818,-361.4922,-70.4546,63.7959,39.3032,53.2988,-92.7922,-6.4514,51.3730
-117.1875,-35.3594,36.6338,-23.5773,101.2548,10.7199,30.8022,-26.3030,6.8417,130.6980,20.6871,-98.5740,39.8339,-358.3450,-56.5518,-32.2500,55.1072,33.2704,-112.4510,-62.9084,66.9331
-109.3750,9.1837,81.9843,20.8598,111.6802,54.1162,38.9427,-20.4919,21.0785,-156.2916,65.4238,-90.3998,83.0476,-326.2022,-87.6473,-63.3021,25.9023,42.2369,-102.1169,-56.3700,111.4889
-101.5625,6.3260,47.3966,17.8966,109.7134,50.1036,36.6821,-62.0850,5.8496,22.3366,25.7618,-57.6349,41.8680,-267.4674,-18.1401,-67.7631,23.2970,-32.1861,-71.1892,-61.2389,108.6411
-93.7500,-22.1270,45.0803,-10.6653,117.1520,20.4920,8.8222,-18.2800,-22.6998,213.3501,-2.5047,-86.4697,49.0858,-235.3351,24.7721,-60.8267,-4.9072,44.7997,-133.8622,-55.7125,80.1953
-85.9375,8.8835,29.5451,-49.7780,44.0476,53.3180,7.4221,13.9602,-23.1370,208.8019,-41.3200,-161.8599,44.7534,-28.7458,58.1494,-64.4445,-43.6660,5.2350,-139.0842,8.2580,41.1997
-78.1250,-3.8489,11.5910,-95.6477,32.2013,80.3916,-0.7247,40.4534,7.8968,161.4939,-12.8866,-245.0119,34.6727,170.0940,47.7820,-111.8142,-15.1779,-43.0750,-81.0614,64.4746,-41.5481
-70.3125,72.2160,37.9696,-88.7190,3.1528,122.2642,-30.0787,118.7436,-27.2340,129.9976,-42.6569,-166.3703,40.3994,238.7472,52.2178,-143.3841,-81.8917,-38.5898,-76.2423,67.4820,-71.4966
-62.5000,105.7241,57.0389,-17.3422,37.5630,83.5787,-30.9824,42.4738,-74.9812,89.9516,-80.9734,-94.2849,110.5800,408.8675,160.1151,-146.5153,-83.1572,-110.6517,-112.9697,-6.0654,-72.9958
-54.6875,34.5351,33.2215,-18.6648,72.2763,44.1916,-68.5798,-34.4916,-74.0477,14.1974,-44.9839,-132.8996,108.0518,763.3071,194.3148,-112.3508,-84.1223,-42.4123,-185.3914,25.6888,-74.1971
-46.8750,-14.0920,-16.6402,-32.4349,25.5372,28.3476,-119.6269,23.0885,-91.2553,-1.9969,-59.4404,-147.9663,56.0714,993.3175,141.0582,-55.6342,-61.5273,-55.6302,-198.2700,10.9830,-51.8484
-39.0625,-24.4119,-31.4202,-44.9073,-18.9017,-22.2036,-131.3788,-65.0322,-64.8128,95.1067,-34.6014,-196.7433,79.3921,932.6479,54.1063,-32.6196,0.3615,-101.5376,-138.8637,33.5706,-27.1966
-31.2500,-48.5803,-45.5943,-106.2337,-42.1887,26.3943,-117.9874,19.9913,-51.3836,216.3571,-58.6147,-221.3745,16.8705,822.1539,-45.6764,15.5379,-23.6077,-21.2932,-92.3163,77.3046,-51.3935
-23.4375,-80.9426,-65.0207,-103.7667,-38.6729,64.7857,-114.7974,57.8071,-30.5626,180.4101,-55.8331,-146.2203,-18.8378,739.4908,-7.6462,-20.5094,16.2203,-19.2532,-54.9768,77.8333,-48.7914
-15.6250,-113.0991,-79.3785,-64.1099,-70.9585,29.3706,-37.4170,21.8277,1.5170,34.6779,-52.8643,-69.8765,-17.3404,656.0580,30.5894,-19.3537,19.2417,17.9861,-17.4450,78.5572,-45.9906
-7.8125,-51.1200,-61.4533,-35.3072,-113.0935,20.0982,-81.8940,48.9941,-43.5432,25.1090,-60.7480,-5.3905,10.3154,598.8117,20.9792,44.9543,-62.5874,-25.6264,-25.7650,68.4220,-54.0424
-4000.0000,1.0585,-43.4847,-63.6878,-90.7522,-4.4192,-76.2685,25.0372,-82.5961,43.6366,-45.1589,-18.8141,66.6346,834.9387,139.6401,-16.3644,-98.8625,-89.4463,-42.7320,19.1792,-112.8275
-3992.1875,19.9292,8.2287,-44.8866,-3.1430,16.2376,-20.6617,9.0458,-68.8048,-46.1598,-62.0754,1.6979,88.5794,795.4430,198.5166,-32.8069,-116.6358,34.0270,-94.5908,38.2731,-130.8668
-3984.3750,47.6056,33.1265,-53.2874,59.2665,45.6960,7.7462,1.8513,-78.5406,20.8232,-106.1923,31.0113,82.3267,727.7242,230.1815,-3.4540,-125.5993,60.3096,-102.6458,31.1654,-140.1041
-3976.5625,36.8832,20.3733,-65.0829,117.2830,-2.2485,-4.2375,-8.7512,-43.4408,157.4074,-44.7145,19.9254,35.6752,693.5760,184.4448,-14.5029,-64.9609,13.1974,-44.0977,55.6552,-152.7397
-3968.7500,-19.0925,-9.0712,-52.1271,130.0567,11.5575,-28.4707,78.3994,-37.1697,171.7545,42.5157,69.5900,13.7740,648.1384,127.4514,-37.7998,-15.5783,-45.1482,-65.8042,-0.1044,-140.6234
-3960.9375,39.0875,35.6331,78.9856,186.9892,-4.4846,28.4444,-47.3032,-39.4243,-320.7537,62.8959,201.4104,73.0243,682.8038,187.5943,-53.9434,40.9620,-93.3403,-113.3639,-117.7121,-84.3531
-3953.1250,149.1738,90.9865,153.0024,190.8354,-39.6279,-7.7373,-192.1163,-53.2020,-613.3823,-9.8230,276.1296,76.1802,734.3212,153.6271,-15.1906,114.4074,15.3759,-145.0186,-148.4209,-11.1774
-3945.3125,237.6637,85.7867,133.4209,102.0892,-58.3672,-64.5183,-173.5271,-59.9251,-337.6186,-66.1436,294.2530,21.7347,729.1860,-9.9538,2.9636,131.2519,-2.4979,-57.2705,-93.7297,5.4055
-3937.5000,208.8531,60.3929,140.5447,107.0620,-87.4108,-20.5867,-166.2594,-59.5674,-146.1632,-58.7622,265.0762,-43.0011,677.6887,0.1582,9.8229,63.8033,37.3308,-15.8163,-87.3464,-25.3043
-3929.6875,170.5362,87.4416,210.1723,138.5524,19.0432,-25.1482,-58.5001,-50.9828,-295.2260,-136.8808,224.4011,-45.2374,613.6255,-1.2434,43.1852,22.8642,138.6830,-54.8575,-20.4620,-30.5040
-3921.8750,64.6224,49.8551,209.2064,137.4555,55.9014,-26.3036,-95.3426,-61.5513,-148.9010,-137.6044,224.1347,-7.0758,589.8937,0.7430,42.9416,-15.6663,66.4503,-20.4918,-20.1780,-32.2983
-3914.0625,20.8648,30.2694,125.4045,162.5207,9.9091,0.6963,-141.0498,-13.3246,-83.4469,-36.1720,142.0259,-14.7677,521.2409,-43.1381,-39.1589,10.9617,21.3822,5.0303,6.2547,-42.9375
-3906.2500,37.8756,51.5202,104.3641,178.3461,-46.3366,16.4493,-87.0167,48.2635,-103.2629,53.0177,121.6763,3.2876,109.2589,-97.2864,-59.5112,99.3460,-32.9305,21.2953,23.4298,-27.8158
-3898.4375,19.7997,42.7456,83.2299,123.0764,-140.6951,-41.8923,-70.0992,59.6055,60.8301,106.1171,64.2304,21.2418,-118.9090,-225.5506,-5.9595,151.6390,-17.3468,-32.5373,40.4993,-12.7806
-3890.6250,13.6655,50.2431,73.0414,80.7663,-113.1042,-88.2774,67.7729,57.6928,51.8755,59.1695,-19.2687,-23.8584,-299.2213,-306.8806,57.5514,139.8923,80.2028,-40.4166,69.5250,49.2159
-3882.8125,-51.7744,16.4202,1.5635,85.1653,-145.8026,-12.9563,34.3528,92.6336,128.6029,98.9243,-89.0561,-56.2645,-539.9262,-264.5279,97.7670,105.8557,48.4606,70.4068,75.2523,87.9234
-3875.0000,-136.3144,0.9472,-51.0013,104.4756,-125.6000,79.2732,17.8195,141.4689,76.2142,118.5876,-178.9374,-71.7745,-800.8306,-205.2951,117.8814,87.7356,103.6326,125.1349,95.8797,106.5447
-3867.1875,-179.0069,-32.5158,-61.7088,59.6490,-25.5483,142.3594,119.1322,180.0179,-7.3193,145.0999,-188.9644,-115.4373,-944.9916,-286.2351,144.8467,113.4728,58.6707,116.7122,88.3586,132.0283
-3859.3750,-196.8914,-56.6855,-46.6093,6.6389,-8.7022,120.2519,61.2326,204.8535,45.9518,160.4105,-172.1877,-135.3002,-1137.4611,-342.3916,160.6121,165.0249,41.5173,133.0918,106.6348,183.3242
-3851.5625,-188.8705,-34.3656,-76.6017,13.5542,35.0393,91.0518,143.2176,216.4860,54.0935,167.6243,-201.5064,-163.2623,-1301.1466,-405.6642,131.2749,134.4974,117.2850,176.3710,149.8092,189.5377
-3843.7500,-178.2469,-43.9082,-102.9805,23.0813,82.3813,100.4529,154.7960,221.6993,176.8067,178.4427,-227.2151,-187.6267,-1387.3524,-466.3564,142.5399,181.5842,55.6752,185.2512,124.5831,162.3707
-3835.9375,-257.9278,-65.4235,-112.6487,13.3211,110.4207,127.5638,109.0607,227.5993,204.2072,168.9665,-236.2170,-195.2854,-1420.9821,-473.3681,133.5004,134.3827,151.7778,140.8367,151.0530,151.9207
-3828.1250,-278.3561,-78.2177,-62.0601,-9.1766,124.7110,140.9344,160.5730,200.1525,108.8527,108.7459,-184.9658,-215.7003,-1357.4902,-457.1501,147.7139,73.4392,165.1540,118.6699,130.7726,164.7343
-3820.3125,-302.3279,-92.7370,-15.0176,36.7926,98.4531,261.7700,24.5300,200.7989,-26.0326,118.9778,-138.2688,-203.6753,-1261.6888,-370.5023,47.3851,46.9589,68.9860,199.9587,35.9422,174.0087
-3812.5000,-265.1004,-69.0475,-13.7714,37.9826,137.3930,298.8205,-9.3186,206.4486,-170.7140,120.4160,-136.3761,-200.4530,-1283.8409,-366.6756,-22.7400,47.6919,105.0387,236.4531,3.3080,174.4982
-3804.6875,-152.8694,-71.0768,29.4872,-27.8092,145.3353,232.8752,-2.1681,186.6041,-126.4218,127.8535,-91.4714,-265.2332,-1301.1344,-393.8737,-15.8604,90.4395,75.1061,241.9506,-25.3290,144.0079
-3796.8750,-101.2879,-57.9409,81.1095,-12.2356,87.6232,284.2893,-95.6791,194.4505,-182.7818,106.6375,-75.2076,-284.6692,-1273.2186,-375.7503,-35.6291,105.5569,90.5390,222.8056,-42.6144,158.8853
-3789.0625,-57.7113,-41.7453,123.7440,-4.6517,93.9169,253.7073,-89.1917,159.2693,-213.1416,76.4242,-31.9360,-314.1128,-1218.4534,-330.6576,7.6103,74.6891,167.9973,159.6630,-69.8998,200.7796
-3781.2500,-13.7793,-10.7311,131.7444,38.2995,30.5659,261.4828,-153.3639,133.8181,-241.1749,84.5671,-23.2993,-230.2074,-1162.4894,-247.2392,-20.8043,82.1900,71.8161,167.8763,-130.8430,208.0443
-3773.4375,-36.9525,4.1193,71.6574,50.1760,-29.8870,200.1702,-139.6533,133.4711,-153.3393,96.6207,-83.7584,-178.4026,-1174.7841,-231.9410,-44.3185,93.6105,116.5571,143.9997,-83.8899,183.2307
-3765.6250,-58.5235,-5.1648,49.1761,61.6672,21.2666,177.4703,-88.3438,134.9723,-64.9111,74.2817,-68.6169,-199.0023,-1148.6486,-289.0711,-66.2320,70.6475,93.9209,157.7337,-34.3327,160.0356
-3757.8125,-93.8414,-35.7925,47.9515,60.4242,-15.3300,176.0345,-161.7918,149.5683,-65.2234,147.1977,-32.2236,-198.3634,-1101.4318,-250.9787,-66.8894,68.9566,23.5438,226.7257,-34.5280,158.1069
-3750.0000,-121.0091,-58.5878,-16.1114,-1.6520,29.2282,147.7600,-42.0927,155.4448,-19.4024,193.2734,-96.6736,-188.5855,-1118.2365,-239.7676,-21.3937,40.4312,-4.6544,198.8694,7.4255,129.3497
-3742.1875,-139.1252,-71.7596,-72.1072,13.3365,47.8467,165.5522,11.6514,160.9338,-1.5504,174.4028,-152.0578,-168.7675,-1089.1609,-146.5328,-3.8473,94.9692,-94.7905,215.0701,-10.5746,109.6660
-3734.3750,-87.4993,2.5378,-56.3414,64.0952,64.2160,181.1097,-7.8651,127.3080,-130.9576,116.2919,-135.6893,-114.2077,-1062.5181,-91.5650,-23.5480,36.2848,95.8334,126.0336,-28.8228,124.7543
-3726.5625,50.1699,83.6022,12.4800,95.9184,59.6377,65.7303,-11.3331,27.7757,-98.3107,-34.7654,-29.2667,-43.6090,-983.0098,-131.5823,44.8097,31.6761,127.5229,-52.9385,-66.0209,155.9166
-3718.7500,90.2844,125.3988,51.7632,100.2082,-9.4934,-42.1873,-118.3654,-19.4623,-168.2186,-69.3588,-26.3875,69.4347,-933.2368,-90.1792,12.6206,106.5418,96.6727,-48.4512,-130.7669,194.5519
-3710.9375,85.6495,165.8377,6.3065,163.7666,-54.3714,-13.8410,-126.1522,-6.4494,-285.9025,-76.6900,-71.2537,136.7250,-931.4041,-59.5539,-32.3133,134.6769,125.0959,-54.7135,-136.2622,222.4626
-3703.1250,110.3208,152.0198,-40.8383,188.6380,-99.9443,-24.1865,-172.6415,-38.0947,-75.2872,-86.7185,-43.8093,128.3059,-858.4589,43.3411,32.0563,52.1335,44.8334,-64.6698,-110.4626,211.6970
-3695.3125,-1.7596,105.5420,-9.7210,216.7758,-142.2738,-30.2659,-104.8951,-45.5917,213.5814,-93.4864,-86.1083,87.1269,-854.4578,74.4592,98.6755,8.8617,71.8387,-72.3666,-82.4108,168.2056
-3687.5000,-47.3944,80.1505,16.8595,170.3850,-115.1510,-39.8819,32.3041,-40.6061,240.8814,-65.7965,-57.9534,79.3888,-817.2026,66.9975,89.7453,34.0630,95.3205,-83.6136,-92.9052,121.1897
-3679.6875,72.4668,140.6441,30.9579,184.5124,-63.5252,11.0124,-62.0050,-13.5509,-111.3327,-14.5980,-80.2862,132.1457,-720.6449,83.0061,-41.6796,47.7923,39.3146,-34.3567,-112.9030,134.7003
-3671.8750,99.9773,172.7341,-15.2797,211.3079,-36.2463,37.5669,-108.6683,31.1603,-340.8993,48.2552,-126.9646,160.5396,-720.6413,111.6306,-51.4493,74.1920,65.9858,28.5578,-85.2464,160.8876
-3664.0625,2.9454,90.4115,-81.0561,147.5686,-27.5130,8.5829,-25.8809,43.5717,-2.0168,55.5566,-155.1834,133.3674,-667.3928,121.6759,29.2416,119.0595,-32.8723,68.9311,-42.1346,131.5494
-3656.2500,-49.3391,61.6106,-60.0702,129.5954,-8.0322,27.3652,-6.3451,62.8486,-18.3840,39.6188,-96.6456,81.9336,-637.5966,107.4427,50.6863,102.7001,54.0302,51.0642,9.7225,77.9867
-3648.4375,55.1176,110.7336,48.6796,94.3899,29.2056,-9.0883,30.9368,35.9370,-164.0146,2.4435,-24.3496,83.2394,-556.2570,34.9245,13.8865,65.1193,124.7022,15.9475,10.3303,77.2014
-3640.6250,206.8732,151.2377,58.7478,104.5024,-33.2528,-35.2269,-31.4843,-3.0539,29.6500,-59.4224,-49.7408,94.8351,-537.8331,83.6716,-12.6070,74.8641,28.6904,26.1391,-13.7645,86.7444
-3632.8125,227.2234,164.8879,-29.5698,89.2324,-84.1116,-50.7511,-10.3088,13.8680,51.9094,-38.6794,-64.5237,118.0199,-508.0348,143.9871,9.5013,96.2382,119.3018,-24.0614,42.7341,70.9155
-3625.0000,196.1317,170.1195,12.6752,91.5249,-5.4183,-46.7121,33.4121,4.4554,58.7087,-33.3785,-21.7495,161.7422,-420.9076,113.8194,-20.8359,65.1866,121.4888,-21.7088,45.7822,2.6674
-3617.1875,159.8527,182.7003,49.7342,160.6343,32.0706,-9.8586,-40.0819,-43.3230,22.3071,-33.2726,15.8368,200.2530,-339.1901,152.4236,-131.3712,-9.0433,119.4915,12.4514,-60.3691,-34.7524
-3609.3750,241.6188,227.0530,98.8582,171.8114,44.6139,-33.9475,10.4760,-90.2197,-1.0442,-94.1105,65.4785,177.7990,-318.6363,167.0427,-154.8457,-70.2042,236.5755,-46.3296,-83.4650,-59.0964
-3601.5625,373.5749,252.4446,163.2037,162.2050,-37.6278,-43.8223,-72.7653,-155.0805,25.7845,-140.7434,167.3321,169.5328,-248.0906,158.8253,-90.1143,-43.1394,226.8748,-126.8993,-198.3677,-69.2118
-3593.7500,481.4742,277.8358,161.5125,128.5645,-75.9205,-45.7334,-183.0716,-143.8016,-157.4533,-104.4141,129.1472,169.2113,-205.8046,121.5207,-54.4354,28.9044,229.1426,-194.5078,-230.3237,2.6548
-3585.9375,448.7799,263.0258,160.2296,130.3384,-75.8033,-120.2360,-220.9745,-136.5348,-232.2854,-105.6775,201.3687,168.2755,-127.3376,84.5814,-91.3445,63.3686,194.8313,-192.7138,-192.8770,73.9487
-3578.1250,305.7856,212.6220,193.6637,162.8312,-151.9868,-86.0250,-260.1766,-115.4828,-124.4102,-71.2362,199.2978,167.0262,-86.3853,120.3165,-57.5439,23.5582,192.2382,-160.2163,-159.7339,70.9671
-3570.3125,222.1796,171.4409,180.5105,149.7501,-164.7715,-62.3890,-162.9895,-108.0088,-64.1587,-48.3789,149.6301,119.1667,-130.2563,71.4255,39.6580,10.1807,214.0666,-138.3118,-172.1946,57.4176
-3562.5000,319.4160,168.9359,135.2164,105.5379,-210.7108,-35.8818,-244.9669,-77.9276,-37.0536,15.3446,104.8197,111.1471,-169.5007,-10.6452,30.7154,74.6826,64.7555,-76.5464,-180.8049,47.7504
-3554.6875,257.4476,137.2558,70.7309,78.1366,-163.8512,9.4390,-199.1473,-28.7598,-136.1369,98.8768,77.8123,84.9092,-191.1612,0.0505,3.5823,47.0100,72.2579,0.0224,-136.6116,19.9118
-3546.8750,204.6798,69.0763,54.4594,-10.0637,-70.7832,29.9669,-32.1094,-14.5863,-43.0218,81.6034,98.0173,-4.1535,-165.8364,-15.0898,24.6642,-43.4434,18.9903,-17.2078,-49.2089,-33.6968
-3539.0625,212.5598,21.5629,62.8571,-73.6011,-98.0594,39.1611,-59.4286,-10.7000,113.7313,90.9912,70.8860,-67.5783,-114.0704,-78.6148,-2.5989,2.7853,-43.6186,-9.7783,-76.1567,-61.6239
-3531.2500,203.1392,10.5698,87.9675,-118.4243,-35.6321,27.0650,2.9505,-16.5501,102.1702,79.0997,96.4581,-115.3140,-120.8235,-198.4809,-14.1597,-9.2521,16.4823,-19.6413,-86.3997,-36.8181
-3523.4375,108.0633,-20.2888,98.4400,-107.8916,-24.8516,0.3204,-23.3144,-24.3339,75.9719,16.5669,144.3909,-103.7110,-68.4455,-187.0346,-3.3566,1.0859,-8.0614,25.8491,-75.2883,-26.6296
-3515.6250,70.1296,-5.2117,132.0720,-41.1947,-64.9206,33.7359,-63.4335,-2.6334,-74.0540,-23.8100,141.4778,-105.9722,-67.1346,-152.4669,-43.3962,-2.4032,58.5621,22.4976,-42.0249,-30.2612
-3507.8125,-26.9694,-58.7139,140.5635,-102.6339,17.8731,42.0157,-17.6905,39.9792,-211.2375,21.6734,150.4230,-132.4051,-18.1896,-217.0811,-34.5778,5.9810,32.0602,66.0042,2.0983,-22.0163
-3500.0000,-156.6773,-144.8417,77.4676,-128.6562,65.0750,52.7130,-6.5474,61.2862,-17.0333,68.5744,124.7718,-193.4529,-4.0604,-242.3240,-23.3561,16.7992,-29.0328,109.9222,11.6233,-48.3419
-3492.1875,33.0618,-59.6600,55.8288,-148.2097,79.7298,-7.1202,45.0444,-20.8465,-2.3887,-27.0625,139.5724,-142.0635,-57.7016,-227.1468,-8.6825,-5.9039,20.3463,-86.6999,-43.4049,-34.1895
-3484.3750,151.7513,15.2231,65.1544,-100.8021,16.3415,-69.9953,-55.4109,-73.3624,-65.7725,-89.7490,149.3325,-21.7369,-117.6040,-180.0532,0.9586,40.3599,-71.3066,-213.3733,-99.4827,48.9408
-3476.5625,-80.3136,4.6630,38.7472,-17.1350,-45.7950,-60.6099,-118.6182,-18.3883,-128.8889,-80.1786,123.3509,99.8217,-472.4678,-58.7402,11.8583,86.8969,-23.7003,-129.7919,-51.3148,132.3475
-3468.7500,-273.9851,-2.3547,90.7508,34.9430,6.4719,-8.8048,7.5744,17.3112,-112.6208,-101.1956,249.7753,152.7638,-1006.1436,-6.0640,64.1607,29.8626,64.3275,-112.7966,1.2541,184.1823
-3460.9375,-247.9092,7.9028,154.5158,61.7860,-2.5069,-18.2330,-1.4899,39.1633,97.3864,-74.4494,350.9599,144.4478,-1380.2753,22.3344,55.2165,56.6037,19.1163,-87.0442,28.5709,174.7957
-3453.1250,-219.3833,-1.9403,149.7446,20.0999,28.9633,-23.2000,65.8916,65.0666,239.8392,-79.2530,309.5998,66.5764,-1382.1660,-55.8423,86.7282,87.8147,117.3793,-128.8398,91.3419,132.8863
-3445.3125,-119.2096,26.5430,180.6388,14.0750,59.0920,-29.5120,133.9363,58.0274,13.9516,-85.4048,303.8964,25.3356,-1201.6128,-24.4036,80.9016,118.6971,147.3106,-99.9816,50.7688,126.6555
-3437.5000,-87.5982,49.1757,213.9955,79.5081,19.6766,3.6437,-15.5697,98.4884,-172.4790,-15.0959,263.6468,22.5266,-1055.8123,9.4558,4.5301,115.0559,143.6997,-33.6577,82.6491,122.9006
-3429.6875,-106.7486,12.1727,159.6113,25.2036,112.5179,-14.9322,76.1824,90.9623,-7.6747,39.4745,209.6517,-31.0460,-996.9652,-44.4592,-49.5933,-13.3163,89.3658,16.9291,134.7837,68.4219
-3421.8750,-163.3554,-75.9926,65.7917,-66.5373,165.9100,38.0619,129.4789,106.5084,156.6779,56.6042,153.2166,-87.0845,-867.7676,-64.8541,-33.1592,-33.1142,-73.4047,101.0731,148.4669,11.5211
-3414.0625,-260.8690,-116.4141,1.0827,-128.1647,138.4028,47.1642,212.8662,132.1830,240.1409,28.8471,88.8875,-78.0389,-820.6677,-128.1825,13.3864,13.2161,-31.0545,143.3242,192.2450,-16.2521
-3406.2500,-232.5354,-80.5750,-3.7657,-100.9362,170.7583,-31.8750,281.1180,92.3061,308.4571,-13.0504,84.4145,-45.1627,-749.9084,-169.6899,8.7900,-28.5794,-1.8410,101.4290,220.8757,-58.1476
-3398.4375,-132.5609,-32.1411,-8.9566,-35.0475,165.7659,-37.2474,239.0162,83.4540,266.4357,-18.2872,79.5986,-49.6513,-680.6901,-138.5709,-70.1512,-33.6999,-6.9749,96.1957,216.1601,-63.3648
-3390.6250,-92.4439,-14.0752,-42.9920,4.9993,168.9276,2.5413,243.0706,110.0478,159.5672,-52.3614,9.9338,-83.0064,-676.5156,-62.3309,-66.9392,-30.6436,-1.9396,101.1152,256.6037,-23.4056
-3382.8125,-101.9320,-43.5697,-52.6159,-40.5474,85.4922,29.7358,196.5306,107.3324,224.1050,-25.0243,0.6725,-54.9754,-648.1298,2.2755,-39.3173,-3.1619,-82.4905,126.4396,212.4518,-33.0216
-3375.0000,-110.7720,-36.4914,-59.5790,-48.4347,78.7130,-14.4071,189.6417,70.3932,364.2986,4.9698,-42.9361,-24.3088,-580.2762,-78.4981,-46.0362,-10.0057,-20.3783,47.4223,168.9504,-76.9600
-3367.1875,-34.4690,-32.3365,-54.3869,-79.1681,121.0922,-9.3891,157.9143,47.3839,405.6350,-26.8770,-0.3897,-55.5083,-501.4577,-110.1450,-40.5935,-4.6810,-15.1010,-17.4383,139.6054,-71.7185
-3359.3750,-63.8864,-27.7471,-12.8844,-37.5964,52.7702,-5.0625,52.4925,45.5347,300.2817,14.5830,-32.5370,-13.4257,-385.5152,-31.5170,-72.8372,36.9677,-8.5224,-10.9906,75.5685,-30.1496
-3351.5625,-95.0614,-49.2233,-12.1274,-69.7680,90.6987,-4.4795,90.3329,64.1558,81.2030,15.3021,-31.4296,-49.1131,-310.4972,-66.6691,2.1769,74.8882,29.3166,-44.2903,78.7883,7.6945
-3343.7500,-89.8817,-60.9769,-8.0113,-98.5861,131.9906,-36.5393,57.5368,46.4371,11.4887,56.3810,10.0331,-7.4695,-196.2958,-61.5040,6.5500,116.1812,-69.4910,-38.2365,14.3581,48.9145
-3335.9375,-37.5583,-29.4160,-27.7401,-82.2472,111.4343,-20.4381,-0.1112,52.0491,-45.0605,72.6199,-10.3528,9.3132,-143.1109,-45.2093,-13.9179,95.6465,-19.1454,-56.0254,31.0744,65.3103
-3328.1250,13.3493,-16.7287,-45.8662,-100.3036,93.4815,-74.7243,18.8489,11.5094,46.9957,17.4666,8.8643,-8.3249,-51.4953,-27.3404,5.2291,40.7316,32.8158,-40.2091,49.3964,47.3333
-3320.3125,37.0002,-33.1581,-20.2303,-77.6077,46.2842,-50.2539,-28.4348,-8.5076,146.7980,7.0730,-38.1599,-55.2280,11.7143,35.2551,32.1311,30.5919,-14.4745,-17.6322,2.4685,0.1311
-3312.5000,-0.8502,-20.4209,-59.0846,-44.4044,44.5901,21.7284,6.7819,9.3939,-1.9019,5.1908,-76.6816,-19.6480,-27.7303,33.3296,30.5401,65.9751,19.7458,-54.5469,-34.9578,-1.5487
-3304.6875,-15.8476,-21.7809,-75.0828,10.6490,-9.2461,41.5691,-47.1462,27.5046,-91.7453,62.1667,-56.3465,0.7617,-8.4787,53.2263,13.8105,86.2235,-66.1729,-34.6062,-49.5245,18.6441
-3296.8750,-108.5533,-56.4778,-62.7716,23.0092,-32.7869,54.7215,-70.7814,44.7365,31.7173,38.4501,-79.7052,-22.5414,39.9223,29.4033,27.3878,25.8018,-54.7924,12.6430,33.2034,-4.8377
-3289.0625,-100.1777,-70.2447,-51.3505,-38.5194,88.7725,28.9823,161.6889,30.4231,6.2714,-24.1584,-67.9610,-84.7526,86.2814,3.6618,75.0729,-36.5011,-45.2941,21.9941,78.0301,-30.1934
-3281.2500,-65.4060,-58.0007,-51.5234,-38.6409,52.7397,65.6514,124.5650,40.5817,-67.7672,-24.3587,-67.8099,-47.5792,121.9028,77.3027,2.1659,0.6065,-115.3927,126.7470,43.2521,-30.1273
-3273.4375,-89.2319,-23.6015,-77.2918,43.6435,-9.8940,112.7274,25.8383,65.3009,-93.3993,-13.1479,-129.2571,0.9856,94.7855,124.3218,-60.3342,12.1310,-34.0826,137.9003,54.8753,-18.6408
-3265.6250,-87.7078,-48.5141,-111.7050,45.2768,-8.1739,78.1611,27.4674,61.5437,19.3183,-48.5791,-127.3480,-71.1147,131.8805,125.6664,-21.4767,14.0227,-32.4093,139.4084,91.8544,-16.7834
-3257.8125,-109.9368,-97.7248,-97.8585,-11.8333,-30.1995,91.8529,42.3493,78.7005,34.2981,3.2444,-76.1857,-164.9794,182.1007,103.2459,-6.3646,-7.8218,16.5201,153.1719,105.0789,-38.6589
-3250.0000,-67.5720,-103.7153,-53.4058,-75.3438,87.3796,99.1531,85.8385,98.2497,-178.1130,83.6771,-68.4238,-231.2654,223.7968,0.4076,-35.6435,-0.0487,59.0633,124.5376,77.9066,-30.9171
-3242.1875,-28.9115,-89.3034,-12.6495,-71.5610,91.2654,102.7634,-57.3591,95.6884,-248.2129,87.4166,-64.3569,-190.2751,262.6748,-33.1579,-105.6118,77.0434,-7.0971,164.2105,12.0428,-26.8567
-3234.3750,-54.9023,-61.2439,-3.5408,-62.4287,64.5028,38.7287,-85.2060,44.3693,-164.9681,23.5197,-54.9400,-107.9474,232.7843,12.6029,-96.2282,13.4992,72.0950,102.2435,21.5332,-17.4293
-3226.5625,-20.4290,-39.1535,70.0205,-62.8507,64.1923,1.1451,-11.5901,-35.4053,-202.2628,-50.9250,55.9231,-72.1898,304.2220,85.7908,-59.3846,-60.5815,71.7473,31.7295,-49.5258,-17.5350
-3218.7500,4.8436,9.9671,58.3837,33.5260,-21.3167,26.3701,-96.1731,-55.7617,-250.7311,-25.5561,44.5859,27.3516,327.3497,110.7640,-70.7314,-34.8493,27.2014,-13.9746,-127.7847,8.1716
-3210.9375,57.1548,33.3137,0.8028,49.9591,-41.7661,5.6614,-79.6931,-83.9607,-197.1577,-82.1233,-12.7015,43.9273,304.4220,126.7736,-17.0299,-18.0508,7.7112,-67.6257,-146.9894,24.9441
-3203.1250,82.7146,26.0738,-45.5241,75.6469,-122.9576,-3.7905,-88.9553,-79.4801,-60.3289,-91.4402,15.2667,34.7473,329.6494,153.0224,10.9297,10.0082,-71.5437,-42.0292,-119.9487,15.9881
-3195.3125,41.9663,31.0608,-14.1546,105.0360,-165.4603,27.4568,-58.5211,-82.6468,8.2334,-133.0524,-27.0670,29.2626,358.4831,146.9576,5.6015,4.7815,28.8940,-82.7274,-125.2087,10.7536
-3187.5000,-5.5003,7.2534,11.5158,93.7234,-103.6579,-20.9921,4.2260,-109.1638,34.0955,-108.3553,35.9021,18.0627,417.5244,135.1733,-5.4132,-43.1266,17.6397,-128.1193,-136.1646,-0.1588
-3179.6875,-16.2861,18.1910,0.8937,118.1118,-114.1476,5.2656,-80.3224,-88.2424,-50.3438,-45.9499,-11.4269,81.5468,404.1844,161.0844,21.2845,-16.3134,-28.9188,-104.8019,-146.4137,-10.3466
-3171.8750,15.9023,48.9518,-2.7276,114.5021,-81.6397,38.5310,-9.8652,-45.0324,-162.7596,-12.5388,-51.7570,78.0165,324.7615,83.9855,-19.0080,17.5141,38.5230,-108.4818,-115.6510,-13.5127
-3164.0625,91.2168,47.3620,-34.2001,85.0346,-75.9827,6.9479,-41.2384,-39.6758,-156.9999,-6.9701,-8.9322,46.6279,364.4120,52.0254,23.8614,23.4997,-26.8837,-68.0074,-74.7324,-7.5133
-3156.2500,39.3140,-7.6216,-13.8671,33.3695,-55.5231,-9.8264,-20.8082,-34.1196,46.5619,13.4093,-62.3073,-6.9693,380.7899,34.8579,80.5342,-29.6997,-78.4937,-49.7255,-20.0158,-23.6994
-3148.4375,-83.7545,-88.3148,-67.6847,-54.4414,1.7944,-26.7444,109.4771,8.9875,249.9695,33.6549,-115.8347,-60.7270,324.9472,17.5279,101.0660,-9.0331,-95.2439,-30.5956,68.5505,-40.0158
-3140.6250,-182.0329,-135.3076,-97.7010,-47.4573,-28.0898,54.1381,79.5698,69.2580,147.2024,113.7114,-144.5583,-53.7004,328.8446,23.9842,35.4129,71.4516,-193.2052,46.3381,40.9146,-32.5148
-3132.8125,-172.9215,-120.3764,-124.3204,-38.0754,-55.5760,99.4285,53.0657,135.3155,9.8525,123.1746,-134.8825,-81.2858,335.0824,-4.1690,8.1667,81.3498,-78.7634,20.6785,156.6759,-22.6008
-3125.0000,-91.8650,-99.5248,-111.9880,-96.7480,31.8948,2.6740,139.5200,91.1344,96.4522,99.5918,-122.2599,-67.9354,344.2164,-65.3833,94.8789,58.2046,-102.3675,-3.0266,168.3855,-45.7230
-3117.1875,-57.1731,-81.9539,-112.0021,-131.7664,105.0163,-34.4276,139.6265,34.4403,133.7068,62.6609,-121.9890,-30.9434,340.9488,-65.9488,58.2471,22.7134,-102.3235,-3.0757,97.7488,-45.1840
-3109.3750,2.1084,-73.2969,-51.4202,-142.1915,128.7430,-47.9259,126.3475,1.0427,83.5862,50.3359,-61.1193,-81.3665,361.2306,-79.9217,46.2219,-27.1779,-78.6701,-14.5223,51.7197,-21.0376
-3101.5625,40.2410,-95.3923,-47.9846,-174.7733,95.3172,-7.5709,56.9295,18.4885,51.3410,89.8592,-20.3970,-113.9507,361.3202,-77.0553,86.0534,13.7844,-144.1723,23.8877,20.5408,-17.0343
-3093.7500,6.6610,-93.0586,-46.2520,-137.0533,97.1937,-5.9077,58.8157,28.2404,89.4031,128.6934,-55.3787,-112.2442,323.6691,-75.8899,88.1808,16.0509,-108.3791,-9.3912,22.6670,-14.7233
-3085.9375,-34.2798,-102.8748,-15.8749,-142.6877,54.7358,-49.5926,52.3735,16.9264,157.1202,122.1824,-24.7207,-81.8992,350.6333,-118.0809,118.9596,46.9688,-111.9317,-50.0145,18.4573,16.2426
-3078.1250,-112.3771,-115.0790,-25.6487,-79.4758,8.1366,-22.4249,-31.2041,48.3081,74.6970,149.5270,-34.2148,-54.7146,374.4177,-55.4306,73.5942,111.7424,-120.6375,-57.7818,10.1012,44.0598
-3070.3125,-140.3735,-125.5831,18.6758,-108.1642,15.6459,-15.1509,-23.6710,51.3340,8.3753,120.9768,-26.6076,-83.4481,341.2724,-12.6889,118.3304,45.6209,-43.2391,-50.4506,53.8449,51.9812
-3062.5000,-84.4214,-102.0752,3.9534,-86.9093,1.1028,-29.9200,-1.1881,43.9614,105.0056,142.3825,-41.0519,-62.2409,323.0562,-27.9963,104.0188,68.4546,-91.9042,-65.1662,39.5354,37.8610
-3054.6875,-57.6823,-78.1043,-39.9782,-93.8582,-5.6473,0.1132,29.0977,80.6005,98.4569,172.5934,-83.7064,-33.2393,238.6265,1.4972,60.5164,62.0925,-64.7840,-72.0794,103.0256,31.5483
-3046.8750,37.0479,-48.8673,-86.9151,-70.8181,-16.3925,-10.8508,55.4063,5.8066,160.9180,88.8060,-58.3630,-44.2464,261.1761,26.9888,123.0275,14.7346,-75.6671,-116.9933,22.5123,21.2429
-3039.0625,92.7342,-2.6712,-64.8995,-14.8277,-67.1907,-24.8621,-32.3394,-38.8735,184.3310,37.9741,-72.0641,15.6881,280.6707,49.4294,109.4906,1.3345,-89.6074,-130.9543,-27.0586,7.8944
-3031.2500,57.7738,6.8954,-64.5390,-14.4868,-66.6376,-24.5203,42.2646,-23.5227,38.0923,38.4981,-34.4208,15.9651,240.5070,12.2160,74.3019,-34.7195,-19.1900,-96.5622,9.7206,8.8990
-3023.4375,34.8673,-14.4940,-88.1293,-2.1023,-90.0288,24.8674,-19.0692,24.4061,-60.0860,88.0707,-58.7325,28.2895,249.3935,61.0538,50.1736,15.2687,-146.7216,-14.1275,22.5428,21.9529
-3015.6250,14.9634,-34.1364,-107.7181,-20.7146,-146.4237,41.2569,-75.4046,68.0731,-43.2559,104.6400,-78.0473,7.6139,225.2780,39.8997,30.0460,69.2587,-130.2579,-32.6948,74.3523,39.0077
-3007.8125,74.1526,-60.3028,-119.2082,-101.2260,-120.7176,-7.2508,23.3674,48.9386,56.6800,93.3148,-16.2680,-40.9678,284.2696,-9.1562,93.0164,58.3511,-211.6901,-79.1664,98.2578,28.1680
-3000.0000,-27.0595,-88.9427,-78.0941,-62.1461,-79.4126,-2.1618,-8.2596,48.4142,99.2230,134.5928,-47.8852,1.0384,285.8773,-4.6195,98.5899,101.0511,-312.5276,-39.0332,33.7568,33.9350
-2992.1875,-131.4155,-120.2235,-152.1261,-60.2178,-79.2671,-3.2227,27.9601,85.9272,98.6070,170.7274,-83.6531,-0.1135,281.3469,-6.2283,98.0121,137.6042,-276.5173,-3.0495,70.1025,70.5580
-2984.3750,-203.8185,-162.6343,-117.2119,-98.3443,-45.1733,-41.3333,26.1303,66.8264,206.9358,132.8188,-49.4755,-2.3191,312.7819,-8.8818,96.3948,136.1063,-313.5626,-5.1111,68.3989,69.1368
-2976.5625,-146.4837,-112.4685,-92.5557,-74.7226,-57.3356,-53.6862,14.0504,24.9338,122.0320,83.6666,-25.5566,22.2178,333.9854,15.2204,84.5337,50.3606,-219.8680,-17.4113,56.4452,57.4668
-2968.7500,-13.0202,-31.1358,-26.7595,-80.9580,9.6520,-95.8871,45.1302,-14.4029,-31.7023,-33.3270,5.5054,15.8919,287.3591,-28.5269,78.8307,-29.2351,-85.0242,11.4373,85.6471,51.9457
-2960.9375,14.8949,-10.4767,3.4893,-53.7534,3.0941,-66.6428,-35.3295,1.6221,36.0221,-75.8692,-37.9846,9.0082,240.2149,-71.8261,35.5750,-35.3841,-91.7452,145.7355,114.2941,45.8740
-2953.1250,-44.0292,-26.8575,-20.1201,-42.4076,53.6841,-54.2484,15.3645,16.7331,86.9061,-99.2625,-61.3294,-14.7281,213.2454,-22.9715,12.4753,-58.3894,-46.3152,157.1844,161.0873,22.9524
-2945.3125,-48.3983,-40.1376,12.8252,-46.5157,86.8267,-58.3030,85.6210,-10.6933,46.3272,-176.1063,8.8797,-55.9192,279.8586,9.4381,8.9323,-61.8508,-50.3366,189.1778,122.4277,19.5854
-2937.5000,-26.3808,8.1708,0.1754,11.7799,37.3683,-33.9524,36.2704,-48.4353,71.1427,-188.5389,-3.5110,5.2852,299.9116,-3.7425,-3.2154,-73.9106,43.0295,176.5767,40.1652,7.6227
-2929.6875,-37.5154,23.9053,-10.6351,35.9145,99.7547,-44.7504,98.7781,-41.5737,23.8180,-162.1178,-14.0591,-5.6723,285.8535,-52.0706,-13.5144,-47.1228,137.2479,129.8276,29.7608,-2.4897
-2921.8750,-59.6961,19.8770,41.4999,48.9861,42.0883,-66.6026,41.2465,-42.3355,-34.5372,-111.7488,38.3376,46.3148,260.7894,-37.4472,-34.8624,-31.3895,45.3982,144.0323,8.3016,-23.6578
-2914.0625,-31.2469,38.0208,34.2824,41.7080,35.0631,-36.8033,34.3576,-67.4773,-41.2287,-118.7184,-5.6230,74.9488,214.4163,28.8299,-41.5617,-75.0051,73.1970,65.8891,-33.5145,-30.1801
-2906.2500,19.4455,67.4019,13.3107,57.6751,14.2889,-20.7579,13.7252,-114.2449,12.3417,-138.4280,-26.3386,127.8283,227.3351,80.3596,11.9975,-131.3756,54.2430,11.9928,-88.0853,-13.4548
-2898.4375,23.0047,77.9447,-19.8144,131.4808,-55.6373,20.1383,-93.0538,-89.8549,-20.2290,-134.2808,-59.2045,131.5506,228.1530,194.7510,-20.5919,-90.9041,58.1257,15.9442,-83.8140,-8.8852
