Time,Fp1,Fp2,F3,F4,C3,C4,P3,P4,O1,O2,F7,F8,T7,T8,P7,P8,Fz,Cz,Pz,ref
-4000.0000,-40.2430,93.0385,-23.2158,42.6993,-24.0921,40.3970,-14.6394,54.9690,-19.9819,37.5002,-36.5936,22.3690,-55.3518,3.3052,-34.8023,32.3754,-41.0094,-4.3105,-60.3004,27.8865
-3992.1875,-0.2929,-110.9696,21.1742,13.9876,20.2733,-62.6380,-7.1740,-47.4217,24.6635,8.9639,80.4676,-6.5307,60.5486,-25.8767,45.5232,3.8059,70.1931,-137.6735,49.6942,-0.7180
-3984.3750,120.3178,-94.3428,108.2212,-41.0773,33.2942,-121.0313,79.9507,-142.1660,148.9688,-50.9264,130.1775,-65.7799,73.0975,-48.4046,95.4960,-56.1169,14.0423,-193.3884,-40.6616,50.3291
-3976.5625,92.6695,92.0465,5.0154,-101.3971,-105.9385,-150.6887,-96.1827,-134.1623,119.0362,-42.0613,99.6306,14.7192,79.3968,-4.1882,102.2260,-11.2914,92.6405,-149.3494,2.7456,95.1335
-3968.7500,174.2188,-140.3938,91.0103,-88.5233,-166.9642,-174.1611,-120.1093,-156.9657,95.3109,-28.9919,149.2879,28.4197,91.9041,-27.7826,115.1781,2.7352,139.4404,-138.1149,82.3652,72.1362
-3960.9375,86.9137,55.3244,35.1568,-69.5045,-185.8394,-119.5016,-138.8820,-101.6178,75.7398,-9.7676,56.0892,46.2684,36.5589,-9.2290,23.2842,20.9173,18.3822,-48.7261,101.1337,127.2996
-3953.1250,-33.4989,-65.0637,-51.8061,-83.5947,-89.8174,-132.9524,-116.7619,-78.3723,25.0617,50.3619,40.7891,33.0156,57.1158,12.2305,8.2908,45.0132,36.2350,40.5672,225.8203,77.3663
-3945.3125,14.4428,-189.1269,-36.4086,-103.3401,35.5639,-79.0630,8.7133,-24.7792,78.7463,30.8391,19.8421,-23.8923,36.0293,-7.9613,-12.3553,-11.5424,-19.5621,56.2117,169.8606,57.7823
-3937.5000,-42.8731,-69.4220,-94.2634,-124.3383,13.6915,8.5651,-49.0657,28.5637,-16.8119,10.0658,-38.3648,-45.0492,13.6867,81.5977,1.7442,4.6483,28.3938,69.6173,182.6609,36.9536
-3929.6875,-8.3875,-348.9459,-17.3149,-89.5418,128.6254,49.9799,28.9649,-3.2997,-11.5649,-94.9140,2.2286,-76.4111,55.1517,48.9518,116.6530,-26.3549,63.1616,68.8246,182.2729,-68.0797
-3921.8750,-45.5041,-138.0625,54.0401,-54.3513,199.9606,48.7802,99.4004,-3.7630,-13.9137,-133.4940,-37.7825,-115.3715,52.0158,-63.3004,40.9662,-27.9534,27.3261,68.4329,75.2816,-32.7075
-3914.0625,-80.6247,-171.1775,19.3921,-53.1689,165.2955,50.5642,28.8274,-37.2322,-11.2603,-93.0646,1.2002,-112.3323,89.8775,-60.5490,6.2899,11.4429,133.5041,69.0443,110.3072,-66.3357
-3906.2500,26.6225,-272.9682,96.1060,-15.6385,241.9909,17.6847,105.6184,-69.3585,65.7558,-125.2926,40.5378,-107.9484,130.0937,-93.4568,-27.0345,-56.8253,100.0372,36.0037,6.6915,-98.6196
-3898.4375,-11.1733,-27.7905,54.7733,17.8395,164.6346,14.7449,64.3532,-72.5352,25.7182,-128.5635,36.8220,-74.6171,88.2560,-23.4209,-68.4195,-60.1437,132.5254,-1.0816,-66.9731,-64.9486
-3890.6250,6.8873,-218.7901,114.2975,38.1640,150.1339,-0.3558,49.9275,-85.8671,-25.4738,-104.9820,94.9642,-15.4389,110.2759,-1.5381,-8.9424,-73.6090,150.8753,-52.3164,-12.7764,-115.4354
-3882.8125,57.2564,-60.4973,91.1301,18.7827,89.9403,-22.1661,63.8119,-70.9030,25.6464,-90.1050,71.4045,-36.9668,86.6009,-23.3533,-69.1635,-58.7822,95.5237,-36.2565,-68.2817,-63.6214
-3875.0000,-15.2254,-26.0459,16.1110,-17.4570,-59.1066,-23.8425,-48.1577,1.2039,-13.0856,-17.0816,32.9943,-1.3418,84.0826,-25.0232,2.7684,13.1995,93.3330,-3.0470,70.3773,-64.6556
-3867.1875,42.5541,-212.3766,40.3524,-63.4547,-70.8942,-35.2763,50.1272,27.5581,48.4306,45.1888,56.8384,-49.4751,71.8219,-36.4472,100.9618,39.4285,-23.6032,-14.5873,58.2939,-75.4415
-3859.3750,-59.6692,4.3091,-69.4068,-129.4600,-106.6880,-34.7135,14.4051,65.9134,12.9488,83.4557,-16.3245,-48.6090,35.5575,38.1286,102.1513,41.6626,-90.5382,94.8765,62.2223,-0.2217
-3851.5625,-104.3424,-214.4769,-76.6176,-137.9245,-3.9347,-41.6084,80.2369,59.8110,43.0219,40.2720,-23.9331,-18.1982,64.8505,31.2495,130.9018,-1.5532,-28.9159,121.8935,122.7264,-43.4588
-3843.7500,-70.4519,-143.7218,-79.2700,-102.8500,67.3793,30.0333,151.6364,58.2564,113.6596,-71.3606,-63.9931,-20.2450,-12.3048,28.9133,55.2074,-40.2250,-100.7526,156.4582,51.7788,-8.1475
-3835.9375,-140.1138,-71.5125,-151.4738,-67.3345,30.1405,67.1057,78.4785,23.1477,40.7481,-33.5405,-100.5985,17.1562,-50.0024,66.0257,17.9699,34.5564,4.8648,120.4726,121.2926,-7.3824
-3828.1250,-86.1598,-225.7409,-55.0716,-45.2291,127.5062,90.7622,64.9243,10.6299,64.4405,-8.1183,-77.5916,41.1509,10.9114,52.7401,42.3389,-14.0596,25.0893,-33.9142,71.4133,-56.0220
-3820.3125,-112.8948,29.3395,-51.3655,-37.8355,58.1744,95.7008,-4.3244,53.4087,32.4386,-3.4006,-109.2858,46.4445,-22.8732,94.7542,9.0083,27.6207,-3.3881,-96.9963,-27.1680,22.6427
-3812.5000,-55.6238,-121.5954,-25.6568,-48.4481,-27.1563,84.6240,-88.5767,6.1744,-52.5671,23.3112,-11.9706,72.7316,76.3543,156.7626,71.6884,17.2994,56.1569,-142.0718,-3.7383,12.3023
-3804.6875,102.9137,-67.2969,66.3230,6.1892,-9.2252,28.7847,-70.5721,-48.8204,-70.3242,5.2536,42.6031,127.2687,56.8431,138.0141,15.6240,-37.7907,38.9586,-194.8953,-161.0599,31.2091
-3796.8750,58.3507,171.9157,18.2017,67.7275,-56.3931,-55.1661,-154.6753,-94.9253,-191.1901,32.0887,31.0748,190.7104,8.2324,128.1671,-31.5418,-10.9836,134.6757,-203.8121,-100.4708,58.0136
-3789.0625,117.2001,-13.5005,119.4890,92.6648,-66.1458,-173.7299,-126.3723,-139.6460,-125.6588,-12.6895,95.9588,145.5472,73.0363,82.7123,-4.2991,18.2187,194.8024,-214.3281,-76.4654,13.2058
-3781.2500,103.3635,149.3925,140.0858,114.8908,-155.5943,-338.0060,-180.7628,-118.0707,-32.8264,44.8231,41.1441,92.6755,18.1401,65.5576,-56.7593,38.7164,145.2289,-122.5385,-20.1577,70.6975
-3773.4375,44.0845,-13.1731,79.2315,56.6562,-142.4916,-398.7472,-167.6072,-104.9525,-20.4421,95.8845,53.8819,69.3461,30.8063,78.9462,-8.6637,52.7561,121.2241,-41.1964,166.7252,47.7314
-3765.6250,42.7763,-83.8183,41.3433,21.3587,2.5759,-362.5519,14.5154,-68.8939,126.9033,58.8846,15.5779,31.9604,29.4330,41.2717,27.3892,15.7391,-20.8287,-41.9075,60.5629,47.7088
-3757.8125,-38.5235,83.5497,-79.5467,-58.9464,27.6442,-300.3681,-33.3666,-42.8397,78.2495,121.8824,-32.7237,20.5698,17.0641,66.5935,52.4355,41.7205,-100.8738,54.3797,49.4110,73.6886
-3750.0000,-33.2643,-225.5671,-71.8756,-122.7084,110.2607,-217.6405,12.3019,4.7535,88.1475,131.4287,-24.4638,-80.2747,63.2548,39.4701,172.0373,88.2474,-95.3568,60.2160,90.8272,10.2060
-3742.1875,-71.3909,-122.0806,-75.6005,-123.8803,142.4799,-148.3261,81.5792,74.9437,83.6514,54.5699,-65.6073,-83.5267,21.0439,-39.0555,94.2533,121.3661,-168.2457,127.6557,52.8515,43.3189
-3734.3750,-152.7665,-167.8467,-86.5814,-136.3183,132.4455,-122.2769,34.6092,64.8825,-0.0989,45.4575,-39.9944,-57.0346,47.5950,-11.8396,47.2350,112.2316,-40.3741,151.8502,181.6502,-2.8253
-3726.5625,-0.1721,-258.6953,39.4011,-87.8148,147.3734,-71.2926,85.6038,43.7584,15.1081,-49.7126,11.5869,-78.6061,62.1122,40.3139,-11.8290,-18.9597,-26.5456,93.9885,88.4123,-24.0308
-3718.7500,-22.0180,3.0186,14.9317,-1.7622,12.8520,-58.7652,-48.8602,21.1749,-9.1355,-109.3368,-13.2824,8.3700,0.1802,90.0206,-72.3505,-5.6007,22.8367,73.6822,67.7309,26.3138
-3710.9375,68.9490,-186.4927,39.2678,19.0817,37.1350,-71.4485,12.4783,-27.6183,15.4157,-122.1656,47.6592,33.1435,24.0643,40.5302,24.9354,-17.4494,43.0291,-45.8272,87.8662,-22.5539
-3703.1250,130.0334,-17.9141,63.7133,11.0170,24.5343,-119.0381,36.9313,-39.3173,114.0656,-59.9030,-2.2957,21.0106,-25.9468,-8.8650,49.3210,-29.2061,-36.6751,-124.2391,-26.8997,39.6736
-3695.3125,26.5213,55.0661,-8.4389,-22.6480,-83.6729,-191.2333,-71.2357,-73.6218,152.0987,16.7589,-0.8426,23.2794,12.4472,-6.8607,125.1066,10.4373,71.0395,-122.2420,45.7443,42.2965
-3687.5000,77.5833,-103.4336,83.9754,-4.7652,-66.3263,-246.8811,20.1488,-91.3870,244.6786,-1.0430,54.1753,5.0906,30.4029,-62.3121,142.4482,-44.3866,17.3175,-106.6876,26.9466,24.4552
-3679.6875,31.3576,98.7800,33.0967,-15.1895,-115.2778,-296.8367,-29.7668,-102.4612,230.9608,59.8389,2.8985,-8.4037,16.0646,-38.0633,92.4824,-20.5221,-28.6961,-11.4232,15.8519,85.3092
-3671.8750,33.9461,-109.2317,0.0195,-47.8189,-39.4210,-293.0054,-26.8767,-98.7457,161.0441,101.5146,43.4297,-41.1052,56.5348,-35.0196,133.3229,21.1328,8.1046,-9.3545,88.5808,52.9488
-3664.0625,62.2564,-79.5582,28.6552,-53.7610,26.1596,-227.4872,38.7309,-69.3412,153.8315,56.8797,-2.3353,-48.1183,10.7131,-78.2895,50.8689,50.4775,-67.3957,19.4185,46.0180,82.2772
-3656.2500,-63.5787,7.9666,-63.8569,-37.8648,-30.4044,-137.1347,-17.8126,-15.0929,97.4662,38.0924,-58.2492,5.7118,-45.2493,-61.7142,-5.7285,68.6705,16.9615,106.0467,132.3259,63.4448
-3648.4375,0.4585,-207.6954,6.4904,-8.1314,3.8945,-30.9405,53.5118,-17.0051,130.9550,-37.8555,-25.2930,-70.6195,-49.3492,-28.2942,28.5380,-7.3006,46.1751,99.5218,125.4961,-12.5569
-3640.6250,-14.6825,-11.5469,26.6417,12.3922,-13.0031,26.0481,-37.3550,40.8782,78.2462,-54.0161,-115.5296,-50.1563,-102.6419,65.9226,-25.3990,-60.4838,31.1831,119.8004,75.4663,8.2355
-3632.8125,5.9316,-130.6660,14.5450,33.6539,11.8549,49.7796,-123.4729,-7.4947,-7.7202,8.5626,-18.0031,-24.9465,-42.1675,52.8883,-0.5762,-71.9197,86.9517,70.8301,132.2029,-40.2340
-3625.0000,51.3157,-83.0527,61.2076,44.6608,22.4721,24.2577,-38.8267,3.8756,76.0670,-17.1204,-7.7174,-13.9945,-68.9344,-46.4014,-63.9978,-60.6126,27.4696,81.6071,36.6871,-28.9624
-3617.1875,8.9113,121.7791,-20.9336,72.8619,-97.7223,14.9317,-84.9871,-4.5621,-5.9517,11.3876,-54.2200,14.1600,-78.4937,-92.4862,-73.2192,4.8899,55.1929,109.5804,99.3748,-0.4934
-3609.3750,71.1344,-95.8179,46.5341,65.6583,-29.3156,-27.8009,20.4548,-46.4145,25.6287,-67.5204,49.8986,8.9065,-10.4364,-97.9686,-4.8276,-37.0190,82.5261,-2.8534,91.6703,-42.4377
-3601.5625,78.8288,123.0445,51.4578,38.8937,-98.4571,-61.0887,24.3496,-41.8268,66.6627,-98.9861,54.4776,13.0958,-6.9195,-57.0093,-0.9841,-69.4887,20.3091,-65.8356,-6.5865,36.0630
-3593.7500,87.5307,27.9025,23.3805,48.1226,-199.5996,-88.3883,-76.7555,-105.2480,1.6893,-53.4506,63.0683,22.2827,38.6081,-11.0652,81.8662,14.0395,99.1075,-91.8157,73.1733,45.5518
-3585.9375,97.7614,-31.7595,70.8168,58.8477,-189.2286,-114.1924,6.6502,-94.1791,86.2154,-5.4267,36.1699,-4.0414,11.6495,-37.6295,129.2143,-11.9471,3.4127,-81.2946,12.4338,56.5274
-3578.1250,-27.0516,126.5415,-59.7959,4.5226,-135.9064,-135.0514,-13.9998,-41.1670,28.6859,122.5386,-21.7760,12.5804,-9.3578,-57.2337,71.5092,42.0081,-15.3257,-29.8192,64.6518,73.4465
-3570.3125,1.7047,-125.6370,10.1448,-36.2544,43.9693,-139.3627,92.8968,-43.6168,-11.3008,82.0476,48.8447,-27.2533,61.1963,-98.2867,68.3688,75.5038,-21.5025,-35.7949,57.4364,-3.1041
-3562.5000,10.2876,59.9842,16.8961,-63.2446,87.6521,-59.8800,63.6013,0.7288,-41.4797,90.3460,-18.7222,-20.2931,-6.4426,-54.5425,-71.9769,46.7854,-48.8787,8.0278,-39.9815,41.1325
-3554.6875,-67.4647,-15.7456,12.2951,-104.5915,81.9865,9.2496,-15.0495,33.7146,-119.0179,85.2900,-23.6277,-24.6904,-48.4181,-22.1527,-40.6718,42.7091,50.4092,106.5016,59.2654,0.0087
-3546.8750,31.3047,-198.0061,80.2109,-111.4488,187.8344,39.8725,126.8137,28.1867,-51.0579,-29.2781,-29.0141,-103.5989,-16.8765,-27.2749,-8.8621,-72.8750,78.2034,100.4762,17.0194,-41.6296
-3539.0625,18.5902,1.2524,65.6332,-88.8114,99.1933,61.9826,75.1806,15.1428,-65.6061,-117.3531,-80.8951,-44.0094,-31.8315,-41.9038,-60.5622,-49.9657,100.5055,157.9606,4.2744,-18.7774
-3531.2500,28.3496,-164.0603,79.5132,-42.7249,113.0143,38.5350,89.0064,-44.4664,-14.7197,-177.0036,-30.3044,-66.9751,54.6831,-102.0846,26.1982,-72.6276,146.2769,132.8978,84.9915,-78.4994
-3523.4375,38.4921,-47.0278,124.7637,2.7087,84.2027,10.4389,97.1919,-72.7357,30.5063,-167.3288,-59.3521,-95.5984,26.5569,-93.9199,35.3084,-63.9638,50.4007,143.1856,-10.9426,-32.8870
-3515.6250,-37.1493,-16.7871,82.2166,-72.6627,41.5943,-32.4537,18.5734,-77.8135,-12.0851,-25.4696,-28.1867,-64.0240,56.6414,-62.5621,65.6157,-32.1114,79.7392,66.6791,88.3341,-38.0889
-3507.8125,56.2894,-168.5264,144.7328,-119.9936,67.0502,-81.2971,80.0191,-88.8507,13.3708,73.4149,70.0488,-75.4104,81.7973,-74.1540,53.9769,-43.2251,33.1303,-49.7801,76.6669,-49.2600
-3500.0000,20.4920,42.5053,67.0026,-85.5779,-84.7392,-86.3890,-34.7844,-56.1450,8.5679,143.0347,29.0452,-43.0518,40.7115,-4.9936,13.0784,-10.5992,32.2687,-51.4821,40.7468,20.3092
-3492.1875,47.0596,-141.1315,59.6237,-57.8178,-91.1724,-130.1311,-4.2432,-136.0985,39.1039,136.9950,58.4080,-49.3503,69.9891,-48.4828,43.5410,-16.6320,93.7705,11.1668,138.1930,-22.7912
-3484.3750,63.2965,-53.1323,75.9044,-41.4124,-0.9448,-150.2187,84.9624,-119.4068,55.2909,79.5924,38.4299,-33.0092,49.9269,-142.3327,-14.3387,-37.0268,4.9211,97.4635,48.2915,-6.2572
-3476.5625,-46.9608,12.3766,-2.3198,-82.5103,-6.2128,-119.8038,79.6645,-50.2220,-61.0238,111.6823,-4.0453,-75.1693,7.3723,-147.6841,54.2791,-4.9284,34.5757,163.2669,148.9006,-11.2375
-3468.7500,-17.4923,-203.4476,67.1646,-86.9133,100.2333,-12.6843,150.0766,-16.3460,-101.6382,34.4588,28.1997,-115.6403,39.5351,-78.3348,49.5959,-45.1506,-6.0607,157.7673,108.2146,-51.5379
-3460.9375,-36.5079,24.2449,8.1545,-106.8200,77.1868,110.9375,53.9918,71.0260,-123.7633,12.7265,-68.0417,-101.6134,-19.7995,9.5083,-46.5952,-30.8808,-25.2016,138.7737,53.0194,-0.3461
-3453.1250,-28.3105,-142.8744,-16.6567,-97.5329,126.3411,159.7555,28.1034,46.5879,-149.7018,24.1871,-56.0644,-89.3951,28.0774,20.5466,-34.5776,-18.4136,52.8683,111.9905,97.0416,-61.9725
-3445.3125,70.1648,-149.7629,48.7927,-69.9978,155.7541,187.8277,94.4733,76.3899,-83.3881,-19.1173,-63.8257,-96.9390,-15.7918,-23.1695,-79.3090,-25.7105,10.1917,69.4644,-16.6800,-69.3670
-3437.5000,-48.3995,14.3106,-1.8079,-12.5173,30.1153,209.8594,-30.2169,99.1450,-135.1366,3.5186,-115.6324,-74.5401,-67.7062,-0.9310,-57.1039,32.9373,103.4736,91.8969,5.5596,-46.8246
-3429.6875,-23.8919,-171.5977,62.6500,12.0097,21.5370,200.9522,34.1488,53.9426,-69.8469,-41.8086,-87.3721,-83.0975,-39.5535,-46.6407,44.1498,-12.3770,127.8180,81.3735,29.8569,-92.2524
-3421.8750,-70.4074,63.4614,47.0671,0.4881,42.9123,148.9916,55.4674,38.6799,-11.6102,-57.2055,-140.1517,-61.6946,-92.4483,-62.4015,-7.6512,-26.7602,80.1149,68.7917,18.0980,-33.7419
-3414.0625,-64.6076,-35.1764,-18.2142,6.2680,-22.4126,119.3319,63.0773,-26.2928,31.9037,-49.3145,-95.6171,-16.9847,-48.0328,-17.8630,-0.1489,-18.8544,121.7290,4.5085,129.6510,-62.9505
-3406.2500,28.8180,-81.2338,5.1170,-5.3506,-73.1227,105.2808,123.2895,-2.6720,203.0099,11.1602,-109.4650,-30.6836,-62.0077,-68.7294,-51.0441,-32.3602,3.9448,-42.1729,117.8003,-39.5789
-3398.4375,-90.4438,81.0282,-86.2494,-18.6659,-199.5322,87.5361,32.7974,54.2477,222.4019,67.9199,-162.0095,-48.0901,-115.6757,-49.2914,-31.6509,24.4240,-9.5286,14.4531,209.2472,17.0821
-3390.6250,-103.1379,-142.1832,-97.0538,-102.4332,-64.3812,39.3423,94.8607,6.7032,284.3354,56.2089,-63.9830,-58.9477,-53.7769,-60.3007,141.2901,13.7387,-57.4322,1.6269,196.2505,-30.7271
-3382.8125,-57.7056,44.7175,-124.7525,-127.0969,54.8777,11.2551,177.0307,-21.7503,292.3616,28.5786,-92.8498,-13.7091,-45.7755,-52.2094,112.3263,-88.8611,-188.2366,11.9000,65.3467,14.5526
-3375.0000,-121.7606,-18.8760,-189.9561,-121.2594,98.6341,54.6761,110.6932,-13.7072,226.8743,36.4380,-85.2008,-42.9763,35.7335,-7.6198,156.8629,-80.9698,-147.5297,-17.3225,141.9514,-14.6850
-3367.1875,-74.5964,-183.2936,-67.9493,-74.2246,185.6071,141.3055,197.5673,-0.4675,238.5806,-61.5169,-72.3362,-67.0536,47.4575,-68.8360,95.6074,-30.8955,-171.6195,-6.3486,11.7565,-38.7441
-3359.3750,-179.5724,63.1538,-143.0927,-75.3404,109.4286,248.7948,121.2886,107.6201,89.1280,-63.6310,-111.6126,-32.2856,-27.9639,2.7974,20.1875,41.0210,-170.8617,28.4846,-23.5827,-3.9616
-3351.5625,-144.4861,-146.3754,-139.1866,-73.4110,114.3060,290.3401,89.0566,112.7520,-16.2838,-95.7006,-32.8226,-27.4764,49.6768,80.4842,97.8185,7.9836,-100.0500,29.3765,-22.8522,-73.1494
-3343.7500,-115.2325,-45.7607,-110.1258,-44.3384,106.3447,356.0433,80.9847,142.0298,12.4584,-140.6275,-40.8764,-35.5242,41.4691,72.3223,52.5978,1.0823,-177.0975,23.4253,-134.9726,-44.2020
-3335.9375,-195.5782,-20.7388,-157.6698,-19.8700,21.7854,308.1533,33.3135,131.7024,-72.4084,-114.1671,21.4784,-9.1726,104.6693,98.5646,41.7740,26.5657,-81.7338,12.8834,-74.6806,-54.8706
-3328.1250,-63.0010,-169.8426,-17.2986,6.5021,162.1404,264.1708,100.5512,51.2704,-79.3875,-120.8226,88.7538,-16.9286,134.7818,17.6999,-2.1487,-53.0656,-90.4622,4.2364,-118.4910,-98.6587
-3320.3125,-23.9016,81.5724,-14.4247,10.3743,127.9969,191.6990,65.2813,53.3333,-151.8761,-81.9830,53.5372,21.8109,62.3977,-16.6685,-73.5788,-51.2044,-86.6943,43.0913,-150.8081,-59.9551
-3312.5000,31.5135,-109.7300,7.7414,30.5476,77.1524,140.5319,14.3051,2.6927,-129.0726,-58.8429,113.6378,44.8476,85.3260,-31.7312,22.3003,-29.0453,2.3743,-7.7548,-95.8239,-110.9701
-3304.6875,124.8470,18.8571,28.8101,17.6217,24.2136,51.2726,35.2370,-12.0482,2.6258,-0.8066,97.6545,28.7807,106.1619,-46.8812,7.0725,-81.0006,-115.6684,-54.6948,-178.9579,-53.0966
-3296.8750,-10.7727,94.5186,-41.0829,-47.2517,-45.6798,-18.9194,2.2050,-45.7339,5.3552,39.2735,100.7308,32.7696,109.0488,-43.9704,82.8809,-40.9071,-75.6602,-14.5773,-69.0443,-13.1829
-3289.0625,-19.7190,-160.1926,-11.3169,-91.4715,57.0886,-26.4543,141.8255,-52.7742,33.7166,-5.0127,130.4758,-48.5919,138.5994,-51.4129,186.3385,-48.1709,-83.9930,11.1837,-42.4788,-57.6393
-3281.2500,-39.6987,31.0579,-35.5917,-77.7440,69.8196,-14.0312,154.4031,-2.8723,-63.9778,-29.3682,69.1783,-36.0107,77.1066,-1.9077,51.7419,-35.4990,-105.3696,60.8890,-63.9682,-8.1572
-3273.4375,-42.3657,-112.4017,-36.5603,-44.7187,105.8600,20.6968,153.2768,-40.6813,-175.3851,-30.4387,68.2005,-37.1359,112.9288,32.8958,49.4497,-36.5405,32.5715,-12.1112,38.8525,-46.3933
-3265.6250,58.9903,-115.8832,32.4802,-48.6923,175.9128,90.4329,186.1571,-44.4942,-179.7868,-34.5248,64.2375,-41.2684,108.7610,-7.2992,9.1569,-40.5963,-41.4891,-51.1137,-70.3359,-50.6447
-3257.8125,-0.9506,0.3532,-30.7832,-38.9657,111.6610,173.8798,11.7312,2.3920,-280.4913,-24.9198,73.9764,5.2986,81.2942,38.2105,-129.4413,42.0365,38.1513,-6.4085,-25.8199,-41.2044
-3250.0000,38.1200,-207.4354,11.9553,-1.2407,154.4143,216.3358,17.3126,8.2757,-311.1966,-55.3294,117.7345,10.8594,124.8380,44.7191,-86.0354,-25.3360,76.7979,32.2950,-58.3020,-108.7819
-3242.1875,15.2039,16.7867,59.6974,46.4851,129.1747,226.8032,-8.1086,19.1589,-300.9044,-81.7513,17.5019,21.4202,61.3786,18.2288,-75.6389,-50.7154,18.4381,80.0029,-151.7947,-61.3671
-3234.3750,-7.8539,-41.1386,36.2886,59.0683,105.7834,203.1310,-68.6947,-4.1127,-324.7810,-142.3362,68.1317,34.8303,111.7806,31.5968,-25.4026,-74.2562,100.9427,91.5678,-69.4307,-85.1144
-3226.5625,88.8573,-85.3337,98.6364,84.4094,94.1558,191.2158,29.4770,-51.6429,-225.9186,-226.1838,93.5236,59.9902,99.9440,19.7118,-74.4150,-123.0542,20.1970,81.8824,-115.3252,-60.1274
-3218.7500,43.9239,151.8480,12.3347,109.1067,-29.1219,178.6554,-94.0109,-27.8256,-276.7228,-202.6884,44.2715,120.5017,50.4587,80.1795,-124.0819,-99.5073,45.8027,106.5524,-89.8764,0.2000
-3210.9375,65.2038,-37.7947,73.2347,131.0036,-115.1908,166.3011,-106.2960,-76.8137,-289.3389,-143.0025,105.2380,145.2126,74.1875,141.8475,-63.5484,-111.7678,66.6181,57.4209,-33.2229,-49.2925
-3203.1250,68.8467,211.9181,38.4938,134.2543,-222.8974,93.3063,-141.2246,-1.4494,-177.6094,6.0201,33.5651,146.2686,-34.7316,142.8734,-135.6842,-73.6940,-71.2219,95.6385,-101.2292,-11.4433
-3195.3125,-25.9585,222.1871,-97.7029,144.0558,-285.0605,67.8721,-166.6194,10.4645,-94.3410,90.5842,-28.5468,194.8748,-60.0942,117.4623,-51.2692,-25.0728,-96.5016,141.4054,-20.6840,-37.0551
-3187.5000,62.6078,100.7841,-77.5420,127.2134,-155.8630,50.7963,-36.6633,66.7221,-37.7280,110.4839,-8.2882,140.8291,-77.0947,63.4006,-31.4976,-5.1180,-183.4310,53.5193,-108.7972,-54.3337
-3179.6875,43.0298,327.2568,-136.5325,71.2269,-103.8137,28.5780,-58.8614,44.8304,-60.2751,88.2262,6.8241,118.6346,-62.2499,78.1913,-90.8899,9.6852,-133.5107,-36.5127,-94.0693,-39.7681
-3171.8750,146.6544,113.9078,-61.3230,69.4473,7.4387,-7.4277,15.1375,-27.8669,-23.6309,-21.8374,118.1413,119.6431,11.8032,42.1899,-53.0830,-100.3114,-65.3825,-109.3473,-61.1349,-113.0181
-3164.0625,299.5862,301.8651,23.1919,150.9730,55.9995,-33.1229,26.4427,-52.2642,-12.6896,-120.6124,129.7647,130.9525,-49.8418,16.4905,-115.9791,-200.0214,-53.9593,-168.8826,-225.9146,-101.9780
-3156.2500,345.4691,418.7877,35.6481,161.4520,-5.4954,-57.8560,-108.3135,-76.7096,-73.8111,-182.4473,178.3457,142.2184,-38.5335,28.7487,-140.9345,-187.7853,97.4176,-193.4633,-215.7422,-126.9957
-3148.4375,523.4694,313.7870,148.2095,198.0365,34.1140,-55.4785,-32.9714,-148.0622,-35.8390,-290.1934,218.0403,107.5819,-36.1195,-5.8906,-175.7928,-185.4581,132.9002,-262.9374,-285.4693,-161.9264
-3140.6250,533.7711,642.1027,157.0709,208.9257,-103.9815,-46.7837,-134.3363,-139.1117,-100.5745,-280.6517,264.0352,153.2459,-63.4094,-34.2208,-204.3631,-176.8371,108.6802,-252.0983,-414.9007,-116.5630
-3132.8125,677.5676,573.9070,199.4306,245.3177,-135.5761,-151.5773,-240.2060,-207.6595,-243.8268,-277.6158,452.5404,195.4088,-22.1930,-29.0394,-125.4315,-171.7275,180.9665,-320.7475,-413.8236,-185.7147
-3125.0000,858.3212,754.6512,276.7474,284.6641,-131.2111,-258.4080,-199.1140,-277.2542,-277.1291,-382.6422,568.0028,199.5182,-18.0193,-61.9104,-195.5624,-241.6777,114.1920,-316.4374,-514.8052,-181.9261
-3117.1875,883.7744,956.1118,230.7524,310.7118,-252.1438,-341.5293,-319.3330,-287.1490,-323.7345,-355.9724,631.1686,189.3284,8.8580,-109.0835,-243.0013,-214.9258,140.1181,-256.4210,-455.0875,-192.4424
-3109.3750,1014.9328,806.2395,221.4601,300.4637,-260.3709,-313.9417,-291.8523,-295.3444,-333.6395,-329.6028,734.0447,106.8352,73.4421,-117.5514,-251.7295,-223.4795,94.7438,-265.7065,-430.6715,-238.2716
-3101.5625,989.5400,1026.8337,191.6178,239.6711,-326.1497,-270.8985,-357.9287,-215.0856,-363.0969,-321.7823,666.3663,112.7935,6.4721,-74.5552,-355.0154,-217.5838,68.8164,-185.5426,-455.8173,-158.6547
-3093.7500,948.4421,845.7227,187.0684,198.1811,-295.6292,-275.5487,-362.7115,-219.5251,-405.2668,-291.6629,698.9955,35.0544,74.8066,-152.2436,-251.0038,-222.3911,133.1942,-122.0788,-322.6555,-200.7480
-3085.9375,943.0549,734.3002,254.2244,157.3908,-153.3931,-244.4915,-259.7843,-188.2657,-338.7327,-223.8476,656.3371,-44.9887,32.8424,-269.2389,-220.3017,-228.5083,56.2667,-92.9141,-362.8000,-207.1501
-3078.1250,764.0123,801.2451,177.7233,153.9536,-156.8116,-248.0701,-226.5211,-154.6506,-342.8567,-190.6828,543.0320,-122.6747,29.2287,-198.8840,-187.2636,-158.2661,87.6870,-96.3915,-262.6053,-211.2038
-3070.3125,751.6176,507.8132,202.8733,141.1770,-57.5806,-185.9840,-127.6139,-92.3866,-318.3379,-201.8715,495.3885,-133.7108,17.2774,-99.8707,-125.5737,-170.3793,110.7592,-179.2218,-274.7599,-259.6157
-3062.5000,620.5756,657.7429,172.3754,114.7518,-51.9991,-106.5397,-158.3577,-12.7687,-239.4714,-122.7202,317.0998,-91.3995,-50.3259,-57.4977,-193.5383,-91.1465,14.1732,-204.7001,-335.5772,-180.6765
-3054.6875,457.7238,494.8723,148.0716,127.5307,-39.2178,-56.8881,-182.9150,37.0449,-264.4185,-74.3752,257.0147,-78.8836,-0.7241,-81.9152,-218.2964,-41.7140,96.7931,-191.9695,-219.1896,-168.5440
-3046.8750,396.0826,292.1814,190.9761,170.5197,3.7699,-14.0301,-103.2711,80.0572,-185.1689,-104.8450,189.1403,-109.1635,-31.9181,-75.1239,-138.8600,-72.0902,69.6140,-185.0347,-246.6129,-126.2226
-3039.0625,182.0380,395.1121,74.4781,133.1243,-112.6470,-19.5614,-147.0373,73.6729,-155.3329,-37.7246,35.8650,-78.8347,-74.5154,-7.7193,-71.8363,-4.8742,102.0408,-117.4947,-109.4500,-59.3035
-3031.2500,126.9906,94.0135,127.9832,112.7343,-59.0592,-4.0843,-130.8041,53.2859,-139.4974,-21.6048,52.5979,-62.5068,14.8936,7.6850,-55.8122,-25.6603,151.4745,-172.9519,10.7188,-80.3963
-3023.4375,47.6423,154.6213,150.1895,103.0484,-73.7609,56.0953,-143.8694,112.6024,-116.9596,-36.7750,-71.9705,-40.4817,-36.0010,30.7871,-143.1006,-3.7460,106.5991,-111.7077,1.5777,15.2094
-3015.6250,-150.4672,27.4867,52.6329,45.6144,-97.2161,68.5288,-168.6935,89.1776,-105.1833,12.3050,-131.2894,-28.2038,-23.6440,80.1462,-59.1387,82.4203,153.9769,-29.2068,153.6926,27.0614
-3007.8125,-165.7207,-198.8209,71.9320,30.0313,-41.8140,50.8190,-40.6614,71.5996,-13.5535,68.2271,-148.7519,-46.0777,-4.4321,99.3618,-76.3151,101.4229,33.1996,26.1462,137.6520,45.7558
-3000.0000,-315.1874,-32.3149,-88.9677,20.2523,-54.6094,72.9071,-90.8319,93.8212,-27.1205,126.9447,-273.4169,-22.1502,-54.4204,158.3829,-53.6999,160.2265,-10.7794,86.3048,163.4055,141.2536
-2992.1875,-372.2609,-335.4328,-111.4702,-36.1229,-4.0062,124.3967,-39.6085,71.4426,-14.2916,104.0581,-221.6729,-44.8211,-4.0048,135.8138,143.3109,174.4394,-33.3495,99.8687,245.5676,118.1439
-2984.3750,-397.7352,-324.9537,-139.3725,-131.8877,41.1982,242.4983,77.2153,153.6706,30.1363,148.7587,-287.3331,-73.8875,-68.9945,106.8573,113.9205,182.2492,-164.3225,109.0334,220.3157,162.6338
-2976.5625,-525.8741,-312.1150,-237.9351,-154.2908,17.7357,328.9632,53.3753,240.2528,-31.0968,197.8096,-347.6463,-61.5979,-56.6381,156.2611,88.8802,267.4115,-151.9321,86.5502,267.4157,174.4711
-2968.7500,-583.6092,-546.9000,-226.0878,-142.2855,138.6798,377.8377,174.9337,288.2320,89.0756,172.2620,-372.5507,-12.9092,-44.8736,168.0640,64.2332,242.9655,-211.1354,29.4620,208.9071,185.6991
-2960.9375,-691.9493,-303.2688,-305.8434,-110.8761,60.0217,371.1168,95.8895,245.6148,155.6528,202.1113,-415.0552,17.1852,-87.7136,235.2728,94.9744,272.9218,-248.9478,25.7793,134.7854,252.3287
-2953.1250,-636.2491,-494.6059,-319.5490,-90.4140,46.4102,320.4532,44.8878,158.0466,215.2688,225.0066,-355.5035,3.3345,-65.4939,221.5402,226.7763,258.9260,-194.7057,10.1471,224.7183,201.0054
-2945.3125,-608.5991,-431.0013,-255.3021,-98.0005,36.7514,237.7453,71.8427,148.4335,314.8339,324.8545,-365.0011,-43.5707,-74.3197,101.7649,216.5300,248.8806,-272.5325,2.4644,216.5899,227.6361
-2937.5000,-700.9170,-347.3317,-316.0209,-84.5377,13.1348,177.0862,10.8323,161.8732,327.4456,374.7607,-424.4508,-30.4172,-61.1015,79.0560,192.3293,261.8951,-224.3158,50.8402,299.5129,240.3264
-2929.6875,-647.2899,-574.7395,-222.7871,-137.1201,70.4710,123.3784,67.7710,145.2605,384.0153,394.6129,-367.9461,-47.3098,-41.9287,98.3047,212.0811,244.8609,-241.1499,34.1692,282.3824,222.9640
-2921.8750,-640.4243,-392.8827,-219.3036,-165.4427,-36.9432,90.9225,32.9559,185.9042,459.8404,433.7160,-438.2023,-43.9438,-75.5124,101.8119,68.0746,247.0753,-235.7410,40.7528,288.4846,298.8581
-2914.0625,-641.2739,-568.7371,-255.5237,-236.4628,-73.0573,17.7688,33.4337,149.8432,532.9600,471.1171,-364.1494,-80.2761,-74.7862,102.6283,105.3646,247.5931,-131.0276,74.6412,427.8926,262.0520
-2906.2500,-577.2778,-611.7636,-225.8890,-243.6335,29.6872,10.4678,171.7669,142.6281,635.9371,426.3673,-407.2408,-124.7599,-82.2034,21.2928,133.5058,202.9574,-208.4702,103.3816,349.1496,254.0968
-2898.4375,-693.1544,-445.6288,-310.1147,-218.6511,19.5787,37.3192,125.2439,168.5666,551.0682,452.7707,-454.1924,-135.0913,-129.4796,11.1054,158.8024,266.4801,-148.7650,127.2816,373.5638,243.2967
-2890.6250,-615.0410,-719.5216,-224.3409,-175.6639,104.4693,48.1751,173.7174,144.5111,526.1981,501.1761,-405.1403,-123.4140,-80.7548,-50.0821,171.1070,241.0061,-106.0562,64.1820,380.9797,144.4930
-2882.8125,-556.1302,-519.6049,-200.7635,-222.8676,128.1552,35.8391,196.9833,205.2617,549.1236,524.3762,-418.2924,-135.9319,-130.2368,-63.4500,47.1967,228.3279,-152.5508,18.8909,298.1759,167.4975
-2875.0000,-599.2848,-632.7411,-170.2418,-231.1141,121.7770,65.4675,153.1747,198.9631,504.9933,480.5274,-314.4930,-143.4884,-100.7655,3.1504,39.2315,257.5980,-91.0891,9.5529,325.3268,123.4555
-2867.1875,-492.7930,-702.2518,-132.0668,-194.7059,124.0510,141.7536,228.0161,237.3165,542.5205,371.3352,-275.0449,-141.3978,-98.6435,4.4047,77.9129,222.5257,-125.9812,-59.1384,184.1226,88.0647
-2859.3750,-487.7724,-416.1951,-200.3529,-119.7421,54.8588,146.6020,122.3967,205.2306,399.5987,302.7010,-307.0628,-99.7554,-130.9819,9.2137,119.1382,227.0200,-16.3221,-54.2779,153.4687,92.2342
-2851.5625,-388.7668,-598.1667,-94.6429,-56.7736,124.6574,142.4505,154.7701,128.1473,284.6818,114.0706,-273.0783,-68.1078,-62.3155,6.0309,151.3763,149.5152,117.3447,-62.4168,216.8217,14.4022
-2843.7500,-410.5155,-443.8910,-45.6794,-43.5507,137.7079,155.5484,204.3975,178.3162,224.0276,16.6864,-333.8496,-55.2052,-49.4064,93.1056,16.8617,89.2535,95.2545,-14.3011,158.4134,26.8264
-2835.9375,-420.1339,-453.4572,-90.5746,-53.1778,92.9058,184.7948,85.1671,170.6288,141.5205,45.4557,-268.4738,-63.1443,-20.3476,121.3374,8.4980,80.1458,191.3142,11.9760,254.1584,-18.5932
-2828.1250,-273.3599,-518.6510,25.9389,-11.4035,98.5185,153.4373,90.3461,102.3326,109.4242,-97.3734,-151.6954,-20.6851,22.1166,89.9659,50.5332,-24.5637,231.7678,-17.3414,154.3009,-13.6086
-2820.3125,-279.4000,-206.6276,-20.3539,88.5765,-20.6768,108.2759,7.7200,57.2360,-10.4603,-178.9962,-160.7298,43.9807,-24.2251,81.7993,3.7602,2.9296,261.4162,82.5441,112.6422,50.5889
-2812.5000,-262.8057,-401.9747,-0.9998,104.2072,35.7729,53.7596,63.7342,2.7842,-28.6871,-196.9552,-141.1162,26.3024,-4.9155,64.2908,95.6439,22.0790,276.7230,133.0773,163.6424,-4.5626
-2804.6875,-244.2730,-277.3780,54.3091,87.7888,127.1754,35.1921,117.7004,-15.7152,26.0521,-141.9617,-233.5589,7.5761,-60.6625,82.7362,40.4769,-70.8114,153.9701,222.5587,75.5801,13.2449
-2796.8750,-264.0118,-227.0279,34.3591,-1.8773,144.3129,52.3708,61.4011,1.5356,-31.4599,-162.2136,-179.2599,24.6076,-43.6606,98.9411,57.0650,-90.9394,204.9704,202.7975,125.2757,-7.1864
-2789.0625,-90.3061,-333.2608,107.8635,-74.0939,218.8985,16.0010,171.5536,-34.7657,5.4827,-236.0169,-69.5065,-11.9094,30.7958,-10.3968,93.1102,-127.6188,168.4215,166.4909,53.4234,-44.1662
-2781.2500,-84.5649,-47.4301,38.4125,-33.2628,185.5263,19.6843,100.7482,-31.0096,8.4820,-195.7578,-65.7124,-8.3732,34.2968,-43.6797,-13.8010,-87.2438,67.9180,207.2375,-47.3856,-4.0847
-2773.4375,-52.5929,-190.3701,0.2097,-0.1849,147.3995,18.6162,-10.8074,-69.0082,-30.2617,-161.2440,7.3296,-9.5879,106.0538,-7.7122,21.5468,-51.6186,135.6743,169.2367,20.0707,-42.7496
-2765.6250,-90.0754,-157.7774,69.5667,-2.5569,179.8218,-22.8999,58.1944,-36.4619,38.5633,-202.1835,-34.0849,-14.2462,65.3587,-12.1947,53.4458,-56.4472,61.9755,130.7883,-17.9297,-10.8571
-2757.8125,-152.1767,-44.7717,-33.6816,5.4791,113.6279,-52.0099,-8.4189,-65.5128,-28.2193,-121.7178,-63.1096,103.5023,36.0579,69.7386,60.7387,-48.8675,69.6797,138.7466,24.4677,-3.5526
-2750.0000,-14.3914,-151.8998,1.9750,37.4247,186.3277,-90.2116,26.8626,-139.6663,-30.0994,-87.3444,9.7654,102.1522,34.6616,67.5781,57.9398,-87.3810,-3.7151,136.6059,-14.2388,-42.3453
-2742.1875,19.4232,128.0331,-39.3215,37.4226,109.0708,-93.3632,-14.8111,-105.7651,-71.9114,-90.9134,-31.3222,134.8529,-6.6923,27.4658,17.1911,-90.8338,-40.0660,135.5165,-50.9024,26.9265
-2734.3750,-4.0822,-1.3444,-25.9237,14.1198,48.5084,-152.8216,-75.7926,-129.1658,-59.0152,-78.7810,56.2866,111.2557,80.6513,41.0564,30.1520,-78.5784,7.2929,112.1327,101.1427,2.9065
-2726.5625,79.3500,-92.7972,23.4265,-9.2337,60.9061,-177.3367,10.1842,-116.6222,26.8399,-66.6968,31.8419,87.6108,55.9506,53.5999,-68.9309,-29.3723,-51.4030,89.7014,78.1362,14.8454
-2718.7500,-48.3896,60.6098,-73.3808,4.2599,-36.8417,-127.0108,-86.9941,-31.2288,-71.4517,-53.7511,8.2336,136.8198,32.0995,67.0019,-56.1672,57.6903,-38.2517,138.1241,90.9838,27.6450
-2710.9375,62.0592,-110.8152,8.0156,9.9531,8.6184,-120.4950,-42.9663,-59.6402,-100.5365,-119.5980,200.8226,108.2360,76.4514,1.6077,61.8043,-45.0449,2.1032,107.7425,-9.9652,-38.3528
-2703.1250,190.4451,157.7135,67.3715,32.5944,-5.9695,-98.0379,-57.9880,-37.1049,-115.6586,-206.4933,223.3528,93.6112,25.7505,24.1651,-63.2760,-168.8301,-46.5970,130.3088,-128.9730,-16.3844
-2695.3125,178.4101,75.8342,20.3254,20.8369,21.0329,-107.9859,-68.4207,-83.9731,-199.1794,-144.7872,249.4778,83.5914,51.6504,50.3275,-36.7502,-107.0037,47.3121,83.4762,-70.3712,-63.8035
-2687.5000,222.0160,49.5750,101.9356,64.7306,65.6876,-136.2926,13.8018,-75.1944,-118.0365,-62.4249,185.2479,55.2194,24.2016,-124.8625,-28.5638,12.4812,-49.1335,57.2949,-202.1203,-55.5632
-2679.6875,185.4517,295.1841,24.3866,29.4683,-11.8248,-212.7548,-101.1283,-42.5655,-86.0297,43.7972,143.8551,88.7025,-17.4037,-201.1978,-70.5244,117.8204,-15.7339,-14.0312,-169.0159,13.5442
-2671.8750,258.3764,86.2609,101.3343,-3.3028,-7.8448,-282.7202,-98.5584,-111.4418,-45.5024,47.5240,221.9632,91.6851,60.4944,-88.0300,-29.9718,11.6584,22.1699,-81.8581,-132.3916,-19.8445
-2664.0625,197.6430,272.6808,73.6355,-28.7262,0.4767,-237.3289,-89.6317,-101.9670,-37.6054,18.6043,156.4092,101.0158,31.7372,31.4894,-59.0723,-17.1482,-73.5875,-36.3366,-227.4197,25.1315
-2656.2500,44.8849,295.0993,-13.0736,-6.1542,-49.2243,-175.9326,-138.7193,-78.4853,-50.7060,42.7018,107.8449,88.3542,55.9762,56.0159,38.8258,-29.9435,-51.3397,22.1886,-170.4335,12.1203
-2648.4375,109.2176,148.5868,55.3195,24.5173,19.1720,-181.4385,-35.7049,-119.9040,17.3085,-37.0942,138.3786,45.7970,50.3123,-23.3538,105.8274,-35.6345,-56.9859,-19.1932,-211.3469,6.2187
-2640.6250,77.8347,328.3928,-16.9922,27.4966,-88.1452,-216.6460,-106.4029,-81.0263,18.6313,1.4173,104.1993,84.5451,14.9424,-21.4231,-39.8704,39.9833,-18.3324,19.7263,-172.9662,44.6356
-2632.8125,110.1875,114.9238,58.4468,26.2272,-14.7126,-252.1113,-107.3578,-81.4084,-17.2973,39.6839,178.7704,85.0459,53.3258,-56.7405,-38.8043,-32.6421,15.0757,53.4053,-105.8253,-28.1929
-2625.0000,129.9787,169.8973,114.3432,11.4077,42.1760,-232.1322,-13.8555,-24.3443,39.2367,22.4084,124.7786,-5.0019,36.1572,-36.6118,-129.2871,-122.8161,-71.0777,108.5429,-155.2399,-8.5603
-2617.1875,43.6413,224.7759,62.1288,-4.5178,-11.0432,-211.2573,-67.4554,-3.3788,-14.3226,79.0462,108.6715,-21.1469,19.8843,21.4261,-72.8672,-66.0832,-52.3375,92.5905,-102.7398,-25.0150
-2609.3750,78.4457,13.7666,100.0635,-4.2982,63.8936,-137.2348,-28.8940,35.7324,23.2807,80.8418,73.7047,-19.1451,21.7631,-13.3828,38.7116,-64.1995,-122.4445,22.7886,-103.0804,-60.3129
-2601.5625,-8.1680,244.3689,44.6021,-55.4861,8.4256,-118.6255,-85.7276,90.4398,77.5016,172.2421,18.3251,-1.5418,-34.7635,-105.6033,-17.1075,-9.7101,-136.9437,7.5810,-83.8140,-5.9951
-2593.7500,-3.4435,37.2980,13.4977,-86.3370,14.3095,-113.6887,-6.2107,59.4844,120.0893,178.0079,24.2934,-69.5883,8.0654,-136.4950,98.4363,-3.8583,-99.0827,-23.2844,25.8271,-37.3205
-2585.9375,1.8284,43.7590,54.9556,-113.6534,18.7431,-72.2115,71.8699,27.0752,198.2493,145.3330,-8.1891,-65.0950,-24.5528,-94.8412,66.5291,0.5457,-162.6820,-52.5984,-38.9813,3.9162
-2578.1250,-59.9740,156.1746,-49.6473,-37.0281,-121.8931,-29.7825,-70.1087,32.6198,129.3705,114.6214,-38.7340,14.3494,-55.2296,20.7770,-2.4175,42.9095,-50.3341,-44.9613,3.1687,46.1190
-2570.3125,80.4149,-54.2491,25.9518,-1.2107,-83.3403,-27.1505,-68.8796,-1.6384,94.7159,43.1204,36.9177,16.9884,-53.7060,97.5994,36.8520,-28.5232,-14.7884,-79.1297,-31.4721,11.5275
-2562.5000,71.2433,253.7836,13.9962,26.0500,-131.3514,-74.0720,-79.1990,-12.4445,9.5328,31.0815,-10.9985,79.0804,-100.7388,85.8689,-12.4266,-3.4978,-22.8045,-86.8450,-109.6631,73.4043
-2554.6875,120.2498,162.0042,-7.7680,39.5073,-190.1766,-95.7972,-138.3207,-34.0565,-49.4401,46.2544,77.2750,131.3755,-49.5742,-9.6687,39.5085,85.7358,25.3893,-108.3501,-95.6395,51.4918
-2546.8750,192.9480,164.9000,67.1730,42.6628,-152.3021,-94.8278,-100.7306,-31.9762,-47.6889,10.1338,78.2444,95.3719,-11.7059,-80.5116,-32.8482,86.6682,-40.7232,-70.1579,-163.9178,89.2882
-2539.0625,46.2222,299.4070,23.7064,72.4157,-269.8328,-65.2728,-181.5410,-39.3048,-128.3220,39.6186,-1.1994,87.9682,-18.2389,22.2507,32.3985,42.2096,-11.2318,29.6341,-99.5876,118.7001
-2531.2500,35.3377,7.7274,88.0985,98.0159,-204.5066,-73.8817,-80.4973,-84.7959,-100.0927,-6.0328,25.2060,42.4111,8.0853,12.8607,170.5032,-3.3931,47.1137,19.2724,-74.3983,72.9665
-2523.4375,36.4921,185.1027,14.5459,98.6606,-242.1186,-37.4542,-44.3947,-48.2376,-100.7965,-5.6239,-10.3544,41.9086,-27.5483,13.5108,59.6549,-2.9396,13.4995,55.9575,-109.1641,109.2994
-2515.6250,13.8272,127.6714,-6.8176,112.4987,-189.5349,-22.8374,-66.0952,-32.4885,-158.2919,9.9949,4.2726,58.6101,-12.9827,-7.6383,-34.9777,12.7271,62.0893,69.8422,8.2867,51.8442
-2507.8125,28.1534,36.2100,46.8263,92.3288,-62.9447,-6.2325,23.2196,-16.7499,-141.7681,26.6184,-16.1026,1.3103,3.5850,9.2122,-55.5915,-7.6055,5.6711,49.7177,-47.2580,31.3998
-2500.0000,-86.5395,202.7639,-1.5337,118.1475,-73.3633,-53.6352,-25.4690,45.9860,-190.2288,15.2508,-99.4912,27.0095,-79.8527,35.0582,-30.1975,55.0664,31.2490,39.5993,13.2062,56.9741
-2492.1875,-8.7953,-70.2592,47.5553,126.4070,-26.3415,-115.5929,60.2883,-15.8355,-215.2246,-46.6548,21.5638,2.1567,4.1652,-26.6512,55.6611,67.1958,110.2864,-22.0684,57.1391,-4.9954
-2484.3750,59.5454,32.3112,80.2528,89.2550,6.2723,-82.9499,92.6587,-20.0592,-109.6001,-86.9587,-19.7941,-2.1009,-0.2216,6.2312,-59.8794,-11.0697,37.9203,-59.1376,19.6779,27.6466
-2476.5625,-40.8766,3.1306,51.1910,25.3466,-22.8860,-39.0543,63.2748,-49.0333,-28.7190,-116.0014,-48.9128,5.8965,7.6388,124.3609,21.8327,-77.0745,78.8096,-52.9530,95.4816,-1.4522
-2468.7500,65.9012,-170.8800,89.3325,-9.3676,52.1541,-37.9551,137.0958,-47.8148,82.3774,-150.8358,26.1663,-29.9044,8.6974,52.6886,59.7524,-111.8833,44.8977,-86.5713,26.4938,-0.3448
-2460.9375,52.8691,97.3218,34.6704,14.1135,-74.6183,-90.6591,46.1146,-63.4031,-8.3141,-131.4653,-26.5715,-9.5028,-8.0491,-36.7774,4.8765,17.5043,67.1859,-26.9880,48.7119,92.9810
-2453.1250,81.7746,-84.5504,29.9595,42.5405,-79.4445,-132.4227,41.0903,-105.0549,-50.0462,-99.1426,3.6368,21.8447,60.1584,-115.3015,73.9601,49.8513,131.4399,0.5438,77.8981,51.2646
-2445.3125,90.4243,29.3175,39.0105,16.7124,-70.5177,-123.4432,86.8338,-58.9638,32.9914,-90.0689,-23.4217,-6.0595,-4.8889,-69.0890,45.7984,-15.0399,34.4364,44.8267,-19.1674,60.3087
-2437.5000,12.2053,57.3495,-4.7944,10.0268,-114.4439,-93.3230,5.7275,-65.7323,-47.8152,-60.8352,-30.3376,24.1900,-11.7857,33.2731,1.7851,-21.7793,63.5880,144.2621,44.9246,53.5147
-2429.6875,84.7475,-115.8989,73.1565,-22.9167,-38.6111,-54.4658,83.3835,-62.7643,-6.8623,-93.8493,9.5010,-8.8146,29.0760,37.3766,-31.4644,-90.7747,65.4946,111.4383,11.7734,20.4746
-2421.8750,36.3380,117.9185,57.1605,-33.8204,-52.7338,-32.5708,30.0953,-40.7552,-22.8451,-35.8025,-41.6202,-23.7684,-23.0180,-14.4735,-46.6525,-32.7217,17.4501,99.6529,-36.3304,78.4971
-2414.0625,43.7653,-51.4322,31.0169,-27.8777,-80.0161,-59.8344,3.6586,-67.9093,-48.9602,-62.8916,-32.8976,-13.8759,23.7393,-41.4739,110.0202,51.1870,95.2613,71.7083,41.4344,15.3777
-2406.2500,70.3889,10.4007,95.0813,34.2554,-53.0952,-68.9051,30.4329,-76.8677,-21.8484,-71.7729,-5.9837,13.2142,-23.3043,-50.2891,63.8936,4.2988,-18.7350,98.9633,-72.5990,42.4714
-2398.4375,-55.4045,130.8486,-37.2607,48.9763,-148.5849,-54.3894,-65.1959,-26.2292,-7.1279,-57.0412,-63.4848,64.9068,-8.7516,74.4858,4.3688,56.0226,-39.1304,148.8268,-23.0146,57.1795
-2390.6250,-12.3003,-70.8333,-24.6973,59.5883,-99.1737,-4.9795,58.0879,-50.7016,43.5090,-44.4045,-15.0852,78.4944,4.7055,88.1468,54.7575,32.6469,-99.6215,88.5831,-83.5127,-3.2099
-2382.8125,1.5957,189.2894,-12.3320,37.9922,-49.9686,-29.7670,33.1812,-1.3767,18.9743,5.0377,-74.9077,53.8773,-56.0483,63.6018,-80.0435,45.0679,-84.3221,-2.8670,-103.1998,46.2152
-2375.0000,23.2240,-0.8533,49.7716,-10.8641,-26.0294,-78.8035,21.0246,-13.3024,-66.7953,-43.7552,22.0075,5.0033,41.9430,51.8066,17.9177,-3.7507,111.7340,-120.5683,22.8909,-2.6012
-2367.1875,175.0968,-58.7686,172.1296,-102.4802,60.1522,-102.5881,106.1380,-37.9819,-17.2957,-68.2863,71.1649,-92.6232,54.1839,-9.7460,67.1379,-65.3202,89.0362,-179.0206,-70.7661,9.8375
-2359.3750,102.4094,114.7798,94.9288,-105.6573,-18.2211,-105.9258,-8.2949,31.7793,-94.3359,1.6429,103.7556,-59.8036,86.8728,-49.8536,25.8120,4.5656,51.7909,-146.0213,-72.9609,42.7373
-2351.5625,181.3703,-122.0553,142.3857,-95.1948,-6.9366,-95.6231,39.9347,6.1784,-83.7113,13.2216,187.9961,-85.3449,134.2189,-111.3193,37.1525,-20.8960,61.2024,-136.3774,-63.4892,17.2874
-2343.7500,128.7335,70.5132,85.2501,-42.3429,-27.2445,-78.9343,18.5845,21.9687,-30.6608,-7.7932,93.6282,-68.4900,76.9638,-95.4015,15.8934,-4.9598,43.0056,-153.3429,-115.6197,70.2487
-2335.9375,53.5912,-4.4154,8.6092,-48.0026,-103.0532,-82.7605,-21.2618,-17.7508,-70.1008,-10.2869,90.7553,-36.1359,111.2067,11.0065,50.1415,66.4771,109.3146,-122.8155,-15.2351,30.7162
-2328.1250,169.2994,-97.5003,58.8189,-36.8223,-55.0067,-33.7342,65.7556,-41.6246,-19.6720,-70.9115,103.7179,-22.9387,87.2920,61.2562,-10.7511,5.7703,50.4588,-146.4399,-74.0093,7.0415
-2320.3125,95.0851,73.5261,16.1164,-40.5492,-95.8673,-39.6104,-14.1335,-46.3924,48.8592,-39.4220,60.7652,-28.6341,81.4725,18.6003,20.4568,-36.8198,10.7094,-114.9677,-7.6677,38.4732
-2312.5000,80.0194,-152.3394,3.5776,-55.1281,-36.5635,-52.3443,47.1622,-96.0249,72.5569,-14.7778,120.9693,-4.1929,141.8125,-67.9204,191.8295,-49.2679,-2.8925,-164.3620,48.8340,-10.9478
-2304.6875,42.2001,-13.9288,-1.7125,-55.4725,-41.0062,-92.8314,78.7318,-63.4102,68.5251,17.1174,79.4115,-9.5069,100.4010,-71.1978,186.4556,-17.4700,-110.2608,-130.5145,-23.4251,57.8941
-2296.8750,-27.9683,-13.8859,-110.3573,-91.1859,-76.8102,-56.6708,4.9529,-63.1551,-41.8432,54.6641,79.5082,-9.1754,100.6422,1.1727,149.7513,93.9824,-39.9620,-95.0324,82.9848,58.3879
-2289.0625,8.4814,-187.2542,-34.3892,-88.3051,-1.0312,-16.9020,45.7893,-60.3073,36.4153,21.7990,120.2002,-42.2463,140.4850,5.1317,80.6571,61.0375,-73.0659,-91.9745,49.9900,25.4892
-2281.2500,-69.9292,48.5614,-80.2812,-62.2791,-48.1338,9.0141,-2.2351,-34.3162,62.8315,11.0954,35.0300,-16.1575,56.4679,31.2373,-4.2806,13.2535,-81.0184,3.2281,76.1560,51.7561
-2273.4375,-66.6915,-157.0040,-73.5204,-58.6068,-3.5935,17.5719,79.3964,-63.6878,70.9184,-53.9414,43.5110,-44.4193,101.1038,2.9755,41.4475,59.1162,-6.3221,9.0803,115.9875,-13.3219
-2265.6250,-101.8522,-17.9497,-39.1658,-59.3499,-6.4575,14.7242,113.6404,-29.4658,69.6243,-56.3592,3.5800,-10.0832,62.3337,-36.6972,38.7628,93.5777,-78.0389,7.5350,10.4223,21.2191
-2257.8125,-157.9209,68.1967,-94.7275,-79.0110,-26.2314,-5.0307,20.9875,-49.1561,50.4431,35.3321,-53.2568,7.3526,5.6633,17.7322,92.1943,37.1399,8.3545,24.0896,95.9837,1.8649
-2250.0000,-12.7832,-103.4841,-13.0789,-38.4833,55.2075,3.4025,139.5641,-77.6558,132.4738,-29.7802,-7.9041,-21.0206,14.1880,-47.6528,63.8604,-102.1021,12.9388,-6.1606,101.7560,-63.2853
-2242.1875,23.8392,144.3643,-12.9433,-1.4701,19.1402,40.3358,65.6475,-40.6569,59.0085,44.6193,-45.0653,-20.8989,-59.7919,-84.5482,-82.9656,-101.8328,15.0184,31.0848,33.0392,-25.9241
-2234.3750,50.1654,-39.1243,18.8955,25.2289,50.7832,71.9663,-48.5577,-44.9664,-18.7445,76.7193,23.4719,-25.0815,-27.0641,-88.7572,-14.0795,-68.8556,77.7967,23.0217,61.0481,-103.8664
-2226.5625,92.5024,-32.6024,62.7358,31.9162,94.4270,115.5963,31.2585,-38.2861,62.5284,46.8141,-5.9936,-55.2739,-20.3381,-44.9736,-43.1945,-135.8759,13.5691,-40.0548,-37.9559,-96.7989
-2218.7500,39.6366,126.7238,8.3749,15.4007,38.8611,97.0233,-23.1297,-56.8147,7.6009,28.7125,-24.6604,0.3408,-1.8125,-63.3922,-61.4980,-80.1004,67.1513,-56.3443,15.8541,-77.9281
-2210.9375,98.8918,-96.8774,70.1293,3.9831,101.4099,159.5451,1.6018,-31.2663,-39.2105,17.7078,0.7846,-47.9518,22.8216,-74.7196,0.3034,-91.2397,55.8369,-67.5495,4.7564,-88.9570
-2203.1250,19.5433,140.9619,22.2843,-4.0427,16.3581,257.4698,-83.2697,30.6712,-50.6132,7.1042,-85.3811,-22.8434,-62.1430,-49.6553,-84.5091,-28.9818,12.9265,-41.3622,32.0557,-26.5737
-2195.3125,-35.5536,16.0267,-32.3085,-23.8219,-38.4459,313.6463,-63.8804,12.8500,-30.7556,25.7539,-66.2976,-40.4896,-42.8503,-67.3548,-28.0605,-9.4630,28.2749,-24.9423,188.6176,-80.9455
-2187.5000,33.5663,15.2934,4.3044,-59.4115,33.9401,313.0285,82.7196,48.2240,79.3081,62.6063,-104.0110,-77.9485,-80.3622,-104.8683,-28.3890,-46.7373,-113.1898,-60.3359,83.3741,-81.1114
-2179.6875,-53.2240,139.6720,-51.9901,-75.9167,-21.5967,256.5036,-9.5789,66.6957,60.4722,117.5751,-86.6304,-60.3100,-62.7724,-87.2894,-10.6037,8.0975,-128.5545,-76.6295,102.2530,-26.1729
-2171.8750,28.0389,-130.9368,-39.2318,-100.3885,-9.0725,232.0251,3.2005,42.2183,73.7088,167.5936,-0.1950,-84.6327,-13.1202,-37.6769,2.2478,56.9710,-117.8779,-100.8743,78.1918,-50.1891
-2164.0625,58.0017,40.1800,-47.7828,-140.1697,-17.8455,187.2423,31.7070,70.4371,102.6630,159.3067,-46.0710,-56.2635,-58.7760,-9.3776,-43.2085,49.5399,-192.5140,-70.4061,-32.1672,15.5044
-2156.2500,36.0679,-17.6219,-69.2428,-125.8600,-39.5069,165.5562,-26.6782,11.7411,45.7233,138.1267,6.1501,-77.7980,-6.3311,-30.9872,9.4470,65.2007,-39.0405,-21.8325,-17.4025,-5.7114
-2148.4375,109.2903,-84.2751,82.4440,-53.4036,38.0030,169.0150,14.1201,-21.8098,12.9571,-4.9064,46.5090,-37.1920,34.2546,-64.4609,13.2546,-78.9907,-35.4278,-18.1128,-119.4878,-1.7809
-2140.6250,15.5444,138.1402,20.1666,29.0860,12.5542,180.5274,-85.0246,-47.3110,-85.7511,-29.8804,-16.0972,48.4594,-28.1141,-15.8903,-48.8771,-67.1182,47.2324,29.6540,-107.5044,10.2041
-2132.8125,42.0616,-45.2331,52.1466,90.8068,118.3602,176.2994,-51.9066,-125.5681,-126.1918,-107.6013,52.5570,43.3466,40.7766,-57.0812,-15.7349,-70.9954,74.1421,21.6509,-44.2693,-67.5662
-2125.0000,78.0867,130.9200,88.6234,57.0220,117.6607,175.5821,-15.2787,-89.3262,-126.1259,-143.8180,15.7039,6.7362,-32.8379,-20.7786,-90.0908,-71.3790,5.5382,58.1329,-113.5457,-30.8253
-2117.1875,49.0158,137.9735,23.9931,28.1276,88.8591,146.7716,-80.7449,-81.2010,-117.1613,-99.1348,-13.2448,-21.9640,12.4580,-49.5823,-81.5373,-99.8691,117.8498,64.4958,34.0802,-59.1852
-2109.3750,141.2662,-51.6777,120.6812,-20.4667,186.3618,133.2586,53.1125,-94.7935,-18.8880,-149.1612,10.1093,-35.3713,35.0589,-137.0941,-57.6761,-113.0674,68.4643,16.1346,-14.0078,-72.2437
-2101.5625,109.6659,162.8538,48.5181,-16.9144,149.9879,133.8966,-18.8913,-57.2386,-17.4683,-110.0360,-26.3873,-34.6282,-0.1931,-134.4599,-165.6651,-75.1049,73.2317,-15.0859,-8.9375,2.8564
-2093.7500,82.1782,-75.5390,96.4558,-8.2633,87.7016,182.6389,-43.7844,-82.5911,-4.9378,-61.8107,22.2217,-22.7896,11.6585,-50.7388,-155.5363,-63.0445,117.1109,-41.2286,69.2465,-58.9478
-2085.9375,98.2005,46.6044,75.8912,-27.1123,66.9035,161.8829,9.8298,-29.4503,48.0997,-45.0888,-72.6743,-43.4436,-82.9973,-34.5260,-64.9121,-83.4931,-7.5193,-24.8772,50.9264,-42.2442
-2078.1250,-12.5263,111.0028,-39.4315,-103.7207,-11.6539,119.3773,4.6920,38.9327,7.3845,-13.1026,-78.3231,-48.8495,-51.4044,-77.0540,39.9713,-51.6910,22.1113,4.7088,186.8688,-47.2925
-2070.3125,51.8627,-105.5121,30.3494,-109.2341,57.9028,78.9768,111.6755,-1.5876,77.7819,-16.0178,28.1257,-126.1607,18.2913,-154.4876,36.9637,-54.7917,16.8272,-70.6205,216.8977,-87.2429
-2062.5000,15.8879,104.6542,-47.2360,-40.1025,17.1157,111.2274,-2.6817,-6.4577,73.8330,16.7265,-49.7897,-93.8239,-59.3763,-85.2849,-77.3934,14.7695,-18.8107,-37.2964,181.5774,-17.5382
-2054.6875,6.5159,-44.6170,-54.2277,-48.3855,9.9487,104.0818,-9.4162,-13.7371,30.4858,46.0781,-20.1055,-63.8984,7.5644,-18.4934,-47.1287,7.9292,7.1527,-81.3751,242.8737,-61.2458
-2046.8750,36.6988,-50.3217,-23.6666,-54.1307,113.3457,134.4877,94.4197,16.5297,25.6992,40.9806,-63.8779,-70.4366,-35.9430,-25.1614,-90.3101,1.6349,-32.3454,-120.9125,133.7126,-30.4030
-2039.0625,-69.6223,55.4851,-62.6161,16.6141,1.2397,169.3970,-127.2452,51.2950,-122.5941,112.3859,-66.1503,1.5256,-74.9462,9.6671,-127.9931,73.8464,72.6582,-50.9529,133.0677,4.9383
-2031.2500,18.4272,-138.3882,32.7880,68.7015,-14.5052,226.6708,-143.5392,35.4155,-138.5338,60.1392,-8.0625,-14.1711,-53.6004,-6.1591,-107.3253,-15.5914,125.9970,2.3411,116.7691,-47.3731
-2023.4375,-11.5701,77.7222,36.1264,73.7211,-48.3042,230.9014,-174.8776,38.4878,-97.5280,-9.1518,-42.0331,-10.9183,-87.3091,33.9645,-212.7061,-49.0703,130.2755,77.5742,51.4210,-6.7254
-2015.6250,-23.9096,-75.5419,-10.8878,96.3812,-21.4520,183.7829,-149.5551,28.2058,-69.8673,18.2029,-52.3412,-21.0183,-97.3631,23.7240,-186.4189,-58.8964,189.2090,100.4397,180.7427,-53.4366
-2007.8125,30.9737,-125.5934,47.3066,46.2397,147.6018,131.8728,-16.0141,13.1160,-9.9867,3.7454,-104.4479,-72.9214,-112.2200,-65.3303,-164.9371,-73.5353,104.3292,121.4956,166.2546,-67.9491
-2000.0000,-79.6987,-25.1664,5.9376,5.5514,142.0888,52.4229,-58.0309,43.4733,-14.6549,71.7418,-183.1062,-78.3688,-117.6249,-70.9245,-133.0022,-4.7361,98.8980,150.9890,267.2225,-73.0120
-1992.1875,-24.1527,-284.5641,31.7764,-43.9425,204.7767,42.1820,79.1659,33.0189,48.8837,61.9326,-83.5481,-125.6273,-90.8180,-81.3208,-32.8504,-52.7467,84.6675,101.6610,288.3869,-156.8810
-1984.3750,22.8471,-97.4734,5.0647,-66.9952,177.9112,52.3926,126.8177,80.0141,96.8745,35.5746,-110.5472,-115.4356,-117.5614,-71.2815,-95.2483,-78.3060,-44.1198,113.7730,194.9903,-109.2915
-1976.5625,-90.0995,-176.3463,-38.6086,-110.0033,170.0964,44.6553,82.5326,109.0516,52.9135,28.2602,-81.4836,-86.1976,-51.2509,-42.2057,-29.5760,-12.8061,-16.8454,105.9247,258.6470,-116.6585
-1968.7500,-65.5266,-256.7241,-13.7771,-85.5190,194.7950,69.4175,180.7765,133.5864,115.4625,16.4358,-93.9257,-98.4660,-63.4395,-54.6344,-4.3981,12.1922,-97.0840,59.5672,142.7889,-91.5278
-1960.9375,-121.2598,4.6265,-112.2604,-71.3344,23.1956,80.8870,82.7183,144.8190,90.7060,29.3094,-82.6693,-13.0289,-88.9230,30.6440,-28.5227,61.8811,-117.6245,4.8968,87.6346,-5.6954
-1953.1250,-28.4846,-184.5497,-89.2390,-49.6494,-26.8819,67.8563,70.1658,94.5378,115.4593,-20.3231,15.0978,-26.0936,-27.9014,90.4301,68.8619,49.0568,-95.6599,-79.2903,74.9797,-18.3729
-1945.3125,2.0943,-12.8905,-94.4261,-87.1608,-70.1625,61.6318,64.4171,88.0608,183.0126,9.8443,7.6507,-33.3576,-35.0916,47.0109,63.0462,42.0334,-168.9095,-81.6728,-33.8842,48.7535
-1937.5000,-98.5250,25.5689,-164.8272,-83.8744,-139.6439,-8.7843,31.4666,91.3868,150.3524,124.8214,11.0035,7.1777,-31.4836,-59.6189,104.0324,119.8208,-94.3534,-78.2603,41.0701,52.6705
-1929.6875,-0.3327,-84.1799,-96.4207,-55.7947,-72.3080,-14.3933,100.3398,85.5184,182.5003,119.5954,5.1629,-35.4929,-0.0748,-101.4641,61.8114,77.3984,-100.0075,-84.0614,-35.1772,47.3808
-1921.8750,-115.3888,115.8587,-147.2789,4.0259,-122.2315,-27.2483,12.9640,108.3988,170.3991,143.1206,-80.9318,-11.4108,-85.9221,30.4418,11.3337,100.7288,-110.9132,-60.1212,-43.6675,107.8427
-1914.0625,-108.2280,-87.9279,-173.9317,46.0492,-148.9670,-17.8942,-50.2062,81.4718,143.5035,189.8290,-35.8181,-2.1324,-76.5669,77.5539,132.0777,111.2553,-69.6166,-87.9928,33.0457,44.4957
-1906.2500,-34.1571,-13.7828,-131.6943,-20.0162,-143.8254,-49.6225,-7.4781,123.4497,260.5175,195.4405,-30.8109,3.0504,-107.3243,82.5655,64.7203,79.6746,-134.4281,-118.9750,-67.3552,50.0516
-1898.4375,-74.2331,50.2218,-212.6199,-26.2272,-188.8524,-56.4938,-86.9014,115.2836,216.3760,261.9017,-37.9476,-4.9153,-78.2318,74.4156,57.2193,108.9528,-69.3860,-125.1211,-2.8906,79.4495
-1890.6250,-48.2290,-167.7312,-110.4920,-68.3936,-122.8274,-100.3145,14.7439,70.1595,246.2950,254.4095,26.9767,-48.8400,-14.0771,-7.6904,86.7721,138.2757,-77.3045,-133.2409,-10.3818,71.8902
-1882.8125,-76.2228,84.3615,-105.3708,-62.5711,-80.8071,-205.1369,20.3856,2.0289,215.2061,296.9152,-40.0904,-6.7647,-80.9244,-37.7932,-17.6784,180.6021,-71.2276,-56.3713,-72.8770,114.3365
-1875.0000,-31.8580,-46.2252,-90.9032,-18.4072,-30.4147,-264.6120,73.3884,-57.7591,120.4624,164.7711,47.2083,7.6520,6.5914,-24.5471,71.2406,85.2732,44.2009,-47.1637,-28.0242,19.1260
-1867.1875,98.0627,-22.2495,45.1196,6.3073,69.5470,-238.5271,135.9566,-68.9994,74.2682,44.1743,36.0544,-3.3809,-4.3482,-35.7548,60.7065,-36.5179,-1.8327,-58.4051,-108.6483,8.4673
-1859.3750,65.3315,121.0958,10.4822,8.3688,34.8706,-199.0820,65.8750,-66.8920,-33.5958,9.9167,38.2484,35.9407,-1.9391,-70.6160,26.5235,-33.9593,70.4977,-21.2993,-70.9202,11.1527
-1851.5625,163.9190,-97.2779,78.1524,-34.2593,102.5123,-204.3324,171.1144,-72.4924,-1.1586,-106.0691,105.7540,-6.4426,102.7749,-39.1862,57.6395,-76.1068,28.1327,-63.9017,-77.9027,-30.8695
-1843.7500,108.7076,164.5862,56.0153,-19.6870,80.3533,-190.3698,148.5561,-58.8881,-23.5237,-126.8744,83.4489,7.3737,80.6828,11.4433,-38.0487,-62.0557,-62.0413,-13.3000,-166.6912,20.3129
-1835.9375,65.0021,50.9298,12.3731,-27.6238,72.7112,-196.9000,68.5056,-65.7845,-66.3970,-98.1859,112.6508,0.6844,110.0982,41.5673,65.7721,-31.5078,0.2880,-21.2003,-69.9660,-23.0173
-1828.1250,62.5602,-21.4670,46.9869,-30.3195,107.3241,-163.1733,177.7200,-31.4278,5.9828,-100.2535,73.1096,-38.7570,107.7632,-35.0565,137.8440,-33.7094,-73.1474,-59.8669,-107.0140,-25.0986
-1820.3125,-67.4308,129.6088,-52.9604,-19.5640,81.3706,-151.9918,115.3742,-20.6197,54.8096,-51.8676,-25.9765,9.2557,81.8759,-24.2182,112.3649,14.5377,-97.1310,-13.1011,-60.6074,-13.7290
-1812.5000,-5.7991,-125.7335,-23.3072,-29.2038,148.0166,-123.2050,182.6296,-28.2215,121.2452,-58.8861,39.5507,-35.1311,148.5982,5.2212,105.4886,-66.6201,-70.5165,-57.7529,-68.6074,-57.7662
-1804.6875,-37.4138,89.7109,-22.9162,-26.0928,148.3956,-121.6680,183.6271,8.9317,86.4380,-21.1482,40.8209,2.2318,76.0597,-31.6006,33.3681,-29.0183,-172.1545,-19.6649,-204.8572,16.9506
-1796.8750,-95.8303,31.3387,-83.3344,-49.7822,87.9644,-180.9309,123.8309,-14.7183,26.8253,29.7951,90.2985,-21.2065,88.7246,-55.2266,120.4601,58.7807,-125.5851,62.6227,-87.8858,-6.1410
-1789.0625,-11.7348,-96.5249,-31.2479,-35.9690,103.0331,-166.6834,176.5512,-36.8608,115.7057,8.2269,68.2822,-80.1473,30.8880,-77.3574,136.0474,37.0717,-147.5312,110.4092,-74.4276,-27.7309
-1781.2500,-91.9488,70.3461,-79.4790,-46.4524,18.7944,-104.7248,55.9567,62.7008,69.2671,34.3590,-16.0314,-91.3822,-17.2497,-14.7810,15.3342,99.0590,-121.7776,171.8990,-12.2711,-1.6184
-1773.4375,-61.5446,-180.2048,-46.1133,-51.3333,51.1749,-34.1597,88.9737,57.8548,29.4207,31.0831,17.2688,-95.0155,52.2261,18.4023,12.2272,95.6342,-56.4331,94.9800,17.4783,-41.9199
-1765.6250,15.4164,36.8276,-4.2056,-9.6615,20.1195,-103.0351,94.5469,26.5656,72.1110,-37.6521,-14.8798,57.9100,-15.7509,23.1458,-19.3477,27.7580,-85.5549,-3.3978,-81.2446,0.3293
-1757.8125,-15.0157,111.4565,-34.7049,29.6170,-47.3325,-133.2965,-8.2847,-4.1237,-68.6228,-30.7960,-8.4185,174.4373,-9.1222,29.4968,24.6755,34.4887,24.9291,-34.1804,-5.3713,-29.8317
-1750.0000,55.2166,-28.2715,40.4581,64.5454,27.8845,-93.8979,-5.4597,-2.1591,-65.7117,-65.3063,29.6948,139.6051,-6.8417,-5.5025,63.3621,35.8609,-9.9417,-34.3172,-74.8736,-64.3451
-1742.1875,1.5334,199.1337,18.7058,115.5735,-30.7995,-79.3898,-64.5448,48.9126,-123.7181,-87.7186,-66.0942,116.8783,-29.4717,45.6096,-31.8425,51.3357,41.2858,16.6524,-129.2839,-12.7576
-1734.3750,-1.7909,19.8621,90.3033,112.9504,4.8804,-117.5265,-28.2709,-26.6700,-125.3764,-161.7825,6.4756,152.4993,42.2569,80.0676,-32.6963,-23.8410,178.8682,-22.0368,-97.3377,-50.8348
-1726.5625,80.6439,173.3619,100.6501,160.0842,15.3010,-106.8968,19.7575,-53.4915,-113.2830,-224.0983,-57.2112,162.8675,-20.2717,90.2710,-58.8228,-50.2653,120.1946,-45.9803,-189.6495,-3.1613
-1718.7500,33.2184,266.0138,15.1384,182.3704,-71.1497,-82.1052,-66.0834,-29.1519,-161.0500,-199.2624,-32.7471,150.3830,-32.6538,77.6278,-33.7953,-25.5258,178.6904,-22.7785,-131.7940,-15.3452
-1710.9375,51.8604,73.6975,73.6895,165.7076,24.4502,-59.2529,30.1355,-6.7605,-139.7715,-213.3842,-10.2183,98.9481,26.0130,26.0366,62.2769,-76.7437,162.2279,-74.5289,-147.8951,-66.4880
-1703.1250,-17.2461,250.6745,34.4712,166.2948,-51.7129,-25.1417,-8.4074,26.8928,-140.2574,-179.2579,-50.4382,95.7687,-13.0730,23.7075,-50.4124,-42.7208,92.0062,-4.0251,-111.7466,4.6239
-1695.3125,-59.1421,32.8264,-7.5483,124.0882,-56.6744,-29.8262,-49.7517,21.7380,-145.5398,-111.9464,-18.4459,53.7902,19.0487,54.5781,-17.8877,26.4881,84.9956,58.6744,57.6109,-37.0760
-1687.5000,-48.7224,8.2991,2.7362,63.1856,-9.3179,-19.2092,35.2224,31.8800,-24.5144,-64.3450,-82.1561,28.1058,-44.5404,64.7342,-7.0632,-0.0121,-44.7278,103.6715,33.2489,-26.4750
-1679.6875,-192.0056,110.0923,-74.6909,24.5872,-49.6548,-22.2985,32.4955,28.3192,-27.2046,-67.4461,-122.5687,60.7236,-47.8285,98.1837,-9.9311,-40.2061,21.8546,170.9662,136.1895,-29.5769
-1671.8750,-122.7252,-100.5827,37.4345,59.5452,25.5749,-19.8264,108.3234,29.3117,-61.3429,-102.0051,-46.4273,25.8919,-8.5672,26.1867,28.7528,-74.8528,56.9762,100.8035,101.6659,-64.1372
-1664.0625,-55.4086,107.8320,31.5914,56.5551,-17.1577,10.7129,29.1844,23.3712,-67.4389,-34.5201,-90.2376,20.1170,-52.2620,-16.7388,-13.5214,-44.4428,-15.8604,96.6860,28.1805,3.3580
-1656.2500,-48.9927,-26.6749,-72.1559,61.6689,-83.7845,-18.6321,-36.8536,30.5350,-59.4366,83.0538,-45.9391,27.4400,-7.8488,27.4442,104.3102,37.0651,-45.5995,66.6623,33.7925,-26.0544
-1648.4375,-13.4293,-97.0066,-73.7592,61.9352,-85.2538,-19.8136,36.2607,65.8588,-23.2962,155.7684,-10.4920,25.9126,-9.2876,135.7838,67.2799,-1.2814,-186.1999,101.7922,-140.4570,9.6852
-1640.6250,-175.3725,163.1528,-207.8684,75.7074,-182.2155,66.5219,-97.1307,150.6887,-119.6791,204.9700,-35.5381,111.8891,-70.2283,221.6302,-31.2508,84.8757,-207.2897,150.4255,-162.2038,58.9155
-1632.8125,-84.4984,-26.8910,-146.1738,96.2912,-121.3679,54.6724,-73.7224,138.3268,-205.2718,155.9607,26.2205,135.6674,-9.3688,172.2817,-5.9915,108.8265,-150.5855,65.8532,-140.1680,9.9385
-1625.0000,-53.5205,110.1965,-79.3858,56.9845,-54.4291,48.9310,-5.2327,96.0705,-173.7772,77.0491,-16.9190,93.5565,-15.4120,129.0395,-11.6453,66.8762,-119.7821,-9.6226,-180.0407,41.0632
-1617.1875,-54.6881,39.1180,-42.7486,20.5313,-16.6397,13.0456,-40.8984,22.6639,-209.4322,40.9833,57.8029,57.2967,59.4016,92.6478,63.5629,30.7727,18.8719,-81.2542,-76.0669,5.0297
-1609.3750,43.4470,-143.6413,23.1854,12.3796,49.4480,5.4637,25.7316,14.5663,-70.7857,-3.7894,85.8298,12.3394,87.5118,84.5583,92.0688,-14.0327,-24.1900,-124.5783,-152.8096,-2.7027
-1601.5625,-42.5265,51.5036,-32.9909,-3.8664,-43.5695,23.7818,-29.7465,32.3742,-15.2493,14.3314,-6.2380,30.2850,32.5228,103.3793,74.4762,-32.9396,-40.3454,-69.9982,-97.6465,52.4626
-1593.7500,-44.4415,-161.3101,-33.1135,-41.0581,-43.5280,24.1483,44.8387,32.2324,59.3371,-22.5057,67.7479,-6.7218,69.5870,66.2516,147.9451,4.1930,-6.4602,-107.3725,-65.4438,15.6740
-1585.9375,-23.2588,-34.9984,-14.1435,-55.1482,-24.3889,43.6176,27.5178,51.1954,116.0157,-39.2466,49.8341,12.3737,-22.2530,48.2298,94.5061,23.4309,-90.4801,-85.6500,-149.1432,71.9898
-1578.1250,-46.7220,11.6429,-38.8311,-8.8876,-84.8950,55.4431,-106.4562,25.5128,17.0321,-63.6417,61.2856,23.8209,26.2639,96.5672,32.4126,-1.9805,24.8554,-40.5815,-66.4887,83.6479
-1570.3125,35.4188,-152.1062,10.0812,37.9775,0.2034,31.8781,-20.8300,-35.5618,-6.3603,-87.4374,74.3363,36.8695,76.3758,35.5098,82.9103,11.2087,0.7816,-64.9126,-126.2485,59.9059
-1562.5000,-6.0992,123.5022,2.3347,67.1960,-43.3448,-12.3287,-99.8704,-42.2759,-85.4243,-57.8815,29.7391,66.2686,31.8392,27.8104,75.7595,40.7510,-4.9343,-35.8909,-166.6592,89.5088
-1554.6875,30.8887,-86.4113,7.0950,32.9180,-2.3782,-44.0274,-59.4044,-75.4869,-116.9944,-54.8353,107.6517,71.1645,109.8081,-4.3885,117.1100,45.7888,66.8466,-70.3695,-95.5782,20.6029
-1546.8750,68.6756,-13.5019,81.6469,35.4441,72.3993,-42.9182,15.8558,-37.8870,-78.7748,-89.0025,109.3624,34.8611,74.5747,33.2132,-28.7499,-27.3742,-1.5751,-102.0405,-162.7088,58.4998
-1539.0625,6.9630,66.8839,16.7005,8.4762,-29.3103,-33.2948,-120.3875,-28.7893,-106.0784,-79.6922,118.5851,44.0609,83.8530,116.3219,17.8937,18.9568,78.5176,-129.2127,-118.3378,67.8906
-1531.2500,135.4112,-120.5786,79.9166,31.6637,34.1382,-43.5125,-94.4857,-76.5371,-80.2523,-127.2476,217.9688,33.4091,146.2839,68.5906,117.6740,-65.5693,65.7625,-177.2365,-165.8307,20.4318
-1523.4375,118.4506,142.5743,58.7287,49.4596,13.1745,-63.1223,-114.0053,-59.6847,-99.8437,-111.2116,159.9545,49.3665,52.3167,47.4723,24.0478,-12.4993,48.6164,-159.6477,-217.7199,73.5727
-1515.6250,74.6425,-42.1443,51.6954,75.4179,6.3570,-33.5738,-120.3803,-103.6741,-106.2943,-82.0299,116.0929,79.4798,82.4979,77.5097,54.5734,54.7172,109.6148,-203.8957,-120.4660,29.8600
-1507.8125,83.5240,37.8619,97.3526,84.0830,52.2296,-24.3158,-39.0711,-94.9498,-61.0605,-109.1431,88.9238,88.2965,54.3714,49.2581,63.7903,-10.3566,48.3062,-230.4323,-217.5211,38.8529
-1500.0000,37.6399,202.1003,10.2497,72.9962,-34.6508,0.2005,-123.5213,-70.9670,-109.5895,-122.0028,76.0079,148.3656,41.5015,73.2666,14.2589,13.8279,72.2466,-206.7086,-158.3142,63.0925
-1492.1875,150.4516,-0.9715,56.8445,80.6152,-24.8228,10.4248,-113.2656,-134.2757,-99.4240,-149.1628,121.7912,121.1372,51.3305,45.9812,24.4250,-13.2911,114.8717,-164.2781,-114.4140,36.0328
-1484.3750,115.2952,175.0197,54.4768,80.2872,-98.9470,82.7041,-151.9766,-99.5210,-101.2246,-188.2686,46.6246,119.9661,-24.7906,80.7567,-50.3604,-15.3627,79.5441,-59.7859,-115.4620,71.0247
-1476.5625,26.0883,85.9283,37.0578,60.9152,-117.1047,101.9377,-168.7358,-81.8115,-192.0804,-168.4324,66.4076,101.7439,-4.9588,136.4925,5.8017,-69.4874,130.1700,26.6600,6.4480,16.9599
-1468.7500,55.2671,10.2461,104.0342,54.9465,-49.8574,133.5873,-28.0931,-50.6889,-123.5336,-211.2035,60.5752,59.9211,26.2688,57.6352,-73.6501,-111.2149,19.1896,90.5180,-35.2478,11.3004
-1460.9375,20.0276,185.1466,-8.3975,19.5808,-52.0088,131.8528,-101.8643,-52.9534,-88.3960,-176.3706,21.3354,57.7018,24.0962,-18.6114,-110.5002,-40.3373,18.8177,124.9808,-0.3387,46.2386
-1453.1250,45.7864,-104.9719,21.1760,10.2198,-22.1459,125.1314,-73.6326,-60.2113,-23.2663,-110.5476,51.0936,13.4874,53.9209,-25.8458,28.6488,-47.4649,9.4445,80.4429,26.5584,2.1761
-1445.3125,13.8823,74.2772,22.1010,13.2172,-57.9306,90.7613,-107.0638,-22.1127,15.2016,-36.3842,-58.8042,14.6357,-18.9109,49.2780,-6.8574,-9.2439,-23.5722,48.2619,-41.2026,40.4665
-1437.5000,-47.6182,48.9049,-40.5704,-12.3717,-83.3069,65.7907,-132.0982,-10.6170,-46.9405,12.1714,-47.2900,26.1871,-7.3353,133.8044,5.0410,2.3739,21.8156,22.4787,74.4336,15.1468
-1429.6875,41.6364,-38.6968,16.5095,-65.1989,48.0649,49.5748,-2.3926,-27.3651,47.6586,32.4672,9.9753,-27.4994,-24.0165,7.0963,-48.3280,-51.2601,-30.0514,5.4454,57.8005,-1.4202
-1421.8750,-15.2078,151.6145,-45.5167,-86.1147,-13.6766,99.2595,-98.8082,21.7892,23.1376,81.6492,-14.8504,21.7261,-48.7931,-54.6924,-144.8067,72.0041,-52.0081,54.3162,1.0665,47.9117
-1414.0625,-33.8827,-77.9304,-27.3837,-34.8728,-32.2661,154.0985,-117.0879,3.0957,4.7538,99.9712,40.4902,3.1134,43.5811,-36.3316,-90.1453,53.4085,-35.8160,0.3446,53.4669,29.3925
-1406.2500,-3.7061,57.4063,0.5979,-73.7724,-40.0142,146.7847,-88.5384,31.2514,33.2042,54.1380,31.6900,-41.6446,-2.1931,-8.1242,-97.6469,44.6618,-110.7738,-5.7608,-22.2862,94.7266
-1398.4375,-85.3157,80.9276,-48.2158,-86.4621,-52.5611,134.6662,-174.7964,-18.3954,-51.1669,41.4903,19.1123,-18.2035,22.2400,16.2860,-0.9480,69.1043,-53.5188,52.3441,71.1622,82.2509
-1390.6250,31.6917,-82.9338,40.5748,-40.5459,-0.5075,113.1462,-121.4625,-39.4416,-36.9485,-53.5687,72.1446,-2.1600,38.2681,32.3059,-21.6534,11.1394,-41.6698,64.0555,13.1935,24.3723
-1382.8125,18.9551,150.4759,25.6126,52.6231,-52.2065,135.8753,-172.8979,-17.2364,-123.5017,-103.3805,20.4374,57.1403,-13.4502,91.5821,-108.1241,-40.5747,16.4350,86.0242,-70.5269,46.7379
-1375.0000,16.3905,-97.9756,62.8148,49.9533,-13.7414,137.7584,-135.1896,-52.8747,-86.9213,-67.0554,57.8996,21.5911,24.9862,19.0083,-71.4587,-39.1481,83.6896,83.1441,32.8838,-25.7550
-1367.1875,37.9808,-5.2460,84.1634,36.4429,80.8697,85.7933,-77.3442,-31.3551,-28.2056,65.4122,6.5130,-30.8060,-27.4366,-70.4100,-158.6520,-17.5717,0.0924,69.4284,-15.5724,-4.0968
-1359.3750,-33.5213,98.3763,-27.5878,-0.1593,43.3841,48.7251,-114.6086,41.0639,-102.6056,99.7756,-31.9574,-32.3017,-28.9537,-71.9237,-123.9432,17.8999,33.4036,102.6151,87.8683,-5.5499
-1351.5625,62.5965,-86.3891,38.2738,-44.1482,109.5027,41.2587,-11.2818,-2.9089,-36.4199,55.7281,-1.8189,-76.1948,1.1282,-78.8356,16.3494,-100.0398,-10.6863,94.4020,78.8891,-49.4054
-1343.7500,-19.0851,78.0680,60.3362,-56.9283,130.8170,-47.0029,10.2201,-18.6744,21.9429,40.8692,-54.4758,-91.8823,-14.5916,-94.5425,-36.1634,-78.7839,-22.5596,116.3925,67.1079,8.9361
-1335.9375,-35.0021,-113.7439,45.1683,-71.9504,116.8844,-97.5141,-3.5341,-32.6869,8.0439,26.7486,5.6330,-105.8184,8.4442,-71.4988,-49.9360,18.2136,66.3257,136.1363,192.0702,-41.9834
-1328.1250,12.7359,-100.8755,57.6556,-24.3094,129.5982,-47.3781,46.3447,16.9583,20.7805,-71.7250,-55.6111,-93.0983,-52.8750,-21.7959,-37.0868,-6.1428,43.8676,113.5384,98.6703,-29.2515
-1320.3125,-67.5244,29.9899,-25.8510,35.3485,-27.6912,16.7480,-37.8004,42.6000,-63.5009,-45.2086,-102.8458,-66.3714,-100.1870,4.9168,-10.2417,20.4977,174.4275,102.9496,159.2696,-39.5251
-1312.5000,30.2778,-154.0979,79.7059,63.0656,41.0736,48.9176,-5.9044,1.2878,5.2609,-13.6525,-34.0216,-107.5920,-31.4500,-73.3192,-51.3515,-57.8232,237.0404,24.4232,115.9105,-117.7510
-1304.6875,52.2353,43.9871,64.4150,49.9382,25.9773,34.2345,16.1172,23.1258,64.1468,-27.9489,-48.0425,-85.6640,-82.5639,-88.3999,-140.3163,-35.9937,152.8141,46.0629,31.7041,-95.8289
-1296.8750,28.4533,-84.7056,77.3859,26.0644,2.1411,47.8044,-7.6145,-0.7766,-32.7374,-52.0034,1.1934,-72.4854,3.5771,-75.2313,-17.0421,-59.9199,199.8464,21.9632,113.7520,-119.6648
-1289.0625,99.4147,-119.6301,113.1120,-9.0548,38.0578,47.1317,102.3975,35.0850,-33.8910,-16.3154,0.1755,-147.5515,39.4660,-76.3050,18.9605,-61.0970,23.6278,-13.3747,43.5371,-83.7461
-1281.2500,8.8728,71.9366,-22.6648,-64.6663,-23.5230,-14.0306,3.8946,47.4523,-59.5680,68.8574,-24.3390,-99.1089,-22.1438,9.1400,-5.5435,24.2243,-31.0773,36.7986,93.8196,1.6688
-1273.4375,43.8904,-138.9573,16.1191,-63.7225,15.4501,-48.6351,42.9362,12.3727,16.2908,33.5702,14.7051,-97.1141,16.7953,11.1432,33.4973,26.0918,-31.2323,36.5272,93.6403,-33.3686
-1265.6250,21.4023,49.6708,26.3976,-16.2662,25.9185,-74.7328,53.4598,59.7992,63.6308,43.7765,-85.7544,-49.6139,-46.7671,21.6499,-29.9718,-0.5417,-89.8799,48.7681,-35.0404,14.0948
-1257.8125,-33.5862,-5.2223,6.1805,-36.3004,42.8995,-94.3263,33.4748,2.7256,6.4501,23.4742,5.2960,-69.6105,44.1743,38.6618,-49.9339,16.3219,-39.0224,63.5188,50.7753,-5.9508
-1250.0000,23.5757,-157.9489,66.1222,-85.1704,140.0354,-106.7616,130.6276,-47.1900,67.3989,10.3137,65.4909,-119.4498,104.2660,-48.1711,-25.7583,-33.6673,-88.0198,50.4266,72.7234,-18.8434
-1242.1875,-93.5182,6.0770,-20.1841,-96.2834,126.9115,-118.4458,117.5037,-23.3510,91.0744,33.9037,-20.5571,-131.5310,18.1090,-134.2404,35.1562,27.0953,-99.2526,109.0922,167.4270,5.0137
-1234.3750,-86.2491,-197.5668,-10.1262,-89.0425,137.1398,-108.7827,127.7226,22.8390,63.0964,42.8367,25.7520,-85.2579,27.3072,-197.9537,118.4097,36.1983,-57.1352,81.1160,208.4754,-58.7792
-1226.5625,-3.5871,-45.7837,37.3281,-41.3997,110.7602,-60.7208,101.3244,70.4353,0.5083,-19.8394,0.4584,-74.5829,-35.0993,-77.2559,-17.9464,-26.2988,-80.6154,128.5573,44.9204,-11.1629
-1218.7500,-41.9299,-13.0238,-3.2141,-9.7457,-2.6208,47.3421,-86.0885,67.0287,-77.0949,-23.5219,34.1686,-3.9033,-1.5003,30.4477,-58.2979,-66.7975,-13.0837,125.0142,111.3715,-14.5504
-1210.9375,35.5335,-180.4542,42.0464,-2.2844,42.8000,93.2015,-39.7088,76.4262,-30.9060,22.5964,42.6702,-68.4199,7.8960,2.9486,-85.8572,-20.5023,-40.7512,61.2827,83.6171,-42.1346
-1203.1250,-50.5123,49.6206,-50.1908,17.6791,-86.2784,185.5524,-94.8492,168.3230,-50.2337,77.2223,-86.3298,-87.4338,-85.2075,-16.0465,-139.9291,107.2936,-20.9075,46.0690,103.3751,12.7834
-1195.3125,-74.5564,-151.3368,-73.4143,27.6410,-146.3488,162.9023,-118.9905,182.2265,-36.5591,89.8515,-35.3239,-73.4490,-34.3073,-2.0380,-17.0140,84.0860,58.9325,20.8654,184.1336,-47.3006
-1187.5000,6.3416,-105.3270,-25.6924,38.5526,-98.4757,137.2017,-34.1975,193.0909,48.0648,27.4465,-61.3691,-62.5146,-97.4639,8.9247,-43.1607,-15.1665,-0.2835,31.6232,88.8330,-36.4280
-1179.6875,-57.8053,41.6147,-94.0187,9.4190,-92.6533,106.4488,-65.4720,124.9029,-20.3679,32.9976,-55.4555,-19.6287,-91.6714,14.8320,-37.3519,-9.4659,5.4614,108.3365,130.4862,-30.6084
-1171.8750,-2.6982,-149.1946,1.9169,-5.4574,76.4246,54.9417,66.5040,35.9684,38.4450,17.7915,3.7036,-71.4891,-32.6315,-74.0099,-52.3009,-61.5177,-44.5451,128.3076,115.3770,-45.5357
-1164.0625,-8.6034,91.0010,-45.1526,23.6678,30.5023,9.4367,57.4671,27.0435,102.2483,44.5964,-80.1471,-44.3512,-79.5954,-83.8451,-134.2631,-71.5618,-86.5468,121.2923,108.2764,18.5346
-1156.2500,-26.3043,-31.6380,-61.0097,5.9886,14.7930,-42.8652,4.6266,-25.6744,122.2512,138.6057,-58.7944,-23.0173,-58.3539,-62.4760,-78.0290,-50.4122,1.6576,68.4771,196.3780,-34.2035
-1148.4375,-4.9033,-10.1582,-2.7612,-7.5863,72.1780,-58.0632,62.8680,-4.2845,217.3430,122.7130,-74.3412,-38.5788,-111.0139,-78.0020,-93.7132,7.8319,-83.0301,19.7671,76.5724,-12.8376
-1140.6250,-72.2502,98.5566,-75.2608,-3.9035,-36.1965,-92.0113,-46.6586,-2.6409,144.6661,124.0606,-108.6259,0.1142,-108.4175,-39.2770,-55.1502,83.3325,-44.4453,58.3084,150.0243,25.7747
-1132.8125,12.1090,-134.0356,-21.0503,-25.5056,-18.8725,-75.2635,7.5087,-22.2974,124.6826,67.1067,-18.2141,-19.4921,-55.1224,-21.8509,-0.8975,26.5316,-30.1562,71.5624,164.1694,-30.9126
-1125.0000,12.0043,76.9315,-60.2896,-61.5446,-58.0060,-39.9643,-31.7975,49.6015,122.2325,138.7071,-57.2616,-21.5422,-94.2847,-23.8607,-77.1069,24.2812,-66.3035,71.3808,92.8705,3.9522
-1117.1875,-29.7963,-34.8333,-65.2133,-103.2828,-62.8358,-44.3682,0.1918,7.8014,117.0698,133.6000,-25.0072,-63.2905,-25.1468,-65.5648,-8.0136,-17.6769,32.8698,64.5052,226.8807,-37.8892
-1109.3750,67.8047,-113.1849,37.2752,-110.6193,-33.2615,-14.3747,102.5809,-36.5935,220.2988,51.8860,-32.3581,-33.6366,-32.6157,-109.8706,-15.5325,-99.2421,-9.5541,57.0439,149.2825,-45.3282
-1101.5625,31.0645,96.1082,-2.5855,-41.3005,-147.0407,56.2700,-11.3993,-3.3407,69.1584,48.8235,-73.0524,-0.3302,-73.4297,-2.5241,-93.4130,-66.1600,23.6901,90.2468,111.3372,-12.1225
-1093.7500,46.2859,-134.6626,52.5232,43.9723,-165.8631,148.8646,-29.4343,-21.1338,13.9632,66.6998,-16.7916,-18.0843,-17.2901,15.7657,-37.3525,-47.1320,38.8937,71.4087,56.3366,-66.9694
-1085.9375,-6.0519,59.0259,32.0864,61.6964,-185.2434,164.9096,-51.0347,31.5317,102.2064,82.0201,-75.0864,-39.3863,-75.6997,-41.4926,-58.8499,5.3470,-13.4345,53.0308,-31.2107,-14.3640
-1078.1250,-49.7878,50.2829,-13.7376,53.0252,-194.0160,119.5513,-97.0425,22.7942,93.0424,36.9386,-46.7749,-48.0900,-84.5046,-50.1452,6.2490,33.4232,82.8516,79.2626,29.8453,-23.1678
-1070.3125,-20.6157,-96.5485,17.3454,47.2608,-53.8827,77.0954,7.8446,-20.0402,86.7656,-6.2462,-15.5708,-53.8895,-16.4181,-55.8979,37.2385,-9.6049,42.0434,73.4064,-11.2150,-29.0708
-1062.5000,-80.4464,90.6274,-45.5682,23.5031,31.2486,15.6378,-18.2890,-8.8756,24.4686,41.5660,-78.3623,-42.6850,-5.3284,-7.6507,-25.7695,1.3588,18.2523,84.5619,-0.2727,-17.9768
-1054.6875,-41.8579,-117.8153,-3.0630,26.1480,147.7894,-51.4294,60.9763,-39.3195,-6.4291,46.7752,-34.7495,-0.0842,37.1642,-2.0039,16.6133,-29.2895,56.8708,17.1215,2.0685,-85.4860
-1046.8750,-17.0750,12.9576,93.6423,15.9962,207.5243,-102.3017,83.4257,-53.5602,15.8654,-3.8100,-48.9554,59.7208,23.8527,-15.1495,-33.8241,-80.7296,10.6963,-28.1066,-114.3793,-25.7900
-1039.0625,-65.8494,35.1495,78.8000,38.2956,155.7097,-115.7309,-4.6845,-68.3530,-73.3991,-55.9374,-26.7118,81.9785,45.9970,7.1533,-11.8058,-21.7095,102.9882,-40.8782,-57.3640,-3.6481
-1031.2500,-4.5161,-149.5524,143.0716,63.6998,219.9911,-161.0637,59.2953,-78.0408,-46.5654,-65.9726,0.6308,36.3381,72.2391,-39.4463,52.3022,5.4013,58.3818,-50.5362,-102.2544,-13.4032
-1023.4375,-48.2308,122.6954,58.2934,21.0528,98.2166,-172.4485,47.2056,-52.7796,-21.8005,-41.0672,-48.0683,61.6516,24.4344,-14.0771,40.3520,-6.5531,15.7473,-24.2329,-109.1800,48.7890
-1015.6250,-5.8850,-82.0353,31.5824,-42.5374,70.4991,-161.7804,57.1674,-79.4720,62.0009,-68.1236,36.2883,35.0121,70.6845,-3.6501,123.4490,-70.4709,57.1710,-51.8639,36.9418,-14.9779
-1007.8125,65.5098,-45.6970,67.9222,-42.0712,33.8297,-53.0605,129.1681,-43.1075,133.8385,-105.1306,-1.3120,-2.5771,33.9768,-4.1852,49.5847,-71.3298,-47.3471,-86.4298,-32.8890,21.3070
-1000.0000,-23.8820,41.8186,-26.5262,-60.3996,-132.6422,37.8491,-1.6425,47.4556,39.8658,-15.9346,-21.7043,51.0330,13.4726,49.4668,-8.0833,-17.9879,5.3569,-69.7928,54.4917,37.7854
-992.1875,33.9990,-147.4214,-2.7065,-38.4780,-109.8604,61.9964,21.7916,71.2657,63.1354,-29.4910,39.1595,74.8948,0.2161,73.3661,-21.5183,-31.3969,62.3207,-151.9044,6.1180,24.5134
-984.3750,30.8299,131.3008,-44.9352,65.3927,-189.1376,93.0885,-93.8452,65.0294,19.3390,-35.0888,-4.0291,105.7112,-42.0893,67.2233,-63.0166,-0.8574,60.2476,-155.0541,-102.2993,92.1904
-976.5625,38.7210,-2.9496,-35.0974,107.3152,-141.3554,67.2283,-157.4346,1.8383,-116.4162,-62.6401,80.8366,115.5734,4.6594,78.1297,19.5442,9.7221,102.2328,-78.1507,-60.6685,28.9116
-968.7500,70.1156,29.3188,35.2413,138.7398,-36.0828,63.8655,-88.5338,-1.8537,-120.6758,-66.6949,40.1950,111.9354,0.9044,37.5390,-21.4012,-31.1927,-6.2727,-10.7438,-169.5423,25.1388
-960.9375,-59.4349,180.6274,-64.3670,115.2177,-61.7683,75.5442,-113.6024,46.4975,-183.8994,-18.6969,-22.3903,123.3565,-24.7984,121.9953,-47.2931,-20.0500,-65.7064,70.7144,-88.3580,36.4123
-953.1250,2.7307,-74.3739,-71.2609,106.3987,42.2497,104.9141,-11.9748,39.5454,-191.4253,-26.0038,-29.2736,79.4788,5.2008,152.1445,-17.4968,-64.2151,-38.4292,61.8811,-62.4762,-7.6143
-945.3125,-29.6002,140.1425,-32.6499,75.0809,43.7578,33.7695,26.1395,41.0883,-153.4626,-61.8096,-64.6530,82.1001,-30.2999,43.7963,-53.2176,-62.8821,35.3683,-4.4384,-59.0909,30.8612
-937.5000,-3.9150,24.6301,32.9757,-5.2305,108.2694,-121.3838,17.2507,-41.3756,-126.5129,3.3766,0.9734,72.7186,35.2057,-148.5436,12.0621,2.4434,131.1803,-85.7500,106.2960,-14.6707
-929.6875,106.3769,-41.2652,148.2133,-105.9379,150.3779,-151.9446,131.9446,-36.2374,-48.9745,8.1640,79.1992,-32.0566,76.3069,-179.2817,-57.0752,-29.6330,30.6014,-80.4524,41.2754,-9.6010
-921.8750,8.1752,106.3337,42.9551,-133.1420,7.9836,-74.0169,26.1217,42.4029,-80.9508,49.4570,47.9281,-27.3336,7.9119,-28.5259,-15.7139,11.7887,2.5423,-73.6460,47.7659,31.9628
-914.0625,56.5873,-160.4844,59.3165,-155.7539,-48.7987,16.4992,78.9053,58.6413,8.6739,65.3553,101.2599,-84.0201,25.1203,25.8161,74.2502,-8.1952,-18.9153,-130.2349,60.8565,-24.8793
-906.2500,85.2918,7.0144,12.9784,-162.0695,-131.2880,43.3077,68.9804,122.1817,71.5962,92.5633,17.8833,-57.4083,-22.3714,15.4484,27.5059,18.1274,-130.0630,-101.5151,-16.7444,38.5808
-898.4375,5.0547,-3.4749,-71.3000,-136.3378,-215.7253,70.1635,21.0984,111.7716,23.5715,117.8251,7.5612,-30.7543,-32.8079,-31.8696,90.8126,44.4962,-36.1463,-5.7394,43.7178,28.0829
-890.6250,49.3700,-133.4098,-23.0177,-93.0578,-167.6097,81.5638,104.7645,85.9119,107.0973,91.6377,55.7793,-19.5572,15.3003,-57.6293,100.6600,-18.5952,-96.6710,-31.4069,-53.2663,2.1360
-882.8125,-54.7147,78.2492,-96.1350,-56.1786,-167.9014,7.5560,68.0186,49.6501,107.2174,55.0568,18.5968,-19.7579,15.0048,16.2163,64.1114,17.9127,-59.5748,-30.4739,-51.6378,38.7839
-875.0000,-16.0264,-164.3616,-16.4895,-17.5530,-52.4343,-59.7132,73.0235,-17.8629,75.0907,97.2257,98.1720,-50.2094,94.4601,22.7990,69.3026,24.1747,-20.7180,-61.7970,-48.2606,-28.8226
-867.1875,-3.7293,-13.3478,30.7575,-5.3309,104.6222,-121.3897,119.6102,29.2268,85.5558,107.0025,35.3436,-3.0579,31.5130,-41.0195,-30.9238,34.0410,-114.2533,-85.5148,-177.2800,18.1746
-859.3750,-70.5749,26.4911,-76.1296,-1.2598,108.5289,-154.2287,50.0358,-3.8397,14.8663,110.6325,2.3681,37.9416,35.4199,0.0097,46.7088,110.7567,-74.9210,-81.3826,-103.4397,22.0168
-851.5625,-41.8605,-156.1204,-8.4566,-7.6413,212.9762,-197.5279,153.0066,-47.3601,44.7284,67.8141,69.9400,31.4872,65.8754,30.5889,149.8987,68.0204,-150.0299,-156.6980,-144.0552,15.4139
-843.7500,-112.0901,89.3212,-48.7313,-43.9721,171.4562,-200.7877,75.0112,-14.8344,39.6343,63.0477,28.5631,27.0867,24.3795,26.2138,146.1384,63.3360,-186.0686,-86.9578,-145.6080,84.8620
-835.9375,-124.6501,-65.6116,-61.3432,-57.6573,122.5835,-176.4016,-11.3357,-26.6677,27.1914,87.9363,53.8437,15.3310,86.5426,14.4836,207.0232,88.2950,-94.4459,-66.5632,-54.5102,35.9564
-828.1250,-53.5609,-28.8725,14.6975,-90.6952,88.3519,-100.3683,63.9520,12.1531,65.3973,15.4853,18.7603,-19.7745,51.3471,-20.5927,134.5471,89.9027,-126.1674,-64.5093,-87.7597,37.7061
-820.3125,-70.7212,59.5984,-76.5077,-72.9812,-77.1372,-8.5980,-28.0198,68.7218,-26.6613,34.7926,1.4300,36.8677,33.9023,-0.9251,80.8316,145.2689,-74.1170,-10.6988,-35.2476,20.2014
-812.5000,24.9867,-127.0849,-47.8522,-47.4128,-48.7773,93.0080,-37.1445,59.1409,-35.8815,25.9570,65.9514,64.3564,25.3070,27.5775,70.9562,62.4922,-84.2066,-21.0367,-44.8856,-25.4513
-804.6875,26.4409,84.9925,-86.4433,-12.0934,-123.6796,128.3541,-112.5326,57.3072,-75.3659,-14.1205,-9.7864,99.5960,-14.5382,134.8351,31.8258,-13.5307,-82.5285,15.3810,-79.7582,45.6450
-796.8750,-0.1958,-48.0662,-77.1214,32.1205,-114.6730,101.5956,-104.0168,-6.6277,-138.9430,-78.2958,37.3798,72.7305,32.5187,107.9993,41.6005,33.3332,67.0615,23.6942,-0.7248,18.6306
-789.0625,33.1722,-50.1134,32.2081,65.3284,-43.6706,99.8313,3.4942,-8.5612,-105.5178,-152.4697,-38.4586,70.8586,-6.4312,33.1688,2.3675,104.1944,-4.3410,57.0062,-108.6860,16.6199
-781.2500,-59.3030,173.9693,-28.3064,78.6858,-30.5239,76.2055,-57.8549,-32.3525,-202.9531,-139.4898,-25.1457,120.1366,6.7760,83.4804,-94.7126,81.2131,44.4309,105.4649,-129.4781,29.7575
-773.4375,128.0877,-26.1089,23.0406,88.8904,93.4723,16.4158,-7.3506,-92.2960,-263.5314,-199.6578,99.0163,97.2582,93.8343,59.6283,-44.9380,-15.9166,90.0639,45.7645,-155.4181,-30.2547
-765.6250,187.1783,208.5229,47.0861,77.7947,80.1555,-33.6887,-21.1594,-105.5430,-277.4153,-176.1172,85.8725,121.0800,44.5885,83.4728,-21.4595,-66.3382,79.4109,-35.2313,-271.6454,-6.5641
-757.8125,134.3816,119.2217,65.2399,130.7962,25.9349,-51.7064,-76.8673,-159.6954,-259.1986,-122.4772,104.8324,102.9999,62.4485,139.4199,-2.8789,-47.6650,132.8770,-89.1251,-183.7582,-24.7800
-750.0000,167.0918,46.4300,134.9029,127.2929,94.2119,-56.2324,-45.0771,-127.3480,-153.4799,-126.3287,100.2896,98.4153,58.8040,61.8667,-81.8138,-52.4993,59.8489,-56.5153,-257.3697,7.5103
-742.1875,70.4566,266.2733,69.2155,101.4287,28.1304,-121.1186,-147.6441,-83.3530,-221.1145,-82.5236,34.3921,142.4742,28.8146,31.9614,-147.0925,28.3227,69.4969,58.7419,-178.3094,51.4474
-734.3750,110.7422,59.9951,114.4482,106.4586,72.9533,-113.1179,-104.3054,-112.4665,-212.8509,-111.8142,116.3989,114.4241,73.7241,-33.0600,-103.4633,0.0407,110.0608,28.8939,-103.3444,-13.7174
-726.5625,89.9806,178.6795,126.6355,120.4327,48.7151,-28.1838,-92.0338,-63.6307,-91.6425,-135.1500,-18.6513,90.3190,-24.4176,-21.1358,-90.8877,-62.2871,19.5947,8.0021,-89.4128,35.0740
-718.7500,-20.8252,103.2776,11.7772,115.3544,-67.5842,40.6911,-170.8135,5.1467,-97.4812,-68.5347,-60.7472,48.1628,-66.6026,47.7380,-60.3458,6.3355,85.0907,38.0693,81.4811,29.8101
-710.9375,-21.2259,-39.7131,49.3181,113.6762,-104.4922,113.9593,-62.1956,42.3220,-61.9103,-31.5080,-60.4552,48.4080,-66.3976,48.0102,-60.4121,-30.6349,48.9796,71.5481,9.7723,-7.0488
-703.1250,-67.7852,160.1431,-37.2983,102.8522,-116.5653,138.0678,-111.7402,29.3465,-111.4939,-7.6221,-145.3203,35.5094,-79.3435,72.1358,-109.6308,-6.7469,73.7347,130.8816,33.9343,16.9410
-695.3125,-37.8794,-92.5783,33.5491,97.4731,-9.1864,98.6145,-78.8260,-10.1896,-115.6184,-84.2870,-75.7405,-40.9468,-7.8424,68.7126,-39.3922,-9.4144,138.9575,125.6601,98.5574,-59.6225
-687.5000,26.5254,7.2159,99.8968,90.5870,92.6848,17.6475,23.5798,-18.2264,-13.2429,-92.4463,-83.6714,-48.9046,-15.8457,-12.2073,-121.6516,-54.5770,62.6928,83.9357,-13.3093,-30.6832
-679.6875,10.9931,96.0302,47.3058,74.7395,113.6016,-72.2838,-29.9652,-34.2183,-66.8216,38.4537,-62.5441,-27.8183,-31.7924,-28.0822,-137.8552,-70.6890,118.4934,68.2611,40.8907,-46.6990
-671.8750,89.3759,-108.2571,93.6277,46.7866,232.4196,-100.3273,14.3911,-99.3094,14.5056,121.2609,-16.5183,-92.8398,13.1577,-56.0713,-55.1587,-61.9061,91.2004,-29.5189,-22.0082,-74.8103
-664.0625,25.5536,74.2556,61.7491,18.6264,201.0254,-131.5888,-54.4645,-57.6016,19.6294,125.8816,-48.6958,-51.0669,-18.0890,-51.2686,-87.6518,16.6857,97.7269,-57.4989,-50.0892,-33.1186
-656.2500,9.9962,-82.0095,85.1296,37.7103,222.8784,-182.6126,3.9358,-108.6468,3.9983,111.7562,47.3793,-65.0478,77.9153,-65.2143,-27.8939,-34.4654,153.5206,-108.2348,4.0847,-84.1796
-648.4375,77.9473,-14.7607,155.0157,0.2892,218.2179,-186.1481,109.8272,-76.1904,35.8672,70.1356,42.9460,-69.5356,73.4138,-69.6538,-69.6494,-76.1125,45.8287,-111.4683,-104.2350,-51.7348
-640.6250,15.9092,62.4633,51.9066,-62.1384,115.5504,-106.6925,6.7131,-31.7411,6.7393,40.5191,50.5152,-62.0272,43.9173,11.9040,-62.3993,-31.7602,89.1607,-103.7085,9.4652,-44.2965
-632.8125,82.0351,-119.1726,85.9629,-32.4190,75.0292,0.8960,75.7547,0.8545,75.7760,-72.9437,47.2325,-65.3733,77.5714,7.6013,-65.9899,0.7334,85.6479,-178.8057,4.3168,-84.7072
-625.0000,44.0635,124.0994,6.9148,0.1930,-78.6076,68.3669,-4.3098,68.3461,68.7075,-42.4953,-32.1566,2.1796,-38.8783,39.1954,-109.6678,32.1335,48.0509,-146.0066,-32.9153,-17.2135
-617.1875,-19.3433,-10.1137,-21.5748,41.3453,-144.6972,112.3717,-107.8211,76.3813,39.1895,38.5121,-23.9887,10.2751,-30.7684,46.3340,-27.7812,3.0919,90.0170,-68.6710,43.4128,-46.1715
-609.3750,36.0056,-61.5655,-1.3118,26.2399,-51.0494,132.1121,-14.5925,59.1660,95.4243,58.2840,-41.0737,-6.8809,-47.9127,-6.7771,-119.1436,-51.2012,5.7374,21.4103,-6.5002,-26.3714
-601.5625,-73.1356,110.4576,-80.5491,-12.3727,-56.9092,90.3392,-20.8689,17.4434,89.1631,53.5642,-83.6566,-12.5451,-53.5524,-12.3867,-123.9996,-56.9945,72.9774,87.9880,60.1112,4.9263
-593.7500,-47.3650,-146.6387,-14.8775,-23.0907,44.1248,7.4546,79.7633,-28.3807,79.8078,7.7426,-92.3358,-58.3159,-62.2856,-58.1046,87.0451,-65.8783,98.1202,113.4600,120.6269,-40.8726
-585.9375,-86.9038,59.9726,-57.5115,-27.1205,74.8421,1.2554,110.0819,2.4945,73.1481,38.6359,-134.3219,-64.3882,-68.3193,-101.1183,44.7994,-35.0440,24.9742,108.6309,45.8555,-9.9633
-578.1250,-94.9905,-19.0026,-63.6928,-35.7118,105.0049,-5.5116,65.8575,-4.1880,28.9506,-5.0204,-104.8562,-34.0153,-37.8947,-70.6806,37.0259,31.2437,52.2897,65.2435,143.5550,-53.6064
-570.3125,14.5260,-87.3689,13.7254,-32.7136,107.7558,-2.6957,142.2442,-38.2736,105.3656,-76.0719,-27.7999,-31.0466,-34.8732,-30.6451,3.8520,34.1315,21.2100,-36.5476,5.8652,-50.6397
-562.5000,24.3438,132.5535,-15.5585,11.5760,-32.2063,-32.5984,1.9217,-31.0635,39.0767,-68.8118,-20.4425,50.2205,-64.5519,13.6834,-26.0117,5.3299,66.4484,-63.0368,15.4996,-6.3723
-554.6875,131.3230,-78.4014,60.3157,47.0096,-30.0212,-67.3630,-33.2457,-102.7051,39.9484,-66.3914,92.0648,51.6270,11.9180,16.1613,13.2839,-66.3239,102.8422,-97.3794,16.2922,-40.9550
-546.8750,131.5515,132.9066,95.4357,12.6864,-33.6014,-33.8981,-74.1661,-105.1031,74.0799,-32.7115,52.8174,49.2838,8.6359,12.8882,-100.1695,-69.7227,34.4982,-96.4761,-88.6502,29.7152
-539.0625,19.8439,125.2288,14.6128,5.4058,-78.1316,-4.4074,-118.0280,-76.4610,29.2675,-2.9721,8.6269,41.9832,38.4133,42.6602,-71.5562,33.9259,63.2194,-68.5308,-25.5313,22.4309
-531.2500,108.4973,-68.0963,72.1475,-11.5309,-58.3150,52.4136,-62.5423,-56.4706,11.8083,-56.8763,65.7824,-11.9704,21.5392,-11.2182,95.4090,53.9265,12.2995,-85.2429,-77.0647,5.5044
-523.4375,15.7985,120.2179,9.3300,-34.8223,-193.8653,62.8709,-88.4221,-8.8374,-15.0072,-46.1258,2.5898,-1.2749,-41.6805,-0.4447,70.0326,101.5851,-44.9454,33.6932,6.0775,53.2301
-515.6250,-53.1862,-159.7916,-22.7802,-69.4204,-117.7191,67.0203,-11.5920,32.4905,25.8849,-41.6724,44.0932,-33.8861,36.7986,-32.9752,110.3626,67.9422,-7.4788,69.3250,112.9322,-16.3476
-507.8125,-32.4747,-71.0834,-2.1904,-49.3247,13.1165,49.8583,117.9369,52.5176,118.4815,-95.5156,-9.7144,-50.7996,19.9731,-86.8128,-16.6001,-22.0014,-92.3038,124.6534,28.5039,3.7796
-500.0000,-62.2614,4.0959,-69.0987,-43.7335,55.4434,19.1869,13.9633,22.0384,50.5810,-51.8491,-40.0190,-44.2209,-10.3470,-43.1552,-10.0492,-52.4398,-15.6117,200.4724,103.6017,-26.5975
-492.1875,15.5587,-166.1295,-58.4038,-2.5526,175.3631,-44.8962,133.5963,-5.8380,97.2925,-78.5716,-29.7309,-71.0448,-1.0719,-32.8970,-0.8949,-79.2754,-43.3266,206.8800,76.3123,-90.3697
-484.3750,-43.2743,54.9913,-86.3740,-27.0382,110.6150,-73.6439,104.5756,3.6357,68.3636,-32.9205,-95.0988,-25.5279,-65.4502,-24.2870,-28.3819,3.2588,-67.6828,217.6310,51.3981,-44.7894
-476.5625,-9.2931,-87.1222,-48.5369,-63.7413,110.6599,-73.6069,30.3659,-33.0913,31.2512,3.5418,15.3382,-62.2246,-28.0212,-60.8837,81.9469,39.5961,37.7612,111.1705,86.2971,-81.4075
-468.7500,75.1896,-38.7270,37.7973,-14.9596,48.1840,-99.0835,41.6536,-21.3136,79.6491,-20.4793,28.2664,-50.4254,-16.0986,-85.9776,56.7816,15.4382,-17.2889,54.2043,-40.2962,-32.5145
-460.9375,46.3225,106.2889,4.7782,-9.5330,-58.6515,-204.9241,-65.4118,-91.8932,82.7033,20.1617,31.8468,27.0229,24.4826,-82.4267,24.2837,-18.0651,94.3267,59.8778,0.7824,8.0277
-453.1250,133.4624,-123.7064,133.7662,6.8878,-3.4936,-296.7757,62.5308,-182.4771,100.7628,-35.1937,86.4287,-28.5303,79.0599,-63.8741,78.7944,-73.5609,111.9387,6.5440,17.8601,-10.4241
-445.3125,70.1464,92.8577,100.2941,11.8548,-110.8057,-258.0899,28.0105,-106.5129,139.3685,-68.9855,52.5566,-26.5369,45.1857,-60.7636,44.8623,2.4992,13.1139,11.7584,-46.4924,65.6787
-437.5000,50.8374,1.3885,6.8297,-8.1876,-205.1237,-168.4180,-29.5009,-90.5560,118.9808,-15.7732,69.6868,-46.5482,62.3162,-80.6547,171.9514,19.5599,65.2964,-8.0307,40.1693,45.7768
-429.6875,93.7849,8.1840,14.6100,-0.9899,-235.1949,-87.5152,-22.7583,-47.3497,125.8485,-45.3076,40.0604,-39.3155,32.6964,-109.3058,179.2992,-10.1261,2.7317,35.4257,12.0875,53.1348
-421.8750,3.1340,128.3558,-43.2079,-21.3993,-293.8739,-37.2239,-81.6199,4.2479,30.1177,6.5647,-19.1575,-24.6852,-26.5126,-22.5597,121.0474,41.5948,53.5873,50.2733,63.4226,67.8945
-414.0625,12.3979,-75.5895,4.8858,-12.9098,-172.6547,9.9582,-34.5792,15.7352,4.2982,-18.6580,-7.4763,-13.1590,22.1759,26.0899,94.6949,16.2170,63.3466,23.0105,36.6582,5.5582
-406.2500,-26.6921,96.1276,-0.3786,53.2210,-105.8029,40.7809,-3.8980,46.8738,-1.8715,-24.2219,-86.1577,-18.9793,-93.4919,20.3968,-20.9969,10.4943,60.7630,89.3983,-72.4442,36.8796
-398.4375,-85.8256,-34.2380,-59.6858,63.2854,-56.0069,54.5367,-27.2528,-13.0400,-62.0835,-9.8309,-109.8822,-4.8578,-80.2006,34.6455,66.2837,24.7190,142.1393,135.7252,44.4221,-22.8526
-390.6250,-14.3556,-105.9982,16.6066,27.9415,92.3797,18.8798,120.9950,-48.3559,12.3164,-7.8346,-108.0111,-77.1439,-41.3154,-37.5136,142.1716,-10.4506,73.1189,29.6492,-25.1031,-57.9766
-382.8125,-59.5863,129.5319,-33.8055,-17.1110,42.0454,-32.4935,33.5340,-25.3779,-0.9759,88.4707,-156.8367,-54.1339,-55.1246,-51.3725,91.3745,49.6853,29.4082,19.8698,0.6982,2.2000
-375.0000,-35.5037,-128.6593,-44.9150,-64.8800,30.0129,-7.5836,21.3984,36.8937,24.0547,151.0768,-59.3632,-102.8359,-29.6288,-25.9355,116.8917,111.1184,18.9918,-26.6246,24.8143,-9.3232
-367.1875,-23.6283,-13.0404,-72.2360,-158.8635,-0.2281,-36.8925,65.0666,80.9644,30.8942,195.4969,-87.0971,-93.7406,-58.3342,-18.6973,88.2172,155.3660,-109.6249,-16.3322,0.7468,71.9631
-359.3750,-65.9980,-91.7043,-117.8089,-203.1064,-46.7256,-119.4644,18.4900,71.7821,21.4866,223.6824,-24.0785,-102.8999,-31.2851,-63.7135,152.3143,220.3718,-82.4870,9.6948,168.4507,62.9990
-351.5625,80.4854,-227.5119,-37.5285,-197.5105,34.6139,-76.1939,98.7630,42.4483,101.9334,157.7232,20.7901,-132.2125,-23.3840,-128.8789,87.2689,154.2334,-145.5007,16.5619,140.0055,33.8940
-343.7500,-17.6355,24.0757,-103.8561,-120.5182,-70.6743,38.4698,-6.5759,84.5136,70.7814,163.1734,-46.9368,-54.1238,-54.0805,-14.6350,-18.3683,86.5012,-207.1009,22.8195,147.9765,76.1944
-335.9375,-40.2934,-174.9071,-88.7313,-109.0806,-129.5217,163.5795,-28.4578,63.0232,49.0875,105.0746,41.7934,-76.5889,-2.3254,38.0592,34.4515,28.2164,-88.2466,0.5165,196.4013,17.9495
-328.1250,-12.4560,-78.3724,11.8886,-116.1467,-138.8852,227.1782,-1.8514,90.0315,75.8946,59.4848,-4.9880,-121.5532,-12.0722,-8.7457,24.7714,-18.5586,-95.8870,-8.2886,83.3384,45.2174
-320.3125,-66.4225,-63.6673,-44.2908,-102.0193,-159.0555,243.9639,-59.0472,106.2326,-18.0956,3.1056,12.4325,-105.3229,-31.6152,8.6483,115.3085,35.8738,25.6895,8.0974,64.4998,25.6844
-312.5000,65.9737,-283.6133,22.8820,-111.5464,-20.8844,199.0885,43.1148,61.7785,-25.7234,-3.9150,42.1991,-113.7499,35.1858,1.3893,145.1993,28.6538,-17.3841,-36.1731,-13.9812,-18.4938
-304.6875,-21.3821,-21.3105,-34.7003,-58.8350,-5.4753,177.4491,22.5194,78.5697,-10.1000,-24.6768,21.2161,-23.9296,51.2392,17.3816,14.3480,-29.3142,-67.1966,-54.1963,-66.1860,34.5795
-296.8750,-58.7316,-130.0445,-35.2750,8.8661,65.9424,101.7972,-53.0624,-33.6422,-11.4661,-25.4323,57.2311,11.8778,86.2963,89.3652,50.5099,-67.2827,35.9952,-92.2213,2.6289,-3.3519
-289.0625,-34.4907,-72.1676,-11.2550,67.1561,88.9558,51.7357,6.9602,-10.2508,11.7730,-75.5751,6.8352,35.2826,36.9481,76.9429,74.2721,-80.6452,-45.2135,-68.6452,-78.9412,20.3224
-281.2500,-84.4028,86.5322,-101.3873,50.2914,-3.1858,32.5142,-86.1634,44.9894,-81.1370,17.1362,-11.7104,53.5345,18.4517,58.3756,55.8955,11.8477,-25.5628,-85.2265,10.3635,38.8441
-273.4375,-40.7044,-150.1805,-17.9154,24.0178,44.2703,5.8895,-38.6803,55.8274,-70.4356,65.4427,36.3431,27.3783,66.5561,-4.5800,30.1251,22.9370,-15.3189,-145.2159,91.2735,12.9699
-265.6250,-88.4664,80.6599,-69.9039,-25.7173,-47.7400,-48.1949,-19.6512,75.2142,22.8203,158.3072,-54.0532,46.7731,-24.7916,15.0192,-24.0804,42.5853,-97.5233,-124.6624,113.7547,69.6507
-257.8125,-126.0668,-64.3791,-107.7403,-29.3171,-122.6044,-51.1380,-58.4595,73.7470,21.2355,157.3264,-56.2910,45.3116,-25.9792,87.7548,85.8797,78.3856,-63.5758,-92.9689,217.3998,31.4798
-250.0000,-71.8185,-81.5547,-87.7273,59.9205,-175.6251,42.7580,-38.4079,130.1309,77.5113,178.1980,-72.6840,65.6957,-79.3168,71.3362,32.6874,62.0393,-114.7823,-109.4301,95.8995,15.1701
-242.1875,-104.6288,129.2038,-159.7724,95.1070,-322.7055,115.5979,-148.4076,241.4589,4.7328,216.0261,-108.1280,102.0258,-150.7002,34.8678,-77.5378,135.6507,-77.0319,-108.9455,167.3725,15.8143
-234.3750,31.7143,-85.9022,-87.6625,20.4361,-324.6401,114.5793,-113.2455,202.9363,40.1169,215.0043,-35.4216,27.5034,-78.9357,33.5511,-40.6021,98.4133,-46.1385,-148.3177,235.0011,-58.3901
-226.5625,79.6035,100.5571,-40.0170,-73.6883,-278.0405,51.1062,-66.5407,139.9670,50.0558,115.5403,11.8277,-35.4678,-68.6269,80.7938,-67.1097,35.7271,-32.6947,-170.1465,178.1929,-11.0391
-218.7500,74.5445,-45.9678,-45.3258,-114.7713,-174.4038,-29.3146,-72.7829,60.0535,8.0558,73.1287,79.1338,-41.3966,36.7401,75.0903,38.4533,30.0906,33.7977,-141.9407,173.4534,-16.6381
-210.9375,69.4295,-158.5361,60.3101,-49.9167,3.1693,-35.7878,30.9229,-18.9051,75.0236,31.6877,73.3804,-47.3802,67.0488,-3.6638,68.9665,-86.5816,-6.7730,-77.7930,27.6710,-22.2726
-203.1250,-8.1506,79.4360,51.4781,-22.5223,66.2740,-45.7221,-14.8240,-65.3140,-44.4461,-14.1842,-8.8219,-19.8157,21.9098,-12.8660,61.0402,-58.6872,58.2099,-14.1012,-14.5411,5.6484
-195.3125,23.4213,-137.4639,121.7960,7.0144,173.5245,-123.5185,54.5903,-142.5744,-47.7471,-90.8964,98.1255,-23.1083,91.9215,-52.9138,57.2768,-61.6393,159.3338,-90.2701,17.4043,-34.2765
-187.5000,59.6812,3.3526,155.8031,-28.7517,169.4604,-125.6219,87.6975,-108.1355,-14.3442,-128.8906,58.7657,-26.6994,52.6235,-56.2640,-18.7809,-64.8835,55.1605,-89.7414,-16.9383,36.5072
-179.6875,11.8952,-45.9150,70.7587,-76.5766,156.3414,-138.7841,1.7611,-84.7492,-63.9816,-68.9270,46.3583,-39.3448,77.2788,-31.6687,6.1304,-40.1757,114.9444,-32.2749,112.6895,24.2398
-171.8750,101.4618,-203.8266,164.0651,-129.0577,175.5659,-193.6024,131.1872,-138.0131,29.7426,-85.6110,102.2979,-56.6423,96.2823,-48.7256,26.3894,-20.1177,64.0693,-49.4640,26.6678,7.3311
-164.0625,57.9766,33.2132,116.3138,-101.5956,89.7299,-242.4809,82.5559,-112.3316,54.4165,-59.3393,91.1918,5.0115,48.2371,-23.8234,-58.4005,-32.1061,21.1491,-57.7056,18.6108,69.3769
-156.2500,98.7025,-138.5687,85.7690,-98.9414,58.0900,-238.1667,51.1353,-143.4520,60.2925,-16.8675,133.2961,-26.1423,91.3958,-17.7214,21.0207,-25.8962,61.4283,-88.7586,94.7593,38.6255
-148.4375,98.8193,-70.9293,83.6168,-98.8929,-19.1636,-204.4613,11.1118,-73.1723,130.5688,18.0103,57.7934,-64.8941,14.9485,-56.2214,55.8510,45.7254,27.1012,-124.4131,95.3188,73.2829
-140.6250,1.1366,-64.1182,-18.3397,-127.6513,-158.2234,-160.5614,-55.7074,-29.6971,102.0560,100.0892,-8.5094,-57.4524,-14.2901,-12.5165,63.8969,53.5462,105.9810,-80.8779,280.1026,81.1363
-132.8125,64.2070,-212.5561,47.4557,-99.6635,-129.5329,-94.9104,47.2339,-0.4698,57.3068,55.9179,20.9328,-65.2605,15.2209,-56.0581,19.6915,9.1108,64.6018,-54.6073,237.6336,73.7463
-125.0000,11.7153,47.4644,-10.3087,-49.2335,-190.3999,-44.8158,-49.3760,50.2094,-2.9946,70.2038,-1.1726,-14.6149,-42.8111,-41.1464,-38.0579,-12.8692,47.6704,-3.8975,149.6227,124.8124
-117.1875,9.2788,-60.4875,-46.0226,18.2415,-152.2138,-45.6821,-85.9189,-22.0722,-75.2341,72.5418,36.7810,23.0795,31.2127,32.8097,36.2628,-48.8028,80.7816,-6.1497,148.6646,52.9297
-109.3750,42.6856,7.4324,-11.8945,50.5611,-46.1866,-48.7098,22.3890,-24.5033,-77.6123,-3.2651,34.5811,94.6219,29.0800,67.6135,-39.5590,-86.8830,-24.2689,-43.5493,6.5623,50.9051
-101.5625,6.8307,145.0748,-49.0254,83.6205,-11.4116,-50.9839,-16.5493,-63.1811,-188.2381,-41.3103,33.1347,128.8962,27.7051,103.1680,-112.6206,-15.2032,9.4284,-45.1939,6.2292,49.6297
-93.7500,98.1753,-82.0945,46.0424,67.8703,82.5655,-67.0581,41.7276,-114.6556,-130.6422,-128.1519,54.8876,77.3564,86.5301,123.9230,18.5197,-67.3215,30.3088,-95.6407,-76.9035,34.5613
-85.9375,-9.3412,124.8971,-32.7523,28.2612,1.6797,-72.9896,-2.8416,-47.9803,-63.8900,-24.8357,-25.2133,106.9687,-30.4944,154.8330,48.8124,-36.2874,-76.6626,-28.9428,-114.8707,101.6501
-78.1250,-91.7560,-29.0387,-79.4493,-19.2583,-9.1046,-120.8252,-13.3003,-59.2101,-1.0252,75.5868,-36.2040,59.6818,-4.4161,107.8387,76.2214,26.8476,-16.5453,-6.1555,85.2755,54.8369
-70.3125,-62.8245,-107.6088,-50.8084,-62.4324,19.4530,-93.3091,88.5915,-30.0817,138.1962,105.3709,-43.8523,14.7396,-11.9947,26.1921,31.9863,56.3428,-94.0984,-14.0190,42.7758,47.3813
-62.5000,-158.8558,41.8518,-114.1231,-88.5660,-82.9446,-84.7462,-12.4673,16.0998,110.4726,151.2150,-106.4438,23.8450,-39.5161,35.5957,41.8097,102.8929,-12.6014,-4.8350,124.3428,56.9740
-54.6875,-98.4864,-250.2997,-11.0334,-99.3063,-52.9371,-18.7876,16.8874,9.6791,67.1605,145.4597,-3.6378,-19.6496,28.3641,65.4020,36.0358,58.8425,-22.7170,-14.2581,186.3104,-23.0286
-46.8750,-77.2233,-56.5334,-30.0545,-80.1491,-110.0432,72.0673,-1.8636,100.1566,11.7522,90.6092,-22.9340,-2.2401,9.1387,84.1150,-128.8429,40.6994,-106.9375,75.2195,101.1862,31.8774
-39.0625,-119.7076,-100.5378,-72.8262,-52.7459,-189.8947,138.1677,-82.3559,93.8812,-31.3998,11.0081,8.0242,28.4186,3.1678,114.0794,-62.4546,-2.1956,26.0925,101.9353,200.3143,-10.9710
-31.2500,28.5078,-163.8212,11.1017,-45.6422,-34.0487,109.9679,73.8608,29.3070,14.1548,-52.8971,17.6792,-36.2196,-24.1060,13.7418,21.6348,-103.3960,-0.1841,110.3403,68.1305,-38.1118
-23.4375,-6.8829,81.2961,-27.5763,-11.1358,0.1894,34.1668,71.4732,-8.8673,-23.8973,-54.4043,-58.2589,-38.4561,-25.9728,-99.1957,57.1277,-31.1919,0.9453,109.1366,34.3550,-2.8508
-15.6250,7.8863,-116.4489,-10.1010,36.5209,52.5792,12.5160,88.2406,-28.8904,-7.7928,-36.7584,-4.0427,-21.5472,27.3110,-81.9855,73.7752,-13.8319,16.2097,52.0722,13.7241,-59.4365
-7.8125,-22.6571,62.5269,-6.9425,40.8705,54.6589,51.5653,16.7050,10.7874,-3.9788,-33.4062,-1.1345,18.0645,-5.7090,-5.0664,-32.8773,-10.7670,-48.8378,21.7116,-86.1979,-19.3158
-4000.0000,-48.7985,-2.4809,-28.9571,30.2971,36.1642,21.7800,-13.1470,22.8030,-9.9997,24.0754,39.8802,16.6271,21.8495,40.6096,-13.0547,-6.5361,-58.4567,-13.8616,-35.9056,-22.8882
-3992.1875,146.6673,-122.1821,65.8007,-19.1462,95.9181,7.1989,44.9151,-27.7809,48.1103,83.6166,62.5288,-33.9052,7.2776,-46.6829,8.8622,-21.6517,-110.1652,-63.9507,-87.1591,-38.2717
-3984.3750,112.9820,126.9947,-8.5893,-86.7444,22.5271,-29.5339,-29.1710,8.4814,85.0700,157.0062,-10.9810,-34.5873,-29.4500,-84.1277,-29.3798,14.0743,-142.0227,-27.1841,-49.5637,34.1993
-3976.5625,65.0492,-26.0840,-56.2307,-97.6022,-24.1165,-76.5145,-2.5093,-1.5141,110.7754,110.1440,-20.7415,65.4769,-2.4217,-19.8170,-2.8610,3.5496,-86.1180,-38.6695,113.7915,-13.5864
-3968.7500,29.0809,79.7899,-21.9150,-98.5116,-62.8166,-41.5388,32.1085,33.4409,182.4307,71.2305,-133.5563,137.4878,-78.4448,15.4419,-42.3962,-73.0249,-122.2612,-40.2099,113.0888,20.5757
-3960.9375,-80.9400,111.6360,-99.6528,-65.4678,-211.5799,29.3906,-82.3401,66.3512,142.0253,105.2665,-208.4283,171.4540,-118.5261,48.6537,28.0115,-2.6404,-56.4397,-43.8006,250.3402,16.6867
-3953.1250,-38.2027,-91.7830,-53.6283,-92.6675,-166.5876,75.0739,-36.0318,113.0052,151.3707,78.0442,-199.5461,144.1716,-108.8579,-51.3895,37.1740,43.4838,-48.8608,-0.6456,257.3382,-11.4607
-3945.3125,-44.1629,150.1285,-62.2983,-132.5633,-209.2887,68.0537,-44.4160,141.9573,107.0134,34.1178,-206.3744,99.1912,-115.8936,-59.1293,-45.3737,108.8906,-54.9841,29.8100,181.6299,53.6919
-3937.5000,13.9735,-2.8610,-72.8681,-109.3646,-182.8852,21.1283,-17.6981,58.0019,59.7518,-12.7104,-107.1076,89.3113,-52.8271,5.2248,18.1903,61.3940,3.0109,17.3643,205.0358,5.9353
-3929.6875,120.1690,34.1994,2.6248,-71.1171,-33.4184,23.2561,21.0805,-12.9104,61.5402,-47.5017,-67.7990,91.4823,-87.7116,43.6192,-54.1910,-48.0594,-66.9393,53.9643,30.4882,7.2241
-3921.8750,46.6155,172.5426,-37.6361,-38.6176,-35.6971,-53.3718,-55.8930,-52.5731,-15.4342,-50.0456,-107.2497,162.9072,-90.3521,41.2644,-94.3302,-14.2627,70.3648,85.8131,62.1903,3.7654
-3914.0625,114.1720,-5.0322,36.2050,-6.0226,76.1342,-125.9039,55.2408,-125.1460,21.6917,-85.4908,-32.6006,127.4296,-15.8893,-66.9881,-56.3719,-87.3682,102.7785,83.7620,59.0006,-69.6008
-3906.2500,99.1825,227.8597,92.5028,16.0154,96.4184,-214.9855,74.8251,-142.2670,42.2765,-65.4864,-48.5125,73.3964,-31.9841,-157.7952,-73.9768,-141.0248,52.6460,69.1621,45.2630,-13.5155
-3898.4375,107.1933,129.7609,101.8001,-10.9501,69.6981,-242.0704,11.4022,-205.3932,-59.1451,-129.4861,71.5725,83.3656,13.9216,-110.6030,45.4247,-95.6859,130.5323,6.5599,123.5388,-41.4363
-3890.6250,262.7253,76.1545,191.6105,-29.4137,86.4825,-225.6528,27.4855,-189.0272,-43.0677,-186.0039,88.1598,62.8349,30.3255,-56.9177,-48.6695,-116.8577,74.9248,-12.5468,33.3149,-25.8611
-3882.8125,169.8119,300.1339,127.9703,-51.3270,-12.1998,-214.6850,-35.8889,-177.1133,-69.4432,-210.9767,26.2898,73.8601,5.2716,-45.6798,-75.2268,-69.4843,86.8759,34.8981,115.6436,21.2698
-3875.0000,189.9073,40.1040,115.3376,-30.2403,12.1162,-190.7207,61.7328,-226.2051,-7.8220,-222.9507,87.4161,24.8874,66.2177,-94.4391,23.2103,-155.1197,107.8507,55.3406,171.9818,-28.6049
-3867.1875,150.2142,176.2979,108.9116,-33.9508,-29.3665,-159.5571,92.5574,-195.1000,59.9949,-155.7308,8.7339,20.1196,-49.6451,-100.0045,-20.1552,-160.5609,32.0299,85.9833,167.5104,1.7177
-3859.3750,70.6276,133.6136,28.5866,-6.5565,-145.7579,-55.2963,-23.5248,-128.8998,52.9017,-14.4152,-70.8471,-22.5451,-55.4150,-105.4822,-63.4174,-94.9020,129.3232,113.7285,300.1420,-41.8641
-3851.5625,53.2187,-23.9261,11.4309,11.9874,-87.9939,1.1065,69.5500,-71.5561,146.9542,42.0406,-87.2704,-76.0620,-109.0316,-121.8198,-43.5317,-75.1098,40.7759,131.6172,246.9217,-59.3016
-3843.7500,-94.3766,146.3706,-69.9249,-28.6685,-132.4364,30.3047,25.4201,30.5810,175.7985,145.2979,-168.9018,-83.7815,-153.8531,-92.3599,-51.8519,-46.5191,34.0347,160.3035,205.4958,-30.9330
-3835.9375,-71.2094,-111.5888,-42.5279,-40.5796,-30.1331,59.2473,90.0421,22.4604,166.3910,173.3018,-139.7768,-128.7624,-87.9189,-100.1537,12.5823,-55.1731,57.0599,147.7322,192.8241,-113.8172
-3828.1250,-33.0265,33.4672,-2.1176,-36.4968,48.1689,26.1866,166.6683,63.3344,133.9880,104.3008,-172.6503,-124.7487,-157.9878,-132.9488,-20.9919,-51.8306,25.0856,186.1561,56.1406,-110.6974
-3820.3125,-128.7877,43.6012,-27.6581,44.6346,60.5125,38.1699,141.3308,38.2544,34.6213,42.3540,-123.4750,-149.6851,-73.0050,-120.7017,27.4843,-77.4364,104.1745,196.6261,65.5112,-136.5260
-3812.5000,0.3242,-72.4255,107.6647,68.6130,159.7078,26.9917,166.8508,27.0149,23.1007,-42.7480,-24.4405,-160.7734,-10.1678,-131.6298,52.8292,-126.1919,92.1212,113.9367,-122.2697,-148.5084
-3804.6875,24.1993,199.3288,94.7395,59.3353,73.6432,-59.4441,43.1210,50.5200,-63.6697,17.8948,-37.6620,-100.1173,-23.5878,-70.8099,-34.0764,-66.1967,116.8231,32.9964,-168.3049,-88.7324
-3796.8750,109.9337,-31.0734,149.6702,39.9046,56.4221,-114.0299,62.2332,-4.1306,-45.6057,37.3823,18.9683,-117.6092,32.8426,-125.1304,57.8597,-11.3586,167.3985,-57.0956,-82.4766,-144.1056
-3789.0625,152.7435,12.5801,192.6655,-22.4741,63.2569,-107.5651,142.3959,2.2641,71.5009,6.9073,-11.3567,-111.0561,2.3244,-155.4021,63.8305,-5.4845,69.0375,-119.1383,-145.6061,-101.4232
-3781.2500,21.7561,93.4573,90.8595,-11.6516,-37.7187,-98.9040,39.7467,10.8572,42.7952,15.6267,-75.4913,-28.3050,-24.9971,-35.4915,109.0120,76.5942,78.8936,-109.9746,-100.5292,-56.5357
-3773.4375,37.3263,-101.1282,106.6189,4.7155,-58.1460,-8.6957,55.6519,26.9921,58.6361,31.8878,-59.0804,-12.0085,-45.7626,-19.0474,50.7678,92.2292,94.3101,-129.2651,-84.8991,-41.1032
-3765.6250,-30.9016,77.5126,-4.4205,43.2790,-204.3778,100.7112,-55.2408,100.3280,21.6787,-4.6583,-96.4806,-12.5116,-83.3365,54.6045,-23.2857,128.0601,95.9316,-56.3543,-82.0750,31.5373
-3757.8125,-42.9261,-109.6409,-15.2566,-3.9597,-251.4163,164.3145,-102.9418,89.8551,-63.0793,-52.0101,-32.6822,-22.8165,-19.7055,117.4621,75.8569,154.0849,153.7707,-33.2480,10.9590,-16.6200
-3750.0000,-1.2334,-138.1051,-8.3835,-31.5058,-170.7478,208.6125,15.0744,97.0754,-19.1357,-118.6691,-25.1908,-52.4289,-49.3748,125.0084,82.7097,50.8019,54.3152,8.5596,-17.3096,-10.0726
-3742.1875,-116.8999,-40.8933,-93.8632,-40.4099,-144.4347,160.5543,-33.2578,85.9464,-67.5409,-55.6783,-73.0684,-26.3915,-23.4028,114.1887,72.2146,76.1763,79.5219,69.0221,43.0835,15.1331
-3734.3750,-93.0202,-227.1519,-28.7818,-15.7662,-5.5629,78.0425,31.9674,4.3547,-2.3928,-64.1471,-7.4091,-34.8020,41.1245,31.9168,62.2622,66.1030,104.3006,58.0338,32.0405,-31.1121
-3726.5625,-36.7806,5.9585,-46.3408,6.2276,51.6580,-12.1169,51.5445,-49.8897,17.1069,-81.2811,-24.4185,-14.8584,-12.0102,-21.0013,45.6467,49.3724,54.4425,44.3934,-52.6551,25.0020
-3718.7500,-2.3848,-99.7730,-8.7477,-29.6247,89.0204,-85.1316,52.2582,-85.9943,-56.2609,-117.2687,-23.2927,-13.7641,62.0012,-19.7690,82.1995,49.7849,158.7591,7.9048,51.8154,-11.7320
-3710.9375,81.5732,-120.9744,78.4076,-14.9320,140.9379,-70.5993,139.5337,-108.5530,-5.0710,-102.7115,-8.6256,-36.1327,76.5569,-41.9959,23.3192,-10.2612,101.6379,-49.0374,-75.1570,2.0845
-3703.1250,-3.2291,77.0914,24.8130,-29.0020,51.1024,-122.8166,49.0629,-123.8624,-22.6237,-8.9063,-25.7293,-53.2530,23.3563,-21.9785,42.6860,8.9456,122.7787,-27.7296,-18.8685,58.1629
-3695.3125,93.2617,-142.5633,90.5301,-72.7775,44.5713,-166.7374,78.8997,-131.8723,7.1194,58.1891,41.4577,-97.0789,53.4613,-65.6708,108.3540,38.4551,113.2427,-72.1219,7.7344,13.5456
-3687.5000,123.2094,64.2477,82.7040,-77.1055,36.4897,-138.2128,107.1930,-102.4376,35.3032,49.7312,-3.9198,-103.4502,8.0090,-72.9242,26.4682,-7.5795,73.1680,-112.0616,-67.2215,78.3896
-3679.6875,97.6567,4.5707,57.3735,-66.9324,-98.1076,-90.1925,7.9777,-91.5079,-27.0219,24.7785,45.1927,-92.3201,57.0500,12.3195,38.0867,40.8884,152.6161,-172.5020,47.3363,52.7377
-3671.8750,104.6173,-128.6288,102.5570,-23.2629,-125.1985,29.3226,54.2682,-46.0840,19.1584,34.3260,54.7979,-119.6975,66.5949,22.0516,-26.7873,12.8503,54.5785,-129.4444,19.3954,24.5853
-3664.0625,-49.5230,70.0942,-59.3488,-36.6960,-212.3941,124.7407,39.4574,50.2423,4.2292,19.7628,-33.7113,-97.1779,15.0327,7.6804,-4.7728,71.7148,6.4561,-3.4840,41.3566,46.3408
-3656.2500,-51.9029,-178.4474,-58.4971,-38.3819,-101.8441,125.9086,113.3955,14.3142,5.0409,-53.0647,4.5349,-96.9111,52.2217,-27.9359,142.9924,35.3245,38.1102,29.2216,73.0773,-27.1568
-3648.4375,-48.3608,-32.0775,-18.7339,-33.1697,12.6057,128.9689,153.2368,54.2818,44.7632,-123.0024,-66.3247,-129.7467,-17.6995,12.3378,108.6547,-36.1701,-27.3271,33.8231,-28.3104,12.2508
-3640.6250,-44.7662,7.3680,-88.9258,-28.9067,17.0882,96.0702,84.1105,21.2982,-62.4781,-118.8861,-25.1488,-89.5279,23.4257,53.6578,76.3747,4.3957,11.3005,72.4806,-24.6429,15.7125
-3632.8125,49.6404,-144.4035,-26.3048,-4.8446,116.3715,84.9728,145.7924,10.1119,-73.9231,-165.9746,37.8188,-100.5180,85.3500,-31.2349,64.9051,-7.2372,-0.2585,95.9350,-140.1720,3.9732
-3625.0000,-10.8499,77.9511,-17.5805,6.3156,125.7497,57.9750,81.5768,19.0250,-137.2656,-193.9621,-27.1237,-54.4111,58.3636,-22.0306,-0.4794,1.2257,10.2910,106.4815,-130.5987,49.3467
-3617.1875,-14.8405,-137.1938,18.6438,1.9743,162.6234,56.4738,79.8605,18.4350,-175.1165,-158.4593,9.4322,-91.7945,93.8790,14.6756,71.6338,-36.8107,75.3603,66.5128,-29.5115,-25.7775
-3609.3750,54.0851,-66.4329,88.7816,-33.4668,197.3944,17.8710,114.0493,52.7395,-105.0740,-88.0683,6.8807,-94.2782,18.2863,-24.7261,32.6386,-76.9446,4.3438,-4.5584,-101.5235,8.0024
-3601.5625,13.3164,103.6495,8.2182,-39.6103,116.4518,-63.4364,-3.4755,8.3437,-111.7333,-21.3845,36.6148,-27.4611,47.9826,5.1572,-12.0566,-47.7709,68.6499,-46.3200,-72.2227,37.0875
-3593.7500,152.8640,-35.9883,117.9687,-39.4531,116.8067,-99.4486,-3.6947,-65.7566,-112.0908,-58.4043,73.6458,9.6487,84.9752,-31.6668,-12.4440,-48.3091,103.2743,-115.7798,-72.6169,36.4698
-3585.9375,78.1115,241.1043,73.4233,-8.5928,-37.1510,-33.7599,-84.2184,-0.1516,-120.7445,7.2822,-44.6438,38.4568,2.6542,-38.7926,-93.1373,53.8502,63.5969,-121.5317,-77.3224,101.5668
-3578.1250,12.6037,36.4538,44.1154,-2.4839,-138.8802,47.1788,-150.5014,44.7041,-113.1567,89.2281,-0.6936,9.5161,10.5724,5.3330,-13.5719,61.2720,104.1814,-151.0265,33.2318,71.9239
-3570.3125,58.9028,-23.3998,54.6113,8.4249,-127.8181,94.9230,-139.9769,55.3620,6.2354,99.9656,10.0477,-52.6258,-15.7150,16.2458,-3.2041,34.5000,8.5712,-140.7204,-26.4179,82.0888
-3562.5000,-4.9970,55.5714,-48.0945,-18.8718,-156.9707,139.4632,-205.6543,62.8168,-22.5735,70.4967,-19.4256,-8.9666,-8.2097,60.9519,-32.0355,78.5330,51.7795,-98.6188,15.7417,89.0639
-3554.6875,10.9256,-173.6744,7.0167,-2.3748,-28.3230,157.7874,-77.5263,45.0563,-41.5837,-21.1827,-0.0945,-26.5147,11.1070,80.4470,-14.0588,60.3626,66.8167,-48.7335,-39.2938,33.8410
-3546.8750,-32.7818,29.4506,-2.5044,60.4670,-0.3283,185.4498,-50.0501,35.6351,-86.2445,-66.5143,-46.4121,38.2806,-35.2294,71.2816,-95.7426,13.5359,59.2152,-21.4989,-116.9919,60.9826
-3539.0625,-1.1804,-44.1143,34.2771,91.6039,36.9519,148.4049,-124.2868,-38.4924,-160.6169,-67.5474,27.5643,38.3696,1.7315,34.4101,-24.1211,-23.9809,195.9363,-24.9572,-86.3842,-13.5683
-3531.2500,103.5371,-78.5956,144.1729,127.8357,184.3333,74.4607,-51.4169,-75.5259,-124.8929,-176.4895,63.6390,1.5525,74.7938,-39.3750,-24.3899,-98.3952,160.7651,-96.3121,-155.6817,-14.0153
-3523.4375,21.6047,85.3039,92.4201,150.4228,59.0527,96.8657,-139.2035,-54.2091,-176.8357,-192.0841,12.0525,60.0856,60.1944,56.1827,-40.3121,-76.4545,147.9580,-73.3107,-133.6355,43.9020
-3515.6250,70.9346,-110.5593,71.9241,130.2592,39.0157,76.5221,-50.7486,-74.6516,-160.5433,-175.4410,101.7187,76.8631,76.8508,72.9849,13.0220,-61.2642,92.4233,-128.0551,-84.3294,23.0740
-3507.8125,66.0835,61.3937,63.2418,90.8944,-6.2288,-6.0249,-57.4916,-45.2962,-58.4511,-110.0071,57.1748,68.4380,31.3005,27.5810,-67.8499,3.7247,16.6959,-134.0034,-89.2327,88.0577
-3500.0000,26.4868,23.6097,22.8080,52.7715,-81.2379,-45.3284,-97.9935,-48.6924,-62.1202,-40.3239,90.8754,28.2609,64.9978,-12.5745,-71.4696,36.9748,84.2368,-102.7013,47.1199,84.3001
-3492.1875,100.6011,-78.4919,100.0878,-14.6527,-41.5470,-77.9389,-21.7892,-45.3904,-23.0850,36.0583,57.2741,-5.2225,68.3965,-9.0435,-32.3874,2.9320,16.4845,-169.7031,50.1703,87.2470
-3484.3750,0.8681,104.5862,-41.4776,-77.9287,-182.7147,-0.4073,-90.4374,32.0630,-54.9083,151.5887,-47.1880,36.4446,-36.0625,69.6345,44.8419,81.0379,-46.1085,-128.5554,56.3644,128.3592
-3476.5625,-17.0064,-158.4983,-58.1896,-60.3580,-162.0461,56.9692,-69.2469,16.3628,1.1090,171.9665,-27.8004,20.9572,-16.6684,54.1624,102.9406,101.9993,-64.8326,-41.5599,74.4116,75.3280
-3468.7500,-93.4151,-24.1234,-65.4443,-31.3367,-95.9339,159.7867,-77.6025,119.1131,29.5787,200.7918,-107.9668,12.9153,-96.8329,9.1289,-15.5106,93.4124,-211.1026,127.8835,-37.0991,103.7575
-3460.9375,-194.1252,16.9699,-170.0020,-26.6166,-89.1418,239.3048,-108.2676,125.5659,-73.2550,244.3166,-138.4433,-17.4254,-90.3005,52.7857,-46.2636,99.5333,-171.6599,273.0341,1.0950,72.8957
-3453.1250,-121.1204,-191.2577,-128.8489,-24.1999,98.3475,243.5218,41.7791,128.7157,-70.3896,101.5276,-98.2200,-50.0743,-51.0649,57.1349,-43.3084,29.3525,-169.5029,239.8789,-32.0081,39.7371
-3445.3125,-116.9077,25.7424,-88.4928,-53.5783,175.0224,136.9379,8.0224,59.0629,-66.3330,-6.0750,-93.8043,-9.5198,-10.6338,-13.3154,-112.1604,32.3742,-93.1386,173.9260,-26.9227,79.7936
-3437.5000,-15.1932,-153.7617,20.3682,-57.4574,249.1851,-11.1559,81.7569,-89.0980,-68.7825,-116.1811,15.1096,-46.4634,63.2988,-87.2668,-3.5057,31.9047,77.7455,64.4697,39.6715,5.3559
-3429.6875,101.4393,-71.3689,104.1433,-80.4358,259.2405,-74.3545,164.3955,-114.3655,14.6674,-105.3970,24.9236,-108.5034,36.1229,-112.3215,6.0534,4.3341,-16.4641,4.9077,-88.8427,51.8257
-3421.8750,42.7701,47.7495,40.6082,-66.7144,122.9837,-99.8550,-8.2743,-103.9289,-47.1883,-57.9197,35.4247,-60.8407,9.6411,-64.6686,53.3121,51.4652,31.0350,17.0465,-41.6514,99.0057
-3414.0625,152.9063,-122.3511,120.8783,-28.1928,129.5228,-167.5531,-3.1364,-171.6916,-42.2488,-52.6525,115.7213,-19.3825,52.9618,-59.2268,59.3788,-16.5973,71.3464,-49.0173,-38.6545,67.9889
-3406.2500,126.6926,132.2148,53.8019,15.9740,25.7021,-233.5961,-31.3505,-164.7972,37.3461,-44.7315,85.6576,61.7154,-13.0746,-51.1481,-42.9060,-9.0010,44.3071,-75.4276,-29.0143,111.6352
-3398.4375,95.7264,-3.9663,59.9726,20.3911,-40.8807,-264.3899,-62.3262,-195.6552,117.1828,-39.5585,91.8394,68.0667,29.1377,-9.8226,35.0595,-4.1440,119.5334,-176.5903,79.8854,80.5388
-3390.6250,168.2740,-35.6540,97.6499,23.3104,-112.9698,-226.6826,-61.8001,-121.0138,191.5250,34.1031,92.5106,68.9193,-42.1535,-7.9944,-36.4766,-2.7857,16.2656,-209.2572,46.2780,117.9516
-3382.8125,56.6154,100.4837,17.1204,-15.9690,-267.2788,-160.1793,-179.4852,-54.5704,109.6638,100.5595,47.9658,61.5797,-49.6536,-14.3648,-81.2081,99.3841,45.8095,-145.1259,181.4734,147.1800
-3375.0000,49.2540,-152.0976,10.8923,-93.9507,-198.2914,-92.3832,-74.8615,-59.8318,141.1040,21.3156,116.7134,19.5372,17.1459,-20.4367,22.3699,93.8587,3.6688,-152.6996,243.9793,104.7133
-3367.1875,11.6466,56.0809,-65.5815,-96.1889,-129.5584,-59.8372,-79.4873,8.6630,136.2990,17.8208,75.2026,-19.7628,-22.3136,-23.7608,54.6873,52.0837,-68.7182,-120.5178,136.2340,137.0085
-3359.3750,1.5364,-23.2371,-110.5537,-105.9360,-63.3401,4.2103,-124.6228,-36.3423,53.9849,8.8269,67.1886,7.4310,41.7311,3.4029,120.5109,-29.1779,-8.5933,-59.8328,161.0002,91.8132
-3351.5625,87.3360,-111.6764,15.3850,-55.7831,99.7727,21.1534,1.1452,-56.4457,33.5712,-11.2682,47.0732,-12.4797,21.6738,-16.5518,63.2465,-122.5357,-63.5629,-11.2429,-0.3355,71.5253
-3343.7500,-42.5169,75.2602,-46.3282,-44.2772,111.2174,-4.5550,-23.7455,-45.1942,-28.4965,-0.0153,-15.7063,35.9580,-4.0481,-41.1564,0.3277,-38.5364,-52.1740,70.7051,10.6801,82.6017
-3335.9375,-50.9148,-108.3715,-14.5889,-16.3220,180.1062,-45.8141,7.8093,-87.4946,2.8786,-4.3173,53.9663,31.8411,28.6815,-46.3100,32.8630,-44.0835,10.6842,62.1004,3.1547,4.1314
-3328.1250,17.9517,101.2523,18.4087,16.8852,103.2372,-49.8216,-33.3844,-54.5449,35.4988,-8.3801,12.8854,64.9716,-12.3432,-13.2181,-45.3572,-84.3783,-62.2010,59.7453,-104.1318,36.9244
-3320.3125,14.4107,98.4860,15.0033,48.6949,25.9492,-89.2308,-108.9914,-93.9982,-5.2932,-11.8488,46.3978,61.7039,21.2284,-16.5222,25.0293,-52.0664,40.5320,20.9982,-73.8138,33.3312
-3312.5000,155.9799,-4.2008,90.7099,50.6068,27.7575,-123.5495,-35.4964,-128.3586,33.0183,-47.2275,85.0110,63.5343,22.9001,-51.7340,-10.4735,-50.6557,7.3749,22.3511,-142.3919,34.8441
-3304.6875,83.4981,240.0859,47.3667,47.4670,-87.4961,-166.9204,-151.0577,-97.7647,26.2792,-15.6589,4.5630,57.3162,-19.4824,15.9962,-16.0354,16.7113,-30.8301,53.6578,-110.0161,102.3204
-3296.8750,50.4152,-4.2404,51.4203,14.7261,-120.3567,-199.8922,-147.2202,-130.7694,29.9368,24.3120,45.5127,24.4969,57.5357,20.1275,134.8060,20.4858,42.3784,20.3577,-3.2319,69.1996
-3289.0625,41.2925,94.3850,78.4323,-28.0657,-130.2706,-172.9151,-120.4262,-66.8225,19.5490,88.2317,35.4060,14.6224,10.5005,-25.8020,87.5971,84.2140,-36.4646,12.0047,-81.5076,96.0392
-3281.2500,-50.4397,108.4261,-17.1641,-49.4554,-188.8042,-83.5397,-142.2420,20.5250,-111.4389,140.5532,50.6921,30.1497,25.8572,-11.3354,28.7945,136.3565,-22.8991,25.0556,36.6168,74.2922
-3273.4375,20.6792,-66.7086,-14.9036,-13.9971,-149.4922,27.6838,-67.2023,59.7194,-37.5689,141.7189,52.8247,32.5209,-8.9366,-9.0185,-6.1477,64.3560,-92.4721,25.9526,1.5913,39.4008
-3265.6250,-54.2519,141.1206,-129.6913,17.4046,-155.2434,58.8583,-72.2117,163.8673,-6.7417,136.8317,-63.1051,-10.1613,-86.7899,22.2436,-84.1384,58.3112,-131.0957,91.8026,32.5150,70.4756
-3257.8125,-60.6377,-110.5130,-132.9320,12.3526,-48.4545,92.5756,-39.6748,161.5644,-46.3693,96.4987,-29.4822,-12.2973,-54.0877,20.0465,-14.5741,55.8256,-102.1561,156.2047,62.0022,-5.8918
-3250.0000,-50.1158,-28.2585,-122.2663,58.1984,36.2337,67.1911,81.7717,172.1622,-36.0923,-2.9319,-55.9628,-1.5356,-80.4900,30.7459,32.8889,-7.7530,-160.3247,130.5070,-68.6180,4.6502
-3242.1875,-125.1561,143.4589,-163.1653,88.4909,31.3508,25.2537,39.6613,93.2174,-78.3615,-7.9114,-98.0057,140.6725,-85.4480,62.9062,-9.1928,-12.8718,-61.0341,90.2621,-73.7815,-0.3457
-3234.3750,-74.0410,53.2937,-71.9062,139.9331,123.6076,-29.5331,57.7090,2.4179,-59.4811,-25.7516,-78.8961,197.0307,-29.2547,44.2117,-27.1116,6.1610,-44.5818,0.1694,-128.7892,-55.1879
-3226.5625,-60.5245,315.5436,-59.2399,118.7819,63.2537,-90.9238,-2.8433,15.0210,-47.2016,-13.1915,-103.3921,172.7881,-90.6682,57.9078,-51.6378,18.5947,-65.7293,-56.5174,-114.4059,-5.6154
-3218.7500,-29.7650,135.0392,-62.3246,78.8796,-13.8613,-131.0649,-80.1577,11.8723,-13.6731,56.6185,-32.6361,169.7947,-56.8274,53.8481,19.0861,51.2906,0.3836,-96.9525,-13.7639,-45.7864
-3210.9375,23.1985,153.7117,-44.2025,97.1723,4.2244,-149.0062,-62.2608,29.9218,114.0621,74.6171,-51.6860,150.9964,-75.7859,-1.0095,-36.9899,69.1949,-87.3046,-79.1823,-101.9204,-27.7509
-3203.1250,-103.1052,274.1492,-66.3383,77.2074,-91.9536,-134.1966,-120.6091,80.7284,55.5517,53.3670,-111.0061,165.9443,-61.0005,50.8823,-96.3110,120.8589,-36.2430,-28.6514,-16.3202,-12.9541
-3195.3125,-48.5129,12.4593,-6.5752,61.1411,-106.2384,-75.4868,-62.0532,66.4337,76.9528,2.0170,-14.4241,114.7837,-38.3144,72.6650,0.2879,69.4278,-17.2758,-45.2183,2.1855,-64.2547
-3187.5000,-63.2116,175.4772,-61.1120,47.7713,-158.8361,17.9207,-115.7994,159.8468,60.0632,21.3652,-106.1382,97.3197,-92.9375,129.1478,-54.4190,88.7030,-101.6162,-24.0811,-11.6201,-7.8436
-3179.6875,-132.8168,35.6023,-168.5608,13.5049,-193.3588,93.4296,-150.4558,162.3636,-11.7325,23.8230,-66.7564,62.9599,-53.4627,168.7344,21.9717,91.0921,-64.8503,46.1561,164.6812,-42.3250
-3171.8750,-85.8225,-92.6964,-119.4074,-10.1630,-108.2805,143.5387,9.4960,138.4869,74.0800,-37.1145,-53.7838,3.1994,-40.3911,107.9160,-2.0333,30.0899,-124.4870,92.9885,140.5845,-66.2004
-3164.0625,-143.5480,61.3207,-142.9651,-31.5332,-57.9139,119.9469,-14.2531,188.9193,14.1995,13.2556,-114.5293,-20.2633,-64.0317,11.3914,-99.7275,7.3993,-74.8275,176.1303,223.7893,-52.7595
-3156.2500,-103.3738,-179.7895,-97.6245,-62.0081,134.3428,91.2560,103.8951,123.2513,-15.7794,20.5234,-69.3680,-48.8302,-19.7673,-54.2377,-54.5090,-58.3858,-35.2595,180.1755,263.9005,-118.4120
-3148.4375,-109.2938,-8.9953,-68.3796,-67.5817,199.4958,83.4641,132.9465,115.4847,13.1453,86.6833,-151.3130,-93.4915,-100.6073,-61.9652,-99.3912,-66.2672,-75.7995,209.1154,151.8983,-89.1484
-3140.6250,-151.0727,-50.0426,-72.9957,-39.0076,157.7800,41.8219,17.1439,110.8661,-64.7796,118.9974,-82.1176,-61.0004,-32.3013,-66.5326,-67.1236,-34.9829,58.8135,167.2041,180.0515,-130.7220
-3132.8125,18.8980,-160.3718,105.1438,-79.6886,188.8123,-1.0736,85.0963,30.9966,2.0549,39.0593,21.8309,-103.7636,35.7558,-109.3503,-73.0973,-76.9354,18.1764,91.0425,103.9537,-136.5395
-3125.0000,-10.4409,93.0178,107.9792,-72.6727,81.5294,-71.2661,14.7443,33.8320,-31.4066,-31.1751,24.4654,-63.8291,2.5082,-32.4741,-70.3642,-111.1805,59.2340,97.5867,39.5534,-59.6413
-3117.1875,26.7092,-80.1163,112.3095,-0.1613,48.7382,-103.9607,17.8907,-71.8324,8.6349,-26.9028,65.6044,13.6060,79.7627,-28.1010,-29.1250,-143.9153,132.8031,28.6280,41.6679,-92.2400
-3109.3750,81.3112,116.1924,130.0939,89.8011,-6.6058,-159.2056,-0.5089,-54.0411,27.1393,-9.1797,10.1841,68.4896,-12.5404,-47.2792,-85.4360,-126.1960,81.8092,48.1181,-114.7657,-37.3805
-3101.5625,24.3021,199.9030,33.2609,139.1627,-140.5696,-146.0450,-134.5180,-77.8421,-107.9571,40.9540,-13.8472,118.7774,-36.4533,39.9511,-35.3452,-76.0668,131.2113,61.0203,4.2123,-24.1108
-3093.7500,102.4858,-3.2178,115.6267,75.7235,-132.3333,-63.6858,-15.3166,-31.4425,-98.8456,-23.7048,-4.6813,54.2584,-27.1637,48.3751,10.9596,-103.7349,103.8095,33.1276,11.3985,-51.6383
-3085.9375,-2.1879,174.8208,42.1402,77.4260,-167.9549,9.8210,-52.9589,42.1146,-135.5730,-24.2067,-79.3763,54.8856,-64.7300,84.9458,-63.5956,-67.2435,69.5494,104.3938,12.7318,-15.0021
-3078.1250,-10.7724,-44.0537,-0.2517,70.2239,-63.4914,78.4301,-20.5097,73.7721,-141.1922,-28.6086,-10.9739,49.6137,-32.1976,43.6179,-105.0485,-34.6379,97.3962,96.7695,75.1737,-93.2597
-3070.3125,25.8418,28.2572,1.5569,72.2231,11.1672,154.2397,91.1484,112.6322,-65.6009,-100.8201,-9.3716,-21.4592,-67.4683,8.4857,-140.2972,-106.8238,-6.5632,98.3494,5.8116,-91.3090
-3062.5000,-16.6067,92.5293,-78.6923,29.1734,3.7591,182.9995,9.7539,142.4444,-73.0610,-108.0840,-52.8277,-28.5796,-74.7964,38.3068,-36.5881,-77.0518,-13.5717,125.8873,33.4025,-98.3967
-3054.6875,-4.5539,-176.7295,-64.4422,41.6198,92.8494,235.2588,134.8676,119.7542,-59.0193,-166.8509,-38.7768,-51.2019,13.3792,53.6343,14.6400,-62.7804,-37.0805,101.9172,10.4959,-156.9813
-3046.8750,-148.0488,32.4762,-67.7463,39.5171,88.3810,230.9718,167.4324,152.5194,-26.5254,-171.1627,-153.2880,-18.3721,-64.0026,86.4073,-26.6858,-30.0477,-39.1501,99.3940,-27.9687,-124.1011
-3039.0625,-162.2489,-52.0222,-80.7586,60.7073,112.1962,144.9809,155.2906,103.5864,35.2710,-109.1692,-92.5032,-30.2398,-40.0880,37.4756,-1.7039,-5.0037,53.0877,50.1747,-6.1192,-172.9139
-3031.2500,-28.5449,-22.6454,22.1346,19.7959,140.9090,63.8879,184.0597,96.5531,100.9833,-80.2723,-63.8164,-74.2151,-48.2750,-80.5628,-9.8201,-13.0583,-23.7841,43.8611,-83.3685,-143.8218
-3023.4375,-34.3548,113.2478,-22.4822,-56.6168,60.1080,19.2968,140.3243,89.0273,93.1964,-50.8680,-34.6391,-81.6940,-18.9672,-88.0961,-17.4421,-20.5998,5.8347,38.0576,-19.1161,-114.2171
-3015.6250,60.4826,-143.2371,79.5492,-67.3845,123.9516,-26.6418,167.2430,6.1478,84.0686,-23.8097,67.1912,-127.5260,118.9936,-133.9775,47.5958,-66.4856,-3.8950,-8.0930,5.7881,-159.9612
-3007.8125,94.7697,67.7281,75.0266,-32.7054,46.2420,-67.1263,126.6174,38.7202,79.4057,-27.3070,62.4647,-131.9094,41.3976,-138.4092,6.0839,-69.9102,-40.1898,25.2114,-65.8650,-90.2448
-3000.0000,14.4423,-11.9136,65.8932,-41.6325,-36.0814,-39.2136,43.3909,29.6913,33.1588,-36.4094,127.1363,-140.8935,106.1996,-147.4443,70.9927,-41.9267,-14.0807,51.9180,65.8939,-99.1211
-2992.1875,49.7663,-116.9337,102.4117,-6.9113,-0.7555,33.3437,116.8301,66.3120,69.5831,-36.8619,162.4575,-141.2349,105.6509,-147.8354,-3.4346,-79.2920,-119.3278,51.2738,-5.6990,-99.3431
-2984.3750,0.7316,116.7208,-59.4292,15.4552,-51.7915,129.5457,27.9124,125.5868,-18.3363,21.3514,37.4170,-81.9217,53.7401,-88.5707,-54.2207,-19.9942,-96.9344,73.2836,-53.6429,-76.9028
-2976.5625,49.9880,-150.3487,-42.9755,65.1167,38.4653,146.0464,82.2918,69.1578,-38.9569,1.8695,17.6769,-64.3075,34.1292,1.9963,36.3039,-40.3869,-48.2322,-19.4030,-5.2694,-133.1618
-2968.7500,25.7466,2.0799,-32.0198,41.2764,48.2222,157.0491,129.1755,79.2322,7.9322,-24.1163,-45.5632,-54.2008,-28.9864,49.0611,9.3269,-66.2788,-106.0403,-42.5823,-63.4010,-85.9133
-2960.9375,-97.4063,-15.3885,-49.9765,23.5278,30.0690,139.1548,74.1530,61.4148,26.9168,31.0030,-27.7057,-34.9927,-11.0013,-5.7751,-8.5506,-11.0612,16.2499,-25.6495,-11.4217,-103.5601
-2953.1250,26.7456,-101.5901,43.3714,78.0758,124.2194,85.5612,131.4415,7.8996,47.2101,-22.5788,-7.5488,-51.4895,9.2861,-132.3148,11.8768,9.4597,35.8321,-77.4106,-98.1377,-119.9088
-2945.3125,1.5923,155.9208,15.4166,89.3172,59.0624,57.6725,29.4337,17.0867,19.2122,-12.4616,-71.7000,-42.2911,-17.7356,-123.1576,-14.9987,18.6876,46.1067,-66.4648,-87.1517,-73.5477
-2937.5000,3.3867,-87.6406,93.4085,91.5085,62.8474,-12.2698,33.3711,-51.7786,23.1687,-9.3921,5.1061,-38.1481,22.1947,-45.0543,25.0919,-14.1281,119.3339,-99.5666,-15.2036,-106.2355
-2929.6875,-1.7635,12.8333,121.4509,85.7458,53.6787,-20.1619,61.3653,-60.5927,125.1872,-17.2706,-40.0383,-46.9532,14.1731,-16.8975,-19.7633,-21.8919,43.5952,-140.6198,-91.2080,-40.8688
-2921.8750,-44.9289,40.3164,74.4757,42.9769,-29.5000,-67.0564,-21.6439,-70.4041,42.2114,46.8622,23.8106,-19.7510,41.1433,10.2683,7.3794,42.3554,141.8492,-182.6656,-64.2025,-13.4962
-2914.0625,98.4018,-96.7286,151.9987,46.7013,-63.1725,-100.4454,-18.1408,-103.7168,45.7452,86.4908,63.1611,20.9433,44.6173,-23.0682,11.0277,82.1097,109.5994,-215.2076,-130.6907,-9.6258
