Time,Fp1,Fp2,F3,F4,C3,C4,P3,P4,O1,O2,F7,F8,T7,T8,P7,P8,Fz,Cz,Pz,ref
-4000.0000,23.1643,125.8695,-53.5547,85.6964,-70.7393,24.2508,-93.6186,18.3991,-56.5746,41.0763,-2.4685,93.2085,-53.3233,39.8759,-19.7006,35.0988,-35.3140,83.4150,-84.4180,-11.5094
-3992.1875,66.1604,85.3997,46.3732,79.3107,65.8399,88.7718,42.5333,-64.1643,-29.9132,-115.0638,25.2889,10.9181,-26.5671,-79.3886,-65.3736,-121.2670,26.7880,-29.2882,-58.0634,15.1805
-3984.3750,64.6408,112.3739,1.7598,34.3631,-16.1279,7.7342,-39.8662,-35.2980,-75.8007,-48.7627,18.5033,42.0791,-72.3542,-13.2082,-110.5890,-18.1872,86.3453,66.4539,0.7456,-66.6740
-3976.5625,166.1378,253.2587,113.0474,104.3241,57.8032,46.5877,-39.3672,3.4672,-148.7910,-157.5588,56.6203,7.1451,-108.2425,-48.1254,-145.9008,-163.2039,84.7989,-74.9065,-37.5456,-139.6497
-3968.7500,165.2357,216.2947,104.4987,-3.5654,48.8887,0.5954,-48.7104,-78.6214,-120.6328,-165.2124,85.8870,-36.6442,-116.9767,-129.9041,-117.0616,-209.0852,115.4046,-78.1323,28.3151,-38.4755
-3960.9375,204.4094,375.0820,55.6959,13.2952,-73.2856,-120.6564,-98.3133,-52.9617,-59.7205,-66.1024,110.9086,-9.6801,-165.9630,-103.9275,-165.4702,-146.2062,95.7594,-26.6079,7.9326,-234.5650
-3953.1250,318.4155,566.6248,178.6597,27.9108,-24.7028,-33.1587,-49.1514,-113.5566,-157.0527,-236.2546,124.6859,-31.9728,-190.1960,-201.2135,-226.1289,-242.5885,108.8642,-188.3546,-155.6993,-221.9205
-3945.3125,318.4836,598.2581,134.7316,-12.3874,-69.0139,-151.5699,-168.8830,-158.0606,-202.2802,-206.3045,154.5639,-1.1737,-161.3230,-171.4091,-233.6812,-176.8795,138.0691,-193.0078,-127.2229,-193.1692
-3937.5000,345.0543,608.3463,182.2479,-2.2340,-21.8783,-176.5384,-84.1673,-183.1100,-117.0623,-267.8882,203.8941,-61.9233,-150.0033,-196.1509,-184.7789,-238.7112,110.7173,-289.2093,-155.2910,-255.9859
-3929.6875,317.6065,479.7873,258.1214,-61.7311,54.6206,-136.1510,-119.0915,-216.8112,-225.4943,-301.1314,170.5697,-94.3285,-111.3280,-155.5529,-218.5249,-235.2056,155.7141,-244.0759,-147.0088,-106.4534
-3921.8750,204.4433,331.8187,142.5898,-34.6331,-25.2832,-105.1736,-163.4214,-111.9145,-231.3263,-84.7653,128.8436,-25.1321,-117.0476,-50.3503,-113.6658,-56.0898,111.3160,-181.3436,-51.1122,-186.3258
-3914.0625,124.1208,157.5446,174.7700,-33.8355,79.5274,-35.4930,52.9603,-79.3185,-52.4569,-161.7075,50.8207,-101.2445,-11.0602,-91.4529,-7.1081,-170.2776,39.6204,-321.9337,-17.5147,-117.5127
-3906.2500,23.9076,-39.6405,73.0640,-125.9468,14.4469,-136.7150,60.4439,-69.6365,29.5081,-42.5643,60.9066,-90.2600,71.0358,-81.4627,38.5539,-50.3785,52.0263,-203.4326,99.1828,-35.5886
-3898.4375,22.8254,-65.1711,83.9969,-82.4013,62.0042,-124.2908,70.5702,15.6916,4.1250,7.2403,109.6378,-114.6149,81.7776,-32.8116,49.8687,-1.8208,-11.9226,-230.2779,105.5354,-135.0315
-3890.6250,-36.5388,-250.0495,140.5936,-198.2007,155.2240,-68.2071,126.3644,-1.3326,96.3995,-10.3155,56.0116,-204.3271,138.1745,-86.5214,69.8378,-55.6258,11.7752,-239.5013,198.5376,-5.8279
-3882.8125,-120.7588,-360.6400,24.4890,-204.7051,111.7377,-109.8325,119.4539,29.9379,163.9743,95.4386,51.6858,-133.7343,131.8772,19.0665,138.1155,49.8766,3.7745,-142.4332,259.8516,-85.3190
-3875.0000,-111.3949,-422.5309,104.0966,-161.5099,228.9550,-29.7689,236.2527,-0.0949,207.2557,-44.1110,59.0699,-199.4503,175.2877,-47.6536,182.1000,-53.9310,10.4797,-275.6841,230.8714,-79.1216
-3867.1875,-167.6737,-505.9846,47.1690,-210.8767,171.6359,-49.2597,214.5132,-19.6863,222.9882,9.7845,38.9048,-144.7345,155.1586,7.0592,198.5360,0.7042,-5.3628,-114.4970,214.3468,10.5366
-3859.3750,-147.7655,-431.4967,17.1888,-102.3013,177.2633,-5.8109,220.7183,-13.3224,229.6741,-19.3497,46.6878,-100.0660,160.9804,13.7299,205.9213,7.3076,-3.2637,-76.3561,145.7787,-93.8652
-3851.5625,-118.3105,-454.0081,96.2157,-160.7162,255.8969,0.6531,298.9319,-80.9546,197.3577,-123.4920,52.4633,-166.4002,239.8015,-90.6006,211.3081,-97.0994,41.8294,-135.2386,190.2085,21.7334
-3843.7500,-228.7420,-576.5367,-30.7573,-249.1429,128.5259,-88.8937,245.1471,13.4063,291.0438,118.3699,0.2354,-143.7366,223.6301,4.0687,268.7008,71.4998,22.9247,-118.1287,381.6599,-68.6586
-3835.9375,-202.8372,-610.4736,44.8692,-212.9756,204.7575,-49.8480,393.9751,53.3717,330.3437,47.8397,3.6070,-213.4835,225.0661,-66.6628,271.6990,-36.2990,56.6169,-223.4320,379.7241,-140.4683
-3828.1250,-156.5967,-609.5231,75.4134,-248.9220,233.9025,-92.9069,312.7233,-26.7672,212.5528,-67.7993,70.8770,-219.3422,292.4044,-109.5114,265.6016,-116.2083,160.2097,-118.8520,377.6938,-37.3692
-3820.3125,-126.7335,-577.6826,77.8518,-252.9717,272.9447,-164.0744,314.3682,-61.0065,324.6632,-101.5196,147.0408,-251.3016,367.6451,-180.4541,341.4045,-150.2047,190.7021,-159.3673,476.5723,-219.3726
-3812.5000,-109.1528,-671.6520,232.5047,-382.8169,427.2009,-229.0340,578.2261,-237.0449,516.9757,-277.0476,156.4027,-425.0685,412.0888,-319.2054,497.4044,-326.0106,235.3949,-324.7030,485.6566,-175.1812
-3804.6875,-123.3445,-737.2996,199.5107,-484.3250,393.8175,-335.6468,544.4362,-269.7400,519.6407,-235.2211,234.1051,-384.4928,415.8858,-277.6070,500.7552,-247.4637,272.4389,-215.6861,522.1090,-208.6286
-3796.8750,-93.1826,-738.4545,274.0085,-452.3319,467.9295,-296.7543,582.1526,-268.9215,557.8129,-307.8777,272.2982,-418.4201,453.1791,-312.5005,502.6078,-319.4053,268.9761,-324.1703,518.0680,-318.5909
-3789.0625,-104.3960,-772.2691,305.8640,-485.9902,462.4029,-265.5019,538.2343,-273.7542,441.3392,-238.1938,230.8318,-422.0041,447.8307,-318.0507,423.8123,-288.0042,267.8614,-288.3305,552.3778,-214.1939
-3781.2500,-100.2466,-701.0955,234.7182,-415.6548,391.8711,-298.2601,394.3105,-159.5890,370.8643,-87.4975,234.3623,-380.5843,377.4934,-240.5972,354.0213,-173.5918,266.7469,-254.4885,584.6979,-321.7963
-3773.4375,-59.2162,-626.5294,270.9839,-377.9174,426.7470,-225.6115,465.7984,-124.0201,405.7899,-161.4022,234.2871,-453.7784,412.5612,-351.7457,352.6324,-321.7779,198.0300,-357.2653,516.4187,-250.0037
-3765.6250,-90.5073,-597.5929,184.6535,-418.7960,303.0308,-311.5640,378.6980,-136.0556,429.1235,-62.9041,221.6055,-390.5794,399.0336,-326.5004,413.6455,-260.5626,154.7113,-258.6490,507.5555,-152.7965
-3757.8125,-30.4394,-478.0750,233.9168,-336.0753,278.9159,-298.9196,427.2033,-123.4818,442.0672,-122.7937,235.5191,-376.7816,412.1126,-349.6477,353.2620,-283.7359,130.9838,-281.4391,377.3017,-176.9998
-3750.0000,-8.9157,-463.6749,275.0935,-321.4576,319.7148,-256.3699,393.6269,-191.0095,335.9177,-226.7937,203.3280,-334.1000,343.1026,-343.9063,284.7865,-278.0205,178.1560,-232.3529,318.9514,10.7069
-3742.1875,-43.8409,-411.1467,147.4185,-270.7006,228.6625,-272.6760,229.1998,-135.3882,244.9256,-60.6262,187.2785,-240.2690,252.2424,-178.0103,231.4654,-111.1424,158.4781,-146.1179,297.7660,-80.4296
-3734.3750,-13.4312,-276.1220,177.2501,-206.4389,221.1174,-170.4791,331.2845,-142.2629,273.4380,-139.9635,106.7249,-245.9416,207.8828,-184.6163,187.6456,-191.7699,80.3042,-258.3987,220.0846,-88.0736
-3726.5625,-71.3286,-252.2641,48.9471,-253.3395,92.4343,-187.4361,239.2360,-123.2983,255.8019,-46.4586,53.0180,-188.7787,189.3864,-91.3852,169.6780,-61.5520,30.9784,-201.8396,205.2630,-32.8504
-3718.7500,-31.6442,-111.5323,17.5399,-183.3499,60.6518,-144.5008,244.0927,-80.4287,224.0789,-77.0383,59.2035,-144.7229,121.7991,-48.2476,139.6162,-18.4154,-5.4541,-201.3844,133.3575,-174.7332
-3710.9375,1.9639,-78.8235,47.1394,-222.3669,125.8765,-152.5547,271.9735,-161.5547,216.3647,-194.6187,52.3765,-187.6788,113.2204,-129.1118,131.5594,-136.2837,60.1063,-275.9518,163.4607,-109.6107
-3703.1250,26.1161,0.2095,-13.9186,-214.0427,28.4483,-249.2615,211.2067,-185.3245,229.0071,-143.8287,102.8843,-136.2836,52.9979,-115.6223,107.8554,-48.7858,102.0113,-233.1755,169.9281,-244.1272
-3695.3125,179.3337,169.3350,162.1241,-186.6159,167.1179,-220.8663,239.5473,-265.9832,146.7571,-334.9285,205.4888,-179.7979,44.8747,-234.0319,27.2549,-241.1821,163.0144,-383.3237,18.5025,-289.5470
-3687.5000,239.8257,219.5901,246.3302,-242.0493,103.9441,-283.3218,65.0504,-329.5026,9.6659,-323.8905,253.2374,-204.1747,17.9060,-259.3011,-36.1947,-229.4330,212.1719,-298.3405,-3.7599,-205.7914
-3679.6875,258.2067,336.6718,226.3865,-161.6418,9.6176,-265.9336,-28.5935,-312.1689,-10.5680,-231.9851,233.8280,-149.7040,-38.2142,-204.7161,-54.7955,-174.8205,185.1808,-288.5027,-30.1542,-373.1850
-3671.8750,271.4794,321.1397,314.8575,-141.8336,97.7105,-177.1412,22.1841,-333.4369,-69.3994,-363.6904,175.8093,-132.8449,-23.9214,-226.7393,-39.9907,-269.8188,238.5868,-304.2798,-153.1498,-285.1747
-3664.0625,250.6553,375.3785,220.1304,-18.2395,2.6064,-124.5528,-147.2367,-280.9034,-201.4290,-236.5880,154.5844,-42.1946,-45.8161,-136.9640,-97.3849,-144.0055,185.7896,-110.2566,-242.3318,-233.3454
-3656.2500,256.4930,532.6514,192.4513,173.4040,-25.4486,32.0852,-175.5985,-124.3107,-339.3993,-227.4238,17.4027,41.5008,-146.6563,-54.1362,-235.7245,-134.1340,23.0340,-61.1956,-404.4514,-114.4704
-3648.4375,132.0156,507.4451,5.3326,217.5874,-174.9420,177.2815,-325.3884,-16.1731,-415.8089,-8.7162,-168.2427,186.7342,-258.9448,91.2372,-384.5125,84.2771,-108.1629,194.3940,-396.0101,139.9750
-3640.6250,69.0424,534.5708,-184.4439,314.1189,-293.0921,243.8220,-406.8322,160.3185,-459.8683,169.3555,-211.5471,291.3224,-303.8845,268.9694,-390.9555,225.0604,-155.0078,290.3388,-371.2074,58.7767
-3632.8125,84.8585,446.9351,-61.9592,332.9053,-170.9835,329.6220,-322.0146,173.0639,-447.6815,34.6716,-198.6067,268.1535,-254.5718,207.9523,-415.1499,90.0925,-172.6051,202.5164,-390.1510,180.8308
-3625.0000,-1.3671,316.6182,-130.1192,272.0308,-239.5222,261.7759,-390.8375,215.1614,-406.1351,225.3459,-230.3315,275.3216,-286.9009,287.2803,-372.9939,243.4832,-199.8555,317.0404,-311.7307,259.2551
-3617.1875,-36.1003,258.9329,-118.6361,283.7971,-190.4126,310.5753,-268.9937,227.9223,-283.9215,201.6895,-291.4147,215.1298,-274.5686,263.2605,-250.1842,219.5363,-188.4684,223.2020,-301.6443,234.3257
-3609.3750,-90.4273,144.6677,-135.6916,239.0006,-171.8441,293.8309,-249.6759,138.1380,-264.2415,185.4824,-308.0611,272.3731,-217.7755,282.6804,-229.9178,239.0313,-164.6364,282.7900,-313.0990,363.8655
-3601.5625,-120.8444,160.0687,-227.0545,324.8876,-263.5815,313.7780,-341.6566,267.0595,-318.8517,314.9986,-288.0161,329.3098,-236.2787,412.8101,-247.9439,369.2502,-256.1090,368.0770,-369.8333,272.1174
-3593.7500,-94.2943,179.5502,-177.3132,377.8761,-213.2135,400.8319,-329.5242,280.0909,-343.3559,255.6190,-311.8841,307.3399,-222.6820,353.0420,-307.8703,272.5701,-239.4830,279.4478,-388.4581,358.4739
-3585.9375,-145.2409,85.3124,-242.2682,318.1595,-279.5400,335.1887,-395.0864,288.4201,-335.5620,375.5434,-303.4651,353.6629,-251.7821,361.5719,-299.5010,392.1984,-230.5574,396.1106,-273.7766,403.1581
-3578.1250,-140.9481,145.5569,-248.7281,378.9430,-285.3739,330.0436,-328.1483,356.2584,-268.2633,369.9825,-345.5567,312.4857,-221.3797,355.6106,-268.6332,349.3463,-276.1344,350.2711,-249.5833,286.3425
-3570.3125,-165.1461,72.8787,-223.0714,339.8146,-224.0897,392.0066,-267.0840,308.1924,-242.8534,322.5116,-393.5563,301.3911,-232.8689,307.7373,-279.6648,265.5850,-281.6074,416.5132,-255.2828,421.6408
-3562.5000,-169.2936,126.7149,-312.8652,429.2223,-314.2542,376.5104,-393.4644,329.6743,-369.8798,344.6022,-372.0159,433.8389,-211.7972,403.4156,-295.1394,360.3862,-264.5277,540.3077,-308.4153,368.5016
-3554.6875,-84.4253,190.4319,-211.7565,457.5294,-213.5147,440.9197,-366.9250,283.0688,-415.9932,225.5996,-308.5902,352.1780,-221.8195,319.9986,-267.7081,241.0953,-201.5581,391.9848,-351.6362,395.2585
-3546.8750,-125.4876,121.1709,-251.5943,351.8730,-290.7161,364.3817,-407.3144,245.5157,-382.0463,333.6512,-310.1242,350.5556,-224.7845,354.6297,-270.2233,348.8595,-167.5500,461.6927,-282.8040,429.0936
-3539.0625,-93.2846,229.4868,-242.8418,426.8085,-281.3254,373.4369,-399.1030,327.5712,-336.4902,380.3170,-301.0657,360.5318,-289.1398,400.8651,-297.1327,358.2430,-235.9443,393.9905,-351.3561,290.5401
-3531.2500,-55.1009,200.6249,-134.2267,396.5925,-211.0742,408.3462,-365.0224,252.4727,-413.0757,268.8229,-267.1656,359.3438,-218.6363,288.9422,-336.1909,283.4718,-197.4806,259.1200,-383.0467,434.8512
-3523.4375,-128.6960,101.5310,-236.8110,332.1633,-277.0207,269.0552,-431.1386,223.1779,-331.8571,351.1418,-258.4780,368.9489,-210.3281,370.8261,-254.4523,402.5149,-192.2161,369.0571,-236.9220,368.9805
-3515.6250,-118.1720,96.7665,-203.0472,327.0864,-206.6132,304.1193,-250.8960,257.2459,-224.2825,275.8214,-297.4514,256.8949,-213.6677,258.0685,-220.3614,289.9202,-198.6079,293.3339,-173.4351,292.4561
-3507.8125,-159.3584,34.1115,-274.1259,228.1380,-204.0502,269.3438,-175.4773,259.4668,-148.5386,241.6514,-332.2882,223.9750,-210.8496,224.4593,-217.1126,255.4775,-192.8569,369.7380,-61.7798,368.1028
-3500.0000,-128.0873,103.7191,-305.9159,263.4754,-236.1928,238.8640,-133.7474,265.9991,-69.4747,248.8020,-252.8417,193.3516,-168.7269,193.1606,-138.5553,225.3569,-229.8133,298.4377,-27.8021,226.0557
-3492.1875,-116.5428,16.3009,-182.6976,140.8101,-150.3249,214.3879,26.0141,204.5357,16.6026,187.9467,-239.4037,97.7172,-119.5916,59.8499,-87.9926,92.2281,-213.7725,140.1115,-12.8158,312.0192
-3484.3750,-187.9538,-88.0990,-290.4312,71.1789,-259.4030,107.9550,-83.1647,244.1198,18.7407,338.1559,-200.9266,137.1229,-81.3997,135.5858,-49.3769,241.1575,-213.6826,174.8370,57.2385,277.0561
-3476.5625,-124.7710,-24.9656,-187.6189,98.1006,-229.9371,136.0748,-16.7897,237.2689,46.4378,258.9277,-133.9087,58.0744,-14.6576,55.8817,16.7897,160.6549,-258.0469,-8.8926,-21.1502,232.6371
-3468.7500,-138.5101,-111.8594,-138.7921,-58.9818,-217.4583,40.2042,-5.3999,140.4168,60.1355,234.6918,-121.9005,-1.9869,34.0960,32.1713,66.9488,175.1501,-205.4075,9.3619,30.4690,355.2384
-3460.9375,-172.2792,-121.8838,-217.0688,-34.1789,-260.0811,-38.7752,24.8905,171.4725,127.7389,304.3727,-126.9969,-6.1562,27.7507,99.3675,98.0130,243.5636,-216.8668,-2.4801,124.0078,202.7496
-3453.1250,-138.8498,-115.4297,-138.8354,-61.8853,-145.1916,2.7465,176.7030,103.0341,241.8581,162.5568,-121.6071,-73.8392,32.9122,-4.9432,139.5809,65.4782,-211.8269,-136.8427,94.0573,243.7649
-3445.3125,-181.6220,-156.6097,-220.2017,-103.2101,-226.8997,-77.3372,94.9356,95.9994,234.3949,230.1496,-128.8334,-7.1386,25.4824,25.1441,132.5542,204.7993,-183.3925,-2.8163,157.5310,236.2051
-3437.5000,-118.8621,-108.3677,-128.1297,-55.0974,-135.1634,-22.9768,149.6344,114.4298,179.3993,175.2087,-74.6222,-60.9968,6.5073,42.6835,77.9866,186.5882,-172.5112,-96.3411,98.4745,107.0965
-3429.6875,-138.7665,-196.5513,-78.4443,-108.3949,-85.8113,27.9873,125.9555,54.4580,156.0120,115.8588,-97.8136,-47.2739,19.1465,56.8109,54.0227,126.9697,-121.0226,-114.2831,80.0216,193.6027
-3421.8750,-135.9916,-186.7090,-137.7049,-98.6472,-145.4107,-32.0047,66.3239,106.5319,170.6774,168.5672,-46.9589,4.5015,-2.1594,108.9897,33.1066,179.4150,-78.4786,-71.1682,123.6280,61.1677
-3414.0625,-57.2997,-165.7362,-7.8063,-77.7426,-15.8528,25.1638,159.8560,52.7601,153.5004,5.4231,10.0390,-83.5811,17.6869,-18.6828,53.3436,16.0096,-22.7857,-190.9216,72.3868,80.8845
-3406.2500,-107.8392,-209.6045,-56.7106,-157.6564,-65.0879,-58.4579,74.5977,41.1922,141.5308,105.4838,-38.7777,-57.4764,42.7428,6.8544,78.7834,115.8182,2.0997,-59.4817,132.3561,105.8296
-3398.4375,-87.9921,-147.3570,-57.4784,-95.4317,-30.1801,-23.9302,109.4925,76.7909,139.7237,67.7196,-39.4578,-96.2293,77.9555,42.5565,77.3809,114.8041,-6.8725,-67.8908,89.4973,-43.0769
-3390.6250,-52.4396,-182.7956,9.1150,-130.8703,73.0951,-31.0516,175.7731,-3.2575,133.2888,-48.7027,-9.7995,-174.6539,107.5309,-73.4022,70.3344,-38.8624,61.5109,-69.9770,87.0049,60.3740
-3382.8125,-51.1051,-149.0223,-25.0398,-132.0780,39.6208,-100.9324,68.3183,-36.0556,136.1202,-6.8661,30.0991,-60.8372,74.3628,-33.1086,74.5456,38.7358,60.1484,69.1801,85.7850,-46.9125
-3375.0000,38.2257,-58.4235,106.6603,-41.4416,169.9998,-42.9616,124.7279,-51.9961,83.8101,-133.1752,50.8457,-76.1838,21.0511,-122.9631,58.6103,-123.8096,78.6390,-16.8245,-0.5749,-63.3527
-3367.1875,6.2995,-99.9524,59.2689,-82.9179,160.2899,-90.0861,41.0513,-99.0374,36.4081,-68.5886,40.4859,-48.6404,47.6449,-95.9283,48.5742,-96.4612,107.0373,82.0597,62.9762,0.1297
-3359.3750,-17.0712,-51.9570,6.4236,-34.8478,143.1284,-69.6725,60.9300,-4.5189,93.5670,-10.4340,-12.3345,-100.5503,67.7938,-38.3399,69.0906,-38.5467,47.9882,94.4922,75.0976,-163.8398
-3351.5625,-26.8795,-96.3843,28.1890,-78.1859,238.5762,-9.6526,156.4364,17.6045,79.3478,-97.6820,-63.5627,-151.8841,90.5544,-126.1605,55.2123,-89.0369,73.5375,49.4997,64.8313,-68.2048
-3343.7500,-37.5803,-60.3038,-42.5021,-7.9982,167.5741,-44.0939,48.5075,21.2809,44.6953,-20.3649,-61.2537,-37.6783,19.8714,-12.4305,57.8919,-11.9602,108.6381,155.0572,29.1415,-139.0018
-3335.9375,39.7497,0.9510,59.0076,88.3855,231.7748,21.6603,76.7926,-23.8327,36.2591,-137.8413,4.2458,-45.2798,10.3902,-57.4968,12.7787,-129.6714,132.9423,39.8018,-51.3345,-184.6052
-3328.1250,16.5889,-82.2214,78.1304,5.3560,139.5875,3.0145,21.6965,-78.3513,18.4322,-118.7264,22.3406,-25.2996,29.5193,-37.9785,32.2699,-73.7894,154.8561,26.1279,5.8017,-92.5873
-3320.3125,-2.6468,-36.6221,20.0507,16.1080,82.1963,-16.8397,37.4037,-25.0676,71.4222,-64.7976,1.2348,-8.5305,45.4548,15.3472,85.5653,-20.0954,128.5749,1.2603,-20.2436,-223.7685
-3312.5000,37.7000,-40.9007,119.1310,11.9993,143.9714,45.4636,99.2840,-35.6274,-13.4238,-185.7275,-9.7245,-55.6299,71.5514,-69.1846,75.0158,-141.2586,159.4497,-73.4765,-60.1272,-87.8021
-3304.6875,1.3534,-40.4188,9.0198,-22.3247,70.5576,-27.4388,-48.0215,0.6061,-87.4648,-36.8605,-9.8884,-17.9377,-2.5385,41.0781,38.2739,43.3849,159.1336,67.5779,10.8042,-88.0209
-3296.8750,59.4506,-15.0045,112.8567,4.2967,137.0943,39.6075,18.6302,-5.1972,-19.5465,-116.0303,56.8904,-61.3074,-8.6756,-1.7026,-4.5171,-36.0068,148.7659,-83.4268,-34.2959,-168.2978
-3289.0625,29.4404,-69.5788,121.7533,-51.0504,181.6973,11.7061,27.3626,-69.9490,-11.5567,-143.1568,28.7122,-51.6585,36.2442,-29.4461,3.7466,-63.3534,128.4552,-103.4009,-19.3225,-12.5098
-3281.2500,20.6013,2.5538,52.3942,21.3255,76.0471,-57.4589,-42.1435,-27.9458,-43.7915,-27.5129,33.2773,63.7318,40.9208,11.5627,8.7693,15.0684,58.8975,-31.6226,-17.5721,-81.9692
-3273.4375,36.5432,51.3610,61.7446,35.3956,122.1091,-10.9226,41.0771,-55.2381,2.6952,-127.1688,6.5395,0.8052,87.3040,-51.7386,55.4967,-120.8157,36.0424,-124.1688,-75.1064,1.2654
-3265.6250,-7.1974,8.8802,-22.1482,-41.8066,37.9307,-57.6497,-5.9280,-100.7829,29.9509,-27.0775,32.5464,-9.3915,113.4487,-25.3031,81.9879,-20.9512,-6.0578,-60.9766,-11.8620,64.2678
-3257.8125,36.2909,78.8673,15.4541,28.4744,1.2540,-57.8911,-5.4166,-64.8190,66.7294,-25.4742,69.0480,-45.1011,77.1049,-24.3659,82.9929,-56.5732,-42.6542,-131.2862,-83.0937,27.7602
-3250.0000,7.6202,-0.1732,34.0750,-50.2571,19.5947,-74.1276,13.1230,-116.8545,49.5192,-77.8825,15.5486,-23.8354,96.7766,-77.4389,66.0042,-108.2053,-17.2457,-105.6230,12.6809,194.2614
-3242.1875,0.7782,22.4135,-46.6579,7.6421,-98.4194,-117.7281,-30.6855,-87.2427,5.9712,25.3714,44.6993,79.0754,16.1071,25.1360,59.6728,-6.1739,5.8188,21.6859,1.1274,76.4219
-3234.3750,96.8664,119.6327,91.2615,70.1804,40.2216,19.3132,-2.8203,-132.9739,-76.9044,-165.7261,72.4952,70.6218,7.0988,-20.6470,-22.9950,-123.4965,66.5372,-57.3767,-148.7563,67.2237
-3226.5625,67.0058,44.7625,86.1406,30.6469,33.8289,13.2949,-118.9741,-175.7608,-118.8043,-133.8802,66.2319,102.0950,1.0550,10.5034,-65.6996,-54.8744,97.2176,79.5002,-82.6697,97.9892
-3218.7500,71.0513,92.8103,106.9649,115.0520,54.3882,34.2139,-98.1653,-81.5911,-61.7389,-113.0707,12.9183,49.5112,-15.0311,31.6069,-44.4438,-108.2876,39.8491,56.3239,-34.6128,-65.3046
-3210.9375,60.8474,59.3751,139.3481,45.9948,123.5133,67.6875,8.2163,-84.8707,-65.1098,-151.7191,-27.8467,9.4530,-18.5493,-45.7461,-47.6330,-147.1578,5.0346,22.6787,-32.9938,40.9554
-3203.1250,18.0949,45.3994,16.2288,67.4140,37.1430,-18.3461,-77.8909,-23.6537,-113.9670,-16.8644,-3.1128,71.8856,-30.5610,16.4019,-22.3131,-12.5197,-44.2718,149.5329,23.1523,-8.2771
-3195.3125,55.0696,41.6481,86.3656,64.0739,107.0358,51.8673,28.2716,9.8180,-80.5558,-93.7638,28.8710,-42.4483,1.6845,-61.2025,10.2668,-125.6307,-48.3201,39.6214,-15.4320,-12.2755
-3187.5000,-9.5026,-46.5834,26.0644,-24.7379,46.4939,-9.3706,5.0098,-14.1657,-30.5740,-6.1238,5.4033,7.7490,-21.5070,-11.2733,-12.5953,-38.2053,-67.8108,91.2433,36.5563,74.2849
-3179.6875,4.1467,-5.9447,1.6571,52.3362,21.8456,4.2795,-56.3405,-0.2383,-54.6744,8.4337,54.8315,57.8363,-45.7918,75.5598,-36.5478,48.1345,-61.3970,26.7635,8.4677,-60.2685
-3171.8750,69.6586,23.1173,101.7163,47.8452,84.6670,67.3779,-66.2108,-83.8588,-138.3076,-147.5699,80.7130,48.3470,-18.6129,-8.1700,-83.0455,-71.0858,38.4781,-49.2912,-32.1558,39.6204
-3164.0625,63.8721,36.3957,44.0298,60.5817,-10.2499,-27.2840,-160.8209,-105.2320,-121.6822,-95.3200,96.8438,101.0877,-76.1709,45.3401,-66.2812,18.9441,86.6154,103.9017,15.4935,-18.2302
-3156.2500,112.7128,165.6975,73.3911,155.3526,18.8884,38.0945,-58.3621,-75.5494,-55.9776,-176.0160,52.0249,56.8631,-47.6724,-36.1052,-74.4536,-98.9754,74.8072,22.1308,-29.7769,-100.0470
-3148.4375,72.3877,92.7145,65.5173,47.8489,47.7913,-5.7854,-28.1169,-83.1213,-62.4957,-107.9722,7.9547,13.3628,-17.4078,-80.8164,-80.8608,-69.1586,72.7603,55.0797,37.7283,2.8906
-3140.6250,39.0619,102.4544,-28.6100,58.0745,-9.5554,-62.9350,-49.1077,7.0565,-46.2434,18.8312,23.6382,66.5991,-38.3880,9.2186,-64.5097,21.4220,11.4713,29.7783,119.0097,-128.4288
-3132.8125,16.9142,11.0280,19.1282,2.1321,37.9631,21.7526,72.7807,19.0833,38.8829,-42.5301,-2.8208,-32.3445,-63.5016,-52.9166,-52.2967,-3.1617,-9.9525,-167.6964,133.1556,-43.9063
-3125.0000,-113.5006,-130.7832,-128.4725,-104.1863,-109.8535,-52.9238,72.3358,91.7422,185.6785,178.7503,-76.6227,-69.6575,-100.9494,56.5844,-16.4187,180.8924,-80.7072,-62.5262,238.9733,-44.7279
-3117.1875,-123.8196,-126.8156,-120.2700,-98.7098,-65.8631,-8.8071,153.7037,173.2020,231.2815,150.8254,-105.6213,-98.1785,-93.5853,27.8866,29.2664,152.7529,-146.6513,-128.5588,208.6040,-110.7713
-3109.3750,-126.0589,-177.6283,-108.7976,-184.9978,-53.5990,3.5651,129.3468,148.9091,170.1465,127.1340,-94.3692,-121.4727,-43.9621,3.4250,5.2098,128.8510,-93.3364,-109.3646,192.4996,48.4369
-3101.5625,-96.1238,-148.4310,-108.2806,-155.2640,-90.2825,-107.0289,56.0514,149.6652,133.0910,201.5047,-21.0603,-85.7384,-44.2781,40.0130,42.2210,166.0074,-27.9607,-80.1276,188.4728,-62.3096
-3093.7500,10.4068,-36.6575,43.8521,-77.9502,-12.3500,-65.0340,135.3886,45.0215,102.6590,23.4614,20.8614,-80.4282,-1.9814,-64.8138,10.8403,-49.2465,14.0270,-178.3153,55.0636,-20.4714
-3085.9375,21.9716,14.1856,-14.8957,-26.5636,-71.3018,-122.9508,2.8428,-51.5383,80.3384,-35.4968,71.8919,44.9611,13.4277,-50.5563,26.5672,-34.4114,30.1390,-23.4125,0.7762,30.4738
-3078.1250,77.9142,80.2603,57.6130,40.0651,-72.0009,-51.6353,38.5504,-88.8470,80.2814,-145.2028,108.1763,44.5932,12.0895,-51.0506,25.5499,-71.3242,26.5190,-62.2571,-38.2382,-44.3532
-3070.3125,45.9105,-25.9370,49.8889,-66.5682,-43.9248,-22.5693,141.0415,-132.4097,108.9947,-152.1774,100.2099,-36.0525,41.5149,-131.8178,18.2955,-114.5096,24.6670,-63.3792,31.5163,94.5615
-3062.5000,-42.7221,-58.8645,-88.5345,-62.9333,-108.5401,-88.2239,76.8531,-50.6783,156.0308,-32.8491,34.5531,8.5800,13.2566,-13.2941,64.3563,41.6035,-41.8788,44.7921,71.5960,-7.2262
-3054.6875,-12.8763,-8.4052,-35.5506,-46.9138,-55.7479,1.5072,203.0842,-34.5501,135.4846,-125.1352,14.3133,-49.4065,29.4175,-34.3846,80.8317,-15.8941,-61.0203,-115.6560,-17.9119,8.3666
-3046.8750,-55.4420,-93.8696,-56.4561,-131.8205,-76.8446,-54.6729,73.4382,-53.3342,115.0557,-34.3329,30.1786,-31.3170,83.6930,-17.3904,98.4209,74.6961,-42.0492,-60.0196,2.7003,98.0621
-3039.0625,-37.1223,-9.8538,-71.8656,-48.2428,-92.4373,-72.3717,20.3079,3.3855,100.1485,22.9737,13.5501,25.2609,67.4765,3.1007,82.5249,59.7900,-27.5659,-82.8917,-18.1641,-28.7625
-3031.2500,-20.4317,-18.2622,-13.6536,-91.0819,-34.4079,-13.4754,42.8110,-11.3008,48.8612,8.8591,-1.4738,-62.5905,52.8738,-47.8290,68.2381,8.4660,-36.4673,-91.1921,-61.4059,103.0059
-3023.4375,-25.1724,-40.9090,-69.6389,-112.1522,-127.5638,-105.7997,-49.8714,42.7990,66.3982,100.5385,53.3076,-45.6591,34.0856,5.0323,49.7686,99.9354,13.4510,-7.6941,24.1866,46.5753
-3015.6250,69.6575,32.1218,45.0808,-74.5343,-12.0062,-102.4307,65.1708,-26.4014,71.6579,-42.0860,130.7930,-78.0468,38.0063,-136.4131,54.0111,-78.9038,51.0868,-144.5040,-7.5039,13.8164
-3007.8125,44.9258,-21.7689,58.9167,-162.8352,-36.3276,-162.9613,42.3408,-48.5108,49.0357,9.3688,107.3821,-101.3583,52.0432,-160.7742,31.3610,-27.6606,32.8371,-58.2364,44.9228,100.1554
-3000.0000,-7.2254,-22.1360,-43.6975,-127.6063,-102.0944,-155.9659,13.0724,67.9274,93.9886,127.3750,77.5320,-95.1366,22.6455,-43.5940,76.2792,53.1331,-36.8493,-58.4315,81.9265,-39.9705
-2992.1875,-11.2870,-99.3714,18.8578,-133.2512,-39.6907,-56.8330,112.9886,20.5053,83.1126,6.5088,66.8471,-141.7938,85.4134,-90.2846,66.3618,-66.9464,-42.3721,-135.5004,76.1001,59.0423
-2984.3750,-19.4160,-96.5391,-50.4789,-130.8271,-72.1778,-89.6206,8.0203,25.1764,15.3538,48.7393,107.2698,-28.3680,53.2969,-13.8882,34.5552,10.0619,-4.7768,7.5298,44.4014,26.1552
-2976.5625,86.6078,73.7261,59.6441,6.0309,0.7993,-16.9697,-29.4811,-11.7043,-57.9442,-61.5903,144.1558,8.4840,53.6398,-51.0538,-2.7894,-100.4873,27.2871,-66.9980,-98.8229,-48.3078
-2968.7500,83.4765,64.3179,82.1459,-38.7876,24.1564,-67.9806,-116.6046,-62.2529,-108.8664,-37.6003,129.4052,-6.3498,76.3495,-64.8974,-15.7722,-75.7218,52.7243,-7.1980,-107.6722,47.5760
-2960.9375,75.7463,113.1340,31.8976,10.6183,-27.2278,-82.7636,-166.4600,-3.5605,-121.5151,58.6417,114.9161,53.0516,26.3241,30.5018,-66.4916,19.2902,32.4248,112.8495,-92.2418,-114.3075
-2953.1250,84.9482,77.3375,105.0589,11.4151,45.8106,25.8487,-56.8876,32.5288,-121.7420,-14.7400,77.8329,-21.1678,-11.2845,-43.7160,-29.7994,-54.3189,33.5369,7.2741,-125.3984,-78.8103
-2945.3125,-13.4116,-23.3865,-0.6718,-18.7200,-23.0338,-5.4529,-87.1967,37.7052,-78.8569,100.9682,8.8582,20.6905,-5.7779,34.1512,13.0103,61.1604,3.7637,46.7863,-14.4280,-74.2111
-2937.5000,38.0917,77.1674,35.8966,11.4217,49.4302,-7.4737,-14.1848,0.1828,-5.6453,-10.0238,45.1946,18.8252,31.0429,-3.6899,50.1366,-13.0658,-0.6970,-98.4089,-52.1329,-149.3382
-2929.6875,50.6707,-33.5558,97.2349,-96.7116,111.6739,-56.7545,47.6152,-84.6025,20.3401,-93.2917,106.2903,-102.3239,92.6295,-88.8074,39.0270,-96.5698,65.6109,-136.8738,14.9354,22.2751
-2921.8750,2.1902,-75.5574,21.3305,-139.1252,-1.3196,-133.3086,9.1825,-50.6486,55.0981,51.1857,104.1516,-69.7469,53.9804,-18.1836,73.6801,10.6700,25.6858,-38.5879,115.7824,-54.3766
-2914.0625,4.0657,-65.6223,69.3955,-93.6080,9.6584,-11.9198,94.7254,-2.7475,66.8289,-11.4067,40.9794,-59.2471,-8.7039,-7.6297,11.2963,-52.1657,-34.2722,-99.3730,57.5971,-44.1045
-2906.2500,-45.2338,-61.0589,-34.8726,-53.4614,-94.6907,-6.8946,-46.0589,39.7865,-0.7780,104.6277,-26.5326,56.8844,-75.7220,70.5554,-18.4271,64.6274,-28.5569,81.4805,64.0777,-39.1844
-2898.4375,13.0418,21.2430,-16.3934,99.4283,-76.2865,84.8627,-64.0863,95.0644,-91.6191,50.4081,28.7156,74.7592,-93.9742,89.4870,-36.3866,9.1645,-16.0807,23.0789,-28.6734,-168.5397
-2890.6250,67.5423,26.5818,94.1534,70.3516,-2.8127,120.6646,-100.0330,-15.6210,-164.3941,-95.7887,65.0287,37.6588,-19.1558,15.4463,-72.2817,-64.2775,61.4654,-6.3061,-91.3626,-21.8542
-2882.8125,57.5952,56.3457,20.1627,65.6926,-76.8740,8.8904,-210.5160,-15.8713,-200.7043,-22.5488,101.8095,72.9857,17.1282,87.8398,-35.7094,82.7192,92.4806,59.7544,-59.5762,-96.7214
-2875.0000,89.7285,47.9543,123.0396,57.8630,63.9343,37.9491,-70.1301,-60.2815,-96.1489,-140.4790,94.4596,-7.8665,47.2790,6.0687,-5.2767,-108.4561,120.3691,-89.3538,-65.9251,-104.7594
-2867.1875,64.5579,-49.3561,93.0382,-38.8938,69.8667,-66.9054,-25.6257,-163.6136,-52.4820,-132.3417,137.2291,-2.6440,53.5504,-61.6249,38.2663,-101.5619,165.3819,-10.3761,14.8487,-25.6949
-2859.3750,133.8780,64.2647,144.9898,4.2792,47.7622,-88.8304,-10.1563,-150.0056,0.1583,-155.2630,188.9610,-25.4845,68.7815,-83.3788,54.7740,-160.7321,174.3614,-2.4440,-45.4016,-158.7040
-2851.5625,132.7764,16.5727,202.6577,-41.8620,142.3840,-69.0546,48.0450,-201.7098,-15.4804,-243.5112,172.4033,-78.6517,90.7276,-137.4531,38.9939,-212.2314,163.0519,-49.8353,-20.9430,-65.0276
-2843.7500,39.0911,-73.6941,76.7822,-96.5836,53.4651,-121.8492,-3.2853,-144.9785,44.3498,-75.3191,120.3079,-57.3937,39.1446,-43.0879,97.6818,-44.2885,145.2056,71.2140,101.9877,-154.9019
-2835.9375,48.6484,-99.4664,130.4106,-86.8204,107.0565,-33.1668,159.9038,-55.7527,97.7000,-96.6396,99.7302,-152.6551,55.0761,-101.2357,77.8851,-138.8600,120.8731,10.7468,79.4370,-250.2985
-2828.1250,22.7049,-136.7000,125.6084,-123.5285,102.2198,-38.9420,119.6659,-23.9982,93.6161,-27.4423,57.7123,-121.3859,14.5681,-69.8583,0.6457,-106.9121,120.1161,8.8104,149.4553,-182.1441
-2820.3125,-2.5548,-96.3524,65.4104,-82.6584,41.9939,-63.1396,60.0355,25.3469,144.1478,59.3500,34.3085,-72.5356,-9.3292,-20.8897,51.0176,-20.3788,90.9883,-21.5267,157.1033,-317.4074
-2812.5000,34.7600,-98.8671,131.3888,-119.6575,107.9469,1.8007,200.5807,-19.1728,137.8438,-57.7414,63.0756,-154.5667,20.9405,-138.7966,80.5492,-138.7313,91.0386,-163.7304,85.9218,-178.5395
-2804.6875,-18.0840,-116.8619,2.9313,-102.1364,16.4787,-90.7252,108.6966,-38.1618,157.1032,33.6904,45.4090,-63.0721,39.7766,-84.1719,63.6439,-46.5588,109.6633,-41.3853,141.3110,-161.1252
-2796.8750,3.6333,-45.2630,10.0791,-30.0252,60.6263,-47.6608,190.4240,-30.5598,164.9743,-32.2948,15.3576,-93.9913,47.2239,-77.9511,71.3501,-76.8052,111.9028,-109.4437,109.3142,-265.1387
-2789.0625,-47.5096,-163.4233,31.5003,-112.6811,81.0542,-65.3532,212.4271,-47.7260,187.1095,-48.0677,-37.4296,-110.6868,31.9389,-58.5087,92.3161,-19.8374,136.4143,-157.2699,169.5811,-171.9079
-2781.2500,-71.5952,-172.2481,-44.7221,-121.0130,42.8455,-141.7188,173.7921,-12.5580,259.6107,23.5009,-2.8503,-114.0481,67.0163,-23.7303,164.6405,15.4659,129.2960,-129.7393,234.2205,-285.3414
-2773.4375,-18.5944,-181.5242,54.6253,-129.8080,178.2138,-80.5444,273.7287,-24.8503,175.6758,-98.4066,22.2974,-199.8888,92.6576,-110.4257,117.5248,-143.7126,156.7460,-139.6724,191.4188,-224.2449
-2765.6250,-43.9318,-206.8175,-7.0139,-154.6288,116.6024,-107.3783,138.6834,22.8365,76.7552,22.6643,33.4529,-115.7498,67.3138,-63.1363,55.4198,-22.9187,168.2156,11.3904,203.6348,-214.1478
-2757.8125,34.5254,-102.3681,72.0978,-84.7120,195.7569,-65.4748,144.3981,-9.7365,83.5942,-82.5329,112.3695,-111.8696,73.7305,-95.1004,62.0747,-91.3909,169.4535,-94.7944,99.6203,-320.3271
-2750.0000,60.7575,-154.6793,158.4827,-172.5610,282.1920,-127.3227,232.3903,-181.0782,170.6953,-216.5191,162.5500,-173.7644,123.4141,-230.8304,111.9882,-189.6502,223.9555,-217.7489,119.8671,-161.2641
-2742.1875,20.4986,-184.8113,95.0724,-201.2361,218.8433,-228.9904,169.5955,-171.2340,218.0089,-96.3204,172.9490,-164.4753,97.3115,-147.3714,160.1148,-69.7226,195.6797,-106.5075,163.3367,-226.0116
-2734.3750,6.9937,-186.7944,129.8292,-167.7717,253.6653,-121.5188,240.9719,-137.2488,217.4856,-135.9974,96.5177,-205.0588,95.3736,-113.7759,121.3973,-145.6726,125.5689,-143.1342,128.9678,-192.6335
-2726.5625,-49.1258,-236.1321,41.2554,-216.6825,202.1564,-101.4054,153.0137,-116.6284,165.6195,-41.0485,81.7543,-148.0201,117.1026,-56.5533,70.3337,-51.0020,78.1226,-51.1215,188.2560,-135.6002
-2718.7500,-1.3714,-158.9208,56.2318,-174.0617,217.2013,-87.7612,168.6053,-65.4646,145.3140,-63.5576,133.5592,-170.4431,133.3905,-79.7874,122.8277,-73.7912,87.2363,-113.5623,162.1111,-269.0302
-2710.9375,17.7648,-181.0698,139.8782,-195.8078,263.9197,-115.4738,216.8735,-92.6646,118.6732,-90.4514,106.0248,-235.2386,143.3379,-181.3891,132.9796,-174.9667,102.0182,-135.3701,178.6299,-149.8146
-2703.1250,-3.1003,-140.2896,74.4795,-154.6313,162.6004,-182.2502,115.0993,-48.9318,90.9934,27.5896,77.4516,-155.1020,78.2525,-137.0459,142.0894,-56.2051,73.7721,-24.2220,186.1198,-179.6525
-2695.3125,60.2811,-64.8569,153.7404,-78.8128,241.9521,-141.3846,194.9911,-43.5532,60.9753,-77.7409,83.5446,-188.3353,84.8279,-207.0680,111.8582,-198.8203,81.1910,-159.4351,123.2661,-138.8613
-2687.5000,21.5446,-115.1820,97.2719,-127.7626,185.5781,-161.2779,102.1518,-64.9490,78.2137,-60.8595,62.9067,-134.3392,64.6706,-189.8635,91.8884,-145.2251,103.8827,-104.4128,181.6684,-12.8105
-2679.6875,33.9066,-11.6049,67.7071,-59.8250,118.1110,-157.2924,36.2138,-22.4667,86.3605,17.9092,33.1825,-93.4489,35.4252,-111.7645,62.8246,-103.7438,103.4947,-70.4881,146.9852,-154.8701
-2671.8750,74.8011,-3.5348,145.6625,-52.3979,160.1720,-80.8070,77.8053,-55.5011,54.0245,-87.8602,36.9696,-127.0820,39.6931,-181.1843,-5.7321,-172.8019,148.6174,-168.0737,86.8099,-41.4379
-2664.0625,39.2157,-7.6328,71.4680,-91.1460,49.1020,-156.4836,4.2597,-56.6953,54.5508,21.2083,-0.3909,-92.8850,-33.1769,-110.7619,30.5670,-28.0234,181.6001,-65.8048,191.5066,-80.1526
-2656.2500,71.4489,9.8174,130.8215,-107.3570,108.5917,-97.6159,138.2788,-34.3351,115.6370,-67.1828,22.8064,-182.1554,-10.4906,-125.7909,54.4198,-116.7094,167.1397,-188.9835,141.7685,-132.3385
-2648.4375,49.2222,2.5131,81.4411,-114.3340,96.3591,-111.5005,53.5649,-84.7367,29.9779,-43.3578,47.2646,-121.1938,51.4544,-138.5910,42.5209,-129.1804,89.9472,-90.9240,66.2914,0.7311
-2640.6250,42.1647,107.3556,-22.7874,-10.1756,-7.7097,-70.2508,-87.0003,-6.0025,-36.5294,35.6042,52.8886,-7.0902,-16.4405,-24.2489,-24.2248,-14.5192,-14.0693,-20.7099,32.9796,-105.0570
-2632.8125,46.5738,38.6582,50.4570,-43.5721,64.6944,37.4391,22.8999,-8.8342,-37.5800,-76.0142,14.9801,-83.5540,-16.8778,-100.4819,-25.5157,-89.4473,25.3845,-124.0579,73.1191,2.5956
-2625.0000,-37.5971,-58.1425,-49.3875,-103.0873,3.0135,-63.9803,-2.2929,1.2178,48.2716,43.2521,-11.0189,-38.1350,-5.4042,-17.8241,23.0932,29.5046,1.7477,-8.5054,155.1637,12.1589
-2617.1875,8.7270,38.3645,-15.9285,-7.3139,35.6398,4.8953,67.8171,33.5659,81.4290,-35.1962,-14.7049,-43.4285,-8.6235,-22.8673,20.0060,-49.2551,-5.5771,-87.6566,78.5118,-66.9895
-2609.3750,16.8332,21.3624,36.0531,-58.0580,14.7965,-18.7333,47.4450,-25.6091,61.0958,-56.1822,-36.8738,-65.2454,6.6718,-81.4301,-1.5778,-70.5535,15.6185,-34.3211,100.3639,57.3709
-2601.5625,-17.2847,23.1024,-64.2108,12.9318,-48.2886,-9.6261,20.8223,-17.0522,71.5187,62.5646,-26.2784,-21.3188,-56.2790,-0.2416,9.5886,47.8844,-16.4153,37.7745,104.9774,-81.5197
-2593.7500,7.9690,-1.0964,56.5919,23.9709,35.7004,72.5298,106.2605,-7.4583,46.9903,-74.6743,-52.6182,-49.3509,-45.1756,-28.0120,-16.1982,-16.6561,-3.3819,-92.0874,47.6334,-35.3715
-2585.9375,-61.1239,-59.6464,-40.9384,-34.3571,-61.6399,10.3315,9.3558,3.7651,23.1063,46.7015,-77.2969,-1.7486,-32.4100,56.8517,33.6614,105.4256,-23.6764,-8.2937,97.9437,12.4400
-2578.1250,-21.3110,4.3597,-39.9167,29.8553,-60.4169,45.6762,47.0044,76.5267,23.7745,9.6120,-39.4181,-39.6067,-31.0899,55.2624,34.0756,67.0382,-28.4069,-49.9369,58.8109,-99.2110
-2570.3125,9.1466,32.4232,21.1759,-12.8873,0.8845,69.0721,35.7210,26.3225,-24.5057,-39.4701,-52.4782,-53.4327,-6.7078,4.7047,-14.4603,-19.3416,1.9305,-22.5382,-16.2801,34.1915
-2562.5000,18.5833,93.4860,-18.7277,49.3608,-38.8068,27.4603,-77.5695,22.1012,-100.7863,28.4350,-55.5291,14.7380,-46.3237,73.1430,-53.9983,49.2659,30.2843,145.8740,-21.3666,-44.3995
-2554.6875,52.1233,99.4614,62.2785,90.5093,79.4191,143.7517,-31.9580,-8.2268,-128.1697,-110.7859,-47.6688,20.7967,-1.0353,6.4765,-82.6405,-91.2520,38.5482,46.1871,-83.5551,-38.1001
-2546.8750,-10.8695,21.1832,16.0490,82.3919,70.4165,131.7937,-150.5863,-19.8183,-173.8018,-48.2858,-94.0506,82.5909,-10.9848,105.5485,-90.5367,6.9476,32.5739,214.2459,-87.9908,23.9682
-2539.0625,-12.1317,90.8087,-51.2781,187.1660,2.3236,173.7213,-145.3206,58.4770,-167.5370,-7.8989,-88.5173,123.2790,-41.0262,146.5174,-85.5333,49.0347,-36.4861,178.2152,-157.5214,-82.0631
-2531.2500,36.2575,143.9937,33.9560,170.4835,14.8029,184.2016,-94.4909,-2.6934,-190.7246,-106.0009,-75.4253,96.5050,8.4876,46.0273,-71.9798,-13.3625,-49.9806,20.7321,-206.5071,112.4619
-2523.4375,-0.2153,129.6777,-50.3069,121.2838,-106.2076,59.1775,-179.1633,-16.3755,-129.4077,27.3814,-50.8292,156.2233,-3.4942,106.0361,-9.9305,81.7218,-61.9634,77.7620,-111.9838,98.4978
-2515.6250,1.5869,113.7151,7.7881,140.4364,-82.8530,80.5085,-45.4792,4.2862,-31.7430,-24.9121,-64.8702,66.2819,55.8794,53.3881,12.4652,-5.8687,-146.5848,-43.8515,-90.1131,82.8731
-2507.8125,-109.7561,-6.5954,-118.4546,56.2364,-100.8252,61.4961,10.8613,-14.4190,24.5616,29.4116,-156.2557,119.9860,39.9048,71.3805,32.5077,85.1594,-194.5430,82.1829,-31.5974,173.9165
-2500.0000,-134.5268,69.2002,-251.6001,166.1306,-159.6932,110.5757,-12.7073,107.9715,0.9639,114.8268,-179.5354,168.7868,16.0360,156.4800,45.6468,133.2763,-256.3961,158.3380,-128.9801,39.0600
-2492.1875,-90.9363,110.9080,-173.8317,137.9211,-81.6365,223.5611,-6.3607,110.2517,-139.7352,45.1079,-174.9082,97.4711,22.0742,122.4655,14.6839,99.2568,-282.3391,131.3899,-224.4716,152.1095
-2484.3750,-111.9867,87.8670,-231.8084,79.9472,-212.3180,126.7940,-100.7660,161.7631,-87.1873,205.6157,-159.0255,111.3997,1.3679,173.6979,-6.0367,223.4696,-233.0229,178.7111,-103.7118,129.4303
-2476.5625,-79.9329,88.6911,-152.9387,115.8300,-96.1423,130.8825,51.6721,166.1211,28.2031,98.9581,-154.2880,41.1810,5.5087,103.7853,35.0843,79.5226,-229.8490,38.8935,-66.1138,59.5957
-2468.7500,-116.2921,-9.9801,-148.5503,17.2096,-55.4489,95.4841,57.6135,130.9674,34.0802,102.7648,-150.0470,44.4531,48.1530,105.3698,3.6954,119.0460,-221.1676,45.5731,-56.0245,172.2826
-2460.9375,-64.1936,80.0488,-159.4719,71.2811,-102.0511,46.7828,-62.7550,119.5092,-12.3458,126.2662,-50.1038,104.4271,36.4952,130.6623,-6.0012,143.2664,-198.7770,29.9749,-104.2352,86.6791
-2453.1250,-1.0666,29.3436,5.8666,20.6033,-10.3866,63.3417,29.1323,-10.7064,5.4714,-77.0098,4.0956,10.6428,56.0896,37.1989,11.5449,-24.2881,-107.1270,-125.3761,-82.2143,176.3328
-2445.3125,-81.4144,-118.5462,-72.9876,-56.2781,-88.9121,-16.2986,-12.1891,-17.1429,38.0751,26.4845,-0.9012,40.6603,51.4914,102.5316,80.8810,79.9344,-76.6653,9.0883,18.5935,169.8155
-2437.5000,-52.4031,-58.3166,-38.7452,38.9484,-54.3347,52.1632,21.5734,51.5163,34.7655,22.0661,-4.7899,34.7853,47.9894,98.9737,40.3073,37.2432,-119.0999,-1.3242,-58.5129,55.4017
-2429.6875,-35.5305,-36.1222,-19.5360,26.1280,-34.7882,69.5866,5.2857,-3.8849,-18.6108,-33.4368,-21.7232,52.8540,31.4421,43.3575,23.6669,-18.5257,-94.5793,22.2130,-104.6859,182.9628
-2421.8750,-3.7842,47.7291,-71.6802,39.9532,-86.5851,-21.3399,-83.3692,-20.6470,-33.3512,22.7024,34.9935,70.5780,51.5407,61.3983,8.6660,37.3471,-42.4010,35.4294,-17.2161,92.1948
-2414.0625,44.7583,14.3968,75.9778,-28.4127,61.4302,-20.4560,65.7761,-57.6134,42.6999,-124.3792,73.5124,-75.9014,127.4329,-84.7587,47.4566,-109.0013,-39.4174,-102.5488,-12.9599,129.2352
-2406.2500,-30.0143,-67.3312,-9.7648,-110.1817,-60.9491,-108.9595,16.5223,-35.9903,66.3432,7.1165,24.6265,-54.7783,114.9235,-26.3117,70.8356,22.2309,-48.8343,27.0887,47.8879,187.9056
-2398.4375,9.0018,44.1063,-32.3692,1.2039,-83.1766,-60.3108,30.4041,48.7853,79.1252,-17.2439,36.8900,-6.4974,54.5591,-14.7013,83.3495,-39.3852,-75.0987,-2.0968,-48.1276,89.7301
-2390.6250,25.9978,16.6137,43.0910,-26.3551,-7.3375,-23.5942,70.3320,-59.3944,9.9410,-127.5876,3.2059,-6.1698,95.2463,-87.0430,49.8973,-149.9807,4.6927,5.7695,-109.1142,237.6245
-2382.8125,23.7445,29.9847,-9.6037,22.9387,-59.6437,-41.0243,-91.9097,-40.7365,-79.4098,1.9053,24.3742,13.0167,42.7773,5.4720,-2.7174,-20.7315,55.3403,125.5111,-57.2647,146.3934
-2375.0000,89.9806,83.0325,85.3567,38.8988,35.7069,15.2055,-32.5116,-19.4306,-94.1293,-87.9701,45.1969,-40.1423,27.9540,-84.3575,-53.6966,-146.8501,74.6413,72.9113,-72.7896,93.8206
-2367.1875,45.3536,37.8935,40.1254,-4.3420,27.8711,-30.7544,-78.3209,-30.3383,-66.0607,11.9283,0.8193,-14.5046,19.9294,-95.3929,-62.8872,-121.1903,67.7499,169.1214,25.4685,120.0833
-2359.3750,37.2456,106.8203,-27.0643,63.4726,-1.9177,10.3377,-107.0928,84.7976,-58.9513,89.8734,-30.5056,-10.8085,-48.0476,-17.3651,-92.0406,-44.4829,33.9030,168.4050,-9.2388,-21.5879
-2351.5625,22.0064,54.5198,25.5054,46.0460,50.0539,97.1964,-18.1175,24.6799,-80.1110,-6.4589,-88.0760,-33.3589,-31.2752,-39.5868,-113.4623,-104.0481,18.8026,81.4432,11.7754,102.5177
-2343.7500,-52.4580,-19.5659,-121.7330,6.8278,-22.7813,21.2670,-91.9667,95.7578,-43.0996,137.3956,-88.4475,-0.6909,-68.3129,67.4070,-114.7045,39.5787,16.9047,182.7150,79.9705,63.8571
-2335.9375,-10.1002,-35.3708,-25.7240,25.8766,73.6316,79.6058,40.4147,43.0871,16.1420,-24.5145,-29.5685,-52.7596,-9.1131,-22.3353,-54.7198,-85.5500,38.2558,-8.7467,-2.6072,48.4556
-2328.1250,-17.1448,-101.9068,9.5302,-75.8189,73.2903,40.2036,3.0203,-106.3300,14.6110,-102.1833,5.5547,-19.5702,26.3213,-24.8076,-19.5030,-89.4281,79.8546,31.0647,2.0442,192.3348
-2320.3125,-4.6430,-6.4748,-29.2722,19.4514,32.9007,-2.2328,-35.4441,-73.8019,-23.9865,-69.9079,2.6201,48.5879,-12.3036,43.6856,-22.3559,-20.3599,36.3990,91.8482,-40.3810,78.1901
-2312.5000,26.6861,4.8685,52.8186,30.6382,43.4124,78.2471,9.9862,-67.3824,-51.6976,-136.7494,-25.4223,19.6580,-4.0348,-21.9088,-50.3216,-124.3951,49.8425,31.5542,-62.9336,158.9717
-2304.6875,4.1245,22.4769,-33.8402,48.0843,-79.8216,26.9937,-112.3473,-44.7134,-28.1769,-4.3579,-1.2235,76.9902,-53.5190,72.7631,-64.0506,7.8169,34.5309,121.5364,-42.2645,108.0299
-2296.8750,74.5523,86.6383,74.0457,112.0926,-44.4957,61.3132,-4.1389,-48.4926,6.8738,-118.4344,32.5186,36.8795,-54.4545,-4.0077,-102.2371,-69.4330,29.7659,10.0905,-82.0608,31.6712
-2289.0625,52.3807,11.2482,100.3702,0.5546,-17.7199,13.0967,22.5171,-96.8173,33.3717,-94.0610,22.6980,-11.7751,-28.9473,-52.3146,-75.9910,-119.2459,26.4451,39.1261,-50.4099,166.7940
-2281.2500,40.0290,82.3702,-1.8178,36.5305,-82.4494,-18.5945,-42.3424,-17.6300,-31.6461,57.8121,29.3672,30.0838,-93.9604,26.8959,-68.2676,-3.5563,-39.3792,146.6960,-47.2788,63.4364
-2273.4375,55.4330,135.5722,17.0373,54.5805,9.8673,71.7883,12.8225,-0.3820,-50.6513,-35.2699,-24.9257,10.0092,-75.9421,-28.8312,-86.5266,-97.8150,-55.1553,95.3417,-97.1231,117.1510
-2265.6250,-1.9771,76.4101,-80.5199,31.2426,-50.2255,10.7862,-83.4363,11.4717,-73.0765,50.2378,-48.6250,57.5500,-62.3405,55.0531,-73.2085,24.5230,-6.3317,177.6083,-13.3913,129.4866
-2257.8125,23.4610,63.1381,-16.2284,52.7711,50.5333,73.6463,-18.8692,36.1704,-82.6722,-34.4254,-21.4732,9.9570,-33.9059,44.8037,-120.0750,11.6973,16.3416,58.7465,-60.8485,45.6937
-2250.0000,53.1578,5.4097,65.5691,-5.1835,96.7893,80.0224,-47.8350,-66.6397,-148.8084,-176.6094,60.1829,16.8805,10.0148,15.0591,-112.4690,-91.6379,31.5178,71.4027,-116.8453,199.4299
-2242.1875,15.0746,98.2727,-88.0844,87.4307,-56.4107,71.9665,-164.2784,-74.9068,-154.4259,-74.2622,16.3864,155.3724,-69.5349,153.8789,-118.3351,9.5655,-13.7638,199.6284,-127.3234,81.7436
-2234.3750,49.1325,174.7196,-6.1930,163.6140,24.9327,188.4785,-46.1885,-68.6268,-109.5099,-178.3793,-48.8786,124.4293,-61.5515,86.2555,-110.6778,-94.6919,-41.4961,30.4280,-190.2833,88.6386
-2226.5625,9.7746,119.9002,-65.6154,143.5165,-70.0354,127.7084,-142.4200,-92.6457,-132.9265,-92.8028,-35.4512,210.2089,-46.8861,98.3506,-60.3442,-9.2483,-23.5374,46.9510,-137.5757,175.2647
-2218.7500,88.5422,180.7082,2.5571,169.0322,-75.4139,47.5541,-110.0757,-100.0577,-100.7669,-136.6308,68.5693,166.5976,-15.6297,55.0585,-29.4366,-90.2015,38.0128,-32.9120,-146.2923,95.5199
-2210.9375,114.2109,132.7454,94.9295,86.7596,17.4056,29.6099,-54.5507,-156.2726,-119.4374,-193.2769,88.7881,37.2051,39.8148,-73.0190,-47.3540,-146.9569,62.7633,-44.5592,-156.8430,224.0096
-2203.1250,68.2660,128.6101,21.0999,45.3009,-55.9750,-45.5220,-165.2584,-84.6919,-119.3402,-12.1346,87.8032,107.6303,3.0455,34.7167,-84.4981,35.0880,-10.6842,90.6115,-160.6191,149.3326
-2195.3125,95.6906,218.1002,41.8690,170.4578,-34.7625,119.9639,-144.3907,-28.5102,-172.6706,-103.3986,35.4077,126.6710,-49.1447,54.0751,-101.0644,-57.2608,-59.5403,-29.5985,-245.8275,169.2863
-2187.5000,52.4460,141.2601,-4.7271,93.2861,-117.9097,36.1274,-190.9001,-76.6717,-182.3733,-79.0166,25.6451,152.3835,-22.7045,80.1083,-75.0050,5.0490,-29.7612,-0.1300,-109.4206,268.9226
-2179.6875,43.7424,155.3035,-55.4825,70.9887,-130.2109,-15.8326,-130.5881,-17.9810,-85.2617,-20.8010,47.7293,99.9668,0.5724,101.0076,-52.1217,25.2051,-49.1448,-21.7690,-59.2074,107.4405
-2171.8750,85.3027,133.8303,67.2023,-19.8345,-44.0708,-41.3197,-7.8594,-44.8341,-36.7323,-121.1396,60.2560,38.0251,-23.7148,-34.6228,-39.8186,-74.1920,-33.0917,-76.9229,-79.5846,192.4397
-2164.0625,45.5250,142.3842,-33.1296,-12.6357,-106.9421,-105.7787,-108.1513,-35.6752,-63.2263,34.5347,33.7644,82.1100,-50.0267,47.7684,-66.5448,44.4250,-24.0590,70.9481,-70.9907,165.4635
-2156.2500,93.8641,156.0164,58.5798,70.6399,-14.7791,-15.1589,-53.4216,-18.4496,-81.7095,-59.7387,51.3090,62.2685,-69.3209,-8.7602,-122.2539,-49.8968,-8.9887,-20.1009,-90.3898,109.5702
-2148.4375,24.4454,3.8824,43.4783,-10.8557,43.5698,-31.3086,-105.5381,-72.0057,-98.0456,-39.8117,-0.9553,46.6564,-84.4343,11.9354,-138.8098,-31.0093,16.2779,109.0889,4.3729,203.9113
-2140.6250,-9.3753,56.5796,-76.8332,41.4785,-39.2907,30.3660,-115.8883,62.2464,-71.6103,93.9171,-47.4348,70.8635,-167.7663,110.4485,-148.5921,66.6852,-34.6659,198.1072,-13.0946,46.0801
-2132.8125,2.1955,88.4086,-46.0502,71.9361,28.9393,134.1653,-48.1643,54.6039,-77.1071,-23.2626,-90.8253,63.1948,-137.0242,66.0803,-155.3044,-13.5197,-37.5122,53.2589,-85.5029,113.3810
-2125.0000,-13.4854,105.1663,-100.3801,53.3177,-61.9357,41.8864,-175.5656,35.8637,-131.7242,66.4422,-71.3263,155.4510,-81.4040,121.6317,-136.1385,76.1772,-19.4648,176.3442,-68.0483,95.6067
-2117.1875,31.3101,169.7015,-28.9668,117.4760,-27.0680,112.3820,-141.2366,69.8708,-170.6174,25.8847,-73.0858,78.4854,-83.0460,117.9553,-139.2426,72.6249,-24.6794,100.2046,-143.8863,19.6055
-2109.3750,-18.8621,27.3541,-33.4562,10.7512,5.8927,106.9991,-108.8311,26.9766,-139.4401,20.4239,-78.7533,71.6410,-87.6077,75.3982,-144.2698,65.1828,-23.7978,135.1870,-73.6517,124.7317
-2101.5625,-70.1072,-3.1811,-132.1575,49.8455,-20.3553,80.4407,-134.6463,109.8995,-91.4858,102.7710,-67.6302,118.6129,-76.3941,159.6671,-133.5293,148.5577,-88.1301,174.9969,-69.6388,-11.3275
-2093.7500,-36.3805,-21.8461,-42.0208,66.8022,70.2374,132.7568,-44.6285,88.6865,-75.7044,-30.0271,-50.6704,23.4520,-23.3480,64.8046,-80.9552,15.7890,-70.6263,51.6776,-121.8051,41.4818
-2085.9375,-81.5018,-72.2393,-95.6449,15.0228,18.0677,79.3413,-134.3841,70.7312,-55.6948,98.4273,-67.4687,79.5557,-77.0566,121.2082,-61.1506,108.2744,-49.8890,141.6340,-66.7494,61.5646
-2078.1250,-7.8807,54.3382,-68.3198,107.2141,46.8417,106.8964,-106.2112,97.7328,-64.7585,14.8220,-40.3271,106.6232,-121.8255,111.5733,-70.4169,24.7097,7.7915,93.5654,-115.7730,-57.3727
-2070.3125,40.7278,58.2299,41.3008,39.7270,119.9132,68.7694,-33.7670,-14.9619,-102.5569,-97.4923,-3.8872,31.0130,-49.3121,-0.7495,-71.4076,-51.5503,11.7767,96.8259,-111.5293,52.0238
-2062.5000,-27.5902,-19.4579,-33.6843,-3.3359,82.3770,-6.9367,-72.9527,19.7466,-31.9832,8.5918,-6.0542,27.8323,-15.4216,70.3470,-38.0196,91.5981,-29.8460,160.5181,-48.9119,-60.1547
-2054.6875,-48.5724,-64.0271,-5.5741,-13.2763,109.9378,93.4754,64.9366,45.5637,-4.3323,-39.2237,-52.1346,-18.2329,12.5546,60.5603,-10.5516,7.8490,-73.3756,45.3285,-58.2271,-69.2033
-2046.8750,-133.0098,-128.7838,-109.6711,-42.3963,42.2891,60.7151,-4.3977,86.1911,0.0894,110.7667,-119.4233,58.5229,17.3142,101.5998,-6.3138,120.9122,-100.1217,86.9696,-16.7770,-27.4173
-2039.0625,-83.4194,-15.7210,-134.9797,35.3034,-17.5699,73.7782,-27.9558,171.6326,13.2857,159.5632,-70.9283,34.1035,-43.1398,114.4653,6.7012,132.7914,-93.0926,-45.5593,-44.5582,-124.8011
-2031.2500,-33.7332,-21.1960,-35.8614,-6.5269,6.9992,60.3183,-3.0839,47.5464,36.9145,-3.1761,-46.0071,-16.8409,-55.1571,26.8069,-5.8487,44.1413,-25.6420,-119.6120,-13.9132,46.2947
-2023.4375,-49.9976,-51.9070,-66.0259,-37.5817,-58.6980,-6.3663,-69.4758,54.2268,43.2816,112.8475,-40.3577,26.9957,-121.4435,69.9302,-36.6652,123.2641,12.5387,24.1091,59.4522,-19.8358
-2015.6250,7.0904,13.3022,41.6986,27.2842,86.4980,26.8688,37.0164,13.8266,3.5199,-38.2364,-42.8162,-13.2497,-51.8471,-6.0278,-3.6038,-27.6988,9.6058,-15.2474,-50.3207,-59.0371
-2007.8125,-18.9169,-63.0114,30.8655,-49.3833,76.1289,-20.4265,-46.0729,1.8762,-42.8248,-13.8661,-15.8251,-25.0236,12.1781,-17.5171,-13.1261,33.8026,4.1123,84.8680,-20.6712,41.2401
-2000.0000,-15.6957,-10.2579,-17.9269,3.0101,27.7966,-32.6619,-60.1340,61.9858,-20.1310,45.5610,8.2059,-1.7234,-0.7698,6.0642,9.3778,56.3673,-48.3407,68.0491,-3.9904,-81.4218
-1992.1875,-8.6496,-79.2366,52.5256,-31.3388,98.7093,37.3636,47.0455,-15.6588,13.8059,-68.7651,-31.5108,-42.1636,-39.4786,-34.0981,6.1205,-94.8189,59.4545,-36.5143,-1.0778,26.1738
-1984.3750,-19.6998,-36.9918,-48.8170,10.5265,-3.1851,-28.4054,-90.5899,-8.1128,-51.0733,11.0888,-24.0232,75.6120,-104.9963,47.9440,-58.9462,59.1888,102.4457,111.1220,4.0041,-2.0210
-1976.5625,61.0179,70.5377,30.0942,117.6634,40.1586,50.0885,-85.9984,-3.3142,-156.7305,-95.8113,18.7062,80.6533,-136.2809,52.2446,-91.7839,-10.5474,104.6756,43.0232,-64.7091,-69.9454
-1968.7500,27.8803,-7.4968,54.3913,74.2197,27.8800,75.0044,-98.0400,-17.1115,-133.0220,-72.3015,-30.1786,31.1157,-112.1929,2.9668,-104.2408,12.1400,98.2915,106.3516,-37.0618,28.5556
-1960.9375,6.8860,39.6032,-37.2263,50.9057,-26.3217,19.0418,-44.0150,74.2029,-42.2477,54.3059,-11.9704,11.7100,-58.0248,20.8135,-87.6249,65.9426,4.9997,83.8021,9.6487,-99.8306
-1953.1250,4.4551,-18.0075,46.3970,-7.1311,20.7087,65.3519,76.2244,82.7807,40.7366,-10.8325,-39.5174,-52.4158,-11.6248,-80.0711,-40.7994,-72.9947,-17.0593,-43.4704,-13.4288,-15.9529
-1945.3125,-63.7441,-107.8383,-47.2368,-97.3961,-71.5268,-28.5636,-17.8156,98.1240,56.4408,150.7852,-23.3256,-36.7718,-31.5028,9.8108,10.7493,88.8339,-35.3874,43.0286,72.2114,0.6939
-1937.5000,-39.6195,-59.4933,-31.7320,-14.4896,-56.6287,23.6873,-2.7311,150.6252,35.2730,128.5598,-43.9988,-20.9500,-89.2505,24.8629,-10.5743,29.8289,-22.5809,-14.3052,49.9734,-56.4908
-1929.6875,-16.5054,-5.4260,-17.5457,4.1393,-42.0503,36.6631,-62.9634,88.8391,-62.2197,103.0421,-66.9860,-9.4038,-112.3175,0.6398,-71.2116,41.5414,-2.0972,5.0825,-1.6030,104.0429
-1921.8750,-15.1721,65.8709,-85.1741,74.9941,-146.2918,5.8596,-168.0237,130.2662,-93.5446,180.7329,-61.7833,69.3708,-144.2033,79.6453,-102.6776,156.4719,-1.4287,76.6906,-2.0175,-0.2091
-1914.0625,55.9262,91.6432,49.6443,30.3207,-10.0960,68.5301,-31.6622,45.1563,-68.4517,20.8786,-36.1331,-15.3806,-118.6698,-41.8826,-114.7224,-3.1335,59.6817,-2.2307,-47.0195,26.0097
-1906.2500,13.3522,-2.1647,23.8541,-29.9362,-34.5182,-31.3849,-94.9337,-18.5381,-20.9884,67.4355,-25.0946,-4.7097,-70.7531,-30.9881,-67.3893,43.6893,107.1750,114.2626,-0.6489,37.6472
-1898.4375,16.7734,63.8934,26.8979,36.6696,-33.1082,7.5685,-20.3723,56.6374,16.3158,67.8661,-60.2251,-3.1739,-70.0142,7.7789,-30.2237,44.3832,32.4939,40.6206,-6.4477,-106.8507
-1890.6250,8.1961,47.3657,38.3241,-16.3021,16.6782,19.9423,64.5747,31.2274,28.0014,41.7075,-46.9760,-28.2096,-56.8889,-17.0332,-17.6806,18.4970,-53.8092,-46.6013,-93.8704,53.0715
-1882.8125,-11.6268,80.7655,-72.3687,-18.3458,-94.6526,-55.7612,-46.6094,65.7341,25.5597,112.4584,-12.8409,43.6853,-21.8865,18.0776,15.7428,125.5291,-55.2321,-47.8978,-61.4254,51.9116
-1875.0000,42.2236,71.9855,26.7276,43.4350,-31.2045,-29.6421,15.9762,-19.9493,14.8802,-46.9876,13.0887,-4.5924,3.9055,-65.9960,4.9476,3.3808,41.1332,-126.3687,-71.2116,78.5693
-1867.1875,20.2591,26.1732,13.7614,-2.8153,-44.8212,-41.5564,-71.5123,-32.6670,-36.8617,11.5293,-0.0425,18.0972,-10.3800,-6.0945,-46.9179,62.2002,67.4307,39.1406,-47.0734,139.1883
-1859.3750,27.4491,90.9909,-23.6195,96.5613,-43.8552,-4.8414,-108.4190,40.2364,-73.0292,47.6647,-0.5868,19.4132,-47.0914,67.4215,-47.2092,98.6389,25.3045,34.2738,-53.3699,-6.5845
-1851.5625,-11.3468,-31.4176,28.7404,-26.2833,-28.1548,83.6465,16.3966,16.9051,14.5182,-13.4447,-21.3924,-40.4931,-32.0728,45.7151,4.2257,38.8490,-26.0862,-86.8251,-1.9556,82.4092
-1843.7500,-110.7353,-118.8048,-96.9108,-79.1016,-117.4798,31.1551,-0.8244,74.5873,107.0333,116.4726,-74.2110,17.6298,-48.0762,140.0378,59.6356,169.0903,-78.4897,-34.9050,84.4217,30.4131
-1835.9375,-68.6673,-94.2726,-34.6712,-18.9955,-53.9245,57.5897,171.8241,63.1926,132.4144,-5.6928,-49.1484,6.6837,12.7930,19.2875,84.9188,10.2607,-89.0078,-185.0605,37.6609,20.3281
-1828.1250,-88.7731,-122.9164,-70.6469,-84.0567,-53.5872,-15.1523,134.2404,-10.3889,131.5638,66.9455,-48.2949,6.5657,14.4445,-16.6387,84.9816,9.2542,-82.7389,-73.3948,78.6678,132.0551
-1820.3125,-65.8263,-7.9315,-126.0281,30.5087,-145.6662,2.7263,41.2346,79.6408,112.2915,120.1935,-31.8525,61.0775,-43.3314,74.0529,64.6262,99.8650,-107.8890,-28.1069,15.2443,-33.6128
-1812.5000,-8.5069,6.4227,-6.0741,79.4489,-61.4133,86.9778,50.5513,16.0376,11.3466,-18.1924,-21.0761,34.9672,4.2181,11.1223,-35.4099,-1.1503,-59.7021,-84.4453,-41.8531,51.0760
-1804.6875,-12.5578,-7.5561,-56.4866,30.0689,-112.5306,-1.0969,-73.5031,38.1073,-39.9767,77.0900,37.3362,57.5323,-46.6050,70.8628,-14.8207,93.5098,-37.8839,42.8834,12.6782,37.4224
-1796.8750,25.3267,64.7330,21.3433,31.9550,-34.4089,5.0994,3.6691,42.4475,-0.0726,43.6306,5.9937,25.3698,-43.1950,2.8643,-11.0004,24.4394,-36.8289,-59.5231,-21.5746,-29.9690
-1789.0625,-12.4954,19.3878,5.5138,-48.7914,-49.9619,-48.3436,60.1665,25.1521,56.1537,62.5392,-47.0055,-28.4188,-22.4461,-14.7682,9.1534,6.7439,-81.4465,-68.5639,72.4985,101.0027
-1781.2500,-52.4327,33.6658,-123.7356,-70.9200,-141.9424,-104.1716,77.2445,116.4759,109.9654,153.0748,-66.4179,-9.5867,-42.1187,4.2235,61.8962,97.6710,-103.4936,15.0074,120.1486,9.5803
-1773.4375,28.1978,70.9583,-14.0024,-69.0283,-30.9518,-66.9822,150.3062,42.8179,71.7657,4.6287,6.1556,-83.7316,30.1941,-105.7734,60.6349,-50.3808,-30.5635,-53.4069,14.7718,47.1691
-1765.6250,65.5201,124.0187,4.4679,-15.3740,-85.2321,-120.0334,-14.8977,-49.0758,-19.7066,22.9514,62.4769,46.8848,12.2467,-87.0091,5.1164,5.3429,21.0975,105.9465,-37.8777,30.5188
-1757.8125,129.3604,219.3978,71.2265,149.6012,-57.2358,-16.7702,-23.8234,-56.6537,-65.8919,-59.4094,91.0862,75.8214,-32.4131,-93.9289,-3.1113,-76.6067,11.0336,25.6073,-156.2517,-49.8239
-1750.0000,50.4755,110.5908,22.7655,75.3930,-31.4634,81.3063,-72.9671,-68.4164,-114.2901,-71.9464,42.4790,63.5806,-7.2895,3.9703,-15.5521,-16.7300,-63.2559,57.0779,-196.8426,122.6435
-1742.1875,-37.5557,70.4969,-125.0156,69.9040,-142.0191,81.0991,-184.4326,40.5434,-116.0050,109.2403,4.5672,100.0660,-9.4862,151.5876,18.6904,166.8725,-138.8676,159.2573,-132.7501,12.8162
-1734.3750,-26.4694,14.4666,-37.7543,48.4813,-17.5482,96.9549,13.1354,18.5690,-29.6852,-23.5017,-17.3025,5.6205,42.3480,56.2659,32.9676,70.5482,-89.4504,-2.5076,-120.6227,-7.9557
-1726.5625,-60.4111,-60.2511,-43.2083,-25.6299,-58.8010,18.1269,5.9832,-25.0821,-0.0845,6.0773,-23.8837,36.4969,35.4671,87.2699,62.5297,137.5582,-58.7587,29.0434,-55.2140,23.5728
-1718.7500,-12.1877,-4.6585,-17.3835,29.5793,-70.7753,44.6167,-4.8792,0.5958,-48.1964,-6.0167,38.8217,25.6891,24.8654,114.5934,50.3790,125.8929,-39.7868,13.8968,-108.5215,-96.6008
-1710.9375,36.8601,22.0424,39.5261,19.9034,-12.6768,102.2258,-21.6529,-52.6108,-101.2183,-96.9929,59.6160,46.9991,7.3531,25.0305,-3.6779,-0.6457,20.2637,5.8505,-153.7423,35.3284
-1703.1250,22.9874,66.1526,-21.1739,98.6399,-74.2002,5.2437,-120.0441,-3.4004,-126.8485,25.4502,35.8047,133.7238,-16.7720,74.8819,-28.3430,85.2396,28.6980,85.2089,-112.5784,-61.3425
-1695.3125,72.5135,137.5214,54.3659,134.6454,-34.4957,82.5195,-8.1948,-0.9273,-52.2446,-46.8414,37.2375,25.7241,22.3362,3.9932,-26.7699,-23.6051,-5.6342,-54.1825,-148.1753,-94.7608
-1687.5000,-10.7994,25.1962,-31.8060,21.9604,-82.5190,-2.8950,-22.0600,-13.1432,-29.3459,50.1926,-12.0374,50.0441,8.7263,29.4239,-3.9022,73.8760,-13.6885,44.7314,-51.4841,4.1210
-1679.6875,-9.3938,71.2305,-51.6436,102.6308,-104.2122,-22.9499,-42.5851,40.0137,-13.1055,66.6026,-31.9736,103.7218,-48.5475,83.2159,11.3033,126.7411,-3.4184,20.9928,-77.4463,-125.6476
-1671.8750,52.5426,100.9224,46.1553,96.9552,-42.2731,2.6523,-19.4638,-46.1583,-63.2210,-57.3168,-8.2727,55.0589,-25.1866,-39.3326,-1.8473,4.2768,61.4825,-55.0893,-119.7702,10.2389
-1664.0625,54.2611,120.1224,-6.5615,44.7912,-130.8465,-49.2412,-144.8559,-61.8160,-43.8442,36.2896,49.9169,76.9102,-41.3355,55.6251,-18.5059,61.3340,78.8648,105.3464,-103.6081,-41.3766
-1656.2500,97.9793,142.6260,57.0169,67.9382,-31.1331,52.1763,-82.9614,-35.1638,-54.1828,-84.7899,76.4026,31.0748,-14.1983,9.8881,-28.8763,-59.2915,101.5326,23.0883,-153.1553,-123.6834
-1648.4375,85.6471,54.6379,107.0743,49.5975,19.0546,29.0955,-106.5846,-131.9950,-151.0218,-145.3368,89.3834,81.7588,35.4245,-12.3294,-16.7512,-45.3813,152.6799,40.3411,-172.2097,-35.5103
-1640.6250,100.7078,175.6573,54.1328,135.2716,-33.7691,51.0303,-198.2031,-37.8145,-206.8617,-51.8793,73.3583,102.4530,-18.9564,81.4516,-70.6274,47.5323,96.8101,55.5814,-160.2822,-161.3434
-1632.8125,104.1847,94.9309,111.4197,89.2038,60.6311,109.2156,-67.5888,-53.3681,-149.4671,-142.1432,56.5705,-59.5846,-35.0977,-7.5031,-88.2536,-42.2727,120.1742,-24.9106,-102.1098,-65.9248
-1625.0000,15.5887,-26.8333,21.6454,-32.8977,-30.0423,19.3609,-122.0351,-33.9495,-57.1307,24.5663,39.7302,-2.6601,-52.3045,50.5045,-68.9348,88.8978,103.4735,100.5508,-13.9981,-81.5800
-1617.1875,54.5199,20.5007,73.9682,49.1032,22.3767,72.6200,-33.3833,-17.4202,-5.6980,3.3843,55.9842,-22.6350,-73.4220,-6.3834,-90.5201,-5.8173,79.8631,-27.8948,-39.7950,-175.1356
-1609.3750,37.9781,-53.5150,98.9297,-25.2377,48.4220,-10.4697,28.9011,-65.2230,19.3734,-45.1163,44.8859,-69.9408,-48.9041,-90.6061,-29.4631,-53.8455,74.8882,-31.6804,60.0565,-38.0582
-1601.5625,-8.4304,-71.0712,12.3399,-42.1114,-2.0926,-97.0989,14.6323,-4.5560,78.8863,50.8435,31.2299,-45.7836,-25.9484,-29.3736,30.0387,42.5881,57.3508,56.9768,111.3443,-160.5462
-1593.7500,50.0933,-45.4803,145.8859,-17.8338,94.5281,0.4271,110.5060,-18.7279,26.5403,-74.0255,53.7152,-132.4614,33.1521,-78.9835,14.6888,-81.8021,45.9504,-93.2095,-6.2166,-99.8893
-1585.9375,48.3557,22.6228,65.9199,-55.0396,-22.3718,-78.5405,-44.1294,-61.3797,-17.3083,29.6324,83.7016,-27.6305,26.7420,-48.0807,7.8394,22.3351,43.0306,-24.9001,24.7070,-31.7596
-1578.1250,73.3934,138.5269,42.7525,-9.4436,-44.4778,-99.6993,6.0333,-10.2199,32.6437,7.1008,61.4805,-12.9999,40.1320,-70.3819,57.7901,-36.7163,16.8918,-119.8059,32.4271,-126.8273
-1570.3125,44.4974,46.2237,87.3607,-67.0468,36.1833,-129.0687,122.9870,-76.2409,112.4011,-59.5890,-4.9479,-78.5583,84.3151,-171.8719,100.5492,-102.9335,64.5304,-106.9058,43.9589,-8.1047
-1562.5000,-2.2838,23.4809,-7.4901,-21.0886,-21.6230,-185.8840,64.4974,-23.6931,90.7099,66.2893,10.1704,11.4397,62.0413,-81.8092,115.8631,23.4137,4.6997,-24.4729,53.0303,-101.8461
-1554.6875,-2.9619,-10.4651,28.4473,15.6673,51.3506,-74.8983,99.8005,-24.3411,51.8104,-9.0129,10.0903,-61.7476,134.5619,-81.9431,76.9755,-51.4120,-29.3409,-92.2409,-17.1059,-64.7819
-1546.8750,-63.9562,-113.0061,-47.2279,-51.1633,12.6993,-75.5134,24.4879,-61.5746,13.3095,26.1107,8.4105,11.4779,96.4761,-8.6637,75.4895,21.1877,-27.9937,16.3910,54.1559,8.6592
-1539.0625,-48.5092,-77.6948,-41.0495,18.8598,54.8895,-32.2672,29.0304,-18.9506,17.6626,-4.9081,13.5744,17.5551,64.2352,34.4638,79.8527,27.6443,-28.8070,-19.1447,52.2607,-132.0567
-1531.2500,-32.0916,-85.4827,18.0122,-25.2115,113.9551,27.8734,87.4583,-69.4160,39.9115,-92.9967,-0.3686,3.5520,85.8848,-52.4962,64.1149,-96.9661,-38.7354,-61.7734,76.2692,-34.8850
-1523.4375,-90.3989,-92.2614,-94.9288,3.7315,-34.9901,-9.9782,10.8857,39.1348,36.1552,87.9275,-40.3127,75.5507,46.5314,56.5423,61.3824,47.4349,-80.6773,37.5872,103.2726,-146.7354
-1515.6250,-37.0008,-69.3952,2.7737,25.3209,62.7003,51.8196,107.9673,63.3478,23.0520,1.5223,-15.6151,-8.7990,70.8252,8.2253,11.3058,-37.5024,-59.9850,-81.4010,52.9301,-194.9350
-1507.8125,-60.0207,-115.4331,-15.4433,-20.9852,80.4672,34.7114,16.1479,45.6830,-69.9413,57.2556,-33.8233,-27.0414,88.2113,-9.9799,28.3380,-19.3068,-36.2183,13.7126,74.6935,-65.0588
-1500.0000,-86.7297,-94.5240,-98.7130,0.6611,34.1776,26.5633,5.2869,109.9836,30.0153,120.9555,-44.0861,1.6666,41.5491,18.7621,55.3227,7.8496,-86.5212,0.7534,165.4043,-184.2406
-1492.1875,-89.3766,-154.0303,-19.3944,-60.0991,76.4684,33.0080,158.0140,79.8940,108.5670,53.2858,-74.7469,-66.0153,83.4797,-48.8851,96.9131,-96.3617,-77.2372,-165.6042,207.7229,-103.8281
-1484.3750,-116.8117,-141.6813,-117.2335,-82.9951,-20.4100,-63.6933,96.5875,92.6681,120.9722,176.4810,-61.5557,-14.8377,22.2535,2.3242,72.3595,64.2934,-101.1171,-47.1227,253.8881,-126.5912
-1476.5625,-29.7076,-28.4360,-36.1712,-75.9897,23.6016,-91.4899,177.0632,101.3452,164.2790,73.5850,-17.4688,-116.7612,66.9263,-99.5747,79.7098,-37.1416,-60.1046,-144.7464,188.9493,-154.4553
-1468.7500,-28.0505,-94.5844,-0.5223,-142.3763,59.1924,-128.6969,138.1266,-46.3664,162.1807,35.3175,18.2184,-117.0703,101.1988,-136.8659,113.6652,-111.9548,13.4963,-69.7578,190.6142,-44.7436
-1460.9375,-25.7556,-33.0717,-41.2161,-10.1001,18.4333,-94.2480,60.8412,-12.4233,47.7215,31.6990,14.5611,-8.7220,97.1227,-28.5180,72.2735,-5.1183,3.7410,26.8608,108.9240,-194.3972
-1453.1250,-6.3887,-60.2640,73.3807,33.4765,132.9539,58.4939,100.8488,-8.1764,-23.4373,-74.5941,-18.7956,-41.0677,64.3435,-60.8667,39.1843,-73.9599,-24.7209,-70.2230,45.5435,-115.7595
-1445.3125,-92.4040,-179.0557,-52.6317,-50.5371,42.8582,6.6318,10.2611,13.4852,70.8162,93.5375,2.2443,-56.0085,47.9574,35.1871,96.5053,58.6196,-38.8018,-12.9185,100.5720,-93.7543
-1437.5000,-35.0207,-146.7559,19.4477,-53.4536,78.8514,6.8783,118.7837,49.2586,105.1795,18.7834,75.3744,-92.8510,46.6698,-1.6634,57.9305,20.3136,-43.8025,-121.5271,59.7086,-167.6534
-1429.6875,6.9731,-179.9734,124.0034,-122.8782,109.3217,2.6168,75.8007,-65.4455,26.0527,-59.4298,105.9984,-97.1923,40.8769,-43.0037,14.8677,-21.4519,62.6798,-84.6358,59.3674,-25.0729
-1421.8750,23.9599,-100.0521,102.7077,-7.1585,13.9340,-55.4926,-93.0150,-12.9783,-33.9150,28.5349,84.7654,29.6046,-55.7682,46.8032,-45.0379,67.9484,106.2981,66.3784,67.1906,-156.3640
-1414.0625,58.8607,-58.5938,180.9470,69.1036,130.0822,61.9363,21.7190,-6.9464,-29.3254,-75.9174,16.0771,-38.0474,-50.8634,-57.8415,-40.3840,-73.0804,146.4547,-68.0643,36.5770,-150.1135
-1406.2500,13.7017,-97.6307,98.6800,-41.1238,83.7136,-20.1424,11.9463,-15.3995,-2.2311,26.1522,43.8884,-46.1903,-22.4615,-28.9798,-13.2196,-7.5880,70.0998,-2.0181,65.4657,-84.3940
-1398.4375,62.1688,21.6789,79.7705,7.9971,27.6882,-37.8691,-7.4650,3.4991,-21.7835,-29.4195,135.0555,-26.9876,31.2938,-46.7830,4.3000,-25.7456,-22.9096,-58.6449,-28.2895,-176.3302
-1390.6250,62.5000,38.3259,90.1983,-45.5353,1.9940,-25.2604,3.4652,-58.2440,-47.9751,-55.6104,109.5735,-51.4290,41.3983,-71.2365,14.1785,-51.5309,-41.5783,-75.9167,-48.6746,-53.9347
-1382.8125,28.0577,87.5743,-39.7786,3.5394,-91.1109,-81.0513,-53.9857,33.6246,-31.5555,72.8100,90.6888,40.7270,-14.9016,20.9052,31.6661,77.2902,-64.6601,-27.6066,-37.4505,-145.9651
-1375.0000,62.5662,91.5059,71.9394,42.3030,-16.5270,-5.1463,57.2746,35.1969,-31.4250,-36.0546,54.5050,-31.4238,-14.4982,-51.2586,-5.1333,5.8285,-62.0542,-164.6067,-35.5126,-107.2990
-1367.1875,-15.1113,-39.5198,1.6947,-53.8814,-13.9115,-74.2036,-13.4117,-34.1699,8.7706,4.1531,21.3718,10.4833,-11.0415,-9.3706,35.1303,46.4374,-19.4077,-49.5687,77.4920,7.3866
-1359.3750,-34.0630,-20.7016,-46.7005,34.7836,-25.4483,-10.4076,11.7678,29.3166,33.8244,67.2217,-26.9178,37.2369,-59.7305,54.3578,23.2577,72.9017,-1.9266,5.2974,24.3503,-150.0885
-1351.5625,-21.6171,1.4502,9.2360,57.7915,30.3409,119.7311,66.2916,11.1693,14.2380,-24.3242,-81.8661,19.3418,-41.0676,36.4469,-32.2531,18.7493,-15.1091,-77.4853,-25.4250,-57.2270
-1343.7500,-70.5126,-23.3014,-90.7349,67.9053,-69.7787,20.9690,-33.0753,60.1327,61.7647,97.2446,-70.7122,68.5467,-30.3033,85.6337,14.3508,140.7056,-41.1991,-67.1908,17.9078,-82.2912
-1335.9375,-11.9008,23.3378,-6.3007,44.4117,-22.5026,32.5986,86.9679,34.4921,71.6978,-1.7789,-23.1554,6.1480,-20.1328,23.2032,24.3628,42.0672,-65.8909,-161.5100,-7.3491,-70.9575
-1328.1250,-57.3488,-65.2246,-33.0789,-45.2854,-84.4439,-28.9900,23.8081,46.6646,45.4434,83.0301,-49.7976,55.5511,-10.1656,35.5724,-1.8111,53.2549,-50.7910,-39.0351,43.2090,51.1491
-1320.3125,-27.7986,-11.5972,-45.6553,8.2131,-99.1923,-4.3830,-26.1329,108.0442,-41.5922,107.0543,-25.2443,43.1387,-59.9913,60.1280,-15.7684,114.6475,-33.5037,14.6104,59.9854,-71.5576
-1312.5000,39.9085,-21.1478,121.6014,-36.4571,31.8915,18.0581,30.7879,19.2850,15.2417,-55.0407,-4.8446,-82.4312,-39.9630,-65.4681,-31.8582,-84.0855,25.6220,-65.9005,82.6420,23.5769
-1304.6875,-18.6868,-57.0075,11.5506,-72.4270,-42.3370,-54.8038,-6.5740,19.2382,50.7930,92.5806,-4.7432,-7.3034,-40.2329,9.6313,-32.2331,26.8910,-11.5627,39.2678,151.0148,-12.6153
-1296.8750,-10.7260,29.2173,-6.3998,49.6931,13.5305,38.4272,48.1774,76.2919,69.4579,1.3105,-59.5399,11.9138,-21.3931,-8.1857,-50.4886,-27.0305,-66.6527,-49.4912,60.5017,-66.7071
-1289.0625,-56.2656,-30.5145,-40.3125,-46.1417,15.4311,42.6879,13.9759,43.3982,-1.8148,42.1167,-92.2824,16.1845,-19.4946,-3.9512,-11.6840,14.1175,-92.7001,-39.2038,104.0580,84.2309
-1281.2500,-107.8203,-42.0465,-159.0187,-57.7784,-66.4698,-0.8571,5.9863,146.7102,63.1208,181.1288,-101.8172,8.6458,-27.3917,62.4683,16.3305,117.4645,-141.5511,19.2645,125.8189,-33.6482
-1273.4375,-102.5042,-103.8501,-79.9831,-84.6736,50.3632,43.3387,158.7481,116.7820,105.8117,77.9206,-131.6053,-94.1477,-21.5376,-40.3651,23.1056,13.5803,-132.6582,-42.5170,133.3506,10.2142
-1265.6250,-141.2169,-179.6532,-123.9582,-161.5629,5.1816,-37.4697,113.5128,109.8681,134.5133,180.7386,-103.3992,-100.9338,-29.6845,26.8033,14.8969,117.7155,-140.7785,91.6900,194.8921,3.0424
-1257.8125,-85.8650,-116.4632,-52.9293,-132.4536,39.0041,34.7200,147.2912,181.9557,168.2249,142.5586,-68.1921,-138.7291,-32.8214,-12.0433,11.6996,42.8494,-149.9003,14.8710,151.4404,-109.1374
-1250.0000,-80.7025,-136.9359,-7.5593,-118.0052,85.1681,45.2368,156.4204,118.3932,103.2991,78.7521,-96.6274,-92.1815,-23.5959,-38.5486,-16.1260,15.3497,-100.6714,30.3928,94.3625,11.0159
-1242.1875,-124.9672,-63.7208,-148.4819,26.1329,-55.9643,15.4431,15.2744,162.5307,73.0944,196.6501,-126.3547,63.0478,-17.6573,79.6300,-10.2332,133.5472,-169.7483,103.5799,61.0017,-92.1471
-1234.3750,-82.4515,-12.2260,-98.1101,77.5489,-42.8056,103.9294,102.4403,140.9668,49.2133,100.8701,-112.7868,40.5690,32.5894,20.0989,2.9770,38.0597,-154.5313,-91.9425,-30.0314,-41.0121
-1226.5625,-97.5645,-75.3436,-95.3531,-21.6382,-77.2612,-4.1984,30.0201,105.8185,13.7539,139.5214,-73.8216,43.4877,34.2347,22.9674,41.6063,113.9885,-147.9270,-14.0775,11.3600,71.4919
-1218.7500,-24.2892,41.6739,-46.4414,-9.6812,-65.5651,-26.1749,6.7716,120.8238,-9.5376,117.3304,-23.7089,-15.4540,48.0328,37.9699,18.3975,92.0602,-103.1799,-73.0854,-49.0838,12.1385
-1210.9375,21.2410,25.8804,39.6567,-60.5296,-15.6898,-11.9653,-17.2814,23.0369,-70.6259,-17.6332,25.6061,-38.1940,96.0348,-21.8275,-6.5988,-5.6400,-49.2393,-87.8935,-30.3087,171.9708
-1203.1250,-24.3901,6.0352,-51.2945,-45.4245,-69.8704,-65.8057,-72.3786,44.2137,-15.7544,76.3669,7.8683,55.0082,41.9934,34.3235,12.3662,52.6164,-69.3565,68.2239,18.4263,81.7299
-1195.3125,-17.0609,40.7159,-17.7035,24.2192,-0.5037,79.8949,35.0833,42.9414,18.6762,1.9336,-31.3231,16.7555,39.5078,-3.9823,9.8957,-22.5640,-142.9275,-39.1256,-90.2638,80.0382
-1187.5000,-85.5155,-43.6603,-75.1705,-60.1890,-94.2016,23.5320,14.4999,22.6265,34.0732,91.4732,-51.5607,-2.5491,90.9774,49.6583,61.3930,104.2176,-193.5496,-17.5363,-69.9879,206.2721
-1179.6875,-77.0072,50.5107,-157.0761,-1.0485,-176.3442,-57.2868,4.4828,88.8573,62.0287,157.5585,-23.2407,25.6862,83.0103,78.8296,90.4503,170.5377,-240.6219,-63.4258,-81.1562,125.0510
-1171.8750,-42.9547,84.8222,-92.8390,-2.7662,-150.3466,7.0232,32.6096,7.2301,53.1435,38.8091,-68.7665,55.0737,37.1994,-2.8525,44.6762,88.0237,-173.5434,-136.1751,-85.1532,262.9757
-1164.0625,-73.0478,44.1252,-171.6028,-8.4872,-229.3519,-70.6778,-83.2480,39.6008,47.2739,182.0652,-74.2856,86.4496,-4.5993,66.4525,38.9266,158.5119,-74.4661,-35.9403,13.8615,221.8790
-1156.2500,7.2361,59.7116,-42.0615,8.0802,-136.0542,-50.0881,-26.7882,22.2674,28.7140,54.6245,-17.5000,-2.8878,13.9127,-22.9573,20.4880,31.2962,11.9131,-89.4185,28.1943,168.0826
-1148.4375,-31.2042,-96.3640,-28.1781,-78.0058,-48.4163,-71.1673,-12.9820,-34.7108,7.5198,-2.4418,-3.3649,-23.8749,28.7798,-45.0146,36.4127,11.4478,63.6417,-0.5480,46.9037,256.6077
-1140.6250,-37.3304,-30.1500,-98.9820,23.1990,-83.4714,-31.9486,-83.8547,4.6134,-28.3613,36.7937,-1.9255,52.4198,-7.0467,68.2124,37.6558,50.8942,23.6680,65.5933,5.9261,112.4176
-1132.8125,13.9039,1.2443,2.4126,53.5889,17.6667,33.4533,-19.5247,-38.8634,-36.0281,-117.7526,-9.2802,7.9094,21.3346,-49.3713,28.1145,-66.4520,52.8942,-9.0745,-33.8292,177.4252
-1125.0000,-10.9941,-19.6611,-56.4955,-2.3198,-41.4993,-60.4551,-78.4856,-59.6388,-21.9823,7.4132,5.0734,60.0920,-0.5738,-33.2672,6.2875,21.8995,65.8183,145.9464,13.1280,156.1099
-1117.1875,58.4286,78.4223,11.6043,61.7650,26.3373,-28.3678,-47.4311,-27.4186,-26.9290,-32.4184,37.4262,-16.7337,-5.4771,-110.1769,2.4695,-54.7491,58.7440,103.9482,-64.9027,78.7938
-1109.3750,19.2265,19.1944,17.3937,2.5433,31.8585,15.4006,-41.6757,-94.4982,-21.1519,-26.5274,-30.5206,-9.8593,0.3259,-105.3877,7.3731,-84.6779,67.3681,148.6348,-55.2102,194.1585
-1101.5625,-16.9506,50.3072,-91.4601,68.6668,-4.2644,17.5093,-113.5449,-55.2342,-56.9997,13.7099,-66.1152,102.3473,-35.5093,7.7361,9.6497,-8.2668,63.3428,251.6394,-24.1503,49.8597
-1093.7500,8.2677,44.5970,9.8784,97.9757,97.8041,120.8011,-12.2035,-98.7684,-65.6337,-140.8329,-73.5148,58.7445,-7.1360,0.0529,1.1420,-125.6461,20.5193,139.8394,-66.8610,78.7599
-1085.9375,-43.0735,-61.1693,-63.8412,28.2365,59.8137,47.0370,-49.9102,-98.3368,-66.3124,-67.4035,-37.9658,96.0893,-7.8087,37.3234,37.5953,-15.0633,55.6427,174.9862,3.3943,78.5813
-1078.1250,7.8858,14.2558,-16.3528,103.6929,70.0305,58.4708,-2.3992,-49.7089,-54.7816,-91.7794,9.7860,70.6239,2.7308,48.7743,11.2601,-40.2915,23.9719,74.3054,-28.1369,-57.4022
-1070.3125,50.0035,51.2695,50.7335,34.7384,63.8446,90.4806,-8.2846,-55.4876,-97.6363,-97.5439,41.1500,-8.2462,33.8799,-30.1888,-31.4546,-81.9106,-11.0883,40.2127,-98.0466,84.1993
-1062.5000,31.4347,116.6768,-63.7692,30.1819,-86.9346,13.8756,-157.7499,16.1284,-102.0713,47.0883,74.9196,63.2683,-6.5637,41.2314,-34.7478,62.8612,-86.7399,71.4946,-68.5447,44.1836
-1054.6875,43.6263,87.0648,12.7286,35.6136,-47.7138,54.2565,-46.2061,19.7354,-62.4902,-59.2709,40.6881,29.7762,-40.9994,7.6434,-32.0303,-43.3640,-81.3887,-29.2325,-64.0226,84.1708
-1046.8750,-35.4189,-44.4061,-53.6301,-60.8095,-115.3460,23.7778,-112.5066,-10.5084,-55.7426,21.5284,9.6140,36.4316,1.7236,88.2055,-26.1478,74.5716,-38.8849,84.1773,13.6652,127.2845
-1039.0625,-5.5186,39.0077,-72.0794,22.6561,-97.0651,45.1933,-93.8858,84.1390,-36.0785,42.2205,30.4475,20.9693,-14.6369,71.6521,-5.3502,58.3945,-62.4734,28.4600,-42.7307,0.2906
-1031.2500,36.8492,20.9029,11.9660,4.6068,-49.2901,55.0919,-45.7630,-14.7186,-61.8979,-92.5714,76.7852,-4.9986,31.5117,-26.4046,40.9666,-76.2682,-9.5578,-59.7582,-96.6032,157.7821
-1023.4375,27.5926,89.6429,-62.1296,37.4060,-161.6561,-54.1702,-157.7701,-87.7286,-63.8561,16.4890,75.9799,104.8686,30.5221,45.3759,40.1513,32.9126,21.2109,7.8526,-64.6153,120.1000
-1015.6250,39.3587,66.2117,22.6314,85.0414,-75.1617,31.4046,1.0897,-110.8981,22.0478,-116.6051,52.0329,44.5725,43.3953,-15.0125,53.2048,-100.0623,-38.1646,-49.7052,-88.7574,96.2730
-1007.8125,-76.0258,-65.2304,-81.6121,-10.3303,-70.6682,1.9588,6.9551,-68.0695,63.9678,-0.6849,-51.9093,14.2709,48.2778,28.5957,58.2809,15.9685,-99.5386,29.7325,25.1228,175.4241
-1000.0000,-125.6724,-47.7819,-202.9438,7.1956,-155.2590,27.4084,32.7379,104.6536,89.8003,137.1265,-100.9423,3.8567,1.0778,128.0857,47.2685,116.8823,-188.0095,82.0447,77.9075,17.4697
-992.1875,-104.2896,-60.7948,-149.7274,-7.7330,-65.3020,81.3893,86.0663,122.9184,70.1885,44.4994,-119.4221,-16.0071,-19.5650,35.1167,-9.1811,24.3533,-167.9217,-3.0948,98.2630,108.0612
-984.3750,-115.6015,-67.8663,-228.5513,-13.7171,-107.3890,3.3092,-29.6368,118.1321,28.5478,150.8214,-87.9488,54.0637,-24.2544,68.0884,-13.6643,93.7731,-69.8685,61.6909,162.5914,66.5793
-976.5625,-14.9514,47.2419,-107.1594,66.4819,-60.2602,-20.5876,19.8840,94.5310,40.1258,90.3361,-39.2700,30.3137,-48.7269,-66.7625,-0.9255,-39.6220,-25.5968,-35.3450,101.1380,5.2993
-968.7500,-36.9228,27.6485,-95.4703,11.9786,-85.8338,-45.2080,-7.2977,69.2233,14.0152,175.1633,-64.2811,3.8631,-37.8895,-54.3157,-27.8718,8.2879,-81.0213,-18.0841,80.9945,126.2989
-960.9375,-34.1235,107.5565,-155.2654,21.9758,-182.8952,-32.3299,-66.9679,157.4075,28.4067,263.4779,-51.7832,18.8990,-61.5435,32.6118,-13.3086,133.6818,-107.9351,-45.3493,54.3565,29.7887
-953.1250,-5.0879,20.4957,-31.0084,-29.9926,-57.9043,-16.4211,21.4133,62.6308,79.8557,131.8503,-0.2285,-75.0232,-10.1374,-61.4204,1.3196,2.1306,-53.7895,-166.5699,37.7901,118.3280
-945.3125,-40.1367,-57.4217,-76.6011,-72.8111,-141.7548,-98.3719,-61.0446,17.0026,107.4676,197.3739,27.4853,-11.8016,-55.5730,38.6933,-7.8855,104.7275,5.5128,-70.6597,98.3847,108.9955
-937.5000,29.5442,40.7527,-6.0770,25.4578,-71.4920,-64.2356,-26.3913,16.4655,68.1889,85.9835,62.3047,24.5069,-94.8922,37.8881,-45.9776,66.4079,33.9279,-146.6704,-13.9082,-3.2310
-929.6875,57.4927,12.8217,69.3408,-37.3795,-32.3312,-60.2198,-24.8387,-54.1809,-3.1771,-21.4945,65.0339,-10.2900,-55.3027,-33.0243,-80.1528,32.9905,111.2513,-104.7806,-7.2826,109.4292
-921.8750,40.0199,51.3392,5.2257,-33.7656,-60.7027,-88.7592,-51.8177,-44.3871,5.9192,62.4621,37.2229,0.3498,-83.2549,13.4942,-33.8694,80.0056,114.0369,3.5372,30.7998,-28.4741
-914.0625,105.3156,94.0925,122.3675,9.0869,56.1832,-44.0640,65.4571,-73.3598,13.2750,-113.3305,44.6652,-65.7646,-38.9474,-89.7469,-26.3221,-95.7301,156.0834,-94.9035,-66.8520,-21.1241
-906.2500,73.1047,55.1357,78.8103,5.2394,-23.6293,-87.0828,-50.9591,-116.0363,7.9450,-7.8215,39.4166,2.4143,-82.3327,-58.6927,-32.4560,9.8380,186.4374,6.9402,-36.1847,9.5037
-898.4375,111.2889,136.0157,96.1151,86.2309,-7.5794,-33.2587,-71.5060,-61.8717,-12.5183,-27.4740,56.0260,-17.5720,-101.8541,-41.8055,-52.7225,-9.7568,160.6496,-18.3963,-61.6561,-121.0185
-890.6250,100.3301,58.9885,155.5192,9.3141,52.5670,-9.3582,-10.9506,-74.6136,11.1297,-77.0164,42.7427,-67.4667,-42.2705,-91.8211,-65.8727,-96.2428,153.9724,-95.6344,-33.0107,12.5504
-882.8125,91.4056,45.3134,106.2866,-4.2558,3.0735,-132.1177,-97.0258,-86.0142,-1.8595,21.7791,103.8225,-42.0257,-17.3261,-66.5068,-40.6591,2.6047,174.6578,-38.5521,22.9950,-36.5452
-875.0000,126.4981,80.7248,143.1697,-3.7404,75.6967,-94.7925,13.0050,-122.3333,-1.7419,-124.3353,104.0100,-78.4965,-17.2689,-103.1063,-4.3332,-106.4587,209.4624,-109.3777,-11.8827,-36.5378
-867.1875,75.4068,11.9250,104.8527,-108.4265,38.1283,-131.6794,-24.1632,-122.8563,71.1856,-50.6458,66.0048,-79.1719,-18.4072,-66.9046,-4.1962,-69.7222,210.0809,-38.3983,95.0535,-0.7588
-859.3750,87.6859,-19.3286,116.1036,-33.5607,49.1326,-84.0139,24.2337,-73.8386,82.6635,-75.4271,114.5557,-104.3108,-6.9847,-92.1687,7.4969,-94.4526,213.2633,-34.8866,98.5382,-173.4361
-851.5625,90.4850,-67.6357,171.3080,-11.7500,141.0948,-27.4116,79.5726,-127.8841,28.0879,-166.2602,97.0672,-84.4974,-25.6087,-146.4865,26.1500,-185.2309,235.4174,-118.4234,84.9787,-81.1696
-843.7500,40.4785,-82.9350,85.5353,-25.9334,55.0694,-112.8180,-6.0886,-65.9388,52.5130,-30.1068,84.5974,-59.6968,-0.2213,-47.8155,50.8133,-86.0261,184.5897,8.0152,140.4207,-166.9204
-835.9375,85.4431,-46.3471,161.6864,-25.2311,166.9610,-74.3402,143.1585,-63.1177,91.8469,-138.0705,87.0394,-167.0081,38.0781,-155.2625,90.3873,-229.9340,184.6817,-97.6651,105.7802,-201.7647
-828.1250,52.9702,-118.6678,153.9392,-132.4283,158.9555,-117.7847,135.5105,-143.2082,121.3014,-143.9354,80.5903,-174.2188,68.4864,-162.6149,84.0764,-199.7460,181.8899,5.7467,174.2564,-98.5288
-820.3125,39.0855,-63.6903,71.5084,-42.3218,113.2751,-89.9292,90.1776,-78.0158,113.0558,-78.5264,71.4492,-109.1376,22.2063,-97.6815,75.0794,-97.2789,166.4067,25.4431,123.0261,-254.9982
-812.5000,59.1982,-112.1165,200.6799,-55.6212,168.1942,2.5158,145.4337,-96.2356,57.4032,-206.5155,53.9175,-163.4557,41.5351,-115.1494,56.6896,-188.2047,153.5373,-93.2561,110.3976,-162.8680
-804.6875,-30.5535,-209.4359,61.9619,-117.8122,103.2211,-61.9455,80.7941,-49.3637,103.8548,-49.4151,26.4954,-117.6807,13.9688,-32.5262,66.4144,-31.0432,160.7813,20.1337,187.8736,-190.6575
-796.8750,10.1620,-160.7680,116.2562,-103.0108,157.2654,-7.4117,171.1719,-31.5028,121.3159,-105.3276,43.0732,-173.9183,30.4130,-88.9143,84.1512,-86.8928,174.0377,-107.4850,96.3596,-247.4457
-789.0625,32.8347,-121.9978,148.6448,-135.1057,152.4127,-47.7895,130.6443,-145.5408,80.8792,-182.1299,39.7560,-140.0524,100.9644,-129.2009,80.9970,-126.6336,212.3994,-68.9974,63.9478,-104.1513
-781.2500,41.0843,-50.8148,80.4536,-63.7939,83.9812,-79.7686,25.5251,-103.1909,48.8429,-102.5547,81.8502,-60.7957,68.9255,-50.1029,86.2463,-83.9946,177.1733,36.8662,28.9294,-209.4640
-773.4375,96.2545,-30.9908,207.9210,-43.8435,174.2093,-26.1145,80.0563,-122.2113,-7.5395,-232.3411,99.6060,-116.8943,122.5461,-143.3626,30.1605,-176.7103,161.6172,-83.6287,-20.4272,-119.1226
-765.6250,43.8864,-88.7213,144.8488,-101.4427,147.8989,-89.0217,-20.9571,-148.7890,-34.4633,-110.6842,72.8248,-69.5507,96.6274,-96.1747,40.5367,-91.9797,173.5244,68.3145,26.6742,-72.3526
-757.8125,55.1581,-61.6625,139.5949,-39.2442,179.4076,-57.1285,48.8422,-115.5782,-1.5829,-115.2462,68.8492,-110.4146,55.5156,-100.1967,72.7245,-132.4647,166.2420,-9.9527,18.5690,-150.7810
-750.0000,-5.5733,-153.0017,111.9383,-95.4390,151.5148,-10.6445,131.2290,-143.7770,43.8918,-142.2061,4.4812,-101.6686,64.0049,-91.6113,82.5182,-160.3442,109.5756,4.3855,68.0656,-31.6215
-742.1875,-56.1828,-142.5836,-18.9458,-84.8756,93.3992,-68.4103,73.3739,-53.2419,60.1160,-14.4437,-16.1198,-48.1803,44.2543,-1.2900,62.0691,4.5024,83.6767,119.4513,77.3076,-162.7262
-734.3750,7.2384,-94.8282,103.5357,-71.9743,179.6503,18.1598,122.8701,-40.3793,36.6907,-148.3430,-3.3601,-108.3524,92.8690,-62.6277,38.9784,-129.3047,96.1471,-9.1384,19.9110,-150.4789
-726.5625,-15.7923,-112.1705,45.9231,-89.1700,157.8080,-39.3825,28.2647,-97.6192,15.1740,-95.3453,12.3154,-55.6297,72.3881,-46.0654,54.8004,-40.2107,113.5259,79.1627,37.4216,-98.3552
-718.7500,41.4044,-9.7146,84.1298,13.4295,159.7861,-38.1315,29.4785,-59.0752,-19.5326,-93.5763,50.8009,-54.1138,73.7213,-44.7204,56.4371,-74.3408,110.7163,5.2432,-36.2731,-207.4302
-710.9375,58.1657,-40.4142,156.1907,-52.1221,230.6192,-40.0446,64.5380,-134.6974,14.6128,-168.9633,49.1467,-129.7470,108.9146,-157.5231,91.9380,-149.6183,149.7720,-60.8286,-32.1163,-62.6581
-703.1250,17.1987,-51.0588,73.3208,-62.6184,147.5185,-122.9109,55.6540,-143.2828,79.8052,-30.3265,77.5598,-101.3376,136.1672,-92.2820,119.4983,-47.8595,68.8957,-1.8680,-6.9205,-108.8472
-695.3125,73.5913,-0.4100,160.7724,-46.8208,197.7364,-72.4894,143.0743,-129.5945,56.2965,-126.4140,128.2888,-124.6329,186.7351,-152.7561,97.3700,-143.8196,13.3404,-127.6147,-97.4221,-58.7301
-687.5000,46.0403,-30.4548,87.5332,-41.7200,88.2645,-71.7846,32.7865,-127.6140,-53.9105,-89.2075,128.3367,-13.6301,150.6095,-77.9347,61.5521,-105.4844,19.1041,17.9407,-92.6273,51.6651
-679.6875,84.0389,87.9593,68.7742,40.8364,32.2661,-16.6291,-23.0425,-73.2054,-71.6724,-69.5829,147.8475,41.8153,95.9457,-22.6812,6.1921,-49.7254,-4.6644,-5.0716,-115.3916,-77.4945
-671.8750,98.2384,47.1763,131.8199,1.1925,95.0735,9.3131,3.9152,-84.0055,-82.6419,-153.1581,137.1651,-41.9378,49.0837,-33.6246,-40.3665,-97.1643,25.3824,-81.2705,-86.3495,22.1387
-664.0625,46.0017,59.3518,36.8270,13.5111,0.8471,-48.7975,-128.1724,-67.8545,-103.6627,9.2073,79.4422,84.2520,-8.8241,92.3758,-97.9712,66.3359,37.3926,36.4696,-73.3608,-36.3021
-656.2500,84.5583,116.4190,98.7535,140.7217,61.5412,11.9895,-30.3556,-79.8217,-115.7813,-112.5485,67.6331,72.3310,-21.8199,80.2630,-72.6681,-19.2825,23.3252,-82.9032,-157.4709,-85.8398
-648.4375,41.1286,28.4372,110.6369,17.8834,74.2006,-12.2885,-17.5934,-139.8544,-66.9493,-136.3654,43.7904,48.3600,28.1413,56.1011,13.5951,-5.9512,6.2242,-31.3259,-140.6324,36.5549
-640.6250,6.9634,17.4560,31.5451,42.0459,30.8894,-54.5676,13.1816,-72.9041,0.8777,-68.2146,37.9588,42.3798,59.1153,49.9235,81.8668,25.3546,-39.8574,28.2359,-80.8005,-80.0541
-632.8125,-1.4619,-11.3293,70.6576,-21.5956,69.7908,21.3436,200.1448,-70.7683,76.8980,-102.8705,-32.6626,-28.3991,61.2970,-21.0517,47.3493,-119.1429,-69.7206,-36.9965,-39.7690,-4.4644
-625.0000,-70.5605,-72.8037,-64.9166,-46.9222,-28.9941,-4.4462,100.4048,14.6578,88.2124,55.7521,-57.9690,20.1244,-0.2165,63.2727,22.1355,39.6532,-59.2657,78.0623,39.5540,-30.5982
-617.1875,-37.5819,7.4178,-50.7640,68.4505,-15.0556,46.4614,114.3709,102.7608,29.2302,71.0397,-79.5622,-2.6591,-60.0158,41.2834,-36.3725,55.1255,-85.0860,16.8043,14.5711,-127.0305
-609.3750,-43.0867,4.4372,-58.7973,-5.3754,-23.3100,74.1539,32.1304,130.6472,-52.9539,62.1179,-125.3357,-10.6429,-68.0097,69.0947,-81.0725,83.3960,-18.0869,48.3465,45.3876,-25.6779
-601.5625,-70.4125,19.9167,-147.3542,45.2548,-76.0913,59.2975,-56.6511,188.9676,-31.6899,194.6176,-102.6425,84.8160,-119.5479,201.3422,-96.3178,179.0921,-38.6252,98.3251,25.6389,-151.8862
-593.7500,-19.0435,41.6015,-17.7017,67.0864,16.3336,114.6291,35.7592,134.4708,-13.2293,29.3065,-83.7381,29.4779,-26.8819,72.7860,-39.3524,13.9779,-50.9482,-91.4887,-57.9114,-59.8953
-585.9375,-38.9714,20.1466,-82.1913,10.7781,-84.3793,13.8052,-27.9789,70.8202,-2.9167,75.8404,-36.9780,76.9871,-17.3633,83.0783,7.4678,61.7128,-73.4050,-8.4584,25.3870,22.9197
-578.1250,-25.4147,97.1363,-71.1984,87.9141,-73.6090,24.4274,18.7434,117.6056,43.8413,86.7932,-99.7488,49.9301,-43.3794,55.8015,-18.2559,34.8753,-101.3893,-35.9962,-2.8711,-40.8126
-570.3125,-75.9968,12.1728,-93.1477,3.0965,-58.7803,74.0828,69.5013,94.4256,57.6392,100.7864,-158.4483,26.9249,-29.3394,32.5777,-4.9252,12.0871,-115.3031,-51.4703,52.9195,119.4946
-562.5000,-146.5587,-58.9800,-201.2742,-32.9144,-167.1247,2.5405,35.0672,170.0335,133.2338,250.5501,-155.3349,29.7095,9.5059,109.1485,35.2054,162.0780,-151.4012,-53.1504,157.4962,47.5827
-554.6875,-79.4334,-63.7339,-61.9913,-36.5231,-29.0516,-5.5976,173.0272,88.0273,125.2191,20.6975,-89.8178,-15.1023,74.7546,26.1199,63.7377,43.4656,-86.0884,-269.4261,81.4651,112.0692
-546.8750,-92.6978,-107.3274,-76.5515,-115.9682,-43.8213,-93.5878,49.1290,0.1625,73.3502,43.9800,-67.1382,44.2485,61.1543,49.2509,50.4268,102.9972,-23.6107,-172.5546,107.5761,243.6823
-539.0625,-66.6844,-17.8149,-52.9870,-26.3040,-56.4662,-70.4740,34.3398,-12.6246,59.5748,29.3224,-80.3437,66.6909,10.6645,108.4666,73.2244,163.5979,-40.0079,-189.6011,20.7782,156.3932
-531.2500,-107.3363,-80.4559,-51.5579,-53.7977,-18.2465,4.4686,73.3954,-48.5820,61.6484,-41.4966,-152.6789,31.9807,49.0367,73.5267,75.8782,129.0465,-67.5327,-217.7883,28.8295,303.9420
-523.4375,-172.2862,-114.1330,-194.1572,-86.3281,-124.0511,-28.6332,-32.5971,29.4014,65.6660,108.6106,-147.0484,74.2172,54.3626,150.5307,116.4835,243.4268,-136.0937,-40.0319,99.8065,234.4202
-515.6250,-120.0961,-60.2053,-135.1345,1.7494,-66.2378,29.8672,25.0008,85.9643,49.2662,56.2906,-124.8055,58.0589,74.2923,98.1294,64.6906,80.3934,-152.0358,-57.6765,12.3680,181.5052
-507.8125,-127.7577,-35.4191,-186.2579,-8.3081,-79.5667,52.2170,-25.5675,73.3659,-37.2959,115.8097,-138.6990,117.7568,62.0809,85.5892,15.7503,104.2086,-163.1128,36.5317,37.7713,240.4211
-500.0000,-93.6242,28.5226,-185.2040,55.7891,-115.7224,51.7206,-61.9785,146.9025,-37.7126,153.4412,-100.4250,118.5997,-11.9716,122.1872,15.9666,142.1497,-168.0241,29.8716,31.3131,93.4795
-492.1875,-32.0836,17.8695,-53.7431,10.2833,-21.4710,72.6118,-3.9987,92.8233,-89.7350,27.4613,-79.7381,29.8447,10.3839,33.1884,-35.4076,16.4892,-73.5204,-16.3815,-14.7541,186.9335
-484.3750,-43.4597,9.1891,-98.3138,1.7419,-66.2590,-8.5478,-123.0671,84.6859,-97.8135,129.4078,-50.0810,57.0414,1.6969,60.1346,-42.8268,117.7650,-48.0531,113.2994,44.1076,141.3172
-476.5625,31.2521,70.3098,5.9448,63.0009,0.7783,58.0837,-92.3382,79.3207,-104.1029,13.1189,-19.6043,52.0358,-41.1756,17.8680,-85.4417,1.8189,13.2359,69.7690,-35.2401,61.5070
-468.7500,25.4690,66.8341,0.6166,59.6629,31.2250,88.1023,-135.2204,35.3429,-146.9999,-29.7790,-60.7085,82.4312,-82.6458,12.0037,-127.6530,-3.7301,45.9411,171.6521,-38.1919,128.0792
-460.9375,37.1819,154.6136,-48.4395,182.5831,-17.0524,75.3789,-220.8432,59.6036,-196.6496,30.5423,-36.5503,181.0675,-95.8663,109.3814,-140.6135,56.9499,27.9103,187.7704,-91.9074,-32.1072
-453.1250,78.0351,147.3437,52.4632,175.4528,46.6329,138.5964,-121.5238,12.7976,-169.3538,-53.2034,-9.4274,97.6626,-69.1311,-11.2925,-112.6209,-63.4308,21.8456,39.8453,-99.6771,30.6537
-445.3125,1.1008,44.6461,-54.0672,107.8903,-60.1191,69.3630,-154.6622,89.5331,-93.5201,134.5801,-4.7395,100.8091,-137.8400,66.5862,-109.0753,87.7279,-46.6537,146.4651,8.0833,-3.0569
-437.5000,24.0297,104.4090,-23.1211,97.7801,-65.4023,99.5813,-14.3522,156.6969,-26.2504,127.7836,-10.5884,58.4016,-107.0947,22.9043,-77.0785,45.3167,-91.6811,65.5296,-73.7191,-120.3139
-429.6875,25.6156,73.9313,12.5816,32.4247,-30.9291,97.5429,-16.3061,81.6002,-65.2413,52.7299,-11.6748,19.7550,-35.5997,-16.0191,-79.3348,6.6584,-86.9454,104.3561,-69.7787,24.1630
-421.8750,12.0757,69.9662,-24.1941,63.5813,-67.9344,59.0093,-127.7551,116.9927,-102.7433,125.1414,-11.2450,19.6036,-35.5938,56.5499,-79.0911,79.4793,-54.6972,170.6721,-38.3571,-50.8728
-414.0625,71.2591,86.4953,64.5433,115.2350,20.5728,109.9721,-39.7118,57.8701,-125.7535,-44.9593,3.6961,-3.0495,-58.0782,-39.3813,-101.3444,-53.2020,32.0595,80.4924,-93.4433,-0.4066
-406.2500,24.1758,49.1819,-13.5651,78.0526,-57.7619,69.0883,-153.5307,15.8969,-129.6191,24.0805,-0.2024,103.4566,-98.4153,29.8480,-68.4456,53.2636,29.9802,182.4618,-25.3932,31.1874
-398.4375,55.1761,109.6344,18.1003,138.6315,10.6727,62.9620,-123.6002,46.6578,-98.7515,-19.1619,-4.3365,60.7144,-104.0010,23.8185,-35.7986,10.4533,54.6693,102.1740,-71.6129,-85.4673
-390.6250,60.0315,4.3493,87.0282,69.4681,116.3697,94.0747,-56.4389,-33.3460,-104.6461,-98.1702,26.7983,-18.7715,-72.3346,-18.9609,-77.9027,-104.1091,91.6268,67.1481,-36.5950,55.1184
-382.8125,30.2184,12.4788,26.3826,41.7146,54.4890,-4.4091,-80.8750,-20.9659,-56.1507,-12.8151,40.3540,31.1359,-60.2640,30.6544,-65.6058,17.7060,29.0006,144.5176,5.8051,-43.9108
-375.0000,50.5963,40.3542,92.5047,34.7098,121.3793,60.8557,21.4366,8.1437,-26.9162,-94.7356,33.6683,-13.2025,6.5677,-50.9824,-35.5589,-100.7407,-47.8633,-4.3491,-37.0554,-52.1902
-367.1875,-28.3652,-33.2619,-23.8687,-3.7837,41.7815,17.6221,-21.7594,0.7550,2.8064,8.8407,-9.5064,16.9662,-0.0948,15.8894,-5.0093,3.3116,-51.2212,62.2919,-5.4327,14.0020
-359.3750,-8.8796,17.9332,-37.4239,47.5329,27.0050,2.1958,-0.1534,96.1544,-12.6813,-6.8156,13.1318,1.9320,-14.9460,37.5560,17.3445,62.1451,-69.7705,41.7177,-61.0313,-112.0090
-351.5625,53.8513,4.4796,90.3743,-0.8004,117.5773,56.1165,16.7863,-35.1030,-106.8245,-137.1260,68.1337,-17.7461,2.5498,-19.4198,-38.9541,-31.6657,23.0431,-7.5021,-110.2820,14.3241
-343.7500,11.0677,-31.8580,18.2883,-2.0188,45.2647,-16.8574,-93.1702,2.7299,-68.8725,9.6408,69.2461,56.6789,-32.8569,54.7051,-74.1510,79.6066,20.9695,95.3681,-42.4496,-59.2634
-335.9375,54.3326,39.0069,57.4220,33.9642,122.1710,21.3708,56.0696,3.7459,6.2673,-61.4185,72.5691,-13.6966,-30.0581,-15.9728,-71.1495,-64.9335,-12.8867,-44.5592,-42.4326,-94.6480
-328.1250,15.0841,-14.7628,32.9124,-19.6922,60.4333,-4.0576,30.6430,-94.8905,54.7437,-88.1353,48.2593,34.2842,-18.9011,-42.2967,-59.7971,-54.1178,-31.3927,-29.1248,8.9202,26.2964
-320.3125,38.7873,89.4210,0.3775,49.6037,-9.3303,-37.5281,-3.8242,-18.5879,20.1672,-11.9301,51.9115,37.2047,-14.7833,-1.6794,-18.4876,-13.3783,-31.9417,-30.7550,-63.7913,-81.8160
-312.5000,78.8479,96.5517,110.7980,20.8454,63.8645,34.9443,32.6527,-92.3459,-17.4581,-121.7830,52.5219,-35.9229,-15.7085,-75.1124,17.7756,-86.6912,-25.5299,-95.4269,-127.5593,64.0192
-304.6875,42.8515,48.5487,25.0796,8.9486,-58.0766,-50.7345,-90.0243,-69.2623,-30.2460,-25.8074,78.0000,24.8069,-27.7827,21.3099,42.8901,46.8338,32.7435,-3.2543,-71.4941,50.6845
-296.8750,91.1360,125.2489,73.0841,50.7613,-10.2996,-3.7060,-43.0124,-59.4978,-19.3533,-89.1640,89.1884,-0.7588,20.8409,-41.5695,17.7026,-52.9564,39.7372,-68.3778,-100.7475,-49.9459
-289.0625,77.8011,58.5633,109.6929,-15.8132,25.0847,-6.0807,-45.4183,-134.1434,-21.8791,-126.9321,88.9918,-2.7155,19.0632,-78.8379,16.1101,-54.1413,43.3431,-29.8866,-98.4122,58.0055
-281.2500,45.9118,87.2450,34.6743,47.9784,-50.1594,-45.0938,-121.4693,-64.4496,-24.0661,-20.3854,87.1554,68.6785,17.6410,28.2345,14.8618,52.9974,-32.6894,-2.0529,-105.7494,-55.7038
-273.4375,40.7650,90.0794,33.8166,85.9179,-14.2436,64.0393,-12.3771,-66.6200,-26.1103,-96.7039,50.4828,31.2232,53.3782,-10.5441,50.7654,-58.7167,-65.5639,-105.0616,-173.9478,15.7341
-265.6250,11.3578,50.2161,-44.7305,46.1619,-92.0180,-15.5270,-91.9838,-72.4922,-68.8539,8.2627,83.1239,100.0691,48.4209,57.9804,8.9748,46.8590,-35.1317,-6.7706,-110.8541,9.4464
-257.8125,96.6436,130.5531,43.9415,90.6050,-40.5704,-0.8880,-40.3847,-21.1770,-54.4038,-51.5960,134.9757,40.1093,-10.3301,-1.3026,-12.6132,-49.3860,10.5092,-67.2852,-136.5737,-87.6388
-250.0000,66.4022,25.5953,113.3109,-13.2406,27.5736,-7.5534,-47.1052,-64.1608,-61.2660,-94.7547,93.5357,-2.1390,20.6190,-43.8720,-18.5009,-54.9229,11.8521,-66.0893,-101.6020,52.9651
-242.1875,5.9754,17.0552,-2.9054,-22.6735,-51.8694,-50.8060,-90.4243,2.2543,-30.7425,44.4649,51.5053,29.0140,-22.0342,59.9582,13.0054,48.9268,-32.4019,-6.5037,-41.2483,-28.0405
-234.3750,26.0144,4.6657,56.0391,1.0428,6.8477,7.0896,41.3937,-51.1961,-10.0822,-82.1818,36.6390,-23.6805,36.4653,-30.0648,34.6568,-77.0819,-8.4903,-159.7578,-18.7570,29.1112
-226.5625,-18.5449,-13.3643,-38.6567,-52.8792,-51.0804,-51.6636,-55.4522,-73.3011,2.9177,4.5082,15.1316,26.9802,13.3160,20.2659,48.6558,9.2540,7.7877,-38.6505,31.0805,78.5882
-218.7500,41.4183,81.3595,-7.5804,42.9551,-57.2372,-21.6563,-98.5413,-43.6667,-76.3411,-38.0749,84.3805,59.3859,45.9156,15.3440,44.4000,4.3205,-1.1772,-50.7907,-50.3482,-38.1922
-210.9375,74.3377,18.2418,105.6456,-19.0612,55.7586,-19.4992,-59.4919,-114.8800,-38.4576,-146.5065,123.7865,-12.0506,47.6649,-55.4179,9.2941,-103.4579,41.0043,-78.7702,-44.6386,73.1674
-203.1250,25.0449,5.1362,-13.1171,-34.0668,10.7649,-66.3382,-69.4382,-89.0985,25.4225,-9.9595,115.2033,15.5130,2.4182,-29.1851,38.1923,-3.2502,-6.8106,82.2354,46.0560,-47.4863
-195.3125,61.8108,34.0808,56.1837,30.9729,116.8298,2.8717,72.6645,-57.2810,20.3476,-163.3809,74.6794,-62.8708,-1.7725,-70.9085,33.1388,-119.0039,22.4349,5.2944,3.7890,-90.0815
-187.5000,18.1495,-15.0047,3.4383,-18.0188,63.8515,-14.9747,18.6993,-75.5170,3.2050,-70.8602,22.1166,-43.2958,-19.0127,-14.6783,-19.9717,-62.8085,79.6415,96.3189,24.4545,-34.7428
-179.6875,40.9543,54.0257,7.8149,51.1004,30.9907,25.2875,-15.1687,1.3354,-30.8557,-31.2670,26.6679,-2.6243,-52.1492,25.6437,-15.9897,-22.5340,77.9587,93.4408,-48.8008,-179.3049
-171.8750,74.7667,13.3599,108.4934,45.5184,131.4308,50.8501,47.2406,-83.5163,-41.6271,-190.3745,54.5248,-49.6491,12.0098,-58.7200,11.2879,-143.9498,143.5818,-18.1186,-90.7625,-80.5722
-164.0625,55.5567,6.0034,68.4839,38.2483,54.1784,-27.2765,-68.0503,-88.0654,-47.1062,-85.2027,87.6895,56.6286,-29.5297,10.2215,43.8637,-38.0723,136.5086,79.6131,-64.4399,-159.5572
-156.2500,110.4608,82.1911,151.0379,114.5211,99.4928,55.1482,-59.7856,-81.0787,-39.0409,-151.4991,97.4102,28.4532,-20.5113,18.7052,-21.0103,-103.6612,141.9921,-21.1068,-130.5716,-225.9804
-148.4375,82.6346,-10.3165,159.8869,57.0937,108.1050,24.8673,-52.2262,-110.7898,-105.6726,-144.4933,68.4371,-0.4170,-12.1964,25.4972,-49.5758,-58.9459,190.7743,25.4825,-48.4082,-109.1179
-140.6250,87.1873,-12.0167,126.5483,56.4762,148.5291,-8.6008,-49.8579,-34.7075,-66.5065,-142.7094,110.2650,2.5131,-9.0748,29.0847,-46.3458,-19.4469,225.3577,23.8618,-50.4611,-217.4592
-132.8125,124.3014,-13.0685,230.8583,19.5131,215.6011,-15.4163,53.1480,-115.9797,-37.7021,-260.2834,140.7530,-40.9010,57.6977,-88.6689,-15.4686,-174.2968,188.5940,-84.0947,-88.8708,-115.1484
-125.0000,57.9969,13.5402,75.8265,-23.7872,60.3306,-98.5727,-30.2060,-88.6036,-10.2606,-86.2204,95.9030,23.3429,12.1192,12.2311,12.0541,-35.5009,110.4879,46.6033,-28.6505,-125.2060
-117.1875,83.8780,50.8029,118.4644,48.5689,65.7253,-21.0699,48.0843,-48.5905,-6.1816,-120.5275,101.7111,-8.7628,17.1938,-20.2191,54.2187,-69.0704,77.0364,-23.0540,-133.7948,-195.6083
-109.3750,90.1534,-11.6328,157.3965,-48.7714,104.4134,-19.2676,48.6633,-121.2727,-78.8052,-156.5291,140.8173,-80.5586,92.5618,-55.3560,92.6810,-104.3299,120.8793,20.5996,-161.6374,-47.7187
-101.5625,82.3566,35.2811,100.6821,-1.7637,10.4622,-77.1064,-46.3938,-68.5981,-27.0757,-104.1924,158.2730,-27.0159,109.2825,-3.1431,109.4965,-15.2509,98.0687,30.5903,-151.1337,-143.4810
-93.7500,104.8389,54.9402,153.7157,17.9804,100.2626,-25.2025,42.2963,-128.1754,-11.5976,-200.1065,137.4810,-85.7241,124.7586,-98.1778,125.0601,-146.4187,82.0107,-91.6566,-168.8765,-55.4885
-85.9375,38.3363,3.8658,25.0094,-33.0141,-28.6855,-81.0552,-87.7619,-74.5040,-31.8707,-36.7783,119.9490,5.8213,106.4827,-43.9709,106.8721,-19.3481,67.2116,33.3471,-80.3740,-2.2674
-78.1250,70.6027,69.8003,62.3228,32.9953,-27.6181,-44.9042,-50.8120,-37.8461,-33.1497,-38.4777,120.4255,-30.6349,106.2076,-43.7775,69.6775,-19.3017,27.4213,-7.6558,-85.8869,-114.0376
-70.3125,71.2262,31.1950,92.0809,-40.5399,37.8897,-17.3009,-23.4362,-47.7375,-78.9935,-121.7210,113.3583,-75.6291,134.3773,-53.1219,24.9285,-65.7996,24.0760,58.8125,-90.9591,-13.3582
-62.5000,30.3016,45.6017,-34.1568,8.9354,-14.5949,-33.6854,-77.0628,45.3741,-59.8457,8.0249,97.2955,17.3753,44.5482,40.5326,8.1734,27.6909,3.7277,142.2815,-78.0460,-141.6845
-54.6875,81.2703,101.2563,59.8559,99.6575,42.1748,96.1810,15.5588,27.7318,-76.4481,-119.9851,81.4795,1.6328,27.9704,-49.5635,28.6665,-99.5716,-10.3729,-13.9938,-128.8847,-122.7502
-46.8750,47.8640,37.8617,26.8155,36.3330,8.8909,24.9952,-92.8707,-6.9558,-75.0997,-45.0422,85.6143,3.8399,68.3445,-10.6981,32.1121,-60.8749,31.4699,61.6859,-53.7757,-47.8815
-39.0625,28.2757,60.6660,-16.0159,130.2025,-34.1842,17.0235,-27.0925,58.5506,-46.5535,-16.9185,41.9544,33.2396,60.9210,18.3642,24.7570,-31.9912,-15.4889,13.5615,3.5221,-166.8042
-31.2500,-13.0486,-24.8838,-1.2030,44.7203,-19.6115,68.6975,60.3212,35.7064,4.6304,-40.1430,-16.0533,11.3025,39.1432,-3.9139,40.0483,-54.4499,-30.7950,-37.8940,21.4673,-43.0744
-23.4375,-55.3515,6.6314,-113.3293,40.3017,-95.9821,28.4343,-16.2160,104.9133,-0.1422,102.6670,-55.0038,45.4144,-37.5834,102.8574,0.3837,126.1274,-70.0517,-7.3057,86.4463,-84.3060
-15.6250,-2.2218,49.1446,-34.4522,47.8763,-16.3493,70.1770,98.2468,109.1148,41.0797,-3.5295,-47.9508,-23.4778,-69.3044,34.6252,-31.2860,-16.3042,-62.3111,-106.7106,21.4225,-43.5244
-7.8125,-56.3585,-43.6427,-61.8842,-44.8471,-44.0220,3.6207,31.4049,42.0257,48.0033,75.9827,-76.1990,-14.6633,-23.3285,5.1080,-22.2578,26.9739,-48.8792,10.5968,68.0978,72.9427
-4000.0000,-54.9615,-22.4885,-83.7334,-18.1283,-70.1061,-8.3940,50.1609,56.4672,59.7610,102.1350,-59.1022,-13.1691,-4.0771,17.9710,21.5296,47.9230,-51.9829,-17.8920,68.7342,-28.5703
-3992.1875,-16.6363,-22.3516,22.1391,-17.9083,0.0338,61.0684,85.2019,16.8729,20.8435,-10.7803,-62.9494,-53.9288,-6.9780,-22.2567,18.0037,-28.8499,-14.4919,-121.5913,1.0703,77.4531
-3984.3750,-45.5999,-33.8833,-63.6283,-29.3517,-85.4645,-24.1271,-71.4019,43.6138,11.2723,126.6448,-37.4405,7.6577,-53.5206,40.8588,7.8334,144.7224,8.3617,-63.9358,62.7685,65.8269
-3976.5625,14.9986,7.3347,52.3607,-24.0476,-41.2047,-16.5838,10.7492,51.1057,57.4547,24.8146,5.8251,-22.0127,-46.3087,-25.2783,16.4186,43.0401,-21.0228,-162.5370,35.2240,35.9285
-3968.7500,-32.6222,-104.8528,41.9729,-100.1513,-16.3240,-27.4431,1.5171,-32.8164,84.2408,-21.4364,-5.3057,-32.0970,17.5078,0.1633,7.6098,-5.0694,-26.7898,-29.5540,65.2839,134.6322
-3960.9375,-43.2984,-34.1478,-61.5168,5.6350,-82.5439,16.5855,-63.8164,49.1534,19.9356,61.2130,0.4690,47.7111,-49.7692,81.5014,-22.2917,113.7229,-95.6457,112.3333,-1.7400,-5.7752
-3953.1250,19.2067,54.1562,26.6097,59.0142,5.8539,141.2128,-10.5340,28.7178,-72.7666,-69.5582,-20.1444,25.1065,-32.4374,-13.5731,-78.5916,-17.9037,-112.8918,59.8053,-86.1608,82.4053
-3945.3125,-16.9847,46.2404,-92.4489,51.1745,-75.9363,97.6294,-88.4454,22.0710,-42.6721,35.4558,-27.9512,91.2920,-76.2948,53.1422,-48.0879,12.2606,-50.3252,122.0766,-22.7651,74.3921
-3937.5000,53.3158,66.1286,44.2983,107.1321,-12.9196,87.8381,13.4433,-23.7806,23.2207,-82.7349,35.0550,81.2743,-49.3472,-29.3462,-20.7790,-106.7854,6.0511,-32.8478,-34.5674,-45.8431
-3929.6875,54.6844,-82.4786,141.5697,-7.4124,84.6223,1.5499,1.8418,-109.1494,11.6061,-131.4551,95.5692,-5.2551,-23.8881,-79.3547,4.0298,-118.3584,103.9446,-41.2859,-5.8722,51.4223
-3921.8750,35.0400,-63.9435,92.9946,11.1859,36.3183,-10.6019,-81.6173,-46.3756,-34.8605,-68.0253,84.2323,19.3644,-35.2731,19.7848,-6.0097,17.2209,86.9996,83.4370,-20.0132,-71.1664
-3914.0625,90.4075,-10.2123,182.6269,64.9807,127.2264,80.4445,11.1459,-101.4049,-90.1144,-196.4112,101.0939,0.1678,-17.4526,-35.8850,-61.8403,-75.0127,71.2656,-38.6515,-104.9494,-17.5706
-3906.2500,35.5027,-49.9467,101.8147,26.3066,45.6945,0.0377,-67.5246,-107.9010,-93.8040,-128.2609,56.5100,66.5110,12.9211,30.9877,-30.1103,-7.7072,103.0877,62.8056,-71.3283,48.5817
-3898.4375,54.3578,20.1708,69.8572,96.4810,51.0140,4.4736,-24.3416,-101.5525,-51.6381,-121.2674,61.7835,70.7019,19.1470,-1.2893,12.4753,-75.5513,102.7638,27.1108,-68.8561,-57.4328
-3890.6250,86.2816,8.8828,126.5225,14.2499,107.9568,25.5128,-2.5455,-153.6226,-65.8729,-208.7094,81.6671,17.4818,2.9888,-53.9826,-3.3353,-127.8195,162.0545,51.0066,-78.7954,36.1543
-3882.8125,101.5677,71.7430,87.3404,41.1671,69.0564,-50.3028,-113.6110,-118.5580,-66.9676,-137.0067,115.7021,51.4198,1.9839,-19.5233,-3.9934,-55.9354,190.5049,114.0687,-83.5905,-77.1071
-3875.0000,187.0025,123.8138,249.3665,93.2950,194.3720,2.0868,-22.4759,-176.2953,-122.8713,-303.1156,131.9400,-6.4434,55.1795,-150.8671,-24.4557,-222.8625,243.1618,-44.6699,-135.1951,-25.1842
-3867.1875,116.8827,-15.5662,209.9600,-45.0355,155.2593,-109.9742,-58.7853,-213.5022,-86.2295,-193.7000,128.7322,-45.7713,89.9346,-151.6738,11.6326,-114.2569,245.3889,-7.8710,-25.2502,82.3023
-3859.3750,110.5331,16.3005,175.8106,-13.1231,85.4001,-107.7994,-17.8540,-136.4653,28.6587,-153.0349,131.7839,-42.8501,93.9427,-112.2297,52.9725,-111.3974,207.8754,-45.8150,-26.0520,-61.9685
-3851.5625,114.5082,-5.7274,221.7767,-35.1093,167.6564,-62.5185,29.1909,-199.3378,1.6429,-252.2934,103.9417,-70.8366,104.0536,-138.6956,25.4140,-174.4604,221.4677,-102.6693,-45.7619,56.8582
-3843.7500,70.1922,-4.9607,112.5499,-35.3049,95.7193,-133.4433,-76.9711,-160.4202,-67.5743,-139.7603,105.9010,40.9768,106.9662,-27.3641,28.6520,-62.7269,186.8691,3.2885,-8.6663,21.4903
-3835.9375,85.6231,10.9124,167.4306,16.6090,150.8938,-42.2683,15.9678,-142.4034,-48.7003,-229.1424,86.9661,-15.1081,88.9812,-45.9336,47.9869,-117.9034,133.3791,-121.6556,-60.4769,2.2060
-3828.1250,20.5794,-56.6119,90.9323,-86.8788,110.6852,-44.4836,15.5047,-179.7968,-11.2459,-156.9495,48.6390,-17.5968,86.5958,-47.9176,82.9159,-45.4997,100.5038,-82.9984,-19.6992,109.5349
-3820.3125,56.9981,7.6234,90.1857,-21.6147,74.2276,-81.9502,-20.2305,-143.4425,25.9380,-157.0043,84.0652,-18.3269,87.9596,-48.1423,84.5845,-45.3381,131.3812,-89.5713,11.8261,-1.3916
-3812.5000,84.3544,-19.5301,169.0523,-48.7439,153.3868,-75.8053,97.6388,-172.4895,32.7164,-222.4792,89.0953,-85.4665,93.9266,-151.7720,53.8464,-148.5909,140.8611,-114.5529,-13.0623,77.2776
-3804.6875,53.1943,-52.6377,98.9765,-46.8318,46.6028,-108.6159,-43.4439,-131.4932,1.5407,-70.9144,130.1732,-9.5556,61.9440,-75.3544,22.1568,-34.7982,108.3957,27.5210,-8.9015,44.0105
-3796.8750,137.8963,54.1644,176.8035,24.9858,88.7207,-30.5281,-37.6297,-126.5998,-101.7440,-175.4563,171.1557,-41.7401,67.8571,-107.0317,-8.6315,-140.1061,144.8330,-41.5004,-75.8475,-25.3657
-3789.0625,120.2717,-23.0816,202.5962,-52.2457,113.8115,-5.4819,-119.8639,-172.7691,-148.0870,-221.0724,160.0864,-52.9751,56.7209,-80.7710,-17.4788,-112.4858,209.2325,22.4322,-79.8560,73.2207
-3781.2500,76.1915,1.6885,88.3920,42.5308,36.9007,27.5648,-195.1253,-65.9396,-150.4552,-76.6898,119.0220,15.8007,-19.4198,25.4966,-58.3407,30.1393,164.6386,82.3907,-52.8793,-78.1919
-3773.4375,126.6582,64.6870,187.4102,70.5197,137.1959,90.8245,-94.2029,-75.9146,-195.6495,-196.1276,72.1742,-31.2232,7.6386,-58.0433,-103.0137,-90.0533,192.2511,-65.4539,-93.7331,-15.4066
-3765.6250,95.2805,1.1913,120.9412,7.0058,70.0025,-12.4199,-121.7922,-105.4036,-113.3612,-115.0836,115.8331,-24.7443,15.1971,-51.0888,-59.1929,-82.7537,199.3757,11.2052,20.8991,-9.1013
-3757.8125,122.9501,10.9061,172.6817,16.7010,159.0132,-70.4667,40.8075,-88.6973,13.1181,-171.8526,167.6955,-120.0569,67.9528,-108.9300,-43.1736,-140.2564,140.7050,-83.9310,-2.2798,-104.5972
-3750.0000,61.2510,-98.3188,162.4914,-92.5446,186.0915,-44.4555,69.4589,-134.9548,40.6320,-143.5976,120.6095,-129.3159,58.7570,-154.7301,20.8840,-148.7282,102.0875,-53.0205,-4.4252,31.9779
-3742.1875,1.5679,-59.7823,23.0516,-54.0376,83.9146,-72.6966,5.8313,-16.4672,13.8726,12.4094,55.2795,-85.8158,31.3064,-36.7722,67.6763,5.5631,35.2306,56.6601,1.1702,-70.6858
-3734.3750,21.0637,-42.9214,74.9249,-73.2149,209.0452,16.3778,96.4904,0.3214,-6.6051,-81.2986,33.2566,-144.0080,84.1476,-95.5117,46.7540,-88.8573,16.6733,-67.3599,-15.9588,-19.0515
-3726.5625,-49.5050,-195.0023,23.8580,-154.3392,158.2331,-72.4889,9.1824,-13.8456,-19.0592,16.0291,55.2835,-121.1452,107.0349,-36.2052,69.8672,7.7654,6.1708,26.6866,115.9426,39.6593
-3718.7500,-24.4273,-129.6224,25.2378,-89.0005,122.8655,-69.9008,49.2976,62.4431,56.9124,18.8115,57.7590,-83.8158,72.3588,-34.4298,72.4142,-27.1535,2.1167,22.2133,77.2825,-106.1805
-3710.9375,-11.3883,-103.0271,48.8332,-132.4514,183.7150,-46.0879,112.6083,13.9300,83.0590,-29.2319,7.4363,-133.2847,60.8764,-83.4581,61.1483,-148.8870,29.2644,-21.0584,106.7996,-8.8086
-3703.1250,-43.1866,-104.6271,-21.7644,-134.0990,113.3730,-79.4733,42.6938,54.2077,86.9790,48.5141,-26.0775,-93.9441,28.1904,-6.6822,28.6680,1.1805,63.2207,82.4904,177.1039,-116.6171
-3695.3125,-37.4364,-169.2072,58.6489,-93.7317,231.0393,1.1517,198.7615,62.4883,132.8800,-53.7497,-55.5864,-197.5964,35.5006,-72.9051,36.1772,-137.7578,69.1733,-16.9509,184.3792,-146.4239
-3687.5000,-87.0084,-248.3696,9.4765,-173.9593,182.1095,-47.8124,188.2141,13.1646,195.1572,8.3772,-68.6947,-136.8412,-12.7936,-47.7303,62.0713,-76.3016,95.5189,8.0190,247.0257,-85.8014
-3679.6875,-76.2251,-182.5633,-24.7542,-71.2233,112.1186,-44.8257,192.5825,90.7998,199.3572,49.4618,-28.8554,-97.1192,-9.1495,-7.5867,102.9045,-35.8797,22.8107,-65.0266,175.5999,-230.2209
-3671.8750,-2.5811,-129.2778,98.4778,-89.0209,161.5874,-32.3699,207.3914,-6.1148,102.9854,-120.0241,21.4293,-120.9425,77.9345,-67.9945,79.1710,-133.0243,40.5502,-82.6143,88.5997,-107.1792
-3664.0625,-30.3154,-117.5333,4.1615,-77.3611,66.5125,-53.4511,76.6292,10.4183,83.0381,-30.0677,0.1595,-69.3021,57.4586,-15.9446,95.8670,-43.7184,88.7418,70.2725,138.0330,-165.6633
-3656.2500,-7.2697,-88.2193,74.3963,-83.1294,210.9896,17.0314,185.3953,7.5074,117.6146,-105.5719,-40.5609,-146.0932,55.5183,-92.3286,94.0957,-119.8575,82.4803,-6.2738,132.9907,-242.5954
-3648.4375,-68.2809,-213.6819,49.8416,-172.6832,260.6779,-6.2661,199.3447,-52.2105,132.3586,-91.8963,-64.0845,-206.6670,105.7651,-79.5054,107.5010,-105.8008,63.4144,80.3892,221.1139,-156.2995
-3640.6250,-62.9990,-171.0208,-9.6222,-130.1184,238.4539,-29.4502,215.3576,36.1771,147.1737,-40.1128,-13.5111,-156.1142,83.0987,-28.5661,121.9902,-54.6316,36.4357,18.1843,195.3126,-289.8901
-3632.8125,-12.8679,-153.0381,113.2208,-78.2333,250.5334,20.6847,265.6575,-24.1281,124.2679,-173.0391,-0.6443,-143.2566,96.7192,-89.3206,135.7638,-189.1677,53.7515,-140.7130,73.7869,-167.1693
-3625.0000,-41.5325,-117.1568,1.9606,-112.4469,102.5143,-90.2665,118.8380,-61.5313,161.2430,-26.0647,35.1136,-70.4876,96.2284,-16.1665,135.4195,-42.7948,19.9639,-69.6848,111.1501,-131.5225
-3617.1875,17.2476,-43.8582,78.0975,-39.2370,105.8929,-13.7984,160.3958,-57.5192,128.5916,-94.6842,74.2670,-67.2979,100.1188,-49.5902,102.4539,-112.0112,-11.4317,-171.2343,-25.1173,-128.4754
-3609.3750,20.2017,-88.0293,94.7502,-83.5050,85.7800,-33.8067,104.4336,-112.0071,72.4053,-149.8243,90.9192,-86.5946,117.4972,-104.5148,82.9661,-93.7400,14.6653,-146.2859,2.0741,72.1074
-3601.5625,-16.5069,-87.3737,-8.8053,-117.9582,19.4516,-100.0106,39.2272,-105.6947,117.9868,-32.1617,98.3692,-44.0620,88.6629,-24.6246,128.2592,-13.6577,15.5612,-38.5099,75.0378,-31.4774
-3593.7500,34.8350,-69.2887,83.0488,-99.9830,111.5289,-44.7953,95.3978,-86.9828,62.9308,-124.1163,116.2157,-136.1080,144.2141,-117.3239,72.9238,-106.1764,33.8574,-91.3185,23.3678,-13.6417
-3585.9375,-4.0726,-78.6790,-0.5905,-109.4912,28.1094,-91.0665,13.0346,-95.7771,54.3379,-21.5825,106.5557,-35.6343,98.2515,-52.5146,101.0685,-41.1941,24.6595,5.3984,51.1656,-23.2677
-3578.1250,69.1273,39.0115,52.8180,7.0770,44.7260,-38.2743,66.6863,-78.5123,34.7688,-114.9946,121.9421,-56.0873,77.3165,-72.6350,80.2422,-135.1453,36.5004,-18.8067,-7.0137,-117.8325
-3570.3125,60.6647,-57.0686,131.4324,-88.1298,123.5443,-32.2560,73.5183,-146.0374,3.3659,-181.2170,90.5212,-88.3231,83.5668,-140.5454,86.5874,-164.8980,117.5270,-7.8041,38.9622,-2.1652
-3562.5000,28.4738,-87.3250,67.8339,-83.5207,97.1420,-94.4253,12.1082,-97.7541,15.7261,-96.6246,100.8938,-40.7283,21.5991,-19.6324,60.7128,-44.8271,122.3364,102.0265,79.7087,-138.6638
-3554.6875,73.5022,-91.4471,174.3336,-52.7816,203.8295,11.5262,118.7706,-101.3582,12.1569,-210.9321,133.3596,-81.0059,53.7131,-96.6032,20.9177,-158.6553,118.2305,-43.0265,6.5169,-143.0471
-3546.8750,58.3090,-107.0938,154.2814,-68.5712,146.9607,-81.0510,26.8594,-120.5105,30.0081,-155.7963,150.2645,-63.8127,72.2624,-79.1145,38.5485,-104.0277,101.5603,47.3924,26.7377,-88.9407
-3539.0625,105.7295,-8.4080,152.5153,-5.0322,145.3817,-46.3132,25.2051,-85.3521,28.1144,-156.3506,184.4664,-66.2938,70.0932,-118.2997,36.4552,-142.0814,95.1782,75.1520,-14.7762,-201.5166
-3531.2500,127.1853,11.0630,203.5100,-20.7156,196.5589,5.2067,78.2664,-143.4348,6.9231,-250.1699,125.4167,-88.0046,85.6567,-176.7260,15.0775,-310.3915,149.5394,60.6822,-29.5845,-76.3150
-3523.4375,101.6381,35.3551,121.2997,38.4256,77.5227,-39.4517,-39.9187,-113.7080,-37.5086,-148.1841,117.1573,51.1172,3.9910,-37.3310,7.4648,-171.8840,173.6937,119.0526,-39.6226,-158.2811
-3515.6250,142.8024,110.9852,200.3827,113.9015,119.7715,77.2185,-33.8402,-107.6603,-142.6780,-215.8899,85.1869,56.5714,-27.4017,-68.6114,-60.8763,-166.0632,144.1278,-15.2491,-104.4040,-152.9348
-3507.8125,40.9814,2.3448,116.1632,40.1032,35.7171,30.6185,-116.0943,-43.9024,-151.1848,-77.9013,0.9019,82.7475,-37.1174,32.8264,-69.5457,-28.5395,70.2463,51.1716,-36.5198,-15.8480
-3500.0000,9.7231,37.8331,10.0252,40.4305,-33.2607,-1.8666,-75.2890,34.9702,-36.6175,1.2015,5.7057,51.0538,4.2396,74.3908,-29.1399,50.1069,-0.5520,-19.2667,-0.5638,-121.6392
-3492.1875,31.1374,-20.0449,90.4918,-53.6119,47.3653,-30.7205,117.0913,-67.5452,44.5086,-137.1035,12.1060,-52.0203,85.1770,-102.4367,51.8338,-89.6500,82.2369,-147.0854,11.9459,-3.8036
-3484.3750,-18.0570,-15.8012,-14.9467,-48.5392,-20.9185,-135.4561,49.5330,-97.9500,87.6956,-57.2980,-19.4064,-8.9683,91.1930,-22.1457,131.8773,-9.2880,86.1114,-1.7703,16.5229,-34.8270
-3476.5625,48.1977,120.5279,18.6509,87.6157,-24.1670,-27.1196,83.9928,-63.2864,47.9082,-133.4243,-22.8830,24.1596,51.2285,-24.7825,54.9472,-85.8572,81.0121,-76.3799,-92.8849,-74.7825
-3468.7500,9.5744,49.0855,11.4451,50.9927,-31.2237,1.4423,3.6276,-70.4085,-32.7119,-102.3517,-67.1744,53.5093,43.4445,3.7989,11.1853,-56.2194,79.0926,-7.7746,-58.1307,64.5066
-3460.9375,-9.5961,55.2700,-51.1815,56.9940,-92.7058,-21.3752,-21.1873,16.0906,-20.7740,57.3462,-18.8788,66.4993,19.2312,54.0092,22.9975,30.0480,-20.2495,-0.5265,-16.8092,-69.5721
-3453.1250,37.1226,48.0413,45.7385,14.5793,4.3538,39.3885,39.5194,-32.8480,-32.3219,-65.4084,40.9600,17.0631,42.5446,4.7858,-25.6638,-56.1294,-27.0589,-78.7090,-93.9871,27.9266
-3445.3125,21.8516,0.3374,-5.8468,-33.3129,-11.0968,-49.3259,-85.3158,-47.2793,-85.4033,-42.6592,98.2862,38.1531,64.3368,26.0812,-41.8542,39.2090,-5.3829,14.6421,-0.7042,85.9707
-3437.5000,51.1199,13.8172,44.7026,-21.0201,39.5826,-33.8697,-32.0410,-31.5391,-69.3738,-99.7414,113.7479,-19.5740,79.2517,-31.4441,-25.9256,-18.2763,6.4214,-77.8180,11.6902,28.1858
-3429.6875,9.6699,-61.0699,35.8506,-95.0998,67.8597,-78.7785,31.8040,-76.1861,-5.7848,-71.2294,67.7972,-64.6734,70.7419,-39.3530,-36.4294,-26.1596,1.8071,-45.6545,42.6416,129.0401
-3421.8750,-20.1846,16.5743,-61.5205,-53.6503,-66.3832,-66.1653,-28.9021,10.6823,43.2658,88.8028,5.3323,21.7653,-27.2949,47.2690,12.5325,60.4851,-27.3208,-3.9544,49.0557,-4.5754
-3414.0625,3.7199,3.8114,31.6592,-30.6134,26.9161,-7.9716,64.9067,32.1208,-8.1750,-36.6168,-9.5923,-31.2184,30.1920,-5.5350,-1.9855,-29.3107,-39.9197,-156.6894,2.9713,53.3822
-3406.2500,-61.3433,-99.0261,-44.2689,-133.6491,-11.9012,-44.8475,-9.4241,-5.5324,-47.7538,72.8732,24.3685,4.7289,65.5520,66.5849,-4.6338,116.8147,-73.6466,-48.5015,3.7429,125.2939
-3398.4375,-15.6786,-28.9307,-4.3271,-28.7533,-8.8536,-42.8033,-5.9011,-2.2601,-44.4655,3.2903,62.2159,7.6128,66.7858,70.6380,34.5926,83.8708,-74.5052,-84.3790,-101.6219,55.1380
-3390.6250,7.9247,16.9958,34.4086,-18.0314,-6.0207,-37.9260,-39.6037,-71.1762,-78.4043,-65.4947,28.8512,49.3229,33.7988,1.5028,1.5991,51.7322,-65.5867,-73.4461,-127.2284,205.8277
-3382.8125,-45.4249,49.0426,-74.7732,13.8133,-152.1102,-35.9341,-111.2505,4.0201,-40.2774,120.8386,-43.4291,87.1681,-38.1086,113.4954,-34.3175,199.7191,-138.5874,28.6309,-24.7690,97.6601
-3375.0000,-34.8227,62.0294,-63.0629,-8.4031,-103.3126,49.9860,47.9643,54.1387,45.7060,60.0809,-68.8193,-10.0575,-63.1421,52.4141,-22.3665,102.6262,-162.7099,-98.3652,-47.4571,110.4180
-3367.1875,-65.1713,-3.2512,-99.6579,-73.8949,-103.8291,-21.3628,10.8397,19.9673,45.3488,98.0278,-68.5243,28.4493,-62.5028,54.0544,-21.7490,103.2451,-124.1504,12.3620,-8.4888,184.9277
-3359.3750,1.1617,123.0530,-71.7245,17.1972,-112.8260,-30.1427,-33.7826,11.3632,35.5085,54.5484,-4.6908,93.5416,-71.3452,46.2774,-30.6077,59.4446,-139.0609,32.6794,-59.0081,30.0154
-3351.5625,52.3590,153.6415,27.4558,11.5694,-50.5810,-2.6387,-8.1836,-33.9741,-48.1191,-64.6806,-15.6196,45.9076,-45.9623,-36.2327,-78.2469,-23.0947,-74.7453,-77.7355,-99.3189,130.3884
-3343.7500,55.5346,243.3031,-25.3369,-4.9821,-139.3100,-90.0589,-133.5790,-49.2448,-100.7379,30.1600,-31.5147,68.3622,-98.5542,21.3393,-57.8667,108.4426,-57.4038,10.9432,-116.6134,78.8541
-3335.9375,186.5284,482.3491,77.2025,58.8578,-109.7081,-23.0983,-140.6675,-55.1397,-180.0386,-84.6359,-2.0751,63.2030,-104.8276,-20.7090,-138.1658,-44.6498,-29.7362,-100.9991,-265.5986,36.6905
-3328.1250,249.2029,601.9249,87.2375,37.2241,-173.6153,-84.6081,-277.2848,-116.5256,-317.8721,-109.9312,80.8516,147.5667,-131.6223,-9.2447,-238.9916,3.7612,-52.5894,-50.4166,-358.1245,121.0732
-3320.3125,287.2340,729.5308,4.2499,164.6131,-292.5498,-56.1029,-359.9490,-87.8897,-400.7332,-81.1973,144.7629,213.9620,-177.4445,20.2487,-246.8424,-3.7961,-102.4630,-29.7942,-372.6793,-33.5162
-3312.5000,318.6405,742.1713,85.2560,176.0366,-211.4955,26.4333,-315.6393,-114.2311,-392.6278,-181.4523,115.6597,148.3820,-206.2973,-81.2353,-276.7250,-104.3399,-92.3634,-88.1535,-432.2765,48.9232
-3304.6875,255.7578,685.2872,-10.3042,154.9361,-308.0121,-31.5590,-447.9193,-63.1093,-378.1039,17.7559,92.9899,164.2863,-265.7288,7.7551,-299.1873,57.5858,-114.8308,66.9691,-348.4558,27.8584
-3296.8750,271.3515,669.1363,45.8214,208.5732,-250.8476,27.1754,-354.5403,-4.2687,-321.9127,-34.3206,76.0134,111.9266,-245.4906,-7.5285,-315.9768,-31.7673,-97.6180,-20.1798,-331.9771,-24.4858
-3289.0625,215.8319,501.7176,48.6458,111.9390,-137.9929,-6.3618,-278.4929,-72.7194,-283.0601,-102.6996,77.7203,153.2963,-169.5734,-40.0921,-240.0958,-100.4131,-55.7259,-11.6091,-253.8413,89.9150
-3281.2500,185.9092,393.3271,48.4428,144.3303,-101.1623,-40.8817,-277.4911,-35.1529,-245.2405,-65.0529,115.4116,154.7041,-132.6838,-1.6236,-203.2390,-26.0236,-25.8580,55.9998,-222.7363,-18.6500
-3273.4375,135.5880,252.7178,114.9781,108.5040,2.4021,64.3811,-173.7688,-3.8152,-215.6993,-68.6457,34.8375,38.8806,-103.0674,-43.3804,-135.6556,-103.8676,-62.2640,20.3819,-189.9228,86.5614
-3265.6250,6.1483,98.9257,-48.6982,60.4957,-88.2494,48.4648,-191.2794,54.3361,-159.3859,98.5722,-18.9476,96.8831,-82.6698,50.6797,-79.2952,63.1047,-110.8894,149.5915,-97.3383,144.6182
-3257.8125,41.0851,171.7601,-44.7862,168.1151,-85.3248,91.1692,-150.2300,97.1045,-155.4995,67.4125,-15.1396,139.5151,-79.6985,56.3679,-113.3612,31.7049,-75.9349,81.4306,-167.1870,76.2970
-3250.0000,64.9445,135.7665,54.2752,166.9155,-59.2592,119.0543,-198.0557,52.0389,-240.4983,22.4088,-26.2013,130.3252,-90.6045,48.2253,-197.3042,60.4665,-7.8505,81.4377,-205.9259,251.1654
-3242.1875,30.8714,141.6991,-47.7938,243.6475,-125.3244,90.8635,-301.0319,96.8983,-269.6265,104.3395,-19.3808,213.0838,-119.6474,167.0224,-190.3762,179.1639,-38.8997,227.3855,-200.7996,186.9670
-3234.3750,21.0264,81.6790,30.1180,252.4211,-46.4208,171.7079,-185.0426,68.7862,-227.7912,2.2813,-50.5704,182.8750,-40.7198,136.8432,-148.4772,39.8774,-67.9760,165.3543,-264.7196,230.7890
-3226.5625,-76.3197,-9.5118,-106.1777,196.0184,-109.7331,148.3755,-211.2878,81.4790,-217.1923,126.0222,-113.9661,269.4865,-67.0137,223.4795,-136.8068,162.3991,-90.2632,286.1482,-181.8735,280.4543
-3218.7500,-108.5964,16.4732,-150.3403,292.7896,-116.9165,253.2060,-145.4263,185.3361,-151.4692,155.9374,-195.2233,264.2775,-148.1805,255.2947,-108.0086,193.0999,-171.4176,172.1251,-191.9058,201.2871
-3210.9375,-164.5142,-65.7666,-172.7547,175.3419,-102.3600,268.8179,-93.8348,202.9604,-100.0217,173.6067,-253.7462,207.8430,-133.6203,234.8762,-130.4865,210.5595,-220.8461,124.8659,-171.2308,364.9016
-3203.1250,-217.4722,-45.1379,-297.3468,195.7684,-227.9776,219.3000,-219.4389,262.4567,-151.7520,381.1544,-269.4373,267.2913,-148.2317,332.3401,-145.1389,380.9023,-307.4511,250.4897,-152.7317,315.4022
-3195.3125,-182.5890,-18.4320,-236.9058,257.2783,-203.5663,319.8589,-195.0193,326.0278,-164.4562,333.7758,-281.0933,220.8172,-160.8230,284.8813,-194.7625,296.3233,-319.0338,207.1797,-198.2132,341.9720
-3187.5000,-229.4109,-29.5151,-329.2797,246.0055,-258.9661,303.6458,-324.4235,345.8175,-256.9816,427.6110,-337.5738,314.5640,-216.2378,341.6438,-213.2045,352.9586,-332.4409,407.0918,-176.5212,435.7891
-3179.6875,-206.4682,87.4170,-386.6852,362.7545,-280.3936,358.4474,-381.8638,400.6319,-314.5248,408.4779,-358.0683,405.3454,-200.6811,396.4409,-271.6656,371.6300,-287.8705,418.0382,-237.8535,306.6324
-3171.8750,-185.9787,67.5225,-304.9478,342.6798,-197.6815,405.4298,-300.1723,337.6105,-306.9412,345.4970,-386.4210,306.2966,-228.9931,297.4047,-263.0017,272.4575,-275.1632,328.1476,-225.0727,427.6527
-3164.0625,-255.5988,30.4968,-454.3710,270.4769,-348.1375,294.2809,-339.6717,448.4487,-199.5381,566.3828,-389.9358,305.1245,-268.4775,370.2418,-265.5122,418.1599,-349.6185,397.1414,-88.4669,390.5565
-3156.2500,-223.6772,69.9021,-415.4095,308.7121,-308.2122,373.5566,-226.8050,526.7067,-196.7619,534.6843,-387.0593,237.3849,-302.5848,338.5048,-299.6480,349.2818,-418.6955,294.5597,-86.4947,358.8687
-3148.4375,-248.0197,2.3260,-419.4531,276.9694,-349.2954,370.8585,-304.9575,524.9742,-275.0058,568.9876,-391.1968,272.6639,-343.7085,336.7756,-304.7984,420.4094,-418.7903,402.9901,-86.5522,467.2177
-3140.6250,-235.9916,117.9162,-477.3683,357.4001,-370.2534,353.3194,-324.9949,543.4078,-222.1162,587.4606,-412.1952,327.1253,-364.7029,391.2260,-288.8099,438.7102,-410.7541,413.5989,-113.4752,301.7399
-3132.8125,-191.1165,147.3296,-380.4881,350.6541,-273.4232,378.6010,-192.2463,458.6537,-199.4413,429.7382,-425.3991,243.3994,-304.9167,270.4865,-265.0386,280.8155,-383.9319,302.0213,-192.6232,401.0814
-3125.0000,-244.4577,134.0997,-469.2644,337.2686,-363.2525,328.2466,-318.1741,445.2556,-178.4358,526.3758,-441.2602,376.0376,-320.8011,367.1125,-280.9356,414.2881,-399.7668,394.8164,-208.4428,387.8088
-3117.1875,-178.7278,237.0435,-431.8994,406.0570,-361.9477,405.0565,-280.9810,485.0211,-214.2944,456.1814,-403.9731,378.8433,-393.5509,369.9079,-317.6998,379.9321,-404.4659,357.7755,-283.1370,280.6947
-3109.3750,-246.4801,128.5063,-442.0325,367.3608,-372.1439,434.3824,-290.2976,477.2910,-224.6710,485.4879,-487.1964,372.1644,-403.8167,400.2089,-326.9814,446.0802,-410.6750,389.2402,-254.3591,347.1103
-3101.5625,-285.9835,150.6798,-560.4861,390.3791,-417.6635,429.4122,-335.9420,545.2727,-196.3568,590.5222,-495.7290,366.2082,-412.4014,467.2308,-298.5719,550.9517,-460.1972,482.4318,-233.8933,194.2432
-3093.7500,-198.8541,187.9173,-416.8930,356.4656,-274.1392,427.5119,-192.5464,433.3166,-163.9993,441.6120,-426.2155,254.3132,-342.9490,319.3122,-266.1228,364.8816,-390.6850,308.6743,-305.3990,266.4358
-3085.9375,-189.0313,162.1465,-413.3066,258.5555,-307.6205,286.6230,-263.1638,366.3643,-159.6436,447.7065,-348.7093,260.4286,-302.5091,288.4024,-188.6835,407.8230,-350.1829,351.9323,-229.9130,309.6603
-3078.1250,-127.9984,196.3844,-300.7374,258.6621,-268.1214,254.7334,-187.7999,333.4277,-121.2915,378.8218,-273.2048,228.5658,-263.0836,256.5131,-187.2523,338.7840,-353.6943,246.2124,-267.4383,203.8856
-3070.3125,-98.7659,165.2317,-231.5641,226.3827,-236.0167,252.4632,-191.8409,258.0919,-162.3485,266.5313,-241.1043,226.3095,-231.0670,217.2293,-191.2269,263.3419,-282.6127,249.0855,-302.3831,312.7271
-3062.5000,-82.2945,233.6792,-301.8023,295.7080,-306.3257,221.7953,-336.2979,263.3631,-196.8067,345.8528,-201.4078,268.6655,-265.4592,296.5645,-188.6074,342.5221,-215.9459,319.5722,-270.7360,171.1868
-3054.6875,-47.0357,240.4351,-187.7493,302.3503,-229.3418,301.4425,-222.4677,233.9467,-192.9741,242.4842,-197.4086,202.3353,-224.5606,230.2131,-221.6944,275.0110,-246.9911,114.3585,-301.8091,177.9504
-3046.8750,-144.6349,80.7400,-251.1447,142.5464,-292.8160,166.6485,-176.0969,209.0826,-72.5976,328.6693,-223.8616,177.5622,-178.1186,242.4142,-138.2389,361.0559,-304.4910,165.6999,-148.3408,264.2882
-3039.0625,-146.4348,82.0518,-282.5465,109.7506,-287.3025,101.8536,-96.7473,291.2269,5.7728,373.8720,-181.3092,149.7978,-171.6870,213.6278,-21.7908,333.1208,-339.9968,98.0545,-78.8747,125.6248
-3031.2500,-123.8206,66.9174,-233.3914,58.5099,-238.2339,153.6194,-47.8434,232.9219,-18.3068,278.6193,-206.2035,91.5805,-159.7103,155.3884,-82.7946,237.7288,-253.9560,80.9469,-62.8692,214.5216
-3023.4375,-117.2105,105.3199,-263.6950,96.8111,-268.6220,125.9247,-188.3965,241.1581,-85.8247,323.9214,-199.5410,173.9156,-227.1805,274.7017,-114.2384,282.8934,-217.3649,225.3936,-26.3015,112.9804
-3015.6250,-37.2491,126.3671,-131.3464,187.7620,-173.3516,260.8711,-93.2907,192.0412,-100.6804,127.8682,-141.2140,160.8973,-241.9898,188.6578,-166.0222,123.7009,-164.1169,71.4767,-114.0797,64.0755
-3007.8125,-73.0917,35.3969,-158.9796,132.6970,-201.0643,234.8105,-195.1752,129.9079,-129.5192,138.7967,-132.8721,172.8619,-233.7916,200.6049,-156.8032,171.4959,-116.8532,156.5452,-66.8483,149.1780
-3000.0000,-76.8910,51.5620,-211.4577,112.7760,-216.6233,185.8815,-173.9091,190.9164,-72.1924,162.8728,-112.3592,122.9784,-175.4452,224.7048,-136.4369,195.4481,-104.4260,172.7665,16.5405,-10.5852
-2992.1875,-56.3960,3.4237,-119.2132,30.5568,-52.4606,132.6537,-9.9280,101.6130,19.8409,36.6312,-129.1346,-3.2106,-84.3943,61.4923,-45.3712,-4.9193,-14.2861,89.6689,36.6212,47.3393
-2984.3750,-25.7022,19.6197,-104.6149,10.6772,-72.9452,4.7676,-67.5965,46.6499,36.2392,55.7437,-40.5558,15.9467,-68.9884,43.6233,8.0599,51.0651,34.2064,175.9160,14.0597,-7.3811
-2976.5625,69.9018,80.9128,70.0837,36.9001,64.6658,33.9718,-3.1558,-34.2162,-10.2424,-99.0448,23.1356,9.1951,-41.4768,-37.1496,34.6075,-103.8498,93.7981,26.2485,-67.4006,-51.0135
-2968.7500,27.9900,20.3869,72.9975,11.3092,30.4912,2.3716,-1.4982,-101.8995,-8.5119,-92.6520,-10.9650,50.6317,-2.7559,-32.7370,37.3635,-61.5819,65.6010,-34.2352,-60.6552,64.5705
-2960.9375,47.2828,125.5441,1.6011,45.4144,-76.9902,-65.5374,0.8515,-97.8808,67.9289,-51.5473,28.6403,55.7715,-0.3394,9.3919,113.8219,-19.5967,62.1012,-105.0029,-29.2026,-77.1490
-2953.1250,114.0867,130.5059,112.0115,16.3299,33.3346,-26.6320,74.0028,-168.0563,67.1702,-232.6460,65.0530,-52.2898,72.8783,-98.6783,76.0765,-163.8134,170.3927,-239.9772,-25.9599,-1.0803
