Time,Fp1,Fp2,F3,F4,C3,C4,P3,P4,O1,O2,F7,F8,T7,T8,P7,P8,Fz,Cz,Pz,ref
-4000.0000,31.7716,-91.2443,30.2409,-66.7283,55.1619,11.7869,44.0721,31.2661,44.4095,-8.6877,0.5307,-66.1120,-33.8651,53.3284,4.4229,-37.2951,10.8674,45.6308,54.9112,-129.7999
-3992.1875,34.3631,-161.3577,66.8319,-100.6179,91.1880,-26.9103,48.7162,-43.1232,43.8380,-83.5549,-1.5758,-67.6421,37.8351,89.5471,-33.0707,-39.5549,13.2966,13.2417,57.0463,-59.4786
-3984.3750,67.1549,-95.2646,97.6225,-105.3061,123.4107,-69.4079,42.1312,-85.3125,2.4669,-127.2172,-7.5034,-74.9597,67.7371,10.9729,-39.3582,-45.6075,45.9309,81.0342,20.3738,6.0438
-3976.5625,-20.0600,-43.1567,42.4091,-16.9884,31.6342,22.0945,1.6405,6.4946,-51.9002,-34.8780,-63.4481,-20.2604,-24.3625,-43.6018,-56.6434,9.3359,28.5675,134.8159,3.6974,22.5721
-3968.7500,-68.0800,48.1536,-45.6068,38.5261,-18.9479,43.7870,-27.6967,28.4958,-65.0504,23.6568,-116.2043,110.6464,-114.2537,53.0244,-34.7245,66.4811,50.4079,-19.2153,-8.7777,42.3086
-3960.9375,-60.3540,90.2067,-38.8813,45.7853,-11.7802,51.2288,-29.1658,36.2465,-57.4403,-7.0497,-109.2244,80.3008,-108.3922,97.4221,-65.0540,36.3913,23.9925,-81.5047,0.4958,83.7977
-3953.1250,-102.7922,45.1112,-48.3136,71.8942,16.2262,4.5286,7.4829,-47.1485,8.0229,-53.9003,-118.4035,32.8154,29.3312,15.6767,-37.5349,-10.8398,16.4220,-18.9551,-6.3852,109.1409
-3945.3125,-63.6881,83.5744,-44.2008,109.5525,93.7741,-28.6297,4.3352,-79.9978,13.0535,-86.1996,-79.0463,72.8936,32.6122,-90.5204,3.5358,-44.5167,20.4070,21.1253,-107.7142,111.0419
-3937.5000,-79.4890,171.1459,-59.9899,162.3057,5.4202,-44.6974,-61.7805,-95.7565,-38.7957,-66.4025,-59.6036,166.0848,53.0042,-68.6286,-12.2853,12.8979,39.4893,5.2965,-157.9350,93.0503
-3929.6875,-45.9031,203.1218,12.6182,159.4611,4.4632,-46.3713,-77.9110,-97.1256,-39.2375,-68.2098,-61.7762,163.6847,13.8029,-32.3413,-50.6912,10.7112,107.9756,-102.1385,-158.7519,89.4698
-3921.8750,42.5776,43.0068,102.1204,69.5195,57.4000,-67.1469,0.9153,-116.6006,14.2243,-125.1208,-10.0594,68.1901,65.5018,-90.1386,1.8073,-83.5684,160.3704,-154.6828,-70.6759,139.7977
-3914.0625,78.6487,-62.4991,174.2124,-105.8117,93.9219,-178.3207,78.6047,-191.4782,161.2888,-89.4284,25.2425,-6.6876,137.8006,-199.3290,37.9056,-159.2372,126.3658,-118.6369,0.9960,173.7342
-3906.2500,102.8603,30.1510,127.4475,-82.9895,120.5900,-225.3509,59.9635,-165.2088,188.5210,-27.5827,13.6755,54.5979,126.2650,-282.3824,64.1613,-133.7452,45.5121,-129.4695,-79.1865,160.8373
-3898.4375,11.1673,183.9011,32.7772,-0.0769,-10.6443,-173.2937,0.5637,-148.8488,131.8717,-12.6361,-7.8012,179.9902,30.8467,-229.3439,6.5334,-45.1565,24.7605,-45.2149,-64.2687,138.0552
-3890.6250,-22.6354,254.5618,36.0003,140.7397,-116.9903,-133.3388,-56.3088,-145.5918,99.1202,-46.7899,-5.3887,145.2964,33.3337,-116.3919,-64.1908,-6.6642,130.9061,-149.0665,-62.4632,102.1873
-3882.8125,19.5972,224.2896,80.2617,145.6168,-109.2957,-162.3259,-31.7173,-211.2853,145.4185,-111.8916,39.0580,115.6729,40.8787,-107.3816,-18.8665,-36.1120,208.0977,-177.8795,-54.6179,71.3829
-3875.0000,14.1168,252.3216,74.8167,173.7917,-114.3090,-132.0224,-40.4776,-179.6813,214.0292,-44.6893,-4.2091,73.3564,-2.2621,-149.0809,12.7734,-42.2557,61.5867,-183.3988,-130.4669,63.8903
-3867.1875,-28.4721,314.2557,-8.7370,235.8658,-159.4212,-32.8270,-86.8130,-116.1864,131.5535,-18.5818,-51.5887,171.9442,-50.4873,-47.8850,39.3264,57.5023,-16.0256,-296.0341,-171.4240,125.3075
-3859.3750,-34.1197,305.1494,-18.3463,227.8966,-205.5829,-5.6864,-120.6566,-89.7473,-24.9672,-27.5154,10.9651,161.4938,-59.7465,16.2630,28.8265,120.2155,-56.6895,-232.7356,-142.4434,186.6884
-3851.5625,-64.6809,169.1556,-48.8663,126.0331,-273.6532,72.5520,-116.4013,-11.2114,-18.3771,49.6469,15.6051,92.1580,-54.8908,59.5078,-2.5739,199.0327,-87.2527,-156.3475,-65.3657,190.1822
-3843.7500,-85.0455,-28.6298,-106.1898,34.3714,-183.5251,88.9838,-24.4192,41.5128,73.4230,103.0044,-41.5653,34.0284,-75.8240,76.9482,51.2361,178.0532,-142.6120,-141.7740,18.9045,167.8886
-3835.9375,-160.3674,-70.3568,-183.4637,-7.2386,-112.3533,85.4543,19.6551,75.2783,107.2701,172.4103,-82.6964,66.9583,-44.6967,74.4374,85.1020,137.1344,-252.9139,-147.1542,50.2164,125.6614
-3828.1250,-202.2457,97.3720,-263.2867,19.6041,-118.7407,78.3646,-32.1867,105.4860,28.5650,239.2733,-127.3871,169.3449,-52.1035,141.3721,41.4209,129.6734,-259.7502,-154.1022,8.9743,116.8981
-3820.3125,-216.5696,186.6602,-316.5589,74.0032,-134.5840,135.8181,-28.3118,126.2357,13.4103,185.6853,-144.5295,153.2958,-67.9482,89.8516,62.2922,112.7663,-274.0285,-28.5186,-5.7300,135.6948
-3812.5000,-220.4936,75.3719,-322.4279,68.8153,-177.0386,92.6633,21.6296,120.3755,119.6579,143.4948,-77.2747,72.6633,-110.3820,47.7201,93.5565,106.2537,-242.9034,2.4531,61.9557,164.9084
-3804.6875,-172.4762,17.0567,-270.3448,10.5899,-124.5523,33.4490,51.4145,61.4544,245.8484,121.2542,-63.0772,13.0004,-59.8522,63.5300,108.7701,83.6998,-229.8222,-53.6455,40.5801,141.0955
-3796.8750,-129.8665,58.3545,-225.6662,-17.0293,-116.4821,3.8257,15.3906,32.1226,180.6355,128.6146,-20.2861,56.9500,-16.7036,-2.0645,116.5952,53.7556,-187.1416,-82.1564,-22.2028,146.9037
-3789.0625,-56.5174,201.4127,-187.2451,-15.8950,-151.6772,-30.0476,-58.8349,-2.4647,73.1698,166.7228,-18.7538,168.6634,-87.7925,0.0950,81.1750,91.5721,-148.7070,-113.9325,-88.2425,183.4766
-3781.2500,49.1269,235.7836,-150.5252,19.5487,-186.5742,-66.6226,-69.6502,-37.7556,75.0068,130.1308,17.0685,205.6850,-161.5666,-34.4511,82.0539,91.6898,-112.9703,-113.4257,-86.9911,182.3628
-3773.4375,41.5170,155.9178,-123.0564,-25.2547,-232.7268,-76.4531,-50.3926,-84.3078,177.5882,83.2810,43.6350,121.4725,-134.5716,-6.2608,72.6935,81.5591,-50.4885,-121.1778,-58.9984,208.0204
-3765.6250,43.5902,17.7681,-81.9019,-24.3491,-155.1866,-35.5908,-1.8817,-43.1691,218.8578,87.1331,9.8867,50.9822,-93.8588,-2.3705,77.0343,85.1437,-47.3056,-154.2403,-21.3086,173.4021
-3757.8125,2.5023,-25.5208,-84.9014,-65.5895,-193.8011,34.1093,8.0070,26.8090,217.9869,157.8320,5.9804,11.3434,-133.2713,33.3641,75.2326,119.5806,-89.2621,-125.4724,44.2374,95.6452
-3750.0000,5.7643,-93.4603,-81.5471,-99.4762,-152.0747,75.1584,8.6597,104.1301,186.4789,235.8732,-27.5836,-58.9483,-166.3247,74.4425,5.7880,122.3697,-86.8658,-158.3667,82.1281,61.2496
-3742.1875,99.5702,-106.8305,16.3500,-147.8038,-127.7989,61.7574,-20.2982,127.9986,100.5146,185.4689,69.3877,-107.6730,-70.8184,-10.9310,-7.1106,109.7153,-62.9267,-134.7184,36.5458,83.4279
-3734.3750,151.3606,-91.1790,70.2342,-97.1241,-184.5372,78.3464,-56.4594,108.8588,8.5374,129.0752,122.3507,-91.3787,-90.2922,-67.3125,-27.0035,52.0696,-80.9855,-48.0753,18.9568,98.6283
-3726.5625,135.4985,-3.1691,17.4692,-9.0965,-162.9301,99.2737,-73.9906,129.0587,-43.0896,76.0321,68.6656,-71.7289,-106.3901,-8.3580,-5.5351,72.7807,-61.6870,-64.1082,-32.2875,81.1915
-3718.7500,134.0309,100.2539,-20.9022,23.3450,-163.9309,97.6090,-117.6082,91.6643,-152.3281,37.3943,29.3679,-0.6734,-35.0806,65.0060,-43.6665,33.9031,-98.0030,4.2559,-68.1554,78.1720
-3710.9375,122.5349,122.7080,-34.3003,81.8148,-139.9641,83.9598,-144.4665,41.2828,-201.5837,97.7725,89.0491,22.4025,-48.7725,15.3826,-56.8027,57.0397,-108.3232,-7.3720,-113.0443,100.1730
-3703.1250,111.0275,74.1886,-46.7072,104.3008,-116.0040,70.3055,-140.8489,64.8898,-213.8468,158.1500,74.7240,45.4973,-134.4439,2.7431,4.0586,117.1737,-155.6267,50.9808,-159.9375,122.1893
-3695.3125,-11.9744,127.1755,-101.5974,121.2903,-134.5409,125.1326,-129.9939,119.9793,-230.6238,139.0129,-18.0935,63.1014,-116.5771,21.5812,22.4269,134.7952,-172.4115,68.8201,-141.3444,138.7231
-3687.5000,-38.6321,168.5183,-94.1368,91.6407,-126.7372,95.3056,-118.9784,90.4081,-186.0661,72.2259,24.4389,107.0600,-36.3337,29.7652,-6.8526,141.7727,-94.8353,-64.0009,-98.4157,144.6275
-3679.6875,36.8491,104.0150,-49.5308,-7.8535,-80.7904,29.6231,-29.0808,-12.0214,-66.3644,6.5873,69.1162,4.1712,-28.9192,2.0817,39.0304,75.9084,16.9040,-92.6687,13.6613,114.6934
-3671.8750,-53.5248,-57.3247,-33.7730,-29.1975,-64.6945,9.0836,12.6986,4.6931,24.4791,60.0993,10.9375,-125.5591,-49.3350,19.5285,56.0701,129.2007,67.7900,-43.1919,29.8738,92.9228
-3664.0625,-131.6100,-137.3383,-115.7244,-3.2286,-1.3065,35.8494,28.6818,31.7099,15.6105,86.9202,-108.9582,-61.9728,-22.4342,47.2833,46.4054,191.8041,59.9662,-16.4342,21.3613,118.4781
-3656.2500,-121.8162,-23.4391,-103.7872,-29.3489,-26.0286,-62.4854,27.4568,-30.3808,28.6387,-48.3639,-61.9608,95.5239,26.3926,22.9398,58.6376,93.3123,70.0451,-41.7789,32.7476,91.9571
-3648.4375,-19.5734,43.9280,-32.4019,-102.0071,47.6947,-173.3808,84.5262,-177.0312,66.1148,-196.2171,9.4894,167.4904,98.6974,-87.9698,94.3222,-18.7268,137.5778,-113.6932,100.5650,52.9000
-3640.6250,17.1230,8.7751,80.4357,-103.1984,123.8674,-207.8406,107.3685,-211.2453,33.0230,-193.6321,-25.6107,95.9268,138.4687,-121.4419,134.4551,-90.3095,139.5613,-8.1652,66.8100,17.3184
-3632.8125,-39.2838,22.5376,22.1683,-19.4834,65.9285,-120.4106,49.8033,-123.5687,-62.1834,-142.1506,-85.8062,110.2716,43.1610,4.9737,112.4945,-38.9931,118.4495,41.2596,11.9512,30.6628
-3625.0000,30.1088,55.1106,20.6988,49.0328,100.7846,-86.1840,24.9886,-89.1026,-99.6019,-143.8703,-124.2014,108.4194,-32.3268,41.1834,74.3350,-3.8712,117.1412,-31.5200,-24.1164,27.8244
-3617.1875,27.9901,17.2056,18.7236,11.0693,99.1284,-88.4527,14.6609,-127.1351,-136.5370,-146.0870,-54.1190,143.0861,39.6976,-71.1089,72.6730,30.7643,80.3250,2.2041,-25.7041,24.5032
-3609.3750,12.9042,0.3778,111.7865,30.1776,156.5149,-104.6768,-7.5081,-107.1263,-188.4378,-126.2494,-35.0036,89.8227,95.7973,-50.3595,20.0558,-23.5432,135.5673,-14.0349,-76.2494,43.2506
-3601.5625,29.8175,-53.4324,130.8507,46.2988,175.9078,-86.9085,42.0838,-125.1284,-168.3533,-144.4096,20.1048,-39.4307,188.9203,-104.6169,75.4347,-78.8536,153.8122,3.7149,-22.8083,24.0144
-3593.7500,-15.6813,-64.6326,122.5122,35.0286,130.8913,-95.5366,55.8559,-134.5301,-103.6845,-189.9644,-26.1944,-11.0829,143.6582,-38.2819,104.4206,-13.5599,143.6517,-6.9282,2.2222,-22.6024
-3585.9375,-47.7900,43.5755,18.5693,143.1619,174.2713,-88.7703,44.6418,-164.5331,-58.6297,-148.1076,-168.0943,105.6682,76.8211,42.4361,74.8003,66.1479,111.9028,-109.1763,-29.3596,-90.8014
-3578.1250,-103.1855,93.5034,-39.6656,227.0031,153.3571,-74.3126,34.4650,-112.8441,-79.8967,-96.5577,-263.2819,157.1268,54.7097,94.8297,15.8702,6.5588,56.8623,-24.7398,-14.2530,-77.2860
-3570.3125,-126.7693,104.2564,-29.0905,238.6537,127.2419,-27.0701,20.5361,-65.3775,-142.3808,-49.2295,-216.6632,130.3901,102.4174,-77.9924,26.7468,-56.2377,104.6281,22.4795,-36.3530,-30.9474
-3562.5000,-89.8587,35.5358,45.9798,169.8185,166.6233,-99.3303,88.7287,-100.4209,-102.3816,-121.4067,-143.5482,22.1664,214.6375,-185.3138,140.1233,-128.5332,176.8899,24.1976,1.0302,-30.0846
-3554.6875,-165.6135,28.1855,1.3890,162.3491,121.3373,-71.2299,82.3191,-109.1112,0.9437,-129.2303,-152.0814,13.3067,96.2248,-46.2794,168.8430,-63.4727,99.4914,-17.7264,-40.2560,-2.8465
-3546.8750,-216.4302,82.7940,-55.2591,180.8378,64.9912,-18.1805,-34.1046,-54.8522,-54.7976,-39.1006,-172.6584,103.4108,2.7949,191.6876,1.5055,100.5513,14.0469,-67.7109,-125.6084,86.3628
-3539.0625,-187.9024,39.7637,-64.5616,138.6836,-17.0118,45.2133,-20.5598,-27.2484,-100.2072,-11.6144,-72.8758,92.8698,-6.2492,71.9898,-43.4866,89.9382,42.9478,-4.3454,8.3720,148.9384
-3531.2500,-150.3807,6.7510,-23.8695,34.5429,-49.0265,12.6043,29.0699,49.3490,-21.6325,138.8692,-69.0879,97.3361,-2.2741,-142.7201,-39.4769,-15.6750,45.8505,-2.9805,117.3413,115.5327
-3523.4375,-180.9030,46.7030,-53.2281,3.3630,-5.0905,57.9354,-14.8318,94.8791,-50.1195,220.2932,-135.3435,141.7563,6.6591,-24.4915,-104.5067,-8.3416,-19.2869,1.3277,52.2467,49.1002
-3515.6250,-251.9365,45.1743,-124.0940,37.7062,-75.6639,170.7658,-83.8980,170.9049,-120.1249,223.2163,-135.0985,107.6890,120.1051,89.2385,-175.0485,67.4972,-89.9283,36.1416,16.6355,-22.8158
-3507.8125,-267.2774,-76.6389,-139.2629,-13.2234,-16.5465,192.2999,-43.6822,192.6306,-97.4452,170.8348,-151.1485,19.3264,436.2718,37.6624,-116.8983,89.0453,-68.8737,-120.3643,36.7077,-39.0154
-3500.0000,-185.5095,-170.3429,-55.3186,-142.0469,67.6703,90.9266,21.6113,91.4413,-86.6800,-3.4625,-68.0805,-7.9390,630.5595,-24.8309,4.3636,-11.3083,-21.7073,-142.8036,48.8716,6.9135
-3492.1875,-135.1406,-85.4463,-37.7694,-128.2763,11.4860,35.1337,-27.0170,71.8323,-68.3305,13.8233,-14.3987,46.3993,538.4830,-6.7385,-88.7594,-31.0646,-40.9336,-93.6513,29.6343,-13.5300
-3484.3750,-111.8397,8.4186,-84.2877,0.4637,2.2400,61.2834,-68.7658,99.1741,-77.0695,114.0779,-61.7710,72.7156,455.4013,-15.6741,-171.9556,-40.8652,-87.2182,0.4724,-16.6696,-61.0302
-3476.5625,-84.6585,0.2263,-93.9246,27.1479,-7.1224,88.3561,-77.8686,89.4314,-85.9486,31.2469,-35.2520,62.9665,409.2322,-24.6804,-144.2724,-50.7532,-59.6314,-7.4908,-59.1143,-34.6506
-3468.7500,-30.6792,-17.1310,-41.7632,9.6685,8.3079,-6.7617,-62.5094,-42.5095,-69.0593,-136.8073,53.0755,116.0460,425.8611,-45.8827,-90.7894,-35.8429,64.7437,-59.6746,-75.7896,53.5445
-3460.9375,-19.6471,-6.4289,6.4501,-14.7495,-17.2113,-32.8435,-49.0295,-103.4141,-21.1406,-199.8197,100.4698,127.1882,363.5569,-34.0310,-79.2609,-60.8887,111.1726,21.1751,-64.4265,63.8241
-3453.1250,-65.6183,53.2800,-4.3443,8.8415,-63.7396,-43.9336,-90.0450,-114.3188,-31.2449,-136.8229,88.8756,189.3334,280.2674,-44.1845,-125.7469,-71.9230,135.5988,116.0324,-109.0700,52.1245
-3445.3125,-62.7898,196.8093,0.6606,117.2554,-59.4776,-39.2167,-136.7770,-74.4240,-98.5730,-96.0251,19.0887,268.2882,174.7914,-38.5556,-157.4445,-68.1467,138.8250,118.6855,-176.9357,19.2409
-3437.5000,-45.9990,177.3103,20.6239,133.6361,-76.2739,-56.5609,-101.9767,-91.5940,-41.9781,-114.2869,37.2764,250.1920,231.2799,-128.9932,-175.1873,-85.4281,156.0136,99.2823,-90.8650,-35.6759
-3429.6875,5.2061,87.2156,75.0016,78.4241,16.3234,-75.5225,-46.6049,-73.3807,-22.9930,-96.1565,54.8950,195.4806,213.1804,-110.0532,-120.5194,-104.3155,66.6160,-24.7330,-38.3952,-55.1820
-3421.8750,85.3699,27.0800,83.3373,18.1742,24.8695,-67.5346,-47.9922,-65.2176,-51.0783,-160.0714,136.4774,166.7085,149.0437,-64.1728,-74.9092,-96.2425,42.1613,20.1950,-64.0005,-10.7191
-3414.0625,92.5738,-0.9784,127.7108,-46.0025,-41.5598,-23.4822,-61.0958,-20.9934,-80.1508,-152.9281,180.1189,99.9898,119.9567,-93.2450,-104.2617,-52.0982,49.7451,62.1810,-20.5779,-4.1763
-3406.2500,83.4768,-45.3231,120.7741,-90.4618,-11.3084,-30.7246,-17.8802,44.9288,-12.5469,-51.0824,135.4841,19.9687,113.5750,-99.6291,-36.9211,-22.2458,6.0373,17.8659,5.5467,-48.9174
-3398.4375,51.4944,27.4425,48.9440,-16.8031,-9.9676,7.1323,-20.6666,46.9467,-47.8536,-50.1442,25.9788,58.0383,78.3031,-60.9392,1.5215,-21.3034,-96.5691,55.6430,-26.2331,-11.5568
-3390.6250,-27.3797,124.3223,0.2209,79.9703,-21.5409,-41.9116,-39.6714,-1.9435,-22.0827,-25.1021,-23.4117,46.2138,68.1406,-35.1716,-82.9455,3.7482,-69.0774,47.5206,-34.9280,49.9128
-3382.8125,-1.6995,79.7769,28.0500,35.3156,43.4283,-123.4029,-31.8768,-48.2846,-66.7930,39.4855,40.7581,-37.0480,132.5402,-79.8616,-55.8773,31.3581,-8.0382,37.9445,-44.0956,39.9517
-3375.0000,43.2772,-17.4479,112.1767,-62.0178,91.6815,-149.5925,-12.1414,-74.3272,-128.2396,13.3558,124.2457,-99.0021,181.2503,-141.2520,66.4829,42.2717,37.2977,11.6834,-69.9754,13.3167
-3367.1875,94.2510,-36.6559,165.2975,-115.3293,143.9192,-133.7753,-2.4930,-58.3746,-75.7102,-80.7828,139.7561,-118.9597,197.9594,-88.6537,82.8471,-15.8105,18.6378,-8.5807,-122.8630,28.7006
-3359.3750,67.6345,42.5466,101.8184,-108.2287,81.5509,-88.5649,31.0854,-48.0323,-28.7993,-107.5245,75.6918,-109.5193,172.0843,-41.6685,56.6133,-79.4905,-43.6203,70.5538,-9.3642,1.4933
-3351.5625,41.4245,16.1746,74.7473,-99.7085,53.5771,-79.9531,71.6585,-2.3000,54.4818,-62.8693,11.0460,-173.6733,71.6247,-105.3001,101.7662,-33.7759,-69.4841,44.0984,34.5138,9.6945
-3343.7500,-27.1246,-17.5216,-0.6693,-97.5182,52.2438,-43.6897,90.0787,-3.9158,53.3831,9.4332,-63.9348,-175.1794,-3.1814,-32.2983,101.5594,1.5911,-101.6958,81.2966,72.0327,81.5581
-3335.9375,-155.8694,-6.4102,-96.2886,-51.5148,-8.2984,5.3802,50.2018,46.2671,30.0667,59.5334,-124.0957,-124.8914,-26.1841,128.4914,4.1513,14.7569,-125.1127,162.3028,83.3508,57.2343
-3328.1250,-133.8139,-55.4922,-73.1112,-30.6948,53.9498,30.2562,77.8299,71.2487,92.5283,47.4311,-137.4366,-136.8103,-0.3769,43.0725,-44.4628,2.7251,-103.7351,148.1097,104.4569,7.7260
-3320.3125,-72.1994,-133.0169,-8.3863,-38.3188,81.7432,20.6855,105.2676,24.7719,9.5150,-36.1348,-37.1985,-220.1855,27.9983,-75.8042,20.4718,-6.7538,-5.8014,175.4719,132.0946,34.7840
-3312.5000,-42.2211,-173.1835,25.7028,-78.5859,78.8789,-19.5420,89.5588,21.6343,-67.1721,-2.3670,-40.5796,-260.2163,-48.2656,31.6626,54.7562,64.1098,60.4857,171.1870,127.0653,-5.7909
-3304.6875,-41.7320,-103.8313,28.2949,-8.3275,118.4992,56.7275,49.5908,60.9937,-100.3982,0.9000,-111.4409,-256.7414,-44.0348,108.6232,-15.4672,29.4774,96.2838,170.4128,56.5190,-76.8526
-3296.8750,-10.2880,-36.4977,61.8381,57.9155,78.0483,89.9621,0.6555,57.3103,-103.7076,-2.8815,-78.3336,-223.3086,-46.8617,68.5105,-55.7544,-47.2027,57.0256,166.6086,-17.0925,-80.9648
-3289.0625,108.8134,-22.4878,148.0267,36.8267,54.2393,28.8563,-30.9905,33.2786,-91.3906,-28.0212,-29.5594,-211.2202,-34.0378,8.0341,-117.4035,-72.2325,142.4131,74.4472,-38.0668,-32.4181
-3281.2500,102.7729,6.3760,177.0720,30.5915,46.2798,-16.4092,-36.8468,-11.9130,-98.2431,-73.3115,-0.9142,-145.2880,-4.3521,0.4055,-51.2110,-43.4161,100.6503,68.1365,-80.1921,-4.0015
-3273.4375,25.4318,33.9424,132.8196,23.0623,39.0112,-60.9774,24.8117,-56.4074,4.5802,-80.8914,-45.5446,-116.6674,-47.9600,-6.5377,88.6683,-50.9005,128.5970,-9.4598,-52.6118,-11.8774
-3265.6250,42.1056,50.5184,114.5738,4.5501,93.7375,-79.5438,61.3076,-74.8964,96.3800,-25.4601,-64.1495,-135.0620,-65.5735,-24.4950,107.5344,-69.3776,75.5387,-99.0595,-35.0399,-30.7496
-3257.8125,28.6377,1.9507,136.1770,-9.0981,5.3050,-21.2464,-7.8927,-16.5255,8.0107,69.8251,-42.8824,-149.6262,-43.3433,34.3915,19.2493,-47.9971,62.3144,-42.8047,-49.6292,-9.7566
-3250.0000,46.9688,-50.8132,154.5690,9.0614,-13.3389,-3.1409,-5.2390,-35.3505,26.4281,13.9122,-24.8031,-131.4014,-97.3110,53.0734,0.7643,-29.8112,115.8793,-59.7399,-31.4239,8.0531
-3242.1875,84.6998,-48.1655,122.3549,-23.3706,28.4186,-35.6337,43.9844,-67.7776,68.2261,-55.6092,-57.3022,-91.7825,-92.8642,-52.8555,42.6811,-25.2302,118.8412,13.7286,7.1772,-24.7310
-3234.3750,37.4441,-24.5119,75.1448,-0.7999,18.1797,-46.1259,30.1179,-41.2159,57.0075,-29.1523,-67.7614,-102.1717,-65.4052,-62.8046,31.6057,1.3442,107.8021,36.1955,-5.2310,-72.5146
-3226.5625,101.1497,4.1100,101.8860,62.7359,81.8803,-56.6584,6.1465,-88.6986,10.7045,-112.7346,-41.2444,-75.6062,-37.9988,1.1849,22.4742,-46.1174,100.6948,-41.3840,-82.7189,-9.3428
-3218.7500,104.0027,40.9007,101.7677,29.4411,43.7129,-57.0260,-14.4012,-88.0167,-62.4782,-187.1472,-5.5617,-38.8893,-37.4449,37.3100,-51.5165,-82.4137,173.7197,67.2059,-45.0708,62.9849
-3210.9375,81.4506,89.3003,117.2372,77.7557,-50.8633,-41.7845,-64.3616,-36.7298,-120.0767,-133.9536,10.7383,13.4266,-58.2812,54.0182,-108.9070,-68.1206,187.3351,114.4095,-32.8239,4.9122
-3203.1250,113.0535,84.8573,116.8584,73.2357,22.7232,-5.3853,-50.9568,-37.2933,-158.5502,-25.6208,9.2081,-24.1106,-20.9521,-20.1346,-73.1528,-68.6896,183.0933,74.7607,-36.4439,-70.0013
-3195.3125,67.4524,-29.7841,107.2756,-6.4669,86.1050,-15.1759,33.9063,-47.0549,-58.2619,74.4954,-0.4961,-107.8411,-29.8177,-66.4963,27.3943,-115.4534,103.6501,29.9382,23.7255,-80.1036
-3187.5000,-10.9003,-38.1644,23.9379,-49.8886,75.7274,-25.6988,58.6202,-20.5610,78.2494,174.8600,-46.9325,-118.3117,-76.4371,-39.6294,18.1679,-51.9546,24.4578,-13.6168,50.1407,-53.9610
-3179.6875,-52.5474,-8.8341,-20.6973,-20.5868,-4.9524,3.4923,42.8035,45.6383,71.4417,203.9227,-54.6475,-89.0883,-83.3615,-47.0805,-26.3667,-96.7590,-16.0413,85.5351,79.2520,-25.1203
-3171.8750,-29.0846,-56.4117,-34.2224,-68.1764,-55.5269,63.7818,29.4980,104.9313,20.7191,190.0720,5.7668,-137.7834,-95.1801,13.5575,-2.8022,-73.4708,-28.4357,38.7752,102.4641,-2.1703
-3164.0625,28.2396,-140.1427,24.1101,-81.9063,-70.2408,120.9136,-16.9608,126.0656,-32.1861,174.0746,64.0618,-116.6341,-146.1423,35.0399,-18.3908,95.6651,-76.9816,-11.1377,53.5173,18.6403
-3156.2500,97.9712,-140.4483,60.8421,-152.2085,-143.5681,120.4605,-20.3241,89.6102,41.2683,100.4724,173.7718,-117.0717,-145.7264,-39.0876,18.4014,95.2100,-111.1368,-46.6243,52.9544,17.8609
-3148.4375,206.6527,-65.7746,99.5158,-148.5293,-104.9669,11.9730,4.2456,54.1157,79.6481,64.8197,175.4430,-78.5539,-180.3874,-109.2754,20.1244,-50.2898,-72.3442,-43.1379,56.3365,56.0378
-3140.6250,179.4915,-23.9442,33.3425,-105.6838,-134.2260,56.6437,12.4755,98.7744,50.1690,109.3244,110.2829,-107.9003,-244.9070,-64.3276,-45.0182,-78.6383,-100.4076,70.5068,133.8681,63.3706
-3132.8125,141.3418,-62.1183,-41.8275,-107.8255,-172.4994,55.3152,-8.6439,133.4327,48.6783,143.8214,72.1611,-73.2652,-209.4280,-66.3866,-47.1648,66.0031,-102.4731,32.1527,130.4035,24.7134
-3125.0000,177.8604,-60.6444,-3.3449,-142.3128,-61.1342,19.6372,4.9786,61.7325,49.8299,144.9639,73.7353,-71.9995,-170.3134,-64.8069,28.3424,104.2915,-136.8838,-72.5584,61.5963,25.7118
-3117.1875,126.3409,-7.2147,15.0913,-123.8416,-78.8379,0.9143,-2.0706,42.9863,30.9254,90.0608,55.2949,-17.7989,-188.2712,-10.2919,83.7961,48.5314,-153.3540,15.6889,8.7331,43.6665
-3109.3750,163.8703,66.2835,17.5706,-51.3068,-113.5172,3.2562,-59.8011,45.3034,-39.9486,92.2254,57.9222,-15.5585,-221.2009,-7.7327,-24.7213,13.8284,-79.7893,89.0002,-24.0802,45.6828
-3101.5625,146.5618,13.9411,2.2030,-33.6178,-93.0627,61.7576,-66.0314,102.7749,-56.6893,39.5410,78.7347,-68.1919,-163.0051,-23.0273,-40.0960,72.2729,-28.0730,106.4628,-41.7374,-7.1371
-3093.7500,127.4234,-112.2493,20.9923,-123.7858,-38.4786,116.4150,-55.9494,84.3891,-38.2884,20.9883,97.7406,-159.6996,-71.6850,105.8280,-21.3163,89.8612,-83.2046,86.0845,-61.2448,-62.7851
-3085.9375,149.7428,-124.9897,8.2297,-136.5016,58.5213,140.5271,-35.9496,71.4567,-14.4539,7.8973,159.2350,-172.7679,-46.9428,56.1282,-34.0871,39.9036,-95.8779,38.1713,-74.2996,-75.9700
-3078.1250,120.6786,-119.1178,-22.9327,-95.6033,28.0966,72.2623,-12.6561,40.1339,-9.0368,86.4048,165.3667,-94.2407,-114.6273,-47.9982,8.7248,9.5484,-89.9526,114.8859,-33.7537,-70.5627
-3070.3125,88.8751,25.0214,-91.8438,48.5604,-78.1024,77.2720,-69.2423,45.0719,-4.3816,91.1583,96.7710,-15.4750,-255.0845,67.1069,-60.2261,13.4392,-50.7848,187.8613,-65.9627,-102.9008
-3062.5000,138.9395,111.0127,-71.9010,170.5702,-131.4657,97.1360,-137.0786,28.8585,-58.8927,0.7608,228.0548,4.1239,-235.7090,161.0616,-113.3250,-39.8254,0.2328,168.6898,-121.3189,-193.3695
-3054.6875,243.9688,145.9373,2.9967,204.5145,-130.9005,97.9518,-169.6773,29.5983,-95.4644,-35.6867,302.3307,-32.3475,-160.3965,14.9589,-149.4787,-76.1446,-0.7917,96.4831,-157.7102,-229.8757
-3046.8750,315.4672,111.3060,76.3459,170.9154,-58.9072,61.2312,-156.9307,28.7956,-132.6035,-36.6721,339.0914,-106.3773,-123.6553,-59.7091,-150.2022,-77.0023,35.6270,27.7414,-156.6507,-193.9264
-3039.0625,306.1749,66.8773,101.8905,160.5275,-69.7385,86.7302,-180.1166,17.2027,-218.5499,-48.4470,475.0809,-155.2142,-97.7384,2.8012,-161.7321,-124.6546,26.2404,123.2088,-166.3844,-168.7777
-3031.2500,328.7444,89.2959,52.2868,218.9917,-119.7347,147.0902,-255.5369,78.4682,-340.6461,-24.3663,499.9479,-131.2174,-109.9941,64.1379,-211.4041,-27.4643,-57.3137,145.5341,-215.2584,-181.7769
-3023.4375,293.7753,54.1569,15.1331,218.8990,-83.2938,146.9097,-183.5299,78.1830,-304.2930,-24.8314,463.2946,-168.7889,-109.8093,26.9142,-100.6233,9.1784,-57.4291,75.3086,-144.6805,-182.3102
-3015.6250,214.1721,44.3681,3.3305,138.1537,-95.5153,99.0901,-118.9299,66.2520,-170.6042,0.0514,379.0378,-144.0163,-121.2797,14.9801,-39.4960,-75.8253,-67.2010,30.4485,-84.7453,-157.4760
-3007.8125,164.7293,100.7421,-13.3268,124.5679,-39.6093,118.4453,-106.5035,48.4814,-187.7807,-53.9236,325.9676,-88.0937,-101.6233,-1.8325,-56.2241,-93.6774,-80.8387,121.7442,-98.6618,-101.4799
-3000.0000,109.5807,79.4240,-35.6982,104.2939,-25.4240,170.1240,-101.5184,100.0274,-246.6619,-39.5926,267.2133,-73.8689,-12.6924,-61.3722,-115.6550,-42.2214,-172.1938,241.3594,-49.2771,-87.1653
-2992.1875,14.0772,19.7460,-62.4325,78.6634,-15.6124,216.4668,-85.4257,147.2344,-199.8837,7.4005,204.1339,-101.0097,-2.1321,-14.3034,-105.4328,4.8787,-195.9000,146.6454,-39.2133,-77.1918
-2984.3750,11.8456,-53.6954,-29.9128,76.2692,89.4384,139.0634,-25.0497,68.6881,-167.8473,-34.3504,201.3425,-141.9189,-6.3419,-19.0221,1.0480,37.2281,-129.3491,38.1805,-41.8838,-44.9737
-2976.5625,-72.2049,-101.9769,-45.2342,63.0270,74.6288,86.8229,-5.6614,17.2975,-110.6780,-12.9596,186.7321,-156.6840,15.5749,2.3797,59.6733,58.7279,-72.6541,59.8738,-56.4161,-23.5979
-2968.7500,-105.9406,-31.9429,-83.2530,133.0992,72.0904,85.9010,-34.8665,52.2102,-186.2317,58.7359,38.4425,-50.1458,-59.2311,37.0525,-16.4130,56.5412,33.3295,59.8772,-56.6545,11.0987
-2960.9375,-98.3236,12.4447,-73.9313,141.5235,44.8839,95.3433,-63.8294,98.4835,-286.4348,31.7978,49.5190,-3.2704,-49.7109,47.0411,-43.1536,29.7099,76.6658,103.2435,-48.5270,-15.8416
-2953.1250,-44.6499,-40.1292,-52.5607,88.9884,64.7096,116.8470,-36.8515,45.8146,-229.5742,-95.0885,70.6776,-19.3689,-28.1645,31.0412,-21.8358,49.9230,94.0516,85.6690,-30.3291,-68.7294
-2945.3125,-28.2116,-94.9606,0.5665,70.2048,154.2670,96.1200,42.4170,-11.0927,-140.9602,-262.2150,14.6143,-40.7377,-11.9000,82.7559,31.2292,29.8884,110.1877,-3.1568,20.6257,-52.8529
-2937.5000,-84.3126,-115.3580,-21.8538,14.8643,94.2476,37.8584,92.7324,-33.5424,-90.8964,-210.8816,30.0363,10.3226,2.7932,60.8799,81.7453,-29.6904,124.7852,-23.5231,141.0523,-38.5120
-2929.6875,-2.8030,-70.1644,-9.6671,25.1160,32.8052,-23.7909,77.7915,-58.3876,-79.2232,-89.9454,79.0902,94.9662,-95.9426,-38.4255,56.8557,-54.6704,170.9870,-84.2766,186.0979,-63.5714
-2921.8750,28.3183,31.6356,26.1196,91.9754,30.9403,-24.8194,-5.3986,-22.6199,-116.9470,-53.4092,79.7689,167.2014,-59.1150,-39.1606,-90.4428,-19.0471,96.7832,-87.4199,111.7453,-138.0225
-2914.0625,4.4840,78.4863,-0.0500,137.8897,4.0960,60.2249,-14.3607,25.2125,-106.6270,-116.8099,17.5194,141.4877,-48.2694,44.1251,-79.6945,-44.3691,72.6184,-147.4900,87.4541,-127.4096
-2906.2500,8.7026,11.3808,0.8175,105.8520,77.2807,24.3434,27.8229,26.1109,-33.2615,-80.1498,-17.6573,140.8066,-85.3971,44.4359,-5.8941,-44.6349,5.5009,-177.5044,55.2294,-53.7349
-2898.4375,-56.8712,16.4701,-106.1113,41.0092,6.6535,27.6762,33.3197,29.2113,6.3136,33.7073,-13.6063,143.3095,-81.3472,9.9106,-2.8897,-4.7050,-60.4177,-33.3121,95.2232,-13.8508
-2890.6250,-41.9352,30.0560,-126.5377,19.6629,-50.4994,-28.4782,32.4511,45.8123,96.3935,161.0677,-32.0253,123.3065,-101.8330,26.8545,14.6136,12.7270,-116.8349,-89.6147,109.7270,-70.4583
-2882.8125,-36.5319,0.0960,-121.5155,24.7700,-9.2281,-60.1620,48.6188,14.8793,211.9214,128.8971,11.0313,127.7439,-96.9052,67.2167,19.5583,17.6149,-216.8079,-154.4659,78.6841,-65.6034
-2875.0000,-73.5188,-37.2565,-161.8954,58.4799,-15.3955,-101.2213,59.9937,-27.4342,280.0476,87.3377,6.7128,121.7789,-64.4147,62.1456,51.0941,49.1084,-288.1902,-119.7049,42.2481,2.8716
-2867.1875,-81.3516,-10.4537,-137.1333,14.3399,45.5460,-149.1120,54.7289,-38.5875,267.3282,148.9414,-4.4333,109.9595,-75.8141,12.1962,38.7767,73.7593,-226.4188,-128.7872,-2.0213,64.5191
-2859.3750,-10.3241,60.1924,-62.5256,-19.9625,8.3070,-148.1419,-3.5744,-73.8811,120.4717,75.4201,71.3001,182.9780,-38.4079,12.0555,-33.6858,37.2597,-120.7941,-93.0102,-1.4131,65.0236
-2851.5625,124.8678,159.9928,5.2392,8.8760,-69.8090,-115.0032,-98.9626,-115.0186,4.7827,-39.9452,178.2088,215.1381,-43.8927,81.0186,-75.0088,32.9135,-57.0232,-169.0775,-77.6454,23.6932
-2843.7500,199.1717,198.9027,10.1003,82.8172,-138.8592,-74.7412,-129.4576,-75.0415,-64.7986,-108.2113,221.2353,219.3948,-112.3183,48.0430,-34.2376,37.6791,-54.1542,-96.0378,-109.7699,-8.5054
-2835.9375,61.1243,166.4512,-22.4016,85.3975,-100.2997,-32.8111,-64.2818,-70.4011,13.2808,-67.8063,115.9316,149.2810,-36.1287,-96.3240,7.1922,42.1054,-51.6316,-22.3209,-72.2087,-41.0386
-2828.1250,-8.9675,-10.0660,14.0453,14.9157,82.1889,-106.9124,35.6304,-107.8011,49.3337,-31.4375,79.6013,38.0854,73.9762,-97.7908,43.5854,4.4771,18.8446,-58.6528,-1.6687,-41.6174
-2820.3125,39.4623,-103.0944,29.0073,-78.0813,133.1689,-128.5022,46.2183,-55.7023,26.8960,20.4230,132.8065,-21.6302,51.5586,-9.8159,57.4812,-17.6552,-3.1663,-80.4827,11.3830,-63.6754
-2812.5000,35.8637,-37.1879,-14.0694,-47.1517,89.0746,-23.1305,26.1991,-24.6549,57.4068,-59.7636,91.0006,45.5884,8.0685,-16.9465,52.3300,-23.8338,-43.2213,-119.3420,-27.5992,-32.7622
-2804.6875,19.9195,53.3579,-33.4984,-27.5802,106.5998,-114.0880,58.8285,-79.9380,111.5761,-151.2758,110.8656,99.4388,62.1960,-146.4666,69.8300,-43.3491,-23.6338,-98.5332,-8.9213,21.8165
-2796.8750,-20.8767,47.0479,-37.7862,-33.8660,100.2455,-154.8694,78.2128,-85.0578,105.9173,-46.6275,106.8945,57.4263,57.4424,-115.8796,65.4866,-84.7153,-29.9021,-70.5659,55.9258,-19.4376
-2789.0625,-68.4677,-1.0645,-13.8792,-10.9674,123.0691,-95.4363,45.7462,-60.9762,56.4811,-22.7727,22.1481,43.6046,80.8613,53.8515,-21.6423,-23.8867,-6.9726,-118.3977,42.9922,-32.4705
-2781.2500,-104.2957,31.5713,-18.2227,56.6658,117.6176,11.7541,34.7160,-28.1385,51.8075,-173.1449,-90.8269,111.5210,38.9960,121.2803,10.9948,8.6955,-80.2977,-85.4706,-30.1783,0.2691
-2773.4375,-175.1626,101.1533,-56.6226,91.2347,41.0774,9.9076,58.6756,-66.3350,86.0952,-212.5491,-164.8253,182.3776,36.0524,44.6039,82.5849,43.2331,-115.6719,-50.5792,4.6237,34.9759
-2765.6250,-132.8676,107.8861,21.1264,61.9471,81.6533,-93.7668,74.6116,-134.3682,90.5576,-243.7959,-158.6540,223.3759,77.2203,-60.9697,124.3177,10.9237,-73.8902,-42.5413,-23.4006,76.8475
-2757.8125,-144.0621,166.1144,43.3727,50.1474,64.6975,-108.9208,36.2393,-185.8936,2.5518,-296.5287,-98.9730,243.8685,97.8441,-4.0930,108.5575,-39.8842,-50.6036,50.0027,-69.9021,135.2366
-2750.0000,-159.5054,185.0828,63.3648,34.0835,11.4545,-87.3095,19.8562,-201.6625,-87.6845,-238.5067,-113.5304,191.1045,45.1804,87.4895,92.5651,-18.9383,38.4407,69.3089,-14.6283,119.3920
-2742.1875,-87.9876,10.0014,68.3054,-69.0388,88.1427,-81.7303,83.2890,-160.4723,-46.9713,-197.5230,-107.1206,84.2866,85.4397,53.9878,134.5162,-16.0317,75.4306,35.5684,56.6051,50.5129
-2734.3750,-106.0121,-148.6370,49.6911,-193.7232,141.2431,-63.6752,151.0459,-104.8187,81.1997,-142.0655,-124.2435,-46.0841,140.1230,-3.0984,151.9077,-34.6640,56.8667,53.2854,108.3060,32.1038
-2726.5625,-135.8784,-179.1431,52.2227,-189.2809,179.4760,-59.4512,126.1920,-29.0126,83.5531,-29.4603,-120.1990,-43.3222,104.9275,-38.0765,118.4635,4.8462,25.4686,22.1453,42.1901,71.8619
-2718.7500,-128.3294,-137.2673,21.1618,-147.4550,73.0878,-53.8123,79.8033,-22.8003,15.3278,-60.4653,-76.7339,-38.1775,72.0958,75.3107,86.4343,10.7528,-1.5206,99.4090,49.4892,114.0375
-2710.9375,-120.5294,-95.1444,28.3513,-70.3879,-30.0864,-8.9001,10.1074,-15.3273,22.3556,-16.2030,-68.0099,4.2124,6.4825,117.9133,-15.3484,53.9178,5.7463,36.9308,22.0503,121.4851
-2703.1250,-113.5231,-53.8299,-36.2608,5.8643,-60.0869,-0.7708,9.4830,28.3618,66.5960,101.2826,-95.0800,84.7999,-22.9639,13.6713,-7.9407,62.2931,-58.7748,8.6586,28.8326,93.1569
-2695.3125,-155.4068,-96.4238,-80.7736,-35.8060,-33.0243,-7.5236,96.6568,58.1603,169.9659,130.8809,-101.0363,39.4783,-68.3461,-31.5111,57.5664,-54.2278,-101.1906,1.4963,127.7438,85.9424
-2687.5000,-134.8842,-76.6298,-97.8831,-122.1029,58.4096,-22.8585,153.1405,5.3683,225.7582,39.8999,-42.5832,21.5483,-49.3637,-86.3340,114.4808,-108.3490,-81.2006,-48.2673,148.0808,106.1418
-2679.6875,-52.5962,-29.0961,-84.2331,-110.6751,-3.4252,-45.4278,68.7002,-17.6623,129.3173,16.6724,44.6344,71.3505,-0.6561,-38.4495,54.1547,-57.7223,-104.4526,-35.2766,90.1881,83.1071
-2671.8750,-44.8999,45.8237,-76.1774,-34.8691,-105.8860,-37.5814,2.2489,-10.2853,173.2975,98.8485,17.2658,115.5351,-30.5768,3.7884,25.2385,22.3024,-133.3071,-169.8703,25.7198,54.4963
-2664.0625,35.0954,91.0318,-30.8290,45.2209,-99.0703,-64.4175,43.9720,-36.5988,292.6051,33.3379,-7.8031,123.0085,-96.2268,-61.7144,107.6311,-41.3612,-157.8654,-230.1610,1.5708,100.2158
-2656.2500,70.8341,89.9763,1.2565,9.0390,-141.5326,-104.4838,49.9575,-78.1502,287.6891,-43.4068,-11.1171,154.2275,-65.1568,-105.5132,139.7848,-119.2683,-159.6715,-160.6892,1.1970,169.7104
-2648.4375,82.5253,100.8516,12.2893,-15.2168,-132.0664,-92.5857,13.3820,-66.7526,114.7602,-32.1867,1.5336,127.3873,-91.1482,-96.4135,150.8987,-35.2318,-77.5269,-113.2679,-22.2032,181.1713
-2640.6250,68.9210,17.4173,2.0219,-98.7983,-180.9147,8.0208,-40.4514,33.3421,31.5674,141.7386,-6.1113,43.2367,-139.4630,1.3333,67.7293,101.5043,-55.6826,-91.1375,0.1150,98.3547
-2632.8125,3.0507,-48.2705,-65.5130,-59.6537,-140.0438,124.3958,-60.6166,113.2055,74.1478,147.4372,-110.0158,47.8285,-135.0638,115.7717,-0.6706,144.0042,-87.0828,-87.2272,-64.7962,67.3091
-2625.0000,-24.5755,-42.7086,-62.8040,50.7350,-101.9575,91.0465,-33.0621,79.3375,113.9896,40.4013,-141.6696,49.6787,-96.4577,116.4172,-32.8165,72.7637,-45.2237,-80.0593,-58.4410,144.5306
-2617.1875,-73.1416,-22.1029,-77.0420,2.1580,-117.8542,5.7623,28.3459,-6.4762,136.9017,62.4244,-154.2528,34.5775,-37.8238,63.0790,-9.9109,-13.4272,45.6889,12.1526,67.9782,130.8281
-2609.3750,-74.8548,-24.6718,-75.4347,-70.5994,-117.9252,-29.6647,25.3129,30.5605,174.6925,211.3182,-114.9777,-1.6821,-38.3528,-84.4460,-10.1495,60.2315,79.4593,9.2048,67.2764,59.0058
-2601.5625,-27.5158,21.7880,-62.7779,-60.3378,-179.9657,57.9690,-44.1869,118.6514,115.5659,225.2716,-26.6526,-25.8996,-135.8555,-109.9687,-33.3244,73.9478,20.2912,127.3115,-26.3505,36.2563
-2593.7500,4.0746,-51.5092,-31.8677,-29.8466,-187.7867,163.8749,-46.9149,150.0079,35.7106,35.4840,-30.0824,-104.8744,-106.1386,-45.2886,-38.2353,30.9215,51.3845,193.6798,-29.7103,67.7716
-2585.9375,41.0663,-86.4095,4.4423,41.0279,-116.2336,127.1989,-18.1744,75.7804,-0.7271,-0.8783,-66.1218,-143.4480,-71.0473,-47.2511,-1.7473,-5.6890,87.8897,125.4486,-26.6569,104.7019
-2578.1250,-44.3904,-67.7696,-47.6972,24.4289,-134.1432,75.0795,18.2553,60.1116,19.4110,93.3351,-117.6213,-86.4731,-125.4223,-29.7128,-17.7022,51.2476,71.9539,109.7646,97.9675,89.2015
-2570.3125,-120.6513,-39.9410,-89.6341,17.0046,-104.8738,108.1686,26.6937,92.6458,88.7771,125.7613,-157.9181,-57.3007,-131.6179,-37.0128,-95.4514,83.3795,66.2294,68.2798,126.8149,47.9185
-2562.5000,-121.1024,-41.3172,-89.7650,51.3654,-69.8178,146.0727,13.4058,93.9899,89.9588,15.9874,-155.4101,-20.3271,-60.0418,-1.5551,-95.3997,47.3136,65.3158,102.5969,56.4731,12.4559
-2554.6875,-142.1075,-28.2463,-111.4421,64.1595,-56.3460,162.4428,12.3647,72.7913,31.6073,-5.3273,-138.4505,-42.9003,-9.0374,47.3091,-43.8994,-11.2947,78.8612,116.3748,35.6044,-8.5312
-2546.8750,-107.6159,-100.6848,-40.6217,26.4301,49.6133,124.3182,28.3550,71.0935,-7.2223,139.8683,-101.9926,-119.9720,24.4550,-30.3836,-82.8916,23.6022,76.9243,9.6533,69.2636,-9.9992
-2539.0625,-110.8806,-174.8851,-44.5485,-84.0750,43.8166,121.4498,63.9886,103.6476,26.2213,210.3257,-104.2897,-196.7937,-17.8153,-73.8731,-49.6207,129.7441,38.2489,41.1910,136.1901,-13.2046
-2531.2500,-158.3014,-187.2427,-58.6257,-130.7551,-8.1385,145.4416,44.1244,164.0540,86.5345,233.6335,-116.7425,-248.7607,-33.2468,20.4502,-26.4862,189.7274,-44.5714,-6.4154,89.9808,10.4604
-2523.4375,-125.0685,-224.9621,-62.0544,-204.8111,-14.4518,69.0917,92.7472,124.1151,155.5235,155.5941,-45.5413,-254.0771,34.9606,-23.6255,80.3146,185.3664,-11.7412,-43.3741,123.4343,43.8023
-2515.6250,-87.4937,-258.3400,12.8650,-238.5431,-51.4339,-1.9008,117.0339,15.5302,157.8842,84.9263,-5.9914,-216.0390,35.4998,-24.4033,155.4779,114.3647,61.4428,-74.9784,161.2571,46.5204
-2507.8125,-50.2783,-188.0732,50.4244,-97.6481,-89.7922,-0.2289,34.4288,16.6145,48.9155,85.9338,-76.8056,-142.3457,-2.3361,47.4255,46.2992,151.0219,97.2799,-39.9216,92.7482,47.9102
-2500.0000,-78.2131,-76.9668,21.8340,13.0689,-120.3153,83.3015,-1.4396,62.5549,-16.1801,94.7957,-103.7785,-99.8020,4.6643,52.0686,17.9810,122.5332,33.9836,1.9875,65.1133,20.1663
-2492.1875,-77.4912,-41.2320,20.9052,-22.5995,-122.1907,83.4740,41.5953,62.1314,57.4082,94.3076,-103.1038,-100.6111,-34.6788,-61.6842,128.3309,85.6901,-0.6500,-65.4741,67.1518,57.0917
-2484.3750,-71.0184,-35.7670,-49.2714,-87.5515,-121.3187,50.3899,53.6626,64.4573,96.7746,170.5867,-135.6919,-61.6629,-69.2811,-61.7217,93.4431,87.6025,-64.5186,-60.1934,107.9578,133.7882
-2476.5625,-198.4077,46.8452,-146.3089,-75.3660,-220.3152,64.4738,-5.0431,114.9461,73.3134,257.0313,-195.1532,59.4458,-94.7586,21.3639,-39.2877,100.6728,-86.2387,58.2572,121.9181,147.6537
-2468.7500,-210.2098,104.0513,-195.7531,-17.6038,-198.7285,53.1683,8.9776,103.0444,61.4669,135.0882,-279.0305,120.1623,-71.6403,6.0214,-51.4034,125.3437,7.6583,12.3132,146.4895,136.1306
-2460.9375,-205.0014,73.2488,-153.1830,-14.8707,-120.1363,59.8585,69.1513,73.1419,105.6320,31.1583,-271.9119,88.8852,-30.5157,-64.3576,27.4859,58.0090,11.5701,16.3568,152.0727,106.6120
-2453.1250,-241.4341,70.7904,-191.2539,52.1934,-124.1889,95.8999,16.4345,71.5905,104.1604,140.5821,-235.4615,48.9672,-107.0387,-32.4074,-10.2757,93.0206,-24.1660,84.7404,45.0081,105.4570
-2445.3125,-240.0349,142.1756,-225.4825,123.0919,-197.3937,173.7981,-72.5729,148.8925,33.5542,290.8581,-231.1934,87.9198,-216.7131,41.3926,-154.1820,132.8889,-24.0469,156.9663,11.8019,72.1757
-2437.5000,-210.3970,99.8047,-190.4645,80.2217,-165.3486,172.9492,-11.0316,147.4442,33.2170,216.3902,-157.6967,-24.8676,-73.1370,-37.5780,-155.8208,57.0104,40.3272,151.4382,147.8572,-38.8398
-2429.6875,-124.4650,-25.2850,-62.1438,24.6170,-1.0040,45.3968,59.4299,56.2937,89.2083,198.2341,-137.9163,-80.3495,54.7431,-168.2803,-100.1399,2.4414,127.0047,-43.7995,164.2216,-92.5378
-2421.8750,-42.0499,-48.8963,21.6685,0.4861,80.8502,20.3409,38.4623,30.6529,62.7245,172.5983,-125.6643,-108.3247,26.1254,-124.4959,-52.9464,13.3826,103.1747,-67.5391,36.0990,-44.7183
-2414.0625,-31.7604,-40.6114,-9.6354,-26.7638,-25.3964,27.1920,7.0831,36.9215,70.1610,141.8666,-44.5382,-103.3811,-42.5928,-10.8147,-9.8449,19.2260,78.2438,-91.3702,10.8843,36.0101
-2406.2500,27.2724,-52.5789,13.8141,-108.2774,-40.8799,14.7885,-0.7962,60.9342,94.3600,202.8854,-19.6845,-116.6710,-20.5519,-64.3989,-58.9924,5.8182,102.0664,-138.4607,35.4203,60.5051
-2398.4375,68.3954,-81.4549,56.3606,-174.7141,-74.2550,-14.5192,25.3621,30.0461,100.6720,172.0213,-12.7531,-147.8539,20.6011,-207.8988,-17.0341,48.5106,107.9896,-27.4523,78.0722,67.1134
-2390.6250,47.3056,-139.5492,71.7054,-126.3759,-60.8228,-35.0304,40.6642,-28.0343,152.7977,150.9676,2.9564,-170.2279,-2.4349,-196.6102,-1.2768,27.0044,121.7141,21.3523,57.5406,46.5319
-2382.8125,102.6003,-191.2602,128.4504,-109.6608,-4.9718,-50.1406,49.8055,-43.7091,101.3382,25.3180,61.0407,-187.1945,16.9392,-142.9366,19.8925,-26.0987,140.8450,41.5541,42.4152,31.3575
-2375.0000,138.1801,-191.6829,128.4969,-144.6668,-43.8144,-12.9525,63.9332,-43.0770,102.1941,-48.0186,62.4006,-187.8514,-21.3813,-108.9699,57.3716,-62.9050,106.2795,42.0692,78.5890,32.4832
-2367.1875,72.1499,-188.7080,95.9466,-108.2845,-5.2438,28.6345,96.3984,-39.0445,142.4586,-43.9369,-5.8674,-149.0925,-19.2937,-145.6057,98.2497,-22.3131,75.1113,9.9769,83.1589,37.0133
-2359.3750,38.2556,-12.5887,58.5455,-37.7664,-7.5081,-6.6384,38.0950,-73.8622,69.8845,-152.6992,-4.0105,33.8365,15.9572,-185.0915,24.2763,-22.5694,41.0978,47.0269,14.8817,74.7047
-2351.5625,25.6972,184.8720,6.4904,-16.9187,-61.4130,-19.5713,-43.4992,-88.3335,-17.3164,-93.1126,19.1670,128.1295,-0.4265,-130.2235,-62.3404,-36.4772,28.4465,34.4119,-31.0391,97.7534
-2343.7500,49.6273,137.8200,29.9384,-63.5951,-76.7956,-32.0196,-11.4828,-64.3132,7.0006,-69.0284,43.8136,77.9365,21.7020,-181.8571,-38.4357,-48.8792,52.3028,58.2847,27.5411,122.3041
-2335.9375,57.9885,4.2135,76.8284,-162.8332,-105.7154,-58.0181,43.1413,-53.8396,53.7699,-58.4809,89.8711,-23.7757,67.2867,-249.0310,43.9252,-39.8250,131.5983,66.6138,107.5647,96.3100
-2328.1250,128.2796,38.5633,114.6554,-129.1217,-106.6714,-20.0644,-10.6889,-17.4059,-54.5105,-21.9753,18.8376,13.4930,29.8282,-215.2389,45.2294,-2.8155,165.8467,-4.1087,36.5300,61.2736
-2320.3125,132.6973,147.0520,118.6244,-57.2734,-67.4613,21.0335,-28.8323,-12.8275,-122.6367,-17.3229,-12.0796,89.9407,-41.4558,-250.2690,12.6849,-71.6536,170.2596,0.3063,6.6479,66.3912
-2312.5000,152.8530,131.2776,138.3448,-73.7014,-86.4695,-30.1383,-17.3962,-28.5142,-65.0080,-68.9301,8.7207,73.1467,-22.9582,-270.5238,-4.0952,-87.7451,190.4343,-14.5326,27.5226,87.2484
-2304.6875,185.1435,22.6340,100.2253,-112.9960,-52.2937,4.8318,-27.6220,6.9503,-66.2244,2.6156,7.6343,-39.4909,-62.2845,-91.6147,-41.7216,20.3110,117.7605,17.7789,25.5392,50.2450
-2296.8750,120.9141,-7.5215,70.6106,-108.8031,-120.5871,124.2918,-90.5638,88.9145,-130.9456,47.6627,52.0130,-32.6073,-19.0846,-51.1814,-106.8460,64.8674,53.5907,24.5937,-2.9612,21.7444
-2289.0625,121.3640,27.0112,70.6969,-109.9330,-159.1555,88.4372,-86.1170,89.5781,-57.9690,48.4142,53.0595,4.0022,-20.1689,-90.0091,-142.2688,65.1277,89.1319,-45.9071,34.2424,22.9457
-2281.2500,147.9919,52.7278,97.9837,-154.8783,-132.4899,43.7625,-8.7080,44.4361,45.2158,3.3653,45.2611,30.8298,6.9794,-212.5986,-114.4947,-54.4126,45.8755,-19.2177,131.6559,15.3357
-2273.4375,98.4004,37.2282,118.0744,-136.0384,-113.9811,27.8738,51.3589,-8.9045,29.2115,-49.8809,29.2166,14.4642,-11.0467,-268.3592,-20.9169,-107.1581,66.4056,37.2728,187.8627,36.5128
-2265.6250,124.9851,62.9198,109.3568,-111.0013,-124.2360,57.1697,19.7130,-17.0487,-15.5954,-93.9180,58.3318,-31.6753,-94.8469,-132.8800,-29.1406,-79.7016,128.1251,63.9599,145.2542,28.8867
-2257.8125,110.9366,83.0160,59.0293,-20.5603,-214.0620,117.8477,-34.4355,6.2015,-66.0072,-71.5478,44.8007,26.6181,-183.2214,-76.9513,-79.9716,-19.8334,114.2431,85.0415,132.0315,15.6509
-2250.0000,98.5163,69.7638,42.3509,0.5433,-194.2063,102.1654,-11.5660,27.0967,29.2183,-49.5474,-6.1189,47.5879,-126.9219,-206.3229,-58.1517,37.6936,102.0210,-67.2433,120.4409,74.0514
-2242.1875,132.8854,-2.7047,39.4870,-106.5612,-161.5098,27.2679,60.8786,-11.2177,138.2341,-50.7554,28.7263,7.3770,-57.7895,-283.8415,49.4647,-37.9865,101.6048,-68.7446,155.6390,109.2448
-2234.3750,120.6358,20.1996,26.0257,-84.2766,-212.3631,51.7462,-3.5894,12.8656,51.6506,-63.5611,52.9272,30.5854,-107.2196,-153.9077,36.4806,-50.2740,54.5786,-8.8514,74.2246,133.8335
-2226.5625,61.3647,101.0934,-35.4474,-6.0076,-240.1635,173.1934,-62.7492,59.9401,-8.9280,-52.3553,27.0769,114.8274,-134.6137,-71.9316,-24.5069,-3.5673,-3.4602,2.0372,16.8057,145.4139
-2218.7500,18.7175,55.6531,-44.2746,-51.0882,-250.2671,128.2623,14.7100,88.6591,55.1317,-23.5006,18.8283,68.7495,-107.3245,-157.2481,76.1472,-12.2088,-47.8624,62.5706,113.0199,137.6309
-2210.9375,19.9441,-12.8816,-77.2059,-85.2670,-174.4298,96.2100,56.3244,56.2685,134.0752,16.2331,23.4387,-1.3901,-69.0972,-192.5958,154.7007,-44.9525,-80.3635,29.9987,81.1128,105.7373
-2203.1250,19.7957,-13.7772,-77.4861,-51.8023,-102.8834,96.7796,27.5457,56.5117,134.6644,90.6046,-13.3531,-1.8547,-33.1793,-158.2429,80.9006,-45.0546,-115.2131,-4.9197,11.8419,106.4835
-2195.3125,-26.7810,7.9068,-127.1714,-30.7493,-116.6859,121.9143,35.5479,81.3402,195.8617,41.5767,-25.5959,22.3043,-9.6180,-173.2339,31.7102,-57.5673,-127.4530,17.7477,35.1690,94.8089
-2187.5000,24.1257,-10.9030,-108.3535,-50.1876,-61.9231,104.5101,69.2449,26.6468,252.5548,-12.9655,-6.3896,-33.0043,-28.5194,-193.6608,88.0257,-75.5937,-110.1978,-0.1133,17.9720,77.6131
-2179.6875,37.0534,-33.6349,-59.4800,-73.5596,-50.0646,44.1303,60.1878,2.9951,192.2759,-35.4705,6.8134,-57.2160,-53.3342,-182.9599,101.3797,-26.5660,-60.9066,84.0611,-3.2120,91.4588
-2171.8750,57.7501,-83.5623,-0.8143,-89.1232,-65.3678,-5.4695,48.3484,-10.8665,142.7886,23.8141,28.7650,-108.6013,-31.3126,-199.3711,87.5203,-3.7359,65.1795,34.0302,18.3908,78.0936
-2164.0625,179.4211,-103.5195,55.8542,-73.6858,-47.6085,-23.0985,15.9558,-27.7428,125.3104,7.0792,121.6792,-88.9796,-49.2392,-218.7070,70.6617,-20.9079,116.2582,-20.0223,-35.0144,24.7002
-2156.2500,256.3765,7.8044,134.8360,1.0492,-78.4822,-52.4702,-27.2471,-58.3315,132.1240,-23.3612,200.8505,-46.0247,-80.8178,-288.6577,-33.9054,-124.7834,122.6281,-13.8088,-63.1515,31.5800
-2148.4375,252.2560,109.0906,201.7628,66.7530,-86.3482,-94.9192,-71.8421,-99.9858,52.8562,-28.8492,231.9141,20.9265,-88.4007,-332.5571,-75.5384,-93.7038,154.9361,-86.6673,-100.3779,99.3908
-2140.6250,255.1533,111.4256,202.7316,68.5204,-159.1079,-129.3490,-80.4011,-135.5972,18.6033,-26.2919,269.9744,21.9600,-50.8976,-333.3163,-1.1251,-55.5720,123.2943,-83.4822,-96.5710,138.2326
-2132.8125,229.5635,85.3015,177.2419,41.8405,-221.2526,-81.2572,-100.6404,-123.6669,-6.1127,-51.1904,280.5229,33.5637,-76.8004,-250.4247,9.8336,-8.8924,133.1825,-108.7508,-86.2288,113.5960
-2125.0000,258.7867,78.0154,209.5939,69.0262,-154.4768,-48.3369,-88.6379,-90.8873,26.0069,-56.2606,275.8592,-7.9660,-81.8007,-257.5751,-31.3705,-50.3652,126.9005,-150.1730,-92.0632,72.7840
-2117.1875,290.9717,74.7282,241.9403,30.2238,-122.6345,-52.4398,-66.0396,-132.1101,-13.9020,-133.3465,308.1392,24.5319,-49.7453,-335.6116,38.4144,-89.8418,53.6005,-117.6075,-93.9337,105.9521
-2109.3750,204.0775,93.3958,149.2291,48.3938,-105.7762,-71.6262,-63.4318,-150.3951,-105.8920,-115.4815,252.3107,116.0214,-32.7048,-282.5982,20.1399,0.6378,38.2334,-98.1030,-38.8821,161.0398
-2101.5625,170.1492,59.0820,153.5056,13.5831,-63.8593,-139.8555,33.4718,-182.7013,9.1011,-146.6165,256.4227,10.5594,46.3743,-279.4745,61.8547,-31.8773,110.8555,-166.6141,104.1328,93.0951
-2093.7500,239.9907,-83.4158,230.5739,-23.3994,-62.0785,-99.3278,91.8411,-179.2327,159.8723,-216.9792,259.2786,-134.0577,-24.6957,-278.4258,101.3622,-65.6027,110.2628,-167.3483,138.9068,22.9248
-2085.9375,249.7057,-39.0002,201.5378,-14.4590,19.6713,-53.9478,44.2137,-133.8932,132.5292,-171.4736,193.9861,-88.7291,-90.8182,-234.3718,36.7660,-57.4419,14.5551,-122.2052,8.5547,68.6357
-2078.1250,170.6290,23.6676,118.7354,-23.2451,-26.2549,-100.3582,31.1792,-143.3217,49.4283,-69.7271,183.8755,-24.1129,-63.6541,-244.9521,64.4077,-30.0339,7.0777,-58.8284,36.4362,96.5653
-2070.3125,212.4063,-40.7626,164.8167,-124.1144,19.7860,-163.9025,77.2721,-169.8612,97.2186,-61.0871,266.6001,-87.5591,19.4579,-309.4947,147.9363,-19.7251,49.4867,-193.5759,79.1892,33.3584
-2062.5000,224.9127,-63.4515,142.6541,-76.2234,34.6520,-39.7355,16.7332,-45.6701,38.7331,-8.7122,207.0290,-146.2256,-75.6204,-148.1667,126.2009,32.3221,-113.3649,-110.5985,-48.3413,11.8635
-2054.6875,19.1465,81.5957,-72.7505,104.4276,-180.6577,150.1441,-109.2115,144.2646,-66.0237,144.4026,65.1599,-66.1181,-252.9062,41.0211,59.2068,111.1210,-177.4833,71.1057,-147.1505,18.0855
-2046.8750,-24.3526,178.9494,-115.8581,165.3979,-149.5953,144.2867,-89.3840,101.4974,-71.5134,138.8077,58.5238,1.3220,-223.8485,-38.3583,16.4925,31.2262,-44.3221,-6.9090,-84.6958,-24.4218
-2039.0625,89.8643,83.0590,79.7766,104.1457,-27.7185,9.1448,-57.9472,3.4658,-133.2837,3.9484,179.5818,-23.4599,-27.9863,-174.8417,64.5069,-140.9244,106.5749,-32.1898,-109.5212,-49.2138
-2031.2500,94.5084,-18.3899,121.8615,108.3684,-22.3145,14.4145,-76.7878,-28.1378,-199.6275,9.5287,221.0419,-90.7672,51.3729,-132.7373,69.9574,-135.6343,181.9035,-27.0368,-138.9348,-43.5984
-2023.4375,46.8746,-137.0937,111.6877,59.3706,4.9204,4.3983,6.7279,-38.0031,-173.2460,-0.1491,210.1874,-173.2970,78.5247,-215.7557,171.1468,-107.6009,274.9512,100.8639,-45.6378,-126.2700
-2015.6250,54.1024,-164.8834,160.4052,-38.6933,90.1250,-20.7621,35.0497,-25.9805,-161.0054,12.0643,184.1722,-198.8841,90.6307,-314.7368,220.2128,-96.6665,212.8752,144.6545,-72.4803,-188.0753
-2007.8125,1.3094,-76.6520,103.1254,-20.7262,108.4117,70.0285,-32.7860,65.0138,-180.8023,103.2411,53.1158,-144.4292,70.7986,-149.5827,163.2664,-42.7472,90.7821,57.4198,-194.3636,-133.9232
-2000.0000,-142.8028,-114.7050,25.5538,-24.0220,104.4752,102.4751,17.3193,60.6850,-110.9356,62.0863,11.7157,-147.2461,140.7146,-43.5896,123.0053,-47.1333,88.3657,124.8723,-90.5977,-101.1165
-1992.1875,-99.3506,-107.1581,37.5730,-16.6770,153.2179,40.4987,20.7049,35.9503,-25.5118,-109.4792,58.8551,-61.4444,226.2770,-104.8417,134.3154,-71.9115,96.5201,27.9217,-152.2775,-162.7502
-1984.3750,-15.8936,12.4481,86.6228,31.7647,240.0839,-57.4536,-8.1815,-25.7354,-86.0843,-207.9895,69.9815,25.4430,202.9294,-127.8701,110.6476,-59.6342,75.6964,42.0004,-242.9594,-113.3737
-1976.5625,1.2756,-6.1785,65.3988,-21.0028,219.7735,-115.6979,33.4393,-45.6883,-106.9344,-226.7724,121.7989,5.1275,219.3750,-147.9851,163.7088,-116.6063,93.5975,94.7934,-155.9257,-60.2840
-1968.7500,39.5682,-72.6485,71.3246,-123.5896,263.6948,-109.8457,60.5348,-76.5236,-100.6508,-221.4356,126.7076,-62.0065,226.0296,-103.8115,168.9109,-110.4389,97.6304,133.7042,-116.7731,-91.0891
-1960.9375,-25.3246,-31.2588,42.0943,-47.2921,235.5508,-28.1950,23.2023,4.4723,-129.5511,-177.2733,-87.5902,20.7471,160.5950,-21.6534,139.9518,-29.4337,-2.5065,245.4499,-180.8145,-120.0836
-1953.1250,-147.4038,57.0045,-48.2970,40.9007,257.3324,-44.7394,34.6935,-11.7020,-145.6373,-119.2833,-251.0990,115.3907,218.0582,0.5166,87.8222,-8.5844,52.1849,194.0288,-126.0443,-136.2728
-1945.3125,-114.6084,55.1882,-10.7994,40.0397,406.0818,-81.4294,64.8019,-48.0006,-144.8522,-82.4160,-325.7606,116.9818,256.4572,38.7537,51.5716,-81.8291,50.7391,157.4797,-127.4170,-172.6113
-1937.5000,-191.0966,-20.8619,-16.5568,-2.0323,401.6557,-14.4126,102.7318,20.4402,-150.3556,-13.8077,-406.7379,38.3649,214.6362,71.9114,119.0481,-87.3195,-24.9954,291.6587,-98.0875,-178.2355
-1929.6875,-248.2746,-111.5594,-36.9797,-92.7171,455.6582,-35.0843,109.4659,73.2137,-133.5504,113.1346,-428.4138,-17.8791,269.2230,16.5684,61.8604,3.5336,59.6005,307.1705,-83.4365,-198.5486
-1921.8750,-87.8767,-92.6603,59.2026,-143.7739,590.3415,-86.2005,112.6585,59.5753,-184.1853,62.6509,-333.5244,-30.5025,329.4649,-105.0182,-24.7478,-11.0293,114.7739,220.2733,-63.2278,-249.3148
-1914.0625,50.9540,-23.2960,167.8353,-179.3410,663.5542,-198.9118,178.1795,-89.6337,-186.4075,-123.4060,-300.2241,-67.6486,328.2029,-141.9983,46.0724,-123.1436,149.3660,114.7977,6.3800,-214.6857
-1906.2500,23.4579,54.7738,137.1612,-172.1667,708.5550,-192.9757,185.6801,-119.1702,-179.9550,-152.7856,-368.2851,-23.0632,262.6828,-22.0975,53.5673,-152.5512,86.6237,157.9873,-21.3513,-171.3992
-1898.4375,-97.6192,75.3101,45.9179,-151.5008,619.0845,-63.6310,121.2143,-27.2776,-234.0905,-96.7309,-386.9532,34.0100,245.6422,146.4300,-1.5140,-133.5028,-33.7001,283.6138,-70.6724,-115.7061
-1890.6250,-187.2639,-12.6853,-10.8805,-204.3407,601.1418,-46.8793,93.2430,27.0468,-216.8269,-42.2516,-371.2175,88.5614,375.1059,93.5562,-57.1805,-43.0190,-16.5849,230.6791,-88.5775,-98.6195
-1882.8125,-215.9634,-76.7140,-38.7209,-267.1882,612.2431,-75.2343,72.2431,36.2925,-208.6435,40.1344,-327.5679,62.0764,532.5785,68.7561,-84.9001,40.3783,-79.5338,272.6731,-116.5620,-126.6458
-1875.0000,-253.7797,-78.8156,-77.6588,-269.0869,575.3280,-77.7476,93.5294,34.4039,-173.5922,38.3866,-331.0627,61.5186,531.9958,70.0245,-50.7328,1.6646,-81.6096,305.5442,-83.7033,-128.8330
-1867.1875,-178.1162,-107.3716,-72.1024,-298.4139,655.9841,-147.8004,165.7706,-71.0118,-95.0972,-29.8955,-328.1015,31.5021,427.9451,77.9874,64.8975,-66.5456,-5.2164,276.8887,-77.4166,-87.5743
-1859.3750,-268.1578,-92.5892,-129.2411,-212.3843,638.0090,-131.6055,135.6065,-54.1560,-78.3482,-13.9171,-385.8651,85.8217,372.2276,208.4051,-29.1993,-50.4652,-60.5442,361.5092,-97.8807,-108.0633
-1851.5625,-323.9019,-111.4801,-148.0688,-90.0138,621.4125,-77.1718,115.2409,-0.0341,-24.3355,-32.6684,-406.3618,68.4712,391.8412,267.2561,-84.0134,4.9004,-114.5872,202.4043,-117.0861,-127.2981
-1843.7500,-227.4081,-190.0857,-13.6462,-168.3400,684.1404,-127.5407,195.8156,-86.6875,36.8878,-155.1872,-310.6472,-16.5953,416.7130,220.5140,49.3903,-44.4942,-17.4059,-88.4605,-56.0895,-30.3318
-1835.9375,-208.6444,-345.3672,39.0653,-359.3016,739.2305,-295.6463,313.0953,-217.0507,89.3756,-285.4041,-259.6859,-35.3362,581.9003,204.2435,213.0581,-101.5874,37.0457,-139.0470,69.1702,58.8778
-1828.1250,-371.7701,-332.4880,-120.0834,-310.0544,693.5442,-344.6262,196.3648,-155.2732,-70.0250,-77.4921,-383.6301,176.0947,829.2761,528.2909,17.8601,-76.5324,-55.3849,85.4887,47.5366,-173.8106
-1820.3125,-549.2337,-85.9034,-288.5373,-29.0612,601.6320,-109.9404,-22.4445,44.1886,-238.7669,86.0769,-554.9197,450.2480,772.4058,916.2025,-150.6489,13.2179,-337.1429,225.7056,-200.4350,-526.8420
-1812.5000,-557.9810,82.4475,-296.2466,174.7284,596.5499,-8.5579,-94.8079,109.3689,-319.7807,-105.6479,-564.5041,665.1766,582.3341,1060.0194,-121.4269,-31.2947,-451.1786,41.6610,-348.6876,-535.1705
-1804.6875,-525.5128,9.0678,-269.7164,137.8285,662.7960,-129.9605,-65.4637,25.7855,-293.5908,-153.1335,-501.8949,730.3746,573.5474,1201.2509,-131.9829,-115.5596,-419.0079,-102.1459,-316.7404,-362.2928
-1796.8750,-552.4774,-86.6909,-334.6076,78.5980,636.7043,-196.7932,-68.7237,70.8007,-285.8656,-35.0174,-495.7444,703.2001,547.3950,1251.2422,-234.9660,-33.2184,-444.2721,-22.3676,-237.2425,-317.8500
-1789.0625,-552.1726,-49.1454,-333.2102,150.7169,603.9796,-122.3648,-123.1943,109.1053,-284.8799,3.3912,-533.3378,743.3388,513.5893,1184.6903,-306.6741,42.4273,-443.2654,-56.3168,-306.4732,-317.1510
-1781.2500,-435.1417,-0.8536,-247.0713,164.6197,583.0773,-220.2298,-108.4165,11.1410,-309.1573,-56.4619,-412.2209,684.2433,491.5707,1129.0350,-220.6504,-55.1808,-324.5352,-113.5405,-293.9833,-304.7505
-1773.4375,-303.9893,-115.3945,-106.7856,86.7232,579.3937,-375.9825,-1.5681,-105.6948,-169.3112,-100.1985,-238.0072,495.3218,449.7196,1017.6836,-80.4893,-134.6455,-192.6866,-228.6329,-162.3923,-349.2273
-1765.6250,-229.2730,-179.3114,-28.9120,57.4884,623.3719,-373.1772,-32.7931,-64.9611,-128.9121,-23.3898,-235.2392,354.0258,419.5068,1027.0859,-112.7498,-57.5064,-258.2407,-293.1263,-263.2432,-309.1243
-1757.8125,-332.5430,-71.1666,-142.9998,131.3642,438.4580,-231.3556,-148.8794,77.8083,-244.5013,83.4533,-278.4690,351.8014,269.3816,1101.6914,-190.9848,122.6833,-361.7664,-221.5748,-332.0788,-167.0213
-1750.0000,-353.0422,-90.2033,-237.3035,149.1034,311.4068,-178.7632,-129.9559,94.3709,-228.3175,136.0959,-190.9539,296.3968,178.0842,1087.2430,-211.4450,176.6653,-275.5370,-240.2397,-176.1496,-151.1722
-1742.1875,-226.4185,-137.0775,-171.4684,173.0464,269.5718,-187.0563,-65.9065,86.0624,-89.0097,91.8664,-53.3304,180.1614,134.9681,939.0773,-145.7795,58.7826,-253.1822,-323.7693,-83.0957,-270.2104
-1734.3750,-165.5660,-145.7023,-104.3809,165.2800,193.0575,-196.1474,-101.7181,41.9813,-59.4708,157.8554,-62.4839,212.1850,93.1421,827.2901,-189.8778,125.1375,-262.5926,-332.0691,-92.8182,-315.0409
-1726.5625,-144.9785,-52.5680,-83.5470,224.3137,180.3567,-175.5188,-172.7338,62.6374,-113.2259,142.5646,-117.9233,308.9762,80.0871,854.3920,-279.2339,183.2435,-275.2811,-380.6332,-176.8334,-258.1609
-1718.7500,-198.8697,1.1406,-107.1814,278.9591,86.2484,-164.3614,-203.2299,75.8353,-211.4544,7.7912,-106.8546,360.3423,58.5910,947.1887,-302.0624,196.8935,-292.4502,-257.6531,-160.3289,-135.7689
-1710.9375,-248.2371,22.4221,-162.2856,336.2104,-1.2584,-109.6872,-175.1691,57.5621,-192.1494,-46.4505,-53.2700,308.2769,-67.3334,936.6679,-210.3721,216.0900,-237.0976,-307.1375,-105.2982,-80.8736
-1703.1250,-182.0112,-13.6815,-161.7906,301.1135,2.8997,-184.4501,-150.6579,-16.1364,-119.2839,-46.0994,17.8891,273.8206,-28.6301,906.8646,-137.1013,216.8866,-205.1730,-344.0512,-106.7058,-118.4168
-1695.3125,-146.7431,92.2668,-86.2372,338.1159,9.1680,-183.2016,-198.6628,-86.8050,-154.4138,-44.7314,18.0751,314.4236,13.1430,842.2460,-208.7871,145.7303,-240.2128,-273.9386,-178.1101,-153.9273
-1687.5000,-74.0408,202.6917,-45.2417,378.6312,-20.0754,-180.5303,-204.0309,-47.0366,-188.1398,-40.9471,-17.3079,283.5034,-54.6125,779.2158,-242.0528,150.0126,-201.8145,-270.3854,-139.1039,-151.0163
-1679.6875,-66.6486,141.8447,-73.5437,353.9030,-44.5764,-136.1980,-135.1813,-38.5933,-106.1887,-32.4780,-11.0060,221.3001,-116.6417,758.9844,-196.6457,122.0056,-228.7370,-227.1436,-26.4315,-143.4572
-1671.8750,-97.1009,77.1646,-105.6865,361.3662,-73.8683,-96.7585,-129.1823,-34.0338,-66.1031,-27.8784,-9.5650,153.2464,-110.5007,769.9820,-193.0932,127.1434,-257.5373,-255.7809,-21.6342,-103.7806
-1664.0625,-49.7607,20.3060,-131.0384,270.6638,-57.3142,-86.5604,-132.9518,-96.6917,-55.2469,-127.5009,73.6556,93.9997,-22.5441,788.9016,-144.7480,139.0726,-175.5639,-243.6386,-80.0676,-56.3234
-1656.2500,43.0628,-25.0230,2.0984,190.5149,-68.2217,-174.8893,-131.2847,-183.8608,-33.9097,-251.6357,167.3473,45.2685,1.9209,818.4410,-85.9274,51.4991,-117.1224,-255.0116,-126.0332,1.5982
-1648.4375,100.6740,34.4737,26.0275,287.2221,-150.2896,-226.4409,-196.0242,-197.2455,-156.7913,-227.9950,151.8226,107.3471,-118.7961,849.8724,-98.3274,75.7145,12.0911,-196.5961,-174.2268,24.2923
-1640.6250,102.5268,214.2343,33.2024,467.2234,-285.0745,-110.7765,-269.0228,-117.3998,-223.4456,-184.1249,120.5401,190.6798,-255.2549,717.6452,-165.4866,83.1801,-21.4693,-53.9419,-207.1904,-79.7867
-1632.8125,124.9689,343.6091,-15.0299,492.8684,-292.2199,-49.5402,-288.5182,-91.9687,-199.5250,-231.6744,69.8401,255.6127,-301.1062,678.1174,-213.0577,72.2505,-33.4451,-171.6983,-219.5730,-92.2950
-1625.0000,150.7420,265.3536,46.0754,380.9161,-227.9800,-173.9712,-225.7362,-178.1997,-139.2801,-208.8908,54.4725,207.8967,-238.6031,746.0367,-226.2880,22.6701,-7.0987,-215.1055,-123.6290,3.5134
-1617.1875,93.6603,176.2662,62.3244,293.1638,-243.5585,-232.2700,-177.8430,-198.2902,-123.9079,-82.9716,68.2410,116.3253,-218.9485,697.1932,-283.3903,3.2335,112.3841,-130.3720,30.4448,-17.5581
-1609.3750,180.2320,158.8467,120.2252,312.1111,-219.4578,-249.9357,-184.8684,-142.7400,-104.9190,47.5797,86.6546,-7.5985,-306.6361,652.0822,-336.8717,60.4446,94.4965,-217.9898,46.1422,-72.0045
-1601.5625,202.8481,113.4963,105.1751,303.1582,-229.2865,-155.5699,-164.2409,-47.1512,-46.9110,106.1571,69.1121,-166.4708,-392.2701,682.1003,-278.3186,119.7048,-23.3521,-230.5573,33.8653,-14.4232
-1593.7500,134.0125,46.7214,-5.3299,237.8037,-261.5318,-120.6795,-111.8922,-11.0317,62.6361,143.2568,-43.8893,-237.7932,-390.3561,726.7347,-205.2192,156.5100,-90.6652,-192.5892,71.1188,57.6829
-1585.9375,73.4727,58.2721,-66.5392,180.7932,-171.4534,-146.5089,-37.2760,-35.6227,111.4619,81.6456,-70.5977,-259.8201,-264.1375,710.7347,-118.8302,96.6108,-81.6990,-217.3272,115.6503,32.0655
-1578.1250,138.0278,18.9423,-30.6473,72.9313,-59.2600,-186.2516,35.2243,-147.1223,182.3651,-104.8748,72.7936,-296.7549,-153.8217,607.9088,25.6426,21.8087,-51.6474,-292.9802,109.2590,-44.4686
-1570.3125,180.4373,99.4794,-19.9024,83.9611,-81.1984,-142.1588,-82.2836,-100.7862,81.1025,16.4360,81.0337,-209.8434,-177.6624,589.9916,34.9556,142.8517,-184.7581,-319.7920,-94.2986,-72.1664
-1562.5000,90.6905,186.8826,-112.3121,137.8772,-169.2787,-51.2292,-144.8030,27.3938,24.6787,217.5902,-13.8798,-154.0905,-193.6611,542.9702,16.1093,271.7477,-309.0305,-198.7514,-149.0144,-92.0382
-1554.6875,-22.7052,181.6506,-226.3734,98.1888,-167.9923,-19.9626,-83.9854,60.9132,94.5977,288.0872,-93.4464,-117.9983,-84.3160,474.3428,86.6112,157.9956,-351.9725,-135.3776,-86.3993,-170.5835
-1546.8750,-42.6964,164.8319,-209.0376,117.9362,37.7142,-4.3093,-54.1785,40.8172,73.9087,193.9643,-151.6125,-98.5195,82.4236,463.1561,103.5101,28.6404,-370.5265,-224.6131,-176.3994,-154.7367
-1539.0625,-146.2879,97.4318,-244.3028,158.1237,79.8207,31.7297,-66.6918,41.1119,-73.3892,47.2164,-153.3747,14.3543,159.5504,472.4144,103.7969,66.6836,-333.6899,-46.4482,-210.0117,-118.4950
-1531.2500,-228.5208,123.4111,-287.2179,326.7081,78.2760,135.1106,-99.3517,71.7488,-117.3593,41.7952,-234.7809,158.5767,156.0179,365.0593,-49.5842,172.0804,-275.5039,48.0684,-186.2915,-235.9135
-1523.4375,-241.8907,147.2584,-258.2748,423.1842,148.5857,198.3350,-63.3961,100.2246,-89.5042,32.2015,-282.3257,152.6389,150.3289,291.5776,-58.1209,127.3194,-287.4679,36.4370,-164.7339,-319.4946
-1515.6250,-216.6511,-1.2812,-158.7276,382.2927,289.5045,113.1497,30.2788,15.2859,-27.0572,-88.8064,-258.2618,33.2857,252.2277,289.7178,3.9413,43.1622,-191.8349,-149.6067,-103.5879,-294.4869
-1507.8125,-178.9577,-101.3499,-82.7292,352.8908,479.8770,-33.5968,51.8801,-93.2160,-137.1628,-50.3734,-221.7450,38.3740,367.5637,337.3170,42.4460,9.4518,-153.7571,-251.1964,-137.0015,-257.0382
-1500.0000,-180.4133,74.4554,-84.8871,496.3732,446.0969,36.4970,-51.4675,-21.8763,-323.4195,-90.0985,-337.3735,222.2956,220.7397,344.7741,-70.2017,80.5732,-189.8298,-76.9313,-244.5656,-223.7466
-1492.1875,-253.0684,286.0753,-159.2484,673.6946,338.1178,106.3887,-105.0591,50.2615,-361.8895,-92.0250,-487.2011,333.0016,37.6990,352.0435,-182.0567,116.4946,-157.1035,62.1378,-247.3342,-226.6582
-1484.3750,-256.4759,284.9512,-125.3632,709.2954,340.3757,102.5409,-86.6777,47.6480,-256.1176,-20.7063,-564.7651,259.9368,37.8941,321.5691,-258.6643,114.6814,-160.1350,59.4573,-214.8563,-230.3256
-1476.5625,-222.0207,180.6863,-89.6201,712.7704,307.4753,26.5388,-43.4820,8.8752,-184.4956,-95.5503,-458.4569,149.7074,112.9268,365.9331,-223.4167,3.7213,-125.3162,-10.3833,-145.5383,-196.1437
-1468.7500,-124.0010,104.9883,-58.3180,638.8228,306.1153,-54.9115,27.3299,-107.3551,-81.3251,-138.8549,-283.5783,36.0056,72.4854,368.8349,-118.6198,-38.7036,-25.9488,-157.6674,-47.6702,-203.4061
-1460.9375,-88.9738,107.3024,-20.0187,607.9042,237.7275,-92.3549,21.8972,-106.5811,29.8448,-101.1660,-210.6820,-34.7160,-34.9814,341.7186,-81.8308,-37.1317,-61.5786,-156.9374,-82.7939,-203.6655
-1453.1250,-178.0790,231.4725,-77.8697,627.8578,110.1733,-41.9419,-44.3737,-18.9579,6.8675,60.3730,-307.9146,-53.6142,-127.6188,402.4228,-214.1966,15.2970,-150.3563,-105.3628,-67.0597,-153.0720
-1445.3125,-143.1753,269.6459,-42.7191,561.8262,76.6021,-44.5233,-28.8330,-20.3369,4.8997,57.9069,-238.1269,-199.5342,-236.2764,483.0976,-214.5492,-22.2695,-79.1405,-174.7913,3.6814,-82.4722
-1437.5000,-33.0562,241.0350,29.6354,394.0137,7.2059,-82.9038,-1.0985,-131.5235,76.1367,-126.3578,-94.1196,-345.2714,-344.7648,600.9390,-105.6975,-95.6407,-4.7276,-169.0161,7.6292,62.3411
-1429.6875,-41.8707,197.4970,18.0404,318.2800,-185.1712,-134.2314,-35.1213,-143.6588,62.4261,-28.5740,0.9589,-355.9728,-465.2384,670.7765,-44.7944,-70.9622,126.7445,-108.1825,32.6353,122.2198
-1421.8750,29.7776,272.4191,27.8994,360.0151,-281.1358,-16.1014,-89.9593,-98.3429,35.1688,-57.3417,82.5054,-307.2478,-564.2911,542.0231,-145.4357,-61.8265,164.6724,70.1130,35.1002,-16.4390
-1414.0625,45.2447,396.1483,46.5647,414.5619,-369.3266,110.8471,-137.7882,-44.2232,52.7177,-112.3196,24.8772,-323.7569,-616.5643,495.0291,-201.2762,-115.8857,145.4051,86.2081,-19.6304,-36.2858
-1406.2500,128.2816,375.4196,91.7905,290.6578,-355.9881,44.3579,-115.9978,-108.5529,22.8244,-140.7490,31.8335,-386.7509,-606.3013,622.5156,-119.5534,-179.3931,192.6901,28.8540,-7.7973,81.4352
-1398.4375,180.7806,184.1386,145.4676,65.2037,-408.2281,-49.6694,-75.6092,-128.4292,39.3962,-160.7192,157.2543,-478.3245,-550.6202,684.3795,-103.3681,-236.4424,316.4273,81.9611,114.5032,133.6314
-1390.6250,268.8364,97.4100,165.6906,51.3073,-457.9546,-31.1314,-146.5803,-109.7531,-14.4676,-68.1353,211.2471,-456.3725,-565.4277,675.7405,-230.6215,-141.9355,298.7232,135.6358,96.3701,115.3987
-1382.8125,264.9037,96.6902,129.9100,87.4240,-526.7270,40.4271,-151.6496,-72.0739,20.6842,4.4498,210.2673,-417.4420,-599.2705,611.0354,-229.8663,-104.4257,295.0250,132.3282,128.2509,41.1809
-1375.0000,284.1415,48.1295,153.2814,40.6996,-499.3888,26.1511,-69.5219,-50.2397,117.0078,28.1880,195.4556,-465.3868,-609.9981,533.3943,-96.9506,-190.7579,174.4883,117.1717,183.2981,-9.8691
-1367.1875,295.0971,-43.7299,162.3628,-85.3251,-449.3880,-4.4120,-35.2113,-114.7076,198.0582,35.6263,201.3752,-528.6653,-489.0576,586.3621,-15.3195,-181.3973,114.6720,22.7249,158.0669,70.8041
-1359.3750,350.9773,-56.6830,180.3532,-166.4454,-390.5359,-23.0542,-10.7881,-133.2703,142.0196,-19.0319,365.2337,-472.0721,-322.2510,172.1436,3.2109,-163.1369,99.7682,79.1981,178.7462,161.4008
-1351.5625,352.5373,52.0168,144.0000,-125.9048,-423.0790,85.9806,-61.1692,-96.1760,69.6331,-129.0384,436.7870,-358.8641,-319.8278,69.4811,3.3969,-162.2138,-3.4713,46.3393,109.0882,197.6698
-1343.7500,199.9243,113.5118,20.4541,-62.5622,-433.8768,179.8366,-58.7967,-1.2735,90.0660,-108.2341,310.1829,-225.8957,-332.6421,-11.4802,25.3976,-103.4850,-119.8951,141.2849,63.2522,291.7594
-1335.9375,60.3896,11.0593,-89.0338,-164.1688,-465.6766,179.7618,75.3147,36.6807,236.5738,-33.3756,272.6731,-258.9130,-292.4517,-222.4910,99.4682,-174.7075,-84.2440,247.2827,273.4827,291.9254
-1328.1250,172.3877,-120.8875,-38.0129,-329.2757,-374.0298,81.2080,171.6307,-60.8623,360.5963,-20.0154,358.7089,-317.4626,-239.7992,-385.1177,223.0520,-197.4305,28.9255,148.8061,351.2350,157.6197
-1320.3125,369.5095,-27.7281,59.1108,-339.2873,-273.3482,66.7894,95.8305,-74.2885,236.7363,-143.5435,379.8851,-254.9435,-214.0834,-464.7598,209.7400,-210.0521,15.2048,135.4569,161.1117,143.4414
-1312.5000,408.8139,118.5839,96.3926,-226.1542,-343.5710,103.5546,-28.0836,-111.5504,52.0423,-144.9156,304.2539,-106.3094,-176.2579,-531.3749,136.5880,-99.5210,-51.3538,141.2720,24.1652,252.4431
-1304.6875,334.4461,152.1853,18.9851,-225.7369,-307.5515,97.6493,19.0194,-79.5064,83.6793,-38.9863,187.9803,-109.4237,-142.1630,-638.8191,131.7611,-66.6845,15.3953,173.4044,90.5450,283.7746
-1296.8750,297.4023,47.0780,20.8836,-329.0305,-264.2884,62.0735,132.0967,-77.1570,231.6509,-73.7444,226.0485,-216.2805,-101.8083,-777.0947,243.2546,-137.5396,48.4598,170.8501,193.2513,211.4438
-1289.0625,335.6782,-17.7286,97.0870,-322.0304,-221.7887,99.8272,142.3635,-38.4912,269.9414,-35.1788,226.4585,-285.8737,-134.1956,-878.2033,245.0643,-135.0913,86.8434,69.6162,161.2842,249.4546
-1281.2500,335.8782,-156.6350,133.1924,-389.1422,-256.4612,97.5160,186.5416,-39.9079,268.1485,0.3153,297.8192,-359.6036,-59.7246,-1019.5566,280.7875,-98.7350,227.1469,70.3108,266.2412,284.4008
-1273.4375,335.6106,-226.0458,210.8080,-456.7635,-248.6917,63.7448,221.6055,-71.8103,345.8775,-32.6846,337.7243,-389.8781,-53.7958,-1044.5518,249.0254,-129.8665,296.9714,104.5272,335.7163,177.8840
-1265.6250,344.1613,-145.6688,222.2303,-373.6030,-234.1817,109.8151,177.2619,-24.8975,356.4335,-94.8849,310.4711,-341.4014,-115.0977,-1063.8844,186.0865,-118.1892,270.6143,113.5700,239.0184,151.2092
-1257.8125,192.2861,-119.7605,173.2070,-310.9185,-279.1892,170.4715,149.6088,36.5746,270.5722,-34.5258,259.8157,-204.4224,-125.8950,-1069.8192,173.7344,-92.9593,189.8392,244.1838,227.9110,175.1328
-1250.0000,119.8411,-154.4657,63.5952,-308.8591,-240.8628,242.5560,166.9321,108.4556,195.1396,1.2537,220.6156,-241.0812,-51.3352,-1027.5194,209.8029,-56.3203,188.4913,208.2251,261.2396,173.4967
-1242.1875,95.0740,-177.5232,111.6420,-330.1685,-113.9647,217.3325,245.7868,48.0009,244.3800,-96.3061,232.1187,-264.1311,35.8364,-1082.7299,259.5360,-117.0245,198.8258,183.9412,306.2560,148.5455
-1234.3750,91.8424,-180.0915,147.2090,-330.9948,-113.6307,177.6478,224.1860,-27.9390,241.1477,-135.3627,266.1718,-191.7227,-1.5350,-1078.6010,256.7919,-118.2259,229.6932,145.1644,266.8032,109.1338
-1226.5625,158.9380,-110.3722,145.0870,-259.5443,-113.0639,210.3090,139.1911,42.4349,165.2383,-28.1165,262.5781,-156.0541,-38.6470,-1075.3414,181.3695,-84.1220,191.8930,71.7163,158.6849,106.0725
-1218.7500,155.2123,-7.5114,138.1237,-189.9715,-227.4258,276.1646,44.2817,144.9783,84.5001,1.2999,254.1818,-51.2782,-81.6525,-1077.1075,101.1211,-52.8613,117.2803,103.4484,83.7566,172.2062
-1210.9375,97.6701,76.4908,75.3240,-140.2807,-361.7126,285.2164,-1.4516,155.6928,56.9388,46.8880,225.9890,32.6058,-144.5545,-1025.8982,74.0441,-6.4462,164.8526,81.3505,96.0194,254.5289
-1203.1250,100.7085,47.0270,47.0812,-203.0653,-388.5324,218.8659,44.2944,161.9756,100.9638,201.0376,269.4011,41.9981,-245.9485,-1086.3115,118.5438,-34.4759,204.9966,86.8277,205.8749,188.4423
-1195.3125,142.0696,125.8421,127.1403,-228.5780,-379.1259,224.8587,9.1338,132.5798,180.3395,170.5134,275.1596,85.6396,-311.0900,-1184.6060,15.3770,-27.1938,175.4581,57.6259,141.0689,194.7037
-1187.5000,162.6471,251.8323,105.4025,-134.9268,-435.5897,274.0924,-50.5897,183.4063,157.9631,75.2203,214.1621,174.4345,-370.0742,-1202.8918,-44.5592,60.2969,161.1425,42.6572,56.5100,355.2180
-1179.6875,57.1478,182.7036,-5.4256,-167.4178,-544.2262,273.2672,14.3870,220.1473,157.5300,184.8537,177.1165,101.0855,-369.1947,-1235.4615,29.4268,134.6954,195.7567,218.6062,231.8941,354.6850
-1171.8750,19.1442,76.0128,-1.7897,-202.4950,-465.4974,275.9337,128.2467,221.3568,269.5752,222.9526,178.5887,-78.8498,-365.9168,-1338.7557,142.8857,63.5518,227.8512,147.0235,333.7645,246.6551
-1164.0625,134.6293,15.7744,153.3031,-261.1519,-271.4191,209.1048,161.2503,120.0399,240.1038,48.5179,296.5720,-144.3671,-246.2439,-1510.7924,150.8183,-1.1293,343.4194,85.9210,272.1181,291.1255
-1156.2500,248.2907,-78.3212,271.5551,-389.6876,-224.2780,144.4756,143.3402,17.8874,101.8222,-17.7513,450.7578,-171.7725,-127.4618,-1645.8831,158.9275,7.3507,388.1714,200.9975,246.6615,335.7989
-1148.4375,199.4841,-126.9415,258.3227,-364.7667,-235.7148,167.3836,94.7626,114.2523,52.0754,115.5092,436.5064,-221.7290,-103.2183,-1618.6699,145.5656,105.3400,303.4597,292.6050,162.7508,322.0203
-1140.6250,93.4608,-126.8394,184.8533,-328.1389,-234.4866,238.1000,124.7540,150.3939,124.1113,114.5510,361.0622,-221.9855,-66.2737,-1615.8922,181.9805,68.0902,232.5282,291.9875,161.6300,321.0374
-1132.8125,56.8237,-92.4051,144.7456,-363.2030,-161.9916,199.2201,184.0824,73.9074,194.5365,74.9538,394.0280,-187.9316,4.9786,-1725.9688,288.7750,-8.7962,195.9799,220.7447,159.8948,354.4609
-1125.0000,97.6235,-50.5848,150.0467,-389.9130,-119.1833,92.7839,188.6936,40.8401,161.4060,188.7766,398.4630,-183.5204,9.5857,-1791.8657,403.0076,-3.2800,131.8622,226.9347,95.6037,395.3379
-1117.1875,119.4589,-26.7874,100.3597,-400.6747,-203.4592,42.3871,157.2851,101.7915,112.3151,249.6381,457.9703,-159.1603,71.1546,-1875.9744,390.2663,20.2421,118.7854,285.1492,117.3631,382.2639
-1109.3750,151.1836,40.8327,99.5382,-330.6357,-239.9621,76.8917,138.8926,136.6194,184.1101,211.3768,456.3963,-124.0014,33.5315,-1874.4299,279.3970,19.6200,150.5956,176.2383,149.0119,344.0889
-1101.5625,170.5858,60.0820,83.3702,-309.9900,-254.9048,97.1088,172.2806,120.1273,313.5942,231.7920,365.5328,-66.2404,-56.4880,-1888.4312,299.2032,3.6608,169.0849,160.0051,167.3569,327.6122
-1093.7500,105.0711,31.3547,54.2618,-302.3408,-319.8817,67.4296,207.3424,90.7136,321.1772,165.2863,299.7747,-21.4747,-85.5014,-1842.5963,418.0912,11.7666,209.6556,201.8408,207.8000,298.2324
-1085.9375,134.4901,97.5045,50.0631,-234.8383,-212.0390,63.7003,116.7756,87.2248,134.7094,161.6982,294.9804,48.1533,-15.6507,-1697.0798,303.9111,81.7798,135.1508,161.6035,97.1806,257.8073
-1078.1250,133.8835,97.6015,13.8260,-198.4247,-285.3408,135.9733,12.4097,123.7053,23.2269,270.0800,294.1980,121.6996,58.1047,-1547.8190,157.7067,155.7525,63.6265,161.3487,61.5471,257.3923
-1070.3125,139.3610,-1.2565,-15.3470,-260.9985,-165.6842,142.3474,129.9777,57.2538,140.8206,131.5305,301.5302,55.2667,102.8638,-1465.7120,237.5809,52.7869,174.1884,26.1713,172.0016,228.0819
-1062.5000,215.7736,-101.2337,65.3919,-253.7243,-84.2179,112.6745,153.9747,27.7186,147.3540,-82.1061,345.8253,-11.3092,73.4863,-1309.9121,319.3890,-12.2729,215.6881,-3.0737,107.4066,198.7198
-1054.6875,157.1673,-53.2877,78.0963,-169.5567,-144.8766,162.0046,43.5089,40.1575,-23.1157,-32.7644,284.1296,38.0219,86.0224,-1149.3843,221.1807,36.6266,228.1748,9.6523,14.8040,211.3557
-1046.8750,150.9421,-59.0187,70.1621,-139.0999,-115.2606,153.7339,-7.3864,105.9704,-104.1966,68.9479,202.8469,103.6565,77.8760,-1082.7217,67.3633,102.8816,292.0451,3.7643,8.5975,240.3930
-1039.0625,184.3480,-60.1768,71.8469,-175.1044,-187.1278,155.1164,-12.5584,106.4037,-29.6427,70.2734,203.2312,103.8412,42.2937,-970.6582,-4.8249,104.7460,289.5563,36.5083,76.0331,168.0851
-1031.2500,183.0400,-96.1031,109.7986,-244.9084,-183.8341,157.8040,-7.0016,108.1093,-26.8103,144.8715,168.9305,106.2397,6.9274,-857.5502,-1.7401,69.8827,289.3560,-34.4677,110.7509,97.0793
-1023.4375,271.2613,-113.5543,204.2642,-296.2577,-89.1356,141.0474,5.4581,129.3459,-79.4445,55.0048,190.1885,16.0995,65.0210,-763.1461,17.8687,17.5351,306.6876,-50.9096,93.0092,44.6225
-1015.6250,292.7555,-161.7834,262.9905,-308.4132,-67.2659,126.5976,32.2324,113.8605,-94.7794,-32.5836,211.7523,-72.8361,86.3220,-704.7064,39.7637,-33.5578,222.3052,39.9261,114.5658,66.4685
-1007.8125,231.0304,-188.2932,195.4782,-262.8819,-24.7205,131.9513,46.7009,119.1500,-52.3304,-27.4050,107.1342,-105.0657,91.3393,-588.7291,47.4412,46.1009,125.7095,14.5547,87.9208,146.1176
-1000.0000,118.5280,-229.6304,78.1733,-268.2148,-32.0607,160.5623,72.4602,147.6679,-23.6556,1.0062,61.7841,-77.1350,82.5270,-523.7523,76.3394,74.9765,84.3496,79.4179,116.5196,175.0111
-992.1875,97.7532,-322.2900,57.5774,-288.8997,21.2193,140.9316,114.4539,54.9159,102.7579,18.1510,116.1999,-97.5459,245.3757,-508.2769,91.9634,-18.4297,27.7230,23.0021,130.8591,118.6462
-984.3750,99.3583,-320.6233,59.3427,-321.2881,132.7646,68.7038,176.6814,-53.4615,215.5773,-54.3298,81.0297,-133.6416,283.5420,-507.6576,167.9653,-53.4847,-40.5294,58.9595,96.5914,120.6783
-976.5625,-89.2543,-262.2202,-100.1286,-332.9742,83.9817,93.2696,196.1015,43.9264,203.1922,42.9465,-78.3239,-147.0155,196.4288,-558.5018,265.7546,45.2061,-53.0015,292.6927,84.1109,108.5166
-968.7500,-174.7295,-171.7327,-150.4805,-171.6211,-3.7880,189.9772,115.7618,140.4320,78.9390,65.3478,-128.5010,-14.3265,36.3812,-462.4596,215.6792,104.0027,-33.3379,313.5533,33.7764,58.5047
-960.9375,-105.4215,-137.5180,-116.0705,-101.5863,-80.8935,187.4924,27.1682,100.7173,39.4675,26.5357,16.1408,19.0765,70.0464,-282.8670,140.3849,65.5670,-68.8968,207.1908,-35.7704,93.2804
-953.1250,-101.7785,-276.0274,-152.3469,-168.3029,-80.7784,114.3702,43.5054,28.3376,77.3290,100.0464,53.1493,-18.2541,179.9729,-138.1666,104.4155,29.4505,-65.1335,71.1460,38.0074,167.4025
-945.3125,-100.0558,-379.5085,-150.5614,-236.0187,-42.6936,79.3551,93.0741,-6.9700,152.2714,65.6164,18.2693,-54.5654,180.9179,-101.5963,142.5231,68.3862,-28.2924,73.1789,73.8725,169.6261
-937.5000,-102.1087,-346.8158,-112.5652,-201.5922,-115.4817,155.5838,68.1832,66.9389,117.4542,29.4100,-53.3545,-90.7079,108.0422,-65.0170,181.8596,105.5304,4.7860,141.4264,36.9841,98.0950
-929.6875,-100.6858,-274.6865,-107.1102,-129.7756,-148.8975,197.3044,-16.4121,146.3206,49.1288,144.6981,-157.4623,-50.4252,74.5831,10.8143,76.6726,221.1390,42.3415,108.1438,-31.4183,30.0525
-921.8750,-92.8880,-267.2244,-97.2969,-120.6726,-66.0487,133.4312,1.9042,155.0859,59.1899,264.3643,-257.1508,-41.8208,119.4408,17.8072,49.8573,158.1113,50.2732,46.2449,-23.4362,3.3970
-914.0625,-134.4026,-273.1347,-66.8162,-126.9740,-71.6247,92.2657,3.7579,113.5285,90.9307,259.6944,-225.1186,-47.6041,113.9255,120.2623,8.7187,79.7372,78.8861,5.0237,6.2170,-37.5670
-906.2500,-40.3312,-215.5180,-4.7693,-33.7803,-11.7293,117.6985,-49.5294,138.5433,6.2455,136.5946,-163.4669,-24.8710,26.9328,178.0852,-76.8373,67.9193,102.0785,-6.6175,-76.5494,-48.9380
-898.4375,-72.5820,-142.2705,33.9393,41.0043,-158.2621,156.8284,-111.3977,140.2332,-65.7593,102.1799,-124.1005,12.4785,-7.4446,213.3744,-183.7195,106.7648,105.9494,67.4129,-37.6259,-9.6178
-890.6250,-93.7033,-128.9435,12.7618,53.8325,-106.7697,99.1075,-73.8715,83.0506,-86.6283,80.8901,-107.5711,25.9015,42.2464,115.5816,-204.4839,122.7258,190.9466,46.5666,47.4313,-30.1592
-882.8125,-137.1013,-138.9272,43.2884,44.3102,-3.6608,57.1409,-38.0727,39.5932,-91.7645,74.3077,-112.2807,19.0046,72.6084,105.3234,-173.5216,43.3923,216.6712,108.4559,38.2155,-108.9656
-875.0000,-174.6224,-106.0711,41.6770,42.5952,65.2280,56.0743,-25.1794,2.0072,-130.0264,-37.4097,-113.0754,52.9385,106.8002,173.7494,-138.6908,-69.0933,180.2764,142.2156,1.8723,-109.8879
-867.1875,-112.8121,-113.9313,30.3784,34.1314,125.3523,44.3543,-7.8347,-10.2605,-104.9675,-122.8076,-14.5045,39.1514,130.2698,121.2986,-76.5410,-44.2759,101.2161,98.3035,-41.1374,-47.4804
-859.3750,-158.6295,-92.4544,14.4415,21.9720,72.7587,30.0408,-12.8225,-26.1496,-118.5397,-28.8257,44.4730,58.6893,76.0592,27.0395,-54.0317,13.9010,54.5272,121.7680,-18.7730,11.3046
-851.5625,-211.1754,-38.7402,-76.2421,40.0133,-57.6484,86.0326,-46.7673,103.2469,-136.8367,100.4347,-9.2394,75.4486,-52.9236,4.8708,-71.2601,69.3442,2.1050,210.5078,-0.1360,30.3691
-843.7500,-170.1499,-35.4990,-70.3684,9.5378,-89.5678,92.6211,-23.8629,110.2169,-129.5479,33.2653,-1.3307,43.7267,-84.3738,43.0892,-64.9075,76.3422,78.2528,216.8156,76.0836,1.0118
-835.9375,-62.2466,-137.4341,43.3694,-92.1504,-14.6988,-49.9027,57.9924,-69.9444,-16.3791,-73.0350,76.4944,-26.1722,64.0047,-30.9946,12.3167,6.2018,117.2803,8.9900,150.1804,5.5343
-828.1250,-2.6190,-219.6867,66.8182,-175.1850,43.8067,-171.6808,92.0876,-119.3825,44.5041,-13.6159,64.0824,-4.3925,50.0674,-12.5139,36.2471,29.7734,176.0336,-71.1080,174.0001,29.7782
-820.3125,-63.7180,-140.7028,-33.4648,-60.0123,-58.5002,-52.1603,33.0361,-36.5479,54.6545,33.0642,-35.0134,39.6127,-124.6352,65.0732,9.4485,76.6029,81.0649,114.0633,79.0874,40.2881
-812.5000,-122.8300,-94.7897,-92.7772,-49.9394,-156.9076,0.3529,-0.0973,14.2540,-4.2224,47.7039,-56.0905,51.5359,-112.4035,111.4624,61.6299,54.3890,163.0690,160.1915,55.1441,-18.2308
-804.6875,41.8822,-73.0936,46.7259,-97.1203,-55.5770,-79.2892,-20.3380,-29.1206,-84.2790,77.1743,48.7032,43.2345,-11.3918,61.5184,17.6279,-26.0199,221.8828,43.1434,44.0179,-134.9275
-796.8750,195.0665,-26.9544,134.6846,-51.8981,28.1373,-101.4392,-75.4527,-52.0201,-143.8721,17.1229,27.0074,54.3693,38.0489,142.9013,-77.9179,-85.9642,163.1653,-49.4368,-49.6405,-157.1517
-789.0625,95.7268,13.6257,63.1071,23.7215,29.2454,-61.1012,-100.0008,-49.4480,-176.9981,-53.4733,-116.1809,165.9421,38.9318,397.6049,-111.9962,-46.4549,134.9196,-113.5567,-77.8204,-79.9079
-781.2500,68.5586,55.3400,34.6930,65.4393,34.4560,-52.5801,-73.5353,-78.7128,-168.9509,-82.9192,-144.1590,171.6456,44.9610,435.3295,-29.8967,-38.7928,107.8411,-140.5171,-69.8311,-71.4943
-773.4375,97.6086,-22.7486,63.4848,-46.6818,24.8095,-96.8186,-40.0875,-122.7565,-66.6889,-54.1415,-113.8842,125.5466,72.1606,348.1457,73.4146,27.0842,65.9724,-216.2604,-76.6416,-41.8547
-765.6250,27.8207,-127.6806,-11.5773,-81.6893,94.2436,-132.8541,14.5426,-50.6203,6.7307,55.8032,-186.4014,85.5902,69.4834,415.0135,109.8807,100.1234,-73.7397,-214.8173,-40.2903,-5.0466
-757.8125,-117.4551,-63.1157,-160.1387,-52.2354,52.1188,-61.3487,9.7713,21.0384,41.6655,16.2648,-224.3601,154.1241,28.2965,553.2693,106.8518,97.6678,-147.9344,-113.8571,-43.4135,-43.7325
-750.0000,-76.7115,11.4435,-119.6873,23.1813,125.9564,-93.8064,-18.7459,-49.2841,8.6108,-54.2567,-218.2680,192.6460,67.1051,550.4108,37.8274,64.2175,-177.1124,-177.8802,-108.5234,-2.4175
-742.1875,-59.6542,27.3003,-139.9290,2.8676,140.0481,-111.9263,7.3613,-68.2902,-11.1364,36.5283,-199.8194,134.4588,119.2001,523.7604,18.1163,44.0745,-229.9798,-160.5849,-21.3265,15.2030
-734.3750,-66.3314,-50.5924,-146.9161,-40.2268,130.3474,-117.7575,21.2226,-2.0244,-17.6253,66.5788,-169.0629,88.5154,147.5305,510.2824,-61.3420,37.1825,-271.5857,-167.0387,78.1240,9.0791
-726.5625,-93.0370,-112.5306,-136.9457,-68.4129,211.5509,-70.6018,65.7134,45.2154,-7.1619,39.5932,-158.3000,22.5158,155.8036,439.6654,-14.8457,47.2482,-263.2316,-158.5355,86.5333,-17.0879
-718.7500,-106.4296,-129.1641,-112.6723,-83.3359,161.0057,-43.1110,50.0646,107.7744,18.6136,101.9316,-130.1855,-27.1897,105.3658,422.2600,11.9537,-0.3755,-277.5690,3.2771,37.2498,-100.9505
-710.9375,-70.0073,-57.9970,-72.5901,-14.4889,160.2234,-2.7913,-6.8955,111.1503,-14.8057,215.0877,-125.2139,-26.1016,69.7238,418.5734,-58.4464,-34.1906,-346.0932,-30.0994,-31.2335,-134.0119
-703.1250,-66.1099,-20.3786,-71.0459,22.7718,159.8473,-35.9942,-25.5833,112.9922,-11.7750,216.7024,-84.7285,10.4267,70.5241,413.2681,-130.3974,-32.5556,-342.1555,-61.0125,-27.2644,-94.6242
-695.3125,-56.0914,-11.6759,-98.3894,-3.9058,92.5334,-62.0626,-3.5426,85.9538,108.3663,153.4369,-73.0872,-18.9687,78.4137,415.9995,-120.2380,-59.8162,-262.1066,-156.8201,17.8134,-84.1425
-687.5000,-18.1043,-45.0396,-56.7693,-72.6650,131.1385,-130.1497,58.2593,16.8824,186.4685,84.1227,-67.4429,-53.4271,44.2490,339.6128,31.8818,-18.1215,-224.0997,-222.6677,20.8461,-115.7170
-679.6875,-43.2030,-1.4927,-121.2439,-29.5472,63.6101,-45.3068,8.5371,63.7234,123.4684,167.7130,-128.8461,64.0175,-59.0236,342.0743,41.8995,28.4783,-354.1894,-108.6099,-39.2287,-105.3995
-671.8750,-72.6863,73.6751,-193.1156,80.1544,25.6512,30.1665,-70.3364,102.1778,51.0627,130.9084,-198.5996,173.0715,-95.7057,409.0907,-102.4922,65.6804,-348.6825,-100.9457,-103.7143,6.5138
-664.0625,-97.4608,116.5470,-224.2837,88.5273,-9.6396,36.3627,-92.8580,33.3423,-16.6336,25.8056,-191.5918,249.8210,-18.6881,444.7565,-134.1855,70.5819,-198.4750,-92.5675,-94.4963,86.1221
-656.2500,-126.6201,122.0166,-249.8447,57.4690,-37.3651,50.1803,-58.6236,9.1198,-78.7261,1.3073,-213.9274,186.1630,-10.0666,448.9840,-49.2779,83.0934,-121.6647,-15.5841,-16.6802,-11.6806
-648.4375,-140.3662,106.8983,-224.0004,76.7904,-16.7176,113.4281,-73.2719,71.3119,-89.4292,63.2185,-260.8126,172.9083,-60.0502,466.5769,-22.9722,108.0091,-100.4540,-100.1942,-66.4728,-96.0975
-640.6250,-138.0506,107.8528,-151.0951,77.1455,16.9490,150.7458,-118.3732,107.5627,-162.0879,26.1756,-221.5955,132.7178,-25.9821,496.1693,-60.6170,70.9657,-98.1840,-61.7535,-168.2229,-22.4743
-632.8125,-186.1137,22.4232,-131.5797,-7.9189,-2.8032,98.6738,-77.9160,54.4169,-142.1466,8.7307,-162.7317,114.1296,28.6795,508.3311,-39.6607,53.5198,-6.3068,-73.7099,-77.3791,34.7366
-625.0000,-161.3127,-23.1463,-103.2077,-20.1506,96.2742,19.4775,-15.1789,11.1325,-76.3710,-34.8621,-168.9670,104.3915,94.1898,457.3258,-46.8575,9.9257,19.4163,-49.8060,-16.6995,-45.2196
-617.1875,-159.7506,-23.9535,-60.0820,-20.6435,98.0758,26.0566,-17.4561,53.6137,-33.8653,7.3012,-197.4011,34.4055,97.4464,418.0671,-40.3149,15.0957,-85.1072,21.8470,-51.2916,-149.4435
-609.3750,-146.2698,-11.8427,-47.0521,25.7473,107.7539,40.5570,-62.6242,67.0108,-56.4681,94.3705,-181.8839,45.3271,34.6046,460.7028,-100.8908,28.1722,-106.7349,-34.6045,-108.0021,-135.7899
-601.5625,-163.9287,-65.8671,-30.1650,40.9728,85.2630,21.9230,-49.7293,47.2684,-39.2274,111.2941,-162.4707,23.1101,49.6218,470.1678,-120.6253,45.0966,-54.5220,-52.2081,-55.8719,-118.3071
-593.7500,-121.7234,-95.0248,51.5834,46.0276,53.6130,-4.8497,-32.6663,-17.6173,5.8562,-27.9357,-78.1577,-43.2557,56.4988,397.4755,-74.5149,53.8651,23.5388,-79.9637,-48.9053,-145.9961
-585.9375,18.4958,-97.1611,160.3393,43.0709,84.9436,-4.6041,-65.0664,-18.4967,-32.0839,-29.1695,-2.7915,-46.6154,53.3706,351.8003,-75.4183,15.6278,22.5965,-151.7040,-119.9538,-146.7159
-578.1250,-29.7266,-146.7187,109.6510,63.6676,30.8049,19.2149,-82.3102,41.1859,-45.4999,30.1442,-14.8319,9.5882,0.7867,403.6915,-126.7954,37.9484,-60.8011,-22.8957,-97.4734,-123.9155
-570.3125,-41.1359,-123.4563,23.7696,85.0557,15.4571,-28.1541,-65.6253,29.6734,15.8777,129.2561,-61.0284,32.5991,23.0099,384.3819,-211.3842,26.0699,-37.3997,-69.2959,-4.2030,-135.3451
-562.5000,-14.0774,42.2711,53.3498,109.8808,40.5492,-107.0724,-69.8941,-14.3873,8.6949,84.8129,-28.7264,23.0618,13.6881,369.5314,-219.5307,18.6357,-46.5492,-43.2499,-12.4964,-179.3548
-554.6875,-31.6033,163.4282,33.3359,160.1076,-18.9695,-52.5732,-120.4156,2.9555,-11.1123,-9.2380,-8.9784,74.9408,-8.2338,379.1125,-165.3029,-1.3985,-134.3018,9.1862,-136.4209,-161.9939
-546.8750,-71.8686,157.8684,-13.4198,152.5865,40.7434,13.1908,-96.8829,-6.4426,-57.6966,-56.0483,-89.9364,136.0892,-19.9068,324.9743,-137.8490,25.8193,-139.8095,39.8718,-142.1141,-61.4113
-539.0625,-98.4233,-10.9643,-42.4708,17.7619,8.1398,-51.3346,0.7897,-35.1354,-49.6006,-11.1724,-42.1468,67.9502,23.1200,251.5639,-19.7040,-3.2645,-25.6229,83.2564,41.8770,-53.1618
-531.2500,-36.1128,-54.9210,-11.6622,-27.2134,72.3801,-93.0031,55.2050,-77.9763,17.3184,-17.4478,-45.4628,22.6721,14.9981,201.0410,47.2785,-46.4990,-33.5950,5.4832,69.6913,-96.0954
-523.4375,-76.6977,43.2537,15.2487,-0.0835,95.7082,-64.5613,30.3758,-13.7073,8.3101,-27.6248,-126.6385,121.5137,-34.0176,220.6606,38.3367,-19.6340,-145.4797,-0.1940,-7.4178,-31.9628
-515.6250,-184.7741,73.9611,-100.3414,-5.4464,12.5301,5.3945,52.7654,18.0676,76.7857,3.6925,-164.2738,113.8725,-41.5263,281.8235,-4.1258,-25.2768,-218.8808,66.6133,93.9492,-0.3685
-507.8125,-203.7931,-15.2445,-115.8835,-25.7516,68.3997,-7.5881,126.5038,3.8968,208.2932,-47.9552,-66.8204,-12.6983,52.0174,260.0867,18.4431,-39.8750,-202.2571,-21.5312,181.3366,-88.7608
-500.0000,-96.4653,-85.0655,-3.0775,-61.7008,140.6148,-77.2133,109.2611,6.0801,248.1280,-82.2606,12.0136,-12.9054,89.9179,181.7548,20.3430,-74.1244,-201.3010,-90.3278,77.0515,-122.8368
-492.1875,-72.2862,-62.0144,-17.4256,31.2014,85.6816,-90.9809,33.2902,-44.8818,196.7869,-23.7227,36.7293,43.7492,72.6769,233.3369,-30.9179,-15.5166,-177.5084,-137.2835,-5.4097,-64.1039
-484.3750,-54.4972,-116.3390,-0.1768,10.7074,99.3488,-145.1406,63.3969,-64.2382,140.0280,-6.5950,57.0810,-13.9863,52.0420,206.5841,23.4029,1.6840,-54.1326,-119.6406,46.7029,-46.8196
-476.5625,-86.1493,-149.0777,4.6259,-93.2245,136.5742,-139.7442,97.1176,-59.0405,107.7956,34.0710,28.0174,-85.1544,90.9586,167.4456,64.2425,-30.5736,-86.2174,-45.4576,85.3342,-79.0317
-468.7500,-83.5898,-112.5764,4.6353,-57.9399,170.0077,-64.1511,57.0875,15.3560,34.7378,-39.0723,-41.8093,-124.1057,89.0837,234.5664,-8.7430,6.3594,-120.1177,26.9178,16.1327,-42.0846
-460.9375,-58.7246,-87.7362,27.9449,-33.3430,153.7368,-2.2607,7.4496,76.0484,-53.0520,-124.9277,-15.2983,-137.7341,111.5153,288.0596,-22.4488,-7.4080,-128.7324,52.5868,-64.8006,18.1224
-453.1250,-60.8040,-124.8066,25.3048,-3.6756,110.5161,-3.3199,6.7345,36.7940,-55.8170,-55.7383,-14.7041,-142.2970,32.9994,241.6861,-25.1374,63.8736,-97.3050,85.2911,-32.7169,15.3306
-445.3125,-94.4659,-91.4389,-7.9221,30.4076,109.6984,-34.9779,-1.4737,3.9399,21.7974,57.8353,-81.6681,-68.4501,-2.1121,238.7854,-21.4500,140.5403,-61.4921,50.3815,-67.2729,-55.1130
-437.5000,-133.2660,9.8234,-47.2961,94.3636,30.7319,-35.7805,-36.3617,-35.0629,18.2188,-17.7523,-80.7476,0.2779,-6.3755,376.8163,13.0564,101.0548,-100.8534,11.3170,-107.0284,-94.7464
-429.6875,-87.9653,55.2425,-40.5750,103.4439,70.8719,-100.4901,18.4707,-100.9689,62.6931,-121.2476,-33.6930,43.1412,-38.5249,304.0318,19.6317,-2.3331,-91.1316,-83.6602,-26.7223,-14.3202
-421.8750,-96.1576,46.1993,-51.3476,93.0447,130.5109,-145.7078,87.4512,-110.3829,124.6384,-131.2634,-41.0980,30.5200,-51.1609,175.8307,8.6860,-13.2281,-99.9171,-57.1553,69.0619,11.5526
-414.0625,-185.6837,59.8430,-108.4586,105.3194,31.8132,-92.2747,69.6102,-95.1494,177.2100,-116.6560,-58.8192,80.5628,-74.1434,259.3716,-12.6407,-34.4826,-86.0698,-43.0206,82.4570,-9.9768
-406.2500,-102.5565,37.1878,-55.9215,81.2785,80.7700,-75.1900,47.5338,-116.2673,119.3935,-174.4159,-1.8671,58.2833,14.5219,268.6630,3.6450,-92.0950,-2.5951,-135.2357,24.4608,-67.8993
-398.4375,-20.6229,-21.6201,29.4206,-14.9423,88.5353,-62.3242,44.3068,-67.6028,56.3496,-163.3982,49.9227,30.8314,24.0039,163.8337,14.7039,-80.9200,-26.3219,-123.6738,35.2408,-57.0701
-390.6250,-45.7101,23.5526,35.7379,-6.2057,92.2841,-53.5345,-17.3586,12.9869,-47.7675,-47.4638,22.7079,36.3426,-45.5391,128.0336,-52.3097,36.1896,-52.1110,-148.1957,-26.0567,22.6574
-382.8125,-78.1357,-10.5883,-1.2880,29.2022,14.6908,-15.1011,-42.5619,50.2262,-83.2687,26.1036,26.1734,-2.4814,-82.4289,231.9937,-51.6991,72.9502,-50.2836,-76.0742,-24.7492,58.9878
-375.0000,-114.9661,-83.0716,-1.7324,25.2454,10.6968,58.9391,-25.8508,50.0701,-49.1987,62.2673,29.2551,-78.6805,-85.7330,262.6719,-17.5241,35.3209,-52.8915,-43.3652,-27.8779,20.8687
-367.1875,-99.3399,-138.0463,-23.7287,3.7680,59.1652,75.4202,18.9407,65.3612,39.2926,76.8617,10.8109,-101.4001,-72.5887,160.9015,-2.9306,13.1327,-73.0766,-28.2224,-13.5926,35.1465
-359.3750,-83.2015,-122.4602,-8.2217,-52.1736,34.1442,-17.6068,44.5299,7.1467,54.2449,91.9380,29.8954,-123.5886,-22.9407,97.7476,-23.8790,-7.5671,12.2090,22.3911,72.1434,49.8802
-351.5625,-64.7569,-138.5225,87.5826,-69.7732,89.4285,-104.3409,72.7169,-80.7762,75.4597,-34.7063,129.3096,-177.4520,71.0127,40.0137,33.4360,-59.9768,100.7816,5.2841,54.1425,-3.1330
-343.7500,-17.3997,-128.6446,136.2951,8.5578,134.6258,-91.1949,31.4414,-104.8160,13.5398,-132.4799,144.6637,-167.3985,80.8748,10.2738,45.6253,-11.5013,76.2471,87.0700,-76.9854,-28.3054
-335.9375,-37.6206,-79.3129,115.4179,57.3224,110.2390,-0.6633,-34.5895,-52.4631,-82.0243,-189.8691,164.4472,-153.9218,95.1360,57.0359,-49.8131,4.3656,20.0926,207.2322,-133.7646,-50.1350
-328.1250,-58.1394,5.7684,57.2414,104.8205,122.5631,53.5634,-100.2441,-36.4158,-176.9343,-102.5608,183.9502,-65.7313,72.0948,178.6193,-108.5851,-17.0745,33.6170,115.0878,-190.8776,-72.3119
-320.3125,-75.3602,58.1880,1.3617,155.6485,136.1946,35.0881,-85.3029,-56.0706,-160.5750,-122.9632,130.7757,-13.2266,50.3625,263.6212,-92.0871,-37.2255,15.4232,62.2248,-174.7217,-56.2480
-312.5000,-79.5760,53.6609,-3.5137,185.5181,90.8455,31.6060,-53.9761,-97.7323,-93.2508,-164.3850,56.6188,-19.6966,43.6348,253.7424,-23.6274,-42.3804,45.2071,-12.6611,-145.6157,-62.2436
-304.6875,-41.8889,91.0924,-3.4879,221.3348,161.4092,-3.9902,-51.6778,-60.5002,-130.0648,-200.9291,23.3837,15.7638,78.8126,101.8773,12.6989,-78.6462,81.8700,-46.6685,-214.6545,-26.3898
-296.8750,-88.9881,185.7715,-52.2572,243.3806,109.1938,-14.4090,-72.0801,-108.0865,-178.7132,-213.2998,52.3927,112.4386,139.2034,48.3230,0.1954,-54.7309,69.7230,12.4949,-191.5272,-39.3868
-289.0625,-43.8177,264.7436,-4.7653,320.7050,42.2445,-39.5905,-146.3121,-134.4310,-170.1476,-203.4485,103.6891,194.3769,73.8440,165.1368,-64.0857,-7.5782,7.7996,-85.1038,-255.1964,-67.1860
-281.2500,-46.6942,262.7184,25.6744,317.0180,-3.7517,-7.8330,-154.1380,-66.8321,-176.6697,-100.6733,63.9629,150.2885,-7.5637,228.0178,-34.4462,22.5214,-101.1942,-86.7664,-258.9561,-1.0851
-273.4375,-172.7560,170.5538,-71.0837,259.1746,-67.9282,43.7020,-85.3900,-53.4511,-164.4290,-88.1275,81.0636,88.0316,40.8386,199.8171,51.9530,72.4107,-53.4005,-73.6609,-106.9593,10.7628
-265.6250,-135.1053,138.1516,-63.1381,224.0803,-26.3909,52.9235,-103.5966,-8.3866,-158.5276,-80.9173,129.8843,95.5036,46.9406,240.4444,22.0250,42.9794,-51.9361,-72.8749,-141.3045,-129.7406
-257.8125,-58.9148,215.3499,-54.6510,264.5811,-57.2978,63.6841,-168.2238,37.2183,-187.1084,-36.1741,180.2620,102.5499,17.5917,244.7569,-43.3772,15.0884,-151.9477,-67.5476,-207.1418,-195.7417
-250.0000,-44.4321,158.8937,-43.8735,241.4260,-13.8921,38.7399,-152.9412,11.1274,-141.4264,9.8661,156.9526,74.9229,25.5482,251.4958,-70.5200,61.4978,-174.6829,-159.9274,-195.7265,-113.4995
-242.1875,-12.0396,121.3821,-86.1909,131.2106,14.4296,-2.3223,-99.0934,-31.0723,-110.8825,4.7865,192.5659,31.2137,-17.5834,279.2447,-2.7966,92.7985,-143.5313,-93.4300,-130.4478,-83.4141
-234.3750,30.4227,162.9715,-113.4470,102.0839,-53.1685,44.6345,-135.9029,-21.2439,-139.3201,-24.2720,243.2460,2.5711,-47.6584,284.1488,-105.0504,65.1353,-67.3369,-51.9139,-90.1534,-149.3366
-226.5625,214.7511,242.4728,-28.8456,73.8541,29.1062,-16.5782,-97.3334,-47.5835,-128.9466,-123.5092,368.7885,-61.2049,-0.8924,145.0311,-94.4812,-70.6993,-24.3140,-114.5603,-48.0463,-213.4623
-218.7500,358.9890,316.9334,50.6604,40.5723,-5.6993,-82.9059,-102.7489,-151.0364,-124.7107,-191.8779,525.2396,-93.0557,2.7618,73.9386,-53.0419,-138.6547,12.5960,-77.3292,-47.0752,-282.7360
-210.9375,473.7875,572.9965,101.7217,153.8821,-105.9298,-67.7017,-268.5687,-137.9518,-222.9650,-142.7192,580.2535,29.6655,-96.0293,157.5181,-188.0886,-163.0680,-13.9632,-138.5695,-215.5961,-381.5098
-203.1250,653.9849,823.5149,181.1839,191.6367,-139.7476,-97.1088,-399.5351,-168.4689,-328.8636,-211.1762,736.6791,144.8116,-165.4051,196.6182,-293.7798,-194.0863,-12.1494,-171.4248,-355.7560,-450.9379
-195.3125,814.2980,913.1833,276.7534,139.5241,-194.4421,-147.4366,-444.2436,-219.9010,-381.6998,-263.5578,873.2214,128.0735,-144.6709,31.9255,-309.3929,-209.0188,41.7515,-188.2067,-373.8513,-504.3129
-187.5000,931.4735,960.7551,326.1761,114.2906,-148.2634,-207.9394,-453.2483,-244.5020,-370.7270,-252.1103,926.6261,102.2086,-134.0849,-69.8027,-335.1819,-234.1195,86.4895,-248.1396,-400.1320,-530.8846
-179.6875,966.7955,926.5364,363.7360,113.2577,-186.9197,-242.3062,-434.6945,-242.9573,-333.6454,-178.5228,932.1801,65.5237,-171.3479,-34.2564,-334.8662,-270.0775,120.3492,-283.9099,-331.3061,-568.3643
-171.8750,876.2722,941.5347,342.4417,197.4367,-248.4102,-115.5251,-462.3464,-154.2627,-319.4537,-126.7947,877.8872,80.0113,-268.4745,51.5602,-357.4485,-254.8922,63.3353,-305.5431,-354.3795,-591.7504
-164.0625,770.0222,906.8312,304.4158,265.9024,-252.6241,-5.5091,-447.6733,-81.3385,-359.0293,-202.8613,806.8652,77.7471,-197.3734,84.7106,-322.7904,-256.4723,26.5639,-201.9679,-357.2362,-594.9082
-156.2500,699.1967,870.5511,301.8089,228.7804,-185.4066,-81.1379,-341.3599,-196.0491,-217.2209,-464.5676,808.2676,72.8747,-128.8623,41.3375,-253.7449,-334.6747,59.2049,-133.0249,-290.7019,-563.6749
-148.4375,644.2787,852.2034,311.1035,277.5790,-105.2671,-106.8975,-355.8767,-259.8804,-282.5377,-493.3760,748.5770,81.9002,-121.4278,85.9658,-245.8324,-287.9852,37.7406,-119.1796,-383.2870,-445.5862
-140.6250,555.7631,870.3123,212.7964,399.8238,-206.7129,-20.2645,-439.4449,-137.3166,-491.4904,-297.8018,617.2845,129.3394,-184.5892,132.0946,-271.5482,-202.8998,18.6559,3.0634,-438.5099,-325.1603
-132.8125,427.8062,777.0294,151.0470,375.6666,-271.5842,-8.0949,-450.4383,-52.2215,-518.9266,-66.7122,558.5455,103.3517,-138.1949,140.8822,-335.7323,-119.2861,29.1073,13.8308,-359.2250,-316.2326
-125.0000,407.5551,687.4902,131.9983,284.2433,-220.7305,-26.2538,-389.6877,1.5557,-356.6949,97.0516,470.5135,119.0797,-196.0943,82.4896,-319.2375,-101.9932,43.2425,-42.7151,-311.2658,-374.6472
-117.1875,350.7475,631.4427,176.3915,261.3098,-215.4030,-17.9731,-315.2523,-27.2208,-203.0422,-6.7498,334.9212,126.2833,-263.5388,14.6635,-239.3300,-131.2530,19.7996,-65.8216,-300.8903,-258.6547
-109.3750,249.1823,566.7037,170.0211,264.6753,-151.8036,-58.4469,-256.5724,-105.7492,-284.1851,-271.3181,259.5623,118.7756,-196.7265,80.2081,-172.2146,-64.2675,163.5780,-27.6826,-263.3101,-46.4479
-101.5625,169.9153,417.3167,122.9437,254.3843,-200.8874,4.3577,-254.3851,-43.9963,-332.0622,-245.6158,216.5041,107.6009,-172.6088,178.1588,-146.8226,-2.0033,187.6490,137.7468,-240.4501,-58.9849
-93.7500,78.7153,362.0126,67.9297,267.1753,-259.8802,134.1763,-241.4273,121.7773,-278.9067,-8.8953,54.5006,51.4940,-193.4233,158.2570,-204.3987,16.2790,23.7668,186.2024,-158.5629,-153.5251
-85.9375,-15.2267,234.0043,6.1766,208.2540,-177.5886,146.2183,-110.3359,169.7852,-123.5317,112.0492,-76.2629,-12.3398,-146.9764,57.7101,-158.7483,-47.2070,-0.8880,161.8943,-9.4715,-144.8541
-78.1250,-80.2762,99.9437,9.3176,142.2691,-66.3717,77.1402,12.8098,135.6799,-11.2996,39.8783,-142.1423,-46.2448,-34.6236,-14.8199,-46.2299,-117.7933,3.3418,166.4794,64.4818,-107.3066
-70.3125,-138.9762,77.2759,-21.1974,187.6735,-25.7760,84.3922,6.4588,142.9151,-80.7479,9.0309,-241.6732,-40.7869,-66.9148,27.1111,-4.3813,-38.0493,12.9101,175.4002,1.7589,-29.4396
-62.5000,-227.8227,58.4891,-114.8635,202.9597,-87.3082,137.4710,29.9156,193.9842,-30.3672,-13.9843,-296.3515,-26.4734,-126.3535,77.9861,9.3029,-23.4741,27.3177,261.1610,49.8682,-16.7625
-54.6875,-280.6079,-28.2132,-166.4761,114.3274,-67.7600,123.5776,84.1976,142.0878,63.0479,7.0455,-270.9854,-42.0997,-69.7385,24.9962,30.0161,-2.8628,42.7656,241.9444,134.9999,-108.0811
-46.8750,-151.9326,-108.4287,-72.6320,31.1758,98.2678,109.1077,87.7294,90.6294,45.8856,63.5122,-245.1800,-95.2551,23.3408,-28.4496,50.1471,-18.8159,-6.3534,87.1689,48.5510,-88.9868
-39.0625,-119.5091,-215.8522,-9.0370,-7.1859,121.0654,99.3748,114.5432,78.9148,-39.5590,-58.2898,-288.6383,-106.6422,10.1671,106.9482,146.9987,-67.0315,24.2638,83.1335,42.8282,80.8312
-31.2500,-169.9842,-194.1500,-66.3492,82.5839,-12.0174,152.7209,55.2351,168.2936,-98.9237,-117.0101,-306.0036,-17.9191,-47.9098,195.5412,88.9368,-88.1519,112.9748,102.1773,26.1897,167.7238
-23.4375,-212.6621,-165.6234,-71.8648,109.1841,-57.2769,111.8459,32.3731,89.4543,-32.5079,23.0513,-306.5731,48.6213,-18.1784,79.0266,8.6581,89.5150,103.4722,163.0077,49.3249,86.3882
-15.6250,-176.2860,-198.0053,-34.3266,39.8709,13.5364,38.9956,101.1994,-20.3497,74.9270,95.1445,-265.1021,11.2318,16.6107,-104.3523,43.4049,89.2225,33.0136,92.8710,118.4769,84.0751
-7.8125,-119.7521,-246.1968,-53.6344,-115.2600,101.5228,-53.7295,152.5448,-3.0180,126.4864,75.3704,-281.4913,-7.9874,69.5502,-88.5013,96.2825,32.0673,17.6995,7.8752,135.7583,171.8823
-4000.0000,80.5915,-28.4952,-5.2618,-165.8005,39.2718,-51.6675,78.9493,-7.8587,77.8051,10.1974,-195.8297,92.5784,18.2785,-140.7077,11.9903,-35.9479,59.1825,-22.2072,110.7150,87.8384
-3992.1875,55.7392,17.3920,9.6402,-83.9022,-17.1237,-36.8750,136.0591,-28.7088,169.0894,-46.3707,-223.0266,36.2844,-74.2748,-159.3240,100.5412,-56.8811,141.3791,-150.3829,194.5510,32.2962
-3984.3750,81.7300,8.1621,107.4540,-92.0092,84.4510,-123.1449,208.5150,-149.6058,269.3247,-128.9626,-165.3326,-9.0761,-83.8535,-201.8371,201.0525,-140.8484,134.4980,-263.6073,189.3354,97.7239
-3976.5625,32.4712,28.7306,53.0804,-140.2091,33.8920,-103.5802,139.3450,-129.6531,180.4069,-107.6783,-112.8456,49.4085,-25.5576,-141.3507,112.4170,-156.9646,53.4320,-169.9653,143.9603,194.0132
-3968.7500,23.0119,54.1729,7.5717,-113.4409,28.2469,-75.1366,100.2274,-136.8028,102.3800,-76.4743,-15.5120,7.7973,5.6608,-70.8169,-4.3214,-164.1741,116.2331,-142.4227,173.4586,189.2231
-3960.9375,13.4072,44.5308,41.9798,-156.6661,27.5705,-114.7699,114.6610,-137.0036,64.2834,32.7041,51.7251,-28.8663,4.8569,-179.1847,-5.1113,-165.4177,178.9604,-8.9313,238.8885,43.4082
-3953.1250,-7.9938,-11.8650,27.6620,-212.5424,53.2077,-166.1270,170.3689,-113.9022,163.4734,132.2056,-3.7834,-78.2454,-79.6168,-225.1052,128.4038,-69.3382,123.9590,-29.1386,256.6089,-114.0947
-3945.3125,2.9636,35.1443,74.7691,-163.9110,139.3082,-156.0497,116.9997,-176.3487,138.1036,-39.8204,38.1069,44.8173,-67.6181,-136.4173,140.3665,-93.7932,32.3756,-84.9016,60.7585,-27.1324
-3937.5000,-20.9187,116.3649,46.0994,-114.9691,76.6688,-148.7401,-17.9540,-166.5455,-108.0289,-211.5768,152.2071,166.1230,53.6542,97.6605,40.5897,-120.9967,47.0118,-1.4073,-63.8581,95.0998
-3929.6875,-77.8002,129.6412,-13.5038,-99.8719,57.1398,-134.3472,-67.7894,-113.6419,-238.0619,-120.2058,199.3621,183.5100,108.0467,191.9740,19.9241,-105.0864,27.7186,-20.8083,-81.3797,113.4517
-3921.8750,-67.7414,34.9131,36.8991,-157.6611,110.6710,-193.9162,18.3388,-172.6797,-112.0417,-140.7461,245.5047,53.9319,124.5013,137.4958,71.3123,-127.1002,40.4388,-43.1579,3.1397,93.8690
-3914.0625,-69.1928,-107.2617,75.8612,-263.7826,152.7992,-264.8817,94.8698,-279.1019,39.5733,-172.6564,280.2014,21.9453,93.5705,219.7745,186.2919,-159.4927,75.7253,-112.9067,41.2375,26.9003
-3906.2500,-47.1820,-119.9181,101.3480,-344.2859,181.4846,-276.3055,106.3378,-251.9745,104.7163,-144.0039,227.4153,13.5029,85.2109,398.7465,212.8157,-169.3260,-3.4574,-228.1127,32.8625,19.4939
-3898.4375,-149.0027,-186.3570,-1.9379,-372.4759,118.4323,-232.4970,62.9749,-132.5957,78.0965,-24.0796,157.8463,23.2943,59.1201,671.0967,149.5892,-123.9063,-67.4187,-221.0592,41.7267,-5.6570
-3890.6250,-239.6232,-170.5352,-90.9542,-284.3060,69.6873,-174.3986,1.4243,-36.9086,28.7785,111.1806,27.5305,48.3607,46.3429,919.8806,62.6577,-101.1728,-85.1089,-308.7041,25.8901,-90.5040
-3882.8125,-297.1925,-192.6093,-113.8543,-198.9143,124.1064,-160.1600,-28.0335,-94.0591,-28.3960,55.6143,-36.6728,65.5589,100.7323,1198.9502,78.8784,-49.2797,-103.6743,-364.1974,-61.8165,-72.1946
-3875.0000,-338.8574,-234.7147,-91.7857,-131.4516,75.5331,-173.9250,-141.4470,-180.1995,-149.5946,-28.9429,-55.9094,127.7516,163.1357,1559.1515,30.1031,12.6287,-213.2698,-332.6680,-239.5564,138.1261
-3867.1875,-529.1667,-282.3923,-288.2932,-36.4778,-80.5826,-150.2579,-212.3792,-117.8904,-234.3557,180.9702,-183.7228,264.3853,44.0109,1994.9102,18.7785,148.0031,-259.4372,-166.6834,-247.8612,165.9039
-3859.3750,-782.0560,-358.6187,-468.3203,65.0409,-110.1775,-109.1181,-212.2832,-2.0841,-263.6198,263.4088,-330.0586,309.4844,87.4132,2411.2749,-12.0359,153.8874,-333.1243,-65.1956,-178.6648,-45.8140
-3851.5625,-862.2905,-439.1446,-402.6299,199.3677,105.9876,-43.2225,-185.4570,-8.5096,-232.1431,184.6238,-416.6823,304.2996,303.5822,2300.5266,-91.1040,111.5372,-481.0975,-211.9451,-254.7342,-49.7733
-3843.7500,-997.8254,-642.9069,-436.1820,279.5692,296.9518,-76.5114,-102.1410,-39.1153,-262.8865,227.6659,-564.5447,236.9044,457.5605,2310.7214,-48.3787,153.0072,-506.3018,-166.8876,-243.0260,68.0764
-3835.9375,-1165.2965,-845.5563,-462.6120,361.9826,311.0742,-102.6589,-29.5015,-26.5683,-175.4903,352.8746,-669.2758,139.6431,471.7075,2219.1868,1.4958,239.6304,-565.3741,-13.6715,-194.1743,83.0707
-3828.1250,-1263.2437,-942.6329,-525.4565,514.0557,325.8094,-55.2251,-28.0717,95.5786,-88.4957,514.6965,-809.4262,116.9622,449.4697,2127.3591,-59.0258,399.8614,-624.8700,-37.8564,-216.7392,61.6595
-3820.3125,-1405.3137,-907.7844,-599.3672,693.1516,291.4961,92.1532,-56.0142,244.6763,-159.5676,591.4661,-924.6461,119.2123,415.1935,2098.6025,-94.5924,438.0547,-728.4376,33.9205,-248.3811,102.2046
-3812.5000,-1452.4255,-918.9026,-614.2523,791.3765,281.2280,114.5868,-31.2795,231.8312,-208.6114,433.2922,-906.8352,72.4953,441.9848,2092.0237,3.8788,425.3088,-700.9816,-8.2343,-254.0018,202.8033
-3804.6875,-1473.5654,-1008.9902,-671.1111,809.7307,374.0124,58.0608,40.7414,177.0314,-189.6276,379.1776,-857.9827,-55.1776,461.8465,2080.6084,59.3992,443.6274,-648.4980,44.6567,-199.6020,223.4509
-3796.8750,-1491.6222,-1060.9547,-648.8289,866.3018,400.9504,43.6660,49.3795,164.3748,-237.5107,443.2161,-802.9808,-176.7164,451.8726,1964.4442,48.0821,469.1006,-556.8806,66.7071,-177.0767,177.2444
-3789.0625,-1455.3524,-988.5382,-571.1594,978.3427,334.2831,84.6601,-62.8852,207.1188,-341.0036,634.6594,-803.5887,-242.8721,311.2995,1902.7854,-19.8306,621.9853,-516.8754,36.1589,-310.1729,185.4359
-3781.2500,-1423.1049,-780.0903,-609.4564,1049.5065,226.6663,120.7002,-128.4968,281.9157,-376.4655,710.1593,-846.1597,-203.9962,240.7914,1837.2843,-91.6980,659.9341,-551.8331,176.6689,-344.2458,188.6734
-3773.4375,-1339.4794,-659.2109,-589.3164,1069.1949,102.5052,104.1927,-115.1984,267.1676,-243.4984,550.1131,-793.2811,-218.6911,263.7569,1718.3289,-70.1183,497.3370,-499.3623,230.6387,-323.9054,139.3498
-3765.6250,-1180.0262,-604.4433,-527.2910,1091.8634,132.2473,55.5823,-95.7651,220.3265,-141.6546,542.9713,-698.5027,-300.4977,182.6360,1605.3665,-78.6400,341.6494,-442.0140,217.5097,-335.7001,58.9199
-3757.8125,-1069.6272,-527.6790,-478.2721,1032.6089,0.9910,67.9616,-212.1593,272.4796,-199.8273,779.8167,-616.7109,-321.3168,52.5233,1443.4974,-211.1598,429.9626,-397.6919,333.3812,-395.5200,-34.5182
-3750.0000,-923.9952,-380.6220,-359.9683,1077.7242,-61.9745,112.6357,-330.9656,281.9286,-299.7039,716.9611,-540.6134,-310.8592,26.7153,1423.0272,-348.3845,476.5814,-354.0944,201.5587,-490.0527,-22.6603
-3742.1875,-759.5771,-284.7280,-224.8363,1001.7631,3.9005,138.1599,-303.0013,162.2313,-382.7376,193.9695,-408.6572,-355.5709,129.7618,1420.4904,-246.7637,357.0676,-219.6668,230.5998,-530.7593,44.0352
-3734.3750,-670.5153,-264.1516,-163.0157,849.5774,32.4668,52.3941,-232.7378,41.2392,-355.1002,148.6728,-314.9882,-438.6007,157.5175,1344.7386,-146.4460,236.2688,-197.5570,218.3601,-435.7997,-0.5850
-3726.5625,-539.7546,-167.8391,-134.4495,810.2151,65.7796,45.3796,-265.5462,109.9968,-322.7359,293.1144,-326.5518,-442.9006,44.0298,1309.8206,-261.3757,121.2211,-238.7085,247.8735,-475.1147,-3.4663
-3718.7500,-458.7928,-14.2813,-120.6363,792.1725,-64.6576,59.6094,-359.5110,89.0001,-564.1371,89.8010,-169.8451,-315.9748,24.8020,1259.2281,-356.0565,100.4167,-118.6237,439.6479,-458.2042,14.8907
-3710.9375,-315.3372,-46.1718,-3.2855,694.7576,-89.5560,31.3929,-335.7509,-48.4382,-590.0145,101.0403,-18.5762,-341.5110,0.1188,1166.2662,-308.1993,147.1715,-78.0085,305.9884,-344.7711,-46.2143
-3703.1250,-248.6855,-152.8129,35.3001,486.6700,-84.2125,-3.5731,-253.5016,29.3779,-328.6604,253.5313,15.9613,-447.8129,5.6793,993.6348,-268.1004,114.1891,-112.1550,272.5875,-272.1120,-77.0899
-3695.3125,-324.3249,-85.7077,-6.3639,452.4007,-158.1208,102.2073,-263.1127,99.9360,-293.5682,289.7566,-66.7152,-376.3897,4.0012,740.8171,-270.2531,111.9488,-182.5596,412.9445,-305.7282,-4.2420
-3687.5000,-349.2997,-3.9018,-66.3197,468.8946,-105.3251,78.6832,-201.0541,151.1884,-314.7890,232.6712,-94.6663,-360.2929,-15.9676,616.7499,-218.7050,90.4144,-63.2799,358.0012,-219.6744,13.2883
-3679.6875,-266.9715,-60.7541,-47.9350,381.8053,-82.1870,62.5173,-92.4376,136.8008,-182.6725,145.9403,-5.2507,-373.8724,-65.5851,389.0905,-159.8097,39.2438,-11.6608,374.4229,-61.2890,-72.8495
-3671.8750,-293.8413,-15.7594,-32.7123,361.6282,-63.2065,77.2109,-73.4862,190.2701,-54.7141,275.0556,-31.9694,-355.6282,-120.3556,229.3352,-143.0630,55.9294,-140.2089,317.7139,-82.0719,-127.1639
-3664.0625,-378.6484,77.3414,-154.3927,389.6243,-145.1268,140.0106,-141.1701,328.8420,-100.6758,561.2501,-83.5666,-217.3068,-128.0222,154.7331,-189.2190,83.7206,-254.6731,379.1138,-125.7912,-134.3945
-3656.2500,-353.9417,139.0023,-125.5233,350.2412,-148.5039,170.3614,-107.1552,286.9608,-68.1171,263.9669,88.4199,-185.4565,-57.1455,46.7320,-156.8257,-67.9349,-226.5931,409.0935,-94.9875,-137.0862
-3648.4375,-132.4190,81.5166,34.1927,262.7774,-59.0508,108.5669,-39.4243,116.9297,-16.7194,-271.4686,243.2958,-243.7857,-4.4230,-41.3850,-68.5879,-16.7341,-70.6650,283.9341,-78.3468,-83.9484
-3640.6250,-75.6247,69.3349,23.2100,255.6773,-66.3025,135.0779,-45.0207,182.2023,-25.0325,-95.5996,155.5096,-288.8409,-85.4017,-79.1766,-114.0596,47.7687,-116.4388,345.0887,-51.4232,-90.5477
-3632.8125,-179.7056,73.3238,-80.6122,229.7980,-129.4132,179.7528,-19.5785,264.6328,20.7859,209.3999,47.9177,-278.7724,-148.2322,-207.7935,-67.3910,94.4153,-109.0744,247.4116,27.6185,-116.0352
-3625.0000,-81.5020,103.6268,-10.1242,194.2801,-19.2234,102.7291,107.2014,189.3578,203.8844,99.6808,77.6747,-316.4278,-110.7591,-459.0961,41.5740,-90.6388,-41.4145,140.0371,96.9315,-115.2443
-3617.1875,-29.6591,87.5975,48.0193,113.4744,-30.3972,88.3553,149.2980,140.7289,302.6185,-58.4060,206.1310,-291.4598,-84.6470,-610.7257,66.1869,-249.0421,-55.1174,268.3361,119.8600,-125.8203
-3609.3750,-42.4416,216.9879,-33.4419,178.1416,-35.1964,190.4019,91.8649,207.5082,222.7349,9.8849,157.0277,-188.1100,-89.1580,-682.9210,-50.8136,-183.0251,-99.4320,225.0556,112.1582,-167.0173
-3601.5625,59.4552,216.0977,4.7920,111.5791,44.6891,156.1646,116.5790,174.9986,153.5328,-58.1328,228.6699,-183.0795,-9.9747,-817.4031,-9.1170,-178.3006,-27.0517,86.4830,151.1320,-197.5490
-3593.7500,268.0926,144.9795,184.7926,-24.1782,117.3174,41.6874,113.7155,62.2432,115.0553,-168.4171,442.1182,-183.3214,25.9649,-959.1416,62.3312,-252.8377,-60.9249,-51.3343,83.8288,-87.3694
-3585.9375,213.6802,127.8378,158.7633,-34.9325,20.8985,53.1615,47.9090,38.4330,91.5046,-116.7821,449.5774,-59.6372,-31.1413,-863.9390,112.7258,-129.4307,-145.8478,-30.2010,-35.5523,111.7346
-3578.1250,78.2197,100.6724,60.7003,-57.6718,-182.5850,66.5939,71.8313,53.5661,106.8913,-137.2186,422.0446,-81.0284,-52.3149,-804.7899,91.0573,-77.0737,75.1826,156.9000,151.9950,54.7567
-3570.3125,191.9515,110.7295,147.8417,-7.1452,-165.9001,80.2454,62.2266,68.9107,121.4641,-194.4516,467.7666,-65.2463,-72.3159,-818.4468,32.5783,-98.5066,122.4157,-4.7826,166.7229,34.9370
-3562.5000,196.1394,153.2644,156.4541,5.8963,-152.7782,90.3668,76.4868,43.7130,133.4733,-218.2510,436.9994,-54.0450,-22.8836,-798.6723,44.5382,-160.4954,96.1062,4.9864,176.8744,11.5244
-3554.6875,72.5955,172.0759,105.3472,-40.7663,-128.4189,38.7517,91.4677,30.7621,120.7117,-155.8523,381.5535,-30.6201,39.7973,-803.6666,104.7377,-136.2401,12.0523,62.0231,164.2395,0.3301
-3546.8750,27.0701,199.9236,25.2647,-77.3761,-21.0763,-3.8452,164.0966,-10.1920,190.9299,-121.5026,409.1733,-34.2136,74.4610,-909.6806,211.9345,-103.9829,-27.9978,-46.9290,195.5692,-1.8845
-3539.0625,91.5017,125.7481,61.1430,-145.9846,18.1884,-78.4764,237.3595,-83.1948,265.0826,-120.2216,441.8156,-105.8825,76.0612,-974.7684,286.0755,-175.7698,39.9106,-12.9122,265.8286,-36.1812
-3531.2500,233.8503,164.5080,210.9414,-66.6396,61.3289,-1.1946,186.0635,-114.2997,197.1240,-518.0591,515.4328,-63.6801,83.5438,-962.0034,255.1107,-244.6622,151.7283,-146.9802,131.9679,7.3743
-3523.4375,356.7806,254.8546,302.3222,-39.6851,82.0138,-19.3540,167.9450,-277.8614,69.7082,-828.3865,603.6763,-5.9571,141.5612,-1007.7458,237.6977,-261.0190,314.1062,-123.5054,119.6300,102.4420
-3515.6250,390.8370,256.3344,379.8233,-103.5885,15.7797,-124.4054,161.2681,-345.3274,76.3719,-710.6519,678.0888,-0.1573,112.6613,-1104.4325,244.3887,-291.2844,388.5981,-117.9053,159.3755,73.5814
-3507.8125,422.7103,325.6514,348.1450,-64.6453,-86.6744,-156.6336,89.1548,-264.9912,156.8148,-408.1417,679.3710,6.4187,10.5386,-1089.3608,214.8712,-210.7444,318.8961,-221.4884,91.9035,-28.5205
-3500.0000,403.9161,450.3008,297.7866,30.6331,-170.8468,-22.5360,3.8422,-167.3466,108.5467,-381.3546,626.0309,68.2572,-110.2939,-1020.0341,129.6393,-185.9049,269.4989,-129.7532,7.7123,-75.3742
-3492.1875,397.8066,516.6288,293.1090,102.6053,-244.3891,83.2327,-100.5068,-96.0491,-41.0798,-382.9508,619.4222,139.7185,-183.4922,-941.1232,90.0490,-78.4176,231.7562,-166.3503,-97.8562,-39.6205
-3484.3750,399.8319,521.1063,261.5600,77.7202,-235.8477,52.1155,-92.9343,-125.6522,-70.6217,-300.4805,621.9891,147.2608,-174.6184,-889.1794,97.5546,-70.8327,274.1272,-193.8364,-55.3508,-30.7979
-3476.5625,406.4852,460.2250,275.6270,-12.5220,-219.7320,-43.3730,4.4021,-183.6496,92.4196,-321.4461,559.2278,89.3785,-122.1672,-939.6931,150.6464,-128.6522,250.1109,-181.6910,62.7420,-87.4163
-3468.7500,381.0219,507.2159,248.5718,5.1180,-169.7817,-70.9792,29.6687,-207.7887,177.2970,-455.5877,455.3962,101.3092,-108.8825,-958.4317,198.5849,-43.6237,227.9639,-271.6802,6.6711,-1.2393
-3460.9375,334.2088,428.8438,165.1519,-68.6086,-176.2362,-79.9575,103.9302,-178.3242,206.7638,-389.1689,369.2484,56.8093,-151.0118,-994.6586,228.1152,-14.0062,256.4328,-137.0547,142.1713,29.4893
-3453.1250,314.1420,304.2292,151.4646,-185.5995,-261.0149,-56.2071,91.9851,-44.1597,267.9087,-179.0940,352.8900,7.9909,-198.4637,-963.2667,179.3334,11.2958,240.6153,-116.7026,196.3400,-55.1195
-3445.3125,415.7824,303.3126,188.4614,-182.9132,-221.1674,-54.7923,75.1060,-41.3489,307.6785,-176.3939,351.2770,10.8048,-231.2958,-953.3099,108.1898,13.2441,240.4779,-115.6919,162.1429,-88.1154
-3437.5000,458.8345,278.7927,238.8454,-271.8465,-205.9958,-78.0108,60.1506,-63.1857,248.7830,-270.3705,435.1086,-11.0468,-142.8069,-931.1059,123.3902,-8.4595,217.7081,-102.3173,140.2748,-108.8085
-3429.6875,440.3956,226.7760,184.7114,-282.2995,-72.3987,-57.7606,89.9626,-78.5765,196.3358,-210.9386,378.4762,-26.4697,-156.8922,-902.5541,108.0362,13.2823,203.4009,-150.4811,161.8414,-86.0978
-3421.8750,384.7602,173.5632,132.3519,-258.9784,-12.0691,0.2699,101.3359,-19.2139,108.6330,-114.7874,287.6804,-40.1721,-169.2489,-836.3475,94.4272,-0.2390,186.8455,-24.8797,182.1429,-135.6803
-3414.0625,355.5767,182.7895,110.4206,-246.2430,5.6348,88.7268,66.8631,33.5594,51.3167,-134.2603,225.3755,-61.5043,-151.2321,-776.8407,73.2087,52.6334,161.6992,21.1474,122.8408,-228.9070
-3406.2500,443.9583,167.5551,206.0218,-255.9926,103.8238,37.7061,93.0675,-52.1650,112.4863,-183.2697,245.6695,-74.3670,-89.7390,-819.9426,60.4839,3.9984,219.0733,-96.3117,110.0312,-240.6789
-3398.4375,484.7025,139.6668,249.9588,-277.4153,76.2966,9.0069,74.6896,-43.5923,157.9488,-211.0174,250.3624,-101.9535,-79.9714,-767.8660,-3.9526,-61.3455,227.7634,-50.4430,85.5100,-194.1976
-3390.6250,511.6101,168.9274,279.0270,-241.7184,-40.1480,74.4282,-25.7635,-13.9238,77.5073,-252.7012,240.2574,-35.4649,-159.1194,-583.8284,-11.2942,42.4038,223.5762,-159.4519,-23.9236,-126.6687
-3382.8125,442.7472,208.3859,208.2871,-267.8629,-144.4461,115.0226,-44.8458,64.8965,45.2102,-138.2733,167.4041,42.1394,-262.1351,-609.7739,67.5112,194.2904,194.5572,-188.3047,-18.2281,-84.0403
-3375.0000,422.4031,225.3489,188.0341,-315.5489,-198.3189,20.1000,16.9510,9.1745,173.3484,-83.4279,108.0934,23.1733,-206.7323,-733.3812,121.7539,138.6161,212.0089,-237.6771,71.8952,-29.0108
-3367.1875,526.1887,191.4216,260.8659,-310.1624,-123.1691,-52.7337,60.6087,-63.4923,247.5117,-80.5757,179.9350,-12.7579,-167.3145,-762.0566,160.0310,-44.0143,249.5406,-374.9866,74.0480,10.0169
-3359.3750,536.2697,167.7532,237.9506,-256.5645,-107.8330,-2.3416,44.6285,-48.9715,188.8637,-175.5887,228.0856,-35.5095,-151.7222,-705.6707,174.5021,-102.4609,193.2975,-290.0851,18.3867,25.1984
-3351.5625,456.6819,267.3777,156.3296,-222.7161,-112.2662,100.3169,6.5396,-18.2110,108.4649,-144.3918,255.5863,31.9631,-229.8997,-705.1831,168.2195,-35.6717,117.3365,-293.9129,-21.0285,56.5857
-3343.7500,471.9233,284.8057,136.5029,-201.1128,-130.9692,117.7494,-6.4997,-36.6961,126.8111,-52.4702,269.9292,13.1634,-248.3560,-793.0864,149.6825,18.8560,101.1537,-273.9782,-37.7051,111.6743
-3335.9375,381.4445,230.4941,81.9161,-249.3041,-183.4969,26.4165,23.2918,-52.9701,220.3477,77.6133,287.5674,-3.4595,-226.6501,-876.9272,169.3361,39.5709,84.1947,-184.8176,16.8027,95.9128
-3328.1250,398.0978,215.2939,68.4199,-260.4340,-194.9912,13.1651,17.1789,7.8059,244.9254,28.6893,235.3553,-17.0471,-237.9285,-773.8624,231.0385,64.3230,69.3144,-233.5991,-32.6578,47.1554
-3320.3125,457.0455,241.3507,131.1640,-193.3665,-203.3028,77.1408,-24.6199,-1.2267,51.6936,-199.0818,260.4503,47.5461,-246.0267,-703.7535,184.9387,55.2612,131.6661,-134.1665,-40.9259,75.5474
-3312.5000,469.5363,219.9151,147.4033,-139.8535,-258.1850,92.5866,-48.8209,-57.8099,-5.0850,-182.4417,311.0953,101.5673,-191.7021,-645.3532,128.2837,-1.3641,182.4896,-153.2732,10.2533,56.3355
-3304.6875,516.2730,198.6888,128.8390,-156.1958,-201.9366,37.2072,-66.1895,-75.2468,14.2909,-53.6896,253.9874,119.7135,-171.2583,-583.9601,110.7663,18.1514,162.4940,-173.2260,-44.4221,2.2318
-3296.8750,542.4981,226.9162,155.7158,-229.1434,-136.3135,-8.7332,-77.0492,-83.2734,-31.9495,-171.5695,243.3748,148.2332,-142.4472,-588.3167,138.6348,9.0635,156.9242,-212.7507,-120.6993,67.4811
-3289.0625,475.5653,231.9424,85.3826,-253.3425,-131.9709,31.1297,-101.0059,-41.5336,-27.4576,-129.7366,97.6137,225.4869,-210.9246,-432.0695,69.2412,86.7207,128.1217,-169.5099,-148.2404,145.4357
-3281.2500,273.1811,243.4679,-83.4639,-238.1054,-225.1968,119.4776,-83.8902,83.6619,24.4830,105.5057,-73.5914,277.1754,-267.9865,-264.5359,11.2940,102.8158,-0.2089,19.1817,-31.3328,87.8004
-3273.4375,146.6888,117.8391,-173.4692,-323.0956,-167.6405,139.6452,13.3811,103.6557,155.2348,236.5117,-164.8904,186.6456,-210.2750,-313.3759,32.1436,86.6948,-18.7134,36.6887,91.3817,34.9178
-3265.6250,124.0936,62.0631,-124.6330,-303.3040,-7.3017,78.6406,7.0812,43.4517,94.7829,102.2897,-116.2988,162.8981,-85.7900,-333.5800,81.7822,62.3656,-3.3844,18.0148,-68.1074,121.7844
-3257.8125,112.0970,16.8510,-66.2511,-310.0251,-20.4721,63.1682,28.7122,-43.2497,7.8201,-241.4753,-22.1052,147.6295,48.1647,-270.4500,177.9143,12.5206,92.4752,150.8597,-77.1029,218.0969
-3250.0000,118.9543,-9.5617,-55.0691,-226.0253,-81.9013,111.4702,-7.9243,-31.2062,-91.3916,-266.5449,-13.0519,122.0863,-13.1532,-143.7459,152.7936,24.4097,173.1160,161.4625,-67.3462,193.1132
-3242.1875,128.9216,37.0727,-37.8392,-140.0555,-135.3334,166.7984,-127.6568,23.8337,-256.6039,8.3403,4.1046,177.5206,-103.4921,-84.2180,-12.3319,42.2803,185.7823,315.0819,-125.5889,65.0851
-3234.3750,144.2885,89.0606,-14.2660,-82.8107,-184.4881,79.4639,-125.1361,-25.8151,-123.5210,105.4954,25.6593,201.2396,-116.5643,-167.5766,-99.1786,-7.5565,203.7738,265.0357,-71.5308,-21.6875
-3226.5625,191.8132,-37.8445,72.4048,-136.5355,-60.6153,-16.7873,-40.0911,-85.4103,74.6075,46.6632,1.3619,67.9937,-65.6238,-150.0658,-84.9848,-67.3548,253.8591,174.0479,-57.4250,-7.4543
-3218.7500,102.8533,-90.2976,54.5302,-183.8788,-77.3616,38.3944,-51.6421,8.3897,-15.8768,-44.8146,-53.4274,50.1404,-8.3175,-17.3339,-65.3974,-10.7652,167.3878,335.4709,-72.9255,12.1307
-3210.9375,56.1496,40.4595,-28.1462,-155.0990,-85.9794,102.7564,-104.8224,72.3400,-136.2144,-17.1826,-100.9654,150.4277,-53.8942,50.3648,-74.6650,16.9556,88.1005,292.0629,-118.2768,2.8150
-3203.1250,232.9142,183.6342,-22.4165,-184.0011,-115.2569,-1.5092,-165.5477,-30.3634,-203.2011,62.7597,88.9469,267.0444,-46.1463,22.2213,-67.5914,-49.9964,91.1971,190.0126,-149.2782,-64.1971
-3195.3125,514.4415,396.5164,167.0129,-178.2937,-182.9003,-107.0975,-301.4581,-172.4192,-417.5434,-115.6864,313.6102,345.2958,-3.7763,30.5392,-172.8795,-81.3124,163.9755,87.6322,-217.6239,-132.6000
-3187.5000,693.5762,540.9495,249.9850,-136.1122,-136.0581,-171.1533,-326.3073,-235.9764,-444.3817,-326.6768,395.8672,428.0375,7.0593,41.1725,-273.6738,-182.1334,274.2871,22.7540,-213.4658,-233.5419
-3179.6875,801.6754,650.2784,266.8532,-58.1164,-154.3768,-190.3391,-354.7263,-218.6857,-354.3624,-235.8581,449.0740,445.6115,-48.2865,-12.5302,-440.6135,-275.1177,279.4814,98.7307,-173.4500,-510.6726
-3171.8750,926.8295,987.6116,297.7113,106.7934,-196.7660,-86.5454,-511.7442,-150.4413,-434.3910,-242.1123,553.3239,512.1239,-127.7153,-53.4680,-593.6082,-355.1674,194.6486,50.6744,-363.4818,-700.8941
-3164.0625,1170.5413,1303.4619,410.0569,178.1170,-193.7235,-158.2630,-574.6686,-258.7338,-615.9734,-571.9487,775.1138,624.0809,-124.7297,-86.1361,-591.1674,-426.7807,229.2978,-19.9246,-400.0628,-772.7075
-3156.2500,1357.8179,1244.8209,541.8979,123.8500,-246.2484,-210.4949,-586.5411,-384.5736,-595.1040,-588.3813,942.4511,571.4800,-140.3243,-63.5493,-607.2867,-479.9568,277.4336,-6.0624,-352.1877,-936.1151
-3148.4375,1182.8124,1071.8265,623.3909,270.1387,-237.1884,-93.0929,-632.4346,-302.8127,-587.6270,-544.2422,986.4908,615.4620,-169.3553,56.4397,-709.8101,-508.5435,281.2040,-72.5985,-418.7079,-1038.9646
-3140.6250,1078.1729,967.1293,698.1793,450.6378,-198.8910,-54.4049,-620.5800,-263.7950,-658.9092,-615.8745,914.8686,579.6796,-93.1703,96.4984,-745.0892,-543.8885,318.2540,1.1300,-416.9817,-1037.6027
-3132.8125,899.5891,825.4374,663.9601,418.0499,-232.6671,-51.7263,-505.9530,-187.8157,-546.2497,-393.5884,769.2839,397.8373,-90.0645,136.3275,-669.4269,-468.2950,282.2802,0.8233,-207.3079,-1109.3243
-3125.0000,749.3616,675.0464,548.0298,341.6671,-164.2075,16.2284,-435.5655,-9.5852,-441.3276,-142.0820,617.0366,244.2374,-132.7365,169.2168,-637.5220,-399.4575,238.5909,-6.2329,-145.3704,-1188.8353
-3117.1875,744.2500,671.7086,578.1484,340.2327,-22.7554,83.2151,-369.3371,-52.3552,-485.4019,-443.6140,609.8780,200.6285,-28.4456,52.9105,-570.6222,-480.6354,235.9346,-44.2793,-148.4236,-1122.3862
-3109.3750,770.7043,733.8656,563.7652,299.1989,147.1310,-78.3167,-252.8322,-250.6720,-353.0265,-752.7420,668.2602,185.4568,104.2620,37.8665,-549.2777,-532.3749,262.7683,-192.8706,-52.0136,-990.5193
-3101.5625,800.0732,763.8588,481.2263,156.9068,174.8145,-125.0168,-203.6511,-296.1931,-214.8428,-542.1033,622.5284,28.0694,58.7445,103.4318,-558.1339,-504.3293,118.4387,-160.6492,14.2108,-889.8866
-3093.7500,790.5509,825.8922,356.7279,115.5596,50.4884,-65.6842,-194.9298,-200.7095,-192.6494,-373.4883,349.8783,-61.3288,-29.8004,124.7997,-425.9937,-409.2976,40.1350,-133.4185,5.4509,-758.2942
-3085.9375,491.0294,560.8767,255.1631,205.0644,133.0500,90.5814,-92.1903,-118.3130,-147.5532,-474.9759,212.2012,-125.8285,16.5125,60.8832,-269.9638,-290.3633,-13.2532,-44.2855,-12.4068,-565.8290
-3078.1250,157.6620,263.9651,158.6806,156.5662,146.6454,176.9294,29.1345,-30.8574,-60.4040,-535.4348,78.6495,-187.2834,66.8448,72.8290,-146.8867,-166.3841,-98.5653,151.9067,77.7995,-406.3363
-3070.3125,-119.7040,126.9865,-23.8562,127.9004,112.1268,216.1963,62.4033,81.4900,51.6582,-131.0275,-103.9187,-223.8486,-5.9396,221.4861,-144.9062,-18.5231,-163.9348,52.0093,152.9330,-331.9744
-3062.5000,-142.1495,-70.1555,-51.5380,143.9671,120.4085,224.2916,60.9052,126.6393,133.5247,61.1570,-94.5987,-289.6255,3.0544,192.7540,-137.1276,27.1144,-150.4682,-39.0879,95.8737,-213.8559
-3054.6875,-12.6299,-221.3981,39.6754,99.8290,138.5276,132.2751,100.2673,70.6542,114.2321,-106.8322,33.6485,-344.5577,57.8679,62.6975,-8.5141,7.5923,-55.1279,-120.3289,84.6631,-49.9198
-3046.8750,-26.6548,-305.2396,22.2741,17.9873,193.9826,76.6488,165.0754,16.0296,132.2868,-161.5037,-20.6802,-401.1420,112.9993,80.8125,119.4369,62.4207,-32.4080,-131.2193,105.8080,41.3447
