Time,Fp1,Fp2,F3,F4,C3,C4,P3,P4,O1,O2,F7,F8,T7,T8,P7,P8,Fz,Cz,Pz,ref
-4000.0000,27.5518,43.9840,13.2263,-1.4931,-16.0321,-55.7016,-39.1160,-70.7713,-28.8284,-60.0817,50.1598,50.6650,52.9821,29.3707,67.9195,38.8220,-21.7579,-20.2555,-40.9604,23.1322
-3992.1875,111.0915,-49.2565,29.4816,-59.4050,72.9705,-41.3826,-24.2743,-20.4953,14.1128,-9.5686,67.0024,-43.2348,-3.9251,-27.8222,85.6474,-55.1068,-11.0005,27.6895,6.8707,-34.1419
-3984.3750,33.7286,-55.4020,-17.1625,3.7817,25.0634,94.0343,38.6799,78.8831,11.6808,16.0533,-89.0674,20.9695,-50.7307,36.0812,-33.5127,-64.9396,-53.1523,90.7368,-36.2039,29.6899
-3976.5625,-69.9984,17.1083,-51.1675,39.6244,-9.1993,59.0997,-68.7262,6.9183,-39.0476,-18.6576,-13.4956,61.8318,-119.8926,112.6310,-103.0191,-24.1227,88.3440,56.4365,70.3807,-3.8301
-3968.7500,64.5249,45.8702,54.0740,68.7264,-14.2141,16.4212,-0.8855,-35.7897,-64.5676,-97.1090,19.3172,20.9515,-87.8076,71.4265,-106.2763,-28.0530,10.0769,49.3883,-6.7909,-45.1063
-3960.9375,-16.1100,-34.5246,-31.8435,22.6796,-62.3906,40.6016,23.8085,-11.6381,-4.9241,-72.6984,-29.0309,-64.0768,-61.8776,61.0816,-5.6869,34.8835,-0.3510,39.1876,87.8842,-19.5250
-3953.1250,-34.8554,-124.0323,-49.8678,-67.4793,29.3352,-15.3261,78.4038,-30.5864,65.3253,-18.3849,-9.4841,-118.2092,-5.0587,-30.3557,124.8166,16.7349,-20.8767,18.8785,102.4763,-74.0457
-3945.3125,-58.9998,-111.9451,-76.2913,-56.0462,38.6673,30.3423,161.6166,15.0621,81.1613,27.5199,-109.3463,-33.7459,42.3685,-20.1893,98.9299,-8.8184,-114.8070,-5.8460,8.6636,-26.9607
-3937.5000,-80.6522,-98.3689,-99.2193,-77.1267,-22.4999,5.5012,27.3255,27.2093,47.3245,39.9260,-59.7117,54.2107,-54.6981,67.4789,39.5585,5.1213,-32.2286,6.9272,126.3708,-13.3682
-3929.6875,55.1498,-68.3521,-32.6961,-48.7656,45.7896,36.1067,58.4944,20.8036,8.5717,33.7855,-64.6245,49.6163,-132.3104,62.5852,-74.3458,0.4980,-72.2120,-33.8429,50.5271,-18.3276
-3921.8750,-21.8045,-75.0801,-80.9333,-21.1478,-2.6798,23.9706,44.9194,44.6607,10.7413,56.9099,-112.3005,37.2782,-143.6766,49.9328,-121.0032,62.1226,-45.9609,28.6554,76.9255,79.9683
-3914.0625,-45.6210,-96.6506,-65.0364,-79.3788,47.9983,-72.0121,60.4875,58.6755,61.0397,72.1983,-23.8333,-56.9051,-90.9062,-44.5721,5.4923,4.9011,0.4379,5.3093,89.4862,22.4064
-3906.2500,5.7553,-80.0313,-48.9428,-63.4073,-9.1215,-19.7863,113.2729,73.8993,45.5992,50.6979,-43.1881,-39.8909,-0.9408,-63.8711,-13.8170,-52.1121,-53.9795,56.1590,-35.7543,39.0452
-3898.4375,-64.8428,-81.3781,-84.8207,-29.3964,-45.1993,15.4921,-33.8844,111.1799,41.8428,88.2566,-78.5177,-0.8238,-35.9412,10.8950,-11.0762,-50.0539,49.6575,91.0525,69.0819,3.7436
-3890.6250,-9.0979,-60.3773,-24.3511,25.9527,16.0801,77.1112,-8.6809,97.8091,42.3076,112.1621,-53.5072,-11.4088,-83.6003,36.0061,-21.9786,-97.6442,-0.3518,40.2849,-16.7170,-81.2104
-3882.8125,-7.2067,-23.2293,-25.7390,27.4397,-58.4920,74.8817,-10.3133,133.5901,35.9647,147.2256,-90.3614,25.1571,-156.1078,73.2651,-94.7335,-61.0922,0.7810,42.6785,-15.3586,-8.0064
-3875.0000,35.0311,-51.7453,-17.7833,-1.7317,22.2892,8.0048,-39.5964,103.7278,41.2594,154.6478,-8.8645,-39.9414,-148.2669,-29.1433,-85.1328,-52.2052,42.2715,13.4373,61.3689,-36.4552
-3867.1875,32.7669,-18.7741,14.6712,-4.4065,17.5750,2.6398,-7.3632,98.3774,36.3682,149.5841,-12.8766,-43.5495,-41.9264,-142.0640,-88.0334,-55.8247,3.2487,9.7056,-12.4093,-3.4056
-3859.3750,-23.8616,-74.1594,-8.2386,-25.4318,-5.5012,-20.0680,6.5196,111.6999,54.5830,163.1913,-35.2532,-65.5112,10.0465,-127.3334,-72.2914,-3.7869,51.8766,-46.3635,37.4744,11.2984
-3851.5625,21.0625,-169.9956,39.4018,-85.9092,41.9786,-47.2234,90.9547,121.5787,115.2408,173.3607,-24.0875,-126.9278,-15.4459,-117.0605,49.9955,7.8028,-9.9426,-142.8902,45.9148,-14.4559
-3843.7500,-21.5209,-177.3355,-9.4690,-94.8916,-44.0469,13.1279,76.9000,180.9682,110.3175,160.0388,-72.4415,-101.8457,-27.4461,-19.2799,75.7768,31.9024,-88.2766,-115.9163,1.8629,83.2969
-3835.9375,-46.3766,-201.9404,-34.6045,-85.1327,-69.3195,-12.7711,14.6021,155.1113,136.0213,134.4761,-24.0608,-163.0186,-15.7000,-7.7489,199.3217,7.7581,-43.8600,-71.2026,82.5837,58.8033
-3828.1250,-30.2828,-184.6032,-52.7898,-32.4364,-50.6357,4.2751,107.2723,136.2074,138.2854,115.8644,-41.7346,-180.2434,3.9956,-25.2722,182.8255,-9.4388,-97.5005,15.4504,-6.7451,41.2665
-3820.3125,-202.2432,-146.3202,-159.0325,39.2047,-83.0110,7.2708,74.8914,140.2607,149.8709,193.2155,-146.4628,-137.5203,-64.3632,-19.8460,78.2723,33.3157,9.8057,89.0578,101.8878,9.6904
-3812.5000,-146.5567,-89.3943,-132.6270,25.4915,-19.7361,-2.0862,65.1648,129.9729,127.0592,184.2272,-119.5477,-110.1519,-109.0829,-101.7845,34.3669,-12.2850,65.7671,39.3131,88.1872,-109.2427
-3804.6875,-37.3739,-50.9688,-57.7203,63.2770,-55.9619,35.0608,65.9531,167.1971,87.9901,184.7524,-118.1519,-108.2818,-70.3109,-100.2314,-73.0540,-9.3885,-1.7778,-27.9305,54.9839,-70.6725
-3796.8750,-22.4971,-141.8461,-43.1224,-28.2374,-4.4908,-62.0903,7.4383,107.1310,101.4845,161.9928,-66.0625,-129.7125,-54.8538,-84.9817,16.2143,42.2063,82.3836,-13.4752,175.4977,-55.4016
-3789.0625,-10.2660,-163.3771,-31.1724,-16.4026,7.3381,-50.8900,129.2815,118.4164,125.3873,136.5902,-53.6302,-188.8066,-5.0547,-72.3822,66.8321,19.1484,-12.1106,-37.6760,81.3668,-42.7884
-3781.2500,-117.4531,-130.3121,-108.6401,-17.9687,-107.2374,16.9228,50.7396,186.3141,109.0415,131.7976,-130.6211,-119.2996,-46.6608,-3.1761,64.0481,124.6907,-14.0104,-4.2793,114.8445,26.4276
-3773.4375,-107.1008,-119.7047,-59.5634,-42.9929,-58.2628,-43.7126,27.7518,125.7673,96.9817,107.5619,-44.0694,-106.2488,5.2707,-25.4206,115.8162,139.7836,31.6492,-64.3312,89.8887,-32.8108
-3765.6250,-70.9460,-83.3030,13.3171,-7.2159,-22.4903,-8.5368,100.5772,88.0315,85.3038,107.1348,-116.7273,-69.4069,4.9987,-25.8758,43.3762,139.6747,-38.9020,-63.5834,20.7288,3.7518
-3757.8125,-162.6515,-104.7587,-81.6578,-29.2928,-44.5755,42.7950,4.5530,138.4552,88.5929,157.8725,-138.2426,-53.4180,-53.1361,-10.1822,23.0757,192.7157,-61.2968,-15.6837,138.7356,-17.5326
-3750.0000,-125.6503,-102.5199,-78.9276,-27.6757,33.0416,45.8314,118.2387,141.5907,97.0977,124.3193,-135.0589,-48.7378,-48.5858,-79.7913,27.4623,160.4511,-199.9981,-84.0916,105.4461,-50.1236
-3742.1875,-136.0589,-111.6810,-165.6066,-108.4586,18.2469,-6.5184,177.5320,127.3397,115.3130,110.3769,-148.2904,-62.4575,-25.4492,-19.7943,52.4369,146.7856,-176.1037,-93.8975,164.7623,9.8958
-3734.3750,-104.0818,-149.4502,-93.8949,-181.8425,126.8514,-81.4621,213.2246,51.4981,149.5708,71.8488,-113.1297,-135.7813,11.0770,-94.4109,162.8101,72.5148,-108.7994,-98.2948,197.4981,-27.6866
-3726.5625,-105.4031,-151.5263,-61.4836,-183.5297,122.1641,-13.6984,244.6372,82.3670,137.1630,66.0323,-154.2832,-102.4202,43.3053,-97.3441,121.8828,-5.0681,-146.8026,-29.9859,89.9326,41.4303
-3718.7500,-226.8424,-132.7107,-154.1856,-130.3216,103.3761,3.9711,152.9565,100.1450,143.8906,84.1298,-172.5526,-120.1721,25.4305,-115.3804,141.8567,51.2426,-93.9032,23.2317,178.2865,60.4486
-3710.9375,-167.2322,-142.8619,-125.8360,-141.0727,131.6522,30.7004,180.3361,90.9817,120.6353,38.2869,-70.7806,-164.8916,54.5942,-123.3782,134.8851,6.5961,-68.9594,48.4998,97.6980,15.5101
-3703.1250,-154.5817,-164.9708,-115.4409,-93.7814,30.9744,77.4905,117.7809,63.8823,84.2141,48.5089,-95.9736,-116.5663,65.8053,-39.3326,36.9454,17.9972,-21.9730,130.8277,110.1650,63.6273
-3695.3125,-67.1944,-147.3372,-18.3035,-111.7476,129.0514,28.0347,31.9762,14.5436,57.6630,36.4924,1.5806,-129.4996,53.7526,-125.5432,25.7415,-66.8575,99.7709,112.9157,128.4064,-58.5107
-3687.5000,22.5940,-57.3155,75.2372,-22.3144,149.5364,47.9942,125.5866,-39.3848,24.6387,-54.1169,-14.4722,-71.0462,112.0970,-141.3567,10.9185,-156.3228,82.9146,96.4098,-28.9544,-74.2547
-3679.6875,-25.2747,35.0433,24.1186,34.4710,134.3665,69.3139,37.5494,-54.9505,-25.7840,-69.3589,7.8090,25.7499,60.7755,-81.8169,-75.5718,-133.4349,139.4184,83.2627,28.0537,-51.6486
-3671.8750,43.4026,68.9384,97.5526,-2.2029,134.7613,68.1902,1.0761,-54.9532,-57.9351,-69.0411,81.6321,26.0809,24.9958,-43.7394,-110.5144,-132.0093,102.4749,11.6593,-8.3733,-87.5040
-3664.0625,59.9725,50.7236,73.8847,13.0175,0.0587,117.9803,13.5239,-6.0435,-64.9639,-19.8104,21.3424,77.2995,2.1111,43.2290,-168.5681,-81.6933,48.4229,27.9643,-97.9002,-0.4564
-3656.2500,21.5371,12.5010,33.2097,9.2345,-40.6426,113.7792,-100.0320,-10.1229,-58.7874,-23.5682,18.0545,74.5081,-37.7802,77.1864,-98.6308,-47.3847,79.3794,59.2801,4.5860,-3.4111
-3648.4375,56.6632,117.8257,33.0914,115.0032,-40.7910,149.1387,-64.0362,-10.6473,-85.1370,-60.7667,-18.6836,111.2544,36.8699,40.6885,-97.1590,-119.5318,7.8815,59.1510,-171.3855,-2.8204
-3640.6250,-62.6206,174.7487,-55.4353,171.3747,-55.3516,134.1172,-114.4343,-26.5547,-66.7587,34.6482,-33.8369,133.5921,59.1037,62.7892,-110.1067,-97.0807,28.9875,80.6352,-149.7494,19.3736
-3632.8125,-5.8074,90.7655,5.1374,121.8409,42.1948,84.1990,-91.7308,-39.3530,-60.9734,-14.8196,-8.8977,85.0171,10.4210,50.9767,-47.9630,-72.5356,50.2003,66.2249,-162.9953,-29.3410
-3625.0000,59.3007,86.0742,33.0070,116.6071,-3.9582,74.5934,-62.7052,-47.8370,-103.7551,-95.9768,-17.6763,187.7343,2.0267,42.4558,-91.5349,-79.7035,8.7072,25.1179,-203.9327,36.2446
-3617.1875,29.1900,161.1756,2.6669,86.1708,-34.3133,43.7939,-165.8756,-114.5095,-119.4639,-90.3260,-10.6676,232.2448,-27.5819,12.7392,-120.3175,-73.0793,154.0275,65.8116,-59.0457,6.6277
-3609.3750,95.9824,229.1735,75.2330,82.6355,75.2411,78.9004,-58.1263,-81.2783,-125.6463,-128.7716,-48.7676,194.6443,-28.2973,-25.0886,-157.2114,-110.5713,80.2580,62.4058,-132.2605,-31.0959
-3601.5625,-91.1280,181.2650,-51.1018,70.2100,21.8901,136.1213,-37.2765,-59.9350,-81.3345,-35.1011,-173.7757,216.1413,-43.9188,70.1769,-208.0319,-51.9751,102.5961,120.1054,-4.3725,27.2859
-3593.7500,-65.1885,103.3954,-56.3838,26.8283,90.5911,93.3986,-41.3806,-28.5303,-41.5369,-39.3692,-141.7341,138.6732,-84.5007,29.4848,-101.8146,-92.3341,93.9949,76.8555,58.5891,-50.2930
-3585.9375,-49.7976,83.9774,-43.2155,41.8957,-6.2586,143.1414,8.9817,21.3410,-40.8905,-63.1746,-201.2533,79.6452,-33.6417,80.2363,-87.1662,-78.2547,2.8333,92.0538,-31.9963,0.5723
-3578.1250,-116.8698,51.1001,-41.5084,43.5087,-4.5590,108.4460,-63.1011,-14.2210,-53.5853,-61.4096,-89.2369,45.1571,-68.2499,118.5355,-119.9833,-38.6255,145.2267,58.8042,75.9937,2.9855
-3570.3125,14.5097,77.6556,98.6494,69.5634,62.6056,100.2084,4.2826,-95.3201,-76.3776,-105.1858,-22.7769,75.0971,-37.4173,39.2744,-126.3623,-118.5582,101.0711,15.0064,-73.5561,-40.1612
-3562.5000,-4.0200,95.3053,40.9000,86.7136,-33.1383,116.0865,-17.2174,-79.2988,-80.8885,-88.8458,-44.2353,92.1225,-21.4943,55.1066,-144.6615,-65.3993,83.0169,32.3180,-55.9954,12.7932
-3554.6875,5.6909,105.1915,54.3974,60.1092,-18.6250,55.2265,-76.4588,-103.0145,-37.0001,-38.2394,-29.4501,69.3870,-43.3384,-3.8218,-19.7235,-86.9990,91.2175,-29.1148,-11.1635,-83.0128
-3546.8750,-17.5979,152.0737,64.8979,36.5059,-46.1023,101.3806,7.3143,-19.7152,-15.2686,8.3815,-93.6728,79.6425,-33.1860,6.2452,-45.8080,-76.6092,-38.5893,-53.5434,-70.3380,-35.8234
-3539.0625,-99.8499,139.0069,-25.5631,22.9516,-97.5346,85.5961,-45.8626,37.6461,-0.2928,103.0679,-71.8603,64.9440,-84.9977,27.3662,-96.8644,55.8286,-16.3378,-65.9131,23.5581,22.4159
-3531.2500,-49.9974,50.0331,27.0799,-31.5047,-45.8606,26.9190,7.0677,53.1192,0.4584,44.8656,-19.9507,7.3257,-68.7160,43.5758,-43.8316,109.3526,-69.9785,-120.1781,3.5592,38.7394
-3523.4375,-94.0468,40.1494,-23.1765,-5.8545,-170.0878,13.3571,-5.8867,74.7082,0.1520,66.7746,-106.9556,103.7913,-82.3404,102.8818,-92.7214,94.9666,-45.5178,-59.3339,29.6620,135.1625
-3515.6250,-85.3566,84.0044,-47.6794,36.5513,-83.5514,-48.4443,-31.0888,14.0543,13.8924,43.4399,-57.2141,80.9934,-142.2298,42.9252,-42.8733,-1.6845,31.7119,-51.7316,108.5302,38.3302
-3507.8125,-22.8599,112.6578,-16.3766,100.7647,-53.2113,-17.4295,75.5173,-27.7947,13.5134,-35.0945,-98.6780,76.9880,-110.3244,1.7579,-9.2434,-79.5528,-10.2558,12.6808,-2.8068,-2.7058
-3500.0000,-121.8684,83.8124,-45.5727,141.4815,-45.3801,64.1008,9.6226,-57.1321,9.4863,-27.1183,-91.6518,48.4778,-102.9328,47.0867,-0.1408,-70.9280,66.2821,88.6064,3.3684,-31.2427
-3492.1875,-88.6686,82.1632,28.4392,140.3891,-8.3432,62.8379,9.9374,-57.2590,-5.4493,-26.9327,19.5792,12.1540,8.6477,10.5989,1.1488,-107.1150,29.0280,51.7289,-68.2457,-67.5934
-3484.3750,-24.0645,41.9174,53.8543,133.6946,-55.9096,88.9883,-1.3393,5.0311,-37.3125,-1.3310,8.2023,38.2233,34.6199,-0.4989,-118.1877,-43.9111,-47.8259,46.2550,-74.4608,32.4564
-3476.5625,-25.1633,-30.0288,-19.4310,62.2978,-19.1714,52.4482,-74.3194,5.6305,-12.7783,36.5827,46.1296,-34.4183,-1.1198,0.6970,-81.2465,-5.4127,21.6317,10.0810,100.6374,-3.1973
-3468.7500,21.7425,-53.9900,-6.7087,37.8949,-6.4248,100.9137,85.7163,55.2391,45.3373,12.5043,-14.9464,-95.0746,-24.8598,-60.1132,6.6837,-65.9236,-73.9104,-14.0934,41.7340,-26.8547
-3460.9375,-126.7030,-62.3114,-126.3395,-41.8588,-54.0304,91.0395,112.4070,81.5114,102.9714,76.0885,-98.3746,-140.0910,-71.9528,40.7251,71.2422,35.2111,-82.8010,-23.6167,138.4835,0.1429
-3453.1250,-79.2408,-118.7416,-37.0632,-133.7194,37.2678,-2.9301,129.9930,97.6918,126.4010,92.5834,-44.8947,-196.2192,-54.1581,-15.5474,125.6848,52.2355,-104.7771,-80.2416,153.1448,-55.9680
-3445.3125,-74.8204,-114.2265,-34.8259,-128.6292,2.5158,-0.9375,169.5435,136.8380,105.3073,169.0350,-42.4719,-193.4133,22.5782,-12.8769,-17.9504,92.1996,-205.8032,-75.9140,86.7566,-16.1299
-3437.5000,-99.3110,-173.6207,-57.4937,-119.4389,16.8626,-60.8337,73.1956,114.0950,100.6091,183.5959,9.0429,-179.5242,-36.6026,1.8935,-39.5069,107.2641,-90.7153,-64.4775,238.4904,-75.1937
-3429.6875,8.8556,-171.3746,19.4988,-117.6027,93.8699,-20.0688,187.5071,81.0088,69.9158,76.8118,-23.7924,-138.9983,-32.1429,-30.6939,-71.4307,0.9633,-123.9711,-97.3900,135.8769,-107.6174
-3421.8750,-73.7233,-112.8799,-69.2594,-94.5122,5.1263,-36.0425,136.0741,65.1832,50.7153,61.2907,-76.3811,-43.2312,-10.4343,27.9611,-86.1338,-13.0985,-29.9734,-39.0470,159.5166,-48.7893
-3414.0625,26.3033,-47.7933,1.5909,-99.8275,112.9947,-75.4153,97.2398,25.9616,53.3287,22.3760,-5.3601,-81.8758,-13.1332,-47.7940,22.7510,-88.5742,33.6362,-80.1053,118.7714,-124.3698
-3406.2500,43.3865,4.3437,52.5003,-49.0906,15.9141,-25.7291,73.4703,75.7983,42.5970,36.5138,8.7062,-105.4736,-35.7849,-71.5010,0.6661,-38.0133,-19.7102,-28.1103,30.0696,-36.9007
-3398.4375,-25.9923,6.0274,-22.0468,-47.8052,-21.6195,-26.4843,0.2497,112.1968,58.0878,73.2117,8.3137,-140.5284,-108.8974,-71.6558,1.1113,36.0879,86.5099,8.4450,136.9367,0.1178
-3390.6250,42.4846,-32.4394,49.2611,-50.6684,49.7089,-66.3813,34.8930,73.4488,38.6940,70.7612,42.7700,-106.7484,-75.1668,-73.9743,-0.6097,34.0211,13.5880,-65.1440,-5.3432,-2.0266
-3382.8125,-9.7925,-13.6663,-9.1790,-31.2786,-8.7114,-87.0117,12.7970,50.9625,19.5522,85.5706,-15.5317,-53.7328,-22.1923,-21.0479,-57.1080,86.1987,30.9220,-45.4722,12.6310,87.0786
-3375.0000,8.0275,4.1975,11.4845,-49.7887,48.9789,-102.5316,-39.2023,35.5856,11.5433,33.4872,79.2722,-33.6339,-1.1298,-109.0327,0.4719,-2.5313,49.3741,-28.6925,66.7213,35.2691
-3367.1875,47.6540,43.8615,14.9576,-46.4929,15.4741,-27.2355,38.6123,39.0196,16.9774,37.2089,82.8720,-29.7459,2.7265,-105.2229,-32.1722,-71.4750,-18.3722,80.8935,-0.3967,39.2507
-3359.3750,55.8287,87.0746,-49.0228,32.3579,-11.4814,19.6251,-62.0265,12.0168,-12.9564,47.4955,93.0164,-19.3164,-23.8749,-59.8661,-58.2918,-61.8801,25.4392,89.0382,9.0479,12.7793
-3351.5625,136.9084,98.1753,37.9009,8.1095,38.4741,-4.5999,-11.7573,-49.0767,-21.9441,-13.3109,105.0632,-43.0032,-10.5839,-119.6240,-7.5255,-11.4045,1.1582,-40.9127,-50.5994,-10.8070
-3343.7500,44.6290,75.9331,9.4753,-13.4835,-25.9247,-32.1564,33.1700,-39.5032,-18.1197,-40.4526,39.7474,2.9596,-1.6538,-73.7385,1.8616,70.7098,-91.4685,-62.2048,-35.5991,108.2537
-3335.9375,26.8911,58.2446,27.6011,-102.5205,-7.7694,-124.1515,15.6405,-57.3698,-36.1292,-132.0328,95.9854,21.4613,-19.1839,-18.3126,20.7779,16.3635,-4.5254,-43.9415,86.9635,90.8541
-3328.1250,65.4743,97.8529,31.0478,-64.2553,-4.3061,-83.8391,56.4192,-90.9345,-49.8594,-128.3133,99.5235,25.2520,57.5875,-14.5964,-11.0305,-15.6972,-35.2771,28.6235,-15.1802,94.7441
-3320.3125,3.7076,35.1087,-31.8530,13.6634,-31.1959,-37.8611,-43.1470,-44.8392,-47.0438,-44.9363,72.7045,35.6823,-6.0002,31.7685,-73.2130,-6.1180,41.6309,107.8519,28.3314,68.2818
-3312.5000,119.8932,-24.6969,94.2050,23.5376,57.8715,15.0772,-63.7637,-65.7814,-65.8062,-65.6071,162.8391,-57.9567,11.3556,-24.9306,-57.4554,-25.6000,51.5008,82.0349,-66.1998,-62.2418
-3304.6875,232.3321,52.7446,175.5148,65.6648,29.1848,22.2801,-56.1228,-58.4610,-126.0709,-95.0139,170.2201,-50.3606,18.9595,-17.3856,-195.4724,-17.8469,23.6225,89.4807,-129.4843,-54.5148
-3296.8750,265.5202,49.9253,210.5723,62.5410,64.2517,-15.7525,-130.7323,-133.3779,-157.4316,-132.6569,242.3554,-51.0256,17.2959,-18.0923,-196.7603,17.6455,126.4992,-18.3148,-61.0079,-92.0450
-3289.0625,310.2696,-10.3540,255.1903,71.9670,108.8771,-8.2237,-48.7836,-161.7353,-170.6242,-196.7469,177.0423,-80.1545,99.1776,62.7463,-187.5180,-47.3220,64.9281,-79.5582,-156.9849,-47.0354
-3281.2500,115.2670,5.6195,122.0581,88.6481,11.7466,4.5716,-35.5874,-147.8322,-143.5123,-220.5791,116.9783,6.9618,39.3019,149.8356,-137.0559,-34.0403,116.6179,-62.5482,-69.7105,40.2228
-3273.4375,131.1206,92.4464,103.7848,69.1812,31.4766,-49.7851,-89.5469,-129.0793,-99.9209,-127.5604,135.7724,63.9209,-14.7297,59.7690,-44.7612,-87.9158,97.1769,-46.6917,-88.5805,-13.6811
-3265.6250,155.6305,186.9194,90.1738,128.3738,-92.1414,9.5168,-101.8434,-33.6700,-96.9747,-31.8919,122.2087,123.5181,-65.1139,45.3500,-93.8346,-28.1569,-19.6099,-22.1781,-203.8103,46.0639
-3257.8125,161.7852,123.0311,61.2095,64.2184,-121.1071,-19.5189,-241.4964,11.3996,-87.2100,50.4338,166.2988,130.7498,-129.8506,53.5747,-86.2717,54.2402,92.2685,-16.0038,-92.3781,17.4540
-3250.0000,198.0063,123.1914,136.3110,64.1144,-84.0094,-17.4966,-129.0951,50.5211,-87.7171,15.8085,94.4544,60.0197,-92.5358,55.8390,-120.6767,92.6752,22.2002,-120.7807,-126.9036,-17.1193
-3242.1875,67.1321,63.2574,34.3151,73.9147,-111.0154,-9.5603,-156.7872,21.5505,-71.1614,24.0843,29.5085,68.1840,-47.3249,64.0071,-111.2087,102.0045,67.0418,-109.6525,-11.5304,28.2082
-3234.3750,148.3543,38.4135,121.4254,13.8186,12.0860,-106.5182,-70.3887,-75.3129,-46.3896,-35.5322,116.6647,8.4428,3.9781,-32.7250,-24.6604,-31.5760,112.0000,-205.4202,-0.0413,-31.3758
-3226.5625,173.1359,64.1227,144.0939,38.2780,-39.2609,-82.9147,-11.4328,-52.6173,-64.3103,-49.5888,139.3715,30.2403,25.8252,-46.9131,-74.5911,-45.6221,31.5118,-179.6356,-115.0066,64.5807
-3218.7500,106.3134,66.2327,71.1600,41.1443,-111.2128,-44.9026,-156.0836,-14.5116,-56.8001,-11.2385,177.4759,31.4359,-44.9322,-44.7017,-36.1419,-7.2748,34.4395,-106.4478,-6.5607,102.9288
-3210.9375,137.3008,27.1428,104.0389,1.8130,-115.3508,-13.0865,-85.9226,17.3957,-33.1757,-15.0936,136.3856,-8.5747,-48.8944,-48.6992,-3.9055,-11.1422,-38.8250,-110.4615,-44.3194,99.0600
-3203.1250,54.4399,14.2060,50.0710,-11.3629,-170.3423,5.8932,-67.6094,37.4642,-42.4929,4.2052,45.4450,83.5610,-67.7053,6.4547,-94.5448,8.1316,-52.9366,-18.3203,-22.9302,191.3420
-3195.3125,101.4335,27.1178,64.9598,-33.6879,-80.4761,-88.2717,-124.4562,-19.6144,-59.9799,-52.6425,97.3616,99.5390,-124.6766,-87.5480,-78.3562,-11.7494,99.8227,-4.3215,60.3207,134.4627
-3187.5000,170.7876,60.3806,100.2076,-35.6560,-45.2576,-90.0751,-51.9455,-95.3340,-92.2294,-128.1387,58.6261,97.8580,-89.3021,-89.2089,-116.8374,-13.2947,97.9328,63.0334,-10.0872,132.9244
-3179.6875,111.2849,71.7921,77.6000,9.5342,-31.8974,-112.7162,-111.2880,-117.8936,-94.3299,-113.4744,73.0360,38.3195,-38.7844,-38.7149,-102.1908,36.3049,179.2097,74.5492,34.6623,73.5282
-3171.8750,190.9424,10.3470,165.1590,18.8813,91.6302,-100.2039,-61.4731,-177.3026,-98.4079,-136.6629,123.6094,15.9144,48.8872,-25.0827,-52.4058,-22.9634,153.6482,48.2094,-96.4404,-22.7351
-3164.0625,145.5066,-35.2042,116.6342,44.1282,44.0674,-37.7852,-72.7518,-115.8155,-103.0446,-110.9589,112.0883,4.4043,110.4703,37.4453,-99.7402,-71.3422,107.9949,143.7679,-105.6488,2.9035
-3156.2500,133.3288,-12.5071,107.3656,30.6222,70.7614,-47.1168,-118.7842,-163.0812,-101.7634,-158.0075,176.8244,-41.8631,64.2971,27.2205,-35.8349,-80.4763,165.6082,131.5751,-12.5973,-80.2162
-3148.4375,166.2128,20.2462,142.1571,28.1671,105.5126,-49.3986,26.2412,-165.2922,-101.4809,-160.0087,100.6140,-7.0875,99.1757,-10.9607,-111.8929,-82.5691,93.2733,94.4312,-84.5085,-82.2941
-3140.6250,47.0971,7.0019,89.9501,49.7199,90.2583,-27.6703,12.2617,-106.4917,-57.0342,-101.0021,48.4023,14.6846,84.0477,-26.1373,-89.9726,-97.6635,114.9509,80.2931,7.5745,-60.3694
-3132.8125,37.9961,-37.2481,82.7562,5.2802,157.0101,-71.9359,41.2655,-113.6916,-5.0517,-70.9957,41.2090,-29.5505,113.9170,-70.3206,49.9378,-104.7670,70.6443,72.1563,-36.3493,-104.4535
-3125.0000,-9.2984,-14.6932,30.3701,27.6513,66.5550,22.6109,26.0702,-19.0818,-3.0161,-13.1910,-48.1867,-8.9900,134.5865,24.2958,34.6335,-84.0770,-47.8623,93.8235,-119.4884,-46.7362
-3117.1875,-105.6508,-5.1940,-69.0652,1.9761,78.0473,33.1128,-36.1814,-7.5156,11.2395,-1.4338,-36.6298,2.5094,109.1992,108.8668,119.2657,-35.4347,-3.4036,104.4412,-73.6669,-72.0744
-3109.3750,-75.0897,24.1911,-37.5886,66.1965,109.4479,64.5189,31.4715,-13.0477,14.4002,-6.7748,-79.1634,-3.1027,140.7162,66.3381,113.7878,-77.8983,-79.0454,133.9512,-184.9505,-77.5224
-3101.5625,-122.6805,-58.5808,-126.2628,89.2694,20.6945,159.7784,-20.0259,8.2788,15.1190,14.7427,-94.8419,-18.8653,88.0871,87.6630,62.1418,-56.5182,-56.8309,192.3136,-91.3824,-19.1233
-3093.7500,-52.2689,-58.3445,-49.9331,53.3415,59.9534,163.0342,-53.5227,10.6029,20.3795,17.2541,-54.5103,-52.6271,17.4591,16.9812,64.4905,-90.1433,-21.6095,121.6827,-20.8124,-89.7377
-3085.9375,-76.0055,-11.2537,-76.7500,65.2736,-39.9377,246.1584,30.8379,94.7855,15.2309,28.6162,-81.3309,-42.5462,-8.3182,64.1459,-35.3278,-116.9279,-44.5394,168.9117,-79.4022,-42.5086
-3078.1250,-49.8508,13.7272,-84.6707,55.1129,-47.9280,238.1944,-50.9085,86.8735,15.0510,56.8874,-15.2568,-50.5753,-53.2054,19.2199,-43.2620,-124.8172,15.4484,194.0511,16.9246,-87.3927
-3070.3125,52.8637,-24.7440,-13.0332,87.5056,-13.3514,273.7887,-16.0923,85.5133,16.5370,55.7028,19.3665,-126.0674,18.4599,-55.1615,-8.6532,-126.1757,-58.0068,226.7402,-126.2002,-125.7473
-3062.5000,-66.9200,-73.7103,-66.8927,108.4127,-67.2823,292.8936,-69.7684,104.6574,16.5599,75.0108,-34.5084,-107.0581,37.6265,0.9585,-25.5640,-70.0432,-36.9558,282.9318,-69.8275,-69.6082
-3054.6875,-10.9469,-52.9277,-41.9934,59.0744,-6.4535,206.7533,-44.7007,55.5537,25.2586,26.0668,63.3859,-119.3029,25.5425,-12.1800,72.2655,-82.1715,-51.1473,162.8734,-48.7022,-118.7353
-3046.8750,23.9847,-18.1944,-11.1341,22.6925,25.3325,164.5768,60.3238,13.4072,-6.9996,-15.9241,58.2354,-51.6042,93.4134,-17.3676,-6.9747,-88.3552,-122.3947,91.7665,-119.6452,-13.9194
-3039.0625,-42.4406,-83.8110,-46.6273,-44.0297,25.7634,55.0593,-13.0153,13.9209,6.6743,21.7412,95.7317,-50.2586,57.9269,-52.8933,-6.5810,23.1129,-12.9765,96.3181,25.0611,60.5427
-3031.2500,46.9461,-136.6192,46.6935,-60.9378,83.0017,1.3442,44.4408,-2.7696,-6.9528,-67.8019,116.0374,-103.1184,115.2381,-69.6249,50.6019,43.3688,-29.7383,79.6674,-61.4476,43.7906
-3023.4375,-56.5608,-100.3208,-62.8781,-24.7299,-27.6669,0.7401,6.9892,33.6406,1.0247,4.7514,4.4422,-30.8745,114.6483,39.7465,12.8638,79.7215,-28.3820,81.1158,-24.8701,80.1371
-3015.6250,-122.2130,-24.1747,-90.5897,-18.6648,56.5217,-25.0120,-18.6257,7.8999,31.5802,53.1536,15.7102,-57.7856,87.9024,13.9660,60.9655,53.9200,-22.1590,16.4118,51.5568,-19.6767
-3007.8125,-58.4038,-31.5778,-61.8385,-26.1468,11.1664,-33.3098,84.2143,73.6109,27.3796,81.9992,7.4287,-29.2488,116.6148,5.6326,-21.4900,82.5672,-133.4888,-60.8494,-25.5828,8.9599
-3000.0000,-66.1521,-74.5304,-106.6370,-69.1763,1.2549,-79.1620,0.4929,100.7767,42.4779,109.2955,34.6008,-75.2565,70.7774,-4.2427,5.4972,109.6744,-72.3609,-102.6646,107.7292,36.0540
-2992.1875,43.7541,-139.8275,-28.7797,-170.5562,43.9964,-146.3707,80.4156,32.5912,71.0593,78.2361,77.4322,-106.6144,76.5919,-72.4615,85.1370,78.4244,-68.5741,-169.8328,111.6826,4.7923
-2984.3750,-18.3311,-62.1223,-57.9203,-126.9282,-23.2747,-139.5746,87.3360,76.4119,69.0106,85.1787,10.2693,-26.9643,46.4047,-64.6698,54.7568,48.1676,-93.7818,-125.9965,85.6237,48.5328
-2976.5625,-13.7639,12.2405,-51.4072,-88.6374,-52.8988,-133.1219,-16.1096,46.8832,67.6007,128.7715,54.7679,-19.6616,-57.1399,-58.2307,62.0127,55.5482,-20.3255,-122.5081,124.2189,-18.0879
-2968.7500,35.8645,61.6587,0.1689,-3.2897,-75.4668,-8.6151,35.4998,97.4025,31.9087,70.4079,-4.6821,-42.3121,-79.6289,-6.7504,2.3065,69.9678,-111.8150,-107.9662,-1.1457,-3.6720
-2960.9375,-55.9655,-65.3760,-60.7088,-25.3897,-98.4798,-33.5478,10.6627,73.4722,51.8273,45.5944,-29.5861,-30.4171,-30.5631,5.2853,51.1373,81.9330,7.2562,-92.8645,118.0401,45.2869
-2953.1250,58.1065,-127.5177,61.3211,-122.5879,-14.5760,-167.5776,59.7292,-25.5617,57.7596,-16.3229,56.4178,-92.6338,18.4074,-56.7770,135.8672,19.7903,51.2376,-154.8644,91.1259,-16.8727
-2945.3125,102.9364,-117.9142,67.1024,-148.0322,-8.9195,-124.8494,102.5509,17.1639,48.1789,-10.4927,25.1732,-49.1030,24.1384,-14.0858,105.3366,-11.6010,-10.0337,-146.1213,-5.0511,62.7164
-2937.5000,68.4126,-117.6585,-6.4693,-147.8190,-8.6142,-124.4711,-7.9878,17.5412,62.8153,63.9849,62.5838,-48.9127,-48.4857,-13.7449,105.4534,-11.3405,25.3568,-74.7321,101.4274,62.9503
-2929.6875,50.4486,-65.8441,-24.4835,-95.0534,-26.7575,-69.5401,48.0235,73.4690,72.4950,83.0126,-29.4515,-31.1677,-30.5622,-67.8554,87.1172,-29.5331,-62.7037,-23.7981,12.4451,44.7242
-2921.8750,-82.0247,-58.5249,-126.0068,-53.7820,-55.4002,-26.0995,18.5378,80.9081,80.4527,127.5474,-130.9992,13.0816,-23.1417,-60.4562,20.2697,-22.2215,-20.2618,18.6300,125.9630,51.9989
-2914.0625,-73.8513,-84.5634,-75.8789,-79.8600,68.6145,-85.0122,69.6964,21.9998,58.8785,-5.2695,-117.8874,-46.0233,28.9286,-83.4098,71.0758,-7.2563,59.8383,-6.2955,136.1370,-44.0839
-2906.2500,-23.1691,-104.1009,11.7589,-99.4321,9.1337,2.5765,84.3541,35.5910,28.2483,-65.5910,-103.2727,-105.6272,42.5075,-32.8574,48.3716,6.2060,75.4367,9.2804,45.7925,6.3346
-2898.4375,-46.7873,-232.9389,25.0933,-157.2965,22.3479,-21.1351,-13.3024,48.8801,53.3511,21.7851,-16.9530,-165.5278,18.7856,-19.5926,61.3596,19.3677,157.7537,55.5595,127.1501,-17.5509
-2890.6250,30.5580,-261.8208,71.3852,-187.2041,142.5186,-10.8934,106.9920,58.1168,90.9483,68.0968,-6.6747,-193.4749,28.0166,-83.3848,70.2978,-44.5327,23.0312,26.7874,63.4440,-81.5021
-2882.8125,-101.2495,-182.8479,-29.4713,-178.2488,77.5395,-1.7929,153.1390,104.2026,117.5924,114.2534,-108.5517,-111.5665,37.1024,-37.3247,42.0765,-35.5857,-37.8324,35.8699,143.5764,-72.6055
-2875.0000,-130.6514,-142.4764,-57.9169,-173.8867,158.9703,5.7023,160.6748,75.6814,129.9972,122.8026,-100.0170,-103.2665,45.5909,-102.8682,87.2597,-28.2355,-68.2822,-29.6530,148.1057,-138.3211
-2867.1875,-81.5951,-129.6573,-45.8993,-125.0728,60.8514,17.6404,173.6671,87.6091,108.4123,97.7927,-125.0259,-91.5183,94.5422,-53.9592,98.8923,20.5666,-125.2844,-50.7325,21.0659,-89.5886
-2859.3750,-120.6912,-96.9902,-86.0336,-57.4066,20.5798,14.4220,96.5012,84.3903,99.6372,94.6320,-91.1780,-57.9135,17.3454,-20.1892,95.3714,17.2215,-57.4274,-53.9684,88.8764,-93.0072
-2851.5625,-76.8730,-54.4191,-39.2595,-49.8322,67.2156,24.1030,106.2335,57.0659,93.7445,67.3654,-81.4165,-85.4071,64.0571,-11.5208,141.7424,-10.2296,-84.6628,-81.3160,25.5777,-120.5396
-2843.7500,-168.0072,-5.7885,-139.4334,-1.1979,3.8949,107.8427,79.0114,103.7911,71.7337,77.1443,-144.6059,-38.8355,37.8251,-0.7949,41.1529,37.3647,-71.8466,-32.6125,74.3183,-37.0227
-2835.9375,-114.1428,-56.1543,-116.6117,18.4475,26.5768,57.5812,28.7790,90.5136,55.7720,26.9164,-84.7905,-15.2623,-12.4069,-14.0635,63.5705,59.9565,-16.0201,-12.9144,130.0603,-87.5163
-2828.1250,-102.0229,-44.2630,-106.5333,30.3541,37.5109,67.5715,112.8011,63.4866,31.3834,0.9311,-111.7210,31.5697,-2.3892,68.9230,0.2375,69.7911,-74.9488,-0.9682,36.0313,-40.7630
-2820.3125,-141.5546,-50.0178,-113.1065,95.6182,-8.2108,59.9174,-5.8417,55.8102,-2.2551,29.2960,-82.3016,59.7571,25.9739,98.2683,-45.7536,134.9806,26.4825,-41.6661,31.3462,24.3451
-2812.5000,-15.4808,41.8198,-18.0730,116.4860,51.6697,-28.1346,-56.8914,-32.2694,-47.5291,-21.7501,13.7258,82.5424,11.9328,47.2112,-23.1366,84.7715,47.5233,-55.7620,-88.7412,10.0469
-2804.6875,22.9848,150.0623,-16.6439,154.7549,-57.0544,-26.7798,-54.5394,-66.9434,-97.4306,-92.3947,-21.8613,156.7346,-23.7038,122.5645,-58.1296,85.9690,50.9638,-17.4546,-190.4333,48.1514
-2796.8750,5.1416,202.0059,3.4772,135.7284,-38.0751,-80.7217,-144.5008,-120.9152,-85.8375,-74.3334,-38.7435,139.6342,-77.6396,141.6168,-2.4243,68.8698,102.1148,-0.4515,-104.4227,-6.0525
-2789.0625,-7.7936,118.8490,63.5035,123.6048,-15.1864,16.2340,-49.5579,-61.9866,-82.3532,-87.3794,-52.7188,89.4357,-17.6684,127.5663,-16.8181,91.6684,-15.8404,-13.5507,-221.5258,16.6373
-2781.2500,-128.5854,-3.1582,-29.3228,72.6380,-70.1539,33.3368,-104.4727,-7.9039,-45.9608,-33.2714,-70.5490,69.3929,-36.5444,145.6745,-0.0610,108.6225,74.3594,40.4944,-97.4809,70.4825
-2773.4375,-77.7259,13.4852,26.5032,18.3250,-15.4687,-20.9159,-85.7437,11.8303,-24.6152,-14.5195,-52.7215,88.9957,-54.7780,54.4349,19.3606,54.2299,55.2149,-48.8230,-46.7873,15.9732
-2765.6250,-87.7696,73.2360,12.4261,42.1188,-64.6896,1.9362,-25.9144,34.6689,-6.9049,45.3328,-101.7991,111.7085,-30.9126,77.3043,-31.1157,2.9434,9.1603,-24.0425,-92.0140,75.5699
-2757.8125,-94.7245,65.0901,6.4342,35.0190,-71.8132,-41.1108,-105.0001,-8.3921,-22.0889,39.2857,-35.7744,105.5312,-37.9446,71.2864,-38.4897,33.7593,107.2137,-32.1608,4.8607,32.2652
-2750.0000,5.2796,59.8998,77.4027,64.8737,-38.9832,-44.2085,-36.1334,25.4960,-20.1753,36.1761,-38.7913,65.3128,-41.0177,31.2183,-41.9086,30.5265,-2.7883,-37.3372,-105.3331,-8.0962
-2742.1875,-94.7194,29.7212,-30.6320,69.7355,-72.1592,-4.3050,-69.2735,65.3810,-9.5107,113.0596,-71.8132,68.1051,-74.0838,108.1596,-111.3279,107.3007,37.2142,73.4847,-30.5357,31.5495
-2734.3750,-46.4748,43.7906,24.5855,118.8553,18.9220,13.8397,-89.1728,46.5109,-23.5991,57.1881,-17.5773,49.1487,-56.8949,52.3505,-58.4876,51.3264,51.4795,52.5482,-86.4884,-24.5611
-2726.5625,-13.9761,111.1112,55.0580,151.2360,-60.7483,44.2361,-57.8244,2.8925,-56.0298,-23.4354,-24.0921,152.4464,-26.4521,45.7939,-64.4000,7.5987,12.9959,84.8566,-159.2103,42.5789
-2718.7500,-3.7347,192.1791,67.2738,161.3739,-49.6780,19.3879,-155.7401,-58.9743,-73.4031,-48.3068,25.1419,164.5061,-87.2670,21.0012,-53.5652,-17.3746,59.2739,59.9132,-44.1756,17.4658
-2710.9375,60.4663,220.2040,98.4432,155.4676,-54.6488,14.4904,-51.7052,-63.8940,-64.8718,-90.2387,20.3318,122.5231,-56.1331,-20.8437,-21.7797,-59.4019,-17.4950,17.9129,-121.2040,-24.7090
-2703.1250,-15.4403,144.1411,16.5093,149.4682,-98.7252,42.4984,-59.7689,-35.9122,-51.7337,-25.2765,-25.5877,114.4523,-64.0917,44.2174,-67.0965,5.4754,-23.3671,47.8108,-90.3403,40.0170
-2695.3125,21.7027,75.1255,58.6220,115.5219,-21.7415,-26.4457,-55.7885,-67.8823,-50.3426,-57.2698,53.5493,45.4245,-60.0005,49.3271,-26.3533,10.4038,13.8183,-21.2393,-55.4232,-29.2134
-2687.5000,43.5455,96.8003,43.4393,102.2755,-37.0553,-4.6879,39.8979,-83.1502,-46.7330,-72.5683,1.3850,67.0976,-1.2015,34.1432,-41.9075,-4.9664,-35.3032,-35.5945,-103.8131,-7.7422
-2679.6875,-65.3805,164.7265,5.4914,64.2787,-38.1243,-5.6781,-35.1710,-47.1580,-6.8615,37.3897,-36.5348,65.0294,-39.1524,-3.7803,-43.2088,-6.0850,-2.1782,-37.7009,34.0551,-46.0190
-2671.8750,-13.9112,110.0612,23.9323,44.6810,17.2214,12.7300,20.1628,8.2333,29.3810,55.7471,-17.0599,10.3743,-56.7030,-58.3048,11.9013,-23.8055,-56.6610,-92.4125,14.3164,-100.9090
-2664.0625,-38.3033,50.5477,-41.4844,56.2292,-11.2837,58.2904,28.6536,89.7774,35.5348,64.2541,-83.4482,91.8784,-86.1034,-13.6765,-16.8348,-16.3701,-80.9973,-116.9635,60.7258,-19.6426
-2656.2500,-1.4036,51.3289,-38.6047,-12.9232,28.5187,-49.8542,31.4403,-17.3828,17.1673,-43.9465,-6.5304,131.6769,-120.1993,-47.7528,22.7416,-50.6242,25.9775,-116.2112,167.4370,-54.0808
-2648.4375,15.2002,102.8133,-22.0196,-31.3712,8.0300,-70.2988,157.9281,-37.8498,20.0452,-101.4574,-100.9129,185.1746,-103.5854,-31.1327,2.0243,-108.1780,-27.3539,-64.7613,148.8332,-37.8183
-2640.6250,-102.6523,91.8515,-142.8905,-43.2569,34.0851,-43.1929,110.9600,-10.7696,33.9524,-0.4203,-147.7494,138.2336,-39.4232,-3.9543,-82.1440,-81.1850,30.8700,29.2366,277.7799,-85.0006
-2632.8125,-68.7551,-51.3612,-66.0103,-80.3888,184.8951,-40.3450,113.7354,-7.9425,37.8480,2.3605,-70.8367,31.0495,37.4948,-75.0179,-79.5518,-114.4378,29.8482,62.9779,275.4727,-192.4396
-2625.0000,-29.0607,-116.7700,-26.3322,-75.7157,150.4991,-0.6926,153.3131,-5.3139,47.0337,4.9320,-104.1318,-3.3229,40.2153,-71.2729,-76.1599,-74.8815,34.6242,67.5139,209.9518,-153.0728
-2617.1875,13.2723,-75.5260,18.9887,-69.3890,195.7500,-66.3984,124.5302,-71.0386,36.5054,-60.8491,14.2291,-69.0425,11.5754,-99.8783,4.8964,-103.6674,111.0654,38.6934,181.0848,-182.0548
-2609.3750,110.1622,21.2711,117.8641,-42.5086,220.5518,-77.5544,186.2990,-119.2123,-18.4623,-183.0863,39.1427,-43.2090,110.4831,-111.9377,-7.4899,-189.9024,68.0498,29.4166,30.7535,-120.4853
-2601.5625,32.8525,14.8720,70.5367,-13.8202,137.1431,-87.9064,65.8582,-92.5848,-12.0363,-82.5213,29.8593,20.4355,100.1846,-48.1893,-17.0762,-126.3364,95.8351,57.9381,59.2163,-57.1058
-2593.7500,55.5018,-32.5721,97.1660,43.8200,126.6837,-24.3142,18.3559,-66.0119,-13.1796,-93.0138,55.5345,-26.9607,89.8316,-21.4812,45.2933,-99.8174,48.5762,10.3941,11.6282,-104.7798
-2585.9375,-13.9493,-32.1095,20.6917,79.3672,13.1169,46.1774,15.7549,-32.5381,-30.9249,-96.6161,-20.8958,-30.4424,123.3831,85.1418,5.5664,-66.3939,-20.7902,45.7402,-23.0737,-34.5480
-2578.1250,-98.4215,-80.6383,-27.7922,101.9194,1.5486,33.6704,-69.8618,-81.0654,-31.9619,-108.2186,40.6700,-41.9036,74.9334,73.7741,29.8450,-40.9601,141.8487,67.0778,68.2236,-83.3120
-2570.3125,26.7067,-61.5625,68.3255,121.0761,60.5823,130.7646,26.1206,-94.9941,-28.4670,-122.2253,-10.1568,-55.7602,61.0858,22.9996,15.7328,-91.9239,91.0812,52.0142,-52.8948,-134.4720
-2562.5000,-51.5195,-34.8336,20.0850,147.8820,12.2582,155.5118,-22.2533,-107.2721,-28.6693,-97.5843,-95.3360,6.0320,48.8884,84.8777,4.2744,-30.2331,117.9631,7.6130,8.6307,-72.9681
-2554.6875,-19.7455,31.8887,17.8422,74.6846,83.9401,117.2490,-23.6353,-145.5512,-26.4416,-135.9471,-59.5075,3.8211,10.6893,83.7529,112.8295,-31.5435,114.8531,-100.7928,-29.8370,-111.4670
-2546.8750,11.3310,62.9173,-28.0970,69.7895,0.9224,107.2856,40.2884,-81.5331,-41.2800,-108.0116,-69.3930,68.9206,1.7982,147.9269,66.6851,32.4430,5.0347,-139.9047,-175.0178,-10.6630
-2539.0625,-6.1646,81.4002,-46.6046,88.3480,-90.6437,89.7691,-124.3501,-26.0665,-58.2261,-16.6262,23.1551,50.4897,-16.6490,166.5626,11.0002,123.8855,23.6740,-121.5713,-86.7342,7.5957
-2531.2500,64.6303,81.1893,27.1870,123.2080,-54.9016,89.5480,-124.6828,10.6972,-84.5353,-53.9463,97.0002,13.3654,57.1998,93.4968,10.6272,87.6326,-47.3881,-121.9405,-192.1560,7.1538
-2523.4375,46.0167,62.5857,4.5668,69.6743,-150.5664,65.9229,-111.4127,24.0664,-44.7133,-2.6671,36.4390,100.8444,33.6530,107.0301,23.8515,63.9888,-64.8547,-70.7035,-104.9783,94.3199
-2515.6250,60.7072,42.2762,-15.7553,-21.5628,-23.9277,-27.4038,-57.8490,-32.2641,-10.1611,-23.0861,91.1894,81.6092,14.4050,13.8567,115.3870,7.6450,-51.0204,-91.1626,-56.4918,37.7771
-2507.8125,27.5008,44.0557,-13.9768,-18.7008,-22.1831,-25.6219,15.8266,-30.4879,-26.7412,-21.4048,18.0305,82.4700,52.2584,14.7789,42.0286,82.4074,-83.0975,-53.5256,-158.9120,75.3356
-2500.0000,-70.1254,87.4385,-42.6104,23.7595,-87.8414,-54.2401,-85.9024,-23.1059,-48.7135,-14.1237,25.4650,89.9485,22.7081,96.3071,12.2792,163.7790,-5.5759,-46.3009,-81.7245,82.5023
-2492.1875,48.3430,29.9277,44.8515,2.3139,-36.3946,-75.7698,-70.5357,-8.6295,-48.4484,-35.7506,77.9967,31.5492,38.2578,37.9335,27.6467,142.2522,8.0403,-67.9886,-103.4364,60.7698
-2484.3750,61.4480,-26.9270,54.9502,-19.4811,-100.3053,-29.6505,-98.5164,38.5020,-31.8652,47.2791,51.1591,41.8095,12.4569,48.2186,-35.3352,41.3837,-13.7031,-21.0244,-90.4982,143.6989
-2476.5625,35.1916,-18.1268,-6.3115,-80.6268,-50.5589,-53.8871,-122.8529,-22.7161,-8.1225,21.9610,62.9703,53.7244,-12.6960,-12.8463,49.3364,-55.8311,30.2070,-12.4093,23.1003,82.2773
-2468.7500,49.0923,30.8242,7.5813,-66.6238,-36.6556,-39.9760,36.9661,-8.7841,8.2130,-0.2130,3.9339,30.7857,37.3065,-34.7695,63.1650,-41.8965,-95.7443,-68.6473,-103.1593,96.0085
-2460.9375,-64.6151,-12.8356,-78.1371,-40.2262,-122.3616,-52.6600,-10.8214,52.5552,22.0362,25.0222,-7.7085,20.2465,-47.2899,26.7099,87.3960,165.4484,-69.2930,-77.4812,-42.0125,157.1460
-2453.1250,-3.7774,-56.9492,-13.3093,-84.2812,-168.5110,-61.7968,-94.0613,79.4482,19.2198,87.8093,56.1968,-25.7433,-93.3430,53.7377,115.1912,266.3462,-43.2931,-121.7723,-121.3129,147.8285
-2445.3125,63.3986,10.2949,-20.1391,-16.9807,-248.3156,-67.5746,-173.9457,110.6952,-31.8578,118.9406,50.4384,78.6238,-99.0491,85.1178,-0.6570,260.5966,-45.9479,-125.7088,-160.2747,214.8714
-2437.5000,57.9108,74.8908,-21.6282,-57.3233,-176.7734,-143.0027,-138.4919,-0.7136,-14.1077,43.4143,48.0296,112.3460,-101.4062,45.8483,69.8533,148.1981,53.7555,-130.2885,-24.8773,139.2654
-2429.6875,55.8294,107.8905,-23.7091,11.7319,-105.8205,-109.0370,6.3680,-2.7335,-0.3268,5.2788,46.0225,110.4673,-66.3582,-29.0307,67.7703,36.1947,-53.1497,-97.4708,-132.0835,137.0587
-2421.8750,-38.1101,155.0441,-122.6515,56.9346,-167.7225,-23.9275,-93.6240,8.4041,-8.5088,52.2991,21.1592,121.7451,-55.1634,55.2420,42.8401,11.3477,-6.9099,-51.5015,-86.1355,148.0090
-2414.0625,13.4954,136.7436,-64.0515,38.6841,-72.0679,-3.2709,-108.0640,29.0957,-10.6234,36.8794,41.8434,33.5715,-106.4296,40.0583,64.4737,32.0569,-25.1294,0.0113,-104.6262,59.5045
-2406.2500,-17.9630,68.3948,-63.5151,41.3865,-145.4703,71.3469,-33.5459,103.7548,-11.4901,37.4219,-66.5425,34.3479,-105.7513,40.8277,-7.9344,180.7204,-21.4174,2.4665,-137.1715,96.9588
-2398.4375,-28.8975,23.5819,-71.4474,-3.3672,-116.3268,26.5131,-115.4821,58.9731,0.4130,103.5221,-38.3882,26.6733,-187.5296,33.1491,-52.7735,245.9490,37.8436,-7.5256,63.8466,51.9711
-2390.6250,51.4673,69.0654,-25.0753,6.1729,4.1280,0.9738,-32.1110,70.4889,-20.4104,77.9144,-27.9321,1.2974,-139.0031,7.7608,-114.3015,146.4769,-57.6005,-102.2265,2.1594,26.2876
-2382.8125,-16.3209,70.4112,-98.8595,-25.4387,-32.5785,-35.7203,4.1067,31.8569,12.9651,76.1573,-64.6274,0.7821,-103.6288,7.2206,-78.9795,108.8587,-55.1987,-66.0774,110.3218,98.4667
-2375.0000,31.0893,-21.0364,-81.4478,-117.8507,93.9139,-92.2169,94.5116,12.4257,60.5888,19.5996,24.8782,-55.5241,-14.0622,-85.1191,84.5527,15.4427,-111.5995,-86.7267,123.6896,41.8456
-2367.1875,-33.3112,-50.2794,-78.8462,-113.0576,59.5990,-52.5027,134.1209,15.2005,73.1193,22.2429,-44.4330,-51.6315,62.7059,-119.2492,87.2927,-17.7693,-141.8124,56.8276,57.2497,81.4296
-2359.3750,-116.1888,-96.9839,-88.7141,-88.7182,86.8330,-27.2327,50.2795,42.5344,80.9429,49.4475,-19.2087,-98.1914,16.0202,-128.8248,77.5929,8.5749,-48.4702,115.9383,151.3732,34.5675
-2351.5625,-34.4705,-155.0957,-37.9847,-112.7818,175.6791,25.6365,139.0428,21.4668,66.4254,28.2535,-40.3902,-120.1533,31.9360,-113.8064,19.5045,24.5266,-71.5332,92.6451,93.0928,-23.6974
-2343.7500,-59.3122,-109.7411,-65.8111,-101.3932,73.9684,33.9561,184.2537,29.8486,37.3265,-0.4963,-68.1305,-110.6545,3.2999,4.6643,-82.1372,32.9405,-26.1500,32.8035,103.2526,21.5015
-2335.9375,-5.9522,-128.1766,-45.4419,-153.8095,94.4605,18.4655,131.6522,-22.5766,15.5923,-126.0542,63.3411,-162.9556,24.8596,26.3308,49.4265,-19.4395,62.4414,-19.8395,120.6219,-31.1000
-2328.1250,28.1622,-127.8612,25.6866,-119.4824,18.6994,15.7206,202.8135,-25.2607,51.2173,-91.8759,23.5653,-128.5012,59.1823,-13.2553,83.7476,-95.0659,26.7747,14.2536,14.7308,3.0577
-2320.3125,-45.3803,-25.2032,-11.8370,-16.8199,-18.7108,15.3100,55.3224,11.3964,51.7859,17.6539,23.1458,-56.7031,21.8565,-50.4941,46.4374,-132.3465,59.4680,46.6900,47.2164,-34.4369
-2312.5000,17.8346,37.1971,20.3909,116.5813,-22.3548,84.6527,-22.4018,43.8097,6.7626,49.9351,18.4669,12.8381,17.2932,-91.0053,-31.1045,-136.8859,-18.1088,74.8769,-65.5547,-112.1843
-2304.6875,1.7790,21.3413,1.3522,170.7300,-116.2472,175.7498,-42.3735,97.9804,-20.0850,103.9726,-0.4705,31.1350,-1.5217,0.2353,-124.8968,-8.6714,-69.9314,57.8199,-152.5733,-58.1680
-2296.8750,-34.9205,-50.1477,1.6676,99.2379,-78.7788,102.1831,-79.0067,61.4941,-13.1828,67.3559,35.9508,-5.2036,-74.9988,73.8167,-50.3422,101.8866,-0.3957,-13.8843,-48.2424,-94.8062
-2289.0625,37.6342,-47.3612,75.2384,66.0065,-4.0715,65.8730,32.6039,-10.7403,-47.5085,-79.0175,37.6126,-41.2847,36.7633,111.6517,-12.5470,29.6931,2.3774,-152.3299,-151.6639,-57.1899
-2281.2500,23.9713,-96.7820,95.5960,-18.4325,15.4294,-24.6332,-58.9948,-65.1640,-45.3608,-131.5810,94.0693,-94.5809,129.3153,131.2870,81.0588,-61.6937,128.9495,-165.9626,-25.2613,-0.7724
-2273.4375,129.1990,-131.3205,170.8490,-52.9821,90.8443,-59.2345,-19.6745,-135.6798,-25.1007,-166.2371,206.4143,-92.9876,205.7777,23.8041,193.5879,-205.1766,59.4065,-95.6999,-94.9630,-35.4565
-2265.6250,130.7027,-24.5545,133.3854,54.7613,17.5493,14.4646,-20.0475,-62.8881,-30.0449,-93.5904,169.0467,-19.0861,205.5495,-50.3784,119.4313,-242.3526,-44.8481,81.8657,-233.3614,1.1765
-2257.8125,78.8511,100.8699,46.5638,109.1479,4.9068,37.8109,-143.7861,-38.4536,-39.0719,-33.2937,193.3329,41.4706,118.9660,-62.9096,106.9357,-217.8746,-25.4491,136.0809,-180.1027,-85.5418
-2250.0000,72.8634,59.1495,77.5958,173.3928,35.1132,106.0164,-38.6711,-7.1725,-34.0819,-2.1587,76.4615,35.8821,113.2235,5.4063,27.2819,-151.5425,-137.2181,95.1500,-256.0011,-91.3995
-2242.1875,-91.8369,-35.2778,-62.0849,113.9303,-30.3867,113.5182,-31.2571,0.4120,-16.3510,5.2829,-63.1146,81.5930,10.7633,160.0256,-1.0658,41.1040,-55.6952,35.5189,-69.5779,-9.9439
-2234.3750,-91.5886,1.2420,-22.8240,44.3957,46.0729,5.9592,8.1218,-71.0536,-29.8381,-103.3222,-60.7410,83.2499,-23.7529,125.5832,38.5544,43.7074,15.7549,-70.1661,1.8025,-44.5285
-2226.5625,-59.7099,33.4126,-29.9294,-29.5000,39.1723,-0.9533,75.1574,-112.8537,-31.4472,-108.2663,-102.7373,114.5598,43.3862,119.7829,-5.1732,-37.0288,-23.1566,32.8029,-2.1596,22.5580
-2218.7500,-25.5526,-38.1213,-28.7520,-65.0936,77.5764,0.4300,2.4875,-112.3549,-10.4425,-107.9078,7.5648,5.1644,81.8298,-26.7226,33.4079,-181.4630,82.2407,173.0779,103.1955,-13.0585
-2210.9375,21.3604,-96.9052,21.1823,-53.9381,126.7322,86.5679,88.5825,-63.1060,13.7824,-58.8072,20.6126,-55.4860,131.0210,-123.4746,9.7445,-242.1485,-11.6242,254.1025,-25.7111,-36.9232
-2203.1250,-48.2794,-95.2479,-53.4394,-17.3345,16.3340,123.1584,15.1248,84.5946,30.6533,51.7449,-16.8918,-55.6856,20.6426,-86.7599,-64.4733,-168.3793,24.9547,361.5796,10.8493,-0.3264
-2195.3125,42.5301,-39.1366,9.3852,3.7074,78.3918,112.1997,-32.8906,72.7454,9.6975,76.7471,9.0583,-66.4364,-64.2993,-135.6032,-112.2318,-144.1610,79.9754,276.5141,-4.1291,-85.2773
-2187.5000,35.5306,-10.8151,-38.5992,-3.0488,31.6427,138.4483,-6.6998,99.0990,-10.2831,66.9480,-75.8043,-39.9786,-75.0407,-35.2484,-157.8056,-43.7451,-32.8093,268.6628,-10.9079,-22.0159
-2179.6875,-109.4325,-86.4379,-117.5464,-43.7536,61.9481,95.7427,-13.4640,56.5016,39.5703,60.2054,-117.6256,-46.4699,-44.7392,-4.8568,-18.3293,23.7146,-2.5281,157.8712,124.3844,8.2887
-2171.8750,-48.6887,-95.3419,-56.7889,-122.7553,122.9677,8.7389,84.4802,6.6012,40.6919,-25.8366,-56.7498,-21.2586,16.2607,-16.7882,79.8410,10.8697,-45.5587,42.7731,44.3663,69.2881
-2164.0625,-22.3049,-67.5944,-70.3878,-130.1135,37.6287,-39.6166,-0.9283,-4.6402,11.3521,-1.2157,3.7660,3.6017,41.9059,7.9268,31.6635,36.6782,-53.9500,70.3235,72.0151,166.9482
-2156.2500,12.4932,-67.4652,-29.5785,-130.0908,39.6994,-109.5787,-33.9328,-1.4776,18.2885,1.8014,42.6977,6.8480,7.9529,-98.9668,33.9063,2.8851,16.0428,35.2676,143.0681,97.0100
-2148.4375,40.9872,-2.6435,34.9302,-101.3688,32.4636,-117.8368,30.7736,27.3881,-1.2228,30.5178,-37.6825,71.7909,0.7006,-143.1546,-83.1436,-4.2030,-25.2801,28.9126,30.8216,125.7917
-2140.6250,46.5038,37.2306,4.4725,-60.6023,2.2782,-148.0493,-73.4754,33.3021,-22.7544,72.2904,4.9787,114.7833,-67.5134,-137.2872,-150.1334,1.7629,50.4557,0.6221,106.6395,131.6307
-2132.8125,148.1195,69.2113,76.1149,-29.7337,74.1940,-186.1576,-73.6174,-40.6769,-38.4893,35.1665,39.7359,40.8684,-67.6304,-101.3333,-114.0241,-0.1777,11.2824,-73.5645,68.5496,57.5664
-2125.0000,35.5311,97.9873,-41.4465,-1.0701,28.9031,-120.4622,-8.9642,-11.8491,-21.6128,26.8494,-77.7146,106.7491,-38.9468,0.4107,-85.1160,28.6863,-29.0923,-115.9394,61.2672,86.3101
-2117.1875,-4.3562,93.4525,-45.3020,-40.7181,26.3264,-160.0802,-48.6060,-51.3244,-17.9214,-12.7629,-44.4596,104.3195,-78.5642,33.8388,-15.4956,63.2452,71.2325,-120.6122,127.6970,46.7480
-2109.3750,78.8560,106.0203,39.9388,6.7286,1.8466,-110.5946,-0.1336,-38.6972,-36.4448,-36.2763,-32.1200,79.9968,-30.0813,-26.6355,-38.7769,75.8967,-22.3554,-143.1845,-0.7735,59.2974
-2101.5625,40.2070,103.7447,35.3110,4.3237,-74.4938,-114.9629,-76.5235,-41.9135,-45.8820,-3.6368,0.3658,112.8276,-70.4550,6.0380,-78.9059,108.7067,45.2163,-145.6024,66.9205,92.0007
-2093.7500,159.6194,117.5221,126.7461,-17.0286,-57.7712,-134.2883,-59.8561,-26.0921,-79.1135,-23.9555,90.9062,93.7007,-126.7772,22.7521,-134.9746,89.5562,-11.1559,-236.9769,10.6568,35.7505
-2085.9375,121.4254,185.6958,81.5829,17.0074,-174.6587,-68.2092,-66.7889,5.1325,-100.3644,-29.8668,46.8401,159.9661,-170.6979,125.8725,-178.6406,118.8068,-48.1287,-239.9424,-26.2026,138.9124
-2078.1250,40.6690,175.3091,34.8689,40.4862,-185.0928,-78.6775,-150.2779,-5.1806,-73.1566,-3.3151,72.2266,186.6751,-181.1731,42.4313,-115.8567,108.5178,46.3412,-179.4555,68.4041,128.5223
-2070.3125,110.2157,175.2239,70.4511,40.2621,-112.2309,-78.8394,-40.4572,-5.1846,-33.7905,-3.4619,35.9049,112.6777,-71.3523,-67.7094,-41.7802,35.5394,-23.9101,-144.6652,-36.6906,128.4382
-2062.5000,-8.4929,161.8812,-17.2294,27.7835,-126.6204,-94.2539,-55.8896,-20.4389,12.7265,18.1456,-15.6687,61.4224,-12.7828,-46.0975,53.0452,21.3239,-2.4081,-88.1193,54.9842,150.1089
-2054.6875,39.7634,69.4864,35.0528,-28.7549,-0.0513,-76.7186,-38.3691,-39.7490,47.2638,-2.3024,0.7199,-30.8850,-32.2623,-102.5458,180.8176,1.0423,-58.9506,-109.6193,33.6113,93.7247
-2046.8750,-0.7809,64.2993,27.5385,-70.0898,-45.2833,-48.9815,26.3560,-11.8591,42.1704,26.4501,-44.7040,-2.9885,32.4534,-110.7988,97.7807,29.9580,-134.3076,-44.9128,-6.5605,158.5492
-2039.0625,-75.4874,59.9585,-12.1337,-109.5858,-10.6546,-88.4040,-50.0642,-14.1194,27.2353,23.0568,25.7173,-5.2538,-6.9894,-114.2177,58.6037,26.7210,-68.8141,20.6468,130.1405,119.2207
-2031.2500,-15.8988,14.9095,51.4890,-84.7864,53.2755,-23.5259,13.8381,-23.0738,-11.3587,-22.0378,53.4251,-50.2245,56.8697,-85.3385,-22.2691,-18.2128,-79.0465,45.5123,14.1413,74.2031
-2023.4375,-35.6817,-39.4996,-7.2606,-34.3507,-5.1526,-8.9955,-43.6123,-8.3667,-9.7184,28.5377,-5.2208,-35.5528,-1.6333,2.1866,-80.4937,69.5123,5.3653,96.0430,99.8157,88.8478
-2015.6250,-26.1591,-99.6103,45.2926,-94.6239,120.7205,-30.1686,8.2363,7.6460,29.1961,8.4193,10.4391,-93.6024,14.1576,-56.0062,8.5967,12.5323,17.0689,1.8789,145.7961,-5.2126
-2007.8125,-51.8413,-124.9256,52.6409,-120.0978,129.3906,14.4623,126.8990,15.4677,55.1941,16.1031,-19.1104,-121.8619,58.7534,-83.4129,16.4902,-16.6455,-78.4317,46.5241,50.5753,39.5368
-2000.0000,-57.1830,-129.8932,10.3339,-125.2273,124.4186,9.4389,10.9096,10.6364,36.3586,11.1345,86.6915,-126.7783,90.6998,-125.4766,48.7433,-21.4793,-14.5729,111.5196,80.7279,34.6337
-1992.1875,93.1897,-85.1579,95.7386,-80.6647,135.1556,21.1089,-51.3650,-51.5002,-25.1185,-14.1349,171.2008,-152.0000,102.3522,-113.8492,23.6927,-9.6216,-75.0212,121.2099,-85.4319,9.4259
-1984.3750,37.8134,-34.1797,35.3942,-29.8624,2.1328,109.0307,-72.3975,-0.3803,-36.5413,-0.1469,111.9640,-137.9764,42.2458,-62.9684,-35.1157,41.4935,-58.2223,207.1605,-104.3274,60.4754
-1976.5625,47.1499,-25.5077,47.7599,-56.3659,51.8127,47.6552,-133.7293,-24.5641,-8.6057,49.5340,123.4405,-162.2640,-19.1682,-124.3985,13.7771,54.3015,-15.7217,216.8149,-25.5159,-0.7824
-1968.7500,35.1804,-37.1241,33.8233,-33.1641,38.1867,70.9894,-1.3538,-1.0454,20.2534,35.9224,36.6023,-138.8525,-32.8790,-138.1366,0.3660,3.8015,-96.5384,205.1763,-37.0052,22.6669
-1960.9375,-106.7072,-38.6336,-42.0283,-34.8657,-0.3383,32.4284,-39.8835,-2.4173,27.0081,-2.5711,-2.1440,-103.3506,-70.4955,-30.7798,36.0498,2.4076,5.7489,167.6473,102.6218,21.2182
-1953.1250,-42.8812,-7.4529,28.8305,-3.8725,70.8469,-7.4297,68.2987,-79.0821,24.7562,-79.3680,-5.1847,-107.1601,-37.4160,-70.7302,70.4338,-74.2898,71.7198,127.8107,-7.0554,-18.5304
-1945.3125,-36.9080,-2.1339,30.8320,107.2634,-0.8330,31.8585,-3.3711,-74.5996,-13.4783,-39.0092,-3.0720,-30.8220,1.8150,-66.5286,-37.0343,-106.8355,112.8410,134.1335,-70.5701,57.8799
-1937.5000,-7.0172,-42.9134,65.7489,66.2905,-2.6019,-6.9613,-115.1438,-78.2212,-19.2276,-41.7648,68.9627,-70.5988,-0.0532,-70.4411,-2.5945,-73.4921,177.8685,93.3603,63.8186,-17.8210
-1929.6875,35.1257,35.5572,73.9254,73.5651,-30.1194,39.4822,-32.6559,-31.5909,-17.0799,-32.2639,41.2444,-61.1311,9.3349,-61.1042,-29.9217,-100.9003,44.1363,30.8510,1.4446,-45.2662
-1921.8750,-62.1902,9.5778,-27.3570,47.3873,-58.0773,48.4779,-60.6262,14.5919,26.8437,50.8021,-23.9263,-52.1108,-55.7392,-15.2209,-20.7118,-17.7594,52.9597,4.9022,151.6412,-36.1631
-1914.0625,-20.2975,-89.1988,-17.4374,-16.5935,62.1737,20.6752,22.6139,23.9763,51.7590,23.0708,-13.9117,-152.8925,-45.6147,-42.1533,25.7034,-44.4203,23.9651,-23.8370,158.0351,-99.8701
-1906.2500,-83.2254,-81.7801,-85.3357,-43.3772,-41.3787,64.0811,103.0635,104.5770,87.0841,66.5490,-118.7162,-181.4848,-39.2884,-35.8832,-3.6846,-37.8762,-2.8358,19.6332,166.6447,-56.3691
-1898.4375,-149.0088,-147.2160,-114.0855,-74.0172,3.2317,72.6309,111.6619,113.3252,135.9378,112.1757,-110.3656,-174.9410,-104.8172,-64.4672,41.0825,-29.1838,1.5216,24.2556,277.4197,-121.7249
-1890.6250,-122.9830,-120.8529,-87.0259,-48.8561,67.6462,99.9853,175.0734,140.8737,121.1444,139.5962,-120.2147,-147.6081,-40.5442,-37.2563,-5.3618,-38.6945,-113.3310,14.6871,126.9801,-131.2731
-1882.8125,-226.7076,-49.2467,-197.7207,-47.4424,-5.6993,99.5880,101.7186,140.6703,113.2389,176.2700,-193.8118,-74.0229,-78.0255,72.2090,-41.5619,34.0474,-76.9238,51.3792,233.8030,-94.5661
-1875.0000,-164.3743,-56.5891,-163.3565,-54.9788,29.0120,61.2445,99.4143,138.5128,127.3457,173.9868,-159.3590,-149.3954,-43.4557,33.7228,30.2951,-4.1722,-49.4707,45.1251,192.6782,-206.8179
-1867.1875,-163.3929,-90.2794,-164.3484,17.1357,-8.6388,97.5632,172.7685,175.0092,133.4877,173.3590,-234.2636,-187.1175,-7.2383,69.8856,-7.2061,-4.7526,-83.3749,81.5331,123.2026,-170.4165
-1859.3750,-245.2597,-135.8248,-138.1879,76.3902,91.8717,87.0327,125.2702,127.6525,145.8616,125.8829,-208.0017,-197.7041,-54.8728,22.1828,56.4465,-52.1776,46.8716,106.0922,183.8871,-180.8730
-1851.5625,-167.1606,-93.4193,-94.0573,153.5876,99.3305,130.4555,132.7294,62.2485,97.5366,23.3607,-200.7822,-153.3411,-10.5489,-7.5796,64.0397,-117.6532,19.0569,148.5977,50.5049,-173.3737
-1843.7500,-203.5620,-23.5033,-96.4280,188.2798,-13.7266,165.3752,57.6699,60.3522,62.2331,21.3514,-239.0615,-81.4770,-48.7308,27.1654,-11.8832,-82.6203,17.7476,219.6047,85.6329,-138.3635
-1835.9375,-113.1957,-2.8308,-35.0379,102.7242,11.9659,117.0341,82.3614,49.2022,78.0091,10.0857,-140.5891,-93.8654,-61.1721,-58.3473,50.9434,-94.8406,38.1859,134.3594,105.5168,-223.6079
-1828.1250,-62.7744,82.8966,-21.5968,83.2266,-48.2980,130.7496,97.1091,100.0997,66.1158,60.8649,-164.0748,-43.2045,-47.5710,-80.8082,-9.1868,-80.0126,-17.3296,114.1673,16.4469,-172.7978
-1820.3125,-83.4575,132.5264,-44.2600,62.6278,-33.6627,109.3586,0.7496,77.8891,37.8986,75.5450,-75.6506,-28.6500,-69.0675,-66.3687,-31.4064,-29.2918,33.0637,58.8795,66.2855,-158.0966
-1812.5000,-34.8299,41.4625,6.3953,5.3313,17.2753,49.2640,88.7052,54.9774,58.3949,52.5175,-61.9169,-50.8024,17.7421,-52.6412,56.6726,-15.2789,-24.2568,1.8957,-25.5935,-144.0972
-1804.6875,-44.4094,-3.8021,-45.1538,-4.1657,-33.9954,34.9700,73.4491,76.8689,43.9880,74.3061,-40.3848,-29.1576,76.3540,5.8943,42.5306,44.5459,-69.7751,-42.2759,-70.6675,-48.2879
-1796.8750,29.5688,-34.5284,-2.1409,-70.1056,-27.7047,-32.7722,-30.2639,46.3105,31.7946,80.6502,75.7002,-22.9728,45.5153,-25.0345,84.9343,49.9062,5.2622,-108.8853,-30.1827,-78.9372
-1789.0625,105.8537,-27.9532,75.1706,-64.7360,-60.1163,-28.1992,48.3336,88.0466,14.4319,49.2823,44.0784,-55.4803,50.9778,-20.6638,16.6278,55.5542,-59.3996,-137.1875,-94.4090,-37.2817
-1781.2500,-1.6066,-66.1098,-2.2632,-67.1126,-100.2819,-32.3824,7.1703,85.0132,23.6892,45.1423,2.7137,-95.7162,-27.3257,48.9585,12.5744,161.4375,9.2173,-104.2388,44.6232,-4.3775
-1773.4375,61.1959,-108.0085,65.5702,-109.2382,-32.1895,-37.3136,39.2659,43.2184,18.4444,3.2423,34.6029,-101.7065,-32.3713,43.8293,44.7706,119.5646,2.0768,-146.0386,2.8884,-46.2278
-1765.6250,96.8375,-72.0660,26.2492,-73.5107,-71.2567,-40.3874,36.2062,40.2827,-3.4984,37.2069,31.3399,-66.8612,38.4424,40.5582,-32.1903,117.5523,-33.2191,-144.9741,-31.9934,24.7801
-1757.8125,139.2375,-99.3855,72.6908,-135.0364,11.4369,-139.7101,-28.1037,-23.9004,-3.2214,9.9254,150.8378,-58.2868,47.9977,13.0272,51.5969,90.2900,10.2303,-207.1632,46.8857,-2.4680
-1750.0000,189.4404,-48.9073,122.9348,-120.7597,-12.0845,-163.2303,59.3952,-46.2838,-22.6231,-49.5549,128.1364,29.0841,98.3536,63.3035,65.1641,66.8330,-115.5375,-226.5503,-77.4376,48.0909
-1742.1875,62.2439,-33.8341,23.7715,-141.8904,-72.0077,-187.1503,-1.5111,-33.0695,-12.1783,-36.4325,66.0335,78.0530,73.3078,149.1889,77.3206,78.9712,-30.6918,-177.3348,40.8559,97.2428
-1734.3750,103.0663,5.2340,32.6243,-137.0211,9.0786,-216.0698,80.5923,-97.8618,-5.6781,-101.3152,74.9450,50.0237,82.2681,84.0642,123.4778,14.0971,-26.8586,-172.1243,11.1398,32.3799
-1726.5625,49.2891,-46.2920,10.8769,-119.7518,-11.4421,-163.5821,133.1008,-82.2460,-1.0380,-85.7923,16.2508,28.3881,97.6259,99.3402,65.0272,66.6212,-43.6307,-119.5004,-6.1716,84.9207
-1718.7500,5.4073,-91.9248,5.0321,-128.5838,55.9369,-169.1924,53.5054,-88.7232,-9.4988,-92.3649,84.4653,-14.3624,54.8763,56.5122,59.4866,98.0389,51.4981,-93.9762,90.4273,5.3525
-1710.9375,49.8304,-47.2618,53.4920,-85.1145,67.6133,-121.4985,138.2195,-77.8995,-20.7402,-117.6311,58.9749,-2.8219,66.4291,67.9859,34.2429,72.7595,-9.0848,-84.1492,-40.6909,-19.9112
-1703.1250,12.6535,-14.2010,-24.6489,-52.2375,26.6819,-88.4057,61.3181,-44.6727,-18.2880,-48.4928,17.8822,30.1157,62.3827,100.8639,-6.6095,68.8852,-12.2586,-50.9249,28.5980,13.2316
-1695.3125,39.2873,-92.3424,-28.9749,-59.5645,95.5540,-56.5177,93.2205,-48.6426,17.2722,-52.5536,49.5988,-11.1528,57.1297,22.5352,62.3329,-9.1956,-19.6311,-57.8961,55.6893,-64.8343
-1687.5000,-67.5701,13.0227,-68.7966,-25.3826,19.9189,14.8820,127.6195,22.8954,26.3061,18.8872,-63.1817,96.0774,18.3746,19.7123,-13.2442,-11.7819,-56.5046,-23.3544,-14.7270,-30.4006
-1679.6875,-170.0160,85.7899,-101.2102,12.2037,24.6837,19.6813,22.4031,27.8291,29.4677,59.7367,-21.5480,100.6983,-13.9828,-12.7127,-8.4299,-6.9738,52.0386,-20.4087,58.2624,-62.5830
-1671.8750,8.1532,89.1512,49.9917,14.3981,65.0594,-12.9126,62.7937,-41.6384,-13.9542,-8.8057,-17.3086,104.9136,63.2645,-45.5518,-41.0170,-39.5681,19.1687,-52.8704,-44.1722,-95.1707
-1664.0625,-16.4285,98.7591,22.4457,24.8418,0.6787,32.7443,71.4319,-32.8512,-9.5260,-0.0960,-82.8227,113.3792,35.7572,-0.1374,-69.3613,-30.9171,29.5493,27.9240,-33.3527,-49.5039
-1656.2500,-21.2967,24.0746,55.6133,54.9813,33.9990,29.0983,31.7788,1.6288,13.0350,-39.6959,-48.6290,36.5414,31.9568,-77.0268,37.9945,-33.5706,59.6231,23.4130,-2.8411,-89.1367
-1648.4375,-17.3698,28.1974,19.5746,58.9240,-38.8918,67.2488,69.9258,38.9086,34.6288,34.5056,-85.6396,0.5112,69.9548,-77.1092,2.1422,-70.4256,-6.5028,97.7075,-69.5229,-14.9583
-1640.6250,-53.4973,-42.7370,-54.5154,23.8167,-38.8315,103.3506,33.0200,76.1352,62.9398,107.6592,-48.6957,0.4282,-41.0977,-40.2411,2.2479,-70.3351,-42.6743,132.9539,1.7480,-14.8335
-1632.8125,24.6795,-105.3700,-8.3015,-3.9855,7.5232,112.7586,78.4196,84.6671,55.6717,80.1156,-39.4540,-27.3566,-31.8497,-31.0716,11.6468,-60.9519,-105.5551,105.5140,-61.6924,-42.4076
-1625.0000,-25.2405,-49.0954,-63.1847,17.1163,-83.2287,169.0678,24.7083,105.0991,16.5926,100.4775,-57.2998,28.7601,-49.7099,24.9912,-79.0620,32.3345,-84.5275,91.9828,-75.2271,13.9107
-1617.1875,2.2178,13.5286,-32.6962,8.5715,-16.6224,52.7278,-55.6569,24.8769,-17.7470,57.1905,10.2161,59.2161,-56.2134,18.3968,-49.4329,62.9659,12.8465,13.8016,-48.4255,-29.4329
-1609.3750,26.9823,2.4448,27.1018,68.3341,-30.7205,38.6957,41.2811,10.9496,-9.9442,6.1922,-76.9645,44.9650,-33.4107,41.1142,-26.5202,11.8994,-33.4755,38.9206,-163.3266,30.5264
-1601.5625,-55.5980,-77.9974,-59.4411,56.7460,-43.1580,62.3094,-45.1325,34.6594,13.7210,29.8324,-53.4881,-5.6431,-9.9524,27.4853,34.0410,-1.5272,24.8668,97.6886,-68.5707,54.1266
-1593.7500,65.7290,-63.5312,32.9266,37.0705,49.3051,44.8283,-26.6343,-19.7384,-18.8593,-24.6373,75.8893,-23.3524,46.4130,-27.2420,53.4947,-19.0659,-29.9006,43.3574,-158.9318,-0.3730
-1585.9375,73.7602,14.6366,-0.0058,44.1009,-19.5386,86.0491,14.5490,-14.4433,-47.7533,-55.4047,42.9799,17.6454,50.4748,50.7331,-15.3546,22.0880,-21.9584,50.7387,-185.5946,77.8282
-1578.1250,1.5132,-56.4877,0.7803,43.8364,17.3180,49.9713,-93.5680,-14.4481,-41.6224,-19.4744,43.7829,55.3422,14.2321,88.4101,-15.5117,22.9375,47.6814,50.8197,-46.5751,41.7218
-1570.3125,54.2157,-4.6579,19.5151,60.5343,-0.8912,68.8557,-39.7472,4.5041,-40.7076,36.4105,25.5323,36.9953,-4.0654,70.0503,-105.7346,-32.2523,-6.7312,32.8616,-98.6125,23.5687
-1562.5000,-23.9262,24.3210,-61.5945,88.3861,-80.9477,61.8897,-118.7858,34.6005,-39.7110,66.4453,-18.5649,103.7962,-11.2146,99.8448,-112.8088,-2.2941,57.0173,26.0514,-1.4937,16.5526
-1554.6875,31.6971,44.0513,1.0615,72.9941,17.7505,13.6716,-21.0625,-13.5604,-37.8488,-18.7758,7.0898,128.3473,-22.6058,50.3923,-52.1436,-50.5935,41.5179,-24.0160,-50.6424,-68.7203
-1546.8750,8.2753,90.7374,-28.3280,84.5629,-48.6039,58.4024,-13.4000,31.2220,-58.1615,-11.0484,-22.2953,172.8533,21.9540,95.8934,-116.5384,-42.9460,-18.0211,-13.1326,-74.8433,12.9545
-1539.0625,10.9205,93.4766,-23.6538,52.1898,-6.9057,26.1833,-118.6929,-0.9512,-78.3445,-6.2749,19.3850,177.4003,-47.4336,63.4422,-148.8802,-1.2538,90.4938,25.7914,33.9971,-19.3331
-1531.2500,70.0190,117.6663,2.4768,76.2760,-17.7701,52.4262,-56.5334,25.3281,-75.1111,-17.0474,-28.4844,166.3968,-58.3647,15.4544,-159.7803,-49.1130,9.4454,50.1642,-47.7278,-30.1674
-1523.4375,-34.6315,118.1042,-108.1382,111.6194,-127.3914,88.9213,-93.1352,62.8617,-52.8385,57.4358,-102.0939,166.6448,-95.0491,88.7205,-196.4329,-11.7253,79.6502,120.7801,23.7980,-29.7542
-1515.6250,19.9826,68.7929,-9.4928,132.2153,7.2328,40.6707,-30.4845,13.6438,-37.7688,8.1652,-3.4491,81.1506,-32.4881,3.2350,-135.8436,-97.0962,100.0995,35.6447,8.5622,-115.0874
-1507.8125,43.7468,21.6400,84.3016,84.9676,64.9909,24.5708,26.3072,-76.4219,-72.6012,-81.9554,17.3464,100.8103,97.2144,-13.0979,-151.1161,-113.3140,87.7048,-10.3380,-38.5168,-21.2634
-1500.0000,75.3243,18.2937,80.9092,11.5247,97.5509,-52.7338,-14.1039,-151.6981,-70.3677,-121.2812,50.9490,97.2730,57.7113,-16.6332,-82.5900,-80.7301,155.1181,-49.5310,64.1978,-24.6450
-1492.1875,144.2116,86.2470,115.8261,-25.6091,132.4050,-127.7354,57.7860,-153.6735,-77.6357,-159.3046,48.8508,95.0425,91.5141,-55.8630,-47.7769,-82.8485,81.8286,-86.4231,-43.8050,-26.7208
-1484.3750,102.9038,115.9987,68.5474,3.0651,48.0523,-100.9348,9.4566,-90.8528,-81.2097,-96.5304,0.5666,121.6104,44.1141,6.7156,-94.1622,-19.1700,111.3501,-55.5119,-84.0077,73.0007
-1476.5625,197.0669,70.2038,131.7324,27.1950,74.1479,-111.6846,-147.4252,-138.5926,-111.6870,-107.3151,137.7439,110.6283,33.1667,-40.2496,-32.1060,-30.0431,170.3227,-66.1500,-129.7778,62.1670
-1468.7500,213.9894,121.1656,144.6762,79.0874,-22.0166,-61.6777,-133.5639,-88.5859,-123.2825,-130.3555,76.6778,123.4035,46.9672,-26.4557,-18.3207,-16.1688,81.0533,-50.0382,-253.8011,149.0851
-1460.9375,92.8750,71.0770,90.5836,63.9356,-76.2250,-78.7290,-187.7552,-68.6433,-103.8601,-110.4548,60.5768,70.1291,-6.2834,30.2830,1.4103,76.6502,135.7498,-64.9798,-127.8735,168.9442
-1453.1250,176.3789,-56.4107,142.1093,-28.6055,-24.8379,-101.1794,-136.3439,-91.1062,-84.9117,-96.9578,111.0804,11.4563,44.0696,43.6177,51.7267,90.0610,43.0448,-157.3239,-150.3590,146.4033
-1445.3125,113.5876,-118.1993,75.3395,-55.4451,-91.7576,-130.9311,-130.2440,-47.8727,-61.7949,-16.7630,117.2941,54.4872,87.1205,86.6619,21.7380,97.1733,16.0512,-149.9725,-107.1411,189.5602
-1437.5000,91.0095,-35.7772,53.7867,-113.0788,-2.4714,-225.4909,-114.9428,-105.4456,-58.5790,-74.3731,170.7150,105.7230,102.3779,28.9090,109.9492,112.4804,-5.7414,-101.4287,-59.7414,131.9084
-1429.6875,65.0819,9.2969,26.8836,-69.0503,-30.5429,-106.3989,-31.9924,-59.3732,-42.9346,-65.3363,105.7873,77.6156,111.2938,1.8187,81.8046,84.4381,-102.8843,-22.2292,-120.7075,140.9114
-1421.8750,-59.6851,-82.4819,-64.8590,-53.8647,-49.4576,-51.1637,-87.9052,-41.1639,6.0581,24.8465,13.0181,21.6606,18.3632,91.8786,62.8149,102.5457,-18.8713,62.1136,68.4742,85.0569
-1414.0625,-7.6968,-100.5113,-41.8432,-72.9195,83.3748,-28.1756,45.9363,-55.2081,46.1921,-24.2265,-36.0026,-64.5399,43.1882,42.6985,123.5706,-20.5988,-36.1109,45.2017,86.3873,-38.0453
-1406.2500,-31.4612,-54.2845,-67.5773,9.2808,-15.5502,20.0609,130.0198,-44.0064,31.8263,-87.0523,-61.7711,-16.4789,54.2566,53.7814,61.5672,-46.4961,-61.0892,56.5344,97.5569,-26.8960
-1398.4375,-7.9549,-64.8006,-38.0481,-2.2625,49.7767,11.5472,85.3545,-51.5612,31.0738,-94.6330,77.7217,-24.1660,45.5739,-27.8863,89.8103,-91.1520,-71.8160,45.1091,156.9620,-108.5049
-1390.6250,32.1034,-59.7669,3.0360,2.7580,91.6434,90.5946,164.2321,-9.5652,24.3781,-52.6615,82.7598,-56.2980,87.4435,-22.9974,20.5880,-86.2592,-207.9877,50.2441,20.9061,-103.5611
-1382.8125,-73.1339,-60.0348,-72.1757,37.4908,16.2030,125.3480,50.7944,61.1307,23.0405,19.0113,7.5041,-58.7330,12.0070,84.5973,-17.9309,-14.6685,-138.4481,121.0841,55.5490,-68.9305
-1375.0000,2.2437,15.3062,10.2238,113.8391,61.3589,97.7145,22.9600,-3.5782,-11.1785,-45.7230,52.8501,-86.5639,-16.8247,19.8012,-9.8548,-79.4920,-27.3164,91.5207,-44.2321,-133.7097
-1367.1875,24.0198,72.0546,30.0208,205.5976,-29.0949,154.4879,-30.4846,-19.8900,-61.9797,-63.0511,-0.4004,-29.9849,-33.2612,39.4120,-100.3893,-59.9199,64.2209,77.3563,-128.6127,-77.0890
-1359.3750,30.2646,43.2510,75.2866,211.8106,14.9094,125.7125,-133.4796,-48.7604,-73.8290,-54.9402,80.8165,-58.9591,-99.2465,10.4668,-92.4745,-51.9039,141.2120,48.6386,-86.5558,-106.0240
-1351.5625,100.6238,43.5413,145.6624,177.1313,49.0011,122.0408,-63.3762,-52.5328,-80.2929,-95.7376,41.1374,-62.8258,-29.1278,-29.3703,-59.4691,-18.7874,35.3064,-20.9754,-192.4157,-35.8502
-1343.7500,-7.9162,39.9343,99.1422,138.5612,-33.8061,38.4711,-146.1879,-24.2170,-80.0940,-67.4413,30.5645,1.4091,-37.9109,33.8989,-31.3593,118.4240,31.5163,-59.4847,-125.1760,101.4188
-1335.9375,-0.6480,82.1337,106.4335,74.8040,-26.8159,-63.2930,-175.1949,-54.1086,-74.9964,-97.3510,74.7940,8.4536,-30.8879,77.9747,84.5435,88.4305,38.5237,-87.1932,-153.1589,108.4833
-1328.1250,47.0660,93.7918,78.1734,86.5156,-166.3838,-55.5992,-167.7645,-9.5478,-95.0597,-52.8107,83.4741,89.9562,-60.4144,159.5129,-17.1160,60.8884,14.9845,-40.4484,-212.7007,189.9994
-1320.3125,34.7940,153.4433,67.9230,146.2306,-212.9482,-27.9056,-288.3388,-18.9965,-109.6140,-25.2744,147.1664,116.4552,-142.9366,113.0555,-63.7761,-22.6526,73.4520,-16.7121,-118.2481,143.5094
-1312.5000,107.2786,189.8389,147.4285,147.6997,-171.7631,-23.4621,-209.1563,-50.6969,-111.6874,-56.9960,115.6090,84.7084,-101.6967,7.3528,-95.6904,-91.4464,39.6657,19.7699,-152.0580,74.7750
-1304.6875,-5.7347,147.7310,66.4350,105.6678,-142.0793,42.4689,-143.4833,-57.9074,-85.9531,-28.2147,34.5628,40.4690,-71.9535,37.1499,-140.1020,-98.7436,68.3930,118.7465,-89.3630,67.5375
-1296.8750,-15.4815,66.8884,97.7043,59.8964,-1.1466,37.6531,-76.5616,-101.8702,-44.1281,-34.1843,65.7739,-75.5166,-41.9645,32.2010,-73.2719,-141.7939,92.3618,107.9675,-29.4390,-48.4564
-1289.0625,29.2665,6.5538,69.4669,34.6431,6.2736,82.3520,4.8510,-20.3274,-43.3976,-26.6508,37.4806,-103.9907,39.5205,39.7638,-101.9538,-97.3395,-3.1698,47.6909,-91.0202,-3.9450
-1281.2500,-33.8833,14.3196,3.3352,42.5003,-23.2101,53.1466,-61.6445,-12.6942,-29.9845,-19.0215,45.2952,-23.3643,-26.8938,10.4273,-58.5351,-53.7836,39.4092,20.5094,22.5004,3.6567
-1273.4375,32.1273,79.2368,37.3671,2.5150,-26.5471,50.0914,-27.9821,-15.9160,-10.7333,14.7464,42.2604,10.4171,-67.1493,-29.7542,-24.9690,-57.0797,-35.8614,-19.5339,-17.8483,-36.5926
-1265.6250,-80.4538,107.5499,-83.1934,-5.0683,-37.4855,113.4307,35.0708,84.2514,36.2082,114.9089,-114.3604,36.6017,-113.0055,33.4751,-72.0034,6.0243,-78.7186,-62.1865,45.2043,26.5590
-1257.8125,-134.3146,17.5635,-103.0377,-59.9484,16.2759,56.4656,14.8232,101.1132,79.5905,130.7632,-62.2664,-20.5133,-133.1613,-23.5915,17.6670,59.8258,-63.8761,-82.1477,164.9371,6.4089
-1250.0000,-70.9704,9.7812,-39.6821,-65.6184,42.2213,45.7070,40.7669,90.1763,50.8614,120.8281,-70.9699,-30.4170,-70.1213,2.5490,-29.4701,48.8240,-140.8380,-52.9102,51.8613,69.4680
-1242.1875,-95.4257,-13.7979,-101.1306,-54.0791,-19.6301,20.1391,-57.0942,64.4331,34.0344,132.0957,-59.4712,-19.1094,-95.8813,87.8890,-54.4066,60.0192,-24.5972,-7.4784,133.9873,80.7208
-1234.3750,14.7772,26.2875,-55.9254,-50.8766,26.1642,30.2239,-12.2982,37.3335,15.6729,31.0004,-14.3278,-10.1407,-87.9875,-13.1178,-9.6962,-41.1386,15.2893,-2.4056,67.7473,-20.3747
-1226.5625,-30.3225,52.0767,-67.0201,11.0359,14.6433,93.0076,50.1821,25.9280,15.0732,19.5967,-98.4819,15.5356,-62.3932,-24.4133,-58.2880,-52.5912,40.8942,58.3663,23.2067,5.2357
-1218.7500,7.0470,18.3082,12.3504,12.4040,92.5766,24.2402,-18.8953,-43.0371,14.5360,-12.3653,-20.1717,-90.3421,-57.3485,-93.2592,20.5719,-10.5963,112.9597,24.5831,59.1005,-63.7057
-1210.9375,69.0746,-24.8137,112.3783,-30.5718,82.1489,-59.8782,80.6740,-53.3540,9.6561,-59.6816,6.7909,-136.5659,43.3469,-103.4438,47.0761,16.0464,33.6824,-18.5473,-55.3630,-36.9910
-1203.1250,31.7519,-63.2863,72.0591,-68.8963,41.3792,-136.3480,39.8895,-21.0270,12.7749,-27.3487,39.4092,-104.1363,38.6886,-33.9795,42.2285,48.3325,66.0650,-57.0297,12.8300,-4.6322
-1195.3125,154.3380,-45.8617,130.6480,-51.3217,99.5114,-152.9178,61.0108,-72.8045,-14.6168,-42.1189,134.9269,-119.8057,96.9401,-85.6146,-9.7193,-3.4823,83.3444,-145.6160,-6.0907,-93.3737
-1187.5000,119.2238,23.8591,128.5357,-16.4416,23.9365,-81.1891,58.4288,-75.2838,-44.4391,-44.5897,95.7465,-11.1676,131.4881,-50.9465,-86.3721,-42.9955,46.9307,-110.9037,-41.7114,-58.8129
-1179.6875,94.9735,34.4253,69.2873,29.2894,37.2160,-103.6197,-1.3025,-97.9228,-31.0579,-67.2150,110.4253,-33.6800,108.8905,-36.4257,0.8358,-65.6649,93.3695,-135.3508,38.5066,-118.4114
-1171.8750,139.1214,79.3974,115.4397,74.4243,45.8911,-94.6454,81.3696,-89.1652,-32.8148,-95.4384,119.5004,11.2094,80.6998,-27.4997,9.4415,-130.9377,-3.7935,-126.4040,-92.8873,-109.6050
-1164.0625,115.5719,90.6686,86.8940,85.8637,-19.1369,-49.3728,-20.6691,-81.1094,-53.9992,-50.3627,90.8808,20.3983,15.8096,17.7213,-55.6456,-85.9126,43.3537,-44.1626,-81.9770,-27.5040
-1156.2500,161.4301,-4.6593,135.7516,60.7017,-7.7618,-37.7002,-46.2968,-106.6575,-42.0059,-112.8935,139.6602,-42.0115,-46.6820,-44.6572,29.6726,-74.4953,87.8942,1.4789,-36.6719,-53.0100
-1148.4375,78.7284,18.4534,84.0518,13.9931,-60.9447,20.4308,11.5291,-48.7512,-30.2383,-54.9724,-23.1183,-20.9696,-25.7205,13.4231,-60.5607,-16.6235,40.8867,59.5679,-14.9096,4.9354
-1140.6250,-5.0741,4.4549,-1.7457,0.1856,-36.2178,45.4605,-74.7466,-23.9460,-10.4695,43.8525,2.0090,3.9686,-37.8536,-35.6012,-72.8893,8.1472,96.7829,45.5488,76.7579,-44.2233
-1132.8125,70.9284,-24.7487,42.2568,-28.8148,44.3057,16.2947,6.7858,-16.3401,-10.9141,14.4719,45.9399,-25.2874,6.8205,-101.8242,-65.4224,-21.2810,-2.5222,51.3239,12.2112,-73.5763
-1125.0000,11.0351,-50.8433,12.3550,-19.7092,-23.0745,-14.7827,-24.5930,26.3548,20.4014,94.1890,-21.0262,-19.4344,12.5900,-58.9428,-59.8523,21.3875,7.2894,26.1966,56.7719,6.1682
-1117.1875,28.1070,-68.9752,31.4147,-37.6437,-4.5001,-69.9131,-43.0168,44.9892,58.2626,75.8469,34.9611,-110.6258,-79.6869,-77.1103,69.6680,40.0035,24.0454,-62.9904,108.2649,-12.1429
-1109.3750,3.3256,-22.9593,1.6199,-26.4184,-69.7825,-24.8893,0.7067,88.7669,69.0992,119.6494,-30.9023,-65.6659,-107.8101,-32.1156,76.3384,83.7746,-106.0425,-51.0216,-22.1017,68.7019
-1101.5625,-93.9529,-15.4500,-136.6723,-18.6918,-99.5606,-17.3694,-101.0765,96.0377,66.3295,163.9422,-23.2596,-22.2052,-100.4341,48.3790,83.5166,91.0503,-62.6215,-9.5593,55.0327,76.0405
-1093.7500,2.9211,11.2097,-33.8129,-26.8108,-70.1886,-24.6966,-35.7015,89.4586,40.0334,83.3824,43.5270,7.4091,-34.9056,5.0265,113.8483,84.4720,-142.0568,-52.9498,-58.6967,32.5338
-1085.9375,-15.7141,96.3694,-57.4603,-10.4296,-132.3206,-11.5254,-59.8338,63.3713,9.6204,57.3197,-17.1854,55.5304,14.1250,53.1802,87.6833,132.3934,-126.9765,-37.8434,-78.9177,117.5315
-1078.1250,-60.4876,51.3815,-29.2459,13.8042,-66.5995,-93.5102,-105.1122,18.1255,24.7464,49.0957,46.9561,10.5039,42.0110,8.1777,153.3787,124.1561,-32.0465,-82.9022,-19.2996,72.3751
-1070.3125,-6.3653,36.2913,26.8627,68.9357,-83.9881,-73.5988,-85.4881,37.7773,12.1574,68.7744,29.9922,-5.6183,61.7969,-7.9173,98.9720,69.8242,-46.2141,-98.0622,-139.7782,92.1248
-1062.5000,-57.8458,-16.4070,-26.6321,87.4665,-175.9682,-18.2927,-177.4666,56.8294,13.3881,124.8585,12.4291,49.6507,-29.0185,84.3897,43.9696,88.8963,40.0264,-80.8287,-17.8516,74.2675
-1054.6875,52.9230,25.1354,21.1215,93.2488,-92.6993,-7.7360,-130.1838,31.1336,-16.0943,62.1918,61.1107,61.1706,-55.5756,21.9506,18.2201,26.2206,46.5159,-110.3458,-82.6892,-25.3370
-1046.8750,1.4352,113.4239,2.6212,111.7839,-146.6795,47.5691,-76.1608,49.1839,-30.7188,43.2762,-31.4574,115.4466,-0.3840,40.2669,-37.7785,44.2986,-5.2326,-92.1115,-99.7703,-7.1869
-1039.0625,19.3553,61.1193,-12.4714,94.7216,-53.2546,32.2689,-91.7354,33.6269,-6.6882,27.7505,27.3789,-9.8751,-15.7897,-12.0229,20.6323,28.7693,47.4234,-38.4835,-11.4561,-59.6434
-1031.2500,42.7211,-56.7292,47.8803,48.1145,-30.3870,55.4236,5.1412,56.5190,7.8916,13.6749,13.6562,-60.7382,44.2563,11.1374,6.4936,14.6890,-34.4708,-51.4011,-23.6966,-36.6425
-1023.4375,-109.4161,-68.0815,-76.2680,2.0101,-81.0169,79.0735,-8.4902,152.9083,52.0027,110.0977,-36.5619,-37.1028,30.7980,71.7997,-7.1383,1.1099,-81.8559,-27.8202,104.5673,-13.1437
-1015.6250,-123.2929,-12.1924,-159.1640,-47.8394,56.6046,68.9708,55.1387,143.5396,83.1504,137.7557,-82.5271,26.7836,20.5960,24.7162,56.4853,-45.2194,-166.9908,-41.9919,90.0665,-133.3908
-1007.8125,-199.7266,-18.8491,-204.6142,-125.2360,45.6715,95.3135,155.2143,169.6109,123.0380,163.8588,-202.0457,53.1261,10.8478,15.0884,45.5586,-19.0972,-207.6661,91.2893,118.0179,-70.1822
-1000.0000,-240.9093,-95.2513,-209.8099,-166.3835,114.9931,53.8987,150.5419,127.9197,138.5213,122.2081,-134.3089,-61.2897,42.3548,-63.2944,114.8910,49.2738,-109.0851,155.8204,181.2150,-111.7320
-992.1875,-164.2478,-87.8054,-129.1587,-158.6737,195.1623,61.3424,193.7222,61.0858,113.4223,55.4158,-126.7320,-127.8598,123.7175,-129.8240,122.0754,19.4982,-172.6616,163.1988,83.2518,-104.4282
-984.3750,-185.4404,-76.2169,-154.3624,-75.8121,132.4857,71.9351,168.0428,35.4000,104.6905,65.7764,-151.9973,-80.2855,97.2304,-82.2061,58.4186,-43.1217,-125.0787,175.7193,130.4421,-56.9761
-976.5625,-148.2730,-107.2793,-111.2066,-71.5998,175.1586,4.8719,137.7219,4.0574,93.5304,35.4732,-145.9100,-73.3567,141.0888,-38.2418,102.1272,-36.3949,-86.1480,143.5777,132.9706,-124.1691
-968.7500,-132.3622,-92.5786,-97.3128,-55.6345,115.5682,55.5551,188.1548,18.4605,53.8943,-24.0833,-204.0833,-22.6674,154.6914,12.4789,41.5923,14.0852,-106.4633,124.1806,42.2517,-73.6009
-960.9375,-197.0588,-88.4736,-130.0269,-51.2707,82.3842,-13.3692,117.9877,-14.7406,76.9782,-20.2430,-127.8558,-55.5756,47.6960,-20.4021,119.4641,53.9608,38.6248,92.1812,116.9423,-69.6371
-953.1250,-85.6632,-81.2754,-48.6500,-43.8090,89.2985,-6.1898,161.9282,-7.8387,69.5885,-50.2988,-83.5436,-85.3783,18.8061,-87.1815,126.4348,24.9392,-24.1912,64.2831,17.7388,-62.5706
-945.3125,-36.4314,-67.2399,-38.4376,4.4983,-10.9364,40.8371,98.7169,1.9144,53.6162,-3.4949,-36.3869,-38.3355,-45.2417,-40.1114,63.2645,-2.2236,-11.1487,78.2344,-4.5958,21.3392
-937.5000,94.5547,-42.4561,64.5253,-4.4492,-19.4092,-4.3884,16.2732,-43.5894,8.3091,-48.9547,66.5176,-9.5513,-90.5360,25.7001,54.8530,-10.6434,49.6450,-38.0688,20.8198,-24.0079
-929.6875,136.2843,-0.9198,69.2306,37.3453,-88.1273,0.1257,57.5895,-39.3499,-36.7862,-116.6665,34.1661,68.9857,-49.0766,140.2569,22.1932,-6.3162,-14.8024,-100.6182,-79.0060,17.3998
-921.8750,-16.0834,58.5138,18.8390,61.0340,-100.9298,23.5287,-66.1888,-52.2178,-66.3313,-93.4810,20.7192,202.4206,-61.7182,200.7004,8.4459,53.9074,44.6614,-148.2726,-55.9243,40.6998
-914.0625,39.0029,78.3998,75.8971,81.1680,-81.2774,43.3794,-46.5026,-68.6343,-76.1559,-110.8473,114.7119,185.3040,-41.9021,110.5930,28.1547,36.5783,-6.4379,-128.4803,-176.3979,60.4547
-906.2500,47.7709,84.9811,42.6395,53.9974,-152.9273,82.9163,-81.1210,-67.3532,-90.5062,-108.5152,116.4061,113.8859,-39.3820,112.1886,-5.4262,39.9546,1.1723,19.0127,-205.1541,172.9145
-898.4375,101.4916,0.5068,64.3311,3.7714,-93.6179,-3.6031,-131.7784,-81.1247,-76.9538,-123.2389,214.0550,27.4080,-52.9082,61.7252,52.9532,-10.7257,90.7337,4.4596,-114.9620,122.3175
-890.6250,178.0532,39.8728,143.8667,9.4000,-88.4617,1.7279,-52.5796,-113.0460,-89.8731,-118.1115,108.5457,68.7771,25.4221,31.1092,-13.8197,-79.5557,26.1496,-26.2328,-215.9105,127.5739
-882.8125,21.4556,58.0829,16.2508,27.8759,-70.4422,-17.0939,-144.5312,-131.1278,-81.6604,-100.1402,-19.1173,197.9857,-29.3942,122.3336,4.2720,-61.5424,114.4311,-43.0719,-56.9882,145.6693
-875.0000,-10.7964,95.6385,55.9801,29.6963,6.9415,-49.5678,-67.1090,-163.8692,-65.1114,-132.8315,-14.4448,202.5424,-61.8561,89.9033,43.7291,-57.1884,118.0647,-40.5635,-89.7195,113.1122
-867.1875,-34.2123,143.0414,-5.4552,77.3594,-55.8238,-76.1957,-19.8301,-116.7682,-75.7062,-121.6718,-40.9349,175.9490,-14.4734,64.3275,-54.9540,-9.9803,94.5597,42.7944,-77.5836,160.4047
-859.3750,63.5170,65.5937,27.2547,34.1741,-23.4240,-78.6752,-60.3959,-120.5220,-48.5034,-88.3704,102.7264,-11.5079,-18.9357,-13.1031,-22.4784,-50.6194,122.2104,104.2968,18.6995,46.8374
-851.5625,151.9879,-57.1046,84.7093,17.7443,33.7174,13.6009,69.7898,-64.5235,-14.4255,-69.3198,49.1267,-100.2172,1.3566,-65.7773,-39.2523,-31.5023,35.6137,87.5512,-33.2656,30.0255
-843.7500,23.1550,-44.1058,20.8562,-4.9904,6.5642,23.5723,42.6752,-17.8288,-8.0378,-58.5724,22.2295,18.7687,-24.6526,-18.7555,-28.3080,15.3071,46.7243,-6.4982,48.4874,76.9090
-835.9375,32.6248,-0.8143,32.2983,-64.4343,54.7234,-74.1577,16.8789,-79.8385,-25.4712,-121.5287,33.6258,177.0488,-14.3561,-44.4462,55.9500,-10.5917,21.1309,-102.2481,58.5396,51.0909
-828.1250,-31.4757,39.9306,-37.8269,-59.4308,-15.6670,-72.4401,55.5387,-41.4034,-9.8715,-46.0358,-110.5391,216.7798,-10.6088,31.3152,-14.3330,28.9621,-43.0099,-61.5452,63.0521,126.7243
-820.3125,-74.2356,67.0288,-80.6113,-67.0801,50.3053,-115.3819,12.5593,-47.6268,-13.0576,-16.2046,-79.3571,209.8542,-17.5062,24.4214,-57.2486,21.8769,19.2059,-33.4966,160.9213,83.6980
-812.5000,56.5991,57.7232,19.2024,-76.1283,114.8784,-124.7257,77.1906,-57.2473,-27.5324,-61.7737,-15.5823,127.5217,46.2015,-56.8704,-66.5621,-23.5980,-58.9788,-42.8482,81.3872,74.2773
-804.6875,43.7239,-60.2903,-30.6940,-123.8836,25.7564,-65.7757,25.1135,0.4271,-10.9860,31.9565,-29.5075,75.4857,68.2064,-34.8644,-118.5660,34.2257,-2.8459,13.1072,138.1753,96.1540
-796.8750,62.8518,-111.3019,-8.5903,-140.6473,86.6499,-79.8291,12.0500,23.0914,16.3797,55.6810,-7.4379,25.4445,18.2228,-49.8696,-59.5611,21.0277,16.2884,-38.9355,155.9661,9.0231
-789.0625,16.9144,-51.3616,-21.5526,-80.4622,35.5048,16.0637,71.9540,45.6995,4.9932,4.3458,-93.4315,48.3518,4.1964,-25.9324,-71.5975,6.7695,5.3742,20.9775,39.7247,68.8420
-781.2500,-48.0394,-47.4310,-51.5233,-5.2902,5.3747,22.9523,-32.1248,-21.6993,-27.4326,-61.9957,-50.4312,55.2414,11.1729,-20.0033,-65.6102,-23.4874,116.4647,96.8923,115.4970,38.6525
-773.4375,80.7981,-24.7098,85.2967,-17.3200,105.0437,-24.3561,31.6014,-141.2899,-55.9289,-145.5323,12.3627,7.9208,74.9520,-103.2750,-76.8188,-106.9321,69.3491,84.6089,68.0650,-8.7303
-765.6250,69.5763,-1.0444,35.0574,-28.4133,55.6624,-73.7230,18.2716,-81.9340,-51.6615,-86.1181,-0.9001,31.5435,61.6798,-79.5938,-125.0652,-83.4147,58.1993,108.2736,91.6046,14.8355
-757.8125,87.5547,-52.1863,22.0186,-44.3177,115.4948,-87.9037,41.1617,-59.3829,17.3190,10.4879,23.0326,-18.6420,-25.3912,-130.7268,-66.0972,-60.6947,6.2491,56.1352,180.3498,-72.4015
-750.0000,23.8675,-46.9784,-47.6863,-2.8765,46.6745,27.2585,119.4128,91.5122,79.4698,124.4422,-119.6939,-51.4755,-58.1044,-89.5134,-61.7695,-56.6268,-128.3446,-7.6567,115.4577,-31.2810
-742.1875,-155.0765,-190.0155,-161.6515,-41.6920,4.6196,22.1582,78.4156,160.1459,146.6198,193.1431,-160.6663,-92.5667,-99.0653,-57.5554,44.3279,49.1757,-96.1840,24.3034,218.3300,0.5836
-734.3750,-90.6298,-230.6502,-58.2260,-82.1095,108.9692,-20.5422,145.8367,117.1806,131.9726,113.2337,-93.2492,-134.2648,-31.6154,-135.2020,75.8420,6.3717,-101.6251,-52.3332,141.5925,-5.1491
-726.5625,-50.2521,-121.3418,-55.8658,-77.5848,-0.7359,-55.2947,110.2089,118.1604,92.6216,114.2736,-54.8907,-60.0182,-30.2183,-134.9015,2.3246,6.5285,-97.1013,-47.0075,110.8232,69.0686
-718.7500,3.8720,-66.2856,-33.7584,-57.3137,-13.6790,-69.2982,-13.6627,104.8905,62.6296,101.0603,4.2140,-1.0297,-80.0727,-110.8566,26.5655,-6.5605,-76.8230,-27.9331,130.8044,19.0265
-710.9375,-29.3696,-29.5718,-68.0135,14.6101,-84.9771,42.3492,25.1164,142.2689,63.7004,102.4993,-103.0485,-36.3935,-42.2840,-0.1577,28.4515,-4.9895,-144.8842,8.7959,27.4466,20.6379
-703.1250,-215.5156,-145.7570,-189.1797,3.6260,-96.1630,105.0874,14.0019,204.7431,127.6478,201.0345,-188.2113,-83.6663,-53.4009,62.6389,54.4497,20.6849,-50.8374,68.6126,121.2081,9.3427
-695.3125,-182.4640,-218.7394,-152.1557,1.8321,14.8568,105.0181,51.1066,168.4104,135.2891,201.7631,-187.1847,-120.7428,-15.3103,26.6304,91.6614,57.5565,-52.5958,30.6261,48.1723,-63.7502
-687.5000,-206.4325,-66.7176,-143.1480,49.0333,-51.1239,113.9382,23.2126,139.0761,51.9439,135.4902,-216.1638,-38.8259,-7.2189,71.6143,-10.1082,139.4264,-41.3468,42.6453,-80.8446,18.1603
-679.6875,-118.3598,22.3474,-122.0985,32.2759,-29.0350,24.9026,-102.6255,50.7870,-20.8578,47.2666,-48.0979,-53.8690,-22.0719,56.6297,-24.8047,161.3455,82.9523,25.7240,-26.7996,-33.8869
-671.8750,74.1957,-67.0874,43.4377,-56.9836,26.5607,6.3639,27.0528,-5.0007,-32.0484,-45.4479,44.4462,-109.4158,69.5752,1.1370,-6.0026,68.7701,64.7473,-63.6884,-116.2433,-52.4314
-664.0625,-2.9640,-144.2239,36.2553,-98.9543,-17.5267,-0.8794,56.0344,-12.4922,13.5204,-15.8701,0.2866,-116.6754,62.5212,66.9426,-12.8915,-11.4975,163.8513,-70.8012,52.6373,-59.6826
-656.2500,30.7724,-145.4727,75.9657,-135.0433,96.2988,1.7724,96.9423,-47.0917,18.9339,-50.4080,40.0190,-150.0518,139.3736,-40.3540,27.1362,-81.8614,161.8570,-107.0138,51.4278,-167.0330
-648.4375,36.4403,-174.7793,80.6114,-93.2038,101.0836,6.3622,174.8191,-41.7487,-2.8989,-82.0032,44.6939,-145.4948,181.1789,-34.7023,-40.8654,-77.2751,168.8262,-65.2758,-47.8066,-125.4286
-640.6250,79.5980,-96.5852,91.7477,-15.8772,148.3872,-92.5623,76.2085,-104.9154,-28.3058,-108.1082,128.8627,-97.4490,118.4885,-97.5664,-30.3447,-103.2024,282.3061,-58.0323,-4.5185,-188.3333
-632.8125,163.0476,56.9154,181.1727,32.7497,127.9958,-77.1836,54.9123,-126.7824,-55.3553,-129.9133,108.3196,-82.1086,98.1081,-119.1441,-50.5195,-160.8413,190.0839,-9.4775,-61.9281,-245.9376
-625.0000,36.1775,1.1148,84.2785,12.0726,68.3056,10.8942,33.3149,-1.9460,9.3432,-5.0073,12.4683,-141.0739,75.4181,-68.0317,-35.9859,-146.7725,134.5667,74.7956,22.3867,-231.8494
-617.1875,-9.8532,-150.8314,75.2208,-68.7530,133.4726,37.8268,60.5878,61.7419,73.3738,58.7498,3.4531,-151.1932,103.5708,-114.0770,65.4004,-119.8441,123.8918,28.9238,46.5518,-277.9207
-609.3750,-38.9569,-73.8247,40.0939,-62.6326,98.5911,76.7081,135.8172,100.3826,63.9731,60.4559,-68.6319,-75.3723,141.6679,-75.1669,30.7375,-80.9508,25.1797,-0.0018,-52.3120,-166.0420
-601.5625,-103.6727,1.5702,-29.6404,-57.1312,65.1267,42.9769,-43.5428,29.4112,20.2735,63.5496,-28.3206,-35.1690,109.1675,-34.8550,34.4951,-4.6541,135.8842,40.4580,-11.7476,-125.7708
-593.7500,67.0049,31.3515,75.0230,7.7571,97.0729,37.6385,-12.4793,-13.1674,-27.2659,-51.9675,39.3802,-77.5817,104.0788,-114.1477,29.6666,-45.9603,60.9920,35.3164,-121.7751,-131.0942
-585.9375,56.7210,-12.8126,23.7217,-1.3187,-27.9246,60.3384,10.6336,9.2964,-14.1502,-30.4425,25.1356,-55.9533,53.0429,-55.4037,15.9089,12.7762,-18.8330,61.2335,-96.7310,-35.3710
-578.1250,32.1923,-38.2168,-39.8266,-130.6454,19.8441,-3.2171,-15.4939,19.5049,37.2554,16.8272,35.6476,-45.5893,-10.2301,-44.9316,136.9164,60.2423,-78.9112,36.9112,20.0574,-24.9103
-570.3125,-40.6490,-4.9247,-80.6907,-133.2722,-22.6858,27.9344,53.0851,124.4163,71.2143,121.8036,-79.1488,-14.5351,21.2026,-49.7616,95.6319,91.4081,-185.2913,-0.6956,-52.4478,43.2502
-562.5000,-182.1060,-6.2357,-193.1656,-63.4987,-59.8056,-10.5181,-21.9326,122.7275,71.2342,156.1756,-80.5489,-16.0938,20.0301,-15.1965,57.7641,126.9826,-46.2617,33.0911,52.4617,41.7995
-554.6875,-30.2788,-29.2388,-68.3524,-52.4290,29.3801,-31.6752,68.3679,64.3339,49.9132,61.8426,7.3314,-110.3505,36.1556,-36.3216,74.2042,104.8720,-68.9375,-24.8325,-41.3257,-16.3514
-546.8750,-4.6189,-73.3852,-44.7060,-25.5179,-21.5799,-8.9958,53.5198,48.7804,18.1641,46.3495,29.0524,-87.7607,-14.8720,59.4076,-13.4913,127.6175,-112.7475,-32.9097,-15.2352,79.3461
-539.0625,-15.7138,-84.2811,-55.8132,-107.3680,3.7312,-20.0745,-30.0604,37.4567,19.8294,35.0899,92.0197,-98.9307,-61.6360,48.3772,49.0828,153.6048,-88.3057,-43.7432,80.1155,68.2856
-531.2500,-4.9305,-74.2822,-48.0386,-97.3277,-23.0548,24.7438,88.2747,45.0297,13.7905,6.7228,26.8764,-54.2093,-53.4893,93.2461,-14.4265,124.4893,-147.9639,-34.6627,19.3820,113.1297
-523.4375,-124.9084,-17.0353,-172.0204,-41.0437,-73.5765,46.8052,1.8670,67.8455,18.6320,28.6020,-60.0155,4.7495,-104.0899,116.3488,-27.6697,73.6130,-20.3543,56.6737,111.9132,99.2129
-515.6250,-34.0832,144.0206,-108.2053,51.0373,27.7079,38.6670,-6.7301,-14.5389,-6.1375,-16.7231,3.8892,-4.5008,-76.8920,-39.7571,-0.1163,-8.4704,-34.9421,8.8266,28.2443,-19.9115
-507.8125,-64.4765,183.8788,-141.6081,90.9196,-43.2048,41.3339,33.4724,24.8773,24.5474,59.7558,-66.4201,-1.9633,-72.8989,-37.0671,-33.7619,-5.7524,-134.7197,48.7965,33.3979,19.7534
-500.0000,-52.9845,55.6354,-127.1208,32.6955,9.8009,-17.0982,12.5937,40.1899,49.9648,74.1269,22.1568,-60.5380,-95.0068,-58.4849,19.5090,9.8629,-122.5906,25.6681,115.4625,-38.6961
-492.1875,11.4920,49.3936,-62.6489,61.4644,1.8154,11.4728,78.7279,31.4973,39.3122,29.4925,-23.2776,-32.1225,-102.1095,-29.8966,11.7907,1.4817,-163.4630,-51.4518,39.5337,-10.1424
-484.3750,-95.6462,118.5467,-102.7949,95.6233,-38.7601,6.4405,0.2648,26.1969,25.8357,61.2498,-63.3106,-0.3231,-142.8099,76.0910,-28.5044,33.5011,-93.9253,-17.1664,74.0306,58.8039
-476.5625,-46.8966,97.5977,-50.0486,74.6712,15.5765,-49.6928,-18.2781,6.7910,29.0743,41.8976,-10.4552,-56.6375,-124.6016,19.9729,26.1181,14.4199,-44.4896,-2.9733,53.4332,2.6454
-468.7500,-33.5690,40.2475,-37.7206,88.3093,-45.4855,-1.2261,30.7880,54.9880,43.3096,53.1439,-35.0104,-117.3531,-39.7920,-5.5541,38.3473,25.9388,-100.4439,45.8322,-38.5466,51.0903
-460.9375,-91.6408,-18.5033,-25.7908,28.5380,-32.9338,-61.1704,-29.5437,67.7769,70.8631,65.9858,-22.9599,-104.4847,-63.3840,-29.4965,126.1836,76.0545,-53.7880,58.2467,44.0879,27.1277
-453.1250,-47.3197,27.1491,21.5287,4.1646,-21.9730,-86.7143,55.5374,3.9650,49.5298,2.2264,-48.5197,14.7750,20.4294,-19.0470,137.4228,12.5665,-76.7368,-36.9338,-50.8713,37.5648
-445.3125,-81.1685,134.6528,-51.3213,75.6301,-94.1510,-87.4172,-17.5279,2.9967,6.7827,1.3140,-122.2374,124.8786,-15.9110,17.2544,63.5245,85.9271,-5.8198,-34.2574,-47.9537,73.8460
-437.5000,-31.5242,149.6597,4.3189,126.5898,-0.8125,-104.6233,-71.0768,-87.4763,-11.5285,-52.1075,-66.4649,107.4700,-32.7460,1.0479,121.1402,32.7843,80.5960,-90.0763,-68.5303,-16.3808
-429.6875,-20.5032,126.0683,50.3394,67.9460,-28.0673,-58.4309,12.7808,-77.5560,6.7799,-43.1324,-92.3082,80.4549,13.8260,47.2356,132.1714,5.0435,-13.5764,-113.4811,-126.6880,29.7939
-421.8750,-118.9387,27.0230,-17.0952,-31.1572,-20.7517,-87.6988,-16.8030,1.9059,44.8489,37.3876,-49.6027,49.9744,20.9536,53.9584,139.7664,85.8495,-6.1891,-141.3313,20.7206,36.5031
-414.0625,-27.4262,13.9322,43.4152,-78.3183,40.5230,-101.0190,81.5798,-11.6861,48.0892,-13.1508,-62.9557,-37.5671,45.0332,40.6361,163.3140,109.6066,-87.8559,-154.2335,-26.9182,23.1591
-406.2500,-53.1313,-46.3550,-23.2877,-69.6848,10.5979,-58.5422,50.7585,-5.4832,24.6250,-6.8949,-93.5106,-30.3088,87.9021,120.1216,96.6627,152.1712,-43.7094,-74.3349,-15.7336,102.6106
-398.4375,-7.4342,-35.2371,26.4089,-57.6552,62.0821,-44.6669,-43.6537,-64.8837,-17.3341,-66.2469,30.3343,-17.6532,103.1658,61.0010,75.4103,56.1371,108.8406,-28.0377,29.8534,43.4553
-390.6250,68.7978,40.4444,105.6407,16.9252,68.1109,-3.2465,-1.5105,-95.7373,-77.6813,-134.0525,35.7220,24.5542,108.9826,66.4326,-28.2966,-12.3451,43.9523,12.8164,-103.9954,48.8516
-382.8125,-13.1759,-5.0699,57.6640,6.3050,57.9521,-50.0319,-47.5671,-143.7989,-53.9855,-108.0668,-12.0909,13.5507,61.5935,55.6614,-38.1861,-23.0306,139.8775,73.4681,61.9717,38.0366
-375.0000,44.9485,-52.4797,119.7824,-6.2162,157.8974,-97.7158,52.4912,-154.7654,-45.2339,-155.9864,-22.8163,2.6397,88.3095,7.9872,-11.9631,-70.6161,57.9014,61.2177,15.0360,-9.6786
-367.1875,-54.6430,-45.5808,11.1852,-0.4447,87.1435,-58.1092,91.8493,-116.4359,-12.1153,-80.6070,-56.2495,41.0260,53.3197,9.6065,-44.4235,-66.8972,28.2320,137.2693,20.4240,65.9065
-359.3750,-37.8918,42.6780,-4.0646,17.6668,72.7532,-74.1567,-33.4302,-95.7632,-10.5863,-60.8887,37.6687,-11.2467,-35.3130,-42.4364,13.4798,-82.8378,47.9093,120.6703,75.1640,13.8356
-351.5625,-4.2008,40.8972,29.6217,16.7302,33.3070,-40.2542,38.2410,-26.1471,-4.8100,-63.2241,34.5307,-50.5705,-0.9968,-80.5261,11.3312,-48.8227,11.5410,85.0358,-31.1398,47.7201
-343.7500,-70.1160,10.5232,-40.3011,21.1919,-35.7328,-36.9588,5.3056,-23.1368,10.6713,-60.1660,0.7914,-11.4985,2.7155,-5.2158,51.5889,-45.4048,86.5883,53.8012,43.9772,86.9954
-335.9375,34.8105,10.0040,34.6224,-14.5000,3.0850,-107.8149,8.2383,-94.2811,-9.2912,-95.2631,76.8867,-9.5828,42.2752,-3.0537,92.7003,-80.1369,87.4844,-16.5858,-26.0485,16.1168
-328.1250,81.3628,57.1345,44.1791,32.4494,-95.4414,-61.0243,-53.1672,-47.7738,-52.5256,-84.7133,86.6193,36.9788,52.4843,43.7545,29.4712,-69.2206,29.0423,30.6808,-118.3967,62.8866
-320.3125,84.2627,61.6143,51.0846,71.7397,-88.5971,-55.8949,-119.2154,-114.9269,-58.9629,-79.8207,203.7046,6.8824,23.0504,13.9049,37.6046,-99.9600,103.9537,35.2929,-79.3832,-4.0034
-312.5000,83.5538,96.4981,87.3813,106.4293,-52.3515,-19.3606,-46.8525,-115.6824,-33.3698,-80.5391,93.1851,6.1823,23.0234,-23.5404,75.1391,-136.3010,-1.7340,35.3086,-148.9686,-4.4911
-304.6875,-25.8114,163.7380,-29.9776,103.4630,-93.7483,10.5194,-88.1491,-49.0954,-34.1508,-13.9117,12.0215,72.8237,-19.6520,-29.6364,-3.9691,-69.2870,30.9420,31.6799,-81.1936,62.3645
-296.8750,67.6807,151.8332,32.5143,56.3438,-31.2850,0.2520,-97.5873,-60.6630,-52.4153,-61.4359,75.7087,62.3055,-66.4731,-76.8957,-14.2254,-80.4233,55.4625,-50.0904,-22.5741,15.0661
-289.0625,99.5586,114.3303,27.3919,17.6183,-70.4233,-4.6128,-28.6329,-64.8276,-51.3773,-65.5578,70.7931,57.1823,-33.8977,-44.7524,-53.0798,-84.1519,17.3813,-17.4524,-24.5342,47.1678
-281.2500,71.1289,86.5321,37.9628,-45.4216,-23.8484,-30.7832,-54.9670,-92.2975,-51.5693,-128.9896,154.5744,-6.2541,-23.6263,-34.9112,-6.2178,-111.1776,131.0010,25.8891,89.2208,-16.0425
-273.4375,105.5393,16.5937,112.3737,-80.6096,52.5821,44.8991,21.5640,-53.9220,-39.3517,-91.5768,156.1954,-78.8413,15.4955,-33.2211,-40.5047,-146.3573,61.4691,61.0888,-15.1801,-51.3987
-265.6250,25.3888,7.1024,27.2278,-55.3507,41.4708,106.0253,-26.4606,7.8938,-28.3982,7.2793,71.2670,-53.9842,-32.9338,28.9169,-123.3341,-121.0847,52.4065,121.7488,45.8835,-26.3059
-257.8125,26.5923,8.9696,33.4367,-52.7412,122.7174,76.4994,-18.1293,-22.9499,-8.3984,13.4712,40.6931,-46.7825,-62.0063,-37.6012,-79.8104,-77.4712,54.6979,124.7652,84.2891,-129.8679
-250.0000,-52.2147,0.8528,-13.3612,-26.1271,149.9561,139.9754,119.1958,40.2008,31.6611,39.6606,-79.8839,-57.5744,1.9200,-48.1172,-89.2876,-87.8554,-23.0028,116.7880,40.7017,-103.4270
-242.1875,-139.9207,-15.1591,-104.0573,-42.4121,171.3105,86.5460,66.6150,23.4385,43.8792,22.9401,-59.3519,-111.2675,-14.0547,-27.5348,-30.6580,-30.1406,66.4039,100.9097,166.2207,-119.8943
-234.3750,-61.8755,-7.4086,-22.0057,-34.9457,217.4146,58.8648,113.7855,-4.5790,43.9482,-5.0404,-50.0727,-176.2151,-5.2728,-92.1999,15.7203,-57.6771,4.5648,73.7842,33.4851,-147.6083
-226.5625,-109.0384,-17.8550,-75.1620,-10.6837,91.3161,78.9802,24.7514,52.1964,29.9116,51.7711,-103.9941,-82.3692,-20.6981,1.9315,-36.0934,-0.4130,-5.4578,97.4630,58.5723,-53.5249
-218.7500,-136.6954,-9.8033,-102.8115,-2.9234,101.7296,88.5951,-38.7732,61.4677,38.9040,61.0738,-94.4092,-110.0344,-47.6199,47.5511,11.5996,45.3431,3.0199,70.6411,138.1546,-80.9487
-210.9375,-127.4640,-70.8447,-131.5692,-29.2636,37.0431,133.1135,80.6039,105.6351,55.0382,32.2719,-122.9294,-102.7946,-39.6459,92.0748,20.1874,17.0030,-92.6012,80.7229,77.6475,-36.4641
-203.1250,-178.0872,-119.7267,-185.1813,-79.4625,20.5143,115.7777,27.1244,87.9446,64.7859,51.6152,-67.2928,-83.4037,-56.5262,38.7447,40.9315,73.8127,-37.0646,100.9539,168.3035,-16.8367
-195.3125,-44.3061,-57.1979,-44.4001,-86.2685,89.3784,73.8429,60.0509,45.6553,50.5299,45.3587,38.7400,-51.6144,-24.0020,-77.1802,37.0708,-4.9730,-43.1378,24.5852,57.3586,-58.8113
-187.5000,-16.9374,77.9325,-55.0273,-57.4832,-30.1550,64.5033,-23.4229,72.9689,7.0166,72.7083,-8.6287,11.7680,-33.8832,-13.5016,-45.1889,21.8479,-13.6040,53.8150,16.0328,4.8102
-179.6875,20.0315,114.6615,-13.0577,14.8982,-24.0734,32.7602,-91.2885,3.8787,-13.8354,3.6531,-3.3940,16.7408,-102.1611,-8.2263,-2.8392,27.2646,59.5337,55.6403,54.3080,-63.9748
-171.8750,66.9874,163.3947,35.9023,97.2884,-47.9918,81.0223,-41.1568,-21.2141,-48.6925,-58.4056,8.8300,28.7132,-52.4385,4.0585,-26.4950,2.6822,2.6730,-1.5228,-73.4145,-51.7537
-164.0625,53.1350,149.3251,-16.9419,83.8805,-98.7014,29.4831,-127.8269,-37.1160,-57.5306,-37.2742,67.2565,49.8789,6.4818,25.5462,-3.9437,24.2979,25.0217,-15.4811,-15.9234,-30.3406
-156.2500,112.9821,139.9568,46.9138,38.1748,-33.7103,-53.3536,-63.7876,-46.3192,-43.9377,-83.4489,168.3738,-33.2581,35.1034,-57.2670,62.3105,15.6079,-19.9315,-60.7312,-24.7339,-76.2316
-148.4375,50.9217,113.7046,-21.1382,11.5751,-99.6224,-11.0836,-20.6586,32.5765,-12.6546,32.4745,63.5902,-65.2935,40.8149,-14.9808,-5.3444,95.0162,-79.7753,-15.8731,-50.4313,2.9737
-140.6250,-65.8398,-1.2366,-66.8867,2.2766,-35.2274,-19.5117,-65.2290,59.7665,67.5206,133.6914,-18.8950,-147.0319,-4.1806,-23.3998,61.3022,85.7181,-20.3113,45.2915,116.1790,-42.5334
-132.8125,4.1391,-37.4183,-30.8915,1.7353,38.9186,16.8176,45.9599,22.7064,42.8797,22.6535,-56.6415,-75.0212,32.5761,-61.0644,61.6941,12.1694,-20.1022,10.2150,11.5378,-43.2891
-125.0000,9.5586,144.8555,-27.4558,42.6437,-30.4806,-53.4031,-23.4112,-120.9113,-52.7412,-120.9351,-15.9334,186.4428,-37.2187,-20.2782,-7.4573,-57.9300,162.5665,-19.4070,17.3557,-2.6011
-117.1875,60.0383,162.1895,67.0368,58.6029,65.1755,-105.5728,-37.7301,-246.4818,-91.6910,-210.4771,41.8305,206.9611,-14.9564,1.5520,15.4408,-72.9905,215.2807,-36.9810,0.2111,-91.8681
-109.3750,15.5104,82.5339,54.5214,84.5671,53.8253,-7.7414,23.9454,-186.0508,-87.3515,-186.0185,-44.4076,157.4802,83.3052,62.3844,-33.6656,-49.0465,135.9982,24.4508,-78.9271,-31.1322
-101.5625,-37.7719,31.1305,35.2595,67.7782,72.7300,-26.6590,-31.1313,-168.3723,-66.4433,-168.3172,-26.3936,101.2462,27.8080,43.4689,-14.5153,-30.8521,189.9718,7.1336,46.1900,-13.1552
-93.7500,39.5911,73.3861,78.6423,74.6467,43.2764,-56.9153,13.4460,-199.0399,-90.7121,-198.9666,17.2597,71.6620,34.9585,50.2080,-42.7256,-24.0048,92.5931,-55.5258,-17.0499,-6.5265
-85.9375,6.3489,77.0423,5.4198,41.9146,-63.7743,-18.7684,-56.5890,-161.3078,-104.8309,-161.2131,-18.6824,72.4698,-0.4976,125.3437,-113.5392,14.2450,166.6297,-16.7824,57.1243,31.4957
-78.1250,61.4203,27.0028,30.5077,27.4858,-2.5187,-30.3182,-32.3208,-174.2798,-86.6837,-174.1643,79.6843,96.5738,-11.6523,39.7725,-52.0563,2.7935,151.9591,-66.7434,78.5868,-54.1880
-70.3125,76.1378,42.6153,43.2451,6.7077,11.3783,-17.2141,55.5853,-124.5973,-66.6173,-124.4619,19.7023,109.3325,1.8406,52.8604,-72.9305,15.9990,26.9399,-51.0541,-11.2971,-4.2157
-62.5000,-78.7385,-6.3610,-46.6148,-6.6709,-39.3228,-32.7145,3.8823,-67.5189,-8.0445,-67.3642,4.1289,57.4952,-13.2695,74.3490,21.5989,37.5989,49.3241,-62.9697,117.2211,17.1505
-54.6875,-70.8593,-32.5766,-38.7234,-33.2971,5.7185,-24.4632,49.9339,-59.6919,18.5375,-59.5187,12.3010,28.4145,32.3734,8.5944,104.8758,8.9456,-45.5503,-54.1373,20.4792,25.2744
-46.8750,-91.4839,-17.2914,-100.3362,17.5737,-91.7420,24.2843,-10.5274,-11.3681,10.2607,-11.1733,-49.0216,38.8347,44.5135,56.3410,44.6523,20.7951,-30.9169,-4.8054,37.2507,109.9006
-39.0625,-41.9033,-1.8039,-80.7395,31.6429,-69.9990,7.2299,-62.7848,8.1503,8.5262,8.3622,6.8630,22.4539,-45.1476,40.2867,27.6296,3.8452,19.9179,10.7235,88.2144,19.7228
-31.2500,57.8260,63.8473,-13.9910,61.8647,-75.1143,75.3236,-31.9001,38.8176,-38.1349,-34.9541,0.8971,16.2301,-50.6599,34.3932,-49.2542,35.0536,-20.0955,-29.5965,-22.6756,13.7029
-23.4375,9.6182,51.5428,-27.1869,49.1350,-124.1729,25.4616,-116.9736,25.5260,-31.8100,25.7700,24.9961,3.0478,-63.1199,58.5526,-61.0839,96.3124,37.9457,-41.8698,71.4906,0.7292
-15.6250,68.3228,-29.8637,73.5223,3.3035,13.6665,-20.4989,-53.1408,16.1327,-12.6058,16.3880,88.9937,-6.2318,-35.6784,-24.3820,2.9816,50.4707,-7.1240,-121.2432,-9.4521,-45.3412
-7.8125,31.4606,-30.8152,31.6676,0.9241,-27.0500,10.9959,-19.8674,47.1957,-4.2757,47.4616,10.4441,24.9416,-3.7969,7.1396,-36.5039,8.0825,-41.7396,-18.1631,-43.9358,23.0418
-4000.0000,24.4243,-16.2466,29.3320,-9.0444,2.6738,-9.1821,-51.1063,13.8086,-16.8592,18.2882,44.9438,29.9888,-6.0067,-10.5261,-22.0757,20.4370,-3.8474,-30.0854,-5.0454,-10.8418
-3992.1875,83.2938,77.0414,53.2537,14.4662,-10.8634,14.1969,7.5485,0.5810,-27.5368,5.1113,-3.8658,54.0106,54.4247,12.8751,-35.9251,-29.7960,-86.4902,-77.0023,-85.7322,12.5008
-3984.3750,6.2053,69.3730,-29.7811,7.0318,-56.3609,-32.3638,-37.7569,28.4040,-2.4533,32.9879,-12.6310,45.0893,7.9112,40.3345,-8.7253,-38.9767,-24.0819,-14.8551,10.6306,39.9054
-3976.5625,21.7208,14.3030,-10.2169,-47.8004,35.7485,-87.3236,52.5371,10.8252,40.8895,15.4659,-29.7925,-9.2385,-9.9993,22.3965,84.0837,-19.5651,-79.0758,-35.1038,26.5975,-15.0992
-3968.7500,-54.6683,-27.6622,-57.5551,-19.5239,-12.0439,-24.1724,113.9373,36.3552,35.6576,41.0516,-76.8674,16.5332,52.1882,47.5714,34.9814,79.9451,-119.9797,-40.2454,-85.3397,83.9934
-3960.9375,-100.9738,-109.5230,-33.8000,-65.1354,-24.7385,-73.9099,-9.5679,59.9856,34.4740,27.7371,-16.8446,-32.5959,38.4736,33.8555,94.9790,140.5536,-25.7796,-53.2800,8.8333,107.1752
-3953.1250,-1.9749,-116.0843,-4.7416,-107.4360,3.8711,-82.3411,91.2395,51.9191,51.8203,20.7206,-23.5218,-39.4274,67.0630,-9.5604,123.2791,95.4589,-138.2916,-60.0202,-68.7034,135.6483
-3945.3125,-68.3350,-77.9945,-76.0443,-104.0776,-31.8834,-81.1149,55.6917,54.5182,58.9978,95.3650,-57.5559,-0.6027,69.2961,-8.3132,52.2290,97.0199,-65.1601,-22.1104,4.4057,173.7758
-3937.5000,-51.1878,-97.3981,-55.8486,-123.2123,23.8537,-135.3869,37.6368,36.6196,69.6357,78.5106,-38.0797,-54.2777,51.0247,-25.5625,106.6848,117.0768,-49.5302,-41.7027,55.0081,119.3977
-3929.6875,-85.6848,-61.4355,-93.2988,-121.9876,-13.0735,-62.3090,108.9270,37.0752,75.7895,78.0052,-111.2565,-54.5888,15.1046,46.5478,69.4830,79.4816,-83.5531,-5.9449,20.9374,155.3741
-3921.8750,-139.1312,-80.4115,-146.7041,-105.7015,6.0371,-42.1826,90.2528,19.5755,76.9172,61.5512,-90.3728,-70.8414,-38.7697,28.7121,51.3218,62.9325,2.4844,44.8690,106.9177,101.3993
-3914.0625,-30.5600,-77.3739,-67.0969,-67.4052,49.1535,-0.0593,133.5745,27.0688,68.7109,32.0892,-47.4797,-101.0948,3.3543,-1.1246,58.1537,-40.6219,-64.4763,83.6765,4.8826,34.4222
-3906.2500,-99.6894,-43.0295,-141.1850,-32.7985,-26.4441,71.3686,93.1880,61.8625,52.3425,29.9224,-85.2857,-30.0377,-35.2196,70.3530,18.2707,-5.8782,-30.1311,117.7926,39.1358,68.7540
-3898.4375,-82.0136,-23.8836,-118.4692,-48.3827,33.7589,58.5923,42.5885,12.4476,60.5441,17.5537,-61.2877,-42.1828,-48.9966,-16.3676,79.1871,-18.3412,24.0298,135.7124,93.1905,-18.1217
-3890.6250,-96.9725,-4.3761,-134.3933,-28.6051,53.3109,78.1642,98.3441,69.3804,54.9989,74.5276,-114.9413,-58.9778,7.5796,-33.7418,-12.5484,1.5295,-97.4630,190.9771,6.5769,1.3516
-3882.8125,-154.8401,-27.7586,-193.2289,-51.7214,29.9522,90.8359,0.1947,82.4124,58.5642,124.5995,-100.4987,-81.6712,-15.7467,-20.0099,-36.1804,15.5049,-14.8464,237.3427,124.0690,-22.0707
-3875.0000,-51.0019,-65.4460,-119.3605,-54.1316,104.2983,92.2077,110.7486,84.1436,59.9876,52.3693,-98.3561,-116.6709,-14.3717,-55.5796,-35.1044,-56.8225,-17.5352,234.4088,86.2520,-94.7961
-3867.1875,-107.6199,-87.5818,-105.9514,-5.9865,43.1861,142.1360,122.8584,60.4263,62.3818,28.6895,-158.6768,-140.1206,34.5571,-5.5908,-59.4796,-80.6004,101.3196,212.0323,134.9787,-81.9603
-3859.3750,-74.0925,-124.5605,8.6008,28.3119,157.2260,108.2115,89.1149,-9.1489,58.7507,-40.8417,-80.8472,-209.4221,38.6342,-76.4488,17.3041,-150.2343,205.3312,175.8038,132.8618,-188.9765
-3851.5625,17.3959,-34.5812,66.1082,118.5645,104.2183,128.2347,145.3345,-25.7777,46.7941,-57.4314,-133.0705,-151.7750,21.6683,-92.3566,0.0400,-203.9274,190.2855,159.5279,-23.3237,-169.0401
-3843.7500,-56.3208,33.1977,26.4115,186.6198,64.0040,125.0579,67.3505,-28.6116,22.1157,-96.2277,-135.4948,-117.3270,-55.4963,-59.4581,-3.4235,-169.8199,257.0424,227.0609,8.2966,-172.2947
-3835.9375,-14.2340,73.7769,70.5160,192.4787,71.5925,132.6828,111.1685,-57.6610,32.0081,-125.2405,-164.1183,-110.0805,-47.8575,-88.7595,40.9271,-198.9178,157.6031,126.4001,14.7092,-201.7540
-3828.1250,-59.0508,28.4686,-17.2856,147.4533,-16.7235,118.4176,132.0890,1.3819,57.5289,-29.1624,-287.6527,-86.7277,-62.1153,7.0474,-10.6232,-139.9208,112.2613,116.8541,39.2036,-106.1060
-3820.3125,-82.3738,-30.3300,-40.5922,88.9408,-4.5427,57.6598,70.4979,14.9221,80.7581,57.4118,-201.6892,-109.8748,-85.8719,-16.6398,1.3232,-89.4239,123.4362,57.8203,121.1991,-129.9610
-3812.5000,-9.0864,7.4758,34.7059,92.0356,-2.7592,21.5077,107.5167,16.0577,45.9514,21.5802,-200.1295,-71.4358,-11.0215,-51.7230,-34.1277,-51.3328,55.2080,24.3933,17.7829,-92.2207
-3804.6875,-115.3094,76.7727,-40.5014,91.6395,-42.4867,-17.1334,68.0318,14.6978,17.8690,20.2480,-165.0763,36.4985,-13.6662,-17.2967,-74.0820,20.2540,54.4858,23.4788,51.8711,-57.9798
-3796.8750,-20.1772,101.4226,21.6452,80.5959,56.1455,-65.4232,55.9025,-33.3178,-5.2752,-27.7373,-64.6666,62.7793,12.0418,-28.5289,-11.6804,-27.8236,8.1168,-58.0797,-29.6924,-69.4022
-3789.0625,-44.8893,76.2405,-9.0548,55.7197,-12.0742,13.4455,59.9286,8.8105,-31.9568,-22.5761,-59.1084,106.2101,53.9060,87.3955,-79.1424,-58.7624,-52.1022,-13.4781,-90.1222,46.3232
-3781.2500,-88.3058,32.3632,-17.4613,82.1549,-20.9941,41.6208,-58.7496,0.2381,-41.2964,-67.1167,6.7458,60.9382,45.0666,115.6283,-16.3012,-67.4069,8.9875,12.4314,5.7513,37.3403
-3773.4375,-24.1608,61.0378,-25.3115,111.1525,-28.3591,107.3498,5.1388,-43.7879,-44.6221,-74.1200,-37.8529,90.2110,73.7824,70.4128,-23.9090,-111.5139,-66.3739,40.8886,-105.8394,65.8961
-3765.6250,-107.7137,117.0238,-151.8659,132.4644,-119.4332,89.3800,-49.6665,-23.5124,-39.7847,-17.8231,-53.1574,146.7872,19.7970,89.5041,-41.2226,-55.3284,-81.4311,26.6490,-50.1388,121.7536
-3757.8125,-27.0598,127.2179,-137.2154,72.9874,-32.3076,-7.3913,-36.2794,-47.0459,-29.5070,-41.3325,33.7453,124.5641,-3.9882,29.7997,44.6672,-41.9531,-141.2793,-33.3940,-39.2388,61.8023
-3750.0000,-16.6498,136.1736,-131.8113,46.2749,-63.4374,-0.4039,4.8642,-3.8283,-44.1087,-35.1039,3.3920,167.0942,38.9751,71.8558,14.3052,1.1643,-203.3840,-59.6876,-136.6087,140.6064
-3742.1875,-41.2979,147.0879,-120.4683,22.5238,-52.6293,-63.4645,-95.0500,-66.6665,-45.7032,-23.9285,87.9875,178.5824,49.8843,119.8737,96.8927,48.2326,-156.5256,-154.0307,-91.0291,151.3631
-3734.3750,45.6700,163.6052,-101.5187,-29.6179,-71.2196,-118.9288,-4.3623,-47.9123,-16.5240,-42.1622,70.1916,160.6689,104.3991,64.4898,189.0855,29.8922,-281.0673,-208.7756,-144.8632,132.7166
-3726.5625,-48.8000,67.6789,-203.0175,-55.2006,-136.2671,-109.8442,39.8768,-2.6093,31.0441,3.1518,42.9456,132.3066,76.4687,109.6646,196.8211,39.0960,-271.0591,-127.9652,-65.1614,177.6317
-3718.7500,-24.7138,-83.6934,-173.9628,-65.2306,-33.7700,-81.2129,66.6532,-10.7634,49.2525,-40.9889,72.2551,14.4932,68.0792,28.4000,225.1168,29.8493,-211.4923,-69.6055,-5.9115,96.0984
-3710.9375,-50.9725,-40.4018,-166.2599,-93.5978,-100.6336,35.0714,110.0812,-3.2724,54.9252,-33.4858,6.2070,-49.6650,75.3408,72.7945,196.0638,37.2548,-240.2866,7.4022,-35.0366,103.2234
-3703.1250,-145.6438,4.4937,-187.9698,-47.3590,-85.9110,49.9596,50.1002,10.8184,64.8252,16.6159,-15.2519,-72.2209,-20.7994,87.7993,136.6129,52.2636,-123.4724,54.0199,81.4399,43.9577
-3695.3125,-54.2080,25.4904,-52.5752,43.9833,11.9148,38.9493,75.2272,36.9988,70.2112,78.8060,11.3955,-120.6887,5.1601,-34.0959,51.2738,-32.6305,-103.5558,3.7377,31.0044,-41.2047
-3687.5000,-35.2725,-26.0039,-33.6885,62.8327,-43.7719,57.4437,18.8579,55.6760,29.1684,97.4837,-6.4669,-101.6575,23.6227,21.5237,-78.5657,-14.0200,-50.1404,56.9669,49.0570,-22.8488
-3679.6875,1.9594,-59.1894,84.4912,30.9819,-0.1627,-9.7679,-11.2219,-11.3568,32.4666,31.4578,74.9695,-167.3224,-6.6144,-44.5444,1.9035,-43.1118,58.5778,59.5042,86.4166,-126.1926
-3671.8750,40.4356,-21.1138,122.9161,33.3898,37.6947,28.2743,98.9632,26.8559,25.8906,-3.3237,2.6452,-128.7352,31.4048,-80.3597,-33.3701,-78.9576,-9.4679,61.2977,-16.9873,-88.2879
-3664.0625,2.1435,10.2176,80.5763,65.0588,-41.2053,23.5762,-17.6039,22.3163,4.9817,-8.8508,34.5542,-96.9016,-10.3252,-48.9165,-39.3961,-47.5513,91.7433,128.3573,48.8591,-57.1286
-3656.2500,129.7020,31.3946,179.0887,122.5858,-16.2459,47.7353,-30.3140,-26.3741,-55.7142,-131.5339,134.3131,-145.2360,-22.2034,-60.6251,-51.5651,-96.3030,113.8083,79.2727,-35.4510,-106.1251
-3648.4375,124.1681,131.4738,170.4982,222.0126,-100.3935,74.8003,-41.1182,-73.1629,-85.8287,-104.3203,50.9708,-6.6782,-106.1766,3.5709,-170.8361,-106.1565,142.7694,107.0932,-77.8718,-42.2129
-3640.6250,128.9321,205.8564,177.2026,226.7440,-20.2465,8.1691,-109.6262,-103.6562,-102.5461,-97.8084,94.9290,73.1693,-136.8510,-26.9307,-165.8033,-99.7096,182.0428,41.2203,-37.9870,-73.0018
-3632.8125,167.1013,243.6462,215.3058,194.8836,-19.6969,8.9418,-72.7222,-102.7537,-124.9550,-132.9017,96.2801,111.4144,-62.1227,-63.0299,-164.3663,-98.8700,78.7136,78.7541,-140.7149,-35.3917
-3625.0000,77.0623,189.2517,118.1970,139.8360,-79.3552,22.5231,-95.0166,-124.0506,-111.6724,-118.1995,110.4210,89.4539,-84.5981,24.6781,-151.1320,-84.2366,94.1906,129.0994,-56.6395,15.0223
-3617.1875,145.8746,116.7069,193.9410,138.6464,-5.1566,-50.0453,-59.4523,-160.5092,-112.0398,-154.6599,149.4128,17.3255,-10.2164,-47.7612,-115.0391,-83.7642,127.5301,56.2977,-94.7192,-57.7219
-3609.3750,145.4895,150.9667,191.4883,138.2693,-45.1622,-15.8055,-63.0826,-126.1716,-131.3954,-120.3292,110.1939,51.9985,60.9727,-50.3939,-190.1488,-86.4984,125.6683,-14.7002,-130.0141,-23.6586
-3601.5625,130.3493,135.4880,178.2774,52.1471,-21.9179,-66.3151,-150.4689,-140.5916,-86.5746,-60.7533,134.2222,1.9271,10.4040,-63.7738,-95.0032,-62.9853,216.0662,-101.4440,28.9445,-74.3414
-3593.7500,221.8225,50.6209,235.6696,3.6258,-1.0736,-82.2281,-20.2455,-82.4193,-63.0439,-113.5860,155.8438,-13.5388,-5.5648,-42.5510,-0.2520,-41.8746,61.0626,-150.5882,-91.5161,-53.4242
-3585.9375,151.1834,-20.3415,120.9498,3.0130,-116.3369,-50.2366,-62.1159,-50.3467,-44.1476,-80.5115,150.3471,54.8934,-11.6335,25.5786,30.3972,26.1377,60.9619,-115.8245,-22.0765,51.4013
-3578.1250,118.6919,17.8384,124.3750,-64.4504,-76.4428,-83.0955,-95.8347,-10.1282,-21.6968,-41.2921,192.0006,22.4612,-7.5529,-7.1398,108.2056,67.2934,-7.9763,-112.9080,-20.4767,18.3689
-3570.3125,48.5536,52.3731,11.1544,-62.5550,-116.2012,23.4046,-26.1884,60.4375,4.0515,29.2660,78.9944,19.3700,25.8787,26.4951,67.3632,63.7901,-147.5683,-78.6371,-55.5405,88.6916
-3562.5000,-26.7907,-57.2853,-66.2757,-67.8531,-85.1640,17.7040,-69.7442,-18.2053,21.7943,23.6147,73.7840,14.0831,20.1131,94.9393,135.3220,95.0877,-83.3475,-84.5634,43.1989,82.8217
-3554.6875,59.6738,-8.1255,23.1009,-53.3482,-68.3228,-2.2009,-17.4939,-74.0602,-12.2173,-68.2534,54.3776,31.5971,37.1509,112.1814,152.0866,75.1789,-103.3285,-104.6869,-82.2764,62.7519
-3546.8750,-16.5626,56.3389,-20.2307,-23.5395,-150.1924,27.1982,-61.9442,-44.6185,-21.2591,-2.8219,-25.7392,98.4091,-6.5110,141.7376,33.1501,67.5724,-74.0064,-39.5027,-17.4582,91.9909
-3539.0625,6.7955,44.4034,7.0334,-36.1279,-86.4648,-55.7986,-72.7989,-18.5803,2.8333,-12.7908,38.7411,15.8073,-53.5764,58.8924,97.8243,58.5646,-17.0708,-88.7079,38.9642,8.8233
-3531.2500,-3.7919,-36.4760,-4.6504,-45.6537,-97.6838,6.2649,24.4060,43.5070,20.4402,12.2848,-9.7367,-32.7521,8.4148,47.0980,48.5461,46.5964,-62.0875,-97.8535,-7.5821,33.7054
-3523.4375,-96.0328,-59.0033,-61.9867,-67.8211,-83.5575,-14.3157,-34.0454,22.9350,34.7352,65.7003,-29.8734,-52.9620,-12.2379,99.6654,27.6152,62.9750,56.2577,-51.6400,110.2244,-24.0594
-3515.6250,21.0789,-12.1727,28.0312,-20.6316,42.9246,1.4505,54.8612,1.6986,12.9511,7.4507,-13.6623,-35.8234,-32.5354,79.5894,6.0420,-31.3047,31.9598,-75.0838,-19.6286,-118.4802
-3507.8125,50.3356,51.8233,19.1912,78.7183,-3.4456,29.3669,7.9294,-7.3991,-31.5325,-1.6608,-59.3118,28.4707,-42.6784,106.6735,-77.3817,32.5648,60.8153,-46.3736,-62.3445,-54.7418
-3500.0000,28.7998,-4.9715,33.5488,93.2759,47.3797,-29.5229,-51.8044,-29.3101,-26.5320,-23.5863,-6.7546,6.9607,-27.6228,84.9576,11.4037,46.6196,73.8903,-68.4548,-48.8609,-76.8041
-3492.1875,-21.8239,14.1438,-22.1798,41.7421,28.1053,-12.5067,1.3721,24.6738,3.9884,67.3747,-100.3016,61.3354,26.3360,66.1343,-8.9048,27.5642,-12.1328,-50.6266,-101.4992,-22.9624
-3484.3750,-114.3558,27.3525,-82.8157,20.3072,-33.0786,-36.3866,-60.3547,74.7584,20.2714,116.4434,-49.7550,37.8002,-71.6041,79.4208,-33.1091,40.6162,35.9517,-1.6869,16.9611,-10.0110
-3476.5625,-8.6785,-43.2506,-5.2521,20.0585,42.9465,3.9328,16.1223,40.0391,0.7672,9.7117,-9.0074,-69.5455,-31.3399,44.9124,-30.1021,6.8750,35.2313,32.4444,-19.3810,-80.8622
-3468.7500,-39.8007,-39.6448,-3.4986,59.0094,45.1676,78.4454,53.8170,5.5142,-17.1104,-25.8300,-81.0727,-67.6843,7.1306,83.6071,-102.8895,-28.6647,73.7046,105.7697,-16.5303,-42.5021
-3460.9375,-21.7851,-56.8740,17.3937,42.1119,102.5415,63.0922,-36.3330,-46.8712,-34.9575,-78.2288,14.0099,-82.6748,-8.2474,68.4460,-44.5140,-81.0616,162.3387,89.2447,35.4844,-94.9894
-3453.1250,132.4375,-8.9027,104.4905,55.4159,78.1184,75.9388,48.7305,-71.0628,-60.6180,-139.4343,27.2909,-32.4745,4.5766,8.4791,-68.9331,-142.2693,105.1693,65.9270,-93.3120,-82.2737
-3445.3125,41.0078,40.4176,6.9325,35.0734,-19.9687,88.1451,-49.8597,-21.9008,-52.2699,-53.2865,3.9106,17.0688,16.7430,20.8700,-94.0062,-129.1317,118.3595,114.9800,-8.7562,-33.1989
-3437.5000,38.7800,37.9442,44.5744,32.9272,54.1466,52.5578,-12.2526,-20.5458,-18.0360,-51.9458,4.7278,-18.1941,17.0985,-51.5344,-18.8746,-128.7977,116.7597,113.2431,-11.9976,-105.9295
-3429.6875,-0.7024,103.2284,-0.0409,63.5389,9.0073,80.7281,15.1221,7.5610,-28.3285,-23.8616,-39.7223,47.2875,-27.7905,13.8205,-64.9992,-63.7165,75.9061,72.2637,-88.4997,-40.9070
-3421.8750,16.4516,85.1610,18.9816,80.7996,27.5241,-10.4571,-77.8521,-47.6893,-36.6075,-42.1348,52.4743,139.4124,-83.0216,-4.1744,27.5343,-7.9852,128.7159,-51.0634,-72.3376,-59.2365
-3414.0625,162.1683,89.6460,94.5654,50.6095,29.6051,-45.1017,-39.2516,-82.4081,-75.1282,-76.8729,92.2221,142.0770,30.3138,-1.6424,29.6303,31.2848,-7.9218,-187.8455,-208.6330,-20.0176
-3406.2500,71.6876,105.9381,31.9418,31.2154,-69.5142,-106.9512,-101.8369,-70.3372,-77.2025,-64.8177,103.7639,190.5395,40.4547,9.6822,39.5316,115.3481,-26.7559,-206.8243,-123.1233,101.0118
-3398.4375,106.3037,33.3275,67.4167,-39.0853,-34.5316,-218.7040,-67.3213,-109.1744,-39.2750,-66.6667,139.4057,152.0945,38.6955,-27.8909,111.5486,39.4992,5.5186,-138.6983,-90.5067,99.1386
-3390.6250,119.9223,117.7163,43.8923,10.6133,-59.5529,-132.4464,-55.7989,-97.0099,-79.9320,-54.5220,115.0380,201.6438,51.9342,-52.4486,-22.4364,-20.3563,-15.2107,-54.5616,-182.9031,148.2723
-3382.8125,118.9836,151.5666,42.8082,42.7692,-60.1303,-133.7347,-166.8336,-134.3959,-116.4258,-91.9278,115.1083,164.6429,14.6145,-15.5506,-59.9794,15.2449,123.5220,-20.9668,-79.8462,110.8569
-3375.0000,160.2489,122.6250,87.9307,49.1253,-16.4976,-88.8299,-86.6555,-126.5972,-110.1901,-121.1491,86.3788,98.8307,21.5024,-8.4583,-52.3147,96.0460,58.4597,-50.1672,-109.6003,81.6351
-3367.1875,31.3637,28.5333,-11.0992,26.3342,-43.0216,-79.0759,-77.6078,-79.9575,-48.3660,-37.5373,-12.5133,71.8636,-3.7495,38.4806,-5.7935,179.6995,70.2516,-39.5100,-28.5086,128.2711
-3359.3750,4.0269,-34.0061,0.4177,-35.9127,42.0127,-102.7775,-30.0065,-103.7815,-8.3204,-62.3815,-0.8534,11.4409,7.5506,13.9651,79.2994,81.8972,78.5965,-67.3036,49.1355,30.4565
-3351.5625,-12.5126,19.2672,-18.2700,-17.3591,-14.1498,-12.6743,61.4048,-49.8086,-15.6565,-44.4289,-91.4004,29.8151,25.6551,69.2474,-13.7949,25.8879,-9.2676,-49.3028,-39.4335,48.4515
-3343.7500,-116.8610,19.7355,-89.7729,18.3882,-50.1158,24.6265,-12.9844,23.3621,-0.2694,-8.2746,-127.7535,30.3833,-47.0427,69.7324,-49.6831,63.0841,62.0788,-49.0993,136.2118,48.6612
-3335.9375,-46.2535,-14.8550,-52.3211,-15.9246,-12.1227,63.8680,62.5884,62.4775,38.2300,30.8245,-125.1540,-41.1115,-45.7884,-1.8412,-11.6145,102.2328,-8.6217,-117.9430,100.8033,13.8209
-3328.1250,-87.9005,-91.6852,-98.1257,-22.4824,-58.3894,52.8621,13.9160,198.3422,54.8395,167.6730,-172.8208,-86.8494,-18.7814,61.3384,-94.8041,201.1349,-49.5722,-91.0294,128.1384,76.7389
-3320.3125,-88.1038,-126.0567,-95.4878,-92.5905,16.7947,19.3035,-20.3065,164.6473,70.2568,169.9621,-96.0435,-120.1391,-53.3267,64.9738,-19.5378,167.4855,-16.0594,-91.6641,161.9341,6.1024
-3312.5000,-61.1541,-99.2788,-68.6979,-135.5511,43.1391,45.8980,79.6382,118.0946,43.1929,123.3897,-105.1281,-93.2866,10.2812,91.7669,-66.1136,120.9826,-59.3999,-99.1488,47.8703,32.6169
-3304.6875,-78.0672,-118.3562,-87.7649,-118.3651,22.6316,25.6483,21.7416,60.6910,2.2094,65.9627,-16.0681,-40.2890,27.0373,108.7086,-85.5326,100.6289,27.4165,-82.4807,63.9654,49.2893
-3296.8750,63.4782,-81.9827,24.6262,-81.7414,99.5830,28.8382,24.3032,-47.2681,-37.8761,-42.0197,24.4517,-0.8549,67.2488,38.0863,-47.4875,-7.2798,64.6851,-82.3646,-41.4927,15.4111
-3289.0625,39.5275,-0.0942,32.5162,-33.6162,33.0265,36.5275,31.3674,-37.7300,-54.5302,-69.5048,-3.5357,8.0836,37.9640,45.9599,-74.9454,1.3126,40.4474,-0.7404,-100.4621,97.0463
-3281.2500,21.0202,-18.7476,15.8445,-53.0389,52.9170,-17.3366,-23.1261,-91.7436,-27.1879,-86.5375,52.9249,-45.5299,-51.8814,29.2880,17.0525,-16.6464,92.6651,51.3352,20.0304,43.1345
-3273.4375,84.7128,-61.2011,45.3683,-94.2644,82.0120,11.9993,79.5992,-63.5592,-17.7396,-94.3721,8.5710,-52.9497,13.4734,21.8160,9.2516,-60.4112,14.0760,78.6149,-58.2768,35.4212
-3265.6250,25.0848,-119.9640,19.5776,-118.7907,55.8054,60.0407,-20.9585,-16.6788,-8.3634,25.4896,56.8967,-77.6741,61.5303,-3.9543,-52.8462,-13.4760,25.1970,124.5972,22.1299,46.4121
-3257.8125,152.1546,-135.0255,81.4924,-133.6294,117.3137,11.7687,4.1977,-28.1135,-3.7456,14.0405,155.9217,-126.7063,50.2937,-89.0382,-28.2289,-61.8482,11.0282,74.2706,7.2436,-38.9040
-3250.0000,132.4766,-48.8235,59.6590,-47.2261,58.0715,25.7371,17.6261,-14.3013,-24.9327,-9.1693,60.1924,-75.4885,64.3137,-73.8781,-51.3539,-47.9735,-43.9021,90.1895,-83.4034,12.0386
-3242.1875,63.7412,-47.6714,25.7675,-45.8794,23.7730,-8.3525,-53.9985,-48.5405,-11.4942,-6.4262,63.4106,-73.3265,-6.7194,-71.7685,-11.5155,-45.1423,63.1224,91.0591,22.9094,-22.0623
-3234.3750,74.3624,-107.1775,73.2212,-35.1868,70.8254,1.9070,66.7348,-38.4273,18.5014,-33.3305,36.9759,-98.8246,-33.4065,-97.3141,35.6860,-71.9591,3.4859,66.2786,-73.4295,-11.8110
-3226.5625,-14.2797,-159.9322,-23.5856,-51.7535,9.6230,51.9214,42.2281,11.4365,42.8181,16.5161,-58.7253,-84.5771,-92.3416,-46.1053,11.6408,-21.0176,54.5979,118.2539,12.9861,75.2022
-3218.7500,5.4740,-140.2872,-37.9966,-67.9352,69.8300,38.3241,28.1345,34.6921,43.9540,2.7510,-37.0249,-134.9389,-105.8761,-96.5050,35.0095,-35.6687,75.1179,102.6296,32.8124,24.6146
-3210.9375,-45.8215,-51.7064,-57.4492,-15.1771,-25.0061,90.6735,43.0126,86.8944,17.1743,17.9330,-130.3796,-45.3631,-90.4551,-43.9586,-58.6688,16.6347,-13.4178,154.9496,-21.4174,76.9886
-3203.1250,-113.4777,-14.4830,-126.2628,23.2163,-57.1933,95.6654,-98.4608,91.7434,26.5845,96.7696,-125.0818,-5.1422,-159.3788,-39.7666,-54.6904,58.5924,60.7051,192.9245,87.0186,45.0203
-3195.3125,-69.7769,65.1046,-78.7181,67.9554,27.9801,106.9956,-14.5701,66.9351,29.0441,71.9455,-113.4354,7.4237,-146.9435,-65.2371,-43.3514,-3.1109,-0.8249,96.2424,24.8018,-16.6021
-3187.5000,-84.1342,49.6523,-96.2356,52.6471,8.0938,51.2786,-34.7243,47.0764,23.6165,52.0753,-131.8530,24.9414,-129.5618,26.2442,-26.0608,14.1353,53.5986,9.5214,78.5356,37.7358
-3179.6875,-16.1517,-22.4565,-60.4090,-19.3181,82.5657,-22.0870,-34.5283,10.5700,43.4734,15.5541,-58.9245,-11.2018,-92.8389,-46.9320,85.5918,14.7335,17.3816,-96.8440,146.6297,1.4212
-3171.8750,-14.1703,-20.5737,-60.5786,-51.2920,43.0441,-23.4533,73.6891,45.0602,65.8954,50.0259,-96.0056,-12.3543,-21.1118,-47.1140,83.2466,12.3359,-121.8391,-59.2053,41.7218,73.1096
-3164.0625,-85.2997,-21.7871,-135.8546,-52.3734,4.4227,-97.9265,34.8140,43.4409,77.6024,48.3925,-60.1950,-13.6068,-22.4866,-48.3968,118.8008,10.8400,-52.1470,43.3388,110.7280,71.7023
-3156.2500,-44.9224,-16.4974,-54.6219,-47.9631,50.3167,-53.9111,80.4538,-21.6884,54.3912,-53.7468,-15.8777,-42.3637,59.6399,-113.1927,163.8578,-54.1703,-47.9543,84.3762,10.2368,6.7911
-3148.4375,-98.8484,-1.5111,-75.6955,2.1395,27.9114,-2.1991,57.8052,-7.1156,29.8419,-2.1832,-73.8687,-27.4206,74.4682,-62.2973,31.6142,-39.4827,1.9289,169.1192,-11.5466,21.5919
-3140.6250,-26.8853,1.3679,-31.8789,5.1307,145.4070,-31.5940,-8.9390,-36.6400,2.5797,-31.7165,7.0324,-56.5846,81.1908,-92.5107,38.2816,-68.8931,39.7134,101.7639,25.5930,-81.7066
-3132.8125,35.4764,28.6491,32.3342,-2.4912,135.3023,-4.5895,90.7353,-46.7628,9.1223,-41.8515,-39.6758,-66.3533,145.3176,-102.3305,29.3548,-78.8990,-38.1098,92.8052,-52.8713,-54.6058
-3125.0000,-83.5175,-55.4104,-56.8109,-51.4658,46.8426,-19.9364,39.0581,11.7616,55.6736,16.6650,-54.7401,-81.4695,167.0904,-80.5000,87.0753,-20.2470,-16.2764,79.4924,108.3210,-32.8488
-3117.1875,-4.3115,-117.2700,-7.7502,-113.2447,94.5919,-8.0902,86.5816,-13.5222,97.4891,27.3739,-5.6043,-143.3925,105.0651,-178.4824,173.0067,-45.3923,-43.2382,88.3774,81.7187,-94.8949
-3109.3750,-73.3616,-80.3780,-44.9440,-76.2802,21.0937,28.5044,159.8726,22.9374,103.0071,63.8265,-116.7327,-106.5671,67.7928,-141.7189,61.6965,-8.7877,-41.4586,160.0117,81.8698,-58.1815
-3101.5625,-116.7242,-123.7908,-87.4489,-84.6286,125.2958,21.7910,152.8750,-20.9045,112.2521,20.9704,-85.1624,-149.0379,25.2174,-111.2583,93.1000,-88.4855,55.0283,221.3465,177.7369,-137.7648
-3093.7500,7.2210,-104.9030,-30.6512,-65.6847,181.8000,79.3791,210.1905,-37.4535,68.6452,-68.5846,-64.2914,-165.2107,82.9405,-127.5065,76.8073,-178.8876,2.8093,239.9796,20.8999,-154.0468
-3085.9375,-18.7493,-95.9156,-22.7636,-21.6457,115.4013,123.0676,106.6107,-29.8951,34.7086,-62.0319,-20.3323,-121.2903,89.7607,-120.6492,9.6095,-208.1798,46.6907,248.7215,64.1726,-110.2210
-3078.1250,23.9755,-124.2439,23.8218,-49.9230,198.7116,96.4493,79.7394,-20.6406,46.5896,-15.7784,26.3266,-184.6803,100.2860,-184.0976,20.1221,-198.7653,54.2761,220.1606,70.1628,-173.7027
-3070.3125,-68.0063,-181.2711,-1.2933,-0.9110,173.3291,181.1259,128.1941,64.9160,53.5024,69.7698,-108.7245,-135.7751,75.1145,-98.2619,-115.0648,-150.0540,-2.8476,233.8955,48.4579,-124.8786
-3062.5000,-149.4500,-156.7449,-84.8681,-11.3650,199.4984,170.3459,6.2003,54.0196,38.2367,58.8693,-119.2292,-109.3261,27.4906,-71.8899,-88.6912,-86.7934,57.5830,187.1818,177.3291,-135.5042
-3054.6875,-73.7940,-11.1223,-45.3398,-6.7307,201.7824,99.6602,82.3323,56.2212,17.4880,24.0634,-116.6445,-32.7864,66.9693,-32.4309,-49.2060,-84.4405,-78.8964,50.5628,5.3053,-96.0325
-3046.8750,-124.6041,8.0345,-140.2759,-57.5593,106.6137,77.5247,23.0309,70.9770,5.1339,38.8121,-100.5219,18.3001,44.9986,55.5828,-35.1690,40.4685,-59.8297,35.4987,24.8469,29.0002
-3039.0625,-104.7710,-8.1649,-119.5654,-73.7522,126.1036,24.0355,6.3799,54.3790,17.4177,22.2113,-44.7468,39.0252,28.6779,39.2352,59.5193,61.0333,-41.1033,-16.9155,8.0566,12.6778
-3031.2500,-108.1888,59.3928,-89.1023,28.7964,9.3503,54.2902,-0.5032,47.5331,-5.4538,-20.6410,-86.2249,32.4984,22.1092,69.6239,52.9565,54.3440,-8.6375,-19.5815,-100.9818,80.1059
-3023.4375,-154.6168,48.9482,-62.6464,53.3348,-37.3981,-29.4627,-83.3778,0.6877,-5.9092,-31.4884,-23.7078,59.9681,-24.4634,97.0050,80.3946,44.6529,120.8344,3.7565,-8.0012,33.5325
-3015.6250,-39.6938,23.8367,61.1648,63.2129,13.2169,-15.8689,3.1145,-59.8066,-22.9648,-54.9844,64.1549,73.7731,26.3224,36.7209,57.1918,21.3063,60.6551,-56.5552,-138.6623,-26.6998
-3007.8125,-27.0370,71.4706,34.7167,75.8363,-86.4150,-5.5194,-96.6330,-12.5444,-49.1910,-7.7274,37.7526,84.3261,36.8558,84.1883,-6.2626,68.7094,108.2262,-44.1074,-125.5670,20.8216
-3000.0000,-0.4957,97.0121,102.1607,101.3559,-56.1424,-48.2742,-176.4727,-18.3858,-62.0760,-13.5737,68.2445,41.7745,67.2844,41.5469,25.1904,99.0134,134.7060,-123.7640,-101.5529,-58.7637
-2992.1875,-8.5068,89.0094,129.0563,93.3126,-66.4175,-21.5817,-39.8374,8.2249,-35.4571,13.0246,-14.8257,68.6703,58.1636,68.3445,-21.9015,88.7700,55.6203,-131.9767,-145.0902,-31.8966
-2984.3750,-88.3349,10.2021,83.1382,49.4569,-75.4978,6.3010,-48.9997,72.0382,-7.2945,76.8334,-23.6958,59.7639,12.2398,95.3314,-67.7881,116.7336,81.7346,-105.9876,-13.4059,-40.8227
-2976.5625,27.5958,-14.8639,133.9763,24.3350,-61.8134,-17.0760,0.5982,85.6009,33.3534,127.3995,26.1922,-0.3985,-10.9368,-0.9461,-16.9151,93.4390,-13.4091,-166.2544,-38.9685,-101.0036
-2968.7500,0.8275,28.3645,65.1115,-2.5002,-94.8349,-13.1560,5.5170,163.4736,33.0494,131.2722,-79.6282,3.7361,-43.8174,40.0684,-49.7418,97.4425,-111.2614,-123.2164,3.7753,-22.8749
-2960.9375,-22.6023,-30.0603,4.5892,-61.9959,-44.5014,-36.8898,18.7863,102.6979,67.0603,107.4969,-29.1039,-19.7832,-67.3530,-20.5759,37.7927,73.8011,-134.7625,-76.8284,120.8857,-46.3953
-2953.1250,1.2571,-41.1801,27.3680,-37.1977,-21.8624,-14.3265,151.3686,89.2209,69.9485,57.0204,-79.2881,2.9982,-7.5853,-34.9244,23.6312,23.4697,-214.9728,-52.1471,39.2950,13.3857
-2945.3125,-130.1535,2.4537,-75.1157,6.3430,-51.4773,28.9823,47.7081,95.4987,57.7478,100.2989,-108.7327,83.5326,-73.0699,45.4751,-6.7860,103.9003,-206.4328,-43.7167,117.4741,56.9240
-2937.5000,-84.8632,47.7789,-64.8970,-54.4359,-4.3772,-34.0180,58.7580,69.4730,58.1288,111.2742,-61.4728,57.7578,-98.8499,56.5603,41.5017,151.0308,-267.1938,-103.5882,56.3683,31.1574
-2929.6875,-128.2717,5.3989,-114.3764,-96.9234,-52.9744,-8.7162,82.1217,129.7552,67.3991,134.5497,-110.9166,45.2769,-75.3294,79.9422,29.0861,212.4607,-345.6632,-77.1580,47.5629,128.6967
-2921.8750,-116.7435,-89.0429,-137.9143,-155.4724,-39.6177,-69.4688,21.4385,105.9889,90.5748,110.7805,12.5833,-14.2628,-24.8654,20.2722,152.6257,151.8448,-264.1755,-100.7752,129.7347,105.1851
-2914.0625,-32.1269,-109.3878,-86.3591,-140.9275,-25.1476,-55.1240,109.8795,46.3219,88.0548,88.1108,-8.8334,-36.7019,25.6976,-1.3098,130.2720,92.3272,-249.5978,-121.2920,38.0133,119.7704
-2906.2500,-125.6819,-132.8804,-111.9675,-94.5407,-87.8282,-43.9264,11.1846,57.5096,56.6223,62.2996,-34.4115,-25.2889,1.1069,45.9516,67.7608,103.6629,-132.1750,-39.9568,120.1615,131.2115
-2898.4375,-87.8926,-131.0383,-32.2260,-127.8220,28.8577,-110.3897,91.8476,-8.9498,60.3951,-4.1586,8.3663,-91.5416,43.8603,-21.4537,112.6052,37.3459,-94.3985,-73.2683,86.6881,27.9944
-2890.6250,-71.6545,-78.7608,-16.0302,-111.6704,-29.0007,-94.3977,180.9847,7.0443,77.0272,48.8367,-48.4150,-75.3595,60.0699,-41.4211,54.8978,53.4729,-149.1823,-91.1254,32.6795,44.2273
