Time,Fp1,Fp2,F3,F4,C3,C4,P3,P4,O1,O2,F7,F8,T7,T8,P7,P8,Fz,Cz,Pz,ref
-4000.0000,-5.5421,-52.7668,26.0342,-72.0345,22.5470,55.4961,-78.2210,22.5065,-34.5448,-25.6485,123.0647,-15.6384,-33.0372,12.3019,-20.8357,12.1774,-18.2021,55.0152,6.2086,-10.9011
-3992.1875,-36.1578,-82.1651,-5.1019,-103.9037,-8.6088,61.7805,110.1332,64.4966,25.4284,-20.2421,-15.7632,-47.4384,-64.2235,18.0080,-52.5450,18.0413,-29.1940,132.3627,82.0098,-5.5282
-3984.3750,-104.9799,-82.7682,-36.4371,-68.9815,107.0377,30.8578,40.2825,70.2858,0.9247,57.9731,65.2356,-42.4425,-97.6185,22.5154,-158.4537,22.7098,-36.3575,169.5003,84.6094,-74.3582
-3976.5625,-12.3955,-61.9816,21.6307,-48.6694,166.0806,16.3295,96.8290,55.4796,29.9562,42.5909,15.6505,-58.0529,-76.6125,-28.5821,-99.9519,8.7845,1.3697,87.0292,106.6200,-52.7894
-3968.7500,-72.5666,-16.9487,-40.0616,-4.1106,66.3609,-44.9518,180.6416,29.9268,49.9955,53.4762,-7.6701,-10.4167,-102.3680,19.5723,-89.2023,20.1142,-13.6573,98.8057,46.8873,-41.9688
-3960.9375,7.9079,62.7320,44.8954,40.0891,115.3033,-69.5925,-29.9088,-30.9790,-47.3667,-7.9775,80.6823,37.8640,-55.4795,30.3763,-77.8033,-4.9072,30.2061,3.2304,-48.1840,-67.5066
-3953.1250,-20.5229,138.5136,-23.0577,150.3866,-26.6592,-27.1366,47.6616,47.2223,-5.0535,33.6790,-21.8677,79.2417,-51.4983,36.2706,-73.2984,37.1687,44.6366,-59.2438,-41.1482,-25.9424
-3945.3125,-89.8181,104.4375,-94.8643,150.8272,-98.4659,12.4610,-98.6169,86.5758,-19.6720,108.4905,55.7551,80.7656,-50.3712,74.3159,-71.6423,75.3945,4.4148,-21.5687,-73.9604,-24.2350
-3937.5000,27.2988,79.7580,28.7333,160.6616,-47.8705,25.4539,-123.4900,100.3274,-17.4415,84.7033,34.7923,19.6820,-37.8480,50.7584,-21.5771,16.0243,66.6169,-44.5055,-97.3668,-48.1305
-3929.6875,58.0069,109.6804,23.9208,120.0990,-127.6876,-15.9531,16.2555,57.6820,20.0989,115.5186,31.4405,50.2038,-44.7314,8.8031,-27.9131,10.2589,51.3480,-47.8419,-137.1733,-17.4238
-3921.8750,167.4560,112.3549,100.8521,87.2825,24.2525,-122.6214,-127.2606,-85.2258,-33.7085,82.0941,111.8530,16.4775,32.1329,-61.3998,12.5037,-22.7514,74.6957,-79.4321,-168.2191,-13.9723
-3914.0625,125.0404,105.1764,56.9211,79.6144,-20.6563,-129.1377,83.3987,-92.9752,26.7703,0.8241,33.4112,7.8936,60.1471,-69.4599,78.0794,-30.6126,49.4178,-119.8780,-69.1055,14.6296
-3906.2500,59.5680,72.9454,-51.0682,46.8955,-17.6251,-161.7095,195.0072,-161.7734,56.9854,3.5128,38.9460,10.2602,25.1040,-29.5691,80.6066,9.4795,-15.7229,-149.3757,-29.0509,54.1824
-3898.4375,64.4084,42.0208,-8.7492,15.4773,24.7045,-155.9861,125.9044,-193.2698,42.2788,-64.4928,46.7959,14.9247,29.3547,-24.3805,158.4404,14.8757,-16.3471,-178.5858,12.2991,59.0372
-3890.6250,48.7420,62.5978,-63.9429,34.5591,-141.4846,-138.7690,215.3163,-139.2580,54.0687,-83.9824,-6.8529,69.0935,-26.9021,-5.6876,138.7715,68.7822,-13.5116,-87.2986,-36.8530,149.3965
-3882.8125,91.3757,102.4764,-17.8378,39.9334,-57.3692,-164.2624,4.0200,-201.9578,3.6794,-37.1678,116.8259,41.5589,-16.8546,-32.6943,149.4076,42.9874,5.0527,-78.7259,-99.7041,86.0564
-3875.0000,135.1062,110.4534,28.3623,47.4082,-84.1610,-154.6624,84.8352,-155.5538,27.3033,-64.2449,17.6085,14.1289,27.2936,-96.6045,158.1530,-20.7049,40.5920,-69.0641,-90.4464,94.8172
-3867.1875,69.4739,80.0882,-2.7986,51.5357,-78.3160,-111.4213,126.3062,-112.5020,21.6421,-22.6583,63.0497,-53.6442,32.0869,-53.8583,52.5478,-50.7430,32.1099,-28.7582,-120.5434,100.2268
-3859.3750,96.4573,0.3297,101.6553,6.2689,24.1337,-81.5906,-28.6334,-118.8579,-5.3454,6.5254,132.1014,-97.8234,97.4780,-97.5189,45.5525,-58.1861,39.5257,-105.8710,-59.0463,56.2338
-3851.5625,93.5912,-2.2797,23.2535,-32.8463,-17.2901,-121.6176,186.5964,-86.0572,80.3915,75.8703,57.2997,-65.8520,92.0122,-102.0257,40.7121,-25.4699,-11.5200,-143.8424,8.6050,88.3990
-3843.7500,71.4701,8.8582,38.5947,-91.2149,35.0378,-142.9002,52.5712,-107.5094,44.3010,127.9789,148.2580,-15.1352,69.2919,-50.7762,18.6213,26.0041,-42.5328,-165.0780,-12.9802,66.3131
-3835.9375,116.3892,-16.9536,9.9737,-117.5301,-29.5836,-134.1396,23.6135,-25.9080,68.0247,136.1461,86.2510,-6.3662,76.6162,-41.4791,63.5867,34.5308,-57.6543,-154.2758,68.5011,111.2751
-3828.1250,-11.1563,-40.2085,-123.1110,-106.2888,-126.6555,-83.8332,71.2302,60.2418,114.3406,221.8668,64.7918,-31.0422,16.4801,-28.6280,3.0995,47.6049,-105.5405,-70.9294,151.5329,123.7916
-3820.3125,-37.2482,-101.0064,-108.7437,-97.5871,-76.2700,-34.0928,-61.7092,74.8281,85.5304,199.0407,81.7912,-54.2708,27.7954,-52.3306,16.0711,25.1186,-103.9268,-60.1398,198.0223,63.7509
-3812.5000,-93.6364,-88.0973,-170.6830,-85.1782,-174.1970,15.3387,169.0798,161.1116,152.1493,174.9132,-87.5098,-42.7986,3.8118,-3.3376,27.7473,37.3247,-113.9929,-44.6607,211.2155,112.4141
-3804.6875,-151.7827,-76.9314,-191.3790,-144.5199,-48.8754,-41.9933,110.1163,66.6340,145.4879,227.0416,41.4532,-64.0758,17.0831,11.9087,43.6777,53.7844,-155.8486,2.0607,189.6580,54.3232
-3796.8750,-48.7261,-43.5588,-118.8746,-147.6583,23.6404,-43.1316,144.3575,102.3560,117.0710,115.3750,5.6092,-66.1529,14.5551,-26.6465,41.8157,-21.5531,-107.2729,0.9663,188.3031,52.4353
-3789.0625,-113.2774,-38.7789,-149.9775,-108.3852,-44.4614,0.1238,185.0116,108.4776,117.1981,121.1172,-22.8423,-24.8258,-16.5796,-20.7950,10.3535,-15.4838,-103.4115,43.2636,123.3435,57.9545
-3781.2500,-20.5245,-17.6904,-50.7787,-156.8068,56.7358,-9.3339,26.9565,61.8880,41.0460,74.1617,7.0063,-72.1972,8.5840,-30.6436,0.2039,11.8817,-78.4827,-3.1541,76.6909,10.7742
-3773.4375,-57.8258,-20.6517,-89.6450,-195.2774,-56.1310,26.1477,133.8801,133.2474,109.8679,145.1647,-102.2086,-74.6219,5.6989,-32.5435,35.0158,47.1955,-112.5904,-4.6308,74.9982,8.5511
-3765.6250,-141.8883,-36.3660,-140.2760,-211.5037,-33.7419,48.8652,8.0639,155.8483,91.0289,241.4342,-41.1757,-16.7915,-46.9380,26.8099,-16.9218,69.7663,-155.7794,-18.8626,60.5582,-6.4219
-3757.8125,-37.9497,-37.0746,-29.9049,-142.7233,3.6506,12.5735,-29.7449,156.4493,78.7913,167.7138,-38.1565,-53.9628,-10.5795,-9.8402,57.1460,33.3370,-87.9454,-124.1060,61.1256,-6.3937
-3750.0000,-61.0280,-25.7690,-92.5545,-96.9277,-131.9762,-13.7190,127.4666,94.0587,99.9045,105.0079,-61.1590,-43.1270,-37.2283,0.5188,67.2123,43.9122,-89.8174,-76.3568,38.6974,40.6364
-3742.1875,14.3400,-55.0079,-13.7609,-92.6716,-54.1544,-80.5637,-51.8802,-10.8864,51.5968,110.7535,-16.7123,-37.8433,-32.4283,-30.6722,72.7368,49.9365,-57.8954,-104.1740,44.7258,46.1133
-3734.3750,-69.9921,-35.9454,-64.6746,-38.1086,-104.0386,-94.1189,80.1068,49.4668,123.7789,169.7954,-137.9798,-52.2546,-11.3219,-44.5681,58.5731,36.2550,-54.6809,-48.7082,136.0565,31.8939
-3726.5625,-185.6830,-47.2252,-109.9511,-49.8899,-39.2804,-66.0365,106.7494,77.4626,166.8521,271.4936,-143.5981,-98.0082,-93.5606,-15.8087,13.0696,28.2237,-82.7011,-22.6038,197.0343,-13.6693
-3718.7500,-168.5180,-100.6508,-51.3747,-32.8113,55.3358,-81.1165,53.2477,62.2972,148.6909,183.0441,-156.3759,-114.9119,-73.9439,-68.2015,70.4225,13.0387,-54.0109,-4.6610,250.8702,-66.3801
-3710.9375,-161.0648,-128.7676,-120.5142,-28.4255,-49.7623,-38.9041,205.0800,104.4326,161.1624,113.9052,-222.8749,-73.5108,-70.0363,-26.2918,75.0711,18.1545,-67.9558,72.5782,187.0147,-24.7913
-3703.1250,-104.3604,-107.6234,-56.4056,-5.7764,50.3930,-11.4550,83.1600,57.8054,93.7521,67.0175,-120.1282,-83.8565,-43.8776,-36.1313,64.9711,-28.4884,-31.4622,61.0471,105.4087,-71.9586
-3695.3125,-74.0972,-78.9183,-61.7453,22.4398,45.0858,19.5342,187.8065,89.7266,93.0198,-48.3198,-195.8525,-89.6453,-13.1721,-78.4243,96.4299,-70.5871,-10.4438,56.0490,100.3555,-77.5747
-3687.5000,-104.8820,-38.2476,-56.1448,61.6168,13.7200,-47.5327,192.4164,21.5921,58.2942,-79.7032,-150.6410,-47.4772,-8.5234,-35.7592,64.8319,-64.7298,-3.9863,26.9880,35.2443,-72.2318
-3679.6875,-22.8647,-27.7725,30.2579,107.6009,101.1575,-33.8130,19.8278,-37.7518,-2.6373,-103.2824,-98.6402,2.4907,3.9306,-22.2970,78.0429,-51.0742,39.6522,-66.2826,11.9360,-96.0909
-3671.8750,-45.9083,-16.3485,-69.4046,117.5405,-35.4653,13.8448,140.2201,82.8541,76.0201,18.0940,-232.7149,12.4140,-23.6660,-11.8863,51.2106,-40.4686,16.2361,-18.6148,24.5894,-48.9965
-3664.0625,-71.0611,-42.0124,-55.1690,56.3953,14.8191,27.3927,5.5184,60.3502,24.3041,31.3701,-105.8982,-10.7630,-47.3570,1.4213,28.2832,10.0271,-14.0449,-8.0604,-34.8545,-109.0043
-3656.2500,36.9399,30.4874,19.2167,93.4170,16.2469,29.0824,42.9820,61.9915,-6.7811,-77.2067,-174.9550,-9.7808,27.1054,-33.1230,29.5119,12.6641,45.9327,-74.3682,-31.1444,-70.8628
-3648.4375,-63.1606,34.8959,-11.5031,133.3546,-51.4375,-1.3380,84.3670,30.5262,2.6939,-71.8731,-130.1302,32.1051,31.4658,9.2331,34.6336,18.2021,31.4396,-68.7859,-60.5395,-65.8198
-3640.6250,-35.4006,27.1564,56.6306,125.1479,53.7364,-42.9213,-31.3986,-47.1027,-3.8896,-39.6858,-59.4697,25.8457,98.6794,-32.5555,103.6104,-23.4119,38.8552,-146.3704,-67.0818,-107.9321
-3632.8125,-12.5890,49.4786,-32.1923,147.0066,-72.0494,15.5376,135.9177,47.3176,41.2349,-18.4516,-145.7882,47.6426,45.9399,-11.2912,50.6439,-1.9805,27.9237,-122.9200,-43.5733,-49.9867
-3625.0000,-32.7330,63.8588,-14.9712,160.9274,-17.7824,-40.9723,41.2855,-8.2241,-21.2214,-38.1624,-53.0667,27.4963,61.2558,6.0265,-5.2657,15.5005,36.3045,-107.4344,-98.0102,-69.9944
-3617.1875,72.3766,63.4950,21.4996,195.1120,-17.2649,-77.2458,40.9180,-81.5226,-17.5632,-111.6286,-50.1158,-9.4030,97.8328,-67.4124,68.0874,-20.7753,69.2842,-141.7087,-27.1911,-69.7540
-3609.3750,19.1281,79.7944,-32.3883,210.9604,-35.1091,-94.8757,170.2303,-99.1787,17.7431,-92.4434,-102.5408,9.3517,79.0589,-48.2010,50.0945,-38.4010,60.0621,-53.3431,-44.7240,-87.8621
-3601.5625,66.3359,126.5487,54.1763,186.2681,125.5039,-118.0666,34.9906,-159.3972,-32.3167,-115.8077,-49.5275,21.5596,91.7452,-71.5398,63.5549,-61.5774,90.3984,-76.5424,-67.8099,-111.5233
-3593.7500,21.7497,152.5116,5.9468,211.7890,39.3079,-93.0691,169.9794,-97.4173,-7.7767,-163.9766,-132.3390,82.9704,78.6375,-46.6797,51.2179,-73.5591,89.5240,-49.5566,-40.6920,-49.9806
-3585.9375,1.0614,130.3820,-16.3887,155.2221,54.0102,-115.1839,36.8769,-155.5475,-58.3824,-113.2391,-5.2608,97.2832,92.4314,5.0788,-7.2175,-58.6471,53.8405,0.3168,-96.6712,-35.5423
-3578.1250,136.3858,124.2635,88.2807,112.6750,85.7142,-120.3079,-43.2139,-124.6887,-59.0473,-44.5040,-8.2097,55.5975,86.2344,-37.1691,-12.6441,-26.7501,82.8378,-75.8301,-101.6519,-41.1054
-3570.3125,99.4999,122.9628,12.7311,145.9507,-100.7967,-85.6341,27.5218,-16.0304,-4.7212,64.0390,-81.3952,52.7200,9.8339,-2.6127,-52.2708,44.9463,63.4184,-76.1829,-101.8349,-6.8629
-3562.5000,170.6577,122.7191,125.2244,146.2962,-24.2525,-82.9161,-154.6970,-50.3302,-83.4631,-7.3638,33.4476,17.8972,11.4879,-0.0018,-49.8398,-26.3080,107.5301,-110.4954,-135.9703,-41.5687
-3554.6875,175.4089,92.0822,128.3024,149.2614,-58.1152,-42.6000,-5.2895,-47.0306,-56.9925,-78.1668,-34.1476,20.6830,50.7427,3.2057,-46.8013,-95.9669,121.4234,-70.2100,-95.5011,-1.6727
-3546.8750,104.9995,92.3093,91.2188,149.0927,-59.1349,-43.4439,-44.0175,-83.8897,-69.8390,-42.1167,40.0838,93.3269,48.8480,39.2710,-47.9135,-59.7736,91.2234,-103.0881,-164.1815,34.0745
-3539.0625,119.3472,71.2996,70.8844,162.6932,-5.3968,-63.5486,-173.9860,-104.0048,-89.7577,-62.3185,59.0363,109.7204,101.7106,56.0777,42.7342,-6.8404,73.6861,-159.2380,-148.1013,13.5721
-3531.2500,2.8375,130.4532,-17.3127,151.4630,-128.5246,-75.5106,-5.7718,-43.9723,-33.3171,-38.3727,-25.8950,132.2670,49.7229,79.0370,28.5336,53.2358,36.9100,-134.2410,-123.8679,73.2276
-3523.4375,-13.1690,149.1162,-31.0070,134.7445,-70.1448,-53.9838,-129.0638,-130.4540,-98.6301,-88.9299,109.6551,118.3204,109.2465,102.4987,14.8307,2.8009,22.7360,-79.7547,-138.1392,22.3831
-3515.6250,12.1855,209.1424,-5.3481,159.3954,-116.4189,-28.1141,-67.9812,-104.5923,-85.2764,-99.1403,-9.4796,179.7270,97.1277,91.3052,3.4792,-8.2914,63.3256,-18.9327,-148.0618,47.8887
-3507.8125,8.3865,241.0282,-45.8397,189.9124,-156.8428,42.5945,-145.0356,-71.8912,-133.3100,-66.4925,26.2081,175.9904,55.8590,124.9679,-109.0292,25.4664,63.3894,-22.2748,-186.1356,44.2482
-3500.0000,103.8960,195.2245,92.9693,143.7426,-92.9616,34.5892,-227.7878,-116.9038,-160.4055,-147.5474,93.1689,130.5580,83.8992,115.9262,-45.2278,-19.4787,89.6134,-102.3338,-125.9063,-1.0913
-3492.1875,104.0502,159.0819,16.4178,108.2368,-131.4441,-5.7760,-11.8564,-82.2682,-111.1689,-150.9548,18.7369,127.7799,79.5909,113.5341,-83.7745,14.2235,52.2171,-101.7551,-89.0159,69.2282
-3484.3750,93.5507,78.2948,8.2159,62.0894,-67.5686,-13.8102,-166.5663,-91.3015,-117.3437,-50.0089,122.6333,119.3507,33.6366,105.4939,-92.9668,43.2673,17.6235,-76.8482,-64.7661,23.8976
-3476.5625,97.0116,81.4658,48.9623,64.9068,-63.7481,27.0965,-126.2995,-14.3939,-96.4179,-82.1270,54.4369,85.8766,-0.3573,72.4001,-89.2026,10.2551,46.1867,-73.0065,10.4419,27.5230
-3468.7500,10.7253,134.9059,-41.0431,117.9925,-115.6827,48.2401,-70.7642,6.7504,-82.1394,-24.9982,4.4623,142.6610,-54.0985,129.5641,-141.1900,31.4861,31.8552,-18.9267,-41.1071,11.4082
-3460.9375,33.2013,122.1058,22.7059,140.8447,-15.8584,74.1189,-227.4854,-3.3743,-124.7882,-72.1281,32.2191,132.2026,8.9227,82.4763,-79.4232,-52.5412,69.4495,4.8896,-87.9078,-35.9562
-3453.1250,14.1302,102.7631,-35.0969,120.1687,-36.5890,90.4380,8.2769,49.9447,-56.5794,-92.8119,-59.6146,75.1985,24.4004,25.8303,-63.2047,-36.1336,52.2641,56.1516,-71.2551,-19.8652
-3445.3125,-13.6951,74.6779,-25.6505,56.7574,9.9378,62.9942,-56.6999,22.5004,-67.4416,-83.2454,61.7767,47.4458,33.1354,35.4342,-16.7341,10.5171,13.3375,28.6523,-98.3525,-47.5294
-3437.5000,11.3970,99.5073,-0.2942,11.2639,35.3675,-21.5556,-31.7630,-26.0508,-29.8137,-94.7876,-57.9658,108.5971,20.7845,23.9331,45.6376,-37.9403,10.8428,19.0298,33.4453,-22.2924
-3429.6875,-93.4139,100.4486,-110.8456,-24.1066,-39.1141,-95.0102,78.2928,-63.5112,35.5252,-21.2295,-130.6411,144.8538,-17.4623,23.5400,45.1075,-38.2968,-51.9211,55.5044,105.3358,14.0473
-3421.8750,-39.9677,83.6473,-17.1359,-41.2163,128.6621,-111.2277,-12.4029,-151.7394,-2.0251,-37.4299,-34.0884,55.3612,39.5522,-29.6077,28.8366,-90.4109,-19.2970,4.2179,124.4754,-2.3651
-3414.0625,-21.9168,31.4542,-35.8259,-23.7066,37.0310,17.1463,115.5355,-97.3694,55.9378,54.9578,-124.9806,-0.5301,20.1749,-48.1593,-26.8246,-35.9360,-4.8315,57.5216,108.2149,15.8290
-3406.2500,-31.9222,-14.7808,-10.5729,-34.2312,62.3511,79.4622,-43.5650,-72.0624,10.4835,117.2912,-60.9521,-12.4661,-29.2399,-22.7529,-74.5373,26.4818,8.7228,117.7619,-7.0995,40.9720
-3398.4375,-0.7666,-53.8477,96.8336,-38.5802,95.8251,112.9227,-119.5021,-39.6121,-34.4581,2.7688,-62.8162,-16.2441,3.5028,10.7982,-42.0916,-49.9666,55.7964,149.1341,-10.2693,37.2664
-3390.6250,4.3416,-82.9477,102.1804,-102.9586,27.2319,81.3223,-5.4657,2.7839,-4.2859,45.2003,-92.7668,-11.0659,8.2016,53.3003,-72.6966,-8.4713,26.7711,154.4519,-39.4921,42.5184
-3382.8125,102.2107,-127.2876,208.2844,-112.5730,170.4000,76.4584,-156.6860,-38.0851,-55.7747,77.3830,-20.9916,-89.1381,3.6575,12.5503,-114.5479,24.7644,63.1370,111.5053,-81.9599,-35.4786
-3375.0000,37.0811,-156.6199,139.3811,-73.1718,101.5533,155.5897,-41.8849,77.0399,-5.6515,46.5602,-125.2586,-120.1980,8.1220,-19.1967,-72.3939,30.0034,52.7864,116.5458,-40.4250,-30.4694
-3367.1875,-56.6533,-215.5395,77.8684,-96.3506,114.1011,131.1138,7.3191,16.5564,7.2719,59.1367,-74.1590,-107.8442,19.9884,30.4684,-59.8416,42.6393,-1.0814,93.9747,-63.4976,-18.0530
-3359.3750,-4.2747,-234.3437,133.4647,-115.4061,206.7505,75.7302,-11.3784,-38.8400,14.2186,3.8083,-90.9935,-90.3811,37.9642,12.2295,32.8165,-12.6324,8.0346,40.4803,-10.4747,-36.5335
-3351.5625,-39.4455,-198.6876,57.5031,-79.9901,93.8378,36.7909,132.4013,-41.7898,34.1607,-36.0813,-128.4182,-55.4646,-2.5985,9.4461,-7.0759,-15.4559,0.8811,76.4372,25.9918,34.4448
-3343.7500,-64.3080,-188.7211,34.8498,-105.2596,144.2412,14.1427,-37.5186,-64.4578,8.1257,15.3184,-39.5665,-79.2479,-25.8530,23.9652,-29.6719,-37.9885,-23.1686,121.6887,106.7521,-25.2750
-3335.9375,-55.8163,-180.3950,-29.4576,-98.1654,79.9945,23.8350,155.9304,-17.7793,93.4718,-11.9320,-102.4051,-106.6704,-16.7462,-77.1684,53.0812,-138.1770,-41.9526,130.2882,185.8666,-52.6360
-3328.1250,-117.9810,-137.7051,-94.4224,-89.7034,52.0984,-4.1278,237.7449,-8.7574,107.5488,-2.8320,-91.9255,-133.7352,-82.2811,-67.9499,26.1802,-129.0171,-66.9043,103.2291,160.3283,-43.6414
-3320.3125,-105.6910,-159.5626,-44.9323,-77.7737,64.6612,8.3508,103.0094,-33.2956,79.1271,-64.2853,-41.0272,-157.3498,-70.3533,-92.2831,111.7328,-116.4161,-46.0293,80.6116,173.2408,-31.1987
-3312.5000,-96.9510,-117.9651,-77.0004,-35.3736,-77.3299,-24.7185,217.7536,7.6165,94.3054,-59.2930,-144.7270,-79.5117,-101.9720,-50.1654,79.7341,-2.3715,-31.0693,123.4389,110.6030,46.6988
-3304.6875,-74.9053,-25.0609,-87.7665,-47.6626,-14.0147,-71.4951,60.7985,-39.1802,56.7563,3.9971,-7.1494,-17.3728,-113.2769,-23.7485,70.0358,-12.0349,-52.9058,76.5592,99.2593,-0.1084
-3296.8750,-23.6457,62.0543,-34.3260,-31.7366,2.5035,-91.0783,113.0600,-22.7852,74.1218,20.4736,-63.4051,-1.0325,-97.3675,-80.1397,49.5426,-68.5137,-10.5344,57.8700,116.1214,16.2880
-3289.0625,-82.8917,72.6829,-96.3918,49.7108,-60.4801,-44.1691,123.8407,-11.8994,73.0815,68.4510,-51.1953,46.8157,-122.9524,-33.0289,-13.4546,-57.5053,-13.0507,33.6740,92.4772,27.1867
-3281.2500,-14.6770,105.7690,-61.9962,82.6310,11.9980,-45.8196,-24.9389,-50.5788,37.8979,66.8655,-14.5680,82.1196,-125.0720,-34.4717,21.9961,-59.0539,11.4565,-39.0843,91.2815,25.5319
-3273.4375,-73.7618,115.5707,-162.9041,127.2746,-162.8308,-0.7714,94.0101,31.4390,83.1519,111.9712,-114.2919,127.1337,-154.4912,10.7859,-6.8591,22.0909,-13.2460,-29.1429,101.7890,70.5818
-3265.6250,-121.1425,104.0804,-137.1112,80.6307,-136.9467,-12.0353,-64.3388,20.1429,44.8005,173.7764,-52.3431,115.8508,-166.2019,73.7405,-18.0197,47.9218,-36.7962,-74.4976,19.9960,59.3252
-3257.8125,-18.1514,66.9468,-65.9494,78.3513,-138.6968,23.0409,6.6820,55.1815,72.6336,135.9103,-89.0768,39.9154,-131.5474,-1.9712,17.1705,-26.9166,0.4353,-112.5063,54.5549,57.4184
-3250.0000,-105.2111,48.7768,-120.8383,96.0470,-230.4931,41.0568,98.6798,110.1581,100.6534,153.9836,-105.8931,20.9346,-150.9362,16.2656,-1.6969,27.1826,-20.6862,-94.5619,37.0617,75.4646
-3242.1875,-48.5086,35.3683,-60.9680,47.5120,-96.5255,-9.1857,-61.5748,22.8668,33.9997,103.7944,-8.9820,44.7024,-90.5585,40.2488,59.1875,14.0215,-28.7046,-177.8696,-45.6857,62.2580
-3234.3750,-114.0523,39.7166,-168.3473,50.7455,-167.8107,30.3203,50.9481,62.3263,49.3047,32.3414,-77.3637,121.2293,-51.4190,79.9772,98.8188,53.5988,-73.8198,-173.4224,-39.6884,101.8053
-3226.5625,-80.4939,73.1771,-132.6279,49.0953,-94.9925,-7.0767,12.5734,-12.1227,9.1508,-5.0195,-5.6663,119.8597,-53.1732,78.8069,60.5490,16.2668,-50.9549,-139.8829,-40.6058,100.4509
-3218.7500,-3.4676,81.1043,-49.4472,56.9159,-48.7199,2.9740,-13.3524,-2.1294,-0.8362,-31.9530,-30.5540,56.9443,-44.4666,16.0805,34.7368,-10.6277,-0.6595,-96.9038,36.9203,37.5493
-3210.9375,-68.2913,86.1951,-116.1243,96.9077,-152.3123,82.1693,65.8901,77.0146,21.1332,10.2644,-97.3303,62.1873,-111.6064,58.5022,-33.9254,-5.3804,-2.4579,-22.7768,6.5901,42.8048
-3203.1250,-15.1056,68.2901,-22.7912,78.9151,-58.8859,102.3537,-169.8740,61.1463,-60.5645,-42.5150,-2.1267,83.4255,-55.7405,79.9165,24.4150,-21.1468,14.9080,-75.6532,-80.7443,-9.9379
-3195.3125,-23.9130,60.3866,-69.4544,105.9391,-140.4591,129.5324,-70.6166,124.2748,-34.0608,-88.2897,-84.9652,110.6636,-28.8716,70.3244,51.7549,6.0858,11.7955,-48.5241,-53.0781,17.3223
-3187.5000,-101.2719,87.9370,-76.6726,98.4249,-75.5784,122.1547,-77.9004,116.8495,-31.7854,14.3859,-91.3804,66.3548,-36.5427,100.1827,-29.4602,72.7631,8.2957,-20.9511,-94.9660,10.0347
-3179.6875,-40.8183,43.2940,-12.0808,18.7249,63.1130,112.5696,-123.3842,107.2120,-21.3171,41.8452,-63.0229,19.8519,-9.3970,53.8406,-1.8734,63.2262,3.1063,-65.5888,-34.0553,0.5443
-3171.8750,-79.8612,37.1634,-92.9889,-22.4587,-19.7021,67.4756,88.6570,136.0685,42.3876,69.7905,-70.2058,47.8529,-18.7401,44.9999,-10.7947,54.1892,-43.9847,-35.7270,-38.6512,65.5611
-3164.0625,-54.1926,-6.2660,-64.1803,-65.9297,48.1962,24.0732,-101.6072,18.6039,-13.5881,26.4220,34.2955,41.5507,48.6287,75.8535,56.9805,10.8449,-60.1803,-9.1652,-46.5535,22.2778
-3156.2500,53.0827,-40.0914,9.2282,-29.7894,47.6915,60.2692,44.7449,54.7366,-1.6733,-83.3612,-185.6433,40.8477,47.6082,38.3038,56.3586,-25.9079,15.0390,26.9997,-44.8520,58.6011
-3148.4375,-7.9903,-30.2570,-15.7148,-19.9817,59.8321,35.1083,56.7580,-7.4883,-16.2603,-108.4989,-246.9575,52.8002,22.2470,87.4034,31.3845,21.9757,9.0485,72.8132,-34.5055,33.5796
-3140.6250,91.1932,-72.1581,89.5965,-61.9058,165.2394,30.1807,-21.9781,-49.4807,-43.1999,-150.3974,-177.0447,-25.9861,90.1469,45.7421,63.6677,17.0934,36.8644,65.8691,-4.9092,-8.1967
-3132.8125,75.8312,-52.5966,71.3593,-42.3600,73.0915,84.6995,142.7611,41.9765,-22.6789,-132.8511,-195.7225,-80.3176,71.5015,-10.4749,-65.6059,34.6507,66.3245,190.3769,-20.8724,46.4814
-3125.0000,62.0826,-101.4287,132.7374,-91.2005,171.5518,35.8127,-15.9115,-43.9764,-67.8153,-144.7081,-60.8076,-166.0503,95.4703,-22.0881,-78.2887,-14.1890,67.2517,247.4773,36.7486,-2.2421
-3117.1875,118.3009,-185.3048,154.0723,-139.0817,192.9579,-17.1266,115.3682,-59.9783,-13.5480,-160.6267,-147.9693,-181.8275,116.4025,-73.7523,-20.0119,-30.0761,50.4607,162.5199,93.3108,18.9937
-3109.3750,-24.7299,-152.4228,5.1510,-107.2052,117.1085,-19.3233,187.4066,-25.2378,39.0001,-53.7929,-149.4085,-109.8465,41.0893,-39.6648,-21.9846,4.7844,-13.6643,160.3112,56.6164,16.9874
-3101.5625,-5.2545,-133.0310,25.7335,-123.8158,174.7750,-36.0328,60.9403,-42.0064,13.3470,-70.4695,-93.3683,-163.3590,97.2980,-56.0852,35.5496,25.1293,-17.6751,108.5958,75.4134,0.4799
-3093.7500,-100.6228,-158.4792,-74.5303,-113.2560,38.5843,48.4023,218.6460,5.3697,56.2269,-60.0105,-154.2139,-115.7189,144.6673,-45.3597,9.2328,35.6164,-59.7611,154.0314,86.3593,11.1287
-3085.9375,-70.3388,-128.2755,33.8557,-118.0376,109.0479,45.4824,31.9962,-34.6131,-18.0515,-62.9003,-10.4213,-119.4302,178.6972,-10.9845,-30.4348,-41.2502,-31.8491,79.1142,46.9463,-28.5739
-3078.1250,52.0065,-77.0183,123.2969,-66.7593,162.5673,61.6090,48.4004,-55.5413,-39.9800,-155.7410,-30.6077,-67.0955,194.7892,-68.5699,22.9481,-62.0767,32.6008,-9.7500,-6.4165,-12.2225
-3070.3125,-2.9025,-26.0083,27.4811,20.2819,29.8301,38.4893,62.5689,-41.7152,-37.3436,-141.8288,-89.0694,-52.0075,134.6348,-17.4049,0.0733,25.8405,35.7825,41.1496,-26.0296,38.8824
-3062.5000,36.7464,48.5587,105.2248,23.8830,107.6648,4.9134,-116.7201,-74.3486,-85.0983,-138.3780,-49.0003,-84.3691,138.0432,-49.7037,3.7460,29.2910,76.3498,8.6068,-22.0922,42.5341
-3054.6875,0.8473,48.5806,-5.5818,23.9490,33.9500,4.7790,29.4696,-1.5358,-9.9492,-29.4866,-157.5178,-48.2748,101.9119,-49.5611,-33.1284,66.1804,37.9465,79.5201,13.2938,42.6344
-3046.8750,-40.8504,41.8071,26.8109,17.2294,102.4470,-0.1601,-12.1431,-6.5307,-16.0001,39.6030,-52.8443,-89.9787,132.9909,-55.2197,-74.8116,24.2664,37.2570,72.6358,-28.1331,0.9329
-3039.0625,65.3158,6.8817,102.0660,17.3642,178.8073,38.7475,-9.9034,32.3222,-20.2997,-32.4655,-13.3433,-124.8412,171.9353,-126.0398,1.3592,-47.8034,67.1009,2.5978,-62.7067,-33.9192
-3031.2500,24.3842,0.8538,21.2207,46.4099,61.0605,67.5511,92.2570,97.0762,-14.8099,-3.6348,-57.9650,-95.8097,126.7864,-60.9647,-80.5783,18.0166,47.2796,31.4672,-137.3850,-4.8650
-3023.4375,11.1075,-47.5206,85.0324,33.1115,124.9754,57.0041,-100.9434,50.4770,-60.4732,22.8444,43.0522,-106.1270,117.3013,-33.2452,-89.8633,44.4756,50.5077,52.9893,-116.4266,-88.1629
-3015.6250,29.1329,-29.5868,66.1399,16.1272,69.1832,74.7612,64.1688,68.1875,-24.0321,-32.3765,-48.6633,-51.1387,98.1191,-15.2304,-71.8486,26.2285,35.8861,0.8193,-62.1728,-70.1544
-3007.8125,42.0035,-16.7902,79.0943,-5.9997,82.2386,14.3661,40.1253,43.7474,-34.7705,-19.7462,37.4630,-38.2937,73.7906,-39.3656,-95.9910,1.8266,27.8539,-21.4953,-49.0768,-57.2922
-3000.0000,104.1885,9.3083,144.3657,20.1847,110.6041,5.2658,-78.6234,34.6001,-50.0519,-65.8293,-7.1246,-84.1488,27.7745,-48.2156,-30.8280,-7.2869,75.5660,-30.5113,12.3195,-66.1334
-2992.1875,70.9331,46.9504,33.1874,92.9255,-74.4794,40.7053,31.2062,107.0024,-29.7897,-30.3690,-118.1808,25.5404,-83.6767,61.4722,-105.1225,65.1407,67.5462,7.0316,-20.7384,6.5785
-2984.3750,97.4430,38.3374,62.7771,84.4129,-6.7903,33.8789,-195.2226,-9.8628,-86.7507,-0.1670,22.5130,55.9722,-53.3608,90.9035,-75.6644,21.3157,58.2646,-36.6755,-64.0527,-36.9622
-2976.5625,203.0125,37.7781,171.4207,13.9594,-9.0503,-42.9043,-51.5891,-49.6746,-71.8681,-76.9214,-16.7604,53.4556,-18.9841,52.3760,-78.1562,-18.4642,77.5603,-108.3345,6.6822,-2.4463
-2968.7500,153.6266,58.2765,120.1068,-0.4274,-23.2674,-94.6362,-28.9048,-101.4402,-88.1024,-54.6282,6.0038,75.9985,-70.5543,110.9012,-128.6053,77.8015,44.3603,-87.9340,-43.5445,-16.8735
-2960.9375,209.0973,78.6332,179.6478,20.0491,36.3712,-109.5193,-117.3847,-116.3622,-117.6936,-142.4977,28.6073,61.3942,-48.2625,96.2686,-33.1991,62.9061,75.5432,-137.6767,-57.9325,-31.4506
-2953.1250,172.0633,112.4948,101.6820,89.0355,-78.4964,-40.9074,25.6562,-83.7787,-107.6380,-220.8640,-13.3186,130.2928,-53.4669,92.1323,-38.2874,20.5078,78.9571,-138.9121,-92.8312,37.4803
-2945.3125,166.4794,106.8085,132.1684,48.4790,-47.9073,-82.8490,-162.8698,-199.7456,-162.2315,-262.7714,92.2053,124.6417,-22.2120,123.4434,30.0737,14.5581,60.2827,-179.6963,-98.2937,31.8628
-2937.5000,172.8559,78.0770,137.6059,-16.1178,-42.3744,-114.8372,-84.4446,-158.7521,-89.0893,-185.7246,-50.3407,128.9397,-17.9990,90.6971,71.3831,55.5601,40.0098,-208.5299,-22.8058,73.2037
-2929.6875,40.7732,50.8921,-1.4140,-42.1635,-69.3023,-106.2723,-3.4652,-76.2019,-46.0506,-30.1195,-5.3449,174.7902,-45.2324,136.5045,-29.7674,101.1178,-34.9667,-129.8027,-47.7720,82.0947
-2921.8750,140.6976,115.7016,105.5724,-13.2102,72.7843,-110.7096,-153.4989,-117.6505,-109.6389,-71.5153,64.6457,169.6414,-13.4565,58.3022,-70.9140,-50.3360,34.6445,-136.0773,-19.7404,40.9802
-2914.0625,117.4743,92.3615,82.4055,34.5980,12.7180,-98.3008,43.3412,-105.2413,-63.4241,-131.0595,4.4606,146.3416,0.1733,-2.0575,-58.2122,-109.9450,52.3256,-54.5011,-7.8585,17.7201
-2906.2500,99.1931,38.9728,137.1905,-54.6380,104.6079,-116.9482,-11.8745,-159.8881,-46.8699,-77.6542,96.2250,54.9881,-18.2341,-20.4734,-2.5605,-92.6036,30.3205,-72.9657,-26.0361,-0.5882
-2898.4375,137.7204,7.3875,140.7830,-51.0666,72.3057,-113.7998,-45.2904,-84.7390,8.1713,-0.4629,63.7800,-15.5672,-14.8308,-54.0975,74.8931,-89.4636,35.8905,-69.6262,13.5823,2.9073
-2890.6250,88.0397,-8.3965,51.1656,5.3104,-55.1981,-57.8533,12.1069,-64.7915,31.4282,19.5247,10.1284,4.6816,-68.6184,3.0762,58.1354,-105.5264,25.2331,-14.4732,-2.0048,23.2048
-2882.8125,143.6758,12.1201,147.8649,59.9882,78.6191,-34.6131,-112.2023,-115.5498,-57.7904,-105.1998,69.7820,-45.7699,-45.0977,-84.4604,7.6735,-156.3040,96.3613,-29.0146,18.7056,-27.2000
-2875.0000,152.9624,-13.7146,120.2133,34.3261,-21.9180,11.2846,45.1530,-69.6502,-4.4790,-96.2765,-30.9300,-73.5700,-72.9208,-111.3558,-20.1370,-111.4367,85.6947,15.1055,98.0618,-17.9517
-2867.1875,135.1472,3.3438,139.4628,16.5607,-2.5536,-6.9234,-83.6023,-87.8520,-12.4361,-3.4489,25.2648,-54.4703,-127.8318,-93.3538,-38.0477,-56.6682,76.5469,-2.8684,115.3081,-35.8057
-2859.3750,205.8467,3.9038,142.2228,17.2933,36.3180,-4.6433,-117.8551,-48.5609,-3.3574,34.8731,-9.0430,-51.8732,-125.2289,-127.8644,-35.4491,-128.4083,89.2216,32.6504,117.0463,-70.1605
-2851.5625,64.2983,3.2181,-7.2699,86.7836,-39.0748,65.3814,63.6548,22.4834,24.1255,32.9461,-48.6002,-54.5265,-127.8717,-93.6315,-112.1040,-130.3966,61.7093,101.9293,80.5212,-35.7599
-2843.7500,69.7597,-27.4709,0.2506,21.2779,79.5417,36.4088,-74.8574,-7.4688,-9.8840,40.0208,106.8482,-83.1915,-9.5059,-122.4047,-66.7622,-123.3902,14.5426,36.2148,85.9866,-101.3613
-2835.9375,46.0175,-85.3689,-23.4374,-71.4264,-18.0466,48.2369,84.4445,78.3926,72.6335,88.8992,82.0773,-108.0551,39.6661,-147.3862,-17.6179,-74.5793,-40.5458,48.3086,133.2516,-89.1631
-2828.1250,18.2194,-78.3173,-16.1784,-135.1814,-10.6763,18.0099,54.6969,85.2040,64.4863,132.7373,126.2548,-100.9655,9.7921,-140.4241,-47.5272,-30.8197,-66.0843,55.3587,105.4568,-82.0174
-2820.3125,4.6802,-93.0087,-31.6569,-148.6835,10.9527,39.0281,3.1921,143.2660,61.6077,116.8203,110.6815,-116.6223,31.1800,-119.2262,10.8222,-9.8227,-81.5815,6.6616,90.9062,-60.6242
-2812.5000,-107.9116,-133.7467,-115.1891,-120.2295,-109.4761,65.9986,139.6487,169.2858,117.3112,142.8513,27.0534,-89.3305,21.5250,-56.0816,0.1137,53.1267,-110.3343,34.9282,154.2957,2.7275
-2804.6875,-146.0535,-172.0364,-117.2678,-123.3242,36.5524,27.4175,28.5388,93.7553,75.3213,141.3302,172.8903,-91.5902,93.3305,-57.4944,-1.1451,51.5207,-133.0737,-3.3499,152.1316,-35.4783
-2796.8750,-30.2919,-126.4313,-34.4469,-112.5141,45.4801,72.7347,110.3474,102.1288,50.8957,76.7033,107.6194,-81.9597,102.0464,-85.0225,-66.5003,-14.1908,-61.5162,42.2774,91.8755,10.2120
-2789.0625,-81.2848,-108.5785,-87.3773,-93.4498,29.6602,92.2998,21.4161,122.7519,0.1006,96.3278,165.6022,-25.0817,86.0181,8.6910,-118.6142,6.3418,-75.2358,131.1635,-30.1378,-5.8484
-2781.2500,-11.5218,-109.9787,24.4481,-58.6395,66.5995,129.6160,-88.7830,123.1278,-42.9794,23.6995,166.3386,-61.4612,123.7486,-27.8505,-81.9719,-67.3702,-9.0726,130.8002,-66.4052,-42.1563
-2773.4375,-64.3657,-92.9797,-67.3387,28.5723,-24.0812,111.3354,77.4289,141.9203,23.8367,41.4897,74.4692,-42.4385,105.8780,-45.9914,-62.9294,-48.6710,-20.2576,112.8434,-13.2819,-60.0523
-2765.6250,-25.2691,-88.0377,-24.1857,32.7296,55.1890,43.0024,-63.4274,36.6704,0.7578,47.2474,190.5662,-36.4655,148.9619,-40.1871,16.0657,-117.0195,-31.2139,-59.1630,-9.2128,-90.9996
-2757.8125,67.6311,-30.3007,-3.2334,-14.3084,3.2581,-9.5308,31.5273,57.2262,19.9932,-5.1946,101.4588,-15.6941,132.8563,-56.5894,73.8693,-96.5714,-32.0997,-142.3705,-21.3491,-33.1424
-2750.0000,-13.4744,-6.5593,-54.2834,-60.3434,-119.6795,12.9345,-19.5203,6.7863,10.8919,54.3702,124.3537,44.0819,82.7594,3.0078,60.6683,-0.1163,-67.3133,-47.5699,-101.5040,26.7178
-2742.1875,81.9757,18.7332,46.2224,-35.8327,-58.0657,-35.0512,-176.0431,-41.1022,-38.1452,43.4888,150.8056,33.4013,108.2178,-7.8523,87.0250,25.8889,-16.0702,-93.2146,-148.1158,16.1236
-2734.3750,93.1223,29.7286,20.4163,11.3755,-118.7686,-24.3360,-18.8512,-30.2760,-0.2696,54.3169,51.9473,44.4197,83.3750,-34.0183,24.0794,36.5999,5.3243,-47.1490,-101.0290,27.2345
-2726.5625,87.8124,-11.7330,89.1572,-29.8680,22.0825,-103.0720,-61.1158,-108.8948,-48.5846,11.6987,156.6580,38.9808,78.0865,-2.6423,-18.3128,30.8649,5.2098,-87.5293,-106.3996,21.8942
-2718.7500,121.0634,-48.6493,87.4552,-66.5606,57.4861,-105.2566,48.1768,-146.9637,-10.1790,-64.3787,81.9252,37.0869,76.3585,-41.7294,53.8510,-8.3252,-4.3828,-89.3565,-4.2249,20.1052
-2710.9375,69.3586,-65.5182,31.7971,-83.2005,-35.0712,-123.3914,139.5292,-128.9765,5.3453,-46.4092,100.2437,55.2441,20.6814,-23.7699,-1.9388,-27.4642,-34.1675,-36.1217,-21.0068,38.3658
-2703.1250,158.2132,-11.8396,126.7029,-65.2952,23.9342,-103.9755,-96.5854,-145.4404,-59.3670,-61.8881,121.1224,2.9451,42.5636,-39.2707,19.8188,-80.0629,16.0562,-88.3356,-38.2409,-13.8313
-2695.3125,98.0694,68.8401,99.6064,51.6090,-150.0678,-21.5557,-50.6868,-63.8864,-54.4348,-89.3583,-17.0087,48.6431,-22.5499,-30.7824,-8.4234,-34.6603,67.1099,-42.5372,-62.4737,31.9748
-2687.5000,67.6634,143.2607,105.2548,126.2590,-71.3183,-15.3881,-117.0468,-94.5745,-100.0606,-84.0643,26.6254,55.0853,-52.9077,-61.5499,-75.9138,-28.5048,104.1996,-37.9754,-126.9576,1.5314
-2679.6875,78.9093,155.3253,118.5555,138.5581,-20.9178,-39.5691,-104.7620,-81.6050,-41.6616,-34.1140,2.9170,68.1713,-39.6025,-121.6812,11.2513,-52.7043,105.3745,-96.7620,-46.7930,-22.2657
-2671.8750,51.5952,161.8406,12.2920,145.3091,-126.0868,-145.2993,-27.0139,-4.1746,3.7938,80.2923,43.6656,108.7120,-71.8430,-44.3617,-22.1369,-12.4479,57.5751,-88.0939,-73.1878,55.3864
-2664.0625,60.2354,135.3064,24.9833,84.0115,-41.2985,-317.0865,-197.3336,-28.7989,-25.7011,91.6505,129.3831,47.2032,-23.1255,-33.0989,27.4334,36.7606,30.1102,-9.4827,-30.6460,-6.0163
-2656.2500,38.1741,113.0778,0.9692,97.0133,-28.2211,-304.5717,35.6571,20.8890,42.2090,68.3120,-4.6061,-14.0076,-10.1068,-93.5455,3.3096,12.2765,47.1162,73.4300,53.1876,6.8850
-2648.4375,-67.4905,113.2497,-69.6486,61.4090,12.2430,-228.6525,38.0370,22.9834,67.9781,144.3829,-1.1804,-84.8222,-6.6847,-91.5915,6.5784,15.1984,4.5707,143.7538,17.4074,-63.8113
-2640.6250,-16.9524,58.6173,-14.0630,43.0008,104.9047,-137.5297,-16.3987,5.2877,83.0492,126.6626,-19.5403,-139.4415,11.9474,-146.4454,99.0505,-76.6822,22.7774,124.2839,32.8275,-118.3102
-2632.8125,-96.7203,47.6864,-98.7918,32.2947,19.2540,-75.7048,192.8829,104.3039,136.3363,151.6533,-67.1990,-187.3558,0.2759,-158.6010,50.2163,-51.8554,-2.1256,219.5222,-12.0574,-93.1058
-2625.0000,-118.6435,-9.3843,-83.6757,46.4490,108.4577,-61.0302,23.9945,45.1644,80.4353,129.4950,58.0028,-209.4134,52.4560,-143.9107,65.2350,-37.1771,-1.1540,233.6049,-34.0997,-115.0581
-2617.1875,-80.2212,-5.1011,-120.2182,49.9612,71.9969,-60.9971,172.4640,82.3851,116.9954,92.6963,-51.4534,-171.1175,16.9802,-142.8734,102.6034,-0.1467,1.4867,237.0400,-65.7910,-40.6589
-2609.3750,-211.2606,3.7290,-220.2190,59.0131,45.0796,-89.4089,144.4798,91.1703,122.3702,175.4654,-42.3479,-90.2753,-10.9473,-24.2849,74.5142,45.4365,-53.8738,246.0390,-91.9346,-31.7080
-2601.5625,-124.8463,19.9955,-130.7618,40.5012,134.6181,-146.3643,-23.0646,107.4176,88.2818,191.6920,11.2245,-109.9978,5.5858,-45.2595,90.8797,24.4774,-22.4082,192.4914,-75.6297,-15.3121
-2593.7500,-181.0344,-2.3505,-228.9110,19.3845,-0.4522,-97.9161,62.8166,193.0820,139.9262,277.3193,-13.8046,-61.3300,-56.4812,3.1616,66.6474,109.9352,-71.5214,241.3485,-61.9283,33.4876
-2585.9375,-186.0301,-42.5029,-157.8677,-20.5388,70.6794,-102.2727,-88.1161,115.9469,74.6911,237.1582,130.3834,-65.4616,14.6544,-0.2184,63.6240,105.5975,-78.3578,201.4086,-67.0317,-6.5178
-2578.1250,-106.9748,-33.6033,-112.7735,23.5823,42.8637,-56.5755,-4.9925,87.8672,73.0375,98.0517,29.6162,-19.5454,60.8475,8.4398,145.6528,41.3035,-43.1990,104.5228,-58.0850,2.5265
-2570.3125,-233.2360,14.9962,-210.9883,72.4030,-91.2632,-8.1726,6.8314,100.4985,71.1626,73.6595,41.5606,29.0663,35.7376,93.7956,157.3736,15.7167,-73.9779,83.3498,-78.4441,51.2679
-2562.5000,-176.1906,36.8890,-151.8957,59.5164,-33.0851,13.5333,-154.0631,48.4338,8.7249,21.5748,100.8257,50.9705,57.9373,41.4426,143.3991,0.4303,-50.9351,34.4755,-22.5042,73.3036
-2554.6875,-216.9511,30.9812,-232.6129,52.8323,-186.7232,42.4407,21.2613,114.5835,68.9233,87.6962,19.2944,43.0734,13.3410,33.2830,61.6277,66.3507,-77.9508,99.8019,41.6333,102.5358
-2546.8750,-225.4126,22.3743,-203.0344,45.4446,-83.0602,-1.3486,-94.1286,34.0413,24.4791,118.1289,87.0839,36.4687,-29.9536,26.4187,-18.8468,59.5718,-70.3678,126.4305,69.0662,59.0619
-2539.0625,-217.6774,30.9658,-156.2515,18.2546,-110.2030,8.0666,-49.3240,43.7083,47.2136,90.7666,-13.9281,46.0653,-20.0417,35.7469,27.8843,68.9946,-65.4960,99.2622,111.6998,31.7869
-2531.2500,-212.4066,0.1135,-189.9294,22.6238,-143.8094,11.0405,28.0366,46.9348,60.6762,93.9595,-46.3876,86.2136,-88.5850,112.6258,-5.8402,71.9774,-75.2708,104.6508,116.8732,72.0610
-2523.4375,-138.3311,4.0649,-73.8017,27.7956,45.3871,53.8167,-75.8226,15.9642,-7.7198,25.9545,69.9680,55.1644,-47.3288,118.3067,0.2342,3.7635,-25.2697,38.8320,14.8371,41.1310
-2515.6250,-179.3111,32.9668,-117.7376,20.9207,-35.4868,45.5534,63.2794,44.9582,24.9096,17.9096,-11.7229,84.0682,-54.1269,109.9361,-7.7421,-4.4891,-26.5585,172.9675,-26.2502,70.1551
-2507.8125,-138.2951,3.8599,-73.6814,-7.9602,8.6324,53.2950,-39.6325,15.9610,-32.6650,25.8808,70.6073,54.9654,-46.9237,117.5625,-72.7172,3.2681,-25.1238,144.1049,-89.3406,41.1774
-2500.0000,-7.4757,-40.4520,64.1789,-17.0471,-0.4512,80.8461,-48.7505,43.7769,-18.5810,-20.3431,61.7432,8.6524,18.0849,33.9785,28.1130,-43.1724,21.1061,30.0443,-98.6341,31.9943
-2492.1875,-21.3200,-19.4102,-26.6211,39.2186,-90.2020,99.7539,44.4884,62.9571,-13.4367,-1.2036,44.2319,27.6918,-35.5618,52.7469,-25.7081,12.7406,11.8265,15.3367,-183.5904,88.1605
-2484.3750,-25.8155,11.9873,-28.0679,0.8350,-55.6030,25.0129,-102.9450,-11.5120,-38.7682,35.2900,81.0869,64.0819,-36.8543,88.8622,9.8253,86.0052,-24.7225,-24.0312,-153.2079,13.6704
-2476.5625,-24.6146,12.0843,-64.8221,37.1534,-128.3186,23.9819,80.3271,24.7320,27.0594,34.4845,-66.3605,63.1619,-109.4457,87.6718,9.0603,84.9801,-18.4080,-57.6937,-81.1280,49.8785
-2468.7500,-79.5219,28.0690,-48.6766,52.3618,-111.1418,3.8569,23.4966,4.8850,-18.8324,14.5949,24.1045,80.1312,-129.1328,140.3790,-47.8077,64.8650,-22.8789,-111.4556,-101.1477,29.9804
-2460.9375,19.4243,20.8992,18.3230,80.4107,-82.1145,33.5882,-93.4902,-39.1031,-56.5864,-66.4325,17.4240,109.9517,-99.9652,96.9344,19.1832,57.6023,17.6482,-154.3775,-74.3160,22.9301
-2453.1250,-53.6942,88.6904,-94.7430,113.4116,-159.1564,66.2719,49.4822,30.8717,18.6195,3.5023,-132.3099,105.7352,-176.8590,92.4460,15.1214,127.3039,8.2863,-51.3484,-41.5402,55.8391
-2445.3125,-125.9702,50.3353,-96.9662,40.2607,-14.3554,100.8010,-62.7206,29.6943,2.6523,39.3039,-24.1815,67.3747,-104.9060,53.8067,13.9151,88.8626,-27.9414,-19.4760,-9.9164,17.5926
-2437.5000,-82.5395,58.6872,-89.4903,12.8149,-43.8707,71.0319,54.7809,73.2209,21.4869,8.8014,-53.3502,73.7192,-97.2537,22.8658,-16.5831,58.1233,-24.5021,-10.9112,33.4009,61.0509
-2429.6875,-113.3661,62.7895,-84.2719,-17.8860,-74.6437,40.0198,-12.9699,42.5025,-31.3294,15.0494,63.2464,116.8119,-91.8476,65.6858,-83.3338,101.1447,-46.9789,29.4113,-32.5449,30.2612
-2421.8750,51.5528,52.6341,54.6960,8.1571,27.3366,31.7678,-94.9855,-2.4618,-55.2518,-29.9567,91.6036,34.6444,-26.6805,-16.7488,-18.3261,18.9185,28.3833,-15.5131,-77.7360,-14.7812
-2414.0625,30.9087,31.9236,-4.8996,22.6465,-69.2467,45.9789,140.4715,49.0419,22.0355,-52.5033,-40.5920,48.9191,-49.0656,-2.7394,33.1308,33.1432,7.7522,-36.9859,-63.4735,-0.3739
-2406.2500,-9.9885,-9.0394,-10.7401,-54.1184,35.9172,2.9487,24.6578,-30.6945,-10.4591,-58.2871,27.9819,42.9393,-17.6996,-8.9788,64.3323,27.1258,-38.2608,-77.7118,-69.4656,-6.2252
-2398.4375,-1.0272,-71.1507,-1.7252,-80.0301,7.9206,11.7813,106.6927,15.4325,43.3805,-49.2161,-36.5866,14.8049,-8.4830,-37.3745,109.3821,72.9624,-45.4704,-68.5909,10.3806,2.7723
-2390.6250,-82.1256,-115.3097,-13.7702,-123.9916,-4.1440,36.5693,131.6726,40.5195,53.1883,12.8217,25.8063,39.6202,16.6847,61.1856,61.3725,97.7652,-80.7162,-43.5154,-0.8348,27.7190
-2382.8125,26.2827,-147.9724,64.6882,-122.4554,110.2941,40.8644,26.1293,8.1062,18.3613,-19.6380,67.7122,-30.0711,94.3547,-8.7583,65.8664,28.0739,-42.6593,-75.9456,37.4507,-4.8375
-2375.0000,-13.5687,-152.8831,-15.1173,-91.1693,-5.5362,71.9188,204.3536,76.4599,52.4933,-62.3392,-48.6407,-36.0170,52.7672,-14.9541,23.1121,22.1329,-47.5309,-9.6219,68.4932,26.3548
-2367.1875,-57.7265,-92.0917,-24.2252,-100.1872,59.3264,62.6827,48.2645,-6.4848,0.6567,2.6638,16.7204,-8.2634,43.8761,12.5564,-22.9444,49.8958,-57.9870,-18.5911,-11.7690,17.2381
-2359.3750,-46.3793,-45.7942,-10.8275,-53.7051,35.6861,38.9563,24.6697,7.0797,7.5531,-57.8328,-80.4123,78.9898,57.4850,-11.4422,64.5008,-10.8411,-41.3230,-77.0643,35.4683,-6.3839
-2351.5625,-70.9941,-0.4504,-39.3924,-8.1792,-65.9255,10.2793,70.1319,-21.2996,10.5326,-49.2706,-70.4843,124.2898,-7.8550,33.6169,35.9986,-2.5152,-38.3581,-100.4904,9.7565,39.0438
-2343.7500,-26.2099,10.2863,9.4421,-33.2630,-18.1350,-14.9944,-102.0181,-83.2805,-10.1913,-37.3033,14.8544,134.9830,4.2101,8.0765,84.9033,-27.7840,-32.0183,-91.5268,90.4496,13.8675
-2335.9375,-52.7800,53.6809,-93.0900,-24.6916,-120.7160,28.3891,51.4967,-2.5978,30.7232,-30.6812,-124.1740,142.3309,-26.0857,51.1944,54.4606,-21.3900,-52.0131,-47.9126,98.7904,57.3487
-2328.1250,-76.4580,29.9874,-44.7229,-48.2107,-71.4025,4.6762,-9.1198,-26.0205,1.4314,-17.1545,-38.2773,118.5799,-49.4884,64.2173,30.9167,-8.0868,-57.1205,-105.4051,40.0180,33.7300
-2320.3125,22.0713,-48.4970,21.8519,-90.5234,-78.9098,-2.8246,-53.5400,3.7554,1.6507,-61.4382,-45.1863,74.0269,17.3139,19.4345,97.5838,21.4186,-52.1909,-148.6963,102.4441,26.3118
-2312.5000,5.9900,-63.5751,-32.1841,-70.4364,-169.0366,17.0874,77.4411,23.9421,60.1848,32.6878,-60.6850,56.8767,-36.4897,39.0623,43.6315,41.3268,-65.2639,-128.5785,122.2617,46.2873
-2304.6875,0.7713,-69.8149,2.6435,-111.5174,-25.2973,-22.1407,-72.7570,-15.0135,24.8895,66.6739,10.6851,17.5646,-38.4367,36.5403,4.5296,2.0845,-70.3895,-99.6160,186.9364,-29.9007
-2296.8750,-12.2106,-47.8236,-49.2930,-89.3591,-40.3195,-0.1132,96.3348,44.3070,99.6517,88.9234,-149.7200,2.4902,-53.1432,-52.7316,26.6777,-49.8972,-59.1051,-42.3867,208.8793,-7.8372
-2289.0625,-110.1015,-109.7470,-37.1271,-116.1183,44.7671,-24.9832,71.5210,55.7316,74.2817,64.2831,-65.0148,-22.4957,-40.7586,-40.8987,1.9188,-74.7713,-79.6585,1.9411,181.9186,-69.6830
-2281.2500,42.2714,-133.4159,49.3034,-139.6257,95.1052,-12.5965,84.9635,32.4066,68.6336,3.8841,-51.0650,-83.2309,-27.1288,-64.8256,51.4149,-61.3950,-48.8103,-56.5011,193.2123,-93.2839
-2273.4375,-4.3101,-110.0154,-0.2289,-80.0774,8.4669,47.8432,218.4657,56.1313,68.4812,-45.4552,-64.0597,-22.9040,-40.4545,-41.6935,1.9498,-37.9576,-39.3851,2.0942,146.5530,-69.8286
-2265.6250,-51.1944,-85.9125,-11.0642,-91.8260,108.5352,0.9911,61.6289,-63.4426,29.6912,-19.0865,-36.3434,3.1252,-14.0758,-15.8500,-8.8129,-11.8188,-56.1196,25.3812,204.5994,-116.6847
-2257.8125,-150.5453,-114.2561,-77.3633,-85.0280,152.1297,81.7095,252.3694,16.5542,100.2630,-48.1638,-177.1012,-63.2926,29.8420,-82.4486,34.9732,-41.1166,-71.2327,32.2220,247.2059,-109.9900
-2250.0000,-174.8120,-139.5066,-103.5677,-74.1326,88.8249,92.5415,189.1920,27.6609,62.9546,-37.1286,-17.7513,-52.6141,3.8538,-71.9380,8.8516,-30.3000,-84.0961,79.1708,116.8940,-99.2012
-2242.1875,-13.7191,-83.4033,26.5920,-53.8829,108.8668,112.7448,25.3351,48.1268,7.3710,-53.7470,38.9555,-69.5935,-11.7829,-89.0799,29.0835,-10.1309,-9.5795,28.4696,30.9280,-79.0725
-2234.3750,-40.4702,-76.1427,-40.1121,-45.4788,-31.9644,119.1111,105.6445,128.7550,32.0146,26.7915,-27.1935,-26.4237,-42.2767,-46.0709,-37.5472,69.1939,-29.4315,71.9220,-30.8921,-35.7927
-2226.5625,-0.3750,-71.0308,2.0416,-111.2266,47.0718,87.3310,-36.2244,24.2282,-34.0991,-4.8152,162.5229,-58.4102,37.0858,-41.2087,-32.3268,38.3647,-49.4751,7.2107,-61.8651,-30.6791
-2218.7500,6.5655,-99.0608,9.0396,-104.1158,16.9425,94.4142,7.7804,67.5634,0.4569,2.4191,133.0556,-14.5432,80.2909,-71.4873,11.7463,45.3910,-52.7261,-20.6581,-18.9846,-23.7105
-2210.9375,-77.0152,-40.5843,-40.4775,-81.4980,-69.6998,82.0128,-4.7276,55.4009,-10.9505,63.1655,158.0912,46.8332,67.9791,-10.2465,-37.6874,68.9365,-74.5027,1.9789,-102.6100,-36.2424
-2203.1250,109.5094,3.9953,155.1067,-35.7801,15.7570,56.7278,-177.1555,-5.6546,-90.2430,-34.9830,207.2221,-15.6879,79.7626,-72.9050,10.9882,7.5901,32.5325,-94.2888,-197.1294,-61.6780
-2195.3125,148.1201,-27.3187,155.7601,-31.9587,-166.7145,58.5626,-66.4582,69.4114,-40.2214,2.9805,134.4355,-15.1075,44.6326,-35.4555,11.7563,82.3547,37.6659,-89.4436,-193.5546,12.9895
-2187.5000,135.0284,-75.3374,142.7266,-79.8413,-106.8789,81.7142,-188.5043,56.7766,-60.1479,64.2372,195.9704,-65.2366,31.8014,25.3029,-38.1787,142.4194,1.8411,-136.3034,-101.6928,-0.0507
-2179.6875,76.3061,-99.0001,82.0589,-68.3673,-57.7022,95.2198,-103.1869,106.4895,-7.9563,76.8240,25.8368,-52.0179,8.3257,1.4038,-24.7601,155.8292,-18.8013,-159.8232,15.5242,-23.7418
-2171.8750,-26.6187,-60.8455,10.1962,-30.0791,-19.7341,133.5219,45.9403,107.9809,-2.0488,42.2029,-9.4959,-13.9857,-64.3559,39.3131,-96.5493,120.0383,-20.7333,-121.5454,-17.4723,14.3587
-2164.0625,42.2808,-26.8765,85.1547,39.0166,92.0494,61.6172,-100.1566,0.2513,-40.0594,7.3702,65.9803,-49.1504,-25.2311,4.0243,-58.5301,12.0472,39.7636,-89.4919,16.3185,-57.7522
-2156.2500,110.0340,5.9509,80.9542,71.9643,14.6642,57.5681,79.6229,-3.6220,-20.0563,-70.6081,63.2964,-53.4693,7.7432,-37.4081,-62.6635,-66.0859,62.4800,-91.5998,13.9517,-25.0046
-2148.4375,66.1934,32.1745,74.1596,28.2976,43.6829,13.9278,-37.2334,-84.1014,-74.4186,-77.1793,204.0361,-60.3970,74.1157,-7.4386,-69.4004,-35.8157,28.8790,-64.3136,-30.0163,-68.8608
-2140.6250,125.5633,55.5982,134.5749,16.8319,30.8788,37.5080,-87.8946,-60.3677,-86.6101,-90.5589,153.9488,-74.1218,97.6831,-21.2629,-45.9368,-12.3424,55.4307,-111.8360,-41.7741,-45.5128
-2132.8125,81.2666,82.3823,122.3259,78.7270,-91.5992,63.4537,-63.2079,-35.2800,-90.4114,-65.5751,106.1944,-49.4869,49.5860,40.2796,-94.1357,49.4986,80.6190,-85.0072,-120.1877,16.1844
-2125.0000,149.6773,115.8784,194.7842,77.3272,-57.3640,25.1015,-247.8447,-109.4904,-130.1870,-102.8880,141.1439,-51.1556,48.1879,38.5295,-22.6335,11.0356,110.1265,-120.4946,-87.8946,14.5710
-2117.1875,139.0718,70.3742,107.2209,30.9313,-144.1526,10.7566,-77.4531,-85.6897,-46.2862,-79.1922,54.0830,-100.8184,70.7906,23.7845,36.8712,-3.4260,63.3312,-96.9775,-28.5853,73.9604
-2109.3750,61.2686,-8.3306,25.4633,-80.6684,-42.1295,-33.7923,-85.2792,-130.0970,-35.6975,22.3050,83.8392,-71.6906,63.1905,52.8452,-7.8368,62.9180,-21.6761,-34.6595,-36.4745,66.1451
-2101.5625,98.1346,-6.3876,101.3712,-78.6200,32.5459,-31.6817,-120.4516,-90.8567,-18.6720,61.4359,12.2252,-106.9280,28.2433,17.5518,-5.8901,64.9157,22.7538,-32.6922,0.2898,67.9771
-2093.7500,-33.9106,73.6629,-36.6377,-0.4708,-104.6975,51.5524,-38.5068,27.4948,23.5429,144.6679,-124.3150,-61.0629,-35.6260,100.3723,-68.8599,111.0191,2.4465,11.3916,9.1562,76.9126
-2085.9375,-40.5115,67.1654,-42.1873,29.1312,-73.4716,120.2548,-227.1461,23.2986,-27.4933,103.3534,-55.4059,-102.7425,-41.0453,95.6519,-38.3818,106.5692,4.7032,-30.0822,38.4731,35.2849
-2078.1250,-15.5678,21.2236,-53.1971,18.2863,-84.7076,109.5214,-19.2077,48.6653,15.4944,17.5840,-102.9635,-77.8711,21.0848,46.4863,23.6476,57.6692,-7.4468,-74.0061,27.3404,60.2056
-2070.3125,-73.7212,33.1849,-116.3083,-4.6656,-112.0430,82.6987,-81.3832,21.9264,2.2673,27.7145,-18.6140,-31.1013,68.1039,93.2303,70.5755,67.6738,-51.4934,-63.0324,-29.9057,107.0215
-2062.5000,7.1568,9.1515,-31.3994,6.3778,8.6212,56.8736,-144.5663,-38.8201,-16.2812,2.8315,-7.2790,-57.3352,116.1253,66.9744,81.5078,41.6850,-2.3404,-52.0778,14.8482,117.8389
-2054.6875,-80.8211,26.2730,-123.3555,-11.4264,-82.5886,76.2107,57.4195,15.5946,42.8029,58.1112,-98.8172,-38.4116,24.2792,85.8915,-9.4216,60.8601,-39.6883,35.0189,66.7523,99.8148
-2046.8750,-46.2581,61.9535,-83.7562,24.3225,-7.2441,43.1073,-86.0866,-54.4440,-28.6943,24.9511,-22.7966,-36.9408,27.9781,89.3676,-43.7999,-9.4155,-20.2983,-35.3455,32.2108,29.3351
-2039.0625,58.0485,95.3881,-12.4148,92.8232,-82.1702,41.7654,-51.8281,-18.7225,-15.6529,-13.4552,-96.0504,-1.7169,-10.5798,50.5967,-8.4251,-47.9361,42.4428,-71.9610,30.4296,27.6096
-2031.2500,95.3959,167.8740,-49.0301,95.3691,-120.0539,77.4786,-51.5271,-18.9513,-67.4964,-13.8026,-97.2543,33.5653,-84.0971,122.8919,-119.0153,24.6033,48.4538,-69.5268,-73.2940,99.9319
-2023.4375,130.9559,133.5605,25.5671,61.1060,-44.7220,43.4077,-160.0339,-52.9774,-85.1179,-11.9537,-57.2745,-0.9561,-45.4204,88.3911,-79.4057,27.3365,64.8965,-33.8971,-71.8069,65.4477
-2015.6250,43.0035,45.7522,-65.3614,8.3457,-99.9088,24.8454,3.9949,1.5112,-12.3913,6.3995,-149.8264,17.0193,-63.2531,69.3988,-61.2957,45.5714,-1.7266,-15.7565,15.1803,83.4651
-2007.8125,-28.0963,80.8031,-29.4224,43.4426,9.7795,26.1306,-68.1562,-34.1737,-43.4148,-29.4116,-74.5129,-19.1576,-27.2368,33.2657,-61.3386,-27.3412,23.2760,-16.7732,14.0032,47.3234
-2000.0000,21.2723,129.3138,22.9806,92.0045,-12.0878,41.8711,-53.8481,-18.4128,-50.2902,-86.7907,-132.7729,33.1250,-11.7675,11.5882,-46.9344,-84.8090,71.4631,-3.3463,28.2805,25.6344
-1992.1875,19.4301,127.6234,21.1792,125.3669,-87.1677,40.4212,18.2502,-19.8559,-46.6079,-15.3606,-134.2366,31.2179,-50.5180,9.7323,-157.7442,-50.4700,86.5047,30.8894,-44.6447,23.7409
-1984.3750,129.8060,62.1385,102.5881,59.9252,30.9702,12.1874,-121.4778,-85.1001,-88.1960,-6.7339,-90.5127,39.5046,-42.0696,54.0778,-150.3536,-41.9329,84.3096,0.3141,-39.3700,-41.9579
-1976.5625,151.7685,85.2610,87.5698,83.0852,-22.3153,33.5748,47.4236,-26.7252,-50.6866,-59.5096,-178.2234,60.3904,-94.0327,76.0376,-128.3611,-57.7850,100.3377,-12.6550,-52.4932,15.9550
-1968.7500,104.7175,73.3795,76.5518,71.2428,41.4115,-50.0353,-73.6991,-73.3614,-71.9624,-32.2790,-78.9334,86.2681,-67.9911,102.0046,-103.3618,-30.6373,68.3248,-23.6255,-28.6218,-31.1352
-1960.9375,142.8309,40.6422,117.6977,73.5463,81.2833,-82.4834,-69.6665,-68.8416,-64.5535,-101.9057,-74.5142,17.2971,10.1957,32.1230,-25.2082,-63.3420,89.4787,13.5473,8.4107,-64.0763
-1953.1250,69.8422,73.8191,78.7478,71.7512,6.0482,-47.0259,75.2768,-70.4180,-29.2430,-103.6266,-113.2143,15.2371,-28.7364,30.1637,-27.1753,-28.1397,75.1767,46.6151,-28.6693,-66.1167
-1945.3125,130.3205,28.4532,144.2608,26.4040,107.2727,-55.1124,-80.3646,-115.5559,-91.7039,-111.9067,-10.4635,5.6272,35.7789,21.6581,-35.6971,-0.4836,75.7334,36.1173,-74.2896,-111.7132
-1937.5000,186.9981,15.2881,238.9599,13.2631,54.6766,-69.9888,51.2257,-56.4817,-72.9981,-163.9957,-25.5544,-8.7900,57.4842,6.3603,-51.0192,-14.6274,111.4720,22.8198,-52.6915,-90.1039
-1929.6875,163.9208,-7.6311,217.9105,-9.6299,70.3412,-90.6133,-6.9488,-77.1689,-76.9459,-110.8283,100.6050,-30.9647,36.4370,-14.6798,-72.0918,-36.5176,80.2086,35.7719,-40.8404,-148.2542
-1921.8750,277.6595,1.2522,300.6769,34.2813,115.8036,-81.4296,-34.3160,-104.0537,-81.5238,-137.8753,73.5481,-58.3404,83.1862,-78.9215,-26.3585,-136.6095,136.2673,-27.4846,-68.1797,-175.6075
-1914.0625,172.8917,72.6481,152.9349,105.7034,4.7473,-7.7429,75.8309,-31.4448,-32.9600,-64.4378,-37.0144,-22.2026,8.4307,-42.6501,-63.1397,-100.2081,119.3312,44.7647,-102.0213,-139.4570
-1906.2500,104.5401,39.4606,118.6164,142.5326,80.1237,31.3393,-106.6580,-29.4650,-59.4379,-26.6305,0.8338,-20.6583,10.0827,-3.9730,-25.5232,-61.4245,116.3696,81.4050,-135.4689,-137.9136
-1898.4375,34.5989,3.6873,7.6953,177.7778,42.8909,105.8293,3.2840,44.9096,-2.2071,-26.4337,-108.9649,16.2932,-26.8724,-40.8895,11.4877,-61.2427,97.0804,186.4449,-100.5137,-137.9648
-1890.6250,-75.2500,36.0212,-69.1270,174.1287,1.7624,102.4205,-0.6920,41.3759,-9.2150,6.8692,-75.6705,49.3454,-66.7373,29.3057,-29.4095,8.0537,51.0105,182.5817,-104.4699,-141.9247
-1882.8125,-17.8286,58.5990,-45.6792,197.7296,99.8978,90.2723,-50.4263,66.0896,5.5294,-5.5934,-88.1350,-0.3653,-43.3482,-57.2513,31.9489,-41.4029,72.7685,99.9633,-12.1748,-154.6413
-1875.0000,-99.7584,81.8286,-134.5844,219.9813,-26.3373,111.7884,118.5122,124.4622,53.9206,-20.4058,-140.9660,-15.4272,-95.3205,-35.1489,15.9396,-56.2045,60.2740,193.0019,10.7647,-96.6990
-1867.1875,-81.1245,65.6068,-76.9339,168.7876,66.9970,95.8622,-82.0372,71.3754,-34.6161,-36.6630,-46.2508,4.0649,-37.7491,-15.4818,-36.5244,-109.4614,61.8238,211.5829,-40.7469,-113.2158
-1859.3750,7.8074,84.6897,-19.9832,187.9014,50.6264,117.2457,11.7321,92.6049,-20.3089,-52.6088,-99.2875,-12.1369,-17.8974,-67.5134,-52.6868,-125.4177,102.5778,195.4559,-56.9458,-129.4277
-1851.5625,-42.3219,69.7186,-0.0956,172.9637,70.2031,100.5798,-5.5503,75.7838,-23.6100,40.4019,-79.3851,7.6049,-71.1088,-11.5796,-143.8989,-68.4170,96.8249,180.2769,-72.1943,-109.6898
-1843.7500,20.1645,62.3439,29.4110,130.6141,136.3902,56.5034,-123.2374,31.5513,-40.8811,33.0007,-49.8892,-0.0632,-41.7095,-55.0492,-77.4905,-38.8202,88.7987,137.6931,-44.8342,-117.3512
-1835.9375,-50.9557,60.3728,-48.6988,93.6670,20.9563,51.8313,55.5016,100.7263,24.1619,29.0024,-164.0114,-4.3299,-83.9151,-60.1110,-82.6887,-6.8123,47.1061,136.5195,58.9197,-48.6044
-1828.1250,-107.2218,5.2621,-31.9476,3.5755,110.3902,-40.9866,-0.9409,7.7434,36.6530,81.8575,-75.2780,-61.7455,-104.2791,-43.3150,-66.0437,-26.9586,-7.8633,45.1907,144.5129,-69.0147
-1820.3125,-31.3312,-24.6900,-29.0450,-26.3582,75.9755,-37.6447,111.7797,10.9086,50.3818,-25.1510,-181.4413,-59.0078,-64.4958,-77.3593,-26.2532,-23.9570,-8.8030,15.0093,219.2671,-29.2721
-1812.5000,-29.5449,48.2592,-30.2524,-24.3914,38.4625,-74.4046,147.4101,-27.0317,34.6661,-26.2499,-145.7203,-23.3627,-100.8187,-4.4900,-63.5708,-25.0535,-0.3905,16.7295,150.9139,43.3737
-1804.6875,60.2115,32.1545,27.5137,-40.4864,131.9196,-126.2216,-53.0314,-115.0364,-44.2442,-78.4130,-16.0431,-2.7729,-45.1798,-20.6737,-43.9243,-41.2112,11.8986,0.3928,134.5207,26.9677
-1796.8750,57.5730,-6.3471,22.8753,-7.9790,90.9575,-130.4429,127.1584,-82.4450,18.0768,-81.9838,-92.7756,-7.5816,-48.9491,-97.2499,-47.6877,-117.7578,36.6454,68.6602,166.7298,59.1745
-1789.0625,-12.9062,-41.6919,26.4030,-43.3113,167.1506,-163.5103,92.4570,-116.7261,19.6138,-43.4074,-17.3472,-41.2342,-46.5754,-95.6565,-45.3098,-115.1500,5.4843,68.0712,167.0764,-11.4701
-1781.2500,119.8745,-12.7865,129.1818,-50.3789,196.5920,-134.3115,85.0043,-87.7557,-10.7306,-87.5909,-24.7036,-48.6338,20.0500,-138.8045,-52.6860,-122.2950,46.4572,-45.2657,123.6800,-18.8617
-1773.4375,55.4439,-7.0877,61.7513,-8.6421,90.8295,-92.2917,127.3630,-81.9711,-1.3168,-44.9634,-19.2743,-43.2408,-11.5334,-60.1427,-84.2727,-43.6416,35.3030,31.2042,59.0732,-13.4527
-1765.6250,87.1779,-45.2420,170.4891,-82.7621,163.2407,-130.1123,-21.1548,-156.0370,-37.8757,-83.1896,89.3107,-81.7010,24.0409,-98.3283,-11.7112,-44.8431,40.2574,27.8165,55.6101,-51.9041
-1757.8125,93.6675,-74.6400,174.9772,-76.1296,93.3849,-124.1799,167.1031,-78.3447,23.9105,-150.6718,-16.3781,-113.3974,28.3548,-129.7566,66.5960,-77.2869,53.3884,34.1769,61.8929,-10.5988
-1750.0000,-5.4416,-103.6326,108.8656,-105.0953,100.9430,-116.8640,137.7440,-107.2634,-1.8783,-143.7638,28.3406,-106.6879,72.0662,-48.7699,37.3026,-69.3344,-6.3596,4.9278,32.5747,-39.8947
-1742.1875,59.1059,-37.9685,140.4020,-39.4114,132.1593,-84.9056,132.0508,-75.5416,14.3844,-149.2176,-51.3163,-75.3249,66.4307,-91.1323,104.6680,-147.7457,39.6382,-71.6832,-8.0669,-45.5438
-1734.3750,42.0409,15.1055,46.3122,-22.3172,-36.2325,-104.5518,221.7843,-22.4260,64.1128,-60.2605,-71.6071,-59.5552,46.1821,-75.0908,84.4303,-130.7483,15.5386,-18.8912,-26.3046,7.2109
-1726.5625,101.1274,4.3346,108.3807,-68.0635,63.5488,-151.0492,26.6445,-70.1823,44.9068,2.8340,27.2447,-106.6407,35.0780,-85.8996,109.3468,-141.6080,17.3798,-64.9466,33.6147,-3.8884
-1718.7500,68.7197,-28.9344,35.9495,-99.3149,-83.1821,-113.0487,101.0388,-32.4382,78.8089,3.4115,-45.4263,-33.2204,35.4718,-48.2057,146.7713,-31.9755,-37.2103,-96.4992,71.0452,33.5272
-1710.9375,-23.5284,-15.0558,-61.3228,-86.4325,-144.7510,-100.9114,1.5681,-19.5581,51.9228,52.1422,-32.9305,52.3522,-25.9854,74.6533,122.3350,16.8078,-83.2921,-118.8947,13.6187,82.0968
-1703.1250,53.7482,27.3280,17.9217,-43.0516,-137.8034,-93.2758,-137.4174,-48.1804,23.5613,59.3648,-25.9483,96.4237,-18.9433,45.0078,166.3963,24.0883,-43.1521,-252.7904,-14.3074,89.1669
-1695.3125,11.3140,20.0186,-66.5426,-17.3556,-260.5685,-68.3326,-2.0884,13.4969,36.9398,11.8851,-75.6853,83.8036,6.3924,106.6714,153.7376,85.6718,-54.3426,-155.3768,-57.9459,150.5435
-1687.5000,39.9390,14.7635,2.0675,-57.6004,-119.2592,-73.3420,-118.7431,-65.7938,-33.5965,-30.5488,29.6260,42.2324,0.7777,138.3918,111.1266,80.2982,-33.8812,-125.9212,-98.5418,144.9629
-1679.6875,29.4818,3.4105,-49.4128,-102.9420,-133.0554,-86.4496,-59.4727,-6.1864,7.6917,28.9062,-22.1863,101.5650,23.0636,124.0121,97.4218,103.8223,-63.1335,-66.5719,-39.2436,204.2880
-1671.8750,-81.6303,32.3975,-130.5418,-109.9385,-141.4963,-57.2063,-30.8621,22.7647,21.5421,94.7191,6.3548,130.2429,14.6957,152.9970,53.0574,168.7089,-105.8893,-72.8646,-45.6017,232.9680
-1664.0625,-88.4361,-44.3326,-98.3614,-115.6472,-73.6152,-62.6536,-145.9680,18.0143,15.6274,124.8372,38.1925,88.2165,46.6366,148.2813,84.0001,163.8972,-107.3294,-79.8559,-17.6470,190.9461
-1656.2500,-139.5903,-94.4126,-189.5344,-95.7080,-127.0787,31.5455,20.5933,110.9113,75.5376,144.6097,-89.3355,71.8424,-7.7762,168.2215,67.5834,183.7322,-128.6735,-60.1932,1.9587,210.5751
-1648.4375,-137.5426,-128.2995,-184.5022,-164.5744,-86.3204,35.9456,-85.6543,114.9990,51.9206,186.5795,25.3374,38.6600,33.0119,173.3605,70.3699,188.7534,-168.4471,-59.3331,-32.2267,141.3983
-1640.6250,-58.2445,-118.9488,-138.2172,-191.1904,-77.3121,45.5977,-39.6320,124.3365,66.1809,121.7907,34.2360,11.7208,78.0489,108.7498,116.4073,124.0238,-152.5941,-85.2163,46.8412,150.4788
-1632.8125,-165.0493,-85.7100,-214.0363,-156.9095,-116.3985,44.1487,31.2881,122.5671,95.9520,193.8985,32.0312,45.6798,39.9822,144.0477,77.3469,85.1983,-178.7789,-87.1955,10.8096,148.4601
-1625.0000,-117.4452,-108.0751,-124.4472,-109.2385,-27.0711,23.0913,-173.3894,65.1916,11.1524,136.3999,46.2160,61.0337,92.3162,123.7433,56.6933,101.7698,-134.6564,-144.7702,22.1828,90.8428
-1617.1875,-167.1959,-52.7967,-177.2105,-53.9222,-117.0943,80.6804,-6.3977,122.4651,50.5569,119.5502,-116.9619,118.0338,2.2987,144.0914,3.6860,121.9896,-117.2256,-89.6851,77.2084,110.8783
-1609.3750,-181.8881,-67.4726,-188.9119,-102.5622,-19.0418,33.3109,-91.3649,74.7749,34.4446,181.7447,-55.0878,107.0792,-9.6674,132.4871,-45.2679,74.2490,-141.4579,0.4509,98.2853,25.9618
-1601.5625,-31.8732,-92.4507,-30.9149,-127.4988,102.7151,8.6385,-6.6117,12.7809,20.1624,46.6320,-44.5285,44.8256,39.0663,-2.4218,-33.5203,-24.7961,-67.6402,11.2939,143.0731,0.7493
-1593.7500,-95.7172,-51.2787,-61.7744,-52.2870,108.6294,-21.8919,146.2878,-18.0716,33.3312,15.6726,-38.8231,50.7299,7.9449,3.8292,-100.6259,-55.6851,-41.4811,87.2930,149.0096,6.6899
-1585.9375,-38.5001,-29.0588,0.4228,-30.0290,207.6107,-33.3787,24.2317,-103.8847,-18.2796,-33.2391,59.9264,1.6857,68.8745,-7.8700,-76.6787,-67.5315,-4.8208,108.3424,136.0003,-42.3186
-1578.1250,-59.8374,-50.3919,-21.9354,-15.3181,148.0352,18.5849,185.6467,-15.2434,3.2296,-92.6959,-36.8915,53.0887,83.2468,-30.1203,-99.2872,-89.9283,5.0717,193.8530,114.4521,-27.8726
-1570.3125,-98.0661,-17.6299,-60.1816,-18.5099,146.5748,53.6393,110.1540,-16.5110,-36.0213,-94.0454,71.3910,50.5832,44.7143,5.7265,-100.7988,-91.2310,-23.3016,155.4653,6.0056,-66.3279
-1562.5000,13.4530,57.8738,19.3190,22.0460,151.8643,96.4424,5.4197,-11.0256,-92.4859,-234.6411,40.4095,55.8275,49.9315,-25.6753,-21.5551,-122.7815,38.6253,89.8266,-23.6884,-61.0299
-1554.6875,-46.8847,103.5217,-83.0387,67.7485,-23.6934,105.3889,86.8427,71.6039,-33.9279,-152.0841,-25.4255,101.2280,-14.7025,-16.9197,-13.1575,-113.1810,15.3771,100.3359,-49.2381,-15.5722
-1546.8750,-16.2643,63.1139,-14.4389,62.3940,117.7177,64.2714,-65.7880,29.1704,-26.0571,-48.5814,79.6907,22.5773,-57.3797,-59.2179,18.1987,-154.6327,41.3259,94.7901,-54.8319,-21.1620
-1539.0625,-10.7986,-1.4473,-8.9987,67.8884,85.9766,69.9959,50.4607,71.5840,63.3719,67.7772,-26.3585,-9.2262,-125.2127,-90.6678,23.4001,-77.2346,54.9665,171.1029,-13.5640,-15.8931
-1531.2500,-83.6809,-39.3634,-84.9033,31.0270,83.9019,68.3616,48.3535,105.6365,72.5772,138.7909,8.2458,-11.3832,-127.3984,-55.4664,-15.7498,-42.1911,-6.7706,133.0656,-15.6464,-17.9741
-1523.4375,-24.9045,-50.6381,-21.1571,18.8131,147.4783,57.3719,-36.0980,58.3353,22.7035,54.4445,34.4961,15.1138,-64.9328,-28.6180,10.7607,-89.5062,0.3184,50.6785,6.9282,-65.4012
-1515.6250,-50.2839,-5.0642,-49.5677,29.4544,45.8981,30.2267,119.3101,67.8808,15.7507,-10.0540,-68.4111,23.4650,-56.6196,17.0853,-54.8801,-6.9719,1.3680,61.1491,-17.6509,-19.9741
-1507.8125,-0.8089,-62.6459,75.8800,7.9462,134.1846,8.9296,-12.4491,-64.7310,-54.6728,-68.7043,57.5284,-35.3377,-41.4546,-4.3608,-76.6680,8.4118,41.3972,74.4697,-39.3767,-41.7008
-1500.0000,4.2137,-92.6795,42.8744,-23.0112,64.0221,49.1802,64.3671,-24.7847,-30.1144,-137.7988,-50.9968,-69.5906,-38.7458,-1.2607,-36.9109,11.3485,30.1590,114.3408,35.4511,-1.8695
-1492.1875,-39.1750,-65.1163,-3.5394,4.6236,-19.5322,40.0198,91.7731,-34.2466,-16.0301,-110.2803,-23.9021,-42.2443,-48.4358,26.4428,-46.5516,-35.1126,16.3819,106.8113,27.8817,25.5612
-1484.3750,-35.1572,8.8389,3.4490,43.6533,97.3202,-63.7452,24.5834,-137.3062,-24.8423,-141.3579,19.5957,38.4998,-41.7217,-40.4597,34.2128,-102.1804,19.5007,39.6804,65.7141,-41.6022
-1476.5625,-50.8000,64.1413,-13.2243,99.0331,7.5198,-43.1672,191.7575,-81.0156,13.4277,-121.0797,-107.5667,58.6012,-95.6634,-57.0088,-19.6738,-117.8991,49.0706,59.9037,15.8965,-21.4079
-1468.7500,19.0586,62.9343,97.6037,97.9065,44.2371,-42.1026,8.4200,-117.2388,-72.6181,-84.3016,75.7703,22.2071,-58.1014,17.9467,-93.0443,-7.1212,75.2770,-11.3824,-91.4163,-57.7160
-1460.9375,120.6683,59.4751,127.1746,59.5306,-36.2977,-12.2906,-36.1451,-50.7071,-77.6653,-126.7706,68.8411,51.5708,-28.7901,47.6520,10.3391,96.4104,70.9046,-85.9209,-128.9820,8.7343
-1453.1250,69.8214,78.5668,34.2923,7.7049,-128.2767,-30.9310,-19.1682,-68.6277,-42.5092,-36.6860,48.4694,105.4848,-83.9291,101.9111,27.2690,150.4922,6.6427,-101.8965,-146.0003,62.7357
-1445.3125,70.3888,114.0471,36.8248,8.2710,-16.8396,-101.1795,-125.7928,-103.1560,-73.9327,-71.2105,87.4964,143.7898,27.3420,67.5647,103.6018,78.9689,-5.7004,-171.4682,-180.6113,28.1406
-1437.5000,73.8030,152.3674,38.2037,82.6840,-124.5507,-99.5845,21.4520,-101.8363,-49.3338,-142.8809,-21.6335,145.9491,28.4593,69.0681,104.7816,80.2920,33.8055,-168.1808,-142.3708,66.4006
-1429.6875,38.9759,117.4321,3.3417,47.8407,-122.4895,-97.2568,-86.5637,-136.7754,-62.4091,-67.7999,89.9924,110.8520,30.3241,108.3182,106.7173,119.3628,-14.4526,-203.1446,-177.3779,31.4129
-1421.8750,90.3940,98.7354,19.7165,28.2429,-106.1781,-80.6872,-106.3035,-47.4639,-29.4205,-15.4659,31.8528,53.0039,46.4380,50.8125,122.9102,98.6904,-1.2114,-186.8468,-126.1274,47.6826
-1414.0625,-4.3023,74.9249,-78.0197,39.5344,-205.9646,2.7721,-23.1390,36.7462,20.3947,69.7805,5.6155,64.0491,-16.5471,99.2105,60.0008,109.9187,-30.0661,-69.6361,-78.9677,58.8539
-1406.2500,16.6055,94.7008,-19.1475,25.4116,-36.1295,-10.1749,-145.3699,-13.4487,-26.3345,19.6282,28.9847,50.6915,7.0771,12.2006,46.6971,22.7366,2.4609,-15.8274,-25.2025,8.6232
-1398.4375,-17.6429,95.3104,-53.4355,61.1332,-70.4452,-44.2771,76.2742,-10.7936,41.8435,-14.6715,-115.7996,89.1861,9.5540,-21.9584,85.2465,-11.5970,3.4309,20.8383,11.4158,-25.7545
-1390.6250,-54.0395,93.7618,-89.8639,94.6995,4.1042,-43.5383,3.7589,-47.2994,-3.0731,22.8703,-5.7216,89.5257,9.8877,15.7297,12.6533,25.9144,-8.0462,19.3500,-60.1161,-62.2788
-1382.8125,27.3161,34.9553,-2.5481,36.0112,90.4036,-30.0579,-19.9958,-34.0578,7.8936,-0.8418,-29.9034,-7.3815,58.9712,-44.8344,61.8180,38.1793,5.1849,-39.3841,21.1101,-86.0454
-1375.0000,-0.7920,-28.3060,-34.6925,42.8674,-14.7477,-25.0407,131.8054,7.7268,53.9980,41.0071,-62.5378,-76.7364,27.6041,-39.8440,-6.4717,7.0006,0.5945,2.4428,27.8936,-44.2550
-1367.1875,-3.9982,-31.6754,1.0691,4.6151,57.0204,10.8643,-16.4979,6.4017,25.6734,75.7564,9.7344,-78.1956,62.1452,-40.9636,28.1509,-31.2861,-5.8148,-0.8300,-45.4116,-82.5644
-1359.3750,-30.2557,11.9015,-66.2286,48.3085,-46.2612,90.7114,63.1755,123.0288,78.4298,119.4566,-131.0519,-34.7049,-4.3591,-34.1393,35.7283,-24.6264,1.7016,42.8485,-36.7653,-38.9118
-1351.5625,-119.7179,98.2676,-122.7271,29.7981,-103.7301,107.3475,-30.3624,139.4515,49.6529,172.9663,-42.0260,18.5788,-62.0578,19.4799,-21.8925,-8.1657,-32.7679,59.3358,-56.3212,-22.4580
-1343.7500,-27.5345,84.2734,12.4201,50.9343,-41.5437,95.6307,-116.2412,90.5243,23.3071,87.1283,-17.3565,6.5101,-37.1002,-66.2516,39.1431,-57.0533,26.7880,10.4788,0.7754,-71.3524
-1335.9375,20.3893,-7.9824,-11.6924,28.8119,-65.6037,35.6555,117.6487,103.3455,62.4947,63.0489,-41.9294,-54.8049,12.6159,-127.2356,-21.0742,-81.1909,15.5177,58.3761,13.6194,-58.4927
-1328.1250,121.4135,-83.1511,132.3037,-81.2239,115.4622,-78.2327,3.6333,-46.7431,10.4126,23.0694,101.6125,-132.0325,82.4476,-130.1344,11.8204,-47.2368,18.1944,18.3727,8.5708,-98.5375
-1320.3125,168.5315,-72.2277,142.3934,-70.1646,88.6269,-105.0295,87.7479,0.2784,33.5293,-2.8094,74.2429,-122.1642,92.3798,-155.9397,22.8159,-37.1788,28.4123,-39.5229,55.6307,-51.4745
-1312.5000,76.7351,-23.2132,44.5684,14.9962,-9.1020,-55.7277,63.9536,-24.5981,7.1403,9.4238,86.9811,-36.1963,31.4123,-70.6443,-39.0842,-25.0173,24.7382,9.6922,-0.2129,-2.3121
-1304.6875,97.5403,33.3903,67.3454,70.7525,13.7763,-32.8299,-98.2369,-75.8714,-55.6314,-78.7417,108.3206,-13.6317,54.0543,-84.7584,20.6251,-76.2666,64.0876,30.5082,-50.4472,-16.5450
-1296.8750,16.1862,57.8328,-21.0373,95.3507,-73.4959,-46.0902,72.4381,-16.2953,32.0244,-19.0441,-52.4882,8.7838,2.5480,-61.0245,80.1785,-52.6649,45.4132,55.1824,-94.8259,43.0768
-1289.0625,-18.8677,57.5629,-21.1154,95.2356,-37.4504,-46.0671,-110.5956,-16.4246,9.2402,91.9654,57.0116,8.4914,2.3464,-24.9936,80.0368,-16.7593,30.6262,19.1596,-165.8971,42.9943
-1281.2500,44.2251,84.4349,-30.0504,123.2688,-120.2529,17.1008,-121.4533,83.6063,38.9854,155.1328,-26.3453,-1.6510,-7.7041,-33.8196,69.0424,46.2963,50.5564,-21.7060,-102.8137,106.0655
-1273.4375,-75.2868,34.7012,-118.5899,72.7029,-244.6507,75.6627,-98.9132,143.0310,55.5867,250.6957,-5.2827,19.6057,-58.3506,60.7544,-18.5519,142.7472,-21.1722,32.8341,-82.3343,91.5355
-1265.6250,-37.4390,-32.6884,-75.7687,5.4835,-127.6907,82.5642,-240.0254,148.7953,36.6510,257.5960,37.1298,26.2071,-53.6398,30.6699,24.2190,75.5428,-45.3936,-34.2813,-44.4981,24.3576
-1257.8125,-45.4561,-40.9435,-121.8130,-2.5950,-174.5907,72.6068,-29.9656,212.7124,113.8307,284.6544,-119.3103,15.9587,-98.7778,20.7401,14.1487,65.5040,-62.2740,-76.2433,17.4893,51.3371
-1250.0000,-146.8252,-37.5547,-118.2090,0.9653,-133.8295,39.2887,-98.2705,143.2768,90.5281,288.3728,-43.0891,-17.6376,-59.2625,24.4628,17.7314,106.1208,-66.7455,-38.5612,-13.8704,54.9719
-1242.1875,-90.0970,-16.0688,-59.5151,22.6291,-74.9732,24.0632,-113.4632,90.9455,48.4321,163.1893,-57.7724,-32.1245,-37.6406,9.2837,39.4127,127.8352,-22.8574,-50.7743,7.8759,76.7114
-1234.3750,-189.3774,-10.5881,-164.8258,28.2864,-106.1090,29.8282,1.3536,59.6051,33.9118,132.0013,-52.4470,9.3955,-32.0143,52.1042,-63.9096,133.5487,-62.1851,24.0149,13.6223,82.4534
-1226.5625,-49.9573,-11.4142,-17.4316,-7.3683,78.4728,-5.7218,-70.1295,-13.0384,-35.4828,22.5150,57.5892,10.6130,-31.6775,16.6149,-99.5254,23.9634,-5.0500,23.5010,49.0745,46.8959
-1218.7500,-65.8480,-28.5508,-35.3521,45.6654,22.7447,86.4167,58.1065,42.0225,11.3894,3.7454,-34.6754,28.5355,-49.6384,-2.1691,-81.4314,5.0828,20.8124,77.6913,67.2288,65.0464
-1210.9375,-100.6444,-97.5929,-34.1741,-24.2041,25.1311,51.6416,-50.5681,7.1777,-16.0064,43.0782,77.1759,30.5606,-11.4915,37.1458,-80.2299,44.2970,-29.7917,77.9796,32.4790,30.2985
-1203.1250,21.0561,-82.1450,58.4971,-77.5774,81.0190,-40.6403,-31.7231,-84.1660,-15.5433,-12.0953,95.5267,12.0835,44.1659,-18.0450,11.4778,-10.9951,-21.8187,-46.2277,14.2317,12.0550
-1195.3125,25.2442,-42.2051,24.6634,-37.4565,-62.5936,-72.4311,82.6311,-80.0144,-2.0047,-8.7695,135.3866,15.1060,10.3278,-14.7361,-22.3102,29.2201,-15.0787,-5.9363,-51.5113,52.3175
-1187.5000,102.3922,-71.3229,142.7905,-31.3986,18.7550,-29.2878,-129.0779,-72.9206,-64.1997,-0.4901,216.2061,-86.9213,18.4447,-6.4845,-51.1359,0.3849,42.8390,0.3003,-80.2961,23.5286
-1179.6875,54.3343,-154.6451,56.7119,-44.5393,-31.1059,-5.3497,4.0335,23.9760,1.7453,23.5916,55.8148,-64.1454,5.3541,-19.4337,-27.1620,61.3487,-1.0196,23.3463,-23.2773,10.5490
-1171.8750,-13.5764,-151.8189,23.7806,-77.5258,47.1965,-38.2712,8.2838,-8.9866,11.8877,100.8214,59.5817,-23.2168,-27.5866,-15.2340,-60.0390,65.4568,-35.8581,25.5433,-56.1091,-22.2798
-1164.0625,60.9104,-78.6008,140.2433,-73.1112,126.9007,-68.7977,-59.0569,-39.5498,-5.6745,34.4496,64.7497,20.1114,15.8809,-82.6388,20.4915,-39.0398,17.4891,-4.8583,-50.5337,-52.7072
-1156.2500,28.6932,-41.0883,103.0024,-35.4008,52.9052,-33.0345,50.9134,-3.8190,-13.0849,-3.6176,27.2251,18.7416,14.6511,-46.7493,-54.6798,-3.2389,37.1039,68.0474,-83.6526,20.1652
-1148.4375,20.7323,-48.3287,135.0150,-42.4489,122.1744,-37.0320,-100.8750,-44.8406,-71.4001,-44.4348,169.9649,14.6194,46.6774,-50.6199,-58.5957,-44.1948,31.3826,60.2021,-55.5239,-57.7170
-1140.6250,49.1696,-90.1720,130.4224,-14.1020,117.8302,-41.6332,78.7539,-49.4538,-18.7908,-122.8492,91.0949,-64.1018,79.1013,-129.0937,-26.1072,-85.7505,43.2113,53.7626,79.0094,-99.1931
-1132.8125,3.4890,-101.1269,119.7155,10.1385,144.3870,-52.3469,178.2796,-97.1675,-22.1275,-133.3544,117.1373,-74.9233,68.4293,-139.6678,-110.7076,-133.3995,48.8801,79.2201,68.4531,-109.7721
-1125.0000,58.2581,-117.6400,176.4589,-40.1781,237.3971,-32.6201,14.2702,-114.4329,-69.5445,-186.4095,136.6292,-129.2997,88.2140,-119.8049,-53.8485,-76.6009,55.9293,28.1201,88.3637,-89.8973
-1117.1875,-7.6358,-111.8092,65.5351,-36.1532,53.7548,3.4455,124.6274,-4.3477,13.7731,-40.1050,62.4766,-92.3211,14.3497,-46.5911,-54.6394,33.5553,13.5426,33.3720,57.6320,20.3330
-1109.3750,-94.4297,-164.8860,-25.2845,-88.0421,74.2232,-13.3941,-38.9278,15.8361,20.5420,91.2993,192.4390,-73.2432,-2.4077,-26.2783,-34.3283,53.8091,-73.4795,-19.2726,75.9984,3.6670
-1101.5625,-54.9333,-195.6690,-22.8140,-48.6359,76.9842,-10.9336,74.8368,18.3318,64.2225,57.0045,121.6944,-69.8645,37.1353,-23.6690,42.2784,19.3698,-58.0916,-83.5977,80.6682,43.3058
-1093.7500,-101.3023,-137.3134,-35.2012,-25.0791,26.9015,-23.3246,61.7464,4.9760,33.4778,80.8666,108.1144,-10.3364,60.8348,37.0894,-7.9669,80.0779,-54.1103,-59.7628,-36.5070,67.0901
-1085.9375,-39.7681,-110.0653,31.3115,-68.6216,57.7321,-30.8248,-164.4339,-38.4737,-12.1086,74.6234,137.4371,-53.9126,54.4443,30.7388,59.6931,73.6755,-42.2281,-69.0370,-44.7700,23.7696
-1078.1250,-63.5494,-65.1245,-69.4918,-93.4709,-79.7437,-21.6267,-9.8931,43.7823,48.3012,120.0823,-1.5382,-44.7857,-11.2443,39.0870,31.0543,118.9701,-76.6128,-23.6053,0.6754,69.1518
-1070.3125,-112.4873,-114.3393,-82.4478,-106.4790,-20.3632,-34.5864,-58.5144,30.8880,34.9044,107.3907,133.3517,-93.8078,-24.0757,26.2856,55.2759,143.1133,-100.4269,-36.3276,-12.0307,56.3843
-1062.5000,3.3701,-138.7538,0.3836,-95.6865,27.8022,-23.7442,25.6733,-31.1971,24.3955,-28.4959,144.0351,-120.0269,23.8979,-35.7214,103.3056,80.0568,-51.7268,-59.2448,-0.9328,67.4188
-1054.6875,-36.9313,-144.3183,-40.9402,-65.0438,-50.1865,-29.0582,131.7038,-36.4275,15.1353,-106.5244,101.5808,-88.3932,-18.2741,-4.8764,61.1813,74.8541,-52.8195,4.6889,-5.9922,62.3048
-1046.8750,66.9176,-145.7347,106.8866,-103.2528,97.9841,-28.2264,-14.1207,-108.5089,-45.8063,-141.4050,139.2789,-124.6088,20.7139,-39.8853,26.2163,-34.1970,-4.5297,-32.2323,28.1038,-9.6599
-1039.0625,97.8018,-115.1101,101.7479,-106.4170,56.1974,2.6472,127.1340,-4.5376,19.8289,-110.2343,-13.9712,-129.7661,14.7535,-81.8444,20.3024,-40.1931,17.6056,34.9026,94.2550,21.4321
-1031.2500,-1.0626,-179.2469,71.8568,-135.3466,100.6780,-27.2436,61.6379,2.6762,41.1420,-30.8114,67.0471,-159.6751,22.0539,-74.5563,27.6448,-32.9447,-13.9707,112.2831,136.6621,28.7703
-1023.4375,36.7209,-212.7439,111.6098,-132.6366,140.7988,-23.4905,28.8028,6.5444,52.9647,-26.7400,70.7143,-192.9317,99.0111,-143.6165,68.6474,-102.0475,-1.9638,79.3137,174.7293,-4.2374
-1015.6250,-37.8518,-181.5943,-1.9939,-102.2804,-9.4374,-27.0901,172.6201,40.0626,68.8413,-30.0250,67.0374,-123.5362,95.6204,-75.0221,28.2938,-69.4984,-50.7835,76.0008,135.4412,-7.5916
-1007.8125,26.2732,-153.7472,66.1081,-74.2271,96.0357,-105.9838,21.1331,-75.7260,10.8683,-71.6232,172.0594,-92.4413,127.9364,-79.7372,96.6468,-74.2542,-31.0973,-35.6128,58.8590,-49.2531
-1000.0000,34.5922,-75.6986,36.4034,-65.9693,29.6977,-98.6647,137.8676,-32.3103,44.6522,-101.0241,31.2753,-86.1363,97.4505,-109.2547,140.1974,-30.8159,-24.4684,-63.0345,32.4754,-5.7075
-992.1875,26.6086,-48.9489,26.3956,-108.0148,-53.9439,-71.6521,55.2811,-42.1983,-5.7221,-73.7241,95.2082,-95.1208,88.6663,-46.0670,57.4534,-3.6756,-37.3371,-0.7646,-46.2138,21.5375
-984.3750,78.5311,-67.3001,82.2897,-126.1583,-34.6922,-53.7524,-73.4020,-23.1848,-19.6084,-55.5339,150.0432,-113.1941,143.7848,-63.9805,76.6117,-58.6365,-21.5938,17.3983,7.0038,3.6905
-976.5625,46.5431,-29.5462,-27.7275,-88.2014,-105.3527,-51.7669,113.0242,14.9325,22.7678,-17.2440,77.9823,-39.1575,72.0042,-25.7892,3.8630,-20.4886,-42.3119,55.6634,9.3228,41.9495
-968.7500,23.7086,88.3586,-48.5915,28.9053,-16.8570,-73.6421,-55.4181,-115.8088,-50.7407,-74.8091,93.0783,51.0381,51.3775,-9.4474,20.2720,-41.1943,-16.0269,-37.9311,-12.2005,-15.6438
-960.9375,10.7214,145.1195,-99.6126,120.8593,-104.5237,-14.6727,41.0110,-93.6918,-5.2297,-52.5244,-68.9872,109.0904,-37.4021,12.7421,5.5319,-56.0526,10.4028,-50.6769,45.1312,6.6154
-953.1250,-70.2247,134.9301,-147.5855,40.8620,-115.1397,10.3429,29.4778,-32.5267,8.7449,46.8112,-43.9897,98.1931,-85.1255,74.9810,-79.1597,-66.8659,-32.8066,45.6273,70.5189,31.9169
-945.3125,-2.8119,26.0905,-40.2036,-68.7868,-7.4062,45.7079,-45.6991,2.9897,2.7789,45.4849,28.3579,-14.3580,-13.4938,-0.4428,-44.4961,-32.3351,-34.7030,42.2806,102.2619,-6.4324
-937.5000,5.9870,-70.3498,-68.4368,-93.0342,-36.2858,53.4755,220.5448,84.9065,59.1700,-20.4465,-73.8992,-79.5020,-42.4619,7.5356,-36.4320,86.5968,-48.2506,52.3396,112.4055,38.6167
-929.6875,-32.3130,-108.8864,-106.7653,-131.3797,36.7451,-21.8652,108.6826,9.7167,55.3556,15.5095,-2.2530,-44.7459,-43.5217,43.4091,36.5367,85.4186,-98.9481,49.2934,109.4499,0.5608
-921.8750,11.0329,-66.7671,-63.4569,-160.0710,117.4143,-14.5585,190.4891,-19.8126,77.0920,-13.8840,-140.9716,-37.3338,1.0625,-23.0667,44.1576,-18.1102,-70.7150,56.9014,152.1472,8.1592
-914.0625,-109.5340,-46.5468,-114.0588,-138.6668,67.1821,7.8406,213.3895,2.7635,81.4116,45.8329,-119.5793,-51.8209,-50.2566,-0.4430,-44.1282,4.4664,-81.4096,147.6192,137.9456,-6.1434
-906.2500,-10.5421,-88.7791,-9.1059,-180.7173,172.5095,2.7821,60.8412,-39.1095,47.1155,41.0977,-14.6385,-93.7570,18.9781,-42.2774,-11.8634,-37.4056,-62.0632,105.8889,167.2982,-47.9012
-898.4375,-30.6106,-73.0609,-66.2148,-131.8157,78.7758,-17.3309,262.2625,14.9755,102.2097,21.3130,-71.7544,-76.7393,35.1616,-62.1555,5.3546,-20.3277,-74.2326,86.1131,182.5970,-67.7113
-890.6250,-2.2291,-44.8888,-70.8707,-138.4624,148.5031,-21.9990,148.1175,9.5059,65.8824,52.9662,33.5876,-118.2642,30.8006,-66.5816,-35.9673,-61.8082,-78.1120,80.7798,176.3409,-109.0747
-882.8125,3.1490,-39.7123,7.4647,-133.1071,154.2141,-16.6644,116.9869,15.0473,69.3907,21.6106,-71.0787,-75.7819,73.4448,-98.0060,5.7206,-93.2896,-40.0992,86.4432,217.0838,-103.4336
-875.0000,-94.5278,37.4173,-58.2603,-19.7976,87.8724,26.6176,197.8040,22.5402,57.7136,-6.7977,-137.7857,-31.3437,7.0381,-53.4800,-59.6453,-48.8236,-14.5700,129.0589,154.7742,-95.8400
-867.1875,-9.5592,88.2044,31.6629,30.1632,178.1785,6.5478,31.2650,-33.3148,-27.8495,-63.5623,-83.8412,21.7473,-12.7113,-0.3106,-79.3566,-68.7098,37.1401,38.3233,100.1158,-115.6009
-859.3750,-23.6522,108.9457,-59.4814,86.0752,50.4087,62.4221,161.6892,22.7860,15.5033,-44.3760,-138.9611,77.7987,-66.5153,19.8099,-97.1176,-12.6406,29.3526,59.5440,121.4197,-59.4090
-851.5625,-22.0447,39.3889,-94.9264,52.6901,52.3417,63.9962,52.8008,24.5863,11.6964,31.5046,-26.3748,42.5546,-64.6190,21.6331,-95.1770,26.1274,-8.9349,61.4499,123.4294,-57.5206
-843.7500,49.9549,6.2405,-16.9812,19.7104,93.6639,104.9687,20.3253,64.7924,9.7379,-1.2226,-59.4000,-26.2789,-23.3242,-48.1424,-53.8289,-6.7075,18.9705,63.7581,125.8468,-90.2297
-835.9375,-40.6127,55.5524,-76.6056,69.1843,-1.5692,119.3874,109.3026,116.4481,39.4560,49.4981,-118.9772,24.3501,-82.5871,3.5429,-76.0408,-29.0897,12.6941,78.5277,34.7162,-75.4884
-828.1250,-10.7821,121.2682,-6.8254,100.0551,68.6006,79.2037,-77.3281,39.5046,-32.8775,9.6094,-48.1560,58.3850,-48.4454,-0.3716,-41.8465,-69.0801,38.4397,-31.3021,-40.0047,-115.3537
-820.3125,-5.3541,126.5870,-37.4501,140.5330,0.3601,121.6275,1.6586,82.1716,-25.8304,-57.6907,-153.7423,-9.9758,-42.7049,-30.6876,-36.0556,-26.4805,58.7235,9.4714,-34.1281,-109.6118
-812.5000,-42.0293,19.8124,-1.1759,68.9105,1.0203,121.9511,2.5277,82.7377,-6.2930,15.9016,-116.4173,-82.4282,-6.0584,-31.1010,-72.3642,10.0170,27.6844,8.1474,-0.3587,-145.9745
-804.6875,31.9482,-13.3067,75.7414,0.9399,78.3215,124.9267,-30.9454,85.9585,22.9965,56.1379,-150.4563,-43.2240,34.2380,-27.8673,3.9834,-23.8357,22.0228,-93.5220,39.0635,-142.6859
-796.8750,-67.7876,98.8824,-33.0534,43.2704,-30.0875,89.1992,81.8954,124.4868,53.3078,94.6746,-258.1993,106.2858,-74.1708,48.6739,-30.3759,52.6098,2.3340,-86.8879,10.7832,-30.0974
-789.0625,-97.1686,140.4221,-62.4912,48.9517,-22.1459,-13.1816,-130.9273,22.3606,30.5265,176.5454,-213.5819,188.1549,-103.2240,55.5685,14.6154,59.3955,-30.1834,-150.9158,16.8498,-59.1633
-781.2500,7.7052,209.2241,-30.6840,117.8950,-99.9770,-55.3155,-61.4866,-19.5125,22.6358,61.6538,-255.7315,257.2871,-107.0376,51.7201,83.8567,18.4328,17.9675,-221.6980,-19.8367,10.0239
-773.4375,-21.9284,215.5337,-62.3827,89.3458,-94.3125,-49.9456,-55.5569,-50.8872,-31.4657,-7.7434,-177.3839,261.9278,-65.3550,166.3781,51.6012,59.9706,0.3698,-144.9819,-118.0276,51.7056
-765.6250,-24.0115,142.4016,-28.5370,52.3546,12.8974,-16.0217,-167.0686,-88.7056,-69.1856,-118.6003,-142.5047,186.1232,42.8738,128.5848,123.9024,21.0512,3.9236,-111.7208,-49.6614,49.9396
-757.8125,-107.7146,93.6797,-116.3110,37.7656,-38.5112,42.3039,74.8297,4.8837,18.5274,-97.0616,-231.2349,134.7368,27.4923,76.2034,108.5963,-30.4625,-31.8341,-90.0557,7.1094,71.5772
-750.0000,-95.9178,70.4693,-28.5835,15.6804,13.5824,58.1289,-92.7954,20.9708,-31.7145,-46.0301,-106.4580,112.8585,43.6096,92.3240,50.7846,-15.4806,-19.6837,-111.8892,-15.6217,13.7122
-742.1875,24.2309,84.6229,59.4896,64.9586,-8.9931,109.3097,-78.0569,72.4193,-48.7128,-67.6577,-92.3454,91.3404,58.0697,32.7988,28.3192,-38.1511,49.4647,-133.3691,-105.0026,28.1966
-734.3750,-28.9237,102.4929,3.2568,82.9451,-99.8738,90.1907,-95.6256,90.5660,-64.9053,23.4039,-38.5335,109.5353,76.2247,87.9801,-63.4513,53.8705,28.8350,-79.1508,-192.6924,46.3790
-726.5625,71.5780,62.0275,71.6703,77.5920,3.8885,84.7205,-284.5454,11.3633,-121.6923,-18.9010,29.9140,67.3874,108.0227,45.8049,-32.5672,48.5365,56.5746,-120.2859,-162.7316,41.2076
-718.7500,14.9660,76.4757,-25.0294,92.1446,-90.4696,99.1515,-85.5529,100.0672,-34.4839,-4.3125,-101.7509,45.1571,48.7081,23.5410,-17.7842,-10.8934,35.5537,-69.5182,-76.8755,55.9384
-710.9375,-8.6940,86.8850,-10.7755,67.6500,-77.8738,112.5309,-181.6277,40.7172,-81.6206,-26.7799,-15.4620,59.8875,26.3430,75.2318,-40.0473,-33.3760,29.5300,11.1919,-102.0734,-3.3852
-703.1250,74.3986,136.0487,77.2243,80.9128,-25.5435,127.6632,-202.9348,56.1291,-99.7015,-85.5145,-0.4388,74.3754,41.7238,-20.3263,-24.5563,-92.1148,80.4480,-10.3476,-88.5138,-24.9591
-695.3125,-5.9121,89.8187,-8.1822,35.7773,-146.6192,42.4000,-104.6381,44.1430,-60.5515,-60.6533,61.1855,63.4646,66.6978,41.7225,0.5246,-30.2506,3.1055,-21.2814,-63.3603,0.0684
-687.5000,19.3777,10.1953,19.0092,-44.7561,-47.0932,-4.2580,-186.7450,-39.2369,-67.3923,-70.2038,124.3993,17.1599,130.2731,32.3708,65.2076,-39.7908,-34.7379,-100.6132,-1.6052,-9.3102
-679.6875,11.1607,73.0827,-103.3095,18.2202,-169.0811,-16.4113,-15.3328,21.8929,-13.4931,-81.2663,-70.9056,78.3650,44.3411,93.5264,89.3846,21.1681,-37.5237,-72.4465,-9.3600,88.8128
-671.8750,-61.1054,140.9275,-107.6724,86.1529,-172.1173,-56.6168,-91.9857,-54.0325,-52.4871,-85.3905,-2.2560,74.5305,-31.6439,126.6319,48.5138,54.0727,-8.5910,-39.3347,-46.1669,121.8799
-664.0625,-26.8709,210.2871,-33.5455,191.5956,-171.6679,-55.3174,-164.1311,-126.4521,-93.7977,-158.0271,-2.1257,76.2097,4.8670,54.2409,50.1444,18.4722,76.9715,30.2827,-45.4692,86.4484
-656.2500,-3.0487,270.2676,-44.8306,215.6503,-218.6269,-30.4147,-63.6708,-100.2715,-101.3351,-132.0702,23.5947,102.5048,-6.0359,80.4593,-69.6330,-28.5350,89.6799,54.5044,-92.1797,75.6165
-648.4375,85.6734,183.1620,51.7850,93.6106,-86.6859,-81.6114,-224.3232,-114.1895,-123.2838,-73.2344,157.2058,52.7131,54.9599,103.5806,-47.5059,-79.6480,63.3458,38.6237,-73.9939,-11.3186
-640.6250,68.2445,59.9197,32.2421,41.4331,-68.9193,-135.9512,-23.1087,13.7500,-33.0442,-55.5634,-9.3517,-3.2132,35.7986,85.5571,-29.5258,-61.9105,45.9248,126.5897,15.0333,6.6030
-632.8125,-18.8847,-27.0118,14.9995,-10.4387,-48.8606,-152.9905,34.3891,70.9867,0.5195,38.3941,-26.6037,-56.8265,-18.0688,104.8479,-83.2495,-4.8714,0.1738,74.8496,-1.6436,-10.1789
-625.0000,69.5446,-43.3738,108.3006,8.2504,-28.2701,-133.4742,-18.5592,54.7758,-11.6607,-15.1071,-6.3264,-35.8758,-34.3952,15.6924,-25.4219,-21.2835,35.7392,-47.3450,17.2304,-26.4055
-617.1875,168.0061,90.3298,134.6376,72.0002,-147.6441,-179.9061,82.5423,7.6210,-3.7757,11.4367,19.9875,28.1429,-44.6810,42.5945,-71.5508,-31.6510,72.0142,-158.4833,-24.8489,37.4190
-609.3750,191.6212,113.1942,124.1249,59.9022,-85.8683,-227.1913,-111.2189,-76.3828,-35.3071,75.1241,119.4407,91.3166,19.1763,69.6492,-45.5259,-78.8749,43.4690,-205.4775,-0.7754,-9.6103
-601.5625,159.9894,117.8196,90.3584,-6.4360,-82.3623,-224.7182,38.7879,-72.6205,16.0448,40.5471,-25.3715,95.2493,21.7724,35.4564,-5.7514,-39.3554,18.9754,-165.7239,74.0397,30.1141
-593.7500,-15.0835,14.0116,17.1438,-40.2161,-45.3201,-186.7001,114.3260,-35.3130,32.4436,41.5115,-24.6315,59.7508,22.9052,73.8258,-4.4330,35.7132,-33.8362,-93.4205,4.3979,31.3864
-585.9375,28.4943,-13.1300,63.5768,-32.3386,1.3694,-104.0296,-23.4778,-62.3532,-10.6172,-22.8869,58.7288,-4.0872,32.6819,46.8493,42.5367,45.4267,-8.2096,-86.4715,13.4173,4.3064
-578.1250,105.4535,-6.8638,-5.6089,-25.0543,-102.5525,-61.9574,93.1372,-19.9918,4.0384,-53.8954,26.4703,1.4884,0.8512,15.2799,10.9028,50.5342,-13.2090,-44.1165,19.8430,46.6230
-570.3125,68.9141,-7.0844,31.7073,-26.2618,-29.9690,-98.3822,-53.7550,-56.1353,-48.1382,-54.4240,136.7056,2.5713,38.5144,16.2113,11.7742,14.1295,-10.8039,-45.2654,-51.2279,10.4339
-562.5000,79.5189,73.8586,42.1641,55.6968,-19.2533,-87.6497,-5.4810,-45.1140,-39.5050,-115.8109,-36.9423,13.8195,12.3097,27.2975,59.7935,-12.1258,42.4760,-69.2568,-75.1487,21.3933
-554.6875,-65.9283,104.7686,-38.4348,121.6138,-97.5938,-20.9641,-11.2603,-14.1435,-27.7991,-49.2601,-79.6504,82.0249,-66.9591,95.3424,16.7565,55.5643,39.9933,31.7054,-114.1273,52.3009
-546.8750,-70.1182,65.9367,-42.7834,117.7877,-29.6848,85.9768,-123.7870,56.0819,-23.7825,19.5226,-48.1244,41.4860,-70.9864,91.6363,12.9731,51.4981,43.8962,63.9161,-81.8505,48.4588
-539.0625,-163.2292,7.2145,-214.0576,95.0660,-126.6944,208.0243,-2.1943,215.4174,46.5279,142.4041,-108.5172,17.0658,-94.9249,67.0423,-47.7170,100.5345,-27.4297,146.2376,-69.4674,60.7184
-531.2500,-178.2953,-77.4401,-155.2866,9.4035,-32.6442,230.1257,-162.5621,200.7987,-16.8848,127.3200,59.1339,-34.2925,-73.8199,89.4998,-62.3589,85.6092,-54.4209,96.6094,-120.0384,46.0193
-523.4375,-8.5613,-47.2753,22.2810,4.5555,-0.8101,151.0288,-130.1158,122.9850,-55.3483,-25.9820,16.5648,-1.8336,-5.9239,10.7565,-31.1971,43.4738,21.2073,20.7870,-88.8228,41.1207
-515.6250,18.5778,50.3063,50.2503,102.1157,-82.5906,32.3346,-29.2772,-33.4301,-74.0191,-106.8966,7.3994,137.0359,-14.6360,39.4213,-39.6385,-2.2666,67.9363,48.3679,-133.2232,32.6237
-507.8125,123.6764,120.8482,126.1722,172.6314,30.5655,-75.4093,-171.5028,-175.8916,-131.3116,-141.8690,120.1733,140.8634,25.5987,6.0377,0.8760,-36.0569,112.6482,-58.1044,-167.6737,-37.9280
-500.0000,134.3164,96.9508,62.6313,184.6995,-33.7493,-65.5913,-15.1613,-128.7880,-84.6580,-131.2989,92.4748,78.2566,72.3682,-20.7866,10.9348,-26.2896,91.6256,-115.0291,-191.5814,9.0770
-492.1875,136.7479,29.8644,62.8860,46.5738,-33.2651,-27.9686,-86.0372,-127.8804,-91.1909,-93.9320,203.5621,5.4621,72.9232,-19.8009,11.7922,-25.7180,36.5583,-113.1523,-188.6926,46.8779
-484.3750,176.9329,-0.4604,140.8866,-18.7875,-64.0431,14.4130,-154.1489,-122.2107,-94.6909,-125.8257,134.3700,11.4301,78.2100,-14.0630,54.3987,-20.4036,46.3273,-107.5272,-113.0528,52.4326
-476.5625,121.2604,85.3766,82.0260,67.0120,-159.6787,65.9464,-102.1036,-70.3901,-105.3504,-111.5791,1.3188,100.5614,-18.3668,37.8319,-40.8490,31.0546,70.8870,-56.7458,-168.2657,67.1341
-468.7500,120.7413,156.3753,121.3120,136.9647,-47.1605,32.6315,-245.9091,-68.4186,-132.0041,-73.1964,77.4079,103.8519,-14.8000,41.8758,-37.9433,-39.3476,101.9259,-126.8159,-168.3243,-3.0216
-460.9375,53.8138,123.9847,14.1857,105.5273,-117.0549,-1.0749,-95.0935,-27.8357,-52.6224,-33.2207,80.0787,107.7542,62.3555,8.5253,2.5533,-36.1494,34.5919,-89.2808,-59.7904,0.4224
-453.1250,31.6363,67.3631,28.8139,13.8543,-66.1992,-97.0255,-116.5442,-49.5019,-48.3952,55.4916,205.4939,13.4233,76.2470,-13.0681,-56.2080,15.7966,-3.5466,-40.9968,-46.5168,-21.3903
-445.3125,120.7158,-18.9862,121.6960,-37.5474,27.8868,-76.7169,-168.7422,-65.9099,-69.3101,1.4325,151.1411,-76.6491,96.3775,-66.4092,-35.7160,35.9821,27.9536,-21.4678,-26.9963,-37.9526
-437.5000,106.3400,3.2282,68.1151,19.6099,-63.4937,17.1458,-2.3844,28.2314,-39.2447,-53.0910,-13.6691,-92.1564,-30.9500,-46.1913,-88.6758,18.7138,63.7715,70.6127,-5.9338,19.0346
-429.6875,16.5768,-15.9521,86.1441,70.3682,29.7316,72.6042,-129.4333,-26.0363,-75.5228,-71.0335,41.1200,-36.0573,-11.6828,-26.3768,-70.0304,-35.9628,76.9106,86.2904,-24.2761,-35.3794
-421.8750,26.9628,-39.9680,59.3187,81.2827,40.0951,47.2100,-8.3103,-15.1498,-35.6846,-97.8316,15.0368,-24.7926,35.7228,-89.4064,-22.2398,-62.4922,71.9811,97.1243,-13.4756,-24.6394
-414.0625,-44.8553,-41.1656,-13.7104,45.0077,39.2514,46.6217,29.5929,-14.4622,-2.9267,-23.8305,50.7435,-60.7193,-1.0903,-88.6257,-21.6572,-62.2198,27.1838,166.7647,-49.8778,-61.1023
-406.2500,119.9812,-51.7010,121.9123,-35.6058,139.0520,-37.3092,19.1549,-62.1182,-0.4580,-35.1903,2.0764,-144.9900,-12.2705,-136.1948,4.5691,-36.3018,55.0901,50.0557,9.3718,-71.9203
-398.4375,64.3577,-106.6708,25.0711,-19.6614,42.3818,-23.6827,180.2757,25.7858,65.6465,14.9929,-132.0568,-93.6970,-109.9177,-48.2061,-18.6569,51.1657,16.4527,30.8975,60.1627,-21.1895
-390.6250,-32.1580,-97.5294,-3.6652,-10.6062,13.8133,22.0464,-31.5222,34.7876,37.6842,60.2608,-13.0951,-84.2952,-101.4675,-2.1144,27.2253,22.7279,-5.4481,39.8322,34.0440,-12.3569
-382.8125,-55.9288,-84.6289,-28.6604,2.2040,-48.0212,71.5337,18.4474,84.5503,78.7402,72.2729,-38.4062,-71.1329,-89.2798,-63.2682,76.8598,-1.9556,-7.9245,52.5264,46.6749,0.2330
-375.0000,-133.5121,-91.5192,-110.4679,-40.7841,-92.6555,64.2257,85.6158,113.5127,72.9469,64.4800,-9.5243,-3.7637,-96.9004,-33.2131,-4.3109,27.5618,-68.3171,80.4265,109.5020,-6.9771
-367.1875,-66.1506,-94.4546,-1.3261,-113.8138,52.6565,61.8685,47.7367,75.4287,49.4839,25.6281,-11.7068,-4.4379,-98.5756,-34.2109,-5.5212,-47.9816,-49.3687,42.2784,142.2858,-45.2448
-359.3750,-126.5440,-83.1239,-174.9465,-67.5812,-9.7970,72.7696,243.1216,160.6017,135.4565,72.0174,-149.6580,7.1519,-125.0174,-22.9505,42.5128,-37.2783,-93.4345,88.3787,117.3152,-34.2588
-351.5625,-148.6795,-33.5218,-124.3119,-18.0847,114.9979,14.9272,110.7417,65.0223,74.6508,86.6462,-24.3637,-14.0002,-110.2196,-7.4336,20.7937,-22.3297,-55.6210,101.7292,-9.4188,-56.0248
-343.7500,-25.8588,-15.9616,4.2646,34.3664,133.7240,-2.9608,93.3221,11.4002,11.6514,-41.7795,-7.1417,41.8113,-54.4880,-24.9586,3.0232,-40.4262,20.4232,84.0322,-27.2068,-73.8368
-335.9375,-48.2448,-2.5948,16.6312,47.6204,35.2455,9.9542,69.7037,-12.4202,-24.3300,-29.4073,4.8725,129.4271,-115.9703,61.3229,-94.9500,9.2805,28.3423,133.1360,-49.2003,-60.8464
-328.1250,-8.0319,3.3836,60.5939,18.4791,153.3681,53.4738,-106.3196,-41.6371,-63.4123,-22.4506,48.4728,100.6526,-71.8607,32.2086,-50.3128,-20.4193,32.8411,67.8385,-78.5902,-90.2558
-320.3125,-136.6320,16.5800,-151.2561,-3.4475,51.6715,136.2010,87.8747,78.3561,49.7203,22.6977,-90.7452,74.0865,-63.5643,42.2936,69.5223,25.0775,-53.5335,80.7466,-66.7848,-7.4582
-312.5000,-270.4855,-47.4651,-257.3584,-32.6189,55.7240,140.6804,55.8039,83.0964,93.9258,136.5942,-50.2174,5.2773,-22.5246,47.1301,111.1038,29.3233,-115.4597,122.4085,-94.2321,34.0834
-304.6875,-184.0853,-134.2484,-129.2134,-85.5315,74.0135,122.4230,37.9988,102.0948,84.9111,81.7306,-32.4636,-12.2757,-4.2497,-7.7822,128.9314,10.8139,-88.9452,104.3238,-43.4361,15.8801
-296.8750,-130.0903,-46.4179,-75.4766,-66.8371,17.8928,67.7733,166.7961,83.6959,87.6804,99.4674,-89.1232,43.7873,-96.3951,47.9164,37.3499,28.9056,-54.9491,52.8377,-94.0480,34.2804
-289.0625,-57.1387,-6.6309,-31.7893,-98.1853,97.7240,38.0743,-9.4690,-19.7497,18.0923,68.1478,-8.8416,51.8088,-90.5982,18.5687,7.7175,35.9413,-53.1204,21.3005,-20.7100,-32.3689
-281.2500,-51.3948,0.9706,-101.3126,-90.7218,66.3390,43.1803,180.0854,59.6125,88.1773,-0.3775,-224.7834,-16.3605,-122.0198,-12.9748,49.8852,3.7721,-54.1443,28.5668,126.4289,9.7868
-273.4375,-177.6580,-56.4171,-159.8492,-112.2502,79.9539,21.2922,195.6288,37.9714,121.6265,51.0964,-174.7359,-37.5205,-108.4553,2.4866,65.0536,18.6024,-102.9530,76.8371,175.5615,-12.0597
-265.6250,-81.3198,-98.1933,-57.7869,-153.1698,72.1618,14.0104,151.7813,30.9356,104.4414,6.1588,-73.1137,-44.0706,-79.3000,-41.4469,93.8232,11.0331,-81.9191,69.7084,203.2889,-19.2999
-257.8125,-45.1446,-26.1117,-58.8865,-116.2378,-75.7902,-23.4182,225.7897,30.7554,69.6094,-31.9316,-0.6501,30.2395,-80.3109,-41.5208,-16.5627,-26.6775,-66.4812,71.4389,168.8653,17.3130
-250.0000,32.0907,87.0210,59.0765,-40.2571,43.3145,-88.8004,-23.1605,-107.3795,-74.5794,-169.9852,153.8636,76.6028,-35.2751,-32.5459,-44.8957,-128.3438,10.0276,8.2141,105.4914,-11.0277
-242.1875,158.4821,179.3154,116.1898,86.8757,26.5564,-68.0325,109.0616,-159.3617,-85.2039,-296.8976,-47.4879,98.1227,-52.1007,-48.4225,-61.0833,-217.8658,116.2209,-6.8620,91.2671,9.7818
-234.3750,47.2796,175.0216,75.7117,117.4108,23.1976,-70.8681,105.6749,-198.9488,-98.5162,-264.4148,-51.4389,95.0452,-55.5333,-13.8928,-100.8756,-147.9893,100.6978,24.4534,16.4353,-30.0085
-226.5625,126.8874,78.5319,196.0384,91.7520,143.6386,-22.8990,7.0917,-224.7326,-132.5137,-328.1398,68.3958,33.7706,27.8274,-76.5682,-15.8641,-138.3215,129.0171,-36.4281,-44.5999,-55.9979
-218.7500,85.6377,39.1972,113.5093,87.2462,-12.7850,42.2256,109.6667,-122.3661,-109.7684,-299.7176,58.3714,25.6573,19.3248,-48.0823,-61.7098,-36.4996,95.1992,-7.1482,-85.4984,9.1644
-210.9375,58.1953,47.6671,48.7865,95.5434,33.6006,52.1522,-64.9732,-113.2028,-124.3455,-180.4975,67.1422,73.3512,-45.3829,36.2033,-88.7542,-26.8773,62.5579,-34.0756,-77.6027,-17.8789
-203.1250,-17.4504,77.9455,6.8545,125.6511,27.7724,119.8846,4.2112,-8.2312,-29.9127,-77.4792,-160.3068,104.8485,-125.3071,-5.7114,-56.9938,-69.4505,66.9922,-39.2023,23.0949,-23.1199
-195.3125,-137.4068,64.9283,-120.3863,112.4617,-62.3578,104.3189,63.0885,50.4410,31.2903,17.2374,-249.0598,91.0527,-213.5436,53.0811,-35.5322,-11.3230,9.3105,18.3753,9.4908,-1.6587
-187.5000,-31.8090,30.4688,-10.0818,7.8283,-25.9435,31.3089,-47.4794,13.6676,19.8600,-20.5086,-141.2741,-19.1905,-105.2344,-20.5807,75.4883,-11.6524,8.6204,-17.4929,44.4350,-1.6489
-179.6875,-39.5189,-11.2842,-56.0830,-34.0962,-180.8393,23.0075,129.6678,79.6014,72.7464,-29.5564,-113.8004,-62.7282,-77.2382,-28.5366,104.2011,53.7144,-31.9439,11.3459,38.0730,27.0622
-171.8750,-41.8224,23.3684,-58.6782,-35.6128,-74.3260,-15.8895,54.1991,77.9303,40.2323,41.7940,-5.9232,-63.8613,-115.8471,-30.0908,28.3139,51.4773,-35.5524,-25.4128,-34.9031,25.1668
-164.0625,-29.7210,0.4319,-82.8775,-23.7162,-24.4250,34.6268,31.1391,91.6715,51.7663,54.5368,-213.6636,-50.5845,-140.0633,-16.2456,4.8244,64.6419,-27.6367,-13.7595,82.5089,1.6744
-156.2500,-108.7788,-7.6469,-165.2293,-30.9631,-34.6730,24.9964,168.9202,155.2646,113.9718,154.1393,-298.5508,-22.4545,-186.4429,11.4540,-41.8198,54.6559,-61.3740,13.7491,74.7603,29.0285
-148.4375,-43.0877,-10.9790,-59.8330,-105.4572,71.8306,-51.8767,19.4506,79.6138,86.5819,113.4903,-156.6993,-24.5750,-81.0776,-28.1033,66.2896,-22.5801,-58.6937,10.0096,104.7664,-10.8742
-140.6250,-12.5068,-14.4054,-67.5446,-72.0466,-45.7780,-93.8411,160.9048,72.8742,89.3272,32.7457,-90.9686,-29.7946,-51.8269,-69.7582,59.2964,7.0854,-39.4633,77.1739,66.6715,56.1259
-132.8125,16.2236,14.3260,-1.1073,-9.4868,-53.2341,-64.6518,6.4929,-43.7170,9.0742,25.1503,48.9135,-35.8611,-59.4342,-4.2546,15.4532,73.9090,6.8371,70.4831,-46.2793,49.2735
-125.0000,43.5108,-27.3856,-9.1219,54.6292,-61.1500,38.0941,-72.3627,-14.7528,-12.4182,-19.8998,-33.6687,-42.3717,6.5002,25.7991,45.1594,103.2823,31.6296,63.3444,-18.6826,41.9795
-117.1875,-78.4166,-76.2973,-100.3486,38.5481,-114.2704,131.6399,56.5853,116.0100,82.3706,109.8543,-161.4559,-58.0795,-48.7804,45.6573,27.6660,48.4564,-6.4564,118.0198,0.7162,61.4872
-109.3750,-81.3877,-114.2570,-63.6192,-68.5853,-4.4309,132.1343,-88.5185,116.7239,61.9711,183.5539,-52.2993,-57.8362,25.8849,10.4571,29.1256,12.5725,-53.1530,80.6389,-0.9306,-11.0549
-101.5625,-11.5126,-79.3603,6.9477,-68.8592,-44.7501,129.4858,56.2459,151.2970,67.3492,143.1076,-56.3091,-22.7375,22.3891,-28.8892,-10.5729,46.5392,-22.6565,9.1104,-37.7294,23.2579
-93.7500,-17.3385,-84.1587,-36.1864,-38.8323,-50.7629,88.1395,14.2929,146.1634,41.7732,173.9688,46.9876,-27.3345,16.1859,40.0673,-52.9797,77.8098,-43.2600,-31.1169,-78.2313,17.8672
-85.9375,-2.6044,-68.4024,-56.7642,-58.2510,2.7729,68.3452,-5.1044,126.5843,59.0128,153.3798,-10.1747,-9.3816,32.5215,20.5648,1.1663,20.6301,-62.3861,-85.7892,42.8176,-1.9696
-78.1250,-125.4775,-14.2518,-221.9458,31.7243,-90.2952,49.9504,160.9013,145.4031,124.9259,171.1923,-212.9326,46.9683,-23.7487,39.4660,19.7052,38.8594,-86.1332,-32.0518,61.2685,16.5950
-70.3125,-139.5490,8.6942,-162.3178,53.4989,8.4542,1.3605,39.7000,24.0177,83.2174,121.7967,-190.8920,-0.8834,-36.2229,28.1648,45.0462,26.8876,-51.8262,-9.5183,82.5192,-32.0451
-62.5000,-21.6770,-14.4078,-78.7466,-4.7711,-18.8573,-25.2720,197.4716,34.5886,111.9778,21.3460,-216.9149,-26.7803,-26.7517,-35.1863,92.3345,-0.1323,-28.6204,-33.0282,129.7114,15.2668
-54.6875,-31.1016,-56.8060,-89.4678,-117.3374,-29.4533,-71.2060,151.9375,61.8566,81.4921,47.5973,-45.2330,-34.9856,-0.5861,29.1575,45.3189,26.5372,-83.7782,29.1666,86.5978,42.2756
-46.8750,74.3834,-56.3055,-16.2789,-152.0048,80.8572,-107.2388,41.3159,25.0243,26.8126,9.7456,-9.6549,-34.3007,35.4806,-7.6128,45.2059,26.1029,-61.0355,-5.7347,51.3884,42.1802
-39.0625,-7.9398,3.3903,-66.8983,-22.4768,-6.6329,-83.0699,139.9106,12.3961,2.7696,-40.9042,-97.8794,63.5787,21.7415,16.8188,-40.7117,12.8691,-26.3096,18.5793,-30.6198,66.2850
-31.2500,11.5915,93.9363,64.3414,102.8983,50.7402,-136.0514,-58.6574,-112.3877,-93.4859,-93.6962,-41.2504,85.3082,4.8450,38.0926,-92.7779,-40.5197,74.3339,-32.2658,-80.7752,50.2343
-23.4375,124.3699,137.7322,109.8243,111.5274,-13.6510,-125.7799,-12.9615,-101.9123,-77.3435,-121.2308,-69.3837,96.2905,14.1947,11.6117,-47.5897,-67.6562,100.7862,-58.8628,-73.6781,23.4352
-15.6250,53.7495,68.1281,35.9132,76.7606,-88.4400,-89.9050,61.3296,-65.8424,-28.1288,-49.1684,3.0878,22.8646,13.1380,11.7307,-47.8000,-31.1935,51.0181,11.1353,-73.9889,23.2309
-7.8125,23.7411,-31.8804,41.6113,-23.4064,29.3731,-9.4309,-41.7809,-22.1749,-4.9130,31.4906,82.1559,-42.9664,55.6784,-17.5551,-3.4058,12.8643,0.0658,-18.2647,2.2995,-6.3754
-4000.0000,-24.7746,-39.9500,-28.3716,-30.0685,-32.1878,41.2528,22.4614,40.1325,33.2634,61.1759,10.9053,-36.0794,22.3678,-2.4292,-2.1635,11.1527,-28.1711,-14.3926,31.8158,19.5031
-3992.1875,-25.8327,-6.3691,9.5694,39.8257,5.6512,42.2642,-123.9405,41.0420,-8.6277,100.4718,-24.5575,-36.4619,-49.7662,-1.2150,-74.9091,12.5759,19.7726,-14.2838,31.4509,-15.9977
-3984.3750,25.0701,44.1575,63.4691,124.6656,22.4395,23.2203,-69.3904,21.9000,3.7128,44.7184,-118.0724,-19.8940,-31.9425,-58.0567,-20.7014,-7.0597,86.9491,0.7713,12.0397,-35.5473
-3976.5625,-52.2311,107.4797,-91.8342,153.3011,14.0193,16.9708,69.9654,-21.4402,24.9065,37.7768,-124.7858,8.4704,-39.3190,-29.0967,-28.6986,22.1071,45.0017,64.6297,-28.5680,-6.2997
-3968.7500,-83.8729,75.4423,-87.4762,86.5769,166.2668,-13.6323,-34.0399,-52.1378,1.6339,44.4801,-8.8333,-60.5275,76.9645,-60.4900,13.9520,-9.0750,16.5087,103.1403,-59.5237,-37.4103
-3960.9375,-170.1632,-12.2588,-142.7691,70.1999,72.8616,41.1176,93.3239,39.5215,67.7259,62.5346,-101.5392,-79.1808,94.6070,-79.5378,30.9534,8.0932,-6.2745,193.0136,-5.1278,16.8318
-3953.1250,-137.5067,-51.0137,-108.1105,31.7724,71.4183,39.8192,-17.3637,38.1288,30.5775,99.5429,-29.2855,-45.8943,21.1993,-44.6373,-7.1035,44.2104,-25.9777,118.8488,-42.7854,-20.9786
-3945.3125,-12.2465,4.8309,-12.8466,51.9554,92.5832,-9.8780,-68.4610,24.3334,-14.0516,12.1503,-43.4341,-24.0069,7.3947,-59.1465,15.4387,29.9224,19.2959,-0.7122,-56.8434,-35.1960
-3937.5000,-11.7427,75.9304,23.6619,53.4001,-18.0124,-46.3196,-31.3017,25.7901,-43.6340,-59.9885,-80.3421,12.1329,-29.1676,-22.4031,-21.7768,29.8839,45.1686,35.9820,-90.6507,1.8346
-3929.6875,47.2158,28.4769,125.6267,-28.7048,83.8552,-53.3134,-186.7088,-19.3053,-96.3446,-66.6779,22.2059,-33.2825,36.7236,-30.2147,-29.5385,-14.7089,52.1471,95.1239,-101.0076,-79.6947
-3921.8750,107.0711,16.9204,151.4893,-4.9058,109.6199,9.5896,-13.2025,44.5041,-61.8317,-113.4648,-61.3567,-44.7998,26.5174,-78.1321,-40.3930,-99.4069,90.5306,119.1666,-111.4572,-90.3272
-3914.0625,48.5700,-6.9846,130.0004,42.5477,125.0362,26.1398,-34.0472,23.9612,-89.8427,-97.5987,27.7325,-29.6680,42.9605,-26.3968,-98.6053,-120.4517,83.5862,130.8683,-169.2673,-148.3160
-3906.2500,100.3759,9.4107,184.8241,94.3043,179.7648,81.9895,-124.6024,6.7143,-104.7499,-114.4393,47.1257,-48.2384,25.7089,-44.3720,-79.5151,-138.2025,132.0966,112.8777,-116.7784,-166.0127
-3898.4375,26.7776,41.4023,33.2445,91.6678,65.0855,152.4416,18.4663,77.0743,-57.7971,-43.6838,-66.8896,19.7885,-14.9461,-11.7467,-157.8309,-68.3562,84.6040,216.4946,-83.6946,-133.1104
-3890.6250,46.6804,25.8961,93.1715,40.5323,160.9162,65.3865,-178.9775,26.9238,-112.3362,-56.4301,29.6082,5.3152,8.9054,-25.6226,-134.6468,-83.0144,76.4295,200.6134,-64.1180,-183.7184
-3882.8125,108.7469,17.5474,158.2559,-2.4469,152.8965,22.4747,34.7363,-17.0827,-75.3551,-173.0357,-51.7535,-3.0033,38.9100,-70.3527,-69.3078,-163.5265,79.4885,86.8745,-35.3936,-191.1746
-3875.0000,86.0599,29.4538,97.5914,9.8240,92.1235,-38.2005,83.6973,-114.8520,-83.3205,-196.3957,35.1418,8.9344,52.1651,16.1681,-56.7204,-113.7835,39.5024,29.3824,-58.4240,-178.3815
-3867.1875,138.7834,46.7610,151.3390,27.4903,145.7585,-19.4867,29.0430,-132.2314,-104.0652,-251.3575,53.4473,-10.7337,106.8272,-2.9149,-1.7279,-132.6399,75.7399,12.2862,-75.0566,-160.1939
-3859.3750,9.1590,-13.2892,-22.2604,2.8048,45.0345,27.8803,186.0530,-11.9491,-5.9054,-129.6610,-46.6080,-0.7513,81.1332,6.6547,7.9069,-48.8433,-3.4128,93.8461,-63.0386,-113.3515
-3851.5625,14.1371,-43.7427,18.7436,-27.2823,160.9175,33.8427,44.6428,-43.0702,-57.6517,-123.3636,31.9456,3.8364,87.0410,48.8275,-22.8618,-7.4393,-8.8719,28.0012,-57.4234,-107.9116
-3843.7500,90.4748,-2.8424,60.1045,-21.0103,128.1533,39.1500,49.5809,-0.8493,-53.3241,-154.7280,0.8381,44.7790,92.2958,17.3490,18.7231,-38.6821,11.8277,-70.4952,-50.4579,-66.1210
-3835.9375,33.2015,79.4675,-0.1415,61.6726,-6.2220,-57.1503,62.9233,-60.2310,-49.8583,-103.6949,50.1285,130.1286,31.9491,66.2750,-5.2983,-62.5240,4.0187,-93.5804,-108.1014,-52.9318
-3828.1250,117.1849,128.0291,87.8784,74.6086,81.6646,-115.2051,-105.5040,-155.3699,-91.1187,-87.4191,139.6778,107.7234,84.8542,8.4472,9.9352,-84.1272,42.4732,-150.4122,-93.4976,-74.5023
-3820.3125,74.0212,119.4386,3.7445,67.3937,-76.6028,-51.4072,31.9372,-91.6549,-19.4137,-23.2935,19.0663,97.1708,74.6062,34.4691,36.0152,16.1196,12.1163,-122.3835,-101.0391,-11.2253
-3812.5000,16.0597,26.0417,-21.1865,-26.6267,-27.6555,-38.4154,-66.4272,-78.7447,-5.5739,27.0267,68.6658,-2.1839,51.5580,46.6898,85.2908,101.5652,-41.6609,-110.1487,-53.3804,1.2482
-3804.6875,-0.5009,-25.9591,-38.7119,-42.2465,-45.2945,18.9728,27.6172,15.5592,48.9147,10.7322,-22.3404,-20.1416,34.9198,29.3001,140.9763,85.4045,-48.2017,-90.5126,2.6737,21.1168
-3796.8750,-72.1230,40.9964,-152.2946,25.0946,-84.9865,15.3059,170.6193,11.8093,66.1572,7.3790,-62.3999,48.8541,-5.7676,61.8643,100.6089,44.1939,-55.8359,-22.9149,-70.3319,53.9331
-3789.0625,-36.7375,77.9515,-74.8646,62.4359,29.3387,-15.3658,-7.3935,-92.9478,-23.2907,-96.9826,53.5494,53.8543,37.5500,30.4254,105.2430,-24.0197,-12.7504,-20.3203,-68.3432,-14.2601
-3781.2500,24.6059,102.8568,-12.4794,122.7239,-56.3878,10.9078,91.5599,-66.7543,-12.8429,-107.3989,-31.5581,41.8053,26.8188,18.9372,57.8246,-35.2826,53.3646,5.2255,-112.4060,11.4950
-3773.4375,28.4066,71.2115,-6.6361,91.4578,-50.6632,17.6256,-49.0486,-60.1152,-36.5074,-26.3671,48.7920,10.2064,33.5298,24.8989,26.8530,-29.0877,35.2312,9.2177,-143.0212,-19.3028
-3765.6250,55.3149,-8.3301,20.3117,-22.7047,-23.8372,-28.5663,-131.5649,-69.3765,-11.9435,1.7587,-34.7617,36.7119,24.3366,14.9608,90.9819,-1.7926,-1.5092,1.3103,-9.5347,7.9969
-3757.8125,23.8697,-5.2142,-13.0979,-19.2098,-93.3678,-98.1183,19.5800,-27.9884,31.1351,43.5397,-67.6776,39.8755,-82.2189,18.6765,20.7536,2.1563,-20.1234,-30.9428,29.6034,11.9514
-3750.0000,84.9800,21.4539,127.0489,-27.1669,46.6667,-141.1323,-134.7425,-145.0605,-60.8550,-36.1256,36.9657,32.5922,-51.2236,11.9405,14.0776,-4.3464,29.4642,-74.6514,-48.7087,-31.5523
-3742.1875,137.5443,73.5727,179.6461,25.3335,-11.8549,-87.6988,-7.6034,-91.6831,-42.5878,-93.3473,-57.9456,47.7639,-34.7755,-9.3451,29.8560,-25.3987,88.9208,-91.9095,-101.5726,21.3913
-3734.3750,65.4086,70.9956,104.5473,23.1373,-51.0674,-124.9683,-83.1725,-93.0107,-39.1795,-20.2760,51.4497,45.2445,0.9748,25.6770,27.9306,9.8488,38.2042,-93.8640,-68.1500,19.6317
-3726.5625,99.7314,34.8703,103.9038,22.3958,-14.8233,-124.7936,-83.3065,-92.8920,11.7418,17.2314,14.2990,7.1814,1.1784,-48.8534,101.4643,9.5435,29.1977,-199.3636,37.7213,19.3163
-3718.7500,7.0074,-23.2897,4.2057,34.6111,-112.6364,-111.6766,113.5238,-43.8252,72.9723,66.6727,-82.9078,-17.9192,-59.6748,-0.4306,38.9435,58.1912,-3.3592,-150.9062,51.5361,67.9509
-3710.9375,-23.9602,-88.6921,10.2682,3.5828,-34.6914,-69.8218,-64.9091,-110.0223,13.1394,-0.1490,32.6483,-49.2652,-16.7776,5.7451,82.1716,27.5917,-19.5327,-110.6960,56.0862,37.3310
-3703.1250,7.7246,-92.4406,43.9829,0.2106,-38.0888,-35.3222,43.3252,-76.5765,26.9651,-76.3386,-44.1645,-16.9569,-19.2348,-34.4345,79.0557,-49.3597,13.8167,-9.8258,88.2898,34.3601
-3695.3125,-67.9504,-64.5362,1.3410,30.4897,-6.8332,-3.1788,75.2184,-81.4847,25.2562,-80.8858,-49.3281,-22.9951,-24.0476,-2.9626,73.5872,-54.6598,19.9318,90.7034,13.1423,29.0332
-3687.5000,39.6967,-28.3226,77.0104,67.0726,68.7355,-37.7472,-33.6004,-115.1026,-31.8854,-187.1461,-47.1825,-57.7275,-58.5639,-38.1947,112.4183,-15.6642,74.7231,22.5290,15.2846,31.0026
-3679.6875,-13.2939,-45.7410,21.0340,85.0140,-24.3550,-55.9729,95.9388,-96.3717,-2.3646,-168.0613,-137.6963,-4.0989,-75.7448,-20.0761,56.5958,2.6817,55.5750,40.7132,33.7715,49.3229
-3671.8750,84.1184,-19.7541,124.4644,41.3509,79.9668,-98.8071,-21.1385,-175.2472,-53.8623,-137.5751,39.1982,-11.0686,-45.5307,-63.5620,13.1643,-40.5733,69.9956,-38.6921,-9.3414,6.0310
-3664.0625,116.4460,-22.8645,156.8064,38.5917,38.1984,-101.7493,-25.3082,-106.2242,-20.6915,-68.2025,-2.0096,20.8607,-12.4167,-67.1594,45.6284,-80.9363,83.7295,-41.1932,-47.5532,38.6278
-3656.2500,57.0243,-11.7180,93.3984,49.0902,-25.3142,-54.4415,-87.2241,-58.9530,-47.0737,16.4144,45.0338,67.0469,-38.0612,-20.5028,-53.6659,-70.0495,65.5265,5.5599,-140.5285,85.4668
-3648.4375,162.4680,23.2890,206.8558,14.4465,14.0331,-51.2879,-268.3176,-55.8373,-109.8578,-16.1328,85.9361,33.0860,2.1433,-17.9964,-52.1073,-104.3132,101.8418,6.1597,-139.6565,15.1478
-3640.6250,184.3158,44.7026,191.7045,36.2064,-74.2262,-28.7391,-134.9967,3.6837,-83.9145,-30.2832,-2.7769,54.5314,-12.2579,-33.0906,-102.1464,-46.1701,114.7362,28.1706,-83.3876,37.2239
-3632.8125,163.8699,23.8255,208.2551,-20.3350,-21.7696,-48.5040,-228.9818,20.8975,-96.9107,24.2659,88.2130,-3.3178,-31.9624,-16.4865,-122.4883,-29.3290,85.7407,-28.1161,-68.4230,16.9900
-3625.0000,129.9831,-11.4856,170.3598,-19.3216,-58.7485,-48.7262,-229.4126,20.6525,-88.1281,-49.6526,50.7426,-4.6091,-32.1177,-17.3395,-50.2767,-29.9414,69.6857,-26.8476,3.0935,53.2985
-3617.1875,69.1887,33.3139,68.5588,25.7985,-160.6265,-38.8619,-109.7253,-7.5032,-77.3044,-39.4871,22.3634,40.2134,-58.1763,27.9099,-114.9676,15.5445,51.9721,18.5350,-21.2936,98.7011
-3609.3750,109.7540,38.4731,114.1207,-4.7295,-43.1307,-67.6618,-211.6979,-72.3284,-90.8063,-30.9965,141.3401,48.3915,-13.8812,-0.4927,-70.3039,-12.6299,53.7356,59.2662,19.6645,33.4391
-3601.5625,142.3837,34.6969,72.7340,27.7954,-46.5842,-34.4220,4.4011,-39.1113,-48.7501,-70.4731,27.3495,43.6293,-17.5438,-40.8393,-110.5815,-52.7528,71.5379,92.0466,52.6612,66.2243
-3593.7500,65.2150,28.1300,30.5508,21.5212,-15.8273,-1.9905,-74.3112,-43.7040,-65.2877,-38.7614,96.5587,1.0791,-22.0127,27.0220,-115.6601,-21.6684,34.3659,50.0281,45.8483,24.2086
-3585.9375,59.5103,-48.9799,24.8259,-20.3009,15.3837,29.8838,-42.5876,-11.8513,-23.2566,-43.6143,17.2150,-42.0117,-27.0368,21.3310,-49.2846,46.8631,9.6938,9.4617,145.4844,18.6431
-3578.1250,-47.8492,-120.7254,-51.5488,-21.7636,-25.0635,-9.8955,102.4869,22.3541,40.5895,64.8794,-22.7979,-8.7396,-65.7246,54.9950,-87.5672,117.7490,-33.4034,43.2510,109.4729,52.4314
-3570.3125,-14.7588,-158.0013,-15.4683,-93.7696,48.9438,-46.2309,-82.0098,-13.9941,3.2993,65.8130,88.6405,-9.0029,45.0248,55.1154,21.5893,117.0826,-70.2308,-29.5067,37.9151,15.6670
-3562.5000,-34.2119,-71.8193,-73.9414,-8.3157,-47.6029,4.8805,79.9563,74.1032,36.4150,6.1818,-8.4863,4.1939,59.2182,31.6876,35.1956,57.8634,-41.5538,-13.8122,17.8141,66.3569
-3554.6875,-142.8682,-6.8390,-151.6162,-12.0616,-87.3404,1.7791,2.7255,70.9901,22.4811,77.3374,62.1926,74.1947,19.2110,102.0595,-5.4005,91.4468,-89.2413,-17.3177,14.5104,62.8413
-3546.8750,-74.1676,-9.5114,-79.9325,-14.4585,-17.7079,0.0136,-36.1611,32.2155,34.6732,75.8284,23.2262,145.5485,-19.4440,62.7762,66.3615,89.3741,-72.6313,-159.4709,48.5565,60.6690
-3539.0625,-130.5655,75.7305,-176.3461,0.0531,-112.1768,-21.8603,89.8677,47.3350,44.8310,54.2104,1.1468,195.8189,-40.2108,114.3933,44.0218,67.2086,-100.3200,-109.7156,-7.5102,75.3996
-3531.2500,-39.8607,131.0846,-43.6516,20.6635,-53.5338,-107.6447,-107.0287,-76.4574,-40.9678,-33.3188,98.1754,181.2039,-53.8879,137.1165,66.7822,53.1484,-35.9588,-123.8583,-21.4850,61.2271
-3523.4375,23.0448,193.6451,-50.7595,49.4853,-96.6972,-151.2307,32.2774,-119.0451,-45.3480,-148.6543,54.3937,210.7932,-60.3743,93.0431,59.7436,46.2907,-9.7436,-60.8010,6.7376,54.2604
-3515.6250,-20.8601,184.4088,-95.6774,75.5116,-105.6629,-122.6216,23.7749,-127.4313,-70.3542,-119.7916,119.8097,201.5989,-68.6736,47.1816,-59.1011,37.6439,-4.6617,71.4679,-1.8422,45.5003
-3507.8125,64.2916,164.2279,31.4628,54.5872,21.4373,-68.9762,-68.6876,-110.7825,-71.1174,-102.8975,100.2761,108.4660,-87.9258,-8.6309,-41.8918,-17.9509,45.4983,15.7858,48.6317,-10.2084
-3500.0000,-4.0121,130.5979,-41.8517,92.2075,-87.9134,-30.7956,80.4239,-35.5843,-9.6443,-100.4654,-8.7199,109.8897,-121.6397,29.1049,-4.1334,20.0015,28.4704,18.6703,51.6660,27.6335
-3492.1875,52.2306,80.5209,17.3854,42.3704,7.3075,-45.0772,-81.9148,-86.8457,-61.2977,-78.4966,87.8359,57.8613,-135.8089,51.3914,-18.8269,42.4999,30.6996,4.1198,2.2557,13.0172
-3484.3750,30.0262,-12.0039,-41.8270,20.0900,-14.9088,-29.8104,7.3109,2.4441,10.8917,-25.9921,-8.0770,35.3833,-85.4384,-7.7800,33.0343,20.5472,-7.7431,17.1265,50.4000,-9.0546
-3476.5625,-67.5445,-3.8733,-70.4010,-6.5266,-43.4742,16.1049,53.1931,48.3848,24.6963,20.1592,0.6486,43.5631,-112.4327,37.7019,4.5421,29.2468,-39.3745,-9.1989,-10.8124,-0.4822
-3468.7500,-17.9613,9.4107,-15.8156,-27.9848,47.1326,33.1667,-39.7895,28.4670,18.0104,37.4440,18.5221,23.8988,-95.2823,18.3353,58.2024,46.0969,-35.8402,-101.3729,3.1278,-56.7674
-3460.9375,-52.5805,10.4998,-90.4350,8.3556,-100.4642,-2.9774,107.0491,139.3537,89.5573,111.5173,-92.8168,23.0494,-95.3360,17.7715,21.6625,82.7450,-49.1111,-64.7404,74.8722,-20.2514
-3453.1250,-72.6534,25.1461,-73.4989,-11.7530,-46.4964,-59.5783,-59.5689,119.7822,54.6553,203.1281,-1.6039,2.7523,-77.8488,34.7595,-35.3326,62.9400,-51.6610,-13.5490,55.1657,-40.1927
-3445.3125,-62.0250,0.5014,-25.8633,-72.1517,-35.8236,-48.4840,-11.4841,130.9125,84.0000,177.4281,-27.7067,-60.8447,-29.6728,-28.5567,12.3730,0.8335,-48.9255,-2.6545,101.1677,-29.4436
-3437.5000,-68.3042,-42.0320,-34.1379,-147.4380,-81.0477,-56.2960,90.7176,123.1428,86.0036,132.8198,-35.7271,-69.3317,-37.4138,0.2292,4.1696,29.8280,-79.6847,26.3457,60.2733,-0.5978
-3429.6875,-30.3783,-75.3560,43.7949,-180.5285,33.9491,-88.9198,-51.8886,17.5640,33.6220,63.4015,42.4484,-65.6065,41.0379,-32.7885,81.1673,34.0178,-67.8598,28.5420,27.5883,-33.5609
-3421.8750,-51.1437,-25.3783,-54.9693,-95.3200,8.2472,-76.2519,143.8242,66.2835,86.4993,76.2651,-56.0922,-17.5694,15.7781,-21.5099,56.4616,8.5065,-51.5629,79.0530,7.2127,51.7706
-3414.0625,-154.3087,11.2042,-163.1309,-59.5131,47.1578,-73.9925,36.1362,68.5933,54.8475,151.7179,18.9660,21.0715,18.1024,17.3758,-15.6516,10.6015,-85.4442,116.1743,-25.5612,53.6925
-3406.2500,-103.2658,-42.9974,-73.0902,-113.4930,63.2809,-57.5337,-21.3525,48.1050,39.9124,95.3522,-1.7887,-0.0802,71.6182,-39.5308,37.4393,-10.1010,-67.8565,97.4912,-9.1331,69.8085
-3398.4375,-136.2815,-110.2270,-106.1107,-146.5033,-6.6588,-54.1233,94.1219,52.5671,68.5935,99.9200,2.3916,-33.2607,2.0660,0.5261,4.4705,31.1511,-106.6356,99.7560,29.2344,36.8785
-3390.6250,-36.0461,-116.1891,-36.8739,-116.2600,100.6611,17.5229,-93.1762,50.2595,3.2085,60.7167,73.8296,-73.1784,-0.2396,-2.1654,1.7532,-8.3506,-60.8081,60.2712,24.8439,-2.8094
-3382.8125,-42.7002,-53.0395,-46.5283,-17.9149,17.0808,81.2603,7.6398,114.0455,32.5384,50.5941,-46.6463,-9.9855,-46.4547,-12.7614,-8.8608,18.2496,-6.9935,88.8809,17.5622,60.6001
-3375.0000,-165.9458,-36.4835,-137.7791,-1.1774,-38.0937,63.3837,-47.1353,96.2237,31.6412,106.8621,8.2777,-28.3872,-64.2808,6.0444,-27.0769,111.2502,-52.6681,105.8909,35.6842,42.4019
-3367.1875,-131.7770,-108.5231,-65.6244,-38.0418,36.1474,63.8991,-46.5150,59.7962,61.9993,106.5153,-28.4079,-101.3893,-27.7158,-30.7498,47.1188,110.6532,-52.4554,-0.7008,104.2083,5.5980
-3359.3750,-216.5644,-121.5027,-153.4320,-51.8488,-16.5675,48.4661,159.1681,154.4264,125.6612,165.2209,-80.0669,-80.3289,-43.1199,27.5155,-5.6415,132.1144,-103.0361,-15.2348,125.7753,26.8479
-3351.5625,-154.1080,-129.2223,-87.9939,-94.4023,86.9736,41.2777,-31.9206,74.3035,56.9446,121.1683,59.5281,-52.0015,-13.2849,57.0371,23.8467,88.8267,-101.0117,-57.5147,118.5930,19.3408
-3343.7500,-94.7466,-106.0203,-98.6562,-70.0442,39.4170,-6.0195,104.9005,64.0742,88.9386,74.9962,-24.9959,-25.7526,13.4395,9.4578,50.2338,41.4366,-87.0321,-32.8976,143.3155,8.7309
-3335.9375,-147.3863,-123.8027,-151.3252,-87.6804,23.8563,-58.3239,126.7211,47.8360,106.1949,132.8139,-3.5180,-4.4924,-1.8490,-6.1131,34.6175,62.0495,-125.6722,20.7179,127.0335,-43.8801
-3328.1250,-70.6611,-118.2257,-33.6344,-116.9673,141.6581,-50.2842,60.8766,55.9400,81.9740,103.9688,-32.6949,-33.8816,42.2045,-35.3321,78.3528,33.0166,-86.0855,-43.3172,62.0942,-73.1411
-3320.3125,-130.8372,-38.5407,-64.8549,-37.1487,0.5514,29.8561,141.1468,99.1467,74.5368,37.2096,-99.7896,-28.1560,12.3408,44.5574,85.1924,113.0906,-55.2021,-34.2431,-33.7496,6.7047
-3312.5000,-65.1670,-5.9887,-31.2268,-40.4692,71.3036,26.8417,-45.7512,23.1967,-30.4396,-76.7116,6.9654,-68.5636,9.3196,78.2997,44.8806,110.0120,-29.2401,-1.3118,-0.7503,3.3977
-3304.6875,-4.8984,-16.8138,-41.9981,-15.1766,23.6670,53.4249,54.9502,49.8500,10.9051,-87.0421,-77.6969,-79.3518,-1.1105,-6.3605,34.1660,26.5212,-9.7603,23.2250,93.8520,-7.3132
-3296.8750,-89.0351,4.9768,-128.1763,6.7184,10.6343,76.6064,152.2554,37.1036,55.5049,48.2264,-53.7686,-18.5282,-13.9568,17.5850,-15.9628,13.6423,-48.8834,10.3717,11.0539,-20.4277
-3289.0625,-37.7546,20.1723,-35.9413,-47.9914,140.0175,22.1831,23.9493,-17.2498,25.3975,66.8832,2.5626,0.6963,41.5888,-37.0670,3.3025,-3.8359,-47.2187,-79.0829,26.6560,-75.1490
-3281.2500,-31.0677,-8.2269,-31.3129,-77.2985,70.7933,-8.8409,177.0590,24.8016,69.2746,71.9284,-103.7227,-31.6748,10.5186,-69.3165,-29.0420,74.0905,-44.7135,-37.1273,68.6661,-33.4692
-3273.4375,-54.7276,-66.9635,-18.0286,-100.9449,121.2240,4.7855,79.8082,1.4933,49.9275,48.6050,-16.3541,-129.3870,-12.9087,-55.9125,-15.7417,50.6569,-44.6007,44.4778,116.3236,-57.1451
-3265.6250,-54.6350,-102.9338,-17.9925,-100.8307,121.4129,5.1544,154.3044,37.9289,84.0673,13.0131,-53.2436,-165.3326,60.4105,-92.7591,21.3108,-22.0293,-36.0765,115.8357,186.7284,-57.0769
-3257.8125,-92.4464,-104.7872,-56.8618,-66.6163,82.7033,-33.3834,225.9098,36.4631,91.8346,47.5150,-18.0402,-94.1648,95.8154,-94.5017,-17.5412,-60.6134,-50.8978,114.3049,115.2238,-58.9097
-3250.0000,-37.3999,-49.7839,76.1265,-82.5584,215.8577,-47.0726,65.3484,-50.1527,24.8963,-3.1377,78.0148,-108.1481,119.0612,-145.3928,4.4573,-111.3481,-4.4089,63.6212,64.5719,-109.9002
-3242.1875,-26.8544,-39.2829,11.6088,-37.0048,114.5086,-1.2609,221.3073,31.7376,47.6793,-67.3042,-60.4416,-136.6265,53.8003,-136.7840,-23.0415,-65.5812,14.8299,144.4444,74.4253,-64.3882
-3234.3750,-52.2660,-64.7256,-13.8634,7.6034,126.2235,83.5922,123.3188,43.6664,32.2843,-18.4328,-11.8539,-198.0488,28.5803,-88.1238,-48.4935,-53.7649,24.5367,189.3259,49.3279,-89.8257
-3226.5625,65.2150,-87.2584,34.5600,-49.8799,175.8523,96.3405,99.2292,56.4916,5.9855,-79.6730,-36.3833,-149.5569,5.2518,-112.5619,-36.0366,-41.0530,27.6268,132.1121,62.1375,-77.3662
-3218.7500,-2.1648,-49.6273,-0.8785,-83.2083,29.6299,60.2346,174.3045,57.4676,23.1121,-41.7627,-35.7760,-74.9045,6.0532,-37.8479,-35.4362,33.8166,-21.6779,64.0533,-4.8991,-39.7555
-3210.9375,75.5624,-6.8979,44.7900,-39.4507,75.5177,33.2245,-73.5406,-5.4596,-46.7376,-68.7555,83.9413,-28.1574,51.9502,-28.0321,47.2696,6.7900,-5.9032,-67.9120,-66.8321,-67.0473
-3203.1250,135.6985,88.2316,68.8593,125.7056,-48.1987,20.6079,24.0302,18.0153,-56.5053,-118.3653,-39.9529,68.9932,2.2403,-4.8167,-2.6218,-43.8354,82.0451,-113.4788,-146.3635,-6.9324
-3195.3125,107.4213,164.9720,36.5184,167.4642,-79.3148,25.5856,-116.7978,-50.9183,-124.8340,-76.3833,1.7497,146.7558,-65.8793,74.0067,-106.9132,-1.8626,89.6477,-105.4430,-210.2929,34.7788
-3187.5000,104.6479,127.2258,68.6817,94.7352,-10.9162,21.0603,-158.1297,-54.3578,-116.1177,-116.9184,-39.0595,143.0331,-33.5057,69.3293,-38.6979,-6.3965,76.7133,-108.9135,-107.7215,66.9850
-3179.6875,-23.9875,33.6421,-32.0140,36.1566,-111.3738,30.6849,34.7066,-7.6429,-24.4827,-71.3061,-29.7355,151.4698,-23.9980,77.8076,7.6613,40.2267,-2.4260,-96.2228,-60.0038,149.3430
-3171.8750,37.1788,58.8550,30.0928,-8.6336,-12.0225,-16.8946,-86.6782,-129.1315,-66.9730,-118.9003,104.4023,102.7037,1.3052,67.0876,68.8219,29.6532,6.2446,-140.7253,-69.4870,174.4947
-3164.0625,52.1070,108.8166,-29.0456,76.3205,-106.9178,-38.7218,2.6954,-113.8671,-48.2954,-177.7559,-26.7166,81.6871,16.3530,9.1136,83.7326,7.8276,43.4635,-20.4794,-54.2184,189.3967
-3156.2500,-54.9691,107.7903,-102.1962,110.2897,-69.8150,-0.5519,4.0718,-113.6050,-49.0408,-103.6206,-25.8395,81.6797,-19.6101,46.1500,11.6380,9.0062,31.5617,83.7705,-124.9569,153.3015
-3148.4375,33.0521,91.8778,30.7545,94.3724,63.3952,21.7171,-119.4664,-53.2512,-67.3266,-79.4039,-3.8724,105.7875,39.5180,-4.7092,33.6480,-77.7170,75.7954,68.1188,-141.5970,66.3073
-3140.6250,49.2593,73.1790,9.8910,39.6613,-66.2066,38.1895,6.2079,36.3023,-25.1548,9.0102,-23.7265,122.1067,18.8340,11.6402,-59.1372,-61.2379,49.3527,119.6692,-125.0349,82.5145
-3132.8125,86.2142,4.2332,88.7795,-29.3044,47.9535,6.4045,-134.3739,-32.3976,-72.3718,14.1727,127.1760,16.1801,23.8924,16.7413,-92.1704,-58.0095,44.0943,120.9608,-88.7238,13.4701
-3125.0000,99.4715,-17.4161,66.9632,-14.9698,99.4186,21.9207,27.3506,-16.7923,-15.2106,-44.3691,-4.6292,-42.4456,2.2444,-41.8551,-40.9046,-79.4772,59.0189,170.5522,-4.1051,-8.2670
-3117.1875,18.1138,6.3360,-20.4685,43.7665,50.2742,45.8398,88.4747,7.2160,-17.2673,-93.5096,-91.0368,-18.6653,-48.0163,-18.0436,-54.2461,-55.5317,48.8489,158.5482,-16.0808,15.4047
-3109.3750,-21.9368,71.3962,13.4082,73.8040,120.4399,6.0507,-62.1165,-32.4841,-36.4427,-97.3637,-95.1460,52.4212,-50.9852,-20.9317,16.7132,-95.2882,58.7477,83.8336,15.2449,-24.6257
-3101.5625,-72.1438,57.3121,-41.8709,59.6905,-7.5484,99.1043,68.1587,60.6624,44.9969,-4.3722,-185.4247,71.3689,-141.1187,-1.9643,-1.4792,-75.1876,37.2888,104.9708,71.4272,31.1970
-3093.7500,-110.8031,-16.2198,-80.5978,21.1186,28.0208,170.7051,-81.0262,95.3559,21.4066,104.1695,-41.1497,32.8703,-142.7124,70.5629,-40.1190,-3.5332,-16.2634,66.6562,33.1556,-7.4265
-3085.9375,-79.7160,-56.0046,-84.5775,17.2907,-12.6615,204.0598,-47.4651,128.8068,36.7096,64.4527,-118.1292,-7.8722,-110.5596,66.8450,-6.9994,29.8774,-20.8538,28.0924,99.6361,-11.2934
-3078.1250,-139.8367,-10.9856,-184.7684,26.2712,-77.5579,176.2177,72.8992,101.0609,69.2277,73.5310,-182.3060,38.1909,-174.6183,75.9354,-35.0824,39.0900,-53.0282,72.3249,143.9146,-2.3502
-3070.3125,-130.5564,-0.5581,-135.5568,1.6578,10.9530,116.7732,-23.3550,41.7045,32.5385,13.9988,-133.0816,51.6573,-88.2750,52.4243,16.2378,-20.3013,-50.7582,82.9548,155.5960,-62.0101
-3062.5000,-149.0772,51.0760,-119.1450,88.2485,-83.3392,170.5244,103.6050,95.5470,31.0327,-43.3422,-188.6775,68.3285,-71.7351,33.1132,-41.2448,-40.4948,7.9998,170.7915,101.4859,-45.4675
-3054.6875,-143.2590,22.0601,-111.3851,130.1870,-38.2674,141.6266,1.9113,66.7361,-14.1968,-35.3362,-34.9225,39.3559,-63.8544,40.1575,-70.3822,-32.3431,17.1404,176.9821,37.7243,-74.5822
-3046.8750,-31.9873,27.5009,-32.1697,135.5763,40.2641,110.1831,43.6670,35.3789,-28.2952,-176.8952,-66.7208,8.8309,-21.5297,-27.3548,8.9366,-100.7507,65.3413,147.6298,43.4105,-69.2509
-3039.0625,-68.8307,61.8487,-109.0724,98.8781,-35.3106,70.6479,189.3296,33.9292,-3.5814,-178.5498,-142.6303,43.2110,-24.3185,7.0414,6.1498,-66.2562,25.4577,182.1850,-27.0125,-35.0121
-3031.2500,32.2201,93.1015,34.9245,24.0942,72.0182,31.0196,-34.1415,-42.6185,-82.1715,-182.3092,-35.6328,3.4982,45.7892,4.3482,3.2597,-105.8539,49.0065,107.6384,-66.5470,-74.8712
-3023.4375,134.4232,89.5093,68.0676,55.4604,31.4854,27.5447,109.5462,-9.0177,-36.8558,-149.9344,-76.4973,-0.0534,42.0441,-73.1877,-0.4717,-109.2930,75.3910,33.2328,-105.9278,-78.5736
-3015.6250,145.9227,136.2166,44.5128,68.1135,8.2579,-68.6403,12.5329,-69.1280,-78.2017,-99.2618,9.9400,49.7042,18.5906,-22.4182,-60.9078,-58.4255,56.7804,10.1196,-129.0033,-101.9751
-3007.8125,265.1262,220.6190,96.6642,81.4567,60.7436,-127.1317,-44.7815,-164.5420,-116.8430,-157.8990,-84.9203,102.1631,33.8328,-43.9474,-45.6407,-79.8632,93.6853,-46.3015,-114.3736,-123.6717
-3000.0000,270.8651,331.5703,102.3521,87.3512,-7.2350,-195.0642,71.4642,-158.3983,-104.5843,-151.9804,-190.2403,145.1727,-33.3871,-37.9216,-113.8246,-73.7484,105.8920,-75.1695,-108.1922,-117.8094
-2992.1875,440.3962,396.3156,281.8341,81.0462,99.5908,-236.1956,-79.5035,-236.4588,-180.2702,-230.2678,-83.7502,103.9786,-1.8114,-43.0950,-118.1979,-114.8317,179.7719,-151.2389,-79.2061,-159.1462
-2984.3750,508.7831,464.9144,280.1663,114.5941,-12.7343,-200.4815,-7.6133,-163.6674,-149.9095,-231.7087,-122.4247,138.6408,-3.3875,-80.4192,-119.7160,-153.0723,196.8116,-188.4648,-10.3668,-160.6258
-2976.5625,457.1516,448.5224,189.4891,133.1428,-66.0628,-179.7700,-23.7251,-216.8763,-134.0744,-174.1432,-66.1003,159.3147,-19.9751,-96.7312,-99.2464,-169.3031,161.7879,-133.6847,-61.5340,-177.1001
-2968.7500,484.5215,441.1296,257.8200,125.6901,39.6226,-148.0555,-101.8565,-258.0873,-166.2388,-215.5807,-33.7746,117.9868,85.4398,-139.0443,-67.7717,-210.5340,178.3603,-176.9080,-68.7062,-255.5747
-2960.9375,427.7331,419.5792,198.9944,140.0945,-18.8542,-133.4869,96.8740,-206.4461,-118.9038,-201.1627,-93.6043,95.5035,99.7003,-160.5040,-90.4411,-158.9178,160.3201,-162.2804,-125.0250,-241.1949
-2953.1250,448.9901,405.0786,331.2244,125.5485,76.7260,-147.8719,-64.3606,-183.7600,-161.1481,-142.6923,38.6225,8.0648,85.0071,-138.9178,-142.0580,-173.2547,205.2861,-176.6094,-174.2944,-255.7642
-2945.3125,445.1956,332.5269,326.4017,157.9516,-0.7493,-78.3111,-105.6420,-41.1259,-102.5391,0.7224,-39.2097,40.5776,44.2597,-142.3828,-145.7190,-140.6337,221.1066,-108.9955,-141.6039,-223.3794
-2937.5000,213.1934,240.7753,193.3695,172.1511,-97.4368,47.0463,-127.1191,47.3071,-66.7418,124.9440,-62.2423,17.9003,-15.6987,-55.0366,-205.5849,-53.2037,164.1304,11.4120,-127.1171,-209.1855
-2929.6875,120.4437,113.2720,133.5927,78.5956,28.1313,60.6571,-186.3664,97.9878,-36.7594,102.4181,-48.0140,-41.5219,-1.4068,-114.4379,-81.1950,-75.5235,88.3278,-10.9421,-43.3854,-231.7410
-2921.8750,50.7416,43.8197,55.8581,9.0914,-13.2617,94.3159,104.4414,167.7226,46.5164,61.9434,-125.7416,-81.8946,-6.0700,-117.7843,-47.7506,-41.7947,32.9462,-45.2407,-7.5992,-125.2397
-2914.0625,24.7334,-16.9397,63.8239,-15.7231,32.0492,28.6689,-34.0613,103.1498,14.7956,70.1741,-6.7670,-110.5718,2.9660,-35.4298,-2.6015,39.6327,10.4817,-69.8413,-32.1087,-80.0391
-2906.2500,47.0208,-65.4009,48.0917,6.7610,16.6699,13.3253,-13.2572,86.8787,34.5849,54.6965,-60.5117,-52.9521,-13.7007,-14.7805,54.8540,61.3563,4.1966,-152.1425,-9.3123,-22.5375
-2898.4375,-56.1480,-27.3123,-62.0943,114.7994,-128.1678,51.5406,25.1048,52.1609,38.4596,92.7623,-95.7046,22.2195,-49.8263,97.4263,18.8519,99.6315,-7.0128,-149.8963,-76.9730,15.5243
-2890.6250,-75.2147,-81.1310,-46.1715,95.9315,-39.8935,104.8543,-141.4592,-5.4644,-10.1913,34.9263,-6.7788,1.4901,3.1522,113.7420,71.9469,79.0090,-9.6110,-133.5558,-60.5368,31.6898
