Time,Fp1,Fp2,F3,F4,C3,C4,P3,P4,O1,O2,F7,F8,T7,T8,P7,P8,Fz,Cz,Pz,ref
-4000.0000,-22.2957,17.7984,-39.7585,-62.2201,47.0682,-14.3864,33.2533,7.6581,35.5342,16.9047,-24.8059,-18.3217,3.5393,-15.8649,14.0428,-34.2416,-36.7831,-27.8049,51.2122,11.4482
-3992.1875,-26.5476,-20.6003,-44.3046,-31.1463,6.9502,-18.5634,29.8892,-12.3005,-4.7940,13.2625,44.9726,-28.6961,36.3899,-19.9729,47.4134,-38.6230,-41.2647,-32.1790,13.1305,7.9314
-3984.3750,-10.1981,-39.3943,7.7591,18.5262,61.4341,-2.1391,10.1216,20.7808,-97.5294,-6.7774,-84.6537,-0.7458,1.4938,-3.4847,27.3816,13.5964,9.8552,-15.9508,30.6498,25.0168
-3976.5625,-2.8964,-30.2408,16.7712,-9.8519,34.8620,-29.7669,-53.6997,-32.7938,-51.3182,-33.8608,107.6813,-34.4790,65.8444,-31.0537,37.3016,-14.2447,52.9162,-8.7698,-30.8872,-1.9418
-3968.7500,42.1443,-56.3344,62.5262,33.5217,8.0397,-20.6409,-43.7767,-30.4945,-78.3547,-24.1855,42.7563,-7.4420,29.2367,15.1260,9.9715,-5.3365,131.7314,-34.8376,-56.6752,7.8538
-3960.9375,67.4402,-65.1781,126.5333,94.1484,36.4720,6.7287,-89.6084,-45.7521,-123.1455,-70.2659,107.0802,17.1120,42.6966,42.5631,-36.1076,58.8300,121.7946,-44.6606,-135.2170,-1.0993
-3953.1250,88.4882,-7.2713,73.2893,43.5178,-52.3523,-45.1576,-103.6905,-75.6046,-65.1825,-84.6017,164.1695,10.3515,47.3764,63.7508,22.5647,79.7519,36.6028,-93.7342,-147.0125,20.6995
-3945.3125,82.4867,57.5840,65.0001,36.8468,-59.2279,-16.0903,-37.8254,-34.2993,-71.2797,-18.9872,9.1985,44.3828,-25.4329,55.8910,-21.8176,34.6234,30.3617,-99.8527,-82.8635,50.4555
-3937.5000,67.0868,43.0423,12.3095,-13.2277,-145.5076,-31.4255,-15.3695,-50.0350,-12.7820,3.2251,141.8424,-8.3976,24.2763,3.6274,37.4007,-16.9041,-20.2811,-115.3722,-62.1157,35.8124
-3929.6875,41.6767,19.5251,22.6132,-39.3140,-133.7921,-20.7677,33.0839,-6.6206,35.7175,14.4383,4.4731,-23.4760,-13.7094,-21.6253,48.6149,29.5767,-9.9263,-104.8970,-15.3624,47.1694
-3921.8750,34.3572,-57.8776,15.0118,22.7039,-67.9693,7.9875,26.6394,3.1777,29.3118,7.7493,-2.8086,-10.1123,-10.7754,7.2223,4.9256,22.1630,17.5234,-41.3188,-21.5066,40.6269
-3914.0625,0.1876,-91.1366,15.5574,-11.1221,-102.0071,-63.1041,28.3446,-16.9179,31.0599,-27.7941,109.0720,-44.1912,37.4552,8.2181,43.3843,59.8948,-16.8802,-40.5856,-19.5078,42.2405
-3906.2500,-33.0303,87.5423,17.0516,-9.9860,-63.1002,-61.2405,30.9973,-24.1557,-3.2479,-61.3826,-0.1062,36.9083,-16.8434,47.1677,8.7852,61.5858,19.6760,-74.9027,-16.5609,44.8119
-3898.4375,-22.6428,168.8085,-8.8471,-36.2450,-87.5946,-50.7792,5.2401,-65.7581,8.0384,-123.3736,47.3263,28.7818,10.9628,-15.2823,56.7859,-1.1215,-5.1653,-64.6165,-40.0196,55.9796
-3890.6250,-40.7487,81.5923,-30.2417,-20.0090,-107.5935,-35.8192,20.9811,-24.2301,97.8194,-107.8739,-83.7332,22.1152,-32.5524,0.7688,72.2796,14.6741,-58.5067,-12.8333,13.0128,108.6482
-3882.8125,-121.0131,1.2622,-115.7820,4.0793,-44.7433,-11.0145,83.5584,32.5085,86.4371,-8.5264,-205.9504,12.5543,-46.0318,-11.3251,97.6196,2.3264,-103.9947,47.8042,73.8858,134.1634
-3875.0000,-124.0323,0.1927,-158.0757,-69.5798,-48.6483,-52.9574,116.3795,-10.2156,193.3027,-12.9309,-99.9097,-34.5535,-12.4907,-53.1718,93.2100,-39.7724,-143.2327,43.6963,36.9993,166.9288
-3867.1875,-183.7932,46.3589,-182.1093,-58.9772,-34.3030,-39.6501,56.4498,68.1659,133.4100,36.9140,-197.6252,31.3661,-97.7399,70.2341,-1.9518,119.3795,-96.2113,55.8410,84.3621,143.9460
-3859.3750,-66.4500,-11.3900,-96.0407,-13.2704,-56.8620,-26.2387,-2.3890,48.7655,73.6123,49.8578,-74.2314,13.4534,-72.7280,46.7425,-62.0162,95.6356,-50.0921,66.0954,26.8198,121.0603
-3851.5625,-67.1087,-151.1420,-59.9722,-14.5615,-56.4280,10.1742,-2.2319,73.7448,73.8109,49.8060,-0.8309,-41.1940,-26.5139,10.2508,-62.0857,22.8935,20.0263,65.3499,98.2737,121.1731
-3843.7500,-123.8158,-65.9401,-44.9503,-1.8855,-5.0435,24.5423,12.8708,85.1090,15.9474,65.7121,-169.4894,-3.0103,-66.8663,-11.2914,-46.2108,37.1030,32.0974,149.5507,77.6731,100.2339
-3835.9375,-121.0634,77.7230,-112.4748,-69.7646,-34.2207,30.3580,20.4148,29.3236,-13.4706,36.0683,-17.6837,10.8241,-31.6940,-6.3802,-40.8878,5.7679,-35.3858,152.1979,11.5108,33.7461
-3828.1250,-52.6180,7.1033,-76.3008,33.0574,4.2967,67.8698,-15.3474,48.7246,-86.1948,37.1271,-54.1885,35.0644,-49.2817,31.2409,-76.8682,80.1448,-2.1675,115.5438,-23.9466,-2.0418
-3820.3125,25.2687,-20.0659,40.3237,75.3362,12.2603,37.8375,-44.6642,-7.3739,-114.4733,-29.3594,63.7519,20.9134,9.4835,1.3120,-69.4003,49.9739,75.4969,52.3440,-86.9581,5.6221
-3812.5000,34.6576,25.2537,14.4446,84.1145,-12.2879,49.3032,-106.4819,-20.1948,-139.2525,-17.3454,75.2030,39.4883,-9.2592,12.8830,-94.4342,24.3091,119.6610,61.6448,-111.4742,-19.2128
-3804.6875,64.7458,56.2813,84.2707,113.6006,21.8604,82.4678,-145.6035,19.9805,-214.3355,17.3661,-38.6540,94.3454,-76.4620,83.1586,-169.7690,94.3475,114.5259,91.6509,-115.2939,-58.3456
-3796.8750,57.2364,50.7121,78.4973,35.4903,17.4041,40.0303,-113.3262,-14.7646,-147.0194,-24.5337,139.8996,36.1326,13.0003,40.8341,-101.7020,51.7880,71.7906,49.0614,-85.7222,-100.0775
-3789.0625,30.4184,-11.1651,86.4211,8.0874,26.6397,12.2993,-30.3574,12.3742,-64.0078,20.2672,37.1448,8.3322,8.3493,49.2216,-18.9364,96.9431,44.7629,-47.8156,-41.4514,-91.1120
-3781.2500,64.9019,-10.7481,85.6526,41.9987,27.1735,11.8698,-30.0942,-25.6068,-26.7017,-15.6323,73.6882,14.3548,32.9609,48.9085,17.1265,59.4039,9.0382,-84.3885,-75.8862,-90.8504
-3773.4375,138.7939,-41.9376,86.2877,44.3162,-43.8988,-24.1587,-28.4335,-100.5350,12.0061,-125.1328,185.6487,-27.9693,98.0275,-23.0139,92.5901,-49.7457,46.7160,-46.5539,-107.9276,-52.1937
-3765.6250,100.2889,-43.5097,155.5282,111.2423,26.6244,-28.5805,4.8225,-59.9678,-28.7023,-92.0326,34.1932,8.0927,56.1560,-27.3281,52.6406,-17.2847,113.9947,-49.1175,-74.3811,-18.9362
-3757.8125,83.0763,-24.7528,101.0669,58.4700,-26.5605,-8.7024,-48.6412,-71.3364,-45.1264,2.3652,201.0456,-9.6558,70.0182,-7.3335,-1.0178,2.4840,26.5786,-31.3746,-160.5463,-35.3815
-3750.0000,212.4165,-35.4510,124.1607,46.2597,-39.2086,51.7281,-98.5643,-31.5419,-95.0060,26.3171,150.4467,-5.1387,23.1291,16.2148,-51.1327,25.8129,14.7168,-78.0799,-136.1670,-11.2732
-3742.1875,157.4546,-54.4596,139.9622,25.7642,-22.1635,-6.1360,-81.7943,-51.1055,-114.1962,-31.0281,56.5455,-20.7026,36.8718,-4.5304,39.4488,4.8511,30.5584,-27.0809,-119.0905,5.5375
-3734.3750,31.3455,-39.6166,43.6156,4.1200,-7.2818,-65.1508,6.8203,-78.4403,-26.5340,-53.5343,70.5090,-35.0202,79.2522,-27.4294,126.8898,-18.2616,8.2548,-13.2297,-104.1695,20.1980
-3726.5625,-14.2592,56.7293,71.7761,28.9862,22.0918,-37.6648,-1.0689,-43.4211,-71.3755,-24.5385,-12.0383,25.6315,22.8680,1.1773,45.8304,10.1341,68.4575,12.1214,-78.7561,-24.6441
-3718.7500,63.3978,171.3279,80.1936,1.1128,-4.2893,-27.9323,-64.7202,-80.7946,-60.9710,-88.2910,107.6763,22.1842,41.3370,-62.9648,19.0123,-17.2160,5.9091,19.7258,-105.1082,-51.2355
-3710.9375,75.0634,7.9251,53.6146,47.2462,6.3213,-18.1991,19.6204,-38.7534,23.4218,-78.0455,81.3994,-14.4907,55.4050,-89.1014,29.1855,-80.5577,-18.6329,31.3339,13.5280,-3.8261
-3703.1250,31.7813,-210.4204,43.0946,73.4454,33.9709,45.5903,46.9966,14.8525,50.8464,-50.7504,-2.8330,-63.2148,65.1193,-98.1811,56.4016,-126.8394,43.8828,128.0007,76.2072,23.6276
-3695.3125,-8.3496,-178.6137,38.7323,32.8018,-6.2381,4.5308,80.5147,-20.5903,84.4169,-90.3111,104.1011,-84.2947,83.7304,-139.1131,15.7630,-130.9705,39.5515,158.8250,38.0281,20.2279
-3687.5000,-55.5856,91.0924,-7.7288,55.0705,21.4492,32.3774,-2.0665,22.5854,-35.1194,-25.9687,-53.0783,60.5920,-35.2587,-2.1423,-66.9753,5.8043,61.1282,146.5544,25.7457,-62.2740
-3679.6875,-16.4193,237.1976,34.2150,93.7515,-8.4636,37.6263,-69.2548,-14.0777,-65.2628,-19.2311,26.1440,106.0818,-62.1728,-32.7690,-171.3134,-25.0154,30.1093,115.6889,-39.1512,-92.3749
-3671.8750,8.1544,121.6918,22.5653,47.8352,-18.9905,26.2748,-44.0527,12.4994,-3.0082,-31.0933,14.7695,47.2861,-55.7765,-44.9881,-146.2501,-0.4204,19.4961,69.2262,21.3420,-67.0733
-3664.0625,73.6241,-22.9109,88.8219,77.8249,48.3720,19.8269,-49.9605,-21.2180,-8.8670,-74.0551,45.2903,5.2133,11.0467,-51.2917,-78.2930,-43.9106,84.7885,29.6695,-17.2674,-35.8773
-3656.2500,193.3972,-79.2029,176.3812,56.1206,27.0238,-40.3212,-72.5742,-131.4640,-31.4278,-132.7205,243.1296,-59.7583,107.9126,-110.2990,-27.0382,-103.1053,133.3828,8.4154,-177.5868,-21.3870
-3648.4375,182.0267,-54.6540,199.7998,149.2790,-22.4786,-16.6167,-121.3412,-125.1408,-81.1417,-108.5367,155.8130,-7.8887,60.7386,-86.4575,-39.9330,-79.4441,192.8356,32.0131,-224.0562,2.9540
-3640.6250,194.5075,99.7413,212.0761,161.2985,-46.1293,-41.0575,-218.2670,-145.5445,-177.0143,-95.5094,168.3467,55.1142,31.0401,-37.7615,-63.9832,-30.9213,134.1382,8.4644,-280.6844,16.1478
-3632.8125,170.3813,217.5286,150.7480,101.7214,-69.3980,-65.0938,-241.8021,-153.2168,-200.4920,-83.0776,181.2801,84.9159,1.2569,12.3506,-87.6390,19.0170,74.8473,20.3265,-303.9145,-7.2601
-3625.0000,163.0594,211.1038,180.2275,128.9550,-1.8691,-35.3215,-211.5384,-115.0087,-244.1826,-89.8370,64.0016,104.5485,-18.7227,5.2674,-94.5004,11.7631,102.3668,47.9919,-240.3465,-13.8734
-3617.1875,212.7507,156.6754,159.7198,73.1972,-58.3450,-55.5466,-194.2821,-146.4883,-153.8806,-109.5975,263.7437,9.8220,72.7577,-124.8253,-40.3657,-118.4969,116.8909,62.6622,-188.7899,-33.4908
-3609.3750,195.6453,69.4441,177.4183,125.6451,-39.6287,-37.5722,-139.8285,-87.6076,-135.3813,-54.1624,134.6879,29.1079,27.5664,-70.7152,-59.0304,-64.5508,99.6244,45.5382,-136.0327,-14.9116
-3601.5625,96.6891,-27.6369,112.2730,168.2523,-66.7625,8.5518,-167.2236,-34.6115,-126.7348,-44.5816,69.7768,41.2363,9.7940,12.5439,-12.5402,18.5475,71.5097,52.5733,-93.1324,-42.1898
-3593.7500,15.1842,-3.2732,27.5782,120.3170,-77.4560,-2.8688,-105.1691,-51.9746,-63.6310,-55.5493,22.3273,28.6502,9.2397,1.2459,49.3990,7.0920,59.8450,41.0659,-103.7907,-53.0237
-3585.9375,-38.7662,83.6268,6.4406,100.9498,-23.6025,13.2690,-51.5698,-17.8724,-46.9902,-1.9626,-109.5845,57.4643,-34.6665,-19.4909,29.8784,-13.7990,40.7335,57.1155,-50.9008,-36.3067
-3578.1250,-28.5667,24.6733,16.4561,40.7389,-49.6099,23.5572,-40.8337,-33.4801,-36.2050,-28.2295,11.6680,7.0728,16.3066,-46.0705,40.5055,-77.5295,15.7782,67.3290,-39.8671,-25.4469
-3570.3125,1.9887,-119.9244,9.8307,70.8866,-55.2802,54.1981,27.2531,33.0007,-5.0731,2.8520,-31.7322,-12.2964,-8.4995,-15.3024,-2.5212,-9.9091,46.1814,27.8974,26.5127,5.7578
-3562.5000,-40.1493,-91.2232,-32.4851,28.3472,-59.6549,12.1462,22.6336,72.5279,-9.6477,71.2366,-110.8347,3.5355,-56.6635,53.7636,-7.2475,95.0126,3.8900,55.7712,55.1856,-35.7424
-3554.6875,-138.8850,57.8611,-97.3956,-34.7838,-86.6388,21.4928,68.4029,61.6427,110.1781,81.0194,-101.5210,19.9373,-55.1001,26.2306,38.4261,31.3386,-94.9927,28.0499,99.2510,-62.8444
-3546.8750,-235.7696,-4.2046,-162.4482,-28.0500,-39.7790,66.6987,115.0219,137.6934,156.8419,164.6494,-275.3690,30.1436,-107.4442,71.5554,47.9447,76.5256,-123.0143,35.1858,177.1614,-90.1032
-3539.0625,-189.7484,-167.3692,-150.5914,-16.4041,-64.0282,115.8076,127.5341,141.0960,169.3948,177.1739,-190.3046,-29.8833,-65.1014,46.7812,60.3595,51.6169,-146.1234,12.2301,154.9642,-77.4718
-3531.2500,-182.8618,-194.6961,-179.8696,-44.8979,-93.4346,122.7709,134.8913,168.6880,212.7923,220.5483,-183.3757,-61.7938,-68.2763,17.8559,67.6144,58.5603,-139.3717,-15.8766,197.6076,-69.9946
-3523.4375,-209.6145,-80.6830,-172.7838,-38.0289,-48.4917,56.0877,105.5886,150.6550,184.5256,192.2756,-249.0990,-19.0152,-84.6076,25.2859,75.2120,65.8623,-97.2565,26.3719,205.5943,-62.1731
-3515.6250,-213.5116,-83.8165,-176.8393,-42.3020,-88.7047,52.2564,102.1282,135.3645,144.1047,151.8461,-106.9566,-14.7121,-57.0232,57.5617,34.6546,62.0134,-136.2865,22.4779,202.4190,-65.5049
-3507.8125,-214.1587,-153.6990,-175.6382,27.6880,-48.6757,128.6788,104.9122,193.8805,72.9238,117.6656,-214.5737,27.2699,-108.9890,134.0969,-35.6558,138.4270,-65.0562,22.8430,239.4910,-99.5923
-3500.0000,-159.2016,8.0089,-118.8335,47.2918,-28.0577,74.7058,88.2835,100.1203,19.3377,64.0888,-121.5842,74.6606,-95.9843,117.2383,-89.3645,84.4500,-80.2186,-27.1896,119.1572,-79.0885
-3492.1875,-151.4366,86.5066,-149.2178,-51.2983,-58.6473,44.5369,57.4574,101.9163,26.5537,107.3114,-151.7845,73.1268,-134.2672,160.1776,-83.2758,201.2742,-177.5739,-55.4203,56.6175,-35.7901
-3484.3750,-229.7623,-26.1011,-195.6900,11.0301,-68.3431,107.2773,11.5314,166.0652,16.6575,171.4306,-272.0928,98.4515,-158.5802,261.0199,-19.2924,265.0005,-187.0170,7.2522,83.9695,-8.5923
-3476.5625,-171.8321,-178.4601,-208.9033,-2.3837,-80.8027,94.2696,35.8403,139.5309,114.0036,158.8006,-102.1316,-0.2874,-63.8544,174.1074,41.9363,177.9791,-130.2010,-41.8183,106.5599,-21.1446
-3468.7500,-152.2503,-88.1753,-114.4622,-53.1329,-20.6188,43.9174,57.7915,149.7308,136.9914,144.8249,-152.5246,9.2390,-74.4210,159.8515,27.8096,200.6133,-74.7229,-91.2285,163.7991,-35.0553
-3460.9375,-130.0066,5.7522,-90.3597,-66.2225,4.2118,31.2196,45.3880,90.0850,87.6200,95.4988,-92.2687,31.7026,-65.5090,147.2511,-21.6695,150.9100,-51.5909,-68.9872,80.6863,-47.3256
-3453.1250,-44.7071,-49.2764,-39.2023,-52.2621,-54.9213,8.5736,24.0353,50.7939,65.3024,37.2233,33.0489,-8.4982,-29.4499,87.7035,-44.0958,91.2626,-2.4038,-89.6969,60.6193,-32.5542
-3445.3125,25.4870,-13.4078,70.8633,53.6051,-54.1529,8.8369,-49.4170,42.5739,-44.1153,0.8521,-40.7494,67.8898,-85.9212,162.0583,-117.6234,165.5206,67.6847,-124.5040,-8.5445,-31.8840
-3437.5000,77.3300,39.0861,89.5765,35.1261,-145.7439,-9.2435,-141.2218,-19.7419,-61.8823,-53.8641,125.1142,56.0852,-44.4390,144.0584,-98.4936,147.4307,84.4251,-72.6471,-97.0618,-49.5681
-3429.6875,146.1830,107.5625,122.2988,67.6546,-112.3401,23.6823,-108.0248,-13.3208,-138.6522,-57.5791,10.9744,91.2337,-85.2824,103.0614,-138.3641,106.3429,82.1787,-39.7832,-98.5784,-16.2564
-3421.8750,93.1965,232.1862,103.1844,85.3481,-56.7872,4.7610,-161.6834,-52.3659,-193.2784,-76.1500,65.9893,121.1726,-57.9862,48.2178,-156.0841,14.4113,65.0884,49.2303,-114.9553,2.1974
-3414.0625,31.6105,171.2080,38.4731,58.4429,-84.8532,13.2398,-152.9461,-34.1259,-147.5018,-67.3221,74.4179,91.1874,-46.9372,56.7787,-111.4063,59.8871,38.4018,57.6518,-105.9337,11.0446
-3406.2500,-28.9768,110.2225,12.7666,67.5555,-35.9209,24.7283,-69.2072,48.2679,-172.7242,18.5102,-135.1770,117.9486,-108.1946,141.3418,-100.7291,144.3717,47.7206,67.0869,-24.9116,-14.1133
-3398.4375,9.8355,79.6156,18.4621,36.0721,-66.5850,30.6199,-26.0612,-14.3827,-94.5442,-12.2632,53.6449,52.5322,-18.6875,37.2967,-57.6430,3.2472,16.4497,70.9291,-55.4953,-44.8789
-3390.6250,90.1098,20.4530,63.6187,81.0440,-57.8017,38.9621,-17.4683,-32.1097,-48.9141,-3.5915,62.9192,28.3696,-13.1277,-28.2978,-86.1124,-62.4240,26.6366,46.2186,-80.6297,0.7990
-3382.8125,81.8819,-23.2036,90.2795,107.5250,-30.5238,28.8094,-100.3812,12.6312,-94.7946,60.5842,15.6851,32.7569,-45.0837,-1.3870,-131.0822,1.4128,18.3358,38.0168,-53.2602,27.9633
-3375.0000,44.5485,10.0313,11.8447,69.9119,-34.3549,-12.4377,-67.3919,2.6843,-25.7620,19.6601,48.3622,26.9654,-26.4298,-5.5822,-98.1483,-38.8538,-20.0597,34.7167,15.0063,61.0182
-3367.1875,-4.4721,33.5389,-38.2785,91.6119,27.1124,11.6202,-7.0966,38.6671,-74.4319,7.0397,-110.6693,64.1461,-74.2482,18.5274,-110.9109,21.1870,1.8536,57.7141,38.5735,48.3707
-3359.3750,22.4151,164.9321,-10.4914,47.2160,18.4729,-34.4183,-15.9083,-37.5741,-119.2059,-74.6864,-10.7877,70.2487,-45.0139,-27.4636,-119.7754,-60.8662,-7.3256,12.6224,-5.9674,39.6194
-3351.5625,-31.8887,183.1229,-28.8966,-7.3750,0.6238,-52.6522,3.0782,-14.5304,-101.1825,-56.6130,-29.0993,64.6456,-51.6901,-8.6580,-101.8404,-43.1243,10.3039,30.3352,47.2887,21.6655
-3343.7500,-44.8854,170.6059,-4.9922,15.3484,62.0715,-28.5792,-9.6424,-11.4948,-149.8710,-69.2382,-42.1137,91.3379,-34.0743,52.4541,-78.6116,17.9267,-2.7561,87.3580,-0.1637,9.0034
-3335.9375,9.4713,83.4342,-21.7284,68.4319,8.8577,-45.1537,-26.0208,-60.1145,-94.2103,-121.5124,125.2342,43.5981,40.2372,-1.0817,-21.0355,1.3360,-19.4594,70.7293,-52.2749,-7.3136
-3328.1250,-1.6159,-32.1892,4.0937,127.0785,35.1856,-19.1689,0.1503,-16.5941,-105.0129,-132.2402,-32.8758,44.4169,23.5275,24.9377,42.0833,27.3029,39.4042,59.6592,8.1617,-18.0862
-3320.3125,10.5094,-159.6304,53.1310,103.9405,83.7156,-6.9798,12.5196,-26.1698,-55.6220,-83.7732,-20.7756,-13.0831,67.3544,0.1490,90.3973,-34.5358,16.4765,36.7966,-14.2086,-5.6620
-3312.5000,8.0900,-197.6433,13.6219,-3.7429,81.6905,-46.3364,47.3377,-14.8654,53.2201,-48.8612,13.7892,-71.9865,83.6805,-2.1858,125.1645,0.0777,-20.9926,-0.6087,18.8680,-7.7944
-3304.6875,8.0218,-161.2950,50.4698,-4.0725,119.0098,-9.3429,83.5042,5.1392,16.4058,-11.6008,-23.3130,-52.3067,68.5153,-2.1594,88.2849,0.0547,13.8967,-36.6643,19.2950,-7.5840
-3296.8750,69.1067,-135.7907,77.4690,-13.2427,73.4720,-18.1936,38.8135,-60.3477,7.7407,-57.1903,151.7507,-69.9949,109.8808,-47.9892,43.5603,-82.8225,39.9351,25.4313,-60.1404,-16.2289
-3289.0625,103.8943,-65.6143,76.1765,91.2998,35.6264,16.6688,-0.1732,-41.7342,-31.2253,-95.0760,39.5106,11.3498,27.7865,-13.1182,-32.4633,-48.0006,39.6871,60.2315,-59.8737,18.8245
-3281.2500,92.6903,-41.4564,64.8946,79.8570,24.7753,5.5389,-48.1652,-56.6909,-5.1979,-141.9598,65.2726,18.5890,35.7848,12.7520,-6.4877,-22.1737,-6.5528,84.0381,-70.6139,7.8744
-3273.4375,51.8444,-81.9420,21.9650,3.7671,19.2645,-0.2417,20.1871,-40.3068,63.1764,-111.4882,59.4021,-49.4983,64.7750,-67.0255,61.8290,-64.9923,22.5649,43.2042,-5.0154,2.2666
-3265.6250,33.2559,-30.1824,75.2989,19.9406,109.0053,16.2343,36.7835,-21.7065,5.7858,-58.7654,-35.2287,-9.5623,31.0463,-50.5469,4.3940,-48.5531,38.9437,24.6257,-24.1711,18.9007
-3257.8125,53.2167,-79.8936,23.1876,-66.3235,94.2892,-35.7342,21.9305,-63.1404,27.9483,-36.5005,133.7027,-63.9247,88.8027,-28.5174,26.5183,-63.5611,-11.1214,44.6051,-73.7858,4.0755
-3250.0000,73.0303,-94.7566,42.9310,-46.7323,114.4202,-15.8469,41.9326,-6.4040,10.9606,20.6106,6.4808,-34.6219,36.4707,28.3594,9.4982,-6.7200,-27.3262,-6.5685,-18.5516,24.0951
-3242.1875,76.9020,-55.5740,11.7344,-43.0812,83.5998,-9.9067,10.9834,-26.6047,-19.9760,63.7690,49.3106,-42.5635,54.8409,-2.7193,52.5313,-0.8327,-22.4697,-1.6904,-84.2676,-6.8431
-3234.3750,102.2330,-64.9706,36.9953,-52.9725,36.2217,-21.5120,-0.5116,-31.1756,-31.4558,89.3721,110.6056,-57.0527,63.8152,-14.3523,41.0191,-12.4979,-33.1578,-12.3555,-93.5359,18.6624
-3226.5625,41.1232,-90.8243,45.8131,-9.3065,45.3934,24.4365,-28.4527,30.3172,-95.3909,98.5273,-27.5581,-10.6891,3.8519,68.5678,13.0537,70.3915,11.7128,-38.4755,-49.2528,27.7152
-3218.7500,35.4632,-96.2297,40.0860,-50.1853,3.0092,-18.1631,-33.9494,-2.5789,-64.8754,93.1325,113.7450,-53.4825,58.7947,25.9311,44.5370,27.7258,6.0366,-44.1412,-54.5239,22.2132
-3210.9375,33.5087,-97.9534,38.0657,-52.3533,1.3212,16.9410,1.2579,-2.1346,7.3390,54.4358,38.7473,-50.8659,59.0769,23.9973,115.7209,-11.2316,4.0729,-81.1046,-21.0973,20.4087
-3203.1250,12.0047,-13.2242,16.4975,-3.0619,17.0786,-4.4981,16.9110,-31.7863,-14.0064,-3.8098,-19.8175,-23.7869,51.3735,-34.4687,131.3547,-32.7237,52.5704,-32.6132,-42.2242,-0.9571
-3195.3125,20.8546,-4.1384,25.2846,-65.4150,-10.8230,-32.5812,25.9091,-55.2713,68.9956,-31.7051,98.9806,-72.8488,92.6694,-98.5871,140.3298,-60.8667,26.4251,-58.7712,-33.0087,8.0230
-3187.5000,9.8182,-85.9656,14.1795,-5.6528,52.3729,-6.5556,15.0050,9.4209,58.0898,68.4987,-22.1171,-47.7647,29.1994,-36.6089,56.3992,2.0842,50.3934,-34.8261,-7.6907,-2.9020
-3179.6875,47.6992,-116.9174,51.9896,-3.9831,53.4661,31.3705,-21.0018,-13.4058,22.0797,69.6012,89.7049,-70.5228,63.6179,-71.7387,20.3739,-34.0717,18.2749,-31.9785,-75.4781,35.0674
-3171.8750,49.1312,-80.3343,14.3553,-2.7577,-20.8951,30.8491,-57.4513,8.8802,21.6251,69.2505,52.0792,-48.0726,23.2033,-35.3166,19.9022,2.3293,54.7103,-64.5802,-38.7151,71.5835
-3164.0625,38.5670,14.2365,39.7299,-46.5274,-31.2611,-16.6665,-67.9016,9.4767,10.1680,57.8960,-32.5526,-21.9392,-8.2903,-9.8855,45.4337,27.7406,44.1565,-75.1819,-12.9485,97.0919
-3156.2500,73.8130,-126.3910,1.9124,-118.4933,-67.8332,-53.3816,-32.5540,-17.4765,83.5111,57.3363,150.6358,-120.9694,83.0993,-46.6580,118.7635,-9.0506,8.4087,-75.9848,-13.3943,96.3954
-3148.4375,55.9611,-249.1285,20.0015,-135.5451,-49.5084,-35.1934,21.6906,59.9649,64.7495,112.6781,-15.2838,-133.2049,41.6507,7.4726,136.9906,45.0622,-8.4229,-57.8824,75.0578,114.5970
-3140.6250,2.8227,-91.1793,-34.1945,-153.8826,-67.4822,-17.3014,3.6288,43.1337,83.6836,131.7142,-33.4915,-90.3273,-1.4899,-10.7050,81.9154,-9.1362,-26.5453,-40.0707,57.2042,96.4934
-3132.8125,-20.3568,61.6982,-57.4339,-142.2714,-54.5092,-4.4604,17.5252,11.7866,97.5744,108.6973,-20.7379,-55.1272,-5.5311,-69.9378,58.7987,-68.3889,-14.7020,-29.3081,34.3014,73.3299
-3125.0000,-20.1309,25.9653,-21.2630,-2.2506,55.8648,32.7874,17.8225,-1.0569,23.8564,72.0778,-92.5922,-6.2862,-7.1016,-69.7718,22.0871,-68.2380,-14.4464,40.8592,-35.2004,73.5569
-3117.1875,-87.6956,27.4221,-91.8813,-36.0311,-16.5599,71.2344,-17.6791,7.5759,25.3378,73.6517,-19.2192,-20.6339,13.6353,-68.4146,60.5769,-66.8953,-81.9822,113.2276,-33.5121,74.9744
-3109.3750,-137.9590,49.1720,-143.1937,-50.5100,6.3121,93.9834,5.1273,89.9350,11.1175,169.5260,-179.5584,14.1251,-67.8597,-10.7516,9.3674,-9.2459,-96.2062,133.8963,58.4840,60.6856
-3101.5625,-92.0194,-150.8792,-128.2983,-3.7857,59.3868,109.9363,22.1362,120.9052,64.1015,186.5985,-127.7041,-54.1949,-25.9211,-67.8886,-10.6435,-66.3998,-15.2279,180.7672,140.6825,-33.4075
-3093.7500,-31.0270,-160.8964,-97.3532,-84.0122,90.5103,66.9429,126.1972,105.6170,132.1435,106.7230,-23.7873,-107.0083,35.1153,-110.9836,19.3981,-109.5073,9.8062,65.6939,236.9333,-113.4549
-3085.9375,-37.4736,44.6097,-28.8499,-125.6815,196.1872,25.5037,157.8152,73.5224,163.7329,65.4001,-175.3224,-51.2712,5.1280,-115.5242,51.9890,-114.0638,39.4004,-11.8269,230.7372,-154.9598
-3078.1250,-54.5710,27.4574,-47.9927,-143.0018,140.2136,6.4145,175.7899,15.5194,181.6769,9.4219,-10.4982,-78.3132,63.9458,-134.7185,69.9406,-170.2696,22.3505,-28.9994,177.8936,-137.1262
-3070.3125,-49.8590,-73.8930,-8.3329,-103.5240,107.0383,46.1277,178.5741,53.2970,184.4284,49.2407,-117.8815,-63.3290,7.1878,-58.1100,35.6980,-93.6761,62.1090,-59.3784,147.8479,-97.4976
-3062.5000,-38.3380,-27.4491,-31.8634,-92.2342,120.6647,22.6427,82.1596,53.0267,87.9792,99.8522,-31.4534,-40.0838,2.2019,-8.7071,-24.7432,-7.2877,38.6792,-47.9571,89.5995,-121.0745
-3054.6875,75.1361,-20.0741,12.5597,-49.9842,54.2330,30.1074,15.6904,-15.1300,58.4847,70.4078,86.9418,-52.2168,25.6361,-74.3579,-53.2313,-109.9529,46.2089,-5.5804,-8.6999,-113.7051
-3046.8750,71.8120,-58.5153,46.1889,16.4784,125.0035,63.7819,49.4229,6.1055,18.1863,67.1641,-27.4702,-40.8922,14.9448,-114.8022,-56.5252,-150.4074,77.9433,25.9933,23.1984,-117.1404
-3039.0625,64.5479,75.0892,75.8709,-61.0067,80.8194,19.5091,42.2038,-72.2451,47.9344,-14.0324,113.1767,-63.5426,80.7007,-196.2008,9.2294,-230.8161,70.7326,18.6144,-18.8549,-124.5297
-3031.2500,51.5796,167.0055,60.8528,-39.1927,28.9314,4.5399,64.2919,-56.1674,69.9837,-27.9306,24.1179,-16.7503,35.8442,-174.3029,31.2874,-208.9279,21.8278,-29.4663,38.3947,-102.6219
-3023.4375,27.6039,72.9234,36.8350,-63.3679,42.0485,-19.4329,40.3803,-39.9760,83.0314,-88.8297,37.0541,-33.7324,56.0176,-87.3997,81.3537,-86.0345,33.9368,-18.5483,50.6441,-126.7239
-3015.6250,14.3925,24.5669,23.5749,-111.7901,-8.0876,-68.6558,101.2224,-64.6533,179.8345,-138.9842,97.7659,-57.5348,81.6190,-27.7496,141.1699,-26.3940,-15.1981,-101.8820,37.6393,-140.0821
-3007.8125,47.2452,-13.7537,19.3754,-79.1526,61.8302,-72.8260,97.1213,-28.6097,139.6847,-32.0949,-17.4742,-41.6125,36.9815,4.9467,101.0353,6.2927,-17.2704,-104.1681,34.6832,-107.3935
-3000.0000,145.9013,-91.2760,82.9834,-50.7083,51.5449,-83.1968,86.8202,-91.6698,129.3366,-116.4151,120.0960,-87.3844,100.3791,-78.5679,90.7086,-114.2314,-23.5329,-111.6523,-6.4772,-43.9070
-2992.1875,107.5171,-58.8588,42.5475,-89.3087,11.2014,-159.6157,82.4715,-93.7120,124.9428,-119.7925,115.6214,-99.8231,96.9390,-83.1371,123.3345,-81.8063,44.1629,-148.1896,26.3142,-11.4739
-2984.3750,52.0387,-8.5442,93.0180,-74.9961,62.7576,-145.1325,61.0175,-69.0383,102.4418,-141.2690,-16.9555,-63.5965,67.0773,-68.7989,137.8633,-30.4739,58.7669,-133.8264,40.9962,2.8523
-2976.5625,25.0711,69.2728,29.9956,-137.1770,-1.1933,-172.1504,70.0632,-96.3338,112.4461,-168.2556,102.9895,-79.4865,108.0304,-95.9641,184.8999,-57.6487,31.8803,-91.9727,49.1697,-24.3235
-2968.7500,-0.5426,113.4395,2.3308,-93.0008,8.2070,-126.8189,116.4666,-60.1468,84.8025,-158.8939,-34.7199,-20.9431,62.0792,-49.7742,194.2949,-48.4687,6.3572,-82.7747,93.6964,-15.1506
-2960.9375,-3.1373,5.6140,34.6779,-60.8212,3.6127,-94.4958,111.8704,-55.1657,81.1534,-126.5457,-2.4104,-45.1234,80.6373,-54.5906,189.6909,-53.2952,-32.1558,-85.5820,56.2152,17.0214
-2953.1250,-16.0675,-76.5505,-18.3182,-37.9966,-48.3387,-36.5285,96.9195,7.9930,65.1516,-105.5541,-18.4325,-38.2167,28.1115,3.2315,100.7367,41.5166,-9.0137,-97.7422,79.3788,74.8417
-2945.3125,-14.5510,28.7363,-17.8644,-1.7150,-47.8385,-36.1123,59.4187,29.4191,-44.4059,-69.1145,-128.0242,57.1389,-65.9907,113.5048,-9.7667,114.7794,-7.4192,-61.4544,44.9917,111.1113
-2937.5000,23.2090,102.2642,-50.1639,-68.1798,-117.0938,-68.4467,-9.8275,-5.3945,-40.7068,-64.4301,96.6424,17.7251,-18.8836,44.0302,-42.0145,45.2939,-4.5759,-23.9220,47.8506,78.6273
-2929.6875,46.8742,-16.3196,10.4374,-46.7401,-20.4542,-44.8814,14.8315,27.3342,-17.1044,-40.8464,47.2059,-33.6865,14.0772,-41.5419,-18.3563,-40.2854,18.1745,-36.4941,141.6103,66.0483
-2921.8750,-0.2459,-96.7279,36.2491,-23.0905,42.3864,-20.1144,40.6899,8.5336,45.6955,-52.0655,-1.0200,-60.6078,47.7409,-88.9131,44.4983,-124.6682,-27.8702,-12.8578,130.5611,54.6725
-2914.0625,-46.5615,-5.3635,-52.1352,-34.6334,-9.9748,1.4591,61.3489,16.6019,103.3018,-67.4903,-16.4340,-27.2703,10.4195,-68.4823,28.1581,-67.2492,-110.1054,-24.4119,118.3079,112.1013
-2906.2500,-60.4374,51.4500,-67.0657,-12.7186,-23.8758,-12.5105,46.4702,66.6594,15.3649,-82.4664,-141.4168,48.5017,-71.2856,62.4047,-21.7227,100.6255,-87.8769,-38.5134,140.5118,133.9852
-2898.4375,-112.3574,104.2030,-86.0369,-65.8560,-79.8151,-31.5335,64.5516,17.6512,33.3904,-137.4965,23.5754,32.9148,-15.9360,44.2300,-3.6383,81.4382,-104.6910,-20.6611,87.6708,151.8223
-2890.6250,-81.2117,99.9942,-91.9467,-69.9360,-11.6979,-37.5080,95.6954,38.5418,-8.5312,-70.4743,-92.3781,54.3853,-71.9561,75.1035,-83.5023,76.3024,-73.4454,10.2437,83.8799,182.7189
-2882.8125,-22.1121,19.7348,-65.9027,-46.0625,14.3759,-48.5261,12.7862,33.9344,-56.5152,-7.5038,7.6148,10.9674,-28.9367,27.9409,-94.4260,29.1300,-49.2404,35.1084,73.0347,171.5674
-2875.0000,29.8871,-104.6446,-9.9560,-29.2902,32.3442,-29.6466,30.7769,1.4073,35.4067,-25.6396,98.5227,-62.2036,45.8342,-64.3280,-38.4451,-63.1489,3.8690,-19.1254,55.0920,153.3174
-2867.1875,-41.7567,-2.7161,-11.6486,37.8383,67.6685,-30.4155,29.1294,11.3567,-2.3151,-26.4238,-85.2275,15.3530,-19.6504,-28.2530,-39.1053,-27.0844,35.3331,-21.0111,52.5019,115.4193
-2859.3750,-18.3510,92.2533,-22.2885,27.0120,57.0373,-5.1367,-17.4640,-46.8865,-12.9807,-74.1720,13.0836,31.8418,0.9129,-39.1301,-49.7067,-37.9725,-10.1521,2.1549,-63.0392,104.5733
-2851.5625,-13.4921,96.6791,-16.4754,31.6344,-10.1452,0.5938,-47.6030,-5.5667,-43.1974,-31.4762,-53.1556,51.9277,-54.1505,2.4408,-79.8565,3.5869,29.8209,41.7656,-23.1348,74.1799
-2843.7500,12.6721,121.3987,-24.3571,57.5648,-18.0228,29.6240,-56.4471,-0.5000,-88.1248,-3.4765,-62.0928,63.9681,-50.1233,-5.6841,-52.7105,-4.5538,56.1001,67.6728,-32.9332,29.0839
-2835.9375,12.9451,16.2048,-22.1338,22.5923,-52.8034,31.7503,-54.1925,-3.0289,-12.9472,-1.3845,87.0876,9.5452,-15.0228,-3.7163,-87.4570,-2.5984,56.4820,32.6766,-32.6377,-5.9106
-2828.1250,-36.2872,-104.4794,0.5914,78.1246,-30.0821,90.3770,-31.4346,67.9408,-64.2718,58.1969,-74.2448,12.8864,-44.9260,18.7566,-64.7067,19.8615,112.3742,88.1849,24.1557,-20.4067
-2820.3125,-48.9116,-82.5511,24.9248,100.2643,-42.7643,114.6027,-44.0787,27.5261,-40.0037,45.3659,24.0359,-5.0221,-8.9798,-68.1745,-77.3574,-67.0829,99.8716,75.2968,-23.4581,-33.3053
-2812.5000,-51.7778,91.1253,-12.9911,62.1539,-43.7073,76.5779,-44.9706,19.8407,-40.9811,80.2846,-13.9279,44.2656,-46.4603,-32.3551,-78.2587,-31.2775,62.1207,37.1622,-26.3214,-71.4600
-2804.6875,13.1024,85.5572,54.8434,56.7967,61.0998,34.3019,-13.1145,17.3522,-120.2121,74.9566,-19.1559,55.0469,-36.8774,-0.7778,-120.4149,0.2854,57.1206,31.7736,-31.4385,-76.8748
-2796.8750,38.8299,-100.1615,45.5251,12.2862,14.7505,24.8797,-22.4056,-8.0686,-55.5876,28.4755,155.4836,-45.6121,40.3529,-47.3570,-92.7174,-46.3126,47.9684,93.2319,-40.7120,-86.4448
-2789.0625,42.9599,-96.4862,49.6092,51.1848,55.8040,65.8586,17.7076,26.9541,-88.5641,32.3885,11.5190,-16.3731,4.7681,-43.5414,-88.6186,-42.5164,88.2231,97.0887,-1.5904,-82.6146
-2781.2500,17.7460,-17.1595,61.3457,25.7392,30.5024,77.4850,-7.5327,2.4510,-113.8954,6.9498,97.2118,-12.7691,33.6602,-69.0729,-76.8723,-68.0679,98.1233,106.5941,-26.8347,-108.1338
-2773.4375,64.6319,-76.7223,72.1816,1.3931,4.2932,51.2099,3.3244,5.2575,-29.1266,-18.3895,108.0091,-58.1079,48.7944,-95.4965,-29.0235,-57.5082,109.1201,11.2034,19.0097,-97.5473
-2765.6250,110.5115,-137.2616,120.0180,12.0550,52.0890,24.9423,51.1842,-14.7255,-55.3641,-44.7318,81.7886,-56.9924,58.6901,-47.9069,-18.1711,-9.9358,120.1255,-13.1823,-40.1487,-86.9536
-2757.8125,84.6393,-128.5552,92.1030,20.9652,-11.8699,-2.0814,-12.7054,-52.2097,-46.3483,-109.8291,164.8334,-32.6119,67.0743,33.9366,-9.0671,34.8901,94.3797,30.6926,-102.0620,-78.1121
-2750.0000,31.9797,-39.6686,73.3971,74.0768,-30.6264,16.0958,-31.3951,-25.3874,-102.1378,-91.7243,-0.9153,52.6757,-19.1744,125.9794,-27.7623,126.9147,76.8392,-21.2337,-118.7810,-60.0695
-2742.1875,28.7303,132.6184,70.1022,70.5873,-33.9751,12.6638,-71.6833,-54.6951,-142.5268,-58.2272,68.7443,87.5776,-21.0624,85.4154,-68.0511,86.3283,38.7054,-59.7668,-157.1040,-63.6278
-2734.3750,94.1272,91.5605,62.4573,100.7399,-79.6805,3.8772,-80.3152,-64.0153,-113.2608,-67.0910,171.0630,75.8121,-10.9099,77.4955,-112.6866,78.3854,-0.7748,-100.6525,-161.7805,1.4638
-2726.5625,51.6762,-22.3433,52.9647,199.0554,-52.2365,31.2421,-124.8004,-13.6365,-121.8529,-39.8054,14.5235,100.4524,-34.5441,140.7259,-49.1782,141.5921,26.8971,-38.3883,-134.3156,28.7079
-2718.7500,40.1795,-34.2978,39.4233,151.3216,-100.8518,17.5576,-101.3436,-52.9970,-62.4963,-52.5635,111.9441,56.7270,17.6196,90.9056,11.2768,54.7478,14.5121,-50.1752,-145.9105,51.8998
-2710.9375,7.1761,-31.7413,3.3752,119.0845,-99.9690,18.3697,-63.3875,3.0153,-24.6413,-14.8269,1.8553,50.1301,-13.6795,91.5965,49.2322,129.4141,-51.3762,-82.4669,-73.0116,89.5933
-2703.1250,-31.3781,-0.7211,-36.2197,44.2966,-140.6355,14.6271,-103.9794,27.6990,-64.3429,-18.6467,-37.7791,70.4166,-54.4211,197.7357,45.6405,235.5243,-54.8083,-50.3110,-76.6701,85.7374
-2695.3125,-33.0210,68.1961,-73.9022,7.4016,-142.4038,12.7770,-105.6680,-3.3868,5.8616,-20.5795,33.5078,63.1475,-50.0074,159.7590,6.9529,196.5220,-56.3367,-52.2596,-113.4310,83.7873
-2687.5000,-86.5667,48.1961,-57.4833,93.6073,-52.0695,-6.9759,-52.2487,13.4724,-13.8266,32.5912,-95.1182,90.2968,-58.5857,139.8864,24.3662,140.6232,-41.7647,-38.1048,-62.0862,63.9401
-2679.6875,-39.3130,-10.0114,-44.2643,106.6084,-74.9338,6.0707,-3.0345,-27.2460,36.2832,8.5563,-9.9354,32.6347,-6.8958,4.8206,37.5791,5.5308,-98.3976,44.8524,-84.9518,76.8946
-2671.8750,-73.5112,-79.6625,-117.4928,71.1612,-39.2519,5.6659,70.7272,24.0341,109.9359,82.0608,-82.1990,-6.2047,-20.0649,-31.6854,37.3401,-31.0022,-98.4830,80.3571,19.7209,76.4036
-2664.0625,-105.9570,-78.5560,-112.9677,2.4664,38.1773,10.0106,112.2374,55.7441,114.3364,86.3057,-114.7198,-21.4061,-10.6717,-28.4460,41.8581,-27.7903,-94.8204,82.6142,93.1403,43.6644
-2656.2500,-94.9549,-101.9962,-134.9981,-90.7845,-19.9435,-11.2001,90.2065,43.1528,166.1993,64.9978,-26.7796,-53.9983,-12.6552,24.2298,20.8320,24.8539,-83.7148,59.3190,70.0053,-14.6200
-2648.4375,-86.5596,-23.0408,-88.6267,-11.6309,-9.6607,35.9872,63.5728,65.6989,29.4548,74.0948,-163.4484,25.8486,-86.1182,70.3111,-42.7964,70.9068,-39.2019,32.4288,43.2656,-41.4999
-2640.6250,-59.4068,37.6673,-60.4962,14.2804,-18.6249,26.9220,-18.3185,20.2043,-16.5476,28.9385,-25.3535,29.3974,-41.2725,25.1437,-51.6818,25.7106,-47.9363,58.2894,-0.7406,-50.6256
-2632.8125,-64.5946,67.0380,-65.7082,8.8438,-60.9494,57.5028,13.4349,19.0184,51.0941,23.4236,-30.5966,35.0390,-42.3545,19.6221,-19.9218,20.1599,-53.0159,52.7994,-6.1039,-56.0986
-2625.0000,3.7695,-40.0252,6.6290,41.9628,11.2731,55.6330,11.7362,10.1648,13.2836,57.4534,4.6987,-0.1639,1.0455,-19.3501,-21.6132,-55.8457,-54.5486,50.8585,-7.9172,-58.0154
-2617.1875,9.1743,-176.0399,12.0118,47.1230,-20.4570,24.8093,-19.9100,-5.5934,54.5290,62.5288,120.0556,-64.9536,44.5955,-51.2686,-16.2482,-50.7979,-49.0381,55.9671,-37.6837,-52.8792
-2609.3750,-25.5277,-106.1536,12.2929,82.1764,16.7090,60.8805,-19.6512,44.3290,-18.3246,99.5026,-100.6962,19.6914,-54.2833,58.7312,-52.9853,59.1716,-13.6285,-14.0258,-37.5508,-52.8411
-2601.5625,-48.7699,82.1901,-10.9677,58.6749,-43.6727,74.3951,-79.9425,21.6650,-78.7287,112.9196,-49.9893,71.0743,-75.4794,72.1826,-76.2686,72.5924,-36.7715,-2.5716,-96.9775,-76.3525
-2593.7500,-0.0601,95.4796,-32.2821,73.1218,-102.1103,89.8565,-138.2847,24.6007,-63.1798,165.2910,38.6759,51.3466,-52.4817,13.5814,-60.6023,-22.0436,-22.9677,10.8330,-47.4641,-97.9100
-2585.9375,-16.0977,-61.9881,24.6577,126.8324,-8.2958,73.5729,-80.3814,67.8192,-42.3932,148.9135,-50.4200,22.8974,-35.7977,-2.7683,-39.6942,-2.4285,-3.9132,29.4888,41.2933,-114.2092
-2578.1250,-105.0869,-187.3944,-69.3523,107.5878,-28.4409,89.3366,-27.4365,69.3673,46.4427,90.5797,1.5503,-20.0422,2.7382,12.9258,12.2595,13.2340,-57.8120,45.1956,57.0910,-98.4541
-2570.3125,-124.3850,-206.0812,-52.6697,124.0422,-48.8875,105.7980,25.2118,100.5415,25.9744,69.9438,-165.7903,26.5151,-66.9999,103.3258,-7.0871,66.6022,-6.0177,61.6001,73.5906,-81.9939
-2562.5000,-82.1906,-94.2578,-44.4926,164.9930,-77.8377,113.7553,-39.6460,76.8203,-75.9962,40.8080,-83.6362,70.4426,-64.5104,111.2338,-35.9323,111.4783,-34.7328,68.5117,9.5787,-111.0347
-2554.6875,-54.5482,3.0134,-53.8694,157.3849,-87.3398,67.1565,-49.0545,46.5207,-48.5134,68.1167,-19.0242,74.5334,-53.8395,64.5941,-45.3282,64.8103,-42.0057,24.8749,2.0110,-83.6206
-2546.8750,-46.3068,46.8984,-7.6450,130.3759,-4.2385,40.1568,-38.8622,21.1441,-75.4335,4.0212,-119.8301,102.7337,-68.3501,111.5622,-35.1274,74.7460,36.3182,32.8411,-24.9612,-110.6041
-2539.0625,-4.1699,88.6907,36.4771,67.2664,2.7627,-25.9434,4.2311,-85.8005,-68.4483,-99.1857,71.2770,72.1181,9.7230,81.4190,-28.0218,44.5702,43.5354,4.7145,-159.0413,-103.6849
-2531.2500,21.4663,78.9794,25.1046,127.6566,28.2639,-0.5476,-43.1666,-57.7214,-116.9576,-36.8922,-13.1182,102.6784,-38.8283,106.7722,-76.4192,69.8868,34.2495,-4.9157,-168.6254,-78.2589
-2523.4375,-27.2516,63.9227,45.3768,148.6971,48.4123,18.4950,-133.9236,-49.7997,-169.8260,-17.9431,-30.8650,102.9569,-42.8721,88.7845,-94.1688,52.8625,55.6111,16.1051,-182.5664,-22.1830
-2515.6250,13.3738,104.2296,50.9950,48.0776,16.9052,-13.1139,-128.3350,-78.0377,-128.3403,-86.6446,84.7377,59.9702,4.5574,58.1499,-51.5731,58.1948,61.3172,-13.5219,-177.1632,-16.7596
-2507.8125,43.9385,100.4928,84.5664,114.4127,14.3539,-15.7746,-131.7893,-71.3056,-203.9009,-89.3967,45.2701,91.8637,4.8711,91.4680,-17.0287,91.4798,91.9713,16.7995,-180.8120,-56.3854
-2500.0000,118.2516,-2.4968,124.8894,81.4969,17.5528,-12.6888,-200.4962,-118.1917,-164.7056,-86.4050,196.5650,23.8438,63.9199,57.5293,-13.7259,21.5079,60.3641,-15.1247,-248.7220,-53.2582
-2492.1875,167.6185,-23.4373,137.2616,95.6209,29.8000,-37.5586,-151.1497,-132.6637,-151.4602,-110.3635,97.9125,8.7914,46.7868,-3.3565,-1.3746,-40.4112,109.8008,-37.0001,-234.5915,-4.0763
-2484.3750,163.1314,112.7824,168.7868,126.8878,24.1988,-79.2804,-156.6583,-141.3644,-194.0727,-152.1726,56.4082,65.3185,13.0413,-9.0859,-43.8750,-46.1739,176.3808,-75.7194,-203.3207,27.2599
-2476.5625,161.0424,145.4072,130.7171,53.5495,-51.0102,-117.6057,-157.7736,-140.5158,-195.2832,-153.5913,202.3162,49.1969,39.0930,26.5818,-44.9792,-10.5395,209.3561,-79.0340,-171.6575,-10.9974
-2468.7500,158.4450,142.5345,167.1459,85.7143,-14.7218,-45.4293,-195.3906,-67.4541,-232.9983,-82.5068,90.7061,83.1840,-25.0918,61.7556,-119.5859,61.5971,171.8314,-45.8390,-139.4971,-48.7508
-2460.9375,130.8014,184.6234,174.5285,92.8261,-44.4848,-38.3074,-152.0538,-90.2836,-188.7705,-112.4751,98.0448,92.2859,-8.0348,32.8755,-75.2438,-4.3164,108.2465,-38.6941,-132.3993,-41.5528
-2453.1250,129.5511,78.1284,135.3039,57.3242,-83.8483,-77.7931,-81.3165,-88.7342,-118.1372,-150.0492,132.7829,31.4334,21.0376,-6.6040,-40.5022,-43.8331,143.0520,-40.1484,-62.9060,-6.9528
-2445.3125,192.8414,70.1937,162.6309,49.3672,-56.6612,-50.7315,-54.0315,-65.4741,-126.9553,-123.0701,123.0633,14.4261,25.4371,-53.5279,-50.2142,-53.7941,100.3987,-48.0582,-35.8696,20.2041
-2437.5000,128.8304,146.9553,59.6527,-14.9020,-85.7845,-79.9753,-83.0479,-79.0893,-84.0658,-44.3907,167.0526,21.5038,13.3499,-9.7451,-43.2249,-47.0447,1.4298,-76.2691,-64.1394,27.0648
-2429.6875,13.9567,137.8595,46.8189,10.9738,-60.7605,-19.0670,-94.9120,-23.2323,-59.0266,-19.5530,-64.8308,79.9852,-74.3904,88.2063,-54.0806,50.8734,-7.4013,-49.3270,-73.2615,88.0831
-2421.8750,-4.5798,84.1138,26.3336,27.2024,-44.3851,-38.8060,-78.4273,-49.6112,-6.6414,-76.3641,23.6325,30.4027,-5.6950,-5.4930,-1.5889,-5.8591,9.1052,-33.0243,-57.0430,104.4592
-2414.0625,43.1338,60.6201,3.0985,-29.3295,-68.7679,-63.2941,-28.6959,-43.6347,41.9997,-63.9220,36.3561,-7.4752,12.4878,-28.9526,47.1481,-29.3518,-12.1453,-20.4665,-8.5748,117.0911
-2406.2500,-52.9532,105.3427,-57.9330,-56.6653,-20.9519,-51.5820,19.2316,22.4297,17.8343,-16.2771,-96.7343,21.2759,-14.3763,18.7924,97.0758,18.3602,-39.2037,-12.7152,105.0889,55.9282
-2398.4375,-113.0974,-26.9670,-120.0215,-117.0616,-10.1900,-77.9261,104.1062,16.8162,138.6176,31.3180,-13.8681,-57.4774,39.7908,-7.5110,143.9529,-7.9760,-135.3263,-4.0158,113.6918,29.7214
-2390.6250,-89.4501,-107.4710,-96.3149,-59.6623,50.3700,-54.4741,163.7762,53.6524,126.2016,54.7158,-136.2166,-41.6444,-13.9992,15.9897,57.6277,52.4920,-75.6576,-15.5119,102.0901,53.3269
-2382.8125,-56.4105,31.4241,-25.2116,-25.8703,12.3260,-55.6244,89.8431,0.7494,51.1842,-20.4858,-100.1668,16.0085,-39.0392,14.8962,-17.2982,14.3660,-7.6002,-16.5989,29.8849,52.3346
-2375.0000,-56.4285,170.2760,-63.1654,-97.1430,-26.7796,-94.8304,123.8612,-39.9121,122.1274,-58.7322,-66.1685,1.4752,-2.2512,-60.2411,90.7214,-60.7997,-42.6079,-87.7375,63.6229,86.2908
-2367.1875,-120.1591,142.4413,-92.8236,-160.1204,53.4136,-124.7316,168.1754,1.8972,239.3647,-15.6745,-205.8924,-23.1677,-9.4963,-53.0694,172.0353,-17.6601,-71.3283,-80.5750,141.6529,93.5480
-2359.3750,-113.3975,-26.8861,-122.9853,-153.6016,60.0989,-118.1305,174.9789,-15.0764,320.0972,26.8769,-52.1068,-106.7136,61.9888,-120.4030,178.8407,-84.0256,-134.5567,-37.9064,113.1687,100.3072
-2351.5625,-81.3927,-99.9587,-125.8991,-50.8430,20.0275,-47.2835,135.0386,10.3256,206.0799,60.6773,-92.0796,-72.8861,19.2015,-86.4908,101.8926,-87.1450,-67.5422,63.0081,73.9363,97.3158
-2343.7500,-20.9419,-39.5623,-60.3617,44.3546,12.4108,-19.9988,53.5461,-1.4288,51.5085,-21.0736,-99.6117,14.2543,-22.7468,14.8667,20.3903,14.1811,-7.0855,54.3680,-5.8596,52.7689
-2335.9375,12.1050,133.4424,-25.2273,-64.8590,11.3907,-58.1228,15.6474,-32.3139,13.5328,-95.2259,8.4623,35.6352,-14.8661,50.8190,-17.5242,50.1022,25.9523,-19.6731,-9.0693,14.8240
-2328.1250,40.0862,126.4047,78.8456,-72.1271,41.3164,-28.2868,8.6877,-0.8371,-30.5019,-66.4146,-35.5474,24.2302,-14.2313,6.7350,-24.5098,42.9873,53.9237,9.2528,19.6716,7.8302
-2320.3125,72.5522,53.8721,74.4082,-74.9058,-0.2687,-32.9469,4.2259,-32.4502,-35.0293,2.8962,70.9567,-32.6659,36.9999,-70.8494,8.0043,-71.6316,-19.6202,41.6821,-19.0971,40.3347
-2312.5000,-19.0348,33.2951,14.9226,-60.7335,14.0977,18.3475,-18.2797,3.5583,16.3859,91.1612,-25.6094,-36.0938,9.8204,-92.4839,22.4605,-93.3041,29.7789,56.0619,-4.9171,54.7918
-2304.6875,41.2192,-13.4282,41.2869,-36.7120,77.3175,-29.5093,-28.9509,-11.0700,5.6376,43.2783,-36.3247,-28.9044,24.4434,-31.2626,48.7606,-32.1128,19.0115,9.3014,-15.8978,44.0991
-2296.8750,70.1622,-54.4314,35.3411,-112.0084,34.2267,-71.6695,2.0754,-33.3409,73.5926,0.0993,105.6545,-82.8984,76.3542,-37.3379,79.7599,-1.2254,-22.0708,3.2372,-22.1843,38.1082
-2289.0625,82.5426,-111.9581,82.8415,-30.8593,44.5893,-24.3768,12.5554,-18.8832,9.9916,10.3765,5.0536,-53.9147,46.9714,-25.9647,53.1990,-26.8894,-9.7050,50.6288,-44.0170,85.5673
-2281.2500,104.5677,-124.8302,69.9918,-78.0686,31.5973,-37.4387,-36.3303,-26.8330,-2.9575,-2.6975,140.1226,-103.5923,100.7635,-74.9394,77.2856,-39.8971,-22.7061,37.6724,-23.2140,72.6764
-2273.4375,13.7366,66.4441,13.2907,-204.1302,11.7572,-93.3527,-20.0711,-0.4139,51.2404,14.3844,9.3254,-50.3041,13.4106,14.2486,57.5067,13.2579,-42.5641,-17.1253,62.7273,52.9380
-2265.6250,-68.9467,158.8872,-36.2616,-182.0398,110.0654,-106.1142,41.3293,23.5624,38.5739,1.6185,-112.3262,-5.4833,-15.1079,1.5916,44.8667,37.5607,-89.2862,5.2283,119.8075,40.3523
-2257.8125,-63.4854,58.5000,-68.6720,-142.8191,38.5075,-66.7340,80.8756,-1.2767,115.0633,-31.9979,-0.8159,-36.0830,23.1800,-31.9250,47.3815,-32.9921,-120.8718,44.7304,89.0308,79.9161
-2250.0000,-43.2316,-96.0809,-86.2850,-51.7979,21.7504,-10.5411,100.2194,63.1767,97.3527,24.1946,-90.5348,-38.9664,-21.5380,-11.6341,-5.3166,23.2630,-29.6656,31.0327,109.0492,136.2809
-2242.1875,11.2194,-251.4764,-26.6996,-32.5786,44.1841,-25.1417,49.7541,48.7765,83.8351,9.5933,4.9533,-96.6753,36.5009,-26.1383,16.1814,8.7235,-10.2848,50.5438,94.2526,85.8476
-2234.3750,74.8543,-118.6586,2.0778,-110.1709,36.8057,-32.5500,79.4887,4.5241,76.5238,-69.8041,71.6341,-83.5205,36.6142,-33.4401,-27.1232,1.3905,-17.7135,8.2506,50.6574,78.6178
-2226.5625,-6.0715,188.6506,31.3034,-119.3265,65.8793,-77.5132,-2.3282,-27.5081,-5.3403,-78.7490,-10.2479,21.9990,-11.0143,-5.2911,-35.9857,30.5086,7.3041,34.3970,5.5045,33.8319
-2218.7500,-50.1470,249.8141,-14.6231,-128.6495,56.7894,-50.6314,-11.3044,-57.5471,22.6544,-87.8453,54.7378,18.8896,19.2190,-51.2873,-8.0063,-15.5142,-1.8474,60.3905,-38.8097,24.8899
-2210.9375,26.4210,79.6211,65.0990,-54.3244,99.3485,-45.0961,31.3686,-34.4775,-8.7144,-82.2801,-13.6545,0.3919,27.8064,-45.6202,-2.3879,-46.8733,74.6441,66.0356,1.5306,30.5923
-2203.1250,61.6307,-95.9152,67.4713,-54.3568,100.5582,-5.9094,-3.3075,-17.2934,-6.4372,-81.0670,62.6079,-57.7730,65.0491,-43.3153,-0.1178,-44.6017,39.7727,136.3377,2.5124,-4.0594
-2195.3125,39.4723,-152.7938,45.4796,-76.7526,78.4161,8.9261,11.6722,-4.1672,8.5025,-29.2047,113.5108,-93.1462,72.4651,-65.3675,-22.1948,-66.6870,17.5326,114.2947,15.1446,-26.0604
-2187.5000,49.1542,-142.7990,56.3329,38.7004,127.1274,56.6120,23.5014,24.6412,-53.7134,55.5081,15.2324,-52.7849,41.3721,-90.5602,-47.4330,-91.9085,27.1326,54.1038,24.6134,-51.2174
-2179.6875,130.5340,-61.0843,66.8812,-56.1586,63.5268,30.9906,-2.9817,-13.9305,-43.2275,65.9134,135.6766,-70.3433,58.5483,-80.0514,-36.9789,-81.4319,-32.5846,-5.3925,-35.2274,-40.6771
-2171.8750,56.0088,75.7296,27.5368,-95.9215,60.0266,-9.5296,-6.3690,34.1648,-46.6353,99.4275,22.1980,-13.2705,-3.9555,-9.4480,-40.4356,-10.8566,-36.2069,-43.7857,66.0342,-44.0350
-2164.0625,-34.8284,55.2425,4.8845,-81.9954,74.2229,41.6477,7.9399,61.7130,-32.3404,150.6507,-37.5838,-14.0521,-12.3528,-32.1502,-26.1913,-33.5903,-93.1416,-29.4686,79.9946,-29.6952
-2156.2500,-22.7842,-73.3451,-56.8863,-140.1831,13.3132,16.7314,57.1535,64.9814,16.8617,162.7801,48.5244,-92.3311,13.2896,-56.9493,-14.0530,-21.4205,-116.1990,-53.2402,91.8585,-17.4608
-2148.4375,-38.8036,-16.9747,-36.7090,-120.4220,33.3601,-0.2352,77.3228,61.4478,37.0142,145.8705,-42.4416,-53.0683,-8.1596,-36.7942,6.0227,-38.2962,-130.3203,-33.0572,111.6730,2.7188
-2140.6250,-28.1833,-5.9465,-62.8920,-144.0197,44.0517,-26.5522,124.1395,11.5915,84.8245,46.6139,42.2525,-71.5457,46.1074,-63.0051,53.7464,-64.5375,-155.8057,-22.2235,87.1343,13.5467
-2132.8125,-120.1268,-98.4493,-120.6313,-132.1761,22.1881,25.5801,102.3996,78.6691,99.0732,61.8181,-53.6360,-59.5744,10.2276,26.2453,68.9029,24.6866,-107.8477,62.0572,135.0464,-8.1772
-2125.0000,-117.8756,-165.7244,-80.1753,-59.1364,62.5168,29.9211,106.8430,86.8274,103.5001,65.2193,-86.3323,-66.0539,18.0395,-6.2954,72.2357,29.1161,-105.6949,64.5504,138.1495,-40.7096
-2117.1875,-50.2783,-237.6428,-81.3731,-62.7567,61.1853,27.6103,142.6286,40.8482,176.2717,63.9762,59.3343,-136.3356,98.0007,-118.4918,107.9038,-120.1097,-109.1999,97.4035,134.5987,-78.8995
-2109.3750,-35.7001,-82.5551,-66.5747,-48.3759,75.8585,79.3132,157.4101,55.1370,80.0380,78.7501,-110.0329,-46.2816,-6.1760,-66.6826,12.5570,-68.3218,-129.7165,76.2587,78.0510,-64.1013
-2101.5625,-123.0247,182.6360,-119.6868,-99.9037,59.6221,63.1193,30.2767,22.1652,-9.0961,62.6267,-52.2861,35.2363,-36.1923,-8.7746,-40.6960,-47.4427,-111.1619,96.2135,26.5855,-80.2141
-2093.7500,-112.8599,123.3339,-111.3063,-54.9402,-5.1165,71.4202,2.6435,55.0972,-0.7275,108.0014,-81.0686,33.5779,-71.5493,-0.3686,-69.4480,-2.0653,-101.1179,70.6599,36.6202,-34.8308
-2085.9375,-147.8246,16.9456,-77.0414,13.9179,-7.9500,105.6157,-0.0825,102.3603,-40.4566,142.2780,-119.9731,41.1226,-76.7623,33.9388,-72.2996,32.2138,-102.1886,70.0084,70.5474,-0.5521
-2078.1250,-137.3455,28.0220,-102.3378,-46.7856,-71.3470,80.2643,10.6340,50.5440,44.2671,43.0150,0.5900,-11.3953,0.5575,-29.3016,49.2808,-31.0507,-91.8266,45.8025,80.9143,10.1726
-2070.3125,-114.3542,52.5980,-77.1262,-21.9934,-82.2460,69.4236,36.8350,54.2623,70.4742,69.2582,-120.3605,15.4142,-41.0641,-3.0323,75.3430,-4.8089,-67.9708,0.0956,69.7785,-0.6028
-2062.5000,-22.7727,74.7705,-55.3257,-0.6084,-60.5501,17.1787,-15.3710,3.4333,92.2807,91.1043,-25.7162,13.0603,-30.0635,-18.1643,23.0148,-19.9683,-115.5314,-14.0080,-14.7631,21.2180
-2054.6875,36.4898,63.6372,-67.8382,-13.5365,-73.1575,3.6312,-28.8706,-13.5014,41.7921,77.6627,34.6091,9.2844,-32.8060,5.4077,-27.6137,3.5807,-92.3994,-25.4180,-61.6012,44.7326
-2046.8750,35.2969,133.0876,-30.7960,56.0787,-109.2118,41.6378,-100.8309,10.7367,-68.1582,78.7705,-38.5242,73.9626,-84.5300,43.5283,-63.7054,41.6786,-59.7260,9.7138,-62.9059,8.7856
-2039.0625,22.3593,156.8245,-6.5034,42.9297,-122.0290,28.8822,-113.5524,-24.5080,-43.8672,29.1267,95.6185,55.2704,-37.9811,-6.1073,-76.5571,-7.9793,-72.8226,32.0947,-75.9808,-3.9159
-2031.2500,-50.6345,155.5323,-45.2693,75.7270,-87.8985,64.0830,-42.3322,9.0666,-45.6397,64.4421,-53.3180,77.5470,-65.6897,-7.7807,-41.4660,-9.6787,-39.9785,30.4238,-43.1045,-5.6691
-2023.4375,-53.3311,152.5280,-49.7362,107.8206,-18.4704,59.5819,-46.8168,-29.7517,-50.1068,23.0546,-57.9489,85.1186,-37.7337,-12.1653,-9.0745,-14.0852,-42.8435,28.0622,-114.9344,26.8754
-2015.6250,-8.7819,57.7525,-40.9596,47.1631,-82.7964,30.3314,-74.0543,-24.4357,-5.3204,30.9203,-49.3297,39.0978,-38.2021,32.7026,35.5652,67.7575,-33.4615,1.9504,-141.5113,71.6658
-2007.8125,-73.2947,98.9421,-34.2361,17.4616,-112.1731,38.0388,-103.3452,17.6228,-70.5966,38.7467,-114.7839,88.3092,-90.3405,150.5265,6.1451,148.5524,-28.1405,7.7953,-100.1430,42.3976
-2000.0000,-67.5265,211.4541,-63.2311,-11.9445,-141.2617,9.0506,-96.3432,-48.9931,-26.5735,9.8798,39.0581,80.8718,-43.4024,85.6486,14.0155,46.6499,-57.5409,-21.0496,-129.4791,13.4208
-1992.1875,-34.9305,138.8234,-30.3905,20.4992,-108.5006,4.9244,-63.4944,-20.7424,6.2988,5.8772,-39.2764,58.7929,-41.2507,44.6266,46.7186,42.6034,-25.1048,-58.0415,-62.9474,46.2894
-1984.3750,-52.2385,121.2918,-14.4531,36.0315,-20.6322,19.8983,-84.5495,-17.4268,-14.7262,-51.0269,-59.5105,69.0283,-35.7544,59.7022,24.5160,94.6588,-78.5787,-75.9347,-81.3092,98.2490
-1976.5625,-146.2005,63.1016,-112.1729,-22.0976,-118.4147,32.2219,-109.2433,40.7697,-2.3875,-2.5870,-84.3904,74.0867,-88.3096,183.1172,0.6652,181.0540,-66.7050,-27.4758,-33.3149,110.5493
-1968.7500,-135.1704,-30.0901,-98.8966,-11.2197,-68.1906,82.5525,-58.9342,103.1041,-62.0475,83.8697,-218.3015,65.0666,-125.7762,195.5328,-23.1921,193.4462,-20.8376,-51.0193,11.6853,86.8434
-1960.9375,-39.3975,-38.5179,-34.8857,-20.5950,-41.2288,73.6367,-67.8909,47.0047,-70.9632,75.0899,-44.4469,10.2271,-47.4371,76.6994,-32.3093,74.5937,-30.2370,-59.8146,-32.5800,77.8818
-1953.1250,-41.3389,-39.6353,-36.5821,-57.6653,-42.9673,35.0249,-33.5556,53.1329,-36.5883,36.6161,-46.3144,-4.1334,-33.5254,75.1826,1.8562,73.0581,2.6549,-61.3152,35.4545,76.2146
-1945.3125,-79.7803,-7.2438,-38.7791,-61.2386,28.7931,-3.0837,38.2749,21.9983,-1.7159,-1.3605,-120.6856,-3.9991,-12.2798,37.1584,74.5191,35.0115,-35.9549,-30.3146,32.9884,38.0409
-1937.5000,-100.4162,-27.0421,-95.1749,-82.0240,8.3541,13.6007,91.9062,-8.8680,124.9634,15.4654,-32.2394,-53.7093,25.6910,-57.0837,90.9774,-59.2486,-91.7684,-15.5152,12.3162,17.6621
-1929.6875,-91.3508,-123.1272,-87.8702,-4.1028,51.6155,56.9935,98.2264,63.8078,58.3260,59.0014,-172.1071,-15.1175,-37.4586,23.3833,23.1193,21.1968,-118.8853,-7.0099,55.3415,60.9780
-1921.8750,-124.4863,-119.4011,-120.7713,-37.3733,18.6673,24.1924,28.3294,55.2554,62.4813,26.3372,-59.1599,-22.2228,-11.1643,64.6494,27.0542,62.4493,-116.2114,66.2953,57.1508,28.0861
-1914.0625,-103.0806,-27.1261,-97.1330,-50.0860,-30.7337,11.9426,89.9756,44.7229,87.1860,14.2296,-107.6797,-7.9741,-41.3996,15.4748,14.5310,13.2616,-94.9826,54.1494,79.5158,15.7393
-1906.2500,-75.6796,2.1621,-68.4935,-21.7938,-1.1293,41.6946,82.6118,43.3097,79.8826,44.1249,-151.2080,-1.8385,-37.0433,-28.7054,44.0081,-30.9352,-102.7590,47.0062,71.8759,8.3843
-1898.4375,-89.5239,-115.7996,-83.1086,-36.7482,-16.7753,-10.7999,29.9935,15.0547,137.3346,28.7711,-20.9619,-64.5011,17.1773,-44.1513,65.2336,-46.4051,-81.7922,33.6138,57.9832,29.7727
-1890.6250,-115.1099,-71.5119,-72.4713,8.5544,-5.1683,37.9584,78.6205,45.4313,76.0222,3.6714,-155.4843,-3.3446,-35.8927,4.6519,39.7033,2.3824,-37.5676,43.4643,67.3412,4.4078
-1882.8125,-95.9448,-15.4446,-49.0853,27.6111,-18.8197,24.4623,63.9852,17.5698,25.4496,-46.6895,-60.2441,10.8933,-7.4068,-8.7915,25.9137,-11.0763,17.4080,63.0613,51.4321,-46.2102
-1875.0000,11.4620,-84.1041,26.5391,28.9274,-17.2279,26.2130,65.5812,-2.6175,27.1184,-44.7947,51.2373,-27.0056,14.7511,-43.9722,-46.6336,-46.2720,53.6327,-5.0865,17.7681,-44.5836
-1867.1875,72.1689,-127.4549,90.4642,54.5621,46.6658,17.2693,20.4710,12.0287,-55.9286,-16.6012,6.0109,-20.1009,-2.3632,-15.8513,-92.8877,-18.1693,115.1577,-13.9284,8.4006,-53.6614
-1859.3750,84.5781,-43.1175,103.0846,31.9030,59.2519,-6.9666,-3.9433,-50.1167,-43.2740,-77.7111,128.5062,-26.7259,36.1414,-77.0382,-117.4423,-79.3739,91.3780,-1.0736,-49.2687,-41.0454
-1851.5625,42.1899,20.4187,95.9000,59.4466,52.0379,-13.9991,-11.1544,-21.9697,-87.4179,-84.6131,11.1772,32.7903,-17.4332,-10.0215,-124.8014,-12.3707,119.8013,26.9814,-21.7287,-48.2358
-1843.7500,40.3994,-15.4330,59.3131,93.5885,15.4263,-13.4374,-84.7712,-13.5508,-86.9619,-46.9089,47.4575,31.3798,-10.7294,26.5818,-87.5586,24.2159,117.8267,-9.3611,-23.5876,-84.8337
-1835.9375,71.9549,-53.9396,92.0680,54.0808,11.1655,-17.5178,-15.0418,-30.2206,-17.1504,-50.8469,117.0836,-9.5550,19.9117,-13.4725,-91.9658,-15.8471,113.2028,-48.3534,-28.0788,-89.0913
-1828.1250,115.5006,-44.4428,135.8197,132.5899,18.9146,26.4106,28.6887,-33.6340,-84.3402,-80.7800,13.6916,37.4332,-15.9513,-6.5217,-122.3834,-45.9123,156.5884,-75.3444,-54.5549,-45.3612
-1820.3125,126.4599,3.4772,145.9696,108.5026,-44.9406,-0.2662,-72.1823,-70.4808,-110.1377,-70.3224,170.7292,9.6152,15.0470,-70.1800,-147.4138,-72.5860,168.3743,-62.9442,-113.6365,1.7621
-1812.5000,95.4203,8.4142,115.1192,148.4289,-38.7985,6.0610,-103.0648,-39.6109,-140.9527,-26.8610,102.7561,44.1663,-24.4738,-26.8300,-178.4552,-66.2511,207.1626,-22.5360,-74.7180,-29.1198
-1804.6875,160.9871,3.9394,148.8662,142.9739,-5.0578,2.9972,-106.3538,-13.1350,-181.1766,-29.7950,62.3894,51.0362,-39.7706,7.1135,-182.9023,4.6780,166.5478,-62.5229,-44.2057,-69.4056
-1796.8750,168.1021,12.0159,121.1513,45.0795,-69.7776,-24.5131,-60.1046,-26.5943,-98.8454,-20.1682,145.5779,11.0161,-16.6793,15.6067,-137.7947,13.1612,138.4786,-125.9634,-37.1358,-97.1428
-1789.0625,68.2494,54.1574,125.4739,15.2527,8.5568,17.0369,-18.8105,29.1165,-57.4638,21.5220,-34.2136,35.1931,-62.9936,21.1642,-133.6371,18.7092,73.4626,-154.3552,38.9909,-55.8360
-1781.2500,9.9977,-109.1054,27.3873,-42.9749,-16.5052,29.1853,-6.9104,42.5505,-8.4747,69.8135,50.6188,-65.6285,2.9175,-40.6916,-47.8759,-6.1594,15.0458,-72.1451,50.7275,-43.9354
-1773.4375,57.3443,-200.7685,39.8964,-65.5950,-3.9554,41.9321,42.6000,67.8273,4.1220,82.7103,-9.9666,-90.6289,-2.3916,-27.9527,-35.5144,-30.4289,62.2331,-59.3400,98.0860,-31.4405
-1765.6250,107.9842,-150.1298,92.6958,-15.9045,48.9012,21.9800,22.4077,26.4088,-15.9747,26.9146,6.7486,-57.7438,16.8605,-10.9087,-18.8499,-13.3966,41.7161,-114.2413,42.7504,-51.6524
-1757.8125,62.5300,-88.5995,46.3865,-95.3095,-70.3536,-24.0665,13.1176,21.2694,47.8398,18.0234,107.3768,-65.0958,10.1315,17.0330,-28.2852,14.5417,-2.9001,-88.2519,68.3218,-60.9662
-1750.0000,-0.4149,-80.5563,17.5792,-18.1989,-26.1051,20.3881,56.3252,81.2632,92.1455,61.6358,-143.5052,-14.5086,-66.7532,24.4757,-21.2320,57.9817,-31.0085,-9.7609,111.4074,-53.7822
-1742.1875,-52.7528,-200.9137,-36.6281,-70.4782,66.7408,3.4456,150.1210,22.9767,149.0561,8.8418,-12.7570,-106.0259,56.7752,-66.4864,71.4231,-68.9823,-13.5145,8.3293,94.0870,-71.0023
-1734.3750,11.5075,-171.6817,-5.2455,-111.1374,98.1822,-38.8922,144.5148,9.8810,180.5660,-33.3450,-18.4229,-113.6614,39.8095,-71.8358,28.6785,-74.3292,-19.4119,-66.9828,123.3777,-76.6206
-1726.5625,-59.0377,-30.2390,-39.6728,-111.5839,101.8307,-36.0255,111.1067,53.2932,110.2712,6.6673,-125.9026,-50.8613,-10.6824,-31.9768,32.1424,-34.4669,15.8992,-32.1017,193.8795,-147.0446
-1718.7500,-160.8295,-26.0273,-71.3625,-143.2809,70.2263,-30.4183,152.4561,29.6517,262.7312,12.4224,-47.6097,-89.1068,28.1940,-99.3694,74.3624,-101.8632,-16.0294,-63.4690,197.1362,-178.7305
-1710.9375,-88.2542,-198.4628,-33.6924,-105.6070,107.9793,-29.4527,227.1538,69.6733,263.5294,50.5343,-156.9684,-113.6305,21.4472,-61.4111,111.9221,-63.9042,-14.5949,-130.4894,234.7434,-141.0752
-1703.1250,-65.2184,-243.4568,-10.5666,-152.4613,94.1861,-42.0329,176.2924,47.8734,249.7809,0.0910,-59.8514,-153.4013,51.9930,-75.0134,97.9372,-40.5089,-26.7002,-72.0556,186.8017,-117.9710
-1695.3125,-30.9270,-174.2147,-12.1946,-189.0448,54.6451,-44.3528,174.6820,24.9480,247.2841,-1.0941,-25.4834,-156.5956,54.5468,-114.3669,95.2023,-116.8601,-27.5500,-72.3687,186.1174,-83.6115
-1687.5000,-14.1254,-156.4563,5.6746,-136.0989,73.6074,-25.1614,119.5581,34.3600,156.2746,17.2222,-80.6207,-109.3624,13.4887,-58.2204,39.9609,-60.7105,-10.8859,-20.1783,132.9337,-101.7533
-1679.6875,-35.1635,-106.5353,19.6913,-121.9919,13.7153,-47.8243,59.5744,15.5363,170.4138,31.6818,6.4180,-96.2880,11.9621,-43.9314,16.8713,-9.4178,-32.0573,-75.8380,76.9082,-87.7498
-1671.8750,-29.5543,-28.9581,25.3570,-81.2218,-16.5178,-4.8362,65.2484,43.8310,65.1998,1.7976,-97.9159,-28.2453,-56.4290,-0.9791,-50.5687,32.5353,43.4340,-34.8461,82.5503,-82.0993
-1664.0625,36.1627,-103.2802,93.1169,-15.3353,50.3570,-10.7444,59.0252,6.7689,23.0852,-40.9855,-30.1305,-53.1677,-12.6065,-80.9299,-93.9096,-46.4140,39.0302,-3.7538,42.2941,-51.3489
-1656.2500,31.9859,-211.4892,51.9692,-54.3263,46.3305,-14.5507,54.8992,-7.1760,55.0645,-81.6734,75.7607,-96.6733,38.9904,-47.7779,-61.1527,-50.2556,34.7408,27.4407,38.1494,-55.5001
-1648.4375,-10.3829,-6.8951,44.6235,-96.4856,39.1082,-58.5496,47.5686,10.5797,11.8317,-88.5646,-115.5441,-6.2416,-45.8527,55.1747,-31.5961,52.7003,27.2679,-14.5609,65.8106,-62.8510
-1640.6250,-35.2434,145.1942,-18.2280,-86.1241,13.3861,-48.0494,-15.2667,-54.6337,22.1024,-77.9594,5.6628,9.8197,-4.8643,-7.3723,15.4680,-9.8424,-67.6957,-39.0590,-29.0184,-52.7013
-1632.8125,-62.9518,-22.5706,-11.9343,-42.5905,-17.1769,32.6049,28.0520,-1.6621,28.5238,-34.1991,-61.9905,-13.4277,-14.7392,-0.7639,21.6907,-40.2250,-24.4986,-31.4138,14.3211,-9.3998
-1625.0000,-35.9551,-98.6444,15.0578,19.6538,-27.0315,59.9587,-18.9256,9.3314,-18.3509,-6.7348,-71.9233,-19.8994,-18.3301,-10.4587,11.6257,-12.9098,-33.5875,-4.0722,-29.6293,17.5994
-1617.1875,-14.6479,62.5774,-36.6504,-29.7785,-78.5806,8.6167,-70.5985,-28.0003,-32.9284,53.0342,61.4501,9.9259,-36.8396,12.1445,-77.1376,9.7043,-48.3572,52.5669,-114.2680,2.9014
-1609.3750,2.0731,115.2014,19.0445,22.2196,-22.7245,27.6784,-124.8787,-5.4507,-160.1129,72.1998,-67.7666,71.6854,-82.1499,68.1570,-95.5031,65.7248,-30.7153,69.6104,-132.5026,-15.3939
-1601.5625,-60.7443,18.2674,-8.8175,64.6889,-50.4231,37.1914,-116.7105,-41.5590,-115.8410,7.8094,15.4860,49.6628,-20.4197,76.6186,-12.4072,74.1954,-58.6099,112.1058,-194.2740,-43.2385
-1593.7500,-86.1037,99.7858,-35.2252,40.6403,-39.6652,48.1629,-69.0903,-51.3584,-105.1208,-18.1337,-47.8195,62.4655,-25.0524,51.5289,35.1421,49.1195,-48.0337,53.0493,-183.5786,-32.6285
-1585.9375,-64.5550,157.2026,-12.7360,61.5131,-17.0042,34.0351,-83.5715,-67.4719,-82.4982,-32.1832,-62.2014,68.9870,-16.6947,0.3343,56.5992,-2.0601,-27.5399,38.8983,-163.9773,-47.1173
-1578.1250,-30.0961,-18.4883,-13.3443,61.3092,-54.4347,33.8096,-47.1486,-82.8983,-8.9715,-69.3378,47.3224,-5.7117,43.1101,-36.9556,92.9582,-39.3379,-63.1303,73.6468,-164.4569,-47.6990
-1570.3125,2.4210,14.8680,-17.9059,59.1804,-21.8049,29.6381,-14.6735,-53.3180,-50.3927,-36.4456,-67.0995,23.2300,-11.9731,-4.1930,52.3753,-6.5621,-66.6530,1.4466,-131.8732,-15.2293
-1562.5000,-54.3943,99.8727,-40.8189,38.7214,-44.5206,7.1145,-74.5440,-85.7083,-36.1560,-21.9049,58.1539,15.5108,14.9601,-63.7875,29.4525,-66.1423,-122.5135,15.8993,-151.6317,-1.1059
-1554.6875,-56.7978,27.2734,-45.3317,71.6913,-48.8264,2.9982,-42.0125,-64.3304,-40.5214,-25.9645,16.8036,16.7852,1.9158,-30.9758,24.9339,3.6848,-89.9559,12.7528,-154.9766,31.4231
-1546.8750,-105.8895,154.9694,-94.5444,92.9864,-60.8263,28.1808,-91.1829,-24.0010,-125.5930,-0.7209,-178.2274,130.4090,-103.1653,141.1378,12.7157,138.8189,-69.0804,34.9103,-168.0118,-17.7423
-1539.0625,-122.9172,314.7012,-112.7047,76.3513,-115.7722,46.4182,-145.3029,-46.3387,-143.6105,17.5777,-88.1906,166.9848,-129.8770,122.3094,-80.4456,120.0082,-86.1419,18.1129,-220.9814,0.1504
-1531.2500,-45.4839,287.8765,-105.4158,155.1982,-108.2592,91.1111,-174.9716,-27.0254,-210.1849,25.3278,-80.7045,181.7664,-141.5469,93.9396,-145.1492,54.6535,-43.7323,25.7686,-178.4882,7.4984
-1523.4375,64.0627,151.1543,-29.0254,159.1642,-104.6468,57.9037,-208.5365,-64.0406,-243.6560,29.1660,70.9064,102.2262,-54.5104,23.6651,-105.7348,-15.6046,-4.2065,29.5220,-209.8837,10.9543
-1515.6250,17.2179,105.0292,-43.0383,146.7558,-117.4283,44.2947,-148.4948,-45.7078,-183.5210,15.6026,57.1178,91.8240,-52.3935,46.9964,-82.7074,44.7444,-52.0584,16.8756,-186.6578,34.0132
-1507.8125,-1.1145,87.3934,-24.5465,128.8731,-135.6957,63.1880,-166.9463,1.4026,-201.8835,-2.4623,-35.1541,115.3243,-90.1775,138.8260,-65.1703,136.5929,-35.3949,-1.2670,-133.9214,15.5759
-1500.0000,41.0171,200.1907,-17.6063,101.4709,-165.5056,33.5386,-196.9435,-69.3483,-194.7921,-32.0777,119.0455,119.7690,-60.8978,110.1052,-94.1759,107.8925,-63.2608,-28.9581,-232.7231,22.5940
-1492.1875,4.6081,200.4454,-20.2111,171.5523,-167.8553,31.3451,-235.4909,-43.3582,-233.2556,2.7550,6.6888,163.0172,-116.4437,144.8407,-132.7289,142.6496,6.3467,5.8014,-233.0598,57.0706
-1484.3750,77.5642,168.0550,55.5336,245.0115,-128.8504,33.5016,-307.6903,-84.3099,-268.3641,-31.0700,82.7128,154.3069,-78.9395,72.9230,-167.9230,33.7548,8.3259,78.9094,-266.0407,58.9042
-1476.5625,105.7393,56.8397,50.4856,168.6983,-133.6370,-8.1419,-239.6838,-99.4010,-200.2714,-36.6990,150.9519,70.0130,-19.9333,31.2098,-99.9003,-7.9304,72.5270,72.2161,-237.8042,16.9490
-1468.7500,101.1303,52.7998,83.6416,199.6100,-101.2182,26.4151,-242.4744,-63.9530,-276.9766,-39.1277,38.4031,86.1519,-35.0983,28.7055,-66.6638,26.5946,102.9471,102.7224,-207.3498,-22.7942
-1460.9375,133.5850,49.8050,118.8456,126.5831,-65.7540,-11.9801,-244.2105,-137.7747,-278.6206,-77.5048,256.9255,21.5989,58.2871,-46.7461,-68.3619,-48.8265,100.4375,99.2719,-280.8224,-61.4773
-1453.1250,89.6104,76.3511,109.6092,83.1358,-74.7251,-20.8277,-180.3881,-75.4676,-287.7109,-49.3346,101.0037,49.5204,-7.5844,18.3548,-77.5021,16.3063,126.5056,90.3647,-184.7295,-70.6001
-1445.3125,62.8049,157.0354,118.5304,56.8662,-28.5415,-11.5259,-171.4130,-60.2670,-241.6460,-40.0270,0.2626,81.6851,-50.0055,27.6026,-105.4748,-11.4127,64.7457,99.6064,-140.4802,-61.5607
-1437.5000,34.9085,93.6309,51.3523,-5.4824,-21.4562,-4.3243,-164.5345,-41.0491,-161.6826,4.1763,80.4299,13.0744,-14.2620,-39.2407,-98.5330,-41.2214,36.8981,142.7442,-98.3234,-54.6002
-1429.6875,84.1197,-68.6831,66.2736,8.3034,29.7334,10.9833,-113.5613,5.8010,-183.6221,55.4854,21.7004,-8.6794,-23.3293,13.0236,-120.4817,-25.9213,50.1687,155.9951,-49.0601,-76.5201
-1421.8750,22.1459,-59.2294,40.9906,-53.0808,41.7196,-14.9035,-64.7855,2.3101,-135.7602,30.5958,70.8010,-43.7971,27.6504,-12.9088,-35.6208,-14.8165,24.2574,129.0551,-5.9794,-138.6240
-1414.0625,57.1883,46.2152,3.7128,-122.4378,41.7194,-14.7872,7.9947,-6.8221,-61.8955,30.7091,-40.1014,-18.0378,-13.8691,24.1639,1.2515,-14.7013,24.3691,59.1177,-5.8763,-138.7179
-1406.2500,87.0945,77.5092,35.2843,-56.9236,73.5806,-19.8242,2.6310,-32.5227,-67.1761,-11.3351,28.8720,-3.1153,22.7458,-17.9184,-4.0091,-55.7399,54.3478,54.0342,-10.9033,-143.9536
-1398.4375,62.9642,-17.2635,8.8119,-10.4356,10.3982,-44.9078,-59.7659,-46.4303,-20.4916,-36.4380,149.8009,-37.0356,61.6055,-43.0526,6.7005,-81.8329,65.3003,99.9004,0.0427,-133.2242
-1390.6250,27.7365,-87.1489,8.2387,60.9730,47.1306,27.9085,-60.2491,17.3679,-56.8988,-0.6410,39.6322,0.9534,0.5051,29.7234,-66.6731,27.9895,30.1734,64.6629,-0.0842,-133.5826
-1382.8125,68.4741,-46.0927,-23.3838,32.3492,15.8136,33.6718,-91.7790,11.1755,-88.3466,5.1027,82.4405,-9.5541,-8.8437,-1.5430,-98.0823,-3.2293,0.0145,34.3730,5.7523,-127.9773
-1375.0000,-22.8727,144.8367,-82.1050,-23.3419,-6.5908,48.3403,-40.4011,26.7757,-73.8923,19.7514,-13.8511,34.6365,-52.7132,-22.8978,-83.5841,-24.5350,-20.2223,13.9849,56.5100,-113.4575
-1367.1875,-143.4531,235.4936,-133.0699,32.7388,53.7683,-2.2393,-55.2683,32.6375,-87.6847,43.1476,-100.3681,97.7273,-61.7989,36.4984,-24.3236,34.9114,35.3174,-1.6473,76.0285,-164.1761
-1359.3750,-56.7660,76.3973,-114.7774,15.0959,35.3841,-20.5663,-36.8754,8.8047,-33.2229,24.7963,101.3786,21.0005,8.5906,18.1387,-42.8034,16.5995,17.1271,-20.0297,57.8126,-182.6278
-1351.5625,25.5873,16.9424,-67.8283,62.1313,83.6632,-9.2382,11.1689,12.4553,-59.1153,-0.9039,39.7841,17.8935,0.7559,-7.5740,-68.6244,-9.0639,63.6130,-43.7525,69.2651,-171.4135
-1343.7500,8.9521,71.4775,-49.8736,81.1862,64.9430,-27.9099,-7.7786,-36.8586,-40.9973,-55.6197,95.2169,6.7151,46.0341,-99.2865,-13.4259,-100.7257,82.1202,-25.4744,52.7349,-153.1879
-1335.9375,49.7216,41.4063,-44.5200,87.6607,-3.3679,-22.1809,-2.3167,-24.5796,1.5280,-86.9308,101.0504,-13.8005,37.4179,-130.5867,-7.8108,-94.9700,88.0490,-54.7947,93.6259,-147.5538
-1328.1250,56.0601,83.8669,-36.6064,165.7113,4.8836,-13.8945,-68.2961,-19.4316,-64.3900,-42.6961,35.4496,49.6845,4.7961,-49.3332,0.3664,-13.6631,94.5415,-48.5604,30.0803,-176.3576
-1320.3125,107.5696,170.4571,-20.5421,182.9321,-52.7120,-34.4604,-88.1148,-90.4016,-11.1491,-99.3136,199.0280,58.7809,64.6856,-68.9277,53.7079,-70.2066,111.2033,-137.1770,-24.2999,-159.9972
-1312.5000,94.9466,227.8738,1.3852,206.0305,-30.4426,-48.1744,-30.0759,-56.5727,10.9472,-77.0830,111.4590,106.3819,56.2606,-10.6660,112.9102,-11.8926,168.7385,-185.9473,34.1859,-137.7678
-1304.6875,225.0412,357.9703,62.0217,194.8448,30.5341,-135.1943,-42.3330,-137.9962,-38.2470,-164.1581,245.6196,116.0817,111.8893,-59.7059,99.8277,-60.8747,192.9970,-231.0178,-12.6162,-113.8233
-1296.8750,310.1008,514.0125,76.6114,105.6258,-27.5305,-193.2688,-101.6306,-199.3234,-60.4840,-185.2914,370.7417,91.8516,127.9041,-155.7919,77.7118,-156.9016,173.2297,-252.1372,-32.4475,-98.9158
-1289.0625,227.9264,572.7971,25.9636,130.1741,-3.8313,-205.6005,-115.1676,-174.3257,-110.9625,-161.6817,137.6304,141.0368,35.3932,-132.1306,64.3714,-133.1838,127.2300,-263.5047,-8.5146,-75.2477
-1281.2500,116.9664,531.7539,-53.4773,124.9375,-46.9240,-211.7336,-84.4914,-178.1628,-43.2227,-167.8808,168.7456,131.1798,42.4814,-101.2776,95.2586,-102.2689,50.4500,-304.6753,-14.3614,-81.3665
-1273.4375,118.9669,463.6364,-91.9576,127.6765,-85.0512,-212.9148,-48.8486,-133.9245,-7.5264,-131.1351,93.8019,122.6608,18.2914,-65.4638,131.1152,-29.3918,53.6393,-337.8991,23.7579,-8.5149
-1265.6250,209.4294,271.9644,-37.9868,182.8809,-66.7304,-195.6501,-67.7492,-135.0541,-27.3757,-113.9469,148.3283,90.8116,37.8980,-47.1877,75.4352,-48.0512,38.2957,-247.6709,-27.6663,45.8052
-1257.8125,203.8113,55.1835,-45.1110,214.0000,-74.5078,-130.4898,-75.7429,-101.8953,37.6755,-122.8624,213.7745,43.8485,86.6039,-18.0037,103.6647,-18.7973,67.8761,-147.5446,-31.1730,111.0436
-1250.0000,60.4623,88.6253,-51.9679,247.3869,29.9786,-63.0836,28.5207,-13.1945,104.9779,-91.5313,-11.5130,112.2583,60.4795,49.4311,171.1620,48.7046,135.7339,-115.1663,70.5878,178.5434
-1242.1875,72.3287,28.2434,-6.6153,187.9872,147.6747,-90.4779,109.9958,-21.2887,224.4970,-83.0039,180.4271,30.1385,222.2526,-51.9449,290.8805,-52.6068,146.8078,-69.5860,151.5622,224.2583
-1234.3750,174.5645,-45.8120,58.0977,220.9582,213.7350,-99.5225,211.8287,18.9719,252.3714,-18.1259,173.7141,20.7427,247.2493,-60.9660,281.9632,-24.5619,180.2517,-38.6571,184.9080,326.3390
-1226.5625,168.1107,-16.5850,51.1197,217.2439,279.0962,-33.2688,167.9683,89.8220,135.5577,11.0397,92.3275,92.8015,179.9602,79.3124,165.3701,114.7878,210.0102,61.5691,178.5698,355.7341
-1218.7500,119.8643,-171.1679,35.3477,168.7407,228.6629,-48.8165,152.3266,96.5950,193.9564,-4.6067,188.1446,5.0522,224.7005,26.7987,186.9939,63.3464,195.9837,82.9931,236.4481,377.3480
-1210.9375,143.2760,-535.1066,95.2288,192.8985,287.8860,-25.7189,249.3430,144.2559,254.0029,55.3936,64.6162,-108.2464,249.7194,-24.0529,247.2776,12.5685,184.6190,70.0732,293.9933,400.6316
-1203.1250,96.8587,-582.9250,81.2694,112.2115,238.2637,-38.4741,272.5196,127.9643,313.2109,-31.4614,125.2711,-156.6624,288.7650,-36.7559,306.7270,-1.0596,138.4181,93.3038,317.7037,424.0869
-1195.3125,86.6022,-486.6223,69.4705,67.6869,226.8007,-13.0850,297.8612,125.4144,302.5775,-43.1668,77.0794,-138.8025,261.4564,-48.3055,296.3431,-11.5332,164.3887,48.6821,309.5908,449.7109
-1187.5000,96.0082,-513.6893,79.3307,112.8225,274.0029,-4.0496,233.8660,153.2889,201.6049,39.7677,50.5582,-115.2723,233.4633,-2.2073,232.6279,-2.3578,173.0213,21.7064,317.1378,423.0057
-1179.6875,141.8745,-609.3282,89.6516,53.4150,247.6638,-29.5705,207.3317,122.2528,249.0944,13.1437,171.5013,-200.8798,293.7968,-64.6563,280.3751,-27.7284,149.1172,-2.8219,294.1499,433.7726
-1171.8750,51.9034,-487.8254,70.1324,70.1702,265.4863,-12.9450,224.9572,142.3418,229.7335,-42.3361,5.5920,-120.2702,211.8043,-10.9536,224.2911,26.0538,200.3788,47.8035,309.3256,414.7106
-1164.0625,91.2001,-344.0796,110.8711,110.1775,233.5642,-8.0792,192.8403,104.3657,160.6355,-111.5776,84.9628,-73.0073,221.3813,-43.0015,192.4697,-5.9134,203.8996,86.6730,277.7588,382.9173
-1156.2500,131.5104,-339.3562,82.6178,81.1898,131.6512,0.7805,200.7348,131.2632,205.5425,-66.8234,93.3361,-81.1015,182.8039,-34.0387,164.6643,3.1311,175.4366,126.5438,319.2101,318.1425
-1148.4375,62.7830,-268.7213,51.3293,83.1624,135.6959,5.5904,168.5894,168.5569,173.4071,11.8715,-84.3239,-24.9977,71.8086,44.8717,95.8237,82.1242,139.9420,92.3683,319.6246,213.3386
-1140.6250,4.8606,-256.3057,-7.1555,25.9410,77.5372,57.2008,184.2507,141.2234,226.0873,27.3614,40.8292,-65.8427,108.6477,-13.4201,110.8018,-13.0838,82.2618,67.9930,296.8521,155.3521
-1132.8125,-3.5027,-300.3408,-16.0780,87.2788,105.9409,84.3580,212.4729,138.3778,217.3182,18.4005,-40.4737,-66.2208,92.9160,-59.1559,102.3411,-58.7348,109.1460,59.1607,288.6426,146.9333
-1125.0000,23.5951,-272.9467,-23.5396,116.0661,61.7979,76.9566,168.1508,104.1967,173.0098,46.8834,-10.2992,-43.9348,66.2326,-29.4413,58.3439,-28.9344,32.4890,51.7775,176.8909,139.9806
-1117.1875,-6.1932,-163.4816,-57.8908,86.9587,-7.2351,80.6495,133.9413,111.8946,175.8113,86.4632,-7.0218,1.9000,33.2912,47.3766,62.4590,83.9702,-32.0565,91.4927,111.2532,180.1469
-1109.3750,-94.1254,63.8193,-79.3814,139.7055,44.5920,168.1906,148.5904,178.1037,117.4611,101.8897,-212.8838,153.5604,-38.4333,171.0477,78.4325,208.7250,20.2589,143.0671,128.4719,232.1783
-1101.5625,-133.5516,23.6059,-119.3651,100.9520,4.9211,128.2297,145.7443,171.8874,150.6208,97.8130,-104.2314,131.2721,-12.6412,205.2139,74.9180,242.9760,-18.9153,244.1430,124.2074,192.7246
-1093.7500,-39.0144,-163.6793,-57.3836,91.1473,31.2140,154.2166,134.8646,193.5850,102.7367,159.6870,-78.6264,63.3938,11.5835,194.3217,64.3653,232.1732,5.8744,233.1630,113.9097,182.2357
-1085.9375,36.0387,-159.4946,22.1122,61.8360,110.0156,86.6966,141.4962,138.2400,109.3653,129.0531,-34.4929,25.1425,68.5923,126.9198,107.3272,127.8616,46.1765,167.6873,119.1235,152.2606
-1078.1250,-21.2980,-112.7486,-1.7792,-30.8769,49.4243,62.7716,191.7414,104.4018,159.6050,68.0094,15.2439,-12.8005,81.7891,66.1221,120.9053,67.1549,58.0926,143.8141,131.9506,128.9013
-1070.3125,-22.2818,-79.6687,-3.3072,73.7541,48.1943,98.1922,153.3466,114.4455,84.1982,103.3106,-95.6694,42.2918,12.0754,64.6749,45.8499,65.7995,57.3723,142.2936,95.1370,127.9003
-1062.5000,-0.0016,-92.3474,-14.5715,62.6210,-34.7823,124.8544,69.2153,117.1296,74.0489,202.8528,-32.3060,21.6336,-13.0988,54.4705,-0.9510,55.6875,-24.0920,130.0146,48.5789,81.1614
-1054.6875,-79.8610,0.8045,-97.9714,17.3384,-45.8976,113.3624,57.9403,128.8660,62.7496,191.2402,-153.0929,72.2286,-87.1957,154.1205,-11.8972,155.4346,-68.6967,83.5850,37.8800,70.2849
-1046.8750,-102.5581,118.0854,-85.2045,-4.7965,-32.8570,90.0147,71.8199,88.3920,2.6028,167.7677,-138.7085,94.5195,-73.4369,130.9195,2.3133,95.3234,-22.1366,60.3068,15.3310,47.5689
-1039.0625,-7.3426,72.2425,13.4795,-83.0303,-42.9063,41.5614,97.6122,35.1988,65.3664,83.1895,33.5894,-8.9203,18.0527,-27.3939,28.4345,-25.8996,4.3311,14.9229,41.6895,73.7676
-1031.2500,-45.5688,-107.0782,9.7308,-85.7179,-10.3999,37.6524,166.9628,110.1983,135.6786,153.1554,-115.5612,-43.7280,-20.0201,4.8453,25.1195,6.4308,1.3556,46.0870,144.6086,70.5303
-1023.4375,-61.8815,-194.5172,-7.1065,-136.5232,10.0026,57.6393,114.2158,108.3854,118.8988,136.0097,-58.7895,-73.1412,-6.3840,61.9849,8.7121,63.6659,-49.7153,65.1471,93.4284,54.2087
-1015.6250,-86.2916,-151.0705,1.9683,-126.4395,-17.6872,66.5186,86.3715,94.0884,54.0196,70.7606,-49.1184,-27.5346,-27.4048,145.0368,-18.7879,146.8137,-73.8747,38.0959,32.1564,63.7988
-1007.8125,-69.5909,-99.5368,21.1643,-108.2624,-35.2754,85.4917,68.6272,81.7664,36.2382,15.5979,-139.3316,-18.1330,-39.1834,90.1900,37.8206,92.0633,-90.9290,56.1385,50.9785,46.5018
-1000.0000,-94.0298,-91.1736,-43.7766,-168.2395,-26.0167,57.3078,150.7361,26.4318,155.3119,24.2789,-56.6835,-86.3343,18.0229,-47.8098,84.2866,-81.8397,-152.1293,29.0282,60.6479,56.0706
-992.1875,-158.8633,-156.2283,-38.1014,-126.6194,16.8532,62.7197,120.4547,79.6533,87.9854,103.5562,-160.4371,-72.2106,-18.0214,-6.2181,53.3622,-4.1509,-74.7268,70.5175,66.9241,62.2575
-984.3750,-86.9413,-156.5615,36.3327,-54.2710,54.4768,62.8700,46.9331,40.5288,14.4284,103.5768,-49.4191,-53.9605,5.7853,-5.8843,-19.7986,-3.7198,-39.5756,70.7566,-38.0430,63.2086
-976.5625,3.8839,-65.0209,96.6778,-33.0396,-32.9941,48.9147,-3.6732,5.6066,-36.2191,52.4963,47.4913,-40.2852,4.3511,-55.6490,-69.0523,-53.3870,17.4795,56.8897,-51.1022,50.0716
-968.7500,23.1153,56.8969,78.4376,21.5772,-50.0562,67.3494,-21.8765,13.7741,-53.4693,33.8105,-79.1910,21.4412,-57.5899,-73.0168,-85.9037,-107.6569,1.9375,39.4201,3.2418,69.3457
-960.9375,-59.3049,8.1564,28.5541,-59.4754,-62.7718,54.1275,2.2763,14.4426,6.6386,20.4653,17.4796,-22.4461,-6.3650,-50.0343,-26.3996,-83.5727,-45.2525,26.2972,25.9381,56.9801
-953.1250,-116.4704,-16.3394,4.9345,-118.2954,-86.2301,30.1521,52.6882,81.1103,19.9960,33.3638,-78.6057,6.6420,-70.1393,110.1973,-49.6415,112.7569,-33.1917,2.4201,73.8890,33.8737
-945.3125,-13.6772,16.0878,77.2794,-155.1867,-50.7385,-7.8841,52.0553,38.6947,19.3148,-4.7972,-5.7116,-6.7005,-25.4011,108.3629,-12.9255,111.0206,-35.1840,-35.5034,36.7908,-3.2736
-937.5000,16.3229,-61.3239,35.8413,-159.8940,-93.0371,-13.7287,46.6338,14.0195,50.8431,63.2347,63.3826,-54.8203,-10.2928,66.7227,-18.0036,32.4784,-39.9735,-41.2323,-3.1009,-8.2097
-929.6875,51.8223,-167.2557,70.9201,-19.1221,-57.8262,57.9181,7.7229,57.3610,-62.1273,97.7557,-49.0271,-26.9474,-56.8700,64.5838,-92.5805,30.4412,-4.2648,-41.4668,-3.4980,27.3647
-921.8750,50.6774,-98.8396,69.3576,-55.0259,-131.2723,55.9096,-67.8400,20.3302,-63.7473,58.6230,97.9277,-52.7157,-36.2730,-11.2085,-129.8073,-8.2532,-5.2089,-43.3577,-39.5552,26.2984
-914.0625,-17.6046,42.4210,-2.3303,-52.0985,-128.8634,57.7423,-28.5546,54.8693,-97.5242,60.3410,-10.2682,13.9897,-86.7155,27.8422,-127.1879,30.8952,-37.2987,-76.4046,34.2347,29.0878
-906.2500,-69.3312,94.2149,-54.4552,-68.6445,-144.8997,42.1162,-80.7211,45.9827,-113.7467,80.6057,-61.8921,40.2390,-118.7807,85.4279,-107.0153,88.5823,-88.8458,-22.9079,-17.4290,-22.5679
-898.4375,-67.2594,24.7788,-89.7662,-135.4172,-143.1307,6.2822,-79.0775,38.7510,-75.1566,45.6681,14.2793,-11.8823,-92.2764,86.8071,-105.0391,127.0587,-121.5923,-21.6167,-15.2882,-20.4143
-890.6250,-51.8878,107.6146,-73.7614,-121.9122,-91.0586,21.7458,-63.1302,51.4638,-96.2681,24.0222,-153.2522,51.0708,-155.2112,139.4852,-125.7621,142.8338,-107.0410,-8.0257,-0.8497,-40.9580
-882.8125,-69.2646,124.6784,-91.4967,-104.1782,-71.7434,39.4551,-43.9317,-8.1247,-40.1256,-68.3722,-23.5195,15.5682,-67.9728,11.4022,-69.2370,14.8514,-124.2514,43.8092,-18.1620,-58.2435
-875.0000,-48.5937,37.7705,-34.1716,-83.4122,-51.3772,23.2138,49.3144,-18.3816,17.0668,-48.7111,-39.7536,-16.2599,-56.7285,-42.6340,-85.6639,-76.0848,-103.4164,-6.3082,2.5854,-37.4752
-867.1875,-56.3736,28.3969,-77.2803,-55.1279,-57.4622,15.5125,-29.8829,4.6993,-63.1852,17.4880,-45.4257,3.7854,-76.5779,23.8704,-91.5379,-8.4808,-75.0347,-14.8800,-5.1213,-80.1555
-859.3750,-87.7467,101.4084,-106.9761,-121.4718,-87.1480,22.2018,-60.6696,14.4880,-20.0317,24.0800,-38.6931,2.9924,-106.0796,30.7698,-121.0127,34.5176,-71.2602,-12.0596,-1.4321,-146.4379
-851.5625,-154.6228,102.8993,-66.1575,-48.3317,-9.3294,26.3870,18.0436,37.6399,21.6171,28.1741,-217.4702,44.2072,-143.3246,35.1652,-115.9954,39.0076,-32.9916,-44.7419,37.7501,-178.2178
-843.7500,-131.7510,19.1246,-41.5774,-25.4761,15.2402,13.3150,5.5074,-23.1741,82.0231,-21.9865,-82.4906,-16.8114,-40.1001,-51.7002,-18.2357,-47.7638,-79.9820,-21.6833,-9.3240,-190.2409
-835.9375,-55.6862,-47.4548,-35.7865,-89.4449,21.0101,-18.5647,48.1780,-41.4887,87.6238,-16.9525,-39.3249,-63.4563,-19.7761,-46.3697,-12.2808,-42.3362,-73.7754,-52.4274,-39.1985,-184.0623
-828.1250,-53.2259,-10.6476,3.4182,-122.0437,60.1789,-17.0492,13.2426,-41.6525,16.6217,-15.5208,-36.7468,-48.4482,-11.7894,-7.6407,-9.9325,-3.5106,-71.1807,-14.7754,-71.6826,-181.4874
-820.3125,-28.7147,-23.8198,64.6847,-132.6249,10.3983,-30.4867,-36.6433,-78.8875,40.6723,-102.0396,98.8872,-78.2023,31.4918,-57.8694,-22.5355,-53.6435,-46.5501,8.9242,-82.1286,-156.8648
-812.5000,-64.3032,-61.1101,63.8703,-63.3280,9.5254,4.9723,-37.6309,-37.4129,2.6208,-67.6629,-49.5928,-40.7665,-15.7671,-22.2102,-23.2450,-54.8894,23.9695,77.5175,-47.6870,-157.3377
-804.6875,18.9084,-14.6143,113.8670,-51.2647,23.4481,-18.7837,13.1834,-79.5047,-57.6292,-91.4983,-35.2599,-44.7242,3.9710,-82.7632,-9.1539,-78.3522,1.2852,53.9007,-105.4585,-180.0069
-796.8750,3.1224,72.8632,60.8779,-137.2328,44.3731,-72.5478,33.9906,-119.9321,0.1131,-144.3349,-13.9271,-55.0101,15.0505,-99.3219,11.9245,-130.8178,-14.4009,37.2763,-86.2408,-195.6775
-789.0625,-36.3642,102.6384,92.2079,-140.9283,75.6012,-79.0150,28.0873,-109.9592,-5.8552,-113.8720,-56.2974,-34.7154,0.2735,-68.5854,6.2908,-99.9892,-18.7996,-38.0548,-89.7410,-164.0531
-781.2500,3.2915,-0.4489,59.6996,-208.5046,4.9749,-112.3423,31.3279,-105.3893,71.3239,-111.2660,58.4837,-94.1656,32.0780,-28.7032,46.7990,-24.0197,-85.0531,-70.2422,-86.1053,-160.2834
-773.4375,-62.3973,-137.9071,25.8670,-203.4562,8.0002,-73.0237,71.2177,-17.7854,74.1447,-36.0224,-122.0899,-77.4825,-8.8629,121.8149,123.9466,126.5885,-114.6561,-65.7839,-45.8282,-119.8668
-765.6250,-125.8257,-203.1269,31.3001,-126.1930,50.2710,-31.4686,76.3545,-14.7799,42.2087,-30.5351,-116.3893,-74.5070,21.4754,89.5632,129.3350,94.4258,-143.0185,10.9144,-73.3123,-77.2095
-757.8125,-65.4542,-250.5530,55.5496,-171.1644,1.3380,-8.1184,63.2847,-11.3252,103.0627,-7.2455,19.1012,-149.9050,68.8885,-33.8882,116.5068,-28.9417,-118.5935,34.4035,-14.0110,-52.7572
-750.0000,-11.2401,-163.1384,111.6658,-152.3130,20.2551,10.0774,45.0545,10.3590,47.7568,10.8892,-72.5605,-102.3159,13.2653,-15.4972,61.5119,-10.4678,-99.3272,-52.2663,5.1220,-33.4601
-742.1875,-16.5683,-65.2899,67.2525,-194.0424,12.6148,-35.2848,38.2637,-33.8386,40.8983,2.4655,31.2407,-100.3955,48.9762,-23.6712,90.9496,-18.5603,-138.6196,-94.4944,-36.3206,-3.7111
-734.3750,-34.7432,-83.2884,45.0095,-176.6492,26.1205,-58.5012,14.6079,-19.5347,54.1717,15.1837,-63.8184,-91.2349,22.5871,-10.7026,105.5198,-5.5115,-121.7638,-76.5811,-18.6282,84.1855
-726.5625,-41.1237,-162.4893,38.5777,-183.4963,19.4170,-65.9267,7.7396,-1.5977,47.2406,7.6964,-34.0662,-110.9373,46.7884,19.0531,135.8857,24.3193,-128.1267,-14.8744,9.8509,77.8740
-718.7500,-45.6611,-168.8651,-0.9980,-258.5312,-57.4357,-106.5087,41.7222,1.9265,154.1613,41.0642,-0.4698,-138.2990,25.2491,52.6485,132.0955,94.9923,-167.6591,-55.3255,5.1724,38.4065
-710.9375,-94.4019,-114.4651,-14.7561,-237.7931,-34.4877,-48.2932,27.4939,25.5033,102.8679,63.2332,-160.0791,-80.9883,-40.4371,111.0411,118.0793,116.4612,-181.4007,-69.9771,-8.7253,24.7286
-703.1250,-97.2898,-119.2213,-17.6477,-206.2332,-74.7018,-15.2310,-49.8969,-27.8452,63.4054,-14.7550,-16.8261,-102.0751,-2.9086,34.2721,78.8894,39.7632,-149.3023,-38.7877,-81.7973,21.8928
-695.3125,-88.6825,-147.4685,-7.0229,-233.2090,-101.4204,-42.6759,34.2035,-25.4220,72.4273,-42.2501,-43.0919,-138.3087,-2.5400,-30.0008,88.1832,-24.4404,-105.7107,-101.1110,-2.3828,-4.4514
-687.5000,-50.9326,-41.5666,34.7651,-267.0806,-21.9889,-148.9846,38.4493,-111.3549,40.6039,-74.6011,-74.2062,-145.9652,2.3736,-99.1386,93.6189,-93.5063,-67.9899,-170.3032,-70.8313,-72.6535
-679.6875,-11.7434,-39.2292,39.0092,-298.5472,-18.1109,-218.8522,5.1443,-181.6410,7.2386,-108.4955,40.1275,-187.2568,19.3131,-169.8481,23.4963,-164.1456,-134.8393,-202.0527,-137.8389,-68.4096
-671.8750,-88.3121,-82.6676,-40.4876,-235.7872,-61.9874,-116.4717,-74.9165,-75.3324,-109.8812,-6.1343,-150.3032,-123.9268,-111.8367,-66.3225,-93.3900,-60.5516,-176.4561,-68.5527,-109.6143,-74.9211
-664.0625,-134.5881,-129.8121,-50.6825,-210.7615,-72.5718,-53.8002,-85.6870,-74.5811,-120.7053,-53.4781,-86.4323,-133.6487,-72.0133,-77.5036,-66.9937,-71.6697,-151.7901,-44.7643,-120.1112,-85.1416
-656.2500,-75.0722,-143.1554,10.9357,-153.9706,-47.3568,-30.3338,-60.6678,-97.1919,-132.7384,-66.0309,-23.7758,-134.0705,-32.9107,-126.8879,-78.8195,-157.9889,-57.3308,-57.1878,-131.8230,-96.5759
-648.4375,-33.7014,-209.6527,91.4227,-42.3663,-5.2986,-25.0285,-165.8076,-80.6270,-272.9366,-60.7445,-17.2625,-93.8444,-31.1546,-47.4315,-109.8159,-41.4691,-16.0412,-16.7712,-195.7056,-90.1725
-640.6250,-31.3919,-103.2009,93.8692,-75.8495,-39.3024,-23.7734,-201.0081,-125.8497,-271.1937,-96.5043,58.1983,-66.4703,-25.0565,-10.0433,-107.8848,-40.0193,-48.8154,-85.4084,-263.6567,-87.8290
-632.8125,-46.9406,125.4000,39.4784,-93.2097,-57.1573,-41.3693,-145.0741,-102.7153,-252.3183,-78.1107,-106.2095,3.9293,-94.6997,-27.5160,-88.8269,-58.4363,-29.4502,-101.9036,-174.4773,-68.3466
-625.0000,-19.0458,151.4520,67.5444,-101.1633,-66.5691,-51.5253,-190.7038,-110.6393,-224.9967,-51.2692,-4.1605,-2.0455,-68.1039,-37.5516,-98.3368,-68.4141,-72.6515,-110.9625,-180.8661,-40.4311
-617.1875,-9.4085,18.2507,40.3735,-92.3966,-94.2355,-79.9350,-181.5914,-102.5236,-179.9348,-5.6773,42.6205,-31.6503,-66.9908,8.1562,-126.1202,-22.6542,-63.1168,-66.2788,-207.5278,-30.7768
-609.3750,29.7328,90.5253,79.7201,-19.1512,-55.4061,-41.8438,-178.9941,-83.9436,-251.3898,-4.5878,-66.0888,29.5846,-107.1627,9.3428,-159.4229,-21.4136,-59.0955,-64.0981,-203.7197,8.3669
-601.5625,56.4771,116.3871,35.6830,-63.3428,-100.9934,-88.1561,-187.8173,-141.8682,-186.2551,-50.8976,109.8104,-22.4276,-29.0312,-73.8810,-96.1462,-104.5894,-32.4850,-37.3286,-212.3387,0.0985
-593.7500,38.4648,60.5066,52.9101,-12.3228,-84.3297,-35.2272,-171.4086,-88.5292,-169.8901,-34.9542,16.9433,2.9906,-64.9304,-20.8631,-115.6421,-14.5215,-15.6369,-57.3222,-195.7260,17.0624
-585.9375,67.7444,17.9400,82.4497,51.9536,-91.3710,29.9913,-216.7165,-92.0377,-252.2353,-43.7170,46.3811,35.9777,-57.6809,44.4408,-122.8552,13.8265,-90.5144,-29.0232,-271.8372,46.3065
-578.1250,13.4622,137.8375,23.4433,-3.3556,-186.9716,-30.3429,-202.5840,-118.6686,-164.1413,-102.0282,98.2541,23.4234,-34.5438,-15.8156,-35.6437,-9.3878,-74.9597,-82.2850,-220.5188,97.9916
-570.3125,-15.2327,353.3192,30.0440,-32.0899,-143.9785,-61.0804,-159.8698,-115.6212,-84.4592,-96.7310,-78.2846,92.4254,-101.9686,-10.4830,-29.8511,-4.0153,-32.8201,-147.9514,-179.6181,104.2629
-562.5000,-1.5753,225.1173,-27.9983,-90.5065,-165.6458,-83.4672,-144.8126,-98.9642,2.5687,-47.0827,46.5305,22.2222,-62.6151,4.1847,-15.7316,47.6903,-125.3492,-135.2793,-166.3852,82.8738
-554.6875,26.6304,75.4589,-34.4761,-98.4049,-135.7694,-91.3108,-79.2206,-36.0961,-4.8696,19.1169,-33.1160,0.9829,-96.6862,70.3954,-59.0892,113.9366,-97.3432,-143.0689,-103.6206,76.0204
-546.8750,-19.2784,97.7186,-6.0529,-75.4435,-73.0050,-65.2585,-89.7495,-30.9904,-88.4180,9.2165,-5.8604,19.2017,-66.1725,60.4937,-69.5719,67.0723,-38.4612,-84.9679,-79.9833,30.0507
-539.0625,19.1028,28.2971,-3.3205,-74.2140,-70.9484,-63.9139,-50.9914,-66.5639,-12.6804,-26.3834,107.6821,-43.9720,6.7130,-49.1200,-30.7797,-42.5063,-36.2914,-48.5830,-78.0694,32.3686
-531.2500,18.7298,26.1321,35.6731,-4.7639,4.3528,-26.3241,-13.0019,-45.7632,-48.7082,-62.7379,-38.5358,6.4987,-35.7550,-11.4932,-66.7602,-4.8467,69.1148,-48.9545,-78.9300,-3.0773
-523.4375,32.8994,214.5171,51.2243,-26.8070,-16.8091,-85.1924,-71.4809,-122.2982,-70.1936,-158.5500,87.8016,39.1861,-0.4470,-33.3256,-51.2134,-26.6484,48.0540,-35.7783,-135.2652,-23.9872
-515.6250,80.1040,260.9448,102.8327,-50.8207,-2.9222,-72.0108,-57.9248,-128.3545,-19.6444,-145.3118,102.1709,28.0090,2.9618,-94.1207,-74.6433,-87.4153,60.0335,-24.5547,-123.5676,-46.8650
-507.8125,124.6098,91.6602,113.7535,26.4395,43.2568,-62.5276,-85.0861,-114.5912,-46.8094,-98.7753,112.8470,-13.9567,47.8054,-121.6350,-27.7986,-114.9035,104.2974,17.9641,-115.6044,-73.4594
-500.0000,114.1686,-26.5695,103.7345,14.7183,32.4761,-38.0024,-23.2171,-111.1468,15.0594,-147.1924,212.5739,-60.6742,103.8352,-133.1082,-2.9315,-126.3531,93.6014,42.5226,-90.6162,-84.0225
-492.1875,80.5693,9.0674,107.5793,85.8240,109.5433,-35.6270,16.4784,-74.1821,17.7583,-71.7585,69.1362,2.5072,41.9598,-93.7403,-73.2417,-123.9677,129.7417,77.9249,-54.8030,-117.7542
-484.3750,100.1148,26.8516,128.5790,104.0485,129.7498,-15.1020,0.3034,-81.6988,38.5902,-51.1706,127.8525,-16.3206,68.8676,-184.2359,-89.4304,-214.4443,114.0176,96.4664,-35.8655,-133.3555
-476.5625,47.3524,113.3384,111.2883,14.9473,111.6465,-70.8763,18.8048,-40.3522,20.1022,-32.8698,73.2542,-1.9490,22.9326,-129.0400,-107.9504,-122.2317,130.9803,7.6980,51.7508,-151.2756
-468.7500,56.2427,225.4893,122.6600,22.4669,85.1868,-24.0080,-8.0603,-5.3917,-80.7523,-59.9181,-26.6896,75.0806,-53.4906,-46.2146,-171.8484,-39.3918,175.5722,15.5624,59.9884,-177.5610
-460.9375,137.5758,199.1015,135.4835,31.4017,24.1641,-49.6918,-33.4949,-58.8035,-69.1723,-85.5141,206.8142,34.6764,15.2138,-108.9467,-197.3232,-139.1158,185.5982,59.8683,34.6521,-202.4108
-453.1250,113.0448,137.8761,148.4630,111.4604,35.2827,34.7731,-21.8025,-3.3899,-57.4651,-73.9572,71.4469,46.7645,-15.2168,-134.5280,-185.6784,-127.6873,230.7592,105.3126,79.4426,-227.1246
-445.3125,128.1054,81.2395,166.0463,160.0916,51.9909,50.8314,-79.5307,-47.0850,-78.1629,-57.7988,125.6917,33.7878,0.9298,-155.5255,-206.4500,-185.6775,140.5069,84.3510,-11.1846,-247.2581
-437.5000,91.3182,77.7309,90.7904,86.8530,12.8419,11.0403,-82.1151,-72.1819,-43.7168,-24.4855,87.0745,-0.6398,-23.1379,-158.3899,-173.0930,-188.5330,67.3874,10.5293,-48.6800,-249.2582
-429.6875,20.1231,110.8351,16.1384,84.1850,84.2907,7.8474,-11.1164,-62.6878,-46.6871,-26.5736,-98.9456,31.9769,-67.3087,-124.6655,-139.1598,-154.8060,31.8519,-25.6975,-49.6000,-214.6812
-421.8750,-15.2754,143.7573,-22.7127,12.2857,8.5306,-31.5497,-14.3372,-86.2875,-12.8689,-29.8617,46.8325,4.4575,-39.3202,-128.1551,-141.4532,-121.2953,-3.8984,-27.1320,-86.7470,-180.3260
-414.0625,52.7681,69.1354,8.8930,7.8196,39.2180,-1.4946,-21.1292,-51.0663,-56.6252,-36.6856,4.0420,9.2939,-46.5972,-61.1980,-148.3362,-90.3404,27.7855,-31.1217,-54.4683,-112.5401
-406.2500,-6.3978,44.3182,-13.7001,19.1282,52.6972,-25.6386,-45.1439,-47.1589,-80.5997,-23.7085,-54.9417,6.8018,-33.0945,-48.4538,-62.4485,-78.6006,40.2523,15.6859,-43.4116,-135.9711
-398.4375,-31.7301,17.3564,-75.4419,-78.7373,27.0148,-51.9275,2.6768,-29.9016,4.2579,-12.8796,-44.0912,-53.1537,-24.4502,-74.8678,-14.7320,-31.0214,14.5599,-45.6627,1.4811,-161.5726
-390.6250,3.0747,85.5540,-2.0292,-46.4727,98.4744,-17.0649,37.6287,-49.8307,2.2554,-51.8950,-81.1028,-22.7671,-29.2766,-114.1440,-53.8865,-107.3065,13.0009,-118.8674,-0.4942,-163.0446
-382.8125,84.0232,129.9028,44.5326,-107.0858,34.0785,-83.0562,8.7180,-140.4912,-26.6011,-80.7563,149.0376,-64.3896,49.3496,-179.2836,-45.9139,-209.4575,-12.4254,-38.9332,-96.3422,-117.3807
-375.0000,55.5165,275.8080,13.6444,-137.1673,2.2245,-77.4958,13.3382,-113.4288,-94.9258,-75.0578,43.7081,7.4522,-21.8120,-100.8771,-77.4163,-131.0646,-5.3140,-32.4584,-89.6613,-75.1835
-367.1875,52.4110,341.1224,12.1626,-106.8712,36.7576,-81.5386,-63.6693,-112.9327,-134.8658,-78.9584,4.7886,46.7023,-40.0657,-68.0796,-80.5487,-61.2830,25.1804,33.4097,-129.6062,-114.6041
-359.3750,119.1493,195.2968,46.5331,-41.7466,-3.8759,-85.7301,-103.8465,-127.0561,-101.9709,-82.9998,149.7138,10.4312,-4.0347,-72.4405,-121.8605,-101.6620,57.5120,-5.8787,-133.7155,-118.1959
-351.5625,95.5763,135.1908,58.6044,3.0669,7.1883,-38.2177,-57.3410,-65.1712,-128.3960,-35.3371,-22.6677,37.4631,-55.0738,-25.1148,-111.5029,-55.3605,32.5296,4.5291,-88.1439,-107.1099
-343.7500,43.0037,116.0905,3.6760,19.8668,-11.7538,-20.7050,-75.8526,-92.2056,-110.8295,-54.6702,31.9519,25.7940,-18.1799,-44.8098,-57.1677,-74.0780,-19.4660,56.9297,-141.5983,-89.0384
-335.9375,11.3241,47.8886,6.6516,21.5537,-9.8020,16.7119,-75.4850,-52.6644,-110.3829,-17.0949,34.4495,11.5455,-23.3684,-43.6060,-93.9587,-73.8949,-16.5710,59.2271,-104.1707,-51.0813
-328.1250,19.1847,-16.7450,51.1743,27.7718,33.6871,23.6807,-105.5908,-23.0352,-103.4047,-45.9639,5.4998,-2.5737,-16.0004,-36.8558,-87.2282,-30.1716,25.8583,66.0723,-61.2210,-43.5947
-320.3125,47.3408,-25.0658,44.9954,-50.7263,26.4578,-21.0505,-39.4142,-60.6578,-37.1391,-127.5214,108.8465,-54.6442,50.1705,-81.8149,-21.2201,-75.1634,18.5812,58.2132,-33.9898,-50.8307
-312.5000,0.0506,-2.8195,-2.6233,-29.6819,87.7799,2.7688,20.2952,4.3928,-14.3395,6.4716,-124.2598,-5.1008,-36.0925,-22.2443,-34.6842,-51.6239,-29.1590,44.8932,22.7662,-63.5347
-304.6875,-25.6472,40.0477,-66.6441,-22.0518,59.6877,48.1848,-44.4202,16.3110,-78.9481,89.0613,-40.7578,5.9116,-35.4838,-14.0821,-63.5700,-7.4947,-91.3154,53.1701,-38.9022,-54.6528
-296.8750,-62.1111,2.1770,-104.4225,-25.1829,20.8337,45.8539,-46.9040,48.8339,-44.3203,86.9082,-5.0299,2.4762,-50.3400,20.3359,-103.2289,26.8882,-93.2321,14.6925,28.6648,-56.5363
-289.0625,-34.2809,-77.3821,-38.9020,0.9784,48.2712,72.8296,15.8893,75.3843,-17.4104,77.0652,-124.0073,-3.0605,-60.7263,10.0473,-76.6151,-19.4375,-65.8632,6.5098,90.5058,-29.1359
-281.2500,-37.8526,-152.3329,-41.7828,-74.2707,44.2925,31.4117,48.2562,44.1258,88.0819,72.8326,19.6176,-92.9488,23.6865,-67.6437,-7.4321,-61.1677,-69.9008,1.9188,85.9287,-33.1473
-273.4375,-64.0780,-73.9196,-68.3097,-66.1776,53.6574,77.3446,56.9488,72.5983,22.8972,118.9546,-117.4223,-24.2699,-43.3111,14.0188,-35.9237,-15.5462,-60.5930,45.6715,59.6858,-23.8224
-265.6250,-84.2602,45.5658,-89.7896,-18.0518,32.0593,128.3258,-2.3275,61.0892,0.7562,133.1285,-66.4030,17.5579,-49.1083,-8.2833,-59.3806,34.1088,-116.2425,59.4687,-31.5292,-9.4676
-257.8125,-118.4948,-96.9871,-126.3188,-19.9808,-7.5936,125.2636,-5.6647,101.5392,34.5515,130.2626,-67.4511,-4.2391,-56.0672,61.3546,-62.9100,67.7019,-46.9523,58.2040,37.1886,24.8255
-250.0000,-96.2874,-182.0873,-67.4035,35.5339,51.2004,146.6558,15.4237,124.3077,18.7814,151.8548,-155.0494,-9.4997,-53.3760,46.4423,-42.0097,52.7430,-25.2241,44.3865,58.3374,46.5550
-242.1875,-61.4386,-217.5279,-100.8446,-0.3111,53.6329,111.6982,17.1452,83.2364,93.6493,191.1009,31.0014,-72.8860,29.6969,-25.8206,-3.4838,-56.5684,-94.8544,79.2161,58.1208,11.9205
-234.3750,-50.0938,-137.4433,-88.7878,-25.6604,64.5590,122.2496,63.3548,104.9307,103.9988,201.8556,-103.4669,-60.1915,-2.8077,-52.5869,43.5190,-46.3848,-83.9959,-15.4566,103.3900,22.7695
-226.5625,-106.1518,15.2494,-111.1361,-14.4197,40.0759,97.3996,39.1421,65.9871,78.9426,140.2201,-127.3262,19.6778,-44.0487,33.2370,18.1043,39.3873,-71.5508,-38.5336,10.2431,35.2071
-218.7500,-112.5673,8.5993,-154.8412,48.4646,-41.7637,89.2048,-80.4358,64.5649,34.5299,169.2471,-97.5508,61.1557,-72.6943,134.7080,9.3211,140.8047,-76.4699,-9.9659,-67.2669,64.2863
-210.9375,-81.0494,3.9196,-122.6089,148.2953,-46.6614,119.9637,-86.0805,76.0051,-45.9446,163.2312,-139.8422,98.1639,-81.5155,128.1286,2.4762,134.1702,-45.4507,20.5560,-70.8377,95.3018
-203.1250,-66.2929,-53.4923,-107.1380,161.3706,-68.3235,97.9778,-108.4867,23.3060,-32.1719,67.4697,22.1162,53.3566,3.5188,68.7924,52.8670,74.7773,-31.1956,34.3261,-93.1713,109.5552
-195.3125,-29.8426,-124.1998,-105.9734,125.1463,-105.2943,97.6986,-37.2064,75.8002,-32.7117,67.4221,-50.2432,51.5395,-44.3023,141.1592,14.9418,147.0859,-31.2453,33.7923,-23.8121,109.4946
-187.5000,-38.6427,-133.1505,-74.0635,115.6678,-39.5217,90.1746,-44.1909,66.5566,-76.5077,61.1328,-55.8450,35.4694,-22.8480,97.2658,7.7493,67.1327,65.4450,60.0033,2.2813,66.1723
-179.6875,-12.3474,-71.9837,-46.0554,70.2853,-11.6526,80.7550,-54.0831,54.5168,-49.2144,51.9471,7.6445,7.4427,3.0574,14.4656,-2.3647,20.2714,56.2289,15.3160,28.4626,56.9419
-171.8750,-93.7602,-15.4992,-57.7568,56.2073,49.5099,104.6405,-30.6976,124.0646,-25.6386,112.0696,-187.5780,68.8392,-86.2052,110.9672,-53.1952,116.7104,43.3068,1.9309,84.9326,44.0003
-164.0625,-39.2823,38.8979,-72.5691,75.0221,-4.4355,87.4261,-48.4313,75.7942,-80.1655,59.1031,-19.8944,88.4060,-48.5227,130.3658,-71.1389,99.0490,27.2741,-13.5531,34.2942,63.9428
-156.2500,25.9900,-1.8962,-40.5890,103.6412,-46.5812,82.0196,-91.3685,71.7663,-121.8993,53.9433,48.5680,77.0036,-30.4736,124.5692,-77.2958,93.1871,93.0343,15.7601,28.4512,58.6696
-148.4375,100.8111,-69.1270,73.9374,140.8087,-6.1843,85.1675,-88.7663,61.1341,-155.0890,57.3370,52.5830,48.4994,-14.9372,54.3163,-110.9148,59.8717,96.3351,18.6179,-4.8560,61.9394
-140.6250,93.1210,-7.8434,27.9531,131.4800,-88.2978,75.8209,-171.6774,34.2012,-128.7834,84.2390,154.0976,46.3243,-1.0266,43.5586,-85.0482,49.0462,52.1349,9.9788,-48.6761,88.7034
-132.8125,-3.3742,35.6532,2.1643,210.3655,-116.2109,120.6825,-200.4063,81.7434,-120.2950,129.3482,-19.2011,121.9600,-77.7971,124.9991,-77.0004,130.4178,97.1328,-17.4543,-40.3059,97.6607
-125.0000,56.0368,-10.9407,65.2672,198.1586,-90.2387,73.4452,-175.2521,32.0542,-131.9190,82.3613,116.4145,81.8235,-13.3604,77.3384,-89.0666,45.6871,121.0328,-28.9851,-52.0521,86.5045
-117.1875,67.2497,-1.7035,78.1722,135.7629,-79.4701,11.0122,-128.3111,32.3620,-48.7556,57.1776,91.8165,40.3269,1.1740,14.4838,-42.3546,19.7577,130.7343,-18.7250,27.9928,61.1383
-109.3750,44.2532,45.3569,54.8675,147.1751,6.0912,23.3836,-80.5869,42.6758,-36.8007,105.8012,-40.9798,73.8793,-28.8273,26.4278,-30.8561,-5.3702,37.2265,-42.6663,39.8256,73.5625
-101.5625,15.8473,51.0254,-11.8515,82.1884,-61.7590,27.3629,-76.2716,31.8523,40.7497,111.0390,109.8175,20.7000,10.6287,-44.0297,-27.7708,-38.9006,-25.6831,-37.0016,44.2577,114.5810
-93.7500,7.5920,75.8511,-22.4246,71.3669,-73.4523,15.5030,-51.8159,95.1190,28.4372,136.4363,-10.2503,44.2526,-56.0207,-19.3396,-75.5453,22.7158,-36.4418,-12.1893,139.8312,139.7431
-85.9375,-21.5608,-24.2105,-13.9040,40.6449,-66.0560,22.7443,-46.2749,95.5865,72.2142,142.9374,33.8037,11.0450,-23.0188,24.4507,-34.2307,66.4277,-66.1011,-7.2846,109.4947,109.9974
-78.1250,-37.5622,-181.0958,-67.2373,59.0865,-157.5248,42.1435,9.3968,116.8648,164.1299,162.6026,53.9892,-31.3050,-10.3344,43.4017,21.2145,85.3034,-81.6156,-23.2308,128.3053,129.3969
-70.3125,-52.5245,-161.9210,-83.5337,77.5911,-100.9520,61.6033,28.1101,129.6723,183.0876,146.3307,-108.7793,-6.3773,-40.6611,62.4047,76.7055,104.2304,-62.0825,-109.1180,147.1586,148.8409
-62.5000,-75.1833,-44.4476,-140.5366,-52.5949,-122.0845,-70.6311,43.1184,73.9986,198.3482,124.3630,16.7589,-23.6421,-9.9473,77.7051,91.4878,82.4542,-49.2558,-97.7074,158.3010,90.5864
-54.6875,1.5644,-3.5612,-94.1465,-47.3679,-77.8185,-62.4598,86.5144,82.4343,168.9888,132.8031,-11.3157,-0.3693,-35.2434,84.4147,24.6581,89.0865,-44.0283,-126.8919,163.8401,61.7299
-46.8750,0.0504,-75.8934,-58.0209,20.6154,-6.8110,-27.5322,83.6451,48.7971,166.3760,57.9978,23.3665,-21.5438,27.2702,8.8726,58.5676,13.4665,-11.0531,-59.3177,126.1229,59.6143
-39.0625,23.2301,-89.5079,-36.2085,6.3146,-22.1065,-6.8969,104.4743,21.8419,149.4615,41.9063,81.7339,-46.0245,48.4139,-44.9655,41.1724,-40.4539,-58.3785,-72.0477,78.1090,117.1918
-31.2500,7.7023,70.1832,-51.1068,60.3290,-38.1022,51.0451,13.5973,44.4951,59.8448,63.1234,-42.6068,39.9127,-32.3881,-24.4967,-12.9282,-20.0638,-4.4057,-18.4755,61.3939,101.0617
-23.4375,31.1191,163.8352,-24.0681,12.2996,-49.1540,3.9415,-71.3300,-16.2437,12.1853,-20.7031,131.0038,34.7041,31.9360,-35.0806,12.9220,-30.7270,18.5140,40.0437,13.6337,53.8798
-15.6250,-4.9156,127.0447,-23.4920,9.8312,-48.6535,-32.6030,2.2936,6.3272,48.0724,-19.9726,21.1508,50.2613,3.1925,37.8874,48.3203,42.1576,17.9847,38.1214,46.4290,17.2433
-7.8125,-10.3044,14.9087,-28.2779,38.0214,19.4962,-1.4954,68.5614,14.3168,41.6190,-25.5807,-21.0456,28.0917,27.0242,31.5047,78.3717,35.6914,12.0965,31.8476,39.8739,11.2535
-4000.0000,-40.9286,-41.6189,-46.9430,-3.5995,-16.4101,27.5106,40.0044,17.2698,61.8589,21.9985,-4.9072,-10.3898,10.5531,12.9685,44.6186,15.1280,-41.5636,35.2279,10.2685,-16.7194
-3992.1875,-20.0574,-55.5150,9.1631,52.8731,39.6107,84.7026,-13.8925,62.8978,-64.7264,79.1777,-95.4508,29.9575,-50.1901,32.8387,-82.2851,35.0523,-56.0408,92.6658,-4.3950,39.6052
-3984.3750,4.0666,38.8532,-3.4679,77.6031,-11.1367,108.1540,-99.5501,29.8584,-150.0694,65.6051,37.2666,57.9599,-36.4401,18.9643,-130.9473,21.2276,-67.2714,118.3687,-84.8293,99.1762
-3976.5625,-14.4543,161.5846,-21.7337,24.6852,-65.5464,53.9667,-116.8629,21.7509,-167.0687,11.3901,-17.6647,80.5493,-59.3099,38.4395,-75.2700,40.7519,18.8396,66.4313,-32.9250,81.0956
-3968.7500,-0.9330,246.3967,31.0598,38.8180,24.0955,-38.1690,-99.1294,-32.3065,-185.0228,-43.7655,-36.5661,102.2362,-39.5722,19.9662,-57.5440,22.3270,67.9908,46.5514,-53.9842,25.0614
-3960.9375,102.2419,137.8865,102.5125,-33.4097,58.3851,-76.6573,-100.7499,-63.4218,-113.3320,-81.2698,108.1891,21.1800,26.8291,-18.8593,-59.1694,-16.4508,-6.2214,45.3323,-56.4144,22.6735
-3953.1250,56.9711,-12.0596,89.5249,27.9253,8.2154,-14.5825,-74.8285,18.7076,-124.1083,-19.2071,-50.5220,28.8010,-38.2682,42.8786,-70.2616,82.3339,-15.8962,72.6742,-30.3117,83.8322
-3945.3125,-11.9017,23.4100,51.9481,-7.3293,-28.5665,-14.0897,-75.5222,2.6283,-87.5050,-18.7303,21.1669,23.1186,-9.7776,42.0275,-33.9701,44.5325,-15.1821,38.4281,-28.8361,119.3886
-3937.5000,-26.8266,78.8415,1.3274,13.3689,-43.4149,-27.6371,-52.2784,8.9893,-27.9617,39.7061,6.8090,40.4361,-31.9644,28.1330,-47.7379,30.6867,-30.5256,25.1393,-9.4199,104.8922
-3929.6875,-3.9016,102.1374,24.5687,107.9296,15.5798,32.6770,-65.1916,11.9928,-76.5846,101.0036,-41.7210,71.7913,-48.7463,-20.8991,-96.6711,-18.3015,-44.0243,14.7131,-56.1647,128.2447
-3921.8750,7.5735,80.0129,2.3641,15.0420,-79.8860,-24.4515,-86.5698,-16.4180,-24.6666,79.8581,119.3078,23.3427,-12.4996,-6.3803,-81.0661,-39.7401,-66.9891,28.8455,-42.3818,106.1423
-3914.0625,9.1437,12.0213,-30.7380,18.2661,-76.2594,-20.4701,-45.8612,51.5001,16.3406,84.8142,-60.5794,44.0278,-75.2774,109.2458,-41.3708,111.9313,-64.8634,-37.9114,28.4924,73.1338
-3906.2500,-18.6338,-15.2836,-22.1841,-8.8516,-31.9870,-46.8334,0.4913,38.6827,63.9902,21.4209,-14.8253,16.7326,-37.6918,82.5212,-31.0278,85.2466,-59.0974,-64.0086,71.9963,45.7647
-3898.4375,-8.5116,-73.6690,-47.7276,-69.0677,-57.8255,-71.2946,11.7459,47.6580,148.5441,32.9326,32.8282,-48.9400,-3.1721,19.6962,17.2095,22.4603,-49.4398,-52.1955,152.3884,56.2895
-3890.6250,-60.3385,50.0131,-28.2102,-14.2232,-1.6198,-13.6955,107.0455,34.2719,133.1376,17.5114,-129.4989,13.8439,-30.5039,-33.0704,38.4842,-67.2693,-100.7427,3.6787,135.8197,39.8630
-3882.8125,-104.3159,145.5611,-73.8374,-59.5306,-48.5714,14.7582,61.1765,-11.7495,88.5688,8.9516,7.0339,5.8577,-0.2173,-78.9841,29.6023,-76.1436,-147.2038,65.4121,21.0815,30.2798
-3875.0000,-72.4859,142.9257,-78.6554,-62.0359,-52.7339,48.0202,20.1003,16.8299,10.7872,79.2069,-34.6387,29.0628,-42.8303,-9.0950,-11.4902,-6.2168,-185.8686,28.9467,-17.8723,62.4937
-3867.1875,21.8503,27.8132,-50.9580,-71.0290,-26.4045,2.7926,-25.4966,24.5015,-34.5207,107.9679,30.1897,-0.2326,-20.6592,56.2994,-20.0987,59.2137,-161.0342,20.9846,-27.3466,53.2034
-3859.3750,67.9402,-31.5180,-4.5027,-95.2701,-52.3364,-58.6819,22.6320,13.2018,13.9030,45.4768,40.7736,-28.6290,0.2064,67.4574,28.0232,70.4060,-151.4530,-38.2240,17.9096,63.6634
-3851.5625,-23.5132,54.6465,-24.5905,-9.0522,0.1734,-4.7011,40.2000,34.1768,-5.2472,63.4397,-162.2270,50.9860,-70.1304,85.0819,8.5780,88.0629,-101.4255,-21.9844,-2.3935,43.5766
-3843.7500,-10.5696,103.2401,-46.2743,4.5760,-58.9272,11.6787,-17.8491,-29.3045,-63.0085,5.8079,36.1739,39.7041,-1.6753,27.1049,24.5249,30.1164,-90.0036,63.6616,-94.3116,21.8868
-3835.9375,24.8292,33.2986,-10.5037,74.6617,-59.5873,49.5113,-90.4533,4.6594,-98.3228,80.6274,36.0232,43.9449,-26.3221,27.5809,-49.0856,30.6209,-91.1359,99.7602,-94.7902,21.6448
-3828.1250,25.9802,-35.8701,-8.9783,111.5093,-58.4982,89.1008,-88.3199,27.9854,-131.8974,120.1985,0.6099,36.5380,-17.7133,29.8105,-9.9565,32.8768,-55.5219,102.6189,-93.5359,23.1435
-3820.3125,45.1437,-51.0133,47.5580,26.3643,-111.4187,35.6917,-32.1968,-2.0915,-39.4837,-7.2387,57.2098,-21.8124,20.0359,-23.9658,47.1682,16.1248,-36.9119,-17.5215,-39.3070,42.6392
-3812.5000,78.1639,-17.2755,45.9563,25.0821,-41.4932,-1.8651,-33.2406,27.1835,-76.2425,-7.8255,-55.3645,20.8010,-27.4808,49.1188,9.1286,52.2314,-4.4466,-17.8175,29.7554,40.9834
-3804.6875,62.7364,74.0495,67.9072,-24.6383,-57.0268,-15.8716,-47.7607,-24.4795,-90.4754,15.1359,77.6087,25.1859,-20.1527,34.7628,-79.3731,37.8951,-55.4338,39.4402,-91.6530,25.8787
-3796.8750,-5.1895,182.9001,-2.6443,-20.8435,-54.0696,-11.3751,-79.7966,2.5719,-122.2298,93.5980,7.0750,77.0436,-73.5709,75.9117,-111.3915,79.0614,-52.9201,44.2039,-88.5680,29.2747
-3789.0625,14.0844,97.9782,91.0072,34.1684,2.0880,46.3298,-95.6468,6.3875,-175.8118,77.2622,-47.2834,59.9190,-51.2201,22.2670,-91.2325,25.4317,36.8006,30.1748,-103.2910,48.8693
-3781.2500,112.6667,-84.6154,122.9662,27.4876,-40.4600,5.3360,-101.2182,-21.7519,-143.1128,36.2213,131.6696,-35.4541,40.9496,-19.0857,-22.7913,21.0914,63.8264,24.4461,-111.7317,6.7601
-3773.4375,69.9600,14.5250,151.6349,20.5164,-11.3111,-0.9587,-108.1087,-1.2584,-186.7349,66.8845,-22.6869,39.0697,-38.2593,84.2631,-66.6657,87.4502,90.5562,-16.5884,-119.4837,-0.6546
-3765.6250,123.2656,138.7008,172.3141,4.5523,-28.1637,-16.2614,-160.0215,-62.4014,-202.3771,-22.4631,107.9561,49.9995,-17.4820,32.6224,-119.5507,35.8168,108.2919,3.3680,-170.2567,-17.0735
-3757.8125,193.4247,68.7564,206.8476,-30.5563,-31.1730,-17.7209,-162.0969,-52.7707,-167.1799,-23.9703,105.4508,-10.2680,5.6415,-43.1637,-84.5944,-39.9647,177.8861,-31.8299,-102.1909,17.3516
-3750.0000,90.2872,1.5341,210.0812,43.0628,45.5151,-13.4762,-85.4853,-32.9050,-126.3051,-19.7763,-38.3800,18.2832,-5.4215,-2.2456,-43.9543,0.9515,180.1895,-27.3179,-99.4322,20.4708
-3742.1875,2.8060,-50.0177,119.9672,26.3441,-9.1461,-29.5790,-29.2457,-33.0173,3.2037,1.0631,55.4475,-8.5144,30.8202,18.3137,13.3224,21.5100,91.1478,-43.1552,-82.0311,3.2328
-3734.3750,-10.0702,45.0530,69.4533,50.2400,-23.2003,31.9146,-42.4144,22.1573,27.2948,62.4956,-141.1456,48.5667,-64.5402,42.4777,0.1917,82.6702,43.7139,-53.4013,-59.0272,26.5901
-3726.5625,20.3145,110.3980,64.1953,10.3952,-66.0024,27.6600,-47.3470,-9.6741,22.6202,21.1725,-37.4955,27.9243,-33.1778,-36.1134,-4.6901,-32.9275,37.5332,-22.4051,-29.7826,21.1948
-3718.7500,25.4624,46.5147,34.6865,-53.6958,-96.0620,-0.8497,-2.5459,-10.4348,103.6852,29.5986,43.9190,-30.3112,-4.7295,-64.9623,3.1672,-61.7859,42.1080,-14.6620,11.2011,-8.4514
-3710.9375,-29.4818,-42.4301,54.0827,32.1300,-3.2187,19.5412,53.1331,33.3528,86.6227,49.9255,-84.7805,-9.5795,-24.3999,-44.9054,-14.0995,-41.7377,92.5910,1.9759,61.0768,-63.1999
-3703.1250,-7.4191,-125.3380,42.4785,20.9679,-15.3846,45.9270,79.7929,17.1975,150.5431,3.2436,14.5206,-49.8770,21.3890,-54.8361,11.6241,-51.6838,44.0780,-9.3899,48.9365,-110.9554
-3695.3125,13.8973,-66.9700,64.1195,43.0758,-30.3019,68.5610,101.6910,51.2948,98.7003,25.8061,-147.9511,19.9960,-70.4690,40.4913,-39.4156,43.6252,28.8235,-56.5132,34.0421,-89.4601
-3687.5000,-3.2791,-13.0808,46.2588,96.7072,-49.7162,87.6961,46.0733,28.2708,7.3363,7.8620,-55.9303,46.3570,-46.0602,22.3151,-57.9686,25.4274,46.0852,-2.1381,-18.3521,-71.4679
-3679.6875,-19.1909,-98.9215,65.6495,81.5935,-30.8773,35.0697,65.6896,-0.9508,27.2046,28.1524,73.3524,-27.7754,41.0361,-67.6119,-1.2775,-64.5242,64.6100,-51.5266,0.5005,-52.2292
-3671.8750,32.3082,-116.3390,120.4448,63.8954,60.3727,17.8385,84.6973,-1.1146,9.4509,10.8300,-17.9843,-22.9601,25.7738,-48.1325,-19.1961,-82.0725,81.5445,-33.5260,16.7504,-70.5901
-3664.0625,61.6158,20.0710,115.0373,-11.9859,17.4236,-23.5970,42.4818,-46.0364,4.4761,-30.7050,86.4841,-29.3009,41.4256,-89.8576,-24.3233,-86.8324,39.2870,-2.7285,-24.2116,-76.1455
-3656.2500,-19.0187,116.5605,69.6717,14.1951,-28.4788,42.0153,34.2920,14.7024,-40.4667,-1.1929,3.9913,55.3922,-43.3934,12.4771,-106.4136,15.4682,64.0904,23.1066,-0.1210,-121.6462
-3648.4375,9.5039,-30.7755,101.4548,42.5450,2.7730,74.7664,-7.7646,38.5716,-46.2820,30.4575,35.6330,24.7623,-22.9645,44.9708,-111.3595,47.9245,91.0663,18.0816,-6.8812,-164.0001
-3640.6250,116.7925,-133.3363,175.9873,45.6616,39.7732,76.2570,29.9130,-42.8189,-8.3608,-41.1613,183.0418,-48.0947,60.0716,-63.7909,-110.5634,-60.8816,57.8053,-14.2067,-110.8977,-126.6020
-3632.8125,149.0429,-64.9200,206.4677,78.7439,32.7328,70.6890,-49.4799,-31.7282,-87.5115,-9.8394,29.3820,4.5495,-4.6412,-32.5980,-116.8298,-66.7324,89.5146,19.4436,-114.9558,-59.2526
-3625.0000,112.1043,110.3182,204.7446,41.6409,-5.5023,33.9109,-88.0943,-68.9322,-161.8775,-47.7324,101.5262,29.4338,7.2026,-70.6014,-118.3095,-67.7829,122.0366,53.8846,-152.2130,-61.1026
-3617.1875,25.9213,61.3182,152.7656,63.2935,-20.9838,19.8738,-28.9664,-28.8230,-103.5025,-24.8893,49.4188,44.4442,-8.4995,-10.8535,-96.0424,-45.0852,106.3236,40.0562,-61.7088,-76.1998
-3609.3750,70.9442,-68.4708,199.9763,3.1664,61.7431,31.0311,18.3502,-6.1791,-92.9479,-13.8567,22.4908,-0.4740,22.3215,36.0956,-48.5741,2.8105,80.8305,-18.5811,-51.9958,-66.0938
-3601.5625,118.6314,-159.5841,174.8313,-89.3005,36.1261,-30.1784,30.3031,-37.9933,-43.7585,-38.1999,182.2284,-98.8347,95.1272,-24.3109,0.5393,15.3472,21.0087,-5.5844,-75.6334,-54.3371
-3593.7500,71.2270,-65.7676,161.5813,-64.8489,59.4210,31.4997,-19.8601,-8.3982,-56.6906,-13.6529,-15.1517,-23.2110,13.2211,37.1894,-12.4584,39.7876,9.1027,54.3040,-88.3622,-30.6820
-3585.9375,76.3378,81.5662,166.8251,-58.8755,64.2316,0.6677,-14.5401,-69.3236,-88.1408,-80.6209,62.9694,14.2346,12.7461,6.1799,-80.9636,8.7150,-21.2839,25.6793,-153.5853,-25.5253
-3578.1250,71.1132,112.5582,121.7112,-64.2424,-18.3003,-7.5259,-23.5797,-67.4614,-94.9483,-87.9558,91.7489,29.0036,-5.3018,34.8132,-88.8231,0.2820,-28.0050,-49.3140,-123.1492,39.2863
-3570.3125,64.8514,37.5239,149.5446,-33.6404,9.1276,-13.7839,-67.6849,-29.2050,-140.8227,-59.3604,-27.5384,5.6900,-22.0871,-9.5978,-59.7388,-7.1986,1.2418,-88.3746,-58.7508,104.0586
-3562.5000,10.3979,-50.7002,91.1626,-122.2320,24.3609,-71.2580,-52.0062,-43.0085,-50.9067,-79.9826,97.9878,-73.1025,60.5208,-29.2121,28.1429,-26.8855,-18.6866,-106.6507,-9.5368,119.6335
-3554.6875,-35.0470,-129.9219,43.7726,-131.8095,85.6047,-118.7446,45.6689,12.8402,10.9966,-54.6224,-134.4986,-45.4501,-24.6762,105.1744,17.0230,107.4251,-28.5892,-186.9426,49.6984,144.2116
-3546.8750,-77.1732,-135.8292,1.6806,-173.0634,80.1659,-123.9458,39.6278,-2.9094,5.1823,-21.9860,-65.6794,-69.6006,8.3454,100.8522,48.2006,103.0201,-37.1629,-121.9487,7.2394,102.0919
-3539.0625,-10.7795,-103.2182,34.0832,-210.7998,76.2344,-89.6611,36.0637,-25.7418,37.8517,-24.8692,2.6586,-109.2754,39.8579,-11.9783,44.8652,-9.8885,-41.2172,-89.4721,3.2807,98.4794
-3531.2500,-15.6189,-71.8357,67.2268,-179.7647,110.0650,-91.6408,70.2313,-9.8157,-1.7564,-27.0182,-73.2688,-79.4746,11.0589,-15.0435,5.2679,-13.0388,-11.4972,-57.2667,34.0849,58.6250
-3523.4375,36.9104,-89.0922,48.7126,-197.3715,54.2523,-109.2913,51.7366,-42.1594,53.9681,-81.8476,55.1719,-108.5182,50.3665,-32.7650,24.0262,-66.8484,5.5992,-74.7315,50.2506,40.1271
-3515.6250,9.7544,-149.0508,94.4934,-152.6672,99.7615,-99.6603,134.5369,-6.3848,99.9864,-72.4009,-47.0852,-121.7542,44.5885,-95.1940,33.0863,-93.3684,14.0219,-100.9178,128.7358,48.9390
-3507.8125,-15.8375,-173.4485,68.8183,-177.3916,109.8432,-87.4950,71.8629,-12.2948,74.5329,-97.4255,-35.7980,-135.1479,53.5165,-84.0734,44.6904,-82.3417,23.0248,-20.5694,102.7872,23.3068
-3500.0000,-20.2670,-106.6844,65.2814,-180.9539,106.0841,-91.1979,68.3245,-43.1932,-2.7822,-100.3239,-2.3484,-94.7619,38.0190,-13.8055,4.4369,-12.1706,-17.7934,-25.0958,-7.9960,-17.1671
-3492.1875,-8.2298,46.5406,79.1862,-63.0467,119.7929,-3.4692,8.2303,-28.2112,-171.6623,-86.7963,-62.4591,13.5381,-33.5307,0.9136,-129.3734,2.4489,28.8682,23.8024,-66.3051,-40.1820
-3484.3750,80.0748,136.0224,133.3333,-8.8732,100.7632,-21.5088,-84.6302,-119.9806,-117.3060,-141.0502,139.6983,1.2871,45.1469,-127.1271,-110.9314,-161.6942,11.8144,7.9292,-119.3495,-21.9408
-3476.5625,33.7966,55.9093,121.8718,-54.2839,89.1488,-69.1715,14.9007,-82.8204,-18.5595,-114.9330,18.2623,-41.8793,41.9205,-137.7670,-11.0872,-136.4430,35.1918,-2.5738,-24.9751,-33.2896
-3468.7500,12.0337,-35.6945,99.8997,-75.1735,104.0562,-90.3560,102.9177,-66.3193,33.6640,-136.3355,-40.6764,-68.5808,51.7066,-122.9040,40.2541,-121.6878,48.0990,46.4018,22.9172,-55.1339
-3460.9375,21.1397,-24.4479,73.7700,-136.2036,77.8317,-78.7132,113.7748,-77.3628,80.7300,-125.9203,80.2557,-90.9860,85.1585,-111.2006,51.4463,-147.0987,-13.1100,-13.8020,31.6779,-81.1198
-3453.1250,-34.3389,26.1982,52.0326,-84.8169,92.0337,-26.6897,91.0264,-21.9000,58.1853,-38.1300,-52.4260,-43.2870,25.2892,-96.1031,29.0403,-95.1180,-33.8884,1.3681,45.8729,-66.6931
-3445.3125,-19.9000,41.7332,29.1812,-69.5192,32.1568,-11.7917,32.1749,-52.4507,-0.4677,-23.4709,34.8081,-44.4150,21.1780,-118.1176,-29.4541,-117.2519,-19.7373,51.4172,-45.0094,-52.3515
-3437.5000,-1.5528,96.1613,47.2103,-15.3162,-22.8036,6.9825,-23.7766,-41.5483,-56.2144,-4.9412,16.9532,0.1829,-22.2258,-99.2381,-85.0372,-98.4903,-1.6583,70.3394,-61.9590,-34.1037
-3429.6875,18.6020,187.4028,104.0227,40.7021,34.0600,-9.4642,-40.9358,-54.4299,-109.1702,-21.6381,-74.1141,52.2361,-60.9054,-114.5579,-137.8131,-113.9302,18.2521,56.0412,-78.0827,-14.0500
-3421.8750,-3.5281,202.3457,117.5180,-15.5681,11.6402,-68.2364,-63.3984,-126.1780,-58.4229,-115.6659,124.5372,-0.7097,42.8001,-172.1849,-49.8774,-171.6796,65.8907,34.4111,-100.4909,-36.2865
-3414.0625,90.0095,155.9115,140.6522,-26.1708,34.8940,-44.3818,-3.2113,-108.9026,-72.0311,-92.0726,0.8372,9.7959,11.8767,-112.1629,-26.2807,-147.7822,54.2144,23.4013,-112.2154,-12.8563
-3406.2500,97.0683,163.9595,147.2827,-18.2640,-32.3248,-37.0551,-106.5282,-115.2785,-101.1446,-49.0165,117.6590,3.8590,32.8264,-104.6542,-19.1767,-104.4039,-8.9234,65.8650,-174.4129,-5.9093
-3398.4375,97.2430,165.0977,74.0000,-53.2533,-69.4247,-36.6543,-106.7536,-90.0495,-28.1641,-12.8880,80.6019,0.9061,-3.3813,-68.0488,-18.9702,-67.9271,-8.9275,31.4037,-140.4805,-5.8505
-3390.6250,36.6415,70.4363,84.9081,-7.0204,15.7027,11.9204,-22.7828,-46.8089,-17.0006,35.4091,-55.2603,-6.1398,-12.7907,-93.2429,-7.5603,-93.2555,0.3102,41.1101,-96.3172,-31.5792
-3382.8125,-4.0354,-5.3290,41.7077,-11.8759,-27.2490,6.3657,45.0776,-68.5660,51.0511,-44.4326,48.8163,-51.6118,52.2344,-134.5549,59.7580,-134.7036,-5.5093,35.6882,-66.2290,-37.3981
-3375.0000,21.6537,162.2423,66.8474,-20.3714,-1.8232,-41.8666,33.2845,-82.5482,39.4437,-54.9494,-72.7579,13.3263,-18.7397,-108.5175,12.4302,-108.8001,-14.9440,-9.4134,-76.7552,-11.8507
-3367.1875,2.5562,215.0071,85.1704,-73.6523,16.8279,-58.9215,-58.3181,-86.7293,-14.9746,-36.2901,19.8726,11.1452,4.9833,-89.2792,-4.6923,-126.6974,35.8498,7.6599,-60.0551,-66.0891
-3359.3750,108.9675,110.2561,123.9720,-72.4234,55.9923,-93.4924,-19.4265,-128.6958,23.1033,-71.1596,133.0268,-43.5425,64.4779,-123.5490,-3.3098,-161.1003,72.1754,-26.7929,-94.8212,-100.8100
-3351.5625,166.5970,98.6826,220.9613,-13.9758,117.3875,-68.8854,3.6576,-113.3250,-99.6359,-83.8523,46.3760,-6.1799,39.4318,-98.6134,-51.7238,-136.3029,94.7422,-39.0773,-107.3473,-113.3112
-3343.7500,101.2924,139.1444,186.9906,-43.4728,82.8582,-66.2637,-67.2170,-137.9462,-60.3239,-81.5316,159.8076,-36.5633,85.0541,-168.6396,-12.0780,-169.4687,28.4022,0.6507,-138.7848,-73.7478
-3335.9375,-25.1406,84.4460,89.8617,-28.1166,60.2145,-14.8262,-53.2285,-41.7871,-9.1506,-30.3995,-46.9031,5.6101,-0.9362,-43.8340,2.4301,-44.8037,42.9538,15.1889,-53.3234,-59.3178
-3328.1250,-5.6543,34.6375,75.6183,-7.8528,46.5045,-28.5177,5.6677,-75.7268,49.9248,-118.4051,12.2921,-13.3833,47.5642,-57.1451,61.8563,-95.2565,98.4452,-0.3929,-33.9259,-109.9731
-3320.3125,63.3986,139.3541,109.9076,-44.0307,7.3641,-30.6832,77.1157,-141.7612,121.5500,-156.8932,121.0679,-35.5835,80.7218,-169.9144,59.8445,-171.1723,26.5199,-37.4471,-105.9518,-112.0622
-3312.5000,58.7633,240.3436,67.4865,22.1058,2.5544,-35.5737,34.8614,-97.6041,42.4709,-52.1072,5.1430,34.7999,8.4992,-137.3774,18.1406,-175.7787,21.9346,-42.2321,-40.6407,-116.8398
-3304.6875,84.5972,196.7584,57.5049,-21.3012,-6.7783,-82.0473,25.0590,-111.8771,32.8418,-61.9125,106.7026,5.5080,35.8695,-109.3994,8.9027,-147.9448,12.8394,-51.5945,-49.8495,-126.1556
-3296.8750,33.0536,110.7471,40.1167,-2.0947,13.5199,-24.9465,44.8666,-46.9230,52.8167,-5.1555,-21.1185,12.6041,-14.5067,-51.8388,-7.7192,-53.5329,-3.6160,-68.3844,-31.4205,-142.8558
-3289.0625,4.7279,47.9224,46.9170,42.3239,21.0482,18.3276,14.8723,-22.0454,22.9875,1.7704,-50.7323,15.3769,-13.7669,-44.0930,-0.1294,-45.9322,4.1679,-25.9949,-23.7470,-135.3412
-3281.2500,-22.8315,90.8285,16.4507,14.4916,-45.6483,25.3237,-15.3670,-34.0639,66.9188,8.4177,67.4333,14.4801,-5.3975,-36.6095,-29.7789,-38.5942,-24.2681,-18.8887,-51.2796,-128.0629
-3273.4375,-21.1772,127.9004,16.1725,16.8702,-45.1149,61.4926,-15.3959,41.7696,-6.9456,117.2416,-117.1975,67.4784,-107.9198,36.0702,-103.2125,33.9398,-22.4691,-17.6182,-14.5632,-91.5661
-3265.6250,-59.7525,160.6828,-62.3677,13.9979,-85.7979,94.3800,-56.6639,48.2847,-48.0516,149.7802,-47.0475,69.0738,-87.3010,32.4879,-69.8724,30.2117,-95.8820,13.3696,-18.0627,-95.3008
-3257.8125,-130.4090,196.3263,-137.0218,15.0297,-159.5525,168.1380,-57.0224,90.7709,-11.2465,186.1857,-157.9719,104.0457,-152.3014,69.7956,-69.6138,30.3738,-130.3584,48.2235,17.3817,-95.1147
-3250.0000,-141.3570,220.6387,-113.9882,74.7701,-98.5815,191.5720,-33.6772,64.9860,12.2598,135.2674,-243.2001,112.7503,-146.6326,-16.1899,-45.6430,-55.7572,-71.1010,36.7558,6.5715,-71.2102
-3242.1875,-86.9969,133.2111,-131.6788,-46.1890,-152.2890,63.2817,-14.0241,38.9019,31.0832,117.6176,-77.1013,33.3137,-91.2852,40.1157,10.6519,111.3994,-122.5141,-15.4335,-44.9009,-87.9873
-3234.3750,-123.3253,204.0426,-134.0857,-45.8406,-117.6633,61.2673,-54.0548,86.5502,-44.7872,151.2404,-262.6983,114.7171,-185.6167,185.7124,-27.7363,255.8513,-158.5903,-52.3551,-45.0239,-53.4421
-3226.5625,-102.2835,401.2023,-150.1495,10.8590,-133.6526,44.5729,-143.7286,-22.4332,-24.3074,98.1762,-132.9160,125.8793,-140.8358,-14.3560,-43.7638,-54.3613,-102.2784,-31.9534,-58.7569,-32.5265
-3218.7500,-37.2792,536.2855,-120.2777,5.4978,-174.6686,-34.2013,-149.4451,-104.0069,8.1311,56.0290,-63.1539,104.1285,-109.4491,-165.4778,-10.8263,-204.6267,-36.9786,-73.6323,-64.4927,-73.6443
-3210.9375,-50.9133,663.6793,-96.0670,98.5007,-223.3005,-46.6483,-161.8005,-108.5229,-78.0800,-30.7899,-149.0475,238.8874,-171.0618,42.7501,13.4756,39.4624,-85.2919,-192.9919,-147.8355,-122.3923
-3203.1250,-28.4339,580.1357,-183.7723,86.6010,-344.8034,-60.0190,-248.0458,-100.2295,-18.1801,-44.5392,22.1944,206.9084,-142.2725,104.0646,37.8984,100.6313,-97.4698,-171.2798,-125.0402,-135.0218
-3195.3125,12.9133,692.3929,-178.6354,163.5526,-338.4233,-17.5669,-206.4262,-82.0647,-12.4222,33.5318,-118.6966,262.9543,-230.8601,36.2240,-65.8072,32.6501,-160.7696,-165.7485,-118.3526,-128.7746
-3187.5000,-89.9817,975.3591,-214.7621,201.2527,-338.2624,18.6063,-279.0433,-91.9417,-85.9040,33.3253,-155.8186,365.9665,-281.7308,0.1301,-139.7431,-40.5871,-159.2864,-129.4851,-115.8752,-91.7564
-3179.6875,-95.4181,935.7384,-261.4546,162.4021,-272.6270,-64.7977,-251.1989,-69.4879,-57.9236,23.5318,-90.4585,337.0679,-238.2656,28.4728,-111.2075,61.6136,-128.3118,-204.7917,-49.9067,-26.2697
-3171.8750,-127.6915,690.2421,-262.0036,304.7124,-161.8045,44.9225,-252.1916,49.5884,-130.7874,95.8563,-162.9498,362.4985,-185.0719,174.9570,-0.5031,244.9611,-91.1455,-63.9739,-12.7463,10.3828
-3164.0625,2.4023,575.0673,-204.2080,507.3729,-139.6096,139.9643,-229.8238,87.7931,-72.2902,116.4965,152.9472,386.4371,-6.7867,197.7760,95.5672,266.6450,40.4059,66.1657,12.7991,106.4019
-3156.2500,72.2112,362.5464,-172.7234,682.7386,-69.6872,171.6835,-197.7396,194.9290,-113.0800,184.8160,74.5651,424.7818,-35.4504,303.2851,19.3472,373.0207,75.6863,65.9831,118.0923,176.1431
-3148.4375,-0.1688,253.7711,-251.4457,751.9092,-73.9335,166.1847,-312.8422,235.9198,-265.0681,252.9196,35.0003,436.2680,-71.7536,372.5884,-22.0551,442.1886,39.8025,97.5787,116.2255,208.7027
-3140.6250,-82.5834,276.8997,-413.2270,740.0170,-159.2012,189.6079,-399.9802,271.6653,-278.0911,238.9436,22.4235,469.2744,-140.2204,470.8295,-71.4806,502.2963,-8.0985,48.0933,175.3458,196.2319
-3132.8125,-137.5842,221.4021,-504.6146,790.5207,-139.0424,245.4057,-416.7045,343.1282,-332.7122,257.3450,-141.7478,509.7817,-223.9572,564.4726,-124.4925,559.8118,113.4313,-7.0170,261.9088,106.1788
-3125.0000,-93.1700,53.2649,-530.6068,765.4213,-126.4598,256.5841,-406.0290,259.8235,-283.9296,194.1178,-57.4811,420.4348,-159.5311,502.5076,-76.0895,423.7253,122.4003,-0.7462,164.9004,44.5452
-3117.1875,-58.1421,-17.3170,-644.0000,729.9250,-55.2546,327.3387,-371.7390,306.6686,-323.5365,264.4621,-499.5849,443.9859,-324.1948,573.1335,-114.0723,384.2284,158.0072,33.1017,165.5268,79.5335
-3109.3750,50.5968,-13.2352,-714.6961,700.1365,-14.3220,330.7713,-403.7446,371.3976,-356.4390,267.4796,-788.9771,446.7183,-429.9575,577.4561,-109.3360,425.4304,269.3489,1.6323,276.8924,84.2415
-3101.5625,106.6984,-28.8488,-801.0540,615.6852,-62.0177,207.5313,-342.3774,313.7939,-257.9728,180.8312,-726.9818,399.6435,-426.7388,603.1160,-85.2244,523.9686,290.0587,-49.5088,227.6450,-0.6826
-3093.7500,-105.5466,40.1364,-1020.7712,614.8766,-170.0325,171.9211,-414.3351,254.8410,-365.8396,107.8200,-982.3284,445.0785,-594.3660,641.4192,-156.4393,563.1567,149.4450,-16.0228,87.0937,-71.9368
-3085.9375,-268.8790,120.9763,-1229.5952,591.9659,-265.1219,184.1898,-512.3804,213.0772,-353.7982,119.6876,-895.7449,411.8390,-602.2706,507.6144,-179.7397,428.2396,56.7598,64.3473,64.4679,-95.2689
-3078.1250,-367.1007,127.8727,-1369.3226,564.1512,-221.0883,227.5403,-467.3148,227.2046,-235.6504,52.6291,-961.0331,374.1002,-616.1321,367.9041,-207.9278,252.4239,64.2078,105.7966,212.9761,-123.4808
-3070.3125,-349.4662,178.5788,-1349.2045,617.1856,-125.1746,211.7191,-372.3846,139.5600,-288.6426,-37.6010,-1049.4625,404.3667,-620.4341,316.0460,-222.2504,126.4556,11.5384,121.0758,125.3786,-211.8228
-3062.5000,-425.1740,278.8853,-1427.4441,612.8517,-127.5906,170.5251,-412.7756,87.5974,-328.9565,-42.1998,-831.2081,441.0237,-577.2930,386.8192,-261.8972,197.1257,-97.4583,150.9836,15.4767,-251.5006
-3054.6875,-459.8819,454.1499,-1466.6923,648.5068,-91.9792,204.3130,-415.1376,185.1105,-440.2460,65.1874,-905.9507,562.0128,-636.1217,531.5854,-300.5227,415.7921,-167.4333,184.8746,51.6162,-216.1609
-3046.8750,-512.7892,540.1774,-1488.1508,630.9588,-111.5436,219.8846,-435.6844,210.9838,-423.7251,116.3550,-778.8743,580.7541,-596.8636,548.1461,-283.3254,468.2563,-219.5822,235.5545,69.5862,-199.0063
-3039.0625,-532.0916,485.7618,-1510.0176,613.0011,-167.4944,235.0383,-382.6105,239.8105,-333.5843,168.1056,-725.1656,549.6932,-593.2542,527.2991,-302.5120,448.3162,-238.1085,215.8142,122.1946,-182.2397
-3031.2500,-495.8347,308.8546,-1400.3297,648.5922,-129.8616,270.7260,-345.9643,254.0957,-333.8839,129.3873,-724.8970,513.6672,-574.6325,526.9956,-338.1393,447.9196,-166.0542,179.6058,123.3844,-181.9102
-3023.4375,-420.2105,207.2641,-1251.2896,548.5248,-125.8605,161.7453,-342.9569,160.0223,-221.8233,21.0017,-427.2251,376.7332,-397.5065,383.0212,-225.4111,303.8555,-124.6230,147.7345,129.9403,-141.2175
-3015.6250,-357.7214,233.4812,-1116.3909,471.3040,-25.9865,112.6025,-208.0866,143.6549,-122.9089,-65.5449,-474.6833,338.2387,-333.5358,297.8889,-125.8221,217.6373,-61.3177,67.7028,228.3704,-78.6565
-3007.8125,-266.1263,112.7588,-951.3917,352.1708,67.0090,20.5434,-116.1045,80.0090,-66.8838,-157.0024,-308.0225,216.7926,-173.7139,206.8521,4.8838,163.5221,31.1058,17.7640,215.9297,-21.9864
-3000.0000,-147.1792,-14.6600,-759.0490,295.3640,115.3716,-44.1849,-32.7485,23.9804,-20.4861,-186.1274,-76.9854,130.0647,-58.5087,143.1611,-22.0475,99.7568,80.8896,-5.8416,159.8638,62.0466
-2992.1875,-90.6309,-65.5214,-558.1093,316.1474,170.3575,-64.3286,-13.7733,46.4012,-38.4783,-169.6620,-95.3461,100.2276,-12.5425,50.0653,-2.3787,43.5907,173.2857,49.1399,217.4249,153.6990
-2984.3750,-14.0892,-131.4359,-373.1759,146.9132,210.3589,-173.4826,62.2175,10.9212,37.5515,-242.2086,164.3222,-21.7743,154.2501,-21.0386,110.3093,46.4207,250.6973,-50.8828,260.0159,230.3708
-2976.5625,96.1456,-338.7142,-187.5435,-58.6346,325.0750,-207.9419,173.9399,76.5378,114.3078,-204.0506,167.7003,-130.8780,225.3270,55.5579,186.7242,122.9551,361.8236,-153.2159,371.3472,270.7621
-2968.7500,263.3808,-630.0596,57.0886,-207.1852,423.8136,-258.4048,235.6869,65.6343,176.0793,-254.8858,341.0920,-310.3318,420.3986,-29.8485,360.1546,0.4871,495.9641,-162.5468,469.7034,333.1689
-2960.9375,362.5270,-779.5679,266.6252,-388.8496,525.4702,-379.9743,373.3546,-14.9980,348.7703,-376.8326,589.4246,-492.9993,630.6833,-224.3728,497.5041,-231.0945,561.0218,-205.9819,570.9835,397.4912
-2953.1250,468.0228,-957.7629,481.5168,-460.1782,632.4982,-422.2029,516.3934,-27.4578,380.8229,-456.4397,548.1048,-595.6959,699.3022,-339.5376,531.2222,-309.3123,631.4454,-173.0701,605.6361,467.1746
-2945.3125,583.5173,-1159.9799,672.4099,-590.5221,678.5383,-489.4409,561.4445,-53.2874,425.8826,-487.0569,814.8087,-769.0384,855.2530,-478.6930,576.9504,-337.5162,677.8801,-270.1610,617.2986,512.8721
-2937.5000,655.3130,-1300.9431,817.6084,-623.5779,752.8934,-490.3836,633.8153,0.6994,499.2564,-488.3719,778.8319,-820.6575,890.4507,-478.5505,613.9877,-265.4180,715.6318,-304.9615,690.2876,549.8826
-2929.6875,648.2121,-1380.8586,917.9149,-631.5406,854.3608,-501.2277,698.3081,-18.8787,526.7311,-499.5810,806.9722,-869.9146,974.4949,-562.3114,678.1356,-385.2185,708.5018,-278.6645,719.3969,578.0081
-2921.8750,696.5126,-1439.4227,1004.6252,-758.1186,833.2347,-598.6735,750.2134,-97.4464,615.6201,-560.3884,1042.5510,-981.1017,1088.8250,-657.6730,730.6961,-517.6191,723.7805,-372.9706,734.9164,556.5466
-2914.0625,740.4144,-1538.4310,1157.9399,-785.1046,877.7222,-666.5159,830.7355,-113.5065,622.1202,-592.5965,1049.7299,-1018.4948,1120.7888,-651.4308,737.8692,-511.4152,732.6709,-506.6747,744.0601,600.6982
