Time,Fp1,Fp2,F3,F4,C3,C4,P3,P4,O1,O2,F7,F8,T7,T8,P7,P8,Fz,Cz,Pz,ref
-4000.0000,-77.4399,-71.1611,-70.9181,-65.5478,46.1159,3.6581,55.7468,46.8543,56.0229,-0.7128,-3.8708,-72.2246,12.1912,-12.2048,54.8459,28.1406,-78.1736,86.1385,13.8707,4.7950
-3992.1875,14.8931,92.1775,-46.5965,-113.1145,36.2361,-55.8476,46.0635,-0.0038,-26.6718,25.8498,-88.3235,25.0929,1.7559,-5.7354,9.1581,18.0526,-20.0416,-63.1217,-67.5153,-5.6424
-3984.3750,71.9205,113.1995,-25.5728,-91.9861,59.0631,-70.6963,-40.9167,-124.1564,-40.6678,-62.8852,-29.0785,83.1049,61.0201,-0.0614,-4.8192,3.6596,70.7950,-4.6828,-114.2068,16.6193
-3976.5625,26.0853,244.3776,111.5997,109.2917,51.0393,-41.5735,-48.7475,-168.1532,-48.5151,-143.4755,73.3222,73.2658,89.4340,-5.9880,-12.6240,-41.5848,96.7754,-83.0877,-158.7502,8.0304
-3968.7500,22.4516,169.7609,105.9662,140.7603,47.2134,-38.8838,-15.3725,-171.9497,-52.1572,-110.8452,141.9155,67.6286,48.0423,-5.2487,-53.2307,-45.6163,56.9490,-189.3099,-90.0929,40.6434
-3960.9375,68.0329,-65.6589,77.5291,151.4334,-52.4245,37.8157,-77.7977,-87.5476,-41.5960,-138.0074,188.7115,40.1880,-15.1527,49.5298,68.3704,75.5595,-2.6816,-105.3330,-43.2364,87.4604
-3953.1250,103.4718,-170.2323,41.9383,45.9757,-86.2252,36.7719,-39.3697,23.7062,-39.1862,9.6873,80.3555,4.6014,-49.5135,77.6699,-3.1793,187.5880,-37.4668,-208.5191,62.4722,89.1310
-3945.3125,14.0576,-84.6628,-13.5062,-43.3272,-103.8852,5.8339,-56.7889,43.1075,-56.6241,139.5464,99.1474,21.1731,-67.7325,48.9902,-93.5839,133.7652,-22.1026,-155.5726,80.3330,70.9549
-3937.5000,37.5452,149.8195,10.9550,-54.7313,-113.6573,-4.1291,-138.3118,70.4036,-138.1664,129.3021,125.8461,45.6507,-78.0508,18.7432,-176.0884,49.8422,-68.8299,-94.7316,70.0971,60.6796
-3929.6875,84.6395,90.9158,-11.9768,-113.5469,-98.8371,-50.7586,-123.2340,50.2911,-123.1086,218.6746,104.1526,60.7319,-63.7711,-14.3641,-159.9962,-7.4725,-92.9512,-116.3183,117.4615,3.0021
-3921.8750,100.9453,107.2199,43.2992,-96.1583,-41.8285,-48.2072,-102.9629,-3.6298,-102.8542,127.2486,86.6750,42.0173,-7.2932,-44.9636,-140.7070,-98.5863,-41.8727,43.2861,100.0229,-14.4696
-3914.0625,-16.6238,94.6270,107.6780,66.3518,-48.7292,-4.5795,-109.6009,-11.4534,-109.5093,156.9226,79.3081,69.4094,-14.7188,-16.8653,-147.3230,-105.6012,86.3004,-2.0245,53.6871,-95.8372
-3906.2500,47.8673,-15.9175,137.1053,201.9182,-17.5787,19.7707,-78.1907,-53.2343,-78.1170,150.6535,109.9934,62.8542,-21.0946,-8.4507,-152.8986,-111.5718,80.5290,-75.2936,-20.6003,-65.1550
-3898.4375,166.3552,67.5530,112.5404,320.4887,-41.4335,47.4294,-101.7855,-114.0140,-101.7301,-20.6232,159.6822,111.3109,-8.4732,27.4023,-65.4793,-61.5472,58.7684,-95.5633,-111.8958,-15.4721
-3890.6250,127.4928,133.6804,106.6287,246.7163,-45.6486,-9.5456,-68.7402,-190.1436,-68.7038,-25.2352,82.0196,178.4252,23.7945,41.0685,-32.4124,-28.8668,124.6643,-237.1996,-113.5432,16.8567
-3882.8125,88.9909,201.1533,137.0779,138.3047,-13.5211,-51.6021,-72.3519,-230.9197,-72.3350,-139.5025,76.7127,209.8930,55.4038,25.0622,37.0051,-68.8430,120.9166,-237.4888,-185.8431,85.5345
-3875.0000,103.8023,214.9355,78.8293,81.2065,-69.1100,-65.0432,-127.6685,-177.3938,-127.6677,-49.4767,93.7140,224.6633,35.3035,32.3334,91.7258,-16.5235,99.4708,-291.4825,-170.8395,65.5061
-3867.1875,231.3690,96.4728,101.3283,68.8524,-80.9551,-43.1739,-103.2294,-116.1131,-103.2491,-25.6974,117.4611,137.1814,-14.0499,10.3679,5.1985,-28.4635,86.7838,-231.7355,-182.0871,89.2241
-3859.3750,236.9946,32.0724,108.8862,145.5497,-108.7573,23.4632,-130.7392,-106.7861,-94.7800,-163.8848,126.2646,144.7507,-6.3529,31.6469,-22.2737,-56.3639,163.1481,-83.9300,-140.2976,60.9916
-3851.5625,155.6794,20.7312,136.4999,134.3023,-7.5161,21.5054,-139.2053,-79.4163,-139.2718,-135.0076,44.1212,61.3798,59.3949,20.5320,-66.6981,-28.2128,186.5716,-93.0845,-114.4676,15.8014
-3843.7500,-45.1662,-39.1780,147.5799,39.5131,116.1784,18.0179,-89.2221,-65.6019,-89.3187,-158.6715,20.4333,-0.5366,108.5959,0.4506,21.3194,-51.6159,126.4498,95.1956,-69.1909,-7.9408
-3835.9375,-153.5921,-7.6907,35.0645,35.1320,152.2719,13.6847,-15.8399,-66.3973,-15.9595,-160.9423,19.1542,-3.0445,144.1959,-4.5849,56.7323,-52.6199,51.7327,128.8594,33.4931,-46.2853
-3828.1250,-10.4593,100.3806,38.1035,-67.7097,156.9140,-67.1565,25.0984,-135.6533,24.9514,-83.6592,23.4218,37.0098,38.3367,-57.0762,-48.3104,-158.0755,54.5705,134.0379,2.7306,-42.0750
-3820.3125,73.1716,78.9755,54.6475,16.9531,65.0432,-10.9795,-29.4726,-116.4200,-29.6438,-138.8759,4.2020,53.5729,-17.0238,-25.8459,-65.8508,-140.0287,173.9175,220.7177,-17.5433,-97.3596
-3812.5000,149.0719,13.8099,135.4536,92.8847,73.4121,19.4058,-20.8002,-34.9446,-57.9962,-56.8358,-60.7679,-12.6134,-83.1365,-14.0027,-131.1397,-94.7305,248.5192,86.6327,-46.5685,-126.3940
-3804.6875,173.2880,-67.0628,196.5718,187.1239,25.0741,21.5481,-31.8275,-82.1816,-68.0487,4.5147,37.5615,-25.4918,-20.9555,-26.7751,-68.1356,-106.1354,202.4221,42.8322,-91.2956,-101.1248
-3796.8750,222.1107,-18.3186,210.2923,376.9724,3.3190,51.5856,-126.2606,-140.8221,-126.5037,-16.5425,89.4919,25.2436,-6.1755,10.7787,-52.5372,-53.9419,180.9390,-82.3748,-147.4268,-86.2542
-3789.0625,193.3953,198.8871,179.4671,313.2784,-61.9900,1.0018,-155.2479,-170.0144,-192.5173,63.8637,22.8631,141.4413,-35.9524,38.9485,-81.4967,-9.3021,221.9182,-215.1560,-209.1070,-78.9345
-3781.2500,218.3874,399.7997,204.3493,232.2908,-146.6079,5.5016,-201.5409,-106.5058,-201.8371,-94.0335,48.9434,203.3462,-47.0334,39.8140,-91.7499,-56.9755,211.6091,-153.2404,-219.0874,-52.9168
-3773.4375,243.1889,354.5250,157.0410,187.1120,-191.4328,6.0370,-210.0377,-41.1984,-210.3573,-66.1362,76.8309,156.0569,-93.3165,17.7811,-100.2104,-65.8564,166.1101,-161.5376,-158.2661,-62.1032
-3765.6250,122.2978,163.5461,103.0442,66.2435,-205.9594,18.1877,-224.2331,53.4015,-224.5844,29.0724,98.0115,66.0750,-72.3042,-0.6642,-78.3847,-44.4473,114.9234,-68.5426,-102.1454,-40.9884
-3757.8125,101.2205,106.3694,43.8540,115.1881,-154.6925,86.6828,-282.6400,179.8004,-246.0197,80.0678,75.9916,5.9036,-94.4896,-4.2443,-136.7548,-66.2496,58.5441,17.2548,-52.2303,-26.0775
-3750.0000,18.9169,-47.0451,-5.5847,102.8834,-129.6839,97.3773,-219.2985,205.9468,-219.7071,252.8215,-82.2842,30.4836,-105.9319,11.9932,-183.3759,-77.3075,45.9248,6.7802,7.4386,-37.4260
-3742.1875,-55.2265,-15.2965,-10.8593,29.7342,-59.5329,96.0555,-113.8080,202.2333,-114.2460,138.7264,-122.3998,-11.7882,-73.2267,15.3017,-113.8594,-44.2165,-63.5295,146.4457,40.2549,-4.6257
-3734.3750,-89.1649,-13.3322,-117.9173,-4.2074,-55.1870,66.3744,1.8758,169.7121,37.4080,179.8384,-155.3068,-8.8554,-106.3214,40.6651,-35.1608,70.0797,-167.7738,114.2996,112.2707,-37.6281
-3726.5625,-2.8516,-104.1161,-138.7191,-59.9017,-38.5955,6.1570,128.8155,75.4418,128.3134,196.2241,-138.9738,6.3368,-90.1730,8.0414,-18.2143,13.6279,-187.7645,60.3810,164.5364,-21.3867
-3718.7500,-6.9574,-38.3494,-142.9661,-64.0349,-41.4678,10.1338,126.3015,72.7168,162.7610,82.1470,-69.0832,39.1030,-93.4829,5.9169,-20.7094,-26.2813,-157.1913,92.9922,161.3360,-24.5950
-3710.9375,-116.1372,-5.6682,-110.3017,-136.2544,-80.4513,-35.0708,161.6708,70.8778,198.0949,153.9590,-144.2901,-1.1964,-95.8949,-9.6624,14.6866,8.7082,-124.6979,-48.5369,229.0291,-26.9009
-3703.1250,-43.8034,-4.4666,-109.1200,-134.9617,-78.9406,-48.9927,200.5326,36.5263,199.9208,118.2501,-106.0006,-0.9862,-93.8032,-15.5550,53.5676,10.1867,-158.6891,-45.5789,126.2176,11.3015
-3695.3125,-73.6735,36.5419,-103.1308,-59.8554,-107.6377,-52.7624,135.1845,-29.0244,134.5442,200.3331,-61.9133,80.0315,-49.9059,43.5078,25.2469,128.4555,-117.8710,-143.8252,62.2100,-17.6978
-3687.5000,-28.9944,10.0995,14.4155,19.8066,-61.7817,-49.8871,107.3909,-57.0253,70.7140,208.9801,-53.2908,87.6022,-41.4614,31.0836,34.4772,64.2674,-39.4940,-237.5378,-68.2444,27.8542
-3679.6875,32.5846,36.5609,78.8701,81.3756,-106.0330,-25.0954,-10.5085,-65.1328,25.7814,90.5229,-24.7666,78.0772,-13.1146,-8.2248,99.6139,-55.0265,56.7969,-139.3470,-110.8020,19.3047
-3671.8750,184.6717,47.5232,91.8380,92.4633,-92.7943,-38.8552,4.0834,-50.7381,3.3396,67.5740,-47.7438,17.0576,-36.2681,-50.6089,4.2425,-113.8292,67.5991,-197.6743,-64.8545,-3.7529
-3664.0625,194.6362,-48.6705,27.6736,-3.5829,-81.7115,-20.1038,15.5205,-2.4949,14.7427,-32.5162,37.1317,63.8939,11.4206,-13.5060,15.7052,-66.7981,-28.7367,-81.1653,-54.0625,7.0392
-3656.2500,154.1270,17.6619,60.0145,-112.1218,-48.1435,-42.9109,12.4476,31.2379,11.6355,-36.1106,-3.4873,22.2503,7.6003,-9.3476,49.6702,3.7305,-33.5579,-84.1680,13.2224,3.3257
-3648.4375,45.5376,-57.0711,17.2651,-221.7563,-15.6782,-84.0514,82.2690,26.8567,44.4183,107.1987,-45.2084,-92.4761,2.6754,-48.7315,82.5223,36.1611,-2.4711,-86.3004,45.4046,35.5111
-3640.6250,-0.3353,-172.0835,-66.7743,-126.6747,-62.5267,-2.6637,71.7771,16.1577,70.8913,22.2003,-19.2156,-104.4848,-44.5460,-14.2603,109.0617,62.2903,22.3319,81.2563,141.2732,61.3956
-3632.8125,12.5119,-54.3715,-126.0919,-77.8736,-47.6854,-6.3692,123.9715,-4.8555,87.0504,74.8977,-112.5168,-17.7756,-102.0676,8.3736,-22.7120,41.1100,-69.1455,25.4870,225.8314,39.9751
-3625.0000,-19.4226,18.5522,-86.1897,-145.8581,-43.6486,-40.7287,165.3615,-37.6814,127.4007,41.8003,-182.6182,59.1378,-98.3916,-10.4013,18.7067,-64.8822,-66.3971,64.8932,193.5845,43.7551
-3617.1875,-17.6877,20.1311,-12.6203,-4.1698,-40.9772,21.0940,131.3860,2.1305,130.3932,-65.6607,-217.0650,-13.2821,-60.0671,-8.4667,58.7684,-62.2317,-30.9720,67.9444,160.9833,46.1865
-3609.3750,-18.4234,-120.7787,-49.5310,66.0254,-3.8107,49.3545,131.9054,2.4329,130.8763,-29.6175,-253.0202,-50.1824,-60.2493,18.7766,22.3180,10.9064,108.9643,-37.5295,160.8803,46.1179
-3601.5625,-8.3866,-110.9080,-75.6787,110.9702,-29.9024,67.6693,107.1660,-23.5277,106.1005,-201.8314,-95.2218,69.6876,-49.6797,53.4173,33.6213,-15.2178,118.6621,-61.2632,66.5183,56.7960
-3593.7500,-6.4912,171.8447,-72.9624,42.7692,-25.1512,-3.0155,38.2649,-55.6430,37.1667,-197.1940,-55.5693,220.4096,-46.2612,70.0984,1.7716,-10.5034,14.2224,-198.1709,34.0016,24.3177
-3585.9375,54.2585,337.4381,-12.3864,-72.5816,-72.5576,-68.6635,-9.7947,-65.9053,-10.9257,-97.6938,-30.0667,170.9869,16.0018,27.3597,-9.2433,15.0605,-65.3477,-172.2417,-11.6588,49.6864
-3578.1250,59.2818,166.2726,103.4497,-33.6634,-66.7210,-13.4467,-112.6125,13.0857,-77.7765,-55.9541,-24.3100,-8.1723,58.5062,20.2386,-76.0232,94.8744,8.3453,-131.0637,28.9302,55.3062
-3570.3125,2.1613,-276.0394,119.1439,15.1107,-87.0476,51.2884,-96.5832,66.9357,-97.7841,107.6423,-44.7129,-101.4701,0.8571,44.6463,-131.9589,147.5322,162.9026,-151.0505,114.3737,34.7711
-3562.5000,27.1968,-322.1870,144.0035,5.0478,-61.2259,70.4333,-70.4110,92.9332,-35.6488,22.3833,-18.9685,-113.6107,-46.6341,35.7108,-69.7430,100.3221,152.6245,-88.8982,139.9529,60.3846
-3554.6875,54.3016,-15.2679,-11.0686,-107.9497,-68.3608,-27.8483,-3.2048,49.9769,69.5242,53.1675,-98.1664,-48.6875,-17.0759,1.6984,34.5078,94.1618,-32.5868,-131.7080,202.5701,17.0415
-3546.8750,50.3293,121.5718,-88.2305,-148.0431,-34.6027,-79.3153,140.8922,9.9086,139.5842,86.8559,-174.4687,-88.8471,-57.6189,-46.5862,178.6430,53.9051,-71.8774,-100.6414,163.0823,13.5951
-3539.0625,-59.0312,-57.9677,-90.7783,-81.5138,-72.2515,-16.0751,140.5763,9.4241,176.2313,85.1368,-139.1677,-91.3894,-58.5590,-7.0192,141.3777,89.2403,30.4451,38.0130,161.1820,-24.2506
-3531.2500,-71.0331,-245.1395,-28.9651,-93.6147,-9.5564,-27.0869,203.5940,-1.7257,165.2119,184.7685,-186.5088,-103.5555,-70.1492,-14.2016,-16.5409,41.9142,53.1315,-43.0131,219.6196,-35.7528
-3523.4375,-146.6605,-251.9531,-37.7820,-100.3481,19.4802,-14.9421,195.9542,27.4600,194.5350,139.7367,-194.4907,-111.3596,-41.3922,-40.9184,85.8803,-40.0800,46.1869,21.2967,178.3999,-6.9063
-3515.6250,-141.2184,-36.7103,-105.5298,-25.0079,-48.4429,-6.3091,165.3515,33.6918,163.8992,72.7319,-151.4186,-70.1070,-35.5852,-22.2328,92.3482,2.9643,-19.6789,-43.3553,113.2287,-1.0203
-3507.8125,-37.8523,138.4434,-71.3540,-94.7543,-13.4671,-56.7923,90.6481,-42.1835,52.1551,143.6161,-80.4573,1.0608,-37.8813,15.8415,-92.2986,111.8976,14.3739,-78.1369,6.9533,33.7598
-3500.0000,85.8843,261.9772,23.1839,-7.1444,-28.1463,-66.7152,-34.7176,-129.7200,-36.2474,91.8351,14.8505,59.6054,21.1692,31.1407,-107.6064,133.1853,137.7883,-94.5792,-79.9836,-18.1086
-3492.1875,228.5774,193.4880,173.6768,99.4184,49.1127,-95.8793,-67.1411,-162.3170,-105.7075,96.0125,92.1017,26.1123,61.1635,-10.6854,-65.9743,63.4286,140.1686,-302.0851,-181.9704,-51.0283
-3484.3750,267.8307,-13.4458,175.7326,103.5383,52.9181,-56.1950,-173.0221,-86.3740,-138.6249,25.7451,278.8965,-45.8261,100.7096,-61.7095,-25.7981,-43.7995,73.1227,-192.0502,-213.4138,-11.3953
-3476.5625,153.0945,-94.3850,91.8060,164.6769,-30.2793,9.3090,-145.9178,15.5595,-111.5529,53.4639,196.7047,-55.7473,55.2621,-45.3381,39.3725,-53.0406,-6.9025,-165.0238,-117.8638,-20.7664
-3468.7500,6.3238,-100.3710,12.8487,122.7669,-109.5278,44.9299,-77.8653,83.4312,-42.5400,121.1397,7.4625,-24.7079,-24.2352,18.6372,-2.5186,52.6683,-48.9705,-136.0691,-17.3613,-26.1903
-3460.9375,-70.1336,69.9624,-29.7959,47.1558,-186.4796,60.5545,-45.5207,115.5884,-10.2312,-30.8876,39.5172,43.6436,-66.4306,57.0668,-44.1123,83.6712,-18.7300,-34.8160,12.4377,-31.3156
-3453.1250,-8.2631,201.6266,34.8687,-32.1489,-159.1382,-3.3896,20.1159,70.0353,18.3700,-2.6219,-6.1387,34.3035,-112.3278,21.5762,-126.4083,38.9644,6.8227,-79.2751,38.5334,-40.1457
-3445.3125,-14.5277,54.1549,-47.6019,-39.5883,-93.9517,-7.4105,85.5926,26.3196,47.8116,26.4923,-13.9459,-11.1726,-83.3749,-10.2368,14.1373,-5.9083,-35.7533,21.1018,67.4700,-11.1292
-3437.5000,-52.5819,-19.1145,-85.8510,134.2056,-57.5709,85.7982,48.2546,61.7904,46.4388,-48.2074,-88.5438,-49.4318,-84.2226,24.3787,86.8700,30.4024,-74.1012,159.6643,29.6006,-48.9128
-3429.6875,-148.1277,-114.8800,-110.5840,38.5090,65.3065,59.1364,98.4076,74.7460,59.5575,1.6042,-149.6417,-0.1797,-34.5690,34.7151,-9.9163,6.2139,-62.9301,100.6996,75.2271,-73.1984
-3421.8750,-93.9074,-60.8687,-93.5505,-12.4353,119.9235,40.5994,116.2941,92.4365,77.4101,-91.8420,16.0068,-20.1583,56.8366,-13.1631,-65.9595,-87.2231,-114.9857,155.4731,-10.4076,-18.7354
-3414.0625,-136.9156,-33.0712,-101.7522,-91.6143,112.2823,-35.7709,35.9087,11.8681,33.9950,11.4526,81.4000,-28.3691,121.9887,-21.3510,73.7427,16.0862,-88.2736,41.9830,-54.3017,-26.5293
-3406.2500,-134.8031,2.8283,-28.8440,-55.6715,111.7396,-50.3150,35.6194,-62.6063,-40.3311,10.8445,81.8868,-29.4630,121.2362,-11.3722,110.5352,52.4791,-17.4410,-27.4211,-122.1062,9.7687
-3398.4375,26.0188,163.4333,28.7818,106.0008,59.8917,-12.5409,-89.9815,-150.3831,-91.9646,-114.0858,139.0787,28.1519,106.1792,23.5053,-51.9819,73.5594,74.1085,-6.1278,-172.2173,30.7626
-3390.6250,191.1959,153.4123,90.7671,61.0262,48.3889,-41.0198,-137.2404,-161.8238,-139.2555,-16.6695,164.6138,90.1371,131.4712,29.2057,-245.1589,61.9809,64.0317,-84.5018,-146.9779,56.0981
-3382.8125,134.5883,60.6107,138.9686,3.2539,60.0838,-27.3477,-162.3084,-113.0794,-127.3549,-40.0614,213.3488,101.3339,142.9651,17.9211,-123.1351,0.5809,-27.8256,-1.6863,-133.5424,104.6320
-3375.0000,-29.3542,2.4673,43.8363,51.1372,2.4230,25.2147,-145.7355,-24.6887,-147.8088,11.1921,155.7337,80.1920,122.1149,33.7022,-34.4722,15.8246,17.9678,10.7690,-51.4571,46.8105
-3367.1875,-86.0858,-19.4794,21.9079,64.2219,17.9600,47.0368,-93.9641,27.8945,-96.0715,26.6566,61.3141,-15.7468,26.4627,-1.5410,-91.6243,-42.7222,66.9686,60.4104,-3.1720,25.1871
-3359.3750,-151.0560,-50.6641,-9.2583,103.0772,-12.7545,107.3898,-124.4555,107.2168,-90.5923,-41.1409,30.6404,-46.9207,32.5628,10.7263,-49.0334,-36.5246,0.7386,205.7964,1.8561,-5.6837
-3351.5625,-167.9657,-67.7727,-63.3629,15.9951,7.5794,69.6098,-30.9060,127.5658,-70.0717,126.1151,-96.9878,-64.0221,15.7110,11.6461,-28.3879,20.7095,-122.4157,189.2154,19.9303,-22.5101
-3343.7500,-103.2094,-37.2032,-105.7965,-59.4376,38.5675,43.9041,0.2821,121.5472,-1.9116,84.0104,-65.9687,-33.4689,46.5129,-7.5267,39.9023,-22.4219,-196.9035,255.2771,15.6489,8.3138
-3335.9375,-119.1401,-17.3343,-121.9118,-4.5591,-14.1503,62.2200,21.7563,69.8159,56.5391,-42.8034,-44.6512,-12.6061,30.6200,1.6827,61.4769,-38.2521,-108.0700,274.6291,104.6629,-7.5686
-3328.1250,-121.1983,-125.6142,-51.1605,-6.8138,57.9860,17.2251,130.0723,-6.0762,127.8287,-7.7628,-9.4833,-88.8820,65.5765,-54.1897,22.8800,-113.2366,-4.3709,202.8086,102.5169,-9.6052
-3320.3125,-232.0410,-165.6702,-20.1958,22.1417,125.3117,30.8158,161.5732,-11.7783,159.3039,-50.5363,21.8937,-94.9418,132.7333,-47.7066,54.4776,-119.0283,-10.4556,232.1893,61.5616,-15.4453
-3312.5000,-199.7675,-133.5976,-25.1132,-16.7958,157.7355,-4.7292,157.1597,-16.3935,154.8656,-18.2194,17.3688,-25.8888,127.9872,-27.2020,13.1669,-86.7302,-49.4199,53.6458,23.6977,16.8081
-3304.6875,-65.3275,69.6316,-70.8586,-93.5762,111.3077,-47.6355,73.8898,-61.8757,71.5718,-63.7618,80.9886,74.3270,81.3964,-26.4208,40.0059,-96.2997,-55.2172,46.2401,-53.0282,80.2092
-3296.8750,124.9186,224.6684,16.2116,-78.5297,15.6761,-59.0703,-20.5968,-83.5658,-22.9340,-195.5241,170.4119,89.3529,-13.3917,-14.2466,55.6421,-44.0702,28.7999,-42.3653,-143.9574,95.4053
-3289.0625,106.6195,66.1540,71.7420,-27.0186,-38.5028,-31.3519,-74.6437,-64.8073,-77.0030,-103.8264,152.2720,33.8375,4.2677,-1.4607,0.7087,9.6075,116.2873,-96.5322,-127.4374,77.0491
-3281.2500,94.1746,-52.5086,133.1322,30.3530,-50.8331,41.2359,-123.8552,-5.2005,-126.2356,-190.2884,139.9840,58.1839,28.7820,49.1436,-47.3870,34.1214,138.6447,-38.8458,-105.0721,64.5403
-3273.4375,64.8433,23.9514,103.6386,-34.1738,-80.0618,23.1343,-115.9785,39.4958,-118.3791,-145.6612,36.7928,102.6411,-0.6036,73.0430,-112.3961,78.7283,109.1096,-138.0679,-29.6051,35.1240
-3265.6250,44.3895,38.2868,81.0022,-88.8690,-65.4399,7.2057,-101.2571,17.0304,-103.6767,-205.1843,14.4510,116.9575,13.8557,53.6631,-97.5622,19.1810,88.4266,-87.4418,19.7126,49.5528
-3257.8125,12.7527,42.4410,48.1811,19.2473,-25.0206,67.2727,-96.7480,58.3576,-99.1819,-310.9188,18.9133,84.0874,18.1142,42.2649,-20.9463,-49.5659,92.5574,-14.0200,59.8208,53.7811
-3250.0000,-32.8409,-74.3598,2.4161,79.4462,77.4412,62.1861,-33.1987,49.7263,-35.6534,-246.5963,-26.5834,38.2795,83.4247,0.2129,44.7042,-131.2632,46.7655,-24.5722,83.9795,8.0579
-3242.1875,-34.6876,-41.3933,37.4150,77.4133,148.6417,30.1986,39.0835,-26.1711,36.6167,-358.5399,45.6730,-0.7624,117.4834,-33.7688,80.0970,-170.2262,-61.2528,44.6169,46.8853,6.0834
-3234.3750,-42.5144,-14.3969,30.4254,-72.6189,178.8403,-34.4555,32.3539,-70.0831,29.8762,-255.4939,74.9263,-7.7983,147.5420,-2.8147,36.4801,5.8046,-34.2609,35.7990,37.7934,-37.8984
-3226.5625,58.0728,-19.0067,96.8484,-217.2530,246.4425,-108.5843,26.0216,-112.6047,-13.4697,-151.0339,105.5698,-51.4314,178.0016,-22.0266,30.2584,73.2384,-39.8618,31.3720,-72.9020,-7.4825
-3218.7500,108.0099,-110.2643,111.6310,-131.5194,224.3953,-64.7016,-32.9700,-97.7888,-35.4736,-247.2317,157.5585,-36.6991,155.8095,-34.7490,118.3832,-22.9772,45.8995,46.2950,-93.2569,7.2863
-3210.9375,50.8461,-167.6019,88.3149,-49.8687,163.2450,-48.9247,16.9252,-121.0896,14.4142,-197.5217,60.4342,-24.0439,95.5193,-39.7047,95.3965,-83.2963,199.5719,-81.8971,-10.7146,19.9500
-3203.1250,43.6951,-34.9128,152.0105,83.7983,81.0985,-4.5005,44.8139,-167.4043,42.2930,-242.8322,14.3114,40.6216,12.2340,10.5242,49.4013,-55.6313,262.2619,-54.0863,-87.1830,47.6115
-3195.3125,48.7083,146.9399,160.8736,159.6146,16.1000,0.3153,-57.1595,-158.5770,-59.6852,-89.0111,-13.6460,159.4411,-15.8945,81.9374,-52.4544,63.1738,197.1208,-153.1241,-118.5032,-17.5848
-3187.5000,147.5360,175.5948,152.5620,12.2188,7.9114,-50.1479,-65.3410,-93.9577,-103.8780,13.6032,52.1968,114.0607,-61.2238,26.9880,-96.5166,17.7729,49.7952,-124.3711,-160.0246,11.0150
-3179.6875,189.3263,145.2114,85.2122,-88.2188,-60.3304,-39.4180,-131.5901,-15.3903,-134.1334,-54.8527,167.9800,83.6360,-55.6017,13.5951,-90.6213,23.3145,55.4293,-49.6600,-84.6061,16.5630
-3171.8750,126.3197,-21.9735,94.0643,60.5646,-50.3774,33.1278,-122.6550,68.3812,-125.2031,28.8963,30.9478,-17.5813,-82.7803,6.2189,-117.5359,-3.9415,169.2672,-111.7533,-41.9922,-10.6927
-3164.0625,-15.4873,-163.9674,92.1222,93.5585,-52.2214,106.9395,-124.5275,139.3417,-91.0793,-47.1530,-44.8841,-19.5835,-47.7591,27.0983,-83.2638,-42.9945,202.3127,27.3573,-44.1823,-12.7439
-3156.2500,38.6631,-74.9900,78.1405,7.5174,-29.1191,66.1771,-102.4641,162.2422,-105.0144,-61.2571,15.2432,3.3766,-61.7912,12.1661,-97.0463,-57.0933,80.3240,46.4082,-59.4291,-63.8471
-3148.4375,84.3736,-29.4348,51.7222,-122.9673,54.5288,-6.3556,-54.8540,135.6781,-57.4053,23.1873,25.9096,13.8941,-14.2775,-22.4263,-123.2839,-83.6497,-49.0965,56.9838,-49.1296,-53.4031
-3140.6250,22.5418,83.5924,-13.2356,-44.0017,62.6195,38.6392,-83.8075,106.5505,-49.3545,-116.9341,34.0162,21.8699,-6.3168,-4.6354,-78.0756,-75.7628,-6.0587,206.0151,-77.3822,-45.5068
-3132.8125,19.9618,116.8749,-13.9384,-11.7805,61.9594,-1.2440,-47.5221,-4.3304,-50.0594,-43.8032,-114.6348,-15.8937,28.8972,-43.7884,-4.6342,-113.6258,61.2353,203.2898,-9.3850,-83.3671
-3125.0000,-6.8071,-86.0468,-2.8346,-3.7592,147.1043,-41.3307,74.5582,-103.4164,72.0242,41.1323,-102.4834,-77.8527,77.9086,-107.6189,153.5881,-212.6905,35.3409,317.3712,-1.5892,-145.4284
-3117.1875,-52.6201,-237.9908,62.2283,56.2217,212.1955,-30.1941,175.5745,-76.5549,173.0493,68.9977,-38.3808,-123.8547,68.8662,-111.7895,144.7518,-221.8117,-46.5897,271.4126,-11.8459,-191.5455
-3109.3750,-185.4826,-124.9731,-4.7437,28.1571,219.2390,-54.7923,182.5372,-69.7549,143.0141,111.8112,-68.3366,-116.8900,75.7720,-118.7960,151.8514,-214.9871,-3.5619,173.3903,-41.1527,-184.7123
-3101.5625,-155.4933,186.8889,-11.8649,127.9445,138.1366,-26.1370,65.3438,-76.1187,62.8323,-78.5373,-38.4412,22.9353,68.5317,-88.5667,181.7961,-258.3111,96.3181,132.2249,-187.6077,-155.0272
-3093.7500,78.8018,280.0567,13.3192,222.0345,53.3391,-4.8187,-57.5504,-52.1878,-60.0529,-90.5891,-50.2557,121.0600,-17.4081,-48.3294,133.0370,-234.3324,154.4968,-20.6438,-234.7564,-167.0430
-3085.9375,282.0944,166.2216,40.5034,108.1220,-66.4543,-24.2854,-140.4465,-61.2631,-105.9386,-100.6336,13.9151,112.1788,-27.3405,-16.1902,13.2810,-96.3558,217.6840,-63.5128,-207.9068,-140.0569
-3078.1250,226.8291,180.8284,129.1517,87.6781,-125.7948,-16.0801,-125.9031,-46.8880,-128.3833,-86.2408,-8.4647,89.7480,-48.8128,17.9892,-119.0269,-8.9363,267.3284,-154.9215,-87.6134,-125.6160
-3070.3125,10.4634,106.3422,87.7073,83.1425,-130.2351,-33.2648,-56.4727,-51.6226,-58.9396,130.0635,-85.9438,85.2338,-53.3892,24.2633,-123.4509,23.3814,227.8876,-263.4413,12.5782,-130.2806
-3062.5000,-91.2444,109.5398,88.9245,156.2432,-129.0323,-0.2225,-18.4008,-13.7201,-20.8568,131.0074,-47.7600,12.3754,-52.3268,-13.1414,-48.2285,-48.6479,160.1087,-191.3136,-19.5846,-92.2962
-3054.6875,-70.2382,95.4594,0.8405,177.0439,-143.1334,27.2807,-69.6380,44.8724,-35.0819,189.6398,-61.8792,-1.7786,-66.5653,-7.7072,-62.3146,-25.9708,146.0293,-170.4819,35.9511,-106.6136
-3046.8750,136.8773,20.4662,31.8538,102.9581,-75.1320,9.2884,-38.7816,38.5578,-41.2120,147.3752,6.0894,-80.8372,-72.6982,-40.1031,-105.3065,-32.2003,36.0550,-33.5471,-3.4082,-75.8300
-3039.0625,209.5473,-46.9763,-0.5715,-0.5615,-33.5790,7.0531,-71.3862,42.7853,-36.7978,3.6551,46.6024,-76.3364,-31.2802,-28.5316,9.2492,8.1054,-31.3614,144.9518,-1.2205,-108.4964
-3031.2500,135.8127,-85.8007,32.6179,-4.4770,72.5792,8.7893,-2.3982,38.6007,-40.7934,-0.4514,-67.2866,-43.2267,0.7382,-17.7931,42.3863,-31.9930,-35.1640,141.0378,-5.4291,-112.5746
-3023.4375,-1.4712,163.8334,34.2734,69.0593,111.1937,15.5747,0.0339,-33.1448,-39.3436,-218.1158,-28.7265,-4.6688,39.2083,-26.2926,80.9520,-104.6437,3.4951,179.5813,-72.1821,-74.2058
-3015.6250,-67.5503,343.6801,38.1298,143.7978,41.0038,3.8423,-70.3468,-66.6962,-72.7014,-178.5757,12.0298,35.0878,6.8770,-12.3625,47.7050,-64.0841,7.3587,42.3331,-104.7287,-70.6431
-3007.8125,100.6297,195.7749,28.2376,135.7740,31.0679,-33.2376,-81.4815,-114.0068,-119.8157,-42.7642,111.0251,62.0975,-4.2052,-13.2319,0.7036,-38.2750,-35.5303,-105.6629,-182.0251,-7.8318
-3000.0000,162.8036,46.8716,55.3462,92.7562,-15.8681,-29.1966,-163.6243,-123.3226,-128.9329,-15.9624,249.0207,125.1134,22.7153,11.9236,27.7057,-11.4624,-8.4221,-78.6417,-190.3175,18.9817
-2992.1875,134.7691,53.7713,135.2612,-6.4577,27.9938,-83.5490,-119.9689,-116.8455,-122.2505,101.6397,144.8071,95.9259,66.4406,-7.9882,-2.5021,-4.8442,-1.5085,-211.8198,-112.8039,25.5918
-2984.3750,33.4908,57.4240,65.9325,-72.9254,31.6117,-78.4493,-80.5649,-77.6289,-46.8221,140.9924,38.3458,25.4809,69.9093,-5.1880,75.0381,72.5106,-67.8355,-102.2468,-75.5449,28.9525
-2976.5625,-27.4844,32.3876,-33.0930,7.9074,6.5246,-23.9804,-69.8729,6.8782,1.8995,189.6431,-96.8079,-36.6636,44.6758,7.5585,86.8814,120.1527,-162.8528,-93.3720,40.0139,3.6071
-2968.7500,-34.7531,-9.9568,-113.4119,0.4403,-0.8597,-27.9577,33.5189,36.0836,68.3183,218.9996,-104.2738,-81.1078,0.1439,-21.6363,79.4201,76.4976,-134.1719,-134.8064,102.2728,-4.0408
-2960.9375,-65.5678,-76.8619,-109.2731,-31.5716,-106.7901,13.2668,37.3543,76.7351,108.1820,38.7980,46.7072,-40.0968,-32.9270,-15.9457,83.4057,6.3049,-96.0419,9.2164,105.9795,-0.2397
-2953.1250,-113.2742,-54.6479,-49.0299,-184.4855,-83.6196,-20.9177,61.2803,99.4758,95.1376,25.7007,-3.2063,-15.9801,-82.9020,-0.8601,-3.5344,30.2253,-108.8124,-3.6679,163.7887,-13.3389
-2945.3125,-59.6382,34.9348,-103.4376,-201.0560,8.8967,-7.3756,115.5503,81.5588,77.4382,-103.0349,-167.7730,39.4913,-64.5319,22.6127,14.8643,11.4967,-160.2310,119.8013,145.9461,4.9147
-2937.5000,24.9989,83.5188,-89.8449,-47.6247,22.4103,45.4140,92.8118,57.6357,53.7394,-162.7767,-301.3376,52.9608,-87.1655,29.9519,-45.7273,-49.2332,-110.6539,168.2828,124.1032,18.1725
-2929.6875,-0.1641,-81.7046,-152.0489,-1.9962,33.1244,47.5596,66.2723,30.9062,64.2370,-6.3173,-253.7045,26.6275,-76.5956,33.7595,-71.1169,-1.7650,-65.8712,108.9652,99.4668,28.6303
-2921.8750,-60.7390,-108.3361,-108.6425,77.2361,39.4422,66.6153,72.3316,-36.2300,70.3306,-36.2764,-63.4662,69.8867,-69.4188,54.8414,8.0911,4.3009,-127.4800,187.2666,1.4332,71.6876
-2914.0625,-118.3151,10.0238,-93.2255,19.4721,-19.2361,7.4131,50.3823,-58.3685,48.4168,51.7576,-49.2382,85.1460,-19.2387,47.5771,60.2893,56.3726,-78.0880,24.5725,14.4025,49.7406
-2906.2500,-78.2803,85.9904,-17.2089,-44.7023,20.6907,-44.9864,16.0258,-91.9118,14.0929,54.4016,-45.4155,14.0100,-15.4619,7.7860,26.0670,59.0474,30.9056,-75.5162,-50.0279,89.3905
-2898.4375,-2.4755,55.7304,24.5627,29.8829,-9.6376,-15.3220,-50.5941,-86.7121,-16.4934,-13.2080,-39.8349,19.6264,26.0551,32.1624,31.5798,101.4654,1.6522,-104.8438,-80.7060,94.7889
-2890.6250,-26.2184,-144.0741,-74.2060,39.9209,0.4836,-9.4135,-4.7763,-77.0681,66.3628,106.6415,-66.7992,29.6880,36.0170,51.9427,41.5323,148.3314,-128.1366,-164.7281,-0.9310,104.6328
-2882.8125,-131.0154,-142.9257,-112.0139,6.9205,0.5557,13.6075,103.9885,-41.4822,102.1670,32.4322,-30.8107,-6.3001,35.9330,39.9945,77.4337,110.1351,-197.9631,-23.6640,0.7875,140.4274
-2875.0000,-184.9168,-21.8672,-165.9151,-83.1685,-17.4755,-14.8636,86.6464,12.9957,121.8653,88.1179,-84.9313,48.6234,17.7529,35.9502,97.2303,92.8455,-180.8852,-41.7019,15.4067,86.1188
-2867.1875,-124.1233,73.8931,-140.1183,-162.5766,8.1968,-32.2048,75.0008,75.1650,73.2571,113.5057,-96.3657,1.2500,7.2721,-2.9997,48.7213,44.2662,-190.1073,-16.0386,5.7301,111.5138
-2859.3750,-75.2373,17.7606,-161.2220,-78.8876,-49.0333,32.9848,-19.5541,90.4318,51.7483,91.9820,-43.6927,15.9773,-50.1036,37.7904,27.3166,96.7913,-211.2355,137.7314,19.1482,90.0106
-2851.5625,-66.4445,-78.4690,-188.4267,-36.2945,-40.3623,46.9541,25.7894,136.5959,24.1347,174.3739,-71.1202,-11.3950,-114.5864,31.1805,-72.2034,69.2285,-203.4704,39.3964,62.4683,62.4090
-2843.7500,-138.2929,-115.3515,-115.2731,68.6467,-41.3427,94.7304,-12.5207,61.0978,22.8684,-10.8823,-36.1966,-12.4155,-115.7206,56.2941,-37.3832,68.0218,-29.3532,109.4194,61.1387,61.1645
-2835.9375,-142.4023,-14.4807,-45.3623,99.3426,-80.5792,76.1367,-52.0890,-15.6556,-16.6514,-50.3990,-39.5226,22.3108,-46.0993,81.4640,33.1882,138.5627,37.5188,70.1994,56.5657,21.6725
-2828.1250,-38.0731,55.8317,-11.0060,-42.5070,-10.3604,2.0428,-18.2076,-54.9600,-55.7245,94.5470,-41.4099,56.4799,-48.0303,67.4736,-115.7892,136.5550,0.8340,69.4327,-15.5504,55.6332
-2820.3125,24.9981,83.8968,-17.9085,-49.6061,-17.3980,11.0191,-97.5839,-26.5151,-99.0470,50.2408,61.4531,86.4112,-19.2176,72.3328,-197.0111,129.3028,28.8996,97.4266,-91.9208,48.3426
-2812.5000,78.1295,-4.9671,112.2377,108.3413,1.6039,52.4229,-115.9140,28.9755,-154.3263,68.9781,-30.6375,-5.5954,-0.3690,47.6154,-215.1967,74.1022,117.0189,-61.5376,-110.2345,30.1008
-2804.6875,78.2150,-144.8739,148.3371,143.2286,38.5496,67.7939,-116.2929,28.4130,-117.6537,31.6639,6.2231,-42.6506,36.4277,30.7777,-104.4453,36.8503,187.0855,-61.5481,-110.5864,29.8126
-2796.8750,106.6812,-46.3890,70.8313,-3.4763,33.8925,-6.5884,-49.2748,23.2551,-50.5797,26.7515,38.4805,-10.3169,-5.3741,5.9424,-0.2878,32.0042,40.5445,-103.1406,22.4729,-12.0764
-2789.0625,21.5366,-25.5230,-92.2786,-299.7797,55.6376,-127.4911,82.1494,7.5033,80.8973,195.2580,-13.8834,-25.5892,16.2231,-55.1825,58.2696,16.5614,-149.5992,-48.3360,182.9413,-27.5649
-2781.2500,-21.8179,-33.8600,-100.5915,-307.2841,9.1824,-84.3048,146.3740,71.5520,145.1792,148.5618,-60.4559,-108.0624,-30.3793,-53.6005,48.6324,43.9235,-227.9444,85.2778,245.2164,-0.2552
-2773.4375,-100.6749,-77.6928,-73.4038,-211.2895,0.2228,-35.8191,174.1070,98.1054,135.9623,176.3706,-141.5331,-117.0404,-39.4931,-30.9829,-107.5146,34.7944,-130.7990,41.3898,271.0023,-9.4475
-2765.6250,-163.6356,-210.6299,-67.3325,-64.4007,5.1573,42.0359,178.7436,103.5587,140.6494,34.0951,-63.7084,-148.1208,2.2921,-42.6704,-101.7688,-70.4268,-54.7678,118.4100,242.6982,32.2650
-2757.8125,-108.7517,-226.7082,-47.4179,25.3379,25.9382,49.9321,125.2283,86.8605,124.1889,17.6683,-7.0219,-127.3477,-14.0754,-43.9310,27.8221,-86.7881,-70.8990,67.2867,191.2452,15.8344
-2750.0000,59.0693,-127.8351,-54.5524,-121.9887,55.6691,-75.3939,154.6656,-68.8924,116.6815,157.2020,-14.3926,-25.6246,-21.4917,-15.1494,20.3583,52.8030,-78.0818,-45.8875,77.7507,8.3572
-2742.1875,117.8855,106.0364,-31.6853,-63.3222,40.3969,-42.6815,66.1066,-119.6490,28.1781,31.7277,7.2342,33.0876,-35.9020,31.7723,-67.1052,111.3936,-19.2618,83.9493,-73.7379,66.8843
-2734.3750,14.0610,143.2594,6.5330,78.7015,-30.5248,7.1313,-42.1066,-118.0514,-42.9792,33.6068,46.2082,35.1421,-69.9642,62.2451,-139.2262,150.3373,52.9031,15.1352,-107.8672,68.7617
-2726.5625,7.5351,-74.2198,72.0487,142.0176,-2.1462,35.2681,-50.0198,-90.1569,-50.8361,-11.2027,111.4872,26.4969,-41.7244,48.2090,-74.0547,67.5841,46.3592,-61.3759,-149.6907,96.9395
-2718.7500,28.0042,-52.7010,57.5617,92.3301,-16.7708,4.7860,-101.9326,-105.2648,-65.6884,-136.0122,133.7717,85.8482,52.5140,32.3830,57.1214,15.8382,31.8065,-110.8692,-164.5043,82.1219
-2710.9375,102.5075,160.8510,98.1264,-80.3179,-13.3521,-95.9136,-135.7862,-102.3204,-136.4851,-95.7475,100.0969,126.2427,92.8014,16.5623,60.3494,56.1506,70.3027,-318.3199,-231.2572,85.3519
-2703.1250,183.5093,276.8968,181.1883,-34.4661,-40.4372,-82.9407,-237.1387,-130.8739,-237.7806,-86.9706,219.9198,98.1296,101.5835,21.2469,-39.9215,101.9586,116.2936,-237.2679,-361.5075,131.0865
-2695.3125,83.8087,178.2466,115.5429,76.6886,-69.2343,-7.2460,-266.1982,-86.1136,-229.7790,-5.8854,191.0440,69.3125,35.6636,67.3499,-68.8990,184.0777,123.5745,-194.9137,-214.4518,102.1179
-2687.5000,-48.6451,44.8384,49.1465,120.0917,-61.7832,49.6551,-149.0080,-6.0939,-112.5274,37.4646,50.4106,-69.2600,-29.0055,29.6149,-61.6384,117.4487,60.0983,-82.3088,-31.1411,109.4025
-2679.6875,-68.3585,-79.8160,-6.4998,169.2404,-154.5866,105.7967,-94.0666,47.6790,-22.5246,18.5535,-5.4676,-88.0829,-84.9266,38.2782,-8.6305,98.5690,4.3695,37.0629,122.9220,53.4377
-2671.8750,-13.9754,-200.3600,15.9529,154.4762,-132.2880,92.2061,36.9792,69.5507,36.5827,114.7499,-129.2493,-102.8070,-99.7466,21.4315,-23.5299,46.7995,-10.2594,-47.4685,214.0902,38.5688
-2664.0625,-61.1356,-108.4707,-35.1429,35.1590,-147.5387,68.8377,95.4818,53.8660,95.1470,-11.5978,-70.5859,-9.0837,-115.1170,37.4984,35.0235,31.4885,-57.4355,44.4533,199.7087,60.1559
-2656.2500,-80.9063,187.8103,-127.8356,-124.7448,-167.3913,9.8368,75.3856,70.5808,75.1125,-31.5456,-90.5179,45.0385,-172.0861,55.1284,14.9856,122.5762,-113.2150,24.7758,215.7325,40.1430
-2648.4375,-133.8869,241.9061,-146.7245,-211.8566,-112.4449,-36.2115,56.0952,51.0961,18.8760,23.3109,-36.6564,-11.0395,-117.2532,21.6949,32.7418,140.4592,-95.2045,42.8883,127.5624,57.9347
-2640.6250,-117.3123,11.5596,-56.0673,-20.4301,-95.9572,51.6365,-37.6543,30.1701,-37.8160,-69.2896,-20.2393,-103.5676,-27.8756,19.8571,123.0462,119.8993,-8.6465,165.5632,37.9488,74.2814
-2632.8125,-48.1229,-165.1885,-21.8238,12.5939,11.1236,36.1381,-3.8033,-9.1445,-39.9075,37.7165,-132.2183,-105.5012,6.0986,11.6377,46.9473,80.9447,-10.4968,57.8333,71.9470,72.2275
-2625.0000,36.1592,-114.8453,-5.4902,-76.2768,65.3013,-8.7276,-23.8476,-29.3512,-23.8984,17.8292,-42.0894,-16.3445,23.1733,4.3585,-46.0510,24.0878,-30.2513,74.2136,16.0537,52.2769
-2617.1875,10.9608,36.0381,6.3983,-67.5890,114.0253,-29.7936,-49.3455,-18.0001,-49.3353,-44.5138,79.5855,-41.6361,108.8059,-24.5650,-107.5028,-1.2106,-55.4571,13.1610,26.7146,26.8792
-2609.3750,-104.9472,-81.7821,-42.4096,-113.6126,175.0517,-47.2820,-24.5404,43.6616,-24.4733,91.4515,67.5429,-125.6274,169.7411,-51.3800,-47.6594,23.7943,-101.3691,-68.6022,49.6820,14.7830
-2601.5625,-113.6525,-90.3936,-51.0317,-88.4424,129.2745,-21.8759,3.4695,71.5323,3.5932,82.6153,58.7041,-134.4165,123.8731,-61.5530,17.3846,-21.9997,-146.0896,28.8365,75.8500,5.8863
-2593.7500,-91.5075,-102.1599,-23.8097,-100.4237,46.3368,-27.9301,30.3314,97.2633,30.5114,145.6400,48.7161,-109.3603,40.8487,-68.5951,-66.7272,-68.9418,-87.9603,-17.8760,134.8804,-41.1602
-2585.9375,-41.6679,-262.2443,-8.8877,-85.7047,-12.9059,17.2162,7.8973,111.7030,45.1333,50.3775,63.4310,-130.6107,18.5199,-63.1723,-52.1391,-91.1840,32.8708,67.1121,149.6217,-26.5044
-2578.1250,79.5178,-281.9695,6.3896,0.3663,-71.8022,55.1635,22.8148,89.5033,23.1065,28.4482,41.4884,-151.5125,-40.4581,-38.7225,-37.1996,-39.0751,13.0515,117.4595,199.7140,-11.4949
-2570.3125,33.8003,-117.5959,-41.2347,-81.4637,-45.6011,-11.9917,48.8352,5.4075,49.1820,164.6221,-43.3645,-53.3144,-88.3341,-11.5432,-85.1615,24.1397,-68.6747,71.9017,258.9154,-22.3884
-2562.5000,-45.3648,156.3248,-86.3126,-18.7390,-53.8549,18.0207,76.4101,-3.1321,113.8078,9.3430,-51.6567,12.4314,-168.6603,-7.6582,-93.5690,-58.0918,-41.8562,204.8941,250.6626,-30.7292
-2554.6875,-43.0362,122.7411,-43.8919,17.4894,-85.6151,14.7892,44.4843,-35.1628,44.9324,87.5711,-46.4432,53.6737,-128.4841,7.6648,-162.4771,-52.8133,65.4595,171.3814,252.9155,-99.5688
-2546.8750,-61.7214,33.1489,45.5235,-1.2936,4.6218,12.4397,23.5655,-56.1807,-11.9366,140.8099,-67.2398,-3.0877,-75.3096,-22.0552,-218.3782,-110.5404,152.7762,257.8668,198.1736,-83.4035
-2539.0625,-126.6084,-100.6395,90.7383,39.7167,48.6529,47.9814,-5.5529,-48.3842,-5.0018,74.8488,-59.2378,-106.0518,42.6641,-37.8756,-138.4789,-102.4607,158.8838,405.1548,169.2342,-112.4322
-2531.2500,-17.2854,-308.2347,59.1455,43.9172,163.8751,21.4546,36.5338,-7.3761,37.1374,117.1119,-54.0363,-211.8176,47.8302,-103.9667,-59.3898,-171.1619,57.1789,303.6273,137.5090,-144.2617
-2523.4375,116.3901,-279.4833,14.8944,-69.5352,156.4454,-18.7253,65.9827,21.9893,66.6384,-1.2747,-25.4820,-182.2356,77.3459,-116.5677,6.0500,-178.5098,13.8150,261.4482,95.1402,-151.7348
-2515.6250,55.8465,-24.9310,-10.5642,-201.1859,94.8068,-85.6169,77.2374,33.1633,77.9483,47.1396,-87.1279,-96.8511,51.6619,-89.5451,-19.7085,-93.0576,24.2502,95.0717,139.5820,-177.4084
-2507.8125,-66.2128,29.1072,6.4733,-217.3459,111.6631,-99.0970,131.0015,49.8538,94.7633,101.0666,-70.2858,-153.9678,68.4782,-95.1474,34.0346,-39.1055,-62.8229,43.1902,88.5305,-123.5788
-2500.0000,-200.0398,-68.6095,-22.2452,0.7326,44.7621,12.6867,64.0233,93.8131,101.8391,-2.7579,-26.2000,-146.8455,75.5506,-29.9276,188.0429,41.1020,-90.6524,50.5738,60.7413,-116.4940
-2492.1875,-183.7894,-193.2320,-5.8745,122.9025,23.9529,54.0603,117.1557,109.8947,118.0290,50.5271,-121.0294,-130.6351,17.7247,-9.0950,204.1584,20.4220,-39.3930,-72.9395,77.0749,-100.3087
-2484.3750,-64.6352,-144.9789,7.3855,100.9642,-72.9566,45.9595,56.2072,48.8953,57.1295,-83.2823,3.0496,-6.5362,-5.2074,2.7690,217.1656,-39.3609,43.7519,-24.5419,19.3203,-87.2187
-2476.5625,147.3223,103.0678,46.4307,-39.1717,-144.0700,-42.9391,-14.9337,14.7115,-49.9591,-154.2901,78.9408,69.3664,-39.3494,-24.5998,109.9608,-73.3508,9.6893,-93.3452,-14.6228,-121.3357
-2468.7500,141.6811,237.5133,75.8741,-115.9146,-114.7861,-74.5399,-21.6733,6.9293,-57.6471,-124.8793,71.2188,61.6707,-84.0921,-38.3587,-7.8508,-80.9425,4.0359,-99.7554,49.8397,-92.0545
-2460.9375,3.9333,205.8609,77.2265,63.2498,-185.6018,28.1367,-20.5126,9.0556,-19.4393,-195.5702,109.3940,26.8758,-82.9288,15.7615,-80.7587,-5.6335,42.2799,9.7416,53.1995,-53.8682
-2453.1250,125.1318,11.1669,57.5294,150.3633,-169.4680,63.7141,-4.3946,25.1399,-40.2751,-33.2984,52.5194,6.0310,-103.8101,53.6047,-137.7174,83.6334,23.4668,-44.8314,34.5130,-37.7317
-2445.3125,148.4172,-71.4238,43.9230,102.5704,-110.2403,53.0600,-18.1712,11.3381,-54.0063,-46.9157,75.7511,66.2845,-43.5918,74.9680,-4.5674,107.0060,11.7487,-21.3119,-83.0720,-14.4929
-2437.5000,57.9933,154.2739,58.6112,188.0863,-59.7266,58.0945,-40.6463,-11.1417,-76.4327,-105.2338,53.2813,80.8364,7.9262,83.4434,46.8958,121.6883,26.3293,-76.4961,-137.3554,0.0482
-2429.6875,15.5685,147.9460,13.2952,110.6011,-31.2221,-7.6431,-49.1109,-92.6020,-83.8534,-3.5401,44.8032,145.3801,-0.5549,89.2047,38.3657,150.3775,89.9026,-222.6984,-179.6253,28.5927
-2421.8750,131.6450,88.1018,58.4767,120.6093,-95.2286,9.6744,-113.0630,-83.5484,-111.7584,-67.3523,89.8305,117.4175,-28.5332,63.6044,-26.6595,85.5677,134.9666,-177.3982,-239.3870,73.6426
-2414.0625,189.2297,110.7737,46.1515,108.1029,-107.7468,-5.0594,-162.5068,-95.9810,-161.1559,-79.6553,114.3627,177.9561,-41.0169,71.2843,-39.1842,73.2584,192.5172,-260.6115,-216.6413,61.1936
-2406.2500,164.8061,261.4492,91.8135,153.5762,-99.2749,0.9963,-153.9403,-124.3940,-152.5478,-180.9436,122.8939,223.4977,-31.5003,68.0151,-29.7064,8.9473,133.0598,-249.8291,-205.8939,106.7474
-2398.4375,99.6068,443.3686,60.7177,159.3063,-203.5540,21.1557,-184.1202,-81.5359,-146.6869,-211.9930,128.6717,266.2860,-99.7282,96.1603,-23.9632,50.8855,102.8496,-243.7851,-164.8898,112.5593
-2390.6250,45.3340,354.2230,4.5669,68.9961,-298.8809,-14.9559,-132.3436,-65.7075,-93.8703,-49.0816,70.3869,209.0240,-120.9976,66.3670,-8.2630,66.7758,154.5779,-332.7990,-78.9304,128.3243
-2382.8125,56.4166,117.4190,85.7598,185.0376,-326.8567,48.0137,-123.2114,-57.5175,-85.6990,-3.8262,115.4577,143.1145,-111.9132,75.5188,36.7932,76.0169,163.6442,-287.4569,-68.6204,173.4492
-2375.0000,113.4585,-69.4212,111.8892,278.0311,-336.8925,53.6245,-97.1353,-104.3654,-58.5847,132.3849,142.4848,133.1658,-122.8787,61.6629,-10.2098,29.2246,222.6595,-334.1665,24.6438,126.5267
-2367.1875,232.3001,-91.4680,124.8138,255.8203,-214.1296,27.3946,-47.2562,-128.4040,-45.6720,108.4070,118.3115,72.0178,-110.0466,-6.7522,-71.4171,-104.7573,200.4753,-251.0874,-32.2827,139.4118
-2359.3750,102.8267,165.1821,102.4373,231.3167,-163.6755,5.7643,-69.6743,-187.7215,-32.0537,12.1165,95.8457,123.5704,-22.5172,-10.2404,-20.9247,-127.0406,140.9843,-64.3125,-55.5112,80.0047
-2351.5625,46.3889,284.8986,46.1033,-1.1360,-0.1829,-84.9322,19.9615,-169.9704,21.6176,103.8758,-34.5810,104.1829,31.0572,-51.3842,-77.3854,-146.2783,13.5485,19.4938,-7.6839,23.6487
-2343.7500,36.8488,99.5140,-0.3300,-150.6870,137.1989,-72.0154,47.5056,-106.3040,49.1964,20.5356,-7.1061,20.6983,95.5308,-69.8685,-86.9449,-155.6199,-65.9845,292.1972,-16.9573,14.2022
-2335.9375,83.5622,-99.6303,15.4786,-138.9837,226.8224,-48.7568,99.3030,-54.3695,101.0315,-74.5556,8.6268,-111.5423,110.2563,-87.4821,-181.2386,-140.7130,-54.2697,304.1459,-3.9756,-43.9935
-2328.1250,-1.8767,-254.9594,37.1298,-188.4251,321.2962,-40.5362,120.9622,4.4379,85.7312,-89.7895,-43.7854,-162.9532,131.8346,-108.6079,-87.6657,-191.9604,1.2828,324.9445,-54.1306,-59.3340
-2320.3125,-155.8735,-196.8344,24.2221,-201.4203,345.2074,-16.5467,108.0814,64.7243,72.8863,-175.5714,-19.7559,-175.9091,155.8565,-111.4224,120.3648,-204.7526,-46.7248,417.1871,-66.8321,-72.2245
-2312.5000,-177.6219,-150.4601,-37.4462,-295.1928,357.3576,-63.5167,157.4549,77.2759,122.2949,-16.0883,-118.4943,-163.6033,131.1241,-86.0204,95.6317,-83.2759,-105.4792,288.6719,-54.2741,-59.8631
-2304.6875,-75.9218,-187.6357,-78.6667,-262.5311,278.9516,-48.5870,153.2829,73.2970,155.1610,16.8408,-121.7764,-203.8551,126.8494,-80.1211,165.3465,-13.3452,-141.7832,321.6176,-57.2640,-27.0492
-2296.8750,-48.7265,-230.3044,-123.3852,-95.3740,196.0511,19.1857,180.6275,100.8304,145.5352,44.2623,-167.5558,-176.6140,7.0866,-36.7911,155.5638,14.0664,-185.5869,244.0593,-29.7516,0.2635
-2289.0625,-127.0920,-309.5263,-170.6505,-68.7552,148.6073,22.3527,207.4244,91.8160,172.3608,144.1313,-214.8851,-112.9213,-40.2171,-15.9685,109.2464,3.9102,-193.9389,129.9562,-2.7888,27.0304
-2281.2500,-160.1582,-201.4525,-131.6177,-100.8222,77.4693,9.3508,172.5263,57.1103,137.4905,73.2889,-175.9194,-74.9201,-1.2123,-10.0637,111.2472,6.0581,-121.9938,132.1534,35.4731,29.1003
-2273.4375,-150.9305,-87.0989,-84.2880,-232.5913,51.6324,-96.2277,183.9468,-5.2843,148.9380,194.7572,-127.6642,-64.6232,10.0956,-20.9012,85.5686,91.5163,-77.7494,-69.3691,45.0361,3.4677
-2265.6250,-100.0572,-36.1062,-33.3141,-216.7184,-8.5561,-110.1440,125.0299,-64.0091,127.0473,171.8642,-4.7526,-49.6833,24.0541,-22.9073,62.5387,105.6281,-96.8464,-88.2412,25.2443,54.4954
-2257.8125,74.6204,-35.3238,-34.5490,-41.0379,-45.9525,-56.8348,48.9147,-64.9090,50.9574,133.7681,66.9702,-14.9455,21.8065,-0.1672,23.3086,103.5519,-167.1524,-158.3379,60.2559,89.3305
-2250.0000,103.4059,-78.4444,-78.7044,-14.2716,18.7427,-68.2716,41.9049,-108.6884,43.9720,163.7843,59.7806,-22.1061,51.6641,-20.4696,-55.8066,59.5836,-139.3822,-165.3593,53.3779,82.2766
-2242.1875,1.2665,30.5475,-37.7793,-10.4223,22.5272,-30.8147,9.0015,-67.3464,11.0923,56.8982,63.6836,54.8399,55.6206,11.9483,-88.8091,26.7244,-65.5162,-91.2754,-12.3891,86.3269
-2234.3750,-74.8545,59.5803,-43.8113,17.4686,-19.6480,-20.8631,-68.8404,-36.9242,-66.7268,162.0838,21.6341,86.8398,50.6228,45.2457,-93.7791,95.9098,-37.5964,-168.1468,-19.0947,44.4248
-2226.5625,-51.7248,-22.1581,18.4098,77.6221,-30.5765,36.3394,-115.4343,26.7723,-113.3025,78.5200,47.8501,76.0811,2.8773,51.4266,-68.5104,48.3303,-13.4312,-108.7528,-29.5515,33.7766
-2218.7500,-5.1364,24.5555,-3.9188,159.2465,-126.0610,76.7893,-138.5828,77.9404,-100.4299,-17.5924,98.5251,53.7645,-56.4187,44.5738,-17.7941,26.1985,-37.8158,-62.9072,17.4486,-25.4240
-2210.9375,-38.1985,26.6267,-73.8987,55.2211,-123.1959,51.0140,-61.3692,156.4663,-59.1920,-13.3555,29.5376,-16.2039,-52.3591,-10.9380,23.2876,-43.5914,0.1479,-60.7194,19.8032,-58.2792
-2203.1250,-40.0194,94.9507,-38.6354,18.4447,-125.0823,49.3882,-25.8906,155.2523,-23.6938,-197.8785,63.7899,-54.9180,-17.0457,-48.6578,94.6452,-119.1373,-36.6414,113.7092,-87.5850,-59.8866
-2195.3125,-41.0412,130.0513,-35.5749,17.4790,-122.1659,23.6616,-59.6008,121.8561,-94.3890,-85.5923,66.8518,-15.8278,22.0718,-36.3232,97.7741,-78.8738,-2.6371,113.9181,-158.1620,-130.6924
-2187.5000,51.6886,-94.1159,61.2311,40.2654,-25.5059,22.2175,-36.5477,109.2222,-107.3217,-25.5525,90.6713,-28.9772,82.9378,-35.1646,47.6336,-91.8679,-15.8901,65.8637,-170.9828,-143.7368
-2179.6875,140.3723,-181.3146,44.9783,58.9993,32.0896,13.6289,-15.5477,56.5532,-13.3004,-114.5758,147.4361,-8.1632,103.7558,-22.2892,31.4615,-70.9090,-32.1904,13.7449,-80.8629,-159.8244
-2171.8750,122.5675,83.0096,23.2246,-99.7804,84.1752,-96.3858,73.9579,-1.6043,39.2178,-99.0999,89.7005,44.1650,45.0687,-38.2286,9.8052,-55.4506,-49.9837,-213.8874,-28.2557,-107.4087
-2164.0625,1.0692,242.6446,4.7721,-116.2533,28.5570,-98.6161,18.7631,-56.4526,21.0349,-118.3345,181.2704,61.7901,62.6899,-24.9892,64.4550,-0.6829,-30.4756,-90.2239,-114.3522,-52.6877
-2156.2500,79.9617,75.6670,50.7195,-1.3207,0.3456,-67.5203,-9.0335,-83.8858,-6.7466,-72.1656,153.2408,-2.1890,71.7219,-18.7313,110.4976,45.4886,-57.5745,-116.1767,-105.0427,-43.5629
-2148.4375,120.8878,-59.2924,91.7012,4.6565,4.1867,-84.6639,32.2293,-151.2542,34.5303,6.0526,120.2534,1.8888,39.8145,-16.0718,78.6059,49.7022,-120.6337,-145.0814,-98.6773,-2.3807
-2140.6250,70.8955,31.8590,37.7658,24.7306,-85.8748,-47.3543,15.5959,-130.5019,54.9142,-83.6469,104.3566,59.0799,60.0005,18.1479,61.8244,70.0139,-66.5865,-88.8825,-112.2117,17.9034
-2132.8125,70.9959,67.1360,0.9247,24.8868,-49.8393,-49.1908,16.0734,-93.6295,18.4044,26.7588,-6.4459,96.3725,23.2797,31.4760,25.1376,70.4195,-31.4369,-194.5916,-77.6353,18.2890
-2125.0000,25.1008,56.3805,-9.9177,14.0518,-60.8021,-23.0913,5.5585,-30.7367,7.9055,-20.8373,56.7583,85.6520,12.5683,6.6724,124.4577,-14.1841,-7.2914,-99.2897,-53.0515,7.6769
-2117.1875,-3.9504,97.4395,-1.9144,20.0836,-52.9127,-11.7845,13.8977,15.0152,53.2598,-86.5692,100.8081,56.7690,20.7130,-7.7519,95.6391,-42.9271,-0.2885,-94.1450,-10.6095,-21.0863
-2109.3750,-53.5066,-22.0104,19.5891,41.6217,5.4837,6.2385,72.7494,0.2688,38.1262,9.2060,12.3503,41.3938,5.3607,-10.7896,7.3130,-94.1665,21.2155,-37.5175,11.3378,0.6542
-2101.5625,-44.0073,-82.3863,-5.8616,86.2044,16.9287,61.2696,10.6629,49.5695,13.0539,-125.9854,-13.0500,53.0951,54.0570,-9.0740,92.0405,-155.3566,-4.2299,113.1571,-13.6675,-24.5524
-2093.7500,55.8470,-52.3848,-81.9669,10.1199,13.7150,8.2263,44.9421,84.2129,47.3389,-54.8319,-89.1005,-22.8427,14.1056,-60.4692,127.1332,-159.1978,-10.3216,37.1640,50.6820,-100.4101
-2085.9375,24.4123,-13.6688,-41.3709,-21.2577,17.2104,-14.8672,85.9193,51.5583,88.3252,-50.9930,-11.4458,-130.0908,17.8622,-88.3998,56.9310,-118.3420,28.2924,75.8664,54.7197,-96.5669
-2078.1250,-56.6724,45.3676,20.5807,-32.2593,43.0579,-18.6680,75.2338,41.2634,77.6483,11.1973,50.5644,-177.9835,43.9696,-69.1544,-63.9271,-18.1388,17.2702,100.9039,80.1033,-107.3724
-2070.3125,-168.7217,-30.5722,-20.4158,-143.2031,75.9620,-52.0407,181.5931,112.0396,147.0118,228.4429,-63.3737,-181.8246,3.1321,-54.8690,-31.7372,51.1043,-58.6919,23.9881,109.5371,-148.1228
-2062.5000,-8.2836,-116.0103,-73.9160,-123.6368,21.3596,-28.9063,201.4459,132.3386,130.8722,101.1922,-7.8039,-51.1656,-50.2062,-12.9854,98.9531,33.8550,-39.1529,-26.4213,-11.5307,-128.3697
-2054.6875,104.2579,-74.3384,-69.3190,-81.9709,-10.1442,-33.8185,96.4010,63.7454,61.8303,-3.9460,-2.1482,174.5984,-45.4479,71.2543,66.7369,75.7065,37.4844,-265.7497,-39.4991,-86.5160
-2046.8750,94.6165,22.1467,-9.9334,-56.5103,12.1496,-18.7883,83.1490,13.9541,48.5850,-201.2963,-53.6966,160.1702,14.1095,63.0032,-20.6716,25.3457,63.9191,-239.2721,-48.6802,10.1408
-2039.0625,-79.8776,-12.2137,-45.4029,-19.8958,13.5857,41.2720,48.0464,90.3361,87.4885,-272.5063,-88.0926,124.8906,89.8143,61.2542,18.0685,-9.8671,30.5032,-132.6440,24.2923,11.9415
-2031.2500,-224.9196,-122.1559,-87.4306,-59.8295,117.4843,49.8757,151.4053,157.1958,117.8491,-132.2599,-241.0468,45.0485,82.9675,45.7051,85.2500,-16.6389,-10.4658,-137.5644,89.7193,42.1945
-2023.4375,-360.6733,-186.8141,-119.1691,-88.4642,122.6852,71.3876,157.0726,163.3721,159.5214,-163.7251,-235.7047,-23.4971,125.4240,31.8777,200.7431,-11.0992,-5.1403,42.8289,95.4553,47.7508
-2015.6250,-418.9462,-279.9813,-104.4143,-6.5958,100.3846,116.5021,136.2480,254.0568,138.7014,-75.6868,-257.8700,-81.5309,140.3838,22.9365,179.7404,-32.0403,-28.3165,20.7101,178.6961,-10.1898
-2007.8125,-295.1940,-438.0948,-50.6186,46.3124,118.1419,144.0428,154.4825,308.7926,156.9400,16.4140,-239.9914,-135.5015,85.3982,-10.4530,87.7926,-122.9345,-45.4501,38.6344,160.9896,7.9279
-2000.0000,-185.5993,-292.3222,-116.9793,16.0774,51.7484,123.6839,124.5674,279.3782,127.0366,-13.6354,-196.2740,-56.6215,18.2583,9.9867,167.7106,-81.0100,-40.7314,78.3974,131.1310,-22.1049
-1992.1875,-138.8517,-71.4008,-142.2009,-43.9982,98.4962,56.9907,135.8098,218.1204,101.2863,34.4643,-222.4027,-8.5915,-7.7324,26.8451,104.7939,4.0515,-99.8650,-51.7017,142.4156,-10.9888
-1984.3750,-124.4751,14.1119,-164.8178,6.5394,39.8430,53.8535,77.6517,122.4605,80.1352,-24.8526,-97.9123,43.0496,43.8756,50.7845,46.4652,55.7351,-85.4045,-2.2015,52.2900,3.7296
-1976.5625,-78.7820,130.9326,-79.1242,88.3851,16.4949,40.0622,17.7836,64.1003,20.2737,-47.8563,-48.1158,93.0081,57.7924,52.8337,-13.5968,32.7320,-38.6403,-95.4220,-5.5474,-19.2512
-1968.7500,-49.7490,125.0845,-13.0711,117.5807,45.5010,15.5163,47.2657,20.0955,12.7580,18.4861,-55.9723,12.3213,50.0663,6.3151,-21.3013,-11.9366,61.4953,-171.3065,-12.0438,10.1292
-1960.9375,-13.0781,56.8809,23.6207,225.4396,-28.8361,83.0332,-26.6075,-16.2481,12.8907,-90.5383,-19.1759,49.2840,49.9960,42.4832,-21.3384,-11.9566,168.2821,-63.5454,-9.8971,47.1615
-1953.1250,117.9484,46.0400,85.6471,179.6351,-3.8166,52.4880,-1.1288,-26.2433,1.3630,-29.2032,-103.0232,111.6037,1.2732,42.2982,-68.0241,-58.6252,123.4086,-144.4432,15.5989,72.5412
-1945.3125,180.6360,214.8706,78.3210,67.4689,-11.1505,-8.6477,-8.0089,-68.5853,-5.5200,-72.2266,-73.2051,177.5812,31.2033,17.8818,33.9470,-102.6561,81.1723,-81.6834,-26.2618,65.5695
-1937.5000,110.9235,392.3078,80.5998,-3.1021,-8.8803,-67.7371,-42.2868,-30.3211,-2.7972,-34.6514,-35.7988,70.1472,33.7358,-59.2514,73.5285,-137.0844,46.5342,-151.3277,-25.5151,31.1960
-1929.6875,2.3041,177.7967,40.9764,-109.5662,-11.5055,-43.5226,-44.4465,79.0491,-4.9566,111.0381,-38.3113,-6.2095,-5.6249,-46.3602,-2.7870,-66.4094,79.0135,-118.8682,78.3395,28.9248
-1921.8750,76.4158,-30.0135,5.1004,-37.2558,-10.3688,74.7839,-41.8507,191.1738,-3.3607,38.4762,-0.0740,-4.8203,-76.2373,28.6734,-73.3545,8.0181,46.2591,24.3519,116.9512,67.4013
-1914.0625,-15.2671,-120.6153,-51.5875,-91.7446,-67.0295,119.4234,10.9523,355.4934,13.4383,129.1154,-92.6427,-25.1984,-96.6531,45.6376,-57.7220,24.6388,25.7011,38.7515,201.7573,47.0773
-1906.2500,-106.3352,-106.5560,-37.6779,-77.6498,-17.0861,129.1362,25.3562,407.3969,27.8377,106.3263,-115.6083,-82.9427,-10.4632,-2.1000,29.5309,-70.1533,4.7264,88.7320,111.1516,61.3582
-1898.4375,-70.5471,-70.6124,1.0742,-42.7041,-14.2974,158.5980,-45.3944,448.1363,-5.9174,72.3770,-40.7217,-80.8234,-7.4189,32.2657,-41.3581,4.9018,5.5987,124.5497,42.3943,27.4888
-1890.6250,-2.6672,-2.6004,-38.0692,-113.6501,-16.4091,118.1617,-47.0451,409.9728,-44.5769,143.5409,-78.7291,-46.6093,-9.2779,62.8359,-115.1504,114.0545,39.5903,52.4549,40.7358,25.7232
-1882.8125,-38.3918,67.7875,-39.8089,-10.1880,-19.1177,132.5952,-84.3002,335.2091,-81.8331,105.0985,-44.3349,-12.0050,25.2711,73.4586,-44.5420,111.6080,2.9898,86.7587,-30.5204,60.3647
-1875.0000,-103.9606,106.3341,-71.4031,64.4317,-13.6696,108.4329,-152.4101,267.5981,-149.9444,146.8113,34.2027,104.7425,30.9773,85.9944,-2.7835,80.3238,-28.4610,-50.8081,-95.6288,29.1588
-1867.1875,-18.4339,52.9859,-18.9007,116.1601,-34.1215,106.6244,-135.4318,211.0783,-132.9637,53.6185,124.8423,84.6038,10.7879,49.9306,-22.9244,-13.8430,-11.8069,-34.2682,-114.6458,46.0565
-1859.3750,18.8505,-15.6020,23.3542,223.6374,-65.8175,165.6570,-166.7020,254.3009,-128.2358,-124.8396,166.2394,16.2264,16.3430,41.0893,19.6675,-45.2602,95.5998,3.0187,-77.9053,-22.2984
-1851.5625,98.3293,-41.0113,107.8088,233.2962,-17.2945,156.6986,-82.7581,265.7204,-117.3017,-186.0966,66.8298,28.0387,-8.8947,48.0754,-42.5453,-70.4883,105.2139,-128.4923,-67.9486,-47.4548
-1843.7500,145.2555,111.0036,81.7045,175.4151,-7.3110,157.1851,-108.3587,240.5891,-105.9049,-285.9188,40.8707,148.2893,-35.6839,126.4354,-69.2829,50.7061,47.2771,-81.5372,-124.5379,-0.1637
-1835.9375,58.2797,235.1119,-11.3122,87.6370,-63.2243,126.8334,-89.8504,222.5603,-87.4032,-157.6369,-14.9994,129.6364,-90.3823,145.4592,-86.9147,179.0046,30.4323,-63.4841,-72.0233,18.2251
-1828.1250,9.6885,151.6183,-26.9362,39.2448,-41.7295,102.9374,-67.9363,206.9224,-65.4921,-62.9461,-66.4910,40.3846,-68.6811,66.0057,-65.1476,52.7119,87.9920,-6.0283,-84.0967,76.0199
-1820.3125,-34.5722,-33.5132,-0.2096,101.2101,-14.8805,144.7829,-113.6670,198.6208,-74.2300,-145.9118,70.3495,68.4951,-5.6268,77.7924,-38.0240,6.7777,113.9057,54.7720,-92.8159,67.1626
-1812.5000,-30.0622,-133.8719,41.2671,-0.0746,26.7260,94.0481,-35.6549,168.0544,-69.2253,-31.1234,74.9527,36.3674,-0.8278,82.4332,-69.1677,85.5974,12.5724,-10.6906,-17.7961,72.0565
-1804.6875,-46.2830,-80.9742,21.9955,-122.1075,44.5922,43.8491,-17.4018,112.7251,-14.9799,-13.0822,55.8360,17.4958,17.2254,60.5215,-15.0653,103.6576,-74.5019,113.0935,0.4612,90.2037
-1796.8750,77.7429,79.1394,-30.0160,-172.8773,28.7139,-1.7998,3.0963,97.6366,5.5183,-28.7722,-33.0352,-34.1387,1.5329,13.3206,42.3029,87.9671,-125.3246,132.1136,19.9673,74.6005
-1789.0625,77.6115,79.0760,-30.1795,-137.7919,28.6832,-12.5806,3.4429,61.3916,5.8648,7.3945,-33.0654,-33.9329,1.6940,-16.4005,42.5403,14.1368,-90.2996,131.9694,-14.6815,74.8503
-1781.2500,35.4431,-32.0182,34.6110,66.2500,20.5981,61.5159,-39.2679,18.0874,-36.8424,-72.4917,68.8509,-4.7620,-5.2013,0.0476,-1.2824,-65.7352,8.6784,125.7661,-19.3950,104.0508
-1773.4375,-21.7151,-126.0852,46.4017,43.2773,32.5169,22.1915,-26.9781,-42.2339,-24.5568,85.6352,80.7757,-28.5714,6.9011,9.4476,-99.1340,19.3861,20.6601,-2.4565,-7.1078,116.2604
-1765.6250,-5.3657,-3.6386,62.6939,-45.1870,-23.0708,-13.2247,-84.2022,-99.0681,-81.7816,65.2492,60.2177,24.1244,23.5024,38.9585,-82.4829,109.0057,72.1499,13.8365,-61.3301,132.9762
-1757.8125,62.8404,205.6521,63.8334,-10.7977,-58.8035,-13.2832,-192.5832,-97.0660,-154.1636,29.7116,24.5073,61.6673,-12.0558,54.2028,-43.9641,147.4888,71.4896,11.9793,-96.6983,97.5361
-1750.0000,123.4453,90.3291,18.3697,84.9911,-32.1239,20.5464,-127.5524,-67.6671,-162.1417,58.5715,-20.8211,90.6026,-57.2198,53.6197,-53.0591,65.3654,97.2214,1.5291,-141.6589,52.4935
-1742.1875,79.3418,10.2961,46.1952,252.0791,-41.1395,119.3068,-136.2253,-3.9681,-133.8123,-96.2743,44.1440,44.8381,-102.0819,64.8994,-61.8639,19.5321,88.2414,98.4008,-150.3087,43.7483
-1734.3750,-2.8360,104.1950,-1.0369,170.1114,-51.1936,68.4435,-109.9340,-50.3170,-107.5266,-71.1578,-2.9520,108.0224,-112.9975,63.9008,-72.7104,9.6416,146.2061,51.2213,-91.9983,-3.0505
-1726.5625,13.1264,155.2363,14.8725,80.2916,-35.0873,4.4709,-93.4833,-105.5343,-91.0858,-90.8951,13.1051,88.3549,-96.7673,-11.5801,17.6152,-120.1030,162.3335,67.1972,-75.5473,13.3000
-1718.7500,27.7086,99.8992,31.3775,25.0840,-55.3821,-4.0143,-77.4390,-53.1745,-38.0515,-75.0442,29.7657,68.2857,-43.9377,-17.6519,-2.4640,-104.2362,2.0695,81.7713,-25.5059,-6.7539
-1710.9375,6.3673,-62.3708,-66.0576,-67.0885,-41.6099,-24.4082,10.6475,-38.7892,-23.9714,86.8596,6.4746,-28.7291,-67.0561,-0.6665,-62.5105,56.6832,-90.1550,60.3893,24.5788,7.2442
-1703.1250,-10.3711,-77.0358,-83.8919,22.3267,-24.2298,24.8681,-8.6753,-55.8223,-6.2968,30.3532,-13.2002,-11.1330,-48.5625,29.1048,-43.9569,74.2077,-69.7917,114.6073,8.2558,61.8466
-1695.3125,-31.9633,41.4439,-105.5782,36.8987,-8.6946,-35.4882,7.1513,-187.7272,9.5194,120.0031,-34.7193,78.6207,-69.9175,11.5480,81.7402,15.8845,12.7287,57.9544,22.0831,40.6004
-1687.5000,-1.1591,177.3111,-38.8586,-72.1033,59.2498,-115.6038,1.3661,-266.2458,3.7273,77.0444,-39.8325,-1.2213,-38.8711,-69.5281,112.8389,-62.0475,8.6677,88.6923,18.3002,71.7598
-1679.6875,4.6439,43.1867,4.8696,-67.0883,30.1944,-106.4203,-27.4363,-294.7838,11.9215,48.0758,-32.9490,-30.0568,5.1756,-44.4969,46.9379,18.0221,50.6236,94.4342,24.5126,42.9157
-1671.8750,99.2599,-74.1302,30.4020,-8.2867,92.9464,-110.8625,-1.4412,-305.5310,0.9092,146.9277,-7.2733,-41.0940,-5.9783,-35.7026,-74.1634,43.8887,39.3735,-23.0276,-21.4801,31.8675
-1664.0625,130.7836,28.4628,26.8330,-11.5892,15.6037,-101.3228,-41.5545,-308.3895,-39.2115,70.6787,100.3004,-7.2309,-9.2387,-30.7325,-41.3669,40.6542,36.0084,79.4201,-59.5687,28.7169
-1656.2500,169.0709,171.8101,68.0110,-44.1438,20.0110,-159.6640,-73.9238,-340.5155,-71.5886,38.1848,103.6205,-2.6159,-41.7574,-62.9369,-36.8246,8.1705,73.3952,-59.3855,-91.9046,-3.6839
-1648.4375,210.8067,107.6041,147.6400,-72.2434,26.8720,-205.3455,-29.8456,-407.2095,-27.5185,8.1383,74.3909,4.4431,2.1734,-107.5944,44.1713,-94.8661,80.2374,-87.7225,-154.7885,3.3609
-1640.6250,157.7303,54.5771,166.4743,85.8659,8.9450,-117.7132,-84.5617,-387.7175,-45.2429,-119.7026,129.3544,-13.3069,21.3077,-62.8114,99.3633,-39.7012,62.2813,0.1410,-136.4663,-14.4018
-1632.8125,93.6864,-79.4155,136.3502,128.0244,53.0850,-66.6228,-77.2212,-306.1926,-74.9110,34.5211,26.3586,-43.0071,-8.4994,-31.4667,-3.3973,4.5088,104.3676,-28.9363,-95.0867,-7.1168
-1625.0000,26.9970,-181.0405,102.5711,131.5281,56.5875,-14.7107,-109.5286,-229.3392,-107.2273,1.0859,66.7150,-39.3502,32.0399,-33.6433,-36.8032,-65.9359,142.7959,80.3419,-91.3613,-3.4808
-1617.1875,53.4115,-84.5523,132.8866,53.1266,86.1981,-56.7263,-116.7347,-235.4119,-114.4425,-42.2394,59.1728,-45.5945,25.6750,-51.3047,-80.1052,-72.2823,64.3232,71.7139,-28.5406,-46.7443
-1609.3750,210.8820,37.9785,77.2565,-210.2174,104.8683,-171.2626,-60.8955,-253.4592,-58.6128,13.4813,77.6917,-63.7923,-29.6387,-100.5562,-61.3517,-53.5822,-59.0951,124.1463,23.3197,-64.9556
-1601.5625,269.6071,96.7585,100.8800,-186.3051,91.7937,-144.8997,-73.8119,-229.2745,-34.5390,-36.5407,138.4630,-39.7403,-42.7058,-63.8285,-147.3513,7.3753,-71.2601,147.8235,-22.5774,-40.9193
-1593.7500,105.9382,-66.8610,40.1084,36.1965,31.3213,-58.8207,-61.1329,-216.5145,-95.8701,86.0491,76.8341,-27.0838,-30.1752,-6.9577,-207.7604,56.9412,47.1757,-15.9067,25.1190,-28.2845
-1585.9375,-19.5232,-16.2673,54.5430,120.8925,-64.9551,-42.8976,-119.2647,-274.5742,-81.0123,-9.1670,128.4102,24.7785,-52.4535,-18.3703,-192.9777,-39.2832,131.8174,-37.4354,40.0105,-13.4458
-1578.1250,77.2182,151.5237,47.1753,42.7894,-71.0323,-107.6885,-126.2083,-317.4469,-86.9666,-52.1705,122.1789,-18.1542,-58.5374,-63.7103,-199.0000,-45.3024,88.6712,-44.7707,102.1035,-56.4079
-1570.3125,117.7632,-19.8873,51.6099,-57.4973,-29.3058,-149.8487,-47.3552,-312.5363,-45.1247,136.6160,52.7450,-87.2854,-53.8263,-72.1394,-158.2191,33.4609,23.3230,-76.3042,106.9950,-51.5665
-1562.5000,29.0504,-108.5467,30.7893,29.9815,-13.8296,-93.9995,-31.7557,-333.8926,-29.5328,115.1425,32.0585,-34.6614,-75.3704,-12.3673,-105.6889,85.9688,5.7261,-24.0863,54.6455,1.0206
-1554.6875,-65.7647,-26.2954,-67.1310,111.3513,-37.4443,-101.9357,-55.2544,-394.3722,-16.0434,239.5804,-65.7327,88.8615,-62.0143,22.6682,-129.2694,98.3883,-17.9791,-117.9689,66.1953,-22.4949
-1546.8750,-25.6207,117.9128,-63.0968,186.6629,3.9041,-91.4563,-13.8128,-426.9211,-11.6141,95.9640,-24.5630,93.3336,-20.7039,-7.5785,-124.8989,-7.2345,21.2505,-43.8869,0.6834,-18.0627
-1539.0625,28.5770,138.1581,-3.0172,101.0108,-9.6824,-117.6239,-27.3287,-403.4372,11.8573,-27.5964,145.6624,42.8494,38.6628,-53.1047,-139.4750,-57.8086,75.5245,11.2433,20.2267,-68.5845
-1531.2500,86.2772,53.8856,130.5638,-88.1486,87.2442,-183.9977,-3.3385,-379.4763,-38.1656,-40.6718,169.3914,-43.1468,25.5301,-97.3427,-115.5420,-70.8936,98.3064,-37.1149,42.2702,-81.6003
-1523.4375,128.6702,61.3118,137.8479,-80.5920,57.8777,-139.9605,-69.6522,-298.8443,-67.4890,-180.0565,102.8144,-72.4375,33.0994,-104.8924,39.0939,-100.2721,69.8046,75.2250,-19.9853,-73.9202
-1515.6250,82.3121,-55.0071,52.3916,48.2253,9.7743,-46.2545,-117.7139,-162.9927,-115.5648,-81.1825,-18.5237,-83.4746,21.9155,-56.7095,27.9772,-37.3995,-11.4471,63.8085,-31.0019,-84.9918
-1507.8125,5.9640,-236.3067,6.9368,78.0273,38.6757,2.3787,-89.7817,-171.1717,-87.6469,-16.3158,9.1539,-18.5007,13.7316,9.3876,-17.1385,27.4778,-52.7103,128.4002,-37.0264,-20.0614
-1500.0000,7.8340,-129.3900,8.6848,151.0261,3.7829,18.8326,-123.6544,-169.1801,-85.5383,-14.2396,121.0406,20.6734,-21.2587,45.2187,21.9403,102.5609,-14.7761,60.1789,-69.8539,-17.9319
-1492.1875,37.2514,41.0686,39.9868,145.5844,-38.5566,-46.9611,-55.9845,-211.6626,-53.8837,17.3895,42.4721,15.3953,-63.7003,4.9281,53.5687,61.1973,49.7215,-155.4924,-75.1332,-23.2480
-1484.3750,44.2172,153.0741,44.8443,81.7064,-106.3494,-64.0834,-86.7749,-242.6141,-48.6898,-87.4389,-26.5462,20.6661,-94.5998,-12.5974,95.7478,29.3880,21.7832,-79.6127,-67.8670,18.9837
-1476.5625,0.2927,109.1694,0.8113,72.9200,-114.0373,-51.9343,-94.4675,-176.4843,-18.4024,-21.1511,-70.4638,51.0360,-65.4028,11.1988,15.0203,59.6797,-22.0595,-123.6464,-41.5015,-24.6866
-1468.7500,45.9218,-20.1868,-25.6689,13.6804,-66.1697,-38.3012,-46.6191,-128.8147,-44.5707,63.6803,-22.8143,24.9599,-91.6623,16.6028,-85.1669,70.5269,-11.3589,-43.1271,-30.5968,-13.8039
-1460.9375,43.5069,153.4302,-26.1975,46.3900,-103.3555,2.9364,-83.8388,-57.2066,-44.8075,-84.5459,13.7853,24.8401,-128.9796,15.2895,-85.4223,33.3362,21.2947,60.3328,-31.7465,-50.9658
-1453.1250,-5.2000,174.7648,31.9701,32.7933,-81.8427,-10.8371,-25.3741,-72.9233,-60.3606,-63.0736,-38.9202,119.4247,-143.5987,46.6439,-136.9784,17.8479,7.6572,-59.4994,-10.1989,-29.4240
-1445.3125,-40.5398,34.4392,-43.5021,-1.4503,-45.9752,-2.2470,10.4348,-109.3125,49.4340,-136.2543,-3.2708,155.3582,-107.8713,74.6928,-101.1868,53.7103,-62.6347,12.0315,25.6980,6.4657
-1437.5000,-33.4799,6.4828,-73.5705,-30.3043,-1.6938,-4.2196,91.6510,-66.3226,93.6314,-129.0137,-70.2226,89.6766,-100.7457,70.3637,-57.9999,97.9787,-160.5369,-17.0304,103.0061,13.7512
-1429.6875,-103.7914,-99.8310,-148.9884,-100.5179,32.2514,-25.6797,161.5247,-32.7069,163.4858,-23.1207,-182.5213,-24.3655,-30.9639,22.2842,49.8405,94.8960,-161.7949,-18.4234,101.9650,47.6867
-1421.8750,-220.2706,-252.2802,-89.5558,28.1308,55.0640,78.3894,148.2515,62.7385,150.1889,-109.3757,-159.9745,-73.5568,65.6660,32.8018,109.5418,43.6503,-172.2090,76.0407,55.7665,107.4683
-1414.0625,-260.3903,-256.3785,-92.7790,59.1317,52.2373,73.1364,108.3212,59.5113,110.2381,33.7188,-126.0731,32.6039,25.6453,64.0021,32.6051,40.7471,-107.2780,-34.1330,50.9010,67.5974
-1406.2500,-221.6837,-7.6666,-53.1942,-113.0669,-17.7848,-9.7908,112.1778,26.0636,77.0738,-35.4085,23.6388,36.5648,-79.5779,42.6523,73.4667,81.6422,-67.5422,-64.4926,19.8206,71.5258
-1398.4375,-121.9130,128.0975,-131.5558,-153.2232,-58.7528,-26.9471,107.0749,20.6413,71.9493,-113.4846,18.3991,31.5830,-84.7542,49.0003,68.3683,150.5967,-143.7490,-35.8073,14.7893,66.4993
-1390.6250,-66.2413,-62.2345,-222.0044,-62.4815,-38.8154,10.4296,126.8718,40.0924,91.7202,-56.6657,-70.9366,-57.4980,-29.0319,13.5675,88.1695,96.4503,-159.0540,-16.2213,69.6479,86.3733
-1382.8125,-54.8881,-121.8562,-174.7527,52.9681,-27.1811,67.6176,101.3598,51.2242,103.1855,-82.1411,-96.5768,-9.8713,-17.6118,6.9470,136.6731,-37.9938,-147.6472,101.0532,46.2061,97.9430
-1375.0000,-124.0889,-14.0185,-95.0437,55.8785,16.9026,15.3098,108.2957,21.7857,74.0942,71.8495,-90.7684,34.2041,-10.7490,-3.9146,33.6127,-68.9906,-75.7834,-38.2377,84.2096,-5.0347
-1367.1875,-141.9783,3.1257,-2.0343,38.0891,72.2791,11.8260,127.5186,3.6281,92.2972,17.1413,-71.6451,-20.4248,8.4076,-18.3874,-95.1530,-86.6818,-22.6193,14.7755,136.5088,-22.7130
-1359.3750,-118.8497,61.2460,-49.0212,26.2918,25.6555,18.5770,80.7359,30.4589,82.4937,80.4565,-81.5229,-67.0586,-1.4426,-5.2443,-141.9246,14.6360,-34.4594,72.7883,195.8103,-69.3964
-1351.5625,-52.0610,-12.9996,-90.3545,-118.8635,58.6930,-50.5914,113.6050,25.9241,78.3376,297.4177,-159.7519,-71.0474,-5.6419,-36.3711,-109.0443,10.6006,-109.6498,68.4693,191.7603,-73.4310
-1343.7500,-127.3366,-52.2767,-133.7326,-88.0679,52.6851,6.0957,107.4196,56.3255,109.1301,218.3150,-129.0379,-40.0897,25.1071,2.0720,-4.2110,41.5137,-182.8858,205.1193,222.6633,-42.5232
-1335.9375,-220.1652,-76.0852,-120.6594,-75.8177,29.1355,12.7637,157.6872,68.1594,159.3673,230.6599,-188.8849,-100.6893,74.3008,5.1609,-27.9323,90.8751,-172.6748,181.2200,269.0119,-66.1690
-1328.1250,-171.8874,-97.7918,-106.4904,-132.4573,80.6845,-41.5287,209.0445,46.0745,173.6975,245.0929,-138.6171,-195.1866,15.5872,-88.1014,23.4478,-41.6631,-123.3645,160.4381,213.4470,-51.7164
-1320.3125,-152.4954,-42.3961,-120.2097,-147.9902,30.3363,-81.4245,158.4921,31.0678,160.1135,231.6223,-41.2345,-209.5774,0.9708,-159.4763,119.9179,-166.1086,-67.9472,144.7481,197.9729,-102.1650
-1312.5000,-96.6438,-163.5450,-98.4642,-163.0819,52.4437,-87.1184,216.3831,89.4849,180.9684,290.5971,-130.3840,-224.5125,22.8047,-154.0834,141.8351,-144.1080,-118.0702,23.5108,182.9315,-117.1618
-1304.6875,-63.8882,-305.7867,-63.8062,-129.2730,87.4547,-36.5103,214.1578,123.7823,178.7104,214.4694,-132.6294,-190.5442,131.5407,-83.9566,175.6514,-35.2019,-156.2964,57.1815,145.7784,-119.2587
-1296.8750,9.9237,-161.9686,-60.0945,-161.4109,91.5295,-71.5876,180.9769,90.1092,146.4924,255.4110,-54.8369,-149.5313,98.3278,-48.1428,-4.4844,78.7623,-187.4768,-45.1092,149.6698,-115.3071
-1289.0625,-62.6563,-23.5503,-101.7849,-232.9331,50.2042,-105.7756,177.3884,85.0180,141.8701,361.9541,-59.4353,-116.9221,56.7176,-57.3025,-45.0127,74.3244,-190.0559,-47.7946,112.1499,-82.7550
-1281.2500,-52.3389,-48.2386,-130.5652,-223.5541,22.7715,-90.6137,148.6891,92.8133,187.1439,296.4106,-14.1126,-144.4199,29.0030,-77.5712,110.3552,46.7889,-249.7298,32.4111,86.5268,-37.3060
-1273.4375,-48.9274,-150.8290,-127.2427,-255.0916,26.4396,-102.3660,189.0872,95.6963,190.5146,299.9731,-10.6721,-176.8201,68.3883,-101.7970,187.8278,13.3600,-211.3090,0.7159,125.0006,-33.7594
-1265.6250,-156.6601,-257.5492,-55.0593,-221.7841,60.9588,-56.8438,224.3333,93.4176,188.7286,114.3687,60.6169,-252.3687,140.6201,-111.4142,223.1512,-25.2238,-143.0430,139.8812,123.3217,-35.3651
-1257.8125,-158.2834,-364.1638,18.2238,-188.3850,98.5795,-18.5583,187.6738,130.2319,152.0364,40.8673,-12.0103,-251.8229,177.9489,-74.5197,186.5644,12.2917,-144.6704,138.1425,122.7475,-71.8763
-1250.0000,-44.3977,-321.2880,-8.9903,-285.4798,145.7082,-54.1769,160.5119,139.5348,87.8410,124.8562,-39.1348,-205.7799,150.7702,-69.4689,48.4706,21.3015,-136.8030,145.9252,95.6662,-98.8864
-1242.1875,155.2865,-121.6172,16.5920,-191.7678,97.6344,-39.0271,75.1487,127.6281,2.4439,76.6447,59.5446,-180.9305,65.3891,-93.2802,-35.8213,-62.8891,-112.1470,204.5224,84.3859,-110.1018
-1234.3750,186.5157,-91.3900,87.7246,-160.5138,95.1155,-60.4471,-1.6622,124.2580,-37.4055,146.9899,129.7778,-220.5330,25.5516,-129.6084,-75.5653,-102.5346,24.0624,94.6765,79.6529,-149.7690
-1226.5625,159.8502,-82.0390,169.9721,-46.1609,104.6969,-46.7434,7.6174,95.9746,-28.1688,46.4221,176.1181,-211.0378,71.8112,-163.9229,-30.2120,-240.0854,138.3856,33.9408,-16.9945,-140.3384
-1218.7500,130.9985,-4.8852,215.0281,65.9956,76.0798,-13.3999,-21.3190,66.4759,-57.1410,-19.3383,110.2592,-91.7402,115.8691,-95.8423,-22.0640,-195.8327,180.5163,-31.0059,-45.8478,-169.1129
-1210.9375,98.6050,-3.2913,178.5442,-107.3884,113.9156,-67.1952,-20.8078,29.4103,-92.6700,-18.6550,0.8603,-53.9997,117.3772,-73.1659,-21.4695,-121.1289,182.0951,-63.4967,-43.2586,-131.4330
-1203.1250,46.3576,50.4455,159.2119,-124.6143,94.8999,-64.4389,-76.1496,46.4778,-75.0488,-147.8249,92.6172,-36.1055,171.0347,-68.3433,70.2786,-103.2711,129.8249,-45.8363,-131.5243,-113.6071
-1195.3125,130.7575,64.8414,137.5362,-75.1991,109.5411,-58.2944,-61.8356,60.1838,-97.7799,-22.3430,107.0230,-21.5643,112.3466,-33.4084,-25.3224,-14.7699,74.2069,-137.5379,-152.1473,-99.1305
-1187.5000,233.2590,26.3505,204.9677,-78.6884,103.2821,-64.5655,-68.4304,-20.0243,-104.4128,-28.7703,137.5364,9.0783,105.7636,-12.5088,-68.8146,15.8329,105.6882,-105.1251,-189.6808,-31.5527
-1179.6875,150.0704,48.1663,262.6958,-20.8886,52.3239,-37.7594,-119.7251,-35.9331,-118.7501,-152.8787,159.3506,-5.9804,164.4791,-25.1648,-10.0120,-36.2656,163.4514,-83.4155,-167.9200,-9.6764
-1171.8750,65.6345,-36.2756,211.1709,35.6582,110.1203,-15.8229,-98.2696,-15.0921,-133.3375,-59.2339,70.9200,-58.2942,148.9358,-36.8199,48.5316,-51.6232,113.9581,-96.9477,-146.4146,11.9523
-1164.0625,15.9898,-14.9219,122.4469,56.0203,59.7097,18.6284,-149.0213,6.5451,-112.1252,-109.8051,92.2942,75.1870,97.1913,19.3205,143.8894,-29.1822,134.2692,-41.6758,-231.1076,-2.6246
-1156.2500,141.0408,180.1321,106.4282,40.0832,-29.9998,-1.7339,-165.0683,-10.1279,-164.2124,-198.6725,76.3625,206.3636,-28.8575,48.3052,54.9541,-45.0424,189.2779,-161.7029,-212.0985,-18.5026
-1148.4375,205.4885,244.5984,135.8003,-36.4703,-74.3111,-27.9067,-135.7168,-18.4135,-134.8979,-243.1427,105.8452,235.9485,-36.5094,34.9246,-26.5811,-88.4987,183.6779,-168.3094,-147.6936,11.0193
-1140.6250,51.9385,162.0824,86.1733,56.9730,-86.6262,44.5384,-148.3687,42.2950,-111.5912,-255.6097,93.3289,149.5356,-12.1662,38.8623,71.8704,-64.9536,135.0715,-40.9124,-90.2949,-1.4610
-1132.8125,-18.4624,-14.2913,49.7089,91.5822,-49.7907,74.3760,-76.8808,114.1486,-76.1452,-108.9272,-91.0359,112.2678,-12.6695,45.0579,107.4596,-65.2604,134.6313,-111.3573,-55.7661,-1.7892
-1125.0000,-78.2022,-38.0143,25.9161,102.8727,-36.3074,95.4389,-63.7595,126.6489,-26.0663,-168.6133,-150.7405,125.6500,0.4741,63.1648,194.6913,-51.9184,146.8616,-65.1546,-44.6099,-25.4681
-1117.1875,-65.8358,8.3664,38.2281,115.2636,-59.7195,105.4072,23.4526,176.2381,-12.8970,-156.1951,-174.3354,102.1392,-97.2781,82.1528,134.0229,-1.4821,87.2005,-123.8624,2.6342,-49.0525
-1109.3750,-63.8094,-23.5955,-107.8087,82.2944,-95.4809,98.6367,61.3097,176.4709,24.9206,-45.1305,-136.2671,103.2775,-96.3801,83.1428,98.0196,36.6022,-14.8205,-85.9119,40.5204,-10.9884
-1101.5625,-75.9751,69.2591,-159.0422,105.1098,-109.4432,111.6506,44.9644,159.5000,45.5354,-96.2518,-5.4025,161.2173,-110.6872,118.6622,82.8143,94.4943,-97.0490,-63.1660,-7.7958,46.8687
-1093.7500,-157.8454,92.4179,-135.9739,-12.7838,-86.1083,51.7912,67.9230,108.8284,68.4496,-37.0723,-55.2392,184.4530,-87.6930,103.9200,68.8941,80.6845,-73.9752,-110.1112,15.1881,70.0248
-1085.9375,-161.8321,88.4686,-105.0010,-50.7614,-91.8770,36.2282,98.7768,65.0711,99.2627,-153.0084,-60.1705,105.5762,-20.7985,60.7526,99.8736,37.7564,-9.0000,-43.1413,11.0785,101.0789
-1078.1250,-30.1737,115.1473,-76.3768,44.9050,-62.9948,61.6689,53.2886,92.9675,53.7333,-161.2820,-68.4493,60.3417,-29.2528,50.9938,54.5111,29.4686,-17.3803,-87.5318,37.6293,92.7739
-1070.3125,-2.5031,107.8250,-83.7529,2.5570,-34.1059,22.9970,45.8104,47.8625,46.2096,-94.5568,-3.7276,90.1053,-0.7038,41.4549,10.1549,22.1731,-58.7674,-94.9119,30.1781,85.4658
-1062.5000,-6.4809,103.8782,-89.7822,-1.4470,-38.8709,34.2100,39.6818,5.1039,77.0352,-137.4777,64.3420,84.2183,-5.8081,50.8439,78.1405,53.2324,-98.8029,41.0690,61.0756,116.5018
-1054.6875,-111.8101,-37.4185,-52.1562,-70.7949,-73.9853,-5.0994,115.2075,4.9969,115.5110,47.2635,-7.9361,48.9734,-5.2723,43.7293,116.7611,91.9431,-63.1858,-63.2922,96.6190,81.1861
-1046.8750,-81.0963,-76.6853,-57.4811,-40.0742,-80.0513,-10.8468,108.7859,-1.0598,109.0431,115.0493,-13.1560,6.7728,-46.6906,-1.2447,147.4305,12.6953,-68.5219,-68.5792,56.2139,111.9170
-1039.0625,-56.0904,-16.6615,-102.5111,18.9423,-161.8156,32.3135,26.6742,100.1875,63.8849,144.1333,14.9162,-2.1264,-55.8095,22.3611,102.4094,77.7382,-113.5618,-77.5725,46.1169,66.9397
-1031.2500,-39.8734,-69.4248,-86.3307,35.1476,-145.3781,48.8692,5.7649,152.6317,42.9251,233.4079,-41.8039,-21.8242,-39.7211,17.0022,7.5902,56.9681,-132.4013,-97.3681,27.1990,83.1620
-1023.4375,-82.4922,-9.0217,-58.9902,26.4991,-153.7929,66.7545,-3.0071,143.2197,34.1024,77.8273,22.6453,5.6409,-48.4756,20.4957,-1.0809,11.3506,-106.0830,33.9766,-16.5933,74.5300
-1015.6250,-67.8091,112.6966,-40.3408,-62.8537,-97.8994,0.3023,16.5154,88.1050,53.5704,97.5481,5.4045,25.4060,-29.9238,23.2059,-55.4587,68.0303,-55.4578,-20.3890,-36.1065,20.2002
-1007.8125,44.8681,-21.5708,1.3090,-56.2041,-56.0099,-16.7138,58.0246,-19.0085,95.0327,102.2584,-26.8193,30.1708,-25.3702,38.2356,-13.8360,109.7104,21.1699,-13.7435,-99.6335,61.8680
-1000.0000,-7.4001,-72.7964,59.0168,103.5089,-36.0706,17.6160,41.5786,-72.0663,78.5396,49.0315,31.0044,50.9737,-4.7646,42.1418,80.8296,56.4371,40.8535,-30.0556,-116.1131,45.5796
-992.1875,-50.3169,95.2986,123.0868,60.5893,-8.7809,-41.0749,68.4861,-118.7713,31.4000,39.1564,-15.8160,78.1191,22.1974,6.5468,33.8464,-26.5011,-3.1061,-143.0136,-124.2483,72.6391
-984.3750,49.0712,194.6899,115.4610,-16.0208,-51.1989,-30.2721,-48.3029,-90.1693,-48.4323,-77.4249,50.6617,107.5686,-21.5458,22.9641,26.1603,2.8537,26.2333,-42.6717,-130.0781,101.9924
-976.5625,236.1564,204.8072,16.5276,-5.9506,-75.9204,-32.4579,-73.3802,-42.8596,-73.5569,-65.2967,99.8412,82.7260,-46.5977,6.5963,1.1639,13.9052,1.2645,-103.6410,-85.2023,77.0397
-968.7500,213.0333,147.7444,-43.6073,77.9167,-62.8549,5.3489,-60.6592,-30.7399,-97.8794,-52.3799,185.8360,21.6814,-33.8522,-22.7133,13.9747,-45.2447,14.0971,-20.7972,-72.5338,89.8827
-960.9375,-25.6998,85.0772,36.6581,190.1940,-55.3967,99.4488,-127.5338,-24.2118,-90.8013,-156.0610,157.2246,66.0255,46.2925,50.4237,-14.8057,-1.9944,56.3329,127.4463,-100.4631,97.1231
-953.1250,-65.6315,79.1953,104.7239,114.2710,10.8547,72.5653,-133.6033,5.1218,-133.9180,-124.9355,3.4039,97.1702,77.2294,59.5514,-56.7807,-7.9473,50.3725,15.4974,-106.5970,91.1614
-945.3125,11.4975,192.3767,3.8467,87.4034,21.1481,52.8232,-123.6226,14.5062,-123.9845,-188.7742,50.6378,144.3718,50.2114,50.8407,-47.7131,-34.8589,23.4680,23.6080,-168.6867,64.2461
-937.5000,64.6256,174.5597,-14.0282,104.5337,-33.5552,59.4964,-141.6417,32.8953,-142.0506,-132.6114,69.8759,126.5721,-4.8003,38.7029,-101.6534,-52.7718,76.5692,5.7090,-116.7821,46.3265
-929.6875,64.5993,34.5945,22.9452,139.5157,-33.4015,74.4629,-141.8102,32.1401,-142.2660,-59.6047,106.9682,89.6176,-41.9517,23.7321,-101.7357,-88.8360,146.5154,5.6656,-81.0366,46.2566
-921.8750,77.9156,152.9965,110.2683,187.8468,-19.8934,116.1990,-165.6225,44.7419,-166.1289,-266.2372,46.4119,103.0132,-28.7493,42.0710,-88.4707,-112.5544,194.8002,89.9638,-138.9452,59.5297
-914.0625,97.0671,173.2507,132.4408,208.0196,3.4688,96.1373,-179.5824,-6.7948,-180.1352,-280.0167,-41.2893,125.2587,-5.6893,52.6590,-103.3583,-90.4348,179.9384,39.1070,-119.0113,8.6456
-906.2500,170.0710,175.3374,134.4692,280.0515,5.6761,104.2168,-177.6906,-42.4634,-215.2896,-351.9597,71.8711,127.3417,-3.7727,53.7866,-65.3918,-88.4783,181.9366,41.1052,-223.2357,10.6070
-898.4375,159.2308,164.5456,160.6530,340.2276,-4.9677,117.2946,-225.6470,-53.9714,-263.2958,-325.7352,134.1848,116.5657,22.3037,73.2895,-76.2755,-26.3696,206.0833,-4.7605,-234.3109,-0.2866
-890.6250,76.3876,116.7576,146.8327,257.4005,18.3896,92.8299,-202.5949,-31.4662,-240.2893,-265.5179,47.5001,103.7834,8.3773,34.8346,-16.1532,-112.2683,264.2202,-17.6226,-246.3879,22.8210
-882.8125,109.1432,184.5791,179.6033,220.1762,14.3353,96.9907,-242.9354,0.6516,-243.6712,-306.7047,43.4197,99.6050,4.0469,43.9769,-20.4262,-79.5676,226.9494,15.1059,-284.8605,55.5206
-875.0000,252.2524,151.7644,146.7195,151.2983,-18.3756,52.3633,-239.9173,4.1291,-240.6980,-118.5331,47.6903,103.7853,-65.9440,74.4344,-125.3588,70.4753,158.0298,-121.8312,-211.9813,22.5670
-867.1875,321.7467,151.3707,108.2391,150.8207,16.2995,38.1631,-168.4977,-35.9868,-169.3229,-157.9643,82.3622,101.3743,-67.5335,67.4950,-127.9009,67.9185,122.5227,-123.3580,-212.6998,57.0102
-859.3750,185.9733,191.7229,77.5133,191.1058,-14.2764,50.3691,-162.3250,-67.3445,-126.1943,-188.6313,88.7827,143.7077,-62.3740,75.3744,-121.7009,37.1053,161.7716,-84.1310,-173.6647,26.1974
-851.5625,84.7528,90.5973,82.3399,124.9553,-9.2976,41.7059,-120.5968,-26.1417,-121.5098,-109.7515,-17.2388,148.5796,-57.6597,70.3773,-116.9490,4.8261,131.5710,-113.3376,-169.0849,30.9305
-843.7500,-34.4087,77.5151,67.2141,41.8567,-24.2725,60.8744,-98.8174,32.1213,-63.7696,-161.8253,-68.2109,60.5051,1.1051,54.6763,13.8463,26.5843,118.4311,48.5098,-112.4501,52.7009
-835.9375,-196.3604,55.6420,8.2906,-16.0644,-46.0423,81.3983,-48.8237,119.5918,24.1775,-109.6860,-199.9865,-35.3726,16.0715,61.4778,65.8246,115.5271,61.4956,96.5547,41.3874,30.6634
-828.1250,-109.3685,-139.2694,-49.6856,-70.0476,7.1381,93.5523,78.1220,172.0233,77.0811,-93.5999,-109.8011,-128.3045,-42.0038,23.2589,-29.2493,57.4153,-28.4938,218.5606,92.1733,46.5671
-820.3125,-28.2938,-163.0876,-143.5642,-22.9276,24.4266,99.4615,94.1819,188.5739,130.0995,-115.3972,16.4720,-76.1520,-135.9744,9.0116,-159.2253,-36.5971,-51.3904,229.6590,139.0655,-47.4378
-812.5000,33.4539,-136.2337,-112.7481,-66.0922,54.4204,28.6179,50.9574,70.8410,86.8378,25.5155,-100.5621,-45.3097,-142.2391,-19.1998,-238.4906,-79.9130,81.4183,186.4622,130.6618,-90.7467
-804.6875,18.6476,-79.9454,17.5134,24.2017,111.8588,56.4487,-1.8081,16.5719,-2.9642,-27.1224,-117.1448,-25.0188,-85.0468,-2.2128,-218.2944,-96.7852,101.6793,277.7133,44.7020,-70.6162
-796.8750,29.8509,36.3446,67.7734,35.4773,162.3025,-1.8326,10.4348,-43.6842,9.2389,59.2500,-103.7309,-11.7266,-34.8524,-4.4909,-242.0917,-46.6723,77.9381,112.9499,20.7431,-94.4973
-789.0625,-46.0638,101.5531,24.9337,-5.3556,156.6422,-34.9823,4.5849,-50.0287,3.3539,127.5084,-35.4108,-17.5347,-40.7535,-15.6155,-175.9843,-15.6757,72.1006,72.0893,-20.3125,-100.4880
-781.2500,-86.6361,25.1179,19.4436,95.1674,77.3236,34.5628,-36.9043,16.9919,-2.1699,85.1217,-40.7430,-23.0015,-46.3086,26.8881,-70.5419,51.6617,101.6161,66.5730,-61.0041,-106.1390
-773.4375,-46.7043,-180.8437,24.4498,100.1819,45.4976,39.0606,4.1183,58.5285,2.8188,164.2447,-109.5729,-91.9723,-41.3665,23.5672,-28.6061,93.4908,71.6318,-69.4410,13.8118,-101.2995
-765.6250,11.7261,-297.3071,47.9584,52.7054,-3.8333,31.0126,64.6516,44.5874,100.3189,76.8607,-48.9023,-142.4523,-17.9210,0.7529,-5.1703,79.8102,24.1427,-10.9435,37.1340,-77.9710
-757.8125,134.4884,-104.4171,29.8098,-70.4215,-58.8094,-59.8365,83.5516,26.0090,119.1826,132.8376,6.1131,-123.5817,-73.1199,-43.1069,-23.3787,61.4798,-63.9991,-99.1049,53.8146,-96.3055
-750.0000,98.7886,-34.9825,-43.7901,-245.9966,-96.2360,-123.1059,120.0171,61.9958,118.6125,242.3699,5.6752,-87.1700,-73.7648,-73.5832,-24.0370,23.6939,-99.5948,-99.7118,18.0453,-97.0970
-742.1875,-100.8148,-57.4669,-70.2976,-164.4760,-48.5654,-37.3089,93.5921,109.0995,92.1530,106.0171,-19.6643,-113.6655,-26.3081,-55.5545,96.4026,-1.9920,-88.0823,52.7755,30.3775,-49.8016
-734.3750,-274.8177,-162.3734,-69.2049,-57.3554,26.7144,10.8102,94.7810,146.8126,93.3044,181.2719,-129.4053,-112.5678,47.7584,-31.2468,134.4406,-1.0891,-156.9644,18.8573,31.3086,-48.9154
-726.5625,-176.3215,-203.7738,-79.6094,-29.7248,90.5021,26.5722,85.4755,99.0381,83.9623,98.0143,-65.6415,-84.9665,75.3297,-20.7918,160.9757,-11.6945,-233.3500,117.4435,-11.2659,14.4605
-718.7500,-42.7334,-35.0527,-157.9258,-0.0061,47.3907,37.0596,-31.7194,56.3769,-33.2683,127.8570,2.2162,18.7391,69.0026,50.3639,44.6050,128.7925,-204.6343,146.1196,-17.7376,7.9230
-710.9375,-1.2083,-63.3662,-153.2984,-29.3466,89.2283,12.4146,-62.9554,-13.3153,-100.5390,206.6407,7.0194,23.3931,36.6293,72.0676,-24.8118,207.2279,-162.9727,82.7452,23.7352,49.3315
-703.1250,-100.1529,-56.1320,-112.1259,46.8658,56.6011,64.7952,-94.6347,27.5591,-96.2481,63.9827,85.3735,27.6007,3.8073,85.5984,-55.6734,175.2208,-191.7565,88.9064,-39.2314,90.2797
-695.3125,-191.7409,132.4205,-133.6049,61.4313,-1.6831,57.2830,-115.9492,42.8037,-117.5952,42.6907,-9.9220,117.1499,-53.6712,93.0514,-114.1914,116.5593,-108.1818,-38.6077,-26.8407,68.5749
-687.5000,-168.7306,155.5560,-75.4818,83.6216,-52.3859,67.8177,-94.6604,26.6603,-96.3342,27.9950,12.3938,138.2984,-68.5524,87.2898,-130.1047,63.4931,-49.9916,-14.5362,-73.8500,126.4666
-679.6875,-90.8771,93.5564,-102.5081,127.6775,-79.2543,72.8550,-121.5115,36.3741,-86.2122,1.1643,95.5542,74.3027,-58.5874,50.0085,-10.1683,36.2713,-40.9412,-7.6488,-66.0028,99.1997
-671.8750,20.8637,-39.5275,-95.6405,134.6318,-35.2330,43.1361,-77.4547,42.9965,-79.1812,81.2498,65.6103,-27.7823,-51.7209,-16.0832,69.6768,-29.0585,-69.9901,-105.8681,-59.2513,105.8291
-664.0625,43.4053,52.1994,-107.9797,122.3910,-84.4223,52.1889,-126.5866,30.4267,-91.3340,-3.8567,53.4689,68.9346,-64.0536,22.6727,94.3106,-5.5894,-46.2430,-47.2952,-106.6885,93.2502
-656.2500,19.9548,204.9141,-22.3222,64.1511,-144.6146,14.4265,-149.7032,-30.1355,-114.4705,46.0522,-6.6782,156.6495,-87.3856,83.8853,-75.0786,117.8747,34.5111,-141.7377,-95.1182,69.6625
-648.4375,41.4479,156.5679,-0.7131,-54.1294,-159.8587,-8.8764,-127.8608,-8.7350,-92.6471,30.9010,126.1317,67.3096,-65.7620,53.7430,-164.5161,139.2698,21.2233,-85.2227,-37.5928,91.0133
-640.6250,79.0214,17.3195,37.9953,-88.3140,-157.9949,1.5424,-88.9037,29.7797,-53.7118,-76.1467,201.0383,-39.9296,-28.0347,0.0181,-51.8618,66.7518,-11.9587,21.3826,-1.9603,92.4504
-632.8125,48.2833,-82.2309,80.4031,-82.8166,-78.4231,-10.4564,-83.2348,-1.9947,-85.0597,38.5100,96.6459,-71.4752,13.4080,-30.8927,-10.5074,-1.0749,-6.4344,26.6894,73.3763,97.5743
-625.0000,-11.9054,-2.2295,55.3603,-37.7723,5.7031,-3.4759,-108.0039,-63.2046,-109.8446,50.7138,71.8044,12.5191,62.4086,-10.6245,37.4011,-26.3559,3.6426,142.5513,48.2674,72.2351
-617.1875,-8.3498,71.5037,98.0578,-69.9749,49.5861,-65.0932,-66.0042,-94.6475,-67.8597,130.6828,4.7045,-17.7441,69.1579,-41.6258,117.0584,-20.8927,-28.5361,75.1558,16.9120,4.6352
-609.3750,33.2455,-62.7319,68.7947,-203.1141,93.5210,-100.4949,15.0594,-88.0207,13.1902,101.6969,48.6452,-83.9617,75.9587,-81.2926,87.7674,-51.3936,49.3326,116.8238,-12.3865,11.0775
-601.5625,123.1262,-111.6796,88.8205,-111.9556,113.7615,-58.3276,-1.5554,-68.0749,-3.4411,-25.9783,141.8686,-136.8842,59.0610,-75.0874,70.7779,-31.6010,34.5054,101.7858,-27.3748,30.8038
-593.7500,113.2793,-121.3341,5.1406,-87.5161,67.3052,-78.5254,-10.8469,-40.8164,-12.7479,112.6588,22.3800,-109.5137,86.4663,-61.4361,171.0914,32.4870,-46.0124,-117.9530,-2.0583,20.8159
-585.9375,-23.4298,-81.8412,-101.3905,-117.9297,32.9913,-62.4233,29.0279,-38.3910,27.1126,78.4511,-11.9622,-69.9957,52.0213,-19.0793,247.5621,108.7249,-75.3811,-78.5497,2.4174,59.9682
-578.1250,-169.2375,-53.4668,-144.0319,-87.4441,-45.4236,-20.2192,60.8218,29.9421,58.8935,110.1633,19.5905,-3.5891,9.4787,17.4186,131.9350,102.8615,-46.8555,-84.2627,-3.1911,54.0093
-570.3125,-168.2966,-157.3527,-70.9288,-51.2117,-45.0845,3.4292,23.3895,29.0338,-14.5507,109.6231,92.8929,-39.4391,45.6894,-17.5704,20.0572,-8.2636,-10.5806,-14.2264,-36.0401,89.7941
-562.5000,-88.6679,-41.5372,10.8616,27.7141,-35.0448,28.1779,-75.3221,38.8307,-77.2731,9.8005,176.8875,-103.5911,55.6079,-55.8197,29.8754,-71.6880,-0.6059,65.4946,-62.1788,99.2690
-554.6875,-46.6038,70.7158,-12.9018,-34.9190,-60.5456,-49.3327,-63.5655,15.0838,-28.5299,96.4468,79.3217,-127.2939,68.9853,-110.7232,190.1372,-96.6644,-28.1764,3.6519,-19.8631,1.1892
-546.8750,28.1541,4.6610,-6.9642,-65.8414,-54.3472,-65.5343,53.8989,21.0400,51.9262,28.8016,11.4579,-195.2927,38.0649,-156.1251,306.0936,-163.9375,-59.0485,42.4999,20.1619,-30.1982
-539.0625,52.9023,-251.4087,20.9632,101.2396,-25.1491,40.7811,82.3758,49.0076,80.3959,-15.8153,113.5851,-167.2908,66.1432,-70.5713,-32.9585,-100.2068,-32.9145,67.3203,151.2079,-75.5967
-531.2500,14.6906,-395.4398,52.9337,97.3702,44.0983,39.5306,151.9226,44.0396,112.9405,53.6149,108.7564,-171.2465,98.2701,-71.0595,-294.9618,-141.4343,-71.7316,-5.8183,218.3211,-43.9490
-523.4375,-117.7907,-245.7054,25.6375,-33.7522,53.0854,14.8312,124.2333,52.8336,159.2539,-85.2021,44.6695,-126.4542,144.1432,-68.2020,-66.2106,-132.9142,-97.7951,107.7889,157.1954,-35.5613
-515.6250,-83.0911,34.2299,-47.4635,-175.6771,17.2664,-71.3948,199.7585,16.8433,160.7751,-83.8003,44.7710,-15.4675,108.2168,-73.9632,81.7413,-133.1998,-98.6545,71.5921,121.2703,-71.9833
-507.8125,152.0005,269.5290,13.8312,-221.1860,4.8421,-149.4798,187.6909,-105.7311,148.7087,-95.9908,106.2726,-28.0896,58.6993,-117.4587,-3.9054,-145.0905,-74.1097,95.8093,39.7499,-48.0223
-500.0000,174.6951,152.4030,76.7210,-92.0941,-4.9762,-85.6908,67.2462,-78.6904,65.2621,-105.5698,96.3587,-75.1169,85.7824,-84.8714,-124.9588,-82.3900,-14.9646,84.6034,62.8491,-95.4782
-492.1875,117.8213,-186.2635,53.0493,-78.5653,44.6588,-47.5540,118.2711,7.8123,79.2865,-17.6940,-37.1084,-98.6907,99.3171,-75.0195,-74.5677,-106.2471,-36.3644,-8.1599,76.4078,-82.4964
-484.3750,-7.2668,-135.1244,-3.8335,-27.2378,-11.9063,-4.9355,98.1086,24.1306,96.1245,-112.0167,-20.7781,-8.4683,78.6577,-41.6466,51.6259,-127.3073,-19.9554,42.8696,22.7766,-66.7300
-476.5625,-5.3597,183.9965,-1.7174,-24.9133,-46.4617,-40.4772,63.9648,26.4550,61.9786,-72.3199,-18.4526,30.7448,7.9986,-48.5076,-19.1794,-125.3720,-17.5498,-96.1173,60.1576,-64.9769
-468.7500,31.0375,115.6047,-0.1044,-23.0897,-81.5206,-30.6207,66.3380,65.2834,64.3546,3.8752,-16.6220,-4.5493,45.8457,-71.7770,-17.4816,-159.9389,-15.6457,-58.6036,62.0459,-63.7349
-460.9375,20.0793,-1.1446,25.1527,36.3842,-128.9279,18.7534,20.3793,91.7629,54.3998,-6.2646,-27.1548,-89.1954,72.3463,-61.7074,44.8550,-97.8488,43.9082,0.5395,122.5926,-74.8529
-453.1250,17.6141,-109.4071,22.9020,34.3565,-93.8356,-3.0659,91.9368,52.7450,126.9584,102.1127,-66.1990,-91.3417,33.3482,-50.4290,-67.3059,-63.2577,6.9638,-107.8286,225.6462,-77.4788
-445.3125,-29.7062,-50.5159,-27.2081,-153.5244,-107.5989,-48.5550,152.6551,2.8857,187.6867,52.6400,30.9093,42.6604,20.5039,-16.5857,-44.3081,-40.5130,-39.8306,20.9366,248.8589,-54.9681
-437.5000,18.5121,173.9224,-85.7726,-279.8609,-128.8127,-135.1621,205.9471,-55.4219,203.9858,67.7419,9.5632,57.2081,-0.7933,-58.5201,8.2301,-62.2135,-61.0700,-0.7746,333.6356,-76.9158
-429.6875,60.2599,179.8983,-77.7862,-237.6404,-9.4754,-166.3029,213.8025,-121.1766,211.8493,113.3964,-93.2320,-44.6895,43.4659,-109.7381,-20.6859,-91.3652,-19.7564,5.0616,269.9671,-106.3164
-421.8750,8.7509,-46.3892,14.9386,-77.6678,83.6124,-79.8741,161.4205,-138.1717,159.4766,23.8108,-73.2928,-61.8292,63.4768,-62.6559,-37.8450,-71.7724,0.3054,59.6331,254.0599,-86.9785
-414.0625,-140.7597,-265.6921,-29.3502,-50.6952,149.6985,-33.7232,191.0569,-72.1600,189.1231,126.2290,-81.3673,-69.9673,55.4869,-31.9063,-8.9919,-43.1911,-7.6293,51.1911,317.1617,-95.6505
-406.2500,-150.8187,-310.5463,-41.1918,-25.2622,101.2320,-4.5458,217.1489,-46.7004,215.2302,189.0850,18.0129,-81.6586,43.9533,-20.5048,-20.6928,-18.1677,-17.1037,112.1965,342.7222,-70.8791
-398.4375,-101.7549,-122.2509,-25.8849,-46.6828,79.9224,-45.1799,196.4061,-68.0877,194.5070,205.1151,-40.4702,-29.2169,-13.4227,-26.6331,-116.2580,-39.9929,-3.4281,19.3461,321.4572,-92.9706
-390.6250,-26.6127,59.1305,-57.4858,-182.0092,12.7172,-138.9274,128.7913,-136.3631,163.9090,174.2668,-145.8613,-23.7021,-44.6975,-92.3390,-36.7200,-108.7225,2.3417,-10.3903,256.3067,-87.9773
-382.8125,37.2707,123.2424,-62.3500,-153.5896,-65.7394,-98.7819,124.9446,-30.8789,123.0799,59.1996,-76.5044,-65.4385,-86.2268,-97.3230,-41.4231,-113.6967,-39.1391,53.6088,179.9188,-130.2548
-375.0000,44.0127,-115.8014,-90.3676,-75.3252,16.6551,-33.9595,134.9682,89.4511,96.1143,215.9998,-104.3015,-130.3240,-76.9122,-72.5050,-180.2807,-67.8169,-31.7641,25.4353,152.3848,-158.6927
-367.1875,-6.3900,-270.9932,-34.5380,-19.2080,72.8899,42.1042,154.8475,145.6278,116.0129,125.6453,-122.2402,-184.3540,-57.7450,-34.3481,-87.2955,-12.0860,-10.5326,116.1009,103.7057,-103.2941
-359.3750,-109.8887,-304.2877,3.1879,52.8108,2.0256,102.7526,83.6427,147.7072,118.8245,54.2042,-157.2875,-109.4796,-18.6804,37.2859,-11.4225,62.5449,61.6004,152.6362,105.9378,-102.0061
-351.5625,-180.4915,-233.6822,-34.1950,-51.2805,74.0652,36.1186,157.3565,109.6801,155.5555,164.6639,-230.4404,-73.7022,-19.7156,4.2121,-86.6471,-11.9212,-7.3621,82.0627,177.0728,-66.8221
-343.7500,-227.4174,34.6299,-120.8905,-99.6787,61.8043,-21.7954,145.7847,97.3502,218.0017,78.8241,-242.9031,-49.2222,-32.0432,-100.4976,47.8382,-244.6768,-90.6208,140.1762,164.9215,-79.9498
-335.9375,-226.7647,107.5169,-153.9861,-132.4751,-6.8480,-54.9057,187.8320,138.6258,222.0679,83.5978,-238.7782,-119.1535,-64.7621,-154.5084,198.9152,-277.8356,-123.2780,71.8744,167.3851,-113.4843
-328.1250,-48.1765,-30.6791,-116.1359,-129.3166,-5.5538,-45.1995,226.8442,65.8600,225.1035,85.3266,-91.7085,-154.1427,-100.5268,-72.7796,89.9490,-20.0520,-154.9772,109.5251,99.8091,-76.0796
-320.3125,73.2009,-49.0933,-62.4905,28.6351,-25.4519,26.7726,96.6781,9.9058,131.9577,139.8716,-0.8597,-27.3400,-83.4956,50.2256,-223.2108,143.5278,-102.8760,125.9593,82.0541,-59.8860
-312.5000,-0.5357,-88.6288,4.0392,60.4768,4.5540,33.0715,128.4337,2.8589,89.7344,170.3291,-117.1237,76.3549,-89.5643,49.4019,-303.4641,-10.9879,-0.8780,-19.7079,79.2163,6.2006
-304.6875,-136.0344,-48.9226,-28.1949,100.5642,46.8083,65.9146,97.4515,45.0673,95.7777,-7.9606,-149.1445,118.3058,-48.3809,39.5091,-114.4664,-115.2467,4.3614,20.8714,-21.3596,10.5249
-296.8750,-70.3958,88.9319,-66.2892,97.7890,83.2220,35.5835,60.6420,44.4298,-15.0134,-8.0791,-114.0265,80.4002,-49.0461,19.7426,-80.3185,-81.3533,-68.2584,-17.4220,-58.7749,-28.0138
-289.0625,43.0204,167.5786,-93.5965,35.8174,56.4346,0.4463,-39.3555,53.5932,-77.9878,-34.3945,5.8927,89.2858,-38.9049,-12.3812,-70.3654,-108.6525,-60.0713,-9.9182,-120.3819,-55.7639
-281.2500,57.3718,252.1488,-39.9592,15.8062,36.5995,-7.6271,-58.3877,70.7107,-59.9964,-199.7459,58.7513,69.1122,-21.8158,-18.2611,20.5273,-91.9946,-79.9278,-30.4822,-140.0237,-76.5720
-273.4375,-0.6277,89.3419,-25.6783,-6.5489,50.4158,-19.9502,31.2480,85.4733,29.6596,-38.4420,-73.7515,-26.4022,28.9243,-29.8253,-1.9335,-40.6803,-31.1289,-88.4002,-92.0051,-99.7349
-265.6250,-113.6238,-200.4508,39.6008,92.1054,80.2339,65.1996,24.8979,115.2236,23.3304,64.8559,-44.2615,-144.9108,58.6696,-5.6363,-46.3857,24.6295,31.6685,79.6672,-62.9868,-107.9059
-257.8125,-51.7358,-278.3301,68.7775,119.6504,72.9536,84.0140,-18.5387,144.8610,-20.0845,132.0708,-88.8828,-41.5218,51.3233,48.1015,-127.9298,53.8347,59.3710,-34.3914,-70.0621,-116.1891
-250.0000,33.9038,-122.4589,84.7041,-5.0506,52.4309,-8.4232,-1.2173,50.2300,-39.7372,39.0352,-72.7516,158.6171,30.7299,58.0533,-0.7249,-3.2084,40.8275,-194.7123,-89.3858,-100.7281
-242.1875,119.2952,174.1521,62.3733,-25.0048,-5.3455,-63.7882,-22.1340,-44.6576,-23.6275,-129.2391,-20.8754,246.5100,9.8783,34.2271,124.2215,-62.4878,-13.9623,-214.2991,-73.9396,-86.5263
-234.3750,68.6248,193.7006,-26.0174,-75.0144,-57.1704,-134.8121,37.9198,-96.6008,36.4492,40.4490,-36.0644,231.3504,-5.0228,-10.3709,183.1263,-77.8213,-28.8006,-335.9502,-17.5263,-102.3784
-226.5625,20.2397,110.5335,-42.1098,-52.7183,-35.6935,-129.3831,133.2866,-112.2416,131.8432,25.4382,-88.9565,69.4852,16.3771,-64.7142,314.3398,-93.8622,-5.3410,-278.3040,-29.8029,-44.9378
-218.7500,-33.5490,21.9507,-60.6076,70.1653,-53.6145,-58.2642,80.2696,-56.2766,114.8538,82.0399,-107.2594,-22.7855,71.3742,-15.6134,259.1467,71.7016,81.7240,-297.0720,-47.4626,-63.9079
-210.9375,-87.2380,-101.5441,-6.0077,123.1394,-35.4344,-14.8845,25.3719,-112.2069,23.9840,136.7454,-125.4775,69.0297,89.4715,84.3932,93.0503,200.3732,134.8937,-279.7357,-64.0062,-46.7815
-203.1250,-87.5432,4.3589,30.9813,88.5068,2.1496,-7.5305,26.8840,-111.7340,25.5244,-46.1313,-52.3120,142.2457,53.9716,93.2806,20.3572,126.4594,135.4630,-210.0116,-28.1390,-47.2636
-195.3125,-134.4092,27.7112,-17.5894,-27.6885,65.1887,-48.5355,126.8608,-85.8186,52.5259,-92.5317,-63.7073,57.9173,115.9218,39.8355,-27.8890,78.0034,124.4723,-221.8517,67.1832,-59.2950
-187.5000,-54.8401,-33.4917,-45.7239,-18.4359,147.6743,-52.1829,101.2899,-113.4576,62.9876,-155.4685,19.3514,-6.9638,88.3253,-30.9925,18.3226,-59.9950,133.9321,-73.2381,6.9628,-50.8800
-179.6875,44.7679,30.3319,-47.8105,81.8716,109.2106,-31.4331,62.7824,-115.0474,25.5091,-157.3381,16.4561,-8.8089,49.7821,-6.4882,52.5884,11.0487,164.4494,-78.5895,-33.1932,-127.4260
-171.8750,32.9790,-50.2648,49.7079,35.7869,208.3546,-82.8385,88.8835,-164.0389,51.6393,-58.6147,-105.8397,-58.0530,74.8450,-22.6512,77.4575,35.6843,189.5698,-229.3528,-7.7467,-103.3797
-164.0625,-122.2609,-135.3096,70.7733,92.2560,193.0479,-22.5052,38.5425,-142.4826,37.3276,-182.3447,-84.5867,-36.7388,133.4560,4.0374,172.8757,20.8887,141.2354,-139.5819,14.2590,-82.7949
-156.2500,-48.2019,8.9581,1.1313,132.0170,123.0401,-10.6415,6.5161,-101.6294,5.3267,-104.7597,-44.0546,40.8713,27.3608,37.5810,65.5927,60.4034,74.1995,-205.5268,18.5732,-79.9142
-148.4375,-21.4491,70.9292,-45.8195,88.4874,77.7297,-9.7689,-1.8090,-74.0773,-2.9652,-3.4807,57.1709,104.1838,-19.0346,60.4191,-16.9853,87.6155,101.8755,-178.7740,11.5870,-53.3389
-140.6250,-134.0502,-76.4623,21.8776,117.6190,-1.9308,16.0968,-6.4768,-42.8737,66.3965,28.4523,51.0423,25.1474,-24.7816,55.8713,87.0827,118.4816,131.2117,-185.3935,41.2562,-60.1200
-132.8125,-147.0195,-194.2273,80.2261,70.4042,-52.9378,-29.3051,54.5120,-57.0232,90.4149,126.0426,-74.4329,-99.2344,-38.8766,22.9244,183.7965,178.0054,119.2040,-339.3737,29.5804,-38.2537
-125.0000,-37.8437,-154.8486,46.7206,110.3340,-84.7931,-17.0064,58.6593,-90.0238,94.5917,129.7846,-106.7642,-23.4671,-71.8213,60.0857,223.6624,217.6930,89.3435,-300.2125,-69.9350,0.7585
-117.1875,12.6319,35.8357,23.5044,126.5408,-70.3459,-19.5758,38.1191,-111.7247,37.0811,181.8402,-92.8120,101.5964,-93.4652,90.6778,16.8350,194.6951,69.7733,-320.7591,-89.1434,51.0640
-109.3750,-19.8411,73.5736,24.3335,93.7988,-68.8483,2.7121,-32.3648,-110.3744,-33.3733,109.9339,18.1833,176.7119,-55.0601,110.5463,-53.9301,159.7444,144.2528,-212.2506,-120.2969,88.4149
-101.5625,87.3299,74.9428,25.8075,60.7148,-29.6931,-7.1112,-66.1854,-108.3734,-67.1645,3.6846,166.8252,104.4713,-53.0066,89.7334,56.9550,198.4407,75.3778,-141.1021,-152.7887,89.4109
-93.7500,22.6896,-23.5156,-2.5217,-36.1742,15.6672,-47.3609,-18.7880,-99.1781,-56.7416,85.6435,64.6656,3.4265,-43.7494,62.4455,66.0382,243.3396,12.7039,-169.7615,-110.0714,60.6079
-85.9375,-66.1108,-78.1169,-22.9993,-20.2244,-4.1238,6.5763,-38.5412,-46.1414,-39.4618,30.4534,7.3554,-16.7715,-27.6374,59.9670,8.9745,186.1038,-41.1219,-14.5776,-58.4941,75.6571
-78.1250,-146.5100,-87.3149,-32.0827,75.1068,-12.5125,72.6344,-8.8878,17.2832,-9.7793,22.6833,-37.5669,10.4354,-73.1208,84.3457,-72.6860,140.2796,-13.5458,10.9885,4.4890,66.1049
-70.3125,-89.0039,-169.6277,-45.2639,-5.6541,11.0013,27.3241,52.6683,-31.3927,14.8056,82.8139,21.4108,33.5356,-86.7033,59.4541,-49.4431,89.3632,78.9251,-1.5478,-42.6295,88.4555
-62.5000,25.0474,-55.4004,-35.8993,38.1436,-52.9353,38.4378,-10.2224,-58.5183,-11.0564,-53.5005,103.9319,7.1882,-76.7378,59.3688,33.3427,136.0172,53.9452,77.4571,-102.1954,97.3527
-54.6875,95.6442,49.3784,-34.9889,-66.5040,-13.3185,-16.8264,-43.5601,-56.1050,-44.3696,23.7361,31.9965,8.3931,-74.2281,50.5382,-37.3169,175.2261,-14.4671,42.0036,-66.2125,61.8006
-46.8750,48.8907,73.8201,-46.4205,-181.4929,11.9481,-37.5158,-54.2528,-31.0487,-18.0302,-61.3918,93.7090,-2.7414,-49.0662,35.7824,-86.3177,163.0751,-95.2192,102.1957,-75.5809,85.8958
-39.0625,-66.9635,-7.8409,-94.9525,-87.5924,-35.8859,11.6202,-64.0396,-6.0961,-64.7891,-71.6115,119.3191,22.0226,-23.0065,70.9469,-97.4179,188.8294,-106.0730,54.2757,-51.0440,73.8846
-31.2500,-130.7676,-140.4682,-89.4342,60.3557,7.3297,71.2896,-55.7747,36.9148,-93.4966,9.2115,51.9771,28.8276,-16.8950,89.6925,-54.4787,157.6471,-62.8851,-43.5945,-112.4552,115.9251
-23.4375,-91.9770,-31.5132,-48.3248,134.9144,-24.8608,109.0904,-160.9061,5.5282,-124.6008,-132.3594,56.2315,105.2417,24.8130,111.7277,24.0600,125.0801,11.9037,65.1262,-143.2631,119.5623
-15.6250,-1.0885,59.5528,-24.1215,51.5715,-72.9470,63.1329,-133.9321,29.2389,-97.6036,-69.8258,7.5811,93.7595,12.6159,70.5199,47.7085,76.6119,33.7885,50.9407,-84.9690,70.3027
-7.8125,52.6386,42.4780,31.9278,0.0716,-15.1886,20.1538,-76.1088,12.7949,-76.7537,-48.4516,26.7742,4.1292,-3.7303,1.6160,-4.7775,-13.0016,-16.4750,69.6121,-30.8177,52.8949
-4000.0000,51.6428,49.9013,36.6487,21.7624,-25.3820,17.4823,-62.8858,-0.8089,-62.4075,-65.0457,27.1674,10.1491,-22.3747,4.9001,-62.6181,-13.9984,9.5678,43.0318,-22.7973,13.9764
-3992.1875,-57.5056,-23.0784,33.2353,18.3338,44.2033,13.9793,4.0879,-41.7321,-31.4327,3.1112,-50.1985,80.4427,-26.8339,38.5068,-177.7664,-18.2885,76.7525,4.8536,-27.1421,10.1896
-3984.3750,-148.1853,-43.5799,-24.7259,32.3556,59.2355,55.7162,18.5019,-26.2123,18.9864,-165.2875,-71.1077,132.1921,24.1495,62.7563,18.5179,-40.1343,160.3900,125.1370,-49.0446,-11.1433
-3976.5625,-115.1050,95.6879,-61.9404,101.1334,94.0172,78.6688,53.6547,47.0526,17.1487,-277.9392,-181.2657,94.7038,22.8738,22.8315,53.5488,-150.2297,158.7710,88.1765,18.8010,-48.7278
-3968.7500,-28.1799,76.8025,-81.3045,81.7636,110.6563,63.4671,105.6581,63.1584,70.1539,-334.7360,-127.5689,75.0657,39.4429,-10.1385,69.4304,-207.4746,103.0031,104.0646,-1.5054,-68.4602
-3960.9375,107.9839,-68.8350,-49.4166,76.6586,67.5431,30.5332,98.9063,-15.4854,136.4082,-231.2874,-21.6194,32.6837,-3.7414,17.7628,99.5689,-30.4669,27.4802,28.2100,62.4305,-73.9464
-3953.1250,-39.1601,-215.7674,-20.8268,-35.7388,59.1316,-5.5780,162.8496,12.5750,163.3578,15.8801,-29.9714,-85.9923,-13.2289,18.2894,15.3952,107.2395,20.6562,-82.9599,125.0624,-45.7328
-3945.3125,-290.7040,-220.0827,-102.6459,-77.5278,13.3151,15.4639,190.3889,41.2367,190.9000,-30.3517,36.2874,-94.0655,14.8813,8.2808,5.8141,62.5377,49.4318,16.4740,118.2912,-16.9186
-3937.5000,-344.8836,-64.0355,-158.1248,-96.9628,29.8470,-1.5196,169.2740,58.2529,132.7922,59.7710,-94.1012,-39.7864,31.3350,22.0069,-15.4169,79.1850,-41.4511,-37.7390,203.8662,-36.7582
-3929.6875,-168.1625,-62.0932,-155.7122,-94.5038,68.2789,-35.5673,171.0645,24.1750,171.5901,97.8077,-127.5978,-36.6075,33.6836,-5.7261,23.2542,44.7370,-110.4376,-36.0515,204.3427,-70.7004
-3921.8750,-9.0634,-113.7451,-61.9009,-6.6364,50.1107,-7.6870,189.2565,42.4991,152.7938,6.2351,-70.6952,-54.0254,15.4308,-30.4557,114.3195,-47.3183,-93.0168,-17.9529,186.2242,-88.2455
-3914.0625,-45.1757,-290.5916,-98.2872,-42.9569,49.7465,-40.2777,224.2502,42.6171,224.7958,152.4804,-106.9859,-90.6362,50.9729,-55.8946,187.1676,-47.5768,-58.7961,-124.0695,254.9071,-124.9936
-3906.2500,-189.8874,-224.0465,-141.2776,-81.8790,79.7838,-49.0722,253.6474,36.1225,218.2017,108.1418,-2.8645,-22.8464,80.9112,-53.2360,253.4234,-91.4334,-63.1741,-92.7853,178.9853,-94.3435
-3898.4375,-234.6942,153.4161,-151.3680,-162.8911,31.7156,-116.9854,131.9410,-10.4728,132.5045,96.7044,61.1613,39.8481,106.7425,-64.3624,204.5877,-65.3912,-73.6505,-102.6002,61.9557,-104.7949
-3890.6250,-191.3488,233.0555,-106.3029,-118.7457,2.7973,-95.6453,101.3830,33.0788,64.9562,103.4280,32.3275,-62.2971,76.7224,-100.8494,136.8932,-95.2103,-65.9774,-24.2741,-35.9266,-97.1000
-3882.8125,-37.9867,-1.2978,15.7670,139.4105,-23.1215,30.6532,1.8269,81.6227,2.4102,-32.8532,118.5026,-161.4403,51.6925,-102.6904,110.1896,-157.0334,15.6945,59.0608,-95.8083,-85.4057
-3875.0000,109.8783,-134.1651,63.3275,146.0636,-14.5392,3.5086,-26.2218,54.6681,-25.6279,49.3737,128.1880,-114.0804,60.1542,-81.4878,81.9861,-111.3474,-48.1374,-40.1131,-124.1846,-149.2184
-3867.1875,163.2308,-10.5323,79.3779,23.2019,37.5476,-55.2256,-11.7670,-2.7898,-48.1659,101.1125,181.3791,-98.2181,75.1149,-58.5524,60.2826,14.8357,-136.4697,-21.7853,-178.0629,-96.5311
-3859.3750,82.4736,14.0147,29.3252,12.2468,24.5348,-54.3473,-26.4207,-16.3395,-25.8118,197.7593,132.4753,-74.4577,61.9704,-21.5371,82.4751,110.9157,-77.9068,-67.5528,-120.0437,-72.9480
-3851.5625,44.1161,-23.0520,60.6755,9.7004,16.9210,-55.3961,2.3199,13.5175,-34.0591,263.8243,52.9673,-190.3086,54.2271,-58.1355,111.0585,104.3910,25.0608,-174.9209,-88.6248,-5.9709
-3843.7500,39.1022,42.2222,53.3839,39.5140,-64.3384,-41.0417,-42.5861,5.7288,-41.9525,218.2398,118.8137,-160.8163,8.8365,-52.6649,138.9842,96.2052,54.3808,-144.9347,-164.8510,23.3554
-3835.9375,99.8843,33.3011,41.8927,-5.8705,-149.7935,-77.7630,-91.6886,-42.2560,-91.0378,389.4753,108.4603,-26.5194,-38.7593,-6.7393,51.7022,157.8198,-26.5049,-260.1600,-140.2689,48.4690
-3828.1250,64.6304,-70.6626,2.3465,-110.3078,-117.2952,-85.8886,-22.8304,-45.2957,-22.1697,311.6880,142.0480,7.7309,-6.4190,3.3370,120.3656,153.3800,-131.4470,-189.4440,-140.7365,118.5301
-3820.3125,-65.2722,-96.2743,-60.8643,-65.3810,-108.4529,-24.6230,-14.6246,-35.9880,23.0545,136.2611,77.9905,17.3405,39.2595,36.3634,165.3808,162.2959,-87.0436,-74.3701,-96.8515,127.9371
-3812.5000,-37.1311,-102.8267,-33.0318,32.5840,-44.5663,6.7742,11.6372,-45.6288,12.3315,125.8992,-3.0163,9.0098,28.9803,27.0413,45.4445,79.2641,-24.5910,-81.2567,-104.9096,155.3902
-3804.6875,71.6993,112.3407,7.5007,142.2437,-78.9783,16.5375,-60.3994,-115.5768,-22.6853,19.2362,109.6769,48.3841,-5.5993,-0.8169,10.2102,-28.0698,-21.4323,27.5566,-137.2763,158.5425
-3796.8750,131.2723,206.2704,31.7833,165.6700,-91.6347,-9.8125,-73.6878,-164.7818,-35.9533,115.3300,61.1120,72.5055,-91.4292,-8.3234,-3.2794,-40.6517,-33.5213,-17.8806,-79.8942,146.4402
-3789.0625,-57.1138,18.2311,-16.8895,82.1619,-68.2292,22.8576,-87.9177,-104.9417,-50.1698,175.4987,85.5872,59.6764,-69.2107,12.7300,-17.7218,-17.1829,-11.5593,109.7266,12.5318,133.3894
-3781.2500,-138.5574,-27.8724,-27.6159,35.6137,-78.8712,54.9317,-99.2022,-5.1506,-61.4364,200.6217,76.0196,49.8101,-80.0415,44.5596,-66.2068,44.2348,-58.6518,168.2910,68.9035,86.2845
-3773.4375,-164.6954,52.3264,-89.0436,-60.6412,-68.2040,10.1322,-52.1810,42.9401,-51.3965,286.0553,-22.2462,62.2475,-68.5809,22.5061,-92.4011,18.9463,-120.4434,107.1385,147.5809,24.4739
-3765.6250,-134.8804,46.4900,-131.5253,-66.9517,-39.5841,35.3647,-24.2062,109.9778,13.5977,130.4392,-65.5512,-18.3640,-40.1696,-10.6082,8.3508,-25.4010,-127.2863,206.9352,105.2115,17.6090
-3757.8125,-77.7189,0.0227,-107.6640,27.0901,-52.6140,67.3511,-37.8765,133.3715,-37.0524,191.1748,-40.5139,-30.6237,-89.4141,19.4901,-77.5422,35.5978,-139.7797,124.0741,127.2002,5.0868
-3750.0000,-53.3295,-116.2083,-118.5592,-54.6264,9.6106,40.6911,23.7130,122.0139,24.5541,253.1900,-14.2380,-78.6387,-101.4059,20.6757,-164.1788,97.8554,-151.0232,149.4594,115.4404,-6.1961
-3742.1875,-124.6477,-152.1539,-120.1536,-56.0296,44.1438,63.9768,57.6083,156.9511,58.4673,66.5153,-52.6665,-80.3559,-68.0991,21.4286,-21.5168,58.4217,-116.9632,148.1483,112.9747,-8.1822
-3734.3750,-183.3627,-141.5072,-145.1473,-44.8191,55.2738,52.9130,104.0983,168.4867,104.9796,40.4627,-150.4957,-31.4676,-58.1974,4.8763,-11.2600,-41.4109,-38.2998,17.4220,158.1030,-33.5717
-3726.5625,-126.5655,-83.3596,-86.6389,-22.1160,76.9019,39.2179,89.0881,80.5142,52.9926,-86.0856,-54.8128,27.9313,-36.7956,17.7190,-63.4951,-56.7526,19.8723,5.1854,73.7232,-11.4593
-3718.7500,-37.2633,-28.6885,-27.6241,-3.9165,60.0289,20.0189,-1.4175,64.0303,-0.4890,-65.1367,4.3828,12.8377,21.1034,18.6479,-117.2208,1.4013,37.5424,-46.5578,55.8393,-63.8521
-3710.9375,51.4322,-150.6095,27.7891,-20.3179,77.5620,-1.6332,15.4812,45.9342,16.4345,62.2437,-14.0250,-5.8610,-35.5971,-0.7873,-27.5452,-18.0380,20.6096,-62.9157,38.3583,-45.8507
-3703.1250,42.8204,-123.8377,53.8999,40.9946,66.8008,49.2397,40.0880,71.5293,41.0708,-59.6637,12.2630,20.1348,-47.6012,25.6904,-3.1646,-29.7748,46.3701,-1.5702,28.5802,-20.1477
-3695.3125,-20.9492,93.7797,59.8504,-22.8446,34.8954,-7.7610,44.5568,2.9691,8.5702,-91.7050,18.3885,98.9823,-42.7589,45.2941,-107.9365,12.3373,121.9768,-136.3792,-1.3377,-14.6010
-3687.5000,41.3294,227.4411,121.8428,-100.6441,22.0563,-62.3733,-5.9055,-81.5518,-40.8646,-176.6931,43.5614,124.8839,18.1362,27.3210,-158.6505,-0.5109,113.6323,-144.1478,-80.2076,46.9956
-3679.6875,118.0924,93.5975,93.3328,-24.9382,-7.2763,-49.7427,-71.8581,-110.5817,-34.7850,-96.1723,89.2294,132.2797,25.5363,27.9654,-114.8501,7.1481,49.7916,-102.4134,-109.5742,18.0825
-3671.8750,200.3458,-105.7673,30.3190,-48.7317,39.8968,-59.5091,-26.2943,-100.1100,-25.1918,97.8796,63.3833,70.1682,-1.5596,17.3540,-32.5442,54.3132,-45.5540,-91.1887,-65.4348,28.6584
-3664.0625,78.8425,-120.8974,-22.4495,-29.2793,-13.6714,-8.8970,-6.4721,-7.3839,31.6606,117.1966,10.7873,17.2982,18.5940,21.2679,60.0169,74.7224,-61.6589,-0.7168,23.9565,12.4801
-3656.2500,-129.2729,-48.6333,-57.8395,8.5600,61.1642,-12.7974,67.7613,30.7497,105.9252,265.9279,-133.4060,18.8260,19.1500,13.2917,59.9864,38.5322,-60.3821,-138.8604,94.7563,13.6925
-3648.4375,-225.9917,32.0336,-85.8427,16.7871,30.4049,-13.0979,110.4115,0.2763,148.6036,272.0745,-163.1956,62.7565,-10.8942,17.7164,65.3655,7.7479,-50.7152,-130.6183,102.9510,57.3046
-3640.6250,-205.0216,-17.5895,-137.1473,38.7129,-93.6572,-14.3313,94.7634,-50.5080,132.9885,256.9288,-103.2853,48.3936,-26.2344,37.5205,86.4589,103.6658,-65.3435,-144.6722,122.8446,42.6125
-3632.8125,-27.5052,-84.6637,-134.8954,-29.8090,-56.1639,-52.3532,95.6712,-48.7531,96.9263,331.3607,-100.8409,13.5797,-98.0280,13.1551,50.1055,105.1363,-99.4093,-177.1944,89.2872,44.4665
-3625.0000,81.7491,24.9988,-58.8993,-26.5758,-89.9199,-25.5911,-13.6656,-10.2561,24.6282,260.5541,11.3520,53.5176,-96.0717,7.0473,-57.4913,33.3589,-60.7170,-33.9633,20.4857,47.0659
-3617.1875,64.6458,148.3059,33.7380,27.3136,-72.0240,-3.6593,-68.3418,8.8841,-31.0121,205.4139,-78.8134,110.1086,-114.4683,35.1399,-150.4301,15.2386,-9.3766,-86.0928,2.3415,29.3119
-3609.3750,21.1847,246.2502,25.0241,18.8515,-81.4685,6.6426,-78.3531,36.6711,-76.9906,85.9482,-51.3336,174.3443,-87.2137,42.8474,-86.7184,-31.2320,16.6081,-59.5869,-77.1526,20.2082
-3601.5625,72.3247,297.7938,42.9106,104.9930,-101.3094,29.1394,-134.7633,17.0526,-97.3592,29.0892,77.7467,192.1803,-71.3561,43.0896,-71.4005,-51.1013,33.1923,-7.4830,-97.0488,0.7028
-3593.7500,131.9639,181.8457,33.2958,164.6326,-75.6446,-1.6856,-73.6661,-67.0769,-72.2272,165.7507,104.3217,108.5186,-82.9970,3.3917,-155.5894,-61.4669,91.2853,-53.8941,-74.4450,-46.3060
-3585.9375,193.6948,67.9987,60.7757,156.3625,-47.8740,-1.7215,-83.4613,-76.1138,-44.9868,9.5212,132.9911,62.9592,-55.5324,-60.2778,-93.6734,-216.7325,82.4796,42.7944,-83.7409,-55.2182
-3578.1250,137.5144,224.2462,41.3594,29.1944,-30.9926,-47.6556,-67.1515,-22.0533,-28.6365,-84.6021,39.7520,117.4951,-1.9608,-56.3178,32.3528,-200.8970,25.7689,-13.4237,-140.9393,-112.0364
-3570.3125,18.5845,246.7158,63.1899,-18.7284,26.1428,-37.0211,-9.5779,-0.7446,-45.0253,-100.4452,-48.2452,65.2691,18.8610,-15.4136,16.6443,-69.8055,12.2999,8.5944,-154.8820,-90.6098
-3562.5000,-36.6500,155.8708,75.7117,31.0462,-35.0191,34.0005,-72.2916,48.2609,-70.6967,-88.5748,-35.5404,41.7296,30.3856,32.9027,-83.3421,15.9870,61.5211,58.3089,-106.1162,-41.4860
-3554.6875,28.3949,45.3097,34.5199,26.1133,-40.8754,32.5919,-78.6855,78.5660,-114.0510,52.6199,-40.5503,-0.5209,-12.7877,14.9883,-126.0225,10.0835,21.0389,18.3147,-6.0352,-47.0696
-3546.8750,204.7204,-59.9663,32.6158,26.4742,-43.4208,49.6694,-44.7693,113.1724,-43.0906,51.1329,-42.2697,-39.4733,-88.6573,-18.1741,-92.3989,-66.5223,-50.1454,123.6172,-6.6482,-12.3552
-3539.0625,163.2337,-30.0388,-9.0886,-14.9676,-48.7626,26.3151,-13.6425,107.9804,25.0814,81.8605,-46.7950,-7.2236,-131.3266,17.7438,-62.5748,39.0740,-57.1353,47.1127,20.9487,-54.4465
-3531.2500,38.6847,91.8387,7.1451,-104.4769,3.8535,-55.3388,38.4570,13.7285,40.2270,-12.4354,-30.3836,-28.0217,-43.0410,-21.8208,-47.7881,17.6268,-5.1881,-77.4598,1.5101,-38.5929
-3523.4375,-83.0197,182.5577,63.2236,-14.1475,59.3303,-28.4548,19.4287,-78.6844,21.2418,-213.8789,-11.1252,28.0237,12.1023,-2.5719,-67.1315,-37.9687,153.5988,-58.1823,19.9204,-19.8877
-3515.6250,-14.9245,145.0584,60.0988,52.9831,55.6080,-4.0801,15.2012,-118.3029,-19.9415,-180.5028,-124.0605,61.8601,8.0517,33.1905,-143.6646,-4.7569,186.1843,-61.1147,86.1277,-23.3867
-3507.8125,142.2145,-49.4119,77.0221,35.1663,71.9420,0.9815,-5.9698,-101.8791,-4.0677,-92.0556,-106.9494,-32.2612,-12.9452,-5.8642,-92.1357,-25.4858,131.8274,61.9910,67.3798,-6.8345
-3500.0000,153.3847,-108.8362,52.9886,10.4044,47.3313,-29.9400,6.9184,-52.4145,8.8702,31.4500,-19.7934,-92.3336,0.1149,-43.4443,66.4624,-12.1524,71.5231,2.1370,41.6828,-67.2396
-3492.1875,24.9435,-59.8607,29.3486,-46.9709,59.1300,-71.8045,91.2242,-40.5589,56.2227,117.3759,-44.2498,-80.0030,-25.4215,-61.3494,114.4687,-37.4179,48.6144,-126.3376,53.3947,-55.2479
-3484.3750,-42.2489,48.3601,-5.0414,25.9003,25.1872,-29.9209,55.7929,-38.4559,57.8388,45.5553,-78.4625,-3.4284,-23.7054,-22.9165,115.7321,-35.4373,50.9500,-88.5614,90.3574,-53.0066
-3476.5625,-23.4086,32.6097,-21.3860,9.8202,44.2939,-26.7211,75.4195,18.6976,40.5177,102.7950,-167.6443,-56.8072,-3.9375,-16.4311,-11.9401,21.6040,34.3365,-139.7431,73.3810,-69.7202
-3468.7500,-96.5941,-214.1632,-23.7444,-133.2693,78.4107,-61.7758,72.0650,-21.1496,74.2163,137.0590,-59.8465,-96.1945,29.8272,-40.9000,57.4050,18.6551,31.7192,-0.9333,35.4150,-72.4322
-3460.9375,-83.2403,-236.3933,-10.5735,-48.8144,54.0770,-35.6679,47.2766,-45.4467,123.4858,38.8945,-9.5110,-83.0316,5.1397,-38.5361,180.3187,-5.7366,9.6373,12.4221,48.0102,-59.5991
-3453.1250,-11.7924,-130.5260,-49.3146,56.7322,15.8515,-14.4036,81.6095,-84.6422,120.8737,73.8568,-85.0946,-10.7793,2.5473,0.9155,140.3369,28.9722,-61.3544,-22.1404,82.7181,-24.6698
-3445.3125,2.0840,60.7730,-72.6069,106.7197,65.0795,16.4935,57.4094,-71.3950,59.7293,-60.7246,-107.2368,1.9112,51.4109,-6.1578,115.8243,-32.8653,-80.9032,62.7543,61.8921,24.7090
-3437.5000,-119.5627,114.5522,-90.3978,19.2001,45.8137,-2.4329,37.7252,-53.6562,3.1055,-5.7932,-125.8849,57.0926,-5.2206,2.8755,21.8187,-51.1963,-28.9528,10.1405,79.5774,42.5862
-3429.6875,-224.7662,-61.2409,-127.7431,-84.8786,45.0058,-8.3446,36.5088,-54.4782,38.9466,30.6143,-53.0913,19.7163,-6.3991,14.8801,20.2639,20.9310,40.4484,80.9661,78.7187,41.9137
-3421.8750,-131.7766,-177.8458,-66.8893,7.2403,69.4016,60.5495,23.5023,5.8964,26.0022,-18.7757,-29.1026,-29.4604,17.6290,60.5640,6.9251,119.2664,-6.9610,138.9921,66.0619,29.4412
-3414.0625,33.9970,-151.6527,-2.2413,-1.8556,60.6036,10.8810,-22.6878,-2.9376,-20.1287,82.6663,-37.3357,-0.8388,-28.5411,32.4195,-2.5985,73.4129,-87.5788,23.7950,55.2172,-16.2322
-3406.2500,54.6618,9.4306,-18.7035,-87.0634,43.7077,-51.5212,-2.9616,-56.8808,-0.3347,-6.9597,-53.6835,19.6768,-8.8138,-31.8912,90.7967,-54.5337,-32.3055,44.4891,-30.7193,3.9933
-3398.4375,-121.7203,148.4470,-93.2251,-53.3214,41.7605,-4.8133,-5.2680,15.1177,-39.5725,-45.6224,-127.0876,18.1333,-11.1343,-2.2209,51.1580,-19.5225,71.9134,43.1176,-32.6965,2.1647
-3390.6250,-194.4666,6.0978,-60.1085,156.0643,37.4713,105.8955,-46.9016,10.7552,-80.1405,-158.6203,-93.8544,-22.7681,58.2029,41.6919,9.1911,13.1404,139.7753,146.3857,-104.0167,34.9836
-3382.8125,-48.6892,-127.7107,18.5488,267.9852,79.7426,149.7815,-113.9634,-21.0579,-111.1398,-337.0667,20.9225,-17.1249,63.0967,76.8637,50.7950,55.3614,75.1754,152.2075,-134.7845,40.3568
-3375.0000,20.7628,-93.8384,55.8985,55.5848,115.7225,31.0703,-79.3091,-58.1738,-112.4224,-189.7904,21.3792,57.2186,62.6989,58.7764,13.1100,55.2965,38.2726,10.7121,-101.8406,3.4283
-3367.1875,-85.9453,80.8647,15.0908,-51.9830,112.5570,8.0389,-46.7885,-61.4501,-79.8378,-193.6413,-19.3305,90.4085,58.1522,46.2153,8.2942,14.0922,71.2172,114.0574,-69.0422,36.3526
-3359.3750,-165.2635,178.9599,-65.3279,-25.1460,31.7928,18.5513,-53.8549,4.6714,-50.8397,-127.0808,-98.6486,83.9875,14.0107,48.9032,74.9022,44.2951,27.5484,70.7974,-42.8462,-7.3237
-3351.5625,47.1465,74.7781,-65.0080,11.4304,67.7829,10.2443,-18.1552,3.5439,-88.0747,-90.7441,-98.2258,9.3048,12.6164,22.1947,-0.7281,43.2624,-76.3773,1.2742,-76.8920,28.7528
-3343.7500,31.5376,-11.4247,-44.6930,101.9990,14.7762,74.9235,-107.4441,61.4203,-68.2899,-179.3938,32.1945,-79.3869,70.2257,4.8021,19.6524,27.2316,11.6855,91.7482,-57.9302,12.8353
-3335.9375,-100.3837,-140.9418,3.3053,6.2590,62.4687,53.9222,-61.0138,71.9928,-57.7890,-132.3223,6.2890,-32.3801,80.5388,17.2292,-7.2445,0.9067,91.4436,30.9006,-13.2502,-13.3876
-3328.1250,-162.3603,-168.5163,9.2516,-161.5477,105.1135,23.9223,18.3889,77.5070,-15.3191,-236.2844,12.3142,10.5706,122.8047,43.0226,-2.1735,43.5368,-41.8460,73.9841,-6.6169,29.3409
-3320.3125,-14.6502,-89.4022,-20.0963,-153.6604,75.4600,3.0745,25.4982,47.7124,28.8621,-264.5303,20.0395,-18.7889,92.7735,32.6012,4.6039,87.8836,-174.4336,81.7709,0.7230,36.7673
-3312.5000,81.9493,-63.4047,-30.5435,-127.8844,63.7106,-51.0776,50.5206,-37.1923,16.9569,-165.8539,82.6554,-65.2640,80.6434,-26.7449,66.2863,39.1420,-149.1279,1.4451,-44.0279,62.0940
-3304.6875,37.3860,-38.5722,-2.1538,-67.2682,55.8092,-36.9282,5.4077,-82.2480,8.9169,-247.3307,222.1257,-0.8992,109.3704,-32.3087,167.8408,-42.7401,-18.9848,97.9693,-122.9252,17.2690
-3296.8750,45.3244,-30.2552,117.7263,-94.1546,138.4090,-65.9219,51.8091,-109.8086,-18.6120,-237.2959,158.0845,45.9664,154.6001,-22.9233,102.9094,-70.1129,59.6490,0.9712,-116.3157,-10.0578
-3289.0625,45.3620,-64.8380,154.7014,-93.9468,212.1147,-72.2049,51.3256,-146.2773,17.9748,-237.1412,121.1208,45.9299,190.9331,-31.0257,29.0892,-106.3873,129.3743,36.0514,-150.5947,-10.2816
-3281.2500,105.2221,-74.5748,144.5208,2.1047,201.6714,-21.0974,3.7065,-156.9049,7.4340,-320.1331,110.9797,72.7447,180.1227,19.5176,-92.8552,-43.8103,118.9476,60.9891,-92.0090,-20.6531
-3273.4375,120.4027,-22.9935,124.6829,-53.5168,181.5851,-56.6065,56.4615,-141.1854,24.2640,-266.7540,55.1710,15.8973,122.6634,-4.6390,-149.4329,-26.8679,98.8638,-28.7285,-6.0527,-40.6736
-3265.6250,99.3126,26.3035,103.5776,-74.4103,123.2533,-66.6431,71.9924,-126.7211,75.8667,-324.6140,144.1076,-116.2148,137.9604,-79.7643,-61.2307,-85.1662,112.5204,90.3041,7.6650,-61.9414
-3257.8125,106.1584,-2.4587,148.4120,-32.3578,130.8757,-63.1407,116.4872,-119.3123,83.4336,-279.5142,114.9737,-108.3842,71.2133,-79.4677,-54.0564,-114.5018,119.1206,26.2793,48.3397,-91.2607
-3250.0000,82.5447,-95.6903,160.7943,-19.7663,143.0562,-63.9101,128.5463,-144.3625,58.5651,-266.8424,164.3697,-22.0145,120.0225,-60.1103,67.6788,-139.2817,131.2726,3.7901,-44.4279,-79.0270
-3242.1875,133.1269,-150.7478,212.3763,65.0121,157.4310,-16.8808,68.8175,-130.2201,-0.0872,-361.9626,178.9625,-7.4502,134.0358,-30.7866,81.6263,-124.8505,145.6242,18.4995,-135.9861,-64.5884
-3234.3750,123.8954,-124.6258,166.1560,20.9712,148.0131,-49.4397,22.3176,-102.8873,-9.5140,-260.8697,95.7384,-16.6974,124.2548,-53.9790,71.7841,-134.2103,136.1620,-96.6058,-110.3258,-73.9470
-3226.5625,138.7271,31.5788,144.0286,1.0214,88.7057,-69.6098,0.9422,-88.4650,-31.8159,-245.6725,110.5965,-75.8530,138.5903,-85.0541,49.0667,-119.4660,150.7929,-116.6188,-130.5550,-59.1994
-3218.7500,131.7921,96.0210,102.1461,-40.6857,9.6526,-96.2686,-41.1644,-56.8015,-36.8490,-67.2233,142.7002,-80.7691,96.1786,-84.7566,6.6261,-50.4656,108.6685,-158.3953,-101.5257,-101.1974
-3210.9375,116.8719,-59.5549,84.2525,-55.4170,-7.4062,-77.5430,14.7453,-38.1489,-17.8654,62.2485,87.7974,-61.6901,77.7638,-62.0857,26.2065,-31.4573,58.5331,-137.1912,-81.4861,-45.1931
-3203.1250,68.8063,-107.2907,106.2022,72.6887,-22.6166,11.8925,-0.4820,20.3432,3.9813,-62.4298,73.7389,-39.7655,63.2037,-23.4812,83.6624,-46.5946,80.2444,-80.1336,-94.5894,-23.3319
-3195.3125,29.9529,-110.7920,66.3973,69.0372,-100.5727,11.5738,-4.4481,16.0810,0.0893,8.1591,-4.0924,-43.6008,21.9007,9.1560,79.3844,60.5324,111.2122,-152.8387,-63.4262,-27.2189
-3187.5000,80.8186,-59.5737,80.3414,50.1172,-121.7711,-0.4157,9.3579,-44.4361,13.9657,-51.4817,-27.1934,7.3036,-1.6459,25.6193,129.8641,74.4157,91.9214,-101.7995,-152.5003,23.6531
-3179.6875,38.6152,109.5722,-0.7681,7.1366,-129.0186,-33.1855,2.1256,-15.0068,43.8076,15.8373,-34.3590,74.1487,-9.2350,-2.0735,159.3025,-6.7399,13.5768,-144.8073,-89.6108,16.4779
-3171.8750,88.5066,53.7946,12.2141,-187.7553,-79.1625,-121.8361,89.0114,-38.4899,93.7676,103.2686,-20.4402,13.0836,3.2786,-59.9744,171.8602,-29.7852,-111.6803,-164.7241,-39.6085,66.4046
-3164.0625,-3.0365,-35.4475,-9.2646,-138.1147,-101.7589,-79.0321,29.4669,-60.4299,71.2973,81.2482,104.0263,-8.4402,17.3422,-25.6949,222.9963,57.7235,-62.4055,-80.0944,-25.0529,80.8887
-3156.2500,-4.7453,-36.8481,62.0946,-33.6468,-103.5022,-70.8945,27.7904,-99.5244,32.6950,190.0933,65.3235,-46.1202,15.2660,-18.0807,111.0058,93.0924,40.7106,-186.6271,-26.6347,79.2252
-3148.4375,103.6085,-69.1642,63.5492,38.9020,-65.1382,-13.1588,-6.7680,-98.5234,-1.7894,119.0500,-5.2986,28.2896,17.3000,44.6753,38.1269,131.5716,43.9295,-113.0643,-93.1071,117.6720
-3140.6250,88.7817,-48.6458,12.8456,94.3004,-79.9247,33.3528,-57.4660,-39.6764,-16.4097,67.8604,-20.0859,13.5436,38.1905,95.4220,60.1137,263.9150,-111.0026,-92.6486,-72.7241,102.9718
-3132.8125,-5.3032,-2.3964,-13.1159,0.4336,-69.9578,-11.0592,-11.3962,5.9128,-6.2699,189.4397,-10.1421,-12.4620,11.8336,48.9248,32.8660,201.0114,-207.1964,-152.4906,-26.5818,113.0248
-3125.0000,-84.0984,130.1279,-55.7840,-113.1471,-112.6902,-33.1624,-54.0148,35.7996,-12.8189,147.3199,19.0958,16.8242,-31.2155,6.7481,26.9392,84.4118,-144.0969,-20.0278,-0.1327,70.3826
-3117.1875,-130.4086,84.1297,-103.9519,-124.2315,-86.9228,-30.9555,7.8807,61.1910,50.1498,209.7073,-64.1767,5.5974,-78.7577,-4.5683,-93.4717,36.3232,-85.5050,-65.0756,94.8296,59.2406
-3109.3750,-149.2834,-145.4257,-197.6769,-36.8840,-34.7018,26.2154,98.2442,77.0257,140.5862,300.5635,-159.0133,-50.1842,-62.8509,-5.3116,-41.4205,15.6995,-104.4743,55.3125,146.2514,75.5527
-3101.5625,-102.6610,-203.4916,-147.9088,43.9455,-57.9850,71.0414,75.1181,90.3579,117.5326,314.9151,-145.3558,-73.4667,-86.4372,20.1585,8.1545,66.5871,-127.9543,138.2017,158.1796,52.3733
-3093.7500,-107.1390,-136.6914,-112.2489,-30.3445,-59.3661,14.9559,37.9084,88.5864,43.3912,388.1758,-109.8133,-111.8512,-52.1180,-4.6313,7.6402,102.3767,-97.5389,63.9760,155.0237,-21.8988
-3085.9375,-91.7853,-16.0564,-58.7507,-49.8036,-41.8909,2.6808,-18.4386,68.6539,24.1159,222.2880,-19.4275,-131.3909,-34.9390,-23.4575,24.9985,83.0147,-47.2815,114.6008,99.7302,-41.3169
-3078.1250,-135.6474,45.3846,-28.4538,12.5242,-11.6146,-5.4731,48.0296,61.5210,90.6553,142.2037,-63.2571,-139.1447,-41.9594,-37.5474,54.1664,39.4614,-20.2295,1.0175,92.2517,-84.9322
-3070.3125,-52.1843,-82.8532,-52.8139,60.1871,-72.9852,10.8637,97.8648,36.7398,103.5574,155.4905,-87.7539,-89.5605,-103.6272,-8.4190,66.6920,52.2727,27.1765,-56.2183,69.1401,-72.1963
-3062.5000,40.2565,-24.1208,-28.1699,153.8528,-159.3537,45.5588,11.7161,60.9600,54.4787,180.7776,-100.2609,-27.9892,-116.2858,13.9527,-18.7606,40.0821,14.5784,-68.4571,57.0370,-84.4603
-3054.6875,23.8411,-5.2561,-6.3862,137.6616,-136.5690,20.9569,-2.2658,120.3288,3.5624,314.2277,-114.6346,-42.2760,-130.7917,-5.2032,-34.0518,26.0443,-1.8837,-190.5551,42.0935,-135.5728
-3046.8750,60.0213,-73.8037,66.9805,209.0539,-100.1878,83.4707,-38.6376,192.2977,-32.7406,93.2799,-78.4198,-79.9693,-57.6939,-25.8460,2.2770,-84.3819,34.2453,-154.0460,7.7607,-99.0790
-3039.0625,28.8327,-34.7169,35.9925,178.0875,-131.1597,59.3579,-69.3490,160.9176,9.6161,136.9882,-146.5619,-37.0224,-51.9418,-7.9831,-64.7237,-41.1419,74.0157,-219.8864,83.0890,-129.9318
-3031.2500,-75.5228,71.1952,-38.1563,37.9459,-95.2753,-23.6141,39.8093,86.3830,82.8378,283.5662,-183.8625,-38.2294,-90.3339,-25.0956,-139.8638,-5.0418,38.6257,-253.8855,119.2764,-93.9295
-3023.4375,-53.6309,164.3433,-90.0512,25.0353,-147.1395,-31.4724,25.2321,34.0886,105.3233,196.3811,22.0851,-16.1913,-105.4751,-35.9769,-154.7370,-19.6866,-44.5216,-126.6288,141.7219,-71.6654
-3015.6250,-17.0023,95.2309,-51.1994,26.8598,-145.2558,-24.8438,27.4158,35.5352,70.5688,161.9484,96.7663,-14.4114,-103.8612,-41.6492,-152.8429,-54.5799,-42.9147,-124.6273,178.9332,-69.6465
-3007.8125,10.8692,-52.6540,48.8934,19.9218,-82.1145,-18.5264,54.8660,-11.7709,97.0799,78.7738,49.6752,-98.3952,-40.9942,-49.3354,-15.6797,-28.2199,-51.0701,-61.3711,172.4048,-6.3669
-3000.0000,-31.3224,-127.6064,5.9250,-22.0777,-14.0255,-32.1228,122.2765,-55.1242,165.5539,73.5507,-103.4746,-104.4294,63.8277,-5.0290,88.4503,113.1105,-57.2860,-67.1622,166.8342,-12.1326
-2992.1875,-15.1272,-217.1690,-17.6434,-145.6997,35.4684,-54.5989,172.1002,-42.0864,178.4366,160.7362,-164.2333,-128.0565,2.0537,-22.3662,64.9846,89.8493,-76.1020,-49.5732,217.6784,74.5098
-2984.3750,30.5617,-101.2386,-79.7047,-204.8340,-62.5338,-66.5684,73.4362,-31.5584,153.8302,172.4017,-6.4899,-43.1847,-96.2132,-24.2235,113.0376,64.0836,-100.4146,30.5064,194.0329,85.6635
-2976.5625,13.7856,57.2226,-96.2217,-292.4282,-78.9911,-125.5412,94.3327,-48.4836,100.7910,340.6107,-59.2109,12.2349,-112.9282,-10.9852,22.6656,121.8695,-152.1749,-54.8750,212.9534,69.3731
-2968.7500,-145.4525,3.2100,-80.1957,-276.4831,-26.8972,-89.9845,110.7997,-32.8590,154.3136,209.3732,-43.4012,-43.8066,-24.0888,-15.4960,1.8634,101.2017,-101.3876,30.2893,194.4317,85.6455
-2960.9375,-110.5089,-136.6107,-42.9795,-100.3439,-99.6089,18.1389,37.4727,2.9667,81.0449,63.3359,-43.3982,-43.6503,-60.0440,40.6606,39.2741,138.7466,-30.4053,65.6577,195.1146,86.1277
-2953.1250,-11.3213,-142.1915,-48.5176,-34.9665,-105.0747,26.1241,69.4067,34.0374,76.0320,132.5655,-86.1578,-49.2484,-139.7543,29.9449,-75.0590,96.5515,-72.1727,-9.7331,155.0605,80.8674
-2945.3125,-62.9447,-19.5875,-102.8619,51.6049,-159.3428,89.7663,52.5495,90.3017,59.2345,78.9905,-140.7276,5.3516,-157.2597,37.3848,-92.1684,5.5606,-19.7413,114.0838,173.2139,63.8129
-2937.5000,-130.3861,55.2018,-134.0040,-49.6254,-153.4049,58.9147,58.9052,131.7640,28.6447,85.6110,-172.1151,11.1462,-151.5598,29.0539,-51.0578,11.7781,-16.1106,83.0941,177.5713,32.9645
