Time,Fp1,Fp2,F3,F4,C3,C4,P3,P4,O1,O2,F7,F8,T7,T8,P7,P8,Fz,Cz,Pz,ref
-4000.0000,30.8865,7.9866,-14.8991,-31.8902,25.0359,-32.1412,21.7181,11.1152,68.4394,25.0178,14.6706,25.8694,-17.3538,0.7266,-28.8772,3.6388,-47.0387,-42.1262,-16.3965,32.1960
-3992.1875,-43.7781,39.0619,-20.4922,-35.7096,19.1983,-74.9470,15.8411,42.0274,26.2951,25.9253,-63.4132,-16.9372,-58.8791,-41.5359,37.4012,1.2572,-53.1591,-12.0841,14.2456,63.4081
-3984.3750,-18.2003,100.3886,-65.8426,-47.2805,-25.3943,-47.5026,-65.7852,34.1909,-54.6048,-27.9346,-36.2481,48.5110,4.8491,-13.5474,139.9280,-15.4413,-63.0272,-23.7899,4.1489,18.8706
-3976.5625,-27.1627,125.1733,-111.7392,-23.4035,-33.5313,-20.6125,-36.9577,-11.2033,11.9464,-25.0010,-7.6270,77.4093,70.0262,51.8914,166.9025,-13.4243,-75.4436,-70.0480,-5.4985,-26.2211
-3968.7500,22.0788,140.1712,-133.4382,25.6727,-54.4733,31.4785,-57.9327,4.5999,-82.3080,-43.3367,45.1859,56.5125,48.4038,103.5356,35.0686,11.4589,-62.6638,-57.1032,43.0588,-47.1121
-3960.9375,93.0678,280.9223,-97.3842,25.4958,-53.6690,31.3220,-20.1550,5.1554,-6.8249,-22.5458,45.7458,-16.6361,-25.4667,30.9331,-39.0146,-6.6351,-98.1324,-22.4077,-26.6243,-46.2549
-3953.1250,60.0047,353.6232,-170.3802,-9.7299,-90.9220,-6.8813,-94.4162,41.6557,-6.3806,-26.2596,-28.7546,94.1560,-26.3883,-43.7236,33.8616,-34.4378,-132.6485,13.2431,-26.3506,-9.4490
-3945.3125,10.7391,233.1277,-148.5803,10.8457,-105.3908,14.7147,-108.8781,26.9542,-94.1450,-65.1704,30.5460,116.7538,-4.5034,-21.5807,128.5435,-35.4703,-112.3617,68.6992,-41.2702,-23.8446
-3937.5000,35.2759,152.4330,-123.9748,34.2164,-79.0661,40.1079,-82.5314,16.0484,6.8909,-18.2464,19.6492,69.1430,-52.8062,41.3594,81.0329,0.8098,-90.2739,21.9585,-52.3890,-34.4442
-3929.6875,52.3064,204.2456,-143.8607,15.0890,-62.2535,19.0049,-65.6809,-4.3632,-86.5704,-61.7452,-0.7577,86.0259,-36.6053,57.7994,60.0212,-12.0704,-74.6820,-33.2795,-36.0005,-17.5412
-3921.8750,119.4900,201.2137,-75.5974,11.1153,-28.3008,-21.9457,-68.6822,-7.6287,-88.8966,-67.6298,69.9850,9.0584,-3.2485,-19.6044,56.1647,-43.1327,-43.9335,-72.3630,-39.4526,-20.4913
-3914.0625,88.3886,98.8808,-37.6334,48.8429,-100.6571,15.8035,-66.9804,-6.2049,-12.5172,-14.5448,34.4287,-25.2164,-39.1919,-55.3085,-16.9928,-32.2782,-41.4733,0.2558,34.8059,18.2528
-3906.2500,37.4903,47.7531,-54.4697,-4.2291,-116.8198,35.7554,-46.0766,51.4184,-101.9416,-22.8787,18.0682,-41.2884,-18.9408,-34.8104,77.0358,-5.7255,-58.8054,54.0796,88.2741,2.1935
-3898.4375,-56.8600,-10.8240,-41.7493,42.2485,-66.4363,48.2551,4.3781,27.5860,-13.8171,11.4953,-5.7437,-101.8165,-6.1343,-21.7688,89.6228,7.4608,-48.5841,64.4541,64.2938,-21.3163
-3890.6250,-122.6635,-112.8445,-38.4813,115.2671,-25.5079,88.3012,8.3861,31.2962,-46.1415,14.1614,-2.0122,-60.8062,34.2301,-18.1813,-18.2211,22.3003,25.1898,67.3819,67.8674,-17.2743
-3882.8125,-9.9732,-141.3573,79.2899,85.7814,-17.0873,58.8454,16.8989,-34.4997,-73.9754,-26.6814,43.2179,-89.3026,42.1041,-84.0886,26.4444,-31.4251,100.4714,37.8144,38.9461,-45.7367
-3875.0000,26.0225,0.4270,79.3651,-19.4041,-16.3698,-15.3077,53.7211,-34.0013,-35.5028,-8.1287,6.7434,-88.5129,-31.7152,-120.6938,-84.5917,-45.4341,100.0620,72.5522,74.3267,-44.9031
-3867.1875,10.4209,89.6129,62.8415,-36.1882,-32.2583,-32.0572,1.9458,-13.1080,-87.6347,-19.1920,-9.3351,5.6710,-48.1385,-62.9001,-173.2399,-25.8415,118.0591,55.7007,93.1216,-60.6687
-3859.3750,3.4671,12.4532,54.9726,25.6746,-39.4997,33.8466,-5.1816,15.4293,-20.1221,10.2429,-16.7681,-38.4976,-55.9127,-33.4579,-109.2314,5.9970,74.7162,47.5052,15.5762,-67.7883
-3851.5625,-91.7908,-12.0003,-10.1974,105.2401,-68.0420,78.4517,-33.6054,24.6586,-47.9095,11.4933,-45.5077,-28.9748,-47.9858,48.6844,-100.5142,43.1732,49.0818,57.0142,25.7313,-22.2100
-3843.7500,-14.5528,-5.9548,32.1320,75.3049,-99.0885,46.5587,-64.5254,-6.6200,-115.2085,-42.5596,34.2501,-59.9564,-5.5495,-19.6725,14.7085,-9.5567,53.9566,97.0246,-3.6054,-16.1335
-3835.9375,-4.9622,3.4427,77.8182,13.7148,-52.7896,18.0132,-18.0919,-34.5610,-31.1623,-21.4040,6.3590,-87.5972,3.2497,-120.6794,23.2864,-49.4535,62.1906,105.3856,5.4119,-6.7094
-3828.1250,-33.1705,-24.9480,84.7099,-15.6776,-8.3006,-12.3324,-10.4568,-27.3085,-59.9305,-22.9877,13.6671,-6.0408,47.2487,-77.4797,-43.9438,-35.5329,68.6364,41.9500,47.6355,0.9145
-3820.3125,-6.0284,-33.9850,74.9570,-25.7154,19.5322,-22.3205,17.5256,-73.7130,5.6361,-14.8371,41.3243,-52.1417,37.6051,-12.9239,-53.8168,-29.7696,23.4401,-39.1291,38.2111,-8.1161
-3812.5000,-56.4912,-48.6196,-16.3957,-41.3497,2.7536,-39.9061,37.9117,-16.7260,-10.3949,1.6008,-12.6247,-68.8590,57.3714,7.0369,-34.2719,-2.2117,6.6509,-19.7988,58.1872,12.2513
-3804.6875,-17.9153,-116.2083,24.2993,-39.9328,7.0149,-36.4379,42.3486,-12.6964,-42.3842,-14.0166,28.4710,-27.5300,61.1952,-25.9460,6.3345,-17.7752,8.9202,-53.4080,60.2260,-20.3323
-3796.8750,73.2090,-60.2523,44.5490,16.0344,27.8193,-53.4128,63.3392,-66.1211,16.1786,-4.2914,-24.8855,29.3325,7.5755,-42.3852,-119.5061,-36.2997,63.7473,-68.4610,45.8266,0.6282
-3789.0625,9.3761,-89.2459,12.8476,21.0542,-3.3349,25.6677,32.3855,-23.4983,-51.2084,2.2588,-92.1961,72.2384,-60.9972,0.2214,-114.3072,3.6019,103.6308,-28.4594,121.4912,6.6388
-3781.2500,-48.2110,-110.9863,27.4026,33.3298,-25.2438,40.0030,47.6831,-45.6284,1.6383,4.1167,-114.2574,13.3912,-9.3195,15.0810,46.1347,1.0356,80.7742,-51.2036,64.4153,-15.1051
-3773.4375,-70.2044,-28.1290,-34.4375,10.2061,-49.5591,14.9418,23.5879,-33.1669,15.0863,-0.4985,-137.7291,-9.8688,39.9685,64.5421,131.1948,10.0598,-13.4742,-74.3377,41.9399,-2.2514
-3765.6250,-13.0600,-42.1185,-12.1285,-4.7686,-63.7323,0.0361,-27.3561,-10.5659,-109.3325,-47.3317,-80.0593,49.0144,98.4189,86.1605,80.4217,10.3591,7.4379,-89.3136,27.6240,-16.2521
-3757.8125,33.5868,-100.6087,35.6838,5.7560,-52.4168,-26.3635,-15.7986,-36.4711,-60.2563,-25.4925,-68.8862,23.3833,36.3741,61.2788,17.1618,4.0839,52.8608,-43.7883,38.8177,-4.7610
-3750.0000,-20.2629,-83.5949,-22.0074,56.7810,-35.6153,26.7401,-35.7390,-56.8778,-115.6806,-48.9156,-52.2165,77.2389,15.8314,40.8940,-76.5953,-8.6417,68.7921,7.2431,55.5183,12.2305
-3742.1875,5.3839,-24.0801,40.8064,45.3073,-9.3231,15.3475,-46.1768,-67.7890,-125.6208,-66.0334,-26.0459,29.5856,4.7951,-6.9971,-51.8530,-32.6714,57.2363,-4.2187,9.7301,1.7229
-3734.3750,-42.8773,-0.4690,-46.2715,-3.0694,15.0673,2.0546,-21.5088,-80.6132,-64.4622,-51.1581,-75.7828,17.0268,28.8646,-19.7875,9.0037,-43.6376,8.7894,53.4257,32.0485,-10.6845
-3726.5625,-62.5417,-56.2528,-28.7470,10.1527,69.0503,-17.6410,-3.2373,-62.8486,-156.7191,-70.0048,-94.9216,35.0645,82.5376,-1.9715,26.4610,-32.9247,21.9640,101.6780,80.9750,-66.4938
-3718.7500,-103.6575,-97.4831,39.3362,37.9257,137.5788,13.2213,28.5823,-31.5426,-13.4352,12.2031,-173.5138,-43.3603,77.7668,-7.6082,-15.5207,6.5822,49.7017,130.4867,75.4580,-107.7603
-3710.9375,-192.6888,-116.6167,18.5215,53.8045,118.2040,103.1885,8.5043,21.8595,-32.0523,42.7885,-157.0201,-63.6928,-15.8972,8.8571,-73.3905,50.6258,101.5496,181.3991,127.0444,-90.9296
-3703.1250,-152.9278,-146.9566,61.5096,58.4865,123.6273,71.9616,15.2256,-8.9451,-25.8895,36.4560,-76.7209,-94.2282,-10.7575,15.1291,-104.4554,39.9344,105.2124,185.1122,131.4385,-121.3010
-3695.3125,-107.7584,-101.8943,106.9060,-4.4306,206.4507,6.1383,61.3476,-37.3625,57.6662,45.4567,-105.0181,-85.3683,-38.2126,-49.2020,-96.1216,4.7825,42.2918,158.2312,70.2379,-112.2768
-3687.5000,-3.9532,-103.1837,104.9606,-6.6929,204.9248,3.9727,23.1198,-39.1389,-90.1435,-29.2474,-69.6735,-49.8670,-4.0126,-50.8788,-24.1354,-18.9273,40.0377,121.0135,32.6996,-113.6073
-3679.6875,88.0906,-82.2256,127.2772,-21.7044,190.6457,-10.9355,9.1417,-53.6666,-103.7155,-51.5024,-47.0799,-64.1321,55.4420,-65.3054,34.1105,-41.0795,61.0499,71.0550,18.4195,-127.6929
-3671.8750,6.4816,-57.9036,113.9454,36.6329,177.7114,12.5152,-3.4855,-65.8519,-115.9448,-45.1282,-60.1398,-3.0545,5.2523,-5.3803,-52.2864,-16.0547,119.4224,58.4498,42.4875,-103.4286
-3664.0625,-8.3810,-72.7285,170.3611,20.7184,160.5178,31.7129,-19.3705,-46.3030,-95.4517,-28.8682,32.5500,-20.2382,-11.1783,-21.7081,-69.9267,-11.4503,103.5547,7.5900,62.3064,-83.4189
-3656.2500,-52.7899,-81.9946,157.2359,11.2486,148.7740,19.3501,-31.8053,-22.3270,3.4792,6.1420,20.6940,-69.0138,-24.1493,-34.5883,27.8978,-5.2362,-11.8531,-37.8248,18.5687,-21.9672
-3648.4375,-74.7083,-103.7641,59.6177,-11.7170,87.5317,-5.5062,-92.7388,27.1430,-57.1010,-7.6998,-3.6640,-19.3145,25.3790,-21.9617,113.2231,-0.1437,-70.7491,-25.7201,66.3369,-9.0145
-3640.6250,-21.4868,-86.3915,4.1566,-30.5249,69.4457,12.7981,-36.5211,8.7614,-0.5465,-1.5751,15.1180,-37.4787,44.0640,-40.1898,94.6992,-15.5786,-89.4763,-44.4502,48.2642,-26.9186
-3632.8125,-44.2750,-73.0261,-20.2968,-54.3315,82.3870,-11.8939,13.7019,-15.6326,13.0085,-4.6859,-9.1134,11.3486,56.7564,-27.4261,34.1918,-20.0219,-77.1915,-32.1752,26.1937,-13.8290
-3625.0000,16.4257,-118.1729,5.7527,-65.6340,71.8517,-23.0791,-33.5785,-26.5320,-70.9524,-40.3508,17.1446,0.6746,45.9553,-1.1558,133.1965,-23.9003,-17.3955,-43.3923,50.6312,-24.2466
-3617.1875,7.3715,-92.0757,-5.9420,-75.6869,24.5663,1.9915,-44.6058,-1.1875,-7.6689,2.6272,-31.3435,-83.7554,-39.5828,61.3622,121.4621,22.7483,-28.3359,17.6473,41.3220,1.5771
-3609.3750,-29.7377,-93.0306,-44.6811,-6.7862,-13.7803,37.0179,-45.6843,34.1051,-45.4454,5.8494,-69.8858,-48.2371,-41.1657,22.8277,46.6847,28.3677,5.6874,85.6476,39.9659,0.3497
-3601.5625,10.8976,-88.2418,-1.6607,-3.1320,65.6239,5.8002,70.9817,-33.8541,35.5061,5.6161,-26.6823,-41.9663,2.0023,-81.9516,52.6601,-31.9759,44.4781,54.4046,9.3661,-30.1327
-3593.7500,-20.2781,-13.2609,1.5676,-71.2756,106.2359,-28.2091,74.8560,-30.6161,75.6533,14.3163,-23.2847,-2.4979,42.3694,-41.5271,55.8405,-21.4859,47.4805,22.3742,-22.0330,-26.4218
-3585.9375,-37.8679,39.3126,56.4008,-53.8159,51.4534,-46.6128,21.3278,-48.7835,-14.6187,-32.2219,32.7080,-20.4186,97.3443,14.5061,147.6266,-21.6647,64.0957,38.9500,-39.8231,-44.1169
-3578.1250,5.0308,12.3781,63.7461,-11.8497,22.1765,-2.5077,29.2959,-41.4526,30.5929,-7.1461,40.1988,-48.8402,67.8299,58.0434,117.9295,8.3205,71.2264,81.0275,-68.1166,-36.3188
-3570.3125,16.3682,23.8969,38.5420,33.5774,-2.6479,45.0565,40.7102,6.3230,-31.7582,-13.5936,51.1338,35.1918,42.7686,69.0312,18.6913,31.1348,81.8156,91.5644,-91.9634,-25.0697
-3562.5000,41.0427,48.7641,63.6833,92.3608,-13.1202,33.9790,-6.5307,-4.5532,-41.7850,-31.9663,76.4198,61.5847,68.0668,22.3683,80.8110,0.7936,70.7730,45.4634,-102.4540,-35.4746
-3554.6875,-20.0852,22.8216,36.0311,65.3501,-4.3823,42.1096,2.4305,3.7649,4.3812,-17.1799,11.9026,33.1774,113.5664,30.9044,163.1304,8.8411,43.9479,18.5778,-128.7428,-26.6877
-3546.8750,-23.2743,-15.1746,32.3341,26.3019,-7.6886,1.2009,36.3381,0.0342,-35.5188,-21.0648,45.3268,29.7229,110.0117,63.3960,122.3977,17.2630,75.0891,14.6526,-62.0738,-29.9567
-3539.0625,23.0715,31.3757,43.1965,1.8094,39.5658,11.8496,83.7962,-26.1444,86.1149,23.5473,56.2966,3.8184,48.0068,74.4395,-13.7712,24.1118,50.7931,-45.7192,-50.8508,-18.6814
-3531.2500,-24.4023,55.1216,27.2633,-11.4818,-11.9656,32.7048,-4.5464,31.8746,-2.0531,12.0717,40.4607,62.1174,-4.7880,59.6839,-29.7315,37.1696,73.7050,-22.8886,-27.4286,39.7910
-3523.4375,-77.0883,1.6634,46.1315,41.0330,-66.6848,51.3674,-59.0971,13.6926,-92.4495,-26.4350,59.4201,44.2329,51.2243,41.7340,63.1137,20.3272,160.4253,29.7523,-10.2031,22.0574
-3515.6250,-39.0302,40.9466,50.7580,113.3066,-98.6419,91.7908,-90.9030,-18.7366,-51.1174,-20.4948,27.1280,-23.9002,55.9927,82.5313,67.7175,30.1102,163.9140,102.1493,-42.2293,-9.9369
-3507.8125,-18.9290,95.2735,-2.5585,167.6424,-151.5411,112.2781,-106.6654,1.8902,-139.7547,-52.4286,10.8792,33.0174,39.8081,103.3862,14.3668,34.9921,147.4661,85.6084,-58.2048,-25.8894
-3500.0000,21.6601,66.0962,2.6345,137.4890,-108.9257,117.2775,-63.9326,43.0221,-97.9091,-22.3031,53.1298,1.4387,-28.8813,35.7475,-54.4903,32.8586,81.5339,55.5748,-52.6774,-20.3479
-3492.1875,-2.2157,78.4697,-24.6198,42.8982,-98.7513,90.8409,-16.6574,53.7032,-50.5217,-4.4934,62.9232,12.4156,-19.0247,-28.3337,-80.7952,14.0024,58.1648,67.0997,-40.6037,26.7427
-3484.3750,10.2879,90.2382,-11.4653,-16.2852,-122.1651,29.8126,-39.9918,65.7863,-109.7601,-31.9547,76.1078,-11.1949,68.2337,21.9951,79.3080,18.1488,69.2141,43.0314,-29.1283,3.2268
-3476.5625,8.7390,88.9476,23.6517,16.4850,-123.6011,27.7351,-41.3746,63.8216,-75.0590,-14.5698,0.2372,-49.8539,29.4513,93.2721,113.3690,50.8190,32.2239,40.9156,-65.7094,1.6503
-3468.7500,-10.6720,70.8066,2.9289,32.4031,-142.8645,43.8095,-61.6084,80.0075,-94.2209,-7.1359,16.5086,3.6485,8.8215,73.6986,-17.4187,52.5944,13.3920,56.9579,-14.1455,18.2221
-3460.9375,25.5009,106.2575,-34.1877,-39.0732,-142.5085,6.4899,12.7526,43.7944,-20.8077,-5.4475,90.3841,-33.2367,45.7944,-0.2753,19.3985,4.8525,-22.8283,56.6117,-13.9835,18.3885
-3453.1250,-30.9380,51.0860,-56.9011,-25.1393,-127.7314,20.5773,64.5131,20.9838,30.9970,12.7372,30.6567,-55.7157,23.1705,-22.8487,70.6253,-1.4560,-43.6401,70.6706,0.5811,32.9503
-3445.3125,-47.0848,35.1951,0.6887,-41.8947,-70.6363,-33.0242,85.5690,41.4763,-21.9186,11.8256,14.2303,-34.8798,43.8497,-39.1098,17.1538,0.7116,-25.1364,54.0307,55.4442,16.8075
-3437.5000,-34.4343,48.0862,13.0911,-64.8450,-20.7205,-20.8205,98.4180,16.7707,101.9474,50.9297,-10.3969,-59.2379,-17.6623,-26.5683,-7.5105,7.0695,-82.8229,31.1975,33.1037,29.4581
-3429.6875,-36.0442,-24.2955,-62.7518,-32.0326,-59.0339,14.1460,97.0134,51.8248,63.5522,49.4883,-12.2832,-60.8359,17.5721,8.7215,-9.4182,32.2573,-49.7541,29.1243,31.5088,27.8554
-3421.8750,-33.8724,-125.8897,15.2094,5.5883,-54.5301,17.9250,100.4008,18.6889,67.9297,46.3823,28.6289,-130.6154,58.6140,49.8132,68.4842,39.5765,-11.8733,-4.1430,33.7126,-4.9547
-3414.0625,-54.0702,-76.8405,29.8273,19.8671,-39.3515,32.3618,79.4365,33.2089,8.9483,22.4059,6.1844,-78.7304,36.3124,27.5557,46.0416,34.9966,2.6644,10.2444,-22.4437,9.8766
-3406.2500,-7.7874,4.6946,77.9487,-5.3380,-63.6473,44.3108,17.9631,44.2395,-89.5571,-5.8431,18.2297,-66.3297,11.5097,2.8110,-52.9037,25.7829,47.7128,55.1370,23.8938,-14.7965
-3398.4375,68.6389,11.3557,86.2252,35.6250,-17.7686,15.4238,99.6244,15.4335,30.0651,27.5999,-47.5755,-168.7682,-17.1465,-99.7804,-7.6961,-10.0402,53.9161,61.1866,-4.6236,-43.3259
-3390.6250,0.4540,-92.5978,50.9055,36.9944,-15.4701,52.9501,101.6806,17.0404,68.0753,59.1038,-119.9940,-203.7965,21.5925,-23.9734,66.9129,28.3811,90.5264,27.6494,67.2567,-41.4590
-3382.8125,-77.9971,-134.8103,80.3423,29.1153,-22.3945,45.2309,131.4802,46.4057,60.8108,76.2792,-90.6655,-211.0492,50.0829,41.5844,23.2718,69.5200,118.8998,19.8670,59.8868,-48.8470
-3375.0000,-61.3091,-117.8843,96.9373,45.3969,-5.1434,61.6676,111.4210,25.9242,114.6848,94.0164,-111.1843,-157.1393,-43.2737,-14.7051,-144.2061,53.0021,99.4338,71.2370,41.6571,-32.0921
-3367.1875,-11.6385,37.0306,75.5298,23.6945,-62.8728,40.1156,53.3539,41.4512,-16.4671,33.3795,-58.7069,-104.2148,-27.6262,-35.9908,-129.6813,24.7691,77.9756,84.6181,55.4259,-53.3430
-3359.3750,69.8655,83.7772,51.9824,-0.1484,-48.7276,16.4220,30.1257,17.8345,-2.7901,15.6612,-45.3824,-127.4240,-14.1239,-22.4296,-42.3032,7.9540,54.3718,60.8535,32.0361,-76.7528
-3351.5625,21.5538,35.7094,0.6380,56.2194,-100.3486,74.9337,-20.9091,39.4294,-54.9215,4.6756,-97.8637,-105.4152,-29.4316,35.3293,16.2671,37.3815,75.9693,47.2942,18.8349,-54.9668
-3343.7500,-0.4273,-21.0232,14.6388,104.9518,-121.5970,89.8086,-42.6045,54.3904,-113.7271,-12.7512,-46.0008,-127.0298,-14.3996,87.4517,67.1911,58.8504,89.9215,25.0976,-3.0205,-76.8349
-3335.9375,-11.3727,38.2724,77.6942,93.7470,-131.7665,78.7446,-16.2589,43.4200,-13.4970,25.9696,-20.0958,-137.5766,-25.3189,76.6277,-53.8258,60.9661,78.9332,13.9578,-13.8364,-87.6630
-3328.1250,6.8717,21.7534,132.9543,76.7557,-112.7066,96.8923,2.2817,24.6575,-32.0849,22.9746,34.0016,-118.9008,-44.0353,21.0036,-182.6450,39.8195,132.1546,-37.9785,39.5373,-69.2971
-3320.3125,111.4089,21.5180,93.5259,111.0693,-114.3141,57.3505,0.1083,-13.7900,2.6003,2.2312,32.4019,-120.9027,-46.4460,19.6784,-112.1601,15.1940,95.6805,-38.6088,-66.7971,-34.6383
-3312.5000,84.6835,65.0175,-47.1428,118.1439,-179.1441,64.5675,-67.3233,-7.4772,-27.9774,-29.6648,1.5536,-77.1370,-3.1069,63.1041,5.0769,14.5411,33.9553,4.5190,-127.3948,8.7656
-3304.6875,18.7331,104.2999,-78.0109,87.0323,-209.1476,69.5961,-97.9685,34.6564,-95.7811,-53.8434,7.5055,-33.5427,40.0306,32.3373,84.1108,4.9979,3.0346,8.4574,-124.1965,-22.0365
-3296.8750,7.9228,58.7146,-51.7243,76.0811,-146.9702,58.7866,-34.4730,23.9582,4.5476,-0.8613,-3.3957,-117.7762,-7.6833,-15.2754,37.2954,4.4010,-7.7354,67.5491,-64.8557,-32.6983
-3289.0625,33.0960,84.1118,10.5638,31.1449,-120.7687,47.9939,-8.9903,13.2833,-44.1407,-12.1618,21.6928,-54.9822,-56.4058,47.1166,-85.5304,22.8392,17.4995,-12.3513,-39.5218,-7.3652
-3281.2500,139.4089,190.6390,-26.9863,-38.6273,-119.3824,10.3587,-9.3719,-61.2267,-44.7048,-61.4145,20.9315,91.9887,-56.9807,83.6660,-49.2144,-17.6508,-17.1086,-116.0991,-73.0425,29.1077
-3273.4375,104.6637,226.0975,-102.5764,-38.4335,-158.0132,-29.3207,-11.8119,-99.7691,-46.3311,-87.9752,-54.8814,199.9354,-22.6141,6.1632,21.0569,-72.8047,-16.7693,-116.8960,-72.6310,99.5224
-3265.6250,56.6563,179.2935,-79.4228,-49.4737,-133.8652,-42.2372,-24.5190,-113.5404,-97.2316,-116.4848,-31.9424,223.6621,36.5012,-42.5887,118.0788,-103.0567,-27.6799,-128.9426,-49.4805,122.6822
-3257.8125,28.8370,79.6725,-1.0637,-79.3016,-91.4881,-74.9445,-20.0353,-109.0935,18.0477,-56.2111,-27.8050,155.6156,41.8191,-1.1395,85.3054,-68.1964,-57.3867,-122.7854,-43.1412,164.0335
-3250.0000,-50.0592,36.9834,-84.7614,-52.1634,-100.1285,-47.6891,-66.6153,-44.6784,-28.7317,-36.2069,-0.7353,183.5501,-3.9188,98.2603,-33.5180,-1.8354,-65.1405,-60.6672,-15.8598,191.3296
-3242.1875,-40.3766,11.8778,-72.8596,-6.4105,-87.1416,-35.8184,-54.6105,-69.6381,-16.9403,-36.2708,46.9270,122.1189,-29.0640,37.2593,-58.7467,-26.2304,-55.2930,-15.9393,-5.9802,166.2194
-3234.3750,-92.0506,-4.6035,-52.3055,11.0030,-102.4782,-15.2909,-33.9639,-85.9269,39.4904,-24.2496,-42.7611,106.3642,-8.5675,20.9144,34.6721,-30.2614,-36.7952,3.4438,-57.4608,149.7520
-3226.5625,-86.4414,-33.8103,-44.4557,-18.2683,-93.4834,-44.4478,-26.0323,-77.8891,10.2003,-44.7387,0.8439,114.9454,71.2177,-8.1153,152.3737,-51.5659,-29.9966,-61.8671,-51.6470,120.5747
-3218.7500,5.8507,-10.3405,15.0970,-100.8171,-31.7575,-93.8933,33.5878,-127.1284,144.5931,-6.9352,24.1417,29.2590,95.6989,-56.4455,102.7692,-82.2975,-78.4979,-109.4723,5.8609,108.0834
-3210.9375,55.5746,38.5540,-41.9029,-120.8943,-51.5483,-78.8748,48.6526,-111.8921,159.4292,26.2285,38.8731,8.0463,-35.3794,-41.3280,-102.3854,-58.7065,-27.5543,-59.6194,90.8115,123.0343
-3203.1250,57.2350,75.3730,-39.9547,-119.0065,-48.3589,-76.8956,14.6551,-109.6826,124.1941,15.2234,40.5464,47.8203,-144.5168,-3.2619,-100.5933,-47.0385,-25.6581,-92.8076,92.7057,124.9281
-3195.3125,-24.4155,133.8643,-163.2982,-60.4085,-97.4330,-53.2108,-34.6481,-85.7549,110.6485,3.9006,-45.0817,109.3225,-156.9529,-15.4987,32.9018,-49.9870,-38.0681,-34.2957,46.2847,148.5137
-3187.5000,-62.6892,95.7295,-165.2347,-62.4015,-97.0760,-54.1179,-72.5622,-50.4022,-36.5125,-37.4371,-46.3125,109.2596,-47.9891,18.6719,67.7867,-35.1577,-6.0823,-2.3812,78.2547,110.4937
-3179.6875,-47.0228,6.5081,-72.2161,-47.4302,-40.7362,-36.0652,-17.5391,-31.0719,55.2554,19.2898,-28.5898,-17.8235,-30.0773,1.7979,-59.3868,-8.6840,9.8507,13.4837,60.1634,56.4122
-3171.8750,-130.9161,-41.2894,-50.7424,-25.9902,-53.9215,22.4514,-32.0828,27.7324,76.4605,77.7476,-79.4213,4.5736,-154.7292,60.3716,-221.1110,59.8885,31.2271,34.8066,116.5077,77.7733
-3164.0625,-115.8747,-27.1663,-70.3200,-10.5841,-36.1309,2.9333,-51.6918,45.5165,19.5849,57.4373,-27.3054,59.9604,-211.4320,40.8983,-167.8808,49.2988,47.5516,15.0814,131.7885,58.0785
-3156.2500,-51.4378,37.3297,-75.4954,-15.7619,-39.9114,-2.1777,-56.9128,3.7224,51.0938,29.9922,-32.7924,18.7830,-179.7320,-38.1685,-27.2543,-5.1639,42.2735,9.7536,56.4517,52.7735
-3148.4375,-57.1139,-3.2961,-7.7744,-21.0253,-43.7650,-7.3795,-62.2472,-38.1472,-28.5101,-16.2236,-38.3877,14.5482,-39.1426,-43.3344,4.2629,-28.9782,106.8874,4.3294,51.0032,47.3645
-3140.6250,-48.4513,-98.6006,77.2981,-81.9228,79.7591,-70.2247,21.7522,-63.6410,56.2170,7.2966,-27.6283,-84.3002,45.7874,-69.1520,89.1257,-39.8458,115.8479,-21.7476,24.8944,21.2991
-3132.8125,-98.4534,-79.5994,62.7224,-96.4541,102.6566,-84.7094,81.0896,-77.7584,114.2872,27.0679,-42.5215,-60.7656,31.0579,-46.6253,37.3380,-32.0717,101.1512,-36.4700,10.1254,6.5815
-3125.0000,-100.7239,-81.8902,23.8939,-63.2194,139.3266,-49.4302,42.1607,-42.0956,76.0849,23.7225,29.3246,-61.4443,29.0685,-11.3390,-1.7044,-8.1550,64.2079,-38.4343,8.1035,4.6113
-3117.1875,-108.1037,-125.3112,-23.0354,-36.0672,130.9204,-22.2390,32.1175,-14.5083,102.7664,37.8315,19.0699,-70.1880,18.9791,-21.1451,62.1504,-0.8369,-14.8377,-46.4964,-1.0343,31.5331
-3109.3750,-95.7948,-113.0543,-83.2685,-93.2000,109.2345,-46.3387,44.7573,-38.1951,41.1330,0.0946,31.5077,-19.1914,31.5868,-8.2462,74.6994,-18.9520,-2.1886,-33.8591,11.5092,44.1479
-3101.5625,-37.9953,-54.3336,16.0044,-103.8197,136.0779,-92.9351,70.8858,-85.3579,66.9792,-13.1289,130.4481,-65.6525,57.6935,-18.8523,26.7486,-44.0058,-13.0470,-79.7244,-34.4643,33.2539
-3093.7500,-42.7986,-58.2547,9.6776,-107.0277,95.3483,-62.1264,64.4094,-54.0982,60.2231,-8.8922,87.7894,-70.6844,51.1939,-25.0651,57.1961,-31.3804,-17.5108,-49.1863,-73.0524,63.7573
-3085.9375,-73.4637,-55.0633,-23.5012,-69.0684,26.7853,-22.1570,-5.9356,-12.6643,-10.3947,-20.5174,91.2758,-28.5236,54.8319,52.8788,60.7744,6.7735,-13.8282,-45.4931,-69.4920,67.4102
-3078.1250,-37.9837,-19.7571,15.4753,-66.9431,30.3909,-20.0276,32.8540,-47.0529,65.1178,-7.5902,92.9148,-25.1785,19.6105,-19.0253,99.4900,-28.3093,-11.9968,-77.6496,-67.7913,69.2041
-3070.3125,-12.2138,5.8076,6.7472,-40.4995,60.3165,-64.5864,23.9304,-91.1119,-18.0794,-60.1722,120.8427,4.4990,47.6819,-27.6293,127.5030,-61.1752,14.1281,-52.4967,-76.8057,60.2913
-3062.5000,33.7874,-19.4290,58.2709,6.2144,76.5095,-50.8812,1.2459,-149.8928,-78.0529,-97.4651,171.0200,-53.5350,62.0023,24.0229,140.7656,-66.1998,60.5020,-42.0856,-67.5792,0.6203
-3054.6875,33.3843,15.8965,21.3954,41.5405,78.3262,-50.5665,38.1541,-149.0541,32.5661,-51.2603,133.7920,-51.9390,24.9249,-12.7271,30.6270,-68.1189,25.4704,-42.0672,-67.7623,0.5403
-3046.8750,-5.2265,82.9944,-56.6758,39.6784,1.9612,-17.4469,-3.1494,-79.3886,-46.0301,-67.1052,129.3623,56.4979,20.6340,-53.6799,26.2752,-70.8856,-47.7633,-44.2454,-35.1552,33.2551
-3039.0625,32.0087,153.9028,-90.8931,6.6778,-67.5367,-15.4729,-1.6186,-76.8467,29.2086,-50.6251,130.7849,-14.1785,22.1870,-51.7899,101.7716,-72.9556,-81.1568,-42.5706,-68.7118,34.8145
-3031.2500,24.5317,77.0625,-134.8152,-0.0052,-109.7197,-23.1920,-9.7966,-118.9797,57.7507,-41.4377,86.5047,-20.5236,51.0287,14.3992,130.5650,-62.1583,-17.2650,-48.5940,-4.9792,63.6712
-3023.4375,78.5437,-11.3228,-42.2420,-16.1735,-124.3884,-75.4038,10.5132,-134.5872,40.7821,-48.5051,142.7225,-72.3293,108.3676,35.0881,149.8481,-63.3803,1.1197,-99.1188,13.2508,47.0262
-3015.6250,94.3964,4.0904,-25.8179,-34.4799,-180.1923,-58.7687,26.6666,-81.3295,93.6584,-8.0361,122.7899,-90.2559,50.5515,14.6242,92.9763,-40.9617,-17.6513,-82.7938,-5.6813,63.2272
-3007.8125,61.0394,40.2505,-23.6015,-31.9826,-212.1909,-20.3494,-44.3985,-5.2850,-15.6782,-17.0418,124.6489,-50.3547,15.5181,16.9489,20.8912,-13.1865,-15.6324,-46.6733,31.1815,65.2237
-3000.0000,14.9890,29.6655,4.9197,-6.1770,-219.8768,-28.6458,19.8267,-12.9499,49.2775,10.1501,78.8158,-130.1174,6.7800,8.5824,122.1015,-7.9031,-26.3114,13.7508,21.3480,19.5209
-2992.1875,-33.9599,-54.8632,-7.4602,16.7345,-230.4493,-3.8409,44.1481,-24.4921,73.3356,36.3603,-7.9225,-140.7580,-5.8609,-3.6853,73.4092,1.0383,32.0985,106.2763,78.6015,6.9167
-2984.3750,-29.1235,-86.6495,71.9529,21.4607,-185.2154,-34.2174,50.2525,-54.1901,5.1753,14.2064,-38.8604,-133.5638,0.2973,2.8479,42.5122,-5.0483,71.3026,146.5975,117.6478,-23.8943
-2976.5625,3.4604,-89.7351,144.1219,-50.0511,-148.2210,-72.8356,48.0953,-92.1042,75.7562,16.8460,32.9500,-133.5876,71.2029,-35.8707,40.3624,-36.4377,104.2522,108.6652,80.4308,-25.9682
-2968.7500,106.2357,-21.6624,142.4936,-16.3468,-185.0210,-74.2415,9.1311,-92.7924,-73.4708,-61.9533,140.9593,-96.3796,106.2982,-0.3909,38.3943,-49.5237,32.3979,106.9336,8.4087,-27.8471
-2960.9375,180.3626,-19.2906,109.2161,22.7258,-216.4642,3.7132,-24.4916,-51.0986,-70.3611,-64.8101,181.3278,-163.7883,109.7396,-70.5683,77.7682,-59.7672,-34.1118,146.5549,-59.2696,-24.3783
-2953.1250,132.4915,-102.9662,95.9356,-23.1872,-153.9060,-9.3219,72.8776,-100.3771,-10.2484,-31.3960,93.6979,-211.1642,133.1772,-83.7453,65.1495,-66.2502,59.3660,99.1827,70.0425,-0.9117
-2945.3125,60.2662,-211.0312,133.2990,-59.4354,-79.6969,-82.6958,145.8819,-171.9736,26.4991,-30.6283,93.7129,-172.8531,170.2622,-83.2635,138.1777,-92.3178,128.4815,27.4640,138.9996,-37.8002
-2937.5000,14.7380,-187.4423,121.3612,-69.9681,-15.7873,-130.3619,170.5805,-181.8412,160.9405,9.4537,45.4278,-181.8166,121.0418,-95.0796,162.8962,-92.4188,82.2933,17.4532,57.6455,-12.9965
-2929.6875,-0.7953,-132.9061,67.4268,-48.4844,-30.8777,-74.0155,79.2705,-124.6794,106.3811,-3.0108,27.1359,-87.7506,66.8131,-74.8965,108.6019,-70.3662,33.1025,-32.5523,7.2814,42.8044
-2921.8750,92.9686,-146.1205,53.7942,-59.6826,-5.6712,-123.3584,65.2505,-137.1904,92.1120,-25.4662,87.1472,-62.3578,89.8823,-51.4123,131.6010,-83.5216,-14.7888,-149.2542,-4.7905,65.9009
-2914.0625,68.4854,-65.6229,27.9150,-82.1224,7.2861,-148.9470,75.9763,-161.9308,102.5967,-25.7306,60.9096,-13.1913,63.6934,-40.1873,105.3530,-92.0932,-3.9400,-173.2087,40.8779,76.7447
-2906.2500,129.2493,-6.9159,19.2784,-126.2995,73.4861,-157.2807,66.9414,-169.3964,56.3251,-47.5818,51.9203,17.2567,91.7474,-48.7168,59.3589,-105.3530,22.1500,-181.9110,67.7878,67.8370
-2898.4375,170.7626,-106.5159,100.3984,-153.7158,193.4295,-186.8612,73.6484,-198.0892,136.7962,-24.7418,58.6858,-10.5202,61.5548,-114.4947,66.1059,-126.5845,-6.0168,-104.8594,38.4417,74.6725
-2890.6250,72.1760,-206.2653,70.4173,-146.2215,202.2689,-142.5350,6.2514,-115.8559,32.1722,-22.3436,65.3446,-1.3690,68.2580,-34.3672,35.7324,-63.4846,-34.2901,-61.9073,80.9899,81.4052
-2882.8125,125.9404,-188.7171,93.7934,-161.3666,263.4530,-118.8520,-7.8027,-92.2543,-19.1119,-39.8014,88.3588,-12.8443,17.3115,-48.8916,58.7003,-63.5549,-50.2194,-78.6084,64.8905,30.4858
-2875.0000,138.5616,-141.3621,72.0209,-146.6532,353.4788,-104.3180,43.9924,-112.7872,69.4621,-17.1104,-7.7771,78.5471,-4.7863,-106.5702,-0.4727,-85.2345,-72.3064,-100.4608,42.6310,8.4125
-2867.1875,79.9767,-97.2484,12.0393,-100.1230,406.2877,-90.9785,20.5765,-98.5002,-28.1657,-46.2545,-31.1080,167.7629,8.9082,-56.4518,-23.8466,-68.0967,-60.6034,-53.5098,54.1666,-14.8594
-2859.3750,34.0475,-73.5329,76.7065,-73.9334,472.7289,-61.9871,47.8003,-142.5473,-0.1484,-46.7829,-39.7792,124.6525,0.2456,-64.6823,-32.5788,-74.6816,-0.2489,-27.9088,8.3478,-60.4833
-2851.5625,10.9709,-134.0186,126.2269,-60.8883,524.0084,-49.1479,23.8719,-91.7292,-25.2697,-35.1169,-27.6019,102.4110,-24.5699,-89.0695,-57.4689,-56.0722,-23.0498,-15.4579,-14.6248,-48.2587
-2843.7500,19.7907,-126.6469,100.6395,-85.9336,537.1683,-37.4024,-2.1650,-41.9918,-88.4977,-58.8633,-16.5253,190.0919,-13.4872,-151.5548,-46.4581,-72.9169,-83.9589,-6.0988,-40.6927,-74.1385
-2835.9375,-0.8373,-77.7653,6.6004,-70.4216,592.8628,-20.1026,13.3420,12.3125,0.8241,-23.0313,-73.8970,245.3307,-33.8539,-207.4978,6.1139,-72.8912,-104.3241,-61.1871,-96.2146,-94.4743
-2828.1250,-1.3037,-44.7792,-66.2856,0.2488,704.6871,16.3442,-60.0021,13.7799,-72.7030,-59.1447,-111.1120,358.7385,-34.0727,-171.2978,-30.1752,-68.7064,-104.5440,-132.1252,-132.5890,-94.6572
-2820.3125,7.1478,-37.9323,-57.2661,9.8254,789.3885,-10.3098,-88.4561,61.1582,-64.3377,-39.3411,-65.4176,333.0706,-99.3947,-125.1949,-58.5804,-29.3053,-95.8624,-123.1689,-194.0635,-85.9425
-2812.5000,-24.4486,-1.1716,-90.2966,14.3599,831.0178,-6.0129,-158.9676,103.4947,-98.0120,-34.2125,-61.7810,376.3700,-132.7717,-121.1446,-92.0341,-14.1205,-128.2307,-83.2622,-155.5892,-82.2777
-2804.6875,-15.0566,-28.4563,-40.3301,-10.0971,993.6238,-29.7105,-145.4777,118.8473,-158.6862,-54.4383,-49.1475,428.6824,-82.1445,-144.0963,-78.4890,-22.5898,-152.6051,-108.3545,-145.1186,-142.6118
-2796.8750,-33.9558,-84.0840,-21.6648,43.1519,1197.9071,26.2873,-127.2878,137.9053,-140.6540,-36.4153,-103.8033,449.7005,-137.8150,-125.3559,-134.2313,11.3767,-171.2876,-56.7478,-234.9535,-161.2467
-2789.0625,-157.0922,-68.0005,-37.2514,96.1562,1330.9121,84.0332,-217.3522,270.7211,-230.8656,-13.4773,-120.6988,546.4799,-153.7375,-30.8666,-298.2230,103.2634,-154.2281,-74.3964,-253.0477,-214.1250
-2781.2500,-107.8142,-21.5538,53.5615,146.5664,1534.2841,139.1785,-237.0233,326.9449,-287.6772,-8.9152,-66.1825,529.6704,-210.2603,-86.9733,-463.8241,117.2947,-140.7755,-94.6530,-273.7425,-270.5990
-2773.4375,-56.6746,-42.2921,33.2242,198.8324,1699.4794,156.1691,-257.8426,345.0186,-271.6262,5.6891,-12.8154,548.7134,-267.9369,-144.2333,-484.5763,110.0738,-159.4754,-78.0638,-257.5869,-254.2182
-2765.6250,-60.1354,-82.6619,-40.7225,232.5024,1736.0386,191.5612,-333.2647,455.5013,-384.1789,-1.6685,-15.0448,586.1675,-269.2143,-71.0981,-412.9308,170.2092,-197.7751,-11.0690,-261.0283,-292.4335
-2757.8125,-150.3391,-33.8195,-59.4168,283.4299,1609.8127,248.2008,-314.4433,623.2385,-291.4773,95.5175,-106.0127,607.8740,-287.2343,-15.7217,-432.0334,267.1518,-287.8281,5.1737,-281.2201,-347.3985
-2750.0000,-282.1314,43.3899,-120.7166,364.7641,1511.9508,296.2412,-377.2243,820.3828,-391.3633,138.8880,-168.5768,768.9805,-349.8587,70.0493,-566.7416,372.5031,-313.4841,-20.1821,-237.0123,-372.9594
-2742.1875,-286.3147,2.1687,-51.4170,361.7060,1436.6489,329.8873,-381.4063,965.1345,-395.6507,194.0474,-135.5357,841.6911,-353.8899,102.4240,-644.8582,446.8622,-317.5418,-23.9353,-241.1995,-376.9187
-2734.3750,-326.9941,-5.5836,-93.6121,392.1530,1395.8108,325.0293,-387.0869,1071.3871,-401.4256,230.8245,-140.9951,838.8984,-359.4217,97.3005,-613.4730,489.1761,-323.0992,75.8083,-246.8909,-382.3780
-2726.5625,-380.0190,45.2814,-109.1629,481.2516,1270.5823,383.8211,-440.1190,1167.2941,-491.5447,223.7627,-193.8005,898.7552,-375.2998,155.8214,-592.4393,541.4003,-376.0091,129.2029,-299.9280,-435.1866
-2718.7500,-352.7816,-0.6314,-116.4656,544.6048,1191.5652,412.8588,-447.9063,1198.4579,-425.4156,252.2009,-349.3438,893.8521,-382.9235,148.5867,-454.1489,554.5744,-418.6713,86.8483,-342.7109,-442.7482
-2710.9375,-374.5770,-59.6197,-177.8234,558.9093,1204.4556,425.8428,-473.7399,1138.5713,-377.3177,259.2100,-520.9360,944.8918,-371.5920,270.2851,-405.9085,576.7966,-476.3848,-5.5548,-294.5383,-394.3583
-2703.1250,-377.5114,-64.7882,-182.3318,451.0656,1164.1566,347.6734,-441.7188,1098.5338,-345.3653,254.8347,-524.6723,1016.7739,-302.4041,302.8327,-410.8252,561.5401,-479.2483,-44.1092,-262.5089,-362.1158
-2695.3125,-379.3831,-32.9305,-184.7850,451.2744,1162.8644,345.5521,-407.6407,1061.5419,-311.3524,250.0308,-490.3547,1053.6942,-342.1657,264.4313,-485.6930,539.0500,-445.0602,26.3899,-333.4322,-327.8228
-2687.5000,-401.5012,-58.3431,-97.4854,535.2410,1104.2758,359.1802,-394.8156,1039.2963,-409.5813,220.7352,-441.2856,1069.3525,-329.1830,314.7784,-472.8102,553.8569,-362.1185,109.6406,-320.6027,-314.7776
-2679.6875,-339.4553,-68.6287,-33.0337,599.3562,911.7886,423.9566,-403.8361,1031.1954,-418.6562,205.5596,-378.0578,1062.1469,-265.0408,452.2652,-336.7657,596.0279,-370.0237,137.0344,-399.6133,-287.5808
-2671.8750,-307.2414,-3.7858,-76.4341,596.6198,538.4048,454.8731,-409.7021,1063.2374,-387.5615,231.5696,-382.6754,1022.0706,-271.7393,482.8915,-306.5594,614.5936,-337.7793,134.5749,-332.4677,-220.2289
-2664.0625,-216.5655,-21.5041,-56.3897,512.3283,302.4207,365.2339,-353.1204,974.7227,-368.0075,197.2491,-290.8335,970.4352,-251.9848,355.9658,-286.9094,516.8089,-318.0841,83.5590,-277.8570,-200.4205
-2656.2500,-186.1737,-28.5352,-62.6463,402.7311,76.0850,286.2855,-322.8284,822.9040,-301.7358,152.4409,-223.2776,819.4814,-221.5387,312.7383,-182.5614,429.9529,-287.6876,114.2367,-316.5455,-169.9091
-2648.4375,-188.2249,1.9747,-100.3562,401.6911,-145.7515,284.8867,-324.9898,748.6284,-339.8983,114.1625,-262.1677,746.0591,-149.5490,422.0606,-147.6713,429.2603,-289.7453,112.4634,-284.6813,-171.8390
-2640.6250,-136.7601,15.9642,-47.5637,384.1516,-311.1423,264.9854,-272.6528,693.8466,-251.5583,136.9395,-245.5520,581.1185,-133.0487,401.8805,-94.2757,407.8535,-238.2980,94.1867,-233.3090,-155.2660
-2632.8125,-137.2804,-57.0587,-86.7706,384.6033,-496.5859,299.0757,-202.3029,692.0522,-181.1979,172.7615,-283.9319,507.1487,-136.5349,398.6887,-97.8642,417.5849,-272.8468,129.9088,-197.9298,-84.6877
-2625.0000,-175.0356,-132.3345,-128.2304,347.8031,-684.3336,331.9076,-206.2015,725.9940,-185.0821,191.8968,-214.5534,431.9055,-104.2612,395.2387,-28.6980,429.4597,-275.6376,197.3796,-95.7894,-52.3538
-2617.1875,-138.8197,-134.6629,-163.7296,278.9525,-831.1880,294.6826,-98.1462,689.8692,-2.0049,241.1340,-178.2105,286.5856,-31.0369,357.7327,117.4135,405.6425,-239.4717,198.8011,-94.6970,-16.0662
-2609.3750,-91.5912,-124.9891,-190.2234,222.0998,-967.1016,232.4531,-51.0843,554.7333,8.0826,195.8184,-58.8621,189.2398,-20.8095,331.2191,127.5230,332.6248,-192.3002,175.2256,-47.5999,31.2280
-2601.5625,-82.4018,-83.3702,-217.7711,161.1927,-1141.1191,168.1709,-5.0633,418.5374,91.1249,176.1380,98.4400,16.8147,25.3775,267.6579,136.5905,250.6272,-112.1746,184.5975,-3.5459,40.4732
-2593.7500,-126.9960,-60.5523,-192.1172,117.4748,-1298.9897,158.0799,57.1688,298.5282,152.3895,171.7611,86.9474,-102.4476,13.7719,182.2927,125.8759,182.6287,-52.8504,210.1646,92.7092,65.9210
-2585.9375,-58.0236,-30.1796,-194.9160,45.2992,-1486.3684,117.5294,89.9543,223.0507,75.2147,112.5825,120.0179,-177.1873,46.7276,105.4697,231.7175,110.5809,50.0300,243.2768,160.5230,98.9252
-2578.1250,129.8220,16.0458,-145.8567,-10.0316,-1656.9526,56.8183,139.6003,89.4030,161.9037,85.3983,169.9545,-309.1143,96.5403,81.4837,281.4070,39.9766,98.7697,186.2367,138.1986,111.7852
-2570.3125,191.9383,75.5342,-154.5464,-18.1177,-1776.3469,12.3509,166.5038,-65.0114,151.8614,21.8556,123.1464,-390.8301,123.6026,35.7391,198.3449,-45.4877,89.7659,143.4449,130.1331,138.9016
-2562.5000,211.0140,20.9843,-100.2885,-103.2631,-1905.8547,-44.1728,183.3577,-266.4932,131.7763,-57.4628,140.2938,-554.6283,140.6269,-93.0520,252.2435,-176.6823,143.7229,91.6014,184.0305,192.9709
-2554.6875,175.1103,-86.5555,-143.0298,-209.4187,-1984.4236,-122.7035,251.2232,-454.9937,236.7139,-80.8334,99.4502,-668.4759,208.6589,-208.8480,393.1565,-289.1697,248.6830,91.7521,252.9371,298.0428
-2546.8750,202.7715,-133.5310,-81.2224,-217.0332,-1996.5114,-170.6895,312.6447,-611.9660,225.2145,-123.8007,198.1597,-751.8117,307.2505,-221.0971,381.6282,-353.7466,346.1985,48.4524,350.4048,359.6729
-2539.0625,330.7015,-112.2398,-20.1624,-262.3997,-1972.4082,-256.4349,410.3262,-770.7111,395.9742,-112.3682,222.1338,-836.9368,331.0982,-234.1071,368.3550,-411.9474,369.9729,72.4020,338.1338,383.5574
-2531.2500,277.2515,-98.3247,-3.4985,-316.1711,-1991.7657,-276.5926,389.6193,-826.8826,412.3561,-110.1862,164.7161,-855.5057,310.5532,-253.5229,347.6843,-434.1142,386.3581,158.9486,425.4642,400.0478
-2523.4375,305.5704,-142.6303,65.9141,-357.1991,-1923.4348,-281.0103,421.6690,-867.3326,443.4937,-96.8540,160.0633,-931.3632,268.7683,-259.1920,342.7651,-440.2682,414.5068,152.2444,488.5523,358.2927
-2515.6250,303.7112,-147.1091,64.1323,-358.4386,-1815.3701,-282.6352,419.5245,-905.0056,478.4473,-95.5606,121.2206,-968.4734,266.7928,-297.0654,340.6620,-462.1735,412.4609,150.3387,486.4474,356.3413
-2507.8125,200.9708,-111.4576,31.4485,-319.5859,-1737.2760,-242.1632,349.4864,-936.5977,372.5138,-149.1783,125.4805,-999.5332,344.9194,-329.8427,307.6679,-490.9017,449.5175,152.5281,489.4537,323.5017
-2500.0000,214.5425,-206.4804,122.0597,-340.4445,-1536.9480,-298.3975,439.7555,-991.9092,425.8859,-138.8134,142.0514,-1091.3361,325.3565,-423.3231,287.9838,-532.2343,463.8847,96.0095,502.7684,266.9709
-2492.1875,273.8770,-255.7167,108.4242,-387.5604,-1402.9318,-347.8915,462.7866,-1004.4979,412.0341,-143.0448,165.3804,-1103.4398,237.5511,-363.0637,237.0450,-514.6362,452.0136,49.2409,490.8423,290.1999
-2484.3750,325.3264,-311.8078,162.8867,-440.5853,-1348.8794,-403.2930,369.9245,-985.0161,320.2913,-190.1923,330.8159,-1046.4863,292.8480,-308.7082,255.2040,-511.6705,397.2567,-4.4218,437.0313,271.5370
-2476.5625,385.6970,-253.9598,188.2539,-414.7209,-1286.9912,-377.8029,358.9684,-995.6658,381.4683,-187.6412,282.1609,-1019.6928,281.0539,-283.4576,280.2830,-506.1202,317.4096,-50.1870,321.1272,296.7776
-2468.7500,315.2776,-186.8699,112.8180,-414.6675,-1252.9673,-343.1255,282.2220,-960.1395,342.8611,-199.8931,242.7111,-910.7525,315.4728,-286.0081,314.5785,-502.4186,280.7650,-15.7620,320.4337,331.2256
-2460.9375,279.3200,-119.2840,113.8308,-380.1812,-1178.5562,-342.0091,282.9336,-958.1866,379.7177,-185.2119,243.7184,-908.4117,316.3565,-358.1117,315.3309,-521.2567,315.5745,54.1082,319.2026,295.1288
-2453.1250,183.0807,-111.9425,88.5453,-334.0131,-1057.5048,-294.2046,331.3640,-945.5662,428.3029,-141.9498,181.4320,-858.4337,290.9430,-310.5269,142.7894,-477.0920,325.0915,98.6768,328.6834,269.7404
-2445.3125,208.7693,-159.6373,116.1558,-343.9543,-846.6255,-302.5101,321.6963,-843.0769,345.7957,-130.8064,173.0774,-829.6097,208.4339,-282.0478,97.1484,-423.7589,314.5179,53.1456,318.0705,224.2586
-2437.5000,289.9504,-185.8118,92.2162,-367.4554,-687.3693,-326.3718,371.4763,-829.1772,432.7419,-99.4053,149.2050,-852.3988,147.3875,-269.1282,182.9738,-411.9073,255.4075,-40.9391,293.9137,200.2258
-2429.6875,223.5594,-184.5170,59.6763,-363.5668,-610.7817,-359.8399,337.6657,-750.9102,362.1068,-99.3731,152.7416,-736.8561,187.7455,-229.8146,149.2036,-376.5410,258.7028,-72.6277,297.1666,203.5954
-2421.8750,228.1892,-182.1651,101.1358,-323.6886,-495.2588,-353.3146,306.8643,-744.6689,331.4825,-106.7272,233.2910,-729.3829,231.1081,-223.5069,118.4301,-371.7776,298.0041,-103.3163,301.4406,172.9713
-2414.0625,221.2388,-120.3580,130.9938,-294.4255,-429.3973,-286.4007,262.4713,-677.0586,361.2835,-68.3528,189.2522,-735.5814,149.8857,-230.8099,74.0719,-332.5707,326.7108,-75.6093,259.1240,165.7564
-2406.2500,216.9531,-92.8411,128.4951,-263.5257,-359.9522,-252.8458,222.7352,-605.8314,210.7468,-96.5819,186.8739,-664.1884,110.3234,-159.4635,34.3737,-284.7324,322.0787,-45.2545,254.4725,126.1993
-2398.4375,260.6930,-87.2582,138.0049,-255.6395,-277.5652,-243.3000,232.0140,-558.6454,257.2224,-75.9186,159.5022,-653.8546,119.7710,-187.1252,80.6817,-276.2472,223.4653,-36.9057,191.8289,98.6463
-2390.6250,206.1471,-72.9107,117.2230,-274.0638,-226.5399,-227.0639,211.0071,-541.7942,236.4173,-85.7492,101.8325,-563.8854,135.9203,-171.0996,133.6993,-269.6474,169.5634,-56.8595,172.8928,114.8044
-2382.8125,213.8061,-66.3057,126.6395,-301.3079,-144.3741,-254.6356,183.2126,-494.7723,171.8254,-111.4313,184.3666,-479.7795,145.2809,-88.8770,178.9325,-237.3658,176.8711,-119.6177,75.1697,87.1757
-2375.0000,263.6732,-19.4482,142.2548,-252.3760,-94.0625,-202.0226,161.6389,-479.5876,187.4550,-100.4255,163.1126,-427.5453,86.8609,-37.4491,84.3857,-205.9000,155.3886,-106.1801,17.6562,65.7567
-2367.1875,264.6888,-55.3810,181.0205,-250.3092,-55.6568,-163.2695,164.2260,-439.2891,116.2499,-96.4219,166.0104,-424.2204,89.6042,-35.8641,12.9989,-182.3017,192.0714,-70.5913,89.3038,31.4990
-2359.3750,212.0620,-109.8958,239.1429,-232.9016,36.0465,-142.1737,222.1764,-417.6823,174.4124,-65.9767,150.2622,-439.6102,109.7096,-88.9386,69.9670,-181.1339,174.1220,-88.6564,71.3149,-21.3985
-2351.5625,137.4474,-80.3323,159.2691,-166.5099,28.6911,-111.0885,179.1409,-386.1169,94.6049,-88.3824,144.5148,-371.0686,103.8200,-58.0259,100.9563,-165.0445,134.1839,-57.7245,67.3328,9.7187
-2343.7500,188.0405,-102.4922,100.5868,-151.9349,5.4736,-96.8181,119.3114,-298.3902,73.0076,-70.0552,158.9754,-356.3927,82.1426,-6.9069,152.1667,-120.4922,113.4531,-112.5960,81.5645,24.0503
-2335.9375,142.5474,-149.6781,51.7994,-161.4775,29.0983,-71.6593,108.3950,-272.7989,208.3275,-6.1834,74.3511,-330.8836,70.3807,-18.8936,177.2899,-103.1028,103.6250,-158.5714,106.7018,49.2920
-2328.1250,48.7769,-175.0978,-11.2923,-150.3365,38.3675,-60.8070,82.1892,-224.5419,145.3736,-7.9051,85.4391,-246.7404,81.3317,-8.1769,151.1119,-84.2816,114.5083,-147.8571,152.5497,60.2452
-2320.3125,121.5172,-137.9459,30.1193,-147.7159,151.0856,-93.4692,86.5052,-256.8199,149.9376,-28.0049,163.0317,-205.1715,48.7879,-3.9724,118.4364,-100.6598,116.9027,-180.6418,84.9154,27.7136
-2312.5000,138.3169,-52.6602,9.5870,-131.0707,165.8068,-77.0968,28.8842,-240.0837,93.5723,-45.7550,106.6734,-114.6320,28.2942,49.2651,24.8244,-81.1379,63.3575,-164.3728,66.3442,44.2462
-2304.6875,96.4147,-60.9853,39.3570,-138.1511,193.7745,-48.4357,21.5766,-173.0839,-24.4722,-59.8618,99.6183,-85.8563,21.1125,78.8015,17.5337,-46.0153,56.1187,-171.8074,94.0826,37.0893
-2296.8750,59.8682,-98.8832,37.4764,-104.8955,190.0408,-14.4349,93.6213,-174.7771,84.8392,-12.1601,23.9252,-123.7980,-17.7028,39.7033,89.6151,-42.2635,54.2518,-138.8952,92.1808,35.2859
-2289.0625,21.7322,-103.2933,-2.9918,-72.2450,110.6625,-18.0388,53.0856,-142.1159,7.5620,-39.0552,57.6376,-17.4172,15.8922,36.0070,122.0930,-45.5118,50.8081,-106.5805,88.6864,31.8837
-2281.2500,31.5662,-129.6463,45.4896,-97.6620,120.1894,-43.7027,100.5142,-130.5439,19.2485,-42.5665,105.3003,-43.1572,100.4422,10.2535,170.5202,-54.1479,25.3255,-98.3256,28.1555,6.4354
-2273.4375,-37.7299,-94.0483,118.8207,-61.2502,80.5191,-7.5303,100.7991,-131.1615,55.7944,-18.0463,31.8205,-44.1182,100.8588,9.3351,132.8199,-40.1466,26.7004,-96.2228,29.4808,42.8447
-2265.6250,-18.1239,-75.4577,103.0450,-7.9545,62.6965,13.5336,47.9915,-109.9134,-70.7415,-58.3432,53.2495,13.7509,121.1852,67.3148,154.0355,-22.6919,45.9839,-78.2208,48.7169,27.1627
-2257.8125,117.1334,-117.1162,97.9078,21.9704,56.4762,9.2422,43.8447,-151.0541,-0.6099,-41.4755,85.3249,8.2035,80.1631,62.9502,112.9088,-36.3651,109.9293,-84.5667,77.6206,-13.8611
-2250.0000,137.4510,-98.6092,81.8116,40.9230,75.2700,29.9826,27.7651,-93.1853,-16.4126,-16.6166,69.4527,101.6419,-8.8053,82.6319,-50.1581,-0.6081,129.9348,-65.8621,96.5753,-29.8320
-2242.1875,112.4821,-123.2965,129.4141,51.5647,120.7253,3.4125,1.3910,-82.6604,-5.5032,-20.0181,80.2944,111.7126,1.9299,20.0101,-2.5268,-20.8633,104.6541,-90.4600,37.2352,-19.0962
-2234.3750,77.1347,-89.2722,90.6200,-20.2151,152.7370,-36.5631,-1.3768,-85.5708,29.0147,-23.9153,41.7430,71.3089,36.2655,-20.0140,141.7153,-44.1279,68.9771,-91.4628,1.5086,15.2474
-2226.5625,17.1965,-44.7321,101.2171,-45.6201,161.0985,-62.1481,10.2652,-74.1129,-33.0554,-47.7785,53.5900,82.2343,84.0048,28.3632,190.3755,-30.8120,78.7031,-82.0674,-23.8053,-10.0020
-2218.7500,67.8586,-99.4834,118.4047,-30.4403,213.0258,-45.1397,63.5159,-58.0913,57.4890,-4.2623,34.0380,24.6883,101.3542,45.3369,133.6408,-2.6049,94.0348,-67.0708,-79.5038,-29.6453
-2210.9375,93.9837,-108.6846,107.0383,-4.8204,236.3688,-19.6897,53.2232,-32.6659,47.4996,19.1700,22.9465,49.5270,17.1697,33.7591,-24.6212,15.1213,84.8240,-5.6362,-17.7539,-3.8347
-2203.1250,76.4672,-91.4273,126.0252,-22.8646,290.0286,-0.8989,-1.7137,-14.9333,29.8639,19.4703,5.2108,104.6506,-37.6575,15.5254,-5.5156,16.1415,101.9736,11.1471,-0.6488,-21.6670
-2195.3125,42.0126,-56.0066,89.0616,13.1164,360.7109,-1.0746,-1.5870,-15.1929,66.2818,26.0439,-31.4652,103.7523,-74.4350,15.3364,31.6387,19.5072,102.1876,10.9797,-71.4774,-21.4420
-2187.5000,10.8707,-87.1816,56.3990,16.3706,398.6573,2.0389,1.8469,-12.1850,-2.9875,-1.6238,-27.8378,143.0838,-33.9077,18.4400,35.1008,14.9346,105.7134,-20.8871,-67.9921,-17.9120
-2179.6875,44.4766,-88.5051,90.4802,-21.6367,431.3280,-37.0996,0.0386,-50.4627,-4.4976,-25.6631,7.5355,140.1008,38.3788,16.3030,33.3139,-9.0825,103.9976,-59.0136,-104.7425,-19.6302
-2171.8750,65.2403,3.4300,110.7080,-36.5025,412.1160,-54.0912,-16.6132,-30.6265,-94.8500,-50.0605,28.0691,196.1949,-15.1842,73.3242,-94.3232,12.7988,124.4430,-73.9932,-119.3369,0.8062
-2164.0625,80.8116,19.2784,127.7365,14.4162,426.6732,-0.2932,-73.4586,-15.0300,-186.3946,-86.5059,45.4131,211.0169,2.0531,126.1344,-77.1490,32.2588,104.6958,-59.1680,-173.1292,-18.9489
-2156.2500,49.8889,23.7430,94.2686,52.8073,390.7125,2.9895,-69.7945,-11.9737,-110.4366,-64.6068,12.2624,140.2785,42.8013,166.4291,37.5473,51.3073,73.4588,-19.8428,-240.4201,-15.1963
-2148.4375,-41.1249,-31.7689,35.7040,67.0738,365.6312,17.1564,-92.2255,1.9341,-131.5690,-60.0145,-9.9837,190.3877,57.4520,217.6273,88.1573,74.6558,53.1310,29.3781,-190.8107,-0.5368
-2140.6250,-35.4331,-96.4593,41.8358,71.0246,369.2285,60.0127,-85.9546,44.4992,-51.9987,-9.5904,-3.5203,121.1315,62.8140,149.5306,57.4667,79.4020,22.5134,33.2964,-151.4999,-31.1690
-2132.8125,-80.4861,-104.7974,-6.7827,96.2055,355.0521,85.1120,-60.4283,106.2792,10.8273,50.1077,-14.7902,145.0486,-21.5632,100.6811,-100.9560,99.8095,-21.8521,23.4649,-90.9349,-5.5474
-2125.0000,-96.0878,-84.5677,14.0496,149.8139,373.3123,104.6435,-76.4423,162.4712,-78.8865,45.1504,6.3954,200.3527,-74.4753,121.2717,-225.9177,129.8300,-37.7649,7.0772,-71.9188,-21.4713
-2117.1875,-127.0804,-114.6268,17.4831,153.0005,374.1656,107.7620,-35.8460,165.2265,-0.9978,68.8941,-63.8171,166.1992,-33.7834,124.4534,-113.2831,138.9911,-70.0671,45.2878,-138.2937,-17.7902
-2109.3750,-211.1175,-92.6352,-34.1310,138.1238,356.9610,129.8265,-50.2886,149.8928,-89.1478,27.7836,-115.0808,185.9363,25.8477,183.5813,-16.7011,143.8405,-84.4006,65.4551,-117.7126,-32.1531
-2101.5625,-154.6604,-105.0278,-46.2504,124.7346,305.2430,154.3873,-62.2279,174.0245,-63.7868,38.8544,-52.8418,135.1117,12.9720,171.2136,44.3857,143.5577,-97.2266,16.1223,-95.6218,-81.0100
-2093.7500,-86.2027,-70.2947,-124.3797,121.3284,225.5127,149.9403,-66.1610,243.1218,6.5804,83.4937,-56.6008,93.2299,-26.8920,129.8422,4.4885,155.4184,-135.0533,13.7850,-98.5296,-47.8652
-2085.9375,-82.2922,-65.0022,-122.0581,124.3509,187.2212,150.9305,-64.6429,280.6378,-65.5939,72.2477,-17.9129,92.7332,-25.2953,57.9239,-67.9442,141.5417,-131.4247,16.8925,-59.9835,-9.2701
-2078.1250,-118.5292,-100.7577,-89.8931,86.2065,216.7747,109.7627,-32.2617,237.9700,4.0867,84.2198,-59.3779,123.0353,-29.8456,52.8595,1.4802,126.4250,-168.9404,13.8530,-62.5797,23.1758
-2070.3125,-106.6645,-52.3049,-114.6199,62.1523,188.4206,46.6900,-20.7803,211.3679,-58.1290,56.2944,-47.7393,169.3863,-55.2980,100.8982,-60.9932,125.1461,-87.3478,24.9049,-51.0762,34.7291
-2062.5000,-74.9522,-17.8829,-80.5040,58.9355,184.9072,82.4669,-58.4564,209.5824,-58.4950,49.5592,-48.2472,129.5421,-55.9061,62.7904,-24.6104,109.9592,-89.9002,21.7989,-53.7267,-2.8562
-2054.6875,-174.4855,-45.5927,-111.6453,98.4524,187.1325,86.9819,-53.3825,250.5142,20.8803,94.6862,-151.9939,132.4039,-50.7626,67.4327,17.5324,136.7800,-119.7056,-8.5614,-83.6316,2.3158
-2046.8750,-196.2608,-100.4382,-135.0430,110.7003,197.1108,99.2321,-77.5540,262.1570,-76.9908,63.1295,-66.9987,179.9702,-74.8591,115.8219,-6.5683,150.6587,-106.7600,-67.1751,-70.7868,15.2419
-2039.0625,-64.2919,-71.4342,-107.6959,101.6806,222.8455,90.2270,-85.9702,215.5246,-48.1073,51.5416,-1.2604,205.2318,-83.1986,70.9556,-88.9116,113.1083,-80.0622,-76.0369,-79.1874,6.9233
-2031.2500,-143.4376,-79.4324,-82.4542,125.5507,246.4842,115.1201,-96.4815,203.7633,-95.3277,49.3991,-48.6217,192.3517,-93.6434,95.9990,-135.3519,128.1490,-55.4557,-15.9973,-18.6807,-3.4946
-2023.4375,-193.3996,-91.1170,-23.0196,110.6053,229.3313,137.2061,-110.7895,262.1762,-109.3462,72.9070,-25.7924,102.6339,-107.8952,81.2509,-113.5988,154.5554,-33.6424,4.2497,2.0355,-17.7134
-2015.6250,-158.4257,52.2527,-62.6352,74.5976,187.1416,171.2380,-112.1380,258.5090,-74.4148,65.3240,-28.0238,97.8214,-109.1938,79.4488,-114.8916,145.3775,-69.8774,-32.5507,-69.2978,17.0157
-2007.8125,-129.4042,1032.7721,-142.2042,31.6214,103.0176,90.3092,-192.4339,175.8592,-227.4251,-74.9281,1.7924,51.0049,-80.4344,34.6859,-122.1182,34.5969,-112.0635,-144.3009,-111.5760,9.7971
-2000.0000,-28.7799,2051.9854,-110.1819,-44.7706,97.5099,-61.0278,-195.1253,24.7800,-229.8366,-180.9559,72.2085,-284.2536,-46.0766,-5.4776,-51.7457,-85.3328,-151.6412,-255.4488,-221.2509,-29.8208
-1992.1875,-52.0541,1997.3889,-99.0649,-33.0753,105.1155,-51.2697,-184.7094,33.7754,-219.1505,-151.7229,83.7235,-460.4536,-108.6215,41.4616,-114.2793,-43.7832,-174.1120,-137.4842,-208.8272,17.6574
-1984.3750,-78.3845,1902.8392,-89.9920,10.5615,149.6941,-4.5624,-174.3401,79.6925,-245.5169,-127.6344,20.1833,-526.7432,-99.2193,-22.6463,-176.8647,-30.5541,-130.6261,-60.5714,-164.4587,-8.9147
-1976.5625,-98.0314,1816.0826,-73.2120,-10.1159,384.9946,-25.1658,-122.2743,21.2794,-119.1889,-101.8778,-73.6611,-549.3731,-82.1189,-117.0537,-87.7395,-72.8670,-150.4285,-80.9552,-184.3832,-28.7857
-1968.7500,-126.8348,1684.2690,-102.5870,-4.9540,573.1646,-17.9228,-151.3627,27.6940,-148.0096,-100.8126,-139.6607,-507.1922,-74.1788,-72.6072,-42.7661,-50.3073,-179.3779,-74.4899,-144.4516,-57.8066
-1960.9375,-95.5505,1612.6567,-105.8728,-45.7004,530.4537,-21.5810,-117.3535,23.1892,-76.7353,-85.3071,-68.5637,-512.9349,-4.1435,-113.0583,-9.7083,-69.9213,-184.2332,-79.9231,-149.4229,-97.7256
-1953.1250,-62.4214,1578.9871,-110.3158,-48.6086,376.6213,-26.3979,-121.4933,54.5041,-43.6126,-65.6956,-72.6204,-482.8497,-7.2516,-154.6725,-12.7893,-74.0459,-186.2450,-47.5161,-151.5513,-64.7927
-1945.3125,-32.1561,1506.5560,-78.6131,-54.3899,332.9644,-32.0782,-163.4873,83.9463,-122.3428,-77.5136,-77.5284,-417.6393,-49.2124,-123.1272,-54.7143,-54.5631,-156.1104,-52.9654,-121.5266,-69.7052
-1937.5000,-51.9569,1420.1532,-61.9584,-75.2345,346.2751,-15.8157,-72.5451,99.3228,-31.1318,-28.7836,-97.4895,-403.5113,-106.2275,-106.6202,-74.6892,-25.5809,-176.0240,-3.4615,-141.5470,-89.6650
-1929.6875,-97.6083,1341.9736,-73.1541,-86.9334,332.7603,-27.4049,-83.4498,86.8242,-78.7784,-43.7063,-108.3063,-270.2700,-80.0957,-43.9695,-85.5088,-15.0640,-186.7846,-14.8032,-81.4191,-100.4747
-1921.8750,-115.5639,1257.5690,-18.6578,-70.9435,311.9797,-10.2994,-101.6557,104.0051,-96.7292,-52.9828,-89.4329,-254.3443,-25.2708,-26.6209,6.3613,-5.1272,-169.8461,-68.4439,-134.5929,-118.5844
-1914.0625,-129.9831,1282.7931,-72.6170,-15.4196,255.7868,9.3453,-119.3068,84.7108,-77.1325,-62.9301,-107.0171,-200.8878,-41.8969,-43.7257,25.7847,-21.7930,-217.3640,-47.5387,-184.2166,-62.1461
-1906.2500,-155.1256,1261.3837,-173.2797,-6.6129,188.9394,18.2778,-146.6589,92.6943,-177.2285,-103.9507,-60.3110,-85.1618,4.7738,-71.5317,35.5168,-45.0483,-173.5866,-3.3315,-139.5385,-52.4077
-1898.4375,-79.2875,1164.0352,-167.9456,-2.8225,193.1354,23.2064,-103.0002,60.6570,-97.3291,-77.1607,-53.6067,-81.4601,-25.5584,-102.3387,-30.7536,-55.7970,-133.8101,71.8779,-134.8583,-82.6692
-1890.6250,-85.8543,1126.3633,-175.0104,59.5596,146.9690,52.7316,-109.7464,89.1998,-103.8343,-48.8486,-97.3081,-54.1730,-106.2973,-72.5424,-111.4307,-22.0528,-104.4384,99.6936,-70.5835,-89.3305
-1882.8125,-125.2834,1091.9166,-141.9314,55.0879,140.9842,48.4078,-76.3551,120.8777,-107.2018,-32.6608,-100.8692,-60.7403,-146.8888,-76.5924,-40.9524,-7.7371,-107.9213,60.6623,-39.1714,-92.8415
-1875.0000,-205.8762,1048.3756,-156.0060,7.4540,161.8813,33.9263,-53.1157,105.3867,26.2669,7.3682,-114.5794,-40.4728,-86.6227,-90.7933,-17.6007,-14.3716,-155.5566,12.4831,-50.9159,-69.5071
-1867.1875,-211.0789,1012.2882,-197.6872,1.2163,154.2238,27.8418,-95.4705,98.2780,-88.8586,-42.7133,-119.8999,98.1780,-54.9601,-59.5908,-22.8528,-22.9101,-195.7942,41.7024,-21.2630,-74.7772
-1859.3750,-155.5449,933.0062,-173.6209,21.7222,140.3593,52.5049,-107.0770,121.9147,-137.2361,-57.4493,-94.4846,83.5722,-30.5628,-108.6306,1.6338,-33.4131,-138.2908,28.6713,-34.8621,-123.2975
-1851.5625,-107.5885,879.2194,-160.1100,68.6624,77.9897,102.6092,-130.2270,169.9985,-160.1610,-35.3196,-117.6330,57.4124,-89.7261,-59.2191,-94.4365,14.0869,-126.3457,75.0911,-23.0050,-146.3635
-1843.7500,-108.9104,847.2322,-124.8547,101.3367,74.4202,136.4584,-131.6285,203.8265,-161.3379,-5.8565,-82.0339,53.0006,-165.1427,-24.0605,-206.7524,53.4204,-92.6557,73.2655,11.6005,-147.6795
-1835.9375,-132.3375,863.2117,-151.7036,147.9082,9.7917,183.1965,-158.1420,176.5318,-76.6310,21.3405,-108.5281,60.4942,-227.6495,23.0007,-232.1548,71.3023,-80.0701,85.3417,-11.9096,-100.1020
-1828.1250,-207.4229,827.6016,-120.2061,141.8348,-34.4482,177.2894,-200.3211,169.5731,-155.5903,-1.3179,-150.6844,126.3337,-232.8157,91.4302,-201.2016,90.3652,-15.1389,79.7705,17.9184,-105.1807
-1820.3125,-110.0283,753.5266,-54.2126,97.2707,66.8629,96.8874,-133.0047,160.1052,-88.0588,13.5843,-157.3456,79.6707,-166.4957,47.3665,-170.7779,70.7636,-23.7125,35.7054,-25.7545,-148.7623
-1812.5000,-101.4427,766.6835,-11.0229,-1.1023,108.4261,28.6865,-89.4893,128.8289,-44.3328,15.1002,-187.8080,120.2068,-159.9818,16.4901,-201.1687,46.6350,-50.0836,43.8466,-52.2285,-105.1470
-1804.6875,-129.9689,707.7883,-3.9359,-29.5866,113.9433,-1.6239,-82.0778,97.4420,-110.7195,-23.2164,-106.3824,161.6529,-152.5693,-13.4862,-193.6460,16.0493,-42.5630,85.8913,-44.8103,-97.6381
-1796.8750,-113.8605,517.5776,-24.1933,-14.4238,128.1659,-22.2851,-29.0237,74.7036,-20.4723,12.2527,-90.3263,137.7575,-136.5155,-33.8042,-140.4751,8.7779,-61.3965,66.5866,6.2543,-81.4850
-1789.0625,-61.5211,362.6406,-45.2028,0.9865,106.6873,-6.6973,-12.7273,52.2146,-40.9799,4.0193,-37.0244,188.1183,-120.2170,55.1321,-161.0603,31.5705,-9.9806,11.5290,22.5653,-65.0804
-1781.2500,41.7444,224.6656,25.7268,-36.6524,103.1994,-46.1534,-14.4896,12.6748,-42.5474,-12.1240,-1.7778,146.4400,-47.9746,53.0373,-125.6910,11.9524,-11.6239,9.4211,20.8179,-66.7253
-1773.4375,72.4360,49.1567,20.1042,-6.8434,95.2155,-16.1602,16.1939,41.5820,25.3180,29.4533,-45.0937,137.2251,-91.2841,10.3966,-94.8745,22.8235,-50.8226,39.7710,16.5162,-35.9270
-1765.6250,28.3047,-25.1270,10.6845,-16.8348,47.4915,11.0258,7.0703,66.6843,-57.6249,3.3706,-17.2252,199.2266,-26.4059,0.9538,-29.8716,20.2134,-24.8330,30.3336,42.4186,-44.9346
-1757.8125,-24.9863,-38.5373,28.1122,-35.9815,64.6761,-7.9391,61.7957,46.6348,34.2680,23.7950,-35.5202,214.0983,28.3079,-17.6430,-11.0306,9.5187,-42.9997,11.7575,-10.8338,-63.0962
-1750.0000,-74.2416,-117.8855,13.5828,19.9126,84.9656,13.1445,46.5726,66.6332,-16.7850,24.7080,-87.7758,233.0295,14.0683,76.8172,-63.1328,58.9982,-21.1271,-1.7729,-24.0383,-41.2128
-1742.1875,0.2760,-284.4338,16.8447,92.6074,87.1123,52.0249,-22.8547,105.4327,-50.0439,29.4510,-47.2401,197.7855,-19.3691,80.0785,-59.4305,79.2263,-52.4595,1.4910,-20.4503,-37.5287
-1734.3750,29.5189,-356.2299,8.8542,51.0482,41.0653,80.6545,6.4583,132.9824,16.4318,73.5962,-127.9530,150.3204,-64.0556,36.1011,-66.9870,89.1749,-59.0483,65.5051,8.8822,-8.0957
-1726.5625,12.5978,-368.1587,26.7113,-37.6611,57.9213,25.1338,24.6115,112.3870,-39.2538,48.2940,-109.8224,239.7357,-45.9071,16.9770,-85.7102,65.1206,-4.7977,48.3803,62.0517,10.1822
-1718.7500,45.7281,-400.0345,61.6167,-40.3158,54.8851,-14.3367,22.8014,35.8440,33.0919,39.0943,-38.6519,198.2221,-10.7268,14.9034,23.6156,30.8461,28.4965,11.3098,25.2584,8.5015
-1710.9375,20.0412,-420.7182,-3.2834,4.2307,-9.8969,-5.6066,32.1856,6.5043,-31.3814,9.5082,-29.2991,167.9309,35.6505,24.0379,33.1519,18.2631,37.9879,55.4400,69.6559,18.0119
-1703.1250,1.5713,-505.1751,52.0641,-14.9682,-29.3676,-24.6269,13.8167,-50.5980,-49.6173,-24.3846,-10.7154,146.9170,90.2737,-31.5863,51.9317,-28.6844,19.7254,36.8237,51.2967,-0.2340
-1695.3125,-7.3830,-543.1063,41.9614,-24.6286,32.7714,-72.1070,40.9967,-62.1719,51.6862,10.4330,-20.5985,134.4762,7.4412,-78.6825,-31.7506,-39.7971,-23.9926,28.7559,8.4829,27.0621
-1687.5000,-50.1992,-580.9037,-41.9873,1.8426,-13.8715,-45.4542,31.3338,-36.6089,5.1407,11.6136,-30.3364,196.2104,-75.2389,22.3570,-4.2946,6.9177,-31.5659,90.8441,35.8223,54.5040
-1679.6875,-44.5229,-676.2171,-34.4314,7.8035,-6.9496,-38.3066,39.1665,6.4573,50.0812,44.0322,-59.5789,164.4789,-68.4277,29.8981,77.6538,33.9694,10.3560,96.4390,6.6542,25.4421
-1671.8750,1.4388,-695.2529,-23.5779,18.0659,3.3335,-27.8597,87.2914,-58.1682,61.3077,23.4840,-84.5368,173.0761,-20.3288,3.7490,51.9104,1.6054,56.5696,72.3371,-18.2212,36.6765
-1664.0625,72.3803,-725.3129,50.2674,-53.6607,38.6681,-28.4117,50.4063,-59.7789,-12.4817,-15.0309,-11.5123,170.7086,53.7634,-33.3807,89.1688,-23.3235,56.7692,72.2399,-18.1096,36.9051
-1656.2500,93.7438,-733.9509,108.5659,-67.9377,23.5113,-44.5089,71.9646,-111.9287,46.1624,-17.9282,46.9518,115.8275,75.2984,-49.0571,110.8630,-47.1526,7.4152,93.5967,-66.5435,58.5734
-1648.4375,-3.1566,-755.8754,80.6282,-59.4619,-4.8302,-35.8562,44.2732,-68.3217,-18.4532,-17.7980,93.1587,159.7293,84.5714,-2.9849,83.2879,-15.1031,16.8100,137.7030,-22.2277,67.9804
-1640.6250,43.9832,-774.7885,93.7428,-83.9288,7.9395,-23.1532,57.6279,-57.6609,-5.0248,-9.8770,106.4043,133.7153,97.8825,10.1437,96.7476,-6.6239,-6.7496,113.8631,-10.8690,44.4338
-1632.8125,28.0576,-784.7849,76.8037,-64.4402,-46.2892,33.5019,40.9190,-2.0401,15.3300,29.3147,52.5907,151.7002,44.1414,30.2304,6.1554,34.9823,13.6342,133.9712,9.4267,64.8314
-1625.0000,69.9130,-809.0252,157.6575,-59.1423,-1.6628,3.9593,12.0006,-32.6087,-50.5231,5.1647,97.5640,157.5197,52.1981,75.1136,-59.6310,37.1076,55.8076,104.8919,51.5131,36.0192
-1617.1875,130.5411,-813.5212,222.3149,-34.0323,24.8212,-42.7781,39.8753,-43.3594,14.4107,13.0201,124.3271,146.1662,6.0476,28.7962,5.3715,15.5405,11.7768,60.6277,-28.6037,26.9961
-1609.3750,152.2072,-752.0184,133.0299,-12.8671,10.4165,-21.4600,-12.2064,-23.0454,-37.6184,-15.8478,183.1380,165.8952,27.9363,13.5400,27.4093,1.9877,-2.2118,12.4176,-41.6772,49.0084
-1601.5625,174.2628,-724.1611,157.1424,-26.2952,-2.5338,-34.7391,12.1064,-37.3189,-50.2552,-32.8804,207.3362,151.0667,89.2118,0.6919,88.8296,-14.6374,21.1930,-0.3871,-54.3598,36.4111
-1593.7500,54.0060,-699.6472,66.9467,-7.0145,17.2681,-15.3133,-4.8881,-55.8811,43.7827,2.8569,80.2239,168.9912,72.1798,-16.4576,108.9461,-15.8307,41.2931,54.5116,-34.3497,56.5023
-1585.9375,-9.6576,-652.5854,37.3601,-0.1305,-12.2732,28.7113,-34.2844,-12.8378,-58.5873,-11.7520,50.6988,211.5597,42.7458,-46.0145,79.6676,-11.2801,48.9863,97.0079,44.2511,64.1833
-1578.1250,61.1129,-683.1313,37.2226,-35.7949,-49.3100,-8.8135,2.7614,-14.3289,14.4785,17.7016,87.6089,172.6323,5.7577,-9.1120,79.8343,3.7742,49.1208,96.9538,44.2944,64.3098
-1570.3125,35.5242,-704.0882,-25.2664,-26.8043,-37.6403,39.3116,-22.5516,32.8451,-10.8245,42.2652,62.1689,219.4051,-56.5892,112.4452,-56.3666,73.0883,58.8956,106.5519,88.9866,39.0805
-1562.5000,5.2206,-694.8077,-16.4554,48.4965,-29.6172,46.7419,-13.5720,39.3321,-1.8370,56.2513,34.0148,225.5263,-47.6511,84.3084,-84.2873,70.4608,63.9622,112.4613,129.9718,-25.8532
-1554.6875,-35.4566,-695.9484,-58.9997,113.4635,2.1032,77.8297,54.0451,69.4888,102.7739,118.8871,-82.5011,145.3564,-90.0717,41.8295,-52.5602,87.4841,23.6764,142.0298,159.5946,-31.1433
-1546.8750,-33.6023,-689.6154,-93.9866,114.9900,4.4289,79.4682,56.2044,70.2088,67.9209,110.0894,-117.4776,181.7894,-124.9348,7.9018,-50.2691,75.0462,60.9278,179.1473,196.7523,-28.8925
-1539.0625,-8.4612,-695.0602,-29.6725,68.8241,69.1066,32.4091,120.6612,22.2439,132.3595,106.1974,-90.1633,134.5696,-60.4926,-38.7272,14.3139,37.5779,16.4717,134.5725,152.2037,-38.3497
-1531.2500,-100.6740,-676.9376,21.3062,12.3102,83.4909,10.0002,134.7671,34.9425,146.4374,123.2798,-76.1986,147.0452,-9.4054,12.2980,-45.4749,63.7591,-4.3402,113.6457,166.3041,-24.1671
-1523.4375,-70.0451,-748.0398,54.1365,6.6549,116.7759,5.4442,131.7209,67.5036,106.3688,120.9397,-5.3926,105.4235,23.5144,45.1723,-85.4250,86.3940,-9.3127,73.5698,161.2452,-64.1383
-1515.6250,-37.1298,-710.9142,89.2589,39.3068,79.4047,40.1893,92.9632,64.3796,141.5785,127.3883,-7.2968,65.1683,-51.2735,6.3512,-50.0693,75.9859,-45.9937,106.7965,124.4824,-65.8115
-1507.8125,-61.7172,-696.3675,62.8810,49.4654,53.5838,87.4314,66.7012,110.7668,5.2742,80.1940,3.2960,111.4641,-3.5539,17.0268,33.7956,83.9472,-35.1838,82.5252,100.2079,-54.9950
-1500.0000,14.0827,-651.5087,70.9074,56.0316,62.2091,58.0790,74.8357,80.5699,12.3643,58.2160,10.2754,117.2081,77.5660,62.1073,42.0469,77.1180,-28.9822,17.6602,35.3262,-83.7842
-1492.1875,7.8153,-547.7954,25.8868,48.5579,54.8318,49.6807,66.9153,71.3457,41.3897,60.8890,-33.8025,181.9608,32.6272,54.1489,-1.7743,66.8843,-69.8366,11.7499,29.3970,-54.6308
-1484.3750,12.8383,-503.8682,31.1616,53.3944,60.8008,17.5866,35.2901,75.4443,10.7122,44.2308,44.4128,186.0685,1.9684,22.4937,3.6937,47.2972,-64.4042,-52.8557,34.7629,-49.1847
-1476.5625,-14.3992,-598.2740,38.1804,60.9972,30.5517,24.2528,42.4010,80.3145,89.7647,77.9535,51.3696,154.9916,-28.9541,-44.4061,46.8954,35.2553,-92.2288,-44.7045,42.8760,-5.9937
-1468.7500,-80.6406,-659.7768,4.2038,65.6115,-1.6557,63.9242,8.5008,119.2053,19.8005,87.6239,-19.6791,156.9672,-62.8795,32.6943,50.0953,87.2924,-17.0579,-4.5479,117.9854,34.1910
-1460.9375,-60.4405,-600.9260,-10.3155,85.6825,-15.3740,85.0460,-5.9500,103.5619,5.2797,67.4941,2.7080,141.4481,-3.3590,91.2436,72.7421,95.9935,4.5610,-18.9371,68.5398,19.8180
-1453.1250,-64.4478,-460.3698,-51.0265,81.5611,-55.2496,80.9690,-46.6041,98.7354,1.5460,46.4488,-38.1102,173.7854,29.9584,124.5968,69.1750,93.3796,0.9824,-58.5218,-5.1100,16.2343
-1445.3125,-51.8140,-444.2649,0.9222,59.1063,-3.4324,22.5488,-31.6140,75.5816,-57.5413,-3.2433,13.7142,223.8229,80.9206,65.6013,120.2496,46.2442,-20.9534,-115.4540,-63.1161,-5.7083
-1437.5000,19.8064,-475.2685,-0.1361,24.6634,33.4214,-15.8620,41.3693,37.4532,52.3589,18.2968,49.5223,148.9209,80.8764,-8.3903,156.3223,10.6289,-20.8936,-114.3777,-97.1222,30.3426
-1429.6875,1.4709,-455.3250,-21.1400,42.2816,-22.6325,-0.2217,-16.6006,15.3923,68.3003,36.4673,28.3796,201.1250,22.8794,44.6715,25.4350,28.1580,-2.7889,-95.2511,-9.0791,83.4328
-1421.8750,44.9325,-408.6871,25.6635,49.7069,-48.8424,9.2192,-43.7669,24.1480,4.0399,17.9841,75.0314,173.1803,-4.3213,54.5279,-38.6595,32.4463,41.1102,-122.3214,-1.2410,56.3152
-1414.0625,37.3349,-413.2093,-18.5832,77.0932,-55.0673,38.6147,-50.9910,52.8787,33.7124,36.9637,-6.3719,128.2408,-11.5713,47.3448,-8.8146,48.3383,33.9539,-60.4349,-43.4577,49.1400
-1406.2500,-55.8704,-503.4416,-3.4248,124.8881,-75.8613,89.4200,-35.8175,66.0356,-98.2149,1.4258,8.6173,142.7537,40.5729,98.5654,43.4210,73.3114,82.1900,-11.1477,-30.2778,27.3586
-1398.4375,-14.1849,-458.8803,4.6324,95.5897,-29.7241,97.1289,9.2551,0.1204,-54.2445,-8.0173,-20.5030,76.2280,121.6129,69.6833,87.5489,39.2044,88.3164,30.0418,-23.2031,-1.5237
-1390.6250,-10.7531,-311.6825,45.4478,64.0494,-24.8057,63.5931,13.0708,2.9770,-87.5439,-18.9558,-16.8732,116.5072,52.4045,37.5582,18.4323,25.6307,127.1921,33.9844,-19.3825,2.3369
-1382.8125,25.5295,-272.7526,83.1259,30.3712,-21.9991,28.9093,-22.2619,3.6985,-121.9929,-47.4205,21.6034,117.6798,54.0443,-34.7098,57.1599,-11.9205,93.9211,35.7804,-53.7191,4.0370
-1375.0000,-18.9945,-314.7418,37.0120,56.9085,-30.9567,18.4309,4.6024,-7.3579,14.7427,1.7764,11.2766,70.1145,6.8819,-44.7750,84.0737,-9.5051,15.8492,27.7793,-61.8559,30.9301
-1367.1875,-56.6699,-314.9854,-4.2429,54.3085,-34.0327,13.8091,0.3153,-12.5371,10.3182,4.6935,6.8015,102.4541,39.5647,-48.9942,42.8287,-15.2526,12.6165,-10.3682,5.8471,63.6636
-1359.3750,-80.9026,-372.8829,5.9470,29.1724,-22.6316,-86.3512,47.4737,-113.2418,57.3387,-13.6738,16.7677,39.3029,49.6900,-74.7624,53.0262,-64.8162,22.8280,-35.0575,-19.0051,73.8422
-1351.5625,-112.5879,-437.3459,-62.3101,-72.3995,-90.6505,-301.9573,-21.8216,-476.3791,24.8973,-160.5357,-51.7163,-30.2431,-55.6298,-179.9752,-16.2257,-270.6542,-7.4123,-99.1960,20.6916,78.5628
-1343.7500,6.5799,-421.0774,-12.7126,-128.1094,-75.7932,-510.7112,-8.2612,-795.6511,37.3114,-251.8163,33.6475,-17.8903,-42.0970,-93.3350,-2.6253,-381.7086,77.1938,-85.4855,141.2316,128.1269
-1335.9375,71.6025,-389.0725,-18.2632,-202.9597,-44.0639,-553.6078,58.1408,-803.0487,141.5629,-220.9859,-8.1357,-133.6268,-11.7141,-99.8405,27.8092,-382.5122,37.6476,-89.9288,100.6198,158.5397
-1328.1250,-21.9192,-481.7239,-79.3575,-192.3499,-66.8637,-431.0504,-2.0111,-606.9713,43.2564,-191.0342,3.5387,-120.8603,36.1193,-86.8914,39.6940,-300.9912,48.5421,-148.9292,112.4495,134.3979
-1320.3125,-1.7904,-493.8376,-16.8051,-206.0780,-38.9999,-404.8330,-12.5147,-507.2169,33.6021,-167.5244,-7.1349,-132.3935,63.6017,-97.2895,67.2273,-265.2155,71.0797,-197.2811,63.9229,50.9034
-1312.5000,-44.2636,-428.6666,13.1449,-178.3859,-44.7229,-338.2047,17.3810,-479.0345,26.3357,-146.8387,-14.4169,-139.4759,19.4765,-104.2799,-50.8438,-243.0222,99.0112,-204.2264,91.7981,43.8034
-1304.6875,4.9547,-448.9187,27.8005,-127.9848,-28.7263,-286.8692,31.9801,-391.1279,-33.2193,-138.0891,73.9892,-124.8123,34.0477,-162.5704,-72.2191,-227.8551,113.6477,-189.4692,106.3790,58.3981
-1296.8750,55.1180,-433.3364,5.4149,-113.6251,-49.7623,-236.5847,46.5322,-340.2515,55.1712,-95.7559,88.3411,-110.1422,48.5690,-147.8998,52.3473,-200.0560,58.2389,-139.7637,85.9150,72.9370
-1289.0625,40.4398,-340.7108,-45.8140,-94.0977,-62.6422,-177.1413,-4.7763,-245.1954,-33.2983,-96.8876,36.8525,-50.2685,71.2385,-53.0740,75.0610,-137.4113,7.9680,-117.9010,106.5857,58.6183
-1281.2500,33.5231,-311.4391,-50.2915,-65.8038,-65.7684,-145.9325,27.6576,-177.3573,-38.0249,-71.1346,32.1146,-91.6010,66.6551,-20.4944,33.5133,-90.3994,37.4378,-55.2788,64.9978,17.0485
-1273.4375,1.7654,-342.1350,-9.6123,-26.3459,-60.7413,-69.5610,31.2392,-101.3435,2.3816,-17.6237,-38.4674,-87.7354,33.2280,-16.7596,-36.8904,-37.1194,76.0609,-15.5036,33.5673,20.6212
-1265.6250,-11.1859,-354.1512,14.8777,30.9224,-71.9038,-8.3876,18.6309,-40.5111,-47.4085,-9.5738,-14.2462,-100.0332,57.6079,7.7773,-49.4915,2.2002,133.4874,7.0785,20.9409,7.9836
-1257.8125,25.1082,-246.0298,53.6244,-2.5451,-31.8116,-6.9509,57.2747,-39.4024,28.0510,7.1496,-12.7799,-135.0380,22.2368,-64.4340,26.1518,-22.0677,100.1674,-26.0756,-12.4351,9.5892
-1250.0000,0.7606,-164.6801,-9.2711,8.3526,-56.3648,3.8468,31.2680,8.0839,1.8578,0.3834,-38.9589,-86.6530,-3.7798,-90.2920,110.1451,-22.5461,76.1948,-14.8759,-37.4668,20.5398
-1242.1875,-4.7369,-239.5990,60.6895,3.1178,-58.0705,0.5037,28.1133,40.4461,-38.4818,1.3779,-5.2848,-89.3770,66.0525,-56.2944,69.9906,3.5075,71.0682,15.1758,-41.6518,-19.6626
-1234.3750,-8.8819,-243.2689,56.9965,-0.7513,-23.4354,32.5224,60.3090,110.1865,31.5192,66.0476,-83.2589,-55.7048,62.2400,14.0649,-80.8171,72.4044,67.2935,11.5704,-45.4841,-23.5194
-1226.5625,-9.3091,-278.3391,131.0119,-0.9083,13.9009,69.2451,60.2130,109.6438,-42.7693,49.5099,-46.5308,-55.2911,99.1292,14.1207,-117.9238,74.4369,67.2207,-23.3383,24.3789,-23.6802
-1218.7500,42.0658,-226.7210,149.8297,-19.2509,34.0315,50.7745,115.9200,90.9241,48.7473,64.7139,-65.0020,-110.0348,117.8262,-4.0168,11.7650,60.4186,48.9487,-41.4442,-28.9564,-42.0389
-1210.9375,-34.2523,-162.9165,67.9548,44.7179,-8.5479,79.6117,70.9230,119.5324,41.5546,66.3672,-36.1595,-80.4475,72.8281,-11.8430,40.7581,65.0857,7.9782,-12.2469,-34.9891,-13.0983
-1203.1250,-3.1555,-166.8243,64.4911,41.0949,-47.7345,75.8570,31.3302,115.5651,0.7727,49.5228,34.0891,-46.4299,33.2314,21.7311,0.1521,70.3398,74.4058,-15.6536,-38.6227,-16.7582
-1195.3125,-5.5449,-204.3405,99.5253,3.9821,-11.4311,36.6091,65.2366,113.1284,108.4886,93.6377,-5.1575,-47.8688,31.1386,-17.1882,-38.9545,65.7612,72.3266,-17.5621,-40.7510,-18.9160
-1187.5000,-71.4224,-164.4552,32.0589,8.3811,-40.6372,79.8700,34.6476,155.2125,40.7082,88.4741,-35.9011,-4.7677,36.5516,25.4009,4.4403,92.2343,41.7495,57.0288,33.6237,-49.5776
-1179.6875,-83.8909,-107.2742,22.0000,-3.8040,-13.4501,106.5399,24.4635,181.7176,30.3359,82.8476,-46.2412,-88.2390,63.3667,-21.5974,141.2329,82.1656,29.5785,81.0196,21.4018,-96.8389
-1171.8750,-14.5971,-108.4501,56.7054,-4.2277,-14.5255,66.9687,59.0302,178.9935,27.7060,81.7550,-11.8204,-52.9301,60.9376,-59.8336,64.7692,66.2801,29.1595,80.7667,20.9367,-62.3501
-1164.0625,110.1074,-55.3297,114.8227,-20.2455,-29.2205,50.8044,6.0071,162.6960,-61.5141,43.2639,45.0093,42.8017,44.9121,-2.6674,-61.2911,67.7308,84.1404,28.9219,39.8764,-78.4632
-1156.2500,78.6220,17.4913,118.7431,-16.4509,-24.1332,54.4541,-26.2105,129.2203,15.0673,62.7013,-61.3604,84.3704,11.6973,1.3007,-20.5487,62.1348,122.9203,32.8763,43.6235,-74.7789
-1148.4375,-85.5486,-5.4881,93.9708,-4.3435,-10.7603,103.4146,21.8819,178.0673,-9.0449,74.4751,-123.4248,97.2675,60.7899,13.5753,-8.5030,94.0522,100.0037,45.1269,20.6678,-62.7964
-1140.6250,-58.2585,-14.1097,86.6470,-11.7701,20.0346,58.8392,51.4255,133.3899,19.3022,52.5399,-57.0346,53.6410,90.3313,-29.6906,130.9914,51.1306,56.5397,37.8304,-21.8377,-70.3588
-1132.8125,1.0956,8.2314,72.3748,-22.1389,7.8461,44.3197,38.0201,119.7879,42.7007,39.2987,2.4176,77.0934,75.9327,-6.9010,153.5421,44.9745,11.1279,-7.4213,-103.2822,-10.8703
-1125.0000,70.2250,41.2295,70.8578,-22.7497,-30.6189,42.5562,-1.6231,116.9496,2.8622,19.3632,73.6280,112.3156,74.2902,64.6364,77.8603,58.3515,-25.5354,-78.9210,-103.9732,23.3729
-1117.1875,108.1618,77.9334,72.1347,-20.5522,8.6811,6.5995,36.5388,44.9332,77.8335,26.7317,37.6394,77.3686,38.4581,65.9877,78.9963,36.3466,-22.3999,-109.6185,-99.8602,61.4212
-1109.3750,27.6562,138.1024,-13.0329,-29.7965,-38.5005,32.2037,25.2558,70.4932,-7.6428,2.8630,26.2021,140.9974,27.1865,54.9033,67.6848,35.7190,3.2880,-49.7676,-74.1972,87.0173
-1101.5625,16.4643,125.4906,13.1103,-5.7304,-48.4011,21.1173,-22.7163,59.3698,-18.8031,-14.3678,89.0724,130.9493,90.2196,7.1197,93.6664,7.0843,-7.7196,-60.6238,-85.2317,75.9170
-1093.7500,39.9453,147.4407,-36.0917,17.9941,-59.6546,44.6883,-35.0373,82.9075,41.6814,17.0975,75.6097,118.5747,39.9092,-6.0109,43.3010,18.6220,-19.0675,-36.8316,-97.6118,99.4723
-1085.9375,38.1039,177.9520,-37.6348,52.3742,-96.2653,116.9181,-36.6986,117.1037,-33.1688,14.2737,73.8112,154.8581,-34.7398,66.5087,-31.3992,63.4701,-20.7623,-3.3867,-63.3443,97.6803
-1078.1250,-17.0233,191.0895,15.5172,67.4687,-79.1865,96.8584,-20.6564,97.0142,19.6866,30.6784,16.7168,135.8579,-54.6836,120.7346,-15.3901,83.8862,-5.7564,-23.2414,-119.3738,77.5889
-1070.3125,-66.7323,174.5517,-35.9242,52.9741,-92.7229,118.2135,-35.2105,119.3435,4.9478,31.9000,2.0310,159.2812,-33.2219,106.3709,-29.9830,85.3267,-20.3497,-2.7066,-98.0000,62.8985
-1062.5000,-49.3716,190.9850,-51.3122,70.5345,-71.2166,102.6271,-87.7057,177.7431,-84.7260,12.1495,60.4088,107.7702,-11.7035,90.0614,28.4733,90.0068,-37.8871,15.8727,-81.5678,10.2642
-1054.6875,12.6505,215.0020,-97.0477,61.7526,-79.0735,93.7026,-59.5470,168.8198,17.2490,41.5654,14.4610,99.9309,16.4707,-28.5868,19.5670,46.0052,-46.7697,42.1066,-55.4783,1.2814
-1046.8750,10.6395,175.9064,-98.8254,59.9338,-43.0040,91.7421,-24.4324,166.8834,-21.8251,36.8331,12.4893,99.0562,51.5989,6.7132,-56.3922,60.4410,-48.6962,40.3001,-21.4409,-0.7554
-1039.0625,21.9934,185.0950,-48.2516,71.4908,-28.6032,105.1552,26.0321,143.3320,-8.5462,37.5981,-11.1241,76.5431,28.0751,56.3712,-79.9984,78.8670,-36.2722,86.8475,-81.0537,-24.4444
-1031.2500,-57.0376,208.8164,-20.0767,133.6622,-36.6260,133.1843,-19.9038,134.4152,-17.6642,41.3455,-57.1330,68.6445,-54.8391,84.6449,-88.9941,96.0829,-10.2518,113.9873,-90.0559,-33.5353
-1023.4375,-38.5012,190.0293,0.6396,117.3892,-52.1169,153.7779,0.7124,118.0817,-71.2150,12.1484,-36.5887,53.3115,2.8008,31.4753,5.5615,62.8497,8.3101,61.6683,-35.5061,-50.0759
-1015.6250,12.7937,168.9347,-19.9003,98.8742,-34.8625,96.1311,17.0828,97.5300,18.9920,32.9892,-57.2925,-3.2543,55.1895,-24.9464,94.8558,32.1741,-10.3770,43.0964,-19.1946,-33.8674
-1007.8125,3.3006,226.9772,-68.2354,53.5743,-45.3949,84.6976,-31.3428,86.2064,7.4027,30.6238,-31.7870,60.3995,44.7844,0.8416,10.3501,28.5501,-19.8672,-1.2752,76.3132,-8.4636
-1000.0000,29.0635,250.2183,-77.3227,9.5481,-53.6794,38.5406,33.4789,114.1735,71.0687,62.2355,32.9678,52.3231,-75.3670,28.9061,-35.9043,51.2444,-29.1094,-45.3914,32.0689,-17.8095
-992.1875,-33.4610,291.1096,-106.7096,88.2481,-46.2678,82.1090,-33.9992,120.8881,114.4353,87.9453,2.4247,59.9759,-177.8160,72.6885,-138.4659,81.5081,-91.6546,-37.8109,5.5324,25.5442
-984.3750,-11.9696,203.9499,-85.0932,108.9629,-59.8614,104.6948,-85.4738,143.6421,26.8136,64.5914,-12.1051,83.6487,-119.2667,94.4729,-117.0274,92.9559,-71.1994,-52.2301,25.9963,10.9010
-976.5625,-4.8177,173.3935,-77.8333,46.3443,-51.8166,74.9503,-4.3006,114.0837,106.8403,79.6864,-41.9773,19.0001,-39.0634,28.9235,0.0595,60.2504,-64.0997,-44.9974,33.1087,17.9092
-968.7500,2.7002,213.1524,-106.2205,54.0905,-43.4319,46.5702,-33.7816,84.9074,41.2178,43.8950,-34.4861,27.7195,5.4961,-0.2612,7.5010,28.2004,-21.6463,-37.4184,75.5715,25.2632
-960.9375,62.0879,234.7294,-6.7548,78.7056,-53.2074,36.0548,-44.4089,37.6099,30.4539,24.1679,28.8571,18.3061,-42.0920,-10.5809,-77.2105,9.6673,3.6572,-11.9963,29.8778,14.4672
-953.1250,39.9376,279.7195,43.1625,91.7927,-76.5480,49.0121,-31.5943,50.7988,6.1291,23.5521,4.6559,32.3664,-66.2319,-34.4318,-136.4830,12.6228,16.4066,35.8759,7.6383,27.1212
-945.3125,-0.0018,236.8742,3.2804,87.1010,-41.7049,82.1948,2.4185,85.2349,-70.9880,8.9226,-35.3482,29.6443,-32.1671,36.9354,-104.5517,50.0166,11.3507,30.9509,2.5984,-13.0260
-937.5000,9.0236,207.9430,14.3484,26.3805,7.0754,56.3533,49.3796,96.6683,13.8449,33.4227,-61.4091,-31.1029,-21.1513,47.2749,17.3333,58.9680,-49.7640,4.9753,-58.4917,-39.2201
-929.6875,18.1195,214.0306,-13.5394,0.7298,16.8910,28.5823,22.3873,69.1974,-14.2697,3.5972,-15.4089,15.2180,24.9214,20.6890,26.2742,25.6095,-40.8354,-20.9526,-49.5372,-30.3627
-921.8750,88.6237,176.4892,59.9698,1.5019,54.0948,-6.7648,58.7945,33.1678,-13.9673,-1.1610,57.9976,-19.0482,25.3964,-52.4728,-47.3912,-10.2662,-5.5180,-20.4835,-14.1850,-30.1045
-914.0625,130.3738,214.1698,65.7203,7.5450,60.5349,-0.8357,64.4493,39.4359,28.5849,22.3525,27.6588,-49.0464,-42.8782,-83.3659,-115.8068,-10.2918,0.0438,-14.7578,-8.5755,-24.5932
-906.2500,65.4832,217.1739,36.8176,-21.0458,32.3056,6.4683,-0.5458,48.1040,-37.5029,3.3506,-1.3153,-3.6825,2.1999,-0.8877,-70.8587,13.8021,40.9559,-8.6770,32.3896,-53.7303
-898.4375,103.8063,181.3663,41.1051,-53.4121,37.2580,10.9987,39.6598,53.0272,39.6204,32.4786,1.9184,-108.0987,5.4818,2.8209,6.2887,21.5252,8.0615,-41.3902,34.5539,-86.6684
-890.6250,88.8486,163.2551,24.0925,-68.0518,-15.1132,31.2580,22.5607,36.7042,22.4415,21.6182,-51.1341,-86.8008,25.4620,23.2586,26.1262,20.8130,-7.1447,-21.4029,54.4160,-66.9127
-882.8125,106.0533,142.2865,43.2184,-15.5251,3.6351,13.6932,41.6075,19.5818,-31.5772,-2.3492,3.9624,-66.3428,7.5872,-30.1352,8.1201,-7.3366,9.7879,-4.2602,72.4229,-85.0083
-875.0000,135.9098,168.9560,74.9828,14.6722,35.9992,-28.1913,73.2963,-21.8395,36.0451,4.7480,-1.2842,-70.2249,2.3654,-34.8601,-33.2294,-20.2760,39.3670,-9.4694,-3.9139,-90.4513
-867.1875,153.1868,219.0171,57.1399,33.2909,55.7340,-45.6524,55.3893,-75.8203,-54.9252,-53.3966,54.8844,-13.7048,21.5509,-16.1650,-88.1718,-46.5175,92.3431,7.7132,-21.8546,-108.4907
-859.3750,197.0257,223.6285,103.8341,6.4801,28.9807,-35.5413,28.0308,-65.2118,-46.3397,-54.2599,64.6125,-76.6267,31.2960,-5.9010,-5.5587,-41.3095,64.8650,16.4477,-49.2468,-135.9704
-851.5625,210.2793,234.6387,78.9223,20.0855,-31.4147,13.9921,3.0742,-15.1639,-70.3489,-43.6228,2.7536,-99.1453,-29.5539,6.7857,6.4595,-14.9476,7.7854,-5.4163,-35.2334,-87.0446
-843.7500,160.1078,180.1960,24.5576,5.2534,-48.2985,34.0936,-13.3238,42.4731,-161.7881,-64.3735,22.4528,-41.1114,-9.8573,27.0448,26.0361,5.2985,27.2502,-55.7292,-50.6652,-67.5600
-835.9375,115.7488,202.5668,49.9766,31.2402,-22.4330,23.0239,12.0697,31.9523,-62.4242,-21.0233,11.9588,-51.2693,-21.3540,-19.8669,-95.5806,1.1010,52.5114,-30.2346,-60.2931,-42.2641
-828.1250,91.4470,281.9987,25.4399,43.2988,-10.5609,35.0324,-13.4883,7.5195,-125.0003,-41.8181,-13.4795,34.6225,-83.7871,-7.7155,-193.1372,-2.8643,98.8217,51.3164,-13.8647,-30.9155
-820.3125,128.2032,279.4947,63.9401,44.4300,-7.6731,38.1201,-47.9859,-25.8282,-85.5084,-46.4826,-10.8768,-34.4436,-81.1719,-4.4996,-81.6413,-15.2009,100.1852,51.9247,-48.3756,-65.5095
-812.5000,58.9662,277.9954,28.4299,46.5757,-5.8202,3.2286,-46.4822,13.8628,-84.0147,-36.4594,-46.2609,-31.5147,-42.5515,33.7341,-6.1434,6.2317,30.5542,-16.4606,-46.8693,-64.1009
-804.6875,5.7995,291.5523,9.9695,-6.2111,12.0511,-14.5926,-64.9205,70.6381,-102.4588,-27.4303,-64.5828,24.4506,12.1193,53.0389,-24.5946,27.0802,-23.0261,-34.7977,-30.3083,-82.6404
-796.8750,16.9490,370.4179,20.8005,-64.6838,60.1868,-39.0896,18.9407,45.7517,18.4012,13.0650,-90.5973,-36.2867,-49.9065,-8.3274,-50.7415,7.1905,-47.3135,-23.8401,-19.4425,-71.8707
-789.0625,116.5207,500.7009,-21.9748,-35.7434,-19.3175,-45.1671,-60.8038,40.3029,-61.3361,-39.3562,123.8022,-5.6318,-93.5260,-14.2773,-131.4658,-19.9497,-54.2055,4.5151,-61.1731,-78.6928
-781.2500,355.0012,665.9095,-27.8624,-7.8837,-97.9709,-13.3188,-176.6482,-37.2173,-177.1569,-147.0949,339.1098,-46.0825,-62.2336,-56.3084,-63.2813,-101.1239,-28.2002,-3.2224,-104.9978,-157.6047
-773.4375,450.3344,793.9935,-35.9070,17.8470,-142.8172,16.4072,-184.6489,-43.8491,-148.1293,-144.1173,331.2767,-126.6837,-107.0818,-63.4685,-108.2518,-107.4764,-73.3427,-13.0974,-114.9655,-202.6586
-765.6250,477.7856,782.2021,-44.8583,44.6958,-151.5974,44.2622,-193.5474,21.6511,-193.9868,-119.8008,359.5497,-207.2001,-151.8316,-71.5102,-227.1147,-77.3952,-117.3899,13.1336,-17.8289,-211.6075
-757.8125,497.8471,728.0376,-62.2243,30.1592,-131.8151,28.7420,-210.8442,42.7914,-101.2339,-85.8860,379.4208,-297.1202,-95.9833,-123.9297,-170.3705,-86.0180,-167.8458,-2.0294,-33.0882,-191.9477
-750.0000,467.7194,695.6957,-129.8041,36.4387,-163.2649,35.0407,-242.3383,49.7655,-131.6771,-91.9478,385.1027,-253.2429,-90.3240,-81.5252,-164.8179,-73.6222,-162.5093,3.6076,7.4615,-186.4817
-742.1875,543.4521,697.2322,-50.5446,41.5842,-120.8967,41.2120,-198.9804,-15.3764,-162.2476,-127.3099,354.6409,-208.5264,-83.8083,-111.2547,-195.4073,-108.3731,-88.3270,-26.9054,-23.1339,-217.1561
-734.3750,511.7399,662.3515,24.2525,80.2983,-119.0116,43.9588,-161.0759,-12.9316,-124.2664,-105.7214,281.7376,-206.2644,-155.7417,-182.4076,-194.4481,-117.2423,-85.5894,-23.8658,-56.1683,-179.2722
-726.5625,391.8424,539.3044,5.8403,31.8340,-100.3560,63.5305,-142.3720,44.3535,-142.4766,-84.5858,227.6458,-186.2154,-136.8750,-162.7381,-138.6909,-80.9399,-100.0515,-39.0206,-35.3964,-123.5846
-718.7500,308.8531,348.1938,-8.6848,-50.7076,-40.8328,13.0320,-45.7682,31.5759,-82.7738,-60.0761,250.4505,-235.2786,-40.1076,-65.1529,-42.0347,-45.0229,-112.6199,-51.2649,-47.7099,-100.9886
-710.9375,135.9168,207.1672,-7.1738,-47.1844,-3.2883,14.6049,-45.1153,33.8891,-82.0167,-39.9236,178.3123,-160.3008,-2.2825,46.5015,-41.3150,9.5742,-75.1417,-13.4568,-44.9633,-63.3349
-703.1250,55.7885,123.9850,54.1206,14.1586,58.0289,41.0009,-19.6662,-11.9592,-56.4462,-29.5290,129.9786,-133.5268,23.3435,-0.0194,-89.7844,-6.5737,-14.8733,-22.8483,-19.4201,-37.8721
-695.3125,19.8736,120.0510,86.5962,13.7201,53.5135,37.6221,11.9733,-52.5670,86.3239,6.9919,51.8510,-135.5549,-18.8314,-77.3097,15.9435,-36.5561,-17.4089,-25.0336,-56.6707,30.8016
-687.5000,-54.5762,76.6078,3.5173,8.7450,7.4262,-7.2825,-32.9366,-58.6851,40.5578,-11.6038,43.1782,-106.1440,9.4453,24.8719,118.1214,-14.9358,-56.4964,-29.7675,-26.4668,95.9275
-679.6875,-67.3245,-8.0876,-45.8688,-2.5111,-5.9810,-19.4608,-10.1443,-34.0693,63.4993,-8.4167,103.2077,-82.0383,69.4251,12.7734,140.9971,-17.0125,-139.8881,-40.7909,-73.5601,118.7574
-671.8750,-70.2615,-154.9311,-90.4634,-4.9454,-12.6130,-24.8141,-16.5551,34.3870,130.2317,53.6745,60.0499,-88.1391,63.2068,44.5018,96.6736,32.6920,-143.4851,-80.0046,-41.8518,185.3901
-664.0625,-79.5827,-237.1236,-101.4655,-48.7601,-24.6681,-35.5406,8.6322,61.4815,82.5759,49.5766,49.4941,-61.6526,88.5879,-3.1453,121.9561,23.5406,-154.4899,-54.6144,18.4561,210.6274
-656.2500,-134.1059,-259.4705,-85.6863,-101.7542,28.0432,-55.4357,61.6143,43.4228,208.7245,96.4283,-8.2666,-117.3743,68.7727,-58.9671,175.0451,10.9308,-173.7016,-38.4155,34.5755,226.6737
-648.4375,-233.4255,-256.5753,-80.7194,-131.5291,-4.0685,-12.1047,66.7975,86.6056,177.0839,110.0337,-2.8185,-73.9092,74.1599,20.4314,143.3470,59.3651,-203.7144,-33.0129,75.9013,231.9239
-640.6250,-235.9358,-260.8269,-45.9704,-97.4822,-5.4043,-11.9488,28.7763,50.6245,176.2601,96.8025,33.4329,-110.6509,72.3478,129.6528,179.4524,86.8318,-135.9333,-0.8040,2.0284,193.9806
-632.8125,-293.4877,-251.0711,4.7139,-14.4677,8.1893,3.1816,41.6922,29.6369,153.3790,92.3303,-63.3553,-59.4423,85.4897,107.8545,119.5029,83.8522,-54.2090,81.3573,-20.8898,170.9931
-625.0000,-271.4315,-266.6604,27.9873,8.1645,31.3704,27.9403,66.2070,19.2889,68.1103,60.1977,-74.5451,-32.6487,74.2276,97.6825,108.1529,74.0755,-31.8914,68.1213,0.7969,122.6117
-617.1875,-174.2726,-313.0913,55.3403,-0.0794,58.6298,19.8297,56.8111,12.0827,132.9443,70.2906,-83.6381,-77.7561,102.0564,52.6394,172.9005,54.5321,-41.4783,23.9906,-42.4057,113.3387
-609.3750,-249.2531,-319.6195,-23.4797,-2.4559,15.7230,15.5931,50.2597,44.7694,89.6283,64.9657,-89.8717,-46.0173,132.7347,84.4725,203.5049,70.4046,-47.2224,-14.2837,-11.7539,143.9175
-601.5625,-278.0826,-315.9424,-55.1636,-31.6668,20.9476,22.5322,55.8579,52.6465,132.4794,98.5459,-120.9562,-76.1383,101.5605,91.4756,172.2597,85.2002,-5.8258,-8.4033,63.0502,149.6538
-593.7500,-316.0237,-286.3027,-95.9625,-33.9594,17.0527,-15.6005,126.3505,51.4703,239.2265,147.0067,-197.1430,-41.3625,25.2900,53.4052,94.9214,84.5886,-9.5431,92.3846,59.7559,146.3001
-585.9375,-335.2644,-307.9061,-116.0756,-16.5326,32.8360,1.9923,106.5388,71.0302,146.6785,122.4141,-143.6272,-22.9002,5.7280,71.0589,75.3027,95.2193,4.4303,143.8776,75.1642,126.6537
-578.1250,-317.9502,-292.8974,-60.6596,0.4644,51.1449,58.1655,125.2734,92.1808,201.6827,159.7322,-161.5618,-113.8926,-48.2862,91.2952,94.2311,125.1152,-48.0506,125.9304,93.1334,108.5619
-570.3125,-382.1304,-289.3320,-129.7554,6.9903,-17.0689,101.8703,130.5019,173.8735,171.1863,184.9818,-228.9920,-70.3844,-42.8050,135.0616,62.6465,174.8093,-43.0350,131.4906,133.6110,113.9722
-562.5000,-347.4530,-291.8606,-92.0185,7.3900,19.5474,104.4549,131.5726,140.4562,171.5494,174.6956,-227.5732,-105.0311,-6.4800,63.6987,63.9092,137.4761,-10.1777,130.9072,167.9458,78.2408
-554.6875,-266.3799,-212.9223,-117.8996,-16.7909,30.5395,43.4647,142.0312,80.4782,257.3059,164.6576,-216.7523,-56.2754,5.2420,39.7598,75.5802,91.8919,-35.9292,70.7300,107.6909,52.9173
-546.8750,-276.4086,-120.0214,-92.8958,8.9466,19.4107,34.3987,58.3842,72.4381,135.9662,109.1809,-227.0306,81.3740,-5.1285,67.7477,65.1700,82.3846,-11.7868,60.4541,97.3342,42.4966
-539.0625,-239.0849,-154.7105,-91.5603,12.0568,57.6081,37.7073,97.0863,76.7865,137.9809,119.0281,-187.9576,10.3640,-76.1446,71.1130,30.1096,93.3721,-10.3034,62.5345,99.3304,44.4336
-531.2500,-277.0075,-228.5910,-132.4872,10.9342,-21.4697,71.7925,55.5314,148.9247,134.7442,156.1180,-228.1314,7.1005,-79.4086,105.2537,25.7971,139.8708,-13.0771,95.3732,167.0887,77.1262
-523.4375,-276.8269,-302.3059,-132.3272,46.9320,-21.4690,111.0036,19.0692,151.2020,61.6172,131.3566,-228.2066,8.9295,-6.5786,144.5192,63.5861,149.4491,-14.7582,59.3234,201.9513,40.9240
-515.6250,-246.5504,-308.8581,-102.0873,78.0544,-27.3889,143.3447,50.7002,148.6222,129.5924,165.7662,-196.1866,-68.1446,-48.6580,140.9099,-15.5229,162.9497,15.6539,54.3861,196.9225,35.8277
-507.8125,-250.2767,-314.3574,-71.8659,75.1988,-34.3236,102.7133,44.3259,146.0787,87.5791,146.3708,-128.1702,-36.2279,-53.7336,99.3195,-57.6169,141.0963,10.0570,50.4587,191.8999,66.7349
-500.0000,-207.7557,-273.5457,-29.4128,-22.3918,45.9734,37.3517,88.2003,81.8214,94.8270,102.4023,-83.9069,-28.0659,-10.5628,33.9982,59.5387,76.6991,-18.2948,-13.2118,129.1377,73.8998
-492.1875,-211.6326,-173.0717,-71.3726,-95.3661,38.8578,-39.3851,81.6671,41.2011,88.6683,72.6410,-127.0419,76.7004,-15.7983,103.2973,127.2839,68.0905,-23.0500,-17.2777,89.9872,104.6698
-484.3750,-149.9515,-147.9793,-44.7926,-67.7718,29.2786,-46.5485,35.6789,-0.8339,6.0633,14.9565,-25.6263,106.0083,48.5128,133.1655,81.5752,47.2074,2.7401,-59.7900,45.3860,95.9939
-476.5625,-39.6230,-180.1679,-5.5797,-26.5079,-4.6670,-41.0419,39.3327,-30.1871,47.1011,16.7577,51.4365,36.9705,52.4713,101.7149,48.5214,27.8916,6.1767,-55.6438,14.4354,99.9767
-468.7500,-113.6920,-149.6937,-9.7782,-64.6269,-9.0268,-42.9135,35.5764,5.0888,6.7337,12.2533,11.0982,71.5272,86.0367,62.8933,82.0857,22.7960,2.2113,-58.8876,46.0834,96.5623
-460.9375,-102.0618,-174.4601,39.7048,-87.0318,40.2959,-65.0632,85.5145,-15.9060,20.0769,4.6647,-12.5446,48.7752,136.3053,4.7930,132.3642,-5.7269,12.9409,-82.4205,22.4343,72.8551
-453.1250,-81.3812,-190.1119,22.2211,-65.3674,59.6534,-43.1396,105.4909,-28.8166,77.4629,31.1418,-64.1327,33.0741,45.6174,26.7655,115.6818,11.8098,32.7174,-27.8984,7.8471,93.2029
-445.3125,-83.9949,-159.0053,18.4267,-30.9822,18.6977,-8.4950,28.1615,7.0084,0.5590,21.9693,4.9818,68.0683,5.6209,98.4547,38.6903,48.0963,65.1889,-30.6691,39.9628,90.2575
-437.5000,-33.1678,-73.3870,-1.9326,-15.1266,-1.8173,-26.3801,45.2760,-9.6861,55.1032,25.3494,22.5368,49.5152,23.0735,43.6178,56.1436,16.9692,45.1054,-14.9754,20.5311,70.7726
-429.6875,-56.0014,-63.3625,-25.9497,-1.9018,-25.9883,-11.8922,-15.2664,5.9947,31.9907,22.3388,-0.5609,27.3140,73.8779,59.1575,32.9523,26.0656,56.3696,-2.9222,33.4547,47.6393
-421.8750,5.0609,-74.3792,1.9169,-10.7588,1.7303,-18.4822,50.0836,0.6033,23.7863,16.6687,-8.7659,20.0103,65.5797,52.6265,61.6697,22.0701,45.5273,23.0399,23.2793,2.4072
-414.0625,-12.3766,-56.8335,19.2642,8.9065,-18.0684,1.4537,30.9230,-15.2524,79.0749,31.3291,-27.4698,39.2011,46.7796,72.6174,79.8808,27.3901,28.1830,6.5116,6.6094,20.6769
-406.2500,-32.1195,-7.5348,-3.7014,61.2923,-41.1777,55.1173,-65.5461,2.6248,-53.9295,-19.6685,-12.4784,129.0849,24.6797,126.3242,94.7994,41.1089,42.5243,-14.3085,-14.3567,35.6506
-398.4375,-3.9698,55.7176,25.2139,90.5960,-86.4002,49.6977,-73.1184,35.4317,-24.0338,-9.4094,17.4095,122.8707,17.4774,120.9556,87.6149,49.1481,-0.2398,-21.2189,-91.4173,28.5334
-390.6250,18.6360,112.4794,-27.4327,79.3629,-101.1862,73.7478,-87.2485,23.7129,-38.6964,-18.0030,-34.2454,146.1043,2.7219,108.0567,35.8770,39.2235,21.4440,1.3332,-69.0197,50.8706
-382.8125,42.2894,29.3529,-4.0420,68.1956,-78.9360,62.8663,-64.3331,51.0706,-14.2987,5.1638,-9.8632,60.3811,64.0164,60.2225,23.1924,38.8412,8.1710,24.9507,-46.5684,38.2614
-375.0000,-6.1759,16.1781,19.2309,56.9461,-18.8010,51.9049,-3.5241,41.3603,9.9958,17.3574,-22.5919,122.5535,-22.7908,86.3124,10.4171,51.5985,-5.2097,12.4782,-59.2112,25.5581
-367.1875,-7.3876,118.3081,-19.2634,55.9606,-20.4307,53.2097,-41.4711,80.9273,-137.4552,-21.2567,-60.0694,232.9758,-60.3495,160.6684,-27.1027,80.1556,26.6521,45.2586,-25.6052,-11.8894
-359.3750,3.5010,164.5924,30.3217,68.0929,-7.9703,68.6303,8.6763,61.6133,-160.8052,-45.0225,-119.4535,211.5060,27.1906,103.1445,23.4756,49.2860,36.6071,21.1461,-49.8963,-71.2307
-351.5625,-42.3694,188.1637,16.1470,93.4948,14.7329,58.3151,-3.9332,14.5740,-99.9095,-31.3724,-132.5915,162.2853,50.9783,55.8888,47.3045,19.7625,59.8115,10.2967,9.0753,-47.3210
-343.7500,33.5018,123.4337,20.7168,65.6666,19.1837,65.7756,1.2088,23.3169,-94.2484,-21.6867,-15.9868,131.8181,20.5103,26.4052,-20.1155,14.5217,100.7660,-18.7819,49.8062,-41.6559
-335.9375,72.4071,55.6992,-12.6805,70.9114,-14.3260,71.3185,40.3940,67.1480,-16.5382,18.9503,-12.3437,63.4346,-12.9139,31.9927,-16.4926,42.4686,32.7706,55.2099,-16.3965,-37.9322
-328.1250,65.6096,48.3229,-20.7922,100.4695,-22.5472,102.1761,-3.1288,100.2995,-97.5302,-2.4376,-56.4061,93.3678,16.9659,63.8916,13.4373,61.1150,25.0735,48.4980,-23.2959,-44.9092
-320.3125,41.0093,58.2078,26.2820,77.2373,-12.5835,79.2440,7.5405,41.6664,-85.3207,-10.2458,-44.2660,33.5059,28.0422,41.0131,61.5739,33.8574,105.5681,58.9869,22.0047,-69.6790
-312.5000,41.6054,94.3517,-11.4583,79.2211,-13.4543,81.5289,7.3976,45.2590,-47.9257,18.6237,-80.9206,34.8444,-44.6859,80.3597,-48.0987,58.1195,140.2612,59.6867,57.5121,-69.2425
-304.6875,73.6988,161.0577,-51.7079,112.7179,-53.8541,117.3270,-69.2488,82.3693,-162.0289,-16.5110,-47.0730,105.6766,-84.9174,115.2163,-125.2759,72.7853,136.4540,56.8946,54.5199,-72.2989
-296.8750,106.6829,228.7180,-94.0693,112.1321,-59.3579,115.0392,-74.0053,44.3976,-92.2410,-26.5536,-88.3377,102.4078,-89.2587,39.9912,-55.5563,23.8711,62.5441,20.0117,-17.5671,-39.4473
-289.0625,36.4577,263.2274,-134.6422,78.3592,-100.0539,78.5648,-113.9676,82.2392,-130.6578,-25.0284,-90.8067,174.9343,-91.8020,76.5840,-95.0362,43.6062,61.4314,19.9340,17.1507,-4.7953
-281.2500,25.9733,217.5385,-35.4799,69.3492,-112.0036,32.8533,-125.1818,74.8434,-105.3178,-8.7121,-27.5299,128.2027,-65.5932,67.9363,-105.7615,42.9276,121.0629,9.6153,41.6199,-15.3891
-273.4375,96.5351,217.9513,0.7195,71.4032,-112.9128,35.2020,-88.3617,41.5107,-104.9389,-25.1155,-27.2059,56.5185,-28.3309,33.3493,-68.4348,18.8590,155.7439,10.3499,7.1456,-14.9273
-265.6250,148.1455,233.4637,15.9593,88.5198,-133.7782,17.6130,-145.4964,25.2430,-196.5066,-72.1116,-9.8357,110.8693,-11.0237,52.8175,-88.0571,6.3102,170.4737,26.1439,-12.2805,-34.4108
-257.8125,174.4017,224.6749,5.8329,81.2956,-106.9987,10.6828,-80.9851,-17.3637,-133.4241,-64.2127,-18.8224,102.8678,-20.0747,45.9453,-97.0391,-9.3148,125.8496,17.6018,-21.0467,-43.2391
-250.0000,82.9029,169.1718,-17.0479,62.3263,-19.9704,-9.9896,-67.2276,0.2935,-82.0955,-30.1219,-41.5621,82.1101,-42.8762,25.3356,-119.7732,1.0141,104.4787,32.3154,-6.5534,-28.8201
-242.1875,44.3505,94.6583,14.0221,60.3162,48.0081,-11.7034,2.4770,-36.0894,-85.8084,-41.5177,28.6383,42.2898,-9.7349,-49.3110,-86.5585,-36.5275,100.0514,-6.0178,24.8893,-32.4489
-234.3750,62.7337,149.1410,31.0319,45.2654,64.9297,8.5410,-16.8785,-50.5093,-30.5817,-33.0307,-27.2168,24.4190,8.3575,-28.9949,-68.3869,-31.9259,46.5685,12.5989,-26.7145,-14.1215
-226.5625,72.2613,193.8121,3.1832,56.3675,-0.0001,19.9404,-82.0887,-37.7733,-131.2065,-76.5089,-17.9223,108.6952,17.6062,18.4769,-59.0572,-25.4535,55.2314,22.3705,-53.1709,-4.6405
-218.7500,120.6866,172.4202,16.2222,0.3790,-23.0351,0.2478,-30.4078,-93.1330,-79.9331,-90.8705,70.2677,50.8719,68.7567,-1.1426,30.1646,-62.5583,32.7938,-33.9463,-74.7267,-26.2563
-210.9375,115.2139,131.1647,-28.6458,31.5040,-31.9778,31.6637,-38.6343,-60.3842,-50.5759,-57.9237,26.5542,44.1464,24.9987,-5.6531,-14.5166,-40.7705,61.4604,-40.1506,-45.1772,3.2281
-203.1250,75.2351,56.4437,1.9825,99.1376,-75.4248,65.5864,-81.3613,10.8711,-92.7088,-32.3134,-15.6637,39.9063,-17.2648,27.3401,-19.6976,9.7901,90.6307,-8.8509,-14.1271,-1.7843
-195.3125,-5.1061,12.4105,-10.7494,91.4265,-88.2252,56.1620,-19.4421,75.7786,43.8109,66.6022,-100.2392,-7.6821,-65.8829,54.9949,-68.2317,69.6620,45.4446,52.1070,46.5782,23.8607
-187.5000,-105.4589,51.4109,-82.4900,60.7175,-86.0234,61.7374,-16.5251,156.6848,10.3305,73.8118,-60.8172,70.7323,-62.4968,24.6500,-64.7563,81.8659,13.2571,56.0669,50.2859,27.5104
-179.6875,35.4821,193.7416,-80.9413,64.3117,-84.5255,-7.3864,-51.3127,88.8904,-23.8526,-7.2182,125.8962,111.4472,14.1951,-43.3935,12.0300,-5.6137,-56.6339,22.3335,-54.7065,-6.5377
-171.8750,82.2191,346.8961,-107.5962,77.7071,-148.2245,43.2888,-114.3021,66.9006,-49.2472,-37.0178,100.4077,86.9612,-11.3086,42.3625,60.6180,8.2480,-81.7258,34.4053,-112.8931,5.2112
-164.0625,57.2575,286.3791,-96.9605,159.4089,-137.6225,57.2677,-139.9915,82.2123,-111.3363,-34.9353,149.2187,25.7682,0.4860,130.4152,-38.4985,52.9357,-71.5239,44.7839,-67.7795,-19.7376
-156.2500,124.0792,213.6929,-64.5374,157.9206,-105.2343,93.0576,-106.8924,82.3248,-40.6352,-0.3090,145.8256,-50.6199,-39.9285,55.2758,-115.8192,44.6821,-40.5203,76.9730,-70.8582,-22.8800
-148.4375,147.6937,307.8276,-78.3240,112.2472,-82.0531,45.6563,-120.0019,73.2393,-90.1417,-34.2602,133.2309,48.7875,-15.5457,7.9422,-91.3378,5.8589,-88.7129,99.9669,-47.1312,-35.2255
-140.6250,194.4549,355.1395,-29.9660,55.7306,-33.7247,24.4092,-69.9660,90.3048,-76.4940,-25.6431,109.7728,26.3404,-2.0156,-13.2365,-40.7085,3.2854,-112.7551,77.1119,-35.2522,-58.4203
-132.8125,116.9080,243.1911,-40.9101,85.9159,-44.6996,52.8645,-44.2395,120.0693,23.8413,36.6878,99.0084,-20.4045,-12.7891,-19.7120,-14.3860,31.9002,-86.0939,35.9642,-6.6759,5.0845
-125.0000,35.3494,91.2774,-55.8559,111.1024,-96.6738,78.3176,-58.5182,183.8317,-26.8242,52.3608,122.2340,3.8450,10.4339,114.8036,8.9375,107.0047,-98.4366,-11.1727,16.9012,28.5888
-117.1875,-15.4261,42.1955,-35.0128,98.0953,-38.8487,102.5739,-37.0000,172.3928,32.3075,77.0092,71.2514,-10.1016,-4.5524,139.1191,-5.9441,124.0354,-148.9774,10.4952,2.2809,13.8944
-109.3750,-67.8608,25.4979,-53.8222,152.4369,-20.6736,87.1752,-55.1383,195.2944,14.7789,98.5283,16.6191,10.3023,-22.1857,123.7883,-97.4802,135.5828,-167.1621,98.5144,90.0134,-3.4523
-101.5625,9.6034,-2.2771,26.2669,160.6809,22.4062,97.6714,-10.3786,170.0860,-13.8440,86.1617,24.8796,-17.4011,-50.9275,97.3568,-89.1243,123.5480,-126.4475,141.4389,96.6452,-31.8972
-93.7500,20.6174,44.5130,-1.0983,103.4776,32.0339,110.7166,35.9225,184.4214,70.0703,113.4325,-1.3121,-42.5569,-40.1264,110.4750,-4.2217,133.8787,-151.1788,81.9192,72.8346,-20.7896
-85.9375,-22.9694,37.7243,-11.0639,97.6688,21.0597,103.1559,-10.3775,215.1454,24.3867,103.9084,25.8974,22.6846,24.0748,65.9802,-13.9150,122.1799,-89.5100,39.8047,100.4271,6.7163
-78.1250,-13.8199,12.7148,-3.2813,108.6022,65.8360,77.3370,35.0772,190.6051,106.4534,123.2541,71.8484,-4.3212,70.0281,41.2315,-4.8601,107.9577,-81.0854,14.4432,74.7708,15.9721
-70.3125,-46.6291,50.7736,-39.4489,112.5894,29.6681,118.5604,-0.4236,233.1009,145.5597,158.5632,36.8539,35.7268,35.0347,118.5332,-39.7559,158.4592,-79.6074,52.1282,77.1628,18.2751
-62.5000,56.7578,49.0434,-5.4193,146.7848,27.6996,119.9842,-38.7287,271.7869,70.8685,138.1075,72.0533,-1.0361,-39.7620,157.0318,-40.4513,183.4878,-46.9322,50.0179,4.7504,-19.2237
-54.6875,77.5356,35.7255,-20.9936,169.3785,12.1331,144.8060,-53.6358,260.8679,56.5663,125.5974,-15.3587,22.6040,-91.1637,144.9250,-54.7599,177.7208,-26.8576,71.3143,-44.2568,-33.3224
-46.8750,-17.8393,46.2679,-47.7110,180.8153,-14.5747,121.4702,-79.6959,128.7881,-78.8826,15.5114,-40.9255,72.0956,-42.7216,10.6609,-43.2210,59.5329,-17.9306,81.4585,-34.4178,-58.5723
-39.0625,-95.2676,-30.2235,-54.4839,35.2012,15.6718,7.0791,-49.8059,-130.3506,-47.3831,-83.8240,-83.5480,-6.4626,-12.3363,-212.6544,-12.7356,-136.2953,-26.0484,4.5567,-41.6260,-100.8705
-31.2500,-89.5504,-93.5543,-51.1048,-96.2653,56.0643,-95.1651,28.2294,-269.3541,30.2522,-99.5048,-79.0230,-37.8715,66.2065,-315.8226,-7.0932,-228.9904,14.9918,11.8078,35.3209,-59.0222
-23.4375,-16.6340,-125.6755,23.4842,-163.5384,93.6647,-128.2206,29.4643,-264.1770,-40.9111,-129.6891,32.6994,-35.0893,67.9569,-274.8100,30.7445,-220.7003,52.2364,14.2539,2.4653,-56.9773
-15.6250,-0.1735,-73.2317,75.6239,-180.2665,108.8175,-146.7361,45.2469,-244.4719,48.4672,-83.2037,12.9713,-90.7561,11.2552,-219.2570,47.1218,-182.8763,32.0303,-3.7491,-15.8369,-40.3802
-7.8125,-9.5730,-81.6317,62.9142,-117.8506,59.1228,-119.1124,33.1732,-178.6286,0.9908,-70.8296,1.3925,-64.2764,-0.3028,-118.5611,-0.3500,-119.8235,21.9731,-48.5984,-24.9866,-14.6352
-4000.0000,17.9446,-82.1311,51.9813,-154.0227,64.9999,-157.2205,19.7510,-267.6768,23.6578,-104.6028,10.5254,-86.7151,-1.5632,-210.1485,10.9596,-195.4213,20.0197,-87.1188,-26.9264,-14.0918
-3992.1875,-8.2762,-39.8987,-13.7571,-147.7533,35.6669,-153.0809,26.5023,-190.9733,67.3837,-72.2726,-19.8485,-44.3380,41.9362,-169.6101,54.4824,-153.5559,-42.2835,-45.1496,-88.0928,29.0600
-3984.3750,-95.0505,-22.2077,-66.0508,-131.0225,57.7881,-97.4823,10.6982,-100.7937,-59.4440,-82.1011,1.2248,12.5010,62.8933,-41.5936,74.4529,-77.0322,-22.1317,-28.7267,-70.8103,12.6631
-3976.5625,-58.0142,-56.7046,-26.5388,-96.4799,60.7086,-61.0707,49.6918,-65.7870,-20.4759,-52.9676,3.1025,-23.8480,64.6458,-6.7600,76.2165,-41.7102,-56.1793,-62.5004,-103.7292,14.0630
-3968.7500,-68.8741,-68.0843,-38.9288,-38.8241,48.7326,-3.5484,-37.2127,-8.6511,-70.4038,-47.7402,27.0850,-1.0881,51.4943,14.1924,64.0738,-10.9151,-32.1296,-76.1730,-80.5527,37.5643
-3960.9375,1.1697,-36.5610,-39.4167,26.7496,48.6599,-43.1104,-75.2267,-50.5843,-107.4468,-78.8410,98.9767,33.5856,50.2505,46.0688,62.8290,-26.0832,2.8176,-78.9439,-82.4765,35.9635
-3953.1250,33.3679,29.1089,-115.7446,21.4890,46.7488,-12.5090,-78.0845,-20.3382,-74.3356,-55.9389,60.0164,66.4162,10.1613,77.1210,22.7286,-0.6042,-0.0834,-13.5658,-86.2574,32.5112
-3945.3125,-30.0860,-0.8658,-69.7230,61.5960,19.1959,29.4615,-69.5925,56.2936,-138.8765,-41.7921,67.4051,36.6131,91.4198,119.5471,30.9658,49.1932,6.3645,-8.8371,-46.6904,3.4125
-3937.5000,-2.1359,-79.4396,-2.2993,52.1203,87.0539,19.8431,34.3015,45.3577,0.9791,14.7555,24.1956,-8.7745,121.0826,35.3933,59.6051,32.2231,-35.7859,-17.7085,-19.7228,-4.2874
-3929.6875,18.3172,45.4944,-55.3749,-0.8383,71.4216,0.7434,17.6967,61.9505,-15.6583,2.0530,44.4789,84.3489,68.2488,52.7634,43.7495,30.8997,-51.4359,-34.0729,-35.2627,15.5144
-3921.8750,79.9644,105.6391,-26.2551,-11.5727,63.9936,-10.1379,-27.7122,86.7800,-61.1014,-13.0504,71.9576,110.6903,59.6210,41.3610,35.0900,27.8654,-23.8864,-44.2311,-44.6001,6.5169
-3914.0625,35.6670,23.8489,-37.0820,46.7607,17.6198,50.0502,-39.0713,145.6938,1.5075,47.1222,61.4897,62.0965,48.0416,101.0333,23.4691,90.1774,-34.2914,-20.3323,-19.8920,31.5704
-3906.2500,-53.0789,-99.3794,-54.3638,97.6625,0.8037,140.8005,-56.8770,197.1973,-90.3394,61.6050,43.5671,43.0718,67.0104,190.2854,-31.6095,156.0264,-16.1432,30.1240,102.3692,13.1750
-3898.4375,-67.4715,-117.2473,-30.2904,114.9317,24.3436,160.9203,3.6653,254.0901,-29.8438,112.4901,28.9885,-45.5851,52.3338,210.9202,-8.3434,200.9642,-31.6474,83.9365,85.9856,-37.8747
-3890.6250,-31.5656,-11.7979,-65.9253,148.5253,-10.8085,196.3587,-32.4881,288.3222,-66.0416,105.5428,-6.2981,-8.9252,-20.0438,171.8798,-7.7762,196.6185,-30.8592,118.0546,85.8992,-37.6222
-3882.8125,48.8370,32.1605,-17.0702,157.6389,-34.4618,169.3188,-94.1466,296.1011,-164.7462,50.2636,78.9177,38.2620,28.0799,144.3671,40.2867,169.0197,14.4204,91.6850,25.3161,-62.8650
-3875.0000,109.1920,55.0799,9.7344,108.7249,-44.1609,156.2497,-67.8546,245.8724,-101.4976,52.7744,105.0879,63.4135,17.1572,167.8311,-7.7024,156.1133,3.6425,44.2760,13.6807,-74.1586
-3867.1875,43.9897,-10.5372,-21.0175,148.2861,-0.4041,196.6541,-62.1098,248.1394,-132.7938,60.8960,36.6990,68.0355,22.6821,207.7788,-112.2532,184.3741,9.3092,83.3342,53.5028,-69.0010
-3859.3750,7.5780,21.6500,52.0337,179.6749,-0.8392,192.8848,-26.5642,243.2557,-60.3021,92.2101,-1.8931,28.4726,-14.9933,129.5708,-114.0135,167.9552,7.7832,80.2044,51.1308,-71.0474
-3851.5625,60.7149,73.3925,31.6350,195.6390,-19.7157,169.6936,-10.4671,218.9690,-7.2564,99.5446,-21.9415,44.4758,-73.1183,142.9471,-135.2248,164.8164,25.8081,61.6342,-1.6879,-18.5473
-3843.7500,135.9004,111.2019,36.2860,161.6791,-51.5418,134.5771,-43.3263,182.7805,-40.1723,56.3380,19.0573,120.5568,-32.1929,144.4083,-94.3948,131.7293,29.8801,29.1241,-34.4531,-14.9968
-3835.9375,82.9880,127.9287,18.8330,142.6459,-69.4633,77.3824,-25.2879,160.5419,51.8042,66.6165,-0.0421,100.5588,22.6369,123.7980,70.3347,108.8837,-22.1468,9.5247,-87.3217,2.4509
-3828.1250,-37.6222,111.9732,-34.3243,160.9401,-85.0809,95.5137,-4.9523,177.6538,-1.9193,64.7853,-16.8479,119.8739,79.7671,141.5242,90.3598,121.7715,-37.8766,28.2441,2.1063,22.1994
-3820.3125,5.8598,83.1260,10.6155,166.3635,-76.5969,100.7734,39.4823,181.9152,42.4470,91.2889,64.4453,126.3075,86.9993,219.3891,24.4820,157.1712,-30.5077,-35.9271,8.6364,29.0465
-3812.5000,-16.8568,130.0894,-12.6457,177.6114,-99.3133,111.8566,52.7138,229.0290,92.6207,141.4633,40.5399,175.5583,26.0317,304.0839,-36.5962,214.0069,-52.3420,-24.2863,56.9670,41.6944
-3804.6875,-59.9255,155.7175,-18.2619,167.5380,-30.3766,103.6173,82.5922,293.8462,-24.5599,125.6130,-2.7222,205.4802,19.7141,295.4668,-43.0325,233.3203,-60.5292,37.0170,82.9485,-2.0028
-3796.8750,-23.1490,156.2081,-15.0277,167.3454,-26.5892,140.2621,122.3189,292.5694,15.1030,131.1434,-37.1353,133.2631,22.2522,221.7401,32.3826,210.8609,-58.8679,36.1772,47.7864,-36.8473
-3789.0625,-13.4286,128.6603,-4.8485,210.1290,-52.8528,184.8820,57.9964,299.2943,-12.2803,130.6420,-64.6008,105.0173,31.7367,229.0029,-31.2560,222.4850,20.7406,9.3047,56.5723,-27.7363
-3781.2500,-11.4139,24.4212,70.6226,210.2436,-49.8125,184.8288,23.9718,298.3765,-10.3783,140.4844,-25.7677,69.1018,33.5186,265.6028,-66.6048,242.7663,57.6431,-26.2494,57.6606,-26.3266
-3773.4375,3.2609,2.8456,12.7403,188.0369,-71.1217,160.4576,38.5959,310.1638,41.1752,160.7551,-48.2849,46.8559,10.9487,277.8873,-52.3052,252.0173,37.1906,-13.1450,36.3951,-12.2670
-3765.6250,3.9339,37.2904,-23.1503,186.8622,-106.4392,196.1182,2.2101,345.0101,-32.2782,143.8207,-47.8074,82.6327,-25.6202,276.2255,-89.0118,261.2655,72.7361,21.9678,36.1329,-12.2006
-3757.8125,44.9561,112.1033,20.3019,191.0675,-99.4179,200.1585,8.1654,348.2634,47.6048,169.4854,-41.9757,87.7836,-93.8366,279.9616,-83.3652,270.2899,78.6269,26.4402,-29.7748,-6.7797
-3750.0000,-6.1228,164.8378,-34.3574,243.1992,-116.5046,254.1286,-9.9809,438.4782,29.3933,208.2466,-60.2479,179.8506,-75.1547,443.6339,-27.8192,366.9645,97.4092,78.8224,24.2184,11.5456
-3742.1875,27.9365,127.7339,39.1184,345.5117,-42.4487,324.2835,26.0141,618.9059,28.3265,300.3407,-24.3694,215.0960,-39.3239,587.4975,-29.1309,509.6492,96.3409,146.3653,92.3671,10.0262
-3734.3750,31.8930,130.5433,4.4888,453.7610,-2.4989,398.3719,64.9061,802.2912,177.1602,440.6344,-59.5919,216.2679,-73.5962,624.3085,-27.5480,623.0837,65.1664,218.8209,130.4121,48.4103
-3726.5625,-29.7582,208.7763,-59.7514,496.4463,-29.1565,479.8927,0.1902,846.1335,76.3853,404.3721,-50.4165,261.8653,-64.4728,631.5583,-18.5678,631.1580,3.3883,191.6996,103.8599,57.2007
-3718.7500,62.2403,334.6721,-73.3441,480.8108,-42.1673,427.0934,-13.8796,718.6878,99.2410,342.7859,9.4073,284.1308,-42.6956,578.4978,4.0606,541.2662,-10.7358,141.2485,53.9647,42.6406
-3710.9375,86.0930,428.4315,-121.0922,468.0551,-54.3304,412.1748,-27.0944,704.1475,85.9471,320.9718,-40.9191,343.2614,-91.0672,600.3318,-9.4616,533.6387,-57.0162,128.6648,5.9165,65.9270
-3703.1250,69.2385,409.5080,-139.5462,484.6330,-71.2006,391.5909,-81.0163,682.9745,-7.0584,264.5920,-22.9542,360.7220,-73.1422,579.5143,8.3076,503.8541,-108.9956,145.3988,-45.8274,83.5133
-3695.3125,36.6781,341.9069,-135.7046,415.5464,-66.7803,393.3396,-41.6438,647.1630,33.2301,259.1642,-91.6882,327.5065,-33.9189,508.0352,48.3777,467.1521,-140.6760,147.4485,-79.2690,86.4015
-3687.5000,-35.1388,269.0742,-137.1218,342.2448,-31.6205,353.8745,-43.5316,569.1625,-41.7342,211.2264,-57.6758,361.0643,0.0480,541.3480,9.1906,439.8011,-107.6080,73.2712,-11.9548,84.0448
-3679.6875,-1.3169,195.8981,-63.8949,269.6278,44.1817,242.0952,30.2274,457.8729,-5.0598,185.8907,15.9865,288.2906,37.6695,466.3560,46.6576,364.8972,-107.8961,35.7589,21.0183,47.3388
-3671.8750,24.5458,185.7845,-109.6253,188.0940,71.0326,229.3966,56.0357,407.6927,57.6713,196.0960,-32.3026,239.5838,-10.6518,343.4539,-1.8147,308.1847,-118.1453,96.3105,82.0344,72.6860
-3664.0625,5.1474,165.4387,-128.6193,167.3378,52.6219,208.4843,36.5870,423.3241,-35.8508,170.0718,-14.8454,182.6453,-30.2221,285.3471,-58.5320,291.7483,-67.6502,180.6242,96.8028,52.7923
-3656.2500,-84.8047,109.5573,-112.1647,146.0631,33.6575,224.0514,53.5778,401.4594,92.0705,216.5666,-71.9333,125.1793,-13.3408,226.7287,-41.8012,278.4735,-87.7071,230.4040,111.0238,32.3504
-3648.4375,-172.9537,90.5009,-93.9159,161.6197,53.4887,204.4474,72.3654,381.4523,36.7927,190.6422,-90.2244,143.5350,5.3299,243.9478,-60.2804,274.8651,-70.9697,174.9999,92.0474,13.7139
-3640.6250,-95.1042,27.4575,-46.6742,133.2061,63.3143,175.8748,45.1486,352.5091,46.5028,169.4363,-43.5081,115.9110,15.0001,178.2069,23.2410,231.1907,-98.2319,146.6033,64.0799,-13.9143
-3632.8125,-52.4505,34.2216,-75.6337,104.6132,35.9400,182.1279,15.7333,321.4162,54.0222,155.3757,-35.9860,50.0934,22.4799,147.3001,-6.4268,207.7333,-90.6913,224.0125,35.9239,-6.7320
-3625.0000,-19.5003,30.2963,-78.2984,100.3406,-3.1385,177.7064,12.6193,279.6772,-60.1605,101.8218,-2.1618,46.5933,-17.7347,142.7308,-46.7914,182.7674,-58.8482,254.7347,67.0792,-10.2392
-3617.1875,-30.5025,53.4400,-14.9207,88.1463,23.8262,91.3655,38.5464,231.0509,39.6982,107.5475,-13.2841,-1.8384,8.1000,57.2542,15.8912,132.0074,-69.9625,207.5172,-14.7065,-21.6920
-3609.3750,-83.3072,35.7952,3.6415,35.1840,5.9798,72.2590,19.6684,173.6949,-16.2361,59.2692,-32.2104,52.9403,99.1301,74.0157,33.7751,105.0369,-51.8878,189.5176,-33.2865,-3.9363
-3601.5625,-55.2250,-6.9454,70.0924,62.1540,0.0229,64.0912,12.6858,128.3019,-97.2821,17.4647,34.7599,45.6373,92.0560,65.7238,26.5572,80.0638,-22.9127,145.4438,-4.9529,-11.2755
-3593.7500,-54.6508,62.8271,35.0381,96.6652,-35.4429,63.4605,13.1929,90.4699,-22.8341,34.8419,-1.7709,45.8463,19.4758,27.9763,-47.1525,58.6287,-22.4391,180.8977,-5.1185,-11.1150
-3585.9375,39.3605,156.0727,59.4196,83.6665,-9.4648,50.3196,-35.8576,41.1516,-108.9506,-23.6681,23.1386,106.5277,7.3422,-22.2743,-96.4200,5.4621,0.4820,131.8285,17.1659,-23.5057
-3578.1250,177.1600,187.1391,93.5962,44.4982,-11.6954,9.0162,-39.1181,-37.2981,-75.2841,-50.0176,55.8476,66.0329,4.0067,-26.6804,-99.8939,-34.8475,-2.8015,92.5766,-21.7446,-27.1002
-3570.3125,98.3024,178.5730,48.1147,35.7068,-20.5843,35.0969,-49.0302,-11.3326,-85.2649,-42.4225,9.9032,56.8963,-5.9838,-0.6957,-110.0153,-11.7425,-10.7463,83.6890,-31.3066,-0.3438
-3562.5000,80.1359,53.7081,30.3196,51.6444,-74.7870,52.9138,-67.2494,6.4039,-139.5560,-54.7743,64.6576,1.4738,12.7267,17.0278,-54.4277,-1.2212,41.0034,29.5179,-14.1601,-18.8842
-3554.6875,80.2193,18.0991,-6.2335,85.8657,-73.7445,52.0185,-30.2240,5.4471,-29.5940,-13.3498,28.6667,-35.6915,-24.3140,16.0335,-54.5832,8.6297,5.9992,28.6185,-50.7574,-19.1735
-3546.8750,12.4863,89.7052,-40.6004,52.3229,-107.5084,53.3592,-28.0017,6.7489,-64.4343,-24.9091,-43.1287,3.3563,-22.1575,-56.7152,-89.5407,-18.9472,43.1934,64.9431,-13.1496,-17.2596
-3539.0625,-31.0594,80.5266,-9.7766,8.0083,-39.0823,8.9320,38.4140,-0.6873,38.9119,17.7902,-123.7243,-40.3792,8.1965,-101.2183,-59.2958,-27.9291,69.5825,20.4808,12.6635,-61.1457
-3531.2500,-42.7183,68.2624,13.9409,-39.3825,-51.7632,-42.5637,25.7262,-15.1625,62.1593,17.8725,-100.4245,-17.1991,-5.5527,-41.7847,-73.1489,-15.6814,57.8623,7.9347,-34.6259,-38.1287
-3523.4375,26.9600,-2.6367,11.9952,-76.3957,-90.1045,-45.6737,-13.6219,-18.2265,-50.2527,-32.9493,45.2215,17.3509,-7.9545,-7.9603,-75.6567,-20.4313,57.4838,6.7519,-36.5557,-3.7539
-3515.6250,42.5396,-92.6217,25.9395,-95.4785,-110.5610,-32.8529,-0.0814,-5.3307,0.2289,-5.6060,58.7788,-79.1842,-31.4595,4.8038,-62.2581,-0.4688,37.9997,-14.5187,-56.5842,46.5242
-3507.8125,-32.4397,-99.1347,-18.6833,-67.0770,-155.5898,-40.5429,-44.1014,22.0751,-43.8411,-14.8309,49.7828,-14.2542,-2.5288,32.0577,-69.4099,13.0395,31.9608,-55.3189,-62.1566,111.2604
-3500.0000,-45.1358,-147.3336,-31.0197,-44.3454,-167.3299,-53.9020,-130.8321,8.8361,-20.6247,-19.8081,37.0913,-27.0058,20.7027,18.6469,26.7418,-2.7606,-15.7792,-32.7991,-75.4194,98.3006
-3492.1875,-117.7401,-149.4245,-68.2566,-46.4902,-167.9761,-20.1329,-132.4645,43.7490,-22.3086,2.2320,-73.4978,-28.6535,19.0368,-19.6279,-12.0052,8.0919,17.5735,33.8347,-41.5785,96.4464
-3484.3750,-135.4545,-132.6060,-49.6075,-30.7101,-147.7385,-2.4306,-113.2045,25.6187,-113.1027,-41.0408,-55.1867,-10.3845,1.2633,-37.9616,44.1474,-9.1848,70.8135,50.3876,-59.8283,78.4995
-3476.5625,-170.6254,-133.2250,-13.4147,-31.3522,-72.9633,-39.1490,-76.4057,-11.9054,-40.3531,-31.0408,-19.3290,-82.5569,38.0325,-38.7125,117.8611,-20.9396,34.5979,14.5059,-96.5226,78.1063
-3468.7500,-109.4649,-71.4825,-21.8870,-74.6211,-117.8477,-48.4857,-85.2577,-21.0252,-85.2449,-51.5429,-28.1254,-19.3683,29.1469,24.9178,34.9318,-12.5830,-9.2779,4.9922,-69.8656,69.0699
-3460.9375,59.7831,-9.6299,-28.2677,-81.7651,-86.6431,-91.6922,-56.0154,-27.9928,-56.0488,-51.9995,2.1806,10.9372,-14.6407,-19.3149,-45.8954,-39.4618,-51.0577,-37.4048,-77.1012,62.1389
-3453.1250,33.8277,0.0304,-54.8509,-108.0831,-77.6477,-84.0710,-10.9808,-92.1149,24.9411,-40.6545,-25.7089,19.0458,-41.6285,-10.7170,-36.9147,-54.2515,-76.0357,-26.9871,-68.5352,107.0115
-3445.3125,-33.2371,-32.3967,-89.5505,-106.4740,-74.7718,-119.5129,-9.0599,-127.2830,-45.1814,-69.5564,-23.6958,21.0622,-3.7149,26.8123,37.9682,-60.4545,-38.1181,8.3501,2.9415,108.7854
-3437.5000,-53.0554,-52.5631,-109.0028,-91.5898,-93.6592,-102.6778,7.1070,-147.1497,80.9322,-35.2591,-43.4276,1.3306,12.4448,-102.3792,92.1057,-107.7463,-57.9488,22.9513,17.6699,88.8091
-3429.6875,-145.5309,-5.3653,-130.1115,-77.3387,-77.2067,-87.4664,-14.3801,-94.6200,59.3970,-9.1292,-100.8085,16.9578,-45.0499,-124.1967,33.6017,-87.9618,-45.4351,35.9240,101.7500,67.1899
-3421.8750,-114.4219,-8.5583,-20.6315,-82.4646,-4.1692,-89.6264,22.7202,-132.4423,22.4466,-28.0284,-65.5853,-56.8038,-8.9421,-89.3801,-3.2947,-84.9252,-13.3280,32.5207,97.4384,-6.8231
-3414.0625,-35.7719,-72.1968,26.3906,-75.0189,6.4025,-80.2087,32.3649,-159.6719,105.0459,-12.3526,-55.8082,-121.0129,37.7140,-79.9808,6.3665,-85.9870,-5.6744,4.6833,34.6880,-34.2843
-3406.2500,8.2110,-133.4855,35.7501,-30.1990,-57.6847,-71.4109,4.3571,-150.5029,40.9942,-32.6402,-46.6899,-74.8670,46.7093,2.7960,-21.6235,-57.9409,3.3289,-21.7891,8.3021,-25.3905
-3398.4375,8.7376,-63.2217,-0.3456,5.1827,-56.2275,-34.0452,4.8927,-113.7406,77.4874,-2.3785,-83.0190,-111.1671,-26.7524,-33.8550,-58.0570,-47.0062,38.8779,-21.6972,8.4842,-24.9423
-3390.6250,-60.0424,9.7590,2.2496,42.2792,-90.0800,5.0411,-29.8745,-111.2443,43.6832,-5.8661,-117.6376,-71.7638,-98.5138,-68.7808,-92.7840,-53.3915,111.1185,-19.8876,45.3732,-22.7899
-3382.8125,6.0135,-30.4013,72.6817,2.2508,-18.0962,2.0091,-32.8026,-76.8536,-33.2803,-16.7296,-83.3996,-74.5040,-101.4251,-71.8208,-132.6547,-41.7775,142.2006,-25.2108,75.1151,-62.7834
-3375.0000,52.4601,-19.1591,160.5056,-21.3482,-3.7213,-58.5905,16.6637,-100.0184,16.1521,2.1765,-69.7615,-97.8447,-124.9428,-95.4363,-229.1137,-53.2010,153.6717,-49.1231,87.2611,-86.3717
-3367.1875,-4.1081,-40.9128,139.3194,-7.9273,11.6427,-43.1681,-4.8776,-84.1459,-78.4139,-19.0031,-91.1253,-82.1809,-109.4652,-80.0300,-214.5668,-42.5937,167.1336,33.9809,135.4167,-107.9492
-3359.3750,6.8175,-66.1580,115.6284,-32.9973,26.4969,-67.2267,46.0746,-143.7399,-28.4923,-35.0160,-113.9780,-105.0077,-59.4833,-177.1015,-126.5164,-105.2335,178.0984,44.5981,110.0756,-168.0222
-3351.5625,-22.0620,-59.1898,87.1341,-25.8503,71.5351,-60.0695,90.2259,-173.1000,15.6340,-32.1623,-217.6254,-134.6355,-52.3070,-206.9500,-83.2571,-122.2225,114.2605,51.4336,81.9392,-160.8931
-3343.7500,1.3901,-35.8686,110.9763,-37.3318,58.9083,-72.5302,39.7198,-186.0684,-34.8993,-65.2272,-82.9241,-110.9100,-28.7931,-183.4212,-95.6415,-132.4111,102.7707,3.6346,70.1623,-137.4107
-3335.9375,152.6835,-25.7033,82.6616,-96.9473,-4.8808,-101.1183,-24.9409,-213.1514,10.4183,-79.1817,72.6326,-139.3365,-56.4351,-175.0288,-87.1668,-154.4213,78.1281,13.6959,9.2476,-92.0765
-3328.1250,82.8193,-60.6856,46.1911,-96.7037,-40.8313,-100.8411,-61.7589,-139.3491,-99.4081,-80.5422,36.0419,-101.9145,-56.2281,-174.7728,-123.8355,-125.7907,148.3303,84.6185,80.1889,-91.8854
-3320.3125,-28.4067,-101.0131,117.3643,-66.7988,-7.1439,-66.8960,45.0690,-141.8636,-65.5983,-58.5948,-3.8928,-141.8413,-23.3651,-177.8429,-53.8446,-111.8018,143.1765,79.2012,74.7890,-132.0421
-3312.5000,-78.6923,-46.3876,137.4838,-46.9310,50.4797,-10.9814,64.8414,-158.3973,-9.8384,-47.2482,-56.8769,-158.8227,-3.5513,-157.9492,-33.8874,-102.4787,92.9688,27.7461,23.3464,-112.2482
-3304.6875,13.0619,-24.7100,85.6370,-24.9941,36.1387,-24.9947,12.6576,-135.8485,-98.0331,-83.6090,38.1888,-173.7483,18.3008,-98.9895,-47.8803,-91.1759,43.8105,-20.6440,9.9642,-90.4007
-3296.8750,145.7080,-139.1321,75.6842,-33.1438,27.6855,-35.0841,3.3661,-145.3699,2.6625,-59.7684,65.1607,-218.7777,45.0433,-109.1124,-20.9671,-98.3924,0.5501,-64.1172,-33.5092,-63.6513
-3289.0625,46.1437,-132.7493,7.5266,-26.4834,-3.9791,-30.3569,7.8719,-103.0657,-29.8430,-55.9105,69.9360,-141.0103,13.5813,-67.4253,-16.2427,-70.3116,-27.9186,-58.7761,-27.1798,-22.0952
-3281.2500,14.6189,-59.3157,11.4143,-58.7636,37.3952,-26.5636,11.4213,-24.6869,-63.3150,-47.3244,73.7726,-101.1965,17.1764,-26.6754,24.5390,-29.9361,-24.3383,-90.3748,-59.7979,-18.4862
-3273.4375,10.5890,42.6161,-31.2010,-27.5372,-4.7402,4.7427,-31.5340,-29.7874,4.7136,-28.3904,32.1145,-69.8890,-25.7274,-32.4156,18.8375,-33.1019,-64.2610,-94.4696,-63.9086,12.6233
-3265.6250,-14.7070,18.2960,-93.0766,-16.5509,-66.1429,52.8155,-93.7399,18.8858,-94.5108,-48.9815,43.2041,-21.8303,-14.8879,-21.3889,29.8954,-18.9042,-53.4403,-83.8031,-18.2541,23.4871
-3257.8125,-7.5648,25.4205,-121.5041,-9.1049,-94.1083,23.3549,-86.4996,27.0321,-51.2954,-33.5257,13.7457,-51.3277,-7.5965,-86.8993,74.4093,-39.7982,-46.1682,-76.6750,-11.1373,30.8018
-3250.0000,-0.2787,67.6987,-150.7813,-36.4976,-49.9387,-5.9457,-79.1108,-1.6558,-6.9226,-29.1686,-52.5546,30.3201,-37.1630,-152.2535,8.0773,-74.4300,-73.7462,-34.3875,-3.8677,38.2694
-3242.1875,74.8073,1.7860,-72.2675,-67.0852,-6.9895,-36.4348,-36.9331,-31.5270,-0.7594,-33.7841,27.9592,-0.2308,-30.9313,-182.8041,-22.4446,-94.1140,-34.5261,-30.2886,1.2067,7.5379
-3234.3750,37.9486,-0.0699,-36.7073,2.3832,28.9984,-37.8614,-38.7068,-32.3351,71.4496,5.6963,26.5351,-75.7409,-32.6538,-221.3004,-23.9049,-93.1962,-36.2600,3.8690,34.3335,5.8548
-3226.5625,-73.7235,-41.7157,-78.9548,32.0566,24.1705,-6.0768,-44.2827,0.0757,-8.1386,-2.0998,21.3068,-7.0535,-38.1813,-152.5862,-29.1620,-54.6404,-5.7983,33.2347,63.6697,0.3770
-3218.7500,-50.1529,-53.1068,-52.9576,-14.0169,50.5792,-17.0331,18.3842,-10.2470,17.5095,-6.1431,10.3346,-18.1161,-12.4610,-127.6055,69.8367,-53.4605,-53.0810,-13.1395,17.2637,-10.8507
-3210.9375,-28.6325,4.4489,-68.0158,-98.1347,72.9244,-69.0234,39.9976,-24.6050,39.1088,-9.2611,-4.6817,3.7666,9.2028,-105.6675,55.7943,-58.5755,-66.4198,-27.5579,3.8152,10.8710
-3203.1250,8.9276,6.0518,-66.0327,-130.1928,75.3025,-66.9478,4.6541,-21.8911,3.7523,-26.4633,34.3503,5.6951,10.9026,-103.6682,57.8038,-63.3654,-64.7062,-25.9164,5.4285,12.6464
-3195.3125,-68.6231,-1.4564,-73.1587,-101.3422,67.5707,-37.9573,-3.7967,-29.2529,69.2932,-5.6098,-10.7160,34.5185,2.4995,-74.7669,49.7220,-48.6969,-105.0947,-67.3696,-37.0507,41.3247
-3187.5000,-116.9901,-49.7703,-198.0958,-10.2966,53.0231,21.2377,-91.0491,30.5867,-19.9625,-13.6860,-25.5866,130.5307,-48.7048,-16.6780,-2.1491,-7.8761,-119.2905,-45.6159,-15.3243,63.2077
-3179.6875,-54.4685,-22.1929,-168.1349,-17.3629,83.3650,-22.6740,-62.4093,24.3122,9.6672,-9.1171,41.4553,123.4329,-56.0087,-59.7052,-46.1123,-28.8879,-126.5889,-86.9617,-22.6911,55.9928
-3171.8750,-61.5494,4.7730,-213.7744,-25.0368,74.0938,-31.1840,-108.3642,15.4350,36.7066,-1.3676,-5.0931,113.7141,-64.9112,-32.3326,-54.6624,-21.3350,-99.4923,-59.9064,-30.6501,83.1808
-3164.0625,-71.2872,-3.9162,-184.0691,-68.3548,68.1585,-1.3286,-114.9724,46.9263,-79.9025,-39.3771,62.7097,107.3388,0.5293,-39.5924,-24.8584,-22.9661,-107.0477,-69.4897,-4.2483,39.7248
-3156.2500,-47.8316,-50.4033,-121.1726,-79.4639,131.4091,-12.2619,-90.3837,36.6272,18.6783,-10.0815,51.7214,22.1567,26.1706,-50.6467,38.1614,-22.6728,-154.4051,-114.8658,-50.6396,28.4706
-3148.4375,-133.4843,-64.9827,-103.3868,-58.6733,149.5478,-30.2901,-71.8998,18.2311,-0.8375,5.5370,-40.3598,2.8739,6.7069,-31.8097,-17.9047,-7.1488,-99.8660,-60.3328,38.8743,83.1203
-3140.6250,-144.5438,-75.9644,-41.0025,-35.2788,139.2721,-4.7089,-82.8194,8.4417,25.2323,13.7562,-14.8328,29.1914,-4.1565,-42.3693,-28.3674,-8.8263,-74.7294,-71.1898,27.9981,72.3710
-3132.8125,-118.0516,54.5950,-50.0684,-42.3297,166.5370,-49.5715,-93.1910,-72.7908,51.8581,-35.4453,49.2496,167.0488,-13.4686,-51.3749,-1.2717,-64.4413,-119.0478,-150.4932,-85.3246,99.1737
-3125.0000,-27.4164,74.3086,-66.9903,-128.2282,223.9365,-140.2764,-110.4167,-125.8654,-37.3698,-101.0855,143.4855,223.0517,42.3649,-31.2212,18.9801,-105.1884,-134.2192,-200.6416,-65.4958,119.1301
-3117.1875,44.7097,-26.4796,9.5839,-194.6266,263.8187,-172.4763,-33.1483,-157.4392,1.8966,-98.5409,147.2304,116.5558,45.6998,-101.5609,170.7436,-137.4709,-165.8920,-162.2871,-62.1640,122.5880
-3109.3750,-73.5234,-110.6202,-3.2002,-172.3723,215.3368,-112.0185,-46.2287,-133.3600,-11.1776,-81.7416,97.6258,66.6989,-3.3303,-40.2529,342.1602,-97.0282,-178.9167,-140.2769,-5.1760,109.7005
-3101.5625,-159.4125,-126.4136,-17.6472,-117.7659,165.1863,-52.2039,-96.9660,-71.9252,-61.9085,-83.7683,47.3750,53.1921,18.9898,-18.5942,511.9330,-66.9656,-124.5935,-155.9079,-20.8251,59.1669
-3093.7500,-210.6474,-72.5539,-33.4425,-63.5128,149.6739,-31.7341,-41.0535,-86.8448,-4.9892,-57.2869,-42.2195,37.3304,-34.0451,2.7135,496.3687,-50.3229,-104.6238,-100.8816,-36.8236,43.2822
-3085.9375,-200.6426,-62.4410,-20.9976,-53.0097,125.3998,-19.0136,-28.8869,-74.5159,-66.8197,-65.4758,-29.5654,49.7100,-58.8308,-58.7343,399.0631,-62.9206,-25.4037,-21.5944,9.4356,18.6460
-3078.1250,-111.7445,-113.4362,112.3493,-103.6032,148.0178,-32.3848,31.1761,-88.2855,-6.7577,-42.7855,66.9909,-112.0229,-35.7174,-181.2802,348.6583,-99.7490,-5.2795,-1.4003,28.5986,-32.0956
-3070.3125,-77.0501,-148.6369,112.4932,-138.3947,111.4231,-31.9496,67.0383,-123.2556,30.1072,-35.4697,67.3440,-147.9578,1.1901,-145.0258,349.0567,-98.2224,-5.3596,-1.4042,63.5605,-32.0404
-3062.5000,-30.3621,-207.8312,123.6274,-127.1833,122.8047,-57.5114,77.8929,-147.2301,-33.0395,-61.0609,78.6985,-100.8860,12.0886,-97.7706,323.4509,-93.7719,40.5605,9.5944,74.5332,-20.9876
-3054.6875,13.7251,-128.6285,170.1574,-47.5755,132.5722,-84.6726,87.1456,-210.8121,50.2154,-48.2822,52.4560,-91.4210,-52.6164,-88.1290,186.2502,-105.1271,49.8828,-16.0032,13.9143,-11.5398
-3046.8750,26.4568,-45.7726,146.3357,-34.3224,72.9739,-71.1855,27.0489,-233.7578,-47.8756,-97.2731,65.8684,-4.3184,-76.6765,-74.8531,125.7104,-122.2320,62.8559,-2.9407,26.9452,1.5630
-3039.0625,-23.8670,-24.9674,168.4701,-84.1248,21.3097,-85.7508,11.8987,-210.7686,-26.0282,-97.2415,87.2355,-56.2703,19.2122,-52.6320,258.1236,-114.8202,12.7799,-17.9223,-23.0671,-13.3835
-3031.2500,-80.7894,-10.7673,108.9984,-69.5412,-37.9634,-33.9232,26.1525,-158.3920,25.2265,-58.2537,29.0066,-78.8350,33.5029,-75.0205,236.9464,-95.1680,-43.9036,-3.4990,-8.6773,1.0662
-3023.4375,-18.7202,15.4212,100.5139,-42.9632,-82.2518,-42.0985,-19.5926,-129.0240,-57.5221,-75.9551,93.7863,-50.4038,24.7967,-46.4182,154.7759,-81.9180,53.4067,-48.0697,17.7193,-7.4835
-3015.6250,146.3527,4.6025,127.0290,-53.3869,-92.5549,-52.2725,6.6607,-175.6722,42.7229,-57.5935,120.5714,-97.9833,14.0907,-93.8284,107.6088,-112.6757,112.7227,-93.6376,7.1196,-18.0356
-3007.8125,153.5707,11.9288,134.6962,-45.6636,-84.7280,-81.2969,14.0609,-204.1850,-23.8821,-84.6118,128.5025,-53.4213,-15.4742,-86.0953,78.5930,-124.6081,120.1930,-51.0469,49.6758,-10.4381
-3000.0000,118.9349,13.4085,99.5128,-78.7929,-46.7705,-79.1753,52.6050,-201.5626,14.6480,-67.7350,130.5917,-124.7126,23.1143,-84.2184,80.7332,-118.0495,121.8186,-49.3006,51.3884,-8.6942
-2992.1875,49.2450,13.8373,62.2784,-111.9828,-46.8749,-79.1084,88.1044,-202.0059,87.1361,-33.3616,56.6347,-125.0615,21.6482,-11.4062,80.8325,-83.7170,87.3918,-48.6030,52.0569,26.9955
-2984.3750,27.3516,-43.9377,77.8356,-99.3756,-68.1948,-64.2465,102.4056,-185.6616,65.4250,-28.3832,35.4776,-74.6134,36.9777,4.1952,22.7293,-67.9329,100.7630,-35.1076,65.5317,5.4850
-2976.5625,97.2100,-43.9732,78.1394,-64.0241,-67.7750,-63.6385,102.4602,-184.5829,138.4658,-7.6657,-0.9247,-110.4210,37.0582,-105.4594,96.3783,-103.7800,65.8797,1.1366,65.7562,5.7214
-2968.7500,71.2694,-34.8124,13.6391,-19.4792,-94.1705,-16.8360,75.7172,-174.3253,37.7234,-41.5828,8.8690,-101.0387,9.3386,-131.9252,106.2323,-111.6102,110.1909,80.5784,75.1792,15.1575
-2960.9375,117.2762,-23.7018,64.0806,-42.9914,-81.6312,-39.0853,51.9190,-159.1319,-22.0832,-62.2973,59.6158,-87.7048,59.5612,-82.4484,47.0328,-96.3170,121.4539,90.9748,50.5579,-44.4608
-2953.1250,114.8325,-26.0506,26.0775,-44.9552,-83.5513,-3.7888,123.6715,-88.4050,48.6556,-2.0018,-15.0863,-162.8327,21.3358,-10.4313,-27.6068,-26.3124,83.2708,88.9239,13.4864,-46.5359
-2945.3125,22.6805,-83.1058,3.3754,-30.6249,-105.1816,47.8023,100.7279,0.6000,-10.3073,11.9007,-37.4923,-148.6613,35.4155,3.8751,-12.9454,16.8613,97.3910,68.1749,27.7176,-32.3108
-2937.5000,9.3824,-60.3202,27.5294,-43.4535,-81.9709,35.2349,124.6393,25.4334,49.5832,35.4277,-50.0399,-161.6470,22.3476,-8.9862,47.5718,23.7669,84.3579,20.2748,-20.1976,-45.2387
-2929.6875,-2.4120,-2.0370,-22.8231,-19.7992,-94.2739,22.1578,74.0592,12.7478,36.9882,16.5410,-63.0877,-102.1444,-28.2263,51.6338,71.5936,30.9690,37.8174,8.8802,-67.6102,-21.6665
-2921.8750,45.1906,45.6447,-9.7892,-42.7542,-117.1978,35.4752,13.8765,-10.5487,-24.2111,-22.3419,-12.7393,-89.2449,21.5942,27.6509,49.0164,2.3540,50.6735,21.8918,-54.6159,-8.6938
