Time,Fp1,Fp2,F3,F4,C3,C4,P3,P4,O1,O2,F7,F8,T7,T8,P7,P8,Fz,Cz,Pz,ref
-4000.0000,-111.0031,2.4227,-77.8070,1.9917,-91.3899,44.4175,-30.3153,-13.0973,-27.8684,108.4423,26.7907,41.8686,2.8709,130.2735,-42.8188,97.1833,7.8618,84.2654,-6.9705,70.8677
-3992.1875,-80.9880,-0.4322,-44.3611,34.1174,15.3291,32.6556,-69.2442,-13.5891,-66.6394,36.1281,100.4737,45.7644,73.6778,127.2118,101.4452,24.8306,-66.3585,47.4160,-45.4580,33.9718
-3984.3750,46.1919,-81.1291,-56.7587,23.4015,-70.8180,-20.5132,138.9797,-96.9167,251.7646,-84.0176,90.2991,8.5681,99.6456,114.1710,200.8750,-132.3611,-147.4527,2.7134,-56.8064,24.2224
-3976.5625,16.7721,66.5745,-14.7572,66.0905,43.4264,36.0486,-38.4017,-53.8071,-109.4450,-112.7609,207.5275,77.1621,-3.9917,81.4315,-50.3110,-160.1429,-1.1487,115.4069,-50.7510,31.8763
-3968.7500,44.0082,130.9293,-61.0972,165.4316,-76.6814,27.4609,-10.1525,-60.0089,101.9712,-153.8511,127.4134,70.2643,98.0212,-38.7589,51.1540,-93.2715,-77.2027,110.7510,-127.0437,62.1807
-3960.9375,-25.1532,28.8851,-94.8437,169.3745,-149.2105,60.2383,-44.2878,-91.5877,-40.9827,-112.3310,204.8866,71.9889,101.6300,72.5383,54.2355,23.2024,31.3313,80.6914,-53.7422,67.0886
-3953.1250,5.7751,-44.0305,-24.4906,166.4243,-42.6430,57.2978,-83.3440,-57.0378,-189.8741,-38.6991,351.4637,46.8581,137.3210,68.8252,88.4006,-13.2122,-7.0266,78.7442,-92.3409,30.0939
-3945.3125,131.1167,-160.5239,-39.7326,119.8892,-131.6924,-0.5693,48.9991,-33.0662,125.6636,23.3335,302.4293,-70.1580,160.4142,-94.6162,73.9732,11.7775,-124.0011,33.1915,-104.5575,54.4969
-3937.5000,45.6675,1.1814,-54.7742,106.5647,-110.5597,33.5987,-148.4670,-8.8664,-218.6012,48.5610,399.5971,-7.1487,35.7008,-73.9599,-86.2592,36.9817,37.2361,90.8320,-12.5744,42.0998
-3929.6875,103.0754,131.7475,-29.9520,131.0867,-123.5773,-23.9740,-87.1028,-55.7872,-9.0408,-180.3698,316.6214,5.5423,98.8357,-161.5458,159.3658,-155.9645,-8.6747,11.3197,-94.7402,32.5496
-3921.8750,33.3459,64.1603,-66.2839,98.4562,-123.7629,-30.1394,60.1318,-52.8357,101.4084,-250.4390,319.4714,-50.3872,26.8199,-272.3915,160.8615,-152.0646,99.2489,14.6482,11.9351,35.8506
-3914.0625,9.6573,-63.3612,20.4310,76.8882,36.1003,-13.5044,-34.6010,0.1963,-67.1267,-87.4463,371.3661,-107.1366,4.8344,-334.2957,-8.6143,-25.0950,77.2373,64.0323,95.6632,15.1991
-3906.2500,98.5803,-218.2619,-32.2394,26.9417,-92.4431,-75.5024,132.2584,22.8568,357.9445,-63.8677,283.8568,-231.4398,63.4539,-462.7173,48.5131,34.4682,-78.1838,-19.9879,114.9736,1.1425
-3898.4375,19.2592,-49.4090,-40.1588,-15.2506,-64.2487,-82.9589,50.8652,54.2888,18.7697,-31.5448,351.0938,-199.7077,19.8222,-509.4809,41.3950,29.7798,-15.8558,-25.2689,178.0285,-4.1683
-3890.6250,34.0024,38.5086,11.9931,2.6040,-10.9999,-134.1438,68.4968,36.8003,73.5986,-85.1738,296.3847,-192.6512,148.2357,-568.2885,206.3241,-96.8526,-103.4743,-113.4996,89.1213,-21.4335
-3882.8125,-22.6283,-50.9700,-81.2487,-16.9334,-70.1692,-116.8658,157.7304,53.9373,200.0510,-103.2129,204.2632,-214.8021,92.2638,-554.6083,185.8778,-151.8835,-19.5117,-97.1452,138.7981,-40.0997
-3875.0000,-31.3048,47.5122,19.4662,-23.5167,66.6015,-78.8709,39.8967,196.0531,-100.5737,-34.3014,235.0903,-194.7428,-62.7708,-639.0696,31.3670,-119.9555,9.4155,-66.8488,131.4311,-45.8174
-3867.1875,33.5340,-26.4920,-59.3043,-27.5856,-49.1260,-137.4398,181.5530,192.6851,224.3053,-36.8826,120.4066,-279.3183,43.6852,-757.1371,173.3683,-85.5313,-135.1657,-141.0614,56.5513,-49.0415
-3859.3750,-53.7263,-76.5937,-76.1753,-6.7477,-67.9624,-95.8500,91.1227,287.2371,-13.8926,21.4357,141.6117,-336.5535,-46.9606,-924.3975,83.2743,83.7885,-45.8550,-119.3871,146.5627,-27.3722
-3851.5625,2.0195,-52.6809,-18.0296,121.0909,-45.7823,-117.3721,40.6804,312.8253,9.8801,10.7386,129.8179,-389.6875,-59.6147,-1198.7555,217.1665,110.1165,-127.5514,-130.7176,63.5737,-38.7089
-3843.7500,-7.7138,-96.2652,-64.3751,148.4217,-205.1127,-69.5160,66.7530,340.9373,220.1925,-33.4596,-26.4995,-338.1646,-68.7584,-1028.7220,169.5752,27.9515,-136.7740,-171.5576,19.0729,-10.5488
-3835.9375,-78.2396,10.3574,6.4858,113.9491,-97.2483,-26.9989,-153.9818,379.2733,-147.3123,41.5492,11.3748,-269.2293,-104.7218,-921.5786,-50.8180,103.9940,-66.7851,-101.2027,-16.2200,-9.1913
-3828.1250,13.0467,-0.2088,-5.8420,103.2881,-110.5758,-143.1637,-19.9226,332.4301,170.9704,106.3502,-35.9626,-389.1684,30.1151,-1194.7266,157.5957,57.8291,-182.9986,-146.0564,-96.7156,-19.0437
-3820.3125,74.6959,-7.4285,20.1766,60.9855,-85.5634,-150.0883,-29.4918,323.9576,-22.3701,61.4930,103.0337,-417.4961,-52.6896,-1244.6134,148.3624,87.0025,-84.8679,-151.5836,-69.8632,9.4476
-3812.5000,95.5501,50.5656,80.4067,83.8751,-26.3459,-114.3637,-152.8826,349.7156,-218.5505,14.8497,54.2319,-357.2487,-65.3140,-1151.3800,171.3197,113.3899,-133.5402,-128.9170,-118.8098,-1.8687
-3804.6875,109.4310,31.5689,19.6474,99.7633,-162.1391,-89.0434,-29.2726,364.4953,14.2901,-116.7965,-114.5893,-341.5742,-14.9437,-1105.2411,148.3013,91.7784,-153.2311,-147.2652,-173.7635,49.8099
-3796.8750,14.2825,149.5277,68.8500,77.6002,-39.9803,-85.4971,-236.7149,380.2504,-339.9286,-64.5150,-27.4800,-347.4108,-73.6362,-1242.2279,-21.7770,182.1063,70.0433,-98.6670,-55.7588,28.4336
-3789.0625,139.3497,100.7056,129.2753,98.6529,-91.6041,-162.1435,-176.9681,332.2257,51.0307,-1.0575,-148.1883,-392.2830,-51.1269,-1296.1010,112.3296,60.6260,-50.4757,-216.8664,-105.5543,-19.7568
-3781.2500,108.2841,1.7309,59.5551,69.5647,-162.3861,-88.3880,-135.3539,376.0673,18.8851,-30.7584,-142.0676,-342.4793,-117.7691,-1075.2144,6.2872,-42.0044,-10.1519,-174.2349,-31.5024,-13.1071
-3773.4375,122.6186,88.1582,186.2448,15.8681,-36.7551,-118.4992,-192.3518,358.3338,-146.8837,-48.0434,-51.5520,-364.0521,-137.0349,-1208.9996,-50.3611,-96.2225,111.5698,-88.2105,19.9630,-31.0665
-3765.6250,232.9715,59.5830,192.9479,-47.8342,-104.1186,-271.2780,-2.3390,219.6197,300.3622,34.6748,-80.0586,-500.5367,-94.2941,-1463.8507,68.0151,-86.4487,12.2664,-116.2014,25.4119,-59.0323
-3757.8125,134.9864,104.6631,167.3039,-73.8805,-21.8327,-180.1666,-101.6719,270.5680,-92.7530,49.0315,-66.9367,-375.6541,-191.9074,-1162.0862,-67.9639,-36.0365,126.6219,-70.5498,68.5100,-119.3576
-3750.0000,149.0667,50.8162,181.7319,-22.8607,28.5181,-148.0804,-12.9742,324.5809,69.1467,-44.5783,-233.7760,-342.6653,-103.4753,-1077.3384,57.0930,-91.5790,-68.9642,-123.8452,13.6606,-102.6473
-3742.1875,110.8723,-56.3205,104.8803,-59.1337,-12.4289,-151.2477,94.4374,287.3058,140.7907,-80.4992,-198.9368,-388.0752,-68.3343,-1083.9877,-18.1430,-18.4289,-0.8656,-124.4619,117.5008,-103.2459
-3734.3750,176.8334,82.6902,213.1944,-96.2697,168.7913,-199.8134,18.9884,251.1983,-81.4378,-43.2832,-51.9515,-379.6647,-106.0473,-1163.5322,-93.2310,-17.1300,31.3885,-90.9403,79.4981,-139.7052
-3726.5625,299.2658,101.1485,229.9749,-112.9538,110.4681,-295.4170,219.9873,123.5582,303.8006,-96.6377,-181.5394,-424.3713,-14.3098,-1260.6761,34.1566,-107.3940,-55.9236,-106.9837,-44.0690,-120.7249
-3718.7500,136.9160,151.8077,170.9604,-62.4288,123.3368,-168.9834,50.1843,176.1388,-86.7557,-43.8137,-128.9509,-274.9015,-110.3873,-956.6696,-98.2533,-90.4675,63.9702,-55.8350,5.5641,-104.5555
-3710.9375,148.6847,201.5901,150.0669,-13.7908,138.3254,-165.7978,29.4566,120.8396,-107.2567,-134.8839,-148.2750,-178.3496,-20.3837,-724.6252,65.4163,-145.4467,-63.0222,-146.5941,-86.7023,-160.3008
-3703.1250,135.6211,119.5262,61.3437,-60.0020,85.4681,-191.0805,125.8958,72.6936,136.4240,-220.8072,-161.4782,-221.9967,76.7849,-706.4984,51.2452,-84.2831,-74.8776,-193.2232,-63.8262,-135.9082
-3695.3125,151.4106,243.3083,151.4833,-42.3664,247.4771,-178.8068,-4.8171,91.4190,-105.0679,-127.8956,-69.8497,-207.1125,-90.2008,-841.5513,-153.0865,-28.2732,12.1264,-69.0152,-47.0853,-117.6782
-3687.5000,210.6705,163.5345,104.0925,54.7146,162.9558,-241.1384,131.9250,83.6142,252.8901,-25.5427,-152.7947,-319.4353,-25.7455,-1150.1969,-14.9526,-108.8221,-102.4300,-77.3676,-91.8952,-126.0158
-3679.6875,161.4514,81.2514,53.2100,-63.7131,147.9360,-243.0958,81.1878,219.3247,-54.6209,-73.6949,-54.2676,-427.8673,-38.7957,-1315.3970,-65.3106,-156.8804,60.5109,-124.2303,-35.2056,-137.8677
-3671.8750,200.4957,157.2375,132.6009,-58.8891,152.1946,-226.4637,12.6826,300.2993,-159.9172,-102.6068,-84.5115,-403.6107,3.3906,-1315.3796,13.5655,-185.6949,64.7135,-118.8501,-101.2669,-167.4845
-3664.0625,183.1587,141.8297,77.6017,-38.4580,22.0611,-214.4023,105.7922,211.8811,80.4229,-80.9423,-212.1904,-350.4507,-49.8194,-1152.7896,-39.9415,-163.9300,49.4962,-97.8941,-116.7349,-146.5186
-3656.2500,143.2868,173.8663,145.0659,28.4184,162.3932,-125.7051,-121.6451,170.9268,-365.7972,-10.8488,-32.4360,-239.6766,-55.5917,-942.7692,-229.0055,-20.7208,115.7346,4.4983,-50.7447,-114.1170
-3648.4375,226.2798,83.7504,158.4012,43.1360,63.5996,-124.7982,-34.2330,113.8352,-133.1779,-104.9071,-54.8525,-225.0399,105.4891,-786.9389,4.7890,-77.6641,-46.1826,19.7344,-107.9076,-98.8838
-3640.6250,140.8941,70.2303,106.3486,-5.5497,47.4135,-14.8793,-86.1994,138.3503,-219.9274,-264.3806,-68.7033,-92.4594,-18.8243,-401.5388,-46.8057,-201.0231,115.4970,77.5591,53.5291,-112.0631
-3632.8125,148.4762,220.6709,191.2738,39.7153,132.2016,3.1006,-111.2286,151.8253,-281.7693,-250.9270,-129.6190,4.5151,-117.2050,-321.1878,-71.4625,-260.4481,159.1425,87.3227,-8.0733,-172.3088
-3625.0000,117.4957,155.5114,118.6200,44.3848,57.3993,-64.3114,73.1533,81.7061,122.8125,-27.0846,-274.1649,-38.8685,-79.1950,-325.4507,-33.7120,-109.4852,23.1708,-82.5431,-109.2825,-96.1706
-3617.1875,-9.0681,136.7492,21.3767,25.4490,106.0046,-10.5851,-98.0637,23.9930,-194.1996,136.1515,-150.3283,36.1841,-102.7966,-60.3189,-166.5760,52.8785,38.5944,-31.0259,-59.0896,-44.6434
-3609.3750,87.1864,129.7893,12.9496,53.3093,23.4430,-31.9350,-69.4932,-18.9129,90.5731,19.1753,-121.7072,54.4793,0.4073,36.5941,8.3626,-25.9633,-145.1887,-37.7094,-207.1005,-51.3334
-3601.5625,184.9164,88.2660,41.9845,46.6184,-59.6548,-13.7488,-40.4430,-24.3710,46.8304,-96.3718,-54.6760,57.3982,-43.9220,97.9449,37.7727,4.6229,-46.5329,-78.9625,-178.6582,-57.5876
-3593.7500,213.5528,153.6469,143.9344,6.8180,42.1808,2.5971,-194.4941,-66.9211,-218.0439,-139.0251,-24.7696,92.3537,-14.3775,159.2063,-6.9272,73.0981,53.0373,-13.3246,-115.2941,-26.9605
-3585.9375,168.7627,4.5916,59.4634,-37.4360,-7.4128,-19.3769,14.0215,-111.9233,137.6568,-74.1440,-181.3517,73.9234,85.7124,290.0072,55.9345,28.1063,-96.8518,-92.1584,-54.3857,0.2000
-3578.1250,9.9885,23.5314,3.0057,-88.6978,83.0067,34.9682,-78.4537,-55.9291,-211.6254,129.7170,-89.9572,124.7664,-80.1988,413.8281,-73.2041,48.1046,-8.7464,-38.0103,69.5207,19.3474
-3570.3125,125.0806,35.3235,15.4193,-42.1139,94.3096,-13.0993,-30.0928,-114.0811,-53.0904,107.4081,-40.7201,127.5756,42.7434,420.5154,49.5072,-48.0568,-136.7930,-96.0191,-60.7246,-3.6722
-3562.5000,142.0497,-17.0478,-40.3080,-94.6774,-36.5275,13.6919,-11.8612,-130.3850,76.3387,-19.0680,-21.6721,144.7789,61.5422,581.0532,-5.9088,-64.3828,-15.0031,-78.2002,-8.1223,-20.8556
-3554.6875,112.9751,132.5301,40.9251,-86.2944,116.6051,31.9854,-114.6843,-47.7400,-210.3022,-9.6059,-13.7000,160.7240,-4.7316,436.5697,-108.3893,19.2320,97.7619,-69.4406,34.4483,-12.1012
-3546.8750,84.9260,35.1151,-27.8109,-77.9106,47.7666,-15.0568,74.4969,-112.1038,199.0691,71.8416,-190.7683,97.3221,37.9845,364.1159,44.1244,63.8265,-0.4764,-95.7009,6.0195,31.6341
-3539.0625,-88.5053,-66.7045,-96.9321,-38.9340,49.5456,138.7106,-33.7061,-106.8740,-90.9398,2.8699,-150.2661,237.5445,-104.7023,767.3035,-62.7684,69.0039,108.8814,14.6260,115.1908,35.9498
-3531.2500,-12.3655,-59.9757,-17.4735,38.5922,128.9149,160.8262,-26.3670,-62.0903,-48.4340,-134.5719,-142.2164,280.4491,-61.8385,806.0621,54.8738,-69.2788,-26.2113,-13.5063,15.9121,7.7990
-3523.4375,85.2071,-65.8594,-26.6041,-73.4853,45.6948,25.6573,112.3880,-140.9110,237.5070,-31.6295,-77.7919,143.2066,-33.5539,572.2265,82.9325,-2.1752,-101.9151,-55.2511,-26.9701,37.0321
-3515.6250,93.7994,120.2568,56.2738,-133.5728,163.5026,-1.4376,-62.8506,-166.7351,-120.5771,126.2909,4.6057,184.3365,-60.2776,576.4447,-55.0256,82.9162,-58.6025,-10.0030,-52.8314,47.2470
-3507.8125,32.0604,60.0257,-7.1676,-54.0139,62.9998,24.4748,20.5705,-227.9183,219.9859,28.8304,-204.3823,246.7345,60.6359,765.3735,65.6759,-15.3792,-118.6427,-35.1202,-113.0376,22.0888
-3500.0000,-100.4118,-70.9700,-35.3420,26.7894,33.7611,152.9620,-7.7352,-142.8600,44.8330,-34.3941,-232.1542,304.1622,-41.2160,917.6107,-36.3692,-4.4522,65.5622,-60.0009,0.0097,32.1629
-3492.1875,-27.8148,-66.9168,41.5529,-5.3572,145.6090,118.9223,-78.0076,-137.7583,-26.3030,-66.5682,-154.8876,263.5060,-1.0267,841.9435,3.6144,37.5264,33.8260,-90.8385,-66.8908,36.2679
-3484.3750,116.8089,-61.8686,6.4593,-105.5071,-0.5177,11.5451,33.7384,-206.6680,233.6016,11.2465,-78.6516,159.0635,38.1772,692.3022,42.6078,78.4992,-66.9310,-84.6903,-132.8001,76.3540
-3476.5625,144.4488,73.1753,110.3775,-146.6673,139.3896,12.8898,-156.5003,-248.5856,-177.4948,43.0469,97.5586,218.2900,-5.6305,754.7175,-110.4040,73.4588,30.3141,-21.5594,-104.6990,70.4254
-3468.7500,184.0024,-26.8805,115.2165,-69.9332,106.2330,36.2901,-41.8335,-278.6182,47.2897,-170.2815,-44.3593,226.6315,110.4594,791.1141,40.4959,-30.7051,-34.5374,-50.5444,-99.6935,76.3760
-3460.9375,-27.2226,-94.7542,78.2728,34.9995,105.2977,166.2611,31.0666,-239.4664,-25.6940,-278.4424,-227.1162,308.7294,-36.2370,897.7726,3.6044,-28.6964,176.8039,20.6480,40.5134,77.5098
-3453.1250,-130.0340,13.7683,120.7495,74.3227,220.7950,166.6673,-73.6389,-194.9237,-166.3085,-160.2168,-258.4813,334.9808,-67.5393,825.9043,10.0938,-20.2963,180.5563,60.2359,9.1286,11.0266
-3445.3125,4.0380,-26.8545,78.0939,-37.5124,102.1610,17.3367,103.5130,-272.5514,230.9637,-56.1537,-191.0183,214.8160,74.0078,703.9438,150.4501,-99.0653,-1.8550,-51.3404,-68.4226,5.3776
-3437.5000,58.8282,-76.7804,26.1435,-121.6489,160.2412,49.6323,-58.6322,-249.4933,-79.0587,4.5926,51.1228,238.3783,59.2421,905.7596,-11.5043,-38.1503,-52.5544,5.7727,-12.2646,-8.5837
-3429.6875,157.8330,-117.5054,54.4180,-92.5903,113.5598,36.1849,43.4146,-182.2495,170.0898,-2.4813,-68.5569,179.7408,87.6682,745.8559,16.7390,-45.0467,-199.0412,0.0757,-54.8932,20.6355
-3421.8750,11.2195,-121.8921,12.0580,-62.1955,34.2539,85.7963,110.8446,-148.6802,201.6316,-80.2348,-219.9201,187.4771,45.4503,699.3763,-62.6520,25.3859,6.8074,-4.2939,80.8293,16.1877
-3414.0625,-127.5784,22.5190,53.5120,-59.0163,110.7838,118.5133,-31.9203,-142.3300,-89.0586,-37.2078,-252.4866,270.7775,-60.9786,773.7997,-58.2559,31.5999,150.4658,34.1314,118.3625,-15.4786
-3406.2500,-119.8466,-109.5728,-49.5173,-50.3383,-66.1546,79.0666,122.8231,-169.5004,323.7613,119.3028,-354.5721,213.0552,-89.9034,777.8055,207.6461,-32.7095,17.6112,8.0436,56.3874,-6.6638
-3398.4375,-148.0999,-170.6713,-79.5378,-112.6655,-23.0730,143.2366,-17.4211,-51.6923,36.6030,164.7971,-127.6798,208.4368,-118.8277,853.8848,30.5383,12.9732,59.7623,85.9467,133.4150,1.1358
-3390.6250,-57.7369,-185.1637,16.0673,-127.3999,70.6536,86.2651,40.9252,-65.3010,94.0178,76.8726,-107.2036,163.4173,85.8461,761.6580,52.0146,-0.7622,-96.4756,1.4425,83.0506,-13.4818
-3382.8125,-119.6000,-175.9183,-46.5594,-82.3914,8.1489,83.0915,162.0477,-89.1886,179.2181,16.6839,-169.0120,159.3882,97.2728,695.2858,26.2602,48.2192,-50.9705,-23.3370,92.4336,-38.3662
-3375.0000,-219.8005,-29.0318,70.4737,64.2561,161.3201,167.5105,-52.1812,-80.4405,-181.9621,-11.8732,-163.1773,276.3873,-42.6635,698.6786,-114.8638,19.8400,165.2036,52.5302,133.4824,-67.6174
-3367.1875,-245.9627,-160.1395,-28.4759,109.8997,60.5213,190.5814,105.5965,-104.7112,159.8577,36.5433,-372.3528,290.0278,-31.5971,816.1661,43.0155,-151.5615,139.3668,98.3870,142.5244,-92.8893
-3359.3750,-292.9488,-242.1149,-41.2675,62.6771,120.8933,247.1158,55.5451,-41.8608,-111.1386,62.0860,-274.3966,276.8340,-81.3752,836.9069,-116.9450,-162.8327,267.6719,227.3786,235.7162,-105.0254
-3351.5625,-140.2733,-228.4428,83.6143,76.0996,207.9559,187.5076,33.1298,-25.3820,-170.5088,41.2666,-113.8041,203.5426,43.4869,627.4084,-102.2683,-109.4618,104.6339,206.0131,142.5688,-126.5252
-3343.7500,-43.9858,-270.1876,-0.8955,32.1218,86.6405,112.3524,169.3366,-108.3322,2.7600,-4.9676,-50.6470,137.0903,69.9481,576.6198,34.0235,-44.5056,-9.8187,127.2376,64.0222,-99.4416
-3335.9375,-75.1853,-90.4371,77.1002,36.6298,126.8560,140.5897,-10.9452,-139.8035,-286.4929,-35.7155,-11.0004,240.7361,-73.1020,688.4443,-72.1954,-3.0670,100.2449,131.9572,102.9884,-94.8733
-3328.1250,-132.3076,-41.6266,18.1625,86.1770,30.1601,129.4671,77.8267,-160.2541,132.2936,-93.4270,-217.3094,257.2908,-22.0902,663.4150,-21.3636,-96.5959,113.3525,145.7184,46.0024,-116.2741
-3320.3125,-219.9503,-57.3764,36.6773,34.1617,84.9315,133.2295,96.0737,-140.2871,2.5760,-36.7159,-235.1829,198.4453,-39.6182,494.9587,-150.0791,-76.6985,342.8911,235.9119,169.4663,-97.2381
-3312.5000,-112.6387,-20.1855,185.1573,1.0885,232.6903,89.9061,60.2620,-173.3900,-143.2181,-108.0771,-161.1153,186.6724,-2.2039,456.5948,35.1440,-147.8696,274.3875,238.0541,65.8920,-95.2678
-3304.6875,1.5342,-115.1614,121.4980,-24.1390,131.3250,51.9931,216.3265,-198.6714,160.8732,-243.6146,-152.2290,180.5781,118.0644,610.1901,118.2404,-174.2096,36.7270,36.0338,-30.8313,-85.4631
-3296.8750,-44.6296,-90.4948,110.4934,0.2776,229.6340,87.9548,95.0617,-172.3336,-145.3942,-181.5149,20.2903,234.0754,-4.0306,706.5563,-114.0226,-72.9083,61.7302,-44.3392,-6.8909,-96.0218
-3289.0625,-1.7615,-81.8206,116.5055,8.6812,197.9904,-40.1081,247.8029,-275.0305,192.3144,-137.4270,-10.1906,100.7229,112.8772,343.0342,38.7097,-65.6346,-71.2633,-70.7179,-33.9434,-52.6007
-3281.2500,-91.5570,-65.8528,93.8189,-45.6240,101.6681,-11.7501,225.8739,-295.4625,169.3616,-194.0621,-33.3778,89.1821,17.1005,317.9293,16.7416,23.9077,120.0283,51.1911,87.3004,-0.8955
-3273.4375,-121.9938,10.4719,100.4890,-39.5859,107.7266,78.1672,47.2801,-214.5700,-45.2664,-114.3603,-64.2182,198.8665,-50.3357,543.3188,-87.8980,-5.2135,230.6831,162.4398,91.9036,-30.8576
-3265.6250,-41.3596,-85.1524,0.2208,-29.4918,-30.1447,70.7573,240.7462,-129.6640,332.1820,7.3682,-201.0293,188.2944,-77.7302,623.8863,-41.4693,-68.3089,64.3801,-38.2812,101.5492,-20.7818
-3257.8125,-89.3125,-96.3835,-123.6484,-77.0107,29.3957,99.6321,79.6291,-33.3917,61.0371,104.4765,41.5588,186.7188,-163.7293,681.9706,-164.6379,29.9829,-17.5123,-85.6004,195.6047,2.6818
-3250.0000,41.1632,-0.2053,-135.1060,-52.1417,16.3680,-12.4840,140.9031,-79.7484,195.2534,93.9585,65.5640,119.4235,6.6837,446.5742,5.5859,55.6592,-308.9968,-200.5086,79.0638,27.5268
-3242.1875,7.8135,-33.8906,-207.4225,-119.1204,-56.4981,-40.3876,216.3522,-150.9891,233.6577,96.5710,-7.2864,84.2844,45.2625,446.4510,6.9788,95.4579,-202.3423,-163.2820,80.6650,29.5067
-3234.3750,-68.2814,-3.3291,-28.4918,-125.8550,48.9074,6.1418,64.0443,-117.0036,-65.7171,92.4247,25.1269,111.3692,4.0791,440.7206,-71.3913,18.4892,37.5763,-27.8177,74.5217,-11.2755
-3226.5625,-9.2032,-84.6131,34.5894,-30.4489,-35.5156,40.0575,200.8908,-90.9037,218.0754,-27.5839,-134.3065,119.1845,30.0530,428.2566,28.4069,-174.3504,96.6294,-38.2194,28.5155,-21.9195
-3218.7500,-34.8097,-144.6077,6.9626,-20.7565,10.3781,123.1942,62.0570,-44.5363,-30.8147,-17.3168,-88.4358,154.5224,-108.6775,547.2286,-110.4961,-54.9114,211.9851,6.6738,143.8142,-12.2791
-3210.9375,23.6969,-120.5076,-4.5514,3.0428,-1.5865,83.0391,50.3214,-18.0960,67.3598,119.0279,-137.4580,123.6452,-120.3184,460.4392,-48.3176,81.6042,-45.5437,-39.3324,96.2268,-23.5563
-3203.1250,-80.4727,-154.1239,-186.7651,-66.8621,-75.2294,45.1830,124.9184,-16.3950,251.8837,231.6537,-137.1802,91.7970,-82.6466,497.0533,-47.8274,120.4000,-184.7866,-109.0528,167.9422,-22.5434
-3195.3125,-155.0311,-87.1360,-44.3767,-105.1877,67.7589,70.4185,-25.8768,17.8684,-156.0062,154.8630,6.7164,140.7243,-12.3713,565.3885,-125.7383,7.7937,-84.4306,-112.1740,129.2699,-25.9420
-3187.5000,-44.3210,-81.8893,69.2759,-65.2800,34.0331,7.5868,50.5826,-51.6593,67.3599,11.2948,-65.1316,69.9948,174.1623,347.1232,24.6160,-62.5910,-79.8401,-107.0603,-43.1547,13.8914
-3179.6875,-91.3966,-91.4678,164.1260,-6.1747,55.5185,80.9183,-74.7390,-65.0212,-168.0414,-39.0978,30.2062,84.6948,85.8921,294.2187,-173.8264,34.1913,189.9565,22.2452,15.6326,72.9100
-3171.8750,-55.9623,-21.5573,204.4883,64.4355,57.5454,126.6538,-181.5650,-25.9063,-201.9843,-108.9919,33.0500,166.0750,15.1058,406.9397,-98.7934,1.4553,119.2811,58.0571,15.9313,2.4135
-3164.0625,-23.1035,-59.2503,55.2626,62.4357,-91.9979,103.2464,-74.9609,9.5616,88.5083,-37.4991,-80.7191,149.6728,-61.2616,441.1621,9.6500,-36.8950,11.9968,-84.7318,13.6266,0.3019
-3156.2500,-43.7875,61.5085,-4.5079,-64.1299,-41.0645,40.8848,-243.8984,24.4456,-227.5583,198.4248,6.9629,104.0500,-10.1816,344.9918,-87.4680,52.1883,26.1701,-70.0695,27.7810,14.6272
-3148.4375,34.6849,0.4152,-70.1197,-20.5507,-142.9469,-31.6442,-125.6897,-39.5509,37.5190,207.4792,-22.1995,12.4001,256.0532,169.1244,31.5677,98.4008,-140.5181,-96.2641,-69.9174,23.0851
-3140.6250,-4.3668,-108.2289,-75.2880,10.4709,-148.3719,62.7793,-131.0069,-8.1388,-114.9198,54.9573,45.0916,52.5244,249.7362,309.8370,-11.9339,93.0355,-75.7594,-30.0253,-4.1675,53.9845
-3132.8125,-72.7888,-106.2512,39.1485,-21.9152,-35.1669,82.3933,-237.7388,32.8397,-258.7984,60.0013,84.9989,72.3998,290.0055,351.2951,-44.8576,-12.7574,-108.3740,43.8228,34.1915,21.4680
-3125.0000,-88.4184,-156.5146,-52.6505,-72.5536,-90.1955,33.2315,1.2933,52.5247,127.0967,79.7707,-43.3480,7.5512,309.0367,259.6266,10.9795,-29.8302,-229.2398,-7.5790,18.2888,40.6799
-3117.1875,-158.6227,-52.3900,-90.0382,-73.8003,-17.7996,72.4708,-110.2635,88.5711,-204.6066,115.9518,101.7144,51.1951,87.4691,258.4734,-100.7988,43.4956,-55.6982,27.4168,86.7903,39.2752
-3109.3750,89.5919,57.1313,-86.0098,35.3496,-86.9669,19.8614,-69.4279,56.9835,-16.9347,10.5265,143.1956,36.8626,91.3077,79.8629,50.8201,-24.7944,-122.7628,-4.1959,-51.3108,7.2587
-3101.5625,217.2753,44.0953,-170.5319,56.9383,-135.6680,61.5463,-7.1122,45.8033,-65.7804,-74.4989,241.1225,87.5999,42.6136,215.8551,-109.0912,-35.6668,-65.3990,52.6214,-28.9647,-41.3083
-3093.7500,239.5559,101.6612,-109.4569,79.1137,-0.7399,98.3439,-93.1955,70.1862,-298.0579,-122.9417,338.6589,158.7731,67.5153,314.5854,-231.4078,-120.9424,-79.4222,110.0387,-43.0092,-90.2816
-3085.9375,294.0520,50.4137,-164.1697,62.4903,-54.5870,-37.9278,146.9373,16.7202,124.8943,7.8136,284.3940,0.7276,160.6166,-33.3747,-28.5025,-138.0330,-235.2436,23.6521,-58.8595,-71.0649
-3078.1250,134.7072,-2.7031,-147.7268,9.0125,-2.2738,-15.0197,15.2298,33.3684,-116.9836,97.6992,337.2836,-33.4356,102.8651,-52.0326,-49.4588,63.0015,-114.9005,40.4168,98.4505,-54.7066
-3070.3125,132.5172,-74.6711,-113.1170,41.6724,-4.7741,26.5127,49.6617,31.1383,-45.7424,-14.2933,186.3398,20.4232,63.2758,130.6066,94.7229,25.1642,-187.4080,3.3287,24.9167,-57.2068
-3062.5000,80.8902,-127.1002,-167.9588,59.8673,-59.7104,71.8725,67.6730,49.4155,45.0883,-32.7353,130.9407,49.3812,-65.7418,222.9036,2.4826,-67.1397,-28.3838,-13.2257,7.9289,-39.1643
-3054.6875,100.1135,68.3080,-38.9577,43.9109,69.2271,41.6810,-97.4572,68.5065,-266.2467,-13.3278,222.4013,32.5174,-46.9281,-13.8175,-162.9079,-10.5998,95.5078,41.0668,-8.1958,-20.2801
-3046.8750,165.0004,99.3599,-42.3035,38.6096,28.8369,-78.2286,83.0735,-45.7896,134.0900,-53.2952,108.5167,-41.4124,133.5388,-200.7592,-19.6419,-13.4287,-49.9528,-33.9948,-13.6810,-60.7553
-3039.0625,45.8552,50.3489,-94.7036,25.2419,50.4075,6.6106,67.5736,12.8278,-28.5928,-141.3449,202.5843,27.1517,-29.0325,6.3851,-72.4343,8.6742,-28.4612,-47.1098,77.7848,-39.2851
-3031.2500,65.0183,34.6490,-77.7905,44.1597,67.3214,-25.4778,11.3680,-7.2891,-12.0093,-87.1092,182.9722,-13.6960,-12.3014,-85.0576,91.0630,26.0610,-149.6654,-63.9188,-8.4390,14.4750
-3023.4375,-7.1035,-37.3510,-155.1764,6.7736,-120.0449,-38.9537,42.8946,-47.7520,166.3139,-18.1924,104.0647,-86.8607,19.1433,-161.7013,123.3002,169.1158,-81.1848,4.9591,-10.9680,82.9248
-3015.6250,-22.2263,53.6404,-60.5744,-8.6099,10.6026,6.0883,-118.5708,-26.2466,-252.3826,39.7081,161.1767,-22.9230,-33.4152,-101.2067,-40.4622,117.1527,113.3131,95.8302,44.5115,67.3670
-3007.8125,75.4151,10.3779,-31.2180,88.7530,-32.9812,-9.6631,20.7110,-70.0254,106.6596,-40.6447,80.0521,-9.5754,-3.2100,-106.8321,63.5190,-73.0769,-36.4355,87.4455,0.7392,23.5492
-3000.0000,5.9278,10.9499,-68.0160,88.9432,-32.7134,56.9414,-53.1417,2.0113,-40.4056,-40.1473,153.7904,43.1662,-77.1535,6.5042,-120.6607,-108.4660,-0.3347,122.9044,70.8221,23.5784
-2992.1875,13.4966,18.5748,15.2430,61.1642,86.6288,0.5550,-80.9564,11.0711,-68.4405,43.3808,125.6114,-2.8844,-68.0615,-92.9963,-38.7902,-26.8107,-99.1809,25.4179,42.9635,-4.3452
-2984.3750,-29.9302,-165.8023,-69.5077,17.3943,-34.0219,-40.5924,166.2506,-35.9042,288.5623,69.8847,-32.5550,-107.4983,-78.9542,-174.4026,134.1226,36.8149,-142.0442,16.9199,34.0974,21.7237
-2976.5625,-141.4572,-136.2782,-36.3691,11.5259,72.2373,39.5836,15.3668,32.9851,-120.5447,66.2793,36.2025,-68.5242,-119.9438,-139.8024,-17.0653,106.3254,62.0007,187.3134,63.1342,-19.3116
-2968.7500,-129.0216,-88.7971,12.7224,-11.4002,11.4735,-19.2643,63.4208,44.7872,149.2750,41.6050,11.9403,-119.6932,40.0257,-272.1420,67.6983,45.7769,4.0020,164.6576,-65.8857,-7.4027
-2960.9375,-134.3651,-60.1299,39.0060,-54.1400,0.9140,-17.4914,53.6942,33.7497,102.3345,68.1051,37.8902,-99.4660,-7.7946,-206.1650,-53.3239,72.4013,67.2038,122.1965,-106.7074,55.7056
-2953.1250,-84.6975,-9.4642,93.2833,-3.8812,91.3757,6.7537,-113.0422,13.6864,-101.6498,48.5892,90.8700,-27.3256,-64.6224,-76.0796,0.6468,53.0158,47.4222,102.7423,-162.5221,35.8075
-2945.3125,-46.2625,-146.0435,96.3031,35.1331,-15.4044,6.2119,36.9835,-19.6571,232.1366,-58.1937,-53.3828,-44.3560,-24.6853,-33.1706,113.3867,-53.6264,-20.6233,36.0222,-159.5958,38.6561
-2937.5000,-142.6251,-136.4212,105.5072,-27.6618,105.0189,54.2017,-100.7869,63.1655,-161.8680,-84.7821,103.5974,-51.2081,-88.5415,-56.9638,13.3223,29.9208,93.5320,149.4931,-46.4674,11.7054
-2929.6875,-73.3273,-68.1465,103.3701,-63.8151,139.1121,-55.1731,7.0824,22.5983,54.7528,-50.7281,64.2701,-142.3992,19.2529,-313.0066,193.9091,27.0934,-48.6498,113.6170,-116.6936,45.3991
-2921.8750,-133.0099,-128.8858,1.2321,-88.9710,75.2111,-53.6713,89.9737,-5.0026,173.4051,31.3085,-1.0434,-153.9130,28.0573,-264.9691,92.5067,73.2471,-4.8315,122.7386,-73.9262,54.0894
-2914.0625,-168.5914,-94.5203,76.1900,-21.0290,186.4240,-8.4703,-20.0430,-5.5285,-119.8763,69.4246,109.7691,-70.0379,-8.0468,-150.7380,-54.8114,0.4983,30.1134,121.9692,-75.0465,17.8731
-2906.2500,-87.1066,-152.0921,14.1940,-9.0385,51.6967,-73.9671,175.9937,-30.0360,259.9091,81.5666,11.6505,-131.2982,3.9100,-246.3694,103.9519,-60.2295,-132.9015,-6.7702,-98.1223,29.7011
-2898.4375,-122.6606,-82.7131,-26.8688,-80.1006,10.9199,-49.6957,61.9979,38.3702,-39.3362,77.6374,117.5149,-151.8404,-73.1773,-318.9714,26.6802,82.9739,-30.9701,62.4300,4.7486,62.4759
-2890.6250,-30.9512,44.9227,-39.6727,-92.9126,-1.5811,-96.7191,12.2373,24.9970,95.6404,64.9392,104.6770,-125.7958,60.9900,-291.2558,50.6375,33.4191,-112.7826,-21.1093,-43.1315,49.4965
-2882.8125,-60.0719,-20.3075,-106.3300,-87.5716,-105.9304,-67.0445,127.6419,29.7403,247.8077,33.3794,0.0171,-103.0989,66.3151,-173.3344,55.7615,1.9900,-73.4435,-50.4964,-37.8670,54.6624
-2875.0000,-95.4427,48.2132,-37.2461,-20.4898,-36.5185,-4.4648,-23.2095,99.2107,-86.3055,29.5680,70.1335,-68.2246,-157.6190,-245.5845,88.6278,35.3007,-5.3277,17.8713,-4.8334,87.5762
-2867.1875,-36.3499,-30.8006,-85.7137,39.0359,-157.6382,-22.7525,112.3982,50.1048,305.0312,-91.8104,-16.2857,-90.5242,-170.1054,-254.3131,296.9670,-11.9607,-85.7693,-62.3254,-49.3495,111.9337
-2859.3750,-87.2021,-13.7691,-140.1541,92.6078,-174.7149,73.8544,-51.9252,68.0252,-7.5448,-109.1614,77.3692,11.2910,-223.5341,-47.9291,58.3700,6.8159,36.8231,-9.4844,37.1870,94.3413
-2851.5625,-47.5976,97.7216,-59.1532,62.6359,-93.3272,12.3510,-116.8161,113.3750,-144.7009,119.9254,85.5202,-28.1659,-69.5144,-220.0250,-6.7875,15.0332,7.8660,-4.1924,43.1672,29.1978
-2843.7500,-25.8231,-21.6450,-147.0050,-57.1885,-180.7845,-19.4553,51.4588,22.8461,59.3275,288.1563,-3.1494,-56.2585,25.6757,-46.9207,88.2160,73.3705,-6.9492,53.2379,99.2822,50.2019
-2835.9375,-83.5397,61.4813,-62.3551,-10.5263,-22.7255,135.1216,-83.7620,-149.2112,-259.1637,225.8778,118.7184,278.5542,-72.6370,777.7307,-11.2884,85.1973,145.7609,135.1750,145.9079,61.7041
-2828.1250,-62.7988,47.0678,-113.2506,150.5823,-37.1973,164.9901,48.4664,-311.8391,165.7783,101.0277,31.0569,422.7355,-87.4917,1097.8630,120.6793,-3.5329,25.9271,85.5680,60.9859,46.6498
-2820.3125,-109.5562,33.1477,-165.6553,172.2006,-15.1756,181.8990,107.2189,-290.9893,40.2554,-97.3501,52.9021,391.3474,-175.8448,939.5485,-4.8366,-17.7801,117.5900,72.4501,82.5684,68.0946
-2812.5000,-97.1161,82.4283,-77.8652,80.0287,74.0585,138.1969,11.1530,-166.9533,-165.0940,-119.5363,67.9808,290.7452,-88.0117,664.5077,9.8291,-39.8401,60.4607,120.5285,25.3550,45.7348
-2804.6875,-69.7133,3.6493,-51.1334,-34.1971,-9.7521,63.8349,185.0502,-176.9868,118.5389,-92.7760,21.0361,172.8519,85.7853,511.4453,36.4777,-85.9697,52.2640,147.5463,-18.9180,72.3216
-2796.8750,-34.5040,144.6616,23.3911,0.3593,66.2434,101.8612,-71.2424,-177.2423,-284.0294,-202.2137,243.9304,246.4913,13.3973,553.2094,-109.0627,-84.3139,192.8768,182.3620,16.6077,36.7100
-2789.0625,182.0658,290.0344,66.2788,40.2562,-38.3886,-11.9356,-28.1968,-245.1678,-96.2712,-196.3097,213.2072,216.7844,-17.6244,379.3514,43.7360,-115.3174,90.8501,11.5340,-120.5207,5.4435
-2781.2500,260.1493,368.9024,-0.3321,12.6578,-104.5218,-79.1882,-20.6288,-312.6169,-124.9710,-78.9260,146.9886,186.1012,-120.1418,281.0179,14.0426,-35.8421,169.3298,-86.8032,-113.1461,12.6719
-2773.4375,308.2773,521.8265,50.1047,-46.8856,-16.5913,-97.0334,-190.0157,-300.0275,-331.6525,-102.5165,197.8510,218.7008,-70.6324,298.7829,-46.6008,-59.3264,180.8810,-40.0998,-170.7111,-11.0549
-2765.6250,400.6207,402.9406,36.7374,-24.2217,-66.4526,-120.5002,-20.1860,-277.2581,21.8868,-151.9292,110.9349,154.9930,27.0905,215.7722,13.9893,-144.6296,61.6189,-53.2150,-255.0894,-24.5807
-2757.8125,315.2642,352.3480,56.6504,-5.2725,27.9822,-56.2492,-147.0472,-184.2081,-325.2645,-168.0405,279.3476,145.1784,11.1309,167.0750,-150.0945,-88.6399,151.6581,1.9696,-166.1661,-40.8052
-2750.0000,336.8116,302.6713,77.4675,50.5619,49.3328,-118.6354,-52.0185,-201.2722,-84.5369,-147.2416,263.6973,82.6978,179.0779,8.2807,-55.2785,-139.7486,-74.4048,-117.9457,-215.3409,-20.1318
-2742.1875,209.4199,175.0380,-58.6693,-42.5497,-12.2746,-129.9278,70.0770,-191.3079,110.3009,-136.4099,202.1100,29.4473,116.0731,60.5551,-7.4092,-55.8252,-96.4234,-209.8332,-167.4635,27.5972
-2734.3750,165.9732,237.3509,-30.8568,-51.7045,53.0666,-110.4774,-122.8967,-127.4035,-191.9370,-36.6578,266.5038,44.9508,-76.9882,55.8258,57.4011,8.0296,-35.4655,-218.7685,-176.6274,18.2775
-2726.5625,276.2400,206.3675,-28.3367,-47.1520,-90.8854,-197.3978,26.8263,-162.8115,140.5273,39.7926,159.6098,-67.5808,-37.3362,-193.2060,206.9299,47.5744,-99.8137,-285.0048,-242.1045,57.6519
-2718.7500,174.3172,210.1737,-26.0271,-113.8059,-88.0339,-133.2285,-117.6297,-125.4380,-114.1820,-30.9496,309.5358,-55.7716,1.1301,-150.4544,-48.7293,85.9181,78.6401,-140.4522,-98.7826,95.8253
-2710.9375,215.3951,215.9821,52.2888,-108.4760,-46.1539,-146.3560,-149.0942,-121.0768,0.0862,-99.7019,241.5026,-61.9898,80.5928,-177.6977,29.6253,18.2548,-21.9024,-134.9021,-128.4565,100.9995
-2703.1250,115.7235,151.0278,-52.1539,-103.9047,-114.0266,-136.6490,1.7139,-117.4811,225.6561,-95.2296,136.7287,-58.8115,11.3214,-131.6849,34.2750,-13.1768,-87.2136,-165.1195,-88.8869,105.4246
-2695.3125,74.7353,179.7736,-22.9035,-39.6327,-11.1999,-55.4332,-187.7843,-14.1941,-185.0819,-65.0652,203.6696,-25.3786,-141.2555,-170.9512,-81.3897,52.0832,11.1917,-101.6412,-25.6108,98.5528
-2687.5000,103.4537,32.2320,-28.9464,-12.6512,-88.6686,-83.6918,-82.5914,14.7827,213.8815,-34.2027,89.3303,-125.3371,-109.1285,-318.5402,96.6441,47.0251,-30.6957,-108.4660,-32.6376,56.3821
-2679.6875,76.5840,40.0900,-57.5965,-74.2654,-80.7469,-75.3518,-74.9821,21.1440,37.2716,83.0403,97.4119,-128.1373,-138.6000,-306.7496,-43.9022,54.3546,82.8260,-30.8882,9.7307,63.6145
-2671.8750,27.5702,96.7914,0.6100,-55.0348,-21.9556,-80.1056,-125.5358,42.3504,-87.5296,178.1159,46.3737,-105.7028,-7.2336,-317.0991,-21.5803,2.5316,-2.7879,-10.4601,-40.0428,48.6942
-2664.0625,-28.3873,5.5255,-129.1339,-40.7627,-151.1095,-97.8125,36.9832,20.5955,185.7562,84.2325,26.3926,-144.2317,83.2061,-333.4099,104.8224,-18.2584,-93.3702,-65.9996,10.2276,27.8219
-2656.2500,-74.3573,30.2569,-103.8818,53.5086,-14.2587,-6.8035,-83.4942,119.8339,-154.9594,-73.6673,164.4296,-79.7242,-37.3464,-302.7232,95.2133,8.9347,1.0628,-77.5457,68.5072,-19.0483
-2648.4375,8.5220,-64.1446,-93.7707,64.6452,-78.5441,-45.2467,36.8637,128.9138,222.1592,-63.7322,64.3356,-150.4196,-65.0474,-399.2133,252.4593,17.9623,-163.6377,-136.2473,-26.3676,26.9311
-2640.6250,-13.1875,-85.1506,-157.2572,-26.8127,-177.4344,-36.6110,46.6387,137.3750,231.7135,92.6007,37.6490,-176.5527,-127.3540,-385.3401,4.1306,101.3793,-43.9279,-87.5610,57.1579,110.3111
-2632.8125,1.6050,-0.6662,-102.2385,-48.7852,-85.8114,-68.5011,-118.0935,154.3366,28.7444,220.4303,93.4954,-204.7641,36.8364,-509.9918,-87.6929,119.3005,-30.7091,-3.3696,72.2012,54.1868
-2625.0000,42.1095,-66.5005,-132.5116,-80.0736,-115.4800,-152.6232,145.8970,86.9980,367.5167,116.9441,28.0537,-254.0496,191.7534,-534.9763,140.2148,15.9014,-165.8197,-138.4892,75.9430,-12.2393
-2617.1875,-93.8482,-25.7904,-127.2440,-75.8184,-34.6002,-62.1231,78.4507,128.2083,5.8479,-24.0020,71.1791,-137.6634,-22.7778,-304.4168,183.6748,22.0380,-92.3894,-135.0824,151.2393,-43.1073
-2609.3750,-37.6618,29.0817,-143.8245,14.5947,-88.5608,-66.8373,98.1321,146.5634,135.3063,-78.8163,54.4704,-119.3320,69.8459,-353.7237,276.2787,-69.6861,-247.7964,-149.5355,-5.3179,-23.8215
-2601.5625,-6.9767,24.4412,-184.9054,9.5096,-130.0261,-79.7915,20.3391,103.4118,93.3056,-47.1471,161.2509,-156.0494,212.9836,-428.5906,87.4089,-110.9157,-77.6895,-50.4935,-45.3695,-29.0303
-2593.7500,134.3448,165.4404,-0.3374,9.0680,-16.8234,-114.3854,-125.7982,30.9110,-163.0708,-82.8259,236.6965,-134.9825,213.7456,-496.8478,15.1995,-110.4971,63.0921,-14.7922,-80.7476,-64.5882
-2585.9375,251.9280,142.6825,11.4830,-14.1304,-78.3648,-185.5534,33.3240,-32.3425,253.8311,-180.2525,65.4136,-172.5608,225.7544,-517.9020,175.2735,-98.8384,-64.8965,-143.8580,-174.8854,-52.8917
-2578.1250,54.8121,121.2106,25.5872,-36.0312,47.3808,-95.6638,-98.2517,18.7026,-98.9494,-166.3760,81.4487,-91.1035,57.0761,-314.6852,79.6547,-46.8770,18.4064,-95.6405,-55.7213,-74.8861
-2570.3125,33.4859,63.5391,77.4985,82.8730,136.9331,-85.6312,-46.0443,31.5551,-46.9545,-115.7072,23.2937,-106.7048,109.2112,-442.6952,94.8317,-106.1278,-38.4810,-81.6283,-77.7510,-97.0787
-2562.5000,11.9614,-63.3420,53.2147,95.5876,76.2778,-58.2123,76.9824,43.2054,38.8871,-66.2643,-36.0624,-155.2414,122.1532,-499.9597,33.8289,-56.5971,80.4430,1.1759,-64.9880,-84.4680
-2554.6875,44.8376,39.1886,197.3352,56.6968,184.0295,-21.4433,-109.5995,39.2533,-330.8914,-143.4287,72.0021,-95.1616,119.4701,-424.8819,-78.7814,-96.6586,217.8001,139.3827,-67.8145,-87.4510
-2546.8750,166.0273,19.0219,213.7623,1.1066,54.0902,-82.5746,-19.8879,-18.4025,89.6318,-273.2902,-21.6267,-127.5235,172.0868,-404.5577,84.9338,-226.4250,127.4518,118.8755,-123.3466,-108.1291
-2539.0625,167.7181,56.3342,179.6792,38.0156,57.6473,-21.1301,-126.6646,56.4453,-165.3135,-161.6575,19.2452,-68.4823,-8.7861,-324.7709,-95.8342,-151.7052,163.5931,119.8531,-17.3706,-142.3035
-2531.2500,129.3464,122.5950,175.5575,138.8719,127.1681,-57.8676,-167.5050,51.2530,-169.3412,17.9139,-20.9114,-64.8037,24.2952,-435.0750,-63.6531,-82.0395,19.6864,-25.2257,-21.4384,-146.5261
-2523.4375,6.1242,-0.9982,43.5825,120.8763,-4.1697,-58.7882,-5.1807,28.2145,103.8117,-3.3788,-114.9193,-119.0217,113.5437,-453.2864,-11.2906,-30.2381,35.9217,-43.1672,30.6364,-94.5958
-2515.6250,-20.5118,113.0026,88.2067,57.4775,115.0977,-0.1659,-107.2592,71.7865,-292.4413,-180.0679,40.6806,-51.7849,84.3842,-367.9622,-76.3293,-59.8334,149.7844,105.4917,74.3247,-87.0605
-2507.8125,169.4499,126.5942,66.4386,71.6796,19.9749,-17.5959,-18.7395,85.9627,-21.0720,-238.1404,-17.1154,-58.9937,25.8175,-386.1075,86.2430,-191.8280,22.2421,188.7446,-53.3838,-108.9230
-2500.0000,199.6112,15.3635,97.8611,-4.9225,52.0368,-20.8385,-60.0039,116.3457,-173.4545,11.9869,15.2861,-113.0146,-89.5430,-388.1023,-29.9677,-124.6234,52.8818,218.1823,47.1095,-114.5773
-2492.1875,170.7624,-13.8657,141.2797,-34.5272,170.1045,-75.0231,-53.2856,122.7496,-202.8723,166.1045,-13.2980,-179.1268,-8.9111,-525.1345,-22.1829,-43.4174,-82.4728,188.6140,87.6102,-144.2253
-2484.3750,78.0622,-106.9532,5.8466,-22.9790,35.3185,-65.7410,179.5947,96.3159,213.8811,67.3528,-147.7316,-164.8194,39.8847,-399.0841,26.7925,-69.0810,-176.6846,130.1914,64.2555,-132.7226
-2476.5625,1.3009,61.8952,-36.6403,40.5202,103.4844,18.6020,-9.5609,125.8428,-159.4314,-49.4583,-42.2058,-33.6205,-76.3614,-255.1389,-125.2785,-38.8086,98.0737,122.7165,126.8659,-175.2710
-2468.7500,106.5820,61.7941,73.9346,75.0704,67.7216,-41.5425,100.3282,88.4273,97.3018,-123.2092,-114.6289,-90.0558,-2.5570,-435.2156,58.6845,-149.4881,62.8914,87.2857,56.5340,-175.7707
-2460.9375,104.0146,-82.1734,103.6616,35.7662,24.1009,-21.3090,131.3831,80.1638,54.2368,-130.7977,-46.9117,-140.9727,-45.6086,-439.2178,-22.1900,-83.0178,59.8518,153.9861,53.3510,-109.1122
-2453.1250,22.4348,-93.1449,129.3923,60.4589,124.4855,40.4668,-27.5869,177.9159,-177.8598,-105.3949,15.8164,-96.6853,-56.6684,-337.2601,-33.0620,-20.5455,-22.1789,142.6838,77.1796,-120.4514
-2445.3125,7.4583,-214.5272,2.7282,79.7569,-38.5310,30.4062,178.0497,198.2816,174.6596,25.5847,-145.8596,-97.5358,-36.1081,-202.7612,25.7007,-36.4894,-142.6220,-49.0312,61.6023,-136.1910
-2437.5000,-133.2776,-109.6755,-71.6941,78.2942,-39.2967,89.2668,29.9533,232.9099,-194.5644,170.8091,-36.2802,-8.1172,-110.3026,-54.0775,-196.2767,-2.1816,67.1968,-50.5102,130.2864,-137.6749
-2429.6875,-59.6221,33.5722,-70.7081,151.2217,-73.6528,18.7544,-5.7482,195.9482,27.5997,172.4332,-33.2871,-35.6338,37.9029,-270.0706,-120.8393,-111.4785,34.4250,-82.5910,-42.6205,-99.7519
-2421.8750,-24.4668,68.3058,-110.2276,115.6517,-221.5209,-24.5564,-6.9340,119.4908,99.3118,58.5550,75.1895,-90.6058,-37.3785,-379.6440,24.1261,-3.2825,105.1418,-48.1795,-78.0243,-65.3204
-2414.0625,20.1652,112.5320,9.7545,88.5911,-139.8748,-3.5884,-217.6315,127.5492,-258.4981,31.1900,232.1641,-56.3851,-102.1744,-293.7792,70.5802,78.4220,43.3722,-4.2725,-104.9104,-56.3886
-2406.2500,43.1903,-110.8512,-41.8481,75.9384,-225.8158,-7.6512,-85.9235,149.0143,131.1221,53.2212,145.5302,-107.0124,67.4365,-195.5867,130.4480,-9.4783,-145.0078,-87.9828,-117.3991,-34.0544
-2398.4375,-84.3395,-167.7992,-29.0063,88.7273,-175.3155,94.8822,-181.7459,197.9384,-149.7827,28.6892,196.3473,-54.7264,44.4946,-70.0148,-114.2224,40.0689,44.0727,-4.2508,1.5656,-21.2618
-2390.6250,-144.0247,-122.8975,19.6873,204.3611,-90.9585,111.2960,-134.7339,208.7333,-64.8673,40.0054,25.0261,-30.9641,19.3957,-165.6606,8.9568,51.4673,89.0169,5.3346,-58.6127,-46.6110
-2382.8125,-213.3111,-52.6142,-54.2204,239.3981,-127.2135,74.8840,13.6903,133.9348,119.4928,39.7171,-84.9138,-20.4240,-128.2942,-236.9813,45.5676,51.2564,160.3534,-65.6830,-58.3867,-46.5548
-2375.0000,-133.3723,166.9068,63.1273,141.6835,-9.2123,2.1099,-162.6436,66.3999,-240.9152,82.6812,-3.6048,8.6593,-156.7337,-264.1206,-130.5645,57.2971,203.9532,-162.4508,-85.8927,-3.2443
-2367.1875,-83.3961,5.4706,75.5359,-19.9776,-105.1419,-120.1359,-3.9149,-33.0735,212.7330,94.6879,-99.2536,-119.8484,75.8906,-286.2890,29.3736,32.3792,-63.4044,-253.1821,-71.3514,46.1183
-2359.3750,-217.6253,-198.1915,42.7400,-83.8461,-63.2792,-34.2344,37.6384,44.2611,70.2226,24.4913,-94.1068,-136.0469,43.3131,-168.7211,34.1165,36.2609,-55.9548,-177.1303,110.9913,87.2868
-2351.5625,-279.2597,-260.2572,51.5553,-39.1105,18.1991,37.5392,46.7740,126.2119,42.2879,-113.1006,-84.3529,-98.6261,52.3222,-84.6246,154.4444,-64.2536,-46.8900,-168.4803,119.9391,96.0616
-2343.7500,-284.7932,-301.2315,-28.5272,-10.2759,-98.2236,60.8946,187.0174,80.2817,255.4975,-231.5924,-164.5169,-79.1985,44.4398,-16.5165,146.8984,-72.6771,51.2587,-174.7407,113.9835,124.9414
-2335.9375,-273.7486,-114.6147,92.9848,-34.8424,23.9483,43.0452,14.8609,54.9708,-135.6992,-109.4842,-115.0877,-53.4656,-51.8535,-111.8698,-24.0372,48.4984,203.0171,-94.4077,124.6464,100.4262
-2328.1250,-150.0749,-132.3518,150.1462,-18.7584,8.7663,-73.2190,110.3555,-71.6768,141.7490,20.2794,-204.0224,-130.9791,78.5011,-273.6370,107.6814,69.3318,9.4327,-112.4375,71.9683,47.5672
-2320.3125,-168.6201,-221.3060,130.1011,-37.8685,62.3818,-4.6408,126.6493,16.4982,47.9940,-1.1458,-187.1693,-104.8019,57.6673,-144.6779,-59.8019,84.9789,25.6607,-131.6708,158.0936,63.5163
-2312.5000,-140.6243,-299.7357,195.6104,-79.4420,165.5481,47.0428,8.4957,119.2419,-142.2113,-9.0025,-119.7676,-96.9285,87.3827,-40.2506,-66.7229,40.1932,-16.5568,-104.3579,221.7863,56.0189
-2304.6875,-148.6261,-378.1791,112.1320,-124.0358,82.7270,2.8391,219.3523,70.9968,177.5986,54.1442,-239.3713,-142.7586,77.0937,-48.9013,70.3762,-6.6097,-94.7733,-113.0558,212.4893,82.5255
-2296.8750,-282.4803,-195.4732,83.8069,-117.4865,165.0588,38.8856,81.3677,78.9153,-143.4163,136.4275,-193.8400,-64.1963,-61.0474,-38.4699,-103.3756,37.7225,17.1524,33.3843,255.3514,54.1922
-2289.0625,-196.0558,-74.4638,100.7774,-32.6252,109.6899,-26.3619,134.6726,21.1483,166.8668,116.0059,-286.0272,-72.5749,-7.8901,-203.7934,-50.8283,17.3523,-106.6146,13.1204,129.5194,34.1658
-2281.2500,-154.9569,-174.7670,69.4389,7.9474,42.0195,25.0214,104.6895,26.0988,172.8667,47.2787,-242.5343,-68.6692,-39.0314,-123.4881,-116.5520,96.6710,39.3245,-16.4376,170.3957,39.8415
-2273.4375,-139.3241,-159.5526,159.6596,-81.9384,132.9155,44.2014,-25.7250,42.6198,-30.5716,-46.8892,-151.5047,-30.5829,-21.6186,41.2758,-63.7175,39.5550,89.8150,-1.4399,221.8408,20.0682
-2265.6250,-76.7506,-274.4131,75.8508,-160.8794,49.7738,-26.6399,221.8132,-5.8927,363.9473,52.9254,-345.5354,-103.3294,4.7441,32.9173,111.0513,-44.5920,-24.7508,-45.4943,177.2472,46.2454
-2257.8125,-222.3878,-208.4855,-3.1544,-95.0120,119.4235,46.7681,107.1453,25.4137,65.2762,157.5436,-349.7822,-47.6644,-146.0873,29.3123,-113.3819,97.0550,146.4717,55.2445,243.4597,41.2255
-2250.0000,-177.0943,-92.6017,82.7816,54.8170,131.0134,58.4241,82.4235,36.6920,150.5483,22.0878,-337.0884,1.1941,-61.9676,-67.3854,-101.8451,-2.3623,86.6541,64.9259,112.6203,16.1613
-2242.1875,-189.7265,-141.6261,32.8096,41.7587,82.7064,57.3244,105.8150,-13.9140,211.9225,-28.2754,-312.3074,21.1224,-37.7458,66.9526,-78.1838,-52.6926,108.9472,16.7086,99.8804,3.2040
-2234.3750,-127.4693,-80.7838,170.7339,-38.4046,184.2987,74.3005,-86.8830,13.3966,-200.7846,-37.7410,-210.6305,54.2304,-46.6246,170.1119,-122.6167,-25.1115,171.1554,77.3935,21.0554,-5.8496
-2226.5625,39.5882,-124.1564,160.4740,-11.7773,64.6939,27.5463,-22.7790,2.5196,46.3259,-120.3820,-256.1622,-5.1404,127.2876,86.9964,88.7559,-35.7235,22.1559,-2.1232,-92.9586,20.9002
-2218.7500,-5.2595,-98.4421,149.3235,-21.0574,17.1860,81.2364,-142.5711,27.7569,-184.4399,-94.9000,-193.6089,39.9988,43.2966,187.9243,-68.7643,26.7734,188.2355,-11.5545,3.1326,46.7589
-2210.9375,49.6676,-44.9419,206.9700,68.4764,75.4735,40.5090,-195.5684,-63.1967,-126.3993,-2.6230,-209.2684,57.2471,-9.8835,135.5992,25.5167,-26.9257,137.1266,-28.1903,-82.9645,30.4254
-2203.1250,-36.3741,-94.4065,117.6664,88.0697,23.8131,21.0523,-27.5100,-115.0877,114.7012,18.6945,-223.8799,64.1000,11.9886,195.2551,47.8518,-78.5793,87.0817,-78.7772,-132.0011,15.1489
-2195.3125,-74.8283,-29.2796,187.9571,49.2568,204.7495,62.7014,-103.8474,-9.3711,-144.5977,-95.4024,-115.8868,92.1188,-28.5301,192.4767,-102.2026,-9.6380,48.6463,-47.7589,-101.4394,11.4784
-2187.5000,21.6641,-72.2060,177.2059,-65.6252,121.6418,-32.2232,69.7633,-20.6874,249.0355,-69.5504,-235.9451,-16.6739,108.9158,71.6044,34.7010,53.2503,-170.8468,-56.7868,-179.9243,37.7656
-2179.6875,-13.2940,-73.5897,139.0077,-135.9699,83.0890,-20.0759,30.9326,-23.4454,100.2348,37.8575,-200.4558,-22.7084,-40.0861,107.1919,-3.8305,124.6924,-30.8025,-22.2431,-73.8456,72.6096
-2171.8750,-8.4596,-34.1914,144.6133,-61.5156,163.3334,-9.9773,0.9069,-54.3907,-3.7611,7.0563,-194.1724,18.3785,2.6991,114.5061,40.4448,56.9233,-25.9556,-17.8386,-69.9532,42.2573
-2164.0625,0.0606,-131.1104,5.9116,-18.3508,62.2714,-27.5984,230.5745,-82.6189,262.9438,-22.0378,-221.2022,-1.8237,122.1760,123.4795,49.4076,-45.1370,-52.4022,-149.7317,-61.3543,50.6090
-2156.2500,-68.9965,-60.6024,5.6500,-123.7159,99.6586,-14.3015,46.6989,-10.3746,-103.8908,161.3432,-73.8010,13.3669,-25.8843,197.8605,-60.1946,101.2715,-52.3903,-115.2340,-26.2973,50.4166
-2148.4375,61.9732,-34.0593,-4.5515,-167.0327,-19.8932,-79.3956,73.8803,-21.0616,106.3303,187.7917,-120.3568,-42.1843,-34.8814,114.2158,151.2573,127.7335,-200.3233,-158.7082,-68.1746,77.2803
-2140.6250,129.7352,-38.7306,-8.9421,-205.5691,-23.6333,-23.2549,68.8810,10.0635,27.3776,35.0509,-161.1191,-12.9416,-113.0758,183.2780,35.5451,47.9926,-27.4693,-92.3814,32.7643,108.9471
-2132.8125,148.2902,85.3924,86.4711,-81.3059,108.4194,28.5004,-19.3061,-4.9952,-169.7680,-125.8940,-176.0870,67.0029,-54.4788,132.0947,-124.3543,-3.9509,61.1761,30.7403,52.5091,57.4216
-2125.0000,175.9261,6.6205,4.9753,-19.9253,-9.4366,-11.6411,157.6021,-49.9314,264.1685,-133.7480,-218.9620,7.9656,-25.7758,15.9813,-131.1697,25.2099,17.9307,-47.0481,45.3514,50.0063
-2117.1875,38.4918,-25.2128,-28.5770,-121.5820,68.6467,-4.1367,51.4501,-9.8963,47.0557,89.3572,-104.9030,-13.6977,-205.1222,55.7690,-201.0411,175.3349,21.6466,-8.8904,189.1470,53.5461
-2109.3750,71.6378,-97.4713,-31.5349,-193.6326,65.3280,-52.2137,158.8888,-14.2350,190.5318,195.0802,-145.2625,-48.7120,-97.8632,125.1100,15.6969,135.0753,-190.0436,-45.1277,46.5503,86.6880
-2101.5625,42.2682,-92.2435,-135.9868,-153.1880,-1.4931,23.8336,200.8375,-81.0440,86.5087,164.3020,-175.1407,85.5256,-92.0985,462.8893,-50.0519,66.3116,-79.2362,-5.8632,52.4617,92.3395
-2093.7500,40.5965,81.6766,-62.7267,-15.0465,72.3854,84.4932,17.4905,-118.1369,-242.7964,90.2248,-101.3240,194.6913,-91.6340,462.2942,-197.1052,66.2459,24.2708,133.0979,87.0867,55.7026
-2085.9375,129.7087,134.3940,-8.6608,37.9007,17.0609,-22.5088,146.9413,-174.4201,178.7018,70.9578,-119.7107,103.3123,35.6280,149.4434,-141.3618,46.9797,-97.4181,44.8606,-0.4848,73.8670
-2078.1250,28.8010,68.1052,-3.6051,-97.1349,96.7250,-9.5218,41.3899,-169.6822,-35.7889,38.7085,31.8793,96.9103,40.8873,301.5417,-172.6227,88.7167,-22.1107,49.6287,75.9468,79.0364
-2070.3125,73.7690,7.6982,6.3393,-87.2579,70.2767,-8.0295,14.7273,-160.0128,121.6146,-60.6315,6.3572,96.3020,88.0430,385.4969,58.0146,24.3679,-151.9003,24.3018,-53.7082,89.1136
-2062.5000,82.9739,-17.4839,-93.4659,-8.1330,-102.9304,63.5212,-11.6849,-114.0659,168.2696,-162.7123,-19.9190,128.0366,-12.5588,431.6639,67.9151,-2.7284,-72.4447,68.2226,-44.1002,98.4445
-2054.6875,94.7741,167.9134,-44.6624,108.5757,-16.5381,105.1141,-255.4844,-65.5025,-259.4615,-4.1905,65.3936,196.8565,-146.5595,333.3676,-138.5742,8.7824,79.6105,114.7421,-33.8786,74.3802
-2046.8750,97.8663,170.6059,-5.5460,111.5837,-85.8465,-1.5955,-104.9791,-172.6186,37.1167,72.6494,-4.0082,120.4270,39.7488,152.2946,-60.7848,11.5968,-23.0343,46.5646,-100.3507,77.6245
-2039.0625,-40.5025,101.8519,-39.8812,78.1567,-46.6203,77.8748,-139.9217,-97.1675,-180.7524,37.0509,34.1228,156.7057,41.6062,300.7204,-169.4502,49.9620,84.8750,47.9408,41.7264,79.4206
-2031.2500,-15.3825,21.5866,-10.7229,34.2444,19.0932,76.5573,-109.3713,-32.2000,-187.1354,66.9554,27.7476,118.4010,-2.0346,293.6182,-29.6065,42.8354,5.2917,74.8091,34.3057,35.7218
-2023.4375,11.8263,-90.5898,-91.4596,-44.5789,-97.1028,26.1366,66.2758,-3.1203,99.5824,131.9591,-16.5297,-0.8819,-9.5777,138.5962,37.3377,34.8125,-2.1883,101.7811,26.9902,28.1315
-2015.6250,-35.2723,71.9411,-30.4918,-21.6949,37.3988,64.1129,-128.3771,21.6634,-242.9797,156.6697,8.8831,77.9933,-94.4157,163.2468,-120.0257,59.5049,127.0239,159.4639,15.3761,16.2494
-2007.8125,-31.5366,110.3175,-98.6705,53.0453,-30.2456,39.4212,-13.1774,-9.7000,93.3069,52.2319,-94.8608,115.2382,-15.3954,204.7084,32.4558,-45.9462,-44.9228,57.9958,-51.3807,-14.7755
-2000.0000,-66.8614,39.6343,-134.9017,17.7434,-29.9462,80.3703,-13.0237,26.9103,-16.4486,-22.2563,-21.6675,116.5115,-89.4230,278.0722,-41.1089,-9.4508,26.0842,57.4744,19.8172,-14.8455
-1992.1875,-103.7356,2.4096,-98.6897,-54.1043,44.7842,38.9386,-49.4205,62.9938,-126.7589,87.7122,15.9666,28.6016,-15.0145,130.8314,33.7674,63.4868,-10.4445,126.4069,-16.5384,-51.4650
-1984.3750,-82.0074,-47.2044,-149.8791,-68.3461,-43.8913,8.7902,119.7752,47.6977,153.5269,72.2970,-72.8023,-26.4200,79.9895,41.1196,129.2240,12.0224,-23.3683,147.9454,-29.2886,-29.4825
-1976.5625,-94.2218,46.2247,-52.0157,-44.5350,18.4770,89.5338,-38.9706,72.4646,-262.1449,-13.0478,26.4841,89.2319,-41.9451,212.3885,7.7268,-37.3745,140.7368,170.5330,64.0093,-41.4437
-1968.7500,74.0618,38.1417,-22.6517,17.7731,-62.6594,55.2247,27.7740,64.7498,-49.3353,16.1136,-17.7220,86.6716,-86.3628,204.1105,73.7228,-45.2527,-7.6735,21.6218,-13.1819,-48.8972
-1960.9375,45.2928,8.9996,-92.3340,-10.9653,-166.8554,57.9931,-4.5342,69.0062,-7.5792,93.2193,61.0129,73.4802,-153.8261,244.7319,-68.3312,69.8102,-37.1323,-7.3246,-6.4025,-7.4016
-1953.1250,30.7141,29.0566,-106.8045,-25.5033,-34.8530,45.2732,-164.6330,91.4841,-167.6225,115.5240,156.9317,27.0353,-59.0921,119.4923,-45.1931,128.0691,-86.3745,117.9441,-56.4135,-21.7065
-1945.3125,81.2690,-96.7367,-163.1172,-9.8869,-91.7029,-3.3828,71.4192,34.1250,141.4802,57.9892,25.9808,-46.4409,140.7889,23.3622,155.0787,33.4816,-175.4497,63.3712,-40.2649,-5.8542
-1937.5000,-49.8025,-52.1327,-188.0368,-70.8614,30.8377,43.9464,9.8695,82.1799,-176.0082,142.8619,38.4153,3.3465,-67.9279,108.6169,57.7313,45.2909,-24.1222,108.2076,147.2861,-30.5977
-1929.6875,-17.6356,84.7186,-82.7050,-74.5694,27.6187,-37.5898,116.5674,41.5104,40.7421,138.9993,-75.9067,-10.0518,-71.4044,-42.9119,164.6373,4.3469,-98.5567,34.2922,73.0820,-34.0948
-1921.8750,-58.6221,44.4220,-125.5177,-114.4177,-52.7679,-48.2040,147.1134,-1.2916,181.3466,94.9942,-45.3811,-9.5789,-41.0324,59.3538,158.4007,34.2654,-137.1492,-5.7673,33.7155,-3.7377
-1914.0625,-97.6120,75.1199,-93.3294,-118.2604,54.8350,-18.1697,-40.3435,31.9198,-152.0415,54.9768,135.1420,10.1145,29.3647,91.5798,155.1475,67.1921,-140.7430,60.1828,-4.6490,-7.3729
-1906.2500,-36.1168,-39.6877,-175.6369,-56.6091,-65.0655,-59.5111,97.7003,21.6436,242.0611,44.4741,15.1587,-79.4565,129.2673,-65.7333,366.3842,56.6306,-254.8313,-19.3543,-48.5048,19.4989
-1898.4375,-168.9335,-32.8016,-243.2488,-49.2573,-95.2745,11.9446,-7.5448,27.0786,26.8730,86.6967,20.8565,-33.1853,-48.1409,12.6177,225.3254,98.7873,-2.2297,22.8170,100.3430,62.0768
-1890.6250,-120.7604,51.0764,-117.8640,-0.8965,-43.5027,-4.0783,-28.7970,-31.4737,116.6876,101.9263,-109.4513,29.1039,-105.5590,61.9705,167.2562,39.9445,-23.6368,-34.0020,79.1918,40.6580
-1882.8125,-146.8381,24.7098,-143.7260,-26.7670,-104.9945,-2.2679,56.6957,-57.2539,275.2452,75.8996,-135.0012,53.6423,-95.2194,183.0386,105.9285,13.8426,-49.3009,-25.0705,53.7861,14.9907
-1875.0000,-141.3109,29.9542,-28.9840,14.9684,47.1052,34.4742,-84.2072,22.5779,-86.5991,44.4837,91.0509,43.7124,-53.2591,76.6432,-35.8064,56.3450,-43.3706,16.4632,24.9806,20.9302
-1867.1875,-26.1428,-66.1576,-91.5904,25.3532,-88.1564,-35.4900,-0.4670,33.0727,218.1937,54.7367,101.7447,-106.3937,178.3499,-207.1246,123.0904,66.5101,-137.7801,26.6652,-35.1628,31.5236
-1859.3750,-36.3405,-41.6293,-174.5489,-20.6014,-61.7837,27.7471,-10.0837,60.2380,-49.3688,7.6356,92.0609,-49.1373,131.6115,-71.2293,-34.3811,93.3300,28.4700,86.5280,131.3519,21.7669
-1851.5625,-55.9463,9.4972,-45.9056,-3.9456,68.1733,51.9751,9.8927,42.0235,-103.3408,-120.8539,0.9733,50.6313,41.4677,93.2371,59.7322,-109.2449,9.3303,66.9981,148.4707,-32.3899
-1843.7500,-93.5423,-99.3598,-48.2500,-6.2878,-44.8755,66.1944,154.8642,39.8162,189.6761,-86.3097,-75.1042,57.7902,-71.6788,199.6387,93.8402,-220.8160,-27.8118,64.4744,146.5843,-34.5408
-1835.9375,-107.8798,-78.9553,-25.3413,49.6208,52.3179,97.1377,-79.9169,62.8601,-155.0699,83.4895,59.0691,60.4590,-122.5679,147.2713,-103.8087,-52.1272,63.2889,121.2165,132.9451,-48.4373
-1828.1250,-50.5815,-92.9045,-75.7799,71.1907,39.1532,6.1404,17.9484,49.5742,199.8161,143.9430,8.8774,-54.1063,48.1960,-123.4529,-5.8194,44.2210,-125.9609,107.6239,13.9632,-61.6840
-1820.3125,-92.7977,-99.3616,-120.7166,30.2672,104.4790,9.3072,83.3207,78.8111,155.2060,172.8956,1.1777,-61.4208,-32.5343,-132.6924,-50.3431,73.0661,-96.7122,65.5305,78.4834,-32.4281
-1812.5000,-159.0104,-59.8052,-77.6568,34.3524,184.7857,40.2281,52.6905,48.0654,-59.4058,67.8577,-29.5231,25.9079,-26.2759,55.0477,66.1103,5.9144,-56.4589,34.4392,83.0005,-63.1674
-1804.6875,-149.1153,-190.1197,-67.4923,79.5427,121.1811,29.5754,284.1501,21.4250,209.0764,-69.0594,-165.1246,-6.5388,131.0790,26.8645,150.6482,-95.1303,-117.1121,-60.5466,58.6067,-52.8056
-1796.8750,-213.6083,-184.8266,-24.7265,50.3317,164.1578,76.3946,143.2076,64.3941,-116.8469,-26.3555,-13.1192,9.8575,100.0541,68.2629,-27.2251,-15.5601,-5.1901,15.0624,99.7986,-46.8426
-1789.0625,-91.0489,-98.4886,-6.9080,33.1708,72.1749,-20.8737,124.3142,9.4280,196.2632,28.4169,4.9368,-44.2159,118.0929,-62.3050,137.9375,-34.9234,-128.2263,-2.2748,-92.9614,-28.8232
-1781.2500,-110.9454,-84.5992,-104.5303,82.5697,-62.2694,23.3482,63.9724,22.0210,208.9249,40.7297,17.5302,-22.4021,20.6746,-50.3364,40.6347,-22.7293,-8.7039,11.9476,-43.1677,20.7546
-1773.4375,-164.7524,-32.5911,-12.0374,100.0875,30.3730,63.3705,-100.2773,41.7252,-102.3250,23.1272,37.2100,16.3010,-33.6523,-33.2942,23.4259,33.5664,114.9401,29.2779,45.7277,3.4391
-1765.6250,-55.2137,-98.2193,-7.1918,34.9728,-1.6452,-24.1594,124.8094,-27.2227,270.7539,-83.1149,-67.7595,-57.6869,45.3762,-102.9017,175.5596,1.2165,-21.0608,-72.0390,15.9622,8.4752
-1757.8125,-99.2688,-72.4493,-15.9486,-44.7361,63.7164,9.7720,80.2855,-35.7622,-69.7700,-91.9362,107.6782,-1.4995,-37.1870,69.8980,57.0806,-7.7380,76.3240,-9.9431,77.5806,-0.0845
-1750.0000,-8.2652,-52.6318,6.3486,11.6131,86.1143,-18.6389,65.7992,-50.2292,-10.2523,-69.7037,129.1713,-7.0955,22.3142,16.7272,115.6253,-59.6328,-44.2453,-24.7819,-42.7535,-14.5917
-1742.1875,-57.8019,-66.3547,-45.8874,33.4137,-3.0393,-38.2433,87.7590,-65.2384,158.7039,-48.0317,115.1169,-67.5137,44.2767,-146.0242,27.5987,35.9292,13.6396,-3.1657,-55.6361,7.3508
-1734.3750,-92.6409,39.6383,65.5921,33.9255,144.4926,-7.4338,-95.5786,-27.5488,-133.6529,-47.6678,151.7485,-20.5368,44.9376,-147.0836,-117.7389,36.1887,119.2388,32.1544,-19.8183,7.9952
-1726.5625,-52.9823,-26.8453,106.5715,38.9555,39.5054,-54.7477,56.5699,-96.3497,164.4802,-5.7895,9.8736,-23.7169,87.0886,-69.6433,70.4116,-106.0587,54.3403,-104.0189,-84.5085,13.1410
-1718.7500,-120.0644,-60.0736,72.7968,6.2426,4.7451,37.2444,-52.0417,-19.8915,-163.1234,-3.6353,123.2457,19.4093,-21.5162,77.0315,-110.2002,-31.0438,232.6866,-31.9355,24.0393,15.5416
-1710.9375,55.6173,46.4510,111.7687,42.2729,7.7125,18.6427,-85.9011,20.3264,-196.9789,-74.7163,199.3774,28.9720,18.6348,4.4381,-72.0661,-65.2619,127.7678,-30.0948,-80.6670,-18.3023
-1703.1250,116.8115,-68.5119,65.2552,-37.1941,-75.8326,-37.9116,14.7321,-26.9520,86.6582,-121.2995,189.0204,-50.9668,82.3017,-7.6786,28.5506,-75.9647,49.3395,-74.7597,-122.8793,8.3574
-1695.3125,40.9537,-39.5047,167.6988,-7.7010,26.5520,13.4737,-212.6921,2.7310,-177.7582,-55.9352,218.6014,-13.3090,0.9151,20.1673,-87.9002,27.2858,113.8556,-45.4800,-59.1439,37.9707
-1687.5000,-29.1681,-143.7245,131.8865,64.5546,-45.3311,13.8528,-100.3792,-32.8220,153.5623,-17.8209,35.9117,-29.2427,2.2697,19.7827,59.3835,65.2768,-25.8703,-44.4424,-91.6584,39.3360
-1679.6875,-87.2970,-132.9407,70.0759,4.8255,-34.2326,44.2839,-89.0720,15.6459,-91.1270,30.3040,84.2082,-26.3305,-95.3696,29.3942,-39.3564,76.2613,126.4179,1.6134,-11.1669,50.6987
-1671.8750,-8.6690,17.5886,118.0231,-20.1434,50.6114,-31.5376,-151.0181,-9.1206,-227.0976,79.2036,169.2592,-56.2364,25.7575,-143.2723,-28.3716,88.0076,66.4656,12.4359,-70.9320,25.8074
-1664.0625,90.5286,-25.3347,36.5377,-61.5581,-66.9975,-79.5490,-13.4165,-54.3323,168.4597,-3.3282,161.8697,-78.6624,128.4366,-79.4032,0.1586,42.3169,-115.9554,-65.1920,-112.1561,54.4670
-1656.2500,-46.9594,-56.9441,77.3562,-57.6594,8.6731,31.3789,-192.5229,23.7624,-120.6793,-36.5592,201.7792,8.4526,58.4196,142.7768,-105.0141,45.9294,-42.1007,8.4775,-38.0989,58.4254
-1648.4375,-114.3533,-159.4448,80.2650,-19.6495,-24.5866,17.5118,-42.5317,26.9690,175.2866,-105.6760,20.7781,-49.1567,98.5004,33.0545,117.8773,48.6548,-109.1388,-23.7465,-68.9367,61.4842
-1640.6250,-162.2534,-172.4228,28.6870,2.8706,-75.3500,54.4764,52.9369,12.6864,50.7102,-47.2721,-28.7269,-37.2029,-25.9294,17.8103,29.2438,144.8881,18.3479,33.5574,22.7295,84.0426
-1632.8125,-32.0925,-42.3404,95.1664,-41.5545,99.9117,-11.2066,8.4622,-31.5410,-213.7942,18.1816,72.7969,-46.7797,2.7054,-101.3990,-15.3317,63.1660,44.8816,59.9258,49.4368,39.6526
-1625.0000,139.8704,-46.4459,17.4518,-45.1730,21.9624,-80.5147,188.7652,-71.9499,113.4556,-22.5629,106.1209,-92.0263,146.1296,-180.7745,-19.1397,-51.7515,-98.7712,21.1028,-25.0598,36.0583
-1617.1875,50.0995,74.7101,-2.0039,-29.5287,39.2588,-17.1677,-51.6856,-17.0993,-163.0522,31.9548,159.6942,8.2664,53.8156,-18.9016,-221.7117,2.5771,21.8055,1.5228,26.6741,16.7090
-1609.3750,78.7385,138.2717,26.9466,105.5221,-42.0598,-23.2651,-58.7239,-61.8500,48.8525,-13.1297,41.6672,55.3007,-28.0899,-27.6559,-45.8892,-42.6858,-55.2297,-109.6631,-84.1992,45.7631
-1601.5625,31.4262,126.9070,-59.0355,59.6287,-201.3283,-34.8321,1.2611,-73.5524,72.7574,-26.1706,102.7008,-7.0158,-75.9412,-152.3714,-22.0380,18.1135,38.8025,-16.7721,-26.0305,69.8663
-1593.7500,135.0262,265.4572,-23.0979,22.6471,-165.7174,-32.1534,-181.8432,-37.3578,-331.4189,-99.3152,323.6048,-15.5372,33.1176,-264.1947,-95.2903,54.8078,107.7431,157.0291,-27.9786,32.8670
-1585.9375,199.9700,189.3610,-174.8022,122.0195,-318.7693,-59.1948,-41.6105,-42.8013,-7.2694,-105.1022,317.8522,-61.1742,174.5094,-345.6448,81.7730,-25.1450,-3.9363,81.1974,-138.5715,27.2150
-1578.1250,78.6253,208.9824,-264.7921,142.1054,-373.1277,7.9595,-204.6921,51.4695,-317.4336,-12.1831,484.8032,-16.0278,47.5983,-253.3958,-45.4800,-5.3963,122.0722,31.0665,-118.4720,47.2628
-1570.3125,134.6465,299.9646,-317.4437,128.5481,-425.1611,-85.3538,-256.4140,36.0931,-186.2263,46.0927,543.0959,-76.8173,106.0426,-417.7967,122.6091,-21.2840,-32.5949,-53.7238,-273.0293,68.6645
-1562.5000,116.1695,246.4694,-445.5945,75.4870,-517.6994,-87.0779,-164.6567,55.2203,-57.5586,-9.1127,597.9006,-106.3798,50.9850,-400.6960,104.1716,-39.6460,-15.7684,-37.0084,-255.0895,50.5669
-1554.6875,78.8536,244.1445,-372.5849,214.5807,-371.1061,27.1426,-274.7411,128.4987,-425.7244,-46.1632,671.8450,-22.0439,-59.9072,-366.4569,-80.1173,-76.8652,123.1960,31.8569,-152.0195,13.6178
-1546.8750,145.9399,135.2310,-414.1664,247.0780,-412.1250,-60.5824,-59.4310,88.1805,10.4897,-50.8220,667.1888,-160.7785,46.6022,-666.8072,24.9714,-80.6934,-20.4126,-41.8684,-154.5521,46.0691
-1539.0625,92.0457,222.3350,-433.7209,122.5882,-360.1494,-117.5081,-79.1350,67.8680,-156.3250,-34.4866,830.5266,-219.0264,63.1079,-799.1592,4.0443,82.4800,-39.0068,9.4177,-67.1002,62.5196
-1531.2500,112.2679,348.5459,-336.1829,38.2078,-262.1018,-179.8273,-128.7297,18.6575,-132.0060,-120.0370,854.9430,-168.1039,123.7066,-666.4155,138.2097,-4.2290,-193.5120,-75.1919,-116.5520,13.0695
-1523.4375,92.2870,152.5700,-392.8489,88.6284,-393.2634,-99.6828,-39.5388,36.2597,141.0799,-175.7665,687.1605,-126.0740,68.0860,-430.8454,155.1438,-134.1252,-142.2180,-94.9983,-32.1938,-6.5857
-1515.6250,32.8698,92.1592,-306.9666,205.5977,-233.8897,11.4647,-172.7913,159.4184,-287.2686,-16.9350,699.9113,-108.8695,-103.9749,-529.7161,-90.3665,-122.4761,113.5975,21.7354,49.7000,-30.6981
-1507.8125,113.1577,102.4549,-221.3800,180.2646,-185.8284,-112.9626,21.6609,60.2781,18.0771,30.6091,527.3547,-229.7007,54.6718,-851.8942,-5.2000,-74.1180,18.1206,66.1690,-10.7146,-56.1042
-1500.0000,31.4510,161.7684,-195.7693,99.9365,-160.7634,-66.4756,11.0954,87.1387,-103.6167,20.1511,479.8025,-149.4272,8.3264,-643.0707,-127.0597,-47.7503,77.6551,126.6211,48.8628,-66.5113
-1492.1875,-54.9444,180.3830,-136.8439,118.9261,-65.4157,-25.5206,-114.1589,146.3025,-191.9860,5.9737,465.5333,-77.5978,30.2753,-474.9313,-104.6240,-62.0865,-43.5120,110.3748,-2.2696,-117.6213
-1484.3750,45.5609,210.9178,-216.0034,114.8152,-218.1689,-77.3907,26.4679,104.3773,96.5082,-73.2990,422.1590,-98.0069,-11.9041,-519.8672,-0.3152,-142.5219,-82.7617,0.0342,-41.5002,-86.8335
-1476.5625,179.8294,451.2275,-184.4040,108.4549,-151.1831,-11.5409,-199.1611,136.2030,-312.2397,-225.8002,491.5192,27.4962,-164.3329,-415.0612,-226.2660,-221.2009,156.7315,134.4394,22.0038,-128.3005
-1468.7500,434.4142,564.8500,-60.5083,152.4018,-211.9203,-75.1137,-148.4851,76.3283,-116.6809,-285.9966,357.1663,28.6660,-77.4661,-513.9518,-139.9273,-318.5631,130.5279,178.1396,-110.2047,-225.4657
-1460.9375,524.7095,479.1910,36.1055,137.0573,-188.9625,-122.2984,-126.1403,63.1554,-130.4705,-5.4899,343.5178,-64.3857,-90.9016,-677.1246,-301.9083,-148.2181,185.0366,197.5478,-89.7198,-275.9345
-1453.1250,553.9711,473.4839,177.6817,166.6660,-48.0728,-96.4940,-278.8397,94.9323,-393.2828,99.9681,410.7945,-20.0674,-59.3645,-573.3383,-344.9409,-116.9250,109.4768,156.9048,-131.3005,-281.4548
-1445.3125,580.8156,429.3781,164.8657,122.8660,-98.5859,-101.3953,-71.9492,45.3159,-112.5224,-207.9578,250.6570,26.3898,74.7711,-367.9240,-174.4028,-241.0192,-110.4762,7.8673,-174.2751,-184.3737
-1437.5000,409.7057,469.3363,131.1169,58.1164,-23.0538,-61.9313,-142.0209,48.7540,-439.7138,-204.8198,216.5492,60.2975,3.9608,-292.4641,-244.8107,-90.0566,-0.3856,47.8760,-99.2104,-144.2394
-1429.6875,411.4029,366.1010,244.1701,130.1669,15.2545,-122.7252,-66.2890,-60.0075,-182.0879,-55.8722,71.2209,-19.1985,-31.0536,-476.2039,-59.4187,-52.2794,1.5064,49.6806,-168.3527,-142.3021
-1421.8750,354.9034,204.6833,296.0373,145.0215,-80.6405,-31.3637,-51.7877,-44.9607,-20.7132,-77.1337,-24.3122,29.0985,-89.2793,-243.0957,-193.2605,-110.6949,122.2145,99.2961,-82.7017,-127.5691
-1414.0625,260.4300,215.2832,453.9110,85.8834,76.4501,38.9303,-225.2777,40.0868,-340.3192,-177.3999,-13.8619,103.0984,-5.5003,-49.9740,-329.1122,-137.1260,97.9094,109.9114,-37.0755,-116.8400
-1406.2500,246.0656,130.0022,437.8893,0.8434,22.6325,-86.1257,-20.6763,-12.7631,10.1612,-9.5497,-213.3071,-24.8260,163.3809,-214.7592,-88.8907,-116.4471,-92.2884,-10.3679,-86.3496,-96.0129
-1398.4375,112.6651,31.6879,371.8315,43.7527,66.7627,-20.1378,-13.1318,-4.6628,-166.4236,146.2570,-279.8083,-0.4552,-49.7763,-135.5908,-118.7207,1.1973,55.4467,-2.6944,26.3198,-88.2401
-1390.6250,108.7711,-7.1360,405.2685,146.1646,99.3715,19.2573,18.9252,-8.0627,13.5189,68.5661,-393.8315,43.9590,-53.4378,-66.8836,-86.0444,-2.6585,16.6685,-6.5255,-82.5171,-91.9716
-1382.8125,146.3787,-110.4523,370.2139,43.0778,26.4774,33.5438,130.4584,-5.9488,271.9140,-77.6162,-540.3555,32.6888,21.3793,79.3573,-194.8941,-1.0081,19.4056,-3.8478,-80.8614,-54.2012
-1375.0000,95.5070,14.7471,501.6731,-42.5074,267.0740,25.3177,4.4888,14.6602,-75.1786,-56.2851,-519.4022,50.5282,5.7112,25.0912,-322.2484,19.1460,38.6400,86.3319,9.2767,-69.9356
-1367.1875,110.0912,29.4083,518.5884,-27.6446,283.1123,-83.1331,240.9706,-78.2774,272.1727,-76.5057,-651.0103,-6.1361,95.4885,-143.6997,23.8199,-111.2458,-122.6632,-5.0361,-46.1339,-90.2280
-1359.3750,-27.0592,-36.6631,411.7699,46.4718,249.4140,24.7117,244.6947,-36.9598,54.7510,-72.4793,-647.3738,84.5417,25.5097,79.7834,-8.8744,-107.3964,22.2757,-36.1611,27.6980,-86.2800
-1351.5625,-13.9006,-58.4347,464.2489,60.8891,263.9958,56.2365,149.7315,-22.3438,-77.3304,52.8451,-706.4573,133.8765,114.8334,240.5770,-105.2607,-92.2352,35.4937,-57.9952,5.8165,-108.0327
-1343.7500,64.1550,-191.2926,433.6328,-107.8049,122.4767,-0.0537,228.6494,-14.8226,296.4466,206.0820,-773.6467,28.1317,84.0508,245.2884,-245.7666,-12.1478,8.6270,-84.9281,48.8320,-64.8833
-1335.9375,0.9251,-149.4418,512.7281,-240.8000,200.6523,26.1317,50.2711,63.3913,79.9358,175.0229,-658.1585,25.3278,-95.0274,285.7060,-278.5616,102.6493,15.4560,-8.1646,125.5327,-23.0363
-1328.1250,-76.0487,-155.3336,433.0720,-106.5438,120.0605,3.8588,191.1417,57.8545,405.6750,95.2089,-738.4323,12.8799,10.1399,168.4028,81.8765,-13.3060,-165.4554,-85.1408,49.4792,-28.9389
-1320.3125,-192.3612,-131.5480,347.0822,-47.6349,70.1271,28.7968,214.6327,45.9727,281.0241,156.0462,-715.0547,48.8522,-3.0454,190.7774,31.9390,10.3882,-107.7132,-131.4662,73.0694,-5.1968
-1312.5000,-186.6057,-55.7082,390.1460,-76.6777,185.2284,33.7570,36.1861,15.1334,29.4641,124.9377,-635.6500,85.2906,39.8197,268.2182,0.0602,89.1315,-66.9434,-90.7599,8.6996,0.5970
-1304.6875,-98.4955,-178.5165,331.5615,-164.3708,89.6825,17.9722,161.0811,-43.3575,375.2237,30.1857,-731.9087,66.3133,92.0140,430.0432,88.5158,-5.7623,-83.8184,-107.7013,-10.3136,52.7370
-1296.8750,-103.0291,-182.9710,291.3311,-133.7124,157.4843,117.0381,9.3239,26.5024,-70.6634,25.7846,-662.8361,125.0928,-23.4406,534.2321,-27.6723,63.6977,51.6491,-8.2886,56.0205,48.2178
-1289.0625,-47.3623,-126.2246,239.3014,-41.8626,105.4738,75.1223,67.7811,48.5636,97.6697,10.5893,-715.5854,83.4018,72.3064,333.6289,104.3280,158.3663,-102.6824,-126.6743,-28.4464,69.8982
-1281.2500,-131.4943,-105.2578,111.4780,-90.8206,13.6720,58.9296,49.4195,30.8274,153.1666,103.6087,-623.1359,80.9164,91.2448,388.2437,12.5109,214.2527,-116.8079,-175.8537,-6.7204,125.7759
-1273.4375,-136.7610,-75.4367,216.5098,-130.9260,80.7054,50.7031,-102.0806,-46.0687,-109.4456,172.4842,-444.8698,114.8960,49.0354,492.7337,-29.4506,135.9869,-16.0966,-111.1958,-48.1629,120.5038
-1265.6250,-54.0802,-202.6676,229.4978,-118.0818,19.6836,33.5846,56.3552,-70.0118,159.8687,148.3093,-542.6661,55.1213,98.7598,430.2242,18.5144,111.6782,-39.4218,-98.5849,-105.6543,133.1758
-1257.8125,-142.9387,-151.4376,210.9522,-101.7898,36.1173,135.1797,-71.7703,-15.5034,-189.3794,92.5791,-525.0226,127.0090,-29.0714,521.1830,-184.0639,239.8214,187.6968,22.4742,15.2936,114.2944
-1250.0000,-87.3893,-25.8069,196.8038,-81.1100,20.9383,94.0089,-86.4865,-29.5968,-57.1964,4.2481,-577.0078,175.9073,28.4962,578.5543,56.7695,115.3791,67.2100,-132.0675,-33.3644,99.8144
-1242.1875,-78.4947,-16.8163,59.0170,-72.0868,-79.8769,58.4681,31.1245,-93.3394,97.2971,-58.7310,-495.6498,170.6420,37.4075,586.3105,138.9330,87.3001,6.0885,-193.2467,-60.6759,108.6808
-1234.3750,-45.4926,50.2704,167.3391,-38.9616,62.4118,84.4576,-155.1544,-95.9914,-199.0769,-98.6064,-278.2202,186.2180,34.4215,509.1996,-121.7983,158.3129,38.0543,-55.3345,-63.9038,105.6414
-1226.5625,47.9531,-100.2031,157.1167,19.6088,-21.8482,49.5638,-54.9800,-143.1942,156.9861,-72.0275,-252.3564,90.9927,60.8659,349.5615,-23.0844,73.7881,27.4764,3.0353,-109.6820,95.0512
-1218.7500,-44.3450,-88.4169,95.1552,-37.5777,-10.8469,112.4875,-154.5695,-94.1498,-162.7153,48.8077,-241.2491,122.3913,-73.4457,434.1873,-159.1230,122.5238,250.1420,85.6567,76.7840,106.7082
-1210.9375,-4.1866,58.8145,103.6398,-66.3279,69.5977,78.8990,-109.6947,-85.6653,-191.9297,20.0960,-344.7165,177.0464,-139.2896,478.2976,-5.7165,56.7131,151.2481,-14.2804,83.6914,77.8096
-1203.1250,-44.9320,16.1562,-87.7673,-73.9912,-85.8440,65.8001,27.2642,-57.0783,129.9168,-60.5002,-353.0924,145.4954,-111.0383,468.5360,58.7673,85.0147,-30.5400,-91.1105,111.6986,106.0064
-1195.3125,-66.0699,102.0977,-146.5660,10.9328,-34.6828,136.1391,-177.1608,-5.8961,-185.6012,-45.4923,-154.8957,228.0740,-169.1878,555.3806,-110.1241,136.9216,-51.7436,-40.3477,55.2921,120.8031
-1187.5000,40.4398,32.6787,-144.7209,12.5027,-70.8786,64.5321,-65.9306,-40.0717,108.5476,28.1440,-118.0671,164.8852,-20.7100,482.9218,-72.3587,-8.5150,-155.2969,-109.9368,-83.4695,122.2548
-1179.6875,43.0487,-33.6268,-104.7645,-89.8225,4.0368,54.9635,-63.6193,-74.1409,-109.2223,67.8652,-5.1466,103.1758,-92.1486,410.5733,-217.5031,30.1499,57.2484,-2.4334,23.8588,124.8023
-1171.8750,35.2148,63.6093,-37.2656,-97.6109,107.4879,41.7217,-106.7448,-43.6457,-299.4057,-11.8542,-48.7063,73.7899,-61.0333,219.7181,-77.0862,98.3711,85.3247,95.6101,50.7283,81.8969
-1164.0625,-25.5705,1.8971,-100.7100,16.6256,-31.0067,90.9518,85.1648,-34.0874,2.4194,-148.5081,-224.2239,112.4518,-88.8733,264.9105,3.3681,70.6595,23.4604,33.7077,95.6529,91.0412
-1156.2500,-122.5506,9.9860,-127.3483,130.6514,14.2995,223.4183,-125.1324,49.2643,-280.9384,-101.3390,-141.9609,254.9258,-262.9110,530.9514,-243.3627,80.7570,67.3832,42.6055,138.3716,63.9817
-1148.4375,-71.1318,-78.5310,-182.5955,112.0781,-5.0001,150.2971,-35.0199,67.9986,-6.8708,-10.7659,-124.3165,156.2931,-171.5651,401.4532,-6.6929,25.2646,-127.2915,-12.1031,49.4928,45.3231
-1140.6250,-78.1662,-156.4907,-228.2955,-36.9423,-15.7369,78.9229,28.6238,58.2794,-53.2789,127.3560,10.8660,36.4606,-70.6946,280.5527,19.5266,15.3347,-64.4190,14.7344,40.1653,72.2101
-1132.8125,-44.8049,-52.0666,-80.6038,-106.5760,131.9224,53.1655,-116.3058,59.9557,-309.2402,164.8909,85.4084,27.7858,39.5764,207.0798,-162.8357,53.8125,3.8349,119.9672,4.2307,36.4997
-1125.0000,21.6828,-91.5094,-46.7674,-42.0738,55.7472,35.5140,63.9098,20.7843,54.9330,88.5764,-101.9120,12.8454,36.9933,129.8070,-166.0607,-22.5485,35.2457,80.3670,35.4575,-3.0588
-1117.1875,-90.4384,-26.5620,-50.5251,22.8213,123.9836,142.1165,-14.4757,90.0150,-280.4860,-25.3492,-33.8415,137.5623,-224.1867,308.9768,-244.8787,10.4900,205.0440,39.1758,135.0803,-44.2192
-1109.3750,-3.4658,-116.5326,-71.1899,108.8123,139.3156,122.5462,111.2564,69.3390,-118.7784,-120.1710,-55.6922,117.1798,-135.2796,287.2769,-9.5859,-47.3609,44.9370,-85.9216,9.8063,-28.2782
-1101.5625,-58.7041,-169.6927,-238.0554,-15.4098,44.4582,56.2445,163.7705,49.4552,-66.3029,6.8134,-3.7493,9.7992,-9.5908,192.4181,152.5052,5.6053,25.6380,-34.2188,25.3383,-12.5367
-1093.7500,-74.6851,-10.6001,-179.6757,-137.3949,137.8463,-20.0787,37.5481,69.8062,-302.5354,212.0504,126.4106,-40.3805,11.3419,27.8470,61.8686,136.8238,-25.4253,19.7271,44.1082,-28.5444
-1085.9375,-20.6204,-62.4552,-199.2513,-83.3469,7.2881,-45.0848,164.3657,14.2035,229.2621,155.3359,32.6073,-42.5375,-45.7011,45.3753,5.2774,81.1059,-111.4198,-136.2653,62.9308,25.4950
-1078.1250,-114.5947,-87.3503,-188.8662,-3.3506,-57.3075,114.1384,-46.8791,61.5440,-56.0048,-18.4290,115.7460,96.6051,-144.7954,348.8808,-168.3628,17.3375,108.5326,-57.2992,142.6961,35.4788
-1070.3125,-32.2675,-38.9558,-100.1885,79.9350,-41.6036,93.1750,-104.8031,77.1721,-76.9336,71.0962,20.1637,82.5217,-56.5777,216.7198,-80.7033,33.8710,15.7730,-9.0333,14.7603,-22.2367
-1062.5000,24.6449,-122.9621,-184.9158,31.8082,-55.2779,-7.9413,65.8575,28.3980,130.7089,242.2141,6.1788,-56.0136,41.2272,-16.7819,-57.4525,131.0090,2.6143,-57.1615,1.4295,-35.3566
-1054.6875,-8.4356,-85.9731,-110.6487,-107.3239,167.0540,-40.3157,-42.4660,30.6139,-125.6151,244.3399,191.1646,-79.3560,-30.9806,-15.2552,-19.1674,170.1518,4.4310,-20.3058,38.0818,-33.4804
-1046.8750,-41.1745,-187.6392,-180.0457,-174.1190,94.7385,-102.5343,143.5644,-3.8269,318.4055,99.8231,81.4946,-134.6579,81.1445,22.6575,313.4671,98.6607,-204.3976,-124.1013,-29.9141,-31.2546
-1039.0625,-230.2071,-165.6034,-231.7379,-152.2272,43.1372,-15.0080,55.2795,18.4257,193.1093,122.0060,29.5230,-35.8135,-7.0320,228.2989,76.8092,120.8818,-77.5258,-102.1942,26.7845,-9.3289
-1031.2500,-194.2402,-24.5756,-156.4402,-47.3552,43.5324,-25.7399,-54.9846,19.6610,156.8635,197.1856,29.5321,-20.8110,-6.2014,44.9778,-32.8282,49.1049,-41.6707,-66.2941,-7.5246,-8.4019
-1023.4375,-107.2814,-7.5376,-213.1493,5.5011,-88.0567,-42.4444,72.7409,-37.1132,357.5828,103.3618,45.5415,-50.7730,-26.3837,-85.2942,57.5245,29.3377,11.1821,21.6064,-61.8337,8.5302
-1015.6250,-74.7752,-44.9560,-140.3134,-32.0992,57.9110,29.2712,-75.9835,-0.3446,-85.1219,30.0753,154.0886,1.4388,-173.0223,98.0160,129.4511,102.1289,113.5663,89.0488,6.4021,-28.9877
-1007.8125,-35.6195,-182.7361,-135.8422,-100.0650,62.5304,-47.0447,112.9484,-31.9349,213.8439,34.4287,47.2802,-72.8785,14.9658,103.0109,318.0349,33.5846,-94.3974,-12.8607,-60.7073,-60.8531
-1000.0000,-171.0139,-177.0625,-165.9164,-94.5958,67.6215,4.7989,118.3142,-26.0797,146.2384,-32.7584,51.9135,-12.4370,56.3849,218.4912,102.0652,-33.4983,17.0913,-7.3141,14.6277,-55.2653
-992.1875,-189.9600,15.0524,-74.5530,62.2998,159.1563,31.7972,-47.8560,-44.7920,-56.8737,-88.4796,68.9726,71.3851,37.2572,126.4518,45.5568,-89.1248,139.0125,8.6840,-39.5936,-74.2213
-984.3750,-94.4214,4.6711,-47.7010,122.6806,74.2061,-39.0807,88.4622,-166.0123,226.4821,-24.7030,-15.4668,20.9244,-46.3773,-32.0435,181.5427,-99.2430,198.4435,-36.8111,-50.3049,-84.6809
-976.5625,-81.9873,-52.8144,5.0468,-6.0428,163.1749,-34.5337,-6.3192,-112.3405,-52.2552,27.9560,145.9880,-36.1016,-104.1153,-52.6068,123.4658,27.5393,246.7540,81.5891,102.8750,-142.2475
-968.7500,25.1382,-191.6152,82.4774,-145.0781,202.8423,-121.2870,180.6181,-72.9779,281.7368,-42.6995,111.1290,-152.3264,118.8195,-123.4234,310.1096,-79.9706,-69.2448,47.6814,68.7537,-176.1065
-960.9375,-91.9978,-203.6654,-6.3507,-192.3744,150.2715,-102.8030,276.2787,-49.8657,304.4510,-56.5953,133.0196,-93.7915,104.4781,83.5460,221.4907,-130.7101,-186.4876,-104.4612,92.3825,-117.2065
-953.1250,-146.0269,-45.6264,10.9081,-104.5857,203.8009,-47.1887,35.0482,-69.6655,26.3114,-150.3779,148.9991,29.3631,121.2495,210.6246,53.9793,-150.3409,-98.6465,-122.5032,38.1039,-100.2012
-945.3125,-151.7198,-122.2495,4.5056,-75.4710,122.6949,-83.7874,248.1670,-114.1250,350.5160,-229.8068,-80.6754,-73.8614,223.3510,-53.9080,192.8204,-120.6025,0.5522,-93.1925,67.1925,-70.8458
-937.5000,-270.4237,-170.8784,-8.9061,-125.3703,255.6022,-37.5623,271.2956,-90.5879,41.7327,-134.2412,-58.3664,-89.4067,-47.5727,-104.3993,178.6939,-59.8505,197.7242,69.1091,265.2859,-84.4875
-929.6875,-146.2505,-186.6285,10.5486,-176.3843,274.4065,-130.6910,327.3407,-108.1513,244.8841,-40.7743,32.8305,-161.8686,-102.6064,-195.9503,381.4876,-77.1891,-29.2274,-17.6915,143.2837,-65.2229
-921.8750,-120.3476,-265.6321,-148.2623,-185.6605,113.9763,-134.4898,314.1204,-119.9665,342.7493,57.4502,92.7919,-180.9655,-4.9013,-97.7160,332.0272,21.2304,-143.4244,-97.7268,133.0420,-4.2069
-914.0625,-198.8320,-204.0396,-84.4897,-124.3494,142.1421,-50.4482,121.5152,-55.1956,40.2593,49.2702,83.3487,-83.8133,96.4112,41.1297,176.1899,-23.7461,-83.0393,-71.1654,160.3885,-12.5856
-906.2500,-159.0725,-235.1970,-43.4878,-14.8157,35.5578,-47.2458,272.1558,-88.1848,412.0214,-130.6683,-23.8407,-96.1069,136.9577,-64.7283,252.6144,-129.4569,-8.4074,-67.3535,57.9882,-8.7090
-898.4375,-127.1195,-63.1471,-11.2994,-54.0982,67.1894,-47.0794,156.9846,-127.9839,148.9817,-134.4152,81.1747,-83.3663,-124.3075,-178.3477,64.2587,13.0367,269.4027,35.6519,124.7875,23.3696
-890.6250,29.4713,24.5358,42.5076,-37.7416,119.4691,-105.8117,63.4845,-185.1415,92.6383,-45.5075,59.8279,-87.2748,-144.9330,-235.2929,190.5782,30.1940,179.8389,-18.7048,36.2383,40.1018
-882.8125,69.3406,-110.4849,-62.4039,-33.0942,51.0719,-98.1531,141.2760,-180.0020,317.5577,-40.2899,-10.2089,-96.5460,-67.2746,-119.9082,232.1943,-38.3256,44.5753,-83.7564,75.9961,45.1398
-875.0000,-16.0990,-55.8153,33.3709,-47.7659,146.3836,-48.3318,-20.2200,-120.1795,-64.7888,-90.3881,121.4510,-37.0505,-45.9078,-23.8000,106.5432,-15.1437,29.9982,-63.1052,96.4439,30.8852
-867.1875,15.6565,-24.9581,-7.6717,-52.2632,31.8973,-90.3732,86.4892,-124.1656,152.0721,-167.3094,43.3167,-57.1236,97.6446,-64.4486,286.1026,-91.7597,-80.3736,-102.2358,-13.9064,26.8349
-859.3750,-75.0841,-9.5933,-29.2187,-72.2737,46.9341,-57.3300,27.6822,-72.6585,20.4112,-78.7324,57.6948,-79.4883,1.6767,-157.5642,154.1705,-2.8714,145.7427,-16.8615,72.2393,42.2832
-851.5625,-53.0312,-22.4457,32.0104,-50.4927,106.7675,-97.6815,-22.3129,-85.3654,154.5989,128.6587,43.8598,-125.4911,-84.4988,-280.8581,141.0596,58.8296,62.6369,6.3003,59.1821,29.5350
-843.7500,-10.7076,-155.0043,-71.4776,-77.4283,-71.0800,-111.9255,93.9836,-78.7831,528.0646,171.3510,-25.6647,-166.2811,-42.3790,-200.8195,183.2459,101.8540,-141.1659,-57.2431,30.4400,72.0937
-835.9375,-55.8963,-60.0560,-121.4889,-89.8711,-47.4219,-6.8768,-102.2146,54.2865,111.0529,122.5119,71.3124,-58.8486,-128.7582,6.7493,22.9591,163.3808,-117.4824,-33.2858,54.1890,96.1577
-828.1250,-15.9911,-55.0093,-150.4251,-49.2261,-112.6671,-8.6515,-22.3126,99.4459,229.1507,-17.2482,41.3985,-72.6293,-12.0570,-58.5379,288.7860,24.0085,-216.6955,7.7785,-44.9644,67.3296
-820.3125,-64.4854,-103.3572,-198.7680,-27.9976,-125.2892,48.9956,77.1658,124.1985,-3.1891,-65.4028,102.1054,-41.1722,50.2281,4.7906,203.2225,-60.7515,-55.3098,65.4531,47.4865,19.1052
-812.5000,-78.0311,-10.7772,-101.1778,-5.8411,46.0404,31.7528,-8.3848,112.8883,-125.5331,70.3994,89.7588,-23.1758,38.4644,-79.9172,-66.3602,-34.5551,1.9859,87.0824,68.8827,-29.1595
-804.6875,-1.1973,-75.8009,-96.2212,-36.3033,-60.2176,-55.5265,105.4538,43.9724,283.5019,222.6035,-17.1717,-106.0156,-31.9182,-184.1777,-62.5476,7.0624,-98.3256,-11.8803,4.6884,11.9810
-796.8750,-53.2726,-20.7131,-76.1899,-52.6764,-39.3624,32.7517,-166.6100,101.1474,-100.3526,169.9023,76.0000,-6.1115,-121.2074,56.6898,-151.6115,65.7822,-44.5480,42.2543,58.5963,-3.7800
-789.0625,45.5013,-27.7776,-44.3339,10.7829,-81.6593,46.7344,-136.8064,133.1523,-31.3269,-18.9579,33.0254,25.7693,56.3436,126.4238,63.1905,-49.6451,-190.9229,0.2446,-53.6463,-45.6841
-781.2500,26.5674,-82.5325,-138.1874,-79.4748,-102.6308,38.0128,-9.7238,149.4453,-52.0329,-39.5383,85.3789,-10.7186,-0.8187,143.4704,42.3014,4.2388,-105.9968,-53.4404,-2.5853,-29.2808
-773.4375,17.0387,-20.9014,-76.6567,-158.3472,-40.1941,7.3985,-95.2250,138.1249,-246.2946,-13.7405,221.1329,-41.6651,-12.5843,58.9279,67.8504,-6.4717,-45.7043,7.2792,22.8705,-3.4714
-765.6250,91.5428,-52.2378,-146.1001,-119.1919,-183.6960,-42.5240,18.3279,67.8485,123.4751,-10.8994,75.9494,-92.7193,100.6736,-47.5159,218.4561,-40.1113,-181.3698,12.0568,-8.6034,36.3902
-757.8125,-52.1162,-18.7298,-146.7137,-17.1974,-75.3247,40.0684,-129.2690,103.4202,-169.9077,135.7969,73.6184,-8.3084,-48.2215,26.9267,-3.0887,71.0968,-79.2044,44.6853,94.7781,-0.8956
-750.0000,-34.9892,-2.4278,-19.5646,68.5853,16.8454,9.9990,-112.0437,48.7810,31.5517,117.2888,18.0858,13.4808,6.6792,9.1846,15.1766,53.1057,-203.2440,-43.8858,5.9643,-19.3758
-742.1875,3.0264,-35.2036,-91.5349,1.2550,-93.0683,-9.5940,37.0675,13.0294,179.8743,8.6710,55.4782,-19.8291,-29.5488,11.3559,16.3506,55.0330,-129.3756,-41.5431,-26.9465,19.0483
-734.3750,37.8964,70.8755,-92.6818,-35.2411,-58.1302,40.7705,-147.9616,85.1126,-188.9194,6.8980,199.7320,20.2330,-103.9350,47.3873,-95.5849,90.8141,-25.6891,64.6459,-27.0181,54.3278
-726.5625,115.1636,7.3491,-122.4592,6.6365,-196.7941,15.6017,-67.5960,18.5847,148.6815,-22.4841,59.4212,-10.4545,-24.9293,18.8515,95.8813,25.0031,-123.6191,107.2393,-54.6813,62.0169
-718.7500,-29.5209,3.8650,-89.2047,2.5466,-163.3973,54.0650,-181.1965,15.1047,-110.6832,11.1756,92.1900,11.1791,-28.8687,53.3950,55.4082,59.2511,-22.5184,173.8956,47.7072,58.7630
-710.9375,-55.5228,49.0582,-6.2885,47.1532,-6.3061,21.7159,-97.0789,-10.6785,-136.3068,-51.4775,65.6689,24.4115,92.8840,-8.3376,139.6681,-2.7927,-117.7339,113.2674,-49.1996,33.2116
-703.1250,-8.6887,-79.8808,-67.5497,-12.3870,-104.3482,-11.0942,98.8713,-71.6115,168.8749,-75.2904,77.0275,-14.2847,67.4516,78.8023,78.7754,10.0249,-72.0831,20.5042,-106.2562,45.5124
-695.3125,40.5010,3.5526,18.5163,36.4156,18.9616,32.1622,-107.8333,-58.2129,-147.5754,-25.7548,199.7559,40.9978,-66.6377,93.2994,-164.7535,61.2007,46.9048,69.0883,-128.9800,59.1663
-687.5000,146.9387,41.2437,19.8047,37.4497,-16.4808,-26.8881,-70.2896,-20.5832,184.2298,-23.9638,90.7544,-12.2879,7.5117,-51.9433,-17.0308,-10.3544,-127.8705,35.9272,-232.4527,61.0768
-679.6875,41.8185,76.3905,-53.4753,36.9173,-89.4549,25.3574,-106.3112,16.4913,37.4650,-23.7200,90.2331,44.8626,-101.8982,60.2751,-16.8432,-9.4505,-58.2181,36.2225,-127.4726,61.4421
-671.8750,-19.8111,156.0197,-43.2951,80.8742,-41.9361,27.3919,-168.8155,-8.9417,-133.7566,-48.9989,100.2292,108.2813,-55.8083,146.0211,68.8764,2.9488,-84.0936,-59.9847,-152.9917,36.3177
-664.0625,33.7383,33.8533,-134.9480,133.0162,-170.2100,33.4435,-5.1308,-28.1716,67.1941,-67.1012,44.4580,72.2486,72.4578,128.0007,49.7957,-15.4459,-66.7605,-76.9840,-205.3032,54.4066
-656.2500,26.9320,62.3493,-68.9758,55.7973,-67.8339,53.8000,-194.7987,39.2291,-380.1938,73.4387,221.3591,30.8652,-45.6339,12.6324,-176.6039,126.8159,102.2089,57.6749,-105.9719,48.1517
-648.4375,184.7653,115.5068,-15.3877,-32.7800,-85.8133,-61.7999,-102.8054,-16.7411,-103.9110,54.6194,164.9277,-50.9084,8.9115,-151.0818,24.6603,34.7404,13.8207,4.9871,-158.9951,66.5554
-640.6250,199.9423,131.0262,-37.4681,-88.0152,-145.4288,-61.0475,-89.4856,-75.3660,-90.3111,-40.8668,177.8844,-6.4874,-14.2018,9.5692,-70.7269,13.0275,28.7787,-84.3435,-73.6654,117.3143
-632.8125,141.5263,212.9303,-25.1731,28.1364,-58.6479,8.0293,-259.7525,-61.6016,-334.2770,-27.9721,228.2625,114.1494,-1.9103,171.6327,-130.6831,-45.2824,40.1129,-71.2831,-131.9382,94.4842
-625.0000,133.8942,100.6265,-143.1075,91.0670,-176.0564,4.2351,-47.2265,-33.0410,62.5243,-35.2856,73.4769,44.7846,27.1659,18.5261,45.1676,-125.7828,-37.7518,-9.4138,-139.3957,87.4642
-617.1875,9.8013,81.8886,-87.5163,1.5315,-9.9033,17.3536,-101.1489,23.0594,-248.1251,57.9473,129.2641,-18.6038,-64.2142,-143.0273,-118.4127,41.2659,118.9062,148.0152,52.6942,34.0015
-609.3750,94.9003,97.3548,114.2378,-18.8062,82.4444,-65.1214,-45.8595,-31.6516,-45.5534,113.3791,37.2698,-53.7292,-8.4057,-233.3871,-99.7866,24.5278,-6.2527,93.6493,-2.0194,-20.2510
-601.5625,39.5368,42.3890,93.5231,30.4030,-10.6451,-13.0013,7.9520,-14.8172,81.5260,56.3391,-19.1254,-3.1933,-29.0593,-106.1856,-192.6171,-31.6445,-26.8612,73.8447,82.8234,-39.9482
-593.7500,-46.9672,97.2727,76.6388,119.4440,46.1117,102.8933,-156.3763,78.8544,-227.5141,-32.8731,37.3588,122.3226,-45.8563,99.8756,-244.5624,-46.9748,26.3508,93.8862,66.5110,-55.7867
-585.9375,-80.8317,-7.1989,-69.6322,190.1083,-62.4792,95.6127,102.9459,80.1655,141.0854,-105.4324,-71.4788,80.4665,27.9786,28.6056,-22.8479,-118.6379,-42.7922,59.5836,-2.1359,-53.9646
-578.1250,-136.7502,-26.7078,-126.9757,99.7135,-45.1117,85.0480,83.2135,97.4225,-99.3731,-125.0482,55.6612,8.4694,-28.2480,-99.7209,-42.1750,-26.3393,148.0012,111.2430,119.1700,-73.1829
-570.3125,4.0195,44.4847,58.3387,29.0170,29.9482,-42.6214,85.1988,25.3674,49.9096,24.0251,20.5213,-42.2649,9.2174,-207.3513,107.2130,-97.3373,-28.5230,41.6027,49.1856,-107.6923
-562.5000,21.0670,-44.0098,37.9269,-60.3925,-62.6765,-78.6319,175.4747,5.6043,325.4636,188.3950,-109.2825,-61.2078,-84.0441,-77.6667,87.8892,-79.0281,-152.7426,-46.7223,66.5143,-89.8963
-554.6875,-100.5851,44.8017,92.7890,63.4892,29.0063,20.0714,-25.9396,61.1296,12.3388,171.0498,-90.7610,41.3023,-140.0051,-20.6874,-114.1079,-22.4196,-28.6907,-27.7395,85.1341,-70.7949
-546.8750,-86.7970,-45.9333,-3.9321,146.8020,-66.8649,-9.5791,135.0986,2.1056,358.6546,37.1325,-113.7556,-20.2970,-15.5188,-153.2481,10.3447,-44.3495,-50.1940,-83.2983,28.2140,-56.2337
-539.0625,-165.5537,-53.2035,-88.2208,103.5536,-113.2787,50.5417,51.5661,-7.4719,54.3913,-82.3493,60.7340,12.7381,-25.5931,-13.3614,-34.7455,58.1816,117.7473,14.6049,20.7500,-28.2127
-531.2500,-14.1601,62.6795,32.6062,42.4505,-28.5597,2.3669,-47.8115,3.0808,-154.6984,-144.6818,145.3953,0.5061,94.4789,-75.3215,123.3391,32.8608,-48.1680,60.6614,-109.5663,-17.0333
-523.4375,97.4700,69.8274,-0.3423,-57.3992,-133.5802,-52.1560,31.0396,-66.1238,144.4165,-175.7797,76.3528,-54.2999,98.7785,-141.0169,165.6681,-35.2113,-182.8209,243.9754,-102.6235,25.4014
-515.6250,80.5507,123.4361,92.1368,-109.8002,-40.1452,48.3522,-168.6583,-82.8866,-239.0070,-229.4516,170.7902,-6.8840,-65.4638,-120.2650,-34.5404,-86.8356,-95.0491,896.7424,-84.2410,9.2906
-507.8125,162.3281,64.7518,-5.7110,-28.5173,-101.0176,12.8385,-120.6562,-142.9543,31.2760,-143.4331,109.9609,-42.4303,-16.0183,-178.8137,15.9545,-73.7477,-154.5881,873.2154,-177.1580,-14.1090
-500.0000,87.8019,-44.2109,-85.8703,107.4531,-69.1783,38.8915,-88.9813,-111.3273,-120.7739,-1.7243,178.8688,-2.1578,15.1073,-36.6639,-171.8438,107.0556,17.5655,306.4088,-145.3750,18.1986
-492.1875,11.4807,-13.9692,55.1444,100.6269,108.8577,11.5712,-167.0901,-81.5158,-309.5901,66.1522,172.9957,-5.7791,118.4413,-78.3232,-141.4232,138.0482,10.9092,124.8048,-117.3948,12.7142
-484.3750,74.3936,-56.4682,82.3843,-82.9523,100.1567,-129.7199,117.0448,-125.4610,121.8159,-16.7368,54.4125,-167.0725,183.0191,-341.7257,144.2323,57.2925,-136.4915,118.4615,-89.1593,41.4848
-476.5625,36.0977,116.8457,151.3993,-121.7348,171.2562,-124.6530,3.9769,-128.6170,-210.9754,-56.8226,198.6685,-112.9239,32.3981,-343.3384,68.7067,92.3495,-0.1201,115.9174,13.8664,39.0601
-468.7500,101.9486,219.3096,109.5291,49.6126,57.4917,-84.9942,0.0648,-132.6289,-31.6020,-132.7547,121.1111,29.8788,100.9140,-124.7994,28.3541,-21.4340,-40.6173,-98.4835,-129.9590,35.7987
-460.9375,-1.3544,115.6450,-36.5072,120.7971,-88.4105,49.2986,-72.0195,-58.7934,-102.4306,-130.8494,86.4433,125.1297,29.2702,171.5973,-152.1421,-18.3668,101.7311,-96.0200,-93.9326,38.3958
-453.1250,-52.3938,65.2472,22.6856,105.2360,44.9286,80.4601,-231.8461,1.2808,-409.9924,-35.7309,110.0487,96.1211,50.8888,122.2344,-130.3758,42.9383,156.3202,29.6955,-38.6704,-11.7497
-445.3125,29.3626,7.6706,69.6545,-24.5236,-15.9325,-56.8454,37.1123,-23.8515,6.2239,-23.8367,12.4938,-76.4104,136.2895,-194.3417,103.1727,-17.9487,26.7229,7.2208,-26.5921,0.9088
-437.5000,27.7717,76.7574,141.2606,-97.6433,92.8626,-24.7667,-38.2871,11.6663,-251.9055,-62.3022,84.6272,-20.8430,24.3335,-85.3098,-81.6172,-18.1752,130.7552,6.3978,77.1364,0.2244
-429.6875,6.7807,91.4400,193.4355,-13.1830,146.2490,-25.3004,14.9292,-9.2186,-89.4076,-120.1729,-8.6118,29.9734,75.9714,-30.6846,9.2126,-110.7986,-31.6317,-48.8340,-13.5379,-19.8487
-421.8750,-102.9696,18.3818,4.8319,88.5168,31.8902,21.3990,84.3780,-12.8544,54.2884,-49.8049,-85.5635,36.7395,71.8403,-32.7842,-104.7098,-40.1671,-0.7637,-16.8006,53.0477,-22.6663
-414.0625,-150.7088,76.3455,-8.7948,145.2260,130.5216,86.0988,-112.1658,84.5029,-251.0005,11.5532,49.5041,72.8213,-14.2968,-43.9083,-189.6255,59.4627,56.0885,41.2378,75.6261,-34.4772
-406.2500,-38.6522,-56.8694,-3.6444,80.7296,25.9545,25.7167,78.0893,53.6527,122.4861,-19.2915,-16.5903,0.7814,-8.6440,-36.2503,74.2376,-44.0984,-78.2532,-21.9156,12.0188,-27.4818
-398.4375,-134.1458,-116.6166,5.9449,-50.3293,73.8539,66.0025,15.7932,101.2416,-160.5899,-8.6890,30.8032,10.4498,-109.5357,122.8433,48.5526,4.7956,36.8392,-10.6184,128.8609,-16.0304
-390.6250,-85.6894,-32.4179,92.4579,-38.4544,125.6923,7.6823,29.4685,78.7696,-109.6792,5.8333,-26.8273,14.4695,51.5318,64.8870,26.8418,-53.3597,-91.1413,-103.3708,35.6525,-37.6194
-382.8125,-91.5321,-2.5036,-24.3538,25.1169,-26.7641,-5.6790,134.8236,36.0031,142.8916,-36.9656,-105.7157,16.4547,119.2748,24.6387,-14.1753,-20.8136,-62.4176,-143.4110,-4.8484,-42.5018
-375.0000,-74.7586,85.0337,-8.5820,147.2885,63.3732,62.7506,-69.2217,52.8231,-243.9232,16.8261,22.0265,91.5286,-48.3867,42.9631,-107.5794,71.3301,94.8883,-125.8465,-22.7638,-24.7776
-367.1875,-15.2361,-29.6546,-22.0827,101.2118,-58.7488,-2.7647,29.4755,4.3811,111.0035,41.3516,11.5536,-3.1743,-24.2980,-41.9739,64.7529,-13.7740,12.9465,-135.5301,-68.9278,0.7079
-359.3750,-32.2146,24.1848,-42.0941,12.6406,-40.3608,-11.0863,-26.3499,22.4310,-17.6089,-14.6427,103.6193,-19.2132,-6.7126,-59.4073,-26.4209,42.6239,100.4995,-116.7119,-50.5904,19.7006
-351.5625,-41.7859,120.4230,57.2696,37.4643,60.4104,-27.9739,-72.7587,-24.1265,-136.7943,-98.2523,95.1160,29.5508,93.2777,-30.4568,38.8224,34.4202,20.4334,-159.4953,-94.8513,11.1008
-343.7500,-58.4053,70.6235,-34.4275,91.2279,-66.8638,-1.8303,57.7662,-41.7353,176.9256,-150.9137,-68.3933,61.6731,39.2058,64.4254,58.9997,-18.8216,39.3301,-210.3138,-110.1547,31.4606
-335.9375,2.6316,237.4978,-45.4883,151.6433,-39.4907,65.1470,-172.0628,-14.7023,-309.7021,-88.9301,106.7725,159.9700,-119.2119,128.9357,-170.1654,9.5832,239.8642,-114.4781,-119.8151,22.4764
-328.1250,200.9252,295.6423,-59.3199,173.3145,-125.8783,3.9701,-148.6420,-27.4273,-103.0775,-101.7207,132.2169,113.1264,-21.3909,-29.3033,-73.0889,-110.7693,121.6473,-91.3959,-166.2212,10.7519
-320.3125,270.7194,261.3083,-97.6625,102.4854,-125.7594,6.5841,-112.7427,-27.6547,-248.9919,-138.0222,243.2025,111.1097,-59.0830,45.9518,-109.5233,-109.6162,84.9272,-90.8122,-62.1256,11.5308
-312.5000,343.4680,334.9309,-21.0811,68.6026,-10.7000,-13.8724,-217.8805,13.0615,-465.9221,-135.3772,322.1593,110.5024,-18.8151,14.1231,-141.9960,-32.5079,-18.8644,-123.2772,-59.0893,-20.7335
-304.6875,366.2524,217.6208,-73.4679,54.7622,-98.5851,-76.4052,-48.9792,-1.1751,-75.8346,-38.6976,162.2018,5.1591,39.5046,-144.6706,-44.4273,-8.3492,-137.5942,-204.6732,-0.9944,3.0585
-296.8750,227.0937,220.3802,-72.8118,-14.0260,14.5874,-44.1531,-121.0282,0.6344,-366.7111,37.0116,202.3167,6.0658,-32.1214,-141.4350,-187.7956,68.8470,39.7254,-62.0132,106.1502,5.9015
-289.0625,243.1905,237.4039,-20.9181,1.4369,-6.0072,-63.5818,-67.8142,-57.3117,-94.3307,-58.0434,108.7017,18.9061,20.4901,-123.9529,-98.9188,-24.7134,20.2967,-45.1136,17.5505,23.0012
-281.2500,161.8363,192.0074,-70.4818,24.4478,-91.0492,0.9776,-42.0788,-68.7049,-31.4426,-178.5542,98.6803,89.9684,-28.3716,86.0722,-181.5157,-70.7146,149.4240,-55.6555,41.4995,12.6542
-273.4375,149.6003,250.7222,28.0442,82.5650,8.9926,40.7552,-199.2404,-5.0061,-371.4308,-153.9855,126.7864,143.8915,-113.1132,113.1707,-119.0052,-80.6179,136.6324,-66.0996,29.5292,-33.5852
-265.6250,138.4652,135.5390,-22.3529,70.7827,-113.8685,-28.2557,8.6832,-18.2058,55.6482,-93.3279,5.0330,46.4012,-52.7563,-8.6326,89.5908,-55.4181,-86.0541,-147.4337,-51.3326,-8.7195
-257.8125,11.3892,114.4265,-85.7069,13.0549,-27.6744,18.0324,-90.3496,30.6463,-188.2473,-81.6268,128.3539,41.3354,-4.3542,4.5851,-117.7660,-5.1729,-2.6888,-62.7116,67.8603,41.1976
-250.0000,47.3719,81.3770,-49.0251,-56.6221,47.5549,-69.0485,-15.3159,-42.4575,-78.0673,-43.8827,167.7329,-36.7609,143.0889,-102.1688,-6.0761,-38.8827,-73.2754,-60.9446,-0.8922,43.1695
-242.1875,10.0531,-25.9443,-162.6448,-165.6048,-65.5065,-87.7012,129.3998,-81.8626,177.7613,-9.4484,56.8511,-85.2635,30.2206,-31.2245,66.2876,70.1070,-40.1518,-27.4677,67.0602,41.8430
-234.3750,-60.9967,45.9995,-128.0170,-131.3373,8.6817,-9.9560,-17.6265,-8.0205,-43.1470,-9.7794,58.2444,2.5175,-154.3800,80.9426,-44.0880,108.3404,-5.8064,9.2562,102.2475,42.7661
-226.5625,-43.6965,-6.6996,-184.0615,-8.7236,-84.7890,-33.3919,146.6962,9.1759,342.2757,-66.7725,3.0265,-42.6497,-64.6255,-83.5642,120.8879,15.9279,-164.1098,-78.6629,14.7876,61.0455
-218.7500,-118.7383,-11.7302,-230.4614,19.5444,-55.6069,15.9967,102.6568,1.0230,77.3221,-110.1231,107.4853,-11.7599,-36.2229,-53.4526,40.5152,10.1659,-101.7612,-13.9320,113.9810,90.9815
-210.9375,-80.7753,-76.7458,-152.8809,22.8098,24.5558,48.3581,71.6292,43.8599,46.3971,-141.4805,77.9438,-6.8466,-30.8252,-11.3486,84.1520,-55.6031,-133.4138,61.7952,118.1781,60.9205
-203.1250,-90.4188,-190.3359,-199.9005,-57.5240,-95.8708,45.3531,171.9898,34.0944,330.8305,-151.4489,-78.1757,-37.9496,-4.0521,91.1660,38.1663,8.0242,-108.6566,52.9219,143.7820,52.2619
-195.3125,-119.0054,-42.8635,-120.8678,-86.8008,-13.2536,45.3210,-40.6014,78.3747,-65.6675,39.6280,5.7779,-18.7707,-107.2239,26.6968,-136.7589,91.6960,38.1331,95.0927,151.4189,24.6576
-187.5000,-52.1841,25.0184,-89.4541,-56.6769,-54.2535,-75.9240,29.2026,-35.9442,225.2305,182.1088,-70.8374,-84.4718,-37.9858,-196.4091,43.6998,-22.2140,-36.6747,56.6658,41.4548,21.4620
-179.6875,-71.3527,-28.0735,-111.0450,-40.5504,-37.2449,0.0940,8.9888,-56.2638,-15.9117,87.5766,-52.4243,-26.2274,-95.7356,-32.5453,-12.8516,32.8843,84.5222,109.2392,128.4918,39.2695
-171.8750,-102.9638,-93.6032,-33.0925,-37.8770,115.3002,52.0963,-59.6527,22.9635,-193.4769,19.5676,-82.4557,-19.8282,-53.9297,10.8551,30.1612,113.5112,52.2605,149.3565,133.0810,8.6311
-164.0625,-71.4748,-201.0173,-77.0383,-148.1028,-0.0565,-17.8171,155.7931,54.2915,168.0112,13.6437,-49.3629,-135.1795,13.9588,-102.6353,62.2564,72.2243,-56.8799,75.5748,93.7835,41.0965
-156.2500,7.5249,19.0832,-33.4822,-175.8212,81.0767,-10.2697,-20.2702,62.1161,-191.0048,58.2087,144.2488,-52.5328,-162.6432,-57.6442,-186.1508,44.4308,90.4780,84.2970,101.9799,50.0610
-148.4375,132.1378,143.7931,-14.3331,-122.9367,64.7985,-66.6857,37.2677,-28.4564,49.5929,-32.6232,19.4809,-14.9722,-106.6450,-73.0923,-55.9777,-43.7594,-31.5666,33.6217,15.7766,34.6309
-140.6250,44.1560,92.9300,-69.7867,-104.6535,11.9241,-33.5348,130.1796,-8.6262,-4.4465,-13.0485,-69.8565,10.4436,-87.2621,20.8436,-72.4209,50.4569,-49.2029,-17.6449,33.9767,18.6015
-132.8125,-25.9628,93.9292,-33.3958,-140.5135,160.8924,-51.0113,57.9547,66.0494,-222.6102,208.3642,-66.3447,-26.0634,-13.0242,-50.3939,-70.0029,163.5105,-119.9986,-17.0708,-0.9768,-15.5768
-125.0000,57.0119,3.0320,-22.9072,-233.2680,60.9673,-156.8435,289.8304,-33.1689,265.2846,145.8638,-90.7200,-129.1992,34.3134,-147.5366,52.4899,102.6618,-212.6787,-109.3964,-22.8091,33.3445
-117.1875,11.3452,63.4957,35.9420,-209.6737,122.4035,-72.8256,93.0608,-9.0384,-78.4801,-14.2947,46.2671,-52.7520,-88.9868,-49.3495,-33.6649,128.1573,-49.0186,-49.3752,71.7040,58.6119
-109.3750,64.0906,82.3660,52.1823,-88.6771,103.2269,-83.1531,110.7070,-65.5094,50.1798,2.9420,-45.3350,-26.6159,-34.8794,-66.7829,58.5740,110.0422,-137.9682,-99.9578,-51.3915,77.2824
-101.5625,-31.1689,-11.7449,-48.5764,-78.6694,-32.9491,-26.6035,121.3282,-54.9727,133.7925,50.1837,-104.9139,0.2945,-24.7782,90.7723,-4.2113,84.9258,-57.8999,-54.5318,-40.4830,88.9534
-93.7500,-96.9671,29.6028,-6.8820,-74.1990,47.3151,44.9040,-93.5970,62.0155,-153.1167,55.8701,-62.0503,27.2274,-19.2161,97.7410,-107.5424,129.2554,51.6119,56.3352,-0.1299,59.0760
-85.9375,-7.9683,-92.2406,10.6128,-127.9301,-6.6255,-48.8511,73.2783,7.8061,233.7602,38.3484,-113.3784,-96.8285,36.1421,-65.5029,95.9121,76.3853,-36.0595,5.0012,-16.9632,43.0008
-78.1250,-73.0075,-85.1219,89.0663,-157.7089,36.3907,12.2932,6.1006,13.5491,-92.4383,-67.2310,4.2545,-40.8102,-31.5494,51.2024,-44.6827,46.4499,145.2171,46.6122,94.1557,49.8737
-70.3125,-24.2864,34.7460,139.2621,-74.7331,87.1390,-12.6277,-16.3087,-8.9608,-40.8631,-90.0655,-16.3577,21.3819,55.5119,66.6397,7.4790,-83.7408,16.2372,-46.0333,2.0219,28.4967
-62.5000,-20.8129,4.3809,-6.7919,-37.0028,-56.3539,-49.6052,60.0153,-42.7123,256.4235,23.8410,-85.1974,-34.0758,-14.6782,-40.1988,11.3621,29.8280,19.0190,-76.9176,-65.3541,32.8692
-54.6875,-15.0758,81.2787,34.4129,-32.0142,23.4045,-36.2686,-81.3997,-37.2206,-32.0121,64.9928,33.2078,-25.9069,-120.6038,-105.8200,-19.4946,110.6331,95.0372,0.4372,-23.4905,39.4912
-46.8750,48.8995,-29.5756,26.8693,-38.7743,-56.5896,-94.1652,59.4384,-117.4816,329.7989,22.3982,-45.1390,-78.6097,19.7196,-111.2005,121.8856,31.6860,-17.6781,-75.9617,-29.3648,34.3665
-39.0625,-48.8249,-21.1092,32.6369,-67.2208,-49.2770,0.1890,-6.4343,-36.4359,115.8736,-44.8953,-36.1795,16.0524,-83.6603,116.7036,-54.4538,3.0339,58.9204,-68.0595,83.0665,42.5383
-31.2500,-63.5846,106.3123,53.3507,-12.7151,9.9727,32.6826,-95.3332,22.5585,27.9200,-134.2492,-49.2689,97.5326,-62.0779,175.5382,-31.8399,-82.6850,-26.5323,-82.2143,33.4422,28.6563
-23.4375,-72.7304,-6.6477,-67.3245,12.3883,-147.1718,54.4350,42.3559,49.1584,202.5256,-144.0100,-93.7357,63.0490,1.1079,166.9568,33.3495,-127.8139,-1.3643,-55.7731,59.4225,20.3732
-15.6250,-82.5137,19.7482,33.3649,37.8537,-7.9694,87.6889,-112.6059,78.1054,-283.4985,-5.4285,11.1447,63.8858,-7.3422,85.7086,-159.1096,-25.6001,200.1437,41.0091,85.7456,-23.5622
-7.8125,1.8510,-69.7149,84.2075,51.4773,8.3725,15.9210,13.5890,20.2071,25.6362,47.2957,-81.8323,-4.2474,45.3489,-7.3872,4.5712,-45.2438,37.8144,-14.0640,-5.7736,-43.3463
-4000.0000,-27.7936,-36.9668,71.7035,37.8895,18.2807,24.0076,21.0451,28.4840,25.8037,31.0478,-26.5377,12.0441,-2.6208,10.9817,-23.9445,-51.4433,76.0343,-2.9673,33.4622,-42.5209
-3992.1875,-74.0179,57.8369,63.3129,99.8590,45.9970,89.7566,-98.2343,93.3738,-130.2780,-50.9859,37.3358,134.1786,-12.1039,222.7358,3.2822,-98.9842,-38.4114,-47.7611,-10.5371,-52.6314
-3984.3750,-83.0959,-57.2120,-92.9305,196.9636,-111.1398,147.3816,38.6417,157.4051,190.8153,-134.8609,-84.6550,156.3933,50.5690,323.6185,29.6853,-145.3829,-151.7325,-127.4281,-53.3967,-26.5924
-3976.5625,-156.1809,-131.2708,-58.1849,194.0533,32.7160,172.1605,-74.4808,190.4276,-216.0818,9.2611,-14.6485,105.8255,84.2321,209.5026,-47.9238,-40.7853,-13.0531,-61.1073,48.7522,-30.5498
-3968.7500,-37.4723,-116.5314,31.3618,33.9390,85.3730,-32.7925,51.1755,59.2494,56.8121,136.1767,-36.8436,-72.9511,210.6901,-105.8148,225.2595,10.6019,-172.5732,-115.9906,-40.3014,-15.7103
-3960.9375,-37.4140,-81.4565,-4.7506,-140.8271,11.3677,-93.2738,87.1896,-14.5890,167.0918,98.4378,-1.7079,-88.8835,135.5026,4.2064,223.8026,45.3310,-135.7593,-150.5371,-75.0127,19.4820
-3953.1250,-56.2790,75.7179,13.2347,-53.4997,65.4684,-0.4173,-79.7127,2.6727,-110.5676,-68.1950,51.5196,69.6595,42.4032,205.3306,56.4316,24.1591,-82.8408,-133.9790,-92.6145,35.7726
-3945.3125,-7.9497,18.0874,-82.5759,32.0198,-68.2294,-8.2781,82.5869,-19.8702,271.9872,-162.6303,-45.0699,48.1527,129.5104,145.6452,70.2804,0.1779,-171.7484,-190.2320,-113.0301,49.2608
-3937.5000,-18.7881,43.2974,-128.5494,57.3766,-4.0927,42.5680,-1.2588,44.4386,-105.5990,-63.2276,17.1803,49.5619,9.4612,62.8184,-14.0137,63.0441,-40.8151,-60.6471,-52.5920,38.6032
-3929.6875,95.4637,121.6170,-81.4242,31.8244,42.1444,-34.2271,44.9770,16.8457,-22.1109,-16.7290,-11.4678,0.1905,55.5058,-111.9073,141.7803,-2.9956,-136.7873,-51.9627,-78.0538,47.0466
-3921.8750,99.8157,56.0226,-112.2101,-103.6385,-99.5276,-89.0095,87.3276,-51.6548,130.5236,25.8716,-7.0352,-61.1198,23.6621,-70.5454,183.6841,38.0498,-60.6854,-81.1952,-1.4171,51.5933
-3914.0625,40.2994,136.5680,13.1427,-126.9624,23.9569,-58.1376,-120.1838,-1.0048,-185.7228,112.6322,42.5401,-5.1606,-0.0431,16.9737,49.7168,87.2501,-12.4302,-71.2758,10.3792,27.2899
-3906.2500,64.3274,55.6619,-34.9532,-31.7387,-98.0084,-57.9001,14.8436,-49.8071,206.5779,64.9423,-79.3484,-0.0390,61.8069,42.0394,74.3144,36.9952,-161.6392,-116.8143,-35.2897,51.5377
-3898.4375,0.7421,27.1469,-62.6602,12.8785,-89.5894,62.6457,-50.7326,-4.2161,-42.7092,-74.3524,0.1529,71.2257,-40.9459,160.4937,-174.6771,81.1352,-12.4481,31.0464,79.4404,59.1866
-3890.6250,35.6416,-8.8531,14.1389,-22.0096,22.3387,-14.4715,-48.8343,-39.1262,-77.5368,-145.1582,1.1575,-10.3539,34.7883,-21.5543,-100.1790,-29.2243,-117.7554,-4.5879,9.6711,23.3347
-3882.8125,-25.2034,-173.6041,-119.8201,-256.6546,-112.4915,-246.0307,74.3212,-208.7974,156.9125,-168.7234,-96.6019,-263.9276,10.7807,-338.3489,59.5756,-126.3464,-175.8355,-238.9914,-48.8608,-1.2624
-3875.0000,6.3413,-106.9647,-51.3887,-364.9117,66.0724,-296.0712,-42.1408,-288.0695,-179.2672,-173.8880,117.0388,-299.1723,-68.8278,-418.7298,126.7123,-97.0671,-72.5178,-206.9964,19.0194,65.5481
-3867.1875,103.7358,-220.4788,-58.1070,-337.3216,-15.5055,-320.6988,98.2360,-369.4901,70.3881,-218.2035,34.5210,-316.4626,70.4232,-352.2716,265.7027,-179.9449,-148.3763,-215.1507,-94.2583,57.2113
-3859.3750,50.6742,-168.4524,-147.2894,-248.1938,-69.5430,-181.1470,7.1761,-312.3694,-130.3815,-197.9685,53.5343,-174.7349,-57.7687,-112.2770,-9.7438,-161.2743,-24.6989,-22.7675,-75.9891,39.4287
-3851.5625,32.9530,24.9332,-88.1248,-124.7327,-47.2289,-103.7123,-190.5593,-216.9000,-254.8425,-176.3793,0.9058,-51.5618,-145.6231,-53.9308,-61.8507,-177.2436,-5.6674,65.9641,-127.3694,-12.9998
-3843.7500,24.6369,51.7205,-168.5678,-131.8775,-200.5250,-124.0620,-88.8976,-188.0439,68.1244,-219.4020,-81.3300,-74.9723,-43.0751,-98.1874,-69.5373,-148.8183,-12.2549,23.0866,-169.3722,-21.0244
-3835.9375,-27.0327,176.1583,-109.3704,-112.3763,-144.1758,-96.8914,-213.5947,-167.5454,-314.2636,-234.7848,86.0830,-30.8937,-58.8921,-113.7949,-122.5865,-19.7462,78.8095,41.8560,-114.7271,-37.3889
-3828.1250,-7.0098,125.2960,-124.4681,-91.1797,-232.1159,-141.4537,-156.6087,-182.3514,-35.9688,-213.4705,-3.8094,-75.4957,-1.0054,-165.7155,119.0630,-36.9696,-111.4363,-43.6708,-163.3885,-17.0476
-3820.3125,-90.6862,7.7194,-173.2797,-102.6910,-318.7723,-44.5647,-206.3124,-85.8652,-86.3442,-80.8628,-18.4221,-12.1498,-124.8144,114.6664,32.0229,-87.8956,-51.3959,-55.9043,-104.7560,5.6002
-3812.5000,-100.1263,33.4012,-179.8516,-74.9602,-179.1793,-5.7316,-359.7941,-18.1249,-312.5133,59.9846,11.2186,30.1373,-168.3882,182.3171,-11.7755,-96.5657,-59.1043,6.1135,-147.8687,-38.4989
-3804.6875,-39.4162,-10.7668,-261.2813,-48.0845,-262.4418,-52.5080,-150.1241,8.7567,44.4881,-23.0335,-110.0038,-67.0200,-31.8011,-48.8879,87.5976,2.9075,-206.6887,-38.7333,-225.8349,-12.4420
-3796.8750,-102.3620,65.4090,-218.3724,-76.8819,-146.3591,-9.6825,-255.0980,50.9839,-280.1584,-54.6974,41.1194,-35.3856,-99.8601,-43.7481,-90.6765,153.7287,-129.9302,2.7597,-147.4464,28.9754
-3789.0625,-9.8167,18.0904,-155.9663,-157.1946,-158.7650,-122.5726,-193.5878,-35.2961,-35.3292,7.1555,27.7470,-112.3920,34.5781,-92.1206,43.5494,104.0529,-279.6819,-148.2453,-193.5601,52.8969
-3781.2500,-37.3176,-78.2859,-220.6242,-288.5605,-224.2355,-155.8880,-75.1236,-99.6366,84.4966,89.9650,-1.6892,-134.2679,5.9682,63.4456,51.7262,111.3277,-270.5079,-175.3046,-149.7324,60.7773
-3773.4375,-99.1375,-1.9632,-172.5968,-175.2301,-104.0020,-56.9221,-174.9828,-16.2683,-162.0092,63.4806,7.5722,-25.8752,-129.9597,146.7229,-12.4200,120.3144,-261.6331,-96.6499,-140.1918,33.3623
-3765.6250,-50.2600,-90.9401,-266.8753,-89.2060,-235.0668,-102.2716,-13.1332,-37.2018,258.1935,115.6762,-86.4867,-88.5252,-78.1813,15.6972,114.1584,24.0031,-386.0862,-187.2985,-229.9554,48.6496
-3757.8125,-88.0894,-25.6243,-268.8688,-125.8925,-163.8427,-89.2277,-88.9678,-39.8416,-76.2923,187.1585,55.7446,-83.5153,-117.1054,-24.0364,-36.9509,93.9970,-177.2496,-120.6544,-126.4128,45.2461
-3750.0000,47.4801,76.1007,-124.4638,-165.1918,-21.2043,-156.5527,-56.4193,-80.0899,-42.4116,74.0447,-22.6159,-98.4191,-48.6338,-136.3761,107.3310,15.3944,-285.0140,-124.6158,-165.4623,41.2498
-3742.1875,21.1072,50.8715,-186.0215,-189.4529,-119.5202,-114.2805,65.1942,-69.2958,115.5565,-135.0260,-84.9367,-51.6121,-38.1002,20.3366,117.6780,-48.1729,-308.7586,-114.5429,-118.4714,51.3119
-3734.3750,-43.1220,91.7998,-140.4450,-112.5753,-1.6856,8.2574,-110.0574,13.6492,-242.3531,-162.9528,-42.1010,73.6166,-66.4152,213.2104,-130.8478,-41.5848,-231.3570,-38.3126,-42.3323,22.5293
-3726.5625,-27.6494,-68.5561,-158.1729,-61.0050,-130.1464,-57.1884,55.3798,-41.7123,143.4406,1.8183,-170.5662,-56.8016,-48.0249,-26.2356,-77.6614,49.7093,-284.2776,-57.3818,-60.5058,3.4525
-3718.7500,-61.7249,-67.4649,-84.4673,-127.9999,-57.1724,-74.9104,-18.7208,-78.6346,-3.2932,2.0448,-25.5860,-117.1679,-157.1950,-172.2480,-150.0131,122.4592,-71.7559,13.9994,47.7725,39.8349
-3710.9375,1.9995,32.4326,22.0347,-133.1973,85.6151,-110.5526,-61.0430,-155.7546,-118.2652,-112.9334,5.1990,-84.6820,-89.5859,-177.4602,-46.5786,5.0249,-76.4295,8.1827,42.8542,34.0243
-3703.1250,-60.3139,-99.7275,-79.5199,-160.4463,20.3439,-80.5144,131.5955,-146.9289,74.7415,-103.9850,-96.0753,-76.4633,-45.0198,-22.7213,35.8241,-60.4620,-102.1733,16.3117,86.8750,42.1680
-3695.3125,-190.1741,-55.4323,6.3625,-113.2563,178.5231,7.7517,32.6772,-26.6597,-280.8217,-56.6010,-49.8955,-16.0356,-34.0066,-11.5138,-136.3343,-50.4998,-55.4711,97.8920,133.3440,52.7676
-3687.5000,-131.4804,-65.5700,-5.2101,-54.5270,130.2573,-58.2454,167.2946,-38.8429,111.1568,-67.6616,-99.1607,-76.3371,101.5697,-169.7528,108.0541,-62.9878,-240.2374,-18.9873,53.3429,76.9234
-3679.6875,-174.8836,-74.8099,-85.9051,-96.9059,46.8714,-12.9467,84.8193,-11.1376,28.0684,-3.8260,-35.5261,-51.1289,-17.9424,-32.1053,98.3611,35.4304,-107.1199,8.0266,116.2311,103.9917
-3671.8750,-132.4386,2.8077,-39.7547,-53.4406,57.3487,2.5763,-87.8271,-0.5839,-107.2201,80.8540,45.9727,-17.5840,-44.6137,-22.6195,-2.4842,81.7190,-63.1478,50.9007,89.9721,76.9213
-3664.0625,-31.8814,-36.4722,-80.5067,-22.8825,-132.0737,-3.0106,14.6349,-6.9369,216.6095,111.6231,-33.4345,-35.6089,-14.1763,-28.0505,-118.2098,111.1115,-66.1021,10.8766,49.7995,106.9606
-3656.2500,-35.4695,64.1042,-46.4230,44.5070,-60.6499,88.1170,-207.0601,27.5609,-152.7201,35.2348,72.0099,77.5340,-89.8998,116.3859,-268.0969,107.3656,106.7889,42.7043,118.4815,103.8597
-3648.4375,9.0510,39.7983,3.7579,91.9849,-48.1224,75.5188,-120.6820,41.1555,81.0252,-134.0533,-25.4361,51.0541,-4.5267,18.9362,1.1157,-27.2762,48.7678,53.6336,60.2568,79.8644
-3640.6250,-46.6197,-16.7088,-18.2805,71.2585,-106.8113,79.7455,-33.4925,55.5426,58.5989,-46.5378,-12.0920,23.9014,-62.3422,-3.7157,15.1430,-14.1147,98.5229,67.3531,74.8250,93.6821
-3632.8125,-42.1932,94.8974,27.7646,77.6233,10.6058,66.8968,-209.2235,64.0291,-226.7655,145.0842,68.3647,48.1155,-55.0625,-32.2707,-49.7352,29.1654,70.3756,109.1771,81.4962,64.6118
-3625.0000,34.0424,101.3139,-38.4026,84.7837,-55.1822,-2.7787,-19.1510,-2.6883,111.6902,152.4980,-71.3765,3.1056,25.0284,-134.0516,30.2128,72.2571,7.0003,9.7989,88.9525,71.3544
-3617.1875,4.6811,142.1308,-29.1888,91.3333,26.4217,84.8986,-119.6739,42.9915,-173.4440,14.3005,-28.7102,88.2838,-76.4838,20.5733,-71.4389,116.7577,191.0167,51.8234,201.8096,42.5108
-3609.3750,63.5267,60.1632,71.2171,150.0757,52.2369,83.6867,-22.0153,31.8727,-1.4071,-70.7045,-76.8282,91.5164,-14.8032,46.4119,27.1016,-6.5440,109.2207,4.0615,84.8674,30.8736
-3601.5625,-8.6100,-46.7971,-2.3935,114.8139,-21.9607,72.5302,88.6589,31.7504,145.6618,77.2782,-77.9622,33.4189,-15.1152,9.2441,-47.3431,29.1508,144.4041,39.2979,119.9211,30.2454
-3593.7500,-38.3967,-5.3956,79.3298,85.8949,133.2025,55.9064,-51.3278,39.9755,-103.9522,232.6145,2.2619,8.0918,-44.0885,-93.5719,-185.4458,146.2161,151.9360,114.8907,162.3326,0.9732
-3585.9375,68.3294,-4.4882,81.5495,122.4625,61.8741,8.7310,134.1954,4.6911,265.9442,160.4634,-71.0083,-10.4918,-5.5488,-163.9123,-38.0281,-0.2042,12.9341,80.9801,93.2307,2.2118
-3578.1250,12.6079,44.9647,61.3005,137.5635,40.0888,121.3467,2.2791,19.9515,-86.5865,-8.1360,-19.7218,105.4508,-136.4533,71.2926,-96.0512,50.9364,204.4673,165.6243,179.6772,17.0156
-3570.3125,17.8406,120.3870,142.9960,144.6105,84.2639,112.9062,-26.7057,28.1666,-115.2048,-110.7975,-86.4727,121.2854,-19.4159,42.4599,-52.1327,58.0324,175.9446,172.2324,115.0696,-12.2214
-3562.5000,-43.8643,-11.1280,117.7209,82.7191,95.4727,71.1551,131.3645,2.4290,80.2596,-62.4249,-149.1795,31.7402,64.6755,-57.3174,-41.1450,-5.8276,220.4551,215.8862,125.4969,-38.4027
-3554.6875,-71.6620,66.2681,238.3309,91.7229,326.5788,75.4427,67.3267,-24.4089,-239.4072,-15.1700,-66.9744,73.2100,74.6614,-84.1872,-214.2672,-70.7682,264.8734,294.4418,168.8336,-65.6762
-3546.8750,8.6121,41.7287,251.9904,137.7715,265.7466,18.8363,227.3336,-85.2020,103.9708,-112.8646,-91.7116,44.4994,197.6985,-145.0276,-55.3306,-132.6516,100.3267,234.0482,75.2141,-89.8890
-3539.0625,-72.9998,66.2922,204.7332,126.9030,255.0060,48.3449,143.4503,-58.9012,-53.5182,-86.4400,6.6543,59.1067,76.8398,-118.7858,-103.2941,-33.4209,194.8604,258.7624,134.6912,-100.9881
-3531.2500,-66.1531,143.3251,251.9225,134.4763,301.7241,27.9931,78.9933,-13.1508,-117.5962,33.4402,15.4910,69.8805,49.4292,-146.0835,16.1667,-98.7205,167.8448,230.9362,37.6165,-128.6258
-3523.4375,-45.8351,-47.1899,162.5439,85.4965,174.8788,22.6557,209.9873,-28.9572,234.8076,-19.2382,-37.2230,17.0095,70.4759,-50.9226,111.0993,-115.5641,119.2588,180.5522,58.9835,-107.8046
-3515.6250,-109.2614,-40.4460,170.3962,92.7664,256.2805,118.1409,70.2313,89.4941,-125.5541,-47.6685,42.3192,79.5693,-32.2371,66.4839,-65.7206,-72.1452,232.9238,187.4243,101.6062,-100.7219
-3507.8125,-63.3313,-64.3278,146.5954,104.3831,194.0451,58.2407,155.8141,101.2922,107.4228,37.2459,-56.7777,18.2036,163.4105,-31.7830,18.8232,11.6369,32.9219,93.6604,-62.4261,-89.2811
-3500.0000,-100.2960,-65.1051,33.8743,104.0915,118.8980,91.8283,116.5195,99.1855,68.5376,72.2416,-59.7766,38.6175,161.1671,39.0560,-93.5169,82.5308,104.0014,128.0020,-27.3650,-54.7298
-3492.1875,-62.5530,41.8323,75.8470,106.4940,160.4608,94.5002,-26.0926,140.7844,-73.6928,113.9327,-19.0590,73.4050,91.6080,43.6231,-15.1656,12.1314,71.7799,165.0553,-24.6007,-87.4696
-3484.3750,2.0638,-68.3722,32.6566,65.7457,6.8689,42.1061,114.1441,97.2322,213.9562,144.4818,-63.4855,9.5992,84.9033,37.0266,162.0511,-68.4104,-3.6179,88.9563,-63.9972,-57.3497
-3476.5625,-11.5529,-11.8112,19.1987,-17.2577,65.0218,71.6050,-47.8668,119.4207,-167.6466,129.7924,67.8517,30.9042,-3.0513,96.1581,37.0136,-10.1796,124.7339,146.6086,28.3599,-35.4667
-3468.7500,42.4949,7.4244,75.3866,2.3895,48.8405,18.4883,8.7609,65.2515,72.3730,39.7509,13.8625,-11.7145,89.6499,-31.0694,129.6272,45.7181,3.7333,129.9134,-57.6390,-15.9268
-3460.9375,9.9152,-25.9833,3.9125,40.3877,-24.0021,73.4325,9.7624,103.4287,74.7773,41.0377,-22.7721,15.7235,17.7069,44.0635,57.6036,155.9595,42.0582,97.5638,-19.3014,21.9778
-3453.1250,-17.5086,53.7783,50.5742,84.5349,59.3032,119.3313,-91.1110,112.7691,-246.7060,50.4582,22.7615,104.4672,-47.0984,163.3624,-7.2791,164.3654,86.5439,71.3797,-44.8109,31.0447
-3445.3125,95.7355,25.2067,-17.1196,92.3395,-44.7465,36.1524,98.6608,8.7587,163.4745,-17.4677,-45.0470,56.2007,-4.2532,96.2935,109.5034,96.4409,-11.3348,-61.1528,-141.6815,73.7709
-3437.5000,56.6419,57.2923,-20.1828,53.7925,61.8421,58.8106,-15.9089,5.3953,-132.6874,-92.7380,97.8042,74.4687,-7.7600,129.8737,-41.0707,165.1953,91.4352,-31.0322,-73.9083,70.1580
-3429.6875,124.3681,90.1963,54.5457,17.0436,172.2460,-5.6375,21.3027,5.8325,-60.0885,-93.2146,60.4769,45.0829,176.5387,56.2605,106.1443,17.7633,-85.9960,-33.0973,-146.3380,33.3554
-3421.8750,53.2680,19.2539,-19.5918,-54.5643,98.7918,-29.8506,130.6841,5.4202,87.7022,16.4484,22.3018,-2.7186,175.9967,55.7922,105.5368,53.4792,-86.3084,-34.0132,-110.6242,32.7169
-3414.0625,62.0680,98.2283,64.1493,-45.2829,181.2472,-32.8105,-44.0354,14.9185,-196.6401,100.0070,178.0471,2.0667,75.3470,-8.7593,40.8247,135.1028,-41.7236,-25.0167,-137.0002,41.9869
-3406.2500,194.9895,56.3225,55.9832,-16.9057,62.8074,-88.8823,95.3511,-30.4848,199.1220,54.6719,168.9046,-58.6455,103.8039,-126.2182,106.2221,126.8371,-188.0649,-65.9159,-213.2890,70.3644
-3398.4375,89.9801,20.4727,19.8493,-16.4852,26.4039,9.9435,21.7947,44.1572,-21.0412,18.3943,205.8250,-1.8493,30.3146,20.3505,-40.3161,162.6485,-81.3628,3.2400,-71.5250,70.8039
-3390.6250,106.1329,107.7944,75.8598,36.0831,45.1643,30.8356,-33.6270,62.9454,-111.0868,-36.7368,113.9214,75.4942,85.9720,113.0590,51.2954,33.6381,-99.5092,-50.4372,-125.6040,52.4022
-3382.8125,116.4043,118.2214,-24.0483,10.7514,-89.9862,-2.2425,51.0690,36.8317,83.0108,-97.7810,50.1189,52.7124,133.7360,86.8670,136.0281,-66.2692,-54.5811,-110.0098,-114.5848,63.1113
-3375.0000,123.7307,231.7162,95.0721,18.4678,26.9111,21.8525,-124.1889,44.7754,-202.8627,-53.7753,131.3807,91.8803,-42.4654,57.7379,-76.2055,50.8898,94.3987,-66.5157,-106.5048,70.8824
-3367.1875,203.5286,134.6806,69.6344,28.6339,-71.7342,-49.9007,-77.0067,-54.8255,102.6983,67.6861,68.1089,16.6254,-32.2112,-4.9423,44.0156,134.5130,-2.1830,-92.5603,-166.9847,45.1133
-3359.3750,161.7474,59.0452,64.5801,-12.8086,-40.9885,-11.4651,-82.4042,-23.0255,-86.3147,62.5407,135.2490,15.4224,-73.5445,63.7758,1.6483,165.5457,63.6234,-64.2019,-67.0679,39.7531
-3351.5625,171.7319,103.1842,112.2769,-38.4999,81.5196,-21.9965,-108.0638,-11.4725,-184.6152,-109.8671,183.1651,21.3999,120.8677,38.2559,50.0214,29.3438,-32.8190,-20.0773,-57.4102,14.1499
-3343.7500,180.1896,-28.2097,47.4133,-63.7325,-57.5294,-42.6886,46.7334,-3.4663,190.5583,-64.8377,43.5418,-57.6569,165.7407,-27.8213,57.8658,73.5997,-91.8360,-45.5013,-47.3153,59.0033
-3335.9375,51.0632,-17.1901,-15.0607,-17.5672,-10.1778,53.2157,-88.0699,81.9429,-127.8790,130.5943,91.3448,-5.3251,-42.9871,20.4823,-150.8958,194.2785,23.5484,71.4834,70.1851,70.2669
-3328.1250,95.1109,-8.0028,-40.3905,27.7429,-71.6673,10.3866,-4.7351,56.5021,176.8118,68.1913,65.3252,-23.1428,-68.5575,-42.0714,80.4987,95.1235,-71.9223,9.6272,8.8342,44.6874
-3320.3125,162.9346,60.9392,-113.9898,-10.2002,-109.4193,15.7409,30.3669,54.8092,138.2868,-80.4720,100.0657,25.3817,-143.3683,67.1391,115.6552,18.7286,-38.6612,-62.4791,78.2226,42.8665
-3312.5000,215.4182,112.5605,-59.9482,-98.4905,-18.5083,-15.4787,-97.8924,73.7743,-63.6331,11.4990,154.4765,16.1292,-88.5406,86.0241,23.4409,73.9961,-91.7400,-80.9222,95.2597,24.7023
-3304.6875,186.4232,-56.3032,-163.4113,-126.2736,-159.0992,-77.4231,54.3646,42.2445,310.9642,237.9624,12.3966,-91.4455,63.7994,17.3955,28.7408,188.7689,-224.3336,-178.8590,67.7849,67.0453
-3296.8750,20.6958,-115.9133,-189.6372,-150.8068,-111.4464,-2.0104,-81.1199,126.9653,26.8131,322.6870,96.5836,-76.3275,-108.6141,102.0105,-33.7070,309.8157,-108.6700,-133.5398,148.5589,77.6487
-3289.0625,71.7876,-65.7038,-135.0584,-30.5424,-130.9789,-13.9422,-28.8175,70.4885,154.4378,155.2132,39.5971,-56.5188,-91.2297,8.4208,203.6452,178.6848,-163.2084,-118.4133,59.1331,58.0563
-3281.2500,69.9065,-32.4776,-136.4935,-32.2758,-169.5232,-1.6709,43.5033,69.0108,190.1048,6.7297,74.6184,-27.9541,-20.8312,43.8267,165.0096,66.5530,-93.7631,-120.2901,57.6968,56.4722
-3273.4375,61.2880,100.0230,-35.6961,-40.7567,-31.8137,15.2538,-74.9381,60.7904,-75.0168,-38.5053,175.9135,36.2626,44.8086,72.4945,-27.3870,-16.3098,-33.0575,-23.9015,49.5152,48.1428
-3265.6250,120.7461,-16.4068,-46.8556,-16.1784,-79.0554,-26.2536,59.6724,11.6184,280.9257,-49.6892,53.2774,-30.1603,143.5076,-13.8046,34.2852,-65.1087,-113.3184,-68.4596,3.3720,72.8703
-3257.8125,60.8719,-76.1796,-71.3855,-40.9534,5.3420,23.3342,-39.0512,24.0927,-38.4576,35.7723,138.3083,-26.2546,7.8564,35.5432,-63.3833,19.7543,73.0675,10.6412,154.8807,48.2607
-3250.0000,109.0597,-97.8786,-17.8677,-26.6722,59.7961,11.8581,15.2624,41.6158,-20.8187,89.2738,45.4166,-34.4399,25.2533,15.9518,26.9980,-0.3184,16.5064,24.8068,98.4395,-8.2916
-3242.1875,69.1215,-137.7218,-57.5090,3.4701,-16.9075,35.2388,122.4451,37.9925,123.7093,49.6237,-68.6200,-18.1316,22.5070,49.2107,-49.7621,-40.5414,46.7767,54.8268,129.8380,-47.9900
-3234.3750,56.7373,-9.0033,40.3855,26.1685,154.9451,67.9725,0.1762,62.9292,-182.2409,-35.4637,28.9124,44.9485,-63.6994,37.0224,-171.9887,-90.1894,140.6071,113.4108,117.7895,-60.1359
-3226.5625,146.8228,-95.8070,23.7287,45.3245,63.2512,-2.2046,166.3568,9.3194,205.2547,-53.0989,-99.0850,-24.9892,29.5544,-53.7354,67.2465,-145.3647,-16.1233,-8.5547,66.1765,-40.8248
-3218.7500,45.6369,-90.8890,-10.2551,-19.8177,30.2348,-10.2068,95.2461,-24.5935,61.4710,60.9541,-59.3567,-46.8533,-78.4840,-50.7921,-39.8053,42.1683,164.8370,-39.8149,106.2577,-0.8054
-3210.9375,104.8781,39.4641,89.1520,4.4440,56.6291,-47.6578,11.5152,-109.0993,51.0480,13.4011,-33.1925,-11.8361,-89.1316,-61.4335,-50.4691,67.1079,189.1976,-50.6642,-9.2613,-11.3834
-3203.1250,117.0529,50.7253,29.4453,15.6090,-78.0860,-23.3692,97.7058,-132.7026,174.5582,-230.2586,-57.1164,47.2396,-1.8623,98.8161,36.7893,-67.0429,200.4354,-74.6146,-32.8890,-35.0600
-3195.3125,72.3416,113.0896,93.8273,76.8724,24.2995,55.1423,-57.9988,-30.2010,-237.8459,-238.8188,44.0896,115.9058,-47.4927,127.1672,-119.8589,-113.0661,261.7717,-47.4525,-6.4114,-43.6291
-3187.5000,122.0996,-14.0765,70.6579,90.5823,1.1413,-0.0004,29.7455,-16.2426,69.1909,-41.9316,-52.2304,5.9226,76.3327,-43.0363,-106.0463,-25.6253,64.5509,-69.8299,-63.4881,-29.7429
-3179.6875,22.5222,-113.5855,-34.8754,26.9416,5.6149,32.8766,34.1610,-11.6362,37.9144,-0.3862,-10.8929,-14.7159,7.8131,35.4084,-210.5740,125.4743,140.9758,-28.5553,14.0799,11.8012
-3171.8750,-2.6451,-32.6767,13.9889,36.7112,90.4974,63.6478,-28.0373,0.3757,-134.0070,-135.4368,0.8712,40.5626,-17.3215,83.2707,-52.7157,62.9905,151.8187,52.1245,24.0459,-13.2511
-3164.0625,7.7617,-58.2048,-86.6037,12.0404,-9.0779,-17.6519,203.3226,-26.0617,170.6448,-88.9458,-99.8048,-46.6242,-43.9027,-90.3314,215.7164,37.0719,56.1994,-7.6414,-36.4487,-2.7471
-3156.2500,-87.2162,23.8789,-38.6125,-48.0292,38.9413,-5.3559,30.2855,22.1078,-112.1082,106.1312,-14.8568,-26.7952,-141.8819,-79.3377,42.7437,83.7790,102.1855,38.2032,45.6563,8.3692
-3148.4375,-50.9782,-45.8138,-37.4283,-46.9004,3.1717,-22.1486,31.4369,-13.5185,109.3075,34.4106,-50.6838,-23.4757,79.3459,32.8644,116.9592,-25.2947,-72.6332,4.2590,-24.0385,9.6911
-3140.6250,-108.6718,-173.4529,-98.2137,-69.7168,-58.5611,46.4600,80.6607,72.9046,85.8105,-100.2584,-38.4523,-18.4687,127.6295,155.1242,93.2310,-50.3160,-60.4112,-19.6325,59.3161,22.0674
-3132.8125,-129.9569,-54.6757,-83.6014,-56.1230,31.1141,16.8232,22.2697,87.7404,-119.3250,-11.5359,14.2046,-44.8712,33.3014,-50.1986,144.8954,39.0744,-46.7745,29.8875,73.0752,0.8456
-3125.0000,-52.1180,-46.7818,-149.8905,-48.4216,-109.1137,-109.3799,211.9878,-16.3219,327.6635,178.2907,-90.0200,-142.6850,2.0736,-263.4421,298.6762,117.5694,-144.0482,-102.4877,-25.0753,43.7263
-3117.1875,-80.7605,30.6236,-143.6900,-77.2216,-66.8500,-49.1889,34.2175,-46.8880,114.1669,184.6353,-10.7242,-39.1145,-174.6631,-38.2121,46.9601,123.5946,38.1814,-27.3634,52.2744,50.1154
-3109.3750,-7.1405,-1.7007,-67.2401,31.2325,-63.3236,-9.4920,38.6910,-42.2022,191.8945,79.2267,-80.1561,15.8101,-61.1457,40.2703,14.4872,-19.1059,-30.3375,-24.9806,-16.1316,17.7567
-3101.5625,-23.3535,-123.8762,-83.6551,14.8492,-79.6566,3.5844,132.3408,-21.3635,212.8210,25.9503,-59.4306,-47.1890,33.5348,-50.0784,-38.8300,-35.6581,-10.7186,64.5466,73.5963,1.5511
-3093.7500,-43.2081,-73.6821,44.2760,-40.1758,84.3617,4.4382,2.3312,-4.1647,-101.9318,6.0207,104.6671,-34.6473,50.5583,-33.0544,-58.8236,-18.8476,4.2670,114.4356,53.6683,-18.3063
-3085.9375,74.2689,9.8366,56.5125,-63.8875,-13.3213,-50.5765,161.6207,-65.6626,168.6141,-164.6111,7.0759,-12.2389,98.8795,16.2547,174.5000,-117.7232,-124.4552,56.6227,-109.9719,-5.8608
-3078.1250,-2.1361,73.4626,12.8326,-34.4956,-19.9201,33.2793,8.0186,-35.0559,-167.7323,-208.1436,37.6049,65.2102,-17.7079,119.6537,57.9461,-50.4798,44.9238,119.9128,24.4917,-12.3113
-3070.3125,40.8686,81.5022,95.5474,43.2995,26.8919,-1.7800,-19.1992,-62.0372,-85.7181,-162.2736,10.5611,49.8970,65.1107,19.4578,66.7910,-77.8179,17.7035,22.6162,-2.6450,-39.3585
-3062.5000,49.8853,55.5357,31.2524,52.0970,-75.3015,-23.5581,62.6090,-90.0192,144.3369,-153.3979,-17.4799,38.3809,37.9502,28.2623,75.6415,-106.1461,-8.5354,-38.6714,-28.7903,-30.4035
-3054.6875,-3.4507,178.2280,47.6023,68.5433,52.1619,21.3770,-140.9291,0.6566,-242.9785,10.1303,72.1474,96.5537,-93.5700,44.7335,-91.8871,-15.8062,7.8948,-22.2924,-12.2753,-13.7999
-3046.8750,49.5417,90.2490,28.2574,86.3019,-41.0695,-40.7624,23.8268,-55.3654,105.0031,100.9555,-19.9049,27.3667,-1.7939,-48.4996,36.8879,-35.1655,-115.3798,-75.6134,-65.4740,4.1004
-3039.0625,5.7612,-59.5171,19.0930,7.2677,-13.1165,21.6790,-22.2013,-27.1907,-87.7923,18.9723,45.2576,19.1990,-10.8153,89.4577,-83.1192,-7.3101,16.5473,-13.7358,101.5160,-4.8004
-3031.2500,39.7424,-59.5098,92.6786,40.9906,60.6015,44.6252,-58.4911,10.7382,-159.8931,-91.2777,45.1921,36.7618,-10.0923,90.1745,-8.3743,-43.6903,-54.7628,19.9123,65.2592,-40.9530
-3023.4375,2.0420,-98.2021,-22.4400,73.0204,-127.3811,47.4620,47.5421,42.9669,166.3318,-59.2331,-32.5677,18.3054,-52.0480,85.1811,96.6958,-11.7642,-128.7827,-18.1417,-7.7095,-8.8080
-3015.6250,-81.3410,-40.5876,-37.2636,60.3525,-69.0731,97.6271,-114.1222,101.4981,-178.1539,74.1125,26.9962,50.9748,-102.7107,107.4841,-64.9489,47.4824,-36.4831,74.1085,49.6275,13.6411
-3007.8125,-0.7601,-66.0126,-26.1295,34.6524,-57.8083,23.2286,-29.8487,39.9865,53.3086,84.4062,-72.4736,-9.6917,18.5741,8.7460,57.3341,-15.3113,-97.2279,48.3135,23.9098,-11.9589
-3000.0000,-37.0718,-137.3371,9.0986,-36.9355,51.5414,35.8296,42.5411,38.5758,-22.0982,9.7917,-36.8376,-32.3845,16.9656,7.1106,-55.2846,-53.9979,42.1309,81.6247,163.2815,-13.4569
-2992.1875,-112.5245,-70.7872,79.1847,-6.6630,195.7515,38.9248,38.7681,35.0179,-135.7117,7.0287,-2.3169,9.9857,50.2002,4.3224,-95.0569,-130.8176,37.3528,112.7900,123.4942,-53.1048
-2984.3750,-105.4528,-134.7271,-24.2316,35.1133,91.4573,13.6130,229.5024,5.9480,166.1962,13.7760,-106.2841,-17.4735,130.9443,-25.9797,22.6950,-161.1196,-96.9371,83.4490,59.1875,-46.2521
-2976.5625,-139.1751,-62.4602,-21.4534,1.0867,168.3555,47.4752,85.4408,45.0779,-271.6971,-20.2775,6.9648,15.3822,59.8867,12.9244,24.6448,-84.2033,9.9806,120.3134,131.0807,-80.1943
-2968.7500,-19.9379,-14.2292,66.2817,-20.9815,146.2162,-27.7582,173.3181,-13.8339,-36.6645,-116.3928,-87.8162,-9.0381,74.7859,-45.2185,260.5429,-143.3259,-82.1475,63.1369,2.9202,-102.1889
