Time,Fp1,Fp2,F3,F4,C3,C4,P3,P4,O1,O2,F7,F8,T7,T8,P7,P8,Fz,Cz,Pz,ref
-4000.0000,172.3876,88.3155,28.3019,-26.3095,26.8774,-10.1281,-119.8647,78.9808,165.7617,147.9355,143.8342,10.2181,-406.5999,-45.1448,-266.7303,-272.0574,43.6952,153.6684,9.3191,148.2874
-3992.1875,115.2431,135.6900,78.0658,54.1675,41.0523,-32.9041,-107.7711,57.5673,145.7840,200.8366,86.2899,43.3390,-361.5199,-69.4756,-293.5358,-262.5082,18.3633,96.1117,-50.2073,90.9104
-3984.3750,62.0445,185.0113,22.7862,137.5871,-14.8489,-15.7204,-128.7334,39.1100,129.7534,221.6933,32.6906,86.4260,-350.4662,-52.8856,-279.3651,-176.0089,-2.0279,37.2025,-70.7855,37.4937
-3976.5625,48.0837,169.5799,43.7557,84.2536,-31.5303,-32.2761,-110.4582,-12.0948,151.9577,133.8091,55.3362,63.0624,-262.1319,-35.0664,-226.9194,-50.2529,-18.1783,18.5291,-52.1113,23.3335
-3968.7500,96.2140,77.2460,128.8330,-9.9861,15.8738,-94.7280,7.9175,-111.2005,202.2503,1.0338,105.0767,-29.9382,-184.6595,-136.1873,-73.3461,-154.3954,98.7660,40.8751,28.6655,36.2725
-3960.9375,142.9886,-18.4439,138.5685,-37.5852,-49.0943,-122.5216,-22.0552,-136.6530,214.1925,12.9097,79.4618,-77.5651,-107.4999,-128.7061,42.9035,-149.8761,143.3553,50.6823,73.0992,47.8567
-3953.1250,86.6054,-41.2911,152.1648,-62.3483,-36.2249,-109.4580,-11.1689,-123.2539,303.9857,100.6268,57.6896,-87.6715,-100.4482,-117.4168,15.0222,-105.4944,49.7846,27.0108,84.3925,26.2920
-3945.3125,45.2077,-14.1443,69.7695,-36.1202,-82.3747,-45.3820,14.7204,-93.8522,260.7728,57.3472,13.9109,-59.9337,-43.3541,-91.1685,74.1593,-82.0968,41.2053,17.8644,40.6859,19.7293
-3937.5000,-16.0629,-40.8574,40.5170,-100.7508,-75.4060,-38.1470,19.7561,-85.2942,196.7107,31.2356,-13.7364,-59.8996,31.9232,-13.7997,114.4859,-79.5234,12.7633,25.2246,48.1368,29.3184
-3929.6875,-41.9966,-103.2345,51.6189,-94.0400,-29.1156,8.4471,26.1462,-73.3881,136.0023,43.4720,-38.0379,-68.1560,146.5936,-5.1185,121.2159,-110.5759,20.6584,-32.8028,19.9339,-31.7453
-3921.8750,-83.1374,-40.8156,43.5278,0.4616,-38.0590,36.8533,15.3327,-44.6773,57.0687,74.5006,-118.5412,-44.4062,169.1124,-89.6725,145.7809,-49.8113,-22.6493,-36.8877,11.5300,-38.0055
-3914.0625,-136.7925,-25.9034,-12.0590,-20.5412,-21.5359,53.7728,68.0132,-63.4652,39.6173,21.0293,-98.5574,-37.3074,217.1790,-73.7567,195.8720,-37.5227,-43.4663,-91.9776,61.6299,-91.7614
-3906.2500,-130.2165,-89.7517,-42.3989,-17.3053,21.2113,59.9526,144.9469,-19.0013,11.4056,-117.1843,-127.3328,-20.3016,291.5424,3.3754,271.2494,-109.9612,-39.0425,-116.6663,65.9839,-120.2747
-3898.4375,-133.2554,-130.2058,-47.3408,11.3242,15.3296,91.5439,137.2853,-23.1349,-27.4201,-192.9937,-93.7208,-12.4496,316.3520,32.8552,262.0660,-45.9661,-44.2308,-119.4884,60.7467,-123.3947
-3890.6250,-70.4113,-103.7711,15.6136,34.8463,-32.6752,44.0418,87.5319,-32.3675,-35.3545,-163.9087,7.7848,-25.1175,300.1163,-16.8031,174.8261,11.9437,-19.5288,-130.1855,15.4173,-131.6232
-3882.8125,-45.8379,-80.5929,38.3189,91.1195,-84.9568,66.3086,-2.4698,-45.8448,-121.5592,-103.0834,-4.9779,-10.3518,316.6842,-32.7295,156.3627,29.6287,2.9103,-107.3773,2.8390,-107.1063
-3875.0000,-105.5415,-72.6807,48.7734,99.1312,-75.5171,39.3393,-31.7168,-71.5684,-146.0253,-127.5123,-30.0071,8.8613,321.0639,11.0670,199.6874,34.1124,47.0810,-133.1302,11.0139,-131.8499
-3867.1875,-96.9631,-65.4785,57.5333,139.4304,-104.8041,84.6828,-25.6520,-24.9941,-209.2009,-153.6479,-92.7470,33.3830,286.8062,17.1116,240.3661,37.9260,18.5395,-157.3008,-17.5131,-158.3020
-3859.3750,-176.0033,-74.8790,-23.3135,198.1249,-186.7222,187.4350,-36.1786,41.9817,-213.9988,-122.3831,-136.1062,53.7209,274.0090,7.5237,192.5042,136.1712,7.3780,-234.5158,42.3582,-237.3556
-3851.5625,-156.3725,-91.5953,-1.4653,179.5054,-92.9623,207.8939,20.0018,64.6526,-264.1143,-98.4172,-112.7835,44.8704,362.9760,-11.3910,173.3938,79.1594,-10.1019,-280.5211,59.9368,-287.7131
-3843.7500,-193.0683,-129.6210,-4.9152,104.5829,-60.5332,241.0669,50.8894,98.0255,-302.5604,-26.7590,-114.7763,37.9839,390.7045,56.3675,129.0241,107.8879,-13.8972,-281.8334,56.2074,-289.3718
-3835.9375,-207.7988,-181.6521,13.6212,15.6539,-80.1424,222.2585,66.7735,81.4045,-282.0302,-6.1012,-131.7925,-6.1139,440.4965,72.0959,106.7047,231.6746,4.2882,-262.2531,109.4772,-269.0394
-3828.1250,-158.4492,-202.5953,24.2605,-8.1765,3.3143,159.5624,147.7634,55.8787,-232.4156,-66.3590,-155.7238,-54.9820,445.4548,-30.1120,150.5461,201.5951,-18.4337,-207.3057,121.8436,-219.6191
-3820.3125,-225.7700,-236.1971,-84.7475,-113.6540,41.0866,124.2285,221.1060,21.7018,-154.4753,-25.2874,-189.3169,-105.7341,478.8268,-30.9982,259.7882,235.8973,-87.8129,-208.6774,158.5601,-215.8577
-3812.5000,-177.0136,-224.7092,-36.6512,-139.0375,124.9261,62.0012,266.5537,-39.3825,-104.4621,-86.1315,-176.8319,-114.7852,520.3702,-22.8101,303.1804,242.3499,-112.1084,-199.4930,64.3862,-203.0038
-3804.6875,-174.1343,-187.0854,-36.4083,-103.2803,86.8866,24.9345,227.1689,-38.3244,-139.3188,-120.8381,-175.2154,-86.0053,516.1443,11.4835,300.7819,237.9973,-110.2705,-164.3495,-4.6354,-164.0077
-3796.8750,-194.1444,-208.3263,-59.0271,-91.3786,24.9599,38.0322,200.9443,-24.1166,-124.0425,-68.4004,-197.4760,-86.5052,487.1347,21.8865,273.5938,283.8600,-132.2995,-150.0863,43.4987,-148.8700
-3789.0625,-215.0893,-265.4768,-80.5489,-150.3768,40.1009,54.2422,251.8283,-7.8118,-105.6903,-12.8756,-216.6591,-140.9806,497.2980,-38.6452,322.5651,294.8680,-120.2402,-201.8646,91.7288,-204.6397
-3781.2500,-257.6625,-239.2371,-127.6698,-90.9782,-9.3943,115.8606,238.1214,55.8819,-188.9627,51.0279,-226.4609,-103.4330,481.9434,-15.7989,308.0012,353.3152,-164.7929,-175.9269,47.3583,-177.0211
-3773.4375,-262.3628,-211.1165,-136.8879,-29.6880,-56.0158,143.3779,189.3343,47.4585,-196.3624,7.8073,-197.3798,-42.1706,467.5743,81.9164,259.4016,376.7165,-208.4556,-151.7870,38.8894,-147.5164
-3765.6250,-290.7926,-169.7099,-204.8095,9.8995,-162.3621,186.2115,119.8694,91.3309,-188.4960,15.8712,-190.0263,5.4013,468.5898,158.8915,299.1653,341.4711,-272.8376,-152.5770,9.7160,-139.7245
-3757.8125,-322.5104,-202.5641,-238.9932,-94.7617,-161.9876,187.8071,156.1692,93.9520,-147.9113,19.6643,-223.9516,-41.1126,502.4366,157.5726,407.7505,376.0416,-305.4857,-151.0936,46.2951,-136.1886
-3750.0000,-307.4641,-258.6377,-187.3785,-152.6333,-73.8428,166.2101,205.2916,73.3595,-93.5593,0.2233,-207.0910,-109.9838,549.1770,59.0294,493.2200,313.4593,-327.3471,-166.1962,24.6722,-155.8673
-3742.1875,-331.7988,-249.0716,-180.1139,-109.8520,-31.0837,173.2765,174.0777,81.4125,-158.5970,9.4069,-234.6047,-99.4266,515.6481,27.1186,424.3952,353.5732,-283.5666,-114.8979,33.6912,-109.9134
-3734.3750,-372.1212,-255.4684,-222.8057,-83.0197,-2.3088,166.4115,164.9254,75.5161,-199.6118,41.6351,-276.1036,-80.2327,467.2523,54.2234,340.6710,453.8055,-290.7537,-118.6999,97.7646,-114.9260
-3726.5625,-381.1328,-230.5329,-233.1517,-94.8443,58.7847,119.9106,225.1421,29.9611,-135.3056,70.2024,-285.2775,-83.8167,489.2932,40.6357,364.3702,402.4524,-337.6020,-130.2169,51.1875,-123.6066
-3718.7500,-388.8795,-239.3105,-243.2050,-141.3706,83.1441,71.7210,248.6797,-17.3017,-107.7355,24.0397,-258.1797,-97.1102,546.7226,63.3194,387.4449,350.4584,-312.1639,-104.0306,76.9110,-96.0007
-3710.9375,-325.7593,-247.2067,-142.3594,-150.9996,73.3760,26.4335,238.1375,-61.6816,-77.2918,-92.2514,-156.2040,-111.5031,571.1438,51.8702,413.4947,265.4310,-215.8372,-109.2325,33.5335,-102.5140
-3703.1250,-240.4669,-162.9157,-91.3131,-67.4249,-24.2288,3.3501,176.8105,-83.8772,-98.6809,-112.3619,-178.0490,-86.7767,470.8519,-11.4048,387.8148,275.6654,-96.3198,-92.3037,12.3421,-86.8412
-3695.3125,-231.5141,-155.9306,-82.5747,-27.1501,-17.1708,-25.0258,109.1950,-111.3855,-125.4075,-102.8009,-168.2230,-76.1775,475.3468,-5.9932,319.9132,353.6545,-90.1155,-121.4608,18.8546,-113.4831
-3687.5000,-144.1948,-102.5598,7.5622,-11.4828,-1.7427,-43.9990,161.0061,-129.5116,-143.7694,-83.8819,-150.0194,-86.3381,451.3358,-103.2096,298.4900,293.1057,-38.5249,-97.6620,-34.2334,-94.7371
-3679.6875,-144.7130,-105.0070,4.8939,-14.6190,-81.1480,-47.7616,81.0372,-95.4519,-108.9705,-48.7940,-115.6423,-110.8839,406.6158,-146.2567,365.3341,286.8396,-5.7481,-63.8682,-1.1258,-59.8074
-3671.8750,-82.8695,-79.0730,66.6197,-60.3549,-130.1867,-22.1177,31.4886,-69.0032,-153.8118,-57.3383,-88.8844,-109.1627,318.3948,-123.9255,315.6577,309.0454,19.4110,-36.9194,-46.6232,-32.4984
-3664.0625,-107.8617,0.0488,4.5379,17.1130,-231.0556,24.7391,-33.8403,-21.3671,-215.4912,-45.7169,-76.9588,-18.1412,325.4640,-6.4081,176.2681,315.4991,-7.2484,-68.4274,-72.9305,-57.0002
-3656.2500,-71.6524,-35.5969,41.6853,-20.1734,-159.7016,25.8538,-34.8924,-19.4913,-212.9565,-115.8743,-74.8172,-23.8231,358.8803,28.3461,175.2066,276.2654,27.3263,-99.4827,-37.9804,-91.2645
-3648.4375,-35.1329,-69.9160,79.1788,-21.1160,-50.0184,-46.6757,73.4391,-92.2858,-175.1061,-224.7169,-73.3501,-34.9370,392.7459,25.4213,320.5681,163.4509,27.2368,-94.9237,-72.6750,-89.1974
-3640.6250,-116.0533,-79.6552,29.2608,36.5398,-27.7665,-59.5951,58.3937,-103.4929,-185.6936,-271.9875,-85.3111,-12.1687,376.2996,46.0808,342.6072,221.3141,14.7371,-69.2581,-48.7717,-63.5565
-3632.8125,-70.5121,-69.9125,38.8363,9.6963,52.9566,-87.0026,65.8660,-129.2111,-211.8100,-297.7926,-74.8064,-16.3509,419.4395,52.2401,277.2223,227.7538,-11.2819,-58.9777,-75.3764,-52.4369
-3625.0000,-89.2131,-89.3884,-16.8027,23.6539,68.4471,-69.5946,81.1602,-112.1411,-193.1595,-205.8334,-93.5329,-26.8528,470.4728,29.1930,255.7248,205.0545,-31.5199,-77.6762,-95.1929,-70.5314
-3617.1875,-126.2560,-58.1826,-19.7567,19.3137,63.5983,-72.4785,39.1733,-78.3828,-122.8578,-133.1949,-132.5865,-36.5862,464.2959,-14.1659,177.0038,272.1283,-35.0691,-79.7649,-98.3137,-71.9361
-3609.3750,-97.0388,-30.6967,10.5846,81.2748,56.0134,-78.0556,-5.4914,-120.3417,-164.3024,-211.2902,-100.3644,-27.5018,418.5074,-60.2358,279.6584,226.5863,62.6730,-119.6077,-141.1404,-113.0601
-3601.5625,-49.4608,52.1737,59.3179,161.6425,-8.2059,-103.2327,4.2638,-143.9249,-297.3811,-235.0271,-87.7659,29.0578,316.2043,-51.9140,326.7974,199.5221,108.8041,-105.1180,-129.5723,-99.8029
-3593.7500,-41.0717,59.8711,103.8929,167.8636,-38.5972,-132.5560,-27.1067,-171.6829,-251.6437,-225.9563,-42.3487,56.3331,320.8440,25.2556,259.8634,167.3784,115.7744,-99.8751,-122.1559,-90.7147
-3585.9375,-9.0219,91.2564,135.1592,127.7926,-120.3136,-101.1721,-70.7483,-103.7584,-219.2484,-303.2245,-10.2589,64.8396,276.2762,53.1172,178.7023,195.9895,111.4270,-67.6466,-126.0523,-57.9418
-3578.1250,22.3809,86.0328,126.8042,86.1407,-202.6587,1.6226,-117.9688,-37.4486,-299.5035,-273.1294,-17.8051,89.9417,265.1958,152.3762,59.0173,259.0665,70.4650,-2.6984,-129.5552,9.2147
-3570.3125,43.8850,1.9375,112.5845,35.6462,-218.8782,24.5772,-97.0144,-15.0044,-275.6562,-211.9340,5.7697,43.2981,248.3596,134.7958,117.5734,168.3585,91.6411,-12.4623,-109.9086,-3.5115
-3562.5000,0.9504,28.4189,66.9560,60.7545,-156.5188,16.1478,-33.4206,-22.9738,-210.2505,-182.1866,-76.0861,46.6342,237.2121,85.8231,217.7956,120.3254,46.4044,-18.0912,-83.6602,-10.6686
-3554.6875,-77.8791,20.0246,23.4618,16.0105,-92.0244,-27.1221,-5.6392,-28.8059,-106.7236,-151.3214,-81.8290,36.4135,265.3035,112.9957,210.2308,148.5266,38.3028,-62.7086,-56.2623,-52.6981
-3546.8750,-62.0520,71.3095,2.6527,65.9733,-41.8541,-11.6811,44.8663,-12.9574,-90.5355,-207.7915,-102.9001,56.3625,241.1769,50.8711,187.4494,51.4895,52.8917,-40.2667,-77.1750,-36.0489
-3539.0625,-89.8654,42.9834,-25.7686,71.3501,-35.3117,-3.8301,14.7915,-3.7255,-190.0066,-234.9097,-93.6001,13.2370,283.5385,-53.8335,195.1464,130.9174,58.8706,-62.9703,-34.6993,-63.0220
-3531.2500,-37.2171,-10.8665,67.3003,51.2361,18.7143,16.5215,33.2473,-20.0198,-207.0268,-251.5706,-36.8225,-24.8238,338.4941,-111.0207,140.4085,111.9316,74.3383,-109.8465,-53.7298,-115.5270
-3523.4375,22.1448,13.0150,91.1065,38.8838,77.4726,-33.3749,55.4897,-32.5854,-182.3293,-189.5153,-48.3315,-15.9651,323.2789,-90.4447,16.4903,96.7641,62.5393,-85.6393,-100.0187,-90.3050
-3515.6250,28.0539,88.4721,94.4902,43.1347,4.8088,-65.6674,-16.6326,-101.5706,-177.0539,-147.9040,-7.2748,8.1686,287.7439,-53.2507,-17.7488,172.2664,67.3296,-53.2035,-95.7032,-48.5080
-3507.8125,83.6763,108.6523,149.6138,61.1442,-52.1207,-121.2012,-72.9755,-118.8283,-232.0723,-91.5977,48.5065,5.1753,231.0435,-75.2889,-36.1542,114.5855,121.8645,3.0383,-110.6470,8.0149
-3500.0000,35.6592,95.2131,138.1240,82.5746,-102.6717,-95.3295,-122.8955,-93.7083,-205.7455,-64.9384,36.6597,6.3941,180.8238,-89.8981,-12.0832,64.3756,142.7951,-42.0175,-53.2070,-39.0897
-3492.1875,61.2962,85.4512,203.3175,106.7201,-75.5380,-65.7476,-59.0834,-101.9060,-176.7566,-219.6219,66.4781,21.6255,134.3926,-100.7786,16.7528,-18.0745,132.4152,-78.4637,-28.0680,-82.5287
-3484.3750,81.9472,140.7152,150.5501,90.9299,-94.3584,-45.1072,-76.1786,-44.0732,-228.7534,-234.3122,50.3139,40.7680,153.0935,-83.5755,-0.3026,-36.4214,117.0776,-58.9223,-42.8891,-60.9466
-3476.5625,71.1050,129.5046,137.3139,78.7008,-109.6350,-57.9124,-90.6924,-56.7144,-241.2513,-173.5060,74.6710,21.8372,138.4253,-99.7938,23.2689,22.8536,105.2864,-35.8928,-19.1668,-35.8436
-3468.7500,143.0250,131.0707,173.8677,43.2886,-149.1149,-57.9080,-92.3687,-55.5822,-166.9988,-171.9562,74.7972,-35.3494,100.6384,-213.1794,59.7067,57.9975,141.2859,3.5531,-53.6538,2.0276
-3460.9375,81.8992,103.6159,106.3986,50.8969,-216.6094,-13.8913,-124.0081,-47.4664,-159.7849,-164.4492,45.8839,-15.8499,105.9272,-135.5268,66.2085,100.2006,78.2757,43.4980,-45.1511,46.8695
-3453.1250,26.9803,83.3850,50.1586,-5.2288,-165.8605,-33.6176,-34.3655,-31.1186,-142.3610,-73.7406,26.1834,-20.0198,194.5348,-85.5808,46.0376,78.7183,-47.4987,21.1086,-30.4028,27.9342
-3445.3125,7.1687,63.2815,-43.9523,-61.1877,-77.9745,-53.1831,54.4557,-50.6430,-88.8343,17.0654,43.6118,-69.5298,210.3644,-145.4384,63.0934,130.4382,-103.1295,0.0702,-50.5127,9.1178
-3437.5000,2.2217,24.0620,-13.1812,-66.2259,-12.1964,-95.8464,84.2054,-92.2942,15.5408,-24.2859,-36.0891,-87.4294,130.1676,-153.3550,131.1125,234.1280,-143.8631,33.5405,-19.7314,41.1733
-3429.6875,-28.7001,27.8716,-46.3638,-63.1977,-10.3684,-163.4628,50.0441,-124.9278,130.9249,53.3571,-31.7625,-109.6947,96.0962,-189.1872,135.2350,236.9238,-105.5386,35.3183,-15.9143,46.2494
-3421.8750,-6.4488,49.8612,-24.3572,-77.9552,-64.3495,-177.8778,71.1118,-102.3896,153.4653,149.1450,-9.2571,-128.0089,80.2920,-243.7736,46.6064,220.9833,-119.0120,59.2302,-28.9140,69.5004
-3414.0625,18.1098,39.1754,1.9754,-124.3455,-39.9896,-187.9354,59.5530,-112.5197,106.3147,139.2415,54.5642,-137.4011,105.9021,-219.9474,0.3894,209.4618,-95.1488,50.0642,-4.5752,60.0749
-3406.2500,43.4734,65.3147,25.1350,-29.8634,-55.7745,-164.1384,45.8810,-88.8246,19.9709,54.1359,41.2069,-82.5576,54.4343,-199.2161,24.0997,121.8282,-105.4404,115.6980,-14.3933,121.4661
-3398.4375,-42.5514,13.0780,-30.0764,-46.7094,-75.8958,-109.6965,24.9064,-70.5142,38.2443,34.6302,-50.5342,-70.6640,34.6858,-110.7941,115.5191,211.8990,-157.0912,168.7605,39.4378,176.4801
-3390.6250,-115.8697,-95.4446,-68.5608,-119.7960,-116.2536,-73.5078,22.7277,1.5171,146.2414,143.8340,-51.5607,-157.4263,-4.2425,-188.5689,150.7445,319.7868,-161.0027,134.1396,71.0125,139.2110
-3382.8125,-48.7276,6.5074,-71.5690,-89.3620,-195.1046,-3.8079,-17.9128,36.0261,106.6967,105.4847,-54.1154,-127.9100,-81.6026,-230.7730,75.5279,353.2163,-128.4246,132.3479,33.0689,137.4157
-3375.0000,-17.4696,72.5851,-4.4459,-59.7554,-201.7954,-7.9530,-96.3714,31.6603,29.2582,-9.7780,13.4577,-43.5262,-49.7443,-89.7558,-2.4845,199.8337,-64.6979,126.8896,28.2585,133.7418
-3367.1875,77.3041,62.1912,58.2078,-34.5839,-140.9288,-17.5441,-107.2407,20.8146,-54.6667,-93.5514,39.5543,-12.1642,-61.2695,-30.1270,-12.8834,78.0405,-39.4228,156.7382,-15.0129,160.5845
-3359.3750,44.8895,65.6210,25.6833,3.4632,-175.2040,23.7254,-104.2212,25.7996,-86.7822,-88.5289,7.4660,4.8401,-93.8959,-27.5809,-44.3784,156.1617,-1.2995,126.6719,-13.4461,129.2427
-3351.5625,32.1899,86.7657,12.8871,-9.7256,-116.7084,11.7468,-44.4098,13.5105,-62.1773,-63.8081,32.0960,-37.5331,-32.7143,-152.2158,-19.0800,179.0948,-50.4286,116.3311,-26.1272,117.6153
-3343.7500,-28.3943,61.0286,-87.7776,-37.7427,-110.0446,20.9190,-36.4069,58.3423,19.5482,18.0184,-32.1560,-70.5959,12.6732,-182.6256,64.4173,224.2109,-146.4133,121.7436,-17.6714,127.1093
-3335.9375,-136.3726,22.9215,-163.8250,-75.0791,-77.7254,19.7470,72.2813,20.8038,164.8884,-20.5483,-106.7924,-48.4246,46.7665,-76.2990,99.6133,112.0132,-148.7598,121.1080,50.4185,126.2218
-3328.1250,-121.0873,39.0903,-109.5984,-24.0919,-25.0916,-36.1239,125.3043,-35.4633,218.4933,-39.8627,-89.1556,-29.9070,27.2098,-97.5875,118.1637,-90.8465,-64.8103,107.5522,30.7956,107.6062
-3320.3125,-131.0877,97.9814,-118.6513,0.6695,-71.6952,-80.2396,80.1127,-43.0051,173.8217,62.5180,-97.7988,-42.6963,-17.5518,-180.0379,1.5136,120.0844,-4.1143,62.2331,56.9139,63.7090
-3312.5000,-68.5712,90.3815,-53.1779,-7.0035,-43.7243,-49.8061,72.5125,-50.0274,130.6804,91.3878,-68.9197,-75.1297,-24.7100,-262.8573,-78.5444,223.6258,-11.8730,59.3557,49.5751,57.3281
-3304.6875,-37.8355,85.9956,-59.4766,-11.4053,-51.4716,18.8702,30.2095,-18.8365,50.7641,13.4523,-37.8122,-47.3791,-29.5645,-196.3416,-46.3063,143.4666,-51.3844,90.8841,45.4659,89.1652
-3296.8750,-52.3333,36.3847,-75.9973,-62.9815,-33.3928,39.3429,12.7502,37.1213,33.6121,33.2536,-17.9296,-69.6308,-9.5625,-177.9263,-62.2236,127.1242,-68.0864,113.1996,65.1477,109.7704
-3289.0625,-23.2432,30.3436,-79.9261,-102.9372,-37.6761,74.4099,9.9370,33.6400,31.0270,66.5783,16.5382,-73.6427,-12.9068,-145.8225,-63.5076,87.4025,-37.1763,72.1910,25.4149,70.9457
-3281.2500,-12.3303,76.1171,-69.0254,-56.0080,-102.0822,86.3237,-52.9966,44.9800,42.2507,77.7099,27.8294,-43.4382,-111.3615,-135.7748,-87.9187,98.5839,-26.4120,81.9499,0.5165,82.9363
-3273.4375,-10.6532,77.6565,-30.3473,15.7544,-101.6613,52.0438,-51.0951,47.0930,118.2473,43.6045,29.8883,-45.4073,-108.9800,-207.8251,-47.4993,26.6032,-24.8559,88.2239,2.4075,85.6900
-3265.6250,-40.8615,47.3186,-62.5459,-14.3183,-135.0583,57.9155,-9.0010,16.3324,160.3672,11.6005,35.0688,-50.9543,-66.4064,-166.6254,33.1177,-5.2151,-55.1469,91.3848,43.4378,91.5601
-3257.8125,-41.2985,12.7559,-62.9729,-49.5698,-136.6229,58.5950,-9.0696,52.3466,86.2596,48.3308,35.0236,-59.4122,-28.9934,-131.5093,-76.4360,68.7873,-55.6320,92.9087,43.2524,92.1991
-3250.0000,-31.0611,56.8597,-48.7173,-74.0898,-86.4618,72.9773,-68.4097,30.0387,-10.1794,97.7023,85.6599,-88.7456,-51.8473,-227.5672,-60.2712,82.5193,-10.4044,34.9318,18.7500,33.4981
-3242.1875,-7.9404,79.8375,-62.5829,-85.6702,-64.3736,61.2623,-7.8214,53.6009,-23.7531,157.9152,36.1745,-114.0770,-100.7694,-315.6201,-35.1779,143.1950,-57.2743,62.0617,42.1195,57.6612
-3234.3750,-49.2449,3.3875,-68.8676,-127.6196,-34.6430,56.1361,59.4085,47.7233,44.2371,151.6752,30.2697,-123.9355,-106.0435,-247.9837,-2.4600,137.5069,-63.5392,58.0096,71.0739,52.3940
-3226.5625,-68.2175,19.2545,-89.8183,-40.1927,-56.5116,109.3508,39.0290,64.1543,97.5524,130.7238,-27.3011,-67.8811,-162.9258,-194.8955,51.6295,44.1674,-47.4311,74.9197,17.3657,69.4415
-3218.7500,-135.1543,56.1415,-158.7354,-37.6862,-90.2858,114.6096,6.7393,68.6012,174.8852,171.7604,-59.8419,-55.0786,-157.7256,-191.6427,-15.2078,48.8892,-45.2573,40.5443,89.6977,37.4992
-3210.9375,-141.6108,-20.5044,-129.1672,-78.6564,-24.5088,36.3631,111.9905,25.5149,279.6874,165.2364,-28.8970,-111.2513,-88.9891,-233.7719,-19.5227,79.1414,-51.5811,37.2419,83.5062,32.0143
-3203.1250,-116.6852,-29.7711,-140.2209,-88.1907,-0.2823,25.5194,174.6792,-22.2004,230.8599,116.0562,-40.5733,-133.5116,-99.8169,-282.3849,117.5680,68.8033,-26.5083,65.9079,108.6845,57.8989
-3195.3125,-91.9918,-39.2664,-39.5046,-132.8892,-10.2129,17.4738,129.2046,-31.1411,184.8071,69.6235,24.5252,-180.2132,-70.8107,-365.0805,147.4773,23.2724,70.3683,62.5599,99.6508,49.5564
-3187.5000,68.3237,-21.1516,88.8361,-77.9092,-29.4488,-0.9275,73.4206,-49.4688,92.3798,14.7888,116.2494,-124.1988,-89.1290,-273.0027,-53.9267,-68.5949,124.9067,118.4387,13.2588,104.8294
-3179.6875,12.0207,28.3243,31.5525,8.4970,-124.2333,17.0664,-55.9216,3.5756,-37.6660,140.3041,96.3468,-15.8018,-108.0216,-71.4024,-144.9176,-15.0412,33.8549,86.8333,-6.7477,85.4654
-3171.8750,-43.5510,77.5178,10.9982,94.6788,-182.2155,71.8045,-112.4768,93.3335,-57.9803,230.5187,39.1751,7.8543,-201.1326,-127.9250,-53.1559,39.2695,-21.4335,66.3382,-62.0196,65.8136
-3164.0625,-69.6877,122.1427,-54.1203,139.3424,-245.6954,117.9889,-139.5508,139.5151,24.1324,239.1279,11.4370,-11.0968,-300.7684,-264.8744,68.0551,-24.9856,22.7446,79.4998,-52.8577,75.5803
-3156.2500,-37.2884,83.2919,-19.7098,66.5884,-248.5790,80.7197,-141.0513,63.2170,168.7655,162.2361,46.2334,-29.0977,-264.8373,-192.1409,104.8176,-63.6808,55.4826,73.0205,-20.1618,73.8621
-3148.4375,77.6994,57.0058,28.2853,41.4647,-165.8097,19.0442,-54.9197,-35.5133,106.9668,-10.1085,93.6125,-43.1337,-179.2852,-180.6717,118.1890,-51.7663,135.8287,50.3477,-9.8805,48.7106
-3140.6250,101.1163,80.1317,87.7048,30.8185,-142.5388,-30.1830,-67.3053,-47.8205,-126.3961,-24.0465,117.4180,-26.8710,-117.2656,-155.6145,-2.9852,-64.4003,229.6269,79.0207,-22.1589,72.9768
-3132.8125,112.0129,126.7267,100.5988,113.6998,-55.7115,-15.9199,-90.1508,-35.6588,-187.2648,-48.5432,93.7000,71.8079,-102.7183,-29.9259,-98.6532,-270.5347,241.9313,57.5850,-45.9507,49.7108
-3125.0000,102.8950,152.2884,93.4727,175.6061,-26.8173,15.3341,-58.9514,-43.5347,-121.1450,-130.0970,49.9680,89.8003,-108.1465,-72.1193,-29.3112,-276.6736,198.2470,15.6636,-53.7545,6.4139
-3117.1875,47.0585,61.1159,35.6223,85.8401,63.4324,-4.1221,31.5838,-27.1451,-31.7366,-224.3887,29.5139,-10.9879,-54.2520,-201.8833,25.3223,-76.5081,141.8774,1.8872,65.7364,-13.6146
-3109.3750,-12.2941,-33.5930,-23.7464,-7.4005,151.2485,47.9132,120.6527,-12.2841,-16.8409,-174.2236,7.5437,-67.4965,-37.8336,-222.0031,79.4398,-60.8492,119.0207,-51.9258,112.7163,-72.1843
-3101.5625,-58.8064,-10.4788,-35.2807,-17.7487,139.9805,111.7957,110.6028,49.4006,-102.1282,-77.2642,-3.5898,-59.4412,-84.5435,-231.1297,70.3994,-35.3581,108.0294,-60.9011,101.5189,-82.9431
-3093.7500,6.7263,53.6586,-1.7728,12.9881,136.8329,108.7128,108.6332,46.0968,-68.3910,-118.3147,67.3211,-15.2007,-86.1832,-195.0786,-41.5858,-147.8371,173.1040,-101.2252,61.3514,-122.6799
-3085.9375,74.5536,87.0647,69.0227,83.0475,98.0518,144.9089,70.9919,44.0495,-107.3603,-193.1063,65.5217,49.5356,-86.5045,-121.5966,-151.2722,-223.0275,242.4902,-100.8139,24.4665,-124.1416
-3078.1250,98.9739,40.0408,93.3999,108.7343,48.9317,60.6927,23.9798,-4.4323,-82.7340,-133.3486,53.3102,33.1976,-134.2104,-94.3703,-14.3835,-123.6294,267.4893,-81.9905,14.1694,-99.0305
-3070.3125,135.2381,5.8294,94.6175,111.2947,50.7276,26.3181,-10.1495,-40.0942,-8.2689,-96.8024,54.9412,-13.0126,-168.0476,-163.1449,99.3365,-121.4056,304.3518,-81.8522,-20.2899,-97.1040
-3062.5000,143.1939,83.2850,101.5191,119.5864,-15.7088,33.6394,-39.5537,-34.0814,-38.1211,-90.6048,61.2582,30.6262,-270.1696,-117.0890,108.7448,-151.4915,312.9325,-40.9205,-12.0677,-53.5110
-3054.6875,131.5354,71.1051,52.8022,109.3065,-63.6759,23.3495,-49.5248,-45.7005,23.4187,-103.0582,49.9586,79.6996,-279.8721,58.4986,-48.4594,-15.1793,265.9289,-60.6593,11.5481,-64.5505
-3046.8750,131.4169,105.4433,48.6210,145.6008,-30.0268,57.5979,22.0866,-12.8055,57.5048,-34.0082,10.2006,115.6292,-355.0136,57.7754,-232.1239,-54.3441,160.4951,13.7332,-23.2962,5.9276
-3039.0625,-8.7527,70.7005,-97.6230,112.8773,-28.3563,96.7851,-12.3233,62.0085,-89.4767,112.9507,-99.6226,126.0991,-352.1936,136.1382,101.1470,-198.5904,92.0245,11.8012,47.8007,7.3242
-3031.2500,-67.3302,-23.4770,-154.2790,55.7780,99.9944,78.5571,79.8989,41.3920,-34.8711,55.4733,-81.8601,104.3189,-259.7467,193.2332,156.9862,-219.2576,69.1750,-79.6374,130.4888,-85.7181
-3023.4375,-19.8577,-46.6319,-66.8932,69.7637,188.4756,94.3668,170.2061,55.7945,89.7715,-115.9977,-31.0585,94.3872,-280.2316,137.5093,-120.1661,-56.9094,47.4002,-92.3228,108.2106,-107.7457
-3015.6250,-41.3873,-33.8202,-90.5135,14.7777,167.0350,109.1611,148.5408,69.1634,103.3989,-139.5184,-54.2621,98.2780,-301.7013,191.9094,-31.3333,-42.5766,-8.3521,-83.2036,121.9211,-93.8075
-3007.8125,-71.9093,-30.0442,-122.1380,20.8172,135.6706,150.9331,80.8998,110.4885,71.0168,-100.0868,-49.4653,185.6360,-368.1547,421.4380,86.4924,-257.2550,-38.0876,-85.9384,91.6070,-88.8980
-3000.0000,-110.7331,-34.5878,-198.0729,53.5864,98.0719,187.3910,80.9752,145.4825,32.3227,-28.9934,-50.9743,237.3333,-404.8950,533.8105,-24.0204,-222.2602,-76.1052,-128.1403,87.9729,-127.3160
-2992.1875,-56.8560,-51.4596,-179.3150,39.0759,155.2457,170.5369,138.7726,164.1440,51.3275,61.7572,-31.7863,206.2673,-420.9200,483.0215,-186.8592,-55.6027,-162.4025,-109.1668,2.0288,-108.0667
-2984.3750,-50.9707,-46.3641,-212.5649,11.5917,86.4945,212.6652,71.5977,167.7761,-17.6696,65.4645,9.4018,235.5177,-488.9271,602.3527,-180.7187,-13.9772,-190.6803,-76.1047,-62.9337,-66.8432
-2976.5625,-56.3851,-17.5983,-179.1230,7.8285,47.5218,173.4745,-40.8591,164.0777,-94.9769,23.8283,43.2857,274.7158,-563.2135,713.5020,-181.9049,57.3299,-125.2356,-121.7149,-68.2079,-106.9462
-2968.7500,21.0073,23.9399,-132.8785,121.8915,22.4258,185.0665,-65.4967,173.1475,-121.4957,-41.0564,52.9641,346.0226,-624.6849,764.5820,-169.3168,-79.6035,-46.9663,-183.6721,-131.6955,-170.2773
-2960.9375,-36.9975,-35.9499,-158.0394,205.5829,-0.9981,235.2477,-88.5209,147.7885,-183.4225,-67.3782,-7.7635,443.9879,-574.5540,1002.4020,-82.1722,-213.9640,-69.0731,-175.6000,-119.5933,-158.0369
-2953.1250,-45.0531,-78.9252,-166.2593,165.2481,139.5994,153.3673,-21.5753,102.3547,-155.4074,-77.7786,-16.5512,442.9547,-507.4595,1072.3071,-162.1150,-222.4105,-75.2133,-146.6399,-91.5439,-129.8714
-2945.3125,-27.9090,-97.7283,-186.2914,149.1366,194.4722,98.6752,34.5933,82.0963,-64.1999,11.9854,-36.1445,451.5047,-525.1477,1131.5336,-362.8768,-204.7094,-92.1373,-130.5387,-109.3044,-112.5341
-2937.5000,-34.5156,-105.3063,-230.0822,144.3003,189.6614,56.2200,-6.9670,38.0589,2.2492,39.9599,-42.4941,440.7362,-601.5771,1167.1407,-110.4290,-99.7702,-168.7921,-149.0951,-150.8221,-118.9759
-2929.6875,-49.9600,-121.7611,-245.7178,130.6327,213.0757,-32.1090,-20.3638,-50.8638,-86.1505,-49.9531,16.3017,434.5450,-505.8425,1230.0127,207.1053,-114.6877,-148.2650,-174.3231,-201.1950,-134.2950
-2921.8750,37.1057,-142.7412,-155.8505,148.4838,231.0659,-51.9613,-39.2470,-35.3207,-70.0438,-35.3900,32.5903,462.8839,-524.6008,1288.4945,-216.8972,-62.1427,-95.2160,-151.3654,-150.0792,-118.1363
-2914.0625,44.3676,-135.5535,-110.7906,192.5533,242.3359,-41.6290,-64.9093,9.4007,49.2627,8.3430,5.0725,480.5130,-476.1395,1266.2998,-535.7095,-125.4587,-86.9561,-173.3636,-142.7706,-145.8065
-2906.2500,37.6336,-108.3974,-82.7332,222.6446,198.6859,-12.3083,-71.5512,0.0973,77.5658,-37.9684,33.5530,486.0110,-445.6542,1226.2275,-358.5472,-353.8403,-128.6737,-146.1431,-220.4684,-117.5051
-2898.4375,1.7586,-110.4144,-120.8230,223.6073,163.9581,-85.1488,-70.3310,-1.3761,149.7083,-40.4614,-4.1174,446.7483,-444.3017,1158.1140,-64.6037,-317.4028,-128.5146,-151.1182,-185.3180,-118.3812
-2890.6250,-11.2101,-195.5534,-95.0043,212.4877,228.2068,-132.1075,-5.2024,-85.9719,249.7457,-127.0878,22.1128,386.4442,-380.0345,1079.0161,0.1829,-293.0918,-69.4354,-194.2181,-128.2794,-166.3912
-2882.8125,98.9324,-120.6059,-16.0801,255.4931,309.6315,-162.9809,2.0411,-118.4975,106.8779,-233.6665,63.4322,405.4930,-335.6566,1016.1349,-103.9496,-287.7233,-28.2430,-184.2613,-158.1594,-161.3192
-2875.0000,178.4227,-43.3348,102.1862,229.8590,393.4832,-264.5257,-24.3540,-184.7013,-104.6357,-262.9258,146.0962,408.7116,-250.9044,994.7119,-166.7657,-279.0385,16.3210,-176.1131,-184.6880,-152.9212
-2867.1875,266.0203,-96.9919,156.5551,214.3437,450.5055,-281.9902,-41.6324,-204.8305,-87.0347,-211.0972,126.8613,382.7722,-231.0332,981.4850,-330.5411,-261.2970,35.0083,-154.8977,-167.1202,-135.4523
-2859.3750,214.6269,-114.6714,141.9287,199.8441,401.5982,-259.4694,19.0981,-182.9838,45.5710,-191.2900,149.6212,333.4035,-207.1451,862.3641,-454.3599,-164.6020,55.7204,-201.5612,-113.5545,-187.0071
-2851.5625,241.0899,-160.5298,97.1547,193.2024,433.6119,-229.1207,124.6914,-191.3137,148.0326,-310.6561,142.2271,296.0280,-138.3890,787.1975,-240.3601,-357.0915,82.3040,-241.6034,-122.1396,-231.7382
-2843.7500,186.9147,-145.0647,37.7353,246.9268,488.0434,-250.4349,178.6520,-214.3105,125.8481,-370.6930,83.1806,328.8460,-47.2707,809.4681,-40.0482,-524.2717,100.2496,-189.0043,-106.3847,-180.1436
-2835.9375,75.4969,-291.8662,-42.9379,172.4149,520.2936,-257.0141,210.3657,-222.5753,118.4082,-232.9936,2.8806,253.8834,20.6164,808.5870,-46.0417,-275.7405,60.9667,-159.1805,-5.8836,-150.8207
-2828.1250,70.8912,-368.8824,-84.8016,63.7170,518.4129,-260.8187,243.8827,-191.0679,150.7643,-166.5134,-1.6178,177.0328,55.3161,773.5984,-49.2744,-132.4467,21.5137,-165.0974,24.4118,-155.7177
-2820.3125,58.5983,-347.6164,-136.3589,18.3285,543.8961,-237.3533,268.6978,-206.2920,210.4281,-218.7512,21.1819,166.4938,80.3287,765.9913,48.7572,-220.8749,10.3870,-144.9689,12.0054,-133.3342
-2812.5000,143.8682,-333.8213,-86.3551,70.4945,596.9958,-295.3603,285.0718,-228.9896,186.6617,-280.4638,71.5300,200.1350,95.9203,786.0201,-120.7243,-353.7901,61.8288,-89.5812,27.1475,-83.4235
-2804.6875,154.0468,-290.1470,-77.4401,117.5745,534.0720,-286.4790,258.3568,-221.8028,121.7955,-274.3048,42.7759,237.2084,70.4408,802.0309,-184.3701,-381.8548,108.1921,-43.2047,36.1880,-38.6320
-2796.8750,140.2266,-305.4936,-56.5215,105.6600,485.2114,-264.6181,244.6397,-275.6359,-4.0634,-328.1546,101.0193,222.7463,93.9786,793.1118,-126.0501,-287.9539,130.5801,-23.0710,57.2382,-17.8558
-2789.0625,137.7203,-274.5585,-59.2890,105.0512,485.7184,-266.4835,244.2290,-279.1940,-117.6126,-369.7140,135.5623,217.5571,130.8322,760.5610,-16.4584,-290.8010,129.2868,-27.7678,-15.4147,-20.8001
-2781.2500,89.9237,-217.9385,-73.3541,95.1539,400.9868,-242.6646,196.5156,-257.0656,-57.4643,-274.5825,84.7967,229.5076,156.4090,753.7939,-66.2149,-377.9770,153.7074,-6.8389,7.6252,1.9309
-2773.4375,109.1861,-271.2836,19.6403,44.3126,424.3685,-221.8089,217.8588,-237.8975,109.7342,-293.4179,68.0829,191.5482,178.0548,707.1479,-154.9710,-506.1405,173.1868,-15.6187,60.7224,-15.3057
-2765.6250,127.4203,-289.6917,39.6004,65.4239,373.7633,-129.0266,240.1552,-181.7953,55.8923,-312.3178,51.3268,189.6875,127.6752,661.4935,-134.8174,-523.4093,157.6410,-26.1296,79.7715,-32.6078
-2757.8125,89.4221,-294.3626,-0.6663,28.2898,373.9609,-131.5189,239.1914,-185.9633,89.8054,-281.4744,-24.6726,168.7105,127.0660,665.6526,-99.9706,-268.9645,15.8655,-37.3605,76.5682,-36.1720
-2750.0000,19.7886,-294.6950,-34.5655,-38.4938,380.5607,-164.6889,207.5632,-184.7999,93.0707,-134.2932,-95.3177,105.4030,205.8327,602.2307,51.1899,-83.1853,-52.5469,-81.4637,-28.2936,-70.4042
-2742.1875,-47.9808,-259.1891,-34.6020,-69.4289,384.0596,-127.0306,209.7800,-148.8060,20.1870,48.7331,-169.1097,115.3151,208.4704,609.7069,-20.8291,-83.5838,-84.0938,-44.5413,-61.3071,-33.7935
-2734.3750,-88.7781,-266.7397,-40.6665,-73.4160,381.5563,-95.4475,169.9372,-119.8764,50.2704,76.7064,-137.9439,118.8343,242.0764,611.1776,-172.9658,-127.0745,-53.6636,-47.6077,2.6361,-40.2389
-2726.5625,-26.2056,-275.9450,-48.3611,-9.0477,340.4503,-28.5346,164.4353,-91.6095,42.7030,67.0173,-145.4187,127.0460,163.0562,574.0517,-252.8110,-24.2750,-59.8595,-52.8205,-5.0662,-48.3459
-2718.7500,-83.7727,-265.2987,-107.1909,-29.8198,285.2419,-13.7864,143.7711,-78.4989,130.9789,116.1686,-168.0477,98.7017,142.9163,521.8193,-128.8473,25.3244,-81.1874,-79.8302,43.0846,-71.6159
-2710.9375,-52.0263,-200.3691,-109.7018,-66.3023,286.3864,-51.7647,180.4050,-118.1018,165.5710,1.6149,-132.3772,91.8239,181.1029,490.9064,54.3832,-123.7793,-47.1945,-122.0200,4.5419,-110.6064
-2703.1250,-0.7070,-79.8962,-93.6378,22.7555,233.1339,0.7816,161.5838,-103.1700,71.7194,-94.3912,-153.1477,161.5619,162.8681,478.5640,34.1285,-219.3568,-29.6369,-105.1052,-50.4531,-95.0576
-2695.3125,-21.4749,-67.5318,-79.6549,108.7107,250.8254,15.2071,67.6494,-90.3444,11.7709,-119.5018,-65.0162,187.6759,179.5671,463.1657,-172.2637,-132.0836,-14.1678,-90.0903,-71.5417,-81.6142
-2687.5000,21.5193,-132.4337,-72.9033,153.4039,223.3042,-14.6352,75.4622,-122.7749,18.5829,-4.8548,-59.1331,112.1560,188.0459,292.5452,-164.9435,-53.0864,-5.9310,-44.1064,-63.8740,-39.4298
-2679.6875,-6.1682,-231.0409,-64.8296,57.3904,162.1215,-79.2040,86.5662,-151.9156,63.7201,149.1155,-49.9415,-20.2017,199.8462,125.2196,27.6034,-44.7960,73.6258,-69.2380,49.1067,-67.9588
-2671.8750,66.8709,-231.9521,12.9828,-9.9343,243.6755,-75.0991,165.3495,-186.3693,141.5715,150.7839,-47.0368,-40.8494,243.3805,99.6082,-78.2030,-189.8457,111.9063,-97.2740,50.7941,-101.7961
-2664.0625,4.8823,-118.9170,21.7760,36.6857,256.2132,6.9361,140.0639,-104.8826,76.3667,83.3925,-111.1777,19.3333,217.8944,78.9672,-289.0782,-107.9896,122.1446,-82.9384,24.4342,-93.6844
-2656.2500,-59.9481,-115.7376,-47.2638,78.4464,227.9334,49.0948,72.9132,-64.2538,7.3145,49.1587,-143.1669,-5.2108,225.5931,-18.5224,-246.8358,117.0013,93.5449,-78.7691,29.2358,-89.4256
-2648.4375,-89.5559,-147.3564,-77.0714,50.3961,275.8912,93.4223,154.9577,-22.4366,-95.5281,54.1293,-98.9473,-66.8113,235.5228,-151.8351,-20.4334,122.1698,65.1595,-104.7371,-36.7549,-119.9696
-2640.6250,-98.9981,-194.8181,-49.7070,-28.5047,270.0154,120.8767,184.1278,3.5237,-105.2145,42.2633,-108.5681,-83.7704,265.6225,-117.0020,44.0801,-35.5327,56.9423,-111.1267,24.4093,-130.3652
-2632.8125,-10.8709,-178.7292,42.2374,-78.8642,327.7077,138.8539,203.8222,-16.9720,-87.3405,-89.0417,-54.6330,-74.7910,359.3081,-91.6199,-121.8944,-202.7048,111.2852,-88.6598,7.1326,-113.2116
-2625.0000,-1.6298,-100.5405,87.3107,-33.1390,304.5256,110.9100,67.5962,-9.3747,-78.3541,-9.2364,-81.5937,-76.4773,334.1282,-185.1489,-332.8041,-47.7973,121.7399,-81.2836,15.9637,-104.9596
-2617.1875,-67.7306,-28.6956,93.0571,43.2217,277.0105,116.5965,1.0007,-5.1245,-146.7075,-5.7681,-149.9063,-29.8084,305.6346,-173.0459,-181.1045,30.7467,91.8463,-118.3385,-15.5415,-137.0529
-2609.3750,-51.2620,21.7066,109.3775,96.1132,260.0724,168.8098,18.9388,46.6798,-204.5081,-101.7354,-133.6628,38.0430,324.7281,-112.4228,-201.8787,-175.1870,109.5074,-99.3701,-70.4861,-121.5945
-2601.5625,-17.6788,88.2085,104.8214,96.0871,221.2502,164.1029,-21.0409,39.5844,-172.2106,1.4119,-102.3140,12.1996,322.9542,-219.7197,-389.5806,-71.0481,109.2828,-33.9045,-107.3094,-54.0380
-2593.7500,-34.7818,-1.9858,123.6001,9.3454,171.7489,72.6792,-36.7439,-15.2107,-42.6042,54.8626,-119.6606,-57.2490,345.5125,-192.7416,-223.0293,57.3755,58.3751,-62.3082,-124.8151,-72.1836
-2585.9375,-74.6131,-8.9213,83.6683,5.8378,171.5165,106.4811,-38.2205,16.2456,-156.7502,-24.4281,-122.7481,-42.1293,418.3537,-152.5663,-7.2697,-57.9567,54.7305,-103.8748,-130.0634,-113.0761
-2578.1250,-107.9776,-44.3944,122.2138,8.7582,287.7379,144.7153,0.7193,16.1607,-228.4385,-25.2412,-158.3897,-85.3676,459.6762,-290.9841,-6.0949,-57.8485,57.5324,-90.6474,-58.8476,-112.5122
-2570.3125,-111.6358,-85.1571,157.4840,-63.6435,325.6616,105.6254,37.3378,49.7789,-120.4175,81.6681,-123.3262,-144.6465,496.7356,-358.7287,-81.2365,-134.0627,55.0381,-127.2068,-62.9129,-152.2551
-2562.5000,-93.5312,1.8372,138.5364,-44.3155,237.3425,123.2605,-17.3129,29.1461,-29.6424,133.3421,-179.5007,-126.9795,407.5810,-370.7750,-100.6603,29.4780,4.3073,-118.9762,-80.2094,-135.2476
-2554.6875,-99.5478,63.6906,93.4837,-49.1648,159.8787,114.7096,-60.1442,19.3564,35.9879,123.8830,-187.8123,-146.3526,365.3134,-446.0343,-146.2720,203.8686,-0.5515,-95.3715,-51.6388,-107.3801
-2546.8750,-92.5892,104.5114,61.4188,-40.0888,130.3642,81.0844,-92.0528,22.5180,3.5773,162.3878,-147.1569,-106.1204,410.0329,-361.3996,-214.9512,96.1677,7.5498,-23.7145,-79.1046,-30.5556
-2539.0625,-87.3670,71.6042,29.6341,-69.7850,102.0924,49.6846,-48.7359,-11.0647,8.4292,202.1608,-68.2462,-114.1218,454.0393,-312.5795,-173.3931,25.7070,13.8990,-23.2133,-39.3030,-26.4736
-2531.2500,-24.3833,26.4566,93.6312,-111.7603,59.5626,-34.9958,-20.6884,-96.9010,108.0455,189.7127,32.4215,-212.0624,447.8341,-463.0884,-147.1141,125.0210,7.0009,1.0329,-83.7281,-0.6315
-2523.4375,-18.6841,101.0238,61.3571,-69.0613,-6.2699,6.0050,-123.9685,-57.0282,39.3728,191.9908,-0.2038,-177.2282,455.3640,-451.9651,-180.1670,202.0225,-20.1950,35.8227,-146.4361,39.9256
-2515.6250,-95.7303,55.8575,52.3588,-111.1421,-84.8639,32.2423,-133.0294,-31.8905,-8.0303,106.5474,-10.5746,-190.9807,485.1834,-418.6512,103.0122,116.2485,-28.1424,61.6289,-85.8727,65.7381
-2507.8125,-68.4605,47.0050,81.6949,-116.9532,-88.1637,61.7588,-64.8098,-3.4444,95.8794,60.4261,19.3594,-205.8614,444.3389,-492.1234,-15.5210,-39.2223,72.2158,65.6906,-22.9904,57.8572
-2500.0000,-36.6802,76.6735,42.5639,-83.2895,-87.9770,57.7494,-67.1192,28.5094,165.2885,164.8301,15.8046,-191.7757,407.0291,-526.1915,-349.5786,-44.1625,105.0812,65.9495,44.4097,53.4821
-2492.1875,5.2724,81.5107,12.6245,-111.5123,-40.6555,63.8647,-59.3075,33.6185,98.8555,96.4150,-14.5885,-198.4361,416.9078,-513.1938,-196.5128,-1.9508,43.1037,67.8146,-20.0213,59.2641
-2484.3750,-17.2037,91.9169,-48.7242,-98.2159,-61.7987,75.5155,-45.9724,7.2941,-36.0208,-4.4232,-39.4246,-136.9320,469.3701,-347.7354,35.0805,-28.2060,-14.3217,69.5715,-77.8840,70.6070
-2476.5625,2.7334,74.7420,8.3596,-147.5519,-38.5636,20.5476,-99.2689,-11.6174,-89.4871,-23.8342,54.1495,-169.2991,492.2651,-358.9747,17.0594,26.9338,6.6571,87.4725,-58.3211,89.3606
-2468.7500,85.8922,119.7884,95.6855,-99.7159,-95.1546,-3.2412,-158.3920,0.6824,-186.7418,24.9767,67.9355,-203.4899,398.3860,-523.1143,-6.7732,149.2676,90.8448,68.3147,-81.5345,65.3235
-2460.9375,80.7639,183.5595,90.7403,-68.2100,-170.0720,27.6477,-162.8436,30.6968,-155.2943,17.5203,25.4279,-166.1830,323.2423,-522.6558,-121.9256,179.3264,86.7319,63.7455,-17.0288,58.9986
-2453.1250,91.6500,192.3540,101.8336,-127.7367,-120.0123,0.5083,-114.3262,2.7164,-70.8389,-10.8967,35.9284,-158.3937,374.1354,-469.3169,-186.0909,41.4135,63.6194,73.3654,29.4979,68.6885
-2445.3125,35.2040,168.8266,80.6152,-112.6470,-102.3319,-22.0054,-99.1863,-21.6041,-56.7258,1.3608,50.0907,-182.8096,354.7108,-523.4399,-61.6103,17.1534,44.1603,86.9679,7.6922,82.0437
-2437.5000,-25.7242,175.8322,52.9354,-103.0840,-126.1870,-14.0356,-126.5822,22.5896,-48.1129,8.1357,21.7611,-160.0602,255.8179,-472.1594,55.3636,61.3856,18.2003,92.3955,16.4045,89.9188
-2429.6875,17.2624,146.7687,63.1948,-94.6510,-150.1787,-42.1770,-226.1171,30.7031,-75.5954,-21.1547,68.3444,-158.3597,231.8609,-420.0929,138.2254,32.5199,98.1359,60.7408,-10.9716,61.7117
-2421.8750,86.5076,213.9848,132.7294,-59.9972,-188.9659,-10.0857,-377.4361,61.0887,-80.8221,-100.1467,100.1843,-155.9858,231.1830,-492.9120,58.3274,62.9404,98.3175,128.5505,-46.0734,129.7746
-2414.0625,88.7738,250.2255,208.3065,-57.3901,-220.7875,-9.0214,-484.7802,61.4835,-116.0255,8.8932,102.0364,-200.7169,236.5351,-633.8690,-12.5696,173.3924,65.4963,129.1303,-80.1489,130.8559
-2406.2500,47.5110,276.9376,164.3718,-98.3770,-262.1918,-18.5341,-455.6994,88.3378,-160.7632,109.4192,56.3505,-211.0826,231.3701,-636.5017,50.9895,237.3006,-44.8788,151.0204,-121.7554,158.4062
-2398.4375,-21.4495,274.9797,126.7639,-97.0969,-297.3423,-20.7617,-383.3593,122.5180,-88.2008,69.2901,19.9653,-190.6526,196.5336,-595.9437,158.8485,198.5199,-147.9653,185.6625,-51.0388,193.2803
-2390.6250,14.1922,273.6490,127.7829,-167.2538,-256.9367,-94.3995,-345.4519,84.3252,21.9662,104.8073,92.1850,-254.2348,200.3253,-701.9089,121.2973,86.3599,-41.4567,189.5165,20.3016,192.7717
-2382.8125,61.1549,247.6542,176.1403,-191.1476,-243.2811,-121.7548,-297.2812,57.4530,69.4417,113.6719,102.7136,-288.3008,251.4367,-759.7313,59.0413,58.5260,5.3545,204.7364,99.9626,202.5887
-2375.0000,122.7820,168.3399,242.1873,-268.4354,-211.0223,-167.4837,-230.5001,12.2413,97.5768,31.2279,131.9062,-368.0694,321.2257,-837.0630,122.4364,123.3786,34.8188,200.8490,163.3066,194.0795
-2367.1875,195.3796,133.0054,279.2225,-301.8110,-246.8596,-206.2875,-231.7984,8.9933,96.6664,65.7671,167.0615,-451.7694,249.9899,-981.5889,304.7749,157.2024,2.2308,272.9325,129.6254,265.5472
-2359.3750,123.3306,164.0531,238.6354,-303.8698,-395.4012,-174.7525,-308.7824,40.1191,92.1083,132.6878,90.5695,-448.0115,175.1301,-981.8944,299.4633,299.3963,-34.0122,300.2617,162.3170,297.3905
-2351.5625,96.5839,206.4293,249.3796,-260.6701,-419.6951,-202.9322,-299.4945,85.5690,64.8677,139.9402,100.3800,-398.6407,225.5950,-931.0517,197.4720,233.9152,-59.9616,272.2253,170.3422,269.5517
-2343.7500,95.3995,203.3913,248.7035,-261.9591,-418.4945,-205.5737,-300.6819,45.5966,26.1899,136.7892,134.7417,-412.5613,264.6325,-965.8222,159.0435,231.0209,9.6240,272.2133,203.9355,267.2882
-2335.9375,90.0197,196.1896,280.8525,-302.4872,-457.5513,-249.4308,-269.1105,38.4521,94.3204,129.5007,164.9119,-446.3463,262.4908,-1004.9472,152.4053,296.9643,4.9971,265.4867,234.3617,260.8539
-2328.1250,109.7065,213.0724,299.0813,-283.0148,-511.6204,-233.2480,-287.5294,54.3874,74.5106,110.3074,147.1494,-414.2086,209.4122,-947.1699,205.8170,239.9823,-9.5875,317.1429,182.8684,314.5045
-2320.3125,63.7547,235.3324,249.6927,-224.2463,-595.4001,-210.7332,-374.6275,39.6988,-48.9364,132.5094,133.7535,-343.7017,199.6989,-809.2048,228.5985,225.3756,-20.8280,332.7104,172.7587,337.5320
-2312.5000,57.7172,263.5266,283.2355,-195.6176,-524.3349,-253.3327,-341.8513,-3.0641,-127.4788,161.6566,129.2659,-336.1311,235.8990,-847.5161,259.3008,145.6871,9.8282,293.5982,165.5745,295.4823
-2304.6875,91.6437,259.7279,321.7598,-197.0608,-520.3842,-252.9881,-304.1696,-2.8387,-89.0741,124.8030,128.7371,-371.2752,241.0541,-954.0407,259.9444,145.9914,43.4122,226.3215,199.3439,222.4061
-2296.8750,115.0705,247.4766,385.8121,-243.0395,-419.0020,-265.1523,-204.0238,-15.0857,-27.1598,3.4921,117.7177,-391.7843,269.7213,-999.2250,174.0774,133.8444,33.4785,223.7349,258.6364,210.8584
-2289.0625,84.9664,249.7130,427.3469,-239.6105,-376.2355,-226.8814,-164.4590,-12.8572,-23.7929,5.6717,121.1586,-390.6940,276.8544,-1030.1165,67.6710,136.1708,37.9955,232.0893,227.4029,213.7869
-2281.2500,-15.4688,218.6447,322.5674,-234.5741,-442.8786,-222.9789,-195.2789,28.0433,55.2269,155.5498,17.2636,-376.3100,175.6481,-948.5236,143.9146,214.1679,9.1591,230.8193,267.8470,218.3916
-2273.4375,-11.4358,151.0683,329.2764,-231.1195,-472.1367,-218.6450,-153.6801,-4.5805,169.7142,122.9182,58.8320,-403.1177,147.8965,-940.6719,332.6241,254.6511,-21.2353,194.1505,201.7680,186.4763
-2265.6250,56.9104,182.8409,363.3141,-233.4012,-547.1783,-187.0263,-193.8173,27.1208,19.5137,44.6300,127.7126,-380.3690,147.4355,-905.6947,327.6489,213.4818,47.6572,227.1246,164.0114,218.8979
-2257.8125,65.9631,190.3528,371.0775,-190.0249,-611.5953,-144.7172,-261.2970,32.5529,-46.9775,51.0828,99.3066,-332.0339,121.6725,-823.1683,223.3837,219.0506,57.2373,269.4940,172.9818,262.0540
-2250.0000,41.7770,164.6484,312.6216,-214.9395,-596.3411,-131.6692,-247.0597,44.7681,-33.7115,136.3402,111.6576,-327.8382,65.6616,-771.0657,199.8928,195.4142,69.5519,208.1280,184.7306,201.9890
-2242.1875,63.7958,185.1944,265.3932,-193.6931,-605.9697,-108.4263,-222.6611,68.2106,-45.2331,196.8655,100.2136,-353.7211,-15.1550,-891.9510,187.6135,256.0287,56.0522,163.2083,241.7057,153.1543
-2234.3750,74.5212,159.4857,206.8899,-182.7872,-553.9719,-132.4857,-171.5948,81.3947,4.9521,173.1455,151.4763,-347.8063,-35.2728,-876.3076,200.0368,121.3738,67.2397,105.4439,288.4128,93.0486
-2226.5625,58.8042,178.3662,191.9583,-94.3702,-531.4977,-39.9916,-188.0057,137.1645,-47.3090,119.0042,98.2894,-222.8313,-83.8346,-670.2768,36.0336,68.2937,51.9654,90.0752,272.6955,76.5232
-2218.7500,-6.4505,111.7376,164.5030,-125.5518,-521.6429,2.9384,-180.9884,181.4138,-4.1033,126.3549,69.5661,-209.1571,-73.9525,-550.9698,-30.5017,221.7135,-12.8737,20.7325,277.4545,10.4756
-2210.9375,22.9609,103.7968,197.7238,-168.1281,-489.2200,33.5052,-112.3462,175.3433,64.7692,120.4213,100.5105,-262.2501,-75.4279,-666.1940,37.6277,178.8383,-18.0888,-17.8879,235.8861,-31.8936
-2203.1250,54.1268,168.6589,118.7159,-137.9908,-493.1303,25.8167,-81.9908,205.0530,21.3966,187.2957,58.2182,-211.9212,-114.1593,-597.8462,140.5263,135.7566,-92.5728,5.5537,197.0903,-1.4771
-2195.3125,-4.3478,109.9182,59.0875,-196.5455,-406.7613,-0.5404,-70.3126,179.1370,33.3800,271.5602,33.2869,-207.6357,-134.5312,-475.3249,151.8002,184.0592,-149.7208,12.7283,244.6607,10.3269
-2187.5000,-30.3159,116.7262,66.9853,-153.6295,-398.9780,41.5901,-64.1677,221.7469,-69.1293,277.3662,39.8676,-141.3154,-198.4094,-357.4862,47.5970,189.9093,-175.3785,56.4169,147.7409,53.6655
-2179.6875,-125.3174,161.5396,-68.1421,-144.7855,-459.3317,124.6578,-164.1142,305.3326,-94.6822,362.1515,-22.5901,-98.3711,-256.3502,-272.8773,21.3785,347.7565,-235.1042,21.7262,122.7870,27.9880
-2171.8750,-70.3174,145.3940,-43.2528,-90.9741,-472.7650,146.7253,-178.0934,290.9481,-36.2208,310.9818,0.9603,-78.4989,-303.3008,-249.4392,80.1956,259.6404,-179.8517,-28.8991,72.8563,-22.6589
-2164.0625,-12.8749,165.7414,-18.8989,0.2535,-485.8448,168.2497,-229.6562,313.0582,-50.2999,222.3251,59.9633,-3.2005,-387.8143,-153.7190,29.4821,135.0255,-123.1654,-41.7226,59.3972,-36.8303
-2156.2500,28.1282,170.6897,25.0343,5.0019,-479.4681,135.3277,-260.7058,280.7552,-81.8313,190.2583,29.5305,41.4698,-415.7964,-37.6277,-39.6692,176.0006,-150.9342,-38.6733,136.5171,-31.4224
-2148.4375,35.9001,142.4322,-3.2574,-24.5390,-434.4265,141.1489,-181.0292,250.2321,-37.6101,196.9776,36.8666,1.8971,-368.0481,-104.9601,-33.0490,146.7548,-178.9648,-29.0688,144.4239,-24.2305
-2140.6250,-64.1788,112.3682,-107.3831,-19.9657,-465.3210,182.1210,-176.2307,291.8960,41.7705,275.9135,-31.6446,-17.0377,-469.1719,-137.3119,-28.2579,298.7108,-207.8696,-23.3565,185.5125,-18.8594
-2132.8125,-112.8118,131.8024,-122.0506,35.0272,-444.8509,200.5455,-194.0124,311.0483,61.6078,295.3592,-48.7060,17.4222,-519.8647,-118.3885,-45.9904,244.1778,-187.3442,-2.1925,135.0688,0.9882
-2125.0000,-92.7458,151.9883,-99.0034,54.6976,-458.7710,184.6729,-209.1249,258.9350,84.1510,243.5448,-26.0606,74.5107,-493.8828,14.0643,-23.9928,119.3940,-166.1314,-22.0798,121.3420,-13.4307
-2117.1875,-53.1715,85.7098,-54.4359,22.8230,-378.2711,78.2913,-129.7565,154.3473,89.2187,175.2615,17.0983,52.4947,-448.4215,54.8469,-18.4694,125.1471,-126.4287,-52.8204,127.1493,-44.3214
-2109.3750,-31.2923,70.7709,-67.5481,42.2084,-282.5467,136.2061,-36.1058,175.0977,38.5997,197.3368,-34.4361,47.9448,-422.6854,1.7501,-33.6156,110.2455,-174.4469,-61.2423,77.2724,-58.8870
-2101.5625,-82.3139,89.9811,-157.5471,95.6678,-227.8075,152.2198,-19.3789,228.9845,19.0803,178.5723,-90.8663,40.9444,-437.8749,-92.4191,20.3628,200.5104,-190.3880,-2.2766,97.5050,-4.3184
-2093.7500,-105.8336,29.7438,-144.0347,35.6092,-177.6545,126.7365,66.8166,168.4029,-4.9404,43.3556,-3.7849,33.4887,-348.5923,-7.2553,179.8618,103.3258,-178.8454,-27.7218,74.2498,-28.2124
-2085.9375,-78.2035,57.7070,-112.3710,96.6740,-183.4469,156.4012,60.1376,198.0056,-84.8101,0.3467,-9.5437,121.1456,-388.1944,130.9070,62.5383,-13.6636,-116.1670,-68.8345,-2.8379,-70.9246
-2078.1250,-106.8216,63.4578,-139.9503,137.4582,-176.5814,235.8256,30.1873,279.3952,-39.9184,155.1481,-112.5437,134.1271,-414.0765,99.6688,-114.0088,68.1562,-144.7654,-93.8470,38.8397,-99.8643
-2070.3125,-144.7371,24.9475,-139.8146,97.9103,-141.1028,269.9576,63.9139,276.5232,-5.3181,263.7033,-113.8299,70.9667,-412.2889,-14.0321,-78.8244,102.7293,-111.6817,-127.7802,37.2296,-138.0805
-2062.5000,-134.9981,34.1315,-166.0205,105.9873,-132.0739,277.7580,109.2544,285.3532,-32.0728,199.9604,-141.4579,83.2519,-399.8972,-7.2374,-33.9642,75.0076,-101.9673,-116.3055,47.2914,-128.6139
-2054.6875,-103.4648,-5.8424,-130.4252,99.8414,-63.3391,199.3752,142.3728,209.0291,37.9807,160.0706,-107.2879,45.2724,-363.7513,-49.7893,-0.2687,109.1387,-71.4822,-156.1574,43.1718,-168.3209
-2046.8750,-16.4932,10.6770,-75.3893,150.1255,-83.2384,140.4581,120.9215,151.1990,54.4862,213.6815,-54.6717,56.8925,-380.1970,-36.0371,-21.0934,88.7701,-19.5745,-144.6733,-80.4779,-151.5501
-2039.0625,-38.0332,93.7287,-97.8517,161.8800,-106.7131,115.0541,58.9556,126.9096,30.4983,189.8466,-77.5511,126.5683,-401.1818,83.0762,28.6043,-8.0441,-6.2008,-137.7377,-31.6078,-138.2554
-2031.2500,4.0701,100.4639,-54.6654,97.2502,-65.6186,45.3081,136.6313,58.3047,35.1722,47.7218,-35.7746,95.2307,-356.5597,49.6974,69.9840,-40.1522,0.7980,-94.0879,-24.0706,-96.2893
-2023.4375,11.8661,72.9391,-45.7858,67.2979,-58.9010,51.2779,142.9909,28.4413,6.5495,18.3365,-28.2929,49.6856,-346.2789,-20.1174,3.0868,114.4915,8.4640,-84.7283,-50.8175,-88.5993
-2015.6250,16.2102,42.0064,-38.3538,70.8799,-54.7071,18.8091,147.8878,34.1601,-24.5256,-12.4690,50.7467,34.6954,-264.4849,-17.5092,45.7614,157.7229,-22.3430,-118.5564,-81.0007,-119.3374
-2007.8125,48.9031,74.4625,-43.5731,100.7949,-24.2355,47.6958,140.1232,27.2543,-31.2408,-54.8868,8.1489,81.0933,-267.3743,46.3105,149.8279,-32.6654,-60.8182,-52.9102,-153.8199,-51.7032
-2000.0000,-35.5550,59.8037,-168.9365,50.5367,31.0112,29.4392,195.1983,46.2321,-12.0917,-35.4091,-46.5935,83.0988,-208.4638,98.8302,168.7829,-86.1535,-74.4611,3.8479,-61.7791,4.8033
-1992.1875,-33.4172,-8.2081,-128.7020,-20.1380,140.7732,-7.2050,306.8570,-25.1599,26.6604,-70.2856,-7.7297,5.9381,-131.0078,-13.1923,133.3651,-83.9759,-72.5277,14.3138,11.8683,6.9398
-1984.3750,-29.0858,-39.9792,-158.2725,-52.6271,146.6492,-2.6343,311.6902,-19.3124,33.6096,-26.9075,-0.6581,-17.2854,-158.4059,-11.1402,140.1765,-3.5388,-33.4161,-53.3224,15.7231,-59.6964
-1976.5625,-6.6070,-52.5673,-133.6984,-66.9823,169.5915,20.1067,260.6610,4.7215,130.7139,-39.3364,-50.4278,16.8549,-205.7007,117.9526,127.1681,58.0807,-82.1723,-71.8013,-31.2650,-72.1667
-1968.7500,-19.5329,-64.5135,-183.5205,-81.7462,152.0573,76.4713,244.2227,25.3935,188.4257,-54.1403,-66.5864,25.4852,-182.4490,171.5149,221.7763,-30.6614,-128.3437,-18.4542,-113.6478,-14.0155
-1960.9375,-25.4629,-72.4172,-231.3471,-90.5242,65.4407,62.8571,193.7613,50.1045,102.1376,81.0926,-41.7374,5.1467,-192.2632,155.9626,208.4011,-6.3461,-101.5328,77.1852,-120.0258,84.1608
-1953.1250,-10.2990,-92.1878,-178.0844,-112.2164,4.8456,39.3602,170.3917,27.9455,42.9522,96.4644,9.2179,-25.3270,-212.0378,129.4138,186.1681,119.1022,-51.6448,91.9761,-139.2936,99.4566
-1945.3125,13.8041,-67.9765,-152.8876,-89.9758,-45.8697,-48.1732,118.9756,-58.2309,103.7305,46.8241,70.1289,-34.6121,-258.9131,111.7176,246.9072,180.5357,-27.8336,109.6443,-149.5988,123.7204
-1937.5000,39.6429,-111.9832,-125.9611,-100.9931,15.0967,-96.9337,106.2992,-142.6241,166.2728,-1.0285,58.7925,-49.0726,-231.0896,132.6635,235.4192,169.7621,-2.2981,135.4373,-123.1454,149.7482
-1929.6875,65.7268,-49.6987,-99.7956,-75.7604,38.2524,-110.4218,130.8699,-153.7319,154.0540,-10.5994,84.7111,-36.0279,-204.0776,79.7309,187.2099,12.2873,-45.5321,199.1743,-201.4388,212.0380
-1921.8750,17.8507,43.6680,-188.5891,49.5261,19.3938,-90.8456,76.4831,-133.7675,64.8766,9.9131,31.6875,27.9746,-219.0719,57.7418,170.0855,-40.0947,-59.7250,256.0252,-213.6812,269.3914
-1914.0625,-42.6279,17.4665,-209.9882,57.2107,32.8763,-77.8654,53.4980,-119.3883,6.1179,-85.1530,46.0723,55.7593,-165.7227,141.0624,295.4037,-98.0572,-49.5298,159.8656,-168.5232,174.1544
-1906.2500,-8.6701,-19.2426,-169.9436,18.3486,68.7478,-5.4226,162.9537,-81.5330,6.8163,-156.7408,46.9038,62.4616,-161.9849,174.7474,186.1949,-60.5354,-51.8999,96.0306,-98.9150,102.3803
-1898.4375,-31.9709,-76.1731,-193.1620,-75.7642,152.3005,5.7937,247.1455,-32.8962,129.2544,-70.5370,-13.5044,-15.6644,-147.5613,71.0950,51.7493,63.7988,-74.5327,116.2153,-50.5592,115.3662
-1890.6250,-41.2679,-84.0777,-203.3890,-86.8749,139.7838,30.0398,198.3340,-43.2263,154.6800,-8.3062,12.0991,-43.1190,-194.2048,18.3574,114.3260,-20.8309,-49.1801,141.9494,-94.2014,141.3628
-1882.8125,-22.4713,4.1478,-183.5242,-34.8880,82.3006,47.4178,104.6133,-24.4226,-9.7985,-60.9442,30.8078,30.0788,-173.8151,104.6632,133.0178,-73.3356,-30.7440,156.2534,-144.7519,160.4743
-1875.0000,15.7594,-27.1454,-139.2283,-33.4428,123.2008,-20.7193,110.3325,-91.1294,-76.8255,-55.1039,110.9697,24.3188,-91.0486,143.3809,29.1800,80.6355,-26.8758,85.8362,-140.8600,94.0480
-1867.1875,71.1276,-6.2578,-117.8095,-14.8413,141.1823,-74.6781,166.1922,-106.6508,16.2869,39.9140,57.2810,26.5549,-143.2100,121.1838,-23.4681,64.8051,-77.8708,105.9419,-154.8186,114.7868
-1859.3750,-30.1674,-36.9909,-186.0614,-82.8864,106.4464,-108.2543,205.3970,-102.7913,203.7457,44.3043,23.9529,-6.9139,-175.0922,119.2646,16.2685,69.3682,-74.5332,109.7488,-45.4219,118.8857
-1851.5625,22.2245,-89.0173,-131.6301,-103.2376,120.3612,-93.1003,183.3060,-123.1969,182.9131,-48.5755,77.3286,-40.3538,-157.3376,92.9978,106.7243,49.6553,-23.5159,129.2215,-63.3274,135.6866
-1843.7500,44.3516,-66.2745,-106.4756,-11.8338,68.9808,-106.1628,95.9722,-134.8235,59.8337,-59.6811,102.4527,7.3240,-167.8945,149.4411,131.9473,75.7259,34.2303,113.5998,-144.4876,124.2375
-1835.9375,3.7662,-71.2070,-107.0463,16.8752,63.8515,-73.8966,92.9450,-101.1228,95.0476,-24.4494,63.8737,33.4121,-95.2187,177.1394,56.4854,1.1388,28.2548,40.7662,-78.3580,49.0973
-1828.1250,57.0663,-88.2100,-50.7491,32.4967,153.5690,-55.7028,183.8076,-81.4896,150.1565,-115.2716,46.1891,67.7666,-74.7207,227.6917,-72.0563,-126.5051,46.1636,31.5071,-95.3449,31.8708
-1820.3125,39.1912,-105.3405,-67.6296,12.9866,207.0831,-74.6331,164.5159,-98.9845,59.1114,-168.2169,65.3581,46.1916,-54.4534,204.0656,-15.7345,-69.2474,97.9118,15.8016,-78.4907,14.4969
-1812.5000,69.5971,-108.1502,3.7648,41.7883,274.8527,-41.2331,197.5320,-138.1583,-17.6228,-242.8360,61.8302,61.0361,-19.9561,195.7041,-55.1005,-33.6663,92.9492,-18.6350,-82.3433,-24.5836
-1804.6875,22.3874,-84.5440,-44.4671,99.0066,222.9915,18.5936,220.9645,-75.9081,7.0419,-182.0344,-23.2912,101.7752,-31.1176,213.7072,-104.0433,-81.6788,80.3725,-28.5204,-93.8034,-36.2680
-1796.8750,-1.7319,-107.8162,-69.6115,108.3382,231.1957,28.5464,193.5088,-27.5397,17.8000,-170.1337,-86.2995,114.9780,-92.2433,255.7704,-18.8687,-69.5755,20.8962,-17.3414,-47.1694,-24.8507
-1789.0625,-25.0015,-95.2196,-91.9172,118.5362,168.2083,78.3820,131.8986,-14.3053,-42.6043,-192.3792,1.5534,138.8801,-114.6003,300.6584,68.1709,-165.5977,32.2725,-42.9620,-33.6972,-47.5805
-1781.2500,17.9103,-16.4045,-83.0496,159.9563,137.3628,48.4598,64.4818,-41.8390,-144.8166,-255.4011,9.6027,157.5281,-105.8416,265.7424,39.4259,-82.3955,74.8453,-36.5357,-25.0370,-39.1153
-1773.4375,155.9095,16.5308,62.8896,155.4984,167.5759,-29.3204,97.1661,-118.2425,-147.9417,-294.3014,79.7671,120.6089,-71.0492,146.9143,-73.2171,-121.0901,212.5176,-32.7756,-63.2946,-41.5610
-1765.6250,268.2466,59.8327,142.1544,126.4150,97.1043,-60.7074,28.2108,-149.2652,-178.7407,-324.8495,159.2813,101.8313,-101.9762,109.4296,-213.5001,-77.4201,289.5299,8.4921,-124.2160,1.3362
-1757.8125,227.1129,54.6990,98.9352,117.9101,13.1527,-32.5018,-91.1846,-82.7208,-187.0037,-220.8478,114.3442,123.3822,-145.4236,206.4955,-221.2175,26.8315,213.0817,29.2844,-130.5994,30.7778
-1750.0000,158.8614,58.4785,67.5848,155.3307,51.0648,-28.3610,-88.6661,-77.2525,-219.3660,-214.9323,119.3050,141.8269,-104.0500,204.4620,-70.0247,-151.9907,215.5231,-0.5366,-92.0997,-0.8876
-1742.1875,151.2912,51.9732,58.9020,181.4700,149.6421,-112.4889,11.5549,-159.0732,-155.0325,-186.2893,73.9710,93.1784,-76.0476,42.1334,-79.1191,-159.0806,171.6615,34.2980,6.0779,27.1385
-1734.3750,90.5120,-42.7153,33.9965,83.4355,230.9966,-175.7864,94.5853,-184.0771,-34.9130,-64.8288,11.4522,4.0962,-27.3064,-25.4029,-104.4183,-36.3600,110.5961,10.2277,52.0314,1.9540
-1726.5625,62.0795,-35.0318,2.4163,88.7805,232.6870,-97.7082,98.9781,-141.7318,-66.4629,-59.0267,16.2933,41.0416,14.7227,46.4296,-98.3587,-140.2929,46.8764,50.5776,-11.6874,44.1142
-1718.7500,81.8736,-14.0934,23.0554,107.4051,249.6137,-78.3513,43.6326,-121.1241,-119.7725,-146.9662,73.3848,74.5221,70.9346,97.5453,-114.0273,-265.9783,66.3939,70.7020,-60.1698,64.5165
-1710.9375,93.6411,33.8499,37.6570,48.0575,223.5258,-64.9527,56.3038,-143.4957,-106.0876,-205.8937,87.4701,48.3395,121.0688,31.6686,-27.6817,-360.6353,77.8967,47.9845,-48.6693,41.9072
-1703.1250,62.9812,39.4074,-29.1847,86.3378,190.0089,14.0869,61.5911,-63.2486,-136.8063,-198.2080,20.1554,55.9137,17.7323,-4.5971,-20.7357,-205.6550,81.9877,21.3623,-43.5880,11.8880
-1695.3125,58.0997,-34.2303,-31.2675,10.4459,258.2753,10.9630,93.6943,-28.1845,-67.7300,-164.7075,-19.3565,-2.3533,14.1243,-50.0333,-96.9796,-60.8667,76.8701,-11.7809,93.2799,-27.3433
-1687.5000,51.9486,-74.1117,-1.6313,3.3428,284.2683,2.6326,121.5590,-35.3514,-1.9181,-60.4560,-64.1210,-17.3948,7.1905,-62.6638,-104.4733,-177.3381,35.5044,20.2646,87.8713,2.1575
-1679.6875,-50.5626,0.6681,-106.3669,75.9322,173.8962,42.9946,87.0921,42.1409,1.5238,54.4326,-133.2242,54.3817,10.8338,8.4026,-100.3307,-245.1643,-67.2030,16.7385,57.0876,6.2915
-1671.8750,-83.5824,37.9491,-143.6227,76.0554,134.0051,41.8972,49.1305,43.1471,0.4472,128.8162,-132.8110,71.7123,-26.0973,39.0022,-26.6892,-281.4718,-100.4036,47.7835,58.7726,42.9096
-1664.0625,-115.7678,43.0844,-212.0639,79.0602,60.9474,82.6952,15.0255,84.0248,78.1988,134.0520,-165.5499,86.3349,-96.2516,74.5014,14.8088,-275.9076,-132.7643,49.0288,98.2799,47.3616
-1656.2500,-128.9721,-74.7835,-224.5404,-4.9018,81.8873,69.5390,37.9396,71.9159,211.9439,85.2777,-178.2869,-2.8409,-72.4703,19.0621,2.3205,-67.3610,-181.1341,37.3230,155.7591,34.8007
-1648.4375,-126.1531,-140.5983,-221.0103,-37.7763,155.8687,-0.5289,112.9193,2.8695,288.7320,89.5501,-137.9761,-59.6548,-32.7069,-20.2619,42.8910,48.2284,-213.4553,37.9407,89.2632,38.2719
-1640.6250,-155.6574,-98.7115,-214.8162,-32.9127,158.5474,-31.8622,154.6185,-27.4691,257.2163,23.5292,-131.9679,-13.7195,45.6893,54.1674,86.1574,-128.4712,-138.0739,44.9653,130.4411,44.4204
-1632.8125,10.1195,-106.5190,-78.3574,-78.7053,254.5227,-79.8557,216.6351,-110.5032,245.9898,-169.1964,-33.6611,-45.1908,107.3163,0.9590,38.7242,-247.8677,-42.3921,79.1608,121.8898,70.8467
-1625.0000,25.3731,-158.8263,-60.4355,7.0454,231.9989,-99.3106,122.1678,-93.0271,152.2506,-41.4291,-52.8575,-50.8385,51.3776,-23.6851,-90.2111,-45.7598,-27.2142,60.6208,102.8148,51.7561
-1617.1875,-48.3449,-196.0899,-62.5022,72.8810,190.5341,-26.6743,82.7735,-56.4932,187.5470,142.3823,-127.0047,-25.7094,-23.5661,6.7913,-128.0970,28.3958,-134.9876,21.3912,134.7640,13.6925
-1609.3750,-123.3335,-166.6057,-103.8606,-38.5004,181.8234,3.7581,113.1456,12.7989,218.5717,211.9416,-168.4019,-48.5530,-29.8246,-3.8998,13.7590,-123.6931,-141.0108,16.8380,164.4339,8.3562
-1601.5625,-141.2896,-112.0712,-159.2033,-91.7872,160.1722,96.2826,93.5803,68.1518,236.6284,120.5473,-186.7496,3.1917,-49.1010,119.5330,-4.3481,-175.7321,-122.9799,32.6225,148.1200,27.0460
-1593.7500,-134.9162,-139.1869,-112.2339,-49.6783,57.8790,143.1995,-6.6176,153.8578,210.0287,95.4914,-140.7475,75.4293,-113.0936,309.3938,-104.0990,-128.4333,-46.5977,-33.3006,120.1261,-35.9382
-1585.9375,-54.4145,-92.1617,-101.1540,65.6257,-44.2599,192.3078,-106.6416,165.7223,147.5746,71.5713,-128.6009,103.1913,-175.9952,279.4994,-91.7080,69.0086,-72.0685,-65.1994,-9.7458,-60.7909
-1578.1250,-61.5360,-61.7443,-71.7107,94.3740,-17.9895,111.8599,-78.2540,85.9899,65.5070,102.0352,-99.0496,42.1182,-73.5519,83.1020,-98.9267,209.8377,-79.1320,-33.9839,-15.2511,-31.2714
-1570.3125,-8.4237,-78.0748,-15.0548,76.4202,71.5412,57.7053,-59.6050,-4.4872,84.6671,48.7390,-42.2484,0.3977,-19.9173,-11.9617,-115.9067,9.9100,79.0578,-43.0177,2.4592,-48.5274
-1562.5000,73.1199,-65.9639,36.0150,86.9513,83.5394,36.0377,-46.4852,-25.5119,25.2564,-9.1166,-27.9920,14.5317,-42.8848,-2.4874,-100.4508,-47.5665,160.6992,-98.2230,48.5934,-107.3617
-1554.6875,93.6497,-77.8642,100.0540,37.5268,143.5579,25.4121,-20.3429,-34.5337,-22.1780,-54.9891,36.2666,-0.9036,-16.9097,20.0832,-73.9972,90.9468,111.3439,-185.7487,-35.3122,-191.2197
-1546.8750,124.0095,24.0853,93.9016,104.0015,171.4381,93.6872,-27.3426,-2.6983,-65.7888,-60.0245,30.3707,54.5188,12.8524,9.6075,-189.7033,50.2963,1.8433,-157.4612,-180.3996,-160.2549
-1539.0625,11.1960,53.8769,10.5623,167.3727,122.1861,120.8557,-38.4793,61.9942,-75.5601,-32.2192,-16.6756,83.7006,38.4113,-4.9114,-162.5844,4.4852,-40.8054,-92.6929,-151.6724,-96.4710
-1531.2500,-66.4906,-23.1901,-33.6756,159.9442,75.1070,114.2171,-9.4414,18.8387,-83.1924,-1.2745,-59.5803,62.7100,-6.9359,20.8325,51.6699,35.8163,-13.3093,-100.5104,-87.8273,-103.5648
-1523.4375,-63.0643,-88.1193,-64.8145,128.7057,78.2036,120.7721,32.7723,62.8357,-41.6812,42.8096,-127.3465,32.5198,-39.1829,22.8231,58.0834,153.2933,-9.6633,-129.9519,-83.8564,-134.5436
-1515.6250,-66.7522,-90.1644,-66.0848,90.4044,74.2352,120.2669,30.9195,25.7271,-6.2729,78.7633,-128.2122,28.0762,-4.5784,53.8014,-16.6067,153.6500,22.8980,-170.5590,-87.0171,-172.6497
-1507.8125,-45.0543,39.1742,-7.9902,112.5408,56.6993,143.1973,-21.5076,85.0083,-21.4792,66.0897,-105.6741,79.3361,-20.6131,36.2970,-103.9202,-43.6145,79.8714,-144.7700,-99.8060,-150.3835
-1500.0000,-20.9734,99.8962,-18.5259,137.1192,-30.4022,170.5641,-142.5119,112.6835,-105.3111,92.7966,-79.7353,121.5165,-106.2855,95.3199,-150.8608,21.5114,69.2465,-161.5802,-110.2301,-160.7486
-1492.1875,18.1342,69.6601,21.9478,140.8025,-66.4241,175.0256,-176.4462,117.4150,-213.1250,97.5422,-75.7527,136.8982,-140.9582,169.5000,-109.7701,99.6740,37.6751,-160.4817,-106.6418,-157.0940
-1484.3750,-39.2898,14.9140,-37.1202,120.0352,-127.9240,226.0341,-199.8695,169.6543,-162.4491,186.7858,-134.2777,145.3473,-200.1849,253.2957,-95.1960,115.3171,-54.3975,-149.4424,-57.5890,-142.9675
-1476.5625,-97.2854,28.6021,-98.7806,96.7661,-154.9442,203.5378,-150.8213,183.3417,-40.3157,126.4595,-195.3579,142.8836,-153.0118,262.6570,-46.1752,129.3926,-112.0224,-140.2202,-45.1193,-130.4247
-1468.7500,-107.7509,19.8214,-110.9283,52.0853,-95.3898,192.6296,-53.2005,135.5739,21.3567,79.6640,-169.8886,83.4916,-129.3322,137.6750,53.3888,120.0198,-122.0903,-111.1139,-20.1316,-105.3606
-1460.9375,-162.8842,1.3740,-167.7608,33.7949,-155.4535,173.1072,-37.2128,117.1524,74.3548,207.2044,-226.0678,58.0361,-114.3425,114.1690,-3.7219,210.9767,-105.7954,-95.9145,66.1723,-88.9734
-1453.1250,-203.1801,-36.2285,-169.7724,-5.5890,-121.6402,173.4755,-38.3643,153.5743,109.1763,280.5814,-227.3983,74.6685,-80.5475,220.6494,-114.0061,211.7409,-110.6359,-172.0842,97.2793,-163.7658
-1445.3125,-187.1380,15.5139,-150.4627,116.4334,-105.4483,230.2267,-56.1548,210.3390,-55.6709,227.2790,-207.3801,171.3681,-62.4417,311.6053,-131.9644,121.8315,-95.1155,-225.9962,-27.3029,-218.2338
-1437.5000,-136.9592,67.3881,-63.0365,167.6533,-57.0663,172.1590,-79.7739,152.2413,-152.3762,132.0919,-119.2147,177.9600,-50.2169,248.8369,-6.7904,27.0467,-79.4350,-174.4338,-82.7681,-167.5827
-1429.6875,-96.6050,74.4395,-24.4479,103.1161,-56.4437,65.3291,-114.1724,45.3374,-76.9021,209.0843,-79.8606,125.8540,-49.8265,212.3903,69.5760,30.4504,-108.5523,-107.1727,-113.0630,-91.7593
-1421.8750,-80.4754,93.2713,-46.1005,86.4174,-116.9760,45.3321,-135.7469,25.2267,12.3592,189.8591,-63.7106,151.8285,-71.6691,299.8623,-61.2659,47.6377,-126.8675,-60.2263,-95.5881,-39.1678
-1414.0625,-63.3653,40.0915,9.2113,33.7617,-137.4608,65.3802,-117.2965,45.1135,29.6010,61.6016,-7.5635,172.2052,-55.5381,426.4586,-116.1426,-42.2103,-145.1757,-77.4921,-79.1460,-57.6109
-1406.2500,-74.8756,30.2985,-2.1097,58.5510,-150.5028,128.8674,-165.4228,109.3959,-17.7817,51.7139,-18.0212,161.4285,-68.0337,376.5899,-89.6518,21.3162,-121.0780,-85.9043,-125.3339,-68.6861
-1398.4375,-148.6529,-5.7699,-41.7134,57.1344,-154.7438,128.1387,-130.7766,108.4191,15.5724,13.5489,-56.7342,134.6269,-34.7972,335.5943,-54.4329,168.5699,-123.2212,-86.2731,-56.8062,-71.0475
-1390.6250,-187.9948,-8.4042,-45.8936,19.2134,-197.4850,125.8950,-97.6601,68.8844,85.3537,10.8082,-23.0010,132.8699,-77.1369,367.1589,15.2314,92.2329,-90.8993,-91.6199,-25.8642,-74.9893
-1382.8125,-149.8521,-3.5597,-42.6044,58.8326,-195.6840,131.1813,-94.0322,73.8367,14.6156,52.5328,-55.7687,153.9663,-110.9945,369.3523,56.3931,-12.6267,-123.0564,-85.7621,12.5486,-71.4697
-1375.0000,-182.8597,-34.8792,-36.4804,27.3487,-116.9867,102.3462,-51.5318,81.6212,-16.2729,133.0646,-85.6803,127.2948,3.9733,337.5165,-47.6525,-5.6486,-84.3464,-148.6481,50.7714,-139.1311
-1367.1875,-148.5761,1.0933,-0.0806,98.2135,-44.9555,104.8450,23.2775,82.6977,-52.8828,134.8748,-85.2995,161.5060,39.2086,300.1036,-230.4260,-113.3962,-14.3241,-176.2312,14.2534,-175.5136
-1359.3750,-139.7619,-23.4001,47.8304,108.6692,1.6646,80.9235,33.6458,58.3119,-115.9710,73.2249,-36.3799,119.9664,48.9750,199.3755,-144.6427,-27.6393,30.2604,-197.3648,23.2561,-201.3743
-1351.5625,-47.4094,-70.3632,107.2650,97.7220,22.8861,-4.4191,20.5846,-64.5362,-129.5254,24.0992,61.0862,58.9991,70.2741,148.3201,25.6584,106.6376,18.4106,-182.8688,-95.2238,-178.7168
-1343.7500,-52.0173,32.7048,100.7247,129.8651,-58.7894,-8.6863,-59.4017,-69.3500,-173.0410,55.9906,92.5954,130.2083,62.6119,251.4188,-90.0259,102.9580,14.6237,-161.6915,-170.6813,-148.0397
-1335.9375,-36.0343,50.3546,118.7646,76.6447,-78.8107,11.6715,-77.7706,-86.5792,-117.9666,38.4459,147.6984,137.2436,79.5368,306.2338,-72.1216,11.8452,31.4504,-184.0614,-153.5687,-166.7880
-1328.1250,40.4805,22.5377,122.3256,84.0152,-76.2374,-19.3908,-36.5786,-80.2722,-77.3582,6.4130,226.3428,85.1236,118.9980,199.7315,6.3265,-19.7648,37.8458,-142.1764,-218.9270,-126.0175
-1320.3125,36.2326,19.9516,117.1137,47.6770,-45.3555,-59.1803,-77.1128,-83.7279,-119.5061,-33.3988,259.2262,22.6739,186.7024,83.5933,39.0003,87.8409,70.5035,-109.2031,-221.0580,-94.0299
-1312.5000,86.1737,35.5438,205.0726,63.5768,-32.2179,-78.7393,-99.4191,-104.9958,-179.4592,-129.0349,274.2991,40.0138,199.6021,97.7694,90.8504,-6.3908,120.3637,-92.4531,-243.0173,-79.8662
-1304.6875,90.9957,42.0129,209.9017,105.4014,-64.1258,-35.3743,-167.8073,-98.3775,-210.5224,-122.7929,280.2641,99.3145,92.3969,213.9653,-13.4246,36.2617,161.1249,-88.7812,-238.0986,-74.8235
-1296.8750,57.1135,-24.2301,173.0094,109.5532,-101.6788,4.3100,-166.8780,-59.4696,-246.2917,-47.2769,244.5281,113.3040,92.4766,288.5604,-49.4325,2.1977,129.1978,-49.5605,-164.9089,-37.5092
-1289.0625,23.0222,-21.6874,99.8945,112.5445,-101.3939,44.8263,-128.1411,-19.7704,-282.2761,-44.9885,246.5856,109.7782,128.3409,253.0715,99.3443,-178.0963,95.0805,-46.5809,-163.9494,-36.4244
-1281.2500,-21.9302,4.9888,53.9091,139.7216,-185.9116,74.5208,-100.2460,-27.9329,-329.1316,-90.5882,237.7873,148.0930,81.3502,316.8484,53.2683,33.7267,86.1239,-60.0327,-139.8646,-46.2173
-1273.4375,51.1594,9.6971,129.9563,109.9823,-183.3252,6.2909,-133.2827,-97.0548,-288.9550,-123.1692,242.0318,105.3433,83.4118,247.7924,-198.8081,295.5575,196.2341,-54.7944,-101.7512,-42.9848
-1265.6250,97.3424,22.4887,176.0840,87.3766,-173.5877,-54.8095,-159.2048,-158.0816,-205.6795,-38.6689,216.3619,58.1197,17.5592,147.9491,-188.8413,270.4589,208.4505,-8.7198,-124.5578,3.3248
-1257.8125,5.9588,-32.2859,117.6317,68.2498,-122.3481,-36.4387,-106.6624,-105.6748,-189.9655,-21.7482,196.1320,61.8649,69.1556,200.6675,83.5970,29.7737,117.1195,-30.0326,-111.9442,-17.9412
-1250.0000,-13.1325,-85.7795,98.4552,87.4483,-67.7556,20.2489,-50.8053,-85.9873,-208.9733,-149.5599,215.1967,87.1834,159.0454,256.8044,213.3451,-244.6359,135.0957,-42.9200,-96.0549,-36.9273
-1242.1875,6.8707,-63.1941,120.3570,109.7724,-83.0045,82.0503,-64.8360,-25.2137,-297.8925,-163.2941,237.3495,97.2825,180.0318,206.1599,-58.8492,-183.9528,191.1840,-48.7622,-40.0804,-51.8389
-1234.3750,-1.8280,-35.3264,188.5450,103.4241,-51.8956,80.1753,-105.5561,7.8451,-339.5270,-204.7553,270.7976,118.7150,174.3191,238.9350,-210.7977,-78.0049,183.5798,-127.3376,-83.8316,-130.4720
-1226.5625,29.0695,67.1325,218.3131,171.7035,-23.1395,111.9199,-75.6728,-34.5024,-383.5791,-430.6343,190.8337,201.1675,128.2019,306.4288,3.8245,-121.4910,110.5763,-65.0138,-193.0101,-64.5209
-1218.7500,-69.7489,39.8659,113.3567,110.3036,19.9622,83.9813,-68.4806,-63.5617,-341.3225,-460.2288,161.1562,170.7866,207.3836,314.3375,83.7351,-76.7089,117.8755,-61.4829,-117.9057,-58.2903
-1210.9375,-82.8293,-6.6761,102.1225,134.6805,8.8593,75.8156,-5.5265,-72.8796,-206.2996,-323.0966,187.2108,136.5079,231.3112,232.1046,-73.6199,-123.2087,140.9265,-105.3103,-95.0680,-106.3298
-1203.1250,-83.9218,-6.2294,100.8683,136.0816,7.8047,114.6629,-5.5623,-72.2111,-170.2840,-285.9958,151.2577,154.9671,229.2427,268.9771,-73.9798,-195.7413,175.9818,-105.2541,-61.2507,-107.3894
-1195.3125,-114.2111,-69.9977,70.4021,73.3058,14.6093,87.3178,39.2032,-100.7604,-126.4872,-278.1225,122.0926,126.3277,234.9788,314.7639,43.4511,-151.5146,181.8407,-138.0118,-21.6567,-137.6611
-1187.5000,-94.8047,-119.0777,54.6279,95.2507,-0.8357,147.6785,134.6647,-41.6246,-105.0048,-256.5616,107.6184,96.2288,181.4160,227.3578,102.5377,-165.5981,97.4023,-148.1700,-72.3784,-153.2446
-1179.6875,-125.1935,-77.9757,-50.9523,102.4087,3.9673,192.2491,103.3272,1.6979,-174.3231,-177.8188,76.3402,129.8898,185.0528,271.2465,-3.2179,-159.4946,103.1670,-145.5399,-67.9174,-148.6492
-1171.8750,-109.7711,-26.0745,-35.7353,120.3920,19.6204,136.6269,83.7922,-54.1943,-232.8427,-161.3145,92.8600,150.4570,126.4930,289.0298,49.8068,-142.6475,189.7404,-132.6752,-87.6817,-133.2716
-1164.0625,-96.0481,-10.8812,-59.2247,101.7027,-3.3730,43.3108,24.5591,-149.8056,-182.0672,-146.5403,70.6694,107.5008,65.2411,232.2092,138.1116,19.4550,240.6219,-125.8072,-74.1628,-119.6071
-1156.2500,-83.8232,-32.2061,-45.2188,46.5326,11.1838,23.4964,76.8279,-170.9309,-20.7985,-205.2829,48.9655,89.6490,152.4989,247.9792,-32.1135,35.0376,219.0080,-148.7898,-62.1551,-142.4576
-1148.4375,-112.5058,-59.4478,-39.1274,90.4699,127.8876,106.7912,157.1988,-125.9694,-51.4270,-306.9409,19.3451,124.7920,230.8684,256.9343,-209.2401,-67.2949,226.4914,-129.6980,-56.0606,-136.2250
-1140.6250,-216.4873,-91.0093,-113.3454,60.1140,128.3503,109.7870,122.2756,-124.3242,-14.3477,-231.9209,-15.5836,78.2153,193.9547,186.6726,-97.6789,-28.9533,264.6725,-90.6682,50.7224,-99.3077
-1132.8125,-200.5646,-108.6839,-95.6733,43.6697,183.7698,56.6812,177.2560,-178.7888,40.6466,-178.0156,-33.6298,45.7137,136.9534,133.3941,67.7576,-120.7501,246.7531,-109.6855,31.3936,-118.5019
-1125.0000,-228.2881,-100.0262,-195.6578,88.5843,195.5906,106.9253,152.5880,-128.9184,-21.9948,-128.7758,-132.3414,106.4952,146.3139,257.5487,42.5146,-35.2245,185.1851,-179.2143,-31.5861,-181.3543
-1117.1875,-264.4026,-99.7883,-234.0468,90.1074,231.0708,182.7652,226.5256,-55.4658,-60.0395,-165.9651,-132.4593,139.6674,108.2882,296.3810,4.8596,-35.1173,79.2153,-175.7494,38.0241,-182.6164
-1109.3750,-181.2144,-86.2585,-222.1510,69.9417,280.8987,160.9001,275.7605,-41.7303,-10.7975,-189.8706,-82.2876,68.8176,119.5774,90.5924,54.4969,-205.7240,127.5437,-154.5857,49.9223,-170.5829
-1101.5625,-142.4228,-81.1399,-146.6617,76.3783,247.3817,129.6215,205.5923,-74.4157,-8.9447,-150.1914,-42.5265,81.1224,83.4898,132.4802,-53.2843,-201.7559,132.4731,-118.9435,17.4131,-131.9530
-1093.7500,-132.2711,-69.6839,-134.8218,54.1717,223.2636,70.6882,107.7723,-97.7654,-33.7394,-174.1819,-30.4199,99.3805,94.7705,257.7863,32.2649,-5.4908,73.7663,-159.2664,-77.7502,-156.9768
-1085.9375,-131.7056,-66.8405,-173.5814,22.3736,184.5933,71.1521,107.3530,-135.7299,-72.1274,-138.8035,-30.9187,67.7030,54.4621,222.5650,178.1832,67.1292,40.4645,-92.8431,-112.5058,-85.6003
-1078.1250,-56.2258,-26.1129,-134.4434,-4.5214,150.8706,39.5047,72.8299,-130.8127,40.4001,-98.5586,8.4770,60.3465,-17.9270,191.3061,-41.0053,-3.3755,117.0632,-14.5833,-72.3603,-10.3296
-1070.3125,-6.0841,25.2536,-120.6564,47.2324,128.8454,56.4954,51.9567,-115.2627,-19.4167,-156.6799,60.5060,137.0301,-41.6494,281.7574,-172.5418,-244.2498,167.3050,2.3870,-58.5730,3.5907
-1062.5000,-47.7407,125.8096,-163.6696,149.1764,124.0713,126.6694,10.2788,-47.5297,-135.0231,-198.6124,-18.2778,227.0324,-11.1429,316.4701,-140.8835,-396.9587,162.7433,-1.3925,-64.5851,-2.2881
-1054.6875,-59.6824,44.0535,-173.9769,68.8181,189.0489,83.5311,75.2970,-55.1118,-33.9280,-206.8615,-63.3730,112.2548,-20.9132,162.9430,-40.5511,-111.9957,186.8789,-81.4961,-41.9015,-85.4632
-1046.8750,14.5322,49.4298,-134.1336,5.6077,268.2217,53.5347,117.4544,-86.5534,-29.6748,-201.9589,-21.3359,50.1589,-17.5160,60.6210,36.9001,-32.8895,157.1552,-78.4901,-109.0619,-81.4821
-1039.0625,-7.7483,28.2834,-158.7910,20.8804,279.9447,68.0197,92.1061,-37.5100,-55.8991,-227.5558,-46.8107,111.4692,29.4049,221.8493,84.8423,-204.2953,99.9233,-33.4262,-96.7136,-33.9992
-1031.2500,-38.6657,-72.5239,-192.0982,-43.5146,248.0597,110.8388,171.1091,4.8689,-14.7535,-148.8088,-78.9590,77.4616,32.6964,266.4753,126.1456,-162.3818,105.0327,-28.2071,-93.0092,-30.1634
-1023.4375,-11.2262,-78.9837,-198.0538,-47.5745,243.5708,70.9955,202.4516,0.5882,163.7557,65.2684,-46.7722,-11.2975,-47.6405,43.5123,-173.2120,52.8526,134.4835,-65.9118,-29.9507,-72.9765
-1015.6250,92.3285,-80.3421,-54.9072,-83.5358,242.2306,35.2424,127.8825,-37.6022,234.3756,27.4230,25.4992,-26.1091,-13.8557,44.7071,-285.4991,-59.8339,203.0174,-67.6419,-32.7979,-75.6798
-1007.8125,153.3882,-88.2092,5.7348,-55.0032,230.4237,61.9708,78.7940,-49.3016,111.5037,-94.9279,13.2556,20.2719,-27.5523,146.4416,-78.2835,-218.0245,124.0383,-9.2677,-78.1381,-14.8720
-1000.0000,80.7178,-123.8466,-71.3697,-54.2402,228.9064,23.9215,76.9463,-50.7720,71.9062,-61.0259,-26.7460,-10.5912,5.0273,109.4625,-7.8036,-109.9926,88.2981,22.3659,-45.2172,18.1939
-992.1875,142.0681,-96.4923,-9.4620,-59.4977,292.4325,-56.1523,177.0928,-96.2586,98.3343,-70.1235,0.2406,-83.9660,-6.3703,-116.4749,-18.3356,-83.0023,80.5504,56.1924,-54.2875,44.2691
-984.3750,137.4358,-29.1421,-51.5459,42.2304,176.9930,-60.2519,98.2171,-101.7613,91.7923,-3.2239,31.2074,-42.0451,-122.7449,-119.3700,-23.8978,-52.0296,111.7942,80.6197,-94.3405,74.3585
-976.5625,167.5193,-34.0941,-21.9266,74.6478,98.2931,-101.6765,18.0239,-107.5780,121.9714,27.3758,25.8598,-21.2907,-93.3988,-48.5431,-29.7722,-21.3567,71.7265,102.7711,-99.6887,104.1609
-968.7500,145.8589,-54.8048,-9.0605,55.3000,112.8752,-85.8762,-3.9365,-129.1536,172.4195,41.2392,3.7410,-29.8222,-80.7881,-31.4460,-16.3837,-7.4322,50.8901,113.8431,-121.7727,117.2246
-960.9375,69.0636,-24.6803,-56.3420,51.7755,67.3471,-55.2473,-12.0486,-63.8908,199.7386,69.9450,-78.5405,-20.1420,-54.3004,-37.4690,-63.1273,57.3107,-59.1112,176.5510,-92.9943,181.1515
-953.1250,98.9918,6.1307,-99.9162,13.9198,135.5585,-59.9444,18.5292,3.0610,155.7879,100.3526,-85.1307,-46.8535,-25.0851,-113.7759,40.8096,-22.2690,-134.4240,207.4910,-98.4981,210.7970
-945.3125,83.9351,-43.0692,-152.4839,1.0342,121.8074,-35.6735,41.0873,25.9971,67.8669,121.7735,-99.7386,-36.2387,-40.8474,-52.0744,98.7460,-110.8407,-113.7540,195.2238,-8.9810,195.4570
-937.5000,61.4925,-64.6814,-101.4424,15.7228,174.6952,17.1706,19.2308,41.5242,81.5672,26.7878,-121.7660,-4.1171,-63.9849,3.2504,-33.6998,-95.8364,-64.5002,179.5437,39.1563,172.7271
-929.6875,114.3195,-46.0388,-11.1437,35.6435,230.8722,0.2459,0.6065,60.2975,-9.4705,-28.9479,-103.5579,-45.2202,-82.8502,-159.1683,-125.9144,-4.6077,-46.0081,205.9602,-14.4376,190.2674
-921.8750,120.4192,-4.1502,-43.5811,8.7861,162.3324,43.5380,-104.7880,139.3081,-5.2194,86.5815,-209.1159,-53.1265,-116.4486,-188.3345,-158.9018,36.8719,-180.2834,242.1850,-8.7629,231.0813
-914.0625,27.3911,8.5878,-101.1626,-12.2514,107.6627,26.6457,-87.3577,156.1597,11.9167,139.9687,-228.8367,2.3809,-100.1767,-19.6319,-31.0385,-55.8090,-237.7277,139.7577,37.7733,137.7654
-906.2500,-2.3174,-20.3741,-94.4373,-5.0124,116.3208,-0.9739,-42.6530,127.2991,-17.6301,110.6538,-184.2780,-15.4644,-93.5840,-45.6208,-60.8657,97.8082,-196.8912,111.9952,77.6299,107.7747
-898.4375,119.8416,-37.4989,31.1510,-55.9578,132.8690,-130.7776,-101.1151,34.2824,-38.3071,90.1937,-131.8803,-84.9038,-79.1074,-136.7596,-155.8385,187.2492,-73.2195,165.9822,94.3593,159.6543
-890.6250,206.7713,14.1164,82.5051,-73.1863,113.2053,-149.8636,-120.8460,14.0087,-22.2104,33.4963,-42.7488,-66.5950,-63.8520,-117.1442,-67.0535,-126.5861,-56.8185,179.9713,74.8574,175.3039
-882.8125,183.7206,97.7244,57.8741,-59.4506,53.5738,-172.9803,-108.5978,26.7269,26.9211,8.8075,-66.6387,-48.2917,-52.5772,-138.5440,55.7424,-151.4169,-150.4401,185.8703,86.3811,186.9695
-875.0000,140.9900,55.6332,48.5583,-100.4478,10.2733,-252.8286,-44.0791,-54.2589,91.3843,74.4284,-75.2541,-129.7265,-24.9830,-253.6573,9.8384,135.0533,-191.7850,211.8172,149.2241,214.9595
-867.1875,138.4239,52.6942,4.3978,-102.3277,41.1546,-221.5540,-50.4388,-24.0928,122.0202,104.2158,-82.7472,-113.9652,-32.2142,-220.6157,-70.9130,54.6575,-231.0024,278.6515,146.2461,281.1228
-859.3750,34.0787,54.9450,-66.5469,-134.0504,9.2691,-142.1203,-83.6139,53.2622,234.8974,145.2193,-116.0541,-59.6435,6.7776,-66.3887,-30.4549,-162.5510,-299.0411,240.0716,181.4998,247.5085
-851.5625,39.4133,25.8487,-59.8280,-162.1582,55.0674,-134.0771,-3.1652,61.2581,279.4643,115.8991,-145.7273,-96.5653,13.4398,-129.5308,49.6304,-119.1041,-293.4539,214.3299,186.4229,217.5691
-843.7500,-4.4830,52.5016,-68.3492,-134.5558,48.6405,-176.3248,-10.0015,54.9947,198.8058,108.3521,-115.6710,-128.2602,5.8797,-242.9331,5.4862,167.1060,-266.1527,170.4867,178.1161,173.4090
-835.9375,62.1396,50.6499,3.6469,-206.4985,47.7373,-213.1112,-11.3658,17.2223,197.6765,143.3137,-81.1319,-143.2835,39.8465,-204.8520,-70.1145,165.8142,-234.3811,129.2323,174.3298,134.7785
-828.1250,121.9804,39.9964,63.8595,-216.2807,75.0521,-148.7376,13.4400,79.6439,186.7915,132.5032,-92.4072,-122.0161,28.0351,-175.5948,-118.5224,-28.2837,-245.4298,124.7037,162.7786,123.3773
-820.3125,103.6463,22.1408,44.8921,-233.3077,58.1914,-128.6053,-4.9852,97.8632,204.7584,114.5251,-73.8977,-133.1974,9.0407,-190.5793,-100.1447,-119.5795,-228.7000,108.8980,214.0624,104.8057
-812.5000,168.6832,16.6363,115.2824,-202.0242,19.6997,-130.1581,27.9149,95.4298,239.1194,37.9217,-40.0658,-118.0393,-67.5837,-190.2390,-66.4042,-233.5310,-162.6508,74.0270,244.7236,64.6134
-804.6875,150.0846,33.4765,59.0275,-183.4409,2.5845,-147.3997,46.1402,114.3406,183.8795,56.6870,-58.9032,-104.7005,-50.8262,-168.5598,-122.2996,-68.1444,-181.2894,51.6449,225.7675,45.8058
-796.8750,147.9100,31.7097,93.1873,-184.5073,38.8969,-222.2866,43.7343,38.6442,182.0758,128.8781,-61.3541,-157.8130,-17.6391,-278.5113,-124.7706,112.6412,-183.5570,47.5141,223.2353,43.4315
-789.0625,179.3079,63.4920,125.9103,-187.0644,36.7730,-261.6631,76.8410,-0.5029,178.8535,51.6483,-29.2740,-150.7498,-21.8862,-278.9509,-55.6722,34.9941,-152.3023,43.0547,183.2798,39.6395
-781.2500,211.6855,132.2269,157.6001,-118.7210,-3.3846,-228.1301,34.8633,-3.7009,101.6207,-98.6057,-33.2634,-35.4187,-26.1603,-96.4693,-23.6234,-151.6970,-155.1263,71.6563,145.3087,71.8301
-773.4375,216.7933,172.6614,198.0073,-77.7273,-32.8223,-147.9417,-33.4447,37.7933,70.1287,-93.1321,7.4320,10.0250,14.2967,-51.3292,-54.8726,-257.6885,-185.2791,73.9260,44.0693,76.7543
-765.6250,164.6703,190.8495,105.1782,-24.0339,-123.4908,-129.0441,-52.0264,92.0340,51.4318,35.1238,-11.1456,-20.2331,-4.4737,-177.4826,-74.3653,-55.9218,-203.7222,90.5863,61.6159,94.4665
-757.8125,232.2639,153.7313,176.0564,-130.6942,-87.4394,-204.4942,17.0732,17.9691,196.4782,-2.8818,21.9553,-116.2950,-7.5241,-286.9679,-4.1337,87.5475,-206.4979,87.6568,94.8998,91.9072
-750.0000,299.2814,79.0101,207.3417,-205.0055,-16.9697,-280.5891,86.5487,-59.6977,266.9716,-6.4677,53.4379,-158.3252,23.8443,-252.0798,101.5217,-25.5879,-210.9031,81.0009,54.6213,87.7838
-742.1875,192.1773,78.1372,130.4967,-170.5138,-54.6315,-245.8779,9.8350,11.4810,191.3634,63.8183,-22.2428,-66.3710,21.0825,-31.3847,135.0375,-101.8723,-282.4804,107.6286,53.2315,121.5442
-734.3750,87.6043,43.7659,58.1706,-169.5744,-50.7761,-169.7119,10.5772,86.1548,157.2918,139.6420,-57.4380,-25.9349,21.8431,83.7614,63.0595,-100.6440,-282.5813,73.3878,53.3690,86.8380
-726.5625,162.5015,83.8461,97.3094,-164.2303,-83.4624,-166.1336,-22.2713,90.2818,160.7033,216.9465,-55.2090,-78.8362,-47.9282,-93.6777,29.5539,-60.9446,-208.2782,117.7459,22.9842,126.6193
-718.7500,176.9177,64.4305,147.9580,-219.4369,-67.6382,-224.0984,-82.6620,-5.0891,175.6553,231.7854,-4.4993,-173.6100,-34.1868,-260.6585,43.5738,64.2676,-123.5154,134.3962,107.1269,140.9375
-710.9375,250.5013,32.1749,185.7648,-215.5392,-27.6560,-295.9545,-44.9473,-76.3057,140.8001,159.8192,33.3392,-181.8748,-33.2848,-256.5306,-28.2436,28.6336,-85.6412,176.0006,110.4490,179.4449
-703.1250,162.7013,15.5245,129.1828,-162.0925,-45.0595,-240.2531,-64.6702,-57.9220,86.5912,69.4865,-23.2441,-101.5157,-15.7578,-88.8383,-47.4600,-26.3924,-68.1996,193.5311,93.4112,197.5833
-695.3125,69.4828,-42.5775,107.1701,-185.1503,-27.8877,-224.0515,-12.8733,-42.9915,175.9794,-25.2651,-82.2873,-125.7522,-0.6558,-107.6483,113.8950,-48.8710,-57.2406,140.2543,175.9568,139.3074
-687.5000,74.5409,-37.4322,74.4213,-180.0179,-21.4544,-182.6434,63.1339,-0.8152,218.6673,17.2715,-151.0996,-158.1723,3.7075,-210.2671,192.5321,29.9205,-123.0658,146.4099,109.7885,144.3235
-679.6875,7.4226,-34.4846,2.4874,-177.1409,-19.2130,-180.4818,-9.0979,37.1663,220.2062,201.6482,-151.1337,-158.6122,3.8831,-207.1368,46.9949,104.5262,-157.1355,181.8538,183.4540,182.1794
-671.8750,-2.0718,-8.9342,27.1650,-186.7155,-29.3601,-154.7624,-58.7724,62.7496,209.3853,264.6664,-126.5887,-128.3936,-8.3250,-142.4580,-38.9195,55.7396,-167.6423,205.4448,172.7538,207.6755
-664.0625,-51.1450,-57.9835,-22.7445,-235.9481,-77.0949,-167.6915,-35.0847,50.7326,235.0140,290.1279,-102.6597,-168.7441,-21.1118,-153.4421,94.5831,80.3743,-147.7854,154.4821,229.4965,158.6057
-656.2500,-32.5904,-110.4329,-3.0343,-288.6432,-17.2148,-183.0696,57.1720,-1.6810,219.3034,201.2292,-83.1471,-243.6896,34.7177,-276.8981,262.7064,63.6265,-95.3654,108.3473,246.8780,106.1735
-648.4375,48.3377,-28.5329,83.0369,-207.0478,33.0130,-169.1399,69.7348,12.2618,160.9986,104.7203,-33.3017,-220.4224,10.9083,-372.0584,239.2001,40.2537,-84.6370,89.7085,118.6480,83.1358
-640.6250,-1.6652,-43.5801,65.1684,-187.4586,-54.7049,-149.2069,14.3030,-4.7432,181.7874,88.3089,-51.4238,-204.3432,67.1630,-313.2169,148.7677,169.9480,-100.9006,104.8425,138.5022,103.1959
-632.8125,26.6017,-85.3735,96.5575,-229.6713,-22.1794,-154.0690,45.0698,-9.4944,213.8676,121.2044,-57.3123,-190.5088,98.6790,-206.1808,106.6188,90.9114,-73.9520,62.4741,131.6381,61.5472
-625.0000,71.0940,-6.9647,69.1565,-221.7411,25.5453,-143.7814,53.9914,-36.0432,115.1954,95.3442,-49.0186,-140.8777,144.4081,-157.0026,42.7056,-44.9071,3.1572,35.8320,105.0152,35.1382
-617.1875,91.2686,-20.9000,125.4306,-202.2183,83.9299,-197.8902,72.5253,-52.9432,136.2130,6.1637,-30.0812,-182.4412,163.8115,-282.2447,99.4593,-62.0646,21.8803,62.9550,125.0760,55.4188
-609.3750,102.6141,-9.6758,135.8677,-155.6026,22.4700,-186.8954,45.1633,-78.6864,111.4168,-17.8174,-20.0156,-176.5258,101.3809,-306.3998,110.3686,-14.0566,31.7174,73.1787,66.3315,66.8928
-601.5625,38.7737,32.3476,103.1149,-79.2435,-6.1805,-145.1494,-60.4359,-36.6294,43.4846,-48.9437,-52.1742,-94.5686,31.7631,-189.8216,78.1044,27.7762,3.3078,112.2925,72.4287,109.2032
-593.7500,10.5031,-31.0773,75.9247,-108.3956,-32.2734,-134.9031,-16.5198,-26.0192,18.1574,-37.4738,-43.7966,-118.6880,41.7104,-177.7652,198.4273,73.1794,-27.5922,49.1397,150.1125,46.0990
-585.9375,-12.3944,-20.1469,52.1038,-97.2517,-54.0176,-85.3529,-4.2972,-13.0561,33.2266,12.3847,-104.0870,-127.9403,18.0255,-236.4279,212.1291,86.9567,-17.1829,29.0217,162.1825,23.3909
-578.1250,-26.3739,-34.3161,37.2008,-77.2663,-30.8613,10.0503,-20.2192,82.8089,-16.7553,-0.8150,-83.4927,-85.7172,3.2607,-175.2421,50.7588,35.6497,2.0884,22.4242,219.1838,9.6274
-570.3125,36.0153,-43.1299,64.6666,-50.9884,-38.3613,73.7619,-30.8386,111.0271,-61.3450,-154.6137,-57.5701,-46.7360,30.8591,-109.7724,4.7640,-82.2705,62.6690,18.0384,175.5674,1.2596
-562.5000,106.5756,-42.7932,100.2962,-87.6257,0.2848,36.5700,-32.3485,74.3944,-59.7318,-153.2078,-21.5078,-63.5964,-6.3765,-108.2392,-32.0365,-10.0122,96.3618,17.7435,176.1397,2.0826
-554.6875,130.2620,-90.3469,126.0409,-136.2154,-8.9721,-47.5695,-7.8013,26.8622,5.0240,-16.6535,40.6415,-111.7245,-54.5028,-117.6832,-42.7031,90.3534,47.1220,-35.2836,163.8483,-44.9488
-546.8750,116.7637,1.9029,110.5938,-79.0560,-59.4349,10.0452,-61.5035,49.1361,-82.3805,43.7509,24.5718,-67.7371,-106.8187,-131.3800,-20.5497,75.5478,-2.3567,-15.6489,115.3979,-22.1374
-539.0625,65.7306,21.5983,93.6166,-62.5049,-37.4503,-6.9316,-42.8011,32.8625,-97.2837,-8.3519,6.9412,-61.7234,24.3293,-146.6992,-36.9297,59.2211,14.5830,-31.2017,99.4377,-37.8410
-531.2500,88.5713,44.1524,154.5069,-6.1524,25.3716,-56.0973,-20.2919,-16.5525,-144.2918,-56.5633,66.1479,-70.1923,121.3390,-231.2463,-49.4331,9.7644,70.3394,-40.6293,-17.6417,-49.6580
-523.4375,154.1322,108.4084,183.1075,57.8411,18.8887,-100.6087,-104.1254,-60.2661,-186.5431,-172.0248,94.0389,-31.3923,113.0646,-201.1709,16.8024,39.0325,62.7592,-17.7517,-93.9753,-19.7420
-515.6250,101.5699,20.5122,163.5826,3.6297,38.2576,-83.3194,-125.1404,-115.1321,-93.8963,-189.5945,74.7716,-60.7168,167.6552,-145.3193,107.9185,57.1599,43.9962,-2.1434,-40.4212,-0.9360
-507.8125,30.1680,-16.2297,124.2156,0.5091,0.7728,-48.9223,-92.0460,-43.8400,-21.0605,-115.9578,-2.3627,-81.5002,165.4091,-183.3847,106.2063,55.4731,40.3384,0.6943,-41.6773,-1.9378
-500.0000,20.0260,8.2788,113.1060,-46.4239,-45.4664,-24.3169,-104.7382,-54.2937,-29.9285,-162.0109,22.7326,-100.2070,154.4301,-230.2750,95.7776,8.0761,97.8861,-5.6698,54.3522,-11.6518
-492.1875,203.3952,15.2893,228.5016,-110.9097,34.7874,-130.2467,-27.9692,-159.2371,-23.2491,-339.5097,136.3172,-115.9979,158.9618,-224.7417,101.8842,-169.7983,137.8985,40.4407,96.9074,31.1697
-484.3750,156.4287,38.9553,214.5600,-88.7942,-13.3202,-143.5653,-80.6004,-135.5204,-33.8806,-203.3083,85.5374,-82.5408,109.1461,-163.6154,51.6682,-145.9924,89.5258,60.7867,121.1453,55.6759
-476.5625,61.6373,48.7768,114.7885,-44.5803,-73.2818,-96.7757,-144.1236,-86.6511,-21.3271,-42.9143,-15.0985,-79.2506,83.4983,-188.3998,26.6297,11.9752,62.2684,32.7087,131.5619,31.3666
-468.7500,-1.4350,56.2987,85.7276,-5.7228,-100.5533,-52.3247,-138.9863,-78.0766,-11.0329,-69.7713,-45.0456,-83.4529,54.5628,-253.5499,108.3211,20.6765,136.6714,9.3202,138.7164,3.7898
-460.9375,8.1038,-5.5792,94.2730,-67.3173,-90.2316,-81.3081,-95.2887,-105.8892,73.9012,-169.9719,-0.4079,-115.5898,63.2313,-244.1774,81.6383,-42.9807,179.6353,23.5868,219.5045,13.8486
-453.1250,25.3014,-23.7978,149.4722,-87.3076,-35.2769,-100.6658,-78.9903,-87.0336,130.5265,-112.4645,16.8629,-133.6709,44.5516,-262.2220,63.6329,-60.9603,123.2085,6.6895,166.9734,-3.4057
-445.3125,-31.2408,60.2373,87.9309,-6.0985,-131.0913,-89.8144,-142.4923,-37.9228,71.4481,11.3411,-9.6229,-90.7102,56.1256,-250.0735,75.9072,61.3402,30.0007,45.8499,40.7287,46.6243
-437.5000,-59.6658,101.3725,52.5072,-1.8428,-126.8207,-87.8986,-178.9361,-72.7103,39.5121,16.2991,-8.0144,-95.5081,94.8074,-283.8774,115.3037,100.7601,32.8589,119.5468,11.6122,123.7810
-429.6875,-57.3770,103.2161,16.7896,-36.9279,-123.8651,-161.3132,-142.7287,-106.7838,43.3182,93.0214,28.2736,-114.0322,96.1860,-282.0518,191.4115,-6.0807,67.3807,118.9878,-19.7720,126.6720
-421.8750,-73.2304,51.9087,-0.0740,-20.2156,-139.0690,-104.9134,-161.7100,-87.0027,29.0215,225.6480,10.4012,-105.5986,79.4247,-224.4520,101.4096,123.9697,48.7112,101.5642,-35.2689,111.4487
-414.0625,-91.2205,-2.5473,18.9224,-40.7030,-119.4341,-87.7035,-181.8771,-67.3724,12.6080,320.1578,28.3792,-136.7651,61.5218,-243.0591,47.3038,253.8907,62.8606,49.6762,-19.8916,58.1088
-406.2500,-55.9971,32.2025,16.1257,-44.0308,-193.6139,-17.3277,-260.8864,40.4662,-22.5719,393.9055,24.5469,-125.2136,-15.1758,-244.5142,45.4216,252.0374,24.1729,84.7572,-19.2862,94.0027
-398.4375,-114.0156,10.7032,-44.9117,-68.6532,-254.0560,30.7675,-251.1888,89.0620,28.0376,408.4593,-37.5423,-106.0274,-39.1193,-159.2793,132.3119,228.9665,-35.7987,95.5950,29.0956,107.6745
-390.6250,-151.7790,7.4598,-84.6966,-39.0678,-256.2670,62.0922,-257.2823,122.9239,26.9255,333.3160,-42.3947,-79.5309,-42.8115,-125.8485,166.4757,152.1716,-6.5558,95.7008,26.7546,105.6288
-382.8125,-163.6435,-4.8837,-61.5813,-17.6297,-267.5880,84.2949,-272.5108,147.6998,16.7466,397.1153,-92.3617,-62.0506,-128.5970,-101.5771,80.5686,214.3086,-21.4502,87.0833,50.3526,94.5089
-375.0000,-202.5982,-79.3344,-100.5577,-94.3337,-230.0191,45.3729,-238.8697,110.3864,54.5044,545.8651,-96.4349,-105.5304,-130.4755,-66.4754,43.5829,360.3853,-63.4769,8.9886,82.8708,21.3145
-367.1875,-165.0004,-43.2340,-98.9831,-94.5209,-153.9174,82.9818,-167.7232,149.6381,21.8449,513.2272,-95.9707,-94.1998,-128.8040,-101.8762,-27.8307,327.0450,-133.9847,16.7981,50.9628,24.6917
-359.3750,-160.3969,-39.1293,-95.4041,-58.7442,-148.8297,85.5644,-202.6132,153.9009,-8.7792,408.6390,-56.5149,-49.8648,-89.1291,-24.3251,-23.2111,220.7180,-132.5230,22.1505,91.0816,30.0936
-351.5625,-84.2880,-33.5198,-53.3208,-89.5060,-105.2560,52.6257,-200.0390,85.6711,-0.8687,343.6002,21.4253,-60.7747,-46.9584,-19.3288,56.9299,79.9162,-94.5871,27.2288,62.7268,37.0234
-343.7500,-90.1771,-4.9124,-58.2321,-64.3081,-145.6994,46.6601,-208.4988,118.4500,34.0729,377.6114,15.3632,-61.8132,-51.7831,-61.3928,16.0856,113.1641,-103.6755,-14.0504,22.4020,-3.0301
-335.9375,-58.7027,26.0478,-27.7758,-104.7911,-113.8129,39.0236,-216.6484,75.5849,30.3920,338.0153,7.6505,-97.7970,-58.2598,-141.1648,10.6148,254.7970,-110.4402,18.0342,19.4393,29.2837
-328.1250,-46.1744,3.0664,-18.2696,-96.2518,-65.9023,-24.5808,-208.7932,48.7854,6.7855,350.5172,15.9777,-109.3998,-48.6906,-131.9266,168.2229,265.5089,-135.1821,62.7534,-38.4600,77.6696
-320.3125,-110.4931,-61.7607,-86.6066,-59.5932,-95.8570,14.9432,-206.8212,55.1432,14.3558,322.2081,20.4486,-62.1403,-5.9644,20.4108,212.0050,198.3914,-134.8044,29.8184,-33.1893,48.2341
-312.5000,-62.8111,-14.5856,0.0574,-48.9664,-8.8290,63.4450,-160.8759,68.5066,29.9426,153.9433,68.9197,-62.1778,43.7706,-78.3149,41.8127,139.2966,-124.4470,54.5946,-87.8939,62.8205
-304.6875,-69.1754,12.5415,-47.3200,-58.4200,-53.8644,125.8718,-246.0104,132.8258,23.4992,220.6723,57.3377,-62.4038,-3.5433,-88.1444,-76.4155,240.1902,-134.1594,80.6989,-130.6210,91.3705
-296.8750,-108.0373,9.1701,-87.1896,-100.4037,-93.4063,120.7823,-252.6703,129.6506,95.5895,292.9286,15.2488,-43.2545,-44.3528,17.4806,-7.1187,201.6100,-176.3987,71.9864,-97.8295,89.4292
-289.0625,-120.1995,-4.4986,-136.3621,-115.7149,-67.2578,70.3784,-158.6580,81.1857,160.4097,210.9243,38.8508,-30.5792,-19.4568,76.7624,55.9037,79.7453,-157.9663,23.5144,-75.3188,42.2046
-281.2500,-142.6635,43.5307,-195.8348,-37.3571,-89.4204,82.6677,-147.9698,58.4380,139.9460,190.6654,14.1431,4.4372,-42.8529,52.7012,70.6425,57.6028,-183.8587,1.9965,-27.0906,20.6949
-273.4375,-112.3300,109.3650,-163.5080,26.7743,-18.8060,78.7470,-116.5092,56.5070,66.2972,154.2508,46.2339,-13.3815,-45.4489,-133.6059,32.2048,93.2899,-190.9750,-27.9473,-29.0497,-17.0011
-265.6250,-102.1496,119.0431,-117.3320,68.7268,-45.3608,49.6637,-147.2292,29.4348,4.5203,55.7255,91.1696,-23.6290,-36.1950,-198.0998,42.6441,139.8716,-113.2572,-13.9210,-54.1356,-5.8379
-257.8125,-17.9149,96.7617,-68.0949,43.6910,-31.8806,-13.3849,-100.9207,-67.5818,93.8221,-37.7145,102.1591,-1.9169,13.1132,-76.5829,92.1565,6.5364,-103.5076,-4.9555,-75.1564,8.3841
-250.0000,-45.9753,103.1835,-23.1542,47.3307,14.2810,-80.7469,-96.9363,-95.8922,177.8481,-27.4080,34.8456,4.7649,20.1183,-69.4147,138.3765,-130.0656,-65.0779,-30.2616,-67.4688,-18.6698
-242.1875,-85.2914,98.3594,-63.4665,75.7021,49.1716,-85.3776,-103.2391,-99.4490,140.6411,82.6914,-6.7190,-20.9454,16.8756,-147.5388,136.3785,51.1053,-72.9158,-68.9920,-70.0260,-56.9533
-234.3750,-37.7075,40.4413,-48.8754,49.9619,64.9359,-71.1194,-53.6753,-83.1032,122.3371,64.7162,44.6222,-50.4552,32.5338,-169.7894,116.3144,67.1898,-62.8683,-121.0469,-21.6766,-113.3262
-226.5625,12.3242,89.9740,0.1674,61.6526,78.1340,13.5774,-44.6800,-33.2987,100.4955,6.2180,18.4105,28.3041,7.6492,-49.6207,18.7128,-139.2406,-52.3896,-67.0082,-111.8617,-62.2409
-218.7500,-67.9996,79.1472,-48.1413,117.9688,31.9705,110.9145,-133.0477,66.1614,19.3349,-38.5920,5.8472,124.9049,-3.5854,159.1539,8.7778,-148.9896,-66.2780,-79.6615,-121.3813,-71.4974
-210.9375,-30.4814,46.1736,-46.6045,117.1170,-2.3651,148.1019,-171.5881,105.4860,-86.9562,-69.5210,6.1262,98.9829,-38.9767,122.7409,122.7218,-35.8793,-31.3309,-74.2307,-118.0422,-67.8878
-203.1250,9.9764,86.1476,-43.1198,84.1967,-35.7706,149.2389,-171.2054,108.7695,-80.2958,-62.4794,44.3622,71.9700,-72.4104,51.2481,126.6387,42.2078,-65.4419,-33.7077,-76.7431,-26.3221
-195.3125,1.1400,-28.1755,-16.9281,-34.0319,-44.4904,138.0744,-184.1469,99.7598,23.0553,3.2912,70.3034,42.0716,-45.1390,187.4247,81.2682,34.0192,-112.8655,-46.5915,-48.7480,-34.0494
-187.5000,29.5926,-71.1937,-24.4425,-43.9725,-13.9299,129.2040,-158.8052,93.0593,18.7180,36.4002,61.5411,62.2547,-16.5676,289.8745,38.2045,-8.8430,-123.0060,-53.8092,-54.4440,-39.4722
-179.6875,-19.4631,-85.7150,-75.4601,-61.4357,-27.8822,149.8319,-139.9724,115.8669,6.9020,172.0376,-28.7212,60.6304,-31.4936,309.7903,24.6541,51.8158,-175.6629,-68.2487,-32.6254,-52.3881
-171.8750,-10.1708,-41.8864,-106.1283,-20.5635,-20.5023,154.8041,-172.8065,160.0278,16.4393,219.0473,-96.6263,73.9605,-135.0755,279.0265,69.4768,96.8557,-205.9785,-24.0002,-93.4586,-6.9416
-164.0625,-102.7909,7.0432,-203.7033,24.3966,-80.0502,128.8732,-237.5664,173.2933,-40.9233,235.1916,-122.4262,135.9920,-195.5581,400.3321,10.4277,295.0316,-196.2045,-18.4088,-114.1855,7.6103
-156.2500,-162.1663,-17.7764,-228.0276,-3.4003,-66.3720,104.1939,-191.0894,113.8173,85.9786,326.6151,-109.9742,106.9684,-182.7912,375.8665,-11.3636,309.4736,-188.1933,-78.2645,-66.6606,-50.5832
-148.4375,-103.5024,-65.5467,-204.3106,-19.1582,32.3309,52.5618,-59.5799,101.4018,185.9421,317.1189,-88.4674,32.2827,-84.9765,214.4291,86.9126,150.9832,-169.1379,-81.2455,-78.0824,-61.7209
-140.6250,-117.4916,-79.9706,-148.2399,-35.5788,52.3711,34.2750,-6.7358,48.3360,171.2554,118.9874,-33.5971,9.6062,7.1908,158.3187,107.5565,98.8690,-115.7366,-15.5683,-20.1509,-3.5065
-132.8125,-32.9867,-101.8933,-61.6682,-95.5058,102.8923,8.4898,2.5993,-12.2287,114.0689,61.3747,14.7849,-11.1137,19.8659,169.6842,84.7035,76.2738,-105.8337,0.9009,-5.7230,11.2067
-125.0000,-83.1383,-117.4686,-149.7459,-114.0881,15.7518,66.0528,-15.7201,48.5612,139.2390,198.1332,-37.4869,-3.8347,-67.1055,228.3768,109.2030,137.0585,-89.5855,-52.4156,-19.9459,-37.7286
-117.1875,-57.6536,-127.4035,-121.1766,-92.0277,44.2464,93.2734,-27.3923,77.0100,171.0687,193.5658,-10.1037,2.5402,-76.4268,218.7061,65.3665,56.5035,-31.6944,-91.4376,-28.5200,-81.0165
-109.3750,-48.9929,-118.1432,-112.4247,-50.7686,54.9195,101.7073,-20.8769,124.6725,110.0966,133.2187,-38.5214,18.0492,-66.5507,190.2323,39.7523,-4.8288,8.3806,-109.8050,-18.8909,-106.1067
-101.5625,-67.0035,-101.5387,-132.3332,-2.1571,34.9319,152.5005,28.9881,104.6936,56.4745,80.2396,-60.5906,37.8213,-50.3204,168.0981,-16.4877,86.2021,-13.2027,-88.8873,-0.9073,-87.8547
-93.7500,-51.3697,-121.2851,-116.5893,-24.8942,15.5848,130.9473,78.5087,122.3628,75.4988,63.9133,-44.9976,30.7591,-70.4346,183.5905,-71.0682,141.8896,-1.1274,-105.4728,15.7243,-105.9599
-85.9375,-40.3388,-75.6334,-107.4444,17.7662,-48.3845,101.8013,10.4231,57.4365,13.9211,112.9989,-37.9975,47.2486,-98.1523,190.4715,-24.2563,189.0126,41.3491,-64.6694,-42.2514,-58.6666
-78.1250,-47.5678,-84.2325,-80.5511,7.1768,-20.6321,90.4224,-2.9277,49.2736,-29.9199,143.8428,-12.2344,8.9291,1.8778,105.1093,-69.6858,217.9022,30.5827,-33.6239,-48.4915,-29.6320
-70.3125,17.8986,-89.1234,-49.9579,-36.6984,48.7939,9.7592,25.4093,-66.1821,-32.0809,68.3839,55.2436,-28.6963,70.6036,62.4448,-36.4054,140.4943,57.5260,-37.9428,-52.0410,-32.9011
-62.5000,34.9067,-36.4671,-33.8143,12.9806,65.7523,-11.3527,1.2938,-86.0881,-84.6968,15.4834,33.2799,38.3412,49.8759,150.3148,18.4308,11.6619,36.0301,-21.5693,-34.0390,-14.6318
-54.6875,-12.1488,-13.8649,-9.7259,32.6138,126.6416,10.4939,-14.8669,-61.0421,-131.3665,-66.4503,19.2692,58.1713,37.0931,136.1228,7.2245,0.8066,20.4871,-27.1558,-10.0880,-25.4225
-46.8750,-3.0674,29.8803,-39.4920,38.4101,97.6664,16.5004,25.1209,-53.8399,-158.8980,-93.2216,24.4167,35.4595,43.4561,31.0826,-58.8356,120.1242,-8.9011,19.4824,-35.9950,19.9305
-39.0625,-62.8948,4.7228,-139.1544,45.3106,72.7776,25.6106,70.2095,-41.5425,-144.3376,-3.8891,-2.3189,21.0952,17.9309,4.1420,-45.7916,169.5376,-2.1829,-2.9859,46.1899,-3.6226
-31.2500,-79.8340,22.4709,-117.9199,95.1282,56.7647,45.6339,124.1969,-19.3451,-156.8969,-16.6565,-19.1401,72.6128,39.3068,60.1032,-59.8356,8.8476,12.4438,-51.2454,-4.7476,-54.2817
-23.4375,-53.2850,48.7209,-91.1920,154.4565,48.2323,72.1715,185.6848,-27.6436,-162.9762,-94.9326,7.5538,118.6739,67.1841,86.5642,-141.3754,-72.3190,36.5835,-54.7600,-12.1931,-61.4548
-15.6250,-56.4879,-24.7894,-21.2066,113.0383,8.9452,66.9689,215.4311,-67.6972,-90.8200,-204.9698,75.5156,80.9520,63.3118,81.2671,-143.6629,-74.2183,134.9935,-52.3374,-14.3945,-63.3898
-7.8125,-0.2503,-3.8559,38.2289,131.0824,-4.9043,51.2311,197.6371,-44.2978,-138.2286,-215.5646,59.9384,88.0209,11.8939,65.4177,-82.5059,-123.6543,152.8674,-63.3321,-62.1561,-75.8906
-4000.0000,-10.5848,0.6594,36.3755,110.6017,-56.3396,40.5592,153.1327,-5.9852,-132.4994,-98.4739,95.0421,52.6214,-34.9656,-0.3570,-75.7486,-76.0897,144.6877,-52.2310,-64.2689,-63.2870
-3992.1875,77.9367,54.1313,91.1955,131.4307,-39.0337,-14.4257,138.9845,-61.4523,-154.5706,-46.9309,114.7135,73.2245,-90.1755,17.4596,-95.8620,-58.3062,165.9224,-39.9898,-117.1407,-46.7663
-3984.3750,44.0957,55.2234,57.6685,170.9295,-111.0781,-11.7552,71.5505,-60.2879,-156.0272,-83.7758,118.0354,108.1820,-87.6713,92.9108,-95.3168,-56.8502,135.8228,-45.2664,-116.3625,-46.6179
-3976.5625,-29.3604,16.6864,-14.4585,136.8479,-74.7175,-9.6788,77.5765,-23.7489,-86.1097,-12.2613,46.7465,73.0763,-12.7047,56.7515,-95.3652,-19.9667,101.1392,-119.3979,-50.1793,-121.0906
-3968.7500,-31.1835,-20.2280,-11.9300,68.4449,37.3002,-6.9451,195.3133,15.4199,-13.5692,97.8489,51.0940,-17.7751,27.9768,-125.7666,-167.7586,55.5806,104.1261,-182.9780,-16.3461,-193.9283
-3960.9375,-53.0789,-78.2102,0.5442,14.0176,85.2656,-30.2484,212.0501,-10.4793,-4.1146,32.8727,27.3752,-34.4995,40.6644,-77.3416,-157.1984,104.1016,85.0848,-134.5732,31.4395,-146.8325
-3953.1250,-97.2936,-50.5223,-42.2788,9.3108,76.9364,36.1528,209.5388,18.2989,-51.9878,-13.4323,21.3466,30.1787,-2.8800,61.7684,-55.9268,-13.6506,10.7599,-148.4957,-12.0728,-156.0571
-3945.3125,-97.9191,-51.2631,-78.5021,12.2171,39.2139,111.1550,251.6827,90.6514,-129.2791,-16.1645,-14.0874,42.2851,-38.7626,61.4524,-57.0381,-13.7669,-20.9599,-146.2347,-12.9854,-157.7010
-3937.5000,-97.4184,-121.8849,-76.5745,-18.7093,113.6420,113.3053,331.0280,91.1256,-20.4437,-17.7758,-11.3879,2.2622,37.5727,26.2695,-93.9881,-49.6957,-51.5201,-142.7415,-12.7389,-158.2082
-3929.6875,-103.6815,-128.2776,-44.3932,-21.3667,144.3278,108.7061,367.6685,121.8242,6.6026,-26.1744,-51.4487,5.8527,33.2215,20.3302,-136.6771,-128.3575,16.1881,-143.4782,-19.2416,-165.4833
-3921.8750,-97.5561,-122.2890,-38.8100,-11.6004,111.4200,77.5053,341.7545,89.8993,-27.9909,85.7847,-82.1182,6.5557,-34.6674,24.7750,-169.9525,-50.6003,61.3123,-104.2616,21.6630,-125.3775
-3914.0625,-83.5918,-108.4801,-21.3712,-64.9760,53.3728,58.1524,399.7462,68.7969,21.2498,173.5439,-63.9470,-35.5280,-53.6358,-32.9461,-154.3597,40.0296,44.2980,-130.2435,-34.5748,-147.4364
-3906.2500,-34.2428,-59.2938,27.4643,-11.9339,-9.2684,34.1998,417.1871,5.0659,29.8708,71.6527,-51.3904,-19.8291,-77.1421,-58.2685,2.6511,14.0772,62.6897,-49.4295,-91.4052,-64.1029
-3898.4375,-29.0150,-54.2288,30.1938,-73.9743,-44.0134,-109.8477,424.5656,-103.7844,28.3634,-3.3638,26.0484,-60.6366,-36.6883,-56.7024,151.5699,127.0553,70.9875,16.0171,-51.3189,10.1175
-3890.6250,-0.2024,-60.5939,-11.4760,-76.4032,-87.1515,-151.2876,387.5904,-110.0554,19.4349,62.2020,59.0716,-79.7137,-40.5676,-62.5607,145.0964,195.6626,68.8963,2.5704,-93.6209,2.9124
-3882.8125,1.9022,11.3145,-45.8425,-35.5224,-86.9793,-38.4214,357.9628,-36.0437,-55.2222,60.0345,24.3816,-16.3442,-38.0808,-25.1326,71.9377,122.5982,5.1071,39.9966,-91.6148,38.9929
-3875.0000,-3.6092,-65.4084,-51.8069,-72.2300,-20.3940,-44.1542,356.7761,-43.6544,43.4998,50.2291,56.0729,-57.5337,-6.1210,-32.3116,137.1971,116.9606,-32.2784,68.4039,-62.1975,67.4624
-3867.1875,-0.8407,-131.8592,-48.4780,-135.6279,18.4966,-77.5873,438.9236,-40.9840,116.5127,86.7054,-12.9558,-104.6151,-37.8005,-66.2021,102.7665,119.6566,-24.3620,113.0394,11.5309,105.2207
-3859.3750,-61.5334,-156.7789,-107.6007,-121.4696,-5.0642,-25.4700,420.6510,8.2109,90.0732,97.7078,-34.4538,-83.6608,-95.8721,-16.5530,41.8977,206.9375,-45.8899,52.0171,56.8183,43.5196
-3851.5625,-8.1813,-139.6727,-88.6653,-30.2655,49.4340,30.6880,444.4586,25.4247,-41.3190,2.7238,-51.9118,-27.8641,-112.8220,1.1342,22.1086,151.2895,-94.3573,74.0581,39.1632,59.8581
-3843.7500,-66.9335,-127.6935,-147.8257,20.8407,-12.1624,44.7397,390.1901,74.5115,-142.8359,85.6198,-111.4839,-1.4760,-134.8042,13.7173,-39.7576,201.5662,-77.9186,86.2908,86.4126,71.0907
-3835.9375,-127.0467,-48.0834,-168.3353,-34.3906,-33.1028,24.4392,338.5942,52.2257,-93.7299,135.1550,-167.4278,-19.9483,-116.0685,-44.0609,-60.9659,254.5215,-27.8321,-13.1666,132.3170,-25.0354
-3828.1250,-66.3211,12.3614,-99.9947,65.2425,-3.1797,56.9894,337.8721,45.7709,-103.7926,16.5186,-171.5406,13.9129,-157.4154,-124.0084,-31.3084,139.3470,36.1005,-86.8867,122.0798,-106.3237
-3820.3125,-22.8596,-15.4619,-15.9037,77.6287,5.5038,30.2864,315.9297,17.0440,-98.1069,-125.4037,-87.9261,31.3778,-145.9409,-78.2251,-95.8768,37.9504,84.7785,-74.7189,201.6092,-98.8734
-3812.5000,67.0476,-31.8661,41.6393,100.4568,61.6576,14.0235,305.4709,-37.2609,-190.9696,-217.9093,-29.8714,42.1932,-86.9398,-59.0053,-113.9726,-88.9867,107.8987,-54.9436,149.6038,-80.9821
-3804.6875,50.1489,91.9124,26.3783,227.4926,8.0260,-1.0400,221.2380,-54.3880,-247.6470,-164.2339,-44.6405,77.0078,-100.6720,-149.5932,-130.8517,42.2869,95.2081,-79.0307,62.8081,-98.8973
-3796.8750,37.5310,113.9714,50.4102,253.8321,30.7064,-50.8076,176.3176,-69.2359,-228.0368,-144.2832,-93.1289,50.9280,-75.0374,-236.8838,-108.4047,212.8871,15.8101,-60.6638,50.3311,-77.5174
-3789.0625,27.1537,103.2560,4.6905,212.4149,94.6510,-22.3278,246.6675,-79.8523,-204.1818,-121.1079,-28.3851,63.7101,-82.0843,-173.9404,-81.6794,93.7575,-25.3482,-73.0318,75.1214,-88.8896
-3781.2500,3.9633,79.7197,-53.8353,158.1895,107.7979,-43.6476,230.2310,-66.2836,-194.1276,-146.7383,61.5284,76.5914,-27.8757,-49.8058,-67.7377,71.8547,-44.3148,-104.5251,87.1362,-113.0638
-3773.4375,120.4138,90.8134,33.2867,173.6043,193.6015,-30.3171,211.4602,-92.0789,-258.4145,-246.7301,111.0617,48.1786,24.0418,-148.0256,-93.1250,158.6171,-63.6446,-91.8848,-7.1775,-102.5966
-3765.6250,114.1036,154.1429,22.6581,206.2598,182.6671,-39.7427,132.9545,-67.6401,-272.4433,-297.4846,64.8196,68.5431,52.2728,-159.0098,-105.2397,221.6452,-101.7335,2.4702,-48.2254,-4.8859
-3757.8125,73.8893,113.5613,17.1304,135.0068,137.8471,-46.0811,58.5633,-75.1304,-209.3724,-271.1683,22.6576,76.4641,11.6724,-19.9141,-148.2255,288.7982,-172.7303,59.9804,-18.1585,59.9287
-3750.0000,44.9740,119.2570,-49.0971,74.0429,71.3446,-75.1335,34.4838,-69.3426,-132.9971,-157.5691,-6.2254,62.7369,-52.5653,23.4683,-68.8833,296.2665,-196.4373,56.8870,-11.7777,65.0433
-3742.1875,-27.1086,47.7898,-121.4846,41.9226,70.6999,-74.3411,40.2538,-106.7207,-26.7605,-14.1145,-79.2936,-0.7188,-49.9009,-51.3028,40.3315,296.6093,-159.3112,56.2016,93.4690,63.0065
-3734.3750,-42.6515,-74.1405,-59.3255,-40.6603,131.6201,-159.0051,71.5739,-157.5650,141.0302,6.8805,-52.8402,-116.4996,51.3750,-173.5204,64.1178,321.5170,-100.6469,-26.8647,148.2846,-24.4819
-3726.5625,88.1614,-49.7322,40.1846,24.0977,155.9099,-132.3329,102.2462,-133.0822,52.1733,-44.7899,-27.0535,-109.8538,6.0620,-259.4028,-58.7234,310.7816,-106.6409,40.9591,33.4629,35.3835
-3718.7500,51.4248,18.1093,36.1467,96.2926,77.6669,-98.2204,-80.6304,-102.1708,-102.2249,-89.0272,-30.8362,-17.3700,-32.7360,-116.8608,-209.0910,416.5229,-69.2005,103.3190,31.1089,102.7046
-3710.9375,39.8332,7.0823,25.2586,89.6174,28.5929,-71.9737,-232.3603,-78.1245,-153.4571,-104.1284,-40.4904,3.2522,-77.3222,-19.1767,-111.2791,442.4266,-5.6253,121.4191,20.9243,126.1762
-3703.1250,47.3859,-56.8060,35.5113,65.0769,0.6792,-26.5793,-253.9471,-33.9401,-111.5271,-61.0701,-31.0254,-23.7171,-65.7148,-11.3362,-29.2928,452.4863,6.0751,91.8233,27.9083,96.8017
-3695.3125,106.9811,-137.6537,100.8095,23.5751,27.8270,-35.1401,-257.4999,-44.7119,-124.5284,-110.9611,-2.5363,-68.1584,1.9899,-21.4531,33.7614,406.6102,34.8077,82.5848,-17.0415,85.4791
-3687.5000,61.4270,-41.6556,51.9610,122.9072,14.8367,27.1399,-300.2170,15.3533,-213.6707,-90.0074,-86.2192,-6.6493,-7.4058,-32.7427,21.6797,432.6056,-41.6242,140.0231,-131.1246,145.0135
-3679.6875,-65.9275,-31.4628,-78.6901,138.4202,-7.9435,42.6045,-353.7527,27.6004,-165.6007,31.1523,-107.7299,9.9602,47.4487,16.1547,34.8217,520.8235,-130.8736,106.0033,-83.9891,120.7536
-3671.8750,-87.5321,-87.5320,-98.5901,50.6663,45.0401,22.8030,-294.5558,5.5798,-42.7595,117.0497,-127.5149,-31.3613,30.1017,31.8050,13.7531,574.7861,-183.3917,81.9443,-35.0812,98.2462
-3664.0625,-135.5408,-100.0021,-145.8943,7.5010,-3.3675,49.5916,-263.7797,67.1488,-21.3005,249.5467,-211.7292,-36.2503,-51.6037,57.0572,-33.6968,674.3522,-191.3342,69.8521,23.4448,85.3487
-3656.2500,-168.6063,-134.5253,-144.2560,-22.7300,-2.8159,88.3243,-293.0883,66.6662,-22.8758,321.0148,-246.0188,-66.5821,-46.3148,20.2505,3.8145,638.8911,-185.3557,108.6295,60.9391,121.4084
-3648.4375,-162.9586,-59.3458,-138.9130,-13.2806,2.4498,93.7478,-282.7215,69.8723,-58.7371,249.1795,-240.6247,-47.2047,-1.2864,-10.8718,45.0494,534.1334,-210.6986,148.6409,32.1492,161.1771
-3640.6250,-179.1512,-146.0207,-154.4159,-24.7063,-14.1172,5.3033,-294.2286,16.2092,-42.4297,81.4876,-146.0978,-53.1808,94.9405,80.1436,64.4609,481.5274,-117.9073,166.1373,121.5358,179.1087
-3632.8125,-54.4768,-161.8576,-21.0582,-2.3204,7.1938,-45.3188,-265.9052,-73.6237,-60.2379,27.6428,-123.7390,-60.7139,121.0670,64.9956,85.7477,430.7668,-129.2838,149.7058,36.7942,162.9030
-3625.0000,-118.1405,-51.0464,-50.0496,113.6883,-95.8231,-37.3095,-362.9556,-67.8202,-129.3702,177.4643,-188.7502,15.7767,57.8852,108.4862,92.7076,511.6561,-189.0345,144.5202,-61.2812,168.3585
-3617.1875,-152.0018,-85.4430,-82.2474,83.4698,-92.0286,-106.5106,-390.2470,-102.2170,-18.6702,215.1005,-147.9884,0.4954,139.5401,148.7742,96.4912,443.3569,-149.0174,105.9689,45.4603,133.6269
-3609.3750,-127.1558,-165.1345,-49.7470,6.9234,13.4818,-146.0257,-241.8814,-180.9203,119.7640,97.4497,-78.5451,-70.3449,322.9265,70.7604,203.0029,218.7648,-120.3364,-4.0606,106.9117,17.6096
-3601.5625,-86.0506,-159.5723,-5.0015,-54.4045,130.2552,-102.3043,-119.3024,-175.3863,160.4731,-118.9434,-142.8730,-106.8235,480.6007,-34.0037,172.7933,153.4220,-144.4341,12.0576,113.6317,22.8622
-3593.7500,-141.5822,-182.6634,-26.8998,-72.4191,144.3989,-51.2546,-135.4088,-199.5106,245.5621,-181.9815,-201.8647,-125.6784,535.6607,-57.4339,149.9620,204.4273,-127.2116,26.1548,127.7274,35.4852
-3585.9375,-166.4078,-208.0534,-13.1039,-58.7683,83.2548,-74.5240,-153.8532,-187.9430,291.3932,-135.2980,-151.1818,-132.5068,589.4496,-45.1767,236.8584,145.1288,-114.3206,-2.6767,138.5444,9.8252
-3578.1250,-94.2839,-275.4835,30.6323,-87.1956,126.0731,-67.8583,-107.3953,-183.4245,294.2148,-133.6371,-109.5817,-144.1375,635.2081,-2.9698,278.7209,3.7800,-107.5191,-33.4840,107.3372,-22.8667
-3570.3125,-86.2458,-268.0112,40.2659,-39.7565,97.8031,-21.3088,-165.0805,-140.0088,262.9735,-92.0595,-172.0997,-108.2751,611.8868,42.1363,287.5021,-59.6752,-60.8478,-25.7939,46.0581,-15.6444
-3562.5000,-155.1967,-267.5350,5.8965,34.6445,-10.4595,55.2241,-231.8148,-103.5992,298.7745,-19.4560,-243.6396,-68.4349,617.5833,79.2263,179.3094,-57.1262,-20.2073,-25.6126,47.8115,-15.4033
-3554.6875,-105.9350,-289.8572,97.7288,16.2068,43.4978,-0.0629,-208.3997,-160.9940,202.8198,-78.6319,-153.0000,-83.1034,712.4997,59.5088,160.3317,-185.3730,66.5983,-76.8399,132.7868,-72.9458
-3546.8750,9.2387,-280.2631,219.4577,-40.3604,128.3697,-62.4638,-156.1428,-223.4858,100.7980,-216.8908,-67.4821,-140.9866,764.3326,-77.3054,244.2711,-320.7336,151.2672,-57.5165,178.6754,-63.5687
-3539.0625,34.3719,-254.6970,211.1293,-47.0111,119.2025,-107.9285,-123.9958,-271.0234,125.7604,-266.1810,-39.0393,-171.0594,795.1259,-161.1658,346.1890,-329.1510,109.8453,-70.2014,204.5313,-74.2168
-3531.2500,-6.8746,-192.5237,170.4004,-15.1048,39.6531,-112.8119,-160.3081,-277.9607,154.3691,-201.8403,-44.0067,-138.3064,793.5377,-130.4423,340.7383,-370.9771,70.9881,-85.4020,129.0034,-81.2443
-3523.4375,-20.4947,-135.7369,121.2764,9.3595,-46.2773,-88.1207,-204.0763,-255.3032,138.6228,-144.8735,-56.3861,-95.1432,748.5635,-70.1374,290.9086,-346.2116,96.6928,-105.0638,116.0932,-95.6451
-3515.6250,4.5995,-146.2334,149.8516,2.4862,-19.4942,-59.7531,-136.2120,-265.9479,126.6210,-194.1808,-65.0908,-110.8832,853.3029,-117.1293,281.7973,-354.7534,125.0643,-110.6980,141.8986,-106.3202
-3507.8125,-26.9366,-144.3613,152.7770,-61.0708,-16.3431,-20.0508,-92.0665,-228.2392,89.0081,-194.1177,-172.4617,-138.6947,933.3925,-152.7668,358.0591,-277.9684,60.7530,-71.5834,146.0667,-68.6178
-3500.0000,-160.0588,-172.0718,15.0959,-86.2647,-44.7804,26.0373,-78.5908,-185.1249,204.8401,-261.6200,-273.4549,-125.8046,982.8849,-71.0019,403.7408,-195.7946,36.8020,-68.0089,189.6518,-61.4900
-3492.1875,-119.5190,-201.1204,20.0558,-112.8564,33.4487,67.7587,-32.5353,-145.3489,207.3734,-370.4307,-268.8146,-104.2316,954.0252,6.4052,445.0934,-300.9819,10.4578,-24.7386,160.9089,-21.6923
-3484.3750,-194.8174,-242.9992,-22.8405,-150.3359,-10.1604,134.6161,-69.4028,-43.4106,161.1046,-233.0490,-311.0453,-114.0083,878.3100,35.9618,475.6119,-270.0398,-27.7808,4.8955,155.3369,7.2790
-3476.5625,-178.1988,-332.9562,-3.8421,-236.9569,-28.8532,153.3526,-83.4366,-26.5624,249.7893,-144.7345,-292.3959,-207.2079,936.4874,-57.5888,457.0463,-214.2068,-44.1673,-13.4891,207.6904,-12.8249
-3468.7500,-166.8555,-356.1982,11.8582,-291.9279,-13.8302,131.7676,-28.8392,-50.0116,262.2360,-133.6782,-241.0624,-229.9081,955.3582,-43.4508,508.1956,-235.6806,-28.8991,-38.2641,185.7651,-36.1997
-3460.9375,-203.2967,-358.2226,-27.2540,-290.7482,-53.5981,129.3661,-62.1184,-17.2480,256.9393,-138.3578,-243.5509,-205.6519,883.4131,26.8890,505.5609,-200.9720,-62.4865,-7.8713,220.0622,-3.3435
-3453.1250,-286.0256,-301.5251,-73.6749,-230.9185,-100.6532,119.6479,-32.7762,-28.7668,355.4006,-41.2873,-290.3572,-171.9874,803.1499,15.9427,532.6412,-247.5823,-72.4305,-58.3028,243.0778,-51.7595
-3445.3125,-320.4900,-231.5525,-141.8601,-192.8803,-132.4473,125.1653,50.7341,-62.0186,394.1651,-2.9165,-321.9322,-160.8537,775.1177,-53.7523,537.9926,-242.9524,-104.1725,-129.7879,245.3634,-121.9026
-3437.5000,-241.8899,-152.5009,-58.0067,-181.8346,-13.1775,97.7099,100.2139,-91.2109,364.0409,-180.4487,-275.4764,-149.9264,861.1174,-119.3967,473.4058,-270.2877,-127.9100,-118.2192,183.7257,-113.9731
-3429.6875,-235.0672,-112.2148,-52.9526,-208.6313,28.3104,65.4358,109.8200,-125.1882,330.1759,-178.7357,-233.8388,-159.4122,833.2966,-152.8472,405.0230,-228.4538,-153.4929,-78.9187,155.3038,-73.8200
-3421.8750,-296.8712,-104.5508,-153.5561,-162.1250,0.1660,110.4966,47.6928,-44.7962,224.7124,11.3693,-298.8694,-104.4682,770.8022,-34.9426,339.0007,-72.2948,-282.7680,-43.9590,94.2510,-30.2893
-3414.0625,-343.5504,-80.7678,-164.0580,-171.5758,26.1407,173.6359,40.5863,52.7099,101.4183,-2.3729,-309.8124,-50.4306,690.3873,63.0616,365.0938,-120.0560,-291.9921,-53.4652,83.3183,-42.6331
-3406.2500,-314.2498,-87.0069,-168.6080,-175.1226,-15.9195,205.7040,39.3414,46.1811,94.1215,-84.1109,-241.8132,-64.8605,688.8955,21.0115,360.1479,-161.8842,-190.3075,-55.1172,149.3409,-48.9929
-3398.4375,-212.8222,-197.1130,-60.0599,-246.6117,56.1276,93.8546,79.0950,-29.2275,163.9687,-124.7051,-133.7250,-128.7809,690.4702,18.0813,396.3084,-236.6340,-121.5715,-90.7213,216.4762,-88.2103
-3390.6250,-123.8701,-249.6846,-2.0165,-226.6503,113.6790,40.4890,103.2585,-84.1179,145.3807,-69.7649,-113.1499,-151.3388,641.5141,0.6608,415.9878,-215.9206,-66.3765,-106.9378,165.1246,-105.8952
-3382.8125,-96.6463,-186.9699,-11.7275,-231.4876,66.4924,68.3501,59.5849,-95.7426,97.1091,-45.5232,-122.3369,-168.1292,560.7672,-83.5146,332.9359,-41.9829,-70.9831,-45.7944,123.0399,-43.2929
-3375.0000,-53.4438,-144.2765,32.5063,-292.4291,74.2707,38.1328,33.7683,-90.4015,101.8536,-115.2643,-42.5866,-171.9235,497.9300,-77.7457,229.8394,-71.1106,-25.6890,-2.3506,96.9320,-0.7076
-3367.1875,-4.9640,-62.3053,45.9871,-207.1730,13.3081,14.1432,-22.8903,-78.7918,39.9132,-104.6964,-29.5882,-80.9286,367.3018,45.2702,243.0001,-132.0217,23.8111,3.5518,4.0990,11.1594
-3359.3750,-0.5573,-22.4064,18.3599,-96.0703,-14.7465,-13.9615,-84.7466,-108.2592,8.9339,-61.1573,-20.7076,-40.7773,342.5219,52.1978,252.0624,-86.0602,66.1665,-67.6085,-24.8065,-55.0462
-3351.5625,141.5216,83.1807,128.3813,-58.3727,21.8670,-87.4365,-82.0453,-146.0505,-29.3275,-173.9088,89.8083,-40.1312,345.3480,-59.2176,177.7742,-123.4856,69.1255,-31.2335,-128.0470,-19.5718
-3343.7500,177.6259,84.8099,128.3997,-89.7201,20.4929,-87.9216,-79.4390,-147.8123,-69.5337,-176.6133,88.3124,-34.5650,347.1219,-24.6388,140.4949,-197.9387,37.0371,40.2737,-126.2778,51.9432
-3335.9375,132.8064,39.5213,82.4582,-203.0731,48.1782,-97.3731,-85.8812,-158.4925,30.3745,-188.2070,78.8562,-64.8534,303.8925,38.9932,241.2749,-170.3691,-5.0518,25.8936,-30.4373,41.5424
-3328.1250,116.1705,22.4191,-7.3397,-183.3285,69.0262,-76.6914,-26.2616,-102.9946,85.4972,-97.5854,25.5358,-80.0513,180.7529,-15.2099,225.2133,-76.6933,-56.0418,10.7222,-46.4299,24.3257
-3320.3125,50.5048,131.3049,-76.2007,-142.6817,34.8338,-74.0751,-56.7874,-64.5164,123.6437,-59.9425,-7.8510,-18.7270,77.5019,23.5496,155.1027,-37.0954,-120.1321,44.6349,-40.4588,63.0905
-3312.5000,128.9628,174.3291,-68.9677,-168.9866,5.7542,-67.3820,-84.3096,-57.9191,129.9640,-127.1276,35.8537,-11.6208,50.2944,29.4063,125.0920,-140.4183,-110.1692,86.4702,-67.3748,105.9867
-3304.6875,111.3554,192.2999,-83.8371,-184.4324,-46.4170,-45.8126,-97.0331,-39.3947,149.2503,-72.3481,93.4499,-28.4427,0.9200,-23.8401,109.9800,-155.8745,-91.3534,34.1044,-14.3821,52.8179
-3296.8750,139.5695,185.1113,-15.9152,-155.1286,22.2175,-51.4574,-63.0610,-8.0409,143.4045,-115.7014,125.8399,-25.1485,-37.7183,-66.2723,31.6675,-160.5590,-96.7907,-0.3118,14.4276,10.4819
-3289.0625,208.8695,218.0135,20.0545,-85.8261,20.9141,-17.0710,-135.1368,-10.6041,66.6718,-118.9339,124.2767,47.5555,-146.3698,42.3592,-6.5894,-199.2351,-62.2397,-4.7071,-56.7119,8.2316
-3281.2500,177.4445,221.2150,-12.7355,-45.3205,-49.1427,-13.4528,-240.0766,29.1132,-3.7552,-79.8406,127.9578,82.9764,-213.8441,118.2553,-38.5910,-122.6912,-57.4887,-5.9505,-52.5933,11.2715
-3273.4375,231.4029,239.8096,45.8272,8.4817,-64.8411,7.4902,-253.7684,49.2044,-131.7603,-134.3436,147.9840,118.8750,-227.0389,138.5052,-90.2334,-138.8309,-2.4369,-18.8271,-102.1090,-5.2978
-3265.6250,190.8435,233.8964,40.8332,74.6789,-33.0752,38.8604,-257.1064,78.7685,-174.2411,-104.3399,106.4583,130.3753,-192.8501,95.2038,-132.4188,-144.5638,-6.9822,-19.8886,-107.1647,-11.3775
-3257.8125,171.3064,179.0232,60.8301,55.8225,59.6987,-15.7866,-198.5468,23.3694,-82.6536,-123.2582,124.9250,102.1333,-170.7318,76.9107,-186.6117,-125.3234,9.4157,-71.5761,-57.2131,-66.4199
-3250.0000,231.7476,168.1505,51.7703,10.8653,125.4327,-24.4938,-132.1414,13.9604,-56.0492,-170.1529,153.3332,98.8051,-213.7372,104.5826,-158.8563,-208.1688,0.7054,-116.8299,-66.3138,-112.4804
-3242.1875,273.4144,174.5184,93.8968,-17.9377,167.3697,-20.0139,-125.6471,54.7892,-88.1808,-166.7804,120.9381,99.4561,-280.6215,108.4787,-152.8986,-203.8495,-62.8543,-73.0447,-60.2050,-71.3000
-3234.3750,256.4057,122.2263,41.3201,-174.4950,223.6161,-0.2479,-66.9575,110.9556,-68.9461,-38.0375,103.8391,28.5305,-295.2874,90.6869,-133.6365,-147.2667,-79.1646,-89.7252,-40.7847,-88.7840
-3226.5625,248.8258,150.3752,-5.8671,-180.7055,214.2645,-11.1021,-38.9677,136.5569,-43.2442,24.1848,57.1414,28.4696,-376.6321,79.2967,-142.9695,-84.3120,-85.1245,-27.8895,-82.9563,-25.8316
-3218.7500,256.5275,192.8181,2.1879,-137.7162,222.1632,-76.7238,-102.8290,106.4425,-73.2227,-79.2643,64.6904,65.6038,-440.8124,123.1568,-172.0533,-4.1326,-6.8848,-21.6049,-39.8677,-18.5901
-3210.9375,329.9111,230.9591,40.8854,-134.1262,223.7122,-111.7123,-100.1486,107.0095,-35.4696,-78.9876,139.8909,91.7310,-584.4336,160.6875,-243.4881,-76.3518,66.9550,17.2271,-70.1264,19.3408
-3203.1250,398.6303,264.4526,72.8830,-206.2776,218.5611,-117.4210,-177.2803,174.9123,-77.3546,135.6689,134.3933,84.8021,-807.8513,191.5355,-321.6361,28.6922,67.0491,82.7082,-107.0827,87.6149
-3195.3125,402.8842,338.4865,38.3760,-272.9823,145.9124,-153.6468,-250.0173,212.3502,-39.6750,356.8970,134.4011,74.7350,-1025.8563,191.8962,-358.2953,102.2098,0.5931,147.9184,-138.5235,161.4274
-3187.5000,464.3673,469.7668,25.0664,-211.5414,59.4642,-167.6912,-336.6490,234.0261,-54.7251,525.3911,84.6132,105.6089,-1295.7559,140.4605,-408.7485,234.8842,-78.7070,236.4897,-252.7583,257.4764
-3179.6875,431.4333,577.6473,-12.6993,-173.5933,-14.4300,-169.2075,-446.8366,306.2828,-55.1589,597.5092,84.3764,175.1904,-1516.1973,212.5867,-482.6573,233.0692,-76.5007,304.5025,-284.4373,330.1120
-3171.8750,490.1292,636.1793,46.1335,-150.0903,7.2804,-148.1483,-571.5327,327.1714,-180.9338,582.3026,178.7461,238.8965,-1603.1266,306.3300,-497.9833,33.8119,-52.7327,361.7480,-331.5139,388.3848
-3164.0625,459.3526,676.2641,15.4623,-111.1338,-23.5035,-142.6044,-637.8317,406.5975,-286.1451,807.6763,221.6120,277.0798,-1669.6483,348.5764,-601.8336,38.0176,-83.5050,326.6656,-362.0836,357.1960
-3156.2500,401.2952,723.0867,-42.5207,-63.5240,-44.5821,-127.3714,-695.5290,457.7653,-233.5854,969.8229,200.1750,282.2505,-1689.5630,289.5380,-659.9896,52.8904,-106.6247,265.3032,-384.9395,298.7377
-3148.4375,375.8241,767.5029,-32.9556,15.5884,-35.0995,-82.5969,-722.7637,466.5236,-188.4107,904.5787,209.2952,303.7209,-1642.0275,224.0633,-687.5954,-48.7329,-97.2430,277.3669,-445.2485,307.8616
-3140.6250,375.2798,696.8645,1.5017,-55.4402,-37.7157,-121.9282,-725.2072,426.2284,-154.2816,865.3110,279.3171,239.3839,-1533.6909,185.5046,-653.3153,-15.4848,-133.0112,311.3420,-340.6593,341.9233
-3132.8125,404.8650,550.3708,70.0541,-167.4101,-43.2279,-128.1736,-693.6510,420.0717,-48.9955,932.2150,309.4444,142.2931,-1501.3475,142.0616,-658.9506,-22.1657,-173.7258,309.2967,-274.9694,336.1217
-3125.0000,353.9802,569.4223,17.0988,-113.9233,-169.2433,-71.9317,-709.6936,477.4544,7.8555,989.6916,257.0783,187.6818,-1553.6044,198.1317,-675.0930,-39.3778,-189.9819,290.5822,-255.7821,319.8537
-3117.1875,338.1182,659.5157,1.1324,-24.4826,-185.2617,-88.7013,-688.8375,460.8817,65.7714,936.2489,240.7162,238.8316,-1531.9658,181.2235,-654.2424,-130.6164,-171.2895,273.2716,-271.5866,303.6154
-3109.3750,346.8367,668.2011,11.7092,18.4637,-174.7290,-115.9314,-642.5315,396.9040,39.2982,872.4332,249.9126,222.4366,-1483.8821,80.8843,-570.8485,-232.3461,-92.0940,252.3790,-227.8436,276.9611
-3101.5625,319.2767,605.6347,18.9817,-9.9278,-167.5009,-145.4731,-598.6255,366.6625,83.5839,806.3854,256.8091,183.0969,-1439.2053,50.2631,-526.7632,-189.4099,-121.2384,261.8840,-149.3936,284.0427
-3093.7500,325.3984,575.7621,24.9035,-39.7103,-198.6202,-140.3763,-593.1578,372.1107,198.5810,701.0546,299.3592,167.2495,-1432.9784,55.2982,-558.0447,-221.8541,-79.7688,269.6496,-108.2912,289.8057
-3085.9375,293.2490,579.6378,-10.4782,33.1681,-271.0399,-102.5892,-629.0798,374.2961,237.3361,703.4951,264.6223,179.6634,-1431.1547,20.0408,-593.6466,-220.6306,-6.6372,310.8394,-69.4933,328.3009
-3078.1250,286.1263,501.5558,20.1310,-10.9973,-277.4585,-146.8172,-636.0958,330.5245,305.1505,733.0128,256.8931,129.8385,-1290.4326,11.8010,-563.2593,-229.4370,54.4480,266.8985,-7.6907,284.8297
-3070.3125,326.1749,401.6607,101.8796,-42.0535,-158.7234,-176.9036,-481.0444,264.9409,276.1758,667.7518,302.3167,75.7021,-1134.6595,-54.2643,-518.7227,-332.1279,59.6396,211.1745,33.2572,219.5367
-3062.5000,291.8913,296.4603,104.2645,-41.4951,-82.3460,-101.3431,-406.4312,303.0538,278.9002,633.2123,304.3903,33.0874,-1059.3429,-125.6579,-516.5439,-295.1941,-10.5610,186.1369,104.8582,184.9258
-3054.6875,193.5229,233.2021,3.5373,-71.0692,-36.0668,-55.8872,-323.0068,350.1152,326.5786,716.6458,240.3659,13.7681,-976.2308,-117.1352,-469.4792,-323.3907,-74.9050,123.1700,110.3564,121.2446
-3046.8750,133.7721,279.5925,-58.6028,-27.0723,47.8092,-44.8320,-202.0706,324.8243,374.9091,618.7469,103.9468,73.0634,-927.6279,-68.9848,-421.8257,-424.0297,-100.6887,100.6722,120.4505,96.1920
