Time,Fp1,Fp2,F3,F4,C3,C4,P3,P4,O1,O2,F7,F8,T7,T8,P7,P8,Fz,Cz,Pz,ref
-4000.0000,-9.2108,-38.4713,-37.3664,19.9767,5.5042,33.4754,-56.7236,34.8859,-34.5634,-16.7442,-26.8742,45.8281,24.3676,64.2517,52.9738,26.9981,-9.3193,-20.6065,-3.3233,-17.4925
-3992.1875,-56.9883,-51.7689,-16.6178,43.7370,-47.1095,19.3047,-73.7517,20.6518,-13.2293,-32.7813,-78.0622,67.8585,8.9011,50.3650,38.4258,14.7421,48.8656,41.2335,18.8330,40.6285
-3984.3750,20.3820,95.0876,-45.7217,50.6482,-38.5808,-8.7185,-103.6488,-7.4314,-78.7604,-61.6627,38.8984,114.0407,17.5788,58.6340,11.0443,-11.5067,55.2007,6.4597,-9.8590,11.9087
-3976.5625,120.0516,89.2501,59.4739,80.8653,-6.7502,-13.4388,-73.2706,-49.2080,-85.0044,-30.2285,33.1672,72.5223,49.5446,-55.8012,6.9694,-47.5698,84.8375,7.3979,-15.2554,6.4884
-3968.7500,79.5835,-21.7334,53.5280,111.9320,-49.0664,-18.3132,-43.0581,-17.1387,-91.4101,-35.9431,27.2840,67.8464,81.3572,-97.3976,-34.2406,-47.9480,114.3276,7.8679,15.2026,0.9263
-3960.9375,15.9684,19.1393,62.4357,118.8464,34.4689,-8.3396,0.9872,-7.2175,-83.9786,-25.8078,110.2551,5.0266,54.0148,-123.1455,-59.5952,-44.7351,50.6693,-53.7317,-13.4865,-62.7828
-3953.1250,-11.3913,26.2670,103.5957,21.0101,2.2661,-40.1157,77.2758,-39.0460,-43.3072,-22.4201,77.4794,-63.5464,58.9238,-154.6505,19.3114,-67.3111,23.2611,24.0221,-6.9279,14.7555
-3945.3125,-23.9005,14.2486,52.6103,10.0291,25.9117,-16.0439,63.3984,-15.0301,-56.7897,37.8141,100.5512,-39.2711,8.6820,-130.3148,44.0809,-33.6158,10.7130,43.8365,-18.5231,38.1511
-3937.5000,24.9929,26.6403,65.0285,58.4516,38.9622,-2.5756,74.9077,-38.6176,-44.8848,13.4475,39.0351,-62.5913,-15.1618,-152.5784,58.2576,-51.5373,23.5659,60.9699,-5.7237,50.9448
-3929.6875,50.5980,86.7364,16.1555,49.5713,-45.2813,-13.4101,26.1092,-49.5153,15.7207,38.7733,-81.7832,0.7824,-25.3066,-126.1519,48.1501,-48.9233,14.1216,79.5495,-15.2208,76.4454
-3921.8750,49.4599,85.0821,16.5363,154.9327,-45.2778,25.0010,25.5477,-48.1672,-57.4242,39.3440,-9.3473,39.4099,-61.2040,-161.4754,13.2951,-51.7398,48.9361,47.7806,-51.4657,40.2015
-3914.0625,75.1796,75.2821,78.7802,145.1474,-55.4106,-22.7377,12.8325,-94.9764,3.2667,27.7607,-56.0478,-45.1159,-108.2606,-208.9559,3.2890,-83.7608,109.6106,79.0165,9.1349,65.8065
-3906.2500,96.2479,166.8273,29.3851,96.7095,-104.1940,-34.1288,-0.5463,-70.4376,-46.6934,52.5323,3.5934,17.7064,-119.9792,-147.0883,-7.3634,-58.8561,60.6432,19.9877,-4.9097,16.7694
-3898.4375,83.4173,223.4814,53.0926,120.3674,-43.8786,63.5804,-51.8392,-45.7943,-96.5587,2.4159,-9.6589,41.6254,-132.6070,-123.1236,-18.9097,-49.0081,12.7679,7.9183,-87.8507,3.8315
-3890.6250,60.1476,94.6935,59.3550,132.5656,-109.0086,71.8339,-119.5863,-73.6023,-126.8727,45.8560,-75.3640,87.0814,-198.6882,-113.6216,27.1057,-38.0344,59.4407,126.4465,-75.2395,121.4488
-3882.8125,56.2291,55.2574,18.9698,94.1048,-38.7905,68.4287,-124.9897,-41.0645,-168.8416,78.6616,-42.7209,83.8827,-202.4217,-43.7739,24.4797,5.8925,20.4627,118.4558,-79.2747,117.4223
-3875.0000,41.2626,38.7781,38.5424,43.5929,-18.6115,14.9736,-32.4517,-56.5797,-112.8637,61.4228,-97.1162,-6.3695,-182.2103,-95.9909,45.8089,-20.7737,40.4310,144.9420,11.6370,137.3415
-3867.1875,-15.4039,-53.4000,16.4243,22.3737,-4.1279,30.8077,-19.6129,-5.8049,-99.5753,76.4828,-45.2183,-99.3323,-93.6990,-79.9217,-10.5519,11.3422,88.7010,125.9599,58.8510,115.5693
-3859.3750,16.1787,-22.3277,88.5530,54.3958,105.6092,67.8837,-58.5314,-5.7794,-175.0269,75.7986,62.9378,-101.0530,-57.9425,-117.6061,-47.6580,5.0713,50.2179,52.5510,-15.6799,41.0507
-3851.5625,64.4684,95.4456,138.3871,33.1057,45.0546,44.6519,-83.7525,-29.0569,-162.7671,-22.1791,38.7910,-87.0891,-44.4865,-103.6014,-69.0555,-34.2729,63.4324,65.1745,-2.5014,54.2363
-3843.7500,85.5058,151.9681,88.9703,54.5544,33.2441,69.1674,-134.2280,-3.5820,-175.7552,-34.3987,100.3967,-61.3780,-20.2834,-41.8525,-80.6973,-17.0706,-21.6040,7.8201,-51.5689,5.1814
-3835.9375,73.5980,33.5584,74.6109,8.0486,93.4933,56.7299,-75.6613,-17.0585,-116.7064,-11.5679,49.0632,-147.6119,2.9592,-92.0594,-56.2953,-27.2208,-33.5916,34.9913,-28.5940,28.1745
-3828.1250,-9.7499,-50.2896,94.8099,-74.9219,40.2956,-33.1635,-92.5510,-32.9896,-60.1076,45.8183,32.2759,-162.3055,23.7458,-33.7251,2.6543,-4.5690,-45.0256,86.0499,-6.0645,85.7202
-3820.3125,-35.3378,-76.3827,31.7639,-100.1578,88.8473,-58.3168,-46.6964,15.8248,22.2422,130.9682,80.2429,-187.2552,35.2729,-58.6458,14.3552,22.6999,-70.7022,57.0055,3.2160,60.0110
-3812.5000,-35.4672,-77.0116,63.1792,-100.9501,83.8585,-135.0204,-16.3949,-60.9131,90.0456,88.5606,38.6667,-191.7668,31.2463,-98.1272,48.5049,-32.1953,-1.9267,129.6246,36.9420,128.7448
-3804.6875,-22.8396,-29.8773,41.3613,-85.9933,99.6190,-118.9727,-39.3484,-81.9060,31.5892,29.8696,89.8488,-101.5233,9.9637,-45.8679,28.4007,-40.9288,10.6143,105.9616,15.4158,107.2386
-3796.8750,15.9451,8.4205,81.7070,-12.8765,103.5406,-77.7738,-73.1603,-77.7539,-1.7345,-38.6858,56.1936,-61.1286,-22.1789,-41.4642,-2.5702,-50.9430,49.3134,113.8060,-50.9591,110.8847
-3789.0625,-27.2650,69.7189,144.0645,13.2333,-16.5324,-51.5875,-159.9702,-88.6129,-51.0537,-13.2226,45.5374,1.2534,-70.3296,-15.0760,-49.5448,-35.7664,75.0224,137.6352,-60.3274,136.5309
-3781.2500,51.5788,148.0666,156.4789,58.3768,31.4409,-3.3653,-148.7292,-40.4265,-150.3072,-74.6917,56.9370,51.6790,-94.4318,-2.6468,-72.4671,-30.0962,13.7791,78.3748,-86.6438,75.2221
-3773.4375,128.4853,119.4800,123.9553,65.5622,0.4735,1.9015,-108.4352,-34.1937,-145.5009,-144.1111,-10.6023,94.1452,-89.4884,-33.1875,-66.3406,-62.0871,20.5807,124.0087,-44.9146,116.9591
-3765.6250,61.1975,86.7135,54.2436,103.5471,-31.6968,-30.0379,-69.3462,-30.1653,-105.8925,-139.7472,28.6573,99.4013,-84.7497,-28.9370,-60.4204,-61.3910,58.1885,91.8714,-7.3784,84.5108
-3757.8125,84.0630,145.1150,6.6875,91.6823,-5.7185,-39.8281,-7.1098,-2.9857,-80.1415,-77.2447,18.0793,15.8026,-94.8643,-38.5363,-69.3594,-36.6534,46.9465,43.6708,15.3086,37.2171
-3750.0000,100.5347,161.1229,-50.2634,38.4096,-62.1347,-96.0200,43.7232,-23.2097,7.2172,-97.1428,-74.9066,32.7941,-78.3908,-21.5437,-51.6975,-54.5726,63.3075,57.1058,67.5996,53.5311
-3742.1875,84.7176,144.8459,-65.5160,22.8221,-39.8637,-36.5281,64.2470,0.2598,29.2855,-39.3288,-17.1955,55.4846,-93.2241,39.1417,-101.3343,-5.4468,12.3727,1.1890,16.5919,2.5499
-3734.3750,-23.9878,0.6923,40.3383,20.3311,-7.4896,-40.9482,131.8663,-4.1765,60.4569,-44.4057,-94.3788,15.2709,-60.9676,-2.0833,-31.8735,-7.1964,44.5386,42.6643,-22.3218,34.6665
-3726.5625,-36.5387,-12.3059,27.3609,7.9789,-92.9666,20.7690,117.6312,-16.4731,9.7932,16.6762,-71.4107,76.1907,-109.5717,22.8308,-43.2661,16.6633,-4.1409,25.1419,-35.0837,21.9419
-3718.7500,54.0150,112.7941,-60.5016,-42.2844,-33.3365,43.5817,175.4925,7.3243,-4.7623,39.8675,-86.3213,-9.8019,-88.0862,9.8304,-56.5703,21.2768,-124.7157,-29.8019,-14.7476,-28.6813
-3710.9375,-31.3614,60.9573,-114.2989,-93.5055,-87.6453,-9.5679,267.4125,-9.8386,50.7451,22.0987,-139.1759,46.2467,-31.5532,29.8653,1.1633,8.2165,-139.2393,-12.8386,4.6368,-9.2491
-3703.1250,-119.9316,-62.0574,-167.2875,-39.9373,-29.1577,48.0707,323.1310,10.7855,-2.9332,42.1324,-46.2312,68.0952,26.7744,13.6903,-13.3153,26.0048,-122.9572,-61.3322,-13.1760,-62.0107
-3695.3125,-188.1962,-60.7427,-129.9714,-38.0693,-27.3657,13.0015,360.1409,-23.2960,34.6922,80.4884,-7.9832,-39.7641,64.3929,-57.1905,63.4896,3.2437,-121.3772,-57.7620,-11.6976,-60.4816
-3687.5000,-233.5536,-36.5114,-138.7380,-153.3038,-109.6725,-32.1787,350.0549,-32.4861,98.2224,218.7404,19.1689,-121.7345,92.9029,7.8080,92.1817,52.7415,-166.8832,-116.3938,12.6808,-106.0495
-3679.6875,-115.6490,-24.0235,-123.2319,-211.2937,16.2809,20.8889,400.2208,-16.4375,75.9973,123.2159,108.5919,-179.4609,108.6597,-12.9594,72.1075,26.7549,-190.1275,-171.1964,-10.6862,-164.3633
-3671.8750,-65.0338,-149.8341,-38.0046,-231.5906,27.9468,-40.3473,411.0915,-77.6983,86.4736,24.3864,82.7268,-167.4989,157.1115,-37.0404,84.7145,-28.9064,-68.6656,-77.4762,39.6500,-78.9747
-3664.0625,-71.6652,-156.8780,-7.0215,-273.1559,60.3558,-45.8489,404.7134,-82.2146,80.7093,19.3251,224.6080,-134.7908,188.3046,-78.3775,44.0559,-48.7078,-40.4510,-119.8145,32.7432,-120.8338
-3656.2500,-95.6871,-217.2800,77.5627,-227.1333,108.3688,-34.7552,413.9365,-71.1333,127.5504,-7.1300,198.0964,-160.4834,163.0845,-141.1172,92.9722,-64.7822,-29.6461,-100.9966,8.4312,-110.0991
-3648.4375,-130.2580,-286.2130,74.6079,-155.6710,-4.1661,-36.2218,335.6132,-73.6101,160.8609,-46.1386,159.0285,-162.7402,160.3030,-106.4190,128.3263,-66.5613,41.6123,-28.2685,44.5699,-38.9149
-3640.6250,9.9710,-76.3461,2.4596,-156.4306,-2.9033,1.1045,262.0934,-35.2916,160.9913,-45.3512,122.7654,-87.2118,87.3096,-67.9298,57.4592,-52.5408,-29.3264,-73.7361,8.5124,-74.9357
-3632.8125,41.5573,60.8704,-3.3206,-159.8631,-45.2777,-40.2185,254.9352,-77.6280,154.4839,-51.2183,-30.1432,-55.3525,8.6577,-73.1113,15.9157,-72.8914,-32.9164,-42.1961,39.8084,-43.6120
-3625.0000,-70.5998,17.3399,-84.8378,-96.0578,-52.4018,-10.3037,172.0343,-10.7243,146.2502,15.1630,-0.8022,10.7442,-35.7495,-6.0608,-27.3904,-7.5703,-40.2471,-53.4590,32.3612,-51.0331
-3617.1875,-102.8420,-119.2608,-44.4523,-57.3640,61.3796,29.4964,174.0385,-6.9253,222.9340,18.4556,2.4473,-58.2664,-32.2648,-76.1115,-59.8162,-16.0794,-36.6825,-39.1880,105.8105,-47.5596
-3609.3750,-201.6124,-220.3782,-39.6115,-158.2291,30.6073,-38.2657,177.5011,-1.6822,411.0888,133.2045,-66.8613,-126.8395,-27.3432,-70.7261,-16.8100,15.1553,-31.6775,-38.5490,181.7090,-42.6351
-3601.5625,-223.6698,-135.7708,-59.0633,-143.4006,84.5256,-21.3416,156.6668,89.2573,389.9596,113.6582,-12.4645,-108.7230,-83.7326,-16.6524,-35.1201,55.8191,-123.9728,-98.3829,125.3050,-99.0073
-3593.7500,-124.4679,-142.8919,-32.2538,-150.3100,111.6999,-30.1696,109.0863,79.4432,380.0890,30.3590,-96.8083,-118.3627,-56.8829,-62.3443,-7.2091,11.4023,-60.0184,-29.3714,154.1449,-35.1302
-3585.9375,-49.0622,-137.7966,-66.2317,-145.0085,42.0663,-63.8058,-0.2925,82.8193,308.4291,106.2661,-56.9568,-77.8071,-53.8465,-21.8462,-39.1301,38.5860,-54.8589,1.0096,123.1806,4.9595
-3578.1250,-12.8062,-31.8308,-66.3580,-109.8530,42.2790,-63.5994,-73.8264,47.0443,271.6230,143.0382,-20.2517,-114.4015,-53.9767,-21.4957,-2.2336,34.4750,-54.8515,-4.8685,53.0618,4.9009
-3570.3125,17.2629,33.9538,-36.6733,-43.8987,-38.7065,-70.6027,-193.5517,2.0620,225.6343,61.6038,-63.7492,-48.2056,-60.3143,-29.3564,28.4431,-13.6618,-24.0448,61.4472,83.7403,70.6456
-3562.5000,19.1901,69.6138,-35.1332,-7.1044,37.1503,-31.7706,-266.4234,41.9212,80.5161,-9.9850,10.6109,28.8331,-58.8104,47.6282,30.9479,7.2944,-23.3864,26.3386,49.2686,36.2462
-3554.6875,28.8203,44.9907,10.1192,-32.6098,45.7101,-59.2466,-259.5920,13.4750,14.1140,-37.8671,18.6854,0.5561,-49.6121,56.2997,77.1252,-4.3458,21.9759,74.1595,58.4951,81.5402
-3546.8750,48.9573,29.8776,29.8915,-47.6183,-7.2273,-112.2343,-388.2455,-3.4846,-2.7679,-18.2465,75.2627,57.7671,-66.9232,113.4463,61.7742,4.7788,41.8573,85.8494,43.2199,101.3351
-3539.0625,209.1098,117.7903,51.6811,6.3828,50.8355,-127.2325,-441.8979,-18.4601,-55.6356,-34.6299,96.8556,42.9752,-82.2464,98.5807,46.3875,-11.2763,60.7477,32.3402,-9.0597,49.1244
-3531.2500,246.0266,119.4820,88.2370,43.1432,13.6512,-127.4921,-480.7921,-54.6987,-19.7400,-34.2682,-13.7984,42.9220,-45.8289,98.4521,47.7249,-22.0207,97.3922,69.6760,-7.5951,85.6568
-3523.4375,155.2030,134.4373,31.0542,93.1475,-6.2894,-74.5179,-538.4250,-1.6978,-76.5701,18.3373,75.7953,60.1023,5.8360,115.5595,64.2925,13.8167,6.2938,43.1647,-61.8759,65.4391
-3515.6250,77.1903,91.2110,20.6796,84.9468,-51.4236,-120.7474,-550.2453,25.0975,-50.5863,118.7414,65.2033,13.0673,69.2957,68.4578,128.6291,30.4717,-36.0043,65.9240,-71.3590,92.0144
-3507.8125,58.0342,142.8528,1.1702,30.5913,-108.7059,-178.1385,-535.2028,-31.2668,1.2651,171.9856,44.4634,66.8666,122.6036,48.1890,108.7949,9.0345,-19.4450,76.3228,-54.9909,108.4398
-3500.0000,112.0814,231.7060,21.8689,49.4359,-14.7898,-119.3407,-478.9508,-10.4442,-51.6650,155.4322,65.9379,51.8585,70.1064,33.1036,57.1364,17.2277,-37.6741,28.2602,-107.4249,56.0620
-3492.1875,124.6361,173.0825,32.0765,25.7815,-39.3703,-109.0486,-433.1879,-0.1337,-41.0715,129.3862,-33.0879,-11.6597,43.1055,6.5027,68.9499,10.5080,-24.4021,82.8567,-24.3606,103.1742
-3484.3750,68.7982,82.0938,-24.1118,5.7288,-23.3603,-92.1670,-379.8183,54.7679,-61.8549,145.9272,56.4773,6.4232,60.6962,24.4972,13.3342,41.6366,-46.5255,26.7580,-11.6982,46.8872
-3476.5625,103.0752,81.2330,13.8005,39.7823,51.7487,-55.1910,-270.3414,55.7615,-98.5258,36.5635,94.1496,-66.3996,98.3794,-48.4158,-22.2107,-1.9273,-12.5481,3.3152,-12.9375,10.6939
-3468.7500,116.3053,24.3309,63.6738,17.7808,27.8092,-79.2792,-258.8921,31.6960,-86.2196,49.1481,106.7738,-90.2867,111.0118,-72.3987,-8.8323,-11.5149,71.3798,18.5169,-0.2218,23.4509
-3460.9375,111.5355,89.4422,97.5470,46.7795,25.8642,-44.3808,-226.4310,28.6300,-89.8930,9.7432,103.4047,-18.1832,34.6406,-0.3930,-48.4881,6.0787,65.3009,-56.9470,-5.5005,-52.7947
-3453.1250,132.0752,74.8841,154.7186,32.0814,9.2202,-24.1888,-170.6589,-24.1293,-33.2469,-81.3520,13.3371,38.2137,-19.4392,19.8964,-63.8838,-24.8925,120.5100,-30.7481,14.5140,-32.7481
-3445.3125,136.0279,78.7530,121.2912,35.7794,-24.0356,16.3921,-168.4766,-20.4983,-30.1742,-78.0461,16.6621,78.9956,-16.1243,23.5727,-95.9054,-22.7746,89.1176,-29.6257,-17.0678,-29.2985
-3437.5000,129.2401,35.8844,151.1153,28.7171,42.9552,45.2091,-68.0328,-27.6257,-37.8239,-122.4842,9.2421,35.0138,-23.5597,-20.5015,-66.7061,-42.3221,81.9778,-28.8243,-24.3952,-36.6067
-3429.6875,39.3576,-18.0797,164.8517,9.5480,19.8533,22.9077,-18.6664,-50.8663,-24.5386,-144.0208,-14.2776,49.9174,-47.0962,30.3078,-51.6370,-35.6389,97.7472,23.8435,-9.8194,13.9767
-3421.8750,-10.3190,38.1728,116.8050,29.5852,81.9480,84.7966,5.9122,-24.9190,-110.0325,-120.3669,84.4113,75.0154,-58.4402,55.3016,-100.4054,-4.8805,82.7307,-61.8324,-24.0465,-71.2439
-3414.0625,19.7196,33.1586,148.4770,24.3389,76.7487,42.3859,109.2013,-67.2819,-41.8193,-126.0322,5.8150,-4.1939,9.9103,-23.0218,-69.5254,-46.3634,77.4227,-63.2295,-29.5823,-76.7702
-3406.2500,-62.7835,-50.3828,61.6101,-23.4583,63.9979,29.4144,131.9590,-43.2122,-18.1412,-102.2593,28.6719,-16.9561,32.7058,0.0878,-45.2318,-28.2617,64.5738,-78.7265,27.3311,-89.8444
-3398.4375,-80.0782,-31.6932,45.9473,-41.0664,122.4504,50.6372,151.9327,14.0522,-35.2434,-81.2895,12.7327,-32.5200,16.6933,-15.6110,-60.7780,-5.0962,11.9270,-130.1012,45.4437,-142.7311
-3390.6250,-24.2092,-81.8284,66.4516,-20.5293,69.0576,-3.0018,171.0742,34.4596,-15.1663,-61.1751,-40.0548,-11.9531,-36.1713,-68.1779,-77.2088,-10.7169,68.4375,-105.2585,100.7073,-122.4787
-3382.8125,33.3219,-24.3013,54.6207,-33.3370,130.3055,21.9993,193.8814,22.5077,9.5840,-37.4264,20.8109,-23.7459,-49.3862,-81.1035,-126.0269,-12.8837,19.6111,-156.6836,86.6235,-171.5781
-3375.0000,35.0135,12.3944,90.9535,-67.9711,130.7045,-15.8525,228.8496,21.7033,45.4946,-38.5408,-17.1597,-97.3993,-13.4602,-117.8888,-52.7414,-29.3810,-15.0569,-121.0952,52.6839,-135.5342
-3367.1875,-58.3933,25.0144,64.1900,-90.6930,29.9946,31.1872,164.7268,68.7909,18.3251,45.2488,-43.2341,-87.1612,-39.6371,-70.7816,-79.5930,29.0262,-2.8294,-79.0614,28.6402,-88.5911
-3359.3750,-41.1018,-28.6516,46.1193,-38.7048,85.9728,86.9198,145.3143,87.5755,-73.1196,26.7477,11.4003,-68.2260,-58.1156,-15.9803,-97.7768,57.6828,14.0905,-95.4119,10.2934,-106.9555
-3351.5625,32.3487,-60.1502,82.2022,-35.5632,12.1081,48.7951,106.0733,86.5071,-74.3937,-47.6103,-99.8147,-32.1480,-132.4380,20.9567,-60.8433,46.2151,87.1525,-19.7214,48.0929,-34.1741
-3343.7500,51.5593,65.1233,-6.9648,18.3301,-41.0147,106.4061,15.6008,107.1786,-127.8968,-27.2204,-116.2864,61.6659,-185.0112,151.6381,-41.1960,95.3673,0.9575,-49.2446,-38.3565,-50.6344
-3335.9375,37.1261,155.7729,-23.7894,73.5760,-94.7912,126.3575,-39.5101,127.1986,-71.0283,-7.4747,-168.4028,44.8205,-165.2381,97.6688,-21.2343,84.8541,-13.9022,-31.4743,-89.4620,-30.7474
-3328.1250,-17.6098,137.1357,-46.9159,54.5241,-189.8736,67.0015,-26.9037,103.9114,-57.4285,5.9714,-117.8274,95.6679,-151.7664,38.3932,29.3977,50.7710,36.9331,16.7846,-107.8679,19.8430
-3320.3125,27.7014,181.5694,-33.9984,134.5366,-104.9193,115.6890,-15.2409,42.6678,-81.7587,-92.5279,3.7976,108.5707,-104.2532,14.1619,-31.9574,-1.1709,80.8209,-39.5191,-135.2239,-41.5167
-3312.5000,66.5183,185.5289,41.4186,173.0660,-102.4650,43.8718,58.9417,-66.0841,-43.5709,-200.5322,-32.0760,109.9656,-66.2424,-21.5766,43.1407,-83.1709,119.2087,5.1557,-97.0824,-3.3861
-3304.6875,3.9852,158.1551,11.4863,145.2614,-95.3673,13.7018,64.7918,-96.1965,-36.7140,-193.8980,11.6956,80.0122,-22.5824,59.3215,49.8511,-67.4940,91.2523,7.0383,-90.2953,3.3940
-3296.8750,-27.9923,91.3536,-21.8929,113.0266,-55.7193,-19.9215,104.2087,-55.7666,3.7107,-153.7149,-21.9695,47.6058,-19.3738,62.7552,53.0651,-41.7616,59.8466,10.8231,-51.9679,6.7149
-3289.0625,-10.0601,4.4710,-42.3613,25.7052,-112.1673,-41.6518,118.5461,-40.4479,19.0610,-138.6368,-42.7326,63.0852,-40.2703,78.0748,105.1365,-34.0246,41.3455,60.1467,0.2575,58.9303
-3281.2500,-37.0234,12.7059,-69.7242,-1.4991,-66.5241,4.7099,89.9954,5.9661,28.5316,-93.4610,2.6086,35.6573,-32.0726,87.4947,151.2565,-4.5453,-56.0520,27.1883,-27.4204,31.2393
-3273.4375,-42.1806,-28.2400,-76.2836,-7.8833,-73.0800,-3.1261,118.2585,-38.8221,94.8166,-64.4892,-77.2474,-45.9758,-3.0784,5.7097,143.1308,-34.8582,-26.6516,60.8061,1.6965,60.3359
-3265.6250,-86.6418,-107.4769,-84.1389,-87.5489,-80.9422,-9.2625,184.2364,-7.9154,124.8202,-34.8326,-11.4156,-51.9090,64.6133,-0.3793,99.6721,-19.2930,-36.5407,-20.6834,27.5131,-19.8672
-3257.8125,-86.2013,-106.7881,-44.0956,-87.2924,69.0881,-7.5004,296.1237,-6.1111,164.7332,3.7151,27.3179,-122.9392,66.1975,-71.5653,101.0715,-21.4145,-71.5282,-86.5918,-8.7757,-91.1754
-3250.0000,-105.8534,-126.1713,43.8482,-142.1143,47.0090,-66.8410,271.9265,8.5895,215.5652,18.1599,4.9401,-146.0677,79.6730,-57.8575,78.3275,-10.1990,-56.6194,-35.5394,41.8359,-40.5900
-3242.1875,-128.1089,-77.1409,-13.8148,-93.5166,-10.6827,-14.7871,177.1455,97.6912,120.8243,107.0064,56.9550,-92.8011,-14.4555,31.2413,-54.0589,79.8699,-43.3059,-98.3284,53.8523,-98.6105
-3234.3750,-80.3615,-30.0945,33.5298,-46.8916,0.6314,33.2645,187.3879,71.7936,95.1018,80.8421,-79.0227,-81.5440,-40.5846,5.3265,-43.4884,65.1969,-31.9961,-81.7328,29.8616,-87.6415
-3226.5625,-32.6087,-52.0373,-29.1159,-69.2468,-26.0662,43.3046,159.6441,44.8952,68.3996,127.6728,-69.0062,-71.3018,6.2843,-20.5998,-33.9546,55.4759,-19.6838,-39.6459,6.8739,-40.6692
-3218.7500,43.3501,-10.7613,-23.5703,-63.3840,-20.5780,48.5388,127.1115,14.1937,0.9108,132.7235,47.2093,-65.8614,48.3528,-52.3241,-29.2597,30.2611,-50.1866,-39.1463,-58.9212,-35.5037
-3210.9375,63.0569,-61.7132,-8.2842,-44.7488,-77.3430,27.5165,68.3473,-7.7573,-56.8076,37.5322,25.1696,-50.6767,100.1708,-37.3083,-12.8459,-2.8223,4.0487,52.3927,-39.9738,53.4082
-3203.1250,-22.1418,-110.5467,-22.9081,-58.9897,-56.0270,12.5882,89.6978,14.3887,-144.4060,59.4412,121.2206,-28.3897,122.0926,21.8015,-102.3629,35.8864,24.3762,37.8977,-19.9300,38.4286
-3195.3125,-60.1402,-113.1558,47.6529,-61.9959,13.4729,-28.1390,122.2541,10.7350,-110.7933,92.5616,43.4690,-68.8971,81.2099,-18.8872,-179.7226,41.3636,56.8944,42.7176,47.3017,34.6450
-3187.5000,-153.7343,-101.3514,58.6100,-85.5656,-48.6397,-17.4646,95.2201,58.4780,-63.7620,139.0702,-55.8890,15.9979,-19.2731,65.8103,-206.7245,101.9430,67.8186,50.7801,57.9326,45.2655
-3179.6875,-50.9154,-68.1401,20.9725,-52.7114,-13.3555,55.6054,129.6127,93.6039,-65.3072,100.9371,-93.8287,15.2854,-93.3389,64.8879,-208.3589,106.8471,30.1543,15.5036,54.9756,7.2879
-3171.8750,16.7699,-104.0542,14.1903,-88.9899,-19.2086,-25.4862,195.8824,13.5630,39.0211,94.6275,-136.9111,-28.5804,-62.5404,-16.2082,-142.1788,42.2472,61.3401,82.7521,50.8659,74.1547
-3164.0625,-30.5592,-151.9444,1.4043,-101.2402,-32.0776,-38.5870,146.1661,0.5154,26.3674,118.3249,-4.0032,-4.4427,-39.7403,7.6901,-83.0352,44.4501,13.5215,62.6539,37.7488,61.0226
-3156.2500,-30.0021,-150.9102,1.5077,-100.5490,3.9428,-38.7797,181.3496,-36.6292,26.6211,80.9268,32.8041,-4.3997,32.9515,-29.5078,-47.0337,5.7088,-21.4005,62.4659,2.5179,60.7853
-3148.4375,-70.4885,-120.9184,-5.4402,-106.8781,-3.0960,-82.0199,209.4960,-79.8307,55.8373,72.4735,61.5469,-12.4108,61.5909,-36.7575,-56.1220,-17.2477,7.6338,90.6734,-3.7636,89.5025
-3140.6250,-52.0228,-31.9662,-21.4480,-53.2271,54.8020,-62.3154,193.6050,-60.0853,41.0111,19.9686,83.2404,-27.4724,83.1740,-53.0629,-109.2962,-30.8096,-9.3759,40.5057,-21.0922,37.1701
-3132.8125,-34.6573,-50.0987,-6.5595,-36.6398,31.6004,-47.7140,170.6284,-45.4405,18.0944,-3.6397,-13.1671,-85.6398,96.6570,-74.4755,-96.6072,-35.3668,6.5146,96.3874,29.4763,87.7250
-3125.0000,-46.6987,-26.6230,-92.0743,-48.4143,-17.0116,-24.5143,120.2713,-22.1991,5.7914,57.3458,47.0212,-26.2120,83.7491,-15.2904,-146.3535,2.9779,-5.9973,74.5545,16.6394,74.8718
-3117.1875,-0.6985,21.9131,-78.5473,-1.0971,32.4191,-48.2557,168.9746,-45.9003,-17.4611,33.3738,97.2623,-12.7203,59.8917,-2.0427,-135.0932,-7.0591,-29.4626,50.5421,-42.1579,51.0558
-3109.3750,-5.9453,15.2133,-52.2708,-6.9868,-50.4036,-57.2373,84.4424,-54.8511,-62.9596,22.1408,13.2409,50.5244,48.7855,60.9528,-36.1217,2.9354,-36.1807,107.8846,-84.2148,113.9849
-3101.5625,-137.3451,25.3827,-152.1551,74.0117,-113.3934,62.6275,-51.2317,65.0503,-198.5874,179.7602,-12.9378,171.6163,-49.4714,181.8020,46.6597,133.7769,-167.0499,67.5371,-251.4184,87.7610
-3093.7500,-196.8936,108.4215,-179.1954,190.9001,-214.5379,145.3435,-117.0427,73.8052,-189.3516,189.2408,-150.2648,217.5525,-150.8777,227.4985,-91.7438,166.7004,-121.0769,117.2031,-240.7828,133.3772
-3085.9375,-95.9520,138.9687,-146.7381,116.3331,-181.1986,67.5573,-47.3410,-3.9398,26.4051,0.2214,-44.1059,176.9873,-44.7833,150.6846,-317.6734,49.0779,83.3923,88.1734,-0.6539,92.4954
-3078.1250,106.7872,-43.6725,-1.4984,-137.3845,72.9246,-155.4229,207.1660,-152.8802,356.9710,-112.0134,173.8550,-81.7671,136.1166,-35.3235,-357.8358,-108.7261,181.6542,-49.8258,202.2648,-56.5916
-3070.3125,154.0851,-172.7524,121.2851,-265.5092,122.5936,-251.8504,292.2359,-249.2696,480.1039,-99.7212,149.3601,-179.9720,221.5722,-133.7791,-162.4760,-176.2202,157.4629,-75.0318,177.7237,-81.1298
-3062.5000,123.6862,-26.5156,125.3523,-120.2919,200.5446,-175.9810,185.6167,-209.3676,263.5512,-206.1192,226.1535,-101.8674,225.3282,-129.9377,-123.8375,-188.1648,90.5704,-69.6897,40.4784,-77.3632
-3054.6875,105.9272,27.3818,139.0475,4.6232,214.1338,-124.4620,124.6526,-231.8216,167.6529,-265.8389,129.5953,-51.1124,165.7332,-188.4625,-147.5787,-220.9503,143.3172,28.6640,57.8734,10.0453
-3046.8750,27.5539,20.6779,93.1315,-38.0204,94.1107,-97.5436,4.0969,-204.8779,195.1663,-128.1536,83.4273,13.0391,82.5410,-124.5999,-194.9528,-155.6719,100.4607,45.7807,119.6699,36.8531
-3039.0625,-20.9756,42.8306,81.0555,-50.7676,117.9228,-36.7745,-45.5953,-108.0735,183.5302,5.3648,107.1163,-35.9500,33.2029,-64.8751,-209.5079,-59.6745,-19.5442,-10.9576,70.3156,-12.4922
-3031.2500,-121.5056,-23.0049,80.9795,-79.4656,81.7339,-37.0022,-81.2759,-106.2711,183.8926,-32.1316,70.8031,-35.9387,69.8677,-28.1548,-137.0868,-59.3680,-15.5528,63.0155,108.9513,61.1578
-3023.4375,-173.2479,-3.0295,28.6947,-26.3143,66.3279,21.5651,-134.1496,-86.6753,96.0561,-84.8200,128.2793,22.8725,54.3312,30.3564,-190.8933,-43.7927,38.2420,10.8629,91.3844,8.6104
-3015.6250,-154.4029,87.5527,16.0016,64.4906,89.5208,81.7397,-149.4162,-62.4776,9.8204,-23.9192,41.3568,83.2879,4.3937,16.4750,-279.1299,-10.9096,21.6404,-74.3883,39.4149,-78.3455
-3007.8125,-101.7638,246.9298,-1.8887,119.1493,-1.4916,100.7214,-203.8608,-43.4783,-7.6077,30.7469,-49.7761,139.5035,-50.7371,72.3929,-334.5922,27.4444,3.8462,-99.5761,-13.7459,-96.5024
-3000.0000,-7.1336,377.3053,-12.7869,178.8593,61.4879,90.7073,-215.2902,19.5237,-91.0354,57.3867,-23.9112,165.7282,-60.8601,62.3192,-383.0746,49.9276,-77.9435,-150.0248,-95.9006,-143.6632
-2992.1875,42.5933,462.7845,0.4017,159.7272,0.5660,65.8008,-202.6017,31.6355,-78.3648,32.1103,-84.9453,142.0571,-48.8644,37.3531,-372.4731,31.3584,-99.6336,-101.4759,-81.9540,-94.7328
-2984.3750,43.1562,429.1176,-36.5689,161.5003,-36.5188,65.7400,-167.0492,31.5957,-40.8382,-41.2930,-48.1402,142.2366,23.9965,37.2217,-337.0406,2.5295,-99.4808,-101.4248,-47.1590,-94.9494
-2976.5625,76.2082,320.9615,-2.0605,89.8286,34.8798,27.1753,-57.9944,30.0546,68.1782,-44.1570,-49.8340,29.9207,59.3575,-38.4211,-267.1259,-23.3011,-101.8430,-134.5529,19.1194,-133.6706
-2968.7500,63.9035,204.4624,22.0927,43.8485,-15.0838,-22.7387,-35.2872,-19.8412,129.8421,-57.3654,-26.8877,54.2523,83.3693,-51.4247,-281.5658,-50.3685,-9.5582,-146.6336,42.0359,-146.7377
-2960.9375,197.6909,268.0538,91.3356,108.0088,55.0352,-26.5532,-76.4789,-23.6386,52.6017,-135.5002,79.1668,13.6881,42.4964,-18.3167,-323.9100,-57.0643,53.8374,-222.3970,-35.9497,-224.6980
-2953.1250,365.2226,295.3873,191.3290,100.9619,80.9015,-111.6113,-87.9092,-144.6847,42.1092,-219.9011,31.9829,-34.1267,31.3921,-66.4516,-299.5201,-139.1249,149.9891,-191.4754,-10.1881,-198.9097
-2945.3125,395.8972,256.8688,188.4677,63.1029,40.9062,-114.5180,-91.1796,-148.5847,75.7667,-150.1655,28.9438,36.2144,-45.5484,-69.4422,-268.9924,-124.8765,146.2959,-235.6957,19.7233,-238.9665
-2937.5000,404.3180,302.1045,163.3401,109.0388,88.6455,-65.6692,-42.6977,-99.7342,88.1620,-64.6814,2.6538,11.3118,-70.7366,-94.6920,-258.7256,-86.7052,48.3506,-299.4704,-42.6191,-301.2756
-2929.6875,418.5356,317.1373,98.9964,123.8087,-11.8225,-56.0146,-33.4101,-53.0868,135.3526,-129.3946,-60.8449,-51.7884,-61.1181,-122.1469,-176.6567,-106.1965,62.1996,-215.2399,-65.1648,-217.7828
-2921.8750,498.1843,291.6198,72.0786,135.0622,-2.8555,-46.9075,-61.6667,-80.9846,144.9877,-156.6547,-14.9059,-79.4240,-52.0429,-113.1412,-206.1458,-124.0494,36.4931,-207.9106,-56.2559,-208.8338
-2914.0625,499.6214,223.9086,107.9438,68.1557,32.9080,-84.9946,10.8859,-118.0739,218.4167,-195.1156,-53.1679,-116.2529,-89.1649,-113.3285,-208.8500,-143.0327,107.5804,-166.5625,-20.5504,-173.0905
-2906.2500,426.1493,150.2914,29.9033,31.3846,-45.2363,-88.9801,6.5509,-122.0625,251.9461,-162.4815,-20.3392,-46.9836,-93.1767,-44.4209,-177.4649,-119.9450,103.7723,-177.9485,11.2592,-177.2416
-2898.4375,309.0096,69.0090,-15.7980,20.9974,-17.0354,-60.6110,33.5730,-57.6978,316.8165,-24.4995,-29.1513,-55.3593,-102.8256,19.8384,-114.7367,-33.0775,21.3105,-267.9338,-36.5781,-260.0419
-2890.6250,333.4467,95.3094,-29.9034,48.2459,-104.2324,-37.6385,57.2090,-34.7267,340.2762,-75.9205,-153.3630,-32.1272,-115.8584,6.6907,-56.4073,-47.0533,11.4436,-206.2473,-47.8169,-200.2422
-2882.8125,458.1139,255.8527,-49.7746,103.7828,-51.1928,15.5874,73.0966,-18.4993,172.9783,-280.0826,-137.3358,58.3627,-136.6369,22.7898,-114.8336,-95.7441,-6.1710,-146.7444,-64.7995,-147.1925
-2875.0000,480.1277,243.7552,-31.3052,127.7135,4.1939,34.1731,91.3423,1.0912,119.0091,-370.9025,-118.9556,4.2014,-81.0583,-31.7617,-169.9236,-129.9616,-54.4351,-46.3842,-78.4351,-54.8019
-2867.1875,281.7370,151.2428,-59.2314,72.2820,-96.8239,6.3670,26.1938,46.2816,91.6278,-106.1396,-108.9856,49.6367,-107.8707,13.2809,-200.4124,-24.1951,-147.0884,23.6803,-100.4669,27.1934
-2859.3750,116.6778,93.0549,-119.8128,50.2318,-85.4981,55.9134,38.3990,131.8238,104.5777,52.9774,-61.6625,25.4323,-96.3220,25.6807,-152.5550,57.9420,-241.3831,-6.8436,-125.1509,2.5378
-2851.5625,-33.6518,-20.3887,-98.6550,-28.0290,-63.4262,3.2183,133.3600,117.1240,200.2642,73.8471,-185.5955,-26.0175,-74.0178,9.8405,-21.9440,56.6186,-251.9284,92.0696,-101.0887,97.6257
-2843.7500,-184.4478,-65.2918,-183.9535,-35.7079,-148.8195,28.0783,83.8727,178.9787,188.4909,245.2663,-160.9842,-0.9162,-123.1500,108.5530,-35.7780,160.4271,-296.9160,106.5352,-111.4794,122.2692
-2835.9375,-200.5987,-116.5544,-199.6075,-14.7054,-128.5693,49.5943,105.0379,162.4889,209.3424,192.3241,-140.7005,-53.1631,-64.6138,55.9152,-16.9628,125.1921,-244.2490,59.9180,-58.2222,69.5655
-2828.1250,-138.8963,-158.9802,-135.4124,-20.8220,-100.4708,40.9629,169.0557,117.8474,201.0223,-73.7825,-75.5588,-61.5539,-1.2084,10.1240,82.7073,16.9565,-111.7299,63.1175,-33.1162,60.7231
-2820.3125,-94.3509,-148.5540,-52.3824,59.9496,17.4576,87.1930,177.9153,90.0594,100.5269,-212.0447,5.4305,-16.0718,45.0557,-53.8040,90.2264,-43.9098,-67.3617,81.9974,-129.1678,69.7395
-2812.5000,-133.7631,-152.0844,-25.3179,94.8113,9.4274,77.4886,131.8237,8.3324,128.0590,-111.2550,-149.5367,13.4675,0.3782,-99.6767,115.7994,-51.1842,-35.9450,184.2629,-133.1775,170.8069
-2804.6875,-180.9989,-127.4338,-111.0661,118.9039,-77.4164,101.9867,45.9336,67.8078,115.7864,22.7360,-162.3154,73.2089,-49.0882,-38.3486,101.5918,23.1613,-48.3268,162.9561,-75.9810,158.0861
-2796.8750,-158.7561,-140.2932,-124.3358,107.5169,-52.7668,126.9865,32.5473,92.7883,104.0037,83.2391,-138.5873,-11.5369,-24.0445,-87.5130,87.9001,35.4157,-62.2235,114.8007,-19.2833,108.8685
-2789.0625,-178.8344,-264.4697,-109.9185,91.8498,-149.4191,103.6926,-26.1266,143.4787,117.9110,96.4476,-161.1667,-70.5770,-47.2939,-73.9730,99.9222,59.7992,-46.4344,166.9539,65.1205,159.3590
-2781.2500,-215.0307,-264.7761,-110.6227,127.0927,-76.1774,141.3004,-62.8930,144.0746,81.7150,133.5613,-50.8429,-69.7122,-46.6332,-73.5212,98.8545,75.7346,-47.7529,129.3033,28.4338,122.7609
-2773.4375,-245.0412,-258.8973,-71.1431,134.5559,-36.7366,107.1151,-60.4546,72.8813,49.7089,98.8896,-48.3142,7.3548,-43.7691,-107.8639,173.9918,30.2927,27.1179,172.0464,33.9500,162.3644
-2765.6250,-257.7160,-200.6807,-85.3187,194.3909,-87.9545,92.2821,-111.6660,95.0445,-1.9506,47.5824,-63.4504,101.7737,-58.5522,-11.8594,194.4922,49.5772,49.3349,191.3705,55.8193,184.3267
-2757.8125,-230.9072,-136.9785,-129.0048,259.7481,-21.6827,159.9500,-119.3792,125.7166,-82.1233,-32.2151,-70.0876,95.7001,-64.8344,17.6524,149.5053,53.9670,42.0538,152.0859,46.1936,140.7927
-2750.0000,-295.4243,-200.6006,-124.9991,232.8313,-90.7149,90.3284,-78.3883,57.0997,-113.6111,154.6878,-139.0238,28.3247,-23.4059,-88.1337,189.2342,51.9792,12.4726,190.7867,17.2677,181.9607
-2742.1875,-288.5661,-158.8421,-191.6035,206.3370,-84.3610,61.1235,-107.9956,27.8922,-179.7208,308.9972,-58.5645,71.3567,21.4310,-117.5121,195.3700,67.3858,-51.7031,149.1580,-47.2564,152.5329
-2734.3750,-213.7191,-118.0942,-152.2191,213.8654,-81.0063,64.9301,-68.5985,31.6931,-249.8499,201.3083,-92.0993,39.3911,97.2789,-77.8916,270.5163,48.6977,-117.8787,189.5351,-77.7801,192.1003
-2726.5625,-233.9785,-171.4634,-175.9369,162.3085,-104.7537,42.6415,-18.2926,45.3993,-273.0945,104.5145,-78.7388,53.3285,112.0347,46.6287,282.5789,64.0785,-102.1565,239.8343,-27.3983,242.5757
-2718.7500,-250.8064,-258.4009,-192.2151,112.2212,25.9429,62.8072,39.4638,65.5682,-325.9170,124.1733,-21.9255,0.7224,95.2516,66.6139,265.1041,93.9224,-119.9874,190.0315,-10.5652,189.5047
-2710.9375,-327.7970,-299.5091,-163.6435,73.9961,-19.5101,55.8336,68.0691,21.5947,-296.9118,152.6836,-103.2568,-44.0368,124.3281,22.4589,292.4953,78.3153,-54.9694,223.3632,53.1216,218.2862
-2703.1250,-344.9534,-244.7987,-142.2212,130.6244,-72.1199,112.7091,15.5272,78.4752,-386.0713,100.0417,-8.7402,51.0552,108.2681,79.1602,238.7653,101.8889,-72.0905,169.2129,0.6628,165.9283
-2695.3125,-320.6824,-114.6660,-116.3504,190.7121,-82.2810,177.0508,40.4315,68.8111,-469.8022,52.8536,-18.7662,77.6069,61.6651,106.3196,190.5048,104.6356,-48.7575,124.7989,-81.3442,119.0211
-2687.5000,-363.7760,-50.9034,-123.8299,222.4580,-126.7923,170.0480,69.9903,24.7995,-439.9001,45.3123,-63.1455,144.8076,54.7198,136.1339,181.9155,96.9217,-20.7656,116.4256,-88.7023,111.7692
-2679.6875,-380.6318,-31.9165,-140.0649,277.4583,-106.0550,190.2953,53.8020,46.0427,-455.7671,66.0244,-7.2679,165.2596,2.0343,193.2096,200.5929,130.5736,-73.5201,59.5705,-141.8053,58.7715
-2671.8750,-324.6419,-46.1013,-157.4540,231.3117,-160.4600,136.3974,109.4637,28.1416,-399.8023,47.5872,-134.5320,185.5598,-13.7867,212.1363,292.1425,117.1560,-87.4276,112.3407,-156.0560,114.6252
-2664.0625,-209.5709,0.7916,-256.7551,209.2583,-185.7690,111.6040,84.2286,3.3423,-350.7604,-50.7414,-122.7036,196.9652,-2.4975,261.1674,302.8186,79.9144,-77.2383,81.4909,-111.2007,89.5879
-2656.2500,-110.0710,-5.8827,-188.6236,205.6475,-80.6294,107.2674,152.4413,-37.9993,-282.2932,-165.6129,-54.4265,82.8323,66.2422,145.6593,222.9706,-1.7722,-47.6117,51.0829,-81.8949,48.0002
-2648.4375,-105.1402,-70.1261,-112.0536,177.4714,-152.0430,36.3895,156.1071,-69.8889,-242.3917,-200.0289,21.2934,49.1548,143.4339,112.6101,224.6050,-39.2548,26.4538,92.1099,-78.1364,87.8720
-2640.6250,-155.6345,-83.8023,-87.8976,165.8790,-54.8659,25.1179,180.3735,-83.1714,-217.9043,-174.8337,156.6154,1.0882,205.2327,27.1753,211.8701,-64.2923,11.1171,8.9600,-58.7659,2.3589
-2632.8125,-149.5437,-77.9017,-7.1519,139.8819,26.9129,-40.5442,261.2398,-111.8393,-63.8359,-168.0275,90.5430,-64.3762,213.6377,-75.6493,181.7621,-103.5546,53.3735,-11.3122,18.2082,-26.5472
-2625.0000,-117.9190,-80.4756,-45.8599,104.4188,-11.7612,-78.6519,222.6585,-75.9478,-65.2340,-59.6651,89.0172,-28.2897,212.6010,-39.9267,142.2343,-57.8933,-19.8210,-58.9392,49.7426,-64.8898
-2617.1875,-98.9132,-95.6771,-134.1776,91.3459,9.9635,17.6502,135.4808,20.3509,-116.2551,36.1053,37.9090,-41.7972,197.9742,-17.8054,200.1311,8.8986,-141.6154,-116.7116,69.6808,-115.8287
-2609.3750,-130.9765,-126.9606,-171.5437,96.2028,8.6483,52.9116,59.2604,55.6101,-117.3418,-2.1628,-37.2433,-43.3608,197.3062,18.2681,308.0065,18.7272,-174.4678,-46.1933,70.5766,-43.8103
-2601.5625,-100.3082,-95.5254,-178.1645,93.7881,76.0753,83.9336,-57.2057,86.6311,-196.7013,-119.6754,103.3537,24.8396,154.3942,85.1064,337.6659,10.9217,-178.5772,-18.4473,31.2310,-13.0297
-2593.7500,-88.0510,-82.5115,-58.1899,109.9522,85.1100,20.5698,-157.0719,23.2635,-186.4877,-145.5827,113.5575,34.6499,128.0874,58.5557,309.9558,-26.7884,-95.0945,69.1109,79.4862,70.3555
-2585.9375,-117.5626,-111.2728,-89.9702,118.3389,-19.6094,-10.5417,-261.6847,66.1533,-108.0439,5.7767,82.0063,77.7119,60.0351,101.2617,203.5304,39.8680,-89.3625,67.6362,154.9997,76.0025
-2578.1250,-131.1006,-88.0670,-100.7548,178.6954,43.6713,-19.6510,-272.3015,130.0546,-81.6196,69.1576,108.4698,68.7756,-23.0089,127.9826,156.1363,94.4222,-67.6351,-15.3122,141.5177,-7.3419
-2570.3125,-137.1009,-94.3417,-35.9828,245.5755,-1.4947,46.7949,-353.3700,196.5123,-88.6621,98.0975,-9.5067,98.3860,-66.4920,84.2558,110.3269,122.3344,-3.3599,20.6032,135.5857,21.8751
-2562.5000,-166.5152,-87.0524,-65.6058,289.0250,-31.0629,127.8399,-456.8421,241.5669,-192.1233,289.6451,35.1250,105.5985,-131.3666,91.1331,44.1545,204.8327,-32.4735,-14.2053,106.2594,-7.2905
-2554.6875,-88.4893,-45.3383,15.2275,263.8916,-24.1709,98.3426,-449.8634,249.0765,-185.1642,296.6470,5.2238,40.2638,-123.7899,25.4654,50.4626,187.8006,-25.1369,-3.9655,113.3892,0.0008
-2546.8750,17.9239,27.7554,17.4680,234.1124,-58.8714,-8.7543,-410.4794,177.9919,-219.8266,262.0582,7.7171,43.3244,-120.8078,28.2034,-21.7941,148.2917,83.5967,-1.1810,150.9259,2.7073
-2539.0625,108.7632,155.2741,79.1466,292.7417,39.8779,16.6067,-421.6441,167.3705,-305.0643,213.9404,106.6624,31.8417,-133.3748,-19.5917,-107.5691,122.2258,103.7695,-82.0563,65.9231,-82.1247
-2531.2500,133.3887,144.5595,138.6204,320.1257,26.4381,3.7788,-399.0006,116.5616,-318.5207,126.6314,56.4092,56.1570,-73.1344,-70.5780,-85.5094,63.8409,128.7375,-16.8057,20.7260,-22.1499
-2523.4375,121.2915,27.1138,124.3916,274.7641,49.2960,27.2601,-413.0545,140.0596,-369.6971,75.6337,115.4554,42.7721,-12.5887,-47.2534,-63.1124,63.8508,82.0028,6.0641,8.8407,1.1379
-2515.6250,66.4814,-27.0575,139.4557,187.6566,101.4626,43.0497,-360.8069,155.8712,-354.6025,164.9505,94.8119,-52.3141,3.2611,5.3852,-48.3827,119.7011,-8.4362,18.3831,-11.7378,16.7299
-2507.8125,-77.5874,-64.5077,135.2743,151.2469,22.3840,38.5975,-365.8040,115.4385,-285.7752,234.0317,126.9170,-55.6560,35.8604,0.7797,-53.8666,123.6329,23.8741,47.4197,-14.5594,49.0838
-2500.0000,-45.1732,39.5084,135.5969,187.2817,96.8016,113.6484,-327.3047,79.5104,-321.4622,87.6306,238.5313,-17.4931,37.9577,2.6831,-126.8110,74.9418,57.6827,-19.6862,-51.8749,-23.0474
-2492.1875,29.5241,78.7979,213.2201,228.5656,100.5274,118.0103,-250.5050,10.8908,-317.8708,-92.4485,131.4550,60.9705,5.3566,-30.1082,-86.4273,-7.2356,96.7855,-5.1637,-47.8882,-18.8711
-2484.3750,38.4487,53.3052,150.0956,205.0440,1.4977,92.6350,-239.4610,22.5313,-271.0533,-44.2614,68.6322,108.6904,-19.9956,18.3611,34.2400,15.7138,71.1378,-39.3988,-37.6402,-44.4320
-2476.5625,51.9011,-3.6655,89.5209,151.0187,52.0212,69.8234,-188.8682,36.7367,-146.7125,42.4932,9.3717,49.9713,-42.7946,-4.6040,121.4879,31.4962,-20.9677,-29.1015,11.1658,-30.4406
-2468.7500,-13.5631,-138.5591,52.0516,52.0316,-58.3425,-39.8807,-116.1672,-0.9492,-37.2889,79.3593,-27.7868,12.3569,30.5108,31.5403,230.8678,28.6965,19.0203,75.3890,50.0741,79.6584
-2460.9375,-60.9416,-149.3728,3.6865,43.0787,-33.6066,-14.4830,-90.3674,25.4717,-85.7840,31.3391,108.1590,75.8531,19.9145,57.7963,145.3779,31.9888,8.1003,65.0027,39.0832,68.8711
-2453.1250,-41.7810,-59.6609,21.8755,64.6145,-15.3134,4.4779,-36.0192,7.4572,-105.7555,-24.1134,15.6747,56.8981,2.8659,38.6099,126.4638,9.0818,-7.2786,126.1276,58.6496,123.6394
-2445.3125,-5.3888,-57.7421,-49.6699,33.3289,-50.7633,-29.3102,-71.4154,9.7025,-30.4922,13.6975,-18.5521,59.1872,5.0677,40.6725,164.8364,8.8455,-5.4021,121.6729,95.4807,125.6706
-2437.5000,11.6409,-75.2109,-65.5584,52.6217,42.4424,-9.4373,21.8387,-42.3900,-10.5990,35.1784,0.8892,7.1264,-11.0820,-11.6017,184.8941,-11.3017,-21.8794,72.5219,42.9672,73.3554
-2429.6875,-20.1393,-142.5073,-29.2332,23.0429,6.8643,-81.3586,58.2920,-78.2714,-10.5270,-1.1297,2.5357,9.2642,26.9690,-46.6679,148.1893,-46.9582,15.8380,149.6350,12.6542,147.2462
-2421.8750,-21.6377,-37.5174,-28.6033,23.6854,6.5854,-79.9797,-13.9537,-76.8476,-121.1737,109.8834,75.4855,45.7026,27.3224,-9.4240,111.8277,-3.4654,-20.1513,104.2012,-59.3562,111.4529
-2414.0625,-33.0969,-48.4947,32.0699,14.2969,31.3676,-127.5467,10.8559,-87.3606,-58.7886,98.9681,64.4929,-0.8122,52.7242,-20.1160,137.5558,-14.3182,-31.1052,94.6823,-70.3102,100.7181
-2406.2500,-80.1176,-25.0623,19.2006,4.2703,-17.3905,-140.6574,34.1233,-63.4160,-35.9650,48.5113,14.9446,23.1180,40.5801,39.6508,123.7754,-3.5667,-42.6101,118.4355,-46.8018,124.4517
-2398.4375,-45.2533,-95.7628,-51.7646,5.0534,20.7575,-99.8580,37.2907,12.4363,-34.2601,88.9672,-19.6941,-47.0414,6.3320,43.3382,125.9287,40.3671,-42.2202,50.3254,22.6115,54.1001
-2390.6250,1.4519,-187.6327,-73.8733,-85.4003,-1.2320,-121.1961,89.3105,-8.8556,127.2747,103.2918,-77.4746,-141.3535,21.9279,-15.1132,177.9636,13.0761,5.0128,29.9484,106.8779,32.6115
-2382.8125,69.4929,-119.1845,-36.6274,-86.5945,73.1310,-157.1778,163.6805,-80.7940,164.1494,67.9831,34.0969,-140.3171,23.8688,-50.2054,105.3853,-33.3919,38.5944,-40.8176,69.5031,-39.5044
-2375.0000,86.2264,-68.0656,129.3265,2.8252,166.1996,-174.4462,218.7460,-135.0222,145.7058,-59.6056,52.3851,-121.5792,43.5035,-141.5856,50.5388,-105.4857,125.8658,-43.2747,16.8358,-56.9063
-2367.1875,83.6923,-70.2247,162.0394,70.8966,52.0247,-140.9584,178.5653,-137.4933,104.0029,-137.4196,12.4252,-51.0968,2.8861,-108.2069,46.4821,-112.8269,229.8739,-5.6281,14.9268,-23.5395
-2359.3750,129.3416,10.7892,175.9507,118.0647,65.0494,-90.2715,118.5817,-123.7528,43.4923,-160.0038,25.6718,0.5883,-19.5369,-56.6106,-13.3384,-94.8701,205.0653,-66.9928,-9.7733,-82.9569
-2351.5625,152.4781,-0.7162,199.3605,106.6351,15.5855,-103.0776,142.1031,-136.5005,103.4708,-173.0579,-97.5749,-49.2276,-32.4657,-106.5043,10.3733,-118.0506,228.7358,-38.7284,14.0277,-58.8624
-2343.7500,133.3985,-55.4514,180.5727,88.9024,-3.0712,-84.0770,160.4294,-117.4370,121.2426,-227.2896,-5.0232,-67.2451,-13.5973,-87.5884,28.9202,-123.0847,245.1927,-56.3766,30.6375,-76.9445
-2335.9375,173.6060,-48.9170,224.0907,96.3679,40.5866,-75.7667,167.0599,-109.0667,128.2998,-292.1993,1.8419,-58.9648,30.5635,-79.3635,73.8050,-137.7809,215.9383,-84.6356,1.5549,-105.7117
-2328.1250,119.5613,-32.6631,166.3642,78.4719,-53.9833,-96.6971,109.4521,-92.9403,69.0967,-239.3452,-18.5343,-42.9332,10.4698,10.6198,126.4770,-93.7031,198.4146,-39.8528,19.2259,-52.7180
-2320.3125,78.7838,-2.1520,125.9418,109.7727,-57.2485,-62.3161,-4.8532,-21.5019,28.1858,-96.1634,51.3851,-45.5983,-66.3309,6.9177,86.4838,-27.2926,193.1774,-85.4064,-20.7904,-92.4075
-2312.5000,157.8799,6.2381,169.4113,82.8677,-50.6053,-92.0206,-34.2566,-51.1404,-1.8326,-89.0582,22.2151,-112.3646,-59.2392,-58.8589,130.4124,-58.7639,201.8213,-39.0550,23.1015,-48.1925
-2304.6875,150.0153,33.6654,161.9462,40.9062,-57.9000,-98.6684,-78.6042,-20.7256,-46.8042,-95.8796,51.0977,-45.0862,-66.1058,-28.5759,86.4237,-45.6310,194.5042,-48.7021,51.0478,-54.9116
-2296.8750,160.9015,44.8194,140.2353,17.5872,30.5561,-82.5591,-27.2071,-5.5494,-69.0395,-79.9270,66.7330,-66.0515,-13.2266,-49.5292,102.2210,-40.7555,170.9334,-106.6915,27.7489,-112.8647
-2289.0625,124.7421,43.9040,137.4827,52.1240,-8.0253,-84.4851,-65.8650,-43.4120,-35.3418,-119.0121,27.3289,-68.0606,21.5899,-88.5228,136.9883,-78.8640,240.3118,-69.9666,-7.5960,-77.8636
-2281.2500,108.0279,98.4211,123.1974,72.0093,13.8373,-97.9494,-80.0773,-56.8203,-87.2060,-132.6339,124.3743,-8.6166,43.8442,-29.0560,122.2297,-71.6777,224.1445,-125.9951,-58.4896,-128.3995
-2273.4375,175.0016,94.6250,155.6261,33.4962,46.4097,-101.6976,-47.5973,-134.5123,-18.3924,-210.5302,83.1352,-48.4689,76.7862,-68.8705,192.1831,-136.8527,221.6664,-90.0985,-25.6896,-95.2299
-2265.6250,194.1177,43.9555,138.2340,-51.9734,-6.8510,-118.2917,-64.9602,-151.0503,36.5568,-262.2554,103.0566,8.8200,96.8646,-11.5323,139.3127,-146.6305,276.3349,-73.7243,-5.7350,-74.8936
-2257.8125,219.9337,34.9779,204.5478,-25.8654,96.5934,-87.1862,1.3759,-193.8852,-43.7927,-305.2597,206.6804,1.8077,53.6365,-18.4764,59.1713,-158.7744,338.6884,-108.3824,-49.0765,-117.8373
-2250.0000,157.4444,-63.3091,247.5657,-53.1635,65.7522,-80.3716,-28.5830,-186.0111,-1.4536,-261.5451,103.0160,9.5040,-12.9006,25.2874,28.7598,-119.4901,381.7210,-61.8169,-5.7274,-74.0707
-2242.1875,118.2371,-31.3291,208.8969,-92.2668,27.2113,-44.2464,-67.2432,-113.8384,-4.8081,-153.5141,138.6496,7.4985,-51.1457,61.3606,27.6829,-56.4334,273.0493,-107.8141,25.9249,-111.9807
-2234.3750,170.5236,-13.8735,189.7349,-179.9829,45.1758,-62.6251,-13.3960,-95.1627,49.3453,-97.9578,82.8050,-84.0114,-32.8982,5.9482,83.1292,-57.6897,219.8693,-91.3222,44.0914,-93.3859
-2226.5625,128.6085,-56.6338,145.3844,-258.0263,0.9615,-107.2032,15.2710,-102.6793,40.3085,41.4168,37.7715,-91.7290,-3.8498,35.3430,112.3988,-14.5453,178.4669,-69.6638,73.0651,-63.9895
-2218.7500,93.4339,-55.6607,148.7977,-257.4375,78.5052,-65.0285,19.6985,-97.4399,44.0189,83.5618,116.4971,-86.6942,-0.0602,-33.5065,116.4430,-21.2167,108.7980,-138.6433,39.7914,-132.8239
-2210.9375,39.2070,-109.7538,165.1706,-312.0095,94.0145,-122.8861,109.0707,-155.2416,169.6689,62.6692,21.1893,-144.7076,52.6736,-90.3933,169.4647,-68.1600,90.0584,-82.0924,56.4620,-79.6932
-2203.1250,-24.9745,-172.8043,60.6001,-376.6529,100.5747,-152.6910,115.4968,-110.9911,285.3718,106.8550,64.9214,-173.6650,59.4408,-46.2243,176.5714,-37.6589,26.3487,-81.9888,99.1817,-72.4890
-2195.3125,-13.5174,-232.2186,35.6711,-471.7639,149.7826,-175.8387,164.5770,-98.0843,406.7368,156.7238,4.3017,-270.9734,108.8419,-70.3874,226.3437,-32.3405,-31.7272,-70.5038,181.5618,-59.6186
-2187.5000,-92.2221,-310.8152,-48.3974,-551.1393,65.8606,-148.1261,190.5224,-34.3221,432.9524,220.4710,-6.4628,-244.4336,135.0798,-43.6991,252.9834,10.0830,-74.9630,-12.2177,209.7973,4.1132
-2179.6875,-103.3878,-215.8895,-56.9015,-563.0750,130.4971,-120.8567,182.0255,-5.0045,312.7195,211.7811,58.3239,-142.3417,89.8504,-14.4552,172.1901,29.4371,-120.6436,-59.4150,129.5959,-40.5896
-2171.8750,-69.2020,-181.6022,-57.0392,-669.7618,130.4898,-120.2213,181.8727,-4.3297,311.8292,249.4635,-14.5326,-177.8918,89.9516,-13.8465,135.7489,40.4066,-120.9828,-60.8341,164.7399,-39.9411
-2164.0625,-34.8103,-217.1098,-90.9683,-777.3531,96.6888,-153.3660,183.9255,-1.4443,314.1399,363.3642,-12.1943,-176.2420,56.2329,25.9615,138.5166,84.0199,-86.1381,-139.7265,164.0867,-110.0838
-2156.2500,-16.7702,-164.9771,-68.2397,-796.4025,156.5390,-92.8455,207.6256,23.1008,336.0943,276.9287,11.7993,-225.9351,80.1470,13.4370,125.9493,67.2985,-103.6638,-223.4785,112.0857,-196.5644
-2148.4375,-13.5805,-126.7060,6.6483,-758.4119,121.5499,-17.1622,208.4789,24.8112,226.1986,-52.3334,49.9498,-113.4849,81.1992,15.0777,91.5400,-21.2200,5.9374,-133.3512,82.2381,-120.8932
-2140.6250,-12.1421,-89.1972,45.8010,-617.2861,196.8112,59.7697,173.5908,27.7804,43.5670,-196.3171,126.3468,-36.7977,46.4909,54.9699,-53.6067,-31.5781,42.7787,-118.3895,84.6492,-117.9609
-2132.8125,-29.4025,-177.3901,66.2674,-635.9755,217.3870,7.0029,231.0141,-24.9469,63.2332,-27.9816,73.0623,-89.8127,30.0747,2.1697,-69.4471,-8.5166,96.9084,-131.9941,138.3635,-133.7268
-2125.0000,-59.6049,-277.5386,38.8000,-738.7189,153.0371,-56.7103,276.5011,-14.6261,181.9503,129.4095,81.8289,-80.7813,76.6986,12.4217,-22.2220,31.6627,32.0831,-207.5969,145.1186,-197.4310
-2117.1875,-7.4129,-225.2986,58.7413,-758.1686,210.0846,-35.0197,334.3785,7.0924,238.0766,114.2254,140.0046,-96.3457,96.7086,-76.9125,-1.5826,0.1936,-56.3544,-259.9134,92.2714,-249.7198
-2109.3750,-23.2280,-136.0637,74.6975,-705.7252,152.1430,-19.3230,312.2565,22.8148,216.2111,-53.9317,82.1911,-116.9187,112.7069,-60.2386,-21.9270,-38.8462,-36.8098,-125.2723,147.4202,-123.0025
-2101.5625,-63.2300,-70.0357,31.4693,-642.5938,110.0051,49.1763,306.9360,91.3376,99.1515,-169.2729,150.1738,-85.6918,143.4903,44.2481,-63.4594,-13.3727,-76.4783,-92.9333,143.3697,-91.4709
-2093.7500,-75.2256,-117.0099,-18.7468,-655.5615,132.8752,109.6866,292.6180,114.8652,121.0952,-181.6017,26.1685,-99.4605,92.2591,67.7439,-2.9839,3.8366,-88.1635,-30.2172,168.3124,-30.9324
-2085.9375,-41.5694,-83.3369,-131.2952,-729.9822,-16.5910,34.8557,216.9505,113.0456,154.6994,-73.2586,-50.1809,-27.5884,90.6615,102.8890,68.1506,23.0658,-89.2168,-11.4464,167.9003,4.2687
-2078.1250,-4.2557,23.9896,-164.1903,-694.8530,-12.4117,2.6811,183.9313,117.8796,120.9621,5.7540,-45.8849,13.9336,57.6948,107.6924,109.9484,42.1193,-122.6368,-51.6575,99.1421,-27.8627
-2070.3125,-36.8804,-43.6185,-90.0431,-729.7721,-49.1791,-33.4329,146.9569,82.7718,194.2885,80.8364,-81.5318,-58.4942,20.7553,109.5624,147.7978,55.1053,-119.0312,22.0179,103.4376,47.0621
-2062.5000,-67.8115,-179.5325,-49.1923,-763.0913,-7.2358,9.1560,114.6892,88.3717,198.3411,159.6306,70.5127,-89.2256,-11.4956,78.1369,116.3594,77.3699,-114.7346,27.9377,73.4370,52.7047
-2054.6875,43.0976,-173.6088,-7.4764,-759.6477,71.5566,-21.4020,193.2743,56.8257,239.2630,55.2942,75.4217,-84.0947,30.0887,46.5738,85.7750,23.1909,-143.5936,75.0044,44.2825,95.2072
-2046.8750,22.9740,-88.7313,-28.7911,-783.3312,12.3180,-43.0026,170.8132,-0.7699,289.1558,69.9278,16.2878,3.9798,44.6087,60.9658,63.1403,3.4907,-128.5155,121.1762,60.0708,146.6700
-2039.0625,-1.8882,62.4130,-86.8398,-704.8497,28.3256,-27.3608,76.5994,14.8818,231.3249,271.8359,-4.5959,19.3025,23.3534,115.6174,6.7515,87.3458,-188.1985,15.4301,-33.8895,53.4016
-2031.2500,-13.6839,85.6189,-26.8321,-648.4072,15.3967,-38.6594,100.4345,2.5898,180.5535,222.8085,-17.4314,6.6870,10.1250,29.3300,-5.6062,48.7407,-94.8454,50.4000,-44.8015,78.1880
-2023.4375,20.1353,13.4278,81.7907,-617.4458,87.0785,32.6452,97.8778,-34.1060,30.3939,-35.6225,128.3245,41.6767,44.4708,-8.3646,-43.3821,-39.1404,-24.8931,102.2571,-10.1133,113.5881
-2015.6250,38.7974,-107.9136,175.2709,-601.7183,180.6091,89.7984,117.1713,-50.9487,-59.8997,-88.1727,184.9217,25.5214,63.6443,-24.2052,-96.3160,-47.7329,-6.0995,133.2591,9.4242,133.8436
-2007.8125,-10.8877,-88.5915,121.4108,-691.4235,89.7989,37.6106,100.1256,-30.1357,-77.5239,78.9483,94.1702,82.0042,47.4483,32.6064,-112.6024,19.1255,-22.6733,143.7774,64.6057,154.7452
-2000.0000,-2.4722,166.8422,24.6651,-720.1047,104.0864,88.5281,77.1834,19.7751,-138.0316,131.1748,108.5048,170.5873,-12.6667,120.5360,-208.7878,72.2174,-153.1557,72.1625,4.8818,95.7547
-1992.1875,-75.5433,197.7932,21.4278,-727.3651,100.8812,85.9527,73.7426,17.1855,-69.0321,91.9161,-5.6494,130.6685,-52.2951,117.9735,-174.4907,61.1269,-157.1526,72.2047,1.6498,93.2582
-1984.3750,-157.2060,47.1495,-23.3948,-846.3113,56.0850,115.7783,65.7169,46.9895,-4.6108,48.0815,-13.4062,86.1424,-97.5345,146.8013,-218.8018,69.7229,-167.7690,28.5164,27.8079,49.1612
-1976.5625,-169.0789,-106.7146,40.5996,-968.5300,156.0926,216.4042,128.4974,74.5858,-15.3684,2.0658,-23.3553,2.4038,-108.9862,64.4256,-302.3116,56.9496,-215.5869,-6.0337,50.7663,2.8703
-1968.7500,-186.5928,-228.2257,57.9576,-988.4644,136.4657,197.3958,145.6420,55.5362,75.2465,-16.6003,-78.9465,-16.9927,-91.1036,8.4085,-247.4780,26.1680,-162.0634,54.1675,105.0714,57.9279
-1960.9375,-126.1936,-97.8250,-22.7712,-1001.5766,166.7389,154.2877,138.7050,86.3865,103.7841,87.6363,-49.6501,13.5066,-99.3332,112.2956,-253.7444,87.8018,-241.6516,-3.9287,61.2770,14.8914
-1953.1250,-2.7396,60.6550,-78.4537,-987.7072,111.0528,136.2327,156.8195,105.2896,158.3785,143.9478,-177.3054,-4.9335,-154.5296,95.2477,-234.9664,92.9858,-365.2140,8.0130,44.5169,33.9016
-1945.3125,36.5802,135.0002,-110.2829,-952.0421,4.2144,104.0374,122.7847,146.0327,160.8297,185.1179,-174.1135,-1.5217,-188.8857,99.0480,-194.3454,108.7237,-395.9432,42.4137,13.5908,74.7730
-1937.5000,39.5613,172.9951,-106.4607,-741.7873,45.0142,181.4890,90.4033,186.4145,90.9605,152.9564,-133.2722,39.5407,-221.6066,66.4989,-263.0795,113.7584,-428.0289,54.5509,-52.6877,79.3080
-1929.6875,-8.3068,160.1556,-88.4826,-546.4434,-46.0317,201.0875,35.1874,168.9509,35.2680,209.9638,-225.2770,95.7507,-277.2031,86.1165,-354.6722,143.8840,-405.9934,189.0028,-98.8225,208.9917
-1921.8750,-88.7222,184.7688,-173.0476,-420.7135,-93.6224,227.1340,-86.5615,231.9353,-86.9421,346.4253,-236.8426,194.4015,-363.3662,222.1863,-439.8153,254.6252,-451.5201,206.8866,-144.5046,235.1327
-1914.0625,-47.7782,190.7308,-168.2569,-347.6952,-88.8551,232.5312,-80.9527,237.2701,-81.7744,279.2512,-305.0544,199.4039,-359.1966,227.6072,-397.6257,238.9013,-481.7135,252.2606,-172.8355,277.6261
-1906.2500,-54.1222,255.3978,-212.7588,-358.0336,-170.3783,189.6230,-126.6302,230.2995,-53.8685,234.8011,-276.5645,229.0946,-367.3382,293.7232,-367.7596,230.8949,-487.2216,311.1705,-177.4708,343.8200
-1898.4375,-107.3055,237.2339,-192.1092,-274.2701,-149.7713,209.8612,-179.1501,251.4710,-69.7724,294.5265,-181.9365,176.9330,-347.3506,278.9895,-383.7621,257.0457,-470.5956,260.4217,-194.9623,292.1698
-1890.6250,-123.2727,152.2983,-98.2643,-224.3384,-129.9630,194.3010,-122.4684,198.8440,-50.4418,315.4708,-198.1109,160.9714,-364.1778,153.4542,-399.5817,219.3984,-310.7953,293.7330,-210.2662,312.7154
-1882.8125,-58.9399,214.6792,-29.1186,-59.1443,-133.8560,190.0441,-200.4678,122.5161,-91.7783,275.7159,-92.0018,229.3076,-405.7138,149.2227,-477.1135,184.7453,-246.7032,256.0739,-251.2694,272.5661
-1875.0000,-5.0639,304.6204,31.5742,97.5658,-110.2076,177.3406,-213.9097,72.7380,-142.5387,226.5164,-105.3391,216.2041,-420.7115,135.5536,-454.1148,155.9083,-228.0725,211.1325,-301.7253,222.9646
-1867.1875,7.1807,246.9321,44.6245,105.5945,-171.1955,117.9857,-200.9869,49.3043,-93.9354,166.6663,-166.3239,155.4484,-371.3755,113.2258,-366.7874,118.2084,-181.1001,227.8299,-253.8354,236.7055
-1859.3750,25.7986,230.6158,30.0365,118.9458,-111.8355,177.9755,-177.7034,72.2149,-144.9642,154.1538,-69.9718,105.0446,-348.7089,136.2513,-380.1275,136.7844,-197.7740,179.0037,-269.5955,186.7964
-1851.5625,9.2428,213.1287,84.2555,132.0798,-93.6665,159.7790,-159.6171,54.9197,-163.1792,63.4319,-88.8137,51.4385,-294.2655,82.0753,-288.6937,89.1425,-144.6559,205.4632,-251.5637,205.6750
-1843.7500,-40.0031,128.9509,71.7868,185.4944,-106.1988,147.8817,-172.2264,5.9197,-176.0708,88.0172,9.6402,75.1159,-271.5436,34.1873,-226.9693,64.8234,-53.2400,194.7543,-264.2346,193.8501
-1835.9375,-46.8333,158.1774,69.7207,244.2912,-71.3418,183.3703,-175.4328,-32.6947,-142.5247,161.0080,-30.4962,72.1868,-237.4250,-5.3031,-192.8482,64.1675,-59.4196,118.5369,-270.4989,118.4158
-1828.1250,-53.7338,291.3294,23.5676,302.9720,-154.5741,174.7467,-220.7258,-41.4254,-115.0383,41.8862,-149.7245,174.1495,-247.4106,59.1100,-164.8363,37.7438,-32.7037,144.6298,-277.8765,146.8661
-1820.3125,10.1896,356.3161,-51.7687,398.4453,-157.0143,208.9149,-260.2243,-43.3644,-191.7224,3.5556,-115.1715,207.9120,-250.6116,94.3307,-130.0411,34.2957,-39.1939,103.2905,-282.4621,108.1244
-1812.5000,-35.5140,239.6825,-26.7587,383.2670,-132.1142,161.4236,-162.3871,-54.9592,-130.0359,-6.4048,-127.2727,160.0386,-189.4864,9.9155,-67.9220,-0.3383,-49.3486,135.9586,-221.7148,133.7314
-1804.6875,-109.7476,165.5335,-103.2987,409.5486,-172.7774,121.3804,-166.1061,14.8943,-133.8785,101.0970,-93.9435,156.6220,-157.9343,6.9451,-71.3751,46.4002,-125.0745,129.2594,-155.5305,130.7909
-1796.8750,-91.2233,255.1570,-191.0982,459.5850,-149.6984,145.0831,-180.0794,148.5017,-147.9443,198.3549,-107.8707,178.9485,-172.6377,-43.2830,-122.0909,97.1040,-247.0652,74.6266,-206.6072,80.6122
-1789.0625,-40.5396,305.9550,-249.7559,435.7776,-245.4678,122.9256,-202.9012,126.2570,-96.8352,213.7740,-203.6405,120.4087,-159.1942,-64.3786,-34.6795,74.9353,-267.9225,121.8224,-155.5395,132.5856
-1781.2500,-20.2937,221.3154,-298.8574,345.5286,-257.6947,74.3027,-215.1727,114.5471,-37.1442,276.7487,-179.8701,71.4090,-98.2085,33.0764,26.2615,112.3919,-247.2250,63.2852,-98.9212,84.1095
-1773.4375,-41.1253,58.6061,-245.0575,284.2092,-167.0260,-18.4210,-125.5521,58.7368,90.4703,294.6241,-199.1944,15.3105,-46.3387,-22.5653,80.0699,82.9265,-163.6304,12.9914,-51.4107,28.5214
-1765.6250,-52.0336,12.8201,-145.3484,339.8161,-177.4498,-28.2379,-136.0235,11.8261,80.0163,212.3760,-136.6249,42.1131,-57.5723,-69.3072,69.7571,35.4678,-35.1341,12.1292,-62.0037,18.8290
-1757.8125,24.3134,125.2901,-26.3836,482.6930,-96.6312,55.1871,-164.2443,-15.8463,-58.1559,38.3619,-17.8189,51.1677,-49.5623,-132.8029,-68.3263,-28.4551,40.6116,-0.7620,-125.3530,-8.6099
-1750.0000,36.6648,136.7761,21.5705,454.5882,-85.8168,29.6069,-116.4727,-113.5352,-121.3084,-60.6302,-7.0191,99.2236,-39.5742,-194.3228,-57.4387,-108.5532,122.3375,54.7613,-112.7173,39.9383
-1742.1875,51.5339,221.7805,4.0269,324.0036,-28.5129,49.5191,-96.2029,-94.7351,-137.9317,-76.1068,12.2645,155.7746,-57.0901,-174.3542,-74.0707,-103.8094,136.5535,-38.9651,-97.5903,-50.0134
-1734.3750,116.8155,253.2014,113.8798,244.8485,44.1827,12.8333,-60.5289,-94.5437,-65.1235,-112.1733,11.9496,44.7307,-22.2110,-247.9793,-38.3160,-137.2206,202.1621,-107.2600,-67.0736,-123.5630
-1726.5625,167.1988,161.7545,202.8291,254.8192,-15.0222,-8.7463,-45.7544,-116.2650,-50.1875,-243.1338,26.7207,22.7804,28.7559,-232.5062,-23.4742,-174.9801,320.8566,-84.2054,-17.4703,-108.0105
-1718.7500,204.5310,129.2832,280.7251,428.7770,26.7077,33.6151,-78.0324,-74.0403,-155.2769,-347.1650,141.4284,-9.2138,-4.3422,-228.0763,-92.6946,-172.6937,393.5032,-103.4879,-49.9181,-139.5015
-1710.9375,157.6246,152.5779,268.3657,483.5266,-23.8107,20.7306,-127.5575,-87.0603,-168.5901,-285.4817,91.8941,-22.4542,18.3008,-203.8804,-69.1907,-152.6800,345.8959,-83.4075,-61.6125,-115.2499
-1703.1250,82.8771,79.0211,156.1597,510.4580,-99.1722,19.9740,-165.9209,-51.9471,-133.7145,-176.6406,163.4954,13.4448,53.0904,-167.5600,3.4506,-109.3094,270.4293,-132.4976,-65.1588,-152.8469
-1695.3125,112.6278,37.9748,150.4457,464.9209,5.9506,14.7037,-98.7836,-20.3501,-139.2994,-218.2716,157.5951,7.8379,156.3780,-209.7646,70.5685,-129.0346,193.4545,-136.1655,-71.2138,-157.9418
-1687.5000,151.7832,42.3521,114.1422,394.8365,-30.5162,-58.1661,-61.2309,-56.3546,-138.4497,-215.5423,84.1078,-65.3799,192.0788,-171.5645,108.0701,-137.1338,126.8787,-29.1400,-30.8709,-46.6392
-1679.6875,158.4196,85.2149,10.2951,326.2466,-23.5343,-87.6013,-91.2131,-11.9146,-131.1157,-135.4078,128.0719,-95.1584,198.2395,-90.9132,151.9982,-87.4891,-8.2438,-35.9403,-59.0723,-38.8855
-1671.8750,79.9872,7.0021,-36.6684,244.5823,-34.6531,-97.1628,-65.2912,-22.6144,-30.8702,-107.3049,43.9264,-105.0588,224.2844,-64.4222,250.7918,-80.0843,-51.4854,23.5736,-31.3905,24.7466
-1664.0625,5.6599,2.8916,-115.5297,271.0682,-113.6733,-101.6440,-144.2697,-28.2473,-36.5022,-39.0410,37.8555,-0.8778,180.4098,-32.8780,281.6429,-58.9253,-21.6305,48.9630,-0.6183,56.4681
-1656.2500,14.1430,46.5994,-140.5956,310.4054,-64.9091,-90.3402,-95.4474,-52.0852,-60.3070,-61.9729,49.5644,-24.9027,192.3252,-19.5412,220.2800,-63.3209,-13.9807,-8.6403,7.9500,-4.0121
-1648.4375,-28.8629,3.8298,-149.1727,333.3011,-74.6516,-62.5391,-68.1310,-97.4236,-69.5916,-142.4004,3.7699,39.5676,218.7322,-65.7111,247.3890,-113.6184,47.1652,25.5896,0.0077,23.9950
-1640.6250,-15.1972,17.7357,-132.1001,378.9152,-19.7515,-44.0954,-50.1633,-117.1212,-88.2031,-125.1860,131.6135,56.6861,234.7808,-121.2502,191.1273,-130.0517,60.9646,-28.3342,-56.2919,-31.3573
-1632.8125,37.5367,-0.2789,-38.9779,356.6504,72.1879,-61.6093,4.8521,-170.7853,-32.7454,-141.9338,150.5035,-34.1470,215.8757,-174.7507,172.8957,-161.3982,111.8184,-38.1966,-39.5518,-48.6690
-1625.0000,43.5335,-29.0123,5.3925,358.7155,43.3766,-89.8823,-23.8823,-163.2136,-24.0163,-132.4414,194.6384,-62.7371,186.2201,-93.0142,70.8893,-124.8190,151.9255,-67.1858,-33.5733,-76.7456
-1617.1875,66.4476,-39.8250,34.6615,378.7564,108.4539,-24.2720,-31.7120,-133.7595,-68.3658,-139.0623,223.6615,-71.4298,177.4614,-64.3904,25.7592,-96.7296,139.9446,-145.9544,-44.6978,-157.9286
-1609.3750,-2.3732,-144.3621,71.1765,375.1234,107.7752,12.5771,-32.2933,-134.0634,-68.4501,-248.4454,111.9357,-34.8696,175.9478,-27.5201,97.8614,-106.1333,245.2128,-100.2241,-8.5812,-120.8745
-1601.5625,-15.2250,-86.9200,58.6377,394.5267,95.0405,37.3645,-81.9302,-109.4335,-153.5661,-295.8909,136.1459,26.6352,125.3760,71.2883,84.9000,-77.3366,266.4349,-114.4312,-21.5228,-132.8719
-1593.7500,27.7372,-7.6574,67.8897,398.8099,68.0836,47.9390,-71.7773,-99.0170,-143.8652,-285.5503,36.1450,73.9413,60.6035,81.8912,57.7205,-67.1306,238.4636,-140.4599,21.3340,-159.0723
-1585.9375,-27.1846,-62.2727,12.2276,375.2812,12.2225,28.6067,-54.5205,-45.5151,-52.0491,-231.1212,-20.7605,54.3433,39.9296,62.5792,37.6260,-41.8170,288.5945,-158.3239,107.2803,-178.1885
-1578.1250,-20.8902,-90.6733,95.7663,413.0316,132.5611,38.4556,28.9474,2.1641,-42.0032,-293.5119,62.5217,-9.0668,49.4660,-0.5559,10.7282,-54.6433,258.9279,-211.0744,78.4203,-241.1094
-1570.3125,11.2126,-164.2596,200.0948,371.6640,88.6921,-40.9142,22.2153,32.6326,-10.1354,-298.1106,19.6113,-125.6848,41.8060,-43.9021,40.6125,-59.9779,290.0648,-137.4301,145.3580,-173.2425
-1562.5000,52.6739,-158.4744,133.7744,303.7372,22.1693,-69.9488,-7.1630,40.4406,-38.8964,-69.3752,26.0430,-118.9607,48.4924,38.0900,47.8293,25.6910,153.5554,-185.2375,115.6433,-202.0418
-1554.6875,19.7906,-120.0250,63.0978,267.5504,62.2896,-103.3480,33.1127,79.8880,1.0174,45.9982,-6.8943,-151.5942,50.8263,4.7207,124.6799,53.5381,50.7048,-188.0974,83.5811,-198.2028
-1546.8750,-42.2814,-110.7520,-6.7863,238.2539,-44.7906,-135.9593,37.1952,84.1240,42.7541,87.1699,-77.0359,-111.4364,90.9573,8.1348,201.3133,53.7043,-12.3454,-80.5234,91.3126,-83.5847
-1539.0625,-46.0315,-44.1563,-120.3747,301.3530,-121.5794,-102.2836,-40.4242,117.6437,2.8161,231.6270,-80.8939,-40.9882,49.3892,78.8272,160.2412,124.8131,-88.0913,-96.7810,17.3377,-86.6764
-1531.2500,-9.7149,-77.4933,-122.9266,369.5979,-161.3317,-67.5686,-78.9967,115.1999,37.9399,157.1181,-120.7001,-6.4932,45.8789,3.5584,121.2129,78.1449,-17.7836,-16.8967,52.4018,-14.7294
-1523.4375,110.5238,-167.9149,-36.5857,309.8427,-112.1836,-90.9698,43.3339,-19.3630,124.9733,-196.5085,75.3978,-68.1147,205.2832,-129.8354,170.0733,-123.7490,101.4307,50.0013,207.3613,35.1047
-1515.6250,264.7139,-85.3739,51.7030,180.1326,86.9048,-185.4441,169.6110,-149.9937,213.9707,-401.1941,164.4434,-89.7937,329.6497,-298.2954,184.8705,-297.0982,113.6068,36.1618,220.2677,13.8808
-1507.8125,128.3588,-9.3635,55.4360,145.9764,16.4378,-255.4754,172.3314,-184.1800,254.4205,-286.4424,92.9371,-50.0260,331.4677,-295.3133,187.0979,-280.1713,81.2382,69.3909,189.6213,54.0879
-1500.0000,2.4204,76.0668,-1.4360,229.3225,-3.6335,-165.1210,41.4572,-129.9792,199.2842,-195.3069,109.8106,4.1312,236.6887,-204.9507,129.7069,-197.5989,60.2834,43.3158,98.3734,34.6842
-1492.1875,73.3935,6.4114,32.5855,191.6708,-6.8143,-130.8827,39.4793,-169.8888,197.0594,-196.2814,-3.4257,-34.8198,196.8079,-170.7014,90.2008,-188.1933,130.2416,119.2382,134.0265,106.1682
-1484.3750,104.4320,-32.1833,-10.3490,150.1731,-48.9498,-172.6060,33.5485,-174.7583,154.8927,-164.2193,27.3793,-39.7282,116.9805,-175.4190,83.7349,-184.5869,196.2565,150.6448,199.7277,137.6869
-1476.5625,116.3794,-19.8740,6.6116,159.6740,40.8033,-193.4478,49.5194,-158.7444,135.6376,-147.2663,44.0764,-97.7436,95.0579,-196.2528,62.1644,-174.9905,206.1834,60.4381,211.3284,44.0987
-1468.7500,67.4356,-68.4500,30.6638,178.3782,27.6538,-205.2076,111.5927,-170.6465,161.4942,-158.2256,30.8782,-146.6615,156.2413,-171.0025,49.6830,-168.5945,191.2192,13.7499,197.0216,-4.4075
-1460.9375,8.2534,-92.2662,10.4682,222.9397,44.2543,-116.2364,90.4210,-81.8155,68.1105,-179.4564,84.4182,-20.8445,134.1841,-9.0268,-45.0521,-81.2200,167.0174,-82.9531,137.4645,-98.1748
-1453.1250,60.2765,-74.8758,66.4643,272.8027,99.0449,-24.0794,109.4440,-62.7964,13.9367,-232.4999,-7.8523,-1.8378,115.3377,10.1288,-100.5967,-67.7269,148.0294,-93.7975,84.1119,-115.7524
-1445.3125,58.8600,-4.9235,28.0006,269.3234,24.3895,-61.3883,71.0257,-28.2408,123.3243,-160.0078,-46.5691,-40.2967,76.0512,82.8089,-175.6093,-18.4720,145.6042,-101.1764,153.3124,-116.7993
-1437.5000,99.4168,69.9882,35.4906,272.8931,68.6861,-53.7766,79.5711,17.2379,169.6817,-3.5979,-1.3382,-105.8273,46.7343,90.4075,-204.6873,46.2029,79.1549,-173.5748,87.4790,-181.9062
-1429.6875,38.9388,45.8512,80.9263,316.5085,3.9388,-81.2403,88.0728,25.6516,288.9926,42.7455,-104.1479,-133.4217,18.3873,25.9322,-159.8069,41.3162,52.6633,-125.4481,61.5934,-136.0807
-1421.8750,50.4589,57.7204,-15.6485,396.2399,-56.8163,-31.7126,27.5664,76.0593,303.2847,-53.9072,-53.9738,-47.0207,30.0390,112.4459,-183.9084,48.6595,-6.8367,-154.7731,2.6816,-159.2637
-1414.0625,171.1162,72.7676,-1.0956,409.2564,-5.4522,-17.0283,42.1827,90.6184,392.6953,-222.4146,-76.6773,-69.4519,43.8320,164.1095,-169.8609,17.3596,-28.1831,-138.3516,-53.1016,-144.2940
-1406.2500,240.4274,142.4862,-78.9121,407.0440,-83.4468,-57.7013,38.4401,11.8232,462.7459,-78.2898,-154.7324,-0.2326,2.2771,160.4133,-101.1885,18.1941,-29.8627,-80.2733,-55.2319,-74.6850
-1398.4375,185.9000,159.3467,-207.5856,456.0738,-102.3027,-75.2496,-16.1415,-42.8406,444.9713,235.9792,-135.6497,-17.8814,-53.1167,31.8464,-120.3736,45.6706,-121.3705,-145.4958,-110.1973,-128.9395
-1390.6250,96.0324,69.8582,-228.6169,435.8482,-122.5128,-96.1706,-37.0669,-62.8664,498.8574,326.8873,-193.9108,-74.8955,-74.8423,-62.0849,-177.9092,37.4066,-141.2188,-125.9294,-59.5140,-112.5665
-1382.8125,87.3307,61.5266,-237.4998,460.8846,-168.5629,-104.9615,-8.8300,38.2409,453.8903,207.9136,-93.0210,-10.7762,-84.3970,76.1062,-224.2919,79.6336,-115.8972,-133.8325,-32.6863,-121.0593
-1375.0000,134.8413,108.3984,-150.1879,507.2292,-82.4180,-91.5758,4.6117,14.5241,395.1231,112.1087,-79.9376,-34.4617,-108.7343,52.4704,-211.4746,44.5044,-140.3473,-150.4942,-92.6523,-144.3599
-1367.1875,73.0192,152.9321,-143.2322,550.3334,-148.6216,-158.5568,-25.2935,-51.5566,366.0038,229.9405,-146.2041,-63.5071,-175.4128,-14.5401,-242.0158,37.9518,-97.1318,-105.1231,-83.9710,-100.0314
-1359.3750,11.7089,162.9680,-131.7773,629.0379,-63.3257,-109.0607,-49.6938,-40.1530,342.3903,169.2605,-97.9802,-52.0688,-237.5767,71.9223,-304.0514,66.3520,-53.4056,-161.0182,-74.7862,-161.2102
-1351.5625,19.7526,65.3482,-12.9774,706.1882,-18.6840,-65.2374,68.2570,-32.4152,388.1317,-116.0936,-163.4006,-81.2968,-230.3721,79.7155,-333.7273,6.2960,23.6891,-129.3600,37.7559,-153.0431
-1343.7500,0.0965,11.0151,4.1182,755.7371,-1.7343,-48.1325,122.5129,-15.3926,369.1696,-318.1709,-147.5150,-27.2405,-213.8482,169.7818,-317.0963,-12.7406,74.1029,-139.7464,123.6057,-172.5871
-1335.9375,38.7362,13.9716,-27.4911,863.6837,77.5073,-4.7426,202.0693,63.9104,338.5099,-421.9687,-104.3354,-20.8969,-98.0096,249.1282,-274.1585,12.7398,75.8426,-202.6673,160.7662,-239.8393
-1328.1250,-22.6739,23.8717,-19.1579,943.6852,47.7043,-71.4161,246.5739,35.1494,383.7915,-156.8316,-171.2028,-50.6106,-18.2082,109.4062,-267.2696,33.0055,14.5524,-160.1973,169.8776,-195.1599
-1320.3125,-50.4787,102.3777,-121.2266,1020.3884,-17.4957,-136.5054,181.6742,6.9759,283.6609,256.8952,-125.4773,-41.7343,-82.8003,8.2632,-258.7815,103.6007,-120.1199,-206.1393,36.5878,-222.8935
-1312.5000,-34.3820,153.7967,-70.4046,966.0992,-39.8038,-158.7064,122.6630,-53.3097,261.4099,345.5042,-184.8546,-101.9561,-143.4814,-88.9930,-135.3969,75.5897,-139.8736,-158.9775,-53.8059,-171.7359
-1304.6875,-27.7791,54.7288,-68.0907,901.4147,-110.6069,-193.4177,52.1493,-87.1022,228.6425,128.5963,-72.7371,-98.6905,-67.6500,24.2308,-22.5065,26.6380,-29.1182,-84.7488,-48.6988,-95.0901
-1296.8750,1.8143,-21.3454,37.2106,860.8210,-43.4174,-162.1439,82.6400,-92.9064,223.8725,12.6780,69.3665,-141.4307,37.2008,92.4299,-28.6064,20.0847,34.6498,-86.2339,-54.5800,-100.4491
-1289.0625,21.6446,-36.1727,91.7463,774.5748,-61.9802,-180.6264,101.3819,-149.4596,242.3419,-79.0001,49.7227,-123.9259,91.3181,35.8629,-11.4533,-48.4954,88.6774,-27.7640,-35.2103,-45.5737
-1281.2500,75.7264,18.2535,38.5277,758.6771,-115.2881,-160.8735,48.3743,-165.7742,153.0452,-57.4545,70.3268,-103.1886,37.7089,-53.4750,8.9529,-83.0797,71.9755,-46.2178,-51.5898,-61.4571
-1273.4375,132.4117,5.2739,-14.0928,639.4679,-94.0000,-139.5404,32.9619,-216.5054,139.3336,1.6633,17.5315,-118.8584,21.7179,-106.2313,139.9652,-106.9626,22.9043,-31.1658,-65.3586,-39.7470
-1265.6250,51.3495,30.5413,-138.4610,523.5991,-145.4501,-151.9726,18.7989,-194.0027,125.8528,62.0188,-70.0095,-22.2816,6.9916,-9.7560,163.2263,-61.8505,-23.8978,18.1808,-5.8707,20.1915
-1257.8125,34.9830,119.5095,-191.1306,471.5191,-87.1996,-132.7196,40.3393,-137.8079,111.0558,83.0580,-48.8574,-1.0117,-46.0199,47.3975,110.1990,-18.7441,-76.9763,-38.5474,-23.6793,-32.1837
-1250.0000,50.0702,99.9326,-140.3582,381.9842,-73.5012,-154.0261,91.3227,-159.1697,162.6851,61.5319,-109.2532,-61.2978,-31.5615,-12.0199,86.6309,-49.1846,-26.5911,18.5176,26.9630,18.8747
-1242.1875,-14.7812,0.4107,-135.5315,282.5894,-31.7424,-149.2955,96.3573,-154.4915,131.3440,67.0329,6.3955,-56.5508,8.9634,-7.4153,91.1188,-45.9433,-57.1340,22.4364,66.6571,23.9710
-1234.3750,-126.5672,-111.0560,-67.6538,206.3300,72.0656,-155.5305,164.4399,-124.7800,89.0286,61.5497,36.0934,-25.7625,76.5554,-87.7878,158.6602,-59.0976,-98.5965,22.6674,60.4114,18.1135
-1226.5625,-203.2527,-117.4291,-111.6783,165.2500,27.9855,-162.6803,120.6210,-95.9806,82.7924,165.1524,-44.0974,4.1141,32.2650,-131.0790,151.3062,-34.3359,-70.9360,14.8565,124.2722,11.3372
-1218.7500,-120.8485,36.2772,-94.6041,178.3442,82.0026,-110.7475,136.9015,-6.0921,-47.3456,108.8567,8.8084,-52.9280,12.0930,-152.2920,57.0696,-19.4356,-59.1515,-73.5495,100.2403,-82.3571
-1210.9375,-49.0438,-32.6192,51.8650,144.9142,118.4171,-74.4279,136.5814,-42.8146,-83.0982,-38.0499,-64.8896,-127.5732,11.3314,-225.1189,93.2505,-83.8794,47.0605,-21.7149,136.6156,-45.6732
-1203.1250,-104.0655,-193.3599,105.4841,55.7159,133.9958,-94.9661,116.4194,-63.4004,-176.7192,16.1452,-12.4401,-74.0819,27.7391,-173.8201,72.5965,-49.5610,132.4547,-43.1989,116.1490,-65.8600
-1195.3125,-176.6676,-159.6991,105.5068,53.9937,171.9770,-58.1199,117.6574,-26.6032,-211.9636,53.7034,-48.5971,-74.1966,-8.4380,-99.1418,109.3500,7.4204,129.2815,-117.9597,78.0909,-138.6560
-1187.5000,-206.5021,-154.2811,145.2748,-9.8990,100.7099,-54.5280,83.6370,-24.0621,-208.4909,56.9892,-82.9923,-107.5642,31.1489,-96.7309,148.8529,9.9106,203.8821,-79.6644,47.7865,-98.7238
-1179.6875,-125.3193,-142.8635,193.0496,-68.7220,111.4561,-43.9478,58.6235,-13.5348,-343.0404,-41.7633,148.6083,-133.9427,114.7574,-123.3490,122.3708,-28.5135,249.5105,-68.1456,23.4895,-87.8057
-1171.8750,33.9165,-159.3958,281.8739,-119.4308,164.2546,-66.3287,36.6594,-71.9626,-437.5664,-172.4806,237.2555,-119.2735,203.4261,-180.9296,137.9509,-111.3691,268.2065,23.9746,6.2434,1.1562
-1164.0625,96.1972,-26.8792,233.7398,-91.0247,42.1050,-4.6668,-85.2594,-83.3421,-559.0665,-220.1406,225.9446,53.4387,192.1545,-83.4736,88.5850,-105.8501,259.9622,75.8116,-72.9487,63.1575
-1156.2500,153.1244,30.2808,182.2455,-32.9155,27.5983,91.6328,-136.5272,-25.0749,-646.9317,-198.1576,174.2742,75.7887,177.5445,-62.3784,73.8834,-67.1699,245.3871,59.1154,-157.4738,48.7962
-1148.4375,62.4573,-25.1643,156.1476,-52.3506,-35.5020,65.3265,-160.3879,-49.4051,-561.4265,-185.8068,75.0191,49.5284,188.3556,-86.8959,195.5945,-85.6328,259.2331,143.8241,-106.5916,133.8127
-1140.6250,-7.0035,11.5824,47.2580,-155.5313,-34.3874,29.2115,-159.0374,-48.5470,-522.7471,-74.2920,148.9641,124.4550,189.3881,-49.2369,270.5230,-60.4719,119.3049,129.0714,-105.5085,135.0192
-1132.8125,-66.1653,-12.3749,17.6694,-249.3565,10.0307,37.3882,-77.3834,-4.3965,-477.7946,-29.5053,83.2055,131.6841,159.7340,-42.2892,314.7689,-32.3943,-12.2972,172.2176,-61.1241,179.5194
-1125.0000,-98.1235,-150.1247,-91.7208,-419.9284,11.6651,0.7625,-40.5211,-5.0559,-366.6722,7.4580,119.6482,131.1131,160.2982,30.8409,314.2299,-11.5314,-78.6761,236.9857,12.4589,253.2029
-1117.1875,-86.8765,-137.6799,-151.9108,-477.2549,59.4983,13.3286,-27.4526,44.4806,-316.3751,130.5952,169.2783,106.7359,99.0781,43.1552,252.9078,42.0535,-172.8298,206.3254,22.2534,229.0788
-1109.3750,-78.0749,-93.6912,-108.5544,-502.9856,30.8840,-17.5553,-57.8321,50.5709,-199.5548,247.2635,29.4572,77.8950,32.4233,-24.9921,259.1447,53.3281,-199.4162,248.2380,31.6049,272.4892
-1101.5625,-86.6704,-67.1137,-117.5956,-510.0787,-15.1178,-62.8405,-103.6038,78.2556,-171.1595,312.5143,20.2367,104.6389,-49.6146,2.4359,249.9969,85.8676,-173.3793,235.0739,56.5619,263.4858
-1093.7500,-181.8170,-127.0978,-107.1811,-462.6874,-3.6695,-15.6849,-91.9223,124.3844,-159.3371,287.2003,30.4660,42.8288,-38.1867,-23.7033,261.3213,95.6059,-163.8660,216.0088,30.9778,237.9257
-1085.9375,-261.3551,-135.4798,-116.1655,-434.6546,-86.6064,85.0766,-100.6425,152.1181,-204.9434,315.4430,-14.6984,69.6214,-47.1482,3.7552,179.2594,136.1465,-102.7238,210.0734,22.0045,228.9499
-1078.1250,-213.8422,-52.8206,-136.0913,-385.5329,-34.4864,137.8904,-84.3068,168.9029,-224.5253,294.6959,37.1776,48.4554,-32.0496,-53.7464,121.2649,120.6879,-91.4989,119.2968,-1.9041,135.0158
-1070.3125,-119.6350,-28.4698,-75.3192,-394.6788,-10.6589,124.4037,-24.2725,155.3858,-200.4331,208.6362,-13.2439,34.9891,-45.2443,-104.5646,108.9808,74.9420,-102.5412,149.9013,21.8983,158.7661
-1062.5000,-137.1734,-11.8671,-93.2924,-340.5386,-28.5710,106.1702,-41.9905,210.1164,-292.1221,190.8125,5.5820,53.7681,-26.1761,-13.1577,53.9640,119.5519,-120.3093,130.2870,3.9532,140.7498
-1054.6875,-99.5576,-9.1089,-17.1112,-336.2154,12.6615,147.0860,-74.5613,213.9945,-324.6899,158.1117,46.5509,-16.3002,-21.9418,26.3861,21.1177,133.6206,-117.8993,100.0407,7.1642,107.8777
-1046.8750,-89.9811,-105.3996,63.0199,-395.9131,-18.1428,78.9548,-67.1816,183.8272,-281.3456,90.3329,15.4772,-45.4164,21.2533,31.8742,101.2373,104.0627,-3.5200,146.0397,14.3266,150.9412
-1039.0625,-144.1003,-159.3992,118.4520,-378.2945,1.3671,171.1209,-121.4930,164.9545,-298.7270,72.8340,71.6923,8.7554,3.7638,50.6466,82.6816,110.5702,47.1876,94.0006,-4.1974,96.2987
-1031.2500,-120.2690,-134.4648,181.8351,-351.7124,27.8367,160.2343,-95.8534,118.0341,-272.1855,-10.7359,23.8573,-39.1272,-6.7576,39.3572,72.1000,75.4829,142.8692,90.1577,-50.7548,85.5996
-1023.4375,-75.1802,-159.2888,193.4728,-339.8663,39.5698,98.6033,-83.9632,92.3699,-261.4333,-36.0816,71.2755,-64.7677,4.9847,87.3064,10.7883,74.4749,187.8245,64.6165,-40.0537,60.1397
-1015.6250,48.8637,-141.1662,214.0667,-320.0613,134.2597,81.9261,-99.1175,75.6556,-239.7661,-88.5063,129.6365,-117.4608,62.6950,34.1922,-5.5562,31.8050,170.7621,13.2656,-57.3891,7.6236
-1007.8125,30.8553,-124.0928,157.6169,-371.2894,113.9142,62.2112,-82.3238,18.8959,-260.1915,-72.0064,34.9593,-101.2060,79.3691,13.0193,11.0589,6.7080,152.6779,27.4787,-40.7654,24.0398
-1000.0000,-5.8112,-54.6746,48.5322,-405.1556,115.9305,62.8564,-117.1733,19.4920,-295.3092,-71.1740,-0.3710,-25.6017,7.4037,50.1854,13.0424,10.8460,45.9694,-53.0129,-77.7886,-48.2032
-992.1875,-22.1339,-0.9053,-7.2046,-490.6646,97.2949,80.8601,-98.6759,-35.5538,-240.1215,-90.0080,-92.3602,-7.6343,-48.2074,67.7085,68.4036,-13.8864,-41.3652,-40.5317,-94.4572,-30.1037
-984.3750,-94.3521,-73.0285,-85.8441,-561.0663,18.7763,75.9805,-104.0745,-41.4921,-171.8754,-57.7673,-98.2592,60.4380,-52.7156,135.3306,99.8842,5.9673,-42.5806,20.9013,-26.0184,38.0797
-976.5625,-69.1601,-48.7490,-134.0802,-499.0651,43.6568,100.5118,-115.0713,20.9756,-147.2696,-33.1589,-72.7743,48.9172,-63.8193,160.3579,88.7854,40.7461,-88.3671,7.4077,-37.1739,26.6601
-968.7500,-55.6633,-34.1682,-121.0186,-518.7616,19.8384,76.3608,-102.7721,32.7517,-98.4177,-56.2811,-133.9841,23.7056,-51.6133,61.6928,101.0092,0.7255,-73.8308,61.1940,11.9702,75.5313
-960.9375,-66.3643,-45.7846,-168.1465,-457.6578,9.8339,102.0252,-75.6642,22.3297,-109.8037,-67.6450,2.6042,50.2930,-24.5971,-23.1784,54.0565,-35.4473,-50.4596,16.4981,-0.0813,28.1942
-953.1250,-80.8112,-95.1463,-110.0083,-470.3082,105.0870,123.9419,-16.2925,44.1541,-50.9724,-46.7996,23.4457,-38.8647,-3.3196,-75.8035,39.3669,-31.0024,-99.7983,7.4739,20.1228,13.1000
-945.3125,-86.1484,-133.4009,-116.7594,-472.8669,25.4501,153.9684,14.1917,74.0819,-58.0795,-88.8812,-19.6073,65.0816,-8.9327,-9.3330,69.7854,-14.1719,-140.0065,36.1343,50.4346,43.0857
-937.5000,-25.0823,-74.2544,-125.1027,-446.0357,90.2160,219.4060,5.0927,101.4142,-103.8169,-134.5822,7.7223,129.4252,-18.1325,18.5309,61.6203,-7.7724,-184.7872,-10.6097,5.1580,-2.5444
-929.6875,-36.0105,-50.1040,-138.4512,-455.2186,39.9910,168.8656,29.0084,87.7616,-80.5943,-75.3128,-78.9516,115.7731,-30.3213,4.3989,85.4776,-2.2207,-160.5496,11.6051,28.8838,20.8043
-921.8750,-117.9781,-95.9947,-149.8385,-464.4669,28.7370,120.2945,-18.1108,113.0632,-55.4689,22.8579,19.3250,104.0722,-5.5451,65.2147,74.3153,50.0787,-171.3353,-7.8881,17.5590,9.0899
-914.0625,-67.3368,-116.2811,-61.6168,-413.1384,43.0862,97.3414,-40.6246,89.9677,-4.7854,-0.4113,70.1959,44.9787,45.8471,5.6309,88.7771,15.7517,-156.4960,8.5546,-38.1570,22.9717
-906.2500,-33.7367,-186.6095,7.5565,-376.8857,2.4001,19.3491,-82.1758,-25.1747,26.8098,-40.7671,102.0261,39.8391,78.2004,-36.9942,121.2126,-51.0909,-15.6860,80.4138,-39.9151,91.7875
-898.4375,38.3747,-150.4304,83.2414,-339.1581,78.2268,21.8673,-79.2122,-59.8109,-45.1234,-112.6771,215.3483,42.2064,44.0667,-72.1150,87.1737,-89.3434,20.6544,52.1047,-38.1631,57.0935
-890.6250,82.3867,-70.3466,163.8266,-398.5504,121.9626,-44.6916,-35.3452,-88.5366,-39.1968,-143.7222,110.5701,-25.5112,51.8378,-101.3230,94.0527,-116.5726,29.9215,99.2524,-30.5049,100.2858
-882.8125,18.1468,-30.5105,59.1707,-391.2141,91.4617,-39.4685,-29.7283,-47.4928,-70.5560,-65.0487,79.5379,16.5296,20.3637,-24.7744,63.7077,-57.5773,-34.0454,98.2323,10.9060,105.2145
-875.0000,48.7573,-69.8270,19.3677,-394.0605,161.8099,-6.3766,41.7439,-14.5855,-38.0959,-105.5558,39.3415,-23.5691,53.7456,-28.3629,60.2399,-54.7721,-38.1368,61.9433,6.1825,64.9889
-867.1875,-4.3245,-86.8303,-1.1319,-375.6379,104.4693,10.0390,58.5180,-35.3599,-22.3741,-126.7901,-18.5535,-44.3604,70.4254,-12.6375,77.0877,-60.2007,-20.9032,80.3973,57.7702,81.0435
-859.3750,34.1557,-49.2586,-68.0700,-335.6903,148.6858,17.0253,64.8479,8.4266,-90.1368,-120.5063,24.0911,-74.5897,77.6528,30.6451,47.5009,-27.8699,-17.0871,11.7932,60.9151,13.6320
-851.5625,109.3029,-45.0178,-27.3496,-330.1152,152.5564,20.6842,105.8266,-25.1246,-50.2907,-117.6196,-45.6163,-144.1479,44.5321,-3.4171,51.5804,-42.6996,22.4159,19.5017,64.7182,16.8552
-843.7500,104.6266,-83.6089,3.5316,-332.4197,72.5947,-22.4815,62.9603,-68.5070,16.6585,-87.6284,-15.1816,-113.5442,2.5610,-10.3171,82.8281,-57.4188,54.0928,46.2079,60.6773,47.2113
-835.9375,99.5085,-54.6459,-1.0267,-267.2129,105.1844,9.9208,58.6443,-73.3207,11.1219,-21.1106,15.7870,-119.3822,-2.8577,-52.6546,4.6509,-46.8516,49.3435,5.2043,19.1959,5.1110
-828.1250,38.2448,-79.8209,8.2675,-221.1967,4.6330,56.1996,-4.8252,-64.2617,-17.6044,-12.7638,-11.3878,-73.3656,-29.4207,-44.1248,-21.6634,-33.6872,94.4675,16.1371,63.5695,13.8461
-820.3125,-18.7072,-65.6761,-11.1207,-135.9156,-14.5990,110.8086,-23.9912,-9.8879,-74.0750,4.8375,42.7390,17.9597,-11.6795,9.7146,-77.6733,11.2463,72.9215,-77.8554,77.2472,-79.1304
-812.5000,-24.1974,-2.0575,20.9584,-105.2179,54.6224,105.8985,45.2921,-15.0492,-44.1476,-38.1615,0.3168,49.7555,20.5153,4.0223,-119.2252,-0.8889,66.8624,-116.7855,35.3748,-121.6729
-804.6875,-8.9173,84.3439,35.8025,-88.8001,-4.3858,46.7791,23.3224,-37.4396,-30.5205,-61.4560,-22.3570,137.3201,-1.5470,18.0930,-177.0215,-19.6526,47.5760,-106.7918,-19.7467,-107.4917
-796.8750,35.2318,128.6160,47.5128,-8.5731,8.4616,95.5368,-0.7952,12.0348,-93.0766,-50.9376,99.7991,112.7433,-25.7579,-6.9712,-274.9418,-2.9740,22.1679,-165.9078,-11.0122,-169.4739
-789.0625,6.3931,-5.1010,164.2324,-1.3910,14.3154,28.3232,41.0863,17.5290,-51.6688,-82.4563,104.9594,45.1847,-19.9673,-113.0143,-268.8435,-37.3044,134.7884,-147.2596,64.7248,-164.4767
-781.2500,31.1154,-86.2467,192.5209,24.3007,5.7309,56.6946,33.5261,45.5915,-60.7572,-55.4725,206.6672,36.1924,-28.6276,-84.4877,-276.1829,-5.4228,159.9856,-230.3231,54.0125,-246.9447
-773.4375,78.7012,-73.5182,281.6723,73.7958,94.9945,35.9461,12.8109,61.5286,-84.0354,-114.6852,185.2167,15.0728,-12.4374,-106.0846,-260.6581,-18.6997,173.0613,-283.9440,-3.8400,-305.5724
-765.6250,43.9561,67.8906,280.4815,73.8984,19.9196,-39.1120,10.7466,22.1388,-86.7011,-81.2888,145.4097,12.6207,22.3972,-109.0059,-188.4635,-33.9869,173.8098,-256.4192,-40.0352,-271.5732
-757.8125,78.1773,172.2626,170.2524,74.9047,57.8024,-75.1868,48.6445,59.7187,-88.4425,-44.9995,145.5386,-23.8668,23.1796,-72.9583,-150.2995,-8.8779,103.5388,-300.4369,-40.2692,-308.6358
-750.0000,101.8663,55.1111,191.4787,28.3150,79.1398,-90.7723,106.9942,43.7699,-31.7777,-136.3049,19.1120,-75.8805,81.4069,-88.4356,-91.6727,-42.6239,162.7455,-235.0635,17.9515,-251.2631
-742.1875,89.0772,7.4832,176.2184,-18.8212,63.9894,-68.8216,91.8459,28.3395,-47.6521,-189.1516,40.1840,18.6227,66.1326,5.6059,-106.5294,-33.2243,185.4799,-217.5950,3.6729,-230.4088
-734.3750,130.2519,83.8398,181.9275,-12.0557,106.7919,-25.8897,97.6515,-2.1275,-80.6132,-185.0997,45.2026,-11.8967,34.8084,10.6230,-137.4214,-33.8701,192.1906,-212.0362,-25.6597,-225.6133
-726.5625,119.6398,39.4340,166.8511,-22.1293,54.8034,-41.7193,81.6559,-55.3705,-24.4274,-202.8971,-7.5800,-28.1857,19.6787,-5.1267,-116.1043,-63.8493,252.1227,-116.4954,-0.7982,-131.6321
-718.7500,168.9389,16.9497,179.6829,26.6480,30.7135,8.3917,21.5567,-42.6837,-50.3810,-191.8392,77.5183,-15.5539,-4.5555,7.0553,-138.8652,-51.5057,230.9776,-105.6245,11.9702,-119.7601
-710.9375,119.5054,3.7398,198.7597,-21.3835,12.8701,-8.2082,40.7059,-59.7186,3.8822,-137.5669,22.8574,-69.6527,14.4535,-11.4743,-82.3563,-49.1802,183.0995,-52.0043,32.9968,-64.6533
-703.1250,76.9916,-3.5391,115.7456,-99.5716,-70.0552,-91.8736,-6.2367,-32.8304,66.0149,-38.4363,12.0932,-42.8368,4.3616,51.9223,-54.9333,-9.5677,105.1369,-39.7766,59.9260,-38.6673
-695.3125,68.4930,58.2052,32.7428,-107.8142,-41.9762,-100.5058,21.8309,-4.9203,92.1194,60.6460,2.3199,-52.0037,-4.7334,42.3443,-63.4906,19.0991,-8.7967,-56.9645,14.8600,-48.6925
-687.5000,25.9623,15.9333,-16.2996,-150.1552,-54.9365,-111.1475,46.8497,18.9647,151.1333,83.6286,-84.4983,-65.1921,20.1168,29.7533,-39.0875,25.0731,-49.7566,39.4890,42.7434,48.2120
-679.6875,9.7046,-35.0494,-35.0771,-166.2940,0.3603,-92.5015,65.1201,0.1219,130.3616,99.8151,-30.0843,-83.1049,1.2085,10.4429,16.5765,19.4959,-66.4421,57.6798,60.8769,65.3506
-671.8750,46.6140,-102.8486,-35.6963,-234.3331,73.8073,-92.6661,137.5431,-36.5474,164.7058,23.1060,-68.5290,-46.8445,0.4389,-27.6846,53.3983,-29.1022,-98.9485,96.6352,62.1651,100.6240
-664.0625,-87.4992,-131.6644,-102.3464,-228.4697,42.2188,-86.8379,106.9254,-31.2435,130.9735,63.2883,-64.0299,31.3889,5.6142,14.1631,59.1769,-4.2516,-126.4773,97.3429,102.4027,104.8234
-656.2500,-139.7360,-111.5974,-153.1294,-209.8089,65.4847,-27.1222,130.1726,65.9280,153.0629,121.2522,-40.6963,-18.5023,28.6400,37.8967,-27.1782,58.4170,-178.1298,9.0592,121.4957,16.8586
-648.4375,-187.0087,-124.5445,-94.9541,-187.2442,51.7039,-41.4119,189.3754,51.0784,210.0734,141.1117,-93.4180,-70.4110,50.6071,-14.3762,-41.5760,48.7840,-154.8077,36.4212,143.5351,37.8203
-640.6250,-150.5576,-87.7568,-129.0651,-186.0237,53.6274,-37.9590,155.2854,89.9514,173.7569,178.6177,-54.4512,-67.6008,53.2665,-11.9150,-1.2577,68.8811,-152.7595,-3.9160,109.2723,2.4639
-632.8125,-46.9342,-54.7819,-95.0109,-153.6991,50.6949,-3.3156,152.3420,86.9990,131.5615,99.2172,-58.3444,-70.6121,13.0617,-52.2634,-3.7799,36.2524,-83.5335,-1.8574,106.1626,-1.7556
-625.0000,-21.8334,-29.3177,-70.4935,-92.9759,-71.7803,58.8206,65.8548,75.5271,79.7819,85.2157,-108.7922,-9.1463,-72.7057,-28.1188,-15.8447,44.2062,47.1602,22.5592,59.5070,21.4518
-617.1875,-6.9567,56.9307,-15.2118,62.4480,-53.5051,150.7510,-25.8790,129.8333,-51.2724,99.9099,-91.5087,9.0904,-128.7346,25.8094,-145.1473,103.3859,63.6308,-31.0805,-31.3930,-35.6049
-609.3750,21.0374,85.3202,120.1794,89.9293,-65.1307,103.8249,-37.5147,82.2745,-65.2635,122.6561,-177.1295,-2.5411,-176.6765,-22.1176,-155.3468,86.7673,127.2264,36.1977,-39.1967,25.4150
-601.5625,89.9543,189.6564,80.4853,87.2735,-104.8484,63.8439,-78.2469,41.6445,-71.3894,117.2509,-144.8612,30.7494,-179.7301,10.8908,-157.6305,69.7960,125.7411,59.8516,-77.1027,57.3129
-593.7500,129.7438,265.8855,84.6471,127.4198,-64.7251,31.7532,-74.1348,8.8960,-69.6851,81.6429,-141.7624,34.9190,-212.9392,-59.2078,-117.0460,20.8769,96.1238,63.4730,-142.1545,60.0452
-585.9375,42.1156,213.7175,63.3672,144.0743,-195.0468,48.2554,-130.4683,-47.2759,-19.4631,57.5226,-163.1115,87.6664,-197.6017,-6.7180,-27.8989,6.5964,115.0768,109.4654,-160.6615,111.3025
-578.1250,28.6673,199.7391,52.2543,164.8393,-169.2130,37.9478,-142.6466,-60.2779,39.8821,43.4830,-29.3231,76.5930,-173.1209,55.9618,-38.5925,14.1716,101.2155,18.5072,-141.0226,24.6934
-570.3125,45.5396,77.1026,68.4563,39.8705,-117.0801,-19.0138,-53.5298,-79.9542,127.4951,56.6793,-51.2378,55.8585,-121.3530,34.9919,15.0168,-1.7884,48.6840,32.3374,-90.0865,39.3616
-562.5000,1.7429,33.8148,55.9756,-39.8321,-55.6418,-65.6266,7.8847,-54.3017,76.3832,78.1026,9.1433,80.4541,-96.2994,59.3641,39.9317,16.5586,-29.5192,89.4891,-97.8543,99.3059
-554.6875,13.1766,10.7715,64.7071,-64.3759,25.9887,-18.9997,16.4993,-45.4217,45.4458,-25.3370,53.7071,16.2788,-15.0577,30.9892,123.0547,-20.3711,-87.4916,137.5151,-88.4199,143.4364
-546.8750,-42.9571,-9.8208,1.8495,-156.5541,-36.9822,-44.9226,27.5050,-36.1075,88.8707,54.5667,-47.3280,-10.4606,31.5670,5.0666,206.5802,-11.4500,-108.0386,213.4625,-75.5885,224.9401
-539.0625,-78.0069,25.6891,-107.9348,-157.7144,-35.9038,-6.7482,-8.4396,-34.7199,124.3098,161.4566,-11.3269,-9.1170,31.2292,42.2361,134.1630,28.2785,-177.5058,166.9886,-76.7131,187.4718
-531.2500,-104.4305,-35.1488,-63.1042,-185.3027,8.7691,2.0726,71.2108,-63.7053,129.3135,128.8820,-40.7284,-1.1331,38.4743,-22.9443,105.3483,-3.2848,-133.3441,182.5722,-34.2478,193.5806
-523.4375,-154.1684,-120.2823,-78.6027,-131.2696,-6.8999,24.5844,55.5086,-42.0190,110.9424,36.8913,-21.4879,56.5281,22.3547,-1.4296,90.1883,-10.7059,-42.5051,172.3249,19.8629,176.3112
-515.6250,-121.6273,-16.1292,-41.8384,-65.0209,28.6734,98.3871,19.0572,-41.0574,71.8127,70.0918,-60.0132,56.4589,-14.5223,-2.6195,-19.7058,12.7418,-9.3891,100.1298,-18.7698,101.2749
-507.8125,-122.7119,54.4175,-44.7123,-67.4455,-47.4046,132.5836,14.9555,-7.7173,102.0124,99.5785,-174.1899,52.7741,-55.0616,-41.4103,-22.2393,19.1997,-43.9009,132.3368,13.9420,132.5667
-500.0000,-141.2719,36.5153,-138.0709,-52.3920,-66.9806,188.3272,-4.6470,82.1510,79.6917,113.4933,-120.8758,107.6198,-75.1100,11.3443,-5.2665,65.0800,-132.8943,105.8754,29.1517,111.3438
-492.1875,-124.7052,18.7553,-120.3203,-37.2685,-50.4647,170.2078,12.8475,100.1452,93.4494,90.4572,-141.4732,51.6015,-59.0735,29.2502,-24.1860,72.3273,-150.7641,87.7517,80.4646,90.2078
-484.3750,-109.8602,33.2894,-104.3160,-58.9296,-107.6973,113.3738,28.5909,116.4177,106.4499,102.6453,-163.8334,30.8521,-43.7999,8.4564,-44.8458,70.6245,-99.3738,65.6566,129.0282,67.2913
-476.5625,-49.3865,130.4679,-38.7042,-34.0346,-42.3401,108.1748,57.9370,109.3183,-13.9486,18.3875,-62.6103,61.7258,-13.9355,2.3092,-124.8847,47.2875,-38.3656,-12.1640,83.1890,-15.0479
-468.7500,-11.1320,204.4541,72.6669,37.5851,-5.2376,109.7743,59.0258,37.0027,-126.6168,-96.1991,-100.6401,99.3862,-14.3324,-34.0312,-123.1666,-10.0541,70.4084,32.4147,-19.9086,20.3421
-460.9375,13.7048,229.0495,60.6024,95.7396,-54.5812,135.9730,-64.3416,25.2641,-214.7644,-112.3131,-40.1292,197.6267,-27.1972,28.2287,-98.8985,-4.5273,24.7605,10.5921,-68.4597,6.2660
-453.1250,18.5153,199.6378,64.4971,98.8217,-50.9840,141.1615,-60.7665,29.5012,-213.9838,-112.5362,-37.6829,164.8498,12.8728,-4.5003,-20.6776,-15.9781,-4.9071,12.5899,-65.0580,8.1226
-445.3125,64.4068,141.3154,37.4513,71.9252,-114.3341,78.4402,-51.1407,2.8145,-207.1659,-142.7523,-66.1886,175.1561,21.9781,42.8708,26.6002,-25.6345,41.4939,17.8780,-19.6152,15.9929
-437.5000,134.5818,212.2850,2.6711,105.2506,-76.4335,118.0029,-12.2661,42.3984,-246.1002,-145.7673,7.5404,140.7400,22.3172,44.5331,28.1368,-11.9400,6.1694,-57.3525,-56.9250,-57.9129
-429.6875,147.3376,225.8584,13.4570,46.1078,-65.9893,94.1504,-1.8420,16.5576,-164.5006,-139.2919,-56.1755,78.9062,32.1985,-17.2047,76.2212,-44.0191,-14.5836,-11.6119,-44.6905,-12.2978
-421.8750,178.0192,257.3772,-67.8348,39.8545,-145.6338,162.2463,-46.5122,46.6444,-175.0175,-76.9887,-64.9914,108.9956,-12.0330,50.0066,106.2024,0.8402,-89.4167,6.4279,-51.5591,15.1908
-414.0625,151.7764,266.9835,-132.0628,46.6308,-138.2335,207.4357,-76.1315,91.8081,-133.4930,-73.7043,-95.7657,80.1613,-42.2242,95.3203,151.2332,30.1210,-150.1766,8.8289,-44.3738,20.7101
-406.2500,49.5666,201.6457,-206.2885,13.3957,-176.8343,245.6681,-75.7496,128.0024,-63.9877,-78.4879,-170.5441,116.3651,-44.4246,94.6867,224.2640,37.4282,-145.9176,79.3875,-7.1924,91.1988
-398.4375,14.6394,202.6207,-242.2584,46.4005,-176.1947,247.1850,-40.1173,166.4730,-29.2432,-46.0895,-62.0961,154.8525,-7.3849,133.3594,225.5518,67.1272,-180.3900,36.6208,-8.7613,52.9141
-390.6250,55.5300,173.4431,-202.4227,155.1929,-99.7689,215.5433,36.3036,132.7733,80.2872,-47.9396,-60.8559,158.1693,68.4374,136.8883,265.6464,57.2731,-174.0406,76.5594,-39.5308,90.4024
-382.8125,36.8522,189.7045,-190.1749,274.3772,-124.9422,155.3415,12.1238,108.5058,126.2036,33.5495,23.7835,170.9068,42.6452,149.8687,205.1466,76.0060,-123.2743,122.5499,-24.9056,137.2626
-375.0000,81.0564,271.8479,-179.0613,282.3945,-40.2730,168.0250,-14.1995,120.1124,96.9681,39.8086,33.2681,182.5223,15.6924,124.7463,105.5058,77.0628,-112.6335,96.6682,-17.4243,108.9602
-367.1875,131.5410,288.2865,-128.6947,225.6486,-63.3583,110.9960,-0.2790,61.9958,107.9805,-24.7354,-28.0027,160.4187,-44.0219,65.9358,-25.8810,22.2637,-26.7347,116.2609,31.3043,120.8825
-359.3750,130.0511,251.7800,-128.3301,185.8938,8.5427,111.9952,-1.3619,98.9081,68.0021,7.6897,-29.2954,161.3405,-82.7525,30.1820,-99.2612,39.6266,6.1744,43.5119,28.0253,44.7785
-351.5625,150.9882,203.7330,-34.5659,169.5335,66.8278,98.4235,56.9494,84.2469,86.4270,-49.5377,-46.2002,72.6929,-62.0976,-21.1178,-78.2336,11.8560,98.4991,36.0133,47.1404,27.0500
-343.7500,89.3093,248.0801,48.5631,175.5301,38.4662,109.2416,28.6085,56.9578,55.1984,-156.4901,-38.7513,119.4180,-54.1034,62.9788,-69.8521,4.6448,177.1926,7.2397,18.5959,-3.3530
-335.9375,127.2081,286.9962,128.2612,211.0786,117.6467,153.6379,-3.1839,63.2376,-15.4786,-191.9547,39.2403,88.7120,-49.5651,32.6684,-136.9087,-2.9176,180.4666,-95.5547,-51.3961,-110.2221
-328.1250,105.7429,196.5548,178.5683,188.2283,56.4208,131.6673,9.6197,4.1413,31.4333,-146.8712,-23.1617,29.6384,-0.4349,-62.9896,-123.3673,-38.4953,195.3573,-82.4075,-73.7916,-99.5130
-320.3125,77.0641,133.9241,184.6384,192.1421,62.9428,140.4757,-56.8300,-25.1848,34.0854,-109.0889,19.1817,0.3469,-31.5620,-91.8488,-116.0697,-43.1974,237.0149,-114.6709,-69.4438,-132.0715
-312.5000,118.1641,211.1038,227.4599,229.8218,141.1974,222.0548,21.4593,-18.7408,36.4866,-255.6068,-50.7292,-30.1587,-100.9499,-47.8978,-147.0122,-52.8264,278.4430,-136.6774,-31.3520,-165.8972
-304.6875,51.1932,181.2396,193.1875,196.4078,107.3471,226.5665,60.6424,57.6277,35.7770,-295.2772,-123.7391,9.2642,-99.4514,29.0101,-107.0593,-13.7903,282.7804,-136.3142,6.6302,-165.8506
-296.8750,-16.1070,220.0541,124.5813,196.6508,111.1365,269.7623,28.4718,100.6651,-36.2860,-185.3624,-120.1070,52.3600,-95.3136,72.6078,-102.4548,46.6409,180.7910,-216.2177,-27.7365,-237.1712
-289.0625,-46.6434,154.6441,87.7384,163.6494,36.6746,270.7389,-9.9551,26.4723,-3.6042,-117.7564,-195.7161,15.2332,-23.4314,36.0077,-29.1013,24.1755,149.5786,-151.6449,-61.3552,-166.7654
-281.2500,-43.5573,123.8679,13.5059,164.2526,-37.1836,236.3465,-46.7831,27.8964,29.6787,-86.6068,-123.7299,52.7313,-61.9567,74.0572,7.8486,33.2202,117.9831,-126.7578,-95.3743,-132.7853
-273.4375,-24.9452,143.6286,30.7798,109.3437,15.4463,181.4728,5.8877,81.8371,43.4709,-112.0051,-145.2521,34.7497,-118.9897,166.6597,62.3064,70.5141,30.9041,-114.8564,-78.8902,-118.3267
-265.6250,-15.9021,48.8308,-0.5416,10.8257,-16.5219,115.0231,10.9594,88.2001,45.6716,-112.0597,-179.3684,3.1863,-115.6276,209.7090,141.1742,78.9329,41.2355,-42.4874,-36.0050,-42.5024
-257.8125,13.7748,10.6697,-7.2478,-67.0925,50.1070,110.1957,-33.3610,82.1764,35.4886,-51.5782,-76.8872,-2.7636,-123.6672,204.3925,134.6511,88.2345,0.1839,-57.8634,-43.5188,-52.1014
-250.0000,57.9223,-15.0036,35.5015,-96.5538,55.1773,44.8419,-65.2373,14.6216,111.7590,-14.6880,-72.9521,-32.2407,-82.2677,138.5737,67.5735,48.3669,9.5973,-18.2702,-1.5835,-12.2748
-242.1875,56.5949,55.8540,-4.2387,-100.4984,-59.2519,44.0158,-104.6140,12.5865,105.5310,50.6593,-77.5232,38.8020,-123.3775,210.2956,27.9926,83.0877,-26.4775,-34.3514,-41.1514,-17.9748
-234.3750,113.5471,147.0001,-56.7257,-46.1851,-38.4415,30.4597,-120.7405,34.8176,122.5602,103.2037,-57.8569,24.1223,-103.2495,196.3161,49.6632,92.0408,-110.2931,-59.4376,-92.4713,-36.4389
-226.5625,23.9743,129.6407,-78.7672,-68.4090,-98.1915,9.3763,-107.4284,48.5220,169.0436,36.1502,-120.7411,74.9159,-54.6792,284.8461,62.7851,102.1415,-58.6651,-12.8695,-43.3432,10.5258
-218.7500,7.7177,150.6094,-130.5108,-16.3313,-114.6492,32.6135,-123.8135,72.5517,114.8383,-20.6436,-26.3385,172.0232,-32.8140,382.7221,12.2146,123.6651,-39.7335,-107.4216,-60.9144,-80.2241
-210.9375,104.4780,177.6023,-66.2556,7.7505,-13.1176,25.8711,-59.2027,27.6032,28.6458,-109.4759,-73.9359,164.1524,-6.9563,301.6443,-33.3591,66.5490,22.2060,-144.2312,-37.4839,-128.9873
-203.1250,115.1590,224.5340,-55.0970,50.7528,-39.6879,39.0529,-48.6988,75.5729,-110.6436,-251.4444,-64.6282,213.2077,2.7875,351.5129,-22.0427,60.6811,68.0499,-167.8603,-29.1621,-157.8702
-195.3125,166.1096,276.7488,-36.6821,99.0260,14.9773,133.4953,-67.9528,95.8056,-205.6687,-312.2032,25.9185,158.5373,-16.2295,298.6724,-40.4757,41.9034,49.1544,-256.8961,-50.5920,-252.5158
-187.5000,119.0328,230.9459,23.6814,49.2710,-36.4175,84.9055,-45.2641,46.0048,-185.7323,-259.0428,10.4167,72.8407,-31.3103,175.8300,20.0307,3.6665,142.2118,-267.9941,4.9228,-269.2310
-179.6875,198.3314,170.5310,37.4003,54.8844,-23.4692,27.6819,4.7705,-12.4267,-138.4343,-287.5744,170.2544,13.5093,17.9490,155.3844,107.8799,-36.3849,257.6176,-403.8945,81.7858,-405.6119
-171.8750,362.5502,160.0410,137.0234,5.4164,75.3674,-54.6318,140.7000,-95.9406,-5.2290,-489.2517,193.9966,-105.9051,79.0973,182.8835,207.6244,-117.7279,314.9313,-486.0439,102.5462,-493.1019
-164.0625,401.7387,200.5139,211.6049,5.9179,39.1547,-88.9817,103.5788,-57.4909,-8.0649,-605.0032,155.7018,-67.3638,78.1898,296.3658,171.3151,-104.3394,319.1993,-451.7882,104.2543,-458.6611
-156.2500,517.5389,282.6057,185.7975,85.0355,48.5340,-112.7235,40.0563,-46.4286,-111.2807,-563.1862,202.0040,17.7897,13.8760,382.4834,71.6010,-62.0824,295.0744,-488.5633,6.5599,-487.6322
-148.4375,582.1115,348.4845,211.7404,181.9321,-73.3474,-120.6997,-44.7321,-18.6037,-161.7401,-470.6526,79.0585,81.7132,-71.7005,337.3981,61.6292,-42.3623,254.7063,-431.0052,-36.3937,-427.8715
-140.6250,509.9587,417.6444,130.9438,247.1033,-117.9825,-89.4121,-89.2754,84.4751,-172.9357,-483.9131,69.3609,111.9013,-81.0362,368.6003,90.9064,-8.0786,181.6012,-371.3256,-77.1069,-364.8755
-132.8125,477.1701,422.1668,91.5086,247.6475,-84.2781,-126.7686,-55.4726,83.9004,-141.7657,-492.8653,103.0163,37.4507,-47.0259,258.1939,52.5376,-51.8863,148.8633,-297.9628,-41.4673,-296.5386
-125.0000,453.5416,328.8547,100.2313,256.3727,-150.4216,-188.9655,-85.5227,18.4882,-100.4366,-454.6989,71.8338,9.1691,-3.8722,304.9749,23.3080,-47.3451,230.2811,-257.8561,2.3145,-255.0712
-117.1875,513.3757,356.0210,128.4104,419.5865,-86.1219,-122.7010,-94.1269,85.5368,-148.6484,-506.1174,172.1009,2.3547,-51.2799,335.2299,-58.4797,-16.7016,256.1497,-335.5760,-10.4620,-340.1621
-109.3750,497.3262,305.3225,217.6851,505.9359,2.2604,-31.3217,-5.6459,138.7000,-99.7577,-753.4647,148.4725,55.6574,-0.5975,426.6241,-43.1747,-25.6911,345.1119,-270.4088,40.8545,-291.1601
-101.5625,353.1410,198.4953,212.8001,535.1591,33.4861,2.9125,-11.3189,134.7262,-144.9992,-875.9786,178.6904,125.8177,29.9321,460.9054,-85.0205,-42.8085,376.9126,-271.3820,35.0201,-299.3195
-93.7500,278.4603,125.1715,136.4036,493.8972,29.1957,-34.3592,-15.4941,22.2628,-150.7092,-664.9985,100.3990,86.4869,-11.0431,202.7244,-124.3539,-104.9098,232.2068,-353.4814,-42.3096,-378.9879
-85.9375,219.0400,-3.8894,69.2527,395.9185,-37.8533,-62.3763,-45.4296,30.0664,-110.1452,-480.7807,32.3603,58.4100,68.2271,174.8298,-80.4407,-66.4677,171.7435,-322.1553,0.6074,-338.4228
-78.1250,175.5793,-45.9965,22.0542,385.9341,-12.9655,39.5554,-20.4222,93.8240,-87.6117,-351.6327,93.2736,122.2857,92.4461,276.9119,-17.5784,27.9143,94.2291,-308.7458,-9.5290,-315.9088
-70.3125,103.8720,-9.3454,13.5945,346.7383,-22.3425,107.2407,-29.6735,86.3369,-62.3176,-255.7509,-27.0588,114.9306,9.4084,270.7794,48.0274,58.0514,57.4576,-210.7596,-13.9203,-216.6473
-62.5000,6.8690,71.0255,-19.1744,352.2721,-56.0202,112.6271,-63.2314,128.5569,-61.3063,-406.1736,-25.6881,193.2847,-61.9372,387.3718,88.3288,60.7827,66.3730,-136.5327,27.3815,-142.6971
-54.6875,-28.8292,34.7085,-24.6515,348.1180,11.5909,183.3066,-32.4907,271.0766,-32.9648,-711.3024,77.9757,188.9482,-31.9815,568.2890,119.9344,78.1001,28.5796,-101.7672,92.9854,-114.4524
-46.8750,-180.6643,-185.7537,-5.2775,229.8393,28.0505,93.8342,-14.8998,253.4512,55.2476,-515.6033,-16.5000,134.4682,-16.1802,442.0781,175.3844,87.5527,-16.3607,23.8098,115.4390,10.6313
-39.0625,-319.1847,-357.9023,-81.5922,158.8887,-11.1888,93.6576,-55.0098,214.1251,85.7762,-231.6292,89.3225,134.2890,15.9159,331.1864,135.1233,118.0393,-49.9956,82.1931,79.1916,78.0113
-31.2500,-340.7520,-378.0921,72.0427,205.9239,68.5043,139.4262,24.8182,296.7480,163.2756,-635.7126,168.1015,106.0642,131.9498,488.2712,216.8018,85.3880,34.3241,213.2233,160.8935,192.3349
-23.4375,-167.7182,-133.6795,64.2801,199.5972,59.7947,132.7961,53.2374,362.9766,189.3957,-981.2065,231.4946,135.4502,232.5792,702.9730,209.0730,55.7740,-3.7534,271.0256,191.1899,254.2405
-15.6250,-30.6806,-30.2697,-83.4733,-16.6916,58.0780,-11.8383,14.6551,106.2016,111.5361,-252.7176,155.8895,-48.1586,157.2075,153.6860,98.3359,-12.2579,-183.8218,135.2890,43.4882,140.1399
-7.8125,-177.9813,-246.2015,-56.5739,-95.2917,10.0063,-166.8304,3.7153,-122.9216,99.3373,392.4117,33.9499,-130.1149,36.4828,-257.9352,-58.7651,-20.1518,-155.2416,157.6342,-0.5675,163.6779
-4000.0000,-177.0277,-291.4048,5.7849,-111.7810,23.5559,-186.9276,7.2760,-51.0643,142.5744,270.2389,137.7988,-72.1593,72.2524,-55.0221,-71.0555,32.6236,-100.7782,117.3636,45.3330,125.4803
-3992.1875,-17.4266,7.8872,-7.7245,-53.5297,46.1989,-92.3375,29.8215,81.2986,244.7969,-106.6496,51.8781,24.5325,22.9762,114.2615,98.2341,8.7392,-79.6566,108.7279,104.0488,114.1569
-3984.3750,19.6635,112.6747,-40.7421,-47.6992,14.3289,-18.2516,107.8551,84.1467,328.5818,-354.0436,20.4215,100.7161,102.1849,153.0208,175.0183,-57.8787,-7.0407,119.9643,178.2661,120.3350
-3976.5625,-20.7104,1.0125,-1.2255,-47.2324,125.9883,55.3891,183.4153,-24.4694,299.9656,-456.8941,134.4826,29.4538,215.9204,8.3217,-80.6601,-150.3965,95.1195,33.4233,248.0307,15.0605
-3968.7500,-61.0931,-110.6320,109.2764,22.3287,164.6361,126.0335,257.9606,-61.0977,233.4007,-671.7473,137.5116,29.1895,291.6333,-29.3959,-338.3532,-210.4084,232.2715,-12.1023,352.7894,-55.2275
-3960.9375,5.6554,-9.1259,151.9249,130.1227,207.4179,239.8282,263.6444,-20.5963,172.0504,-735.4590,181.6579,144.0692,372.4803,48.0145,-664.8994,-174.6453,265.5732,-146.6035,318.6989,-194.3685
-3953.1250,179.8448,127.8411,194.0103,168.4509,322.6354,242.0724,305.7528,-163.6591,182.2024,-688.7327,261.2342,185.4026,451.7627,-168.1414,-955.9928,-278.0684,300.3189,-207.6793,286.0494,-261.0650
-3945.3125,219.8336,-44.3754,237.8862,73.6665,293.6386,-10.8868,276.6313,-450.9397,307.2002,-309.2159,196.5744,81.5364,386.8260,-419.5134,-728.2865,-360.1596,341.8592,-209.2519,260.1938,-250.9637
-3937.5000,168.7171,-61.6836,154.6469,27.8707,173.5176,-96.9425,156.3777,-498.3276,414.1434,127.1918,41.7800,-2.4274,47.7678,-429.9913,-224.6858,-265.7704,187.2998,-318.0016,143.2374,-331.9671
-3929.6875,91.3119,70.7262,75.0974,60.8638,57.0813,-69.2966,76.7966,-359.0294,450.8382,51.2826,-184.3407,27.3051,-67.6116,-290.7812,208.6068,-211.1302,75.4419,-296.9279,68.9728,-299.2823
-3921.8750,71.9069,191.1583,-53.4561,187.9440,-71.3720,56.3506,21.1821,-194.7460,438.5767,-145.6390,-201.4976,192.0442,24.9897,-90.5844,262.8980,-159.7297,92.5810,-281.2778,88.6947,-278.5999
-3914.0625,173.7493,150.8718,-124.7748,259.3645,-69.5997,19.2505,23.7804,-194.2225,447.5948,-102.3118,-123.4327,120.0448,175.8216,-126.1458,6.4388,-161.6283,90.9639,-350.9986,88.6526,-347.6774
-3906.2500,124.9391,101.9598,-134.7560,217.2274,-115.4952,-103.4931,86.6938,-242.3560,628.0005,2.3538,-169.0477,-74.6018,313.9864,-210.3701,-225.6641,-178.1474,79.6933,-358.7503,79.9447,-355.4131
-3898.4375,47.9733,128.9087,-173.8961,216.0167,-118.5630,-182.3834,84.4216,-245.6499,779.3022,78.8524,-133.8471,-150.3916,238.9833,-177.7493,-7.9099,-159.7977,3.2808,-406.3942,42.0928,-392.3035
-3890.6250,21.2142,101.0665,-201.8441,230.0817,-145.4402,-213.0644,20.3221,-273.7529,867.8442,202.5296,-233.4687,-178.9812,139.1667,-205.9360,331.0488,-151.6490,-56.9304,-369.2487,-86.5607,-344.0101
-3882.8125,-18.9522,165.8414,-242.2007,372.8284,-296.7354,-147.1322,-132.2094,-206.2537,796.0235,165.7950,-309.5291,-36.9670,98.9278,-65.5303,251.6118,-93.4100,-60.5513,-303.4360,-156.6237,-273.1225
-3875.0000,86.7191,269.4907,-276.7293,659.5078,-331.2042,36.6748,-129.9290,-131.8990,695.0735,-158.1040,-268.7725,74.9112,102.5182,82.7284,-3.9722,-98.3799,-59.3300,-285.9393,-223.8414,-268.3967
-3867.1875,47.1993,264.9635,-281.4702,803.0665,-408.8791,140.3017,-134.8692,-63.7520,770.9552,-488.2246,-345.2394,180.5864,61.8936,224.7694,-155.7543,-117.4489,-26.3108,-201.0886,-188.2658,-196.8851
-3859.3750,-9.9175,276.8543,-408.8152,857.0967,-463.1674,157.3423,-189.4377,-45.2156,833.2661,-537.9678,-325.3413,125.6668,8.6498,206.2010,-248.1302,-137.5778,-81.8890,-252.5740,-135.2933,-248.9804
-3851.5625,-34.2280,287.5744,-465.3730,910.0032,-482.6698,135.2006,-135.2395,-65.8787,967.3980,-332.9241,-564.6716,-5.4443,-82.8180,-72.5694,-305.7040,-169.3706,-139.6655,-299.5717,-155.5291,-303.2915
-3843.7500,-90.7814,300.0748,-486.1861,1034.7422,-540.4367,111.8272,-119.3134,-50.7949,990.3020,-202.1488,-731.2966,47.2032,-176.5610,-131.5994,-290.5257,-140.4603,-159.6941,-278.0727,-138.0240,-284.8618
-3835.9375,29.7621,419.7035,-464.9159,1056.6584,-482.1216,166.5737,-99.3170,5.3907,907.3216,-324.3006,-561.8545,30.9635,-191.2212,-185.5304,-307.2408,-174.8546,-107.6204,-322.1178,-119.4242,-335.3414
-3828.1250,87.6185,476.6619,-327.3542,1015.9469,-455.5162,117.6374,-109.0422,-79.1251,868.6534,-439.1764,-570.1412,-52.9702,-162.6027,-342.1692,-281.6484,-287.0059,-48.2439,-318.7045,-92.5300,-342.5343
-3820.3125,91.6264,514.8040,-284.6483,955.4521,-411.7757,121.8680,-102.6403,-109.4927,808.1481,-427.9207,-636.3159,27.2549,-228.8568,-373.6628,-275.8993,-297.7524,27.2885,-307.1211,-119.4962,-333.5844
-3812.5000,155.1984,541.5352,-218.4012,954.5755,-271.4951,149.6752,-35.7142,-117.3107,808.1987,-503.1417,-604.9703,-16.9602,-197.5831,-417.6057,-246.5922,-329.3345,56.3701,-266.3150,-122.9269,-301.0991
-3804.6875,76.3431,462.8535,-151.6088,953.3170,-277.6743,104.0562,-43.2599,-125.5787,807.8065,-504.8598,-574.1080,-24.6229,-203.7779,-426.0091,-217.7227,-331.2112,121.0050,-230.5605,-126.8144,-269.0710
-3796.8750,108.0998,563.8060,-150.2293,850.7161,-241.2670,176.0537,-79.2278,-52.2463,743.0216,-353.0036,-571.6835,13.3283,-347.3918,-425.8075,-290.2367,-258.0562,13.2432,-271.6333,-196.1060,-302.4510
-3789.0625,128.6195,618.5475,-96.1121,947.9283,-222.1191,191.8229,-135.4635,-35.1586,729.9919,-367.4196,-663.5346,31.0402,-476.2744,-482.8573,-236.9911,-269.5341,-0.7687,-134.8462,-242.6593,-172.0968
-3781.2500,194.2930,648.4768,-102.8523,1056.3535,-266.8329,181.7658,-142.5694,-116.9218,582.1114,-554.7195,-633.2720,95.9141,-446.0249,-381.7649,-98.5767,-321.2553,67.3821,8.8758,-242.0693,-30.5999
-3773.4375,225.1849,608.6550,-106.4006,1059.0465,-270.3593,175.9403,-182.5041,-157.4822,512.4221,-589.8552,-598.8388,92.0035,-374.5982,-312.4727,-28.9513,-324.4102,99.7447,41.1733,-243.2916,5.0806
-3765.6250,54.5986,471.3824,-64.4542,1070.3076,-301.3953,141.6461,-214.9648,-227.5444,450.2239,-322.5251,-592.9399,96.6114,-405.6916,-271.6815,12.1841,-244.6528,70.6148,78.6360,-270.0311,49.2470
-3757.8125,-22.9793,428.1610,-69.5160,1033.6318,-306.4515,134.3810,-220.4583,-196.6070,415.0143,-140.2293,-560.0746,128.2425,-482.8086,-204.8822,43.3267,-155.5035,29.5009,68.0434,-273.7802,46.3995
-3750.0000,-38.0771,342.4518,-86.1331,1096.4811,-250.0709,152.6029,-201.5317,-141.2165,405.2238,-152.5236,-649.7856,112.3468,-536.5039,-148.6248,61.9185,-114.0805,-54.1480,169.3449,-214.0978,141.9754
-3742.1875,-150.4986,230.4402,-130.0910,1132.0416,-295.0433,143.5112,-245.9823,-76.1701,331.0554,-119.2145,-619.8823,104.1152,-542.5715,-83.7183,54.1696,-58.0995,-59.1325,238.5839,-146.7779,210.1879
-3734.3750,-150.8960,228.4739,-198.0548,1033.6542,-252.0295,182.4571,-277.4677,-34.1129,232.8520,-35.9413,-576.0065,109.8980,-609.6614,-42.7998,58.4423,-4.0520,-58.1128,167.5129,-108.4705,144.3908
-3726.5625,-233.1682,250.6619,-134.9241,993.4138,-224.9213,207.5379,-287.8836,-8.9479,119.7186,31.4035,-659.0612,135.7921,-692.6729,20.2238,47.8337,59.9272,-68.9919,160.9888,-117.0788,136.6884
-3718.7500,-198.6296,426.6938,-167.9951,929.0140,-222.0228,246.4499,-358.5265,104.0250,-89.6407,39.5146,-654.3550,212.5009,-761.9069,96.0523,14.0475,124.5290,-68.0589,124.3031,-148.8926,105.7873
-3710.9375,-53.0177,465.8248,-124.0246,905.7106,-178.0826,251.4451,-389.1487,110.0575,-186.9857,-23.3615,-609.6246,145.2836,-717.1163,27.9456,20.3316,86.4059,8.9298,138.1040,-140.6685,114.9273
-3703.1250,-25.1336,281.2543,-54.8063,869.7038,-181.9022,97.7263,-393.5481,32.3484,-221.1173,-60.0236,-429.6834,68.3350,-610.1027,-13.8976,124.8844,26.0786,108.1803,101.9997,-4.2084,76.3139
-3695.3125,48.8193,214.7939,68.4519,705.7902,-58.6856,36.0938,-269.9289,6.7017,-201.2391,-78.6726,-230.7200,-29.5413,-522.0588,-37.6768,138.5022,3.7348,113.4887,-29.3613,3.2907,-55.2572
-3687.5000,29.6069,194.1984,159.5043,692.7188,-5.6742,14.3028,-253.5285,22.8647,-177.6036,-57.5628,-286.9792,-84.6061,-504.2341,14.3476,117.9399,39.8388,58.6018,-8.9096,-13.4285,-36.0395
-3679.6875,40.1677,205.4033,27.3040,641.4286,-62.9225,28.3031,-275.4016,74.7909,-155.2571,146.2621,-270.5237,-69.9104,-524.6797,102.1285,206.1466,133.0947,-32.5234,-45.7129,1.5903,-55.0765
-3671.8750,54.6136,114.5164,-65.0526,487.0245,-10.3226,-30.8008,-223.4517,127.5807,13.8937,239.9011,-290.2338,-89.3502,-433.2990,43.7708,333.2189,138.0959,-87.7910,-36.3096,19.4430,-36.2760
-3664.0625,-3.8149,20.7825,-55.3065,363.7515,-35.6228,-57.7687,-176.4156,136.4822,32.1010,180.5976,-279.8730,-79.6780,-385.8370,90.5184,379.4160,135.3716,-39.9455,50.1330,69.3843,49.6168
-3656.2500,32.3806,-13.2928,-86.9635,267.1012,-30.3288,-18.0946,-172.7991,141.0012,-30.1406,152.8559,-126.9397,-148.3884,-342.7961,130.8772,384.2323,142.1602,33.5110,18.5166,109.9156,20.0995
-3648.4375,43.6610,-38.2519,0.4260,179.5320,19.0130,-42.3242,-123.1482,116.5841,-120.3839,133.1216,-148.9797,-171.0277,-255.7262,180.2935,397.1176,150.1505,10.0242,33.4511,53.4787,35.6139
-3640.6250,-9.2367,-91.3504,-15.3829,63.7921,39.1503,-23.7062,-102.7116,136.9783,-277.8812,195.1407,-54.2535,-113.8488,-196.8767,273.5186,416.8231,207.5833,-6.6471,12.3897,38.8280,21.9183
-3632.8125,6.0878,-111.1876,-32.9975,16.2868,95.4875,-6.8434,-84.0923,155.5925,-362.2464,254.3209,1.6474,-94.4472,-140.8469,291.9613,435.7494,238.0955,-25.1101,-7.7631,-12.6364,6.4053
-3625.0000,-104.3621,-115.7597,-2.4144,-50.9866,89.0205,23.2716,-128.2825,148.4264,-399.4793,252.6611,-40.2771,-26.8274,-108.6373,321.6135,429.8961,247.4660,-28.3726,60.2158,-48.9226,76.0777
-3617.1875,-117.9439,-59.4166,-50.9841,-57.3887,77.3952,46.2891,-140.6443,173.1339,-514.9294,207.8142,22.6226,34.6600,-83.5946,309.1330,490.9091,232.8047,-40.7742,48.0643,-94.3741,66.5848
-3609.3750,-123.7853,4.6843,15.1435,-92.0757,107.4736,75.0556,-111.3153,164.5580,-589.7455,167.6221,15.2088,-9.1387,-52.8684,227.3626,483.6462,198.0493,-45.4613,121.9107,-168.1303,134.7687
-3601.5625,-108.9437,-50.5143,66.9335,-176.1118,86.2092,89.5091,-171.3379,142.6402,-678.9654,149.0294,104.4196,5.7254,-37.5015,241.2479,424.0647,190.3226,-30.4728,175.7133,-115.2377,188.5900
-3593.7500,57.3361,-60.2537,96.1262,-248.7410,115.3464,116.4013,-179.9638,170.1365,-754.8552,70.7953,206.0189,-74.9920,-44.7498,306.5524,378.9049,199.0253,-39.0609,169.5672,-86.9559,182.7923
-3585.9375,41.5614,-76.0230,190.2206,-327.4594,98.3846,136.2393,-196.7009,190.5539,-801.9191,22.4182,154.4985,-54.7922,-61.1179,325.7718,362.6697,205.5331,17.2666,232.7214,-98.7936,241.8784
-3578.1250,72.0197,-10.5201,151.5147,-254.9598,59.6100,132.3328,-236.2629,151.1905,-871.8573,-49.8006,262.1487,53.6381,-25.3079,360.2198,360.6532,174.9696,83.8076,192.2225,-136.4563,205.1573
-3570.3125,107.1692,24.7137,227.4595,-247.7944,100.4775,98.1329,-197.2023,44.5014,-899.2336,-116.4143,266.4327,57.7462,52.1272,289.3400,400.3063,97.8875,156.0167,166.3420,-133.4904,174.0722
-3562.5000,52.1511,40.8157,211.2108,-295.8169,83.1354,116.7841,-177.3592,63.6312,-909.8945,-129.2755,287.4950,77.6759,109.3433,309.2768,346.7887,107.6257,206.0460,115.4827,-79.7363,122.7787
-3554.6875,125.0659,42.8902,220.8617,-285.9372,129.6883,162.3833,-131.6325,146.6846,-931.7380,-152.2759,334.4405,50.5279,119.4412,318.1353,283.1974,136.9353,175.9885,19.9441,-74.0977,24.3696
-3546.8750,176.5627,-45.4171,275.0574,-368.5084,183.7931,142.5834,-42.3573,163.3185,-872.1134,-205.7591,314.9071,-41.0568,137.0778,260.5645,263.1812,111.7820,192.4783,48.2745,14.0781,43.4975
-3539.0625,272.2289,-125.5115,232.3918,-476.9385,214.0479,171.9785,-12.9349,193.1313,-872.4215,-208.1232,382.4931,-47.4690,168.8476,291.1706,220.3460,125.6773,114.1249,2.7373,42.3970,2.7720
-3531.2500,288.9861,-179.4822,177.7685,-524.3269,233.3492,153.4765,79.5276,212.0197,-774.7678,-113.4839,329.1143,-137.8085,187.6507,272.8581,239.5842,152.5089,59.8350,-15.9599,25.7547,-12.9186
-3523.4375,154.4323,-207.7315,112.8007,-546.0744,167.3102,123.6786,86.6398,219.5772,-687.5493,-65.2517,263.3687,-129.4782,196.0885,317.2129,247.4892,180.4594,103.2174,-8.9156,70.7526,-2.9692
-3515.6250,175.1101,-116.7168,138.0383,-518.6302,230.4693,112.1311,147.9446,208.3580,-730.2222,-72.8616,289.8069,-67.9245,185.7152,268.7969,162.6148,161.5531,89.8149,-51.6873,23.9369,-48.8299
-3507.8125,157.9229,-132.5310,194.3697,-529.0891,249.7308,93.7413,203.3386,190.2659,-668.8922,-87.4020,198.3290,-48.2515,168.4232,176.5066,144.8724,124.7994,108.5196,-22.5723,44.1998,-27.6047
-3500.0000,171.5177,-84.5273,139.4491,-543.8141,231.7411,38.1523,184.4725,208.9518,-645.9070,-139.2300,254.5784,8.1912,150.8670,231.9848,126.9125,121.1917,122.9895,-80.1907,95.2030,-80.6355
-3492.1875,263.2551,7.6551,202.6301,-550.4542,256.8584,63.7136,171.7010,196.7576,-651.9263,-147.0155,316.9248,-39.2433,140.4006,220.5893,42.0810,114.0617,109.5740,-126.6508,48.2960,-126.5802
-3484.3750,243.6790,23.5673,290.4720,-564.4644,235.6298,77.9801,149.5757,175.2427,-669.4047,-238.2075,331.9122,-24.0076,192.5717,160.8677,20.9216,61.2388,125.8243,-67.6035,31.0227,-72.8876
-3476.5625,298.0822,8.5024,275.2677,-573.5389,292.3528,25.2484,169.3902,121.7077,-644.0435,-214.4936,426.8420,-39.7937,213.6810,108.1287,4.7346,25.8827,111.0372,-46.8359,17.6833,-50.2611
-3468.7500,251.4788,-2.5406,262.0166,-577.6808,280.0345,-62.4820,192.1521,109.1484,-578.8333,-187.8709,340.7219,-51.6101,237.7285,57.3602,65.5230,4.9437,101.2156,15.3575,8.2771,12.2986
-3460.9375,199.8106,-18.6125,209.6713,-552.9503,190.6239,-78.2629,138.8106,56.5136,-552.8228,-127.3865,398.4819,43.4916,222.6631,152.5150,50.2433,29.2809,120.3084,-8.4809,-6.2393,-1.2481
-3453.1250,351.8929,29.0980,187.0248,-500.5494,167.9181,-27.2938,78.1634,33.6079,-497.2170,-147.2475,449.9309,95.3118,200.2856,165.3979,27.6884,11.4171,62.1236,-37.0112,-97.0655,-22.1083
-3445.3125,283.1218,-4.0238,223.4890,-527.0839,131.3293,-28.1787,77.6190,32.8240,-493.6167,-107.0573,376.4735,95.2465,201.0007,165.3973,27.2624,26.2617,29.0614,38.9460,-93.8010,53.1221
-3437.5000,256.9281,40.4629,126.5165,-548.1070,107.3024,58.5306,52.6306,82.6142,-513.5748,17.6403,425.5591,108.7478,176.2571,213.9697,-33.5865,96.7318,2.5706,-28.1721,-82.9934,-6.1043
-3429.6875,204.8195,25.0625,147.5932,-523.1162,128.3353,153.3427,72.6926,67.4837,-524.5870,-31.6492,336.6856,130.3166,161.5566,198.6243,-84.3569,87.4617,22.1373,-32.6334,-63.1452,-19.2940
-3421.8750,171.4839,-7.5267,77.4217,-515.4149,95.1230,155.9639,38.5044,106.1393,-517.9557,-100.2230,303.5443,207.6550,164.5944,238.0562,-45.3463,85.4021,24.4640,-28.5834,10.4464,-14.7403
-3414.0625,246.3251,-2.8931,10.3991,-575.6043,175.0668,162.7871,117.4715,112.9741,-544.2848,-127.6835,309.5485,178.1718,171.7758,244.6704,35.8344,76.3801,-76.0377,-58.8305,52.1786,-43.0499
-3406.2500,102.2603,-6.1458,-31.5641,-608.7837,169.0813,119.7070,147.5055,180.8795,-472.6724,-57.1395,193.6015,99.7538,203.0040,201.3541,67.0918,103.3935,-113.4686,12.4293,85.9504,26.6800
-3398.4375,62.5758,-8.9842,-107.1708,-606.6614,130.4522,117.0238,106.8962,178.1599,-471.8185,-93.2859,264.9934,97.7054,274.5724,198.4160,101.7265,82.2009,-45.5278,9.1885,119.0706,25.7542
-3390.6250,111.5830,4.8920,15.8767,-587.9349,180.4850,95.0464,156.9422,119.1246,-491.4262,-186.8289,279.0375,75.3237,288.7788,102.1615,116.0395,11.1766,37.0782,35.1030,62.8253,41.4626
-3382.8125,-10.4286,60.7754,0.8864,-492.3092,129.4765,116.0707,67.9443,104.0740,-540.1959,-89.4601,227.0192,170.9087,236.9278,123.8911,27.3235,48.9174,56.6573,19.4472,13.5189,28.1134
-3375.0000,39.9867,112.1151,-14.6990,-436.3323,112.8731,137.5464,13.3498,161.4544,-626.6816,-29.7209,284.4010,118.9140,221.4740,144.0512,12.0322,94.3730,37.6594,-71.9367,-4.3948,-59.8509
-3367.1875,95.2002,27.2671,80.4737,-516.6533,171.0361,47.8225,33.5203,108.6152,-565.5307,-80.2772,305.5367,-6.3191,242.7671,54.9872,70.5145,31.8007,128.4302,-41.9463,52.4300,-37.0810
-3359.3750,196.3984,-11.5639,114.6099,-586.0720,206.1593,46.0920,-6.3495,69.7538,-564.5461,-79.9354,340.6245,29.4180,204.0090,52.8966,104.9679,16.3900,195.1750,-81.8254,49.1950,-74.3675
-3351.5625,323.2884,-24.6749,175.4024,-559.8825,192.9395,70.0625,-20.5587,93.5668,-538.0240,-53.9908,290.3693,-20.1707,153.8926,2.4797,92.1001,19.8951,181.5900,-90.6513,36.6004,-86.0218
-3343.7500,260.8698,-15.0744,143.8621,-511.0980,88.3915,112.7250,-126.0951,136.0530,-529.9611,27.5601,222.7633,22.9022,86.4217,-29.2722,61.9141,47.5581,189.6750,-10.6217,46.6460,-5.0365
-3335.9375,246.3836,6.4784,94.2305,-485.4672,37.7572,99.3276,-140.7129,122.4654,-467.1163,88.9666,283.0638,46.8928,109.8493,-43.0986,121.6550,44.2073,140.6899,-30.6940,33.5847,-17.1627
-3328.1250,148.9001,-19.9619,101.5601,-506.9362,82.0928,70.9259,-60.3588,56.8482,-383.4454,25.2772,253.3238,17.8492,154.2283,-107.9514,166.3707,-18.4474,114.6757,20.6438,42.4611,28.6441
-3320.3125,97.6458,-35.1434,86.1034,-554.2532,66.6397,55.7717,-39.7910,4.4534,-286.6960,-25.2513,311.7808,40.0273,211.8077,-86.5743,151.3095,-52.0721,98.8813,2.6442,27.5243,14.6443
-3312.5000,133.5257,-32.1616,125.7470,-583.5214,143.2998,95.7663,35.8894,8.1909,-280.9660,-19.7243,314.3491,7.3250,215.4861,-48.0654,82.3693,-27.2237,30.2049,-28.1777,-5.3200,-17.2678
-3304.6875,39.6920,-90.8759,174.6549,-637.6122,155.2336,71.0497,83.8471,20.2048,-267.0990,-5.9970,253.1778,19.8823,190.4241,-36.2842,20.7059,-7.2439,41.7949,-9.6081,43.0809,-3.9359
-3296.8750,57.9393,-141.4926,88.6182,-613.7282,180.2285,59.4238,107.8744,44.2978,-241.2961,19.7493,351.0625,44.5094,215.4173,-11.4244,-64.8822,10.7835,-9.5499,-98.1155,62.5260,-88.5610
-3289.0625,43.1773,-155.1060,109.5324,-659.9606,237.1879,43.7909,200.8674,28.3727,-144.6577,-30.5781,297.9068,-6.9027,272.3692,-64.5868,-43.4961,-29.1467,-94.9380,-71.8300,83.9145,-66.2476
-3281.2500,-75.9064,-167.0184,-14.8927,-668.6155,186.8101,-6.1554,259.5368,15.1278,-10.4810,-6.2839,283.3981,-20.6525,368.9747,-79.0736,16.5662,-45.7356,-107.6635,-52.9622,106.9493,-42.2856
-3273.4375,-62.1120,-117.0304,-72.4678,-615.4935,203.2963,-26.2071,275.0808,30.7637,44.4276,11.8294,226.7453,-40.5355,385.4316,-99.6799,33.5013,-47.2315,-162.5222,-74.7722,51.8349,-61.4818
-3265.6250,-116.2388,-65.9460,-58.9838,-525.3951,105.8519,-12.1639,213.7052,45.4814,59.2776,63.9558,56.1502,47.6335,288.9413,-85.2087,-26.4860,-16.2848,-148.3131,-22.3777,-3.2309,-9.6385
-3257.8125,-124.7415,33.7837,-136.8872,-423.7673,64.0267,56.5154,134.9571,76.8227,-18.3806,133.6414,51.1630,190.4113,210.0580,-54.1147,-104.8503,26.2456,-154.4790,-67.8467,-44.6943,-50.2022
-3250.0000,-112.4033,-22.6332,-48.9832,-406.4095,42.0194,72.0323,148.0398,91.9895,70.6485,76.0931,28.9907,57.9997,187.9806,-113.1995,-89.3933,3.5056,-107.8289,-78.7021,4.6359,-70.9782
-3242.1875,-173.7879,-117.7533,35.1836,-428.8707,53.2740,83.8375,158.4020,66.4332,155.8131,14.7706,76.0657,-3.1504,162.1533,-139.0082,-114.6681,-21.1860,7.0887,-93.3136,84.2081,-95.5071
-3234.3750,-65.4472,26.8742,79.0503,-281.7032,60.2354,164.3826,164.4852,73.6059,126.5666,-50.8807,45.8487,40.4171,95.0253,-169.0885,-218.2183,-35.2972,80.7261,-150.4997,53.4785,-161.3439
-3226.5625,-6.5707,122.0443,99.4284,-184.1153,7.7151,185.4667,147.1062,57.3033,147.7177,-28.0642,-153.8561,61.4860,5.4005,-183.6448,-269.2486,-32.4063,68.8793,-50.9038,42.2509,-65.6886
-3218.7500,9.8774,174.7995,4.3691,-164.0567,-88.2395,202.1322,51.3089,109.5762,163.3146,62.2755,-175.0049,114.1106,-89.6735,-131.6147,-253.7160,18.1874,15.6033,-9.1915,-11.4267,-12.4863
-3210.9375,32.3618,163.6032,-46.6848,-173.0708,-138.1777,224.8404,36.5452,131.8749,186.8013,85.5857,-190.1389,63.7489,-103.7496,-183.5632,-194.1705,8.9839,-65.6557,47.8027,-56.1114,47.7024
-3203.1250,-61.5189,106.0536,-36.1189,-158.5553,-128.4967,272.1816,-28.5853,105.7938,123.7853,59.4541,-179.6665,73.9950,-94.2208,-209.9001,-183.0062,-7.9026,-19.2910,99.8065,-80.1999,95.4877
-3195.3125,-35.6252,204.2967,29.2065,-58.3670,-62.0490,302.3059,1.0657,62.4797,7.4153,54.0398,-113.4326,105.0037,-100.9357,-216.4709,-300.0723,-12.4122,-29.1515,61.1009,-193.5411,53.0171
-3187.5000,-96.0446,214.2328,111.1937,-10.6011,-16.9326,312.1105,45.4010,33.8342,-21.4054,-9.7506,-215.5345,113.6726,-92.9918,-245.3740,-291.4750,-38.5983,-54.3431,116.5160,-219.2403,99.1850
-3179.6875,-144.2469,308.4102,24.3917,49.2953,-65.6058,300.1476,-5.0369,21.4137,-34.1265,-21.3714,-191.4267,211.5542,-142.8475,-221.0607,-303.6580,-45.6779,2.6838,101.6766,-195.7442,87.5483
-3171.8750,-76.9230,377.1334,23.0955,118.6387,-31.7661,262.7191,30.0437,-16.4755,1.5487,-22.5194,-156.8020,173.9431,-144.2035,-259.2253,-304.3268,-74.0703,-0.7725,65.3978,-198.7504,50.3944
-3164.0625,-30.6193,353.8477,32.7632,97.8722,-93.9632,126.2662,2.1012,-42.3875,84.0792,25.2522,-183.2178,148.2810,-97.6018,-286.4179,-294.0318,-93.9014,10.7345,108.4661,-151.8120,98.1808
-3156.2500,59.7564,376.6483,-16.5094,87.0735,-144.0974,76.8878,-11.7677,-55.2306,107.5704,87.0437,-123.5662,172.6788,-110.9342,-225.5315,-269.6737,-75.2899,-72.6914,83.9671,-164.8251,86.0155
-3148.4375,32.3137,314.6401,-12.6307,26.3450,-177.0617,43.6859,-81.4593,-13.9025,147.1152,127.9585,-193.7478,139.2313,-71.1013,-185.4712,-192.1501,-44.7289,-135.9551,155.6415,-158.6902,163.9936
-3140.6250,-38.4139,315.3673,-124.0408,-6.7611,-252.3114,8.2080,-157.4164,22.1491,146.2678,201.5535,-195.2292,175.4863,-108.5579,-2.6930,-118.9052,36.7649,-171.5042,177.5941,-122.8583,200.6717
-3132.8125,-71.7638,283.4803,-194.0990,-2.5892,-248.1982,48.1092,-116.9862,61.5757,148.6663,206.4736,-228.3425,180.0997,-141.6592,74.4588,-78.2989,80.9733,-169.6905,145.0718,-84.6810,168.6943
-3125.0000,-111.5851,210.1292,-163.6423,30.0084,-254.5670,116.5400,-161.0088,56.5245,68.4635,126.8708,-270.9398,248.2103,-185.2538,105.1270,-120.1843,80.6600,-68.3667,185.3852,-54.0141,200.2167
-3117.1875,36.7015,254.9148,-115.0763,41.6300,-241.8271,93.0976,-185.9005,-4.4029,-30.7369,103.3554,-148.4268,260.4276,-209.7470,79.9134,-180.9600,45.0670,11.0768,126.5454,-10.2518,139.8411
-3109.3750,109.3114,224.0295,-38.2032,46.4771,-164.7693,59.9830,-109.4512,-37.0092,-65.7355,34.1299,-145.6014,227.9488,-206.9369,47.0150,-177.4210,9.8248,13.8373,137.6307,-42.1888,143.7578
-3101.5625,22.8925,243.1128,-57.3634,66.1941,-183.7458,78.8431,-166.0123,-55.6467,-158.8751,16.8351,-201.8194,282.4214,-189.1676,138.0831,-158.9161,32.6568,31.5670,154.1656,-59.1728,162.6264
-3093.7500,7.5995,266.3259,-143.4205,88.9327,-122.6086,177.8211,-141.4388,4.8357,-246.0136,4.6235,-213.9212,234.0046,-201.2908,163.2727,-134.2976,67.8152,16.4172,109.2406,-38.0521,114.5873
-3085.9375,-30.7572,158.4743,-111.5671,17.5001,-53.5499,174.7196,-109.9188,37.2375,-252.3460,37.2913,-256.1069,156.4861,-169.5031,121.3791,-137.7704,81.2250,-21.8237,147.8474,29.9619,147.4362
-3078.1250,33.6986,154.4488,-187.9043,-92.2080,-56.6754,171.4363,-114.5686,108.4566,-256.9602,107.7457,-185.4814,116.7716,-136.9014,155.3004,-177.4286,125.5168,-97.2534,99.6606,93.7760,108.0835
-3070.3125,76.9835,129.2534,-179.4303,-152.1859,-11.9828,107.9683,-70.3934,117.4868,-249.8641,116.9737,-177.0271,51.8588,-91.4832,164.0340,-132.2708,128.3156,-158.8625,105.8279,67.3883,117.5274
-3062.5000,21.1036,72.8824,-131.1266,-243.4377,36.5342,10.3055,-58.3942,92.3224,-276.0571,91.9625,-128.7488,28.7501,-43.2497,175.5821,-83.2985,112.4268,-110.6444,156.0954,115.8019,166.7744
-3054.6875,16.4020,35.6776,-96.6573,-280.6198,145.2192,-63.1980,12.7845,17.3216,-316.1825,54.0832,-57.2950,-9.2078,28.1468,100.3028,25.8311,50.8441,-44.2595,123.3989,148.3716,129.1644
-3046.8750,-14.5283,-28.7577,16.5710,-310.1199,184.6694,-169.9305,51.7480,-51.9033,-242.6374,21.9372,-55.0759,-116.4141,67.3038,30.7891,101.7223,-3.0166,30.8817,169.3431,116.6872,169.2943
-3039.0625,-16.9514,-29.6776,14.3129,-312.1860,183.6352,-171.1382,13.2433,-89.6100,-282.6733,20.2639,16.6590,-81.1188,101.9758,101.7869,101.1215,4.5573,26.5411,126.3838,113.5036,131.9266
-3031.2500,26.1482,-54.0821,24.5584,-301.8202,158.1181,-84.8282,-12.7157,-41.8010,-273.2828,-4.9306,-9.0806,-69.3205,76.1610,113.2973,113.0258,21.0787,0.7126,101.9164,87.8261,107.0513
-3023.4375,-64.8827,-144.6217,-33.3341,-321.6824,61.4767,-33.6622,-35.7622,8.8698,-224.1095,45.7045,-67.9556,-91.6806,90.2180,127.6665,127.7892,58.7215,14.7430,116.6630,173.0019,122.0230
-3015.6250,-20.6035,-168.8494,-57.9203,-381.3197,75.1475,-20.1852,14.5370,22.8580,-176.7110,96.6297,17.4823,-114.7437,103.5875,141.3537,141.8633,77.6918,-45.9156,51.1608,182.4758,62.2938
-3007.8125,1.7440,-180.0114,-0.4524,-393.9691,95.8819,-70.6387,71.9303,-29.0815,-157.3418,43.5972,1.9848,-130.7624,161.0135,125.1022,125.9991,38.8674,-58.5199,111.8851,134.9920,120.6077
-3000.0000,-44.9556,-120.2166,-50.0270,-333.7374,9.5753,-46.1318,-15.6786,-41.0571,-210.0887,31.5070,61.4473,-32.8338,147.3995,185.8149,113.0920,45.9140,-35.1626,129.8497,87.4612,144.8720
