Time,Fp1,Fp2,F3,F4,C3,C4,P3,P4,O1,O2,F7,F8,T7,T8,P7,P8,Fz,Cz,Pz,ref
-4000.0000,154.5011,300.5402,20.3138,103.1637,-60.9969,-22.1184,-52.1507,-69.7348,-93.5172,-117.5811,23.8953,47.7896,-18.3499,16.6016,-60.4528,-8.2713,47.7600,-43.9387,-66.7158,-26.3493
-3992.1875,62.9935,210.6087,-37.9375,11.4533,-46.5530,-43.6457,-37.4338,-17.9046,-18.8932,-31.4343,2.7330,27.1951,-77.2169,-5.4545,27.1515,6.4633,24.8334,3.2474,14.7365,-84.8210
-3984.3750,-25.8486,19.3721,-22.5133,-42.5505,4.5698,-28.4603,86.9702,33.6501,47.3018,19.4372,-54.7400,-29.6877,-62.3947,-25.7926,41.4530,-14.0797,-29.4124,-16.8596,28.8878,-69.5747
-3976.5625,-116.6598,-104.8419,-10.0467,-98.5151,15.7311,-16.2260,61.4288,45.2660,46.6636,67.3740,-42.1604,-16.5228,-50.5199,-13.0803,-20.1806,-1.5636,18.3851,65.0847,40.0900,-57.2586
-3968.7500,-132.5344,-117.1214,47.3652,-44.5350,34.8378,3.9602,44.8295,64.8386,40.7878,86.2800,-21.6252,-68.4076,-66.6970,-65.4146,-36.8536,-18.0895,1.1242,46.9977,-48.7616,-109.9851
-3960.9375,-120.7760,-173.7632,90.4231,-32.9062,77.5913,10.8070,50.8772,34.0728,63.5389,127.8565,21.5508,-98.6453,-24.2250,-59.0948,-31.8722,-10.9604,81.4944,56.5695,-40.9657,-30.0491
-3953.1250,-65.7475,-186.1276,145.7641,-12.9804,167.6327,28.9595,31.2210,14.6218,35.6701,34.7571,114.0204,-79.5833,30.5414,-77.4719,22.4048,7.4767,100.1554,74.4529,-58.8659,-11.8018
-3945.3125,-69.0877,-220.8649,172.7469,-51.4145,194.3217,18.7692,57.2203,-31.1666,30.2229,-48.6739,68.1427,-86.8705,93.9538,-85.1984,85.3371,-38.4270,61.4542,-1.0122,-64.1219,89.0968
-3937.5000,-207.1478,-358.3349,59.0360,-119.5562,115.3110,-20.1192,17.5241,-72.6512,17.2171,-126.7952,64.5664,-52.8626,126.6726,-14.6219,154.5854,31.9694,26.0511,68.8237,4.9233,159.3148
-3929.6875,-225.1242,-443.7353,41.4205,-137.6020,96.4017,-1.9088,33.9218,-54.0351,40.4007,-72.8016,47.0924,-33.7589,108.4952,40.0545,172.9395,87.4707,6.7464,48.7760,-14.9257,104.6414
-3921.8750,-172.3699,-458.4089,92.5518,-119.9049,73.2420,-23.9442,84.0806,-77.6548,67.3182,-60.0372,24.3566,-91.9121,48.0618,18.4783,149.0434,64.7242,58.1764,30.4812,34.9827,155.7243
-3914.0625,-169.4979,-417.9620,97.8166,-116.0666,76.2229,-55.8190,88.3918,-147.1038,68.1119,-56.1028,66.7616,-85.9163,89.7748,-49.9481,153.2960,-3.8597,60.7473,65.3532,34.0516,86.9699
-3906.2500,-151.9986,-361.8935,76.7299,-98.5811,127.8557,-4.0299,103.3510,-57.8864,79.7156,-4.5105,82.8182,-69.2762,105.1418,-69.7255,168.2048,-23.7896,-29.0348,10.8877,-56.2269,102.8698
-3898.4375,-162.7671,-371.1030,23.3930,-75.3510,73.2423,52.5168,-24.9361,-2.9162,61.7459,49.8457,64.6201,24.1055,86.2568,23.2435,148.8717,69.0281,-41.0680,103.1753,-34.7507,195.5332
-3890.6250,-196.6121,-437.3929,-10.9983,-73.1777,73.5749,54.0169,-22.2736,72.0100,91.3871,124.1731,31.3668,-9.5646,52.3154,25.1660,114.4928,71.8045,-76.1532,102.4226,33.6798,125.1518
-3882.8125,-210.6257,-519.8597,8.4607,-158.1569,91.7623,37.3750,68.2473,90.8009,130.9410,142.3617,-22.0407,-99.3856,71.2229,-64.0570,95.9732,-17.5597,-91.4042,51.5195,86.9585,144.6304
-3875.0000,-232.4653,-503.1657,-50.8880,-144.9537,67.1513,13.9293,43.9730,66.8027,128.3141,154.7729,-9.2488,-85.0081,47.3409,-14.0759,108.6632,31.2815,-114.4635,97.8201,97.4473,121.3304
-3867.1875,-230.8289,-394.0137,-50.7407,-108.2663,103.0416,86.9792,43.1996,103.3153,125.1560,153.7072,-44.9497,-47.1405,9.9618,-13.5988,107.8591,68.6236,-184.0286,97.6267,96.4455,121.5321
-3859.3750,-330.6122,-455.2966,-121.9967,-136.9907,68.5345,89.6291,82.0399,142.4394,139.0058,118.2537,-41.0583,-6.6745,13.1789,26.4786,109.6620,71.5750,-144.0059,102.0293,206.0470,161.3439
-3851.5625,-308.3742,-466.5670,-96.2113,-185.6749,92.0711,78.3313,179.9311,167.6274,173.8762,142.8729,-17.1259,-19.1580,37.4449,-22.3834,97.5209,23.5921,-158.9393,87.4951,260.7047,76.2181
-3843.7500,-352.3109,-507.0258,-105.5837,-193.5227,44.4566,105.8904,206.6781,230.6843,224.9953,279.3660,-99.3477,-27.7983,-9.4353,-31.3918,50.2330,14.4677,-238.0429,77.8097,285.2235,66.9516
-3835.9375,-452.9794,-465.2347,-246.6674,-154.0878,-60.8584,75.7525,101.7355,347.0526,244.0277,469.1913,-166.2774,-20.1494,-77.0148,12.8956,-17.7393,131.6442,-269.8628,115.4274,287.0509,0.0062
-3828.1250,-404.3350,-379.1316,-233.4134,-106.3144,-48.8243,124.9632,151.1532,396.7816,269.0896,480.3948,-189.8617,-43.1507,-138.2480,26.5358,31.6539,108.1746,-293.3499,-13.5954,227.2324,-23.5804
-3820.3125,-400.0157,-372.3700,-234.4664,-99.8555,-50.0857,86.8811,112.2826,358.2226,228.7149,368.3201,-190.7495,-7.4551,-65.7795,-12.1202,65.7604,70.4138,-219.1496,24.0849,194.1160,85.5467
-3812.5000,-350.1288,-320.0582,-218.9261,-51.8114,-72.7493,103.4064,17.0093,263.2797,141.9562,272.8717,-102.0402,-27.1625,-13.7085,-32.1681,7.4693,50.2699,-135.3576,72.3908,135.6061,28.2878
-3804.6875,-311.9760,-349.4877,-143.0968,-48.4690,-36.1075,105.2503,55.0365,227.6565,132.2868,236.7455,-136.0381,-61.5738,-49.3392,-29.9163,-28.5155,52.4305,-99.2825,3.0217,136.3945,30.3267
-3796.8750,-280.6595,-315.7654,-112.0774,-51.9381,-5.2664,63.3063,86.2660,148.2464,148.7830,230.8428,-104.8420,8.2082,-91.7661,2.5362,2.7113,47.7968,1.9774,33.8606,165.3869,25.5760
-3789.0625,-200.8252,-233.5383,-26.5169,-40.8724,79.1251,74.9174,97.0489,160.4003,147.1297,205.5185,-92.0970,-15.4662,-79.6419,-21.4599,50.4972,23.7193,-24.2239,42.2578,102.9417,-35.6216
-3781.2500,-179.7625,-280.1150,-43.7079,-54.5764,24.7751,58.7791,79.0967,142.8216,138.8861,224.4647,-109.1033,-68.8975,-60.2588,-75.2090,-3.4577,6.8936,-39.1861,61.9022,121.7630,-15.5590
-3773.4375,-161.1348,-224.1604,-96.3027,-35.7067,8.0353,79.2346,62.7615,200.8498,86.8016,171.0288,-87.5095,-46.7426,-76.2610,-16.3640,-56.7979,27.6666,-56.5504,79.1558,68.2068,-67.8812
-3765.6250,-89.2842,-185.0103,-62.6502,-33.6022,3.5575,112.9425,59.6869,197.1359,77.6226,129.8618,-127.6602,-49.3549,-43.0048,17.7297,-23.8679,62.6892,-126.6808,-61.3382,102.9017,3.0511
-3757.8125,-150.6613,-279.1050,-94.2015,-130.7141,-30.1171,43.4550,62.4142,200.2400,133.9486,206.5279,-86.0146,-44.1707,-2.9451,-15.3717,52.8776,66.5212,-119.0316,-19.0269,144.3940,80.8095
-3750.0000,-124.9787,-286.1508,-67.6733,-174.7403,-40.6969,-1.9291,90.2349,191.4649,164.2474,234.3340,-21.2734,-52.8874,25.2136,-23.3653,116.7380,21.4692,-128.2965,-29.6005,132.9974,35.6851
-3742.1875,-139.7299,-334.6492,-49.5580,-190.1859,13.3222,-56.7066,180.6644,99.3102,171.3155,141.7684,-39.9407,-106.0093,79.9751,-77.7556,134.2135,-33.9788,-75.9801,23.4327,185.2079,54.1698
-3734.3750,-212.9122,-300.6064,-49.8532,-123.0488,48.9387,-20.8791,142.6976,97.7665,133.5635,139.8296,-40.0104,-107.5385,41.3424,-78.5483,59.2989,3.1790,-44.0722,90.0786,110.0247,-19.7307
-3726.5625,-79.4669,-128.9606,13.5047,-23.2743,74.2132,5.6053,58.3791,87.8779,81.5894,165.5540,23.5817,-79.4230,-5.6324,-51.6874,49.0430,29.9907,-120.5211,-22.6185,-107.5038,44.0238
-3718.7500,-29.7993,-148.1254,-14.8860,-44.2722,7.7476,-59.6601,-81.6773,22.2574,32.5372,135.5506,67.4181,-34.0656,37.6491,-5.5756,55.0554,38.0574,-73.7321,25.9389,-96.7719,162.0425
-3710.9375,-83.5214,-163.7028,5.3587,-61.6402,-10.0697,-74.2680,-61.0798,5.3043,54.2020,157.2307,89.8945,-49.0630,59.5829,-21.8095,76.7244,22.7864,-91.3058,77.1650,-80.3761,73.7167
-3703.1250,-136.4201,-110.4770,-51.5512,-10.1730,-31.0285,14.9834,-8.6220,22.2127,93.8676,246.7807,-3.7831,4.7747,39.3674,-41.1952,56.2523,3.3638,-147.0440,92.2465,-101.1253,54.2441
-3695.3125,-229.4479,-59.4087,-145.5649,74.1762,-90.0777,68.1366,-104.2568,75.0252,87.3951,298.2548,-24.5640,21.5015,18.0614,12.3138,34.7018,56.8356,-134.8917,104.2343,-55.9606,-3.3133
-3687.5000,-147.9544,-116.8485,-99.0354,16.0534,-80.5660,41.8382,-57.3331,121.3999,88.7981,235.3114,23.2107,-41.2320,64.3120,-13.6282,80.7242,30.8602,-158.2021,-26.2219,-46.2352,7.6831
-3679.6875,-125.0388,-196.9078,-79.0584,-101.6487,-98.5966,-13.0083,-38.9426,140.2446,86.3136,215.8468,4.4297,-57.5300,83.0200,4.8748,62.2161,12.3372,-102.0781,-4.2327,-25.0441,100.1449
-3671.8750,-79.3040,-44.1828,-68.2369,-89.5301,-124.7723,-2.0139,-100.6957,114.9440,47.1379,227.2614,53.5016,27.0118,20.5864,54.2272,36.5709,98.6632,-127.1041,40.6168,-84.9826,75.4685
-3664.0625,-39.5942,-3.5228,-31.4138,-51.4360,-89.9318,34.9774,-102.4353,113.6469,14.6467,115.6846,15.5835,63.5378,19.1645,53.5735,34.9420,97.9864,-89.1277,9.4708,-48.8946,148.7831
-3656.2500,-73.0584,-69.1002,-65.7339,-84.5309,-88.2198,0.8084,-63.2904,79.1957,19.7444,80.9472,18.5310,29.8871,21.6254,56.7489,0.2040,64.1458,-18.2901,115.1647,56.0939,114.9349
-3648.4375,-30.2818,-130.5165,-17.7931,-111.4201,32.7800,12.8743,58.1433,17.9857,27.2458,19.4597,31.7518,-30.5492,-39.6306,-40.8436,-24.2504,3.5404,-10.1989,87.0896,63.3682,17.3150
-3640.6250,-45.5673,-213.0652,39.1122,-124.4005,88.7597,-4.1223,113.5621,-72.2650,43.8630,-35.0519,14.9225,-83.0569,-19.9227,-57.5016,-4.7290,-86.1235,44.8244,106.9415,117.6109,37.6453
-3632.8125,-47.8882,-179.6838,38.0110,-93.4092,86.7527,32.8772,75.9912,-73.4974,25.0596,-72.5248,-21.9128,-83.5732,-20.2068,-57.1583,-5.1915,-49.7832,40.8358,173.8052,148.8595,-36.0116
-3625.0000,-29.1917,-193.3016,55.9525,-74.3832,103.8044,86.9336,130.4722,-55.6665,53.0399,-54.9215,-77.7009,-65.0413,-39.4331,-75.7607,12.4117,-68.3858,58.8808,85.7331,131.1594,-17.6146
-3617.1875,-68.9790,-162.4315,14.4388,-42.8243,24.4134,81.5442,50.5112,-61.2708,22.1961,13.2555,-45.9436,4.0324,-45.0997,-6.8074,-67.4213,0.5700,88.4617,151.2159,89.0132,-22.6507
-3609.3750,-31.6503,-17.4781,21.0620,30.8631,30.1836,89.3048,20.7041,-53.7148,-14.1845,19.6017,-39.0333,11.2477,-75.6062,0.2974,-97.0825,-29.3202,56.1859,117.8564,-49.9684,-125.5283
-3601.5625,19.7056,35.4613,34.7417,46.5744,6.0192,66.1145,-3.0374,-77.1073,-36.1797,-39.9841,-61.0740,-10.5043,-25.0449,51.4450,-46.6721,-88.1652,71.9458,27.5503,-104.8929,-74.3483
-3593.7500,31.5730,84.8888,45.9574,94.8117,16.4078,77.4794,-102.2256,-65.9382,-86.3306,-102.9915,-13.5664,37.2909,-13.9242,100.1460,-35.6986,-39.4546,153.2442,38.8145,-130.2573,-62.6121
-3585.9375,70.0102,88.8663,83.7606,133.6328,17.4049,78.4545,-101.8092,-28.1527,-81.8921,-102.3659,-11.4630,2.6804,-12.2004,64.4511,-35.1183,-38.1416,121.1247,-28.3118,-128.0110,-24.2848
-3578.1250,71.9202,92.2736,83.0647,99.9287,-21.0835,41.9294,-138.8746,-28.8573,-71.0792,-29.2177,25.1340,2.5537,-12.9677,28.2502,-73.0180,-38.3328,157.4972,8.0511,-92.2474,12.5541
-3570.3125,129.4527,80.2559,108.0157,86.8409,39.0963,30.0455,-152.2757,-77.9149,-80.3426,-41.4056,86.3898,28.0642,-25.0683,52.6963,-48.2477,-49.8791,143.5265,29.0633,-106.8055,-35.9502
-3562.5000,105.0225,-12.7689,79.0211,28.7718,83.3484,0.2017,-34.6010,-33.9188,-27.8165,-106.5311,-16.2996,-38.3933,-18.1027,24.1884,32.5961,-78.3779,83.6012,-30.8766,9.6993,45.5973
-3554.6875,70.8619,-45.5619,7.3197,-76.0248,47.9115,-71.3449,4.3881,-31.6116,-13.9047,-105.3329,-13.6918,-35.5651,-15.8201,-10.0238,34.7596,-76.5795,83.9609,-30.5039,79.5253,11.4539
-3546.8750,96.6699,16.5790,-1.3934,-85.8472,37.4810,-79.8880,68.3872,-40.2914,13.1195,-4.1090,-22.0839,-43.7486,-24.5292,-18.2377,-11.0539,-84.7778,38.3116,-40.1280,33.3673,-33.6937
-3539.0625,87.0023,44.1944,24.4452,-59.1473,26.6164,-90.8801,56.9518,-51.4145,29.3358,94.6881,-32.9279,-54.3924,-35.6821,-28.9059,-96.2967,-95.4333,64.2058,55.7879,58.7738,-7.2867
-3531.2500,130.3121,88.7364,-0.7118,-15.4772,74.7707,-77.8772,69.5267,-38.5409,17.1430,70.4864,-20.7598,-41.0446,-60.8109,-52.5727,-120.5203,-119.0902,37.1034,-7.2936,101.1934,-104.8734
-3523.4375,98.2531,56.8654,36.7894,-47.1802,74.5976,-114.2263,179.7693,-38.0180,28.0374,-2.0694,-55.9295,-40.0637,-59.2692,-51.5966,-83.0670,-118.0996,38.6469,-110.7235,68.2759,-66.8086
-3515.6250,47.5630,113.3265,20.6859,7.4958,20.8343,-56.1756,16.4208,-17.0862,-48.0951,-18.1888,-35.7080,54.2987,-112.3202,42.7784,-136.1923,13.2904,58.5852,49.2500,-19.2265,-82.3405
-3507.8125,131.1931,234.0777,72.9252,92.5013,35.4323,32.2259,-78.5716,34.2129,-117.4330,-39.9210,-57.1360,107.0051,-134.0163,95.4995,-194.9564,66.0307,36.8619,27.5809,-146.3666,-103.5340
-3500.0000,143.2090,141.1658,80.5690,68.8826,6.4493,4.0237,-108.1464,-31.0829,-110.0934,-106.2361,-85.1638,78.0933,-89.2959,66.6120,-113.3019,74.1589,82.5349,4.3041,-65.0904,-21.3284
-3492.1875,40.7527,3.7322,49.7661,1.7846,11.0303,-26.6342,-29.1626,-61.8257,-54.9985,-136.9865,-42.6390,10.7233,-47.0106,36.2758,2.9158,43.8345,85.7496,6.5902,6.7508,-88.5681
-3484.3750,21.7137,-13.2963,64.4014,-50.8702,62.0718,-11.8207,59.2721,-10.0965,-29.5338,-85.2608,-63.6768,-10.1930,4.7207,15.4025,-18.4190,22.9769,-3.6160,-46.6571,-46.9614,-36.3533
-3476.5625,26.8756,62.8714,66.2644,-11.2834,26.3595,-10.7382,-50.0411,-9.0861,-41.0758,-10.2581,-25.4878,28.1380,6.6950,16.7937,-54.4976,-12.6126,36.2550,63.3641,-78.4105,39.1288
-3468.7500,95.5538,167.5176,100.6682,93.8232,24.2067,24.8914,-88.7891,-10.5205,-54.3005,-48.6893,-26.7435,27.0021,-31.7666,-21.2725,-18.9991,-50.6599,-0.3183,26.9354,-115.2735,38.1558
-3460.9375,-8.2236,64.6440,25.6342,60.4359,-15.3655,23.0500,-52.9506,-11.4221,-10.7898,23.4310,-100.4382,25.3932,-69.6548,14.1935,-20.9179,21.8206,-34.3377,99.0277,-77.5524,110.7212
-3453.1250,-135.5517,79.1588,-103.9448,109.4585,-71.4602,114.6370,-145.6366,116.1164,-3.1894,188.9985,-156.6714,44.2189,-126.0689,70.0994,-113.3654,113.7364,-91.8948,252.5558,-101.3502,18.7284
-3445.3125,-128.5818,121.9140,-60.2087,151.7498,-65.2211,195.5079,-138.9988,196.9463,-23.7170,158.8599,-149.5869,14.3274,-119.1567,40.2969,-142.4858,84.9426,-120.1374,153.3668,-163.8227,26.0172
-3437.5000,-66.5119,7.6852,-1.3600,108.0921,-42.8429,144.4551,-190.2244,71.8561,-58.7345,33.8194,-53.3874,0.5036,-59.1055,25.5708,-82.4663,70.2205,-24.2566,73.2496,-104.1539,122.3915
-3429.6875,-39.8372,-33.0272,-8.8895,100.9739,-50.8241,99.9560,-197.8040,27.3343,-66.8045,-9.6389,12.4440,29.2327,-30.4135,55.4102,-17.7979,63.0624,-65.7398,30.7001,-111.8278,115.3322
-3421.8750,-71.1416,-29.8195,-44.3848,103.7982,-87.7525,99.4207,-124.3333,28.7834,-25.5230,63.8799,-22.6961,66.9177,-65.6843,56.2219,-16.0765,99.8713,-133.2087,35.1096,-143.4702,189.2382
-3414.0625,-145.4497,36.3166,-157.8656,135.5839,-164.6475,133.8636,-163.8358,61.2213,13.5107,208.4050,-25.8236,137.5849,-104.9301,90.0165,-19.3217,97.6651,-137.6698,135.5074,-148.0881,150.1313
-3406.2500,-117.7698,64.3986,-128.3446,128.3439,-98.5182,126.3019,-97.3208,53.6574,-10.5480,89.9378,3.0524,93.2404,-39.1560,82.8037,9.4491,53.4535,-180.1355,21.8989,-155.6867,143.0092
-3398.4375,-141.4491,41.0680,-84.1663,103.7227,-91.7130,61.3790,-126.1289,25.7386,-55.2772,-48.8788,12.5834,101.5237,42.2933,91.2267,54.8950,134.8759,-133.9535,32.9318,-144.6102,224.5345
-3390.6250,-108.9937,108.8151,-121.8333,136.2139,-92.7304,59.5917,-163.7667,24.9578,-74.5331,-12.5367,47.2743,136.9358,40.9152,163.7903,17.5169,171.4330,-171.6151,65.1101,-147.3543,187.2000
-3382.8125,-153.5487,-5.5016,-131.4905,56.6750,-102.7196,49.7943,-100.3717,87.1688,-0.1677,123.8140,1.9684,90.3353,68.5567,80.3491,8.1578,124.9789,-217.2809,-14.7161,-87.0795,177.8480
-3375.0000,-191.3218,-113.0787,-167.3433,-16.0872,-138.8858,12.7965,-99.1570,88.1809,33.5176,161.9592,39.4676,91.5243,70.0198,81.7011,45.6195,89.3155,-184.1403,17.2593,-19.9794,105.2920
-3367.1875,-78.0575,-34.6640,-84.1355,-42.8250,-56.9768,22.8423,-89.8823,61.2381,5.7443,61.1499,50.0321,101.7394,80.5569,55.0944,93.1580,62.6906,-175.9414,-9.7164,-46.8102,78.7680
-3359.3750,-68.4434,-60.9676,-40.5629,-69.2490,-49.6964,-6.7722,-46.2400,30.6360,28.3917,30.7050,56.9582,71.2765,87.4759,61.8131,137.0847,69.3962,-132.3911,33.6420,-3.2754,122.5794
-3351.5625,-113.6344,-105.1332,-118.7773,-78.5039,-17.1891,-11.2075,-13.3823,64.2255,66.0855,100.4637,53.1015,30.9911,46.6246,58.7164,133.2436,102.2795,-141.6260,25.1933,58.4840,8.5811
-3343.7500,-87.9781,-148.5083,-91.1301,-122.9339,-26.7947,-20.8041,50.3583,90.6582,88.2484,128.0578,-28.8975,-15.4610,37.6436,-24.5402,87.2711,57.0000,-151.0087,-55.4149,84.1161,-0.5830
-3335.9375,-40.8893,-137.5037,-43.0336,-111.9430,-15.9294,-46.9590,25.5732,65.5407,16.7153,29.1010,19.5527,32.5233,49.1320,23.6424,-11.2342,31.1643,-69.9360,-44.5796,95.2276,10.6936
-3328.1250,58.8842,-108.8524,25.7605,-82.2796,51.6552,-15.4242,20.5032,23.1169,0.1346,23.8527,14.7159,64.1886,44.3379,18.5164,-16.0162,26.0207,-75.1521,-50.0497,20.0664,5.6432
-3320.3125,-39.5382,-101.4527,-44.6281,-73.8430,-17.9293,24.8964,-49.7362,63.4866,42.5460,138.4006,-55.3076,104.6311,49.3694,96.1699,62.0405,66.6533,-137.5600,-42.7435,-8.2747,83.3732
-3312.5000,-63.0117,-55.1562,-104.0558,-63.4854,-78.5356,38.1496,-73.0059,39.7885,12.8816,77.8910,-4.3629,118.0056,26.3812,145.7574,76.0750,153.2166,-125.0079,-31.4955,4.3554,60.0417
-3304.6875,1.1127,-60.3097,-38.8739,-104.5580,-49.5113,-7.0086,-6.6496,-5.3217,-3.1306,-40.0243,-11.8053,35.9606,93.0219,101.9274,105.7280,109.3590,-61.8585,-107.6612,-2.3914,89.2930
-3296.8750,6.5301,-162.2252,-32.3887,-135.3701,-6.1628,-73.8808,37.0341,-72.1389,-4.2580,-70.6411,32.0550,5.1977,98.9851,34.3887,38.7003,4.7890,48.5902,1.4648,73.1866,58.8398
-3289.0625,21.5439,-112.5877,26.7034,-84.6075,52.8096,-52.1638,96.3329,-87.3680,8.4859,-48.6525,-19.4709,-8.9758,11.5624,-16.5551,-12.7089,-46.1898,28.6487,17.1888,54.3845,-66.0303
-3281.2500,-26.7344,-55.2887,11.5101,-28.1663,0.5093,6.2384,81.3581,-28.9057,6.0537,-26.9593,-107.2908,48.5324,-76.1428,41.1877,-26.3922,48.5144,15.4135,3.5918,5.2945,-44.2177
-3273.4375,-75.9680,35.0128,-38.6259,62.2938,-13.7131,64.6721,30.4522,-6.3942,-11.0251,-41.2154,-84.0546,71.0729,-89.7801,137.9676,-4.0074,108.2596,36.2355,-10.9680,-8.7216,-58.3607
-3265.6250,-38.1050,-32.6345,-0.6564,64.8243,24.1860,29.1966,68.6629,-42.7857,-10.2118,-114.3734,-82.7105,35.6975,-14.2942,64.8401,34.4889,72.0897,39.1588,-114.4321,29.3832,-20.4194
-3257.8125,-49.8025,-115.8795,-14.2315,-17.2207,-25.4471,-58.8380,92.3437,-56.7264,19.2564,-54.0721,-58.9164,-15.2396,9.6570,52.1475,22.4540,22.3508,62.5297,-56.4542,52.9589,2.9561
-3250.0000,-43.1506,-3.8150,-40.4526,24.0613,-51.7105,-11.5331,66.3932,-46.3295,25.0937,-6.4249,-47.7621,-41.8435,-17.0205,61.7961,32.7902,31.9490,-0.7349,-49.1360,24.9072,-60.3438
-3242.1875,-49.5284,60.1542,-51.7025,18.2649,-25.9833,13.7090,56.4239,-21.0019,-4.4621,-54.8545,-21.6387,-16.5166,47.2746,88.3756,23.0944,21.4778,-6.0330,-124.8948,19.8292,39.2859
-3234.3750,-16.9026,56.0769,-54.9381,-21.5545,-29.2264,-64.0611,-20.5249,-61.6889,-26.1193,-58.3068,49.4933,16.7961,117.5890,120.9483,57.4091,17.9921,25.6831,-94.6534,16.7723,35.9074
-3226.5625,69.3758,36.6216,0.4859,-40.7403,-10.7947,-155.1864,-1.8203,-43.7341,-7.9960,-3.1180,31.2787,-2.2521,173.5676,66.1597,75.3867,-0.8554,-27.9415,-183.7630,-36.6192,17.1543
-3218.7500,39.3149,-30.2176,-33.4269,-105.2956,-44.6889,-189.6668,1.5565,-41.1417,34.1960,73.7111,34.7170,-36.6651,140.2095,69.0093,80.0340,1.9273,-23.9106,-144.2422,38.6545,57.0376
-3210.9375,7.1998,-27.1437,-63.3850,-68.9240,-37.6100,-147.2110,8.8964,39.3873,16.5238,79.4870,41.1111,-30.1358,110.8135,74.8080,13.6459,45.6511,-19.9208,-106.7766,6.8997,-10.1397
-3203.1250,44.8337,-26.3521,9.4149,-66.8145,-38.7588,-75.0114,8.0065,74.6561,21.0764,79.0091,4.2603,-31.8640,110.1787,37.3518,13.0174,7.1116,-18.1767,-139.5742,-26.0921,62.4181
-3195.3125,65.3685,-6.6898,-6.8800,-46.8258,-54.9883,-90.9243,-44.9625,-16.1841,-12.6553,-11.5717,62.3116,-47.7099,95.4559,20.7804,34.3029,-9.5476,73.4847,-49.4795,-5.1625,82.8700
-3187.5000,114.2587,77.2909,11.1851,37.4927,-36.8440,-75.5025,-26.5678,-72.6862,-32.1128,-30.8009,43.7236,-31.2301,40.0954,1.5407,15.9527,-28.8755,17.5135,-36.0386,-95.8578,26.6475
-3179.6875,45.6002,112.6800,10.7136,108.2376,-110.2190,-2.6386,-99.6948,-36.7429,-46.5019,5.4133,6.5878,4.6790,3.2000,74.7323,-20.9303,7.2273,-16.9980,35.8333,-128.0753,62.8540
-3171.8750,20.5892,121.6896,-49.0995,82.6167,-96.9223,-26.1293,-123.1564,-23.1551,-22.8690,56.2578,21.1107,55.2362,17.9724,87.5738,30.8482,20.9756,-5.8577,-24.6526,-83.6342,2.7002
-3164.0625,62.6401,57.7352,-4.8552,19.0448,-52.5631,-56.5713,-41.5657,-53.5234,24.7612,63.1470,-8.3089,-12.1628,25.8032,21.4646,74.6792,-83.2390,1.3296,-89.0971,-40.1472,9.5891
-3156.2500,34.1922,63.2540,-33.1115,24.9545,-43.6960,-85.5259,-32.4737,-119.4018,-24.9061,-39.4616,73.7787,-4.0753,108.1456,-7.1567,11.0270,-111.9623,114.0214,22.9505,1.8574,-19.0211
-3148.4375,115.5931,143.5871,54.4869,105.6940,44.0420,1.3592,18.4866,-142.4459,-71.3375,-136.2274,88.7292,-27.1567,86.3510,6.0619,-47.7609,-134.8461,89.5724,-2.1508,-57.2661,-78.7978
-3140.6250,50.6489,112.5421,20.7502,110.0626,10.4566,3.8866,22.1247,-103.8456,-46.6461,-133.3524,18.3329,-25.6005,52.2212,8.9153,-7.8827,-59.0956,59.7772,3.3828,-15.7231,-2.9383
-3132.8125,38.3487,64.1281,-26.3412,62.0688,-0.4680,-43.9469,-24.5790,-77.6003,-29.5222,-70.8165,44.5857,0.6016,5.7517,34.4115,18.6534,-32.7064,83.6320,-9.4292,7.4860,-50.4422
-3125.0000,101.0538,-15.2998,73.5707,-16.9368,63.6221,-91.7825,38.7214,-51.3511,-11.1197,-81.2846,71.8536,-10.2029,33.2888,-12.0986,46.1970,-80.3277,39.4940,-124.2476,-0.2971,-23.9743
-3117.1875,86.0757,-66.4580,56.8010,-102.6603,47.0376,-109.3276,-14.6593,-69.8135,-50.0520,-98.4646,91.4323,8.2784,17.1472,43.6813,-6.9449,12.3368,60.6671,-68.7791,21.2350,31.7809
-3109.3750,68.6068,-14.1496,40.5457,-49.9087,30.9740,-15.3897,-66.5258,-48.7913,-82.1785,-115.1526,113.5251,65.2418,2.5221,63.9434,-21.5770,33.4836,43.3506,-50.8198,-30.7039,-20.9843
-3101.5625,21.5023,-63.5108,25.6560,-28.8301,16.2862,41.8829,-45.0115,-28.4367,-50.9133,-93.5049,61.9757,86.5392,-12.7434,48.5354,0.1514,16.9564,31.3917,-64.5332,-7.2779,36.5778
-3093.7500,-3.0407,-53.3356,-33.6758,-53.2082,-5.8340,18.6947,7.0639,-14.5452,-34.8689,-43.3368,38.9800,62.3869,-71.4457,25.6734,-95.5562,-6.0286,41.9984,16.3079,73.7058,-23.3204
-3085.9375,38.1290,-13.4600,-25.2981,22.1129,-34.2352,99.2061,88.8401,29.0354,-2.1161,1.5113,-62.3064,32.9376,-99.4296,-3.4941,-123.5566,-35.3191,-21.6819,-13.1555,45.3903,-52.5424
-3078.1250,-67.5385,-15.4437,-64.7539,20.5730,-73.4647,95.8593,13.7810,62.7509,12.9360,71.4927,-64.4422,66.6375,-138.2542,30.4708,-88.3969,-1.4767,-22.1996,20.5081,10.2356,-18.6305
-3070.3125,-44.4007,41.3574,-74.4012,78.8119,-45.8732,85.2931,-32.4598,52.2558,17.3838,98.2615,-36.7741,56.1295,-110.2739,-16.7777,-60.4280,-48.8472,1.0911,7.9601,-1.0979,-65.9346
-3062.5000,3.9974,-51.6076,12.2074,-14.7147,3.9903,23.9712,17.5645,-44.9982,39.6675,-72.7268,50.1414,-41.1383,50.9657,-114.7840,100.7969,-109.9788,225.6378,-49.3512,153.8373,-53.0026
-3054.6875,165.8994,-314.0863,156.3143,-276.7512,222.3602,-237.8592,199.1043,-306.7598,91.4742,-371.2131,341.5543,-265.9107,305.7067,-302.3008,392.5240,-297.6201,563.6908,-170.1631,456.2878,-314.5794
-3046.8750,491.7605,-552.6141,512.3794,-514.8409,577.6963,-508.7445,554.5956,-614.5796,140.2383,-678.7483,660.9210,-573.7382,551.4011,-572.8750,638.2012,-532.3257,713.7018,-549.0306,572.6937,-622.2276
-3039.0625,700.2414,-697.5399,694.0591,-624.3372,723.6505,-621.0355,627.6985,-727.8122,119.2158,-754.7063,695.8897,-649.9714,661.7047,-648.8574,637.4804,-607.4426,746.3237,-658.3071,534.7000,-661.2821
-3031.2500,710.4303,-618.7668,669.4523,-544.1365,699.3210,-573.6285,529.5034,-642.3582,84.3845,-669.0077,635.5707,-565.5030,600.7194,-601.1411,539.4596,-559.8670,615.6624,-472.8820,439.4160,-686.6436
-3023.4375,572.5330,-547.0909,523.7579,-472.0387,627.9107,-462.3276,531.2203,-532.0140,130.8264,-521.4298,490.1553,-491.1446,565.6362,-599.5338,505.3413,-559.4034,477.9055,-365.5631,408.0436,-649.1236
-3015.6250,439.1909,-469.8729,421.6164,-395.4016,599.0630,-382.4870,503.5052,-451.1302,126.2696,-514.3003,424.2838,-447.2469,501.1028,-556.3904,476.7810,-515.4061,450.7049,-252.7009,416.2386,-642.0654
-3007.8125,490.9531,-349.5505,438.5775,-308.6709,616.3238,-292.5565,483.8957,-362.1561,67.4899,-535.0645,404.5175,-468.2555,407.6723,-540.1528,347.3167,-462.3210,397.6136,-271.7414,327.5426,-625.9339
-3000.0000,498.9853,-341.9793,403.8029,-301.6915,544.8546,-291.3770,412.5458,-286.9290,79.0688,-459.5868,333.0026,-467.0233,336.4944,-501.6739,313.0937,-424.0008,405.7781,-299.5519,372.1017,-477.5705
-2992.1875,449.7775,-322.6633,315.7857,-281.9716,458.1477,-306.4582,435.9519,-264.9547,108.1161,-364.3654,283.2361,-409.0483,287.0656,-479.4519,262.6127,-438.9358,356.7034,-209.6154,393.4246,-492.4655
-2984.3750,346.9799,-250.9400,281.1725,-209.8453,422.8534,-196.1369,474.7604,-191.5814,118.3443,-326.7567,173.8644,-334.6714,215.0242,-441.8318,227.5311,-401.4786,219.0393,-172.2771,326.1459,-454.9792
-2976.5625,219.5921,-168.8011,217.9696,-127.3084,322.9662,-149.4096,337.9694,-144.8175,78.1389,-280.7614,147.8860,-251.8929,189.3796,-285.8179,201.8434,-282.6295,196.7884,-124.5370,234.2678,-372.1044
-2968.7500,226.3173,-22.5443,185.8738,-121.6668,291.1862,-108.5782,270.2753,-140.9612,51.9439,-239.6778,153.0127,-174.0151,157.8319,-244.7010,207.2416,-241.6831,97.6475,-188.6934,135.4866,-331.1473
-2960.9375,191.9604,11.6178,143.6890,-157.1182,249.3206,-188.8375,264.4772,-147.2074,80.1918,-134.7091,74.0411,-180.2406,153.1886,-250.6838,165.5333,-247.8381,63.4095,-223.9560,172.5950,-190.2951
-2953.1250,134.6561,-12.1564,82.5563,-180.5121,189.5102,-214.0493,204.7279,-172.4142,66.3694,-86.7093,87.1197,-168.4082,129.5941,-201.6167,141.8746,-161.9525,41.2308,-177.1559,150.7563,-178.3902
-2945.3125,141.6086,-41.6604,87.6775,-174.6423,156.9525,-137.0025,209.2287,-132.3784,57.6065,-119.4796,92.4427,-128.3224,98.2420,-124.3044,183.4551,-84.8272,-21.6913,-241.0981,88.1601,-101.2528
-2937.5000,122.4191,-97.2952,62.6531,-193.9103,95.2515,-162.0995,110.5755,-121.4948,28.2827,-108.4151,140.6064,-44.3856,146.7361,-77.1418,158.8713,-37.8529,-4.7635,-154.1917,104.4104,19.7302
-2929.6875,82.6863,-67.4640,23.0777,-198.7231,56.0053,-130.7442,71.3670,-52.1633,22.1736,-38.9043,101.2172,-10.9980,144.6707,-6.5253,119.7326,-4.4299,-80.3721,-90.8294,65.1171,-20.8414
-2921.8750,25.9600,-55.6189,-0.4910,-152.5335,33.7714,-81.3892,122.1643,-39.8329,53.2085,-26.4001,4.8249,1.3874,84.5992,-30.9195,96.5889,-66.0149,-66.9823,-42.4714,113.8220,-8.4203
-2914.0625,-32.4164,-10.4150,-20.7101,-70.9928,13.8884,8.3170,103.3098,-24.1558,23.6021,-46.5506,21.7761,17.1261,-8.1244,-14.9613,3.7826,-13.2524,15.7564,74.2456,126.8720,-102.6471
-2906.2500,52.0093,72.6053,31.8691,47.3597,66.8085,96.8324,82.2404,27.3260,-20.0468,-32.8984,0.5276,-5.3203,7.9480,-37.1968,-90.2379,-35.6806,-40.7148,-19.2324,-0.2883,-125.0795
-2898.4375,44.5888,134.7879,20.5978,38.8662,18.8748,10.5056,-2.6815,50.9609,-21.3067,-8.0907,-47.5812,-17.6069,-39.8400,-49.2777,-102.1139,-47.9586,22.9590,-26.5637,63.6997,-27.3570
-2890.6250,57.8646,110.6878,36.0147,-19.9222,34.6297,-48.1194,50.0945,-43.6990,-39.6800,-103.5758,5.0001,-3.1940,-59.9463,-33.6561,-85.2990,-69.5308,106.3277,-15.1785,77.3897,-85.9397
-2882.8125,85.0880,30.5622,100.3793,-63.7451,99.3321,-58.7817,151.8199,-91.4006,-10.0894,-114.1082,-40.4767,-49.8284,-32.1159,-81.0869,-57.5455,-80.1520,98.6315,11.1686,34.0216,-59.5823
-2875.0000,19.9041,106.0541,69.3398,11.0480,68.6338,19.1722,11.1351,-49.4942,-40.0558,1.9617,-34.3633,28.1468,-62.6892,-1.9132,-125.2092,-1.1685,33.5265,122.1318,-64.7556,-54.6197
-2867.1875,-11.2258,178.6265,0.3469,119.9123,35.9812,133.1903,-95.5176,63.4682,-67.7142,78.0780,-67.2014,68.1834,-95.2235,37.3131,-192.8439,37.8636,-32.5336,90.1552,-131.4959,-51.6078
-2859.3750,-63.1391,196.4249,-21.4446,136.9897,-21.4748,110.4136,-114.9796,41.6312,-80.0871,19.3890,-123.8438,46.4260,-114.5681,52.7361,-177.2987,90.0925,21.6062,107.3802,-111.0481,36.6097
-2851.5625,-30.5550,226.7462,16.2609,168.5844,16.5608,73.1504,-151.9596,4.3032,-107.4607,-17.8009,-50.9908,9.1749,-78.4279,-21.3360,-213.2668,15.8307,53.2449,174.1297,-80.1133,-37.6705
-2843.7500,-40.3636,145.6947,41.5666,157.8003,42.1907,97.5051,-53.3549,28.5851,-30.5690,43.6129,-62.5431,-3.4694,-52.7078,-70.8026,-150.6530,-33.8253,-62.5257,128.4891,-18.5930,-13.3554
-2835.9375,-151.3755,32.4687,-77.3353,79.8284,34.6069,125.6714,13.0344,92.6859,28.8678,107.8474,-70.3124,24.6942,-60.2083,-5.4667,-121.2613,-5.6780,-137.5093,226.6603,80.7134,14.7678
-2828.1250,-166.0969,86.5821,-127.9508,64.1825,20.3068,184.1525,35.6978,188.1051,42.8049,129.4059,-120.7970,9.1801,-74.4318,16.1865,-99.5980,15.7835,-258.2009,176.1533,66.2992,-0.8094
-2820.3125,-166.6182,85.9389,-132.3701,-7.2300,-20.8042,141.8594,67.5371,181.7384,44.2868,124.1649,-162.0986,2.8763,-114.4766,10.0525,-140.7613,9.4547,-222.6984,139.8568,102.0629,103.8202
-2812.5000,-183.7926,32.6761,-147.4466,-25.2720,-36.5758,88.9286,52.7022,165.7300,40.1732,108.2644,-140.0630,-13.0660,-129.1927,-5.7250,-155.6013,-6.5165,-169.8439,192.9338,155.1693,50.8083
-2804.6875,-168.9652,-23.5571,-130.5242,-10.2981,-19.3561,104.0134,69.8608,181.7255,85.5752,197.3614,-160.0339,-33.9970,-111.9320,-26.4963,-101.4617,9.5195,-189.9933,101.0222,100.2625,29.7892
-2796.8750,-226.6892,22.6835,-120.1569,36.1431,-44.6920,77.5608,6.4663,228.1837,82.2984,317.9109,-112.5695,49.5339,-101.2375,20.1893,-164.8894,56.0097,-177.7075,77.5660,41.7963,76.2292
-2789.0625,-172.5761,110.8025,-98.9566,54.4566,-60.1951,60.9800,-45.0968,248.5060,78.2018,337.3180,-91.2617,32.9354,-116.7170,3.7406,-143.4881,39.3670,-193.5867,25.9885,26.1632,59.5257
-2781.2500,-127.4690,84.9621,-92.7659,27.7967,-89.7124,29.4179,-0.6755,180.8468,49.2187,196.7334,-157.9688,75.3545,-110.2253,46.3046,-100.1123,44.7344,-148.4779,34.4221,2.5126,138.8295
-2773.4375,-192.0177,159.4989,-157.2347,138.5040,-153.8944,38.2178,-101.9234,151.5500,-1.9054,204.5164,-186.3444,157.1344,-174.4048,129.2285,-164.4158,127.4670,-72.0194,110.2181,-61.8014,73.4996
-2765.6250,-157.8725,298.7711,-119.0128,242.9293,-189.3908,111.7351,-137.4946,188.9711,-44.1912,168.0227,-258.0383,157.6264,-245.9133,128.8637,-200.0450,163.9127,-73.8764,3.7387,-168.4332,36.8723
-2757.8125,-102.8409,282.9761,-100.9046,227.2773,-207.0066,93.1821,-192.1859,133.3184,-85.6716,75.4452,-239.8628,175.0348,-227.5554,110.4107,-217.7924,145.2680,87.1471,22.1811,-113.1791,91.1596
-2750.0000,-16.3239,298.7180,-8.3104,243.1445,-150.1384,112.1518,-172.3940,79.1853,-103.5831,-15.6306,-183.2028,157.9640,-207.7241,129.4663,-161.0701,127.1338,103.6617,109.1536,-166.4358,36.9587
-2742.1875,2.9436,247.2485,9.0277,226.7826,-132.5320,165.8921,-117.8686,58.8195,-87.1854,-34.9493,-201.8040,138.6539,-189.1692,110.2780,-143.6316,144.7576,87.9103,92.8964,-146.9641,90.5173
-2734.3750,-55.4496,223.1609,-50.2980,166.7885,-155.5960,142.0033,-141.0216,71.8258,-76.7101,-22.8946,-152.0743,77.7085,-139.2914,86.4541,-129.8736,120.7517,64.4889,139.0180,-64.1645,66.4439
-2726.5625,-27.2557,215.7149,-19.0434,124.4261,-87.0862,136.7428,-72.6013,102.4655,-93.4241,-28.2129,-119.7693,35.3812,-106.8542,44.2480,-208.5479,78.3657,22.6491,96.7713,-105.7890,23.9764
-2718.7500,-9.4270,197.9598,-3.1531,106.7406,-69.9514,116.1634,-92.5484,81.7874,-74.3220,-12.8550,-103.8416,13.7243,-90.8064,-14.2917,-155.5991,19.6483,39.4387,114.1941,-123.7896,76.1751
-2710.9375,50.7402,221.5892,60.0727,130.4329,-44.4881,104.9580,-177.1826,-3.5227,-90.7071,-24.1353,-41.5795,113.4386,-138.4329,85.5320,-55.3313,45.2967,28.5689,67.9913,-204.4589,64.7411
-2703.1250,33.2578,133.6006,74.6473,113.4937,-65.6834,82.1176,-161.4832,-24.4780,-99.9776,-82.0671,-62.9738,127.5146,-86.7323,136.7176,-40.7429,96.3055,13.0369,-18.8465,-150.7961,152.6654
-2695.3125,-32.8323,31.0481,42.6118,45.9767,-98.4925,12.6954,-157.3935,-58.0213,-92.8052,-78.5888,-21.9907,94.0096,-45.6635,103.3148,-73.7851,99.7284,50.8884,53.7420,-41.7555,156.0092
-2687.5000,50.5612,44.0494,94.0576,94.9999,-45.8242,63.8109,-105.8419,-43.0368,-86.6809,-137.5812,-6.5315,72.0274,-67.1357,44.4312,-21.3629,40.6767,29.2146,-3.1250,-98.2498,133.8650
-2679.6875,86.8872,114.0509,53.4371,129.0170,-87.2299,59.9177,-147.3797,-49.0673,-113.5051,-142.6098,-12.1475,104.0172,-71.6965,77.5164,-63.0199,36.5965,64.4717,-38.0122,-98.8299,238.6900
-2671.8750,59.7484,192.6378,-10.6501,136.6172,-151.1105,-4.3993,-174.4001,-76.5275,-136.1870,-60.0861,-39.2236,149.5793,-98.7349,159.1707,-127.1603,118.0841,-32.7259,4.6770,-195.8744,211.0847
-2664.0625,-103.2939,311.3644,-112.6419,255.3439,-252.9000,151.4033,-202.3374,153.1297,-120.7434,169.5488,-288.2130,305.2531,-274.7044,314.9337,-229.2376,310.6832,-371.8391,123.4822,-463.8405,329.5890
-2656.2500,-423.8990,518.5757,-420.2022,533.5497,-523.2625,430.6778,-546.8475,432.2646,-141.1820,559.6593,-558.7797,586.3945,-508.2573,596.1539,-426.9002,591.7460,-586.5232,506.7634,-679.3761,536.5668
-2648.4375,-618.2305,676.1232,-587.4870,655.0863,-653.3539,595.2841,-714.0902,559.7297,-148.9386,723.0979,-616.0679,675.8558,-602.5458,648.6950,-520.2925,644.1326,-639.9271,593.3763,-697.6335,552.8590
-2640.6250,-620.1739,568.1110,-589.3850,548.0578,-655.0673,482.3189,-605.9583,483.6257,-108.0294,646.9497,-580.9818,600.7374,-530.4743,573.6577,-448.3186,605.9435,-536.9507,450.4102,-523.5203,550.5701
-2632.8125,-523.3400,453.9397,-482.5038,433.8652,-549.0178,368.1830,-499.0592,443.3494,-126.0362,496.6194,-474.1211,559.4474,-497.6426,532.4429,-452.5859,527.5798,-404.1940,407.2772,-426.6325,436.1047
-2625.0000,-330.3764,435.9663,-353.4979,415.8583,-455.8488,350.2303,-443.0399,388.2554,-155.7980,367.4691,-418.1405,431.3284,-404.7017,441.4007,-433.7332,473.3918,-352.3151,318.3194,-444.6245,417.8018
-2617.1875,-339.7324,391.7308,-327.8130,370.5844,-430.0097,339.0077,-491.3459,339.8981,-172.0532,284.0495,-356.4857,382.9308,-343.0971,393.0743,-371.2025,424.9262,-291.7594,379.0847,-418.9455,443.2314
-2609.3750,-293.0571,402.5880,-311.1020,382.3952,-377.1498,281.8633,-438.6419,282.6143,-155.1955,261.6975,-266.7898,362.6067,-326.4737,372.8195,-318.6535,367.5315,-245.1648,320.9392,-407.2444,348.7341
-2601.5625,-216.5859,374.2953,-233.5991,354.0406,-335.5150,214.5475,-360.1656,215.1467,-103.3477,303.1597,-261.3103,330.0945,-359.0853,340.3791,-277.3480,334.9501,-238.7888,186.6108,-365.7716,390.0529
-2593.7500,-181.3277,374.8364,-233.3100,318.5157,-372.1074,178.0546,-432.9195,178.4972,-79.0258,377.4384,-225.0527,293.4001,-321.9339,303.7515,-240.2761,262.1882,-168.6292,187.1131,-330.5211,390.1978
-2585.9375,-141.5881,378.9171,-227.5363,287.5265,-366.2245,184.0953,-391.2087,184.3806,-74.4123,346.2405,-219.3186,262.2343,-243.3206,236.6513,-198.7350,194.9568,-234.9911,156.1521,-361.8055,358.8604
-2578.1250,-203.5644,318.3399,-255.4793,261.8719,-357.0678,193.4722,-345.2310,156.5995,-69.9536,281.3764,-247.3172,271.3918,-234.4511,245.8734,-189.9264,204.0507,-191.0757,201.5235,-281.8223,367.8511
-2570.3125,-201.6675,284.6978,-213.5459,264.1491,-316.0408,196.7747,-267.3895,124.7435,-84.7894,176.4397,-205.4361,239.4697,-229.7207,250.0153,-185.2488,244.0672,-189.2786,166.8316,-245.9635,298.7636
-2562.5000,-136.6371,209.2436,-148.4790,223.6073,-250.8899,226.2562,-239.4229,79.0662,-89.2055,94.6764,-177.4257,195.7136,-238.8760,206.3267,-157.4570,200.2522,-160.3580,127.3110,-215.9836,363.8436
-2554.6875,-210.7706,137.6723,-223.5763,185.9417,-251.9169,188.6110,-277.6370,115.2661,-60.0011,130.7890,-141.5877,193.8295,-166.2148,168.5061,-121.8600,162.3080,-127.6036,264.6606,-113.1723,325.8053
-2546.8750,-232.0640,114.9911,-203.8449,129.1523,-158.1210,171.8362,-147.0308,171.3400,12.1709,223.7746,-121.9173,102.8144,-146.7399,113.5583,-102.4492,107.2354,-220.0112,243.8917,-99.5328,198.6383
-2539.0625,-335.5225,-21.8092,-237.2824,-7.7551,-117.5040,101.9413,-33.5981,175.2941,74.2326,190.6472,-118.4279,69.6627,-70.4608,44.4780,-26.2108,74.0330,-147.5973,175.9990,76.9298,165.3448
-2531.2500,-222.8139,-190.3745,-143.5498,-176.4297,12.2734,-59.7227,97.0005,12.4908,141.2126,64.7542,122.2314,-129.2633,59.9655,-118.3761,141.1951,-87.9444,105.9856,8.3443,366.5703,-107.7240
-2523.4375,65.0743,-429.6925,168.3583,-379.8667,251.2205,-263.1545,408.7704,-153.0755,204.4395,-211.9221,287.0661,-331.9621,298.5523,-358.0022,378.7663,-290.6953,287.7385,-266.0893,513.3789,-347.5703
-2515.6250,242.1369,-532.7725,286.4438,-449.0710,405.3311,-365.3560,489.7100,-292.4069,165.8852,-388.3604,404.0742,-398.4355,342.2978,-387.4058,422.5012,-357.2213,394.6642,-334.2962,514.3661,-487.1801
-2507.8125,345.2684,-464.7091,360.5979,-415.1410,479.5085,-326.4285,489.7104,-291.6084,125.4282,-386.6536,368.1585,-359.7849,305.1048,-385.6844,349.2987,-355.6198,321.6681,-371.3635,406.4261,-559.6702
-2500.0000,314.9408,-388.0526,324.2896,-339.6269,370.2097,-288.9225,416.2330,-180.2301,114.7621,-275.3906,294.7769,-322.5642,305.4274,-348.3916,238.6130,-318.4447,291.2045,-365.8598,376.0057,-448.5865
-2492.1875,291.8987,-305.0596,297.2707,-326.7849,343.1909,-315.0908,353.0260,-205.5286,98.0018,-264.8244,341.6771,-312.0225,278.0133,-300.7761,249.1958,-307.9446,303.0250,-388.0267,352.8678,-401.1738
-2484.3750,385.5831,-315.2856,353.9826,-373.1631,399.8970,-367.4805,409.5424,-295.0475,99.4212,-280.4827,325.3086,-327.7143,335.3160,-316.3926,268.4888,-323.6708,290.5710,-468.4119,305.4576,-306.9947
-2476.5625,317.4887,-311.2330,318.9198,-369.2560,327.8227,-437.5826,337.2806,-367.2849,69.1715,-278.8603,326.1577,-252.1385,335.8297,-277.7433,232.0019,-322.1252,293.3449,-360.5103,308.2737,-268.5435
-2468.7500,305.6658,-145.8449,274.1326,-239.0098,283.0148,-335.3503,292.2836,-300.1905,25.1975,-322.9141,244.2829,-223.2368,216.5978,-211.7701,223.7823,-219.2496,211.4046,-335.2715,191.3632,-349.7775
-2460.9375,333.2804,-46.9743,258.7839,-140.2813,231.6360,-238.6371,240.7104,-240.6136,-8.0306,-372.4934,192.8313,-126.8702,127.7791,-151.3298,208.9813,-158.9010,237.8905,-307.5636,147.8737,-216.5421
-2453.1250,289.4738,-53.4812,250.0141,-146.9299,221.8270,-173.2992,156.7093,-175.4066,-6.1047,-272.4468,182.9553,-134.8910,117.5338,-160.2745,124.7514,-167.9354,229.9586,-138.2273,174.9688,-188.6777
-2445.3125,292.3004,-85.3082,252.8787,-177.9015,224.6431,-132.2858,196.3283,-171.5262,12.5268,-231.7308,185.7139,-205.2483,193.9060,-230.5534,127.1445,-238.3018,162.6600,-134.2125,106.6887,-185.1489
-2437.5000,222.5123,-153.7082,175.1331,-177.4415,147.8403,-134.8460,192.3232,-174.2216,19.6245,-233.5946,218.8589,-208.1913,153.6516,-196.4152,123.9122,-167.2455,161.7469,-132.7756,176.7777,-114.1968
-2429.6875,181.8547,-122.9260,171.5187,-180.8018,107.1598,-137.2279,115.4311,-102.7408,-18.6928,-200.2782,178.1357,-136.9601,112.5197,-125.1039,45.8002,-133.0103,155.9685,-137.1572,135.9888,-154.0729
-2421.8750,188.4349,-149.8589,176.1392,-172.8831,73.7014,-95.3363,118.7677,-60.9807,14.1267,-158.6863,71.6401,-132.4631,78.5992,-120.5240,85.9162,-128.5046,128.4210,-164.2770,108.4255,-75.6780
-2414.0625,191.3511,-145.4212,177.0999,-168.5959,111.5667,-130.0785,119.4306,-95.8525,25.8803,-155.7298,146.4698,-166.6076,115.9953,-118.5824,123.3583,-126.6356,166.2176,-90.0231,110.1973,-36.9034
-2406.2500,223.1563,-112.0575,171.9510,-169.3880,180.3098,-132.9058,150.9625,-135.7993,20.7489,-122.8559,141.1863,-169.8484,147.2622,-121.7261,81.6651,-129.8461,126.9042,-126.8437,71.8461,-4.2153
-2398.4375,93.7541,-132.8692,34.5916,-157.3572,42.8378,-120.9084,87.2702,-87.9231,25.4018,-39.1662,40.6891,-122.2756,46.3036,-74.0528,16.7516,-9.2341,68.3658,-8.8509,118.2646,43.3002
-2390.6250,32.0834,-87.9079,-25.0361,-76.5508,-16.9112,-33.1377,27.2921,-36.2753,16.4884,13.2957,17.9316,-71.9210,-13.9306,-22.6020,-6.4322,6.1532,41.5635,36.9147,56.4139,-52.4040
-2382.8125,68.7478,-84.5675,49.6718,-38.3700,57.6674,-29.9946,101.6440,-107.2566,9.3973,-94.8750,55.5028,-69.1968,60.1565,-56.7778,31.7106,-65.0925,114.0975,-29.9551,57.8902,-49.7361
-2375.0000,32.0988,-119.5091,87.0663,-38.4686,131.9167,-28.1371,138.6730,-179.5212,4.8172,-167.3244,55.7536,-67.7644,96.9161,-92.2417,30.5272,-100.6172,182.3229,4.8929,127.0486,-85.3381
-2367.1875,34.8862,-79.9769,89.8940,35.8987,171.5912,12.1878,141.1223,-138.3161,-6.8172,-163.2994,21.4382,-100.8706,25.0991,-88.2365,32.7725,-59.6716,79.9826,-25.7812,-11.3643,-81.4721
-2359.3750,8.6603,-70.4187,56.7049,81.2879,27.2408,17.5365,-3.4466,-96.0850,-25.4862,-48.2509,25.0988,-22.9629,-8.7520,-10.2173,-37.9958,-18.7105,52.6231,19.5563,-38.7948,33.4148
-2351.5625,47.2649,76.0082,62.3422,157.5529,-4.2870,61.7550,-144.1861,-15.9855,-105.0455,-4.3408,67.5866,57.8131,-40.7856,70.6741,-141.9374,62.1199,21.1103,129.7666,-210.3877,3.1728
-2343.7500,28.4639,306.0547,35.5745,351.4416,-104.2272,256.5914,-245.3464,179.7265,-161.5904,117.1753,-142.3373,179.1979,-214.2404,155.1745,-316.3028,183.5640,-278.8098,288.5934,-475.3936,161.5425
-2335.9375,-255.9037,514.5618,-272.7560,524.7949,-376.7336,500.8897,-518.0700,386.9027,-221.8982,361.1686,-341.8274,386.0397,-414.2585,362.1397,-553.2342,390.4743,-494.2985,497.8857,-584.9624,405.3840
-2328.1250,-413.5892,569.7953,-440.4086,579.8790,-507.5654,555.9091,-612.1158,515.8062,-221.6856,452.8911,-398.6348,477.6017,-471.6022,490.8294,-573.4941,519.1099,-581.1104,482.8941,-566.8562,459.9411
-2320.3125,-414.7831,430.5739,-444.5770,475.4870,-547.9271,480.4465,-542.6921,513.2385,-159.4252,450.1208,-328.9532,437.6812,-402.4689,451.0410,-431.2756,516.2683,-547.4362,413.4083,-533.2687,531.0109
-2312.5000,-358.3246,418.0315,-420.1038,427.7679,-524.6536,432.6428,-592.6374,465.3325,-141.1689,475.9946,-231.6288,426.4274,-378.7040,439.9157,-334.4246,505.0868,-526.1106,506.5772,-547.0459,482.7503
-2304.6875,-327.6147,451.7607,-387.3901,425.3149,-492.1416,467.1029,-597.3528,462.6852,-121.7971,510.1247,-273.0667,386.4412,-347.7087,437.0584,-302.3387,465.1703,-601.5347,504.0160,-551.5818,479.7523
-2296.8750,-412.8631,402.5577,-476.6341,411.9243,-544.5933,453.6265,-613.0366,486.1005,-109.6011,569.3153,-288.4770,372.5114,-363.6884,423.2618,-355.2158,451.3189,-580.9253,525.5172,-497.0860,465.8136
-2289.0625,-384.7794,363.7145,-478.5462,337.8920,-508.7188,453.5056,-541.3836,485.8816,-95.0342,569.8776,-216.5584,372.9379,-365.3455,386.8256,-319.7659,450.8287,-587.9662,450.3764,-539.2426,355.2339
-2281.2500,-360.7902,249.7839,-345.5593,292.7787,-449.9544,404.2976,-482.8418,399.5741,-63.6666,483.3493,-157.7398,322.2705,-270.1239,373.2957,-188.4373,364.2458,-494.1024,370.1394,-515.5112,415.5556
-2273.4375,-298.5416,172.1216,-315.3122,285.9326,-383.9468,325.3503,-527.0655,283.5301,-74.5203,441.0862,-91.6754,279.8537,-204.6656,331.0166,-158.8796,321.9143,-396.9833,434.1580,-453.5416,373.1389
-2265.6250,-259.4957,178.2816,-271.2717,256.9008,-340.1507,298.2066,-409.5021,293.2957,-36.7836,449.6232,-157.8206,215.2387,-234.4175,266.5436,-188.5249,257.3932,-428.0716,369.9829,-378.7778,308.5308
-2257.8125,-335.6660,140.2487,-351.4483,217.6722,-382.5648,330.8661,-379.1376,362.8830,-25.3872,444.9760,-200.1857,210.4293,-241.3817,224.8804,-232.3669,289.6864,-398.3767,435.6097,-280.2251,303.7313
-2250.0000,-315.3073,125.7665,-289.0934,240.0012,-321.4443,394.0871,-392.2390,389.0421,-55.7905,323.8990,-139.0143,163.1843,-180.8131,177.7857,-208.6763,242.5486,-308.1384,457.7971,-260.1268,219.4989
-2242.1875,-243.8565,129.3884,-214.6394,243.4452,-247.2405,397.4124,-354.2537,282.3044,-47.6771,253.9277,-137.7505,93.0428,-180.1512,107.8022,-170.9008,134.5187,-201.8015,391.0984,-223.9317,222.3688
-2234.3750,-250.5685,125.8580,-180.3378,238.7445,-250.1890,359.5891,-357.4133,207.4211,-44.8080,251.8131,-141.6453,90.7448,-220.6463,105.6697,-174.2753,133.3402,-102.6171,386.2422,-194.8942,147.0922
-2226.5625,-176.1212,166.4917,-101.8811,280.1935,-171.9937,366.9150,-279.4338,213.6819,-57.3880,148.8337,-136.3836,97.5999,-215.9869,112.6942,-133.4965,140.3190,-134.2738,286.5267,-226.7178,116.9787
-2218.7500,-168.8457,104.9413,-98.6197,183.4473,-131.0047,262.0336,-239.6689,182.7348,-33.0368,153.6370,-96.3198,102.2601,-103.5342,117.5235,-93.9179,108.1066,-92.1180,224.5995,-149.7488,195.6763
-2210.9375,-138.4058,32.5441,-61.2029,110.8510,-93.8674,154.2975,-238.7598,148.9279,-26.0337,156.5794,13.8931,31.0743,-66.9333,46.5065,-93.1887,37.0406,-26.7951,186.8199,-83.6365,87.5339
-2203.1250,-62.9963,41.1074,-17.8292,83.2114,-51.7759,89.5023,-121.9052,121.0607,-35.5816,54.4601,-15.9396,39.8425,-97.3819,18.4471,-87.5069,45.9245,-21.5038,53.9835,-79.5871,59.3438
-2195.3125,-68.9702,37.2832,-23.8448,79.1769,-94.0841,48.2999,-128.4584,116.7850,-39.2612,49.9387,-59.1798,72.2096,-104.2299,87.9858,-94.2300,115.4106,43.3916,84.7349,-50.9429,54.7618
-2187.5000,-33.0989,39.3100,-22.0179,45.9931,-93.5559,51.9355,-92.1719,156.3498,-38.9026,53.2682,-57.5798,38.4176,-67.2368,91.3799,-130.1028,117.7521,-26.8501,-19.6697,19.5587,21.0336
-2179.6875,-62.4067,-56.8654,-55.3878,-16.3891,-89.2227,19.3636,-16.0805,124.7100,42.3134,131.3804,-90.1792,-30.5785,-64.4454,21.5729,-54.1679,48.8884,-56.2761,-81.2871,60.8560,99.1064
-2171.8750,-135.2491,-24.5965,-94.2955,-18.3232,-92.4330,-53.7544,55.4714,87.5037,91.6696,166.9173,-93.3269,4.8790,-104.1999,21.2143,16.2263,11.4618,-95.2342,-82.4558,56.6160,61.6415
-2164.0625,-92.7932,-14.0410,-85.9042,-42.9594,-48.3381,-43.5835,136.3246,60.5889,106.9486,140.7412,-85.1703,14.6333,-96.6436,31.1513,60.9169,21.3343,-86.8801,-143.3232,29.6941,71.4699
-2156.2500,-114.6378,-68.8038,-73.8055,-62.9101,-72.5330,-29.7251,74.8961,74.3683,80.4975,154.2737,-73.3167,28.0720,-85.3869,81.7827,-1.6947,108.9050,-39.8205,10.4875,41.4914,84.9870
-2148.4375,-150.3762,-31.4877,-103.6003,44.2335,-28.6185,89.2173,44.5808,120.2460,54.0165,125.9116,-103.3671,36.6036,-116.0340,53.5131,-31.1982,80.5745,-73.6479,154.3843,-28.6041,-53.3949
-2140.6250,-202.4932,-46.5725,-120.7812,63.9731,-46.0945,147.7494,26.8672,104.7159,49.9070,110.1292,-120.8061,20.7340,-97.0691,37.8327,-13.0817,64.8332,-90.8624,138.8689,-46.1000,-69.1779
-2132.8125,-215.4083,-23.4800,-130.7532,52.9055,-57.3622,138.4713,16.3579,96.3818,58.1483,137.5304,-95.0431,12.0525,-108.8856,29.3458,-23.7622,56.2852,-69.8647,126.5489,10.6137,-151.7575
-2125.0000,-123.7314,-69.8148,-71.1261,6.4335,2.9688,90.7866,112.4508,120.6351,69.2472,89.5338,-71.6764,-0.0333,-49.0969,-19.5441,-37.8453,7.3340,-47.2575,9.8162,101.9382,-163.7457
-2117.1875,-158.1927,-243.3055,-35.6377,-97.1897,75.1649,-20.0523,221.4048,47.7363,103.5022,15.3692,-36.4554,-73.2703,59.5484,-92.5801,-3.0610,-65.7674,58.2105,10.9126,243.1098,-126.8820
-2109.3750,-117.4911,-270.6606,11.0162,-89.6686,157.5149,-45.7544,266.5125,-15.0278,105.6742,-47.6575,45.9242,-173.3636,104.3590,-118.4753,78.8916,-128.7202,28.8475,-51.8520,178.4515,-189.8599
-2101.5625,-79.9368,-195.1845,42.5261,-86.3081,152.7253,-48.6273,224.4840,19.0509,113.3828,23.1617,41.1646,-140.6241,99.0337,-85.5408,110.7031,-95.8398,-39.6530,-83.7674,74.6532,-46.0061
-2093.7500,-161.3246,-169.6782,-81.9111,-59.9047,63.9931,-61.4564,99.5171,80.1717,136.9250,157.0142,27.4591,-79.8486,46.7744,-24.5658,132.5751,2.0812,-50.1011,-22.6527,97.9128,14.8866
-2085.9375,-178.4579,-148.9432,-136.0950,-75.2638,10.5187,-40.0474,118.8040,137.5364,152.2547,178.1023,-26.9882,-58.8306,28.7858,-3.3403,151.7083,-13.7474,-103.2853,-38.3058,80.4347,-0.9757
-2078.1250,-171.2177,-176.8775,-166.9178,-67.2832,-59.5973,-34.2981,85.4495,107.2436,135.4993,183.5438,-23.0768,-53.4678,33.1530,-34.7699,118.2032,-8.2269,-62.1088,4.3647,51.3118,41.5095
-2070.3125,-80.2129,-84.0844,-69.9816,-8.5698,-34.9568,-7.8199,-0.1441,22.6816,41.6036,62.7159,111.5951,-27.3632,56.2985,-8.4617,68.4736,-18.9726,-5.1693,-7.2221,1.9577,-6.2534
-2062.5000,-40.8111,-111.9258,6.3501,-38.4816,4.1044,-40.9664,38.6907,63.4965,55.0210,29.2686,76.6719,-23.8780,57.8745,-4.7735,107.1797,-15.3379,-0.8164,-37.4172,6.0412,34.3584
-2054.6875,-115.4042,-148.7917,-69.3071,-40.4086,-71.8092,-4.1237,-0.4339,99.3061,54.4277,101.8123,1.7541,12.5906,18.4706,31.8972,30.9107,58.2874,-4.4568,66.3561,37.1409,-3.0483
-2046.8750,-65.7698,-28.4766,-51.7500,10.8472,-54.5061,50.8939,15.6505,81.3002,17.3913,46.5365,-18.9438,-42.7479,-38.7099,13.7638,-26.1458,3.1047,-25.8684,46.2924,-19.5432,-58.2566
-2039.0625,-41.2002,-2.2927,-29.2665,36.9777,-32.2816,38.7741,1.6487,-4.8301,34.8472,34.1328,-32.7168,-56.2095,-15.9655,-36.4905,32.7230,-84.1984,-1.3543,37.0978,4.6822,2.4286
-2031.2500,-14.9537,25.5109,-36.1119,29.7298,-3.3905,-3.7324,-6.6864,-10.3377,69.6144,101.3564,33.1758,-62.0393,-24.5430,-42.1146,99.2661,-89.8710,-10.1658,29.5310,-4.4301,-40.2415
-2023.4375,18.0088,-46.0026,-5.2509,-41.8292,-8.7823,-8.5609,60.6959,58.8308,115.4029,133.2680,-9.2268,-103.1759,-30.3949,-83.0554,129.5308,-93.8559,-47.2565,-77.3636,28.1773,28.7666
-2015.6250,20.8411,-75.6849,-4.5223,-107.5473,-45.3069,-115.5632,24.9537,-13.1727,117.9062,172.0081,28.2332,-100.4750,-30.3748,-80.1608,92.6710,-128.0008,60.5239,-38.4452,100.6512,67.6091
-2007.8125,76.2473,-89.8521,60.7702,-121.7334,19.7358,-161.0449,52.7793,-93.6536,80.5598,17.2713,129.2632,-146.2413,-2.7745,-125.7361,84.3869,-173.6191,186.8864,-52.0001,226.6988,-87.0114
-2000.0000,138.8312,-307.8983,171.2345,-267.7925,129.9465,-269.4071,273.7733,-239.0091,126.5676,-312.3240,277.4641,-291.8833,218.0109,-308.1901,304.2832,-319.1192,390.4163,-199.4337,570.9092,-269.5077
-1992.1875,336.6399,-530.7707,315.9171,-456.6682,385.3752,-418.5974,527.9859,-425.1909,161.0494,-534.7452,494.8817,-514.3409,435.0279,-456.4628,448.4139,-467.4335,517.1678,-423.7039,767.3370,-528.8155
-1984.3750,500.9725,-682.1644,490.1128,-608.0590,558.3135,-537.3141,737.7089,-433.8897,241.1957,-506.6981,484.8194,-597.3080,461.5839,-576.2411,512.0667,-550.2526,435.4436,-680.5055,791.2889,-574.6372
-1976.5625,439.2773,-706.6328,458.2781,-631.5254,564.2179,-568.1101,706.4067,-353.6585,269.5598,-353.7285,416.7216,-554.3378,429.1277,-533.0899,479.6978,-507.1332,408.6924,-600.3953,694.2097,-494.5261
-1968.7500,402.4570,-532.2855,420.3152,-528.1734,525.0103,-495.0923,593.9818,-317.6159,219.3446,-317.9353,377.5139,-444.5326,390.5665,-460.1118,440.2061,-434.1938,336.8238,-495.4680,551.0021,-495.5769
-1960.9375,351.4724,-476.1639,397.1860,-437.0439,465.6375,-443.3079,534.3806,-265.8173,179.0785,-302.3893,318.1390,-392.9515,366.8467,-371.3584,380.5496,-345.4858,285.7837,-475.7682,429.6118,-369.8490
-1953.1250,295.3166,-460.2790,298.8791,-387.1447,440.0958,-429.7654,434.6075,-252.2556,144.7687,-327.0793,329.5778,-343.5945,341.9618,-321.8343,392.7409,-296.0021,299.5692,-426.3073,407.0510,-320.3390
-1945.3125,340.4364,-414.1890,380.8374,-376.0265,448.8284,-420.0075,443.1171,-317.4737,127.3032,-355.5400,300.2892,-372.0080,386.3744,-350.0818,400.2076,-324.2852,238.6304,-414.6357,310.7772,-274.6013
-1937.5000,234.1412,-344.5932,268.3780,-340.3919,335.1447,-348.7337,329.2151,-282.1748,91.5376,-283.4748,261.5786,-262.8914,346.3752,-277.8165,323.2551,-252.0424,203.2689,-239.4569,240.0847,-239.3317
-1929.6875,202.7737,-163.1393,166.8396,-229.9001,270.3873,-229.6031,227.2480,-199.0181,53.9259,-163.5426,196.7923,-179.9033,244.3226,-194.6854,185.2457,-205.9367,101.8309,-164.4037,173.3232,-340.1813
-1921.8750,195.4352,-170.7159,190.3237,-201.4396,257.6619,-204.5030,251.3137,-173.9025,72.7421,-139.6501,110.0286,-191.9349,194.3111,-206.5763,171.2699,-217.8555,93.4250,-278.3791,164.5832,-242.0642
-1914.0625,181.0264,-219.4306,173.7310,-250.0957,276.8652,-258.5302,233.3126,-264.9170,52.7253,-192.9018,166.1801,-172.0827,213.2377,-186.5859,154.2283,-234.8993,219.9518,-291.5017,256.7690,-185.0697
-1906.2500,299.8977,-99.9342,222.4114,-271.5338,326.3435,-317.3469,319.5953,-287.7160,40.2757,-253.9444,178.6093,-196.0048,225.4609,-173.3766,166.4713,-221.7190,232.7690,-312.4185,198.2423,-171.8483
-1898.4375,246.1527,-82.1243,162.4730,-253.6518,266.2050,-303.8457,295.2545,-236.2079,51.3746,-202.6630,117.4162,-182.5977,239.0815,-159.8490,142.0956,-207.2188,143.9725,-191.0120,215.0845,-84.3120
-1890.6250,176.7793,-45.9953,54.9110,-217.4324,157.4491,-228.0208,224.2934,-161.3867,57.1993,-127.0590,82.5921,-142.8632,167.0950,-119.9937,144.1005,-131.3930,109.5578,-155.2795,180.2952,-118.4514
-1882.8125,159.9464,-97.3938,71.8794,-196.7373,137.2261,-173.7301,203.8551,-144.1028,66.7342,-73.0058,26.2953,-88.6475,73.6482,-102.6648,123.6443,-151.0957,93.6862,-241.1008,128.0323,-64.1167
-1875.0000,164.2543,-126.7352,108.9780,-192.9858,138.1360,-172.3903,130.5513,-215.7569,-29.7102,-218.8963,100.1256,-14.3553,147.3489,-28.2713,87.3385,-112.7281,167.9503,-201.8803,60.8996,10.2950
-1867.1875,197.4399,-59.2717,178.9555,-124.4230,170.9231,-139.2418,126.1262,-255.6012,-97.6703,-406.9707,169.8356,-18.2387,179.9541,-32.0578,119.9239,-79.5383,166.1018,-168.8330,-11.3586,43.5313
-1859.3750,111.1166,-38.3945,122.4139,-33.4361,78.2017,-84.6750,33.1826,-201.0381,-48.0764,-204.6314,40.0236,-36.6957,86.0621,22.5694,100.0029,-24.9365,149.7279,-114.3760,-63.1362,98.1900
-1851.5625,30.0204,55.6320,41.0965,60.7068,-3.2849,-19.9589,-85.5052,-63.3207,-45.5108,6.8801,-4.5629,66.0126,-31.5757,52.3569,-17.6693,40.8201,68.5870,-20.7731,-144.6671,17.0294
-1843.7500,90.9525,116.6087,66.8009,121.8103,-14.7354,5.7116,-97.1552,-37.6402,-54.4942,32.3610,-53.1108,54.6953,-43.1612,41.1134,-66.2990,-7.4483,59.4800,-65.2083,-188.1656,42.8426
-1835.9375,69.5751,94.1972,77.1897,135.5285,-78.5027,15.9951,-197.1244,-26.3382,-111.8088,41.4544,-79.9689,138.0071,-71.0471,124.4935,-166.2465,38.9095,2.0505,87.9650,-245.9917,126.2843
-1828.1250,-55.9621,320.5465,-57.5950,361.0108,-176.4370,285.0332,-369.2670,167.7231,-213.3059,163.3136,-251.9950,333.0973,-279.0832,319.6346,-412.3619,272.0349,-263.5483,278.9080,-477.9842,211.5040
-1820.3125,-340.4176,457.9089,-292.3073,568.5129,-411.2882,528.0797,-530.3206,448.7897,-240.4249,297.1845,-522.9425,467.2117,-514.0189,526.7861,-573.3794,515.1696,-373.0679,485.8659,-552.8940,418.7320
-1812.5000,-480.9475,423.1322,-402.0956,568.8793,-521.2087,564.9897,-567.4299,485.7171,-199.0294,332.9191,-522.9675,467.2019,-550.0102,526.8070,-536.4510,515.1804,-301.6602,520.6685,-411.8693,418.8275
-1804.6875,-362.8496,399.9076,-313.2615,440.8004,-432.4964,433.4542,-404.9046,316.2073,-162.2655,238.2238,-471.3599,408.7661,-498.3508,432.3991,-447.8860,383.7654,-254.6160,286.0291,-294.2043,360.4886
-1796.8750,-205.8493,450.4836,-295.5410,351.5287,-378.8909,302.7254,-351.4841,223.5091,-205.2532,108.3357,-416.8708,425.1491,-443.7842,412.7994,-467.4240,327.1576,-132.6870,197.1892,-207.6578,340.9679
-1789.0625,-71.2056,514.6122,-186.1823,344.8166,-269.6479,227.5522,-316.4201,147.3596,-249.4590,-41.0041,-308.7442,424.1068,-371.5579,410.7598,-432.3126,325.1093,2.8794,84.9165,-178.4767,229.0253
-1781.2500,73.2137,342.4557,-106.0532,172.8259,-115.6197,86.0940,-162.5686,-29.0858,-185.9867,-144.6203,-227.8438,282.7990,-181.5358,269.4355,-278.4122,147.7798,216.2183,-123.6334,-0.5109,161.7966
-1773.4375,254.9948,171.6225,57.4323,-103.8416,47.7834,-264.0468,74.6797,-307.2016,-111.5714,-385.9109,8.4205,4.8192,18.8799,28.4284,-42.1287,-93.2255,539.9238,-364.8629,321.8341,-79.1203
-1765.6250,574.9003,33.8498,329.0417,-347.4456,319.3213,-508.1221,346.0651,-551.2435,-72.2514,-667.1318,206.8125,-239.0837,180.4454,-141.5098,229.2903,-300.1544,648.7618,-680.0234,395.3062,-322.9774
-1757.8125,652.5990,-31.2158,410.4433,-411.3319,400.6549,-611.4818,390.2295,-617.5731,-37.4707,-659.6442,250.9861,-231.2639,224.8220,-207.7330,311.5019,-329.3686,690.3823,-709.4796,401.5479,-352.1168
-1750.0000,642.8850,64.2244,365.4322,-350.7020,392.5788,-546.3311,344.9715,-589.3956,-77.3408,-632.6609,205.7433,-165.9229,216.8041,-179.4431,229.3044,-265.0622,610.5909,-684.4244,356.3722,-397.7249
-1742.1875,651.5493,71.9695,370.7950,-343.7607,397.8837,-542.8705,387.0970,-585.9075,-72.8970,-665.3513,173.8795,-199.2534,258.1791,-212.8407,233.4971,-297.4396,548.1820,-678.0551,364.5852,-320.0178
-1734.3750,595.6442,-19.9391,348.5809,-399.4627,412.6227,-566.0467,364.6712,-645.0596,-49.4107,-614.6622,188.4477,-222.2101,273.0042,-198.8806,248.1367,-320.4594,563.1969,-628.3297,414.2321,-305.9463
-1726.5625,578.5208,-38.1498,370.1526,-382.4567,433.1509,-545.5120,459.0332,-661.5002,-31.2565,-558.2692,135.8072,-164.4452,257.6422,-141.2153,195.5743,-299.7663,475.9977,-576.8889,361.6567,-359.1550
-1718.7500,481.6873,-30.1426,338.0073,-304.2264,401.9651,-430.7569,427.6686,-583.7275,-62.1827,-627.6702,103.4516,-86.4497,262.5786,-100.3242,164.2956,-258.8473,484.0741,-464.2233,370.3526,-281.1388
-1710.9375,431.9289,-11.1174,361.9291,-248.9755,388.8573,-372.9847,303.3887,-561.9410,-106.4254,-679.0451,164.1648,-137.4234,286.6091,-77.4149,188.0998,-236.9023,505.2215,-375.5432,320.1273,-332.0936
-1703.1250,490.5337,-94.7844,422.2144,-297.4069,339.1241,-349.9017,253.4982,-575.8350,-39.5052,-546.0842,188.2560,-225.0687,384.0385,-202.1899,322.2958,-286.6375,457.7364,-424.5549,236.2770,-345.7338
-1695.3125,494.6696,-126.9940,461.0281,-294.3751,340.9219,-422.3543,182.1419,-575.2640,-15.4592,-508.6574,262.8815,-260.2322,460.0273,-237.5001,398.0364,-359.9076,531.7749,-387.1082,239.9471,-307.8983
-1687.5000,514.3888,-143.6967,482.4261,-240.8305,435.3032,-403.2932,276.3604,-555.1826,-54.0380,-635.7192,247.0979,-240.8651,444.6275,-218.2926,345.3662,-339.6597,481.3854,-369.1388,224.1900,-324.5306
-1679.6875,387.9334,-271.6423,384.6506,-227.5230,374.5178,-355.4677,288.4156,-470.3397,-50.7353,-625.0143,149.1554,-192.7167,421.0813,-206.3167,283.5467,-254.6393,459.8139,-321.4066,273.2556,-276.3836
-1671.8750,274.6960,-246.4334,271.0864,-201.0591,297.9579,-322.4802,211.7036,-439.3303,-32.4470,-520.1302,182.4386,-196.3898,380.7852,-174.1757,280.9819,-185.4455,487.4601,-260.5104,300.5515,-391.0527
-1664.0625,340.7238,-216.0069,341.7810,-171.3799,331.6672,-327.2743,283.2719,-406.0938,25.8375,-525.0177,216.9998,-236.8321,415.7786,-251.8091,425.6960,-263.0219,483.3783,-371.3871,261.1281,-431.5045
-1656.2500,348.4359,-209.9717,348.1553,-165.0868,338.0627,-359.4547,251.5298,-476.2430,12.0182,-556.2932,296.2483,-232.6483,495.4709,-284.8336,468.0908,-295.9812,490.9732,-330.6450,233.3832,-390.3403
-1648.4375,340.1239,-185.0314,339.5077,-174.8798,365.4427,-332.7177,279.7718,-486.4700,-5.6207,-566.6373,324.4712,-242.5351,560.1646,-330.9458,422.4725,-342.0279,376.5360,-340.9834,224.6119,-400.2490
-1640.6250,278.7777,-283.1798,269.8245,-272.7531,332.7973,-331.0562,319.9879,-445.7721,8.6170,-528.0432,254.6743,-239.4822,564.8491,-292.1353,389.8389,-303.1475,280.0606,-298.3925,232.8155,-287.2358
-1632.8125,243.3526,-250.4566,232.0614,-239.7574,295.0740,-296.5173,246.1300,-448.1961,9.8491,-420.5693,289.8020,-168.5445,490.4808,-220.4491,352.1497,-231.3832,279.4913,-195.9405,196.9350,-289.3436
-1625.0000,310.9469,-149.7771,266.3121,-173.8009,292.3708,-301.0095,279.2958,-416.6465,52.8096,-315.1200,250.9640,-172.6232,451.1682,-224.7888,386.5023,-235.6404,241.9410,-270.5167,88.0795,-293.4622
-1617.1875,246.5161,-145.1913,229.5342,-204.9337,293.6487,-337.5856,243.4424,-307.1804,62.8707,-242.7445,214.1136,-172.7754,415.8607,-226.2150,350.8423,-162.9837,212.3580,-267.1671,94.2015,-183.6566
-1609.3750,193.7095,-165.0521,173.3804,-224.5088,236.5526,-286.5947,187.2231,-219.1429,35.7308,-190.7879,194.8887,-157.3468,433.1993,-174.0813,256.8150,-147.7588,124.3877,-181.2403,74.9465,-168.2725
-1601.5625,69.8166,-186.0421,116.1407,-209.2164,143.3763,-235.7258,166.9273,-93.2267,91.3244,-28.9429,100.5910,-105.0306,377.4740,-196.0691,236.7181,-169.6548,0.3311,-131.4263,56.6083,-153.0146
-1593.7500,35.3921,-151.6091,46.3700,-174.4971,73.6784,-196.4226,134.1062,-91.8834,95.4263,10.3274,104.7680,-103.2747,381.2393,-156.6342,241.1063,-131.1197,35.7350,-98.1910,57.7378,-224.3307
-1585.9375,190.8828,-174.3230,136.5189,-196.9136,199.9053,-182.2483,223.2140,-151.6645,46.3489,-160.5244,193.8704,-125.6313,397.9497,-216.3282,220.4264,-153.7092,86.0576,-226.0778,71.7897,-246.7611
-1578.1250,183.4889,-219.9778,159.7849,-172.2602,224.2507,-160.9996,210.4482,-166.3704,-21.3176,-285.2872,181.0962,-102.9051,385.7946,-157.9522,133.8796,-131.2205,112.4916,-95.8771,62.9606,-151.1222
-1570.3125,160.3554,-104.4156,138.3164,-91.3828,201.8667,-74.5145,40.9649,-116.8433,-81.3760,-272.8146,122.5904,-52.9463,327.9224,-144.3560,75.6107,-81.5035,90.1821,19.5513,4.3996,-211.2525
-1562.5000,208.7258,-58.3839,149.3567,-45.0332,177.0003,8.4592,52.0032,-106.8382,-74.4664,-263.8616,59.6117,-43.4987,265.5837,-135.2798,86.8705,-108.3060,32.3870,-40.5292,-52.6390,-164.8995
-1554.6875,110.1113,-53.3772,79.4143,-39.7059,143.1561,9.4166,-17.9362,-105.8524,-76.5800,-188.9292,26.6575,31.9400,196.2869,-23.2287,54.1596,-33.1293,3.5992,34.3692,-46.6694,-89.5688
-1546.8750,39.7108,-20.2018,40.6880,63.7889,105.5286,79.5506,-19.6546,-72.6930,-80.2266,-118.8086,-12.0732,102.5659,122.2302,45.9976,-21.3154,0.2229,-65.9824,32.4478,-116.4813,-56.0483
-1539.0625,-14.9841,27.6433,-22.3338,77.9555,42.6178,88.3594,-8.6521,-27.8538,-39.9112,-36.9981,-75.0764,74.8809,59.9097,17.9046,-47.0626,-28.7398,-15.8586,81.2153,-101.5754,63.1480
-1531.2500,-33.6726,41.4568,-40.3425,91.0927,24.7244,68.1534,-63.6241,-11.0206,2.1805,89.8131,-56.0628,-18.8132,5.6254,-39.2092,-64.7852,-48.7190,35.2600,164.9599,-50.6582,6.3265
-1523.4375,-92.2089,-54.6168,-26.1927,66.3446,74.9937,116.0805,23.5708,73.9541,68.2945,138.7684,-115.8749,-80.3689,-16.4696,-101.1926,-50.3298,-73.5635,12.5380,103.8412,31.4310,-18.3540
-1515.6250,-188.4817,-48.4715,-58.7830,107.8132,43.5342,192.2359,-7.9587,150.1616,7.9233,67.9632,-110.4113,33.3124,-11.2787,12.0457,-82.5955,39.8216,-84.9280,144.9541,-66.2150,58.1975
-1507.8125,-152.1968,90.1965,-98.8082,281.8097,-70.3641,295.9309,-158.9189,217.9056,-66.0113,134.6973,-114.3782,100.5301,-87.5084,115.8130,-195.2928,69.7397,-224.8440,178.6140,-276.3050,162.2920
-1500.0000,-220.3626,91.3958,-214.2801,282.3385,-222.7056,288.1675,-311.3218,246.1918,-42.4653,273.9766,-119.7716,94.2972,-129.1595,109.1184,-164.4216,137.2040,-292.2106,213.8223,-273.8399,338.9232
-1492.1875,-311.6226,-3.5301,-274.8419,258.7431,-246.1374,299.2966,-297.8107,221.3752,-8.1874,322.1639,-69.2540,32.9565,-151.8909,120.3090,-150.6217,185.5574,-313.6901,330.9117,-225.4703,350.4457
-1484.3750,-347.3398,-40.9378,-239.8568,221.6663,-211.0190,331.9572,-188.7411,290.1024,46.7587,354.9094,-108.1689,29.1620,-152.0431,80.0313,-115.2448,181.4500,-384.6188,292.5480,-225.5365,383.5135
-1476.5625,-485.8498,-6.1647,-386.6627,256.7671,-320.6883,329.8094,-262.4587,362.0180,97.3305,573.8538,-180.8580,101.5617,-187.9660,114.9374,-150.6523,216.5226,-488.3474,433.3792,-223.4000,418.7632
-1468.7500,-518.7592,63.1920,-453.8592,290.4515,-387.7492,407.2598,-366.5596,513.5245,78.1736,651.3923,-100.9324,142.5539,-254.2600,155.4260,-181.4439,256.1812,-521.4827,467.8085,-292.6598,312.6087
-1460.9375,-442.7274,-39.5133,-376.1125,259.0738,-346.8602,409.6596,-325.7061,514.9736,101.0107,652.8837,-60.0428,107.4932,-175.5842,156.8557,-140.2706,257.7847,-515.6686,435.1978,-286.9635,351.3930
-1453.1250,-441.0972,-180.6329,-336.7614,153.2850,-344.3642,336.6566,-322.2371,479.0208,134.4192,690.9801,16.4609,35.0273,-135.2854,83.8667,-136.4751,221.9693,-514.2632,434.1803,-144.6652,315.7641
-1445.3125,-392.4695,-205.7765,-283.4067,58.4716,-290.8621,276.6404,-158.7538,419.0635,172.3447,668.0823,32.9777,-24.4470,-154.9652,-13.1361,-119.6626,126.1436,-536.8632,304.1613,-132.3580,256.1342
-1437.5000,-371.1924,-187.2822,-301.3994,112.2875,-308.7052,256.2662,-176.6152,398.7528,119.1261,500.8379,15.1645,66.7247,-134.9751,40.5022,-63.1880,179.9625,-480.8206,427.7955,-181.4009,310.1426
-1429.6875,-338.8698,-51.7552,-300.3360,212.1386,-307.4939,327.9437,-285.4254,397.4907,39.3298,425.6448,53.4175,174.9481,-59.9121,76.1833,-62.6402,251.8276,-447.7386,458.4741,-289.4009,235.2026
-1421.8750,-308.0593,-23.7476,-231.7742,205.4650,-274.7784,321.1134,-253.7384,353.7254,41.0827,381.9551,12.1940,242.6743,-63.3308,-4.6410,-29.5776,208.1906,-417.1606,310.6600,-293.8971,228.7617
-1414.0625,-347.6970,-66.2038,-236.6603,94.3259,-243.5091,203.8352,-184.4888,346.5091,76.5304,374.8174,7.5327,235.9475,-103.1818,-48.9263,3.0422,201.0958,-422.0443,268.3978,-193.8401,221.8641
-1406.2500,-337.6476,-129.9788,-262.8481,30.8659,-196.5439,211.2610,-137.5308,353.9977,114.3771,419.3873,-56.4204,206.9231,-92.3236,-41.5129,13.3687,208.7026,-447.2431,205.8437,-113.0831,229.6694
-1398.4375,-388.8148,-183.9556,-357.2488,12.2016,-289.7861,188.4973,-83.7755,368.3015,178.9029,543.7869,-112.5722,221.7109,-148.6715,-63.2945,-6.5131,223.1135,-464.6792,257.1034,-59.5445,281.2719
-1390.6250,-386.4615,-113.3656,-351.1188,47.1016,-283.5042,192.3164,-151.4877,372.1888,188.4071,657.7802,-106.1947,226.0747,-178.4866,-60.5108,-36.8676,190.0925,-461.6149,256.9347,-92.4904,211.4514
-1382.8125,-282.9059,-47.5105,-282.7813,43.2635,-252.0135,184.4196,-119.9863,328.3648,141.2474,540.0690,-111.5913,218.7236,-146.0690,-67.4523,-40.9907,182.3452,-429.3308,217.0657,-165.2017,277.9131
-1375.0000,-295.1358,-28.3995,-225.2178,63.6745,-231.2921,203.7912,-172.2422,272.8102,12.9386,227.6295,-16.7323,274.6335,-87.4056,-12.1388,-56.8574,201.8556,-335.8156,272.4685,-142.6629,333.6291
-1367.1875,-246.7816,18.2951,-172.0576,74.6654,-177.9733,180.7655,-118.8883,250.8549,3.7425,132.7958,-0.2589,216.1383,-106.1300,-34.2321,-39.1087,178.9615,-357.7030,249.4634,-94.5192,274.9489
-1359.3750,-279.2287,-51.8246,-205.6890,4.8381,-175.4531,108.9370,-6.3365,214.0978,115.2639,243.1627,-70.5629,143.8399,-139.6465,-108.1263,36.8473,107.2692,-355.3934,213.6601,13.8219,275.4668
-1351.5625,-315.1789,-20.4579,-237.8176,-34.5068,-206.4373,36.6104,-1.2846,180.8434,157.1955,393.0462,-28.3539,110.0424,-133.6537,-105.5243,5.3088,72.0750,-321.5996,210.3593,46.6551,131.4869
-1343.7500,-203.5531,-53.5079,-155.3569,-31.2694,-123.8317,43.8860,44.3655,261.1919,154.4179,400.5504,-20.5377,43.8532,-123.0502,-135.3224,-58.6148,5.4790,-316.2198,38.6761,53.0899,65.1091
-1335.9375,-180.7475,-138.3615,-132.7023,-115.8403,-101.0280,-45.6258,67.2181,281.7462,166.5478,421.2662,-33.5097,-9.1291,-136.2400,-151.9216,-108.3350,26.0839,-258.6613,23.2125,145.7112,85.9206
-1328.1250,-155.8570,-116.1187,-138.9490,-58.3200,-72.1257,-18.0222,61.1622,309.4130,159.8822,376.0926,-77.3733,19.9900,-252.3271,-124.4190,-78.9512,17.7961,-198.0189,46.8572,100.4208,3.8394
-1320.3125,-136.3772,-29.2837,-83.6037,28.7871,-88.6312,37.1848,44.6953,253.6879,137.0606,320.5368,-129.6231,38.7097,-267.8108,-143.3152,-94.9662,-0.8888,-109.7842,63.1170,83.7271,-14.6391
-1312.5000,-76.4566,63.9935,-52.8140,51.3306,-94.6889,64.8530,0.6848,208.4251,71.9276,275.4488,-62.4189,29.8798,-272.8475,-78.7713,-174.5323,26.8717,-49.1203,86.8417,38.4819,-96.6688
-1304.6875,28.7896,25.6077,19.3157,84.2198,-22.4068,134.8842,-36.9776,204.5298,16.9141,197.7302,-26.8648,-9.5983,-199.5381,-45.8741,-174.7538,59.9867,-49.1198,13.9441,-66.4150,-63.3444
-1296.8750,-10.8850,54.3219,9.5360,113.2097,-32.0350,87.0421,-46.5495,119.7543,-1.7936,77.1252,0.7972,53.0348,-171.1370,-20.8674,-108.8768,12.2122,15.9595,113.1721,-36.2289,36.0744
-1289.0625,-1.5291,131.0934,23.7979,190.2499,-54.6223,135.2717,-32.0760,58.0515,-55.9753,-58.4092,-21.4936,64.7279,-192.6937,-45.8060,-132.9545,-49.5106,60.0658,155.4680,-98.0040,-62.4478
-1281.2500,19.4497,184.5238,44.6938,243.9380,-33.5726,154.1632,-47.9649,40.0153,-110.9701,-150.2638,-74.1371,47.0785,-170.6087,-27.0918,-183.3947,-30.5798,45.8027,104.4443,-112.1370,-43.3173
-1273.4375,33.4535,196.0169,21.6262,220.6774,-19.4837,129.1284,-70.8062,16.0497,-86.7529,-138.0424,-59.7386,23.4827,-192.4920,21.6794,-132.7915,-18.5913,165.5611,116.4860,-27.2367,-31.1377
-1265.6250,49.1836,174.2648,75.2959,164.1676,71.3412,70.8621,21.0930,-5.1504,-52.6384,-159.0505,-41.5896,-34.3536,-173.6396,-73.7936,-78.4445,-76.8428,146.0503,24.2966,-11.5981,-52.1914
-1257.8125,7.1410,94.7705,66.2006,84.9039,62.3996,22.8635,48.2223,-54.0782,-55.7085,-168.7812,-51.1851,-45.9277,-108.5468,-49.0000,-86.8564,-88.8236,138.7603,51.3785,-18.7308,10.0167
-1250.0000,-8.6749,76.5316,50.3394,101.8835,83.6904,42.1291,-41.4115,-34.7333,-85.6926,-114.2306,7.4622,47.7607,-51.2116,7.0570,-102.0210,4.4551,52.6833,33.7254,-69.6318,-7.5016
-1242.1875,-3.9797,7.8453,51.0040,33.4035,47.5055,40.9601,-3.5091,-35.8185,-25.8751,-41.1015,-27.3446,84.0160,-47.3470,42.6822,-26.6392,3.3019,21.1339,-69.3396,-29.9869,65.5465
-1234.3750,-64.6644,-21.1850,-48.6993,-30.4219,-52.0453,-24.5243,44.0355,-27.2302,40.7142,41.7053,-53.5034,18.9375,-109.8475,50.9754,20.3790,48.8165,-5.8012,8.2748,49.2832,37.2490
-1226.5625,-108.0315,5.1507,-53.0738,-3.8867,-56.2694,7.3735,113.9072,4.7448,80.5416,72.9031,-57.3256,-22.7771,-113.0174,8.6346,54.7300,42.7005,-118.4243,34.2674,41.8834,-41.6770
-1218.7500,-189.5832,-44.6406,-67.6250,17.5081,-34.6722,64.1491,99.6002,24.6019,78.5088,92.9833,-71.3015,-2.6212,-17.3631,28.1672,39.9115,63.4533,-165.2259,91.1373,30.3191,15.2599
-1210.9375,-159.0102,19.7257,-72.0434,81.0508,-38.9444,94.0940,21.4395,18.6325,23.1272,51.2331,-2.1375,28.6927,16.4204,21.8607,-0.7672,20.3663,-169.9005,85.1763,-10.1042,9.3627
-1203.1250,-5.9666,30.6009,-23.9754,57.0888,-26.7363,30.5550,32.7706,-45.8204,-11.7606,-12.9928,46.5199,1.5189,65.6821,-42.9298,-24.9572,-44.2057,-122.0981,-9.2499,-32.0407,55.9819
-1195.3125,-30.2507,2.1918,-14.2265,64.8324,-52.8459,38.7473,-30.2163,-37.5418,-22.0463,-41.4798,93.8723,-26.9357,76.6193,-35.0010,21.5319,0.9368,-77.6319,105.0540,-56.2999,64.3090
-1187.5000,45.1781,6.5482,31.2466,103.3308,-45.2337,82.7229,-58.4699,-29.4795,-28.4000,-33.1798,139.9554,-55.6192,50.2749,-27.2927,31.7545,8.8575,-106.4494,74.1333,-86.8332,-1.5883
-1179.6875,25.0741,-15.5673,8.1950,47.3394,-103.1488,59.2260,-79.2550,57.1102,18.9835,126.6470,81.5275,-78.7839,28.3991,-52.0569,9.4497,-15.6957,-161.7854,53.7504,-105.8940,48.0299
-1171.8750,-47.4526,85.9493,-65.2665,112.9656,-177.4880,57.3565,-190.4684,128.3239,19.1517,309.1008,44.6874,29.6662,-7.9058,56.7949,-63.2799,56.3695,-164.5444,119.9906,-178.3866,9.2636
-1164.0625,-23.0623,214.4315,-40.7955,241.5535,-189.9010,153.4618,-275.7560,151.5086,-41.0130,259.5361,-4.2110,16.0858,-18.2901,115.6180,-111.0842,79.4044,-140.3719,73.2200,-258.9491,32.4678
-1156.2500,-23.6570,210.9856,-43.2973,238.2094,-192.2855,112.6532,-353.0191,110.7758,-113.1248,108.0561,-6.0696,11.5743,-19.6522,111.5162,-150.8573,74.5123,-36.1843,140.5373,-190.4871,64.7301
-1148.4375,28.7150,191.5683,17.1791,183.8784,-167.6945,98.8818,-254.3031,23.0766,-115.7765,20.6120,56.0544,-0.9171,-32.0459,97.4409,-125.6528,60.6448,15.9665,87.8835,-172.0525,-58.9824
-1140.6250,54.1502,110.2805,42.7301,137.6576,-106.0316,49.2410,-118.5119,11.5079,-76.4538,-27.7071,45.2648,-13.2878,31.6246,84.4933,-63.3785,11.8989,-29.8116,-28.6260,-112.5341,-34.5730
-1132.8125,-22.0440,67.4122,-36.3437,130.8442,-146.9927,80.0354,-123.3371,5.3670,-77.3361,-33.6044,113.8538,53.7514,27.6589,151.9667,-30.7230,78.5719,-70.2220,70.3019,-117.6319,-40.7485
-1125.0000,-27.1293,131.7101,-41.2937,159.1920,-151.8290,74.0144,-92.0306,35.4069,-74.9837,-39.3190,109.5736,84.9614,-13.1910,182.6185,-34.9456,72.4207,-75.5116,-5.5799,-122.6006,-46.7520
-1117.1875,-22.7549,63.5369,-39.7683,91.0561,-151.1893,0.5295,-89.2527,-1.0131,-54.3049,34.5158,74.7829,48.6859,25.4215,181.7928,-68.6994,108.7935,33.6634,-72.9274,-82.0894,26.7565
-1109.3750,-17.8090,66.9828,-31.6603,24.5229,-141.9701,-28.3231,-117.8883,7.2031,-19.4577,152.9840,47.5770,20.0212,-1.3968,189.5861,-60.8737,116.7824,4.4000,-32.6475,-77.9942,-39.1073
-1101.5625,-76.7022,40.6421,-59.3805,-1.8065,-170.5748,53.0499,-108.3448,87.6486,41.7220,197.6904,-89.4403,27.5759,-64.0463,196.6075,22.1279,86.9927,-56.6933,-23.1211,-32.7109,5.2533
-1093.7500,-138.2365,48.7318,-85.7268,-64.7186,-160.8052,61.8586,-62.4203,96.5334,21.1932,95.8404,-79.0790,73.5482,-53.3372,168.0593,-4.4971,59.6305,-12.4333,55.8388,47.9436,14.0290
-1085.9375,-51.0650,64.5993,-31.3569,-118.8663,-104.3192,43.4492,-6.7729,78.2071,-5.2921,41.7837,-23.9937,18.2919,-33.9202,112.2881,-57.4072,4.0461,-30.4542,37.5752,30.3306,-4.4187
-1078.1250,-65.3802,14.0524,-47.4630,-204.4458,-122.3127,24.6180,-59.6062,97.4663,3.0875,133.3123,-39.3769,-0.3928,-12.9961,130.0980,-73.7985,59.0357,-79.9524,92.8988,15.2426,50.6988
-1070.3125,-94.5740,52.6887,-112.4367,-164.8521,-187.1814,68.9734,-88.3123,215.9074,32.2275,252.0226,-103.6363,8.0983,-113.9687,175.0899,-101.0712,103.2039,-109.3268,168.4032,-14.7271,-15.0101
-1062.5000,-138.5051,78.6570,-122.1377,-174.9365,-232.7849,132.6635,-24.7506,315.6784,93.6141,353.0663,-186.6206,34.9132,-195.6866,201.4160,-73.0661,129.7029,-153.4250,124.2476,-57.4151,11.6064
-1054.6875,-142.5724,38.5590,-127.9642,-180.1015,-238.5175,126.2898,-139.3120,273.3849,49.0719,310.0407,-154.7284,65.6497,-127.5487,194.6780,-78.1974,123.1343,-87.6530,120.0256,-26.2240,42.1384
-1046.8750,-29.2798,-24.1090,-6.4210,-277.8508,-115.8801,28.3512,-54.4897,100.5334,4.5770,138.4485,-32.4651,3.7948,-41.0490,169.3595,-65.9706,60.9894,-44.5073,23.2436,18.3531,-19.9076
-1039.0625,12.2312,-54.4847,35.3472,-343.3297,-38.0175,-41.3010,98.5557,-5.0331,19.4742,70.1442,-61.9723,8.2076,-34.3483,136.3160,-59.5267,29.1156,-38.1369,29.7559,24.1521,21.3082
-1031.2500,-25.5840,82.8836,-2.2045,-241.0827,-39.4785,67.7879,-12.7245,31.1365,7.7446,179.5706,-98.8070,44.3431,-107.9960,172.0066,-96.4112,100.9681,-110.0970,202.9952,-83.3826,-16.7555
-1023.4375,-67.4908,180.2344,-11.8347,-109.8716,-48.0219,205.8551,-131.0852,131.2869,-33.5921,132.9839,-144.7168,71.4499,-153.7360,198.6839,-68.3834,127.8033,-119.1308,230.2251,-195.9832,10.1539
-1015.6250,-77.7836,134.2620,-21.8334,-84.9944,-57.9376,194.6060,-178.8165,84.1201,-94.2087,-24.9221,-44.0001,97.2220,-89.8704,224.0384,-78.7337,116.3155,11.4564,221.1428,-99.9554,35.7230
-1007.8125,21.8946,128.3162,86.1519,-127.0979,86.1271,118.3971,-71.5698,7.9880,-107.3720,-100.8070,26.6950,21.0081,-55.0472,147.4150,-117.1101,39.8457,41.0291,110.0900,-70.9389,-40.6844
-1000.0000,38.2085,74.0436,64.7754,-144.5433,101.8261,60.8550,-18.6950,23.5135,-68.5427,-48.0368,-29.9587,-0.5536,-37.6013,52.4563,-137.8591,-17.9676,22.2629,91.7084,-18.2656,11.5662
-992.1875,-70.2250,35.0353,-10.3413,-149.7469,63.7772,95.5666,-56.5588,58.2915,-36.5781,24.9717,-31.3597,-1.8760,-38.9273,86.7492,-101.3710,17.4666,19.7450,124.5701,14.6588,-26.9344
-984.3750,-37.3694,32.3473,24.8369,-117.6413,99.0156,93.5944,-21.1302,93.3879,-58.3395,-50.7077,-68.4814,-3.8889,-75.9904,121.3683,-102.6074,51.2225,17.5087,51.7567,-23.1363,-29.1161
-976.5625,-102.5944,36.6580,-9.0572,-78.5524,-8.8220,96.6171,-53.7879,96.4738,-96.0387,-84.4004,-100.6836,73.0749,-109.1583,160.9767,-172.9357,90.9596,21.1885,91.9416,-18.0208,10.6726
-968.7500,-138.0096,105.8682,-80.1346,-44.5791,-42.8465,136.5346,-51.6315,136.4450,-64.9006,-7.1995,-171.0741,74.9113,-142.5269,199.4707,-132.4481,130.5818,-50.3178,56.0138,-54.0857,-60.6566
-960.9375,-163.7742,79.8179,-110.5470,-35.8816,-73.2059,141.1860,-8.8050,215.1523,12.4162,71.7417,-201.7978,80.4791,-136.2527,167.7053,-16.2971,134.9363,-75.1509,-4.1725,-78.4685,54.7355
-953.1250,-176.9662,101.4101,-161.3828,-14.5568,-87.9926,127.4702,-96.3972,163.4946,-27.5201,20.3175,-68.9553,102.6694,-77.4322,189.5757,6.4128,120.9222,16.5894,89.2663,-91.2734,76.7440
-945.3125,-50.0405,193.1893,-63.0907,6.9394,-62.6589,114.9416,-70.8683,42.0221,-84.1250,-64.9294,-6.9998,17.0289,-51.5107,140.6286,-78.7675,35.0899,37.4553,-30.1078,-104.9484,27.9314
-937.5000,-6.8495,130.3096,-19.5265,-21.2384,-56.0531,48.7508,-64.0707,-61.1147,-94.2318,-129.8565,1.2274,-13.2915,-44.3330,74.0150,-71.6867,4.5867,80.6021,-21.1374,-61.3461,71.4327
-929.6875,-13.2380,124.9184,12.4685,9.0607,-23.0165,83.0439,-103.8381,-27.7698,-106.8020,-132.3179,-2.1271,57.8582,-46.7565,143.8851,-37.1943,75.5664,76.1739,45.3126,-136.3153,31.4020
-921.8750,8.4943,145.7153,32.5941,28.5362,-2.8531,139.5160,-121.4820,28.7519,-71.3391,-39.6034,-92.3603,77.1771,-100.0854,162.9418,-17.5908,94.7280,60.8858,66.9447,-185.1486,87.5423
-914.0625,-70.2909,103.0575,-10.7955,20.5378,-10.2127,95.5161,-164.6526,-15.1968,-57.3557,-10.3602,-62.1190,70.0106,-106.9622,155.5266,12.4775,87.4131,88.0773,130.1004,-157.5071,80.1989
-906.2500,-49.0497,88.4920,11.8428,6.6127,12.4519,83.5946,-103.8027,-27.0660,-55.4965,-22.0353,-36.8605,20.9126,-82.8364,143.1898,-0.4390,38.1682,38.3035,46.3376,-171.8355,30.9295
-898.4375,-2.4378,30.3734,58.8572,-50.8845,23.4887,19.0980,-94.5765,-52.5051,-71.0138,-11.2820,-27.2338,30.2339,-36.3563,116.2860,-99.9928,10.3518,85.9126,-44.9941,-88.7828,114.0696
-890.6250,82.4603,46.6011,39.1630,-107.0540,39.8055,-72.0671,-77.0665,-108.6234,-81.5418,-30.2138,27.6604,10.8697,-18.6303,133.7142,-119.2844,-9.1372,171.8052,-30.0139,-38.4557,94.5297
-882.8125,118.3399,-23.1299,40.4508,-106.1937,41.0927,-70.2035,-1.5902,-106.7234,20.2044,81.8627,-44.4764,-59.4710,-89.9526,98.1758,-7.6120,-43.5973,101.6952,-62.0056,-37.1445,96.0186
-875.0000,-11.6897,-47.7077,-59.1733,-96.1953,-58.5433,-59.2063,-28.0449,13.2996,63.5928,167.0598,-106.5427,-12.6949,-227.2288,145.7716,3.1185,-32.9314,7.6663,18.1349,9.2346,106.6258
-867.1875,-23.2502,47.2707,-107.3219,-37.6554,-69.7112,-33.6667,-2.0319,76.8624,22.8525,82.7862,-117.1633,49.6148,-238.0642,207.9111,-7.7020,-7.7265,-74.8995,-61.1828,-37.9296,95.7759
-859.3750,-82.2588,58.9127,-136.9173,-25.4706,-136.3215,-25.4812,4.5306,121.0642,67.4652,201.1566,-147.2300,94.5580,-267.3695,215.7013,-36.9805,1.1211,-133.8933,-83.8486,9.4791,213.5645
-851.5625,-192.8526,125.0535,-250.0878,5.1947,-176.5145,-27.8113,-71.4822,118.7514,95.6491,383.0090,-149.8878,127.9695,-270.2737,248.9696,-76.8461,34.4463,-139.4559,17.9647,4.3267,173.8301
-843.7500,-90.9224,191.7750,-180.7283,35.4299,-143.1808,-30.5726,-38.9612,116.0082,26.6062,196.4236,-79.0204,124.9378,-236.6678,245.8122,-80.1864,31.3414,-107.4675,-55.6470,-34.2749,170.6651
-835.9375,-46.2032,202.3265,-98.5762,10.4807,-61.0507,-58.5156,-29.6483,53.0724,-35.4882,-14.3620,-33.3742,133.7129,-228.3056,255.4747,-71.7473,41.0524,-62.6817,-44.4390,45.9165,216.2999
-828.1250,-84.4450,164.9573,-97.3821,7.6039,-23.8822,-56.3842,7.7058,53.2078,-44.5127,-12.0880,4.2880,98.5471,-190.9337,219.2058,-144.2916,40.8316,-100.8520,-10.1591,78.1507,143.9906
-820.3125,-174.2089,112.1274,-152.7041,59.2558,-42.2336,35.2737,26.5389,72.8701,1.8896,42.6973,-86.5771,80.8928,-209.1106,165.4615,-125.3698,23.1314,-119.5249,76.6480,94.8809,126.1821
-812.5000,-261.8268,130.4851,-202.8819,148.0811,-92.4407,97.1091,-24.4848,97.7066,-14.1523,30.6413,-100.3214,141.3899,-296.1797,188.8858,-139.3258,84.5994,-66.0511,166.6116,78.7522,39.5300
-804.6875,-196.6039,126.7134,-133.2139,178.7668,-23.8058,130.8031,8.3321,131.4020,-9.8731,28.4476,-140.2363,101.7430,-299.4280,149.1750,-142.4624,80.9245,-106.7208,92.4398,38.4777,-0.2538
-796.8750,-216.8433,36.5195,-157.0025,123.0162,-45.6277,109.0559,21.6909,145.6562,18.9231,42.8158,-162.6251,42.6448,-212.1586,90.0294,-129.0785,21.8108,-92.8445,108.8316,123.7503,50.5077
-789.0625,-196.0363,23.4142,-129.7478,110.3407,-20.4102,99.3701,12.0955,99.9680,6.2301,-2.7707,-98.9923,-3.3942,-185.8790,42.9557,-101.6667,-24.2347,-71.9175,132.2713,110.0631,-32.6748
-781.2500,-159.9370,-9.3500,-56.2004,146.9927,55.0961,101.9976,50.7832,65.5930,5.9477,-37.0567,-25.0892,-38.1180,-110.3478,9.2096,-63.9857,-21.9564,-35.6827,99.0257,41.6767,-30.5492
-773.4375,-171.5368,15.2305,-67.3511,170.9688,43.9003,128.9423,-34.2405,55.5312,-9.1483,26.9615,1.0812,25.4658,-48.5521,34.7795,-75.0345,40.6304,-11.1462,160.0942,-4.4227,-41.1231
-765.6250,-116.9377,72.0448,-45.3071,191.1695,28.8990,115.1035,24.9323,78.6738,29.4941,49.1792,-13.5733,11.2489,-99.5911,20.5607,-16.9050,26.4290,-26.4066,40.3766,-19.3229,-55.4853
-757.8125,-82.6937,0.5488,23.3814,119.0434,23.5421,37.9256,56.7440,1.4734,41.0066,-27.9555,-53.5959,-67.3121,-105.0150,-56.9902,14.8409,-51.1080,76.9895,40.3244,49.4255,13.8011
-750.0000,-25.1034,-10.5612,88.4156,73.2910,52.5229,-42.8841,11.8952,-5.3631,-12.4931,-71.7395,10.6944,-184.5136,-77.1306,-101.1738,-67.0962,-58.2809,135.7361,64.6260,37.5198,-67.5601
-742.1875,63.1313,-25.9886,142.0968,56.2126,142.1388,-25.0297,28.6836,-24.5358,-31.9265,-126.8768,64.6063,-203.0594,-23.6364,-120.6903,-13.4074,-40.7897,48.1424,-20.4077,-49.7349,-13.2688
-734.3750,39.5784,-48.1779,114.9895,69.3568,114.9624,-14.9636,-71.3304,-50.5050,-48.3905,-115.8237,147.6998,-46.4053,23.0322,-36.9956,33.4602,5.9019,59.7611,-7.2439,-35.7970,70.2230
-726.5625,47.7816,-3.5865,123.6362,78.2664,123.5358,-5.1445,-25.5966,-76.7218,-51.2715,-143.0278,119.5169,-1.0021,31.4215,9.4590,42.0525,-21.6455,68.1399,-66.3257,-63.1045,79.4797
-718.7500,64.5316,-56.4104,135.8234,58.7457,63.6458,-63.7643,-13.3285,-136.3743,-42.6680,-128.6733,96.8512,-60.0451,43.3182,-49.5180,18.1637,-6.6235,119.0692,-84.8420,-46.8633,166.2902
-710.9375,74.1871,-43.2959,111.9059,0.1488,39.6431,-86.4736,-74.1714,-159.1133,-45.0533,-78.4149,109.0572,-83.1849,56.0772,-35.5776,31.1483,6.3135,94.9006,-1.4547,-70.7299,143.0080
-703.1250,80.4451,-1.5514,82.5882,7.1677,9.2323,-41.5773,-30.4209,-115.2516,11.1350,-33.5619,42.8384,-75.7183,-11.5892,-65.0246,110.7067,-22.1433,32.3529,-64.4577,-63.9818,150.3283
-695.3125,24.4097,-20.0742,-13.0254,56.9054,-50.4667,-25.9724,-15.9612,-135.6902,-0.2192,-92.0267,-16.7088,-23.5574,-70.5843,-12.7676,88.9470,-6.8944,115.5191,-13.7598,-14.5301,165.3390
-687.5000,93.4750,-20.4789,62.4619,92.7585,25.9349,-22.2640,-12.3921,-205.0340,-42.5226,-197.4027,23.8117,-56.3030,-31.5074,-82.4076,54.2731,-40.5447,150.8005,-12.9687,20.0407,95.4548
-679.6875,52.9483,-94.4747,56.3542,52.0147,55.7448,-64.1684,53.5826,-247.9955,18.0732,-93.3990,16.7267,-99.6598,71.9572,-88.6457,83.9928,-45.7990,74.5258,-15.7901,50.0408,125.9554
-671.8750,-97.9418,-103.8594,-97.1185,77.8763,11.1816,-34.4913,46.1812,-106.3767,84.7812,121.1711,-26.7650,-33.4369,-8.9873,-22.2953,76.3130,57.5335,-75.1132,44.9701,39.6542,46.0315
-664.0625,-159.5079,-22.9172,-123.2706,87.0557,-51.0693,14.4866,57.0853,51.5302,63.1687,96.0229,-52.9784,-21.9224,0.3450,26.3512,49.9111,105.1605,-172.4297,-50.9652,13.5680,20.4027
-656.2500,-121.6657,-19.5282,-85.0187,90.6694,-12.9169,-20.1218,21.3783,16.8382,-19.3579,-48.7345,21.1734,53.9969,38.0417,28.4108,-21.1292,71.1952,-29.3354,-46.4913,16.8813,59.1669
-648.4375,-30.0700,39.6434,-22.0152,149.0611,50.9829,9.0297,-24.5765,-28.0988,-57.6136,-94.7550,48.0382,81.6675,27.4587,20.2295,-32.4522,61.9879,28.5219,12.7239,-31.0503,-23.3140
-640.6250,-9.1672,27.1422,36.2900,135.7756,109.1798,31.4815,-40.2333,-79.7364,-50.1031,-72.4903,-4.8191,30.6418,11.1462,5.3556,-11.5003,84.0909,14.7031,35.2397,-79.6771,-1.4953
-632.8125,-44.2440,-6.3237,1.6102,101.5139,110.3835,-2.0621,-37.8903,-76.3784,-47.4392,-69.2439,-2.7010,33.6165,-24.1898,-28.5107,-46.5640,87.2005,84.8990,36.7526,-8.3046,-35.6765
-625.0000,77.8385,-23.6063,93.0870,118.4320,165.7353,17.5466,17.5941,-130.8731,-72.6909,-159.8604,52.5338,15.7395,-6.3998,-83.2179,-65.5019,-3.5353,137.2632,-86.5780,-26.7720,-53.6982
-617.1875,93.0819,-77.6982,143.7070,98.5265,142.2336,-4.6880,-42.7782,-151.2121,-91.3612,-181.3316,102.8872,-6.9843,43.5072,-105.7693,-87.3233,-26.1082,187.7860,-34.7525,23.9143,-2.5789
-609.3750,104.0330,-30.0543,123.0318,110.3430,121.4284,-24.2136,-26.4455,-135.8436,-74.8739,-202.1129,80.9088,-27.0064,59.0854,-88.6130,0.5333,27.0263,128.0179,-57.2371,34.3009,-96.7583
-601.5625,51.9454,-44.4339,68.3107,60.1335,103.5727,-77.7867,139.8256,-41.5315,35.7265,-108.9608,-47.1369,-81.0750,3.5958,-105.4973,92.3248,47.1198,41.2232,-107.7689,53.6373,-76.9847
-593.7500,-100.8180,-54.4833,-53.0926,49.2489,55.0263,-51.0643,91.3952,21.0671,47.4048,27.4756,-58.9023,18.1530,-8.6128,-79.0758,7.4033,73.5114,-5.2537,-12.0125,77.2715,-87.9151
-585.9375,-125.5165,-7.4556,-39.4424,129.4323,31.5288,-0.3002,68.0183,72.7062,33.3777,78.9577,-45.6479,32.4315,40.2035,-65.5987,-53.4877,50.9588,-100.6686,34.7861,16.9625,-147.7915
-578.1250,-230.2545,-76.4533,-77.8394,130.5855,29.9796,36.4113,66.5902,109.2989,73.4401,152.3792,-84.4667,31.6626,38.9520,-29.1646,-18.4489,87.3676,-136.1223,35.5355,17.6091,-111.7237
-570.3125,-155.8729,-34.3265,-33.1286,66.8590,37.5374,8.2237,37.2657,80.9910,29.9355,49.8821,-3.2080,2.9884,118.7880,-20.6315,24.6747,95.8759,-94.4633,-62.6216,23.3626,-140.5540
-562.5000,106.6206,17.9196,53.6860,-22.7522,51.1943,-86.8685,51.0369,-14.2268,-27.8131,-119.5235,10.1279,-55.5924,131.7079,-116.0011,38.8791,36.4822,-8.6772,-220.6760,39.2299,-89.2878
-554.6875,217.0338,61.0951,59.4130,-51.4340,56.7548,-154.0541,20.7084,-155.5513,-72.4188,-222.0497,52.3375,-12.2799,136.5014,-72.4741,79.9651,5.9900,103.0287,-179.8326,10.0001,-83.1368
-546.8750,390.1152,270.9502,132.7994,17.5608,166.9700,-153.5838,19.0348,-228.2329,-128.4056,-332.9469,87.1642,60.6833,134.9275,-36.2932,115.6875,6.1527,170.4026,-216.3445,-97.5754,-120.3318
-539.0625,421.8107,339.4257,162.7950,14.1769,159.7896,-194.5127,12.9544,-270.3228,-153.3294,-375.2547,43.5733,91.2385,163.9445,-41.5139,71.9966,0.9113,202.4014,-288.2524,-30.5393,-52.9318
-531.2500,365.7799,356.1720,109.0558,-40.9383,68.8733,-284.1941,32.1309,-323.1741,-116.9175,-318.3339,-10.7836,1.0328,109.2008,-58.4971,53.5442,-16.0912,252.6691,-307.9245,89.7561,-143.2896
-523.4375,475.3687,326.5381,114.9311,-35.4322,74.5667,-278.2834,111.9100,-280.4421,-89.2387,-311.8358,-79.5607,-29.5773,40.0427,-88.8866,58.6840,-83.4981,256.5706,-372.9969,58.6568,-174.0526
-515.6250,467.7849,355.7332,68.6253,-7.1021,28.0699,-213.5773,102.4881,-287.9197,-79.1255,-320.5687,-126.5540,35.6116,-6.3251,-60.4754,48.6049,-91.1025,319.3016,-273.2749,156.3663,-146.0328
-507.8125,439.6334,364.3431,44.7393,35.6454,76.9842,-199.4720,151.4662,-276.0070,-85.6686,-380.9284,-114.1662,12.1882,4.7029,-83.6717,23.9082,-115.3084,327.4636,-301.1654,234.4897,-243.6184
-500.0000,366.9027,258.3696,78.2685,-71.1875,148.3049,-274.9771,258.8438,-314.7056,-41.7515,-346.9088,-154.3980,-63.8452,38.1226,-159.4771,-16.4026,-154.1213,360.0517,-371.6627,338.0298,-245.8148
-492.1875,395.0500,182.2685,110.6628,-42.1519,180.4896,-315.6432,254.0862,-355.5702,-42.8817,-315.0643,-123.7993,-105.0393,-4.6154,-163.4467,-58.8656,-158.0998,459.5123,-343.3398,296.4326,-287.1725
-484.3750,542.9274,226.8797,264.7773,-34.4113,260.3814,-307.6320,261.0403,-383.7547,-71.3557,-453.5410,-80.5153,-97.5438,1.3443,-228.7228,21.3662,-223.3821,501.7040,-404.3456,232.5572,-279.8259
-476.5625,488.6869,138.3578,315.7606,-52.8065,311.1372,-328.7871,274.8553,-405.1029,-81.1139,-512.1904,-67.3967,-83.2065,51.1473,-214.1574,-2.5616,-245.8200,587.7754,-283.5139,283.5478,-228.6384
-468.7500,378.9748,65.3479,317.2624,-20.6847,312.4065,-253.4520,239.1803,-404.9660,-73.8997,-402.3674,-66.7978,-81.3783,13.4478,-213.1019,-75.9953,-244.7649,513.3726,-251.1953,245.0471,-337.9532
-460.9375,389.1805,78.2569,324.6758,25.3576,319.5822,-171.2230,246.4047,-322.9479,-87.8215,-429.6642,-97.3177,-73.6591,-16.3606,-168.1526,-69.5340,-198.8128,454.8955,-274.9793,150.4518,-256.3782
-453.1250,397.3177,122.0971,329.0037,69.3259,250.6633,-129.0940,177.5275,-280.0386,-108.9328,-461.0785,-55.9572,-32.0429,-13.2822,-125.3079,-65.1823,-119.9618,462.3356,-195.8787,193.7569,-177.9185
-445.3125,353.2791,115.7523,322.1452,61.1082,243.5491,-135.1745,207.4557,-213.3397,-72.3349,-394.7115,-64.8205,-112.6272,15.5908,-205.6733,-74.0444,-163.3136,348.6075,-167.9873,219.8844,-221.6640
-437.5000,215.9650,-19.8893,214.0021,-4.3954,171.1489,-95.5671,209.0986,-136.9617,-29.9550,-318.6776,-62.9981,-146.5263,53.1647,-240.3555,-36.2144,-160.9786,211.6151,-128.4086,223.7383,-182.7364
-429.6875,128.1385,-71.0727,160.3413,-55.4376,117.2219,-75.5213,155.2153,-43.1577,-28.5212,-263.2334,-7.7384,-125.9933,109.1952,-145.6081,-16.9406,-104.2139,160.1022,-109.4026,207.0553,-199.3771
-421.8750,170.7928,-131.7983,165.1552,-48.0142,121.7642,-33.0409,195.7904,-37.9273,14.0428,-148.3668,-41.0368,-122.0239,37.6794,-141.4272,-50.2222,-62.0078,132.0733,-100.9616,178.8398,-121.5780
-414.0625,64.3758,-131.6116,125.8915,-12.6780,82.2277,2.3255,120.2796,-39.8115,-4.5165,-150.6262,-44.4490,-87.1669,71.0658,-143.3578,-53.6030,-63.9130,96.9684,110.3582,143.5430,-86.8954
-406.2500,-10.5214,-98.9261,14.1369,-15.8346,154.2024,1.1756,155.2885,-77.2049,51.6714,-114.3983,-46.3881,-124.8243,105.9532,-180.8065,91.5191,-101.3280,-48.6141,141.1624,138.7671,-161.7199
-398.4375,-100.3428,-153.1796,-45.5560,-35.9249,168.2371,52.0652,242.3542,9.4291,121.2036,-27.1426,-71.2857,-111.4441,117.8949,-167.2213,140.6854,-50.7047,-139.1188,122.0026,154.0563,-111.5109
-390.6250,-89.5265,-140.8220,-34.6212,-59.4022,141.8937,26.5370,180.0349,57.6409,94.7417,19.6800,12.4128,-63.4797,127.4458,-82.0561,76.4583,-3.5006,-91.9950,62.4148,164.9580,-100.7103
-382.8125,-11.1855,-165.9705,8.8316,-85.3722,148.0626,-2.5113,186.2247,64.3361,106.5849,62.9830,17.6021,-94.0217,95.5084,-149.4056,81.7364,-69.8026,-119.3408,36.3118,67.3813,-57.4163
-375.0000,-58.6169,-174.9158,-41.4980,-97.1327,61.4432,-52.3725,62.6271,88.2218,93.8864,123.4620,2.9819,-107.3745,81.7751,-125.5668,68.2078,-45.9074,-95.4615,95.3924,56.0178,-33.9412
-367.1875,-42.2710,-159.1087,-96.0570,-80.1304,42.5850,-32.4938,80.7915,144.8392,119.1953,179.6588,-52.9056,-87.9892,98.8000,-142.9949,85.4224,-26.2742,-149.8036,-28.7936,71.4207,-88.7241
-359.3750,-55.8983,-170.2895,-76.5992,-93.1089,-12.2584,-50.6292,135.9599,200.4306,137.3869,197.8273,-107.7986,-69.6120,42.8334,-87.4365,66.6346,29.3466,-126.1144,-76.9859,58.8359,3.4732
-351.5625,-16.4958,-94.4633,-108.1214,-53.0691,-81.0839,-45.7682,30.1433,168.0107,94.4347,201.9671,-32.7049,8.7522,-28.1246,-45.8966,32.8520,70.9581,-87.4096,33.7999,28.2590,7.6541
-343.7500,45.5310,-67.0327,-45.0304,-25.4170,-90.3021,-17.3176,-16.0650,196.1804,116.9171,266.6989,-43.0307,-37.2915,-1.4762,-127.7705,59.6719,-48.8389,-130.0910,25.1695,-16.7155,-1.5613
-335.9375,-1.7187,-110.8769,-93.2309,-1.0389,-139.8177,-30.1707,-29.5851,183.0463,127.8361,253.1408,-56.6802,-50.6328,-16.1409,-103.9443,82.1709,-24.9341,-106.0668,84.2368,42.9896,21.9299
-328.1250,15.2910,-94.4465,-111.1763,50.6189,-157.0958,27.2263,-46.8702,240.1626,60.0055,161.8313,-39.1100,-30.7138,-34.5673,-47.8720,-10.0923,68.2224,-125.7792,65.5596,58.9404,-32.3147
-320.3125,-47.4363,-118.7501,-67.8695,24.5520,-188.1274,33.8700,-3.9153,246.5104,66.7517,130.7443,-106.2953,-24.5497,7.2655,-41.5571,-5.1084,75.6232,-116.2063,39.1411,67.1550,10.6823
-312.5000,-80.1770,-115.1018,-65.5888,-7.5536,-76.1949,36.4510,-38.9947,174.7806,38.1428,132.5671,40.4703,14.5464,82.0643,-39.3172,-41.1670,40.9550,-79.6546,111.6457,69.3460,12.6077
-304.6875,4.9162,-64.6730,59.5162,43.1386,11.5563,88.8086,-24.2503,79.8280,2.4069,0.1627,91.0341,-7.5824,95.6802,-61.3053,9.5829,-54.9353,-64.2698,91.9209,-21.6324,27.3204
-296.8750,-36.0058,-68.3018,14.5937,37.7798,-32.7219,7.0950,-104.5379,34.8013,8.6834,28.6836,44.5486,21.2202,49.2621,-32.3732,74.2939,11.1007,-68.9047,121.1261,-27.6327,55.9571
-289.0625,-33.1928,-30.2345,-51.5986,75.1242,-63.2835,15.0645,-99.1034,78.4547,2.2791,145.8846,50.7567,28.7046,91.5606,12.2332,-30.2913,54.8171,-137.8167,53.0085,-60.9159,-47.7238
-281.2500,62.7442,-73.0746,44.3199,31.5757,-40.7323,0.1175,-39.5586,64.1968,30.7509,167.1664,71.0632,13.2791,112.9690,-40.0779,-9.7719,3.6222,-146.5984,-97.0279,-69.0744,47.6784
-273.4375,44.5708,-90.0754,24.1197,-55.1186,-61.3055,-56.0022,-97.1408,6.7670,23.6946,109.2690,122.2195,-7.3207,164.2464,-59.5672,78.6114,-52.7447,-128.5031,25.7501,-52.3613,99.9150
-265.6250,62.0285,-37.4989,43.5491,-39.2168,-42.2589,-0.5495,-77.1014,-11.0894,-4.3549,54.9380,103.9787,-25.3418,146.1499,-41.4859,60.6151,-34.5308,-146.7745,42.1034,-106.0274,45.7504
-257.8125,45.9644,-51.4758,25.4446,51.1397,-97.7482,54.3359,-96.6041,43.4843,-21.4477,35.0342,46.1934,29.0760,88.5243,13.0262,4.0764,-15.8799,-91.5730,-7.0977,-86.2292,100.0139
-250.0000,84.9789,-82.4022,29.4102,19.5586,-93.1769,22.2623,-92.0446,11.1003,-39.8611,-33.8339,123.4490,33.5294,91.9627,17.5656,6.5959,-12.1915,-18.3133,-39.2640,-13.3774,67.3101
-242.1875,72.7574,-163.5965,54.1388,-27.2633,-32.8484,46.9304,-31.7339,-1.5483,1.8153,-10.9649,35.4507,-16.2769,115.1661,-32.1671,29.8709,-60.7689,-30.2839,17.3058,9.2436,54.3438
-234.3750,-65.1821,-124.5485,-14.8584,47.1696,-65.2516,88.8326,-28.1605,3.0310,12.6092,67.1299,-35.2934,-11.8468,81.6349,9.3282,-40.5944,-20.1121,-26.9748,161.0968,-22.8744,21.6076
-226.5625,34.9614,46.5394,18.2230,111.6550,-70.5815,120.7625,-69.5197,-1.3639,-39.7552,25.2486,-40.9857,20.6173,2.1784,41.8488,-83.0025,-24.4274,38.4077,14.9185,-98.9264,-20.0855
-218.7500,96.9817,38.4758,80.1697,33.9943,-81.0481,-1.4772,-80.0172,-13.9265,-22.2064,49.1941,-53.8235,7.9138,-11.4009,-7.8029,-58.5508,-36.9048,100.6610,-63.4159,-71.1107,41.0554
-210.9375,88.0762,31.4577,75.1792,25.3890,-88.4537,-6.6808,-123.4476,-19.4471,-39.7434,43.1881,-24.6201,2.2410,19.0796,-13.4329,-66.0373,-42.3503,126.9749,32.2804,-81.2264,-38.7715
-203.1250,126.5413,35.7745,149.5479,64.1321,-13.5021,31.4487,-49.5184,-55.6289,-26.6310,-30.4647,-62.0745,2.9072,55.9247,-49.7327,7.8310,-114.4633,60.6568,-70.6915,-111.9731,-1.2615
-195.3125,16.0890,-3.8695,104.9887,23.9209,-57.4803,-13.3908,-20.5207,-99.7814,23.2970,33.8953,-70.4652,-6.3858,45.8480,-22.0084,34.7599,-122.5457,91.4078,-39.6334,-46.6536,63.2835
-187.5000,50.0680,30.8675,103.8538,59.1050,-23.0400,21.1500,-95.1020,-28.5629,-17.5319,68.6179,-1.4509,28.6993,43.2019,50.0927,-4.8901,-15.2487,90.5838,-41.1990,-153.9151,61.2279
-179.6875,125.2627,-33.2112,174.9314,28.4877,-61.3889,19.8755,-171.4741,5.8390,-65.7056,-7.4762,69.7692,26.9749,77.7756,84.3753,-7.3261,57.2398,95.9765,-72.5735,-149.9621,205.3608
-171.8750,84.6313,-145.1475,132.1729,-47.9764,-68.5719,-60.2624,-178.6778,-38.6237,-47.1519,-15.4347,133.1431,-17.6189,105.5208,3.7793,21.4072,12.8601,89.5402,25.1727,-50.8434,197.6262
-164.0625,46.7341,-110.4179,96.1431,-49.7596,-31.0359,-59.7405,-67.1562,-37.4199,0.5020,21.2812,96.2363,-53.5435,142.0067,-69.1565,56.8754,-96.8573,-18.1540,23.5863,-87.9912,124.5746
-156.2500,-19.4633,-1.0631,62.8017,-10.9101,-102.8170,-21.6054,-101.9607,-36.6077,19.6510,94.6213,60.0096,-15.8419,69.1858,-31.4829,58.0194,-58.9628,-14.1737,-9.3838,-84.4728,162.1436
-148.4375,-1.6769,51.2345,45.4349,5.8939,-120.6290,-38.5349,-155.8049,-16.8609,10.8603,113.8966,77.7343,-33.1997,14.3371,-12.8777,39.1183,-39.1305,3.7614,-63.4187,-33.0111,107.6553
-140.6250,76.2653,-114.3268,53.2213,-90.1347,-77.2932,-69.3111,-39.5099,-10.9574,65.7046,119.3215,10.6056,-101.4107,20.6516,-43.1309,81.3671,-70.1466,11.8532,-90.2901,10.5963,150.3163
-132.8125,50.3089,-139.8053,27.1182,-81.0504,-103.8561,-21.9840,-66.1142,-0.9551,60.9174,128.8501,18.5738,-91.5326,29.0792,-33.3002,53.7276,-60.0690,22.0435,127.9369,20.3024,123.0726
-125.0000,-8.2443,-21.9027,4.4156,35.4376,-89.0237,101.7405,-51.3161,11.4445,65.3906,178.7850,-42.0663,-41.2634,-31.0817,-57.0874,-6.5059,-82.6033,-72.3699,139.5647,-4.5870,63.2341
-117.1875,-138.4456,22.3554,-132.9337,81.2962,-153.8509,110.8196,-6.1782,57.2021,66.4305,151.0718,-107.3612,-32.6382,-58.8931,-48.5277,-34.3954,-37.7811,-97.4454,148.5537,39.8623,71.7463
-109.3750,-180.1494,17.1180,-170.7887,74.6857,-155.1886,108.4250,-8.5591,128.4786,50.8369,147.8753,-75.1766,1.5072,-63.2058,22.5395,-37.7992,33.5542,-104.0450,177.0573,-1.2149,-41.2226
-101.5625,-101.6704,24.0811,-55.4609,117.3019,-77.3483,150.2455,-3.7623,132.9703,38.3861,151.9001,-107.8077,5.8689,-22.3153,26.8065,-34.0204,38.0988,-131.4464,112.7832,-135.0924,0.0277
-93.7500,-115.2337,81.9864,-71.1804,174.8753,-93.5601,171.0160,-130.0139,116.4087,-9.8758,97.8661,-88.4877,25.1705,-39.4590,46.0125,-51.2885,57.5839,-37.8930,204.4514,-113.0134,56.2247
-85.9375,-108.4306,89.2166,-62.5343,145.7924,-49.4147,142.1193,-84.9047,88.1844,1.4086,69.1722,-82.8068,-3.1937,-69.2314,17.5479,-44.1862,-7.6001,-32.9730,104.4565,-37.5731,-9.2296
-78.1250,-127.6638,-34.6192,-45.9285,57.6588,-33.3140,85.1623,4.1557,29.9005,48.6555,47.4253,-68.1662,-24.6131,-17.0378,-40.9804,44.8775,-28.8425,-16.0890,50.4011,13.8226,6.2522
-70.3125,-76.0275,-52.6109,10.5394,39.3807,23.6405,68.0481,-12.9262,12.4640,9.2461,-44.4827,60.3295,-42.1885,75.0247,-58.6771,62.8014,-46.2443,36.6499,101.1811,-3.9313,-48.4228
-62.5000,-18.3265,-64.5666,70.0642,62.1501,45.6479,125.9725,-64.9630,71.0709,-21.5576,-23.3514,44.8877,-57.7281,60.1591,-37.3464,-26.2071,-24.6096,-11.5462,122.9969,-17.6243,-27.0472
-54.6875,-92.7532,-68.6894,-45.5489,57.7604,-33.4868,120.7261,-70.1417,65.5118,10.5377,80.6331,-35.6936,-26.4336,-19.8368,-6.1859,-69.3504,6.8596,-15.8883,152.6425,48.5367,-32.8342
-46.8750,-116.6136,13.7192,-65.6064,69.9139,-17.0659,100.0153,-16.7529,80.4933,44.8968,133.1694,-57.7237,-11.5912,-41.2651,-28.4932,-17.9344,-15.1343,-73.6784,57.8210,-10.7426,-128.0701
-39.0625,-74.5198,-14.9300,11.2876,41.0213,-14.6861,66.2443,22.5949,46.4195,47.8520,60.6389,-19.7985,-8.7967,34.2665,-25.8525,57.4296,-49.1835,-32.5100,28.9476,-40.0593,-52.3583
-31.2500,-58.5668,-68.7430,29.0347,21.9768,39.5469,46.3235,-34.1964,26.1895,15.3218,39.9526,68.9771,-29.1555,86.6601,-9.3728,36.6479,-32.3852,-51.4966,78.9135,-23.5230,-72.8040
-23.4375,-40.5570,-120.5216,81.8364,-31.0251,54.8228,24.4435,55.0555,4.0018,42.5813,18.3284,82.8130,-51.4731,101.1253,-68.8596,87.9341,-54.5491,-102.4259,-45.0789,-41.9321,-21.2009
-15.6250,-65.9758,-145.7543,13.2046,-91.4804,21.6578,-44.8984,21.8591,-28.6500,35.1848,-15.7478,85.2179,-11.2522,104.1628,-28.8114,127.7890,-50.1816,-58.8016,-71.5322,3.2061,91.9444
-7.8125,-60.2755,-34.9076,-52.3097,-51.8407,-8.3970,-2.1501,-8.2268,13.7903,3.5344,27.2650,54.7283,32.0631,0.3240,51.3200,23.7564,29.2694,-53.0795,2.1028,-28.5563,25.1994
-4000.0000,-49.0250,-39.1981,-54.1990,5.2601,-36.3470,18.6295,-19.6533,28.6213,9.6265,29.1365,-33.6295,33.3772,-22.4170,49.0580,21.9509,52.2964,-61.4129,13.5711,-15.4623,59.0116
-3992.1875,-144.4620,-65.6887,-114.7043,16.6959,-60.5754,69.2802,-43.7489,43.2912,-6.8713,43.7305,-20.7778,48.1050,-9.4104,27.0451,-37.5000,66.3459,-87.0612,94.1664,-6.4872,-0.0880
-3984.3750,-121.3396,27.3789,-89.6595,110.6867,-35.2508,96.4776,-18.2961,69.5110,2.1355,106.8643,-31.3660,74.3861,-19.8454,53.5864,-47.4025,56.9416,-135.1567,47.3137,-122.9685,-46.6496
-3976.5625,-138.8119,115.8546,-37.2077,164.0782,-19.5282,76.0784,-112.4462,86.1293,-15.0799,159.3984,-52.5490,164.0691,-40.8730,106.5226,-103.9040,73.9362,-46.8572,31.8624,-105.0608,43.1831
-3968.7500,-82.0333,66.5770,-14.5069,80.7198,41.4420,-9.0721,-51.3572,0.9957,-23.3420,38.1823,45.5267,78.9997,20.3525,22.7147,-80.1551,-10.8133,43.6978,-16.3273,21.0927,-4.7443
-3960.9375,11.2589,-155.2101,120.7059,-70.1414,139.9228,-94.7187,120.2334,-84.6389,19.7713,-120.5487,70.1165,-115.5791,155.0901,-99.5941,56.0952,-132.0598,67.7560,-62.0190,81.7354,20.8151
-3953.1250,1.7622,-199.8056,111.1277,-113.8084,130.6108,-103.1652,74.0186,-129.0779,22.4631,-129.0825,97.9135,-123.9593,146.0365,-107.7073,84.5395,-104.1107,129.0223,35.4917,142.5756,12.5730
-3945.3125,-13.0779,-39.7419,98.2002,-22.8173,117.9520,-39.9582,62.4475,-29.8681,38.5926,6.0381,12.3709,-98.6916,24.6337,-118.1719,-0.3690,-77.5170,42.9423,-14.3387,92.0585,-72.0327
-3937.5000,-15.7064,-42.4712,93.4862,-23.6172,76.5009,-44.5472,57.0749,2.5370,-3.9930,-108.6480,-29.9719,-66.2253,19.4321,-85.4414,-5.0760,-44.7243,76.0635,-85.9705,90.7349,-2.4440
-3929.6875,82.6662,-50.2036,122.7706,-30.4149,69.0502,-88.1396,12.6970,-78.0623,-42.3678,-151.3404,36.6931,-35.7604,49.2400,-17.7116,-11.7852,-50.9365,103.1939,-21.5921,83.4165,-8.8605
-3921.8750,37.9002,-25.0830,75.9107,-75.3579,22.4534,-59.8785,40.1713,-12.8167,52.3756,96.8139,-46.7842,-44.4475,2.9030,-26.1374,-20.6511,-59.3043,22.1753,39.6341,73.9449,-17.4448
-3914.0625,-64.6023,14.2966,7.3083,-0.0481,-45.8959,-16.3703,8.8914,66.6749,46.5647,140.2125,-41.0064,-0.8931,-65.1814,-19.3174,-88.2725,-52.4306,-9.5867,80.1099,77.7180,-47.7879
-3906.2500,-14.1428,63.6341,23.6621,15.2201,7.7049,37.0835,25.5519,84.1113,1.5259,83.5618,-24.2669,15.6089,-11.3144,-2.5495,-144.9550,-34.6053,5.6103,-45.4593,57.4377,-67.1992
-3898.4375,1.3334,8.9728,-0.9734,-38.5027,20.3139,-22.4556,75.2149,61.5503,38.7915,60.9042,-48.5229,-6.8991,1.5541,-24.7873,-57.6406,-20.7822,-14.1904,-28.0267,109.1510,20.3752
-3890.6250,-121.3381,-8.8367,-90.7557,-20.3699,-33.2302,-1.1373,58.7266,81.8383,51.7400,81.0860,-27.9244,14.4446,-14.7218,32.8189,0.5246,0.8887,-68.1309,59.2654,55.7116,-32.2108
-3882.8125,-149.2451,-0.8822,-82.7793,-11.4768,-25.0144,43.9320,66.9845,164.8723,42.6450,90.0081,-56.5698,23.5372,-6.2447,6.1743,-27.5701,10.3006,-94.3174,-36.6933,-6.9870,-23.0678
-3875.0000,-118.5938,-41.3694,-88.2436,-51.0261,-67.2461,2.5563,-13.2111,122.4529,23.4978,48.4788,11.3374,18.1791,-12.2141,38.0789,3.8757,42.2575,5.0474,-5.0982,59.8561,8.6199
-3867.1875,20.5046,-7.3986,-12.2643,-16.1181,9.9670,6.6355,-8.9641,16.4837,-35.9015,-94.5942,88.7010,-14.7337,-7.7342,5.4327,7.7654,-27.3292,108.8633,-6.0349,-11.8483,-97.2557
-3859.3750,97.5590,34.5286,104.6722,26.7413,53.1344,14.6753,-1.7611,-48.5336,-46.4211,-160.7246,133.0190,-79.7037,72.6968,-96.2706,52.6125,-91.9733,151.6359,1.9761,-75.6060,-89.1968
-3851.5625,67.9732,39.8050,111.9694,-2.0480,97.6555,-13.9405,5.7898,-114.2033,-7.0087,-78.5092,140.6946,-71.3276,117.4822,-124.6279,60.8085,-120.2718,156.7690,44.3419,0.9792,-117.7924
-3843.7500,61.7983,33.4890,105.6711,28.5684,91.5818,17.8430,35.7320,-82.4821,36.8012,-10.8889,60.7834,-76.5581,74.6733,-129.5880,92.3932,-125.1775,79.3024,-31.8866,-5.0382,-123.0029
-3835.9375,7.1794,48.7184,45.9214,43.7318,32.0575,69.1778,-23.7708,-68.2104,-22.0372,-69.7231,37.4295,-25.2435,-21.5740,-41.0030,-3.4740,-73.5386,165.3812,-15.5682,10.4942,-71.6687
-3828.1250,119.8099,56.1981,129.4179,87.1393,78.7840,43.7611,-50.0252,-93.6868,-89.7431,-206.3146,85.3381,-51.6825,-47.5583,-67.1679,-66.0958,-62.6502,241.7176,-42.9912,52.2774,-134.0924
-3820.3125,177.6079,-97.1651,225.0790,4.6970,138.6717,-43.5083,82.8721,-144.0201,-31.0883,-219.7604,71.4046,-137.9762,11.6117,-153.1876,-6.5694,-111.6211,229.2108,-89.2676,111.2069,-110.3789
-3812.5000,179.4160,-95.5248,155.7510,-62.7485,105.5673,-38.7805,86.7710,-139.3642,-4.9636,-178.2067,75.4752,-133.2786,15.7820,-148.2161,34.9553,-143.5976,230.7186,19.4638,113.1327,-142.6703
-3804.6875,228.8296,-11.2780,172.0255,22.4125,122.0660,16.5514,67.2633,-85.1123,-36.5113,-197.0578,56.1531,-78.9865,-3.4439,-130.6466,16.0736,-125.9729,173.8324,-1.1909,21.6539,-198.3829
-3796.8750,204.5034,-35.7699,145.5573,34.8384,95.8147,-9.8544,39.9993,-74.6139,-62.1133,-186.6710,29.0848,-68.4458,43.5842,-82.8325,-47.5718,-78.1081,150.2071,-23.5955,32.4174,-150.8583
-3789.0625,174.2879,-31.1494,115.1968,4.3724,66.6677,-38.1627,10.8296,-66.0222,-18.8786,-31.1880,73.1288,-96.8021,14.7169,-110.9195,-39.1230,-69.1568,83.6936,16.1043,2.2740,-216.2425
-3781.2500,149.6889,15.0850,125.4459,51.5123,76.1308,9.1318,20.2560,-55.8358,5.0412,15.8890,46.7830,-86.5652,24.4598,-136.4137,7.9259,-95.6136,23.7825,-41.5938,-92.2787,-169.0411
-3773.4375,139.6946,109.9222,111.2997,77.2537,62.1913,-3.9759,-103.7226,-105.0480,-77.2280,-107.4371,107.0426,11.2638,84.8080,-39.3162,31.5697,-34.4681,83.4767,-16.6872,-103.2302,-108.2437
-3765.6250,174.3992,39.4679,149.8533,42.6948,63.9481,-38.3792,-65.0035,-176.5560,-70.1542,-142.0557,145.0062,13.7837,86.8487,0.4793,70.9034,-31.6256,83.8785,-86.0662,-67.4746,-142.7668
-3757.8125,167.7612,-73.3268,141.0653,-69.2062,92.3595,-82.1313,36.3761,-184.4085,-35.1596,-113.0234,100.6171,-31.0472,78.5363,-44.0801,25.8739,-75.1388,75.9350,-56.8022,-4.0721,-113.6597
-3750.0000,166.1895,-5.0565,104.3408,-70.0515,92.8269,-44.8350,73.8019,-146.2163,-48.0930,-111.9507,137.2876,7.1724,79.2759,-5.5935,-10.1140,-37.6109,39.0553,13.5134,-40.6285,-149.5134
-3742.1875,144.8387,43.4339,78.8309,-20.6943,104.5012,4.6567,48.4209,-59.8360,-45.1521,-136.6864,76.1729,19.5819,54.2222,7.0824,39.0946,49.1014,-17.6095,-7.9688,-26.9858,-100.1847
-3734.3750,89.8404,-45.7238,21.6819,-73.9880,46.5364,-15.5064,28.3949,-7.1142,-24.9622,-83.0730,55.4111,-0.6690,33.5251,-12.9028,-17.3545,29.1592,68.0832,-26.1023,94.0138,-83.5159
-3726.5625,135.5981,-36.1226,71.2860,-63.5258,60.3248,-0.9171,41.1198,-66.6430,-77.0930,-179.7142,142.4099,-23.1728,47.5806,-35.1376,-77.0652,-67.0335,78.5370,-14.4805,69.7553,-143.1147
-3718.7500,103.3247,-33.5641,71.8525,-95.1097,98.0757,0.6225,115.7937,-101.2248,5.5659,-67.4124,33.3631,-57.7315,48.5902,-69.4321,-38.8282,-101.2908,79.9463,59.0910,107.4403,-104.7757
-3710.9375,-2.0453,2.8941,2.3231,-22.7975,65.7269,6.0617,83.3659,-22.9141,36.1240,47.7898,1.2240,-53.4000,16.5071,-27.8371,-34.6941,-22.6560,46.2645,95.5692,73.0296,-173.5455
-3703.1250,82.9909,51.7580,16.1973,-8.0870,79.7857,20.8997,97.3477,-8.2075,-22.9580,-85.6119,15.4919,-38.6748,30.8309,-12.8452,-20.1635,-7.6293,23.9832,-29.5508,-18.9848,-158.9360
-3695.3125,206.8455,34.4367,67.8871,-59.5695,21.6487,-73.4594,2.1281,-102.7048,-73.3465,-180.2250,141.5672,-59.1517,119.9618,-33.0564,32.1563,-27.8070,148.5145,-45.8756,-35.2060,-69.5315
-3687.5000,359.3641,45.7796,155.2382,-47.3923,71.1692,-59.1699,-58.4553,-162.5602,-113.6266,-203.1960,228.3068,-118.9773,133.7415,-55.6211,9.1146,-50.3432,159.7152,1.4590,-94.7769,-92.4861
-3679.6875,294.9020,87.1343,122.6026,-5.2114,2.6950,-16.8764,-127.0429,-120.4221,-102.9862,-50.1769,123.0630,-76.8155,64.5217,-50.1992,-95.9251,-44.8944,129.9259,43.7930,-123.3536,-50.4556
-3671.8750,139.1998,142.2459,36.7278,50.7216,-83.0261,8.1612,-176.8833,-58.5469,-78.4411,48.5876,74.5753,-14.9068,16.0575,-25.0356,-107.2151,-19.7048,114.8987,64.8783,-103.1839,-135.6805
-3664.0625,195.6125,127.4727,97.9580,71.7575,14.3578,33.2981,-78.6243,3.4249,-40.3516,36.4455,62.1957,-63.9033,40.6971,-110.7782,-46.4190,-68.4233,99.9847,-18.9268,-152.9168,-184.8245
-3656.2500,152.8419,50.5131,124.0025,30.6016,3.5480,23.2357,-52.5647,-43.8012,-0.1414,26.1023,14.6217,-73.1075,30.1377,-156.7337,17.1605,-77.3520,127.8783,45.0684,-89.8506,-121.1819
-3648.4375,76.3776,113.8720,47.3467,59.7514,1.0381,57.4754,-56.2109,-8.7280,-8.2914,24.0553,12.3542,-39.0181,-9.1194,-85.3929,15.0245,-79.9900,51.0804,74.3796,-96.4839,-197.2555
-3640.6250,38.7214,77.0438,41.4967,58.7045,32.3338,90.5188,-24.0491,23.1428,-3.3408,55.8028,6.8912,-44.1333,22.4275,-16.2620,-27.3134,-10.8391,13.0777,-32.5062,-63.3188,-128.5510
-3632.8125,2.8161,-30.0283,38.3985,-12.5958,29.3815,14.3124,-27.1250,20.7614,-49.6790,-56.7011,78.1790,-9.5067,93.7286,18.6094,-65.9029,24.0545,46.8320,-32.6348,40.5992,-94.1065
-3625.0000,65.0684,-107.9371,104.4516,-89.7429,95.5845,-29.7441,37.9458,-23.4685,-26.5128,-101.0408,70.6246,-52.7386,123.1718,-25.3714,-0.3481,-19.9017,38.7426,-74.6106,67.6587,-101.5298
-3617.1875,-6.2172,-145.3858,62.9680,-91.4399,90.2511,-33.3547,106.4673,-64.2505,36.7957,-68.9314,29.5246,-57.5248,155.0686,-65.9118,68.6553,-97.4190,37.1102,29.8560,101.1601,-32.5089
-3609.3750,-45.1428,-8.4797,24.8418,47.2075,53.2716,3.3786,32.3301,-63.6903,8.2479,-32.4784,65.7883,-20.9635,118.3290,-29.1062,-5.0027,-96.5956,32.8404,97.6815,98.0054,-106.1417
-3601.5625,-34.6076,36.8932,35.1742,93.3113,26.7434,51.5570,79.6351,20.3170,12.2950,-21.5690,-33.4868,27.0429,-17.9537,19.1469,-67.2166,-48.3224,-26.9771,38.9518,108.2880,-95.3381
-3593.7500,-112.9638,-5.6192,-45.3836,51.5153,-16.6864,44.8314,35.0338,124.4269,31.9390,45.4485,-77.6614,-16.8543,-62.1360,12.4987,-111.3314,-18.9521,0.3128,102.3184,205.6671,-102.4351
-3585.9375,-41.2592,30.9358,-41.8865,17.7720,-13.0687,50.1548,113.4670,165.5844,43.9413,50.5117,-36.7747,-85.7021,-58.2691,-56.1016,-106.4095,-50.5354,-34.3337,68.7483,136.0950,-171.4950
-3578.1250,-53.5951,17.4570,15.5721,-30.0198,-28.4971,34.4299,133.8533,149.6887,38.1258,-2.4844,-51.9321,-63.6094,-73.4502,-70.7667,-85.5403,-29.1890,22.9786,22.1256,123.4707,-113.6186
-3570.3125,-30.7212,76.1839,-31.7575,29.3900,-39.7213,61.8991,49.4430,139.9822,-4.4797,24.7108,-25.8793,-0.3256,-83.4254,-44.2465,-132.4736,-1.6589,46.5111,45.7006,41.0521,-160.5517
-3562.5000,22.2754,129.0293,23.0308,117.9071,-57.8351,80.4684,-6.8615,121.3669,-13.3802,79.9992,-44.7142,-18.9490,-29.3002,-62.6351,-114.3227,-20.0393,28.1548,-41.6250,-117.2735,-142.3996
-3554.6875,92.2943,163.8893,54.8319,82.4270,-63.9438,2.0365,-86.1692,6.7495,-75.1960,1.2836,60.4501,-23.5764,39.8239,6.9665,-83.1769,12.5687,62.8052,-40.9481,-188.6067,-37.2477
-3546.8750,180.0149,251.4693,107.3326,100.6516,-11.3566,-18.6983,-105.7856,-51.1716,-118.1853,-93.7295,77.3196,-7.5056,18.6452,23.2643,-67.3301,28.8713,45.1605,-93.5634,-206.2420,15.5950
-3539.0625,103.1435,209.4686,22.2356,59.2799,-58.3630,-29.0329,-43.9959,-60.6933,-52.7143,-66.3448,-7.4106,17.9548,-28.1295,-24.0463,-4.0908,-18.4402,3.9158,-62.7865,-107.4763,114.8279
-3531.2500,-14.0732,127.1269,-61.2050,48.5552,-68.7164,-39.7249,-54.5536,-35.5690,-13.0229,-4.3080,18.5134,45.0551,-39.2462,39.2848,58.7915,7.8922,-9.6674,-5.3596,-85.0627,67.7093
-3523.4375,66.0743,31.1464,-15.2863,-12.8169,14.2859,-28.0638,28.2287,-24.0997,-19.4585,-66.9159,29.7983,19.5021,44.9826,50.9608,70.0158,56.5677,-69.8864,-30.5805,-75.3025,41.9309
-3515.6250,6.9773,-62.0817,-4.6104,-105.4376,61.0381,-53.6552,37.7608,-13.8755,-5.6918,-55.7660,39.8304,-43.3018,54.9586,24.3798,42.9804,66.9845,-59.3540,52.9458,5.2107,88.9028
-3507.8125,-57.6718,48.1537,-68.4884,-64.6068,35.2329,-42.7948,11.7395,-2.1957,7.9576,64.8462,14.3139,4.3439,29.3783,36.2464,-19.6181,41.8470,-89.3662,58.9343,11.1698,-10.6819
-3500.0000,-99.9118,39.8183,-77.9621,-1.3665,24.8325,-15.5317,38.1153,24.8867,24.1486,91.8563,-69.8007,31.3862,19.1960,63.5074,-29.8213,32.1062,-132.9767,-18.6757,1.5178,16.1240
-3492.1875,-165.6480,9.9958,-108.9300,4.3742,-7.0654,-9.7760,5.9861,30.4620,35.9976,61.3583,-100.4081,73.9231,-49.4827,69.2607,49.4729,74.8559,-128.0723,57.2142,6.3679,21.4302
-3484.3750,-161.6703,13.8852,-104.1844,8.8107,-1.2531,33.6723,11.5599,36.7263,47.6769,103.5563,-95.3044,43.1509,-43.4580,38.7026,55.4606,44.2926,-159.4537,61.7996,-60.0803,-9.5782
-3476.5625,-151.7274,22.7344,-97.4742,-16.8020,4.5168,40.0679,17.0875,5.9346,-0.7105,-0.2987,-15.2464,12.3245,-0.4829,45.0840,24.3930,87.6670,-114.8731,37.3315,-49.5829,70.3575
-3468.7500,-85.2314,55.1422,-64.2119,51.1352,37.8394,74.0062,-58.8393,2.6898,-56.1389,-40.6034,55.3687,46.0471,70.0459,79.0120,-16.1344,84.5863,-47.7314,34.4165,-89.5331,66.8371
-3460.9375,-18.1697,16.1105,-34.3916,47.6239,-4.2831,67.4931,-66.2149,32.9902,-22.6601,26.6326,12.5390,3.3092,63.1301,35.4849,14.8804,78.0489,-87.0308,31.0451,-127.9328,133.8550
-3453.1250,-64.3037,4.8889,-82.7640,1.9104,-126.6051,56.7743,-114.7893,59.0895,13.0696,163.6748,-34.4898,28.3645,-19.9921,61.7445,3.6951,104.2965,-98.5175,126.4747,-139.5281,122.6690
-3445.3125,-43.9324,130.1861,-96.6312,92.6993,-140.4250,80.5513,-128.8685,82.6896,20.4414,223.2251,-49.0163,88.9187,-107.6195,85.4966,-11.0002,54.0349,-149.4981,111.4098,-190.6253,71.9655
-3437.5000,-82.7045,162.3536,-103.6422,89.3422,-183.3878,37.1833,-135.0896,39.1417,23.3809,216.6230,-54.6935,82.3191,-77.3970,42.0924,-15.8464,47.6153,-117.6322,38.1911,-123.8799,139.1074
-3429.6875,-52.6798,121.3320,-105.8574,49.7834,-149.5537,-38.3862,-138.5169,-36.6065,-12.7352,104.8282,15.4299,43.5252,-7.3734,40.4872,17.1042,45.9970,-18.9647,-2.2262,-95.3293,63.0545
-3421.8750,83.8009,47.7695,35.3754,11.6672,-43.2703,-77.5160,-32.4937,-39.9021,-6.7555,26.5015,48.0064,-33.8217,62.1000,-0.6701,49.4966,4.8211,13.1486,-73.2014,-133.3284,95.4441
-3414.0625,114.1392,43.0642,64.4692,8.3954,-52.1364,-85.8011,-78.6146,-84.3475,-29.4504,19.0209,113.4330,-41.3240,127.4245,-43.9857,5.7361,-38.5107,8.1208,26.6674,-103.4755,160.6898
-3406.2500,85.0327,119.9248,35.1181,13.6769,-44.4501,-77.5395,-71.1893,-39.2485,-11.0934,26.0731,84.4157,-70.2757,61.2981,-35.7535,48.5251,-67.3002,-91.3396,-1.9075,-98.0688,131.4822
-3398.4375,17.0820,85.9447,-40.0806,-18.8949,-82.6101,-42.1261,-36.6087,-3.9996,6.4173,-10.7253,-26.4602,38.9207,-12.6820,-0.3761,84.4650,-31.9460,-125.6501,-34.3359,-26.5071,203.4190
-3390.6250,-48.6206,90.2200,-71.0316,21.7798,-113.5286,-35.4611,-30.7809,2.5066,4.5372,31.7451,-20.0837,80.3651,-43.4165,78.2462,17.6437,-25.3447,-85.7111,6.4892,-22.7016,172.6079
-3382.8125,-39.1583,99.6715,-59.8285,-3.3932,-103.2995,-23.6498,17.1850,13.1649,37.2215,116.3834,-45.5485,18.9522,-32.0029,53.0082,-8.0360,-13.6050,-146.6205,-54.5374,-13.7535,146.9442
-3375.0000,-180.3946,-4.5718,-170.3165,-39.2696,-139.7640,-60.5449,16.4555,49.1231,58.5867,116.3216,-82.7151,-17.1704,4.7101,53.0574,27.5812,58.4204,-147.2196,15.7321,55.5034,146.5871
-3367.1875,-149.2452,24.5895,-173.4113,-8.7505,-106.8258,8.9536,48.1347,83.4736,64.0949,150.6600,-85.4876,52.1090,0.8184,50.5054,23.5991,55.8432,-187.4091,-23.5919,-18.8275,106.6216
-3359.3750,-131.9973,78.8649,-161.3986,44.8779,-93.7825,23.5525,24.9178,96.9227,60.8537,163.1013,-146.1638,138.4857,-58.9757,101.0513,0.7131,70.3625,-170.4979,-74.8217,-2.0695,229.7467
-3351.5625,-158.9464,15.9518,-188.5783,-16.6909,-120.9413,-40.0517,-39.5026,106.1674,47.3192,173.3422,-63.0356,111.6601,-49.9716,110.3878,-26.3842,79.6712,-127.7703,-31.2490,76.4894,202.6747
-3343.7500,-98.1421,-99.1959,-121.9991,-96.5060,-17.3432,-82.9077,62.8249,63.1629,66.2946,93.3305,-32.1518,-40.4240,16.7820,30.4664,39.2627,35.7207,-137.2868,-110.9193,99.7965,122.3418
-3335.9375,-144.4830,-110.4913,-98.5595,-72.4734,6.1131,-58.9100,86.0096,50.0147,51.7069,43.1673,-45.4189,-16.6652,-32.6177,-17.6153,-9.2448,23.6124,-43.9459,-15.7459,87.9608,145.8574
-3328.1250,-128.9771,81.0687,-77.2677,49.4067,-11.5804,34.9335,-3.9564,34.7152,-27.2809,-9.1394,-61.8410,76.9483,-85.1787,39.1502,-98.9066,7.3465,6.2559,70.2820,-2.0139,56.2176
-3320.3125,-70.3114,104.7973,-17.8172,108.4400,11.8790,58.9253,-52.7666,21.5668,-25.9035,14.7170,-38.1199,63.7075,-61.5986,26.0580,-75.4279,-5.7822,-5.3869,-11.5520,-13.8438,79.7175
-3312.5000,1.7602,-34.0592,-15.9590,39.8730,-22.2597,24.3110,-51.1795,-13.1809,-8.0326,-20.0219,37.0011,-8.1305,-59.6168,-8.6388,-1.5556,-3.5128,66.3757,26.0095,22.7250,81.6259
-3304.6875,101.1817,-40.5570,52.2474,-1.3466,45.9518,20.0426,-21.2467,-54.5795,-19.2254,-61.4114,32.4780,-49.6170,-65.2810,-49.9838,-6.3372,-44.8965,60.4913,-15.0784,15.6477,39.8800
-3296.8750,91.7032,-13.9495,76.5600,25.5241,-2.7363,7.8706,3.7938,-28.8785,-9.9440,0.2950,-15.9427,-24.0093,-76.8489,-60.2384,-91.0224,-55.1909,85.7065,11.9272,6.6713,101.2340
-3289.0625,80.7821,45.2170,29.4286,49.9389,23.1298,-1.7590,-79.6158,-2.6316,-42.1639,64.5511,-26.8074,39.1425,-86.8703,-34.9485,-175.1610,-29.9419,74.4823,36.4840,-5.7540,54.1422
-3281.2500,111.5705,76.0946,60.0098,45.0538,16.7067,-7.6893,-49.3264,-8.6901,-45.8834,-15.4942,-104.9671,-4.0046,-93.1888,-3.9612,-107.5962,-34.9965,68.9601,-38.2632,-44.4870,84.7498
-3273.4375,88.5036,89.1220,-0.2585,23.3113,-6.5636,5.5251,-73.8847,-31.5965,-51.7318,-74.3835,-128.9842,45.9990,-117.3547,9.1692,-57.8741,-21.9088,117.5857,45.1357,1.9339,97.5186
-3265.6250,72.0268,141.7561,-16.9381,77.1685,-23.2428,27.3346,-53.8443,-10.9004,-50.8385,-54.6663,-107.4009,67.6037,-132.9258,30.9009,-74.5522,-1.2248,64.8051,29.1377,-16.0455,44.8872
-3257.8125,-22.8536,81.9995,-81.0186,51.6208,-50.3206,72.7420,-45.1984,34.3973,6.7752,27.6601,-173.2262,38.8049,-161.8992,2.2251,-65.6236,7.0549,73.6170,3.7271,99.5779,89.8627
-3250.0000,-117.3433,57.6465,-102.7060,63.4628,-36.0025,15.5456,-31.1525,51.0987,22.4605,44.3981,-120.6544,18.4124,-145.4769,-18.0520,-51.2896,-13.2637,49.8382,50.7208,109.6026,-4.7524
-3242.1875,-17.6658,18.4703,0.7628,24.4600,31.4626,9.4968,36.0370,44.9479,19.0711,1.2876,-89.9263,-24.8298,-78.9073,-24.1828,-20.8181,-19.4405,9.2120,-24.1416,34.7721,25.7781
-3234.3750,-59.3267,10.9574,-45.1153,-17.8970,-15.4243,-36.9108,-11.1251,71.4459,53.5888,101.8299,-62.5526,1.5758,-51.6936,-33.6699,5.2998,-28.9742,37.2397,4.6302,61.5916,88.9671
-3226.5625,-81.4934,58.9557,-67.4960,-40.7532,-37.8151,-58.8215,-33.7943,87.4411,46.2372,153.8770,-11.6774,17.4850,-73.9835,18.3428,-16.0836,-14.0049,-21.2272,-53.0939,38.9128,30.6553
-3218.7500,-66.9114,74.7158,-17.1169,-58.8537,-23.4511,-79.9802,16.2879,64.1922,14.5711,57.6761,-34.0538,31.1414,-59.5223,32.1025,-38.7212,-0.2930,-5.9416,-71.0702,17.9793,81.0939
-3210.9375,-54.3854,17.4260,-1.7865,-82.0066,-8.1412,-101.1917,-4.6794,-30.1054,38.5308,74.4261,55.5133,-26.2597,-8.1148,-25.1993,13.5941,-57.6392,42.3032,46.9081,66.0054,23.4900
-3203.1250,-15.7639,-49.7551,41.6433,-43.0601,-1.7330,-21.3035,74.4565,-23.3071,91.4464,80.2874,25.1761,-56.5622,-38.6204,-92.4066,93.0109,-124.8951,9.6478,14.9814,33.1393,-44.0194
-3195.3125,-68.3459,3.8700,22.8773,10.6833,-20.5219,-2.6186,56.4041,-4.7079,55.3958,61.9570,-30.3725,-1.0610,-57.3345,-36.8181,1.2226,-69.3556,27.7932,33.8437,51.0714,-25.7217
-3187.5000,-1.9321,69.5004,20.1109,41.4268,-23.3122,-4.9412,16.3477,28.8957,-18.8377,22.6307,4.0824,32.4397,-60.0499,33.7696,-112.5752,2.1866,22.9462,29.7053,11.0085,-65.4209
-3179.6875,42.7385,-26.6214,62.6064,-19.5869,19.1540,-36.0171,58.5415,-1.2497,10.9260,-7.4527,-27.2086,-34.8136,-54.5122,3.6031,-33.1241,7.9745,67.3570,-31.1947,20.2009,14.1297
-3171.8750,-19.0461,-87.2001,36.6585,-80.0624,30.1719,-24.5513,69.2921,-26.8451,32.4038,4.0249,21.0492,-60.5180,-43.4304,-22.0225,14.8786,19.3032,41.3211,49.4540,28.9557,-11.7594
-3164.0625,-66.5418,-28.4698,26.0078,13.7555,19.4936,38.2123,21.3520,-0.1385,23.8936,29.8078,10.6001,-33.9174,19.9476,-32.3512,40.1852,8.9248,-41.4211,2.4029,-53.9827,-59.3473
-3156.2500,-74.7417,-37.4343,13.6496,5.8704,-29.8893,27.2808,8.7128,24.8738,18.1100,18.8877,-38.5606,64.9878,-29.3748,29.6205,28.7955,-3.1534,-15.8664,-41.3555,-28.6181,2.3771
-3148.4375,-3.2063,-35.6544,16.0348,6.7331,-27.5260,-6.8983,-26.1861,-9.3611,-19.2079,-52.2727,1.0259,66.6410,-63.9505,105.3437,67.1567,72.5200,-14.5565,-75.3555,-63.4957,-32.1387
-3140.6250,31.1755,-71.0227,49.2757,-28.5598,5.6921,-10.2241,6.7717,-49.7382,-19.4521,-91.5686,-2.5396,27.1393,-30.6824,65.9078,101.3700,70.0383,-50.3984,-108.5077,-97.5223,38.1948
-3132.8125,15.4003,-50.5350,-6.6397,-43.0079,-13.2390,-28.7044,-48.4100,-67.2615,-41.9570,-73.0078,51.7346,44.4940,23.4290,83.3203,81.4352,124.4013,3.6005,-53.8192,-114.6939,92.3929
-3125.0000,15.7558,90.1148,-6.4194,26.6916,-13.0313,7.9644,-122.4466,-30.6311,-70.5527,-72.2828,52.1522,82.0094,60.6796,120.8891,81.6445,124.9207,3.7391,-123.9798,-149.7109,92.7441
-3117.1875,-24.5516,-20.8852,-14.8573,-48.2582,-21.4783,-36.0147,-131.1278,-1.6362,-42.5399,-44.1866,7.9041,109.8803,16.2723,111.8093,72.2045,115.7956,34.2128,-163.7976,-15.3778,157.4551
-3109.3750,-31.3765,-98.3932,-55.8078,-125.7227,-26.4264,-76.4998,-62.3078,29.8653,-4.4017,-48.5773,2.1476,69.2450,10.3681,108.2267,105.2731,112.1683,60.1894,-136.1081,82.4701,79.6758
-3101.5625,55.8436,-79.8506,34.2929,-177.1429,27.6801,-131.9385,64.5778,11.4179,25.8830,-29.9219,20.4464,-22.3443,28.5157,52.6823,86.3949,56.5795,43.2169,-222.3821,64.3735,97.9431
-3093.7500,34.0134,-101.3566,-23.6471,-198.6179,-30.2579,-153.4304,5.4178,-46.0816,36.3973,95.6759,72.6894,-43.9833,80.6117,31.0799,27.4667,34.9373,56.1998,-103.7186,78.2336,76.1730
-3085.9375,57.1772,-78.8558,5.4131,-141.0921,-1.1997,-87.9228,-38.7508,20.4151,14.8877,88.2761,64.9368,-14.6154,36.6969,24.4802,20.5331,28.2983,44.1900,-45.0546,-4.9011,-41.5934
-3078.1250,41.7474,-93.9434,59.8825,-86.1640,16.2599,-33.0146,-21.5150,38.3174,-9.5474,-77.7238,46.5782,3.1570,17.1805,42.2768,74.9956,9.0525,63.5818,-26.0000,14.3595,13.0451
-3070.3125,-32.3881,-61.7241,58.6561,-53.9346,52.0196,4.1894,-58.9799,-35.4838,-14.1737,-114.4253,82.5165,-33.7713,16.9612,5.3724,110.7570,9.1063,94.2776,76.3629,44.9257,-61.0047
-3062.5000,-61.0849,-55.0497,31.8751,-12.2516,62.2283,50.8459,24.0035,-25.8317,5.6255,-103.6680,18.9005,-60.2472,26.1841,-22.0840,83.9779,-18.3912,30.4108,49.1787,51.9386,-124.6094
-3054.6875,-152.0465,-109.6275,-25.1567,3.1817,42.1824,68.2512,3.7393,-8.4264,-13.3148,-50.1518,-0.9659,-6.9630,43.1572,-4.7962,-47.0415,35.8565,46.2854,134.7330,101.6984,-144.4573
-3046.8750,-103.0651,-95.2499,31.7650,52.5621,99.0819,88.6017,23.4200,11.9288,-24.9490,-28.6840,-16.8822,-22.7258,26.0808,-20.5559,-137.1120,-53.9463,59.1166,149.2300,80.4093,-271.3479
-3039.0625,-68.5785,-60.3695,103.1993,87.4333,133.4860,86.4452,94.6008,-26.2149,27.0776,6.2903,-19.3010,-61.9920,-12.4935,-133.8195,-102.6783,-166.2521,58.4483,78.2133,78.6152,-236.7299
-3031.2500,-67.4974,-23.8972,66.2310,88.8957,132.4871,49.8852,57.3819,-26.7572,44.3648,5.8674,16.8741,-62.6577,-13.4732,-97.4829,7.3597,-129.9529,24.3808,79.7981,79.4315,-200.4950
-3023.4375,-0.5287,-62.5292,96.1574,86.2537,126.3866,80.2234,87.0686,40.6070,26.1792,-73.6555,-27.0557,-32.4215,-20.5609,-66.2446,0.3074,-99.7509,20.2072,-28.7186,111.1553,-133.3577
-3015.6250,-9.3701,-106.9708,81.2842,6.8019,74.4862,29.7578,71.9670,27.1759,-2.7461,-124.9688,-40.7924,-8.9853,2.5492,-6.8144,-50.5406,-40.3559,81.2299,-2.0496,207.0852,-37.0078
-3007.8125,24.8267,-71.3589,47.4524,-28.6073,77.6347,32.3332,111.9141,29.7903,13.6069,-47.2198,-1.4754,-6.4965,4.7139,-40.3357,-84.3316,-36.9150,81.3049,32.6651,171.0663,-107.5968
-3000.0000,27.3261,-68.4329,84.9231,-25.7208,78.0820,-2.7929,149.1636,30.7039,35.4270,-9.1707,0.1412,-41.7053,42.1752,-113.5549,-83.8119,-110.1748,12.6815,-34.3290,138.3445,-69.8786
