Time,Fp1,Fp2,F3,F4,C3,C4,P3,P4,O1,O2,F7,F8,T7,T8,P7,P8,Fz,Cz,Pz,ref
-4000.0000,25.1027,-11.3469,30.7334,-13.3239,17.1080,-49.7209,-6.7967,-71.5800,28.5247,-46.7327,67.2774,-47.9696,40.7110,-74.8479,54.4641,87.1352,0.0956,-46.4531,-20.8984,7.4447
-3992.1875,41.5275,-31.5939,13.6351,-33.4217,0.0018,4.4314,49.7494,-16.5266,11.4295,-28.3321,124.7128,-118.4932,96.9011,-244.0677,73.9209,147.4570,-54.6171,-65.9112,30.3159,-47.2874
-3984.3750,-48.2029,-156.9986,30.3912,-52.6737,16.7527,56.4197,66.1548,-1.6148,65.1861,-13.0799,-42.0098,-228.4924,113.9494,-451.5231,91.2339,388.7243,-3.4824,-50.5227,116.3897,-31.1732
-3976.5625,60.5504,-48.9145,-1.3522,-15.4367,-14.9895,22.8863,34.0696,1.7984,33.4563,-9.3215,-37.2330,-171.1520,82.5057,-377.5482,97.0607,396.5794,-35.8541,-83.6377,48.9735,-63.5626
-3968.7500,60.3054,-14.8309,33.9083,-16.2042,-16.7253,-17.6689,32.0012,-38.7911,31.7354,-49.5648,-37.4537,-120.5706,45.0656,-272.6350,22.8969,288.4986,69.7746,-120.7565,48.5627,-28.9639
-3960.9375,33.1483,-6.6690,41.2773,27.1213,-45.3500,-48.1336,-70.9572,-70.2779,2.1246,-43.7164,117.4128,-98.1075,15.7297,-232.6904,-43.1647,299.5974,77.5123,-77.7705,-13.7305,14.7274
-3953.1250,143.1360,101.6357,45.7930,65.5971,-40.8177,-45.4535,-103.7560,-103.6118,-29.3382,-40.7224,196.4317,-84.4815,-16.4524,-306.6601,-111.0708,307.9374,46.3863,-74.6299,-79.8673,18.5533
-3945.3125,61.4647,54.2795,30.6626,54.4123,-19.9250,-62.4289,-83.1875,-120.5887,-8.4456,-20.3827,33.7943,-88.3186,-68.2734,-290.3477,-126.6180,406.6984,70.6077,-16.1417,-91.6401,112.7211
-3937.5000,83.0271,75.1553,-58.2220,110.4666,-34.7723,-79.1675,-61.3521,-100.3123,-60.2863,36.2064,-89.6080,-23.1227,-118.8377,-161.8609,-29.8911,469.7834,-82.9162,4.5977,-140.1490,134.1343
-3929.6875,82.3920,73.8355,-59.3064,3.3182,0.1873,-119.1222,47.3014,-67.2352,11.6710,33.5922,-128.2134,-106.1100,-10.5985,-315.6486,42.6448,361.7506,-48.6462,-31.8575,-35.8510,168.3318
-3921.8750,-14.8097,12.9625,-49.9377,-93.3873,9.6105,-148.6440,56.4179,-96.7042,58.0829,41.4240,-8.3771,-195.3491,110.0968,-422.0534,89.6270,338.2485,-39.9179,12.1427,42.9072,176.9704
-3914.0625,51.0321,42.1395,-49.5168,-64.0430,11.0925,-76.1333,20.5929,-61.1235,-14.4553,-33.6947,66.5192,-177.7159,110.8473,-425.4676,16.6660,379.8721,-10.1433,5.1900,38.7171,66.6453
-3906.2500,-80.5204,-126.0900,-0.4933,-20.0981,60.1799,6.9606,-4.6153,-50.9382,-38.3894,-96.2093,-30.9975,-153.6288,50.1994,-307.3436,-43.6880,434.1596,104.2320,48.8316,118.1332,4.9107
-3898.4375,-79.4877,-125.7277,5.1264,51.4422,101.8741,120.6393,-36.2131,-10.1463,-70.7140,-129.1215,48.0660,-107.8255,-17.8457,-270.6834,-74.4297,407.1193,35.2062,49.0767,84.1647,-64.2278
-3890.6250,19.8414,-26.0660,35.0466,44.2814,58.8753,185.6033,-79.5001,53.9569,-113.7406,-63.7269,4.4287,-63.9188,-61.5838,-245.7973,-153.8629,330.4510,-6.5247,42.6181,43.5080,-35.0817
-3882.8125,-95.2400,-71.8229,-15.4251,34.7132,44.4873,206.1491,-131.1722,75.6644,-91.1612,31.2675,-118.6133,-14.1326,-148.7110,-80.3884,-167.6954,321.4619,-15.6412,102.7565,33.4675,60.6569
-3875.0000,-76.3256,-53.5805,-30.8972,88.1440,-6.8906,225.6721,-146.8383,58.3718,-143.5809,14.2610,-60.6533,-18.5285,-163.8363,-138.0377,-108.5206,383.5508,3.2444,120.8983,-17.5728,44.3831
-3867.1875,-107.5543,-190.4854,83.4874,56.4310,33.5867,191.0334,-105.6451,23.9287,-102.1543,-19.8967,18.1496,-127.1413,-122.1065,-322.8946,-213.4933,392.5504,147.9781,158.8858,56.2439,47.9463
-3859.3750,-98.4431,-182.0582,133.2218,100.0610,46.4202,164.7307,-130.0918,34.8405,-163.3648,-45.7003,104.2887,-83.1319,-183.0247,-242.4687,-274.1089,446.9688,86.0688,202.2279,29.4266,-14.1447
-3851.5625,-70.4762,-120.7830,126.8034,127.5388,77.1072,193.2692,-136.6730,99.6128,-169.7268,-16.6479,-122.7353,0.2000,-262.0937,-107.2619,-243.8622,408.3181,78.9989,124.4221,58.4688,-21.4002
-3843.7500,-192.9154,-172.9067,31.9846,74.6101,92.4001,133.3980,-84.6363,76.9949,-80.4839,34.0093,-253.1781,-2.2020,-208.5611,-23.5130,-154.0205,318.3381,96.5284,141.2174,76.1194,66.9362
-3835.9375,-119.0147,-99.6869,-35.4814,43.0282,62.0481,26.8709,-4.2479,44.7327,-110.8906,76.0214,47.7287,-68.3118,-92.6778,-169.4557,-72.8267,292.7663,-4.5931,109.3675,-24.8757,35.6141
-3828.1250,-204.2663,-80.6191,-15.0977,-7.7026,45.5517,-27.8110,126.0005,26.3314,-53.4543,57.8854,-5.5221,-165.1943,38.0568,-412.6072,-14.7806,392.1018,15.1349,93.3767,-5.0086,55.1263
-3820.3125,-234.1376,-41.1745,-83.3136,-39.0345,15.4656,-97.1004,241.6596,-6.6541,26.3874,62.1526,-145.3959,-144.9153,81.1931,-338.4161,211.6606,328.9140,-50.7290,62.7962,0.2716,60.0274
-3812.5000,-210.4644,-18.1739,-130.9876,-85.8144,4.9352,-72.8473,341.8751,17.9187,51.7802,86.9769,-119.7278,-115.3182,144.8806,-244.7312,275.6578,139.3478,-202.0504,50.7683,-10.8932,48.4594
-3804.6875,-362.5458,-204.9274,-143.4037,-167.3448,-9.3353,-15.3587,327.3546,75.7505,148.4281,71.0511,-23.8257,-169.0931,204.8271,-190.8630,188.9071,167.0866,-248.1136,73.9863,83.2087,107.1301
-3796.8750,-318.9346,-127.9950,-170.1191,-195.1824,-72.8914,-8.1915,300.5453,121.2887,195.7819,116.8263,60.7686,-189.2524,141.4756,-259.3480,199.8630,256.5844,-346.4714,45.9086,91.0248,79.4905
-3789.0625,-303.8726,-113.6110,-154.3828,-215.5685,-93.9899,5.4134,279.2057,171.2845,248.5808,131.0538,-143.1903,-206.1889,120.5770,-323.4375,179.2685,240.5943,-190.3842,24.2787,177.2946,94.2838
-3781.2500,-275.7228,-121.1384,-88.5400,-222.8515,-62.9800,-2.8927,125.9749,127.3854,168.4834,86.3850,-76.0711,-123.9555,41.7779,-77.4835,99.7704,165.7665,-92.1853,87.7519,170.6729,87.1725
-3773.4375,-128.3199,-8.4119,-39.4479,-110.8732,-50.7190,80.0412,26.9958,99.7384,-3.3676,95.9630,9.2958,-63.6631,16.2211,-109.3183,-34.4772,109.2426,-48.7318,94.4748,72.2991,24.2997
-3765.6250,-78.4547,-30.2371,13.0988,-96.4430,1.9941,93.4167,-67.5228,77.5489,12.2330,109.9892,-157.9079,-140.1621,-40.8848,-319.7469,-18.2734,241.2107,106.1741,108.6452,87.3891,38.8668
-3757.8125,1.1010,48.6366,25.3421,-17.3179,14.4091,67.4843,-54.3312,15.0711,-48.4612,84.7256,-146.4366,-86.6640,-101.2938,-276.5297,-5.3644,332.9428,80.7789,81.5210,-8.8069,-22.8722
-3750.0000,8.6611,20.5159,72.5774,-45.1987,24.8211,74.5475,-8.1303,22.6086,-75.1587,19.4719,-24.9760,-59.4199,-54.7032,-162.3661,-31.4551,200.7451,53.3705,53.4048,-35.9935,-50.6259
-3742.1875,-114.0914,-173.9239,90.5051,-98.3839,116.9384,90.3077,9.7845,2.8627,-21.1472,-0.0785,103.1668,-80.7628,0.5879,-39.5459,-12.8528,4.2974,34.6686,69.9944,16.5377,-33.6854
-3734.3750,-128.3507,-188.8694,41.9275,-113.0679,104.5591,113.5598,108.2075,62.6282,4.3640,22.8769,54.8015,-94.2084,26.3814,-58.2578,86.2561,34.3929,-84.5360,56.0846,73.5777,-83.2561
-3726.5625,-294.7520,-285.9556,14.1978,-139.9041,114.0329,157.6501,154.4883,107.2553,123.7245,30.6882,-193.7301,-162.5921,73.0269,-165.1658,133.2212,233.3761,-5.8895,64.0215,117.4763,-74.9882
-3718.7500,-288.1169,-243.9928,24.5167,-97.6920,87.5597,165.7753,127.8230,115.9406,97.1385,39.5601,-72.2358,-128.6006,46.7207,-124.0602,107.2349,249.4688,-33.1917,36.0168,55.4301,-102.6773
-3710.9375,-92.3860,-154.9289,79.9318,-113.3720,107.1878,181.9918,73.2636,95.7365,79.6462,19.5449,19.3438,-103.3173,28.5108,-111.8955,-20.6510,89.7260,-13.4019,-50.8816,4.4793,-48.2829
-3703.1250,-33.8643,-166.0763,28.1455,-161.2491,92.6226,128.0020,21.5157,43.3453,101.9536,4.3412,-68.2893,-135.1936,-21.8972,-132.9794,2.2575,117.8172,116.1972,7.0253,63.3410,9.9050
-3695.3125,68.6048,-65.2745,-5.6897,-94.1738,22.0131,91.9556,24.7204,43.9164,31.2057,-31.9093,-28.9746,-43.4642,-56.3542,10.8540,43.1131,52.8862,77.7474,38.8942,-8.8432,-98.9682
-3687.5000,-3.3669,-137.9155,30.0309,9.4620,20.9599,125.4534,96.4818,41.0508,29.9988,2.3863,-66.1270,-5.1095,-57.2676,40.2073,-31.4918,-52.4608,75.8528,106.3144,-46.4695,-101.3058
-3679.6875,-87.6390,-116.8550,-58.5460,100.7986,6.6093,145.6429,45.9503,98.8915,15.4912,60.3789,-43.6119,-16.4236,-71.4873,-91.7831,-8.4032,48.9408,-43.3278,197.4408,-94.3793,-79.9491
-3671.8750,-71.3084,-66.1899,-114.5283,116.7391,-50.1390,160.4239,100.0295,151.3423,-4.4174,75.9798,-174.5103,-15.3046,-90.1135,-154.2042,46.2825,108.9855,-61.9138,178.1691,-77.6809,-64.0099
-3664.0625,-252.5325,-177.0850,-160.0593,40.1263,15.5641,112.6543,165.5724,141.2605,98.1301,103.0428,-291.9847,-32.2917,-61.2972,-58.2048,75.4104,107.5096,2.9521,137.3527,57.4828,0.3690
-3656.2500,-249.4691,-176.6795,-192.3051,-63.1868,20.5637,42.1838,243.4203,107.4996,139.9792,143.4173,-177.1786,-90.4765,16.8144,-96.9221,117.8332,81.3761,5.1083,32.8452,200.9539,-32.9589
-3648.4375,-260.4474,-292.3136,-129.6060,-179.5479,120.5079,-8.3348,343.2213,131.7045,201.7702,130.7522,-187.4358,-185.2308,79.8696,-188.7179,107.1991,2.2278,65.2103,-12.7052,297.3803,-8.3491
-3640.6250,-325.2814,-357.8123,-86.7576,-174.7559,163.6048,32.2958,312.1796,173.0721,207.7115,61.2366,-145.5676,-176.9840,49.0725,-152.3896,76.7122,-58.7438,70.4813,26.9024,302.9703,-3.5968
-3632.8125,-111.5124,-144.7058,-78.3084,-101.3484,135.3056,38.5237,283.7386,143.0502,106.2427,32.3260,-137.1187,-90.6148,-15.1332,-150.4880,-24.1760,-154.0853,74.3540,30.1229,271.1598,-106.2621
-3625.0000,-99.2426,-63.0965,-24.3577,-53.4314,115.5110,126.2503,190.8028,121.5437,49.2682,-26.0750,-120.1925,-26.1415,-34.8355,-103.1185,-190.5653,-131.9093,122.7295,76.8465,248.8534,-164.4400
-3617.1875,-26.8281,8.6598,19.7380,53.6355,86.8680,169.1154,88.0151,164.1999,-89.5569,-20.3147,70.8775,43.7316,-64.3829,-28.6164,-219.8083,-44.5585,-16.7446,78.7207,110.7023,-268.4755
-3609.3750,-62.7013,-27.8731,91.5309,52.4086,84.9213,-19.3239,158.9318,197.5677,-54.6919,-22.8481,31.6403,34.8354,7.7651,-0.4313,-147.3607,-113.4784,-17.5271,41.2941,110.2509,-234.8234
-3601.5625,-114.8344,-45.6600,70.0709,69.9344,100.7164,-446.0139,138.5984,175.7049,34.9242,28.3862,-25.8819,43.6469,97.6543,118.4962,-20.1729,-201.6249,1.4468,59.6279,129.5567,-146.4261
-3593.7500,64.9807,28.5150,38.5509,108.4248,32.4536,-664.7567,106.2152,178.8044,2.4847,31.5857,-21.4767,42.4107,102.4811,116.3686,57.9592,-117.7988,-29.6334,-7.0847,62.8124,-143.0904
-3585.9375,-29.8462,-31.9570,9.3803,84.2748,3.5385,-585.1545,115.1916,149.2645,84.3951,38.1447,-123.7425,-4.2341,74.6513,44.5627,67.4297,44.3964,-19.3510,-32.4493,74.4272,-62.4140
-3578.1250,-0.9293,102.3173,-71.0405,41.8739,-39.6251,-520.8060,70.9163,140.4858,77.0595,66.4559,-20.2788,25.5674,67.5611,67.4920,97.6386,6.3667,-131.3087,-39.0578,32.8090,-33.9925
-3570.3125,29.9997,202.5990,-76.4693,2.4791,-44.7912,-491.4491,65.6425,133.7258,71.7125,96.7771,48.1641,43.6973,136.4563,56.4199,55.8432,-139.6471,-170.2757,-8.6568,29.1923,-3.5873
-3562.5000,7.6196,179.5814,-63.2021,-55.2122,5.7404,-480.3828,42.0703,71.6930,85.0620,71.8089,97.2708,7.6990,150.0487,26.0372,32.7399,-119.9505,-122.5437,3.4544,42.2853,8.5138
-3554.6875,221.7391,393.0621,-55.4494,-53.3988,-23.2334,-474.8095,13.9929,5.1810,-17.0989,-31.6474,105.8618,57.1576,85.1313,27.1583,79.1257,-31.7323,-119.3156,-64.9191,-25.1223,-94.8917
-3546.8750,358.7640,634.4437,-56.8013,-21.6747,12.6815,-515.3298,12.8121,-71.4115,-18.3680,-107.1853,-43.6682,126.7218,47.1026,-17.8201,-32.6053,-136.6037,17.8145,-104.3901,-27.6214,-134.4089
-3539.0625,495.9833,877.0184,-55.9582,80.2528,-23.2075,-480.6513,-60.1649,-181.7884,-91.4300,-181.5048,30.9724,221.8528,-25.7381,-23.6003,-31.1458,-203.2743,14.1540,-143.6548,-100.9082,-208.7339
-3531.2500,607.1608,881.5535,-10.1713,120.1437,-51.1520,-436.0246,-51.1895,-211.1970,-155.5478,-246.8567,76.5482,251.4756,-53.6382,14.5605,-94.7395,-260.9935,55.4403,-208.9684,-95.2455,-274.1217
-3523.4375,484.4871,794.2402,10.7644,68.1923,-66.9471,-308.2521,-103.0648,-191.4399,-171.5203,-301.0436,97.2486,265.5295,-32.3889,138.8612,-110.1930,-270.5580,108.8827,-191.1293,-41.4283,-291.3629
-3515.6250,524.6604,1009.7880,-14.4569,73.0934,-90.8988,-224.6352,-128.0890,-180.8228,-232.6456,-290.3708,34.7912,332.0435,-56.2920,145.0173,-24.8008,-215.2596,44.1682,-186.4430,-35.7660,-427.7589
-3507.8125,415.5428,935.0430,-17.9808,68.6975,-57.1566,-120.3228,-57.4077,-74.4951,-163.0729,-184.9878,-152.9847,300.0988,-59.4931,60.8775,-63.7122,-212.2533,40.1469,-191.0631,-4.4049,-432.4630
-3500.0000,289.5719,702.4476,-3.3592,118.4494,-43.2691,-71.8667,-117.5772,-25.0087,-185.3466,-135.4464,8.3651,293.4183,-82.5481,178.8991,-123.4794,-229.1005,19.2825,-141.5297,-58.8853,-383.0150
-3492.1875,350.0142,551.2682,22.6561,178.6197,-53.9956,-11.0063,-128.3570,36.8885,-233.2337,-110.4980,71.1046,240.3348,-93.2125,87.3405,-133.8540,-233.5625,44.8118,-116.5875,-67.9779,-358.1737
-3484.3750,243.5623,338.1939,53.7684,106.9005,14.3702,-18.0342,-133.0446,29.8996,-128.0316,-79.4474,-45.0824,125.6104,-24.7873,1.8870,-64.1450,-121.9302,79.4526,-82.5334,-33.9653,-254.2359
-3476.5625,246.8067,270.8295,57.5751,109.8899,-18.5662,-16.3520,-166.0387,32.6225,-161.1385,-3.6889,-4.5901,146.7972,-20.6786,146.1421,13.2494,-111.5960,11.7994,-44.7693,-135.2499,-251.6034
-3468.7500,139.1692,162.5937,89.4723,142.9875,14.5945,13.4366,-169.9321,63.4566,-129.1551,28.1771,-10.0191,170.7050,12.5169,245.5033,-27.2719,-220.1657,45.2403,-46.9032,-172.4326,-183.8839
-3460.9375,39.0751,26.9043,55.9139,147.6331,17.3027,13.7904,-204.2787,65.8639,-88.6192,103.6049,66.0657,91.0297,15.2492,131.4343,-24.2623,-173.1944,51.2335,-7.4733,-131.0551,-108.6153
-3453.1250,81.1835,-2.5871,63.5402,154.4894,-11.8016,-53.6379,-122.4344,72.4929,-44.8944,73.2468,73.3358,38.3727,60.1664,23.5931,57.9377,-123.0358,-12.5802,-35.8313,-123.4732,-102.1527
-3445.3125,-59.7526,-179.1348,60.1080,48.3021,22.0345,-59.0985,-51.6427,68.0965,-10.2319,68.8521,33.5287,-14.0857,94.0252,87.7187,55.0692,-118.9424,22.5628,-36.2241,-17.9342,-32.7469
-3437.5000,-109.4958,-159.4831,45.8694,69.3198,8.0667,-38.3464,-28.6557,52.9117,-61.3716,127.6729,165.8968,31.1167,43.0740,176.0651,78.3920,-163.6639,-62.0888,-16.4106,-32.1899,-48.1452
-3429.6875,-74.9234,-194.5095,80.9246,67.6499,7.3914,31.7115,6.6267,87.0423,-63.2213,161.8019,53.5481,-19.2196,78.4127,21.7304,4.0022,-159.1054,-27.4423,17.7018,2.8486,-14.2511
-3421.8750,-115.5030,-235.6847,36.8281,62.8363,-0.4374,58.6224,-1.2452,115.0352,2.7774,152.7896,-137.9781,-15.9515,34.5959,44.2627,33.4464,-159.7182,38.0643,47.6676,33.7431,50.4943
-3414.0625,22.9231,-203.8479,36.7262,95.0324,-37.2771,92.5368,-38.1255,77.0403,-34.2331,114.7902,-66.5161,61.3350,-2.2341,220.8297,-3.1175,-264.3459,35.5626,44.6406,-3.3716,12.2337
-3406.2500,-32.3942,-293.7475,50.8698,110.4857,-22.8773,141.7101,-60.7595,54.3125,16.9981,128.0588,-198.8260,36.6578,-24.8264,192.6644,-62.4464,-169.7429,121.3106,24.8680,47.7588,62.2184
-3398.4375,-65.7154,-328.6443,16.0053,111.9470,-57.4878,141.8930,-58.4052,55.5981,19.2249,93.3377,-233.1577,9.8065,-59.4270,152.5264,51.2135,-51.1607,88.0628,61.1003,84.8920,63.2069
-3390.6250,-48.8249,-347.3300,-1.6704,93.6239,-37.9120,159.2906,72.1419,74.0978,1.6405,37.8241,-251.3021,3.5495,-39.8429,128.6338,71.0592,-172.4116,105.0120,77.5341,102.2171,44.3886
-3382.8125,-133.4861,-433.5604,18.0979,42.7646,19.1016,177.1512,55.1292,56.0592,21.5001,56.7693,-85.0271,-30.7516,17.1813,142.2282,-19.6619,-220.2458,89.4209,96.4286,86.9929,63.0194
-3375.0000,-18.0942,-282.7309,32.9034,52.9626,-2.8465,190.0763,-3.8428,106.0871,-74.5914,69.7822,75.2803,-14.1397,-4.7615,76.9044,-41.3491,-199.0523,-5.1245,71.3810,27.8198,2.6966
-3367.1875,-67.9441,-262.1398,89.4511,3.9153,53.9487,170.7638,15.9309,124.8826,-54.9367,89.5602,-88.6862,-48.7551,15.0340,-19.6582,-58.3010,-136.1273,51.0808,57.0849,49.4066,58.1181
-3359.3750,-82.9946,-207.7533,35.7934,23.6640,37.5394,189.2624,-37.4937,108.4862,-106.4834,109.1400,-68.8820,-12.8194,-1.3763,30.6094,-0.4656,-109.4354,0.1004,76.6003,34.8056,77.3440
-3351.5625,12.4196,-148.9102,25.5729,47.8699,-9.4238,177.2273,-83.4740,97.5525,-153.5926,171.1761,29.3592,44.5488,-11.3532,161.3786,-47.1925,-150.3394,-10.4341,-5.4263,-11.3442,66.0139
-3343.7500,-46.5668,-244.4645,32.9506,22.6860,-36.7918,146.8119,-148.8608,67.2380,-72.1151,214.8254,-72.8248,54.7164,-38.7401,309.7887,-74.3480,-136.6917,70.6417,-28.8417,-33.8935,146.2811
-3335.9375,62.9447,-133.5103,2.8253,28.0187,-104.6737,76.9157,-105.7675,35.4379,-29.1525,183.9866,-67.5191,102.2793,-106.6419,383.7398,-31.0181,-124.5757,-27.7810,-94.7470,-63.9549,151.0447
-3328.1250,59.7231,-208.2784,-3.0529,-45.3894,-110.3194,33.2817,-1.4401,-7.1017,74.0455,139.4099,-147.9693,13.4383,-76.3008,261.9680,-0.4526,-51.2424,3.0444,-133.4033,3.2249,217.0513
-3320.3125,13.1973,-220.3400,-53.2371,-92.0909,-123.2787,18.3607,-14.4248,-20.9267,133.9447,162.5461,-50.7479,-29.6770,-88.2661,205.9326,-13.2011,-21.2387,-8.4276,-75.3597,-7.8958,239.7635
-3312.5000,110.1778,-52.8916,-58.9317,-65.2789,-165.7519,46.9490,17.0818,9.7588,91.3410,119.1983,15.9607,15.5285,-94.7498,157.4502,-128.4640,-20.7779,-86.4049,-48.8167,-50.5253,195.9774
-3304.6875,33.8172,-94.7843,-67.9841,-71.8083,-138.5870,73.1953,44.2359,-37.9010,155.3869,73.5077,-104.7103,37.6943,-140.5919,215.6668,-175.0889,-60.7245,12.2724,-20.6256,48.4964,258.8497
-3296.8750,145.2599,-18.8663,-60.2465,4.4652,-129.6358,79.2559,16.1815,-66.7619,127.2268,7.6182,-96.5970,80.3056,-168.6480,218.7437,-91.9277,-119.9126,-16.2439,-49.6275,-14.6867,229.5251
-3289.0625,209.0166,-61.6344,-30.2191,-2.9481,-136.3988,70.6387,9.4183,-74.3055,84.3524,0.0369,-31.1954,15.8795,-101.4225,96.1702,-98.4847,-83.8438,11.5343,-57.3266,-21.5793,221.4960
-3281.2500,88.1727,-77.0066,-7.7980,-52.9475,-77.7764,54.4482,-41.9579,-125.4314,69.8676,-15.1242,64.5794,11.1904,-42.8153,149.0318,-76.6717,-55.4035,-38.2814,-2.6149,-36.0737,205.8741
-3273.4375,104.8847,8.1882,11.1617,-72.3843,-57.6157,71.8259,-21.8063,-106.9951,15.9173,-32.7203,45.8958,50.8313,-22.6738,199.4941,-19.3284,-103.4516,-92.5495,12.6525,-90.0251,150.8051
-3265.6250,13.6057,-118.6080,24.1172,-93.8129,-8.4673,119.2218,-9.6622,-95.5471,64.9585,-21.3097,-52.8118,-17.6227,26.4590,96.0114,-7.0015,-122.5633,-8.8134,60.9250,-75.9729,198.7386
-3257.8125,41.2186,-90.5086,-17.0417,-29.3395,-12.4222,113.5296,-50.6203,-137.1862,23.8966,-25.9872,88.3584,-3.9416,21.4809,86.4865,25.2178,-120.8306,-14.1791,54.1118,-117.0196,156.5765
-3250.0000,86.2387,-11.9940,31.1903,-21.4555,-36.9904,125.2554,-74.1831,-161.4110,-36.7786,-51.2513,100.9196,37.0147,33.8894,130.4101,-35.1762,-138.7375,28.8433,63.7063,-142.6793,94.8088
-3242.1875,71.9128,-26.8291,17.0667,-0.9184,-14.9185,145.6529,-125.1087,-138.9720,-50.8097,-101.8563,86.1143,87.7355,-17.0579,258.0288,-84.9380,-147.0473,85.5222,48.9551,-121.6909,79.6973
-3234.3750,215.7462,46.4990,59.0855,72.7770,-9.7086,149.2164,-156.8994,-134.3755,-82.6988,-98.3046,53.4565,101.6431,-84.8631,183.8493,-44.5580,-137.2670,53.3481,-19.6440,-153.5604,46.7400
-3226.5625,189.3949,-15.3460,64.8990,46.2790,-2.7163,117.5987,-113.9030,-128.9731,-38.8015,-91.9438,-87.4167,27.2460,-77.8775,38.5247,-36.3954,-14.7492,97.9732,-44.4389,-73.6397,125.5858
-3218.7500,161.5383,61.3192,-0.7988,-16.7106,-68.2362,49.5017,-143.4220,-85.0636,-31.4123,-85.0724,29.1890,41.3409,-70.4074,114.7615,7.2474,35.2145,34.1029,-37.7239,-101.2196,131.9406
-3210.9375,198.8423,99.1455,2.6434,-49.5411,-100.6206,89.5734,-138.8052,-80.9918,-63.8875,-81.0351,105.9371,94.3300,-65.8011,260.2042,-60.9704,-28.7178,-33.6230,-106.8594,-62.6566,98.4445
-3203.1250,144.4967,-25.6805,17.4303,-69.0188,-86.6649,139.0148,-197.8478,-67.5571,-13.0146,-104.6389,82.0173,89.9268,-88.8539,343.0468,-156.8594,-45.3459,17.0078,-56.6479,-47.7425,148.3064
-3195.3125,231.9572,131.2965,-35.9896,-16.6919,-140.9247,157.2746,-252.1134,-48.3114,-104.3532,-12.4319,100.8937,126.9251,-179.1255,283.7692,-137.9676,-21.2341,-70.5602,-4.6302,-135.0403,129.9749
-3187.5000,117.5327,156.3928,-47.3147,43.7483,-151.1063,181.6625,-226.2968,-22.9570,-41.6095,85.8799,-130.1393,124.6130,-190.3139,157.6665,-112.0013,-63.0893,-45.0257,55.4877,-109.2449,154.7443
-3179.6875,-15.7459,163.6431,-111.4957,51.3437,-142.1490,153.2280,-179.3450,-14.4451,-31.7228,58.3491,-85.0437,142.9058,-144.3626,198.7690,-64.8997,-47.8556,-107.3355,62.7663,-101.2999,126.6715
-3171.8750,-47.7113,166.2076,-68.3873,90.2507,-134.9032,158.1130,-136.1049,-8.6225,-62.5475,-8.8788,30.3498,167.8842,-64.1217,238.2192,-22.5094,-73.3687,-139.3553,31.3474,-133.0672,58.8987
-3164.0625,-175.4758,1.9775,-56.0832,67.3603,-85.4669,169.2199,-123.6704,3.4086,-14.1776,3.1019,4.9281,116.2764,21.3109,245.9310,-9.9399,-18.7427,-91.1793,43.1370,-120.6375,70.3320
-3156.2500,-99.2437,113.7525,-84.7915,73.4721,-78.0402,139.3488,-115.2496,11.4519,-42.8134,85.0988,12.4953,101.8035,29.7311,138.7127,35.6124,31.8137,-156.0080,-22.0615,-149.2110,40.7714
-3148.4375,-55.2050,157.3426,-40.7131,11.3921,-69.8238,72.3070,-35.0395,-18.6899,38.3404,54.9108,-53.1490,63.7713,36.9380,32.3524,42.9544,-102.9013,-42.0461,-48.4526,-68.9926,84.0124
-3140.6250,-74.6783,66.4294,-62.1444,-78.1869,-55.1182,11.7864,-56.3367,-4.3173,89.9949,-4.7663,-39.3126,22.4657,14.6393,78.5460,94.7820,-120.1732,7.4172,35.6636,-20.2750,97.7665
-3132.8125,-15.5972,91.0833,-71.0370,16.7866,-63.8787,39.8280,-29.0963,-12.3895,45.1913,24.1198,-84.9233,54.3000,-30.1243,65.3661,87.1438,-85.9540,-2.5734,26.3282,-99.0172,52.0749
-3125.0000,-121.0561,19.2026,-36.4814,51.2143,-65.2034,73.3374,-103.4127,-15.0092,42.8352,21.4591,-162.0981,63.1227,-67.4470,95.6874,-25.0544,-10.3541,102.8913,24.4390,-64.3140,85.8432
-3117.1875,-62.7098,78.1249,-47.1327,144.4449,-111.7359,98.6595,-186.9374,-61.8320,-40.7210,48.6037,-26.4804,121.9153,-113.9761,155.8626,-71.4602,-15.0219,91.1639,13.3487,-110.8203,38.4283
-3109.3750,-1.9919,67.4095,-20.4428,134.0334,-85.9359,161.3541,-160.1221,-35.2984,-86.9406,1.1017,-37.5216,111.4894,-88.1713,104.4596,-117.5288,-93.4056,150.7811,37.6160,-51.9921,27.3707
-3101.5625,-67.3256,37.6440,22.1910,104.5825,-44.2006,129.0278,-117.3757,-29.8096,-81.2210,-67.4446,-68.6302,118.4635,-118.4298,143.0736,-39.6732,-156.9070,156.3607,112.8438,-11.2193,32.2775
-3093.7500,67.9986,66.5453,20.4638,99.7906,-8.8313,126.3759,-84.0075,5.3365,-120.8713,-106.3326,-109.0799,137.4592,-122.0567,173.4075,-41.1948,-190.8163,116.5900,107.7307,19.1926,-44.1603
-3085.9375,-46.8196,-13.6902,45.5832,53.8575,53.3759,76.6020,-21.8021,66.3394,-58.6841,-81.3627,-156.6897,35.4932,-59.8483,-26.3426,-15.8900,-160.9455,141.6724,96.4654,79.4509,-19.7426
-3078.1250,-88.7423,49.9715,39.5977,12.8245,120.4774,32.7551,9.2889,-12.7483,-64.6029,-87.4865,56.5855,-16.8101,45.2519,-145.1238,52.3015,-89.2425,29.6572,55.1044,-31.3956,-26.4089
-3070.3125,-58.1594,80.1481,70.1033,-26.7094,114.0651,-10.5651,39.8653,-93.3275,-71.0361,-57.1005,122.3611,-11.2667,148.8435,-81.3404,45.9795,-90.1042,-45.8677,-19.7494,-106.7475,3.4328
-3062.5000,-144.2789,27.6317,47.8953,-43.9448,92.9386,-33.5593,17.7264,-113.5948,17.8236,-5.4057,-9.5707,14.2089,90.7301,39.8072,60.9395,-144.7316,-27.0954,-37.2966,-51.8053,91.5860
-3054.6875,-58.6956,43.8276,-8.6280,6.5307,-0.5001,20.1711,-37.7297,-60.1564,35.3743,11.9921,6.2004,48.1025,34.3060,89.7248,41.5875,-159.7188,-46.6356,-22.1353,-71.1825,71.4451
-3046.8750,-114.0038,-81.8694,42.9431,21.1117,-21.8526,34.0281,-59.0970,-45.6141,13.0142,-10.5052,20.0693,14.4364,48.9735,63.8107,-52.6741,-140.6795,73.9173,-7.8745,12.5340,85.4124
-3039.0625,-94.4698,-98.7143,29.3571,76.5431,-36.3626,56.7562,-146.6192,-23.2198,-73.4965,-24.1457,116.7729,12.2330,-1.5189,46.8094,-67.1046,34.1343,58.3268,47.2456,-37.8995,34.2443
-3031.2500,-42.3262,23.0640,12.3635,128.5850,-53.2845,112.1049,-127.5544,33.7755,-91.4201,32.8240,-48.9232,79.4548,-92.4295,63.4701,-84.9508,58.4758,4.3346,62.9704,-56.7452,-20.3176
-3023.4375,-176.6297,-41.6023,-57.0872,64.1766,-48.6678,116.0285,-85.9483,75.3261,24.2016,74.3462,-228.0762,91.8970,-122.8039,174.7473,-43.2698,-6.7048,10.8952,104.2469,55.9588,20.6852
-3015.6250,-100.6354,0.0393,-86.2462,0.0668,-40.7673,86.2720,-42.0597,82.1842,105.1175,118.1773,-37.9290,58.3994,-79.8893,142.3971,1.6988,-104.6434,-89.2500,4.8314,61.9500,-8.9982
-3007.8125,-73.8304,-9.5054,-24.6150,-113.2394,20.9154,-73.6547,93.6176,-3.1478,203.8222,142.8157,23.0134,-41.5641,-18.1834,-19.0937,-82.5464,-149.8415,-27.6031,-39.7817,123.7267,52.1266
-3000.0000,-28.6362,0.3383,-15.5851,-139.1448,28.9888,-138.1587,101.6843,-31.0775,175.9241,114.8617,30.3521,-50.9634,-82.0855,-13.1208,-37.4085,-100.7061,-17.5483,-63.9875,98.8970,96.6684
-2992.1875,88.6203,46.2472,-40.5090,-56.9910,-31.8993,-164.5885,75.7806,-55.9571,150.0593,88.9590,-68.2454,6.2025,-107.9476,66.9709,-63.2397,-11.5973,-40.4420,-89.1389,39.1009,107.2671
-2984.3750,19.1865,-21.5278,-78.1312,13.4691,-69.4978,-128.6892,3.1612,-19.5361,149.4787,51.3546,-106.5470,7.6324,-71.5226,64.4282,-100.7929,65.7359,29.9708,-122.9847,75.5966,143.1740
-2976.5625,13.3963,6.3588,-80.1108,43.5768,-71.4577,-95.1160,-0.8249,-59.4622,73.5386,12.4084,73.8043,16.4928,-37.4578,58.6036,-29.7077,66.6538,-10.9722,-129.1685,34.7330,66.7415
-2968.7500,-59.5428,-31.8817,-46.2551,5.5359,-0.5824,-23.6606,35.0303,-24.5271,72.4358,-62.6753,35.0015,23.4511,34.4514,91.6973,-31.7835,-3.6469,-49.0859,-62.4974,67.7066,28.1664
-2960.9375,-157.8036,-131.4289,-75.7144,-23.8112,6.9819,93.5266,5.5767,20.1224,43.0313,-55.0468,4.8866,24.0579,42.0545,169.5623,12.8294,6.6873,-78.5056,48.8823,73.3785,-1.6900
-2953.1250,-62.2194,-70.1310,-44.3404,-68.3055,37.3876,160.5904,-0.0368,50.6273,0.4703,-23.5656,71.6282,1.6267,72.5007,87.3395,43.2879,-69.1947,-123.0832,75.1192,63.8933,-81.6867
-2945.3125,-146.5291,-154.7269,14.1332,-187.7005,132.8895,108.7735,57.4483,35.2300,58.0031,-1.9852,55.4693,-101.5184,131.0444,-40.7447,28.8349,-44.0459,-30.5535,96.4598,121.5054,-60.5770
-2937.5000,-64.0924,-143.5652,26.3539,-176.3448,146.1356,47.7271,107.6683,-24.4181,34.2777,10.3458,105.0580,-78.0175,70.3258,42.9915,78.1104,-27.2148,-89.2648,36.5632,26.8587,-84.7095
-2929.6875,-1.2466,-150.9828,53.9704,-113.5755,136.7703,38.1111,135.2675,-33.6613,61.9303,-34.9248,22.0584,-41.7124,60.9892,68.2157,32.7586,-217.0568,8.4197,29.0701,19.5938,-57.4398
-2921.8750,-63.1994,-107.1987,61.7858,-69.6004,143.5969,8.7167,32.0569,-63.7004,69.7717,-27.9941,65.2508,-68.2998,68.8415,-74.3003,2.5827,-169.7725,87.3148,72.7802,28.5289,-13.9572
-2914.0625,-11.0399,49.7059,43.6966,52.4803,52.5160,-9.5557,14.9330,-43.6433,-21.2977,-44.9582,157.5551,-27.8679,50.7792,-166.6725,-51.5055,0.5463,33.3094,53.5899,-60.4506,-68.3653
-2906.2500,-130.2645,1.2267,-7.7936,110.1625,1.0233,11.7967,-37.6008,15.0132,0.2215,-23.3216,-42.5404,38.7367,36.3097,-0.3984,-30.0101,25.4072,54.9030,75.0023,-74.8417,-47.1645
-2898.4375,-100.6967,30.5516,-87.4900,139.6375,-41.6785,5.9688,-43.3416,9.4677,-5.4604,8.1180,25.1594,97.8229,30.6317,138.7434,38.2792,-86.9985,-55.6979,34.2200,-80.4417,-53.1485
-2890.6250,3.6766,-6.3098,-52.3937,66.9147,-6.5904,-69.0332,28.7057,7.7224,-7.3523,6.3590,95.6688,2.8477,138.7480,-12.2412,72.3655,-159.6794,-22.5097,-37.7621,-46.2594,-55.3225
-2882.8125,-51.6048,-96.8178,-1.9503,-22.4627,43.8382,-165.6629,79.0879,-52.6723,43.0962,-17.0442,35.5312,-92.9617,152.2133,-110.8137,122.7878,4.9190,28.0259,-22.3856,-31.7331,-5.1281
-2875.0000,29.8570,-15.5743,12.2390,-12.0928,57.0100,-189.5219,92.2073,-112.3143,-16.7122,-39.6974,85.1610,-58.1655,129.4223,-62.5801,136.9486,58.2111,-31.6968,-12.2560,-126.4644,-65.1707
-2867.1875,19.0832,43.4196,72.1733,47.0270,44.9165,-128.6075,43.0712,-125.2084,-29.7786,-89.5975,108.5539,25.2037,116.3821,33.4423,-23.1489,-61.8033,62.3250,-23.3743,-137.4540,-41.4550
-2859.3750,-13.4014,151.7070,74.4035,120.4399,47.1201,-89.3692,-65.7734,-158.8002,-101.5483,-124.1943,221.2414,86.8480,81.6399,33.8266,-57.9615,-167.5807,99.6458,13.8179,-135.1474,-39.4228
-2851.5625,67.0566,196.9715,86.5722,200.8070,22.2637,-4.1529,-53.6799,-147.4395,-126.3863,-148.8412,84.8899,87.7521,20.8384,-103.7695,-8.8348,-115.4782,74.9043,58.9707,-124.9020,-64.4352
-2843.7500,-81.9487,47.8034,3.2850,192.7259,11.9569,133.6349,-64.0425,-46.5249,-62.6836,-84.9331,-145.9145,70.4417,-26.4208,-78.7607,-56.1789,-11.8938,101.7132,121.6820,-27.1125,-37.8870
-2835.9375,-32.0610,97.5263,-127.1088,206.5386,-81.4507,224.3435,-83.5118,118.2891,-119.0827,-30.1247,-92.8105,148.4415,-82.7880,84.2096,-112.6325,7.5222,-59.5781,135.3089,-13.4256,-94.4290
-2828.1250,-52.4138,146.9951,-149.7569,116.0965,-141.1105,238.8283,-69.2314,205.8620,-104.7395,-15.5641,-115.9497,183.3820,-105.4112,206.9731,-135.3436,-48.3698,-80.1253,79.6883,71.0032,-80.2170
-2820.3125,-6.6250,122.6106,-139.2592,-14.1959,-93.6221,175.4857,-58.8047,180.5864,-57.2458,-4.8473,-68.9510,114.3873,-131.8939,179.9291,-87.9193,0.8348,-69.5165,19.2210,117.5784,-69.8353
-2812.5000,105.6157,93.6902,-57.3161,-43.0359,-85.6935,146.6066,-13.9399,187.7536,-86.3098,-33.6791,-24.4919,29.1085,-123.9366,1.3915,-80.0564,122.4284,-63.4561,25.2062,123.5919,-98.9886
-2804.6875,-60.3986,-108.4802,-12.6265,-33.1264,-4.0198,118.4960,-6.3319,159.6683,-4.6266,-25.7625,-91.2787,-34.0486,-79.2305,-28.3472,-72.4537,205.7047,-18.6356,69.9446,133.3557,-54.3797
-2796.8750,-61.9806,-109.2020,-86.4916,0.2274,-3.9020,118.8595,29.7222,123.0327,-78.4976,10.6048,-17.6088,32.5483,-5.0807,154.4265,37.5916,61.3744,-126.3676,69.1463,25.5574,-91.3102
-2789.0625,-54.6573,-138.0057,-42.4638,7.4839,3.1076,89.1486,110.6702,93.3062,-34.4866,-18.1258,-11.0227,18.4776,111.9607,123.1634,81.5232,-113.1220,-154.2197,5.2510,67.6444,-84.3365
-2781.2500,-118.8917,-96.3581,-37.9915,-91.8200,44.5606,19.9145,152.0598,61.0323,43.9771,-13.4032,-6.9803,-42.1775,153.4529,16.3985,159.8889,-106.2288,-147.6288,-23.1929,109.1837,-42.8957
-2773.4375,-19.1793,38.2454,-42.5774,-97.1836,38.9585,15.6503,184.3925,56.7083,-34.6166,-128.7300,98.0199,-37.3155,148.8897,-63.3717,118.2056,38.5756,-189.1019,-29.6772,67.6652,-84.4944
-2765.6250,-58.1641,-106.8467,25.1313,-137.2510,69.6502,9.7084,141.0251,50.6868,-40.9230,-170.7657,128.3187,-88.6120,142.6237,-70.8031,38.8186,34.6330,-52.2754,1.1507,134.4376,-53.7840
-2757.8125,18.2903,-99.4906,69.2898,-24.8670,77.7912,55.2360,38.0977,-13.8888,-106.7868,-199.3513,246.0797,-38.8267,76.8028,-26.7299,45.8678,-64.9279,-10.9904,7.4386,34.6484,-82.6134
-2750.0000,91.7544,-62.1008,145.4548,47.5278,79.9304,57.7812,77.1589,-48.4700,-104.6670,-196.9344,100.8668,-22.9984,78.9755,-99.6159,47.8979,-171.5659,61.2904,-25.2763,1.8389,-80.4381
-2742.1875,1.5172,-82.3954,121.9219,63.2223,93.3636,-1.3609,54.5123,-108.7577,-54.2448,-146.2158,40.9568,-27.4127,56.4414,-87.1667,25.2083,-44.9654,111.8783,-44.6866,17.3239,-29.9432
-2734.3750,37.2799,59.3081,50.3814,63.9105,22.7925,-35.4929,92.8596,-69.0464,-51.8264,-107.4979,116.0512,17.1716,-15.1056,-48.6660,27.5125,32.5949,7.4635,-115.0910,17.8084,-64.4350
-2726.5625,-4.2462,-17.2865,3.5337,-12.7076,11.9139,-82.9149,118.9094,-5.6359,48.2930,-44.0764,-5.1533,-4.6163,-25.9572,13.5781,16.5151,-12.1911,35.7424,-121.7968,115.9892,-1.2209
-2718.7500,17.6682,-66.4279,-48.8657,-26.8808,-3.5168,-97.8761,67.4095,16.2251,32.8648,14.7998,16.0985,16.0182,-41.3659,144.3159,37.9520,-62.5870,-13.5260,-100.0451,102.6142,20.4579
-2710.9375,97.0381,-22.0973,-39.8165,-17.6012,-31.5028,-88.3688,39.3452,62.5371,4.8701,98.1274,-12.1734,-19.2017,-32.3310,5.5471,9.8277,-51.5994,-39.3526,-90.8357,41.6726,29.5940
-2703.1250,-20.9523,-34.1101,-54.1155,5.3265,26.1591,-102.1904,22.9231,9.4988,62.5158,119.1050,-63.7889,-71.5236,25.3541,-157.5419,30.3453,7.9906,18.4729,-66.9731,63.3785,87.3940
-2695.3125,10.9448,32.7700,-92.5264,37.1465,-11.2872,-104.0896,59.3913,-27.6340,25.0536,117.9845,7.5113,-37.0108,61.9377,-122.6888,103.7605,-27.5529,-55.8128,-37.1981,24.9799,13.1055
-2687.5000,-74.1574,-87.3473,-68.9466,-12.0315,50.2572,-41.9678,82.8567,-2.7626,49.5783,68.8644,-5.1776,-40.4218,122.5147,-25.7841,17.1685,-75.1416,0.8925,-15.4196,80.5719,-36.1767
-2679.6875,-158.3213,-136.5133,-44.4200,-26.2662,73.7524,56.1229,70.2638,21.0574,0.0499,56.6930,55.0771,13.9238,73.0375,145.1201,-32.4821,-85.8305,-48.4476,40.3147,66.1068,-85.4929
-2671.8750,-62.5342,-110.7042,-16.9482,-71.5487,102.1893,121.1764,98.6111,86.8202,-45.5408,48.4683,46.2970,-11.0663,27.5081,62.0211,-41.1892,-92.6206,-93.8460,66.0066,91.5757,-130.8526
-2664.0625,-115.7535,-92.8847,-0.4774,-88.8286,117.6217,101.2464,113.9602,102.5836,6.8599,27.2481,-11.4797,-51.2251,6.9770,-70.0513,-62.9063,-38.4649,-41.2420,83.7063,109.0392,-78.2062
-2656.2500,31.6678,54.5886,6.6398,-82.4625,51.7045,72.9793,121.9548,73.9985,-22.0891,35.6794,32.4099,-18.9670,-58.9049,-62.4550,-17.9745,-28.7041,-34.9920,-15.9318,9.1449,-106.9030
-2648.4375,102.2469,53.2256,40.9061,-222.9446,12.9330,33.8734,119.0977,71.5675,12.0994,33.2648,-43.5393,-57.9889,-24.6386,-28.6846,-20.8986,-66.8309,69.3990,-86.4128,43.3913,-72.4483
-2640.6250,50.5092,37.5517,21.8687,-309.7340,-44.1379,15.4873,-11.0638,88.8417,28.9884,51.5514,10.2044,-68.7864,-44.6769,60.8334,-41.1313,25.6990,53.4900,-32.1849,27.3378,-18.2796
-2632.8125,155.3702,106.4820,20.4210,-240.9233,-118.6107,50.7098,-49.6282,87.7185,-46.5329,86.4325,81.5609,-43.4274,-83.1224,22.9994,-79.7674,-11.2204,52.1814,-69.3476,-9.1186,-19.5078
-2625.0000,96.5884,83.7639,67.3337,-228.7646,-71.7263,-48.7083,-2.8364,24.9372,37.2909,60.6513,-18.7182,-53.0075,-72.2162,-4.4673,-69.0595,-72.8490,134.2320,-92.1610,37.7770,27.6181
-2617.1875,143.2470,201.4839,43.7006,-217.1636,-59.3831,-108.6663,47.4054,-35.4010,13.5650,0.3088,-5.5276,5.7232,-95.8566,81.5412,17.0902,-59.0693,75.7363,-115.5197,-56.8771,4.2069
-2609.3750,161.5095,219.8165,24.6668,-163.9609,-41.4397,-126.0120,65.2423,-54.1395,-5.5733,-18.4309,12.2777,-21.3196,-41.8987,-47.8193,-2.1616,-2.7278,58.8279,-97.2753,-143.9470,22.4033
-2601.5625,50.5062,178.9032,15.3810,-134.0184,-48.7552,-170.5931,-17.1767,-61.1259,-13.9597,-26.4071,113.8307,-45.3359,22.8064,-92.3971,-10.6737,63.3289,52.6670,-32.2751,-149.2650,87.3637
-2593.7500,87.4973,251.0043,-18.9150,-63.0796,-47.0801,-167.1647,-15.5983,-59.1067,-84.3563,-60.3822,152.4001,37.8521,25.5081,19.0642,27.8150,-6.6489,-16.5086,-31.2663,-148.5970,53.3295
-2585.9375,-42.9574,48.6647,-10.6611,-123.5884,-38.8580,-49.1707,-7.4698,-14.5371,-40.2105,-15.8153,-23.4691,48.1912,32.7632,210.0970,-1.1502,-33.1194,-41.1392,13.2922,-33.3865,97.8492
-2578.1250,-77.4204,-19.6781,-82.4046,-157.1073,-37.6365,62.8330,-42.3386,60.0312,-39.0660,58.7457,50.6713,46.9904,-1.9798,285.1566,-0.1168,5.3623,-145.7687,14.8601,1.8262,99.3786
-2570.3125,-44.9766,-57.1093,-86.2491,-195.7213,-41.5152,96.7462,-10.3042,130.4985,-7.0302,129.2049,46.7256,-66.5593,-5.8284,23.1424,-4.1884,112.7012,-149.5083,11.3301,67.9303,95.8101
-2562.5000,-165.9902,-107.9858,-66.5441,-210.7910,14.1563,43.2188,9.2801,113.5153,48.5551,186.2164,-42.6678,-125.0430,-22.1282,-103.2960,-20.7260,170.5522,-59.6925,66.3525,123.5839,115.8015
-2554.6875,-109.6639,-17.4952,-78.4921,-119.5115,2.1717,70.0438,-2.7958,102.8789,0.4838,101.5818,-18.6957,-11.5017,-71.0855,68.6498,3.0756,123.7293,-74.5312,52.7359,38.5809,31.1463
-2546.8750,-136.3342,-77.9963,-33.4404,-110.2338,11.1836,79.8811,6.1284,75.2458,46.4084,73.9419,-82.7175,22.8131,-62.0478,187.6161,-25.1267,-14.1258,4.6241,-8.8749,82.5700,40.4928
-2539.0625,-82.1700,-59.6619,-15.5398,-128.1086,29.0529,-12.4245,23.9060,56.4613,101.1822,55.1495,-64.8957,-20.8003,-44.1620,95.4512,29.5200,-31.1670,22.6416,-60.6266,65.4121,58.7016
-2531.2500,40.4423,-5.8639,2.8089,-73.5256,10.3749,-66.2742,79.1285,1.1207,45.3966,73.8001,-10.6044,-40.0858,-61.8287,-34.2387,-25.3885,24.1938,6.1131,-75.9167,12.6950,77.3601
-2523.4375,-47.1448,-58.2606,54.9624,-21.1398,-9.4976,-123.3121,21.1525,-18.4275,60.4043,16.2459,41.4974,-32.3379,-46.6955,-18.1056,-46.5075,-31.6826,93.3909,-59.4039,29.7674,129.8206
-2515.6250,56.6592,115.7493,19.5185,46.6471,-81.9706,-194.9410,21.5642,-54.5778,24.8031,17.0885,80.0153,32.4911,-46.1643,19.4513,100.7688,-66.1858,21.0658,-95.4793,-76.7688,57.6843
-2507.8125,37.1714,202.4678,-1.2203,63.1372,-65.7418,-177.8627,74.6774,-38.0280,40.8915,70.6264,-86.7563,36.2026,6.0632,-74.2819,79.7429,-13.0168,-32.5640,-114.8521,-96.6117,74.2455
-2500.0000,-52.5772,182.9259,-60.2049,7.3689,-52.7580,-200.0287,50.5492,-23.7290,53.7379,120.9084,-0.7842,27.8471,20.0440,-24.2492,92.4679,1.8664,-122.4339,-64.4766,-81.6967,124.5646
-2492.1875,8.3751,174.0963,-32.4920,-71.6997,-62.0722,-245.4925,78.1190,3.2623,44.2819,111.8853,99.9057,-8.2518,83.7212,-33.4928,82.8910,-43.5845,-131.6044,-73.3988,-56.0879,115.5846
-2484.3750,-69.2197,25.7121,-5.3218,-114.3204,2.0637,-254.5026,68.1428,-42.2945,145.2755,102.3090,53.0575,-100.1405,110.8469,-153.2651,109.7567,-89.6209,1.6764,24.1294,40.9705,143.0572
-2476.5625,-17.2732,78.8686,-21.5990,7.6061,22.7526,-194.9645,16.7157,-57.3043,93.8180,51.2862,75.7738,-47.3030,59.5239,-167.4679,95.1717,-103.1394,17.5078,112.2143,-12.4223,55.0848
-2468.7500,-18.4231,-28.0569,17.0245,76.4351,97.3387,-46.5230,55.1937,-56.4152,58.2536,-57.8311,3.4067,-17.1845,24.1003,-130.7537,22.4844,-174.7873,86.2228,110.1999,91.0742,-16.9886
-2460.9375,-146.8865,-156.2782,31.3453,18.9602,148.6223,41.6219,68.3733,-4.8230,71.3944,-80.2423,17.7330,-18.1516,38.3728,-5.3149,-0.5087,-123.7638,63.6333,123.8906,103.2722,-39.3510
-2453.1250,5.3956,-109.7396,43.4077,-4.7666,124.6555,129.5142,44.3032,44.5208,-25.7148,-29.9030,103.8202,-11.6640,14.3934,6.8884,-24.7473,-74.0158,-65.2126,100.3346,9.2164,-62.9583
-2445.3125,-2.7693,-221.6489,68.0195,-82.9491,112.2422,153.9608,31.7909,106.4121,-2.2740,30.9868,17.4602,-93.2653,0.9661,-79.3639,-38.4390,-12.7388,-38.5077,127.3351,36.7141,34.9893
-2437.5000,-26.5948,-140.2161,4.9817,-36.7862,86.1836,165.7587,5.6262,80.6560,8.5141,42.2243,-45.5423,-53.9731,-25.1079,-68.2445,46.2174,-1.1350,-62.4506,138.6970,11.5592,46.2927
-2429.6875,-7.8244,-86.1776,25.5440,-18.0211,69.7214,187.1648,63.0585,64.4980,-8.1086,26.0552,-61.9300,-33.5953,32.4171,-84.4886,29.4756,-88.9502,-8.8034,87.6620,-5.0063,30.1935
-2421.8750,-72.3175,-116.3930,64.8576,-13.5021,72.0109,117.3221,28.2470,-6.9104,31.0210,28.6305,88.4326,-50.9786,71.6963,-80.9645,-5.5169,-123.0441,30.5967,21.3777,-35.8235,69.8505
-2414.0625,59.4367,-54.3513,58.4187,49.2670,-8.4482,37.7301,-15.3163,-50.0735,-49.6049,-14.5459,229.0607,-11.4874,65.2259,-14.1807,-49.2521,-55.9202,-12.7580,-21.6528,-113.3924,26.7595
-2406.2500,44.5480,-102.9431,78.3335,69.3884,-25.5573,21.4829,-32.5211,-65.8887,-29.8838,-67.3756,102.0449,-20.2753,48.1084,-31.0510,-65.6350,-35.4717,78.2348,-1.3346,-59.6144,47.0189
-2398.4375,56.3004,-56.8919,54.8968,116.1536,-12.0142,35.8823,-56.0727,-53.0540,-89.5055,-90.5524,78.6756,2.2460,24.6421,-54.2623,-16.3711,-22.3880,54.8850,46.6380,-83.1798,23.9345
-2390.6250,90.2084,13.3126,55.6121,115.0658,-48.3230,73.4316,-55.4751,-15.0693,-89.9854,-16.5800,42.4758,12.8998,-11.6768,-90.2994,-15.9562,-58.1761,18.6772,45.7643,-84.5962,-12.0054
-2382.8125,-31.0868,-37.6886,38.1316,99.7735,-28.8317,57.7822,-73.0724,4.7212,-33.6598,40.1893,-11.9223,44.1454,-29.1965,40.4774,-70.7423,-110.1914,73.2750,65.6889,-65.2112,7.8585
-2375.0000,61.3136,55.0180,26.3502,157.1830,-40.6379,82.8286,-84.9658,-6.7916,-119.6336,-8.3457,49.3840,138.5133,-78.0182,175.9667,-119.8264,-158.5270,24.5697,87.3140,-114.1330,-40.5713
-2367.1875,62.9242,56.9393,62.7711,158.7975,-4.2460,83.0736,-85.6598,-44.1083,-83.4151,-45.6816,-24.1024,79.5807,-78.6385,-8.3404,-155.7130,-85.6867,131.0606,89.1425,-77.8589,-3.7994
-2359.3750,38.6728,67.9993,73.3446,133.5600,43.2978,58.4631,-111.2004,-106.2827,-73.0424,-71.8723,23.5682,17.5154,-68.1072,-144.4829,-109.4515,72.2801,141.7168,65.1281,-67.4272,7.1281
-2351.5625,141.4737,-4.8882,107.9703,131.3807,41.8934,20.8963,-39.6878,-108.4114,-74.6274,-110.0142,22.3072,2.6673,-69.5249,-109.5689,-1.1385,-2.7186,139.4226,-7.8304,-34.9499,-30.9049
-2343.7500,71.5713,-109.4791,106.9040,96.5081,77.7999,-16.3721,-3.8626,-108.2352,-38.9145,-109.8595,-52.6572,7.5383,3.3604,0.6409,-2.5260,-149.4463,175.4338,63.5116,-35.1713,5.3609
-2335.9375,103.5617,28.8337,68.7373,129.5347,75.6092,20.2574,-79.1367,-110.1581,-150.3000,-74.8047,93.2819,77.9768,2.1482,72.7609,-41.0063,-150.3029,66.3426,60.7571,-108.4915,-32.4715
-2328.1250,113.8611,39.4701,77.8757,138.8652,47.7228,29.1781,-107.1167,-27.7947,-178.3904,-29.4565,28.5296,35.0279,10.2323,-65.8001,-70.1857,4.1167,41.5503,36.3032,-98.5240,12.9952
-2320.3125,19.5608,15.5173,50.4175,80.5947,20.2391,-34.5159,-133.6920,-18.0423,-95.0791,54.2799,38.1959,0.6991,19.7190,-55.9328,-23.9692,87.9007,-17.8370,12.2484,-86.1587,59.8593
-2312.5000,94.8555,91.1548,56.5653,84.9291,-10.6437,-100.6071,-91.6644,-48.6912,-54.1675,60.6105,81.4750,45.9859,-11.2011,24.5412,-18.1509,-52.7324,-13.6247,-18.1981,-117.1937,29.3189
-2304.6875,39.4031,-34.9634,107.9654,64.5188,3.7246,-49.4458,-113.3799,-34.0756,-3.0094,1.1973,-14.9989,22.1145,-33.8664,39.2606,-77.0762,-38.1285,71.8227,32.6137,-33.9751,44.0240
-2296.8750,49.4379,-23.5923,47.8665,109.5979,-19.4036,39.2202,-137.5859,-19.9506,-63.3443,-21.7191,36.0193,57.3818,-57.0281,89.4855,-101.4928,85.9655,-59.2346,77.9290,-59.2461,-15.7689
-2289.0625,25.1229,-48.5651,58.4129,50.3260,-8.8800,123.5312,-91.1384,27.8280,-53.0317,-47.9903,9.6893,48.4191,-9.5342,100.3755,-91.2523,22.7021,-83.6485,53.8882,-12.8662,-4.9157
-2281.2500,-70.8379,-143.1820,-7.6835,-10.5934,-1.0087,132.1867,-46.3411,35.9523,65.6365,-39.9124,-92.2814,-19.2651,-1.6848,35.6227,64.3377,-6.2413,-38.7117,64.1912,31.8609,40.2838
-2273.4375,12.3997,-24.5986,-28.5711,2.6845,-21.9378,112.0343,6.6501,15.2702,7.5082,-60.6373,-77.0261,-3.1981,-22.6281,-21.9332,79.1290,46.9914,-96.5615,111.6931,8.7906,-17.3188
-2265.6250,-86.3076,18.0338,-21.4010,-24.9804,22.1816,82.9264,13.6840,22.6308,14.4250,-90.3199,-106.7036,10.8625,-15.5187,-14.4276,-24.0326,91.2690,-18.3636,155.2465,15.7684,-9.8780
-2257.8125,-87.6660,87.0048,-20.8799,8.7089,22.6582,47.1596,-22.9188,-13.6612,-22.3043,-89.6592,40.9560,55.4442,-15.0670,59.4515,-23.8420,90.8887,-54.8169,119.1483,-55.9041,-46.0857
-2250.0000,23.8727,92.8810,-15.4637,49.2937,-8.9640,17.2737,19.3976,-8.0582,-17.1238,-47.0881,-26.4917,82.4229,-46.7171,102.2360,-18.7355,-13.6048,-49.3804,53.9471,-86.6785,-40.3862
-2242.1875,-59.0340,81.3348,-68.5024,37.4276,-25.0388,1.9188,3.2718,13.0980,40.6168,-25.9565,-151.3816,87.1091,-62.8113,123.5486,38.9252,-29.5651,-62.4038,77.2887,-28.9081,17.8742
-2234.3750,-36.9804,138.7567,-80.5942,58.5126,-37.1759,-9.5076,-8.9101,74.1973,-8.6921,36.1258,-91.3236,75.7766,-37.9557,37.8224,62.5382,-41.5859,-111.4744,28.5859,-7.1874,-30.9106
-2226.5625,-80.9714,25.1268,-16.7358,15.5550,-10.3647,-55.9945,17.8666,65.2435,17.9487,26.1465,-64.3105,-15.1049,25.8530,-81.9473,16.1108,22.3286,21.4103,-14.1666,54.4860,-3.7569
-2218.7500,-64.1073,77.3407,-35.0162,32.4505,8.3019,-146.6430,-37.4948,10.1355,-0.5574,8.0050,28.5639,7.5076,7.5254,-25.8924,34.5343,78.0893,38.1532,2.9229,-33.9811,-21.7616
-2210.9375,53.8083,160.6132,15.7606,115.3919,-14.9764,-133.2532,-60.8024,-49.9229,-61.0104,-15.0831,41.4996,74.0906,21.2497,24.2178,11.0089,-19.1110,14.9361,-54.9456,-57.3958,-44.7210
-2203.1250,10.4211,46.5935,3.2287,71.0361,-27.5581,-143.1685,-73.4068,-62.2785,37.2392,9.5316,-6.8734,10.1919,8.6755,-23.9405,35.1996,-31.6303,76.4047,-29.1190,3.8877,17.0182
-2195.3125,114.2274,80.7776,-33.1126,69.8756,-63.9438,-106.8936,-35.8083,-24.4396,0.7028,47.3485,-43.0555,-10.1419,-27.6939,-96.8912,108.6100,80.0312,-29.9186,-29.0942,2.3734,-19.0370
-2187.5000,104.6439,141.5599,-44.8532,25.3195,-75.7313,-81.0265,26.3991,0.9920,25.7632,72.7659,-127.6141,10.9308,-39.4526,-71.2632,23.6231,105.2915,-40.6434,-39.4695,-7.5448,6.5039
-2179.6875,56.2667,128.5246,-23.3783,11.9677,-90.3171,-21.9642,-63.1966,-14.3726,10.0240,94.3798,-32.9657,63.5740,-55.0127,97.5507,7.8310,15.7544,-54.1622,-17.6457,-57.2556,28.2443
-2171.8750,81.1785,154.7731,-31.6019,36.9212,-99.6039,44.4022,-71.5018,14.5680,-72.4052,85.2915,-4.0360,87.2835,-63.2840,89.6904,-0.6570,-66.4903,-64.3777,43.4859,-31.6540,-16.7143
-2164.0625,-60.0554,-21.1372,-31.9736,36.7268,-63.0372,80.6154,-71.9654,87.3648,-35.9850,85.0599,-115.2548,47.7561,-63.7155,89.7144,-75.2973,44.0932,6.2493,113.4682,2.8071,-16.8289
-2156.2500,-65.5512,78.6848,-108.5870,66.2833,-65.7145,115.5736,-111.6846,84.9161,-38.8127,119.5797,-80.7043,76.1580,-66.4006,87.4856,-41.2025,114.4311,-70.3637,108.1997,-38.9771,-93.1970
-2148.4375,-65.2423,79.3057,-34.3902,66.6496,-28.5915,79.3132,-74.6033,85.2663,-2.8356,82.8993,-117.3482,42.1905,6.7088,-22.9551,-41.3086,40.5793,-0.1652,37.7208,31.0381,-92.7706
-2140.6250,-91.3213,-17.4716,-25.5838,4.6217,53.1388,-21.3667,-65.9103,57.2110,42.7497,54.8180,-71.4142,-8.7163,15.4161,-13.8047,3.1995,13.3064,43.6481,46.8309,75.6563,-83.7425
-2132.8125,-40.7988,34.3497,-7.1785,21.2004,72.4733,-39.4651,26.3915,39.7434,-12.0631,37.3292,21.1217,2.4118,34.7340,-31.0471,-14.6812,31.6097,-10.9303,-7.4582,20.8787,-138.1117
-2125.0000,-116.4746,-41.0157,58.0257,50.5779,100.6081,-46.7786,17.5060,-4.9327,15.9185,28.6405,-60.5214,-19.1844,25.8547,-75.4863,-59.7542,59.7205,90.2696,-11.9470,14.8942,-72.6859
-2117.1875,-47.1603,27.6169,56.2243,154.9537,61.7387,-48.0963,-57.3715,-80.6025,-22.0946,-46.0408,47.8287,62.0065,-49.0149,33.0615,-61.8163,21.8427,123.4591,-48.4397,-92.0901,-74.2581
-2109.3750,105.2059,39.2865,104.4753,166.3781,35.9150,-36.3797,-46.1951,-106.2196,-11.0485,-108.6839,-13.7700,88.7661,-37.8323,81.6742,-50.8099,-114.9928,134.6993,-107.8936,-46.0165,-62.7781
-2101.5625,48.1708,53.5397,79.3291,109.4092,11.6914,-24.0782,-34.4032,-94.2418,37.6031,-59.7308,-112.7636,56.1651,-63.0435,20.9131,-2.1999,-29.2625,112.5375,-93.7546,2.6655,-13.6955
-2093.7500,123.0736,128.7371,12.1320,43.3858,-56.5821,19.1576,-28.6614,-51.3153,6.2219,-16.8199,-69.8063,26.0560,-57.3027,-46.9030,3.3713,123.4069,-23.6725,-53.6622,6.3056,-44.6566
-2085.9375,32.7744,-32.2611,-48.2669,-10.8317,-43.0601,70.1809,21.8838,-0.5911,92.6537,-40.1019,-93.0606,-20.9241,-43.7604,-32.9404,-57.2466,100.8886,26.9184,-38.7710,91.7530,6.1802
-2078.1250,-2.5699,-67.3020,-85.7175,-11.1014,-43.5927,70.1375,21.3861,-0.9115,92.0408,-40.4309,-19.3764,2.4481,-7.2669,76.9624,16.0886,26.3322,-8.5401,-73.9352,91.1580,5.9646
-2070.3125,100.8011,37.3633,-87.4631,-48.6666,-45.4228,31.7803,19.5873,-2.5388,90.1287,-42.0653,-20.9774,1.1670,27.9275,39.5703,87.1264,-85.5476,-10.2917,-144.4019,89.2549,4.4459
-2062.5000,-2.3092,40.5267,-85.6964,-80.7241,-44.7467,-41.0910,-16.7129,-38.6734,127.7135,-4.2015,-93.0680,-1.8479,28.6224,77.6748,88.6666,25.0490,-8.5401,-106.3752,56.8550,42.4275
-2054.6875,-17.2760,59.8315,-100.7779,-25.6338,-58.9173,-54.8253,-30.8672,-52.6642,76.4506,55.8037,-71.0134,3.1576,14.4729,62.9304,110.3684,194.8085,-94.6344,-88.1931,-65.3869,-8.4433
-2046.8750,-81.6521,-39.2717,-95.2599,-19.9342,-17.4911,-49.9673,10.5872,-48.0521,81.7793,97.4056,-29.3576,-51.3382,55.9305,-42.2075,78.6869,89.1790,-18.1311,-81.4088,-24.0201,33.2694
-2039.0625,-83.3365,-40.6897,-61.0304,-21.5281,17.6402,-51.4088,-28.2492,-49.7330,42.8157,58.7083,115.9996,-36.1372,91.0953,-6.6386,76.7068,-59.7744,-19.9368,-12.9365,-60.9474,31.6776
-2031.2500,23.5764,31.4827,15.7999,50.4712,57.3777,-48.2604,-25.4794,-46.8171,-28.5349,-49.3829,118.9592,30.8731,56.8647,33.5152,5.3412,-130.1268,16.8578,-46.8783,-60.2670,-2.3098
-2023.4375,36.2041,44.3627,63.3341,28.1589,67.8167,-73.4346,-15.0076,-108.2055,-18.1773,-147.7805,-17.3837,-0.0834,30.3381,-66.6394,-21.3104,-46.7713,134.3551,-34.1354,23.1239,45.4025
-2015.6250,76.0391,84.4391,35.0800,33.0426,75.4533,-102.4237,30.6622,-137.4059,-9.6152,-139.9807,28.4827,8.6464,2.0113,-57.5753,-12.7636,-2.2270,69.0702,-64.2003,27.7142,-19.6854
-2007.8125,44.6344,-16.7388,74.5830,-33.3097,78.8370,-61.6702,107.0714,-97.8610,66.6971,-100.4296,-41.8804,-25.9412,-31.5662,-53.7550,-46.4689,-72.9479,72.5372,-60.5199,101.0492,-16.0279
-2000.0000,-62.3121,-18.4659,-38.4550,-70.1998,39.6617,-27.4760,103.9301,-26.8649,100.4616,-66.4292,-44.8027,0.8141,-34.7003,54.5079,-49.7202,-2.2202,-34.5418,-26.3888,99.8314,18.0774
-1992.1875,25.6490,69.7112,-56.5962,-88.1746,-15.6191,28.6120,85.6841,-7.9680,46.1281,-47.5337,11.1536,13.5485,-52.9452,36.6747,-68.0600,16.4179,-87.7205,-8.3537,81.5032,0.0799
-1984.3750,-19.7233,-80.4419,-31.0855,-97.4906,9.7463,54.3376,111.0890,-19.4307,71.4446,-130.9995,-37.2370,-27.7144,-27.5416,25.4886,-42.7407,-32.2978,78.7522,17.3213,141.8237,25.7273
-1976.5625,15.9087,-44.6022,9.4264,8.1899,49.1108,57.0457,77.4975,-52.9082,0.7678,-165.4701,-33.6173,5.0474,-61.1289,-7.6900,-2.4172,-29.0184,78.2370,86.9890,71.1496,-44.6237
-1968.7500,25.7284,-34.5943,57.1446,53.0761,97.6799,68.9456,89.1032,-41.1913,-24.6971,-154.7405,-58.7900,-8.6108,23.4903,-106.6675,45.1271,-128.5309,88.9208,61.8473,45.6790,-69.7680
-1960.9375,-21.1109,-82.2650,43.2109,6.3062,120.6067,-17.8247,38.0748,-55.1229,-1.7930,-131.6498,74.3672,-46.2101,120.4692,-83.2985,68.0495,-141.6971,75.9530,15.0457,33.5725,-46.5522
-1953.1250,94.4490,-1.5451,54.6686,15.9199,94.9345,-43.2182,49.4666,-80.6602,-64.4615,-157.1547,195.9013,-27.2005,131.8511,-71.5318,42.3929,-94.4700,-19.6120,-45.3614,-27.1155,-71.9295
-1945.3125,-1.3402,-62.1794,62.7624,-8.8198,29.9120,-34.9511,21.5164,-35.5463,-19.4729,-75.0025,57.0884,-18.1762,102.8807,10.8812,14.3870,-86.5808,25.4626,-0.1257,-17.1441,-26.6627
-1937.5000,-21.1979,24.1238,6.8070,76.3825,-27.1613,-54.7014,1.5233,-55.4781,-39.5277,-20.8977,37.2313,58.5184,45.8576,101.2282,30.3273,-69.7263,-29.5129,-19.9445,-72.2141,-46.4523
-1929.6875,47.4787,22.9673,41.4096,111.1297,-28.6783,-92.8933,73.0910,-93.8637,-4.0221,-22.2442,35.9414,14.8470,44.3894,-46.8718,-7.1743,-71.3416,74.0573,-92.2182,-38.7216,-47.6987
-1921.8750,-17.6302,-42.9948,81.2206,45.0758,11.0115,-125.9033,39.8659,-127.0490,71.6827,-93.3958,39.8457,-34.9110,11.1262,-80.7609,-41.4677,5.2201,149.8385,-87.2967,70.9834,-7.7513
-1914.0625,87.8074,-7.4272,47.5863,44.5786,13.2507,-49.3808,42.1907,-87.6796,0.9450,-89.9979,42.2865,4.8717,-59.5893,-4.0928,-2.2061,8.3445,43.1775,-51.8256,35.2443,-78.2558
-1906.2500,-10.0027,-34.1273,53.7054,17.8403,20.2343,30.8774,48.2642,29.4435,7.9638,-83.8477,-98.5291,-1.1130,-16.5620,-33.6839,4.8172,-22.7653,16.2766,-8.6135,78.2638,-35.0167
-1898.4375,-26.9636,-86.9912,-38.3218,0.9535,1.0663,84.9636,-6.8019,83.4164,-48.1530,-65.8411,-43.4972,7.8785,-35.6802,57.5771,-14.2977,68.9672,-35.7710,79.4362,26.1422,-16.9264
-1890.6250,10.5149,-119.4211,-33.9020,38.5163,-68.6477,126.4834,-39.4062,124.8363,-80.7962,12.6310,-39.0085,24.3619,-68.3427,99.2915,-83.9535,72.1358,-33.3822,46.9252,63.4703,-49.3757
-1882.8125,-57.7719,-222.6367,-32.2330,5.3230,-67.1175,91.2426,-0.7541,126.5051,30.8247,87.3585,-111.2650,-12.6517,-103.7433,101.2573,-82.3362,0.5663,38.2488,48.6590,136.0572,-47.5586
-1875.0000,1.9177,-162.9040,-40.5661,66.1152,-75.5823,45.9828,26.9109,155.1831,22.4664,153.0908,-45.5334,-14.1328,-112.1334,19.2234,-17.7009,-44.9924,-7.1173,3.3978,90.6634,-92.7260
-1867.1875,-28.3990,-192.1834,-0.9017,69.9029,-36.0462,-24.2926,29.5848,157.8621,25.1210,192.8309,-79.8025,-62.1702,-35.5171,-87.8185,-14.0439,-42.5409,32.5106,-26.8632,95.2804,-52.8939
-1859.3750,-76.2572,-135.0255,-14.7858,23.1396,-50.0555,-112.1368,52.7174,106.9923,48.2383,179.0250,53.3741,-72.2698,24.5554,-64.4222,45.0692,54.3598,-49.4097,-109.6776,12.3587,-29.6122
-1851.5625,-13.0615,-107.8382,14.3848,-19.5718,-58.0145,-191.9463,118.9044,62.1730,77.4101,171.2687,82.6151,-99.2586,126.6797,-71.9690,111.2304,119.2935,-128.2751,-222.4420,-30.5057,-37.2779
-1843.7500,-69.0560,-162.8470,25.3590,-109.4789,-47.1703,-290.9674,129.8910,0.1497,162.3774,145.3072,57.6614,-133.6761,174.6011,-23.7178,159.1959,94.0248,-78.3330,-242.4114,19.4359,47.8500
-1835.9375,33.4530,-61.3436,21.8345,-8.8917,-122.8209,-294.4984,53.3867,-40.3836,85.8574,105.8346,164.1913,-43.8065,171.0286,84.0134,192.6792,-20.7405,-151.8821,-210.8916,-124.1037,44.4693
-1828.1250,59.3675,-69.4224,47.7102,17.0925,-134.0712,-231.6437,5.2903,-50.5278,37.7490,20.7534,117.1195,-42.8455,159.8574,36.1466,144.5789,-31.1036,-56.0348,-149.9875,-98.2369,70.4750
-1820.3125,-5.9174,-29.6962,53.3808,22.8833,-91.5264,-189.9929,-25.9957,-80.8687,6.4430,-10.5260,122.8405,-32.1029,92.4783,5.0916,114.2782,47.3267,-15.3885,-109.2928,-92.5646,76.2736
-1812.5000,134.8948,182.1280,20.1466,23.7815,-52.8820,-186.2493,14.8215,-115.1097,-26.7520,-43.7107,125.6661,3.7347,59.1993,-64.8627,80.0738,87.8550,-85.6422,-143.5102,-93.7863,6.1733
-1804.6875,38.3260,84.5492,26.5152,-73.7209,-9.6423,-105.9244,21.2454,-35.7627,53.6596,-37.3010,-14.8997,-18.7612,28.5203,-21.2356,13.4808,93.9886,-77.2930,-66.1364,-15.3987,49.6702
-1796.8750,29.2145,4.4171,-56.6561,-47.7815,-55.9495,-6.1685,-24.8740,29.0257,7.5357,-9.4509,49.9775,5.8659,-17.7051,80.8414,41.3568,84.5734,-156.4872,-5.3214,11.4440,40.6143
-1789.0625,46.2120,-117.5983,-74.7307,-65.7413,-74.1553,86.6822,-5.8964,120.9115,-47.4833,9.5072,-5.0502,-27.1163,1.1598,63.0201,-13.6694,66.2582,-104.5766,82.5902,63.3867,22.6539
-1781.2500,-56.3855,-185.2045,-71.4048,-97.2932,-33.9635,125.9278,-2.5215,88.1988,-7.0935,49.8695,-38.6868,-51.1732,4.4227,66.5924,26.7060,69.3428,-66.2689,85.8986,101.7330,26.0889
-1773.4375,54.1145,-40.7386,-64.9824,-57.7521,-27.6663,95.2647,3.9585,93.5915,-37.5908,19.3321,4.7754,-14.1270,10.7912,36.2705,33.1907,38.5312,-96.8639,20.2966,36.1945,-4.3765
-1765.6250,-2.8415,-95.7432,-16.0166,-78.6750,21.1872,34.1363,16.0026,69.5366,11.4718,-5.6540,-57.2008,-54.9927,59.7161,-25.4876,8.2510,13.2706,-12.9188,-1.7687,85.2183,44.7006
-1757.8125,11.0404,-48.9095,-1.1986,-65.7608,-1.1052,-25.1519,-6.0956,47.3358,-10.6045,9.2206,31.6778,-19.9836,37.4988,63.5963,60.1728,64.8661,-105.1283,12.0114,-6.8940,22.6254
-1750.0000,33.3639,9.3699,23.0674,-78.4062,-13.9398,-37.9997,18.2599,71.5889,-23.2236,70.5555,19.0030,-38.5217,24.7351,-22.8937,47.5635,88.9293,-117.8926,-0.7664,-55.5460,10.0017
-1742.1875,-44.2094,-33.2618,12.4362,-83.9607,-24.6734,-47.7677,-29.2723,60.9429,3.2652,59.9940,8.4451,-58.0709,51.0837,-33.2951,74.0664,115.0879,-88.5534,-8.4517,-27.0907,73.4764
-1734.3750,23.8211,-1.3154,-25.5877,-17.9200,-62.8012,-12.9435,-30.2072,59.8907,-34.6333,22.0330,81.5048,20.0853,13.0376,112.9117,73.1663,39.8314,-126.6059,-46.5433,-100.0309,35.5504
-1726.5625,-34.0927,-23.3168,-12.5521,31.1750,-85.8787,-0.0782,-54.1000,35.8848,-21.4786,-1.8717,-16.3808,54.6916,26.0412,163.1674,49.3234,-21.3687,-44.6097,1.3995,-86.9184,48.6680
-1718.7500,-48.7042,-3.0191,-64.2143,16.5713,-100.6553,22.0746,-68.6848,58.1715,37.9873,57.5187,6.0037,48.1289,-25.6551,148.7143,34.7996,37.7418,-94.3028,22.6311,-66.4989,34.0872
-1710.9375,-15.5728,30.0147,-65.1307,-21.2798,-65.6833,20.9706,-32.5103,93.1944,73.2117,92.6516,-31.8703,-31.7940,-26.5999,-72.9766,34.0384,146.6066,-97.2413,-15.3857,36.6752,-3.7406
-1703.1250,-65.4887,-89.0240,-46.0983,-141.1837,-9.7597,2.8130,60.6225,39.1605,129.3897,1.7219,-121.7768,-110.8962,29.4099,-125.7108,53.2347,129.4170,29.7736,40.5440,162.8135,52.3756
-1695.3125,28.6414,-102.0455,-93.0084,-152.0467,54.2244,29.6988,86.8186,29.1741,82.6372,-45.1617,-59.6303,-65.9911,-17.5250,10.6011,79.4893,8.2702,-17.1533,63.5177,187.0135,5.5408
-1687.5000,-24.3320,-154.1842,-37.0144,-136.0148,109.1196,84.4828,105.9281,84.0861,28.7972,-26.1487,-114.5993,-46.8407,1.4421,29.7902,-48.3395,-119.9754,69.8210,115.3897,204.1258,-12.3946
-1679.6875,-89.3622,-149.3713,7.9303,-59.0339,79.9688,129.2119,3.9979,91.9509,-37.0877,-18.1883,-32.6182,-20.4381,-27.6385,36.9073,-40.2169,-76.2656,75.7507,157.2103,105.2005,-41.3838
-1671.8750,23.4452,33.2841,54.7275,-52.1985,53.6739,102.7999,-59.0937,65.6665,-100.1310,-8.3789,88.2228,-29.3766,19.1391,-99.1342,-30.2412,-28.6943,48.5375,93.8852,42.1282,-104.5289
-1664.0625,-64.1420,15.5355,70.1305,-69.7557,31.9844,80.9884,-80.5853,80.9860,-10.5794,8.0250,-6.3345,-64.7185,71.5165,-157.5736,-13.6629,59.4610,64.9311,40.1638,58.6622,-52.0804
-1656.2500,-51.7273,27.7754,45.5394,-22.3129,8.3003,20.1741,-68.0692,56.3056,37.9748,56.4269,42.0981,-26.8246,10.8975,-71.0110,-1.0745,35.6156,7.3279,-17.5683,1.2061,-39.6345
-1648.4375,-14.9760,30.3350,45.2993,-20.5279,6.9749,-55.2976,4.7999,-18.0293,110.8922,19.1839,-69.1259,-12.3276,46.6314,-35.0975,34.8845,-111.8773,45.0848,-85.9576,39.1132,33.1657
-1640.6250,-31.9699,48.1367,26.3107,-72.4974,-12.0991,-73.5261,22.9225,-146.1104,129.0614,-72.8039,-51.0869,16.9647,27.6222,94.0556,53.1065,-94.1135,98.0832,-68.1042,22.2686,51.2090
-1632.8125,51.1711,95.0680,5.4717,-24.3300,-33.0197,-21.6088,39.2044,-95.0397,71.3921,-94.6347,2.1016,52.2595,-30.2319,109.3539,32.4780,-80.1911,40.2367,-91.1017,-35.4107,-6.5952
-1625.0000,-2.1977,-28.5083,21.1300,28.3331,-54.4349,67.8059,17.9932,-42.4695,51.2357,-4.9646,-92.2164,-0.4815,-87.5911,-21.8394,-98.6419,83.2300,92.8893,-38.6024,-18.5807,46.1010
-1617.1875,3.3429,47.8049,-10.3134,68.8964,-48.9515,73.1192,-86.3063,-36.9951,-17.0112,37.6071,-13.6439,29.2668,-118.0542,-16.1431,-128.8562,161.5505,63.4492,-33.2126,-47.8407,51.6982
-1609.3750,39.6283,47.8471,26.9917,69.2064,-48.7154,73.1778,-49.8518,-36.7738,-16.4945,0.9306,-86.3186,52.8773,-81.7671,21.2931,-128.3188,14.6286,98.7669,-33.0779,23.6633,52.0504
-1601.5625,-86.3802,-78.4093,-33.0039,12.2133,39.2207,12.9288,38.3074,-22.8549,34.7247,14.9527,-145.2822,23.0667,-67.7830,72.4353,-42.0750,-44.5890,77.7779,51.7483,72.8742,66.0967
-1593.7500,-64.1954,-20.4804,-40.7946,36.4080,31.3624,4.8781,103.6771,6.2673,-9.8443,44.1752,-81.0599,26.1584,-76.5961,27.7734,-12.6270,57.3956,-39.0084,74.7722,-8.7026,-15.6536
-1585.9375,-73.8689,-101.4215,-15.4397,-8.2533,56.6621,29.9743,92.2051,31.5410,15.7504,32.5501,-92.6879,-38.5241,-14.2581,-57.7483,-24.0153,45.5344,21.3531,64.9421,16.8814,9.7516
-1578.1250,-33.4945,-61.3224,-10.0326,-2.8721,62.0148,-1.8833,61.7943,-0.1387,21.4036,0.9799,23.7367,-46.2225,28.1374,-89.2386,55.6587,-23.2736,-8.2390,35.1607,-12.4790,15.2071
-1570.3125,63.8111,105.7076,18.3208,-11.5539,16.3226,-10.7927,53.3425,-45.8698,-23.9831,-7.6411,15.1158,-5.2182,56.4922,-97.7762,47.2852,-105.1303,-16.8753,26.3339,-56.8783,6.6147
-1562.5000,-33.4339,114.1832,-11.8757,-3.7880,23.0853,-4.2499,23.3418,-75.1525,-16.9178,-0.8133,-52.0393,22.6577,26.2983,-53.8540,17.3676,-97.5476,26.9363,69.9571,-12.8282,50.4626
-1554.6875,19.7205,131.0398,-27.6645,14.3792,7.2605,-20.3009,7.7497,-55.0405,-69.4469,57.4132,6.1943,14.0236,10.5055,-69.5453,74.8520,-4.5676,-25.8430,16.9770,-29.3677,-2.2916
-1546.8750,-22.6326,19.3819,1.0471,-27.9554,35.9449,-28.8568,36.6625,-26.4298,-3.4663,49.1387,-39.0791,-59.8662,39.2142,-149.7575,30.8498,97.9215,37.8874,-60.4981,34.5964,26.4562
-1539.0625,-10.0336,-39.3234,13.7078,-50.3432,11.5835,-53.4682,-61.4631,-13.8711,-27.5351,61.8160,47.6014,-24.2540,-22.1226,45.9663,6.8137,73.3648,50.5649,-48.0307,-23.4838,39.1472
-1531.2500,85.9528,56.3445,42.7749,10.6581,-70.3663,12.3184,-106.1778,-21.9150,-109.1884,16.8828,75.6813,75.5517,-67.0482,185.0910,-74.8186,-8.7921,75.6540,-93.1708,-32.1475,-5.7614
-1523.4375,0.8476,5.9000,62.7440,-4.4522,-50.4093,69.0027,-121.9903,-39.0621,-88.9428,-0.1614,-14.3133,49.6372,-47.0709,131.1234,-54.5483,-26.0423,130.6430,-38.4188,23.0931,14.2256
-1515.6250,82.7528,52.4450,40.7205,42.4318,-34.4474,46.6906,-106.8027,-23.2107,-109.6929,-58.2032,74.6885,19.7532,-31.0968,0.1457,-1.2775,99.7080,37.6410,-60.6691,-34.6603,-43.7862
-1507.8125,45.6575,14.9803,75.6931,5.3067,0.5197,44.3787,-34.6148,-25.3602,-74.4345,-60.2388,35.6793,5.1102,3.8707,-1.8420,-40.0060,97.4632,0.6448,-27.9173,-1.4036,-45.7928
-1500.0000,-28.2283,-24.2763,34.8653,-33.6209,32.6877,40.2668,-38.2233,7.6886,-40.9764,9.9234,31.8743,10.6926,0.0311,67.3638,-43.5308,20.4148,-38.1539,38.0321,30.0582,-49.6025
-1492.1875,-7.1260,31.4461,-13.9587,-12.5540,57.8611,102.1593,-13.8279,68.7362,-52.5106,71.0761,20.0699,23.3431,-12.8075,18.5751,17.9444,-65.6367,-121.9433,59.9873,16.5294,-98.4114
-1484.3750,-160.4821,-87.2948,-29.2364,-59.9353,78.5899,85.6103,44.1137,126.3366,41.5011,91.7809,-69.1761,-50.5231,44.9051,-70.6585,38.9734,-8.1220,-100.1921,81.4944,74.5483,-40.6769
-1476.5625,-154.7899,-10.9845,-58.4609,-89.2621,49.3734,-16.8806,52.1122,96.9851,49.5617,136.5409,48.6278,-15.7279,15.6719,47.1467,47.0515,35.4464,-129.3932,17.0418,45.6180,-69.8962
-1468.7500,-96.0574,47.3648,2.3665,-101.5537,36.2142,-67.3227,113.1623,46.6842,110.6812,86.3465,-0.5119,-48.0601,39.4951,-76.0028,108.1846,-13.9370,-69.5404,-64.3602,69.7520,-46.0629
-1460.9375,-83.1173,-11.0863,11.3913,-122.6536,83.2615,-167.5661,159.4246,-54.4168,194.0047,59.3512,8.5579,-118.6412,86.5240,-175.9617,191.5334,-42.1264,13.5044,-121.5623,48.0879,36.9645
-1453.1250,86.0631,17.6987,4.6684,-95.5176,39.5700,-174.5597,189.9496,-61.2632,150.5904,15.6015,1.8648,-83.7729,42.8092,-109.6830,222.1405,-49.0634,-29.1964,-94.5134,-29.3160,30.2444
-1445.3125,34.3839,-68.3727,22.0938,-41.2347,20.0322,-120.4071,134.6256,-78.9627,132.3341,-3.9947,-89.6754,-72.6805,23.2432,-91.2550,129.9057,-66.8404,96.2497,-40.3170,-9.5709,84.6729
-1437.5000,75.3083,5.1520,-7.8840,-1.3528,-9.9036,-113.6480,-6.0993,-73.0632,28.6799,3.0147,63.3893,-32.4464,-43.7181,-49.2372,26.2656,11.9910,101.2985,-0.5283,-39.2251,54.6982
-1429.6875,112.8154,43.2668,33.7397,37.1255,-5.2367,-74.2854,-1.2241,-69.5676,-3.3676,7.6262,31.0599,-0.1303,-76.0778,-44.6287,-42.7717,-20.5727,138.9549,-68.1386,-0.2778,22.3289
-1421.8750,36.4818,-67.4664,61.5123,-4.2453,59.5802,-45.7640,-10.2020,-40.9287,24.7305,-1.6169,-51.1129,-26.6855,-47.2926,-16.8554,-14.6592,-28.9881,168.7619,-72.5970,28.8179,87.1041
-1414.0625,59.8996,-11.4626,49.0370,-51.8656,47.1468,-22.4845,-22.4299,-17.5316,-24.4188,22.8886,9.4436,-30.9024,-23.7671,-29.3259,10.1985,-5.6596,86.3341,-51.3004,52.6795,74.6272
-1406.2500,6.6613,-29.1178,-7.0900,-104.1357,28.0706,-4.8465,-40.3077,37.2236,-6.2157,40.7387,-9.6548,-58.0725,31.0991,-47.4597,-8.5910,12.0205,69.2673,-33.6450,70.9030,92.4942
-1398.4375,5.1293,3.9272,-79.5131,-35.7076,28.7034,-4.5022,-76.4802,37.6806,-5.3205,4.2812,64.9627,-24.9610,31.6731,-10.9125,29.3197,86.4077,-38.0982,-0.2869,-36.1757,56.0490
-1390.6250,59.6356,-12.9847,-59.8785,-17.2384,12.4026,15.8906,-56.5941,21.1815,-21.3758,-12.1303,85.6305,-18.2447,52.3044,9.6733,87.2840,32.8477,-89.4086,-51.8794,-17.1989,39.6531
-1382.8125,-39.7547,-75.7882,-54.1478,-45.6741,54.2103,-16.6135,22.3967,-11.2195,57.6723,-7.4418,-20.6012,-43.5034,57.0356,-22.6442,55.3595,-35.6131,-12.6284,-10.3722,60.8721,81.3529
-1375.0000,28.6005,61.1554,-55.6640,22.6312,53.7759,-54.3653,22.1489,-48.8731,20.4801,28.9958,15.9090,1.0835,-17.4767,-60.2159,55.1873,-73.3411,-15.0931,-13.1194,23.7013,43.8050
-1367.1875,32.4479,29.5821,-51.6766,-8.5718,56.8495,-50.6180,62.4010,-45.0330,60.7900,-5.0751,-18.0613,-7.4496,-50.4782,-56.2953,-15.4824,-106.5702,24.9513,-43.3665,99.0351,83.7598
-1359.3750,-9.0926,22.6119,-59.0802,-49.1706,11.5288,-95.2657,17.2504,-16.5974,89.6878,23.4472,10.5889,-10.9952,-57.8757,8.2077,13.4438,-5.1911,-16.4016,-15.0162,56.9593,112.3070
-1351.5625,73.1567,69.4338,-82.6790,-38.9653,-47.9867,-46.1050,30.8968,32.6373,66.3770,36.7624,-12.9791,-19.8378,-45.4768,-51.4915,27.1654,80.9994,-73.9407,-38.8534,-1.3149,88.6542
-1343.7500,-47.3985,-121.5461,-27.0826,-53.5507,-28.3025,-63.7219,49.7304,15.0808,122.2557,55.2724,-29.3515,-82.2201,-25.8834,-68.9795,10.0958,99.3956,15.7171,-17.4840,19.6062,144.1917
-1335.9375,53.2397,-55.3296,5.7147,12.0642,-31.4130,-66.1266,-25.2355,-24.2730,46.3368,15.9828,114.4773,-37.6553,-29.0824,-35.2739,-28.7791,22.9875,46.5772,-22.9100,-53.2685,104.9214
-1328.1250,129.0143,18.0298,86.6665,52.8181,-25.3611,-24.3730,-55.0474,-54.4747,-20.4301,-50.1569,84.4686,8.9766,-59.1278,-29.4325,-94.5019,-43.2791,122.5931,-18.1812,-48.9857,74.7968
-1320.3125,53.2951,47.8947,81.1242,11.0628,-30.7994,-30.1174,-96.3509,-60.1806,-25.6980,-19.7956,115.9657,14.0126,-64.6763,1.9036,-63.7217,-13.0529,82.1051,47.0534,-54.2058,69.1652
-1312.5000,49.9253,185.1052,5.9340,8.6526,-68.8818,42.4905,-62.3034,11.4673,-63.6093,52.9168,77.7959,69.3631,-29.8777,37.5849,-28.6003,-14.4757,-97.0251,43.6410,-92.0711,30.8886
-1304.6875,-163.2878,40.4688,-72.1077,-63.6050,-72.8159,110.2472,-30.1093,116.2611,4.6276,120.7839,-38.2178,41.9961,1.0642,105.4074,2.6700,16.2597,-133.9978,76.3740,-23.7897,98.7626
-1296.8750,-216.8915,-82.5580,-164.5443,-48.2608,-55.1451,128.5980,-12.3121,134.6499,23.4656,102.2467,16.3738,0.8095,19.6062,86.8165,95.5340,34.5948,-187.3640,92.6982,-6.9089,80.2364
-1289.0625,-162.4063,-99.4915,-104.8822,-63.8130,4.6281,78.0486,85.5855,84.1350,47.4055,51.8028,3.0603,-89.9656,80.2458,-146.6708,118.4930,21.0385,-97.6221,77.1226,49.0725,29.8151
-1281.2500,-198.5129,-101.0162,-67.8240,-64.9536,42.7968,41.9117,49.8768,48.0215,48.7367,15.7532,-32.8493,-62.1603,44.2801,-73.7497,46.8515,21.8801,7.5134,146.9481,48.4470,-6.2121
-1273.4375,-112.8788,19.2083,-47.0148,56.6536,25.7197,98.5382,-40.0878,67.6638,-78.1825,-37.5512,60.9880,97.8116,-45.9283,166.9075,-80.0474,-31.5295,-12.5915,126.5331,-41.4194,-96.4903
-1265.6250,-99.8516,-38.1657,2.1939,104.6536,39.0492,74.5727,-26.6560,80.7066,-101.7079,-61.4544,-35.7639,100.1005,-69.7351,143.9573,-177.5440,-92.5189,106.6969,104.5223,42.1134,-83.3750
-1257.8125,18.7320,81.0068,17.9542,153.1986,54.9333,53.1675,-47.6643,22.3020,-122.6876,-45.8120,53.0316,80.5501,-127.9920,-25.4328,-161.4902,-76.9631,120.5306,48.0603,-13.8065,-104.7178
-1250.0000,167.8600,158.7145,65.2688,161.2809,28.3821,63.3214,-38.1222,-4.5553,-149.1114,-72.6215,26.3695,52.5622,-117.6964,-162.2679,-187.8838,6.1249,128.9236,21.1540,-40.1693,-131.5085
-1242.1875,96.9507,122.3796,62.5413,90.3075,25.7913,23.4303,-3.6262,-43.4694,-77.5916,-75.4871,-49.3196,41.7698,-120.4488,-91.1753,-116.3329,3.1607,198.2679,19.1991,-40.5831,-97.3550
-1234.3750,152.1385,177.1441,47.9246,110.4318,11.3097,45.6472,-18.0314,-58.2833,-91.9755,-90.2598,9.0861,102.4103,-98.1000,40.9984,-20.6927,-84.6913,113.7274,-30.6476,-124.8993,-112.1044
-1226.5625,110.3656,134.9654,74.3564,67.6146,1.8789,34.9294,-64.3964,-69.0477,-102.3138,-63.9861,-0.4638,87.6201,-34.7122,67.2339,-30.0097,-132.4857,107.2368,-2.4331,-97.1724,-48.8071
-1218.7500,51.5491,75.7495,86.7354,44.7579,14.3973,11.1790,-88.8189,-56.8563,-89.7121,-88.7638,121.9446,48.0309,-22.3751,42.4256,-17.3858,-46.3474,48.6943,-25.2663,-84.5005,-36.5686
-1210.9375,194.8249,7.6285,91.2153,47.0012,-54.9813,14.5385,-47.1452,-89.5593,-85.0091,-84.4431,199.4496,-49.7518,55.0649,-137.2918,23.3328,30.8855,16.2615,-57.9967,-80.7225,-69.2272
-1203.1250,100.3527,-122.2446,100.9416,-11.5102,-8.1043,25.1488,-37.2189,-80.0118,-38.0600,-74.8712,99.2040,-80.9257,101.7568,-90.7731,-2.6860,41.3812,28.0722,-11.4719,-33.6977,-22.6419
-1195.3125,40.5849,64.5754,41.3702,33.6723,-30.5235,75.4626,-59.5842,-65.7617,-134.4089,-97.5997,150.6486,39.2542,79.1527,33.4421,10.9944,-18.4122,-66.4175,33.7530,-57.9778,-82.3602
-1187.5000,-73.4900,160.0956,32.5003,60.5485,33.7639,66.4750,-31.2540,-37.8137,-143.0611,-69.6299,67.8094,88.3951,70.2553,24.3682,-70.6353,-64.5113,-40.2012,60.6775,-31.5640,-91.3793
-1179.6875,-123.2480,3.9368,17.9417,9.7279,93.3562,51.7807,-9.6263,-52.5772,-83.4260,-84.3710,90.2961,51.2571,55.6631,83.5884,-47.9649,-116.3215,-19.6843,150.8997,24.1344,-106.1047
-1171.8750,-16.5099,-100.7217,22.8993,-23.5916,134.4617,92.5850,69.4998,25.1413,-79.2912,-80.6220,94.2786,-27.6051,60.5769,-22.7117,-6.7937,-75.6338,-53.6471,116.6251,26.3260,-175.3275
-1164.0625,-77.8681,-197.4796,28.7616,-14.9988,177.4768,99.2960,112.5203,30.7502,0.7357,-36.9786,-82.8351,-80.7772,29.3930,-127.1273,-36.7256,3.9596,26.2951,91.2609,71.4031,-95.6552
-1156.2500,-41.4296,-126.4286,28.4251,21.4105,141.2899,24.8218,75.3357,-42.8387,1.5510,-37.5403,-46.1524,-47.8182,-6.9882,-90.7424,-36.8680,4.3476,63.0393,56.7076,37.2695,-59.1874
-1148.4375,-67.3010,-187.6681,37.7824,30.5255,150.8052,-1.9414,84.8420,-70.7287,47.0627,-65.4030,-73.7730,-71.9219,38.3297,-118.6410,-27.3170,-60.5773,178.4856,30.8581,117.8291,-50.0198
-1140.6250,-211.6529,-262.3797,33.6374,-8.8575,146.8147,29.8063,117.8432,-75.1163,80.0589,-69.7706,-77.8852,-63.8226,34.1428,-12.0388,5.7275,-28.0110,174.4301,97.5085,77.8814,-54.3602
-1132.8125,-135.3027,-150.3844,7.2027,33.4593,120.5269,77.2620,128.5361,8.1994,-20.2441,-59.4461,5.6962,27.4683,7.6482,108.2421,-21.5455,-91.7295,5.0887,68.8638,14.6383,-117.9999
-1125.0000,-181.9013,-197.3292,-6.1843,-48.1713,106.2910,136.7785,114.2657,30.5675,76.4910,-37.0726,-7.6718,-12.0546,67.1913,93.5746,-71.7789,-106.3801,-40.1972,22.2804,110.4336,-58.5936
-1117.1875,-184.0410,-199.8210,-45.1192,-121.3378,104.5032,134.7601,112.4363,28.3883,74.6607,-39.2535,-9.5889,-59.2756,65.1804,54.3667,36.4235,75.4181,-148.0313,55.1546,108.6671,-60.7447
-1109.3750,-128.5389,-214.6693,-59.4012,-135.8500,90.3684,157.3996,172.2486,50.8587,23.4813,-127.7764,-97.8657,-95.3155,87.8204,-33.1843,96.2744,171.8504,-127.2088,111.6841,94.5474,-75.2444
-1101.5625,-200.4304,-286.8942,-24.0879,-101.7542,125.8325,155.6473,133.6605,11.9289,21.8950,-129.6990,-62.5442,-76.4505,86.0613,37.8641,57.7274,58.8829,-22.7983,144.8151,57.0127,-77.1504
-1093.7500,-76.5274,-23.3119,71.0233,22.1339,147.0977,139.6976,81.8780,-40.1950,-65.8921,-107.8228,106.5664,19.4909,71.1094,-14.2934,-31.0266,-140.2747,-39.5898,57.7502,-64.7197,-129.2563
-1085.9375,-57.1294,65.7750,123.6291,40.5188,126.8646,82.2551,60.5858,-97.8162,23.8126,-92.4510,48.1938,20.2181,49.6574,-108.9442,-125.2873,-196.9218,50.1136,41.1934,-44.9573,-39.8652
-1078.1250,-26.5191,-8.9273,80.4399,1.1067,120.8318,3.0262,55.4904,-104.2322,54.7039,-98.8886,6.0287,-1.3522,-29.5920,-41.3971,-94.3522,-57.3829,46.0140,36.8434,20.9946,-9.2823
-1070.3125,111.1902,-47.5356,42.3608,-37.2005,82.9079,-72.0919,127.4852,-105.5535,126.6870,-63.2343,-69.0432,-43.6444,-30.7338,-42.7547,-21.3240,15.2473,8.0276,-36.3946,53.0373,-47.5984
-1062.5000,52.3568,-71.6764,53.7389,-61.0447,93.4362,-134.7481,174.9213,-95.4325,211.1014,-16.1404,-95.6512,-50.1513,-57.4245,-32.6690,-84.8514,-48.6684,55.4903,-24.1772,65.5102,-0.4737
-1054.6875,136.7741,82.4473,68.3748,-11.6323,72.2173,-120.1458,79.6070,-80.0647,115.7594,-0.8063,66.9894,12.9291,-78.8636,-17.3470,-106.1378,-179.3295,-0.7899,-10.7074,-25.7749,-22.1037
-1046.8750,72.3361,88.7259,110.1617,-5.0656,78.1520,-78.3878,48.4393,-75.5527,84.5621,3.6656,35.7840,-13.5698,-37.1537,-122.8599,-100.2782,-137.8423,41.0843,-40.0840,16.0866,19.4130
-1039.0625,-12.3864,-31.2845,21.6523,-54.7961,25.7813,-19.9217,-4.0329,-17.3360,69.0505,24.8320,94.2847,-63.1101,-15.7498,-101.6553,-42.7277,29.3379,-43.3460,17.2416,37.6356,40.6214
-1031.2500,31.0908,-59.0919,-42.6513,-11.3243,-38.3851,26.7511,5.6846,29.0837,4.7346,34.1954,102.9787,-19.2488,-43.1496,17.7460,-32.9918,75.7212,-105.5671,-10.2312,10.3784,13.0355
-1023.4375,-43.0699,-96.5266,-48.6054,-50.4916,-8.2076,56.7738,-37.2568,21.8498,34.7577,26.9109,-49.9753,1.0953,-49.2056,121.4880,-38.9037,68.4588,-38.4429,-14.3515,6.4548,79.8026
-1015.6250,3.6312,89.9040,-71.7103,-3.8017,-67.1824,33.6426,-96.3535,-38.5375,-25.3723,3.4745,-0.0849,90.2904,-36.4060,208.0632,-25.9675,45.0467,-95.4624,-2.6229,-85.6281,56.4228
-1007.8125,-19.4747,136.5420,-58.6163,44.0988,-89.9602,47.7110,-47.2597,-24.7326,-48.3062,54.2360,-59.9928,94.0791,-22.4015,110.8488,-48.8375,-15.1655,-49.2762,10.3080,-74.5246,33.2456
-1000.0000,-69.2220,121.5386,-73.1723,29.3570,-68.3897,33.1378,-61.8241,-2.5800,11.0959,76.3467,-0.5440,24.2526,-0.0446,-51.0001,10.6376,6.9659,-63.7448,65.5919,-89.0840,18.4109
-992.1875,43.4683,198.9802,-62.2773,71.0704,-94.3625,7.0237,-50.9461,44.0248,-52.0576,122.9037,10.3508,16.3634,10.7693,-151.3981,21.5508,90.5455,-126.7635,72.3411,-117.1942,-44.9727
-984.3750,-74.9953,45.2826,-78.5343,23.6546,-73.4819,64.7697,-67.2244,101.4792,5.6268,143.3082,-151.8960,15.4534,-5.5703,-19.9476,5.3072,110.9784,-103.9426,94.9524,-59.4697,12.4882
-976.5625,-47.4001,36.6477,-157.7377,50.3038,-79.5461,21.5734,-73.4459,131.9810,-37.6492,99.7581,-123.0980,66.5951,-48.8576,120.5458,36.1087,67.4509,-77.0695,122.6125,-31.7052,-31.0081
-968.7500,60.2875,4.1165,-42.8394,53.0517,-0.5036,-10.5212,5.4296,62.5823,-32.8258,-5.6980,-81.2070,14.0628,-7.0408,-21.8542,40.0071,-74.9734,31.9039,54.3810,41.1512,-63.4058
-960.9375,9.3347,-153.0513,11.4053,2.1543,89.8826,-30.2500,22.6432,6.5394,21.3303,-99.8037,10.0450,-66.0692,47.1250,-78.8984,21.2472,-58.0419,86.2188,38.5065,95.3405,-9.4597
-953.1250,84.6306,-77.9704,16.9039,42.5118,95.5161,-24.7175,-8.9055,11.7522,-47.2696,-57.6553,52.5459,-38.4214,52.5434,-73.6987,63.7213,-15.8626,-13.2102,8.8888,-4.2225,-4.2623
-945.3125,-24.5221,-81.3301,9.9556,-31.5800,15.6961,5.3716,-51.9130,41.5161,19.6741,83.0429,-64.4049,-49.9908,45.5064,-43.9320,19.7405,50.8600,-17.0877,4.8236,62.7611,62.4821
-937.5000,-37.6596,11.3257,-75.9906,-44.6685,-70.1248,-7.5302,-64.9188,102.2799,-30.3898,106.7400,-4.3660,-3.0689,32.4628,53.8427,80.7538,111.5751,-134.9650,27.7558,-21.2676,49.2188
-929.6875,43.1522,55.9352,-64.9824,1.1919,-94.9978,41.5219,-53.9817,112.9927,-55.5047,44.3887,7.6193,2.7562,81.3695,-8.4407,92.7063,86.2470,-159.8859,-33.3576,-46.3593,23.9084
-921.8750,4.7309,-17.6729,-32.2242,-72.1847,-98.1237,37.3158,-21.3025,109.4502,-22.8827,2.7810,3.3734,-35.9028,114.0259,-12.9901,125.4052,7.6710,-127.0552,-0.7214,21.2740,56.3427
-914.0625,107.8161,50.2370,-32.9579,-4.0513,-99.7519,36.6020,14.8735,107.3992,-60.7690,1.6640,39.6197,3.6823,76.1864,-14.0428,123.5974,-30.4097,-199.7149,-38.5810,-16.6092,18.2764
-906.2500,75.9508,53.2116,-31.6408,-36.8575,-97.3320,37.9388,16.0892,109.3905,-22.6169,39.5884,-33.0834,-0.3286,77.3978,-13.0133,14.8335,-29.4522,-126.3259,-70.3859,21.5377,56.2601
-898.4375,19.2510,172.3520,-53.1755,-23.5057,-155.7704,-20.5650,-78.5540,87.5332,-44.3287,91.6560,19.3729,58.0172,18.7615,76.1841,-43.7851,96.6488,-147.7982,-22.0424,-0.1841,34.3916
-890.6250,89.8479,207.7935,-50.4088,-21.8571,-189.9101,19.2320,-76.9026,125.9769,-41.7432,57.0319,-14.8734,57.6325,-15.5692,41.6681,-41.1125,135.0545,-181.9709,-20.3932,-34.6099,-0.1680
-882.8125,-19.0997,28.7016,-56.1967,-25.7531,-122.6034,12.4815,-45.8089,119.8733,-11.7204,49.8601,-167.6631,0.8176,-22.4504,-2.4052,-10.9931,128.9242,-44.7040,10.7165,32.3967,66.7212
-875.0000,1.7494,118.4181,-70.1866,65.1592,-99.5014,-0.4563,-95.9235,69.5714,-61.9109,-0.5102,-71.6550,63.8007,-35.5328,21.3367,-24.0856,4.5951,11.3587,66.6357,-17.8081,16.4087
-867.1875,44.7383,127.2893,-23.0284,108.2222,-53.2504,46.7644,-86.9004,5.4251,-88.9530,-27.7326,-61.5027,86.4419,-25.4629,31.2478,-88.0283,-22.5904,89.5706,39.7102,-79.8704,-10.7554
-859.3750,-1.2610,151.1762,3.1240,133.2860,-64.0005,71.9935,-206.8774,-5.7193,-136.0040,-38.9491,1.6439,106.9459,-36.3938,56.1628,-98.9747,40.2295,78.7708,98.7867,-125.9479,-21.9246
-851.5625,111.4813,192.8048,50.0299,175.0992,-52.9962,82.9822,-197.1108,3.8898,-199.3084,-65.4155,11.5363,95.8141,-62.5742,-43.1704,-88.1922,86.8023,50.7257,71.6206,-154.2774,-85.3356
-843.7500,43.3781,54.5843,88.0874,108.0669,-14.8471,84.1210,-123.2058,5.6471,-88.4716,-101.7371,-134.4039,30.8198,-24.6092,-79.3376,-50.2628,50.5191,159.8331,3.6101,-45.4684,-47.5976
-835.9375,87.2365,133.3260,61.1004,115.9969,-4.7531,57.2136,-150.3542,-58.6473,-78.6931,-129.1133,-50.4036,62.9458,-51.6949,-32.5539,-40.3900,23.1838,167.8964,-23.4523,-72.7245,-74.9139
-828.1250,148.0907,54.0785,126.1096,106.9412,-13.6617,48.3124,-122.5114,-30.9444,-50.9203,-138.4876,-22.4141,47.1347,-60.7863,-5.7628,-86.5213,-22.1472,193.9568,-67.5104,-46.9967,-84.2282
-820.3125,95.9550,-69.1438,144.1148,89.8958,4.4191,-6.5870,-141.6731,-50.2365,-33.1647,-83.8596,31.5802,5.8876,-42.8795,12.0475,-68.6603,-41.4739,211.9991,-49.5753,-29.2924,-66.5441
-812.5000,162.7656,68.5874,143.0707,121.7934,-33.5561,-8.5418,-105.8850,-51.5770,-71.4598,-12.2749,104.5218,49.1763,-44.0161,10.8158,-69.8526,-42.8496,68.9857,-87.6961,-102.6458,-104.8993
-804.6875,63.0781,73.8389,108.5211,92.1894,-68.0430,-5.0114,-103.6063,-12.4173,4.7427,63.8228,-40.0293,76.2286,-78.6480,87.0871,-104.5418,-40.7184,39.4608,-82.3132,-62.5234,-28.7456
-796.8750,51.5056,133.2123,22.0686,80.6971,-81.4391,-55.3896,-116.2343,10.8372,28.0379,87.0246,-16.4822,75.7052,-92.1802,73.4524,-44.1331,-17.4931,-6.9662,-93.8283,-74.3152,-5.4880
-789.0625,108.5683,119.2390,7.2633,32.8627,-59.1866,-33.1265,-58.2147,-4.2629,49.9874,108.8729,-68.2947,-9.0657,-70.0588,-124.5262,-59.0763,41.3765,15.2656,-71.6877,-17.4602,16.4237
-781.2500,35.8332,11.4855,2.6536,-5.7583,-26.7368,-37.6654,-97.9988,27.8312,45.1289,104.9172,-71.8983,-27.6441,-37.7350,-56.2880,-62.8223,73.4394,47.6893,-4.3468,-20.4212,48.5269
-773.4375,25.1518,35.7810,-5.9013,19.6708,-72.2385,27.8446,-143.7348,18.9789,-37.6862,59.0129,-7.4459,56.8382,-46.3572,156.0066,-35.5311,137.5508,-33.8398,-13.9539,-101.3426,2.6810
-765.6250,-76.1807,-30.5718,-3.1105,59.4527,-68.3928,30.7024,-104.1315,21.4791,1.8453,24.4633,-77.6424,71.0931,-6.6343,195.6609,-32.8919,104.0213,5.9698,-45.2027,-95.9252,42.1891
-757.8125,-74.2556,7.3359,-38.0760,61.4887,-66.3017,32.8173,-139.2788,-13.7622,-33.3823,26.1665,-2.6052,67.4410,-4.6643,160.5728,42.9974,31.7450,-26.9806,-43.1918,-94.2675,43.9455
-750.0000,19.4561,135.0440,-13.2433,84.3226,-78.4067,-16.2601,-78.6257,-26.1981,-45.8060,13.6777,-14.7832,52.9093,20.1078,1.2859,67.6879,19.2615,-39.1324,-90.3737,-106.8146,31.5091
-742.1875,-41.4300,40.1639,-41.0153,23.5588,-69.1146,-43.9368,-69.5748,-18.2314,36.1636,58.5981,-115.5480,-4.8502,28.2830,-27.5908,38.7770,101.1757,41.1000,-79.1553,-27.9802,76.4733
-734.3750,34.4329,45.0353,-33.0374,-5.4558,-98.0787,-35.8663,-98.7752,-9.5151,-29.1147,67.2747,2.4392,21.2401,0.2121,91.2935,47.6078,108.8384,-23.9215,-75.1896,-23.4060,11.1929
-726.5625,24.5425,-35.8445,-7.8126,-51.2162,-108.7938,-10.5513,-73.7293,52.4484,32.8529,55.1977,-46.3203,-1.7055,-11.6036,116.4403,35.6859,60.7549,37.3040,-118.9713,1.4057,36.1693
-718.7500,4.1147,14.7369,-30.1391,-35.5213,-95.0659,-32.7863,-59.2351,28.8612,46.2608,31.5693,-67.6247,22.7432,-33.9661,131.0322,49.2172,74.1267,16.9669,-139.3029,-52.3470,86.5969
-710.9375,117.9269,128.5640,-22.2176,7.4211,-124.0917,-24.7760,-88.4927,-0.4734,-19.0757,39.2009,-59.6862,44.9923,-26.0721,64.8690,20.0013,44.7536,-10.1223,-131.3844,-80.8570,94.2830
-703.1250,21.9884,-2.3537,-13.0535,-16.3833,-115.8764,-52.5178,-80.5033,-64.5525,25.8308,11.0915,-51.4905,18.5682,-16.9268,109.9845,-6.9630,16.6226,141.0200,-86.2140,-0.1330,139.2188
-695.3125,58.4518,-0.8678,-8.4941,54.2180,-109.2709,-83.8595,-75.1139,-96.2236,-42.8668,16.3902,64.0994,20.8663,-12.3812,79.5235,-2.5342,58.8752,141.5536,-50.6390,-36.0221,34.5571
-687.5000,42.4535,-52.8197,49.6080,108.3724,-16.1202,-63.6499,18.8156,-39.3428,-59.0168,0.2485,-25.7611,-2.4605,8.7159,-47.3819,-18.5684,-31.3141,196.6298,-66.5043,-17.3764,18.4534
-679.6875,-12.2885,-36.5066,28.9562,89.7829,0.2718,-47.1895,-2.0109,-23.2104,-42.9229,16.3625,-46.3645,7.3193,25.0569,-31.0397,34.6463,-124.2378,176.9443,-50.1253,-1.4923,34.5999
-671.8750,100.4148,147.2456,39.7544,96.6421,11.1092,-36.2861,-28.3813,-86.6260,-106.3694,-10.0710,38.4662,32.7294,35.8496,-94.2453,45.3141,-115.7114,113.7120,-78.2943,-65.1619,-28.7953
-664.0625,24.9656,106.8499,70.3974,56.3523,42.7945,-78.5372,3.0996,-165.1983,-37.9648,-89.6528,-3.8469,6.6778,66.4931,-99.5767,2.8340,-47.3511,214.3239,-83.6090,0.0060,-34.3409
-656.2500,95.2745,106.2096,73.7887,126.8203,8.2277,-38.0352,-30.6683,-163.0195,-71.8205,-123.4865,72.5884,53.1215,-40.1127,-23.1495,5.0984,-44.2492,178.6830,-48.1696,-71.0886,-105.1368
-648.4375,128.6734,69.6640,109.2748,160.3893,6.7592,-3.4303,3.6583,-53.7352,-110.5817,-88.2136,-2.8814,67.8454,-41.6136,-24.6209,-32.5381,-120.0322,142.1326,-14.6255,-38.0909,-106.8246
-640.6250,-13.9741,-37.9162,103.7006,87.9113,2.2340,65.1150,-38.0638,14.5000,-79.3991,-93.9768,29.6083,34.8322,-47.1604,7.8661,-38.2185,-51.8663,104.5140,53.8646,-5.1626,-38.5590
-632.8125,101.7747,112.9040,41.5279,98.8294,14.1062,77.0467,-63.3840,25.1361,-141.8105,-119.3300,77.4920,76.0679,-35.3031,18.7579,-63.4963,32.6870,9.2997,-6.2486,-65.8422,-63.8819
-625.0000,60.9734,107.1779,70.7988,93.2042,5.4222,69.4151,-72.2596,-19.7801,-76.7733,-91.2224,-41.1721,87.2339,-43.9991,48.1087,-108.3249,-12.3026,39.5281,-10.9080,-107.0869,1.2493
-617.1875,69.8791,116.1626,42.7714,102.2856,-22.5676,41.4781,-135.4398,-47.9944,-104.0483,-45.4075,41.8738,95.9602,-34.9942,93.1766,-26.4692,-40.5886,13.4418,-1.8672,-132.6462,10.0812
-609.3750,116.5726,92.9350,92.5405,44.1653,-8.7603,18.3386,-122.8254,-71.4035,-91.5166,-105.7818,128.7174,32.2486,88.8147,-2.9394,-12.8140,-64.0798,25.1514,-25.0302,-52.4128,-13.2753
-601.5625,8.4229,-86.1472,88.4532,-29.8026,60.1875,-23.6528,-18.0611,-112.6606,-22.8349,-145.9944,87.7132,-14.2774,120.7747,66.1040,19.0033,-32.4250,21.9923,6.9535,14.9603,18.5231
-593.7500,45.7694,-12.7369,18.8599,-62.2749,64.6302,-56.1455,96.2080,-109.4106,-18.6482,-106.6980,55.1929,-6.3087,88.2364,69.6497,60.3219,8.7306,-46.6734,-25.5578,-18.1683,-14.1688
-585.9375,-42.4499,75.1220,-2.2901,-44.3025,80.5215,-76.1905,112.9238,-56.7082,33.9893,-53.9468,-2.8708,-12.7954,68.1533,-61.3486,2.0916,24.3478,-28.9004,-43.6111,-1.8528,38.5946
-578.1250,53.2352,240.8809,-49.5406,16.5699,-3.6905,-86.3395,-8.4573,-67.1047,-13.4776,-64.2882,23.9778,83.0762,-16.0264,39.5612,-45.2429,13.8673,-74.2369,17.2339,-47.6524,28.2581
-570.3125,199.4635,317.1823,-40.2464,56.9885,-68.3560,-40.9430,0.7146,-20.9542,-78.3872,-92.0762,-3.6306,138.6344,-43.6570,85.0404,-73.0277,-88.0615,-69.0293,22.6350,-77.9128,-36.5171
-562.5000,124.0916,206.8936,-9.5653,52.8097,-37.6292,-47.1476,31.2856,-27.3992,-47.8974,-98.4529,-46.8425,70.4577,-12.8923,-31.0576,-115.4053,-20.5964,-2.4469,18.4413,-11.7880,-5.8886
-554.6875,149.5129,302.3969,18.9111,42.4269,-46.1090,-55.5489,22.6646,-36.0347,-93.6030,-70.0172,91.7353,69.3073,-21.3239,-76.3514,-87.9821,43.6636,-84.0776,-26.9536,-57.8619,-51.4518
-546.8750,83.6665,236.6385,24.1254,12.7830,-40.8410,-50.2081,63.7985,-30.9104,-51.5494,-64.8185,60.0612,74.2933,20.9951,3.1096,-82.8036,-24.3155,-78.9671,-21.5917,-18.1912,-46.2558
-539.0625,22.5695,281.6387,-40.9157,-13.1089,-68.8262,-78.1228,36.6863,-59.0310,-5.7531,-55.8614,33.1419,114.9507,-6.9327,122.3360,0.1253,-52.5426,-70.1246,22.5178,-44.7846,-37.3095
-531.2500,136.4560,324.6316,-67.9600,29.9964,-58.8122,-31.0479,82.5730,-49.1519,-69.9494,-8.8970,6.2259,103.5939,3.1453,21.5802,10.0499,-5.7807,-97.2825,-39.3721,-72.3851,-64.3525
-523.4375,61.9378,109.2137,-40.4101,-9.2970,-31.2014,-40.3825,74.0564,-21.6715,-5.5446,18.6761,-76.0818,5.6698,30.8263,-60.5684,0.5869,21.5795,-30.8512,-8.6605,-7.3915,37.2090
-515.6250,20.8188,33.1928,-118.4698,-15.1926,-73.1936,-9.3300,30.9528,9.2145,25.2660,49.6587,28.0000,-1.1144,24.9107,7.6754,68.5293,15.3499,-106.0306,56.4492,-13.9995,31.1753
-507.8125,-35.4090,-21.9359,-102.6359,-70.1947,-57.2893,7.6087,47.7536,63.0017,41.9894,102.5543,-29.0217,-7.0365,41.8979,61.8302,48.3764,-4.9702,-162.3210,71.4528,71.2832,11.0537
-500.0000,-187.0285,-139.4516,-114.2094,-116.6010,-31.7930,-3.8631,73.1584,87.3854,103.3135,128.0620,-3.4321,-48.0051,30.4868,86.5952,73.8354,57.2988,-138.0312,60.0497,94.1561,-0.4605
-492.1875,-127.5042,-114.8338,-86.6324,-91.8648,-40.1507,-49.1954,137.7214,115.9239,131.7927,156.7285,61.3033,-56.3114,22.2278,41.5205,64.4449,47.7114,-183.5956,-20.2024,48.1775,-45.8093
-484.3750,-175.3871,-267.6225,-31.4710,-139.5333,15.0837,-66.9307,192.8848,134.0669,260.8733,138.0115,-66.3579,-122.2866,40.5629,-12.9325,46.6588,-44.2672,-91.5798,-68.8465,139.7859,46.4494
-476.5625,-125.8245,-182.9578,-88.8682,-124.7503,-7.2443,-125.2125,207.5020,75.6675,275.4044,116.7601,21.4255,-109.6441,55.3489,-34.9268,98.3226,-101.7921,-113.1312,-54.0412,153.8343,61.1646
-468.7500,-106.0247,-24.0559,-105.0252,-175.7243,-23.3281,-141.2496,265.3643,59.5246,222.1969,136.7735,5.4489,-98.6800,39.3848,-86.6595,82.2431,27.9321,-164.4393,-34.9799,137.1335,45.1431
-460.9375,-183.3746,-30.3037,-113.3469,-216.8568,-30.5683,-75.4433,147.0827,88.2411,140.8424,165.6508,-2.6694,-75.2618,31.2735,15.4721,37.0233,130.5042,-170.9207,28.9321,95.2786,73.9724
-453.1250,-33.3398,-20.1668,-65.2762,-136.6061,-55.4078,-28.2442,48.2145,100.3701,4.8981,67.9490,83.6006,-19.3980,6.5719,102.0017,12.2088,68.4814,-126.0181,-30.7519,34.8304,49.2097
-445.3125,-12.2789,-173.9896,-9.1685,-80.3123,0.8020,-44.0038,67.4005,45.5565,24.0090,50.3170,-43.0731,-29.1057,-10.0792,121.5858,-4.5515,-58.4761,-0.0792,-43.3795,90.4230,105.5036
-437.5000,-67.9201,-124.5226,-30.7661,-65.7186,15.3111,-103.4722,44.8911,-12.9537,75.4214,101.9931,-28.4366,-26.4810,-68.4260,99.4858,45.9885,-8.1418,-19.8507,5.2914,33.3066,120.1004
-429.6875,-98.8773,-84.3725,-25.6648,-60.4243,-15.4759,-97.2526,88.0871,-7.7636,118.5441,108.3783,-23.1051,-50.2165,-26.0717,-4.8978,52.2336,33.8775,-50.9206,9.6581,36.8861,89.4086
-421.8750,-191.7334,-178.1150,-49.4653,-154.0312,32.8324,-121.9458,137.3839,41.5262,167.7648,120.8795,-10.6714,-96.7119,22.3827,7.8262,27.5909,9.0004,-74.9088,22.1234,119.5534,101.8195
-414.0625,-78.4444,-99.7137,-75.1204,-145.4950,45.2877,-109.4963,185.8373,53.9710,142.1431,96.5447,74.9042,-68.0247,34.9849,20.6977,77.0965,-124.7177,-136.7563,31.7425,57.3679,40.3887
-406.2500,-83.5251,-175.6837,-10.1338,-116.3122,111.3902,-80.4002,177.9474,46.0713,171.1793,88.8739,-78.8702,-125.7930,64.2350,-132.7678,69.2508,-95.7730,-37.9666,25.0190,85.8300,69.6163
-398.4375,-152.3039,-173.3645,-5.8560,-112.8336,115.7898,-77.0040,72.3682,13.4805,102.5194,19.5133,-2.3372,-118.0282,68.7868,-91.9284,73.7114,91.4611,-35.8901,98.5915,52.5931,37.1482
-390.6250,-61.2403,-118.2082,20.2647,-57.5185,104.0381,-14.7639,60.6474,38.7464,-56.2769,-27.9894,97.0433,-59.9375,94.1916,-29.2287,26.0263,79.5286,-49.9677,84.0121,37.2170,-47.4562
-382.8125,-99.8294,-225.7025,52.7263,-60.8619,136.6295,54.8180,57.2793,71.3671,-23.7156,-32.1321,19.7691,-61.9177,89.9437,3.8407,-15.2988,-72.0414,-17.7165,81.7820,104.1845,-14.7067
-375.0000,-43.1780,-169.9583,3.4255,-73.9633,124.4648,41.6426,81.1725,59.2433,-35.8917,-7.0061,80.7295,-65.7967,77.9436,-7.8354,82.6331,-84.3445,-67.2282,32.7948,54.4041,-63.6986
-367.1875,4.5525,-122.1335,52.2080,-96.9804,137.3937,-18.4408,131.1728,35.2245,-22.9518,-30.7543,20.7899,-79.9733,91.0487,-68.4074,58.6793,-71.5393,-54.6567,10.9113,66.7223,-50.5786
-359.3750,-29.3780,-85.9719,52.3271,-60.6535,99.6695,-19.1791,20.5296,-1.4325,-60.6544,5.8723,130.2145,-51.7161,54.5081,-31.6108,-14.9148,-35.3918,-18.7604,82.3766,-37.6193,-14.1052
-351.5625,64.8274,-25.6769,41.5906,69.8144,16.0925,44.2282,-63.9608,25.0690,-144.1991,32.6624,193.7843,1.7115,7.1219,-41.6574,-62.3529,-83.0978,-29.7201,71.9952,-119.8122,-24.4667
-343.7500,-54.9737,-75.3836,60.8414,91.2805,-1.4865,26.6236,-44.4513,44.5717,-87.7428,52.4627,-7.6386,13.5769,-47.2596,-21.6967,-78.7804,-63.7952,61.3072,93.6135,-64.0131,32.1797
-335.9375,5.7764,20.4469,-21.3545,116.2915,-46.5131,18.5580,-52.3833,36.6224,-96.7308,44.8240,-89.5113,36.8192,-92.0895,-29.1899,-13.6507,39.0511,50.8829,83.7783,-74.6639,-12.6193
-328.1250,136.0069,150.7552,41.9429,70.7953,16.9645,-29.0207,11.1948,-10.8233,-107.2036,-76.3020,-62.8900,20.8499,-65.4165,-149.1736,-24.0118,-45.6033,109.9513,3.4413,-49.8125,-22.9081
-320.3125,97.3319,77.1660,74.3288,33.3907,49.5380,-33.5092,-30.1214,-89.1621,-110.5696,-189.3046,80.8363,26.3376,-32.6450,-43.0489,-101.2685,-123.1512,213.0894,36.2020,-53.8670,9.9086
-312.5000,177.6927,51.6095,121.7518,149.0155,61.1559,15.0449,-128.3757,-150.4417,-171.8685,-214.2392,165.6120,52.8831,-57.8190,-30.8636,-90.4722,-112.6483,187.2652,11.0055,-114.8632,-15.2091
-304.6875,86.7921,-74.2119,134.9112,128.3763,111.5175,28.3408,-113.8727,-135.9668,-121.4051,-163.4103,-4.8596,22.9426,-7.2509,-16.9111,-75.9234,-98.3836,202.1773,26.5621,-65.1057,35.4338
-296.8750,132.8858,-27.0422,75.0636,69.7326,87.8758,-32.3610,-65.3559,-123.4849,-72.9343,-113.5694,-28.3453,23.8334,-30.6919,34.0455,10.6305,-49.1165,72.0785,38.1239,-89.3457,12.0822
-289.0625,89.7569,-35.0951,-6.9937,26.8782,80.0360,-3.2671,37.9683,-58.1946,-43.6471,-47.9113,-36.0437,7.1037,-1.3329,26.8072,2.9947,16.9468,-42.2226,-4.5078,-62.7779,4.5412
-281.2500,-152.2226,-102.0058,-41.9103,-39.8333,82.3523,-1.0310,40.4540,-18.7535,32.7953,28.9026,-33.5773,-41.5818,38.1802,-7.2835,5.5194,93.1605,-38.3906,35.0059,-24.0595,44.1533
-273.4375,-131.9607,-45.6900,-17.5795,-54.3135,69.9238,-13.5496,65.2005,-31.0545,20.4998,16.9754,138.1413,-27.1686,62.9502,17.8724,67.3000,6.6238,-123.3151,-14.2280,-38.0834,-4.9747
-265.6250,-101.0167,-85.6885,13.4393,-93.1072,101.1948,17.6291,96.6481,-36.6458,14.9107,-25.2370,-14.4400,-27.3525,57.4211,49.7500,61.7921,-36.2115,-22.5624,-18.7542,27.5913,26.6051
-257.8125,-115.4267,-66.0446,-40.9045,-73.2537,47.1111,37.4546,5.7580,20.4219,-2.0261,-4.7775,-31.3717,13.2012,3.5463,143.2867,44.9453,57.5965,-73.1794,37.3691,-24.0931,46.8384
-250.0000,-71.8585,-56.4191,-29.2530,-28.4102,-14.9732,49.2655,-56.1235,69.4910,-26.9450,44.6959,-19.3037,-6.8470,-21.3205,45.8207,20.1020,69.4057,-28.7967,47.4889,-13.7710,22.0867
-242.1875,-110.6907,-130.2057,0.9896,-67.9738,15.5415,-31.3383,-25.3968,26.1536,40.7457,75.7828,11.3791,-48.8036,9.4087,39.9631,13.8654,25.8196,37.1772,7.2043,16.1498,52.9378
-234.3750,-5.6820,10.8484,-34.9163,-66.6959,16.9082,-66.1039,13.1945,-46.3338,79.3026,114.7320,86.9058,-9.1862,-26.0097,78.9510,52.4885,-9.9247,-102.0048,-95.2393,-123.0707,54.6445
-226.5625,-24.9381,-8.3592,-60.0810,-85.6821,-7.9678,-92.1296,25.5479,-108.0696,126.6233,88.4371,-11.8181,-30.5137,23.3256,53.6894,63.8763,2.0824,-52.4484,-114.9290,-108.5417,176.1118
-218.7500,-123.7478,-178.1212,-92.8040,-114.2249,-4.3940,-124.7073,29.3561,-103.3497,167.3927,57.5984,-44.0846,-85.7117,27.1149,58.8825,141.7213,42.5485,-45.4606,-37.1686,-66.5664,254.0360
-210.9375,-83.3247,-208.6548,-85.2843,-108.5344,-32.5692,-116.0359,74.4201,-95.3770,139.4235,66.0169,0.8918,-106.1921,36.1552,31.3387,186.8169,86.2709,-76.2290,-32.1530,-27.3322,189.2220
-203.1250,-135.1091,-330.4006,-64.9767,-160.0543,-11.9483,-59.5627,58.2927,-37.5986,160.2646,50.2452,-15.3284,-140.6169,91.9876,51.6103,133.7195,69.7945,-23.2122,22.6660,60.7058,173.2107
-195.3125,-64.8993,-224.1679,-59.6755,-124.5795,-43.3255,-18.0859,27.1716,4.1908,56.1137,56.4889,63.4373,-64.8129,61.8138,131.8833,103.6234,-34.6907,-58.1974,93.4939,61.7569,69.2036
-187.5000,-86.1068,-174.3531,-42.7852,-75.5104,10.8987,73.9938,45.6525,95.5907,0.5705,111.3471,-66.2001,-44.9908,6.2294,39.7606,11.1277,-53.5810,-8.5847,107.9337,75.4171,13.8041
-179.6875,-179.3191,-198.5477,-29.9036,-64.4422,61.1224,123.0783,22.1411,72.0025,14.0289,52.2215,-52.8348,-61.9821,19.6404,-20.3637,24.6346,-40.4669,37.0124,119.3756,122.0767,-9.5979
-171.8750,-65.4027,-84.6182,-15.8792,-19.2448,38.5048,138.3077,36.7966,50.5740,-8.3440,-6.7367,-1.3307,-42.1175,-2.7980,-78.3461,76.2954,-26.1892,10.7572,59.9640,95.9064,-104.8430
-164.0625,-163.6494,-147.8528,-46.0148,-11.2104,44.7390,181.3751,80.3158,94.0018,35.1487,37.1770,-177.9715,-30.0430,-32.3850,-34.4703,45.8187,16.9410,18.3320,67.3961,103.5883,-61.2344
-156.2500,-179.5995,-128.8065,-100.8582,78.1134,-8.7303,200.7331,27.1468,113.7379,18.9550,57.4066,-85.3128,55.6239,-49.6648,132.7116,-7.3475,0.3646,-67.8069,52.1240,-18.4252,-41.3202
-148.4375,-99.5246,-153.7471,-55.6553,123.4772,-37.1527,135.1359,36.0319,49.5327,27.8252,30.7020,-2.6043,33.4657,-40.8913,68.9534,-35.4529,-65.1645,-22.8976,27.9057,-43.3832,4.6574
-140.6250,-118.2995,-208.5419,-5.3101,68.9912,-23.4283,38.6757,13.0748,-10.5259,115.8470,8.1588,11.2688,-45.5376,-26.9648,-27.6572,52.6055,-14.5426,27.1516,43.8294,-29.1937,55.7862
-132.8125,20.5666,36.3072,-41.3130,103.1425,-59.0478,2.8507,14.7808,-8.9362,116.5340,47.2745,-24.2150,4.1007,-98.3838,-98.6264,17.3178,23.7319,-9.1496,43.3971,-100.3512,20.5717
-125.0000,-58.7789,62.9546,-51.5210,95.0858,-67.8641,29.8121,5.2930,18.4490,144.0368,75.2000,-142.8932,32.3271,-107.0052,-70.7917,-65.1574,13.8101,-18.6650,70.7559,-38.7079,48.1645
-117.1875,-114.9735,-64.2555,-108.5861,74.1726,-52.5331,45.9157,21.9630,71.9927,123.6952,128.2827,-17.4181,45.0095,-127.4775,93.1944,-49.4803,-6.9605,-144.0428,50.2650,11.0877,27.9123
-109.3750,-117.3393,-171.6453,-145.8084,-32.9045,-15.3511,45.8692,132.4903,145.3910,124.2168,166.2299,-17.0979,-20.1531,-55.1011,93.0351,25.0525,-6.8762,-217.5753,13.6314,78.7469,-8.4817
-101.5625,-249.9086,-199.2435,-176.2423,-130.1890,-9.3726,51.6257,138.8242,225.5967,204.5428,246.9907,-156.9714,-61.5209,-48.9303,63.6835,68.3943,36.0122,-210.3244,56.8005,157.2075,34.9241
-93.7500,-169.7387,-85.1107,-201.9340,-155.7343,2.3600,63.1352,77.9183,237.5596,142.6310,295.5106,-109.1046,-54.1721,-74.0079,39.0734,116.4869,83.6469,-271.3213,31.7186,131.4347,10.0870
-85.9375,-171.7803,-155.1978,-167.8342,-192.4877,-0.1041,-13.5572,112.8175,235.3246,177.5300,330.8344,-74.4366,-133.4220,-2.2848,-72.7268,78.3869,118.0806,-167.5241,-4.5617,165.4738,45.0557
-78.1250,-143.8727,-269.3440,-138.7891,-200.2997,-7.6152,-21.3015,31.6793,191.0454,207.3856,288.1197,65.1822,-154.9939,-9.6152,-6.5755,71.2401,74.4632,-139.7870,24.1091,157.4668,37.9721
-70.3125,-48.7312,-139.2571,-72.4957,-139.8777,-12.8704,-26.8024,26.7985,186.0208,128.5045,282.6688,96.0431,-101.3488,-14.6925,-11.1894,65.3494,-4.8946,-150.8026,-54.9657,112.7245,-40.8533
-62.5000,-85.7422,-105.3310,-38.3593,-140.6196,21.7288,-66.4573,24.7774,109.8532,163.4811,245.0799,-16.2359,-106.8673,20.0779,-49.9583,64.3168,29.6055,-81.9832,-91.1954,75.8380,-5.8261
-54.6875,-10.8603,39.4800,-69.3227,-65.4686,-45.7685,-60.2169,-5.3352,42.5875,59.3605,178.3942,63.3824,-20.0549,-10.2472,31.1743,70.1913,72.0010,-148.2646,-50.5270,-25.1434,-35.8936
-46.8750,-9.6901,-29.4253,-30.9913,-100.0221,-6.9675,-58.6787,33.8553,8.6224,25.5451,70.0137,65.3043,-42.5840,28.7267,33.6299,36.3713,73.6866,-76.2515,-48.5543,46.1717,-33.6536
-39.0625,-34.7227,-160.5305,-20.8670,-124.7714,40.6298,-48.3406,44.8428,-17.5328,72.5327,45.4516,113.0352,-71.4743,39.4936,80.8901,83.3545,11.1758,-66.4572,-37.7872,56.2814,-22.6162
-31.2500,55.3768,-140.4969,1.4073,-104.3779,62.3727,-25.8572,66.9843,-31.5330,58.6839,68.0526,61.9090,-75.0547,25.4143,31.2850,106.4900,-40.1707,-81.5131,-87.8723,41.5465,-36.4207
-23.4375,-39.7756,-95.7199,9.4211,-94.2444,34.8622,-54.6312,39.8804,-22.7850,104.5992,78.4095,-39.4619,-63.0959,-2.9182,3.4267,5.3939,5.2478,33.1672,-77.2124,51.5679,9.5296
-15.6250,-19.1787,66.7945,-2.8243,-2.3768,-13.8927,7.3386,-82.4564,-34.2840,-16.7204,30.5231,58.9080,16.3825,-14.4990,29.3164,-5.9486,103.4130,-16.4075,-54.8065,-32.6421,-38.7645
-7.8125,58.1491,74.0281,40.6712,40.2323,-5.8923,15.0601,-37.0305,-26.0265,-45.2755,-71.6070,-5.9851,23.6697,-6.3360,-36.0312,-34.5376,1.3246,60.7667,-11.6435,9.9126,-30.2996
-4000.0000,9.2747,-18.8308,13.5049,-9.9567,12.4363,13.6886,-12.2346,8.4098,-28.7725,-33.7540,-39.2664,5.3066,0.0520,20.4175,-14.7693,-26.6296,38.4734,32.3705,61.3586,-18.5015
-3992.1875,60.1655,-39.4768,-37.3298,5.7833,35.6204,72.9318,46.4057,30.4521,-117.5081,-48.5698,55.9892,28.2459,-15.0733,79.6102,-30.2132,-42.2453,-15.9883,83.9120,42.2084,-144.1312
-3984.3750,-91.8342,-121.0203,-11.0567,64.6290,97.9047,136.2752,72.1517,56.6008,-92.1466,-97.2868,-29.6647,28.2009,-26.0961,32.8898,-114.5563,-53.7672,79.6531,109.5495,67.1594,-155.6681
-3976.5625,-86.4935,-11.2150,31.5655,139.8263,104.5380,105.9676,4.2447,-10.8948,-123.4344,-128.6474,13.0291,49.4049,-19.7671,-34.4831,-35.5531,-10.9343,84.6436,114.5434,-32.5428,-186.8551
-3968.7500,-2.5056,72.2423,84.8366,188.6824,120.8163,85.3127,55.9845,-31.7313,-109.0797,-150.3555,-8.6139,63.1664,-40.7904,-129.1972,-56.8998,-142.4505,134.2709,94.1893,-17.6032,-208.4001
-3960.9375,-44.1836,-4.9688,111.4653,146.8842,147.4483,39.0115,46.0803,-42.2148,-46.3689,-161.7135,17.0846,20.9108,-14.4607,-138.5667,-30.8950,-153.6183,198.2588,87.1812,11.6947,-145.5937
-3953.1250,82.6882,15.3676,99.6454,97.6364,98.6354,26.2498,33.7296,-17.1560,-96.1008,-137.5239,151.3453,3.5512,-26.5808,-114.3868,-43.3374,-56.2400,114.8010,74.7159,-36.4596,-195.2384
-3945.3125,63.0355,-3.8415,116.2879,77.8386,78.2768,6.9265,12.8360,-0.6595,-116.3832,-84.8987,57.0681,-1.6350,-10.2470,-97.7617,-101.3350,-3.4280,131.8081,91.6853,-19.1670,-179.4344
-3937.5000,42.6802,45.2334,94.2361,163.3422,93.2236,57.8962,-46.7650,-22.8708,-139.3648,-70.9791,-2.9031,74.7152,-32.6123,-8.8369,-50.0408,-99.3155,112.1276,70.9625,-73.5763,-165.3228
-3929.6875,130.5730,131.5612,111.4294,215.1053,73.4150,75.1215,-67.1225,-42.8309,-197.1061,-91.8062,-23.6252,110.3559,-52.7334,-28.6652,-33.4997,-156.9359,129.6879,18.5053,-91.7412,-148.9675
-3921.8750,-14.7940,92.6382,68.3671,140.6166,67.3622,69.1058,-73.7211,-13.0289,-131.0919,-62.8879,-67.6179,61.9986,-23.1068,-71.7512,-40.2122,-53.8009,125.9957,15.8023,-24.1474,-82.8651
-3914.0625,34.0782,104.9601,46.5518,118.3753,8.5641,47.3520,-96.0697,2.0267,-116.8229,24.2785,93.6334,31.0043,-45.2337,-93.5726,-26.6715,107.5731,-35.4464,-5.6476,-45.2998,-105.5125
-3906.2500,-10.0488,-9.7264,36.7419,40.1318,35.7712,74.6068,3.5824,29.0863,-53.5561,50.4440,45.8908,-8.6426,18.6443,-66.3864,-73.1306,59.9406,-43.8955,-14.1017,-17.4554,-79.1629
-3898.4375,-43.4916,-78.7340,1.6310,5.5805,37.6810,76.5639,4.9369,-6.1524,-15.5779,15.3180,46.8484,10.7658,20.2250,82.4971,-34.8957,24.0187,-41.6424,24.1455,-14.9128,-78.1067
-3890.6250,11.0125,-25.7925,-14.5364,24.9846,21.5343,97.4717,25.2383,14.5629,-32.6515,-1.8509,103.7665,24.4528,40.7530,66.3303,-15.7028,-28.9360,-92.4505,-27.6582,-65.4316,-95.1030
-3882.8125,-105.0281,-35.4007,8.7479,-20.1589,43.8352,82.8268,-26.0048,37.7289,25.7321,19.4347,52.1226,-3.4995,62.7327,15.6058,-67.0548,-7.4419,-65.8081,-1.0196,-38.5039,0.3531
-3875.0000,-33.8779,34.1843,-27.7623,14.8932,8.3414,46.3750,-63.0465,38.0877,-11.6733,55.9166,51.6861,16.9967,26.9220,16.0773,6.8021,29.2470,-135.9649,34.8111,-108.3874,0.0192
-3867.1875,-1.3684,-39.8724,5.0829,-22.7021,4.1950,6.2623,6.2636,-3.2148,20.2672,50.7455,46.6229,-50.9770,59.4672,-62.1015,39.0146,98.2768,-102.7790,-37.0167,-74.9364,32.0382
-3859.3750,-52.4635,-55.5385,25.3306,-73.9013,-12.5495,-10.4610,-48.0276,-20.1242,39.6161,32.9718,102.9609,-59.0286,79.4191,-4.8915,58.6256,153.7178,-82.1807,-16.4525,-89.0855,51.4649
-3851.5625,22.6404,54.0011,31.7767,-69.8934,-43.0998,-3.9874,-42.1241,-13.8329,45.1622,75.3959,107.5040,-26.0160,48.5662,1.5266,100.4432,86.3706,-182.3855,-11.6893,-154.0502,20.0919
-3843.7500,-82.5967,-51.8007,-8.1225,-103.2255,-46.0037,-6.8681,-8.5734,20.1078,115.3580,108.4664,-6.3064,-71.9020,82.3609,-38.3985,97.9084,45.6642,-110.9370,-11.2860,-47.3747,90.3719
-3835.9375,-54.9885,-24.7615,-52.1701,-110.7004,-53.0607,-50.9068,20.8214,12.8945,144.4083,137.3880,59.7378,-65.6028,75.0040,-8.4700,163.2218,-35.1965,-117.6347,-88.0310,-53.8548,82.5096
-3828.1250,12.6749,-28.6672,-18.1711,-80.1193,-56.0718,-53.8929,17.2670,-27.2698,140.5045,96.3600,55.8441,-74.1977,71.6985,-48.4966,123.5868,-3.0010,-50.2947,-124.7257,-56.2922,78.6927
-3820.3125,-57.2734,-62.1850,-54.7743,-44.1453,-91.6822,19.5287,-92.8814,-27.0301,102.0098,94.7378,54.3482,-58.5196,33.7955,-12.1311,11.3427,180.6063,-48.5546,-19.0225,-124.3243,114.2805
-3812.5000,-20.0343,8.4885,-50.1843,63.0206,-124.0923,62.1535,-161.8241,14.4129,-41.2802,99.3168,132.0573,24.7334,2.0945,67.4453,16.3046,147.4171,-116.6229,-16.1186,-156.1557,45.0685
-3804.6875,-85.7990,-92.8453,-44.6001,-1.8127,-82.4971,30.7868,-83.7597,56.8609,37.4321,140.8911,26.7653,-16.5122,44.3972,73.0263,58.2664,42.2292,-75.6947,-81.2168,-45.9891,49.8545
-3796.8750,-78.4773,-16.0886,-73.9166,-65.5437,-74.7993,1.5221,-40.5946,64.4109,44.2523,183.5695,33.5736,-39.5419,14.8047,6.6975,102.3292,86.1477,-137.6648,-38.2156,-72.7306,56.7476
-3789.0625,18.2026,115.0305,-47.8805,-39.9157,-84.7572,-9.3951,-15.0793,90.3088,-4.5818,135.6017,58.7512,-17.3202,40.5627,-77.2879,16.7506,37.4145,-145.2955,-81.8734,-81.1464,81.9897
-3781.2500,-22.8644,38.4035,-54.5900,-80.0373,-55.4691,-53.0671,-22.3119,8.4522,23.8434,88.8820,49.1690,-1.7768,-4.4269,60.9680,-64.5752,28.9354,-45.6774,-50.2884,-49.3197,146.4905
-3773.4375,66.0642,126.7843,-70.3072,-62.1552,-71.1895,-104.7441,-2.5465,-43.4053,7.2818,36.1602,107.5846,26.9936,-56.4260,83.2342,-7.9023,49.4604,-97.0607,-67.7073,-66.5010,94.0001
-3765.6250,11.5024,36.6725,-17.5252,-45.7626,-54.4193,-87.9273,13.7200,9.2354,60.2289,51.9433,-23.4952,-28.9858,-75.9320,-47.0057,-27.7315,102.4847,-9.9466,-50.6388,-14.1917,110.0139
-3757.8125,-18.3683,41.2494,-48.0447,-40.6745,-84.9476,-46.4211,-53.3091,14.5700,64.8925,93.4349,-18.8704,0.4725,-107.7334,31.4399,-22.8631,107.2158,-74.1242,-9.8796,-43.1847,114.7395
-3750.0000,32.8186,56.8854,-31.5138,-25.5319,-68.4343,-29.8739,-1.2855,31.9461,44.6090,146.9832,-3.1776,34.6074,-127.4862,85.9345,-78.9413,13.0097,-93.2605,-29.0860,-62.1472,94.5173
-3742.1875,-26.3956,-36.8742,-56.3805,-83.7825,-57.3237,-18.7339,45.3389,41.9157,90.9306,119.1289,-102.8876,1.1138,-117.6383,96.0340,-69.4179,23.4070,-45.7962,18.2974,-14.5240,140.9035
-3734.3750,42.5886,65.5631,-92.0533,-50.8303,-57.0205,-17.3942,10.1518,7.0820,55.4568,46.4830,-29.4013,18.5992,-115.5943,61.3455,4.3104,61.0109,-82.1353,-18.1188,-15.7194,68.5015
-3726.5625,24.2322,-59.3420,-0.0788,-69.2184,-1.0752,1.5950,65.6105,25.8984,73.6297,-9.5046,-11.2570,-61.1417,-24.9005,-67.7005,22.6897,42.2597,-64.8326,-35.8853,37.7230,49.7535
-3718.7500,-101.4861,-254.6068,15.5436,-122.9607,51.5244,17.2302,117.7273,41.3655,125.4655,5.1632,77.5381,-126.3642,64.4475,-52.1152,74.7167,20.1657,-118.8799,-20.0015,88.8151,64.6642
-3710.9375,-97.2607,-180.9178,-14.8917,-153.7477,58.0728,-13.1860,159.7930,47.7859,130.2513,10.7811,119.3022,-115.6639,106.7482,-45.5811,116.6939,-47.9645,-148.9901,-14.1728,58.8473,33.5245
-3703.1250,-201.0410,-145.2355,-15.3264,-188.5326,94.6245,-50.5956,195.8622,10.2061,166.0377,-62.6040,8.0665,-95.7676,143.0524,-9.0396,152.6679,-84.0957,-77.1018,-13.3490,95.8739,69.3849
-3695.3125,-141.0815,-14.8256,-60.0082,-93.5625,49.9319,-21.2535,150.6836,-34.6289,84.5812,-36.2513,36.5876,-10.2213,98.1087,57.2580,144.3954,-93.4832,-121.4549,13.2190,-18.3526,23.9983
-3687.5000,-122.0631,3.6536,-38.6319,-3.5330,-2.7077,0.1373,134.5581,-13.4224,31.1712,21.1439,-16.8256,-3.7832,46.2181,-32.4145,18.1736,0.1778,-65.7600,67.8314,-69.5504,7.6578
-3679.6875,-164.0947,-38.8992,-45.2998,59.4543,-46.3967,-6.5255,17.3759,16.7233,23.7091,50.4871,-24.2788,-4.4152,-34.7175,-39.1559,-26.1079,139.7968,-2.1076,132.3900,-75.8141,0.2728
-3671.8750,-40.3134,13.3570,-23.1679,113.2586,-24.2910,-21.3941,37.9846,1.6597,-28.9571,-2.3699,33.0797,20.0880,-49.8583,-54.0913,31.4106,14.2218,52.3426,44.7427,-56.3001,-52.3127
-3664.0625,0.9305,-86.9356,89.4126,13.5220,88.2619,-92.8158,114.0446,-69.9565,83.8291,-73.7782,-1.1125,-60.6643,26.4448,-124.5793,34.3779,-129.9021,199.2472,-18.4691,20.6555,23.5542
-3656.2500,86.9702,-71.4326,105.7893,-41.4151,141.6094,-185.4471,129.9075,-125.7740,99.4309,-94.3903,88.4919,-66.9213,42.5429,-72.2648,87.1494,-188.2312,145.9581,-37.8902,2.4117,39.2327
-3648.4375,106.9224,-17.0096,90.0641,-91.4433,124.8496,-202.1821,149.6714,-105.6948,118.9350,-39.1002,34.0066,-86.3771,25.5341,-124.0574,32.8233,-58.6597,60.5581,-52.4230,58.0477,58.8134
-3640.6250,-64.7765,-82.2265,18.6873,-157.1117,54.4328,-199.5704,152.7867,-30.2684,230.7957,-0.4495,-37.1334,-123.8949,27.8726,-121.5107,71.8385,16.2746,30.5054,22.3869,63.0177,97.7545
-3632.8125,-52.7258,-36.6858,-38.9482,-75.0272,-3.2443,-110.2153,130.6503,21.9058,135.4098,13.9588,14.4883,-53.8763,43.9553,-33.2083,123.6072,-5.0235,-132.8107,0.9400,5.7221,39.4531
-3625.0000,-117.1182,-101.5912,-36.0427,-70.3972,-37.3784,-70.3092,134.0737,24.6316,138.5850,15.9207,-20.3402,-80.7159,120.5895,-66.3544,126.9330,-2.7655,-57.5906,-29.9716,9.9678,78.7050
-3617.1875,-64.3751,-118.3604,-52.0003,-86.6214,-16.3653,-50.2519,80.6533,8.5092,84.9295,-36.9595,73.9774,-91.7747,140.3754,-46.3447,183.4125,17.6410,-73.2304,-45.7401,-5.6409,62.1223
-3609.3750,21.7676,-69.7290,-34.5672,-106.4428,-35.9633,4.2026,23.6312,25.7843,64.6775,52.5601,53.7102,-77.6324,120.5705,-28.9332,126.3111,-2.5426,-127.4845,-65.1123,11.1306,41.9432
-3601.5625,-104.3924,-56.3958,-22.4311,-91.5678,-59.8597,53.3514,-37.6876,37.7544,76.1342,137.7808,-8.8483,-41.5957,22.4801,20.1655,-9.0816,82.9734,-78.0408,-50.7946,24.5867,90.4689
-3593.7500,-23.8516,59.6544,-44.5922,-10.9931,-119.0548,68.1903,-97.3075,52.4110,53.2952,150.7061,-31.6864,31.0752,-109.9038,71.9470,-31.7696,133.1924,-101.9033,-39.7838,-34.2804,30.7028
-3585.9375,-27.0956,-14.0601,-48.5552,-14.2081,-86.0574,101.2181,-28.7254,85.2609,122.6557,182.8314,-145.3206,8.7626,-150.0860,30.9140,-108.2577,92.6173,-33.5732,-41.5883,35.0317,63.1402
-3578.1250,-38.6000,-26.0294,-60.7703,9.3335,-98.3097,50.9886,-77.3914,71.8539,108.7773,169.7064,-49.2087,25.0302,-126.5204,91.6319,-121.9999,78.7945,-9.4851,-17.6506,-11.9156,86.3390
-3570.3125,94.1957,36.2999,-30.6878,37.1852,-105.2660,-28.9446,-48.7635,28.7437,28.1981,125.8850,17.2264,49.8219,-96.6533,121.6584,-92.4427,35.2735,-16.1083,-95.4174,-54.5806,42.8411
-3562.5000,65.5463,-63.8138,-26.0569,-27.4057,-63.6794,-96.3307,29.4207,-39.8152,69.1764,92.6179,-51.7878,-12.5031,-55.2420,90.2249,-51.3392,76.3052,25.8191,-87.6457,-12.7011,83.8972
-3554.6875,79.8911,56.0802,-81.4315,23.0035,-83.0962,-79.7236,10.6112,-22.3765,13.1705,73.3554,-34.8130,-10.7606,-74.8364,-39.2147,2.7724,204.3474,-29.2563,-2.8813,-67.8309,27.9614
-3546.8750,54.9019,136.6389,-69.1622,68.0770,-33.8706,-30.4698,-14.5500,-10.2907,24.8179,84.7391,-133.1725,7.3315,-99.7833,-137.0112,-59.4623,142.0341,51.3147,7.5176,-21.3315,2.6793
-3539.0625,-24.5859,55.7054,-41.3918,58.6577,-6.1495,-2.7239,-24.2136,17.2837,14.9682,74.6184,-107.0246,49.2569,-109.2294,37.6851,-69.2055,59.2226,42.3895,-1.5882,-30.3461,-7.0919
-3531.2500,33.1345,42.9904,-51.4283,82.4486,-16.2331,23.2180,38.3123,43.0464,-32.6909,62.6969,-6.6654,61.0013,-82.4788,63.5853,-42.7460,11.6202,-39.3399,-48.4918,-42.1827,-54.6640
-3523.4375,-52.9851,-79.5580,-34.3205,-4.6027,0.8299,41.3148,18.9907,60.9565,20.8037,5.9183,-64.1671,-6.4757,45.4199,44.6295,-26.1323,28.1747,15.0778,-65.2530,12.1172,-1.0859
-3515.6250,-55.8079,-46.8027,-34.9171,27.6483,-36.8052,76.7103,-56.0312,23.1613,-91.3891,-69.5548,81.6294,20.6027,43.6176,79.9687,9.7790,100.0374,-22.2095,3.2799,-25.2985,-39.1986
-3507.8125,-49.3191,-40.7288,9.7815,105.2048,7.8536,85.4006,-47.7533,30.6684,-157.2851,-135.7184,52.7548,33.3893,15.1184,14.6029,-56.0083,108.2003,90.7827,10.0991,-53.4377,-68.0099
-3500.0000,-144.2807,4.8944,58.0318,151.3046,19.0548,96.6341,-73.9195,5.7265,-146.6163,-125.3238,-9.5574,88.4040,-9.8178,62.7727,-119.2457,44.9158,172.3145,21.4535,-77.0367,-57.2597
-3492.1875,20.9103,204.6737,48.4255,174.5542,9.3978,50.0025,-83.9302,-41.0688,-156.7871,-98.7677,53.2962,137.5603,-56.6028,53.0851,-92.3183,-2.2088,90.9772,-25.0502,-123.4999,-104.3564
-3484.3750,18.7596,202.1184,80.4643,138.4514,5.3844,9.0114,-52.2835,-9.2196,-125.2996,-67.5597,11.8097,112.8623,-24.7310,12.0381,-97.7278,-43.6795,90.2837,-60.9218,-125.3258,-35.8021
-3476.5625,65.8023,178.7602,54.6977,114.5463,15.5642,-54.7817,-79.4335,-73.1723,-78.6043,-58.1579,94.5292,98.2829,22.3436,59.1930,-13.9323,-106.9505,31.7951,-84.6037,-182.9530,10.9606
-3468.7500,127.9071,99.4640,44.9721,106.7032,5.7874,-100.5268,-15.5338,-118.0806,-51.8586,-67.7006,48.3086,38.2490,49.4631,-24.6001,49.9184,-80.1677,24.3462,-92.2425,-119.5465,37.7701
-3460.9375,-32.6339,44.5259,-15.4057,52.2259,19.3571,-159.9164,-2.2854,-104.6413,35.2442,-53.8884,-48.5724,-5.0979,25.9269,-47.0572,63.1120,116.9681,40.2479,-75.5384,-34.8104,87.9371
-3453.1250,41.0810,116.8587,-47.5383,55.0119,-12.8294,-118.0611,-34.7948,-63.9652,2.6014,-50.8241,28.8029,28.5444,-6.3642,-6.2698,30.5612,121.3579,-27.6059,-73.5938,-66.8473,55.3628
-3445.3125,40.5646,45.9715,-48.9243,54.5553,-15.2706,-83.4671,-36.5488,-65.5506,36.7144,-53.0139,-47.0680,42.5002,-8.9086,65.2637,-45.2364,44.4994,43.2824,-38.9186,-32.1521,89.5448
-3437.5000,-41.2064,69.8414,-95.5690,78.8513,-25.9718,-22.1280,-47.5530,-40.3915,-11.4106,-28.4477,-22.1945,99.6859,-19.7078,164.5498,-20.2900,-3.5933,-38.0811,56.5047,-112.7185,78.4894
-3429.6875,26.8322,31.5290,-97.4267,110.9604,-26.8833,51.0098,-12.7573,-5.4303,-49.7354,5.9283,13.4927,48.8659,16.2838,16.6305,15.4539,-4.8782,-75.6582,18.7180,-80.5046,40.2347
-3421.8750,-85.4720,-115.1217,-68.6350,34.7224,1.8495,42.7935,15.6929,-13.8237,15.5985,-39.0427,4.8327,-42.9011,44.9287,-64.6512,6.8499,97.4802,-11.5866,11.5726,18.3518,68.6353
-3414.0625,-35.0273,3.9958,-49.1029,14.2326,-14.6705,62.3181,-1.1075,-67.4691,-38.3102,-94.2580,97.9282,12.0826,64.3256,28.8150,27.0008,79.5921,-65.7713,-42.8288,33.9424,-22.2063
-3406.2500,-3.2119,35.4850,-15.2228,11.0939,19.1523,96.1869,32.4453,-33.7744,-4.8696,-98.1216,-89.6133,61.3300,25.0783,98.6172,-50.4897,-33.9389,1.3834,-81.8942,65.8666,-25.6980
-3398.4375,7.2531,-60.3714,-6.6904,21.6110,27.6227,104.7009,3.6438,-25.4353,3.2244,-53.3331,-81.5029,54.0150,-40.5126,144.0559,-42.3289,-62.8123,12.1897,-36.3188,41.4220,19.4722
-3390.6250,154.7301,-53.2072,38.8379,63.1424,-0.9160,76.2072,-25.1683,-54.1044,-25.6924,-82.5451,37.6300,8.9383,-32.1036,5.4978,2.8345,-91.6806,53.9876,-64.7551,47.9518,-9.3522
-3382.8125,92.3737,-115.8716,45.5170,36.8354,-31.3168,9.8529,-18.8328,-47.6311,17.5381,-39.6107,6.9211,-58.5037,11.4522,-97.9141,-27.8564,-11.3970,97.9351,-21.0563,56.6181,33.9794
-3375.0000,76.7717,79.2267,-42.0588,127.2845,-81.9737,-3.7597,-32.7552,-24.4129,3.5219,20.0762,-44.0354,38.8054,-76.2430,-38.5774,-4.7958,84.6446,12.6310,-35.6124,-64.9841,-16.9306
-3367.1875,91.6908,93.8587,-27.1370,142.2456,-67.1381,-25.8784,-18.1795,-46.7016,54.9993,34.2639,-175.4753,58.0881,-98.4407,-23.7514,-27.2351,-10.8228,97.8197,-91.6791,-14.1033,-2.3418
-3359.3750,70.6580,2.5550,21.8387,85.2602,-18.2536,-86.9507,-43.5530,-70.9445,66.5306,-28.5026,-90.8655,45.1989,-85.5885,62.1124,-52.6296,-108.2392,147.0651,-77.7033,34.8174,46.3022
-3351.5625,229.5813,90.2125,43.7576,68.2361,3.5688,-103.0679,-21.9831,-50.2409,-22.9877,-44.3230,40.7061,41.7805,-101.7937,9.9301,-68.0711,-88.6964,60.2528,-94.7808,17.6673,-6.1020
-3343.7500,128.3157,59.6826,46.4709,38.0247,6.1844,-63.3824,-19.6183,26.2604,16.2915,31.6618,-30.9207,10.4194,-62.2050,-61.4468,-101.7160,-85.3468,-4.7657,-20.0676,22.2978,33.2967
-3335.9375,91.4037,22.5190,7.5243,36.1683,-32.8574,8.6478,-58.9095,24.1014,-23.0706,29.0014,77.8036,10.8261,-27.2692,-26.4724,-31.0109,-123.6369,-77.4371,48.9863,-15.7339,31.0518
-3328.1250,95.5054,-79.6109,13.5706,40.3196,-26.9072,51.6718,-16.1958,-7.0650,-17.4328,-76.6511,46.5318,-32.1448,52.6631,-57.5130,84.7010,-45.9176,-73.1199,18.0260,-10.7826,-0.1955
-3320.3125,-69.9936,-139.3285,24.0101,-19.1249,20.4428,62.0898,-43.0771,-33.8349,29.6165,-102.8995,19.6522,-64.4271,98.9955,-47.1689,131.8121,38.2036,-26.4061,28.4558,-0.4365,9.9662
-3312.5000,18.8089,19.2683,44.7411,-1.2668,5.0872,45.8042,-21.6587,-49.3137,-23.0320,-45.8491,114.0865,-12.2861,83.6266,-25.5143,116.2245,-14.3790,-78.3975,-23.8222,-88.8044,-42.5683
-3304.6875,13.2769,13.5365,111.1169,-41.7532,-2.6282,2.1645,-29.5874,-20.1440,5.9709,-54.1466,69.1764,-23.2669,75.9058,-33.2112,35.2919,-59.3082,21.2442,-29.4585,-23.5367,-13.4537
-3296.8750,46.7900,11.8666,72.5311,-8.1861,-4.3021,-36.4278,-31.4656,-21.9204,4.0304,-56.3828,141.3116,-6.4961,38.2383,2.1262,69.4077,-98.1671,-15.0760,3.9564,-61.2355,-15.2809
-3289.0625,76.5614,6.4721,67.1825,21.6440,-9.7356,-41.7737,36.8977,-27.4480,-38.6663,-25.3548,98.7062,3.5690,32.8153,-3.2917,27.7745,-139.7604,14.8368,-36.3790,-66.7057,-20.8591
-3281.2500,-42.9083,-78.1614,87.5829,8.2264,9.5755,-59.3728,56.0106,-45.2301,17.3923,-6.5814,7.8528,-23.6712,15.1448,-20.9566,-27.1032,-83.6112,106.5014,-15.9749,-10.4357,35.3160
-3273.4375,66.3276,171.9242,55.6831,46.5116,-22.4144,-91.2785,-13.1803,-77.3279,-14.8392,-2.1164,49.7135,24.1480,-53.8188,-89.9257,-22.2673,-5.7770,74.8686,-47.8844,-42.4822,3.1947
-3265.6250,112.0373,182.4894,64.2364,22.2488,-13.9518,-117.7452,-41.9104,-103.9921,30.3766,-67.2027,-52.9661,19.9758,-45.3339,-80.4692,-50.9837,39.5068,155.6841,-72.3584,-32.0919,48.5262
-3257.8125,65.5577,99.8560,13.5862,45.7930,-27.6931,-131.4218,-54.8398,-117.8640,16.3948,-80.4851,7.1534,33.2088,-22.0570,15.7794,9.0907,-11.4008,109.3071,-49.0374,-43.9097,71.6695
-3250.0000,58.5957,57.7461,8.4252,38.8477,4.0544,-136.6000,49.7202,-51.2431,10.9078,-14.2634,75.7919,7.2544,46.7121,-26.4679,77.6640,-125.7994,-38.5813,-91.2183,-16.2465,29.3093
-3242.1875,-67.0097,-67.9906,-15.3852,-85.7411,17.1442,-160.4264,99.6306,35.7279,134.7727,35.3122,14.7795,-97.2782,96.8268,-122.3728,90.5820,-75.8473,-58.1238,-75.0582,104.7550,79.2990
-3234.3750,-9.7681,-46.8634,-27.3552,-170.4753,42.0818,-135.3992,87.3852,60.5507,85.4909,22.7473,76.6099,-129.4961,120.7848,-134.4261,151.3500,20.9571,-106.8262,-55.0477,90.6003,30.1439
-3226.5625,4.1381,-68.0697,-48.6853,-191.5563,20.6591,-47.7185,65.7911,112.0251,26.8580,37.8375,-18.9062,-101.9627,99.3930,-46.8398,56.7750,73.4172,-57.8894,-41.3951,139.0891,8.6355
-3218.7500,-75.9663,-147.2808,-58.0171,-200.6403,11.2344,16.9624,-17.7971,139.4980,54.2324,100.9297,8.5820,-76.4328,54.0022,90.7445,47.2040,26.8835,-66.9512,20.2510,129.5725,-0.8677
-3210.9375,-37.1144,-38.5264,-53.4058,-162.7681,-21.2433,94.5924,23.5616,143.9141,21.5508,141.9686,13.0426,-48.5772,57.5651,22.2835,50.5858,-79.6953,-99.0742,-12.1535,96.9844,-33.4213
-3203.1250,-112.5491,-79.0457,-25.0936,-167.1936,6.9799,49.9254,14.6209,99.0233,49.5629,96.7079,-69.7978,-103.9790,86.8277,-96.4847,79.6662,22.4306,2.4987,-17.8659,127.0822,31.7246
-3195.3125,-42.0817,-8.6464,-23.8888,-97.7172,8.0996,-22.8467,-21.4197,26.0292,-23.5202,23.3511,5.2600,-62.3509,50.9894,-59.3644,79.6487,96.4607,36.9673,-17.6751,56.0695,-4.2267
-3187.5000,62.3063,60.6756,50.2132,-62.3279,45.1167,-58.7194,16.4365,-10.0715,-22.7098,-50.1053,6.2322,-13.4734,15.0468,-21.3513,7.5338,-12.6122,71.3282,-53.5956,19.9393,-40.2828
-3179.6875,19.9047,53.2132,41.5164,-34.7360,72.3314,-31.3962,-30.5065,-56.9748,-32.6942,-60.3608,-3.5966,18.3771,-31.6997,42.8550,-39.3901,14.5080,98.8894,-62.3264,12.0036,-13.1317
-3171.8750,129.7570,92.0288,81.0647,-30.8906,39.7875,-27.8336,-64.2049,-90.6331,-103.4259,-20.3564,109.8326,32.1162,-28.2069,82.3136,0.9363,17.8842,-2.3088,-93.8126,-90.6896,-9.7260
-3164.0625,7.6053,40.8570,58.6077,-82.0459,16.2426,-49.2740,-85.8978,-38.2927,-15.1553,29.6539,50.2577,-4.4589,22.2866,59.7666,14.2702,31.2699,-52.5095,-109.3046,-35.3870,114.6800
-3156.2500,-62.8998,146.3336,-90.2036,-82.5587,-58.6522,-89.0665,-125.9377,-4.3063,-17.2274,100.3173,84.3376,11.7520,56.4359,56.8572,122.2630,65.3164,-159.0653,-75.1472,-72.4406,148.7411
-3148.4375,-48.2092,159.9889,-74.8717,-103.9171,-80.4072,-110.7096,-36.8272,-26.1726,-3.1567,78.1352,25.5809,-21.4469,108.7304,-36.9095,174.4080,43.5093,-110.4939,-61.8467,-23.3680,126.9507
-3140.6250,-90.8002,47.3675,-44.8488,-110.5729,-50.4707,-80.6516,27.9737,-33.3400,62.6121,-2.3370,-17.4799,-56.3506,138.7179,-80.9779,167.2414,-72.5962,-12.2287,1.1525,38.3941,119.8682
-3132.8125,63.8559,97.0127,9.4164,-61.9792,3.7089,-63.3449,10.0160,-53.2608,-29.3696,-21.5553,110.7216,-8.7968,83.9497,-26.7929,75.3261,-91.4447,-68.7187,50.4020,-53.6030,28.0371
-3125.0000,25.6167,23.7712,42.7823,-30.2783,-0.0101,-29.9386,6.1659,16.9120,-33.2590,11.3310,34.0288,-10.7289,43.2802,-30.5189,-76.4834,-22.1971,-1.1133,46.7485,-22.5089,24.3003
-3117.1875,-14.0872,19.0735,39.6984,0.9756,-3.1742,4.0126,2.8730,-23.3686,0.4046,44.7672,-6.1172,-0.3077,-33.8334,-33.6990,-42.7338,-25.4006,-5.9556,76.6458,-26.8698,-15.8815
-3109.3750,30.4241,134.6030,14.8119,10.4366,8.8561,53.1598,51.7727,-10.4592,12.2605,19.4006,-104.0422,24.5749,-57.7439,-94.6743,-29.7778,-86.3964,38.3866,50.7333,16.9504,-76.8689
-3101.5625,-29.9977,74.2076,-12.0295,19.9450,17.9326,62.3547,60.7164,-38.5005,58.1681,-7.9096,-131.9176,20.3894,-48.6037,-85.6047,-131.7755,-77.3446,118.7758,130.8629,60.8145,-67.8068
-3093.7500,81.3775,149.6287,32.9191,131.2569,26.8040,34.3458,-4.5431,-66.7436,-44.1242,-37.4068,24.0089,68.8201,-76.6639,-76.7454,-159.9704,-68.4928,88.9612,100.7947,-39.5281,-132.9426
-3085.9375,144.2088,72.5140,134.3177,159.0277,54.1225,24.7855,-14.3463,-76.5364,-52.9759,-83.4541,-22.6030,56.3866,-86.2762,-86.4522,-169.7142,-152.1849,186.5906,22.1696,-12.4255,-105.6320
-3078.1250,139.8355,32.2027,162.5167,154.5932,45.2429,17.0164,-133.3421,-85.5358,-62.0170,-92.7049,-30.4180,59.0039,-95.0902,-21.3666,-141.6564,-87.0704,182.0302,52.3386,-52.5188,-40.5167
-3070.3125,167.6756,60.1131,117.9090,147.3642,-35.4384,45.4389,-177.1381,-19.3416,-106.8550,-26.7552,71.9675,35.9938,-65.7133,-66.0692,-112.3889,16.2469,68.6575,9.7017,-96.4266,-48.2044
-3062.5000,26.0336,-45.4583,77.7948,75.6412,-1.6285,43.3612,-143.4337,-22.6494,-36.1932,6.6996,68.8463,-17.0263,5.1627,-69.2745,-78.6266,13.0639,102.7806,8.5595,-26.8478,-14.3907
-3054.6875,41.9869,40.5882,60.2740,56.5202,-19.2199,61.8831,-88.1371,-40.3593,-16.9319,24.7593,88.3333,21.2669,23.6335,-12.8828,-22.2697,-78.5162,13.4957,-10.9764,-46.6750,-68.9720
-3046.8750,85.8536,84.5484,67.6471,64.3009,-11.9158,69.3128,-6.9400,3.8252,-9.7786,31.7243,-88.2668,25.1983,-5.0004,-79.5895,-52.0142,-71.1967,21.1026,-38.6136,-4.6042,-61.6596
-3039.0625,-16.8848,86.8961,-41.5781,32.4760,-48.2083,34.1507,-6.3384,41.4122,63.7785,69.0870,-87.4739,35.7436,-41.2351,-4.8946,-51.3600,40.5262,-45.8871,-0.8514,-2.1271,-23.9459
-3031.2500,-1.6230,138.2511,-98.8112,-22.3531,-105.4991,49.9948,46.2580,93.9998,43.3336,122.4572,-33.6742,47.6252,-61.4687,47.7964,-34.6933,93.2582,-171.8864,-21.0916,-22.6603,-44.2327
-3023.4375,-128.3484,-23.3854,-159.0427,-8.1810,-93.7901,62.8395,58.8548,105.5822,91.8845,170.8328,-131.8740,4.5248,-49.7031,23.4774,-23.0238,68.9975,-52.8897,27.6604,60.7986,4.4855
-3015.6250,-82.9284,-12.8587,-148.1288,107.1396,-118.9338,73.8323,33.5995,44.3107,103.5824,108.3614,-156.9179,43.5766,-74.7911,35.3116,61.7918,6.8876,-6.7419,37.5671,-34.5990,-20.6398
-3007.8125,7.8083,42.0061,-90.9154,162.7617,-60.7838,58.1231,53.6384,-45.6684,50.5697,19.1931,-172.6445,60.2352,-53.5824,-17.5508,45.9118,-45.9254,82.6953,-13.2328,-50.7070,-36.4741
-3000.0000,-23.6970,-24.3754,-89.9504,166.1300,14.1239,-13.8433,18.4354,-153.9029,52.3142,-54.2276,-98.6285,48.2751,-52.6208,20.3192,-26.2157,29.0067,191.8894,-10.2832,-13.0615,1.4424
-2992.1875,146.5522,39.9924,-57.2367,125.2447,45.7862,-18.0668,49.9834,-159.3921,-26.1873,-95.8923,44.1460,23.7978,-93.9137,-58.0663,-67.5900,60.6960,150.8259,-16.5834,-19.6691,-39.8937
-2984.3750,123.2108,17.7759,-47.1226,66.7609,92.8475,-44.8915,60.9343,-76.4802,-16.2909,-86.1490,-55.6731,-13.9087,-46.8092,-121.0553,-94.5670,-2.2173,198.1529,-4.4892,-7.8817,7.1656
-2976.5625,90.3651,90.0682,-45.5148,68.7720,58.4087,-43.2166,-48.6149,-75.0702,-51.8914,-84.9086,-53.9927,52.1915,-45.2025,27.4531,17.9542,-37.6365,128.9865,-2.8919,-77.5939,8.7289
-2968.7500,88.9891,194.8395,-47.4566,102.2374,19.4189,-45.0971,-50.7150,-77.2209,-127.0479,-87.2143,-55.8524,104.9379,-10.1524,62.4079,15.9303,-2.6048,22.2640,-4.8502,-114.8682,6.7333
-2960.9375,-73.1141,32.9005,-72.1450,45.9562,30.6772,-33.7301,-75.5712,-29.1295,-114.9613,-75.2671,29.5351,50.7744,38.1439,73.6003,-46.8513,45.6765,-0.2116,78.4387,-31.9088,54.9854
-2953.1250,-22.9424,82.2460,-55.5892,-10.0732,-25.8218,20.8867,-22.1926,25.2064,-135.6410,-22.0725,120.1799,29.6066,18.6849,17.0444,-29.3846,63.2097,-126.4418,91.9809,-17.7099,-1.5163
-2945.3125,-75.4988,-40.1275,-74.7843,-97.8469,28.9269,38.7541,69.4329,79.7917,-8.0825,-4.6296,-82.9211,-43.9609,36.4714,-39.2628,25.3314,80.9879,-108.4333,39.7698,104.7331,16.2212
-2937.5000,-108.6098,-108.0427,-145.5314,-96.1765,30.1261,77.0791,70.5085,80.8293,29.9288,33.2723,-153.5807,-20.3805,-36.2977,72.8779,26.4879,82.2177,-140.9755,111.0124,70.6274,17.4122
-2929.6875,-50.3650,-85.5818,-121.9344,-3.1552,18.6718,138.7576,57.9258,68.2189,-18.7191,21.5291,-55.8760,15.2392,-47.7265,60.3663,-59.0080,33.8026,-155.1800,97.6047,56.8693,-31.0474
-2921.8750,-122.6734,-156.6650,-12.8908,-39.6883,16.6629,99.8884,19.7956,30.0636,-20.9157,-17.7603,16.2762,-4.4495,-49.7049,95.3013,-135.0493,67.8415,-15.9330,95.6456,125.5653,-33.0588
-2914.0625,-77.0949,-40.8670,1.0475,-30.3244,30.5549,77.9192,70.5733,6.8112,-44.2092,-41.1326,67.3198,29.6837,-71.7886,110.1465,-47.1806,82.7861,-41.7903,35.5906,99.1638,-129.1704
-2906.2500,51.6369,53.0817,23.1285,-42.8117,15.5962,63.1063,92.5034,28.7140,14.6487,-19.3391,-94.4897,7.4941,-49.7220,-15.8654,-25.1535,30.8845,-19.5113,21.6841,14.9095,-107.1340
-2898.4375,103.2525,139.9114,-72.8949,8.5914,-6.4562,77.1946,-3.6647,42.5175,-44.5772,31.3575,-117.3994,54.0970,-109.7481,-0.9815,-47.2226,8.8818,-73.3313,143.6796,-74.4329,-56.1888
-2890.6250,206.5043,279.3817,-110.2691,147.6379,-43.8525,113.9303,-78.1737,41.9712,-156.1485,-6.2929,-80.6401,139.0483,-147.1208,-2.4440,-121.6306,-28.4762,-75.5123,141.3266,-112.1247,-93.5930
