Time,Fp1,Fp2,F3,F4,C3,C4,P3,P4,O1,O2,F7,F8,T7,T8,P7,P8,Fz,Cz,Pz,ref
-4000.0000,-18.5979,49.0287,-25.7268,-34.8824,-7.1351,-24.0258,10.0820,-1.3796,27.0602,3.0259,3.7881,-25.7751,33.4422,-77.6618,37.3373,-52.5099,-6.6930,44.9518,25.4712,21.1419
-3992.1875,81.8175,79.5634,-25.7942,-41.3732,-6.8933,-42.8587,47.6692,-1.2292,27.9368,-32.8596,41.2491,-61.9523,34.2958,-42.7894,1.2295,-54.2586,-48.4699,74.8576,20.2752,-125.3495
-3984.3750,139.3842,209.2601,-1.7156,-54.7185,91.4996,-84.5994,108.4139,-13.9243,88.9679,-82.5893,-8.1422,-37.9830,-14.7039,-56.7682,-47.7287,-67.8596,-26.1008,-78.0906,8.2358,-137.7068
-3976.5625,255.9088,466.9026,10.3196,-10.1259,29.8547,-92.0931,11.1191,-74.6736,28.9562,-144.3757,4.4209,46.9318,-112.7464,-8.8066,-108.7347,-56.5251,20.2288,-67.0973,-50.8513,-162.1156
-3968.7500,464.6982,782.8011,46.6151,56.7193,-6.5362,-138.9495,-24.9275,-148.1775,-43.8106,-254.9231,4.2497,83.0958,-148.5363,-47.6007,-144.4928,-93.9438,16.8112,-103.8596,-123.6944,-235.2805
-3960.9375,526.4507,1021.6572,37.8693,12.5119,-14.9751,-191.4387,-70.0241,-193.7380,-88.6271,-263.5297,-3.9655,74.2148,-156.3756,-93.4524,-152.3054,-103.4174,43.3483,-76.6796,-167.5878,-243.4957
-3953.1250,666.2514,1338.5668,5.1708,46.3488,-48.3655,-228.7977,-176.0666,-190.2507,-231.3890,-223.0912,73.8679,41.3856,-151.1640,-91.2530,-184.0683,-100.8451,-27.0632,-77.4419,-237.4275,-349.6609
-3945.3125,787.1591,1460.5841,56.5757,60.2814,-33.6595,-258.3016,-161.0070,-212.6600,-326.0486,-318.5518,125.8094,55.6523,-135.8577,-114.9499,-168.7337,-161.1747,-12.3753,-202.1142,-258.1625,-334.7361
-3937.5000,785.0826,1388.5962,51.9855,92.2047,-37.9554,-238.0503,-238.9477,-253.0721,-329.7005,-286.0137,121.7608,87.9126,-102.5516,-83.6453,-172.4084,-129.5084,-15.6827,-133.7946,-294.8907,-301.8081
-3929.6875,766.2095,1300.8041,67.5914,142.3210,-95.0507,-202.6796,-222.6902,-200.2840,-313.1460,-270.2702,137.9130,103.3692,-123.0468,-69.1397,-192.8819,-114.6391,-34.7903,-188.2737,-313.4101,-285.6897
-3921.8750,745.8351,1070.5103,75.6971,49.9337,-50.6380,-194.9996,-176.9114,-192.9960,-231.0816,-261.0330,109.5579,37.3261,-114.0399,-62.1328,-183.8546,-33.2745,-20.3985,-243.2631,-228.4209,-130.0814
-3914.0625,640.5107,790.2587,73.8576,-20.4167,-88.1620,-164.6137,-141.0718,-157.6648,-157.9563,-225.7589,145.2502,35.3302,-114.9801,-28.0811,-110.7718,1.1329,-19.9486,-172.2007,-192.3756,-94.4246
-3906.2500,510.4384,485.2615,117.2686,-11.5161,-44.4309,-122.1264,-59.9836,-113.0832,-76.5824,-182.2407,79.2010,5.5813,-70.6718,-58.7806,-66.4419,-102.2094,-9.2449,-160.8874,-146.0788,-13.5315
-3898.4375,248.4183,188.3077,59.7415,7.4247,-28.6412,-45.4960,-43.8357,-96.4513,-60.1565,-92.6826,22.1982,57.8750,-17.3118,-6.4276,-50.0655,-13.5015,-25.4875,-70.5344,-90.7232,76.4127
-3890.6250,23.3920,36.3459,-27.7892,28.3592,-113.8506,28.8684,-19.6899,-0.8195,1.2671,39.8730,-27.8085,81.1730,-102.9542,87.9363,-62.6890,155.2187,-73.7226,-48.1773,-33.3591,63.3503
-3882.8125,-64.3786,-227.3664,21.9394,-25.4541,-65.8003,60.5367,29.7126,49.0636,123.9391,124.6734,-88.5681,56.7187,-127.3480,99.5508,-123.0655,93.1833,-56.7032,-100.5765,125.2495,185.5282
-3875.0000,-34.8911,-477.8342,-21.0781,-102.0193,-71.4955,62.4350,60.3663,79.1927,192.8697,155.7248,-57.0707,13.5147,-95.4911,92.4072,-54.1965,86.3831,-27.4298,-70.7293,225.1088,179.9604
-3867.1875,-33.3038,-546.1982,-20.0033,-137.4870,3.9058,43.1219,136.1246,80.4252,194.9044,119.8811,-55.4664,-22.5893,-56.5376,92.3633,20.7752,86.6876,-26.0607,-138.7827,192.0643,181.4850
-3859.3750,-193.8148,-634.6638,-7.0228,-158.0583,17.2172,71.8444,149.7974,94.5516,97.8491,133.9289,-41.9649,-9.7911,31.3180,104.2215,107.6478,98.8915,-10.7938,-52.9571,136.9218,231.9117
-3851.5625,-253.3237,-658.1311,-30.0434,-42.6327,-42.4761,129.4969,53.4699,143.6725,75.7967,183.9689,-27.4580,4.0140,44.1764,152.0908,85.5177,111.0995,-35.5245,-6.1335,77.7780,172.3373
-3843.7500,-290.9237,-835.6973,74.8389,-11.3021,-10.2701,141.4076,86.0380,102.6960,145.6470,105.9091,-32.0453,-1.2813,76.9298,146.8640,45.2811,106.2084,66.6433,-79.4233,75.5401,204.6581
-3835.9375,-295.3163,-980.0790,70.9265,-16.7863,-12.8590,148.3216,46.8115,62.9164,143.7060,102.0477,37.5713,32.6172,74.8840,141.8436,42.2400,137.5205,133.0119,-12.5244,142.5142,165.1839
-3828.1250,-280.8493,-858.6104,88.8565,31.5781,40.3947,152.3062,102.4352,116.9904,125.6187,83.0378,19.0485,12.3663,19.6839,84.6792,24.0429,44.6930,77.2262,1.2189,157.3415,109.5521
-3820.3125,-329.8761,-765.6483,74.2950,16.4420,63.1490,139.8890,88.5635,65.5647,75.0351,105.5260,-31.9750,33.6166,5.9839,106.0175,10.3441,65.3653,97.9406,58.4499,143.6687,95.4208
-3812.5000,-309.9625,-604.7445,26.6872,105.2549,15.8528,172.4330,4.6375,128.0886,-8.5995,130.9655,-42.0462,-14.1826,-3.7635,167.3121,-36.4075,163.9903,46.6115,77.6359,93.9450,-25.7610
-3804.6875,-319.5970,-683.3911,51.5352,94.5257,77.0080,163.1027,66.1627,153.0637,53.2087,118.8503,-90.6673,-26.5296,21.9319,118.0651,-10.7182,78.0666,36.7367,-1.7328,154.6711,-0.5030
-3796.8750,-385.3348,-853.1512,56.2908,-7.3078,119.0741,133.1906,145.5945,120.9342,132.9225,123.6284,-85.3865,-21.9764,63.5217,84.7249,67.8674,82.0381,76.7719,38.7882,195.3104,4.6542
-3789.0625,-286.4703,-859.3231,84.6495,-15.5467,111.7429,126.1735,138.6285,150.4035,126.2375,80.0033,-18.4928,-29.8271,56.7127,75.9875,61.0565,36.6087,69.4089,-3.0874,153.5546,-2.6017
-3781.2500,-280.6519,-781.5521,87.9670,-9.8317,115.3696,127.8811,68.6197,79.8269,93.5011,45.3264,-15.6464,-26.7304,60.8604,77.1967,-8.8033,38.1222,110.9956,73.9772,124.7401,74.0846
-3773.4375,-313.4419,-673.3931,18.6924,26.2869,46.4034,139.7656,37.0096,84.6496,25.1581,87.0468,26.5980,-23.2294,29.4098,117.8059,-3.2671,116.0355,76.9888,146.4462,56.3271,5.1697
-3765.6250,-324.0836,-648.0902,44.5720,-21.4336,108.5905,107.8156,99.5476,73.6217,50.9698,75.9146,-21.0022,-34.5817,19.1069,105.5691,23.4110,67.1026,66.1417,100.0541,81.0651,-5.6080
-3757.8125,-429.8730,-681.9541,44.3137,-22.3107,108.6390,118.1903,99.9496,73.4396,88.6443,111.6223,-57.7544,1.9127,19.6481,67.1906,23.9310,66.0163,101.1517,171.5052,117.6584,-5.5368
-3750.0000,-459.1707,-604.3420,17.5542,53.3105,120.1848,148.8457,74.8479,157.7587,63.8176,159.8295,-83.0031,11.9098,-6.3192,39.3383,-39.0554,38.4521,72.6660,213.4619,123.7542,-104.9806
-3742.1875,-439.1232,-689.3973,37.1473,2.2878,176.0821,134.4919,132.1000,177.4335,84.3355,142.3862,-62.9100,-78.7366,14.0588,-15.1450,-18.6946,-52.7474,92.5311,233.7590,144.1988,-85.0894
-3734.3750,-346.7384,-561.1245,62.0962,-12.3784,164.3380,98.2337,119.7052,128.4592,36.2051,56.2960,35.5240,-91.0267,2.7852,7.7290,7.0089,-28.5941,43.7508,220.4043,95.9920,-133.8484
-3726.5625,-199.1574,-376.6574,69.2458,-5.8322,171.7931,32.4694,127.5080,61.6923,44.2746,-46.5925,43.1627,-47.1120,47.7044,-22.1911,51.9072,-59.2391,16.1694,52.2421,33.9856,-126.4170
-3718.7500,-275.5075,-418.1458,21.4617,-84.2411,125.3092,9.6578,155.3700,-22.0365,108.3977,-57.4448,-4.1397,-21.1539,111.6743,2.9375,152.8542,-33.8440,79.6488,81.1079,98.0338,-62.9334
-3710.9375,-276.7493,-382.5510,21.7872,-50.5584,125.9295,6.5981,192.3302,14.3274,145.6252,-57.2024,-3.3246,-21.0979,112.7454,2.1732,189.8965,-71.3461,43.2360,9.0669,62.1832,-99.3508
-3703.1250,-260.3391,-436.3182,69.7700,-71.2211,173.1975,-6.8349,203.9399,-11.6567,157.5006,-47.3097,-28.8559,-48.3922,160.4616,-25.9241,164.5819,-61.1860,-11.5285,-45.3368,42.9779,21.8788
-3695.3125,-269.6898,-374.8536,-15.9956,-46.6382,14.7151,48.8977,45.8008,13.6129,36.6254,-22.1649,33.8486,13.5648,149.4243,109.2477,153.5157,147.2424,-57.0431,16.5059,-36.9730,47.3647
-3687.5000,-199.9474,-269.3104,-18.6618,22.0492,-24.6701,68.2979,-30.2394,10.9844,-75.1486,-59.9120,68.6562,47.6251,147.4853,179.5331,151.5499,180.7835,-91.4564,-88.5574,-71.8221,81.9397
-3679.6875,-254.1553,-251.7436,-4.2641,-67.2098,-9.9895,36.7669,-15.2163,-48.5972,-23.8649,-10.6175,8.5156,24.7339,161.5974,190.8697,165.6332,118.3710,-40.8083,-72.5889,-18.6204,168.5602
-3671.8750,-210.8215,-136.6468,-68.3062,-59.9148,-36.7511,44.7553,-41.6418,-1.6362,-87.0357,71.2182,-18.0693,33.3947,98.2564,199.7689,139.2615,164.5203,-67.5985,-28.0666,-80.8757,141.7260
-3664.0625,-130.5971,-90.6525,-62.4426,-15.7090,-30.6131,55.8664,-72.1743,4.2289,-80.3194,4.9565,-47.7493,39.9652,68.8077,167.5884,108.7763,133.5851,-57.4926,-88.6522,-105.2389,221.7829
-3656.2500,-141.1140,-65.4337,-109.3239,7.7503,-78.2226,58.8228,-118.4612,-43.6570,-90.3555,-6.0574,15.8249,101.7866,58.6042,192.6699,98.5344,194.9111,-33.1337,-63.9961,-115.3494,211.0914
-3648.4375,-76.2753,69.1059,-77.8566,70.5639,-119.4863,42.7196,-123.3974,-11.1922,-57.0431,62.2820,46.7547,132.9645,17.7471,150.1189,21.6449,115.5959,-74.4249,-139.9977,-156.1066,169.7374
-3640.6250,-46.1971,-5.1351,-86.1301,-5.3648,-127.4934,40.6475,-168.0724,16.5299,-65.4716,162.8697,39.9273,124.3899,10.1393,140.8307,-23.0013,107.5308,-79.4592,-109.7652,-90.6077,234.6277
-3632.8125,-46.3333,-39.6075,-120.5986,-6.4970,-160.6945,50.3363,-200.9444,56.0551,-61.0915,240.2632,41.8920,89.6163,-22.6739,142.3552,-18.8545,108.2732,-44.6869,-74.7340,-19.2990,164.3194
-3625.0000,-99.4747,-92.0910,-65.0671,-25.6229,-105.8908,33.7216,-71.8148,73.5862,67.2881,184.6577,-12.1448,34.8466,-4.4937,85.8912,-0.7123,53.0261,-26.9206,-127.7094,32.0067,146.0038
-3617.1875,-111.9281,-103.8959,-77.8310,-74.0410,-44.3814,7.7105,-10.9828,24.8164,92.3603,171.7500,-24.4862,-14.2145,-16.6194,36.1477,-12.8777,75.4944,-5.4517,-33.9899,55.0105,133.3895
-3609.3750,-19.3963,-10.7292,-51.5926,-52.4576,-54.8686,-2.7965,-20.1548,52.0471,47.4261,88.8497,3.1771,-25.2692,11.2505,25.4304,-22.0493,65.9800,-17.9832,-82.2711,44.0207,50.7626
-3601.5625,-75.8161,-102.5388,-2.2954,-74.8199,68.6999,-16.5957,66.7292,-45.6691,60.5417,-46.0023,-21.1065,-13.2726,24.1643,-0.2194,27.8214,3.5279,65.5375,-34.5189,92.0786,63.1792
-3593.7500,-146.5964,-101.7227,3.6587,29.4745,73.9224,22.1234,72.2597,-40.7378,66.2972,-115.2076,-14.7387,-7.6186,-6.2720,4.7965,33.3362,8.7441,65.7126,36.8802,93.7827,-41.7507
-3585.9375,-17.4831,-77.0232,29.5134,51.6843,138.0423,-9.2065,136.6837,-50.8999,93.9439,-125.5112,-61.4643,-55.0598,-16.8070,-43.2701,-13.2532,-39.1311,89.7895,-44.8267,82.3797,-88.7912
-3578.1250,58.0775,-106.8979,71.8300,-48.6476,179.6209,-76.5104,142.5626,-82.6173,100.0465,-83.3708,17.2624,-124.0502,26.1089,-112.8812,29.6064,-71.5600,95.3255,-74.1007,123.4272,-83.3810
-3570.3125,148.0322,-86.4039,94.5596,-100.5741,165.5974,-133.4907,164.8392,-96.9393,86.5483,-60.8319,113.4042,-138.6351,86.4265,-128.0820,125.8622,-123.5838,44.2714,-124.9763,72.8719,-134.5768
-3562.5000,103.3729,-95.5196,116.6979,-76.0841,151.9751,-108.9134,224.5131,-74.8585,146.4487,-38.8947,25.9530,-152.8108,72.1377,-142.8650,75.5059,-138.1950,34.6192,-134.4689,63.7055,-38.3792
-3554.6875,28.3058,5.9428,37.4437,-10.9895,72.9565,-64.8246,146.7863,-43.1803,141.9460,29.6432,21.0995,-122.3863,-5.5590,-113.0314,33.7397,-108.1910,-5.4244,-33.3646,59.1383,-43.5777
-3546.8750,75.9855,54.1191,13.9449,0.8609,48.6894,-78.0706,159.8029,-30.7489,192.1839,-32.0663,33.9954,-110.2101,7.4880,-137.4295,46.7232,-96.4198,-27.7084,-126.5159,37.3286,-31.0361
-3539.0625,78.3057,-14.0972,49.1101,-33.6350,48.0864,-77.1908,158.4793,-68.6674,191.0751,-70.1260,33.5340,-110.3847,6.1835,-139.1697,46.3537,-96.9960,44.6650,-123.0253,75.1741,41.1543
-3531.2500,81.8051,-9.1457,19.4780,40.0765,18.6860,-28.2859,55.3537,-25.3776,88.1616,10.0221,4.2729,-31.3526,-22.9263,-97.6864,-19.8189,-55.3616,48.2345,-49.3277,44.2171,-25.4601
-3523.4375,20.8404,0.3419,64.3945,48.3567,27.8341,0.7793,64.7798,20.4703,97.7970,55.7241,-60.4420,-59.7635,-87.4955,-52.6333,-84.4564,-47.1626,22.3497,-40.0881,53.8036,-16.5332
-3515.6250,8.5647,58.4929,-18.9757,35.3405,-19.3084,9.8827,17.9108,46.0140,14.1305,81.1216,2.5422,-33.4722,-60.3713,10.1350,-57.3980,15.7462,-24.8212,17.8433,-27.9095,-63.9043
-3507.8125,229.0823,279.4113,-9.5391,79.1322,-46.6484,-9.5024,-45.1681,55.3584,-85.7447,17.3196,49.3306,-24.3774,-87.4485,18.7197,-84.5386,-12.5299,-85.1850,-77.4257,-158.8219,-54.4876
-3500.0000,340.4532,391.1492,-9.2352,13.7812,-46.1290,-25.8105,-153.3964,-17.4476,-156.7801,-55.6409,13.9644,12.5658,-85.6745,18.1734,-118.8332,-12.9459,-44.6888,-1.8606,-151.8843,56.7734
-3492.1875,381.7096,608.7648,-74.0212,54.3346,-146.7078,-21.7078,-217.7277,-8.3576,-220.9176,-47.7018,23.5014,21.4155,-150.0066,26.5507,-147.2392,32.5564,-38.2857,39.6001,-146.0502,-8.0670
-3484.3750,478.0073,810.4183,-44.7557,43.9523,-118.2356,-88.1474,-153.0132,-53.2109,-192.0124,-92.7061,15.0908,-23.6750,-158.3036,-19.0030,-155.6076,-12.8737,-12.8344,-74.8981,-155.1746,-52.8673
-3476.5625,637.3431,1111.0874,-59.4274,-8.3723,-132.7050,-154.2992,-204.2453,-142.0152,-207.0608,-181.6577,37.7325,-38.7137,-172.5502,1.5043,-169.9307,-28.2518,-29.3271,-56.3550,-135.2496,-104.6122
-3468.7500,848.6668,1569.7184,-90.0973,-8.6892,-199.1732,-237.0342,-233.4815,-135.8125,-236.1123,-248.5983,44.3768,-69.7538,-165.7959,-65.9770,-199.2542,-22.6236,-98.8174,-126.8092,-205.3218,-245.3627
-3460.9375,879.1774,1811.5179,-92.5586,-48.7955,-165.4372,-297.7594,-235.5109,-211.4034,-237.9604,-251.3364,-31.7848,-35.5926,-167.8494,-69.2401,-202.3829,-62.7825,-103.1102,-130.0765,-209.1882,-284.9195
-3453.1250,883.8215,1957.4285,-120.8650,-9.7477,-192.5431,-293.9256,-263.3873,-165.8416,-302.6585,-205.9254,-21.7946,9.7241,-194.7604,-61.3348,-192.3664,-91.7779,-134.2513,-91.1988,-274.8984,-386.3248
-3445.3125,997.3124,1895.1713,-40.3178,33.1636,-111.8040,-321.2567,-219.4238,-196.4246,-294.5160,-236.6591,-14.9500,15.8949,-187.8229,-165.5584,-185.5060,-268.9075,-125.5460,-187.4811,-265.7648,-342.8835
-3437.5000,943.3447,1876.4404,-62.2156,12.6333,-97.5181,-322.3881,-204.9149,-255.4543,-279.8314,-295.8354,-0.5649,29.6217,-136.3425,-189.2092,-171.1038,-329.4653,-74.2887,-101.2217,-214.0858,-291.8860
-3429.6875,908.8113,1701.1333,-95.6690,48.5618,-129.7887,-295.2229,-162.9638,-215.0338,-238.6998,-255.5533,4.2771,70.8056,-131.4184,-185.3861,-166.2550,-288.5504,-108.5829,-100.5086,-176.9573,-361.4468
-3421.8750,744.2700,1536.7997,-49.1123,59.5035,-83.0538,-244.8155,-79.0047,-205.6087,-191.5671,-282.2701,-59.8775,79.9891,-158.4966,-102.5505,-193.4092,-242.6316,-61.8785,-123.8101,-164.8364,-315.0155
-3414.0625,587.0594,1203.7754,-63.1960,148.8009,-133.9602,-113.8792,-203.6959,-145.8335,-279.0838,-223.6324,-110.6871,138.5294,-172.2274,29.6510,-207.2129,-37.3518,-6.8180,36.2351,-145.3734,-366.2271
-3406.2500,462.1879,939.0723,-7.9301,164.4664,-116.5178,-51.6742,-185.0472,-17.7024,-297.2639,-131.6382,-129.1460,82.4284,-190.6091,10.2239,-225.6720,-19.7056,9.5962,52.6245,-93.5673,-385.0950
-3398.4375,361.3673,697.3945,-6.5954,28.1932,-41.0190,-65.3184,-109.3515,57.4726,-184.4038,16.3967,-126.5545,-62.6179,-151.9456,-26.1358,-187.0905,-91.9967,15.0714,58.0475,-17.7179,-309.9078
-3390.6250,232.7887,427.9523,4.9951,3.1835,-29.2691,-60.6028,-60.4178,105.8938,-25.3091,101.6785,-41.7063,-88.4069,-103.0423,-51.2296,-138.2736,-118.0188,-9.1900,34.7207,-40.6194,-298.4704
-3382.8125,76.1527,95.4389,92.5502,58.1343,58.4326,-14.3198,26.4622,45.2663,25.7212,40.9124,-64.9040,-39.2455,-53.1983,-75.3604,-124.5127,-105.0825,46.5090,19.3378,-90.5712,-138.0897
-3375.0000,-26.0955,-181.7228,55.5221,96.4871,21.5463,64.3563,-46.2514,45.0342,-9.8416,40.5424,-26.7034,71.3148,-51.9497,-2.0803,-87.3476,-31.7436,49.6171,93.3512,-51.1210,-64.3093
-3367.1875,-81.7603,-343.3221,69.0954,110.4560,72.2605,86.6821,4.6338,59.4055,41.1872,54.7768,-86.9044,48.4855,-38.1041,10.8226,-110.5780,-18.7827,65.3227,2.9607,34.9196,-13.9408
-3359.3750,-181.7941,-444.2929,69.3246,44.0927,72.6333,97.1308,41.1683,58.4268,40.8620,53.6581,-49.4642,47.3097,-37.6107,9.3949,-109.1688,90.8472,70.6807,7.2102,75.6055,96.0820
-3351.5625,-237.0419,-429.4868,12.3614,59.5374,15.8089,135.3973,-51.5038,75.2461,-51.6732,70.3423,3.7844,63.9392,-57.3215,99.7806,-55.9640,180.2824,14.8498,93.2623,56.0916,75.8996
-3343.7500,-300.1366,-632.5557,55.5621,66.1422,22.1398,158.5140,-8.0225,81.2197,-44.0622,39.1819,10.1862,69.7187,22.1159,105.3242,-12.6110,149.8594,23.1673,65.4581,63.7189,118.8564
-3335.9375,-356.4390,-794.8636,32.5724,79.5536,73.2833,158.6701,42.2619,57.9932,6.3484,52.8224,61.3830,120.3014,73.3512,118.6787,74.5436,89.2430,2.2868,44.4479,8.1410,132.6178
-3328.1250,-368.3525,-735.7993,55.9772,138.3754,95.8204,166.3576,29.9383,45.1711,-6.8447,39.8723,11.9867,179.2880,95.9811,103.4563,61.0928,111.0533,-78.1991,-1.1643,-37.0382,191.7727
-3320.3125,-465.9745,-798.4523,-13.3094,41.5067,63.6576,176.4746,-3.0870,11.6558,-2.7427,42.2265,-21.1114,109.5772,137.9043,180.5518,101.9315,261.1772,-34.3841,42.5055,7.0801,305.2278
-3312.5000,-596.3547,-964.8757,-73.3382,-19.1028,40.7440,198.5923,10.1276,61.3892,10.5880,92.8307,-7.9543,86.1222,187.0700,229.9143,188.0092,311.5681,-24.3112,122.4296,52.4457,244.9402
-3304.6875,-680.6349,-1118.2153,-50.2577,2.4124,100.9232,218.5337,107.4254,85.2225,72.0063,42.5361,-20.6906,108.7784,174.3259,216.3952,212.1771,224.0733,32.8666,75.4477,75.9017,231.7462
-3296.8750,-647.2722,-1085.9304,-13.5142,35.5881,99.7566,225.8386,34.3718,47.7056,-1.9301,41.8928,52.2220,107.0879,174.2298,215.5325,174.9932,149.2235,100.7034,178.1103,73.0061,194.2074
-3289.0625,-537.5172,-976.2647,31.6376,109.1771,109.9933,226.3604,5.7119,92.5876,-102.4761,49.6576,61.5402,79.8000,147.5307,187.0790,111.2027,158.7749,70.9407,147.1738,7.5038,93.0692
-3281.2500,-548.6680,-986.5200,54.8953,97.8809,96.3310,245.1685,-42.8486,115.5701,-115.9222,72.5206,11.9542,65.6201,133.9225,173.7399,60.5035,181.4368,95.2800,172.3255,33.0963,153.0335
-3273.4375,-585.3867,-918.3467,19.6073,131.0412,24.1182,245.8565,-77.9613,117.0017,-113.9199,110.8344,12.8163,66.9007,135.7538,173.8674,99.2482,181.5694,94.0699,204.9288,67.1362,80.4529
-3265.6250,-498.5651,-866.6395,112.8675,147.7734,80.4524,186.4722,13.4716,61.9876,-22.3750,-18.2957,69.2243,11.7397,154.1262,82.5670,118.5344,90.2704,146.4038,47.0848,84.7131,62.4137
-3257.8125,-466.1001,-869.3103,181.7856,39.1655,113.4437,123.3106,46.5600,-15.3735,-25.1817,-21.7751,139.2800,-28.7723,187.1496,40.9251,114.4762,48.6226,214.3842,43.8780,117.9370,95.0298
-3250.0000,-448.1961,-817.5630,166.1571,57.0096,97.8838,140.2230,-5.9081,41.7137,-4.5443,72.1956,86.7910,-8.8360,134.6316,98.7448,61.8773,106.4406,126.8176,62.1186,65.6109,42.0970
-3242.1875,-508.0506,-841.5910,100.7805,103.1149,105.5750,177.5535,75.8737,86.0518,77.3439,116.4191,-51.4481,35.3589,69.3594,105.8285,69.5290,113.5194,67.4987,37.5980,41.5335,123.4103
-3234.3750,-454.2707,-752.9979,11.0594,86.8778,15.9209,143.1210,60.3090,70.0367,135.8786,174.2988,-31.0414,56.2084,90.7287,52.5834,90.8232,97.2584,51.8349,56.7273,61.1083,107.3773
-3226.5625,-346.7524,-680.6829,13.0903,52.4020,18.0146,93.3842,136.4871,71.7765,211.1530,175.9358,-28.8803,-15.1870,55.8444,-18.8937,92.8649,61.7661,18.9223,-11.3931,63.4282,109.0834
-3218.7500,-432.5409,-731.6911,32.8315,-32.3613,37.8182,98.5928,155.3701,90.2143,267.1176,194.2649,-46.0222,-32.8766,2.6608,0.3437,74.6085,116.9811,5.7083,44.1731,84.4403,164.4907
-3210.9375,-416.6900,-645.0641,-20.7788,-16.4625,20.2698,93.5468,101.8924,110.3037,287.7260,213.2476,-26.5172,-49.9027,21.1242,18.2453,58.0004,62.8534,-13.8537,25.3943,137.0945,110.5493
-3203.1250,-330.5468,-560.1420,29.9154,-71.2380,71.0181,29.5892,226.7104,86.6973,338.6270,190.5367,-48.7207,-110.6241,35.8755,-77.5404,71.6775,-32.9647,-33.1116,-64.0919,153.0392,160.9042
-3195.3125,-301.3119,-460.1467,-48.2792,-111.9033,-6.1304,18.6385,184.6230,81.1899,333.6156,221.9269,19.1778,-79.2422,-5.2788,-46.2188,66.4465,34.3254,-73.2586,1.5252,112.0811,155.3660
-3187.5000,-249.6320,-373.7245,-29.0123,-60.1088,-60.8295,54.1932,129.9723,137.1319,242.0379,203.7647,1.5441,-23.4107,-22.9845,8.5639,12.6693,52.0738,-125.9490,-16.4048,59.5658,137.2695
-3179.6875,-272.7027,-397.0713,-18.4768,-48.0586,-50.2679,78.4843,103.5738,110.3188,216.7052,176.8458,-23.8414,23.6739,-49.4418,19.6031,-49.8580,27.0721,-78.3827,30.9035,107.2970,184.4220
-3171.8750,-258.0818,-276.7292,-71.2386,1.7082,-103.0117,86.1530,50.8651,131.2077,164.0631,196.6348,-40.5333,42.4726,-65.2131,38.3636,-29.7016,82.7850,-98.1214,44.9184,88.7170,94.2810
-3164.0625,-178.5022,-233.4235,-26.0578,-58.5453,-56.8210,26.8562,134.0823,66.0544,173.3440,95.3799,-31.2757,-21.7623,-20.0504,10.0973,15.3867,54.4682,-52.9248,-50.1120,98.0624,103.0909
-3156.2500,-223.9734,-243.1852,-70.9259,-69.8443,-101.6871,53.1568,15.2378,94.8522,128.5562,124.0783,-3.0640,42.9545,-28.9412,38.7972,44.4270,83.1111,-28.7772,79.8100,53.3562,57.8565
-3148.4375,-175.4504,-125.9730,-52.7901,48.8560,-121.5536,55.7379,-2.6039,112.6501,72.7682,178.7830,16.1549,24.6682,-46.8324,20.5083,-10.5277,63.7665,-49.6302,22.7257,-3.3494,-34.3845
-3140.6250,-90.9232,-109.7690,-1.6448,-5.4387,-33.4108,15.6808,11.5593,53.4499,50.9898,118.4919,-6.6248,38.3727,-32.7220,-2.7835,3.5172,41.4203,1.5107,-32.3778,-23.0595,16.3776
-3132.8125,30.8014,-60.3874,-18.3023,10.4603,-87.0706,18.8321,-42.0807,36.4512,-39.5907,101.4046,49.7925,21.2754,-49.4104,17.1328,-13.2348,60.2876,-17.1509,54.7258,-40.5666,-37.6497
-3125.0000,33.8148,13.2711,22.3330,13.6662,-46.4337,-18.8351,35.5759,2.7615,1.1186,67.6289,17.5067,-12.5206,-8.8016,-16.6356,27.3203,-9.5240,-48.5165,-11.8683,-72.7795,-34.3859
-3117.1875,-58.1366,-44.0435,-36.9784,-7.0643,-31.7354,14.2625,13.2859,17.1222,52.8785,45.9059,-4.7413,38.7417,-31.1465,34.6601,41.9199,4.7187,-69.8292,72.5823,-21.9522,-20.0703
-3109.3750,-123.7020,31.0354,-64.8896,68.6276,-59.6362,32.0841,-14.6112,24.8803,24.0285,16.5868,40.4033,46.4211,-22.1017,42.3707,12.9112,49.3704,-98.7456,78.4396,-51.7377,-85.3517
-3101.5625,-123.2259,66.1640,6.2545,33.3933,11.5073,26.3314,-17.4680,-14.3087,-51.7878,-59.6808,1.5918,44.1617,-25.0159,40.1399,10.9498,10.0749,-27.6105,78.3444,-51.4846,-14.5785
-3093.7500,-68.2090,49.8380,-7.0436,52.7169,-1.7985,41.5199,-67.7820,-27.9504,-139.0679,-73.3946,24.3306,66.4579,-1.3829,99.4619,-2.4621,32.3302,-7.9215,98.8031,-30.6904,-65.2442
-3085.9375,-12.7448,34.9614,17.1117,39.5049,-14.6579,23.4228,-42.6534,-40.1408,-113.9083,-85.6545,12.5232,17.2020,22.6975,160.2362,21.5719,94.0399,-21.7795,13.7114,-44.4486,-114.4642
-3078.1250,-102.1727,-19.8313,-3.6236,19.3986,1.5931,18.4121,-26.4224,-61.2320,-97.6491,-69.8165,28.8180,-3.9579,75.8732,140.1109,74.6999,109.8521,-40.5359,65.7069,-28.1068,-98.5785
-3070.3125,-103.2018,-21.2376,-36.9592,89.6917,-31.7632,41.2263,-60.7984,15.0782,-130.9919,43.4333,32.5131,36.2838,79.4426,105.3991,41.2279,39.0761,-40.8965,65.1061,-28.3668,-169.2929
-3062.5000,-102.8811,-91.2990,34.0552,55.3425,39.2277,43.3268,10.1770,48.7482,-59.9859,40.0459,-7.4486,-4.1221,2.3487,66.0474,-34.9011,-37.3412,30.0854,-5.1549,42.7183,-98.6565
-3054.6875,-72.3737,-61.1742,28.2709,50.1985,-2.5829,39.2274,5.3511,42.6139,8.2204,33.8568,60.7841,-46.3205,-39.5459,59.9032,-114.8280,29.4514,26.2726,-9.2173,39.0001,-67.8102
-3046.8750,62.4780,73.2985,57.8342,10.4168,-48.0485,4.0817,-40.1368,34.8257,-0.2341,26.0167,89.3772,-55.1570,-85.0905,52.1244,-158.4021,58.6043,-49.1966,-84.9235,-0.3829,-2.6225
-3039.0625,125.2377,64.6684,45.3048,-66.4503,-95.6134,3.7411,-87.7271,-14.0684,-11.7972,-22.9302,40.8711,5.9130,-132.7329,76.2553,-134.0751,82.6578,14.2302,-21.7397,27.1178,95.4662
-3031.2500,96.2947,106.3287,-17.9215,-26.0143,-121.8816,3.1114,-78.0280,-4.6647,-2.0731,23.4235,51.6657,53.2890,-122.0772,86.7032,-123.4472,93.0269,21.9523,-50.2511,-1.0908,31.8597
-3023.4375,103.8000,77.4383,60.2982,16.8830,-43.7024,-11.3840,0.1155,-35.8085,76.0891,-8.7674,-17.0959,20.1221,-117.9801,-19.3849,-119.3712,-13.1372,64.1170,-112.3180,7.1422,109.7052
-3015.6250,59.7514,68.9844,50.9724,9.2314,-90.0671,-0.1718,-45.2881,-45.5106,30.7020,18.4823,10.5870,47.4055,-127.4291,-65.0200,-128.8383,-21.8533,127.7364,-13.9353,34.8254,137.0115
-3007.8125,180.5552,154.3770,105.4962,24.4367,-72.5803,-10.1749,-101.8470,-28.3718,-98.8467,-1.4204,64.1253,27.5421,-147.0208,-84.8031,-148.4451,-5.7147,108.2089,-33.7006,-54.6500,117.1624
-3000.0000,258.1141,90.5193,146.7796,-2.5951,-68.3439,-24.8048,-170.6591,-97.4824,-167.6588,-70.5774,105.4134,-40.5696,-31.8646,-80.8282,-70.3008,-0.8231,150.4297,-26.7263,-81.3854,195.0639
-2992.1875,251.6704,154.6651,71.0597,61.3815,-107.1087,-21.6402,-209.4794,-100.5934,-169.4814,-35.7318,103.6926,-42.6693,2.2807,-82.8429,0.8356,-39.9219,110.6477,37.2555,-122.1281,118.9731
-2984.3750,185.3725,122.9747,77.4809,66.5257,-27.7343,-22.1282,-130.1592,-57.5483,-127.1621,-66.7236,36.1150,-37.6079,7.5636,-150.6985,43.1127,-70.8626,115.0036,6.3931,-82.7297,88.0306
-2976.5625,95.5232,67.7290,60.3529,47.1289,28.0932,-18.2965,-74.3888,-76.0528,-144.3948,-85.2621,55.9827,-19.0991,27.2938,-131.1049,25.8405,-53.3472,130.8072,57.9706,-31.8841,33.5465
-2968.7500,110.5196,117.3257,80.0729,61.5841,84.7670,-31.8016,-54.7706,-19.7095,-125.7819,-102.9382,38.7047,-72.7417,83.8767,-149.6571,82.4241,-143.9782,75.4591,37.4037,-87.1906,-57.0894
-2960.9375,110.2224,116.6217,79.4971,-7.2560,121.1438,-65.8907,-18.4479,-57.6619,-89.4667,-66.9107,39.1221,-146.6829,120.1534,-149.5106,81.7088,-216.9149,76.8044,38.5302,-14.8075,-21.0244
-2953.1250,88.2237,164.2209,-12.7790,-29.7922,65.8189,-60.4446,-36.8333,-3.3108,-107.8617,-12.5806,56.8296,-166.3159,101.7229,-95.0547,100.2818,-126.5430,55.4463,51.9648,-2.1317,-113.6478
-2945.3125,117.0299,192.6336,55.7350,-70.5188,97.2830,-96.5530,30.5643,-9.1533,-39.4720,-54.4333,14.3341,-172.1420,96.0800,-100.7869,94.6497,-95.3595,13.8792,-59.7979,-7.6648,-119.4723
-2937.5000,128.1405,203.3451,-9.4504,-129.9478,105.0506,-111.5288,75.2671,-37.6943,42.2170,-83.9852,-50.8696,-163.6737,103.7353,-93.2160,139.3191,-87.8735,-9.3938,-48.2656,4.1001,-37.9870
-2929.6875,117.3988,227.1989,-54.4884,-104.2216,59.9607,-104.6768,104.1143,-46.0870,33.0522,-55.3896,-58.9154,-99.0528,95.5435,-64.4915,131.1449,-96.2343,-54.5149,-23.5768,29.0059,-83.3490
-2921.8750,123.7565,163.1654,-12.4198,-62.3777,64.9686,-73.9216,109.0535,-41.3836,38.9736,-124.6989,-53.8592,-94.3236,63.4524,-59.6659,99.0671,-91.4944,-12.5403,-51.7873,35.9966,-41.6104
-2914.0625,153.2210,262.2379,-17.2454,-32.4312,24.0816,-49.6258,-42.9160,-46.5850,-77.0157,-129.9099,-58.7020,-25.4909,22.4536,-27.7402,57.0847,14.3415,-17.4628,13.1064,-3.9207,-46.7604
-2906.2500,185.6519,400.2760,15.8755,0.4693,20.1403,-63.1454,-46.9417,-50.8426,-81.0632,-133.1702,-99.5910,7.2979,18.3996,-31.8580,17.0505,-26.8666,-19.4381,-95.0511,-41.9019,-13.9656
-2898.4375,145.4969,394.7242,6.4012,-39.2214,10.6032,-74.5646,-18.5692,-58.7058,-51.7182,-105.0331,-70.0835,-38.5104,8.7408,-76.5768,44.4149,-71.6681,-24.0152,-98.8201,24.5039,87.2360
-2890.6250,214.9904,357.8282,-29.4234,-75.2548,11.7113,-102.1781,-18.5534,-58.9221,-51.7280,-68.2461,40.0772,-38.6670,9.7301,-112.6480,82.4267,-107.8259,-59.9414,-64.9295,23.5606,51.0936
-2882.8125,232.6899,200.1421,24.9556,-91.0811,66.0226,-94.6294,35.6636,-77.9373,-70.5383,-87.2628,-51.5549,-20.6298,26.9175,-132.5255,99.6401,-127.7979,-5.6708,-80.8403,42.8142,105.1494
-2875.0000,76.4987,148.5584,-25.5630,-1.8198,15.4400,-9.7124,-51.0153,-55.8565,-121.2502,-65.1806,-102.0924,38.5041,13.2059,-0.3068,122.9617,4.3339,13.6961,44.3469,-42.8394,54.3140
-2867.1875,56.7155,199.3947,-5.6921,84.8457,35.2464,20.0808,-32.3068,-37.3732,-102.5727,-83.6891,-156.2330,58.0447,-41.1136,56.3219,31.6787,23.8836,-4.5499,-10.0584,-62.1095,-0.1215
-2859.3750,62.8837,99.1909,36.1221,21.4772,39.9999,1.9195,-27.6491,-68.9410,-60.9516,-78.2418,-114.4342,62.5425,-36.4870,60.9033,-0.6589,28.3782,37.1490,-39.5166,-20.4342,41.4009
-2851.5625,129.3442,94.2883,-0.7727,17.4114,-33.9517,12.1261,-64.6941,-33.2081,-62.0311,-5.4908,-42.3443,25.3493,-110.5625,96.7890,-74.6914,101.1735,-1.8554,27.3317,-23.4619,-32.7669
-2843.7500,120.0049,85.6104,-10.4757,9.5527,-6.7111,23.9591,-37.5446,30.7306,-71.9256,21.4612,-125.0664,52.3664,-83.4467,86.8918,-84.5254,91.1857,-45.6772,-15.6239,-32.3027,-5.7314
-2835.9375,23.5202,93.7970,-111.3335,-16.4525,-34.6252,19.6429,-65.5549,39.5131,-25.9777,67.2599,-79.9430,61.2434,-37.4863,59.8536,-1.5112,27.0571,-71.6516,63.2704,12.6970,3.1687
-2828.1250,9.0428,149.9939,-124.2006,4.5443,-46.5480,-7.5177,-3.5755,63.2968,35.9623,54.0705,-54.8171,48.1184,-12.5276,10.8163,23.5004,-22.0626,-85.6296,-55.8287,33.6937,-45.9323
-2820.3125,20.9770,161.5978,-76.6653,-18.0528,0.9321,-40.6640,43.8055,-36.5180,46.3021,-8.7184,-7.3001,59.3954,-2.1706,-15.8241,-3.0902,-48.7852,-38.2147,-44.5358,11.0841,1.3696
-2812.5000,120.4659,224.7562,-80.5854,45.9028,-40.0427,-6.5137,-34.2657,-40.7854,-31.8118,-49.9570,61.7619,54.2280,-80.2691,53.0899,-81.1291,-15.9529,-43.2528,20.3069,-29.9852,-39.7641
-2804.6875,224.5621,188.5322,-8.9123,10.4703,-5.4274,-32.6145,-36.7480,-43.4524,2.6656,-89.5885,60.4215,52.6654,-82.7704,14.6113,-83.5677,-55.5129,-44.7029,-51.2522,-31.4619,-5.2958
-2796.8750,198.2170,161.8745,-36.6907,-51.4096,3.7370,-44.8077,-27.6822,-71.5755,11.6935,-80.6769,-4.3779,97.6550,-36.7269,23.6836,-74.4582,27.4785,-35.5986,-6.2652,-22.3944,3.7297
-2789.0625,235.8325,234.1811,-29.5194,57.6601,-63.1519,-26.7936,-57.6709,-64.7531,-18.3382,-110.8133,-34.2232,141.5944,-29.7373,29.7042,-67.3995,33.4225,-66.5460,-38.3236,-89.3816,-63.2939
-2781.2500,148.5098,252.5538,59.7035,111.7774,-10.9884,-23.2809,-42.6082,-85.8799,-3.3238,-130.8920,-56.0242,119.5813,-14.7037,-65.2252,-52.2899,-97.5868,22.5454,-55.3329,-104.3291,25.7352
-2773.4375,78.6873,252.4271,25.4183,42.3870,-8.3281,-42.9991,-40.0457,-84.5033,-0.8030,-93.4606,20.6633,49.0641,-12.1737,-62.6486,24.3192,-96.0935,23.1280,16.1668,-69.7805,-8.7230
-2765.6250,65.4093,203.8604,50.6661,-5.4446,17.8740,-55.6652,23.0615,-21.5668,25.2651,-30.4662,9.8958,1.1068,13.8973,-36.5171,-23.5238,-33.0488,-24.7463,-66.7762,-82.6879,-56.6352
-2757.8125,137.4840,63.6582,51.2623,-3.9167,54.4299,-43.2951,-14.4743,-96.2813,-12.3226,-105.1276,46.4697,73.5024,13.3136,-0.0422,-24.0144,3.3438,46.7271,-30.3720,-116.2500,-20.1932
-2750.0000,206.1170,133.0198,51.4057,65.1579,18.5304,-42.1524,-50.4701,-95.4484,-85.3715,-104.2427,83.5952,74.4453,14.2816,0.9865,14.0498,-32.7055,10.7502,-66.4114,-152.2649,-56.2025
-2742.1875,171.6587,203.3022,86.4502,31.1326,52.5296,-72.7578,20.4322,-97.7139,-14.5314,-70.4574,7.6223,-38.7183,11.1476,-76.0811,11.0152,-108.8503,11.6659,-101.5513,-81.3935,14.6831
-2734.3750,61.7006,199.0975,-28.0059,-43.3900,12.0297,-71.0101,16.8308,-28.4795,55.8076,36.8304,-32.8506,-79.3746,7.5059,-79.6428,81.4759,-76.4886,-27.9273,-35.1932,-15.0371,11.0774
-2726.5625,99.8511,131.0146,-61.3768,-74.7976,15.6203,-66.3776,94.3232,11.8525,132.2432,3.2262,-66.2259,-75.9184,10.9620,-76.1010,48.0334,-73.0226,-59.4317,-66.7358,24.4017,14.5741
-2718.7500,89.6634,-20.3934,-36.0987,-118.5486,3.8578,-55.3564,82.4658,-37.1736,84.3317,-45.7333,-40.9630,-13.8086,36.0681,-13.9110,73.2439,-10.9157,0.7053,-41.6375,13.4832,39.7372
-2710.9375,61.5222,22.2622,-96.7834,-76.2547,-56.8620,-12.2207,21.6468,12.8499,-13.5346,-32.6365,9.3456,-0.6494,12.2241,35.3307,48.5072,38.2553,-26.1129,71.5234,21.6144,-58.0411
-2703.1250,-25.2062,40.3370,-39.0748,-92.5531,36.8094,-37.5203,78.2185,-3.7166,6.9813,-49.1271,-6.9519,-54.0886,31.7670,18.9804,32.1600,21.8430,27.4578,-14.9159,40.1359,-74.4240
-2695.3125,33.7260,-5.9215,-12.7188,-139.2040,63.1302,-67.9924,67.4352,-51.6341,32.1411,-96.9699,18.3991,-27.8717,57.9547,8.2848,58.4565,11.0826,51.6762,-25.7081,64.2953,-85.1454
-2687.5000,215.1697,34.3418,29.1323,-62.3490,68.9439,-82.4199,73.1443,-83.0514,1.7964,-128.3099,24.2497,-22.1474,63.6348,-21.9163,27.2518,-19.1865,22.3895,-125.9911,34.9473,-79.3618
-2679.6875,243.6203,27.6186,19.9809,-69.4966,59.7608,-82.3674,63.8601,-93.4659,-8.5463,-101.6484,88.0950,-32.4288,54.3176,-69.1245,18.0484,-66.4695,16.1007,-62.2844,63.5983,-15.5667
-2671.8750,174.4707,99.3018,-11.7765,-32.2580,-9.0223,-55.5732,-5.0247,-51.4888,-40.4864,13.4190,167.3388,8.6883,-14.6004,-26.9357,-50.7494,-135.3468,-17.7900,44.8307,29.6453,-84.3597
-2664.0625,125.9333,85.6075,10.0582,-45.4208,48.7888,-40.9974,52.6885,7.0899,-18.8332,-0.9132,41.1836,-5.5938,-29.9209,-79.1438,-65.9472,-186.6202,-31.0847,66.5447,51.2860,-62.5579
-2656.2500,17.7642,12.2809,8.2449,-47.2365,10.9580,-0.7990,14.7516,41.0106,-20.8347,33.0912,-33.6265,28.4766,-31.8918,-44.0045,-67.7969,-78.5453,1.9690,100.6063,120.2691,-64.4017
-2648.4375,49.4039,78.7809,7.2234,-16.2466,46.9213,-45.5439,87.6006,3.7284,51.9488,-41.1046,2.3601,-8.6450,-33.0694,-81.0588,-31.8472,-115.6590,33.8150,-44.5225,151.0384,-138.4436
-2640.6250,72.0076,-39.7486,65.1450,-98.2997,141.8262,-94.5681,218.3906,-85.5972,146.6687,-130.3417,-12.7210,-60.8111,24.6978,-134.1550,26.0456,-204.8213,91.6013,-56.6935,208.7419,-80.5321
-2632.8125,87.4648,-94.4174,47.9106,-47.4985,124.5733,-53.0269,164.0223,-30.0692,129.2336,-73.7189,6.0427,-78.1288,-29.6936,-114.4001,-28.2219,-149.1355,72.2437,29.9943,154.2914,-134.7628
-2625.0000,103.2268,-78.7600,63.9678,-31.3883,140.6143,-38.8462,143.9436,22.7641,34.0912,-21.7884,-14.8935,-62.1385,-49.7956,-98.3461,-48.1943,-59.1458,17.1784,-25.0154,65.1306,-118.6994
-2617.1875,87.8372,11.7793,44.8717,-116.4249,120.5044,-65.0859,86.7134,3.4502,-22.2111,-4.0067,76.0139,-82.2891,-33.0533,-81.4381,-31.3206,-42.3012,2.9497,-39.1749,84.8037,-27.7832
-2609.3750,166.6996,230.5966,18.0105,-108.2011,56.6356,-127.5582,23.7237,-23.6147,24.7264,6.0301,197.1608,-72.1765,13.9371,-145.2683,-21.1969,-143.1937,-24.0430,-102.0769,22.7102,-54.6182
-2601.5625,130.9135,160.7845,88.4879,-107.6170,91.1116,-136.0333,94.0823,-64.3230,58.0156,-34.5781,193.6433,-111.7006,47.2755,-183.7444,12.2765,-218.7310,11.2967,-135.6327,57.9501,15.8952
-2593.7500,70.4332,-5.7141,63.2612,8.2668,28.8901,-56.2492,-5.2612,-52.7365,32.6021,-22.8854,205.4146,-63.9195,58.9117,-135.9205,24.0454,-133.9753,20.9338,-20.8844,32.4885,-9.2776
-2585.9375,161.7714,-20.3899,84.8254,28.9521,14.4620,-33.8809,-19.8078,6.6475,-19.0189,-0.3930,116.9890,-78.3341,44.3445,-114.3016,9.6162,-75.4238,-28.6333,-35.3339,-17.1761,-23.6535
-2578.1250,184.6842,37.5018,32.9441,-88.8127,35.5871,-67.4125,38.1981,-9.4230,1.9083,-16.3608,102.1186,-93.2046,65.3219,-92.1361,30.7332,-126.3247,-41.6524,-13.2476,4.7049,34.5271
-2570.3125,131.9467,160.7545,-56.5933,-71.2302,-53.9413,-59.0507,22.5423,48.8530,-13.8191,78.0238,85.6007,-35.7221,49.6451,-71.6189,15.1972,-69.8653,-129.3222,5.1976,-48.0675,-17.9348
-2562.5000,24.2558,88.0799,-61.0934,-37.5960,14.5740,-41.7785,53.9334,43.1844,54.5001,73.4657,7.1248,-41.1854,81.0110,-76.0451,46.7092,-110.3522,-130.9529,-32.3010,-49.7960,50.6541
-2554.6875,-83.9426,15.9169,-99.1029,-74.4715,-24.4133,-17.7363,14.8251,78.0171,52.3196,108.4148,5.1325,-43.1370,115.8773,-41.9689,118.7227,-40.3357,-133.0909,36.7103,-17.0306,48.7512
-2546.8750,-88.9899,45.9240,-138.9735,26.8097,-27.2591,12.6187,48.8579,111.0072,86.2758,141.5194,-34.7123,-8.9208,38.8922,-44.7339,78.8820,-43.1595,-137.0885,31.8719,-92.1309,8.9929
-2539.0625,-125.2677,43.7012,-106.0901,59.8477,-103.3559,58.4940,-29.3610,107.7427,81.9760,137.3713,-74.8141,24.0514,-39.3525,-11.7485,-36.2212,63.7719,-70.3419,99.7764,-93.4895,41.9902
-2531.2500,-96.8865,179.1528,-109.5600,89.5393,-215.8072,94.0899,-140.9390,142.1239,-67.6753,172.8707,-77.2686,58.6682,-114.9526,96.8878,-111.6791,172.3513,-39.9430,130.3390,-135.2059,-33.3563
-2523.4375,-22.9481,182.1845,-34.4841,57.7830,-177.7141,68.3881,-138.9733,106.0577,-66.7831,136.9245,-76.1768,23.8285,-113.0052,98.0741,-145.5848,136.4815,-37.9933,62.4507,-97.3778,4.8403
-2515.6250,-55.5957,79.6269,-31.0059,26.4243,-137.2162,47.7855,-99.6073,73.3887,-26.4949,140.3811,-35.6861,27.3769,-73.6616,65.6627,-70.0938,67.0150,1.3568,65.9495,-59.1521,8.4442
-2507.8125,-50.5888,83.7314,-24.8888,100.7149,-132.0771,40.8272,-57.6049,78.3729,-20.5665,146.5006,-29.5482,33.5768,-30.6736,-2.0903,-26.9578,-0.7883,-29.6483,35.1132,-125.2844,-22.3006
-2500.0000,-96.8767,73.5526,-2.0778,125.7133,-145.2454,67.9613,-106.9030,65.0578,-34.9427,96.3107,-6.7198,93.4795,-44.9901,20.8626,-41.1220,22.1074,30.0464,24.9779,-135.7200,37.6533
-2492.1875,-36.2611,134.2886,-47.3670,151.6144,-190.5117,75.5090,-189.3000,56.6413,-43.4216,87.0094,59.0009,121.2869,-90.4052,85.7115,-122.3843,123.8961,-15.3571,14.7458,-145.2602,-7.4887
-2484.3750,103.2133,168.9133,-49.8082,115.3699,-155.9315,48.0694,-81.8514,54.0753,-9.0552,48.5599,-17.4301,118.9470,-91.9747,84.4085,-123.8047,85.5335,-86.9215,-56.6426,-146.9645,27.2215
-2476.5625,-10.8966,54.9577,-131.8525,107.5181,-165.9561,68.3734,-91.0084,6.9049,-19.2907,75.5150,-27.4600,110.0126,-65.1496,147.5023,-24.8344,148.5724,-94.0863,5.3620,-84.2722,54.3482
-2468.7500,-118.8504,17.1582,-131.7589,104.8107,-164.8410,72.4904,-128.0265,44.8823,-18.3756,112.6272,-26.3364,73.2362,8.8185,148.7491,50.2828,186.7688,-133.0997,38.5260,-88.4240,-18.3755
-2460.9375,-177.2998,-77.1334,-121.1674,11.6069,-82.2297,63.1923,-8.5376,91.3601,65.0388,122.2453,-125.7142,46.9665,18.2822,121.4978,96.8995,86.4640,-156.6093,50.1792,-42.0825,28.3909
-2453.1250,-211.6419,-40.3221,-155.4711,-22.5010,-80.5118,59.2418,-5.9468,129.9330,30.5514,198.9599,-123.9985,12.7982,20.8440,87.3467,62.6101,88.2602,-155.0155,120.9320,-5.6445,-5.7346
-2445.3125,-209.8271,-38.3509,-117.6315,49.5402,-41.6487,65.7622,32.7844,131.6591,32.2083,163.8290,-195.1394,14.7856,22.5542,53.3463,64.4689,54.2156,-119.2682,17.8377,-4.0602,-3.7136
-2437.5000,-236.7114,-31.0652,-112.4932,21.8821,-36.4812,72.2041,-0.1849,99.6895,36.1610,132.0040,-190.9892,56.0720,-10.4357,57.6398,31.6231,95.4619,-111.2195,61.0479,2.8185,74.6089
-2429.6875,-162.9538,113.8876,-145.7111,25.8699,-68.6721,51.7060,3.4866,103.3774,39.7507,135.8416,-150.1912,23.0181,-42.7766,24.5880,-37.5743,99.3557,-177.5240,64.9189,-28.6633,78.5817
-2421.8750,-190.2454,17.8162,-141.9871,-35.1835,-28.9155,55.8074,45.0965,106.0207,116.2789,138.6321,-183.4474,-46.0740,-76.1707,29.4927,-33.8255,66.2025,-133.8872,38.7377,50.7886,192.5026
-2414.0625,-222.7278,-120.4358,-174.4667,-32.4344,-98.3612,99.6160,12.5030,110.4582,83.5961,143.2142,-105.9034,-4.3538,-108.7713,106.2003,-66.2841,180.8568,-61.4544,110.3550,52.0290,160.2374
-2406.2500,-148.4452,-80.9128,-57.2089,41.0619,-54.0678,83.5404,-18.3527,80.6388,16.6552,76.5445,-61.5982,1.1278,-101.6215,39.6641,-95.9972,151.2676,11.7229,43.7232,20.0137,93.7197
-2398.4375,-122.9431,-55.1606,40.2489,-3.2437,43.4229,44.9914,-29.0083,-3.9871,-30.0818,-43.9345,-36.0965,-9.1862,-76.2783,-7.6734,-70.5181,102.8778,108.1031,34.2815,45.1936,119.4037
-2390.6250,-124.2365,13.8247,44.8989,-3.3591,11.1072,34.6600,-63.4717,-37.4156,-100.6264,-78.2111,-33.3983,31.7043,-36.7419,33.1997,-67.8431,106.6910,141.6864,69.0484,44.5649,13.2855
-2382.8125,-87.4226,-19.0581,119.6447,33.6186,86.8844,34.2137,12.1566,-72.7356,-63.0750,-112.3820,-140.6077,33.6950,-72.1165,35.1752,-66.0724,-1.3854,179.3646,35.9118,46.0344,15.2565
-2375.0000,-34.2567,-71.5750,64.7380,51.9380,68.0101,31.2359,30.1361,-54.6992,-8.1682,-58.2033,-50.4731,15.0296,-54.1545,16.5046,-47.9548,-57.0995,91.3865,54.1239,-7.1530,33.5837
-2367.1875,25.3733,23.4006,16.2644,40.7110,19.5699,-6.5125,55.5521,-29.2051,54.1718,-69.5701,12.1184,3.8170,8.2451,5.2892,14.6033,-68.3540,-61.1545,-28.2069,-88.9037,22.3643
-2359.3750,15.1794,48.5849,1.9327,-38.3579,5.2722,-33.1595,40.1094,-79.5642,75.6497,-119.7933,33.8644,25.7501,29.7950,27.2182,73.3104,-8.4715,-34.5501,-72.3986,-98.5134,118.2951
-2351.5625,-20.8516,48.9274,-70.2518,65.7257,-30.8815,1.3554,3.8097,-115.7827,2.2748,-81.8440,34.7664,100.8344,30.4928,65.2929,74.1682,65.5571,-36.7986,-38.4423,-99.9802,82.3777
-2343.7500,-14.1251,-14.9703,-28.6945,71.5673,10.7030,15.5571,45.2507,-74.2549,43.6412,-114.0927,-32.5850,31.6758,34.9328,33.1191,78.7709,33.3375,-65.3057,-66.7401,-58.7138,124.2100
-2335.9375,-91.6046,-56.0531,-110.3442,-39.7960,-32.9113,18.7306,1.4878,-44.9373,72.8081,-47.5026,-77.1419,-11.6860,64.1667,62.7443,108.1621,99.9211,-73.0082,65.7559,38.3526,116.8510
-2328.1250,-141.0441,-0.0865,-155.9433,-19.1110,-43.4788,24.0406,28.7666,18.4311,64.0213,53.1450,-123.6430,-20.9939,18.4476,90.4142,98.5990,127.5575,-122.6525,52.3026,59.4688,-2.4459
-2320.3125,-123.0348,-87.6695,-102.0863,-71.9729,48.3983,-10.7713,83.4889,-0.7483,81.6747,34.2360,-105.6825,-39.8580,73.1888,35.5339,116.4868,35.6401,-34.8485,0.3012,42.0249,15.7126
-2312.5000,-40.3990,-75.6052,-15.5809,10.8003,61.9313,-5.2875,22.8695,-24.2760,-16.0206,-26.0148,17.9278,-26.0864,85.5981,12.2992,93.0367,49.3685,-22.3992,-23.0523,-52.7676,-7.4581
-2304.6875,25.6986,-44.0956,52.4080,42.0697,55.9591,-16.6673,-20.2527,-67.2979,-59.2064,-68.7062,49.0307,42.1867,80.5142,-30.4280,51.0956,43.6084,8.5455,-62.9005,-92.0589,23.8846
-2296.8750,-45.8275,-44.2488,12.8000,41.7426,16.3854,14.6447,-22.9700,-68.9181,-60.9785,-69.9373,9.5264,76.8615,77.8334,4.2445,48.5518,41.2481,6.8932,42.6416,-91.9451,58.6368
-2289.0625,-33.0340,3.8892,28.5380,53.7662,-41.8351,22.2776,-44.3278,-17.1858,-83.3863,-17.8071,62.3581,55.9003,19.5028,57.2750,27.3562,57.2462,-15.4014,-15.4603,-81.4717,0.7532
-2281.2500,67.2905,-71.4256,56.8156,13.3452,-85.5088,17.1292,-88.1402,-25.8879,-54.2362,10.8661,127.7351,10.4927,10.7160,85.8610,-54.3017,48.7999,13.8477,-55.9983,-51.4449,66.4233
-2273.4375,47.7605,-125.5865,2.2402,-4.9356,-104.0326,21.4846,-142.7965,-6.4332,-35.9289,103.6738,109.2764,-6.7736,-6.9275,104.5939,-35.8186,104.4966,-4.7483,-4.3837,-0.2651,12.2544
-2265.6250,-10.7246,-148.6912,-19.3034,6.8273,-52.5140,21.7134,18.5882,9.0752,16.4246,82.5318,14.9027,9.0094,8.4691,120.3818,-20.2942,83.2600,-28.2974,-62.7095,45.9638,-45.8687
-2257.8125,-55.4672,-228.0278,5.8987,-73.6496,46.7456,-4.7014,79.7204,-39.6641,77.5270,-1.8732,-33.7027,-2.4523,33.6117,71.9271,41.9738,35.7733,31.9026,-2.2887,70.9403,-20.2549
-2250.0000,-75.8598,-177.9928,-11.5527,-22.7733,66.3620,8.2464,26.1968,-20.0584,23.9753,-18.9446,23.0263,-19.5737,16.1089,55.8305,24.5860,55.6489,47.4675,48.4792,51.2731,-110.2998
-2242.1875,-93.7229,-229.4079,77.5007,-75.3825,118.4741,11.6795,78.1601,-3.9536,2.9045,-76.5284,-34.7523,-77.1972,31.0996,71.2382,3.6852,71.0328,63.5437,-5.2597,103.0898,-57.8610
-2234.3750,-186.3945,-286.6262,18.7212,-96.8371,96.7441,56.3211,19.2649,10.2931,-56.0230,-60.9858,-93.3843,-24.6803,9.2306,160.7852,17.9220,196.5405,112.7869,79.1422,151.0496,-79.2723
-2226.5625,-164.3448,-265.1183,80.6508,-40.5917,157.7136,66.5382,44.0564,35.2311,-105.2617,-72.7597,-142.3164,-37.4620,-2.9294,148.0248,5.8612,147.7370,133.7460,65.2487,66.7053,-127.9922
-2218.7500,-116.8310,-286.1269,90.0326,-26.8846,168.1339,46.4919,17.2977,8.6153,-59.0643,-26.1067,-95.8015,-26.7915,7.3631,47.7156,-20.7502,11.3926,147.1571,77.7991,43.7966,-44.2812
-2210.9375,-145.8683,-209.6494,-12.1303,-20.7161,102.0076,42.5254,23.9797,52.4406,-51.4316,54.9793,-50.8447,-18.6623,-21.8931,18.8601,23.0791,55.5019,83.0202,119.7966,-20.6724,-73.1175
-2203.1250,-152.9455,-180.2011,13.6625,-27.5900,164.8236,7.5636,123.6031,5.2189,11.1483,8.0138,-98.9417,7.4179,3.8027,8.9431,49.8534,45.5456,39.8394,-28.2514,-28.1904,-10.0085
-2195.3125,-154.1513,-146.8972,-27.6964,-30.6210,87.4937,17.8834,83.0796,-36.1576,6.6030,-33.1034,-66.1959,77.3411,36.3431,78.8642,45.4733,78.4352,37.5112,4.5366,-66.8497,22.9497
-2187.5000,-88.3076,-80.5411,-31.0100,37.3880,47.2110,30.0800,5.6140,-2.4842,3.1097,0.8208,-32.4028,74.3196,-4.0707,75.8396,5.1434,75.3907,-0.7669,-69.6239,-35.4569,19.9576
-2179.6875,-32.8548,-164.5591,-13.7330,-83.0032,63.5282,-2.1414,21.7474,-22.2045,56.2140,17.3464,-15.0172,16.9062,12.1101,92.4101,-14.5913,91.9335,-16.4462,-119.1842,54.5367,110.5602
-2171.8750,42.3480,-88.8178,-117.7018,-77.6461,-40.3989,-0.6869,-9.3645,19.8255,62.0756,60.6212,64.1049,23.2487,-18.9588,98.7197,-45.5790,171.2036,-81.3667,-114.9962,59.2834,79.9167
-2164.0625,89.5485,-77.0779,-70.6763,-66.2896,-66.3340,-6.6717,1.5145,29.8611,71.9425,70.9119,37.2153,33.5987,-8.0255,72.0309,-34.5682,145.4790,-105.2880,-172.8045,35.0202,127.2708
-2156.2500,-12.4529,-73.5464,-69.8524,-63.1291,-102.4729,18.0268,-70.7995,31.7066,36.6189,109.0034,39.1178,35.7487,29.7062,73.1400,-33.7585,146.5560,-67.4094,-64.8201,3.5549,165.4305
-2148.4375,0.8920,11.3177,-51.6817,21.3802,-121.2595,48.8553,-89.7543,48.8987,-55.3427,90.4400,19.3721,53.2467,-26.2153,91.5913,-89.5937,127.9751,-52.1676,-49.4831,-18.5526,109.9477
-2140.6250,-33.6462,-22.7119,-17.4075,-12.9987,-49.9487,36.8268,-55.6124,10.1901,-21.2088,50.9702,17.7310,50.8411,-65.0412,89.1410,-92.3366,51.4963,16.1820,-86.0419,85.4312,144.5554
-2132.8125,-10.4820,-34.0360,-26.4297,-59.6655,-57.9406,7.5924,-63.7816,2.1805,-30.3794,44.1936,120.7789,7.1394,-37.1674,45.3965,-27.3833,7.7153,5.2364,8.1001,110.1104,63.8650
-2125.0000,29.5633,6.5351,16.4343,-20.4264,-16.0371,-13.4612,-22.0521,45.0757,-61.6521,50.3191,125.7136,-23.6566,42.6081,-59.4406,15.4684,-96.1506,-25.8030,-22.8485,8.6977,33.0628
-2117.1875,-43.6434,3.8377,49.0558,12.5629,16.6255,7.4128,-62.5562,40.7275,-138.1672,46.1948,85.3950,9.2930,75.1374,-135.5379,11.0741,-136.2808,6.9198,80.9381,5.0416,66.0007
-2109.3750,-50.2969,67.6693,45.2399,111.1005,12.8484,9.0827,-104.5123,36.9290,-107.1196,42.6212,117.6238,-31.2069,70.2176,-176.0947,-29.7766,-140.8748,70.1991,38.2729,-2.0525,-11.5050
-2101.5625,-15.7946,32.6504,115.5665,40.8078,84.2075,-16.6947,3.6713,-2.7127,1.0786,-33.7986,78.9995,-70.5533,31.4520,-178.4965,-69.4847,-216.3100,104.6265,37.7548,31.9920,23.1371
-2093.7500,-76.9785,-63.0761,56.1938,14.8206,23.8609,30.4744,-55.8512,10.9487,-21.4261,-18.9223,92.6796,-55.6003,-28.0131,-17.5933,-91.8957,-55.4404,114.3528,152.5266,40.3260,-72.9113
-2085.9375,-103.2083,-88.8669,33.7694,59.7829,1.4482,68.6060,-42.4321,62.5532,-81.9818,-5.0949,-3.6803,-4.6921,-51.5219,70.2626,-78.3502,32.3856,88.0369,126.2437,14.6086,-169.0024
-2078.1250,-198.9400,-148.1527,41.8491,105.2500,46.5291,98.8591,-34.5158,70.6526,-73.0288,40.2277,-105.5441,40.7305,-43.5304,41.6185,-106.3122,3.7153,98.2304,171.4462,-11.6048,-123.5924
-2070.3125,-206.2351,-51.0143,-1.6215,203.1714,3.0570,124.7184,-78.1524,137.2039,-80.6214,71.0058,-75.9663,71.6166,-87.0890,-1.5764,-112.8321,-39.5061,54.8907,164.1022,-19.3570,-166.7241
-2062.5000,1.4599,53.1050,102.9041,130.1116,70.5703,17.9629,-10.7996,20.7689,-49.2246,-45.2070,-8.3927,-8.4872,-55.6553,-117.7643,-82.3635,-192.7245,122.5525,19.7760,11.8943,-98.8630
-2054.6875,110.6667,55.7151,140.9369,27.5627,71.5834,-45.2338,-45.9507,-51.1574,-11.3357,-80.9237,140.6872,-43.0896,-17.7221,-153.4581,-81.4033,-226.4489,160.7114,22.9442,14.6413,-60.5023
-2046.8750,161.9175,108.3586,157.0120,44.0568,14.6394,-39.2590,-67.0579,-35.0356,-32.4030,-64.5899,156.8166,-63.6358,-38.7307,-100.0951,-102.3962,-174.1091,106.9260,-30.8235,-39.5539,-44.0948
-2039.0625,91.1643,107.9940,115.0860,-26.4428,-28.3050,-11.6517,-72.1608,-3.9091,-38.4660,-33.2569,3.9439,-68.1729,-44.7434,-31.7343,-70.3934,-68.7757,71.1558,3.4062,-5.7425,61.2967
-2031.2500,66.1095,83.2972,54.8769,-15.2412,-88.5360,-11.8866,-96.5534,9.9124,-24.8108,54.7692,17.7711,-55.0069,-31.0543,-17.6895,-20.6966,-18.7701,46.1071,14.3281,4.7892,1.3859
-2023.4375,102.8069,15.3245,129.4233,-13.2881,23.9849,-55.8132,15.8069,-25.5206,50.6091,-17.4579,19.3525,-90.0909,7.3912,-125.9025,17.7482,-127.0263,117.8223,-89.9969,6.0802,3.2114
-2015.6250,68.0672,15.8783,166.5244,-12.7804,61.0646,-56.1299,15.7232,-99.4016,13.5737,-91.1509,56.4871,-89.6223,7.4000,-125.5742,17.7442,-90.7298,189.0903,16.2233,-65.0810,3.5803
-2007.8125,26.4241,185.5025,161.7327,50.8264,19.2438,-29.5295,-63.2600,-67.1900,-102.3570,-58.7582,87.7306,-20.0527,-34.4676,-57.1450,-61.1564,-21.3368,112.4669,9.5408,-142.1381,-37.9517
-2000.0000,157.6763,140.0132,147.8465,41.3343,5.3212,-31.0760,-113.3439,-81.0755,-115.3843,-72.4662,110.8736,-33.5877,-48.4246,-70.8165,-75.1508,1.9552,101.7506,-0.2460,-117.2890,22.4064
-1992.1875,259.1745,65.7533,73.2163,37.0832,-69.3452,-38.5136,-115.1705,-81.7079,-117.1498,-35.9212,147.2545,3.1191,-49.1282,-34.2465,-1.8927,1.4885,62.2963,-4.7827,-86.1789,-51.9797
-1984.3750,212.0669,-15.1297,98.9830,61.2326,-43.6107,-19.9907,-15.5908,-18.9425,-17.5123,-46.9827,62.0335,-44.7681,-23.4376,-45.2750,-13.2297,-83.5691,87.2523,-85.9174,-27.6629,-62.9694
-1976.5625,130.1642,-97.8224,82.9615,-20.4035,-22.6721,-16.8855,5.1946,2.0162,76.3355,11.1368,-26.9867,-60.4501,-39.5460,-61.1068,-29.3701,-99.4342,109.4217,-27.8694,65.0477,-4.7594
-1968.7500,137.9678,16.1750,19.6447,-12.3314,-13.0368,-22.4302,14.6707,47.6647,85.8826,20.9412,-54.3017,-50.4225,-66.9489,-88.2377,-19.8137,-89.5946,12.2984,-20.1191,37.4538,-31.8415
-1960.9375,86.3793,35.7637,-0.0763,7.3470,4.1906,6.3796,31.7367,28.9139,30.0130,1.3485,-110.0091,4.2134,-86.7431,-33.7648,-39.6575,-35.1595,-3.2195,-0.7647,21.4579,22.6675
-1953.1250,8.2940,-7.1698,-41.2837,-35.4694,-0.0803,15.4015,-9.6934,23.6771,-11.3480,70.2562,-78.2227,36.3437,-91.0384,72.2013,-44.0071,33.7534,-46.2290,61.0780,83.9702,-55.3151
-1945.3125,60.9555,-25.3827,-22.7385,-53.5375,17.3939,2.2712,44.6274,42.1934,6.0621,51.9221,-59.6885,18.2112,-109.5957,90.9114,-62.6160,52.4175,-64.4757,-27.3255,65.2492,-73.5350
-1937.5000,29.4246,-20.8114,-22.3941,-49.8038,18.6595,15.6154,8.7421,6.5171,-66.7252,16.3921,-59.3525,56.8736,-72.3492,91.4194,-62.4259,126.8870,-60.9207,12.0638,33.3343,1.0468
-1929.6875,39.8441,59.6897,-82.1082,31.8634,-41.1294,41.8750,-51.1953,56.7904,-126.5600,29.8156,-8.0649,70.4886,-21.1372,105.8749,-48.2710,104.3077,-84.4100,22.4034,-26.6244,-58.4163
-1921.8750,87.0556,71.9758,-35.0240,44.3314,5.8764,-5.8760,-4.3275,-6.1297,-42.5849,-32.9665,2.0074,44.9093,25.8820,6.1349,-1.3059,-32.4711,-37.0985,-71.4577,-14.7776,-11.0829
-1914.0625,105.0631,19.0389,20.8661,26.6037,-49.3075,-33.8837,-22.6428,-61.2475,-23.7884,-50.9630,130.8165,63.1350,80.7081,-48.8051,17.4615,-87.4579,15.0288,-18.5234,-33.1174,-28.9419
-1906.2500,47.3062,173.3288,35.0054,111.1308,-71.2416,-26.6525,-44.7052,-46.1119,-8.7266,-72.7113,182.8243,115.6169,58.7889,-33.4982,-41.5250,-72.1823,-6.5774,-111.3245,-126.1891,-50.5539
-1898.4375,52.1050,213.1496,36.7002,80.2103,-70.6198,-29.6841,-44.2200,-82.4244,-8.1203,-71.9211,146.4021,80.6490,23.4227,-32.6422,-77.9554,-34.3617,33.3732,-71.5816,-121.7059,24.3677
-1890.6250,101.9059,121.9362,17.4079,59.2851,-89.9885,-19.8477,-100.7259,-64.7470,-64.5121,-54.1514,127.0032,60.6853,4.0667,-14.7875,-23.3839,20.4458,82.3419,-56.8481,-37.2173,-31.7121
-1882.8125,93.0083,-26.9941,80.4240,16.6656,10.9441,-40.7272,0.0653,-74.7684,-0.6062,-64.0871,43.9039,15.0215,31.0170,-98.6386,3.4892,-63.4566,109.6207,-65.8098,24.5799,-4.5014
-1875.0000,-21.4286,-72.4902,34.8964,7.4923,1.3334,5.7474,-9.6830,-10.3371,-10.2390,0.4146,34.2474,42.8049,21.4251,-34.0556,30.8195,-72.9175,30.3576,65.6697,14.8375,-13.8447
-1867.1875,-68.3584,56.4892,-49.1256,101.8072,-45.7787,41.4615,16.0868,52.5888,15.6469,26.3990,-12.8975,69.0817,-25.6595,-6.9813,-53.3396,-45.8872,-51.3938,53.6407,-32.3905,-60.6889
-1859.3750,-83.1699,-27.4492,6.9586,52.2290,10.2118,25.3482,71.9633,-1.3944,35.6399,-27.5343,-30.9310,52.4634,-43.6325,-24.8157,-34.3956,-63.7697,39.9626,39.6991,-11.5190,-4.4376
-1851.5625,-58.4284,-73.8712,-1.3944,41.2033,1.7541,19.7869,-9.6083,-9.8335,-9.8108,-34.9286,-2.4160,44.3993,-15.0527,-32.0979,31.0928,-34.1042,64.8837,99.3023,11.9167,-85.6305
-1843.7500,64.5496,-92.0794,91.5019,23.4277,57.5462,2.3012,9.0740,-28.0151,-63.9996,-127.0709,-56.6504,-10.4163,40.7780,-14.1335,49.8276,-52.1847,117.0631,10.1662,29.6215,-103.5810
-1835.9375,15.5220,-35.3277,113.4016,-24.3438,42.3424,-9.2756,-6.2238,-79.1886,-42.1646,-142.2153,-34.8844,11.7631,25.6215,44.8160,-2.4255,5.7234,139.2439,32.0118,15.3348,-81.5349
-1828.1250,26.6914,115.5745,53.5061,22.0794,19.3441,-1.6747,-29.3118,-29.1643,-66.1078,-91.1800,-21.9167,63.1429,-71.3123,58.9600,-62.4605,56.8217,79.6353,8.0522,-44.7449,-141.2827
-1820.3125,5.8597,59.4438,101.6138,1.5027,67.3457,-19.7093,18.6010,-54.1399,-54.0501,-80.1559,-9.9532,37.5330,-22.2331,-2.8957,-50.4906,-42.0838,95.0316,-12.9038,-29.8193,-56.0303
-1812.5000,-13.9888,-30.7509,44.7343,-18.0718,47.3574,-14.7677,-1.4754,-1.1057,-36.9815,9.8666,6.0079,-18.0759,30.8539,-59.7643,2.4786,-99.0027,75.4427,73.1430,20.1177,-75.7678
-1804.6875,-43.3064,-60.4698,52.4036,-12.0968,54.9225,-9.2575,80.0024,43.4857,43.6491,17.4380,-59.4705,-47.1288,1.4921,-52.0796,9.9982,-91.3723,10.4196,7.7473,96.6216,-104.9482
-1796.8750,-101.4250,-155.0488,25.2782,-69.9198,101.6864,-1.9235,126.6956,53.2872,90.4949,-8.8047,-49.7514,-36.9883,-24.6618,-42.1999,19.7253,-81.5435,-12.3927,19.5432,178.3413,-57.9224
-1789.0625,-34.9042,-53.0293,-14.1938,-38.0967,24.1047,3.4943,49.0485,86.7393,50.0119,23.5901,-16.3951,-40.2023,7.8443,-8.6737,16.1080,-48.0645,-85.5423,-19.0060,139.7365,-61.2390
-1781.2500,-17.8036,-1.4307,-38.0721,-56.6838,-35.8818,19.1537,26.0097,99.8060,27.1523,74.5860,-113.4498,-26.8305,-15.0413,41.4553,-6.9053,39.0244,-104.0856,-37.9530,120.7474,26.0310
-1773.4375,-68.5902,17.2573,-161.8379,-72.1777,-123.7578,24.0891,-24.9133,85.9710,49.4082,133.6547,-54.4125,-3.3619,-28.8268,100.6784,16.1813,135.2109,-154.5117,52.1836,140.8629,-24.6014
-1765.6250,-45.9428,39.3738,-136.1922,-48.2652,-97.2364,-2.4929,74.5512,112.5215,113.0513,123.0944,-27.9810,-50.4860,-3.2095,53.2944,41.6664,50.7858,-201.5181,-30.2789,93.3822,-71.8414
-1757.8125,-127.9954,-78.2415,-115.2878,-95.0996,-40.4623,-3.4915,94.2664,95.3162,169.9440,142.7594,-82.2968,-30.3591,17.6694,37.1311,98.4051,34.5807,-177.2690,-6.5012,46.1669,22.1501
-1750.0000,-129.2158,-80.0424,-187.5749,-25.1526,-76.8779,32.3916,21.8055,132.9051,96.6558,180.1952,-81.8100,7.5609,54.3559,73.7421,98.9473,71.1420,-177.2142,-7.9361,9.7681,-14.0618
-1742.1875,-21.2996,-42.7064,-78.7640,-23.1128,-41.1936,10.4173,20.4542,58.5816,59.4836,68.6983,-82.2319,6.5828,54.1511,73.4482,61.5980,70.7938,-104.0530,-110.2906,-23.5246,58.8122
-1734.3750,1.5996,85.6126,-91.9861,-0.1199,-54.5558,17.2637,-66.9415,7.1877,-28.7382,17.1031,-23.7092,29.5598,2.9007,59.0950,-26.8008,130.3934,-11.9285,-53.7112,-0.8574,81.6253
-1726.5625,31.5305,148.9408,-24.2002,-6.1256,-59.9199,-0.5790,-72.3368,2.7832,-105.9688,12.4765,8.8106,-11.4522,-38.3507,17.7422,-31.2045,88.9894,53.2080,-60.1348,28.8222,40.4297
-1718.7500,12.5973,-46.6221,65.6822,-94.0302,29.8108,-43.2182,17.3729,-55.5160,19.9156,-46.0619,-12.5842,-68.3602,51.5013,-40.5214,58.4911,-6.3376,104.4449,-44.4652,79.6216,56.3182
-1710.9375,-45.2252,-140.0907,9.6695,-46.8366,10.6447,-18.7179,34.1961,-37.7131,0.9157,-28.5198,-31.8972,-14.1751,68.4611,14.3009,149.2908,84.4246,46.7942,-31.6901,21.5268,-36.7009
-1703.1250,-125.9970,-80.5402,-4.2871,13.4136,70.5214,5.9746,58.0686,-51.8493,23.9631,-79.9424,-119.1618,-27.9378,91.4761,37.1722,98.1420,144.2431,37.2028,-77.8512,11.4854,23.3120
-1695.3125,-158.0124,-42.2912,0.5221,-18.5777,74.1623,-13.6464,25.7042,-84.2339,-8.2243,-75.6398,-41.6879,-22.9539,96.2559,4.7869,102.7504,74.7891,110.3766,-4.2683,49.2070,-8.9333
-1687.5000,-30.2311,-21.2925,64.1404,-31.7743,101.6147,-62.5415,89.1579,-56.8121,18.4117,-48.5495,-15.4283,-69.1686,123.8440,-78.8117,130.1596,-118.8822,63.3631,-17.8827,0.7509,-92.3780
-1679.6875,-5.3993,-138.2682,86.8065,-77.9225,198.1213,-83.3632,148.6685,-71.3295,78.1097,-63.4214,-66.1291,-83.3353,146.4792,-130.3614,189.6162,-169.4973,52.4083,-28.4439,-9.6402,-32.7797
-1671.8750,-15.6703,-149.3904,-31.6216,-87.1832,115.5286,-71.0421,103.0869,-42.9431,106.7127,0.5870,-1.9435,-91.6034,138.0235,-65.0076,179.9748,-31.2015,-27.6299,-4.0976,14.8954,-78.2841
-1664.0625,0.8700,-62.7528,-15.2446,-106.6430,94.7403,-79.3673,119.3160,9.2499,123.1234,16.3783,-21.9571,-112.0735,117.3764,-48.8586,123.1424,-15.1187,-45.8605,-128.9449,31.2378,-62.0036
-1656.2500,14.9787,-14.5904,-5.3054,-126.5451,68.5096,-58.9383,56.1097,-17.0007,-13.9047,-10.3018,24.5721,-100.9842,90.2835,-39.1724,59.8611,31.4931,3.4619,-45.2472,45.1403,21.8114
-1648.4375,106.1594,74.6079,18.6950,-1.3937,-18.6644,-31.9936,-68.0369,-30.2036,-63.8727,-23.9584,84.1389,-40.8405,40.2440,-15.4460,9.6263,54.1447,23.8409,-59.5083,-4.8969,-28.3210
-1640.6250,130.6574,64.0909,78.9978,-11.9478,4.4595,-51.2670,-44.8825,-44.1059,-40.5359,-38.3311,70.9961,-54.3972,64.5145,-102.4225,32.6945,-105.8994,84.5213,-70.4645,20.3785,31.8440
-1632.8125,145.7104,113.0894,93.8512,3.0412,19.1380,-69.3412,-67.1589,-66.4513,-62.6300,12.8246,121.3846,-75.4016,79.3435,-160.8533,10.3222,-201.3905,64.7517,-20.8815,0.2193,46.5589
-1625.0000,176.9110,143.1961,87.8548,34.1689,12.9698,-67.8169,-36.2711,-71.6483,5.4473,-30.8925,78.9112,-44.2510,36.3337,-167.1352,-32.8877,-207.7374,61.1421,-94.1452,-4.7679,77.4300
-1617.1875,91.1722,161.3242,67.9104,-15.6560,-6.1426,-63.0152,-18.3167,-90.7946,59.5865,-49.5839,58.4819,9.9532,-19.6164,-150.3698,-51.0369,-117.0414,44.5867,-40.3613,14.3071,131.3402
-1609.3750,84.1469,224.1162,-9.3255,82.2115,-47.5429,-18.7388,-22.6474,-59.2379,56.4359,-18.6016,17.7415,42.8594,-60.8585,-80.9085,-92.4847,-48.6500,-32.2623,22.1194,-62.9063,53.9532
-1601.5625,103.3725,171.1245,7.6831,65.3231,6.3052,-40.8935,68.2736,-41.4223,110.5358,-38.3779,-2.7659,-12.9764,-6.8444,-137.1915,-2.6790,-141.0034,-82.8607,-64.1329,-43.8566,107.8130
-1593.7500,80.8050,77.3057,-16.1109,-26.3585,-17.6458,-73.5384,43.4027,-65.3955,122.8460,-62.9764,45.9084,-73.6058,116.3742,-162.2739,120.3326,-92.1569,-70.2604,-52.1847,3.4046,119.8643
-1585.9375,79.8461,40.0545,-52.2987,-28.4470,-17.9905,-89.4392,81.1488,-65.7717,196.7638,-64.0073,46.1774,-36.6351,117.2062,-161.7661,156.9552,-91.7208,-106.0454,-124.6381,38.2864,83.5157
-1578.1250,8.6044,-32.5200,-53.7753,-63.8456,16.3684,-77.6663,152.5979,-104.4495,231.3826,-30.3654,6.1501,-37.9668,77.7528,-90.5626,118.2824,-94.5895,-71.1191,-90.3885,107.8855,117.8531
-1570.3125,-24.9821,-103.4792,-86.5884,-63.5978,-14.6089,-60.5836,120.7101,-63.4724,200.6546,10.8981,48.7597,-33.6484,82.9547,-49.7069,123.2628,-16.8104,-70.5367,-55.4904,108.1473,12.8367
-1562.5000,-14.1187,-129.0203,-38.9479,-52.9022,69.8680,-71.4790,205.2758,-90.0424,174.3779,-90.4109,21.8082,-22.8700,130.6176,-39.3968,170.6984,-43.5813,-94.4965,-149.1346,83.8735,23.2643
-1554.6875,-40.3349,-85.6795,-102.4056,-43.3038,42.2471,-52.8337,140.7511,-80.7112,184.0044,-81.8442,-6.2521,60.8126,140.1933,-30.1919,180.0414,-71.4616,-84.5513,-70.8841,58.5120,32.5803
-1546.8750,-43.2913,49.8795,-105.6041,93.5365,2.8823,-16.4147,138.4937,-46.1289,181.8874,-48.0517,-83.0750,58.7493,64.0240,-32.7418,66.6414,-74.0895,-53.3506,-110.3809,19.4094,-6.8540
-1539.0625,-53.7951,-32.1422,-45.3545,83.8257,25.9665,-1.2291,124.6845,-60.0909,131.2235,-62.8290,-60.4559,45.1446,51.3101,-82.8343,16.6953,-87.2607,43.3050,-50.4174,44.7695,53.1503
-1531.2500,-32.5403,-82.4452,17.6567,68.8621,14.8132,-12.0916,39.6414,-71.2992,46.3182,-111.8816,111.8960,-2.7110,76.3572,-95.1828,78.5050,-99.6921,98.7173,5.2899,29.8982,-32.1010
-1523.4375,23.2711,-98.2269,150.2191,19.4357,110.2197,-64.6628,99.1652,-122.9602,68.9803,-200.4042,96.7899,-17.0202,98.9628,-146.9893,100.8756,-187.5781,155.6873,-79.4499,50.5963,-46.8068
-1515.6250,6.4469,-46.6750,129.1334,72.3503,52.9792,-5.7581,42.0530,-107.2651,49.0021,-148.5958,39.0269,73.0181,4.9274,-57.4490,-30.3921,-135.1142,103.0037,8.1563,-1.3469,5.8260
-1507.8125,146.8831,232.0965,18.3061,247.5020,-96.0018,80.6941,-142.7927,-34.3190,-135.7138,-114.5610,37.5063,182.3069,-106.8501,52.3376,-177.4070,-26.4084,-38.4265,77.0124,-177.0245,4.7117
-1500.0000,190.9229,204.4467,-11.9233,185.2518,-161.3837,88.2856,-209.0364,-27.7629,-238.8245,-107.9370,80.5757,152.2050,-99.0264,95.7256,-133.8217,-20.1017,-29.2607,120.4798,-133.0898,48.1897
-1492.1875,186.7797,93.5820,-12.3454,75.7945,-162.9571,37.8882,-137.4569,-28.4067,-166.1246,-73.5373,152.4333,77.8987,-63.3959,93.9092,-62.4344,16.0001,-32.2971,80.7348,-67.3372,-26.5345
-1484.3750,273.3932,143.4403,40.9830,22.0660,-73.7746,-45.3566,-47.1151,-12.2991,-2.6636,-58.4142,168.0307,-52.6532,-10.0079,-37.1562,-46.2864,-79.1476,-86.5812,-79.2526,-50.8160,-10.5062
-1476.5625,290.8099,53.0831,-19.8917,-136.8655,-95.7976,-66.0894,-33.9646,0.6178,47.6045,-46.5054,143.4223,-111.4041,40.1842,-60.4201,3.6649,-29.4944,-104.0712,7.5675,36.5197,76.3095
-1468.7500,226.1758,-48.3420,-119.8125,-165.8577,-123.8612,-43.2033,-22.8484,84.4896,21.8364,36.3350,116.7505,-138.2008,50.3332,-13.7368,87.5727,91.1057,-133.6100,48.3300,41.8194,-23.9264
-1460.9375,123.1532,-154.1865,-118.1356,-130.2597,-11.3254,-18.1667,51.8695,85.9679,96.6679,36.7589,7.6749,-100.3917,52.0831,24.5497,52.0811,55.3123,-96.5469,14.7014,8.7343,-22.5702
-1453.1250,28.6522,-109.5355,-142.9507,-13.1691,-0.2876,36.9879,27.0995,59.9478,70.9974,46.6656,-55.9052,21.9142,-9.6596,71.3307,-9.9074,66.0167,-119.9835,95.5658,-49.8446,-11.7230
-1445.3125,-15.0305,-14.1022,-116.9612,117.7037,-48.4434,87.9855,-20.8581,85.7299,-12.8671,35.3562,-104.6963,85.0216,-57.5986,60.9110,-21.0882,18.5161,-93.6194,86.2317,-94.6091,13.9235
-1437.5000,-69.4021,34.6190,-67.6779,97.8703,-36.3032,80.0285,-45.5061,60.8192,-73.4211,45.3360,-92.1893,96.4313,-45.2328,-2.2080,-9.9643,-43.6805,-41.9657,136.1999,-114.0628,98.8548
-1429.6875,-62.3185,110.7845,-57.9419,140.4745,-62.7082,73.0503,-71.6898,72.3629,-99.5139,55.7490,-46.2400,34.2907,-34.4152,-64.8826,-35.3846,-70.4292,0.1327,143.6182,-71.0581,36.2338
-1421.8750,39.8199,34.9950,9.8426,101.1196,41.9413,35.0118,-3.8175,65.9608,-32.5581,11.1955,-16.2444,-44.7927,-40.5459,-143.5125,-77.7531,-112.1339,31.2788,34.0979,-4.9916,66.6602
-1414.0625,51.8283,-24.9441,-13.5199,6.6060,-18.5577,20.8271,-27.0883,79.4139,18.2471,96.4730,-3.4049,-68.0221,-63.8282,-94.2889,-65.2729,-63.9894,8.2725,80.4246,42.9329,42.9271
-1406.2500,70.7469,-7.9876,-29.9782,-10.0260,-35.1503,26.3385,30.5527,172.7620,75.9563,189.6222,-57.6697,-84.3541,-152.2071,-75.1601,-117.8849,-43.9362,-42.8385,-6.3461,61.7671,26.0935
-1398.4375,-36.1749,-81.8771,-34.2936,-45.5155,-39.5974,27.2561,62.3442,131.2597,144.8080,145.9060,-98.7835,-51.5303,-120.4244,-78.8754,-85.3348,-12.7237,26.1878,-8.9567,95.7529,94.3946
-1390.6250,-74.1904,-50.8723,-69.7081,-14.1159,-75.1374,31.3732,-8.9559,95.6612,109.5524,110.0754,11.9928,23.1993,-82.7340,-4.6881,-47.8724,26.3834,-10.8913,58.3358,22.6480,-14.4154
-1382.8125,15.9890,-33.6828,-11.9256,39.4763,-54.4701,14.6176,11.9562,42.2666,93.4969,18.4313,30.9641,44.1311,-24.8360,15.7022,-27.2019,-27.3106,-26.7688,-28.1611,-63.2443,-31.0399
-1375.0000,-0.4292,-87.0923,6.2580,-12.5355,-73.3955,28.4168,-43.7195,24.2803,38.8415,-0.8214,48.3390,62.4574,-6.5304,106.4924,-9.1305,63.3951,-44.2597,24.7382,-80.7316,-13.2823
-1367.1875,-8.9359,-62.6050,-39.6521,13.3363,-82.4161,51.8407,-52.4896,51.1961,-6.9165,24.8082,2.6120,89.6797,-52.3236,171.1843,-18.1567,165.0025,-87.8589,-19.4565,-89.3083,-22.6254
-1359.3750,-41.7352,-166.4124,-3.8711,-55.1088,-9.7429,24.6966,20.4386,-23.1817,66.0152,-87.8710,-36.4080,52.6064,20.5847,132.5903,54.5200,90.3240,-14.7702,-17.9417,-16.1789,49.7158
-1351.5625,-16.6724,-180.3656,-11.2400,-66.7155,19.7869,-20.9358,13.2278,-104.7054,21.7991,-133.7143,28.4194,45.3808,123.3459,87.8541,157.0508,81.4994,45.1534,6.4158,-26.1958,-32.1030
-1343.7500,30.4348,-170.2732,75.4342,-19.2865,32.3664,-14.6827,26.0787,-91.1779,-38.3564,-195.5159,41.2922,22.2077,137.1607,101.1734,170.6369,57.7266,57.1204,-87.1712,-49.1471,-55.8770
-1335.9375,1.1905,-131.5185,42.7530,-14.2174,36.5969,20.0725,-6.4078,-87.9900,-71.8585,-192.6699,-29.1874,98.6920,66.6147,141.1456,99.8677,97.6070,62.7236,-12.1057,-43.4402,-16.0162
-1328.1250,-45.0468,-3.7637,-40.9218,78.8320,-47.1674,66.1758,-52.8854,-23.7988,-81.3646,-93.8363,-76.6642,163.1764,-15.9336,168.1218,16.0942,124.4956,-18.6788,45.9567,-54.7239,-63.1545
-1320.3125,-68.4215,-63.1477,-30.7491,90.7178,-0.0890,57.8315,-5.5168,-13.7590,-34.0300,-85.1571,-104.2807,99.5099,-5.6314,103.9592,27.1691,134.2417,-6.2422,-47.1240,-7.1574,-16.4464
-1312.5000,-118.6319,-150.3669,-44.4268,39.7425,-13.8655,33.6859,17.0002,-27.5641,-10.5488,9.6671,-44.7453,48.9908,53.8195,89.9486,86.3989,120.1406,13.3319,6.9437,47.5578,-67.5896
-1304.6875,-72.5396,-177.2812,3.1912,14.0524,33.6527,6.4361,102.8192,19.9280,74.2249,19.7874,-70.9034,23.7766,28.5651,27.2445,97.9255,20.3538,-11.7997,-53.6826,22.5823,-93.4301
-1296.8750,-101.5937,-173.3343,6.6565,-14.7939,37.0178,48.7912,68.4879,59.2773,40.8387,20.7490,-143.2062,64.4190,-4.8427,66.3949,-9.6951,59.4298,-5.0936,22.5451,29.4522,-17.4314
-1289.0625,-75.0426,-78.7801,-75.2713,9.9485,-45.0109,76.7024,-49.2382,125.2242,-40.9521,158.3011,-151.9047,92.6619,-86.6484,132.1446,-54.7151,125.1016,-49.7980,47.3754,19.9233,-62.8296
-1281.2500,-54.3422,-130.0653,-56.0597,-75.1687,11.1073,54.0064,44.1815,144.3251,15.3931,140.0051,-205.4418,2.0535,-67.3037,114.0502,-35.5820,106.9259,-64.3612,-1.6283,76.5469,-7.0839
-1273.4375,-99.7414,-246.4371,-66.9448,-86.3936,-36.8755,61.7589,33.4991,133.3324,41.6224,90.6106,-108.0644,-8.6579,-4.0601,102.8604,27.4488,95.6556,-4.0359,57.2709,66.0707,-18.4532
-1265.6250,-131.4386,-176.0956,11.8710,22.0648,-32.1539,74.7478,1.5158,101.0438,-27.4549,19.9127,-66.9779,33.3215,36.8837,70.3732,-4.8173,63.0926,-1.0203,59.8717,-0.7073,-51.1238
-1257.8125,-94.7363,-176.3306,83.0781,-13.0954,38.9664,63.4415,-38.0663,62.1582,-67.1408,-20.3773,-33.4829,30.6978,-1.7701,31.2916,-44.6780,-13.0641,70.3758,95.8798,0.9144,19.5951
-1250.0000,28.4625,-90.0581,67.7813,-30.7728,23.5901,20.2773,-52.1311,9.7765,-81.3230,-37.1650,24.5225,52.5639,-15.9209,52.7129,-59.0324,8.2751,87.2570,78.3856,-51.9601,-69.1911
-1242.1875,127.3066,-64.1311,132.1263,-3.8177,87.8630,-9.1282,-24.5449,-35.9513,-90.8639,-84.2994,14.1929,44.0735,-25.4228,6.7910,-68.7309,35.2762,114.7724,-35.4427,-95.1814,-42.3361
-1234.3750,73.7530,-83.5833,149.0672,12.7275,67.7352,0.7649,-44.3615,-56.0747,-73.8173,-105.8326,67.4716,24.1844,-8.3256,-50.5195,-88.8309,-58.1102,167.8717,51.3340,-6.8113,-25.8969
-1226.5625,89.4392,-70.7603,203.2567,26.5123,122.8554,-25.5398,10.0717,-37.9446,-18.5306,-163.1143,158.0010,-68.4585,9.0193,-143.5695,-70.6834,-224.2349,182.2076,30.3617,42.8068,-82.2087
-1218.7500,134.8202,-132.1985,248.1348,-140.0154,204.6679,-97.8012,92.1985,-67.1090,26.4479,-193.6872,129.2533,-133.4076,54.0601,-207.9105,11.1635,-215.6492,192.2202,5.0958,53.1203,-37.8306
-1210.9375,163.9633,-34.8585,170.7623,-146.8167,126.2333,-84.5275,14.0833,-34.5221,-14.8290,-125.5045,124.2748,-101.6175,12.8497,-140.5083,-30.2409,-74.3189,115.9628,69.5718,-22.8105,-79.7013
-1203.1250,129.4030,-36.2000,131.6815,-41.3411,124.0940,-50.3027,49.2645,-36.6335,-16.8189,-92.0105,47.6165,-66.5343,11.9421,-142.8046,-69.3346,-150.6817,114.9887,33.3585,12.5567,-45.2702
-1195.3125,6.3359,-126.0061,74.0897,-60.3728,102.4511,-20.7289,65.9430,-21.2378,35.6754,-78.0066,-10.5308,-13.9569,27.5308,-126.5936,-16.9243,-170.5357,132.4913,85.6535,65.4149,6.6529
-1187.5000,-40.0453,2.9140,26.1952,-36.7179,55.5128,22.5885,55.3229,41.8579,-49.1419,-90.2985,-95.9695,49.3188,-20.1762,9.3216,-27.8056,-35.6877,16.6784,39.6466,19.9682,-4.7196
-1179.6875,-47.3332,27.9615,11.3945,-44.9762,40.6679,35.3546,3.7968,-9.9492,-61.8701,-141.4799,-109.2824,108.6855,-33.7899,68.3458,-41.5856,23.2713,41.9501,29.7496,10.6166,91.0021
-1171.8750,-31.6698,7.9857,-42.4531,-65.2956,-13.2281,29.8937,-49.7800,10.1968,-79.6656,-50.7014,-54.6322,54.9947,-14.4624,51.3311,-59.4241,80.1971,59.1539,81.7997,63.2038,36.6702
-1164.0625,23.4354,-44.5176,15.1427,-47.1810,44.3229,16.3946,8.0828,30.7945,-23.0301,-68.4554,-108.5161,38.7483,6.3083,-2.2202,-75.8151,26.5884,42.7880,-4.6821,82.2319,19.7911
-1156.2500,12.1788,-126.3427,-0.6248,-58.4277,27.5144,32.0929,28.5861,14.0568,-1.7584,-85.5355,-123.7355,59.1433,-9.2764,17.8896,-53.5533,46.6430,66.0456,-16.5097,70.9046,113.5552
-1148.4375,20.7003,-85.3442,-27.6004,19.1052,-35.4948,54.9116,-34.1072,24.1237,-28.6917,-40.7927,-114.1419,69.3310,-0.0574,64.8005,-44.4834,93.5047,4.0818,-43.5386,80.3735,86.1221
-1140.6250,44.9987,-62.5107,-3.7923,7.4284,-11.7128,38.0181,-10.0058,-25.0050,31.1581,-127.2258,-164.7269,56.3105,-12.0432,51.5242,-56.6136,80.1816,97.8957,-89.7542,104.6335,109.4842
-1132.8125,80.7369,-64.1925,33.4597,-28.8052,-11.4873,9.1672,-9.4611,-60.6765,-4.5568,-128.1886,-90.8333,20.7264,-11.5889,15.7055,-56.2953,81.3110,133.1357,-55.5188,139.3330,73.2948
-1125.0000,131.1073,-49.1993,87.3515,-83.4136,42.3894,-27.4303,44.7302,-44.6944,12.3676,-76.4756,-111.2641,-35.2215,-31.4906,-4.4551,-40.3284,24.1012,78.0057,-75.6243,119.6793,52.7623
-1117.1875,66.2221,-185.4244,51.9743,-184.2905,44.0045,-15.1682,83.6631,-4.9558,125.0263,-1.9866,-182.9194,-106.4267,-27.6494,34.1532,-36.6138,25.6668,47.5927,0.0278,160.7662,127.9706
-1109.3750,-51.6717,-234.6154,-67.4091,-128.1730,-2.3872,39.9416,74.5883,95.7871,151.6704,97.5238,-192.5590,-42.6347,-74.8140,61.7699,-47.9080,16.2439,34.1555,57.6783,182.8380,44.1833
-1101.5625,-90.5810,-240.7663,-36.8056,-64.0630,66.2115,45.5514,179.4991,90.5279,146.2973,18.0545,-235.1727,-47.8484,-79.9873,-17.6073,-16.1980,-26.1736,64.6990,17.3436,213.8990,38.4023
-1093.7500,-77.0656,-261.4170,-18.7626,-120.5158,47.2494,32.6907,123.8557,70.7313,90.3635,-38.9289,-181.3150,-103.6311,-25.7164,0.4707,38.9610,28.8672,113.6600,66.4611,263.4007,-17.9309
-1085.9375,-61.3760,-212.8391,37.4695,-141.7882,66.4837,11.1224,144.4073,91.1392,36.6225,-57.6827,-125.2352,-194.2256,-6.2519,19.7576,58.3148,48.1244,93.7996,46.7884,208.0928,-109.0582
-1078.1250,-127.3524,-244.8820,77.0366,-137.7190,106.0568,22.6981,147.2923,93.9021,76.2090,-56.0592,-85.7706,-154.4706,-39.4435,59.4118,24.0178,87.7520,62.2635,15.4755,143.1135,-69.8402
-1070.3125,-111.8876,-194.4372,-15.9457,-17.2038,49.0760,39.7153,127.6180,74.1126,93.2231,-2.9646,-68.8247,-64.2742,-22.1912,76.5253,4.1621,104.8390,7.1556,-4.3882,52.5626,-90.1685
-1062.5000,-68.8484,-118.3475,22.6633,24.9030,51.6865,16.9765,166.5257,2.9240,168.8142,-75.2325,-140.2475,-61.4917,16.6539,42.2474,43.9085,-3.4616,-21.3754,-102.6423,60.5927,22.1067
-1054.6875,-170.4805,-150.8537,-49.3927,-43.6472,15.6395,25.0036,94.7742,4.0958,169.7453,-38.1101,-138.2947,-96.3797,54.8395,43.3222,82.0008,108.5944,-18.5896,5.4572,133.9584,59.7337
-1046.8750,-116.9830,-132.1760,-63.3051,9.9369,-34.2602,68.7722,45.1683,101.4177,46.8215,58.1975,-153.1683,-110.1334,-31.8294,103.5510,-4.7559,241.8086,-70.6780,-10.2987,117.4571,-27.4741
-1039.0625,-85.4508,-138.4113,-35.1866,-31.4382,-6.1292,65.4143,36.5952,93.7967,37.9302,12.5947,-123.9607,-80.8465,-40.4577,131.8407,-50.4626,234.0880,-40.7493,-50.9890,77.9871,37.3752
-1031.2500,-46.9001,-99.5524,-31.0343,7.2309,-38.9606,71.1403,4.0614,98.2364,42.0709,16.0861,-83.6757,-40.5279,-72.0461,63.1908,-46.1239,127.4321,-36.8009,24.3785,82.5475,41.2816
-1023.4375,-51.9446,-139.2081,-2.4500,-32.6685,25.6474,41.2604,105.9649,126.1348,106.6496,6.0712,-90.9108,-122.7758,-7.1926,-18.9967,-17.3339,-27.7568,-6.4272,-86.7871,147.5431,105.6439
-1015.6250,-123.2688,-247.0731,-7.1287,-176.8272,57.9962,-12.2876,137.6068,47.7901,174.9640,36.8453,-59.3716,-164.2891,25.4043,-60.4202,51.2049,4.8230,25.6689,-18.2029,181.2674,173.7567
-1007.8125,-76.9135,-201.2053,-28.1182,-200.2993,37.0415,-31.5501,154.9430,64.1467,154.9665,16.3505,-7.1090,-184.1238,40.7006,-44.1392,67.4487,20.1239,36.4400,-41.9232,192.6765,79.5846
-1000.0000,26.6184,-203.0954,43.0752,-237.5794,146.2697,-74.4635,189.4596,-11.2969,153.1515,-132.8983,-8.6012,-185.7744,76.1905,-81.6437,65.8917,-18.3561,69.3838,-77.4391,191.2638,77.6186
-992.1875,36.9319,-123.1369,18.0540,-193.0681,121.2907,-52.0625,91.7665,-35.9378,54.1215,-158.3048,3.7468,-137.6465,51.4725,-34.3430,78.1324,67.9664,44.0950,1.8484,131.6241,52.4618
-984.3750,97.3615,-98.9946,7.1677,-134.4187,73.4462,-0.8141,44.2015,27.5815,-30.7810,-96.5063,-116.7265,-111.3833,40.8963,29.1204,30.5166,57.4570,-2.0763,62.3080,51.1108,41.4724
-976.5625,59.4073,-170.1486,2.9097,-102.1187,32.2300,43.0165,3.2583,60.7666,-34.0583,-27.0002,-119.5153,-152.4836,-0.0443,25.2481,-46.4578,16.6209,101.3669,130.4257,84.2207,74.1371
-968.7500,32.7691,-92.9060,-21.0123,-24.4820,8.3535,58.8078,-57.3438,110.3023,-58.9981,21.8993,-70.9229,-103.2517,-60.6376,1.7322,-71.0792,30.1432,73.1326,138.8910,56.6652,-23.8316
-960.9375,-51.1037,35.1760,2.8479,-3.0543,32.2630,65.3099,-33.1588,134.6391,-109.1424,8.6441,-83.4947,-43.2417,-73.4374,26.0232,-83.9013,53.4702,-10.3256,126.1691,-26.1026,-36.9905
-953.1250,-101.8088,124.4897,-85.1063,86.5753,-18.6380,101.8303,-83.7833,121.1849,-160.0950,31.6389,-133.8422,52.9498,-50.0476,122.5209,-60.5281,151.0098,-97.6123,180.6555,-112.6949,-87.9467
-945.3125,-152.9569,144.4215,-136.4744,174.7973,-33.9454,128.8296,-60.8171,180.3404,-100.4668,53.2858,-221.5684,149.7191,-28.0714,144.6335,-38.5589,173.1745,-219.3264,129.7554,-198.7034,-139.2871
-937.5000,-164.6365,95.9022,-118.3671,161.5131,22.2303,127.3164,-42.3746,126.0073,-82.3559,35.4914,-274.7595,167.9709,-8.6075,127.2583,-56.0961,81.8615,-197.5745,152.3656,-141.2388,-47.1213
-929.6875,-54.4461,137.3415,-146.3744,166.1109,-6.7012,93.2784,-33.0381,98.5801,-110.3559,7.6510,-193.0173,177.0955,-0.2534,62.7861,-10.7377,17.4539,-192.9541,157.8706,-99.8953,-112.0385
-921.8750,111.9478,127.0732,-47.1516,155.9514,55.6049,46.2099,28.5329,50.4041,-85.1138,-113.8853,-92.9810,91.4490,-10.6566,14.5694,-21.1307,-29.6955,-168.1090,7.6341,-74.3205,-86.6891
-914.0625,42.0515,58.5894,-48.1913,121.5495,54.6444,51.0507,-45.1694,13.9873,-86.1370,-114.6124,-19.1584,90.5309,-11.3208,15.1083,-21.7791,42.9250,-132.5432,79.1523,-38.0226,-50.5802
-906.2500,-55.5275,101.4831,-112.8899,128.4914,27.0287,74.9347,-35.5374,59.9221,-76.8214,-68.9408,-45.9493,99.9333,-38.6421,61.0026,-12.0791,52.9040,-194.6490,123.0257,-30.3940,-78.0994
-898.4375,-188.6845,39.8748,-143.1567,29.8758,33.8410,70.7074,7.5236,66.3155,-34.0753,-25.7590,-150.2472,179.7623,4.4744,67.3550,31.0645,59.3518,-223.3357,201.3601,-22.3406,-35.1588
-890.6250,-236.7701,61.4139,-191.3386,86.3606,-14.2578,107.6119,-39.3292,130.8134,-118.2410,1.5799,-122.4103,316.6671,30.6783,131.8112,20.2972,123.9067,-272.9532,187.7943,-106.2161,-119.1002
-882.8125,-110.9462,83.9393,-95.5857,142.7819,7.5783,98.7626,-17.2536,79.2661,-133.4719,-50.0731,-136.5845,338.4935,-20.1685,117.2249,-67.5190,146.4264,-286.6514,105.1863,-120.1596,-97.0689
-875.0000,-85.2600,145.4041,-69.9559,168.0974,-2.6932,97.8983,-65.2882,31.6278,-107.8135,-96.7630,-109.8201,253.1912,-31.1160,106.5423,-78.4264,98.8494,-226.4875,166.4783,-129.2293,-71.1221
-867.1875,-73.6690,263.8433,-54.3956,179.3580,-24.0191,74.9188,-85.3797,48.9445,-128.2002,-80.4431,-93.0711,158.8097,-15.1148,86.8052,-25.3795,79.2256,-181.4079,142.7245,-117.3712,-165.1977
-859.3750,0.8215,198.2707,22.0867,147.5706,52.5848,40.6078,-45.5404,15.2239,-125.6476,-77.1050,-52.3381,14.3558,-12.1730,90.0249,-22.3827,82.5703,-142.4093,6.9352,-77.5938,-125.3069
-851.5625,-14.0778,149.3965,-29.8015,132.4357,0.8178,71.1958,-134.0744,38.1658,-177.4593,19.9478,-28.9253,-0.4749,-26.5944,148.9047,-36.7476,178.5869,-157.7956,133.8027,-92.1975,-139.7455
-843.7500,-19.3214,145.2591,-33.0109,197.9928,-39.2665,102.8050,-99.9319,35.8162,-180.5812,-93.2341,-67.7792,-3.6332,-29.3295,183.4980,-2.4206,139.3249,-127.5094,129.3808,-62.1215,-179.4592
-835.9375,-40.2545,125.5092,18.1066,211.8974,11.9839,102.5108,-49.4535,13.8273,-166.3607,-224.9942,-89.2517,10.5251,22.2780,124.4449,49.2542,44.4246,-78.9101,144.3171,-47.7218,-164.8068
-828.1250,-9.3890,333.6389,51.0580,242.6502,8.0718,68.2848,-53.1360,10.6988,-170.2980,-227.8360,-54.8477,6.5029,18.7312,85.2410,8.7840,4.3778,-153.4866,71.1117,-121.4989,-168.2766
-820.3125,87.4668,360.8503,72.0384,163.4581,-6.8112,20.3710,-67.7994,-40.3699,-148.1970,-205.5559,5.6476,28.5031,4.2257,34.0930,-42.6399,-9.6008,-128.0362,-7.0290,-95.2536,-35.6765
-812.5000,93.0389,262.8583,6.7560,99.0187,-72.9607,11.3061,-133.7314,-68.6740,-104.3524,-159.4602,87.9267,72.2261,-24.5416,41.6938,-34.3280,35.1780,-87.8655,69.5808,16.7071,-64.3048
-804.6875,83.7262,184.0538,38.6019,123.7319,-77.9779,-11.9034,-27.5292,-72.8221,-72.3649,-126.1492,121.3882,105.0743,-29.1755,38.4499,-1.8775,-4.8833,-27.5711,-44.6557,7.7903,-178.7505
-796.8750,103.9728,64.8920,131.0246,74.0577,14.5785,-29.1033,28.2407,-126.3651,-52.7925,-179.1697,105.4920,86.4963,-10.2189,20.8140,-19.8354,-22.3202,27.2955,-58.2862,27.4405,-122.5755
-789.0625,120.6257,13.2082,113.8788,55.8403,-1.4331,-27.9860,-24.5593,-104.4516,-69.7722,-157.6779,90.0771,107.3425,11.1788,5.6364,1.6568,36.7064,79.5817,-40.4668,45.5087,-174.9208
-781.2500,81.1808,10.5053,146.6566,51.5690,68.4832,-34.4055,8.5671,-71.5778,-73.8072,-123.1616,51.6506,66.1088,44.5180,-71.5831,-1.9046,-77.3001,109.7842,-7.6793,41.4987,-178.2894
-773.4375,-38.7092,33.4319,133.0114,2.9050,17.9811,-19.4273,-41.7227,-10.0899,-160.2472,-23.9709,75.8539,125.4408,68.4522,-47.1989,22.1340,-125.6976,95.5561,84.7109,-6.9403,-191.0388
-765.6250,-72.3553,142.6726,99.6470,74.5453,21.7641,3.9767,-111.7325,31.7085,-230.3916,-19.4090,81.3827,203.0461,71.6815,-5.5074,26.4762,-121.7824,26.6054,52.4079,-111.1041,-223.4606
-757.8125,-25.4969,191.5019,106.8095,86.7475,28.0746,6.1319,-104.2164,-33.9323,-295.9972,-120.2257,127.4944,283.1782,42.4560,1.7372,-3.6357,-76.3007,2.1708,29.6648,-169.7545,-105.3154
-750.0000,76.6161,295.6731,31.2522,48.2552,-47.3260,-37.2786,-179.4163,-108.2622,-334.3019,-156.6707,274.9265,354.5751,78.5257,38.2771,-4.4478,-40.5181,-37.0004,28.2215,-173.1332,-142.8373
-742.1875,220.6724,440.8664,71.6595,16.7615,-43.7499,-97.5031,-138.6325,-177.5777,-257.6017,-262.0364,280.3822,357.9405,45.5865,5.8272,-37.2604,-71.7197,0.7920,-73.2076,-169.5367,-138.3223
-734.3750,222.1770,621.5823,38.5334,-87.2204,-76.7026,-129.9857,-171.3672,-209.3727,-290.3979,-255.8170,285.3627,361.7756,13.1366,84.8850,-32.5795,-67.4036,38.0461,0.8714,-202.4709,-170.2796
-726.5625,251.4325,793.1149,37.1838,-163.3949,-113.8705,-164.9183,-208.3177,-135.3527,-291.3875,-217.7216,250.1698,324.3753,-60.5253,84.7409,-32.1025,6.7244,-3.9312,-39.2461,-172.6331,-280.3946
-718.7500,231.3348,811.3745,51.5031,-251.8652,-99.3650,-172.5889,-156.5957,-82.6173,-202.6814,-236.8502,229.7142,228.6433,-155.4912,100.2989,-16.9292,96.5759,-58.2400,-56.6529,-191.1233,-227.7785
-710.9375,327.0823,1084.5614,-70.2952,-226.4288,-220.9762,-153.6959,-241.9947,-18.9719,-324.0806,-209.0119,331.1745,216.7816,-240.5665,126.7608,-64.8614,160.3449,-174.6666,4.8455,-271.7358,-201.2323
-703.1250,534.2244,1506.2091,-110.6618,-159.5320,-261.1511,-217.9655,-281.9654,-57.8672,-400.0349,-283.6498,404.1027,139.3395,-206.2058,51.6756,-30.3537,11.5767,-213.6543,-103.1905,-309.9176,-203.2025
-695.3125,615.5181,1449.0740,-98.8505,-147.4173,-286.1433,-279.2025,-305.7534,-154.5450,-387.7894,-85.0098,491.2524,114.0631,-193.6544,-9.2106,19.3445,-48.9865,-238.4717,-125.0148,-331.9261,-189.9498
-687.5000,643.1163,1409.3077,-141.7054,-83.9534,-364.8008,-317.5102,-348.2064,-196.8565,-431.1834,389.0487,486.7751,144.0970,-236.7601,-14.7496,13.3894,-54.1963,-315.9654,-165.4858,-444.6122,-195.3098
-679.6875,546.7644,1421.6655,-172.4887,-143.3793,-321.3817,-388.9236,-341.5823,-298.0600,-387.4783,730.2831,459.4268,77.2064,-264.7730,-43.1843,-52.4693,-45.2915,-270.3822,-224.8470,-399.2300,-113.5401
-671.8750,512.5714,1319.2434,-132.0874,-176.5822,-317.7770,-394.4876,-337.7722,-293.0538,-383.5721,736.7828,575.3043,43.4882,-261.5957,-75.4215,-85.1343,-41.1828,-235.6241,-187.0152,-362.6852,-145.5351
-664.0625,517.3842,1326.8805,-18.6554,-171.7257,-241.1403,-413.2202,-296.9331,-287.9914,-379.6099,596.3940,655.2566,-26.2111,-184.3701,-107.6112,-80.7513,-109.0162,-230.8362,-320.1249,-427.1193,-103.4327
-656.2500,372.2457,1431.6403,6.8466,-278.7515,-215.4323,-449.8623,-271.0180,-334.8138,-390.5440,588.1794,683.3259,-110.8407,-83.0565,-116.6950,18.7267,-154.7294,-233.9826,-322.1222,-430.4781,70.8030
-648.4375,179.5994,1100.9604,-85.1346,-260.2233,-271.1947,-439.4959,-290.5641,-352.0702,-335.9113,1013.5930,628.9505,-93.9538,-28.2003,-98.2267,110.7543,-98.8838,-286.6048,-301.5602,-447.3033,126.6266
-640.6250,-19.2527,622.1383,-39.2970,-281.8352,-262.1255,-460.0453,-244.2735,-378.4589,-215.4173,1540.9323,567.4388,-121.2561,18.5005,-160.9043,120.6332,-124.1774,-239.4043,-358.1370,-399.3004,211.3330
-632.8125,-202.1958,266.2758,-83.5292,-252.4833,-233.1208,-383.9203,-215.0499,-347.8838,-185.9654,1647.2924,524.8976,-55.6440,48.1458,-93.6365,114.4594,-56.5111,-246.2772,-292.7683,-335.3736,242.0221
-625.0000,-292.4890,250.1162,-106.0871,-200.4185,-217.4291,-294.7445,-199.1414,-220.6005,-170.8028,1444.4181,543.0659,-41.3615,26.4917,-77.6753,56.9849,-77.1368,-301.4710,-274.6866,-283.7735,295.4540
-617.1875,-367.8406,107.9713,-116.6720,-274.3346,-191.7517,-259.4019,-173.2451,-193.3024,-69.6343,1290.6106,682.2414,-126.1060,16.8331,-86.7183,10.5160,-122.7522,-270.6904,-171.5939,-252.2017,433.9161
-609.3750,-462.0381,-18.9625,-251.0752,-297.0338,-287.8914,-212.6024,-196.1600,-103.7924,-56.2578,1271.0630,1029.6317,-149.6803,-78.6291,-35.5647,-48.7579,39.8358,-330.7301,-123.2999,-240.4601,412.6212
-601.5625,-576.5767,-165.1901,-259.8001,-305.0186,-297.3554,-175.3799,-131.4082,-74.5698,45.8238,1118.2865,1169.7439,-196.5880,-87.3980,30.2856,-56.3364,106.1349,-339.0890,-199.2931,-143.0477,442.0701
-593.7500,-698.5583,-317.8070,-273.9517,-354.3790,-237.2485,-137.2968,-107.0787,-85.7277,106.5104,962.1877,1048.4717,-319.9258,-26.5745,128.7391,4.6759,242.0479,-213.8755,-142.6860,-17.0619,394.1541
-585.9375,-564.1843,-216.0280,-166.7253,-218.3284,-202.7620,-99.6203,-110.3591,-50.4734,30.6148,852.5584,901.6027,-396.8930,-28.3538,127.5921,-33.9127,203.3672,-115.2841,-181.6776,-93.6974,319.6856
-578.1250,-445.0049,-128.3942,-44.6822,-168.4054,-81.4494,-94.8526,-134.8103,-110.3562,6.5841,683.8520,805.5980,-459.0354,-53.2892,67.2908,-94.6518,33.5431,4.1354,-165.8068,-78.5114,407.0998
-570.3125,-474.7622,-83.6563,-32.5566,-160.3631,-143.0525,-76.5279,-196.1701,-97.1260,-17.3268,626.3102,746.7065,-448.1140,-40.1266,80.0776,-45.2948,83.8140,80.6303,-86.8383,-36.2530,310.6548
-562.5000,-432.5676,-73.9240,51.5389,-116.3091,-58.6800,-65.3351,-111.5470,-83.8835,-6.2186,457.8349,649.8253,-474.2221,-28.9669,92.8629,-69.9392,97.0980,87.1042,-182.8617,5.9922,250.2534
-554.6875,-416.3232,-19.0942,68.7099,-98.1386,-4.2264,-56.8777,-130.8354,-138.5234,-61.0005,295.5193,596.0438,-457.2616,26.2879,111.7557,-51.4832,116.5040,103.6583,-163.7798,23.3180,269.9821
-546.8750,-322.2704,77.5715,131.7183,-73.1002,24.0665,-81.7789,-102.2883,-108.3030,-69.9179,217.1088,553.1105,-503.4821,91.3920,-6.5020,13.8158,-38.2375,127.0515,-172.8457,12.4794,226.6028
-539.0625,-283.0611,15.4266,134.9006,-172.8423,100.5353,-144.8183,-25.5650,-139.8627,82.3744,187.9662,486.3843,-574.5350,132.6899,-111.5624,92.3098,-68.7708,131.6319,-200.6895,52.8206,269.4559
-531.2500,-347.3450,-9.1805,71.6140,-164.0148,37.5449,-95.8459,-14.3004,-89.8529,92.2340,129.4398,463.2052,-527.0745,106.5311,-26.0841,102.3520,90.2492,67.7458,-120.9805,25.6954,208.8949
-523.4375,-297.3788,43.4952,89.6046,-146.8750,91.8415,-101.9597,40.2598,-70.5316,148.4115,42.2706,373.3219,-473.3427,88.6736,-80.3095,48.6964,-36.4239,119.1475,-173.9574,40.8470,192.6737
-515.6250,-299.6606,-24.0316,125.3704,-181.9026,164.9193,-122.0901,75.6060,-105.3930,222.4016,9.9596,301.2350,-400.8333,88.6114,-189.7409,48.8409,-219.2923,222.3351,-102.1230,145.7699,194.2824
-507.8125,-306.3918,78.0207,86.7244,-151.3107,162.5911,-107.5963,74.5437,4.3563,258.0099,122.3027,155.7367,-366.7529,51.1499,-226.5773,47.5865,-255.5627,111.1146,-34.6832,70.2737,121.5340
-500.0000,-370.7683,87.4575,54.4507,-143.2996,168.6488,-80.9003,153.8687,48.5198,301.0367,132.1024,17.6369,-361.3015,21.0849,-220.0156,53.7289,-211.4245,82.2819,-26.8313,41.1620,166.2202
-492.1875,-381.4240,80.6284,-27.0955,-80.5182,160.4436,-45.0699,182.9404,79.4484,331.8374,92.7047,12.2814,-443.1276,-22.2364,-225.7088,84.6194,-179.5306,107.1814,35.7650,67.7860,124.6920
-484.3750,-228.7704,61.1234,26.6841,3.6254,214.5740,-35.3041,237.3534,98.7406,349.0182,3.7144,-5.7290,-500.6325,-42.2037,-281.0589,65.8639,-234.2792,119.4159,15.7156,45.7454,70.5592
-476.5625,-269.0515,-46.2962,57.5382,-0.1059,245.7807,-13.0758,231.8526,58.1523,381.3164,-69.1177,-117.6475,-470.0637,-10.0688,-248.3139,135.2068,-237.9145,149.7307,84.7759,41.7774,104.5622
-468.7500,-345.5227,-82.8841,-52.7784,32.0392,208.8224,46.9486,232.1929,134.4300,346.4872,-102.0463,-187.7362,-433.6663,-8.0885,-172.7197,136.3912,-125.6904,144.8848,152.6821,71.6413,-2.5369
-460.9375,-355.5850,-160.0473,11.3290,24.6518,311.2944,28.3462,334.9697,128.1687,376.1335,-141.4741,-230.3861,-479.8412,21.3320,-253.6700,129.0196,-242.0009,241.4810,110.0474,98.9508,-8.1438
-453.1250,-354.6754,-224.2324,50.4120,28.2832,350.7475,36.2626,300.7419,132.9231,415.8103,-97.8512,-225.0437,-478.0448,-12.2518,-286.6183,95.6470,-274.3029,207.0631,185.4075,136.2461,-2.7152
-445.3125,-307.5004,-174.1477,-8.2253,149.2264,292.4864,80.1681,279.8102,187.9933,432.8070,-76.8793,-316.4180,-462.9685,4.4641,-232.2684,75.5774,-219.3005,114.9287,131.0780,43.8283,-20.9398
-437.5000,-277.2632,-244.9840,-16.7905,182.2997,247.3033,122.9070,234.9595,218.1829,425.9159,-78.7521,-322.7029,-435.8122,-3.7166,-202.8246,68.6106,-152.1867,74.8815,128.8541,-30.5062,83.9705
-429.6875,-263.1529,-261.9364,-73.4696,234.2983,117.0124,149.0967,142.0076,238.2863,370.9513,-20.6806,-265.1050,-381.7809,15.0086,-183.5041,87.5449,-95.1863,54.7249,146.5238,-49.9542,67.8290
-421.8750,-257.5724,-252.4135,-31.6662,207.8150,122.2101,124.8327,184.5476,208.8994,451.5177,-82.0662,-294.0142,-340.2778,21.2358,-212.6991,56.9765,-124.6917,96.0632,49.7020,-7.9114,113.2355
-414.0625,-288.7133,-315.6130,-28.5832,213.6500,89.6894,157.0129,152.3805,178.8269,419.4081,-110.1137,-287.6313,-226.5018,-10.2379,-170.5972,24.7098,-81.8908,135.6934,92.1810,32.4229,156.9745
-406.2500,-233.4843,-255.4528,-77.1148,378.8979,-32.4398,240.2152,67.6121,243.1625,299.7247,-115.7229,-332.8715,-92.3503,-57.3071,-107.0972,-22.1573,-53.6822,51.7216,117.0662,-15.8525,112.1553
-398.4375,-199.2067,-323.2344,-78.5764,380.2768,-70.4890,256.9120,64.9314,243.6256,261.1637,-149.1800,-332.0399,-58.1114,-21.2793,-108.4916,14.0714,-54.3549,15.8369,119.0720,-15.0411,186.4657
-390.6250,-256.7188,-376.7982,-171.8103,325.9399,-126.3006,277.8702,46.4996,263.3610,206.8749,-126.3451,-347.9962,-5.6391,32.9949,-15.6392,32.5490,75.2281,-40.8069,206.3325,-0.9892,134.0587
-382.8125,-278.2134,-429.3506,-155.0140,342.6746,-74.0684,283.1364,101.1156,283.1593,225.6649,-103.4255,-401.9273,47.8657,14.3221,-33.7492,-22.9220,57.8578,-25.3994,153.6536,15.1099,117.7362
-375.0000,-301.7266,-589.9369,-106.2308,357.4400,-96.8434,313.0511,40.7283,261.9689,240.4824,-121.4741,-348.8668,133.3519,-8.3493,-18.8734,-80.3971,36.4782,57.0080,168.9758,98.1975,134.4386
-367.1875,-213.0622,-637.3558,-81.2586,415.4274,-108.4235,307.4688,-6.4597,216.9917,231.5257,-163.2985,-283.6336,159.0184,19.1790,8.1940,-91.6782,-8.7046,77.6148,121.5017,119.4770,53.3829
-359.3750,-146.8756,-743.2538,-48.7611,344.9880,-1.4766,278.1173,63.8875,178.5825,192.1385,-234.5334,-321.8774,154.2209,126.2545,-31.1841,-57.4137,-10.3244,73.7616,121.5931,116.2999,89.9120
-351.5625,-138.9582,-801.4393,-74.5340,321.3219,-26.7941,277.8256,38.9827,155.9454,131.5331,-253.9804,-270.4033,165.1564,250.0816,19.1805,-44.3997,40.8034,47.6492,168.4278,55.8746,68.2258
-343.7500,-109.7583,-769.3808,-43.0223,352.9724,-31.8173,284.4898,-2.6156,190.6187,128.2677,-290.1026,-309.6614,122.3685,282.2148,15.8308,-11.0778,38.2251,41.8438,95.5676,50.7522,66.8779
-335.9375,-164.5928,-819.3561,-64.5247,266.6472,-15.8488,269.6737,13.7899,173.3074,183.0318,-231.1967,-363.9522,100.5666,263.3511,-3.5246,6.2453,56.6454,94.0391,150.7128,103.6227,123.5572
-328.1250,-161.3573,-777.2637,-92.9344,309.4459,-43.7819,273.3494,59.2947,184.1098,193.9241,-180.1696,-353.1779,182.8463,125.5895,7.2090,-20.3397,105.1668,64.3388,122.9627,73.5862,62.3774
-320.3125,-92.1849,-809.2538,-22.4116,346.2153,-9.7767,271.9964,57.7386,147.8692,229.7845,-213.1680,-352.4769,216.0672,87.7774,5.8866,-93.9737,67.6477,98.5866,20.1752,39.4906,137.1810
-312.5000,-44.5208,-793.7769,-46.4014,397.5164,-70.2823,299.8478,-75.3194,90.1397,171.1637,-230.6510,-300.2999,265.7767,65.4693,58.0587,-116.1062,157.6307,111.3336,106.8854,17.8831,154.5103
-304.6875,-33.4736,-778.9547,-64.9985,412.2397,-88.3970,299.6713,-56.9776,111.8188,80.9707,-205.7151,-278.7546,282.8727,121.5666,78.6264,-97.8398,105.0128,89.4930,121.9986,-4.3229,66.2736
-296.8750,-27.1357,-839.8777,12.6931,387.2838,-10.2213,315.1832,21.6635,192.8129,125.1127,-158.4590,-344.9389,176.2515,53.9684,10.4811,-164.2713,-34.3109,95.9567,132.4135,38.7722,148.3617
-289.0625,20.5968,-858.4401,24.7760,367.7552,-70.6522,332.1732,-2.2892,245.2205,212.6879,-102.7938,-329.7631,41.0162,-78.2265,-10.2824,-260.3024,17.7580,109.8282,149.2256,123.2607,201.8879
-281.2500,22.1612,-924.1953,25.6944,338.1010,-32.2417,328.3696,0.6044,212.4888,180.1403,-132.2619,-325.7766,4.6232,-75.5667,-7.2049,-220.4816,58.6748,112.5555,153.9005,161.6020,244.2952
-273.4375,-59.1824,-929.8962,-91.2992,261.5689,-75.7376,315.2278,-42.3954,208.8732,138.7292,-95.6133,-292.7283,34.3170,-7.8079,23.9657,-78.5607,126.6833,68.3870,253.6747,153.0481,204.8231
-265.6250,-21.6371,-854.7513,-122.3980,266.9503,-69.3332,310.9807,38.5140,255.1645,184.2532,-83.0552,-467.8245,40.9013,-0.1512,69.0278,-34.7412,136.5936,1.1261,189.3510,121.4025,142.2850
-257.8125,-2.6557,-902.2037,-68.0628,183.8026,58.5109,294.0964,166.8719,238.9243,314.2471,-96.0311,-963.5114,19.9310,54.9539,51.5435,21.5235,82.9676,56.3160,141.4903,212.2083,237.2189
-250.0000,-69.2836,-895.2974,-97.3439,156.0789,30.7559,305.8742,175.6358,250.1015,361.6678,-7.5978,-1319.8524,65.3524,102.4568,61.4578,68.1864,204.7460,60.9070,255.0269,253.4194,176.5809
-242.1875,-81.4117,-868.9543,-69.1362,183.8680,58.4986,312.4635,167.9063,281.7884,282.6157,-9.6566,-1178.7401,55.2625,58.4659,91.8634,61.3559,198.0214,15.0075,212.0761,208.1442,135.4707
-234.3750,-157.6954,-870.8126,-73.0878,182.5320,55.0871,312.0063,128.0315,207.3398,207.4421,-43.8616,-921.8150,125.0216,19.3325,163.1119,22.3795,161.1412,45.9616,246.9735,169.7230,136.2272
-226.5625,-116.6383,-756.3591,-62.6961,226.5694,29.0239,302.8175,65.5178,221.2501,146.6529,-63.7165,-872.5808,135.1288,31.5551,138.7016,34.7476,136.6035,18.2691,221.2220,141.6482,77.3635
-218.7500,-35.8327,-742.1880,-15.5689,135.3823,76.6970,248.6690,113.7490,197.9218,159.6353,-119.8200,-896.6311,107.9876,43.5288,41.0432,83.8633,113.8226,65.3328,165.2236,189.3228,129.2700
-210.9375,8.7836,-729.2606,-39.6445,78.0169,17.1685,218.3741,128.7874,178.3967,139.4467,-100.1318,-769.9242,121.6412,22.3076,57.1710,98.7765,129.8406,75.2147,179.0137,199.8052,73.9997
-203.1250,92.2545,-642.5456,14.1318,131.5118,34.4929,190.0071,146.6796,124.7248,122.1334,-113.5994,-676.4068,137.1404,3.9455,75.1392,43.5491,76.7033,19.9653,90.6573,110.1498,58.6055
-195.3125,80.9279,-650.6707,2.0958,124.2323,-13.9904,213.3662,61.7729,80.2681,3.0458,-81.8661,-575.7327,198.8407,-6.2105,213.3026,-2.4799,177.7654,9.9171,118.5044,65.7001,88.4258
-187.5000,138.5007,-519.9398,-45.0452,149.8736,-60.5739,229.1325,-21.2179,146.7215,-78.1096,-12.2387,-472.2072,188.4421,-88.4652,241.3601,-84.6153,244.7216,-73.2223,145.2472,19.1565,46.1742
-179.6875,159.9142,-530.4062,-61.3511,105.3861,-39.3140,184.1691,0.6469,134.0355,-18.3822,15.2400,-449.8722,171.9002,-29.8715,153.2592,-25.9021,193.5268,-119.5052,65.8512,7.4701,144.7928
-171.8750,130.4876,-521.7779,-128.5136,80.0727,-105.9027,169.6767,-28.3286,107.5132,28.5196,-45.1400,-366.4359,178.5078,52.8784,162.2956,93.9672,203.4729,-112.6277,75.6044,-20.0550,156.5767
-164.0625,172.8659,-371.4144,-118.8738,55.5730,-95.6887,118.8887,-17.4932,46.7937,-32.7497,-65.7373,-355.2479,223.9125,100.4430,174.1244,104.6434,179.2105,-139.9309,15.1615,-81.7635,134.1835
-156.2500,125.1036,-415.2438,-59.3923,11.9437,-35.6289,112.4872,-30.8043,36.9344,-43.1442,-35.4993,-293.2584,210.1735,88.8568,125.8035,56.1688,94.8053,-116.3720,77.5719,-57.6128,198.6469
-148.4375,104.0018,-398.4626,-151.2576,-4.0156,-89.9159,120.9251,-84.4541,95.7268,-58.8648,26.3641,-124.6681,228.0947,35.9198,146.1324,3.3391,154.0524,-135.1469,96.6244,-75.8059,148.7771
-140.6250,70.2626,-464.3771,-150.7757,-34.6082,-88.8519,114.8033,-8.7531,99.8714,-18.2185,33.5601,-157.7686,192.3738,38.3405,149.8044,42.8593,157.6449,-133.5503,31.0346,-37.6451,191.2742
-132.8125,-79.6598,-541.5303,-194.4926,-39.3777,-95.9907,152.3562,-15.2471,132.8217,14.2479,106.5406,-200.1182,184.4578,32.5687,180.2693,74.1790,190.0323,-141.1364,132.2444,25.3199,188.5791
-125.0000,-213.3773,-531.5428,-221.0063,-98.9340,-83.9187,126.5356,33.4773,220.9747,138.9433,233.6977,-223.3195,47.7488,45.9982,156.9249,86.6998,166.6121,-167.4994,72.6586,69.5022,131.0961
-117.1875,-201.5335,-376.0587,-171.9679,-186.9222,2.7126,66.2047,120.7645,126.6822,191.2151,69.3781,-209.0090,22.5958,22.9849,135.1195,64.7737,145.7286,-48.2946,18.6252,48.2502,185.1649
-109.3750,29.0300,-2.9244,-144.2165,-93.1932,-80.9437,27.2816,-35.2324,10.0967,1.2082,-7.2707,-180.0533,123.1488,-21.3222,127.0025,19.5457,138.5308,7.6316,42.2824,-0.2897,69.9488
-101.5625,275.4563,281.0105,-64.6172,-54.6014,-36.7490,-60.3255,-27.3789,-53.6366,-63.9322,-105.0927,-136.2989,129.5658,-13.7772,-12.2649,-8.8342,-35.8124,9.4294,-59.2016,36.0400,-29.4034
-93.7500,359.2580,367.2610,-47.6688,-142.6400,-19.2061,-107.9170,-9.1661,-69.0134,-79.7059,-154.5927,-79.2373,109.3405,-30.8795,-66.1858,-25.8694,-88.8084,23.5916,-6.3384,86.7397,-80.4077
-85.9375,515.1771,736.5649,-61.6111,-193.5718,-32.5548,-202.7990,15.1657,-80.2900,-54.3496,-201.0240,-92.1244,58.2220,-43.8808,-78.0156,-1.8039,-100.7130,4.8713,-164.3754,68.5586,-200.3013
-78.1250,657.3536,1092.0692,50.6876,-294.2398,43.3479,-334.2209,54.7593,-221.3051,-48.7179,-338.2224,-50.8100,-49.6349,-39.6271,-147.6004,2.5163,-132.3723,42.4111,-299.1523,106.6467,-192.9468
-70.3125,756.3477,1194.3146,84.7909,-296.0969,4.0575,-369.6069,16.1740,-294.5115,-85.2561,-371.6459,95.2499,20.3180,-77.5631,-111.3884,-35.3536,-132.2429,37.7598,-336.1359,67.5486,-227.7898
-62.5000,864.5099,1233.6591,86.0407,-219.7905,5.9236,-383.6155,55.7511,-326.5648,-6.6161,-363.9509,24.4081,95.4382,-74.3400,-182.0269,-69.0725,-274.9641,6.2706,-400.9699,71.6140,-184.4746
-54.6875,787.9956,1194.2794,42.5858,-186.1624,-35.9133,-341.4546,14.6310,-328.3097,-9.6697,-362.9830,-16.1793,125.8783,-77.8215,-186.3638,-36.5001,-241.3806,37.0954,-261.5067,31.9911,-148.8584
-46.8750,660.6113,1033.9669,62.2418,-98.4275,-89.6412,-257.1415,-38.3783,-231.9548,-97.6024,-300.9519,4.2874,107.4268,-94.1998,-127.6110,-88.8367,-108.7121,51.0462,-209.9461,12.4918,-235.1306
-39.0625,544.4091,743.7546,159.0550,-69.5377,7.7820,-224.7789,23.7726,-241.4471,-69.3691,-344.8013,29.8657,58.1422,-31.4257,-138.7150,-63.0170,-155.9054,112.1681,-251.2322,38.1613,-169.2587
-31.2500,381.1351,582.3963,136.7741,-87.7336,22.1126,-179.1758,1.8398,-187.0353,-52.2148,-250.7885,45.2886,71.7728,-52.7471,-122.9197,-47.2971,-175.1969,91.2027,-129.6277,88.7449,-150.4838
-23.4375,245.6736,448.7946,106.2934,-78.1179,29.2486,-124.2365,9.7134,-103.8261,-42.2462,-201.0173,53.4616,41.2247,-80.2665,-77.3198,-74.7794,-92.6741,98.0631,-120.2235,96.1519,-138.9017
-15.6250,87.6364,151.5646,88.2178,-162.0875,48.7831,-93.6179,29.9941,-117.2155,-56.8675,-175.8843,73.9934,60.0954,-23.3834,16.6815,-17.8671,3.2479,152.3456,-62.4203,150.9788,-114.9286
-7.8125,104.5284,135.1960,109.0627,-71.1471,70.2355,-78.0900,15.1931,-93.7084,-106.5760,-150.8990,133.3722,80.8846,-0.5945,2.5721,4.9470,-46.9512,64.5579,-42.7218,27.7220,-163.0543
-4000.0000,196.6329,181.9491,148.3224,-36.2487,105.8508,-83.0883,22.6911,-119.0123,-84.1762,-192.4650,-34.2630,141.4133,4.2907,-63.9808,-32.5464,-133.7123,108.6055,-70.1107,75.8485,-126.3301
-3992.1875,39.5342,165.2006,56.6716,-21.1822,49.6639,-60.4556,3.2785,-67.9005,3.7551,-33.7083,-18.6973,159.9301,-53.6383,-49.0306,-54.0094,-82.9226,56.3465,-55.4366,93.2172,-112.6054
-3984.3750,12.8710,207.8830,27.4661,89.3326,-17.0778,-47.7633,9.3153,-28.3254,82.1319,42.5088,22.3258,167.9043,-85.1209,-81.6212,-86.0283,-116.6742,-7.4723,-156.3003,65.0368,-109.4363
-3976.5625,70.3465,124.6806,10.4052,37.9854,2.3330,-48.1036,26.5093,-12.5821,97.6739,-17.1161,39.4949,114.0275,-31.4571,-139.0558,-31.8952,-174.2702,14.8525,-102.0193,51.0151,-21.1141
-3968.7500,65.5541,83.1797,-67.9137,-6.6252,-39.5059,-20.3649,20.4584,51.9170,52.9798,9.0163,32.4162,72.9129,-38.0408,-72.7277,-3.0079,-37.0997,-62.0777,-6.9833,43.7534,-67.0398
-3960.9375,-60.5407,27.3676,-90.5470,-65.5362,-25.6585,-30.2996,70.1070,62.1326,137.9826,54.8596,7.0501,50.5124,-25.9316,-25.6881,8.5783,45.7829,-48.3268,-66.2402,22.1846,-57.2759
-3953.1250,-162.1402,-39.9462,-86.6821,-29.9595,14.6878,-20.5967,72.2564,24.8599,138.4921,90.2088,8.1867,54.6154,12.6760,11.8498,46.6612,9.1646,-10.0860,-65.9942,-9.8898,-58.0045
-3945.3125,-197.4986,-76.0305,-85.5810,71.8554,14.2714,-3.1583,70.6571,21.8538,136.2550,85.8235,42.5847,91.9758,48.5286,9.6408,81.9914,-31.1917,-11.6091,-105.4906,-81.7124,-98.4781
-3937.5000,-192.2229,-177.4961,-47.8393,72.3141,52.5006,15.9511,70.7140,-17.4831,170.6808,44.1022,4.6341,56.9907,47.0237,81.0905,79.9743,39.1048,-7.4955,-140.3345,-43.8823,-28.2943
-3929.6875,-173.7790,-123.8011,-136.9115,87.9670,-74.0752,39.9246,-20.0231,-0.6080,115.3197,60.5923,59.8888,115.2130,29.7187,172.7456,62.1597,202.6124,-60.1922,-89.9641,-131.8497,-84.8987
-3921.8750,-116.4519,-67.2268,-117.0967,106.5233,-54.7626,31.4128,-1.8603,-20.8180,94.8622,-35.0111,41.0511,99.3444,47.3117,153.3085,79.2460,145.0301,-3.9984,-177.6848,-145.9214,-32.6039
-3914.0625,-84.9840,-142.5262,-87.1333,28.2271,-26.2996,8.1137,-10.5391,-69.8693,84.5631,-47.4638,67.3680,18.6274,74.0497,105.0225,142.4801,96.5979,61.3400,-80.2522,-115.8430,28.8493
-3906.2500,-135.0285,-158.3564,-64.6820,44.4227,-40.3432,36.9805,10.2801,-13.4097,66.7664,-30.4018,51.1953,-31.5911,58.2918,162.2437,126.2174,151.6835,10.1700,-63.3070,-132.2676,-26.1982
-3898.4375,-227.0380,-215.1658,-54.1909,54.6664,5.6625,54.0837,55.1535,-7.8859,111.0209,-25.2753,21.0857,-21.7591,65.5828,168.5209,96.0030,193.8287,-47.9642,-89.3036,-155.6471,52.8027
-3890.6250,-279.6704,-198.6126,-148.3110,103.3051,-124.9331,75.0281,-39.5733,42.0564,124.6802,95.2627,72.3854,32.4765,80.2764,108.2044,110.1903,243.3763,-101.7129,-40.8837,-139.6319,65.2142
-3882.8125,-193.6793,-113.4388,-171.7994,79.5942,-112.8869,43.7034,8.3509,50.6695,133.9959,139.4684,46.3422,-28.6413,91.6164,44.5422,84.0311,141.5821,-123.8220,-64.7954,-125.9713,110.2769
-3875.0000,-228.1139,-183.6970,-173.6935,-63.5253,-78.2363,50.5802,3.8852,80.8979,90.9276,169.2790,40.9000,-67.1656,49.5581,75.4783,41.4770,171.3908,-88.3402,37.8990,-55.7066,176.9508
-3867.1875,-297.9847,-219.3976,-207.0040,2.9522,-112.9993,109.9569,-67.9844,154.7480,17.4615,240.7047,5.0644,-63.0873,14.0954,149.0342,42.5220,243.8239,-89.2739,70.2203,-56.8478,102.2345
-3859.3750,-317.9803,-346.2359,-156.4335,-54.6675,-61.8786,74.0585,19.0359,128.5264,102.8920,213.0562,17.1377,-122.1012,63.5224,87.5125,91.4563,144.1845,-4.3293,10.4562,27.8987,112.4229
-3851.5625,-277.6013,-481.7128,-111.4794,-88.8839,-53.3714,43.1309,62.4530,96.7254,181.7261,142.8302,96.6158,-149.7162,143.3386,56.4054,170.7873,111.9651,0.0077,13.1035,67.0397,43.0280
-3843.7500,-206.6954,-411.6647,-73.9926,-91.5470,-16.3287,0.8519,98.4201,56.4878,179.1174,64.1697,131.6559,-222.7869,178.7012,16.8552,205.6725,71.3085,-0.1141,-60.6914,31.7279,39.1924
-3835.9375,-226.3606,-433.1964,-65.0673,-114.7685,-7.8407,25.7299,69.8435,61.7128,185.9806,69.9703,102.1613,-211.4151,149.5206,22.7573,139.0105,76.1063,14.1969,-14.0365,45.8621,154.8235
-3828.1250,-238.8513,-305.5693,-112.9654,-25.7977,-56.1693,71.8332,-16.5307,121.1551,208.0582,162.9909,51.8785,-186.8398,25.5356,45.8737,14.5518,98.1247,-34.3136,75.8413,32.1844,102.6723
-3820.3125,-209.2657,-311.8741,-46.7887,-104.7207,-27.4161,17.7875,48.1886,109.7259,308.2378,150.1391,41.7066,-229.1660,15.6451,-37.8960,4.1877,-22.7325,29.2490,-4.1623,95.5894,127.6310
-3812.5000,-212.4593,-420.9700,23.6182,-146.3920,42.5744,-16.0563,117.1571,-7.4335,301.6756,32.5565,72.7943,-269.2501,47.0013,-80.4111,109.0743,5.6759,95.0516,60.1022,126.2362,119.8602
-3804.6875,-145.9356,-425.3530,22.7562,-117.3065,78.2954,-17.5566,151.8642,-11.8213,224.8651,-46.2547,106.6508,-233.5872,81.1096,-48.1580,142.7170,37.8520,91.5870,18.1362,51.6179,41.8467
-3796.8750,-120.4424,-401.7737,80.8782,-62.2214,99.0075,-11.1478,134.5748,5.8128,206.0598,5.9559,51.5145,-210.9284,100.2157,-102.8947,124.3657,-54.9541,44.1009,-31.8174,3.9910,131.8444
-3789.0625,-136.2918,-277.5406,-12.3250,-45.4368,5.4094,-10.0277,39.9878,57.1723,183.9628,165.8960,67.0769,-192.5748,116.0150,-124.9137,139.7157,-78.0346,-42.7077,-14.0400,-45.9454,182.5574
-3781.2500,-71.4841,-284.6497,-21.8605,-124.9444,-4.5058,-33.6397,102.0964,43.2668,280.5753,113.5716,54.3430,-276.5298,103.5085,-101.2175,126.7642,17.6082,-83.8424,-93.5415,-18.1877,277.9756
-3773.4375,-141.0121,-354.1121,-132.7172,-196.7501,-78.7307,12.7435,26.9160,76.0852,203.9053,181.9680,52.3130,-239.7978,64.7003,5.1868,124.5155,196.9676,-83.2956,44.6720,-17.7317,310.1115
-3765.6250,-173.3331,-353.3739,-164.3483,-128.3031,-111.7224,71.6362,-6.0179,150.1795,132.4926,218.6453,53.5420,-160.8242,31.1340,116.8583,53.5171,197.6107,-152.5130,44.1629,-17.0342,237.5053
-3757.8125,-217.5993,-433.5720,-102.9021,-174.7504,-50.6289,57.9972,54.1469,136.4101,191.1855,202.4523,3.8746,-245.7612,16.6577,66.6498,75.6134,146.3827,-91.6539,31.7729,43.7488,295.0099
-3750.0000,-267.9477,-413.8576,-117.5308,-158.2501,-64.6026,61.9184,39.2543,154.6141,210.8360,256.2381,-11.8331,-221.7572,38.1198,86.4097,95.6526,201.1287,-107.8659,49.3553,-7.5302,240.4935
-3742.1875,-257.5728,-298.4286,-105.4360,-79.9959,-52.8526,59.7093,49.1030,126.5987,146.2433,226.8023,-2.7743,-210.0100,11.3268,58.9296,68.4415,172.6403,-98.3507,21.7127,-33.0732,211.7442
-3734.3750,-267.9303,-345.7520,-79.0623,-58.4354,-100.8121,58.1939,37.2522,112.9042,169.9629,248.6934,94.5835,-219.9720,34.8304,45.7576,91.5318,121.4659,-74.5531,42.3902,-44.3250,197.3183
-3726.5625,-164.1357,-347.9203,-114.5174,-27.6642,-136.5964,86.3142,36.5946,185.4397,131.8916,208.8167,130.1525,-217.7393,-3.4685,80.8022,53.8243,193.5218,-147.5766,37.2959,-47.3967,121.1056
-3718.7500,-67.1313,-462.8795,-126.7431,-39.6237,-112.1515,93.7079,24.1805,170.2562,154.0725,192.2157,42.9838,-155.2693,-15.5230,66.1147,40.3659,140.8598,-121.3747,26.4699,13.7615,179.1535
-3710.9375,-102.8680,-464.5948,-199.6943,26.7144,-185.4243,147.3272,-48.9369,205.3956,115.5627,262.9442,5.1266,-81.5091,-17.2799,101.7485,2.2100,138.5217,-122.8903,163.9697,-22.7934,139.5234
-3703.1250,-182.6463,-228.3555,-170.6748,49.0574,-156.7187,119.5690,13.9386,230.5663,105.0624,250.7109,-41.7184,-161.7590,-28.0426,17.4004,-8.9468,53.2122,-168.4310,151.4957,1.6344,90.9046
-3695.3125,-249.3180,-297.0091,-167.5329,-125.4416,-80.8751,58.9125,89.9627,193.9169,179.7238,249.6567,-3.4109,-230.8749,-62.6591,-18.7851,66.0437,16.0801,-129.8484,187.1895,145.2006,90.4575
-3687.5000,-304.7373,-423.4098,-220.1228,-182.6435,-59.7517,50.9465,184.2813,249.5976,235.6932,339.9401,16.1993,-246.7074,-79.9791,1.3501,48.3394,71.2757,-151.9853,200.2164,195.0548,-38.6673
-3679.6875,-259.0547,-518.6923,-136.5947,-174.6831,23.5014,62.5879,229.7483,257.4668,243.8127,273.4039,-12.0339,-235.4031,-108.1524,9.6486,-16.2095,78.6419,-105.9992,138.4157,170.0432,-31.6269
-3671.8750,-186.5182,-412.1154,-97.1966,-105.8110,-10.3635,86.7081,84.1081,221.2616,59.8348,197.8009,25.6457,-158.2137,-107.4266,9.8590,-15.8542,77.9312,-34.1339,208.5365,101.9141,-32.6606
-3664.0625,-146.9646,-267.5303,-53.7878,-32.8783,-41.2020,94.8493,15.5052,224.1347,-47.0843,200.2881,30.3869,-113.9872,-102.6528,13.1341,-48.4458,44.3006,-65.2485,210.7350,34.8158,-66.6270
-3656.2500,-278.7953,-260.3382,-47.7547,-27.2857,1.5919,117.0100,21.5496,191.6886,-6.3382,202.4605,-38.2155,-107.1332,-135.2324,91.0685,-81.3896,84.3448,-57.7369,216.5990,77.3503,-26.9193
-3648.4375,-239.3204,-256.8375,-76.4041,-60.3352,-28.2885,83.4631,27.9306,196.6208,35.7549,170.0159,78.5474,-171.9393,-91.4679,97.3715,-37.9845,89.7694,-53.8977,148.8491,82.2113,-95.8319
-3640.6250,-95.0807,-288.5686,33.7126,-59.5632,82.6012,36.1856,101.0965,121.3840,34.6432,56.4033,77.1244,-207.9574,-18.9107,22.4955,-2.7816,-22.9729,-15.2827,44.9223,14.8503,-24.9274
-3632.8125,-120.9182,-246.3959,0.7567,-17.8337,86.4184,66.6692,30.2047,86.1164,-36.5078,92.7688,42.6617,-129.0415,-17.4068,23.5829,-37.6311,14.2565,-77.7340,156.9655,-47.5788,85.9564
-3625.0000,-181.8418,-97.3129,-62.2767,59.8525,-50.8419,109.6499,-69.7459,131.8248,-64.6991,174.1157,-21.8261,-7.1892,-80.9571,142.6330,-65.5298,169.4568,-138.2602,93.9890,-108.0814,56.8112
-3617.1875,-194.6983,-76.1588,-79.2308,43.6559,-68.0272,96.9540,-51.6106,73.6622,25.2067,151.5853,-41.1935,11.7405,-100.4087,159.7908,-85.3287,185.7809,-117.7047,43.1345,-87.5123,145.7903
-3609.3750,-65.8941,122.6493,-123.5045,101.1746,-149.5287,82.5802,-133.7924,64.2178,-58.1937,177.7747,60.1567,78.3520,-146.1602,113.6650,-131.4307,174.8378,-164.4621,136.0071,-169.2634,61.4990
-3601.5625,68.2763,325.8208,-94.4072,197.1107,-156.6559,94.9184,-178.5895,92.1975,-214.1944,93.3939,51.9153,146.3510,-154.5170,67.9658,-177.1295,55.3300,-171.8458,92.3050,-211.6406,51.6243
-3593.7500,112.4578,299.0008,-49.2872,134.1055,-147.7534,76.7724,-207.3349,62.2529,-244.1282,26.0985,59.7222,82.3813,-109.8314,38.3334,-132.7772,-12.1063,-93.2070,134.6729,-96.9884,57.8339
-3585.9375,232.6860,242.2401,-29.1131,111.2064,-92.7782,33.5009,-115.9852,43.4426,-189.9519,4.9513,77.6360,-80.5105,-130.0443,-17.1813,-116.3150,5.5917,-78.5062,113.1763,-48.2564,-35.8325
-3578.1250,227.1668,94.7454,-1.6749,33.6157,8.4719,29.5061,-52.3423,68.9689,-164.4631,-42.8568,66.8550,-126.1262,-102.9572,-65.3756,-89.5479,-43.3775,-85.5416,139.9990,-20.2463,25.8239
-3570.3125,28.3973,36.0030,-98.4724,78.8344,-14.5028,86.2655,-111.9020,81.3206,-189.1653,40.1669,79.8757,0.0419,-91.0734,21.2506,-113.9754,42.4867,-143.7971,256.6454,-43.4539,0.3153
-3562.5000,-9.2628,32.3691,-101.1568,180.2189,-54.3576,144.5641,-115.3234,112.8539,-230.7099,34.3751,-33.9494,108.3423,-95.0440,127.0463,-118.2486,74.5332,-180.9317,182.4716,-81.5307,-5.0167
-3554.6875,22.6845,-76.6616,-141.2230,174.2637,-95.5872,147.1470,-120.1013,70.0660,-163.5914,26.2730,-40.1191,141.2644,-100.3673,157.5090,-87.8700,104.2595,-115.4434,141.9716,-14.9789,24.3372
-3546.8750,91.6889,-44.6281,-66.2328,137.4223,-93.7500,81.5739,-82.7980,70.4106,-126.3800,26.3141,34.8239,71.2653,-62.5938,12.0922,-50.3897,31.1230,-80.8863,105.6099,19.6471,-49.1767
-3539.0625,62.0151,29.7423,9.0669,69.9481,-18.5927,34.1671,-8.1604,71.1367,-52.8223,24.7442,36.1177,-36.4019,-62.4815,-61.9584,-86.5659,-6.6305,-77.0074,38.6209,-11.3998,23.6875
-3531.2500,-43.9023,204.8734,-101.8633,32.2756,-92.6586,82.4460,-119.7278,104.6857,-202.4541,94.0083,-3.7853,-0.2885,-137.5697,119.8021,-88.9379,247.4442,-147.3497,142.4577,-116.6595,56.3868
-3523.4375,19.5271,338.3673,-147.4289,59.0251,-175.3497,103.3582,-201.9141,168.6665,-286.6850,119.7122,-50.2715,29.2032,-110.2600,182.9757,-98.9113,236.9488,-189.3115,64.7289,-158.5454,82.5080
-3515.6250,97.8658,239.7719,-144.0637,30.7442,-172.1113,74.3289,-163.1609,96.6261,-211.9645,121.3987,-46.7899,33.6163,-71.9977,111.1050,-96.9354,127.4146,-182.3376,70.9669,-115.5065,193.6097
-3507.8125,158.1127,229.0791,-153.7725,55.4246,-218.9486,91.6949,-210.4697,121.5587,-186.2901,145.0663,-20.3421,60.9566,-118.7878,137.2002,-108.0076,115.8554,-192.4288,95.1814,-161.5331,181.6946
-3500.0000,198.3715,128.4037,-113.4591,-11.8305,-141.7618,42.9810,-133.7409,51.5674,-73.5586,109.8180,-17.8319,66.3235,-116.5305,103.3646,-106.0282,45.3784,-152.4966,29.4678,-121.5369,219.8549
-3492.1875,96.7464,129.8428,-108.0239,-44.9245,-136.4475,12.5845,-91.8751,-18.2482,-33.6741,75.7498,58.8244,71.8165,-112.1260,70.6940,-65.9011,49.0793,-78.4331,66.9335,-82.4105,186.2020
-3484.3750,5.2330,178.3998,-89.4749,2.1416,-118.0100,21.3164,-73.8730,35.1143,20.3548,54.8682,3.6416,55.4347,-94.5824,51.1916,-47.6232,64.9613,-100.2388,44.5847,-104.1549,92.7239
-3476.5625,-43.4753,22.7646,-70.1038,-47.9279,-24.7450,18.2279,18.9733,-18.6449,39.2436,-1.1229,-123.6839,38.8741,-39.1919,69.5496,7.5098,119.7204,-79.2206,30.1029,-48.0660,147.1247
-3468.7500,-22.4363,-62.1129,-153.9656,-28.1874,-71.7037,27.6057,-29.3911,5.4225,62.9452,58.7254,-98.1996,67.0874,-15.0013,58.7207,31.4393,108.3093,-58.4215,86.4519,-27.1983,61.3613
-3460.9375,1.5085,-4.0664,-89.9164,-5.4748,-8.7423,-3.9040,34.1773,32.4715,89.5954,84.5641,-71.7579,-14.7666,-24.8669,-62.1403,21.3166,-50.1209,-34.7014,74.7788,-38.4045,13.5735
-3453.1250,-129.4374,3.0970,-116.7415,2.4022,-35.6541,22.0912,6.8888,78.6927,98.3968,92.5842,-25.1679,-3.4969,21.4103,-52.8346,30.3443,-78.3755,-61.8456,153.2788,-30.4779,-15.0281
-3445.3125,-139.6327,29.0188,-159.7998,62.0919,-40.7942,30.6360,1.3844,71.7421,53.9978,84.4376,5.2305,65.5411,14.4907,14.2904,23.1791,-10.7942,-70.2091,73.6112,-73.7700,-95.8024
-3437.5000,-133.7177,-2.9486,-84.7390,100.9496,-2.8067,29.4233,39.0197,-1.0328,17.7580,10.4760,-30.2188,104.7027,52.7223,-21.4216,24.1730,-48.0371,4.5567,42.1162,-104.9365,-22.4016
-3429.6875,-129.6461,37.2524,-77.5059,176.0252,-69.6422,46.0294,-65.1560,-31.5871,-50.2733,-21.2556,12.5411,76.0448,95.1547,-14.9255,66.3754,31.9367,44.5090,81.8430,-168.9314,-53.7687
-3421.8750,-80.6532,120.3985,-24.3539,83.0720,-53.5546,14.9564,-86.3930,-16.1678,-72.3541,-43.9963,-8.7480,-16.6905,73.5381,0.5283,44.5287,45.8806,58.3868,60.5406,-121.0053,-76.1616
-3414.0625,-105.6907,94.5157,-49.2247,22.1301,-41.4855,11.3540,-37.6407,-4.7249,-61.4264,3.2964,2.9680,32.5431,10.9153,10.9938,18.6756,19.8486,33.2452,141.2560,-75.1034,-102.5143
-3406.2500,-84.9769,149.3896,-26.3332,146.9991,-54.6500,42.5370,-51.1069,17.5412,-112.6939,24.4260,-10.4990,57.5533,-2.9098,34.2822,4.6278,-67.3402,-17.1192,125.7996,-125.4183,-154.0344
-3398.4375,-125.9531,72.5827,0.8758,176.2371,-28.4894,75.4128,-62.2327,44.1770,-123.6055,-24.0684,-57.6099,11.8908,59.6181,-13.0590,30.9442,-79.1505,12.8444,120.7106,-96.4104,-55.1825
-3390.6250,-126.8210,35.9050,-34.7885,68.6422,-64.1982,68.6904,-135.2169,80.9794,-87.3678,49.6138,-56.5634,-59.6469,23.3003,23.7594,-5.5812,68.2031,11.9422,189.7937,-26.2781,-92.1459
-3382.8125,-22.3649,174.5653,0.8673,66.4182,-28.5872,37.5861,-62.8746,79.1520,-126.7844,9.6765,-58.1592,-59.8594,-14.6660,21.9414,-44.7557,65.9362,-24.6329,83.2488,-98.8246,-94.7317
-3375.0000,-40.9861,155.1436,51.4450,48.1521,21.9489,33.2235,-85.5887,19.2956,-186.2344,21.7167,-44.7959,28.8468,-38.6795,36.0844,-68.9737,5.6459,-7.2825,64.6656,-46.4373,-8.3350
-3367.1875,-18.6019,105.7376,-33.9582,103.9478,-63.4888,59.6469,-98.2584,80.5066,-125.6286,118.8386,-56.3769,18.5762,-87.6389,24.2926,-44.1306,66.4326,-55.8981,86.1553,-24.0187,-57.8587
-3359.3750,-35.4509,18.1165,-16.5883,52.5698,-46.1541,54.2462,29.8546,134.5341,0.7749,171.7796,-149.1485,-36.9138,-106.7942,4.3156,-64.4839,47.0418,-107.7260,35.4559,-5.8230,-4.5572
-3351.5625,-119.5327,38.2696,-69.4416,73.0143,-62.0360,75.5444,11.7533,80.3649,18.9832,79.5384,-129.1077,57.3763,-87.1500,60.1485,-81.0382,102.4684,-121.7584,56.5739,-19.8464,50.5803
-3343.7500,-141.1419,156.9101,-127.8241,120.9749,-157.4405,96.2964,-45.8567,95.7113,-39.3062,19.8235,-41.5607,184.1361,-73.0085,148.4886,-67.0881,153.4173,-178.3085,-0.7792,-111.3951,28.2436
-3335.9375,-51.6750,140.6306,-110.1285,69.0466,-139.7643,61.2860,-64.3766,3.1715,-132.4906,1.2370,13.0831,239.9644,-18.7628,166.9381,-49.0309,97.4866,-158.7731,-16.0161,-91.8701,82.0350
-3328.1250,58.0593,214.6259,-103.1609,109.4310,-132.8098,47.4675,-94.6124,8.9462,-199.3763,-67.0280,94.0292,211.0625,23.7848,99.6980,-7.6648,29.8853,-188.9464,-10.9280,-122.0621,51.1598
-3320.3125,63.0577,288.9041,-62.9127,78.1312,-129.5762,-11.7199,-54.5642,-59.9613,-86.9712,-101.9721,97.2888,142.4382,63.6347,28.7684,-3.9973,-3.3948,-113.8281,-110.5198,-81.9747,90.6064
-3312.5000,72.7789,227.9018,-50.9293,17.5979,-80.6052,-53.6748,-79.7815,-122.1091,-75.8251,-128.1496,219.3125,81.5536,75.2411,-32.4049,43.4221,7.0884,-33.9631,-64.3487,-36.1572,64.8324
-3304.6875,172.7313,186.1384,19.2867,47.3347,-47.4075,-47.8978,-82.7676,-87.9975,-152.4375,-94.0605,217.6008,80.9018,73.1013,1.6784,4.0978,4.8347,-74.8507,-105.9117,-78.1129,-11.6735
-3296.8750,189.3271,132.0262,32.1437,-7.2621,-32.5751,-49.8648,-69.1149,-74.2352,-103.4052,-45.3101,120.5494,94.8708,48.6152,-21.5864,-19.5701,-18.7567,-57.0939,-88.8242,-96.4415,74.4959
-3289.0625,164.6376,211.6480,-28.2618,2.9075,-131.0119,-35.1291,-130.7274,-61.7195,-91.6206,2.2126,96.2467,71.5684,23.8787,-46.0881,-8.4897,-7.5749,-47.5919,63.0316,-86.0388,49.4480
-3281.2500,166.4184,212.7595,46.8070,75.6019,-54.9771,-4.2522,-91.8611,-59.6839,-164.3397,-106.7298,98.4401,37.7464,25.6399,-44.0675,-42.9131,-41.8686,-10.6041,65.4063,-154.1609,50.9185
-3273.4375,50.6809,132.3609,72.3613,64.8171,-29.4601,68.5556,-140.5054,1.8583,-323.5560,-82.1661,87.1360,101.3960,-22.0943,17.4585,-90.8296,-16.6552,14.8845,231.2838,-198.8006,75.9217
-3265.6250,-109.4217,40.6018,18.5502,114.6899,-48.3121,119.0455,-194.5077,58.0468,-304.1211,9.0552,33.4985,158.6696,-40.1714,74.6379,-145.0789,39.2210,30.0193,246.8191,-113.8054,-15.3982
-3257.8125,-179.1373,-204.7544,130.1219,45.9751,101.2228,88.2814,-47.1167,22.6400,-156.2796,-63.3039,-1.7290,14.3147,-1.8475,39.2217,-107.9289,40.5186,136.5371,142.7553,-8.4348,-14.2901
-3250.0000,-145.1729,-311.4222,133.3680,-25.0280,140.4361,56.9023,29.9553,25.9398,-118.7325,-61.9414,0.7486,-92.3699,37.1841,5.5162,-32.0728,79.5357,101.7454,178.4022,61.6183,-85.4436
-3242.1875,-62.4279,-229.2975,146.3891,22.7872,153.4243,40.2438,78.8123,39.0495,-106.3912,-49.7574,14.0235,-115.2762,50.0200,-55.3788,-56.4065,-54.6238,8.7479,156.8622,4.4500,-72.7743
-3234.3750,-158.1029,-220.5840,115.9921,67.2195,122.9981,73.2717,48.2608,44.7671,-99.4456,29.0418,-16.1018,-34.6091,19.4591,-12.6727,-51.1350,-121.1736,-17.6558,165.9335,-22.1329,6.5237
-3226.5625,-143.8964,-136.9770,56.4744,151.5653,26.4506,95.4405,25.5939,59.3884,-85.5992,42.7639,-1.3196,54.9356,-3.2058,38.9382,-72.9695,-34.8061,-73.1612,75.9235,-112.8298,20.7468
-3218.7500,-132.2977,-125.9657,63.3427,92.3305,34.2887,63.6441,33.3140,30.4188,-6.3572,49.9067,-30.1310,62.8529,40.5238,45.9523,-29.4076,9.9730,-166.2764,-17.6849,-101.1451,137.3932
-3210.9375,-156.5700,-79.8207,0.3482,70.2547,-29.7330,83.7782,-30.8282,113.6007,-33.9615,132.2164,17.2142,74.8892,51.4141,57.1194,-19.6911,92.9093,-295.2427,29.8658,-160.3241,184.2247
-3203.1250,-125.8156,-14.6258,-78.6193,101.2415,-108.7245,103.3351,-109.9317,180.8417,-113.5148,198.5970,48.6092,69.9458,82.3585,51.3402,-25.9111,123.9033,-335.1627,-8.5171,-164.4658,215.1264
-3195.3125,-31.4364,8.2098,-57.9501,89.8847,-88.0685,78.9364,-125.3793,92.7428,-129.4005,146.6454,69.6471,55.6159,102.9585,36.2038,-41.4740,145.5479,-240.4382,-54.2478,-175.9646,309.7031
-3187.5000,-10.5872,134.5276,-71.8036,216.0318,-174.9282,97.2835,-176.3343,43.1513,-143.7776,132.2207,93.1875,152.7594,52.0662,22.5694,-55.5238,94.7096,-219.2170,-32.4678,-189.9720,295.8024
-3179.6875,45.0514,188.6545,-51.8706,201.9939,-155.0026,67.3310,-119.4958,26.3673,-51.3497,78.6114,39.5308,173.6730,35.9784,-31.2629,-72.7676,4.6848,-199.2095,-81.8887,-205.1984,315.7166
-3171.8750,50.9840,124.0801,-80.6479,207.2595,-183.7881,78.1390,-112.3606,-39.1189,-43.6135,49.3079,48.1759,145.8517,7.1982,14.2055,-27.7024,48.9678,-156.9044,30.9884,-199.1360,286.9638
-3164.0625,103.0541,139.6516,-58.2959,294.6891,-162.4457,107.9452,-127.0896,19.5468,-95.7223,33.1718,33.9731,131.1577,-45.4355,-1.1675,-79.4852,107.4166,-140.4474,13.0316,-251.9381,198.3825
-3156.2500,42.7123,79.8194,-11.3563,270.7364,-114.5170,114.3438,-116.2286,-6.1903,-85.2336,6.6448,8.3648,70.0493,-70.4687,10.0679,-105.6662,82.4844,-23.3879,24.6753,-171.1544,209.4184
-3148.4375,-20.2041,17.4318,-34.9737,278.2484,-138.1467,133.5312,-103.9263,7.5202,-36.2926,55.5773,-15.7944,10.3660,-132.0500,58.7548,-130.3940,94.0144,54.1294,67.7774,-92.9332,111.9261
-3140.6250,-104.8391,-103.6402,-11.2988,265.0769,-114.4896,135.6477,-42.3341,30.5301,59.9533,41.8249,-100.6487,-2.0476,-107.3235,46.7410,-68.8127,81.8464,75.9460,54.1781,-72.4258,62.7456
-3132.8125,-236.8137,-131.0621,-72.9795,273.5589,-139.1901,170.7790,-68.0924,43.1863,71.8557,90.7269,-198.8540,47.1601,-131.9412,96.3738,-58.5744,130.3315,119.4106,169.2174,-64.2760,1.2435
-3125.0000,-286.4387,29.8697,-82.3275,330.3966,-112.5595,163.4947,-40.5168,108.1918,25.1105,154.9977,-244.6997,2.6927,-142.2112,50.3602,-66.9833,48.1801,141.2268,121.6163,-42.7915,-117.8887
-3117.1875,-222.7207,-11.8403,-16.3304,253.5974,-9.5898,95.4498,25.4006,27.5457,127.7137,72.6213,-251.1934,-115.4537,-76.1259,-30.3081,-38.0395,-69.6160,205.3986,80.3630,21.0357,-88.6516
-3109.3750,-111.2180,-76.7581,-77.5323,155.5977,-33.8212,42.5133,1.1155,-33.3085,177.1210,86.0448,-201.8873,-100.8311,-100.2296,19.8240,11.7124,17.3904,247.3822,87.9085,97.6580,-222.5860
-3101.5625,11.5733,-95.3724,17.5565,137.9008,60.2357,-19.8871,132.1208,-85.8671,233.8290,-78.2205,-144.2775,-79.9315,-79.0258,4.2606,31.7768,-72.2971,265.6668,-140.2403,115.5720,-275.2077
-3093.7500,-0.7896,-213.1299,111.4889,56.0625,191.1417,-87.0292,188.9734,-248.5820,254.3983,-277.6301,-49.8191,-132.2059,52.0307,-85.4539,162.6948,-125.1302,323.8020,-150.5499,173.3274,-180.9606
-3085.9375,22.0856,-191.6272,134.6645,-27.5150,215.2846,-118.3669,176.0648,-261.0548,204.2123,-364.7818,-25.1095,-254.2515,149.3502,-97.9132,223.8730,-64.6948,311.1868,-127.6110,196.3159,-193.4463
-3078.1250,21.8630,-156.2041,170.7361,-167.1758,288.3132,-151.4145,212.0434,-260.6298,202.9194,-366.0316,-135.5044,-253.4195,148.5777,-61.4728,222.9638,-101.3584,347.4741,-161.7831,267.1903,-157.0129
-3070.3125,94.5392,-118.8787,141.7073,-198.9245,258.2309,-207.3881,182.9127,-291.3163,173.5307,-286.3810,-16.9969,-246.7144,193.7124,-128.1380,266.9627,-241.1304,385.6786,-123.0563,304.9618,-259.6539
-3062.5000,113.8160,-99.9459,237.2731,-250.0563,354.7361,-288.0540,241.3747,-268.4125,305.7402,-227.1282,5.1187,-334.4265,215.4523,-252.2031,252.5716,-329.2938,369.4833,-278.7299,323.3207,-310.6873
-3054.6875,57.0011,-192.0868,284.7405,-306.2832,365.1402,-280.5431,288.7365,-257.6241,389.8551,-216.9829,17.1376,-321.2643,190.1006,-204.3733,227.0898,-281.5617,349.1918,-299.5235,266.5670,-225.8027
-3046.8750,193.9359,-56.4529,205.9505,-204.7539,249.2872,-230.4283,172.8386,-226.1000,236.7231,-186.0863,48.9113,-253.3680,110.5088,-135.7975,147.3688,-176.0830,274.6523,-301.5715,192.5565,-194.1491
-3039.0625,284.8266,0.1512,186.1055,-181.2558,229.3724,-199.1550,115.8874,-207.6381,179.5469,-205.2401,-44.3540,-235.5429,90.8756,-119.2852,90.6033,-158.6637,261.0670,-349.6798,248.4918,-66.5363
-3031.2500,131.4209,-13.5421,98.9642,-265.0532,179.1619,-203.4815,102.6414,-183.4967,203.0807,-145.7025,-19.9155,-174.0424,114.9554,-132.0789,151.5515,-98.5502,248.1944,-257.1061,306.1274,-79.2066
-3023.4375,136.8211,26.5805,106.6180,-223.0487,186.7430,-191.8131,147.1837,-140.5660,173.4116,-175.3640,-12.6751,-202.7601,122.8466,-124.0647,159.3118,-53.6252,184.1289,-285.7418,205.5546,-108.0739
-3015.6250,135.5339,-9.9747,137.5725,-258.7331,217.6216,-222.6572,141.0202,-218.3489,167.0371,-217.7312,56.8652,-244.1981,191.0432,-164.7490,190.3742,-95.3990,219.3692,-321.0930,240.2683,-2.6255
-3007.8125,161.6568,50.8897,94.9288,-268.0137,174.8907,-239.1364,98.2435,-223.7493,161.0618,-150.7004,87.8132,-213.2557,185.6415,-171.0355,184.8391,-101.7717,210.0199,-259.0486,265.3768,-81.7576
-3000.0000,169.4443,164.4243,141.9300,-189.6371,184.7971,-224.1161,108.1081,-177.5093,133.7399,-105.0213,24.4195,-130.6783,121.8961,-197.6779,120.9568,-201.4931,218.3274,-285.3663,168.1306,-108.2317
-2992.1875,135.9382,235.6707,104.6403,-82.5550,110.4087,-150.2153,-2.3259,-176.5852,23.1235,-105.6507,-11.2795,-19.4255,47.8547,-160.6325,46.7829,-200.5273,291.3518,-142.9946,63.5862,-70.9888
-2984.3750,114.5822,320.0869,85.4952,2.6825,54.1652,-126.7885,-58.6191,-160.5187,2.6557,-51.1222,-30.8293,-1.0463,28.9681,-106.4408,27.7685,-147.4086,270.5327,-163.4759,7.1870,-126.5863
-2976.5625,88.2334,223.5229,93.3520,-57.0791,135.9238,-156.4191,59.0894,-187.4610,84.1975,-80.5909,-21.3808,-66.6914,37.0895,-171.2580,72.7586,-248.2997,280.7197,-152.9800,51.7865,-81.1715
-2968.7500,94.5360,123.6113,63.8584,-86.2005,143.3318,-136.8044,29.4511,-107.7691,91.4077,-73.4101,22.7206,-58.7096,81.8697,-164.4334,80.4080,-204.5425,215.5712,-111.8452,22.0401,-110.0902
-2960.9375,143.0409,65.9178,112.5616,-143.1133,154.9370,-124.0382,42.0133,-131.8925,29.8261,-135.0330,35.0259,-83.5461,56.8558,-78.4123,-17.7361,-119.5784,194.6307,-97.5215,35.4875,-60.8074
