Time,Fp1,Fp2,F3,F4,C3,C4,P3,P4,O1,O2,F7,F8,T7,T8,P7,P8,Fz,Cz,Pz,ref
-4000.0000,36.2798,58.6721,47.9533,-21.2366,41.8502,-23.5699,20.1272,13.9015,56.0866,50.3888,-86.0979,-7.4822,-56.0020,-35.1514,-88.8718,-17.8752,57.9864,-12.1571,27.4825,-47.7821
-3992.1875,25.9569,83.8783,0.7837,-32.5072,-5.4538,-34.8296,-63.4575,3.2766,-27.9179,40.3016,-61.3976,18.5845,-49.5219,63.3557,-27.1963,43.9651,82.9939,-58.2694,52.9887,-59.5297
-3984.3750,21.8438,80.2940,-1.1758,-37.5684,29.4477,-38.8868,7.1573,0.8528,-29.7229,-35.5904,-65.4993,15.8534,-34.5400,23.0504,-31.3265,3.9996,114.2016,-63.1885,118.6864,-100.0808
-3976.5625,33.9319,57.9067,50.0621,-61.4317,43.5419,-62.7427,57.9665,-22.3750,-52.3262,-95.2848,19.5960,-44.6727,16.5659,-1.0529,-19.2596,-56.7612,127.6197,-16.9038,130.5855,-124.4287
-3968.7500,116.1288,140.6237,66.4052,-15.1892,59.7368,-46.4964,-36.1336,-6.5064,-145.8391,-77.8812,107.8010,-28.1009,60.0278,-22.0572,31.9055,-77.4203,69.1408,-40.5260,72.5787,-219.6801
-3960.9375,163.9251,118.9463,77.3549,-38.3465,70.5336,-36.6503,84.3737,4.9594,-60.7451,-103.8826,43.6020,19.0701,38.3520,-122.4649,3.6703,-140.4882,46.2626,-64.5464,84.1637,-173.3260
-3953.1250,138.8668,94.4170,52.4458,-64.3493,45.4746,-62.6539,59.0194,15.5733,-85.5134,-91.7310,90.5575,-6.6016,75.3619,-75.7176,87.5856,-130.3987,57.5389,-54.4106,58.8979,-199.8192
-3945.3125,103.7101,129.7955,50.4342,-30.4449,43.3125,-65.7504,56.5597,50.0914,-13.3839,-19.6778,49.4130,-9.3668,40.2736,-79.0740,46.4008,-96.4106,-48.2931,-56.3772,-11.4739,-166.4146
-3937.5000,24.4915,87.1220,-0.6324,-4.5925,-7.9052,-6.8956,42.0540,72.5577,-28.2936,39.3285,-3.7796,-24.1816,-5.4247,-20.4821,-6.8362,-0.4721,-91.1781,5.6095,-54.8926,-35.0564
-3929.6875,-24.3737,108.7966,-87.3531,15.6127,-57.7777,14.3118,-82.1084,95.3769,-77.8571,25.6848,54.3855,-2.6487,14.3190,37.4632,51.2877,20.8180,-104.7195,25.9426,-33.9651,-50.3547
-3921.8750,-25.5400,72.1683,-57.3754,-22.4799,-27.9524,7.2208,58.4368,51.8943,26.2898,-17.2678,45.2495,-46.4155,30.0717,-43.9005,42.1143,-60.1991,-141.5572,23.9754,-0.3347,52.0473
-3914.0625,-72.2097,-7.9614,-104.8973,-69.0644,-75.6275,-4.3664,10.4839,40.9077,51.9296,45.2723,143.6150,-57.6835,66.5325,-18.7634,103.4420,-34.7135,-151.8934,12.5131,23.7889,39.9480
-3906.2500,-51.9258,-93.1320,-84.4734,-49.6874,-92.3613,-21.9961,30.4708,60.8705,146.5077,102.7543,124.9358,-74.9877,62.7001,-36.6719,121.7169,-52.2755,-165.2784,-38.9979,8.8551,58.7933
-3898.4375,-85.2471,-161.9025,-85.6515,-119.9033,-57.6936,-61.2194,100.8612,-16.7689,217.4839,63.6227,119.6572,-76.8869,83.5378,-76.1809,153.3879,-54.4405,-130.2602,-4.1052,8.3200,128.0399
-3890.6250,-19.2144,-128.3250,-52.4792,-88.7674,-60.6762,-29.0915,-13.4042,-20.0620,104.7910,23.8332,188.7398,-44.4366,93.9114,28.6624,148.4155,13.7480,-167.8868,-41.8567,-99.8648,123.6250
-3882.8125,-87.0754,-56.6512,-92.2009,-17.5232,-100.5570,4.1436,21.4344,14.7468,101.1961,57.1376,73.9204,62.1154,19.3247,25.5982,70.5403,48.0344,-236.4135,-41.5073,-132.9580,229.3121
-3875.0000,-166.9483,-64.9772,-175.9315,-62.2702,-184.4473,-7.6133,-26.7343,3.5543,18.5916,83.4402,61.0999,51.6774,-1.6495,123.5469,94.6631,145.3307,-209.9400,18.8474,-37.0520,253.9984
-3867.1875,-119.0756,-52.5492,-161.9208,-51.2576,-133.5967,5.3848,-13.1597,17.1109,31.7317,60.4913,110.0293,27.9926,32.7370,99.2556,106.5429,85.3842,-232.7198,-40.0498,-25.3965,229.4269
-3859.3750,-129.9068,-97.8205,-137.6148,-62.9419,-146.4513,-8.3117,47.7277,3.9708,56.1780,48.8372,58.2553,51.6112,15.3108,86.2593,91.7222,72.7333,-173.2062,18.3557,-36.4446,252.1597
-3851.5625,-86.2477,-17.5970,-163.8235,-20.1213,-172.8172,38.5033,-52.9013,14.3318,-79.8870,-13.3167,66.9918,96.7353,5.4546,167.7757,100.4112,154.5957,-199.2017,26.2656,-97.9986,224.3913
-3843.7500,-89.9391,14.2694,-169.3836,-24.6431,-178.5385,31.9702,-21.8755,8.3461,-11.2999,-18.8300,59.3834,127.5090,-2.6087,124.9416,92.7547,112.1080,-202.5580,-13.1788,-101.9028,254.2779
-3835.9375,-140.3446,-0.5779,-185.6555,-4.8635,-194.9643,14.7368,-38.5433,28.6571,-27.4095,-35.0438,78.0781,75.5840,27.6779,108.4123,148.4041,131.9255,-181.6167,41.6810,-117.5058,273.4711
-3828.1250,-79.2032,-8.8780,-119.3815,19.4753,-165.8483,43.0610,-119.6664,20.5228,-71.9774,-42.7044,141.3265,66.2104,50.7907,98.4346,137.6063,122.3024,-155.1389,-3.9084,-162.5652,227.2177
-3820.3125,-89.3217,-54.4379,-93.3692,44.5707,-138.9901,32.1397,-94.0366,-26.8603,-44.7878,-126.6072,129.3215,91.5847,56.8161,87.2089,125.5620,75.4317,-94.9207,20.2539,-136.8765,215.7262
-3812.5000,-58.6518,-59.2055,-94.5698,37.4677,-141.3451,28.0218,-132.6167,-29.4472,-82.8034,-90.7071,125.1278,89.7636,57.3963,120.7884,158.3283,109.3699,-99.9025,-19.7798,-72.3876,139.0382
-3804.6875,-41.3291,-40.3353,-73.1185,20.0197,-119.0481,12.5531,-38.5456,-8.3885,48.8368,3.8336,71.6032,0.5969,41.6516,31.0112,141.7513,19.9474,-115.2387,-38.1747,-19.2526,86.0036
-3796.8750,-69.0667,-136.5333,-101.7216,-43.4749,-111.8055,-17.9607,5.4783,-1.3866,93.4227,85.3124,4.0384,-29.6176,18.1435,37.1906,147.1328,100.4851,-107.6313,3.3896,-12.1771,91.9283
-3789.0625,-71.3648,-140.2739,-100.8902,-11.5085,-111.1285,20.9846,-66.0638,37.0745,21.4392,87.2414,40.9264,45.6245,22.7366,111.8354,146.9739,138.4875,-111.5878,-34.5867,-49.6614,-17.6946
-3781.2500,-95.9767,-163.3174,-89.3664,-35.8301,-99.7591,-5.3600,19.0977,12.2377,33.1559,61.8672,50.5143,56.5699,44.0682,49.1767,156.5215,75.1899,-63.8542,-23.8604,-3.4475,-7.6144
-3773.4375,-68.9916,-135.7683,-57.2506,-10.5435,-67.7936,-12.0984,12.8548,5.9947,-45.5431,-16.9184,153.7175,14.1186,91.3160,42.1264,149.6758,69.4998,-2.5237,-68.5277,22.3568,-87.9308
-3765.6250,-16.2082,-82.4289,-1.3373,42.5566,-12.0341,6.9712,-4.5985,-11.4525,-62.4563,3.0785,97.7306,33.4761,67.4207,-13.1176,93.6428,14.6113,16.6052,-51.3945,4.9567,-106.4496
-3757.8125,-3.4810,-69.1579,9.5220,53.6122,-1.3283,16.9975,42.9018,-0.9556,-50.4276,-22.9897,69.6987,43.7874,44.2304,-39.4062,29.5637,-11.3191,28.6815,-74.3004,17.5009,-60.0103
-3750.0000,23.0377,-7.0891,1.1680,80.4826,-9.8319,7.8370,-38.8152,-9.6585,-132.6203,-31.2673,96.4823,71.9011,66.3022,-11.8830,92.2952,-20.4351,20.5529,-83.4013,-26.1624,-69.7756
-3742.1875,-5.7953,35.6268,1.4610,86.0138,-9.6880,44.3348,34.1184,-9.7123,-95.1704,-67.9015,20.9229,71.6660,20.0392,-13.7145,16.6785,15.0967,-42.9313,-76.8474,-89.1805,76.1150
-3734.3750,-76.9365,34.0330,-74.5516,118.2531,-122.8531,76.5385,-153.2497,-14.0697,-209.0306,-70.8490,16.0798,104.1296,-12.7987,166.1623,47.7731,194.3316,-44.7165,-10.5914,-92.5023,107.7054
-3726.5625,-17.1736,60.3307,-85.6685,143.3980,-97.1222,101.6458,-127.7222,-24.5291,-183.0035,-117.9124,4.1551,129.4972,-26.7168,116.9415,-0.2152,146.4671,-52.6091,-19.4360,-101.9268,132.1895
-3718.7500,-48.5171,-6.4871,-46.8896,110.4531,-95.4949,65.6606,-126.2871,-59.0907,-180.0737,-116.0840,4.1338,130.7690,-20.7996,117.6154,-0.3015,147.4993,20.3877,18.6234,-98.4532,169.5831
-3710.9375,17.4256,24.9903,-12.8264,141.8225,-97.5827,99.9834,-275.5676,-98.3425,-255.8601,-191.9439,72.4201,128.3412,5.2437,151.5999,31.9223,181.8402,51.6700,12.9943,-137.6852,129.2791
-3703.1250,48.7112,-13.1874,54.5775,101.5519,6.6749,93.6671,-170.4952,-141.2430,-187.2985,-196.4586,30.0595,122.2630,11.2619,70.9328,-11.5020,64.5271,83.2945,43.7152,-141.5697,159.3383
-3695.3125,-32.8123,10.8163,8.1706,125.4858,33.1222,83.5523,-181.2255,-150.9518,-233.5445,-95.7797,17.9161,112.3827,23.6827,60.4738,13.2895,17.4199,108.1165,137.6379,-153.2549,111.6057
-3687.5000,-1.8908,78.2589,80.2067,190.8784,68.0098,117.8933,-220.5159,-80.2148,-272.3479,-62.6608,-22.7632,72.9583,1.1625,-16.5224,-63.4561,-22.2311,69.3789,203.0089,-192.4978,71.3280
-3679.6875,-94.8298,19.8424,54.3801,201.4281,79.0431,164.3923,-135.6528,-33.3340,-261.0028,-87.4040,-49.2879,46.6958,5.6989,-42.3615,-91.0446,-47.7275,80.7763,284.5343,-146.6000,81.2152
-3671.8750,-8.3820,36.8214,74.9380,183.3895,98.4621,110.3004,-116.4004,-87.0542,-351.2772,-213.7619,41.6053,29.8427,73.8441,-23.7841,-0.2202,-65.8144,132.5666,195.4686,-95.3107,26.5075
-3664.0625,76.8169,17.5380,165.2454,127.1126,189.6279,89.9674,10.5984,-143.0299,-223.8142,-270.3927,94.2624,9.7447,113.0138,-153.4560,-21.6333,-195.1576,149.1031,104.1541,-80.2805,5.5583
-3656.2500,58.5505,-35.2134,145.0928,108.3919,132.3386,70.1877,-46.8500,-162.4627,-243.8156,-253.4830,72.4861,63.1925,72.7357,-65.5671,-43.4811,-69.9396,166.1845,120.3968,-63.7071,21.1665
-3648.4375,121.2818,27.0338,138.9324,135.6832,126.0429,62.4174,-90.3091,-133.8967,-176.8371,-222.5883,137.7247,19.6421,91.3610,-72.6689,-14.3151,-113.7159,123.2511,6.6412,-107.1425,-23.2193
-3640.6250,91.4073,-37.3273,141.1640,70.3832,128.1406,28.0487,-14.3672,-129.9397,-27.4634,-183.3089,139.3748,-15.4989,96.2591,-143.3690,-13.7390,-147.0981,93.7143,11.2877,-100.1827,51.8086
-3632.8125,110.9813,-17.2506,85.8381,53.5419,72.6783,45.1360,-142.9855,-75.5454,-118.6595,-91.5942,155.4949,-34.1876,67.7974,-52.6090,-32.6940,-56.0204,42.6243,30.3901,-116.7849,105.2935
-3625.0000,71.1530,14.4207,43.1041,49.3127,-6.1904,38.8364,-112.0147,-81.5526,-14.2684,-24.2833,111.2271,-3.2708,22.8920,-59.2395,-40.0422,-62.3372,4.1195,-43.9058,-50.7998,135.3850
-3617.1875,47.0563,-43.1720,18.1063,-45.1557,-31.3254,-59.7056,-27.3063,-144.8132,69.8617,-49.2238,83.7157,-28.5961,32.1491,-12.1003,42.3728,-51.8963,50.3556,-33.4438,29.9250,145.2434
-3609.3750,58.3048,-68.4191,-1.5523,-70.2611,-15.1196,-43.8869,-48.2616,-91.7282,14.3225,-32.8205,136.5721,-49.5684,56.2882,40.4004,58.1542,-36.0987,26.9275,-23.6326,75.9881,14.4564
-3601.5625,63.7471,-166.4790,40.9803,-100.1620,27.2792,-1.8630,103.9871,-49.4492,92.9812,-64.2288,67.6405,-153.3391,54.2401,-28.8967,25.1507,-68.1036,-2.3086,52.3803,81.2457,18.8843
-3593.7500,-21.1190,-181.8508,-6.8021,-79.3535,15.3649,22.8636,55.9301,-23.4747,8.3320,-111.9472,54.4269,-129.4069,80.3659,69.5176,122.8603,-5.4059,18.1485,72.0960,102.2026,-66.9787
-3585.9375,-27.4399,-116.6809,24.9548,-15.9857,47.9955,55.1471,125.4213,8.0454,4.2289,-153.1213,11.7740,-96.9217,83.9913,-9.5098,117.1297,-84.1592,48.1412,30.3646,60.7091,-109.2901
-3578.1250,-74.8733,-163.6269,12.5998,6.2911,35.5164,42.3406,148.8179,-4.5277,-7.9787,-91.4019,-1.9806,-72.5339,60.0682,14.3662,66.3043,-60.0106,71.0227,53.5507,83.1112,-122.6887
-3570.3125,-16.0735,-69.3319,-30.5246,29.8298,-7.7261,34.7980,68.4509,25.1560,-50.9560,-24.4349,63.5288,-42.8897,55.7616,7.5040,57.7460,-104.6061,59.1426,75.9928,70.7622,-240.8397
-3562.5000,30.0615,-57.7013,53.6910,5.7252,76.3777,45.6135,190.4453,0.1908,70.4141,-87.1261,37.3962,-68.8952,69.4333,-130.0067,31.5492,-203.8557,70.6029,16.7856,81.7609,-230.6297
-3554.6875,-9.1132,-96.3838,16.5938,37.3362,76.1712,45.1384,116.1293,-38.0758,70.4634,-87.1280,34.9809,-33.1951,54.2908,-20.8025,29.0652,-131.3965,102.7512,48.2844,78.4474,-305.7070
-3546.8750,58.7537,-29.0168,87.5317,69.0175,109.9985,78.7281,75.8389,-41.2884,67.5396,-54.0849,-6.3693,0.5661,16.1742,-24.5356,-48.3619,-171.8769,99.9349,44.8403,4.1691,-309.7277
-3539.0625,-35.9950,-17.2650,61.8583,80.1085,84.2170,126.7290,86.9432,-30.1084,79.0120,31.3573,-106.3080,-25.2692,-27.2132,-49.8597,-75.3779,-160.9546,146.5116,125.8000,15.2838,-299.3338
-3531.2500,-44.1496,-23.9297,18.7728,106.8001,114.0264,156.3285,-30.3622,0.6633,-0.9277,62.3940,-40.6244,-31.5098,21.6433,-57.5677,-9.7719,-167.4265,138.6838,152.3659,7.9977,-343.3413
-3523.4375,5.9943,-9.3066,103.9873,86.8003,163.1386,168.2385,91.6384,48.7350,10.4244,36.7220,-66.6296,-93.4516,34.1919,-156.9865,-35.8473,-229.6120,48.1446,97.2348,-12.9998,-259.0423
-3515.6250,16.1751,1.3575,74.2359,60.8658,95.2919,137.2045,24.6793,18.8520,-93.1974,44.0909,-24.5701,-87.3333,27.1148,-77.3433,-30.8541,-149.7422,58.6434,106.1638,-2.9554,-179.6871
-3507.8125,93.0975,43.7674,79.2194,67.6974,101.1831,105.9316,-7.5425,60.7117,-124.0885,49.1939,-20.7370,-81.4500,25.9192,-108.9370,-27.0912,-145.1163,-5.1227,42.8388,2.8281,-138.5785
-3500.0000,21.3104,42.4607,1.4937,30.8365,22.3686,26.9638,61.5485,92.8699,-17.6735,44.5871,-62.5938,-49.2652,-10.6204,-114.2311,-32.0179,-113.1979,-5.6049,75.8123,36.9069,-70.1527
-3492.1875,34.5625,57.1901,-20.1998,9.0280,37.5935,-30.9537,39.6822,71.0758,-76.2107,-49.9725,-11.3795,-71.0337,34.2089,-25.4686,55.1307,-61.2302,7.9530,53.8369,15.0339,-92.6644
-3484.3750,-12.9848,45.1133,40.3003,-3.5745,62.0118,-43.6672,138.0203,58.4796,21.4501,-99.3425,-61.9518,-46.6057,16.5210,-112.5037,4.4891,-74.0637,-4.3027,77.0588,73.3481,-105.9593
-3476.5625,-44.4444,-21.8794,6.8844,-35.0770,65.5177,-40.2789,141.4533,61.9752,25.1991,-58.6286,-22.4089,-80.0717,29.7546,-72.4226,6.9710,-33.7885,-0.4627,80.3872,76.7587,-103.1394
-3468.7500,-20.7022,-102.6846,-4.3364,-81.3731,54.2226,-51.6895,93.0769,124.6623,51.1283,3.2765,1.3567,-91.3399,29.5432,-11.1336,31.6763,64.6831,-81.4315,-2.0901,65.3650,-115.1127
-3460.9375,-79.6630,-161.2037,-36.2596,-140.3605,22.2250,-47.7968,134.0049,165.6428,166.3592,82.4751,-103.5607,-86.3082,-44.3137,30.4500,-38.3043,179.4453,-175.1142,44.7332,41.2583,36.2308
-3453.1250,-153.8820,-93.9732,-151.4487,-109.5874,-93.0383,-17.1408,-19.3413,196.3693,124.3171,223.4278,-110.7085,-55.5206,-96.8709,134.7996,-44.5222,246.9658,-214.0622,39.3165,71.8835,66.3397
-3445.3125,-154.4057,-95.0434,-153.9538,-110.1043,-58.6135,-18.7759,51.9993,120.7915,231.9596,221.0805,-114.1410,-57.0234,-90.0377,57.8613,-47.0277,171.1901,-179.3261,-30.3980,106.1974,100.1599
-3437.5000,-149.3932,-194.5880,-149.9230,-140.0667,-55.6448,-51.8579,91.8866,49.7534,272.1384,188.2701,-148.0060,-90.9726,-84.9691,60.4832,-7.9610,210.9666,-104.0465,-26.5545,146.0595,139.5475
-3429.6875,-153.1299,-162.8963,-150.6485,-72.7754,-92.4320,-16.6828,-18.9869,49.9631,235.5460,187.6967,-112.5956,-90.6795,-88.5041,97.3654,-10.6215,247.0030,-71.5310,-30.4570,142.1585,65.1910
-3421.8750,-122.2260,-201.5637,-119.7374,-77.8298,-61.5781,-57.8504,85.7868,43.8250,303.6025,181.7649,-119.5289,-96.7363,-87.1523,16.9125,-52.6204,167.6959,-40.3790,-33.7048,172.8952,95.4986
-3414.0625,-120.1375,-234.0385,-112.6420,-110.6752,-55.5355,-51.8091,19.7558,51.8830,163.8437,190.0341,-77.2504,-53.5914,-63.7022,97.6760,-10.4062,248.5968,-3.0391,-32.7502,139.8285,-7.9818
-3406.2500,-123.2561,-200.7271,-77.7575,-42.7144,-56.6990,21.0383,18.5250,86.7422,125.8791,115.1101,-79.1591,19.3562,-38.6001,23.2416,24.6224,173.2876,-40.9177,0.0040,66.5595,-46.6530
-3398.4375,-186.2910,-160.3352,-71.7864,33.3502,-50.7712,-10.0110,60.3959,55.7040,132.0138,84.2942,-110.9617,-11.5924,-22.7445,-8.0897,65.7668,142.0767,0.2868,5.8629,72.3862,-41.2021
-3390.6250,-89.0918,-61.7009,-75.5889,25.6653,-54.6082,-14.8057,56.5086,51.9164,54.3879,6.7310,-78.4952,-52.2857,5.0167,23.8492,135.1823,138.1236,-7.2788,-72.0300,65.4635,-119.4967
-3382.8125,-60.3447,2.4672,-11.8476,-15.4709,9.0998,-24.0518,157.1846,41.6773,44.3114,-39.2891,-126.4656,-62.4334,-2.9761,-22.6591,87.1634,90.7145,-13.3047,-79.3799,58.0901,-56.2233
-3375.0000,-139.7607,-5.5270,-92.2699,-23.7549,-34.3507,-67.4452,76.7048,72.2835,-71.9269,-9.4655,-59.5685,4.2645,-1.2663,80.6934,80.0103,158.1613,13.5130,-51.8758,120.5626,-100.0854
-3367.1875,-27.5831,1.0734,-11.1066,17.5697,9.7899,-23.2331,121.8070,43.4879,-63.5816,-74.0449,-16.0550,12.5687,36.3734,-22.3402,87.4761,55.2133,-15.0839,-115.7724,91.6230,-129.3338
-3359.3750,-43.1618,-14.0890,-29.7001,2.1452,27.1748,-41.7698,139.1602,23.9365,-8.9873,-93.3811,-35.2753,-5.8787,24.8146,-4.1182,67.2106,72.5081,4.5583,-97.4233,74.9249,-75.3110
-3351.5625,-6.7959,57.6830,-67.3609,38.6643,-46.4981,-42.3582,-8.5459,24.3267,-120.4581,-56.7610,-36.5206,30.6192,-14.4673,105.0687,65.9230,219.7588,-64.8633,-96.1242,6.1729,-39.3272
-3343.7500,-3.2309,97.6552,-65.8270,78.3924,-81.9746,-41.7404,-8.0569,24.9127,-45.7279,-18.9337,-72.5521,68.3243,-64.4585,106.4512,-7.1556,183.1961,-60.1056,-126.6284,-25.4006,34.8796
-3335.9375,-38.9345,26.3675,-104.5591,41.8725,-157.7155,-43.3695,-82.8298,-14.7543,-47.2651,15.6484,-2.8151,65.7876,-53.5159,176.5995,26.5332,217.3863,-25.6101,-92.3739,-26.2339,68.8566
-3328.1250,-9.4371,92.2746,-110.1021,36.5512,-126.2576,-48.7985,-88.4136,16.7728,-52.6184,10.4250,-8.8626,60.4484,-40.5814,134.9569,57.4485,211.7765,-100.9263,-97.9250,-31.8724,63.0472
-3320.3125,-58.4994,7.6122,-128.2054,-11.3213,-144.3542,-65.7771,-32.5379,35.7445,39.4823,66.6471,-62.4520,42.5572,-64.4913,116.7701,38.8293,194.6134,-114.8036,-42.0238,23.9382,118.7020
-3312.5000,-19.2757,47.2371,-159.0233,-7.8925,-175.1595,-59.4520,-63.3687,79.0146,45.8751,147.1605,-20.7260,48.9633,-77.9545,122.8924,7.5327,163.7541,-145.3889,-72.8137,-6.9487,87.6628
-3304.6875,-40.6500,61.2620,-146.4469,6.9386,-162.5643,-47.7223,21.2109,127.6881,131.6577,196.0548,-82.5876,97.7676,-110.6374,60.4130,-53.3515,101.2840,-237.5847,-24.2046,-63.4430,136.0344
-3296.8750,-134.9869,74.3219,-212.8302,52.8214,-228.9266,34.0656,-80.1608,172.4072,67.4758,203.9877,-148.3873,106.6238,-158.1130,178.9933,-82.1697,182.8607,-260.7371,127.4644,-122.8871,217.4705
-3289.0625,-154.9241,52.7759,-194.8255,102.1068,-210.8908,87.2593,-136.1437,153.5273,-25.3263,111.3147,-20.7659,50.8793,-77.0096,159.9849,-28.5706,126.8395,-211.5023,71.5336,-37.9408,161.3147
-3281.2500,-47.4665,-119.3813,-80.4227,-35.2106,-59.4505,-54.1471,87.2796,11.0430,88.2687,-66.9617,55.2632,-54.4639,32.8129,17.3779,47.4363,-14.7933,-32.8742,5.0049,104.4021,128.5732
-3273.4375,54.3850,-158.1465,28.3658,-73.1286,12.3859,-55.1508,87.0893,-27.0503,-22.7552,-103.8462,164.7103,-91.3989,107.9205,-20.8129,83.8616,-53.0231,-1.8539,-35.1153,101.1405,54.2408
-3265.6250,85.3284,-55.8143,59.2462,-7.9460,43.3207,-24.0497,43.9953,3.9533,-63.6881,-36.6401,85.2738,-60.2312,30.9359,-25.9011,-68.6002,-58.1553,-39.7355,-4.1364,25.9802,85.0082
-3257.8125,21.0715,-50.6955,25.9221,34.0334,-26.9423,51.8479,-26.2910,43.7459,-134.8261,39.3564,14.6533,15.7308,-34.9973,13.8130,-140.2420,17.5095,-69.8189,71.6379,-3.3860,160.5864
-3250.0000,-49.2829,-49.6874,-44.5071,67.9117,-60.3035,91.6525,-170.6897,83.4382,-132.0818,116.2462,52.9554,54.5861,-29.3139,52.4438,-100.9645,19.0741,-70.0161,71.3099,-3.8628,90.0666
-3242.1875,-15.0425,-120.0902,27.6539,33.3844,48.9322,18.0594,-23.4862,9.7333,-21.7403,42.7404,52.8635,18.0412,23.5225,-56.3213,-64.0766,-126.7662,35.3689,1.5866,31.2606,90.1631
-3234.3750,20.8328,-119.8602,70.4488,34.5060,54.8127,-12.8805,-55.6367,-58.3210,-16.7579,-99.1093,168.4327,-12.8603,91.0801,-52.4271,13.4847,-121.9524,106.3945,2.5154,-2.9645,-15.0804
-3226.5625,156.6026,-54.7338,138.1339,64.5245,85.5867,-17.9186,-60.8848,-63.4724,-21.8739,-176.0578,199.9111,19.1377,92.3917,-94.6291,-29.0360,-163.2436,101.3056,-38.6629,-79.2967,-20.4156
-3218.7500,152.9176,-22.0566,134.3594,96.0863,81.9081,15.5871,-64.5764,-140.0782,-25.4344,-216.4549,195.9487,15.6889,87.5741,-61.2813,-32.9965,-166.9939,168.7604,-6.2980,-152.0817,-24.1809
-3210.9375,170.8330,66.2227,119.1732,150.2460,66.8250,36.6920,-189.6789,-156.0907,-114.4066,-195.2446,180.6007,73.8374,61.6870,-2.3206,-48.3453,-183.1437,186.8065,46.6687,-204.2682,-76.3401
-3203.1250,214.3412,75.0899,199.5791,158.9994,110.3411,80.3994,-73.1771,-184.5022,-33.7789,-224.4308,112.8589,44.5824,39.0003,-106.7551,-116.0791,-249.6974,195.4402,-14.7668,-160.8596,-32.8822
-3195.3125,126.0851,22.1948,144.2194,104.9924,92.0993,26.3516,-91.4246,-202.6664,-51.9047,-205.3630,131.3770,26.5782,53.7750,-13.9308,-60.5399,-157.9971,247.3154,2.0493,-75.1985,-51.1647
-3187.5000,198.3216,24.8020,221.3478,72.4851,170.3529,-6.1905,-13.1755,-199.3258,-47.5422,-201.7953,135.4043,-5.9221,80.4636,-83.5943,-56.4862,-226.7970,249.6742,-101.6338,-37.0462,-83.9382
-3179.6875,180.8506,-27.2993,237.7638,20.2774,185.9015,-64.4272,39.3700,-256.6805,-31.8798,-184.9241,113.7325,46.8812,71.2061,-104.9501,-78.1223,-248.2974,302.3168,-84.0198,15.4012,-31.3917
-3171.8750,225.4740,123.6926,212.2620,100.1631,160.5397,-15.5683,-59.9978,-207.9361,-131.1307,-173.9507,125.1825,57.7824,60.8158,-56.1919,-66.6346,-199.6924,207.0522,-109.3073,-116.0473,-56.7386
-3164.0625,187.5993,262.1779,131.2615,168.5381,116.6869,13.7856,-30.8558,-178.6967,-63.8757,-143.4753,7.1424,161.1770,-13.3507,-62.9400,-109.6312,-207.5976,64.2768,-75.1076,-187.9987,46.4284
-3156.2500,34.9154,214.8527,-29.5529,122.1018,-7.9722,0.3345,-79.5113,-118.2622,-40.4260,-82.7936,-42.6880,184.7689,-37.7557,33.5291,-14.4085,-73.2977,16.6908,17.2938,-129.7531,69.8053
-3148.4375,3.0301,183.3287,-62.5731,54.4651,-40.8296,3.6900,-40.3797,-6.0284,35.8111,-7.3092,-39.7048,78.1582,-43.9442,36.8039,-11.3662,-34.2000,-85.1133,-48.5066,-55.7177,72.9922
-3140.6250,-44.6662,64.9964,-79.4059,-62.9781,-56.4916,-47.7546,16.9556,15.4099,93.2483,87.3792,-92.5188,25.7458,-57.4044,57.2774,9.8887,-12.9072,-97.7226,-27.1041,35.5204,130.3977
-3132.8125,3.5339,43.5523,-64.3502,-49.5357,-78.2536,-69.3066,-40.8121,-6.2543,34.5749,102.9610,-40.4180,40.2285,-48.5104,109.6658,24.0685,37.2928,-119.4404,-83.8019,48.6616,108.7108
-3125.0000,-23.7133,17.6525,-58.7459,-76.5557,-72.4591,-100.3140,37.9732,0.6274,151.4514,109.0884,-34.7503,47.2583,-25.6162,42.6097,66.8176,-28.9589,-146.6183,-110.9631,22.3432,151.5798
-3117.1875,-61.1162,14.5959,-99.3060,-78.7323,-76.8212,-103.4708,70.6025,-40.6425,110.1682,69.0716,-39.2214,44.1413,-24.0469,39.4074,63.4344,3.6398,-113.9570,-43.2668,18.8682,184.3144
-3109.3750,-25.3704,50.6908,-93.7255,-41.7577,-70.0387,-60.4723,2.3729,-34.7590,6.0192,1.2040,2.4737,12.1709,-4.0043,81.3598,69.2199,8.3904,-78.1559,-7.4233,54.5370,80.2040
-3101.5625,-0.4771,-28.0715,-31.9984,-87.6446,-9.1017,-109.3278,101.3059,-45.7277,31.0218,-9.5202,-8.6750,-34.6548,13.6561,32.4611,57.1720,-2.7170,-53.2126,-16.4305,79.3558,105.2581
-3093.7500,25.9087,-3.3349,-39.7835,-62.0410,-52.6650,-114.6852,21.7350,-16.1960,-48.4790,58.2595,58.6810,-41.9836,13.2264,101.0713,51.6431,64.6821,-62.7782,-61.9401,70.6696,25.8214
-3085.9375,63.7904,70.9045,-38.0768,-23.9439,-86.7287,-40.5447,-50.3362,58.8322,-82.4793,169.5509,22.5372,33.1883,-49.9535,65.1786,-57.3707,28.5760,-94.8528,-57.9521,2.4858,63.8897
-3078.1250,7.4665,155.9375,-96.5807,25.9410,-108.9911,10.3913,-71.5981,36.6585,-141.6772,184.6441,-35.8009,48.1624,-99.0319,117.0883,-115.5684,80.2664,-80.1381,-9.1689,-17.8974,78.7721
-3070.3125,-4.8614,142.9659,-71.0965,48.8188,-119.2611,1.3287,-118.8675,-9.5106,-187.8893,138.7415,27.8722,76.1374,-60.0237,144.0142,-52.7512,106.9635,-23.4324,-57.3849,4.7182,-4.3447
-3062.5000,22.3528,66.5396,-8.0711,41.2427,-19.9820,-9.1833,-19.5838,-20.1223,-87.5513,92.3961,-19.9021,28.6622,-41.7187,60.4898,-62.3786,23.2126,-64.1858,-29.0544,-38.1175,59.0996
-3054.6875,-77.1876,72.3582,-73.8046,11.9084,-85.4538,35.5511,-121.0507,24.5160,-116.9706,173.3041,24.5832,36.4287,-47.6862,141.2226,-55.7390,67.7177,-93.6948,47.5223,-32.7011,29.8009
-3046.8750,-50.2226,99.6666,-47.0406,39.0567,-58.4201,62.7802,-131.0159,51.6526,-53.8872,200.7062,14.5806,63.6853,-48.4444,58.4572,-64.5764,20.7159,-137.7068,3.5895,-74.7803,57.0074
-3039.0625,-93.2054,21.0079,-56.2287,31.2378,-67.3305,53.0503,-103.9173,41.8339,-26.7468,155.1561,41.6320,53.9780,-34.0630,48.7434,-73.3485,10.7611,-75.6713,65.7051,-83.8041,84.2767
-3031.2500,-46.1973,69.3502,-42.4300,44.4085,-53.2422,69.3189,-198.8238,21.0179,-84.6103,170.6160,57.6916,33.2686,-31.1936,65.0392,-59.1053,63.8115,-97.6494,78.8224,-105.8265,26.5434
-3023.4375,-39.7954,40.1004,-1.2382,14.9716,-11.7528,73.9848,-83.3214,62.6072,29.9288,212.4842,-47.8543,-35.0366,-58.6692,-4.2647,-89.4561,31.2582,-127.2419,85.3368,-135.4518,68.2213
-3015.6250,-50.5571,-40.3061,-12.2106,4.3730,-22.4158,26.5018,-93.9751,15.0522,56.3090,129.2154,-22.5441,-81.4951,-28.8413,22.2897,-27.9433,57.5633,-32.9875,74.7058,-41.2262,57.7525
-3007.8125,50.0807,-10.3136,56.2089,-35.8315,46.3213,-15.5777,-27.2367,-27.1024,88.0749,50.3577,9.1782,-86.5586,-1.3807,-55.7574,-33.0148,-21.7326,31.6585,-36.5224,-11.6013,52.6852
-3000.0000,2.0617,-55.9784,78.9749,-46.6986,32.4130,-64.3071,32.8561,-75.9023,111.1889,73.8580,-4.7487,-27.2806,-22.8773,-32.4515,-81.7242,-34.6825,90.6511,-13.4042,11.3740,75.9774
-2992.1875,61.2391,37.5527,68.9339,46.6212,22.7054,35.1596,-86.8544,-50.5049,-9.5031,101.5547,22.5326,-0.8071,-39.0246,-5.9310,-128.2139,-8.4247,43.8438,9.9061,-70.4470,29.4671
-2984.3750,51.6763,27.3280,94.1493,36.1757,48.2584,23.8701,-25.3048,-24.8548,16.0626,16.4954,11.0658,-12.0947,-27.6269,-53.1639,-139.4401,-55.9227,33.2776,0.4564,-10.0195,55.2135
-2976.5625,51.3573,-76.6499,55.6045,-32.0324,10.0588,-13.1731,-25.5042,-60.9533,14.8768,-20.3022,46.8530,-48.1370,-1.2124,-17.1401,-66.4044,15.8297,33.9514,1.2604,60.6554,91.2187
-2968.7500,41.7390,-121.9205,46.7489,-8.5505,1.5564,14.4831,-35.0107,2.6569,43.3815,44.6154,75.3474,-21.4807,14.0893,-26.4139,-39.6577,7.2864,-46.6890,-44.2401,51.0270,45.9281
-2960.9375,-57.3361,-149.6523,13.4364,-71.5322,-30.3913,-17.3153,6.0449,42.8180,120.4498,122.0943,5.3947,-16.2839,-12.7383,-21.1396,-34.3544,-24.7146,-74.7824,32.8049,56.9565,123.1952
-2953.1250,-34.2620,-92.2394,-35.7265,-13.3831,-43.1857,6.0301,-42.7505,67.1285,33.6688,109.7251,65.6009,-28.9442,21.2011,2.2926,25.1115,-1.5629,-122.7265,-14.0065,-24.9575,110.6142
-2945.3125,-21.4874,-43.1268,-24.1961,-0.5520,-31.2752,19.0704,-30.8376,43.1438,46.5939,49.0631,77.5095,20.0974,24.9906,-58.5774,2.2834,-62.7148,-108.9771,34.8734,-117.1671,159.7363
-2937.5000,-47.8676,35.8263,-54.8206,79.1130,-97.5160,62.9533,-61.0724,14.0116,-19.6230,20.2597,49.2639,99.9887,-9.9712,-14.5906,-27.6875,-56.0106,-100.3858,78.5999,-144.5239,203.7205
-2929.6875,-28.3942,89.6357,-30.6024,61.6163,-73.9105,12.6879,-73.4613,-35.2628,4.0080,-65.6838,71.8728,123.7231,22.2191,-100.7456,32.1998,-105.4528,-10.9552,26.1704,-55.0343,117.5603
-2921.8750,69.3737,-21.2578,69.9100,-14.5977,63.9966,-68.2860,101.4549,-117.2357,179.9500,-110.3197,100.7840,-30.2477,74.0199,-181.6028,25.3886,-223.5975,17.7740,-14.9597,-26.2354,146.7106
-2914.0625,55.1438,-34.1573,57.4140,-27.8287,14.9062,-43.2677,52.3732,-55.2060,56.8886,-84.9435,88.7015,-42.2310,51.5361,-83.4575,12.5910,-88.7358,2.4988,40.9062,-39.4302,97.8646
-2906.2500,21.1591,2.1907,20.1674,-27.8190,15.0687,-6.9993,51.5480,17.0805,56.0781,-85.3046,50.8679,-5.9649,14.6565,-84.0634,-59.9506,-89.6290,-31.5342,42.0181,-3.3757,134.2682
-2898.4375,-5.5797,-25.2090,27.1632,-19.5755,22.4844,-0.4843,58.9756,-12.3798,27.5148,-151.4148,58.2831,0.5509,31.3901,-77.4166,-53.2402,-119.2688,11.6832,85.3844,3.9286,177.9331
-2890.6250,36.4818,17.1942,35.9528,22.4599,31.7009,45.8286,-3.8080,-2.0393,-72.2576,-213.7305,68.5099,10.8600,42.0673,-65.9618,-41.7113,-109.1075,53.6984,92.5483,-22.9625,115.3911
-2882.8125,49.0492,30.0872,85.2494,0.9781,81.4313,22.6370,44.9218,-62.2006,-59.5221,-237.5466,8.2380,23.6600,41.1381,-90.0172,-28.6743,-169.4553,101.2096,70.2078,23.6452,128.3547
-2875.0000,26.2087,7.5744,30.1388,-58.9203,63.7613,-32.9543,-9.7534,-117.7547,-115.1931,-144.7548,99.5722,5.0555,67.4154,1.5335,25.9754,-79.1917,148.3140,82.4712,35.8526,-0.0829
-2867.1875,89.0685,105.7644,98.7224,3.8732,95.7961,0.1522,-13.7322,-85.6043,-83.1656,-113.2615,58.6096,1.1438,43.0440,-39.2124,-14.6650,-120.2268,70.1129,39.4285,-42.2354,-77.8248
-2859.3750,3.5287,55.5494,46.9075,-10.7489,81.4389,-14.1480,7.9039,-99.8538,-23.5286,-127.1794,7.2495,22.8245,44.3224,-53.3634,44.2996,-97.6649,161.5174,95.9831,-21.7153,-91.9642
-2851.5625,51.0437,68.3762,62.1416,36.6602,97.1372,37.5960,-86.4129,-121.0561,-81.8500,-148.0499,22.9506,1.5521,64.6961,-1.4568,97.3239,-82.0432,137.9785,72.5819,-80.1362,-150.0620
-2843.7500,48.9164,66.5588,96.7313,-1.5892,131.1935,35.6867,-15.3687,-85.9010,26.1840,-112.5672,-89.0043,-0.3745,18.6296,-40.2098,58.6944,-84.0785,100.7880,-0.4762,-47.2065,-151.8083
-2835.9375,-22.3657,101.5958,-14.8324,-36.9982,58.1025,35.6229,-52.4764,-49.8975,-10.9395,-39.2287,-126.1128,36.5511,-14.4126,70.8955,95.9171,25.7436,65.4522,35.3150,-47.4238,-151.7087
-2828.1250,-35.3371,194.9414,-28.0949,-15.1126,45.3148,59.8588,-28.2857,11.4085,13.2299,59.4118,-138.9170,-13.2246,-27.5532,58.2978,83.4458,-24.1343,-18.5893,-13.6055,-60.3452,-164.3092
-2820.3125,-148.6663,115.9272,-74.7144,-128.5896,-1.8202,-24.2601,72.5646,1.3705,150.0569,123.7034,-149.0753,-59.3519,-18.1621,48.3502,146.6258,-34.3545,-26.9864,13.1236,72.3907,-137.2491
-2812.5000,-111.2984,154.6005,-69.6429,-196.3854,4.7414,-54.6859,78.1105,45.0401,82.5779,203.7056,-69.5325,-90.7832,45.1406,55.1162,263.5200,-64.8576,-94.6877,-54.4502,39.8350,-204.4884
-2804.6875,-103.3265,161.8827,-63.9735,-224.5892,10.9065,-84.5155,195.2669,124.3167,125.7076,247.3134,-136.3973,-47.6152,31.7561,-12.5208,271.0157,-94.7595,-156.7976,-81.4388,-23.1200,-161.1242
-2796.8750,-118.6601,217.8645,-83.6122,-203.1104,-45.2352,-30.6552,65.1237,215.2940,-77.4603,227.6282,-156.5606,7.2497,6.4241,78.5485,251.2181,-3.9468,-137.2067,-25.7294,-108.3692,-70.0553
-2789.0625,-45.9845,325.8456,-82.2513,-201.6419,-80.3759,8.2026,-43.0231,254.2719,-221.6218,119.9458,-117.7188,82.1076,18.3548,117.6201,290.4266,33.8690,-135.6226,-59.0299,-176.6165,-67.9858
-2781.2500,22.7882,253.9211,-13.7953,-274.0879,-85.4128,-33.8469,25.9448,250.3493,-226.6660,-31.6311,-48.7806,4.0614,82.5569,76.7890,359.7360,29.7871,-66.9387,-96.2337,-141.7591,1.1869
-2773.4375,92.1605,147.5934,59.2583,-345.9424,-48.8514,-71.3013,25.5066,213.0325,-227.1138,-104.6043,61.7600,-106.3904,168.9302,76.5614,469.6522,102.3216,-67.6564,-166.8385,-178.2983,0.9573
-2765.6250,70.0317,125.7617,67.8127,-333.3019,-2.7846,-97.2572,34.5694,222.2210,-144.0580,-94.0745,33.8024,-96.3484,176.3299,-24.1673,480.0706,112.3568,-89.8722,-153.9487,-235.3349,84.2246
-2757.8125,-6.8481,83.1685,-52.3819,-340.4274,-11.4625,-70.9689,-48.1093,212.6605,-190.7450,-67.2922,60.0923,-70.0704,188.3560,-33.6474,506.7480,175.6503,-61.8398,-55.8105,-243.1149,147.7458
-2750.0000,-30.0293,97.2780,-144.8871,-292.8617,-31.4431,-52.9823,-103.0951,193.8089,-209.7403,-12.8076,79.0874,-52.0912,200.5362,-52.4212,562.1345,156.6561,-14.1094,-76.9705,-194.1963,55.9593
-2742.1875,40.7378,62.3399,-36.4421,-328.3512,79.5304,-126.0483,116.8766,120.9075,-62.7794,-48.3797,79.0250,-88.1576,230.1029,-199.2553,525.4709,-27.3881,20.5762,-183.1865,-124.3221,56.1255
-2734.3750,166.5607,82.4505,-12.9462,-307.7952,102.5586,-176.0663,66.8947,-2.9511,-76.7773,-97.9163,139.0172,-102.1727,226.5502,-175.0377,475.8653,-40.3739,76.3212,-198.3582,-34.3956,6.3369
-2726.5625,222.9419,69.1086,43.1070,-216.6949,123.1438,-119.5379,12.4614,-92.2646,-56.2279,-187.9155,122.5624,-81.6378,185.9029,-192.2701,348.8158,-56.8066,97.6207,-176.9834,22.0849,63.0917
-2718.7500,143.5194,-80.0409,36.3627,-225.4008,115.9347,-125.8102,43.2368,-209.3767,-63.4787,-193.7172,152.3014,-52.9081,199.0151,-161.3037,342.9632,-27.0333,159.1277,-114.4056,190.7726,20.0462
-2710.9375,164.7451,-93.5386,63.2659,-205.4608,144.3760,-136.4306,33.6542,-218.8313,-109.0890,-166.8656,179.6908,-24.5272,208.3641,-134.6783,334.7634,-35.5938,110.2795,-130.1764,247.1117,-99.3629
-2703.1250,101.0243,-51.9868,67.2215,-198.4765,185.8765,-94.9979,149.1339,-141.2272,6.3577,-50.9676,74.1194,-57.1054,140.0366,-166.0126,192.6092,-105.1022,10.4814,-88.8980,217.5039,-57.7233
-2695.3125,-2.6969,-84.4433,-38.8239,-162.5016,79.3825,-53.5698,42.6104,-99.6219,-63.2001,-9.0774,152.5531,-89.6928,129.7192,-88.3446,160.4661,-26.6007,47.6907,-15.6203,255.9063,-90.0929
-2687.5000,63.4354,-124.0467,-6.0162,-96.6779,113.7402,-20.2879,76.9339,-65.1616,7.0875,24.6627,148.8301,-92.4312,89.0563,-127.8245,10.1723,-103.2389,43.7467,-20.4931,251.1581,-129.6218
-2679.6875,4.7662,-183.4523,-30.0069,-50.6602,90.3014,-6.8081,126.4678,-15.4941,94.5802,112.6043,15.2945,-42.9724,-8.2038,-77.1080,-122.9243,-89.6723,55.0020,61.8323,262.6151,-152.9505
-2671.8750,3.3964,-43.5630,-66.6988,-16.3510,90.1595,30.9670,90.2976,22.4737,58.3673,112.8444,-57.9332,-5.2193,-44.7406,-3.0863,-121.7114,-89.7921,-16.4388,60.4531,191.3781,-188.9858
-2664.0625,-36.9656,-82.6817,-36.3835,13.9508,85.0264,61.7379,158.1394,16.4422,125.1648,-2.9208,-64.1605,62.5209,-47.6545,-46.0708,-164.5005,-168.9094,49.1215,21.0628,187.1442,-158.0159
-2656.2500,-62.4826,-107.9603,-62.2199,58.0906,59.7430,36.3495,59.8301,-45.7400,63.8137,-64.8352,21.4615,110.1124,-28.1581,39.8028,-152.4393,-84.1558,58.5354,100.5248,125.7620,-183.1998
-2648.4375,-20.7401,-66.9846,19.1997,98.4790,103.7166,80.2090,30.7691,-37.6695,70.7095,-19.5073,-7.6638,80.9473,-38.1034,10.9263,-181.1285,-113.1471,-5.8014,71.2311,61.6305,-212.1421
-2640.6250,-114.8464,-89.8630,-8.2260,75.0157,113.8418,54.2152,150.8666,-27.4480,117.7623,-9.0351,-71.6418,17.9319,-41.1648,-15.8137,-170.6700,-101.9887,6.0176,118.0881,73.6526,-164.9329
-2632.8125,-87.2477,-132.0455,-15.9504,32.2476,106.6689,46.9224,143.6575,-34.5251,110.5072,-15.8646,-41.9182,-63.3872,-22.5171,14.1487,-140.5095,-109.1224,33.5391,75.6464,136.3821,-172.0294
-2625.0000,-102.7497,-218.3342,40.2248,-19.6271,163.3996,-7.4711,274.3589,-51.6910,204.1571,4.2059,-59.3029,-116.8159,-10.7158,-39.9927,-157.4535,-126.3501,52.9612,60.1039,156.0241,-152.2341
-2617.1875,-104.7552,-220.1322,0.9002,-22.0107,124.6307,-9.3725,272.5638,-16.3492,165.3129,76.7768,-97.1953,-155.7572,-36.9193,-4.6293,-158.8977,-55.0634,15.8887,93.0616,154.1799,-153.9426
-2609.3750,-92.7614,-136.9293,-20.4206,25.6035,103.8652,43.7293,177.7675,72.9998,144.4660,129.3431,-155.0845,-103.7003,-76.4930,-25.2697,-179.3469,-75.7667,-7.1868,70.0188,167.3373,-211.6594
-2601.5625,-121.8707,-201.8467,18.1595,-4.8899,107.0042,8.7277,253.8828,76.2491,257.5370,168.8018,-190.0810,-137.7440,-91.2767,-59.0129,-213.8965,-109.5706,-2.3564,75.8769,208.4087,-135.4800
-2593.7500,-112.0247,-226.8262,-5.3075,-65.4397,83.0991,-14.3255,156.9493,89.4464,234.5620,183.2040,-139.1217,-160.8445,-77.9897,28.1965,-162.4953,-22.4119,43.4312,15.6797,253.4341,-195.3646
-2585.9375,-81.3686,-195.9987,25.0329,-70.1907,113.9967,-20.5836,187.8218,84.4462,265.3956,214.4080,-182.3636,-93.1432,-103.0603,-14.7987,-205.3044,-65.4515,4.0157,11.2743,214.2568,-164.4588
-2578.1250,-74.3649,-153.8227,-7.2750,6.4134,46.2448,-15.4907,83.0442,52.7999,123.5740,182.9615,-140.2629,-51.0920,-104.7580,27.5531,-199.7726,13.8699,45.9496,88.2243,115.4289,-122.1993
-2570.3125,-48.5637,-91.8447,20.2119,67.8196,0.2861,86.4079,-72.9487,117.9585,-33.4602,174.3109,-112.3570,-24.2400,-109.4498,55.7144,-208.4415,79.0072,36.6900,78.9762,36.4078,-131.1511
-2562.5000,-61.2588,-70.3697,2.2034,88.7233,19.8303,67.8028,19.5684,136.6160,23.0106,194.1545,-166.9555,-41.8890,-121.0061,1.3716,-224.6212,24.6508,-12.0638,65.2253,57.8922,-38.6044
-2554.6875,-83.2022,-92.1463,-57.0483,31.3728,-75.8708,45.9421,-39.1682,152.0203,1.2265,172.7357,-78.7987,-63.7907,-90.9843,52.7844,-137.0562,113.0565,0.9435,43.2193,107.1334,-60.3152
-2546.8750,1.0658,-112.7296,-6.0906,10.2208,-24.3648,-12.7218,85.3015,92.6198,125.6436,150.4950,-64.4419,-123.4967,-51.2275,-79.6105,-85.2905,17.6609,15.1643,-83.5895,121.5838,-45.8351
-2539.0625,-31.5094,-180.1743,-5.9708,-58.7870,-23.6993,-86.2401,159.9379,20.3667,273.2144,151.3845,10.0637,-195.0579,-15.9205,-78.8684,-47.3756,18.4167,17.5442,-150.2482,159.1887,-8.2079
-2531.2500,-11.2804,-158.8227,-58.0484,-73.9881,-112.2342,-100.9573,71.3614,5.9166,222.5712,174.0708,68.3735,-136.8191,-29.8338,17.6816,-24.6640,150.9868,-32.2732,-165.1018,144.5952,-22.7974
-2523.4375,-30.6990,-178.1188,-45.7683,-57.8301,-97.4105,-86.3218,122.1428,55.8244,235.2803,151.0935,8.0197,-86.2325,-60.4684,30.5792,-83.6201,163.9149,-85.7358,-149.6059,90.3512,63.9590
-2515.6250,-70.9164,-148.2138,-160.2851,6.5328,-213.3911,-19.4846,-30.8809,87.9313,120.1830,182.3010,2.8664,-19.4412,-104.4943,136.6810,-88.3839,307.0537,-90.9911,-49.9076,50.3131,58.9102
-2507.8125,-59.8753,-32.0583,-115.5494,122.1507,-204.1227,99.6038,-94.6605,133.2905,91.3360,154.7462,-98.0409,-10.3998,-156.7773,145.0325,-153.9062,315.4564,-151.9967,-74.9609,-44.4698,104.1095
-2500.0000,-146.2969,-48.3730,-171.2674,105.3140,-260.3082,80.2411,-113.8828,114.2033,109.0528,135.7381,-153.4043,44.1898,-197.7452,199.9312,-171.8820,333.4207,-62.4439,-55.4607,10.3151,158.8545
-2492.1875,-91.8656,-27.8541,-112.1297,125.3278,-199.6423,66.7290,-164.2585,26.9633,58.6152,122.5702,-93.9109,29.6249,-144.8842,149.6785,-112.0022,320.2441,-8.0280,-106.1135,28.9613,108.4309
-2484.3750,-54.0723,10.0183,-74.6233,91.6902,-161.6119,31.5609,-15.2666,29.0715,133.5323,50.7356,-166.0709,67.4070,-163.8142,76.7640,-146.7812,247.4160,-4.2623,-103.4213,-2.0447,146.3476
-2476.5625,-52.7314,46.4337,-75.5673,92.6057,-162.0327,67.9408,-125.7264,-7.2719,23.9923,14.4380,-129.6804,67.7442,-167.2500,113.4069,-184.0114,321.1518,32.0611,2.8310,-71.5064,182.8085
-2468.7500,12.4704,40.7017,-41.6551,123.3883,-128.6023,101.1791,-165.3475,26.2351,-15.7102,-25.0205,-96.4367,63.9312,-145.6327,110.8943,-186.4021,281.7463,-7.7592,-1.0687,-76.1220,143.1120
-2460.9375,-3.3284,-46.0358,-23.7374,105.1767,-110.1714,46.4177,-110.9611,-28.2582,-34.4067,-43.4869,-78.2022,82.1175,-117.4535,56.3754,-167.8043,263.3445,44.4302,51.0365,-22.7307,161.4115
-2453.1250,-0.6295,27.7270,20.6847,109.4773,-64.2415,55.1589,-138.0805,-56.2495,-135.6142,-70.4666,3.5335,54.8058,-58.2454,65.3641,-121.7157,199.4568,49.1239,90.6450,-53.8344,60.1977
-2445.3125,-6.1794,-12.7599,51.8610,138.5366,3.4369,86.6567,-106.4521,-25.4851,-104.0676,-75.7064,-38.9838,86.2498,-59.6676,-13.9013,-163.8870,121.3249,43.5755,154.9996,-93.1870,54.7240
-2437.5000,-18.8288,-60.3660,38.9367,125.5007,28.0087,74.0525,-82.9233,-0.8201,-80.6140,-88.0614,-51.6052,36.5911,-44.0479,-26.2641,-139.1654,109.1094,65.9381,177.2644,-71.6284,42.1434
-2429.6875,65.8812,-46.6250,92.3718,68.8256,81.9339,17.8024,-66.0497,17.1939,-26.8128,-72.0834,3.1297,-19.7182,0.7501,-82.2760,-86.0989,53.2548,9.6524,85.8728,-21.7216,-14.1037
-2421.8750,27.6455,-49.8386,85.8681,30.2021,75.9098,-26.3998,37.8856,10.2541,77.0413,-77.0675,-41.0896,-62.9765,-9.6048,-124.2434,-90.9902,9.4623,5.4202,117.5302,9.2351,52.6957
-2414.0625,8.8644,-32.6064,32.8184,46.0387,60.3292,-4.1496,-50.7442,-4.2350,-48.6629,-93.6094,18.1457,-41.7830,17.9671,-29.7540,-33.4387,68.1324,22.6420,134.6411,-8.3581,-36.0616
-2406.2500,23.2377,51.7750,46.9225,60.0392,74.8954,47.2529,0.7721,10.4299,-71.2142,-115.0056,-41.4727,-27.4339,-6.4248,-15.1197,-55.7489,82.9569,-32.9864,112.9015,-99.8015,-21.6760
-2398.4375,0.8116,29.3517,23.2339,107.2464,14.6616,59.8533,-60.5046,23.2943,-167.5671,-102.2105,-28.8951,-14.8835,-9.8048,34.7086,-42.8637,132.9890,-20.4113,125.3651,-87.0458,-9.0901
-2390.6250,-38.6630,24.8823,-15.5036,173.4193,-59.6285,95.4071,-97.8421,59.1097,-205.9778,-103.4728,6.6340,57.6199,-5.4016,70.4905,-6.0357,169.9799,-59.8818,50.7831,-55.3436,-83.5639
-2382.8125,-43.1811,-49.6393,14.7187,62.5558,-28.9667,51.9113,42.7757,52.8731,-102.4379,-109.7955,-35.8962,51.0774,-8.5658,28.2110,-12.2758,126.9266,-29.3967,11.1531,10.3099,-53.0850
-2375.0000,-38.5491,-10.0158,-50.9091,32.8537,-57.1628,23.5677,-22.4693,61.7855,-167.7616,-63.9811,8.7311,96.6906,-16.5061,110.0832,-4.3670,209.0341,-59.7512,15.6801,15.1191,-118.4672
-2367.1875,-24.0523,39.4564,0.3282,117.0092,-42.5020,38.0721,-7.8619,113.5430,-116.2375,-12.3340,-49.7877,74.1517,-60.4177,50.7992,-99.6174,186.9904,-115.2492,30.0488,-40.2162,-104.0107
-2359.3750,-88.4502,-24.9861,-67.3217,122.2706,-73.7369,43.6718,-2.1431,82.3926,-73.6027,-43.6030,-81.2052,79.7082,-74.2834,93.6062,-93.7800,193.0543,-39.6354,106.5185,35.5517,-98.4566
-2351.5625,-38.4430,24.9637,-51.5663,101.9453,-56.5749,60.6748,-22.0399,99.6421,-93.5765,-100.4842,-64.2134,59.6642,-46.7606,73.8120,-39.5468,173.5297,-94.6138,86.3961,15.7186,-118.5161
-2343.7500,-105.8787,-42.5347,-50.2463,69.1893,-55.8572,61.2327,89.6142,100.4427,17.0002,-99.8301,-100.6800,60.1751,-51.3683,74.5602,-38.7861,138.5560,-92.0400,52.8302,18.4288,-81.0263
-2335.9375,-163.7164,-64.4330,-109.3246,47.0514,-77.5509,76.3980,-6.1400,78.8391,-77.8359,-47.5885,-48.5489,75.2975,-29.6210,163.9147,12.5622,190.1971,-78.8582,101.8768,31.7379,-102.9423
-2328.1250,-59.2924,3.9181,-1.1331,115.1809,-5.9879,74.8157,-7.6423,77.4837,-79.4244,-86.1184,-50.1671,73.6764,-20.2949,51.5053,-24.8610,116.0862,-80.4156,29.1736,-39.7055,-104.6152
-2320.3125,-34.2647,-41.1433,-14.3300,68.9238,-55.8229,60.8352,-57.5478,27.7177,-56.4089,-100.0632,-64.1816,96.6537,-48.4153,74.6886,-38.6912,139.5762,14.6409,54.0775,-14.5484,-44.6920
-2312.5000,63.6699,-13.3141,51.3769,97.5797,-25.7598,53.7564,-138.5679,-16.1514,-137.4970,-107.1154,38.7042,52.5371,-12.2236,67.7762,-45.6245,132.9781,42.6071,-23.1157,-56.4911,-51.8844
-2304.6875,71.5516,29.4568,129.0457,69.2000,15.2553,21.6331,-60.6256,-49.0697,-59.6232,-138.2367,6.5250,20.3727,-3.3666,35.8064,-41.6341,27.3340,50.5303,-16.3548,-118.4795,25.8770
-2296.8750,46.8767,3.6660,64.1657,79.2889,-13.2885,-7.0374,-161.2513,-75.5405,-160.3181,-92.9187,51.8010,65.6539,1.1002,81.3031,-32.2001,73.1597,95.9145,28.8717,-109.0170,71.0815
-2289.0625,80.0554,72.7271,62.1435,112.2494,-14.9847,28.1553,-200.0305,-41.1571,-162.1671,-57.7584,49.9194,100.7913,-5.6911,42.6459,-33.9391,34.8426,23.1469,-8.0484,-145.6975,69.1280
-2281.2500,-10.6148,51.9307,38.2767,56.3683,-36.5321,5.4974,-149.6464,-63.6296,-37.8688,-7.4659,63.1855,77.0865,-13.9154,20.1361,-56.5380,12.6720,3.5440,7.1867,-95.2198,119.3182
-2273.4375,46.4805,37.8874,26.1731,43.2530,-49.3268,-7.4149,-198.5222,-39.3581,-50.8307,15.5551,125.2112,28.1360,30.5092,44.3701,40.6146,0.2479,-45.2951,-41.8310,-108.9921,70.2369
-2265.6250,60.7901,17.0392,40.2887,21.3529,-34.9168,-29.1253,-110.1867,-60.8904,73.4107,-42.2431,102.4293,5.3922,39.9044,-50.2114,54.9517,-93.9853,4.0788,-61.6483,-58.5692,84.3522
-2257.8125,57.3518,13.4423,73.6610,53.7242,-2.2610,-32.5847,-76.6180,-101.1779,32.8890,-82.8000,98.9005,-34.0881,54.5794,-53.5403,51.5262,-96.9599,35.7143,-31.2093,-97.8989,80.7055
-2250.0000,119.4219,111.3568,67.5430,115.6200,-45.1025,-2.5365,-156.5555,-106.9677,-47.1429,-125.8781,128.8703,69.9405,31.0045,-24.3753,8.5829,-102.4348,63.8569,-39.2647,-140.7320,37.5460
-2242.1875,100.8968,127.6716,83.8380,131.9294,8.4580,13.9151,-103.0883,-127.3605,-30.7816,-219.5778,109.2382,86.3698,27.5936,-43.8212,-47.9706,-159.5150,115.4061,-22.9107,-124.1615,53.7850
-2234.3750,170.3833,126.9863,124.1423,96.2592,49.0127,-18.6300,-137.6354,-160.7484,-173.4383,-253.2912,186.6123,52.7960,79.3453,-40.2546,-7.5342,-155.5850,184.9545,11.4448,-90.5952,-52.9888
-2226.5625,262.3122,112.7497,218.9005,118.0512,108.0138,3.2805,-78.7255,-138.6874,-151.6381,-268.5661,134.4253,38.6754,69.1728,-128.2461,-59.6558,-206.2083,206.9578,-1.7382,-138.5734,-31.3152
-2218.7500,183.3973,139.6507,173.8165,144.0014,62.1688,31.3389,-124.6668,-147.4893,-196.6886,-240.7065,88.3967,102.6965,19.2848,-27.0962,-105.6237,-141.6855,233.1230,24.2363,-112.3933,-40.5018
-2210.9375,177.5432,203.5939,133.7987,173.0218,23.3788,28.4462,-163.5581,-150.2415,-200.6775,-206.8074,49.4272,100.7683,-4.6366,44.0927,-70.5485,-107.1231,228.3433,-16.7494,-82.1653,-116.6550
-2203.1250,178.6922,239.5292,133.7964,139.0513,22.5847,27.5513,-16.4427,-113.9991,-90.6517,-206.9117,-24.5494,99.8435,-35.0515,-29.7269,-108.4928,-180.5572,193.5683,-15.7344,-80.9394,-80.8063
-2195.3125,125.3455,220.9689,41.2953,120.5981,-31.7197,83.1594,-145.8465,-95.2566,-146.1327,-153.5256,29.9839,118.4238,-25.6487,61.9620,-52.9435,-88.4830,140.2881,0.7783,-99.2184,-99.4618
-2187.5000,163.2527,188.6516,79.0526,123.4047,-30.7777,47.0121,-70.9968,-57.2651,-71.3562,-187.9000,30.7724,82.2506,-17.0269,26.8854,-52.1516,-124.1668,72.2667,-66.4577,-61.2383,-61.8645
-2179.6875,72.7612,97.9210,19.4196,67.8221,-17.2341,-12.5394,16.4571,-80.6810,16.0176,-137.6871,8.1600,59.6719,-16.5429,40.4102,-38.7652,-109.2460,87.8515,-52.0804,-10.6554,-11.6704
-2171.8750,89.1810,114.0877,35.6957,84.1565,-37.7974,3.8159,-4.2004,-27.2049,-4.7194,-49.5875,-12.5424,39.0020,-37.7569,19.8433,-59.4888,-56.4214,-0.6588,-70.8018,-30.1784,4.4084
-2164.0625,41.8569,66.5073,-18.7680,72.7604,-53.1125,-12.5746,52.4008,-6.4858,125.7955,80.7348,-101.9985,-14.4036,-79.9806,3.5170,-74.9746,-71.3577,-46.9158,-82.2661,-6.4592,97.7428
-2156.2500,-17.4100,41.9814,-80.1733,12.4310,-116.3856,-37.9094,-9.9646,-31.7222,136.3405,165.0964,-54.3951,-3.7507,-73.2399,14.2362,-27.4174,-23.2422,-2.1146,-71.6686,39.3029,108.1228
-2148.4375,59.7797,-20.0832,-1.1133,-15.4172,-35.2098,-104.7853,33.1137,-61.5154,253.3260,134.8890,61.6632,3.3675,-9.8147,-88.6075,-20.4295,-162.6879,5.1441,-204.6136,46.4997,114.9515
-2140.6250,15.0153,-137.1045,22.0006,-61.1989,-12.9849,-118.6100,92.2359,-112.2690,275.3525,83.7054,83.7767,-10.4484,18.7341,-66.3988,1.6009,-103.0794,-5.5361,-145.4971,0.7463,173.8291
-2132.8125,-29.8347,-6.2141,-59.9696,-35.0566,-95.8603,-91.5290,-25.7511,-11.1329,156.2630,147.3922,38.8037,17.6363,-19.5920,35.7089,29.5246,-1.5782,-84.3086,-84.4801,-43.1111,164.5945
-2125.0000,-103.5289,25.8265,-63.7755,-2.7453,-99.5839,-58.2908,43.4160,22.1450,226.3323,180.2132,-38.0233,13.8698,-38.5817,-42.0480,25.5819,-41.9405,-122.9283,-88.3026,-11.8238,160.5192
-2117.1875,-73.7171,20.3633,-69.0788,-7.9151,-67.8173,-63.5486,38.0642,-20.0776,146.8916,137.5267,29.6499,8.6103,-10.1912,-10.2960,20.1232,-9.7891,-93.0455,-58.6110,-52.0384,154.9419
-2109.3750,-29.7005,-6.9007,-21.1763,35.1295,-54.8535,-50.5993,-23.0917,-44.1013,85.6553,39.0358,41.5228,56.5608,16.2221,1.6487,67.8592,-33.4486,-47.9686,-84.7172,-42.0555,93.5620
-2101.5625,-27.5864,-111.0726,14.8315,1.2807,-18.7968,-51.5554,48.8632,-82.0268,84.5346,-34.3597,4.4989,55.6132,10.5485,1.6891,30.6859,2.9877,-11.7943,-12.7214,-41.9717,129.2867
-2093.7500,-46.6179,-59.3916,-36.3094,54.2990,-34.9013,6.3409,-75.3522,-60.1043,-40.7399,-49.9020,63.3319,41.5211,27.2845,59.5827,52.3527,98.2808,4.2269,3.1331,-60.0454,40.8586
-2085.9375,-0.2010,-13.2705,12.0099,65.7861,13.4420,17.6907,-28.1135,-48.7363,-29.5471,-38.9930,37.6078,15.8822,17.1477,-39.0846,-10.5502,36.0165,15.7036,14.4405,-48.6676,51.8834
-2078.1250,-13.1367,-27.5105,36.9849,51.9332,1.4325,5.6857,-3.2288,-61.7235,-41.7031,-88.4328,98.5374,-33.1079,50.6818,-15.0979,14.1960,24.4017,72.8382,1.4032,-27.6358,2.5491
-2070.3125,89.1362,-30.5496,75.1696,13.2945,39.6242,-29.1160,-2.1401,-59.5118,-76.6574,-161.6747,173.6710,-30.8990,109.8414,-49.9219,89.1301,-10.0250,70.1697,-37.4315,4.5929,-106.5893
-2062.5000,94.1019,-96.8996,115.0622,18.3651,79.5076,-26.2196,111.6545,-56.5987,36.0922,-158.2239,103.5070,-27.9884,83.9231,-157.0544,18.7623,-80.7575,39.2041,-32.5613,44.5246,-67.0215
-2054.6875,27.5227,-56.7945,47.4069,58.9033,11.8387,-19.8696,6.8957,59.7599,-30.7177,30.6643,72.8054,-58.6245,52.7123,-114.7395,23.8449,-37.0481,-26.3182,41.7616,48.9034,-98.0106
-2046.8750,28.3416,-21.2949,44.1615,58.8520,46.5674,13.8762,77.5489,93.5139,39.8787,64.9439,-3.4989,-98.8493,15.7235,-190.0350,-52.6794,-112.9473,-25.4398,7.4914,84.6830,-27.5985
-2039.0625,11.3096,-109.6423,26.0697,6.9770,27.4373,-42.2232,95.3343,38.4145,57.6131,82.3625,51.3529,-152.9155,48.4313,-172.1780,1.9370,-94.6922,27.5939,-9.6210,137.6034,-10.0377
-2031.2500,31.9392,-124.3347,47.6407,-7.2244,12.9464,-56.6621,44.7538,23.9592,78.9836,67.4108,72.8629,-131.3171,49.9903,-113.6668,24.1921,-72.7855,13.2807,-60.0849,123.1695,-24.8339
-2023.4375,3.7783,-116.8278,15.4219,-35.2190,53.6578,-51.9051,122.3896,-9.3121,156.5645,33.6403,3.5784,-53.5188,19.4216,-108.9621,-9.3550,-66.6921,-49.8242,-52.3561,95.9329,52.5758
-2015.6250,-50.6719,-66.6162,-41.0926,-19.5056,-2.9385,-35.4540,65.7087,8.1063,63.8464,-23.4352,58.0011,-0.0110,28.1220,-19.5544,7.7979,-13.8989,-34.2271,-1.9295,76.3911,32.6819
-2007.8125,33.0292,-88.2482,45.5519,-6.6183,46.6087,-22.8425,78.1662,-16.3230,39.2801,-157.3530,70.5667,12.6613,61.9726,-79.0042,20.0787,-109.9629,13.5123,-24.3389,53.9846,44.9471
-2000.0000,-39.9379,-161.5282,43.5352,-43.3583,81.4866,-60.8753,148.9574,-54.4011,0.0535,-159.9174,105.4745,-62.2990,102.6858,-45.0973,54.7023,-38.6699,47.6036,8.6220,51.9308,42.5671
-1992.1875,13.3509,-74.5465,62.7754,-25.8313,100.6140,-42.6575,94.9972,-36.2288,-90.9225,-215.2404,123.6353,-80.0119,117.5767,-26.9496,73.5761,-20.1439,-6.0507,-9.1670,34.1246,24.4256
-1984.3750,31.8452,-54.3720,80.2369,-41.0917,117.9434,-97.2364,149.2498,-90.8649,-36.6949,-271.3730,104.9900,-25.5212,111.0425,-81.6166,53.6370,-111.4329,48.5020,-24.7492,52.5154,78.4909
-1976.5625,90.3439,-67.2020,104.7033,-53.3336,105.2661,-109.8130,99.4835,-177.5103,-122.4912,-321.5114,165.3575,-38.0275,146.0439,-57.2758,114.6966,-49.7186,107.0643,-2.3224,4.9018,65.5510
-1968.7500,142.6013,-16.2783,122.9368,-35.8102,124.3446,-54.6365,44.4722,-158.4142,-140.5376,-265.9159,147.4772,-19.7844,114.9951,-39.1996,59.5058,-31.2734,54.3754,-20.1393,-47.9690,47.3571
-1960.9375,42.5558,-45.6587,88.8826,-28.5762,52.1278,-51.7618,-25.8386,-155.6194,-138.8922,-190.6291,76.3018,20.1610,67.5789,72.5690,61.0102,8.8631,59.3881,20.7641,-77.1514,122.8664
-1953.1250,72.1112,17.5759,84.4294,-0.7169,47.5088,-20.2728,-104.5675,-161.2212,-216.6696,-159.7457,108.7324,14.7213,78.8538,104.9346,93.1073,39.5956,17.9914,-20.7263,-118.7486,80.9723
-1945.3125,88.5712,0.7188,99.8843,-52.9436,62.7831,-40.8778,-15.3956,-181.9358,-128.5394,-180.9699,87.0604,-4.8078,85.5538,47.1893,108.0967,-16.7882,35.4964,-38.3180,-101.4529,132.9936
-1937.5000,83.4846,-4.6778,57.7922,-57.7079,21.4920,-83.0394,-20.7965,-187.2139,-96.9677,-186.7482,118.8545,-9.8700,80.4283,77.9013,102.5359,-21.7201,65.4553,-43.4622,-36.7119,127.4682
-1929.6875,113.9172,23.4375,56.2119,-62.9554,55.7021,-84.6988,12.2999,-190.0008,-26.8919,-153.0295,80.1540,-13.4257,54.3097,76.0985,63.4604,-60.1689,24.9078,-49.1116,27.5180,51.4508
-1921.8750,71.2010,-19.6032,46.4860,-69.3506,45.7560,-57.5173,113.2403,-88.9497,37.0384,-126.4630,-75.6947,-22.1245,-14.0284,29.1430,-19.7632,-69.7763,17.2117,84.0993,54.5985,78.2961
-1914.0625,-11.2546,3.6137,-33.9829,-46.4879,2.0567,7.9156,32.4202,13.3462,-43.7852,-61.6532,-84.2808,7.4248,-20.0454,59.4298,9.2722,-41.1477,5.7579,106.5648,112.9207,-39.6084
-1906.2500,-73.2134,-22.6678,-24.9408,-73.1166,47.8584,16.8502,188.1091,59.1372,38.8951,-53.3491,-148.3694,-20.5236,-25.0361,-5.7871,-19.2021,-105.0290,14.8011,80.5327,157.7355,-30.9967
-1898.4375,-86.1270,-36.8916,-39.8546,-14.6813,32.6943,38.8354,135.8328,80.9761,-50.3947,-68.9897,-126.4040,1.5867,-24.7722,53.0568,-34.6336,-46.8562,1.8967,102.5658,108.5950,-9.3276
-1890.6250,-86.8790,68.0516,-75.6108,89.9155,-40.3258,112.9764,-47.2990,154.9608,-159.5413,-31.4846,-126.2827,75.8499,-78.8504,90.0398,-107.9160,28.4490,-33.8612,137.7474,37.5970,-45.5029
-1882.8125,-152.9339,35.6866,-74.6598,93.2204,-39.6442,150.8119,-46.7210,118.6375,-85.9828,42.7167,-160.4595,77.8159,-103.5958,91.7123,-142.5032,29.4404,4.0850,139.6313,40.2992,-7.9647
-1875.0000,-128.7263,-10.4325,-79.4539,12.7797,-44.7172,71.8930,-88.9088,76.5574,-91.1832,73.1623,-93.3638,-1.9642,-70.6497,159.6407,-75.8358,60.6769,64.2787,164.7645,100.2486,-124.1767
-1867.1875,-63.3047,-15.3465,27.9695,9.5409,62.4066,106.1710,18.1159,110.6679,-58.1680,69.7999,-133.0713,-41.5431,-25.9073,-28.2387,-42.9777,-88.9019,59.6672,160.0912,60.3966,-164.1799
-1859.3750,-106.4948,12.1415,-15.2087,71.7113,55.9238,98.8464,-25.4656,103.1698,-174.7483,62.8385,-139.3740,26.2871,-19.5509,2.2857,-12.7244,-59.0883,51.4621,222.8337,51.9362,-207.7773
-1851.5625,-106.0873,82.2371,-48.7860,142.4998,21.0370,139.1295,-96.4622,69.2696,-245.7328,-8.5193,-63.0729,139.7289,0.7687,41.4050,26.1271,-18.6911,15.8572,152.1830,16.0693,-278.7773
-1843.7500,-117.2350,35.7768,-25.9041,132.7460,44.6007,124.8667,73.0038,91.8062,-76.2518,-23.4299,-114.3213,125.6211,-15.6224,-46.0340,-24.5760,-105.8676,-29.2925,105.9861,40.6509,-219.3212
-1835.9375,-137.7252,14.9623,-85.3611,76.6473,21.8211,66.2564,51.1156,105.9783,11.8701,27.3133,-62.9012,67.1544,19.6996,-68.8290,63.3843,-128.4118,-14.7897,85.4372,89.8790,-205.2220
-1828.1250,-51.6566,65.7020,-34.2527,58.1042,35.5910,43.2027,137.7819,120.7020,99.5571,3.6188,-84.9356,7.2406,-3.5418,-128.0950,2.8820,-151.4272,-34.7516,31.4371,35.6509,-154.5634
-1820.3125,-88.7937,27.2357,-74.3555,-14.6332,-5.8467,1.9481,134.2415,79.2238,95.0486,-74.2625,-89.1699,40.1300,4.6062,-58.5545,72.1872,-81.6518,33.0794,64.2440,68.2103,-122.0869
-1812.5000,7.1176,17.8289,-9.4071,-24.3181,59.7555,-43.2600,88.7384,33.7874,12.5844,-83.0905,-24.3454,-4.9146,62.3149,-66.9676,136.5517,-126.8381,58.9577,-16.8989,92.8189,-167.5563
-1804.6875,56.1797,-4.4126,76.7062,-9.8417,108.5112,-67.3196,173.3981,8.4874,135.2785,-71.7739,-12.3750,-28.8066,79.7608,-202.2478,112.0585,-223.9073,36.9890,-37.8855,35.5721,-118.8616
-1796.8750,55.0944,101.2021,37.6718,25.4904,32.1121,4.4685,-12.1030,7.0271,21.8073,35.3907,22.4594,6.1491,42.7117,-131.6761,72.4229,-153.1406,1.8825,31.9822,-69.8245,-84.3226
-1789.0625,86.1234,200.9165,-4.2447,55.9284,-9.1799,35.3548,-91.4915,1.6608,-19.5631,103.6393,17.4007,74.2028,-0.8475,-100.0175,29.8874,-122.2911,-38.1260,26.9550,-111.1276,-89.6844
-1781.2500,30.9962,75.4788,-26.3107,37.2200,4.3719,13.0911,-78.0343,-58.8476,-43.0842,43.7474,32.1931,88.1103,33.7063,-86.5119,80.1969,-107.6031,12.7154,77.7922,-60.5809,-39.1950
-1773.4375,114.0702,52.2686,25.8237,14.7186,19.1216,28.0356,-136.3848,-43.1515,-138.4170,-14.9380,121.1945,-5.7746,87.1702,-70.8092,132.7019,-18.7304,-10.2545,90.8327,-118.8456,-97.5115
-1765.6250,99.0441,71.9704,8.8645,0.1189,2.7755,47.8786,-116.8254,13.4432,-44.8442,-32.7183,30.0836,-22.7538,27.5742,-14.2151,78.1048,38.0215,-25.3330,110.7754,-169.2151,-77.9165
-1757.8125,26.5627,106.2252,-28.5438,34.0693,-36.0256,83.2764,-118.7305,11.5855,-83.7282,38.0555,-7.4753,-24.1866,-11.0649,56.9386,39.0621,109.3243,-26.8641,109.2722,-136.0369,-79.7651
-1750.0000,34.2854,78.6776,-19.7490,42.2213,-26.6292,92.8697,-72.4324,56.9198,-37.3900,158.0317,-34.8265,-14.4288,-24.4081,-6.7195,11.2264,8.8108,-89.2031,81.9643,-92.6589,-107.4014
-1742.1875,-47.3913,-3.2800,-35.3517,31.9556,-43.6318,77.0500,-15.5196,113.8457,56.5625,287.6221,-124.5781,5.9226,-58.2417,-60.7780,-5.0064,-8.1078,-134.9503,105.2552,-69.6771,-13.4180
-1734.3750,-121.7624,27.0692,-146.6611,-7.0188,-118.3424,75.5316,-53.3202,150.0739,54.8049,360.5218,-89.0199,41.5817,-71.0121,48.4696,30.0671,64.2713,-209.4113,65.8540,-3.4048,-88.1277
-1726.5625,-67.2928,-23.7322,-92.1167,-58.1415,-101.2079,19.8636,110.7307,167.1458,145.9096,340.2801,-108.6104,-13.8984,-67.7497,-7.4429,10.9885,8.4854,-191.0217,-19.6933,50.7080,-33.9695
-1718.7500,-117.0257,-39.7351,-108.7762,-72.4564,-117.2822,2.9955,93.5676,150.0076,128.8149,322.8510,-88.3881,-67.5761,-68.4844,12.4418,-6.2841,65.4922,-134.8323,0.5626,70.6144,-14.0052
-1710.9375,-104.2012,8.8285,-131.8753,-24.2183,-140.8082,15.6806,-41.0484,162.4083,68.2816,334.9802,-75.6115,-17.7100,-78.9274,61.8694,5.9986,115.0332,-158.1012,-22.6371,13.0562,-1.4854
-1703.1250,-91.0351,-14.2534,-84.6272,-44.6362,-131.9872,-11.2944,4.6929,135.1544,151.1082,307.4706,-64.4977,-43.4941,-64.7193,33.6462,14.6275,49.9225,-145.0184,-79.4784,-10.1525,81.4001
-1695.3125,-69.6190,-63.0839,-136.1263,-129.8022,-146.9212,-62.0202,-46.3219,83.1477,99.1737,402.2202,29.8743,-95.0229,-18.7799,92.6737,110.5164,109.0543,-159.6905,-94.0717,9.8893,66.5336
-1687.5000,-7.8547,34.4393,-75.2670,-66.6221,-122.4966,-38.3949,-58.9715,70.4900,196.5993,499.3234,18.5987,-34.2026,-51.2141,-29.9651,24.7557,-13.4928,-238.0119,-136.3150,-137.7201,164.0211
-1679.6875,-113.0460,34.0161,-114.3575,-65.3962,-200.0252,-40.7186,-135.5714,67.8817,120.0694,569.4807,52.3752,36.6667,-61.3799,40.4412,21.0530,20.0088,-237.2937,-65.5012,-173.2843,234.5665
-1671.8750,-34.3829,76.4568,-106.5985,-93.3184,-155.7039,-70.1920,-202.3264,38.1222,54.3835,539.4839,60.0031,7.3881,-29.9966,47.7003,102.2121,27.3508,-229.7334,-128.8386,-166.0003,241.9617
-1664.0625,-56.6635,-16.0556,-93.7773,-115.1986,-143.3312,-94.6176,-79.0153,13.4011,175.7585,515.5347,-1.3163,-15.8413,-47.8927,22.9977,77.4227,3.7230,-217.1217,-116.1291,-118.6738,254.4196
-1656.2500,-121.5901,-46.2047,-121.6032,-108.7286,-171.6085,-85.6936,-107.3590,22.0247,184.4776,449.9391,7.7227,-44.7195,-30.9306,31.6433,120.9913,48.4353,-177.1646,-40.0749,-43.0065,189.2309
-1648.4375,-33.9722,42.1962,-65.8753,-90.7143,-115.3347,-67.2224,21.8520,77.1907,166.7501,283.8951,-9.6901,-62.0495,-22.0247,-60.1653,67.1194,-43.3107,-159.6605,-57.4672,-60.7893,171.6046
-1640.6250,-87.3035,-12.3502,-49.0982,-73.6574,-136.0139,-13.7047,38.1057,57.3985,109.0678,189.9062,-30.0439,-45.3359,-22.2084,-43.9210,47.3102,-63.0118,-107.1030,29.1858,-9.5193,188.0324
-1632.8125,-23.6265,17.1060,-53.3138,-44.6115,-104.6880,18.8023,-40.6281,87.5990,-4.6033,147.9270,38.6116,-49.6247,3.4032,-11.6927,41.5105,-31.7328,-113.5496,23.8231,-51.2461,146.4610
-1625.0000,-8.6993,-4.1817,34.7188,-64.3274,-16.1156,-3.4485,46.8959,66.0489,45.9897,125.2184,-19.4942,-34.6594,-17.2469,-71.2158,-54.0383,-127.2091,-63.7578,38.7166,-36.7347,161.1548
-1617.1875,-3.0853,1.2523,4.4395,-59.3360,-9.8607,3.0133,-56.9014,-0.7887,-57.7247,57.2394,23.0944,45.0147,-8.7396,8.9727,-47.8880,-84.9816,-24.2912,112.3171,-32.5409,130.5613
-1609.3750,-17.5840,57.5936,33.0490,-37.4483,17.2856,30.3727,-66.7960,-10.7249,-67.5227,-24.8249,51.5737,73.5901,-5.0674,-37.9383,-93.8343,-92.8612,68.0659,99.8216,24.5511,11.8848
-1601.5625,40.8622,9.8771,93.6053,-49.6256,78.3776,-19.3237,31.2667,-96.7168,-43.3617,-110.9354,76.0137,24.1095,33.8314,-86.9023,-70.8073,-105.8011,160.3709,52.2725,11.5989,-0.8359
-1593.7500,122.6632,-14.4868,147.5153,-37.4660,130.8263,33.3195,-63.3102,-81.3652,-137.8386,-169.6925,165.8131,-33.0322,79.5974,2.4760,-54.4153,-91.4097,137.0229,28.0651,-48.0022,-95.2055
-1585.9375,131.4193,-40.8979,154.3825,-64.3687,137.2276,40.9061,-19.9189,-38.0697,-94.3609,-126.4960,98.5602,-26.2312,38.7669,-28.2030,-122.0701,-121.0788,74.6186,71.8072,-4.6551,-51.6085
-1578.1250,44.2694,-128.1990,101.3419,-44.1772,120.7168,60.5979,-36.4401,-17.6684,-110.7900,-69.1799,82.4092,-79.3298,53.9087,-7.7739,-64.6210,-64.6426,93.2969,90.6559,48.7865,-67.9027
-1570.3125,48.3633,-88.2477,107.5464,-39.7455,89.4549,66.5403,5.2956,23.9882,-30.9644,-63.5871,51.4977,-73.1788,36.2871,-39.0984,-58.9222,-95.9671,62.2118,24.7537,17.4804,-98.9269
-1562.5000,58.4904,-8.2509,113.7935,-65.2771,95.2394,-0.4695,85.0855,-6.3064,84.9171,-57.9244,21.6346,-29.9851,0.0720,-106.3717,-126.1609,-162.2469,107.1713,-36.0952,27.2309,-18.8920
-1554.6875,114.2655,81.3946,100.6906,-44.1725,81.6741,-13.8357,-1.4705,-56.9447,34.4543,2.4044,44.4234,-43.1453,-29.6329,-47.0017,-176.7410,-139.8860,127.7677,-15.2987,46.6378,-69.1981
-1546.8750,99.5363,32.5329,120.0887,-58.5844,100.6103,5.2932,54.4906,-38.0830,90.5063,21.2428,-9.2846,-60.8161,-42.9636,-65.1409,-193.8111,-157.0327,112.8565,-30.0090,32.5490,-12.9903
-1539.0625,14.9499,-17.1776,68.6279,-107.8584,49.6919,-46.4352,75.5934,-53.0698,112.7054,43.2463,-23.8343,-38.3384,-43.2944,-43.1221,-135.7158,-99.0313,133.0886,-8.5642,87.6046,-27.6287
-1531.2500,-4.7799,67.9691,49.0222,-57.2881,29.6256,7.6892,55.5525,0.7939,55.7620,23.1100,-43.5349,15.9863,-62.7902,10.7341,-155.7679,-83.1985,78.1595,6.7272,32.5005,-47.4069
-1523.4375,-23.7701,49.8672,26.1576,-4.9764,5.3014,57.5640,32.2580,50.4060,106.5739,35.7355,-139.4849,66.0592,-123.4837,23.3449,-216.0619,-68.6167,23.9747,-12.2222,13.1420,39.5765
-1515.6250,-28.2613,45.2720,-50.2094,-9.1715,-71.5240,17.9420,-81.5372,47.5230,29.8899,32.8716,-32.9318,63.6211,-92.1528,94.4552,-144.8450,0.4592,55.2788,-16.6754,79.2779,0.0625
-1507.8125,38.4399,40.8621,54.6254,-48.1878,32.8539,-25.4882,22.8830,3.8338,133.4222,26.2189,-39.1793,20.3763,-66.7871,-23.2423,-151.4207,-78.2779,50.7875,-125.9281,74.6276,30.7592
-1500.0000,-3.1080,-0.8113,12.2178,-87.4741,-10.0130,-67.1747,54.0553,-39.1092,127.7034,57.3255,-44.6639,14.8648,-75.4329,81.8084,-120.2331,-12.2716,45.0556,-95.4367,68.7350,25.2029
-1492.1875,29.5571,66.7215,46.0257,-21.5687,23.3339,2.3372,-60.5621,-42.8591,51.1881,53.6383,-10.9430,11.5450,-47.6667,78.0467,-87.8468,-16.0865,-29.4771,-98.7572,-5.9635,21.8521
-1484.3750,-30.6780,40.3583,14.9356,-10.5697,-7.2153,8.9457,-17.0782,0.4789,93.7709,59.0560,-77.1225,18.3303,-74.9479,10.3824,-118.3518,-45.8120,15.0953,-54.9731,38.4308,101.6089
-1476.5625,-19.9617,-18.0420,-8.2044,-69.6223,5.1879,-50.4937,-40.6447,-23.2353,33.3041,-37.5735,-27.3464,-4.9353,-29.6529,96.6640,-31.9000,39.4040,26.6132,-42.2437,85.7664,78.3174
-1468.7500,47.7459,-21.4399,64.6523,-107.6907,77.5940,-88.9340,-6.1993,-61.9472,68.8498,-112.1916,44.4239,-7.2092,18.5384,94.9381,2.5592,37.6089,23.1278,-151.5111,11.1018,40.0358
-1460.9375,33.1528,-34.1353,10.2067,-86.0708,22.7003,-69.6745,-59.0563,-78.9594,14.0897,-93.0974,63.8934,49.2091,18.5905,76.9175,21.7231,56.5154,9.3396,-60.0784,-36.8587,96.4572
-1453.1250,61.0098,26.6192,4.2136,10.9844,-20.7420,-3.9680,-139.4605,-49.5170,-101.2095,-136.5361,131.8130,43.0707,46.7169,70.3454,52.3464,86.8632,0.9925,-67.2058,-80.3672,53.3326
-1445.3125,74.1093,5.6193,53.4680,-8.7293,28.0661,-27.0195,-17.6013,-73.8248,-52.2411,-234.7050,106.9777,19.1784,70.3554,9.0173,64.2283,25.4557,14.8864,-54.0899,-67.6277,102.4761
-1437.5000,39.2024,40.6269,16.7142,-8.4534,27.8690,-27.0692,-53.7461,-74.1308,-52.2690,-234.8602,70.1432,19.2833,61.4537,44.6927,101.1204,98.0448,14.7726,-53.9762,-102.8889,102.6240
-1429.6875,36.6389,108.9808,16.3094,23.1543,27.0278,-28.7718,-55.5260,-112.0892,-17.9321,-162.6600,-4.3490,54.7312,29.7403,-29.2906,100.3722,59.9726,12.0049,-55.5108,-69.7969,65.1371
-1421.8750,17.1679,88.4256,-5.9974,4.8425,40.2917,-51.3857,30.8082,-135.9547,32.5147,-185.3589,-25.7380,105.2632,32.3067,-52.1716,113.7444,37.0004,-6.6641,-75.9493,-55.5954,115.7526
-1414.0625,13.3490,85.5102,-43.6498,35.1596,-33.7906,-16.3582,-43.1987,-99.1667,-77.3760,-186.3969,9.5283,142.4356,21.7309,56.5908,113.7814,109.6693,-11.6894,-44.7463,-59.7394,42.0230
-1406.2500,-29.5724,77.4947,-52.4068,98.3586,-42.9703,10.5669,-16.2941,-36.4727,-50.3556,-159.5176,-36.3129,169.4969,-18.0046,9.2491,29.7203,136.2322,-19.8250,-51.6418,-66.9832,69.2083
-1398.4375,-40.1503,66.8356,-62.8223,122.8926,-53.8087,-0.1603,-27.0433,-47.4263,-96.9895,-170.2712,-10.8000,121.9049,-0.9594,35.2652,56.0189,198.1511,4.3894,-62.1939,-43.8696,58.7430
-1390.6250,40.6783,5.5740,-14.8326,62.8136,-6.2382,-25.4954,-15.3749,-72.9834,-50.2140,-268.6212,38.1071,59.7036,59.3812,9.6718,140.7254,136.4628,50.0029,-123.3578,0.6462,33.6865
-1382.8125,89.5503,-120.6427,34.2023,5.7655,42.3814,-85.7867,107.3513,-134.4918,35.6113,-330.9120,13.0642,-37.4592,78.6501,-14.8638,153.4912,110.8272,98.6670,-109.4708,49.2196,82.6829
-1375.0000,30.4229,-74.8535,-22.7635,17.7020,22.0040,-71.0803,50.0817,-118.9976,15.4401,-278.1862,30.0174,-22.6297,73.6645,37.6006,169.2663,163.1905,39.3207,-63.5943,60.7971,-11.3182
-1367.1875,-2.3133,34.3280,-21.3326,56.0207,23.0274,-68.9788,124.2289,-81.0995,53.6814,-240.0505,-78.6324,52.5931,12.9992,1.4625,97.4482,127.9467,-28.6268,-60.3229,28.7803,27.0921
-1359.3750,-104.9040,1.6598,-90.7577,58.4762,-9.8012,-28.7312,55.5209,-41.0539,-15.9329,-161.7576,-75.1224,56.9639,6.3182,42.4810,100.7914,204.8549,9.5754,13.0937,30.9201,-5.3469
-1351.5625,-83.4473,23.0471,-102.1334,114.9662,-21.5762,33.5682,-30.1288,-52.9515,-138.4935,-101.3946,-12.5664,45.3804,36.6492,-6.4541,126.1861,192.8093,-4.1856,69.5574,17.1037,-53.7299
-1343.7500,-122.6548,-16.2221,-71.1679,110.7938,8.9942,64.2186,0.5718,-22.4927,-143.7009,-70.6623,-55.6654,2.1380,38.9925,-13.0317,119.9394,149.1212,26.3939,65.3785,12.6381,-22.7577
-1335.9375,-132.3108,-25.9399,-76.6562,102.1559,2.1190,57.4206,-42.1765,-65.4768,-187.3541,-150.3719,-24.2144,-3.5702,63.9081,90.9376,187.2556,215.9839,87.5145,20.7428,37.7243,-102.2334
-1328.1250,-17.2765,-51.9712,42.5550,75.1914,84.9476,29.3087,39.7951,-56.7615,-104.2882,-250.3739,-52.0678,-68.5906,86.5299,25.6036,196.2842,151.5435,60.3377,-40.1999,11.5235,-93.0000
-1320.3125,-54.6947,-54.4550,2.3121,72.7615,43.3265,25.7446,35.3176,-61.4969,-108.6687,-181.8065,-56.3716,-73.0695,72.0739,57.8241,192.8714,146.6581,22.7099,27.4038,-26.1293,-60.2152
-1312.5000,-28.7162,41.4682,-43.5280,98.7222,-1.8875,52.5810,-46.7524,3.1738,-190.6428,-80.8254,-28.2808,-45.1542,57.1252,48.4404,183.8581,174.1654,-56.5200,18.4028,-70.3848,-69.0304
-1304.6875,-74.3400,-38.2080,-54.9687,89.0636,23.3025,41.8110,51.5860,-8.7599,-55.2137,-18.4414,-39.7947,-93.8515,50.3355,0.4575,135.2493,88.0741,-31.3432,8.8018,-10.2344,-43.4371
-1296.8750,-63.7067,-63.6356,-6.1572,28.6451,33.7491,16.2910,26.1776,-34.4453,-43.5364,-43.8059,8.9471,-119.3091,70.1022,47.7238,146.8969,99.2371,13.0847,-16.5621,34.1704,-68.5984
-1289.0625,-41.4793,-41.4738,-18.7419,-19.1962,57.8001,3.3650,87.3816,-10.5306,16.7562,-19.5596,-3.7192,-58.1752,49.1281,-1.4125,97.1451,48.9986,0.1161,-64.3259,56.1890,-81.1551
-1281.2500,-71.3065,-106.3718,-16.3793,-49.1054,23.8033,-31.6157,89.5419,-8.6607,93.0036,19.6523,-75.4384,-19.1063,-0.9696,37.4076,63.3525,88.7179,-29.9054,-59.1498,62.1724,-4.7638
-1273.4375,-21.7341,-21.8826,-38.6148,-34.6393,-35.7833,19.7956,31.1127,42.6151,71.6638,71.2760,-60.7564,-41.6556,-27.1719,88.6231,40.9696,102.8379,-85.5290,-79.5832,6.5638,10.0259
-1265.6250,-60.6670,-26.9037,-46.3541,-74.6876,-43.8689,-25.2911,59.1920,33.3988,172.8274,99.4174,-67.5787,-48.7172,-58.4361,42.3478,-40.9133,56.4648,-54.6629,-48.5160,71.4511,75.3275
-1257.8125,-26.6131,-60.9177,-82.1052,-109.7441,-43.9655,-61.3727,59.2603,33.1939,136.9784,172.5715,-31.4057,-122.7724,-37.4171,42.0810,-4.7893,93.1059,-54.8004,-48.4496,106.3408,75.6284
-1250.0000,-60.9105,-61.2854,-44.2060,-73.1654,-42.4031,-23.8105,98.9912,72.6352,138.7983,249.3809,-65.5832,-83.1863,-52.1856,7.4538,-39.0080,21.3847,-89.2867,-48.7443,71.8877,41.5868
-1242.1875,-87.9571,-17.4120,-75.0539,-101.3528,-36.5870,-18.0055,102.9795,76.3218,106.8739,216.4479,-97.5087,-42.3640,-83.4253,12.0770,-106.9634,25.9159,-47.5195,29.2058,43.6866,119.7934
-1234.3750,-74.6536,30.8092,-93.5534,-53.2070,-56.4178,-0.8545,-25.6756,58.3646,15.3082,124.8793,-6.0867,-61.2025,-28.4584,67.0498,-15.5642,6.8027,-34.4069,43.4962,57.8407,28.3472
-1226.5625,-9.0073,-44.6293,10.2953,-92.7314,48.1044,-7.3618,79.0330,14.7594,83.1084,82.6742,-12.3177,-103.7019,7.4273,-49.6282,-21.8111,-108.9589,-38.9483,38.1308,17.3537,59.2594
-1218.7500,-76.9147,-77.6245,-22.4119,-125.8191,15.0754,33.5801,9.1935,55.6137,13.3625,122.9283,28.9058,-99.7626,26.4725,-9.8533,19.3956,-33.2614,-72.0441,111.2124,-15.6820,26.6215
-1210.9375,-64.8222,-29.6226,-43.1140,-78.9161,31.0525,49.5245,-48.6333,70.4769,-7.3724,102.1791,45.1178,-121.8313,37.1114,5.9125,35.6013,-54.5705,-95.1440,88.2876,-2.7127,-31.0016
-1203.1250,-55.4885,-56.3864,3.4261,-104.7850,76.2804,21.7121,70.7972,43.5899,75.1443,-35.3172,54.5822,-148.6594,57.8948,-59.0667,8.0658,-118.6220,-14.9845,97.6120,41.5212,-21.3659
-1195.3125,-5.0481,-111.0504,23.0711,-160.5674,96.6142,3.9979,17.3322,-11.1924,-15.2403,-88.7058,148.1503,-130.3997,94.2118,-2.9439,27.6283,-62.5726,70.2666,78.0252,91.8593,-111.6282
-1187.5000,71.7353,-35.3712,103.0641,-120.0198,139.3006,9.6250,97.2337,31.3807,27.7362,-82.7365,80.0647,-124.7975,54.9265,-107.4757,-76.4606,-168.1714,75.8717,47.7855,62.5601,-105.5343
-1179.6875,28.4668,27.2527,97.0030,-92.5328,131.9380,3.1991,54.0841,-12.0966,-52.3439,-52.8154,36.9391,-57.2548,15.7316,-41.0528,-119.5915,-137.8164,137.4325,75.4982,54.2139,-148.4902
-1171.8750,130.2039,128.8673,129.9534,-26.0566,128.5875,36.7700,13.9448,-15.5743,-128.4152,-55.8967,70.8153,-24.7257,22.2781,-80.6407,-122.7227,-178.4692,98.9988,1.2016,-20.1256,-151.4463
-1164.0625,55.4404,53.9666,84.4048,-30.0970,119.7428,27.8352,78.3091,12.4451,-63.9843,-64.4831,25.1908,3.2990,-4.0171,-90.7263,-168.3493,-150.6127,59.0759,32.4048,11.0429,-49.9015
-1156.2500,27.3870,-44.2313,18.5607,-94.4397,52.6075,-2.3939,12.3691,55.1692,-130.8632,16.6289,32.2653,10.0189,-1.2750,26.8902,-88.2793,-34.0513,30.8560,39.2997,52.9043,-42.6602
-1148.4375,63.7278,61.9610,18.1158,-58.3894,52.8759,-3.2231,84.8346,91.2924,-57.3302,53.1375,-42.2704,46.1326,-44.8304,-11.0931,-124.8185,-72.0826,-38.9547,-65.4037,19.1761,-6.0126
-1140.6250,8.4161,77.4971,-41.9799,-113.0000,-44.5017,-62.7025,62.6439,68.7611,-43.4472,103.9962,-28.4508,59.5821,-69.7697,39.2816,-110.0057,15.2433,-23.4065,-49.7599,34.8116,44.9795
-1132.8125,92.0044,89.9217,-29.1736,-100.7266,-67.9689,-50.2908,1.3728,44.1243,6.3615,116.7616,21.2689,34.9166,-64.9434,51.5478,-97.2882,-9.5364,-79.9580,-107.2275,11.3630,57.8609
-1125.0000,60.5836,58.3296,-61.3676,-131.4667,-64.4280,-83.8864,115.1188,9.4875,157.1893,156.5426,-12.0171,37.2340,-88.8168,16.8109,-131.5724,-42.3158,-76.5071,-102.6970,15.9284,97.7410
-1117.1875,49.9044,47.4896,-71.8187,-107.4624,-112.1320,-94.7306,30.6129,35.6053,109.7713,182.0932,13.4379,26.3006,-86.7573,42.8294,-105.1118,55.6596,-87.3105,-78.4181,5.2470,87.3625
-1109.3750,33.5170,30.9553,-51.9773,-53.1635,-91.5353,-74.2741,14.4122,56.0313,130.6569,202.9547,34.1800,9.6698,-74.6909,26.1491,-121.3608,1.9316,-67.8106,-94.8372,-11.1237,71.2827
-1101.5625,17.4812,-55.2323,-33.7863,-105.5288,-74.5888,-94.4681,68.5658,35.8105,184.8873,220.1680,15.2737,-82.6211,-51.4490,6.8303,-67.2590,19.5569,-84.9551,-75.9134,7.8685,125.5426
-1093.7500,-3.4472,-6.3211,-126.4822,-91.8058,-130.5366,-76.5680,-24.1671,90.6949,92.2260,238.4813,69.4635,-28.8236,-38.3766,60.6134,-14.0584,73.2801,-105.9991,-26.9053,-48.0316,69.8943
-1085.9375,-27.1239,38.8329,-117.9182,-46.8500,-122.2276,-68.4230,21.3605,61.8355,137.8201,174.0412,4.9002,52.2132,-59.8806,-40.3507,-40.6123,8.2596,-60.7944,-51.6503,-36.6800,115.5040
-1078.1250,18.8913,50.6851,-103.6651,-0.2023,-108.2253,-54.5734,-37.4307,-34.3120,41.1020,40.3074,55.0360,102.9452,-23.0414,-27.5987,8.5389,20.9628,21.1106,-74.6894,-59.6286,92.8117
-1070.3125,87.0431,48.6795,-32.2640,31.5817,-73.0705,-56.5718,-75.0620,-108.2925,3.5387,-70.2692,91.3145,138.8201,12.4232,-29.6986,44.8461,-17.1788,54.1639,-76.5824,-63.4295,55.2725
-1062.5000,39.9390,1.4198,-8.1181,55.0949,-49.1628,-32.8294,-14.9334,-121.5098,-9.2735,-82.0846,41.3440,125.4345,-0.7948,-42.0461,-5.0830,-29.5647,112.9694,-18.7330,-39.4790,79.4749
-1054.6875,11.1433,42.4703,-33.6706,95.8983,-75.9492,14.2106,-114.5040,-75.4110,-108.7818,-35.5980,52.6697,172.3378,-9.3820,41.9036,6.2885,54.3500,48.0730,22.4046,-69.2387,-20.0207
-1046.8750,31.2955,62.4665,-13.2752,115.6392,-18.7835,71.1986,-20.1198,-18.3577,-51.3323,-52.1629,-38.0580,118.1801,-31.1542,-49.1988,-47.3894,0.2193,33.1365,42.4888,-84.0465,0.4436
-1039.0625,13.7047,9.7029,-28.6291,97.6192,2.6331,54.4291,-72.4941,-34.0587,-103.6421,-104.4890,20.4749,65.2681,28.9636,-28.0473,47.1971,21.3495,85.4653,59.8136,-30.5934,-51.8496
-1031.2500,33.0250,64.8374,-6.0709,152.4857,-12.0340,114.5523,-122.9536,-11.8604,-154.0417,-80.9183,-30.1010,88.2517,0.4128,-6.0034,33.6858,43.3749,34.6950,80.0258,-81.2366,-102.2425
-1023.4375,4.6386,70.2706,-0.2153,158.6358,-6.3996,118.9691,-44.1135,29.6384,-112.1460,-39.0501,-136.3769,92.5281,-38.0237,-37.6547,2.4891,11.7117,6.2301,85.5338,-74.5715,-60.3346
-1015.6250,-17.1913,48.2549,-21.8061,136.3221,-65.2076,96.9316,-102.7256,7.6860,-170.7067,-23.6403,-47.0890,70.3419,4.3952,13.2392,90.8544,62.6001,19.3191,63.5785,-61.3499,-81.8779
-1007.8125,40.1295,0.3693,33.7579,122.1461,-9.8605,79.0374,-10.1809,-10.1161,-78.1109,-42.0796,-28.6438,-21.7053,26.8299,-41.7239,73.3675,7.6417,6.5707,-20.2310,-74.9631,10.7290
-1000.0000,-23.9450,-63.9170,3.9197,58.5587,-39.9078,11.7372,-40.0407,-40.3134,-70.9195,2.0938,-21.5985,21.8335,11.1601,38.9180,80.4827,124.2943,13.4207,22.5592,-102.9683,17.9287
-992.1875,47.6837,7.4945,43.7852,93.6588,-0.2473,14.1370,-74.1877,-37.7998,-105.0192,-32.0260,18.1376,-12.9394,32.6771,41.2516,82.2940,89.6405,-21.0249,-11.9634,-137.2596,-16.1728
-984.3750,39.7088,-1.7029,69.0435,120.1470,-12.1864,1.9296,-11.9296,-49.8829,-42.7173,-43.7506,6.2767,11.6845,36.0684,-81.0112,71.5056,4.3924,4.9417,13.9130,-145.1367,46.1245
-976.5625,67.4445,-9.2023,62.0057,112.3305,-19.4215,31.4222,-91.9821,-57.2628,-121.7181,-13.7762,36.1224,4.0087,52.0017,-52.5707,101.4131,-3.1547,-2.3875,42.4803,-116.3079,39.1126
-968.7500,40.3281,-36.5517,35.1201,84.6615,-9.5006,41.0629,-8.8821,26.5123,-76.5659,33.3488,-27.8849,-60.5148,31.4296,-79.9828,74.4644,-30.5490,-29.5640,50.1981,-39.3284,12.2472
-960.9375,-14.5358,-90.6462,14.4798,30.2412,-30.3306,-17.0434,7.4559,79.5436,-23.1715,86.7214,-84.6403,-153.7888,12.6496,-27.1390,90.7642,22.3105,-13.4869,66.1636,47.9063,28.6253
-953.1250,-41.7984,-48.1448,24.4450,37.4145,-20.5513,29.4478,-19.6044,125.1754,-50.1708,95.6862,-38.7915,-144.4648,23.2759,-54.6985,63.6608,31.7640,-75.8001,73.7216,20.7485,1.5992
-945.3125,-92.1111,-203.7061,7.3638,-14.4734,-0.8148,11.8807,74.2966,107.7524,116.7839,79.5951,-91.9863,-125.2021,23.6183,-72.3058,83.5060,-59.8287,-56.1552,93.2283,110.5467,21.5244
-937.5000,-62.6196,-280.4643,5.0799,-55.5640,32.7266,9.1145,70.9907,68.1336,151.5287,76.2996,-21.3772,-166.1415,59.0047,-38.1094,117.1511,-25.6167,-26.7050,51.5306,105.1478,-54.7631
-929.6875,9.8222,-173.2736,45.7497,-53.7039,37.2254,-23.7019,112.6457,72.4681,229.2279,154.9523,-16.8229,-126.1340,25.2899,-70.9721,47.7370,-95.4629,-94.3038,-16.2144,36.7014,-87.0990
-921.8750,-36.8379,-148.1896,30.3178,5.0512,21.6261,-3.6205,96.1979,92.7077,176.8255,212.5013,-70.3636,-105.2388,-9.1599,-87.9303,-4.7766,-75.4038,-139.9925,42.9375,-8.8334,7.4569
-914.0625,-83.5972,-91.2132,-53.2095,27.6931,-62.0611,59.3577,-60.3386,119.8553,56.3397,238.9534,-6.0080,-79.4530,-8.6975,13.0069,22.6050,-11.4525,-117.7798,65.9778,14.5492,-39.0967
-906.2500,-71.3575,-79.2463,-42.7382,4.3238,-51.7386,33.3225,24.1411,93.0008,103.8717,250.4057,-32.6545,-69.6748,-36.0388,-14.0589,-41.0167,-38.5077,-105.5601,43.0158,26.9470,8.3458
-898.4375,-80.4148,-53.5844,-14.5638,-41.3520,-23.7133,-13.0132,-21.6895,47.8491,59.0989,204.5555,32.4057,-79.1992,-16.8593,50.5807,-49.9412,-10.8571,-44.6293,-1.2480,53.0495,-0.5265
-890.6250,2.3320,-77.1226,36.4182,-65.2259,27.1268,-36.5493,29.2853,-12.4994,72.1294,70.5070,46.2578,-102.9256,27.2827,-9.9854,0.9207,-108.4160,38.1059,-24.7126,99.9535,-23.6016
-882.8125,40.2219,-143.5110,110.5461,-131.9514,101.1162,-72.9318,177.3962,-48.6868,110.2979,-38.3898,47.2596,-137.4999,78.4684,-119.3881,38.9226,-179.8154,75.9956,-23.0170,103.0129,14.4668
-875.0000,51.2171,-133.7944,90.7752,-86.5734,81.2102,-56.2094,46.5983,-31.7619,-19.4479,14.8126,100.3552,-122.9708,87.5576,-29.6916,55.0161,-128.1157,51.9909,23.7825,80.1752,-79.3740
-867.1875,45.4122,-68.8822,120.2109,-22.9973,147.5182,-27.2882,113.0086,33.3692,10.0130,-28.7880,-17.3537,-131.2517,30.7785,-37.8059,-62.6974,-136.2312,46.1973,17.7804,38.5459,-50.0184
-859.3750,28.9116,-15.6699,101.9465,-5.1261,92.1292,-9.0714,57.7122,15.7998,-45.2263,-84.0867,1.2456,-76.2417,15.0791,17.3776,-81.1094,-118.0493,64.7151,36.0736,57.2290,-31.3772
-851.5625,77.9671,33.0877,78.2451,8.2855,68.3069,2.6857,-3.0197,27.7819,-32.9024,-107.8393,-23.6026,-64.6920,-17.7421,29.0992,-104.9757,-69.3340,8.7891,14.9036,71.4730,17.8094
-843.7500,-71.2263,-115.4182,-5.7101,-71.5676,21.2379,-7.8224,61.0031,54.5141,105.1754,-44.8396,-69.6883,-74.3963,-31.4210,18.5692,-78.0902,-42.8714,35.6250,41.4837,204.4834,44.7360
-835.9375,-72.2587,-222.7735,-1.5086,-109.2710,24.3291,-4.1809,27.1756,20.4033,71.4022,-40.6883,7.3836,-108.9592,35.3321,21.1826,34.9421,-39.2627,104.6071,4.2093,273.6444,-62.1984
-828.1250,11.0054,-140.8318,123.9874,-166.6784,150.7182,-63.2404,189.6508,-1.3934,123.9350,-99.2361,-14.2487,-131.2232,57.6472,-73.8996,13.2627,-135.3550,46.8890,-52.7621,216.1099,-83.8327
-820.3125,-42.8324,-159.9946,66.3803,-186.1838,130.0075,-84.3988,170.0078,-21.2854,66.3608,-119.8767,2.0286,-78.5935,71.9796,14.9248,66.4818,-82.5425,63.0761,33.1641,127.4850,-67.5764
-812.5000,29.3819,-87.1116,68.8242,-78.6407,132.3512,-8.5135,61.4235,-19.1188,-41.1512,-117.4640,40.3542,-76.9161,72.0297,-19.2061,31.7493,-80.6910,65.3149,0.1270,58.9236,-65.2792
-804.6875,-7.6584,-90.4781,65.0152,-82.3520,128.4458,-12.8842,131.5903,-23.2007,29.0915,-84.2975,-36.5714,-81.4902,37.2828,-60.5880,-8.2385,-122.0890,98.3135,32.8386,92.1189,-32.2332
-796.8750,-62.0447,-39.1855,47.8550,-31.4122,111.1927,5.3985,77.3981,-4.6220,-62.0133,-101.4794,-16.8465,-62.4181,31.9211,31.6843,-25.5838,-65.8389,79.9618,48.1931,108.9646,-86.5446
-789.0625,-81.9289,10.5996,28.1909,-16.9735,91.4391,59.1777,57.7053,49.4645,-8.6070,-84.1587,-36.6276,-9.8448,8.9446,11.4540,-45.4397,-86.0865,95.1151,-6.9580,89.3198,-106.3509
-781.2500,-109.6601,-122.4607,-37.3259,-45.3882,24.8327,29.1011,65.1557,56.7027,72.9464,-113.6874,-66.2515,-39.1262,-15.0218,55.3802,-38.1467,-6.1808,137.4242,71.0331,166.8351,-99.0122
-773.4375,-51.4377,-99.5655,-8.8907,-21.8517,54.1782,57.9734,20.5499,48.8934,65.4477,-158.2649,-0.9213,-48.4537,15.1021,83.2556,-9.9121,22.6710,90.6860,-11.0292,120.3041,-180.7280
-765.6250,-44.8220,-93.2711,32.9394,-86.9092,58.9224,25.2492,135.3384,16.4873,107.3437,-153.4438,-33.1940,-44.3766,7.9810,51.5347,-5.2889,63.9228,62.3588,-40.6826,92.1739,-139.0435
-757.8125,-33.8497,-82.6255,7.1207,-76.6125,-3.9784,35.8770,-0.5379,27.4370,44.5796,-105.2717,14.8909,-33.9460,0.8367,135.1658,5.6792,111.5231,38.3868,-29.9902,68.3964,-128.0220
-750.0000,-26.5233,-40.6306,-22.3422,-34.9671,-33.5233,42.8499,-30.0589,71.7434,89.1794,-24.7472,-14.6774,9.8313,-34.6148,106.1346,-24.0146,81.4608,-25.2323,-57.9503,40.9767,-120.6468
-742.1875,-55.6960,-35.1432,-19.3064,-64.8225,-30.5655,8.3149,45.9105,73.5536,91.2821,15.2803,-48.7363,12.1064,-26.3276,70.5994,15.7882,82.8902,-54.3411,-52.4085,11.0726,-44.7790
-734.3750,-75.3142,49.8980,-75.7180,-15.1321,-87.0473,24.3261,-46.5681,90.9176,34.9455,68.8574,-31.2434,27.9295,-38.7173,124.6064,32.1338,99.8572,-73.8968,-37.3184,-43.2772,-64.3683
-726.5625,-48.1261,77.7415,-51.3258,12.3526,-62.7174,12.1312,14.7527,79.0832,60.4133,94.2359,-115.9510,52.5446,-86.8031,38.4072,-53.7302,87.6132,-81.6443,-45.4207,-50.8245,33.8443
-718.7500,-82.2355,78.2947,-121.2371,12.5503,-132.6869,14.6386,-93.2461,80.9549,-47.4293,96.3166,-40.9509,90.8602,-56.2005,76.9098,23.1006,126.0660,-45.6910,-8.8191,-13.6730,-0.2521
-710.9375,22.5566,112.7458,-47.2418,-24.3474,-58.7498,-21.9535,-55.3428,44.7310,-46.3644,60.2941,-3.0521,54.0711,-27.1416,40.3011,23.8248,52.4023,-45.8306,-116.3182,20.3837,-36.4474
-703.1250,36.2991,20.1438,1.6974,-82.3024,-9.8606,-84.5996,67.5040,-16.5426,76.6457,36.2182,8.8062,-7.7653,-13.6768,-21.3541,-1.4970,64.6827,2.9892,-136.8686,34.4021,12.2998
-695.3125,46.7003,-4.7989,-20.7070,-71.6060,-32.3147,-70.5986,-66.0049,-2.1575,17.3021,49.7980,96.3211,-30.9521,21.8541,-7.3667,48.8245,114.6040,13.4544,-92.7770,10.0680,-47.3093
-687.5000,75.4980,58.6556,43.2860,-8.5053,31.6329,-44.2018,-39.1169,24.6315,44.3615,40.7863,13.2377,-4.7362,-26.4063,-54.9802,-71.4656,67.9186,-28.6713,-64.2827,-66.8582,16.4779
-679.6875,18.5044,106.3200,-17.5223,38.8011,-66.2163,5.3927,-99.0460,0.6260,-53.3898,53.9772,-10.6385,81.6803,-70.8491,31.6032,-94.5619,153.4276,-15.5942,19.4156,-88.5792,29.4555
-671.8750,79.6685,168.1395,47.8245,64.2621,-37.9100,-3.8667,-143.8204,-8.2214,-133.9801,-28.6844,17.6332,145.2459,-70.4824,22.3241,-139.5195,144.0717,46.6343,-60.7405,-97.1460,20.5797
-664.0625,71.1731,88.3048,76.5085,55.0686,27.7418,-12.7782,-80.2503,-90.7131,-70.2192,-109.9886,46.2587,99.1627,-21.2737,-60.5963,-112.1290,62.0638,143.2158,-34.5382,-35.3499,12.0486
-656.2500,108.7766,19.5780,83.2925,20.9827,34.5021,-42.5905,-146.5806,-120.0938,-99.3597,-103.1877,126.9891,69.1780,29.0055,-17.4226,-31.6431,68.1433,180.8897,2.7624,-32.4511,-91.3944
-648.4375,119.6712,66.1517,131.3680,67.1967,82.5622,3.8958,-98.6085,-72.1642,-51.1905,-129.0824,64.0124,79.4993,-8.5451,-79.9515,-131.8625,41.5132,121.8633,-21.6278,-56.2425,-80.5419
-640.6250,62.8166,-26.0257,69.6837,79.6667,21.8708,16.6332,-123.4006,-59.9756,-112.7783,-116.7196,40.2928,54.0751,-22.3977,5.7694,-119.8382,127.1334,136.0883,62.2323,-41.7724,-31.4529
-632.8125,28.5160,9.3534,35.5546,115.6889,-12.2647,91.9213,-157.6384,15.7715,-146.8043,-39.8073,6.1222,56.1976,-56.4161,44.0318,-154.2709,166.2877,65.8606,62.6390,-5.7481,-65.8236
-625.0000,-36.8867,13.6291,2.3238,83.6111,-9.4973,57.1035,-6.9785,19.4205,-69.9290,0.0061,-65.1444,95.2180,-88.2450,46.1947,-186.8094,131.3347,35.5425,66.9510,-0.8151,-26.2991
-617.1875,-10.6787,39.5110,-6.3067,110.1426,-18.1251,47.8858,-89.7305,10.6776,-151.4653,-8.5807,-36.8087,85.8425,-63.8100,73.9561,-123.7514,158.9725,61.8281,57.8630,-44.2825,-35.1847
-609.3750,37.3743,52.2485,6.9117,122.5291,-4.8991,60.5173,-76.6339,23.7880,-138.1488,-69.3144,-60.6255,135.3241,-58.7434,13.5612,-110.8595,60.4498,109.9701,35.6318,-66.8935,-22.2199
-601.5625,14.5768,64.1425,17.2761,133.0716,5.4777,34.2989,-66.4032,-39.9436,-126.6937,-58.8863,-50.2860,181.9598,-61.2473,-13.6778,-135.8248,34.0748,122.2580,47.5544,-54.3549,24.8887
-593.7500,8.6805,128.9412,-21.4656,162.5146,3.7533,67.9786,-142.2827,-41.7652,-166.3325,-60.5480,21.9576,215.5016,-46.6680,-16.0206,-139.8954,30.5877,117.4434,41.3758,-58.9074,-51.1070
-585.9375,33.6284,82.5842,38.6404,151.8051,26.8855,54.5031,-45.3104,-18.7304,-106.1110,-74.3490,-28.9480,164.8844,-32.6142,-104.5207,-116.1172,-57.0616,106.4766,31.0501,-34.6007,8.7474
-578.1250,70.3290,48.9802,40.4918,116.8481,28.7641,18.7738,-80.6006,-16.9376,-177.1395,-108.3837,9.9024,92.0178,-11.1070,7.7272,-78.5887,18.0323,73.2549,32.4749,-67.5411,10.3455
-570.3125,21.8729,105.2311,25.1859,102.7492,13.4905,76.8959,-95.0439,4.7145,-192.3012,-122.5583,-42.4015,113.0070,-27.5070,65.8203,-57.2202,38.9626,24.8763,53.7485,-114.6305,31.8004
-562.5000,-26.0422,93.0386,-26.5832,90.2026,34.7626,60.5637,-36.9504,-47.0800,-170.9134,-101.1745,-93.1460,97.5502,-16.2047,12.4684,0.6982,22.4350,12.0457,76.5760,-56.1602,89.7985
-554.6875,-43.0485,40.7483,-40.4509,72.5577,21.9413,10.1266,-50.9589,-23.9676,-110.6191,-41.8864,-33.9819,46.9891,15.7392,36.0014,61.5157,8.7870,31.1123,-10.6965,32.2117,2.6932
-546.8750,-5.2540,8.2565,34.4821,4.7145,59.9257,-26.5121,60.8297,-23.0491,74.4774,33.2056,-69.0100,10.2309,-15.3387,-37.6773,-11.8760,-28.0781,-2.0208,-113.1619,35.3849,40.3916
-539.0625,-14.8094,33.4163,-13.9387,-6.4702,-25.4382,-38.5024,-24.7542,2.5216,63.2143,58.9555,-43.3768,35.1256,-32.9232,61.2974,13.3806,33.7009,-46.5006,-123.9745,-9.7877,65.7320
-531.2500,25.0407,72.9836,-45.9538,-37.2482,-57.3952,-71.1004,-56.9314,42.4963,29.3592,25.1079,-3.3458,0.4212,-13.5995,26.6580,53.0259,35.8563,-40.5757,-154.3858,30.4460,105.4703
-523.4375,-6.0633,4.6098,-44.9272,-104.9715,-19.3011,-144.6463,52.9264,7.5232,104.5483,27.3226,-38.2615,-71.2266,1.8481,27.0681,90.7158,36.0516,-38.5948,-116.7369,68.7299,143.2506
-515.6250,9.3917,-14.1989,-60.3487,-89.1340,-71.6575,-122.6375,-35.6820,-7.8914,16.2808,12.0908,56.3788,-87.3190,35.2632,122.0224,148.9491,94.7813,-22.0669,-99.5363,15.5628,54.5719
-507.8125,87.2944,27.4462,17.6734,-47.8432,-29.5608,-81.1823,6.1549,-38.8554,21.4679,-128.6911,61.4746,-9.9562,46.9460,53.4245,117.6293,-12.0586,-15.0815,-128.8805,-82.1481,96.3378
-500.0000,102.6514,43.5518,35.1463,-33.0961,-49.0117,-65.2769,-85.5712,-94.3654,-106.9060,-185.0269,116.0330,43.8651,71.1375,33.2739,134.7560,-32.4611,71.3567,-43.7701,-101.4073,76.5406
-492.1875,152.1635,163.8155,90.7705,86.8124,-31.3055,-11.2206,-141.1476,-113.7164,-199.1281,-203.2115,133.7396,134.8383,64.1412,-22.7323,79.0228,-88.7327,85.9378,-64.5072,-156.5172,20.8891
-484.3750,86.6164,133.0412,60.3312,55.6790,12.3427,-42.2089,-62.7855,-144.1082,-119.4095,-233.4324,103.3872,140.7638,69.6842,-53.7821,84.2338,-120.0541,125.4655,-24.2769,-81.6738,-9.8161
-476.5625,151.6228,161.8347,94.4340,50.1056,46.5389,-44.6475,-64.8866,-183.9384,-195.1400,-309.0872,138.5859,64.2440,102.1198,-20.2890,118.9878,-85.8461,155.5417,-30.4992,-86.2716,-85.9804
-468.7500,160.8825,170.8699,140.7899,93.7845,92.9941,37.1594,-55.7322,-174.5231,-149.6048,-336.4878,111.0425,72.9744,88.1494,-47.5611,53.9843,-151.4132,129.8731,-21.4742,-147.6110,-76.8965
-460.9375,147.9983,122.7574,88.9904,80.3153,41.2997,21.8113,-107.7421,-152.2549,-199.2237,-314.0306,96.3604,94.5584,48.9777,10.0205,2.8266,-56.1404,152.0553,70.4052,-90.1000,-54.9646
-453.1250,176.7590,151.3012,86.8356,73.5020,76.2518,56.1123,-110.1085,-117.3261,-203.1811,-315.9075,167.3242,91.7964,92.7641,-29.7557,36.3150,-133.2354,110.8806,-6.0646,-59.9311,-131.3847
-445.3125,161.0633,135.4037,104.2196,21.2396,93.7525,-1.0395,17.0746,-99.8385,-37.5788,-224.2124,111.8397,71.5826,59.1892,-85.9876,-19.6559,-190.7923,59.2474,-21.9774,-40.2098,-77.2507
-437.5000,169.6653,178.8228,37.8937,29.2862,27.5492,6.1075,-86.4568,-56.0408,-30.6733,-108.1979,118.6621,77.6726,3.6513,-42.9240,-87.3270,-111.0675,-2.0934,-13.5936,-67.1850,-33.8228
-429.6875,136.7671,146.7421,39.0669,66.8328,28.8472,6.7472,-85.4822,-54.7393,81.7484,4.3300,46.9812,78.2674,-35.8463,-79.3708,-122.5046,-146.8670,1.0600,-46.7071,-63.6550,4.1122
-421.8750,38.2618,83.0623,5.6285,2.7839,32.5397,-27.2155,-8.1196,-50.0328,159.5721,82.2687,-22.2942,8.2685,-59.1153,-2.4116,-118.2795,-70.2742,-27.3920,-39.4172,-54.7230,81.4439
-414.0625,6.7055,86.3398,-62.8690,5.6921,-36.8171,12.7721,-113.8165,-10.3689,89.3501,160.1749,-18.6231,-25.7717,-84.9786,111.4907,-115.1111,42.2554,-93.9044,-1.1713,-50.8400,84.7287
-406.2500,-41.3140,3.1734,-81.8271,-42.8400,-54.6285,-4.6877,15.0295,45.8508,181.6849,141.6511,-36.4071,-43.2588,-71.0599,18.9423,-97.4043,-12.6756,-106.8711,-14.3668,5.5927,176.5730
-398.4375,-64.9864,-20.6302,-105.4461,-67.0170,-41.0947,-28.7989,27.2068,22.4263,121.3611,118.4893,50.1690,-67.3926,-3.8498,30.7507,-10.3437,-37.2635,-130.4893,-2.2081,18.3744,152.7611
-390.6250,-56.8044,-47.5823,-58.2148,-94.3426,-30.7047,-56.0617,36.2385,-4.1544,131.8977,55.1705,59.6010,-21.6697,19.2687,3.4001,34.5627,-29.0205,-122.2556,4.7975,26.0086,125.8007
-382.8125,-73.7254,-65.6324,-40.0902,-40.7624,23.5807,-38.4289,18.1561,-21.8324,113.3302,37.7612,41.9435,-4.0392,13.5736,-15.0470,-19.6264,-47.8837,-69.1273,57.7115,-25.4579,143.7312
-375.0000,-83.8475,-4.8674,-46.1708,53.6290,-18.3330,29.0089,-97.1348,-27.6984,-38.4356,33.1634,74.0825,64.4004,8.8679,53.2996,-26.0247,-17.9632,-44.2101,83.4322,-35.1270,28.4584
-367.1875,-0.9249,42.9547,40.7890,31.0775,68.8036,4.4975,62.6232,-51.5069,48.8499,-27.3692,50.2715,-34.1088,25.7565,-45.3143,-50.3785,-116.0091,-31.2469,26.2130,-56.7416,41.2359
-359.3750,-30.1026,13.6816,-25.3552,-33.5654,39.8346,-25.1153,33.2666,-43.4059,94.0310,-18.9845,58.3700,-26.7228,24.7181,-1.0329,-5.8320,-73.1697,-25.3829,31.8979,-15.4506,11.9042
-351.5625,31.6221,74.3089,0.3989,26.6957,28.7701,0.1694,-15.1903,-17.4009,46.1256,7.3198,47.3648,35.5611,-1.4487,-12.8650,-54.3903,-85.4497,-69.6266,22.4824,-59.2549,37.4737
-343.7500,-93.8656,53.7440,-94.0638,40.7611,-30.5013,14.2522,-0.8548,-2.5875,98.0265,59.4520,-11.8397,122.6474,-43.3561,-35.8949,-76.1528,-71.9333,-55.0815,71.8742,25.7457,51.8411
-335.9375,-92.9492,91.5924,-125.1340,42.2360,-59.3779,-15.2616,-30.1330,41.6356,105.3351,66.9980,-40.6459,93.1452,-54.2900,7.4678,-32.5217,-28.0382,-17.1462,38.6676,64.1489,-51.3918
-328.1250,-14.7921,62.6871,-6.9640,48.9646,-15.0083,-8.5279,86.8385,49.1124,223.9070,74.8137,-70.2020,25.8983,-51.0336,-95.9252,-62.6450,-132.9084,-9.9616,-59.2821,36.8063,-44.3733
-320.3125,-39.1908,-66.7649,-33.3537,24.1505,-41.1922,-35.3390,24.2484,24.0505,160.9267,123.0991,14.6956,-36.9007,-11.8137,-48.8663,-15.3187,-49.3324,35.6606,-13.7751,47.9139,-33.9108
-312.5000,27.3005,-35.3101,0.1462,20.2432,-7.4768,-2.2493,-16.4423,56.9031,83.8591,120.3034,11.4886,-114.7949,9.5431,-52.9137,17.8989,-53.8760,-37.8299,17.6346,9.9286,-37.5471
-304.6875,-75.6676,-68.3053,1.1861,-12.1104,-6.2153,-38.6159,58.4169,95.3090,122.3468,159.0658,-24.1648,-114.1375,9.0928,-89.4166,18.6702,-53.8846,-70.7716,90.6013,13.5008,0.3685
-296.8750,-122.9791,-9.6420,-83.1283,10.1908,-16.2983,-12.3331,10.9277,122.3697,2.4880,149.4843,-34.1592,-50.8307,17.6499,-26.2848,81.0893,7.7398,-118.0707,114.2188,1.7278,-47.0738
-289.0625,-98.7479,14.5699,-93.9005,-0.9554,-26.8332,49.4961,35.9910,111.9861,29.1908,139.4637,-44.6056,-24.9698,6.1793,-37.6096,70.0532,-40.1014,-128.8225,67.3958,26.5108,-57.9613
-281.2500,-91.4726,-13.1611,-86.6325,-29.0406,-93.3221,19.3774,7.0891,82.6598,36.9380,110.5097,0.0015,-18.0532,2.4985,5.1186,77.0638,39.1011,-121.5334,74.6297,34.3434,-50.8040
-273.4375,-23.5512,54.7636,-87.7183,38.5302,-57.1591,54.9129,-31.1678,81.9889,-0.6646,73.2205,-0.7435,16.5173,2.8492,3.4904,75.7235,36.9419,-159.6048,1.5192,-3.1794,-88.9954
-265.6250,-46.3374,30.9903,-77.5123,14.4069,-46.7024,-8.2516,15.8666,55.6231,47.0292,48.2421,-64.1834,63.3916,5.1821,-59.8406,122.6857,-26.9252,-112.3792,13.7143,9.5926,-41.8782
-257.8125,-19.8235,22.5266,-84.0138,5.5896,-52.9473,-16.1189,-27.8149,49.5516,4.0203,78.5753,3.6940,19.5702,47.8072,-66.8697,188.9553,-35.5030,-155.8604,40.2005,1.6632,-85.4632
-250.0000,-18.0557,95.3152,-82.2653,7.0252,-50.9405,-14.7432,9.7573,88.7242,6.2737,118.1661,5.8228,20.9990,24.3695,-65.6548,117.4705,-70.8453,-189.0979,41.9396,-31.0208,-83.7849
-242.1875,-42.3362,141.0612,-110.5764,17.4189,-78.9913,-5.4181,19.2582,97.8470,-58.5277,127.7205,-22.0912,29.3841,-11.0014,-57.4859,51.9374,-26.2421,-143.3942,87.6367,-19.7581,-38.1569
-234.3750,3.0796,222.5133,-133.1946,63.5118,-101.3435,44.6049,-77.5398,75.6725,-117.6158,105.9909,-7.3073,43.4701,-18.1357,-7.6260,66.1049,-13.9561,-132.9969,64.0367,-43.7889,-97.8301
-226.5625,18.4403,166.9089,-47.8678,77.5488,-15.7411,19.5705,7.6269,51.4450,-68.7388,118.2218,-69.5732,54.5016,-41.3627,-69.8225,-32.7710,-76.7386,-82.6537,43.3881,-63.8610,-12.5486
-218.7500,18.9528,97.4623,-82.3998,42.7410,-49.9920,20.6826,-101.0611,53.3762,-138.7158,158.6094,7.3146,19.6862,-17.5049,5.1284,6.5058,-2.3815,-46.1726,78.8946,-26.7824,-47.1198
-210.9375,121.1574,93.7248,-12.2401,3.6470,-16.5457,16.5037,-68.0491,50.0164,-68.9887,118.7081,3.8954,-20.4176,-12.9775,-35.2300,2.4747,-43.3377,-86.0056,5.1036,4.9909,-50.9776
-203.1250,37.5498,80.1919,6.0996,-9.2416,2.0861,-1.4783,24.1473,69.8576,-13.0613,102.0215,-14.3197,-39.3142,-19.7081,-54.3710,-53.3605,-63.0878,-97.6461,62.5183,-43.0307,41.3700
-195.3125,3.5914,117.3100,-64.9148,62.5184,-68.6347,37.1911,-157.0057,72.3540,-156.4680,141.9999,25.1156,36.4350,-32.0960,21.1326,-51.5493,-25.2006,-61.6438,99.5815,-40.4007,43.3734
-187.5000,11.8276,55.6246,-21.7342,70.4761,-25.1551,43.0571,-40.9552,42.0581,-38.6639,112.1998,-4.2572,5.3753,-28.8783,-47.1701,-80.5423,-129.1269,-52.4457,36.8573,3.4337,86.5856
-179.6875,-7.4906,-34.6021,-40.1147,15.8900,-6.2315,-11.6247,14.5237,-11.7860,-20.4243,132.8651,88.8250,-86.2297,55.9506,-65.0155,47.9199,-148.6030,-2.8009,18.5928,55.7161,32.2427
-171.8750,70.2379,-27.7731,40.5524,-12.6352,37.7411,-5.2495,58.0514,32.4224,60.8598,140.5887,58.9514,-115.7756,46.1096,-131.8106,17.4228,-179.0353,-100.1159,-45.6146,27.0438,38.9500
-164.0625,-47.1981,-144.0961,-48.9445,-25.3035,21.5588,-22.0212,114.4169,52.4831,191.9883,198.1783,-30.0703,-95.4623,18.6157,-111.7513,36.7825,-160.6236,-147.5870,13.0384,17.2276,132.5035
-156.2500,-105.9357,-167.7117,-109.7458,-83.2594,-37.9228,-46.0877,16.4798,29.2520,131.8210,248.4894,55.6079,-10.4498,49.4898,-63.0012,123.8351,-111.5272,-136.3734,-10.6074,63.1083,108.7555
-148.4375,-86.9889,-148.6232,-18.8624,-65.5097,16.2851,-65.4487,107.2447,11.7291,223.3660,230.5144,0.9785,-28.7299,33.6318,-119.5518,66.5816,-205.7337,-152.4705,-61.5402,48.6867,162.7141
-140.6250,-129.7527,-192.2296,-65.6964,-108.4570,-30.2157,-75.5064,61.2980,2.5123,177.2017,258.8510,-8.3527,-75.7049,11.4759,-18.7897,57.6315,-106.6374,-90.2734,0.8337,76.5713,189.9697
-132.8125,-76.9717,-173.2942,-43.9844,-54.8534,-45.1620,-54.0209,44.9183,23.8487,125.6028,207.7390,13.8616,-91.1311,13.9148,0.5134,41.2364,-86.0056,-107.5306,18.7547,94.0169,137.7738
-125.0000,-140.9493,-237.1166,-73.0263,-49.9986,-36.8577,-47.2876,89.7943,68.4388,208.2616,252.8825,-14.6744,-83.3120,-6.9815,-64.9380,-23.9034,-153.1337,-30.5417,59.9305,171.7166,108.8307
-117.1875,-128.6764,-120.6731,-93.8241,-37.8873,-21.3087,5.6992,69.9165,86.2881,115.1759,234.2946,1.0371,-68.2418,-9.1080,-49.1420,-44.7975,-139.0194,-20.3162,72.3554,148.6606,15.1347
-109.3750,-136.0677,-20.8749,-62.2855,25.5806,11.5850,37.0354,64.3925,118.4884,110.4533,231.0750,-112.9117,-35.8094,-53.8772,-53.9986,-86.3460,-181.5703,-25.7463,66.1333,142.9603,-26.2028
-101.5625,-155.7628,-77.3765,-48.0531,4.7543,26.1766,51.0708,42.5642,133.3853,89.4237,209.5690,-134.1519,-95.6729,-61.1770,-3.1618,-109.1873,-131.4323,23.5173,80.6134,193.9647,-11.8398
-93.7500,-115.5557,-175.9798,-37.9248,-24.1713,35.6684,24.0038,14.6342,107.1850,136.3009,183.9670,-51.4895,-159.6342,-7.8677,5.5670,-25.1232,-85.4066,29.6731,16.9980,200.8649,-75.5742
-85.9375,-113.8048,-279.0283,-3.2553,-128.5437,71.7052,-14.5128,160.2475,105.5322,208.7261,182.9137,-89.2757,-161.0443,8.0000,-33.1478,9.4952,-88.8247,-39.6224,18.9396,203.3099,-3.7531
-78.1250,-120.9009,-215.9166,-84.4420,-135.7610,27.8899,-21.8762,79.0034,136.0259,92.2940,177.0081,-59.9040,-132.3046,20.7405,32.2929,75.2667,-23.0951,-81.7710,82.0329,160.9017,-10.7893
-70.3125,-108.3949,-167.2067,-72.0248,-123.3702,3.6785,-9.6380,91.3619,112.1180,105.4650,117.7059,-46.9380,-82.9666,23.7093,8.3219,87.6362,-48.7768,-34.3197,24.7344,104.0858,1.7850
-62.5000,-100.6503,-161.2402,-66.3712,-81.7202,8.7111,-5.1424,59.9522,44.4605,73.8790,123.6668,-4.7218,-78.3708,29.1613,-24.3930,56.2594,-45.2059,7.3718,31.6988,76.5135,43.6064
-54.6875,-104.2061,-57.5711,-66.0234,-48.3650,-26.5586,-3.9434,-49.7563,9.5069,38.9974,162.3400,71.1903,-77.0675,29.9347,49.5901,56.5862,-8.9438,5.7496,-5.6353,39.6385,-28.8716
-46.8750,-66.0188,-55.1562,-27.9307,-45.2612,11.9200,-39.9943,62.2987,-25.6962,114.8747,128.7720,-38.1511,-76.0177,-18.1613,-22.6816,-15.3364,-7.9394,43.8723,-2.2133,43.5186,9.4019
-39.0625,-76.4386,-100.3382,-36.4504,-20.7518,3.7936,-48.6406,16.7484,-33.4947,33.1457,120.6168,-9.0957,-47.5635,-2.8271,41.4503,13.1421,55.4698,68.3861,-12.3819,68.8003,-35.9304
-31.2500,-49.6162,-38.2646,-8.7219,5.0201,31.9147,-21.0300,7.4531,-5.0361,-12.3257,112.7110,-17.8025,-19.8523,-14.2541,31.8267,-33.1373,45.1212,59.1442,-21.2955,25.3287,-45.0080
-23.4375,-90.4057,-7.8009,-17.6070,35.1887,-13.5709,6.9798,-1.4411,23.8250,-20.4052,106.2043,-62.1103,8.2541,-53.3098,23.6169,-79.0053,109.1843,19.3031,9.1986,-14.7286,20.3070
-15.6250,-74.6895,8.1632,-71.9949,50.8605,-67.5525,25.4916,-129.8274,7.1875,-109.9745,16.1993,-5.9239,26.8546,-25.6921,152.9006,14.6293,163.7428,34.9548,25.1884,2.7164,-33.8821
-7.8125,24.9630,2.0729,30.5596,9.4885,-1.5928,17.9583,9.7433,-37.4958,-44.5852,-99.8440,-13.7907,19.4098,-2.1467,33.1346,6.2079,81.2499,28.5485,-15.8620,-38.8910,-5.1188
-4000.0000,-47.1510,-7.5572,-17.1811,23.6321,-37.9671,39.3812,-22.5330,-7.2981,-75.1880,-66.4691,-43.0126,21.1858,-11.3987,74.6910,30.3513,119.2328,9.5450,48.8047,-31.4764,0.0903
-3992.1875,33.2283,37.4001,31.5338,105.1903,-26.6128,88.9081,-48.1615,4.2855,-138.7305,-92.9826,-68.3179,-3.5457,-19.1387,13.6416,5.7357,95.9474,19.8814,-10.6174,-22.2459,-25.2021
-3984.3750,43.7125,-21.5330,115.3495,45.8528,20.8413,-9.4600,73.3182,-59.0254,-20.1661,-157.3983,-57.5189,-29.1756,-1.8931,-47.3112,-19.7972,-2.2449,102.3162,-33.9440,59.0767,-14.3892
-3976.5625,168.1414,-2.5091,210.1018,30.4742,77.2351,-61.8755,19.7305,-112.3869,-37.6623,-174.8681,0.2512,-81.8484,35.2369,-99.3045,1.6152,-53.4770,156.7040,-84.3130,42.3464,-30.6309
-3968.7500,163.4718,-6.5751,203.7553,27.0076,144.5255,-67.3855,50.0441,-81.8496,28.7423,-108.4500,-43.0580,-50.6190,10.4941,-177.4088,-78.0743,-130.8161,117.9902,-17.7864,37.5090,0.0256
-3960.9375,119.9979,21.5594,122.6079,55.7467,100.0141,-36.7040,-31.4356,-52.1156,-52.6423,-116.8343,-13.1525,-57.1857,20.1793,-147.3229,-47.5604,-98.9689,146.4797,45.9371,29.8696,-7.1218
-3953.1250,219.4343,86.6017,120.3634,121.3950,171.4050,-2.1196,-71.0235,-54.4847,-130.1350,-157.3204,57.6717,-58.8524,71.2195,-185.3473,-13.1471,-173.2320,140.8722,5.5571,-46.8752,-83.3768
-3945.3125,211.7720,44.5461,150.0159,114.9506,199.6999,-8.6345,-41.7065,-135.9550,-138.7219,-239.9100,87.4087,-29.6175,105.1833,-191.4806,17.1592,-215.6046,205.1655,-0.9208,-19.7235,-90.7340
-3937.5000,290.4626,122.8443,161.0170,124.8572,211.3430,4.1951,-104.0478,-161.0784,-237.9742,-229.1585,135.5219,-17.0331,130.9460,-178.2595,66.8181,-201.6234,178.8184,-26.0529,-82.2238,-152.7493
-3929.6875,243.5645,146.5510,147.4256,149.1695,197.3933,-8.5798,-43.9923,-137.8114,-106.8285,-135.0143,86.0592,-30.0482,104.9641,-227.6487,53.8765,-250.2533,131.8743,-72.7958,-94.3284,-129.3753
-3921.8750,166.9723,106.5604,139.1396,73.7854,188.7449,-53.0541,-16.6423,-183.2486,-43.3829,-107.5756,76.9181,-37.7614,108.9077,-234.7473,82.2281,-257.5934,162.2386,-77.2366,-66.1429,-64.7028
-3914.0625,191.1371,96.3273,93.6066,29.1666,178.8488,-61.7767,-62.5544,-155.9386,-90.2012,-118.3907,141.5462,-9.7253,140.2967,-169.0963,147.3316,-227.1893,117.3546,-86.9322,-76.2162,-110.2884
-3906.2500,177.8573,47.6423,74.6242,16.1001,160.5033,-78.9499,-7.9113,-101.0797,0.5456,-63.6651,49.7334,9.8616,70.0244,-149.9100,55.9808,-170.2474,34.0277,-64.0845,-90.7354,-18.3264
-3898.4375,85.5827,26.9554,-21.3611,31.0321,64.1585,9.8724,-104.2702,-50.2214,-23.7070,59.0710,100.9378,-12.5545,51.2735,-60.7269,34.6257,-117.3102,-21.2959,-14.2400,-77.2536,-4.3704
-3890.6250,86.7630,-41.2733,-19.8961,-1.5813,65.2640,-24.8564,-30.1778,-11.9099,124.4990,59.2681,102.6090,-84.5203,55.8475,-95.1054,36.7157,-150.9365,15.8290,-117.9534,-6.3216,-2.9786
-3882.8125,96.3982,-136.0584,25.0230,-96.7475,109.8234,-126.1409,51.3779,-77.1495,241.1677,65.9110,74.7386,-112.0400,44.0875,-86.0464,8.2462,-141.1232,61.4135,-107.2210,38.0686,41.8601
-3875.0000,50.5877,-77.2860,16.4920,-35.3601,26.9330,-60.8775,-31.5227,-12.8440,231.3799,166.0995,29.4421,-10.0102,-15.3685,-56.4385,-36.6713,-110.7633,16.5531,-81.9400,-42.9946,-3.7659
-3867.1875,12.5352,26.2400,8.7181,-2.2156,55.7957,-30.8634,34.3314,16.2136,296.3510,195.0336,-87.0891,-17.2318,-69.6058,-135.0907,-115.8497,-151.6695,-20.5599,-81.9144,-45.3148,99.3579
-3859.3750,-58.8140,24.4686,-65.3577,-3.3656,-19.6434,-68.1459,-40.1184,13.9724,220.0186,228.6662,-16.9023,-54.7598,-44.7869,-27.0504,-44.3324,-79.8819,-21.9696,-49.1843,-11.9394,97.1808
-3851.5625,7.1993,57.0588,-33.0829,-5.1581,12.2722,-71.0805,-8.2237,10.0810,177.0316,148.6425,-20.3413,-57.9385,-36.1172,-29.6774,-47.4634,-81.7680,-94.0241,-86.1090,19.7874,129.3433
-3843.7500,-71.0801,14.3514,-117.0982,-46.2530,-34.1060,-43.3237,18.3830,36.8834,128.7536,174.3182,-66.0624,5.5800,-62.8354,-1.6243,-56.9030,-52.9768,-66.3719,-22.3370,80.2177,156.2049
-3835.9375,-61.8542,-45.8483,-138.6167,-0.8411,-92.9831,-66.0655,-41.5192,51.1858,68.9719,188.4998,-15.2592,-16.3983,-54.3181,13.9302,-42.8488,0.3050,14.7774,-48.0665,195.1423,60.5524
-3828.1250,9.2810,-80.1436,-27.2307,-34.5225,18.0447,-62.9063,107.4814,16.3920,217.0945,115.5841,-86.5475,-50.4738,-55.4835,-56.6258,-76.9054,-106.5230,85.8238,-150.9047,194.9616,25.7974
-3820.3125,13.1146,-75.7385,-21.1477,-29.5046,-13.2302,-93.0537,76.1813,-14.6973,221.9261,46.3753,-117.1197,-43.8500,-80.0917,24.5116,-70.2647,11.3428,126.5709,-147.0483,199.4872,-5.2637
-3812.5000,18.4080,106.1247,-15.6135,81.9624,-45.0573,-12.7537,7.3232,27.6684,116.2099,13.6286,-147.2214,-0.7805,-108.4808,31.0887,-101.1765,18.6489,61.7688,-140.7507,63.4620,0.1156
-3804.6875,-61.8915,97.3896,-64.6775,108.8329,-93.4821,-25.0559,30.8734,51.4358,101.9162,36.2910,-121.9179,60.6889,-111.9385,56.0519,-111.6982,45.3336,18.3645,-113.0613,17.8334,60.8977
-3796.8750,-54.1901,140.6608,-91.7498,82.7078,-120.9146,-14.3626,-69.5859,61.2030,-0.3759,7.9609,-76.5961,107.1637,-84.0885,103.0143,-29.2244,93.0137,-8.0374,-105.3752,-9.7931,33.6728
-3789.0625,-48.2248,77.1975,-86.5671,19.8388,-80.0915,-46.4188,44.2049,28.2255,76.5933,-24.1177,-71.0086,75.8914,-48.8917,35.2115,12.4846,25.9249,-2.1966,-133.4484,65.8227,74.6963
-3781.2500,-40.1602,-89.1686,-78.2868,-76.9317,-72.1742,-109.3779,89.1000,-0.6501,120.6708,-54.0900,10.6872,10.7224,12.4384,81.5016,95.2828,35.9250,-28.2480,-124.4196,109.5465,82.8187
-3773.4375,4.1634,-45.2743,-67.7523,-66.4554,-62.0021,-62.0953,26.2448,10.7253,57.0021,-43.8028,59.6512,59.7978,14.9770,94.0255,70.3304,49.1549,-88.0473,-149.1478,47.5308,57.1775
-3765.6250,-4.4113,15.7155,-82.1135,-74.8827,-76.7211,-37.7210,48.5091,33.2018,5.4572,-60.4056,8.7256,118.9675,-19.9750,116.6291,19.4699,35.4601,-96.7442,-87.7830,-32.3777,152.6264
-3757.8125,24.1695,10.8546,-87.3241,-43.1599,-82.2848,-42.1976,-67.0803,27.8296,-110.9367,-102.8518,76.9641,114.2810,13.6669,112.3854,50.7510,68.9099,-66.2925,-57.2677,-3.1395,147.2195
-3750.0000,108.1089,-44.6469,0.8151,-64.0805,-30.4979,-63.3219,-15.3239,-67.1881,-60.9722,-125.9377,129.5655,92.9455,58.5348,-18.5180,66.3689,-61.3006,17.5067,-113.4139,44.4483,125.1562
-3742.1875,102.4026,-85.8008,31.3032,-68.6528,35.6389,-68.1028,14.7852,-109.8520,-67.6458,-96.6679,124.5327,50.9599,74.9785,-23.0821,61.3304,-65.1725,12.6565,-47.2149,4.3817,119.4434
-3734.3750,94.2095,12.5516,27.2961,-41.7221,-5.7225,0.6113,-99.6165,-42.0179,-109.8207,-28.8939,120.0212,47.4760,50.5149,46.8488,57.7912,-31.5578,-64.6957,-20.5231,-74.1878,41.2215
-3726.5625,76.4778,-5.6455,42.7492,-23.3443,9.3734,-20.2319,-11.5579,-25.7381,-21.5217,-13.6677,62.9745,26.4375,39.1269,-46.7935,36.6951,-87.5171,-80.5910,-2.3945,-58.3045,93.4460
-3718.7500,49.6527,4.0565,-18.8921,-49.0708,-15.6242,-7.1838,-73.5977,-51.5636,-84.3109,32.4597,75.8491,39.2932,44.8466,2.4554,86.4949,-74.5938,-37.5802,7.6272,-15.5193,31.5661
-3710.9375,86.9873,76.9216,22.6177,-44.6377,25.5342,-38.9874,-33.4939,-47.2334,-45.9424,35.7538,116.8865,44.3001,61.6087,-103.1631,54.4321,-178.5389,1.5744,-24.2052,-13.5902,-1.1726
-3703.1250,114.3736,-1.1543,89.1775,-52.1532,91.7436,-81.7402,33.6638,-127.8486,-16.5054,-82.8863,220.9772,1.3608,123.6311,-145.7504,47.4052,-220.4576,134.7758,-31.9924,13.3897,-44.8557
-3695.3125,163.0667,13.0725,146.0317,-37.3661,111.2485,-98.1978,-57.8840,-144.1528,-107.7588,-137.2040,426.3848,-15.2803,201.7486,-88.0507,68.6742,-199.0902,184.2715,-53.4866,-44.3279,-172.2463
-3687.5000,144.9660,66.4976,164.0905,-18.3848,165.9553,-42.4656,-3.2227,-126.2550,-53.7838,-83.3038,517.9958,-33.7245,208.2980,-179.1691,-60.8661,-253.5420,131.9644,-34.7923,-96.8396,-154.4338
-3679.6875,30.4221,22.4713,86.7012,8.1410,88.2151,-45.1927,-81.0090,-93.8079,-96.2447,22.1577,588.1763,-36.6250,196.1356,-108.7472,-100.8610,-182.4624,159.2087,63.4409,-0.7981,-269.0708
-3671.8750,87.4400,10.0022,149.8652,-3.7841,151.0256,-18.3781,18.7547,-30.8104,-70.1395,10.1786,615.9197,-83.9767,228.0667,-191.7876,-110.3127,-227.8460,110.9980,-19.7898,20.7977,-353.1636
-3664.0625,31.4114,-46.5182,126.9812,-23.7611,127.7930,-40.6157,106.4789,20.1442,-21.0693,60.1535,593.6205,-105.3810,213.9319,-176.8957,-132.8269,-212.3024,90.7312,29.9332,-1.6527,-339.2980
-3656.2500,60.7818,54.3625,48.4913,-28.3377,48.9595,-45.4519,-10.4059,51.5055,-100.6036,53.5364,698.7355,-74.3884,239.5813,-144.6063,-64.9498,-179.3661,50.8645,-9.9408,-7.6925,-345.0393
-3648.4375,98.2132,127.2919,84.0617,-25.8628,84.1880,-45.2433,135.7669,12.9212,7.9285,-59.0250,624.9119,-111.3476,221.6012,-255.2836,-102.0343,-252.4018,54.0419,-77.7754,29.3188,-272.7325
-3640.6250,29.7907,95.3694,11.7811,-57.2404,11.5706,-43.8865,99.0936,14.4908,-29.3727,-22.4193,553.2410,-73.1555,181.8977,-106.8243,-63.9767,-140.3057,21.3701,-4.4597,-3.5153,-235.2812
-3632.8125,-17.6666,117.4066,-4.5417,1.3334,-42.0915,51.4196,9.3672,72.0156,-9.7179,34.1470,500.5310,-52.0147,140.1173,-48.4312,-79.9763,-118.2808,-96.3538,-16.2043,-87.3977,-177.8885
-3625.0000,-105.2132,66.3451,-62.9542,-15.1962,-63.8418,29.6156,23.5521,12.4364,40.8615,47.6190,479.7303,0.0193,131.8138,-69.1597,-64.0881,-101.3828,-77.1734,1.9471,-69.3790,-89.5979
-3617.1875,-16.7467,50.2832,-42.3611,40.2730,-43.5889,50.8042,-66.2641,-4.1440,-86.5509,30.0958,500.9453,21.0453,146.3049,-47.8955,-43.2015,-43.5009,-92.9901,-13.9103,-122.3605,-106.3139
-3609.3750,26.6855,58.1770,-35.8102,48.6893,-37.3728,57.9374,-60.1215,76.2265,-80.9910,72.5293,434.1198,28.0191,101.1845,-40.7022,-110.3763,-34.6950,-189.8628,30.1680,-149.3897,-63.0807
-3601.5625,-47.5285,90.4144,-115.9099,46.4481,-117.8096,88.4143,-103.6245,142.9511,-88.0591,138.3231,317.6488,22.3439,21.7583,26.8313,-152.2128,69.4460,-227.3886,97.5965,-117.0595,3.5053
-3593.7500,-67.6382,105.7569,-171.9094,61.3070,-174.1446,106.9855,-124.0339,197.7804,-35.0159,192.2356,225.2864,39.7664,-37.1173,44.4597,-171.9567,51.6729,-177.8208,42.1179,1.3769,-52.8127
-3585.9375,-113.7974,25.0468,-146.9548,17.1084,-149.5240,22.5009,11.5236,185.5644,136.0045,253.1133,103.8782,65.1403,-74.3615,-2.9827,-182.7579,4.8237,-152.3094,-2.4213,95.7699,-28.1808
-3578.1250,-113.3996,60.8791,-181.4471,18.4511,-184.3486,24.5554,13.6355,223.8985,100.5856,253.5553,107.0344,31.0569,-88.8204,110.1148,-181.0056,81.5093,-186.2557,-36.4184,60.7187,-62.9997
-3570.3125,-84.6960,55.0101,-152.6371,48.0873,-155.8693,53.9019,42.0513,216.5430,91.4887,208.3148,26.5000,24.2691,-91.6259,65.4934,-151.9582,74.4671,-190.9072,-42.1247,53.9762,-34.5241
-3562.5000,-127.5400,-24.4103,-127.3787,40.1635,-130.9321,42.6902,65.9287,203.6404,151.8599,231.5420,14.4166,11.9265,-84.6676,17.3031,-163.4696,26.8547,-200.1099,-16.3823,79.6967,26.4040
-3554.6875,-187.5736,-12.0204,-151.3169,87.0372,-155.1896,56.2711,4.6034,216.5457,164.0467,316.5880,-8.8575,98.3803,-103.3243,30.9028,-150.1888,41.0232,-258.5244,-3.8554,20.2198,2.1281
-3546.8750,-206.0965,38.8725,-140.7519,68.4012,-144.9420,67.3404,88.7868,190.9586,247.7606,290.1489,-106.6347,73.3337,-136.4839,5.9880,-175.4237,-20.3278,-242.4431,12.1597,-34.7466,123.3596
-3539.0625,-198.1131,83.2565,-203.6881,42.2582,-172.1976,40.9013,-11.5293,126.8749,109.9937,262.2283,-132.9044,83.7826,-136.5915,89.5665,-92.1670,63.8133,-162.8670,55.6660,7.7973,96.0947
-3531.2500,-137.1738,74.5882,-139.6716,34.0576,-107.4985,32.4037,15.1092,80.7483,137.2001,142.2685,-178.2208,75.1768,-123.6860,81.0845,-63.9646,18.8850,-101.3463,12.1095,-1.6951,86.7757
-3523.4375,-84.0802,-12.9376,-47.4967,17.9901,-16.6390,14.0416,106.9237,-11.2270,154.5858,12.4753,-159.3867,-16.2899,-68.0783,25.7280,-45.6148,-70.9189,-12.6791,65.6921,-18.0251,104.6123
-3515.6250,-23.6315,13.8792,-17.9694,10.2635,13.5750,9.0161,27.0890,-54.8496,74.3370,-31.9460,-127.1852,14.5838,-18.9841,-16.2896,58.0882,-77.3888,14.3355,92.6147,-63.9988,24.7909
-3507.8125,5.0802,6.9465,47.8140,3.7781,79.0510,38.2347,92.5163,-62.2158,102.3692,-40.0992,-171.7326,6.6977,-9.3343,-96.0764,50.0250,-193.6327,43.5867,51.7741,-69.7196,53.2269
-3500.0000,-33.1582,-66.9380,10.6439,1.3354,41.5757,-35.5045,17.9926,-100.5314,64.4692,-5.1821,-135.2312,6.8614,-4.1192,-23.8186,86.0053,-83.8368,109.8873,82.9793,-4.3817,-21.2814
-3492.1875,66.0648,-36.3700,77.9247,-3.6605,108.5537,-40.7970,48.9144,-69.3919,94.0298,25.2022,-140.2810,-35.5206,-8.3941,-66.1191,44.4261,-88.6079,34.6341,-27.3766,-10.5881,-27.3367
-3484.3750,35.2439,-67.8553,42.1623,-34.7154,72.4907,-40.1491,85.7991,-32.2993,131.5684,24.5518,-138.3843,-34.9582,-24.4625,-64.4878,7.7892,-86.4558,3.3254,11.2084,-7.8331,46.5667
-3476.5625,38.7761,-63.9968,8.7507,-30.4360,38.7769,0.8374,-21.9628,-28.8522,-13.5206,64.2722,-97.1324,-67.0573,-10.6367,12.4811,48.5006,-8.9630,-27.6342,-19.8611,30.2885,49.8117
-3468.7500,-19.8333,-85.2935,-15.8050,-52.3137,13.9213,-23.3331,64.1375,57.4508,72.2717,75.8648,-158.0363,-90.3095,-35.9613,-11.7151,24.0498,-32.6439,-83.7547,27.9089,113.2669,61.9070
-3460.9375,-80.5933,-110.7545,-77.5099,-111.3502,-49.0771,-11.6655,75.0911,105.6085,45.9366,123.3244,-183.0819,-79.7159,-43.9281,36.9264,72.4475,16.5084,-75.0223,73.5209,157.1049,35.8478
-3453.1250,-39.3358,-35.2194,-33.1986,-70.3997,-4.0568,33.9898,119.0520,149.7626,53.6239,129.7932,-248.1200,-108.1347,-58.3129,-28.4524,43.8474,-48.3641,-137.2913,45.1169,162.9520,6.7799
-3445.3125,-78.4654,-110.0893,-5.2764,-109.8673,23.5769,25.2311,147.6340,177.5193,80.9439,83.8771,-292.5601,-42.9637,-87.1712,-36.2530,-38.1593,-55.6630,-71.9698,75.3032,157.4038,71.3175
-3437.5000,-19.9452,-15.3128,-15.7069,-49.6942,12.8645,52.1177,25.8661,130.9302,-4.0789,72.6280,-265.3511,-53.1474,-97.9295,26.5919,-48.5169,7.6793,-82.0029,100.1391,76.5121,60.5086
-3429.6875,-11.6679,28.2176,27.6179,-75.7767,55.9102,58.7499,31.8522,137.0995,38.6674,78.1461,-295.4010,-45.5817,-124.4560,33.1711,-115.1327,14.7515,-109.2977,143.7174,-20.6268,103.4537
-3421.8750,-67.8436,42.2877,4.4910,-26.3177,-4.4930,107.9248,-28.6028,148.8203,-59.0124,126.2323,-318.9017,-70.4696,-148.6858,46.2895,-139.2017,101.3547,-95.0458,227.8428,-8.2042,151.9540
-3414.0625,-45.0103,-4.6402,-3.6282,-37.8587,24.1105,65.0977,-37.0629,68.5440,-30.6826,119.3302,-251.4020,-77.3596,-85.1755,-34.6011,-37.2761,-15.0554,69.1962,110.9628,120.2199,34.4532
-3406.2500,49.9251,-154.4734,134.3528,-152.3066,124.8209,-54.6350,174.5915,-51.6254,217.7726,35.5479,-260.8177,-159.1555,-33.4255,-152.4043,27.7368,-133.3823,128.5329,30.1782,179.7572,-11.9403
-3398.4375,37.7631,-132.4115,124.2345,-94.8685,114.4312,-27.4765,127.1497,-24.8833,133.1422,24.6860,-270.3371,-134.0605,-50.0726,-53.3152,17.6454,4.1828,81.7645,53.2857,61.2123,-59.4296
-3390.6250,22.0610,-77.9044,104.5714,-39.9947,131.5037,27.1237,71.1698,-7.6870,76.9921,4.2910,-325.4102,-79.5243,-74.8839,-35.7951,-1.9994,22.1750,66.4412,2.8279,10.1317,-5.4720
-3382.8125,48.7111,-121.0604,130.2664,-47.7857,119.9374,15.0644,21.5589,-20.1375,27.2175,-44.7420,-263.1422,-53.6479,-58.5340,-10.9369,-14.3024,47.5012,58.4590,28.7159,0.4153,55.8474
-3375.0000,52.7613,-46.8240,99.3565,-8.1859,51.7694,58.3981,-82.6537,-14.1784,-77.1449,33.6472,-183.4774,25.6247,-57.8755,32.3237,-8.2031,91.2220,-8.1341,33.9978,-65.8961,24.5657
-3367.1875,24.7134,31.3065,66.3468,0.3024,55.5088,62.6224,-40.9510,63.6877,-35.5781,36.9522,-251.9264,29.7989,-98.6669,0.4728,-76.2115,58.8275,-69.8402,112.1717,-93.3008,102.1960
-3359.3750,-42.0842,35.6792,-0.4102,4.0315,-11.4955,70.0899,-145.0000,70.8018,-139.7452,-30.4824,-134.1254,0.2197,-46.8569,43.8634,3.0291,139.6706,3.7044,115.5900,-20.4462,35.0836
-3351.5625,71.4812,8.4033,119.1917,-22.8932,34.8624,42.8988,-26.6945,6.2657,-58.5482,-130.5584,-123.9803,-27.0147,-9.0920,-20.4139,49.6171,76.8419,-23.4024,18.3509,-13.2343,7.3228
-3343.7500,48.8570,-50.0702,95.6068,-45.0281,10.0295,-18.5082,22.4199,-18.4700,27.4711,-82.8218,-111.0451,22.5500,-26.0347,-7.9086,24.9918,89.7922,-45.7094,30.9056,-36.2178,19.3762
-3335.9375,10.9348,53.1578,-16.2802,23.5295,-65.1060,17.7805,-89.7765,17.4983,-47.7994,25.6390,-112.4163,21.8178,-61.5124,65.2950,24.0607,162.4371,-83.3212,28.1531,-39.4864,-18.8757
-3328.1250,29.1238,71.4778,-35.0565,7.1775,-47.1273,-0.8414,-34.8552,-1.4279,44.0571,43.2060,-129.6967,3.1785,-59.5333,9.5792,42.2217,107.1589,-64.8322,-24.5159,-21.6381,-1.0236
-3320.3125,-0.1805,7.2889,-64.3265,-21.6922,-76.6386,-29.9747,-64.4242,-30.8573,51.4321,86.2781,-86.4836,11.0313,-30.3978,17.3630,122.8820,152.3766,-22.8467,-17.6910,-51.2811,-30.6681
-3312.5000,15.0705,22.6473,-47.0453,63.9764,-22.5911,-12.5628,-47.4429,-13.7295,67.3699,102.9193,-105.7286,28.4329,-23.3187,-76.3047,103.0866,59.1355,-7.3234,-37.3233,-106.3665,-50.7603
-3304.6875,-52.9273,-9.2589,-46.0062,67.3826,-21.7818,-11.4104,-9.6966,-49.8494,142.0852,140.3287,-176.2328,29.5743,-56.4204,-75.2400,68.0387,24.6233,30.9446,-35.2132,-68.6912,-13.0894
-3296.8750,-25.1726,17.5717,-15.2149,59.5206,-28.2164,-17.5195,-53.1985,-56.2190,61.5639,59.5042,-145.9909,59.4577,-37.2215,-44.4330,97.7446,54.8576,57.9590,-7.3552,-77.2535,-56.6648
-3289.0625,-25.4607,17.3512,-15.4704,24.5987,8.3061,19.3149,20.2597,-19.6335,135.0148,22.6429,-181.8098,23.2918,-47.0026,-81.6863,60.3975,19.0284,57.9096,-7.5595,-41.8635,-57.2815
-3281.2500,-54.2974,-46.4263,-7.2751,-3.8851,-20.7163,-9.4132,-8.8278,-11.5989,105.9313,29.2539,-210.1921,-5.4295,-74.1266,0.5020,31.4995,100.6374,64.3094,68.6832,33.9880,-86.4377
-3273.4375,-31.4186,-58.5115,18.6284,55.3221,41.9697,53.5494,16.7883,14.1379,95.5667,18.5790,-220.8808,-16.4642,-60.9719,-10.6222,21.3043,53.9346,17.4001,-13.3887,21.5501,-133.8914
-3265.6250,-80.4407,-143.5097,1.6383,5.6115,23.7701,35.6012,109.5218,32.9790,114.3304,-35.9838,-237.4860,3.5933,-67.1524,45.3392,4.2063,73.3144,38.5878,7.6343,77.2251,-78.2327
-3257.8125,-59.6088,-122.6701,-12.4942,61.7377,9.4286,58.4855,58.1085,55.6678,-10.0458,-13.6873,-214.2447,25.4905,-64.5458,68.1497,-10.0350,59.5403,59.6237,28.4961,62.7643,-92.7179
-3250.0000,-69.3163,-61.3857,12.8306,17.3038,34.5486,10.8136,120.1558,43.8076,88.0488,11.0717,-188.5616,50.8347,-53.3456,-53.6065,-21.8316,-24.7997,50.1036,-16.2040,87.7595,-67.7473
-3242.1875,-69.0788,-61.1537,12.1037,-16.1906,34.6175,10.0845,119.1625,6.9012,51.1169,-27.2003,-151.9538,14.1249,-41.9582,19.5851,-22.6882,11.8013,51.5343,20.0447,53.7213,-31.8141
-3234.3750,2.6659,-24.4190,14.8768,19.8091,36.1906,12.8461,11.6685,9.4963,-20.3019,-61.9556,-113.8582,52.9169,-39.8260,58.2728,-20.0454,50.8916,17.4597,-14.2178,19.1934,-66.3781
-3226.5625,80.2697,-17.8406,53.5054,-8.3596,38.6238,14.4425,87.0453,-62.0593,18.1634,-95.8543,-146.9309,55.5586,-58.8057,23.7930,-54.5549,-20.1846,60.2355,-76.6429,25.5315,45.9165
-3218.7500,20.3290,-6.8300,-9.4105,2.9028,-24.4869,-11.5225,-13.1228,-51.1657,-43.9068,-13.2888,-135.5609,103.6424,-78.2378,108.7654,-43.6127,28.1885,35.4544,-65.6271,72.3319,56.6698
-3210.9375,-17.3572,-45.5768,-15.0757,0.4071,-30.3423,-17.2418,16.9594,14.9840,58.2903,52.5438,-178.9528,95.9715,-94.6114,63.9858,-50.4232,21.8027,-2.0881,-105.3711,67.3901,122.6811
-3203.1250,-30.3951,-92.6796,-31.0892,-47.4567,-46.5373,-70.3219,38.7046,-0.2169,116.1513,74.0444,-157.7135,7.9469,-83.9531,85.8475,-29.5815,44.0594,20.0093,-82.4698,90.1072,180.3593
-3195.3125,-22.4845,-49.8305,-58.1578,-74.3809,-73.7790,-60.4580,-62.6017,-27.4637,52.9689,119.5139,-110.5308,17.8659,-85.5545,131.6598,-19.7823,89.2599,29.0433,-74.6226,62.7799,152.9902
-3187.5000,5.9780,-21.4335,-31.6749,-10.7656,-47.4641,-70.0506,0.6513,-1.1570,116.3538,145.5476,-157.8130,44.3317,-119.5344,49.0065,-103.4337,43.9921,-13.3754,-117.2260,21.0079,216.1808
-3179.6875,-66.2555,12.2603,-103.8875,-12.8621,-119.8437,-69.3507,-108.7954,0.4481,44.0468,146.8944,-82.8040,45.0895,-108.7361,159.6487,-65.7792,118.0168,20.5020,-83.5312,53.5431,143.6763
-3171.8750,18.9701,26.4061,-12.6442,-32.5188,7.2376,-89.2063,-17.7903,-56.4968,60.1988,-19.3061,-28.3558,-10.7051,-27.3377,65.7342,-11.6703,25.4782,34.8269,-138.3902,68.5331,123.6206
-3164.0625,26.4086,-71.2570,30.8085,-94.9893,50.5333,-118.8756,61.4316,-86.2462,67.5668,-123.3084,16.2811,-3.3063,30.5234,1.0090,31.6387,-39.8778,77.3532,-61.0603,75.7353,130.7749
-3156.2500,73.7073,-25.0742,47.1179,-48.6228,30.6871,-65.7033,-32.5017,-70.1527,-62.2022,-106.4500,68.7616,11.9413,48.9419,16.1324,47.8032,-60.3922,54.7246,-14.8906,52.7967,36.7789
-3148.4375,74.0152,10.1034,84.4328,-13.2701,67.8551,-29.5371,78.5774,-34.0566,-25.9563,-143.5788,-4.7773,-24.8139,36.6026,-56.7548,10.9641,-132.9199,55.0900,-14.7321,16.8663,36.7965
-3140.6250,72.6661,-61.3901,48.0977,-49.5862,68.3785,-66.0317,42.0140,-70.6049,-25.3548,-107.3422,33.0168,-61.2305,67.4246,-20.2877,85.4821,-96.0967,53.8020,19.7789,51.3038,0.1729
-3132.8125,125.9167,-8.2942,103.3622,-31.3140,49.5107,-47.9336,60.0577,-15.5480,29.8628,-16.4907,14.3973,-79.0551,37.4434,-75.2204,29.6031,-150.6761,1.1028,-33.1227,-1.6449,18.1539
-3125.0000,31.9621,3.5861,76.4285,-53.2622,22.4503,-110.0480,69.9185,-5.6836,76.9067,67.1780,-47.4374,-32.0891,-4.1784,-64.3578,2.5298,-140.4633,13.1910,-21.2306,45.2152,64.9458
-3117.1875,60.0601,66.5091,72.5396,-97.1762,18.4402,-115.1201,28.8319,-9.7684,-0.9882,25.9109,57.7714,-37.0815,61.2274,-33.4410,108.5170,-144.2072,-29.6790,-64.2977,73.1383,-13.2044
-3109.3750,67.1618,73.4261,79.6579,-90.0975,25.4428,-108.1987,145.7602,-2.8556,116.1324,-4.3532,27.9591,-30.0736,47.2409,-99.5343,79.5005,-173.9643,-57.5522,-92.3691,10.0679,-6.3418
-3101.5625,38.8047,-26.1179,47.3164,-82.4771,-7.0047,-102.7273,77.2444,1.6112,84.8089,-0.0578,69.6741,-25.5126,72.5213,-94.0694,121.0328,-169.1666,-50.8764,-50.8813,51.5527,35.0824
-3093.7500,45.5971,-18.5102,58.1280,-76.7063,-33.2973,-57.1040,13.8704,49.2336,58.6385,-26.6058,80.5220,-14.8005,73.8962,-85.4560,130.7117,-158.2198,-79.0536,-8.2509,58.1900,-28.3340
-3085.9375,34.8925,-100.4121,47.4422,-122.4532,-7.0777,-67.9945,113.0106,38.3457,83.9897,-37.6477,32.8558,-62.5915,69.1292,-96.3559,119.8947,-168.7894,-18.7230,15.8681,117.3443,-39.2376
-3078.1250,71.9972,-28.5243,51.5660,-121.4191,33.9575,-63.0993,80.9567,42.2505,-20.8539,-32.8843,36.9828,-131.5940,86.0100,-17.4579,161.8850,-91.5645,-52.5889,-18.2179,84.3106,-108.3367
-3070.3125,22.4509,-42.2885,35.0461,-65.0418,17.3549,-6.8601,63.2633,61.5140,-1.3424,-13.7575,-16.5577,-75.2532,48.5469,1.7850,107.2257,-108.9981,-67.1153,38.0458,34.6286,-52.0806
-3062.5000,-52.5494,-82.5151,-7.9286,-69.1279,11.3076,23.9240,-15.8810,56.3290,-81.2718,-57.0748,-22.5653,-7.3647,29.4395,69.5773,65.1177,-40.8817,34.9097,68.8640,65.5099,-21.2610
-3054.6875,-14.0398,25.7531,33.6031,-30.7278,51.7728,28.1991,-85.5263,-13.3622,-149.7004,-52.8940,55.9255,34.0100,56.9546,72.8695,68.5224,-73.2691,37.4394,1.1751,-2.0999,-53.9436
-3046.8750,77.0260,81.5661,124.6987,-10.7878,106.8043,8.0149,-31.6039,-69.5103,-131.5674,-108.1700,35.9491,13.9321,52.1379,-20.3005,12.4820,-128.1183,58.5239,-13.9710,-52.1549,36.9289
-3039.0625,49.8969,89.1767,97.5952,-3.0513,42.6429,17.6321,-167.8844,-96.8626,-232.6364,-99.6467,119.7580,23.6585,57.9617,63.3318,22.2414,-9.1685,66.4086,29.6822,-79.4065,9.6092
-3031.2500,68.5720,37.5881,117.2919,-19.5150,63.2840,1.0465,-147.3648,-77.4084,-137.9088,-80.3134,139.3477,7.1925,77.5583,9.7621,42.7960,-62.4203,15.0928,13.1340,-60.8519,-6.9076
-3023.4375,17.1520,-50.1024,64.8927,-71.0856,46.8356,-15.6454,-17.9335,-57.0590,-45.2730,-60.0779,86.8185,-9.3810,67.4682,-6.9131,63.2498,-41.7811,33.6809,-3.5146,28.6090,-23.5133
-3015.6250,-25.8092,-22.3407,22.9485,-43.2123,41.8485,-19.8926,-22.0551,-24.2635,-49.1943,8.6105,44.7370,-13.5107,55.6404,24.8613,95.1580,-8.6921,-9.2840,-11.7170,20.5228,-101.6726
-3007.8125,-26.7614,46.4126,56.0124,-9.3522,37.8721,48.8585,82.8352,7.5350,19.8954,-32.6913,-33.3628,-18.6435,15.1101,-53.3691,17.0619,-50.6074,-81.2554,22.0697,-51.5608,-32.8169
-3000.0000,-66.1665,7.6996,-21.3778,22.0440,-39.5523,81.1537,-30.7292,3.8783,-94.4586,-36.4264,37.0764,-22.2297,25.7003,89.9570,50.5225,57.0341,-84.6766,88.4021,-90.0853,-36.4006
-2992.1875,18.7273,21.2794,27.5294,70.7322,9.3312,93.7451,-18.9963,15.5220,-117.5088,-97.8466,85.8068,-10.5172,53.1833,28.5801,25.2960,-5.0269,-104.8105,32.0286,-146.3065,12.3244
-2984.3750,-19.8855,17.3508,20.9320,31.9109,2.7165,86.8307,-60.7490,-63.3319,-87.0421,-140.7658,116.0147,-16.3041,54.6135,58.7023,18.5764,25.4076,-37.4551,28.1550,-114.0227,79.5677
-2976.5625,50.4939,88.4166,21.3251,67.0795,3.1030,86.9105,-134.5033,-63.1800,-233.5748,-177.6886,153.2116,56.9018,46.8405,95.8310,-17.1208,99.8490,-37.1075,-6.7230,-113.7272,79.8173
-2968.7500,0.7273,71.3243,-33.4289,51.0854,-14.6511,66.8315,-117.3894,-9.1754,-179.2449,-86.7607,60.2445,147.9434,-11.4781,39.8020,-72.9602,80.1329,-53.9133,13.2382,-59.5697,133.9277
-2960.9375,-51.4962,19.7706,-86.6417,34.6288,-104.8534,50.2979,-169.7223,10.3783,-195.3642,-29.2705,43.8097,168.5326,-40.1576,133.3306,-52.2455,174.9750,-35.1723,30.7534,-4.8501,117.5953
-2953.1250,17.4775,53.4135,-48.6588,33.3718,-66.8531,50.9647,-95.8593,47.1397,-121.2903,-29.5671,43.5584,95.3280,-27.8642,60.0684,-51.3297,139.0189,-71.2411,-39.5300,-6.9291,81.4669
-2945.3125,11.7916,-23.5959,-59.3301,-8.5419,-77.5001,4.9825,-69.6346,1.2556,-20.8576,-39.5003,-2.3628,84.4766,-54.0154,86.1504,-62.0625,165.4033,-7.9653,-12.4611,-13.6523,144.7007
-2937.5000,4.7478,39.0447,-103.3608,54.1900,-121.4919,33.6467,-186.7610,-5.9791,-64.7833,26.2210,-9.6394,77.2697,-85.8856,189.8872,-69.1332,232.4350,-50.0353,-19.7413,-55.7179,137.5838
-2929.6875,-49.9830,20.9769,-123.0833,70.2092,-105.1683,13.6061,-133.5706,10.0841,61.5963,42.2373,-30.6224,130.3520,-93.2734,94.9159,-89.8931,174.7587,-33.8098,-38.7290,-39.4812,153.7684
-2921.8750,-92.1654,-22.5524,-94.2555,28.7661,-75.2871,6.1146,-67.8253,-34.3047,54.5228,-1.1940,-38.0696,85.9773,-69.0421,124.5021,-60.1001,167.6320,-6.0347,-11.1629,-11.6885,146.5121
-2914.0625,-49.0918,55.1678,-47.1733,70.5721,-28.1484,50.8766,-131.8366,-24.4415,-82.3118,-28.3689,-28.2803,95.8459,-50.5880,134.3383,-50.0500,177.7556,-33.0136,-38.3501,-73.6473,119.5112
-2906.2500,-58.0697,10.8344,-61.1409,26.3200,-43.0524,0.5807,-71.8854,-39.6302,-23.1927,-6.5917,-42.5586,82.6655,-71.7771,84.1206,-101.0470,162.8175,-7.0353,-12.5867,-12.6468,215.4692
