Time,Fp1,Fp2,F3,F4,C3,C4,P3,P4,O1,O2,F7,F8,T7,T8,P7,P8,Fz,Cz,Pz,ref
-4000.0000,2.1678,-6.8019,-3.7998,-21.1026,81.1842,6.5453,-11.7187,-21.5646,-6.2245,8.4500,-8.4347,4.8772,3.4286,48.7129,12.1562,29.2974,-15.0292,-24.8549,-33.7564,-27.0958
-3992.1875,5.4283,-3.8691,-41.8945,-17.5192,-65.5782,42.4805,23.9782,-61.1823,-14.6768,-66.6976,-9.5748,40.8883,39.4025,11.2530,48.3172,-8.4496,58.7124,-22.5480,-66.4098,-25.9625
-3984.3750,9.1931,-36.4314,-74.5019,54.5608,-59.8440,9.9166,-45.8210,-166.2944,-74.6358,-208.3339,67.7798,44.3985,42.8731,15.2870,88.9740,-3.6990,60.9549,-19.7435,-64.5522,-23.6238
-3976.5625,62.3267,-53.6427,17.2437,1.9870,-4.7518,-46.3039,81.7262,-186.0542,-56.8111,-337.6165,48.4909,-10.7421,171.6907,-39.3272,180.9765,-59.5965,43.5444,-178.5957,-47.3414,-179.7863
-3968.7500,21.9718,-129.3458,8.4877,-108.0833,-11.1643,-127.0162,146.7809,-195.3123,23.8677,-199.4156,113.6923,-19.3724,200.0081,-47.4403,209.4736,-30.9970,73.6343,-113.9432,53.3575,-121.7086
-3960.9375,18.2759,-98.3817,47.3852,-78.4876,29.0729,-163.0691,38.4749,-157.9250,58.0183,22.4159,152.5505,-17.3449,128.9729,-80.9052,174.6164,-28.7491,34.3795,-83.6346,-22.3008,-97.2486
-3953.1250,4.3618,-6.6576,70.0478,-23.1402,16.0714,-103.3701,60.9198,-172.8000,33.6288,7.9894,102.1658,5.4248,77.6926,-131.6298,87.5084,-115.7610,124.8804,-98.5920,-107.2086,-104.2352
-3945.3125,98.8180,16.4223,131.0552,35.5468,42.4097,-115.3246,-25.2856,-221.3272,-28.7387,-40.0888,200.1330,-6.4608,65.7619,-106.0040,1.7521,-90.4224,253.7362,-76.1936,-84.7669,-77.4508
-3937.5000,137.9448,-50.8381,208.7157,2.8846,120.3960,-111.6318,-57.8561,-182.2053,-35.0887,-73.5218,166.7607,-39.6971,69.4779,-138.7271,5.6440,-123.4287,257.2434,-144.1467,-46.6753,-139.1713
-3929.6875,18.8372,-64.3328,118.1274,23.9719,-5.8762,-55.1899,-75.6744,-89.3247,-49.1263,-54.2000,76.1275,16.8215,-21.0578,-81.7090,-84.7181,-66.6897,243.4967,17.6400,9.1644,27.3382
-3921.8750,19.0427,41.4861,120.8298,164.3712,-0.8599,21.5485,-220.2007,-13.1452,-111.5403,-87.5835,152.7925,57.6505,-55.2977,-78.3946,-117.7830,-26.6579,173.0585,52.7291,-26.6963,64.6408
-3914.0625,-43.9753,13.0667,126.2907,135.5271,41.9082,26.0316,-30.9792,-45.2226,-69.9136,-193.2243,84.2115,-47.7736,-13.7821,-146.3398,-76.0949,-94.8855,178.3695,22.5537,49.1906,44.4229
-3906.2500,-76.2734,-159.6439,92.4487,-2.6172,83.3662,-43.7905,118.9563,-79.6026,9.4541,-190.1645,160.3231,-118.5004,26.4277,-105.5907,37.2885,-54.4183,181.3879,25.0833,157.7796,42.5151
-3898.4375,68.8546,-120.9320,169.0107,-34.3518,198.2203,-4.2071,122.2854,-39.5820,-9.6609,-222.7126,163.8420,-77.8233,67.0306,-101.4366,78.0620,-50.5498,114.8124,28.0167,54.7654,43.8969
-3890.6250,21.0049,-63.2014,77.5833,22.9196,71.0770,52.3886,140.6150,-58.5655,-9.3264,-204.2856,72.3634,14.8568,49.6372,-82.2903,96.8321,-68.6886,66.2389,84.9464,-64.2559,95.3546
-3882.8125,-20.4872,34.8832,73.5052,49.5434,-5.7257,10.3312,25.2871,-137.2033,9.1202,-62.5218,142.2371,9.8899,44.5974,-85.7942,92.9485,-109.4773,-11.9749,6.2300,-36.9233,4.5633
-3875.0000,5.5430,60.4752,61.9302,39.6691,-16.0265,-37.2332,124.4559,-112.3371,37.4656,-37.2481,56.6134,-0.5856,33.0496,-133.8058,44.5574,-83.7693,-56.6906,-75.0011,22.9131,-75.0467
-3867.1875,-28.2066,61.2725,-11.4523,40.9875,-88.1443,-37.6038,86.8419,-39.2657,25.2068,-37.7673,56.1776,36.1351,-3.3051,-96.6245,8.3632,-46.8640,-20.2063,-3.0417,93.9589,-2.2302
-3859.3750,40.8716,59.8825,62.9658,38.1020,-49.4714,-36.1842,14.0224,-38.3964,-8.0945,-36.4903,94.5495,36.6598,-2.8590,-94.6422,-27.0339,-82.1609,-22.9224,-6.2806,55.8066,-4.5136
-3851.5625,-10.2788,7.2599,7.1393,55.9673,-140.0535,17.9882,68.9599,-20.7779,9.6660,-18.4778,1.6684,54.9320,-20.6611,-75.9235,-45.6790,-63.7208,-4.8915,46.2297,38.4036,50.1258
-3843.7500,-12.7181,-30.6483,43.0032,88.5377,-102.9562,16.8636,-42.3948,13.5401,-25.3879,-19.7720,74.4848,16.9097,-58.7647,-40.5145,-83.6299,8.4064,-8.1520,42.4550,70.7006,48.6387
-3835.9375,12.7670,-40.6398,65.7757,7.0267,-41.9576,39.6450,-19.8542,109.7531,-32.8022,-71.1816,23.2091,-33.2159,-72.9710,-16.2161,-97.6875,31.4274,-18.5014,-3.4170,129.8961,8.5611
-3828.1250,-73.2240,-56.1187,-63.9484,-44.9734,-97.4749,57.9311,-2.8120,200.4635,25.2176,56.8957,-32.5677,-15.8421,-128.6775,38.5739,-80.2537,85.9408,-70.3403,85.2133,183.5896,91.4673
-3820.3125,-38.8425,12.7671,10.6800,-45.6212,-21.6520,21.5632,-39.4307,200.5206,69.9678,130.3205,5.0153,-89.1126,-129.0392,-34.2878,-5.4796,13.7993,-106.8201,-21.8015,181.6409,-18.5075
-3812.5000,-20.1781,30.9168,-14.4283,-134.0178,-45.5862,-39.5599,83.2041,138.8312,84.9472,31.9841,-56.1469,-112.1360,-42.1492,-93.9101,80.5375,-47.0981,-124.0452,-110.5732,162.9419,-110.7961
-3804.6875,-73.2489,48.3310,-68.2889,-81.1590,-62.2898,-93.4345,-8.9075,120.3914,8.8335,-58.1177,-1.0621,-56.9008,12.9883,-2.2894,62.8049,8.2483,-142.0078,-24.0903,144.4890,-27.4862
-3796.8750,-132.9926,-11.9359,-57.8462,-2.9861,-49.7036,-10.0089,2.2668,131.2454,24.7267,-11.9333,-99.6747,-9.3590,24.4211,46.6260,74.3665,56.8903,-167.6640,-15.3087,48.3297,-17.1946
-3789.0625,-236.7104,-47.1811,-133.4059,-2.8040,-161.1302,-12.5850,72.4405,127.0953,85.1483,95.2470,-139.2944,24.1836,20.8551,43.5342,70.9163,90.5298,-167.3111,-14.5371,82.1704,-20.7736
-3781.2500,-128.2571,61.7334,-91.8152,-35.4707,-155.4205,-45.0173,2.7668,131.0903,86.8663,173.5801,-61.7525,28.8762,-47.5643,11.5921,38.5996,58.3162,-199.7965,-83.6150,120.1675,-95.2937
-3773.4375,-105.1722,118.2677,-109.6127,-84.5338,-208.1139,-61.8608,58.6993,149.6837,89.7695,155.5078,-188.6072,12.1680,-27.3880,-4.7627,21.8807,40.6908,-143.6820,-98.0971,104.7629,-108.5292
-3765.6250,-95.2282,128.6720,-171.5721,-38.7393,-231.9843,-86.8503,-2.5124,124.1331,76.7425,204.2878,-140.6284,23.3166,-52.3663,43.7234,-2.9905,52.9073,-98.7139,-53.7107,79.1992,-68.4640
-3757.8125,28.8416,76.1943,-42.4333,-22.8240,-101.7640,-104.7294,15.3612,31.6835,46.6614,75.1492,-48.5444,-30.4293,38.7534,-10.6934,52.2305,-1.7819,-46.6404,-142.2184,25.7282,-152.6034
-3750.0000,-7.6067,-100.8166,-46.8327,-24.4503,-106.0977,-73.1538,83.6910,27.6789,44.5608,34.4321,-53.0070,2.2782,70.3306,-13.6689,11.8914,30.9750,21.8985,-4.2752,58.7059,-6.7000
-3742.1875,-51.0359,-144.8087,-53.2295,70.9342,-74.4449,-5.5790,-67.9819,94.6721,56.2640,174.7039,-59.4601,-4.0086,-45.0938,17.3528,-31.4632,25.7264,-23.5486,90.6828,83.6807,91.2143
-3734.3750,-51.8865,-112.2337,-55.0634,33.8780,-111.2494,29.5438,2.8872,129.2193,54.1454,99.5134,-97.3545,-42.7526,-46.9675,-58.0910,-33.2773,-49.9907,-25.4482,53.1892,81.2050,59.3745
-3726.5625,-66.8713,-92.8044,-107.0482,52.6719,-126.2254,13.5161,-50.3847,148.6224,38.3661,120.1738,-77.4045,-21.6525,-25.9925,0.3009,-49.2455,8.1328,-5.4945,106.5500,99.5881,109.4510
-3718.7500,-8.2319,-104.7585,-44.4357,40.0786,-62.6173,3.0821,-98.0608,211.6336,59.4199,219.4410,-87.8500,-31.9524,0.5713,-46.7118,-59.6275,-2.1470,-52.9288,23.5169,86.5856,25.0963
-3710.9375,-112.9145,-138.0462,-120.1648,-30.8555,-101.3758,-0.7009,8.9201,170.3030,89.2899,215.3572,-126.6494,-35.6029,33.7773,-50.0872,-26.3739,-78.7846,-53.7082,58.1288,51.2327,57.8065
-3703.1250,-70.6835,-62.4242,-39.0001,10.1166,-18.2585,8.4179,-93.1988,104.8775,44.3015,150.1617,-8.5480,10.6506,5.8841,-77.5630,19.7735,-107.5254,-12.5820,97.6516,-14.2232,97.1210
-3695.3125,38.7197,11.3585,36.3254,48.2463,21.0056,46.6823,-18.1736,-4.4028,43.8578,78.0941,-81.2863,49.0560,44.1472,-111.8954,58.0665,-105.1176,-9.3027,-5.6781,-47.5274,-5.8139
-3687.5000,15.2908,-13.7024,-101.2007,58.5258,-79.5923,18.0913,64.0220,3.4650,52.7178,49.1730,-107.8808,94.6122,15.5697,-30.0852,66.5001,-23.5660,-69.8668,39.1434,-2.6799,34.0131
-3679.6875,13.5328,19.9038,-65.0783,90.4659,-41.5562,19.1488,27.8612,77.9891,52.5833,122.9103,-108.8195,58.8193,-57.3675,45.3715,30.5703,51.6295,-212.7784,1.6231,-41.1847,-5.3917
-3671.8750,-70.9494,-30.2257,-157.6986,4.6681,-133.2851,35.4559,154.9529,130.7629,140.5692,212.8879,-201.5053,1.2784,-76.0518,25.0642,46.8901,31.0623,-192.4439,-48.6560,48.5557,-55.9373
-3664.0625,-40.3173,-70.2447,-163.2236,-36.0289,-100.9375,-79.1455,149.1508,124.6323,139.3622,206.9595,-133.0964,-40.1531,-81.6334,19.8543,41.3090,62.5898,-162.9983,-90.8290,113.3952,-99.8771
-3656.2500,39.1955,-27.3943,-118.8891,-98.8697,-92.7416,-108.9032,156.1918,131.3498,88.1522,103.8696,-125.8285,-32.7344,-38.3676,27.4861,11.5679,69.9643,-190.6973,-119.1477,120.0817,-127.7099
-3648.4375,-15.5174,-11.7772,-213.8024,-83.9567,-223.8163,-93.9049,96.9880,182.8197,91.4672,155.5150,-184.8167,18.4388,-23.3538,42.8605,26.5594,122.0825,-140.6396,35.2894,99.5203,22.2862
-3640.6250,-2.0043,36.0546,-124.5227,-1.8382,-133.7133,-4.7098,-71.0233,198.4909,23.6616,134.3521,-95.5967,-38.1886,-81.1472,60.4259,-30.2642,101.3971,-129.3661,81.9417,40.1667,76.0136
-3632.8125,-18.1057,19.2644,-35.8855,-20.3657,-116.2802,84.8347,18.3141,140.5121,-22.8164,2.5255,-79.0275,-58.4640,-64.5914,2.3351,-123.7465,44.0531,-41.7391,98.9431,21.1657,106.6705
-3625.0000,22.7253,24.4103,44.6439,-50.9809,-36.9823,54.2792,-85.4491,35.4381,-76.8432,-28.4063,74.4374,-15.8291,-59.1435,9.1385,-154.3447,-23.3993,-1.2042,172.8594,26.0608,179.4138
-3617.1875,85.1986,86.1952,111.7805,-24.9776,-5.1010,84.3192,-129.6252,28.9681,-74.8906,39.2601,30.5133,15.4037,-65.1044,-33.4721,-161.3595,-29.2643,-46.0626,128.3749,-54.4416,132.6387
-3609.3750,28.5666,99.8488,-22.2201,22.8777,-65.3850,134.2023,-116.9393,41.3501,-51.7239,87.7608,-66.5602,28.4782,-89.2147,-20.2494,-148.5358,-16.2948,-33.0622,175.7340,-78.0930,178.1366
-3601.5625,46.8627,151.4160,33.6827,109.6375,-8.7898,116.9805,-207.3548,22.6284,-134.0484,-113.8559,26.2772,84.4581,-32.4298,-1.1333,-92.8211,-33.4304,-17.1469,121.0079,-96.8449,126.5751
-3593.7500,48.1404,187.9536,31.5507,109.3587,-10.2539,150.7077,-100.8215,56.8531,-115.4206,-152.5323,-49.9242,118.3897,-35.6998,-3.0777,-96.1695,-36.6212,-51.2780,85.2278,-62.6511,94.6596
-3585.9375,5.4311,144.4967,-14.5858,65.0843,-55.7432,67.4337,-182.2780,120.0857,-57.5862,93.7930,-22.1343,109.3185,-81.9750,24.9708,-141.5314,28.1824,-60.4017,110.4590,-1.4503,110.4565
-3578.1250,36.3761,68.6868,18.9267,-11.5329,15.4034,27.8081,-150.0863,153.9759,8.4763,237.7662,-25.6917,32.8903,-121.6019,-15.3301,-145.2532,24.6343,-101.8725,-1.6530,26.4107,-3.6867
-3570.3125,-26.3144,40.2268,-49.2047,-4.8007,-89.1108,32.5339,-34.5315,121.2232,0.8312,132.0785,-93.9012,74.8040,-116.8694,26.7071,-140.6318,-6.5704,-24.9904,39.5844,-2.3753,40.9181
-3562.5000,43.9514,109.7158,-11.3887,63.8878,-13.6944,-2.7895,-107.0259,11.4268,-90.7104,-50.6548,17.8483,76.6665,-78.1899,-8.3067,-139.0718,-42.8283,43.8549,-33.2068,-40.2015,-29.1295
-3554.6875,148.4274,143.4002,58.6382,96.7835,56.9082,-42.9143,35.6707,-66.1613,-39.0048,-18.1779,-23.1954,72.7255,-45.3194,-122.1272,-143.3293,-119.8876,76.9033,-105.7829,-42.8204,-98.5673
-3546.8750,176.2351,205.4203,11.0045,123.0305,9.8332,-16.6808,24.7293,-77.3852,-53.1221,-29.3464,3.0964,99.1367,-56.0983,-58.6067,-154.2446,-56.6042,138.3030,25.0120,-17.0798,30.4091
-3539.0625,234.8297,263.2355,146.1670,144.0930,35.5415,81.3606,-60.4121,-89.7952,-107.2153,-152.7106,65.1922,50.3493,-142.0810,-107.2880,-129.3684,-105.5210,124.5065,46.6237,-66.5418,59.6866
-3531.2500,135.2788,197.8986,76.1905,114.0168,-107.9101,121.2549,-94.6968,-87.3500,-77.5540,-76.2367,-5.8589,53.4044,-139.2069,-141.1297,-89.6439,-176.5925,164.5635,156.0795,-133.1603,165.8994
-3523.4375,124.5812,186.3970,30.0699,241.7863,-80.5342,184.9937,-178.1257,-97.0545,-92.5102,-85.9259,-15.0502,44.3047,-148.4807,-113.1290,-63.0718,-148.8199,187.4844,248.3939,-145.9211,260.6802
-3515.6250,175.7463,236.7368,81.8131,256.4046,45.6809,273.5726,-53.7064,-119.9007,-126.4378,-255.7625,-37.3775,59.0461,-60.9062,-98.2819,-84.6596,-134.1991,167.2574,192.5623,-96.8247,214.4851
-3507.8125,-3.4489,161.7171,-35.7959,180.6785,2.5112,266.8068,-59.6319,-53.0813,-72.4457,-78.9506,-80.0608,89.4356,-66.6839,5.2109,-91.6003,-30.9268,91.6826,257.3924,-67.0707,270.1885
-3500.0000,-72.9074,92.4387,-30.6628,180.7171,8.0704,270.7908,-165.8075,24.4907,-29.4131,108.6122,-75.9900,20.5791,-136.7116,46.4557,-87.7993,-25.9046,-14.1351,185.9896,-103.5576,193.5614
-3492.1875,-70.0162,59.5040,-69.1726,112.1123,-140.0341,233.1200,-93.6264,59.4186,-7.6485,143.5372,-187.5738,19.0681,-100.3899,46.0443,-125.6569,-27.5365,23.3963,116.9348,-101.6895,122.1610
-3484.3750,0.2151,57.9069,-36.3428,109.8552,-217.8120,154.7967,-98.0897,17.7086,-68.2757,-44.1804,-80.8098,14.9126,-67.7164,115.9791,-93.1746,5.1835,56.2824,8.2452,-69.4675,11.5132
-3476.5625,128.8528,9.7140,92.8952,-8.9945,-161.1983,26.8741,66.8399,-37.5977,-30.7865,-172.5068,11.3628,-39.8420,60.3584,60.3133,35.7006,-12.6989,77.5721,-216.0451,-12.8429,-215.3707
-3468.7500,226.1539,1.1792,112.7876,-88.1904,-140.9467,-100.4018,160.4278,-54.2503,22.6997,-117.1997,104.1861,-18.9461,154.0921,80.2853,128.2230,43.0585,68.5158,-189.6821,-21.5689,-201.0515
-3460.9375,259.8186,33.0023,146.0273,-92.0355,-144.3641,-141.3341,9.3672,-58.5560,-34.1315,-121.5543,210.3651,-22.7027,150.1741,113.6037,124.0856,76.1642,-39.1823,-193.9540,-61.9334,-212.7954
-3453.1250,157.6937,2.0231,0.4779,-159.6824,-290.5944,-177.0708,46.5179,-95.6590,15.7289,-47.7107,27.7439,14.7322,76.4605,41.1127,161.1486,40.4627,-107.6822,-228.0203,-60.0923,-254.2932
-3445.3125,100.0132,12.4943,-58.6309,-113.8819,-349.4000,-236.3550,-12.8667,-81.2984,65.9222,149.5843,78.5676,64.6193,17.1967,92.0694,138.6535,54.2110,-26.7268,-146.6165,-48.7921,-180.1054
-3437.5000,183.6882,95.3273,65.6142,2.2818,-186.8717,-148.2889,1.0837,-31.5801,53.5444,127.2210,129.7535,42.8641,32.2803,-3.6245,79.4982,-4.6891,55.5845,-99.8563,-74.1391,-118.5072
-3429.6875,175.2262,52.0189,54.7134,-6.6945,-160.5166,-85.3719,26.8851,-42.0075,-5.9750,-31.2961,119.7864,-5.0409,21.2120,-50.4839,-5.8166,-51.7525,186.7525,-5.2428,-13.6324,-8.3393
-3421.8750,211.5171,-18.5447,134.5574,-6.9125,-44.4362,-80.7095,-114.5643,-147.6784,-108.6819,-173.0605,235.5727,-72.1973,26.8862,-44.6028,-36.4004,-46.0732,257.6866,64.1370,-49.3589,67.0165
-3414.0625,187.5193,-9.4123,110.1097,-33.4245,-32.6628,41.6464,-102.3044,-135.6441,-78.0144,-88.1237,101.0642,-96.6647,2.2592,-33.0368,-61.2930,-34.7027,266.3235,143.2166,-41.3700,148.8159
-3406.2500,122.0766,-39.7327,6.2142,-29.3894,11.6478,158.5514,-96.4758,-56.0532,-78.6796,-82.6456,70.1049,-126.5880,9.1785,11.0696,-92.6428,-27.7973,269.5190,251.8516,-2.8208,263.2433
-3398.4375,223.4429,-44.2481,113.1222,-69.5497,192.7507,192.2526,47.1495,-96.6622,-123.6397,-343.3788,103.9575,-203.7122,41.8991,-66.0326,-59.1943,-68.0944,229.5201,106.2927,-8.4679,130.1150
-3390.6250,304.8670,-34.7094,46.0866,-130.6628,161.8918,124.0034,126.8324,-164.2179,-108.8760,-374.0621,73.8560,-197.7962,85.6785,-96.0939,-16.7019,-98.3442,239.5654,44.7822,0.9389,62.1451
-3382.8125,480.1837,174.7257,47.9344,-97.8827,127.9098,-20.3498,18.4194,-198.8702,-103.2048,-225.8332,112.6466,-158.9820,50.3591,-57.2524,-14.3112,-59.6889,201.5122,-28.8149,-37.7465,-29.3196
-3375.0000,739.1580,467.8041,60.4327,-122.4473,66.5646,-82.0591,30.6587,-150.8629,-113.9835,-177.9592,51.0925,-146.5216,25.6814,-118.7637,-76.2739,-84.3875,142.1042,-159.7584,-62.7725,-168.5271
-3367.1875,828.2304,626.9814,-66.9783,-69.9118,-97.7073,-136.6647,13.0098,-94.7441,-122.4977,-121.9880,-3.3657,-89.9634,-101.8988,-62.1837,-131.1416,-64.9923,124.7934,-106.5998,-80.6940,-122.8897
-3359.3750,1019.2582,816.1110,22.5563,13.5781,-45.0468,-157.3308,-7.6874,-115.6703,-193.8343,-290.0643,50.1384,-37.4601,-86.5264,-119.6570,-115.0705,-122.6518,67.4416,-235.4884,-138.6527,-250.7348
-3351.5625,1078.7480,769.6893,40.5591,-68.4854,-62.9425,-212.5542,47.0744,-171.1457,-186.9485,-418.6996,68.1008,-55.5121,79.3023,-138.6917,13.4509,-177.8622,91.5486,-282.9283,-80.1594,-301.9083
-3343.7500,1014.5264,669.5681,46.8600,-135.2495,16.4356,-317.4780,-56.8636,-239.3213,-147.3366,-267.0294,148.3629,-86.2552,85.4286,-132.4271,55.2599,-135.7707,165.9638,-208.0440,-41.3612,-234.8837
-3335.9375,948.4452,672.6007,125.3095,-61.8500,94.9459,-276.2476,-16.6661,-272.3347,-138.4693,-263.1910,115.7711,-118.8463,89.6955,-238.0204,22.2079,-205.5341,239.5217,-170.9972,-109.4158,-186.6873
-3328.1250,689.8539,590.1287,36.2524,30.0515,42.9260,-144.5139,42.0387,-287.8329,-135.6959,-315.8424,63.6745,-59.9403,0.4596,-216.1223,6.6514,-219.8073,261.5789,26.5545,-122.9697,21.9845
-3320.3125,442.2067,481.5927,74.1493,97.9037,153.8403,-70.8318,5.6922,-251.3786,-112.8150,-242.5461,64.5372,-23.0923,1.1777,-179.2762,-29.9600,-183.1295,188.5993,24.0671,-56.5667,27.2120
-3312.5000,246.9129,214.3980,47.4138,6.1083,201.0989,13.1971,163.6925,-167.5734,-73.8235,-305.9073,0.7578,-11.9044,85.2483,-132.0876,-19.2202,-99.1064,131.9810,1.9316,63.1917,14.7781
-3304.6875,93.9046,-8.5117,31.9704,-6.3830,258.6342,34.5242,146.9948,-110.4621,-57.3753,-248.9629,58.2759,-65.4174,105.6187,-37.6048,-36.1851,-41.7823,119.6682,59.1106,84.2572,75.6177
-3296.8750,12.3316,-161.9830,88.9819,-20.4239,279.6093,91.3007,93.7388,-89.8932,-36.7845,-155.5572,79.2506,-81.4917,89.4408,-17.6766,-16.6991,-22.0097,35.8077,45.7471,0.7807,60.9057
-3289.0625,-184.8571,-184.0663,-11.6062,-7.0679,104.9742,100.4804,102.8973,-80.9133,-12.4763,-72.7518,14.6198,37.8297,61.6678,65.6467,-6.8162,61.1651,13.3382,128.7836,-57.2915,135.9693
-3281.2500,-186.7102,-221.8060,23.1507,60.6369,140.6738,62.0041,-9.5928,-82.5776,-55.2023,-111.5902,87.3435,73.5071,97.2367,138.3256,27.4087,133.6948,-24.7809,90.1763,-96.0069,93.6203
-3273.4375,-245.6178,-246.6032,29.8676,34.2897,146.3195,67.4713,106.8641,-40.2865,-22.5849,-142.4764,20.0213,79.1322,139.7549,106.9481,33.5791,102.1713,-14.9537,28.5055,-51.7620,37.6312
-3265.6250,-340.1521,-272.0296,1.9796,43.3265,81.3469,3.3324,115.7381,-31.5894,29.4754,-23.9673,65.0960,88.1556,148.6808,152.9687,42.1537,111.0453,-5.7260,37.2407,-8.1020,40.6729
-3257.8125,-345.5145,-243.2829,33.2866,36.5612,113.5639,-38.6122,110.8139,73.3061,48.9906,7.7415,23.3795,83.3774,143.8108,148.1917,35.9334,106.1250,-82.2945,-39.8188,54.7729,-34.8188
-3250.0000,-434.0985,-261.7596,-62.5998,52.5937,-19.4326,12.2374,161.6996,161.0079,47.7856,21.2697,-72.5401,134.3940,120.7452,162.2058,-60.4814,156.9991,-67.0630,45.9196,105.4559,55.8114
-3242.1875,-388.1543,-287.7060,23.0559,61.1824,66.1003,23.6400,26.1381,173.2706,-6.2605,-3.6583,50.0920,109.9599,59.2273,174.7659,-122.3511,132.4225,-57.2731,90.2289,149.6978,105.7141
-3234.3750,-401.1649,-370.6087,81.7679,12.8294,124.6740,45.0986,84.6247,157.5896,-0.6941,-93.5513,34.7749,57.5743,80.7561,48.3710,-64.1762,42.8945,-35.4300,75.5968,100.9938,98.8357
-3226.5625,-451.2421,-387.5677,63.4248,66.4242,106.1769,63.5096,66.0673,101.8650,-20.8105,-112.4898,127.4046,76.1412,99.2356,30.9214,-83.0602,25.3151,18.3667,199.9312,83.2485,224.7854
-3218.7500,-326.7405,-333.9370,229.6846,119.6276,272.2714,119.5276,-61.9030,46.7475,-59.0603,-93.8032,183.6434,95.3032,155.3085,13.0678,-101.3564,7.3391,70.7707,181.8820,30.1152,209.2345
-3210.9375,-427.4569,-295.5208,118.7509,157.6320,197.1654,191.3524,-27.0676,82.4364,-12.3777,14.6773,34.6790,131.2563,117.1821,48.0059,-101.8454,42.1507,74.9705,255.6342,-2.2133,281.0551
-3203.1250,-496.6022,-293.5292,10.4056,229.2314,162.6452,230.7741,-97.6326,84.7257,-28.4467,16.7535,0.3169,132.8018,8.6621,87.5412,-100.7292,81.5632,5.7712,326.0002,-0.9316,350.6211
-3195.3125,-472.0600,-305.8529,-3.2330,181.5311,148.8297,253.8954,-38.4992,70.7261,-31.1535,-34.4638,-50.3402,83.0386,31.8474,73.7689,-77.9200,67.6795,-41.7364,209.0673,-48.9376,232.7440
-3187.5000,-532.5887,-297.2390,-68.9275,119.7773,81.9526,149.9695,41.5934,39.6942,42.6215,82.2786,-79.0549,89.2235,37.9873,79.9459,-35.1685,73.7488,-67.2991,216.0887,-5.9813,229.9208
-3179.6875,-486.1416,-250.6443,-56.6305,95.0246,132.0581,90.0441,55.6809,53.6741,96.7477,132.0362,-66.7683,29.4080,52.1175,20.1278,51.5769,13.8192,-126.8587,121.1189,39.9922,130.5382
-3171.8750,-492.3679,-293.7131,-141.9786,16.6171,45.5063,39.4675,153.1272,151.0180,187.9599,229.1579,-188.1361,-19.0675,75.5981,7.6473,111.6724,1.2349,-100.0747,7.4949,102.3275,12.7474
-3164.0625,-460.3729,-332.5547,-182.0855,-57.5505,5.1876,-73.8622,111.8381,219.6200,259.8727,445.5343,-119.2526,-97.2971,108.3308,76.4104,144.0241,106.9019,-209.0335,-101.8776,167.9310,-113.3055
-3156.2500,-430.7431,-374.7622,-80.5353,-134.0711,33.5141,-155.5528,103.1983,284.8764,248.0821,400.5774,-53.7137,-105.8848,136.7120,67.8172,172.0328,98.2127,-286.3468,-214.6141,161.1987,-227.2136
-3148.4375,-466.3370,-340.1901,-158.1913,-170.8068,-117.3767,-197.4515,135.3721,243.9400,221.2094,358.4364,-94.3827,-36.6817,95.8942,101.0164,129.8552,130.3199,-251.8693,-109.5583,159.2690,-125.6093
-3140.6250,-355.8645,-160.5372,-113.7595,-26.4452,-73.1908,-189.2567,-3.3582,214.1085,108.8822,292.4097,-49.9538,43.6218,29.1793,145.3218,26.7861,175.5412,-213.2921,-72.3902,21.4359,-87.0402
-3132.8125,-270.1156,-5.5962,-64.0245,57.2207,-60.7124,-103.7565,10.2036,153.5860,47.4191,157.6900,-74.2233,93.2259,6.7675,83.9258,4.0220,151.0652,-93.4192,-92.9176,-104.1046,-100.7119
-3125.0000,-228.1421,0.5816,-21.0461,98.1287,-18.0047,-134.0028,-57.9908,49.3167,3.1767,89.2372,41.7607,63.0748,-24.4010,89.7766,9.5113,119.8403,-17.2910,-52.1881,-133.3893,-58.9388
-3117.1875,-151.9413,-100.0081,94.1916,67.2892,59.9405,-129.0028,-14.9608,-17.7030,2.4042,58.0444,47.0063,-3.8271,-55.3258,22.8747,-21.7491,51.8630,-11.9077,-48.1987,-129.4258,-46.9144
-3109.3750,-222.6652,-171.5134,19.5401,32.5503,-52.0213,-94.8895,91.1719,-20.6218,33.3912,55.9397,-27.6467,-6.6360,-58.1480,57.0638,-24.9115,85.9848,22.5748,21.8987,-95.3589,24.2483
-3101.5625,-198.4185,-113.0460,-27.1162,53.8155,-24.9900,-30.7705,8.3032,5.4600,28.5026,82.8463,-1.2944,-16.4482,-66.9638,84.2516,0.9242,77.1058,-25.9326,43.0149,-72.2815,42.2790
-3093.7500,-226.9505,-106.3473,-21.5182,-8.6715,-56.6981,-25.4019,86.6844,10.7976,105.9676,124.0083,-68.6894,-85.0238,-62.5216,15.6819,79.0176,8.4775,15.7989,14.3787,3.0537,14.7278
-3085.9375,-266.1228,-146.2709,-100.5320,-49.7721,-99.0152,-67.6263,81.4804,5.5445,145.1282,228.5751,-36.6979,-127.2019,-104.6759,46.5081,73.5184,39.2494,45.9189,79.1434,67.8008,74.4807
-3078.1250,-200.5748,-187.4595,-30.8034,-56.1252,-65.5865,-35.1049,5.0224,39.0510,110.7042,225.9053,-40.9541,-92.6355,-107.0838,44.0846,33.7696,73.7762,-30.2153,38.6554,62.3093,34.9221
-3070.3125,-260.6000,-212.2137,-94.6220,-116.0390,-130.7130,46.8614,50.0207,84.0161,101.1788,196.7020,-141.7590,-47.6219,-99.0387,126.1106,4.4744,118.7530,-19.9083,83.6061,72.2789,81.3120
-3062.5000,-220.6651,-208.9846,-88.4472,-111.9540,-87.8496,16.8288,-16.9761,126.9883,65.2244,166.4981,-62.5644,-5.6008,-92.9960,169.1384,-25.8188,161.7361,-86.5968,16.5772,145.2543,12.6329
-3054.6875,-145.1044,-169.1209,-12.6117,-143.2115,-84.3330,-53.5470,96.6680,166.6114,107.8401,168.9221,-58.7109,-38.9280,-89.2966,61.8121,-23.4539,91.3656,-116.6373,-119.8022,184.8828,-121.1928
-3046.8750,-88.7811,-78.4855,-63.9835,-122.6818,-175.0306,-106.1183,80.1236,151.0407,96.8516,189.1600,-38.0704,17.5364,-105.7926,82.2832,-39.2754,74.8009,-95.8851,-29.3843,170.3274,-36.8435
-3039.0625,-12.5028,68.1219,17.6301,23.8350,-56.7377,-97.6959,-21.4200,86.4845,-6.4316,14.4323,7.5654,63.9932,-97.2912,91.7565,-31.0860,47.2430,-55.1404,-23.9616,35.7882,-26.3167
-3031.2500,-88.3571,25.6069,7.1388,51.2407,-65.5483,-70.3740,41.9467,1.8411,-14.3938,-68.3779,-2.9096,127.3366,-33.8866,44.1224,-4.9873,36.5821,43.4946,-30.6475,-6.8441,-29.6841
-3023.4375,-111.1427,-67.8254,59.7431,28.7438,21.7230,-128.9515,-53.5871,-56.7003,-1.7688,18.9265,86.7131,68.7792,-19.3818,22.5816,10.2140,52.0192,56.2361,-89.2221,5.6318,-91.9439
-3015.6250,-100.1514,-93.4699,107.1604,-32.9473,69.7976,-118.7229,-5.3275,-82.4383,20.0518,30.0435,24.1467,6.0149,-8.0831,-77.1642,21.2118,-47.7441,-4.2188,-79.9921,-20.0871,-79.5126
-3007.8125,-181.9471,-103.8901,20.8257,-44.3998,-17.8816,-95.2376,55.1911,-58.9147,51.1730,90.4079,10.8260,-7.5135,-21.5325,-53.6645,7.4684,-61.2573,-16.4300,14.4897,-32.5425,13.2291
-3000.0000,-99.0418,-127.6015,144.2348,-68.1147,69.1895,-82.9953,31.4530,-45.6374,71.0657,102.5353,134.2625,-104.3025,28.7697,-77.4156,57.4839,-85.0165,-74.8910,-45.2661,14.7651,-46.3128
-2992.1875,-101.9738,-202.1346,134.8502,-70.6337,58.4736,-17.5454,131.9168,-17.1559,66.7175,19.8763,14.9032,-76.8933,55.2785,-48.9705,46.7132,-19.5750,-42.1696,-47.8274,11.2676,-42.0291
-2984.3750,-129.1471,-158.8817,32.2555,7.6393,-6.4491,-10.2920,-43.8147,-9.8669,15.9883,27.0187,-13.6645,4.3172,-9.4071,31.2780,53.7519,59.6667,-69.6513,64.4130,-15.4240,63.6905
-2976.5625,-91.6001,-86.8957,-1.5903,9.6587,-78.6192,-8.2917,-78.7980,64.1767,43.3902,101.9252,-85.4780,6.2728,-81.3437,33.2694,55.5475,61.6559,-102.3857,-38.6020,20.6478,-42.9600
-2968.7500,-107.2294,-103.0763,-60.5921,-41.4760,-247.9454,-67.4418,-26.9227,153.0816,80.5084,153.6989,-107.4498,20.0765,-103.4284,48.1026,34.1991,114.4992,-83.2807,-53.7805,111.5790,-61.6564
-2960.9375,-37.0964,-68.4701,-59.8047,-77.8188,-247.4859,-103.7965,-100.2549,189.7895,114.9623,301.2855,-69.6230,-16.3223,-176.7158,85.7426,34.6602,114.1503,-154.3795,-90.1585,144.3189,-106.4201
-2953.1250,-126.4440,-17.3266,-154.4698,-61.6238,-342.4744,-87.6093,-47.0443,243.0466,121.3592,317.4315,-201.2511,36.8194,-197.4517,101.9284,13.6815,130.3517,-207.9397,-39.0009,91.6210,-56.2680
-2945.3125,-144.9803,33.6425,-208.2967,-10.5881,-359.6280,-31.5738,-64.9809,189.1594,40.3377,189.4432,-144.0396,92.8078,-214.3375,156.9625,-40.4383,149.4062,-191.6553,48.0093,37.7805,32.9656
-2937.5000,-85.7574,56.3931,-71.3368,47.2473,-185.9900,-4.7376,-38.1279,105.0802,-17.6364,68.2812,-81.0285,81.5997,-150.4325,72.8015,-87.7505,102.2699,-167.5743,-35.1761,-45.2550,-40.4012
-2929.6875,-154.4252,-46.7208,-72.2370,14.2252,-188.2145,30.2570,-3.1123,68.1664,33.4522,140.2914,-81.8876,44.5450,-78.3796,-1.2090,-52.8975,28.2889,-131.3619,36.7778,-43.1355,32.5176
-2921.8750,-153.3390,-81.0537,5.6467,16.0015,-73.6538,-1.9458,-72.3019,-0.9378,36.2752,145.1062,32.0501,-24.7082,-0.5309,-33.4128,24.7610,-3.8810,-94.3476,3.5381,-77.2091,-2.7883
-2914.0625,-53.2271,-122.3486,70.5911,-61.1743,-8.0386,-10.0963,66.5489,-45.9907,61.8339,63.9752,25.0460,-69.9217,28.3708,-78.5760,89.4748,-49.0018,-100.2857,-73.6574,-83.2269,-77.7808
-2906.2500,-54.6901,-124.2131,32.9868,-97.9106,-9.9743,-48.7922,-8.1422,-84.5940,34.2742,62.3083,95.4944,-34.6933,26.7279,-43.2963,87.6500,-13.6790,-101.7736,-5.3986,-49.7862,-15.2685
-2898.4375,-19.9354,-54.8398,108.6343,-63.4004,28.3475,-45.2330,-115.5906,-80.9517,-32.7694,-8.1021,136.1957,-31.2186,28.3327,-39.7657,54.0792,-11.1047,-102.0114,-39.8783,-85.0952,-47.2161
-2890.6250,-46.2164,-11.4780,-30.7204,-54.8934,-37.3230,-38.6609,-35.0428,-74.3023,-17.2443,-37.5101,-3.1082,-24.7438,35.9426,3.7618,60.5161,-3.5212,-58.2644,3.6425,-41.4079,-3.4985
-2882.8125,-10.2391,23.1703,-100.7844,-54.0846,-34.6966,-35.7709,-105.2059,-34.3374,-7.8897,38.3963,-1.1164,14.0398,-34.1492,42.5988,64.2574,35.3763,-93.2089,2.4797,-6.4087,-10.5712
-2875.0000,48.6067,-57.2952,-75.9424,-100.3710,-46.1576,-10.9747,-7.4765,26.5311,54.8985,100.2132,-48.2216,-33.2793,-9.3393,-5.6705,88.9070,-48.8318,-103.2608,-77.7898,-16.5023,-88.9490
-2867.1875,8.3111,-132.8880,-121.2174,-176.7776,-128.7250,-56.2833,-15.8312,19.2997,85.0913,164.9329,16.5608,-79.7123,-17.6273,22.9504,116.4729,-21.1494,-73.4231,-83.1728,14.3230,-101.1994
-2859.3750,64.8316,-76.6545,-21.6513,-224.3439,-65.4482,-139.7429,-99.3350,-28.0739,68.9827,155.5210,79.1928,-126.3053,7.9252,-24.5806,179.8938,-31.6144,-121.7387,-201.7048,-34.9868,-226.2369
-2851.5625,44.3822,7.6199,-43.0306,-209.8632,-162.1173,-162.1471,-47.7897,-13.3836,51.8805,133.1760,19.8725,-74.8520,-13.4760,-10.0613,121.3719,-17.0210,-142.0163,-152.2021,-54.2405,-176.5479
-2843.7500,89.8490,88.8321,-31.4750,-94.4428,-149.8521,-112.6002,-146.2921,-1.7336,-6.7997,108.8012,106.4917,46.5592,-37.9276,75.4158,59.8144,68.5306,-131.3521,-106.7536,-44.5456,-131.3103
-2835.9375,158.5310,121.2889,1.3227,-25.7764,-117.3374,-42.8105,-76.5621,31.1638,33.7187,141.6960,65.3575,42.2239,-41.1302,-1.8574,55.5286,-8.6641,-98.4550,-144.0605,-45.6150,-161.9268
-2828.1250,59.6808,22.2510,-101.3858,-54.6078,-183.3371,-35.5183,-32.3406,2.5680,88.3386,186.1007,-0.2823,-22.6136,-33.8359,-30.6369,99.7551,-37.3571,-56.0730,3.1293,30.8029,-13.9290
-2820.3125,22.6159,20.0173,-98.2908,13.3687,-70.5376,41.5822,-66.3335,6.7730,23.4092,6.3092,3.8859,-93.6472,-30.7507,-64.6131,140.7721,-34.2426,-93.8819,71.1289,-40.9758,64.0625
-2812.5000,-6.8141,26.4303,-56.5353,19.9988,81.9181,156.3441,86.3154,-62.3723,-32.5578,-245.8299,-28.2967,-88.0276,84.9818,-95.9407,145.4400,-102.4792,-17.0437,112.7798,-105.1022,121.2009
-2804.6875,-6.8882,-44.7706,17.5996,20.0216,228.7645,156.5176,49.3639,-208.1181,-44.8807,-208.5630,118.9082,-15.0047,158.1115,-95.8698,108.5203,-102.3134,54.1876,147.8433,-69.8231,155.4563
-2796.8750,-50.5996,-88.5817,86.1290,-23.5599,334.0207,152.0948,43.8115,-212.4650,6.7927,-103.8867,40.5198,-56.5864,190.6418,-138.4044,141.0165,-107.7455,-24.1811,140.3040,-42.1432,147.7761
-2789.0625,-176.5886,-144.6471,-9.5960,-80.3939,274.0303,203.4347,58.0170,-162.0582,19.4540,-89.4581,-18.1305,-79.4177,167.9238,-124.1938,118.2758,-130.4245,-9.8168,189.5097,7.2850,199.9500
-2781.2500,18.5336,-90.5701,47.8161,-25.0844,258.1849,187.9290,-141.6357,-141.4983,-44.7308,-104.8584,76.3605,-132.0950,78.3489,-139.8267,65.6936,-145.9470,44.6947,67.8711,26.8680,78.4204
-2773.4375,105.0368,-108.0959,61.6356,-79.3808,160.7472,126.8250,-200.8921,-54.5348,-59.0847,-126.8448,53.2553,-81.3790,18.1796,-162.0600,42.5168,-131.0662,96.5925,-21.3873,113.8524,-10.8334
-2765.6250,-32.7351,-210.8805,-8.8031,-75.9398,54.0517,57.4683,-234.3948,23.1860,-27.4597,-14.0832,19.8920,-4.9159,21.7578,-85.5398,9.1028,-55.4243,135.2311,18.0961,188.5959,25.2155
-2757.8125,-88.0809,-196.2153,47.2010,-96.0532,71.7992,39.5604,-215.4619,78.3536,22.3143,42.1311,1.9756,-23.0006,3.7768,-67.5651,64.1488,-73.3242,80.3147,-107.9783,203.7876,-102.2871
-2750.0000,-122.9391,-231.0424,-30.2947,-165.6677,-4.9569,-0.8497,-72.0328,113.0249,72.7792,75.8549,-38.4483,-62.5794,0.2974,-70.0979,61.7040,-39.7241,80.8855,-72.5608,239.4693,-68.3022
-2742.1875,-36.4696,-144.5068,-7.4517,-78.9289,17.6300,-14.9037,-160.2689,61.0540,35.4581,97.9500,57.4742,-77.7981,-50.8379,-85.2724,10.6070,-53.7661,133.8048,-19.7828,186.5020,-16.0470
-2734.3750,54.7772,-124.1660,88.1910,-57.3913,76.0205,43.8438,-64.7135,10.8940,11.1039,-26.1345,80.1886,-129.2186,-65.1800,-208.6470,-40.6819,-178.0047,189.5141,-69.2209,172.3418,-52.0966
-2726.5625,5.6434,-172.1816,36.4661,-72.2170,60.0514,29.2411,-43.4989,-78.6069,6.0536,-78.5543,101.5352,-107.9927,-6.8809,-187.3774,17.6935,-192.5918,175.8659,-48.0153,158.8411,-35.4386
-2718.7500,68.4858,-145.1896,104.7301,-78.0352,166.0675,-12.3628,-11.2957,-120.1035,-27.0172,-228.9566,133.8822,-149.7635,61.4044,-157.1067,86.0663,-162.1744,134.2236,-125.7953,152.3367,-112.4971
-2710.9375,31.6233,-145.8818,63.3061,-149.5420,160.3917,19.3471,130.1956,-124.3002,-14.8939,-271.0573,55.5253,-117.2312,129.9868,-160.5510,80.7436,-129.4649,131.8760,-57.2756,151.1207,-42.6666
-2703.1250,-7.7133,-45.0202,25.4265,-83.4961,160.2719,18.6227,56.2301,-161.9496,-25.6736,-197.6096,128.7163,-81.1440,56.1179,-125.4470,43.9727,-93.2076,94.0826,9.8070,147.4520,19.3769
-2695.3125,41.0787,3.9868,43.7019,0.6972,177.3188,74.0516,74.4069,-143.4527,-29.9476,-217.0106,36.0581,-26.9104,37.4004,-144.1921,-11.6398,-148.8004,108.4344,-10.9638,197.9285,6.5248
-2687.5000,-19.3550,-21.2079,-18.2311,81.6831,79.1614,122.2897,122.3855,-94.1540,-6.2835,-167.6050,-25.8130,96.1215,-24.5137,-95.1417,-73.4421,-99.5869,224.5726,140.0682,243.2021,162.6881
-2679.6875,56.4397,19.8536,29.0736,157.9264,163.2496,206.7909,59.5964,-46.5957,-59.6877,-229.9312,21.5608,106.4058,-50.1822,-47.8384,-98.9923,-89.1213,194.9506,146.3604,178.7223,173.8571
-2671.8750,61.7686,60.4734,-42.0709,92.7213,90.8925,282.8569,98.3523,29.5195,-101.0857,-336.7039,-86.5231,108.2399,-48.3038,-8.9885,-96.9857,-13.1062,129.8659,116.1921,113.7863,143.2231
-2664.0625,-1.2761,68.7549,-106.5784,66.1668,26.1766,218.5742,-3.2447,38.2860,-113.6242,-255.8250,-77.9629,80.7378,-39.7806,73.5180,-124.3239,105.5643,33.4323,89.6770,158.5001,106.1914
-2656.2500,11.8220,-23.7970,-19.9240,-61.2287,76.6187,85.4440,10.2948,52.1969,-66.0989,-167.8095,-27.2454,20.3973,47.8888,50.1746,-74.5064,83.3913,-23.8458,-37.6993,172.3638,-28.4104
-2648.4375,-35.6848,-0.9333,-108.8641,-38.2281,-13.5378,32.7098,31.2411,36.5033,-48.3799,-109.3950,-79.1351,78.4617,31.9591,34.2285,-52.2783,104.6143,70.2647,56.3150,54.6213,60.0748
-2640.6250,56.9385,127.0838,-44.6693,124.9247,51.4480,61.1318,-88.6725,-9.0386,-104.8166,-117.8139,-51.8792,105.6762,-50.8287,62.4403,-98.8987,21.9936,92.5200,78.4945,-63.9754,85.4533
-2632.8125,99.1964,99.7632,33.1726,132.7304,92.0846,102.2145,-46.9414,-40.9164,-85.9167,-150.5693,-10.9849,36.5376,-45.9702,-80.6973,-93.8636,-46.9701,135.4091,-19.6860,-20.9263,-4.9308
-2625.0000,71.4922,73.5040,79.0554,35.5804,137.7618,0.3479,-38.1566,-105.7442,-43.4933,-67.2719,71.9492,-27.5407,-1.0678,-108.7863,-84.7715,-74.8792,214.3419,-80.8244,59.1709,-70.0129
-2617.1875,62.7335,134.2134,144.8906,-8.6149,240.3906,-43.5761,27.5625,-112.6304,-16.8923,-74.0183,64.8423,-35.6630,65.7742,-189.9312,-18.7232,-155.8459,100.2287,-160.0176,15.2148,-150.9457
-2609.3750,-74.3936,103.5778,0.3786,-39.1623,168.6716,-3.8458,140.9314,-72.8669,28.4376,-71.1084,-79.6247,-32.1324,68.2637,-113.4313,57.9814,-116.1621,33.7552,-15.5578,-16.0907,-9.2249
-2601.5625,-100.3553,43.1416,14.0519,-29.5063,182.1487,47.0945,80.4941,-59.8982,50.7946,-20.9868,44.1002,-92.3933,117.9448,-99.7236,144.8860,-66.2723,-26.5196,-4.8820,-41.1942,-4.2110
-2593.7500,-65.7798,-27.7345,121.2832,-99.2976,215.1947,43.5982,150.6039,-99.3788,90.2781,-23.3278,77.3778,-170.0998,188.1743,-177.4700,215.3474,-105.8309,8.7498,-75.6593,-75.7543,-74.2127
-2585.9375,-71.4077,37.1978,42.3154,-34.2957,137.0486,38.9117,71.5151,-104.0664,45.5951,8.1222,35.4511,-64.0016,73.2107,-71.4164,100.6157,-36.5954,38.8222,-10.6348,-45.5162,-10.8631
-2578.1250,-63.1399,153.0441,57.2433,45.6083,113.8130,90.1302,-61.6892,-15.8624,-25.9325,-13.5228,-23.5774,-12.9999,14.1410,-20.4601,4.7855,-22.4560,-21.2041,-0.7063,-71.3858,2.7920
-2570.3125,-151.1768,135.5968,-75.1302,-6.7899,55.2831,143.0522,63.8131,36.0393,-11.0880,-108.4725,-118.9128,-34.3076,28.7716,-41.8062,19.6670,-7.6096,-38.5413,-18.0898,17.4466,-10.0021
-2562.5000,-106.4767,74.9041,-27.7651,-67.4423,103.4989,80.7254,75.0660,10.6943,36.7428,-59.6637,-34.5034,-96.8612,77.1544,-67.3991,68.3078,-33.0086,-29.1262,-78.7146,133.0256,-73.4794
-2554.6875,45.7293,87.7310,22.1085,-89.5803,79.2224,56.9001,197.8044,60.8488,97.3177,-10.3581,-57.5870,-83.9145,53.0319,-128.4883,81.4461,-92.9065,-16.2125,-135.8420,146.0894,-130.0177
-2546.8750,-37.3181,145.3365,-100.2708,39.0437,-80.3156,81.8341,112.2899,85.7490,90.2995,125.6861,-106.9290,50.7985,-33.3457,-30.8236,-4.6681,-32.0534,6.4432,27.7828,98.8923,28.1005
-2539.0625,-11.8688,241.4666,-33.1608,135.1793,-50.3617,112.2734,-4.7391,116.1485,40.7784,156.2417,-113.7756,81.0200,-39.2364,-36.6552,-84.2854,-37.6955,-37.3984,-52.0831,19.1907,-50.2773
-2531.2500,-41.4657,177.5672,-31.0974,106.2718,-85.4555,151.6665,70.1773,118.5112,45.6490,47.7531,-148.6781,83.1908,-1.1840,-71.5420,-8.9538,-35.3881,3.6968,-81.0097,-9.5591,-75.7552
-2523.4375,-16.0614,168.6927,-40.0420,97.3683,-21.5588,106.0713,24.0893,72.8795,12.0445,39.2664,-10.5865,74.3729,-10.1424,-7.4224,-17.6235,-8.0775,29.7978,-19.9311,-53.3103,-18.7082
-2515.6250,6.8043,157.2992,21.4733,85.9318,40.7923,94.9477,-24.5664,61.6941,24.2761,102.2177,-58.0366,26.0145,15.3406,-18.8518,8.1497,-19.3153,-51.6471,-66.3993,-99.6267,-68.0083
-2507.8125,-112.2284,110.0267,-67.9124,37.6096,-48.7634,78.9466,-40.1278,82.6052,21.3090,123.2529,-74.3974,46.7626,35.9193,38.8084,-6.9806,38.5410,-28.9945,-43.7525,-76.8537,-49.2963
-2500.0000,-10.4263,141.6265,38.5331,34.1532,20.5218,38.8122,-117.8510,42.3644,-45.0617,-26.8452,-3.9211,43.3649,-3.6662,72.3180,25.7371,35.2431,-32.4930,-82.2389,-80.2369,-85.8776
-2492.1875,46.4155,163.2923,21.0266,-14.2513,-71.1314,58.7534,-62.5191,25.1883,-43.5275,-7.8718,-95.4104,63.0108,-95.2072,91.8741,-28.4846,54.9919,-45.9642,-25.6911,-93.5718,-30.2316
-2484.3750,0.4491,119.1647,-62.2971,82.5329,-152.5881,86.8977,-143.9736,90.2237,-32.4600,130.3118,-68.7150,53.8585,-140.5491,155.6310,-74.5033,118.9457,-55.2456,71.0649,-136.7032,63.0808
-2476.5625,35.3445,83.9021,11.2326,82.1676,-153.1971,86.8687,-144.5786,126.1024,-35.8285,130.3334,-32.1604,16.5553,-105.0368,155.2401,-74.6639,155.7517,-90.6712,0.6801,-172.9911,-7.2272
-2468.7500,-38.6849,80.7134,-105.1716,42.8544,-270.7731,42.8785,-152.1212,157.0210,-2.4064,234.3856,-111.5493,9.3059,-74.4654,184.8982,-79.7658,222.6066,-58.0468,-3.6550,-141.2383,-19.2555
-2460.9375,-59.1068,132.1488,-84.9783,25.1506,-212.7702,-45.5113,-204.0705,141.5337,13.7001,293.0415,-54.3391,-42.3318,-91.2960,170.1635,-59.2705,208.0686,-146.8226,-57.3715,-89.9059,-78.0828
-2453.1250,-66.3250,125.8153,-92.5838,-17.3366,-221.5614,-125.6930,-29.8379,133.2478,95.0539,248.9045,-134.9295,-50.7655,-25.9364,51.6245,80.4215,89.7300,-154.4136,-132.8884,-61.3948,-153.5387
-2445.3125,23.2600,76.3084,-108.3975,2.9845,-238.5563,-179.0687,-9.8060,43.7654,90.7822,232.5690,-78.7342,43.6108,31.2155,71.8871,100.9121,73.1926,-64.2025,-112.5956,-76.0878,-138.2554
-2437.5000,145.7091,128.6737,19.6344,91.1705,-109.6972,-159.5924,-27.9365,-10.8673,37.6981,141.0845,13.3124,99.8469,50.2056,54.0089,83.2430,18.5101,-47.1361,-166.4398,-163.9319,-187.2229
-2429.6875,71.1696,161.0615,-59.3266,123.3572,-189.8344,-129.1106,-34.0638,-16.4930,20.2597,135.5889,-102.6478,167.0848,43.1954,84.1321,39.5715,48.8284,-15.0789,-99.2890,-166.7768,-119.3265
-2421.8750,104.0384,194.8719,-22.8920,191.9483,-115.5716,-127.2233,-142.7956,-15.7195,-25.7619,136.4858,-29.2106,94.7324,7.5811,85.6647,4.3011,87.5553,-17.6195,-101.7208,-239.2334,-120.2191
-2414.0625,182.9191,168.7081,56.5499,130.5543,-72.3012,-158.3310,-63.5397,-8.9470,-23.1821,69.3783,-22.7685,-9.6105,49.9588,54.1988,10.0316,56.2869,-8.1660,-197.1505,-229.7102,-211.2027
-2406.2500,98.9553,16.7132,-31.8624,47.3186,-125.8886,-136.2836,-43.1341,-24.0252,12.1298,90.4167,-38.1865,-24.7938,34.4825,74.8847,67.9090,77.1655,15.4361,1.5766,-172.0528,-13.9078
-2398.4375,15.7965,3.5322,-3.4752,70.8939,-23.6725,-70.4355,-51.9409,-32.3088,8.6077,84.2618,-82.7997,-33.1719,26.7978,68.3719,61.5748,70.8404,1.8395,94.1169,-184.6050,85.4704
-2390.6250,-60.2491,69.4730,-81.9804,135.5773,-102.3449,34.5212,16.3559,-37.4936,-2.3986,42.1982,-161.3152,35.5477,21.2131,62.9530,19.3406,28.6080,32.3301,158.7600,-225.0625,155.0059
-2382.8125,28.6562,194.3874,-58.5457,225.2132,-153.0656,58.4380,-144.3956,-12.7280,-87.8982,30.0889,-64.8854,96.2242,-28.4198,86.4873,-66.9381,52.3314,50.7710,178.3694,-311.5733,172.6300
-2375.0000,183.6307,244.3822,-7.0515,204.9123,-138.7150,73.4071,-130.1108,2.0839,-159.2364,-138.9855,-50.3944,110.9577,-14.0009,101.0711,-89.1692,67.1068,30.2617,87.0299,-332.0489,84.2190
-2367.1875,153.3130,251.0990,-41.8570,175.3199,-171.6638,3.0805,-90.1333,-32.4054,-122.4157,-98.3770,-48.2130,77.4004,-11.8814,140.3568,-85.7044,70.5788,71.4516,93.3980,-220.8327,87.8639
-2359.3750,239.2460,232.0767,51.5772,120.9867,-117.3648,-87.9869,-71.9201,-86.6412,-80.4294,-43.5155,45.2215,23.0992,7.4821,49.9031,-67.0086,16.3099,86.8948,-30.9644,-135.3670,-38.7598
-2351.5625,227.9495,150.8268,36.7751,40.4094,-167.3018,-137.2947,61.0492,-99.1230,-37.5025,-92.9124,-6.5942,8.5508,29.5901,-1.7970,-7.5739,-35.2111,146.0809,-77.5900,-110.1546,-83.8380
-2343.7500,211.8206,135.7459,23.1174,94.9775,-145.0903,-187.4625,10.1788,-149.4544,-80.6455,-143.1639,89.7363,69.1590,15.8429,21.6568,-20.9888,-48.5801,130.4219,12.9405,-126.7909,5.8327
-2335.9375,164.0464,195.0318,85.8068,82.8999,-82.5234,-88.2840,35.6522,-124.4367,-71.2199,-118.0633,42.4118,95.1149,-31.5606,-25.5367,-68.0544,-58.5943,48.1047,-34.1675,-104.0776,-35.6191
-2328.1250,37.9277,139.9841,-47.8561,28.4731,-106.2971,-74.4474,85.7781,-36.7538,10.2629,43.7013,-17.2671,72.7184,-55.3161,-49.0732,-91.4705,-44.9496,28.4109,-18.6246,17.2783,-21.1495
-2320.3125,47.5774,45.7120,-31.7589,-31.1972,-17.3180,-131.8519,64.6537,15.6911,31.0355,133.2305,34.8124,51.0861,-76.3181,3.1446,-112.1476,7.4472,-31.5203,-43.3288,63.3750,-48.5821
-2312.5000,-14.2995,19.9121,-60.2039,-22.4067,-44.8809,-48.8079,146.9570,61.5797,-4.2829,31.2214,-66.6480,133.9152,-67.8810,48.8098,-140.3887,16.2896,-57.9954,35.4315,-34.0902,36.4034
-2304.6875,-100.8632,75.4417,-39.3596,102.7024,-25.1583,45.5460,56.5547,45.7627,-80.1481,-94.5139,-9.8326,191.0563,-84.1575,69.7734,-156.3350,37.4242,-39.1746,125.5070,-85.2817,133.6842
-2296.8750,23.5382,59.9523,90.4298,87.7820,105.5134,65.8655,76.1026,-44.1118,-70.3642,-111.3391,46.9301,101.1572,-27.4842,15.6984,-136.3350,-15.4896,-19.3990,4.5499,-65.5324,15.5884
-2289.0625,35.8069,2.3199,24.0780,-41.2880,39.0479,37.0408,83.5065,-37.1305,-46.4142,-66.3134,54.5457,35.1084,-20.9472,60.4794,-91.4714,28.4578,-7.7920,87.4477,-53.9294,90.6299
-2281.2500,47.1203,-19.2603,39.7653,-64.3157,53.6333,16.2677,-49.0295,-21.1018,-75.7136,-51.2298,143.2065,14.1050,-42.3508,112.3080,-76.5485,117.4545,-30.1392,99.4037,-41.2842,97.4436
-2273.4375,8.7966,13.5329,34.8079,-101.9792,12.5783,11.8382,-17.2132,85.2593,-26.9026,55.1928,28.2246,46.4511,-47.4020,71.4847,-81.2738,112.7968,-104.1408,26.7175,-45.3041,22.6908
-2265.6250,-53.2042,23.6512,-66.8458,-22.3412,-52.1688,-15.2954,-82.0917,94.9049,-33.3759,64.8987,0.5444,129.0986,-75.1407,80.9655,-71.6991,86.4369,-59.8370,71.3231,-36.0291,65.6493
-2257.8125,6.5103,13.4758,-1.7959,2.9947,12.7920,-60.7298,-91.2613,49.2466,-19.5313,56.3068,28.5660,83.4472,-10.1824,35.1544,-6.4364,40.7787,-105.8089,-44.3645,-46.0440,-52.2283
-2250.0000,2.1513,-25.7864,-44.8304,-36.7639,-30.3466,-102.2645,50.4553,43.5003,46.0664,123.6334,-51.5064,41.7050,-53.3304,29.2557,-12.2816,35.0303,-74.8859,21.8477,-15.1629,14.7102
-2242.1875,53.3479,62.5300,-22.3291,16.0449,-8.9564,-43.2411,-2.2938,65.3174,5.3803,109.5139,6.9515,63.5266,-104.9412,124.9091,-63.5949,93.8352,-57.4130,74.6330,-33.7489,68.5568
-2234.3750,66.8956,112.2121,62.5196,30.2200,76.7819,79.1366,10.2992,41.4787,-55.1348,-62.2633,19.7628,75.6922,-56.2069,99.9107,-51.5685,68.9817,-79.5873,52.7724,-90.9840,54.9887
-2226.5625,-60.8875,21.5516,38.0266,9.0500,52.1834,55.1712,-52.4545,16.2909,-85.3835,-122.4028,31.2268,88.5087,-7.8125,148.5676,-39.8994,117.7807,-31.1055,101.5655,-42.5648,104.4213
-2218.7500,-50.7040,-38.1581,50.4769,-16.1602,138.5409,-4.8402,-76.2578,66.0588,-30.9396,37.3926,43.6326,-8.7151,-68.4763,125.1846,-63.2944,131.5444,-91.6515,-28.6566,2.7951,-27.7452
-2210.9375,-61.5568,-117.9093,-38.1160,-131.4061,49.8561,-55.8923,92.8831,125.7723,80.4452,169.1285,-81.0023,-59.9935,-119.1886,110.7557,-41.7405,153.2515,-136.2467,-107.9114,98.0898,-111.4396
-2203.1250,-2.7501,-128.0069,-49.0533,-211.9955,38.8244,-139.2903,44.6835,115.1266,73.4199,195.5081,-18.9830,-34.6276,-94.2427,172.9800,-15.5269,179.6049,-182.1876,-84.5030,122.0188,-98.1111
-2195.3125,-5.3290,-93.5006,-14.3752,-248.9849,73.4171,-104.0906,115.0871,113.0733,89.0204,120.4672,-58.3496,-72.6699,-60.6865,97.8014,56.2866,104.5601,-254.5187,-86.4949,119.5490,-96.8850
-2187.5000,-107.4849,-90.5826,-122.2805,-245.5805,-36.5682,-65.5039,189.8991,114.4136,112.5991,121.8146,-92.3008,-34.3160,-58.7108,62.0208,57.5009,31.9142,-216.4536,57.9106,122.4817,49.0898
-2179.6875,-83.5867,-65.5963,-57.1419,-116.1183,66.4956,0.1316,145.7664,70.7978,77.8998,41.2202,-27.2095,-78.8963,-66.6842,18.2967,50.7628,25.3138,-156.3348,82.3895,111.4562,83.3002
-2171.8750,-66.1318,-81.0362,-41.4521,-63.0803,9.1086,53.3228,161.1806,49.7255,59.7367,-16.8355,-48.5721,-97.9114,-51.1072,-2.8752,29.5718,4.2586,-103.6857,100.4296,93.9568,106.7757
-2164.0625,-61.9606,-76.7613,-35.0595,-93.3327,15.4187,23.2136,57.2980,19.3450,42.9104,26.7836,31.7670,-56.2174,-81.8239,40.6571,-0.9240,10.9082,-65.3353,140.1650,169.1476,142.7819
-2156.2500,38.7809,-80.9404,71.8905,-133.0293,48.2807,-16.3573,89.9692,53.5146,37.0539,-13.0483,64.6661,-95.9676,-47.9911,0.7561,-3.8856,8.1212,-70.4292,65.4535,163.8909,70.5238
-2148.4375,-33.6088,-80.2685,30.6968,-133.8753,-30.0064,-21.0837,121.4857,48.5409,36.9182,-90.0167,23.4167,-26.8677,-53.3099,-4.2875,64.9979,3.1884,-1.6767,99.6003,126.4964,104.6262
-2140.6250,10.5690,-37.0436,43.0503,-55.1763,-17.7477,-8.2600,-13.4380,-12.8813,-25.3635,-151.4346,35.7135,22.7772,-78.0851,8.2176,76.4333,15.8047,7.6362,73.3084,64.6563,76.4218
-2132.8125,42.7193,31.1574,-0.6428,-22.5229,-24.5330,-14.4915,-20.4189,-55.3497,-31.9213,-120.9108,-45.0333,16.3731,-47.9138,1.6739,33.8073,46.3688,39.8927,-35.0205,61.7689,-34.3558
-2125.0000,29.8296,-14.6746,-14.3913,-67.9087,-38.3710,-62.7637,2.5423,-104.8572,-16.7991,-24.4421,52.1634,2.9269,-60.7969,62.0885,-52.8804,69.8841,98.0954,-46.3799,119.8185,-49.2420
-2117.1875,114.2839,35.8367,77.2077,-89.9235,53.1491,-155.6815,56.8605,-124.0159,16.7791,-7.6328,69.7110,-16.1661,-81.3235,5.8606,0.7690,13.7495,41.6585,-102.3705,98.2120,-107.0147
-2109.3750,-12.3933,86.1856,-56.3278,-75.0836,-80.4622,-103.7505,107.0385,-73.3273,69.5038,81.0160,-99.8765,35.5886,-102.9910,-16.5151,52.2697,-8.5363,21.0661,53.4916,7.4600,45.0799
-2101.5625,19.8906,119.4752,-90.9095,62.7035,-41.1206,8.1327,-37.8241,-71.6919,-15.0641,-27.4117,-61.5148,74.2942,-101.7033,22.0611,53.7215,-5.8699,17.4409,86.3250,-66.3411,81.1980
-2093.7500,109.1764,138.7673,1.5079,81.5009,50.2235,63.0210,16.3071,-127.0527,-82.7310,-228.8357,-43.1543,93.0115,-9.4182,4.6462,35.1622,12.8019,106.8129,69.1783,-83.1423,73.7573
-2085.9375,77.0214,178.6373,5.4785,121.8549,54.1245,67.4604,-16.0105,-158.8600,-131.3416,-261.7061,33.7549,134.2823,-5.5781,44.7901,-33.8541,17.0212,180.7253,179.5829,-115.4047,186.6142
-2078.1250,136.1283,202.7651,107.7094,145.4578,119.2896,60.1422,-98.0619,-130.4259,-165.4064,-306.3582,99.9319,52.8023,22.5322,-36.8115,-42.6204,-101.5089,98.8962,133.2352,-126.4207,145.1758
-2070.3125,74.1527,106.7800,76.8567,83.9575,52.3830,66.7146,-19.2026,-87.0985,-85.0704,-226.1209,32.0171,-13.7770,28.5571,-103.5029,0.5233,-132.1284,71.9627,141.7869,-48.5343,154.4393
-2062.5000,94.4301,128.0279,29.2475,139.7008,41.7322,19.5278,-67.0775,-24.5228,-43.2996,-90.6315,58.3458,-25.1130,-56.1601,-77.9411,-47.0797,-105.4982,127.2868,163.5925,77.6060,175.8156
-2054.6875,150.7124,149.2674,87.6427,161.4432,27.0907,42.3305,-7.9416,35.0383,-14.1083,-32.1523,6.6865,-39.4530,-107.8739,-128.3691,-98.6842,-119.8657,112.6134,78.4077,62.7452,94.9958
-2046.8750,73.4073,108.9059,6.4468,154.5891,-55.1483,71.5272,-16.4050,64.0092,-32.5530,-76.2781,-1.5717,-10.3922,-79.1869,-63.3938,-69.8886,-90.8217,106.3325,142.6220,21.2920,156.6722
-2039.0625,77.6015,79.0334,87.7388,160.2325,63.1095,43.2157,-82.3541,-1.5121,-92.6955,-215.8916,79.6618,-1.8409,3.0028,-54.9095,-24.5987,-46.2723,75.5493,77.3446,25.3487,92.1346
-2031.2500,44.7413,11.0963,49.9814,91.8239,98.3195,4.8467,99.6430,-40.0592,-40.0891,-180.5336,4.8538,-3.3519,111.1426,-56.4689,-26.3708,-47.7703,77.7032,45.0332,27.3585,58.5000
-2023.4375,43.1813,46.4558,13.5291,125.7178,98.8287,5.7867,26.9296,-2.3038,-22.6470,-32.8718,42.3435,-2.5626,38.5877,-18.7248,-62.8537,-46.9721,41.1677,79.0315,-9.3380,87.3268
-2015.6250,88.5323,57.6967,60.9788,172.5109,109.2494,16.6207,37.1181,-28.6728,-8.9874,-59.3367,52.7470,8.1196,84.9465,-82.0920,21.5649,-109.2887,-54.4425,-51.0603,-70.1218,-45.7216
-2007.8125,28.8031,33.8194,-5.6520,113.2004,43.5917,-48.6533,81.2147,-94.1524,18.9403,-50.9026,-13.9372,89.7004,130.2172,-36.5605,102.8837,-101.7103,-8.1552,-39.2410,-94.0017,-42.7966
-2000.0000,126.3356,97.1914,61.9823,105.1508,184.1936,-91.6669,0.5693,-137.3735,-33.1657,-94.2118,53.6363,83.5405,122.7339,-43.7655,96.4366,-70.8717,-16.6017,-47.1421,-137.6387,-51.9527
-1992.1875,165.1860,135.8684,59.9346,73.4217,146.1198,-19.3713,35.2230,-138.2991,-74.4425,-168.2585,-21.4755,118.6847,121.5534,-44.6660,21.2918,-72.7360,-12.7406,-42.7409,-134.9872,-43.0173
-1984.3750,221.2457,158.7377,-26.9084,59.8897,95.2649,-32.8841,-51.9064,-152.0463,-114.5052,-182.1292,37.6180,105.0237,70.5897,-58.3635,-29.6442,-49.4124,78.3274,48.8427,-78.1258,47.3837
-1976.5625,368.8160,306.0632,20.7524,31.8305,69.9242,-21.9413,-78.5045,-178.3203,-146.9474,-245.5014,12.2318,116.8481,82.1540,-47.5670,-19.0565,-74.5904,49.9158,-15.0931,-72.7335,-20.2652
-1968.7500,488.0623,532.0016,-73.9237,81.3866,-98.7348,-5.3964,-99.4198,-161.9590,-178.5596,-230.2283,-45.4865,206.2930,24.4014,-31.1335,-76.7820,-95.1309,64.1455,70.5903,-128.6667,58.8530
-1960.9375,702.8088,782.4133,-26.0983,190.4335,-87.8851,-31.3728,-235.8058,-151.0972,-214.4014,-182.4561,39.2861,180.2273,-38.8368,-93.2017,-139.0013,-158.1726,66.8745,3.7763,-126.1005,-10.5491
-1953.1250,936.2997,840.5684,72.4773,142.2340,-63.2742,-79.6034,-137.4335,-163.4753,-222.1707,-267.9286,26.8138,94.9068,-14.3200,-179.5157,-151.4812,-244.4676,89.3476,-114.2833,-138.7752,-124.7570
-1945.3125,1015.8901,850.8066,82.1540,117.1287,-90.5545,-106.7447,-164.9515,-227.7418,-272.3116,-369.2939,109.4395,140.6786,-41.6970,-169.7245,-141.8630,-234.6530,169.9160,-34.2410,-164.3315,-46.1793
-1937.5000,1128.1779,928.7114,202.5268,159.7124,-6.1269,-97.1942,-191.7453,-291.3012,-306.7804,-395.9413,193.7663,151.1342,-68.3723,-196.2290,-168.5548,-224.1374,141.1975,-132.4868,-228.1700,-144.3648
-1929.6875,1067.9171,868.0399,134.3585,133.7396,-74.2320,-90.2044,-112.0786,-247.4139,-256.0440,-316.1424,89.5534,121.0323,-98.5829,-190.2855,-199.7972,-218.1770,149.9241,-87.2706,-183.5620,-97.2437
-1921.8750,928.7440,730.4610,101.2842,135.8793,-33.2345,-86.1016,-145.3044,-207.4329,-236.2455,-275.2658,92.4318,51.0390,-95.6895,-112.2358,-195.9435,-177.1216,116.7541,-84.9263,-111.8673,-92.4393
-1914.0625,894.1161,625.4261,134.7597,66.5832,36.3252,-53.4341,-38.9866,-173.9027,-210.9632,-316.8555,51.8611,-26.4017,10.7595,-153.6283,-163.5417,-180.5114,83.1355,-154.0137,-110.6267,-156.3662
-1906.2500,784.1409,516.0151,86.8883,62.9286,25.5551,-27.1176,-51.0094,-148.7153,-171.7554,-216.7838,114.9450,-37.2020,-0.1243,-90.3667,-174.4877,-155.2389,148.1608,-17.4477,-45.7213,-19.1398
-1898.4375,717.8949,379.3198,165.7577,67.0183,68.5391,-22.0487,-155.2695,-105.7675,-151.6200,-63.9283,156.7711,-68.2585,-68.2606,-84.3402,-242.6859,-112.2043,116.9370,57.8967,-6.0515,59.1953
-1890.6250,388.4824,156.4516,41.4736,18.9497,-19.6247,74.8780,-59.6841,-9.9538,-65.4419,31.7782,-4.5508,-45.4775,-45.5398,-98.4469,-220.0265,-126.3138,69.5392,186.0908,51.4654,193.3471
-1882.8125,119.4077,29.9033,-15.4641,103.2160,-2.4358,165.1513,-79.7452,81.2144,-29.8662,121.8364,12.4754,-29.3513,-65.4617,-45.2025,-203.0128,-73.0712,47.4868,270.6238,-5.6621,282.0270
-1875.0000,24.0239,-64.9753,65.2912,149.1742,78.4676,209.1021,-36.0911,88.0797,-19.2617,55.6120,19.2039,-95.5255,15.3320,-74.2408,-122.3020,-65.1221,22.1295,140.8493,-101.0764,157.8910
-1867.1875,-75.5449,-271.0682,98.8568,47.9262,38.1952,169.8322,-2.6117,47.7479,-7.2300,-20.8238,89.7446,-134.8984,48.9392,-76.4717,-51.7881,-67.3608,97.5656,145.8579,-61.6753,164.8363
-1859.3750,-77.7577,-412.8268,205.7811,-21.9830,109.2840,92.8939,-41.7703,81.7636,11.7875,49.0931,196.6498,-210.9178,45.9086,-42.3467,-53.9258,-33.2503,60.3703,110.2096,-27.9171,128.3363
-1851.5625,-291.0663,-554.7145,160.6206,-23.9978,-45.7210,158.8396,-13.0416,183.6793,66.0778,78.9270,115.4722,-219.0466,38.7811,-14.3250,10.8449,31.7539,24.0730,143.4557,5.7390,163.5569
-1843.7500,-523.7209,-681.9666,63.1138,59.6393,-70.0814,171.4235,-37.6601,160.2451,88.2103,127.4011,127.9422,-170.5270,50.3068,71.3397,22.2630,80.4061,37.4280,227.3576,54.0473,247.5148
-1835.9375,-623.2282,-781.0821,106.7543,66.4297,-26.2799,141.1353,4.8799,166.9517,163.9537,280.0140,60.5657,-200.8532,56.9916,78.1572,28.8341,87.2121,-26.0600,129.4240,60.5134,148.6646
-1828.1250,-804.8448,-927.3250,-12.7025,-9.8795,-72.5572,131.7419,33.3299,231.5623,200.4673,381.5296,15.0939,-136.2893,84.5828,105.8748,20.3180,151.9157,-32.6624,194.3945,54.8919,209.6873
-1820.3125,-822.7809,-909.8984,44.5253,8.5056,21.8843,153.0527,-56.5121,214.8826,159.2685,328.7726,72.3089,-116.0299,105.8706,164.2944,40.4929,173.3224,-50.5592,107.0923,36.9810,122.1053
-1812.5000,-765.6310,-852.3970,63.8557,-5.0098,78.4469,135.4776,-1.2593,197.3149,134.6541,201.1222,54.6287,-96.6807,198.2613,109.8222,96.7578,118.8308,-63.3595,58.9041,-11.8245,75.0007
-1804.6875,-703.0015,-789.4312,17.6813,-47.0328,69.5195,89.4010,-10.4994,115.2400,95.4166,118.9590,82.4305,-105.8416,189.1591,137.8464,87.5287,146.8295,-35.6587,123.2190,50.8873,136.2576
-1796.8750,-660.9457,-818.0543,100.9459,-110.6084,116.0540,62.7706,72.7311,88.6096,145.8945,128.2585,55.6738,-169.5607,235.5045,110.3191,170.7541,119.2740,-99.4948,94.9995,58.0572,106.5040
-1789.0625,-764.0444,-814.8433,-7.9271,-178.3290,44.4662,100.9987,184.8205,162.8436,189.5485,166.4177,-17.2180,-131.4376,237.7168,148.6596,171.8266,157.5764,-96.4896,203.6350,96.0816,214.3690
-1781.2500,-753.0991,-697.6139,9.2567,-96.0135,60.9468,117.2761,16.9793,180.1368,111.8415,109.6164,72.9419,-41.2657,215.9983,202.0590,151.9527,210.9392,-85.4325,181.3099,72.1640,189.9707
-1773.4375,-663.2159,-607.4720,29.3956,-41.7675,8.3902,138.4895,1.1018,164.3684,103.0558,93.7490,20.0595,-20.1469,200.2394,113.4192,136.0421,122.2529,-66.4403,129.9069,56.2062,140.5645
-1765.6250,-661.5875,-640.6107,-38.7188,-3.7844,-59.4196,107.4461,-30.0166,168.3450,98.5965,135.6377,25.9222,-15.2817,132.2392,82.5314,30.8980,91.3202,41.2866,202.2290,163.0077,217.7676
-1757.8125,-572.2179,-657.0263,23.9059,13.9397,40.5140,59.1508,32.6240,159.0826,138.5166,162.3022,51.5345,-98.6663,122.9942,-2.6001,19.5090,43.1417,23.7672,116.2986,252.5801,136.8556
-1750.0000,-533.8951,-653.5181,27.4902,-51.3905,81.4115,62.7776,183.2248,162.7745,164.0072,91.9206,18.1129,-132.1071,89.7130,-34.7820,23.0766,-62.0892,63.1914,85.2940,291.1133,113.0603
-1742.1875,-452.5863,-572.0345,42.0815,-41.7273,169.3086,40.3859,123.8331,103.4647,118.0380,-4.4475,105.6970,-117.5490,103.4391,-57.9630,74.6521,-49.3173,73.6183,61.2630,266.6555,86.2019
-1734.3750,-372.7999,-492.0801,87.1679,-101.5602,214.7132,48.4992,168.9217,74.6609,123.6778,3.7172,40.7825,-183.4881,185.6646,-84.6315,82.7237,-40.0389,-22.4532,-34.2701,241.7021,-13.2336
-1726.5625,-432.3354,-480.4611,-86.0462,-194.7036,151.8221,22.3147,178.7184,47.5636,168.8926,124.5841,-58.4375,-172.7393,195.5977,-1.5989,129.5040,42.9389,-44.8336,12.9102,253.4536,19.6658
-1718.7500,-338.0555,-492.0442,-94.4206,-171.0051,180.7910,-23.0156,171.3751,77.3173,162.0108,80.2942,-30.8077,-181.1502,114.3866,27.2832,158.1334,35.7642,-126.3484,-33.0257,277.0625,-26.9998
-1710.9375,-326.5551,-445.4349,-194.5385,-194.0561,81.0369,23.9058,255.2892,124.3198,173.9943,53.2493,-92.9226,-171.3233,88.4364,0.4239,168.0251,8.8426,-185.6113,-90.7026,253.9296,-86.5441
-1703.1250,-236.8324,-355.6237,-246.4030,-174.8699,65.5522,-63.9279,239.4614,108.5680,160.1370,74.4502,0.2146,-187.2537,109.7553,21.8240,116.1801,-6.8213,-131.6137,-141.1231,308.0599,-141.7798
-1695.3125,-77.6945,-301.4058,-81.8288,-226.2458,157.5264,-120.3269,294.0812,52.2750,148.1799,-16.8705,54.7971,-205.7436,164.5210,-32.3111,170.7800,11.9778,-77.1661,-227.0715,257.6577,-227.5291
-1687.5000,-136.3253,-219.9688,-110.0104,-249.3825,55.7570,-111.4859,264.9576,-11.7536,124.3526,28.0807,27.6262,-86.9913,135.5347,12.8085,104.6303,58.0375,-30.4826,-73.7732,233.5091,-79.3294
-1679.6875,-163.6066,-106.2056,-131.8451,-135.1729,34.3430,-59.3059,97.2087,39.5698,114.7205,189.3645,-32.1951,-35.8899,40.9151,-9.7183,46.8383,35.4455,-127.4479,-30.1282,136.7181,-39.2155
-1671.8750,-194.0393,-66.6127,-200.8335,-130.1289,-106.2047,-18.3032,138.3225,118.7405,154.8973,268.5000,-99.1634,-30.9437,9.1578,-40.3843,51.9192,-32.2910,-157.5854,-58.6484,71.7837,-70.4435
-1664.0625,-164.5116,-107.0853,-168.8786,-135.1565,-110.8045,-23.3803,97.3922,76.8673,126.0930,226.6073,-32.1860,-72.0517,41.3635,-9.0965,46.9543,-1.0714,-57.7828,-29.2401,66.8103,-40.2217
-1656.2500,-46.3186,-93.9248,-7.2789,-121.5499,-22.7548,-44.8235,39.1235,18.6405,96.4532,132.3619,20.4427,-130.5191,57.2259,-30.1605,99.6497,-22.2051,26.6764,-84.1866,45.4887,-91.0005
-1648.4375,-86.5162,-134.1644,-88.0779,-91.3422,-103.0992,-52.6835,30.4458,11.0055,101.4785,160.7281,-24.3207,-102.3931,48.6860,-36.6275,90.9501,7.2531,55.7403,-18.5360,39.7635,-27.0662
-1640.6250,-121.8591,-134.5589,-47.0268,-91.2918,-61.5888,-48.7034,-74.3725,16.2151,118.4380,239.9433,17.7607,-170.4167,55.0004,-32.2522,133.1084,12.5560,56.6542,-19.0467,40.8950,-30.2598
-1632.8125,-155.1551,-133.9155,-45.9335,-124.1985,-23.0200,-10.6867,37.8722,54.4734,127.6529,204.2038,-55.1093,-169.3938,92.3727,-30.8269,134.3209,50.9078,-48.3745,-87.5114,7.0941,-96.9718
-1625.0000,-168.0921,-74.9478,-95.4816,-136.7649,-36.0727,-60.3281,24.4730,41.0815,105.6980,227.8109,-31.6219,-73.0384,6.1036,66.9419,84.8883,111.6017,-60.0525,-97.6405,-4.3424,-113.1238
-1617.1875,-78.6409,-21.6036,-2.6355,-151.9467,58.2805,-113.5725,-29.5075,24.0908,81.5153,210.8275,-11.7417,-53.2912,-10.7637,50.1054,67.8582,94.6891,-109.3281,-289.3711,15.6334,-306.0144
-1609.3750,-189.9955,-168.0836,-50.5925,-297.9338,10.8425,-162.6244,105.7063,13.2966,107.8058,125.0528,-59.6543,-28.3490,51.5697,75.4745,129.0335,82.9809,-115.4066,-293.9010,79.8126,-310.9801
-1601.5625,-304.8520,-283.0875,-97.0490,-307.4297,37.9203,-209.1762,96.4256,-69.9974,109.8501,79.7712,4.9285,-0.9119,78.4072,139.3410,193.7137,146.7728,-89.9878,-302.9378,141.4950,-323.4319
-1593.7500,-347.7196,-361.1199,-31.5115,-314.9325,31.0034,-253.7301,162.1516,-77.3014,204.6053,218.4917,-40.4846,-9.4782,107.2497,95.2101,259.4004,102.5663,-96.5628,-379.9727,134.1785,-403.3129
-1585.9375,-381.5900,-395.1758,-104.9669,-242.4447,-42.8914,-217.2959,161.8783,-40.6131,160.0960,109.2166,-40.8881,26.9466,72.0990,96.0800,222.1028,103.3555,-25.1414,-237.0228,135.8644,-252.3694
-1578.1250,-250.4766,-300.2532,-39.4343,-146.9650,-12.7874,-151.8691,117.6250,-48.9248,65.2046,-82.0504,-48.3051,56.3705,27.9585,87.9506,177.8171,95.1483,0.2770,-211.0839,91.5531,-216.6422
-1570.3125,-220.2733,-199.2457,-83.8111,-151.3874,-93.5821,-123.3504,146.4709,-56.1332,39.9653,-90.2024,-92.6214,121.8967,19.9193,80.9366,97.6304,88.0515,30.7912,-110.0496,88.3542,-115.3607
-1562.5000,-225.7760,-134.9597,-48.8892,-50.5224,-58.0677,-51.5392,-0.3761,-58.0344,42.2867,91.9530,-20.6483,118.7179,-54.8188,79.2261,-14.2492,122.2574,95.5978,-8.7347,117.4641,-12.3728
-1554.6875,-196.9527,-105.3517,19.3619,-21.3195,46.7861,16.6106,30.1452,-63.5785,34.1548,-23.5383,-63.3321,76.8844,-60.2099,37.8693,53.2281,7.8159,54.7471,-49.0741,76.9363,-44.3751
-1546.8750,-258.4795,-168.1192,-82.7288,-47.4770,20.3043,-11.6021,3.3172,-127.4749,-1.4482,-124.3857,-54.3514,49.6947,-13.9445,47.1604,98.3601,17.0216,63.5441,30.2226,86.0682,32.7524
-1539.0625,-159.2096,-139.1076,-9.0118,-18.8480,167.6322,-12.0236,-33.6991,-89.5703,-32.5002,-123.4280,-17.5687,12.3027,23.1343,10.2490,26.2965,54.0240,-12.8534,-10.6943,116.0060,-3.8913
-1531.2500,-132.4026,-77.5645,-54.7473,-26.6696,158.5171,15.0979,30.8322,9.8872,-31.6172,-95.9096,-99.2326,39.4640,50.7622,37.8908,-56.2150,81.5787,-55.6979,-18.0549,143.5046,-9.3438
-1523.4375,-131.4493,-76.8913,-123.3303,10.6598,90.5641,20.3762,-37.4911,52.4993,-30.7291,-18.2483,-95.7456,81.7730,-54.4593,116.6835,-124.5768,87.2835,-18.3918,19.7273,216.1541,27.6750
-1515.6250,-111.3607,-22.0912,-61.7689,-4.8636,116.7604,8.8065,24.3376,114.2613,14.7678,43.5631,-144.1122,32.2370,-65.5314,31.6341,-136.7936,38.1456,-68.9316,-65.3368,236.9540,-54.1856
-1507.8125,-139.1809,-50.2036,-129.1033,-67.2838,50.0699,-21.6619,142.2595,121.1145,58.1107,14.4695,-137.3687,39.8047,-58.5055,2.6874,-92.9125,46.1096,9.6237,-92.2955,315.8525,-81.6657
-1500.0000,-29.2136,-10.5284,-46.6382,-61.9012,96.1871,-124.3223,113.9889,92.7620,101.3546,96.1586,-91.8353,10.1797,-86.6829,-25.4650,-47.2309,-19.1368,-21.0119,-262.4495,355.5490,-257.5503
-1492.1875,5.2918,-11.3142,-87.6389,-166.9654,19.8545,-200.4280,220.2721,88.9544,174.9455,166.4078,-168.7616,-29.8952,-90.3134,-66.0652,59.0016,-59.8313,-92.0916,-368.0486,285.8008,-374.0681
-1484.3750,-51.1075,1.9818,-182.5364,-152.9303,-113.3597,-260.4331,161.6545,67.2528,165.9655,217.7668,-190.5867,21.1222,-75.8401,22.4327,110.3421,65.5716,-78.0775,-282.5655,159.1573,-302.1530
-1476.5625,-2.9765,84.7953,-131.8938,-70.3646,-97.0267,-207.8927,66.6038,82.1060,117.3396,196.6876,-175.8697,72.6811,-59.8108,38.4774,126.2467,80.5206,-99.5197,-268.5432,-2.9177,-290.1408
-1468.7500,33.5880,156.0302,-170.8116,-103.3614,-209.2434,-174.9144,-9.9965,42.4172,116.6111,267.0773,-141.7035,69.6852,-135.3307,34.9799,123.6065,77.9232,-27.5268,-231.0753,-36.5261,-259.7496
-1460.9375,100.9410,189.0534,-59.9392,-35.5656,-243.6636,-210.1358,-264.7881,-29.4593,30.9668,269.2786,-30.7529,107.4933,-207.0491,37.2832,87.7682,43.1300,41.2562,-162.8183,-143.3285,-194.2216
-1453.1250,151.0293,237.8270,65.6659,14.9806,-228.3412,-85.6105,-249.8330,-87.5774,-56.9145,63.2370,-16.0564,86.0594,-192.0166,-21.6551,29.6856,21.0946,55.7867,-111.8181,-198.3785,-129.8119
-1445.3125,163.9688,179.4485,42.1236,98.3779,-214.1568,-36.2412,-273.0381,-146.8441,-73.7685,77.0495,34.4944,99.4771,-141.1365,-7.7459,-30.5447,-2.0936,175.1617,42.0184,-184.5797,28.7013
-1437.5000,186.5499,202.7054,107.2307,122.4206,-38.3256,-44.2307,-280.5836,-155.4623,-85.8982,32.5129,62.6884,17.5475,-76.6087,-52.1884,-1.1260,-9.6302,93.1899,-4.5035,-196.1311,-14.3479
-1429.6875,104.3782,191.2041,19.5817,40.7181,-52.2419,15.0274,-147.8867,-131.8298,-62.8982,-18.7745,-61.8645,39.8769,-53.8347,-66.3725,21.5361,-23.9089,11.4620,-15.7784,-170.4385,-24.0641
-1421.8750,129.6056,250.1006,-25.6648,65.4182,-22.7551,-30.3115,-192.7890,-104.7957,-78.4959,10.3306,-33.0251,31.6128,-98.6602,-37.1587,-23.3998,5.2097,1.1291,-60.6661,-146.3509,-70.9901
-1414.0625,216.9710,302.1457,29.2257,13.2677,-4.1237,-86.5053,-138.5332,-86.6137,-54.0722,65.5894,-15.0395,49.4975,-80.3397,-18.7936,-42.1805,-13.5247,-51.0475,-182.4054,-128.1110,-197.4885
-1406.2500,151.8382,341.6888,-4.3830,53.6224,-36.9878,-82.2088,-97.7824,-81.9352,-98.2884,-41.6456,-11.5478,162.8803,-112.5248,22.0639,-75.4573,27.2369,24.2730,-1.6552,-156.3709,-11.6133
-1398.4375,236.9973,392.5279,125.3017,175.2759,56.4407,-26.6098,-187.7252,-135.9600,-230.2895,-351.5744,81.2308,219.5618,-56.4154,5.2181,-55.4306,-26.7054,39.8986,-19.6036,-210.3374,-18.2542
-1390.6250,201.7945,321.0099,85.6225,104.5825,-19.4846,6.6459,-81.0307,-138.3374,-159.5644,-317.8510,-32.3457,178.9005,-22.6617,2.0347,15.2460,7.0105,5.1756,-54.8933,-139.6571,-56.1497
-1382.8125,96.8828,250.7810,-20.7572,35.1868,-51.1042,-62.7934,-76.0355,-61.4119,-59.1686,-93.8272,-64.6292,146.5370,-54.6120,44.1502,56.2241,49.0288,-29.2514,-17.8982,-68.6746,-28.5597
-1375.0000,114.9105,233.4861,-35.2014,-16.2739,-27.7906,-77.2840,19.9191,-1.5283,-2.8476,-33.8328,-152.9723,58.1230,-31.6192,-6.7844,79.1508,-1.9996,-80.7345,-104.9592,-84.7277,-115.1519
-1367.1875,145.8939,264.1466,-40.7004,15.2137,-143.5309,-82.8277,14.8153,-43.6847,-2.2517,-1.8781,-158.3692,89.6571,-36.6894,-48.7632,37.0241,-44.0763,20.7205,-2.0749,-87.8266,-12.1546
-1359.3750,255.4278,338.3683,115.3392,125.2550,-59.7355,-36.8151,-48.7302,-70.2840,-40.4100,7.6188,-38.2304,62.7523,-100.2177,-75.1888,-63.5553,-70.6043,95.7227,38.3604,-118.3772,37.2489
-1351.5625,235.2090,282.8451,129.6181,70.5544,-44.7007,13.4465,38.9669,-19.6297,-48.3665,-125.6342,-60.8399,-33.8906,-86.5041,-98.3533,-48.8870,-93.8713,75.9799,53.0394,-67.6759,61.8656
-1343.7500,103.3476,80.6763,105.2503,10.2070,5.6872,64.0560,-20.9946,-43.6271,-47.0913,-111.5424,25.8970,-94.1766,-73.4462,-84.1698,-35.8689,-79.7867,120.5870,169.0534,-21.6244,181.1239
-1335.9375,85.3768,61.4143,199.7638,26.7644,173.9594,120.5648,-0.0562,-59.7252,-35.4938,-91.5510,82.5158,-74.5468,-15.5013,-101.0833,22.0422,-96.7995,-2.9012,115.9689,-145.6791,127.1528
-1328.1250,30.7560,112.5152,138.6226,7.6747,150.5758,134.4175,50.2189,-45.4755,-59.8936,-188.2003,22.4922,-24.5639,34.7832,-49.6494,35.3024,-119.4690,13.9558,133.2299,-163.3849,145.3218
-1320.3125,86.3881,132.8675,163.7366,29.8298,213.4416,85.5206,38.7595,-57.9758,-48.0298,-162.6001,83.7164,-36.3333,23.3163,-97.9734,23.8096,-167.8967,35.0644,84.7244,-106.8397,97.8508
-1312.5000,174.6169,150.8193,142.4485,47.5880,191.9068,63.2246,127.9003,-4.8833,-10.0859,-110.4077,25.5429,-20.4962,38.4485,-156.6971,1.9139,-152.7242,-17.2248,-37.1746,-87.7001,-25.4036
-1304.6875,152.4984,198.4308,77.8109,26.0054,92.0312,-0.4138,63.6821,-32.1492,-26.4824,-99.5708,36.0163,-11.0036,12.2241,-72.7719,12.6675,-104.9070,-3.8672,-24.4265,-74.9222,-21.3811
-1296.8750,199.7238,245.3974,92.5174,-31.2194,144.4961,-96.6971,5.8178,-91.0682,-44.5827,-121.3997,13.8305,-70.1500,27.3482,-94.5002,27.7679,-126.7395,-61.1533,-150.3289,-25.8000,-151.9673
-1289.0625,166.8106,177.2186,20.0783,-64.5916,35.8113,-131.1307,43.7938,-89.1420,-20.4743,-83.3805,-59.4970,-69.4445,28.3147,-92.3798,28.7170,-124.7236,-59.5849,-112.3910,-22.8245,-117.1770
-1281.2500,115.0015,160.1451,-64.2608,-9.8645,-11.7822,-143.4685,-41.1326,-63.1093,-0.2853,52.7514,-33.7358,-6.6371,-55.6269,-29.1648,17.7679,-62.6094,-39.9194,-58.3663,-38.7461,-69.8551
-1273.4375,64.1389,179.0309,-116.6699,-25.1884,-99.4546,-84.8573,91.8838,31.8827,87.1576,148.8449,-196.0365,52.1297,-70.6353,-7.9906,76.7697,-40.5402,-160.3073,-144.3867,-53.7118,-160.3796
-1265.6250,-37.3635,148.2901,-223.7342,14.8465,-205.7877,-81.8978,58.2419,72.2289,43.7601,78.2792,-192.9923,92.2587,-104.3117,69.5415,43.1132,35.8868,-85.3499,-68.0686,-48.3310,-82.2320
-1257.8125,65.1875,179.6159,-77.7616,47.9369,-133.0941,-82.8829,-16.3474,34.6324,-9.1998,3.7613,-82.9150,17.4534,-67.9565,-4.8731,5.4940,-1.6332,-53.3469,-105.7007,-50.9001,-113.5980
-1250.0000,159.2319,133.4599,-20.3006,1.5413,-111.9188,-62.3649,78.5437,-17.4594,34.1654,25.7497,-25.3417,-34.8385,-10.1150,-56.7832,27.3632,-90.6488,6.1562,-46.8283,-25.9721,-52.9100
-1242.1875,178.1810,152.2186,39.0598,21.0556,-13.8550,-38.9407,28.3378,-104.6474,-21.1195,-24.3642,34.1196,-48.2253,-23.3839,-32.7973,-22.8724,-103.7686,61.5591,78.9332,-76.1513,77.3768
-1234.3750,162.7813,171.6354,61.0579,41.2227,81.8426,56.1352,13.7878,-82.1863,-76.9713,-112.8237,19.2222,-25.9535,34.9860,-47.1623,-37.4597,-44.2393,-24.3883,100.3449,-161.6806,102.8004
-1226.5625,88.1397,166.8137,16.8165,107.1453,74.2845,195.9628,-67.0262,21.0235,-90.0739,-83.5333,12.0851,76.0769,28.0940,56.2177,-82.3032,59.0386,112.4097,271.4985,-95.4685,280.0306
-1218.7500,109.2501,152.7553,117.3284,199.8248,212.4633,222.5423,-113.0884,10.9784,-96.1610,-92.5044,75.6934,66.8627,54.9481,9.3431,-91.4028,-23.9383,98.9614,223.3989,-72.5140,239.4676
-1210.9375,32.2607,4.6231,-0.2664,53.4163,169.5300,143.0216,64.7334,-31.1738,-38.4495,-172.5859,-4.7975,-49.4370,85.6879,-69.6270,-24.6110,-141.0072,57.4143,112.2045,62.3375,129.9171
-1203.1250,22.2821,-110.4832,-40.8601,9.0229,129.5918,101.5081,97.5502,1.6740,0.7965,-102.6781,27.7008,-127.7220,8.4169,-73.6009,-64.8282,-144.0799,83.8644,139.0072,159.1816,158.8185
-1195.3125,142.7049,-95.1767,48.9322,24.0418,184.0328,118.4057,114.7698,91.9258,22.8060,-48.3735,44.5886,-147.5923,-11.4687,-56.1708,-84.6584,-90.7527,27.7200,13.2190,174.4268,33.9212
-1187.5000,124.0873,-113.9098,-49.3263,-28.9833,49.4197,94.2578,163.9278,142.1248,66.2012,37.8788,-16.5708,-60.5080,0.5860,30.2069,-35.5388,-40.4781,10.5282,-4.6279,121.6197,4.1969
-1179.6875,93.4229,-75.6812,-78.6389,-24.0628,57.7405,-8.9430,25.0398,76.2712,62.9165,119.0788,-8.7927,-16.4764,8.5810,38.5243,82.5304,-33.2639,-91.7140,-35.5328,-49.2429,-43.8967
-1171.8750,82.1599,54.9646,-90.5575,36.2586,-64.5570,-20.7489,-23.4619,101.8127,36.9869,108.6701,-20.6133,-28.0339,-3.0359,-9.7513,107.9931,-44.6428,-171.5589,-45.0372,-199.7097,-58.7950
-1164.0625,230.7661,167.4920,-10.6175,149.4413,-57.0128,22.2969,-127.1247,71.2056,-67.0151,41.1012,96.4202,15.2759,-69.8160,33.8246,-68.7060,-1.1704,-23.5572,69.2898,-192.3389,63.9743
-1156.2500,368.0853,199.7413,133.0201,217.3253,13.2041,93.0370,-167.0905,31.2961,-124.2634,-34.7547,129.1504,49.3037,-72.9090,31.1024,-145.7168,-40.0000,9.1498,101.3067,-195.2649,104.9762
-1148.4375,224.0673,125.6618,-18.6983,178.8673,-63.9605,162.4176,-134.4288,-8.9582,-118.7736,-75.9408,51.5317,81.9913,-77.3766,27.0315,-113.0854,-44.1745,5.5001,238.9662,-162.5387,242.6962
-1140.6250,142.1590,78.7123,-24.3258,168.5180,40.9441,155.9008,-103.6697,-52.0996,-92.8651,-82.0379,155.9953,39.7819,-46.7643,-14.9415,-45.3578,-50.2511,64.9447,228.7193,-172.7206,233.3046
-1132.8125,146.1656,82.6900,-22.0613,173.0822,80.7222,232.2871,9.9833,-49.3435,-81.2026,-152.2535,84.3654,42.4875,-7.2678,-49.0124,-5.7413,-47.4296,-35.7006,198.3702,-203.0098,206.1423
-1125.0000,38.9959,46.4966,-97.9870,136.4612,41.2912,229.4704,-29.5717,-50.7957,-51.4567,-43.6783,45.5403,77.0062,-46.9813,22.7126,-8.3303,-12.8081,-1.5454,267.8131,-168.5086,270.7170
-1117.1875,113.2667,49.7708,17.5311,105.2933,120.2961,198.1078,-23.6625,-45.8033,-47.9449,-1.6593,124.1541,8.9911,32.7522,28.8866,-39.4718,-6.7378,-68.9437,95.7158,-164.5635,96.5309
-1109.3750,121.9398,-11.5295,-16.5519,9.5401,50.6953,127.1540,52.6457,-5.4233,-49.2226,-108.2463,90.1694,-24.6188,35.8794,69.4599,0.7809,70.7279,-94.9449,35.0247,-85.2317,34.6436
-1101.5625,135.9394,2.5048,-39.3266,-10.9046,-8.6106,68.5095,-42.7497,-64.7550,-98.2426,-166.5537,104.4880,-9.9259,-23.7064,120.3220,15.3288,121.4827,-80.6474,-21.3741,-105.6115,-27.9058
-1093.7500,250.6570,82.2615,5.5938,-1.6382,-37.2348,2.5689,-34.4545,-55.3960,-106.4635,-158.1757,76.5082,35.4796,21.3969,55.8790,23.5624,93.9361,-139.6411,-80.0630,-200.2966,-91.9381
-1085.9375,262.9905,199.6460,-56.8760,46.2444,-98.2676,13.2342,-132.5815,-7.4443,-124.0603,-36.2103,87.1330,120.4999,-4.9120,141.0329,-74.6122,141.9827,-92.0318,36.8405,-187.3889,19.9014
-1078.1250,264.7777,237.4958,-16.8963,49.5768,-57.8694,-19.6474,-165.2562,69.9587,-75.3572,77.1935,54.1983,87.9825,-37.7782,145.6346,-71.3400,146.4771,-124.9747,-100.8153,-114.0290,-118.8051
-1070.3125,185.6186,158.4180,-139.8742,-64.0342,-143.4442,-68.4837,-30.8981,130.4127,17.4663,137.6507,-68.6876,38.5309,-86.6055,95.2952,-10.0212,133.0307,-133.8698,-143.4197,-16.6210,-163.1713
-1062.5000,161.3786,204.2701,-198.9436,17.2654,-276.1339,-127.4171,-89.6492,145.7714,6.1812,226.0033,-18.6741,52.9875,-182.5514,110.8492,-105.8172,148.4815,-17.8596,7.8696,-41.3148,-12.5659
-1054.6875,310.3959,318.3941,-42.7667,131.8244,-192.6014,-44.0948,-153.1606,119.3792,-41.5700,163.6109,-8.4119,63.7087,-172.2669,-25.3546,-132.3792,48.1747,-9.5910,16.4128,-137.7611,4.9636
-1046.8750,266.9816,310.0930,-53.0315,158.9496,-130.5348,53.7751,-165.1437,70.5319,-88.9543,77.7618,16.4112,88.9866,-147.4516,-36.0129,-180.3992,1.4097,88.2322,149.4945,-145.6601,147.1046
-1039.0625,242.0363,215.2563,35.1621,134.5265,31.9654,33.0961,-185.6756,13.1327,-112.9932,20.3434,69.6796,31.7208,-95.1905,-21.2300,-164.9741,-20.9139,98.5137,125.0147,-170.1116,127.1940
-1031.2500,169.2508,141.5894,-4.4913,62.2531,-7.4025,67.5620,-115.0660,10.8754,-88.5803,18.0652,-6.8888,-7.3908,-24.7892,-59.3004,-130.4018,13.9131,25.9483,157.6825,-172.4209,158.5753
-1023.4375,127.8372,136.3002,-80.7828,127.3299,-46.4265,138.3736,-227.1181,81.9565,-90.7303,126.1197,-9.0968,-9.1552,-27.0433,-25.0315,-170.4819,12.0796,-15.2743,257.6797,-178.3873,256.9056
-1015.6250,134.8812,143.4817,-34.6234,134.8572,-0.0256,220.6270,-218.7202,128.4759,-92.8784,98.6183,-36.8556,-36.4608,-17.8563,-52.3235,-162.1181,-15.3106,-78.0386,160.1216,-205.8989,163.7489
-1007.8125,58.9909,173.7337,-117.4001,129.4500,-82.5831,175.9230,-189.2828,120.0303,-105.0416,54.1652,-45.5481,66.2932,-26.6310,13.4244,-168.7135,13.3353,-12.7405,190.6118,-174.3556,191.6215
-1000.0000,129.5236,244.4097,33.2368,200.4537,-4.7498,142.6263,-259.4412,49.9768,-182.2033,-126.9097,68.1637,143.4597,-23.0179,17.5573,-166.9147,53.3627,92.9733,84.4994,-140.4188,91.1967
-992.1875,214.8217,294.8699,120.6220,146.2288,8.8122,46.0938,-136.8576,-9.3357,-163.8996,-185.2573,44.6260,157.3918,27.3249,-5.5638,-116.3800,-5.8637,37.4488,-4.8552,-159.7348,-1.2926
-984.3750,146.3915,225.6019,12.2746,148.2590,-63.3820,47.8165,-171.0325,-7.4044,-146.8782,-74.3748,46.3502,122.5767,-8.0913,70.5599,-150.6062,33.1513,39.1703,137.0244,-157.7897,136.0757
-976.5625,115.4190,230.7944,19.3790,152.7296,-55.1486,91.9857,-163.7513,110.9736,-107.5348,7.9447,-19.4716,57.2177,-1.0593,78.1235,-143.3860,77.6181,-61.6541,36.3455,-153.3832,35.5752
-968.7500,106.1096,221.6638,-32.8656,73.8567,-143.2846,39.8000,-68.8308,95.9962,-82.8549,-8.0967,-71.6401,116.5245,-16.3881,63.3444,-120.5247,99.7348,-70.8265,-42.6795,-125.3322,-48.4256
-960.9375,160.2712,275.0095,22.3449,92.4512,-124.9902,-87.9259,-159.4674,3.4665,-89.4885,10.2885,57.6409,135.2961,-71.2818,8.0102,-102.2228,7.2968,18.4499,-94.2549,-106.8401,-103.9601
-953.1250,75.4520,190.3718,80.5592,43.0571,-103.7211,-103.6484,-101.1170,-11.0719,-48.5897,31.6594,4.9317,120.0765,-50.1921,-42.3242,-80.9359,-7.1409,-31.2543,-72.8294,-51.3435,-79.2776
-945.3125,-169.4845,50.6104,-28.3502,44.5225,-138.6084,-65.5265,-99.9343,27.2255,-18.0678,107.8649,-29.9030,158.7140,-85.2620,32.1745,-115.8150,31.2588,4.9058,68.4234,20.0065,65.5481
-937.5000,-213.7997,7.4776,77.3507,36.5929,40.0890,3.1885,-68.1508,23.1114,-51.8489,-44.3505,38.8592,154.9650,-53.7461,-8.7376,-85.1109,27.2445,-3.3201,25.2672,11.9596,33.3519
-929.6875,-175.4498,-59.9759,112.7026,-64.6736,111.4196,37.5521,3.2699,-51.3592,-62.0016,-155.9316,37.2786,153.8809,54.4039,-10.0011,-49.7715,-47.1248,70.1082,27.7604,50.5670,39.5689
-921.8750,-155.9302,-75.2648,98.2258,-80.7917,207.8954,24.0642,-84.1564,-138.6903,-88.5547,-132.3820,60.8639,139.9420,40.7077,12.8641,-64.2771,-25.3607,124.6915,48.3882,35.3224,57.6437
-914.0625,-147.2422,-170.3950,108.9111,-140.7630,255.5110,-2.2813,37.5760,-164.8920,-44.1166,-195.6967,34.6172,4.1540,87.1598,-13.1362,20.3700,22.5422,63.4397,-83.8439,114.2319,-73.4225
-906.2500,-225.2755,-284.2527,25.8744,-219.4739,208.3703,-49.3846,100.5401,-137.8608,14.2152,-131.7682,24.6429,-5.3759,150.8526,14.1051,84.2586,49.6835,125.4484,-21.8333,141.3840,-16.3130
-898.4375,-130.7437,-260.5340,128.3974,-125.6241,273.7626,-93.9338,19.0479,-146.2889,-43.7646,-176.3122,127.2226,-49.3437,143.0829,43.8880,38.6851,42.3671,150.0151,-68.2760,60.0764,-59.6328
-890.6250,-134.4579,-157.0473,121.6805,-58.0180,156.8959,-63.7334,50.2883,-188.9846,-98.1358,-293.1289,83.5686,55.4422,136.0589,74.4159,-4.1465,35.7962,111.3399,-70.9727,22.5205,-61.6146
-882.8125,-144.1930,-97.5978,39.9424,3.5281,74.9850,-71.5886,-31.5168,-196.7457,-92.5858,-191.0277,75.8840,84.1686,53.9874,102.8715,-49.0254,65.1578,172.6221,-9.7473,47.9228,-4.5122
-875.0000,-95.2602,-83.4900,91.8638,16.7176,89.7101,-93.8003,-16.6639,-72.8730,-57.2466,-140.2976,53.8650,26.5465,31.5602,44.9656,-71.2523,43.1584,80.5688,-137.8741,131.9872,-128.7260
-867.1875,-76.8035,-29.8576,34.3022,0.4132,-5.0713,-41.5195,-1.3232,-20.5140,-45.5990,-124.0742,33.3651,79.4283,-26.3769,97.5508,-91.9934,58.6470,170.0216,-118.5093,186.5585,-109.5623
-859.3750,26.8215,73.9427,143.9094,104.2624,31.2809,104.9124,-112.8318,-58.0141,-141.5566,-235.7186,143.0170,115.4647,-64.1685,97.2661,-165.5895,58.2705,237.6324,-120.0126,113.2887,-103.4491
-851.5625,32.1153,79.4107,147.1787,179.7650,-39.7324,255.9916,-108.6891,-89.8774,-194.5801,-379.7386,73.3408,120.1594,-61.3178,-10.3807,-199.5439,-12.4675,242.9128,-10.8731,83.6785,17.4554
-843.7500,-129.6570,93.7994,-16.6234,265.1744,-129.8446,349.9682,-162.6485,-107.8576,-141.6732,-211.8800,-17.4160,103.7549,-151.5737,-26.1474,-216.6021,-65.3244,257.1019,109.1513,97.9708,136.3322
-835.9375,-248.1187,45.4995,-22.1169,216.8854,-25.6720,527.2446,-58.3034,33.4512,14.7770,1.2749,-133.8620,-12.3470,-158.5295,-69.6316,-113.3688,-108.8942,68.6031,-80.5333,155.5690,-52.2564
-828.1250,-352.1645,-93.3883,-171.1879,43.0021,-65.0970,487.9143,123.4324,141.1462,118.7730,109.8077,-245.8795,-51.0491,-123.0794,-70.7325,-78.7347,-73.0798,-0.4825,-43.8374,262.5745,-19.3472
-820.3125,-272.8335,-153.9079,-124.8791,-18.5410,-92.1701,202.9260,169.5236,77.1684,110.1362,7.6559,-125.5301,-114.3986,-41.2779,-61.5048,4.2497,-63.9359,78.7951,0.1845,271.9409,18.3749
-812.5000,-74.3341,-132.2611,38.5936,-66.9342,-259.0993,36.0827,333.7618,-16.6796,110.9512,-158.3662,-35.0145,-133.5933,85.6669,-82.1424,94.3796,-84.6602,101.2389,-48.6507,258.4677,-36.1415
-804.6875,-52.7046,-110.5021,22.2010,-45.2239,-459.9217,-18.6613,316.0981,-70.4475,97.1428,-102.3197,-15.3696,-76.6868,104.7061,-25.6986,77.6059,-28.3061,121.7921,78.5998,139.0982,80.1798
-796.8750,-72.2007,-23.8874,40.6790,41.3371,-404.9054,0.4484,188.2870,-52.3808,78.7343,-11.4500,4.1407,-94.9249,49.5951,-80.4193,58.6763,-46.1153,-2.7824,23.6904,14.5810,22.1150
-789.0625,-103.4737,15.9384,-31.6186,46.1010,-440.6922,0.7604,225.6555,-15.1307,109.8687,25.6035,-105.1184,-55.9627,13.6759,-77.9441,59.9286,-44.7273,36.8573,62.9730,54.2688,62.0794
-781.2500,-35.7835,12.7290,-67.9405,112.8105,-404.5309,-35.9783,151.9698,-14.9391,87.7856,62.5875,-68.4108,-19.0614,-60.3001,-5.5380,-13.8742,-8.4035,104.4510,129.1868,121.9168,129.2768
-773.4375,-1.3332,12.2729,3.4989,42.2581,-370.6360,-38.9757,223.0345,55.9898,87.4681,-14.6903,-107.9394,-58.4174,-26.5283,-8.3975,-16.9277,-11.3402,32.8071,23.1391,191.3329,28.2190
-765.6250,-0.2021,12.4713,-36.3780,7.3493,-374.0845,-41.3329,219.7485,52.5503,69.6197,-53.3394,-108.7816,-23.1323,-30.1055,62.3719,16.6710,59.3531,68.8242,128.7167,156.4085,130.5765
-757.8125,26.8488,40.5735,33.6674,70.3299,-304.6421,-46.7973,141.3727,47.9914,43.0768,-60.1106,-40.7070,9.0583,-71.7783,58.0229,49.1713,91.9254,25.7563,85.1765,43.4014,85.0104
-750.0000,-8.5854,5.1849,-5.7690,69.8131,-381.7046,-49.7655,175.4877,44.9122,44.5058,-62.3971,-116.1077,43.7569,-74.9542,55.1586,46.1692,51.9836,25.2025,84.1276,-28.0967,83.3001
-742.1875,-55.0871,-76.2823,-13.2688,93.2006,-352.8614,-94.8433,93.4997,-0.2854,36.0836,39.1917,-50.5808,36.3537,-120.2268,47.1730,-35.9404,6.9219,48.5615,142.9386,-38.6904,142.2143
-734.3750,-26.7068,-82.8936,55.1062,87.4304,-248.1777,-63.0854,161.3623,-5.6526,55.5984,-3.3917,-55.1728,-42.2027,-88.6464,-31.9814,-5.2004,-72.3073,-63.2123,100.5705,-10.4220,105.6755
-726.5625,-119.0452,-70.2583,-44.2322,28.8979,-238.2339,-16.0960,208.4677,4.2101,121.2307,79.2563,-81.4796,-31.5208,-41.8127,-21.9051,78.7932,-25.3004,-50.7234,182.4258,37.1121,181.6452
-718.7500,-41.9695,6.7669,39.8557,71.7500,-44.8822,-42.7166,108.9899,-22.5510,48.7264,-20.7175,39.6310,-20.4501,4.4295,-48.4514,89.1954,-14.9149,-43.8202,118.6588,-25.9332,119.4808
-710.9375,-77.5365,6.1391,35.3175,69.9479,-50.1789,-47.9963,66.8610,-27.9851,-3.3549,-136.3470,-37.8817,11.9638,36.0237,-53.6699,83.9496,-57.2001,-44.5483,116.2307,-26.6144,121.2040
-703.1250,-181.0265,-97.4379,-69.1370,72.1920,-82.4180,-7.2266,-39.2217,12.6128,-40.0236,-58.9545,3.6841,16.4253,3.6718,24.1366,-58.2465,20.5449,-8.2140,222.8304,45.7549,229.6354
-695.3125,-103.1515,-89.6623,50.7791,44.7842,36.6919,38.8947,44.0446,58.5442,-37.5555,-87.2417,13.6195,-10.7637,-24.3274,33.2814,-123.0942,-7.3741,-70.5141,18.7711,88.4782,33.5216
-687.5000,-52.9013,-110.5284,-12.9222,-82.2731,9.1626,-99.6372,163.6481,67.8044,13.4822,-79.1975,-13.0597,-0.6082,-51.9738,42.7598,-77.5975,2.0420,-20.4530,-1.9560,173.5622,7.3700
-679.6875,-128.2753,-150.0443,-50.2405,-121.9949,44.9873,-173.8226,125.6085,66.3971,46.9131,-6.8222,-50.3686,-74.1164,-89.2631,41.5637,-41.7481,37.7890,-96.0226,26.6341,239.0117,32.3839
-671.8750,-196.9702,-184.9184,-121.8833,-192.0745,-28.5375,-99.3771,200.2180,176.6139,120.9111,104.1763,-84.9914,-109.9852,-52.8912,42.0000,32.7578,75.1661,-270.9156,-43.1445,205.1229,-45.7009
-664.0625,-143.0778,-165.2396,-68.9296,-137.6081,-12.5018,-84.3919,142.3742,192.3481,114.5962,155.6835,77.9735,-20.3098,0.0397,57.9659,11.8178,90.0706,-146.2386,-95.3990,188.7858,-100.2710
-656.2500,3.4873,-158.9047,81.7051,-167.4957,100.1833,-190.7596,71.1850,120.7033,108.6890,194.8074,155.6149,-16.9910,39.6298,-50.4468,14.5321,-17.4018,-105.8871,-196.0257,159.1089,-202.9315
-648.4375,-44.0171,-136.6719,-43.7239,-179.4949,-62.2192,-207.2451,92.8898,67.9299,93.3725,141.8179,-6.8008,41.2098,-50.8735,-101.9877,35.1517,-68.9969,-116.6145,-67.7858,76.3576,-77.0138
-640.6250,-36.1888,10.8495,-67.8215,-32.2185,-51.3134,-123.4495,-6.0930,42.4342,11.7137,42.1173,6.1103,89.6950,-113.0672,-55.2545,10.0757,-59.3160,-111.0254,42.7190,-22.0730,36.8329
-632.8125,-20.0498,-8.3338,20.4014,-52.6520,35.8899,-36.3651,80.2251,92.2237,81.1945,91.6939,-16.6514,67.4796,-25.9584,-78.2394,96.3005,-46.3516,-200.1195,-13.4895,-6.1899,-18.7158
-625.0000,-111.8381,-135.4682,-41.2842,-144.0340,47.1621,-61.2367,92.5958,29.0379,127.4422,175.2913,32.6698,-30.6895,59.2087,-103.2033,144.5740,-34.3644,-115.1460,-0.6833,6.7579,-10.9532
-617.1875,-85.2037,-145.2083,63.4635,-119.0262,187.8456,-141.7155,85.3839,-88.7746,114.8168,94.2625,63.4159,-110.4676,88.7874,-183.7971,212.2498,-115.0090,-160.7509,-81.5053,-36.8794,-89.5632
-609.3750,-124.5413,-78.9607,-14.7530,-158.0276,107.5468,-147.2032,116.1721,-130.6232,80.5959,14.1982,-14.7914,-79.2607,119.3765,-116.4112,168.9301,-84.6758,-129.3287,-86.3471,29.5003,-95.5669
-601.5625,-113.4485,-68.3237,-0.5233,-113.6509,157.6689,-99.2974,55.3710,-83.0978,72.5993,62.5084,72.4390,-66.6746,58.3788,-68.6512,71.0139,-35.9628,21.5083,-77.8215,145.2957,-80.1498
-593.7500,-59.8883,-121.2458,128.1854,-164.8408,175.2489,-118.9466,110.0247,7.8570,156.8661,190.2453,54.1516,-121.6460,38.8349,-51.4615,88.5457,-18.8182,-30.1803,-200.8622,233.5592,-202.9251
-585.9375,-173.0037,-162.8748,-64.7653,-208.7408,-18.8510,-128.3012,99.9678,107.0869,185.6645,289.2508,-64.7921,-94.3259,-44.3932,-24.9967,78.3833,44.6035,-37.5524,-69.6388,226.1366,-77.6747
-578.1250,-150.9506,-107.3748,-36.5321,-153.5111,45.2130,-64.5218,17.0709,97.4388,144.2250,242.3836,-36.5563,-140.8715,-54.4544,-71.4175,69.3817,-38.8545,-86.7564,-119.3002,176.8833,-123.4289
-570.3125,-150.2251,-107.2423,-74.6211,-117.6478,5.9350,41.8851,50.8276,93.4173,131.5767,202.1602,-111.6358,-69.7820,16.1411,-38.2114,66.0346,-42.6837,-85.2879,-120.3389,143.3036,-123.4489
-562.5000,-166.8623,-124.5133,-165.0704,-64.1978,-48.7227,23.8847,-76.8043,74.9724,86.4851,256.5187,-128.0802,-13.1079,-74.6561,17.5637,-24.7077,49.0581,37.7956,37.1873,126.3364,32.9542
-554.6875,-140.3270,-133.6418,-135.3339,-4.6109,-21.2210,52.0310,-49.2786,65.6460,89.2611,246.9860,-135.3394,-95.2880,-83.2841,-28.5347,-34.2913,2.9244,-6.9441,25.8468,81.5324,26.3917
-546.8750,-213.3669,-206.3763,-177.1508,-7.6282,-101.2909,81.5728,-18.3653,57.6872,124.2927,238.8154,-104.1488,-138.0778,-53.4938,0.7422,69.5295,-3.8357,60.7413,127.8838,43.1364,126.5380
-539.0625,-135.1895,-269.9252,17.2710,-71.4538,129.8601,54.3133,-82.2413,-7.0968,63.9460,100.8182,54.2722,-237.6856,29.5073,-63.8137,79.5544,-31.4227,138.6520,27.0869,50.9563,34.2083
-531.2500,-95.0882,-301.5935,92.6267,-172.3929,203.9278,-19.0599,27.7812,-44.0071,84.8590,62.7052,92.6342,-274.4052,177.4186,-101.4882,116.4789,-32.1262,108.4907,-39.8414,89.6950,-34.6289
-523.4375,-182.3528,-247.6786,41.6314,-120.7498,187.6279,-34.8471,-60.5980,-60.3439,98.5533,193.1684,78.6370,-179.5449,124.9440,-43.5855,101.0109,-11.2465,126.9457,82.7832,74.0518,82.0847
-515.6250,-214.4466,-106.6332,47.8170,-13.9882,192.4888,42.4989,-93.8161,-20.5528,36.4784,86.7664,-26.1797,-101.5462,91.6346,-40.5550,104.7014,-45.2410,-82.4349,47.5232,-65.4215,48.8227
-507.8125,-262.6690,-49.7537,-82.1111,-27.4001,61.2278,57.6795,-77.1793,-4.9361,13.3120,28.1969,-82.1068,-11.7124,71.1884,12.3007,121.2521,44.5920,-130.9503,-2.9208,-79.0244,-8.8201
-500.0000,-149.8186,-78.8428,35.0480,-21.7770,103.0389,-85.0963,-109.4749,-1.2930,40.4875,141.6493,35.0452,-43.8499,39.8105,53.1749,88.8643,85.4493,-123.3989,-173.3515,-36.5665,-184.5017
-492.1875,-67.2557,-103.2499,40.9341,-151.4682,34.5698,-189.1776,-66.0673,3.0196,113.2794,218.7825,-31.0684,-74.3005,81.1445,20.7263,168.1851,51.9821,-182.1259,-270.1070,79.6107,-290.7681
-484.3750,-65.4621,-101.4762,-66.9372,-185.9782,-74.6672,-227.0681,-103.4560,2.5060,101.0616,181.1005,-29.9398,-74.5760,43.6947,56.4511,204.7073,87.6904,-109.6393,-163.6990,117.0107,-188.7973
-476.5625,-19.9001,49.0235,-51.0217,-105.7654,-60.1312,-176.2195,-199.0735,51.7221,54.2980,194.1518,-87.0248,-23.1244,-14.9866,69.8975,144.9873,102.1224,-204.3824,-120.5715,58.1858,-145.1768
-468.7500,-129.9686,146.8463,-203.7134,-43.2251,-250.2196,-74.0298,-243.3332,153.2657,47.6998,296.5268,-203.7135,79.6600,-95.3048,98.6675,64.6308,130.8763,-245.7579,-24.1161,-19.2702,-51.9636
-460.9375,-177.2128,170.4536,-208.5657,85.1006,-220.4813,-45.0444,-286.7882,145.5876,17.6985,324.6688,-136.5747,109.2277,-139.8053,90.2042,-52.9074,85.4028,-187.3183,-1.8932,-29.9137,-22.5072
-453.1250,-74.2432,95.2348,-104.1895,45.6091,-153.5269,-51.8588,-183.0416,138.0846,32.0899,242.9867,-140.2000,66.9791,-72.0870,46.9198,-22.2419,42.1105,-189.6517,-78.4984,1.6636,-93.2020
-445.3125,-52.2376,11.9900,-154.7614,32.0962,-206.5319,-32.6880,-199.2926,83.5495,-25.5544,78.2731,-117.7698,86.7064,-89.3496,65.6108,-2.5723,60.7956,8.0381,82.8460,-11.7311,73.5750
-437.5000,-1.6130,-9.6796,-59.6920,116.1490,-112.9145,24.0618,-288.9207,28.5875,-78.1076,23.1491,-59.7063,144.0110,-67.9955,47.8709,-19.2931,43.0556,22.3492,95.7530,-66.4999,91.0271
-429.6875,-38.7755,92.8272,-61.3948,147.3800,-116.0795,93.9969,-256.3468,60.8048,-94.8333,55.2244,-98.4074,213.4948,-35.4338,80.3060,-95.8020,38.4890,-15.1282,160.8279,-140.0490,157.1787
-421.8750,-51.3124,148.9081,1.5395,204.1867,-17.6172,117.5228,-305.1617,47.5989,-157.7037,-69.1187,38.5206,201.5554,-10.2551,104.3102,-107.6937,25.4973,8.0076,145.4572,-151.9768,147.5905
-414.0625,34.4666,92.2644,125.8004,111.2711,142.1663,92.3410,-183.6602,20.6637,-141.7718,-206.1787,51.7788,176.9055,75.2383,77.5964,13.7256,35.7936,-48.5271,16.3573,-138.5857,20.5196
-406.2500,-26.1259,-4.7915,-16.2982,48.9416,108.5855,21.7501,-142.5590,23.2977,-89.9409,-129.6686,-16.3187,142.8432,115.3488,116.4631,54.7504,75.6684,31.5616,23.8226,-93.5853,22.1160
-398.4375,8.6011,-41.5723,59.9451,11.8861,183.3345,-52.5442,-143.1447,-51.8008,-86.9969,-94.8935,59.9177,106.0626,115.7860,115.6007,54.0906,73.8161,-4.0350,-49.4484,-129.2805,-55.1413
-390.6250,-40.8561,-22.5781,41.0190,-39.3919,89.9141,-73.0490,-88.9286,-0.1311,-60.6298,-115.3449,3.9961,123.0638,96.0465,94.5173,108.2465,89.7410,-87.8096,-100.9444,-108.1566,-109.6158
-382.8125,-65.0838,21.5973,-20.6623,-30.4897,62.7317,-100.3649,-115.5033,7.7102,-34.9505,-35.6117,15.3116,95.2423,31.5218,102.6009,117.6097,97.8387,-77.3633,-59.2812,-97.8109,-71.9744
-375.0000,-52.4908,33.5525,30.4840,-19.8083,39.3664,-88.8854,-139.2627,129.3334,-0.0203,122.9163,-6.5456,34.2001,7.8065,77.4579,56.7786,109.7079,-206.0938,-84.8450,-120.6486,-98.3100
-367.1875,-124.0235,64.3415,-83.4800,11.7097,-150.1227,13.4404,-219.1829,158.7856,-37.9551,152.2710,-83.5092,100.9883,-35.0521,143.1394,-23.1917,138.4037,-172.9546,-19.5892,-157.6197,-35.0853
-359.3750,-66.6853,15.9532,-54.5548,33.0537,-85.7316,4.6087,-302.2369,1.0592,-107.1578,-5.5591,19.4085,18.6066,-44.0348,59.6416,-32.2976,54.9261,-80.9419,-34.5209,-100.7203,-43.1505
-351.5625,-4.7313,-100.8599,13.0004,-84.0277,-56.7111,-4.6313,-164.6834,-46.0890,-12.2937,94.1951,12.9602,-27.1961,-15.4040,-24.2746,-3.8016,-28.9681,-90.2998,-46.8725,-4.1981,-55.3736
-343.7500,100.9492,-31.9942,125.2972,-15.4232,-18.9532,30.8285,-164.4259,25.4456,-33.2564,165.6299,125.2534,45.6729,-126.0597,47.4796,-151.6033,79.8138,86.0565,125.4411,-39.9576,124.5407
-335.9375,314.2395,179.4412,312.2209,125.7616,129.4207,141.8859,-236.5512,-12.4394,-225.8192,-275.3486,238.1736,120.1228,-125.0963,46.8100,-150.7934,42.1699,123.0325,54.3221,-179.0968,68.7439
-328.1250,314.8958,249.1989,233.5287,124.2794,86.1796,133.2791,-206.3216,-166.9980,-243.8106,-431.9872,196.4854,149.8994,-21.7645,38.4663,-47.6147,-40.1463,229.3769,-19.4806,-142.8709,-8.5422
-320.3125,401.9659,17.3308,331.2790,-36.8217,218.3748,-139.9326,-148.6742,-404.1785,-164.9922,-448.2416,441.2244,-12.9421,110.9908,-51.4999,121.9802,-93.0871,421.1301,-216.9257,48.7639,-213.9569
-312.5000,604.8904,-203.7261,511.9069,-364.0901,435.4539,-439.3015,177.8345,-595.5295,-46.3275,-602.6566,585.8488,-275.9544,363.6130,-279.6409,374.4346,-284.1970,412.7546,-544.5467,216.2630,-545.3027
-304.6875,624.5720,-293.0798,572.3269,-452.6339,493.3315,-602.9279,272.1040,-687.1550,-32.8644,-620.3400,609.2614,-293.2455,421.0093,-334.0569,394.6558,-374.5762,431.1458,-494.4588,164.5325,-496.4963
-296.8750,614.6507,-128.0821,603.1735,-359.8091,522.6389,-538.1571,227.7959,-586.4039,-30.0819,-483.6447,566.0970,-264.1531,376.8299,-380.0892,277.2941,-421.5701,315.9544,-542.9958,119.2156,-542.4114
-289.0625,536.5746,-103.2626,444.8908,-334.1488,435.8245,-516.5365,250.3360,-454.8235,33.0457,-353.1064,407.8152,-279.2208,326.5157,-358.2851,262.7941,-326.7259,272.6282,-518.7020,216.7639,-519.9037
-281.2500,522.1600,-189.8159,431.2879,-315.8555,457.6938,-533.2681,308.5371,-399.6080,46.3417,-370.9230,467.2054,-331.6626,310.8716,-339.8545,209.9533,-344.2536,398.9608,-501.7981,307.9781,-493.5121
-273.4375,534.0533,-215.0990,480.0027,-341.2859,505.8851,-523.7056,429.0495,-391.1070,38.9965,-434.4521,443.9172,-321.8243,358.5479,-403.1429,184.4258,-407.5027,305.6136,-458.6146,248.5120,-444.6979
-265.6250,371.0724,-134.2971,346.8543,-224.6328,371.2145,-402.0482,330.6616,-381.5316,-13.3512,-388.9046,346.7697,-200.9018,259.3443,-357.3537,85.0117,-397.6725,318.3820,-203.3666,120.1535,-188.0112
-257.8125,366.8250,-69.8021,347.4382,-125.2988,443.2701,-222.6954,217.9855,-349.2808,-58.2726,-393.6758,310.3509,-203.2906,183.8573,-361.8937,46.3071,-366.1661,278.8705,-175.4489,45.4996,-153.8729
-250.0000,342.7496,-132.1673,280.1970,-152.8261,411.4992,-145.1998,332.4565,-310.9034,-24.8326,-390.3063,243.1147,-200.5399,261.5261,-322.3000,50.7592,-290.5285,288.5284,-134.4034,91.0075,-111.6737
-242.1875,232.1539,-174.0922,204.4386,-89.9216,408.2101,-77.2605,291.3871,-317.0979,8.9496,-250.5108,241.3497,-205.3567,184.6626,-255.2830,9.6723,-222.4622,354.6451,33.0484,120.9699,56.6413
-234.3750,202.6326,-134.9740,214.7487,-85.9858,378.9970,39.7252,299.3869,-238.2657,30.5238,-208.6942,177.6574,-272.1385,191.8728,-249.2363,53.6523,-253.3686,148.8305,-70.4861,20.9891,-49.5498
-226.5625,140.3128,-130.7033,109.2482,-151.9129,235.9734,114.8481,227.5345,-200.3118,9.6982,-207.7497,145.1584,-233.7910,158.2469,-212.0572,55.7894,-179.1413,156.1857,-66.9117,28.1632,-51.6688
-218.7500,142.9374,-129.5405,152.6791,-151.9665,277.8781,81.8593,195.5924,-235.4850,1.3100,-168.9261,189.5831,-229.5630,126.5389,-136.0023,23.8342,-177.0369,88.4577,-138.4732,30.2534,-126.6234
-210.9375,219.2375,-91.7385,155.7760,-183.3921,243.4540,8.5141,307.3036,-199.0258,20.7527,-206.4564,192.6819,-155.6956,164.4883,-137.3125,61.5298,-141.3001,58.3965,-207.3975,36.0133,-200.1163
-203.1250,304.1130,-8.3854,170.4435,-101.2738,255.6137,-18.2783,245.5691,-227.0289,-4.1273,-197.4394,280.3474,-71.2915,175.9997,-91.0900,36.7774,-131.0293,248.8910,-196.7982,14.3283,-190.9095
-195.3125,433.7033,12.6620,341.8231,-80.4649,315.4953,2.6361,156.5466,-244.3514,-28.5033,-214.7399,378.7252,-87.1967,198.2269,-144.1882,58.7344,-185.0779,201.1028,-318.5205,-32.6517,-312.6316
-187.5000,337.2802,53.6542,236.1800,-74.7221,97.3723,-32.5072,85.4787,-170.7500,-46.9319,-141.1033,273.0843,-12.1680,127.4198,-144.3559,-12.3563,-111.1986,139.2813,-208.3211,-59.6769,-208.1929
-179.6875,294.5952,114.3399,196.2690,20.6960,92.9802,-149.9523,-30.8790,-178.4607,-62.8562,-75.7808,269.1639,17.5389,48.3264,-114.8484,-18.7392,-81.6390,97.1708,-149.4546,-102.9994,-154.8931
-171.8750,264.7336,81.8165,165.1742,22.8981,23.4117,-147.5943,46.5662,-103.3863,-4.5503,-37.6830,165.0718,-15.9673,52.0467,-150.5569,21.6859,-117.2943,-4.1209,-183.8011,-62.5152,-188.5932
-164.0625,209.2535,58.6394,36.4621,35.4432,4.2258,-95.8852,26.3657,-52.9822,-12.0283,13.7463,110.3546,-1.1463,-41.8716,-99.9329,-72.5296,-66.6201,80.9495,-32.8270,-13.6736,-33.0332
-156.2500,267.0874,43.7416,174.0629,-14.7283,140.3574,2.1222,50.4819,5.7107,-34.6827,-74.5261,210.9507,-88.0428,20.5217,-114.0292,-84.4389,-80.6610,68.3330,-119.5658,9.4762,-110.3849
-148.4375,230.9272,-30.1801,130.6801,-88.9125,132.5101,-44.8676,115.5991,-78.6069,-11.5075,-159.7920,94.5672,-97.9565,84.9189,-162.1331,16.6540,-128.7087,66.7284,-55.3208,77.6368,-46.4113
-140.6250,109.0220,-84.8756,44.5697,-38.8561,118.9405,-24.6013,63.9742,-133.6777,4.2146,-66.8060,81.4484,-113.6339,-40.4195,-179.0029,2.0059,-145.5214,85.3811,100.1468,25.0459,109.3753
-132.8125,32.4238,11.7153,3.7670,22.4937,112.6923,114.9692,93.6471,-31.4571,41.9646,71.4727,3.6493,-85.0190,-46.4497,-114.5822,-41.3434,-118.0427,-62.6498,123.8976,-17.2410,131.8152
-125.0000,-4.4024,8.0400,0.7416,18.5877,108.2274,144.2875,124.0650,69.4950,56.6017,136.4915,37.6236,18.3279,-15.7175,-12.4272,-83.9353,-15.8290,41.0783,118.3679,-18.7777,125.7977
-117.1875,44.9811,19.5371,162.9292,29.8605,268.9860,192.8065,173.7071,6.6352,-1.3354,-74.2890,125.8035,29.8518,-2.7706,-39.0889,-71.3178,-79.4313,-14.9860,-83.9774,-40.1083,-66.9781
-109.3750,70.6656,-28.6895,110.4286,-18.5843,141.0748,283.6257,192.6569,-50.9323,-25.4273,-204.7726,36.3031,10.6604,-20.5103,-96.4518,-53.3917,-99.7341,-25.7440,-204.0346,18.8659,-184.9354
-101.5625,106.8103,-65.4762,77.3981,-20.5943,70.6447,357.9015,46.0660,-52.0590,-39.0565,-132.8150,114.2652,10.9060,-55.7813,-60.3715,-88.9980,-63.5930,80.9447,-136.6659,90.2813,-119.9999
-93.7500,196.8057,-14.4242,136.2231,-4.7668,90.0775,302.0354,65.3241,0.6571,-3.3734,-43.0141,99.0870,-8.0019,-36.1904,-80.4416,-106.7470,-83.6057,29.4929,-263.4538,108.5396,-249.1232
-85.9375,86.1568,12.9652,91.4090,22.4074,7.8790,327.5227,55.9221,61.7153,36.2421,55.1410,91.2736,17.4318,-46.2355,-56.1672,-116.1406,-59.2657,59.3941,-377.9033,138.1455,-366.1756
-78.1250,64.7588,23.5844,146.8537,103.8209,134.9438,489.2662,-76.2180,75.0229,-9.0892,68.5533,109.7116,32.1025,-104.0220,-42.6488,-174.2840,-45.6851,37.5509,-510.1143,81.0052,-492.2250
-70.3125,29.7118,-13.4656,70.6531,30.5816,21.3758,520.3633,-7.0076,67.6772,8.4663,24.3123,-1.4841,-10.8809,-71.4574,-86.7854,-105.0729,-89.7627,-32.9260,-407.9785,45.2180,-392.2277
-62.5000,-30.9201,-7.1268,-25.1208,71.7432,-39.7642,493.8677,-106.3930,39.7286,-28.2263,70.4566,10.7393,-0.4762,-133.4844,-77.5377,-167.4617,-80.4558,82.0049,-122.4600,-16.1703,-106.8634
-54.6875,39.2466,24.0038,49.9134,138.6942,34.9134,528.1820,-106.9726,73.5719,-42.2465,30.4043,-24.2328,-39.2808,-133.6939,-80.4994,-169.0486,-83.3541,45.7495,-128.1481,-52.7617,-106.4692
-46.8750,-47.4298,5.2708,-42.8855,154.7899,-60.2286,504.6467,-129.4063,84.5561,-54.0619,4.5040,-80.0417,10.0538,-154.7424,40.6861,-153.4821,1.8950,134.6546,26.3092,-34.2017,46.2406
-39.0625,-97.1578,58.4704,-53.7236,206.8265,-35.3999,417.0762,-251.8836,142.4883,-90.8621,63.5513,-89.9049,32.3307,-240.8350,99.8145,-239.9558,60.0909,84.5079,148.7121,-13.6991,168.7504
-31.2500,-124.7951,-9.2428,-84.4747,104.9619,-104.4623,345.6175,-212.2623,216.5236,-50.2917,100.7083,-121.6690,-2.2993,-164.8259,100.0441,-164.3315,97.3806,-15.5411,114.2151,-9.0933,126.2044
-23.4375,-101.9689,-59.5210,-98.7693,89.5437,-82.0462,217.6141,-155.1836,161.0133,-44.9555,44.3112,-61.9763,16.4998,-71.3565,117.7154,-107.2466,115.1119,78.8580,203.1441,13.9623,212.3404
-15.6250,-87.7834,21.5333,-45.7089,99.4581,41.7391,81.9619,-69.7335,97.8460,-14.2413,18.2486,-82.9244,-8.3641,-20.5204,91.7360,16.1975,89.1927,-49.3802,141.4117,-77.6253,144.2996
-7.8125,-150.5886,61.5785,-187.6396,69.3673,-137.4448,10.3123,-30.2841,134.6695,18.0076,129.1797,-187.8637,66.7642,-53.6750,128.7575,-18.3562,126.2782,-111.6133,179.6767,-71.2101,172.3274
-4000.0000,-7.1677,-25.1192,38.0168,50.9022,-1.4595,48.6873,-49.8846,-4.2087,-22.6193,15.5506,36.4820,-26.5479,-37.1399,4.8049,-75.3838,5.0917,83.9509,69.8253,-2.5268,76.3715
-3992.1875,-8.9495,7.6397,75.8185,14.6620,34.6876,12.4301,-50.4300,-4.1576,8.2564,16.0022,0.2554,-26.9956,-37.6031,4.9593,34.5940,5.2683,-21.4920,-37.1725,-4.2752,-36.4671
-3984.3750,-45.1275,5.9935,-1.7842,-21.9855,-43.5692,7.7690,17.6392,27.4943,-2.4798,-61.9437,-40.3830,41.1479,-6.4632,36.7053,65.1760,1.0407,-22.3419,-2.5770,-40.4259,-3.7312
-3976.5625,85.1308,205.7856,28.0443,73.8146,22.6099,-35.4409,-63.8368,-53.3975,-122.8276,-216.4279,63.4217,106.7418,-13.8802,29.9059,-16.7861,-6.7318,39.2557,-47.5188,-121.1278,-47.4946
-3968.7500,222.9820,309.1732,98.4729,72.2155,55.3905,-75.0456,-31.7154,-93.6864,-114.2074,-220.2960,22.8309,138.9286,54.2998,-47.3004,14.8586,-46.9146,38.4460,-153.8668,-159.2276,-157.3435
-3960.9375,209.7253,295.4521,46.8005,59.5054,4.0674,-126.7539,-10.6821,-146.0814,-55.8517,-87.2609,45.1357,160.0114,75.3837,-25.6186,35.4051,-25.2089,26.5427,-131.3180,-101.4221,-144.4757
-3953.1250,261.7254,240.9721,69.3891,-28.9584,99.0070,-178.2112,46.5950,-124.2316,-38.8291,-102.9914,30.7060,70.3413,96.7226,-41.6864,18.1931,-41.2525,-26.0890,-184.5221,20.6392,-194.1895
-3945.3125,208.1369,186.8917,-25.6071,-152.0215,114.3637,-162.2633,208.2777,-71.9789,-18.3261,-160.3376,-63.3196,-24.9314,111.4630,-62.3497,-3.6196,-61.8950,-43.3212,-131.3364,73.0994,-134.5523
-3937.5000,154.9824,63.2524,-6.1665,-169.6461,169.1632,-142.8692,153.4113,-54.2743,23.2022,-68.2195,-7.9040,-117.7498,55.6501,-80.5516,14.0243,-80.0759,10.8873,-78.7007,125.0112,-78.2561
-3929.6875,176.1710,47.9523,50.6210,-183.9306,189.3237,-86.1340,208.8948,-34.2149,74.9020,-11.7462,-24.1411,-136.2263,38.1865,-135.4010,69.0236,-97.9039,-2.5697,-56.7357,76.2765,-55.2914
-3921.8750,108.7544,51.0359,-57.1978,-144.8418,116.8848,-10.0067,172.7990,-32.7496,58.3498,-8.8665,-58.9879,-98.3138,2.1354,-59.8545,32.4378,-59.3317,37.3666,88.6141,114.9548,90.9165
-3914.0625,87.6459,99.4166,-36.7201,-60.4630,136.7415,47.4115,45.0039,-12.9906,-4.6156,-25.6735,-75.5260,-42.1051,-51.6157,-77.0053,-21.8531,-76.4604,-52.3907,67.2581,22.9410,71.7328
-3906.2500,2.8445,50.1085,-124.9314,-38.7876,-26.0989,69.1237,102.5048,45.0690,47.9488,32.7931,-163.7641,-21.5933,-31.0634,-55.8499,34.1541,-18.2866,-135.8615,19.1767,9.2235,17.4567
-3898.4375,-33.3624,48.4031,-160.5609,-3.5246,-25.3545,33.4238,65.6077,81.7388,60.0707,33.8502,-89.4163,-21.4720,5.0863,-18.0867,107.7653,-17.5008,-100.7366,18.6829,8.1153,13.5410
-3890.6250,46.0806,91.3415,-43.5449,5.3777,18.0431,3.3606,108.3577,52.0643,85.6312,-33.4224,-45.4183,-51.7076,84.8825,-121.6702,223.0336,-121.0654,-90.9680,-148.1752,-19.3276,-152.9713
-3882.8125,85.9235,130.6698,-7.1336,-24.3344,-57.1680,-71.3086,142.5279,-23.2048,46.5513,-144.2785,27.9715,-17.5463,83.0868,-86.8586,183.7090,-86.2307,21.1936,-142.6440,56.6376,-146.9524
-3875.0000,175.8556,149.0927,87.3659,-4.9493,0.7170,-123.8789,89.8005,-39.3670,4.8823,-160.0364,85.4579,2.7172,66.3927,-65.9391,93.4813,-65.2917,41.4486,-192.0081,110.7042,-193.4280
-3867.1875,94.7464,103.4726,2.8198,-50.6195,-157.4392,-170.4990,77.0267,22.4213,63.0356,49.1472,-36.1005,26.9307,53.6517,-41.0796,43.2097,-77.4088,-73.3563,-166.4314,135.7158,-176.9827
-3859.3750,2.8359,46.0497,-160.5325,-71.0899,-211.4010,-150.9143,-13.5347,116.4070,80.5707,216.5230,-125.4685,9.3490,-73.8893,-21.0296,-47.8588,-20.3352,-92.9513,-47.6474,184.9310,-59.5175
-3851.5625,44.7743,52.4745,-77.0325,-28.7067,-91.5020,-67.4734,68.7481,199.2296,6.7295,5.7454,-151.9757,18.6157,-64.5909,25.8657,-76.0846,26.5801,-190.6903,-111.0098,85.9999,-110.7516
-3843.7500,23.3563,30.5382,-141.8783,-49.6859,-120.9478,-22.3778,148.6811,206.7065,-8.0146,-60.3795,-179.8358,62.5253,-58.6393,69.4124,-105.6616,107.1467,-105.7898,-25.7345,99.7249,-22.1379
-3835.9375,19.9274,26.5868,-108.7321,-52.6818,-51.3926,-25.2859,-2.3822,166.1914,12.8472,83.5016,-73.6952,-15.5684,-98.6847,-7.0360,-110.2324,30.7185,-71.8892,6.5354,132.4631,8.1137
-3828.1250,-26.7524,-20.6309,-84.8331,-132.9417,-65.0714,-39.4481,93.3154,78.4377,75.2823,106.1341,-122.8090,-66.9160,-75.9779,-94.7380,-16.0474,-93.9633,-47.2588,-3.4624,85.9562,-3.1943
-3820.3125,-84.8885,-79.2940,-107.4033,-86.6637,-52.2097,11.9410,32.5718,-55.7566,36.3675,47.3157,-73.3912,-17.7039,-27.7209,-44.8841,32.6911,-81.0892,36.9069,114.0853,-7.0049,112.1523
-3812.5000,-35.2301,-30.1589,20.8202,33.4107,39.4515,66.1252,-24.3771,-75.1437,-60.0199,-156.6867,-18.1714,72.3120,26.3339,-27.2188,49.2310,-26.4075,-18.1343,58.4184,-99.1619,62.2916
-3804.6875,-73.9736,34.5712,-61.3595,30.0705,-79.2881,94.9002,-33.7122,-47.9238,-45.0378,-91.0928,-63.3616,136.9277,15.9940,0.0461,75.3876,0.8776,-56.5974,55.3217,-172.7073,50.2312
-3796.8750,-105.5136,74.4981,-53.3488,-0.0825,-72.8428,-7.1364,-135.8354,-76.5031,34.8787,174.6831,-18.3529,70.7449,-13.1430,8.5081,119.7511,9.3597,-85.8625,-9.5843,-167.0391,-29.3861
-3789.0625,-47.4487,27.0233,7.2659,-82.6473,-49.7913,-94.5867,-4.3527,-90.4835,64.0143,124.0698,5.2565,-54.8378,46.3250,-5.4348,177.7157,-4.5630,-165.5399,-160.9098,-179.7559,-182.7981
-3781.2500,-3.6517,-35.7032,14.6104,-73.4776,-42.0033,-159.2933,1.8975,-118.7035,4.4130,-52.7790,123.5929,-11.6668,89.5442,38.3710,184.4390,39.2668,-51.4838,-152.4901,-135.7153,-171.1252
-3773.4375,88.6768,21.1221,150.4888,-15.7591,56.3289,-170.4520,-10.2999,-131.3744,-24.4120,-137.0746,185.4754,13.0546,77.3106,26.7297,170.7214,64.6455,-63.8840,-235.5220,-79.1327,-248.5386
-3765.6250,149.8052,80.7497,100.1699,-95.2450,-67.5294,-220.8127,12.3165,-108.2503,-5.0052,-113.5790,135.1500,34.5805,98.8820,48.8834,192.8130,12.8192,-36.4943,-243.7736,-51.7580,-263.9123
-3757.8125,196.8238,57.2741,77.7319,-47.8410,-17.4958,-207.2779,-84.1631,-131.2216,-28.0220,-99.1713,185.7139,48.0127,112.3563,25.9413,168.8116,26.8970,11.7943,-196.1211,-5.4750,-215.5856
-3750.0000,111.7987,41.7503,63.2534,-132.4884,40.5005,-221.7878,9.3052,-37.2328,38.3041,-41.8191,98.2344,-4.6043,96.7773,-26.0523,189.7573,11.9270,-105.9749,-245.5205,85.7638,-262.3308
-3742.1875,-31.3322,39.1240,-121.3324,-204.2492,-70.5994,-223.3937,80.6971,-2.3350,113.2243,140.4141,-50.3594,-7.3140,20.1053,8.8549,149.6064,9.8577,-106.8641,-142.0300,118.9112,-164.1244
-3734.3750,29.9670,64.9316,-91.4819,-143.5795,-4.2400,-191.5555,37.5491,-7.9843,114.5901,209.1029,-19.5086,-50.5761,-23.1117,-70.7855,105.9185,-69.7593,-151.3189,-151.1022,74.5184,-170.5647
-3726.5625,5.3612,-30.1806,-81.5300,-131.8334,-32.7712,-109.6270,81.5149,-0.5306,131.5107,216.8935,-47.5671,-78.7485,-15.2160,-135.3273,75.3592,-97.2740,-102.7008,-69.1056,86.2318,-80.6042
-3718.7500,3.0415,-102.0063,-82.2980,-63.8119,2.9860,-0.4101,6.7932,-0.7640,55.5664,69.9917,25.6630,-80.6131,-17.0089,-63.5606,37.1157,-62.4841,1.1959,35.1807,119.2502,34.2274
-3710.9375,27.9640,-114.5820,19.1789,-109.5440,140.9960,175.0485,107.3175,-9.7389,11.8096,-159.6413,17.1427,-91.2243,47.4471,-72.5397,101.1257,-71.4403,-114.6730,-45.2982,73.5221,-36.6212
-3703.1250,-129.5644,-131.6038,-145.7966,-126.7449,11.5503,266.0516,124.4063,44.8480,59.3556,-31.7337,-111.8331,-37.2867,101.4590,-17.9696,117.7000,-16.8474,-165.0117,42.7497,56.3511,43.8334
-3695.3125,-129.2454,-96.7695,-104.9338,-54.1051,89.9434,197.8939,92.3468,49.2913,102.7600,121.0246,-32.9620,-69.4898,68.3215,-49.5476,84.1296,-85.3990,-163.5112,-60.3549,58.0316,-60.5321
-3687.5000,-59.4240,-96.4311,-36.5734,-123.9696,84.8383,46.2310,159.7904,7.2431,103.8390,42.2929,-1.5963,-111.1933,99.6862,-91.6261,115.0622,-54.4551,-92.5281,-200.9830,93.2147,-202.6835
-3679.6875,-88.0618,-91.5502,-64.6746,-118.2961,-17.7316,-55.8921,20.7975,15.7481,73.6830,124.1046,7.3048,-68.3364,-3.3901,26.8478,48.5507,28.0408,-50.0057,-124.0704,99.9534,-132.5024
-3671.8750,-62.5049,-66.4798,-33.5779,-57.4265,12.9043,-61.8161,-59.9960,82.4503,99.4711,265.0915,-35.5878,-75.2753,-47.2636,-16.4823,4.2503,-15.2635,-93.2898,-273.9553,90.8985,-282.5842
-3664.0625,-26.7037,-65.1593,-38.2349,-90.3074,6.7987,-102.4845,81.4783,77.4060,85.1605,113.3368,-4.2446,-7.9568,57.1224,-22.5676,34.2140,-21.3272,13.6538,-271.5954,92.0879,-277.3221
-3656.2500,72.4316,-72.4721,65.4362,-27.8375,111.0335,-145.7955,0.3060,-40.2794,-3.7105,32.9537,100.4351,58.7243,49.8573,44.7009,-45.4764,45.9625,78.9297,-172.8743,50.6263,-176.3744
-3648.4375,18.1129,-57.2318,10.6523,-10.8267,-18.1744,-90.5514,-54.3116,52.5878,-1.8638,162.1088,-28.3433,76.9584,-41.8611,100.5168,-138.6118,64.7993,-9.2652,-119.6170,-3.2782,-124.8441
-3640.6250,-82.8240,-88.6137,-92.7524,29.5572,-120.9865,-10.9096,-121.5048,94.8576,-19.6862,131.6517,-58.7455,82.5956,-109.1751,179.7343,-133.3343,181.0373,66.9271,-45.9688,37.2365,-49.5391
-3632.8125,52.2223,-130.0125,120.8324,-12.0730,54.2113,-55.2713,-20.6863,14.1368,-7.2232,-59.8033,44.8502,0.2426,-80.4859,134.9597,3.9510,136.2830,97.1044,-191.3242,101.7573,-187.3593
-3625.0000,-23.7323,-241.4007,36.4189,-86.7124,-30.5800,-102.6280,114.1443,-33.5702,56.4546,-33.2519,-39.5632,25.9004,-19.7889,86.1824,66.2448,87.5254,57.2526,-125.6968,131.2700,-125.9804
-3617.1875,-99.1021,-176.1850,-37.4121,13.2434,-66.7796,-65.3907,3.5759,-70.6706,50.9365,113.9063,-3.3896,61.1696,-56.4877,50.0062,27.1435,14.3646,17.9868,9.5254,-13.6134,3.4331
-3609.3750,-94.1792,-101.6719,-31.9439,88.4916,-25.6708,14.1416,46.3094,-65.4672,48.1082,83.3492,-69.9162,29.7362,-51.8810,-54.8674,32.3522,-53.4941,-46.9923,15.0241,-113.1892,14.6813
-3601.5625,-104.7149,-76.6200,-77.9364,114.2698,-109.0134,77.2132,34.6200,-39.7040,40.3588,72.3166,-79.9067,54.8558,-99.7131,44.8092,20.1345,9.2009,14.5598,76.0556,-87.2046,75.8274
-3593.7500,-2.9125,-46.2175,30.3997,76.3899,-1.0180,39.6252,33.2897,-40.5838,40.9662,34.6442,-8.5562,-20.6584,-29.1943,43.8415,92.2802,45.2470,-57.5600,-32.5683,-90.8667,-36.0288
-3585.9375,-12.3636,-162.0521,-20.5189,-38.7398,-15.2759,-12.2175,164.7193,-54.7015,56.7515,-90.2590,-22.4714,-35.4129,139.0725,27.6226,223.1826,66.0454,-101.9584,-77.4614,-100.7820,-86.0215
-3578.1250,-106.5263,-220.5851,-6.1555,-96.5806,35.7536,-69.7624,106.4615,-76.5085,55.0953,-38.8483,28.8998,-57.8550,154.6436,6.7128,200.3863,8.1523,-88.0754,-30.0670,-87.3902,-38.7161
-3570.3125,-98.0425,-213.4731,77.8487,-89.7780,82.4333,-96.6696,115.8558,-30.6610,82.2513,45.2165,38.9166,-85.6407,126.8626,-20.5481,136.2503,-19.0884,-80.5603,-126.0380,-45.3446,-130.5018
-3562.5000,-126.9709,-171.7597,9.4423,-81.3868,-22.3002,-53.9793,46.8622,48.7892,75.6536,87.8719,7.5155,-43.8217,57.6894,95.7921,103.7308,134.2714,-37.4646,-49.4181,32.3037,-56.6264
-3554.6875,-114.1153,-160.2524,99.8174,0.8004,66.7607,-38.4872,-11.3309,65.0422,26.5125,-6.6743,60.9082,-29.1974,73.3204,110.9375,82.0204,149.4320,-24.5810,-106.9850,45.7618,-106.7556
-3546.8750,-141.0769,-151.5444,68.3814,-59.8170,72.0313,-104.7818,141.6878,70.5134,58.0565,-37.0304,-6.5134,-23.3646,152.1550,80.2840,86.5148,81.7932,-84.5253,-167.3502,90.4177,-166.8561
-3539.0625,-122.5048,-168.2733,-20.5195,-111.8840,55.8502,-157.5125,88.2684,91.5454,59.7862,57.1536,13.6008,-39.9607,98.5438,101.1818,32.5682,65.7051,-63.9394,-148.1660,109.6146,-152.5207
-3531.2500,-30.0767,-181.1464,42.4341,-194.1041,45.5330,-204.3985,114.6955,117.4188,84.8148,120.1855,-33.4259,-87.6972,50.7905,53.9232,21.4805,92.4598,-110.5161,-160.1548,97.6558,-166.5057
-3523.4375,-124.6559,-136.0267,-57.6100,-113.3479,-128.7766,-121.3000,86.1394,90.2847,78.6691,130.2242,-59.4614,-6.4342,22.0505,62.6593,29.4108,64.2088,-64.1186,25.8312,37.6965,17.5743
-3515.6250,-88.1561,-64.8130,57.4265,29.4931,-13.9847,-43.1117,-19.3058,-14.7479,1.6036,-11.6481,92.5920,-1.0665,64.4216,-5.4929,71.4570,-3.9312,8.3615,63.9155,-100.1587,62.0042
-3507.8125,-61.1099,-109.0453,119.0118,19.8827,10.3695,18.6269,4.8087,-99.2263,-13.0669,-95.9905,43.1909,-50.1371,125.3530,-18.0919,132.0682,-16.5148,-0.6308,90.5396,-178.4686,90.6249
-3500.0000,-192.8829,-99.0663,19.7794,30.4745,-15.0885,67.5687,-56.8683,-52.4899,-25.2584,-12.1351,17.9687,-2.9853,99.4896,30.5110,68.8854,32.0991,-25.4461,206.3605,-203.5804,204.6379
-3492.1875,-181.4264,-88.8345,35.7825,-27.6827,110.6944,119.7516,-79.2952,0.5031,-22.9560,3.9870,33.9864,-98.5770,113.8731,-27.6346,46.9582,10.9637,-48.0284,112.4162,-155.4379,115.2013
-3484.3750,-203.5697,-146.1974,-27.8192,-120.4510,83.8701,93.3236,3.6996,9.9047,-22.0945,-59.4874,-29.6041,-87.7600,86.6632,-18.3884,55.4423,-16.7767,-34.2329,195.8437,-142.8890,200.5062
-3476.5625,-149.7121,-128.5545,-4.4294,-67.2226,144.0387,116.8886,-119.2958,-39.6931,-54.7335,-35.9700,30.8012,-102.9303,36.4561,-31.1428,41.9299,-29.5220,-14.4442,215.2771,-194.3298,219.3097
-3468.7500,-18.6532,-101.7013,97.1567,-109.7896,171.4122,107.6590,-56.0883,24.9144,-36.6122,-45.2565,58.3992,-147.8909,100.4485,-40.7009,31.6256,-39.0718,-22.4770,101.9093,-130.5675,108.1132
-3460.9375,8.8347,-74.3953,14.1692,-81.9126,89.2248,99.8884,-100.4170,125.9843,-58.4126,-17.0816,49.4200,-11.3845,53.8978,61.1944,-51.2133,99.8310,41.9113,164.9907,-33.3559,169.4419
-3453.1250,62.0053,48.6138,35.8584,41.6622,73.7348,83.8199,-153.0428,147.7635,-76.7403,4.7860,-2.8743,82.8361,1.0428,45.7977,-104.3437,47.4411,-10.0182,42.7790,-50.4376,47.5683
-3445.3125,47.1709,68.6236,-20.4590,-7.7712,-56.7531,26.7547,-100.6529,127.5493,-19.6717,94.6315,-59.1787,99.0643,-18.8114,24.3985,-88.4687,-9.9519,-58.9719,-40.4392,6.4847,-43.5986
-3437.5000,121.6241,142.9307,-16.4948,-73.9128,-52.9467,-41.0034,-169.9516,94.6491,-23.7685,172.7739,17.8026,65.5959,-52.3652,28.3084,-122.2962,29.9594,-18.6386,-72.3526,45.7145,-83.0416
-3429.6875,244.4323,125.5948,37.8233,-125.7098,-71.7695,-96.4089,-115.8935,76.1081,-20.7547,117.2780,-36.8618,10.4799,-71.5617,10.5609,-104.7694,12.2125,-35.9654,-123.9304,64.2972,-133.8816
-3421.8750,99.9931,122.0060,-112.1084,-22.7649,-221.8374,-62.0661,-155.0715,0.3223,-67.9930,40.5200,-113.7837,117.1200,-111.9935,117.5554,-108.4774,119.2069,66.4372,83.2279,26.6331,72.2426
-3414.0625,130.6366,222.5167,-74.9602,183.2743,-147.8127,48.3704,-229.1438,-36.3595,-142.2971,-32.1471,-76.6178,190.8729,-185.3190,117.6527,-182.0707,83.3109,62.9181,149.4860,-82.9328,147.3982
-3406.2500,97.4689,223.2402,-75.6255,219.5029,-222.5849,158.0034,-157.0080,-72.8307,-147.9727,-105.6050,-77.2728,188.8376,-113.4432,42.9554,-147.4425,7.6199,29.5609,186.9316,-185.3095,187.5005
-3398.4375,132.0360,117.7233,-75.5626,184.4708,-149.6202,158.3859,-120.1109,-72.5418,-157.1322,-179.2965,-4.1918,78.5673,-76.8090,43.0170,-148.0512,44.6830,64.9302,187.1219,-114.9441,193.0764
-3390.6250,134.6083,14.2211,36.5036,46.4444,-35.6474,124.7623,-80.2199,-33.2527,-118.8678,-212.0045,34.8966,-64.6935,34.8316,9.0817,-34.6563,10.7524,-1.7114,120.3013,-76.5813,127.2871
-3382.8125,-25.1669,-75.6224,-56.7803,-7.9324,-131.0317,103.7864,-101.6658,55.6906,-51.8874,-49.0830,-21.3766,-49.2910,14.1328,24.7958,-19.5963,26.4704,-19.7203,206.1093,-24.5669,208.3743
-3375.0000,-75.7908,-54.3048,-27.9273,13.8390,45.7250,96.9492,-145.9580,48.7825,11.8214,163.9858,-29.5049,-57.7225,6.5814,-18.3423,-28.3842,-16.6644,-69.5865,87.0555,-38.3987,86.1975
-3367.1875,-107.8057,-51.3799,-61.4791,-17.7951,85.0771,27.6964,4.3462,52.4807,54.7761,130.6676,-100.0381,-54.5456,82.6316,-51.8824,11.4340,-50.2020,-65.8748,-14.4103,0.3693,-14.2689
-3359.3750,-56.2348,34.1552,-117.4526,68.1682,103.0113,9.0541,22.2566,70.7917,-11.3758,1.9497,-81.9928,36.2499,27.2819,3.1857,-82.1431,4.8641,56.4175,36.7409,51.7358,44.3961
-3351.5625,111.1716,132.5503,21.4099,95.9895,93.7969,73.2723,-23.9808,135.9576,-98.9902,-189.9298,-91.1076,63.9101,-56.2140,67.1081,-127.8578,68.7799,49.5399,-5.2485,79.9502,11.3844
-3343.7500,10.0199,101.3896,-125.2894,30.2536,-88.9639,73.9494,-23.7560,209.5767,-46.0868,-43.3648,-199.7839,64.0257,-129.2499,141.4755,-165.1157,143.1437,19.0880,70.2059,190.6150,80.2985
-3335.9375,-43.2010,47.1839,-175.0539,12.4712,-103.7826,24.5822,-74.5884,270.1529,17.8296,164.1566,-176.5178,50.1086,-143.3411,164.7997,-178.4283,129.4597,-33.4236,16.6227,243.2261,19.2062
-3328.1250,32.6302,53.0437,-133.7612,18.7456,-134.5364,-44.7302,77.6249,238.7816,53.7488,94.7223,-209.2018,55.2501,-102.3845,95.1722,-101.6888,96.8231,-97.9066,-187.9171,214.8787,-187.5535
-3320.3125,79.1118,99.5632,-162.8257,29.6636,-163.6363,-108.3910,11.5114,137.0629,-2.0578,29.9128,-127.2469,137.0509,-130.7604,104.1935,-93.2772,68.8345,-85.7557,-105.8123,156.1777,-111.8098
-3312.5000,51.3914,107.8866,-80.0957,38.3802,-80.9228,-99.2486,-15.7846,35.1445,-4.1924,38.8797,-118.4897,181.6584,-85.3206,39.0190,-48.0496,3.6493,-111.8157,-131.9037,59.2854,-139.7729
-3304.6875,-126.3854,35.1587,-198.4298,1.0446,-162.2543,-70.1577,86.8856,65.1870,16.0124,32.8104,-236.8004,211.2215,-56.9239,104.7939,-19.8646,70.4166,-113.9560,41.9389,-12.6494,33.4987
-3296.8750,-202.5294,28.0803,-200.1396,101.3459,-127.9579,37.5738,-24.7892,62.8982,-33.7588,-6.5866,-164.4788,208.4402,-95.8778,140.2221,-59.0262,104.8443,-49.4614,176.4234,-16.9261,175.4502
-3289.0625,-230.2146,0.4581,-154.3936,109.0951,-81.2065,121.7421,19.9832,73.0667,-28.9160,-106.5342,-191.7014,181.1145,-49.3863,76.0999,-13.7341,40.7171,-40.5281,149.3383,25.2436,157.7119
-3281.2500,-330.7485,-98.0007,-219.5011,44.9991,-73.3172,130.0569,101.9165,44.3908,31.7842,-26.3495,-184.7850,115.9543,-6.7431,47.1218,-7.2822,48.7333,-0.4565,226.4014,102.5515,235.0110
-3273.4375,-354.4893,-158.6320,-129.8238,20.7221,53.3555,111.1757,119.6407,62.5159,74.5169,65.6438,-131.0722,22.6170,47.6931,-8.0551,10.9787,29.5500,-94.6010,132.2731,78.6462,140.9090
-3265.6250,-359.8293,-163.8464,-171.7579,-90.1539,47.4309,141.6943,223.7789,93.0380,48.7867,-87.9616,-172.9706,52.6869,41.5379,22.1652,40.6566,23.7634,-134.3687,127.5276,74.1390,138.3625
-3257.8125,-261.1266,-170.0135,-140.6667,-24.9949,79.5455,101.2573,108.9834,15.6128,-28.4279,-201.5136,-67.8318,85.8160,-36.5565,54.4387,-0.6041,19.0294,0.9007,121.8400,104.6895,136.6244
-3250.0000,-145.6739,-124.4190,-18.8306,-14.0828,127.4191,112.5764,119.9270,26.9484,-57.4089,-263.3195,17.0524,96.7046,11.1026,-7.5302,-27.1147,-5.9477,11.8957,26.9099,79.9825,45.4385
-3242.1875,-143.4207,-52.0160,-22.2032,23.6330,88.0821,146.7053,117.6710,25.0944,-75.8536,-302.3373,87.7204,130.4022,44.5689,26.3044,-30.8176,-9.1258,84.6706,134.7842,83.0681,154.0702
-3234.3750,-67.4721,-9.9064,170.1136,65.0544,206.4368,155.5390,89.1177,-77.0586,-132.6466,-441.6532,243.0862,101.8112,52.7328,-39.1630,-59.8148,-37.6066,126.1425,71.3651,124.8478,99.7289
-3226.5625,-33.9141,-47.1837,131.0427,-6.9230,93.4054,116.9722,123.1773,-78.6117,-68.1659,-296.3679,130.0530,99.8185,12.5012,-78.0414,-62.1993,-76.4950,55.1994,105.5294,159.2242,127.0249
-3218.7500,-84.4615,42.4479,9.8595,83.9926,45.2672,143.2995,2.1447,-15.2591,-66.2228,-87.1831,81.9076,125.7377,-108.8277,-52.0130,-183.6768,-50.4772,39.1409,230.5946,109.4964,248.4767
-3210.9375,0.5389,128.6491,65.2220,99.4658,101.6838,162.1749,-16.3459,40.6416,-72.0833,-104.4562,101.3123,71.2308,-89.6036,-69.4275,-165.5970,-67.9068,-15.3867,71.2071,90.3026,89.2813
-3203.1250,-65.9047,61.4129,-7.8662,-37.5106,28.6549,89.6014,57.7241,41.0856,-14.0565,-67.2037,28.2587,108.2894,-52.8116,-69.2894,-91.9489,-67.7882,-11.3795,74.3555,164.6500,85.2610
-3195.3125,-145.4984,18.0295,-10.1152,-10.6427,99.4703,51.8648,-17.3514,3.3777,8.6612,77.8913,63.0487,106.2030,-55.1617,-71.2973,-94.4386,-106.8163,-19.5284,101.3523,85.8508,107.7703
-3187.5000,-161.3905,-32.6354,9.3307,43.9278,82.9854,181.8203,76.2708,23.3773,24.0604,-49.3158,8.5299,88.8191,1.1898,-161.6113,35.7814,-160.1472,-35.9970,121.0410,-35.2551,134.3873
-3179.6875,-174.6782,-10.6749,31.3661,136.1077,68.0869,204.3741,24.5008,-28.0216,-31.7351,-136.9268,67.6008,75.0512,23.1412,-102.3254,20.6056,-100.8789,57.1252,214.3355,-82.7692,230.9198
-3171.8750,-44.1488,85.1045,169.1963,163.1054,205.9875,195.7309,52.5164,-36.6254,-56.3295,-219.7402,131.4746,-7.9029,50.8939,-111.2345,48.2275,-109.8020,13.0468,99.4293,-161.4909,118.7975
-3164.0625,-76.2595,52.2380,93.3788,59.4524,167.2329,120.4363,197.8899,-74.8814,-5.8065,-184.2144,92.6895,-9.4984,122.0008,-113.7930,82.2156,-112.3789,-19.7045,31.8574,-158.8667,43.3062
-3156.2500,-90.8789,73.8712,118.0474,116.2943,227.9682,71.6354,148.7742,-123.6404,13.4687,-49.1965,154.3945,14.4139,109.6151,-51.8518,69.7153,-50.4567,-33.9638,17.7914,-207.7435,21.8627
-3148.4375,-59.3510,34.6598,110.8665,77.2834,221.8616,64.9808,178.8103,-93.2502,17.3559,-93.0144,37.2505,8.4787,139.3818,-21.7661,99.3677,-20.3904,-73.0939,-20.1201,-174.4734,-15.6784
-3140.6250,-105.4348,-45.1406,-47.9235,-2.3323,63.1492,54.7318,93.2537,-104.4555,-21.9428,-176.4317,-11.5024,33.9473,90.5524,40.7235,124.4204,42.0832,-47.8386,40.3784,-79.8080,39.6297
-3132.8125,-37.5192,-47.9300,26.2815,-4.9381,100.4430,-17.5115,94.6889,-139.6522,2.6168,-176.8597,25.7480,-38.5725,91.7273,-68.7788,162.4813,-67.4394,-49.5831,-67.1090,-46.1479,-66.4462
-3125.0000,-45.6489,-19.7537,51.4447,-47.5899,51.6942,7.2020,193.0821,-149.8973,60.4754,-78.3476,50.9414,-14.1337,115.8575,-117.3374,112.5052,-152.0227,48.6057,-39.6534,17.4543,-37.2099
-3117.1875,-1.0284,95.1801,137.3452,32.5147,100.6857,-16.3370,95.2240,-138.3925,7.8266,-65.0854,173.8763,-0.9304,54.7373,-105.1543,15.2789,-140.8647,92.5417,40.5627,-8.1991,46.5099
-3109.3750,145.6000,171.1210,182.2492,38.6334,108.6875,-7.8741,140.3571,-166.8835,-51.5232,-239.8144,144.8112,6.2802,62.6173,-170.9711,22.0528,-169.7070,28.4642,-23.2254,-71.8545,-14.2903
-3101.5625,151.7810,213.6172,42.7004,81.2955,6.2353,37.1333,112.0589,-194.8197,-56.4717,-195.9993,79.2934,15.0368,34.0639,-125.2410,-6.6108,-123.9951,70.9213,124.5225,-64.9604,129.5819
-3093.7500,251.7555,313.9201,115.9472,146.7529,153.5849,73.9260,74.5704,-156.9646,-64.0766,-158.3997,78.5793,-21.4048,34.3217,-161.7079,-43.4595,-160.4844,65.1727,49.0731,-105.2764,58.7046
-3085.9375,291.9474,353.4463,116.4030,81.4141,117.1419,37.9089,149.2891,-119.9170,-32.2579,-158.5985,42.0669,-21.6354,70.7846,-198.9860,-7.0957,-233.7813,70.6087,-16.1873,-99.4125,-8.4251
-3078.1250,270.0478,331.8973,94.7460,94.9847,58.5844,-20.2094,-20.0995,-140.9682,-62.9856,-105.8866,94.4420,-5.9501,12.1459,-146.3546,-28.8297,-182.1767,153.9464,33.4543,-85.6600,36.1779
-3070.3125,252.6635,279.8612,114.5915,78.0713,78.5232,-36.8292,-37.0040,-83.5230,-73.1652,-122.6839,3.3198,14.2425,-4.9988,-126.2181,-46.0585,-162.0674,66.7850,-89.4109,-67.4090,-84.8816
-3062.5000,166.9878,229.5272,-15.8647,62.8592,-14.8462,-18.7554,-56.2021,-29.3858,-34.7471,41.2169,-53.1115,31.1379,-61.4348,-72.3887,-102.5748,-108.2618,86.3179,1.4175,-46.4555,1.4719
-3054.6875,174.8222,203.7032,69.1673,107.1458,33.2739,-43.1906,-191.9042,-17.7520,-39.1448,200.6291,-5.0467,6.5411,-123.3684,-60.0573,-201.5889,-22.9544,60.3427,-25.2413,-38.0063,-26.3857
-3046.8750,134.1267,197.3493,23.6519,65.8869,-49.1527,-15.1706,-163.1539,11.3348,-35.0357,118.4662,-50.5329,-1.6035,-95.8470,4.7247,-100.1405,5.8035,-16.1956,-65.4495,-43.1165,-71.0331
-3039.0625,146.4423,210.0059,-2.8717,113.6306,-75.5866,-4.1449,-225.3931,-14.5827,-72.4050,19.2905,-3.0231,82.2587,-85.3198,15.5081,-52.6868,-20.4377,31.2625,-17.6482,-31.2310,-23.4817
-3031.2500,231.9596,190.8666,86.8069,59.5817,-22.8180,-61.9190,-135.4429,-72.3025,-37.6486,35.3314,12.6930,25.3179,-69.5925,-42.5089,-37.0334,-78.4793,-59.0815,-141.6395,-15.1449,-149.0480
-3023.4375,109.7265,138.9791,-43.2686,7.7805,-188.7953,-79.4453,-81.2289,19.2344,35.3222,236.6367,-79.3523,5.6211,-51.6136,-25.2787,-92.1251,-24.2701,-110.1869,16.6168,39.1856,3.3130
-3015.6250,41.3387,141.9500,-73.5027,116.8338,-217.9232,37.8750,-184.1557,100.6191,38.6456,280.7825,-36.5560,-23.2172,-118.7881,19.8054,-86.3629,-16.2149,-73.4428,89.7311,42.3634,80.7943
-3007.8125,30.5574,25.5327,-14.1297,70.4950,-121.4361,60.7919,-15.4813,50.5976,47.1599,-27.4892,-51.1562,-74.4589,-22.3544,-31.5181,120.0147,-30.5636,-49.1105,9.4347,102.1309,10.4945
-3000.0000,7.8884,-32.7711,-38.6597,13.2550,-108.8520,-0.1975,34.3072,26.6708,37.0354,-51.6696,35.3445,-61.5995,27.1926,-18.7483,96.5013,-17.8191,-1.6801,92.2333,114.9936,92.4373
-2992.1875,-19.1566,11.5423,48.4191,21.6247,-22.6552,-22.5935,-62.3098,114.3383,117.6339,293.7490,48.4582,-121.1353,4.3454,-115.3776,35.5928,-77.4738,-133.6441,-4.3701,53.4472,-10.1032
-2984.3750,-75.9340,26.1161,-51.2500,-69.7527,-158.2144,-11.7534,-14.6740,162.2544,188.5183,452.4174,-87.1836,-145.4158,-59.2495,-103.7592,46.9436,-66.8810,-189.3699,-60.7358,33.1501,-75.3250
-2976.5625,40.6382,2.0468,-3.5862,-93.7807,-74.4451,-109.5734,-40.6893,63.5153,138.3293,315.4396,-3.4884,-171.3372,-84.4996,-19.7890,94.6541,55.0636,-107.7459,-154.7451,44.1985,-172.2726
