Time,Fp1,Fp2,F3,F4,C3,C4,P3,P4,O1,O2,F7,F8,T7,T8,P7,P8,Fz,Cz,Pz,ref
-4000.0000,58.7130,51.7343,33.4127,23.4418,-6.2024,-18.6781,8.6467,-44.6946,-22.1925,-34.9356,17.1453,15.4406,-19.1435,-10.8262,-26.1375,-44.5812,85.6073,-54.4431,7.1188,-35.5220
-3992.1875,165.2227,88.7128,71.0346,60.5445,-43.2879,-129.2395,8.7813,-81.7025,14.3049,-34.8860,50.9951,20.4143,-19.2518,-10.6752,-26.5337,-81.9984,86.9462,-160.4394,42.1622,-35.9558
-3984.3750,67.0854,132.0528,-33.9946,32.0028,-113.0305,-124.4423,14.2557,-40.3474,55.1425,43.5204,-33.3701,47.2134,-52.0110,30.8220,-22.5896,-41.0579,59.6233,-84.0819,48.5487,4.9563
-3976.5625,-3.0110,167.4570,-106.9914,31.5125,-149.7345,-12.5911,-59.2228,33.0699,18.0314,79.9908,-94.8269,82.2492,-88.7254,67.3724,-22.6016,68.9322,-46.6584,20.3330,46.9817,-32.0781
-3968.7500,5.4452,176.4258,-99.4426,4.5741,-142.9020,-5.1846,-52.1605,40.0432,-12.5417,50.0231,-82.9924,67.8450,-81.8934,37.4779,-16.0680,112.4735,-73.3979,62.3060,53.9668,-25.5652
-3960.9375,3.2508,139.7557,-137.5514,-68.0083,-107.7282,-7.4221,-53.7523,75.3815,-51.7680,11.4142,-54.0595,41.0590,26.2826,72.9356,54.8127,73.3596,-75.7949,129.6380,15.2939,-64.7075
-3953.1250,35.8504,207.8876,-64.8647,-0.7823,-35.7640,66.1453,-55.5528,37.5260,-127.2017,-63.3826,-7.1524,86.3063,62.2592,72.1987,90.4898,-1.9526,-149.4001,89.7819,-23.5840,-140.0520
-3945.3125,9.2463,216.8273,-57.3798,7.2434,7.9977,73.5163,-11.5552,7.4757,-83.8397,-129.3723,8.4825,84.5584,105.0396,42.2545,22.9665,4.5363,-141.2148,96.7328,-52.6712,-133.5995
-3937.5000,-59.1117,114.0169,-54.6502,-26.4851,47.0032,75.1447,-9.3130,-27.3191,-46.2274,-164.1126,-2.2821,63.3517,107.0744,80.5534,24.6934,-30.7196,-68.7852,131.9485,53.4902,-168.8956
-3929.6875,-72.2174,66.4622,6.3309,-39.9582,144.2637,100.0337,88.1771,-2.8634,-22.3807,-140.6041,23.4295,35.8449,94.3593,31.1022,47.6624,-80.7320,-82.1121,153.4281,3.8961,-218.9445
-3921.8750,41.2176,251.4665,-24.1434,38.1281,75.0686,105.4913,56.2121,75.1550,-127.9910,-61.5349,4.6262,94.3176,-10.8128,-36.7907,-57.8334,-39.1968,-144.9028,195.4757,-130.1567,-177.4458
-3914.0625,264.7800,474.6270,-48.4870,49.3713,-22.9918,81.1115,-115.6137,87.3380,-227.4601,-49.2953,32.8391,148.2681,-35.8438,-24.5231,-120.1884,-27.4923,-132.5556,135.6969,-84.0622,-202.8010
-3906.2500,408.3265,548.7897,-82.8452,88.6181,-95.0664,83.7417,-113.4454,126.5407,-151.9245,-84.0377,32.6551,179.5296,-107.8787,-22.2554,-118.5433,-135.7746,-94.2239,101.9238,-117.9658,-201.1668
-3898.4375,459.3130,670.3989,-140.7624,208.3090,-153.6954,99.8255,-171.8231,68.2111,-210.9282,-68.3104,-10.3105,283.4250,-166.4577,66.4566,-213.4499,-121.6150,-44.4556,151.6084,-209.4148,-223.0835
-3890.6250,544.0945,861.8098,-161.8863,328.7957,-211.5264,152.7110,-303.3980,46.6899,-307.1336,57.2199,-31.7110,364.4501,-224.2320,44.9651,-309.5553,-69.6532,-99.8950,165.0952,-337.0675,-245.1984
-3882.8125,516.5775,834.9246,-157.3100,300.9847,-207.6599,194.2974,-336.2823,87.8685,-303.6567,98.4442,-45.4019,340.8904,-257.3021,13.1733,-305.9638,8.0219,-163.6389,171.2873,-331.0245,-204.6082
-3875.0000,424.6578,708.6424,-109.1370,243.7757,-197.2030,205.4884,-288.5755,98.6548,-328.5931,73.2666,-18.1142,276.7062,-172.7714,-13.0144,-221.7709,92.2876,-254.7834,184.0920,-352.3813,-157.4160
-3867.1875,321.1878,499.8192,-112.5102,210.0205,-165.2989,165.1327,-291.4246,131.8939,-334.0855,105.5399,-11.7701,213.8009,-103.7866,19.2509,-189.1273,160.9971,-253.4909,184.3542,-317.3000,-51.7765
-3859.3750,187.7527,367.0471,-107.8408,217.3121,-160.3466,206.8345,-287.2288,136.1901,-293.5293,146.8760,-36.9613,207.1956,-99.7471,60.5662,-221.4358,90.7701,-211.1645,295.6821,-311.1796,-11.0851
-3851.5625,162.4969,307.4669,-24.9801,226.7987,-116.1933,178.7423,-278.8316,107.6957,-211.7830,155.4239,-11.1623,179.4129,-91.4998,33.0841,-213.5436,62.7482,-201.6521,234.2274,-302.8603,-3.1967
-3843.7500,61.4338,136.0880,-24.9248,160.4790,-78.8354,178.8552,-168.2330,108.4100,-65.8429,155.1750,-18.9615,93.9650,-91.0491,-41.1959,-177.4470,24.9232,-196.9544,272.9825,-229.3383,69.8884
-3835.9375,-14.9932,-9.6427,-33.2315,119.8112,-14.8328,170.6281,-139.9853,99.7884,-74.2574,147.5844,-8.4992,36.4901,-26.9472,-48.8262,-75.7020,15.7503,-202.6128,266.4055,-166.1660,97.6177
-3828.1250,31.3287,2.3798,-23.7861,59.8933,-6.0791,69.1592,-94.9940,70.9212,-66.9277,155.7428,25.3114,-28.2170,17.9082,-150.7084,4.7901,-11.6599,-156.5326,205.5800,-156.2482,142.0935
-3820.3125,45.6420,88.3903,-81.3422,38.9678,-28.3278,-25.3054,-44.0085,49.0624,-16.5993,133.9038,5.5057,-25.4882,32.7717,-172.5846,55.2836,-71.0729,-142.4560,183.7635,-178.3268,119.5702
-3812.5000,114.4869,192.9434,-80.3559,107.5896,-27.0307,-23.2143,-42.4771,14.7674,-52.7279,135.6190,16.3190,36.5031,35.1951,-133.9067,20.3306,-142.9289,-109.8387,145.5111,-180.8644,10.5996
-3804.6875,92.0074,241.1903,-65.6784,154.9068,-50.0390,27.5809,-65.2549,28.1770,-113.1567,150.0447,-7.5683,82.3268,-24.6726,-120.5259,-39.9158,-131.0632,-97.5358,226.9714,-171.7087,-49.6732
-3796.8750,116.3032,231.2307,-37.2096,144.0265,-22.2444,130.1801,-110.2294,-16.6048,-121.7809,-5.7227,18.7242,86.7300,3.2614,-91.3458,-49.3628,-102.3949,-37.4396,216.2406,-182.7480,-132.1479
-3789.0625,129.7955,139.4706,88.4617,86.3442,65.7530,108.9786,-59.0051,-38.1787,-108.2084,-137.2879,88.7115,39.7854,54.3968,-76.9632,2.3893,-88.5320,-25.1506,121.6991,-171.5824,-191.4248
-3781.2500,83.5337,58.9519,72.3850,75.9056,48.9988,166.0253,-39.5323,55.5006,-125.3779,-117.6018,76.4969,32.8580,37.7868,-56.3284,-51.6099,-31.4175,-106.6227,145.4112,-184.1691,-98.4427
-3773.4375,141.9964,118.1673,18.0504,98.2113,30.9872,185.8253,-131.3093,110.9382,-216.7949,-25.1590,39.1275,78.6745,-54.0666,-0.9360,-107.8507,60.4543,-189.3546,131.8816,-196.0066,-6.7075
-3765.6250,6.0962,54.0218,-55.6320,104.1629,-7.3716,185.2728,-130.4373,184.0325,-144.5685,84.9387,-26.9736,80.0922,-54.2611,35.1126,-107.4343,95.9781,-183.4480,102.0004,-192.1889,102.6753
-3757.8125,-101.6187,-17.9442,-99.1141,65.2974,-13.5253,141.9153,-138.3564,177.3351,-116.1347,114.2430,-65.8453,69.7045,-24.2444,101.3539,-41.8082,124.7137,-186.3581,168.3273,-196.1707,168.2658
-3750.0000,-133.1005,-84.6761,-134.3548,-1.3300,-13.4248,105.8088,-101.0253,103.8944,-5.4481,188.8062,-78.5770,5.0537,13.0325,65.8479,68.0726,124.7178,-219.0327,99.9140,-158.9035,205.1089
-3742.1875,-225.6943,-246.5192,-162.6950,-129.0683,-5.4185,42.6082,55.2035,150.3577,185.1429,308.2718,-92.9144,-113.2895,21.2134,-34.7577,76.8518,134.6226,-275.8128,42.4156,28.2648,286.8601
-3734.3750,-278.5604,-333.6266,-147.2984,-181.0629,-26.6661,-14.8349,107.1781,166.5764,236.4826,286.4913,-74.4232,-175.4338,73.1500,-93.6033,128.3934,112.2799,-328.8507,24.6868,151.1895,338.3635
-3726.5625,-303.9460,-393.2424,-177.4077,-206.5649,-58.4137,-81.7712,149.6524,209.3040,206.3253,293.2141,-80.6141,-209.9957,79.5962,-123.9470,133.4434,118.4472,-283.4044,68.4622,159.6203,417.3611
-3718.7500,-425.2521,-373.7751,-266.4277,-81.9826,-111.0659,-60.6019,97.2333,230.1470,153.2780,314.0507,-160.4330,-135.4777,63.1433,-66.1819,154.5935,101.7276,-193.8779,157.3446,142.1572,364.4637
-3710.9375,-342.5306,-290.2729,-213.4098,35.6432,-131.6701,-7.3747,76.8618,209.0499,167.2859,366.9458,-169.7769,-44.8487,-31.2559,23.6447,59.7963,81.0623,-182.3192,63.2859,47.7490,269.6201
-3703.1250,-321.8204,-268.7866,-156.3883,-13.7412,-149.2719,12.8445,59.4923,155.9551,186.2996,350.8377,-168.4170,-60.4767,-84.6435,6.4675,5.0101,137.4052,-90.7629,48.2175,32.3502,288.7845
-3695.3125,-337.9261,-354.1174,-62.1676,-64.9371,-55.6757,33.2548,42.3282,66.0616,168.5190,222.9253,-104.2119,-100.6181,8.1723,26.4857,61.4307,155.9637,-107.0022,31.3567,15.1603,271.1526
-3687.5000,-362.6434,-484.0539,22.4541,-160.7362,28.3163,8.0649,89.5597,40.5704,179.1380,124.4176,-49.4124,-145.8680,56.3931,74.9086,72.2521,56.9278,-61.8504,40.9006,164.3771,244.9182
-3679.6875,-413.0826,-497.6992,9.3736,-140.2455,50.6128,68.1751,76.1031,63.3939,92.0657,38.2151,-64.1939,-104.3245,41.9197,134.6330,21.3751,7.1944,-7.4140,129.7460,253.9019,157.9860
-3671.8750,-355.8024,-474.6234,37.0362,-84.0198,78.6673,133.0344,67.4041,91.9731,-28.2525,-45.2333,-32.8423,-92.2928,33.2092,89.1198,-25.7431,107.2205,14.7599,186.3493,240.1880,37.8091
-3664.0625,-445.4418,-458.4695,16.8042,-68.7130,130.8340,186.9846,119.8132,181.6581,-12.4542,-28.5738,-66.2271,-90.8523,12.6159,31.7076,-9.7403,196.3487,-39.9819,202.0416,184.5748,16.7379
-3656.2500,-500.2567,-442.4863,-40.5904,-88.5737,109.8536,240.7772,99.0786,198.1965,76.2090,61.9415,-105.1327,-87.4879,28.8840,48.1521,43.1280,175.3384,-130.8839,216.5893,128.8144,-4.4718
-3648.4375,-447.3850,-423.8195,-98.2883,-104.7513,88.5775,145.2668,114.0362,176.4352,238.5772,187.1596,-99.6727,-129.1814,80.8611,-10.6992,94.7095,80.0449,-183.0985,92.8394,109.7581,47.0276
-3640.6250,-454.2344,-393.8772,-144.6932,-111.6496,40.6062,62.0571,141.2980,129.9782,264.2547,177.6765,-112.2684,-144.5201,107.1476,-56.2462,120.6009,32.0727,-154.0253,50.3991,138.0100,109.8365
-3632.8125,-325.4158,-370.2596,-85.4087,-53.8617,62.3323,-24.4478,126.2604,78.2293,138.6462,88.8961,-60.6924,-106.7928,92.1399,1.9194,105.1988,-55.1817,-60.2643,-32.3316,159.9706,131.3515
-3625.0000,-322.3696,-331.4144,-119.8813,19.1689,-44.6865,-21.7026,54.4732,80.7339,140.3017,91.3717,-105.9590,-70.2681,20.3916,4.3392,70.0647,-53.1840,46.7378,6.1888,162.1896,133.1184
-3617.1875,-311.3444,-284.5948,-105.3603,66.1855,-104.7033,28.0431,-5.3049,95.2464,152.9645,105.8499,-129.9363,-37.0188,-39.3466,17.7603,46.9418,-4.1876,58.7396,15.7111,137.4181,72.8958
-3609.3750,-301.6252,-239.0894,15.8668,74.8924,-58.0091,3.4860,43.6156,106.4559,90.3242,117.0234,-68.2502,-45.5916,9.6224,-44.1166,58.5196,-29.4879,32.4383,-46.0681,110.3460,10.3807
-3601.5625,-339.8239,-346.4996,11.1958,1.6885,47.7879,-0.9825,75.6380,102.7650,48.7994,76.3029,-38.0027,-98.7481,78.6980,-48.8961,53.2012,2.3264,30.2336,-13.7502,142.3799,41.9688
-3593.7500,-262.9001,-409.7853,55.6708,-131.3824,90.7436,-30.3075,81.8217,73.2252,91.4426,-27.2638,29.3168,-189.3200,158.9321,-78.5226,133.0466,83.2991,1.1696,-78.2839,148.5753,11.7080
-3585.9375,-207.0482,-458.1447,114.1020,-216.5146,149.6606,-81.6906,140.9659,94.6347,113.0487,-78.8864,82.5702,-241.0314,181.1308,-93.1938,117.8622,68.2170,57.0488,-92.8750,133.7309,-3.6032
-3578.1250,-155.0662,-406.3802,131.6833,-200.5176,166.7407,-26.9349,47.2720,75.1868,-54.1802,-98.3639,82.2973,-180.8609,124.4960,-1.7121,24.8341,48.2894,144.0770,-6.3256,78.0452,-23.7517
-3570.3125,-114.3576,-292.8917,213.0158,-88.7837,174.5773,18.5604,-17.6741,46.4820,-83.6510,-127.0956,103.7051,-120.8118,95.6247,-30.4767,-4.4365,-17.8715,150.8553,-35.0284,-20.8773,-53.1442
-3562.5000,-123.3160,-266.0807,202.6984,-62.7144,162.7694,-29.6028,-29.2741,72.1263,-58.7608,-64.4715,93.0101,-108.2046,84.1157,-41.8849,-16.3432,-103.6668,176.9750,-45.3812,4.5547,-28.1819
-3554.6875,-106.1032,-248.0906,147.5727,-44.4564,144.1668,-10.5673,-10.6625,53.9767,-40.6558,-82.6462,67.6851,-76.1074,65.8149,13.9088,37.9640,-122.2466,124.2822,-27.5309,21.1911,-47.0113
-3546.8750,-95.6149,-236.8286,81.7435,-69.9168,114.8742,-2.2367,70.2536,99.1297,40.7572,-74.5231,52.3832,-106.9940,73.8267,-51.9910,82.5857,-3.5142,-6.1184,-53.3847,-3.8561,-2.5316
-3539.0625,-143.8019,-179.2420,-80.7440,-83.0465,25.9407,-17.5582,55.5274,120.6381,97.5351,-16.0496,-28.0792,-97.0887,95.1963,-30.5315,177.5634,91.5794,-55.1813,-66.8863,-53.5376,18.3102
-3531.2500,3.1285,-65.5308,-2.0932,-41.0454,-43.8365,-84.7315,22.9596,89.3023,102.4790,-11.4254,24.3670,-68.8387,100.7244,-25.9117,181.7097,58.8349,-83.1060,-200.2319,-116.0567,59.3071
-3523.4375,24.8919,-43.9982,17.4123,-54.2165,-59.7526,-139.0597,-30.7487,-1.1849,84.2899,45.0425,10.2718,-63.3398,46.1120,-5.4387,164.7254,40.9453,-26.1804,-143.7395,-130.7085,115.1639
-3515.6250,-74.3128,-38.4571,-11.0327,-14.3618,-89.6129,-130.3525,-23.3990,6.3786,55.1745,90.5598,-33.6763,-29.0447,54.5612,39.0858,171.8016,49.1129,-56.1979,-139.1998,-125.2867,49.0792
-3507.8125,-76.0763,-73.4950,60.9742,-16.0718,17.9853,-132.2041,48.4073,4.3869,89.5197,88.5208,4.6783,-30.7613,52.4665,37.0681,59.3366,-27.2522,-57.7677,-176.2151,-93.4077,46.4474
-3500.0000,-136.4623,-133.1537,32.3839,-39.3922,25.9926,-123.6601,56.6172,49.7984,60.2726,133.8798,-7.8728,-26.7209,60.7787,82.4549,-6.7227,-91.2032,-46.9422,-95.8310,-48.1283,91.2233
-3492.1875,-47.9227,-114.8814,88.7406,-56.7747,44.9574,-141.1727,-35.2213,-4.8432,-68.0148,79.1846,29.3147,-58.5629,43.0535,27.7983,12.1835,73.8081,41.8307,-113.5070,4.1110,72.9588
-3484.3750,-46.2442,-147.4762,127.2582,-161.0213,83.0898,-139.5556,40.1016,-39.3439,42.8635,43.6290,37.1917,-139.3601,7.4891,-79.7117,50.2573,221.9719,43.7495,-41.0493,5.5158,73.8522
-3476.5625,-111.1903,-175.6983,61.1686,-189.8881,53.6293,-58.5503,47.8413,4.5549,87.1628,14.4795,-1.6899,-117.9399,15.3365,0.1839,94.7422,229.5352,-55.9345,33.8115,47.3300,44.1547
-3468.7500,-122.5135,-151.2966,10.7271,-131.1167,2.8277,38.1022,71.2338,102.1043,73.1310,37.9834,-25.9266,-42.1327,1.8395,97.7404,43.8897,142.7610,-136.9774,22.3189,35.8083,67.1100
-3460.9375,-189.4087,-218.4811,-60.2650,-127.9168,-32.5099,76.1953,72.0882,66.1055,73.5774,38.9381,-67.8761,-25.6847,2.8070,172.7435,7.5051,106.4507,-62.5777,60.2666,73.7523,104.5232
-3453.1250,-133.7778,-231.1576,-72.7137,-37.1944,-81.2855,65.8263,24.5061,-18.3403,62.5882,-8.5591,-82.7665,14.4143,-44.6595,235.3024,-3.3100,95.7056,28.3703,46.7596,129.2639,19.4998
-3445.3125,-148.5154,-105.2139,-83.5097,54.1594,-129.3935,128.1006,-23.4144,7.8646,50.2613,53.5855,-134.8489,96.7914,-129.4660,260.5186,-88.4617,83.6120,48.9645,66.8954,44.4409,-65.8623
-3437.5000,-105.8272,9.1440,-38.8632,132.9384,-122.0478,135.8154,-89.8800,15.5213,-89.5902,25.1809,-121.9467,161.5886,-158.8154,268.1935,-118.1525,53.9826,93.0103,39.4827,17.0809,-58.7577
-3429.6875,-7.3627,72.2774,61.5845,89.5042,-94.8935,89.3217,-62.5354,-31.0194,-99.6267,-58.4263,-47.4432,113.4992,-131.3606,148.6702,-128.0314,118.1761,84.8510,-39.1358,9.5345,-31.8510
-3421.8750,-51.7188,-41.4143,15.2367,-24.7400,-105.5274,6.0184,1.0185,-78.3701,37.5511,42.1591,-56.3489,25.2787,-67.6946,138.3480,-27.6915,181.5802,41.8897,-47.5610,106.2010,-5.7391
-3414.0625,-44.6998,-68.7320,-14.7116,-52.6027,-61.7506,-23.8957,-29.0116,-34.3284,-29.8501,122.1359,-61.8133,32.8151,-60.6150,219.4293,-20.9298,225.3819,-20.6706,-40.5904,113.2831,0.7807
-3406.2500,-59.5468,-83.9206,-34.5009,-103.3323,-80.8035,30.3308,-84.8855,19.8531,-50.0903,103.2591,-45.8291,-5.8578,-6.3701,162.6619,-4.0065,242.3405,-2.0821,-21.4804,132.5210,54.4523
-3398.4375,33.0401,-23.6840,26.1643,-114.6293,-21.3907,-55.0030,-61.3003,-102.5112,10.1335,-56.1683,9.2011,-34.3352,17.3314,76.3485,56.3736,155.7546,92.9550,-137.9280,156.2139,77.5863
-3390.6250,264.9596,136.8723,123.1785,-164.5990,39.3824,-215.9991,35.6424,-299.5309,106.7274,-253.2523,107.5591,-42.9492,41.3915,26.3953,116.1244,-42.4735,148.3429,-258.0426,177.2789,27.0812
-3382.8125,345.5705,253.0959,64.8967,-188.8978,16.8709,-274.3181,50.3015,-394.8590,85.0506,-312.6379,91.7399,-2.7064,19.1651,78.1376,94.5892,-137.9811,265.4256,-213.4732,222.0597,-68.7119
-3375.0000,389.5048,438.6332,43.9540,-75.8679,-4.2825,-260.2981,65.3159,-379.8376,26.7458,-370.6708,78.1454,81.6054,-1.7054,57.2374,72.4143,-159.1139,238.8573,-240.5587,161.2028,-201.1424
-3367.1875,396.5236,446.2486,51.1110,-33.7452,39.6753,-253.1865,72.4346,-372.7214,69.5466,-326.6215,91.2408,73.6763,5.5369,-9.5561,43.3607,-189.1420,211.3909,-302.5540,168.4573,-194.4651
-3359.3750,227.1707,312.4785,20.9234,-96.9893,9.2959,-209.4353,116.2209,-328.9631,113.0202,-247.9271,40.1201,28.7939,12.4395,-2.6992,85.9722,-108.5221,183.5818,-226.9081,245.3818,-188.1323
-3351.5625,157.9928,103.8843,57.9374,-166.0462,83.1298,-172.4945,153.2214,-292.0085,186.7207,-211.0336,59.1889,-57.0611,49.5528,-2.6379,86.7988,38.2960,114.9729,-330.0709,282.5116,-151.5976
-3343.7500,63.2764,-61.2551,98.4094,-259.6595,86.4173,-204.1159,194.6687,-214.6138,300.8850,-168.6969,69.2185,-149.7004,90.1127,-35.1240,90.0810,115.5718,125.8055,-424.7976,258.0876,-0.6013
-3335.9375,73.4585,-189.4878,143.7713,-284.3814,94.6057,-306.8442,129.0138,-280.3238,344.9521,-197.4695,104.6326,-194.2273,135.5744,9.2974,98.2660,49.7603,207.5347,-449.6185,269.5718,80.3041
-3328.1250,116.1847,-252.1831,190.6833,-276.5630,104.3592,-370.0269,101.9169,-343.4859,281.5633,-187.7030,128.1993,-224.9730,108.5939,-16.7249,108.0098,23.5064,250.8091,-336.8925,276.6165,16.7634
-3320.3125,-12.2531,-170.0526,169.4482,-158.9162,119.9768,-244.3649,117.6809,-291.7976,223.0360,-172.0869,75.4119,-133.6147,87.4661,-0.8921,86.6152,-34.8796,192.9314,-219.3282,113.5277,-41.9207
-3312.5000,-74.4610,-124.7067,178.4550,-116.0439,128.8513,-198.4655,89.7024,-282.8660,195.7904,-163.2207,58.3452,-81.8958,96.5952,45.2004,132.4863,-99.9931,132.3024,-210.5211,86.7099,-33.3476
-3304.6875,-127.3776,-179.0840,120.7655,-169.8850,145.0328,-219.2743,143.0394,-266.6411,247.8690,-184.0618,54.5319,-147.0014,150.0309,-49.3974,185.6696,-83.8032,183.9647,-194.4290,174.2093,-17.4750
-3296.8750,-102.0662,-187.2403,114.3193,-213.4916,175.4723,-188.8403,246.6430,-273.1759,204.2190,-190.6634,81.2456,-187.6706,180.7243,-129.7342,252.1158,-90.3632,175.8806,-133.0971,165.9769,-61.3481
-3289.0625,2.8369,-117.8236,152.4759,-179.5192,212.5294,-188.8231,247.8576,-272.1184,205.1808,-226.6814,128.1166,-171.3536,181.0312,-165.4659,253.1807,-199.3135,175.3985,-134.1811,130.3609,-97.6188
-3281.2500,50.9303,-69.2277,128.8374,-131.3656,188.8023,-139.6210,224.2849,-221.8671,218.3598,-287.5100,132.0234,-127.0894,158.5491,-151.9906,192.4622,-333.0640,260.1128,-121.0791,143.9520,-84.6815
-3273.4375,192.4987,2.8430,204.6908,-94.7279,191.5858,-173.9272,153.2198,-293.1230,111.0586,-321.8430,176.7782,-77.8932,124.5768,-75.0056,85.2552,-330.3124,296.3340,-155.4812,110.0526,-119.2337
-3265.6250,215.9581,61.7933,191.4527,-1.1977,142.2848,-150.3447,67.0593,-269.4934,23.6740,-188.2835,152.0790,-56.9012,74.5072,-125.1219,-38.0438,-86.6501,250.4589,-166.9941,-6.9370,-95.8822
-3257.8125,106.9021,58.2132,114.7195,64.8226,27.4915,-80.2769,-10.5887,-236.3662,-53.1895,-45.2232,40.1485,-2.5144,-39.0636,-54.7468,-78.8383,93.5347,211.0849,-65.0207,-45.4198,-100.0149
-3250.0000,88.3243,40.0960,133.4838,82.3299,46.2104,-24.7197,-28.7316,-182.7411,-35.5320,-63.6654,50.4810,9.4508,-21.1276,-35.8650,-24.1208,1.2310,158.2124,-119.5609,-28.3882,-118.6316
-3242.1875,43.0700,-39.7169,157.6024,37.1658,107.2940,-37.8279,32.4911,-193.7693,-10.4928,-149.7615,103.3317,-34.6244,114.1713,-48.6234,73.9693,-84.7205,149.6865,-93.7619,-107.9860,-57.8831
-3234.3750,55.2338,-27.1233,170.1692,14.4288,156.8401,-62.4956,-27.8306,-255.3488,-34.9857,-210.3977,139.7749,-41.8835,200.9350,-35.9282,160.5259,-181.2103,162.6090,-81.5145,-130.1264,-45.6676
-3226.5625,96.7404,-55.2028,212.0980,56.0323,124.7547,-93.8248,-22.7947,-286.5892,6.8797,-205.6912,157.8409,-65.0724,169.0536,-103.8930,128.4471,-139.3326,169.8822,-74.9314,-122.9188,-4.0830
-3218.7500,31.8309,-83.7142,106.6292,61.2247,57.2782,-52.5672,-54.1533,-171.2349,-24.6335,-126.3978,83.6138,-59.7005,100.7789,-98.2543,60.9769,49.1571,104.7576,0.2503,-47.1007,1.1190
-3210.9375,65.1944,-85.9536,107.4558,24.7099,57.1109,-52.0142,-16.2098,-98.5812,-60.8287,-53.8053,86.6584,-68.0454,64.8112,-98.3037,24.8195,49.9473,33.9352,-0.2656,-11.9687,-35.3804
-3203.1250,-0.2473,-115.0139,39.4885,-41.6084,62.1597,-47.2664,98.9426,17.2633,18.1934,-12.0222,55.2398,-69.0254,70.0495,-56.1537,29.8699,-56.0667,4.3218,4.4055,28.3615,-30.6782
-3195.3125,14.6512,-100.7498,19.8794,-25.5812,79.5727,-30.1793,116.4518,-2.5454,-38.4350,-105.9081,61.1109,-35.4545,87.6456,-1.6486,46.2760,-112.7255,20.0663,19.4236,44.0492,-50.6148
-3187.5000,99.0347,-51.0132,70.7728,-47.0638,131.4940,-52.6006,94.4699,12.1448,-97.5546,-163.3072,111.9225,-40.1535,102.7473,-23.6363,61.2011,-133.8812,70.3090,-37.0596,59.2531,-36.0498
-3179.6875,69.6578,-9.0453,41.9155,-76.3088,139.6742,-44.7835,65.7591,20.0809,-126.3995,-192.4571,97.7048,-28.3000,111.1012,-15.3740,32.3882,-162.7872,112.8008,39.6959,65.7129,-65.2288
-3171.8750,169.1711,90.8002,113.9572,-11.6622,173.7626,-11.0782,26.9534,-20.0914,-202.3279,-196.7121,129.5072,0.3938,72.3605,-54.2201,-6.5135,-91.7747,72.1987,-36.6564,-9.9221,-141.4983
-3164.0625,144.5913,65.5218,87.9072,-1.1257,111.7647,-0.4867,1.0506,64.6216,-191.3382,-186.0742,91.1994,3.5786,9.5228,-43.1730,-68.5064,29.1544,83.4973,-26.1220,1.3496,-130.8567
-3156.2500,142.3946,28.6176,12.2515,31.7987,36.1738,71.4925,-0.4444,99.7333,-155.9253,-188.0299,54.4508,24.9326,-28.9145,-8.7199,-70.0931,-9.5182,47.1941,6.8118,71.0329,-132.8024
-3148.4375,186.4355,37.9498,23.8488,-29.0340,84.8449,45.7146,85.3154,37.0870,-107.2541,-213.7398,75.4466,10.4260,-17.0971,2.9941,-22.4230,-107.9377,57.1359,-19.0078,80.9706,-158.4922
-3140.6250,150.7164,37.5167,-13.2991,-64.6216,84.7796,8.1776,121.3317,36.6845,-71.3190,-214.2058,47.7402,11.3876,-17.0234,39.9593,14.5053,-145.0987,57.3243,-19.5822,46.1607,-158.9245
-3132.8125,174.5327,132.6146,-23.8970,-5.6721,110.2727,71.1809,0.9072,25.8288,-191.8213,-151.1248,29.3130,70.7561,-64.3906,66.4703,-70.0016,-45.6983,-23.9415,40.3878,0.9056,-169.7962
-3125.0000,106.3040,134.6439,-98.5369,-3.7846,35.7324,106.1173,-0.5578,97.9166,-156.3609,-5.1001,-29.9582,64.2396,-101.8023,27.9277,-144.5434,63.6522,-56.2540,41.2916,2.6127,-97.7109
-3117.1875,105.4758,99.0540,-137.7777,-74.5139,-3.3968,29.4354,-2.6149,94.4006,-85.4779,65.3209,-45.7635,23.8326,-104.8063,25.7797,-146.6757,61.4051,-20.1607,6.5856,108.7307,-27.2122
-3109.3750,120.1058,112.9059,-157.5658,-59.7987,-22.0650,10.1970,14.7858,75.3268,-30.1302,9.1805,-56.3027,40.0186,-123.3606,43.0799,-129.3486,5.6138,-5.6156,20.3160,194.3091,-83.2580
-3101.5625,59.9908,88.9966,-181.1051,-13.8424,-45.4766,59.2020,65.4479,88.4993,-17.5220,-14.7172,-76.4416,60.8144,-109.6616,56.6322,-78.7625,-54.9294,6.1812,66.2866,136.1439,-107.0484
-3093.7500,134.8281,164.0271,-100.6990,61.0559,-2.9310,102.1477,35.0680,20.6226,-83.9491,-82.6677,-29.0676,107.8960,-103.0091,63.1367,-72.2132,-122.5244,10.9224,71.2018,35.9316,-137.8828
-3085.9375,163.3681,192.7552,-34.5937,53.6502,26.3214,56.7883,27.3922,12.4433,-128.6619,-53.9206,27.5187,76.5529,-36.6609,-17.6641,-79.9586,-93.4095,-29.6383,28.8155,29.4141,-109.0190
-3078.1250,142.1535,171.7237,-57.2361,-37.5057,40.8297,-2.3231,41.9695,26.5107,-114.1032,-39.9186,20.4371,28.8688,-22.0643,-40.2175,-28.4537,-42.0434,-14.9516,42.6703,80.1407,-94.8964
-3070.3125,197.1354,261.8840,-34.6753,-52.4604,63.5483,-17.2389,64.7425,-24.2280,-91.3422,-91.7223,39.7729,65.7491,-0.2688,18.4349,30.2520,-130.4756,-64.0630,-42.2826,66.0617,-109.5602
-3062.5000,219.8731,355.7806,-87.3642,-65.6656,12.0244,-70.4156,49.2622,-77.2254,4.1758,-70.7801,-5.9522,90.6797,-51.7195,40.8329,15.7132,-145.1509,-5.4213,-55.5030,18.7430,-51.4590
-3054.6875,273.2048,409.2515,-103.4537,-11.2834,-3.8894,-87.0077,-39.6032,-130.6244,24.3074,23.7571,-12.1464,90.2700,-67.5674,-12.1750,-0.2174,-88.2205,-56.1740,-72.1341,-31.9628,-67.7476
-3046.8750,306.2344,407.4005,-34.8395,21.7903,-46.0929,-55.9109,-117.7573,-98.3285,-16.8473,127.9900,1.2327,77.1969,-108.7126,-54.4807,-115.4397,127.4081,-93.2248,-108.0761,-137.9600,0.6664
-3039.0625,136.7136,378.9870,-106.7703,63.3074,-117.8426,-54.3697,-189.4603,-23.5819,-88.5410,165.6704,-90.0185,135.7910,-143.4114,57.6631,-150.2102,202.4859,-119.8260,-66.5770,-165.5118,148.5384
-3031.2500,91.7416,297.1060,-157.1554,17.3743,-168.0405,-32.2814,-203.6182,-1.2859,-28.6795,114.8968,-98.1444,119.1696,-83.5620,117.3548,-54.4309,115.1232,-130.8793,-77.5306,-105.5129,207.9668
-3023.4375,22.8216,159.2535,-193.4880,-15.5168,-167.1759,-31.1465,-91.7203,-36.9413,83.2477,152.1727,-119.8101,76.5018,-82.6613,119.0933,-16.5912,79.8111,-162.8855,29.5590,-103.4605,245.4547
-3015.6250,-80.6129,89.8815,-189.3240,21.0902,-125.8090,45.4912,-87.3150,39.9083,86.6962,191.9542,-149.3015,84.6296,-115.2616,122.3343,-49.2433,120.0014,-230.3970,66.1515,-99.9107,212.4538
-3007.8125,-108.6001,-42.0444,-180.7131,-40.8467,-79.9894,53.5785,-78.4598,85.2018,95.6008,237.1844,-122.4414,0.9846,-69.4088,58.0241,-40.4330,201.6482,-256.4595,39.1866,-20.9206,220.9148
-3000.0000,-224.0409,-158.4359,-155.5450,-122.2279,-91.6110,41.2106,-17.0560,146.0381,157.0675,224.9582,-117.3780,-57.6066,-8.0043,46.2616,21.9343,153.8425,-195.9632,63.7672,4.6157,245.9403
-2992.1875,-161.5898,-130.9512,-51.4741,-94.7036,-25.3248,33.7333,-23.7432,102.7668,150.4494,144.6254,-61.6579,-41.1485,-14.6988,39.3956,15.2117,-0.0589,-132.5626,21.2504,-1.9420,238.8798
-2984.3750,-180.2833,-149.6233,-69.5483,-42.3251,-43.1788,15.0989,-77.5731,84.3442,243.6908,199.1424,-95.6928,-55.0533,-68.5404,-15.6335,-2.6605,92.8961,-115.3170,108.5845,-54.6457,220.6777
-2976.5625,-235.0806,-98.4150,-123.7235,43.9449,-133.1251,70.3479,-131.5019,138.8302,189.8431,291.5768,-150.1999,-4.8584,-86.4850,4.2335,17.3695,184.7554,-133.1747,193.8334,-143.4361,166.3860
-2968.7500,-167.0715,-30.4198,-89.0932,111.0018,-134.2574,104.3829,-132.6230,211.1202,114.8090,326.8125,-117.5447,39.2444,-87.6263,2.8993,16.2117,73.4101,-205.2374,155.8778,-215.4185,164.9035
-2960.9375,-244.7081,-3.0936,-136.1061,104.3971,-182.0285,130.7634,-143.3816,236.7580,141.1513,389.4012,-169.7957,72.2122,-97.4130,65.9071,5.4096,100.4189,-246.9575,114.2618,-222.0563,227.7854
-2953.1250,-208.1508,-1.5820,-170.9233,105.9926,-179.5957,59.3478,-140.9348,164.5944,107.7009,354.2018,-161.4154,60.9235,-58.0023,68.1150,7.8137,174.6400,-209.4811,44.8513,-149.5032,229.8825
-2945.3125,-159.0923,-22.5774,-119.2407,120.1035,-127.6590,-0.5553,-51.9945,142.9299,49.7461,295.5031,-123.5274,57.1994,-80.0903,45.8308,-50.2761,117.3621,-159.5047,58.9427,-134.4635,244.4872
-2937.5000,-171.9893,-71.5330,-131.5082,141.2772,-102.6725,-13.3952,-28.0065,94.3191,37.8448,245.8521,-131.9820,60.6026,-92.1307,70.5971,-26.3134,141.1353,-136.4742,151.0945,-146.3836,232.1538
-2929.6875,-178.3346,-41.9488,-133.2257,135.0140,-68.1284,93.3251,-66.4675,90.2586,35.4965,206.7452,-125.2826,52.8626,-94.6236,-5.0901,9.2055,65.4596,-176.8939,250.7959,-115.7528,156.3746
-2921.8750,-246.6703,-40.3705,-129.9428,172.7574,-63.5804,171.0486,-24.9192,168.1990,-32.8411,246.6330,-130.9143,71.8668,-90.1148,-37.7844,-60.2691,32.7853,-173.3172,323.4899,-148.1173,123.6001
-2914.0625,-233.0952,42.1032,-110.7589,221.4047,-82.1282,225.6726,-116.4651,186.0374,-88.2592,191.4243,-149.3686,134.4334,-144.7075,16.4185,-114.8404,51.0052,-124.8396,336.0816,-169.5800,31.7348
-2906.2500,-171.6569,104.4282,-44.7176,247.9049,-51.8155,256.1499,-87.1605,179.7229,-20.8173,111.0759,-96.4338,130.4581,-114.4490,-63.5367,-121.5638,8.0676,-97.5165,292.5125,-212.2002,-11.2764
-2898.4375,-152.4080,52.5445,-23.8686,231.2052,6.3039,202.4273,-29.0551,163.2059,-73.5729,94.5270,-67.3645,102.8596,-94.3933,-79.7002,-64.4894,-45.0734,-43.3976,275.7407,-157.0239,-27.4718
-2890.6250,-128.4171,42.3948,3.7269,221.2560,34.1801,192.4554,-1.2031,153.4446,-119.5841,121.7279,-30.3057,99.0519,-29.5900,-52.1141,-36.6633,-54.4523,-122.5330,195.7276,-166.0938,-36.9085
-2882.8125,-115.5778,54.0817,-59.8283,163.1564,6.9084,128.3416,8.4985,199.5388,-107.7402,167.7863,-58.3734,84.3634,-55.9399,-41.6793,-62.9823,-7.9697,-108.8275,102.5655,-82.3184,46.5086
-2875.0000,-106.8939,62.6053,-86.5417,136.9141,-20.5155,63.0865,-18.9506,245.4928,-26.0297,66.7140,-62.2996,76.8307,-46.4432,-32.3959,-53.4505,1.3707,-134.2817,76.2509,-3.7057,55.7796
-2867.1875,-26.5534,72.7776,-75.6016,112.3265,-81.2913,-0.5167,29.2462,256.1034,22.3400,77.2969,-49.4818,67.1786,-71.2992,-21.4673,-78.2713,-23.6502,-88.0911,-19.4191,42.5485,66.7089
-2859.3750,-63.1005,107.0473,-111.5595,110.8424,-116.9633,-37.0156,-6.4555,293.8196,-13.1828,114.9794,-78.3098,59.3388,-71.0600,-57.4496,-41.9968,50.4195,-53.8076,14.0119,42.8961,30.7526
-2851.5625,23.1508,157.1076,-56.7305,126.1625,-98.8426,-91.7092,-23.3591,239.3423,7.0903,96.4743,-38.0915,25.3921,-52.0287,-147.6345,15.0813,106.2919,-37.7271,-110.7405,-10.9552,-23.3925
-2843.7500,85.8557,114.6176,6.5450,118.9423,-71.2700,-100.9411,3.1872,191.3198,70.8150,49.4303,4.8137,20.4965,-61.5536,-121.3740,-68.3892,22.6112,-9.2132,-82.0464,-87.3576,39.9179
-2835.9375,66.9565,59.5201,-13.7873,135.1284,-54.2998,-12.7688,-52.8594,170.7063,-59.0356,28.7936,-6.3577,55.3255,-80.6848,-31.7226,-87.4622,-33.6693,7.6986,38.0442,-106.3651,56.6374
-2828.1250,39.4127,67.7746,33.2284,177.6730,-44.9841,70.7563,-115.5621,143.4465,-121.5328,38.5167,6.6025,83.5609,-71.4743,-22.7243,-114.1897,-96.5935,15.9527,116.4837,-133.0334,29.7143
-2820.3125,-53.2795,10.8737,14.0959,157.0799,10.1766,124.1384,-99.4255,161.0485,-105.1808,19.0961,-11.8127,62.4830,-54.4184,-41.8833,-134.0683,-43.6615,66.0561,165.7718,-118.8556,-26.3515
-2812.5000,-3.3336,24.6041,70.6090,171.1401,66.9839,144.1758,-115.6481,180.3066,-121.1781,-34.6624,21.4135,65.5115,-70.7115,-58.3903,-151.2886,-23.0833,45.8105,179.7144,-103.0189,-116.7584
-2804.6875,-62.4788,0.2183,10.0362,182.1024,43.7019,193.1177,-64.9658,230.4700,-107.2722,-58.5131,-22.5772,90.9623,-94.1048,-9.0121,-137.6055,-10.6220,58.4570,226.5567,-91.2782,-140.2612
-2796.8750,-62.4713,-35.0291,-24.3873,147.2141,9.5697,195.2155,-63.1316,232.8017,-141.2085,-57.2010,-24.4873,63.2890,-55.3432,-6.4981,-24.7719,-8.0113,59.2389,191.5576,-55.3898,-174.6053
-2789.0625,0.5890,-77.2269,41.2310,105.3828,38.4873,113.3736,2.7544,150.2063,-75.0906,-64.8293,37.2042,3.0948,10.4619,-50.9406,4.1082,20.6606,17.0487,43.6135,-26.4653,-145.8943
-2781.2500,-27.6950,-106.7790,6.4982,41.2045,4.0501,77.1842,5.2839,152.2684,0.6844,-63.7943,18.7109,-26.5584,12.9138,-49.7364,-30.3658,59.9853,24.5003,14.3168,16.1023,-33.5250
-2773.4375,16.2251,-28.1372,-21.0419,85.2351,-23.1864,13.1994,-21.9914,87.5402,-63.3393,-54.5437,7.7542,29.2680,22.5565,33.6624,16.3541,-41.4851,69.1417,-82.7729,-9.1426,-23.9454
-2765.6250,36.7502,63.1034,35.0123,105.8758,-40.8249,-78.1749,-39.6704,-76.5765,-43.7643,1.3168,13.1477,34.0740,41.7955,15.6494,35.6768,14.6391,90.3700,-202.2542,-128.7957,32.2382
-2757.8125,54.2241,44.2904,53.0114,123.4780,-58.5186,-133.5875,-93.3985,-168.7343,-61.2362,-53.8657,21.7506,11.0970,59.9815,-3.4210,53.9494,179.7009,108.5398,-149.7720,-215.5093,50.3843
-2750.0000,84.0520,39.8255,87.3576,118.4472,-61.8694,-100.6318,-132.7853,-171.5463,-64.3646,-93.6964,58.9072,8.8970,94.5169,-6.1429,51.5778,104.0981,69.0639,-84.9244,-184.8858,10.8835
-2742.1875,10.1462,-0.3901,46.9598,114.6811,-100.9726,-31.4136,-99.9374,-66.1032,6.7476,12.7261,4.8755,29.4097,17.2914,27.3774,11.4519,-10.2448,65.8323,-18.8245,-117.0209,7.6331
-2734.3750,-13.9572,-24.8052,23.3610,90.7273,-88.2814,18.6181,-87.2969,-52.8424,57.6586,62.9605,-1.8427,9.1660,30.8555,3.6942,25.1142,-33.7847,42.3882,-77.9216,-36.3672,-15.8124
-2726.5625,72.7965,-113.3721,75.6124,-33.3704,-35.7449,-40.4887,-70.8205,-109.7198,73.4195,4.0546,70.0864,-90.8696,83.2684,-54.1374,77.6237,18.5219,59.7790,-95.1678,16.1263,36.5981
-2718.7500,8.7592,-211.7467,46.0653,-61.2679,8.9959,3.6137,-27.1494,-102.3878,7.3774,-25.6363,48.7833,-94.1144,53.8813,-10.7777,48.3277,26.0299,67.3560,51.7886,59.8149,44.2237
-2710.9375,-13.6322,-165.4845,62.1643,-13.5170,62.3852,92.3741,-47.8238,-51.3937,-87.0158,-46.6713,44.1637,-31.2684,33.1426,42.2254,64.6783,-31.8044,9.5783,133.4031,2.1540,-13.4912
-2703.1250,-40.6663,-86.8849,34.6215,30.5866,35.1315,138.4859,-1.1468,-42.0483,-40.0515,-0.3532,16.2249,-7.4975,5.7534,-22.4351,37.3801,-59.2920,19.1503,142.3656,-24.1592,-3.8495
-2695.3125,1.0462,-46.5476,5.8296,36.4506,79.6233,109.3571,7.2778,-107.9435,-31.3335,-29.2781,20.0886,-11.1940,14.1099,-51.3515,8.8293,-14.0326,60.4684,113.0947,-16.7357,-32.4475
-2687.5000,112.9096,-40.0608,86.1859,8.4835,87.2615,43.3971,14.8353,-136.6816,-23.4765,-96.0330,82.1558,-41.7577,21.6134,-81.1189,16.4308,-6.6215,67.9262,49.9879,-9.1823,-24.8918
-2679.6875,21.8310,-26.5244,27.5899,-12.4223,65.9457,57.5023,-7.5671,-86.3589,-45.5656,-7.7175,24.2065,-2.0207,-0.8364,7.1507,-42.9194,-66.1627,47.4194,63.9380,5.4118,-10.2788
-2671.8750,-11.8477,10.4072,31.3828,24.0789,-3.9755,24.0181,-77.5729,-45.6302,-41.2479,33.0095,11.8444,6.8079,40.1133,10.8141,-1.8686,-25.3114,-20.6990,-39.7059,-63.6003,-43.2521
-2664.0625,50.0325,1.8822,58.7280,16.1387,-13.3502,-22.8993,-50.0302,-92.3433,-13.3870,-50.7114,46.7721,-27.5513,67.6109,-35.9730,25.7352,39.0765,6.7224,-118.7918,-71.0708,-15.6672
-2656.2500,88.1575,-31.4137,60.3189,-16.5494,-11.4815,-21.5522,-48.2380,-125.7969,-11.2707,-121.1676,52.7044,-12.8612,32.3614,39.4868,-9.4069,-33.2827,45.3807,-45.6152,2.7047,23.1728
-2648.4375,128.7874,-61.2167,104.4120,-45.7329,33.8835,23.3164,-2.9475,-82.7420,-2.6578,-114.1136,97.4983,-33.1320,40.6100,10.4346,-38.0497,-98.1282,16.5212,-39.9345,79.9717,-5.4833
-2640.6250,35.1719,-119.2732,80.2530,-104.1622,8.9979,34.9489,83.0869,-33.9251,46.7011,-29.2963,66.9632,-58.0047,52.6062,22.1157,11.0483,-122.2182,-42.5957,7.5041,21.9836,6.6217
-2632.8125,69.8469,-120.0321,116.3892,-69.2826,46.4089,34.8965,46.4162,-106.7948,-26.6433,-29.1681,98.8315,-71.9182,89.8974,-14.9071,48.4421,-50.0131,-42.4152,-28.7412,-48.7159,7.0349
-2625.0000,30.0839,-126.2401,111.0820,-38.8371,40.3700,28.4056,40.2859,-149.1130,41.5587,-35.4754,81.6656,-79.0602,83.7412,-57.3839,79.3852,-55.2711,-46.6915,1.5606,-86.8812,37.9982
-2617.1875,-9.3756,-165.1484,34.0795,-42.0773,37.6254,25.2245,37.4481,-152.1276,39.0626,-1.4661,38.4063,-84.4113,43.8781,-60.5744,2.6257,-22.2365,20.3241,69.1729,14.2436,35.2711
-2609.3750,-2.1300,-194.3660,80.7762,-70.6121,84.5809,-1.2444,84.3085,-142.4288,50.2666,-27.7457,67.3923,-111.7974,54.7140,-88.0767,13.5736,-11.5153,63.0260,40.4904,127.0643,-27.7482
-2601.5625,-34.3748,-192.0926,10.9726,-102.6527,88.0331,1.7995,161.6637,-66.2161,89.9787,12.4860,38.0909,-116.4712,58.0535,-85.0863,17.0255,28.7007,-3.7856,43.3095,95.3813,-24.2594
-2593.7500,118.5242,31.3176,-12.6900,-54.5424,65.6273,15.0098,65.1668,-15.8320,-43.1556,-48.1137,38.7744,-7.1640,-2.4579,2.0460,-43.3770,42.0840,-61.4649,21.2946,3.8442,-10.6134
-2585.9375,266.3670,142.6795,-7.4073,-82.4702,34.1676,-16.8130,-3.3779,-10.4879,-109.3438,-42.7443,65.6955,9.0395,-34.0197,7.1128,-73.8297,10.4197,-54.2084,-42.7655,10.2495,31.9862
-2578.1250,251.0647,126.8896,-24.2801,-62.5400,-19.4469,-33.7692,-20.0711,-63.2885,-52.6752,14.4778,57.9100,1.1006,-13.7325,-9.9827,-53.4296,-115.4048,0.8951,-22.9747,-4.5030,52.4501
-2570.3125,269.7661,181.0935,35.8450,-7.5953,-33.0706,-47.7090,-33.7750,-114.0802,-67.0080,0.7058,78.2638,19.2031,9.5494,-24.0796,5.9654,-129.2361,-15.0015,-74.1765,-90.2601,1.9201
-2562.5000,212.8736,193.6932,14.3740,5.7623,-91.3053,4.7661,-55.0913,-62.4649,-87.9443,16.3495,33.8930,45.2443,-48.7718,-8.7791,-52.2389,-41.6721,-36.5071,45.0309,-76.6198,-19.2058
-2554.6875,101.1746,186.4841,-24.8981,70.3276,-93.3447,112.4589,-57.2098,8.3677,-163.6774,-22.7846,-6.6932,95.7633,-50.9011,24.7136,-54.2515,-43.9064,-41.8267,109.4540,-46.7832,-95.1291
-2546.8750,123.9222,103.7193,34.2782,22.3538,4.0646,98.6271,39.1112,31.6671,-65.9699,-73.4509,45.0187,24.1319,-27.5814,-62.3518,-30.8191,-57.6894,-53.7108,-43.6618,11.4920,-71.6005
-2539.0625,35.1715,-20.5533,-21.0461,-65.1116,-15.0264,42.3102,93.9225,-23.5156,26.2407,-55.5984,18.5786,-41.3135,27.2425,-44.9244,24.1130,34.0219,-36.1157,-26.2723,99.2497,-53.5615
-2531.2500,40.8146,-15.4377,-49.9750,-24.1765,-6.7257,50.4082,65.1279,57.7077,33.8503,-47.3311,1.7400,-7.4325,-1.5256,-0.1041,31.4527,-31.8725,-101.1229,14.5330,35.3970,-82.1162
-2523.4375,24.8228,-31.9737,-32.5400,-4.8849,-26.0647,104.8702,46.6803,75.2822,-21.2000,7.2839,-13.5246,9.7701,-57.9443,17.0463,-60.8587,22.5721,-81.7760,68.6918,-15.1098,-27.3198
-2515.6250,-11.0159,1.6343,-71.9495,29.5585,-65.2561,102.4953,7.3864,74.0179,-60.1039,42.0573,-43.4874,29.5303,-60.2145,14.3298,-99.0263,94.1624,-82.2829,33.0145,19.5362,7.6303
-2507.8125,32.7961,9.8951,-25.7180,-32.3378,-55.8064,38.7889,16.7321,46.4198,23.6398,88.4937,-26.0414,-18.9197,-86.8348,-50.7369,-53.5410,66.4076,-73.1609,-29.0052,98.8216,17.2351
-2500.0000,-26.0005,-49.4389,-86.0976,-89.8223,-42.9717,-22.4974,103.4650,59.2437,146.7826,101.3564,-40.5923,-49.0064,-38.0612,-38.4018,-40.6549,-31.9406,-60.6622,-16.6158,146.4946,30.2461
-2492.1875,-16.0620,-111.0275,-38.7410,-115.5510,42.5989,-48.0198,113.9443,-40.1633,85.6718,75.9889,-2.9079,-63.8658,10.4653,9.6828,7.9832,-93.5426,-16.4276,-42.4697,155.9140,5.0183
-2484.3750,-96.2637,-155.7788,-8.5301,-53.4291,72.0199,-17.6795,144.2768,-9.7137,42.4179,32.4782,-10.7296,-48.5685,3.8438,2.6004,1.4802,-64.3036,-24.3511,19.5207,112.1826,-38.3535
-2476.5625,-121.9567,-147.0480,39.1837,-8.8195,46.9321,-5.8321,82.1029,-34.7558,-19.3348,-29.5197,-7.2232,-33.1551,15.7266,14.0072,13.4806,57.4444,-14.7801,64.0185,16.9455,-63.2133
-2468.7500,-36.3404,-97.0124,93.2048,-28.9036,101.1434,10.3346,25.2155,-54.4893,-1.8013,-86.2047,56.9481,-70.0099,68.9065,-80.2846,-6.2267,74.4863,0.0820,-26.1837,-3.0005,-82.7686
-2460.9375,16.4241,-150.8291,111.3759,-116.8281,82.5004,-7.3331,7.4687,-36.0603,16.8798,-67.7308,91.2526,-110.7308,87.2379,-62.4243,-61.7837,19.6723,18.0857,-8.2324,50.1947,-64.1731
-2453.1250,9.2781,-122.5525,69.6418,-87.6442,77.9517,24.1213,1.8228,69.4834,-24.3352,-35.1498,71.3448,-63.6473,82.6693,5.5213,6.7542,-96.0412,-23.8166,-15.1640,8.4876,-105.4749
-2445.3125,-30.2630,-128.6748,63.5109,-56.8518,35.0059,55.1945,32.7670,100.6383,-66.9535,-40.9575,51.7968,-24.1747,76.7055,73.0530,37.8957,-139.1614,6.8683,-19.4895,-30.6288,-74.1813
-2437.5000,-11.0096,-110.0020,81.1764,-2.2538,53.8481,37.0912,14.5019,45.6089,-85.7823,-96.9535,57.3334,-8.6861,58.5394,54.3833,19.8335,-120.4916,96.3528,-34.9968,-46.9496,-19.0880
-2429.6875,29.8969,-68.6757,89.4893,39.0117,25.3333,8.6625,-14.1254,-19.7540,-76.9826,-88.2950,56.6501,-14.0722,30.0143,-11.6326,-8.5931,-76.1730,138.4804,-28.8426,-39.6238,-47.3483
-2421.8750,29.7160,0.5530,52.7055,39.1856,-11.2867,9.1487,59.1411,17.7897,-2.2872,-50.7379,31.9988,-13.6847,-6.6101,-85.7579,-8.1206,-75.9575,67.5037,6.2065,-39.4028,-46.7106
-2414.0625,7.1865,-22.5733,-5.4256,17.0060,-33.2585,23.2989,74.0586,31.9927,-23.9393,-72.5222,18.4448,-13.7695,44.4195,-34.2430,80.0083,-24.0959,-24.8350,-16.0853,-26.5443,-68.4180
-2406.2500,24.0017,-41.3538,9.7854,-35.8229,-54.8851,-34.1862,53.3163,48.5478,-8.2379,-19.9397,26.6281,-28.5063,60.8039,17.6129,95.4944,-8.8719,-78.8350,-70.0213,-45.3437,-15.7741
-2398.4375,41.5712,-25.3824,-11.2558,-53.8958,-74.7646,-54.9048,-4.6760,-9.1398,-28.7851,33.4114,24.5646,-15.4182,76.9376,70.2080,38.7241,-29.9026,-61.0939,-17.2035,-62.3991,37.6229
-2390.6250,107.6913,111.1412,59.2508,-22.4128,-42.1045,-58.0532,-81.1258,-85.2664,-67.7966,30.3192,68.5639,10.6619,110.6165,29.3583,35.5014,-69.3999,-64.8043,-55.8245,-135.8990,34.5689
-2382.8125,76.8749,44.7191,61.8187,-17.8764,-2.3994,-90.1338,-77.5354,-81.3348,-63.7713,-3.7232,55.4942,-3.7047,76.3461,31.5540,75.3276,-29.8586,-59.4680,-51.4018,-96.3490,74.5649
-2375.0000,-48.7872,-10.5581,7.5378,-37.2004,17.4481,-72.0570,-59.7994,-63.2478,-45.5923,-20.6032,9.2973,-11.8542,96.2318,50.8888,168.3044,-11.1617,-79.9905,0.1733,-45.6435,20.7122
-2367.1875,-46.0968,-80.4843,11.6028,-70.1719,58.6404,-30.6171,18.2806,-58.8036,32.9309,-16.1189,24.6587,-64.6998,99.4680,-19.4268,172.6298,-7.1108,-78.1735,2.1024,-43.5878,-11.7951
-2359.3750,-143.5043,-107.5099,-16.4295,-61.2344,30.7305,15.7425,64.2617,24.5543,79.3511,30.2746,-13.6004,-63.0356,72.6040,-47.8473,107.8493,1.8239,-69.4674,45.9347,1.3602,-2.4045
-2351.5625,-75.3694,-74.9869,19.0844,-62.7406,66.3619,14.6729,62.7836,-13.5311,4.3154,-7.7838,19.2604,-41.3084,71.2948,-12.7253,70.6216,-36.6989,-36.2134,9.3325,34.8520,-3.4652
-2343.7500,-3.3228,-74.5530,55.5036,-61.3361,102.8936,14.5171,99.1975,-13.7132,-32.8330,-80.9359,50.6098,-33.8987,33.8839,-13.7173,33.2900,-109.3205,-0.0640,10.6313,36.2347,33.3659
-2335.9375,11.6749,-24.1612,35.8740,-45.9822,46.3675,-4.6717,5.5609,-32.9426,-88.0333,-64.1285,40.4086,-20.1113,51.4206,3.2383,50.9042,-20.0028,-19.9690,25.8885,16.5621,14.1456
-2328.1250,47.9675,-23.4675,74.5387,-44.3320,48.1424,-2.5313,-29.7790,6.1347,-85.9461,-62.0152,65.5572,-38.2559,53.2522,-32.5073,15.8151,55.6088,-53.5807,-43.5339,18.1893,16.2246
-2320.3125,-24.5255,8.4220,-40.5856,-79.4774,6.1192,-43.1764,2.0752,38.4115,19.3333,7.2891,-16.5544,-25.0439,11.2950,-1.0644,10.9274,50.4113,-53.9946,-78.7577,51.0135,85.4958
-2312.5000,19.2383,52.5611,-31.4574,-106.3690,-56.6565,-69.5699,-24.8194,10.9330,-7.1382,53.8372,-21.7374,-9.7536,-15.4055,44.6246,20.2945,59.4465,-45.1457,-105.7332,131.0809,95.0159
-2304.6875,36.8102,68.5091,-49.5289,-88.4483,-74.6330,-87.1484,-6.9227,67.2501,48.1832,73.1839,-44.4314,8.1004,-69.3054,63.1154,39.4602,4.2815,-29.5012,-123.9128,112.9466,77.3245
-2296.8750,9.5819,5.6615,-40.3982,-45.3205,-102.4240,-114.5066,-33.8287,39.7721,57.6951,119.7342,-50.8899,14.0874,-60.0143,108.8064,48.8150,13.3186,-20.6583,-114.8944,122.0244,86.8348
-2289.0625,9.1046,4.5585,-4.5218,-79.4535,-65.4702,-151.1016,2.0177,3.0572,94.9441,120.0382,-25.3863,-30.3479,-23.9774,34.2569,85.9174,13.0967,-21.0583,-150.1158,86.8580,87.0970
-2281.2500,11.4829,-62.6951,-2.7948,-147.7470,-64.6708,-149.8326,3.7099,-30.8019,170.0387,47.2079,-2.4626,-100.7700,13.9065,-37.4396,123.8763,50.7283,16.3811,-112.4953,124.5449,125.2041
-2273.4375,77.1194,-68.6851,65.1772,-117.7948,39.3691,-117.3016,34.6504,-109.3998,91.3851,-29.3588,51.7427,-86.8472,9.0394,-42.8999,82.0780,-26.3726,46.0516,-82.6268,119.4691,120.5656
-2265.6250,39.2677,-37.1542,63.6480,-48.3367,37.8952,-8.2637,33.0657,-73.4989,90.2092,5.5753,16.2447,-9.8391,-65.3294,27.1490,-28.2319,-64.9681,9.2180,-14.2610,81.8953,119.4306
-2257.8125,-120.9821,-23.0271,-65.2777,0.7129,-53.9837,45.3854,-22.9279,-20.0029,70.6347,133.0989,-119.8038,55.9750,-159.0876,117.8081,-84.9336,98.0193,-11.0078,106.7025,97.9352,99.8958
-2250.0000,-204.9529,-36.6146,-148.9086,23.0642,-137.5651,73.3442,-33.6081,80.7947,171.3723,233.9185,-198.5170,54.6290,-205.5440,106.7731,-59.3280,198.3004,-59.9339,57.9738,154.2732,16.6563
-2242.1875,-233.3291,-101.6092,-178.9293,-40.9870,-130.5413,43.9122,47.3135,161.1815,325.6944,351.3370,-189.9477,-8.0485,-161.3950,40.3404,-52.1230,95.1864,-88.2635,29.8449,232.2168,24.0076
-2234.3750,-204.8140,-108.7021,-187.0473,-82.1437,-101.6161,-0.6113,113.1371,153.4726,354.9048,307.6501,-170.1870,-44.8653,-132.3409,-5.1971,-23.0112,86.9737,-59.6998,-47.3804,226.0551,53.2571
-2226.5625,-112.0557,-85.5448,-128.9189,-58.0546,-80.4419,-50.8789,60.2103,65.0071,229.3625,182.1934,-117.0366,-47.6472,-111.0262,-20.4795,-36.6330,182.0062,-1.8834,-94.3504,213.1469,111.7484
-2218.7500,-52.1282,-62.2144,-104.6403,-33.8123,-130.1226,-62.9952,11.4330,52.6844,143.9632,95.8818,-95.6029,-22.7366,-123.5589,3.3855,-12.1044,58.1684,92.0893,-70.1769,237.3883,136.3810
-2210.9375,30.2191,19.5397,-15.9649,13.8218,-114.4078,-83.7103,-9.9481,-4.2457,122.9608,37.9728,-44.7076,14.1116,-107.7005,17.6602,2.8096,-35.2894,70.4762,-91.6022,146.0406,115.4012
-2203.1250,-20.6036,38.1241,-32.4780,-1.7500,-94.8904,-63.6103,-26.5299,-20.3849,142.7467,94.8494,-61.9928,7.4418,-88.0557,0.7285,-13.4922,56.0436,19.6616,-36.2241,59.4995,135.1999
-2195.3125,-120.0149,-26.8797,-61.5951,-30.9282,-49.9823,-55.1040,16.2879,-13.1105,76.9206,140.1266,-76.1671,-10.5260,-43.0171,7.1945,-6.3986,63.7908,-9.7577,38.5505,65.3729,106.3846
-2187.5000,-84.5217,9.0251,-59.8238,-65.2088,24.8172,-52.6837,56.0017,-10.9344,42.9785,106.2999,-57.7732,-5.0018,-41.0807,9.5664,32.5986,-7.5516,-44.2736,40.2289,102.1503,72.4550
-2179.6875,-109.2560,18.7180,-119.2988,-18.7279,2.3651,-1.5085,70.4535,40.9806,20.7663,120.2147,-87.2517,15.2297,-64.3936,-13.3060,10.3408,-30.1497,1.9601,120.6455,112.6591,13.2604
-2171.8750,-6.4213,85.9991,-47.2247,13.3143,38.4457,35.2204,32.4390,3.4372,-16.9090,46.6733,-35.9250,23.8726,-65.1677,-51.6153,-27.3880,42.7881,-1.2493,47.6222,74.7028,-24.3925
-2164.0625,28.5331,14.4046,-10.0429,-21.5317,38.6214,36.0685,-4.4869,3.9894,-16.5086,10.2182,4.6601,0.8107,-27.8487,-14.8142,-27.0332,-31.1761,68.6382,47.7021,109.8432,-23.9607
-2156.2500,-25.5018,-5.1889,-30.8523,-5.3831,17.7972,52.9283,-25.4150,57.5299,-74.1160,-10.2463,1.3436,7.0685,25.4721,0.9868,-10.6781,-15.1451,84.5320,98.7830,20.9857,-7.5319
-2148.4375,-129.7265,-3.9710,-63.8541,-3.4414,-15.2283,56.5857,-95.5469,24.8562,-69.9329,31.0777,-41.4306,0.3315,65.5931,4.5903,30.4792,135.6753,51.2276,136.6668,-47.0749,-40.3004
-2140.6250,-230.5315,-0.3347,-94.4535,71.8920,27.1434,63.6350,-52.2798,30.5703,-26.3570,36.7921,-85.9838,27.8546,35.1205,-26.4043,0.0416,104.8918,91.3199,140.9410,-7.7362,-70.6794
-2132.8125,-125.7355,68.9194,-20.4597,105.8270,65.1074,28.2700,-51.4073,31.8818,-62.1902,1.1142,-44.7567,54.6501,-0.7627,-26.7983,-35.8046,-5.2857,125.0081,-36.1808,26.2082,-106.4593
-2125.0000,-23.8269,65.2999,46.6205,102.8717,58.1604,-13.9898,-58.4403,-10.7210,5.0645,-41.4638,5.4213,41.2916,-6.5561,-33.0826,-79.5625,-48.3676,121.8007,-74.2020,-11.7448,-39.1476
-2117.1875,-121.2980,2.3069,19.3069,111.5181,-6.1969,-4.6562,-49.8817,-1.7497,13.9110,-32.4498,-35.3975,43.9199,2.2483,12.2395,-33.7204,-39.8653,130.2126,-65.6229,-38.0915,-30.2558
-2109.3750,-93.8611,-6.7680,85.8980,138.0612,23.3454,-47.4200,-56.4138,-7.8910,-66.3565,-38.5612,3.6201,53.4184,31.9525,41.4634,-2.9799,-83.4763,121.5387,-145.1265,-11.5300,-73.4894
-2101.5625,-80.4474,-98.8704,134.4516,45.5469,71.8411,-109.2238,29.0054,3.9090,-17.6920,-26.7524,54.8296,-44.9501,80.6060,-57.3646,45.7084,-35.1464,63.8142,-131.6738,-33.0100,-24.8024
-2093.7500,-82.5723,-137.5079,95.4589,8.4749,106.7935,-110.5650,26.8837,2.1566,-19.5963,8.4872,55.4177,-75.7199,115.7041,-59.7408,43.8323,72.6237,26.5391,-98.7649,-71.0280,-26.6841
-2085.9375,-35.1339,-125.5709,143.0180,-14.0423,154.2970,-62.3463,0.3035,-24.0462,-8.9832,-17.7408,87.1736,-80.3228,90.3526,-86.5553,-19.5061,9.9437,73.8113,-15.3017,-93.5006,20.9595
-2078.1250,-81.6711,-136.5910,59.5862,10.4483,106.7973,1.8731,-47.2892,-34.2626,-56.3952,-27.9874,39.9828,-43.7542,79.9931,-23.3586,44.1501,-37.7370,98.0844,114.1650,-68.9966,10.5814
-2070.3125,-97.8950,-83.2786,45.4438,28.2431,93.5945,62.3963,-60.5863,-10.1928,-69.5246,-40.9450,33.9049,-25.6371,102.9253,-36.8386,67.1010,-14.1261,45.6658,97.9355,-50.2008,-76.5147
-2062.5000,-118.7505,-104.5821,-13.3465,-27.6068,33.7356,114.2698,-9.5442,77.2101,-18.3168,46.4292,-12.8088,-22.5557,43.2040,13.0443,8.4013,35.8313,-45.3969,112.0462,-36.0547,-62.2817
-2054.6875,-154.8761,-105.1621,-87.4236,7.2265,-2.4225,188.8265,-46.7902,114.2913,-18.4148,83.4842,-62.3869,25.0614,7.1784,86.6243,-28.6072,-0.5074,-116.7567,146.8434,-36.2044,-62.3509
-2046.8750,-80.6409,-102.3761,-12.1542,10.3960,-1.2306,116.7109,-45.6831,78.7029,-17.1734,11.8608,-2.3819,-13.0852,45.5127,14.5507,9.7395,0.5029,-42.7569,8.9949,2.0140,-24.0737
-2039.0625,-50.4810,-107.6711,20.0147,5.4655,-43.1359,39.4787,-13.6620,38.0011,-22.0478,-66.8809,3.7320,-48.5342,3.7517,-64.6114,4.9904,68.3918,92.1406,39.0416,32.1414,-28.9092
-2031.2500,25.8334,3.2123,65.3192,81.6825,-107.9100,48.3846,-78.4906,9.4407,-86.7788,-57.4666,19.7653,8.1225,-23.8765,-55.6104,-59.6150,40.4303,98.1947,45.2502,37.4258,-93.6059
-2023.4375,4.1141,86.0899,80.5646,94.8662,-92.7477,64.2483,9.6167,98.8222,-71.5809,-42.1072,16.2485,43.4380,-45.5709,-77.6525,-118.2871,-18.5650,41.1955,23.4215,51.6422,-115.3707
-2015.6250,-94.7918,-12.2058,50.6124,66.8450,-48.7872,71.9120,53.5178,105.9997,-101.5966,-34.9571,0.0220,42.2962,-2.4739,2.1170,-111.1724,-11.7594,11.9975,65.3916,93.6559,-108.3461
-2007.8125,-86.2853,-40.0866,133.0653,4.2068,32.5780,6.9580,98.8305,114.5598,-19.2200,9.5782,56.7702,-11.6213,80.0205,-26.6954,7.3430,-76.5775,-49.7930,-67.2475,31.0845,-99.9263
-2000.0000,-130.8547,-49.0514,46.4244,-39.5403,20.8417,-41.1129,123.0451,101.9880,42.0500,34.9953,17.1829,-24.4910,104.4172,-1.6001,68.7523,-52.5062,-58.6679,-40.9880,-12.5751,-38.6257
-1992.1875,-58.3622,-12.9405,46.8419,-74.2370,20.1522,-41.1496,12.3097,65.4438,4.3540,34.4386,30.7715,-37.7735,103.8566,-2.4485,105.2035,20.6143,-93.4747,-39.6698,-47.1822,-2.2925
-1984.3750,-56.2550,-45.1964,10.8751,-140.3263,21.0669,-2.5871,13.1743,66.4885,5.2186,-1.5498,25.1365,-65.6956,105.8843,-1.6868,107.2428,131.3377,-124.6679,33.2527,-44.1874,35.6151
-1976.5625,-156.6241,-77.9288,-59.5833,-136.9219,-49.5175,75.4663,-20.4606,107.0221,45.5678,1.9459,-44.5775,-35.9341,72.4047,75.5890,73.7744,208.5646,-157.3539,106.6730,-40.6900,39.0094
-1968.7500,-160.2847,-79.9341,-97.3538,-70.8242,-50.4098,111.2123,-58.3921,105.2434,81.6195,38.1321,-61.5281,-17.4826,71.6163,73.5709,146.0009,133.4936,-159.3479,103.8050,-43.4905,1.0972
-1960.9375,-152.2855,-109.2684,-127.4737,-64.0935,-81.6477,153.5896,-16.6689,147.0951,49.3211,42.9599,-56.9570,-25.7774,76.4818,42.2136,150.8811,28.0759,-83.7024,110.5815,-36.6344,42.8259
-1953.1250,1.1684,-25.1438,-42.1562,-15.9272,-32.4324,167.3965,-76.4770,87.3760,-83.5363,-17.7800,11.6678,2.7664,52.7994,18.3203,54.2097,-32.8933,-35.6000,88.8163,-128.3155,55.9980
-1945.3125,40.7928,49.1554,1.2963,24.3907,-63.0779,101.3412,-107.1419,56.7874,-42.2552,25.6022,17.1030,2.3242,22.2509,-49.3959,-13.3198,10.2838,4.6713,58.2142,-158.8403,25.2993
-1937.5000,-10.0002,33.0529,-12.6919,8.2758,-40.1910,86.8243,-48.2662,42.7300,17.5536,48.5150,-7.8353,-10.1858,8.2296,-63.5451,9.6781,-3.9994,-11.4837,42.1615,-139.8231,-25.8770
-1929.6875,-4.9286,38.8490,69.1754,49.0396,4.5442,59.1490,-3.5499,13.5036,25.1743,-16.7379,35.5764,5.3979,53.0350,-54.8274,91.4991,-143.4431,-6.7682,-23.0302,-134.9637,-91.2195
-1921.8750,18.1581,25.6869,90.0485,0.8141,62.2739,7.4609,54.1531,-75.7492,46.7803,-70.0105,73.8827,-24.8705,110.8369,-71.0962,39.3125,-194.8928,50.9498,-106.2255,-147.1048,-33.5780
-1914.0625,11.4567,18.7415,120.1240,28.7812,55.2025,-36.0520,-25.9259,-155.8210,2.5910,-114.1067,87.6465,-29.8797,140.8391,-78.1666,-4.6740,-130.1365,114.8670,-113.2236,-119.0348,-40.7484
-1906.2500,62.6688,-1.2861,137.0918,43.6312,35.0315,-55.6888,-120.0970,-176.0102,-17.7193,-60.3213,105.7256,-41.2471,157.7430,-61.3253,12.2373,-76.4728,94.6921,-97.3156,-174.0418,-61.0370
-1898.4375,4.6082,47.4186,75.7663,92.1743,11.5640,-5.6433,-70.5573,-127.5219,-5.3399,-47.8591,59.2462,-9.1265,133.3356,-85.7812,24.8410,-27.1062,36.2207,-49.7097,-231.3489,-48.6407
-1890.6250,-11.8418,29.7576,57.0414,74.3165,29.6898,12.9779,-89.4206,-109.4506,-61.3730,-66.8104,58.8724,-10.4065,151.5224,-67.6285,43.0353,-9.1431,19.3618,-66.4928,-177.0618,-30.6540
-1882.8125,-36.0737,40.3349,-7.4747,49.6691,38.0135,58.7824,-81.0939,-64.2033,-53.2332,-58.5824,26.8374,14.4042,122.8920,-22.2472,-22.5873,-1.0022,-41.2733,-21.0640,-131.5769,14.5125
-1875.0000,-128.5425,53.6848,-103.2299,27.7777,16.0914,110.3265,-66.0127,-12.2233,-38.3637,-43.6300,-42.5897,42.2228,101.0008,29.8962,29.5181,13.8657,-98.1435,62.1368,-119.3307,-7.5924
-1867.1875,-71.4099,40.6572,-44.3974,-20.5155,37.7735,132.4594,-44.3308,-27.6568,-16.9106,-95.0951,-7.8571,17.5960,86.7027,14.6520,88.2173,-38.6543,-41.4065,-21.0406,-62.4813,13.8737
-1859.3750,-27.6085,-92.6840,-36.9171,-84.1538,8.1041,67.2295,-36.9883,-20.4472,64.1827,-87.9367,20.9592,-60.3702,94.0461,-14.9392,58.5587,-68.5134,71.9826,-13.5692,51.0124,20.9635
-1851.5625,103.5216,-101.6974,-8.1334,-58.4956,-0.2645,59.2726,-45.3523,-65.9660,18.5604,-133.5107,49.8583,-55.0684,48.6826,13.7866,13.1901,-3.0828,96.6989,-23.7924,5.8102,-24.6556
-1843.7500,102.4451,-32.9222,27.4119,9.9166,-1.8859,94.0382,-83.9652,-30.7708,-57.3430,-135.3745,45.9684,-7.3739,10.0584,12.2756,-62.4346,32.0956,95.1848,9.7287,-101.6416,-26.5410
-1835.9375,83.4474,53.9381,7.0153,61.3794,-22.4557,110.8263,-140.5185,-51.5538,-114.2115,-155.2202,28.0688,38.8187,26.4699,28.8243,-46.0156,48.3333,111.7334,-43.7056,-120.0467,-10.3922
-1828.1250,188.5016,158.8825,115.6601,94.8958,50.0212,-0.3531,-106.0132,-126.3003,-116.0310,-231.0293,93.3750,44.0133,24.9197,-46.5488,-10.5578,-27.3973,110.3253,-151.0734,-86.4060,-12.2061
-1820.3125,163.1169,168.4131,51.8450,68.9756,22.0396,-28.0017,-22.9664,-117.5037,-71.3258,-148.2954,68.8942,47.1591,33.9139,-37.3414,-38.5628,-128.6012,119.4699,-71.8910,-112.2138,-3.4879
-1812.5000,112.9970,188.2261,37.2811,124.3078,8.3032,32.5723,-73.6703,-95.4796,-48.3880,-90.3262,23.9984,98.3147,-16.8516,22.1195,-52.3307,-106.5512,68.8897,-51.4573,-92.7737,-54.5297
-1804.6875,111.1985,116.3710,35.0263,86.9386,41.8738,30.4073,-39.0710,-61.1929,58.8404,-56.0750,43.7514,33.1865,17.6770,-53.1200,-17.7996,-72.1931,31.6190,-88.7153,-59.0364,-57.2928
-1796.8750,89.4683,-10.3975,-26.1728,-5.3806,54.4943,5.2655,9.5826,-12.8733,34.1107,-44.7828,46.1102,-31.0974,66.2470,-41.3126,30.7815,-23.7798,45.3977,-75.9247,-10.2507,-9.0222
-1789.0625,117.3504,-17.5359,1.2271,-13.1129,117.7196,32.6974,36.8451,14.0419,-13.0338,-90.9023,71.9836,-15.3522,56.4168,-13.9000,20.9592,-106.7721,37.7699,-83.5265,17.1348,17.8489
-1781.2500,88.8565,-82.0582,-68.7697,-77.2537,46.5465,34.6920,1.7136,52.5383,62.4117,-51.4518,27.6938,-39.4502,21.1871,25.1227,-13.2616,-67.1807,78.7475,-7.5196,22.1279,93.3175
-1773.4375,63.1180,-36.8030,-58.0316,-34.6448,22.1142,47.4155,14.3389,101.7712,37.6021,-41.2606,-1.3978,-16.3025,-40.3106,0.9143,-38.7495,54.1725,52.4769,2.2617,31.8639,31.5232
-1765.6250,66.3339,1.4326,-16.3592,38.9283,26.6263,52.0710,18.9047,31.9404,4.7254,-74.1249,10.9100,6.1574,-35.8769,-31.3182,2.6987,58.4911,55.1647,5.0093,34.5452,-1.3456
-1757.8125,24.8241,29.9609,-23.4241,31.7671,19.3878,44.9553,84.7201,-12.6566,34.0712,-117.7665,5.8319,16.2705,-6.2109,-38.2934,69.3763,-59.9502,83.1196,33.0100,62.4620,-8.9760
-1750.0000,66.3239,106.5136,58.5167,36.6114,101.1457,52.8114,56.5360,-78.2804,-31.5975,-110.4417,57.7195,24.2305,38.4464,-66.2486,40.0461,-88.4043,89.0998,3.0221,-2.6163,-74.6205
-1742.1875,103.2425,143.4923,94.8658,37.8632,137.3066,53.0377,55.7587,-5.5278,-69.8741,-74.7438,74.0949,41.0280,1.4898,-66.7771,-33.8968,-126.4566,89.4851,4.4333,-72.2953,-38.8878
-1734.3750,123.7648,129.0850,77.8073,-12.2886,120.0626,35.8489,39.5877,-23.1721,-50.5588,-92.4462,62.0513,36.6266,-15.8810,-9.6798,22.7390,-142.8962,109.4639,-81.5345,18.6248,-19.5702
-1726.5625,225.0318,89.4365,108.4891,-122.6880,150.5616,-80.5993,106.1595,-67.0610,53.4814,-62.3968,114.8667,-60.2376,14.4858,-89.8087,16.1136,-39.5671,70.1923,-154.7402,49.2922,10.4923
-1718.7500,153.7654,19.2539,-4.3698,-158.6313,111.5072,-82.6196,67.1777,-33.5025,86.9618,8.1004,39.6987,-81.0313,-25.7062,-55.4879,-24.0697,105.2262,69.3588,-120.4910,48.3959,44.0110
-1710.9375,179.9470,79.5369,-14.7929,-64.1256,100.8914,-57.2194,19.6343,-44.5079,-35.1095,-111.9425,50.1181,-22.1965,0.5390,-28.7018,39.1892,57.4799,93.9858,-130.7683,37.9462,32.9826
-1703.1250,148.2454,12.9546,26.8906,-61.5120,104.3699,-53.7435,97.1849,-77.4327,5.8963,-108.9079,64.6788,-45.0844,4.8692,-60.7951,43.5419,-49.1695,167.7273,-128.9322,110.5865,0.0394
-1695.3125,81.7224,52.5614,32.7242,-22.7356,110.9972,-47.1486,140.8838,-71.2293,85.0379,-66.7482,42.7658,-14.3869,11.3392,-53.7287,49.0278,-153.6828,170.6344,-125.9385,43.3676,-67.7593
-1687.5000,354.8227,360.8203,96.1527,73.6490,27.2149,-57.9855,20.1805,-119.4481,37.7614,-78.0060,74.4639,88.6349,-110.6055,-64.0538,-34.8961,-163.6064,91.1524,-169.3195,-106.2579,-41.9677
-1679.6875,497.8524,680.0260,-12.5235,145.9450,-82.6689,-19.9501,-89.6212,-118.7923,-109.6329,-114.3807,36.3879,223.8279,-181.6647,-25.4665,-143.9295,-126.6359,57.5728,-26.7869,-139.9833,-41.3005
-1671.8750,593.0905,810.4608,-22.0112,204.4390,-55.3571,43.2623,-99.2123,-91.9447,-339.8430,-161.5666,61.9309,300.7629,-192.5372,1.3342,-190.7752,-136.4506,11.1971,31.9609,-151.5036,-88.4482
-1664.0625,606.8947,824.4745,-7.9481,147.4818,-40.4912,95.0023,-84.2463,-40.5505,-398.5106,-110.2164,52.0546,299.0417,-250.8681,16.6987,-213.0786,-47.7073,-10.6351,10.2527,-102.4717,-111.0519
-1656.2500,557.8727,740.6526,-95.7337,62.6671,-92.4784,79.8509,-99.1304,-56.0242,-267.0311,-51.7293,-6.0981,260.2759,-266.0571,76.2233,-192.2392,84.1943,-25.3049,31.6931,-12.2763,-126.5071
-1648.4375,611.8668,759.8483,-72.5215,80.8529,-142.4683,102.6669,-39.0104,-70.5107,-208.5576,-66.2539,4.1322,292.3387,-281.2574,136.7546,-205.4140,34.1052,-111.9624,-19.8561,41.9181,-213.9704
-1640.6250,537.6752,720.8714,-149.5044,76.8497,-182.6613,136.2574,30.9052,-111.2102,-175.2980,-106.9865,-46.5499,315.1253,-284.6735,207.1073,-208.8035,-43.1832,-80.8197,-24.5957,107.8990,-254.6420
-1632.8125,586.3396,699.7667,-133.6380,18.7062,-131.0091,77.6672,46.6611,-133.0697,-234.1919,-202.8783,-6.8609,285.6508,-232.2528,223.3293,-157.3589,-28.6182,-68.8205,-82.4803,154.7266,-313.4653
-1625.0000,618.3011,731.9750,-100.4771,-21.1354,-98.0623,36.3495,79.7180,-137.6396,-238.7937,-243.4754,22.0870,290.3543,-200.5419,256.8656,-124.6232,-105.7390,-107.5161,-121.0531,115.8535,-317.9906
-1617.1875,499.9648,719.8978,-189.6152,-34.2764,-113.4144,57.6996,64.4787,-153.5242,-217.7041,-222.3748,-38.3563,312.0629,-179.1381,316.1109,-140.1898,-158.1429,-50.5154,-63.9155,102.6742,-296.8226
-1609.3750,528.5209,747.7323,-121.8628,28.4844,-82.8683,50.9264,21.1477,-234.5103,-225.7103,-230.3787,-25.5451,321.7304,-222.8404,273.2581,-183.8537,-127.6444,-23.6135,-71.8626,94.3936,-340.7559
-1601.5625,493.8314,678.3289,-88.3604,63.9913,-123.5684,10.8739,54.5765,-200.7574,-191.9641,-160.6543,-44.9889,273.0229,-299.7968,160.1706,-260.7634,15.5816,-22.9520,-106.0469,58.8700,-270.9460
-1593.7500,392.5097,542.2938,-124.5017,66.8475,-122.9081,10.1377,18.3639,-164.6658,-155.8662,-123.6015,-80.7239,249.8530,-299.4007,197.4352,-261.3275,53.1424,-18.9319,-137.8801,97.6950,-197.7895
-1585.9375,245.1457,324.2274,-98.6966,-11.3417,-97.3014,-37.6803,81.1035,-139.6369,-20.8264,-98.6027,-83.7204,185.7682,-237.0657,260.6574,-161.9558,4.6670,-61.9521,-144.7457,195.4625,-135.6844
-1578.1250,44.8412,125.2355,-128.8458,-106.4697,-90.6528,-31.4727,50.8868,-96.5634,-13.7448,54.4498,-115.3229,102.4070,-156.7040,267.9400,-118.5527,48.2547,-86.9175,-63.5523,171.2824,-55.5385
-1570.3125,74.9399,119.6575,-29.5982,-77.1889,-28.6109,-42.8878,40.0766,-144.0894,-98.2659,42.9038,-70.3966,62.7976,-167.9599,146.6301,-91.7665,147.2566,-91.4808,-103.9484,59.4985,43.0040
-1562.5000,16.1382,26.1969,-20.2567,-65.8059,-56.4671,-72.2248,11.3659,-137.5175,-54.6961,-22.5471,-74.4620,45.0496,-160.1206,155.4359,-121.8844,192.3583,-80.9414,-22.2335,69.8076,123.6404
-1554.6875,-148.7035,-33.2974,-79.9559,-21.4669,-79.3677,-22.6409,-48.3917,-87.0125,-42.1772,26.9400,-140.0666,85.2623,-146.3322,244.1992,-107.0527,132.3946,-71.4420,92.4351,115.0522,27.2253
-1546.8750,-109.8459,-28.0788,-36.9572,52.5825,-36.5699,20.6185,-41.4535,-118.8191,-35.9583,-3.8835,-109.8915,99.5043,-140.8480,214.6702,-138.5245,29.1357,2.7676,60.8156,12.9868,-40.4866
-1539.0625,-118.2793,-72.1455,25.7465,113.3456,-11.0741,8.5535,-52.8277,-93.9412,-194.0511,-126.0136,-68.9457,123.9073,-115.6720,240.8443,-186.3039,17.5929,63.6828,121.9070,3.6106,-15.4990
-1531.2500,-182.6627,-136.1529,33.5002,119.1636,-39.5317,16.5132,-44.1538,-49.0137,-260.0908,-192.0854,-78.1494,131.8589,-108.4553,286.0699,-106.0419,-10.8890,33.6485,198.0584,78.2762,-81.4589
-1523.4375,-203.6539,-120.7556,11.6464,97.3904,-61.5961,-6.1479,80.9221,-34.6896,-173.7266,-141.7524,-101.6184,125.5266,-130.8472,264.7047,-91.3880,-69.9637,12.0109,176.6270,56.3335,-104.0193
-1515.6250,-225.8915,-144.6035,-13.4566,108.3768,-87.9128,-33.0824,54.7506,-61.6176,-163.6115,-131.6669,-113.5743,78.4360,-120.4968,166.0950,-80.9874,50.7198,58.1207,187.9487,32.1335,-93.8252
-1507.8125,-93.6396,-185.9535,49.9307,100.8631,-60.7342,-80.5426,9.0826,-146.0421,-136.9900,-142.0809,-54.8804,14.9004,-130.6488,82.9957,-91.0889,151.9010,50.7365,145.7894,24.4345,-67.1211
-1500.0000,-191.3855,-248.2933,-18.6814,71.3549,-93.5504,-113.0256,13.4166,-105.4756,-59.3709,-27.4956,-114.7790,10.6643,-161.8005,124.9009,-123.1897,82.0751,22.3526,222.6398,65.7272,-26.4158
-1492.1875,-249.1322,-199.6227,-5.2877,82.8501,-80.3600,-101.5372,-10.2501,-129.9122,-120.7562,-14.9088,-130.8378,65.7803,-149.9542,212.8078,-147.2960,58.2590,-36.0264,269.4973,42.0055,-50.7073
-1484.3750,-288.7350,-169.7973,26.2526,113.5083,-49.0260,-107.9165,-15.7766,-136.1909,-126.9967,-21.1675,-122.8392,83.2407,-119.9648,207.8686,-153.2627,89.6091,-77.2554,300.5178,1.4256,-56.8427
-1476.5625,-372.4862,-181.1171,10.6444,64.0269,-64.8433,-123.4618,5.5421,-115.6179,-142.3905,-0.5738,-132.0589,45.3142,-62.1308,155.7802,-96.3883,147.8190,-125.6338,322.3985,-12.3079,-36.1242
-1468.7500,-276.4426,-190.6431,72.8351,18.3459,-1.8645,-208.2332,31.6726,-127.2413,-153.9706,-12.1838,-68.6988,-1.1191,-36.4969,108.4933,-33.7097,99.8242,-101.2032,241.0828,46.7561,-47.6000
-1460.9375,-226.5451,-211.3162,48.8812,-73.4786,9.9711,-307.1769,43.6520,-115.0194,-69.7032,-0.9553,-39.7218,-70.5985,11.9862,48.0645,-22.1778,75.6742,-51.9190,220.6267,95.6623,0.7715
-1453.1250,-110.5013,-129.8335,61.0790,-63.1392,21.9595,-295.9807,55.7803,-140.6434,-58.2913,-63.5797,-13.0070,-56.4407,-13.3848,23.7893,-10.5000,86.6809,-41.4887,161.3337,140.7000,-24.7088
-1445.3125,-28.8635,-83.7511,35.8764,-88.1949,-3.4513,-286.2001,103.5054,-130.6612,-84.2827,-89.5930,5.3338,-47.9516,-2.1579,36.1155,0.7721,25.3000,-30.4602,136.6483,151.3213,-50.5771
-1437.5000,22.1758,-31.2659,-20.9264,-107.8490,-23.4610,-307.0416,120.6238,-77.2755,-67.8723,-73.1982,3.5475,-37.2044,14.4638,52.8429,53.4353,-31.6681,-86.0334,152.3670,131.3414,-71.0362
-1429.6875,71.8017,88.8108,-40.1400,-93.9046,-42.8763,-289.3038,102.3439,-60.2774,-50.8513,-56.1901,-17.6246,-19.8622,-42.3184,-1.8280,34.6946,22.9774,-107.0077,201.6937,38.9645,-163.8852
-1421.8750,48.4185,135.8828,-29.3629,-47.9528,-68.2957,-243.5768,76.0632,-50.2725,33.1783,27.8215,-37.0019,1.0226,-68.1105,-27.4886,-29.0481,-3.3738,-130.9785,177.0331,-56.4194,-153.7297
-1414.0625,32.6814,191.6048,-10.9356,6.6649,-51.0675,-226.2085,-16.5706,-69.6127,-60.1393,7.4889,-48.1353,57.7513,-88.2564,27.5046,-85.1486,-22.0737,-112.3020,162.0289,-143.1663,-99.9176
-1406.2500,100.9814,190.3639,-17.4629,39.3403,-57.7926,-270.8030,-97.1584,-113.8906,-104.4043,1.2195,-20.1357,39.3034,-58.3566,-14.4575,-92.2073,8.2924,-79.5715,54.0910,-75.8693,-33.0457
-1398.4375,53.2218,72.0591,-33.0369,-45.0268,-36.5631,-360.4555,-1.7964,-93.2054,-83.7239,-15.0941,-18.7477,-41.8309,-37.5028,-66.4713,-71.3161,29.6167,-22.8987,6.1116,16.3750,-12.2209
-1390.6250,39.6989,-11.0061,-8.3615,-94.1437,-12.0828,-410.8693,58.8231,-106.2567,-59.7896,-28.1587,-2.6939,-76.5725,-13.3986,-41.2294,-47.1745,-19.8083,-0.9722,-42.6096,71.8669,-62.1350
-1382.8125,41.9642,-8.2767,30.1046,-127.4582,-47.7988,-410.4987,24.2487,-68.5029,-59.0443,-27.4249,-5.2504,-85.8080,-49.4909,-39.1834,-83.2218,-55.4490,0.7563,-76.5208,3.1620,-61.2463
-1375.0000,30.0387,-54.7509,-19.6240,-104.9711,-97.7081,-387.3396,-62.5203,-44.9479,-109.4846,-40.8850,-28.0475,-97.9951,-62.7800,-51.3499,-133.4663,5.7098,-11.7146,-52.6307,-9.7479,-74.5628
-1367.1875,46.8084,-143.5241,-3.6495,-158.7733,-44.9130,-372.4937,-46.5903,-29.6855,-57.2239,-25.6292,-2.3998,-150.5721,-47.3754,-71.8237,-81.0212,-15.4149,-30.4866,-72.0340,6.0280,-59.1744
-1359.3750,-94.3746,-213.2413,-43.6234,-158.5165,-85.0689,-302.6077,-12.6245,40.6410,50.0830,44.6837,-57.9311,-145.6909,-50.9205,-37.2489,-47.5301,-18.4786,-67.2077,-1.3936,-31.1542,-25.7283
-1351.5625,-125.5073,-138.9110,-78.5501,-86.2081,-119.1799,-265.6889,-48.6113,4.0201,13.4480,45.0538,-80.1911,-104.9485,-13.4113,-35.6263,27.0150,19.5107,-63.8746,-33.7023,-133.2944,11.7832
-1343.7500,-166.3481,-179.2774,-15.1800,-22.5878,-92.9964,-277.4790,-94.3014,-43.2940,39.1211,-3.2687,-60.8896,-100.6581,12.3943,-43.6991,52.8599,-27.2012,34.7582,-38.7038,-175.1506,74.6061
-1335.9375,-250.3885,-297.8432,4.9854,33.8462,-74.0121,-332.4752,-38.2003,-97.8025,94.5971,-56.7776,-62.9112,-120.5231,31.9952,-60.9733,108.4995,-7.1007,91.1815,18.0959,-119.2169,130.2391
-1328.1250,-210.3976,-257.3746,45.1877,73.3321,-32.9853,-366.4272,2.9493,-94.2440,98.1338,-53.2152,-13.4829,-134.4728,71.6491,-166.2000,75.1915,33.0733,60.6449,56.9534,-80.2399,133.9359
-1320.3125,-257.9171,-340.4174,30.8900,-9.6827,-11.4568,-492.8831,-12.3978,0.8295,119.1711,113.8546,-24.3282,-190.1633,56.8113,-180.9245,60.3873,54.7447,48.6032,220.3047,47.2354,155.1480
-1312.5000,-211.2439,-363.2797,77.7960,-138.5019,72.2808,-594.1499,35.4584,47.1106,166.4250,124.1284,28.2168,-241.9255,103.1784,-169.4551,143.7834,-7.3863,23.7600,196.8495,126.9127,165.5794
-1304.6875,-186.4411,-444.0139,136.8464,-255.1733,131.1682,-609.2742,130.4622,32.5482,334.8479,145.5625,81.7367,-330.7030,161.6989,-219.8400,165.3324,14.6517,-21.9293,116.5505,80.7402,224.1750
-1296.8750,-261.9938,-483.1165,91.5499,-261.1894,122.7103,-545.7547,159.1145,22.6476,325.9297,246.6547,38.9356,-328.5026,153.8744,-191.5862,193.5356,116.3440,-27.9681,181.9074,5.2111,288.4282
-1289.0625,-268.0644,-453.7352,84.7550,-126.7013,115.7519,-406.7300,78.2641,15.2694,207.5268,239.2656,36.3961,-235.7444,182.5499,-87.8378,222.2421,109.5358,1.4851,209.7727,-107.8328,281.1958
-1281.2500,-340.5043,-454.7186,80.6026,-23.5603,74.4379,-265.0506,38.0518,47.5589,167.7923,198.5478,14.1970,-174.1667,178.8823,-54.4425,218.6085,105.3908,69.5789,313.2867,-181.2353,313.6268
-1273.4375,-343.4076,-458.1643,77.9997,78.1326,108.6711,-158.8210,34.3846,44.4190,127.6216,122.4008,17.5845,-133.2661,174.7711,-56.5058,251.5264,102.8004,100.2162,310.3411,-150.0934,273.6244
-1265.6250,-273.6252,-422.9315,79.0951,113.5301,109.6008,-121.9026,109.4191,44.9954,163.1642,48.9735,53.7008,-125.5926,211.3657,-91.8673,289.1452,103.9251,99.5534,239.0846,-81.2613,237.3454
-1257.8125,-194.4007,-378.2676,86.6383,121.3774,116.9803,-115.5414,152.8969,15.0300,281.1771,56.0079,78.9565,-110.9094,218.4156,-83.7821,296.2263,37.5101,143.3358,212.2697,-37.9823,244.5354
-1250.0000,-95.0435,-278.4821,154.3276,114.3732,184.5119,-84.0342,147.5319,-26.7704,312.3594,123.2144,137.2927,-106.9335,250.6274,-124.5598,254.4682,-40.7500,136.2585,102.6022,-79.5575,202.9008
-1242.1875,-23.7586,-276.7731,224.9582,80.3198,217.9906,-88.5773,146.1114,-66.6030,272.4985,84.3957,188.7962,-130.5610,246.7927,-163.3864,213.6663,-80.0488,137.1238,67.8875,-80.1845,273.2366
-1234.3750,-128.3918,-345.9791,188.6850,45.3715,254.5636,-90.0111,108.7824,-30.3165,161.7574,46.6954,154.7627,-139.7025,246.0629,-127.1194,212.9642,29.7645,137.0787,138.2722,-9.7235,272.6901
-1226.5625,-171.7440,-388.9052,180.7073,1.7274,247.4342,-25.1396,101.7482,-1.7110,153.3357,76.3089,133.3174,-154.4947,238.6337,-96.5634,242.5656,132.8853,93.3372,130.9623,-18.9674,228.4607
-1218.7500,-250.3640,-432.1045,100.4847,27.8422,203.0584,40.4938,93.4609,63.6577,256.6777,214.6848,70.6777,-151.0647,230.9653,-66.2671,234.9263,198.7577,49.3393,87.4085,-98.4759,183.9891
-1210.9375,-216.4519,-362.7769,134.8133,26.5123,164.2360,37.6898,55.7243,97.5900,290.5762,212.6386,84.7098,-133.7714,228.8541,-67.4307,195.8431,87.1854,47.8891,15.4031,-136.4480,182.0833
-1203.1250,-126.3653,-307.2733,153.3390,11.3874,181.6206,54.0990,73.1806,115.7401,308.6853,155.8088,120.4396,-136.5967,208.9541,-123.4045,139.9698,-5.1779,32.6288,0.6028,-152.2300,236.3933
-1195.3125,-172.0420,-317.5465,30.1168,0.5146,96.2595,76.7693,59.8885,139.1554,221.0642,216.2426,48.9046,-123.8412,159.3131,-99.1340,163.3504,18.7072,56.6098,130.0433,-93.7669,259.9742
-1187.5000,-167.3452,-242.4488,-0.7129,40.0421,102.2971,153.8533,65.9963,143.9958,189.8573,259.0963,25.8543,-78.3409,128.0793,-92.4639,168.1331,-12.0072,-44.0161,64.8909,-53.9028,228.9779
-1179.6875,-234.4725,-238.1707,-70.3507,43.7721,68.5324,156.1469,142.2992,184.0607,376.8603,262.1729,-31.1851,-83.0995,95.0563,-125.6069,135.1331,-8.5067,-5.4504,-1.0714,-50.8353,232.1923
-1171.8750,-210.8155,-144.1115,-83.1880,66.3018,18.5667,142.2408,93.4062,170.9476,363.6939,286.0698,-62.4088,-45.3920,44.8453,-100.9697,85.9437,52.8056,-18.0917,-48.2536,-99.9704,219.2224
-1164.0625,-224.5736,-122.4784,-60.4317,122.4285,-32.7992,163.9364,5.1178,230.4571,312.1510,271.5838,-68.5224,-27.3434,30.2436,-114.7441,71.3661,111.7302,37.8607,-97.8515,-78.5069,204.8730
-1156.2500,-363.5901,-225.1149,-95.9249,90.3084,-67.4200,164.3877,-66.4242,231.7348,277.3737,308.8683,-110.2333,-37.4127,68.4007,-38.7774,144.5498,77.4048,110.5525,-95.7126,62.7009,206.2972
-1148.4375,-303.2805,-305.4289,42.9245,45.5378,34.3044,155.1991,-1.6163,223.3807,267.9654,300.5267,-15.3195,-101.0853,94.9206,-120.4701,173.0949,-78.5673,99.5909,-140.2334,157.2531,161.0984
-1140.6250,-303.1832,-339.9667,42.5788,-25.4332,33.8323,153.8184,34.9845,332.8418,304.3734,337.0061,23.8437,-159.9520,168.2541,-194.3795,172.4483,-78.7353,29.4224,-103.9681,192.6005,160.7197
-1132.8125,-301.5549,-267.9776,-29.2148,-24.8500,34.9149,192.0012,72.1336,481.8734,306.3528,339.0539,-11.0932,-131.4728,133.1451,-191.7507,137.3501,33.6516,-110.2017,-103.1584,121.4907,125.9122
-1125.0000,-270.0022,-236.0612,-33.0668,-63.3120,-5.0544,150.1571,32.2243,477.8843,339.2933,372.0709,-16.9793,-134.1108,128.9911,-158.1792,96.2096,65.9907,-113.8771,-177.3932,117.3247,122.0693
-1117.1875,-255.1656,-220.8691,-92.6167,-48.4674,9.2812,126.6319,10.6135,492.2159,316.5444,422.4063,-54.3664,-120.2688,69.1491,-143.3200,37.3836,117.6307,-134.2590,-162.3355,61.4515,136.5322
-1109.3750,-230.0529,-159.4129,-137.8652,-22.3276,-0.0792,154.4290,1.3045,520.8751,271.1208,414.0595,-63.3343,-106.1377,60.6187,-188.1819,64.8639,72.5863,-179.3514,-135.9789,50.8783,91.3120
-1101.5625,-263.4115,-122.4441,-174.5712,14.3597,-36.8866,189.8019,37.5463,520.1223,270.2641,377.2754,-83.0450,-70.4644,59.6490,-188.5043,63.9038,-36.9094,-178.9019,-64.0716,17.8654,127.6539
-1093.7500,-246.7413,-70.4512,-191.2306,101.0946,-90.6410,282.2475,-16.1573,392.4499,179.4781,286.5659,-87.8057,-3.6468,79.7405,-131.7875,121.0036,-164.3679,-56.4100,22.8676,-36.0908,74.0618
-1085.9375,-112.8438,-7.2360,-121.6451,164.0793,-95.1438,313.9568,-129.6077,352.0483,65.9615,209.1292,-59.8348,25.2764,2.0917,-134.8333,80.3659,-58.5638,-28.6697,-18.9628,-44.8023,-3.2583
-1078.1250,-111.1080,64.8052,-120.2068,200.9137,-129.7914,352.5270,-164.2123,427.5064,31.3067,211.5498,-89.5111,79.1580,-69.6854,-96.0457,-28.4054,-18.8934,-63.0850,-52.9632,-79.6729,-37.7101
-1070.3125,-63.6894,113.5205,-106.0675,179.4494,-151.7390,366.8108,-260.1190,442.6839,9.3661,189.6838,-77.4242,110.2036,-54.7503,-7.5688,-50.4655,-40.5166,-119.8038,-109.2710,-101.8534,-59.4418
-1062.5000,-0.2496,107.2664,-78.8853,102.0468,-88.6409,355.1702,-269.9778,432.9382,-38.5065,215.8927,-32.4816,76.2831,-28.7567,-18.0493,-97.4683,-14.0916,-161.4803,-150.5411,-73.9905,3.8887
-1054.6875,-58.3729,47.4437,-104.2515,7.0955,-78.0962,327.9950,-186.3914,443.6627,-64.9025,152.5731,-45.8040,39.1305,-18.2959,-7.0980,-123.0049,70.7863,-115.7135,-139.3910,6.3170,14.6859
-1046.8750,-7.3137,-5.2129,-13.4210,-45.6626,13.6445,236.0311,-130.6030,351.6028,-9.0688,61.4741,12.6742,-22.9128,0.3814,-60.9660,-105.3300,52.8736,-28.7466,-227.0642,58.8302,-3.2933
-1039.0625,-56.2717,-53.9069,6.4109,-25.4273,-3.6103,218.0837,-110.8193,334.5627,10.7797,7.3885,1.3797,-17.8494,-16.9240,-40.8410,-121.6387,35.9670,26.2133,-136.7532,7.3459,16.7438
-1031.2500,-65.2540,7.3661,0.2442,72.8053,-9.8682,284.1613,-228.0363,291.5504,-106.3529,74.3240,-20.8557,52.1886,-23.2157,26.2730,-92.9308,67.0585,19.1629,-74.4544,-106.1394,-26.1991
-1023.4375,-4.0180,69.8594,-8.6826,99.2888,-18.8753,311.5181,-274.0034,282.8117,-78.2165,139.5344,-12.8593,57.7885,-32.2435,-19.3740,-101.9599,58.4020,-25.6441,-82.9149,-115.3751,-34.8757
-1015.6250,-19.7423,89.3725,-100.5548,83.8220,-38.8283,290.9462,-255.9176,227.1384,-24.0079,119.8033,-46.0855,64.4201,-15.2041,-1.9946,-83.9188,1.8042,-41.4048,-98.3431,-95.5620,19.5128
-1007.8125,50.4670,89.8030,-64.4791,84.2989,-38.8224,327.3510,-219.8736,190.4314,-96.8297,10.0355,-11.4747,96.4846,-15.2040,72.3203,-47.9180,-106.8455,-41.2142,-97.8271,-95.7908,19.8715
-1000.0000,-12.1002,-43.5443,-92.1579,22.0240,-66.5639,336.0343,-173.5815,162.9999,-51.3846,19.5441,-21.9563,51.5963,31.0583,118.8756,-1.6557,-62.2499,-68.7824,-55.0699,-54.7679,-7.5064
-992.1875,22.3587,-44.8667,-55.7885,-14.2002,-66.2539,408.7913,-137.2384,126.6421,-87.8696,-16.8729,0.0183,25.5111,31.3896,82.4587,-1.3252,85.4054,-139.3104,-91.2881,-56.7016,-43.8221
-984.3750,53.3436,-13.6646,-61.8753,-53.8744,-35.3971,403.1180,-142.3488,120.8500,-129.7856,-22.7237,13.7165,-4.8511,25.2853,2.5805,-81.4272,153.6190,-108.2911,-93.9747,-26.0918,-12.5688
-976.5625,-47.0314,27.1652,-92.3112,-47.8956,-29.8859,408.1183,-136.8165,126.7228,-160.0367,-53.9168,-38.4638,38.6778,-6.1548,45.3365,-111.8696,122.4865,-33.6212,-19.0343,-55.8239,-6.6509
-968.7500,58.4702,97.8665,-15.8525,22.9762,10.5231,373.0438,-171.3784,19.5232,-194.3601,-50.1933,17.5048,78.6446,33.3166,84.9820,-109.4010,16.2475,1.9429,-124.2086,-126.6465,-76.8176
-960.9375,80.4563,155.0403,43.1051,80.3413,-4.5654,321.4953,-185.4375,-68.1523,-172.1708,-27.9530,20.1005,94.2429,-17.6956,34.1173,-124.4206,-35.4900,24.0019,-101.9046,-139.9628,-54.4722
-953.1250,120.7267,125.4900,48.3692,51.0033,37.6482,289.2730,-144.1940,-62.5082,-166.6613,-59.4002,44.8885,65.0319,-12.3881,2.5383,-45.1169,-139.9303,-5.6517,-130.3267,-99.9872,-48.8115
-945.3125,200.4268,99.3648,57.0767,-80.8853,46.3087,260.5294,-135.5027,-53.3959,-84.6831,-87.3788,87.3743,6.1455,33.3839,11.3975,0.6509,-166.9211,-32.8651,-192.3148,-56.5704,-39.6794
-937.5000,132.5105,32.6116,-13.8102,-146.3743,12.3709,263.2118,-96.4168,24.1272,-44.2893,-46.9463,49.3401,-30.6467,36.5712,14.6417,-33.1663,19.4841,-99.6766,-117.9226,-17.7469,-36.1334
-929.6875,66.6087,106.8575,-44.6464,-107.8222,18.4873,268.9692,-16.2675,-6.2860,-74.8117,-3.4422,18.2499,-14.6496,41.8304,-53.0879,-26.9118,61.9381,-130.4373,-148.4977,-13.8602,-66.5247
-921.8750,104.1223,144.5149,-82.0351,-103.8212,17.0590,267.2067,56.3422,-81.2312,-1.8579,-114.4740,17.1658,-13.5955,41.5586,-89.3825,8.8112,-12.1547,-57.7540,-216.6359,-12.5205,6.5433
-914.0625,134.0686,139.5975,-86.9739,-39.3763,-24.9118,261.9228,14.4071,-121.7026,-6.4407,-192.0473,4.9183,29.6867,-0.2500,-22.2397,-33.0025,-53.7847,43.3685,-221.3463,18.2748,2.0727
-906.2500,182.4941,153.1482,-35.4209,10.5587,-83.3793,240.1673,-44.0231,-178.6507,-27.5028,-176.1050,17.4943,61.1944,-21.5454,30.3902,-17.3068,-74.9142,56.9878,-207.5717,66.5832,-18.8794
-898.4375,114.5569,120.3218,-31.2174,13.1382,-79.1889,244.0834,-2.7972,-138.9367,14.1063,-99.5005,-20.3258,65.8117,-91.1693,34.6541,-86.9395,-33.4040,24.2546,-134.1801,103.5446,-51.1665
-890.6250,76.0628,116.9207,-32.5616,45.1567,-43.5465,316.4655,-41.1170,-102.7627,-60.8077,-63.4284,-27.6470,82.0282,-92.3275,33.3502,-125.1063,2.5553,-14.0327,-103.3657,64.9575,-88.9834
-882.8125,85.5975,91.5531,-24.8640,55.2262,1.1375,286.9266,-70.3927,-57.5241,-15.6634,-18.2880,-4.5662,72.4451,-47.4229,41.0913,-117.2100,-26.4355,-110.2733,-127.5059,-30.5808,-43.7408
-875.0000,22.5730,28.6234,-54.7123,-7.2496,-28.7245,256.8711,-63.2193,-123.8129,-8.0601,-10.6869,-8.7192,29.7843,33.9413,48.2663,-35.8537,-55.9876,-33.0702,-51.2188,-59.6729,-36.0385
-867.1875,158.9793,59.1184,89.8904,-11.2841,115.8646,217.2922,-28.5879,-234.6438,-83.9889,-160.6245,94.5041,-5.1783,30.7738,-65.1273,-38.0324,-132.0847,103.5854,-90.5069,-28.3025,-74.8720
-859.3750,181.2688,46.4906,151.3893,-58.4252,140.3578,167.6351,68.9507,-246.5606,-95.9935,-208.6560,132.8282,-46.5202,18.5274,-150.6367,-87.2856,-144.2897,162.1347,-31.9217,63.9789,-86.8005
-851.5625,180.9938,116.2851,77.3405,-23.1244,103.3071,167.4559,31.9489,-210.0114,-95.5258,-208.2295,94.4236,6.3388,18.7462,-77.7095,-50.0693,-70.0546,56.1300,-31.9038,28.7128,-86.2722
-843.7500,90.5960,202.9552,-16.8152,28.0782,9.1574,183.2108,-25.1482,-120.5440,-79.1489,-81.8967,-4.8952,82.6350,-38.1173,12.1109,-33.9421,20.0809,-68.9796,-16.0004,-25.6552,-69.8347
-835.9375,-55.7636,196.6582,-134.9165,23.3322,-73.9416,138.0493,2.8016,-55.0131,-87.7171,-16.5045,-84.7447,108.4766,-9.9213,76.9664,-5.7507,11.2739,-108.0443,-22.0696,4.0284,-4.3388
-828.1250,31.7579,109.2448,-81.1247,-29.5160,-19.1476,81.8178,94.6566,-109.5573,4.6390,-72.1992,-24.0440,21.8063,8.1844,-16.2965,86.3512,-44.6299,-90.2171,-144.2573,56.6182,14.0690
-820.3125,106.9700,-26.4865,-41.6381,-198.6756,-52.6543,-26.6900,96.2151,-143.3908,43.7172,-68.1794,27.1206,-106.7364,47.0054,-49.8718,125.1693,68.1595,-50.6925,-138.7729,60.9198,90.1903
-812.5000,185.1672,50.7590,37.8417,-190.8447,-9.1562,-19.1722,29.7871,-172.2082,-57.1810,-60.1437,59.2539,-55.1543,17.8396,30.5386,59.0018,38.9325,-43.1721,-202.3142,33.2388,98.3225
-804.6875,157.4880,58.1276,47.4640,-147.8666,-0.5114,-46.4794,2.5222,-161.8605,-47.9140,-86.9431,49.6611,-13.1259,27.8326,113.0960,69.0019,11.8498,-34.5062,-229.7171,5.7174,71.6147
-796.8750,47.5861,19.2807,6.8827,-116.0841,-4.0623,-12.9582,73.0664,-127.7023,22.1676,-126.9362,16.5920,-25.2709,24.6379,35.4387,28.8232,45.5688,-4.0451,-127.3432,36.9981,68.7124
-789.0625,82.2680,54.0101,46.9041,-81.7098,72.9896,-9.8139,39.2187,-124.9429,25.8701,-124.3248,57.9205,-35.5079,65.0577,-35.6383,69.2524,11.8954,-39.9823,-128.3895,1.8912,-1.5786
-781.2500,19.9374,26.7199,19.9243,-73.3436,9.0483,36.3532,12.3756,-78.1749,-37.4068,-114.7052,23.5273,-10.8683,38.4921,11.2653,42.6937,-51.7783,39.0748,-15.4565,9.7966,-27.8663
-773.4375,35.5882,77.4079,2.9409,49.0118,-7.8925,93.5482,-41.4575,-20.3898,-200.6660,-168.0728,-6.9210,92.1634,-52.0579,104.1589,-84.8479,-31.4592,55.1202,36.4573,25.7119,-81.1536
-765.6250,141.7684,113.6225,41.5049,85.9081,-6.2781,59.3217,-38.7293,-54.0370,-198.3605,-273.8846,35.2633,90.6895,-49.0416,69.5976,-81.8215,-28.6000,91.7091,-68.1004,26.1851,-114.8822
-757.8125,138.4826,74.3612,73.6210,12.3496,25.8926,17.6704,29.5499,-58.1278,-128.4975,-278.1443,60.2607,36.5588,-16.4583,28.5823,-12.2303,-33.1965,52.8537,-36.1324,-46.7831,-82.0556
-750.0000,70.1831,42.0843,3.7413,-19.2115,29.0677,-15.9574,-3.1636,-128.2103,-50.6172,-201.3961,19.3571,-10.5635,23.1326,-5.4500,64.3664,117.1958,21.0062,-33.1826,-78.7437,-78.2218
-742.1875,91.5662,63.4918,-11.4419,2.9282,50.9474,-29.8547,54.8344,-142.5850,8.9764,-105.9481,18.6599,-15.8122,9.4345,-57.7991,13.6762,102.2807,7.8627,-47.5475,-92.9932,-55.6893
-734.3750,76.9320,83.8806,-25.6247,24.0648,0.8314,-7.7256,40.8480,-118.9449,-78.4133,-119.5008,-8.4521,46.1890,-41.2528,38.8353,0.0067,-21.6384,63.7156,9.0618,-1.2315,-69.1584
-726.5625,182.5757,118.5387,84.4831,24.4932,1.0143,-7.2726,5.1792,-117.9884,-151.4847,-191.7488,59.7752,52.2439,-40.6313,38.7634,0.6518,-95.2597,98.8674,-97.0448,33.8473,-68.3235
-718.7500,196.1575,62.1379,98.5389,-102.1338,-21.8547,-102.8428,19.4697,-140.0746,-62.5926,-141.0391,85.5818,-42.7776,10.9559,-21.3693,15.2570,-6.9419,77.9674,-118.2217,118.8815,-53.5396
-710.9375,192.4877,58.4776,60.3485,-105.0135,-22.9734,-140.6422,17.5185,-140.4055,-62.9388,-67.5742,64.8600,-39.2054,9.3028,14.2357,13.6166,65.1172,39.8185,-121.6736,150.6702,-90.9974
-703.1250,182.5028,48.5097,87.8559,-43.1947,3.6061,-112.7235,82.2695,-75.0301,-34.5799,-39.4067,77.8806,-14.8941,0.3609,4.5381,-31.3101,-54.1312,-4.6316,-131.4449,106.1688,-99.7496
-695.3125,77.7634,14.7800,52.6143,-6.1316,-30.5589,-73.5377,47.2763,-72.4071,-31.9626,-110.9915,53.5614,-16.9686,39.6831,-30.9164,7.0338,-89.1378,32.1667,-23.9899,72.9228,-97.2511
-687.5000,156.7022,93.7329,102.0672,73.6268,17.9749,-98.6301,22.9945,-96.0741,-92.6246,-97.8700,84.3721,-11.5226,15.7164,-129.6842,-16.9048,-40.4477,41.6609,-50.8497,11.3839,-158.0512
-679.6875,130.2693,137.3224,111.1644,48.0303,-9.8426,-89.0515,69.3701,-123.0858,-46.6201,-52.0893,65.1997,3.4188,-11.5858,-120.8112,-44.1761,-104.1078,50.8011,-7.0781,-15.4945,-148.2044
-671.8750,147.9709,155.0437,92.4118,30.5775,8.4985,-70.3002,87.9171,-140.9405,-63.4477,-33.1592,50.4531,20.0850,-65.7295,-102.7990,-61.2862,-159.6352,33.0932,45.8238,38.7899,-129.2051
-664.0625,143.5550,115.6526,88.5535,27.0199,4.7420,-73.6292,84.3795,-143.8950,-30.3639,-72.3285,76.8985,-12.2196,4.0367,-143.8919,-28.4798,-163.2786,29.2890,77.6152,34.9851,-132.3062
-656.2500,93.3332,100.4463,36.9055,48.6614,-9.8075,-87.7345,70.0504,-157.6488,-7.0796,-123.3048,48.4855,-3.8805,27.0170,-121.7965,31.5398,-177.7296,85.6849,132.5926,-15.6120,-146.2150
-648.4375,132.3934,139.5243,45.5546,123.6011,35.9521,-78.5181,42.0362,-222.0963,-34.4812,-187.9860,60.8464,27.5308,36.3094,-113.4141,40.8708,-95.8899,55.3803,101.8555,-9.9064,-210.8257
-640.6250,79.8886,87.0400,26.6537,106.9844,-19.8339,-22.8318,60.4824,-166.0967,-89.4277,-206.2196,50.8186,37.0364,55.0665,-59.5914,22.6620,-77.6029,73.5246,119.5533,78.2626,-191.9857
-632.8125,70.0238,42.2023,54.4001,63.0088,45.0354,41.5250,124.5941,-101.4417,-207.7146,-251.8087,67.7026,64.6792,46.4813,41.8689,51.1142,-196.6756,99.3187,144.8834,104.0922,-200.4985
-625.0000,42.4963,-21.2950,62.4908,-34.6176,89.2532,50.2525,170.0647,-92.4307,-124.6449,-169.0490,64.6617,12.4396,55.2506,49.6799,59.9243,-114.4072,37.4638,47.5510,112.2871,-191.6635
-617.1875,-3.1441,-65.8944,12.4796,-113.3411,77.3735,38.8961,194.4482,-30.5147,10.3271,-70.3830,34.3511,-59.8834,42.9240,-36.6086,10.6421,56.7481,-42.4940,37.0986,103.3897,-129.9349
-609.3750,37.8962,10.1980,54.1595,-71.3720,82.1854,7.2520,89.5415,-23.8894,-93.9827,-28.0112,41.5563,-13.9904,11.3058,4.7966,-56.9244,98.6023,-70.7535,8.3277,75.2047,-87.5088
-601.5625,105.9284,78.2789,47.8380,-73.4144,2.0002,1.6115,9.6485,6.7324,-99.2830,-34.6455,51.1608,13.3351,5.7029,34.1880,-63.4682,18.4511,-38.0076,5.5346,73.0355,16.9141
-593.7500,62.9654,70.3506,-33.4716,-45.4660,-79.1726,-42.0200,2.7749,37.3487,4.4279,-41.2959,-2.7249,38.8122,-0.8831,100.5637,-32.9954,11.2731,-10.2580,-2.2856,100.8765,10.3353
-585.9375,78.7990,-19.7835,22.0257,-28.7236,-60.5341,-59.8404,58.7162,-17.2459,23.9371,-59.1600,16.7095,21.0906,-18.6577,117.7349,-13.7149,-7.1250,7.2984,-56.3146,117.5235,-7.4389
-578.1250,-30.3765,12.0825,-19.4757,40.0218,-64.8939,-63.6444,54.6629,-20.8496,-53.5613,-63.0395,-37.2361,69.9651,-22.4308,149.9076,-17.4251,62.4783,3.8597,10.6459,-25.8255,25.7814
-570.3125,-91.6170,91.8928,-82.0283,119.7177,-90.3042,-51.4810,-44.4332,-82.5033,-78.1041,-87.9677,-76.8421,114.6305,26.7491,161.0298,68.8215,110.0226,-21.6302,55.5514,-121.2116,0.9436
-562.5000,-21.1789,162.3949,-81.8889,121.1074,-90.0142,-88.6005,-44.8094,-81.4493,-40.9255,-51.1867,-57.8437,102.5522,26.6324,86.8486,105.7792,36.2469,-20.4239,-14.8510,-118.8840,37.7943
-554.6875,-13.0584,135.5891,-73.0538,-10.8089,-81.0163,-151.0076,1.5341,-107.6959,5.9698,-4.7010,-48.8771,66.8107,36.2224,132.3601,78.4437,-28.8257,23.4750,-6.5684,-40.8467,47.3369
-546.8750,77.6423,85.3699,22.3703,-94.1336,14.5825,-128.8022,24.4942,-121.3389,-7.5254,-55.6141,12.8059,14.0823,-14.5842,80.4657,-9.2841,-6.2988,8.9788,13.3046,50.8126,33.4757
-539.0625,-36.7124,-63.9056,-22.2555,-137.5099,-29.8682,-99.6392,54.4207,54.9668,22.9342,48.4115,-34.2509,-31.6868,-58.4381,72.5189,-53.0514,97.1580,1.4407,76.1104,184.4431,26.5562
-531.2500,-111.2175,-173.3281,-61.0297,-140.0363,-31.4709,-63.6182,53.2075,90.1183,59.2573,83.2769,-68.9716,-67.8260,-59.4423,70.4177,20.0393,205.4535,33.7585,36.7475,215.9350,-11.5170
-523.4375,-90.4871,-116.5078,-39.5557,-84.3122,27.1713,-78.3391,75.2549,39.5159,117.8402,69.3902,-51.7641,-58.5483,-37.1924,17.5626,42.3841,152.9960,20.3328,-48.3759,96.6852,10.6565
-515.6250,-81.4147,-39.3416,-68.7270,-5.2460,-39.8313,-106.7078,-28.3341,10.2540,89.7813,76.8460,-81.7639,17.3153,-65.5863,98.0567,-23.9105,49.8801,64.2553,29.8327,-0.2036,55.1788
-507.8125,52.6866,60.8650,-0.8576,60.8640,-44.7847,-75.0234,-68.8539,6.0416,-25.2181,35.3533,-21.6079,49.1046,-69.9266,55.6017,-64.1434,44.7958,59.2313,-10.9103,-40.0262,50.7473
-500.0000,64.3240,2.6270,10.5566,3.5249,-32.1853,-97.7828,-19.8047,-53.6257,61.3376,10.4076,6.5983,-15.2340,-20.7176,-6.3098,21.1811,-16.7415,107.7534,-32.1119,-60.2904,99.8576
-492.1875,119.5071,56.9393,67.5215,23.7315,-12.0309,-150.9884,-35.1882,-143.7537,45.4543,-4.9928,41.8731,6.8796,0.0387,13.3245,42.0611,-143.7414,127.8274,-48.7772,-110.9832,120.5079
-484.3750,171.0412,109.5999,88.8384,6.2854,-28.5201,-202.8394,-51.1991,-158.5337,30.9251,15.9452,62.4179,-1.9067,21.1434,-3.6936,64.2937,-122.4181,75.2585,-66.1040,-128.3070,68.5030
-476.5625,86.7258,95.4091,36.3071,27.9790,-42.8609,-253.5371,-29.0494,-136.1702,53.5456,38.0253,2.4808,-0.1684,-29.5963,-18.5604,12.6862,8.0478,60.8392,-45.2883,-106.4731,90.6424
-468.7500,98.9895,72.8104,14.3666,77.2670,-28.6028,-238.6276,-14.2845,-194.2129,69.7739,16.7015,-13.4233,24.2906,-50.7302,32.1713,-8.3112,23.1144,75.0204,-138.8606,-92.0310,69.3764
-460.9375,121.5828,59.5617,37.7677,100.9033,-113.9910,-250.3609,-62.1535,-242.9075,94.3489,77.7244,-11.9646,30.5927,-62.5119,55.2523,-19.9480,-26.4755,133.5559,-116.0853,-68.2231,93.4438
-453.1250,127.3768,101.5198,9.3706,107.7368,-105.1696,-204.8934,-53.8082,-197.4099,-6.8733,49.9383,-32.6354,65.7089,-127.0933,63.5274,-47.3840,-18.8773,140.2948,29.8833,-27.2007,65.7008
-445.3125,114.1586,53.4792,35.9653,60.5659,-80.3484,-105.4202,-27.4468,-96.9187,20.9163,3.1447,-2.2990,30.9980,-100.6768,15.7988,-20.8177,-29.2857,93.0389,52.8549,31.8306,18.9526
-437.5000,-15.5204,-76.0013,11.1038,-33.0469,6.0205,-18.3900,59.4711,-10.8860,-2.7463,-21.1086,-14.9225,-3.8178,-87.7147,27.6301,-44.7013,-54.1603,35.3433,169.3702,114.4256,31.7393
-429.6875,-52.1584,-113.4269,-23.7046,-33.6075,44.4387,57.6899,25.4546,29.1893,-73.3558,18.6761,-8.4876,-17.0411,-11.7058,29.5112,-4.5298,-15.0072,-72.2939,132.9277,78.0862,-39.4340
-421.8750,-48.0604,-74.1027,18.2310,-64.4173,49.6049,26.5137,67.2064,71.0094,6.7861,97.2049,-7.2721,-43.4319,-42.9441,-39.8549,1.4031,26.8917,-171.1818,101.2228,13.5104,-33.8724
-414.0625,-109.2164,-64.0260,-82.0756,-53.4811,24.5292,38.0792,78.7285,82.5726,18.6854,108.4761,-60.8407,-1.8075,-31.4314,44.5225,50.0837,-36.4653,-196.3176,111.2512,24.6932,-22.5702
-406.2500,-97.5297,-16.1034,-106.5317,-4.6981,-36.6922,15.4862,19.1172,95.9748,-4.5619,84.5899,-73.1498,23.0573,-18.0717,56.7517,99.6159,-23.9858,-147.5934,53.1291,2.7352,-9.4193
-398.4375,-75.3495,5.3235,-84.4828,-17.4104,-52.4044,-73.6149,78.0158,44.8595,17.6872,70.1856,-68.0657,-0.8274,-33.2064,3.4765,85.6581,33.9778,-89.3549,4.5037,-9.7131,49.2193
-390.6250,-34.0244,11.9027,-77.2773,-9.9774,-44.9600,-174.5771,86.0836,-21.1183,63.0879,3.9186,-40.9002,-21.5989,11.8114,-26.6555,93.8577,41.0843,-47.9544,-58.9765,33.9996,56.9969
-382.8125,73.6841,-21.1161,-39.6809,-41.1457,-7.1130,-246.1356,197.5662,-54.7010,64.8900,-30.9497,24.8776,-47.3227,50.2238,-25.3786,132.4563,-67.4199,-44.1572,-127.0431,72.1191,95.1596
-375.0000,-51.5189,-76.0315,-96.9889,-96.2143,-63.1589,-266.5906,178.1605,-75.1884,118.7938,58.2811,-48.2111,-61.5657,29.7388,26.0081,186.1584,-15.8418,-64.2694,-41.0132,88.3463,111.4118
-367.1875,-74.3884,-27.6057,-115.9526,-11.9415,-82.8454,-137.7018,86.1265,-21.3319,64.0553,76.8518,-80.6808,-1.4946,-25.3954,43.7454,94.2198,75.0787,-120.0271,77.3663,32.9338,56.0095
-359.3750,-151.0637,-34.9852,-121.7189,-18.4705,-51.3309,4.3793,8.2980,121.7058,-13.4841,72.6116,-107.0652,42.9301,-66.3298,111.6867,-20.5105,70.1950,-125.5739,139.9487,61.7303,14.7982
-351.5625,-132.8869,-120.5008,-63.6328,-103.1468,45.0316,-9.6968,104.3296,144.5835,-64.1699,21.2116,-56.2634,5.7927,-43.4213,133.4715,2.6103,-18.8498,-106.2626,89.3779,153.3829,0.4248
-343.7500,-150.2692,-206.5598,-41.1062,-154.3667,103.8381,-23.3232,164.8212,93.9008,33.5859,43.2477,-24.8618,-75.1214,16.9257,44.7117,26.1703,3.5519,-87.4898,72.2727,172.5024,-50.5111
-335.9375,-251.3050,-204.2641,-35.2212,-150.2323,72.9987,-17.6024,134.6749,63.5599,113.6855,86.6219,-59.8334,-84.7996,22.6171,13.3017,69.0754,8.2907,-82.3611,146.5167,106.9867,-81.1148
-328.1250,-217.9566,-133.5682,40.0629,-78.6942,112.5621,-14.4899,137.9546,103.6133,43.1892,89.3873,-22.1044,-66.8555,25.7054,-57.7056,72.3780,-26.5883,-81.8238,41.1633,72.8844,-115.3337
-320.3125,-161.5163,-147.7648,58.4500,-127.0494,94.2282,-68.2904,157.3485,122.7566,63.7926,108.2474,7.9663,-102.6225,45.8900,-76.6102,91.7814,-7.3887,-60.1783,-43.0948,94.8914,-22.4680
-312.5000,-118.6235,-139.5038,-11.7063,-117.9550,61.3544,-99.6584,162.2097,127.3358,104.8414,112.5480,-12.4334,-94.9163,12.5245,-72.0698,96.6392,-40.7568,-121.0743,-35.9068,104.3575,91.8361
-304.6875,-191.5882,-177.0882,-52.7095,-190.7173,19.6332,-141.8899,120.2386,122.0554,248.0360,217.9858,-47.0612,-143.2356,45.3051,-78.3760,165.6400,27.0236,-193.8153,-73.5642,137.9832,160.2828
-296.8750,-303.4117,-323.5151,-169.5606,-265.3299,14.0679,-146.9859,225.4266,115.9106,315.3834,248.5643,-99.3431,-193.6053,76.2310,-48.5254,196.7906,92.9558,-198.4092,-9.0675,203.7672,190.8638
-289.0625,-268.1092,-323.7965,-201.2714,-228.7971,-18.3501,-140.9440,194.7841,122.9122,285.8938,180.2903,-116.5080,-156.2000,45.3050,29.4813,203.1014,62.0350,-126.8531,25.5866,204.7197,86.5820
-281.2500,-166.9683,-257.2308,-128.1376,-126.4178,-54.9123,-105.0562,122.0079,122.7570,176.2487,143.8530,-93.1628,-90.0956,-27.7725,66.3486,57.2689,24.9503,10.5540,22.0996,131.5339,13.1422
-273.4375,-125.5294,-144.3585,-44.7028,22.2640,-7.1744,-56.8784,23.5381,96.8931,3.8960,80.7046,-77.2857,1.0106,-90.5534,75.5212,-42.2667,35.1581,89.2682,29.9203,35.6544,-13.0035
-265.6250,-100.9485,-84.3318,55.8727,48.0926,20.7114,-65.5597,-58.7737,52.1723,32.6911,35.7044,-22.2222,12.3972,-25.1941,65.8466,-50.6618,-11.4785,80.1371,-50.0957,-8.0676,-22.0037
-257.8125,-112.1273,-164.0487,80.6957,3.1775,45.8438,-76.9981,4.1708,40.7006,58.7325,-13.0487,3.9132,-41.1010,0.4040,17.4276,-61.8025,50.1313,70.2552,-25.8462,17.4697,3.2287
-250.0000,-121.7126,-174.1597,74.1153,-40.1394,75.5796,-82.8449,-1.2640,34.8270,-20.6232,-19.2057,28.6014,-75.7674,67.5936,-26.3866,-30.3399,79.3254,61.9721,-34.9890,115.6116,-39.9495
-242.1875,-48.9604,-136.9135,111.8828,-73.1064,113.6702,-118.3530,74.6728,36.2951,55.3714,18.9732,57.1239,-115.8782,33.1261,-135.8484,-28.5309,43.8553,30.0465,-103.7759,118.1167,-1.7866
-234.3750,-109.0592,-90.5172,48.8065,-60.9271,50.9157,-142.7300,48.7658,46.8979,103.5126,66.2925,12.1552,-94.8552,43.8057,-125.1533,19.4250,16.5218,6.2824,-22.4099,60.7849,45.5139
-226.5625,-104.3133,-15.2639,54.5820,15.1059,20.0119,-100.2730,18.7219,53.3386,73.5075,72.4557,-16.6568,-11.5402,-23.6724,-47.6058,-10.7731,-51.9716,12.3753,18.8162,-3.6957,51.6516
-218.7500,-204.6219,-45.0564,-11.6860,57.0931,-8.9402,-18.8850,27.6381,98.7145,82.4491,80.5601,-54.5633,16.4477,-15.2034,-40.1085,-39.0167,-153.5237,19.4298,164.9964,38.7755,22.7236
-210.9375,-217.5778,-21.4950,-56.5943,80.4345,-16.5376,9.8332,-16.0868,127.4251,74.7366,109.0051,-70.1709,20.3314,14.6120,-48.2621,-8.9184,-52.7349,-27.1548,187.5270,-7.3980,-58.8626
-203.1250,-192.3467,40.2730,-63.3092,107.9827,-23.9348,40.7345,14.3964,158.3276,106.2192,102.6479,-82.6714,17.7293,-28.3774,-129.2092,-14.6290,50.2521,-35.5403,178.2762,-85.3713,-102.2617
-195.3125,-193.1771,4.0102,-63.0752,108.4896,-23.3764,4.5778,-57.1612,85.1698,70.6407,29.2324,-73.7885,27.4588,8.5762,-55.1983,-13.3893,-23.8150,106.0173,177.9844,-49.4003,-101.7220
-187.5000,43.9221,30.7034,112.1057,134.9456,79.1353,-40.6433,8.2418,-70.0428,-46.9859,-163.2356,60.6947,32.0347,0.4780,-64.2356,-95.1981,-105.9460,202.5275,28.6540,-22.4687,-110.2377
-179.6875,84.3651,0.7445,153.6326,106.7465,120.9995,-71.5333,88.0081,-101.9185,-78.2574,-230.3607,83.0936,18.2868,-30.2726,-59.9176,-126.6523,-64.7373,244.3931,-1.3192,-15.1701,-68.4134
-171.8750,17.5038,40.4815,121.8618,112.2441,126.5680,-28.7406,57.4893,-96.1013,-71.8261,-224.7908,36.8577,70.4024,-61.3318,18.1036,-120.4121,-59.8369,179.9619,74.4240,-9.1644,-62.9009
-164.0625,-44.3748,50.2129,59.0796,121.7407,101.1313,19.0481,32.9752,-10.2855,-59.3980,-141.2199,-0.5374,99.9601,-49.3976,66.1379,-108.1794,-122.9346,119.5360,83.1897,0.8426,-88.3981
-156.2500,-134.5067,29.6987,1.0544,102.9926,43.4498,72.5738,14.2107,6.2703,-42.2281,-124.9144,-42.9412,85.0520,-32.7212,44.9262,-91.1979,-70.2779,170.8641,98.7084,17.6069,-72.1559
-148.4375,-105.8392,59.9877,34.8309,133.0412,77.5720,32.8769,48.2595,-70.3852,-7.2642,-90.8215,-16.7284,79.2700,0.7536,4.5135,-56.4193,-73.8295,96.0024,93.0366,-21.8265,-112.1179
-140.6250,-157.4775,43.9896,17.3078,117.7965,60.3929,52.8642,69.0120,-87.3531,49.3850,1.9617,-31.8657,35.4931,20.9177,-86.1862,1.0513,-54.6904,80.8494,42.0808,-1.5594,-92.3891
-132.8125,-142.2693,24.8600,-3.3587,64.4142,76.0647,31.6879,85.6167,-34.4846,29.8832,18.5878,-6.6670,4.8104,73.9197,-108.0319,54.3622,-113.7119,27.5496,22.9858,51.5564,-39.8245
-125.0000,-84.0698,12.7359,19.9722,53.0353,62.7321,-17.5075,74.2253,-10.6272,54.3827,-31.7870,32.7921,-10.0354,97.9157,-121.8754,78.6695,-273.7298,16.2552,45.9041,40.6730,-16.2718
-117.1875,-141.6728,96.8235,-76.4892,102.8659,4.6092,34.4806,53.0441,41.4181,-3.9295,20.0285,-56.3603,63.7324,3.1084,-70.5176,-16.8244,-185.5568,-3.8390,166.0271,-50.0077,-1.5357
-109.3750,-151.7787,157.4110,-119.4515,164.1946,-2.0090,64.9510,-25.6323,34.9504,-45.7430,50.3377,-101.2628,91.8854,-39.1996,-76.6520,-58.8208,27.0987,-13.4260,155.6622,-93.1863,-81.3015
-101.5625,-113.2402,161.6490,-42.7679,169.1685,2.0243,31.0547,15.3464,2.1325,-41.9070,53.2953,-61.3840,65.1043,-35.8653,-148.1277,-55.1768,-6.6004,26.6411,89.9601,-123.7124,-41.4223
-93.7500,-157.8527,83.7389,-13.2331,161.9960,30.9104,-12.0071,-27.8266,-41.8383,-121.2282,-26.8975,-54.4638,90.8109,-5.6914,-7.7475,-24.6951,-88.4412,125.5595,117.1186,-59.3890,-48.7004
-85.9375,-133.6748,37.6254,51.0936,151.6261,59.5900,15.7141,-35.1917,-50.0096,-92.7466,-146.2958,-16.6921,92.6584,22.2707,56.4408,-32.4158,-60.4829,115.2816,36.0938,-34.2566,-94.1797
-78.1250,-142.7056,-41.6872,43.2172,74.0592,89.0677,45.2191,31.2478,15.6041,11.5345,-153.9024,-14.7690,60.0415,15.0296,85.4343,-76.3342,-32.7245,72.8078,27.8827,-6.3152,-101.8706
-70.3125,-98.4933,-66.7436,53.5934,13.7506,99.7994,55.9598,42.9429,26.4627,-13.9409,-180.2614,4.4794,46.2111,26.0331,132.6770,-28.0145,-58.7179,47.5859,-68.0556,4.8680,-91.3212
-62.5000,5.8038,-66.6912,87.0672,14.5567,59.6299,52.7968,4.7347,61.4191,-16.3317,-109.5276,48.0353,8.6051,24.1263,55.0334,-30.5999,-25.6254,-21.5278,-67.8724,-64.8507,-20.6822
-54.6875,-102.2457,1.0229,-61.7963,83.0195,-51.8835,51.2679,-105.8162,96.0153,19.9195,72.8450,-66.2006,46.8291,-14.1335,53.0411,-31.5371,45.0990,-22.9876,34.9710,-135.9185,-22.4038
-46.8750,-64.3522,75.6851,17.2921,158.4253,-45.4439,94.6704,-171.4095,65.5563,-46.8711,42.1766,-46.5186,95.9832,-44.4530,59.0012,-24.5372,-22.2240,16.5037,3.7796,-200.0346,-53.1811
-39.0625,-84.7092,55.1086,-4.8731,174.5840,-68.2529,108.8068,-156.2585,43.8444,-31.9208,20.2545,-48.3070,93.9641,-30.0301,36.7198,-46.7939,-82.7881,67.7410,54.3520,-184.4079,-2.2115
-31.2500,-49.6630,90.9319,-5.6380,140.1418,-68.6607,108.3270,-155.7103,6.5259,-30.5836,19.7247,-38.0654,78.7109,-30.2148,-1.1574,-45.6576,-46.9435,34.3817,90.3382,-182.3742,34.1589
-23.4375,24.3508,130.7272,-0.4085,110.6928,-63.0581,77.8330,-112.1479,-24.7934,11.7538,25.1931,-15.6536,61.3669,-24.3937,-33.0286,-39.5188,-42.1000,4.0343,25.3432,-176.3251,39.5202
-15.6250,7.5968,44.7437,-54.9165,24.4897,-79.1923,23.5698,-91.3231,-40.8685,-3.6483,7.9125,-28.8738,25.1834,-4.3223,23.3512,-55.1254,13.9878,59.9438,44.5975,-85.0234,59.1254
-7.8125,101.8803,33.8016,10.6275,-20.6660,-14.2781,15.3352,-62.4471,-12.9018,-47.9817,-0.3159,25.4528,0.7106,-12.2068,14.7831,-27.6840,42.1250,-21.0887,-1.0898,-25.6717,13.7798
-4000.0000,-37.3284,-43.9244,-16.6021,-18.4035,-23.3410,45.4654,-36.8083,43.0271,-24.9629,39.5022,-15.6405,6.1330,0.9664,58.7818,-35.0056,53.4084,-64.1819,66.3856,-24.3001,6.8193
-3992.1875,-94.1525,4.2884,-75.7358,64.6122,-45.7007,97.3848,-59.5339,58.4866,-47.5781,17.8680,-67.0978,73.7634,-20.8592,112.0295,-20.5182,32.3683,-86.9198,116.5312,-115.7482,-15.1661
-3984.3750,-30.8018,33.6768,-6.7222,128.7753,-13.9091,130.4532,-66.1082,17.0835,-90.0524,-23.6305,-27.2393,85.7746,-25.5317,71.4246,-25.8792,-44.5189,-23.5086,4.8151,-158.0390,-57.0160
-3976.5625,28.0715,-13.4118,53.7933,117.4367,9.3843,81.0169,-43.1803,-32.8237,-139.0272,-73.6468,24.1409,57.3415,-1.7002,59.3134,-39.7415,-56.9108,69.4030,-40.4123,-134.8286,-33.3720
-3968.7500,74.3691,-38.0754,66.7087,92.4983,-13.9225,58.9770,-103.8558,-55.3376,-127.6204,-59.2833,39.8625,18.6444,11.5289,37.6126,10.7889,31.0942,43.7245,-64.2386,-91.2224,-93.3287
-3960.9375,64.5416,-117.8562,54.4747,11.4177,-26.3864,10.7840,-42.6957,-67.0115,7.6153,2.9179,44.8009,-54.6034,36.6024,-10.2309,71.1704,19.9502,-2.0973,-108.2211,4.2262,-68.4470
-3953.1250,8.0402,-138.3065,32.5382,-44.3539,-12.5528,62.8884,44.7628,-52.4026,21.1498,-19.5963,22.4703,-39.7680,14.9748,42.2255,48.8464,-37.9039,-23.6073,-22.9095,52.9683,-54.2721
-3945.3125,17.6162,-128.6748,41.6547,-35.0690,-3.6702,73.0411,16.2672,-79.7639,-7.2729,-84.0826,20.0865,-41.9587,-12.6027,15.7328,57.5760,8.2869,19.9387,-12.5530,61.7514,-45.0568
-3937.5000,8.1193,-68.1116,27.6694,25.1183,-17.8892,61.0951,1.6634,-56.2385,-57.8073,-60.6805,11.1705,-16.4416,-26.2810,-32.8523,-30.7951,-3.6285,114.3866,13.7012,15.4289,15.0523
-3929.6875,64.5478,23.3851,16.5726,151.2098,-29.2198,13.0478,-47.0470,-140.8134,-107.4475,-34.3882,4.1530,48.8075,-37.0661,-6.5322,-5.2729,-87.6489,134.7384,34.8510,-69.9937,-69.9394
-3921.8750,168.1026,126.0128,88.5732,183.4028,-30.4569,13.0964,-11.6623,-141.2988,-108.9959,-109.0125,69.5698,73.1667,-1.7571,-43.1137,-6.6482,-198.5653,131.2028,-1.9106,-108.3150,-107.8420
-3914.0625,142.9817,136.9656,24.8844,123.8950,16.6013,-12.5617,-1.9807,-130.4933,-99.2430,-98.3556,56.8370,41.4352,45.8475,-68.4033,39.2768,-113.1803,105.9817,-25.3862,-133.3371,-97.4541
-3906.2500,105.7370,134.8028,57.0467,86.2382,48.5107,-52.3827,-81.4500,-170.8607,-104.6441,-102.8699,74.7646,15.8179,115.3071,-70.8378,71.0583,-6.9537,101.6161,-62.0209,-101.5155,-65.2274
-3898.4375,34.3264,64.4751,18.0183,49.3866,45.2255,-17.4093,-48.1237,-136.4474,-71.2645,-68.6050,34.0266,8.7184,75.5721,-35.4674,31.6389,-7.9318,135.0493,-26.8719,-67.8995,-31.2041
-3890.6250,-13.1698,52.0738,4.8825,71.4393,-5.1670,7.4612,-61.9064,-149.1467,-10.9936,-118.4510,15.9934,34.2721,99.7373,25.8105,55.1175,-20.0082,86.3875,-38.8184,-46.3827,-44.2853
-3882.8125,43.9529,74.3074,-10.6518,93.1045,-20.9579,29.9295,-41.1010,-91.2616,9.8778,-96.7027,10.9954,43.9555,48.4999,11.6889,39.1955,2.5025,37.3319,-122.1747,-25.2715,-22.7775
-3875.0000,1.5999,66.0739,-57.6826,85.2731,-103.2490,20.8857,-86.7898,-26.8983,36.2560,4.5381,-38.2191,37.2536,1.7655,4.0578,28.7787,30.5096,98.7807,-94.0505,1.3362,4.2211
-3867.1875,85.0732,150.6641,29.0880,98.2431,-54.7384,-39.3730,-74.6821,-86.7590,11.4157,-19.4386,9.9850,28.8763,-22.1640,-92.7738,4.1653,-29.6853,111.0473,-149.1408,13.7498,17.0163
-3859.3750,69.7860,170.4839,9.0667,47.4135,-37.0235,-93.4442,-58.3792,-68.4491,27.7596,-2.2419,8.8811,13.3492,-4.8939,-110.4036,-15.2457,-48.6876,94.5307,-130.0469,32.3685,71.0070
-3851.5625,58.8190,158.6322,-3.6632,-0.1134,-14.0168,-106.2217,1.2220,-81.8586,14.4063,-14.7613,3.1728,10.7715,-17.3292,-85.7251,-65.3592,-24.3909,81.3264,-105.6521,90.2914,94.2920
-3843.7500,81.6316,111.5685,19.3587,-47.8779,8.7344,-118.2454,59.5744,-168.5349,36.7893,8.4441,14.3303,-25.1997,-30.0213,-97.3054,-41.7263,0.6614,67.8866,-81.5115,112.9597,81.3125
-3835.9375,-16.9236,48.1381,-46.0109,-42.0308,-20.9172,-109.6742,66.5195,-123.6294,43.7616,90.2269,-31.2414,-17.3257,-23.1176,-52.2921,-35.4903,-64.6975,74.0721,65.2124,83.2302,51.9212
-3828.1250,-46.7018,89.4896,-1.6192,33.5769,60.1848,-28.3599,74.2137,-115.9934,-22.5203,-12.2644,-4.0787,33.7036,22.5303,-42.5254,45.4978,-201.3273,43.0246,35.6755,52.2442,-13.7294
-3820.3125,-86.7391,-56.4023,29.4785,-7.0985,90.9815,-33.3500,104.5943,-85.6785,44.8965,-128.0694,34.0775,-54.2551,89.8669,-121.0568,76.1748,-60.2640,71.6780,30.8188,115.9394,-19.6867
-3812.5000,-87.3869,-56.8959,-44.0771,26.5845,90.1131,-32.0006,103.3134,-48.0288,44.6486,-54.5362,-18.1303,-44.5085,17.5442,-119.2385,2.1928,125.1480,34.6962,65.2980,78.9833,-56.2907
-3804.6875,-40.1474,96.4914,-30.7804,74.1198,66.0972,55.1860,42.8807,-34.5503,-53.7656,-4.1742,-6.0261,24.1790,30.0677,-104.5649,-21.9344,28.3989,-24.4194,42.6143,-15.1191,-80.0510
-3796.8750,4.2673,176.0586,-24.3280,46.8104,73.2294,26.5090,48.5999,-27.9397,-48.0350,-71.6801,7.4368,55.3080,37.7408,-59.7444,21.0967,-111.2003,18.6233,-17.9294,-7.0720,-36.6719
-3789.0625,34.0491,135.0052,-29.5320,-30.1441,66.7091,-14.8210,42.6666,-32.9862,-16.9484,-113.8426,19.9228,17.1313,68.7587,-27.5821,88.4739,-78.4582,11.0240,-59.1267,20.3282,-78.9501
-3781.2500,40.3051,72.4271,-62.2767,-94.6435,-2.3557,-9.7115,46.1895,8.3991,23.5914,-35.5691,11.3441,-24.2464,73.2256,-20.9779,92.3016,-36.2748,-18.1135,-87.8921,61.1856,-37.7890
-3773.4375,-11.5713,19.7139,-119.1652,-112.2905,-24.5637,6.2381,60.5732,23.6170,37.9854,16.5375,-26.9252,-33.1408,52.5383,-4.5275,70.9845,-57.2532,-2.3877,-69.8173,42.8979,14.2238
-3765.6250,37.4612,-71.0782,-32.1598,-134.0322,27.1264,-51.9158,74.8560,-72.2795,89.2792,-79.4696,27.0807,-84.0259,67.7497,-25.1743,121.5760,-78.3368,46.2504,-55.8536,55.5181,-7.8661
-3757.8125,-20.5828,-164.9496,-19.2524,-122.8720,39.7191,-75.1803,160.0459,-59.2937,174.4816,-139.5936,27.6943,-128.2705,79.8563,-84.9259,134.0648,9.4708,56.8013,-8.0042,31.0508,-32.0581
-3750.0000,-81.4645,-154.6502,-7.2002,-43.5520,87.4574,-25.3014,134.3905,-10.1635,37.8398,-128.5798,20.3833,-72.8529,92.1009,-35.5319,145.6979,-15.5758,29.5194,-34.0115,38.7430,-94.1052
-3742.1875,-2.4225,-75.4189,70.7593,-71.3216,128.0920,-57.5280,137.6290,-6.1491,42.0856,-50.6849,78.5436,-80.7503,96.2380,-103.2416,76.2341,-156.7260,2.1591,-96.1324,81.3307,-16.2643
-3734.3750,-24.5017,-27.3117,6.5819,-128.2325,101.5749,-118.9166,110.7173,40.6971,51.1748,-3.9451,50.1071,-68.7801,107.2192,-55.1115,11.6252,-145.0358,12.6651,-48.4226,92.7659,30.4205
-3726.5625,49.2384,117.6193,11.2081,-126.3363,105.8540,-114.5191,77.6036,8.3314,18.0636,-109.4158,49.2521,-12.5684,75.0004,-12.1821,52.8156,-104.5532,-20.0180,-8.9266,60.0044,-2.0987
-3718.7500,-9.9889,163.5724,-51.1556,-81.4343,6.1400,-66.1293,51.4949,19.9485,28.9512,-61.9099,-11.6049,21.0758,49.7802,0.7374,27.0079,54.9203,-9.6875,36.5505,69.2415,-27.6192
-3710.9375,-1.3020,137.4439,-41.6200,-72.6295,15.3221,18.1497,23.2881,65.4573,-110.2576,-15.5183,-11.0218,40.5270,22.4635,47.5514,-0.8968,102.2816,-37.4428,9.9243,111.3855,-55.2437
-3703.1250,57.8067,90.7449,-20.6761,-50.4175,35.9090,39.8188,43.4848,50.3552,-89.0729,-104.7398,15.1101,44.3368,6.5394,69.7644,19.6026,14.0275,-15.7869,-72.3194,133.9337,2.5211
-3695.3125,13.9332,47.0715,-68.7279,-95.2019,-13.5029,28.4738,67.6890,75.2425,8.1056,-152.9741,-18.4283,29.9309,-5.3842,95.9724,81.1062,2.7658,-26.1157,24.4194,123.4865,27.2831
-3687.5000,41.6290,145.9678,-76.2272,37.5657,-93.3575,59.6627,23.4492,68.6597,-36.1622,-50.6765,-59.5709,95.1881,-85.7553,90.7195,74.1741,107.0522,-104.8772,16.6929,44.5812,-16.4054
-3679.6875,32.5920,207.1427,-88.4713,97.5950,-143.9598,83.0842,-27.5394,91.3056,-50.1770,45.8637,-87.6650,133.1930,-134.8788,78.7079,-50.5024,94.5897,-45.3765,6.1993,-2.0762,43.1468
-3671.8750,102.3126,242.0903,-53.9736,96.3844,-145.8154,8.2480,-102.7744,52.6905,-88.4324,-29.8548,-58.4896,149.4821,-136.2606,114.4435,-88.4289,-17.1354,58.8886,41.4520,-3.9760,41.4459
-3664.0625,183.0006,288.0133,31.4768,105.1372,-61.7210,-15.6388,-92.0563,65.0140,-78.7440,-127.6438,2.2142,154.0766,-124.6973,91.1254,-78.4019,-150.9313,102.1174,-19.3567,-65.9184,-20.3086
-3656.2500,207.5616,312.8059,54.7823,58.7448,-38.7778,-65.6814,-142.4862,51.1788,-165.2053,-177.5927,36.3884,131.5978,-65.2905,78.6522,-91.5228,-90.8802,160.2088,-31.3320,-112.0083,2.7862
-3648.4375,313.8404,418.3238,91.7880,58.0598,35.8590,-101.0309,-179.2150,-58.9658,-238.9671,-213.8562,59.8770,138.6222,-101.1953,43.8803,-91.9465,21.8666,160.0191,-66.6174,-114.3964,-33.4169
-3640.6250,318.3961,459.1190,59.0507,61.6423,1.7425,-169.1420,-139.7012,-55.8742,-126.4878,-210.8888,60.1605,118.1661,-60.8587,-24.6453,-89.1161,25.8547,127.1010,-132.6751,-76.5339,-30.3762
-3632.8125,303.4267,408.3854,78.7722,45.6794,22.0782,-184.8209,-84.7314,-72.3484,-70.5577,-227.4883,79.1741,83.4259,-40.0793,-76.7386,-31.8337,-100.7065,181.6563,-113.3071,-22.2112,-46.8821
-3625.0000,343.6216,378.8198,121.6504,85.8687,-9.4320,-179.3701,-116.6076,-103.6863,-65.4670,-221.9489,99.6193,95.0580,-34.1513,-32.6903,10.6026,-168.1190,185.3794,-178.8082,-18.7341,-78.2403
-3617.1875,259.6867,365.1239,31.3837,69.9163,-27.0935,-159.0835,-23.6311,-121.1931,-9.5129,-166.5637,38.2891,87.9504,-51.3804,-48.7905,29.8952,-73.7000,169.9649,-158.4763,35.5961,-58.7481
-3609.3750,211.4130,352.0927,-55.2324,20.6181,-77.1031,-98.1617,-36.9984,-97.0654,124.0967,-32.5408,-19.1909,60.0529,-63.9632,-60.2478,52.8436,24.3577,49.2237,-137.5078,20.5828,-108.5983
-3601.5625,396.4042,503.3261,-85.5927,29.5747,-143.8592,-91.0074,-68.1120,-90.7093,166.9635,83.7216,-12.5153,84.4209,-131.2984,-89.4650,-13.9469,31.6630,-83.2545,-163.3056,-112.1767,-65.2008
-3593.7500,457.4561,634.6306,-134.9058,53.5894,-230.5666,-66.8139,-191.1723,-104.3138,5.8949,70.0389,-17.7800,148.3440,-107.5906,-27.6428,-27.6884,-16.9923,-23.6741,-139.0627,-157.8862,-41.7483
-3585.9375,545.1138,652.5514,-45.6216,70.2087,-177.6787,-123.0266,-212.6289,-160.3242,-161.5738,-24.0496,64.0084,130.7535,-54.2856,-84.2274,-48.8269,-37.0579,27.5186,-227.2287,-141.9884,-25.6941
-3578.1250,532.1893,603.8746,10.0735,21.2303,-122.3822,-176.8557,-157.6722,-215.9459,-70.6367,-42.7571,106.2832,79.4757,1.4182,-136.4288,-30.5488,-126.7321,12.1289,-206.0170,-192.6777,29.7600
-3570.3125,498.9763,570.9046,-24.5309,56.9556,-120.3831,-210.9957,-193.0042,-213.8773,-32.9880,-77.7741,81.0993,89.0447,3.8187,-97.9421,8.4361,-88.7133,-22.5455,-170.1146,-227.6672,-5.0842
-3562.5000,520.4175,557.5987,-2.4828,112.3396,-135.7335,-151.4946,-208.6845,-155.1698,62.3167,17.8595,93.4809,86.1324,-11.1362,-147.8114,-43.9242,-103.0535,-107.5607,-148.5736,-278.0017,-20.2824
-3554.6875,354.5177,461.9578,-103.7771,51.3765,-127.4279,-142.3550,-163.7038,-110.8140,143.2792,173.1380,6.0469,69.2058,-39.4490,-102.0435,-35.6321,-129.7551,-98.9154,-105.3962,-164.6760,-11.8291
-3546.8750,331.3170,298.0262,-57.3691,-7.8817,-45.4217,-95.5284,-81.0132,-136.7646,152.9445,146.1065,38.1660,15.4176,-29.0634,-90.5821,-25.6313,-118.7617,-122.5574,-128.5336,-49.6412,-1.6755
-3539.0625,203.1814,100.1544,-46.9031,-67.0830,0.6411,-84.6627,0.7315,-127.6770,161.6686,82.1214,27.4954,-74.0240,-19.6273,-152.0833,20.4305,1.2709,-42.1425,-117.6449,-3.5528,44.5305
-3531.2500,50.3988,-52.3582,-24.0870,-113.9352,24.0526,-61.4621,-13.1658,-104.2471,111.7557,-5.5130,23.3672,-116.2299,41.1553,-127.2396,43.8415,62.6424,50.6365,-60.4154,53.8932,31.0931
-3523.4375,48.7188,-53.7586,48.8298,-47.6767,59.5672,-26.1720,22.0417,-70.7316,108.9413,-44.0533,35.4494,-75.3549,3.0350,-92.3043,42.3599,-11.8845,47.5221,-98.0980,-20.5532,-7.2447
-3515.6250,-78.4540,-109.6535,-12.7552,36.0865,34.5791,23.6016,33.7599,15.2794,120.6427,-32.0932,-40.0863,-14.0480,-58.5902,-4.8758,17.3918,-35.9157,59.9159,20.6977,-78.4937,4.9192
-3507.8125,-51.1783,-82.0977,15.1040,97.3005,25.0417,124.8123,-13.0573,42.7400,0.8104,-78.6785,-23.5239,32.7994,-67.7705,23.9995,7.8791,-44.5092,15.7676,46.9330,-121.9745,-4.4614
-3500.0000,-24.7521,-91.3898,41.1139,51.6676,50.6584,78.1633,-24.7144,68.3462,-47.8601,-53.1210,19.3538,5.3472,-4.8028,14.0090,-3.4709,-91.9618,74.7830,1.3070,-64.2893,-15.6947
-3492.1875,36.5195,-99.8346,105.9779,6.8875,115.1325,33.3542,3.4921,-14.2020,-56.6689,-135.7207,62.3668,-15.8203,-12.9835,6.8482,-48.9627,-99.5699,135.6655,26.5269,-3.7456,-61.0771
-3484.3750,146.9959,-24.0693,186.0450,46.3168,194.8133,39.7381,8.9036,-118.5590,-50.2704,-166.1204,108.1867,-13.4574,-42.9753,-59.1186,-116.2507,-18.9884,138.7603,-40.0687,-36.0015,-128.2555
-3476.5625,181.2275,10.4527,182.8703,43.5026,191.2402,-0.1456,41.0677,-160.1772,-92.1054,-206.7643,117.7734,-3.1078,-47.2230,-62.3480,-120.7840,-58.6621,171.6185,-6.9325,-3.4986,-95.6784
-3468.7500,184.7984,49.3193,150.0417,46.0373,195.0132,4.3110,45.5920,-192.4443,-124.5696,-203.0478,103.9633,25.5289,-43.1266,-20.2363,-78.9585,-163.9908,208.8358,-5.4530,33.3670,-164.7456
-3460.9375,155.3656,91.1872,155.2177,86.5749,199.7906,9.7546,50.1272,-150.7092,-83.0237,-124.3236,82.6247,40.7756,-74.0317,-51.1409,-111.1275,-84.3238,143.0550,0.0091,-32.7616,-159.8100
-3453.1250,14.3392,126.4480,76.8052,155.5153,157.9757,78.5808,44.0689,-119.5760,-89.0760,-56.2034,-5.9751,100.8853,-116.5388,-17.6664,-153.8955,-15.2578,70.6907,33.8503,-105.4845,-91.4566
-3445.3125,16.6598,93.0564,75.7455,121.8066,156.5098,41.7423,6.3623,-121.1070,-53.7732,-131.7377,4.2064,85.8966,-80.6950,19.1552,-81.2981,-52.8514,71.6912,-34.9697,-69.8493,-55.7437
-3437.5000,83.0761,-16.2310,104.7847,46.2061,184.1431,-4.0107,107.7613,-128.5476,-26.3537,-176.1682,63.4787,14.1494,-52.7539,-25.9260,-89.5888,-97.3543,101.8024,-40.7008,30.8901,9.0714
-3429.6875,90.5316,-43.4634,75.8666,17.6654,117.8191,4.2775,78.2254,-85.9420,-92.8652,-132.5387,55.7568,10.6712,-44.7751,20.0342,-82.8275,-15.8108,72.9720,1.6090,106.6928,-20.0593
-3421.8750,86.2336,-11.4485,70.1997,12.3814,111.7470,35.8041,107.9481,-18.0962,-99.1179,-138.6511,40.8299,10.3844,-87.5501,-21.7710,-88.8091,52.9805,32.4042,-39.8504,135.7636,-25.9385
-3414.0625,-30.6644,-23.0439,19.9380,-35.4991,62.0806,22.7156,168.0836,5.1480,-38.9458,-116.3666,-7.3152,6.4010,-63.9246,2.8085,-28.3872,40.1580,19.2493,-16.9283,193.2384,-39.4081
-3406.2500,-8.3707,-70.4509,43.8736,-84.1764,85.6163,-26.1841,192.4205,28.5913,-51.5600,-128.8766,33.1222,-35.3772,-2.1023,-8.4159,32.2420,-8.4662,40.2960,-65.8062,248.9169,-88.6714
-3398.4375,70.3644,-97.4124,88.2609,-147.3963,129.6046,-92.6403,235.2172,-0.5115,-44.7177,-158.9301,80.3059,-65.5731,5.1637,-0.2012,3.3292,-74.6493,82.8017,-94.2442,292.0535,-81.4775
-3390.6250,80.2813,-87.1957,97.8404,-139.4178,101.7940,-156.9005,207.2257,-65.4115,0.3376,-186.7702,72.6229,-58.7321,13.6257,46.2010,48.6267,-64.6310,126.5183,-156.4861,264.4042,-109.0741
-3382.8125,175.8321,-61.3414,124.0694,-113.7880,164.6384,-167.5223,232.9001,-76.6619,26.0600,-269.9580,114.9879,-60.7663,2.7337,-0.7556,37.5807,-74.9609,115.8952,-132.0818,253.4150,-120.0186
-3375.0000,88.9240,-148.9422,68.8601,-131.6028,72.0382,-74.6013,177.1372,-58.3578,81.3543,-179.5886,62.9626,-77.7715,-15.6116,18.8219,56.0879,-92.7539,167.8252,-9.1418,269.9716,-138.4104
-3367.1875,182.4483,-90.0994,57.1003,-39.9663,59.8891,-13.2380,127.8287,-34.5993,-4.8915,-117.7583,66.7391,-21.4368,-64.5069,44.8363,7.0554,-104.1070,119.2114,-22.7586,255.9847,-187.3420
-3359.3750,181.8709,-54.3620,17.2493,30.5769,-17.3530,21.0123,125.4227,36.0583,-81.2332,-48.0182,33.2353,10.9620,-103.5039,42.7321,-69.0687,77.4361,48.5015,-23.4876,148.9022,-153.3651
-3351.5625,82.5239,-13.3944,-90.3528,34.3667,-88.3444,60.4972,90.2783,111.9709,-42.3075,-45.0202,-53.2171,46.6280,-138.2471,82.8721,-29.9286,154.2193,-52.9499,51.0265,83.0793,-114.1318
-3343.7500,69.6101,80.0099,-68.4983,56.6103,-140.8771,45.4244,74.5995,170.3273,-57.9179,12.4323,-51.7319,75.1684,-116.5399,68.4527,-8.3322,28.4426,-30.9431,-32.0197,33.7085,-92.4420
-3335.9375,111.1356,51.8457,-32.1880,27.3069,-139.9518,-28.2105,37.3819,206.1271,-131.0613,49.3388,4.5503,34.0656,-43.3831,32.4650,-46.2804,-7.8752,44.5248,-132.6303,38.7928,17.7077
-3328.1250,125.7956,-4.1846,53.2657,-29.8401,-91.8805,-125.7078,48.3212,180.0819,-47.0337,23.4074,43.9466,-50.1436,-31.0807,-64.3872,38.9306,77.9621,22.1494,-189.0981,16.0430,66.0171
-3320.3125,39.7391,-124.9285,104.0125,-116.6814,-114.5057,-184.9098,62.5671,157.3459,150.3070,37.7883,49.5957,-117.6403,20.5210,-49.9506,89.4546,92.0928,5.0763,-172.2769,-36.3985,153.6325
-3312.5000,-115.8910,-245.2427,85.2035,-132.0769,-135.6802,-131.6651,79.2745,173.0629,166.1159,54.6369,13.6281,-119.5899,36.5734,3.9339,107.4348,73.6603,-9.5435,-46.0076,18.6157,243.7129
-3304.6875,-203.4441,-367.4733,66.4934,-150.3720,-43.7525,-113.3261,97.0872,81.8847,221.0407,108.6013,7.0091,-154.7862,91.7202,22.9138,160.5187,55.3239,6.9371,-29.6388,69.7333,224.9059
-3296.8750,-261.4146,-425.1334,76.3890,-103.0679,2.7765,-66.3934,143.5081,-18.6892,267.5885,119.1773,-15.4742,-131.2304,64.4645,70.4806,135.2093,28.5828,54.0278,-17.6786,11.4567,271.7071
-3289.0625,-315.0030,-372.4236,19.6865,-16.3647,-17.2933,-12.0668,49.3369,-38.8585,173.5477,135.1692,-58.9091,-70.7176,44.6064,88.4341,115.3066,-26.7590,34.5285,32.6772,61.5896,251.9205
-3281.2500,-381.3090,-333.4402,-12.7089,-48.3613,-50.0564,-8.4522,16.4715,-35.7209,104.8163,138.4791,-78.1274,-95.3544,86.0477,19.6722,154.7161,124.2003,37.3328,70.3227,134.0334,219.4403
-3273.4375,-489.6339,-335.4807,-51.1023,-51.3664,-52.8101,27.1531,87.6221,36.4264,66.1123,210.7985,-133.2012,-67.2971,47.4949,55.8897,80.1404,196.1557,-0.8644,136.9611,130.4871,180.9729
-3265.6250,-530.8816,-306.4422,-21.4012,11.7237,-60.4576,92.8458,79.8854,100.6804,58.5288,203.2241,-150.6062,-14.9663,3.0489,85.1944,36.6763,152.2117,-7.9593,60.6889,158.0438,173.6190
-3257.8125,-486.5932,-401.8732,21.8581,-14.6353,-17.5507,26.0702,122.7056,143.4859,174.5062,209.2202,-106.1113,-95.8122,9.1505,-17.9654,42.7644,122.8208,35.4961,-2.0450,166.1553,216.8311
-3250.0000,-447.3378,-433.3279,-10.8936,-11.9936,-86.6507,-43.7078,89.5328,110.3127,252.5026,286.2450,-114.7055,-134.3378,13.2420,-50.1277,118.8585,126.4293,2.9440,0.2243,168.2716,184.0556
-3242.1875,-386.5131,-407.2080,13.9426,-56.7561,-26.1546,-91.8926,113.9703,98.7533,350.1254,347.8909,-77.9186,-150.9777,37.9347,-60.6970,107.5735,5.6292,-77.0057,-9.9184,123.0067,208.8882
-3234.3750,-461.0550,-446.4715,7.4358,-131.8765,3.9991,-98.4458,144.0836,55.8461,343.4244,305.1964,-88.3271,-169.4939,68.2784,-29.6350,137.9479,-0.5259,-82.2922,55.5660,119.4072,239.3866
-3226.5625,-419.6166,-439.7645,86.9289,-54.9973,83.1573,-56.0090,113.2041,-86.0542,164.7272,199.5085,-45.4743,-140.6030,73.6202,-23.5794,107.3248,79.3227,-5.5684,96.0539,18.8163,244.8979
-3218.7500,-414.8533,-399.7312,91.7674,18.2346,87.6695,-15.2167,80.6732,-118.5898,132.3911,204.1808,-36.8888,-124.4744,78.3098,-92.1769,111.0572,-26.4715,67.4995,168.8953,-13.4167,212.7677
-3210.9375,-425.2769,-409.8875,46.4429,42.3110,115.0315,14.4231,71.0098,-127.2608,124.9349,196.7287,-41.9742,-105.3551,105.8468,-62.9392,139.6525,-143.4125,56.4257,193.5937,45.2188,131.4959
-3203.1250,-356.6749,-412.0282,44.1731,39.4337,150.4496,12.1169,143.4128,-91.8721,160.5496,158.3394,-27.6762,-120.1515,67.4298,-100.6639,64.3094,-71.3132,18.4121,120.3443,76.9141,93.2770
-3195.3125,-425.1902,-409.2894,-63.1807,6.4636,40.7772,86.7108,107.7275,-17.5701,198.0731,159.8588,-108.7250,-84.5914,31.9125,11.4985,28.8618,76.6681,-49.7026,191.9896,43.5076,94.9683
-3187.5000,-413.6852,-327.5258,-123.4892,87.5385,17.1596,137.3501,47.0991,68.7947,137.6543,209.4514,-149.1973,-6.5177,8.4439,98.7047,116.4702,90.6996,-179.7734,166.6906,-51.8479,34.7266
-3179.6875,-402.4639,-315.0416,-151.0515,-6.6417,-45.7024,109.7280,93.2322,151.9231,221.0052,292.8222,-142.9864,-80.2816,54.7246,-1.3522,198.8389,137.4939,-239.1118,37.1440,-39.4448,81.2411
-3171.8750,-342.6410,-325.9400,-166.9828,-52.1765,-62.9197,20.7491,77.0312,134.7281,205.0385,312.8763,-137.8688,-100.5477,39.6597,20.2364,145.8690,194.9442,-214.8102,-8.7567,-16.3863,175.4086
-3164.0625,-240.9989,-259.0223,-135.0647,13.1370,-104.2815,-21.3910,-1.3044,129.3938,162.9379,307.7977,-123.6403,-44.6584,-2.5515,88.6699,103.7635,153.2344,-184.6546,-48.8230,-21.4693,170.4359
-3156.2500,-320.4704,-303.2320,-143.2404,4.3406,-186.7349,7.3528,-46.7296,230.9614,191.7562,336.6238,-148.0991,-38.5836,-10.8560,116.9855,58.5676,108.4252,-123.5959,115.9943,38.3593,125.3800
-3148.4375,-299.2122,-316.7265,-79.6675,25.2882,-86.4373,33.8387,-20.3980,295.2893,72.3281,327.2168,-89.1935,-71.0293,15.5890,-1.9547,13.1276,100.3709,-137.7875,172.5572,24.9461,6.0952
-3140.6250,-297.0830,-244.3498,-4.2043,61.1395,-11.2431,-0.7799,18.8317,224.5308,0.8144,255.7335,-47.5696,-63.3449,54.9370,-72.9932,15.5929,29.2131,-102.0844,174.0184,-80.5672,-28.2769
-3132.8125,-308.8366,-150.8520,20.3987,119.1373,86.0975,23.7469,43.2171,137.9362,-122.5116,59.4283,-33.3202,17.0511,78.4302,-10.8917,40.2212,-56.7943,-79.2407,196.6319,-127.9308,-40.4823
-3125.0000,-202.6272,-184.3833,58.9835,156.1349,88.4383,62.2736,44.6082,66.3558,-119.8193,-47.8524,12.0310,12.6600,80.9265,-7.8040,78.8586,-53.7891,-78.4030,127.2480,-92.2913,-74.6749
-3117.1875,-192.2380,-243.7420,30.7676,95.3305,95.9816,70.9985,89.1952,37.9880,-37.9221,34.0781,0.4136,-34.9431,52.6243,-36.5355,50.6997,-8.5771,-103.3622,136.0654,-82.4503,-29.6524
-3109.3750,-278.5270,-224.7862,-23.0953,43.8736,42.8730,164.0677,-0.8607,56.9828,-54.6590,127.3772,-58.7999,-18.4750,35.6735,21.0710,33.8939,48.9683,-153.9650,190.2450,-64.2547,-46.2689
-3101.5625,-282.4992,-228.5136,-29.6024,4.7701,73.1236,194.4844,-7.5605,51.3393,-24.0348,84.0481,-42.0937,-25.8666,102.0773,52.0150,100.4440,5.8502,-123.2168,79.7785,-68.6987,-15.5410
-3093.7500,-285.1040,-229.8734,-69.7026,2.0637,31.7841,153.2996,-11.8457,10.1125,9.0010,44.1455,-63.2783,-18.8976,98.8906,85.3354,97.4010,2.1308,-21.0777,77.7098,-35.7423,17.5934
-3085.9375,-115.5926,-166.1208,-3.6593,101.4990,-12.3971,146.2619,-164.9720,-33.9532,-71.7959,74.4099,-15.3294,-1.8424,54.8617,41.7959,16.5284,69.5581,-27.7958,70.7915,-111.6259,10.8903
-3078.1250,-128.1507,-37.4565,-18.6615,193.8754,-99.6163,168.1669,-217.1399,24.9379,-85.6259,206.6292,-64.2224,70.1510,-34.2093,27.1962,-107.3855,17.9398,-40.5679,92.8195,-160.5536,33.1492
-3070.3125,-144.0441,15.8684,-34.9680,142.9455,-116.1362,151.7717,-269.5967,82.5425,-137.7404,116.5635,-69.4892,93.8292,-13.5774,85.2853,-87.5999,-34.9676,-21.6416,76.5542,-71.7728,17.1227
-3062.5000,-2.5717,17.5588,75.1190,38.4102,-44.2513,77.7779,-160.6488,81.5583,-65.4421,5.9223,20.5863,27.0811,-14.5487,10.7726,-87.4133,1.5301,-90.3195,-28.3139,-0.5823,53.5047
-3054.6875,-66.5271,-81.1905,5.8055,-95.5354,-3.7631,8.3726,-83.0899,85.1917,11.4793,120.9119,-14.3461,-46.0208,-9.9205,15.8569,-83.6156,116.6198,-154.4029,12.4065,40.2169,94.5012
-3046.8750,-82.6835,-62.1376,-10.6787,-111.6349,15.5739,-44.1830,-62.6707,142.6922,-4.7233,141.7777,-13.2065,-50.0006,9.5603,-0.2124,-62.9537,100.5621,-205.6429,65.9832,58.8774,78.3577
-3039.0625,-146.3171,-55.5701,-75.6165,-69.1793,-49.5347,-1.1870,-55.7014,186.7538,3.6363,149.2060,-64.2873,-35.7603,-19.4044,-28.7450,-55.7335,109.0632,-164.3381,143.1147,30.0823,49.7718
-3031.2500,-185.0858,-24.1272,-113.6624,32.1808,-87.7435,108.7140,-129.8289,186.7336,-70.0968,112.5537,-107.0104,43.6727,-56.4652,44.6085,-93.6098,72.4643,-98.1354,210.1542,-7.8155,-23.8995
-3023.4375,-93.4689,33.6933,-52.3068,124.9401,-25.5503,134.0148,-105.5514,175.1260,-155.4249,101.3108,-56.0899,91.6528,-68.1236,33.3542,-142.0843,-49.7517,-76.5292,161.5965,13.6856,-72.1620
-3015.6250,-178.6714,-17.3175,-106.7392,73.8856,-6.1487,153.5100,-123.0663,194.7216,-98.5381,84.2875,-88.6945,72.6680,-48.5735,53.2788,-122.3510,-66.7712,-56.7250,146.2402,68.3913,-52.2214
-3007.8125,-75.2629,52.2855,-108.5188,143.4695,-8.0865,225.6562,-87.9218,155.9842,-99.9883,-64.0682,-72.5784,104.0728,-87.3700,14.8385,-86.9656,-68.1342,-58.2779,144.5452,-38.2462,-53.6217
-3000.0000,-77.0870,50.6476,-146.5007,141.8404,-84.2104,223.6062,-126.9650,80.0706,9.3731,-28.5997,-101.6255,75.4340,-89.3602,-23.8101,-51.7713,4.2966,10.9496,106.6496,-40.0742,-55.2141
-2992.1875,-50.9460,76.9625,-119.4955,133.1921,-93.3274,214.5496,-61.9950,34.1779,-36.2416,-0.1063,-87.4489,80.9164,-98.3391,-32.4698,-97.5675,-41.2740,37.1622,97.7586,-13.8877,-63.7904
-2984.3750,53.0660,110.1400,-10.6008,95.4337,-21.5427,138.3888,-64.1173,32.2007,-37.9380,-38.6896,-20.6211,66.9193,-100.4118,-34.2421,-136.4556,-42.9361,0.2692,-9.2368,-15.7960,-65.4558
-2976.5625,35.6076,57.8383,3.8455,8.2195,-7.2014,79.7671,-85.6849,47.7821,-23.0771,-23.7026,4.4465,11.8053,-48.9234,-55.4761,-156.7808,-28.0503,-17.0751,8.3067,1.8406,23.4363
-2968.7500,9.4243,31.8103,-21.4078,-17.6906,4.4408,54.4445,-111.9496,95.6701,-10.9072,25.6025,-12.1961,22.3029,-37.1294,29.5845,-145.7989,-52.8723,-44.1220,17.1488,10.7627,-38.3543
-2960.9375,69.6150,21.1622,40.7340,-63.1941,29.4751,-31.4840,-49.8209,83.9673,-59.3260,87.3243,36.0276,-24.6551,-11.9308,-18.9654,-120.4032,-27.2879,-53.7766,-98.6117,36.0874,-12.7367
-2953.1250,84.6785,-32.6066,53.7659,-117.8073,79.4076,-90.5157,-36.7846,134.1876,-45.8352,27.9573,70.5199,-73.6349,38.1791,-41.6271,-70.0991,-13.7984,-38.5405,-118.4763,-19.6794,37.7874
-2945.3125,86.4241,-65.6945,57.4850,-114.7292,46.0435,-123.8454,-33.0397,101.1246,-4.6340,-41.7017,74.8898,-81.7270,78.9976,-1.5995,43.9186,27.3777,-71.6090,-115.6439,-87.7406,5.0151
