Time,Fp1,Fp2,F3,F4,C3,C4,P3,P4,O1,O2,F7,F8,T7,T8,P7,P8,Fz,Cz,Pz,ref
-4000.0000,25.6173,6.8474,8.2739,29.4433,-11.1009,9.0600,-31.0553,4.3500,-17.1726,3.9336,7.1226,-32.0643,-15.1275,-5.1017,-21.8850,6.8706,0.8180,0.9911,-48.2412,15.2811
-3992.1875,8.4801,3.5806,-11.0893,9.8130,10.4138,23.2358,22.0494,-18.5382,-6.3226,-17.8664,-3.8504,-54.5767,-33.5991,-65.0073,-40.6115,21.3234,54.2458,-17.9699,4.6712,69.3734
-3984.3750,14.3539,36.1928,-4.4331,14.1444,11.2071,-8.6218,-7.8127,-50.4589,-68.1608,-86.6876,-3.6646,-14.1257,-63.0416,-22.9323,-144.3034,-10.2520,95.6960,56.0394,43.6103,40.4994
-3976.5625,47.7027,-2.8682,66.6920,-62.1055,67.9818,-14.0551,98.7926,-55.9579,-53.9600,-166.0795,55.0948,-93.2530,5.9866,-102.4304,-73.5343,-52.4173,92.6140,-90.5318,75.0326,38.0970
-3968.7500,17.2784,-73.4254,107.0451,-200.1917,147.5782,-123.3235,175.6365,-91.2950,-1.8385,-164.3013,106.7428,-130.2179,157.2488,-137.7766,38.4707,-161.4208,96.7553,-123.9458,150.6791,78.9253
-3960.9375,89.3224,-104.2251,181.8753,-271.8648,166.7581,-162.1854,138.9604,-130.2247,-31.2678,-240.0994,185.8062,-206.7712,267.9900,-250.7024,112.9491,-200.0015,97.3727,-265.9384,150.8100,80.2329
-3953.1250,143.9893,-170.2112,268.3304,-395.9695,293.0592,-335.4851,335.9085,-340.5871,28.0421,-376.3214,259.4615,-343.7563,391.3577,-424.0554,347.0527,-225.9956,153.6061,-460.3766,204.5620,241.1597
-3945.3125,173.7227,-164.1568,257.8604,-475.0656,333.7758,-422.7722,360.9424,-427.9397,17.9967,-463.5085,264.2262,-357.7304,380.8060,-400.3927,372.2395,-349.9521,252.9061,-399.8019,269.3929,341.1710
-3937.5000,242.2829,-124.9372,290.2112,-410.3994,317.2119,-393.2923,319.7928,-435.5161,17.7980,-470.9098,280.0942,-365.9429,339.0808,-444.9522,404.2437,-393.1403,249.0220,-440.4529,265.0564,374.0087
-3929.6875,223.5191,-136.0929,232.2355,-466.1288,325.7215,-455.1920,371.3243,-496.4749,41.9344,-495.6753,241.0749,-354.5442,319.0386,-395.8884,455.9300,-307.7144,300.7993,-426.4949,316.3980,426.5292
-3921.8750,299.7143,-115.2507,205.2311,-462.9512,283.1808,-411.1805,342.8347,-490.5173,3.4264,-488.5136,254.2644,-348.2238,326.9810,-352.9025,391.5925,-263.3648,272.5467,-458.6144,287.7231,363.0341
-3914.0625,340.1333,-180.1967,243.4523,-566.6054,364.5067,-485.9996,491.5629,-565.3925,49.2899,-527.1699,325.6503,-460.7310,476.1509,-390.7515,503.4738,-374.8364,276.5105,-632.5642,326.2746,438.7621
-3906.2500,371.6195,-208.5936,307.7458,-679.2426,449.9793,-608.8049,518.3713,-614.2564,26.8393,-612.7879,402.3133,-547.2211,577.3987,-439.5874,493.4403,-534.2818,377.5417,-640.5002,426.9073,540.5714
-3898.4375,447.4261,-177.7768,421.3578,-642.6172,517.1617,-609.3465,521.5025,-688.8472,-36.3904,-796.1166,498.4865,-585.4396,653.9746,-550.1443,532.7305,-607.4577,416.8897,-674.1608,430.8670,580.7002
-3890.6250,426.9598,-185.3995,432.6911,-666.3248,561.8538,-674.2201,570.3593,-753.7686,-7.6120,-824.7637,489.9439,-613.9906,628.2812,-689.0223,581.7591,-561.9648,466.9424,-628.1649,480.5457,666.5510
-3882.8125,457.0066,-194.3283,392.5346,-673.5677,487.3075,-680.6248,455.7423,-723.2192,-9.7696,-720.9193,457.2234,-658.0644,552.1115,-659.4198,505.3232,-457.9861,426.5079,-600.6995,545.7479,626.9321
-3875.0000,418.4673,-245.8231,390.7934,-715.4363,485.9365,-686.6537,526.5377,-655.2925,61.5518,-614.6924,427.4446,-700.7583,513.3586,-627.4342,538.3050,-388.6192,352.4872,-607.8627,540.3748,588.7330
-3867.1875,256.8925,-287.4325,297.0215,-740.3868,468.2616,-635.7641,505.3191,-568.4490,94.4615,-527.5354,359.1172,-614.5325,529.5886,-503.5259,518.2743,-412.3245,295.4307,-457.1143,552.9731,532.5117
-3859.3750,199.1390,-287.4210,315.0688,-695.5682,439.3020,-511.1089,411.9207,-480.8422,58.1744,-476.5857,366.1079,-601.5285,547.6432,-452.8405,388.0616,-434.2475,307.1916,-447.5964,565.3924,440.1136
-3851.5625,114.1649,-307.9669,299.8893,-714.0261,473.3550,-456.7369,507.2894,-425.5168,108.0697,-457.8954,337.2751,-583.7985,532.4729,-434.4264,409.6213,-415.4447,327.7129,-396.3688,584.5758,425.4892
-3843.7500,206.8494,-208.8416,254.3766,-623.8717,375.2435,-356.7536,389.3379,-325.5744,50.6347,-468.5580,297.7877,-484.4438,377.9785,-334.3853,328.8664,-352.0255,313.8997,-270.5179,537.4359,308.5472
-3835.9375,306.2974,-157.5509,249.6326,-527.9962,305.7676,-292.0486,347.1527,-297.9042,40.4736,-439.4816,286.3092,-457.3614,299.2545,-306.6143,360.8835,-286.8835,236.8459,-315.9376,389.0740,267.3739
-3828.1250,188.9017,-139.5969,200.0536,-473.0049,261.7753,-308.2201,296.1497,-278.1086,71.8966,-309.2646,197.5514,-327.1534,212.7046,-212.7117,310.0810,-303.6019,224.9518,-261.2412,376.8910,291.3734
-3820.3125,173.9122,-104.0603,224.8858,-385.6436,200.5615,-287.0135,210.5639,-218.9366,77.0925,-213.6595,164.3765,-269.5646,127.5713,-191.4187,261.6934,-280.9214,209.4748,-280.1629,361.1328,206.7916
-3812.5000,69.4472,-141.2809,224.2372,-354.8033,226.1030,-291.3311,283.4914,-223.2906,144.2746,-143.5646,139.0717,-274.4972,162.9544,-305.6490,333.8170,-174.7563,208.5111,-319.6126,324.8959,206.7208
-3804.6875,75.3933,-99.6374,198.0048,-315.5892,200.6710,-284.2744,182.8487,-217.2721,74.6414,-137.0773,154.8163,-195.0488,210.7627,-225.5047,197.3686,-278.2198,215.9620,-210.6915,331.0817,144.0695
-3796.8750,191.4075,-76.0561,247.8384,-274.3464,209.5240,-238.1885,196.2666,-207.2223,35.3990,-200.5504,236.5962,-222.5681,297.6421,-178.3229,209.9864,-377.6572,155.4699,-274.7375,270.3362,84.4796
-3789.0625,121.0359,-101.5221,209.2917,-313.5311,227.7562,-244.5301,230.3102,-176.5940,74.1903,-169.4209,198.0324,-229.5118,258.1460,-258.5567,208.2318,-273.5103,154.5807,-174.2181,340.2093,119.5083
-3781.2500,181.2209,-14.4469,164.3025,-186.1963,134.2954,-146.3489,110.9290,-78.4328,26.5365,-106.7341,167.0084,-167.9254,140.2120,-270.2592,52.0505,-174.8321,144.2517,-152.1677,329.6579,75.1086
-3773.4375,203.7760,-14.9692,182.6813,-168.5306,148.0728,-130.8402,165.9108,-63.9418,58.9407,-91.6968,170.8537,-191.0041,121.6391,-218.6298,107.2380,-195.8264,130.2813,-239.7973,280.4737,168.0718
-3765.6250,194.4871,-20.0123,170.2169,-215.7394,146.9049,-147.2067,81.0674,-116.3273,2.5523,-143.5072,176.4193,-170.9462,147.2389,-123.8713,59.6102,-211.6840,156.4666,-182.3011,306.4536,230.2058
-3757.8125,226.6553,-15.7756,203.2071,-188.5166,128.4588,-155.1450,39.6814,-124.2785,5.9331,-113.8658,188.0446,-179.4524,143.3015,-168.6687,92.4496,-182.0979,118.1090,-225.3694,266.9060,226.8005
-3750.0000,103.2423,-38.4987,146.6100,-209.9173,149.4823,-216.7072,128.7187,-112.8547,75.5093,-28.8282,110.9894,-131.5782,85.7814,-230.0816,107.7188,-133.1162,134.1552,-142.0721,247.7706,279.8063
-3742.1875,106.4893,2.9374,115.6777,-140.6917,71.8622,-140.6438,-12.5686,-109.8069,2.4972,-25.1487,77.5855,-55.0701,18.9262,-116.8568,3.6581,-92.5012,102.8684,-72.1449,180.3033,213.4789
-3734.3750,144.9036,8.7288,118.9063,-105.3275,62.7572,-141.4454,-9.7033,-110.6256,12.8033,-25.3181,94.9700,-56.4148,59.2323,-80.4889,80.7563,-129.7591,69.7376,-144.0830,114.0036,217.3067
-3726.5625,103.6697,9.7463,113.4991,-150.6272,78.6429,-149.9152,-14.4632,-119.1140,16.9682,-33.1317,80.9502,7.5847,54.9024,58.2073,75.2241,-248.6860,97.9623,-13.6925,176.0639,176.5001
-3718.7500,158.5882,53.5447,103.2487,-64.7927,18.0110,-54.2515,-62.0672,-24.4703,-22.4070,-47.7873,68.8349,28.7306,-30.2708,43.0450,26.8463,-152.4724,11.3467,36.8393,90.2955,55.8556
-3710.9375,94.0719,49.5637,71.5614,-28.4238,16.8230,-17.0540,-57.1128,-23.2905,-29.7267,-45.8849,51.1948,66.4155,11.1186,-65.5756,32.0332,106.2818,16.2819,37.8977,24.0931,61.7678
-3703.1250,70.3102,74.6681,51.6332,13.6734,-25.0689,31.8748,-151.3846,-10.3771,-105.0717,-69.2267,36.4629,113.8408,-8.7257,-16.4531,-99.0113,155.7622,27.9754,114.6954,0.6607,-31.5598
-3695.3125,28.7647,80.3757,45.9155,108.9623,-11.7207,58.9876,-47.4470,-20.2736,-78.4904,-42.3640,19.6373,141.4631,-13.3642,46.8572,-103.8479,73.4248,-49.1257,104.6882,-77.5623,-72.6917
-3687.5000,-99.4780,102.1421,-50.4946,186.5424,-39.5937,105.3870,-34.1871,25.1149,-66.5623,4.8099,-76.0398,223.3777,-110.6923,203.4422,-200.3636,46.3876,-2.9276,216.9643,-65.4747,-95.5195
-3679.6875,-73.0241,173.2610,-91.1996,315.8090,-113.8064,208.4720,-111.2150,128.1954,-130.1235,-2.3101,-97.3514,288.9835,-187.3125,269.7239,-350.1725,39.0418,-47.0251,239.9379,-74.6640,-208.6459
-3671.8750,-216.1075,126.5840,-129.4441,343.5074,-94.0206,238.9959,-39.7793,195.7210,-49.0931,67.0332,-148.2078,283.0259,-188.4736,154.4554,-279.5234,108.1245,-85.6706,303.3430,-78.3825,-246.3275
-3664.0625,-349.1933,119.0434,-263.6825,382.1853,-188.3236,320.5016,-138.3149,314.2309,-58.6130,149.3983,-253.3107,401.0636,-249.6264,236.1798,-340.8551,227.2018,-184.3181,411.7311,-141.0878,-344.0036
-3656.2500,-337.8757,119.4761,-251.5164,424.2537,-230.0211,366.3930,-162.4505,360.1368,-71.2215,122.1778,-263.8644,409.5005,-273.3726,318.3008,-290.7769,383.6814,-243.5728,277.5057,-201.3854,-367.2798
-3648.4375,-356.1568,130.4638,-271.9484,402.7121,-243.1386,340.6729,-220.1651,371.4339,-90.1955,171.3666,-285.5628,457.3318,-294.7032,440.8134,-349.2721,395.5621,-191.4369,361.6550,-254.2772,-314.1474
-3640.6250,-230.0985,188.3133,-249.0330,524.5077,-319.1818,397.2885,-418.5173,391.0692,-164.8548,190.9195,-245.2188,438.5243,-307.6766,459.6802,-399.4024,341.7832,-241.9534,412.1561,-375.8141,-363.6569
-3632.8125,-243.7385,145.4496,-227.8188,471.6047,-291.4623,377.2046,-360.5710,334.0038,-119.4341,208.7935,-236.0520,419.0196,-249.3532,403.8427,-267.2242,359.2976,-256.1787,358.9543,-459.0487,-341.8685
-3625.0000,-327.4825,131.6968,-276.7077,453.5956,-304.7133,397.0133,-372.7126,354.8372,-107.6507,193.5921,-280.1755,475.4135,-262.1314,423.9000,-243.1316,343.7082,-270.5071,410.6496,-404.3680,-390.1768
-3617.1875,-391.9211,86.2485,-269.3015,454.8838,-311.8100,400.1262,-328.5554,356.9777,-44.2426,307.7116,-305.0911,478.1101,-254.6169,390.2718,-198.7419,383.4073,-370.5366,341.6494,-434.3737,-419.1951
-3609.3750,-473.2614,34.2974,-356.7922,404.2641,-294.0430,345.3339,-233.2837,376.2154,42.3152,363.9458,-353.9700,458.9111,-232.0019,372.7403,-102.2316,439.2040,-382.4668,326.7260,-375.2731,-359.1197
-3601.5625,-351.9051,81.1244,-376.5779,416.3359,-346.3393,358.2238,-326.2956,388.1381,-17.3046,340.8938,-331.9688,471.4202,-251.6809,458.9011,-159.0103,378.7094,-402.6956,337.4973,-395.4679,-378.3452
-3593.7500,-256.8921,89.8563,-316.7094,401.0577,-306.3859,339.7588,-266.6612,333.7084,12.0662,324.5106,-270.7806,416.5882,-191.7087,404.7123,-62.1367,287.8663,-343.2849,216.9143,-406.0129,-317.9301
-3585.9375,-297.5839,56.9593,-287.5453,356.0768,-271.2060,327.5930,-274.7161,284.5764,13.4723,313.4578,-267.8303,367.0618,-198.4366,355.8283,-69.9425,276.3171,-314.5853,311.6243,-377.2550,-288.2105
-3578.1250,-243.4344,49.6740,-264.5436,370.9443,-278.5332,309.2782,-288.9299,303.3021,15.5594,296.2872,-239.0630,311.4007,-176.3264,300.8124,-10.8968,295.6252,-366.0431,292.1935,-393.6407,-338.6440
-3570.3125,-234.6837,53.5632,-257.9515,305.4190,-241.5553,274.5730,-208.5458,232.6358,18.1840,262.7376,-237.0072,350.3515,-169.6257,303.4034,-4.2432,335.5406,-322.9131,295.3615,-385.4249,-294.4818
-3562.5000,-194.8495,148.6280,-288.2685,375.9952,-311.9293,350.9680,-350.0595,308.0762,-99.9142,266.3111,-245.1235,462.4167,-235.8300,490.0996,-291.4769,338.5656,-247.6831,331.6382,-346.1031,-324.2234
-3554.6875,-247.4219,138.9460,-272.9911,424.1816,-318.7132,398.9645,-334.9794,356.1206,-102.7400,278.5045,-268.7662,437.0937,-294.4401,501.4060,-350.1140,424.2013,-265.8617,238.5208,-364.1839,-271.3811
-3546.8750,-267.3055,107.1087,-296.0132,366.0675,-288.2819,334.6589,-320.1874,328.8654,-83.4923,216.4215,-273.4535,372.4785,-280.3421,401.4107,-262.0366,434.5357,-215.3456,285.0949,-313.5644,-219.8450
-3539.0625,-212.3441,113.2379,-275.1895,380.8031,-296.1023,351.2013,-336.5425,308.4645,-75.1022,270.2123,-243.9202,351.7256,-259.3947,307.2679,-278.1113,414.7075,-267.9861,264.5332,-295.0886,-235.4703
-3531.2500,-249.5811,64.9081,-279.5629,304.3471,-235.2966,268.5549,-232.0991,262.8734,31.9346,372.8199,-240.3018,305.7862,-190.6527,298.9361,-172.3928,295.6786,-199.8374,258.7755,-226.8185,-166.3116
-3523.4375,-221.0337,97.4876,-284.1478,292.6947,-272.3916,260.7142,-345.8524,328.0904,-11.4736,292.2538,-243.7752,333.6585,-231.1228,401.4216,-175.8726,251.4591,-136.8944,316.8323,-128.7453,-243.3606
-3515.6250,-146.7447,92.5133,-203.9941,328.8082,-230.9210,261.6348,-266.8680,330.0711,-29.9044,185.4616,-174.6498,225.3023,-187.8633,255.6721,-133.6123,327.0005,-168.2107,211.6550,-159.9231,-273.6787
-3507.8125,-200.8630,58.4507,-227.2471,269.5298,-204.5202,235.1658,-216.2754,302.6606,5.6019,269.2994,-190.2137,197.5583,-174.0155,229.5245,-192.7415,300.1512,-117.9351,223.0743,-109.5083,-222.4077
-3500.0000,-137.4457,89.6091,-231.9604,294.8110,-237.1013,226.2510,-258.1363,330.8105,7.9606,372.7144,-177.1027,225.3820,-178.6257,256.9417,-271.3259,254.8626,-160.1170,247.0603,-80.5470,-263.5974
-3492.1875,-195.5295,77.5888,-222.1852,266.6060,-200.7084,231.8487,-137.5057,299.4712,75.6566,452.6567,-205.4386,267.7238,-205.7451,226.8702,-261.4089,262.0889,-148.8151,219.5487,-70.0943,-216.3030
-3484.3750,-192.7286,129.3356,-217.5219,301.3013,-213.8172,232.3524,-169.9683,300.0400,-13.8111,454.5311,-210.9878,303.9811,-274.9702,300.7032,-549.5789,226.2272,-75.6254,287.9446,-31.7429,-248.1172
-3476.5625,-132.2843,114.7033,-153.2178,286.6577,-186.5174,255.5121,-105.7873,287.2749,-40.6233,369.0910,-160.1962,253.9117,-246.5642,288.2021,-522.1108,177.0195,-157.7959,238.0052,-112.7408,-293.3032
-3468.7500,-206.6912,51.6938,-159.7719,208.1815,-129.3076,244.8302,-39.4578,202.6704,33.0311,359.8268,-159.5738,243.0178,-143.0225,240.8691,-309.4962,91.9640,-126.8327,230.2146,-152.5981,-226.3561
-3460.9375,-197.2152,16.5256,-149.4435,178.6234,-179.3276,215.0610,-139.2391,209.9806,76.8300,478.4879,-175.0460,176.0576,-168.6084,247.4622,-260.9941,99.8261,-117.9755,165.3454,-108.5586,-251.5200
-3453.1250,-209.6009,-33.7246,-127.9803,126.2364,-175.1916,120.4657,-81.8907,189.4632,182.8259,680.3277,-195.9050,118.2771,-185.0701,154.2272,-203.3528,190.8593,-130.9871,77.6434,-121.3779,-193.5542
-3445.3125,-244.1649,-30.2267,-165.6885,123.7133,-201.1747,79.7363,-118.6917,221.8134,210.1382,751.0485,-246.7248,150.3676,-258.6943,186.8553,-203.8590,186.7589,-130.1616,144.8088,-120.3503,-156.7494
-3437.5000,-180.6007,-31.5130,-173.2645,147.3582,-231.4428,105.1777,-163.3580,210.3405,217.6915,740.9586,-230.1469,102.6343,-230.1815,175.6514,-100.2286,212.8179,-138.2033,63.1532,-163.1803,-163.8175
-3429.6875,-234.5456,-98.2145,-158.3530,55.5204,-174.3415,5.1351,-37.5305,111.3856,310.5841,753.4028,-249.8968,39.4181,-214.1803,150.9564,61.9014,224.3889,-86.7682,5.0113,-111.5241,-111.4073
-3421.8750,-120.0592,-87.2567,-146.0102,25.1454,-182.4263,-23.4462,-26.2537,82.8978,319.6168,726.3336,-224.5457,-26.3243,-239.7471,121.7307,110.4784,159.4206,-78.8968,10.3435,-68.4299,-172.5634
-3414.0625,-41.9318,-117.5329,-66.0337,-6.5485,-109.0896,-57.3547,127.6513,48.0848,405.7654,766.9464,-161.6888,-134.3892,-196.6872,-58.8260,227.6855,89.1245,-141.3944,-56.6539,-60.7034,-129.0951
-3406.2500,-117.6759,-157.7706,-74.9252,-85.0647,-53.5979,-70.0906,192.7022,35.4384,424.0682,755.7437,-166.5997,-147.2693,-167.5027,-108.2143,219.0322,39.9920,-112.7583,4.5191,-30.8422,-63.4927
-3398.4375,-11.8416,-101.2726,-75.2382,-53.9556,-88.7494,-37.2022,118.3337,31.4141,334.3298,643.1810,-134.3649,-114.5168,-167.7511,-74.9749,182.9609,0.4669,-113.5348,-34.6747,-102.3855,-63.3136
-3390.6250,5.9281,-81.5971,-96.6157,-4.8701,-70.5327,-62.3425,133.9028,-66.6334,307.3749,583.6006,-120.0961,-102.7889,-115.0719,-62.7730,198.8362,-24.0851,-96.3813,-20.9070,-153.9948,-10.2084
-3382.8125,0.3722,-5.2193,-98.3156,126.9241,-128.0296,-30.7684,-51.8292,-34.9569,209.6639,505.7604,-118.9803,1.6614,-117.7037,-30.8500,123.4156,-28.9131,-66.5478,39.5809,-160.9090,-85.4197
-3375.0000,65.4506,10.9857,-67.3847,152.3884,-148.5588,32.4747,-94.9285,-8.6098,155.6488,460.5987,-69.2769,28.7922,-49.7010,32.7444,117.6331,-2.0820,-144.0778,-75.2568,-236.1791,-91.0097
-3367.1875,72.1085,23.9937,-63.8665,85.4727,-144.9239,-3.6634,-127.4270,29.3537,108.2640,462.0572,-66.5664,65.5532,-83.1112,33.9599,-25.5512,-0.6466,-137.0182,-36.4776,-194.8598,-13.0223
-3359.3750,209.1908,88.8860,-32.9202,113.0343,-159.5421,-13.3252,-206.4914,19.7951,46.0948,417.9998,-10.2316,56.8021,-88.0973,-49.3540,-104.3083,-83.7416,-106.5202,-45.2094,-164.1027,18.3875
-3351.5625,197.8092,56.8896,26.5593,29.1826,-55.9404,-31.4080,-110.0246,-71.1832,57.2971,291.5247,46.9280,1.6332,7.4379,-102.0990,-8.5371,-210.2610,-12.4901,-24.3685,-104.8181,78.3127
-3343.7500,191.2061,82.4031,59.8171,53.1608,-41.2964,-1.6620,-150.7703,-79.3313,-34.4255,137.8733,59.6406,-5.6997,-33.2571,-0.0099,-121.9738,-179.9591,50.3291,105.2992,-42.7495,1.0139
-3335.9375,176.7871,76.8185,120.2518,71.3759,-37.1016,55.3167,-128.3414,-21.2492,-46.0495,86.4520,64.8203,-21.7930,-82.7837,-15.6909,-135.2312,-86.4400,0.3287,52.1970,-21.4947,-48.1182
-3328.1250,53.2981,24.7205,100.6165,14.5636,8.2607,32.2629,0.0303,-7.1947,50.6670,176.0260,15.1136,-7.9043,-102.3812,-75.4114,-80.5411,-145.9539,-17.7416,102.0568,-4.3045,-30.3267
-3320.3125,74.8372,37.0399,88.0053,32.8191,-11.9800,16.2791,23.4430,12.9350,40.2957,160.6899,9.4610,12.0690,-114.9518,-91.0573,-92.8134,-124.3943,-67.7835,48.9962,-19.0806,-79.5098
-3312.5000,53.8095,-28.8159,100.8236,-61.4442,54.5633,-10.2241,147.2828,-50.4575,59.4798,61.8299,34.6806,-51.4705,-28.0937,-118.2301,31.3497,-40.3625,-89.3993,-10.5823,-39.4330,-29.2736
-3304.6875,96.0563,23.7996,34.9234,-58.3730,40.0414,-6.3977,118.4090,-45.5234,23.2522,-5.7020,25.6833,-10.6781,-56.9592,-39.0811,-34.2003,-146.0177,-12.7289,98.1746,71.4904,-57.7547
-3296.8750,195.6849,37.5129,68.4052,-31.8625,41.6914,23.8673,187.8949,-53.1536,20.7617,-47.8093,55.6581,-90.4446,-97.4593,-119.4937,-37.3865,-152.2706,-53.6721,19.3829,66.7968,-97.8641
-3289.0625,91.7513,-13.5579,66.3173,-67.8672,116.9958,-17.3796,296.8076,-57.2989,57.6774,-50.4359,49.1323,-132.7249,-62.5421,-197.4265,-39.1492,-120.0569,-52.1840,88.0735,102.5308,-25.5535
-3281.2500,7.4311,-7.1306,53.8538,-50.1921,108.0307,40.0528,210.3528,0.2395,-30.8886,-175.3721,43.9612,-74.3164,-38.0060,-102.6847,-125.2833,-135.1588,-32.0592,140.4527,123.9051,-74.6250
-3273.4375,-15.9596,-44.0742,102.3169,-111.5312,173.4075,48.4713,295.8244,-28.2394,-41.8145,-311.3273,96.2008,-102.9204,83.4471,-56.9736,-39.4949,-236.2810,14.0005,7.8154,135.2174,-62.7924
-3265.6250,8.8785,-36.5025,127.0088,-160.5921,210.6169,-39.8288,320.5405,-116.4364,-51.0271,-362.0031,126.9088,-81.2416,145.1274,-108.9904,-14.4702,-250.1322,73.2908,-5.5422,194.7593,-37.7416
-3257.8125,116.1920,-38.6447,165.1762,-162.1239,196.0769,-78.6002,284.7357,-155.0965,-79.1449,-398.1573,176.7496,-157.0213,183.2773,-184.4724,24.0255,-179.4654,39.0622,-112.3579,160.7848,-36.2264
-3250.0000,28.5393,-103.7789,144.3739,-251.5711,240.6837,-175.2834,374.9611,-213.6760,3.0957,-346.2314,148.7242,-179.7199,236.4516,-242.8761,150.5544,-91.7293,91.8621,-133.0984,178.8337,17.3081
-3242.1875,-5.5535,-99.9891,149.1418,-218.3925,194.4600,-174.3339,231.7758,-176.6265,-36.5833,-343.6737,140.9891,-141.7812,240.1904,-205.6453,118.6680,-52.3758,57.2465,-99.1999,214.4728,-51.5787
-3234.3750,55.6770,-85.7243,212.2332,-194.8237,192.3576,-187.9978,257.9098,-153.1826,-12.9072,-318.7313,166.3097,-155.4480,230.2388,-218.0263,182.1036,-139.6552,47.9569,-250.9129,135.4435,-25.1492
-3226.5625,75.8848,-56.2208,191.2980,-212.2213,177.2261,-246.6283,201.0323,-174.7054,-22.3735,-266.7583,155.1961,-105.0732,209.2546,-166.3920,125.5227,-234.8975,102.6437,-234.5977,154.3887,65.2547
-3218.7500,174.5159,-3.5487,219.7781,-150.1352,122.5695,-183.7791,45.5853,-148.7485,-85.9002,-275.3052,180.1183,-115.2110,164.6835,-177.2847,80.3671,-208.6565,130.7606,-243.7893,77.7691,94.0787
-3210.9375,114.3216,-63.4430,190.4328,-177.8173,146.9895,-215.6942,89.3202,-181.5562,-19.7114,-232.6246,161.0242,-184.1132,208.2846,-208.9526,198.3956,-56.1878,141.0516,-271.7503,87.3247,175.0706
-3203.1250,40.6908,-66.6002,77.6576,-148.8710,82.6523,-183.9813,14.6405,-148.7323,-9.9386,-199.3135,75.4154,-151.3801,132.4655,-139.9919,197.0079,48.9006,136.9240,-172.0696,119.4627,136.6378
-3195.3125,45.1904,-50.1158,45.0096,-110.7401,65.5156,-145.0795,92.0758,-146.7196,23.5334,-195.8308,44.3106,-76.4585,99.7713,-100.8496,274.7412,51.1465,34.9306,-240.1940,52.7284,141.3179
-3187.5000,-33.4348,-59.2008,-0.7555,-122.6758,62.4030,-158.2401,81.3933,-122.7737,55.2630,-133.4253,-1.5118,-16.6039,88.9504,-4.7810,301.3549,1.3094,60.8160,-146.3822,9.8696,167.8666
-3179.6875,37.3538,-26.7368,1.9010,-89.1280,4.7171,-83.9125,-23.8646,-48.3363,5.7953,-129.5473,13.9999,-14.2547,56.5412,34.7756,232.3871,-70.0486,26.1380,-147.0688,-25.5524,98.8303
-3171.8750,22.2745,-59.0924,56.6828,-105.3931,73.4909,-140.3925,103.9979,-104.7032,56.3428,-186.5011,42.0790,-71.7142,111.2476,-23.4831,361.5456,-126.2312,45.5926,-270.5685,-4.8451,153.9011
-3164.0625,36.3136,-9.2600,34.5871,-129.4773,63.6759,-165.6868,80.9970,-129.8849,19.5996,-246.2830,19.3440,13.0143,52.0743,-11.5602,301.8423,-77.2336,130.1813,-223.8837,77.9922,168.0874
-3156.2500,105.2297,15.7052,-2.6350,-98.6216,36.3326,-95.0398,80.8726,-132.1300,-34.6308,-321.1381,29.0376,10.6822,50.7647,23.2880,265.0052,103.7038,92.6479,-228.2593,40.7035,131.1367
-3148.4375,66.6784,7.1598,-41.3281,-103.1743,39.8292,-63.8038,78.2758,-100.7948,-56.7339,-361.4157,22.5579,42.9372,84.9780,55.7091,262.6971,135.2129,53.6442,-163.0546,2.9326,128.7083
-3140.6250,123.8400,39.0320,-16.2970,-12.9438,-10.8252,-1.7834,-78.5984,-76.6724,-116.8770,-298.9214,63.8882,29.9818,111.9174,6.9097,142.1128,49.4891,5.3806,-109.0479,-46.1065,45.0012
-3132.8125,94.1300,-12.2389,60.8635,-44.5217,48.0557,-37.5696,34.6393,-112.3578,-39.9380,-222.2623,86.9740,-41.7864,151.9802,-102.7090,219.6415,51.9334,9.2508,-210.8533,-75.0169,85.4051
-3125.0000,69.4917,12.3603,70.1035,-35.9685,60.8014,-67.2198,-28.0339,-103.9085,-109.2058,-286.4894,96.8338,2.5824,161.1089,-58.1969,119.2448,59.5034,55.2093,-130.5274,-64.8442,131.8855
-3117.1875,206.3268,83.7218,139.8176,29.1211,62.2286,-36.3281,-69.2432,-109.9185,-200.8385,-438.2051,166.2469,-3.5020,156.6940,9.8599,78.3126,-57.3984,86.6580,-172.6499,-104.1865,127.8333
-3109.3750,178.8488,71.4848,145.2084,-36.0470,127.4271,-68.6955,46.2295,-179.1931,-145.5907,-470.2039,162.0996,0.1551,161.9418,13.6408,158.0553,-199.5774,163.7884,-132.0369,-26.8565,170.4432
-3101.5625,180.1467,101.6895,115.3755,-0.3804,93.4903,-27.2304,-21.5163,-174.6366,-175.6569,-464.3792,138.8312,5.6494,94.9597,-54.7588,54.5759,-121.9380,200.7078,8.4150,45.2531,66.8226
-3093.7500,88.8794,55.5799,129.9669,11.7761,120.2039,22.7230,31.1517,-124.5897,-168.2888,-449.0840,141.8552,-17.3638,146.3998,-77.6718,33.5106,-70.8325,143.0533,-14.6426,-12.2100,45.6157
-3085.9375,16.0290,46.3794,126.9753,7.4191,153.3078,55.1648,28.2529,-92.0563,-193.9651,-452.3188,148.4714,-21.8882,180.2583,-45.1058,-79.1292,-112.2453,210.8327,86.7906,20.7508,42.8304
-3078.1250,96.8413,68.7121,178.6541,52.8016,106.5678,31.3487,-30.9743,-42.7825,-202.8027,-400.8422,161.4157,-46.6705,120.7854,-68.8111,-102.1053,-25.9266,151.2997,25.9756,-3.6109,-16.2909
-3070.3125,148.2858,61.6486,192.9664,-3.1253,130.2781,7.2219,57.4287,-28.8294,-138.9939,-313.7120,171.0820,-69.7676,98.9401,-55.8485,-86.4554,-48.9447,131.4017,4.8409,47.6521,35.2029
-3062.5000,162.2052,109.9019,172.7577,9.4807,72.9645,22.6219,-73.6767,22.6524,-217.2272,-334.0759,152.8351,18.6698,41.5643,69.6389,-216.3261,-70.4466,144.9927,87.2474,60.3933,-21.8269
-3054.6875,130.0536,96.4907,213.4792,11.0730,82.4007,63.0108,-68.8671,-10.8792,-220.8203,-329.4805,164.9870,22.0957,82.1049,36.1093,-211.2825,6.0295,182.5195,18.6450,28.0631,-53.9412
-3046.8750,32.1312,85.7495,148.4306,52.9479,73.1486,32.6881,-23.8273,-41.1287,-174.5639,-248.6229,89.4047,28.8056,16.8697,42.8544,-240.0174,49.7913,225.2822,60.3226,35.9615,-45.8323
-3039.0625,100.9801,131.6330,111.1500,120.6580,3.2314,104.2031,-135.0194,31.4611,-223.0513,-249.9470,87.0478,63.3565,-20.5954,41.4274,-276.9852,84.3805,152.8305,91.8515,-36.3583,-82.9542
-3031.2500,51.5073,103.4305,56.5488,105.1098,9.6096,122.4590,-78.5439,12.7893,-177.2847,-229.5538,55.4948,82.6476,-1.3906,22.7314,-183.2905,103.6846,104.0640,77.1159,-86.0079,-26.4111
-3023.4375,-0.9468,126.5126,2.9746,157.6512,-22.3448,140.8033,-133.0419,68.1991,-174.3616,-211.1047,7.3868,137.0337,-56.1643,114.1175,-200.5743,48.0546,121.3421,164.4712,-67.6282,-43.8437
-3015.6250,40.0851,129.1373,-28.1235,197.7377,-58.5827,182.6884,-163.0761,146.1469,-133.3230,-131.1556,11.8626,104.9637,-50.4713,83.0306,-158.3996,-58.0530,56.1098,98.3690,-61.7671,-37.8146
-3007.8125,-33.5963,81.7283,-34.9338,123.1543,-33.3207,101.9058,-95.8273,139.4205,-45.4844,-26.9000,-34.8890,98.2251,-93.4998,38.2623,-90.9436,8.1612,53.1641,129.5909,-30.6316,29.4879
-3000.0000,3.4952,100.9883,-68.9667,123.3979,-88.5046,139.9522,-165.7985,140.5238,-81.4984,-23.8380,-52.3759,136.3184,-127.7524,40.3167,-124.7168,121.1978,19.0098,129.6556,-64.7168,-4.4313
-2992.1875,-77.7838,60.4988,-82.3692,147.3279,-77.7177,125.6841,-106.1443,126.3133,-3.4931,35.8745,-94.6896,122.0959,-141.3838,-10.9495,8.1334,105.9017,-27.5076,83.4042,-145.1740,55.2696
-2984.3750,-143.8352,49.3495,-153.5470,185.5345,-101.3117,126.6987,-178.2476,127.3786,26.4044,110.8498,-144.0851,123.1510,-176.7918,-9.9506,10.2244,69.8740,-58.7900,226.4383,-106.4012,94.1964
-2976.5625,-132.8072,20.9346,-179.6520,195.8762,-120.9042,136.8436,-167.2755,137.5748,64.3953,158.9388,-148.6315,59.3348,-166.1282,-36.8355,58.3927,43.9741,-117.9893,131.6123,-95.5468,105.1934
-2968.7500,-154.4493,-55.3977,-169.4263,67.5987,-60.4667,72.3680,-46.9703,183.1472,163.4432,242.3869,-144.8503,-42.1071,-156.1350,-64.3547,141.8962,-21.5523,-139.8550,143.1612,-47.3642,188.5187
-2960.9375,-50.0176,-32.2846,-205.1267,66.4454,-109.7601,73.0222,-155.5848,220.8500,102.3110,206.9361,-118.2491,-78.4169,-155.0647,9.2537,69.4780,-20.9624,-175.6248,177.8502,21.9015,152.9273
-2953.1250,-75.8047,-60.4083,-233.0484,5.1268,-94.0336,81.5144,-73.4339,229.3872,152.6648,216.2823,-136.3428,-69.8866,-146.2240,-56.3022,152.8273,24.4478,-201.6059,150.3790,30.9432,162.1049
-2945.3125,-165.3190,-55.3755,-289.6891,20.1446,-111.1003,97.3457,-56.0040,246.2561,161.0153,233.9303,-209.7044,-16.0227,-240.1107,-39.5285,96.4461,78.1877,-186.2956,236.2417,46.2631,142.5613
-2937.5000,-130.7005,-39.4542,-249.1997,90.3468,-129.2779,137.3687,-126.4655,211.3053,107.2917,200.7240,-174.1662,-49.9689,-200.8795,-36.5690,63.1675,80.1022,-151.8376,200.3051,-24.2862,72.1422
-2929.6875,-191.1911,-64.1919,-203.8255,63.4833,-41.3964,109.3294,-8.0604,147.2885,102.4326,136.4089,-140.0486,-77.9791,-117.7719,-101.6889,35.7496,51.9452,-72.4885,209.2970,-14.9580,81.5943
-2921.8750,-175.0072,-4.1358,-146.7682,149.3445,-61.5832,129.0214,-97.9714,129.9989,9.8268,83.7898,-116.2864,-21.2599,-134.9856,-8.0831,-126.9983,-38.4894,-21.4425,225.0296,1.0574,-8.2764
-2914.0625,-87.6428,19.8220,-92.5292,132.4352,-45.8215,146.9465,-42.7076,111.9421,3.2851,28.3718,-72.6780,-3.3136,-117.0216,-27.2498,-72.5736,-130.7077,-38.2084,101.9931,-51.7419,10.0211
-2906.2500,-59.5049,17.3276,-101.5082,54.3478,-45.9316,99.6999,-52.6535,137.7137,6.3497,55.7579,-73.7065,22.4592,-127.2758,35.4029,-81.3609,-68.1098,-46.1932,129.7836,-23.7589,73.0988
-2898.4375,-23.8995,1.5928,-136.0191,19.7864,-98.7910,138.9863,-123.1190,176.0221,-5.1888,94.6448,-88.3084,-12.2331,-162.0581,148.5835,-115.6780,44.0126,-80.6882,130.1162,12.7079,38.6546
-2890.6250,-120.6630,-18.5157,-129.9015,-7.0938,-62.1275,107.9617,-43.9515,183.0116,25.0453,65.1724,-115.4284,30.7536,-156.2155,191.4403,-72.3681,86.8081,-37.5485,67.1278,55.8071,81.8335
-2882.8125,-151.3045,10.4393,-159.6534,-3.8026,-95.3963,115.1115,-110.6412,189.1752,-16.4661,71.8454,-143.9563,111.9205,-186.2382,197.4705,-175.9296,166.7700,1.7356,141.3234,94.0409,15.1454
-2875.0000,-88.9130,36.5626,-129.3784,25.5666,-107.3560,109.3468,-79.3110,184.4202,-19.4123,104.5630,-115.5778,143.1669,-155.2370,82.5818,-180.4776,198.8022,-39.9358,29.6094,17.3094,-26.5208
-2867.1875,-147.6474,8.2237,-156.2206,-0.1353,-88.0278,81.5148,-71.0974,119.5901,3.0881,150.1722,-128.7768,151.3441,-110.3522,90.6099,-172.1408,169.7518,-29.7184,74.8222,27.4533,18.6908
-2859.3750,-131.0536,0.3423,-136.7294,18.5341,-114.7534,66.0616,-159.5538,140.1343,-27.1939,135.1225,-113.2585,135.8978,-90.1329,148.0125,-151.4765,117.0768,-82.1577,92.4188,-25.0695,-33.7690
-2851.5625,-180.4176,-47.8318,-117.2017,3.2803,-71.1986,11.6853,-66.9809,86.7512,25.6931,118.1160,-111.6570,82.5225,-33.8834,130.4841,-21.7893,136.4720,-62.5622,7.0898,-40.5637,-14.2048
-2843.7500,-132.5562,-3.1908,-138.4361,17.2927,-110.4278,27.5823,-125.1660,65.6371,-11.7753,134.3526,-125.1442,134.4222,-92.3947,183.2211,-116.8703,115.1338,-48.7228,56.0359,-26.8239,-35.4036
-2835.9375,-88.6587,-2.5060,-92.6366,26.3811,-97.2588,36.5591,-116.3287,74.5984,-9.9749,106.6274,-81.6455,106.3997,-46.8782,118.0305,-70.9391,87.8577,-74.8367,-40.9297,-18.0435,-26.5732
-2828.1250,-184.0158,-51.5162,-122.0933,-34.7573,-52.8072,-30.6832,-36.7633,43.3324,70.5617,149.6413,-117.5778,76.1521,-41.6240,-22.3944,8.7060,93.3447,-31.2090,-31.1245,61.4724,52.9887
-2820.3125,-174.0887,-36.9468,-111.2684,10.4225,-79.1398,-55.6038,-133.9127,92.3874,32.1438,124.9389,-114.8710,51.2281,-67.0902,-47.5047,-16.3779,105.1476,-20.2793,14.0186,36.2882,27.8354
-2812.5000,-164.8195,-50.9856,-66.1032,-15.0230,-46.9055,-46.1454,-88.7338,64.8169,45.4405,134.5657,-94.1678,23.6734,-58.2258,-38.2470,-7.1404,77.3124,-11.0010,23.5416,10.4432,37.0063
-2804.6875,-102.1678,7.3297,-69.5542,13.9494,-53.1772,-13.2654,-130.1560,24.6675,-0.4648,131.5760,-73.0415,57.5385,-61.9716,31.4295,-121.5146,-0.1141,87.6702,158.4874,37.9815,-40.4396
-2796.8750,51.2629,64.1804,22.7791,61.7502,-59.7839,42.4397,-147.7981,43.3427,-59.1304,39.3730,11.5509,39.2305,-43.9346,-60.0715,-139.1153,-54.7283,64.1343,100.2667,15.2997,-169.1055
-2789.0625,-48.3231,6.8919,27.1009,32.5753,-15.1882,10.1692,-33.4520,48.0339,3.5832,81.1560,-15.1465,6.9488,-39.9143,-92.5623,-97.7345,22.6808,35.5918,72.0601,21.5981,-127.7870
-2781.2500,-75.8305,-10.3880,-37.4938,5.5155,-58.3398,20.0208,-61.0150,94.8388,19.4079,128.0269,-65.9699,16.7915,-103.8079,-9.9371,-125.2734,106.2116,-26.8509,114.9769,98.9868,-155.3775
-2773.4375,-125.7401,-92.9987,-55.5039,-78.9186,-4.4323,2.4984,104.9947,76.2652,98.3426,146.4819,-61.1871,-37.7453,-13.1141,-27.6878,2.7614,87.3491,-112.6971,-5.4799,83.9590,-100.3872
-2765.6250,-153.7127,-111.9954,-88.5757,-141.3889,23.3176,-67.0529,108.9460,44.6543,106.4234,114.8740,-64.6486,-33.3203,28.5252,50.5230,44.7391,-55.5499,-69.6002,38.0315,126.8685,-22.4584
-2757.8125,-54.6492,-66.6453,-58.6100,-77.7972,-22.2148,-73.5349,-8.0694,38.1120,49.7856,108.2976,-31.4592,-39.8277,21.2055,43.7977,0.7400,-62.3790,-76.4505,-3.3759,83.8220,-29.4956
-2750.0000,-67.5388,-58.8297,-74.5995,-89.1379,8.7994,-87.9412,86.9479,22.6369,74.6644,129.7514,-45.5065,-18.2727,4.9227,-44.8609,-15.2289,69.8568,-54.2557,19.2812,71.8151,28.5008
-2742.1875,-72.3461,-13.1330,-114.4980,-58.3653,-2.7149,-54.2308,47.0557,20.2778,-28.9135,16.2806,-48.6398,53.4012,1.7309,25.6040,-164.1097,140.1990,-22.9583,121.0596,66.8983,-11.4111
-2734.3750,-23.4133,6.7209,-25.6546,-44.8227,24.6818,-1.7499,24.8853,-1.3192,-115.1102,-152.4610,17.3676,68.8518,52.2772,40.8350,-150.2629,118.3015,-44.9118,99.6122,-25.2858,-33.5923
-2726.5625,-17.7929,50.5959,-57.1182,-2.5634,-12.6907,41.4475,-43.5929,4.7958,-162.3881,-183.5154,-12.3456,111.0215,-15.4793,119.7665,-217.7298,161.1225,30.8276,140.8743,-54.7859,-28.0837
-2718.7500,74.6613,102.0790,4.2605,54.5575,-52.4125,103.5098,-166.2374,30.7788,-206.0737,-194.7263,22.5983,100.0550,-64.3930,108.5551,-266.3687,75.8030,53.4203,129.0092,-33.4414,-76.7319
-2710.9375,50.5198,56.7668,51.0344,32.0950,37.8655,77.9887,-45.5035,-32.8260,-154.2445,-256.5569,65.0805,0.4999,19.0812,82.7560,-146.6310,-61.1052,100.4073,105.5569,13.2924,-29.9921
-2703.1250,-25.6761,45.5891,48.7513,26.5891,47.4927,112.4269,-47.8276,2.5283,-141.1038,-186.4522,48.7588,34.9033,15.4993,79.9207,-222.9565,-100.0507,94.3483,241.0648,42.9682,-106.3041
-2695.3125,-35.0736,49.9103,42.2605,87.8987,26.0955,142.6765,18.6316,32.6935,-102.4956,-119.5637,31.2219,66.1247,8.7067,36.9051,-193.5160,-69.1812,14.0916,161.3915,-37.5622,-186.8265
-2687.5000,-25.7322,74.9110,13.5174,98.9709,12.3888,115.6879,63.8334,4.6164,-79.9413,-110.9480,-5.9828,112.1073,-57.3334,82.6486,-185.3383,-23.5497,24.5852,102.4728,7.6421,-141.6039
-2679.6875,97.0390,90.9580,-4.7833,81.4956,-42.7276,61.1622,8.4722,23.9944,-80.6853,-91.9037,-3.5592,57.5562,-111.9221,101.8527,-166.7250,68.5455,6.5348,50.0284,59.2905,-159.9374
-2671.8750,40.0134,11.0466,6.1134,-10.7624,12.0567,35.8540,130.2957,-0.4145,25.2248,-80.6877,-11.1591,-3.7819,-64.3153,3.2603,65.0719,79.8475,-16.3164,-7.2070,37.1301,-112.0873
-2664.0625,-34.5237,-1.9200,-34.4923,-13.5109,0.1187,70.0582,52.6152,32.6851,12.9357,-83.9929,-40.5290,29.3921,-68.2132,110.1704,61.3561,3.6555,-19.6642,131.0700,33.4652,-115.7419
-2656.2500,-36.1207,16.2444,-34.1604,56.7042,-25.1214,181.2292,15.8671,70.7516,-15.7752,-46.3643,-23.2017,67.5328,-32.1756,74.0533,-12.4362,-32.5795,-91.0611,95.3206,-39.2569,-152.4571
-2648.4375,-150.8224,-35.1797,-82.9354,12.8336,14.9013,133.3181,77.0067,58.7281,30.5292,15.1417,-47.7348,55.5911,28.7532,61.8565,-24.3416,-44.9025,-64.5672,122.4769,21.9081,-91.2814
-2640.6250,-141.8394,-23.7792,-72.0249,21.6658,-27.3447,146.1161,-22.1580,108.4101,-7.2710,27.3247,-50.3824,68.3666,3.3775,148.3756,-86.5557,-32.5062,-56.3710,131.3495,30.7716,-153.4103
-2632.8125,-109.0059,-4.9920,-74.2734,56.3586,-58.4508,144.7783,-24.4908,106.9523,23.9807,61.3322,-61.3949,104.0023,0.8487,109.7618,21.0617,75.7571,-58.3290,24.0811,-42.5225,-155.7038
-2625.0000,-150.9828,28.9964,-117.3200,85.2536,-82.5094,174.6491,-68.6228,100.6994,12.2880,54.5171,-112.5171,170.8432,-80.4753,176.3526,-23.1244,32.2205,5.9122,124.0171,-13.6243,-162.8007
-2617.1875,-77.2721,72.8980,-74.6702,123.8591,-98.3335,219.2296,-99.0675,107.1527,-51.9938,-12.6189,-72.6415,178.3980,-74.0964,183.6413,-90.6269,2.3858,43.8543,57.6692,-46.0320,-230.2027
-2609.3750,-84.4646,61.0186,-8.9222,118.5691,-13.7036,174.9210,3.5810,26.7095,-38.2198,-56.6703,-27.3896,134.0566,-8.6201,139.0252,-62.0402,-42.3306,108.8952,87.4200,-52.3474,-201.5077
-2601.5625,-42.3679,72.3411,72.1197,161.5750,-13.6034,183.9178,-136.4738,35.5683,-125.9389,-85.4377,37.2751,70.0212,35.1494,110.7263,-164.1684,3.2669,150.2382,165.4830,-117.3596,-230.5085
-2593.7500,-2.8675,53.6003,148.5556,165.9937,7.4885,187.3272,-133.1474,-35.1599,-130.9030,-156.8251,80.0853,-0.6008,74.3082,3.8520,-51.9306,43.2662,154.9825,29.9607,-182.9727,-191.1200
-2585.9375,-36.1244,32.6928,149.2432,134.6676,45.2096,78.9982,-95.5667,-106.6334,-103.9403,-154.9826,79.4996,1.0320,111.7219,5.2328,-14.4498,7.5051,157.9747,68.6912,-110.3401,-153.4847
-2578.1250,59.7598,74.6935,143.0730,125.4906,-1.8744,73.8287,-139.8407,-75.9546,-139.5184,-125.0120,98.3712,69.8211,105.2891,36.7739,-94.8313,1.9004,78.1199,59.5871,-84.5560,-233.7039
-2570.3125,-55.5022,21.4416,93.7547,81.1674,49.0341,62.5158,32.7250,-13.4260,-85.5134,-137.2154,53.2623,58.4639,92.7118,62.1693,-70.3692,-9.8266,32.1162,85.3268,-95.9335,-209.0835
-2562.5000,-144.6703,32.4441,38.5349,133.9478,24.1311,82.3015,14.3882,43.2019,-96.7146,-118.3347,-0.9596,114.2140,37.2408,117.6610,-161.8127,-64.4375,14.2178,138.1676,-78.2182,-227.3613
-2554.6875,-90.3872,6.2762,57.7643,119.1891,33.9760,65.5472,69.4842,-10.7171,-62.7052,-99.0269,41.6254,61.4330,130.2190,27.6143,-69.8225,-117.6053,-36.2289,-52.5301,-95.0562,-208.1983
-2546.8750,-73.0577,-22.8719,74.0453,31.4858,92.3622,-102.1532,158.6270,-104.5811,-23.3651,-120.6897,59.4909,3.7036,182.2528,-66.3724,19.2117,-64.7203,51.3745,-69.1831,-42.8526,-155.9882
-2539.0625,73.8088,7.3337,117.8716,3.3314,69.5900,-93.2988,92.3105,-132.8891,-62.7655,-149.8137,114.8532,-24.4696,189.8363,-94.7980,26.7799,-130.2698,57.5295,-97.2720,-72.1020,-185.2292
-2531.2500,97.4264,-18.9029,138.4472,-7.0714,110.6193,-109.6864,185.7386,-185.4418,2.2445,-129.2104,129.5978,-76.8910,209.1734,-147.4631,157.0939,-183.0618,10.4280,-143.6126,-118.6047,-91.7293
-2523.4375,25.7950,-47.5950,98.7750,-42.7311,89.9064,-110.3253,109.9259,-150.2479,11.6511,-57.8767,86.6167,-78.5621,170.2632,-149.3763,117.1650,-75.1015,10.0806,-38.2099,-84.3612,-57.4775
-2515.6250,67.6636,-74.8742,105.6002,-34.8920,68.1332,-102.4632,116.6025,-142.5517,32.5735,-15.0558,89.8409,-180.7226,139.8549,-215.7855,123.7231,6.3637,-52.7680,-135.3011,-77.6189,-50.7286
-2507.8125,79.1320,-84.8264,40.0303,-92.4510,103.9683,-168.0012,234.8757,-171.2574,76.1415,-6.6552,76.1876,-208.2852,147.0523,-170.5991,130.8798,-21.5511,-6.0219,-123.8017,3.7222,30.6211
-2500.0000,166.7402,-17.7454,21.6086,-74.8613,35.3490,-111.3927,142.2968,-114.8147,19.7043,11.8802,66.7634,-115.6952,55.4065,-40.2548,2.1787,-76.3106,-60.1189,-105.1504,20.2095,12.1228
-2492.1875,103.8072,-56.8345,27.6400,-65.8116,59.1489,-141.3295,222.1473,-107.9192,92.0704,17.8475,44.5779,-145.6485,61.2108,-107.4481,154.9132,-69.6181,-86.7662,-201.0506,-7.8601,55.0697
-2484.3750,24.8800,-81.4879,17.6744,-108.7555,72.5460,-185.2664,174.9884,-117.0292,96.8098,7.8009,28.5478,-117.5956,88.0228,-79.6333,181.6409,-115.9242,-59.4061,-138.9569,55.0596,82.0232
-2476.5625,66.3100,-69.3792,62.0558,-102.3457,50.2171,-141.8521,109.1643,-71.7934,64.6769,-21.9192,57.3333,-109.1812,95.1827,-71.4588,188.6984,-144.8695,-88.6912,-201.5107,25.3315,52.3277
-2468.7500,99.7004,-86.7081,93.3910,-172.9873,92.6076,-144.4879,140.2896,-112.6132,75.5106,-27.7096,89.6382,-148.8181,126.2935,-112.3415,219.7041,-111.8551,-54.0261,-168.1245,22.5472,120.5823
-2460.9375,205.8821,-35.8784,96.5253,-135.8384,57.9347,-105.3328,32.2211,-109.6396,7.0937,-61.7169,121.2536,-181.6536,92.2162,-145.4285,112.5116,-109.0397,-18.5577,-95.9348,59.5710,86.6440
-2453.1250,206.9627,-48.1263,134.5559,-167.7919,68.4645,-103.2749,70.0446,-107.7606,7.1411,-60.8358,128.7375,-179.5874,93.0440,-107.6078,113.2143,-33.3188,-17.1936,-162.8493,24.4999,87.5983
-2445.3125,75.8846,-38.0772,106.4396,-157.8985,56.6019,-93.3694,41.7248,-98.0350,0.9983,-15.1207,59.7573,-60.6705,27.7260,50.0695,10.7694,-23.7277,27.0195,-83.9262,69.2760,96.4060
-2437.5000,41.0542,-19.0970,108.5715,-122.7594,24.9926,-16.2137,-30.3544,-21.0601,-30.5848,-13.1757,46.0893,-20.5003,-7.3384,16.0063,-60.4315,16.1170,28.4878,-82.7519,69.3023,61.4664
-2429.6875,44.0346,-31.6721,108.5042,-116.8190,63.5702,-52.2558,43.3592,-57.2875,-9.6222,-49.4444,58.3440,-56.5286,29.4030,-20.2528,13.1683,53.7597,31.7559,-111.7826,37.1233,135.3241
-2421.8750,33.6546,7.5847,26.0880,-57.2345,13.0011,-22.6533,-74.2683,-27.8711,-69.2923,-59.0719,42.5496,10.0910,57.8046,46.1423,-68.5766,46.0506,57.6705,-16.1676,26.5936,89.8372
-2414.0625,33.2189,25.9953,63.6168,13.2952,20.2223,-21.0972,-38.9542,-26.5014,-76.1256,-131.7596,54.1543,11.6715,58.1605,46.5011,-33.3796,-26.7049,56.5252,-122.5988,26.0070,53.2960
-2406.2500,13.6810,30.5999,80.0477,-39.2766,48.9447,-40.6460,14.2624,-46.2331,-37.0764,-115.5459,33.5967,29.1543,0.4278,27.7611,-17.2836,-83.5498,143.2658,-70.1415,77.3095,69.6615
-2398.4375,98.4920,76.2211,96.8243,45.4973,-13.6216,-21.8489,-79.1748,8.3808,-51.1254,-24.9905,41.4322,46.9906,-55.9459,8.3695,-73.8447,-102.0288,52.3540,-54.3339,20.9632,13.3811
-2390.6250,78.6111,28.9674,73.9023,26.5722,0.9428,-44.7541,-29.3176,23.2887,-19.3094,24.8478,42.1017,-11.8794,-6.0084,-50.7216,-24.1027,22.7985,-3.2586,-74.2358,-70.0912,63.3953
-2382.8125,56.2227,49.5779,12.4886,75.1359,-40.3772,-31.1706,-88.9513,36.6892,-31.6027,74.1721,0.1004,1.7507,-66.5607,-37.3099,-120.8507,72.1309,9.6344,-24.6516,-22.6434,75.9147
-2375.0000,101.6961,48.9393,22.9262,86.5500,-46.3453,-56.7364,-78.7483,10.9328,-36.1716,10.3379,12.8468,-23.7646,-56.2639,10.9594,-37.7648,47.3114,-14.6163,-119.2205,-47.3389,86.2824
-2367.1875,51.1824,20.2694,5.3739,37.9616,-4.4589,-73.3047,-23.5501,-43.8295,-6.7242,-44.5152,6.2316,-4.2783,-0.9591,30.2293,90.3178,29.4984,6.1362,-96.8064,-62.0341,141.6530
-2359.3750,139.8636,71.9451,26.0243,56.5675,-46.6666,-88.6791,-113.1522,-58.3976,-68.5280,-61.1822,26.4848,55.4137,-17.4500,15.7119,37.5935,51.8845,-10.9038,-79.1906,-114.5248,89.2270
-2351.5625,188.0086,68.5349,37.1244,35.6290,-23.7021,-111.6014,-28.3078,-118.5170,-31.9923,-49.4118,49.5258,67.5582,30.5062,-46.3539,122.3133,63.7203,-67.4973,-170.1342,-136.5679,137.2473
-2343.7500,141.3468,54.0212,24.4249,-11.1134,-21.2498,-124.3285,-42.2540,-94.4406,-19.5015,9.5552,22.2664,54.9021,-18.3317,14.7711,35.2399,50.7645,-7.8930,-110.8856,-43.4158,160.4765
-2335.9375,148.7784,43.7869,32.8228,-2.7559,-37.2618,-113.9597,-70.1096,-49.2678,-25.1150,18.6165,29.3781,28.3500,-10.0593,-12.0009,43.2591,133.9177,-35.1945,-137.5339,-71.1605,132.8076
-2328.1250,34.3138,2.0406,-12.6748,-10.3026,-12.6504,-86.4995,-6.8668,-21.9988,32.2639,44.7799,-19.7935,18.8937,-19.6693,89.3335,106.3856,125.1757,-8.4064,-74.0982,-79.8177,159.2325
-2320.3125,55.4453,57.7878,-61.5725,46.7458,-79.3992,12.5549,-92.0149,41.8651,-12.9188,70.5494,-47.1764,82.0281,-104.6701,152.2616,-51.8732,4.0416,-24.0216,-18.0717,-24.8762,74.2658
-2312.5000,95.8800,70.5428,-20.1742,53.1003,-24.4585,18.9073,22.1156,11.0282,9.3285,1.6258,-5.0111,52.4650,-63.3770,-25.4972,26.1558,-100.7924,16.6668,-82.7359,-54.6362,79.5960
-2304.6875,57.3181,58.8435,13.2243,50.4609,20.3296,-57.7345,55.2441,-65.8097,0.0589,-39.3020,-1.6184,12.9040,-67.0902,-28.2507,-14.8229,-103.6149,84.3554,-14.4097,11.5986,75.9268
-2296.8750,67.3467,71.2059,29.2173,97.4255,-20.9381,-77.7728,33.9690,-49.0425,-33.9047,-60.6273,-11.4955,28.9512,-89.2112,-12.3892,-36.2149,23.1681,59.6496,-108.4692,-47.5658,-19.1435
-2289.0625,16.3278,13.9055,46.1565,46.3521,22.5339,-96.8445,123.6185,-105.3074,26.5290,-6.9904,-19.3403,-26.0464,-72.3846,-67.5656,17.3276,151.9235,43.8776,-124.5713,-29.7974,34.7210
-2281.2500,68.2011,15.5261,27.9919,29.1804,-7.8674,-77.0150,32.1662,-11.6699,6.6537,47.5558,-3.2443,-80.1465,-90.6487,-10.8417,-75.2172,97.6055,25.9902,-35.7875,22.8621,16.4862
-2273.4375,114.8195,-28.5559,37.5730,-64.2513,11.3828,-29.4430,78.4579,-1.2802,46.4180,93.8496,31.0085,-142.4920,-44.1461,-0.3559,-29.0112,-1.9596,-33.1560,-94.2539,34.2694,62.9940
-2265.6250,3.5802,-67.3747,28.3079,-138.5350,67.6001,-73.7160,105.9018,-9.7341,43.2799,48.2963,26.6531,-112.6860,20.5195,-8.7195,-36.6418,-10.3831,-3.1680,-28.5883,98.8177,127.6487
-2257.8125,35.3683,-32.9841,64.0884,-105.7740,51.3676,-37.9498,30.4019,-10.1392,-2.7874,46.7924,50.8954,-77.8286,19.2365,-83.0247,-112.2129,26.2428,-6.1311,5.1320,95.4220,89.3617
-2250.0000,10.2077,-49.6649,71.9171,-93.9479,75.5002,-65.1260,74.9297,-74.4849,59.1048,91.3453,43.1114,-103.9094,26.9917,-183.2724,-30.7528,34.9402,3.9453,-20.0951,140.0695,134.1160
-2242.1875,18.5471,-48.8180,47.2421,-120.6194,62.1900,-89.7968,49.9607,-25.3347,63.6072,139.4117,41.6401,-92.4846,39.2410,-134.0188,-56.7899,-25.8393,12.5096,60.1713,148.2087,72.3715
-2234.3750,91.2816,-61.7981,50.9510,-117.8966,40.6162,-85.0706,53.3789,-20.7778,68.4663,105.8988,68.2001,-124.6508,79.8837,-93.3451,56.5555,-95.2041,-90.5280,-42.1583,79.7499,39.0198
-2226.5625,37.3161,-74.9708,-44.0352,-133.8710,14.6398,-69.0382,68.0968,-4.9204,120.9679,157.6893,4.0880,-71.5145,57.8326,-40.3540,145.2042,-5.2646,-108.2742,-25.2051,61.5793,90.9543
-2218.7500,-4.6590,-41.1058,-86.0197,-70.8446,-51.6337,0.9897,-48.1727,63.9347,58.9017,115.4772,-43.9341,-1.3669,-21.2078,29.6360,65.8612,100.6649,-114.0200,4.7401,54.4057,48.8914
-2210.9375,-37.1728,-70.1825,-84.5499,-67.3608,1.2773,2.4703,62.9921,29.2367,86.4347,42.7085,-27.8223,-36.7667,53.2071,-5.9221,175.9639,102.0374,-112.3167,-62.8773,20.6785,86.2795
-2203.1250,-0.6260,-43.1924,-83.0229,-64.8311,-16.8299,-32.0132,27.2175,-42.4226,56.4839,80.9909,-25.0356,2.8734,54.6762,-3.4331,104.1268,141.4596,-74.5579,-60.4688,-12.9994,87.7292
-2195.3125,116.0748,0.9782,-36.3529,-18.1576,-49.1158,-57.3587,-35.4027,-67.9373,11.9423,91.4269,17.8234,14.6630,65.2971,8.2051,77.4476,116.0329,-99.6570,-153.9105,-107.5229,98.3341
-2187.5000,39.9910,-48.0827,-47.4781,-93.2826,-1.0666,-140.5154,27.1661,-114.2566,91.0011,153.0794,-4.8664,4.6448,90.1237,-1.9728,175.9725,-4.1767,-70.5717,-124.1742,-78.8529,197.1403
-2179.6875,14.4964,-44.3365,-36.0032,-82.8282,-7.1734,-128.0917,-35.6496,-64.9889,70.9281,127.3486,-7.2802,16.2103,64.5666,9.4401,150.1166,-64.7698,-95.8910,-42.8562,-34.5749,171.5623
-2171.8750,-72.5020,-96.2083,-54.0279,-132.8874,23.9866,-108.1753,56.0311,-45.2217,113.1708,109.1160,-30.5639,0.2677,83.5179,29.3640,205.7529,27.1431,-111.7083,-94.0455,20.2180,190.4807
-2164.0625,-155.3449,-103.0852,-103.9010,-144.8078,5.1505,-46.1144,6.8754,-21.3147,65.3501,59.0301,-78.6713,24.4532,34.6406,128.4313,118.5605,199.2056,-54.3831,-1.1013,41.1590,177.5510
-2156.2500,-58.4933,-44.4524,-72.0800,-83.0424,-35.5201,-15.3585,-72.5782,-26.7098,-11.6794,16.6538,-50.8171,20.3366,-8.5269,87.2039,2.0703,231.9641,-28.3688,-9.4580,31.8022,98.3311
-2148.4375,-85.5790,-42.4197,-63.2108,-73.2299,7.8804,-5.5534,8.0088,-54.0563,14.6644,-11.6695,-38.0559,30.2723,37.3618,23.0401,47.6289,130.7573,15.6844,-34.7767,40.4939,107.1632
-2140.6250,-40.7676,-8.6163,-51.4411,-26.5287,-13.8992,46.1417,-88.4916,-2.5096,-54.7516,-72.0829,-5.5237,45.1049,51.1433,73.7725,-12.8922,71.4722,-9.3636,46.7916,16.0905,46.9075
-2132.8125,-26.8657,-47.7579,-0.5847,-47.7261,9.5203,23.9291,-38.9046,12.1404,-17.2213,-21.3800,27.2064,-13.9554,102.0117,88.6035,37.6665,86.3227,-65.3117,-44.5291,-6.2069,60.7425
-2125.0000,-81.5212,-76.6358,-59.2736,-100.4661,12.9883,1.1732,11.1378,63.2387,52.2720,65.7923,-25.3774,-36.5680,41.3351,66.8894,50.6764,64.6227,-48.8229,6.5877,43.9353,111.0163
-2117.1875,-1.7459,-29.6122,-12.5129,-55.7674,-24.0937,13.8618,-50.3652,75.7847,31.2019,77.4181,-12.1975,-23.7337,-20.8766,42.6367,25.1443,3.3558,-39.8827,-52.8507,18.5319,85.7395
-2109.3750,-51.5198,-57.2396,-66.2963,-68.6206,-8.2959,-4.0065,4.5730,20.7773,83.8395,95.5003,-36.0015,-4.4422,34.3674,-12.1634,154.0570,22.5357,-54.4970,-65.8464,-30.4159,140.8948
-2101.5625,-84.1985,-52.9842,-135.9801,-31.3776,-61.9932,1.2200,-101.3649,62.8680,59.7091,99.7025,-77.0471,0.9463,1.7184,67.1288,121.0851,101.8139,-51.0252,6.2453,5.7331,108.1454
-2093.7500,0.2778,-62.5530,-119.5197,-50.9897,-66.2147,-18.4061,-49.1575,6.1170,58.7221,42.0698,-54.2831,-55.5119,18.2171,47.5815,210.2541,192.2465,-71.4114,-117.5121,-49.9615,87.5398
-2085.9375,4.8672,-58.9424,-79.9568,-79.5061,-8.2695,-50.9262,26.1423,-63.5361,38.5472,-65.4617,-34.2407,-86.8813,20.8297,51.1415,212.5345,158.7922,37.2914,-113.1934,-44.5599,127.0286
-2078.1250,82.9517,22.3530,-69.8988,-1.5370,-61.6840,-2.9594,-109.0379,-52.6870,-38.0249,-92.4798,-14.0787,-2.7619,-5.0516,99.1856,113.3264,60.8438,45.4988,-70.3789,-38.6465,64.0237
-2070.3125,21.8820,31.8898,-24.9908,44.2831,-14.8038,5.8578,-28.3700,-79.9803,-14.6486,-83.6328,-13.1441,43.2017,2.9167,-1.9309,120.9657,-4.2632,54.5542,-93.7217,-98.8708,108.8606
-2062.5000,-29.1440,56.5732,-43.0278,63.1448,-37.6896,24.7147,-120.6296,-97.2225,-56.4174,-65.7154,-45.0697,99.1909,-51.0527,16.9813,-8.3231,14.6796,108.6516,-6.0383,-45.0454,126.7558
-2054.6875,49.4763,70.5781,3.5855,73.6436,-60.4361,37.2066,-183.2444,-85.8218,-82.5545,-55.1239,-5.2694,74.8204,-40.3568,29.5527,-33.9600,27.2633,83.3941,-65.7144,-36.5638,101.3081
-2046.8750,30.4077,52.1110,19.5033,19.4335,4.2380,16.9883,-93.5602,-105.1199,-56.1573,-75.2115,19.2813,54.7401,11.6392,46.4331,-18.2870,-101.8614,134.4201,-14.1074,14.2203,117.1600
-2039.0625,127.4836,126.8439,53.5650,82.3624,-13.6741,14.9070,-134.7100,-72.2732,-112.3576,-116.1189,50.0633,88.8055,-28.2135,7.4621,-96.4371,-178.8353,161.5851,83.6349,-28.8414,3.1742
-2031.2500,103.7190,119.3951,65.7755,130.4309,12.2787,27.9718,-48.7237,-95.2727,-71.8544,-102.8599,50.5308,66.0136,-14.9181,-163.3668,-46.4328,-91.6457,137.8930,60.5203,-52.7482,-20.6600
-2023.4375,27.0149,94.6122,61.0472,124.5367,35.3294,24.0757,-53.6848,-62.2290,-91.7650,-144.5450,42.1211,25.2612,-19.5583,-130.1646,-125.3576,-95.4037,166.2451,160.4356,45.3935,-62.4340
-2015.6250,108.4079,78.8440,113.4197,65.7313,39.0649,41.2667,-38.5456,-9.0943,-94.0753,-129.1147,94.9977,-68.3962,-4.0945,-76.8640,-183.1758,-226.0698,177.7005,101.4545,126.6392,-157.1004
-2007.8125,53.8224,18.5782,128.8038,-23.0752,89.6762,-16.5482,123.5891,-66.9694,-6.2343,-39.6777,78.0115,-89.0557,11.3722,-97.5548,-130.9922,-209.7533,157.1539,47.4501,141.8801,-141.7681
-2000.0000,59.1947,12.7720,136.1501,-16.9392,46.1551,-45.4298,20.6897,-21.9110,-47.3126,-32.2828,80.9174,-80.7783,18.7962,-89.3018,-160.8482,-128.4993,92.5642,18.3851,112.0824,-171.4749
-1992.1875,51.7216,-31.4148,125.6406,-24.6526,79.2926,-56.1572,119.9264,-32.7023,-14.1484,-80.7285,104.2287,-127.3470,118.3711,-135.9035,-25.5698,-65.0949,14.1204,-129.5140,69.4355,-109.0389
-1984.3750,-61.4029,-50.7789,77.4883,-66.0099,105.2338,-102.5324,145.5239,-79.1452,-7.6812,-90.8173,60.6048,-26.5719,144.3021,-72.1780,1.0679,-111.3307,7.0169,-31.0826,26.1373,-46.2587
-1976.5625,-51.6944,-26.8356,52.1805,14.4693,46.6901,-17.0722,45.9926,-30.7409,-19.6517,-43.0344,37.4908,-14.9427,82.0764,-96.6031,-24.4444,-135.7119,-53.2323,14.1973,-34.2910,-71.6278
-1968.7500,-88.3842,-45.9946,13.4676,14.5535,50.7261,-18.0068,80.0558,4.2764,47.1147,28.3706,4.5179,-52.7169,42.4441,-135.4133,9.6400,-137.5001,-53.8922,49.0720,34.8894,-37.4075
-1960.9375,-30.5726,-7.3508,-33.7470,38.1315,-8.4493,83.5557,-3.3715,105.7984,16.5781,56.3010,-9.0633,-61.9993,-40.6876,3.2791,-110.7715,-219.7887,-32.0551,142.4417,92.5677,-120.6830
-1953.1250,-34.5565,-22.4819,1.2323,-0.0825,-3.3648,81.3229,68.3795,104.5294,50.1639,17.4377,-12.4175,-63.0822,-42.6228,-34.8220,-2.9908,-220.8700,-0.0142,-35.9831,88.4471,-159.7663
-1945.3125,-48.2860,-30.8955,59.4752,-49.0461,62.8524,-43.6591,162.3827,-20.4965,44.3145,-35.1654,12.0987,-40.9236,15.6962,-122.6788,18.0401,-124.7018,56.2655,-50.1707,74.5668,-138.6072
-1937.5000,39.8102,-0.5809,116.5630,-30.1694,34.5439,-58.7930,72.2546,-35.6703,-20.8318,-50.9036,58.9053,-18.9189,36.8665,-138.6944,-35.0739,-103.6796,3.3930,-66.5050,21.5430,-191.5971
-1929.6875,23.8995,-35.0500,96.6447,-45.2891,46.1423,-41.9225,126.1169,-55.8356,66.5247,39.3720,44.5105,-38.9079,53.0292,-120.7044,91.8042,-159.6433,-47.4984,-116.8339,5.5166,-101.5988
-1921.8750,-22.7142,-31.2197,9.0201,-56.1126,-27.5523,-17.7552,1.2890,5.2996,68.9528,135.9725,-29.7680,22.4052,-33.5044,13.5904,40.9938,-98.2972,-59.0967,-22.8829,28.7882,-78.2969
-1914.0625,31.9151,5.3308,-44.3611,-0.6831,-81.2354,76.6621,-52.2987,62.6849,57.3949,119.8475,-47.2929,42.9775,-87.8002,34.1553,60.4174,-40.6998,-110.4451,-37.6766,13.3149,-58.7456
-1906.2500,-76.6094,-9.1143,-85.8950,-2.3972,-68.7756,72.9295,-57.0384,95.9278,92.3318,115.6008,-93.0541,76.3934,-92.2428,30.5745,129.6981,28.7411,-41.9584,30.3703,45.6892,-26.3526
-1898.4375,-82.0415,5.1005,-88.3282,62.9798,-101.4004,71.2847,-133.6613,94.2663,27.5289,76.4779,-94.4838,74.8984,-94.5792,66.0664,53.1081,101.2785,-48.3834,60.5185,4.1645,-102.8610
-1890.6250,-126.5614,-47.7470,-24.8587,19.2530,-26.0814,24.5377,-33.3925,47.5024,70.4006,66.2731,-45.1215,28.2985,41.9929,-17.5593,153.4221,54.7025,-21.9109,-53.4267,-4.4538,-76.4880
-1882.8125,-105.2355,-48.6474,-3.5346,-29.6257,18.6356,-26.3597,-12.2567,33.5918,57.7882,51.9417,-1.1183,14.5449,101.4172,-67.3320,101.5877,-106.0353,-1.5961,38.4646,51.7791,-91.2703
-1875.0000,-16.2637,-15.6714,93.4401,-8.8601,36.6437,34.3882,-26.4697,57.3381,-20.9357,-35.7360,75.1456,1.4410,123.4858,-44.4407,13.4049,-156.1280,-17.6312,23.0110,0.6673,-142.4043
-1867.1875,-83.4912,-48.3609,57.2170,-41.2920,55.6860,35.9443,11.1167,58.8847,3.5880,-34.6168,37.7331,-33.8619,88.3502,31.2540,14.0291,-117.4090,20.1201,96.3413,38.3472,-104.7461
-1859.3750,-78.6401,2.7785,29.0879,35.3751,-4.9184,81.5964,-91.1788,104.5234,-54.6070,-62.3663,1.5029,12.9279,-13.6825,77.0363,-88.2400,-71.5792,25.9622,172.7711,43.1194,-169.9767
-1851.5625,-55.5927,-11.6307,52.1447,24.2438,12.6310,105.4521,5.7088,91.3654,4.2108,-38.8776,3.0449,-37.0748,-27.5281,-8.9750,8.6857,-47.5584,49.0015,55.4139,-3.9020,-147.0121
-1843.7500,-94.8900,-21.8072,45.8509,20.7656,34.3785,63.9551,-0.7414,86.8584,-13.6515,-44.7183,5.0487,-42.4382,3.2805,22.6516,-34.7190,-15.9031,79.6787,121.6993,-9.2766,-116.4045
-1835.9375,-1.3513,-2.6091,34.4014,45.1283,-6.4045,90.3083,-49.3379,76.2053,-39.2032,-55.7010,29.7518,-52.9554,28.9427,12.1229,-9.2666,47.6007,33.2006,40.8377,-55.7975,-127.9510
-1828.1250,-40.0605,-69.2468,26.7022,-63.7556,45.2864,46.4175,53.8056,32.3118,41.2637,-25.9239,30.8833,-95.7325,95.3561,-67.6481,130.9406,77.8583,28.4573,1.7231,-24.5705,-61.7614
-1820.3125,12.1158,-39.5720,47.8968,-80.7490,26.1980,-5.5737,37.8602,54.3215,36.2791,32.7796,32.9320,-73.6144,42.6722,-46.5215,41.0808,26.0171,46.6047,20.5042,28.5525,-114.6650
-1812.5000,117.8893,7.6242,84.6823,-45.1367,15.7728,-41.9604,74.4995,17.9388,12.8987,-3.8900,65.4158,-36.8925,42.5797,-8.7966,40.8157,-47.2225,10.3549,-120.1073,-7.7128,-114.9686
-1804.6875,77.2208,59.7466,39.0161,-13.9691,-12.4914,-48.7969,28.6889,10.1173,-27.3932,-47.9952,0.3218,66.3747,-75.9754,94.4719,-40.9124,19.1123,75.6462,-54.1730,22.5795,-49.7264
-1796.8750,94.8411,97.6619,20.6363,38.5028,-85.2191,43.6701,-99.8065,66.6023,-80.4145,-65.7982,-29.4766,122.9444,-168.2319,151.0451,-96.3501,112.7434,22.2357,-36.9173,4.1788,-68.1888
-1789.0625,-39.7812,34.7755,-48.9953,11.7327,-47.4600,48.8989,-22.5555,70.8485,-20.1779,-61.8523,-71.5994,90.2669,-126.7393,118.3774,-19.0467,154.1021,29.5699,-28.9088,46.5316,9.0793
-1781.2500,-105.9597,13.5404,-80.1737,16.4068,-58.2462,91.5824,-90.8417,151.5451,-21.6768,17.5584,-76.0120,97.0312,-84.7854,125.1496,-87.2861,123.9081,-1.6463,80.5426,50.3354,-22.2098
-1773.4375,-46.6994,-17.8251,-54.8999,5.5315,-47.5891,80.7196,-65.6856,140.6985,-0.4150,43.4367,-31.8948,13.2478,-22.3865,40.3762,-25.0965,113.1600,-84.4136,34.4620,3.5927,-34.0609
-1765.6250,-72.8833,-53.4256,-84.0681,-54.7841,-17.0091,16.4203,16.0107,112.4144,48.7591,88.8764,-50.4624,-14.9815,-14.4410,50.1549,19.6280,84.9598,-74.6448,79.9292,-21.6129,10.6318
-1757.8125,-3.1856,-2.5416,-83.3424,50.8005,-76.8026,54.0198,-94.3895,151.0361,-23.2379,90.2358,-38.4274,-13.3059,-50.5976,50.8410,-90.7459,160.6583,-110.9804,79.3031,-93.9185,-25.7688
-1750.0000,-48.0374,20.4902,-95.1758,112.8278,-67.3100,80.0728,-33.3509,102.1143,-1.9672,115.0577,-74.1137,48.8216,-99.3094,39.9965,-102.6748,148.8136,-118.8705,71.1228,-136.7740,35.2688
-1742.1875,-86.4391,42.5590,-134.5611,145.2966,-109.5567,113.5668,-109.8467,99.6441,6.3224,186.3488,-133.1284,83.3840,-212.5694,110.6008,-179.1363,73.4286,-88.3191,174.3804,-71.1726,31.7516
-1734.3750,-55.8024,38.4714,-102.8985,177.8065,-123.6276,110.1050,-114.2847,133.2251,19.3082,182.7235,-120.7647,42.9848,-216.7816,34.2418,-110.5461,143.0950,-126.7154,64.6974,-110.4996,27.2756
-1726.5625,-124.3178,-65.4361,-141.3744,38.1591,-70.5511,35.4935,-6.8630,132.6667,120.8796,254.9639,-123.3581,-31.5779,-108.1441,32.7136,33.9056,215.6069,-161.2721,30.8574,-38.9681,98.6391
-1718.7500,-93.4888,-66.1150,-144.5050,-1.1565,-70.1208,-3.7725,-47.0590,93.4526,94.1324,215.5691,-92.9920,-34.8011,-39.1494,30.5305,30.7139,139.4552,-131.4817,27.3681,26.9185,58.3607
-1710.9375,-104.8594,-83.6197,-82.8411,-45.6696,19.2566,-51.2360,88.5492,8.0395,106.9558,93.9871,-43.9186,-45.2278,59.6320,19.1458,129.3123,18.0929,-70.8917,-53.3072,51.6159,82.8740
-1703.1250,-159.6879,-63.3934,-102.6298,-29.6350,23.4101,-34.1483,68.7259,26.1760,88.0630,110.9781,-64.5646,8.8830,39.9608,0.3040,35.4841,36.2722,-21.7532,68.5617,66.8694,62.9317
-1695.3125,-97.8867,-16.0120,-71.7762,69.0456,-16.0264,-0.4066,27.5623,58.9687,41.1951,107.6443,-50.5254,5.6377,-1.0646,-39.8843,-42.6954,106.0995,-28.9673,26.0926,-11.2182,-15.3708
-1687.5000,-107.9823,7.3224,-83.8213,94.8343,-13.5093,25.4401,52.4861,84.8764,40.3745,23.4325,-74.2089,31.4873,-49.9888,60.0275,19.2171,132.0448,30.9025,16.7101,-21.2182,9.4136
-1679.6875,-58.1323,66.7174,-102.9197,180.5624,-72.6206,80.2291,-40.6302,103.7323,-4.4661,4.1912,-84.0541,86.2844,-105.9511,114.8771,-36.9063,113.9415,9.7213,31.2645,-7.2656,-46.8426
-1671.8750,-46.1719,27.4489,-90.9210,123.3904,-63.5437,-16.8857,44.3403,42.6864,93.2385,128.0579,-83.1045,62.1829,-56.8089,-19.1702,85.0689,89.9165,-13.3571,-132.0760,4.7892,-35.0010
-1664.0625,-48.5034,-15.1602,-130.2196,16.9200,-50.2486,-93.3027,115.0108,4.3441,138.1995,199.6299,-95.9743,60.7729,-22.9687,-21.5168,118.7522,124.5867,-50.7387,-132.7287,3.5443,-1.4600
-1656.2500,1.9118,-3.1746,-114.7660,32.1932,-61.5019,-75.9687,57.4351,-15.2490,85.7004,142.9641,-59.8359,77.1037,30.6230,-41.1172,135.1892,141.9975,-106.3662,-117.6252,-87.9432,-22.1658
-1648.4375,-29.3216,-8.1128,-76.9627,72.8216,-0.4460,-74.2826,94.2028,-51.4842,91.2359,106.6691,-35.1957,40.7841,66.5559,-76.3702,170.9658,68.7421,-65.6424,-76.1648,-153.0726,87.4710
-1640.6250,13.8396,68.0138,-32.7513,151.8449,-31.5416,6.8022,-117.6197,-6.3189,-27.6056,41.7910,-7.0453,86.8530,0.8924,41.7626,-4.8481,-105.1096,-23.5274,107.6847,-144.8077,95.5090
-1632.8125,114.1399,113.0266,-2.3922,182.0104,-55.2395,76.0328,-160.2928,25.9980,-70.4163,37.0765,24.0499,82.0729,-40.6165,74.0482,-82.5090,-146.8184,-29.2586,102.6931,-185.3861,89.6995
-1625.0000,-14.0492,77.8120,-24.5316,160.6747,-48.6448,54.7666,-145.4702,41.8160,-20.2074,125.8711,-29.6094,97.7897,-62.6284,52.8359,-104.6670,-22.0386,18.5097,151.1948,-101.4620,67.3810
-1617.1875,14.9701,104.1809,-23.4680,190.5320,-89.0074,92.6933,-183.4314,42.8285,-45.2243,127.8871,-33.7828,98.6927,-99.4422,-19.1925,-179.6134,52.9349,47.4759,145.8917,-38.3337,-79.7337
-1609.3750,38.3415,76.8452,0.9421,144.7404,-35.2283,81.9679,-47.0442,32.1943,-4.9120,117.2752,1.3352,50.9410,-36.9180,-66.8819,-117.2162,42.2607,35.7874,99.9531,-49.8502,-91.5008
-1601.5625,32.3601,83.7310,-3.9986,103.5985,-30.1400,40.9003,-53.0023,65.2196,-59.6431,39.3257,4.0824,83.8292,-42.7490,2.0779,-196.1689,1.2293,29.7432,163.6664,-21.7165,-133.6214
-1593.7500,107.1175,71.7078,37.8089,109.2011,-30.2567,83.5853,-48.1990,33.9987,-59.3456,45.1368,49.3077,15.4676,-0.8327,7.7892,-154.3727,-30.0681,-1.5467,64.1412,-86.8225,-128.9929
-1585.9375,-41.7656,4.8058,-12.0292,31.1573,10.0726,70.6285,48.9523,-14.8664,20.4455,69.2986,-25.5027,3.4502,-50.5706,68.8499,-94.2369,-79.0335,25.5089,90.9682,10.4262,-32.0204
-1578.1250,-60.3947,31.0516,-30.6154,83.3540,-49.4350,89.9194,-42.6235,77.5138,14.2389,125.7160,-67.0034,58.6707,-143.0572,162.1497,-149.8445,-133.7616,-28.1807,109.0418,26.9279,-50.7909
-1570.3125,-39.2298,33.4636,-47.4057,71.3421,-43.0628,75.0095,51.6056,62.6908,51.9853,146.9365,-80.3240,80.6843,-157.7410,36.2440,-92.6555,-1.6895,-77.0680,25.9313,-20.7554,6.2357
-1562.5000,-54.6162,23.1317,-136.7410,56.7759,-64.6428,21.5533,71.2984,9.3190,69.0808,167.6068,-134.2515,64.1344,-211.9708,-17.2243,-109.0072,92.8335,-92.5095,81.2688,34.0161,25.7030
-1554.6875,-55.4120,-16.6867,-137.4764,21.7970,-61.4374,21.6879,106.6152,9.5432,90.6288,167.8828,-127.4485,27.1773,-175.5942,-54.0985,-36.7510,128.9443,-163.3521,11.2069,-1.5978,24.7680
-1546.8750,-160.6502,-92.0940,-178.6557,-47.6352,-4.8818,-53.6269,176.4850,-29.6806,146.0798,201.7088,-134.8551,-12.2311,-68.6702,-55.4266,33.0463,89.5796,-163.6436,45.6975,32.3440,94.3753
-1539.0625,-101.6792,-75.1818,-151.6199,-59.8770,-16.1480,-27.7480,56.5704,-2.7095,79.2199,155.7355,-78.7084,-22.4515,-6.5363,-29.5695,-13.9528,-66.6054,-140.7325,105.3772,21.4891,47.1878
-1531.2500,-93.4073,-108.2050,-70.2777,-84.8292,33.3286,-18.5763,101.9555,-30.4406,88.0494,128.0657,-31.0826,-85.3884,38.9031,-56.4238,31.3437,-130.5000,-167.5082,79.3636,-6.0520,55.3012
-1523.4375,-190.0255,-112.7915,-95.8274,-109.6868,31.9061,-6.3063,76.4496,18.9238,74.8495,103.4926,-79.6883,-38.2401,-23.5543,28.8044,-31.2588,-82.2988,-122.1841,195.4395,74.5180,29.5135
-1515.6250,-113.1994,-78.0991,-83.9240,-103.1045,-9.9909,43.4026,14.4129,105.7281,39.3455,43.3723,-61.7805,-24.6507,-47.5562,78.4710,-18.4002,-69.6499,-116.4036,167.9649,82.5484,-68.8152
-1507.8125,-165.3696,-121.3609,-101.0229,-154.5273,13.6196,27.1138,108.3707,89.5357,98.7843,27.2605,-85.7118,-41.0639,-27.5616,99.1362,111.4489,-12.0051,-97.6223,116.5025,100.5832,-86.1475
-1500.0000,-134.8892,-107.8314,-104.4656,-123.3045,-14.9681,61.4740,104.9893,86.9933,78.3240,61.8071,-92.8432,-43.8449,-67.9083,59.4425,33.9585,132.2745,-138.1967,111.6842,60.2660,-126.8289
-1492.1875,-53.2134,-93.1839,-57.7006,-75.8920,-9.6657,72.0228,114.8164,23.6480,92.2604,109.5632,-47.4281,-70.4344,-21.0525,-3.0627,80.6761,105.7249,-162.5638,18.0652,-33.8404,-80.3038
-1484.3750,-156.4810,-125.3502,-56.8776,-108.4362,33.6094,37.6143,78.7021,26.3461,95.8397,111.3745,-43.4356,-68.9862,52.8524,-1.5292,81.4481,34.2121,-89.8732,127.4881,4.1140,-42.7256
-1476.5625,-112.2516,-102.6880,-8.5531,-63.4970,8.7000,86.6950,-55.8872,75.5381,6.5882,50.6799,14.0662,-93.0455,102.2571,10.5014,-17.2629,-26.8019,-80.6739,101.4042,12.5802,-104.6355
-1468.7500,-131.8659,-118.1406,41.9177,-117.4119,69.1858,63.9251,66.6701,52.8801,26.6079,-8.8724,19.9768,-115.9565,77.8107,24.6853,-3.8277,-13.6763,-29.3212,12.4796,64.2063,-18.3963
-1460.9375,-135.4743,-72.6125,38.3921,-120.3350,32.9466,97.1537,-46.7574,86.2171,-36.9859,-85.4179,-13.8140,-45.8812,-35.6335,168.8560,-81.3775,20.4380,37.0307,114.5449,131.8379,-22.1584
-1453.1250,-12.2435,-11.3318,58.7140,-66.4225,16.1408,119.2241,10.6781,71.4003,-34.0784,-100.0981,3.2124,-23.9647,-88.2240,116.8611,-60.0687,5.4040,19.2334,62.4629,79.3303,-75.0661
-1445.3125,3.8441,-14.7254,74.8904,-85.6607,41.5143,62.1427,63.9603,15.4361,17.3803,-45.9261,10.8693,-44.2078,-71.9616,23.7072,-6.9137,-51.7760,70.2826,44.2248,95.6714,-59.1239
-1437.5000,104.6856,25.0390,71.8252,-54.1605,-10.6344,59.8015,-48.9915,49.2164,-34.8016,-12.0062,49.5595,-9.7110,-37.9387,94.3019,-83.9930,-128.2251,-4.9173,39.7199,90.7618,-99.4163
-1429.6875,32.6908,-2.9461,-4.0863,-54.5194,-8.7478,57.5995,21.2102,47.1362,6.7253,23.0601,-0.3069,-12.0712,-40.7677,92.0400,-49.9154,-56.5407,-5.9562,39.3655,54.0152,-65.5518
-1421.8750,-77.4920,-8.5959,-44.1919,-24.0858,-13.2929,92.1884,-18.7786,81.8471,-33.0676,-16.0755,-35.1677,21.3594,-43.7965,89.5656,-127.0211,13.9371,23.8029,140.7983,50.0721,-105.8819
-1414.0625,-3.8789,11.5816,34.5027,15.1350,24.6644,98.5738,24.0480,14.3471,-62.6698,-119.4191,39.3293,-9.4171,34.9849,-15.1153,-84.3196,-89.8053,28.3735,40.0353,18.9385,-137.4005
-1406.2500,0.1336,2.3269,71.6016,-15.2465,103.6075,-10.6446,172.2745,-57.7602,-29.8121,-191.3747,52.5781,-44.8009,35.1725,-50.4068,-10.2148,-162.1564,66.3516,43.6720,22.2065,-63.5190
-1398.4375,39.0495,22.1415,114.6086,-10.7376,73.1569,-3.9711,67.4243,-50.9791,-90.6849,-221.4314,68.3900,-38.3040,4.2701,-6.8209,-78.1912,-119.6164,71.2337,48.1972,26.3801,-94.7256
-1390.6250,78.3240,9.9246,153.9675,-40.8873,93.1694,-0.9586,106.9327,-84.8509,-88.5373,-217.1420,102.2570,-72.4671,43.7175,-40.8906,-75.8130,-5.7456,74.4675,-51.9232,30.9142,-55.5728
-1382.8125,41.5640,11.5276,78.2895,-42.1000,58.6414,-2.0000,31.3959,-48.7761,-83.8392,-145.9149,68.1382,-36.6908,42.1260,-42.0204,-114.4765,30.0595,72.6527,51.8990,64.4045,-57.4643
-1375.0000,68.5522,42.0735,108.3718,19.4217,17.4486,27.6939,-48.3698,-17.9660,-113.8684,-77.9418,80.1001,-6.1781,35.2927,-11.4095,-195.3806,-50.4001,64.6016,8.4645,-14.3406,-101.5953
-1367.1875,4.1512,68.6244,113.0660,61.5366,38.1114,33.9785,-43.5320,-49.5611,-116.5360,-109.3753,64.3331,71.9228,40.0616,30.7937,-189.6889,-119.2727,141.1616,15.6281,-7.4737,-60.1252
-1359.3750,100.7113,165.1066,107.7223,158.5872,-18.8401,65.2035,-159.7289,-18.2194,-210.4856,-187.8654,82.7061,140.9581,-2.2093,24.9277,-305.0395,-124.2005,166.6759,42.7290,19.3481,-139.6958
-1351.5625,199.3230,156.7979,209.4382,117.6750,21.6586,20.4663,-93.8632,-98.8436,-187.6335,-195.3188,152.9640,96.0368,63.5737,-55.8948,-204.3384,-132.0785,160.2534,-104.1170,-22.7738,-111.2094
-1343.7500,166.2985,121.1768,208.5114,49.1119,63.1872,-53.9206,-58.6450,-136.1249,-178.8298,-194.4384,157.3972,58.4563,98.7157,-94.3723,-204.2879,-132.6247,197.1874,-67.6203,-20.5422,-39.3720
-1335.9375,190.1761,131.4604,233.4947,73.4399,58.2004,-64.4198,-69.5098,-110.5144,-192.3985,-241.6636,169.0647,47.7618,87.7660,-67.9600,-179.3273,-179.2939,186.0314,-113.2278,-31.4001,-50.6227
-1328.1250,196.0187,79.5330,201.4361,9.7063,93.3141,-95.9762,81.5788,-177.9607,-64.3975,-162.9507,148.7274,-21.9912,91.7724,-172.6024,8.5762,-212.0226,156.8366,-140.8848,-25.2928,-9.9208
-1320.3125,214.6744,61.9348,148.1915,28.7598,59.7917,-147.7416,65.4846,-193.6158,-11.7434,-69.4515,122.8092,-74.9544,75.5872,-262.4551,65.2867,-153.9585,104.4517,-122.7615,-6.3829,-26.4139
-1312.5000,235.0854,13.5542,166.7064,13.5532,79.2436,-202.7672,121.1491,-247.5308,55.7603,-13.2133,142.0448,-165.1710,131.1557,-353.5652,194.7496,-135.1528,54.8295,-241.8828,-21.7173,28.8513
-1304.6875,193.4552,-14.8470,119.1770,-61.6991,107.0812,-249.8454,147.7607,-258.5097,86.1355,-22.0401,124.0567,-175.4372,157.6781,-326.7330,257.1613,-182.4013,119.1661,-213.0604,7.8999,128.0676
-1296.8750,221.5209,25.5230,114.3582,-32.2607,53.7075,-217.2334,32.0935,-225.8019,22.8606,-63.1695,114.5972,-107.0100,115.9053,-221.2189,215.2886,-186.9610,112.2132,-183.5468,-33.7832,85.9979
-1289.0625,165.0461,25.8826,125.9991,16.6248,60.9720,-168.1822,43.8776,-213.6544,26.4931,-50.8565,96.2305,-95.1441,90.5867,-172.2583,190.8651,-102.0867,125.7196,-205.5855,-55.0104,134.3877
-1281.2500,200.3379,94.1112,126.4029,51.2493,10.2982,-94.3928,-138.5802,-212.7683,-86.0999,-86.8023,92.7719,-20.5443,18.0332,-61.5602,7.2057,-64.4789,195.9811,-63.8887,-54.4823,134.5403
-1273.4375,308.8332,158.8303,168.0093,89.0568,-31.0367,-52.4178,-243.8206,-170.6885,-186.2609,-155.5517,142.6854,20.2487,21.6805,-93.6729,-98.2418,13.3179,198.4459,-130.9936,-86.7399,101.9113
-1265.6250,257.4920,133.9245,187.7680,39.0078,19.8807,-69.3003,-186.9136,-187.4621,-174.4866,-171.1518,147.3205,4.1842,41.4745,-73.6394,-115.5281,33.2569,253.0593,-75.9552,-30.8417,121.4425
-1257.8125,259.4563,115.4506,191.8278,40.2403,-5.0198,-63.8955,-219.6872,-145.9443,-160.6498,-129.4541,148.9311,-28.5965,46.5756,-32.3266,-110.4889,0.4947,219.9747,-109.6243,4.3616,52.2945
-1250.0000,192.2188,38.9513,193.6893,-24.7347,31.7575,-98.7035,-106.6566,-143.6353,-57.0159,-52.9585,134.2403,-62.5894,85.4802,-66.2223,37.3529,-32.4687,117.6991,-175.4866,8.3772,90.9562
-1242.1875,65.4361,13.7538,61.0090,-46.2609,0.1698,-84.0674,-92.1651,-54.8900,-24.5875,-2.0240,38.2453,-11.1452,25.8414,-14.6854,14.6543,18.0005,96.8818,-90.9080,22.8464,105.0732
-1234.3750,65.0574,13.6797,24.7398,-12.3929,-21.5075,-10.0467,-55.2564,-17.7596,-14.4738,-37.7019,15.6338,-11.3075,-10.3882,21.2291,52.3681,54.8474,24.4754,-126.9360,21.7184,68.6061
-1226.5625,-23.3533,-26.1441,3.4273,-65.5817,38.5785,-68.0841,69.6038,-38.6910,40.8509,-21.4351,-1.0947,4.4656,41.3369,37.0786,104.0361,33.6295,41.0220,-110.0138,38.5427,120.0969
-1218.7500,-11.9531,-4.8463,-54.0749,-51.9802,-19.4055,-15.3338,-24.7192,13.1656,0.9535,-6.3774,-30.4209,19.0201,-16.1294,126.7171,9.5240,49.1932,54.3719,-27.3062,52.1696,62.4075
-1210.9375,-87.0016,-27.5677,-60.0229,-23.8413,-12.2678,14.9555,6.5142,7.5614,32.6211,-11.7818,-50.3609,50.1116,14.9564,83.9072,114.5714,43.2937,12.2838,-67.0436,-24.6387,56.2854
-1203.1250,-127.0861,-58.5795,-64.0109,-61.7591,-1.9057,11.1859,2.7063,3.9025,37.6236,-15.2496,-54.1356,46.1425,47.9929,117.0358,146.5771,113.3376,8.1521,-36.8427,-28.4916,52.1217
-1195.3125,-37.9645,-57.2561,-41.7937,-43.4882,-32.2084,-2.3941,-10.8827,-9.5704,23.7638,8.4757,-31.5537,-4.6347,34.2329,103.3478,132.7899,135.5774,-77.7666,-87.4507,-79.1324,1.1769
-1187.5000,-111.9299,-112.2663,-12.6714,-117.3249,31.8379,-45.0806,92.4280,-52.1494,77.7094,38.0942,-25.3189,-11.5159,100.3724,58.5511,198.8986,128.7056,-80.7799,-126.1567,-81.8652,67.1436
-1179.6875,-88.0425,-73.1829,-24.6898,-94.3222,6.5764,-20.9310,6.6043,-27.8882,26.5549,26.5523,-26.8206,12.4379,51.3735,83.5883,76.8770,79.6768,-58.9371,-33.0250,-24.7431,54.9764
-1171.8750,19.5482,-37.9985,52.9941,-90.6296,10.3144,18.9053,-26.5111,-23.9400,-26.1634,30.7046,49.5722,16.0851,92.0752,50.3219,-30.4397,46.3416,-89.3841,-99.1903,-20.9157,58.5222
-1164.0625,15.5068,-24.7945,10.0380,-129.5895,32.0012,-21.9139,4.7244,-28.6507,-22.6624,-10.8061,31.5295,11.0760,49.1317,8.4097,-71.4048,40.3468,-24.4783,1.9860,116.2597,89.4240
-1156.2500,80.7221,6.0500,45.3377,-99.3131,22.1625,11.5069,-33.7707,4.8713,-65.8239,-86.0728,58.7336,-28.6899,10.4462,5.7393,-111.1071,1.5918,5.6838,32.4002,145.6941,13.5929
-1148.4375,52.4941,-29.8881,15.1895,-128.4929,68.5770,-18.5360,120.2885,11.9340,-6.1080,-114.7991,53.5612,-57.9122,54.3149,12.6071,5.7498,-64.6189,-23.5976,3.3562,117.6875,20.3257
-1140.6250,-11.6327,-17.1821,-13.8517,-52.5844,50.2897,-10.4950,91.4610,57.0886,-18.4298,-107.4334,19.0624,-14.0474,25.2890,57.5570,-23.2711,-93.7301,-52.7819,80.3909,53.7841,-8.8186
-1132.8125,-40.4679,-9.8253,-6.5959,-10.3893,40.9306,-3.1727,135.9441,27.5289,1.0099,-99.7663,-8.2089,30.1102,-4.4338,-9.1941,21.0200,-13.5441,-80.6562,-18.2753,-8.8107,-1.6344
-1125.0000,-115.6347,-33.4773,-51.6840,-49.5496,58.5877,-11.2096,201.0739,-17.3935,43.6541,-70.4620,-52.3457,57.9121,-13.5022,-17.3024,48.9669,51.2755,-50.8702,-23.2956,20.2500,63.2103
-1117.1875,-13.0910,17.5439,-89.0589,16.9848,0.7548,24.4398,90.9152,18.3668,-2.8069,-71.4707,-33.1371,57.4041,-13.8592,55.2701,11.6269,-23.2216,-53.3703,9.3726,-16.9915,25.7730
-1109.3750,-17.9846,-39.8002,-94.8757,-22.9301,30.7908,17.6283,157.2977,-24.3330,65.1468,-40.9392,-19.8579,-22.5570,53.3288,11.3840,151.8338,-29.1743,-92.3043,-30.4036,-21.6752,55.8952
-1101.5625,-34.3181,-50.4014,-111.1331,-73.2966,44.7705,1.3613,141.2384,-4.4917,46.1957,-56.8620,-14.4924,-38.9774,74.0670,-4.9706,99.5969,27.4305,-39.6860,59.3586,33.1926,39.5747
-1093.7500,46.2952,-45.2073,-64.4380,-64.7278,29.8070,50.0322,116.1499,7.2882,33.0530,-81.8417,17.0531,-100.4557,48.7603,6.6154,110.3253,38.9786,-65.1102,-1.9317,43.0209,14.2206
-1085.9375,-14.6829,-63.4691,-55.3356,-89.7655,69.4119,21.0918,161.4596,15.4575,52.7583,-146.4308,6.1729,-92.5447,56.8595,88.6006,192.4659,-26.0943,-20.1299,8.1687,53.2564,59.2763
-1078.1250,-5.2536,-21.8386,-43.8237,-46.4140,19.5352,33.5351,27.1816,-8.9850,-6.1484,-170.6152,-2.7569,-8.2494,32.3631,100.9683,168.0326,-51.7813,-10.7462,52.6517,-8.1017,-2.2477
-1070.3125,-23.1727,-34.3741,-25.6661,-28.4212,35.1109,14.6102,82.5638,-27.7871,32.5301,-115.1388,7.3815,9.6863,87.5152,-29.0255,223.2581,3.1777,-63.7036,-35.2195,-60.7945,15.8965
-1062.5000,-81.9356,-60.0602,-17.3502,-52.2900,49.4606,-13.1816,54.1109,17.5482,76.7301,2.4838,0.6179,-18.2402,95.8280,-92.8873,194.6511,-24.7238,-18.5124,10.0487,-15.3286,61.2063
-1054.6875,51.0984,-25.6471,12.7640,-25.3716,6.1090,-20.1923,-26.5218,10.6690,33.6284,-4.0992,33.3143,-61.3731,51.9493,-99.9574,150.8593,-31.8222,-60.5172,-31.8880,-22.0595,54.3373
-1046.8750,96.0914,-46.3164,20.8278,-84.5074,25.5666,-86.2625,18.7899,-17.2652,74.2481,41.2679,44.7707,-127.5529,59.0150,-93.0843,196.0151,-23.9619,-13.5704,-90.8782,-9.8399,135.4295
-1039.0625,162.0986,5.2871,15.8962,-54.6489,-1.0688,-127.3484,-21.8912,-22.2146,26.3411,72.6215,49.8350,-96.7437,18.0840,-24.2202,43.1891,7.8969,15.3833,-60.8885,19.3821,130.5460
-1031.2500,134.1126,-20.4801,58.9694,-46.8029,37.3448,-158.4493,21.4276,-53.1786,26.3817,43.9625,79.6665,-126.9449,97.1565,-55.3609,86.3702,13.7471,24.3516,-158.8960,-42.3820,173.6870
-1023.4375,19.1813,-67.9330,48.0994,-127.9139,75.9657,-170.5092,9.7985,-101.1007,32.1278,32.3474,65.0773,-102.1078,159.2884,-66.4656,111.6105,38.6375,83.3747,-62.8526,-17.0956,198.8892
-1015.6250,119.3926,-14.3558,81.3848,-62.8787,54.7159,-135.4250,-28.6681,-66.8859,-10.3945,-43.1245,108.3401,-105.1216,157.5781,-142.4312,110.0089,-0.3364,77.5554,-103.6591,-21.6594,123.2595
-1007.8125,79.2652,-21.4919,112.3221,-67.1892,97.5731,-141.6999,38.5088,-73.0293,24.5316,-48.9519,108.7831,-110.4854,151.5146,-222.7454,141.0431,-43.6656,108.3940,-107.8149,9.4346,154.2909
-1000.0000,48.8507,6.3265,44.9666,-27.8046,43.9871,-99.2899,-27.5997,7.5131,6.8806,-5.0829,50.0983,-68.1591,47.1532,-106.3796,36.7881,-74.2907,113.9383,2.7099,13.2341,124.0388
-992.1875,65.4909,28.6341,26.6636,23.6176,-1.5107,-43.8528,-45.6484,25.0912,-6.3012,-23.1713,24.1766,-12.7929,-7.1606,-13.9685,55.6010,-55.8658,24.5453,-51.7162,-38.9036,105.8566
-984.3750,-20.6526,6.3488,-64.4322,-28.7603,0.5073,-63.2216,8.5022,6.8605,26.6748,-42.0692,-41.5571,40.7687,-25.2797,39.6354,110.6252,34.7570,42.3543,2.0506,13.1573,123.8840
-976.5625,40.2569,24.3232,-106.4773,-3.0936,-59.3874,-32.5526,-70.2812,36.6646,-29.5722,-83.9207,-40.2543,34.3733,-32.3452,107.2720,68.7158,102.4254,-1.7827,-8.1377,4.2723,44.9840
-968.7500,-7.6336,-28.0827,-47.3208,-49.2347,6.7111,-45.6940,26.1409,22.6593,18.7963,-97.5778,-13.4526,-15.8312,27.7903,56.1046,165.0047,14.2796,-13.7150,-54.1185,-7.4000,68.3000
-960.9375,-74.7162,-23.5062,-45.3586,-13.5826,23.2928,-44.0490,-8.6274,24.4454,6.4503,-95.4356,-10.5087,21.7522,66.7346,-51.2776,131.1079,-56.0640,-11.8496,16.6866,-5.2706,70.4326
-953.1250,-56.9536,-44.9638,-27.5501,-30.0881,15.4237,-26.5687,9.4622,6.0716,35.1317,-40.4373,-10.7905,-32.8200,47.5281,-180.8181,149.0776,33.4435,-29.1338,-70.6545,-22.2829,88.4380
-945.3125,-114.8375,-90.4421,-54.3980,-123.2462,34.5042,-54.7437,56.8955,-20.9525,72.7762,5.9149,-55.4071,-61.0420,-15.3356,-98.0114,121.4035,80.3038,-16.0706,-22.6518,61.0601,171.8057
-937.5000,-38.4733,-11.4276,-82.0041,-48.1618,-31.9927,-8.6792,-43.4021,60.2636,-4.9226,14.5200,-64.1666,-15.0117,-116.9545,56.0410,-89.0008,15.4078,-10.7576,52.5902,102.6646,107.4420
-929.6875,-69.2111,-35.4442,-39.7182,-43.1804,27.4738,32.2755,71.2039,65.3788,44.1019,20.0328,-37.0426,-47.0783,-74.6782,24.9973,-46.5082,-162.5936,-39.5412,22.7443,108.1804,112.9893
-921.8750,-116.6934,-62.4077,-89.1825,-90.9479,45.9291,55.4824,96.0596,52.7432,52.0556,7.7961,-50.9101,-59.8991,-50.1570,48.1964,-58.7608,-175.3420,-18.0712,116.1422,165.9429,100.7978
-914.0625,-45.5842,-62.9897,-49.0468,-89.1165,22.0260,60.2808,64.5237,20.6964,20.5536,-24.8426,-17.0447,-92.1311,-10.0364,15.9851,-18.3963,11.5096,-16.9894,11.1395,97.3071,32.2297
-906.2500,-73.1617,-69.7483,-43.6068,-83.9822,47.0350,-8.6284,106.2729,-11.0647,53.3371,16.8219,-17.2716,-88.0653,31.3838,-88.9355,23.2739,89.6622,24.4005,-17.5671,68.9769,73.9739
-898.4375,-33.7290,9.1542,-35.1625,-8.8550,10.7137,36.4518,5.0273,-2.8390,-0.8452,-10.5133,-10.2770,29.9914,3.8077,-44.8684,-41.0382,-49.1794,30.7951,58.7200,74.6492,9.7345
-890.6250,-41.2017,-6.9181,-5.6220,19.3727,23.3246,28.6257,34.8791,26.4855,8.1850,-17.7476,7.0017,-14.8494,33.3195,-15.6980,-11.2522,-92.9152,23.2978,-19.8734,32.4276,2.6075
-882.8125,-139.7262,-41.2481,-37.1355,-11.4414,17.2809,33.7593,3.6746,68.7632,19.7459,61.9739,-37.6334,-9.7368,1.7732,26.4260,-79.5178,-14.7060,28.7436,91.4846,38.1548,8.4393
-875.0000,-106.5665,-54.3752,-33.9561,-11.5532,0.3972,72.5841,7.1798,107.7374,17.3981,28.4024,-25.7447,-43.9239,4.9232,65.2469,-39.0766,-11.7890,-42.1089,55.5457,37.5892,-62.0118
-867.1875,-76.1096,-80.0229,-3.4817,-87.3643,47.3057,29.7031,147.9777,65.0111,91.4951,22.1334,-19.6330,-87.8079,-1.6320,22.3675,101.6583,-55.5654,-11.6544,-19.0879,33.3328,-31.1589
-859.3750,-58.2460,-59.6797,-21.6064,-105.7718,19.1737,11.2152,93.1861,82.6751,81.8307,77.2621,-28.5196,-32.2939,-19.7867,3.8825,46.8049,-73.9517,-29.7979,32.6682,50.4767,-48.8958
-851.5625,-43.7881,-82.4388,29.8646,-91.5800,31.3232,-11.6804,107.9957,60.9329,90.6930,55.9922,-5.2743,-92.1712,-5.3422,-93.0011,98.5577,51.2553,-86.3334,-58.9641,65.2240,-34.0200
-843.7500,-126.2331,-110.8091,16.4383,-103.2818,55.0845,-62.4754,131.8949,47.2886,104.9394,79.8279,-25.4422,-104.9474,18.1972,-69.7948,85.4166,37.5676,-26.7724,-35.4959,54.0668,-10.0394
-835.9375,-28.3391,-41.6053,46.3596,-5.6347,-10.6655,-31.9325,-20.8446,76.9837,32.6517,73.0187,-2.2743,-75.3850,-24.9085,-2.2573,6.6455,-5.7618,-34.8545,-42.6775,11.2620,-52.6937
-828.1250,35.5091,6.4049,74.2252,57.9626,-16.7710,-42.4421,-67.6409,30.6237,13.6192,101.1666,27.1795,-48.8706,1.9299,24.2327,-3.1856,-53.1392,29.0169,-84.8965,-65.5859,11.6102
-820.3125,111.7629,87.6860,43.4867,98.9657,-67.2809,-36.5524,-170.0310,-0.3392,-79.6650,33.7239,20.0713,31.0399,-65.8399,67.1151,-142.6135,-10.1086,70.2861,-43.7190,-24.0364,18.3239
-812.5000,214.2091,108.6926,76.9378,95.1697,-71.6080,-40.4722,-136.2133,-41.1104,-85.9862,-6.5070,42.5067,-9.8511,-105.4163,-47.8075,-109.8364,23.1282,66.7588,-116.3316,-62.2797,15.2529
-804.6875,134.5982,63.1137,64.3297,15.3332,2.2821,-125.4463,-38.4483,-88.9305,-33.0558,-17.7779,40.2775,-21.7883,-44.0521,-132.7798,-48.1070,-25.6849,93.1781,-54.9938,34.4310,77.1367
-796.8750,126.8223,51.0890,23.5650,8.3450,-38.1787,-93.5784,-79.8214,-20.9037,-22.6222,14.8146,23.9354,-26.8723,-48.8407,-100.9025,-52.5113,-30.6444,50.4436,-63.8093,97.9918,-0.1144
-789.0625,44.7422,8.5614,46.4898,-4.9373,-7.7621,-107.0145,17.5015,-35.1795,15.1866,1.1174,-3.3082,-41.2565,-62.9362,-78.3329,7.7891,103.0923,38.4090,-145.9128,86.2600,23.3457
-781.2500,24.3712,14.2158,24.1106,-25.5179,-18.5698,-92.7548,-41.4727,-20.7583,-20.7439,-56.8736,-17.7807,-26.9527,-84.3319,-28.0831,-14.1954,80.5325,88.0694,-95.3194,101.2272,38.5158
-773.4375,126.5987,52.8195,23.3239,7.5011,-47.1296,-58.9060,-78.8397,-21.7469,-27.5899,-58.2532,6.7784,-28.0525,-86.1316,-29.2327,22.4314,5.5735,85.3293,-99.1202,63.7981,1.3000
-765.6250,25.7703,-10.9458,25.4795,-24.5269,10.2297,-92.1057,34.7348,-55.7829,44.7610,-18.6669,-9.2853,-62.1973,-46.9930,-27.4311,99.0041,-65.4344,54.5381,-93.9617,68.3260,41.0367
-757.8125,-28.8630,-15.7144,-29.1643,-44.3574,-31.1006,-38.1103,-19.4790,-0.6228,15.8573,1.1331,-48.0238,29.8521,-64.6655,65.5609,44.7886,-84.2360,-35.0565,-8.6064,14.0586,-13.0121
-750.0000,-51.5026,-45.7441,-17.8205,-31.1909,-23.0546,-63.1166,29.3022,10.5368,58.7464,123.9538,-42.8481,40.9030,-16.3465,39.5506,56.5723,-36.0243,-162.6521,-66.2327,-78.2053,35.9524
-742.1875,-62.9968,-44.3193,-67.3371,-42.8642,-27.7823,-75.9719,16.2267,-3.1517,48.1304,147.9364,-51.9096,64.1039,7.1199,-11.3097,6.5070,61.3491,-174.1079,-7.7069,-54.3212,60.0742
-734.3750,10.7929,-38.8719,-61.5646,-4.2416,-43.5415,-71.5298,-13.5405,-33.5457,13.9756,81.2237,-16.6364,-3.3950,50.8830,-41.8699,50.7500,68.0304,-170.2554,-39.8747,-121.1278,-6.4895
-726.5625,-62.9726,-81.5753,7.6510,-78.1616,27.5316,-148.6356,93.1354,-74.4905,61.1760,39.9705,-12.2290,-8.4353,83.0815,-46.9755,156.4396,63.1548,-103.9488,-111.5817,-88.4716,26.3996
-718.7500,44.2564,-2.4525,10.8633,-42.0811,-22.2102,-109.7427,-14.1842,-108.4356,-0.6682,43.7277,-0.5979,31.5254,12.2766,-7.0841,13.1411,-7.7194,-31.6454,-76.2850,-15.8173,-6.7048
-710.9375,161.2727,51.6871,94.8645,-31.1959,-13.6091,-99.0465,-39.7070,-133.5766,-62.4159,-55.6925,65.3050,42.2915,23.2606,-33.3991,-12.3648,3.2158,14.4585,-170.1688,-4.3574,4.9972
-703.1250,105.0358,65.1432,109.6071,-51.5494,20.4680,-120.5977,-24.4879,-155.9601,-86.9194,-112.3405,53.1160,93.8084,0.9786,55.0328,-71.1331,-56.0902,99.3080,-85.2952,45.8571,20.4505
-695.3125,228.9309,146.0447,94.4868,37.2515,-26.9680,-63.9959,-39.1116,-135.1900,-127.0687,-163.8201,57.5871,114.4723,-88.1622,39.6155,-122.7449,-108.2413,82.3068,-102.2632,29.2299,-30.9340
-687.5000,154.5118,118.8063,88.0545,33.7612,15.1189,-70.6902,64.9532,-141.7114,-65.4014,-133.5836,31.7937,107.8383,-94.6188,-78.0961,-55.6650,-77.6863,79.0090,-104.5109,-9.6921,36.3827
-679.6875,84.7885,115.4031,51.3123,68.9827,8.4220,-70.6810,-8.2831,-141.5328,-99.2544,-132.6356,20.7406,143.9092,-58.3811,-78.1145,-126.8756,-41.4223,44.4020,-0.0540,27.0787,37.4029
-671.8750,95.5548,73.1401,64.0578,44.7102,21.3120,-95.1705,41.9806,-165.8559,-70.9778,-83.1703,48.0959,83.4868,28.3444,-102.6304,-78.5872,-28.6594,20.2950,-94.0827,-32.6447,13.9316
-664.0625,56.3731,50.8610,57.8463,40.4959,60.2898,-137.6101,110.2848,-209.1285,-21.9475,-51.6390,34.2809,40.1193,22.1096,-145.1070,-47.2558,-34.8375,51.2320,-28.0563,-1.3144,45.5126
-656.2500,111.0288,70.3135,80.4778,60.1330,27.2989,-115.2068,23.4448,-185.5542,-40.5782,-28.2413,44.1910,-10.4007,-28.2781,-122.7400,-97.0584,-121.1448,106.0174,-7.1734,19.8627,-4.0428
-648.4375,104.6196,57.1213,109.0427,18.7273,66.0839,-122.8503,89.5396,-194.0224,-15.8954,-35.8667,61.8560,-18.9632,0.2679,-130.4038,-67.9204,-165.4830,134.7451,-49.3209,48.9956,25.3555
-640.6250,77.5035,73.7875,118.8917,26.6298,61.9190,-78.1815,25.9278,-147.1782,-49.9603,-62.1679,58.6018,-9.2171,-26.8979,-121.7669,-130.4795,-192.5130,213.7623,29.8375,57.4242,-0.9421
-632.8125,146.3252,59.5523,153.6763,59.4857,49.0000,-43.5562,-12.7352,-149.3812,-58.4062,-63.4967,97.4886,-85.5180,7.8763,-197.1811,-59.0882,-48.5980,141.7286,-7.0307,-50.1883,-2.2763
-625.0000,91.8907,18.3046,93.1963,40.1054,52.3321,-66.1742,0.3390,-173.8234,-9.1892,-48.0605,59.6219,-108.0584,20.3861,-184.8388,65.0454,38.0620,122.4428,8.8665,-67.0502,85.1366
-617.1875,103.5389,29.5901,71.8052,52.8354,20.7471,-52.6891,-93.4807,-121.1704,-43.5438,-69.5090,73.7820,-57.4882,72.9850,-132.4015,81.2864,-20.1634,64.2551,56.8685,-90.8151,27.6539
-609.3750,1.2705,-20.7154,37.4999,20.6840,33.2722,-13.1034,-17.2090,-82.4129,22.8465,-65.8409,38.3537,-17.8067,111.6661,-93.8642,231.6197,-54.2696,-2.8305,-11.0088,-121.4787,31.2685
-601.5625,-142.5985,-53.3180,-40.4178,16.9490,37.0382,-17.1072,16.4560,-50.2487,46.9553,-68.7462,-36.9600,15.2767,71.7275,12.0753,228.3508,-57.9661,-6.5235,91.5218,-90.7465,28.2781
-593.7500,-97.1333,-17.0447,-27.0028,98.5694,-4.8833,33.2415,-43.5248,0.2715,1.5518,-55.2793,-23.2537,28.7116,48.1259,25.3739,131.4365,-7.3076,-65.8704,33.4141,-113.6614,5.6432
-585.9375,-71.9781,-18.3645,-6.9022,51.8976,33.4881,16.2996,14.1856,-51.4951,22.3142,-32.0947,-12.5438,11.8545,31.2103,-27.6154,116.2100,13.0590,-41.5228,57.0246,-88.8785,100.7046
-578.1250,-49.9867,35.5658,-53.9629,76.0877,-20.8894,43.2173,-104.2555,-26.4105,-55.5163,-42.0425,-30.9939,75.8517,-15.8699,35.2415,-41.1677,40.2910,17.6695,151.4925,-65.2439,54.6233
-570.3125,-76.9159,37.1448,-4.9379,119.3868,-9.1818,91.2415,-56.6012,-51.2195,-43.1450,-66.8637,-37.5224,86.9579,-40.8679,47.1958,8.5385,88.6392,25.9680,125.0873,-126.4997,-6.3543
-562.5000,-143.0025,58.2582,-36.0670,159.5470,-19.8793,97.1217,-50.1027,-8.1732,-21.6262,-22.8172,-76.5941,166.9140,-72.0270,51.9965,-21.9189,57.8371,30.1135,165.5467,-86.9013,-36.4875
-554.6875,-77.0481,94.0644,-3.1560,224.7601,-61.9290,168.0523,-126.5464,61.9232,-56.3306,-24.6927,-56.3875,163.9188,-112.1415,85.8421,-61.3223,18.0830,-9.6953,126.0695,-126.2499,-75.5668
-546.8750,-140.0038,71.1189,-33.1597,198.0826,-33.0302,137.0910,-45.9063,68.1308,0.7712,19.5630,-85.2468,170.0332,-106.1776,165.7937,-17.6422,-48.5618,33.5908,134.7163,-117.4929,-31.5508
-539.0625,-155.7270,85.5426,-83.9281,217.6647,-59.8622,196.3919,-96.0170,128.6037,-16.5496,43.0883,-99.1427,192.3996,-119.9778,187.9975,-104.7094,-98.9513,18.1178,224.6298,-61.4804,-81.2862
-531.2500,-90.9762,85.1698,-53.2160,247.7518,-82.9977,190.2042,-101.6258,159.5870,22.0180,149.1364,-80.9332,150.2710,-126.2929,34.7027,-73.2791,42.1714,-57.8576,149.0703,-101.9559,-86.5242
-523.4375,-95.4812,45.9988,-96.7673,172.6068,-91.2623,147.7840,-70.4959,153.3331,81.7052,217.9522,-120.5529,106.8997,-169.8746,28.1616,-5.1148,220.0660,-62.0911,180.2749,-70.6829,-55.0244
-515.6250,-28.3473,58.2377,-95.6845,170.1208,-139.0560,185.0217,-142.7142,190.7321,9.1565,146.4449,-109.9614,71.1836,-205.8176,139.2721,-77.3035,295.6263,-64.6771,143.1384,-72.7626,-126.8739
-507.8125,-88.7184,-7.2883,-125.1144,145.1501,-98.5262,156.7667,-60.4469,125.6372,66.0682,155.4638,-113.6231,4.9756,-124.2766,147.8834,40.9961,229.6860,-89.7667,118.5252,-97.3463,-81.2277
-500.0000,-147.4950,-21.6995,-149.9538,122.7908,-125.3920,169.1147,-121.5792,175.1484,72.1923,242.1124,-145.0479,54.3715,-149.1445,196.0873,-19.1014,169.3371,-148.2675,166.5200,-84.3304,-67.9829
-492.1875,-120.8462,-10.4394,-160.3614,149.8851,-132.7768,195.9196,-131.2580,165.1188,62.8617,234.2398,-121.6817,81.2244,-85.5721,186.7489,8.2567,85.4442,-191.3262,87.9839,-127.8617,-40.2829
-484.3750,-131.3089,6.6099,-172.8846,103.8886,-117.3352,144.6336,-107.0503,114.0007,79.5619,221.2944,-151.5057,140.9827,-136.1187,209.3204,31.5032,145.4716,-131.4948,148.3687,-67.4921,20.3128
-476.5625,-92.7905,69.2007,-238.4238,177.8974,-192.8169,154.3527,-207.8374,160.8862,-23.4230,195.3797,-176.2639,187.7461,-200.6808,218.8898,-179.2511,339.5145,-127.6657,258.7634,-63.1182,-116.0890
-468.7500,-219.9379,25.4693,-221.6329,227.2688,-163.3217,245.4348,-116.2848,178.1291,38.4181,287.8338,-208.2129,167.8724,-220.9124,161.8111,-198.6681,393.9149,-184.4860,307.5361,-84.3903,-172.1464
-460.9375,-325.5438,32.3071,-256.3004,263.2060,-177.9311,321.0802,-187.1923,253.9259,-6.5280,254.8533,-233.2081,207.5576,-218.6016,237.2882,-306.5439,285.8768,-113.7633,344.8720,-47.1161,-205.6635
-453.1250,-278.2224,66.9533,-168.0373,276.0988,-175.7380,299.6852,-208.1483,232.6807,-48.1334,197.8459,-191.8139,259.1978,-204.3483,289.7212,-327.4748,190.8041,-101.0968,252.1827,-34.8876,-263.2325
-445.3125,-313.7599,23.1863,-169.6331,206.1531,-109.0202,261.4534,-61.9650,158.6007,3.6776,198.0110,-181.7784,257.9927,-131.9649,288.3136,-254.2769,116.8883,-136.2839,252.6634,-33.5024,-226.6622
-437.5000,-216.5582,64.1491,-176.4860,197.9636,-160.2870,254.9820,-142.0255,225.2756,-32.0644,228.9500,-170.4395,288.5436,-175.8419,318.6511,-334.3335,147.7230,-179.7266,280.9051,-6.3696,-269.3435
-429.6875,-195.7296,27.3684,-192.7051,149.4365,-157.9927,276.1743,-120.4466,209.6161,-30.8307,178.5693,-156.0560,235.7569,-118.0846,302.6443,-238.7573,279.2072,-193.5224,196.8285,-54.5795,-247.3780
-421.8750,-216.4154,22.0255,-251.4427,94.4223,-138.6080,253.8814,-68.3804,224.4731,-19.5643,157.7239,-180.8855,213.4800,-140.8413,243.1408,-260.6895,331.2037,-107.8348,283.2700,-4.2887,-231.9222
-414.0625,-195.7733,34.1930,-227.8454,150.7600,-140.5493,278.9451,-79.9549,286.6884,-4.2090,147.2550,-151.3250,164.5506,-116.2590,156.9860,-235.2695,171.5692,-86.8030,199.0754,53.3528,-280.1156
-406.2500,-273.5384,-76.3064,-165.6669,37.7029,-12.1796,194.6196,130.0572,275.5161,126.1774,174.4088,-115.4671,7.2228,-17.0911,72.4455,-62.2587,14.5501,-59.1771,157.5019,116.6018,-216.7198
-398.4375,-227.9119,-101.9726,-153.1003,14.0538,-39.1477,170.7040,32.4742,288.7548,91.5006,225.9841,-80.7175,-53.7042,31.4690,122.3068,-122.8430,-9.0628,-118.1617,169.3377,93.2463,-239.9321
-390.6250,-161.2574,-125.5932,-121.5022,-23.5364,-49.1542,128.8490,28.9428,284.0517,106.6798,259.6314,-52.7850,-95.5722,63.0646,80.2204,-53.3836,133.3811,-192.0984,61.2482,54.9411,-207.0982
-382.8125,-211.0641,-160.1344,-176.3692,-73.5612,-50.9383,74.5581,84.9470,229.9100,188.3880,352.8540,-106.7487,-76.8816,45.1916,98.6860,39.6150,152.3966,-206.4952,47.7217,76.1817,-150.7224
-375.0000,-134.4443,-150.1971,-169.8031,-66.1330,-77.7445,81.7295,55.4008,237.2240,180.3443,361.5536,-94.2314,-105.7382,14.7598,69.6095,47.0627,159.8778,-270.4494,20.6534,48.8781,-142.8915
-367.1875,-133.7850,-149.5026,-137.2013,-99.6502,-28.2116,40.9616,88.8907,197.5999,182.2068,286.3243,-71.2979,-109.5361,47.3637,28.6046,117.5458,120.4074,-198.3557,-12.3441,50.6281,-35.0153
-359.3750,-103.4306,-97.7427,-142.9118,-68.4573,-42.5488,35.9062,11.0767,192.6815,121.3483,246.8215,-68.1480,-77.6236,4.6555,60.2997,2.7279,5.6448,-133.5694,88.3662,81.0688,-39.4419
-351.5625,-11.6475,-68.5138,-45.1904,-45.7989,-21.3777,23.3112,34.7066,143.2168,114.2279,198.7890,-8.9761,-90.2451,28.3831,10.4427,63.3564,-117.6469,-110.3386,-28.4491,33.9521,-51.4161
-343.7500,-36.9211,-72.4438,-37.5329,-71.1722,19.1585,-41.3157,80.2651,77.7174,123.3755,171.7187,-10.9940,-81.9087,36.0470,19.5415,71.9199,-144.9833,-65.1599,17.7092,79.7852,-5.4498
-335.9375,51.1423,-4.0146,-53.5383,-17.1874,-45.8187,53.4225,-81.8198,99.5725,-17.2607,48.0191,13.0647,-23.2174,20.0481,39.9929,-53.1731,-12.9714,-82.6287,71.2383,27.9725,-57.1382
-328.1250,54.5943,13.5544,21.8455,23.2067,-0.9623,56.5738,-41.5192,65.8376,-44.7100,-21.2544,53.9624,-20.1157,59.4271,-67.1472,-49.8899,63.4406,-42.6936,7.2003,-36.4345,-16.4411
-320.3125,52.5462,44.2442,19.7227,22.1136,-3.2306,-17.7581,-42.7252,28.6167,-40.7528,15.9937,25.7435,15.4809,-15.7079,-68.7905,-125.1190,26.3642,25.7380,76.6691,32.6640,-17.2586
-312.5000,86.3351,29.6313,19.4410,20.8701,-25.9232,18.7629,-42.0746,65.2494,-2.4443,55.1071,28.8798,-21.0681,-16.9975,4.4224,-50.5047,-46.8532,-10.9783,5.9999,31.6197,-53.2313
-304.6875,48.8662,4.3592,-20.0979,-49.6153,-1.8530,17.0458,29.3184,99.6372,49.4366,90.9829,6.1080,-23.8577,-19.5439,38.3928,-16.1536,-86.3142,23.0514,41.0940,66.3189,-18.4657
-296.8750,61.4298,38.9714,-42.5930,32.9546,-74.2344,69.3800,-139.2337,153.0731,-17.2664,70.9254,-2.8646,-8.5911,-42.0422,54.4022,-73.7492,3.2895,36.1246,54.2449,44.0628,-75.6495
-289.0625,57.6827,-13.3199,25.5974,-4.7637,-14.3961,27.4264,-33.0971,74.2178,1.4028,31.5912,37.5028,-86.6193,26.1490,-23.8809,-4.6656,35.5990,-3.1093,-52.8690,6.5081,-43.1375
-281.2500,-14.6738,-40.5610,-13.8289,-76.0696,26.7325,25.8977,38.4259,71.7841,-10.6367,-43.3190,16.0000,-89.2448,22.7238,-26.7513,-44.1937,-2.6960,31.0472,17.4345,41.3557,-8.2360
-273.4375,47.0999,-7.7716,13.8787,-47.2203,7.1201,54.5321,-5.8950,64.5102,-65.5093,-121.0593,39.7430,-59.7177,14.4365,-34.4666,-51.5755,27.1623,-11.6442,-24.0947,-0.6405,-15.1874
-265.6250,12.9153,-43.7217,9.6286,-116.3127,40.7218,14.2262,63.8249,-12.7036,-18.4576,-86.7416,28.6199,-63.1336,47.1880,-39.1306,18.0700,97.0817,24.7163,-92.5534,0.4157,91.8933
-257.8125,33.1256,6.2194,-5.2218,-59.9972,-19.9063,0.3290,-60.0454,-26.5160,-73.4696,-62.0168,-2.8831,-4.1513,-41.6607,94.5946,-104.8882,120.3997,45.4746,-35.6071,21.8700,78.3632
-250.0000,39.4206,-2.9840,1.0241,-52.5812,-11.8408,-29.4668,-16.8136,-55.2267,-42.8946,-16.1734,5.5564,2.9335,1.5871,137.4210,-61.7577,90.8166,17.3351,-97.5445,-5.5736,85.9227
-242.1875,38.7678,20.1439,0.3152,-52.1088,0.0647,-65.2009,-16.5347,-54.8833,-33.4520,21.7367,7.0550,40.0693,0.8766,64.3012,-97.5934,54.2810,52.2353,-26.4247,30.0300,86.5205
-234.3750,133.0565,49.6056,65.5478,-26.6873,-11.9070,-35.9737,-97.3011,-62.5822,-70.8534,15.6166,70.1539,-3.8403,29.1079,-90.8690,-142.4799,10.6924,76.0833,-36.3439,55.5883,6.0681
-226.5625,104.5411,7.3694,107.9653,-89.0554,69.8904,-102.5308,57.1186,-92.0690,-11.4362,-12.2875,92.3632,-71.5408,71.5166,-156.8272,-63.1859,-92.6867,119.1258,-96.0374,99.3480,49.8045
-218.7500,150.6151,32.3434,154.9726,-111.8130,86.8559,-127.4718,31.1331,-80.9474,-57.4742,-109.5755,120.5940,-60.6359,45.5116,-110.1771,-88.2952,-154.4449,129.7636,-50.1273,145.7021,61.1342
-210.9375,149.3716,10.2250,189.6622,-146.8676,116.9730,-128.7088,103.8461,-155.1216,-47.5394,-219.1405,131.9444,-61.0257,80.1972,-74.8264,57.2962,-155.4942,130.1009,-188.5026,111.7619,97.1609
-203.1250,6.1777,-35.5908,147.3984,-147.8639,143.7031,-169.8855,135.6024,-196.2393,-5.9796,-185.6427,73.9286,-65.3582,73.9297,-79.4309,88.9287,-86.4942,163.4820,-118.8230,109.8681,166.2254
-195.3125,75.6260,10.3859,110.7808,-78.2137,72.0065,-132.4069,26.0168,-194.7056,-9.3079,-108.4796,54.1095,-64.0422,0.3164,-152.3872,53.2133,-84.8459,162.5105,-83.4891,110.6240,130.9383
-187.5000,100.1650,-22.1879,98.2544,-87.4579,116.1313,-179.8208,162.5183,-243.0643,91.7324,-8.2072,72.7358,-149.6176,61.7983,-274.2316,152.5791,-243.0971,152.6349,-127.0310,100.4851,156.7406
-179.6875,59.3015,-37.7518,57.3226,-127.0977,104.6036,-183.6204,122.6181,-208.8167,71.9376,-9.3229,64.0691,-115.5893,94.8710,-277.4766,112.5411,-282.7489,112.3545,-60.9684,131.9469,117.1313
-171.8750,49.6221,-53.4370,85.5863,-99.5362,89.9074,-116.2133,115.9206,-179.3624,70.8976,-14.2270,65.2013,-122.3570,86.1356,-211.5179,141.6921,-216.2048,33.2777,-103.6864,88.6136,73.7152
-164.0625,-55.0088,-81.0604,46.8956,-132.9098,99.1002,-117.7422,151.2601,-179.8481,113.6142,59.9256,5.8607,-87.0675,47.4382,-139.4984,140.8703,-216.6114,70.2501,-65.3399,55.3269,146.3341
-156.2500,7.3494,-28.4963,39.1977,-69.2785,47.9930,-50.2566,33.5993,-150.3311,71.3614,55.0813,10.3806,-56.7779,2.7417,-146.4788,97.0503,-223.0104,63.2196,-35.9854,49.0347,139.9507
-148.4375,36.4918,-23.0047,29.2915,-73.8482,54.3729,-58.9585,62.7327,-158.0055,78.5046,11.0495,9.9325,-65.6897,-6.1590,-228.6608,162.0225,-47.5999,56.9920,-74.8067,45.5462,205.3593
-140.6250,-31.4659,-15.3387,-75.7140,-35.5186,44.2630,-53.7512,66.7692,-116.7746,67.7777,-19.0698,-41.3725,-60.7100,-39.1512,-150.9515,92.8957,-42.2950,95.6569,69.2738,117.9545,173.6534
-132.8125,53.3707,30.9591,-57.9212,14.6079,8.7589,-34.7454,50.6174,-59.7454,49.3483,3.6199,-18.6759,-41.9339,-57.3375,-130.4458,39.5672,-132.1985,75.1269,15.1609,99.1646,83.7416
-125.0000,-12.2822,2.4015,-53.6245,-14.7608,37.1299,-29.2320,92.9557,-54.2126,88.3190,46.8156,-25.1570,-36.6523,-16.0316,-162.4344,81.7231,-126.6052,115.0957,21.5552,69.8701,89.3143
-117.1875,-28.0815,25.7111,-28.4776,41.7218,-5.6200,34.1347,-65.8503,-28.8345,3.9744,36.8587,-18.9188,-10.5194,-27.8831,-101.5715,-40.2710,-102.1578,135.9177,113.7955,20.4251,4.7329
-109.3750,-0.3401,42.2301,72.2140,70.7571,6.4408,63.0602,-74.1106,-36.9016,-36.6321,-5.5458,15.8558,18.1741,-37.1935,-73.1478,-48.7287,-73.1586,93.2982,38.5979,-91.4653,33.6954
-101.5625,-35.1485,45.4955,34.3563,72.2498,3.8516,25.4498,-73.9308,-37.5124,-18.1346,-3.5006,-22.0541,54.3219,-76.0568,-0.2733,-12.7478,-108.7061,94.1278,110.8521,-88.9033,70.0960
-93.7500,69.3336,31.7485,34.7968,3.0322,-31.0762,28.1424,-72.4406,-34.8242,-22.5914,-0.1516,-2.4199,19.7709,-74.6179,38.9028,26.5381,-70.9614,24.2613,6.4126,-123.0342,35.7933
-85.9375,15.1687,-60.8157,12.5870,-120.8412,30.0959,-66.8110,90.3920,-55.7781,65.9763,17.5478,-13.9881,-75.4356,-23.8251,16.4316,151.1688,18.1344,5.7460,-44.6703,-70.8113,87.8273
-78.1250,32.2565,-53.8441,-3.3697,-136.4675,8.5100,-82.5113,38.4816,-71.4792,71.4722,76.4923,-19.9525,-91.3947,-39.7713,-35.7955,99.0511,40.4877,58.4780,8.4911,17.6541,36.1048
-70.3125,47.9901,-73.7801,87.3195,-120.4470,58.0855,-100.5550,93.2207,-89.5317,87.5486,23.0889,33.4758,-145.6986,13.9321,-164.3631,191.5701,22.4829,4.8648,-43.6812,-0.2270,18.0261
-62.5000,7.9303,-58.2924,43.2126,-123.2118,101.2729,-105.3850,161.1476,-130.3822,57.3805,-53.1209,38.4224,-78.7941,80.8239,-133.7293,148.2681,-57.3303,35.4561,23.3542,-4.9164,49.1334
-54.6875,92.1171,11.3832,23.3561,-38.7231,48.8179,-13.9552,105.3282,-113.9770,-23.2467,-107.0762,44.7544,-23.6389,23.9588,-42.8441,19.2110,-75.8866,-20.7048,39.6434,-24.3633,-6.5115
-46.8750,37.7052,-22.5334,1.8936,-91.8307,66.2725,-35.1154,194.8940,-97.1614,67.5910,-15.6191,-1.2801,-45.0824,-34.5158,-64.5566,71.5384,-96.0316,-3.4708,22.3442,28.5865,46.2348
-39.0625,-4.3503,-15.3387,-40.2157,-62.5912,45.2127,-1.9225,153.8116,-64.9968,67.6103,54.1850,-30.5539,-49.1815,-76.6369,-68.9162,-43.7792,-136.8304,25.1096,123.3845,92.8842,5.3270
-31.2500,25.3386,-30.7011,28.4232,-31.6135,35.5311,31.0214,76.4834,-31.0850,5.6037,15.7374,34.6639,-89.5303,28.9980,-72.5208,-47.3433,-29.8885,-15.5574,14.1814,-17.0607,-34.8286
-23.4375,-12.2200,-35.8177,24.8151,-67.8900,63.5142,-7.2830,73.9024,-70.4254,-27.5178,-56.9541,45.6616,-55.1320,99.3900,-38.3852,-50.1686,77.7985,53.5212,14.7307,17.7446,-0.2428
-15.6250,80.8180,32.5643,50.8113,-8.5774,6.7798,19.0108,-83.0689,-43.1676,-120.1703,-139.0471,77.9186,7.8602,88.3902,24.3454,-97.3924,31.0850,42.2042,3.8794,6.1475,-47.0570
-7.8125,44.1070,11.7301,47.0589,-9.0107,11.3337,-19.4313,-11.7991,-8.6533,-52.6518,-102.9074,43.4783,6.1046,47.6380,21.3409,10.6168,-7.3787,5.1419,-66.7043,-29.2018,-12.6283
-4000.0000,24.2236,15.8482,44.0690,0.7665,9.9951,-14.3789,-51.9623,17.7305,-72.1133,-120.2815,42.3915,3.4525,46.0746,24.4300,-14.9728,-35.3219,38.0167,-12.6566,-32.0933,-22.8018
-3992.1875,28.1051,23.9429,12.3240,39.2412,-8.6782,25.8165,-11.9236,21.4391,-30.7143,-82.2888,18.5933,6.9717,14.2271,-44.8457,25.6945,-32.4210,7.2269,-80.4507,-28.8546,-19.3370
-3984.3750,-48.8610,-35.1466,-32.2669,-37.1389,35.7301,-56.8467,126.2719,-22.7097,56.5458,-55.1420,-28.1256,-38.3708,6.5305,-89.9855,127.5322,105.6453,36.5845,-52.1146,34.5291,9.2889
-3976.5625,-3.5893,-21.6638,-17.6156,-63.2701,29.0541,-6.2686,103.7244,-8.6163,-7.8549,-78.7292,3.2208,-24.4592,21.0805,-38.8895,-5.3750,156.9617,11.1900,27.4740,43.1696,-86.8159
-3968.7500,-0.2675,-56.7074,23.0835,-95.3546,72.8168,-3.6433,143.2207,-78.4748,-18.2134,-114.2518,65.2904,-57.4995,171.6752,-35.7483,34.7670,85.3226,14.8444,-74.8942,10.8646,-83.8610
-3960.9375,-64.3030,-81.6517,29.4338,-89.8003,102.7892,-34.3752,111.3835,-109.6899,5.3445,-73.1175,69.8385,-88.8962,214.9178,-29.9663,40.5693,-93.6726,57.1510,35.3803,51.2179,-78.2390
-3953.1250,10.1637,-62.8908,73.2800,-50.7475,79.6251,7.3925,80.0467,-103.4087,26.4643,4.5271,92.1800,-119.7925,184.6496,-96.6790,46.8578,-162.1746,26.9622,4.1650,20.0822,-109.1120
-3945.3125,-69.7616,-105.7262,58.7283,-96.0904,113.8303,-44.2338,212.3125,-118.5291,115.8829,25.7845,26.4011,-135.0900,96.9646,-148.7919,179.7459,-104.0812,17.3724,-5.4566,-24.4439,-13.3818
-3937.5000,-31.3467,-43.6579,25.5209,-23.0897,40.5735,-42.5117,102.9393,-116.3009,70.7525,63.4094,-12.7932,-59.0425,-10.3832,-146.5588,70.9956,8.3578,-14.8641,31.2735,-22.6023,-11.2902
-3929.6875,-38.6877,-33.3862,52.5627,5.1549,36.1815,-53.5400,92.8202,-125.8232,67.1681,88.2953,-15.0731,-32.7491,-20.4855,-192.0863,61.5040,108.0513,-21.8545,-46.7517,-65.4995,52.0522
-3921.8750,-88.7860,-6.4309,-3.1450,23.6382,32.3458,-71.3288,72.9728,-144.1022,39.8220,104.4442,-47.6042,21.7801,-38.3368,-100.3811,-66.7117,88.0012,69.3958,7.4590,-11.1442,106.6587
-3914.0625,7.9070,41.9047,28.9390,49.9125,-20.1025,-5.3213,-80.0653,-77.5853,-65.9326,60.4133,7.5080,53.1054,-7.3957,3.1175,-183.1177,7.7450,60.4392,-1.5271,-55.9799,27.0784
-3906.2500,42.6515,37.6976,27.0712,49.2303,-13.7108,28.7353,-46.0413,-80.0237,-39.4099,56.4481,15.1524,13.4757,-9.4096,-36.3380,-111.4573,4.5159,60.5245,-38.4758,-90.7612,61.5605
-3898.4375,76.2838,62.4062,26.0909,47.4390,-69.9761,26.6804,-158.0958,-44.5742,-31.9143,163.3959,-7.3530,48.7420,-83.5276,-37.9004,-149.8794,76.1882,59.5062,-5.5286,-58.6292,59.9601
-3890.6250,92.6164,57.2995,5.8036,63.3474,-87.0216,5.3199,-105.4541,-28.4271,19.8245,178.0553,-35.9896,27.7103,-139.9592,-58.7598,-60.6088,91.5681,5.1859,-93.8765,-42.7860,76.0639
-3882.8125,-19.1567,45.2838,-73.5857,57.1568,-81.5182,-3.1412,-39.8992,0.6145,95.0451,205.6393,-121.3438,56.5775,-220.5038,-29.7270,4.5666,45.8451,70.7609,-31.3330,20.9624,105.0807
-3875.0000,-4.8892,73.2775,-92.9347,106.0138,-111.8878,51.4474,-60.2888,55.7048,85.9150,185.2946,-136.9980,74.4982,-276.0149,25.3445,-14.2105,-47.8226,50.3923,-17.7293,35.7739,49.1571
-3867.1875,-36.7726,29.1673,-54.4382,73.7230,-57.2500,14.8914,50.1751,-17.3548,126.1865,184.8154,-127.0511,38.2618,-237.6915,-47.7402,60.8726,63.3746,17.8665,-50.2828,2.4420,87.0829
-3859.3750,8.2778,31.1429,-79.0010,48.3728,-55.5910,-10.7177,24.6110,-79.4650,81.4203,158.3088,-102.4231,12.9716,-189.4227,-108.8740,-1.0729,147.5207,29.2866,30.1100,12.0705,61.9689
-3851.5625,92.2171,14.8886,9.3244,25.9186,-29.8322,-33.4243,75.9515,-137.6704,65.0628,98.7269,-38.4607,-46.4169,-137.2607,-131.1013,50.8890,124.5518,-28.4073,-98.5920,-45.3929,39.7591
-3843.7500,14.2536,-35.3378,-1.2535,-52.4390,39.9974,-80.0352,211.4012,-184.7779,124.7225,86.2747,-52.6121,-56.7068,-111.0050,-104.2446,113.9745,2.6802,-35.0108,-70.2102,17.2455,102.6619
-3835.9375,13.7291,-22.1536,-36.3972,-18.3581,16.6829,-44.2052,175.3134,-110.4424,133.8741,86.3056,-74.1268,-92.5451,-183.3101,-103.9431,78.5215,-105.7329,-35.1673,-2.3766,122.3424,67.0266
-3828.1250,-34.5947,-44.1166,-50.3486,-67.0736,36.9305,-59.1717,270.4232,-52.9051,193.0137,106.5631,-106.8282,-107.1847,-234.4293,-118.4422,100.2690,-121.9445,-13.1341,-51.3447,213.6407,88.5924
-3820.3125,-96.9849,-20.8405,-114.3563,-60.8446,20.2112,-52.1910,278.5014,-44.4227,191.9289,149.7951,-165.3793,-26.8822,-299.6034,-74.9982,-2.0162,-78.2028,29.8407,60.6302,255.8997,60.1222
-3812.5000,-29.3852,-7.7841,-77.3756,7.3775,-1.6990,22.7857,205.5813,-5.9424,129.0478,113.0505,-102.8212,-62.5849,-224.7878,-147.5625,-37.2971,32.5487,-42.1910,22.6040,183.1793,-12.3391
-3804.6875,-122.3371,-65.7079,-66.9474,-51.9635,55.1945,-41.7938,252.1339,-70.0167,188.8857,158.7773,-94.8319,-52.8452,-104.5270,-209.6873,83.8895,-32.2497,-30.7852,34.0134,158.9237,34.6601
-3796.8750,-130.0079,-50.4660,-71.2328,-23.0166,9.6400,26.9213,136.0062,-0.7948,128.5462,115.8262,-95.9485,-20.8125,-109.9739,-105.5102,42.3942,-74.7549,-36.0875,26.7280,116.9841,-7.0257
-3789.0625,-47.9826,-59.5049,-23.8346,-47.3741,14.4294,-0.6602,145.5841,-64.8716,135.4922,88.5988,-57.0022,-48.0818,-62.7277,-58.6376,162.6107,-28.5540,-59.7049,-102.8591,58.7574,39.9891
-3781.2500,-75.2659,-59.2752,-54.7431,-74.0445,-10.7989,-33.5435,75.8891,-24.2567,157.4851,201.1010,-88.2565,-7.6587,-93.7820,-18.0794,130.5487,-60.6486,-50.6316,-59.7601,65.2388,117.7184
-3773.4375,-55.0588,-43.2417,-70.1596,-21.2214,-47.7992,23.0703,-13.2991,-3.1474,165.8248,258.1247,-88.1563,-23.7325,-109.3496,-70.0168,114.9877,-114.2511,-66.0610,-42.1573,120.2311,101.9608
-3765.6250,-163.8436,-106.8629,-111.5769,-58.4056,-2.3355,-18.3194,128.5186,-8.0482,242.4576,289.1649,-123.8989,-63.8157,-76.9272,-110.9622,184.4346,-45.8428,-69.4978,-80.5627,152.2298,134.2159
-3757.8125,-145.4843,-84.8594,-160.8451,-76.4505,-51.5432,4.4375,78.5003,16.1946,190.8187,275.3759,-153.4317,-4.7543,-126.3609,-14.7734,98.0354,86.7229,-85.7841,8.1856,135.3965,47.6413
-3750.0000,-92.0281,-96.1874,-140.0219,-58.3955,-37.0051,-12.7009,134.5841,-0.4611,201.1708,257.7035,-109.1145,-21.5946,-33.7086,5.5152,191.7242,69.3805,-171.9669,-79.9556,48.6842,31.1715
-3742.1875,-71.6318,-85.6717,-122.2532,-74.3938,-12.9753,-32.8881,152.6357,-20.1726,234.0580,311.0023,-92.2101,-4.4818,-16.1157,-14.2496,209.3704,-61.0233,-152.1956,-61.1504,67.9400,85.6569
-3734.3750,36.4073,-45.4924,-80.8398,-35.7463,-61.8366,-29.4244,45.3507,20.7592,209.8932,349.9676,-71.9568,-37.7169,-83.8834,-47.3686,176.6653,-57.7817,-147.7712,-91.6885,35.8630,89.7925
-3726.5625,-2.4997,-76.7449,-53.3775,-110.0454,-8.8446,-74.9097,109.1292,11.7346,224.7673,339.9955,-64.5804,-45.9033,-56.6073,-92.4492,205.0163,6.5135,-116.3049,-97.1844,-3.1579,190.9742
-3718.7500,-86.5692,-71.1250,-67.0725,-54.5001,-2.7723,-52.5460,22.7805,-2.4487,151.9804,250.8953,-69.5194,-23.2472,-33.4859,-69.6860,117.2367,-8.3398,-94.9945,28.1676,18.6792,177.0150
-3710.9375,-28.6890,-29.1686,-40.8279,1.9943,9.1572,-28.2321,10.3865,-14.6820,84.1974,128.7681,-13.7825,-35.6436,27.5784,-117.9778,69.4079,-57.2365,-36.7429,-20.5241,39.4712,129.0081
-3703.1250,-30.5129,-45.5795,-42.2861,-69.2158,37.4939,-66.6181,81.3083,-52.6232,100.3447,125.9557,-18.1889,-37.7467,25.9390,-46.9825,67.8950,-59.8267,-4.2005,12.0757,72.5643,127.3105
-3695.3125,15.5507,-34.7225,-26.8558,-59.5274,-15.4791,-52.1047,-12.8590,37.3345,56.8584,141.0648,-6.5842,-21.9456,6.1874,5.9066,11.2851,-8.5187,-97.7606,23.5852,49.5724,33.5252
-3687.5000,-9.9333,-80.7314,-15.9832,-84.3868,18.2665,-42.1300,34.4269,10.7453,85.7432,150.6456,27.1364,-48.6939,126.8698,-94.7484,96.1242,38.2299,-156.8771,-37.4531,25.0414,44.1903
-3679.6875,-18.6257,-48.6863,-61.3221,-58.4546,3.1389,-51.3512,25.5314,38.9516,79.7679,178.0480,0.4124,-20.6375,82.3440,-66.6049,13.7816,-45.2192,-95.2036,24.3076,51.3216,35.6633
-3671.8750,34.8261,-17.2753,-2.5194,-5.3705,-10.7800,-30.4187,9.7843,59.3069,49.0652,124.6213,16.8218,-36.4267,29.9557,-8.3093,-1.4132,-24.5048,-77.3911,-28.7723,33.7581,-16.7143
-3664.0625,-13.3790,-16.0268,-17.3728,-18.9318,-4.9354,-46.1300,68.3954,8.0096,47.4284,71.5675,-28.5853,22.1371,-22.0930,86.3251,20.7497,106.5718,-55.2373,-42.5085,20.5495,5.2630
-3656.2500,-13.3490,34.0977,-84.9873,51.7539,-95.7676,32.4065,-73.7285,49.9590,-41.1533,76.7897,-73.9682,136.9493,-89.8990,239.2056,-120.8389,258.8948,-123.8315,98.0134,-49.3937,-99.4979
-3648.4375,-114.4104,24.3688,-152.7070,125.3418,-135.3836,147.8468,-67.9515,91.8109,14.7083,191.9358,-142.3776,216.6581,-120.8143,244.9799,-77.5354,300.1237,-225.5300,136.4338,-150.4243,-130.3574
-3640.6250,-253.4259,-1.3587,-224.3844,197.9729,-136.6774,186.3389,-66.1142,167.7094,70.5172,267.1573,-206.1052,181.4151,-155.6833,209.8040,-75.1730,265.4182,-188.1881,243.8975,-148.3977,-128.1563
-3632.8125,-182.1030,4.9695,-184.7231,197.9512,-139.3397,225.1871,-100.9286,169.9587,24.1204,194.7543,-144.6731,146.5285,-80.2134,211.9941,-73.4675,230.0711,-186.5061,138.7231,-148.0107,-162.6026
-3625.0000,-138.2318,-14.6847,-104.5166,101.4790,-59.5587,120.5904,-21.1845,102.7579,35.5891,162.9254,-80.6328,116.1936,-0.2018,217.7299,-29.2050,88.2738,-142.2816,112.0949,-139.0646,-82.4977
-3617.1875,-107.0248,53.7703,-108.9705,166.3520,-102.8948,151.3479,-137.0720,133.9056,-21.6980,194.4691,-90.8489,184.2051,-77.8502,249.8140,-181.5836,8.8327,-110.7121,212.8268,-143.7534,-87.0359
-3609.3750,-65.3691,66.4604,-66.9866,207.6794,-118.2273,192.5657,-204.5086,139.5079,-43.7212,198.4874,-63.8872,152.6653,-73.0642,144.3409,-175.5132,123.8499,-104.6996,148.0132,-205.9869,-45.1274
-3601.5625,-100.6672,42.8520,-69.9562,173.0556,-99.8071,152.8335,-207.8742,136.1544,-33.4109,195.5809,-71.3990,112.1675,-76.2352,66.9000,-177.3736,230.9230,-68.6468,148.2410,-135.1639,25.8403
-3593.7500,-16.1734,62.6556,-54.1339,186.2298,-113.5415,167.8969,-229.4352,151.5985,-59.5127,99.4988,-45.9976,90.4729,-97.6096,119.2602,-125.4353,134.7898,-124.7968,126.2781,-122.5282,4.6121
-3585.9375,-22.2771,38.5373,-61.9163,109.8096,-48.2776,85.3674,-54.5922,105.4401,14.7411,53.8370,-47.2681,82.1775,-68.5877,147.0215,12.9048,15.0539,-93.5578,49.7095,-57.4878,69.7833
-3578.1250,35.1618,80.4295,-110.1562,95.9352,-77.4894,72.3846,-67.1869,130.8263,-24.3627,4.7459,-68.5782,106.4324,-153.0224,209.3312,-72.1989,2.8858,-72.7710,141.6940,0.1117,21.5123
-3570.3125,107.6037,100.3665,-69.4082,99.0673,-79.7339,113.4139,-62.7856,98.2185,-51.1275,8.6789,-24.8099,110.6913,-113.4720,176.6391,-104.3091,-30.2723,-69.9948,72.6811,-68.2844,-10.7599
-3562.5000,28.1452,58.1635,-80.5686,88.2990,-53.7381,101.5473,-37.2737,86.7128,-1.9969,69.7314,-39.8478,62.0502,-87.8252,54.0413,-78.3151,-5.3283,-44.1291,97.7599,-42.5727,15.0778
-3554.6875,48.9268,59.5252,-55.4896,109.7750,-90.8165,88.9334,-159.5112,111.4616,-68.9377,57.0515,-14.7477,49.6613,-62.9336,41.7017,-163.0807,128.8739,-93.0109,84.1011,-20.5905,-33.8269
-3546.8750,17.5613,-6.7948,-18.5652,7.1083,-53.4087,52.1823,-85.9043,74.0671,-8.0683,93.2367,-10.3861,13.1270,-26.2031,42.2227,-53.0087,164.9482,-123.0538,-18.7047,-17.7551,40.1157
-3539.0625,-3.8116,-18.0910,-76.6529,-49.5535,-48.3277,-7.5589,-71.2913,52.6726,25.4731,107.4414,-34.7079,27.6021,-11.4830,56.7516,-0.9413,69.0381,-74.1030,30.4975,33.0840,55.0636
-3531.2500,43.5081,-21.1918,-64.0521,-37.5063,-20.2196,-31.5895,15.0161,28.9825,67.7266,83.3695,-1.4217,-33.2126,38.9232,-41.0147,86.8097,-29.1673,-62.4550,-64.5845,79.6300,31.7051
-3523.4375,-72.1707,-85.3290,-38.4537,-118.4517,65.5717,-116.6114,150.3305,-56.7050,133.6782,72.3185,-18.9827,-82.0269,64.3286,-52.7900,148.5605,-41.3704,34.1843,-39.6709,175.1766,57.3448
-3515.6250,-44.2024,-51.4694,-5.2126,-90.7475,35.4004,-47.9792,72.3045,12.2591,75.8859,29.9411,-6.1948,-49.1916,23.3784,16.0828,70.9595,-82.9142,26.4679,-12.0977,168.3838,-20.3649
-3507.8125,5.0197,-79.9179,9.2667,-147.7905,61.8516,-71.0891,160.5294,26.4788,121.2122,43.8326,25.0719,-109.1069,73.6722,-42.7926,159.6095,-106.1988,5.9874,-104.2726,147.8428,-5.8328
-3500.0000,83.4799,-71.1102,15.9867,-173.5883,95.1379,-101.9462,204.0266,-3.0548,113.2735,50.9914,73.5543,-174.7778,117.2205,-110.4213,93.5284,-136.2214,49.7456,-96.2000,191.5526,37.9546
-3492.1875,177.0350,-71.3949,76.7929,-186.2878,119.4478,-150.6967,227.6222,-53.4842,111.1083,0.2706,126.3070,-262.3430,140.8653,-195.9377,153.5420,-186.1401,73.5917,-178.0152,179.3693,61.8425
-3484.3750,112.8854,-125.7494,114.8894,-250.6845,190.0330,-223.1399,302.5237,-161.6164,128.7334,-71.1336,139.6663,-297.6016,216.8068,-268.1408,265.8618,-111.7464,114.7260,-242.5400,151.4818,174.0308
-3476.5625,96.6217,-107.0880,135.8742,-231.1833,166.4041,-239.6814,176.3368,-213.8531,44.7664,-124.6194,137.9068,-239.9594,200.6473,-174.4439,177.0855,-128.4381,98.7541,-153.1535,135.4951,158.1248
-3468.7500,70.3573,-134.7161,144.8538,-222.6780,199.7942,-194.2105,222.1442,-205.0915,62.8684,-153.0884,164.1063,-268.3172,282.4856,-201.7518,259.2997,-193.1121,72.7745,-179.7607,73.5111,167.2151
-3460.9375,19.5898,-113.2308,126.3289,-204.6668,197.9983,-176.2338,166.4578,-186.8266,49.3840,-171.0402,143.6181,-213.1740,263.8187,-220.5674,242.0125,-249.2749,126.2921,-91.8637,92.0307,185.8136
-3453.1250,67.6672,-64.7137,107.6403,-120.8012,119.4486,-85.3947,36.6140,-132.7056,0.4824,-154.1303,131.4545,-159.1692,207.9914,-129.5263,186.5523,-231.5740,70.6588,-77.0955,36.4125,130.2606
-3445.3125,-25.3523,-77.1139,80.8467,-109.0226,128.6801,-75.6417,83.6710,-122.6849,40.0793,-144.3161,83.4403,-112.2591,182.0584,-45.5770,233.9810,-221.9656,82.9216,-101.4195,48.6956,177.5989
-3437.5000,-59.4825,-45.2815,10.9489,-74.3367,80.7319,-108.9775,13.6330,-118.7633,27.6757,-140.5853,27.5583,-72.4427,112.0247,-43.7181,164.2988,-145.4568,154.0815,-31.8308,189.8809,107.8326
-3429.6875,-1.2130,-48.1000,76.4428,-85.2401,87.7551,-118.8940,78.9799,-128.4329,43.8671,-149.4384,55.4510,-118.2157,103.3825,-161.4456,191.9971,-8.5355,143.6380,-182.8259,215.4706,62.4492
-3421.8750,-29.5976,-62.4793,118.2858,-148.7862,136.7721,-150.4452,157.6879,-159.7478,70.9245,-144.9263,50.2074,-112.6362,71.0811,-156.8211,197.0478,-41.2444,185.5335,-141.4732,221.4107,104.4092
-3414.0625,20.6118,-30.8730,98.7141,-132.7224,89.3959,-97.3905,63.9967,-106.4556,44.5051,-127.7895,45.1837,-96.4481,14.3647,-103.5925,141.6950,-133.3428,166.0234,-91.5056,237.9563,84.9640
-3406.2500,11.7786,-49.9901,123.0801,-142.6962,118.1113,-72.3733,125.2505,-155.2074,63.6252,-103.6835,54.9095,-108.3024,38.5934,-78.4186,166.2865,-146.4741,157.4524,-135.5856,158.4439,146.4575
-3398.4375,74.8358,8.1514,116.3350,-114.7665,74.5414,-43.4537,8.4080,-125.0554,-21.2675,-110.6611,62.9746,-42.2514,-4.2737,23.6640,12.7773,-79.6826,150.7720,-37.7574,151.8249,139.8485
-3390.6250,110.7403,47.3259,116.4324,-44.9760,34.7908,-7.6698,-27.5972,-88.0415,-51.3019,-110.7727,59.0295,-6.3370,-40.2981,-13.3908,-22.9029,-8.0259,115.9317,-108.0639,81.0517,140.0783
-3382.8125,13.8918,7.1089,85.7718,-106.9245,66.0850,-36.6259,15.6495,-81.7738,-22.7106,-67.6152,28.6968,0.8328,-34.0726,-42.1906,-53.3357,34.8880,123.3311,-29.1199,124.5234,183.5538
-3375.0000,65.7370,49.3975,71.8035,-55.1686,15.3999,-15.8711,-72.4097,-96.8014,-80.3030,-118.7462,33.1306,22.7087,-49.1505,-21.2770,-104.0790,-16.4943,141.4280,-48.4597,142.6974,95.7248
-3367.1875,79.5908,20.0619,122.8279,-110.3966,66.2511,-75.0971,50.5209,-118.8197,-47.7345,-141.8697,62.4749,-0.4047,0.7646,-44.3452,-16.8368,-39.8684,120.5149,-139.7943,86.8658,109.8835
-3359.3750,120.0901,55.4038,128.4959,-104.9714,50.0083,-69.6640,-52.8925,-150.1813,-99.1170,-136.3231,79.1268,42.1362,6.3238,-1.7631,-83.9430,-70.5633,161.2397,-29.4719,56.6834,115.6921
-3351.5625,256.4810,107.3715,199.0502,-40.6389,23.3849,0.6788,-166.4154,-152.6352,-175.4578,-175.8522,155.6590,39.5859,40.7776,-4.2762,-123.1670,-74.3322,121.8556,-34.2310,-17.6005,76.3889
-3343.7500,173.8715,74.2195,185.5956,-52.2941,63.6154,-12.9636,-105.9359,-166.0803,-163.9404,-189.3679,142.6175,26.0419,64.2269,-54.7832,-136.3927,22.9147,110.4563,25.0110,6.1033,100.0744
-3335.9375,123.8541,90.4078,137.7314,3.6632,38.9894,13.0083,-117.8627,-141.9206,-155.4218,-200.2712,100.1241,51.1156,16.2674,-28.6727,-147.0368,-62.2190,130.6523,79.8725,62.4052,15.3551
-3328.1250,103.4884,55.6897,117.5063,18.2930,70.0480,-7.3444,45.8408,-125.0954,-68.2980,-184.5134,89.2175,-5.1439,32.9437,-48.8953,-21.0626,-192.6881,75.4922,-10.6014,42.3530,-4.7281
-3320.3125,20.7701,28.5259,67.9232,-29.4195,77.9833,-20.0302,106.1963,-100.6168,-31.2491,-124.0958,35.4384,18.2551,-16.7296,11.5367,-70.4525,-169.4972,62.9789,82.5855,99.9457,-17.1690
-3312.5000,59.3999,68.7879,37.6870,44.2267,-2.6877,59.6445,38.8929,16.2204,-68.5779,-80.3253,3.6564,62.0101,-121.0512,92.3287,-174.5135,-88.9489,-39.1867,85.1453,32.8909,-84.2746
-3304.6875,-35.7674,54.3093,-61.3510,55.0830,-35.1483,70.5351,49.7850,64.2677,-23.1718,3.6527,-82.0147,109.9687,-184.1739,103.3282,-163.3834,68.8119,-63.1612,165.9107,9.0282,-73.1982
-3296.8750,-68.8509,87.7074,-164.3031,128.0494,-125.4405,151.5373,-90.2204,182.4249,-56.1446,47.7450,-139.5302,154.0340,-250.2020,147.4388,-266.1593,149.6848,-61.0373,274.7927,47.2566,-176.0331
-3289.0625,-69.3829,82.7003,-127.7123,126.5864,-129.8625,188.1082,-89.6861,219.1414,-63.7972,11.3971,-130.8858,154.6638,-249.6863,184.1022,-228.4077,186.1231,-61.3735,202.2370,11.0246,-212.3382
-3281.2500,-170.2650,55.8392,-158.4768,96.7856,-101.2896,230.3383,-47.4953,224.5077,-51.8657,16.7062,-148.1830,195.9520,-207.5210,263.4126,-260.0155,81.2327,-56.0640,243.3310,51.4302,-207.0006
-3273.4375,-135.1945,74.6791,-156.2976,166.9460,-133.3741,270.5226,-118.3648,227.8268,-79.3430,19.9713,-126.0838,199.2057,-168.4072,266.6925,-256.6998,10.2935,-91.8024,242.3922,-19.2098,-277.7254
-3265.6250,-154.0174,22.4097,-141.0201,113.2222,-93.6376,211.8238,-29.1443,206.2573,-8.9197,72.3426,-118.7352,141.5682,-116.1941,98.0812,-131.3064,136.4753,-110.4497,188.5599,-71.7602,-225.3702
-3257.8125,-163.3446,12.3395,-186.2486,104.0070,-145.7392,202.6374,-112.4308,234.1991,-2.1560,137.2274,-157.4374,132.4351,-162.4821,88.9745,-140.4286,311.1938,-119.6055,215.2419,-45.8176,-234.5240
-3250.0000,-163.7225,-28.8293,-150.5365,103.7615,-129.9364,165.4216,-75.7938,197.1104,18.9667,100.0753,-141.3842,58.2647,-125.8248,88.8307,-29.6282,310.8723,-154.8205,108.8954,-80.9365,-234.7487
-3242.1875,-274.7521,-78.5345,-158.4812,62.8816,-60.2330,120.5718,26.1884,152.3827,72.4783,128.2816,-150.3051,49.4523,-60.8153,117.0488,-1.4832,154.9019,-124.6953,138.9052,-51.7144,-169.6378
-3234.3750,-143.9462,-18.6586,-166.5883,88.8623,-112.9858,112.5863,-55.9788,180.5146,27.5713,157.3441,-120.0363,78.5039,-68.9632,182.1353,-83.5035,35.8005,-134.7281,128.7881,-60.6497,-214.6936
-3226.5625,-94.8913,-31.0514,-116.4590,68.1173,-75.0530,89.8718,-4.9120,158.9129,59.9528,171.6615,-65.8029,55.8225,19.1342,196.4852,4.7137,-60.0292,-155.5240,72.9282,-82.3516,-200.5211
-3218.7500,-127.5444,-14.8606,-112.0356,70.6862,-71.0137,94.4705,-37.5502,162.6162,18.7596,139.2835,-66.9070,97.4583,22.5348,91.1527,-64.7819,54.4551,-118.0214,145.3796,-78.7665,-233.0594
-3210.9375,-59.7464,-1.7579,-76.1696,102.7287,-96.2080,129.5391,-112.7604,161.7809,-47.1071,64.3621,-24.5758,59.5641,58.3754,16.2904,-65.8577,200.4022,-120.0720,72.3057,-152.7502,-271.1676
-3203.1250,-93.7513,-11.1920,-40.1116,68.9944,-57.7418,92.8306,-76.7824,125.1562,-47.9027,26.6464,-22.8363,58.8854,57.4130,52.6285,-66.7491,236.5768,-48.9340,73.4449,-116.5502,-235.0931
-3195.3125,8.4305,51.8417,-40.8686,100.4774,-97.2281,129.3385,-187.6193,198.7474,-151.7317,-46.8552,20.4604,59.4233,57.6446,126.1833,-214.4671,125.9683,18.4010,104.8057,-119.1549,-308.8351
-3187.5000,52.3085,51.7012,42.0660,109.6798,-33.4357,138.5730,-104.7807,134.0570,-160.5504,-147.6519,87.6044,31.6766,139.5691,135.4654,-131.5173,25.0678,27.4277,43.8866,-181.0697,-299.9028
-3179.6875,4.9715,65.3440,28.7917,98.6981,-16.1865,125.6263,-118.1478,121.1851,-179.2976,-160.6441,82.3124,92.7454,163.2859,159.5711,-181.7846,-62.0018,86.2426,102.7805,-157.2023,-276.1853
-3171.8750,53.1238,85.5191,77.9978,146.2371,-36.3851,138.2033,-180.0356,97.8330,-210.4966,-185.1234,111.9364,105.3305,175.4882,99.1974,-169.5801,-12.5354,27.5424,10.2030,-179.8489,-263.9896
-3164.0625,-17.8734,20.7879,72.0422,76.6434,7.3606,59.6504,-112.0823,18.3433,-171.8492,-190.7436,83.5465,25.7746,169.5415,-17.3128,-101.5304,202.7981,63.6772,-24.5215,-179.6669,-122.9655
-3156.2500,10.8678,18.2796,27.8313,34.8085,-24.1968,15.8585,-193.3818,11.6107,-211.3458,-234.6061,74.4702,18.9801,162.3486,12.9354,-108.7444,268.8974,56.5570,38.5246,-150.7504,-130.2068
-3148.4375,109.6603,51.8774,93.6638,64.0456,7.2988,8.1339,-127.6512,-33.0585,-218.2912,-314.4127,131.5473,11.2495,191.2040,5.2481,-42.9354,114.0647,50.4763,-73.3644,-192.8016,-101.4231
-3140.6250,127.2486,69.2624,109.2873,47.1032,37.6051,-12.7759,-112.1274,-52.9163,-209.7988,-335.4039,150.5171,27.3267,206.8557,21.3691,-27.3364,-16.9558,103.1870,-55.4437,-140.0686,-48.8549
-3132.8125,204.8848,108.8919,118.9502,90.2330,-2.0639,-2.6188,-176.5777,-79.7068,-262.1852,-325.3394,173.7903,74.4715,216.5480,31.5625,-91.7145,-6.9085,39.9446,-82.4468,-202.2963,-76.2580
-3125.0000,51.2789,58.6386,102.3594,113.1380,20.3622,-17.6839,-119.2958,-95.7307,-185.5073,-230.5244,112.9407,95.3871,200.9837,15.5234,-34.3670,87.9057,-7.5592,-59.6894,-214.7971,-18.9334
-3117.1875,-10.8945,70.1252,2.2110,156.5151,-50.1532,28.7208,-218.5778,-12.2881,-203.3187,-148.2510,37.4568,142.7693,99.8668,99.9517,-171.5861,171.1828,-69.6203,89.5365,-171.8634,-46.1695
-3109.3750,87.7226,74.1697,-5.1515,114.7153,-70.6896,58.9468,-190.0882,54.9764,-183.6569,-118.1604,50.2589,61.9700,55.5446,56.1990,-179.0361,238.2701,-41.8953,11.5854,-144.1445,-53.6266
-3101.5625,98.9305,64.8765,5.0760,56.5314,-30.1825,32.7823,-107.0038,65.8515,-139.6192,-70.4563,54.9872,35.7811,29.8210,30.0498,-204.9012,211.9830,-29.5803,59.2427,-61.8402,-6.5006
-3093.7500,101.7332,40.8682,8.8902,59.9636,-55.5756,74.2316,-176.3318,144.3453,-129.1779,6.8502,66.1750,-32.7929,32.6928,34.5121,-238.1966,69.3339,-62.6713,62.5271,-58.9506,-39.7989
-3085.9375,8.4432,-26.3825,17.5969,2.3211,2.1736,47.6004,-57.7741,116.7561,-40.5611,17.0608,53.2132,-60.4499,79.4620,7.8919,-82.6163,-68.3945,-85.8779,-30.2780,-47.1816,42.7729
-3078.1250,-46.5588,-26.2731,-40.4055,-16.0084,-22.5099,27.2830,-113.9167,96.4783,-52.4231,-3.4221,5.5008,-6.7956,58.5349,97.5835,-66.7502,-14.8155,-34.7935,21.2298,-31.1268,58.6285
-3070.3125,39.3342,7.2005,-23.5129,-0.4141,-46.0343,44.8792,-134.1790,41.1157,-105.4459,-97.0066,22.3602,10.7737,38.5075,78.1986,-51.0098,75.6666,-54.8188,-33.3388,-86.1904,38.3602
-3062.5000,36.8732,18.3238,-27.9744,-2.1488,-24.4615,-32.8525,-29.7983,-36.5886,-31.7885,-26.9460,-9.2511,44.0089,-2.8613,1.4722,18.3636,108.8099,-22.2062,-36.2512,-87.6291,70.7230
-3054.6875,105.5091,28.9630,-27.3509,-2.7654,-57.1343,-31.4693,-29.3394,-35.1763,-8.0298,84.2181,-16.1660,8.3606,-76.1321,-34.1409,-55.1829,110.0769,-58.4977,-36.0383,-54.9846,34.1675
-3046.8750,50.3953,-31.1486,-14.4843,-57.1104,-10.3752,-54.8134,93.3439,-22.4932,70.3135,134.6396,-25.4901,-52.0173,-62.1627,-57.4830,30.4933,86.6175,-77.5546,-125.5577,-74.1111,119.8364
-3039.0625,-41.0867,-54.3961,-75.9790,-77.7841,-11.1198,-78.4894,67.6627,-9.1478,74.9650,109.7298,-75.1729,-38.7289,-87.5497,-8.1547,42.8035,98.8391,-63.9731,-40.4095,-25.6124,168.1410
-3031.2500,-37.9839,-60.3008,-71.8853,-39.8335,-13.4873,-37.5438,71.5550,-5.1825,70.7196,77.4343,-69.3333,-70.8211,-83.3513,-40.1987,82.6782,66.6872,-96.8003,-38.6293,-93.5355,135.0233
-3023.4375,-91.3361,-69.3145,-91.2497,-21.3090,30.8173,-55.0234,162.9821,-58.6481,121.2290,95.6913,-73.5771,-52.3481,-28.6101,-57.6768,137.0785,-60.8962,-79.0902,-20.2863,-75.9272,152.4331
-3015.6250,-18.8044,4.3203,-83.7263,53.1355,-19.7068,-10.5864,23.2977,-14.1947,34.8916,30.8543,-52.0354,-7.9603,-58.9728,-13.2396,34.3544,-90.5695,-41.4857,53.9806,-38.4301,49.7240
-3007.8125,-6.8163,7.2502,-34.7604,65.0501,-8.5330,3.3218,73.0371,-0.2716,44.2899,7.4741,-41.3791,-31.1072,-82.8924,-73.3365,47.0529,-39.7666,-30.4438,-39.2858,-27.5012,25.4355
-3000.0000,-61.5325,8.3842,-18.4982,47.2810,16.9733,-16.4610,52.0735,16.9631,32.8982,24.3963,-47.6500,-13.9431,-102.5112,-56.1256,-47.9604,14.3622,21.8894,82.7533,59.7020,41.4290
-2992.1875,0.8471,18.3211,11.8530,74.6321,-7.4091,50.8729,-28.8118,47.3136,2.4789,54.4176,-5.4193,-56.6599,-73.0327,-98.7912,-91.8963,8.6017,13.3144,74.9168,15.9914,-2.4986
-2984.3750,-32.7750,-24.7126,12.1961,8.0055,40.4991,-20.7699,82.2877,12.6862,79.8020,92.4481,-10.7040,-92.3669,-35.5660,-133.4386,19.1519,-64.1500,50.7259,43.0882,18.2542,34.5515
-2976.5625,-29.0071,7.8436,18.9292,46.7963,23.3358,-13.0032,50.7786,-16.5286,69.0018,99.8903,-20.3514,-47.6621,-65.7050,-89.6774,-11.4090,-203.4830,88.5267,82.6774,20.8932,-33.0103
-2968.7500,39.4134,28.4264,55.3090,82.2597,30.3100,-12.5711,87.8978,-16.0825,73.6125,63.9847,17.9258,-46.2896,-28.1973,-125.2557,61.6503,-203.1491,51.9649,10.9286,-15.8396,-69.9429
