Time,Fp1,Fp2,F3,F4,C3,C4,P3,P4,O1,O2,F7,F8,T7,T8,P7,P8,Fz,Cz,Pz,ref
-4000.0000,21.8249,29.6092,14.8892,6.1344,8.0474,18.7533,6.8057,-21.2833,28.9627,-9.3912,4.1743,15.9748,-26.0949,-13.1456,-11.6377,-35.6748,-0.7490,7.4523,-42.6724,49.2592
-3992.1875,31.6095,39.5625,-11.3476,50.7411,-18.2374,-7.3257,-19.5412,25.0148,-71.0390,-19.0424,14.3986,-47.1746,-16.9725,-3.8342,-74.2971,-26.6728,7.8103,157.1856,-0.8134,23.5297
-3984.3750,60.5906,103.7168,59.6110,79.5452,-20.3230,27.7983,-58.6902,59.5114,-109.8451,-24.7836,42.5113,-49.1173,-19.6449,-6.3186,-114.7553,6.5214,-32.4258,116.1206,-42.7458,-52.0088
-3976.5625,-35.1715,44.0985,68.8297,54.5846,24.8593,36.1625,-50.5683,67.2361,-101.3946,-21.1885,38.4201,-40.8198,24.9490,-35.5690,-105.9431,-23.0543,12.6145,91.2915,-33.4087,-6.3113
-3968.7500,-17.2178,26.1660,50.7685,1.3068,-30.2382,-18.7930,-141.7310,48.6443,-45.2316,-1.8611,40.7468,-21.8340,80.2618,-17.1333,-88.4198,-4.9444,29.3644,38.1492,53.6350,-23.9380
-3960.9375,92.6908,-39.8234,90.6690,-65.0236,9.6261,-52.7961,-65.9408,51.0086,68.8813,40.0183,70.8379,-127.8995,45.5237,-86.7510,25.0524,-2.8801,34.0552,-63.0526,57.6207,16.3793
-3953.1250,33.9342,-61.4643,26.9094,-88.0048,-17.1618,-41.4456,-54.8037,23.7341,79.3417,46.7109,17.7901,-80.6073,18.1284,-40.0168,34.8671,43.5399,10.1002,19.0991,-2.0418,64.0573
-3945.3125,5.4296,85.1497,-74.6071,-11.7375,-81.7023,3.1505,-193.4282,105.7128,-22.9473,39.1466,-41.8438,-0.0654,-11.0167,39.9691,-31.0722,125.2079,-53.5978,61.4995,-65.4457,35.9839
-3937.5000,-69.8251,80.0051,-79.8713,17.7758,-122.9900,71.9971,-124.7894,99.9425,-27.9840,51.8794,-78.8047,-5.2726,-52.9178,34.2006,-36.7559,119.1255,-24.0447,20.1502,-2.5964,31.1604
-3929.6875,-50.2315,99.7113,-57.2888,3.1407,-101.4347,-15.3037,-139.3044,86.0252,-4.1781,54.0929,-64.6061,18.3772,-30.9684,57.2836,-50.5895,104.8948,-3.6421,-30.3432,52.0970,-18.8151
-3921.8750,27.7081,1.7694,-13.3620,9.8514,-94.5268,-45.2504,-59.4716,92.4625,2.9795,50.5061,-24.7816,62.3815,-24.6710,63.7119,-7.0713,111.0176,-67.8924,-127.4905,23.1401,-11.4413
-3914.0625,13.1268,-12.6760,-66.9430,-4.9402,-147.1183,-61.6910,-76.1313,74.4026,-14.3670,39.2262,-45.4248,81.8885,-5.8733,119.6495,11.9432,129.6462,-80.6508,-107.1284,7.6777,45.4338
-3906.2500,27.7355,37.0784,-88.3280,8.4727,-168.5171,-82.9295,-133.5988,52.5494,-35.5216,41.6565,-48.4789,60.6018,9.1288,60.7963,27.1539,180.4807,-68.2143,-92.5648,20.4133,24.5021
-3898.4375,-54.6581,-115.1784,-64.7168,-72.1201,-71.9112,-23.1658,-38.0584,38.6992,25.3234,93.6779,-59.8886,-26.6819,-4.8681,9.9413,87.3769,203.3138,-9.7748,-105.0067,114.1552,48.5714
-3890.6250,-157.3027,-147.6914,-61.3577,-70.9753,-31.5529,-55.6562,-33.7621,42.5960,-7.0841,85.5589,-70.7583,-22.2153,35.8916,50.8322,54.3525,206.8934,-7.5810,-32.6953,80.6627,16.3855
-3882.8125,-153.5001,-73.7553,-57.5529,2.6165,-27.7402,22.3090,-67.0077,45.9533,-40.0461,41.6772,-61.5858,18.6998,39.0987,54.1748,-16.2211,172.9254,-38.9459,6.0673,-91.3771,20.6422
-3875.0000,-84.7107,-4.8307,-58.7558,37.2058,-65.9225,21.2802,-140.2486,-29.6861,-41.0163,-16.3069,-45.1272,17.6175,37.3074,52.5197,19.2068,97.9604,-5.3077,75.8393,-164.4129,19.8996
-3867.1875,70.6777,45.6946,-40.3648,51.3939,-10.5098,2.8512,-159.8984,-85.7204,-59.3931,-72.6452,19.5897,-0.8607,55.1159,-3.5313,73.2262,4.6042,9.9311,20.2145,-115.8396,-35.2525
-3859.3750,13.9159,-115.9437,44.8743,-76.5723,74.7561,-59.7199,35.3049,-109.8953,26.0855,-36.4421,52.5662,-63.4959,102.7708,-101.7354,195.1033,-21.8965,23.0213,-72.5674,-33.4059,13.4440
-3851.5625,-71.6087,-166.3324,30.3560,-125.2943,96.2656,-110.0424,57.7597,-88.8201,48.8062,-3.6291,30.0379,-77.8744,123.6783,-80.6826,143.2327,-0.1429,8.3615,-52.0933,22.2834,-0.6089
-3843.7500,-45.1412,-34.7201,-15.1679,-65.0209,51.7786,-45.3647,-24.7858,49.2570,40.5247,40.4338,-7.6886,-49.2483,41.5905,-53.6247,24.3627,64.6130,-106.2969,-25.6229,-23.0237,-8.6710
-3835.9375,-96.0315,-16.4718,-72.0397,-12.1020,-6.0513,7.9592,-45.6661,64.9782,-17.1052,40.0899,-58.8085,4.0285,-16.8423,-36.9233,3.1471,80.0136,-53.2925,27.4975,-5.6695,44.9113
-3828.1250,-76.6765,5.0227,-120.6600,44.0728,-90.6245,34.5284,-130.3008,53.9544,-27.4919,33.5465,-80.2759,30.5552,-28.0206,25.0327,-44.8181,68.6622,37.9628,48.8707,49.9308,-39.2668
-3820.3125,-15.7278,-4.8843,-128.6766,68.8448,-61.5967,99.7027,-27.3302,8.5338,-35.2873,14.9772,-76.7077,21.6838,-73.5922,16.5835,19.8229,58.9147,62.8140,3.8417,39.1295,-83.8455
-3812.5000,-2.3391,43.6459,-113.2471,118.0603,-46.1137,78.3204,24.0883,-13.4413,-56.6376,-16.0096,-56.0641,37.2565,-58.7026,-5.4165,-38.0793,0.6215,77.1224,-17.7359,16.7921,-104.9786
-3804.6875,40.0517,87.1642,-31.8161,90.2664,-38.6279,11.9328,31.5101,29.5885,-48.9834,-13.2258,-13.1330,7.8208,-51.8042,-35.4199,-67.9731,-29.6657,13.4240,-45.3150,23.4622,-97.1266
-3796.8750,-21.4656,-10.2293,11.7128,62.5636,-32.0392,-17.3523,38.0433,36.7233,-42.2285,7.7947,-11.8489,15.4842,-45.8041,-29.3187,-98.7542,-23.8465,56.8194,-36.7986,66.2372,-53.1779
-3789.0625,-47.7296,33.6273,-13.5138,107.1061,-56.2008,-5.3922,-23.1728,48.1059,-103.2339,-14.8312,-24.4053,101.4013,-33.5439,19.0340,-160.2832,-11.7779,30.4665,41.9636,39.2641,-113.9857
-3781.2500,-42.9927,3.4847,-9.7370,111.6485,-16.3616,34.5639,90.6127,87.4911,-100.2486,-25.8761,-23.4795,67.3192,-68.2760,22.3813,-83.8091,-83.7127,35.1162,-23.2777,8.2938,-73.7992
-3773.4375,3.0815,-91.3205,1.3870,16.5385,30.8298,-27.1364,138.7554,-11.7773,-14.9135,-11.5062,12.1479,-31.4147,-20.6489,-40.9251,-35.9803,-110.2994,117.1276,-12.1674,124.6931,-62.2710
-3765.6250,72.3012,-56.9804,78.6594,-20.4193,72.1743,-96.6885,142.0526,-45.8905,-11.4354,-18.1732,64.6997,-64.9995,19.1272,-74.0766,-32.9992,-69.7330,115.2866,-13.9049,87.2557,-168.6080
-3757.8125,-36.0428,-130.2043,76.3737,12.0697,143.9698,-24.7754,214.8060,-47.5432,-49.5166,-31.4244,58.8444,-66.1376,54.3499,-112.7714,2.4317,-72.7039,111.8951,88.8119,13.2800,-206.4971
-3750.0000,-88.5830,-147.6432,60.8833,29.3468,165.5693,32.9368,162.3534,-26.3975,-101.8002,-50.6554,51.5696,-44.4761,74.3802,-55.6601,-13.3382,-88.8705,95.3134,142.3245,30.1230,-258.5968
-3742.1875,-166.8580,-154.8439,90.6534,-13.1380,268.4265,99.8899,228.1522,2.9924,-108.8325,-39.3266,35.7806,-88.5652,29.6719,-100.3007,52.1488,-133.7906,87.9841,100.0752,128.2237,-265.4539
-3734.3750,-250.2460,-203.1514,75.3199,-61.7336,253.1888,84.7387,286.8460,60.2812,-49.9701,21.7963,0.0627,-103.7501,14.8727,-116.0341,36.5441,-112.8052,38.5549,85.7299,219.2262,-243.4131
-3726.5625,-217.1972,-100.0083,36.4333,-63.8788,214.4028,83.0374,210.9810,132.0235,-14.6665,28.6706,-1.3980,-68.4842,48.5330,-81.3099,-1.6098,-115.3599,-104.4281,13.8387,181.6842,-244.9359
-3718.7500,-143.3627,-26.0731,-1.6540,-61.2246,139.4210,45.1385,209.9334,166.5677,20.4307,58.5403,-20.5418,-33.4190,9.9941,-82.7909,-3.9482,-43.1135,-135.6123,-88.2533,113.9469,-135.6661
-3710.9375,-75.0822,42.3071,-78.2963,-28.1217,-11.1112,4.6834,59.3408,89.5593,16.9748,52.6886,-54.3404,37.0909,5.9129,60.1798,-43.8334,62.5871,-67.3371,-54.8969,76.6711,-101.9582
-3703.1250,0.7059,13.1826,-72.4356,47.4765,-78.1396,10.7261,-8.7462,58.0525,-13.9840,33.3484,-49.5920,117.0955,-24.6560,102.6450,-2.2072,104.7848,-26.5671,-49.0457,10.8960,-95.7621
-3695.3125,-38.7647,-97.2130,-41.8315,7.8147,-47.4123,5.5185,58.9324,15.2912,-19.1975,7.2803,-44.3438,147.8468,-31.4604,132.8563,-7.8213,24.7313,38.9498,-53.4399,40.8852,-64.8182
-3687.5000,64.6578,-28.7209,67.6681,5.0483,-11.7810,-68.7952,21.5171,-22.5645,16.4823,-19.0987,34.6187,73.4887,3.6442,57.9737,-9.5313,-50.4172,36.3615,-90.9317,37.7867,-101.9861
-3679.6875,108.2686,-20.0382,74.3659,-21.5271,32.0531,-61.9085,65.3147,-16.2081,60.3583,-13.8687,73.0819,-29.6763,46.9528,-45.7156,33.9697,-81.3540,9.9671,-83.2331,10.9001,-57.9592
-3671.8750,77.7213,20.4847,6.9080,-16.2619,1.7360,-56.1833,33.9676,-11.0012,29.0881,-3.3340,25.8265,13.0017,16.1193,33.4421,3.3240,-2.4328,-19.5725,28.3128,-19.1136,-52.0917
-3664.0625,29.4835,42.3077,-45.2528,5.3001,-13.2797,2.8366,19.9287,10.5090,15.1168,2.9411,-25.8987,70.9829,-36.4151,90.9033,-12.0197,18.7836,-32.8123,15.1511,-32.8201,-29.9347
-3656.2500,-40.1095,-27.2262,-8.7669,6.5054,-13.6443,2.5049,19.5436,-64.3357,14.7902,-19.5539,-21.6506,71.6169,-0.2969,91.0218,24.2884,-19.3474,108.6055,16.6354,-32.8581,6.8731
-3648.4375,58.5431,71.4836,60.9554,68.9586,-16.7606,-37.5734,-94.6017,-104.9262,-62.2943,-85.1625,68.1441,30.5011,106.0714,86.3989,-16.1544,-60.2166,137.2702,9.3738,-39.6266,-70.0826
-3640.6250,58.3393,71.3314,97.8233,33.5539,19.2730,-0.4968,-57.5902,-105.3610,-99.2313,-90.2223,82.9362,30.5332,105.5952,48.9285,19.5651,-23.9221,66.0800,-25.7430,-40.2384,-69.8963
-3632.8125,-12.1227,0.9189,23.4385,-37.1071,56.0542,-0.6750,15.1720,-69.0459,-62.4228,-45.6601,25.0367,30.3187,67.8762,85.2123,56.0412,12.1303,-4.3561,-26.1136,28.9080,-69.9664
-3625.0000,11.7237,-45.1909,-23.6391,-83.4685,45.1311,24.4399,4.2254,-6.4369,-36.3168,-7.1232,7.6727,56.4019,56.4704,110.7988,81.8220,73.4848,-85.4901,-37.1937,52.3572,-80.7487
-3617.1875,-4.0354,-131.9120,-43.3165,-100.4334,62.6076,5.9519,22.6857,10.5703,-55.8128,4.4352,-5.5159,37.8868,37.4706,127.7841,99.0117,90.2380,-31.2247,-53.8789,71.2172,-26.1310
-3609.3750,104.7938,-94.0432,-1.4001,-97.8042,-5.3187,-99.9492,-46.2534,-21.8230,-13.7132,6.3853,42.2284,5.9672,78.0823,95.3738,29.8080,94.5953,6.6447,-85.9573,73.6929,-57.9235
-3601.5625,99.5121,-98.2910,29.4153,-102.2835,-11.3388,-31.9505,-15.2787,45.6926,53.2832,52.5261,29.1096,-37.0636,-1.4011,15.8576,24.5124,87.8660,-32.5881,-19.1385,34.0857,-26.8287
-3593.7500,-52.7272,-109.5023,-57.7210,-43.7220,-61.3036,66.0932,-28.2332,69.2545,4.3257,49.9013,-52.3636,-13.0527,-51.8224,76.3884,-25.7222,75.1877,-44.7740,144.7265,22.5449,-2.6937
-3585.9375,-124.0593,-39.8121,-56.9627,25.7343,-60.3667,103.0280,-64.2820,105.7208,-31.7392,30.1035,-70.6004,24.8500,-51.3354,112.8203,-62.0492,38.4108,-81.0704,144.4877,-14.0903,-38.6720
-3578.1250,-158.9051,-41.6376,-22.7129,-10.3173,-25.9274,64.4586,44.1838,29.6961,2.6932,-8.3264,-44.3158,59.2451,19.6571,36.7541,46.1322,-75.8563,-10.8726,37.7501,19.7883,-4.1553
-3570.3125,-104.1083,15.1697,0.1815,-24.7203,-2.8367,-23.4698,30.3016,-58.6778,25.7680,-36.1843,-33.3586,81.2855,5.3118,22.3352,67.9673,-90.4678,9.9866,58.6661,-29.6628,-18.0058
-3562.5000,-98.6058,-14.3305,-31.2154,15.5812,2.9618,19.2951,72.1239,20.6436,-5.4622,22.4784,-57.5155,-22.9803,-63.3264,-9.3921,37.5124,25.6168,-19.4403,99.2729,-24.4024,-12.1752
-3554.6875,-133.6121,-120.3492,-105.1077,15.3801,-33.7363,92.5643,72.4503,57.4598,-42.1940,39.0918,-83.8438,-59.7490,-63.4581,27.3874,0.5591,62.2049,-19.3569,170.3744,10.3770,-11.8523
-3546.8750,-74.0635,-95.8266,-112.4502,38.7253,-4.8861,85.3752,-8.6821,85.8195,-49.3784,25.2731,-57.0244,-29.9641,-34.0343,18.7304,-7.8435,16.3570,-30.7217,124.0077,69.7242,-92.9922
-3539.0625,-73.1167,-59.9233,-76.3927,-65.5476,68.3663,84.5816,64.5962,47.5769,-13.1573,4.5948,-30.7103,-30.7831,1.7950,-55.5165,65.1700,-58.0842,-29.6917,19.0269,105.4861,-56.7368
-3531.2500,-67.8365,-54.6818,-70.9964,-131.4736,110.9596,17.1342,70.2201,52.6901,28.4123,20.9631,-13.4900,-62.2476,42.9804,-50.4025,-2.4614,-53.1641,-59.3130,24.4044,110.6091,-51.1433
-3523.4375,-57.3158,-44.1948,-63.3540,-50.1490,45.7972,61.9402,5.0930,134.0629,0.2221,44.3810,-20.4462,-90.4620,14.4174,-43.0282,5.1580,28.0209,-153.6900,0.0250,15.9928,30.6878
-3515.6250,-127.4438,-79.3663,-104.3582,-14.4816,-69.0101,56.0914,-35.6703,91.7752,31.3713,55.4361,-80.1727,-58.3346,-26.7830,25.6867,36.1392,22.5469,-48.7080,0.9920,49.7443,135.8638
-3507.8125,-49.6087,-71.5917,-91.4077,-7.8743,-128.8654,-40.8230,-60.4764,31.4357,82.4651,61.9059,-65.5167,-82.2724,-15.0159,38.3469,50.0752,35.0188,30.2223,-27.0940,93.4607,38.9742
-3500.0000,1.3752,-56.6820,-38.3065,-28.1270,-39.5687,-23.5917,67.8824,-25.7479,98.7151,26.5741,-32.6643,-29.0797,-35.0931,-18.8519,67.1738,-22.3482,45.2975,-47.0405,3.3380,19.2265
-3492.1875,10.5435,-12.5830,7.9881,16.8107,-30.0735,-51.1759,40.4529,-53.7247,-1.8359,-36.1802,-6.7235,54.3017,-25.9600,27.1487,39.4778,-50.5031,19.5676,-2.7859,-58.5656,28.6675
-3484.3750,21.1096,-37.0885,55.6790,-43.8512,54.8266,-76.3691,14.4339,-79.2922,9.0150,-38.2334,43.0915,-8.9259,58.5781,0.5396,87.1936,-40.2590,-5.7650,-62.1353,-13.0592,39.4921
-3476.5625,-54.6361,-146.9081,49.0711,-118.8148,85.4327,-81.8663,82.1346,-85.1566,2.5573,-19.8090,33.6598,-51.4652,88.8223,-6.3743,117.6224,-10.3146,60.6049,-31.7834,17.1551,70.0093
-3468.7500,-49.2826,-71.6305,21.5569,-43.6763,94.1412,-74.2674,-19.0644,-113.9295,-61.8126,-43.7277,29.0784,-5.9085,97.1766,39.8148,53.1566,35.7302,31.0844,79.6694,-11.5196,5.6114
-3460.9375,-88.6271,-41.0678,52.3470,-13.2439,89.1585,30.6304,12.0475,-47.4120,-103.8843,-54.7572,37.1664,-12.0686,91.8436,-3.7019,47.0068,-7.9219,26.8692,75.4114,-51.8803,36.5014
-3453.1250,-120.7274,-74.2705,17.3868,-11.5644,54.4262,32.7724,14.4117,-45.6473,-101.7085,-32.7605,6.6854,-9.9809,56.7688,-1.9637,12.1104,-6.3139,28.9011,112.4065,56.0107,38.6323
-3445.3125,-122.7278,-39.3679,-16.4754,-11.7819,20.7885,36.0109,-19.1393,67.2244,-25.4407,30.7072,-25.8880,-6.7895,22.8002,0.8855,-21.6884,33.4027,-77.9718,111.4918,55.0053,-32.1476
-3437.5000,-157.7257,30.5317,-53.3295,-12.0049,57.1473,72.2441,54.3118,104.0824,-25.1748,37.3811,-46.3662,-6.6036,22.8439,-36.2636,15.5241,33.1222,-77.8395,76.5587,20.0095,-31.9282
-3429.6875,-43.6199,144.5257,-6.0819,-4.1322,30.5998,9.5653,-8.1415,4.0352,-51.8136,-19.4536,6.8827,39.6818,68.9971,-26.3058,-11.1586,5.9498,1.3915,-20.2811,28.1240,-58.6157
-3421.8750,155.5835,167.6081,125.2612,-16.1624,16.1471,-43.0201,-23.4945,-48.9080,-30.3516,-43.5457,97.3792,25.0642,54.2534,-79.2437,10.2685,-10.1132,59.7223,-137.0300,-18.6501,-0.2088
-3414.0625,158.8790,135.7698,89.7054,-13.0973,-56.2052,-77.5182,-58.7333,-47.7568,44.2134,-17.9981,78.1903,25.5378,54.6146,-41.0829,10.7996,-10.0764,28.1623,-133.6824,-15.3037,74.2909
-3406.2500,166.0764,142.8242,23.0499,-6.1344,-84.6621,-107.1261,-124.0749,32.2995,51.6764,15.6814,43.5268,32.9053,24.8832,1.9754,-18.7667,33.8670,-34.5010,-126.4363,-8.0455,81.6745
-3398.4375,134.6632,40.2776,-12.2112,-1.7749,-84.7179,-70.3343,-13.0056,32.7668,88.5396,18.1194,32.8291,-2.3353,25.5534,-33.5747,92.0793,-38.7812,-30.7729,-157.7930,30.6152,155.4519
-3390.6250,150.2960,90.7794,-31.4246,12.6307,-103.7234,-126.5048,-105.8801,13.2829,32.4484,-10.1552,33.5690,50.4614,42.2860,19.9237,35.9791,-21.3795,-50.0007,-72.1030,11.3423,136.2726
-3382.8125,78.8356,160.1756,-67.7373,10.9277,-102.8257,-51.7927,-104.8417,49.7048,-3.7440,6.2202,-14.5550,51.1444,5.9261,19.3120,36.7895,50.9213,-86.3314,-37.5247,-25.0150,99.9858
-3375.0000,24.9719,107.1563,-49.4517,-7.1858,-83.3313,-33.4890,-13.1927,31.7262,15.6677,22.5282,-25.2565,-3.5849,-11.8289,1.3030,56.2040,32.8263,0.9398,-21.3456,27.2408,82.2930
-3367.1875,126.7093,102.7407,-13.5750,-46.6986,-11.2357,-71.5929,-12.9480,-5.6481,52.6728,14.2980,33.9556,-77.7262,25.0217,-73.1065,56.2192,-4.6558,32.8097,-25.5692,59.1096,8.1836
-3359.3750,102.9903,8.8605,-0.1420,-105.6644,75.4104,-58.1471,73.8531,-29.4687,65.2246,18.3704,47.5657,-137.3299,38.4309,-96.9670,105.7921,-28.5835,79.2353,21.7470,105.5413,-15.3814
-3351.5625,52.2209,-78.0822,25.2422,-86.6805,102.0019,-68.7607,63.5975,-41.3485,54.7220,2.1329,78.1793,-148.9821,136.8012,-70.8680,95.3176,-76.5541,168.6154,5.0052,159.9341,-137.0070
-3343.7500,204.3571,-102.1237,148.5298,-110.7982,188.4868,-56.4775,150.2373,-101.3273,104.1172,-27.0763,171.8806,-209.7379,150.0773,-131.8651,144.7437,-137.6190,144.8909,-194.8425,136.2290,-160.7446
-3335.9375,246.6353,-95.0165,149.9680,-172.7591,190.1158,-128.0429,189.0268,-137.1623,142.6533,-10.0168,167.7995,-170.3426,114.5017,-130.7073,146.3210,-100.5240,82.3203,-221.5413,144.6726,-12.3357
-3328.1250,261.9189,-9.9078,88.4096,-158.7102,17.7336,-115.6114,-20.1971,-52.0006,118.1831,34.4845,106.9393,-84.9512,52.9310,-45.5456,84.8905,58.5764,-8.2403,-171.2424,89.1209,73.0611
-3320.3125,184.7098,18.6894,2.3602,-130.1609,-68.1506,-55.6894,-68.9140,8.6552,141.2160,60.7847,8.0591,11.9341,-70.1336,15.1136,71.9687,46.1716,-14.2966,-178.4592,82.0862,206.9514
-3312.5000,139.1434,-26.0861,-46.0378,-104.9686,-115.3832,-103.1269,-78.9697,-40.0407,166.9020,56.8565,-26.0415,74.4595,-80.5381,77.4244,-12.2982,-2.5764,46.2940,-153.0269,142.7146,232.4815
-3304.6875,132.3763,-33.0663,-50.6389,-76.9762,-119.8147,-71.7666,-84.2269,-44.9313,199.3829,74.9026,-33.7623,68.7820,-86.1411,35.5400,-16.7609,29.4852,40.6731,-123.7961,101.1441,190.8007
-3296.8750,63.8083,-66.8438,-49.0400,-75.7841,-82.0499,-33.2093,-8.2747,-80.6251,90.0583,33.2693,-16.5804,34.2972,-10.5396,36.8520,21.9794,66.7444,42.2590,-52.3746,33.7776,192.3165
-3289.0625,129.0535,-2.8081,-14.6377,-45.7892,-46.4895,-34.8711,-83.5220,-119.5187,51.5311,-15.2125,36.8982,30.6083,59.8654,32.9555,18.5181,63.8039,0.6467,-58.1636,-41.7826,116.6203
-3281.2500,86.4502,-10.6243,50.9208,-53.6457,18.2150,-42.3917,-17.6121,-127.2555,81.1542,-14.1318,48.3441,-12.9396,52.4188,-46.7966,85.2155,19.0166,-6.8215,-100.8136,-49.1836,109.0730
-3273.4375,46.8869,-48.4038,47.5237,-57.4540,14.9633,-82.8754,-20.6495,-93.9397,40.8312,-24.4283,54.8814,-16.4432,86.0237,-14.4972,44.9592,-20.7103,24.7646,-33.4180,-18.5153,105.5704
-3265.6250,80.2802,-17.2410,84.0807,8.6878,14.6610,-11.4238,-21.7401,-94.6689,-69.5393,-82.8602,88.0183,18.9883,85.5861,20.7482,7.6552,-58.4822,22.3033,-2.0861,-55.8832,68.0034
-3257.8125,39.8236,-22.9351,115.7963,2.9731,83.5164,20.1707,47.3277,-211.2546,-147.7532,-146.6384,109.3599,13.5548,117.3058,15.1319,2.5151,-100.1032,122.9914,27.3827,-61.1019,62.5876
-3250.0000,89.4131,27.4287,172.5623,18.3129,103.4132,-70.1958,-42.5700,-227.7895,-128.9262,-139.0347,128.6109,-2.8323,100.0866,35.5767,-87.5732,-81.6657,138.7213,7.8990,-45.2759,-27.7807
-3242.1875,61.1997,-1.0016,142.5223,24.8584,110.4988,-63.3607,1.7254,-112.1183,-47.9072,-80.3636,99.1725,3.9822,70.0678,5.2302,-80.4587,-75.0186,39.6399,-56.3933,-74.2508,-20.9503
-3234.3750,-2.2681,-30.6887,74.2280,31.1545,5.3247,-58.7795,6.7731,-70.6966,-6.1404,-30.7196,39.7361,8.5466,38.7970,9.6405,-75.5975,-33.6175,11.3103,-14.9387,-32.4677,20.6313
-3226.5625,97.6731,35.0197,69.3361,60.8497,-36.4605,-26.8112,-34.7862,-38.8798,-47.9730,-33.0460,52.4501,-33.4941,-3.0692,4.4526,-80.3371,-1.8063,6.3848,-20.0923,-37.2709,15.6051
-3218.7500,63.4154,34.5159,29.2460,25.3401,-2.4459,43.9514,-0.5302,-77.2645,-86.0056,-49.0628,36.4665,-35.7483,-6.1319,-34.9419,-9.2708,-5.1893,41.2591,15.5489,-1.2687,86.3747
-3210.9375,102.8986,74.7619,-1.0954,65.5801,4.3153,-23.5449,-66.5236,-71.8961,-116.2913,-65.0487,28.5051,6.7387,-36.4441,-29.5845,-39.4556,-35.8157,46.8764,19.9394,39.4932,55.8872
-3203.1250,51.2310,57.8590,-17.5949,48.6707,24.9241,-3.1953,-46.6616,21.3302,-23.7170,-9.8167,0.4218,-9.9321,-52.9091,-46.3781,-18.7908,-52.5886,-5.6625,-31.8307,58.1117,39.2438
-3195.3125,-101.2904,-24.8994,-65.9481,1.9091,13.6729,22.3010,-20.6441,9.7115,-34.9901,-8.2229,-40.1054,15.5400,9.7734,15.9779,7.0278,-27.2034,-17.0570,62.5501,46.8835,27.7490
-3187.5000,-134.8060,47.3430,-58.3067,38.1514,20.4142,28.7924,-49.6382,16.1001,-101.2656,-18.8583,-52.6485,96.0074,16.4593,59.3358,-59.1514,53.1882,-49.4589,63.9266,-21.3435,-75.7523
-3179.6875,-153.7770,28.1249,-5.1094,53.9436,36.7049,81.8327,3.9166,-3.9581,-84.9903,-18.6886,-42.2189,75.0083,-3.2980,2.2374,-42.7713,32.1318,-33.3108,44.8453,-40.0160,-59.7025
-3171.8750,-80.6018,30.0590,33.2418,91.8875,39.1393,47.0083,-30.3857,-1.8690,-119.5698,-51.2499,2.2680,40.1559,-0.8967,4.2884,-77.2378,-38.7668,3.9884,81.9110,-37.5404,-57.5073
-3164.0625,31.7786,37.2088,77.7990,99.0424,46.7690,54.3747,-22.4976,-31.5771,-111.9525,-71.6471,68.5658,-25.4978,42.7032,-25.4633,-69.5072,-68.4637,11.4869,19.1646,-29.8726,-50.1185
-3156.2500,8.5614,-21.2397,51.7584,39.6053,57.7980,-8.8679,24.7887,-58.8934,-64.9418,-41.3404,37.5630,-15.7523,16.7056,-15.8175,-22.3755,-21.7625,23.3890,30.8138,-17.8053,-3.3280
-3148.4375,40.6482,10.6154,50.0184,71.4784,20.1207,-9.8173,-49.6448,-59.9082,-65.6318,-34.9850,39.6505,-16.7090,16.0086,-16.8681,-59.9525,14.2502,20.5926,27.7603,-20.4372,-41.2449
-3140.6250,4.8853,-25.3832,48.4324,70.5040,54.5864,24.3840,22.0743,-62.7722,-31.1654,-18.6093,35.0959,-56.5302,13.4614,-93.7735,-25.3735,11.4203,19.9437,61.8430,-56.9152,-7.0118
-3132.8125,-69.6334,5.8623,-28.9100,101.7765,14.2964,57.8255,-54.9568,-29.3839,-108.4447,-29.2872,-26.1019,-23.1065,-26.8309,-23.4246,-65.5450,44.8449,16.5363,164.1742,-95.1419,-10.5272
-3125.0000,-91.0028,89.2608,-50.1034,221.2006,-80.8555,146.4168,-112.8483,59.1661,-129.5759,-11.2762,-74.5261,-7.5364,-121.9747,29.0842,-123.5656,59.4297,-4.7323,212.6517,-151.2274,-31.8930
-3117.1875,-123.2770,56.7550,-49.1983,223.7302,-79.9165,184.1036,-110.6436,23.8118,-127.6054,-7.8619,-95.4837,30.1337,-156.0205,29.6948,-121.4899,61.1242,68.1061,180.2252,-113.2077,5.8444
-3109.3750,-34.6977,74.0957,9.5603,171.1196,-21.1349,94.6295,-126.5994,-28.6914,-143.7860,-41.0692,-19.8496,50.6515,-62.2136,14.1584,-137.5707,44.6680,50.7985,91.6491,-59.3324,-46.5790
-3101.5625,55.9348,59.4863,28.3720,85.5654,34.6959,40.2055,-70.5011,-10.1405,-123.9182,-38.8899,30.6066,33.2126,-6.3586,-41.3332,-44.5973,64.2602,-34.4627,-28.8838,-74.4131,9.0480
-3093.7500,49.0593,122.3772,-19.3250,43.5175,-12.9817,-43.7183,-78.9069,-21.0854,-96.5559,-48.0793,10.3957,59.2711,19.9943,-15.3185,-18.1276,53.3547,-75.2273,-35.9090,-115.9927,72.1757
-3085.9375,78.6871,151.7796,12.4774,37.9763,-54.1636,-49.1451,-120.8165,10.4783,-101.6986,-47.6174,25.9650,-20.1843,14.8453,-20.8047,13.8387,47.9517,-116.4960,-6.4372,-121.0681,66.7929
-3078.1250,-4.0824,33.7786,35.8858,25.0300,-30.7469,-25.9758,-24.1156,-39.3503,-42.2360,-21.0176,23.8919,-106.0506,38.2892,-69.6968,74.4042,34.1579,-57.1765,16.6236,-61.5398,90.0105
-3070.3125,-11.1001,-8.4654,32.0379,17.8353,-35.5902,-31.0652,-28.6748,-44.4178,-47.0225,-33.3408,30.1897,-75.1707,71.4828,-38.8378,33.7099,30.1226,-31.1125,44.4338,-105.2627,11.9777
-3062.5000,-49.1631,59.2430,30.1440,50.5986,-37.4910,40.7935,-30.2916,-9.5294,-48.8554,-34.9298,4.7268,-40.3458,32.6247,-41.0328,31.9662,28.0326,-103.0977,42.1848,-177.0345,9.8977
-3054.6875,-97.3801,115.7992,-94.9010,72.2152,-88.5505,62.4954,-45.0596,12.2024,-63.8319,-14.3079,-76.6358,55.3194,-19.3788,17.6211,17.0719,86.7870,-115.2185,63.7831,-154.9490,31.6656
-3046.8750,-63.5916,150.3591,-94.9367,70.8412,-88.6119,26.1854,-43.8419,12.9340,-25.8107,11.2077,-87.6270,91.9774,-55.3786,55.2801,-18.8283,123.5535,-151.3410,27.3734,-120.8730,-4.5773
-3039.0625,-76.1514,31.5837,-109.3218,23.1263,-103.0342,46.5282,51.0098,33.3222,31.8570,53.6634,-99.5497,39.2930,-70.7339,75.5935,1.9221,143.9853,-129.8268,13.6016,-97.1648,52.8335
-3031.2500,-103.1524,74.3733,-136.1643,65.9667,-166.9218,56.4118,-49.6088,80.2629,5.0748,72.9408,-145.3116,49.1625,-133.5374,158.4612,-61.7811,190.9705,-120.7690,57.3748,-89.9101,25.7980
-3023.4375,-53.6372,88.6741,-158.5070,80.3083,-189.3173,107.7861,-70.7333,130.7096,19.7962,90.6180,-146.9313,26.5239,-155.8434,172.8249,-46.9847,205.4546,-177.2182,0.6316,-75.1560,40.2661
-3015.6250,-113.6698,27.4296,-223.3993,19.1058,-181.2740,78.6057,-25.4130,102.6053,64.9683,93.3920,-173.9785,71.3360,-110.7013,180.6433,35.2582,176.3883,-167.2200,-24.6625,-29.9595,85.1889
-3007.8125,-115.9482,-11.0502,-225.5387,-19.3350,-145.4934,40.1730,9.6347,101.2566,100.8820,87.3913,-159.2589,106.9017,-75.8126,142.2191,71.2421,102.0819,-205.4761,-28.2054,37.9811,46.8574
-3000.0000,-163.1268,-126.4350,-199.5727,-100.6725,-83.6112,28.8409,145.7816,126.0083,125.8974,124.2109,-157.3112,58.5621,-86.8249,57.8893,97.3272,90.8802,-181.6301,-39.6552,132.0222,35.6284
-2992.1875,-181.5030,-111.0216,-177.8058,-48.2110,-98.9321,-22.7028,131.7227,185.5597,111.7175,166.0002,-160.9918,43.0165,-102.0312,42.3611,-27.7872,149.4786,-129.9866,12.6872,149.8662,-52.8027
-2984.3750,-145.6775,-39.4034,-101.8390,22.4522,-133.0569,15.9447,97.8648,261.3215,77.7456,169.5412,-122.9932,8.6681,-99.0402,8.0294,-61.6984,152.2798,-129.1540,-21.7791,115.9048,-87.0328
-2976.5625,-160.9147,-125.8335,-81.9339,-27.9285,-113.2431,-0.4584,154.9538,244.0400,134.7280,174.5675,-104.4274,-81.7291,-79.1100,-8.3438,-41.6640,61.0377,-109.3708,-2.2924,205.8882,-67.3037
-2968.7500,-85.1038,-191.1968,-36.9786,-93.2420,-104.3904,-29.8156,163.0709,252.8083,142.7576,168.4977,-51.0958,-147.0739,-34.1322,-0.6615,3.4048,32.8454,-68.5296,2.2513,246.9161,-132.5301
-2960.9375,-93.1778,-164.4561,-9.9096,-66.4473,-40.4353,-39.0709,227.2829,205.6739,133.8860,163.1884,-43.9281,-157.3222,-43.0591,-83.8877,30.5673,59.7503,-76.5857,-41.1147,203.0366,-105.6563
-2953.1250,-125.9962,-55.4671,-7.5911,-28.3964,-76.2341,-38.0765,155.7294,170.7924,98.2608,130.7392,-57.7763,-119.3225,-41.7394,-45.8592,-4.0333,60.9077,-109.3912,-3.2235,136.4046,-67.5267
-2945.3125,-40.7121,28.6244,4.8237,-14.2388,-63.9398,11.0143,94.2568,146.0222,73.7403,80.4721,-33.9152,-107.2279,-66.3227,-33.7291,8.4614,0.1722,-130.1033,-24.2395,79.8780,-18.2946
-2937.5000,-66.4341,-32.2901,-23.7627,-40.0793,-91.6539,19.1005,66.7829,81.2583,83.2313,66.3618,-52.4324,-62.1355,-57.9103,48.4051,16.9540,8.4464,-84.8155,55.7362,55.3483,26.9431
-2929.6875,-68.9070,35.0560,-132.1023,27.3451,-90.1358,20.4305,-4.4596,45.7529,47.9704,65.1008,-121.8263,13.2109,-129.2501,123.7959,-54.3113,83.9785,-87.2798,87.9667,52.0594,-81.5731
-2921.8750,-63.7727,5.0098,-126.8365,32.3775,-48.0233,62.3587,73.8873,124.8529,90.3081,94.0686,-109.7486,-17.8456,-123.9916,54.7862,-11.9800,52.1115,-82.1421,-13.2123,57.3693,-76.4924
-2914.0625,-47.3342,-48.7432,-73.2651,13.7075,-31.6120,5.5819,90.5357,104.2510,106.9489,93.0902,-74.1023,-75.6044,-107.4305,-1.9236,-32.3480,-4.4581,4.2946,2.9036,109.9822,-60.1144
-2906.2500,16.0613,-20.5351,-40.7389,6.9952,-0.2566,-36.2468,86.1229,136.6078,102.5457,88.3151,-44.9308,-80.4123,-111.9255,-7.6803,-36.7699,-10.0815,-37.3318,30.9636,68.5321,-101.7861
-2898.4375,-84.3539,-51.1149,-38.0192,46.4881,3.2934,39.1269,162.9070,139.1702,105.3491,67.5425,-50.7602,-115.0187,-72.2263,-41.2376,39.0044,-80.4968,-32.7707,35.2225,2.2699,-62.2452
-2890.6250,-74.8710,-41.7733,-26.4122,91.8912,-22.2718,13.3938,63.5703,113.6361,43.0492,12.7391,-30.2186,-29.7215,-23.6312,6.1106,13.6692,-106.0019,-58.3169,44.3893,-58.0995,-87.8011
-2882.8125,-54.9852,47.9724,29.5911,111.7022,-2.4432,33.0666,10.6257,59.5109,26.1513,-4.9443,-5.6849,-47.0228,-3.6428,-10.1421,-2.2627,-49.1071,-73.4655,-6.0530,-144.0748,-67.9525
-2875.0000,-48.1001,125.7111,71.5941,82.5174,-34.6208,38.7299,-58.3234,-8.6174,-41.7292,-45.2321,4.4931,31.6694,1.3425,31.6041,-71.1914,-7.2127,-31.6129,35.4992,-207.0488,-26.0956
-2867.1875,63.5924,202.2473,117.3979,125.1376,-63.0034,10.1849,-159.4874,-73.9319,-69.7985,-99.0197,65.4858,39.1564,46.1218,3.1504,-62.3274,-72.5098,10.0271,6.8508,-165.2318,-54.4367
-2859.3750,52.2793,84.7823,141.2038,77.7569,-2.3896,-3.3594,-62.6612,-124.2390,-8.8631,-82.8518,73.2464,26.6396,33.9082,-47.3058,-1.4615,-122.8011,103.6630,-4.8042,-71.4223,-30.7667
-2851.5625,65.3275,-8.3165,120.3684,90.7313,-60.4266,11.4422,-46.5041,-108.2055,6.4063,-42.4460,61.6674,4.4756,12.0505,4.5920,-59.2528,-69.7455,116.6511,41.8905,11.7246,-88.7404
-2843.7500,45.0787,6.3113,63.2328,105.4246,-80.7690,64.9466,-29.6749,-18.4707,-49.6375,-27.5832,17.5017,58.0217,-44.1176,58.2009,-79.3561,-16.9862,61.3406,21.2879,-8.4460,-109.0086
-2835.9375,-3.9264,28.1952,11.3410,127.3852,-95.8690,86.7020,-7.6145,40.5171,-64.4314,-26.1880,-26.8304,116.8260,-96.0446,43.0691,-94.2238,-67.9715,118.2905,42.9398,-21.3676,-87.0234
-2828.1250,40.1313,72.1325,21.5020,170.4027,-85.9212,59.5058,-71.5178,13.5590,-54.1702,-25.6896,-23.3948,126.6784,-122.9254,89.9861,-158.0508,-57.9041,161.2906,51.6400,-13.2432,-113.9913
-2820.3125,5.4934,2.3680,57.9677,171.7225,23.3267,95.6142,1.8711,-23.0887,-91.6057,-24.9510,-7.5088,51.8270,-123.5120,52.2001,-121.5773,-21.5397,197.5826,51.6373,-11.8238,-77.6484
-2812.5000,31.3501,-6.8819,85.9281,127.5493,88.0648,49.2251,-44.2578,-69.2322,-100.5479,-46.5364,17.5101,79.4817,-95.6026,79.9247,-130.6132,-30.6690,223.3751,7.1445,14.0845,-86.8007
-2804.6875,116.5618,42.2321,100.2404,71.7400,102.1465,26.1922,6.9408,-55.0219,-49.1474,-44.6966,49.3845,19.4881,-81.3477,20.0055,-42.3053,-53.4385,132.5137,-48.9998,-6.6690,-72.6026
-2796.8750,79.2719,75.8425,95.0512,34.4419,96.7227,-15.3414,1.6332,-23.3110,-54.2421,-41.4620,58.0510,14.9970,-12.5968,15.5855,-47.4950,-21.7093,60.1533,-15.6485,-78.9260,-3.8956
-2789.0625,121.5360,153.0083,103.4089,40.6994,67.8417,-81.3311,-64.1401,-52.0474,-82.7834,-80.1035,97.3639,-13.9467,68.7102,-50.2791,-39.1418,-50.4331,66.3418,-9.7458,-107.6345,-32.6389
-2781.2500,57.4555,53.8236,147.4224,47.6067,74.6130,-37.6715,-20.2659,-45.1297,-112.6663,-85.2766,113.7867,-44.2418,112.6672,-117.4984,77.8598,-43.5084,73.1772,-3.1974,-135.7004,-25.7274
-2773.4375,2.5261,-1.2014,164.5832,62.6701,54.5280,-57.8595,-114.2529,-102.0587,-95.3952,-94.6778,115.0435,-27.3812,166.7653,-100.5617,95.0011,-63.4286,159.1588,-23.4927,-85.6282,-45.6580
-2765.6250,196.6002,16.7898,219.7399,10.7499,72.4358,-150.0461,-96.2600,-192.9818,33.8708,-96.4316,181.9272,-9.5120,184.8574,-119.6203,150.1386,-119.3410,177.1356,-251.7939,3.4348,-27.5780
-2757.8125,259.8198,-96.0683,209.0415,-172.0158,99.4934,-234.0820,77.8735,-313.7538,207.2883,-59.6944,189.6731,-57.4886,174.0924,-128.5248,176.4254,-165.1043,205.2642,-258.9438,136.6455,35.6660
-2750.0000,270.9423,-155.0183,154.2386,-300.8731,118.4439,-325.2280,96.8869,-294.6240,373.6084,27.8563,169.5408,-148.5641,193.2330,-147.5243,158.6086,-146.9637,251.2913,-214.1924,288.7504,-129.1908
-2742.1875,297.4273,-305.6046,260.7911,-346.3774,260.7435,-294.0242,276.2399,-300.1402,480.2790,66.3912,250.1143,-337.2863,262.7232,-299.1744,265.1363,-187.4711,277.6578,-329.0984,350.1905,-243.6926
-2734.3750,288.9104,-383.1839,361.3413,-354.8785,361.0387,-340.8204,376.5750,-346.6525,359.9463,-28.0208,333.6531,-346.9971,363.2100,-345.8135,365.6588,-271.9766,304.0215,-338.0001,235.6236,-217.1851
-2726.5625,249.7538,-247.4090,316.2447,-218.0252,315.6812,-239.2724,220.2438,-244.8168,203.9699,-66.4620,268.8829,-209.3561,244.0485,-244.1010,320.5277,-207.1361,158.7448,-236.5536,20.4085,-115.3283
-2718.7500,48.0504,-201.1873,138.6050,-137.7138,211.7751,-159.2726,116.3619,-200.5335,174.4458,-15.5557,110.4663,-129.2595,140.3351,-127.9374,252.8470,-126.8500,168.9207,-86.6588,100.6307,-35.0148
-2710.9375,19.4499,-231.8507,113.0568,-131.2870,184.9588,-149.1710,90.5562,-154.1412,148.0198,15.8024,85.4543,-118.0534,114.7118,-116.6609,153.2550,-78.4647,174.1879,-45.6506,176.9436,-134.5984
-2703.1250,70.3978,-250.9535,165.0450,-150.2955,237.6895,-59.5103,143.2872,-64.1865,128.1410,5.0695,141.8423,-176.2922,130.6277,-174.8338,133.2086,-136.5232,84.9992,-65.0869,122.8003,-118.6300
-2695.3125,10.1833,-205.1952,100.8777,-140.4499,209.2679,-13.9937,114.8676,-55.3809,63.1177,-10.7650,99.8591,-130.6753,102.3873,-129.1557,31.0085,-127.7289,59.6629,50.3293,98.5053,-72.8053
-2687.5000,28.7289,-115.6720,47.4629,-120.8501,192.5904,-67.7246,98.1781,1.1760,83.8461,-3.2461,74.7153,-73.3023,85.8908,-108.7183,-21.4528,-144.1815,8.0792,-36.5089,81.9516,-89.2240
-2679.6875,-33.6187,-109.0520,52.1465,-149.1457,160.0073,-64.3528,138.5808,-31.1619,124.6804,19.0956,36.8016,-32.8269,53.4881,-177.1834,19.1824,-103.5389,15.5988,-100.2473,53.5008,-11.5284
-2671.8750,-14.5601,-19.0286,-0.7713,-130.0337,69.8148,-153.5900,49.3679,-10.0987,145.9165,42.0804,-0.3335,-11.9490,37.4872,-121.2430,3.2144,-45.4935,34.5175,-81.5826,37.4490,-27.4299
-2664.0625,50.1511,-24.3483,30.9593,-100.2679,28.2746,-86.1743,43.7973,21.6232,140.8043,41.7308,16.9410,-54.4188,-4.8658,-126.6513,-2.1032,-50.7916,29.0779,-87.2722,-2.9648,-32.6788
-2656.2500,-62.1968,-137.7154,23.6337,-142.5452,20.6863,-93.8065,72.1647,14.2994,133.6355,66.5310,-5.1617,-98.9327,24.7324,-134.1008,-9.4784,-21.1297,91.5870,-24.0052,59.5664,-39.9719
-2648.4375,32.7137,-182.8121,91.5592,-187.5552,51.3421,-99.1866,66.7543,8.2334,164.7093,64.4175,70.5994,-178.1833,92.5739,-176.2919,-15.6194,-64.2160,116.3441,-105.4859,154.3346,-156.0174
-2640.6250,48.1302,-238.3986,141.9899,-208.0619,138.4963,-86.0643,226.8280,21.6715,178.2798,37.9046,87.0080,-164.9240,31.9127,-199.9783,34.7396,-160.8003,25.5965,-125.4781,64.5947,-105.5496
-2632.8125,-34.8475,-39.3786,14.0144,-43.9690,10.2451,-30.3551,98.4861,114.7097,14.4585,14.9827,-26.5059,1.9416,-96.1470,-70.0597,-129.3015,-67.7825,-57.5557,37.1295,-124.5460,-12.4684
-2625.0000,-67.3179,139.1452,-94.4621,64.6284,-98.5058,44.8502,-119.3659,153.2496,-93.8568,12.3435,-108.7099,77.3111,-166.7076,5.3615,-200.8406,44.7310,-54.2112,75.2346,-156.1968,26.1239
-2617.1875,-73.0980,133.3708,-101.2459,58.9279,-105.5623,73.7573,-127.5224,109.4924,-100.4684,1.4427,-128.7756,106.3862,-211.5712,34.4831,-208.6801,36.9455,45.8355,104.0499,-162.1449,55.4289
-2609.3750,-35.5235,135.9548,-97.6828,96.5865,-102.2741,41.0162,-197.3483,113.0846,-169.7339,-34.6269,-100.8099,146.8173,-170.0835,111.9590,-277.1771,41.5114,13.2343,106.2291,-194.7442,23.0814
-2601.5625,-69.5536,101.9380,-61.7210,62.6488,-66.5814,76.6872,-161.7721,76.0818,-170.5975,-55.3822,-83.0048,109.6485,-134.2002,74.8374,-205.2720,3.4764,49.0298,36.8134,-193.9497,59.1369
-2593.7500,-60.5438,75.9685,-52.7160,36.7665,-57.8355,48.4145,-190.1449,48.1361,-161.4149,-67.1360,-60.7326,81.5359,-88.2731,46.7705,-196.3240,12.4927,-13.1296,115.4626,-255.1055,68.2437
-2585.9375,-118.1814,123.3591,-150.3739,119.2453,-118.7420,134.5006,-251.1761,134.5573,-185.8842,-39.9791,-124.3168,130.7817,-113.0040,96.0603,-184.0312,98.8583,-140.9458,127.4638,-313.9207,80.6997
-2578.1250,-159.5706,81.0052,-159.7881,76.9844,-92.4018,123.8484,-187.9664,124.2288,-195.1069,-45.4319,-110.4569,83.2887,-49.4863,48.6018,-120.4907,51.4759,-77.5119,49.7204,-215.4959,144.4153
-2570.3125,-15.3067,50.3119,-80.5532,11.3850,-86.4170,18.8443,-219.1332,56.5483,-188.6890,-79.9968,-24.8223,52.4587,28.6859,54.8046,-77.3084,57.7433,-73.4229,-16.3663,-246.4259,113.7804
-2562.5000,-24.2858,146.3752,-55.5610,1.5399,-98.6716,43.5884,-268.5532,81.6158,-200.5189,-71.7871,-44.8692,77.3842,-18.3910,79.7572,-89.3724,119.7527,-118.5784,-25.7145,-326.6067,138.8951
-2554.6875,-67.6627,244.0403,-101.9669,64.2939,-181.3168,34.9292,-314.3733,109.2794,-246.7441,-80.2432,-94.5442,141.9139,-64.8645,144.3119,-134.8380,110.3604,-126.1367,-34.4570,-299.1891,166.6154
-2546.8750,5.4096,281.1651,-99.9241,31.5086,-179.5132,0.7291,-276.7621,111.4095,-207.5300,-74.9457,-60.2335,143.8982,-25.8955,109.3270,-132.8660,75.4244,-124.2547,-102.7391,-227.3298,168.7919
-2539.0625,-9.6276,126.1911,-79.9874,-17.3705,-123.8157,-54.5627,-147.2665,58.4470,-114.4196,-46.4701,-43.3867,89.7902,-7.0311,56.2439,-76.9998,22.4016,-33.4684,-117.1115,-136.5684,224.8773
-2531.2500,-52.4074,189.4740,-86.8004,45.0085,-129.8675,-23.6051,-227.5376,51.7330,-194.0608,-67.4931,-69.1012,119.9425,-49.9186,122.4191,-156.8905,52.6294,-41.4292,49.7744,-179.5636,182.2088
-2523.4375,-122.1244,224.8113,-86.5617,151.4435,-166.8633,122.4109,-227.7659,125.0685,-303.6483,-71.0146,-105.7341,157.1526,-122.7605,122.6461,-156.7290,88.9009,-41.3430,84.7091,-214.5137,182.5950
-2515.6250,-125.4918,221.4935,-89.9776,148.2284,-133.5053,118.7753,-268.6460,48.7471,-270.8808,-61.9375,-113.5454,190.7142,-126.2513,119.2224,-197.2136,122.5177,26.0996,81.0018,-183.1096,179.3413
-2507.8125,-43.9526,303.0809,-149.4943,158.9125,-157.2472,96.0420,-328.6351,62.3300,-182.2121,-33.9424,-117.5875,204.1731,-112.8411,133.6976,-219.8020,137.0449,0.4333,56.2022,-171.8087,119.9896
-2500.0000,13.8315,220.9189,-125.7669,147.8487,-96.7361,82.5715,-268.3764,13.1701,-85.2936,-41.3553,-77.9322,154.8822,-89.1848,83.4248,-123.1414,13.8237,94.0149,-24.3363,-113.2613,143.9005
-2492.1875,109.7131,210.8566,-59.9495,137.8899,-68.1259,0.2060,-277.0315,-31.8872,-130.2796,-94.0025,-2.0398,146.6985,-24.4287,75.2609,-94.3860,-31.2963,84.7049,-0.7607,-123.6109,98.9118
-2484.3750,158.9469,225.1522,-9.7873,117.2906,-54.1654,51.2006,-189.3450,18.4096,-188.9190,-106.0096,27.3732,123.8733,-46.3254,89.4574,-43.2843,-17.0678,-7.2530,-55.8272,-144.6137,113.2668
-2476.5625,-0.6700,135.5992,-69.4753,96.8516,-78.0534,101.3526,-139.5116,68.8532,-138.4149,-66.3480,-28.9948,100.2115,-33.0741,139.8075,-30.0355,-39.6861,-62.0540,28.2615,-94.4683,163.7699
-2468.7500,-2.1319,65.2064,-140.0116,62.5712,-111.7918,67.6524,-137.5370,146.4494,-61.7617,-2.8884,-55.1577,103.7113,-30.6725,106.3090,-27.6415,-37.1532,-97.7109,27.4964,44.8271,93.4189
-2460.9375,-19.1462,11.2594,-125.1003,43.7381,-60.0729,119.4072,23.8945,198.5016,26.3440,73.0282,-86.0865,118.6605,-125.8172,121.2615,-48.7947,50.8267,-221.9198,9.1773,-7.4234,145.5250
-2453.1250,-181.8601,200.6103,-301.8921,198.2012,-200.0511,236.4626,-153.3790,388.8513,-150.2524,114.1502,-261.2892,346.9123,-302.6585,349.5221,-262.6497,279.1025,-419.8242,163.1684,-170.3664,299.9333
-2445.3125,-290.4176,304.1116,-457.5344,336.8202,-356.8777,337.6751,-346.5122,491.3546,-231.7023,133.3778,-364.6684,411.3268,-348.3515,376.9393,-271.3575,343.5309,-457.5826,231.3185,-173.1680,438.4924
-2437.5000,-288.4364,236.1674,-382.6304,233.9993,-318.1518,267.4453,-271.1044,345.4121,-193.6133,81.5973,-280.5120,303.3009,-199.4998,269.9176,-196.5215,199.5159,-279.7869,233.0284,-65.4200,440.6065
-2429.6875,-166.2998,251.3800,-249.5816,179.3335,-259.2748,214.3682,-286.5606,257.6225,-170.3711,46.7003,-184.9399,251.4332,-140.5006,254.0480,-173.5430,184.6527,-298.8419,247.8895,-85.5162,315.8704
-2421.8750,-210.3102,278.4389,-259.6794,206.5123,-195.5379,315.1404,-223.1642,321.6822,-180.2754,76.3547,-221.9501,241.4164,-223.6493,244.0269,-146.7099,247.6377,-413.0431,274.5951,-163.7588,342.9959
-2414.0625,-289.5745,340.2373,-344.0348,232.4398,-244.0481,377.6585,-272.0181,347.4880,-265.4293,61.3747,-274.1846,304.1590,-235.0451,269.7551,-158.1250,273.3716,-422.4858,406.0645,-174.2434,368.8800
-2406.2500,-266.2300,363.6411,-353.7917,255.9714,-216.9569,403.7827,-319.2773,300.8957,-237.9845,65.3331,-274.3777,257.5051,-244.8396,260.0844,-167.9399,263.7026,-328.3331,394.1384,-115.1290,322.3631
-2398.4375,-200.0966,182.8455,-246.7633,181.3055,-184.0660,327.7152,-211.7315,224.1115,-93.7389,108.9143,-196.1636,144.6571,-174.8422,147.2209,-97.9523,223.8447,-192.3862,319.0229,20.7792,282.6511
-2390.6250,-87.0709,119.9574,-234.8497,118.5417,-134.2789,229.5484,-200.2916,200.2315,-7.5923,114.7993,-147.9624,82.7188,-124.9489,159.2687,-49.0698,199.8941,-185.5417,290.8181,28.5926,184.8362
-2382.8125,-101.6433,141.4641,-212.5295,104.1746,-39.0780,250.7843,-105.4437,185.7499,-22.0428,90.8932,-131.3338,68.1806,-103.6538,107.7140,46.2177,185.3413,-200.2936,276.0040,-57.1902,170.4242
-2375.0000,-143.9617,134.2102,-182.9539,133.0564,-46.6185,243.2677,-113.3465,104.5110,-29.2498,65.1629,-127.5503,97.8984,-74.1004,137.4132,38.7586,178.0268,-171.7895,268.4511,-64.7204,163.2671
-2367.1875,-19.3233,118.9126,-123.4317,117.8929,-24.2051,156.7088,-164.3085,54.2255,-6.5184,31.0407,-45.5568,84.5712,21.4065,161.0688,61.2442,127.6610,-82.3380,147.8582,-44.3028,113.0561
-2359.3750,4.7569,2.0679,-24.4669,36.1881,37.6582,108.6154,-64.8178,-65.6031,55.6550,0.8536,18.1432,73.7028,84.3591,113.1769,124.1783,42.7556,11.5610,101.7258,-21.4410,102.2986
-2351.5625,49.7325,12.1296,26.3867,11.3881,52.4178,12.4263,-125.4318,-89.5324,33.7242,-6.6688,55.2462,51.7430,135.2112,164.1952,101.0072,93.7490,21.3613,75.5037,-11.6700,6.4407
-2343.7500,57.4144,-50.1101,71.9406,-15.7149,60.8849,57.9412,-6.3346,-79.7628,79.4967,25.7318,67.3794,-12.5162,107.7629,99.9117,147.5385,103.4330,-41.1374,47.9808,30.8104,-20.7181
-2335.9375,-31.2052,-104.6555,15.1944,-34.1254,77.0594,74.1518,46.4779,-63.2948,59.9720,39.5880,28.5264,-33.0716,87.0137,79.3260,126.7678,82.8150,-60.9353,135.1639,117.0000,-4.1784
-2328.1250,-29.7740,-67.1470,-16.5072,-32.4913,45.2900,79.4221,13.3430,-94.7720,27.5105,-1.8518,31.3322,8.4371,129.3044,121.7942,132.0476,14.2474,-23.6912,136.3945,189.2404,-72.5918
-2320.3125,68.8931,-250.3993,91.0237,-144.6088,190.7760,-33.0484,195.4604,-316.9951,99.3035,-70.0464,155.8396,-103.7989,273.8420,-27.4844,313.5850,-171.0705,215.8096,-11.1126,358.7390,-184.7437
-2312.5000,252.5177,-347.6985,292.4987,-277.7713,355.2060,-236.5632,322.5191,-484.2675,228.0355,-115.9821,331.2030,-233.0755,438.3268,-156.7980,405.0685,-301.4305,294.2554,-144.6540,401.1880,-387.9536
-2304.6875,330.7955,-375.3488,411.6288,-269.2756,437.2988,-227.4153,331.2377,-437.8902,236.4020,-102.1209,386.9865,-260.7012,410.4621,-184.4629,377.2016,-255.1412,195.3497,-242.5377,303.2762,-415.5106
-2296.8750,217.3623,-348.6963,324.0569,-242.4751,385.6971,-205.9623,279.2515,-342.2247,222.0531,-50.2087,293.8206,-202.0146,322.9062,-162.8216,288.6308,-196.5602,222.7502,-216.0986,294.6650,-282.7646
-2289.0625,271.0379,-258.9365,268.5887,-223.5655,331.2028,-260.4023,150.3550,-323.4615,240.7908,-42.0497,277.0703,-219.2214,304.4532,-144.0758,233.1503,-213.8854,276.2549,-232.5501,348.1597,-263.9290
-2281.2500,303.8593,-297.0432,301.2755,-225.5094,326.8710,-264.6799,255.6305,-327.5573,273.6815,-23.0285,273.2288,-223.2780,226.1505,-184.1857,265.8269,-218.0775,273.9262,-234.8440,345.8117,-230.9414
-2273.4375,320.3341,-244.5010,280.6103,-173.7990,232.1988,-248.3096,198.5525,-311.0073,217.2146,-47.8744,259.4802,-169.6835,206.5026,-167.6429,245.1499,-201.6199,254.2579,-183.4719,256.1109,-214.3086
-2265.6250,316.0615,-178.7105,238.1927,-177.8347,226.7818,-217.6803,154.7323,-280.2006,247.9929,-25.9919,223.2374,-138.8468,163.1052,-210.8598,239.7263,-170.9055,214.8383,-222.8459,216.6606,-183.4278
-2257.8125,154.5788,-163.1204,177.5704,-162.0801,203.1757,-167.2483,204.7222,-265.5972,224.5760,-16.7395,148.4734,-125.2124,139.5062,-123.2772,179.1040,-120.3941,124.2228,-137.4072,126.0200,-132.7476
-2250.0000,96.2030,-116.4249,154.0540,-80.2294,105.6788,-153.7114,106.8095,-215.8947,164.2548,-22.9399,119.0585,-75.4701,153.0081,-36.5926,118.5779,-70.7835,65.7056,-125.8610,67.4802,-155.9770
-2242.1875,113.4702,-170.0877,133.1904,-97.7242,121.8344,-138.5110,158.5530,-200.5385,179.5721,-17.4737,112.7598,-59.0692,132.1577,-57.2474,207.6989,-91.5225,82.8385,-179.6562,84.5924,-103.5539
-2234.3750,143.4442,-175.0379,128.0250,-173.5086,116.6800,-180.6093,189.9868,-241.4912,174.5770,-31.7277,133.6042,-63.9568,163.0161,-99.1929,202.5122,-133.5659,112.6738,-148.7438,184.4018,-108.4370
-2226.5625,154.7872,-127.6359,104.2129,-160.9462,128.8822,-130.3556,239.7734,-155.0943,150.9279,-16.3182,115.0906,-87.4902,103.2263,-85.7897,178.6805,-120.2589,18.8553,-137.4913,160.5673,-131.9717
-2218.7500,69.3222,-179.0395,47.5874,-142.1952,147.2899,-75.9007,256.7704,-137.4949,95.4779,-16.7940,76.1603,-69.8203,83.6298,-68.1889,160.0605,-102.7446,37.2361,-48.0308,144.9526,-77.3012
-2210.9375,99.9602,-112.3380,8.0562,-110.3452,70.8031,-78.3488,142.8695,-102.7894,56.1187,0.6621,50.5971,-36.0435,44.1341,-34.4831,46.5326,-32.1195,33.7155,-17.4740,175.4498,-116.5337
-2203.1250,137.9936,-180.2466,8.9260,-107.1004,71.7168,-4.3934,144.3856,-27.6869,131.1648,68.3644,38.2527,-107.8648,-27.9658,-69.3735,84.3998,5.9115,35.6004,-84.5140,213.3476,-78.3586
-2195.3125,57.0334,-120.1472,-41.2141,-117.8464,-15.3764,-17.4300,129.8886,-41.5873,80.1972,53.9884,-14.7239,-47.6764,-42.0694,-9.2484,70.2547,29.9408,25.4907,-24.5290,203.2418,-18.1873
-2187.5000,24.3811,-46.7422,-74.0588,-115.2898,-11.1671,-13.1539,96.6920,-37.1891,84.5213,48.5728,-40.8693,-6.1809,-37.8714,31.1742,37.4145,33.2738,27.6805,-57.2401,170.4377,-50.7224
-2179.6875,-6.7332,-113.8124,-33.3478,-111.2000,28.6047,-46.3278,210.0719,-107.2590,125.3974,44.2962,-27.3845,-2.1413,-34.1114,-37.8609,41.1432,-35.8563,137.4407,-53.3946,209.1994,-46.7113
-2171.8750,-9.6917,-80.7398,1.5193,-7.9668,64.5472,-84.3552,135.6172,-71.1850,87.4258,16.3464,-12.0673,-3.9539,-35.1930,-2.7459,3.0215,-73.8453,134.3449,-21.3964,101.1154,-84.5657
-2164.0625,-25.4024,-26.4255,55.6440,11.5126,44.7579,-30.1231,152.4296,-53.8541,31.6922,-4.7896,9.3967,14.4829,-18.0189,-58.3872,21.1549,-56.5879,82.4886,-37.1433,14.2771,-30.1610
-2156.2500,-76.2817,-77.2632,39.6176,-3.1556,64.8163,-84.0399,98.0850,-107.6712,14.7916,-8.3010,9.2103,-39.2242,39.0099,-75.1703,41.1305,-36.4772,138.4890,-17.0214,69.2873,-9.9022
-2148.4375,-11.7047,-117.6431,73.0354,-44.3726,62.3174,-123.4988,95.1792,-73.0330,85.3387,27.3359,44.2501,-115.4800,72.4850,-114.4958,74.5553,-2.9065,61.9336,-23.4432,63.7516,-86.2019
-2140.6250,-45.8320,-152.7294,71.7437,-78.2917,61.1270,-87.6458,167.5895,-37.1052,121.1871,55.7587,16.3322,-116.4348,34.2561,-78.5257,147.2871,32.9628,-8.3121,-57.5588,28.5242,-50.2025
-2132.8125,29.8529,-75.9977,40.2373,-72.4113,29.7356,-118.9906,135.8107,-68.3778,52.8278,-5.7714,41.1734,-73.5864,76.8258,-72.7499,115.8204,2.6252,-2.7615,-86.8661,-35.9003,-44.4133
-2125.0000,79.8541,9.0333,92.0352,-22.2390,8.6504,-141.0296,113.3543,-53.3548,-5.2321,-49.0454,82.4831,-58.4469,91.6973,-131.6883,93.6625,-56.4200,12.0930,-107.8801,-92.0182,-29.3231
-2117.1875,2.7533,-33.0397,84.7340,5.8292,1.4757,-184.1743,142.8016,-97.4439,24.6079,-38.1713,70.7148,-65.4042,121.4713,-174.7330,86.3943,-100.5566,110.8552,-78.9784,6.7709,-36.3355
-2109.3750,2.4996,1.7433,88.2827,76.7530,4.1489,-181.4564,145.0944,-56.6767,-9.7188,-30.1212,51.5507,-61.4984,51.0885,-134.9158,52.9688,-96.8357,75.4666,-44.2234,42.4082,-106.5017
-2101.5625,-83.1637,-48.8972,31.4275,96.2679,-14.5726,-16.1340,163.0018,33.6886,-65.4390,16.9593,-13.9042,-80.9992,-41.6932,-80.5027,-2.8447,-5.5233,58.6892,10.1279,60.6706,-52.0562
-2093.7500,-3.1136,-108.8380,6.2702,35.4671,-3.5947,-5.1251,63.6179,8.7498,-53.4507,19.3916,2.9794,-68.8014,-29.7799,-31.3883,-64.9639,5.4867,139.6092,-14.8237,141.6517,-76.9132
-2085.9375,181.8851,-135.8108,126.0530,-25.3772,42.3249,-69.1641,35.1893,-55.2239,-7.5157,-19.0059,110.2262,-59.6474,15.0708,-59.3226,-56.1388,-58.5483,148.4687,-110.8096,115.5715,-67.8228
-2078.1250,98.8191,-112.8318,109.7737,-73.2558,63.1839,-85.2414,-54.2860,-71.2456,-23.6439,-36.9780,81.1169,-1.5314,36.8681,-1.2999,-35.3753,-37.6260,136.2843,-52.8204,32.4319,-9.7872
-2070.3125,15.0079,-20.6032,97.7504,-15.8781,51.3040,-60.0621,-177.5015,-46.0321,-72.5366,-39.6241,54.2237,22.8294,60.9258,59.9628,-84.3592,23.5326,87.3726,3.4272,-16.4541,-58.5194
-2062.5000,-77.6031,-8.2096,109.9430,31.6858,63.6490,-10.6819,-54.4737,-33.6314,-97.2223,-45.9125,16.9491,35.3672,0.1886,-0.5947,1.8729,-0.1247,63.6822,15.8776,-74.1193,-46.0600
-2054.6875,-72.8737,31.5186,79.4878,72.5909,33.3631,-40.9453,-48.0776,-63.8876,-90.5605,-45.1740,6.1341,5.2493,5.8081,5.1988,-28.5463,5.5618,139.3419,20.6930,-69.4271,-76.2687
-2046.8750,40.8542,75.2509,126.0389,80.4913,43.0919,-32.2024,-39.6632,-54.1353,-80.9087,-83.3598,73.8585,-21.8706,52.4268,-58.0142,17.0369,-57.7535,76.9875,-6.4948,-167.7349,-103.4837
-2039.0625,0.1186,-35.4711,80.1444,39.9284,71.3796,-2.9050,62.3176,-99.8379,-89.7149,-104.1424,85.2706,-29.4518,117.6004,-103.6814,45.1672,-103.5222,36.1937,58.8740,-137.4716,-38.1450
-2031.2500,-25.4593,-61.0450,54.4005,49.5120,82.8219,-28.4575,73.4493,-51.3959,-115.3796,-95.2179,79.1235,-91.8871,128.9328,-55.1992,19.4442,-92.1367,-24.4402,104.3982,-128.0455,-63.6721
-2023.4375,-93.6481,-58.2322,55.0495,17.4923,83.6687,9.4054,148.0050,59.4521,-114.6488,-35.9729,47.0306,-127.9112,92.6542,-128.3101,57.1174,-17.3514,-92.6788,36.3352,-125.2140,-25.8079
-2015.6250,-128.7060,-58.2723,18.8328,-17.3746,46.6613,-64.5750,147.7145,59.4593,-40.7811,21.6700,15.9449,-163.7637,92.5137,-164.2498,20.9323,19.5944,-56.7774,36.4375,-19.2246,-25.8071
-2007.8125,1.8461,36.2918,8.2190,7.3534,36.2605,-74.9493,174.0352,86.0754,-14.3155,0.2988,22.0568,-101.0223,8.9721,-138.5958,-26.6503,-64.8612,-67.2829,-8.8787,-64.6242,-36.2206
-2000.0000,-7.4335,62.9961,-6.2339,-1.7881,23.0203,-52.1829,159.5328,35.8310,-28.6941,-10.0897,-2.7330,-41.1448,-42.4088,-77.8096,-77.0724,-78.1719,-6.6336,-18.0556,-3.8694,60.5175
-1992.1875,-9.3510,95.0567,-117.3362,31.4168,-14.8695,20.9253,11.3896,71.9354,-66.7267,12.1241,-68.1155,-4.9183,-116.4431,-5.6786,-151.1481,-6.1323,-44.6469,50.1263,64.2371,22.6048
-1984.3750,-31.2831,74.1044,-139.4467,10.6101,-37.7568,108.0394,25.2656,122.0448,-52.7572,46.7433,-96.2386,9.3096,-138.4861,8.4539,-101.2170,81.9138,-100.6585,29.3123,8.3481,36.7015
-1976.5625,-70.6213,69.7440,-145.9634,5.4040,-80.0472,102.7495,-18.2526,116.7419,-58.1872,47.6708,-121.2747,77.1289,-144.9201,39.1857,-106.6848,112.5609,-70.0523,25.1110,-31.9353,67.3904
-1968.7500,47.1532,187.4980,-60.3661,53.3056,-139.2364,79.5599,-150.6683,56.5308,-45.5279,1.0690,-56.2537,91.0477,-95.2443,53.0134,-130.0587,89.3057,-58.3433,-33.9890,-124.1352,44.1639
-1960.9375,31.8686,172.2094,-41.8091,73.1694,-159.4710,96.3283,-134.1240,36.2655,-26.9335,-13.1517,-58.1836,144.9157,-114.6249,32.7867,-113.4850,31.9904,-72.6776,-47.1372,-139.3940,134.8912
-1953.1250,-42.4096,166.9405,-84.2529,68.0349,-200.7115,17.0939,-176.5764,30.9933,-32.3372,-10.8743,-87.2267,139.7838,-83.0070,64.5528,-118.9205,26.6700,-42.0043,51.7133,-109.6463,129.6119
-1945.3125,-107.7786,102.5677,-76.7872,38.7897,-157.0405,61.7587,-95.0997,112.6125,-25.8402,54.9011,-107.3683,73.5502,-112.4920,-1.7901,-111.4473,108.2390,-71.4283,58.4605,-67.9934,100.2323
-1937.5000,-142.8489,67.4877,-77.0230,3.8339,-120.0693,61.7150,50.6909,75.5198,-26.0574,42.2040,-95.7555,36.6154,-75.6681,-37.8262,-74.6690,71.1134,-107.5457,58.5083,-34.0352,100.1490
-1929.6875,-36.9564,173.3611,-111.3026,4.8206,-117.1484,27.6204,53.4296,115.3803,-60.3313,7.8167,-73.1453,2.6248,-73.8895,-35.9176,-72.9397,36.9466,-211.7181,59.4989,-102.1224,66.0039
-1921.8750,-130.2554,115.0267,-175.7849,-18.4080,-107.4210,37.3281,136.9889,198.0360,-49.8011,58.7357,-125.2147,-23.5762,-100.3149,-25.2226,-62.4025,83.5765,-271.0848,106.2930,-91.3979,112.6581
-1914.0625,-165.2535,44.9921,-208.9732,17.6631,-104.3946,4.3423,102.8496,201.9986,-83.9817,65.5332,-127.1709,-20.4835,-61.4517,-59.2179,-96.5803,87.5150,-165.1573,177.4090,-21.3768,42.6040
-1906.2500,-73.8570,65.3506,-110.7710,109.1420,-41.9727,-6.2213,92.1201,154.3725,-95.7767,25.2400,-64.3020,-30.9891,-72.1956,-143.8110,-71.3648,2.8621,-38.8347,127.9290,-34.9549,-42.0500
-1898.4375,-122.8169,-17.6444,-51.9175,131.2594,-19.9025,88.8632,77.0458,102.3838,-73.9213,30.6812,-59.6351,-8.8322,-87.2901,-84.7524,-123.4955,-12.1519,53.1508,115.0948,22.1280,-20.0549
-1890.6250,-42.0609,-7.9288,-40.3547,141.0689,-45.1299,63.6346,-58.3195,40.0865,-62.3649,34.9284,-60.7412,76.0259,-112.6810,37.0002,-184.9256,72.5271,62.8381,-16.0515,66.9107,-45.3716
-1882.8125,-26.8582,-98.7677,-27.3379,15.3162,-31.9026,76.8566,-8.2079,17.2333,24.6409,55.7712,-70.7207,89.3257,-135.6198,124.1954,-98.8950,85.6595,7.9651,-106.7461,82.1312,4.7675
-1875.0000,-151.0689,-117.0138,-119.7271,32.1665,-124.0807,95.6769,-100.4948,71.9797,43.2362,92.1923,-156.7369,182.2186,-153.9547,216.9962,-117.2674,141.4007,-10.3064,16.1765,63.9515,-13.5013
-1867.1875,-207.0797,-68.0577,-141.9160,80.2220,-182.0658,184.7054,-159.5742,160.9317,-15.9800,116.1534,-206.8264,233.3071,-212.0908,304.9857,-175.4368,229.3413,-67.3779,-5.7002,41.9736,-35.5835
-1859.3750,-161.2003,-58.2085,-96.1988,56.1657,-136.1409,193.6358,-76.7330,59.7800,-81.2946,33.6561,-143.5621,206.2923,-166.3265,203.8690,-129.7051,91.1676,13.4593,5.3287,87.8989,10.2227
-1851.5625,-5.0544,-6.0974,-39.2251,2.3554,-116.9556,102.8189,-56.6402,41.8788,-98.3764,-15.5811,-39.7838,115.5248,-74.3038,149.9967,-147.7335,1.2418,-5.4665,21.6097,105.0698,-43.7358
-1843.7500,12.7427,-58.3360,-21.5968,-49.8130,-99.1084,120.6640,34.1213,96.6262,-6.8195,51.1221,-35.9562,-13.5973,-93.6362,56.7670,-93.1165,54.9618,-57.7491,-30.4580,86.8892,-26.0337
-1835.9375,-106.0747,-71.1787,-71.5790,-98.5868,-111.8763,33.9092,95.2821,157.7798,17.1302,110.1262,-82.4584,-63.3319,-69.5737,43.9454,-106.1078,116.1009,-106.6275,26.8894,145.1211,-38.9366
-1828.1250,-96.7905,-27.9168,-96.4664,-54.2649,-62.5465,9.2601,143.5515,243.0412,65.1856,131.3273,-89.8492,-87.9814,-94.4227,-53.7820,-57.0019,54.3454,-132.3973,36.3308,118.4662,-100.7584
-1820.3125,-179.1011,-74.2577,-72.9477,-30.5401,-2.8195,33.0159,278.2443,266.6942,14.6426,115.0502,-92.5136,-138.2308,-107.8839,-104.1159,2.5044,3.9791,-108.7545,95.1767,72.2019,-77.1882
-1812.5000,-156.4941,-17.6781,-121.5255,27.0963,22.8058,58.6696,229.8303,181.2436,-70.0055,43.2460,-86.5447,-112.5756,-82.4484,-78.5514,-9.1034,-44.4971,-17.2131,151.9208,58.8255,-125.7248
-1804.6875,-108.0274,-74.2506,-70.2435,5.5714,111.2779,110.1739,281.2773,86.6424,-55.8021,17.1492,-30.2485,-208.0787,-31.1637,-137.1514,80.1466,-66.1266,32.1839,95.4973,72.3007,-147.4001
-1796.8750,-136.0546,-137.3285,-63.4622,12.5355,118.2514,117.1602,252.2279,56.5254,-49.0966,14.3163,-35.8886,-164.0854,-24.3790,-93.2499,49.8975,-22.2471,4.0867,173.5751,-26.7187,-140.5786
-1789.0625,-109.8238,-5.1450,-72.4295,73.7479,73.4705,145.3921,59.4379,120.6606,-94.1444,-2.9157,-46.2245,-62.8474,-33.3461,7.8977,-33.1025,5.8859,-40.7677,128.9022,-105.4958,-149.5157
-1781.2500,-59.4040,44.2310,12.7993,53.1508,47.8915,157.8299,33.8714,-14.0108,-83.0004,-53.8793,2.3439,-50.4161,14.8838,19.2401,15.1030,-18.7826,9.5849,3.4317,-126.0663,-64.2471
-1773.4375,-0.6915,67.8999,36.3212,41.8517,-1.3964,107.5631,-52.3896,-64.3797,-96.5556,-77.8793,23.5680,10.3175,38.4113,79.8899,2.5994,4.8448,-1.7668,-7.7290,-137.3302,-40.6912
-1765.6250,0.4584,34.0067,-0.7078,42.9956,-39.2257,106.7553,-90.1781,-28.2862,-60.6576,-46.6764,-9.9383,46.4938,1.3850,115.9878,38.5547,40.9200,-0.6817,-41.4427,-136.1501,-4.6921
-1757.8125,-52.2172,-88.6968,17.4564,26.3264,-20.8490,52.1501,2.2577,-83.9944,-5.5664,-30.1630,-19.1358,27.8644,-17.4321,97.2852,19.7126,-14.8055,87.5918,-22.9548,-47.7601,13.5020
-1750.0000,-11.3905,-82.8977,25.1279,31.1423,-48.9677,23.0379,-62.7957,-38.1980,3.0166,-16.5660,-4.6687,35.7236,-8.7452,69.0767,-8.6282,-6.0255,57.3591,17.0290,-41.8656,-51.8180
-1742.1875,-90.4179,-20.9603,-21.0429,23.0938,-21.9278,87.0767,1.3352,61.7420,29.7538,24.2117,-56.7421,26.7140,-55.9038,-13.9948,54.1866,20.9027,-20.7181,44.1590,-120.8198,-24.9939
-1734.3750,-105.2911,34.1354,-38.0623,8.1894,-1.7353,34.2644,21.6173,45.8313,12.6356,2.3843,-39.9585,-27.1435,1.0821,-30.9162,38.1357,-33.0152,-71.6460,64.4515,-65.6290,-5.0352
-1726.5625,-21.4162,46.9793,-25.3256,-49.9655,48.2066,-63.7828,107.6631,94.6747,25.2627,5.0986,1.1958,-88.2634,13.8094,-128.0943,86.8391,-94.1825,-93.8199,7.4890,-16.6883,7.6703
-1718.7500,-32.2352,-33.8926,-37.2861,-128.8202,36.4483,-75.5338,170.0147,83.8072,87.1894,30.2173,-9.2988,-135.0877,1.8402,-102.9744,75.8395,-105.0560,-68.6777,67.8225,8.5564,32.6773
-1710.9375,-3.5420,64.7444,-114.7447,-102.1761,69.1891,-78.7930,92.8557,116.4318,45.6151,44.0055,-28.2791,-176.4093,-1.6264,-107.3576,34.3401,-35.4328,-75.0391,96.6506,36.2964,-44.8268
-1703.1250,-46.5055,-13.2676,-50.8523,-110.1834,96.2778,-14.6923,120.0579,143.4048,36.3885,53.9068,-2.9100,-222.3759,25.2505,-117.3913,61.1935,-45.4645,-13.0544,52.8226,63.3734,-17.9738
-1695.3125,-33.0221,-69.8139,-35.5131,-96.7349,74.8026,-36.1439,24.6975,47.8299,14.6101,18.1050,14.5928,-134.8914,76.5709,-27.9718,39.4844,-30.0357,35.3726,31.4419,76.8873,-39.6639
-1687.5000,35.8738,-0.9359,1.2198,-96.8946,38.7141,0.7993,-47.2673,48.6578,14.2343,-2.8776,39.4142,-97.0130,77.2778,8.8398,3.1787,-29.1956,-0.8110,30.4519,5.7999,-75.9423
-1679.6875,-25.5384,42.6416,8.6444,-18.3648,9.3140,81.4349,-77.5234,-17.8135,-52.4366,-33.6622,-1.3098,-16.4391,10.6809,52.3496,-26.4332,14.3459,42.7151,74.1761,-91.5836,-32.5149
-1671.8750,40.4527,109.6225,42.4736,83.5729,-66.6965,116.4716,-226.3891,-56.8753,-91.7131,-65.6558,23.2132,17.5274,7.4812,87.2582,-139.6579,11.2899,144.6393,106.3025,-130.5711,-71.7076
-1664.0625,122.5854,49.7415,127.4605,94.6534,-55.5415,90.6623,-179.0770,-119.7899,-43.8419,-86.8471,82.2932,28.6244,18.4393,61.3036,-91.7229,-87.6218,190.7186,11.5698,-48.4056,-60.7628
-1656.2500,63.5274,-114.3408,140.2581,34.5259,-6.5798,66.6449,-91.9539,-143.9116,4.8264,-60.6511,91.5437,4.5051,68.2084,74.1390,-78.9870,-74.7321,166.5979,58.6343,-2.4419,-85.0350
-1648.4375,67.3751,-110.5170,108.9622,39.2908,36.2842,109.5306,-122.9243,-101.1288,-26.6082,-62.7056,73.6227,47.2733,36.8763,116.8643,-73.3427,-32.9372,65.3705,97.5926,-68.5874,-116.4125
-1640.6250,69.0243,-38.8908,108.4683,39.8479,35.9459,146.2111,-49.0891,-138.5463,-63.2464,-108.2940,80.0768,46.8363,36.3426,79.3906,-73.8984,-106.3457,136.9432,64.3442,-101.9313,-79.9880
-1632.8125,200.4315,127.4905,136.7255,66.1501,28.3508,27.6356,-57.5070,-146.2107,-71.1231,-133.6922,120.3670,76.1469,28.5489,-2.3367,-118.7085,-151.0080,162.2653,19.8347,-111.5213,-124.8162
-1625.0000,220.7826,148.8166,192.9307,51.3945,10.6992,10.0083,-0.9623,-89.9218,-52.0458,-111.6917,126.7589,58.4020,-25.3042,-56.1170,-62.5687,-168.7200,113.5413,-29.7279,-90.1567,-68.6887
-1617.1875,130.2889,57.2953,134.2805,30.7852,-10.8119,-48.4701,13.7297,-75.4829,-0.8216,-45.8361,69.2992,72.8056,-48.0084,-41.7423,-122.2860,-117.2771,162.9676,-15.1399,29.3550,-54.4126
-1609.3750,197.0500,19.0296,169.8822,27.4217,24.9245,-122.6964,-23.3239,-39.7982,34.6570,-19.6870,111.7859,-1.5463,-12.4680,-79.1245,-122.7494,-117.5801,194.6400,-89.3128,96.1098,-128.8885
-1601.5625,200.2083,-12.8376,243.8818,-39.5531,136.0582,-122.5323,51.0264,-112.7142,108.5474,-28.9936,154.0680,-74.5081,24.4708,-189.1138,-11.8089,-154.4793,197.7122,-156.0929,29.2648,-54.9624
-1593.7500,164.7214,91.6477,241.2297,-5.1816,96.5318,-161.0235,-98.2770,-115.2686,32.7962,-74.5342,156.5381,-40.1251,95.7544,-81.7557,-14.5181,-120.0242,127.1234,-121.5301,-77.2338,-20.6878
-1585.9375,138.7798,172.6794,176.1235,39.7340,31.5504,-79.9573,-162.0178,-70.2723,-33.4068,-90.6410,111.3781,41.8036,67.5882,0.1471,-6.6681,-75.0213,31.0827,-145.4192,-136.1881,24.1445
-1578.1250,97.2919,130.1660,129.4722,32.0949,-15.9844,-52.4441,-135.3103,-78.8388,-43.1680,-89.0046,68.7295,105.1756,19.8735,63.4998,-53.3690,-83.5692,59.5020,-117.8557,-108.6936,87.4241
-1570.3125,181.1111,108.9576,144.1298,10.7511,-73.2112,-109.6336,-193.3008,-137.1104,-28.6329,-79.5736,91.6018,120.8413,35.4604,79.1490,-74.7706,-32.8216,108.2238,-139.0009,-24.9078,65.9977
-1562.5000,190.1703,11.9943,153.0396,-50.3498,-28.1866,-100.5787,-38.0347,-165.1359,-19.8427,-71.5086,110.0576,55.7556,44.3000,14.0457,-29.9218,-23.8274,117.1957,-129.8997,-15.8759,74.8203
-1554.6875,100.1337,27.9329,132.8553,-70.5508,-11.2688,-120.6334,-20.8702,-148.2579,-40.1476,-57.1754,72.2959,35.5642,24.0382,30.8435,-50.1805,-6.9329,62.0634,-79.9067,35.0477,54.5342
-1546.8750,89.1435,51.9192,48.7257,-81.7099,14.6951,-95.6331,42.3529,-86.3310,59.6016,-4.1620,24.1309,24.4125,-24.1720,19.6878,-61.3859,-17.9852,15.9801,-124.8686,59.0126,43.3001
-1539.0625,50.0091,11.7594,5.4494,-121.0208,-28.4963,-64.7872,110.4253,-55.5644,90.1921,29.6866,-17.2709,18.1069,-66.5322,13.3808,-30.7433,12.8142,-24.2481,-59.9794,54.8210,73.9168
-1531.2500,100.2411,27.9602,-51.4704,-104.9805,-48.3397,-48.5963,16.8459,-2.4471,70.1351,26.6665,-17.8148,35.1429,-50.5506,30.4145,-13.7532,29.9608,-79.1256,-44.7546,34.9760,53.8838
-1523.4375,42.9268,-63.3948,-2.9396,-127.4976,0.2631,0.0419,28.7203,9.1191,81.5363,32.8848,7.8376,-62.3851,-2.1211,-31.1091,71.6941,4.5488,-64.5501,-65.0845,47.5834,102.3109
-1515.6250,0.8144,-36.5457,26.7871,-134.8197,-6.9390,-79.1277,-15.2104,-34.1130,37.1372,7.0227,20.2490,-33.7163,64.5090,-38.4293,101.3401,34.3392,-37.7768,-38.2168,5.3878,94.9354
-1507.8125,44.8444,112.4550,73.6613,-56.9993,3.0054,-106.1458,-77.9873,-25.1958,9.8932,-24.3931,34.4546,12.1007,37.2876,-65.6022,74.1399,7.2869,-29.8578,-99.2075,-90.6629,67.7091
-1500.0000,58.1627,126.7569,85.8325,-7.8827,52.2459,-130.8668,-64.4651,-121.9761,-50.0501,-87.9763,56.2313,61.2193,49.3604,-89.4746,86.2394,-52.4623,19.3600,-85.8962,-112.4195,116.7816
-1492.1875,87.9837,155.5668,81.5080,56.7369,47.9821,-135.0833,-216.4482,-126.2541,-55.4967,-73.9821,55.3575,93.8314,44.9348,-57.8505,7.8343,15.2833,49.0764,-57.0908,-118.6825,75.3488
-1484.3750,80.1015,112.6750,108.4854,47.6502,38.0191,-71.0019,-152.1242,-136.2327,7.3587,-38.4418,56.5021,9.7383,34.8082,-103.9286,71.7338,42.3251,40.0927,-134.9897,-91.6503,102.2199
-1476.5625,13.6232,46.1888,36.8646,-17.0395,40.4494,-105.5264,-112.4085,-133.8116,46.6123,-23.5092,26.4254,13.0441,74.0808,-64.6010,74.0302,44.7671,-24.4910,-95.4968,-87.2194,141.4873
-1468.7500,-2.6972,63.8510,18.4035,-35.5853,-13.9693,-50.9065,-167.5360,-42.2447,28.0261,-10.3020,0.7984,30.4911,54.5067,25.8669,91.4815,99.3555,-112.9246,-77.8693,-174.6398,158.9053
-1460.9375,-59.7655,7.7562,-5.8038,-21.8963,-39.1311,-39.0480,-155.4089,-103.4378,40.6942,10.5503,-35.3781,79.1814,31.1916,38.5772,67.1896,148.1924,-29.1061,-64.0012,-125.8097,207.5759
-1453.1250,-38.0305,-40.5335,18.7901,33.5901,-49.4963,-86.3953,-202.4840,-114.8277,28.1640,-3.5448,-8.9101,104.6628,55.6791,63.0855,18.6981,100.8291,26.5046,-8.3341,-70.1890,123.0428
-1445.3125,-19.9552,-58.4732,36.7294,51.4296,4.4790,-31.3851,-111.2094,-96.8627,9.9877,-24.8983,9.4243,85.4872,36.5058,7.9435,73.5590,44.8175,9.4672,-24.3122,-122.2294,140.8658
-1437.5000,-107.7395,-75.2598,-54.1817,69.4258,-13.4045,22.7789,-92.7932,-78.7504,-45.0385,-36.5142,-42.4320,103.4587,18.4760,61.9555,54.5610,26.9537,-6.4113,97.8678,-104.1236,158.8335
-1429.6875,-89.7732,11.6987,-69.3363,87.1739,7.4639,44.6996,-70.6286,-20.8878,-96.3154,-38.4666,-39.3206,15.1729,3.1928,47.7130,40.3111,11.8411,-25.5356,115.7938,-52.2688,70.5455
-1421.8750,-77.5101,-46.0443,-21.1927,-6.7796,56.6336,56.9187,88.8376,28.2708,-48.2893,19.5697,-35.9416,-45.8091,-57.7901,-14.2306,52.3591,61.0288,-118.3558,58.0120,-5.1189,82.5591
-1414.0625,-73.8386,-7.3733,-89.6500,-38.3341,23.1979,23.5334,55.6906,105.8338,-44.8670,51.4603,-59.3849,-42.3867,-54.3759,-10.7707,-18.1981,101.6179,-149.7822,96.6231,-1.5806,85.9713
-1406.2500,-44.6167,-13.1466,-60.5553,-9.3400,15.3097,52.6965,48.0910,134.9464,-15.8916,48.7758,-38.1339,-49.4221,-61.4153,-53.7656,10.8003,19.7572,-120.6614,54.7769,27.5068,114.9430
-1398.4375,-98.2413,-64.7757,-78.3088,-27.2013,-2.4311,35.0002,104.6381,43.2044,39.2365,37.0785,-39.7645,-104.3155,-7.3006,-71.6117,29.9503,-69.9535,36.6171,73.0764,115.7464,97.0661
-1390.6250,-61.5116,-64.0595,1.3023,10.2832,42.1805,-31.3502,38.5333,13.8092,9.7189,28.4088,4.5111,-134.8732,37.1695,-29.1152,0.4532,9.6794,39.2468,39.7193,47.3282,-6.4617
-1382.8125,-62.1861,41.2544,-1.4852,44.3662,2.3893,39.9015,-37.9755,48.0131,-30.2001,25.7601,-26.1416,-27.8387,-2.7567,4.9762,34.5613,116.9083,-67.5196,-32.0383,-94.4990,27.6157
-1375.0000,3.8398,142.2820,-80.5699,40.1526,-76.7031,-3.1506,-152.7982,41.9138,-36.4224,2.5415,-34.6626,39.8976,28.0188,35.7645,28.3687,111.8350,-105.5881,-36.0987,-97.6341,58.3886
-1367.1875,137.2176,204.6561,-89.3005,-3.7171,-85.4417,-48.8554,-125.2644,69.1587,-9.2890,-2.7620,-3.0930,-7.0209,18.1509,-11.1067,55.5342,65.1067,-149.3075,-148.8179,-70.4251,85.5160
-1359.3750,136.8392,204.2798,-91.7775,-4.3397,-124.9306,-50.3171,-90.4828,29.6473,-10.9044,-30.0034,-5.3972,27.3093,15.5355,23.2700,52.9497,25.6267,-149.7708,-114.2852,-106.9730,119.8935
-1351.5625,154.7161,293.1608,-70.9965,49.2929,-177.1732,-30.5271,-216.4605,51.3880,-99.2717,-47.4104,-5.1882,85.8813,0.1655,81.8955,0.6081,84.3997,-166.9849,-61.5039,-124.2807,67.5181
-1343.7500,128.7419,196.1964,-26.0642,22.0783,-94.2721,15.4155,-133.2966,23.2779,-90.4899,-34.0145,15.3767,57.5963,8.9422,16.6746,46.4144,93.3304,-123.0448,-86.5763,-79.4505,76.2986
-1335.9375,129.2713,126.7448,-23.6335,-47.6290,-56.8800,-56.1421,-94.6517,-11.3359,-53.2078,-37.5538,41.9960,22.8131,85.2205,18.9621,85.7199,58.7618,-121.6070,-121.1515,-10.1350,41.5823
-1328.1250,121.7512,119.2418,-31.2539,-90.3930,-27.5385,-99.7456,7.9401,54.9931,13.0288,-0.6135,33.0089,14.9785,77.4511,-25.7991,150.9905,51.1368,-200.2243,-164.7859,-17.8760,33.8271
-1320.3125,-22.3244,81.1817,-147.4311,-93.7153,-69.7457,-68.9045,74.9805,84.7631,42.7219,42.5994,-77.7120,44.5945,-3.8680,40.8929,144.7164,80.9611,-168.3912,-97.9705,-21.1681,100.5274
-1312.5000,-60.7501,183.7808,-146.9590,8.6169,-107.3071,-70.4129,-35.3402,48.1841,6.0618,13.7711,-90.0525,81.8669,-3.5385,78.2364,34.0919,44.4446,-66.9096,4.4894,-24.8241,26.8774
-1304.6875,58.8645,162.4369,-22.4404,22.0053,-18.8215,-17.8694,17.3833,-10.3469,-15.5463,-25.9796,-6.0673,60.1933,-25.1627,-17.3712,12.5146,-14.0194,-17.3818,-53.0046,-46.4387,5.2862
-1296.8750,88.3781,85.9900,-30.0232,16.2902,10.5555,11.5739,-27.0052,-17.9740,-60.2505,-37.8940,11.7751,52.4178,-32.8849,11.9299,-69.1635,-21.5869,12.0477,47.4026,-17.1531,34.5941
-1289.0625,86.5932,49.2315,-68.9048,14.2706,8.6344,9.7161,-101.6913,54.1014,-25.2483,14.0684,-3.5125,13.3355,-34.9060,9.9269,-71.1358,13.5448,-25.8188,10.5025,86.8354,32.5999
-1281.2500,3.8473,-68.4858,-81.7363,-33.7009,-5.2397,-4.0978,-5.3265,77.2280,71.8092,85.5989,-45.3140,-0.7007,-48.8734,32.9727,-48.0574,73.7323,-2.6324,-37.3484,109.8754,55.6525
-1273.4375,-27.0481,-29.3467,-112.7135,40.1802,-109.2624,-34.0634,-72.1144,120.2101,41.7182,93.9439,-72.9024,43.1061,-41.9903,75.8602,-78.1277,116.7681,1.4000,36.6395,77.7636,-11.4473
-1265.6250,16.5045,-20.7650,-63.2281,48.5042,-96.8369,-21.5798,-59.4506,132.6443,16.0835,83.3015,-36.8724,17.3528,-29.6483,51.1902,-65.7382,92.2453,44.8834,-24.9288,122.0980,-73.0836
-1257.8125,31.0542,-147.1803,-9.7422,-43.1723,-43.4172,-42.1012,68.1992,76.0687,33.4467,66.6984,10.6521,-2.3991,23.6945,31.5281,-12.3511,35.7251,59.3671,-46.4889,206.4276,-129.7184
-1250.0000,71.9496,-106.2403,35.0892,-37.4965,-35.6505,-34.2671,76.1913,119.8436,78.1606,58.5148,26.9139,5.2032,-5.6130,39.2226,-4.6095,-30.4400,-40.8073,-75.7033,141.0976,-159.0028
-1242.1875,-54.2644,-56.4039,-27.1818,-57.9198,-23.9883,13.4708,161.0781,131.5136,125.7773,94.9990,-41.2691,15.7043,-31.0184,12.8185,6.0349,17.2945,-132.0764,-61.0229,85.6681,-74.3808
-1234.3750,-96.1205,77.7851,-145.1018,-29.9968,-104.9774,-29.4495,80.3010,124.5317,81.7461,94.0991,-106.0829,45.5574,-38.0762,42.7686,-36.9762,84.3855,-173.9949,37.0048,78.5917,-81.4109
-1226.5625,-90.6307,47.3223,-176.6720,-24.7279,-99.6147,48.9825,122.8785,166.9010,87.0735,97.3095,-121.4516,50.7500,-69.7873,11.0647,41.3678,52.8279,-168.5597,-27.6203,83.8678,-76.0862
-1218.7500,-121.9461,-88.9507,-173.0470,-55.2604,-97.0550,-21.3877,199.6557,95.4742,236.6047,141.4660,-133.1791,-19.8567,-67.2985,-22.4366,117.9160,19.4632,-128.9220,-58.0420,158.3490,-36.5616
-1210.9375,-73.1156,-181.0827,-159.2752,-77.6389,-82.3426,-80.6086,177.5841,184.2027,325.2950,209.2274,-124.0603,-79.3228,-89.6581,-44.7910,95.6241,70.2429,-220.1377,-45.3198,135.9830,-58.8894
-1203.1250,-150.2001,-258.1235,-132.4070,-154.9209,-56.5279,-54.7265,203.6169,210.0361,351.0898,231.1560,-102.7836,-126.6905,10.0799,-93.0412,158.4337,96.1284,-228.2567,-88.4961,127.7089,3.8878
-1195.3125,-66.0369,-172.9028,-44.2902,-175.9469,-4.4702,-76.5929,144.8834,78.1227,182.1298,99.8169,-9.4473,-111.8075,98.0714,-78.0348,136.4895,38.2678,-178.1343,-73.4226,72.6713,18.9144
-1187.5000,-59.9787,9.2264,-38.2700,-65.0731,1.4931,-33.5608,4.0421,47.1055,41.0698,29.0110,-28.4433,-33.0227,30.9677,1.8677,69.4541,44.3002,-136.1120,-32.4551,-27.4782,24.8491
-1179.6875,-143.0222,-4.7473,-89.3427,26.7003,-12.6418,-10.6341,-46.9068,32.9767,26.9172,49.1312,-86.3917,26.6560,-20.2278,61.6661,-18.6765,67.2257,-10.1825,24.4134,29.2713,10.6876
-1171.8750,-43.8145,-45.4748,-54.1591,20.7228,21.4746,-12.4593,-48.6138,30.0898,61.0173,62.1539,-42.6627,-12.4215,-22.1654,21.7178,-57.5528,64.4052,18.9922,18.5289,58.2694,-65.2245
-1164.0625,-24.7156,-132.3085,-0.0757,-30.3578,75.4896,41.6189,5.5801,84.1038,78.0176,70.5351,-11.2267,-69.6000,-42.1979,-34.3334,-3.5198,8.4821,-31.9362,2.5428,77.1639,-11.2321
-1156.2500,-99.0675,-65.5864,-40.4454,-33.8869,36.0430,74.2438,-34.6894,80.6697,1.5728,49.1936,-50.3153,-36.2204,-45.6779,36.1713,-43.9379,42.1037,-0.3170,104.1062,38.6057,-14.6920
-1148.4375,-73.2766,-4.7153,-11.6673,25.7402,26.7399,140.0243,-116.8095,72.3883,-80.7201,26.0544,-38.6008,-44.6935,-54.0084,63.8253,-52.2023,106.8748,-10.5491,94.8240,-6.8077,-59.9995
-1140.6250,-109.8994,-111.2513,-14.2899,59.9749,25.0357,137.4078,-45.3405,33.7034,-46.4177,29.5386,-46.9023,-47.5599,-56.7379,25.0877,19.1269,67.2465,23.8299,58.1474,27.3788,-25.7070
-1132.8125,-93.1230,-130.3929,-31.5113,40.6151,6.7325,83.1964,-62.4762,15.4130,-26.7140,14.3193,-15.8037,-102.0254,35.9281,43.7528,0.8597,13.0132,39.6177,74.8673,78.9708,-80.0205
-1125.0000,-62.1060,-204.2945,37.5172,-33.4937,76.6830,79.2426,43.6398,11.3736,42.2432,26.9390,33.8100,-143.2372,68.8385,-33.3229,33.8447,-26.9688,35.6560,34.8366,74.8137,-84.0796
-1117.1875,-73.5874,-180.6878,24.0417,-45.1014,63.1333,102.7848,67.2462,-1.1686,65.7040,38.6266,6.6071,-119.9451,18.2472,-9.8892,-15.6795,-3.4534,24.1948,94.3056,27.1576,-60.6382
-1109.3750,-60.4185,-96.4277,0.2150,38.9411,39.2365,114.9800,6.5074,10.9430,4.8131,29.0184,-9.5748,-71.0040,-5.6966,2.1950,-3.5521,45.7120,3.3758,37.4272,6.1443,-11.5437
-1101.5625,-122.4756,-158.3719,-32.8169,10.7909,80.1385,119.9856,47.5619,-22.1381,8.7089,26.5801,-43.0248,-66.2637,-38.8390,6.0836,37.3730,12.6813,46.3562,45.3734,48.9202,66.3498
-1093.7500,-114.1948,-148.9570,-57.4970,20.0117,55.3887,21.3508,-14.0566,-46.8589,20.9367,20.6759,-28.8013,-92.1673,47.3731,18.3257,49.6489,25.0030,54.6850,53.6706,57.0308,4.5875
-1085.9375,-13.8708,-85.4888,10.8792,-20.7024,85.6880,15.7762,17.3687,-52.5342,15.1974,-5.7876,32.9196,-98.0101,77.6364,-24.3777,43.9802,19.3705,-20.9396,-21.9861,-18.8253,-1.1069
-1078.1250,-52.2053,-87.6579,6.5947,-59.0603,82.3235,11.5490,-23.8788,-56.8615,-26.2026,-27.0234,17.3378,-28.4819,74.2459,45.2875,39.6541,15.0897,-24.2155,10.7200,-22.3384,31.5611
-1070.3125,27.5552,-113.7224,55.4002,-85.3158,94.0502,-49.5726,-48.0402,-118.0865,23.5105,-38.3688,70.4533,-52.8516,122.9484,21.0600,51.4213,-46.0849,90.6072,-15.4721,57.2604,-29.6736
-1062.5000,37.9636,-208.1547,139.8610,-74.9340,141.4334,-39.0541,72.4615,-179.6746,33.8899,-70.3454,113.7009,-42.5846,133.3171,-5.5256,98.8472,-109.6192,137.0967,-40.0238,-2.4687,-19.2691
-1054.6875,46.3367,-129.6453,76.2909,4.3912,77.7792,-28.5930,-27.0792,-134.3197,7.2220,-82.6204,72.7048,4.6258,69.6501,77.8295,35.2341,-136.2147,74.5363,73.3603,-29.2567,-45.9231
-1046.8750,11.8559,-92.9862,-31.1264,75.8677,80.2796,47.0183,-24.4705,-57.8219,-27.2937,-56.5195,9.0726,5.9868,-1.8608,43.3365,37.7854,-96.6681,40.1265,109.8920,-28.9028,-80.4168
-1039.0625,-121.9375,-50.6287,-60.8491,47.0484,87.4762,91.3214,92.8297,-87.6358,15.8917,-27.3548,-51.9765,13.0561,-30.6701,13.5529,45.0424,-89.4183,83.4272,117.1277,13.1568,-73.2125
-1031.2500,-41.6817,28.7703,-14.5151,21.2801,59.7277,100.6712,28.1800,-115.4026,25.1328,-39.0889,-32.7157,22.1727,-58.4230,59.8176,-18.6362,-80.1225,127.7817,55.4037,-12.7310,-63.9636
-1023.4375,6.7146,-63.6937,-5.0255,-0.3380,33.1329,110.1781,75.6795,-105.0273,72.5204,-20.2939,-16.1245,-4.5644,-86.0208,-3.7663,-9.1557,-142.6781,176.2924,33.8413,70.5333,19.4364
-1015.6250,49.6599,-90.6121,5.0132,7.5990,-30.9064,10.2363,48.7224,-132.1006,81.4523,-20.6630,7.8677,-31.7531,-39.0620,6.2103,0.8741,-133.6912,184.3533,41.8381,113.3510,-7.6226
-1007.8125,56.9453,-83.1935,14.4073,-20.1137,15.4157,19.6553,94.1226,-86.8280,90.7303,-4.2048,14.3198,-59.5911,-29.7481,-21.4654,46.2591,-88.3638,121.7631,-20.8144,50.5208,-35.3309
-1000.0000,-44.7842,-114.7781,-19.2024,-16.8273,54.7443,23.0686,97.5214,-83.5608,21.0071,1.0550,-8.6240,-56.4218,10.5735,18.8630,13.6484,-11.0393,125.1743,17.5364,53.6955,-32.0398
-992.1875,21.4402,22.5956,17.1383,85.4158,18.0257,22.4342,-49.1345,-46.3447,-52.7672,-32.6526,5.1346,16.7052,-27.1547,55.1459,-97.0079,-11.7714,121.5299,13.8336,-20.1856,-105.7992
-984.3750,62.2462,63.5699,93.0715,55.2659,20.9060,25.4019,-84.1912,-44.5299,-87.9469,-57.6633,37.8847,55.4435,-24.2867,57.0369,-58.0597,-8.9026,91.4839,-121.2575,-49.4756,-29.9480
-976.5625,103.0923,69.5960,59.0491,-9.8297,-14.1705,-118.5803,-117.2158,-78.6685,-12.0803,-42.4891,38.2250,58.2335,14.6411,59.9842,-19.0631,-6.9776,62.4985,-150.2934,-9.7049,45.9460
-968.7500,157.1886,52.8469,76.2897,-25.6903,3.0191,-175.3167,-99.9775,-97.5687,42.0511,-55.3464,64.5054,38.2592,31.8357,40.1715,35.2046,-61.8165,45.7725,-201.0929,-59.6630,100.0781
-960.9375,49.6796,17.4751,34.9411,-62.1599,-37.3776,-179.6595,-31.3169,-103.0748,73.5909,-25.2549,18.8103,33.6806,27.4409,-0.2450,66.8834,-67.2713,79.4469,-132.4928,8.7833,168.6042
-953.1250,80.2622,46.2002,32.6925,-32.5263,-75.6711,-181.9035,-106.5561,-141.4780,35.2283,-49.0608,38.7216,31.2029,62.1538,-3.5604,28.6667,-68.6295,110.2115,-32.7919,37.3315,93.2250
-945.3125,23.9318,-8.9789,49.5426,-52.7941,-23.8626,-91.0423,19.3117,-124.7835,51.9694,-39.2633,31.2713,-26.1751,41.9654,-23.7795,82.5607,-88.8924,90.0804,-17.9871,16.9846,72.9467
-937.5000,-82.6541,-80.4083,13.1381,-54.3058,13.6949,-55.4332,129.9256,-88.3369,15.4570,-23.5807,-9.3169,-25.7950,5.5263,-23.2404,46.2008,-89.4057,53.6964,86.5791,51.3892,36.4120
-929.6875,-67.3502,-28.9391,-78.3681,-2.9123,-3.8458,1.0806,149.4428,41.0107,-2.1602,-12.3298,-49.9249,-6.5077,-49.0143,-3.7939,28.7438,-108.0247,-0.7803,67.0411,-3.2981,-18.2264
-921.8750,-92.0498,-19.4791,-105.8650,42.4749,-32.3773,83.5870,157.9669,12.3473,-30.7788,-32.2664,-61.0420,38.7786,-40.5491,-32.3481,37.2894,-98.6576,9.7570,77.5063,-63.9775,27.1308
-914.0625,-70.7046,38.0312,-81.3119,98.9190,-80.8586,35.1463,-0.4649,-36.2668,-116.3507,-91.8512,-32.3682,100.1243,21.9628,30.1571,-11.1178,-111.2403,66.3382,99.0341,-77.6153,-21.4718
-906.2500,-12.1843,60.7404,18.4319,87.5723,18.8625,-12.0818,62.3078,-83.6757,-89.7275,-121.5148,28.2430,89.6777,47.6698,-17.1340,51.6746,-194.6289,125.1195,-53.2268,-54.0477,-68.8746
-898.4375,0.1773,38.2852,68.0220,29.0788,105.4380,-73.4611,148.9371,-145.2392,-40.2576,-124.5993,69.7283,65.0830,97.2353,-41.5731,64.3225,-218.1791,102.7562,-40.6323,-41.6195,-56.4336
-890.6250,-16.7163,91.5655,86.3661,82.3307,86.7753,-18.0881,56.3229,-16.0575,-133.0375,-112.7464,58.6054,46.2360,41.5590,13.7355,-27.2706,-163.9838,15.1440,12.7175,-94.4418,-38.2493
-882.8125,-112.6775,66.7877,58.6590,92.5383,22.0657,27.2399,-8.3432,29.0721,-159.8764,-57.1508,6.7557,55.3438,13.8320,-14.9975,-55.9097,-45.8404,60.4822,58.0290,-49.3191,6.8808
-875.0000,-47.7970,96.8720,92.7986,122.6029,19.2035,-11.5752,-84.1706,-9.9446,-163.8801,-80.1190,29.8033,89.3121,10.9564,19.1295,-94.7004,-47.8472,90.6612,88.1966,-89.3532,-69.1491
-867.1875,66.1780,106.0452,139.0379,131.7629,65.4455,33.7076,-74.8867,-37.8625,-117.7804,-101.6864,73.1066,98.3821,-15.8113,-7.6457,-48.3783,-112.7632,63.9417,26.4512,-116.2797,-60.0788
-859.3750,55.8001,24.8603,124.9261,85.5635,88.3448,-16.3738,-14.9497,-125.1401,-58.0246,-102.8008,77.1712,48.1033,7.0819,-58.7664,11.5980,-162.0391,123.8727,51.3572,-56.5495,-0.3632
-851.5625,111.0621,45.3214,147.4634,36.0165,73.8942,-30.8036,-29.3550,-103.7615,-35.6278,-66.8857,103.1538,-40.5239,29.6287,-110.2321,-2.7671,-67.6749,39.4472,71.9185,-71.1694,-15.0020
-843.7500,55.6552,24.1197,122.3557,14.8203,85.7999,54.1202,18.5996,-55.0362,-24.8960,-39.4920,79.2728,-101.7971,3.5272,-134.3446,8.2245,-55.9687,18.3749,121.8376,-90.4372,69.7104
-835.9375,26.7818,-4.5278,56.7943,22.1770,57.2529,62.5964,-46.8983,-47.7578,-53.6301,-39.0813,52.4792,-94.5098,11.9763,-89.8971,-20.2398,-48.7061,95.8434,199.3202,-50.1577,40.9649
-828.1250,41.0380,45.9714,39.3745,71.6865,39.8568,119.2321,-63.2410,-27.3265,-70.2152,-52.0272,43.7871,-75.0663,-4.4282,-33.2942,-36.5526,-65.2958,111.4634,213.9554,-69.7235,-49.6313
-820.3125,30.5288,35.7147,68.1983,132.4496,31.7134,148.1133,-34.3383,-72.6526,-115.5502,-67.5309,46.5289,-10.3648,-13.5771,-41.4382,-44.6161,-36.6442,171.3437,203.8514,-80.0334,-94.9848
-812.5000,72.8261,113.2629,114.8272,175.0164,5.3765,84.7899,-61.6358,-63.1858,-105.0967,-66.0561,67.5672,37.1446,-2.9242,-68.7829,-71.8763,-27.1976,108.0300,105.5437,-73.5447,-158.5495
-804.6875,45.4629,51.1640,121.8120,111.9381,48.3974,90.8207,55.4218,-20.3790,-62.3075,-42.5696,83.3292,-30.9909,40.0815,-98.7693,-28.7820,-57.4088,81.0703,7.5913,-30.7168,-115.7628
-796.8750,45.0409,15.0160,121.7437,41.8129,48.3669,53.7966,55.4183,-56.6292,-62.5839,-57.1201,97.2326,-67.1723,77.0503,-61.8026,-28.7307,-94.6870,116.0737,43.5961,40.0709,-116.0379
-789.0625,102.1251,2.3435,145.1923,64.1726,35.8554,78.2609,5.9395,-33.4009,-75.3482,-65.5454,115.3069,-6.8718,64.5406,-38.3551,-41.1523,-70.4967,68.5977,66.0900,-43.6202,-128.8355
-781.2500,-10.0403,31.4059,138.4053,128.2690,28.1142,107.4653,-37.7629,-4.4344,-157.3608,-57.7164,65.4639,22.1782,19.7881,27.8446,-84.8186,-5.5707,97.8752,95.3324,-49.5571,-99.9039
-773.4375,40.8328,82.5212,118.6583,143.4275,8.4229,87.7277,-131.4171,12.5963,-103.3345,-28.2771,58.8211,39.2958,0.0726,8.1106,-141.4383,11.4127,78.1834,40.6303,0.5487,-119.9287
-765.6250,65.2818,37.2307,177.4952,63.1926,67.3294,36.5961,-72.4631,-1.7650,-44.7179,-11.2249,93.4358,-11.9750,22.9535,-43.0168,-82.4559,-3.0103,103.0934,-75.4676,26.2609,-24.3469
-757.8125,25.3244,-73.4667,131.9312,23.5558,59.8334,-45.9457,-43.9091,-47.5345,-16.5076,1.7382,78.3763,16.3615,51.4459,-87.5383,-53.8716,-11.8481,168.6149,-9.9627,91.5855,40.8253
-750.0000,106.4641,-27.0746,145.4742,35.0171,36.4466,-32.3938,-67.2428,-34.2079,-3.1959,-10.2871,109.7818,-7.2023,65.0421,-110.9577,-40.1814,-35.5969,110.2368,-33.3658,68.0153,17.0879
-742.1875,-0.9099,-28.1888,32.5160,33.9765,-3.4388,1.6558,3.9357,36.6224,30.6052,52.8894,6.1423,-10.2547,-11.8583,-76.8712,-5.9855,72.1469,39.3482,0.7384,-4.0569,50.8483
-734.3750,-74.4021,39.6121,-79.5557,30.8444,-78.4233,-36.3865,-33.9897,72.3595,66.2832,99.5090,-82.3705,25.6110,-49.8636,-4.8680,-43.8923,143.7863,1.3449,33.7562,28.7609,12.5057
-726.5625,-57.0672,-13.7345,12.2193,-22.4307,13.4413,-55.5686,57.9416,52.9477,119.7945,111.3535,-38.6151,-30.6606,-32.0216,-61.0114,11.0507,124.2694,19.1905,-123.3672,46.4325,30.0159
-718.7500,-17.8417,-114.1873,88.8898,-52.8043,53.2003,-124.8532,60.7711,-18.5639,86.1995,45.8295,35.8667,-28.0244,44.7206,-57.2448,50.8886,16.6450,58.9373,-83.5834,51.0176,69.4200
-710.9375,44.4773,-52.5433,82.6552,-26.0808,47.0648,-95.0374,-19.2902,12.0317,5.6973,5.8252,67.0472,-34.2850,75.5623,-27.3767,7.8324,10.1121,15.7806,-57.6932,7.7078,25.9169
-703.1250,-32.9778,-23.6515,37.6622,38.8943,2.1815,7.0369,9.9125,77.8811,-39.5654,36.9220,13.6411,-5.2878,30.6463,-35.2565,0.0289,112.8252,-26.1359,-28.5348,-69.3498,54.6612
-695.3125,-75.3961,40.2988,-43.2934,66.9277,-77.6536,0.1655,-33.8364,70.7915,-46.7928,35.6558,-34.7240,24.7670,23.7764,31.9235,-43.7260,105.5876,-33.0126,-0.3162,-6.3553,47.4485
-687.5000,-15.0298,31.0442,-15.4562,22.7633,-50.6856,-8.8969,68.2300,61.5029,17.7738,37.3431,-6.3468,-21.3695,14.7036,-14.0973,-15.6734,22.1348,-42.0907,-79.2897,55.4425,38.0376
-679.6875,-28.4249,-17.9576,8.6242,-61.1488,-26.4637,-94.7153,202.5431,48.4616,78.5772,66.6851,-6.5586,-34.2426,1.8863,-63.8567,-28.3705,8.9211,-54.9126,-92.0051,112.4903,24.8711
-671.8750,-10.5714,35.2926,-44.0415,-78.8096,-41.9889,-74.2866,187.1103,142.6672,135.6242,118.7517,-53.2123,-12.8571,-87.6765,-42.3593,-80.8102,29.9496,-142.4831,-38.4746,130.7835,-28.0556
-664.0625,-114.2787,2.9853,-116.2562,-76.0214,-41.0561,0.5901,151.1406,217.3247,173.1159,169.1482,-121.0672,-12.0194,-122.7914,-41.4119,-42.7954,67.4252,-138.6082,-36.4889,132.5238,9.4663
-656.2500,-136.6570,-18.9562,-138.1344,-62.8724,-99.7840,15.8272,56.5117,232.3540,113.9412,157.4434,-136.3466,40.1868,-108.5692,47.9058,-64.4443,118.2597,-160.4090,12.8673,110.6010,-12.6587
-648.4375,-84.0649,-36.8912,-84.0359,-44.7107,-81.5242,34.0838,37.8798,213.3992,58.7443,125.1136,-80.4278,21.4130,-53.3618,29.2414,-46.0974,136.0972,-178.2185,-39.7576,58.6786,5.2286
-640.6250,-75.7411,-63.0768,-42.2018,-70.8013,-39.5181,1.0873,42.0076,107.1876,62.2877,75.8755,-44.5812,-11.6015,-12.3989,-3.6659,32.0080,66.6687,-135.2680,3.3824,30.5213,82.8595
-632.8125,-50.2653,-2.1187,-49.2105,-9.7463,-46.3514,32.2363,-73.6985,64.1144,-18.0261,22.9839,-39.0302,56.5343,-18.2744,64.5786,-47.7218,60.3730,-143.1710,101.6741,-12.4804,39.6173
-625.0000,-116.1552,1.4767,-81.5656,29.9552,-42.5241,146.0387,-33.7305,67.6878,-51.7010,-5.0770,-69.9692,97.3285,-51.4959,68.4754,-43.7906,-10.2819,-69.4304,140.6219,-43.8331,43.0141
-617.1875,-154.5585,-0.4267,-83.4264,97.1552,-43.1917,145.3391,-34.2629,29.7602,-89.8882,-18.2556,-78.0969,59.6298,-52.2073,67.8807,-81.3576,-11.4475,33.8097,174.0744,-46.6810,4.8984
-609.3750,-103.7733,16.8616,-62.0875,115.5482,-21.6446,92.8353,-12.5786,87.0298,-68.8787,23.2308,-51.2306,-29.8677,-30.7148,-21.5117,-59.7172,45.5740,16.2511,85.7259,-28.3151,-48.0279
-601.5625,-118.2474,-68.1096,-40.9966,30.6898,36.6575,41.0756,118.8710,71.0449,25.8683,54.3303,-54.6580,-45.6116,-46.4662,-37.1452,-1.3210,30.3310,-32.5545,37.1360,-7.1908,-27.2162
-593.7500,-64.3643,-13.7346,-20.5521,-20.8220,20.3164,24.6581,29.6761,54.4076,8.9585,27.4384,-35.0686,12.0000,-25.8637,20.5663,-17.5633,49.4216,-85.0017,55.8914,-58.7029,-44.0686
-585.9375,-112.1849,-25.0665,3.1919,37.9558,-29.7103,84.5364,-20.1976,78.0641,-78.6545,22.8090,-44.4879,35.9135,-38.9612,44.5731,-30.4943,109.7957,-96.1442,79.9501,-70.9050,-20.6273
-578.1250,-125.4672,-37.8447,27.4852,60.2837,-79.1846,108.9606,-69.5160,-7.7316,-91.7287,-8.3000,-23.6302,23.3824,22.4946,68.1365,-42.8797,96.7109,-37.7402,67.5688,-47.5552,-33.6500
-570.3125,-43.8623,-26.7241,76.6758,36.5176,-28.7544,48.2863,-92.9268,5.3762,-115.9120,-27.3633,31.0281,35.7591,71.8483,81.6088,-29.3595,109.5192,-97.4409,-25.9115,-71.3121,-57.7808
-562.5000,-107.8682,15.7900,-29.7343,9.1481,-24.9215,90.0038,-87.9318,45.8743,-111.7024,-2.3609,-47.1147,77.5455,2.6094,49.4841,11.5683,149.7148,-159.7336,17.0112,-99.6627,19.4825
-554.6875,-5.5745,152.6081,-69.8417,41.0743,-64.7866,13.0127,-200.6275,42.6702,-151.1969,-20.8778,-42.7542,110.6373,-0.3266,83.6620,-28.1969,183.1971,-162.7301,-21.7712,-102.7081,16.0316
-546.8750,107.3565,126.0680,-26.2985,13.6451,-56.9899,-17.3311,-119.6502,-24.8880,-72.0471,-17.3843,-7.9483,81.3829,-30.6076,53.4908,-21.2953,152.3106,-119.0782,-117.9026,-93.1030,59.2264
-539.0625,111.3243,59.5840,-22.7090,-16.7369,-90.1395,-49.6357,-116.6120,-57.4043,-68.8651,-32.0091,-3.1199,84.1933,-26.8304,93.3776,-17.3428,118.4588,-79.3786,-41.9728,-89.4484,98.4589
-531.2500,100.4916,85.2927,-67.9179,-26.9200,-98.0765,-22.7420,-161.3614,-30.7192,-78.4876,-13.4710,-17.1381,113.2047,1.1487,85.4627,-26.1840,182.7932,-124.4801,-52.8452,-64.5892,52.8770
-523.4375,15.1032,-0.5570,-46.6771,-110.6560,-76.5604,-0.4019,-65.6464,-45.5848,-20.6705,3.3017,-23.4899,61.6691,23.5777,33.9979,33.4332,130.5661,-69.1340,-32.2602,-9.2730,37.7404
-515.6250,22.6593,-26.4500,-34.4944,-103.4449,8.9048,-25.1117,-16.9823,-70.4931,-8.9176,-16.9646,-3.5965,73.0905,35.9566,46.4949,9.0047,68.2847,-95.8517,-22.7217,-0.0077,-24.4546
-507.8125,23.0568,-61.4969,1.5307,-67.3973,45.2197,48.0291,-17.4494,2.4447,-84.3204,-42.1478,37.6984,73.3695,72.1860,45.8427,8.4352,30.8460,-128.7212,-22.3328,-34.8777,11.1964
-500.0000,-89.7026,-67.6997,-6.6036,-3.5043,0.3901,77.0106,-61.0573,-5.7695,-201.8773,-78.1876,0.4798,102.5040,64.2638,112.0506,0.7185,59.2439,-65.7375,42.9114,-109.8856,39.6839
-492.1875,-14.3152,78.2529,-34.5899,72.5377,-101.2883,85.1441,-198.4985,40.1720,-193.2924,-67.2960,-12.5409,110.8015,36.4859,157.4146,-63.8454,103.7781,-130.6121,13.3071,-140.7465,-25.6886
-484.3750,-12.0428,81.1098,-33.6836,40.4812,-63.0631,87.1778,-123.0287,4.0097,-119.8247,-49.7686,-21.4331,76.0143,0.6046,85.6870,-25.5080,68.1974,-126.5809,-19.3930,-102.7039,11.8394
-476.5625,43.0751,172.8207,-120.9309,26.2753,-112.9846,36.0538,-100.7057,26.6936,-134.5204,-71.0663,-41.7478,98.0843,-13.4223,144.8097,-39.3231,16.4515,-140.6949,2.7638,-81.8049,-2.7940
-468.7500,170.9273,230.2737,-97.4288,13.8158,-125.1496,60.6791,-39.6185,14.1308,-147.4686,-104.4503,16.3736,85.9070,11.2964,59.6859,-14.3798,-33.5527,-153.0622,-45.3232,-94.1465,-15.6856
-460.9375,155.5167,180.4684,-77.1860,-0.9022,-32.5594,6.0524,17.2318,-40.6835,-91.6703,-79.9018,17.7457,69.4852,-6.2363,5.3225,-31.6791,-14.8120,-96.6838,-23.6549,-106.7298,40.1640
-453.1250,171.1069,161.6683,-60.9462,-19.6261,-51.9654,22.4259,-74.9103,-60.4932,-111.8847,-72.7328,14.0698,86.0713,-26.7720,58.9675,-50.9725,37.9217,-46.3185,-41.9869,-56.3211,56.0071
-445.3125,145.1900,-4.6345,-16.2107,-114.8607,-6.8688,-41.7054,-29.5420,-88.8072,4.3950,-23.3141,35.5468,-15.8360,18.1998,-5.8878,67.2425,8.1435,33.5480,-136.8197,94.5862,100.3503
-437.5000,161.1252,-57.0810,-34.6231,-203.2505,11.0826,-134.0086,24.6850,-107.2806,96.5210,6.5118,24.8179,-33.8841,0.0313,-23.8948,49.3185,-10.8058,-19.7365,-119.8055,146.3441,81.5308
-429.6875,92.6451,120.0798,-140.4369,-95.0371,-93.3644,-92.7174,-79.4670,79.8488,63.2364,37.3256,-73.6647,43.6734,-104.5388,53.6969,-19.9942,29.8325,-157.4322,22.8140,7.6958,48.3070
-421.8750,-123.3607,149.7446,-219.7673,39.6794,-135.3135,48.0760,-84.1058,147.4851,-16.5623,52.7307,-182.2058,112.7369,-183.6138,85.7956,-60.8029,60.9661,-127.6315,158.9460,-32.4473,42.5754
-414.0625,-155.9638,119.8082,-173.6998,78.7972,-89.8620,57.2665,-38.3250,83.5230,-43.9684,13.6396,-134.6364,48.2012,-101.2913,-14.7080,-51.2089,-40.5138,17.5678,164.4741,42.8206,-58.7689
-406.2500,-117.1639,-87.7365,-58.2350,-22.6946,62.9934,25.8494,188.8785,51.9583,108.0217,38.1221,-37.8432,-129.9301,-21.5715,-156.8140,64.7952,-183.6113,56.1695,62.3984,152.4957,-90.7145
-398.4375,-131.1101,-137.0308,-71.5253,-70.9452,124.1002,12.6723,249.3288,38.6424,167.2554,55.5473,-39.2762,-142.8059,1.4043,-132.6598,52.0452,-160.4675,8.0209,49.5735,104.4288,-104.4177
-390.6250,-75.3123,-9.5776,-87.0663,-49.4536,71.9627,-1.7566,161.5381,60.0796,115.2297,44.6830,-49.1605,-83.9217,-12.8707,-36.7524,37.0534,-65.5854,-75.3885,1.5001,20.1131,-83.3740
-382.8125,-127.8319,-61.4270,-34.9162,-66.2666,51.5268,13.5086,140.4563,2.2158,56.8943,33.9017,-38.8519,-104.3280,2.5489,-21.1347,53.7618,-51.0077,48.9059,21.1314,109.5095,5.3664
-375.0000,-94.9520,-168.8627,3.6350,-103.6790,89.4903,-21.8344,105.7734,-70.2432,19.9514,0.7530,14.0000,-103.3270,77.3615,17.8913,18.8725,-87.0362,187.6017,19.1574,213.3042,-67.5060
-367.1875,-94.9242,-203.1438,44.3349,-101.9463,131.6051,18.9701,184.2489,-29.5574,61.1529,9.4535,13.0899,-61.1630,8.3226,22.0656,-13.8590,-156.9270,118.4509,56.3302,215.2493,-137.2314
-359.3750,-234.6438,-201.1731,-98.7192,-64.9641,98.9721,60.0153,151.9762,85.3667,27.5962,51.7544,-101.7856,53.2609,-61.4627,136.5008,-46.3393,-80.5866,-20.4459,163.7616,217.4456,-170.7164
-351.5625,-170.7141,-101.5503,-139.1234,-70.3323,95.9954,93.7131,113.3631,192.9410,23.6738,87.3457,-118.9716,50.3448,-100.5984,171.5930,-48.1606,-9.6108,-131.6995,52.8443,246.2822,-247.5567
-343.7500,-48.1021,-153.2350,-86.8304,-194.0072,147.7220,35.1063,239.4566,133.2126,111.4409,87.3299,-50.5308,-7.8721,-49.0257,76.3855,40.7282,-32.9367,-113.2551,-104.3672,229.8251,-159.7011
-335.9375,-3.9928,-144.4201,-44.0398,-184.1852,117.9521,-69.0084,210.0609,65.9896,117.7022,61.8949,-23.1988,-0.5893,-41.9481,45.6747,47.1273,-63.7719,-104.3201,-59.0770,203.8630,-80.3608
-328.1250,-46.3866,-150.1060,-54.7416,-190.8709,107.6882,-79.6364,163.1898,92.2628,106.4602,71.4029,-33.1627,-10.8044,-15.3635,73.4593,75.0392,-38.1251,-75.8840,-66.2932,197.3952,-17.5212
-320.3125,-106.7813,-209.7869,-78.4451,-178.5585,84.4286,-103.2792,140.3259,-4.4691,119.2097,71.2319,-35.5455,-71.0152,71.2226,50.2455,124.9507,11.5022,6.5549,-18.5067,208.9347,-41.6876
-312.5000,-59.3247,-126.6145,-24.3019,-131.3998,103.0253,-122.0769,122.3251,-24.3505,99.8029,36.3624,8.8455,-52.3772,126.6587,67.8815,106.7178,27.9662,-51.1624,-40.8693,81.3297,-135.0117
-304.6875,-123.0830,-84.6517,17.6283,-18.4504,107.4298,-44.0777,90.1465,17.5745,29.1881,8.3878,-11.2872,-10.9350,56.8887,72.3188,111.2923,-4.7772,-79.0839,-68.4254,-16.4645,-57.5375
-296.8750,-79.8919,30.2658,-12.4973,25.4427,41.7880,-110.1360,24.9241,-12.5484,72.5149,15.4398,-28.5570,-3.5427,28.0700,43.7112,45.8199,-35.5744,35.9433,-128.0301,27.6938,-14.1269
-289.0625,111.8550,46.7370,113.9280,-29.1177,58.7021,-240.6418,116.2639,-106.1210,162.3861,-7.7191,72.1617,-23.5943,44.7972,-50.3470,62.9030,-129.8308,87.5144,-217.0954,44.3998,1.8305
-281.2500,87.8070,-12.5819,124.5487,-86.4793,31.8128,-266.9582,163.8027,-132.5024,134.4507,-9.9472,69.7594,-49.4336,54.7267,-39.1957,110.1903,-83.9053,99.2857,-169.9615,20.3023,47.9875
-273.4375,50.9111,22.2559,88.3158,-53.6915,-40.9289,-193.1305,17.4838,-59.7299,61.6595,-1.4772,43.8980,-49.1138,55.8017,-1.8883,74.6286,-10.8354,28.2081,-99.6779,20.3520,11.2911
-265.6250,57.4028,29.4858,58.4829,-81.5082,3.7305,-148.9053,62.5722,-52.5618,104.2665,3.5234,34.3343,-77.3855,26.2758,-67.1788,119.4717,-78.3711,35.5386,-91.9948,62.8097,17.9950
-257.8125,28.9533,36.7750,28.7033,-74.2768,11.4402,-141.6370,70.7093,-45.3526,74.9170,-12.9573,12.1789,-69.5998,-3.1981,-23.4183,90.3686,-107.8709,42.9223,-15.2672,35.3170,24.7409
-250.0000,29.6067,37.1748,-44.9765,32.0465,-24.7491,-32.2714,33.9573,-9.0438,-0.3339,-13.6419,-32.0209,3.2902,-75.5767,13.4478,53.3741,-36.2800,8.3920,21.5523,-34.0825,60.5913
-242.1875,-28.6000,-18.2744,-69.5201,10.5059,-48.7936,-19.7609,11.3636,-32.5800,10.5616,6.7030,-82.6449,52.3357,-137.8049,26.4746,65.5318,-24.5390,91.9958,1.5263,49.6700,108.5978
-234.3750,83.1983,-12.7116,-60.0733,-18.0411,-74.8391,-83.2666,-15.2218,-60.1111,20.4501,-18.9827,-37.2692,63.3832,-90.0323,36.4968,39.6997,-52.8052,99.5875,-61.4993,57.4172,44.5992
-226.5625,107.1383,-22.9968,-35.4807,-62.4432,-13.7307,-95.6257,46.3636,-71.4860,44.4830,-37.2650,0.1130,51.5759,-29.1076,-11.3422,139.0289,-64.9389,-16.6740,-107.3622,-23.6897,68.7509
-218.7500,-24.0728,-46.4193,-61.0426,-87.9863,-2.7725,-122.1423,21.7999,-98.0090,17.3528,-48.1986,-19.1884,25.6213,54.6687,-0.3386,187.2035,-55.2321,-6.0819,-61.3671,-12.9476,78.7449
-210.9375,-24.3201,-12.8868,-59.6477,-53.5853,-36.8535,-118.7171,-11.7981,-22.5882,-16.8331,-42.6078,-2.2876,-7.3890,95.3961,-70.3929,153.3349,-53.5892,-41.5401,-61.4367,-13.2530,7.6889
-203.1250,-109.9107,-61.7064,-1.6036,-32.5435,-15.2775,-61.6572,10.2658,35.4728,3.6338,-37.5025,-5.9918,-22.7506,79.7787,-84.8048,175.1268,-106.3133,-55.3444,-39.8556,-95.9057,28.2833
-195.3125,-27.7551,21.2262,11.1828,15.2466,-37.9556,-48.8542,-121.9238,11.2940,-94.1457,-103.8733,42.0777,27.6445,129.9057,-35.4543,115.6685,-130.2803,-76.4095,-26.5275,-118.8128,40.6212
-187.5000,56.3857,35.1565,59.9604,-5.9616,11.3652,-36.0477,-72.1101,-48.8835,-118.9265,-132.7118,83.9738,4.0527,105.0223,-59.0967,91.2165,-156.2453,-63.4746,-47.2031,-104.7214,88.9634
-179.6875,-35.0235,15.5457,3.1835,-25.7186,-43.8652,-19.7992,-53.8509,-32.6172,-139.2698,-81.7342,12.6462,-15.0722,48.5902,-5.2782,35.2132,-30.7734,-13.0861,73.5748,-89.1778,68.7525
-171.8750,-17.7181,103.6394,-8.8906,27.2254,-57.3935,4.1524,-102.8931,28.3421,-153.9181,-55.2577,-20.4787,-27.4890,-37.1450,19.2425,-13.0843,-6.6149,40.0054,57.0444,-35.9400,-54.7582
-164.0625,35.2887,52.4319,84.7353,45.8605,0.7737,24.8003,-8.2354,-62.0079,-96.8735,-85.3142,26.9455,-43.2006,-53.1783,-33.5258,45.3173,-97.7568,129.7977,41.2108,-87.9992,-71.5632
-156.2500,118.5066,136.4325,97.5563,129.6892,14.1353,0.6396,-104.3872,-86.1607,-121.6254,-134.5392,63.8895,7.2957,-40.0108,-20.0883,-52.0830,-159.6999,177.7854,54.5687,-178.8534,-59.1714
-148.4375,206.7749,189.4805,149.4299,147.5578,-7.4550,15.5200,-197.4791,-106.2549,-142.3202,-150.7630,109.3907,22.8414,-24.7967,-76.6033,-35.4277,-143.5944,195.8118,2.9683,-195.6563,29.2749
-140.6250,216.0910,164.5879,158.3460,122.4749,1.9961,-48.5610,-225.5221,-172.2896,-134.9680,-149.0082,112.2981,31.4493,-15.5387,-68.0621,-25.7275,-99.4431,240.8814,13.4214,-185.4106,73.7731
-132.8125,249.3633,234.6550,122.2091,156.3376,-69.6028,-84.6987,-223.6080,-134.3719,-134.6677,-125.6550,92.0973,33.0044,-51.3318,-66.5754,-61.0699,-64.3524,169.9024,47.8138,-151.2048,37.2205
-125.0000,134.4863,190.5616,37.9211,113.0402,-79.3463,-21.9951,-122.8198,-70.6115,-108.5136,-73.8845,18.6913,23.4006,-97.2746,-76.2494,-33.5495,-38.4204,126.7767,75.0582,-89.1410,63.5188
-117.1875,22.5578,185.4164,-75.4278,141.6915,-118.1366,-25.3486,-87.0756,-0.8877,-76.4116,-51.2463,-53.7869,95.7473,-100.2730,-5.9747,-73.0804,-78.5413,85.5943,140.2630,-60.1257,-13.2416
-109.3750,10.9273,174.5721,-47.4809,131.6406,-54.6213,2.5975,-23.0195,27.1405,-49.0086,-63.3633,-38.8249,123.3892,-72.9744,22.5936,-8.3060,-125.3699,39.7118,24.7660,-105.8098,-59.7039
-101.5625,-41.0989,87.3348,6.0683,44.1861,-0.5018,-17.8621,105.6431,-30.2360,-70.0096,-87.0358,1.7500,104.6289,17.9276,2.7580,46.0682,-145.6072,-12.5721,-62.1308,-51.8948,-6.5691
-93.7500,-25.4650,68.7638,24.2640,-45.6198,-18.7342,-109.6715,87.9482,25.0425,-52.3663,-54.3429,22.6427,49.5219,73.4811,21.5741,65.0981,-92.1933,-101.2163,-80.3828,0.6603,-25.7852
-85.9375,-69.0307,-45.0047,16.2574,-123.6295,47.8365,-117.6836,265.0624,54.1152,13.0765,-0.8389,25.0526,-68.7846,101.8331,-22.8072,94.9344,-63.9847,-109.0583,-87.8423,28.0142,-34.1931
-78.1250,-68.9830,-79.1765,-18.1458,-123.0415,87.0042,-79.1079,304.7718,55.7766,14.1172,-5.2461,12.9581,-28.4892,67.7895,-19.5804,61.3674,-99.1832,-108.2930,19.2920,28.9758,-69.0024
-70.3125,-80.6287,-54.0508,7.7515,-63.1549,76.4698,20.7679,258.7806,81.7391,-70.5393,-17.9130,9.0288,-38.8873,21.0392,6.9473,51.1054,-74.0797,-84.2234,78.7207,18.2307,-80.5121
-62.5000,-101.6780,-145.3233,-14.7539,-13.6651,91.5301,71.2485,237.3819,23.2957,-93.5958,-27.3455,6.4644,-23.6784,35.8871,22.0842,29.4414,-60.3735,36.4476,93.7520,33.0797,-66.4214
-54.6875,-47.3205,-124.1840,10.1408,6.2299,117.9915,23.1249,153.3780,-61.7471,-69.2574,-61.0146,33.0816,1.9358,61.1357,10.6173,55.1816,-109.2696,92.5151,80.1734,54.3255,-151.9312
-46.8750,-17.4102,-129.5019,40.5925,1.6692,185.9994,90.5462,184.9335,-105.2440,-39.3628,-97.4978,57.5860,33.1043,54.9340,-31.3006,86.4790,-190.6262,88.1324,40.1382,-20.8824,-121.8806
-39.0625,-78.4395,-84.7585,10.0864,46.1565,155.0541,96.0057,81.5369,-99.6942,-33.4153,-72.3263,12.3247,40.3274,24.7790,11.8311,19.8262,-111.9345,61.7925,85.1541,-82.0438,-42.7805
-31.2500,-18.4641,46.9938,-38.4223,36.6397,71.1109,48.4623,-38.8491,-74.1349,-8.4632,-42.8911,-9.8685,29.5410,13.6181,0.9519,46.1783,-50.2468,52.4471,5.1685,-21.2073,-17.6756
-23.4375,47.8104,8.0419,-8.6356,-37.5795,64.4711,4.2102,65.0727,-116.2763,94.7914,-20.8542,15.9548,-12.9497,6.7566,-40.6326,39.8366,-94.2615,119.4051,-31.5208,10.9359,48.7358
-15.6250,108.2480,34.2383,19.2996,23.3406,-17.0161,-40.9051,-51.8526,-52.2614,85.2056,8.2021,20.6243,14.7006,-37.9484,-13.0734,-77.3499,-31.1325,39.5082,-6.0685,2.2384,39.2954
-7.8125,33.4352,-4.8193,14.9808,18.9979,-20.7459,27.7215,-55.0128,16.5069,43.3767,43.7799,8.0732,-24.9032,-5.9036,-16.7693,-43.7726,74.7453,0.3504,-9.8734,-1.7061,34.6122
-4000.0000,-6.3000,-35.0115,18.5731,-43.6477,-4.0731,-19.8513,-8.4474,8.4903,42.0307,41.4033,13.2679,-36.6716,40.8817,-25.3204,-19.3812,64.0213,18.0856,-12.9818,26.6217,22.0940
-3992.1875,52.8710,-11.4468,84.2048,-20.0644,61.2235,-64.8803,19.6561,0.6799,34.0608,-8.7878,77.8531,-46.1377,106.8339,-33.5616,9.5687,-16.7627,6.7683,-94.9502,-54.9048,-59.3223
-3984.3750,49.9010,-51.0303,114.6939,10.3820,91.3785,-35.0520,86.6156,-43.2901,64.9435,-29.6211,78.1952,-16.7622,63.6394,-3.9621,39.3667,-95.6979,4.3089,-168.0664,-58.5950,8.1106
-3976.5625,49.7816,-51.7629,42.0355,-25.3164,91.3871,-72.3710,50.4225,-80.4129,65.6736,-14.5821,34.5610,56.4580,28.2971,69.4852,2.0121,-20.7819,-30.2974,-98.3201,-22.4349,8.3876
-3968.7500,10.9645,-56.1963,-35.3186,-64.7115,51.7052,-2.3854,119.5483,-10.2327,62.7025,28.9456,-17.2473,51.9709,-11.7453,65.2283,34.9684,49.4293,-104.6065,-67.2741,9.0197,4.9605
-3960.9375,-91.6068,-123.3872,-68.4258,-61.8597,18.2872,0.8516,196.9402,-6.8105,66.9766,45.1383,-70.6524,91.7271,-44.5335,68.2218,75.1864,53.8856,-65.6568,-28.9703,12.7193,8.7834
-3953.1250,-81.7257,-44.1246,-93.0785,18.4535,-6.6783,49.5400,134.7788,42.0575,42.6994,36.9582,-81.1609,102.9345,-68.8717,79.6735,49.8508,29.7905,-90.2486,16.7837,-12.1326,-15.9556
-3945.3125,-76.4373,-75.4614,-91.3185,21.1754,-6.2372,86.6343,135.0186,5.3217,44.8209,43.9723,-93.2014,139.5361,-103.8095,79.5186,86.9198,69.0864,-50.4313,-15.0726,-8.5891,58.7051
-3937.5000,-56.4386,-20.0905,-104.8427,41.6057,-20.0982,35.4218,10.9428,-45.7226,31.6397,12.8568,-92.4737,161.8424,-81.0367,139.0601,72.6808,56.0718,7.0980,5.7710,-22.3547,45.0685
-3929.6875,26.2248,61.9465,-91.7042,53.6914,-6.3107,48.8572,-12.4978,-69.1170,46.1026,-4.6997,-71.7897,173.8048,-103.6063,78.2449,49.0885,33.6971,19.2787,18.2580,-80.4751,22.0813
-3921.8750,-15.6118,90.4848,-98.0649,117.2750,-14.0251,77.7902,-20.4381,-76.0116,39.0665,-0.3519,-109.0094,166.2614,-182.6726,69.9304,4.0003,26.8231,83.9606,82.2491,-120.0968,51.5968
-3914.0625,56.5552,126.0248,-131.4283,223.8531,-47.7447,116.7331,-163.3853,-36.8982,-67.9684,-30.3477,-81.2031,204.7090,-142.7391,109.6176,-67.0829,66.9541,85.6360,118.2483,-153.7123,18.1039
-3906.2500,94.5155,93.3560,-56.9940,190.2299,-9.6578,118.4981,-125.5195,-71.9797,-102.2018,-80.0984,-11.8680,131.9483,-68.0095,73.1070,44.6432,-4.1173,89.1088,51.0525,-151.5320,56.4065
-3898.4375,94.8252,93.0350,-17.2096,84.9657,66.7844,9.6228,-88.2994,-106.7189,-63.0891,-102.5596,55.0712,59.5358,82.0727,0.9516,83.7200,-74.8467,54.9353,16.2145,-116.0109,22.0534
-3890.6250,60.0061,92.5760,58.4323,49.5637,105.0818,11.5992,-86.2331,-68.6162,-23.1388,-83.4649,83.1458,23.9714,122.0028,-34.3528,84.6432,-71.7308,-14.3815,16.2302,-150.6496,-12.4600
-3882.8125,-83.7095,54.2264,18.1782,81.2748,64.4845,116.6854,-54.0626,0.5784,-101.1011,-65.4111,19.0373,55.5095,81.0311,34.4405,43.6670,-1.5237,-52.5914,83.3612,-188.1978,20.1202
-3875.0000,-57.0208,44.2985,49.3253,142.4040,21.2898,148.1790,-133.4981,-4.8296,-179.6752,-81.2876,22.4183,85.4516,39.4585,138.6326,-72.9113,30.0638,9.6029,109.9052,-162.3585,-58.9129
-3867.1875,55.7782,-18.5198,133.5791,114.6462,31.2033,157.7780,-49.8225,-32.1426,-58.1522,-38.0257,75.1043,21.4880,12.9826,36.9179,-100.3821,3.7292,53.8995,11.5456,-83.4258,-85.8500
-3859.3750,75.6715,-106.2371,190.9347,61.9895,52.2278,30.4733,6.9673,-85.3656,73.4704,-2.6684,87.0530,4.6254,-2.3904,20.2987,-79.7464,-48.5178,143.3010,-39.7113,5.6064,-101.6887
-3851.5625,180.0760,-72.4510,188.7897,60.8357,86.7573,-8.3293,-31.7421,-88.0851,34.5902,-34.0502,117.6839,38.2542,-4.2584,18.1773,-45.6060,-49.2717,73.1939,-75.4635,-29.8674,-67.0310
-3843.7500,134.0764,-12.0692,97.2435,49.2808,67.8912,45.4814,-50.8437,-69.2016,-20.6977,-67.1173,73.0332,91.4739,-22.5263,34.6569,8.1385,-67.4296,-8.3185,-16.6151,-110.7402,98.2300
-3835.9375,137.2731,129.5087,24.8969,86.9216,-39.7774,10.4906,-195.7442,-68.1140,-90.7810,-107.1258,42.5280,128.8853,-19.5896,72.3345,-25.9159,-64.3872,-38.6324,91.4307,-177.4077,136.6873
-3828.1250,139.2213,166.8344,27.3085,123.3094,-74.6902,12.2454,-193.8808,-66.2752,-51.1012,-92.1647,23.3192,130.0434,-52.9090,37.7575,11.7897,-61.6011,32.7996,23.2139,-210.3296,138.8996
-3820.3125,147.8147,139.7980,38.3680,132.3456,-137.9532,-14.3527,-147.3595,-129.7914,-4.7684,-75.1443,16.0776,102.8537,-78.5835,46.8349,-14.8508,-87.1705,182.8897,31.6544,-96.6008,112.7682
-3812.5000,239.0580,194.4079,28.0766,152.0383,-185.5655,10.7012,-158.1947,-140.6573,22.2143,-61.1703,1.4530,128.3139,-162.6119,72.5683,-63.8400,-62.0903,204.6314,17.7494,-76.2205,28.2789
-3804.6875,200.3882,226.0977,-12.1176,147.8366,-189.0749,80.8712,-52.9145,-72.4207,19.2953,-42.3033,-42.5659,123.8686,-239.5462,31.4062,-30.7178,-64.9200,130.4693,83.9475,-114.7323,24.8916
-3796.8750,74.6553,205.7245,-103.3720,163.5865,-134.6313,26.0038,3.3198,-16.2272,2.3246,-19.3934,-69.5159,68.3722,-147.5323,-23.8009,-11.6416,-44.8097,6.2531,99.1134,-63.2901,-29.5552
-3789.0625,-22.2820,142.1513,-57.8277,65.1433,-15.3829,33.9547,84.3599,64.7710,11.1459,-10.4791,-28.4683,-35.3199,-27.7230,-126.2012,69.2364,-72.9158,-126.1661,37.0879,-91.0532,-21.2140
-3781.2500,-103.1268,60.6788,-35.1838,17.8083,43.9709,19.0175,70.5069,50.8596,-2.9482,-23.4168,-2.7528,-85.9022,69.1788,-103.4935,55.2135,-86.9301,-135.4762,61.1721,-101.7169,38.2199
-3773.4375,-51.7165,77.4699,-15.2924,35.7366,63.5821,38.3362,-21.0948,33.1942,-56.8022,-43.5061,15.1248,-68.2303,52.3244,-49.5335,0.4375,-66.6969,-118.5369,78.5101,-84.1372,20.8865
-3765.6250,-97.2050,-40.6440,45.7033,22.7708,50.2998,134.7602,39.4194,56.6318,-105.5555,-40.1052,17.5255,-81.4668,2.5667,-26.4798,23.7731,-79.3710,-94.5025,136.9405,-25.4605,44.6501
-3757.8125,-189.4874,-133.5615,26.9044,1.0047,31.2213,153.3749,20.1316,74.2698,-124.1189,-2.0583,-20.2790,-102.5063,-14.9855,28.7766,-68.6899,-22.8555,-10.2721,255.5717,58.4181,-47.3881
-3750.0000,-152.8648,-201.5767,108.0096,38.1406,75.0412,195.8906,63.7443,80.8150,-79.7861,2.9502,21.9601,-96.6498,-8.6335,-3.0732,-62.2449,-53.4556,28.8491,153.0950,27.1938,-114.5293
-3742.1875,-155.6516,-134.9961,101.7155,69.8755,68.4678,153.0037,56.9659,0.9639,-48.8569,-26.7387,-4.6165,-30.1971,-50.6810,27.6712,-32.1915,-95.4674,96.5652,115.2220,-46.4292,-47.0694
-3734.3750,-108.9873,17.0410,39.8720,116.0627,43.3433,90.5643,-41.3574,-24.4330,-73.4813,-37.4232,-29.3803,17.6984,-75.2778,1.8637,-57.6833,-83.0409,143.7291,55.8024,0.4028,-35.1699
-3726.5625,-81.7686,-27.3771,67.5821,37.8015,144.7783,7.6790,22.8816,-71.2764,-8.5564,-38.4179,15.5144,-102.8641,-10.3329,-82.3963,43.3867,-165.0733,241.4403,-58.0683,97.7821,-7.7239
-3718.7500,51.3463,-69.8859,138.1835,-40.5511,177.1067,-144.3027,55.0208,-186.2129,98.2592,-47.1692,78.5720,-145.5276,22.5032,-123.7518,112.3566,-206.2192,270.0477,-65.0293,126.0617,-85.3822
-3710.9375,134.4158,11.5693,153.7312,42.0595,119.3837,-128.3256,71.1077,-170.1909,114.0168,-47.3959,80.7399,-93.2365,-34.7188,-145.1553,91.2735,-189.4314,212.5985,-88.0372,33.2891,-143.1012
-3703.1250,133.5309,10.0688,39.3269,74.7208,41.7147,-96.2915,140.2596,-138.1200,147.8219,-17.0740,16.3822,-98.8964,-111.9010,-113.5084,86.2513,-193.6080,211.2020,-88.9935,67.5702,-73.7752
-3695.3125,136.9973,12.9184,-29.7345,42.7387,-27.6052,-166.8978,143.7643,-60.6931,224.9656,58.3277,-15.0959,-169.2045,-107.7448,-110.5045,52.5772,-115.4349,145.1454,-85.5886,106.2040,-70.1130
-3687.5000,55.9015,2.2159,-78.3520,-37.7890,33.5251,-178.0390,241.7348,1.1950,250.5569,82.5577,-26.9117,-218.0629,-45.1492,-159.0498,114.3603,-126.8184,64.5337,-96.7319,131.2883,-45.0097
-3679.6875,-56.4081,-40.6939,-46.1731,-116.5137,102.4581,-220.3741,273.5238,-41.1184,245.9480,60.8909,-9.0346,-224.1231,60.2420,-201.7918,145.9492,-168.4256,58.7263,-68.0637,159.1794,-87.1167
-3671.8750,-7.9068,-27.7974,44.8125,-173.4295,193.2003,-203.9044,254.1268,-61.6342,190.1265,1.4561,68.4327,-209.3819,151.4275,-148.7315,162.3432,-187.2539,-33.2816,-159.5963,102.8651,-143.4391
-3664.0625,-41.7981,-133.2941,81.4007,-172.7358,192.5476,-130.8263,253.3358,-98.5528,79.8876,-34.6120,93.8839,-210.0357,188.2028,-76.0691,161.3417,-150.4961,-31.6938,-88.5220,104.1383,-107.1618
-3656.2500,-2.3432,-94.4267,88.3299,-133.6789,163.2383,-87.3895,149.8815,-128.1199,-97.0186,-99.3764,115.3768,-167.3264,196.3218,-33.0387,94.6836,-106.3943,43.2358,20.9166,72.7524,-173.5423
-3648.4375,33.3580,-59.3018,165.5081,-63.3582,203.1769,-10.6895,152.6800,-89.4350,-166.6840,-151.3681,170.1252,-128.3607,199.6809,-67.7552,60.2808,-213.0518,44.4075,21.6014,38.6082,-207.6801
-3640.6250,-21.5907,-79.8381,146.0350,-47.6924,183.4744,6.3539,132.8427,-72.4099,-150.0052,-135.6951,128.6085,-113.0464,143.3953,-14.1225,40.2448,-232.3806,24.9357,71.6323,89.8242,-227.4715
-3632.8125,-2.4753,-60.3215,95.6218,-28.9787,168.8308,-8.5596,82.0659,23.6592,-89.2862,-62.9839,102.4947,-127.6798,130.1606,-28.4447,26.2677,-135.6774,-60.4951,20.7085,109.0928,-278.2246
-3625.0000,-114.1629,-102.6007,48.4040,-36.0582,158.3890,54.7320,144.5003,49.9347,-63.3802,-20.1515,36.4164,-102.1060,82.1123,-40.5594,52.4967,-72.7835,-66.7377,14.9921,67.5539,-178.7809
-3617.1875,-80.9030,36.0823,-28.8712,-3.1807,81.8966,13.9762,67.8821,46.1602,-66.5439,-26.9859,-3.3610,-33.5772,43.0129,-7.7151,-25.3247,-75.9553,-33.0303,13.2379,65.9622,-145.4005
-3609.3750,65.3641,110.7766,11.8602,1.7140,85.4059,-55.7704,108.2675,-24.6113,11.2749,-43.5536,36.1807,-30.0484,9.9071,-77.8748,-22.1400,-145.1483,43.6756,-87.5167,36.3628,-105.0349
-3601.5625,152.6813,91.5177,-10.3596,-16.3349,25.9667,-116.4580,121.7106,-47.3378,26.1301,-40.9429,30.9227,19.5305,-49.1512,-64.9805,-44.8991,-131.3047,25.4339,-35.2175,17.8135,-17.6264
-3593.7500,174.7031,147.9636,-61.8796,5.3271,11.2302,-130.4433,33.8547,11.6398,11.6726,-28.1924,15.9738,3.8145,-63.5150,-80.3811,-59.9588,-108.7734,-22.1195,21.7861,4.9577,4.4682
-3585.9375,82.4713,126.1640,-85.6548,-17.2542,60.2414,-81.6656,118.7605,23.3707,-13.0488,-4.0575,-5.2241,-58.1431,-51.1432,-178.0198,-11.2583,-59.5016,-8.9355,35.5436,18.8414,53.3096
-3578.1250,-17.8681,95.2796,-114.5397,-47.9256,68.1499,-73.9829,53.5624,32.0046,-77.8883,-11.8643,-29.3554,-88.1886,-4.8826,-133.7466,34.3443,-13.3395,-2.8573,146.2119,23.6175,-11.9562
-3570.3125,-49.6946,27.9056,-67.9197,-44.0922,40.5582,8.1996,62.8630,114.1367,-68.2394,21.3213,-20.2789,-116.7304,3.8774,-88.9780,42.4598,-4.6996,-34.2789,114.3712,97.8962,-113.7343
-3562.5000,-96.7181,-125.6757,-8.4944,-91.4644,100.7789,68.1746,158.9863,100.0559,-8.7937,31.0043,1.0848,-168.4757,27.4414,-66.4133,65.3888,-54.2816,-10.8920,-3.6779,120.9822,-90.7200
-3554.6875,-63.9381,-92.4564,-12.2625,-94.0342,58.8012,26.9469,80.9142,57.7710,24.4422,23.6492,6.1772,-136.4192,59.8026,1.9600,60.1210,-22.0728,-82.7071,-75.9275,83.8651,-21.9202
-3546.8750,-171.1162,-165.1906,-55.9788,-131.5484,14.8744,55.7771,73.8999,124.5391,16.7174,58.4160,-54.2409,-107.3078,16.2062,30.3874,89.9133,7.1802,-119.4819,-43.1280,116.7950,80.9261
-3539.0625,-206.2491,-130.8751,-128.6475,-97.0112,-94.0058,92.6571,-0.0648,124.3597,-19.9683,68.4190,-129.5370,37.8545,-56.3441,140.8727,15.7616,118.4694,-154.2135,26.7312,46.7787,80.8148
-3531.2500,-112.2253,32.6094,-178.1679,31.6854,-180.7349,116.6916,-121.8789,148.3379,-67.5143,42.1875,-145.3017,135.1725,-104.7517,200.5089,-33.2332,142.8878,-199.8122,-19.2677,-35.0939,104.8467
-3523.4375,-125.8519,19.4484,-194.3485,18.7341,-197.1134,99.0757,-175.3275,93.6655,-47.7209,42.1079,-164.9396,153.8498,-121.8209,183.4996,-12.8676,125.6428,-73.0710,-32.9173,21.3811,161.2333
-3515.6250,-24.7784,48.9924,-194.8421,13.4854,-233.7977,25.1609,-249.0786,93.6939,-84.2408,46.4300,-148.3720,189.2381,-121.2006,219.2000,-50.8018,236.0897,-111.6358,-1.8525,-17.4421,87.3104
-3507.8125,28.0430,100.2858,-180.5850,30.9944,-294.7282,112.0032,-273.0684,180.4749,-108.0257,55.4697,-147.6399,165.3780,-180.8387,195.6467,-36.9761,249.2692,-164.4546,-55.0323,-70.5114,174.1224
-3500.0000,-3.1837,139.5248,-179.3731,34.4540,-255.7048,40.7946,-308.0887,108.2052,-142.8715,11.8017,-119.9394,129.4658,-105.5313,123.0437,-72.1939,177.3812,-54.3313,19.7358,-65.6266,248.8695
-3492.1875,59.2942,167.4659,-72.4579,61.6130,-148.9786,-73.7086,-275.3986,-5.3548,-146.0256,-58.0562,-33.5650,87.2543,-35.5336,45.1438,-39.7066,63.1826,9.4719,47.1971,-108.0384,171.3081
-3484.3750,-32.5920,109.0477,-56.9013,109.4174,-60.6038,-21.5566,-223.0405,-27.2633,-131.5306,-70.9241,-20.7547,28.6930,16.1079,-13.1036,-24.5568,5.6192,21.9197,131.3126,-164.7927,149.3996
-3476.5625,-92.1327,119.9800,-43.0005,190.5731,-82.8816,27.9416,-319.3305,22.1790,-190.6910,-75.8483,-26.7132,41.4851,30.0922,-0.9953,-48.0490,19.3940,-37.2858,141.7845,-154.1909,89.8279
-3468.7500,-86.9253,124.6652,-37.3489,195.4828,-77.4050,70.1928,-276.8542,101.3790,-148.1114,-48.4940,-29.6629,46.0299,-1.1814,-32.1399,-42.7801,-12.0974,-101.7489,112.0008,-148.8409,94.9960
-3460.9375,-127.6761,47.4047,-78.6533,119.4436,-119.8812,64.4975,-172.3224,58.6337,-116.4911,-47.3527,-50.0976,39.6358,30.5836,34.7749,-12.4573,-17.5504,-71.1765,106.2698,-119.4418,89.2123
-3453.1250,-71.8778,33.6982,-55.4136,104.9593,-95.8137,52.3521,-184.2463,46.4474,-92.3334,-43.3775,-23.0257,26.7998,55.8877,96.2495,-24.5838,7.5355,-120.0683,22.0916,-98.4894,39.9699
-3445.3125,-102.3860,-67.3133,-87.4819,38.1740,-92.0469,91.9124,-144.4545,48.9645,-88.4784,0.6862,-44.0247,28.6700,58.8866,135.4244,-21.9962,121.3049,-116.2654,25.6029,-58.8281,79.4206
-3437.5000,-97.1387,5.4282,-117.7996,43.1387,-122.5258,98.2133,-248.9040,55.2280,-155.8829,-5.4873,-72.4444,108.3014,28.6273,214.3544,-88.6511,200.8165,-146.7206,30.8546,-54.4179,48.6155
-3429.6875,88.9109,51.9772,-70.3203,-17.0964,-111.2042,72.3129,-200.5522,29.2921,-107.4965,-36.7099,2.7462,81.7405,40.1603,151.0860,-77.4981,102.1209,-135.3869,-98.0957,-43.2119,59.6130
-3421.8750,109.0985,35.6726,-85.6976,2.8191,-127.7394,55.5612,-180.0410,12.5073,-123.9725,-65.4649,4.1980,101.3380,23.8319,170.9734,-93.1868,48.5648,-114.9067,-8.8901,-91.8520,79.7637
-3414.0625,78.5423,110.6294,-115.8272,77.9884,-158.0310,99.0587,-247.2776,55.9740,-191.2102,-64.4040,-38.6897,180.1946,-43.2533,177.1134,-123.6205,92.2374,-109.1837,66.5673,-122.2421,49.1529
-3406.2500,43.9840,5.5854,-78.9527,43.1642,-84.3190,135.5614,-99.4979,-18.5593,-154.4610,-67.1084,-23.8841,106.0551,-42.3470,103.2468,-15.0429,17.8874,-3.4690,-2.9745,-16.6294,85.5408
-3398.4375,75.3144,0.4426,-46.1872,3.2448,-14.7045,21.9680,-66.8149,-58.1900,-119.8262,-58.3087,10.5731,28.8299,-8.5542,26.2876,-17.5668,15.4289,-7.8605,28.3943,14.8810,45.8226
-3390.6250,38.4914,69.1663,28.4198,37.1881,-14.2448,22.2288,-66.2780,53.0404,-120.3551,-37.3058,40.4494,-8.5339,29.0718,-47.8136,-17.2419,15.8167,-184.4188,26.6126,-21.7641,8.9451
-3382.8125,-134.9852,0.2457,-6.6324,3.4792,-12.4368,23.8395,-27.3762,164.6274,-82.5403,13.7933,-14.3753,-44.5447,31.0340,-83.5610,21.4392,-19.4571,-182.6405,133.1769,14.9464,10.4195
-3375.0000,-153.0121,-17.2198,-19.2439,-13.7825,10.8159,46.8919,32.9789,224.6714,-58.2776,47.3990,-23.2030,-95.0982,17.4363,-59.8546,-28.4235,-32.2883,-199.4297,117.1902,104.1161,-76.6615
-3367.1875,-151.4981,-157.1354,18.6873,-118.4989,86.6229,85.4958,218.9012,189.2742,16.5276,89.7397,-15.5519,-168.1000,-16.6190,-95.6001,9.2720,-30.5823,-127.6808,12.7546,210.8397,-75.1957
-3359.3750,-131.3905,-207.4482,-31.7896,-168.6097,72.0260,70.7045,241.4323,211.4779,38.9131,141.2538,-53.2691,-183.4929,-68.0863,-0.7363,-41.4284,101.7107,-177.3369,32.9305,196.1631,-90.1372
-3351.5625,-132.1805,-103.6527,-108.1687,-63.6133,-40.4729,142.0194,129.0584,319.7841,36.3809,176.3248,-134.4752,-75.7789,-180.4639,70.2386,-44.0271,209.1004,-317.9041,32.2084,54.5841,-55.9880
-3343.7500,-236.6281,-103.5130,-220.2076,-64.2590,-116.6274,138.6914,126.0417,279.4473,34.1894,157.5267,-197.4291,-5.7034,-145.5051,103.5714,26.7264,169.8339,-247.1312,32.8393,90.3538,14.5104
-3335.9375,-132.0296,-104.3143,-180.2060,-63.8503,-113.7412,31.4167,130.0666,173.1717,74.0390,114.7926,-136.1804,33.4342,-69.5095,106.9626,29.5247,99.6120,-177.3221,-72.4768,126.1795,-55.9452
-3328.1250,-11.9811,-90.6673,-130.7561,-14.9982,-101.4064,80.5913,179.5526,111.3499,50.3339,64.6435,-89.9617,82.0302,-94.0694,118.8006,78.7833,74.8271,-198.0691,-129.3548,34.4654,-6.9507
-3320.3125,1.2064,-6.8758,-154.1618,-2.0032,-197.9191,93.9078,82.2035,87.6743,-11.2293,49.5187,-123.4324,167.7850,-153.4845,167.7973,18.2022,124.1799,-148.6685,-45.0799,13.9080,42.1866
-3312.5000,32.4469,23.9780,-84.5232,-5.9472,-200.3834,90.2731,5.9075,121.0561,-13.7546,51.5414,-80.6639,90.5985,-119.8587,127.8485,15.6696,121.5741,-152.2319,-49.7601,9.3919,2.3628
-3304.6875,-76.3651,-119.2148,22.0607,-79.9360,-130.8979,49.5926,75.5697,116.3929,18.6634,76.9453,-54.0536,-24.6318,-87.2985,49.8558,48.0948,80.9075,-85.8536,-17.4901,76.8226,34.4909
-3296.8750,-95.0833,-174.2971,80.7287,-27.8232,-73.3240,-38.9915,23.3325,101.8350,4.1713,56.9255,-0.7293,-39.7439,8.3464,33.9732,-3.3724,28.3386,1.6088,-0.1161,94.3574,-54.2861
-3289.0625,73.7956,-6.7802,184.9878,-1.1170,30.8492,-81.9718,54.7071,-15.1142,-2.7232,-48.2071,97.8958,26.7466,38.5793,-45.3151,26.7758,-124.6328,-6.3415,-113.1498,15.5034,-97.4686
-3281.2500,191.9132,181.9775,198.4905,-23.1685,44.2743,-105.7116,68.3498,-111.8097,-25.3712,-105.6126,124.5368,76.4920,15.0606,-69.3529,-32.8158,-148.3692,41.9520,-99.9388,-76.0864,-84.3998
-3273.4375,308.0848,332.7837,174.0452,21.8262,19.7525,-93.4140,7.0461,-136.4584,-123.9677,-165.3315,154.2152,88.2896,27.5877,-21.3392,-57.3503,-136.0695,17.2900,-54.6862,-135.6225,-109.2864
-3265.6250,257.8497,282.1815,158.1948,41.4179,39.8341,-36.5210,64.3540,-153.5062,-140.9695,-156.1906,135.5603,70.6898,10.7071,-37.7235,-37.2733,-116.1753,73.2232,-34.8342,-115.5578,-89.5737
-3257.8125,273.1085,192.0859,103.8320,-48.4788,59.4080,-91.1247,84.1623,-171.0525,-48.4876,-122.2427,109.0678,89.6048,-6.6843,-19.5937,-18.6958,-133.7816,88.6445,-89.4752,5.9966,-144.3688
-3250.0000,287.0622,134.7022,118.1655,-104.6698,36.6790,-77.0239,171.6679,-119.8925,113.6830,-27.5625,85.2365,66.2358,-65.3856,-42.7563,32.5830,-82.6951,32.7552,-181.4227,55.2417,-130.4626
-3242.1875,133.4067,121.7186,-10.1058,-83.4670,-17.6498,-58.5312,154.5774,-101.3388,132.2493,10.1278,-14.4143,121.2743,-83.6897,13.4838,51.2699,-27.2199,-15.7378,-123.9737,76.8955,-38.1520
-3234.3750,170.3032,158.2893,-44.8267,-81.7202,-15.4275,-93.4960,83.0377,-99.2327,60.3589,-21.7939,-1.3023,159.8714,-44.4454,15.2739,17.5120,-25.2051,21.3047,-156.9782,79.1120,-36.3011
-3226.5625,221.3020,67.9568,81.5483,-100.8869,0.8993,-77.3610,136.6178,-192.0208,3.5652,-87.4643,82.4167,138.5767,8.8854,-5.8328,33.8628,-83.0968,143.4288,-174.8934,25.4341,-20.3485
-3218.7500,287.8945,169.2236,153.5024,35.5423,-38.1858,-116.6312,-12.2029,-231.2041,-72.6323,-118.1304,117.2091,172.8971,6.8015,27.6746,-79.1829,-11.3839,174.1448,-145.2100,-83.6359,-59.7991
-3210.9375,242.2378,229.2358,252.1972,95.7246,-12.5251,-128.1568,-134.2708,-169.6288,-121.0796,-133.3271,147.5113,197.9711,32.4608,-20.0656,-90.4711,-22.9199,129.6024,-154.7852,-163.9514,-34.5063
-3203.1250,85.3228,141.9914,196.6415,114.6544,4.8821,-109.9329,-115.5772,-151.2974,-138.7790,-130.2805,102.5556,177.7995,49.8606,-3.0522,-73.0047,-79.7072,183.7960,-65.6142,-109.5223,19.5428
-3195.3125,90.3107,112.6588,168.9738,120.4852,14.1786,-101.8131,-106.9953,-144.0676,-94.5957,-126.1477,103.5899,112.5446,58.1553,-31.1270,-26.6334,-144.5989,188.8794,10.4610,-68.1985,-45.5051
-3187.5000,65.4957,-18.4675,179.4998,94.5187,60.6774,-54.4921,14.7879,-96.6418,-10.2240,-66.4458,100.4080,48.5004,32.6388,-95.0001,20.9482,-134.3048,93.1616,-14.2586,-22.6750,-35.3520
-3179.6875,-19.4791,-68.7444,53.8702,9.4053,46.0258,-69.3266,36.4268,-37.3691,47.9911,-16.1071,25.0855,33.3101,17.9661,-36.0244,6.3832,-112.1660,43.2972,40.8779,32.7024,-50.3582
-3171.8750,-87.5061,-102.0642,21.1892,-23.7585,87.3238,-28.2127,115.0255,2.8624,52.1539,26.7698,-9.8336,0.0739,-14.7703,-69.0998,9.7680,-71.0779,10.3681,78.9596,106.0301,-83.4236
-3164.0625,-125.7956,-175.6372,-18.7509,-26.1757,83.3678,40.6497,221.3840,35.8489,48.0649,53.3948,-35.3487,-77.3965,-55.7663,-110.4183,6.9101,-75.2442,78.1785,111.7833,139.1088,-50.7323
-3156.2500,-79.6818,-165.8087,-5.2986,-51.2029,60.8091,17.9004,199.1419,50.2340,62.3757,71.2255,-15.2546,-137.4571,-41.3626,-96.3324,-16.5467,-61.0167,54.3836,122.0001,220.6008,-110.6442
-3148.4375,-74.9655,-231.3759,-36.2480,-81.6377,65.8538,59.7451,278.5089,92.2198,104.2850,107.3618,-23.1460,-169.9097,-36.3645,-128.6476,62.6035,-20.1932,-11.8291,56.8046,225.6898,-105.9492
-3140.6250,-222.0601,-202.7409,-116.0128,-87.8747,23.0882,53.7856,273.0709,159.4078,98.3869,131.2779,-106.5276,-65.1487,-42.1780,-24.7467,56.9545,47.8363,-122.8502,120.8136,148.9738,-112.0451
-3132.8125,-204.1049,-150.0506,-97.7395,-35.0573,41.3658,71.8716,217.6736,214.6441,79.5315,117.3906,-88.8812,-47.3240,-23.9492,-6.7875,75.3599,28.9180,-175.8232,32.8689,97.3091,-94.0975
-3125.0000,-134.8937,-187.1098,-31.2143,-72.9943,34.8965,65.2013,211.5422,134.1267,108.9251,88.7431,-37.8860,-18.2411,5.5280,-50.5871,69.0217,-14.7648,-72.5450,-39.8423,59.9019,9.1000
-3117.1875,-63.3209,-114.8095,10.6570,-34.5877,2.7744,-41.1352,32.7627,64.9613,76.6695,45.4361,-1.0575,23.2017,47.3480,-9.0362,0.0301,-10.1065,-33.9290,-36.2111,27.8500,-23.3547
-3109.3750,-6.7975,-94.5570,69.4702,-49.2380,25.5952,-55.5269,18.9386,14.7591,62.3729,21.5638,26.3839,44.6002,33.1026,-23.5392,22.9921,-24.4994,21.6249,-121.6376,48.7534,-37.8578
-3101.5625,-50.8883,-103.9060,97.6672,-58.4915,52.8126,-138.5240,46.5233,-31.0337,127.4773,34.3616,24.9014,35.4003,60.2495,-32.6423,50.3575,-33.4894,82.5703,-130.6573,40.0617,-46.9593
-3093.7500,-23.2382,-75.5050,53.6038,4.0033,45.7824,-181.7706,3.8571,-1.0691,120.3275,31.4620,14.7525,27.9578,53.1408,-2.9937,80.4820,-40.7280,40.2554,-137.9258,33.1190,-54.3149
-3085.9375,-101.0989,-152.6131,7.0390,-39.0053,73.2560,-118.5154,67.6947,-11.6075,146.6749,64.0287,-48.0984,55.0240,-30.4719,60.1619,71.1170,-14.4677,103.4282,-74.6948,61.6734,8.8388
-3078.1250,-111.1674,-163.9163,-37.7392,-13.2070,28.5213,-53.4626,-13.6801,-56.3455,101.8114,33.2022,-64.8698,45.9064,-38.2930,125.1318,26.5500,-22.4046,129.3920,91.3423,52.0277,-36.2064
-3070.3125,-87.0363,-175.0106,25.6769,45.7911,53.9822,45.7957,-60.8561,-66.8792,91.1488,20.0269,-19.2193,-38.0029,-11.9261,40.3047,52.1811,-33.1422,153.5468,80.5745,6.5816,-47.0503
-3062.5000,-157.1567,-175.3583,22.8357,9.5338,52.1907,79.7961,-63.2735,-69.6643,52.2396,42.1856,-44.2335,-4.1556,-14.8191,38.2246,13.5660,73.8638,116.4528,114.5543,5.8952,-13.1365
-3054.6875,-85.4764,-103.9072,-46.2103,47.0696,20.2035,47.5874,-94.8876,-64.6483,-16.8749,12.4348,-44.7611,0.5010,-9.9192,78.9482,-18.2467,78.6744,120.1511,118.3300,9.0165,-45.4240
-3046.8750,-80.2578,-168.9051,-40.7169,17.1507,61.7687,52.9293,22.0611,-59.0754,-11.4390,-3.9182,-23.9501,-31.2852,-4.4782,11.2234,24.4987,-25.9584,160.3792,123.6503,49.6831,-40.1528
-3039.0625,-30.4540,-155.2935,-22.6410,30.8279,79.9254,33.8687,2.5998,-40.8947,-30.4092,-20.0274,20.0273,-87.4594,49.5546,-8.8872,4.8412,-44.9833,139.1916,137.5769,28.9491,-96.2757
-3031.2500,13.2974,-75.7212,59.3685,39.4484,89.0210,5.7572,12.0836,4.2453,-21.4302,-0.8935,41.8795,-78.6740,21.5310,-73.0398,14.1360,-0.0524,112.9393,5.4502,-31.8308,-87.4489
-3023.4375,-1.3505,-56.5496,39.9685,24.6655,69.7125,-50.7559,30.1730,-52.0140,-4.8486,-15.2039,18.9650,-25.2800,2.1001,-56.5891,32.0358,-19.5240,132.2830,-9.0845,-47.0072,2.9807
-3015.6250,-4.9923,10.6341,36.5608,90.8809,-7.6024,-127.2806,-83.7460,-55.2709,28.7336,-26.5876,13.6019,8.1284,35.6638,13.8705,28.9344,-59.9885,128.6169,-48.6291,-50.1938,-0.5888
-3007.8125,-13.0859,-32.6207,62.6899,48.6471,18.6247,-137.2527,-20.1178,-100.9768,91.8611,-8.0666,23.9361,-39.9003,61.7668,-34.1162,129.3881,-33.8891,121.4829,-125.6310,-56.8380,62.4028
-3000.0000,66.9597,82.2849,34.9544,21.5669,-45.0077,-128.0852,-82.3517,-128.5295,27.1367,-43.3766,21.1595,43.2364,34.0156,12.0531,64.9913,12.3691,60.4908,-46.4880,-117.3340,71.5544
-2992.1875,181.9132,268.0896,-26.8881,32.3827,-105.7498,-80.0283,-143.6905,-116.1829,2.3180,-63.2765,-9.1944,128.2846,-63.8360,98.1285,3.4975,24.5248,-0.6060,-36.4576,-141.9211,46.6123
-2984.3750,144.7654,230.7843,-64.8358,30.0853,-107.5920,-9.0762,-108.1248,-117.9392,0.4034,-49.1968,-36.6242,163.2383,-101.7973,59.1080,-71.0915,22.5800,33.1984,32.4731,-107.5974,44.5785
-2976.5625,141.9668,227.8305,7.5583,62.1361,-73.0838,-9.7781,-182.2159,-119.3437,-37.1680,-64.5075,15.7195,88.5521,-30.4141,21.4462,-72.3368,21.9893,65.3509,29.7621,-110.9311,6.8960
-2968.7500,87.6666,67.3808,60.4465,7.6878,53.9273,43.0224,-56.8117,-176.2482,15.7562,-58.7570,52.8361,-5.6255,22.4664,-73.7162,17.9213,-36.0945,150.9932,10.5472,-59.7738,22.7214
-2960.9375,-19.0394,-75.4646,60.9284,-29.1635,127.5371,6.4173,18.1832,-212.5569,16.2757,-58.2578,45.7163,-42.1988,59.9439,-36.2718,18.7823,-72.5716,220.2325,78.9357,9.9814,-13.8458
-2953.1250,-9.4941,-30.0491,71.6499,50.2355,139.3955,54.0603,-6.5857,-128.6163,-8.9560,-46.4334,36.4822,-30.5145,-2.3355,-24.5747,-43.1041,-60.7960,159.7184,88.5734,-50.0124,-39.1633
-2945.3125,-72.8062,-93.4883,2.5132,22.7797,107.4045,131.8538,-2.1975,-13.5282,-78.0324,12.4060,-7.9728,-63.6702,-35.4697,-20.7305,-74.8359,54.1229,131.3573,131.3592,28.1468,38.6750
-2937.5000,-53.7093,-38.5238,-48.2339,6.7243,56.8083,81.0341,-52.4158,-27.0449,-128.7018,10.3856,-39.8111,-3.4184,-49.2067,75.5163,-89.1734,150.4370,80.4006,115.5369,47.7141,-12.0908
-2929.6875,-18.3533,-4.3092,-11.7336,5.9155,92.4603,7.4586,21.6203,-27.3092,-19.1102,6.7731,-9.1095,-3.9053,-12.6968,2.0153,-52.2632,39.9959,79.6913,-61.0473,12.5317,-12.6071
-2921.8750,-40.8066,-26.8828,-0.0479,-16.6924,105.3026,-90.9226,107.8528,-88.3748,103.6768,-2.0811,-11.1609,44.8268,-0.9976,-23.2677,-3.1516,-95.2348,93.1796,-116.4323,26.5459,36.0798
